SpectraSuite Data File
++++++++++++++++++++++++++++++++++++
Date: Mon Sep 30 18:12:19 GMT-05:00 2013
User: stostad
Dark Spectrum Present: No
Reference Spectrum Present: No
Number of Sampled Component Spectra: 1
Spectrometers: USB2+H05261
Integration Time (usec): 100000 (USB2+H05261)
Spectra Averaged: 1 (USB2+H05261)
Boxcar Smoothing: 0 (USB2+H05261)
Correct for Electrical Dark: No (USB2+H05261)
Strobe/Lamp Enabled: No (USB2+H05261)
Correct for Detector Non-linearity: No (USB2+H05261)
Correct for Stray Light: No (USB2+H05261)
Number of Pixels in Processed Spectrum: 2048
>>>>>Begin Processed Spectral Data<<<<<
365.73	131.07
365.92	131.07
366.12	131.07
366.32	107.66
366.52	70.22
366.72	102.98
366.91	16.38
367.11	44.47
367.31	60.85
367.51	28.09
367.70	4.68
367.90	0.00
368.10	0.00
368.30	35.11
368.49	0.00
368.69	0.00
368.89	4.68
369.09	2.34
369.28	53.83
369.48	30.43
369.68	18.72
369.87	63.19
370.07	23.41
370.27	53.83
370.47	119.37
370.66	77.24
370.86	93.62
371.06	142.77
371.25	166.18
371.45	79.58
371.65	177.88
371.84	173.20
372.04	100.64
372.24	126.39
372.44	133.41
372.63	203.63
372.83	245.76
373.03	91.28
373.22	159.16
373.42	154.48
373.62	163.84
373.81	117.03
374.01	159.16
374.21	177.88
374.40	173.20
374.60	210.65
374.79	163.84
374.99	191.92
375.19	184.90
375.38	124.05
375.58	201.29
375.78	166.18
375.97	259.80
376.17	229.37
376.37	161.50
376.56	124.05
376.76	140.43
376.95	182.56
377.15	234.05
377.35	187.24
377.54	170.86
377.74	154.48
377.93	210.65
378.13	262.14
378.33	189.58
378.52	93.62
378.72	198.95
378.91	124.05
379.11	154.48
379.31	161.50
379.50	135.75
379.70	135.75
379.89	212.99
380.09	152.13
380.28	166.18
380.48	142.77
380.68	168.52
380.87	196.60
381.07	119.37
381.26	187.24
381.46	180.22
381.65	198.95
381.85	175.54
382.04	142.77
382.24	191.92
382.43	294.91
382.63	168.52
382.83	227.03
383.02	227.03
383.22	117.03
383.41	210.65
383.61	140.43
383.80	229.37
384.00	180.22
384.19	135.75
384.39	217.67
384.58	126.39
384.78	191.92
384.97	152.13
385.17	187.24
385.36	138.09
385.56	194.26
385.75	119.37
385.95	191.92
386.14	194.26
386.34	149.79
386.53	182.56
386.72	168.52
386.92	210.65
387.11	149.79
387.31	114.69
387.50	140.43
387.70	177.88
387.89	177.88
388.09	114.69
388.28	229.37
388.48	138.09
388.67	126.39
388.86	135.75
389.06	205.97
389.25	173.20
389.45	175.54
389.64	154.48
389.84	250.44
390.03	156.82
390.22	196.60
390.42	184.90
390.61	210.65
390.81	168.52
391.00	142.77
391.19	175.54
391.39	177.88
391.58	189.58
391.78	119.37
391.97	238.73
392.16	180.22
392.36	194.26
392.55	156.82
392.75	210.65
392.94	215.33
393.13	198.95
393.33	196.60
393.52	154.48
393.71	229.37
393.91	177.88
394.10	140.43
394.29	180.22
394.49	152.13
394.68	177.88
394.88	180.22
395.07	231.71
395.26	152.13
395.46	124.05
395.65	191.92
395.84	210.65
396.04	248.10
396.23	110.01
396.42	152.13
396.62	98.30
396.81	198.95
397.00	215.33
397.19	210.65
397.39	140.43
397.58	182.56
397.77	124.05
397.97	194.26
398.16	184.90
398.35	149.79
398.55	135.75
398.74	152.13
398.93	140.43
399.12	98.30
399.32	86.60
399.51	140.43
399.70	196.60
399.90	170.86
400.09	147.45
400.28	170.86
400.47	159.16
400.67	138.09
400.86	182.56
401.05	187.24
401.24	126.39
401.44	161.50
401.63	152.13
401.82	187.24
402.01	194.26
402.21	149.79
402.40	98.30
402.59	175.54
402.78	145.11
402.97	175.54
403.17	205.97
403.36	149.79
403.55	161.50
403.74	191.92
403.93	184.90
404.13	215.33
404.32	198.95
404.51	189.58
404.70	283.20
404.89	163.84
405.09	220.01
405.28	145.11
405.47	191.92
405.66	117.03
405.85	175.54
406.05	84.26
406.24	187.24
406.43	224.69
406.62	147.45
406.81	227.03
407.00	212.99
407.20	124.05
407.39	121.71
407.58	168.52
407.77	128.73
407.96	210.65
408.15	133.41
408.34	182.56
408.54	215.33
408.73	163.84
408.92	205.97
409.11	147.45
409.30	187.24
409.49	117.03
409.68	154.48
409.87	175.54
410.07	163.84
410.26	231.71
410.45	133.41
410.64	95.96
410.83	170.86
411.02	180.22
411.21	184.90
411.40	177.88
411.59	177.88
411.78	159.16
411.98	154.48
412.17	91.28
412.36	187.24
412.55	229.37
412.74	222.35
412.93	187.24
413.12	77.24
413.31	191.92
413.50	205.97
413.69	175.54
413.88	212.99
414.07	203.63
414.26	175.54
414.45	175.54
414.64	201.29
414.83	205.97
415.02	191.92
415.22	170.86
415.41	191.92
415.60	175.54
415.79	234.05
415.98	196.60
416.17	147.45
416.36	189.58
416.55	149.79
416.74	124.05
416.93	156.82
417.12	166.18
417.31	187.24
417.50	203.63
417.69	184.90
417.88	222.35
418.07	161.50
418.26	149.79
418.45	182.56
418.64	255.12
418.83	205.97
419.02	205.97
419.21	154.48
419.39	182.56
419.58	37.45
419.77	229.37
419.96	105.32
420.15	189.58
420.34	145.11
420.53	173.20
420.72	196.60
420.91	227.03
421.10	208.31
421.29	166.18
421.48	243.42
421.67	234.05
421.86	220.01
422.05	175.54
422.24	194.26
422.43	177.88
422.61	135.75
422.80	117.03
422.99	236.39
423.18	140.43
423.37	140.43
423.56	245.76
423.75	161.50
423.94	154.48
424.13	95.96
424.32	180.22
424.50	212.99
424.69	131.07
424.88	196.60
425.07	189.58
425.26	201.29
425.45	191.92
425.64	124.05
425.83	131.07
426.01	299.59
426.20	184.90
426.39	208.31
426.58	182.56
426.77	273.84
426.96	149.79
427.15	189.58
427.33	138.09
427.52	198.95
427.71	173.20
427.90	224.69
428.09	198.95
428.28	166.18
428.46	191.92
428.65	184.90
428.84	175.54
429.03	222.35
429.22	196.60
429.40	147.45
429.59	152.13
429.78	196.60
429.97	182.56
430.16	161.50
430.34	133.41
430.53	189.58
430.72	180.22
430.91	170.86
431.10	126.39
431.28	133.41
431.47	201.29
431.66	177.88
431.85	163.84
432.03	170.86
432.22	175.54
432.41	119.37
432.60	201.29
432.79	161.50
432.97	196.60
433.16	227.03
433.35	182.56
433.54	100.64
433.72	124.05
433.91	234.05
434.10	126.39
434.28	191.92
434.47	166.18
434.66	222.35
434.85	212.99
435.03	257.46
435.22	404.91
435.41	395.55
435.59	402.57
435.78	210.65
435.97	250.44
436.16	166.18
436.34	163.84
436.53	215.33
436.72	161.50
436.90	168.52
437.09	161.50
437.28	177.88
437.46	154.48
437.65	138.09
437.84	163.84
438.02	241.08
438.21	154.48
438.40	168.52
438.58	119.37
438.77	191.92
438.96	229.37
439.14	248.10
439.33	196.60
439.52	220.01
439.70	198.95
439.89	278.52
440.08	205.97
440.26	238.73
440.45	205.97
440.63	180.22
440.82	194.26
441.01	215.33
441.19	187.24
441.38	189.58
441.57	220.01
441.75	198.95
441.94	184.90
442.12	236.39
442.31	152.13
442.50	166.18
442.68	135.75
442.87	170.86
443.05	177.88
443.24	194.26
443.43	184.90
443.61	248.10
443.80	189.58
443.98	184.90
444.17	208.31
444.35	311.29
444.54	262.14
444.73	227.03
444.91	205.97
445.10	198.95
445.28	117.03
445.47	215.33
445.65	175.54
445.84	187.24
446.02	245.76
446.21	170.86
446.39	156.82
446.58	182.56
446.77	215.33
446.95	177.88
447.14	215.33
447.32	276.18
447.51	269.16
447.69	212.99
447.88	224.69
448.06	215.33
448.25	170.86
448.43	154.48
448.62	168.52
448.80	182.56
448.99	255.12
449.17	264.48
449.36	194.26
449.54	222.35
449.73	191.92
449.91	191.92
450.10	189.58
450.28	264.48
450.46	259.80
450.65	198.95
450.83	255.12
451.02	208.31
451.20	135.75
451.39	161.50
451.57	168.52
451.76	205.97
451.94	257.46
452.13	245.76
452.31	236.39
452.49	198.95
452.68	159.16
452.86	208.31
453.05	269.16
453.23	210.65
453.42	208.31
453.60	201.29
453.78	175.54
453.97	198.95
454.15	220.01
454.34	161.50
454.52	238.73
454.70	224.69
454.89	210.65
455.07	229.37
455.26	259.80
455.44	248.10
455.62	159.16
455.81	201.29
455.99	203.63
456.17	198.95
456.36	149.79
456.54	163.84
456.73	236.39
456.91	173.20
457.09	196.60
457.28	238.73
457.46	173.20
457.64	220.01
457.83	182.56
458.01	198.95
458.19	194.26
458.38	184.90
458.56	212.99
458.74	173.20
458.93	86.60
459.11	187.24
459.29	212.99
459.48	170.86
459.66	210.65
459.84	217.67
460.03	191.92
460.21	231.71
460.39	159.16
460.57	238.73
460.76	133.41
460.94	154.48
461.12	245.76
461.31	259.80
461.49	243.42
461.67	224.69
461.85	201.29
462.04	182.56
462.22	674.07
462.40	205.97
462.59	231.71
462.77	177.88
462.95	210.65
463.13	166.18
463.32	194.26
463.50	257.46
463.68	147.45
463.86	175.54
464.05	255.12
464.23	168.52
464.41	252.78
464.59	198.95
464.78	196.60
464.96	177.88
465.14	138.09
465.32	175.54
465.50	140.43
465.69	180.22
465.87	191.92
466.05	142.77
466.23	161.50
466.41	205.97
466.60	208.31
466.78	161.50
466.96	184.90
467.14	161.50
467.32	271.50
467.51	299.59
467.69	201.29
467.87	262.14
468.05	224.69
468.23	189.58
468.41	259.80
468.60	161.50
468.78	238.73
468.96	168.52
469.14	201.29
469.32	166.18
469.50	161.50
469.69	121.71
469.87	198.95
470.05	220.01
470.23	220.01
470.41	140.43
470.59	161.50
470.77	170.86
470.95	182.56
471.14	215.33
471.32	203.63
471.50	173.20
471.68	166.18
471.86	241.08
472.04	231.71
472.22	182.56
472.40	149.79
472.58	168.52
472.77	163.84
472.95	168.52
473.13	231.71
473.31	280.86
473.49	224.69
473.67	100.64
473.85	182.56
474.03	135.75
474.21	170.86
474.39	194.26
474.57	217.67
474.75	121.71
474.93	229.37
475.12	142.77
475.30	184.90
475.48	201.29
475.66	119.37
475.84	210.65
476.02	163.84
476.20	180.22
476.38	187.24
476.56	283.20
476.74	227.03
476.92	238.73
477.10	177.88
477.28	243.42
477.46	203.63
477.64	201.29
477.82	152.13
478.00	159.16
478.18	205.97
478.36	191.92
478.54	205.97
478.72	173.20
478.90	222.35
479.08	133.41
479.26	177.88
479.44	252.78
479.62	224.69
479.80	229.37
479.98	142.77
480.16	196.60
480.34	159.16
480.52	212.99
480.70	203.63
480.88	168.52
481.06	145.11
481.24	74.90
481.41	245.76
481.59	159.16
481.77	205.97
481.95	236.39
482.13	271.50
482.31	257.46
482.49	170.86
482.67	196.60
482.85	161.50
483.03	170.86
483.21	224.69
483.39	224.69
483.57	184.90
483.74	159.16
483.92	285.55
484.10	163.84
484.28	205.97
484.46	266.82
484.64	154.48
484.82	231.71
485.00	182.56
485.18	168.52
485.35	198.95
485.53	250.44
485.71	191.92
485.89	212.99
486.07	227.03
486.25	325.33
486.43	189.58
486.61	222.35
486.78	248.10
486.96	145.11
487.14	217.67
487.32	215.33
487.50	243.42
487.68	210.65
487.85	222.35
488.03	212.99
488.21	229.37
488.39	243.42
488.57	290.23
488.75	222.35
488.92	507.90
489.10	231.71
489.28	215.33
489.46	212.99
489.64	187.24
489.81	182.56
489.99	283.20
490.17	128.73
490.35	299.59
490.53	255.12
490.70	215.33
490.88	203.63
491.06	147.45
491.24	266.82
491.41	196.60
491.59	159.16
491.77	187.24
491.95	133.41
492.13	227.03
492.30	180.22
492.48	217.67
492.66	229.37
492.84	215.33
493.01	241.08
493.19	147.45
493.37	210.65
493.54	278.52
493.72	135.75
493.90	203.63
494.08	187.24
494.25	187.24
494.43	243.42
494.61	203.63
494.79	210.65
494.96	154.48
495.14	290.23
495.32	227.03
495.49	271.50
495.67	224.69
495.85	196.60
496.02	191.92
496.20	210.65
496.38	220.01
496.55	177.88
496.73	210.65
496.91	168.52
497.09	180.22
497.26	201.29
497.44	203.63
497.62	229.37
497.79	220.01
497.97	243.42
498.14	191.92
498.32	236.39
498.50	245.76
498.67	187.24
498.85	241.08
499.03	201.29
499.20	187.24
499.38	149.79
499.56	243.42
499.73	217.67
499.91	243.42
500.08	168.52
500.26	215.33
500.44	196.60
500.61	234.05
500.79	224.69
500.97	234.05
501.14	170.86
501.32	208.31
501.49	262.14
501.67	285.55
501.84	189.58
502.02	175.54
502.20	243.42
502.37	241.08
502.55	224.69
502.72	159.16
502.90	205.97
503.07	166.18
503.25	224.69
503.43	201.29
503.60	241.08
503.78	236.39
503.95	189.58
504.13	215.33
504.30	149.79
504.48	168.52
504.65	241.08
504.83	227.03
505.01	276.18
505.18	205.97
505.36	196.60
505.53	290.23
505.71	173.20
505.88	163.84
506.06	166.18
506.23	243.42
506.41	177.88
506.58	238.73
506.76	201.29
506.93	220.01
507.11	203.63
507.28	161.50
507.46	198.95
507.63	182.56
507.81	210.65
507.98	215.33
508.16	177.88
508.33	191.92
508.50	212.99
508.68	147.45
508.85	159.16
509.03	166.18
509.20	191.92
509.38	203.63
509.55	255.12
509.73	208.31
509.90	220.01
510.08	156.82
510.25	259.80
510.42	117.03
510.60	161.50
510.77	220.01
510.95	304.27
511.12	166.18
511.30	187.24
511.47	121.71
511.64	184.90
511.82	124.05
511.99	257.46
512.17	245.76
512.34	166.18
512.51	161.50
512.69	220.01
512.86	177.88
513.04	201.29
513.21	102.98
513.38	138.09
513.56	217.67
513.73	271.50
513.90	196.60
514.08	241.08
514.25	259.80
514.43	229.37
514.60	180.22
514.77	198.95
514.95	161.50
515.12	149.79
515.29	217.67
515.47	208.31
515.64	210.65
515.81	156.82
515.99	182.56
516.16	187.24
516.33	198.95
516.51	177.88
516.68	105.32
516.85	131.07
517.03	152.13
517.20	180.22
517.37	189.58
517.54	245.76
517.72	121.71
517.89	187.24
518.06	215.33
518.24	297.25
518.41	290.23
518.58	161.50
518.75	220.01
518.93	168.52
519.10	182.56
519.27	170.86
519.45	250.44
519.62	236.39
519.79	180.22
519.96	175.54
520.14	175.54
520.31	198.95
520.48	220.01
520.65	210.65
520.83	238.73
521.00	255.12
521.17	184.90
521.34	220.01
521.52	177.88
521.69	208.31
521.86	173.20
522.03	236.39
522.20	203.63
522.38	168.52
522.55	257.46
522.72	117.03
522.89	229.37
523.07	245.76
523.24	191.92
523.41	203.63
523.58	175.54
523.75	152.13
523.92	175.54
524.10	236.39
524.27	170.86
524.44	194.26
524.61	210.65
524.78	203.63
524.96	231.71
525.13	194.26
525.30	285.55
525.47	257.46
525.64	128.73
525.81	236.39
525.98	147.45
526.16	210.65
526.33	203.63
526.50	142.77
526.67	189.58
526.84	180.22
527.01	117.03
527.18	117.03
527.36	210.65
527.53	217.67
527.70	208.31
527.87	173.20
528.04	245.76
528.21	222.35
528.38	222.35
528.55	184.90
528.72	205.97
528.89	273.84
529.07	257.46
529.24	201.29
529.41	234.05
529.58	191.92
529.75	187.24
529.92	182.56
530.09	182.56
530.26	266.82
530.43	217.67
530.60	182.56
530.77	159.16
530.94	177.88
531.11	194.26
531.28	63.19
531.46	135.75
531.63	135.75
531.80	243.42
531.97	182.56
532.14	194.26
532.31	203.63
532.48	231.71
532.65	189.58
532.82	182.56
532.99	196.60
533.16	276.18
533.33	168.52
533.50	220.01
533.67	203.63
533.84	222.35
534.01	245.76
534.18	147.45
534.35	220.01
534.52	187.24
534.69	205.97
534.86	205.97
535.03	227.03
535.20	191.92
535.37	292.57
535.54	191.92
535.71	238.73
535.88	154.48
536.05	168.52
536.22	152.13
536.38	201.29
536.55	262.14
536.72	191.92
536.89	227.03
537.06	184.90
537.23	215.33
537.40	290.23
537.57	220.01
537.74	196.60
537.91	259.80
538.08	191.92
538.25	241.08
538.42	245.76
538.59	231.71
538.75	276.18
538.92	266.82
539.09	255.12
539.26	220.01
539.43	292.57
539.60	294.91
539.77	332.36
539.94	318.31
540.11	308.95
540.28	358.10
540.44	332.36
540.61	339.38
540.78	358.10
540.95	418.96
541.12	482.15
541.29	379.17
541.46	447.04
541.62	404.91
541.79	493.85
541.96	411.93
542.13	390.87
542.30	332.36
542.47	362.78
542.63	360.44
542.80	341.72
542.97	346.40
543.14	280.86
543.31	383.85
543.48	369.80
543.64	390.87
543.81	299.59
543.98	402.57
544.15	327.68
544.32	294.91
544.48	358.10
544.65	365.12
544.82	355.76
544.99	372.15
545.16	449.38
545.32	500.87
545.49	697.48
545.66	819.19
545.83	765.36
546.00	543.00
546.16	386.19
546.33	320.65
546.50	360.44
546.67	358.10
546.83	344.06
547.00	322.99
547.17	273.84
547.34	264.48
547.50	313.63
547.67	292.57
547.84	224.69
548.00	327.68
548.17	325.33
548.34	299.59
548.51	332.36
548.67	297.25
548.84	224.69
549.01	334.70
549.18	283.20
549.34	315.97
549.51	252.78
549.68	273.84
549.84	327.68
550.01	227.03
550.18	299.59
550.34	304.27
550.51	257.46
550.68	266.82
550.84	210.65
551.01	266.82
551.18	175.54
551.34	187.24
551.51	337.04
551.68	255.12
551.84	224.69
552.01	222.35
552.18	198.95
552.34	280.86
552.51	212.99
552.68	287.89
552.84	280.86
553.01	210.65
553.18	266.82
553.34	184.90
553.51	257.46
553.67	292.57
553.84	311.29
554.01	196.60
554.17	234.05
554.34	184.90
554.51	248.10
554.67	290.23
554.84	203.63
555.00	273.84
555.17	198.95
555.33	208.31
555.50	243.42
555.67	215.33
555.83	124.05
556.00	220.01
556.16	393.21
556.33	210.65
556.50	238.73
556.66	220.01
556.83	264.48
556.99	170.86
557.16	227.03
557.32	220.01
557.49	250.44
557.65	177.88
557.82	194.26
557.98	208.31
558.15	168.52
558.32	241.08
558.48	198.95
558.65	269.16
558.81	229.37
558.98	231.71
559.14	222.35
559.31	234.05
559.47	205.97
559.64	184.90
559.80	205.97
559.97	222.35
560.13	257.46
560.30	196.60
560.46	175.54
560.63	252.78
560.79	182.56
560.96	168.52
561.12	250.44
561.29	231.71
561.45	236.39
561.61	266.82
561.78	276.18
561.94	259.80
562.11	208.31
562.27	245.76
562.44	191.92
562.60	194.26
562.77	142.77
562.93	264.48
563.10	259.80
563.26	163.84
563.42	262.14
563.59	208.31
563.75	191.92
563.92	229.37
564.08	189.58
564.24	231.71
564.41	269.16
564.57	149.79
564.74	234.05
564.90	173.20
565.07	224.69
565.23	110.01
565.39	175.54
565.56	238.73
565.72	224.69
565.88	231.71
566.05	220.01
566.21	205.97
566.38	201.29
566.54	173.20
566.70	166.18
566.87	205.97
567.03	208.31
567.19	194.26
567.36	117.03
567.52	128.73
567.68	227.03
567.85	255.12
568.01	152.13
568.17	208.31
568.34	203.63
568.50	273.84
568.66	198.95
568.83	271.50
568.99	201.29
569.15	245.76
569.32	266.82
569.48	236.39
569.64	163.84
569.81	180.22
569.97	229.37
570.13	175.54
570.30	229.37
570.46	222.35
570.62	117.03
570.78	191.92
570.95	175.54
571.11	177.88
571.27	299.59
571.43	205.97
571.60	245.76
571.76	257.46
571.92	217.67
572.09	166.18
572.25	182.56
572.41	194.26
572.57	208.31
572.74	187.24
572.90	187.24
573.06	161.50
573.22	262.14
573.38	203.63
573.55	212.99
573.71	170.86
573.87	220.01
574.03	212.99
574.20	231.71
574.36	262.14
574.52	210.65
574.68	133.41
574.84	175.54
575.01	203.63
575.17	203.63
575.33	166.18
575.49	248.10
575.65	182.56
575.82	154.48
575.98	250.44
576.14	250.44
576.30	212.99
576.46	259.80
576.62	278.52
576.79	360.44
576.95	269.16
577.11	194.26
577.27	262.14
577.43	248.10
577.59	212.99
577.75	231.71
577.92	203.63
578.08	236.39
578.24	177.88
578.40	301.93
578.56	334.70
578.72	318.31
578.88	255.12
579.04	210.65
579.21	290.23
579.37	205.97
579.53	203.63
579.69	187.24
579.85	351.08
580.01	229.37
580.17	198.95
580.33	198.95
580.49	163.84
580.65	236.39
580.82	241.08
580.98	215.33
581.14	259.80
581.30	203.63
581.46	212.99
581.62	248.10
581.78	280.86
581.94	276.18
582.10	154.48
582.26	191.92
582.42	245.76
582.58	220.01
582.74	241.08
582.90	285.55
583.06	227.03
583.22	243.42
583.38	161.50
583.54	163.84
583.70	313.63
583.86	311.29
584.02	222.35
584.18	243.42
584.34	170.86
584.50	222.35
584.66	201.29
584.82	252.78
584.98	236.39
585.14	287.89
585.30	269.16
585.46	264.48
585.62	266.82
585.78	259.80
585.94	231.71
586.10	184.90
586.26	196.60
586.42	276.18
586.58	308.95
586.74	283.20
586.90	229.37
587.06	243.42
587.22	243.42
587.38	227.03
587.54	266.82
587.70	292.57
587.86	234.05
588.02	276.18
588.18	271.50
588.34	243.42
588.49	266.82
588.65	201.29
588.81	184.90
588.97	142.77
589.13	173.20
589.29	198.95
589.45	222.35
589.61	177.88
589.77	208.31
589.93	210.65
590.08	175.54
590.24	149.79
590.40	227.03
590.56	217.67
590.72	220.01
590.88	229.37
591.04	266.82
591.20	222.35
591.35	266.82
591.51	220.01
591.67	264.48
591.83	231.71
591.99	227.03
592.15	269.16
592.31	280.86
592.46	191.92
592.62	299.59
592.78	252.78
592.94	264.48
593.10	238.73
593.26	238.73
593.41	229.37
593.57	212.99
593.73	224.69
593.89	250.44
594.05	147.45
594.20	229.37
594.36	264.48
594.52	189.58
594.68	241.08
594.84	355.76
594.99	255.12
595.15	180.22
595.31	278.52
595.47	280.86
595.62	245.76
595.78	180.22
595.94	255.12
596.10	205.97
596.25	238.73
596.41	271.50
596.57	205.97
596.73	259.80
596.88	191.92
597.04	215.33
597.20	163.84
597.36	243.42
597.51	154.48
597.67	159.16
597.83	203.63
597.99	241.08
598.14	294.91
598.30	196.60
598.46	215.33
598.61	248.10
598.77	290.23
598.93	245.76
599.09	287.89
599.24	320.65
599.40	262.14
599.56	245.76
599.71	175.54
599.87	241.08
600.03	271.50
600.18	201.29
600.34	212.99
600.50	184.90
600.65	231.71
600.81	264.48
600.97	196.60
601.12	250.44
601.28	224.69
601.44	205.97
601.59	234.05
601.75	238.73
601.91	175.54
602.06	203.63
602.22	283.20
602.37	222.35
602.53	285.55
602.69	217.67
602.84	264.48
603.00	201.29
603.16	224.69
603.31	231.71
603.47	264.48
603.62	180.22
603.78	149.79
603.94	238.73
604.09	173.20
604.25	227.03
604.40	243.42
604.56	212.99
604.71	189.58
604.87	236.39
605.03	252.78
605.18	121.71
605.34	224.69
605.49	217.67
605.65	276.18
605.80	248.10
605.96	217.67
606.12	217.67
606.27	222.35
606.43	210.65
606.58	250.44
606.74	234.05
606.89	220.01
607.05	248.10
607.20	177.88
607.36	327.68
607.51	166.18
607.67	266.82
607.82	222.35
607.98	320.65
608.13	259.80
608.29	205.97
608.44	266.82
608.60	180.22
608.75	283.20
608.91	220.01
609.06	220.01
609.22	318.31
609.37	299.59
609.53	327.68
609.68	379.17
609.84	341.72
609.99	440.02
610.15	411.93
610.30	554.71
610.46	596.84
610.61	767.70
610.76	774.72
610.92	755.99
611.07	702.16
611.23	767.70
611.38	627.26
611.54	582.79
611.69	440.02
611.84	440.02
612.00	369.80
612.15	297.25
612.31	330.02
612.46	360.44
612.62	308.95
612.77	315.97
612.92	344.06
613.08	390.87
613.23	393.21
613.39	372.15
613.54	332.36
613.69	264.48
613.85	341.72
614.00	292.57
614.15	278.52
614.31	306.61
614.46	269.16
614.62	273.84
614.77	313.63
614.92	234.05
615.08	283.20
615.23	278.52
615.38	212.99
615.54	285.55
615.69	299.59
615.84	215.33
616.00	287.89
616.15	212.99
616.30	198.95
616.46	250.44
616.61	217.67
616.76	255.12
616.92	198.95
617.07	156.82
617.22	224.69
617.37	245.76
617.53	231.71
617.68	198.95
617.83	224.69
617.99	280.86
618.14	231.71
618.29	287.89
618.45	243.42
618.60	252.78
618.75	234.05
618.90	231.71
619.06	257.46
619.21	278.52
619.36	205.97
619.51	191.92
619.67	241.08
619.82	238.73
619.97	110.01
620.12	266.82
620.28	243.42
620.43	224.69
620.58	205.97
620.73	191.92
620.89	269.16
621.04	208.31
621.19	311.29
621.34	292.57
621.49	245.76
621.65	196.60
621.80	191.92
621.95	191.92
622.10	231.71
622.25	215.33
622.41	243.42
622.56	212.99
622.71	201.29
622.86	234.05
623.01	245.76
623.16	266.82
623.32	198.95
623.47	161.50
623.62	273.84
623.77	215.33
623.92	215.33
624.07	210.65
624.23	212.99
624.38	215.33
624.53	231.71
624.68	276.18
624.83	248.10
624.98	276.18
625.13	271.50
625.29	236.39
625.44	145.11
625.59	227.03
625.74	241.08
625.89	159.16
626.04	273.84
626.19	278.52
626.34	182.56
626.49	224.69
626.65	243.42
626.80	194.26
626.95	241.08
627.10	166.18
627.25	273.84
627.40	184.90
627.55	212.99
627.70	175.54
627.85	196.60
628.00	217.67
628.15	154.48
628.30	220.01
628.45	224.69
628.60	283.20
628.76	238.73
628.91	182.56
629.06	229.37
629.21	201.29
629.36	252.78
629.51	205.97
629.66	229.37
629.81	191.92
629.96	234.05
630.11	229.37
630.26	245.76
630.41	215.33
630.56	283.20
630.71	236.39
630.86	243.42
631.01	184.90
631.16	175.54
631.31	313.63
631.46	271.50
631.61	210.65
631.76	205.97
631.91	227.03
632.06	287.89
632.21	222.35
632.36	250.44
632.51	264.48
632.66	191.92
632.81	208.31
632.96	227.03
633.10	212.99
633.25	245.76
633.40	248.10
633.55	184.90
633.70	220.01
633.85	229.37
634.00	177.88
634.15	145.11
634.30	140.43
634.45	248.10
634.60	182.56
634.75	187.24
634.90	205.97
635.05	203.63
635.19	170.86
635.34	159.16
635.49	159.16
635.64	175.54
635.79	126.39
635.94	154.48
636.09	217.67
636.24	212.99
636.39	131.07
636.53	273.84
636.68	212.99
636.83	203.63
636.98	215.33
637.13	231.71
637.28	229.37
637.43	201.29
637.57	210.65
637.72	212.99
637.87	208.31
638.02	203.63
638.17	280.86
638.32	203.63
638.46	210.65
638.61	191.92
638.76	161.50
638.91	205.97
639.06	248.10
639.20	231.71
639.35	229.37
639.50	201.29
639.65	196.60
639.80	194.26
639.94	191.92
640.09	252.78
640.24	177.88
640.39	248.10
640.54	259.80
640.68	170.86
640.83	236.39
640.98	182.56
641.13	154.48
641.27	154.48
641.42	238.73
641.57	264.48
641.72	266.82
641.86	173.20
642.01	187.24
642.16	231.71
642.31	177.88
642.45	236.39
642.60	117.03
642.75	212.99
642.90	210.65
643.04	205.97
643.19	194.26
643.34	229.37
643.48	217.67
643.63	259.80
643.78	234.05
643.93	234.05
644.07	110.01
644.22	210.65
644.37	187.24
644.51	191.92
644.66	238.73
644.81	212.99
644.95	229.37
645.10	180.22
645.25	105.32
645.39	252.78
645.54	161.50
645.69	252.78
645.83	191.92
645.98	278.52
646.13	215.33
646.27	191.92
646.42	231.71
646.57	224.69
646.71	131.07
646.86	212.99
647.00	156.82
647.15	248.10
647.30	189.58
647.44	156.82
647.59	187.24
647.74	117.03
647.88	201.29
648.03	212.99
648.17	196.60
648.32	196.60
648.47	217.67
648.61	177.88
648.76	140.43
648.90	187.24
649.05	231.71
649.20	215.33
649.34	201.29
649.49	177.88
649.63	273.84
649.78	159.16
649.92	224.69
650.07	154.48
650.21	198.95
650.36	252.78
650.51	238.73
650.65	191.92
650.80	198.95
650.94	175.54
651.09	222.35
651.23	229.37
651.38	147.45
651.52	198.95
651.67	145.11
651.81	222.35
651.96	224.69
652.10	271.50
652.25	245.76
652.39	205.97
652.54	220.01
652.68	255.12
652.83	170.86
652.97	205.97
653.12	231.71
653.26	222.35
653.41	187.24
653.55	220.01
653.70	187.24
653.84	222.35
653.99	184.90
654.13	191.92
654.27	224.69
654.42	117.03
654.56	163.84
654.71	241.08
654.85	159.16
655.00	161.50
655.14	170.86
655.29	154.48
655.43	180.22
655.57	208.31
655.72	159.16
655.86	217.67
656.01	215.33
656.15	238.73
656.30	276.18
656.44	191.92
656.58	205.97
656.73	224.69
656.87	212.99
657.01	217.67
657.16	241.08
657.30	248.10
657.45	187.24
657.59	222.35
657.73	145.11
657.88	159.16
658.02	252.78
658.16	119.37
658.31	229.37
658.45	180.22
658.60	84.26
658.74	126.39
658.88	229.37
659.03	212.99
659.17	173.20
659.31	177.88
659.46	142.77
659.60	175.54
659.74	175.54
659.89	210.65
660.03	234.05
660.17	264.48
660.32	257.46
660.46	159.16
660.60	196.60
660.74	145.11
660.89	224.69
661.03	236.39
661.17	145.11
661.32	194.26
661.46	210.65
661.60	175.54
661.74	205.97
661.89	194.26
662.03	241.08
662.17	208.31
662.31	196.60
662.46	138.09
662.60	177.88
662.74	224.69
662.88	264.48
663.03	224.69
663.17	140.43
663.31	273.84
663.45	215.33
663.60	166.18
663.74	227.03
663.88	170.86
664.02	170.86
664.17	166.18
664.31	224.69
664.45	212.99
664.59	138.09
664.73	196.60
664.88	205.97
665.02	189.58
665.16	191.92
665.30	196.60
665.44	241.08
665.59	194.26
665.73	231.71
665.87	135.75
666.01	208.31
666.15	203.63
666.29	205.97
666.44	243.42
666.58	180.22
666.72	173.20
666.86	215.33
667.00	208.31
667.14	140.43
667.28	196.60
667.43	133.41
667.57	201.29
667.71	236.39
667.85	201.29
667.99	131.07
668.13	238.73
668.27	201.29
668.41	250.44
668.56	191.92
668.70	177.88
668.84	236.39
668.98	222.35
669.12	102.98
669.26	198.95
669.40	243.42
669.54	227.03
669.68	215.33
669.82	98.30
669.96	238.73
670.10	191.92
670.25	252.78
670.39	168.52
670.53	196.60
670.67	201.29
670.81	205.97
670.95	198.95
671.09	201.29
671.23	196.60
671.37	222.35
671.51	222.35
671.65	180.22
671.79	245.76
671.93	212.99
672.07	269.16
672.21	273.84
672.35	180.22
672.49	210.65
672.63	257.46
672.77	220.01
672.91	252.78
673.05	220.01
673.19	252.78
673.33	131.07
673.47	194.26
673.61	184.90
673.75	212.99
673.89	128.73
674.03	126.39
674.17	128.73
674.31	121.71
674.45	201.29
674.59	182.56
674.73	205.97
674.87	175.54
675.01	173.20
675.15	170.86
675.29	215.33
675.43	229.37
675.56	248.10
675.70	212.99
675.84	212.99
675.98	245.76
676.12	217.67
676.26	250.44
676.40	215.33
676.54	184.90
676.68	205.97
676.82	201.29
676.96	142.77
677.10	229.37
677.23	262.14
677.37	191.92
677.51	187.24
677.65	243.42
677.79	191.92
677.93	175.54
678.07	245.76
678.21	212.99
678.34	196.60
678.48	194.26
678.62	163.84
678.76	177.88
678.90	170.86
679.04	121.71
679.18	222.35
679.31	191.92
679.45	252.78
679.59	147.45
679.73	191.92
679.87	194.26
680.00	236.39
680.14	220.01
680.28	149.79
680.42	187.24
680.56	196.60
680.70	210.65
680.83	208.31
680.97	140.43
681.11	161.50
681.25	170.86
681.39	241.08
681.52	250.44
681.66	131.07
681.80	271.50
681.94	149.79
682.07	229.37
682.21	152.13
682.35	161.50
682.49	189.58
682.62	159.16
682.76	138.09
682.90	189.58
683.04	313.63
683.17	182.56
683.31	182.56
683.45	166.18
683.59	222.35
683.72	220.01
683.86	215.33
684.00	257.46
684.13	325.33
684.27	191.92
684.41	210.65
684.55	175.54
684.68	140.43
684.82	238.73
684.96	217.67
685.09	189.58
685.23	126.39
685.37	196.60
685.50	201.29
685.64	177.88
685.78	168.52
685.91	191.92
686.05	138.09
686.19	227.03
686.32	203.63
686.46	166.18
686.60	224.69
686.73	224.69
686.87	252.78
687.01	173.20
687.14	212.99
687.28	201.29
687.42	229.37
687.55	234.05
687.69	301.93
687.82	198.95
687.96	198.95
688.10	182.56
688.23	304.27
688.37	269.16
688.50	198.95
688.64	126.39
688.78	133.41
688.91	241.08
689.05	196.60
689.18	147.45
689.32	175.54
689.46	173.20
689.59	156.82
689.73	187.24
689.86	257.46
690.00	159.16
690.13	215.33
690.27	170.86
690.41	196.60
690.54	222.35
690.68	154.48
690.81	189.58
690.95	229.37
691.08	201.29
691.22	154.48
691.35	168.52
691.49	184.90
691.62	173.20
691.76	248.10
691.89	196.60
692.03	173.20
692.16	222.35
692.30	159.16
692.43	245.76
692.57	131.07
692.70	170.86
692.84	168.52
692.97	163.84
693.11	163.84
693.24	168.52
693.38	182.56
693.51	168.52
693.65	173.20
693.78	196.60
693.92	180.22
694.05	198.95
694.19	154.48
694.32	196.60
694.45	173.20
694.59	149.79
694.72	198.95
694.86	117.03
694.99	257.46
695.13	252.78
695.26	156.82
695.39	177.88
695.53	245.76
695.66	170.86
695.80	262.14
695.93	241.08
696.07	128.73
696.20	187.24
696.33	112.35
696.47	163.84
696.60	196.60
696.73	196.60
696.87	117.03
697.00	285.55
697.14	138.09
697.27	238.73
697.40	212.99
697.54	142.77
697.67	182.56
697.80	210.65
697.94	201.29
698.07	170.86
698.21	163.84
698.34	203.63
698.47	198.95
698.61	121.71
698.74	145.11
698.87	208.31
699.01	114.69
699.14	147.45
699.27	229.37
699.40	290.23
699.54	175.54
699.67	182.56
699.80	161.50
699.94	173.20
700.07	201.29
700.20	198.95
700.34	215.33
700.47	79.58
700.60	259.80
700.73	131.07
700.87	159.16
701.00	229.37
701.13	177.88
701.26	177.88
701.40	175.54
701.53	196.60
701.66	117.03
701.79	198.95
701.93	156.82
702.06	229.37
702.19	121.71
702.32	250.44
702.46	180.22
702.59	175.54
702.72	177.88
702.85	236.39
702.99	205.97
703.12	224.69
703.25	208.31
703.38	187.24
703.51	205.97
703.65	163.84
703.78	217.67
703.91	196.60
704.04	191.92
704.17	119.37
704.31	159.16
704.44	210.65
704.57	159.16
704.70	205.97
704.83	198.95
704.96	170.86
705.10	252.78
705.23	121.71
>>>>>End Processed Spectral Data<<<<<
