SpectraSuite Data File
++++++++++++++++++++++++++++++++++++
Date: Fri Oct 04 11:51:08 GMT-05:00 2013
User: price-jones
Dark Spectrum Present: No
Reference Spectrum Present: No
Number of Sampled Component Spectra: 1
Spectrometers: USB2+H05261
Integration Time (usec): 100000 (USB2+H05261)
Spectra Averaged: 1 (USB2+H05261)
Boxcar Smoothing: 0 (USB2+H05261)
Correct for Electrical Dark: No (USB2+H05261)
Strobe/Lamp Enabled: No (USB2+H05261)
Correct for Detector Non-linearity: No (USB2+H05261)
Correct for Stray Light: No (USB2+H05261)
Number of Pixels in Processed Spectrum: 2048
>>>>>Begin Processed Spectral Data<<<<<
365.73	30.43
365.92	30.43
366.12	30.43
366.32	0.00
366.52	0.00
366.72	0.00
366.91	0.00
367.11	0.00
367.31	0.00
367.51	0.00
367.70	0.00
367.90	0.00
368.10	0.00
368.30	0.00
368.49	0.00
368.69	0.00
368.89	0.00
369.09	0.00
369.28	0.00
369.48	0.00
369.68	0.00
369.87	0.00
370.07	0.00
370.27	0.00
370.47	0.00
370.66	11.70
370.86	58.51
371.06	32.77
371.25	98.30
371.45	30.43
371.65	79.58
371.84	35.11
372.04	0.00
372.24	25.75
372.44	74.90
372.63	60.85
372.83	126.39
373.03	72.56
373.22	84.26
373.42	152.13
373.62	110.01
373.81	102.98
374.01	91.28
374.21	46.81
374.40	114.69
374.60	46.81
374.79	70.22
374.99	42.13
375.19	23.41
375.38	102.98
375.58	121.71
375.78	91.28
375.97	140.43
376.17	60.85
376.37	30.43
376.56	91.28
376.76	44.47
376.95	30.43
377.15	161.50
377.35	81.92
377.54	65.54
377.74	91.28
377.93	49.15
378.13	56.17
378.33	142.77
378.52	145.11
378.72	128.73
378.91	84.26
379.11	49.15
379.31	93.62
379.50	65.54
379.70	100.64
379.89	63.19
380.09	46.81
380.28	32.77
380.48	67.88
380.68	51.49
380.87	39.79
381.07	44.47
381.26	147.45
381.46	58.51
381.65	110.01
381.85	74.90
382.04	84.26
382.24	93.62
382.43	58.51
382.63	65.54
382.83	58.51
383.02	107.66
383.22	58.51
383.41	9.36
383.61	70.22
383.80	35.11
384.00	67.88
384.19	49.15
384.39	46.81
384.58	81.92
384.78	86.60
384.97	84.26
385.17	102.98
385.36	93.62
385.56	126.39
385.75	49.15
385.95	0.00
386.14	72.56
386.34	117.03
386.53	46.81
386.72	44.47
386.92	114.69
387.11	110.01
387.31	46.81
387.50	105.32
387.70	84.26
387.89	35.11
388.09	79.58
388.28	2.34
388.48	79.58
388.67	70.22
388.86	58.51
389.06	46.81
389.25	53.83
389.45	21.06
389.64	112.35
389.84	147.45
390.03	124.05
390.22	51.49
390.42	102.98
390.61	0.00
390.81	56.17
391.00	60.85
391.19	37.45
391.39	18.72
391.58	121.71
391.78	53.83
391.97	46.81
392.16	107.66
392.36	105.32
392.55	112.35
392.75	112.35
392.94	23.41
393.13	126.39
393.33	70.22
393.52	65.54
393.71	145.11
393.91	131.07
394.10	84.26
394.29	14.04
394.49	79.58
394.68	114.69
394.88	53.83
395.07	110.01
395.26	100.64
395.46	37.45
395.65	105.32
395.84	46.81
396.04	189.58
396.23	32.77
396.42	44.47
396.62	100.64
396.81	93.62
397.00	124.05
397.19	107.66
397.39	140.43
397.58	168.52
397.77	72.56
397.97	46.81
398.16	0.00
398.35	84.26
398.55	86.60
398.74	58.51
398.93	166.18
399.12	67.88
399.32	102.98
399.51	51.49
399.70	74.90
399.90	56.17
400.09	56.17
400.28	77.24
400.47	86.60
400.67	53.83
400.86	44.47
401.05	9.36
401.24	126.39
401.44	91.28
401.63	37.45
401.82	112.35
402.01	117.03
402.21	93.62
402.40	9.36
402.59	119.37
402.78	105.32
402.97	91.28
403.17	91.28
403.36	84.26
403.55	77.24
403.74	16.38
403.93	81.92
404.13	46.81
404.32	98.30
404.51	88.94
404.70	149.79
404.89	81.92
405.09	198.95
405.28	23.41
405.47	114.69
405.66	93.62
405.85	138.09
406.05	107.66
406.24	53.83
406.43	102.98
406.62	114.69
406.81	102.98
407.00	110.01
407.20	63.19
407.39	119.37
407.58	102.98
407.77	121.71
407.96	180.22
408.15	138.09
408.34	32.77
408.54	119.37
408.73	44.47
408.92	131.07
409.11	84.26
409.30	128.73
409.49	67.88
409.68	121.71
409.87	140.43
410.07	98.30
410.26	147.45
410.45	49.15
410.64	124.05
410.83	133.41
411.02	63.19
411.21	51.49
411.40	112.35
411.59	95.96
411.78	67.88
411.98	95.96
412.17	112.35
412.36	63.19
412.55	67.88
412.74	112.35
412.93	154.48
413.12	117.03
413.31	91.28
413.50	98.30
413.69	72.56
413.88	135.75
414.07	163.84
414.26	102.98
414.45	175.54
414.64	159.16
414.83	112.35
415.02	173.20
415.22	159.16
415.41	105.32
415.60	145.11
415.79	147.45
415.98	147.45
416.17	117.03
416.36	110.01
416.55	77.24
416.74	105.32
416.93	147.45
417.12	51.49
417.31	86.60
417.50	133.41
417.69	124.05
417.88	140.43
418.07	135.75
418.26	100.64
418.45	95.96
418.64	91.28
418.83	194.26
419.02	140.43
419.21	30.43
419.39	102.98
419.58	112.35
419.77	107.66
419.96	119.37
420.15	142.77
420.34	114.69
420.53	98.30
420.72	105.32
420.91	28.09
421.10	102.98
421.29	56.17
421.48	110.01
421.67	147.45
421.86	102.98
422.05	100.64
422.24	128.73
422.43	102.98
422.61	102.98
422.80	124.05
422.99	154.48
423.18	140.43
423.37	140.43
423.56	98.30
423.75	187.24
423.94	102.98
424.13	166.18
424.32	124.05
424.50	166.18
424.69	133.41
424.88	161.50
425.07	56.17
425.26	117.03
425.45	124.05
425.64	86.60
425.83	60.85
426.01	117.03
426.20	124.05
426.39	154.48
426.58	131.07
426.77	152.13
426.96	142.77
427.15	35.11
427.33	60.85
427.52	126.39
427.71	84.26
427.90	70.22
428.09	93.62
428.28	100.64
428.46	121.71
428.65	81.92
428.84	133.41
429.03	191.92
429.22	117.03
429.40	63.19
429.59	128.73
429.78	156.82
429.97	128.73
430.16	60.85
430.34	126.39
430.53	124.05
430.72	112.35
430.91	107.66
431.10	39.79
431.28	39.79
431.47	163.84
431.66	154.48
431.85	159.16
432.03	88.94
432.22	119.37
432.41	37.45
432.60	131.07
432.79	124.05
432.97	105.32
433.16	112.35
433.35	110.01
433.54	133.41
433.72	175.54
433.91	119.37
434.10	114.69
434.28	140.43
434.47	74.90
434.66	147.45
434.85	117.03
435.03	98.30
435.22	177.88
435.41	131.07
435.59	161.50
435.78	138.09
435.97	154.48
436.16	159.16
436.34	252.78
436.53	110.01
436.72	93.62
436.90	147.45
437.09	135.75
437.28	86.60
437.46	49.15
437.65	124.05
437.84	84.26
438.02	154.48
438.21	159.16
438.40	154.48
438.58	156.82
438.77	112.35
438.96	182.56
439.14	154.48
439.33	154.48
439.52	128.73
439.70	67.88
439.89	53.83
440.08	138.09
440.26	152.13
440.45	168.52
440.63	170.86
440.82	177.88
441.01	217.67
441.19	72.56
441.38	138.09
441.57	112.35
441.75	133.41
441.94	163.84
442.12	117.03
442.31	154.48
442.50	147.45
442.68	93.62
442.87	140.43
443.05	147.45
443.24	60.85
443.43	133.41
443.61	156.82
443.80	124.05
443.98	140.43
444.17	142.77
444.35	231.71
444.54	95.96
444.73	37.45
444.91	163.84
445.10	119.37
445.28	173.20
445.47	145.11
445.65	112.35
445.84	131.07
446.02	168.52
446.21	117.03
446.39	91.28
446.58	142.77
446.77	184.90
446.95	93.62
447.14	149.79
447.32	170.86
447.51	81.92
447.69	112.35
447.88	177.88
448.06	229.37
448.25	149.79
448.43	170.86
448.62	112.35
448.80	182.56
448.99	173.20
449.17	121.71
449.36	121.71
449.54	159.16
449.73	95.96
449.91	187.24
450.10	149.79
450.28	154.48
450.46	180.22
450.65	177.88
450.83	170.86
451.02	156.82
451.20	121.71
451.39	117.03
451.57	117.03
451.76	154.48
451.94	142.77
452.13	119.37
452.31	184.90
452.49	93.62
452.68	86.60
452.86	159.16
453.05	142.77
453.23	86.60
453.42	128.73
453.60	128.73
453.78	156.82
453.97	107.66
454.15	102.98
454.34	149.79
454.52	70.22
454.70	126.39
454.89	147.45
455.07	77.24
455.26	100.64
455.44	156.82
455.62	133.41
455.81	196.60
455.99	107.66
456.17	128.73
456.36	70.22
456.54	156.82
456.73	119.37
456.91	156.82
457.09	119.37
457.28	145.11
457.46	124.05
457.64	198.95
457.83	231.71
458.01	145.11
458.19	138.09
458.38	79.58
458.56	135.75
458.74	156.82
458.93	215.33
459.11	133.41
459.29	114.69
459.48	124.05
459.66	152.13
459.84	161.50
460.03	212.99
460.21	166.18
460.39	166.18
460.57	194.26
460.76	138.09
460.94	72.56
461.12	79.58
461.31	161.50
461.49	154.48
461.67	79.58
461.85	145.11
462.04	140.43
462.22	636.63
462.40	180.22
462.59	142.77
462.77	93.62
462.95	147.45
463.13	105.32
463.32	208.31
463.50	154.48
463.68	140.43
463.86	105.32
464.05	133.41
464.23	154.48
464.41	196.60
464.59	124.05
464.78	156.82
464.96	198.95
465.14	182.56
465.32	156.82
465.50	112.35
465.69	175.54
465.87	154.48
466.05	189.58
466.23	84.26
466.41	131.07
466.60	110.01
466.78	145.11
466.96	145.11
467.14	140.43
467.32	180.22
467.51	98.30
467.69	107.66
467.87	177.88
468.05	177.88
468.23	224.69
468.41	161.50
468.60	166.18
468.78	142.77
468.96	138.09
469.14	161.50
469.32	102.98
469.50	119.37
469.69	147.45
469.87	184.90
470.05	100.64
470.23	128.73
470.41	37.45
470.59	173.20
470.77	168.52
470.95	187.24
471.14	182.56
471.32	166.18
471.50	255.12
471.68	166.18
471.86	208.31
472.04	166.18
472.22	128.73
472.40	95.96
472.58	124.05
472.77	126.39
472.95	191.92
473.13	170.86
473.31	121.71
473.49	128.73
473.67	119.37
473.85	163.84
474.03	145.11
474.21	154.48
474.39	203.63
474.57	208.31
474.75	208.31
474.93	107.66
475.12	107.66
475.30	147.45
475.48	152.13
475.66	142.77
475.84	138.09
476.02	124.05
476.20	140.43
476.38	149.79
476.56	255.12
476.74	159.16
476.92	114.69
477.10	105.32
477.28	149.79
477.46	142.77
477.64	180.22
477.82	229.37
478.00	117.03
478.18	102.98
478.36	121.71
478.54	161.50
478.72	198.95
478.90	124.05
479.08	105.32
479.26	149.79
479.44	117.03
479.62	112.35
479.80	95.96
479.98	198.95
480.16	159.16
480.34	84.26
480.52	23.41
480.70	173.20
480.88	189.58
481.06	93.62
481.24	156.82
481.41	147.45
481.59	175.54
481.77	124.05
481.95	152.13
482.13	210.65
482.31	88.94
482.49	145.11
482.67	135.75
482.85	163.84
483.03	259.80
483.21	140.43
483.39	84.26
483.57	170.86
483.74	222.35
483.92	194.26
484.10	145.11
484.28	257.46
484.46	243.42
484.64	156.82
484.82	131.07
485.00	133.41
485.18	142.77
485.35	161.50
485.53	161.50
485.71	215.33
485.89	70.22
486.07	110.01
486.25	245.76
486.43	210.65
486.61	166.18
486.78	189.58
486.96	184.90
487.14	175.54
487.32	163.84
487.50	152.13
487.68	203.63
487.85	110.01
488.03	220.01
488.21	212.99
488.39	194.26
488.57	231.71
488.75	126.39
488.92	475.13
489.10	170.86
489.28	180.22
489.46	180.22
489.64	91.28
489.81	152.13
489.99	259.80
490.17	189.58
490.35	238.73
490.53	236.39
490.70	147.45
490.88	145.11
491.06	102.98
491.24	278.52
491.41	229.37
491.59	145.11
491.77	105.32
491.95	194.26
492.13	105.32
492.30	184.90
492.48	100.64
492.66	201.29
492.84	170.86
493.01	231.71
493.19	201.29
493.37	156.82
493.54	248.10
493.72	166.18
493.90	145.11
494.08	126.39
494.25	238.73
494.43	173.20
494.61	175.54
494.79	128.73
494.96	140.43
495.14	262.14
495.32	198.95
495.49	156.82
495.67	217.67
495.85	205.97
496.02	180.22
496.20	231.71
496.38	189.58
496.55	191.92
496.73	166.18
496.91	140.43
497.09	238.73
497.26	208.31
497.44	128.73
497.62	194.26
497.79	227.03
497.97	161.50
498.14	227.03
498.32	196.60
498.50	203.63
498.67	241.08
498.85	212.99
499.03	220.01
499.20	173.20
499.38	138.09
499.56	124.05
499.73	175.54
499.91	269.16
500.08	189.58
500.26	126.39
500.44	182.56
500.61	196.60
500.79	142.77
500.97	191.92
501.14	212.99
501.32	175.54
501.49	224.69
501.67	210.65
501.84	212.99
502.02	161.50
502.20	142.77
502.37	173.20
502.55	95.96
502.72	201.29
502.90	273.84
503.07	180.22
503.25	236.39
503.43	177.88
503.60	138.09
503.78	154.48
503.95	187.24
504.13	191.92
504.30	229.37
504.48	201.29
504.65	248.10
504.83	236.39
505.01	196.60
505.18	224.69
505.36	163.84
505.53	154.48
505.71	217.67
505.88	135.75
506.06	224.69
506.23	147.45
506.41	128.73
506.58	201.29
506.76	205.97
506.93	236.39
507.11	217.67
507.28	189.58
507.46	163.84
507.63	215.33
507.81	208.31
507.98	173.20
508.16	220.01
508.33	217.67
508.50	224.69
508.68	243.42
508.85	217.67
509.03	196.60
509.20	222.35
509.38	166.18
509.55	215.33
509.73	212.99
509.90	283.20
510.08	107.66
510.25	220.01
510.42	182.56
510.60	184.90
510.77	264.48
510.95	252.78
511.12	170.86
511.30	145.11
511.47	227.03
511.64	229.37
511.82	196.60
511.99	196.60
512.17	187.24
512.34	166.18
512.51	161.50
512.69	184.90
512.86	264.48
513.04	187.24
513.21	184.90
513.38	236.39
513.56	163.84
513.73	229.37
513.90	201.29
514.08	191.92
514.25	222.35
514.43	154.48
514.60	147.45
514.77	163.84
514.95	201.29
515.12	220.01
515.29	126.39
515.47	201.29
515.64	203.63
515.81	217.67
515.99	276.18
516.16	166.18
516.33	234.05
516.51	154.48
516.68	121.71
516.85	124.05
517.03	166.18
517.20	215.33
517.37	175.54
517.54	212.99
517.72	217.67
517.89	145.11
518.06	131.07
518.24	201.29
518.41	210.65
518.58	227.03
518.75	154.48
518.93	175.54
519.10	208.31
519.27	142.77
519.45	131.07
519.62	222.35
519.79	224.69
519.96	191.92
520.14	210.65
520.31	220.01
520.48	182.56
520.65	248.10
520.83	212.99
521.00	238.73
521.17	264.48
521.34	138.09
521.52	276.18
521.69	224.69
521.86	145.11
522.03	159.16
522.20	215.33
522.38	152.13
522.55	231.71
522.72	154.48
522.89	252.78
523.07	210.65
523.24	168.52
523.41	217.67
523.58	201.29
523.75	184.90
523.92	194.26
524.10	231.71
524.27	187.24
524.44	198.95
524.61	180.22
524.78	184.90
524.96	187.24
525.13	210.65
525.30	161.50
525.47	229.37
525.64	184.90
525.81	201.29
525.98	170.86
526.16	182.56
526.33	128.73
526.50	175.54
526.67	245.76
526.84	182.56
527.01	203.63
527.18	201.29
527.36	140.43
527.53	184.90
527.70	177.88
527.87	212.99
528.04	285.55
528.21	208.31
528.38	194.26
528.55	220.01
528.72	283.20
528.89	257.46
529.07	231.71
529.24	156.82
529.41	325.33
529.58	248.10
529.75	231.71
529.92	210.65
530.09	173.20
530.26	145.11
530.43	215.33
530.60	203.63
530.77	248.10
530.94	339.38
531.11	215.33
531.28	231.71
531.46	149.79
531.63	243.42
531.80	259.80
531.97	297.25
532.14	170.86
532.31	205.97
532.48	231.71
532.65	201.29
532.82	210.65
532.99	140.43
533.16	294.91
533.33	266.82
533.50	299.59
533.67	175.54
533.84	163.84
534.01	203.63
534.18	145.11
534.35	243.42
534.52	217.67
534.69	194.26
534.86	227.03
535.03	182.56
535.20	241.08
535.37	220.01
535.54	189.58
535.71	208.31
535.88	313.63
536.05	142.77
536.22	227.03
536.38	210.65
536.55	191.92
536.72	187.24
536.89	220.01
537.06	224.69
537.23	243.42
537.40	166.18
537.57	180.22
537.74	210.65
537.91	224.69
538.08	266.82
538.25	276.18
538.42	229.37
538.59	191.92
538.75	140.43
538.92	191.92
539.09	215.33
539.26	196.60
539.43	194.26
539.60	231.71
539.77	198.95
539.94	184.90
540.11	147.45
540.28	276.18
540.44	259.80
540.61	194.26
540.78	194.26
540.95	126.39
541.12	304.27
541.29	313.63
541.46	299.59
541.62	234.05
541.79	203.63
541.96	224.69
542.13	191.92
542.30	182.56
542.47	306.61
542.63	227.03
542.80	201.29
542.97	175.54
543.14	182.56
543.31	152.13
543.48	203.63
543.64	212.99
543.81	159.16
543.98	238.73
544.15	159.16
544.32	208.31
544.48	191.92
544.65	189.58
544.82	201.29
544.99	198.95
545.16	208.31
545.32	175.54
545.49	203.63
545.66	271.50
545.83	257.46
546.00	91.28
546.16	145.11
546.33	222.35
546.50	184.90
546.67	238.73
546.83	217.67
547.00	255.12
547.17	201.29
547.34	161.50
547.50	161.50
547.67	243.42
547.84	248.10
548.00	231.71
548.17	208.31
548.34	222.35
548.51	313.63
548.67	236.39
548.84	152.13
549.01	191.92
549.18	292.57
549.34	163.84
549.51	194.26
549.68	198.95
549.84	201.29
550.01	189.58
550.18	341.72
550.34	243.42
550.51	264.48
550.68	271.50
550.84	191.92
551.01	182.56
551.18	224.69
551.34	245.76
551.51	243.42
551.68	262.14
551.84	201.29
552.01	156.82
552.18	175.54
552.34	194.26
552.51	262.14
552.68	184.90
552.84	229.37
553.01	154.48
553.18	271.50
553.34	194.26
553.51	161.50
553.67	177.88
553.84	257.46
554.01	152.13
554.17	231.71
554.34	212.99
554.51	212.99
554.67	283.20
554.84	220.01
555.00	205.97
555.17	180.22
555.33	210.65
555.50	184.90
555.67	189.58
555.83	180.22
556.00	210.65
556.16	358.10
556.33	278.52
556.50	234.05
556.66	271.50
556.83	215.33
556.99	234.05
557.16	220.01
557.32	175.54
557.49	159.16
557.65	163.84
557.82	168.52
557.98	248.10
558.15	182.56
558.32	208.31
558.48	163.84
558.65	208.31
558.81	266.82
558.98	191.92
559.14	210.65
559.31	203.63
559.47	184.90
559.64	175.54
559.80	224.69
559.97	142.77
560.13	222.35
560.30	224.69
560.46	194.26
560.63	236.39
560.79	278.52
560.96	149.79
561.12	189.58
561.29	203.63
561.45	177.88
561.61	128.73
561.78	376.83
561.94	208.31
562.11	175.54
562.27	229.37
562.44	227.03
562.60	161.50
562.77	205.97
562.93	220.01
563.10	126.39
563.26	194.26
563.42	217.67
563.59	222.35
563.75	205.97
563.92	273.84
564.08	299.59
564.24	222.35
564.41	194.26
564.57	107.66
564.74	241.08
564.90	198.95
565.07	283.20
565.23	191.92
565.39	245.76
565.56	161.50
565.72	255.12
565.88	173.20
566.05	138.09
566.21	283.20
566.38	285.55
566.54	283.20
566.70	210.65
566.87	173.20
567.03	159.16
567.19	173.20
567.36	243.42
567.52	201.29
567.68	243.42
567.85	276.18
568.01	180.22
568.17	142.77
568.34	210.65
568.50	168.52
568.66	107.66
568.83	313.63
568.99	191.92
569.15	257.46
569.32	175.54
569.48	191.92
569.64	168.52
569.81	248.10
569.97	184.90
570.13	266.82
570.30	205.97
570.46	159.16
570.62	250.44
570.78	222.35
570.95	170.86
571.11	271.50
571.27	194.26
571.43	154.48
571.60	140.43
571.76	154.48
571.92	198.95
572.09	243.42
572.25	175.54
572.41	212.99
572.57	191.92
572.74	210.65
572.90	236.39
573.06	227.03
573.22	238.73
573.38	250.44
573.55	133.41
573.71	133.41
573.87	191.92
574.03	196.60
574.20	191.92
574.36	264.48
574.52	220.01
574.68	189.58
574.84	161.50
575.01	166.18
575.17	159.16
575.33	205.97
575.49	205.97
575.65	196.60
575.82	173.20
575.98	222.35
576.14	234.05
576.30	217.67
576.46	203.63
576.62	173.20
576.79	203.63
576.95	194.26
577.11	180.22
577.27	161.50
577.43	187.24
577.59	229.37
577.75	215.33
577.92	191.92
578.08	203.63
578.24	166.18
578.40	229.37
578.56	245.76
578.72	194.26
578.88	184.90
579.04	177.88
579.21	222.35
579.37	208.31
579.53	191.92
579.69	243.42
579.85	149.79
580.01	280.86
580.17	77.24
580.33	142.77
580.49	203.63
580.65	142.77
580.82	184.90
580.98	175.54
581.14	201.29
581.30	231.71
581.46	222.35
581.62	189.58
581.78	180.22
581.94	208.31
582.10	222.35
582.26	241.08
582.42	128.73
582.58	227.03
582.74	215.33
582.90	220.01
583.06	166.18
583.22	168.52
583.38	241.08
583.54	177.88
583.70	276.18
583.86	170.86
584.02	227.03
584.18	224.69
584.34	224.69
584.50	238.73
584.66	180.22
584.82	102.98
584.98	259.80
585.14	212.99
585.30	255.12
585.46	163.84
585.62	189.58
585.78	170.86
585.94	191.92
586.10	255.12
586.26	184.90
586.42	224.69
586.58	149.79
586.74	170.86
586.90	241.08
587.06	175.54
587.22	170.86
587.38	170.86
587.54	184.90
587.70	212.99
587.86	217.67
588.02	133.41
588.18	145.11
588.34	266.82
588.49	152.13
588.65	138.09
588.81	121.71
588.97	102.98
589.13	159.16
589.29	184.90
589.45	201.29
589.61	210.65
589.77	138.09
589.93	159.16
590.08	117.03
590.24	201.29
590.40	205.97
590.56	180.22
590.72	140.43
590.88	187.24
591.04	152.13
591.20	159.16
591.35	203.63
591.51	166.18
591.67	187.24
591.83	215.33
591.99	180.22
592.15	194.26
592.31	198.95
592.46	163.84
592.62	262.14
592.78	121.71
592.94	201.29
593.10	203.63
593.26	142.77
593.41	241.08
593.57	140.43
593.73	145.11
593.89	166.18
594.05	201.29
594.20	175.54
594.36	259.80
594.52	124.05
594.68	156.82
594.84	145.11
594.99	290.23
595.15	182.56
595.31	224.69
595.47	238.73
595.62	126.39
595.78	259.80
595.94	173.20
596.10	255.12
596.25	243.42
596.41	180.22
596.57	205.97
596.73	154.48
596.88	152.13
597.04	212.99
597.20	203.63
597.36	159.16
597.51	194.26
597.67	191.92
597.83	229.37
597.99	210.65
598.14	189.58
598.30	147.45
598.46	184.90
598.61	184.90
598.77	198.95
598.93	191.92
599.09	128.73
599.24	215.33
599.40	231.71
599.56	189.58
599.71	215.33
599.87	135.75
600.03	147.45
600.18	229.37
600.34	203.63
600.50	262.14
600.65	215.33
600.81	220.01
600.97	133.41
601.12	198.95
601.28	264.48
601.44	175.54
601.59	147.45
601.75	110.01
601.91	140.43
602.06	191.92
602.22	243.42
602.37	203.63
602.53	159.16
602.69	217.67
602.84	145.11
603.00	173.20
603.16	173.20
603.31	161.50
603.47	222.35
603.62	126.39
603.78	187.24
603.94	241.08
604.09	210.65
604.25	220.01
604.40	184.90
604.56	145.11
604.71	168.52
604.87	147.45
605.03	161.50
605.18	210.65
605.34	203.63
605.49	114.69
605.65	156.82
605.80	163.84
605.96	166.18
606.12	128.73
606.27	196.60
606.43	222.35
606.58	107.66
606.74	180.22
606.89	205.97
607.05	140.43
607.20	175.54
607.36	196.60
607.51	124.05
607.67	203.63
607.82	156.82
607.98	273.84
608.13	184.90
608.29	177.88
608.44	222.35
608.60	175.54
608.75	245.76
608.91	231.71
609.06	142.77
609.22	194.26
609.37	77.24
609.53	51.49
609.68	121.71
609.84	133.41
609.99	91.28
610.15	173.20
610.30	255.12
610.46	224.69
610.61	131.07
610.76	93.62
610.92	203.63
611.07	161.50
611.23	222.35
611.38	191.92
611.54	170.86
611.69	133.41
611.84	138.09
612.00	166.18
612.15	170.86
612.31	102.98
612.46	224.69
612.62	212.99
612.77	177.88
612.92	156.82
613.08	152.13
613.23	229.37
613.39	133.41
613.54	93.62
613.69	173.20
613.85	133.41
614.00	201.29
614.15	135.75
614.31	184.90
614.46	229.37
614.62	135.75
614.77	203.63
614.92	112.35
615.08	208.31
615.23	177.88
615.38	159.16
615.54	145.11
615.69	147.45
615.84	215.33
616.00	147.45
616.15	133.41
616.30	156.82
616.46	133.41
616.61	154.48
616.76	128.73
616.92	187.24
617.07	124.05
617.22	201.29
617.37	194.26
617.53	180.22
617.68	173.20
617.83	208.31
617.99	140.43
618.14	149.79
618.29	257.46
618.45	126.39
618.60	156.82
618.75	142.77
618.90	154.48
619.06	159.16
619.21	227.03
619.36	149.79
619.51	177.88
619.67	145.11
619.82	126.39
619.97	212.99
620.12	159.16
620.28	241.08
620.43	119.37
620.58	255.12
620.73	287.89
620.89	201.29
621.04	236.39
621.19	175.54
621.34	177.88
621.49	166.18
621.65	184.90
621.80	81.92
621.95	187.24
622.10	245.76
622.25	161.50
622.41	159.16
622.56	100.64
622.71	117.03
622.86	159.16
623.01	131.07
623.16	220.01
623.32	159.16
623.47	189.58
623.62	173.20
623.77	168.52
623.92	198.95
624.07	168.52
624.23	229.37
624.38	135.75
624.53	159.16
624.68	154.48
624.83	133.41
624.98	154.48
625.13	105.32
625.29	156.82
625.44	191.92
625.59	229.37
625.74	203.63
625.89	142.77
626.04	142.77
626.19	173.20
626.34	119.37
626.49	152.13
626.65	149.79
626.80	166.18
626.95	163.84
627.10	65.54
627.25	175.54
627.40	110.01
627.55	189.58
627.70	142.77
627.85	163.84
628.00	166.18
628.15	107.66
628.30	184.90
628.45	156.82
628.60	100.64
628.76	91.28
628.91	198.95
629.06	170.86
629.21	133.41
629.36	201.29
629.51	168.52
629.66	124.05
629.81	84.26
629.96	161.50
630.11	131.07
630.26	145.11
630.41	224.69
630.56	196.60
630.71	243.42
630.86	110.01
631.01	152.13
631.16	114.69
631.31	212.99
631.46	154.48
631.61	117.03
631.76	175.54
631.91	182.56
632.06	175.54
632.21	163.84
632.36	229.37
632.51	100.64
632.66	149.79
632.81	180.22
632.96	168.52
633.10	135.75
633.25	245.76
633.40	191.92
633.55	149.79
633.70	72.56
633.85	177.88
634.00	117.03
634.15	140.43
634.30	187.24
634.45	152.13
634.60	86.60
634.75	138.09
634.90	187.24
635.05	189.58
635.19	105.32
635.34	170.86
635.49	152.13
635.64	184.90
635.79	145.11
635.94	154.48
636.09	215.33
636.24	152.13
636.39	98.30
636.53	208.31
636.68	117.03
636.83	140.43
636.98	175.54
637.13	152.13
637.28	177.88
637.43	138.09
637.57	154.48
637.72	201.29
637.87	173.20
638.02	154.48
638.17	248.10
638.32	159.16
638.46	184.90
638.61	196.60
638.76	168.52
638.91	187.24
639.06	140.43
639.20	180.22
639.35	131.07
639.50	114.69
639.65	154.48
639.80	156.82
639.94	154.48
640.09	110.01
640.24	194.26
640.39	161.50
640.54	93.62
640.68	119.37
640.83	133.41
640.98	112.35
641.13	84.26
641.27	170.86
641.42	131.07
641.57	184.90
641.72	117.03
641.86	163.84
642.01	91.28
642.16	145.11
642.31	98.30
642.45	215.33
642.60	222.35
642.75	166.18
642.90	152.13
643.04	114.69
643.19	100.64
643.34	114.69
643.48	173.20
643.63	173.20
643.78	175.54
643.93	145.11
644.07	124.05
644.22	180.22
644.37	182.56
644.51	154.48
644.66	107.66
644.81	140.43
644.95	201.29
645.10	149.79
645.25	105.32
645.39	159.16
645.54	121.71
645.69	149.79
645.83	163.84
645.98	205.97
646.13	156.82
646.27	175.54
646.42	170.86
646.57	161.50
646.71	177.88
646.86	201.29
647.00	114.69
647.15	196.60
647.30	98.30
647.44	124.05
647.59	166.18
647.74	149.79
647.88	131.07
648.03	159.16
648.17	138.09
648.32	177.88
648.47	140.43
648.61	100.64
648.76	184.90
648.90	145.11
649.05	110.01
649.20	119.37
649.34	98.30
649.49	102.98
649.63	81.92
649.78	152.13
649.92	173.20
650.07	126.39
650.21	110.01
650.36	67.88
650.51	105.32
650.65	128.73
650.80	138.09
650.94	142.77
651.09	175.54
651.23	102.98
651.38	168.52
651.52	135.75
651.67	112.35
651.81	110.01
651.96	187.24
652.10	145.11
652.25	72.56
652.39	56.17
652.54	208.31
652.68	173.20
652.83	58.51
652.97	133.41
653.12	161.50
653.26	159.16
653.41	194.26
653.55	182.56
653.70	81.92
653.84	182.56
653.99	95.96
654.13	91.28
654.27	128.73
654.42	86.60
654.56	91.28
654.71	161.50
654.85	170.86
655.00	72.56
655.14	100.64
655.29	93.62
655.43	91.28
655.57	154.48
655.72	102.98
655.86	142.77
656.01	152.13
656.15	131.07
656.30	189.58
656.44	114.69
656.58	133.41
656.73	105.32
656.87	128.73
657.01	173.20
657.16	149.79
657.30	135.75
657.45	182.56
657.59	163.84
657.73	131.07
657.88	145.11
658.02	180.22
658.16	159.16
658.31	102.98
658.45	142.77
658.60	191.92
658.74	84.26
658.88	161.50
659.03	205.97
659.17	124.05
659.31	156.82
659.46	124.05
659.60	110.01
659.74	161.50
659.89	105.32
660.03	182.56
660.17	205.97
660.32	163.84
660.46	128.73
660.60	152.13
660.74	184.90
660.89	121.71
661.03	124.05
661.17	74.90
661.32	121.71
661.46	88.94
661.60	187.24
661.74	177.88
661.89	70.22
662.03	105.32
662.17	121.71
662.31	166.18
662.46	119.37
662.60	126.39
662.74	175.54
662.88	117.03
663.03	100.64
663.17	49.15
663.31	163.84
663.45	159.16
663.60	126.39
663.74	95.96
663.88	117.03
664.02	159.16
664.17	49.15
664.31	159.16
664.45	168.52
664.59	142.77
664.73	88.94
664.88	138.09
665.02	128.73
665.16	184.90
665.30	208.31
665.44	128.73
665.59	110.01
665.73	149.79
665.87	187.24
666.01	124.05
666.15	177.88
666.29	105.32
666.44	194.26
666.58	220.01
666.72	91.28
666.86	128.73
667.00	187.24
667.14	133.41
667.28	145.11
667.43	142.77
667.57	182.56
667.71	138.09
667.85	126.39
667.99	215.33
668.13	175.54
668.27	74.90
668.41	177.88
668.56	205.97
668.70	161.50
668.84	102.98
668.98	119.37
669.12	215.33
669.26	196.60
669.40	147.45
669.54	198.95
669.68	212.99
669.82	152.13
669.96	138.09
670.10	196.60
670.25	142.77
670.39	93.62
670.53	84.26
670.67	58.51
670.81	98.30
670.95	182.56
671.09	98.30
671.23	131.07
671.37	100.64
671.51	142.77
671.65	145.11
671.79	140.43
671.93	131.07
672.07	152.13
672.21	152.13
672.35	86.60
672.49	86.60
672.63	166.18
672.77	166.18
672.91	140.43
673.05	119.37
673.19	194.26
673.33	84.26
673.47	229.37
673.61	100.64
673.75	131.07
673.89	79.58
674.03	152.13
674.17	175.54
674.31	124.05
674.45	159.16
674.59	142.77
674.73	131.07
674.87	117.03
675.01	119.37
675.15	131.07
675.29	187.24
675.43	180.22
675.56	102.98
675.70	159.16
675.84	65.54
675.98	51.49
676.12	133.41
676.26	156.82
676.40	49.15
676.54	95.96
676.68	196.60
676.82	168.52
676.96	84.26
677.10	145.11
677.23	110.01
677.37	100.64
677.51	154.48
677.65	166.18
677.79	121.71
677.93	7.02
678.07	74.90
678.21	84.26
678.34	154.48
678.48	105.32
678.62	100.64
678.76	152.13
678.90	53.83
679.04	91.28
679.18	121.71
679.31	49.15
679.45	91.28
679.59	77.24
679.73	135.75
679.87	152.13
680.00	133.41
680.14	79.58
680.28	184.90
680.42	91.28
680.56	67.88
680.70	117.03
680.83	114.69
680.97	126.39
681.11	133.41
681.25	175.54
681.39	159.16
681.52	180.22
681.66	95.96
681.80	107.66
681.94	72.56
682.07	145.11
682.21	142.77
682.35	102.98
682.49	81.92
682.62	49.15
682.76	79.58
682.90	117.03
683.04	191.92
683.17	56.17
683.31	28.09
683.45	145.11
683.59	149.79
683.72	100.64
683.86	86.60
684.00	53.83
684.13	177.88
684.27	140.43
684.41	70.22
684.55	194.26
684.68	102.98
684.82	91.28
684.96	95.96
685.09	166.18
685.23	117.03
685.37	135.75
685.50	124.05
685.64	60.85
685.78	131.07
685.91	117.03
686.05	124.05
686.19	102.98
686.32	110.01
686.46	91.28
686.60	159.16
686.73	173.20
686.87	163.84
687.01	102.98
687.14	44.47
687.28	67.88
687.42	88.94
687.55	105.32
687.69	102.98
687.82	145.11
687.96	124.05
688.10	161.50
688.23	177.88
688.37	105.32
688.50	102.98
688.64	98.30
688.78	70.22
688.91	67.88
689.05	100.64
689.18	39.79
689.32	126.39
689.46	67.88
689.59	147.45
689.73	145.11
689.86	100.64
690.00	102.98
690.13	100.64
690.27	147.45
690.41	72.56
690.54	98.30
690.68	72.56
690.81	74.90
690.95	149.79
691.08	100.64
691.22	131.07
691.35	135.75
691.49	102.98
691.62	135.75
691.76	142.77
691.89	100.64
692.03	86.60
692.16	117.03
692.30	135.75
692.43	126.39
692.57	133.41
692.70	72.56
692.84	102.98
692.97	154.48
693.11	112.35
693.24	126.39
693.38	35.11
693.51	70.22
693.65	124.05
693.78	67.88
693.92	102.98
694.05	74.90
694.19	53.83
694.32	35.11
694.45	170.86
694.59	65.54
694.72	191.92
694.86	161.50
694.99	138.09
695.13	114.69
695.26	91.28
695.39	117.03
695.53	114.69
695.66	166.18
695.80	149.79
695.93	37.45
696.07	110.01
696.20	175.54
696.33	93.62
696.47	84.26
696.60	105.32
696.73	154.48
696.87	65.54
697.00	86.60
697.14	67.88
697.27	119.37
697.40	163.84
697.54	117.03
697.67	114.69
697.80	60.85
697.94	42.13
698.07	88.94
698.21	81.92
698.34	117.03
698.47	35.11
698.61	81.92
698.74	98.30
698.87	175.54
699.01	49.15
699.14	25.75
699.27	88.94
699.40	177.88
699.54	149.79
699.67	56.17
699.80	30.43
699.94	72.56
700.07	114.69
700.20	37.45
700.34	119.37
700.47	67.88
700.60	124.05
700.73	53.83
700.87	53.83
701.00	46.81
701.13	110.01
701.26	51.49
701.40	88.94
701.53	98.30
701.66	91.28
701.79	53.83
701.93	77.24
702.06	142.77
702.19	131.07
702.32	67.88
702.46	102.98
702.59	81.92
702.72	84.26
702.85	39.79
702.99	81.92
703.12	105.32
703.25	149.79
703.38	88.94
703.51	98.30
703.65	98.30
703.78	56.17
703.91	11.70
704.04	175.54
704.17	117.03
704.31	131.07
704.44	152.13
704.57	79.58
704.70	42.13
704.83	119.37
704.96	135.75
705.10	70.22
705.23	67.88
>>>>>End Processed Spectral Data<<<<<
