SpectraSuite Data File
++++++++++++++++++++++++++++++++++++
Date: Fri Oct 04 11:51:07 GMT-05:00 2013
User: price-jones
Dark Spectrum Present: No
Reference Spectrum Present: No
Number of Sampled Component Spectra: 1
Spectrometers: USB2+H05261
Integration Time (usec): 100000 (USB2+H05261)
Spectra Averaged: 1 (USB2+H05261)
Boxcar Smoothing: 0 (USB2+H05261)
Correct for Electrical Dark: No (USB2+H05261)
Strobe/Lamp Enabled: No (USB2+H05261)
Correct for Detector Non-linearity: No (USB2+H05261)
Correct for Stray Light: No (USB2+H05261)
Number of Pixels in Processed Spectrum: 2048
>>>>>Begin Processed Spectral Data<<<<<
365.73	0.00
365.92	0.00
366.12	0.00
366.32	0.00
366.52	0.00
366.72	23.41
366.91	0.00
367.11	0.00
367.31	0.00
367.51	0.00
367.70	0.00
367.90	0.00
368.10	0.00
368.30	0.00
368.49	0.00
368.69	0.00
368.89	0.00
369.09	0.00
369.28	0.00
369.48	0.00
369.68	0.00
369.87	0.00
370.07	0.00
370.27	0.00
370.47	0.00
370.66	11.70
370.86	42.13
371.06	28.09
371.25	112.35
371.45	42.13
371.65	53.83
371.84	4.68
372.04	0.00
372.24	56.17
372.44	46.81
372.63	37.45
372.83	63.19
373.03	46.81
373.22	93.62
373.42	88.94
373.62	77.24
373.81	100.64
374.01	145.11
374.21	135.75
374.40	0.00
374.60	121.71
374.79	98.30
374.99	107.66
375.19	152.13
375.38	88.94
375.58	126.39
375.78	88.94
375.97	28.09
376.17	86.60
376.37	126.39
376.56	98.30
376.76	128.73
376.95	74.90
377.15	112.35
377.35	110.01
377.54	23.41
377.74	107.66
377.93	42.13
378.13	93.62
378.33	65.54
378.52	74.90
378.72	107.66
378.91	107.66
379.11	16.38
379.31	21.06
379.50	53.83
379.70	51.49
379.89	105.32
380.09	51.49
380.28	72.56
380.48	56.17
380.68	56.17
380.87	0.00
381.07	88.94
381.26	131.07
381.46	84.26
381.65	119.37
381.85	56.17
382.04	53.83
382.24	81.92
382.43	7.02
382.63	72.56
382.83	131.07
383.02	35.11
383.22	84.26
383.41	91.28
383.61	107.66
383.80	67.88
384.00	70.22
384.19	7.02
384.39	124.05
384.58	70.22
384.78	49.15
384.97	42.13
385.17	53.83
385.36	51.49
385.56	152.13
385.75	30.43
385.95	91.28
386.14	74.90
386.34	72.56
386.53	119.37
386.72	0.00
386.92	23.41
387.11	74.90
387.31	74.90
387.50	175.54
387.70	74.90
387.89	81.92
388.09	93.62
388.28	65.54
388.48	147.45
388.67	124.05
388.86	67.88
389.06	84.26
389.25	67.88
389.45	70.22
389.64	117.03
389.84	142.77
390.03	63.19
390.22	145.11
390.42	70.22
390.61	168.52
390.81	49.15
391.00	81.92
391.19	81.92
391.39	7.02
391.58	124.05
391.78	100.64
391.97	84.26
392.16	0.00
392.36	119.37
392.55	81.92
392.75	88.94
392.94	63.19
393.13	44.47
393.33	58.51
393.52	28.09
393.71	51.49
393.91	86.60
394.10	117.03
394.29	110.01
394.49	77.24
394.68	107.66
394.88	152.13
395.07	95.96
395.26	70.22
395.46	98.30
395.65	84.26
395.84	124.05
396.04	182.56
396.23	39.79
396.42	67.88
396.62	126.39
396.81	112.35
397.00	88.94
397.19	93.62
397.39	65.54
397.58	191.92
397.77	105.32
397.97	46.81
398.16	53.83
398.35	42.13
398.55	98.30
398.74	105.32
398.93	105.32
399.12	98.30
399.32	117.03
399.51	154.48
399.70	88.94
399.90	86.60
400.09	110.01
400.28	149.79
400.47	35.11
400.67	65.54
400.86	67.88
401.05	138.09
401.24	126.39
401.44	128.73
401.63	102.98
401.82	128.73
402.01	81.92
402.21	107.66
402.40	53.83
402.59	95.96
402.78	142.77
402.97	145.11
403.17	53.83
403.36	51.49
403.55	42.13
403.74	88.94
403.93	77.24
404.13	124.05
404.32	131.07
404.51	126.39
404.70	98.30
404.89	112.35
405.09	91.28
405.28	140.43
405.47	110.01
405.66	117.03
405.85	161.50
406.05	112.35
406.24	112.35
406.43	58.51
406.62	112.35
406.81	100.64
407.00	152.13
407.20	102.98
407.39	159.16
407.58	88.94
407.77	93.62
407.96	117.03
408.15	114.69
408.34	102.98
408.54	51.49
408.73	98.30
408.92	63.19
409.11	93.62
409.30	124.05
409.49	112.35
409.68	131.07
409.87	86.60
410.07	131.07
410.26	112.35
410.45	67.88
410.64	142.77
410.83	128.73
411.02	95.96
411.21	175.54
411.40	91.28
411.59	100.64
411.78	84.26
411.98	124.05
412.17	112.35
412.36	74.90
412.55	84.26
412.74	112.35
412.93	102.98
413.12	88.94
413.31	161.50
413.50	84.26
413.69	102.98
413.88	227.03
414.07	119.37
414.26	51.49
414.45	100.64
414.64	77.24
414.83	65.54
415.02	42.13
415.22	65.54
415.41	51.49
415.60	147.45
415.79	65.54
415.98	110.01
416.17	142.77
416.36	56.17
416.55	95.96
416.74	121.71
416.93	140.43
417.12	60.85
417.31	63.19
417.50	93.62
417.69	126.39
417.88	110.01
418.07	63.19
418.26	117.03
418.45	102.98
418.64	154.48
418.83	156.82
419.02	95.96
419.21	173.20
419.39	39.79
419.58	154.48
419.77	154.48
419.96	105.32
420.15	124.05
420.34	102.98
420.53	91.28
420.72	149.79
420.91	142.77
421.10	93.62
421.29	37.45
421.48	222.35
421.67	79.58
421.86	46.81
422.05	98.30
422.24	49.15
422.43	107.66
422.61	81.92
422.80	121.71
422.99	180.22
423.18	53.83
423.37	224.69
423.56	147.45
423.75	161.50
423.94	46.81
424.13	168.52
424.32	53.83
424.50	91.28
424.69	67.88
424.88	154.48
425.07	147.45
425.26	147.45
425.45	161.50
425.64	70.22
425.83	140.43
426.01	112.35
426.20	131.07
426.39	72.56
426.58	32.77
426.77	28.09
426.96	180.22
427.15	112.35
427.33	70.22
427.52	117.03
427.71	84.26
427.90	81.92
428.09	140.43
428.28	72.56
428.46	154.48
428.65	93.62
428.84	131.07
429.03	149.79
429.22	105.32
429.40	105.32
429.59	128.73
429.78	79.58
429.97	131.07
430.16	14.04
430.34	72.56
430.53	102.98
430.72	63.19
430.91	86.60
431.10	145.11
431.28	74.90
431.47	119.37
431.66	154.48
431.85	44.47
432.03	119.37
432.22	175.54
432.41	93.62
432.60	84.26
432.79	124.05
432.97	138.09
433.16	105.32
433.35	84.26
433.54	110.01
433.72	138.09
433.91	112.35
434.10	114.69
434.28	133.41
434.47	154.48
434.66	163.84
434.85	147.45
435.03	110.01
435.22	152.13
435.41	159.16
435.59	175.54
435.78	95.96
435.97	161.50
436.16	175.54
436.34	110.01
436.53	112.35
436.72	126.39
436.90	149.79
437.09	117.03
437.28	98.30
437.46	112.35
437.65	149.79
437.84	100.64
438.02	70.22
438.21	107.66
438.40	117.03
438.58	138.09
438.77	105.32
438.96	105.32
439.14	105.32
439.33	81.92
439.52	154.48
439.70	121.71
439.89	119.37
440.08	203.63
440.26	201.29
440.45	121.71
440.63	128.73
440.82	77.24
441.01	112.35
441.19	74.90
441.38	72.56
441.57	95.96
441.75	215.33
441.94	126.39
442.12	107.66
442.31	159.16
442.50	114.69
442.68	128.73
442.87	163.84
443.05	182.56
443.24	149.79
443.43	117.03
443.61	124.05
443.80	173.20
443.98	133.41
444.17	119.37
444.35	198.95
444.54	180.22
444.73	49.15
444.91	154.48
445.10	60.85
445.28	203.63
445.47	131.07
445.65	117.03
445.84	133.41
446.02	49.15
446.21	93.62
446.39	168.52
446.58	60.85
446.77	119.37
446.95	58.51
447.14	147.45
447.32	133.41
447.51	124.05
447.69	86.60
447.88	140.43
448.06	142.77
448.25	114.69
448.43	67.88
448.62	135.75
448.80	140.43
448.99	93.62
449.17	142.77
449.36	46.81
449.54	163.84
449.73	81.92
449.91	105.32
450.10	175.54
450.28	152.13
450.46	131.07
450.65	154.48
450.83	156.82
451.02	138.09
451.20	65.54
451.39	63.19
451.57	140.43
451.76	86.60
451.94	133.41
452.13	107.66
452.31	107.66
452.49	112.35
452.68	95.96
452.86	196.60
453.05	194.26
453.23	180.22
453.42	119.37
453.60	142.77
453.78	208.31
453.97	126.39
454.15	65.54
454.34	114.69
454.52	215.33
454.70	147.45
454.89	189.58
455.07	187.24
455.26	142.77
455.44	198.95
455.62	152.13
455.81	74.90
455.99	84.26
456.17	156.82
456.36	114.69
456.54	63.19
456.73	128.73
456.91	128.73
457.09	180.22
457.28	105.32
457.46	142.77
457.64	138.09
457.83	91.28
458.01	154.48
458.19	126.39
458.38	133.41
458.56	98.30
458.74	107.66
458.93	205.97
459.11	147.45
459.29	159.16
459.48	149.79
459.66	149.79
459.84	147.45
460.03	208.31
460.21	152.13
460.39	51.49
460.57	184.90
460.76	241.08
460.94	154.48
461.12	126.39
461.31	145.11
461.49	198.95
461.67	135.75
461.85	210.65
462.04	147.45
462.22	622.58
462.40	236.39
462.59	114.69
462.77	133.41
462.95	152.13
463.13	79.58
463.32	121.71
463.50	131.07
463.68	93.62
463.86	182.56
464.05	107.66
464.23	142.77
464.41	170.86
464.59	180.22
464.78	105.32
464.96	159.16
465.14	149.79
465.32	138.09
465.50	81.92
465.69	140.43
465.87	117.03
466.05	112.35
466.23	91.28
466.41	105.32
466.60	114.69
466.78	102.98
466.96	205.97
467.14	98.30
467.32	205.97
467.51	124.05
467.69	124.05
467.87	187.24
468.05	119.37
468.23	154.48
468.41	128.73
468.60	133.41
468.78	86.60
468.96	220.01
469.14	154.48
469.32	140.43
469.50	107.66
469.69	124.05
469.87	102.98
470.05	91.28
470.23	154.48
470.41	138.09
470.59	70.22
470.77	128.73
470.95	126.39
471.14	177.88
471.32	135.75
471.50	149.79
471.68	152.13
471.86	217.67
472.04	131.07
472.22	110.01
472.40	114.69
472.58	156.82
472.77	175.54
472.95	182.56
473.13	184.90
473.31	168.52
473.49	56.17
473.67	37.45
473.85	140.43
474.03	173.20
474.21	126.39
474.39	159.16
474.57	217.67
474.75	126.39
474.93	152.13
475.12	100.64
475.30	191.92
475.48	159.16
475.66	121.71
475.84	114.69
476.02	163.84
476.20	163.84
476.38	100.64
476.56	224.69
476.74	126.39
476.92	124.05
477.10	133.41
477.28	177.88
477.46	86.60
477.64	154.48
477.82	173.20
478.00	149.79
478.18	166.18
478.36	175.54
478.54	72.56
478.72	84.26
478.90	182.56
479.08	81.92
479.26	271.50
479.44	84.26
479.62	107.66
479.80	131.07
479.98	184.90
480.16	117.03
480.34	177.88
480.52	86.60
480.70	154.48
480.88	168.52
481.06	170.86
481.24	177.88
481.41	208.31
481.59	182.56
481.77	208.31
481.95	133.41
482.13	156.82
482.31	170.86
482.49	191.92
482.67	119.37
482.85	198.95
483.03	184.90
483.21	135.75
483.39	142.77
483.57	84.26
483.74	159.16
483.92	210.65
484.10	205.97
484.28	77.24
484.46	234.05
484.64	133.41
484.82	147.45
485.00	84.26
485.18	180.22
485.35	168.52
485.53	86.60
485.71	156.82
485.89	189.58
486.07	147.45
486.25	203.63
486.43	217.67
486.61	124.05
486.78	147.45
486.96	70.22
487.14	154.48
487.32	191.92
487.50	189.58
487.68	170.86
487.85	138.09
488.03	140.43
488.21	198.95
488.39	220.01
488.57	168.52
488.75	175.54
488.92	404.91
489.10	184.90
489.28	184.90
489.46	198.95
489.64	205.97
489.81	121.71
489.99	170.86
490.17	121.71
490.35	257.46
490.53	266.82
490.70	198.95
490.88	184.90
491.06	154.48
491.24	156.82
491.41	184.90
491.59	147.45
491.77	124.05
491.95	173.20
492.13	124.05
492.30	212.99
492.48	231.71
492.66	149.79
492.84	175.54
493.01	102.98
493.19	184.90
493.37	198.95
493.54	180.22
493.72	145.11
493.90	170.86
494.08	175.54
494.25	149.79
494.43	241.08
494.61	128.73
494.79	140.43
494.96	203.63
495.14	156.82
495.32	149.79
495.49	168.52
495.67	217.67
495.85	227.03
496.02	201.29
496.20	236.39
496.38	194.26
496.55	142.77
496.73	147.45
496.91	128.73
497.09	147.45
497.26	187.24
497.44	215.33
497.62	212.99
497.79	110.01
497.97	196.60
498.14	255.12
498.32	229.37
498.50	229.37
498.67	166.18
498.85	161.50
499.03	161.50
499.20	93.62
499.38	173.20
499.56	198.95
499.73	227.03
499.91	166.18
500.08	208.31
500.26	187.24
500.44	121.71
500.61	208.31
500.79	236.39
500.97	208.31
501.14	180.22
501.32	250.44
501.49	234.05
501.67	252.78
501.84	203.63
502.02	227.03
502.20	203.63
502.37	168.52
502.55	126.39
502.72	126.39
502.90	241.08
503.07	212.99
503.25	156.82
503.43	198.95
503.60	138.09
503.78	234.05
503.95	180.22
504.13	227.03
504.30	238.73
504.48	278.52
504.65	189.58
504.83	257.46
505.01	191.92
505.18	203.63
505.36	205.97
505.53	138.09
505.71	236.39
505.88	238.73
506.06	224.69
506.23	177.88
506.41	187.24
506.58	170.86
506.76	229.37
506.93	248.10
507.11	163.84
507.28	126.39
507.46	166.18
507.63	187.24
507.81	145.11
507.98	140.43
508.16	173.20
508.33	201.29
508.50	227.03
508.68	224.69
508.85	154.48
509.03	166.18
509.20	212.99
509.38	224.69
509.55	210.65
509.73	205.97
509.90	224.69
510.08	128.73
510.25	201.29
510.42	198.95
510.60	154.48
510.77	147.45
510.95	301.93
511.12	149.79
511.30	212.99
511.47	138.09
511.64	198.95
511.82	205.97
511.99	229.37
512.17	159.16
512.34	114.69
512.51	152.13
512.69	189.58
512.86	210.65
513.04	212.99
513.21	224.69
513.38	215.33
513.56	201.29
513.73	145.11
513.90	170.86
514.08	201.29
514.25	278.52
514.43	327.68
514.60	133.41
514.77	152.13
514.95	227.03
515.12	184.90
515.29	212.99
515.47	278.52
515.64	180.22
515.81	210.65
515.99	196.60
516.16	215.33
516.33	191.92
516.51	194.26
516.68	156.82
516.85	201.29
517.03	252.78
517.20	217.67
517.37	205.97
517.54	271.50
517.72	175.54
517.89	142.77
518.06	114.69
518.24	297.25
518.41	278.52
518.58	166.18
518.75	208.31
518.93	189.58
519.10	241.08
519.27	245.76
519.45	166.18
519.62	203.63
519.79	152.13
519.96	145.11
520.14	241.08
520.31	234.05
520.48	201.29
520.65	210.65
520.83	212.99
521.00	208.31
521.17	159.16
521.34	234.05
521.52	245.76
521.69	205.97
521.86	205.97
522.03	152.13
522.20	238.73
522.38	154.48
522.55	205.97
522.72	201.29
522.89	231.71
523.07	299.59
523.24	236.39
523.41	248.10
523.58	243.42
523.75	248.10
523.92	163.84
524.10	191.92
524.27	156.82
524.44	121.71
524.61	168.52
524.78	231.71
524.96	264.48
525.13	227.03
525.30	212.99
525.47	234.05
525.64	205.97
525.81	285.55
525.98	182.56
526.16	180.22
526.33	180.22
526.50	210.65
526.67	170.86
526.84	180.22
527.01	212.99
527.18	245.76
527.36	145.11
527.53	128.73
527.70	198.95
527.87	222.35
528.04	280.86
528.21	173.20
528.38	187.24
528.55	243.42
528.72	299.59
528.89	241.08
529.07	175.54
529.24	227.03
529.41	292.57
529.58	203.63
529.75	238.73
529.92	194.26
530.09	266.82
530.26	217.67
530.43	182.56
530.60	320.65
530.77	208.31
530.94	229.37
531.11	280.86
531.28	163.84
531.46	187.24
531.63	252.78
531.80	191.92
531.97	264.48
532.14	227.03
532.31	177.88
532.48	248.10
532.65	189.58
532.82	189.58
532.99	208.31
533.16	231.71
533.33	196.60
533.50	131.07
533.67	177.88
533.84	264.48
534.01	184.90
534.18	264.48
534.35	257.46
534.52	220.01
534.69	217.67
534.86	276.18
535.03	145.11
535.20	168.52
535.37	271.50
535.54	156.82
535.71	280.86
535.88	180.22
536.05	191.92
536.22	231.71
536.38	168.52
536.55	152.13
536.72	201.29
536.89	100.64
537.06	201.29
537.23	194.26
537.40	184.90
537.57	227.03
537.74	280.86
537.91	184.90
538.08	189.58
538.25	304.27
538.42	147.45
538.59	238.73
538.75	334.70
538.92	154.48
539.09	255.12
539.26	220.01
539.43	196.60
539.60	236.39
539.77	208.31
539.94	154.48
540.11	140.43
540.28	234.05
540.44	241.08
540.61	198.95
540.78	159.16
540.95	154.48
541.12	215.33
541.29	241.08
541.46	210.65
541.62	224.69
541.79	229.37
541.96	203.63
542.13	222.35
542.30	227.03
542.47	259.80
542.63	217.67
542.80	238.73
542.97	220.01
543.14	170.86
543.31	259.80
543.48	273.84
543.64	243.42
543.81	294.91
543.98	262.14
544.15	212.99
544.32	201.29
544.48	170.86
544.65	250.44
544.82	135.75
544.99	177.88
545.16	217.67
545.32	236.39
545.49	166.18
545.66	210.65
545.83	264.48
546.00	194.26
546.16	224.69
546.33	224.69
546.50	93.62
546.67	208.31
546.83	276.18
547.00	191.92
547.17	187.24
547.34	224.69
547.50	196.60
547.67	227.03
547.84	191.92
548.00	250.44
548.17	187.24
548.34	145.11
548.51	215.33
548.67	222.35
548.84	215.33
549.01	170.86
549.18	152.13
549.34	173.20
549.51	259.80
549.68	234.05
549.84	203.63
550.01	241.08
550.18	337.04
550.34	231.71
550.51	196.60
550.68	217.67
550.84	175.54
551.01	201.29
551.18	212.99
551.34	236.39
551.51	196.60
551.68	168.52
551.84	255.12
552.01	147.45
552.18	191.92
552.34	278.52
552.51	208.31
552.68	222.35
552.84	220.01
553.01	243.42
553.18	259.80
553.34	238.73
553.51	243.42
553.67	220.01
553.84	238.73
554.01	257.46
554.17	238.73
554.34	220.01
554.51	180.22
554.67	166.18
554.84	262.14
555.00	264.48
555.17	231.71
555.33	170.86
555.50	196.60
555.67	208.31
555.83	212.99
556.00	159.16
556.16	451.72
556.33	208.31
556.50	236.39
556.66	154.48
556.83	168.52
556.99	163.84
557.16	198.95
557.32	238.73
557.49	222.35
557.65	135.75
557.82	135.75
557.98	287.89
558.15	191.92
558.32	145.11
558.48	205.97
558.65	189.58
558.81	201.29
558.98	257.46
559.14	311.29
559.31	212.99
559.47	173.20
559.64	227.03
559.80	161.50
559.97	201.29
560.13	259.80
560.30	173.20
560.46	156.82
560.63	161.50
560.79	184.90
560.96	196.60
561.12	234.05
561.29	201.29
561.45	217.67
561.61	170.86
561.78	257.46
561.94	156.82
562.11	217.67
562.27	107.66
562.44	180.22
562.60	170.86
562.77	173.20
562.93	201.29
563.10	198.95
563.26	175.54
563.42	234.05
563.59	227.03
563.75	156.82
563.92	194.26
564.08	147.45
564.24	194.26
564.41	255.12
564.57	170.86
564.74	170.86
564.90	201.29
565.07	252.78
565.23	189.58
565.39	194.26
565.56	224.69
565.72	175.54
565.88	257.46
566.05	145.11
566.21	149.79
566.38	210.65
566.54	241.08
566.70	194.26
566.87	215.33
567.03	152.13
567.19	154.48
567.36	170.86
567.52	182.56
567.68	271.50
567.85	124.05
568.01	243.42
568.17	159.16
568.34	163.84
568.50	166.18
568.66	215.33
568.83	238.73
568.99	210.65
569.15	220.01
569.32	236.39
569.48	229.37
569.64	212.99
569.81	182.56
569.97	241.08
570.13	238.73
570.30	184.90
570.46	159.16
570.62	205.97
570.78	241.08
570.95	177.88
571.11	203.63
571.27	194.26
571.43	198.95
571.60	222.35
571.76	234.05
571.92	145.11
572.09	203.63
572.25	173.20
572.41	182.56
572.57	210.65
572.74	222.35
572.90	231.71
573.06	196.60
573.22	257.46
573.38	203.63
573.55	191.92
573.71	299.59
573.87	264.48
574.03	198.95
574.20	205.97
574.36	229.37
574.52	180.22
574.68	224.69
574.84	234.05
575.01	182.56
575.17	170.86
575.33	191.92
575.49	173.20
575.65	205.97
575.82	250.44
575.98	292.57
576.14	170.86
576.30	149.79
576.46	187.24
576.62	205.97
576.79	208.31
576.95	194.26
577.11	196.60
577.27	189.58
577.43	229.37
577.59	180.22
577.75	194.26
577.92	166.18
578.08	215.33
578.24	184.90
578.40	191.92
578.56	241.08
578.72	189.58
578.88	262.14
579.04	152.13
579.21	135.75
579.37	198.95
579.53	238.73
579.69	177.88
579.85	217.67
580.01	238.73
580.17	255.12
580.33	182.56
580.49	112.35
580.65	250.44
580.82	252.78
580.98	98.30
581.14	203.63
581.30	273.84
581.46	135.75
581.62	145.11
581.78	191.92
581.94	215.33
582.10	203.63
582.26	140.43
582.42	182.56
582.58	238.73
582.74	114.69
582.90	140.43
583.06	156.82
583.22	184.90
583.38	107.66
583.54	124.05
583.70	255.12
583.86	208.31
584.02	184.90
584.18	248.10
584.34	131.07
584.50	208.31
584.66	173.20
584.82	161.50
584.98	203.63
585.14	175.54
585.30	285.55
585.46	220.01
585.62	245.76
585.78	128.73
585.94	245.76
586.10	98.30
586.26	198.95
586.42	163.84
586.58	245.76
586.74	224.69
586.90	222.35
587.06	234.05
587.22	180.22
587.38	142.77
587.54	215.33
587.70	189.58
587.86	194.26
588.02	128.73
588.18	166.18
588.34	187.24
588.49	166.18
588.65	163.84
588.81	224.69
588.97	196.60
589.13	149.79
589.29	245.76
589.45	201.29
589.61	145.11
589.77	208.31
589.93	154.48
590.08	81.92
590.24	117.03
590.40	224.69
590.56	222.35
590.72	140.43
590.88	222.35
591.04	72.56
591.20	170.86
591.35	191.92
591.51	189.58
591.67	131.07
591.83	100.64
591.99	205.97
592.15	173.20
592.31	198.95
592.46	215.33
592.62	243.42
592.78	84.26
592.94	159.16
593.10	140.43
593.26	159.16
593.41	229.37
593.57	194.26
593.73	142.77
593.89	220.01
594.05	205.97
594.20	168.52
594.36	210.65
594.52	131.07
594.68	212.99
594.84	177.88
594.99	201.29
595.15	156.82
595.31	245.76
595.47	205.97
595.62	231.71
595.78	163.84
595.94	191.92
596.10	152.13
596.25	189.58
596.41	236.39
596.57	140.43
596.73	159.16
596.88	224.69
597.04	135.75
597.20	81.92
597.36	201.29
597.51	175.54
597.67	121.71
597.83	187.24
597.99	138.09
598.14	224.69
598.30	180.22
598.46	191.92
598.61	224.69
598.77	142.77
598.93	117.03
599.09	98.30
599.24	173.20
599.40	182.56
599.56	203.63
599.71	133.41
599.87	156.82
600.03	222.35
600.18	166.18
600.34	112.35
600.50	250.44
600.65	208.31
600.81	255.12
600.97	201.29
601.12	173.20
601.28	205.97
601.44	152.13
601.59	205.97
601.75	168.52
601.91	135.75
602.06	156.82
602.22	245.76
602.37	191.92
602.53	191.92
602.69	222.35
602.84	124.05
603.00	173.20
603.16	203.63
603.31	229.37
603.47	175.54
603.62	177.88
603.78	135.75
603.94	184.90
604.09	184.90
604.25	147.45
604.40	196.60
604.56	117.03
604.71	222.35
604.87	196.60
605.03	173.20
605.18	177.88
605.34	189.58
605.49	182.56
605.65	234.05
605.80	180.22
605.96	201.29
606.12	163.84
606.27	194.26
606.43	182.56
606.58	220.01
606.74	170.86
606.89	194.26
607.05	191.92
607.20	227.03
607.36	220.01
607.51	173.20
607.67	191.92
607.82	180.22
607.98	163.84
608.13	152.13
608.29	152.13
608.44	86.60
608.60	189.58
608.75	215.33
608.91	105.32
609.06	205.97
609.22	175.54
609.37	163.84
609.53	217.67
609.68	187.24
609.84	184.90
609.99	184.90
610.15	191.92
610.30	168.52
610.46	175.54
610.61	234.05
610.76	236.39
610.92	124.05
611.07	182.56
611.23	236.39
611.38	184.90
611.54	154.48
611.69	196.60
611.84	215.33
612.00	128.73
612.15	177.88
612.31	124.05
612.46	133.41
612.62	173.20
612.77	236.39
612.92	121.71
613.08	238.73
613.23	196.60
613.39	266.82
613.54	196.60
613.69	126.39
613.85	119.37
614.00	231.71
614.15	236.39
614.31	124.05
614.46	201.29
614.62	95.96
614.77	285.55
614.92	173.20
615.08	248.10
615.23	234.05
615.38	201.29
615.54	177.88
615.69	138.09
615.84	126.39
616.00	163.84
616.15	191.92
616.30	198.95
616.46	234.05
616.61	196.60
616.76	128.73
616.92	133.41
617.07	154.48
617.22	121.71
617.37	100.64
617.53	201.29
617.68	210.65
617.83	170.86
617.99	112.35
618.14	273.84
618.29	222.35
618.45	231.71
618.60	170.86
618.75	163.84
618.90	187.24
619.06	114.69
619.21	236.39
619.36	227.03
619.51	145.11
619.67	210.65
619.82	184.90
619.97	198.95
620.12	147.45
620.28	159.16
620.43	156.82
620.58	81.92
620.73	184.90
620.89	138.09
621.04	182.56
621.19	161.50
621.34	166.18
621.49	154.48
621.65	177.88
621.80	117.03
621.95	147.45
622.10	175.54
622.25	191.92
622.41	168.52
622.56	201.29
622.71	95.96
622.86	184.90
623.01	124.05
623.16	152.13
623.32	175.54
623.47	142.77
623.62	154.48
623.77	210.65
623.92	131.07
624.07	177.88
624.23	184.90
624.38	147.45
624.53	140.43
624.68	77.24
624.83	212.99
624.98	234.05
625.13	191.92
625.29	131.07
625.44	215.33
625.59	126.39
625.74	224.69
625.89	180.22
626.04	191.92
626.19	88.94
626.34	203.63
626.49	189.58
626.65	177.88
626.80	156.82
626.95	175.54
627.10	152.13
627.25	98.30
627.40	126.39
627.55	152.13
627.70	133.41
627.85	175.54
628.00	191.92
628.15	147.45
628.30	140.43
628.45	182.56
628.60	147.45
628.76	126.39
628.91	110.01
629.06	175.54
629.21	81.92
629.36	149.79
629.51	124.05
629.66	131.07
629.81	177.88
629.96	147.45
630.11	140.43
630.26	142.77
630.41	201.29
630.56	191.92
630.71	131.07
630.86	152.13
631.01	93.62
631.16	147.45
631.31	264.48
631.46	189.58
631.61	114.69
631.76	124.05
631.91	112.35
632.06	147.45
632.21	215.33
632.36	177.88
632.51	170.86
632.66	168.52
632.81	142.77
632.96	170.86
633.10	95.96
633.25	201.29
633.40	224.69
633.55	201.29
633.70	184.90
633.85	182.56
634.00	142.77
634.15	135.75
634.30	170.86
634.45	110.01
634.60	147.45
634.75	163.84
634.90	102.98
635.05	212.99
635.19	112.35
635.34	107.66
635.49	117.03
635.64	159.16
635.79	72.56
635.94	170.86
636.09	203.63
636.24	161.50
636.39	173.20
636.53	205.97
636.68	124.05
636.83	182.56
636.98	166.18
637.13	152.13
637.28	170.86
637.43	187.24
637.57	191.92
637.72	220.01
637.87	173.20
638.02	205.97
638.17	194.26
638.32	201.29
638.46	131.07
638.61	182.56
638.76	131.07
638.91	107.66
639.06	133.41
639.20	205.97
639.35	114.69
639.50	117.03
639.65	154.48
639.80	170.86
639.94	220.01
640.09	220.01
640.24	222.35
640.39	290.23
640.54	177.88
640.68	222.35
640.83	145.11
640.98	140.43
641.13	91.28
641.27	156.82
641.42	131.07
641.57	145.11
641.72	126.39
641.86	152.13
642.01	105.32
642.16	98.30
642.31	121.71
642.45	189.58
642.60	154.48
642.75	133.41
642.90	107.66
643.04	117.03
643.19	184.90
643.34	191.92
643.48	152.13
643.63	128.73
643.78	161.50
643.93	98.30
644.07	161.50
644.22	210.65
644.37	110.01
644.51	131.07
644.66	154.48
644.81	133.41
644.95	189.58
645.10	166.18
645.25	184.90
645.39	156.82
645.54	196.60
645.69	126.39
645.83	128.73
645.98	198.95
646.13	135.75
646.27	131.07
646.42	168.52
646.57	138.09
646.71	74.90
646.86	210.65
647.00	147.45
647.15	124.05
647.30	117.03
647.44	98.30
647.59	74.90
647.74	95.96
647.88	133.41
648.03	72.56
648.17	110.01
648.32	126.39
648.47	180.22
648.61	105.32
648.76	156.82
648.90	110.01
649.05	217.67
649.20	138.09
649.34	128.73
649.49	95.96
649.63	173.20
649.78	135.75
649.92	166.18
650.07	220.01
650.21	166.18
650.36	152.13
650.51	138.09
650.65	191.92
650.80	142.77
650.94	65.54
651.09	93.62
651.23	138.09
651.38	194.26
651.52	189.58
651.67	124.05
651.81	77.24
651.96	105.32
652.10	166.18
652.25	187.24
652.39	194.26
652.54	152.13
652.68	182.56
652.83	133.41
652.97	152.13
653.12	175.54
653.26	93.62
653.41	215.33
653.55	93.62
653.70	81.92
653.84	138.09
653.99	168.52
654.13	147.45
654.27	149.79
654.42	131.07
654.56	114.69
654.71	152.13
654.85	133.41
655.00	46.81
655.14	152.13
655.29	201.29
655.43	227.03
655.57	100.64
655.72	149.79
655.86	124.05
656.01	133.41
656.15	84.26
656.30	166.18
656.44	114.69
656.58	95.96
656.73	100.64
656.87	84.26
657.01	70.22
657.16	140.43
657.30	117.03
657.45	191.92
657.59	102.98
657.73	198.95
657.88	168.52
658.02	140.43
658.16	135.75
658.31	166.18
658.45	159.16
658.60	168.52
658.74	86.60
658.88	72.56
659.03	173.20
659.17	72.56
659.31	135.75
659.46	161.50
659.60	126.39
659.74	114.69
659.89	142.77
660.03	177.88
660.17	168.52
660.32	170.86
660.46	189.58
660.60	110.01
660.74	149.79
660.89	154.48
661.03	126.39
661.17	166.18
661.32	147.45
661.46	210.65
661.60	107.66
661.74	180.22
661.89	110.01
662.03	163.84
662.17	138.09
662.31	114.69
662.46	156.82
662.60	145.11
662.74	175.54
662.88	119.37
663.03	124.05
663.17	84.26
663.31	86.60
663.45	93.62
663.60	145.11
663.74	170.86
663.88	161.50
664.02	182.56
664.17	182.56
664.31	227.03
664.45	131.07
664.59	91.28
664.73	159.16
664.88	140.43
665.02	138.09
665.16	140.43
665.30	102.98
665.44	159.16
665.59	105.32
665.73	98.30
665.87	91.28
666.01	84.26
666.15	121.71
666.29	74.90
666.44	215.33
666.58	126.39
666.72	119.37
666.86	65.54
667.00	194.26
667.14	168.52
667.28	140.43
667.43	191.92
667.57	173.20
667.71	175.54
667.85	182.56
667.99	170.86
668.13	112.35
668.27	203.63
668.41	191.92
668.56	105.32
668.70	128.73
668.84	149.79
668.98	110.01
669.12	135.75
669.26	152.13
669.40	180.22
669.54	177.88
669.68	110.01
669.82	77.24
669.96	189.58
670.10	149.79
670.25	138.09
670.39	131.07
670.53	32.77
670.67	114.69
670.81	119.37
670.95	138.09
671.09	189.58
671.23	126.39
671.37	182.56
671.51	175.54
671.65	56.17
671.79	149.79
671.93	77.24
672.07	203.63
672.21	163.84
672.35	133.41
672.49	184.90
672.63	163.84
672.77	152.13
672.91	128.73
673.05	79.58
673.19	131.07
673.33	128.73
673.47	238.73
673.61	93.62
673.75	117.03
673.89	102.98
674.03	168.52
674.17	119.37
674.31	175.54
674.45	159.16
674.59	163.84
674.73	182.56
674.87	119.37
675.01	163.84
675.15	39.79
675.29	107.66
675.43	145.11
675.56	243.42
675.70	215.33
675.84	187.24
675.98	154.48
676.12	138.09
676.26	84.26
676.40	135.75
676.54	86.60
676.68	114.69
676.82	142.77
676.96	98.30
677.10	81.92
677.23	91.28
677.37	107.66
677.51	119.37
677.65	119.37
677.79	191.92
677.93	124.05
678.07	168.52
678.21	121.71
678.34	65.54
678.48	79.58
678.62	152.13
678.76	95.96
678.90	105.32
679.04	163.84
679.18	149.79
679.31	140.43
679.45	112.35
679.59	84.26
679.73	133.41
679.87	98.30
680.00	102.98
680.14	110.01
680.28	152.13
680.42	159.16
680.56	154.48
680.70	149.79
680.83	98.30
680.97	58.51
681.11	128.73
681.25	149.79
681.39	175.54
681.52	124.05
681.66	114.69
681.80	121.71
681.94	84.26
682.07	168.52
682.21	145.11
682.35	149.79
682.49	112.35
682.62	182.56
682.76	117.03
682.90	166.18
683.04	126.39
683.17	72.56
683.31	110.01
683.45	86.60
683.59	154.48
683.72	121.71
683.86	81.92
684.00	156.82
684.13	201.29
684.27	91.28
684.41	110.01
684.55	145.11
684.68	112.35
684.82	110.01
684.96	114.69
685.09	140.43
685.23	175.54
685.37	105.32
685.50	166.18
685.64	135.75
685.78	110.01
685.91	147.45
686.05	110.01
686.19	98.30
686.32	60.85
686.46	166.18
686.60	105.32
686.73	210.65
686.87	170.86
687.01	142.77
687.14	149.79
687.28	88.94
687.42	102.98
687.55	95.96
687.69	175.54
687.82	93.62
687.96	154.48
688.10	170.86
688.23	142.77
688.37	140.43
688.50	124.05
688.64	119.37
688.78	110.01
688.91	84.26
689.05	65.54
689.18	72.56
689.32	128.73
689.46	63.19
689.59	81.92
689.73	140.43
689.86	114.69
690.00	128.73
690.13	88.94
690.27	152.13
690.41	245.76
690.54	117.03
690.68	156.82
690.81	124.05
690.95	25.75
691.08	138.09
691.22	79.58
691.35	51.49
691.49	84.26
691.62	166.18
691.76	161.50
691.89	72.56
692.03	37.45
692.16	88.94
692.30	135.75
692.43	81.92
692.57	100.64
692.70	145.11
692.84	149.79
692.97	91.28
693.11	63.19
693.24	133.41
693.38	37.45
693.51	32.77
693.65	140.43
693.78	128.73
693.92	98.30
694.05	107.66
694.19	133.41
694.32	126.39
694.45	70.22
694.59	49.15
694.72	107.66
694.86	60.85
694.99	117.03
695.13	149.79
695.26	91.28
695.39	86.60
695.53	182.56
695.66	107.66
695.80	135.75
695.93	81.92
696.07	72.56
696.20	102.98
696.33	84.26
696.47	114.69
696.60	56.17
696.73	93.62
696.87	74.90
697.00	114.69
697.14	117.03
697.27	100.64
697.40	133.41
697.54	112.35
697.67	60.85
697.80	93.62
697.94	74.90
698.07	138.09
698.21	39.79
698.34	60.85
698.47	72.56
698.61	124.05
698.74	100.64
698.87	65.54
699.01	110.01
699.14	93.62
699.27	93.62
699.40	248.10
699.54	70.22
699.67	121.71
699.80	84.26
699.94	131.07
700.07	72.56
700.20	58.51
700.34	58.51
700.47	49.15
700.60	0.00
700.73	63.19
700.87	100.64
701.00	95.96
701.13	74.90
701.26	128.73
701.40	140.43
701.53	77.24
701.66	44.47
701.79	81.92
701.93	84.26
702.06	205.97
702.19	131.07
702.32	67.88
702.46	65.54
702.59	42.13
702.72	117.03
702.85	91.28
702.99	77.24
703.12	119.37
703.25	159.16
703.38	110.01
703.51	2.34
703.65	128.73
703.78	112.35
703.91	93.62
704.04	142.77
704.17	74.90
704.31	0.00
704.44	100.64
704.57	81.92
704.70	112.35
704.83	74.90
704.96	166.18
705.10	74.90
705.23	58.51
>>>>>End Processed Spectral Data<<<<<
