SpectraSuite Data File
++++++++++++++++++++++++++++++++++++
Date: Fri Oct 04 11:51:09 GMT-05:00 2013
User: price-jones
Dark Spectrum Present: No
Reference Spectrum Present: No
Number of Sampled Component Spectra: 1
Spectrometers: USB2+H05261
Integration Time (usec): 100000 (USB2+H05261)
Spectra Averaged: 1 (USB2+H05261)
Boxcar Smoothing: 0 (USB2+H05261)
Correct for Electrical Dark: No (USB2+H05261)
Strobe/Lamp Enabled: No (USB2+H05261)
Correct for Detector Non-linearity: No (USB2+H05261)
Correct for Stray Light: No (USB2+H05261)
Number of Pixels in Processed Spectrum: 2048
>>>>>Begin Processed Spectral Data<<<<<
365.73	18.72
365.92	18.72
366.12	18.72
366.32	0.00
366.52	0.00
366.72	0.00
366.91	0.00
367.11	0.00
367.31	0.00
367.51	0.00
367.70	0.00
367.90	0.00
368.10	0.00
368.30	0.00
368.49	0.00
368.69	0.00
368.89	0.00
369.09	0.00
369.28	0.00
369.48	0.00
369.68	0.00
369.87	0.00
370.07	14.04
370.27	0.00
370.47	0.00
370.66	0.00
370.86	42.13
371.06	0.00
371.25	53.83
371.45	44.47
371.65	63.19
371.84	74.90
372.04	56.17
372.24	70.22
372.44	58.51
372.63	39.79
372.83	133.41
373.03	56.17
373.22	63.19
373.42	67.88
373.62	35.11
373.81	98.30
374.01	86.60
374.21	131.07
374.40	70.22
374.60	117.03
374.79	63.19
374.99	35.11
375.19	79.58
375.38	152.13
375.58	133.41
375.78	124.05
375.97	182.56
376.17	117.03
376.37	107.66
376.56	72.56
376.76	138.09
376.95	138.09
377.15	70.22
377.35	46.81
377.54	72.56
377.74	124.05
377.93	72.56
378.13	93.62
378.33	187.24
378.52	100.64
378.72	74.90
378.91	0.00
379.11	79.58
379.31	46.81
379.50	25.75
379.70	114.69
379.89	126.39
380.09	65.54
380.28	86.60
380.48	98.30
380.68	58.51
380.87	117.03
381.07	110.01
381.26	117.03
381.46	154.48
381.65	98.30
381.85	133.41
382.04	107.66
382.24	70.22
382.43	44.47
382.63	23.41
382.83	72.56
383.02	121.71
383.22	156.82
383.41	154.48
383.61	168.52
383.80	42.13
384.00	91.28
384.19	91.28
384.39	4.68
384.58	102.98
384.78	81.92
384.97	100.64
385.17	49.15
385.36	37.45
385.56	135.75
385.75	88.94
385.95	77.24
386.14	81.92
386.34	67.88
386.53	51.49
386.72	84.26
386.92	86.60
387.11	46.81
387.31	91.28
387.50	81.92
387.70	133.41
387.89	56.17
388.09	44.47
388.28	42.13
388.48	53.83
388.67	58.51
388.86	44.47
389.06	0.00
389.25	51.49
389.45	51.49
389.64	112.35
389.84	88.94
390.03	105.32
390.22	84.26
390.42	32.77
390.61	53.83
390.81	30.43
391.00	23.41
391.19	187.24
391.39	93.62
391.58	135.75
391.78	131.07
391.97	119.37
392.16	49.15
392.36	102.98
392.55	131.07
392.75	152.13
392.94	95.96
393.13	56.17
393.33	81.92
393.52	112.35
393.71	77.24
393.91	46.81
394.10	128.73
394.29	91.28
394.49	72.56
394.68	114.69
394.88	51.49
395.07	67.88
395.26	74.90
395.46	168.52
395.65	105.32
395.84	91.28
396.04	112.35
396.23	49.15
396.42	32.77
396.62	67.88
396.81	119.37
397.00	131.07
397.19	114.69
397.39	65.54
397.58	67.88
397.77	67.88
397.97	58.51
398.16	37.45
398.35	98.30
398.55	63.19
398.74	102.98
398.93	102.98
399.12	21.06
399.32	107.66
399.51	159.16
399.70	161.50
399.90	84.26
400.09	70.22
400.28	131.07
400.47	86.60
400.67	107.66
400.86	95.96
401.05	149.79
401.24	23.41
401.44	140.43
401.63	114.69
401.82	112.35
402.01	51.49
402.21	88.94
402.40	79.58
402.59	112.35
402.78	142.77
402.97	110.01
403.17	121.71
403.36	67.88
403.55	70.22
403.74	42.13
403.93	100.64
404.13	128.73
404.32	53.83
404.51	23.41
404.70	152.13
404.89	44.47
405.09	86.60
405.28	81.92
405.47	60.85
405.66	156.82
405.85	95.96
406.05	77.24
406.24	0.00
406.43	51.49
406.62	72.56
406.81	156.82
407.00	53.83
407.20	91.28
407.39	135.75
407.58	84.26
407.77	124.05
407.96	156.82
408.15	107.66
408.34	58.51
408.54	25.75
408.73	21.06
408.92	126.39
409.11	37.45
409.30	70.22
409.49	149.79
409.68	98.30
409.87	184.90
410.07	112.35
410.26	152.13
410.45	105.32
410.64	21.06
410.83	67.88
411.02	72.56
411.21	133.41
411.40	93.62
411.59	98.30
411.78	133.41
411.98	42.13
412.17	65.54
412.36	86.60
412.55	63.19
412.74	102.98
412.93	102.98
413.12	154.48
413.31	9.36
413.50	72.56
413.69	107.66
413.88	135.75
414.07	37.45
414.26	159.16
414.45	117.03
414.64	63.19
414.83	74.90
415.02	170.86
415.22	95.96
415.41	84.26
415.60	107.66
415.79	117.03
415.98	117.03
416.17	121.71
416.36	135.75
416.55	100.64
416.74	102.98
416.93	145.11
417.12	166.18
417.31	93.62
417.50	56.17
417.69	91.28
417.88	131.07
418.07	79.58
418.26	81.92
418.45	117.03
418.64	117.03
418.83	60.85
419.02	46.81
419.21	152.13
419.39	102.98
419.58	138.09
419.77	65.54
419.96	88.94
420.15	170.86
420.34	86.60
420.53	105.32
420.72	159.16
420.91	121.71
421.10	86.60
421.29	95.96
421.48	110.01
421.67	112.35
421.86	56.17
422.05	53.83
422.24	110.01
422.43	128.73
422.61	93.62
422.80	156.82
422.99	187.24
423.18	44.47
423.37	135.75
423.56	86.60
423.75	170.86
423.94	95.96
424.13	133.41
424.32	79.58
424.50	102.98
424.69	117.03
424.88	154.48
425.07	112.35
425.26	215.33
425.45	154.48
425.64	110.01
425.83	112.35
426.01	79.58
426.20	124.05
426.39	100.64
426.58	110.01
426.77	72.56
426.96	152.13
427.15	67.88
427.33	102.98
427.52	39.79
427.71	119.37
427.90	142.77
428.09	100.64
428.28	95.96
428.46	102.98
428.65	121.71
428.84	126.39
429.03	168.52
429.22	56.17
429.40	124.05
429.59	112.35
429.78	175.54
429.97	65.54
430.16	86.60
430.34	91.28
430.53	79.58
430.72	124.05
430.91	28.09
431.10	105.32
431.28	49.15
431.47	142.77
431.66	119.37
431.85	175.54
432.03	58.51
432.22	159.16
432.41	142.77
432.60	131.07
432.79	138.09
432.97	105.32
433.16	159.16
433.35	65.54
433.54	105.32
433.72	133.41
433.91	91.28
434.10	138.09
434.28	117.03
434.47	86.60
434.66	126.39
434.85	142.77
435.03	177.88
435.22	110.01
435.41	205.97
435.59	110.01
435.78	79.58
435.97	60.85
436.16	152.13
436.34	100.64
436.53	128.73
436.72	65.54
436.90	114.69
437.09	138.09
437.28	142.77
437.46	161.50
437.65	156.82
437.84	173.20
438.02	79.58
438.21	170.86
438.40	124.05
438.58	107.66
438.77	194.26
438.96	88.94
439.14	86.60
439.33	128.73
439.52	140.43
439.70	81.92
439.89	159.16
440.08	117.03
440.26	135.75
440.45	105.32
440.63	168.52
440.82	100.64
441.01	135.75
441.19	86.60
441.38	107.66
441.57	65.54
441.75	203.63
441.94	189.58
442.12	117.03
442.31	189.58
442.50	74.90
442.68	110.01
442.87	124.05
443.05	145.11
443.24	208.31
443.43	191.92
443.61	126.39
443.80	147.45
443.98	124.05
444.17	98.30
444.35	124.05
444.54	72.56
444.73	95.96
444.91	163.84
445.10	100.64
445.28	128.73
445.47	128.73
445.65	30.43
445.84	98.30
446.02	91.28
446.21	119.37
446.39	110.01
446.58	112.35
446.77	126.39
446.95	147.45
447.14	217.67
447.32	105.32
447.51	217.67
447.69	175.54
447.88	100.64
448.06	215.33
448.25	168.52
448.43	159.16
448.62	131.07
448.80	156.82
448.99	217.67
449.17	145.11
449.36	102.98
449.54	175.54
449.73	117.03
449.91	147.45
450.10	102.98
450.28	201.29
450.46	173.20
450.65	93.62
450.83	177.88
451.02	135.75
451.20	131.07
451.39	133.41
451.57	105.32
451.76	135.75
451.94	152.13
452.13	140.43
452.31	182.56
452.49	112.35
452.68	189.58
452.86	142.77
453.05	205.97
453.23	56.17
453.42	140.43
453.60	98.30
453.78	135.75
453.97	133.41
454.15	79.58
454.34	11.70
454.52	175.54
454.70	147.45
454.89	112.35
455.07	119.37
455.26	124.05
455.44	180.22
455.62	117.03
455.81	46.81
455.99	67.88
456.17	149.79
456.36	128.73
456.54	63.19
456.73	152.13
456.91	84.26
457.09	98.30
457.28	126.39
457.46	128.73
457.64	168.52
457.83	159.16
458.01	117.03
458.19	163.84
458.38	126.39
458.56	93.62
458.74	100.64
458.93	177.88
459.11	142.77
459.29	119.37
459.48	142.77
459.66	205.97
459.84	182.56
460.03	154.48
460.21	126.39
460.39	194.26
460.57	128.73
460.76	163.84
460.94	159.16
461.12	126.39
461.31	168.52
461.49	156.82
461.67	86.60
461.85	180.22
462.04	163.84
462.22	610.88
462.40	135.75
462.59	163.84
462.77	128.73
462.95	135.75
463.13	100.64
463.32	205.97
463.50	154.48
463.68	149.79
463.86	168.52
464.05	131.07
464.23	124.05
464.41	166.18
464.59	112.35
464.78	18.72
464.96	149.79
465.14	154.48
465.32	86.60
465.50	180.22
465.69	163.84
465.87	58.51
466.05	145.11
466.23	88.94
466.41	133.41
466.60	100.64
466.78	131.07
466.96	196.60
467.14	152.13
467.32	114.69
467.51	154.48
467.69	107.66
467.87	229.37
468.05	51.49
468.23	170.86
468.41	138.09
468.60	112.35
468.78	131.07
468.96	154.48
469.14	236.39
469.32	100.64
469.50	142.77
469.69	135.75
469.87	107.66
470.05	184.90
470.23	53.83
470.41	149.79
470.59	142.77
470.77	100.64
470.95	161.50
471.14	196.60
471.32	131.07
471.50	222.35
471.68	161.50
471.86	159.16
472.04	138.09
472.22	119.37
472.40	126.39
472.58	131.07
472.77	93.62
472.95	93.62
473.13	227.03
473.31	140.43
473.49	145.11
473.67	128.73
473.85	177.88
474.03	138.09
474.21	119.37
474.39	133.41
474.57	227.03
474.75	220.01
474.93	159.16
475.12	149.79
475.30	140.43
475.48	105.32
475.66	177.88
475.84	154.48
476.02	140.43
476.20	128.73
476.38	128.73
476.56	212.99
476.74	114.69
476.92	121.71
477.10	156.82
477.28	227.03
477.46	133.41
477.64	140.43
477.82	105.32
478.00	166.18
478.18	152.13
478.36	95.96
478.54	119.37
478.72	175.54
478.90	175.54
479.08	220.01
479.26	154.48
479.44	119.37
479.62	145.11
479.80	88.94
479.98	98.30
480.16	131.07
480.34	114.69
480.52	126.39
480.70	152.13
480.88	166.18
481.06	147.45
481.24	124.05
481.41	124.05
481.59	224.69
481.77	243.42
481.95	112.35
482.13	215.33
482.31	100.64
482.49	112.35
482.67	140.43
482.85	184.90
483.03	177.88
483.21	147.45
483.39	161.50
483.57	152.13
483.74	175.54
483.92	147.45
484.10	88.94
484.28	142.77
484.46	266.82
484.64	154.48
484.82	170.86
485.00	177.88
485.18	196.60
485.35	156.82
485.53	147.45
485.71	255.12
485.89	79.58
486.07	105.32
486.25	140.43
486.43	212.99
486.61	201.29
486.78	149.79
486.96	140.43
487.14	117.03
487.32	145.11
487.50	175.54
487.68	147.45
487.85	81.92
488.03	88.94
488.21	222.35
488.39	196.60
488.57	215.33
488.75	149.79
488.92	425.98
489.10	187.24
489.28	149.79
489.46	163.84
489.64	70.22
489.81	208.31
489.99	177.88
490.17	184.90
490.35	229.37
490.53	138.09
490.70	140.43
490.88	234.05
491.06	102.98
491.24	149.79
491.41	201.29
491.59	175.54
491.77	135.75
491.95	156.82
492.13	163.84
492.30	152.13
492.48	180.22
492.66	255.12
492.84	224.69
493.01	208.31
493.19	180.22
493.37	154.48
493.54	198.95
493.72	170.86
493.90	112.35
494.08	138.09
494.25	140.43
494.43	229.37
494.61	142.77
494.79	191.92
494.96	177.88
495.14	166.18
495.32	163.84
495.49	159.16
495.67	184.90
495.85	79.58
496.02	114.69
496.20	180.22
496.38	180.22
496.55	210.65
496.73	229.37
496.91	205.97
497.09	236.39
497.26	182.56
497.44	166.18
497.62	177.88
497.79	196.60
497.97	201.29
498.14	182.56
498.32	236.39
498.50	203.63
498.67	180.22
498.85	217.67
499.03	135.75
499.20	168.52
499.38	191.92
499.56	191.92
499.73	280.86
499.91	203.63
500.08	229.37
500.26	201.29
500.44	135.75
500.61	196.60
500.79	145.11
500.97	166.18
501.14	208.31
501.32	149.79
501.49	269.16
501.67	187.24
501.84	217.67
502.02	168.52
502.20	252.78
502.37	198.95
502.55	257.46
502.72	121.71
502.90	215.33
503.07	180.22
503.25	173.20
503.43	117.03
503.60	156.82
503.78	168.52
503.95	250.44
504.13	191.92
504.30	156.82
504.48	215.33
504.65	269.16
504.83	203.63
505.01	161.50
505.18	170.86
505.36	220.01
505.53	220.01
505.71	180.22
505.88	189.58
506.06	124.05
506.23	159.16
506.41	154.48
506.58	187.24
506.76	198.95
506.93	191.92
507.11	220.01
507.28	208.31
507.46	208.31
507.63	217.67
507.81	159.16
507.98	147.45
508.16	182.56
508.33	234.05
508.50	215.33
508.68	194.26
508.85	208.31
509.03	203.63
509.20	217.67
509.38	168.52
509.55	290.23
509.73	180.22
509.90	212.99
510.08	215.33
510.25	135.75
510.42	292.57
510.60	215.33
510.77	238.73
510.95	198.95
511.12	166.18
511.30	255.12
511.47	196.60
511.64	271.50
511.82	159.16
511.99	166.18
512.17	201.29
512.34	140.43
512.51	138.09
512.69	177.88
512.86	278.52
513.04	173.20
513.21	215.33
513.38	187.24
513.56	180.22
513.73	229.37
513.90	177.88
514.08	220.01
514.25	194.26
514.43	180.22
514.60	135.75
514.77	229.37
514.95	222.35
515.12	145.11
515.29	205.97
515.47	156.82
515.64	208.31
515.81	210.65
515.99	173.20
516.16	152.13
516.33	196.60
516.51	234.05
516.68	212.99
516.85	175.54
517.03	191.92
517.20	222.35
517.37	180.22
517.54	177.88
517.72	177.88
517.89	220.01
518.06	163.84
518.24	205.97
518.41	198.95
518.58	224.69
518.75	220.01
518.93	163.84
519.10	194.26
519.27	243.42
519.45	182.56
519.62	175.54
519.79	198.95
519.96	182.56
520.14	262.14
520.31	234.05
520.48	198.95
520.65	189.58
520.83	222.35
521.00	250.44
521.17	198.95
521.34	166.18
521.52	182.56
521.69	224.69
521.86	175.54
522.03	163.84
522.20	205.97
522.38	140.43
522.55	149.79
522.72	166.18
522.89	236.39
523.07	177.88
523.24	236.39
523.41	170.86
523.58	182.56
523.75	168.52
523.92	107.66
524.10	128.73
524.27	245.76
524.44	135.75
524.61	191.92
524.78	191.92
524.96	210.65
525.13	208.31
525.30	222.35
525.47	241.08
525.64	194.26
525.81	187.24
525.98	175.54
526.16	182.56
526.33	168.52
526.50	222.35
526.67	222.35
526.84	182.56
527.01	175.54
527.18	252.78
527.36	308.95
527.53	182.56
527.70	273.84
527.87	215.33
528.04	241.08
528.21	168.52
528.38	217.67
528.55	187.24
528.72	266.82
528.89	322.99
529.07	196.60
529.24	205.97
529.41	177.88
529.58	184.90
529.75	154.48
529.92	208.31
530.09	177.88
530.26	271.50
530.43	238.73
530.60	205.97
530.77	231.71
530.94	245.76
531.11	257.46
531.28	269.16
531.46	135.75
531.63	245.76
531.80	203.63
531.97	236.39
532.14	215.33
532.31	264.48
532.48	124.05
532.65	196.60
532.82	236.39
532.99	196.60
533.16	248.10
533.33	339.38
533.50	184.90
533.67	145.11
533.84	241.08
534.01	250.44
534.18	276.18
534.35	182.56
534.52	198.95
534.69	241.08
534.86	236.39
535.03	175.54
535.20	208.31
535.37	189.58
535.54	229.37
535.71	194.26
535.88	212.99
536.05	241.08
536.22	156.82
536.38	255.12
536.55	231.71
536.72	262.14
536.89	217.67
537.06	196.60
537.23	222.35
537.40	187.24
537.57	264.48
537.74	212.99
537.91	250.44
538.08	191.92
538.25	259.80
538.42	198.95
538.59	259.80
538.75	180.22
538.92	231.71
539.09	196.60
539.26	189.58
539.43	208.31
539.60	205.97
539.77	212.99
539.94	231.71
540.11	163.84
540.28	287.89
540.44	278.52
540.61	196.60
540.78	194.26
540.95	182.56
541.12	229.37
541.29	191.92
541.46	257.46
541.62	241.08
541.79	278.52
541.96	168.52
542.13	229.37
542.30	112.35
542.47	189.58
542.63	191.92
542.80	201.29
542.97	252.78
543.14	217.67
543.31	182.56
543.48	212.99
543.64	245.76
543.81	257.46
543.98	194.26
544.15	201.29
544.32	210.65
544.48	208.31
544.65	187.24
544.82	149.79
544.99	231.71
545.16	217.67
545.32	222.35
545.49	285.55
545.66	191.92
545.83	184.90
546.00	173.20
546.16	173.20
546.33	266.82
546.50	198.95
546.67	266.82
546.83	224.69
547.00	208.31
547.17	161.50
547.34	168.52
547.50	203.63
547.67	168.52
547.84	220.01
548.00	205.97
548.17	205.97
548.34	243.42
548.51	271.50
548.67	196.60
548.84	182.56
549.01	201.29
549.18	161.50
549.34	152.13
549.51	231.71
549.68	215.33
549.84	220.01
550.01	264.48
550.18	299.59
550.34	311.29
550.51	210.65
550.68	220.01
550.84	208.31
551.01	234.05
551.18	149.79
551.34	217.67
551.51	177.88
551.68	142.77
551.84	149.79
552.01	215.33
552.18	93.62
552.34	189.58
552.51	201.29
552.68	259.80
552.84	159.16
553.01	212.99
553.18	194.26
553.34	203.63
553.51	191.92
553.67	217.67
553.84	297.25
554.01	208.31
554.17	184.90
554.34	224.69
554.51	250.44
554.67	220.01
554.84	203.63
555.00	234.05
555.17	189.58
555.33	194.26
555.50	170.86
555.67	168.52
555.83	191.92
556.00	266.82
556.16	341.72
556.33	234.05
556.50	182.56
556.66	222.35
556.83	236.39
556.99	149.79
557.16	262.14
557.32	220.01
557.49	285.55
557.65	194.26
557.82	182.56
557.98	215.33
558.15	198.95
558.32	212.99
558.48	212.99
558.65	173.20
558.81	259.80
558.98	196.60
559.14	140.43
559.31	243.42
559.47	168.52
559.64	135.75
559.80	170.86
559.97	140.43
560.13	217.67
560.30	161.50
560.46	196.60
560.63	182.56
560.79	210.65
560.96	177.88
561.12	107.66
561.29	257.46
561.45	189.58
561.61	217.67
561.78	280.86
561.94	187.24
562.11	194.26
562.27	168.52
562.44	222.35
562.60	175.54
562.77	194.26
562.93	203.63
563.10	184.90
563.26	297.25
563.42	215.33
563.59	250.44
563.75	227.03
563.92	252.78
564.08	205.97
564.24	170.86
564.41	229.37
564.57	205.97
564.74	227.03
564.90	201.29
565.07	264.48
565.23	234.05
565.39	173.20
565.56	147.45
565.72	173.20
565.88	149.79
566.05	140.43
566.21	215.33
566.38	198.95
566.54	124.05
566.70	198.95
566.87	217.67
567.03	133.41
567.19	187.24
567.36	241.08
567.52	227.03
567.68	189.58
567.85	212.99
568.01	217.67
568.17	236.39
568.34	170.86
568.50	189.58
568.66	147.45
568.83	252.78
568.99	124.05
569.15	217.67
569.32	210.65
569.48	208.31
569.64	152.13
569.81	217.67
569.97	173.20
570.13	229.37
570.30	245.76
570.46	229.37
570.62	217.67
570.78	170.86
570.95	220.01
571.11	236.39
571.27	215.33
571.43	152.13
571.60	224.69
571.76	173.20
571.92	177.88
572.09	124.05
572.25	105.32
572.41	231.71
572.57	187.24
572.74	259.80
572.90	173.20
573.06	264.48
573.22	189.58
573.38	196.60
573.55	205.97
573.71	238.73
573.87	196.60
574.03	180.22
574.20	271.50
574.36	224.69
574.52	189.58
574.68	196.60
574.84	215.33
575.01	215.33
575.17	154.48
575.33	156.82
575.49	236.39
575.65	184.90
575.82	243.42
575.98	194.26
576.14	215.33
576.30	180.22
576.46	105.32
576.62	161.50
576.79	196.60
576.95	210.65
577.11	187.24
577.27	215.33
577.43	231.71
577.59	180.22
577.75	212.99
577.92	142.77
578.08	114.69
578.24	196.60
578.40	184.90
578.56	243.42
578.72	264.48
578.88	191.92
579.04	168.52
579.21	142.77
579.37	166.18
579.53	140.43
579.69	215.33
579.85	201.29
580.01	189.58
580.17	257.46
580.33	154.48
580.49	215.33
580.65	189.58
580.82	187.24
580.98	198.95
581.14	208.31
581.30	224.69
581.46	264.48
581.62	241.08
581.78	177.88
581.94	166.18
582.10	173.20
582.26	245.76
582.42	212.99
582.58	138.09
582.74	142.77
582.90	205.97
583.06	212.99
583.22	227.03
583.38	140.43
583.54	140.43
583.70	198.95
583.86	198.95
584.02	234.05
584.18	191.92
584.34	138.09
584.50	238.73
584.66	145.11
584.82	252.78
584.98	227.03
585.14	191.92
585.30	234.05
585.46	173.20
585.62	170.86
585.78	212.99
585.94	245.76
586.10	194.26
586.26	217.67
586.42	278.52
586.58	217.67
586.74	243.42
586.90	173.20
587.06	175.54
587.22	222.35
587.38	135.75
587.54	212.99
587.70	215.33
587.86	168.52
588.02	166.18
588.18	93.62
588.34	215.33
588.49	196.60
588.65	128.73
588.81	163.84
588.97	177.88
589.13	196.60
589.29	177.88
589.45	208.31
589.61	131.07
589.77	152.13
589.93	273.84
590.08	140.43
590.24	173.20
590.40	135.75
590.56	189.58
590.72	196.60
590.88	124.05
591.04	126.39
591.20	145.11
591.35	217.67
591.51	194.26
591.67	86.60
591.83	124.05
591.99	170.86
592.15	266.82
592.31	131.07
592.46	149.79
592.62	212.99
592.78	177.88
592.94	175.54
593.10	117.03
593.26	154.48
593.41	182.56
593.57	231.71
593.73	119.37
593.89	138.09
594.05	140.43
594.20	102.98
594.36	187.24
594.52	215.33
594.68	184.90
594.84	236.39
594.99	208.31
595.15	243.42
595.31	161.50
595.47	229.37
595.62	187.24
595.78	180.22
595.94	175.54
596.10	248.10
596.25	102.98
596.41	175.54
596.57	138.09
596.73	196.60
596.88	156.82
597.04	220.01
597.20	191.92
597.36	126.39
597.51	147.45
597.67	201.29
597.83	142.77
597.99	187.24
598.14	215.33
598.30	161.50
598.46	126.39
598.61	259.80
598.77	189.58
598.93	131.07
599.09	208.31
599.24	187.24
599.40	161.50
599.56	168.52
599.71	182.56
599.87	154.48
600.03	248.10
600.18	117.03
600.34	161.50
600.50	86.60
600.65	124.05
600.81	175.54
600.97	98.30
601.12	140.43
601.28	156.82
601.44	177.88
601.59	126.39
601.75	114.69
601.91	182.56
602.06	142.77
602.22	238.73
602.37	208.31
602.53	198.95
602.69	182.56
602.84	212.99
603.00	208.31
603.16	250.44
603.31	229.37
603.47	161.50
603.62	147.45
603.78	238.73
603.94	161.50
604.09	238.73
604.25	163.84
604.40	306.61
604.56	210.65
604.71	156.82
604.87	212.99
605.03	304.27
605.18	196.60
605.34	234.05
605.49	168.52
605.65	117.03
605.80	168.52
605.96	133.41
606.12	201.29
606.27	229.37
606.43	156.82
606.58	156.82
606.74	142.77
606.89	180.22
607.05	182.56
607.20	152.13
607.36	126.39
607.51	138.09
607.67	257.46
607.82	217.67
607.98	175.54
608.13	145.11
608.29	210.65
608.44	245.76
608.60	210.65
608.75	222.35
608.91	180.22
609.06	238.73
609.22	212.99
609.37	224.69
609.53	245.76
609.68	210.65
609.84	191.92
609.99	201.29
610.15	222.35
610.30	166.18
610.46	210.65
610.61	196.60
610.76	168.52
610.92	152.13
611.07	170.86
611.23	187.24
611.38	159.16
611.54	182.56
611.69	159.16
611.84	212.99
612.00	145.11
612.15	67.88
612.31	173.20
612.46	201.29
612.62	154.48
612.77	182.56
612.92	168.52
613.08	210.65
613.23	142.77
613.39	241.08
613.54	159.16
613.69	180.22
613.85	175.54
614.00	154.48
614.15	140.43
614.31	163.84
614.46	250.44
614.62	252.78
614.77	196.60
614.92	138.09
615.08	222.35
615.23	168.52
615.38	208.31
615.54	187.24
615.69	187.24
615.84	194.26
616.00	173.20
616.15	243.42
616.30	243.42
616.46	208.31
616.61	105.32
616.76	191.92
616.92	168.52
617.07	208.31
617.22	170.86
617.37	128.73
617.53	191.92
617.68	212.99
617.83	140.43
617.99	234.05
618.14	196.60
618.29	194.26
618.45	173.20
618.60	257.46
618.75	121.71
618.90	187.24
619.06	142.77
619.21	182.56
619.36	212.99
619.51	234.05
619.67	210.65
619.82	201.29
619.97	175.54
620.12	238.73
620.28	187.24
620.43	205.97
620.58	201.29
620.73	88.94
620.89	100.64
621.04	168.52
621.19	306.61
621.34	189.58
621.49	163.84
621.65	135.75
621.80	145.11
621.95	161.50
622.10	184.90
622.25	154.48
622.41	133.41
622.56	168.52
622.71	189.58
622.86	234.05
623.01	215.33
623.16	203.63
623.32	135.75
623.47	163.84
623.62	182.56
623.77	121.71
623.92	203.63
624.07	203.63
624.23	198.95
624.38	191.92
624.53	224.69
624.68	140.43
624.83	177.88
624.98	245.76
625.13	187.24
625.29	177.88
625.44	201.29
625.59	152.13
625.74	149.79
625.89	189.58
626.04	163.84
626.19	154.48
626.34	114.69
626.49	88.94
626.65	98.30
626.80	138.09
626.95	170.86
627.10	152.13
627.25	117.03
627.40	140.43
627.55	173.20
627.70	161.50
627.85	128.73
628.00	142.77
628.15	128.73
628.30	128.73
628.45	128.73
628.60	142.77
628.76	198.95
628.91	177.88
629.06	77.24
629.21	138.09
629.36	114.69
629.51	86.60
629.66	102.98
629.81	119.37
629.96	191.92
630.11	117.03
630.26	135.75
630.41	215.33
630.56	203.63
630.71	98.30
630.86	135.75
631.01	121.71
631.16	205.97
631.31	173.20
631.46	182.56
631.61	77.24
631.76	142.77
631.91	95.96
632.06	149.79
632.21	259.80
632.36	175.54
632.51	142.77
632.66	149.79
632.81	142.77
632.96	159.16
633.10	163.84
633.25	107.66
633.40	107.66
633.55	98.30
633.70	107.66
633.85	170.86
634.00	128.73
634.15	119.37
634.30	126.39
634.45	198.95
634.60	107.66
634.75	152.13
634.90	77.24
635.05	147.45
635.19	182.56
635.34	198.95
635.49	156.82
635.64	175.54
635.79	145.11
635.94	140.43
636.09	140.43
636.24	241.08
636.39	180.22
636.53	231.71
636.68	156.82
636.83	191.92
636.98	168.52
637.13	135.75
637.28	182.56
637.43	149.79
637.57	217.67
637.72	266.82
637.87	156.82
638.02	44.47
638.17	102.98
638.32	156.82
638.46	135.75
638.61	203.63
638.76	142.77
638.91	145.11
639.06	142.77
639.20	131.07
639.35	128.73
639.50	65.54
639.65	175.54
639.80	163.84
639.94	210.65
640.09	205.97
640.24	152.13
640.39	121.71
640.54	124.05
640.68	198.95
640.83	215.33
640.98	114.69
641.13	177.88
641.27	182.56
641.42	67.88
641.57	168.52
641.72	117.03
641.86	222.35
642.01	74.90
642.16	177.88
642.31	114.69
642.45	166.18
642.60	180.22
642.75	145.11
642.90	154.48
643.04	149.79
643.19	131.07
643.34	159.16
643.48	166.18
643.63	152.13
643.78	173.20
643.93	234.05
644.07	166.18
644.22	91.28
644.37	93.62
644.51	147.45
644.66	145.11
644.81	112.35
644.95	238.73
645.10	91.28
645.25	86.60
645.39	180.22
645.54	182.56
645.69	245.76
645.83	138.09
645.98	234.05
646.13	222.35
646.27	142.77
646.42	131.07
646.57	126.39
646.71	135.75
646.86	142.77
647.00	93.62
647.15	121.71
647.30	105.32
647.44	121.71
647.59	72.56
647.74	156.82
647.88	156.82
648.03	154.48
648.17	210.65
648.32	128.73
648.47	180.22
648.61	117.03
648.76	124.05
648.90	135.75
649.05	191.92
649.20	119.37
649.34	168.52
649.49	88.94
649.63	177.88
649.78	91.28
649.92	112.35
650.07	88.94
650.21	184.90
650.36	152.13
650.51	149.79
650.65	121.71
650.80	163.84
650.94	98.30
651.09	184.90
651.23	168.52
651.38	152.13
651.52	121.71
651.67	156.82
651.81	156.82
651.96	154.48
652.10	128.73
652.25	131.07
652.39	166.18
652.54	102.98
652.68	182.56
652.83	184.90
652.97	175.54
653.12	128.73
653.26	60.85
653.41	117.03
653.55	107.66
653.70	110.01
653.84	161.50
653.99	133.41
654.13	133.41
654.27	210.65
654.42	112.35
654.56	149.79
654.71	222.35
654.85	81.92
655.00	98.30
655.14	117.03
655.29	81.92
655.43	154.48
655.57	42.13
655.72	142.77
655.86	135.75
656.01	74.90
656.15	128.73
656.30	168.52
656.44	175.54
656.58	135.75
656.73	168.52
656.87	140.43
657.01	98.30
657.16	145.11
657.30	81.92
657.45	152.13
657.59	173.20
657.73	168.52
657.88	182.56
658.02	187.24
658.16	215.33
658.31	128.73
658.45	117.03
658.60	88.94
658.74	191.92
658.88	135.75
659.03	70.22
659.17	84.26
659.31	119.37
659.46	128.73
659.60	145.11
659.74	107.66
659.89	114.69
660.03	175.54
660.17	156.82
660.32	189.58
660.46	107.66
660.60	107.66
660.74	166.18
660.89	182.56
661.03	135.75
661.17	98.30
661.32	117.03
661.46	93.62
661.60	124.05
661.74	154.48
661.89	126.39
662.03	180.22
662.17	142.77
662.31	168.52
662.46	124.05
662.60	222.35
662.74	91.28
662.88	133.41
663.03	124.05
663.17	107.66
663.31	196.60
663.45	147.45
663.60	133.41
663.74	126.39
663.88	124.05
664.02	124.05
664.17	133.41
664.31	91.28
664.45	88.94
664.59	121.71
664.73	121.71
664.88	77.24
665.02	126.39
665.16	77.24
665.30	187.24
665.44	187.24
665.59	191.92
665.73	149.79
665.87	205.97
666.01	112.35
666.15	142.77
666.29	168.52
666.44	105.32
666.58	194.26
666.72	121.71
666.86	100.64
667.00	196.60
667.14	81.92
667.28	140.43
667.43	154.48
667.57	203.63
667.71	208.31
667.85	138.09
667.99	124.05
668.13	117.03
668.27	159.16
668.41	177.88
668.56	98.30
668.70	212.99
668.84	95.96
668.98	126.39
669.12	100.64
669.26	105.32
669.40	159.16
669.54	105.32
669.68	121.71
669.82	138.09
669.96	49.15
670.10	117.03
670.25	117.03
670.39	119.37
670.53	119.37
670.67	121.71
670.81	91.28
670.95	163.84
671.09	154.48
671.23	168.52
671.37	182.56
671.51	159.16
671.65	105.32
671.79	128.73
671.93	98.30
672.07	159.16
672.21	117.03
672.35	98.30
672.49	159.16
672.63	210.65
672.77	107.66
672.91	112.35
673.05	117.03
673.19	119.37
673.33	119.37
673.47	161.50
673.61	161.50
673.75	152.13
673.89	100.64
674.03	168.52
674.17	138.09
674.31	156.82
674.45	117.03
674.59	175.54
674.73	112.35
674.87	105.32
675.01	159.16
675.15	182.56
675.29	86.60
675.43	182.56
675.56	175.54
675.70	163.84
675.84	198.95
675.98	81.92
676.12	149.79
676.26	86.60
676.40	159.16
676.54	117.03
676.68	210.65
676.82	222.35
676.96	145.11
677.10	93.62
677.23	126.39
677.37	117.03
677.51	117.03
677.65	140.43
677.79	133.41
677.93	168.52
678.07	77.24
678.21	163.84
678.34	149.79
678.48	156.82
678.62	142.77
678.76	32.77
678.90	154.48
679.04	124.05
679.18	100.64
679.31	154.48
679.45	126.39
679.59	119.37
679.73	138.09
679.87	102.98
680.00	81.92
680.14	114.69
680.28	128.73
680.42	114.69
680.56	145.11
680.70	117.03
680.83	140.43
680.97	128.73
681.11	145.11
681.25	184.90
681.39	91.28
681.52	166.18
681.66	102.98
681.80	168.52
681.94	170.86
682.07	156.82
682.21	156.82
682.35	133.41
682.49	142.77
682.62	98.30
682.76	140.43
682.90	140.43
683.04	156.82
683.17	56.17
683.31	154.48
683.45	161.50
683.59	203.63
683.72	163.84
683.86	145.11
684.00	107.66
684.13	98.30
684.27	51.49
684.41	63.19
684.55	100.64
684.68	161.50
684.82	81.92
684.96	105.32
685.09	128.73
685.23	117.03
685.37	126.39
685.50	154.48
685.64	163.84
685.78	65.54
685.91	0.00
686.05	110.01
686.19	98.30
686.32	91.28
686.46	177.88
686.60	60.85
686.73	163.84
686.87	88.94
687.01	86.60
687.14	95.96
687.28	102.98
687.42	110.01
687.55	88.94
687.69	79.58
687.82	142.77
687.96	93.62
688.10	168.52
688.23	110.01
688.37	184.90
688.50	117.03
688.64	95.96
688.78	70.22
688.91	117.03
689.05	65.54
689.18	102.98
689.32	131.07
689.46	98.30
689.59	138.09
689.73	166.18
689.86	60.85
690.00	91.28
690.13	140.43
690.27	110.01
690.41	135.75
690.54	70.22
690.68	133.41
690.81	79.58
690.95	93.62
691.08	91.28
691.22	72.56
691.35	147.45
691.49	63.19
691.62	84.26
691.76	37.45
691.89	93.62
692.03	140.43
692.16	46.81
692.30	161.50
692.43	110.01
692.57	23.41
692.70	81.92
692.84	149.79
692.97	152.13
693.11	102.98
693.24	84.26
693.38	67.88
693.51	32.77
693.65	119.37
693.78	63.19
693.92	88.94
694.05	154.48
694.19	35.11
694.32	56.17
694.45	107.66
694.59	67.88
694.72	37.45
694.86	72.56
694.99	70.22
695.13	147.45
695.26	140.43
695.39	91.28
695.53	112.35
695.66	74.90
695.80	161.50
695.93	42.13
696.07	91.28
696.20	102.98
696.33	14.04
696.47	70.22
696.60	128.73
696.73	161.50
696.87	168.52
697.00	114.69
697.14	84.26
697.27	95.96
697.40	198.95
697.54	49.15
697.67	93.62
697.80	110.01
697.94	110.01
698.07	30.43
698.21	67.88
698.34	138.09
698.47	112.35
698.61	163.84
698.74	58.51
698.87	124.05
699.01	74.90
699.14	149.79
699.27	159.16
699.40	131.07
699.54	81.92
699.67	126.39
699.80	107.66
699.94	81.92
700.07	86.60
700.20	81.92
700.34	170.86
700.47	95.96
700.60	58.51
700.73	42.13
700.87	126.39
701.00	114.69
701.13	117.03
701.26	110.01
701.40	86.60
701.53	79.58
701.66	114.69
701.79	138.09
701.93	156.82
702.06	133.41
702.19	135.75
702.32	121.71
702.46	98.30
702.59	161.50
702.72	16.38
702.85	105.32
702.99	84.26
703.12	170.86
703.25	67.88
703.38	77.24
703.51	44.47
703.65	86.60
703.78	46.81
703.91	72.56
704.04	166.18
704.17	42.13
704.31	84.26
704.44	112.35
704.57	86.60
704.70	100.64
704.83	180.22
704.96	138.09
705.10	93.62
705.23	84.26
>>>>>End Processed Spectral Data<<<<<
