SpectraSuite Data File
++++++++++++++++++++++++++++++++++++
Date: Fri Oct 04 11:47:21 GMT-05:00 2013
User: price-jones
Dark Spectrum Present: No
Reference Spectrum Present: No
Number of Sampled Component Spectra: 1
Spectrometers: USB2+H05261
Integration Time (usec): 100000 (USB2+H05261)
Spectra Averaged: 1 (USB2+H05261)
Boxcar Smoothing: 0 (USB2+H05261)
Correct for Electrical Dark: No (USB2+H05261)
Strobe/Lamp Enabled: No (USB2+H05261)
Correct for Detector Non-linearity: No (USB2+H05261)
Correct for Stray Light: No (USB2+H05261)
Number of Pixels in Processed Spectrum: 2048
>>>>>Begin Processed Spectral Data<<<<<
365.73	81.92
365.92	81.92
366.12	81.92
366.32	0.00
366.52	0.00
366.72	0.00
366.91	0.00
367.11	0.00
367.31	0.00
367.51	0.00
367.70	0.00
367.90	0.00
368.10	0.00
368.30	0.00
368.49	0.00
368.69	0.00
368.89	0.00
369.09	0.00
369.28	0.00
369.48	0.00
369.68	7.02
369.87	0.00
370.07	0.00
370.27	0.00
370.47	0.00
370.66	0.00
370.86	18.72
371.06	110.01
371.25	124.05
371.45	25.75
371.65	56.17
371.84	63.19
372.04	72.56
372.24	37.45
372.44	117.03
372.63	140.43
372.83	77.24
373.03	98.30
373.22	0.00
373.42	126.39
373.62	14.04
373.81	98.30
374.01	147.45
374.21	86.60
374.40	100.64
374.60	168.52
374.79	133.41
374.99	159.16
375.19	93.62
375.38	133.41
375.58	124.05
375.78	145.11
375.97	98.30
376.17	131.07
376.37	112.35
376.56	117.03
376.76	67.88
376.95	84.26
377.15	119.37
377.35	84.26
377.54	86.60
377.74	84.26
377.93	72.56
378.13	46.81
378.33	65.54
378.52	35.11
378.72	119.37
378.91	100.64
379.11	105.32
379.31	74.90
379.50	21.06
379.70	79.58
379.89	121.71
380.09	107.66
380.28	93.62
380.48	180.22
380.68	23.41
380.87	102.98
381.07	74.90
381.26	98.30
381.46	86.60
381.65	93.62
381.85	35.11
382.04	91.28
382.24	138.09
382.43	42.13
382.63	42.13
382.83	53.83
383.02	93.62
383.22	119.37
383.41	60.85
383.61	60.85
383.80	93.62
384.00	70.22
384.19	39.79
384.39	112.35
384.58	105.32
384.78	126.39
384.97	86.60
385.17	67.88
385.36	63.19
385.56	44.47
385.75	74.90
385.95	110.01
386.14	117.03
386.34	100.64
386.53	51.49
386.72	39.79
386.92	149.79
387.11	98.30
387.31	77.24
387.50	35.11
387.70	46.81
387.89	131.07
388.09	39.79
388.28	133.41
388.48	77.24
388.67	128.73
388.86	105.32
389.06	170.86
389.25	131.07
389.45	86.60
389.64	23.41
389.84	138.09
390.03	32.77
390.22	25.75
390.42	65.54
390.61	124.05
390.81	70.22
391.00	0.00
391.19	84.26
391.39	91.28
391.58	81.92
391.78	140.43
391.97	100.64
392.16	42.13
392.36	180.22
392.55	86.60
392.75	180.22
392.94	88.94
393.13	149.79
393.33	72.56
393.52	154.48
393.71	163.84
393.91	37.45
394.10	42.13
394.29	149.79
394.49	119.37
394.68	126.39
394.88	124.05
395.07	121.71
395.26	166.18
395.46	30.43
395.65	88.94
395.84	131.07
396.04	147.45
396.23	72.56
396.42	102.98
396.62	37.45
396.81	126.39
397.00	72.56
397.19	117.03
397.39	67.88
397.58	91.28
397.77	117.03
397.97	105.32
398.16	114.69
398.35	51.49
398.55	63.19
398.74	105.32
398.93	135.75
399.12	81.92
399.32	60.85
399.51	112.35
399.70	135.75
399.90	105.32
400.09	149.79
400.28	100.64
400.47	140.43
400.67	88.94
400.86	131.07
401.05	170.86
401.24	58.51
401.44	133.41
401.63	114.69
401.82	100.64
402.01	93.62
402.21	77.24
402.40	93.62
402.59	152.13
402.78	138.09
402.97	119.37
403.17	140.43
403.36	147.45
403.55	84.26
403.74	0.00
403.93	138.09
404.13	161.50
404.32	60.85
404.51	77.24
404.70	131.07
404.89	105.32
405.09	133.41
405.28	138.09
405.47	70.22
405.66	58.51
405.85	102.98
406.05	145.11
406.24	184.90
406.43	133.41
406.62	119.37
406.81	133.41
407.00	79.58
407.20	93.62
407.39	117.03
407.58	168.52
407.77	70.22
407.96	135.75
408.15	128.73
408.34	86.60
408.54	42.13
408.73	77.24
408.92	65.54
409.11	72.56
409.30	170.86
409.49	131.07
409.68	79.58
409.87	72.56
410.07	93.62
410.26	81.92
410.45	100.64
410.64	119.37
410.83	88.94
411.02	128.73
411.21	95.96
411.40	205.97
411.59	77.24
411.78	70.22
411.98	95.96
412.17	124.05
412.36	142.77
412.55	140.43
412.74	91.28
412.93	126.39
413.12	63.19
413.31	79.58
413.50	81.92
413.69	138.09
413.88	21.06
414.07	81.92
414.26	63.19
414.45	145.11
414.64	100.64
414.83	112.35
415.02	84.26
415.22	140.43
415.41	105.32
415.60	56.17
415.79	154.48
415.98	152.13
416.17	93.62
416.36	110.01
416.55	88.94
416.74	170.86
416.93	58.51
417.12	35.11
417.31	84.26
417.50	65.54
417.69	147.45
417.88	126.39
418.07	46.81
418.26	147.45
418.45	44.47
418.64	191.92
418.83	138.09
419.02	173.20
419.21	32.77
419.39	95.96
419.58	84.26
419.77	79.58
419.96	133.41
420.15	131.07
420.34	102.98
420.53	46.81
420.72	189.58
420.91	175.54
421.10	102.98
421.29	102.98
421.48	79.58
421.67	187.24
421.86	51.49
422.05	70.22
422.24	119.37
422.43	107.66
422.61	79.58
422.80	128.73
422.99	173.20
423.18	121.71
423.37	159.16
423.56	51.49
423.75	138.09
423.94	81.92
424.13	182.56
424.32	145.11
424.50	86.60
424.69	121.71
424.88	159.16
425.07	11.70
425.26	133.41
425.45	147.45
425.64	98.30
425.83	91.28
426.01	107.66
426.20	121.71
426.39	98.30
426.58	88.94
426.77	154.48
426.96	135.75
427.15	140.43
427.33	88.94
427.52	189.58
427.71	140.43
427.90	107.66
428.09	65.54
428.28	140.43
428.46	117.03
428.65	91.28
428.84	107.66
429.03	180.22
429.22	121.71
429.40	67.88
429.59	81.92
429.78	191.92
429.97	70.22
430.16	121.71
430.34	32.77
430.53	32.77
430.72	23.41
430.91	81.92
431.10	163.84
431.28	133.41
431.47	182.56
431.66	114.69
431.85	121.71
432.03	37.45
432.22	112.35
432.41	110.01
432.60	184.90
432.79	110.01
432.97	95.96
433.16	147.45
433.35	79.58
433.54	147.45
433.72	112.35
433.91	63.19
434.10	131.07
434.28	161.50
434.47	91.28
434.66	184.90
434.85	149.79
435.03	161.50
435.22	112.35
435.41	84.26
435.59	128.73
435.78	110.01
435.97	72.56
436.16	74.90
436.34	110.01
436.53	93.62
436.72	138.09
436.90	117.03
437.09	72.56
437.28	124.05
437.46	100.64
437.65	161.50
437.84	149.79
438.02	0.00
438.21	107.66
438.40	72.56
438.58	124.05
438.77	170.86
438.96	131.07
439.14	77.24
439.33	124.05
439.52	74.90
439.70	100.64
439.89	156.82
440.08	91.28
440.26	119.37
440.45	180.22
440.63	70.22
440.82	105.32
441.01	93.62
441.19	121.71
441.38	128.73
441.57	142.77
441.75	198.95
441.94	177.88
442.12	159.16
442.31	126.39
442.50	77.24
442.68	63.19
442.87	173.20
443.05	133.41
443.24	140.43
443.43	140.43
443.61	138.09
443.80	110.01
443.98	145.11
444.17	140.43
444.35	126.39
444.54	126.39
444.73	135.75
444.91	93.62
445.10	168.52
445.28	131.07
445.47	53.83
445.65	135.75
445.84	72.56
446.02	102.98
446.21	170.86
446.39	39.79
446.58	149.79
446.77	128.73
446.95	159.16
447.14	117.03
447.32	201.29
447.51	133.41
447.69	110.01
447.88	56.17
448.06	145.11
448.25	131.07
448.43	81.92
448.62	11.70
448.80	119.37
448.99	196.60
449.17	135.75
449.36	65.54
449.54	175.54
449.73	67.88
449.91	170.86
450.10	100.64
450.28	205.97
450.46	166.18
450.65	128.73
450.83	86.60
451.02	86.60
451.20	124.05
451.39	102.98
451.57	170.86
451.76	77.24
451.94	187.24
452.13	170.86
452.31	191.92
452.49	145.11
452.68	126.39
452.86	126.39
453.05	154.48
453.23	154.48
453.42	25.75
453.60	131.07
453.78	180.22
453.97	149.79
454.15	95.96
454.34	133.41
454.52	119.37
454.70	212.99
454.89	102.98
455.07	138.09
455.26	184.90
455.44	161.50
455.62	135.75
455.81	156.82
455.99	124.05
456.17	107.66
456.36	110.01
456.54	189.58
456.73	142.77
456.91	124.05
457.09	180.22
457.28	184.90
457.46	112.35
457.64	161.50
457.83	98.30
458.01	86.60
458.19	121.71
458.38	159.16
458.56	173.20
458.74	86.60
458.93	49.15
459.11	156.82
459.29	128.73
459.48	102.98
459.66	95.96
459.84	184.90
460.03	330.02
460.21	182.56
460.39	131.07
460.57	49.15
460.76	98.30
460.94	126.39
461.12	159.16
461.31	201.29
461.49	93.62
461.67	119.37
461.85	114.69
462.04	182.56
462.22	545.34
462.40	145.11
462.59	147.45
462.77	81.92
462.95	93.62
463.13	117.03
463.32	138.09
463.50	140.43
463.68	147.45
463.86	142.77
464.05	100.64
464.23	124.05
464.41	154.48
464.59	102.98
464.78	86.60
464.96	121.71
465.14	65.54
465.32	25.75
465.50	161.50
465.69	182.56
465.87	131.07
466.05	229.37
466.23	138.09
466.41	142.77
466.60	128.73
466.78	86.60
466.96	177.88
467.14	170.86
467.32	105.32
467.51	131.07
467.69	145.11
467.87	138.09
468.05	126.39
468.23	201.29
468.41	126.39
468.60	210.65
468.78	124.05
468.96	168.52
469.14	77.24
469.32	72.56
469.50	105.32
469.69	128.73
469.87	203.63
470.05	105.32
470.23	126.39
470.41	138.09
470.59	102.98
470.77	147.45
470.95	102.98
471.14	126.39
471.32	119.37
471.50	126.39
471.68	138.09
471.86	182.56
472.04	110.01
472.22	126.39
472.40	131.07
472.58	105.32
472.77	126.39
472.95	163.84
473.13	212.99
473.31	159.16
473.49	105.32
473.67	163.84
473.85	168.52
474.03	170.86
474.21	133.41
474.39	124.05
474.57	184.90
474.75	86.60
474.93	95.96
475.12	133.41
475.30	145.11
475.48	152.13
475.66	95.96
475.84	142.77
476.02	159.16
476.20	210.65
476.38	142.77
476.56	250.44
476.74	194.26
476.92	100.64
477.10	154.48
477.28	182.56
477.46	156.82
477.64	128.73
477.82	126.39
478.00	105.32
478.18	142.77
478.36	142.77
478.54	95.96
478.72	124.05
478.90	145.11
479.08	159.16
479.26	177.88
479.44	142.77
479.62	156.82
479.80	173.20
479.98	100.64
480.16	159.16
480.34	135.75
480.52	98.30
480.70	126.39
480.88	117.03
481.06	128.73
481.24	152.13
481.41	102.98
481.59	152.13
481.77	124.05
481.95	119.37
482.13	177.88
482.31	119.37
482.49	149.79
482.67	168.52
482.85	156.82
483.03	208.31
483.21	142.77
483.39	161.50
483.57	182.56
483.74	156.82
483.92	140.43
484.10	170.86
484.28	166.18
484.46	236.39
484.64	145.11
484.82	224.69
485.00	51.49
485.18	110.01
485.35	84.26
485.53	163.84
485.71	180.22
485.89	198.95
486.07	163.84
486.25	198.95
486.43	93.62
486.61	203.63
486.78	215.33
486.96	154.48
487.14	135.75
487.32	112.35
487.50	203.63
487.68	156.82
487.85	126.39
488.03	105.32
488.21	166.18
488.39	182.56
488.57	138.09
488.75	187.24
488.92	393.21
489.10	131.07
489.28	205.97
489.46	182.56
489.64	222.35
489.81	166.18
489.99	166.18
490.17	196.60
490.35	210.65
490.53	191.92
490.70	131.07
490.88	173.20
491.06	161.50
491.24	210.65
491.41	231.71
491.59	112.35
491.77	119.37
491.95	170.86
492.13	140.43
492.30	128.73
492.48	224.69
492.66	170.86
492.84	201.29
493.01	203.63
493.19	208.31
493.37	180.22
493.54	189.58
493.72	135.75
493.90	126.39
494.08	142.77
494.25	182.56
494.43	227.03
494.61	140.43
494.79	140.43
494.96	170.86
495.14	161.50
495.32	149.79
495.49	142.77
495.67	177.88
495.85	154.48
496.02	79.58
496.20	236.39
496.38	196.60
496.55	124.05
496.73	198.95
496.91	142.77
497.09	224.69
497.26	241.08
497.44	222.35
497.62	154.48
497.79	173.20
497.97	180.22
498.14	276.18
498.32	203.63
498.50	191.92
498.67	168.52
498.85	168.52
499.03	154.48
499.20	184.90
499.38	180.22
499.56	227.03
499.73	229.37
499.91	194.26
500.08	196.60
500.26	152.13
500.44	184.90
500.61	191.92
500.79	60.85
500.97	168.52
501.14	236.39
501.32	196.60
501.49	231.71
501.67	217.67
501.84	201.29
502.02	110.01
502.20	163.84
502.37	177.88
502.55	161.50
502.72	128.73
502.90	231.71
503.07	184.90
503.25	210.65
503.43	205.97
503.60	128.73
503.78	177.88
503.95	175.54
504.13	210.65
504.30	224.69
504.48	191.92
504.65	238.73
504.83	163.84
505.01	119.37
505.18	170.86
505.36	154.48
505.53	217.67
505.71	191.92
505.88	222.35
506.06	168.52
506.23	175.54
506.41	180.22
506.58	189.58
506.76	212.99
506.93	177.88
507.11	215.33
507.28	128.73
507.46	173.20
507.63	131.07
507.81	231.71
507.98	180.22
508.16	187.24
508.33	215.33
508.50	175.54
508.68	170.86
508.85	149.79
509.03	177.88
509.20	163.84
509.38	166.18
509.55	149.79
509.73	173.20
509.90	182.56
510.08	222.35
510.25	201.29
510.42	156.82
510.60	166.18
510.77	156.82
510.95	212.99
511.12	234.05
511.30	184.90
511.47	229.37
511.64	250.44
511.82	142.77
511.99	231.71
512.17	217.67
512.34	184.90
512.51	203.63
512.69	198.95
512.86	203.63
513.04	128.73
513.21	189.58
513.38	156.82
513.56	133.41
513.73	168.52
513.90	175.54
514.08	180.22
514.25	215.33
514.43	180.22
514.60	124.05
514.77	117.03
514.95	203.63
515.12	191.92
515.29	177.88
515.47	224.69
515.64	177.88
515.81	236.39
515.99	182.56
516.16	264.48
516.33	189.58
516.51	198.95
516.68	135.75
516.85	201.29
517.03	203.63
517.20	138.09
517.37	145.11
517.54	205.97
517.72	180.22
517.89	149.79
518.06	189.58
518.24	248.10
518.41	241.08
518.58	311.29
518.75	229.37
518.93	201.29
519.10	170.86
519.27	152.13
519.45	177.88
519.62	217.67
519.79	208.31
519.96	159.16
520.14	252.78
520.31	266.82
520.48	177.88
520.65	133.41
520.83	227.03
521.00	252.78
521.17	163.84
521.34	170.86
521.52	248.10
521.69	145.11
521.86	196.60
522.03	180.22
522.20	245.76
522.38	215.33
522.55	212.99
522.72	173.20
522.89	266.82
523.07	259.80
523.24	208.31
523.41	72.56
523.58	201.29
523.75	140.43
523.92	201.29
524.10	163.84
524.27	149.79
524.44	187.24
524.61	229.37
524.78	198.95
524.96	205.97
525.13	276.18
525.30	215.33
525.47	177.88
525.64	287.89
525.81	217.67
525.98	271.50
526.16	231.71
526.33	128.73
526.50	184.90
526.67	266.82
526.84	196.60
527.01	191.92
527.18	259.80
527.36	175.54
527.53	238.73
527.70	196.60
527.87	173.20
528.04	227.03
528.21	191.92
528.38	212.99
528.55	170.86
528.72	152.13
528.89	227.03
529.07	138.09
529.24	184.90
529.41	264.48
529.58	252.78
529.75	210.65
529.92	196.60
530.09	203.63
530.26	229.37
530.43	215.33
530.60	227.03
530.77	196.60
530.94	257.46
531.11	227.03
531.28	180.22
531.46	217.67
531.63	194.26
531.80	238.73
531.97	187.24
532.14	264.48
532.31	234.05
532.48	276.18
532.65	138.09
532.82	135.75
532.99	175.54
533.16	187.24
533.33	191.92
533.50	201.29
533.67	163.84
533.84	224.69
534.01	241.08
534.18	177.88
534.35	203.63
534.52	133.41
534.69	266.82
534.86	191.92
535.03	156.82
535.20	205.97
535.37	161.50
535.54	184.90
535.71	177.88
535.88	220.01
536.05	252.78
536.22	184.90
536.38	161.50
536.55	203.63
536.72	194.26
536.89	273.84
537.06	187.24
537.23	149.79
537.40	198.95
537.57	229.37
537.74	257.46
537.91	215.33
538.08	212.99
538.25	224.69
538.42	159.16
538.59	154.48
538.75	159.16
538.92	205.97
539.09	264.48
539.26	238.73
539.43	229.37
539.60	177.88
539.77	147.45
539.94	196.60
540.11	238.73
540.28	205.97
540.44	210.65
540.61	203.63
540.78	149.79
540.95	173.20
541.12	262.14
541.29	208.31
541.46	264.48
541.62	177.88
541.79	147.45
541.96	133.41
542.13	168.52
542.30	166.18
542.47	175.54
542.63	227.03
542.80	217.67
542.97	135.75
543.14	210.65
543.31	205.97
543.48	133.41
543.64	163.84
543.81	227.03
543.98	168.52
544.15	159.16
544.32	283.20
544.48	177.88
544.65	191.92
544.82	191.92
544.99	241.08
545.16	227.03
545.32	184.90
545.49	276.18
545.66	220.01
545.83	194.26
546.00	175.54
546.16	210.65
546.33	205.97
546.50	271.50
546.67	201.29
546.83	135.75
547.00	224.69
547.17	243.42
547.34	266.82
547.50	203.63
547.67	198.95
547.84	177.88
548.00	245.76
548.17	311.29
548.34	163.84
548.51	173.20
548.67	119.37
548.84	163.84
549.01	215.33
549.18	292.57
549.34	189.58
549.51	194.26
549.68	170.86
549.84	182.56
550.01	166.18
550.18	341.72
550.34	299.59
550.51	201.29
550.68	229.37
550.84	278.52
551.01	142.77
551.18	208.31
551.34	257.46
551.51	93.62
551.68	189.58
551.84	229.37
552.01	184.90
552.18	70.22
552.34	234.05
552.51	170.86
552.68	227.03
552.84	149.79
553.01	198.95
553.18	201.29
553.34	227.03
553.51	205.97
553.67	210.65
553.84	229.37
554.01	252.78
554.17	220.01
554.34	182.56
554.51	201.29
554.67	243.42
554.84	248.10
555.00	170.86
555.17	168.52
555.33	259.80
555.50	212.99
555.67	227.03
555.83	189.58
556.00	252.78
556.16	313.63
556.33	203.63
556.50	163.84
556.66	212.99
556.83	175.54
556.99	189.58
557.16	191.92
557.32	147.45
557.49	138.09
557.65	196.60
557.82	210.65
557.98	154.48
558.15	201.29
558.32	252.78
558.48	166.18
558.65	180.22
558.81	156.82
558.98	152.13
559.14	252.78
559.31	198.95
559.47	205.97
559.64	187.24
559.80	180.22
559.97	168.52
560.13	224.69
560.30	170.86
560.46	196.60
560.63	163.84
560.79	201.29
560.96	194.26
561.12	156.82
561.29	191.92
561.45	215.33
561.61	220.01
561.78	278.52
561.94	187.24
562.11	142.77
562.27	248.10
562.44	229.37
562.60	189.58
562.77	152.13
562.93	280.86
563.10	149.79
563.26	210.65
563.42	131.07
563.59	161.50
563.75	196.60
563.92	252.78
564.08	205.97
564.24	220.01
564.41	238.73
564.57	222.35
564.74	156.82
564.90	304.27
565.07	217.67
565.23	184.90
565.39	135.75
565.56	142.77
565.72	131.07
565.88	252.78
566.05	201.29
566.21	234.05
566.38	224.69
566.54	231.71
566.70	187.24
566.87	175.54
567.03	245.76
567.19	163.84
567.36	198.95
567.52	227.03
567.68	259.80
567.85	194.26
568.01	194.26
568.17	196.60
568.34	79.58
568.50	152.13
568.66	210.65
568.83	294.91
568.99	220.01
569.15	217.67
569.32	147.45
569.48	194.26
569.64	177.88
569.81	180.22
569.97	180.22
570.13	301.93
570.30	173.20
570.46	149.79
570.62	234.05
570.78	126.39
570.95	152.13
571.11	205.97
571.27	201.29
571.43	131.07
571.60	194.26
571.76	173.20
571.92	217.67
572.09	147.45
572.25	175.54
572.41	184.90
572.57	194.26
572.74	236.39
572.90	198.95
573.06	238.73
573.22	168.52
573.38	255.12
573.55	168.52
573.71	215.33
573.87	229.37
574.03	170.86
574.20	168.52
574.36	187.24
574.52	215.33
574.68	131.07
574.84	168.52
575.01	184.90
575.17	215.33
575.33	154.48
575.49	262.14
575.65	222.35
575.82	161.50
575.98	287.89
576.14	168.52
576.30	182.56
576.46	161.50
576.62	205.97
576.79	175.54
576.95	285.55
577.11	173.20
577.27	159.16
577.43	224.69
577.59	196.60
577.75	154.48
577.92	159.16
578.08	187.24
578.24	124.05
578.40	276.18
578.56	212.99
578.72	170.86
578.88	210.65
579.04	184.90
579.21	198.95
579.37	229.37
579.53	212.99
579.69	245.76
579.85	121.71
580.01	152.13
580.17	252.78
580.33	201.29
580.49	126.39
580.65	159.16
580.82	180.22
580.98	243.42
581.14	154.48
581.30	166.18
581.46	234.05
581.62	243.42
581.78	154.48
581.94	194.26
582.10	149.79
582.26	184.90
582.42	175.54
582.58	98.30
582.74	133.41
582.90	196.60
583.06	140.43
583.22	145.11
583.38	234.05
583.54	173.20
583.70	292.57
583.86	196.60
584.02	245.76
584.18	212.99
584.34	168.52
584.50	140.43
584.66	187.24
584.82	180.22
584.98	175.54
585.14	234.05
585.30	222.35
585.46	205.97
585.62	126.39
585.78	187.24
585.94	248.10
586.10	234.05
586.26	163.84
586.42	166.18
586.58	269.16
586.74	152.13
586.90	196.60
587.06	255.12
587.22	184.90
587.38	110.01
587.54	166.18
587.70	215.33
587.86	227.03
588.02	149.79
588.18	173.20
588.34	161.50
588.49	180.22
588.65	255.12
588.81	196.60
588.97	149.79
589.13	170.86
589.29	124.05
589.45	215.33
589.61	140.43
589.77	224.69
589.93	166.18
590.08	147.45
590.24	154.48
590.40	170.86
590.56	180.22
590.72	205.97
590.88	198.95
591.04	156.82
591.20	161.50
591.35	173.20
591.51	58.51
591.67	163.84
591.83	149.79
591.99	173.20
592.15	133.41
592.31	227.03
592.46	175.54
592.62	208.31
592.78	194.26
592.94	194.26
593.10	112.35
593.26	220.01
593.41	250.44
593.57	65.54
593.73	163.84
593.89	255.12
594.05	88.94
594.20	147.45
594.36	191.92
594.52	210.65
594.68	205.97
594.84	182.56
594.99	234.05
595.15	224.69
595.31	170.86
595.47	248.10
595.62	163.84
595.78	156.82
595.94	198.95
596.10	255.12
596.25	145.11
596.41	203.63
596.57	93.62
596.73	227.03
596.88	191.92
597.04	182.56
597.20	128.73
597.36	140.43
597.51	147.45
597.67	168.52
597.83	159.16
597.99	217.67
598.14	184.90
598.30	203.63
598.46	117.03
598.61	208.31
598.77	238.73
598.93	124.05
599.09	191.92
599.24	198.95
599.40	102.98
599.56	159.16
599.71	168.52
599.87	191.92
600.03	180.22
600.18	180.22
600.34	210.65
600.50	194.26
600.65	131.07
600.81	220.01
600.97	170.86
601.12	175.54
601.28	215.33
601.44	131.07
601.59	163.84
601.75	191.92
601.91	112.35
602.06	175.54
602.22	318.31
602.37	142.77
602.53	142.77
602.69	182.56
602.84	149.79
603.00	201.29
603.16	205.97
603.31	212.99
603.47	203.63
603.62	142.77
603.78	117.03
603.94	105.32
604.09	220.01
604.25	208.31
604.40	166.18
604.56	133.41
604.71	168.52
604.87	184.90
605.03	177.88
605.18	173.20
605.34	238.73
605.49	159.16
605.65	177.88
605.80	189.58
605.96	212.99
606.12	121.71
606.27	180.22
606.43	166.18
606.58	173.20
606.74	163.84
606.89	161.50
607.05	220.01
607.20	187.24
607.36	135.75
607.51	173.20
607.67	121.71
607.82	229.37
607.98	224.69
608.13	166.18
608.29	187.24
608.44	243.42
608.60	156.82
608.75	163.84
608.91	147.45
609.06	203.63
609.22	210.65
609.37	135.75
609.53	191.92
609.68	180.22
609.84	114.69
609.99	126.39
610.15	121.71
610.30	163.84
610.46	182.56
610.61	231.71
610.76	163.84
610.92	177.88
611.07	145.11
611.23	255.12
611.38	138.09
611.54	170.86
611.69	152.13
611.84	154.48
612.00	161.50
612.15	152.13
612.31	105.32
612.46	187.24
612.62	110.01
612.77	170.86
612.92	140.43
613.08	191.92
613.23	152.13
613.39	208.31
613.54	105.32
613.69	147.45
613.85	117.03
614.00	227.03
614.15	140.43
614.31	166.18
614.46	245.76
614.62	142.77
614.77	147.45
614.92	145.11
615.08	149.79
615.23	194.26
615.38	229.37
615.54	105.32
615.69	189.58
615.84	140.43
616.00	131.07
616.15	170.86
616.30	138.09
616.46	102.98
616.61	163.84
616.76	163.84
616.92	105.32
617.07	133.41
617.22	107.66
617.37	170.86
617.53	198.95
617.68	184.90
617.83	180.22
617.99	170.86
618.14	191.92
618.29	234.05
618.45	81.92
618.60	229.37
618.75	145.11
618.90	180.22
619.06	126.39
619.21	175.54
619.36	128.73
619.51	152.13
619.67	95.96
619.82	196.60
619.97	147.45
620.12	147.45
620.28	229.37
620.43	149.79
620.58	241.08
620.73	88.94
620.89	229.37
621.04	182.56
621.19	166.18
621.34	222.35
621.49	173.20
621.65	163.84
621.80	184.90
621.95	163.84
622.10	154.48
622.25	107.66
622.41	189.58
622.56	201.29
622.71	184.90
622.86	166.18
623.01	124.05
623.16	168.52
623.32	112.35
623.47	159.16
623.62	110.01
623.77	159.16
623.92	184.90
624.07	196.60
624.23	194.26
624.38	198.95
624.53	194.26
624.68	210.65
624.83	166.18
624.98	147.45
625.13	138.09
625.29	128.73
625.44	135.75
625.59	149.79
625.74	95.96
625.89	196.60
626.04	180.22
626.19	152.13
626.34	112.35
626.49	203.63
626.65	53.83
626.80	196.60
626.95	182.56
627.10	63.19
627.25	110.01
627.40	107.66
627.55	166.18
627.70	229.37
627.85	196.60
628.00	133.41
628.15	170.86
628.30	119.37
628.45	100.64
628.60	227.03
628.76	201.29
628.91	140.43
629.06	149.79
629.21	102.98
629.36	119.37
629.51	131.07
629.66	159.16
629.81	166.18
629.96	182.56
630.11	159.16
630.26	212.99
630.41	196.60
630.56	145.11
630.71	191.92
630.86	198.95
631.01	88.94
631.16	110.01
631.31	175.54
631.46	245.76
631.61	100.64
631.76	173.20
631.91	196.60
632.06	140.43
632.21	191.92
632.36	180.22
632.51	138.09
632.66	147.45
632.81	124.05
632.96	175.54
633.10	224.69
633.25	166.18
633.40	135.75
633.55	152.13
633.70	173.20
633.85	100.64
634.00	175.54
634.15	177.88
634.30	201.29
634.45	147.45
634.60	110.01
634.75	131.07
634.90	128.73
635.05	194.26
635.19	147.45
635.34	175.54
635.49	138.09
635.64	84.26
635.79	133.41
635.94	152.13
636.09	159.16
636.24	220.01
636.39	175.54
636.53	198.95
636.68	175.54
636.83	248.10
636.98	196.60
637.13	142.77
637.28	107.66
637.43	234.05
637.57	184.90
637.72	170.86
637.87	159.16
638.02	180.22
638.17	95.96
638.32	126.39
638.46	152.13
638.61	173.20
638.76	142.77
638.91	98.30
639.06	154.48
639.20	173.20
639.35	168.52
639.50	100.64
639.65	224.69
639.80	184.90
639.94	131.07
640.09	145.11
640.24	238.73
640.39	147.45
640.54	131.07
640.68	63.19
640.83	110.01
640.98	175.54
641.13	102.98
641.27	93.62
641.42	42.13
641.57	145.11
641.72	124.05
641.86	168.52
642.01	154.48
642.16	180.22
642.31	124.05
642.45	229.37
642.60	152.13
642.75	124.05
642.90	110.01
643.04	166.18
643.19	145.11
643.34	107.66
643.48	220.01
643.63	217.67
643.78	245.76
643.93	248.10
644.07	140.43
644.22	168.52
644.37	117.03
644.51	166.18
644.66	163.84
644.81	91.28
644.95	119.37
645.10	114.69
645.25	131.07
645.39	140.43
645.54	107.66
645.69	142.77
645.83	196.60
645.98	149.79
646.13	145.11
646.27	177.88
646.42	159.16
646.57	100.64
646.71	117.03
646.86	121.71
647.00	53.83
647.15	128.73
647.30	133.41
647.44	145.11
647.59	79.58
647.74	175.54
647.88	161.50
648.03	23.41
648.17	182.56
648.32	177.88
648.47	142.77
648.61	234.05
648.76	114.69
648.90	107.66
649.05	91.28
649.20	28.09
649.34	133.41
649.49	124.05
649.63	142.77
649.78	184.90
649.92	140.43
650.07	252.78
650.21	163.84
650.36	210.65
650.51	166.18
650.65	180.22
650.80	95.96
650.94	156.82
651.09	156.82
651.23	121.71
651.38	60.85
651.52	131.07
651.67	93.62
651.81	81.92
651.96	168.52
652.10	196.60
652.25	170.86
652.39	177.88
652.54	205.97
652.68	173.20
652.83	156.82
652.97	191.92
653.12	212.99
653.26	135.75
653.41	191.92
653.55	138.09
653.70	140.43
653.84	98.30
653.99	105.32
654.13	196.60
654.27	107.66
654.42	241.08
654.56	131.07
654.71	114.69
654.85	84.26
655.00	149.79
655.14	149.79
655.29	56.17
655.43	159.16
655.57	173.20
655.72	205.97
655.86	175.54
656.01	154.48
656.15	142.77
656.30	177.88
656.44	128.73
656.58	56.17
656.73	124.05
656.87	98.30
657.01	131.07
657.16	196.60
657.30	168.52
657.45	175.54
657.59	126.39
657.73	114.69
657.88	168.52
658.02	173.20
658.16	156.82
658.31	147.45
658.45	107.66
658.60	156.82
658.74	112.35
658.88	121.71
659.03	131.07
659.17	42.13
659.31	98.30
659.46	149.79
659.60	51.49
659.74	147.45
659.89	128.73
660.03	154.48
660.17	212.99
660.32	170.86
660.46	149.79
660.60	159.16
660.74	140.43
660.89	107.66
661.03	86.60
661.17	117.03
661.32	147.45
661.46	107.66
661.60	135.75
661.74	175.54
661.89	117.03
662.03	154.48
662.17	84.26
662.31	84.26
662.46	119.37
662.60	154.48
662.74	105.32
662.88	126.39
663.03	166.18
663.17	149.79
663.31	114.69
663.45	107.66
663.60	102.98
663.74	112.35
663.88	142.77
664.02	102.98
664.17	84.26
664.31	184.90
664.45	142.77
664.59	140.43
664.73	170.86
664.88	124.05
665.02	149.79
665.16	124.05
665.30	175.54
665.44	210.65
665.59	149.79
665.73	182.56
665.87	152.13
666.01	154.48
666.15	168.52
666.29	107.66
666.44	189.58
666.58	161.50
666.72	135.75
666.86	88.94
667.00	168.52
667.14	119.37
667.28	135.75
667.43	63.19
667.57	166.18
667.71	140.43
667.85	88.94
667.99	133.41
668.13	81.92
668.27	156.82
668.41	170.86
668.56	77.24
668.70	138.09
668.84	159.16
668.98	110.01
669.12	72.56
669.26	163.84
669.40	124.05
669.54	102.98
669.68	135.75
669.82	124.05
669.96	166.18
670.10	182.56
670.25	131.07
670.39	215.33
670.53	124.05
670.67	145.11
670.81	152.13
670.95	105.32
671.09	91.28
671.23	180.22
671.37	173.20
671.51	205.97
671.65	191.92
671.79	124.05
671.93	147.45
672.07	117.03
672.21	131.07
672.35	126.39
672.49	156.82
672.63	152.13
672.77	163.84
672.91	88.94
673.05	140.43
673.19	168.52
673.33	86.60
673.47	156.82
673.61	133.41
673.75	163.84
673.89	102.98
674.03	156.82
674.17	161.50
674.31	105.32
674.45	168.52
674.59	170.86
674.73	98.30
674.87	70.22
675.01	131.07
675.15	131.07
675.29	196.60
675.43	88.94
675.56	161.50
675.70	159.16
675.84	119.37
675.98	191.92
676.12	35.11
676.26	79.58
676.40	72.56
676.54	117.03
676.68	39.79
676.82	187.24
676.96	86.60
677.10	138.09
677.23	110.01
677.37	93.62
677.51	154.48
677.65	168.52
677.79	74.90
677.93	128.73
678.07	170.86
678.21	117.03
678.34	203.63
678.48	163.84
678.62	182.56
678.76	67.88
678.90	114.69
679.04	191.92
679.18	124.05
679.31	107.66
679.45	86.60
679.59	152.13
679.73	175.54
679.87	152.13
680.00	102.98
680.14	131.07
680.28	182.56
680.42	135.75
680.56	182.56
680.70	124.05
680.83	203.63
680.97	119.37
681.11	110.01
681.25	117.03
681.39	65.54
681.52	114.69
681.66	182.56
681.80	217.67
681.94	51.49
682.07	72.56
682.21	149.79
682.35	100.64
682.49	212.99
682.62	128.73
682.76	88.94
682.90	65.54
683.04	88.94
683.17	84.26
683.31	140.43
683.45	117.03
683.59	189.58
683.72	145.11
683.86	79.58
684.00	70.22
684.13	154.48
684.27	100.64
684.41	107.66
684.55	72.56
684.68	93.62
684.82	72.56
684.96	210.65
685.09	84.26
685.23	86.60
685.37	18.72
685.50	152.13
685.64	182.56
685.78	145.11
685.91	133.41
686.05	107.66
686.19	154.48
686.32	138.09
686.46	131.07
686.60	74.90
686.73	177.88
686.87	133.41
687.01	177.88
687.14	74.90
687.28	114.69
687.42	110.01
687.55	86.60
687.69	135.75
687.82	128.73
687.96	138.09
688.10	152.13
688.23	128.73
688.37	145.11
688.50	124.05
688.64	72.56
688.78	77.24
688.91	42.13
689.05	138.09
689.18	112.35
689.32	161.50
689.46	149.79
689.59	124.05
689.73	114.69
689.86	107.66
690.00	93.62
690.13	65.54
690.27	98.30
690.41	72.56
690.54	84.26
690.68	70.22
690.81	84.26
690.95	156.82
691.08	46.81
691.22	124.05
691.35	128.73
691.49	67.88
691.62	175.54
691.76	79.58
691.89	72.56
692.03	91.28
692.16	124.05
692.30	124.05
692.43	154.48
692.57	95.96
692.70	58.51
692.84	131.07
692.97	79.58
693.11	91.28
693.24	18.72
693.38	128.73
693.51	30.43
693.65	152.13
693.78	112.35
693.92	91.28
694.05	121.71
694.19	117.03
694.32	128.73
694.45	102.98
694.59	100.64
694.72	140.43
694.86	128.73
694.99	142.77
695.13	74.90
695.26	110.01
695.39	42.13
695.53	133.41
695.66	135.75
695.80	159.16
695.93	67.88
696.07	14.04
696.20	110.01
696.33	84.26
696.47	65.54
696.60	145.11
696.73	133.41
696.87	117.03
697.00	121.71
697.14	42.13
697.27	159.16
697.40	107.66
697.54	112.35
697.67	161.50
697.80	65.54
697.94	58.51
698.07	140.43
698.21	128.73
698.34	67.88
698.47	114.69
698.61	93.62
698.74	67.88
698.87	135.75
699.01	60.85
699.14	74.90
699.27	198.95
699.40	182.56
699.54	70.22
699.67	95.96
699.80	49.15
699.94	161.50
700.07	74.90
700.20	95.96
700.34	131.07
700.47	95.96
700.60	56.17
700.73	74.90
700.87	154.48
701.00	145.11
701.13	88.94
701.26	72.56
701.40	124.05
701.53	84.26
701.66	110.01
701.79	56.17
701.93	46.81
702.06	117.03
702.19	95.96
702.32	100.64
702.46	53.83
702.59	152.13
702.72	140.43
702.85	142.77
702.99	135.75
703.12	88.94
703.25	107.66
703.38	93.62
703.51	121.71
703.65	107.66
703.78	74.90
703.91	63.19
704.04	51.49
704.17	112.35
704.31	23.41
704.44	93.62
704.57	100.64
704.70	60.85
704.83	117.03
704.96	56.17
705.10	91.28
705.23	65.54
>>>>>End Processed Spectral Data<<<<<
