SpectraSuite Data File
++++++++++++++++++++++++++++++++++++
Date: Fri Oct 04 11:51:07 GMT-05:00 2013
User: price-jones
Dark Spectrum Present: No
Reference Spectrum Present: No
Number of Sampled Component Spectra: 1
Spectrometers: USB2+H05261
Integration Time (usec): 100000 (USB2+H05261)
Spectra Averaged: 1 (USB2+H05261)
Boxcar Smoothing: 0 (USB2+H05261)
Correct for Electrical Dark: No (USB2+H05261)
Strobe/Lamp Enabled: No (USB2+H05261)
Correct for Detector Non-linearity: No (USB2+H05261)
Correct for Stray Light: No (USB2+H05261)
Number of Pixels in Processed Spectrum: 2048
>>>>>Begin Processed Spectral Data<<<<<
365.73	25.75
365.92	25.75
366.12	25.75
366.32	0.00
366.52	0.00
366.72	0.00
366.91	0.00
367.11	0.00
367.31	0.00
367.51	0.00
367.70	0.00
367.90	0.00
368.10	0.00
368.30	0.00
368.49	0.00
368.69	0.00
368.89	0.00
369.09	0.00
369.28	0.00
369.48	0.00
369.68	0.00
369.87	0.00
370.07	0.00
370.27	7.02
370.47	0.00
370.66	0.00
370.86	74.90
371.06	28.09
371.25	42.13
371.45	7.02
371.65	46.81
371.84	42.13
372.04	0.00
372.24	124.05
372.44	56.17
372.63	44.47
372.83	60.85
373.03	60.85
373.22	51.49
373.42	140.43
373.62	72.56
373.81	93.62
374.01	147.45
374.21	77.24
374.40	110.01
374.60	173.20
374.79	177.88
374.99	152.13
375.19	117.03
375.38	72.56
375.58	74.90
375.78	30.43
375.97	112.35
376.17	159.16
376.37	84.26
376.56	184.90
376.76	53.83
376.95	56.17
377.15	105.32
377.35	117.03
377.54	81.92
377.74	168.52
377.93	79.58
378.13	124.05
378.33	131.07
378.52	93.62
378.72	131.07
378.91	88.94
379.11	84.26
379.31	102.98
379.50	110.01
379.70	84.26
379.89	98.30
380.09	70.22
380.28	77.24
380.48	86.60
380.68	65.54
380.87	37.45
381.07	124.05
381.26	126.39
381.46	131.07
381.65	124.05
381.85	0.00
382.04	84.26
382.24	65.54
382.43	166.18
382.63	42.13
382.83	112.35
383.02	74.90
383.22	140.43
383.41	37.45
383.61	131.07
383.80	65.54
384.00	0.00
384.19	32.77
384.39	95.96
384.58	98.30
384.78	107.66
384.97	37.45
385.17	98.30
385.36	58.51
385.56	117.03
385.75	63.19
385.95	93.62
386.14	126.39
386.34	166.18
386.53	107.66
386.72	37.45
386.92	79.58
387.11	42.13
387.31	49.15
387.50	46.81
387.70	49.15
387.89	56.17
388.09	74.90
388.28	114.69
388.48	37.45
388.67	126.39
388.86	100.64
389.06	124.05
389.25	100.64
389.45	86.60
389.64	147.45
389.84	79.58
390.03	110.01
390.22	114.69
390.42	49.15
390.61	86.60
390.81	0.00
391.00	152.13
391.19	72.56
391.39	114.69
391.58	60.85
391.78	84.26
391.97	42.13
392.16	70.22
392.36	154.48
392.55	74.90
392.75	93.62
392.94	81.92
393.13	72.56
393.33	114.69
393.52	23.41
393.71	182.56
393.91	70.22
394.10	93.62
394.29	49.15
394.49	161.50
394.68	112.35
394.88	110.01
395.07	95.96
395.26	114.69
395.46	63.19
395.65	102.98
395.84	98.30
396.04	156.82
396.23	79.58
396.42	65.54
396.62	110.01
396.81	177.88
397.00	65.54
397.19	46.81
397.39	121.71
397.58	107.66
397.77	100.64
397.97	51.49
398.16	107.66
398.35	56.17
398.55	65.54
398.74	131.07
398.93	65.54
399.12	124.05
399.32	175.54
399.51	32.77
399.70	93.62
399.90	145.11
400.09	133.41
400.28	93.62
400.47	77.24
400.67	63.19
400.86	131.07
401.05	72.56
401.24	117.03
401.44	63.19
401.63	131.07
401.82	128.73
402.01	102.98
402.21	74.90
402.40	42.13
402.59	49.15
402.78	44.47
402.97	117.03
403.17	124.05
403.36	168.52
403.55	58.51
403.74	42.13
403.93	53.83
404.13	88.94
404.32	88.94
404.51	67.88
404.70	98.30
404.89	159.16
405.09	140.43
405.28	58.51
405.47	37.45
405.66	145.11
405.85	234.05
406.05	93.62
406.24	124.05
406.43	138.09
406.62	184.90
406.81	138.09
407.00	135.75
407.20	46.81
407.39	126.39
407.58	88.94
407.77	142.77
407.96	63.19
408.15	161.50
408.34	93.62
408.54	149.79
408.73	95.96
408.92	11.70
409.11	98.30
409.30	119.37
409.49	65.54
409.68	46.81
409.87	110.01
410.07	72.56
410.26	131.07
410.45	117.03
410.64	114.69
410.83	93.62
411.02	114.69
411.21	119.37
411.40	112.35
411.59	173.20
411.78	98.30
411.98	170.86
412.17	149.79
412.36	189.58
412.55	126.39
412.74	107.66
412.93	98.30
413.12	102.98
413.31	126.39
413.50	142.77
413.69	74.90
413.88	147.45
414.07	147.45
414.26	180.22
414.45	58.51
414.64	98.30
414.83	128.73
415.02	112.35
415.22	100.64
415.41	191.92
415.60	93.62
415.79	119.37
415.98	112.35
416.17	95.96
416.36	95.96
416.55	149.79
416.74	95.96
416.93	175.54
417.12	126.39
417.31	119.37
417.50	53.83
417.69	138.09
417.88	140.43
418.07	117.03
418.26	107.66
418.45	112.35
418.64	187.24
418.83	205.97
419.02	126.39
419.21	93.62
419.39	105.32
419.58	67.88
419.77	95.96
419.96	177.88
420.15	180.22
420.34	86.60
420.53	135.75
420.72	126.39
420.91	117.03
421.10	131.07
421.29	107.66
421.48	95.96
421.67	145.11
421.86	81.92
422.05	72.56
422.24	135.75
422.43	124.05
422.61	119.37
422.80	72.56
422.99	100.64
423.18	84.26
423.37	163.84
423.56	147.45
423.75	112.35
423.94	117.03
424.13	112.35
424.32	100.64
424.50	131.07
424.69	74.90
424.88	86.60
425.07	161.50
425.26	117.03
425.45	133.41
425.64	91.28
425.83	142.77
426.01	131.07
426.20	114.69
426.39	124.05
426.58	112.35
426.77	86.60
426.96	142.77
427.15	149.79
427.33	121.71
427.52	88.94
427.71	156.82
427.90	95.96
428.09	86.60
428.28	121.71
428.46	79.58
428.65	135.75
428.84	145.11
429.03	145.11
429.22	53.83
429.40	37.45
429.59	46.81
429.78	180.22
429.97	100.64
430.16	46.81
430.34	63.19
430.53	37.45
430.72	46.81
430.91	119.37
431.10	149.79
431.28	74.90
431.47	142.77
431.66	135.75
431.85	72.56
432.03	124.05
432.22	140.43
432.41	65.54
432.60	112.35
432.79	95.96
432.97	91.28
433.16	65.54
433.35	105.32
433.54	166.18
433.72	95.96
433.91	107.66
434.10	124.05
434.28	58.51
434.47	88.94
434.66	156.82
434.85	117.03
435.03	117.03
435.22	112.35
435.41	168.52
435.59	147.45
435.78	131.07
435.97	58.51
436.16	184.90
436.34	114.69
436.53	84.26
436.72	77.24
436.90	121.71
437.09	81.92
437.28	147.45
437.46	93.62
437.65	65.54
437.84	156.82
438.02	117.03
438.21	126.39
438.40	105.32
438.58	88.94
438.77	124.05
438.96	175.54
439.14	220.01
439.33	163.84
439.52	156.82
439.70	163.84
439.89	86.60
440.08	93.62
440.26	110.01
440.45	177.88
440.63	154.48
440.82	117.03
441.01	152.13
441.19	93.62
441.38	124.05
441.57	126.39
441.75	114.69
441.94	114.69
442.12	152.13
442.31	117.03
442.50	126.39
442.68	124.05
442.87	187.24
443.05	161.50
443.24	131.07
443.43	163.84
443.61	72.56
443.80	161.50
443.98	98.30
444.17	93.62
444.35	194.26
444.54	156.82
444.73	135.75
444.91	114.69
445.10	142.77
445.28	140.43
445.47	166.18
445.65	93.62
445.84	117.03
446.02	173.20
446.21	93.62
446.39	112.35
446.58	191.92
446.77	119.37
446.95	191.92
447.14	142.77
447.32	154.48
447.51	180.22
447.69	168.52
447.88	149.79
448.06	184.90
448.25	138.09
448.43	126.39
448.62	95.96
448.80	105.32
448.99	121.71
449.17	72.56
449.36	149.79
449.54	138.09
449.73	72.56
449.91	100.64
450.10	205.97
450.28	138.09
450.46	180.22
450.65	173.20
450.83	161.50
451.02	135.75
451.20	88.94
451.39	124.05
451.57	126.39
451.76	98.30
451.94	112.35
452.13	170.86
452.31	177.88
452.49	145.11
452.68	124.05
452.86	42.13
453.05	152.13
453.23	135.75
453.42	117.03
453.60	149.79
453.78	110.01
453.97	110.01
454.15	142.77
454.34	152.13
454.52	184.90
454.70	58.51
454.89	175.54
455.07	152.13
455.26	126.39
455.44	119.37
455.62	133.41
455.81	208.31
455.99	184.90
456.17	133.41
456.36	70.22
456.54	95.96
456.73	51.49
456.91	98.30
457.09	201.29
457.28	98.30
457.46	138.09
457.64	152.13
457.83	126.39
458.01	124.05
458.19	77.24
458.38	168.52
458.56	81.92
458.74	149.79
458.93	161.50
459.11	173.20
459.29	142.77
459.48	175.54
459.66	124.05
459.84	196.60
460.03	210.65
460.21	170.86
460.39	145.11
460.57	128.73
460.76	168.52
460.94	149.79
461.12	184.90
461.31	187.24
461.49	81.92
461.67	154.48
461.85	168.52
462.04	117.03
462.22	535.98
462.40	154.48
462.59	72.56
462.77	91.28
462.95	212.99
463.13	37.45
463.32	142.77
463.50	159.16
463.68	198.95
463.86	175.54
464.05	170.86
464.23	67.88
464.41	194.26
464.59	189.58
464.78	114.69
464.96	105.32
465.14	63.19
465.32	131.07
465.50	110.01
465.69	114.69
465.87	163.84
466.05	182.56
466.23	88.94
466.41	67.88
466.60	42.13
466.78	170.86
466.96	163.84
467.14	156.82
467.32	182.56
467.51	77.24
467.69	166.18
467.87	114.69
468.05	175.54
468.23	217.67
468.41	184.90
468.60	159.16
468.78	198.95
468.96	119.37
469.14	173.20
469.32	95.96
469.50	79.58
469.69	149.79
469.87	70.22
470.05	168.52
470.23	121.71
470.41	100.64
470.59	124.05
470.77	189.58
470.95	110.01
471.14	166.18
471.32	159.16
471.50	201.29
471.68	184.90
471.86	140.43
472.04	88.94
472.22	133.41
472.40	126.39
472.58	112.35
472.77	156.82
472.95	135.75
473.13	154.48
473.31	227.03
473.49	105.32
473.67	86.60
473.85	187.24
474.03	168.52
474.21	170.86
474.39	91.28
474.57	191.92
474.75	180.22
474.93	112.35
475.12	215.33
475.30	135.75
475.48	189.58
475.66	173.20
475.84	152.13
476.02	112.35
476.20	156.82
476.38	126.39
476.56	147.45
476.74	133.41
476.92	205.97
477.10	117.03
477.28	227.03
477.46	112.35
477.64	156.82
477.82	175.54
478.00	147.45
478.18	70.22
478.36	131.07
478.54	117.03
478.72	222.35
478.90	175.54
479.08	182.56
479.26	168.52
479.44	147.45
479.62	70.22
479.80	117.03
479.98	98.30
480.16	124.05
480.34	105.32
480.52	149.79
480.70	135.75
480.88	128.73
481.06	126.39
481.24	70.22
481.41	173.20
481.59	173.20
481.77	159.16
481.95	93.62
482.13	119.37
482.31	187.24
482.49	135.75
482.67	187.24
482.85	184.90
483.03	201.29
483.21	98.30
483.39	128.73
483.57	149.79
483.74	140.43
483.92	159.16
484.10	180.22
484.28	182.56
484.46	189.58
484.64	163.84
484.82	98.30
485.00	163.84
485.18	149.79
485.35	198.95
485.53	72.56
485.71	133.41
485.89	135.75
486.07	166.18
486.25	210.65
486.43	180.22
486.61	149.79
486.78	140.43
486.96	112.35
487.14	117.03
487.32	154.48
487.50	177.88
487.68	245.76
487.85	163.84
488.03	173.20
488.21	205.97
488.39	138.09
488.57	236.39
488.75	177.88
488.92	388.53
489.10	124.05
489.28	255.12
489.46	121.71
489.64	124.05
489.81	187.24
489.99	152.13
490.17	175.54
490.35	287.89
490.53	177.88
490.70	149.79
490.88	168.52
491.06	149.79
491.24	170.86
491.41	159.16
491.59	191.92
491.77	102.98
491.95	152.13
492.13	107.66
492.30	250.44
492.48	149.79
492.66	182.56
492.84	189.58
493.01	159.16
493.19	159.16
493.37	210.65
493.54	227.03
493.72	243.42
493.90	198.95
494.08	161.50
494.25	135.75
494.43	142.77
494.61	203.63
494.79	170.86
494.96	182.56
495.14	203.63
495.32	110.01
495.49	191.92
495.67	180.22
495.85	166.18
496.02	201.29
496.20	229.37
496.38	238.73
496.55	154.48
496.73	231.71
496.91	210.65
497.09	149.79
497.26	173.20
497.44	205.97
497.62	154.48
497.79	159.16
497.97	236.39
498.14	210.65
498.32	222.35
498.50	180.22
498.67	175.54
498.85	198.95
499.03	180.22
499.20	170.86
499.38	210.65
499.56	241.08
499.73	184.90
499.91	229.37
500.08	280.86
500.26	194.26
500.44	95.96
500.61	262.14
500.79	198.95
500.97	124.05
501.14	173.20
501.32	198.95
501.49	198.95
501.67	168.52
501.84	210.65
502.02	154.48
502.20	220.01
502.37	245.76
502.55	173.20
502.72	156.82
502.90	175.54
503.07	205.97
503.25	156.82
503.43	177.88
503.60	224.69
503.78	168.52
503.95	215.33
504.13	201.29
504.30	156.82
504.48	245.76
504.65	163.84
504.83	173.20
505.01	170.86
505.18	142.77
505.36	163.84
505.53	245.76
505.71	140.43
505.88	196.60
506.06	273.84
506.23	241.08
506.41	154.48
506.58	257.46
506.76	217.67
506.93	182.56
507.11	255.12
507.28	189.58
507.46	170.86
507.63	250.44
507.81	196.60
507.98	255.12
508.16	145.11
508.33	220.01
508.50	152.13
508.68	170.86
508.85	187.24
509.03	170.86
509.20	175.54
509.38	215.33
509.55	131.07
509.73	182.56
509.90	194.26
510.08	210.65
510.25	208.31
510.42	224.69
510.60	220.01
510.77	191.92
510.95	273.84
511.12	173.20
511.30	189.58
511.47	245.76
511.64	262.14
511.82	210.65
511.99	163.84
512.17	107.66
512.34	156.82
512.51	238.73
512.69	191.92
512.86	191.92
513.04	187.24
513.21	208.31
513.38	177.88
513.56	161.50
513.73	215.33
513.90	217.67
514.08	205.97
514.25	196.60
514.43	234.05
514.60	187.24
514.77	173.20
514.95	189.58
515.12	187.24
515.29	198.95
515.47	283.20
515.64	168.52
515.81	285.55
515.99	152.13
516.16	212.99
516.33	222.35
516.51	215.33
516.68	173.20
516.85	128.73
517.03	170.86
517.20	234.05
517.37	156.82
517.54	257.46
517.72	215.33
517.89	133.41
518.06	194.26
518.24	266.82
518.41	229.37
518.58	177.88
518.75	191.92
518.93	170.86
519.10	255.12
519.27	187.24
519.45	215.33
519.62	224.69
519.79	283.20
519.96	217.67
520.14	182.56
520.31	177.88
520.48	287.89
520.65	210.65
520.83	189.58
521.00	170.86
521.17	201.29
521.34	194.26
521.52	187.24
521.69	245.76
521.86	238.73
522.03	208.31
522.20	222.35
522.38	210.65
522.55	184.90
522.72	191.92
522.89	248.10
523.07	259.80
523.24	182.56
523.41	175.54
523.58	229.37
523.75	231.71
523.92	220.01
524.10	250.44
524.27	276.18
524.44	203.63
524.61	238.73
524.78	156.82
524.96	170.86
525.13	227.03
525.30	224.69
525.47	252.78
525.64	271.50
525.81	208.31
525.98	133.41
526.16	215.33
526.33	196.60
526.50	203.63
526.67	170.86
526.84	198.95
527.01	234.05
527.18	217.67
527.36	198.95
527.53	168.52
527.70	262.14
527.87	177.88
528.04	299.59
528.21	205.97
528.38	241.08
528.55	299.59
528.72	327.68
528.89	243.42
529.07	117.03
529.24	245.76
529.41	222.35
529.58	182.56
529.75	161.50
529.92	313.63
530.09	198.95
530.26	252.78
530.43	175.54
530.60	243.42
530.77	198.95
530.94	208.31
531.11	142.77
531.28	215.33
531.46	215.33
531.63	166.18
531.80	154.48
531.97	180.22
532.14	304.27
532.31	227.03
532.48	203.63
532.65	238.73
532.82	194.26
532.99	229.37
533.16	168.52
533.33	198.95
533.50	161.50
533.67	175.54
533.84	220.01
534.01	205.97
534.18	182.56
534.35	166.18
534.52	191.92
534.69	311.29
534.86	215.33
535.03	131.07
535.20	149.79
535.37	163.84
535.54	210.65
535.71	234.05
535.88	248.10
536.05	222.35
536.22	257.46
536.38	182.56
536.55	198.95
536.72	140.43
536.89	154.48
537.06	212.99
537.23	98.30
537.40	231.71
537.57	264.48
537.74	149.79
537.91	259.80
538.08	234.05
538.25	220.01
538.42	215.33
538.59	231.71
538.75	220.01
538.92	227.03
539.09	205.97
539.26	154.48
539.43	301.93
539.60	266.82
539.77	241.08
539.94	170.86
540.11	182.56
540.28	245.76
540.44	189.58
540.61	222.35
540.78	168.52
540.95	231.71
541.12	205.97
541.29	128.73
541.46	215.33
541.62	229.37
541.79	210.65
541.96	208.31
542.13	194.26
542.30	266.82
542.47	264.48
542.63	198.95
542.80	227.03
542.97	168.52
543.14	168.52
543.31	138.09
543.48	236.39
543.64	163.84
543.81	168.52
543.98	114.69
544.15	159.16
544.32	177.88
544.48	173.20
544.65	184.90
544.82	182.56
544.99	196.60
545.16	255.12
545.32	236.39
545.49	231.71
545.66	222.35
545.83	177.88
546.00	222.35
546.16	166.18
546.33	252.78
546.50	227.03
546.67	236.39
546.83	203.63
547.00	196.60
547.17	124.05
547.34	189.58
547.50	238.73
547.67	215.33
547.84	198.95
548.00	161.50
548.17	205.97
548.34	224.69
548.51	264.48
548.67	278.52
548.84	173.20
549.01	208.31
549.18	287.89
549.34	170.86
549.51	210.65
549.68	252.78
549.84	271.50
550.01	170.86
550.18	243.42
550.34	301.93
550.51	196.60
550.68	259.80
550.84	238.73
551.01	234.05
551.18	224.69
551.34	163.84
551.51	187.24
551.68	191.92
551.84	243.42
552.01	236.39
552.18	227.03
552.34	189.58
552.51	227.03
552.68	217.67
552.84	234.05
553.01	205.97
553.18	278.52
553.34	184.90
553.51	203.63
553.67	252.78
553.84	308.95
554.01	273.84
554.17	205.97
554.34	278.52
554.51	248.10
554.67	283.20
554.84	231.71
555.00	168.52
555.17	177.88
555.33	229.37
555.50	161.50
555.67	210.65
555.83	215.33
556.00	250.44
556.16	351.08
556.33	184.90
556.50	271.50
556.66	212.99
556.83	243.42
556.99	236.39
557.16	133.41
557.32	205.97
557.49	168.52
557.65	231.71
557.82	224.69
557.98	283.20
558.15	243.42
558.32	184.90
558.48	210.65
558.65	241.08
558.81	194.26
558.98	163.84
559.14	248.10
559.31	166.18
559.47	198.95
559.64	138.09
559.80	212.99
559.97	229.37
560.13	173.20
560.30	163.84
560.46	271.50
560.63	208.31
560.79	145.11
560.96	248.10
561.12	145.11
561.29	149.79
561.45	264.48
561.61	257.46
561.78	344.06
561.94	149.79
562.11	212.99
562.27	184.90
562.44	189.58
562.60	222.35
562.77	184.90
562.93	285.55
563.10	205.97
563.26	154.48
563.42	217.67
563.59	180.22
563.75	220.01
563.92	149.79
564.08	194.26
564.24	161.50
564.41	248.10
564.57	145.11
564.74	173.20
564.90	184.90
565.07	266.82
565.23	259.80
565.39	138.09
565.56	294.91
565.72	215.33
565.88	187.24
566.05	182.56
566.21	121.71
566.38	215.33
566.54	222.35
566.70	297.25
566.87	273.84
567.03	135.75
567.19	191.92
567.36	182.56
567.52	159.16
567.68	203.63
567.85	243.42
568.01	210.65
568.17	145.11
568.34	217.67
568.50	203.63
568.66	205.97
568.83	304.27
568.99	196.60
569.15	208.31
569.32	234.05
569.48	152.13
569.64	156.82
569.81	210.65
569.97	180.22
570.13	152.13
570.30	161.50
570.46	182.56
570.62	241.08
570.78	168.52
570.95	212.99
571.11	222.35
571.27	184.90
571.43	107.66
571.60	217.67
571.76	170.86
571.92	166.18
572.09	133.41
572.25	229.37
572.41	166.18
572.57	229.37
572.74	203.63
572.90	187.24
573.06	292.57
573.22	182.56
573.38	191.92
573.55	238.73
573.71	257.46
573.87	203.63
574.03	182.56
574.20	189.58
574.36	149.79
574.52	215.33
574.68	222.35
574.84	182.56
575.01	154.48
575.17	149.79
575.33	124.05
575.49	236.39
575.65	208.31
575.82	234.05
575.98	299.59
576.14	161.50
576.30	220.01
576.46	156.82
576.62	93.62
576.79	175.54
576.95	173.20
577.11	191.92
577.27	196.60
577.43	215.33
577.59	241.08
577.75	292.57
577.92	227.03
578.08	161.50
578.24	138.09
578.40	166.18
578.56	210.65
578.72	292.57
578.88	145.11
579.04	220.01
579.21	198.95
579.37	229.37
579.53	205.97
579.69	194.26
579.85	110.01
580.01	187.24
580.17	224.69
580.33	121.71
580.49	182.56
580.65	250.44
580.82	245.76
580.98	231.71
581.14	142.77
581.30	180.22
581.46	138.09
581.62	238.73
581.78	280.86
581.94	227.03
582.10	201.29
582.26	212.99
582.42	182.56
582.58	215.33
582.74	212.99
582.90	184.90
583.06	170.86
583.22	166.18
583.38	133.41
583.54	215.33
583.70	210.65
583.86	222.35
584.02	154.48
584.18	222.35
584.34	245.76
584.50	290.23
584.66	220.01
584.82	93.62
584.98	163.84
585.14	182.56
585.30	163.84
585.46	201.29
585.62	170.86
585.78	147.45
585.94	255.12
586.10	203.63
586.26	189.58
586.42	252.78
586.58	114.69
586.74	168.52
586.90	227.03
587.06	180.22
587.22	238.73
587.38	191.92
587.54	117.03
587.70	173.20
587.86	161.50
588.02	208.31
588.18	245.76
588.34	248.10
588.49	131.07
588.65	74.90
588.81	152.13
588.97	208.31
589.13	140.43
589.29	117.03
589.45	196.60
589.61	138.09
589.77	215.33
589.93	189.58
590.08	180.22
590.24	212.99
590.40	191.92
590.56	196.60
590.72	196.60
590.88	175.54
591.04	173.20
591.20	173.20
591.35	276.18
591.51	135.75
591.67	180.22
591.83	133.41
591.99	227.03
592.15	241.08
592.31	173.20
592.46	170.86
592.62	208.31
592.78	208.31
592.94	208.31
593.10	163.84
593.26	119.37
593.41	128.73
593.57	166.18
593.73	163.84
593.89	201.29
594.05	163.84
594.20	147.45
594.36	189.58
594.52	182.56
594.68	107.66
594.84	182.56
594.99	252.78
595.15	173.20
595.31	227.03
595.47	198.95
595.62	180.22
595.78	140.43
595.94	119.37
596.10	156.82
596.25	241.08
596.41	245.76
596.57	243.42
596.73	149.79
596.88	198.95
597.04	187.24
597.20	65.54
597.36	234.05
597.51	161.50
597.67	161.50
597.83	182.56
597.99	238.73
598.14	252.78
598.30	238.73
598.46	177.88
598.61	196.60
598.77	180.22
598.93	117.03
599.09	203.63
599.24	119.37
599.40	229.37
599.56	147.45
599.71	227.03
599.87	173.20
600.03	180.22
600.18	234.05
600.34	156.82
600.50	170.86
600.65	175.54
600.81	128.73
600.97	262.14
601.12	189.58
601.28	191.92
601.44	210.65
601.59	215.33
601.75	217.67
601.91	248.10
602.06	180.22
602.22	255.12
602.37	217.67
602.53	222.35
602.69	262.14
602.84	177.88
603.00	196.60
603.16	196.60
603.31	220.01
603.47	194.26
603.62	191.92
603.78	154.48
603.94	184.90
604.09	121.71
604.25	154.48
604.40	245.76
604.56	191.92
604.71	231.71
604.87	222.35
605.03	170.86
605.18	98.30
605.34	177.88
605.49	126.39
605.65	149.79
605.80	191.92
605.96	114.69
606.12	241.08
606.27	238.73
606.43	112.35
606.58	180.22
606.74	152.13
606.89	180.22
607.05	180.22
607.20	196.60
607.36	220.01
607.51	184.90
607.67	189.58
607.82	161.50
607.98	203.63
608.13	159.16
608.29	222.35
608.44	201.29
608.60	194.26
608.75	227.03
608.91	196.60
609.06	245.76
609.22	145.11
609.37	121.71
609.53	128.73
609.68	159.16
609.84	182.56
609.99	184.90
610.15	229.37
610.30	110.01
610.46	180.22
610.61	170.86
610.76	194.26
610.92	229.37
611.07	140.43
611.23	198.95
611.38	198.95
611.54	147.45
611.69	173.20
611.84	198.95
612.00	175.54
612.15	182.56
612.31	175.54
612.46	154.48
612.62	168.52
612.77	201.29
612.92	124.05
613.08	257.46
613.23	304.27
613.39	222.35
613.54	187.24
613.69	184.90
613.85	210.65
614.00	243.42
614.15	257.46
614.31	110.01
614.46	210.65
614.62	210.65
614.77	184.90
614.92	79.58
615.08	177.88
615.23	194.26
615.38	198.95
615.54	135.75
615.69	173.20
615.84	124.05
616.00	142.77
616.15	93.62
616.30	222.35
616.46	173.20
616.61	170.86
616.76	208.31
616.92	168.52
617.07	84.26
617.22	196.60
617.37	194.26
617.53	177.88
617.68	170.86
617.83	205.97
617.99	154.48
618.14	217.67
618.29	201.29
618.45	159.16
618.60	208.31
618.75	229.37
618.90	161.50
619.06	203.63
619.21	238.73
619.36	210.65
619.51	224.69
619.67	161.50
619.82	203.63
619.97	177.88
620.12	182.56
620.28	168.52
620.43	180.22
620.58	220.01
620.73	105.32
620.89	189.58
621.04	177.88
621.19	222.35
621.34	182.56
621.49	159.16
621.65	198.95
621.80	119.37
621.95	194.26
622.10	189.58
622.25	217.67
622.41	140.43
622.56	161.50
622.71	145.11
622.86	234.05
623.01	222.35
623.16	198.95
623.32	205.97
623.47	201.29
623.62	201.29
623.77	227.03
623.92	166.18
624.07	191.92
624.23	177.88
624.38	236.39
624.53	248.10
624.68	234.05
624.83	170.86
624.98	142.77
625.13	187.24
625.29	166.18
625.44	173.20
625.59	173.20
625.74	180.22
625.89	203.63
626.04	131.07
626.19	126.39
626.34	147.45
626.49	191.92
626.65	133.41
626.80	100.64
626.95	205.97
627.10	56.17
627.25	170.86
627.40	102.98
627.55	161.50
627.70	110.01
627.85	140.43
628.00	135.75
628.15	119.37
628.30	198.95
628.45	124.05
628.60	88.94
628.76	142.77
628.91	121.71
629.06	175.54
629.21	212.99
629.36	152.13
629.51	93.62
629.66	145.11
629.81	252.78
629.96	180.22
630.11	131.07
630.26	145.11
630.41	182.56
630.56	163.84
630.71	72.56
630.86	152.13
631.01	100.64
631.16	180.22
631.31	166.18
631.46	168.52
631.61	88.94
631.76	210.65
631.91	107.66
632.06	152.13
632.21	131.07
632.36	191.92
632.51	147.45
632.66	182.56
632.81	100.64
632.96	173.20
633.10	177.88
633.25	208.31
633.40	191.92
633.55	180.22
633.70	37.45
633.85	212.99
634.00	182.56
634.15	163.84
634.30	140.43
634.45	189.58
634.60	133.41
634.75	154.48
634.90	124.05
635.05	152.13
635.19	131.07
635.34	182.56
635.49	86.60
635.64	107.66
635.79	175.54
635.94	161.50
636.09	95.96
636.24	198.95
636.39	168.52
636.53	105.32
636.68	175.54
636.83	189.58
636.98	234.05
637.13	138.09
637.28	112.35
637.43	168.52
637.57	208.31
637.72	243.42
637.87	124.05
638.02	117.03
638.17	112.35
638.32	191.92
638.46	147.45
638.61	266.82
638.76	191.92
638.91	184.90
639.06	149.79
639.20	145.11
639.35	191.92
639.50	161.50
639.65	166.18
639.80	187.24
639.94	126.39
640.09	210.65
640.24	182.56
640.39	170.86
640.54	220.01
640.68	156.82
640.83	161.50
640.98	203.63
641.13	180.22
641.27	131.07
641.42	191.92
641.57	191.92
641.72	128.73
641.86	241.08
642.01	147.45
642.16	159.16
642.31	145.11
642.45	205.97
642.60	205.97
642.75	203.63
642.90	227.03
643.04	166.18
643.19	198.95
643.34	128.73
643.48	156.82
643.63	142.77
643.78	102.98
643.93	217.67
644.07	145.11
644.22	138.09
644.37	161.50
644.51	107.66
644.66	149.79
644.81	102.98
644.95	184.90
645.10	100.64
645.25	91.28
645.39	196.60
645.54	156.82
645.69	215.33
645.83	93.62
645.98	145.11
646.13	117.03
646.27	95.96
646.42	93.62
646.57	112.35
646.71	156.82
646.86	135.75
647.00	114.69
647.15	182.56
647.30	149.79
647.44	91.28
647.59	70.22
647.74	135.75
647.88	138.09
648.03	84.26
648.17	161.50
648.32	147.45
648.47	140.43
648.61	100.64
648.76	51.49
648.90	114.69
649.05	133.41
649.20	107.66
649.34	133.41
649.49	98.30
649.63	168.52
649.78	154.48
649.92	196.60
650.07	126.39
650.21	70.22
650.36	138.09
650.51	168.52
650.65	201.29
650.80	145.11
650.94	135.75
651.09	166.18
651.23	121.71
651.38	133.41
651.52	170.86
651.67	191.92
651.81	189.58
651.96	138.09
652.10	163.84
652.25	95.96
652.39	135.75
652.54	152.13
652.68	145.11
652.83	180.22
652.97	152.13
653.12	161.50
653.26	138.09
653.41	187.24
653.55	166.18
653.70	203.63
653.84	105.32
653.99	168.52
654.13	91.28
654.27	163.84
654.42	56.17
654.56	138.09
654.71	81.92
654.85	152.13
655.00	114.69
655.14	128.73
655.29	147.45
655.43	224.69
655.57	110.01
655.72	81.92
655.86	205.97
656.01	170.86
656.15	77.24
656.30	196.60
656.44	77.24
656.58	152.13
656.73	119.37
656.87	149.79
657.01	156.82
657.16	194.26
657.30	196.60
657.45	182.56
657.59	168.52
657.73	138.09
657.88	93.62
658.02	231.71
658.16	152.13
658.31	107.66
658.45	140.43
658.60	88.94
658.74	128.73
658.88	121.71
659.03	149.79
659.17	135.75
659.31	102.98
659.46	126.39
659.60	175.54
659.74	133.41
659.89	201.29
660.03	180.22
660.17	161.50
660.32	147.45
660.46	166.18
660.60	163.84
660.74	140.43
660.89	145.11
661.03	170.86
661.17	156.82
661.32	138.09
661.46	205.97
661.60	124.05
661.74	140.43
661.89	142.77
662.03	65.54
662.17	126.39
662.31	149.79
662.46	191.92
662.60	145.11
662.74	135.75
662.88	149.79
663.03	126.39
663.17	140.43
663.31	124.05
663.45	100.64
663.60	84.26
663.74	135.75
663.88	100.64
664.02	149.79
664.17	107.66
664.31	112.35
664.45	135.75
664.59	168.52
664.73	98.30
664.88	110.01
665.02	145.11
665.16	161.50
665.30	156.82
665.44	203.63
665.59	128.73
665.73	222.35
665.87	140.43
666.01	65.54
666.15	140.43
666.29	131.07
666.44	187.24
666.58	149.79
666.72	119.37
666.86	140.43
667.00	93.62
667.14	126.39
667.28	124.05
667.43	121.71
667.57	166.18
667.71	154.48
667.85	159.16
667.99	128.73
668.13	168.52
668.27	138.09
668.41	170.86
668.56	126.39
668.70	147.45
668.84	100.64
668.98	140.43
669.12	105.32
669.26	205.97
669.40	187.24
669.54	126.39
669.68	149.79
669.82	128.73
669.96	107.66
670.10	154.48
670.25	159.16
670.39	208.31
670.53	131.07
670.67	128.73
670.81	128.73
670.95	114.69
671.09	107.66
671.23	135.75
671.37	196.60
671.51	215.33
671.65	180.22
671.79	156.82
671.93	128.73
672.07	220.01
672.21	161.50
672.35	170.86
672.49	114.69
672.63	131.07
672.77	133.41
672.91	133.41
673.05	201.29
673.19	154.48
673.33	74.90
673.47	203.63
673.61	156.82
673.75	154.48
673.89	30.43
674.03	156.82
674.17	128.73
674.31	238.73
674.45	131.07
674.59	149.79
674.73	131.07
674.87	163.84
675.01	159.16
675.15	119.37
675.29	194.26
675.43	147.45
675.56	187.24
675.70	138.09
675.84	154.48
675.98	131.07
676.12	124.05
676.26	170.86
676.40	135.75
676.54	91.28
676.68	180.22
676.82	166.18
676.96	102.98
677.10	67.88
677.23	98.30
677.37	91.28
677.51	208.31
677.65	196.60
677.79	121.71
677.93	42.13
678.07	117.03
678.21	95.96
678.34	203.63
678.48	154.48
678.62	105.32
678.76	161.50
678.90	154.48
679.04	124.05
679.18	51.49
679.31	102.98
679.45	159.16
679.59	112.35
679.73	119.37
679.87	175.54
680.00	114.69
680.14	128.73
680.28	149.79
680.42	102.98
680.56	51.49
680.70	131.07
680.83	98.30
680.97	98.30
681.11	110.01
681.25	163.84
681.39	140.43
681.52	173.20
681.66	138.09
681.80	135.75
681.94	110.01
682.07	135.75
682.21	138.09
682.35	77.24
682.49	161.50
682.62	133.41
682.76	191.92
682.90	65.54
683.04	149.79
683.17	100.64
683.31	105.32
683.45	126.39
683.59	65.54
683.72	131.07
683.86	119.37
684.00	72.56
684.13	163.84
684.27	84.26
684.41	128.73
684.55	175.54
684.68	124.05
684.82	25.75
684.96	133.41
685.09	72.56
685.23	86.60
685.37	145.11
685.50	152.13
685.64	182.56
685.78	119.37
685.91	88.94
686.05	154.48
686.19	147.45
686.32	154.48
686.46	135.75
686.60	98.30
686.73	182.56
686.87	140.43
687.01	100.64
687.14	93.62
687.28	126.39
687.42	79.58
687.55	114.69
687.69	74.90
687.82	53.83
687.96	81.92
688.10	142.77
688.23	138.09
688.37	119.37
688.50	149.79
688.64	126.39
688.78	105.32
688.91	121.71
689.05	21.06
689.18	72.56
689.32	117.03
689.46	114.69
689.59	152.13
689.73	147.45
689.86	46.81
690.00	156.82
690.13	88.94
690.27	23.41
690.41	44.47
690.54	117.03
690.68	49.15
690.81	114.69
690.95	53.83
691.08	135.75
691.22	65.54
691.35	72.56
691.49	67.88
691.62	77.24
691.76	126.39
691.89	133.41
692.03	35.11
692.16	84.26
692.30	100.64
692.43	95.96
692.57	121.71
692.70	84.26
692.84	147.45
692.97	84.26
693.11	107.66
693.24	30.43
693.38	39.79
693.51	70.22
693.65	93.62
693.78	128.73
693.92	98.30
694.05	105.32
694.19	107.66
694.32	70.22
694.45	98.30
694.59	119.37
694.72	112.35
694.86	30.43
694.99	102.98
695.13	105.32
695.26	23.41
695.39	140.43
695.53	114.69
695.66	140.43
695.80	107.66
695.93	49.15
696.07	70.22
696.20	163.84
696.33	131.07
696.47	102.98
696.60	67.88
696.73	140.43
696.87	44.47
697.00	147.45
697.14	63.19
697.27	91.28
697.40	234.05
697.54	95.96
697.67	77.24
697.80	39.79
697.94	51.49
698.07	177.88
698.21	100.64
698.34	119.37
698.47	112.35
698.61	159.16
698.74	91.28
698.87	35.11
699.01	65.54
699.14	117.03
699.27	67.88
699.40	152.13
699.54	70.22
699.67	98.30
699.80	102.98
699.94	107.66
700.07	32.77
700.20	79.58
700.34	110.01
700.47	58.51
700.60	58.51
700.73	79.58
700.87	140.43
701.00	88.94
701.13	84.26
701.26	84.26
701.40	117.03
701.53	117.03
701.66	110.01
701.79	88.94
701.93	95.96
702.06	114.69
702.19	79.58
702.32	145.11
702.46	93.62
702.59	124.05
702.72	163.84
702.85	91.28
702.99	138.09
703.12	121.71
703.25	39.79
703.38	51.49
703.51	100.64
703.65	91.28
703.78	138.09
703.91	168.52
704.04	119.37
704.17	154.48
704.31	49.15
704.44	98.30
704.57	93.62
704.70	112.35
704.83	65.54
704.96	163.84
705.10	72.56
705.23	30.43
>>>>>End Processed Spectral Data<<<<<
