SpectraSuite Data File
++++++++++++++++++++++++++++++++++++
Date: Fri Oct 04 11:51:09 GMT-05:00 2013
User: price-jones
Dark Spectrum Present: No
Reference Spectrum Present: No
Number of Sampled Component Spectra: 1
Spectrometers: USB2+H05261
Integration Time (usec): 100000 (USB2+H05261)
Spectra Averaged: 1 (USB2+H05261)
Boxcar Smoothing: 0 (USB2+H05261)
Correct for Electrical Dark: No (USB2+H05261)
Strobe/Lamp Enabled: No (USB2+H05261)
Correct for Detector Non-linearity: No (USB2+H05261)
Correct for Stray Light: No (USB2+H05261)
Number of Pixels in Processed Spectrum: 2048
>>>>>Begin Processed Spectral Data<<<<<
365.73	44.47
365.92	44.47
366.12	44.47
366.32	0.00
366.52	0.00
366.72	0.00
366.91	0.00
367.11	0.00
367.31	0.00
367.51	0.00
367.70	0.00
367.90	0.00
368.10	0.00
368.30	0.00
368.49	0.00
368.69	0.00
368.89	0.00
369.09	0.00
369.28	0.00
369.48	0.00
369.68	0.00
369.87	0.00
370.07	0.00
370.27	16.38
370.47	0.00
370.66	0.00
370.86	4.68
371.06	107.66
371.25	51.49
371.45	9.36
371.65	14.04
371.84	18.72
372.04	0.00
372.24	21.06
372.44	65.54
372.63	128.73
372.83	133.41
373.03	35.11
373.22	67.88
373.42	79.58
373.62	37.45
373.81	124.05
374.01	105.32
374.21	124.05
374.40	126.39
374.60	112.35
374.79	58.51
374.99	39.79
375.19	93.62
375.38	105.32
375.58	135.75
375.78	110.01
375.97	205.97
376.17	145.11
376.37	95.96
376.56	65.54
376.76	63.19
376.95	63.19
377.15	112.35
377.35	114.69
377.54	133.41
377.74	65.54
377.93	51.49
378.13	56.17
378.33	91.28
378.52	173.20
378.72	102.98
378.91	128.73
379.11	124.05
379.31	88.94
379.50	58.51
379.70	42.13
379.89	16.38
380.09	74.90
380.28	7.02
380.48	114.69
380.68	23.41
380.87	88.94
381.07	58.51
381.26	121.71
381.46	79.58
381.65	102.98
381.85	65.54
382.04	140.43
382.24	112.35
382.43	84.26
382.63	91.28
382.83	42.13
383.02	67.88
383.22	140.43
383.41	53.83
383.61	35.11
383.80	25.75
384.00	9.36
384.19	0.00
384.39	44.47
384.58	135.75
384.78	159.16
384.97	142.77
385.17	39.79
385.36	112.35
385.56	128.73
385.75	58.51
385.95	95.96
386.14	98.30
386.34	72.56
386.53	79.58
386.72	60.85
386.92	98.30
387.11	49.15
387.31	86.60
387.50	53.83
387.70	88.94
387.89	60.85
388.09	56.17
388.28	67.88
388.48	65.54
388.67	74.90
388.86	28.09
389.06	100.64
389.25	39.79
389.45	93.62
389.64	46.81
389.84	138.09
390.03	88.94
390.22	58.51
390.42	60.85
390.61	102.98
390.81	14.04
391.00	74.90
391.19	35.11
391.39	44.47
391.58	77.24
391.78	42.13
391.97	93.62
392.16	32.77
392.36	46.81
392.55	156.82
392.75	105.32
392.94	70.22
393.13	88.94
393.33	84.26
393.52	140.43
393.71	95.96
393.91	60.85
394.10	110.01
394.29	21.06
394.49	156.82
394.68	88.94
394.88	88.94
395.07	86.60
395.26	25.75
395.46	114.69
395.65	81.92
395.84	81.92
396.04	166.18
396.23	119.37
396.42	121.71
396.62	105.32
396.81	46.81
397.00	60.85
397.19	88.94
397.39	74.90
397.58	117.03
397.77	100.64
397.97	79.58
398.16	65.54
398.35	39.79
398.55	28.09
398.74	39.79
398.93	126.39
399.12	42.13
399.32	128.73
399.51	102.98
399.70	145.11
399.90	110.01
400.09	142.77
400.28	128.73
400.47	21.06
400.67	60.85
400.86	180.22
401.05	86.60
401.24	105.32
401.44	138.09
401.63	145.11
401.82	110.01
402.01	42.13
402.21	95.96
402.40	102.98
402.59	91.28
402.78	98.30
402.97	72.56
403.17	149.79
403.36	93.62
403.55	105.32
403.74	149.79
403.93	56.17
404.13	159.16
404.32	49.15
404.51	91.28
404.70	102.98
404.89	112.35
405.09	154.48
405.28	124.05
405.47	86.60
405.66	67.88
405.85	65.54
406.05	117.03
406.24	14.04
406.43	140.43
406.62	126.39
406.81	147.45
407.00	128.73
407.20	100.64
407.39	110.01
407.58	107.66
407.77	105.32
407.96	133.41
408.15	84.26
408.34	72.56
408.54	107.66
408.73	95.96
408.92	86.60
409.11	46.81
409.30	102.98
409.49	39.79
409.68	56.17
409.87	56.17
410.07	142.77
410.26	79.58
410.45	42.13
410.64	84.26
410.83	86.60
411.02	63.19
411.21	81.92
411.40	112.35
411.59	56.17
411.78	124.05
411.98	56.17
412.17	79.58
412.36	51.49
412.55	37.45
412.74	95.96
412.93	74.90
413.12	30.43
413.31	119.37
413.50	88.94
413.69	112.35
413.88	112.35
414.07	112.35
414.26	74.90
414.45	74.90
414.64	67.88
414.83	124.05
415.02	91.28
415.22	133.41
415.41	135.75
415.60	56.17
415.79	100.64
415.98	86.60
416.17	67.88
416.36	46.81
416.55	142.77
416.74	152.13
416.93	128.73
417.12	72.56
417.31	128.73
417.50	72.56
417.69	142.77
417.88	51.49
418.07	72.56
418.26	95.96
418.45	91.28
418.64	210.65
418.83	88.94
419.02	114.69
419.21	18.72
419.39	56.17
419.58	88.94
419.77	126.39
419.96	189.58
420.15	156.82
420.34	121.71
420.53	133.41
420.72	140.43
420.91	114.69
421.10	112.35
421.29	205.97
421.48	114.69
421.67	124.05
421.86	42.13
422.05	105.32
422.24	74.90
422.43	44.47
422.61	168.52
422.80	124.05
422.99	133.41
423.18	100.64
423.37	126.39
423.56	60.85
423.75	121.71
423.94	63.19
424.13	180.22
424.32	63.19
424.50	147.45
424.69	135.75
424.88	138.09
425.07	70.22
425.26	110.01
425.45	86.60
425.64	42.13
425.83	86.60
426.01	131.07
426.20	81.92
426.39	46.81
426.58	175.54
426.77	100.64
426.96	110.01
427.15	107.66
427.33	126.39
427.52	135.75
427.71	119.37
427.90	166.18
428.09	30.43
428.28	128.73
428.46	112.35
428.65	107.66
428.84	102.98
429.03	187.24
429.22	100.64
429.40	60.85
429.59	98.30
429.78	110.01
429.97	49.15
430.16	42.13
430.34	93.62
430.53	98.30
430.72	112.35
430.91	175.54
431.10	102.98
431.28	135.75
431.47	91.28
431.66	145.11
431.85	93.62
432.03	110.01
432.22	196.60
432.41	72.56
432.60	168.52
432.79	117.03
432.97	128.73
433.16	110.01
433.35	98.30
433.54	100.64
433.72	119.37
433.91	112.35
434.10	98.30
434.28	184.90
434.47	131.07
434.66	84.26
434.85	135.75
435.03	142.77
435.22	142.77
435.41	156.82
435.59	105.32
435.78	196.60
435.97	72.56
436.16	112.35
436.34	67.88
436.53	170.86
436.72	159.16
436.90	147.45
437.09	140.43
437.28	58.51
437.46	91.28
437.65	114.69
437.84	147.45
438.02	93.62
438.21	74.90
438.40	128.73
438.58	189.58
438.77	126.39
438.96	159.16
439.14	131.07
439.33	194.26
439.52	166.18
439.70	121.71
439.89	166.18
440.08	145.11
440.26	138.09
440.45	124.05
440.63	128.73
440.82	79.58
441.01	142.77
441.19	124.05
441.38	84.26
441.57	88.94
441.75	135.75
441.94	182.56
442.12	56.17
442.31	152.13
442.50	49.15
442.68	98.30
442.87	93.62
443.05	110.01
443.24	124.05
443.43	198.95
443.61	121.71
443.80	81.92
443.98	102.98
444.17	114.69
444.35	117.03
444.54	182.56
444.73	163.84
444.91	124.05
445.10	173.20
445.28	70.22
445.47	163.84
445.65	152.13
445.84	56.17
446.02	152.13
446.21	79.58
446.39	98.30
446.58	88.94
446.77	35.11
446.95	81.92
447.14	124.05
447.32	128.73
447.51	138.09
447.69	79.58
447.88	112.35
448.06	215.33
448.25	182.56
448.43	93.62
448.62	131.07
448.80	126.39
448.99	147.45
449.17	86.60
449.36	105.32
449.54	180.22
449.73	152.13
449.91	154.48
450.10	159.16
450.28	79.58
450.46	74.90
450.65	203.63
450.83	93.62
451.02	91.28
451.20	177.88
451.39	131.07
451.57	100.64
451.76	142.77
451.94	91.28
452.13	168.52
452.31	163.84
452.49	145.11
452.68	53.83
452.86	121.71
453.05	208.31
453.23	166.18
453.42	77.24
453.60	149.79
453.78	105.32
453.97	88.94
454.15	42.13
454.34	70.22
454.52	133.41
454.70	201.29
454.89	77.24
455.07	119.37
455.26	138.09
455.44	170.86
455.62	98.30
455.81	86.60
455.99	159.16
456.17	173.20
456.36	84.26
456.54	133.41
456.73	126.39
456.91	98.30
457.09	124.05
457.28	191.92
457.46	135.75
457.64	149.79
457.83	88.94
458.01	112.35
458.19	114.69
458.38	114.69
458.56	147.45
458.74	131.07
458.93	114.69
459.11	121.71
459.29	100.64
459.48	231.71
459.66	175.54
459.84	170.86
460.03	252.78
460.21	161.50
460.39	173.20
460.57	184.90
460.76	126.39
460.94	140.43
461.12	154.48
461.31	198.95
461.49	154.48
461.67	9.36
461.85	81.92
462.04	119.37
462.22	573.43
462.40	110.01
462.59	91.28
462.77	161.50
462.95	128.73
463.13	110.01
463.32	79.58
463.50	142.77
463.68	170.86
463.86	117.03
464.05	107.66
464.23	208.31
464.41	121.71
464.59	215.33
464.78	133.41
464.96	117.03
465.14	147.45
465.32	91.28
465.50	114.69
465.69	133.41
465.87	180.22
466.05	189.58
466.23	77.24
466.41	138.09
466.60	67.88
466.78	135.75
466.96	88.94
467.14	114.69
467.32	175.54
467.51	189.58
467.69	117.03
467.87	154.48
468.05	119.37
468.23	159.16
468.41	177.88
468.60	170.86
468.78	227.03
468.96	166.18
469.14	142.77
469.32	128.73
469.50	102.98
469.69	84.26
469.87	114.69
470.05	88.94
470.23	93.62
470.41	86.60
470.59	173.20
470.77	149.79
470.95	224.69
471.14	142.77
471.32	100.64
471.50	184.90
471.68	95.96
471.86	191.92
472.04	133.41
472.22	114.69
472.40	191.92
472.58	86.60
472.77	166.18
472.95	198.95
473.13	212.99
473.31	203.63
473.49	110.01
473.67	173.20
473.85	220.01
474.03	142.77
474.21	203.63
474.39	74.90
474.57	100.64
474.75	86.60
474.93	32.77
475.12	131.07
475.30	131.07
475.48	105.32
475.66	149.79
475.84	126.39
476.02	100.64
476.20	198.95
476.38	131.07
476.56	236.39
476.74	140.43
476.92	159.16
477.10	84.26
477.28	203.63
477.46	100.64
477.64	154.48
477.82	142.77
478.00	173.20
478.18	145.11
478.36	128.73
478.54	131.07
478.72	91.28
478.90	126.39
479.08	81.92
479.26	93.62
479.44	205.97
479.62	154.48
479.80	128.73
479.98	191.92
480.16	121.71
480.34	198.95
480.52	117.03
480.70	229.37
480.88	88.94
481.06	154.48
481.24	154.48
481.41	128.73
481.59	163.84
481.77	168.52
481.95	138.09
482.13	159.16
482.31	142.77
482.49	131.07
482.67	112.35
482.85	131.07
483.03	88.94
483.21	135.75
483.39	203.63
483.57	175.54
483.74	224.69
483.92	114.69
484.10	51.49
484.28	182.56
484.46	212.99
484.64	215.33
484.82	124.05
485.00	138.09
485.18	154.48
485.35	205.97
485.53	126.39
485.71	119.37
485.89	74.90
486.07	110.01
486.25	191.92
486.43	154.48
486.61	159.16
486.78	182.56
486.96	177.88
487.14	135.75
487.32	166.18
487.50	142.77
487.68	102.98
487.85	98.30
488.03	201.29
488.21	131.07
488.39	170.86
488.57	147.45
488.75	156.82
488.92	447.04
489.10	159.16
489.28	189.58
489.46	166.18
489.64	152.13
489.81	107.66
489.99	124.05
490.17	131.07
490.35	208.31
490.53	152.13
490.70	133.41
490.88	180.22
491.06	189.58
491.24	203.63
491.41	201.29
491.59	112.35
491.77	138.09
491.95	149.79
492.13	210.65
492.30	152.13
492.48	212.99
492.66	224.69
492.84	163.84
493.01	191.92
493.19	154.48
493.37	234.05
493.54	196.60
493.72	145.11
493.90	152.13
494.08	140.43
494.25	201.29
494.43	243.42
494.61	182.56
494.79	159.16
494.96	215.33
495.14	156.82
495.32	196.60
495.49	156.82
495.67	234.05
495.85	173.20
496.02	161.50
496.20	149.79
496.38	208.31
496.55	238.73
496.73	220.01
496.91	112.35
497.09	131.07
497.26	98.30
497.44	149.79
497.62	184.90
497.79	184.90
497.97	182.56
498.14	205.97
498.32	198.95
498.50	170.86
498.67	170.86
498.85	112.35
499.03	112.35
499.20	163.84
499.38	168.52
499.56	184.90
499.73	203.63
499.91	208.31
500.08	238.73
500.26	227.03
500.44	166.18
500.61	182.56
500.79	110.01
500.97	222.35
501.14	194.26
501.32	189.58
501.49	234.05
501.67	170.86
501.84	161.50
502.02	210.65
502.20	145.11
502.37	255.12
502.55	166.18
502.72	168.52
502.90	269.16
503.07	196.60
503.25	210.65
503.43	152.13
503.60	154.48
503.78	191.92
503.95	159.16
504.13	159.16
504.30	325.33
504.48	294.91
504.65	201.29
504.83	222.35
505.01	149.79
505.18	166.18
505.36	217.67
505.53	145.11
505.71	212.99
505.88	175.54
506.06	187.24
506.23	231.71
506.41	224.69
506.58	229.37
506.76	290.23
506.93	234.05
507.11	205.97
507.28	220.01
507.46	255.12
507.63	140.43
507.81	138.09
507.98	131.07
508.16	182.56
508.33	177.88
508.50	166.18
508.68	297.25
508.85	205.97
509.03	168.52
509.20	224.69
509.38	142.77
509.55	264.48
509.73	236.39
509.90	187.24
510.08	205.97
510.25	212.99
510.42	112.35
510.60	205.97
510.77	217.67
510.95	175.54
511.12	177.88
511.30	170.86
511.47	215.33
511.64	208.31
511.82	266.82
511.99	234.05
512.17	212.99
512.34	156.82
512.51	135.75
512.69	198.95
512.86	191.92
513.04	259.80
513.21	238.73
513.38	215.33
513.56	203.63
513.73	182.56
513.90	152.13
514.08	124.05
514.25	241.08
514.43	262.14
514.60	163.84
514.77	189.58
514.95	177.88
515.12	224.69
515.29	140.43
515.47	161.50
515.64	173.20
515.81	220.01
515.99	245.76
516.16	191.92
516.33	161.50
516.51	100.64
516.68	177.88
516.85	124.05
517.03	152.13
517.20	234.05
517.37	208.31
517.54	194.26
517.72	168.52
517.89	138.09
518.06	105.32
518.24	222.35
518.41	201.29
518.58	187.24
518.75	198.95
518.93	156.82
519.10	238.73
519.27	196.60
519.45	205.97
519.62	196.60
519.79	294.91
519.96	203.63
520.14	241.08
520.31	177.88
520.48	241.08
520.65	170.86
520.83	145.11
521.00	128.73
521.17	283.20
521.34	241.08
521.52	262.14
521.69	238.73
521.86	212.99
522.03	234.05
522.20	271.50
522.38	184.90
522.55	250.44
522.72	238.73
522.89	191.92
523.07	276.18
523.24	208.31
523.41	133.41
523.58	222.35
523.75	184.90
523.92	212.99
524.10	191.92
524.27	252.78
524.44	208.31
524.61	212.99
524.78	217.67
524.96	273.84
525.13	266.82
525.30	229.37
525.47	203.63
525.64	220.01
525.81	166.18
525.98	257.46
526.16	191.92
526.33	121.71
526.50	227.03
526.67	168.52
526.84	184.90
527.01	180.22
527.18	170.86
527.36	201.29
527.53	168.52
527.70	250.44
527.87	180.22
528.04	189.58
528.21	198.95
528.38	238.73
528.55	241.08
528.72	318.31
528.89	266.82
529.07	173.20
529.24	255.12
529.41	196.60
529.58	135.75
529.75	301.93
529.92	234.05
530.09	175.54
530.26	245.76
530.43	227.03
530.60	224.69
530.77	194.26
530.94	210.65
531.11	215.33
531.28	173.20
531.46	196.60
531.63	227.03
531.80	187.24
531.97	191.92
532.14	196.60
532.31	182.56
532.48	266.82
532.65	271.50
532.82	124.05
532.99	177.88
533.16	175.54
533.33	238.73
533.50	187.24
533.67	189.58
533.84	278.52
534.01	224.69
534.18	283.20
534.35	170.86
534.52	264.48
534.69	318.31
534.86	161.50
535.03	212.99
535.20	203.63
535.37	262.14
535.54	243.42
535.71	220.01
535.88	217.67
536.05	175.54
536.22	215.33
536.38	210.65
536.55	194.26
536.72	215.33
536.89	168.52
537.06	152.13
537.23	121.71
537.40	236.39
537.57	241.08
537.74	196.60
537.91	177.88
538.08	215.33
538.25	259.80
538.42	182.56
538.59	205.97
538.75	198.95
538.92	308.95
539.09	187.24
539.26	156.82
539.43	189.58
539.60	184.90
539.77	147.45
539.94	159.16
540.11	180.22
540.28	227.03
540.44	208.31
540.61	159.16
540.78	290.23
540.95	217.67
541.12	227.03
541.29	215.33
541.46	198.95
541.62	229.37
541.79	180.22
541.96	149.79
542.13	203.63
542.30	189.58
542.47	182.56
542.63	234.05
542.80	187.24
542.97	168.52
543.14	187.24
543.31	212.99
543.48	231.71
543.64	205.97
543.81	220.01
543.98	241.08
544.15	208.31
544.32	180.22
544.48	201.29
544.65	229.37
544.82	236.39
544.99	175.54
545.16	224.69
545.32	229.37
545.49	215.33
545.66	220.01
545.83	135.75
546.00	187.24
546.16	198.95
546.33	222.35
546.50	173.20
546.67	234.05
546.83	145.11
547.00	227.03
547.17	173.20
547.34	187.24
547.50	201.29
547.67	198.95
547.84	224.69
548.00	241.08
548.17	175.54
548.34	236.39
548.51	245.76
548.67	227.03
548.84	201.29
549.01	182.56
549.18	208.31
549.34	266.82
549.51	173.20
549.68	152.13
549.84	161.50
550.01	114.69
550.18	241.08
550.34	308.95
550.51	189.58
550.68	252.78
550.84	177.88
551.01	203.63
551.18	280.86
551.34	196.60
551.51	182.56
551.68	189.58
551.84	191.92
552.01	175.54
552.18	133.41
552.34	229.37
552.51	147.45
552.68	229.37
552.84	210.65
553.01	224.69
553.18	269.16
553.34	168.52
553.51	222.35
553.67	217.67
553.84	231.71
554.01	203.63
554.17	175.54
554.34	234.05
554.51	210.65
554.67	220.01
554.84	161.50
555.00	229.37
555.17	245.76
555.33	285.55
555.50	152.13
555.67	191.92
555.83	212.99
556.00	257.46
556.16	397.89
556.33	210.65
556.50	205.97
556.66	191.92
556.83	198.95
556.99	220.01
557.16	175.54
557.32	210.65
557.49	236.39
557.65	252.78
557.82	220.01
557.98	212.99
558.15	212.99
558.32	180.22
558.48	154.48
558.65	187.24
558.81	306.61
558.98	224.69
559.14	217.67
559.31	266.82
559.47	231.71
559.64	241.08
559.80	220.01
559.97	163.84
560.13	222.35
560.30	182.56
560.46	227.03
560.63	191.92
560.79	182.56
560.96	140.43
561.12	175.54
561.29	201.29
561.45	175.54
561.61	231.71
561.78	290.23
561.94	170.86
562.11	257.46
562.27	182.56
562.44	168.52
562.60	255.12
562.77	142.77
562.93	285.55
563.10	177.88
563.26	187.24
563.42	229.37
563.59	201.29
563.75	198.95
563.92	177.88
564.08	117.03
564.24	140.43
564.41	259.80
564.57	140.43
564.74	201.29
564.90	227.03
565.07	191.92
565.23	198.95
565.39	170.86
565.56	203.63
565.72	222.35
565.88	255.12
566.05	224.69
566.21	241.08
566.38	154.48
566.54	170.86
566.70	184.90
566.87	217.67
567.03	180.22
567.19	238.73
567.36	248.10
567.52	198.95
567.68	170.86
567.85	215.33
568.01	182.56
568.17	196.60
568.34	231.71
568.50	201.29
568.66	187.24
568.83	205.97
568.99	250.44
569.15	210.65
569.32	140.43
569.48	175.54
569.64	170.86
569.81	170.86
569.97	191.92
570.13	238.73
570.30	147.45
570.46	262.14
570.62	177.88
570.78	255.12
570.95	210.65
571.11	189.58
571.27	220.01
571.43	126.39
571.60	217.67
571.76	114.69
571.92	161.50
572.09	189.58
572.25	234.05
572.41	191.92
572.57	147.45
572.74	238.73
572.90	149.79
573.06	196.60
573.22	184.90
573.38	224.69
573.55	236.39
573.71	217.67
573.87	266.82
574.03	248.10
574.20	187.24
574.36	173.20
574.52	236.39
574.68	156.82
574.84	203.63
575.01	187.24
575.17	189.58
575.33	220.01
575.49	217.67
575.65	187.24
575.82	220.01
575.98	311.29
576.14	166.18
576.30	110.01
576.46	194.26
576.62	229.37
576.79	245.76
576.95	257.46
577.11	241.08
577.27	210.65
577.43	243.42
577.59	255.12
577.75	220.01
577.92	208.31
578.08	208.31
578.24	215.33
578.40	163.84
578.56	205.97
578.72	133.41
578.88	276.18
579.04	201.29
579.21	149.79
579.37	215.33
579.53	212.99
579.69	264.48
579.85	128.73
580.01	196.60
580.17	175.54
580.33	163.84
580.49	170.86
580.65	198.95
580.82	175.54
580.98	173.20
581.14	168.52
581.30	215.33
581.46	259.80
581.62	184.90
581.78	168.52
581.94	105.32
582.10	119.37
582.26	128.73
582.42	133.41
582.58	205.97
582.74	177.88
582.90	201.29
583.06	184.90
583.22	234.05
583.38	180.22
583.54	198.95
583.70	245.76
583.86	149.79
584.02	119.37
584.18	259.80
584.34	198.95
584.50	224.69
584.66	212.99
584.82	145.11
584.98	196.60
585.14	161.50
585.30	159.16
585.46	175.54
585.62	184.90
585.78	208.31
585.94	170.86
586.10	133.41
586.26	194.26
586.42	252.78
586.58	189.58
586.74	166.18
586.90	182.56
587.06	252.78
587.22	222.35
587.38	100.64
587.54	191.92
587.70	222.35
587.86	205.97
588.02	138.09
588.18	166.18
588.34	205.97
588.49	159.16
588.65	135.75
588.81	168.52
588.97	205.97
589.13	119.37
589.29	154.48
589.45	266.82
589.61	198.95
589.77	229.37
589.93	191.92
590.08	177.88
590.24	212.99
590.40	168.52
590.56	198.95
590.72	201.29
590.88	126.39
591.04	194.26
591.20	156.82
591.35	248.10
591.51	236.39
591.67	166.18
591.83	191.92
591.99	147.45
592.15	184.90
592.31	212.99
592.46	177.88
592.62	194.26
592.78	145.11
592.94	187.24
593.10	170.86
593.26	149.79
593.41	210.65
593.57	173.20
593.73	112.35
593.89	262.14
594.05	198.95
594.20	131.07
594.36	175.54
594.52	154.48
594.68	149.79
594.84	229.37
594.99	205.97
595.15	191.92
595.31	88.94
595.47	180.22
595.62	205.97
595.78	145.11
595.94	201.29
596.10	177.88
596.25	182.56
596.41	243.42
596.57	198.95
596.73	187.24
596.88	147.45
597.04	156.82
597.20	234.05
597.36	203.63
597.51	147.45
597.67	184.90
597.83	187.24
597.99	248.10
598.14	234.05
598.30	189.58
598.46	105.32
598.61	231.71
598.77	184.90
598.93	161.50
599.09	119.37
599.24	152.13
599.40	191.92
599.56	196.60
599.71	184.90
599.87	245.76
600.03	170.86
600.18	168.52
600.34	208.31
600.50	220.01
600.65	131.07
600.81	168.52
600.97	217.67
601.12	140.43
601.28	238.73
601.44	175.54
601.59	124.05
601.75	163.84
601.91	201.29
602.06	180.22
602.22	196.60
602.37	180.22
602.53	140.43
602.69	236.39
602.84	161.50
603.00	203.63
603.16	292.57
603.31	231.71
603.47	208.31
603.62	180.22
603.78	231.71
603.94	208.31
604.09	133.41
604.25	173.20
604.40	243.42
604.56	180.22
604.71	184.90
604.87	154.48
605.03	133.41
605.18	163.84
605.34	166.18
605.49	159.16
605.65	175.54
605.80	175.54
605.96	135.75
606.12	198.95
606.27	248.10
606.43	175.54
606.58	210.65
606.74	187.24
606.89	201.29
607.05	170.86
607.20	154.48
607.36	198.95
607.51	236.39
607.67	149.79
607.82	194.26
607.98	173.20
608.13	255.12
608.29	189.58
608.44	217.67
608.60	180.22
608.75	205.97
608.91	189.58
609.06	154.48
609.22	191.92
609.37	161.50
609.53	231.71
609.68	180.22
609.84	205.97
609.99	161.50
610.15	196.60
610.30	126.39
610.46	227.03
610.61	140.43
610.76	159.16
610.92	231.71
611.07	203.63
611.23	222.35
611.38	189.58
611.54	133.41
611.69	147.45
611.84	241.08
612.00	131.07
612.15	107.66
612.31	140.43
612.46	198.95
612.62	133.41
612.77	243.42
612.92	177.88
613.08	135.75
613.23	173.20
613.39	173.20
613.54	156.82
613.69	119.37
613.85	142.77
614.00	177.88
614.15	154.48
614.31	140.43
614.46	238.73
614.62	149.79
614.77	173.20
614.92	175.54
615.08	184.90
615.23	152.13
615.38	149.79
615.54	152.13
615.69	170.86
615.84	229.37
616.00	170.86
616.15	215.33
616.30	95.96
616.46	208.31
616.61	210.65
616.76	147.45
616.92	131.07
617.07	184.90
617.22	212.99
617.37	168.52
617.53	182.56
617.68	119.37
617.83	121.71
617.99	128.73
618.14	194.26
618.29	208.31
618.45	215.33
618.60	170.86
618.75	140.43
618.90	217.67
619.06	191.92
619.21	210.65
619.36	180.22
619.51	133.41
619.67	189.58
619.82	161.50
619.97	138.09
620.12	152.13
620.28	191.92
620.43	201.29
620.58	168.52
620.73	131.07
620.89	173.20
621.04	117.03
621.19	168.52
621.34	166.18
621.49	191.92
621.65	93.62
621.80	102.98
621.95	224.69
622.10	149.79
622.25	175.54
622.41	180.22
622.56	145.11
622.71	105.32
622.86	191.92
623.01	170.86
623.16	217.67
623.32	140.43
623.47	201.29
623.62	161.50
623.77	149.79
623.92	222.35
624.07	93.62
624.23	217.67
624.38	117.03
624.53	163.84
624.68	198.95
624.83	124.05
624.98	173.20
625.13	142.77
625.29	105.32
625.44	91.28
625.59	198.95
625.74	245.76
625.89	227.03
626.04	102.98
626.19	147.45
626.34	201.29
626.49	222.35
626.65	166.18
626.80	166.18
626.95	212.99
627.10	194.26
627.25	182.56
627.40	191.92
627.55	159.16
627.70	154.48
627.85	182.56
628.00	133.41
628.15	145.11
628.30	79.58
628.45	215.33
628.60	194.26
628.76	177.88
628.91	154.48
629.06	180.22
629.21	161.50
629.36	168.52
629.51	191.92
629.66	224.69
629.81	135.75
629.96	182.56
630.11	168.52
630.26	159.16
630.41	145.11
630.56	88.94
630.71	163.84
630.86	135.75
631.01	238.73
631.16	180.22
631.31	187.24
631.46	152.13
631.61	98.30
631.76	170.86
631.91	161.50
632.06	163.84
632.21	154.48
632.36	222.35
632.51	170.86
632.66	121.71
632.81	95.96
632.96	187.24
633.10	163.84
633.25	212.99
633.40	159.16
633.55	149.79
633.70	119.37
633.85	166.18
634.00	187.24
634.15	140.43
634.30	147.45
634.45	194.26
634.60	128.73
634.75	205.97
634.90	163.84
635.05	187.24
635.19	100.64
635.34	117.03
635.49	140.43
635.64	77.24
635.79	168.52
635.94	217.67
636.09	201.29
636.24	229.37
636.39	128.73
636.53	205.97
636.68	131.07
636.83	182.56
636.98	149.79
637.13	175.54
637.28	119.37
637.43	194.26
637.57	208.31
637.72	95.96
637.87	201.29
638.02	117.03
638.17	142.77
638.32	161.50
638.46	145.11
638.61	140.43
638.76	152.13
638.91	163.84
639.06	140.43
639.20	145.11
639.35	124.05
639.50	119.37
639.65	191.92
639.80	110.01
639.94	152.13
640.09	177.88
640.24	215.33
640.39	114.69
640.54	112.35
640.68	163.84
640.83	170.86
640.98	138.09
641.13	147.45
641.27	35.11
641.42	93.62
641.57	208.31
641.72	121.71
641.86	184.90
642.01	142.77
642.16	196.60
642.31	114.69
642.45	245.76
642.60	201.29
642.75	110.01
642.90	196.60
643.04	203.63
643.19	231.71
643.34	156.82
643.48	98.30
643.63	112.35
643.78	210.65
643.93	215.33
644.07	124.05
644.22	184.90
644.37	182.56
644.51	126.39
644.66	191.92
644.81	112.35
644.95	194.26
645.10	60.85
645.25	102.98
645.39	255.12
645.54	133.41
645.69	184.90
645.83	205.97
645.98	161.50
646.13	149.79
646.27	208.31
646.42	110.01
646.57	147.45
646.71	189.58
646.86	124.05
647.00	191.92
647.15	194.26
647.30	131.07
647.44	25.75
647.59	131.07
647.74	81.92
647.88	98.30
648.03	112.35
648.17	163.84
648.32	77.24
648.47	119.37
648.61	117.03
648.76	145.11
648.90	114.69
649.05	147.45
649.20	124.05
649.34	77.24
649.49	163.84
649.63	182.56
649.78	217.67
649.92	159.16
650.07	138.09
650.21	126.39
650.36	170.86
650.51	145.11
650.65	88.94
650.80	105.32
650.94	121.71
651.09	81.92
651.23	180.22
651.38	117.03
651.52	161.50
651.67	187.24
651.81	72.56
651.96	121.71
652.10	194.26
652.25	152.13
652.39	189.58
652.54	142.77
652.68	159.16
652.83	173.20
652.97	105.32
653.12	222.35
653.26	163.84
653.41	156.82
653.55	163.84
653.70	70.22
653.84	81.92
653.99	81.92
654.13	79.58
654.27	91.28
654.42	173.20
654.56	154.48
654.71	177.88
654.85	110.01
655.00	215.33
655.14	198.95
655.29	149.79
655.43	60.85
655.57	145.11
655.72	159.16
655.86	222.35
656.01	187.24
656.15	170.86
656.30	166.18
656.44	86.60
656.58	110.01
656.73	133.41
656.87	110.01
657.01	152.13
657.16	175.54
657.30	168.52
657.45	149.79
657.59	138.09
657.73	168.52
657.88	135.75
658.02	180.22
658.16	154.48
658.31	133.41
658.45	177.88
658.60	81.92
658.74	117.03
658.88	191.92
659.03	126.39
659.17	133.41
659.31	156.82
659.46	152.13
659.60	112.35
659.74	210.65
659.89	145.11
660.03	84.26
660.17	180.22
660.32	121.71
660.46	105.32
660.60	163.84
660.74	88.94
660.89	152.13
661.03	175.54
661.17	135.75
661.32	227.03
661.46	140.43
661.60	93.62
661.74	79.58
661.89	145.11
662.03	88.94
662.17	126.39
662.31	170.86
662.46	147.45
662.60	194.26
662.74	105.32
662.88	95.96
663.03	121.71
663.17	180.22
663.31	159.16
663.45	133.41
663.60	140.43
663.74	86.60
663.88	35.11
664.02	100.64
664.17	128.73
664.31	105.32
664.45	138.09
664.59	161.50
664.73	147.45
664.88	177.88
665.02	189.58
665.16	133.41
665.30	138.09
665.44	58.51
665.59	205.97
665.73	189.58
665.87	84.26
666.01	72.56
666.15	145.11
666.29	86.60
666.44	243.42
666.58	147.45
666.72	173.20
666.86	161.50
667.00	156.82
667.14	149.79
667.28	159.16
667.43	121.71
667.57	114.69
667.71	154.48
667.85	187.24
667.99	133.41
668.13	152.13
668.27	100.64
668.41	198.95
668.56	93.62
668.70	177.88
668.84	175.54
668.98	93.62
669.12	149.79
669.26	121.71
669.40	107.66
669.54	215.33
669.68	91.28
669.82	100.64
669.96	74.90
670.10	114.69
670.25	128.73
670.39	135.75
670.53	154.48
670.67	180.22
670.81	91.28
670.95	126.39
671.09	168.52
671.23	184.90
671.37	152.13
671.51	191.92
671.65	191.92
671.79	95.96
671.93	152.13
672.07	205.97
672.21	163.84
672.35	72.56
672.49	124.05
672.63	149.79
672.77	138.09
672.91	173.20
673.05	135.75
673.19	126.39
673.33	102.98
673.47	135.75
673.61	110.01
673.75	166.18
673.89	95.96
674.03	163.84
674.17	154.48
674.31	126.39
674.45	140.43
674.59	194.26
674.73	145.11
674.87	81.92
675.01	184.90
675.15	110.01
675.29	156.82
675.43	93.62
675.56	255.12
675.70	175.54
675.84	110.01
675.98	208.31
676.12	152.13
676.26	60.85
676.40	138.09
676.54	98.30
676.68	198.95
676.82	128.73
676.96	93.62
677.10	152.13
677.23	44.47
677.37	81.92
677.51	65.54
677.65	220.01
677.79	156.82
677.93	145.11
678.07	168.52
678.21	117.03
678.34	159.16
678.48	102.98
678.62	156.82
678.76	65.54
678.90	128.73
679.04	222.35
679.18	67.88
679.31	210.65
679.45	79.58
679.59	147.45
679.73	154.48
679.87	100.64
680.00	128.73
680.14	142.77
680.28	161.50
680.42	114.69
680.56	149.79
680.70	131.07
680.83	135.75
680.97	149.79
681.11	121.71
681.25	152.13
681.39	117.03
681.52	138.09
681.66	140.43
681.80	189.58
681.94	201.29
682.07	131.07
682.21	117.03
682.35	81.92
682.49	145.11
682.62	124.05
682.76	161.50
682.90	98.30
683.04	180.22
683.17	100.64
683.31	124.05
683.45	107.66
683.59	133.41
683.72	72.56
683.86	163.84
684.00	119.37
684.13	110.01
684.27	81.92
684.41	93.62
684.55	72.56
684.68	124.05
684.82	81.92
684.96	74.90
685.09	126.39
685.23	60.85
685.37	133.41
685.50	140.43
685.64	201.29
685.78	152.13
685.91	231.71
686.05	145.11
686.19	205.97
686.32	187.24
686.46	98.30
686.60	102.98
686.73	138.09
686.87	180.22
687.01	112.35
687.14	131.07
687.28	74.90
687.42	53.83
687.55	77.24
687.69	142.77
687.82	110.01
687.96	117.03
688.10	105.32
688.23	187.24
688.37	79.58
688.50	135.75
688.64	203.63
688.78	56.17
688.91	133.41
689.05	56.17
689.18	67.88
689.32	128.73
689.46	30.43
689.59	175.54
689.73	161.50
689.86	63.19
690.00	63.19
690.13	112.35
690.27	72.56
690.41	114.69
690.54	161.50
690.68	156.82
690.81	124.05
690.95	53.83
691.08	128.73
691.22	140.43
691.35	81.92
691.49	142.77
691.62	81.92
691.76	107.66
691.89	72.56
692.03	110.01
692.16	156.82
692.30	65.54
692.43	70.22
692.57	105.32
692.70	84.26
692.84	98.30
692.97	98.30
693.11	18.72
693.24	4.68
693.38	86.60
693.51	37.45
693.65	110.01
693.78	138.09
693.92	119.37
694.05	42.13
694.19	126.39
694.32	131.07
694.45	138.09
694.59	117.03
694.72	81.92
694.86	91.28
694.99	77.24
695.13	110.01
695.26	102.98
695.39	93.62
695.53	142.77
695.66	72.56
695.80	135.75
695.93	58.51
696.07	159.16
696.20	93.62
696.33	114.69
696.47	81.92
696.60	98.30
696.73	170.86
696.87	126.39
697.00	180.22
697.14	135.75
697.27	154.48
697.40	170.86
697.54	149.79
697.67	70.22
697.80	93.62
697.94	74.90
698.07	119.37
698.21	37.45
698.34	191.92
698.47	44.47
698.61	0.00
698.74	65.54
698.87	114.69
699.01	65.54
699.14	93.62
699.27	110.01
699.40	222.35
699.54	98.30
699.67	63.19
699.80	35.11
699.94	95.96
700.07	44.47
700.20	93.62
700.34	131.07
700.47	21.06
700.60	81.92
700.73	42.13
700.87	30.43
701.00	95.96
701.13	77.24
701.26	91.28
701.40	86.60
701.53	112.35
701.66	91.28
701.79	93.62
701.93	105.32
702.06	114.69
702.19	56.17
702.32	91.28
702.46	79.58
702.59	51.49
702.72	79.58
702.85	65.54
702.99	53.83
703.12	95.96
703.25	77.24
703.38	105.32
703.51	140.43
703.65	44.47
703.78	72.56
703.91	102.98
704.04	95.96
704.17	95.96
704.31	67.88
704.44	53.83
704.57	112.35
704.70	117.03
704.83	121.71
704.96	102.98
705.10	67.88
705.23	105.32
>>>>>End Processed Spectral Data<<<<<
