SpectraSuite Data File
++++++++++++++++++++++++++++++++++++
Date: Fri Oct 04 11:51:09 GMT-05:00 2013
User: price-jones
Dark Spectrum Present: No
Reference Spectrum Present: No
Number of Sampled Component Spectra: 1
Spectrometers: USB2+H05261
Integration Time (usec): 100000 (USB2+H05261)
Spectra Averaged: 1 (USB2+H05261)
Boxcar Smoothing: 0 (USB2+H05261)
Correct for Electrical Dark: No (USB2+H05261)
Strobe/Lamp Enabled: No (USB2+H05261)
Correct for Detector Non-linearity: No (USB2+H05261)
Correct for Stray Light: No (USB2+H05261)
Number of Pixels in Processed Spectrum: 2048
>>>>>Begin Processed Spectral Data<<<<<
365.73	37.45
365.92	37.45
366.12	37.45
366.32	0.00
366.52	0.00
366.72	0.00
366.91	0.00
367.11	0.00
367.31	0.00
367.51	0.00
367.70	0.00
367.90	0.00
368.10	0.00
368.30	0.00
368.49	0.00
368.69	0.00
368.89	0.00
369.09	0.00
369.28	0.00
369.48	0.00
369.68	0.00
369.87	0.00
370.07	0.00
370.27	0.00
370.47	25.75
370.66	16.38
370.86	2.34
371.06	110.01
371.25	98.30
371.45	0.00
371.65	18.72
371.84	18.72
372.04	53.83
372.24	14.04
372.44	23.41
372.63	37.45
372.83	42.13
373.03	84.26
373.22	58.51
373.42	30.43
373.62	46.81
373.81	119.37
374.01	105.32
374.21	81.92
374.40	63.19
374.60	105.32
374.79	98.30
374.99	102.98
375.19	110.01
375.38	53.83
375.58	67.88
375.78	128.73
375.97	65.54
376.17	177.88
376.37	91.28
376.56	77.24
376.76	112.35
376.95	86.60
377.15	131.07
377.35	95.96
377.54	42.13
377.74	46.81
377.93	28.09
378.13	121.71
378.33	46.81
378.52	70.22
378.72	107.66
378.91	65.54
379.11	65.54
379.31	21.06
379.50	84.26
379.70	72.56
379.89	128.73
380.09	9.36
380.28	18.72
380.48	46.81
380.68	77.24
380.87	0.00
381.07	107.66
381.26	79.58
381.46	32.77
381.65	65.54
381.85	56.17
382.04	51.49
382.24	65.54
382.43	23.41
382.63	4.68
382.83	7.02
383.02	124.05
383.22	88.94
383.41	60.85
383.61	53.83
383.80	74.90
384.00	49.15
384.19	60.85
384.39	102.98
384.58	154.48
384.78	117.03
384.97	30.43
385.17	72.56
385.36	42.13
385.56	28.09
385.75	117.03
385.95	39.79
386.14	145.11
386.34	147.45
386.53	102.98
386.72	147.45
386.92	81.92
387.11	114.69
387.31	128.73
387.50	121.71
387.70	56.17
387.89	105.32
388.09	102.98
388.28	100.64
388.48	39.79
388.67	0.00
388.86	107.66
389.06	98.30
389.25	93.62
389.45	182.56
389.64	117.03
389.84	117.03
390.03	128.73
390.22	51.49
390.42	152.13
390.61	77.24
390.81	32.77
391.00	44.47
391.19	173.20
391.39	30.43
391.58	21.06
391.78	56.17
391.97	131.07
392.16	53.83
392.36	124.05
392.55	149.79
392.75	84.26
392.94	65.54
393.13	105.32
393.33	91.28
393.52	74.90
393.71	142.77
393.91	49.15
394.10	84.26
394.29	65.54
394.49	79.58
394.68	131.07
394.88	124.05
395.07	67.88
395.26	49.15
395.46	25.75
395.65	135.75
395.84	79.58
396.04	128.73
396.23	124.05
396.42	107.66
396.62	65.54
396.81	117.03
397.00	56.17
397.19	84.26
397.39	56.17
397.58	124.05
397.77	117.03
397.97	100.64
398.16	81.92
398.35	53.83
398.55	0.00
398.74	37.45
398.93	121.71
399.12	86.60
399.32	100.64
399.51	84.26
399.70	131.07
399.90	105.32
400.09	124.05
400.28	117.03
400.47	131.07
400.67	177.88
400.86	161.50
401.05	124.05
401.24	112.35
401.44	149.79
401.63	93.62
401.82	147.45
402.01	30.43
402.21	131.07
402.40	124.05
402.59	42.13
402.78	140.43
402.97	49.15
403.17	65.54
403.36	131.07
403.55	93.62
403.74	35.11
403.93	107.66
404.13	117.03
404.32	145.11
404.51	98.30
404.70	65.54
404.89	77.24
405.09	131.07
405.28	131.07
405.47	100.64
405.66	112.35
405.85	121.71
406.05	133.41
406.24	65.54
406.43	124.05
406.62	86.60
406.81	154.48
407.00	95.96
407.20	88.94
407.39	107.66
407.58	107.66
407.77	117.03
407.96	102.98
408.15	173.20
408.34	58.51
408.54	88.94
408.73	74.90
408.92	100.64
409.11	91.28
409.30	198.95
409.49	84.26
409.68	65.54
409.87	107.66
410.07	79.58
410.26	100.64
410.45	110.01
410.64	65.54
410.83	138.09
411.02	51.49
411.21	67.88
411.40	142.77
411.59	112.35
411.78	119.37
411.98	121.71
412.17	74.90
412.36	128.73
412.55	79.58
412.74	121.71
412.93	173.20
413.12	79.58
413.31	152.13
413.50	77.24
413.69	107.66
413.88	147.45
414.07	95.96
414.26	117.03
414.45	65.54
414.64	117.03
414.83	163.84
415.02	77.24
415.22	191.92
415.41	93.62
415.60	102.98
415.79	100.64
415.98	149.79
416.17	198.95
416.36	194.26
416.55	56.17
416.74	98.30
416.93	154.48
417.12	117.03
417.31	102.98
417.50	56.17
417.69	107.66
417.88	74.90
418.07	114.69
418.26	88.94
418.45	138.09
418.64	187.24
418.83	105.32
419.02	91.28
419.21	91.28
419.39	98.30
419.58	56.17
419.77	86.60
419.96	187.24
420.15	170.86
420.34	149.79
420.53	170.86
420.72	114.69
420.91	65.54
421.10	100.64
421.29	138.09
421.48	126.39
421.67	147.45
421.86	93.62
422.05	91.28
422.24	149.79
422.43	140.43
422.61	163.84
422.80	154.48
422.99	98.30
423.18	100.64
423.37	159.16
423.56	217.67
423.75	63.19
423.94	84.26
424.13	112.35
424.32	51.49
424.50	110.01
424.69	124.05
424.88	180.22
425.07	63.19
425.26	112.35
425.45	114.69
425.64	51.49
425.83	95.96
426.01	145.11
426.20	79.58
426.39	56.17
426.58	126.39
426.77	58.51
426.96	147.45
427.15	121.71
427.33	161.50
427.52	124.05
427.71	77.24
427.90	128.73
428.09	121.71
428.28	93.62
428.46	135.75
428.65	135.75
428.84	124.05
429.03	119.37
429.22	102.98
429.40	154.48
429.59	25.75
429.78	177.88
429.97	135.75
430.16	81.92
430.34	84.26
430.53	84.26
430.72	79.58
430.91	60.85
431.10	117.03
431.28	119.37
431.47	86.60
431.66	56.17
431.85	95.96
432.03	88.94
432.22	182.56
432.41	81.92
432.60	210.65
432.79	135.75
432.97	152.13
433.16	95.96
433.35	140.43
433.54	102.98
433.72	128.73
433.91	81.92
434.10	112.35
434.28	86.60
434.47	166.18
434.66	163.84
434.85	131.07
435.03	119.37
435.22	196.60
435.41	110.01
435.59	156.82
435.78	53.83
435.97	67.88
436.16	65.54
436.34	72.56
436.53	154.48
436.72	131.07
436.90	110.01
437.09	145.11
437.28	100.64
437.46	140.43
437.65	105.32
437.84	135.75
438.02	224.69
438.21	105.32
438.40	30.43
438.58	135.75
438.77	91.28
438.96	63.19
439.14	100.64
439.33	81.92
439.52	86.60
439.70	173.20
439.89	117.03
440.08	128.73
440.26	107.66
440.45	91.28
440.63	70.22
440.82	39.79
441.01	74.90
441.19	91.28
441.38	175.54
441.57	140.43
441.75	135.75
441.94	140.43
442.12	154.48
442.31	147.45
442.50	182.56
442.68	121.71
442.87	140.43
443.05	98.30
443.24	149.79
443.43	191.92
443.61	201.29
443.80	107.66
443.98	100.64
444.17	180.22
444.35	203.63
444.54	131.07
444.73	175.54
444.91	182.56
445.10	177.88
445.28	152.13
445.47	135.75
445.65	112.35
445.84	135.75
446.02	142.77
446.21	152.13
446.39	152.13
446.58	117.03
446.77	117.03
446.95	98.30
447.14	156.82
447.32	163.84
447.51	126.39
447.69	140.43
447.88	117.03
448.06	135.75
448.25	110.01
448.43	124.05
448.62	128.73
448.80	110.01
448.99	163.84
449.17	79.58
449.36	133.41
449.54	128.73
449.73	145.11
449.91	168.52
450.10	95.96
450.28	147.45
450.46	154.48
450.65	154.48
450.83	147.45
451.02	74.90
451.20	110.01
451.39	198.95
451.57	107.66
451.76	65.54
451.94	53.83
452.13	63.19
452.31	159.16
452.49	100.64
452.68	154.48
452.86	65.54
453.05	168.52
453.23	84.26
453.42	133.41
453.60	119.37
453.78	117.03
453.97	93.62
454.15	30.43
454.34	159.16
454.52	121.71
454.70	205.97
454.89	105.32
455.07	98.30
455.26	159.16
455.44	159.16
455.62	121.71
455.81	166.18
455.99	191.92
456.17	119.37
456.36	140.43
456.54	135.75
456.73	187.24
456.91	117.03
457.09	100.64
457.28	149.79
457.46	163.84
457.64	166.18
457.83	161.50
458.01	161.50
458.19	140.43
458.38	114.69
458.56	70.22
458.74	117.03
458.93	79.58
459.11	135.75
459.29	98.30
459.48	140.43
459.66	205.97
459.84	114.69
460.03	201.29
460.21	156.82
460.39	60.85
460.57	184.90
460.76	126.39
460.94	91.28
461.12	224.69
461.31	191.92
461.49	117.03
461.67	182.56
461.85	112.35
462.04	93.62
462.22	573.43
462.40	88.94
462.59	147.45
462.77	149.79
462.95	180.22
463.13	121.71
463.32	152.13
463.50	135.75
463.68	170.86
463.86	84.26
464.05	159.16
464.23	135.75
464.41	105.32
464.59	149.79
464.78	168.52
464.96	166.18
465.14	65.54
465.32	147.45
465.50	112.35
465.69	173.20
465.87	102.98
466.05	112.35
466.23	112.35
466.41	205.97
466.60	98.30
466.78	121.71
466.96	133.41
467.14	152.13
467.32	95.96
467.51	117.03
467.69	147.45
467.87	220.01
468.05	147.45
468.23	177.88
468.41	142.77
468.60	112.35
468.78	110.01
468.96	161.50
469.14	222.35
469.32	131.07
469.50	102.98
469.69	117.03
469.87	63.19
470.05	138.09
470.23	131.07
470.41	128.73
470.59	37.45
470.77	145.11
470.95	107.66
471.14	170.86
471.32	142.77
471.50	191.92
471.68	65.54
471.86	161.50
472.04	121.71
472.22	166.18
472.40	112.35
472.58	133.41
472.77	91.28
472.95	154.48
473.13	163.84
473.31	180.22
473.49	133.41
473.67	79.58
473.85	135.75
474.03	175.54
474.21	133.41
474.39	156.82
474.57	175.54
474.75	102.98
474.93	159.16
475.12	126.39
475.30	173.20
475.48	224.69
475.66	156.82
475.84	112.35
476.02	119.37
476.20	74.90
476.38	138.09
476.56	187.24
476.74	105.32
476.92	81.92
477.10	208.31
477.28	215.33
477.46	168.52
477.64	170.86
477.82	110.01
478.00	170.86
478.18	140.43
478.36	168.52
478.54	203.63
478.72	133.41
478.90	145.11
479.08	32.77
479.26	126.39
479.44	128.73
479.62	170.86
479.80	105.32
479.98	67.88
480.16	184.90
480.34	140.43
480.52	124.05
480.70	168.52
480.88	114.69
481.06	126.39
481.24	189.58
481.41	142.77
481.59	180.22
481.77	147.45
481.95	196.60
482.13	159.16
482.31	147.45
482.49	119.37
482.67	198.95
482.85	166.18
483.03	194.26
483.21	65.54
483.39	121.71
483.57	133.41
483.74	182.56
483.92	117.03
484.10	180.22
484.28	191.92
484.46	140.43
484.64	161.50
484.82	217.67
485.00	119.37
485.18	189.58
485.35	215.33
485.53	121.71
485.71	133.41
485.89	95.96
486.07	154.48
486.25	189.58
486.43	236.39
486.61	166.18
486.78	236.39
486.96	163.84
487.14	77.24
487.32	133.41
487.50	168.52
487.68	227.03
487.85	133.41
488.03	100.64
488.21	152.13
488.39	131.07
488.57	140.43
488.75	147.45
488.92	404.91
489.10	149.79
489.28	227.03
489.46	147.45
489.64	175.54
489.81	194.26
489.99	175.54
490.17	107.66
490.35	271.50
490.53	105.32
490.70	114.69
490.88	189.58
491.06	128.73
491.24	161.50
491.41	229.37
491.59	236.39
491.77	154.48
491.95	156.82
492.13	131.07
492.30	124.05
492.48	145.11
492.66	175.54
492.84	196.60
493.01	180.22
493.19	194.26
493.37	196.60
493.54	187.24
493.72	177.88
493.90	152.13
494.08	173.20
494.25	177.88
494.43	135.75
494.61	212.99
494.79	114.69
494.96	145.11
495.14	187.24
495.32	194.26
495.49	175.54
495.67	124.05
495.85	231.71
496.02	100.64
496.20	159.16
496.38	224.69
496.55	163.84
496.73	222.35
496.91	126.39
497.09	149.79
497.26	203.63
497.44	149.79
497.62	222.35
497.79	180.22
497.97	166.18
498.14	131.07
498.32	217.67
498.50	201.29
498.67	241.08
498.85	187.24
499.03	156.82
499.20	252.78
499.38	198.95
499.56	203.63
499.73	203.63
499.91	135.75
500.08	154.48
500.26	194.26
500.44	175.54
500.61	234.05
500.79	152.13
500.97	196.60
501.14	208.31
501.32	135.75
501.49	196.60
501.67	159.16
501.84	212.99
502.02	196.60
502.20	234.05
502.37	166.18
502.55	168.52
502.72	196.60
502.90	212.99
503.07	145.11
503.25	208.31
503.43	154.48
503.60	131.07
503.78	126.39
503.95	210.65
504.13	124.05
504.30	210.65
504.48	159.16
504.65	187.24
504.83	238.73
505.01	184.90
505.18	182.56
505.36	194.26
505.53	201.29
505.71	152.13
505.88	212.99
506.06	196.60
506.23	105.32
506.41	107.66
506.58	224.69
506.76	173.20
506.93	205.97
507.11	152.13
507.28	112.35
507.46	180.22
507.63	241.08
507.81	161.50
507.98	142.77
508.16	257.46
508.33	170.86
508.50	198.95
508.68	191.92
508.85	238.73
509.03	163.84
509.20	208.31
509.38	163.84
509.55	241.08
509.73	245.76
509.90	112.35
510.08	140.43
510.25	177.88
510.42	222.35
510.60	203.63
510.77	175.54
510.95	208.31
511.12	208.31
511.30	259.80
511.47	229.37
511.64	243.42
511.82	191.92
511.99	147.45
512.17	173.20
512.34	212.99
512.51	175.54
512.69	131.07
512.86	231.71
513.04	201.29
513.21	163.84
513.38	133.41
513.56	308.95
513.73	231.71
513.90	184.90
514.08	243.42
514.25	147.45
514.43	273.84
514.60	142.77
514.77	198.95
514.95	177.88
515.12	140.43
515.29	198.95
515.47	222.35
515.64	259.80
515.81	191.92
515.99	191.92
516.16	191.92
516.33	205.97
516.51	187.24
516.68	175.54
516.85	147.45
517.03	266.82
517.20	135.75
517.37	243.42
517.54	196.60
517.72	156.82
517.89	168.52
518.06	177.88
518.24	243.42
518.41	191.92
518.58	266.82
518.75	182.56
518.93	205.97
519.10	152.13
519.27	149.79
519.45	266.82
519.62	194.26
519.79	203.63
519.96	208.31
520.14	166.18
520.31	133.41
520.48	189.58
520.65	245.76
520.83	198.95
521.00	220.01
521.17	191.92
521.34	224.69
521.52	175.54
521.69	238.73
521.86	224.69
522.03	217.67
522.20	243.42
522.38	208.31
522.55	201.29
522.72	224.69
522.89	203.63
523.07	241.08
523.24	222.35
523.41	187.24
523.58	245.76
523.75	212.99
523.92	287.89
524.10	189.58
524.27	205.97
524.44	241.08
524.61	163.84
524.78	220.01
524.96	229.37
525.13	215.33
525.30	217.67
525.47	315.97
525.64	229.37
525.81	241.08
525.98	177.88
526.16	196.60
526.33	243.42
526.50	196.60
526.67	117.03
526.84	180.22
527.01	166.18
527.18	159.16
527.36	231.71
527.53	191.92
527.70	238.73
527.87	264.48
528.04	257.46
528.21	250.44
528.38	173.20
528.55	299.59
528.72	250.44
528.89	259.80
529.07	241.08
529.24	149.79
529.41	255.12
529.58	220.01
529.75	229.37
529.92	189.58
530.09	159.16
530.26	294.91
530.43	215.33
530.60	245.76
530.77	191.92
530.94	205.97
531.11	222.35
531.28	124.05
531.46	191.92
531.63	191.92
531.80	208.31
531.97	217.67
532.14	280.86
532.31	152.13
532.48	280.86
532.65	187.24
532.82	147.45
532.99	238.73
533.16	248.10
533.33	201.29
533.50	131.07
533.67	194.26
533.84	210.65
534.01	205.97
534.18	203.63
534.35	194.26
534.52	184.90
534.69	301.93
534.86	215.33
535.03	191.92
535.20	163.84
535.37	308.95
535.54	241.08
535.71	168.52
535.88	280.86
536.05	245.76
536.22	220.01
536.38	210.65
536.55	252.78
536.72	220.01
536.89	191.92
537.06	170.86
537.23	203.63
537.40	196.60
537.57	177.88
537.74	245.76
537.91	224.69
538.08	175.54
538.25	217.67
538.42	173.20
538.59	306.61
538.75	212.99
538.92	264.48
539.09	198.95
539.26	215.33
539.43	308.95
539.60	257.46
539.77	222.35
539.94	198.95
540.11	264.48
540.28	262.14
540.44	248.10
540.61	212.99
540.78	184.90
540.95	210.65
541.12	280.86
541.29	156.82
541.46	198.95
541.62	201.29
541.79	198.95
541.96	245.76
542.13	180.22
542.30	133.41
542.47	222.35
542.63	269.16
542.80	161.50
542.97	205.97
543.14	220.01
543.31	198.95
543.48	198.95
543.64	208.31
543.81	255.12
543.98	217.67
544.15	142.77
544.32	220.01
544.48	142.77
544.65	212.99
544.82	241.08
544.99	184.90
545.16	334.70
545.32	191.92
545.49	154.48
545.66	191.92
545.83	154.48
546.00	173.20
546.16	131.07
546.33	196.60
546.50	201.29
546.67	262.14
546.83	255.12
547.00	203.63
547.17	203.63
547.34	124.05
547.50	198.95
547.67	248.10
547.84	163.84
548.00	236.39
548.17	224.69
548.34	161.50
548.51	222.35
548.67	201.29
548.84	187.24
549.01	311.29
549.18	252.78
549.34	205.97
549.51	133.41
549.68	257.46
549.84	227.03
550.01	159.16
550.18	292.57
550.34	311.29
550.51	234.05
550.68	330.02
550.84	299.59
551.01	222.35
551.18	245.76
551.34	198.95
551.51	138.09
551.68	220.01
551.84	168.52
552.01	198.95
552.18	252.78
552.34	184.90
552.51	128.73
552.68	184.90
552.84	194.26
553.01	161.50
553.18	201.29
553.34	166.18
553.51	187.24
553.67	201.29
553.84	280.86
554.01	255.12
554.17	196.60
554.34	241.08
554.51	196.60
554.67	234.05
554.84	252.78
555.00	131.07
555.17	264.48
555.33	285.55
555.50	266.82
555.67	220.01
555.83	173.20
556.00	182.56
556.16	372.15
556.33	337.04
556.50	112.35
556.66	236.39
556.83	117.03
556.99	128.73
557.16	248.10
557.32	175.54
557.49	135.75
557.65	224.69
557.82	220.01
557.98	215.33
558.15	170.86
558.32	135.75
558.48	159.16
558.65	149.79
558.81	222.35
558.98	245.76
559.14	220.01
559.31	245.76
559.47	236.39
559.64	182.56
559.80	236.39
559.97	208.31
560.13	142.77
560.30	210.65
560.46	276.18
560.63	227.03
560.79	191.92
560.96	250.44
561.12	208.31
561.29	259.80
561.45	257.46
561.61	180.22
561.78	259.80
561.94	217.67
562.11	163.84
562.27	175.54
562.44	147.45
562.60	257.46
562.77	224.69
562.93	299.59
563.10	128.73
563.26	231.71
563.42	224.69
563.59	220.01
563.75	196.60
563.92	229.37
564.08	84.26
564.24	217.67
564.41	227.03
564.57	175.54
564.74	198.95
564.90	224.69
565.07	149.79
565.23	243.42
565.39	201.29
565.56	231.71
565.72	201.29
565.88	110.01
566.05	259.80
566.21	250.44
566.38	234.05
566.54	231.71
566.70	196.60
566.87	248.10
567.03	124.05
567.19	180.22
567.36	170.86
567.52	248.10
567.68	236.39
567.85	203.63
568.01	217.67
568.17	203.63
568.34	124.05
568.50	227.03
568.66	266.82
568.83	311.29
568.99	196.60
569.15	182.56
569.32	180.22
569.48	152.13
569.64	112.35
569.81	243.42
569.97	119.37
570.13	243.42
570.30	161.50
570.46	208.31
570.62	194.26
570.78	170.86
570.95	177.88
571.11	339.38
571.27	306.61
571.43	135.75
571.60	283.20
571.76	255.12
571.92	152.13
572.09	117.03
572.25	215.33
572.41	194.26
572.57	194.26
572.74	234.05
572.90	306.61
573.06	280.86
573.22	140.43
573.38	212.99
573.55	184.90
573.71	229.37
573.87	280.86
574.03	234.05
574.20	182.56
574.36	166.18
574.52	149.79
574.68	147.45
574.84	161.50
575.01	131.07
575.17	220.01
575.33	189.58
575.49	187.24
575.65	229.37
575.82	259.80
575.98	194.26
576.14	182.56
576.30	182.56
576.46	133.41
576.62	180.22
576.79	227.03
576.95	175.54
577.11	119.37
577.27	236.39
577.43	252.78
577.59	189.58
577.75	287.89
577.92	212.99
578.08	152.13
578.24	154.48
578.40	170.86
578.56	252.78
578.72	262.14
578.88	191.92
579.04	154.48
579.21	224.69
579.37	245.76
579.53	220.01
579.69	238.73
579.85	177.88
580.01	203.63
580.17	70.22
580.33	131.07
580.49	168.52
580.65	294.91
580.82	201.29
580.98	173.20
581.14	220.01
581.30	283.20
581.46	191.92
581.62	234.05
581.78	154.48
581.94	187.24
582.10	212.99
582.26	168.52
582.42	161.50
582.58	180.22
582.74	234.05
582.90	145.11
583.06	217.67
583.22	210.65
583.38	201.29
583.54	231.71
583.70	175.54
583.86	187.24
584.02	156.82
584.18	248.10
584.34	205.97
584.50	187.24
584.66	191.92
584.82	266.82
584.98	170.86
585.14	220.01
585.30	220.01
585.46	173.20
585.62	154.48
585.78	224.69
585.94	252.78
586.10	184.90
586.26	128.73
586.42	215.33
586.58	231.71
586.74	187.24
586.90	231.71
587.06	110.01
587.22	168.52
587.38	175.54
587.54	191.92
587.70	285.55
587.86	189.58
588.02	238.73
588.18	210.65
588.34	201.29
588.49	138.09
588.65	182.56
588.81	124.05
588.97	154.48
589.13	201.29
589.29	180.22
589.45	189.58
589.61	177.88
589.77	191.92
589.93	154.48
590.08	180.22
590.24	142.77
590.40	149.79
590.56	212.99
590.72	159.16
590.88	131.07
591.04	93.62
591.20	53.83
591.35	238.73
591.51	159.16
591.67	117.03
591.83	124.05
591.99	180.22
592.15	245.76
592.31	112.35
592.46	194.26
592.62	194.26
592.78	201.29
592.94	234.05
593.10	184.90
593.26	159.16
593.41	140.43
593.57	222.35
593.73	189.58
593.89	236.39
594.05	110.01
594.20	180.22
594.36	255.12
594.52	161.50
594.68	196.60
594.84	133.41
594.99	276.18
595.15	149.79
595.31	215.33
595.47	205.97
595.62	191.92
595.78	198.95
595.94	100.64
596.10	182.56
596.25	166.18
596.41	217.67
596.57	156.82
596.73	140.43
596.88	191.92
597.04	184.90
597.20	205.97
597.36	98.30
597.51	175.54
597.67	121.71
597.83	194.26
597.99	173.20
598.14	135.75
598.30	156.82
598.46	156.82
598.61	175.54
598.77	161.50
598.93	198.95
599.09	191.92
599.24	229.37
599.40	273.84
599.56	175.54
599.71	198.95
599.87	140.43
600.03	102.98
600.18	182.56
600.34	110.01
600.50	191.92
600.65	105.32
600.81	177.88
600.97	182.56
601.12	121.71
601.28	166.18
601.44	262.14
601.59	147.45
601.75	147.45
601.91	236.39
602.06	201.29
602.22	201.29
602.37	210.65
602.53	229.37
602.69	224.69
602.84	152.13
603.00	180.22
603.16	208.31
603.31	220.01
603.47	205.97
603.62	105.32
603.78	170.86
603.94	184.90
604.09	126.39
604.25	252.78
604.40	203.63
604.56	212.99
604.71	234.05
604.87	166.18
605.03	152.13
605.18	227.03
605.34	238.73
605.49	201.29
605.65	205.97
605.80	81.92
605.96	135.75
606.12	177.88
606.27	175.54
606.43	131.07
606.58	196.60
606.74	126.39
606.89	180.22
607.05	205.97
607.20	191.92
607.36	234.05
607.51	145.11
607.67	180.22
607.82	170.86
607.98	269.16
608.13	163.84
608.29	259.80
608.44	156.82
608.60	180.22
608.75	166.18
608.91	191.92
609.06	205.97
609.22	234.05
609.37	182.56
609.53	170.86
609.68	184.90
609.84	98.30
609.99	126.39
610.15	175.54
610.30	245.76
610.46	180.22
610.61	159.16
610.76	105.32
610.92	184.90
611.07	126.39
611.23	194.26
611.38	227.03
611.54	170.86
611.69	227.03
611.84	175.54
612.00	156.82
612.15	177.88
612.31	114.69
612.46	140.43
612.62	210.65
612.77	149.79
612.92	220.01
613.08	222.35
613.23	154.48
613.39	131.07
613.54	175.54
613.69	149.79
613.85	168.52
614.00	182.56
614.15	156.82
614.31	194.26
614.46	245.76
614.62	205.97
614.77	145.11
614.92	238.73
615.08	184.90
615.23	231.71
615.38	212.99
615.54	201.29
615.69	114.69
615.84	215.33
616.00	203.63
616.15	145.11
616.30	138.09
616.46	182.56
616.61	191.92
616.76	152.13
616.92	121.71
617.07	194.26
617.22	107.66
617.37	135.75
617.53	177.88
617.68	126.39
617.83	133.41
617.99	231.71
618.14	187.24
618.29	156.82
618.45	173.20
618.60	222.35
618.75	191.92
618.90	100.64
619.06	95.96
619.21	194.26
619.36	189.58
619.51	170.86
619.67	170.86
619.82	215.33
619.97	166.18
620.12	121.71
620.28	220.01
620.43	166.18
620.58	156.82
620.73	154.48
620.89	121.71
621.04	175.54
621.19	285.55
621.34	180.22
621.49	194.26
621.65	126.39
621.80	149.79
621.95	138.09
622.10	173.20
622.25	177.88
622.41	205.97
622.56	170.86
622.71	210.65
622.86	133.41
623.01	238.73
623.16	205.97
623.32	189.58
623.47	135.75
623.62	88.94
623.77	182.56
623.92	184.90
624.07	149.79
624.23	86.60
624.38	163.84
624.53	170.86
624.68	210.65
624.83	224.69
624.98	175.54
625.13	121.71
625.29	170.86
625.44	133.41
625.59	208.31
625.74	224.69
625.89	189.58
626.04	168.52
626.19	147.45
626.34	124.05
626.49	100.64
626.65	156.82
626.80	152.13
626.95	133.41
627.10	161.50
627.25	140.43
627.40	212.99
627.55	147.45
627.70	58.51
627.85	217.67
628.00	114.69
628.15	175.54
628.30	166.18
628.45	173.20
628.60	124.05
628.76	156.82
628.91	145.11
629.06	156.82
629.21	194.26
629.36	166.18
629.51	100.64
629.66	229.37
629.81	196.60
629.96	241.08
630.11	128.73
630.26	177.88
630.41	255.12
630.56	175.54
630.71	121.71
630.86	149.79
631.01	152.13
631.16	126.39
631.31	177.88
631.46	149.79
631.61	105.32
631.76	154.48
631.91	175.54
632.06	163.84
632.21	133.41
632.36	138.09
632.51	196.60
632.66	147.45
632.81	149.79
632.96	128.73
633.10	110.01
633.25	198.95
633.40	163.84
633.55	175.54
633.70	138.09
633.85	140.43
634.00	161.50
634.15	135.75
634.30	255.12
634.45	166.18
634.60	81.92
634.75	128.73
634.90	159.16
635.05	128.73
635.19	168.52
635.34	112.35
635.49	161.50
635.64	121.71
635.79	159.16
635.94	187.24
636.09	128.73
636.24	140.43
636.39	140.43
636.53	173.20
636.68	170.86
636.83	142.77
636.98	177.88
637.13	88.94
637.28	107.66
637.43	217.67
637.57	238.73
637.72	255.12
637.87	201.29
638.02	110.01
638.17	145.11
638.32	154.48
638.46	156.82
638.61	191.92
638.76	131.07
638.91	156.82
639.06	159.16
639.20	191.92
639.35	201.29
639.50	98.30
639.65	126.39
639.80	107.66
639.94	126.39
640.09	128.73
640.24	100.64
640.39	140.43
640.54	187.24
640.68	112.35
640.83	248.10
640.98	161.50
641.13	198.95
641.27	65.54
641.42	100.64
641.57	208.31
641.72	145.11
641.86	149.79
642.01	170.86
642.16	154.48
642.31	117.03
642.45	196.60
642.60	217.67
642.75	131.07
642.90	189.58
643.04	119.37
643.19	154.48
643.34	126.39
643.48	203.63
643.63	149.79
643.78	191.92
643.93	142.77
644.07	149.79
644.22	131.07
644.37	74.90
644.51	121.71
644.66	182.56
644.81	88.94
644.95	217.67
645.10	107.66
645.25	72.56
645.39	168.52
645.54	98.30
645.69	168.52
645.83	74.90
645.98	229.37
646.13	105.32
646.27	191.92
646.42	147.45
646.57	168.52
646.71	177.88
646.86	133.41
647.00	159.16
647.15	166.18
647.30	105.32
647.44	168.52
647.59	128.73
647.74	133.41
647.88	135.75
648.03	121.71
648.17	175.54
648.32	100.64
648.47	145.11
648.61	135.75
648.76	170.86
648.90	173.20
649.05	180.22
649.20	110.01
649.34	70.22
649.49	70.22
649.63	159.16
649.78	107.66
649.92	168.52
650.07	128.73
650.21	152.13
650.36	147.45
650.51	180.22
650.65	173.20
650.80	161.50
650.94	131.07
651.09	156.82
651.23	86.60
651.38	95.96
651.52	154.48
651.67	163.84
651.81	138.09
651.96	191.92
652.10	198.95
652.25	114.69
652.39	133.41
652.54	212.99
652.68	191.92
652.83	189.58
652.97	117.03
653.12	184.90
653.26	131.07
653.41	161.50
653.55	149.79
653.70	175.54
653.84	49.15
653.99	124.05
654.13	133.41
654.27	152.13
654.42	191.92
654.56	189.58
654.71	93.62
654.85	72.56
655.00	112.35
655.14	163.84
655.29	86.60
655.43	166.18
655.57	159.16
655.72	128.73
655.86	163.84
656.01	77.24
656.15	121.71
656.30	142.77
656.44	145.11
656.58	140.43
656.73	93.62
656.87	110.01
657.01	152.13
657.16	203.63
657.30	112.35
657.45	166.18
657.59	180.22
657.73	149.79
657.88	119.37
658.02	234.05
658.16	147.45
658.31	142.77
658.45	102.98
658.60	107.66
658.74	175.54
658.88	117.03
659.03	168.52
659.17	177.88
659.31	166.18
659.46	124.05
659.60	110.01
659.74	145.11
659.89	72.56
660.03	70.22
660.17	152.13
660.32	180.22
660.46	173.20
660.60	156.82
660.74	142.77
660.89	58.51
661.03	46.81
661.17	168.52
661.32	156.82
661.46	147.45
661.60	161.50
661.74	222.35
661.89	187.24
662.03	114.69
662.17	140.43
662.31	177.88
662.46	131.07
662.60	182.56
662.74	140.43
662.88	133.41
663.03	161.50
663.17	98.30
663.31	124.05
663.45	124.05
663.60	142.77
663.74	145.11
663.88	154.48
664.02	191.92
664.17	114.69
664.31	107.66
664.45	44.47
664.59	212.99
664.73	156.82
664.88	145.11
665.02	145.11
665.16	105.32
665.30	177.88
665.44	175.54
665.59	177.88
665.73	147.45
665.87	138.09
666.01	175.54
666.15	208.31
666.29	91.28
666.44	138.09
666.58	196.60
666.72	126.39
666.86	140.43
667.00	147.45
667.14	46.81
667.28	77.24
667.43	107.66
667.57	110.01
667.71	182.56
667.85	124.05
667.99	126.39
668.13	128.73
668.27	196.60
668.41	175.54
668.56	121.71
668.70	156.82
668.84	131.07
668.98	149.79
669.12	156.82
669.26	189.58
669.40	196.60
669.54	184.90
669.68	91.28
669.82	107.66
669.96	163.84
670.10	53.83
670.25	203.63
670.39	105.32
670.53	140.43
670.67	142.77
670.81	138.09
670.95	102.98
671.09	138.09
671.23	205.97
671.37	217.67
671.51	212.99
671.65	112.35
671.79	154.48
671.93	152.13
672.07	173.20
672.21	184.90
672.35	135.75
672.49	93.62
672.63	133.41
672.77	81.92
672.91	184.90
673.05	177.88
673.19	203.63
673.33	149.79
673.47	166.18
673.61	114.69
673.75	138.09
673.89	126.39
674.03	173.20
674.17	145.11
674.31	156.82
674.45	147.45
674.59	88.94
674.73	163.84
674.87	234.05
675.01	124.05
675.15	117.03
675.29	102.98
675.43	88.94
675.56	189.58
675.70	177.88
675.84	189.58
675.98	168.52
676.12	67.88
676.26	156.82
676.40	140.43
676.54	182.56
676.68	93.62
676.82	208.31
676.96	152.13
677.10	189.58
677.23	44.47
677.37	182.56
677.51	58.51
677.65	168.52
677.79	95.96
677.93	112.35
678.07	149.79
678.21	149.79
678.34	119.37
678.48	100.64
678.62	107.66
678.76	131.07
678.90	152.13
679.04	86.60
679.18	77.24
679.31	163.84
679.45	37.45
679.59	84.26
679.73	140.43
679.87	184.90
680.00	138.09
680.14	196.60
680.28	70.22
680.42	63.19
680.56	184.90
680.70	128.73
680.83	229.37
680.97	98.30
681.11	145.11
681.25	145.11
681.39	135.75
681.52	180.22
681.66	145.11
681.80	205.97
681.94	126.39
682.07	102.98
682.21	140.43
682.35	88.94
682.49	65.54
682.62	112.35
682.76	56.17
682.90	131.07
683.04	100.64
683.17	173.20
683.31	110.01
683.45	154.48
683.59	128.73
683.72	149.79
683.86	149.79
684.00	154.48
684.13	77.24
684.27	131.07
684.41	142.77
684.55	140.43
684.68	142.77
684.82	100.64
684.96	56.17
685.09	140.43
685.23	79.58
685.37	184.90
685.50	119.37
685.64	131.07
685.78	121.71
685.91	126.39
686.05	170.86
686.19	196.60
686.32	140.43
686.46	74.90
686.60	72.56
686.73	100.64
686.87	131.07
687.01	77.24
687.14	65.54
687.28	88.94
687.42	114.69
687.55	107.66
687.69	166.18
687.82	142.77
687.96	51.49
688.10	154.48
688.23	100.64
688.37	198.95
688.50	63.19
688.64	126.39
688.78	163.84
688.91	119.37
689.05	95.96
689.18	49.15
689.32	86.60
689.46	53.83
689.59	88.94
689.73	84.26
689.86	112.35
690.00	93.62
690.13	105.32
690.27	2.34
690.41	135.75
690.54	124.05
690.68	98.30
690.81	175.54
690.95	91.28
691.08	100.64
691.22	86.60
691.35	124.05
691.49	117.03
691.62	91.28
691.76	72.56
691.89	79.58
692.03	159.16
692.16	28.09
692.30	105.32
692.43	114.69
692.57	98.30
692.70	35.11
692.84	194.26
692.97	110.01
693.11	102.98
693.24	81.92
693.38	70.22
693.51	77.24
693.65	102.98
693.78	107.66
693.92	35.11
694.05	88.94
694.19	72.56
694.32	142.77
694.45	63.19
694.59	126.39
694.72	70.22
694.86	72.56
694.99	152.13
695.13	152.13
695.26	77.24
695.39	93.62
695.53	121.71
695.66	100.64
695.80	198.95
695.93	112.35
696.07	95.96
696.20	93.62
696.33	81.92
696.47	102.98
696.60	58.51
696.73	72.56
696.87	112.35
697.00	154.48
697.14	100.64
697.27	72.56
697.40	131.07
697.54	154.48
697.67	163.84
697.80	126.39
697.94	121.71
698.07	67.88
698.21	86.60
698.34	128.73
698.47	53.83
698.61	102.98
698.74	81.92
698.87	119.37
699.01	56.17
699.14	91.28
699.27	107.66
699.40	234.05
699.54	128.73
699.67	60.85
699.80	84.26
699.94	95.96
700.07	51.49
700.20	18.72
700.34	72.56
700.47	88.94
700.60	102.98
700.73	91.28
700.87	149.79
701.00	84.26
701.13	86.60
701.26	131.07
701.40	154.48
701.53	53.83
701.66	117.03
701.79	107.66
701.93	126.39
702.06	182.56
702.19	39.79
702.32	168.52
702.46	131.07
702.59	140.43
702.72	88.94
702.85	49.15
702.99	16.38
703.12	98.30
703.25	51.49
703.38	60.85
703.51	72.56
703.65	84.26
703.78	53.83
703.91	112.35
704.04	110.01
704.17	145.11
704.31	58.51
704.44	28.09
704.57	105.32
704.70	140.43
704.83	119.37
704.96	88.94
705.10	198.95
705.23	49.15
>>>>>End Processed Spectral Data<<<<<
