SpectraSuite Data File
++++++++++++++++++++++++++++++++++++
Date: Fri Oct 04 11:47:15 GMT-05:00 2013
User: price-jones
Dark Spectrum Present: No
Reference Spectrum Present: No
Number of Sampled Component Spectra: 1
Spectrometers: USB2+H05261
Integration Time (usec): 100000 (USB2+H05261)
Spectra Averaged: 1 (USB2+H05261)
Boxcar Smoothing: 0 (USB2+H05261)
Correct for Electrical Dark: No (USB2+H05261)
Strobe/Lamp Enabled: No (USB2+H05261)
Correct for Detector Non-linearity: No (USB2+H05261)
Correct for Stray Light: No (USB2+H05261)
Number of Pixels in Processed Spectrum: 2048
>>>>>Begin Processed Spectral Data<<<<<
365.73	0.00
365.92	0.00
366.12	0.00
366.32	0.00
366.52	0.00
366.72	0.00
366.91	0.00
367.11	0.00
367.31	0.00
367.51	0.00
367.70	0.00
367.90	18.72
368.10	0.00
368.30	0.00
368.49	0.00
368.69	0.00
368.89	0.00
369.09	0.00
369.28	0.00
369.48	0.00
369.68	0.00
369.87	84.26
370.07	0.00
370.27	28.09
370.47	25.75
370.66	0.00
370.86	28.09
371.06	91.28
371.25	95.96
371.45	63.19
371.65	138.09
371.84	46.81
372.04	63.19
372.24	102.98
372.44	21.06
372.63	84.26
372.83	168.52
373.03	98.30
373.22	100.64
373.42	100.64
373.62	102.98
373.81	77.24
374.01	105.32
374.21	131.07
374.40	79.58
374.60	124.05
374.79	86.60
374.99	105.32
375.19	126.39
375.38	110.01
375.58	72.56
375.78	140.43
375.97	140.43
376.17	175.54
376.37	77.24
376.56	114.69
376.76	84.26
376.95	35.11
377.15	105.32
377.35	79.58
377.54	77.24
377.74	77.24
377.93	173.20
378.13	49.15
378.33	30.43
378.52	77.24
378.72	102.98
378.91	81.92
379.11	2.34
379.31	126.39
379.50	93.62
379.70	77.24
379.89	140.43
380.09	121.71
380.28	39.79
380.48	67.88
380.68	46.81
380.87	39.79
381.07	77.24
381.26	147.45
381.46	35.11
381.65	65.54
381.85	149.79
382.04	107.66
382.24	84.26
382.43	51.49
382.63	81.92
382.83	131.07
383.02	86.60
383.22	110.01
383.41	95.96
383.61	28.09
383.80	126.39
384.00	184.90
384.19	107.66
384.39	65.54
384.58	70.22
384.78	112.35
384.97	67.88
385.17	98.30
385.36	70.22
385.56	100.64
385.75	58.51
385.95	51.49
386.14	16.38
386.34	39.79
386.53	70.22
386.72	102.98
386.92	142.77
387.11	135.75
387.31	105.32
387.50	140.43
387.70	77.24
387.89	117.03
388.09	102.98
388.28	91.28
388.48	112.35
388.67	56.17
388.86	74.90
389.06	37.45
389.25	110.01
389.45	119.37
389.64	77.24
389.84	93.62
390.03	126.39
390.22	140.43
390.42	88.94
390.61	86.60
390.81	16.38
391.00	30.43
391.19	81.92
391.39	110.01
391.58	114.69
391.78	149.79
391.97	42.13
392.16	86.60
392.36	65.54
392.55	105.32
392.75	110.01
392.94	86.60
393.13	105.32
393.33	51.49
393.52	49.15
393.71	180.22
393.91	168.52
394.10	119.37
394.29	58.51
394.49	72.56
394.68	98.30
394.88	98.30
395.07	88.94
395.26	140.43
395.46	131.07
395.65	91.28
395.84	70.22
396.04	140.43
396.23	119.37
396.42	79.58
396.62	77.24
396.81	79.58
397.00	121.71
397.19	88.94
397.39	72.56
397.58	107.66
397.77	149.79
397.97	170.86
398.16	168.52
398.35	56.17
398.55	140.43
398.74	107.66
398.93	161.50
399.12	119.37
399.32	140.43
399.51	154.48
399.70	126.39
399.90	95.96
400.09	86.60
400.28	81.92
400.47	131.07
400.67	121.71
400.86	39.79
401.05	95.96
401.24	88.94
401.44	100.64
401.63	177.88
401.82	124.05
402.01	110.01
402.21	154.48
402.40	107.66
402.59	79.58
402.78	79.58
402.97	67.88
403.17	86.60
403.36	60.85
403.55	112.35
403.74	58.51
403.93	135.75
404.13	159.16
404.32	46.81
404.51	154.48
404.70	210.65
404.89	117.03
405.09	65.54
405.28	67.88
405.47	88.94
405.66	67.88
405.85	117.03
406.05	114.69
406.24	88.94
406.43	133.41
406.62	177.88
406.81	135.75
407.00	135.75
407.20	77.24
407.39	98.30
407.58	107.66
407.77	93.62
407.96	112.35
408.15	46.81
408.34	112.35
408.54	140.43
408.73	133.41
408.92	142.77
409.11	121.71
409.30	159.16
409.49	65.54
409.68	128.73
409.87	105.32
410.07	72.56
410.26	84.26
410.45	121.71
410.64	95.96
410.83	107.66
411.02	112.35
411.21	98.30
411.40	107.66
411.59	142.77
411.78	128.73
411.98	105.32
412.17	105.32
412.36	124.05
412.55	51.49
412.74	63.19
412.93	184.90
413.12	44.47
413.31	135.75
413.50	84.26
413.69	114.69
413.88	149.79
414.07	119.37
414.26	65.54
414.45	42.13
414.64	152.13
414.83	70.22
415.02	161.50
415.22	180.22
415.41	131.07
415.60	81.92
415.79	86.60
415.98	126.39
416.17	117.03
416.36	65.54
416.55	51.49
416.74	142.77
416.93	93.62
417.12	93.62
417.31	95.96
417.50	51.49
417.69	65.54
417.88	112.35
418.07	74.90
418.26	105.32
418.45	70.22
418.64	212.99
418.83	142.77
419.02	177.88
419.21	88.94
419.39	100.64
419.58	161.50
419.77	124.05
419.96	173.20
420.15	140.43
420.34	112.35
420.53	142.77
420.72	180.22
420.91	93.62
421.10	79.58
421.29	67.88
421.48	86.60
421.67	107.66
421.86	107.66
422.05	107.66
422.24	124.05
422.43	86.60
422.61	112.35
422.80	133.41
422.99	119.37
423.18	79.58
423.37	128.73
423.56	173.20
423.75	117.03
423.94	100.64
424.13	77.24
424.32	110.01
424.50	121.71
424.69	112.35
424.88	194.26
425.07	93.62
425.26	121.71
425.45	170.86
425.64	142.77
425.83	145.11
426.01	128.73
426.20	126.39
426.39	65.54
426.58	102.98
426.77	184.90
426.96	102.98
427.15	60.85
427.33	114.69
427.52	98.30
427.71	86.60
427.90	107.66
428.09	86.60
428.28	107.66
428.46	114.69
428.65	166.18
428.84	133.41
429.03	163.84
429.22	88.94
429.40	105.32
429.59	133.41
429.78	170.86
429.97	126.39
430.16	117.03
430.34	119.37
430.53	156.82
430.72	21.06
430.91	95.96
431.10	112.35
431.28	135.75
431.47	166.18
431.66	145.11
431.85	88.94
432.03	149.79
432.22	250.44
432.41	117.03
432.60	175.54
432.79	30.43
432.97	147.45
433.16	119.37
433.35	173.20
433.54	126.39
433.72	100.64
433.91	161.50
434.10	117.03
434.28	170.86
434.47	145.11
434.66	126.39
434.85	159.16
435.03	67.88
435.22	159.16
435.41	114.69
435.59	105.32
435.78	110.01
435.97	32.77
436.16	119.37
436.34	147.45
436.53	100.64
436.72	140.43
436.90	119.37
437.09	121.71
437.28	70.22
437.46	154.48
437.65	126.39
437.84	227.03
438.02	142.77
438.21	177.88
438.40	152.13
438.58	25.75
438.77	88.94
438.96	100.64
439.14	161.50
439.33	128.73
439.52	121.71
439.70	149.79
439.89	126.39
440.08	74.90
440.26	145.11
440.45	117.03
440.63	142.77
440.82	131.07
441.01	159.16
441.19	119.37
441.38	105.32
441.57	121.71
441.75	140.43
441.94	149.79
442.12	138.09
442.31	91.28
442.50	161.50
442.68	105.32
442.87	133.41
443.05	88.94
443.24	131.07
443.43	156.82
443.61	74.90
443.80	198.95
443.98	147.45
444.17	102.98
444.35	163.84
444.54	117.03
444.73	91.28
444.91	152.13
445.10	121.71
445.28	102.98
445.47	107.66
445.65	114.69
445.84	65.54
446.02	149.79
446.21	110.01
446.39	84.26
446.58	84.26
446.77	152.13
446.95	114.69
447.14	98.30
447.32	182.56
447.51	166.18
447.69	154.48
447.88	182.56
448.06	159.16
448.25	182.56
448.43	93.62
448.62	142.77
448.80	133.41
448.99	140.43
449.17	100.64
449.36	86.60
449.54	180.22
449.73	117.03
449.91	147.45
450.10	124.05
450.28	147.45
450.46	210.65
450.65	180.22
450.83	154.48
451.02	110.01
451.20	131.07
451.39	42.13
451.57	60.85
451.76	95.96
451.94	98.30
452.13	159.16
452.31	98.30
452.49	121.71
452.68	161.50
452.86	184.90
453.05	119.37
453.23	128.73
453.42	124.05
453.60	112.35
453.78	152.13
453.97	114.69
454.15	168.52
454.34	133.41
454.52	133.41
454.70	175.54
454.89	283.20
455.07	72.56
455.26	100.64
455.44	133.41
455.62	191.92
455.81	70.22
455.99	196.60
456.17	145.11
456.36	84.26
456.54	145.11
456.73	117.03
456.91	128.73
457.09	138.09
457.28	135.75
457.46	168.52
457.64	81.92
457.83	142.77
458.01	112.35
458.19	180.22
458.38	138.09
458.56	84.26
458.74	114.69
458.93	166.18
459.11	170.86
459.29	142.77
459.48	191.92
459.66	227.03
459.84	124.05
460.03	196.60
460.21	159.16
460.39	145.11
460.57	194.26
460.76	93.62
460.94	117.03
461.12	145.11
461.31	152.13
461.49	65.54
461.67	133.41
461.85	102.98
462.04	191.92
462.22	631.94
462.40	93.62
462.59	102.98
462.77	133.41
462.95	107.66
463.13	65.54
463.32	119.37
463.50	128.73
463.68	182.56
463.86	117.03
464.05	131.07
464.23	79.58
464.41	126.39
464.59	173.20
464.78	196.60
464.96	135.75
465.14	175.54
465.32	110.01
465.50	166.18
465.69	140.43
465.87	60.85
466.05	112.35
466.23	63.19
466.41	203.63
466.60	170.86
466.78	163.84
466.96	142.77
467.14	126.39
467.32	205.97
467.51	152.13
467.69	105.32
467.87	180.22
468.05	131.07
468.23	241.08
468.41	194.26
468.60	177.88
468.78	163.84
468.96	131.07
469.14	135.75
469.32	110.01
469.50	65.54
469.69	227.03
469.87	72.56
470.05	187.24
470.23	107.66
470.41	114.69
470.59	140.43
470.77	173.20
470.95	138.09
471.14	168.52
471.32	102.98
471.50	212.99
471.68	149.79
471.86	173.20
472.04	100.64
472.22	133.41
472.40	117.03
472.58	128.73
472.77	100.64
472.95	142.77
473.13	194.26
473.31	142.77
473.49	145.11
473.67	159.16
473.85	163.84
474.03	166.18
474.21	222.35
474.39	177.88
474.57	191.92
474.75	117.03
474.93	58.51
475.12	161.50
475.30	126.39
475.48	147.45
475.66	110.01
475.84	170.86
476.02	147.45
476.20	119.37
476.38	149.79
476.56	135.75
476.74	161.50
476.92	163.84
477.10	138.09
477.28	156.82
477.46	128.73
477.64	105.32
477.82	133.41
478.00	100.64
478.18	163.84
478.36	110.01
478.54	65.54
478.72	145.11
478.90	163.84
479.08	208.31
479.26	105.32
479.44	149.79
479.62	163.84
479.80	93.62
479.98	156.82
480.16	159.16
480.34	126.39
480.52	95.96
480.70	163.84
480.88	166.18
481.06	117.03
481.24	128.73
481.41	163.84
481.59	149.79
481.77	161.50
481.95	91.28
482.13	182.56
482.31	163.84
482.49	117.03
482.67	147.45
482.85	152.13
483.03	205.97
483.21	107.66
483.39	126.39
483.57	126.39
483.74	135.75
483.92	126.39
484.10	102.98
484.28	224.69
484.46	212.99
484.64	124.05
484.82	114.69
485.00	126.39
485.18	147.45
485.35	196.60
485.53	133.41
485.71	187.24
485.89	145.11
486.07	124.05
486.25	135.75
486.43	126.39
486.61	196.60
486.78	168.52
486.96	117.03
487.14	79.58
487.32	198.95
487.50	88.94
487.68	205.97
487.85	138.09
488.03	184.90
488.21	163.84
488.39	180.22
488.57	93.62
488.75	145.11
488.92	423.64
489.10	191.92
489.28	154.48
489.46	196.60
489.64	142.77
489.81	191.92
489.99	163.84
490.17	133.41
490.35	182.56
490.53	170.86
490.70	149.79
490.88	217.67
491.06	187.24
491.24	217.67
491.41	241.08
491.59	194.26
491.77	184.90
491.95	161.50
492.13	234.05
492.30	177.88
492.48	212.99
492.66	212.99
492.84	159.16
493.01	212.99
493.19	140.43
493.37	236.39
493.54	222.35
493.72	177.88
493.90	196.60
494.08	182.56
494.25	196.60
494.43	177.88
494.61	161.50
494.79	184.90
494.96	168.52
495.14	236.39
495.32	145.11
495.49	159.16
495.67	84.26
495.85	147.45
496.02	210.65
496.20	191.92
496.38	205.97
496.55	191.92
496.73	161.50
496.91	177.88
497.09	161.50
497.26	210.65
497.44	105.32
497.62	234.05
497.79	166.18
497.97	238.73
498.14	147.45
498.32	210.65
498.50	170.86
498.67	175.54
498.85	208.31
499.03	163.84
499.20	149.79
499.38	126.39
499.56	177.88
499.73	227.03
499.91	159.16
500.08	161.50
500.26	203.63
500.44	222.35
500.61	203.63
500.79	159.16
500.97	156.82
501.14	224.69
501.32	168.52
501.49	210.65
501.67	212.99
501.84	156.82
502.02	105.32
502.20	250.44
502.37	201.29
502.55	177.88
502.72	177.88
502.90	102.98
503.07	154.48
503.25	159.16
503.43	201.29
503.60	245.76
503.78	231.71
503.95	124.05
504.13	161.50
504.30	210.65
504.48	196.60
504.65	243.42
504.83	248.10
505.01	159.16
505.18	234.05
505.36	191.92
505.53	201.29
505.71	163.84
505.88	224.69
506.06	156.82
506.23	168.52
506.41	168.52
506.58	135.75
506.76	198.95
506.93	133.41
507.11	198.95
507.28	198.95
507.46	56.17
507.63	224.69
507.81	208.31
507.98	229.37
508.16	196.60
508.33	205.97
508.50	191.92
508.68	147.45
508.85	187.24
509.03	140.43
509.20	102.98
509.38	168.52
509.55	175.54
509.73	184.90
509.90	189.58
510.08	135.75
510.25	154.48
510.42	212.99
510.60	234.05
510.77	180.22
510.95	152.13
511.12	161.50
511.30	145.11
511.47	215.33
511.64	222.35
511.82	238.73
511.99	243.42
512.17	98.30
512.34	110.01
512.51	201.29
512.69	159.16
512.86	224.69
513.04	166.18
513.21	194.26
513.38	212.99
513.56	201.29
513.73	138.09
513.90	215.33
514.08	215.33
514.25	168.52
514.43	203.63
514.60	191.92
514.77	236.39
514.95	131.07
515.12	203.63
515.29	278.52
515.47	315.97
515.64	234.05
515.81	95.96
515.99	231.71
516.16	210.65
516.33	212.99
516.51	182.56
516.68	145.11
516.85	187.24
517.03	212.99
517.20	217.67
517.37	173.20
517.54	238.73
517.72	224.69
517.89	196.60
518.06	91.28
518.24	168.52
518.41	201.29
518.58	238.73
518.75	180.22
518.93	126.39
519.10	212.99
519.27	168.52
519.45	152.13
519.62	236.39
519.79	224.69
519.96	166.18
520.14	149.79
520.31	245.76
520.48	212.99
520.65	149.79
520.83	215.33
521.00	173.20
521.17	168.52
521.34	170.86
521.52	184.90
521.69	208.31
521.86	152.13
522.03	255.12
522.20	269.16
522.38	191.92
522.55	126.39
522.72	156.82
522.89	227.03
523.07	198.95
523.24	93.62
523.41	257.46
523.58	210.65
523.75	170.86
523.92	194.26
524.10	255.12
524.27	212.99
524.44	203.63
524.61	198.95
524.78	236.39
524.96	220.01
525.13	252.78
525.30	184.90
525.47	149.79
525.64	194.26
525.81	173.20
525.98	201.29
526.16	105.32
526.33	210.65
526.50	74.90
526.67	124.05
526.84	142.77
527.01	154.48
527.18	220.01
527.36	215.33
527.53	173.20
527.70	205.97
527.87	170.86
528.04	231.71
528.21	166.18
528.38	248.10
528.55	198.95
528.72	252.78
528.89	234.05
529.07	231.71
529.24	191.92
529.41	196.60
529.58	177.88
529.75	276.18
529.92	241.08
530.09	217.67
530.26	198.95
530.43	255.12
530.60	170.86
530.77	205.97
530.94	208.31
531.11	205.97
531.28	252.78
531.46	159.16
531.63	248.10
531.80	231.71
531.97	212.99
532.14	184.90
532.31	154.48
532.48	187.24
532.65	201.29
532.82	149.79
532.99	201.29
533.16	224.69
533.33	271.50
533.50	210.65
533.67	152.13
533.84	194.26
534.01	227.03
534.18	191.92
534.35	182.56
534.52	224.69
534.69	269.16
534.86	180.22
535.03	180.22
535.20	245.76
535.37	198.95
535.54	187.24
535.71	189.58
535.88	196.60
536.05	203.63
536.22	154.48
536.38	210.65
536.55	224.69
536.72	215.33
536.89	159.16
537.06	194.26
537.23	259.80
537.40	180.22
537.57	189.58
537.74	257.46
537.91	255.12
538.08	224.69
538.25	205.97
538.42	175.54
538.59	208.31
538.75	191.92
538.92	264.48
539.09	304.27
539.26	248.10
539.43	227.03
539.60	325.33
539.77	458.74
539.94	430.66
540.11	257.46
540.28	273.84
540.44	227.03
540.61	205.97
540.78	177.88
540.95	187.24
541.12	245.76
541.29	184.90
541.46	177.88
541.62	152.13
541.79	145.11
541.96	236.39
542.13	154.48
542.30	194.26
542.47	241.08
542.63	215.33
542.80	241.08
542.97	222.35
543.14	215.33
543.31	154.48
543.48	126.39
543.64	259.80
543.81	163.84
543.98	149.79
544.15	220.01
544.32	198.95
544.48	177.88
544.65	149.79
544.82	133.41
544.99	175.54
545.16	201.29
545.32	173.20
545.49	212.99
545.66	107.66
545.83	238.73
546.00	182.56
546.16	234.05
546.33	198.95
546.50	184.90
546.67	222.35
546.83	238.73
547.00	159.16
547.17	159.16
547.34	191.92
547.50	198.95
547.67	203.63
547.84	222.35
548.00	131.07
548.17	112.35
548.34	217.67
548.51	262.14
548.67	264.48
548.84	187.24
549.01	168.52
549.18	250.44
549.34	210.65
549.51	191.92
549.68	173.20
549.84	227.03
550.01	133.41
550.18	234.05
550.34	227.03
550.51	257.46
550.68	198.95
550.84	201.29
551.01	198.95
551.18	238.73
551.34	191.92
551.51	182.56
551.68	208.31
551.84	238.73
552.01	175.54
552.18	163.84
552.34	231.71
552.51	133.41
552.68	212.99
552.84	135.75
553.01	175.54
553.18	117.03
553.34	163.84
553.51	187.24
553.67	159.16
553.84	257.46
554.01	280.86
554.17	229.37
554.34	161.50
554.51	220.01
554.67	231.71
554.84	210.65
555.00	173.20
555.17	112.35
555.33	255.12
555.50	131.07
555.67	243.42
555.83	201.29
556.00	173.20
556.16	404.91
556.33	212.99
556.50	255.12
556.66	177.88
556.83	217.67
556.99	168.52
557.16	234.05
557.32	175.54
557.49	182.56
557.65	222.35
557.82	189.58
557.98	208.31
558.15	161.50
558.32	220.01
558.48	227.03
558.65	126.39
558.81	229.37
558.98	166.18
559.14	238.73
559.31	201.29
559.47	177.88
559.64	187.24
559.80	184.90
559.97	180.22
560.13	180.22
560.30	217.67
560.46	243.42
560.63	194.26
560.79	177.88
560.96	161.50
561.12	194.26
561.29	189.58
561.45	224.69
561.61	177.88
561.78	248.10
561.94	184.90
562.11	114.69
562.27	205.97
562.44	212.99
562.60	166.18
562.77	177.88
562.93	264.48
563.10	182.56
563.26	210.65
563.42	229.37
563.59	241.08
563.75	140.43
563.92	163.84
564.08	205.97
564.24	224.69
564.41	227.03
564.57	175.54
564.74	220.01
564.90	229.37
565.07	189.58
565.23	227.03
565.39	262.14
565.56	222.35
565.72	234.05
565.88	180.22
566.05	236.39
566.21	243.42
566.38	194.26
566.54	189.58
566.70	140.43
566.87	191.92
567.03	161.50
567.19	191.92
567.36	142.77
567.52	135.75
567.68	177.88
567.85	259.80
568.01	177.88
568.17	184.90
568.34	126.39
568.50	250.44
568.66	234.05
568.83	217.67
568.99	255.12
569.15	245.76
569.32	222.35
569.48	128.73
569.64	100.64
569.81	180.22
569.97	170.86
570.13	203.63
570.30	198.95
570.46	187.24
570.62	161.50
570.78	168.52
570.95	159.16
571.11	156.82
571.27	180.22
571.43	175.54
571.60	212.99
571.76	196.60
571.92	163.84
572.09	208.31
572.25	238.73
572.41	182.56
572.57	147.45
572.74	210.65
572.90	234.05
573.06	191.92
573.22	203.63
573.38	182.56
573.55	276.18
573.71	222.35
573.87	224.69
574.03	159.16
574.20	117.03
574.36	278.52
574.52	191.92
574.68	95.96
574.84	285.55
575.01	229.37
575.17	196.60
575.33	135.75
575.49	182.56
575.65	241.08
575.82	276.18
575.98	269.16
576.14	234.05
576.30	301.93
576.46	222.35
576.62	208.31
576.79	264.48
576.95	276.18
577.11	189.58
577.27	196.60
577.43	203.63
577.59	231.71
577.75	177.88
577.92	112.35
578.08	196.60
578.24	70.22
578.40	238.73
578.56	203.63
578.72	203.63
578.88	201.29
579.04	182.56
579.21	234.05
579.37	231.71
579.53	224.69
579.69	147.45
579.85	140.43
580.01	273.84
580.17	220.01
580.33	245.76
580.49	229.37
580.65	217.67
580.82	287.89
580.98	255.12
581.14	177.88
581.30	173.20
581.46	168.52
581.62	264.48
581.78	231.71
581.94	210.65
582.10	269.16
582.26	194.26
582.42	205.97
582.58	217.67
582.74	140.43
582.90	215.33
583.06	217.67
583.22	271.50
583.38	208.31
583.54	325.33
583.70	229.37
583.86	266.82
584.02	304.27
584.18	292.57
584.34	294.91
584.50	826.21
584.66	4667.03
584.82	11019.24
584.98	14157.90
585.14	11810.34
585.30	7836.11
585.46	4840.23
585.62	3103.55
585.78	1420.71
585.94	711.52
586.10	400.23
586.26	301.93
586.42	360.44
586.58	278.52
586.74	287.89
586.90	196.60
587.06	271.50
587.22	337.04
587.38	212.99
587.54	313.63
587.70	812.17
587.86	1198.35
588.02	1132.82
588.18	870.68
588.34	610.88
588.49	472.79
588.65	330.02
588.81	255.12
588.97	231.71
589.13	229.37
589.29	201.29
589.45	224.69
589.61	198.95
589.77	220.01
589.93	105.32
590.08	271.50
590.24	180.22
590.40	166.18
590.56	117.03
590.72	212.99
590.88	163.84
591.04	243.42
591.20	217.67
591.35	222.35
591.51	175.54
591.67	100.64
591.83	184.90
591.99	184.90
592.15	196.60
592.31	166.18
592.46	161.50
592.62	191.92
592.78	152.13
592.94	138.09
593.10	124.05
593.26	161.50
593.41	250.44
593.57	163.84
593.73	264.48
593.89	770.04
594.05	1504.96
594.20	1944.99
594.36	1788.17
594.52	1158.57
594.68	791.10
594.84	711.52
594.99	435.34
595.15	290.23
595.31	248.10
595.47	287.89
595.62	175.54
595.78	205.97
595.94	131.07
596.10	177.88
596.25	220.01
596.41	215.33
596.57	191.92
596.73	163.84
596.88	163.84
597.04	442.36
597.20	472.79
597.36	559.39
597.51	500.87
597.67	355.76
597.83	238.73
597.99	236.39
598.14	220.01
598.30	259.80
598.46	142.77
598.61	276.18
598.77	238.73
598.93	135.75
599.09	184.90
599.24	196.60
599.40	203.63
599.56	107.66
599.71	189.58
599.87	173.20
600.03	149.79
600.18	119.37
600.34	259.80
600.50	217.67
600.65	205.97
600.81	140.43
600.97	140.43
601.12	220.01
601.28	156.82
601.44	182.56
601.59	173.20
601.75	269.16
601.91	170.86
602.06	180.22
602.22	301.93
602.37	236.39
602.53	465.77
602.69	589.82
602.84	601.52
603.00	514.92
603.16	465.77
603.31	301.93
603.47	304.27
603.62	201.29
603.78	180.22
603.94	177.88
604.09	133.41
604.25	161.50
604.40	124.05
604.56	208.31
604.71	208.31
604.87	201.29
605.03	145.11
605.18	191.92
605.34	166.18
605.49	142.77
605.65	175.54
605.80	210.65
605.96	210.65
606.12	208.31
606.27	238.73
606.43	215.33
606.58	203.63
606.74	191.92
606.89	945.58
607.05	1324.74
607.20	1685.19
607.36	1392.62
607.51	922.17
607.67	732.59
607.82	552.37
607.98	304.27
608.13	257.46
608.29	283.20
608.44	217.67
608.60	222.35
608.75	292.57
608.91	388.53
609.06	1200.69
609.22	2104.14
609.37	2689.28
609.53	2186.06
609.68	1600.93
609.84	987.71
609.99	718.54
610.15	500.87
610.30	383.85
610.46	273.84
610.61	245.76
610.76	166.18
610.92	234.05
611.07	229.37
611.23	337.04
611.38	264.48
611.54	201.29
611.69	159.16
611.84	170.86
612.00	114.69
612.15	91.28
612.31	189.58
612.46	217.67
612.62	180.22
612.77	252.78
612.92	259.80
613.08	227.03
613.23	222.35
613.39	229.37
613.54	285.55
613.69	1191.33
613.85	2794.60
614.00	4023.38
614.15	4065.51
614.31	2923.33
614.46	2057.33
614.62	1317.72
614.77	945.58
614.92	451.72
615.08	339.38
615.23	241.08
615.38	255.12
615.54	182.56
615.69	337.04
615.84	716.20
616.00	983.02
616.15	1121.12
616.30	940.90
616.46	730.25
616.61	615.56
616.76	428.32
616.92	362.78
617.07	283.20
617.22	124.05
617.37	208.31
617.53	182.56
617.68	201.29
617.83	128.73
617.99	177.88
618.14	236.39
618.29	229.37
618.45	133.41
618.60	234.05
618.75	173.20
618.90	234.05
619.06	161.50
619.21	203.63
619.36	149.79
619.51	128.73
619.67	173.20
619.82	191.92
619.97	159.16
620.12	170.86
620.28	229.37
620.43	248.10
620.58	198.95
620.73	196.60
620.89	201.29
621.04	297.25
621.19	493.85
621.34	617.90
621.49	744.29
621.65	667.05
621.80	447.04
621.95	428.32
622.10	287.89
622.25	231.71
622.41	166.18
622.56	198.95
622.71	177.88
622.86	135.75
623.01	173.20
623.16	250.44
623.32	102.98
623.47	163.84
623.62	182.56
623.77	152.13
623.92	119.37
624.07	166.18
624.23	177.88
624.38	105.32
624.53	184.90
624.68	234.05
624.83	149.79
624.98	212.99
625.13	154.48
625.29	107.66
625.44	187.24
625.59	145.11
625.74	203.63
625.89	285.55
626.04	573.43
626.19	1483.90
626.34	2106.48
626.49	2092.44
626.65	1629.01
626.80	1184.31
626.95	772.38
627.10	514.92
627.25	369.80
627.40	189.58
627.55	177.88
627.70	156.82
627.85	203.63
628.00	229.37
628.15	180.22
628.30	208.31
628.45	110.01
628.60	250.44
628.76	222.35
628.91	222.35
629.06	142.77
629.21	168.52
629.36	119.37
629.51	74.90
629.66	135.75
629.81	177.88
629.96	306.61
630.11	617.90
630.26	608.54
630.41	613.22
630.56	414.27
630.71	423.64
630.86	271.50
631.01	173.20
631.16	205.97
631.31	177.88
631.46	184.90
631.61	161.50
631.76	222.35
631.91	175.54
632.06	119.37
632.21	191.92
632.36	149.79
632.51	208.31
632.66	224.69
632.81	337.04
632.96	954.94
633.10	1394.96
633.25	1558.80
633.40	1259.21
633.55	954.94
633.70	746.63
633.85	465.77
634.00	287.89
634.15	163.84
634.30	173.20
634.45	131.07
634.60	175.54
634.75	194.26
634.90	177.88
635.05	170.86
635.19	177.88
635.34	154.48
635.49	337.04
635.64	201.29
635.79	147.45
635.94	126.39
636.09	203.63
636.24	189.58
636.39	170.86
636.53	189.58
636.68	149.79
636.83	170.86
636.98	180.22
637.13	196.60
637.28	182.56
637.43	142.77
637.57	229.37
637.72	779.40
637.87	1785.83
638.02	2553.52
638.17	2679.91
638.32	2050.31
638.46	1486.24
638.61	1043.88
638.76	678.76
638.91	409.59
639.06	252.78
639.20	217.67
639.35	243.42
639.50	285.55
639.65	1268.57
639.80	2724.38
639.94	4002.32
640.09	4290.20
640.24	3246.32
640.39	2193.08
640.54	1558.80
640.68	950.26
640.83	589.82
640.98	280.86
641.13	315.97
641.27	154.48
641.42	93.62
641.57	215.33
641.72	191.92
641.86	215.33
642.01	156.82
642.16	128.73
642.31	227.03
642.45	236.39
642.60	201.29
642.75	196.60
642.90	217.67
643.04	149.79
643.19	196.60
643.34	126.39
643.48	210.65
643.63	124.05
643.78	210.65
643.93	220.01
644.07	154.48
644.22	135.75
644.37	159.16
644.51	205.97
644.66	203.63
644.81	149.79
644.95	140.43
645.10	105.32
645.25	152.13
645.39	105.32
645.54	105.32
645.69	201.29
645.83	154.48
645.98	245.76
646.13	142.77
646.27	180.22
646.42	110.01
646.57	105.32
646.71	98.30
646.86	145.11
647.00	98.30
647.15	114.69
647.30	93.62
647.44	128.73
647.59	138.09
647.74	147.45
647.88	243.42
648.03	173.20
648.17	194.26
648.32	88.94
648.47	107.66
648.61	100.64
648.76	93.62
648.90	152.13
649.05	117.03
649.20	154.48
649.34	117.03
649.49	217.67
649.63	142.77
649.78	245.76
649.92	252.78
650.07	496.19
650.21	1303.68
650.36	1881.79
650.51	2115.84
650.65	1720.29
650.80	1336.45
650.94	858.98
651.09	582.79
651.23	339.38
651.38	229.37
651.52	168.52
651.67	212.99
651.81	173.20
651.96	182.56
652.10	121.71
652.25	187.24
652.39	224.69
652.54	126.39
652.68	276.18
652.83	564.07
652.97	718.54
653.12	950.26
653.26	702.16
653.41	716.20
653.55	484.49
653.70	353.42
653.84	189.58
653.99	210.65
654.13	65.54
654.27	159.16
654.42	128.73
654.56	154.48
654.71	131.07
654.85	86.60
655.00	93.62
655.14	117.03
655.29	212.99
655.43	168.52
655.57	140.43
655.72	93.62
655.86	131.07
656.01	128.73
656.15	238.73
656.30	166.18
656.44	147.45
656.58	175.54
656.73	133.41
656.87	100.64
657.01	182.56
657.16	161.50
657.30	189.58
657.45	187.24
657.59	117.03
657.73	147.45
657.88	191.92
658.02	189.58
658.16	149.79
658.31	154.48
658.45	152.13
658.60	142.77
658.74	21.06
658.88	182.56
659.03	184.90
659.17	135.75
659.31	250.44
659.46	585.13
659.60	1039.20
659.74	1163.25
659.89	987.71
660.03	777.06
660.17	585.13
660.32	395.55
660.46	320.65
660.60	248.10
660.74	124.05
660.89	168.52
661.03	100.64
661.17	110.01
661.32	145.11
661.46	147.45
661.60	142.77
661.74	128.73
661.89	196.60
662.03	147.45
662.17	119.37
662.31	93.62
662.46	142.77
662.60	159.16
662.74	100.64
662.88	177.88
663.03	163.84
663.17	142.77
663.31	138.09
663.45	203.63
663.60	140.43
663.74	77.24
663.88	182.56
664.02	110.01
664.17	140.43
664.31	72.56
664.45	88.94
664.59	100.64
664.73	175.54
664.88	182.56
665.02	126.39
665.16	107.66
665.30	215.33
665.44	117.03
665.59	182.56
665.73	196.60
665.87	161.50
666.01	128.73
666.15	88.94
666.29	88.94
666.44	124.05
666.58	196.60
666.72	110.01
666.86	229.37
667.00	210.65
667.14	208.31
667.28	458.74
667.43	1153.88
667.57	1640.72
667.71	1942.64
667.85	1694.55
667.99	1186.65
668.13	814.51
668.27	559.39
668.41	390.87
668.56	301.93
668.70	217.67
668.84	205.97
668.98	255.12
669.12	117.03
669.26	182.56
669.40	161.50
669.54	121.71
669.68	220.01
669.82	70.22
669.96	159.16
670.10	131.07
670.25	117.03
670.39	222.35
670.53	91.28
670.67	124.05
670.81	91.28
670.95	88.94
671.09	135.75
671.23	521.94
671.37	929.19
671.51	1177.29
671.65	1277.93
671.79	976.00
671.93	741.95
672.07	573.43
672.21	337.04
672.35	262.14
672.49	163.84
672.63	170.86
672.77	201.29
672.91	180.22
673.05	147.45
673.19	131.07
673.33	112.35
673.47	145.11
673.61	72.56
673.75	107.66
673.89	67.88
674.03	168.52
674.17	187.24
674.31	126.39
674.45	187.24
674.59	95.96
674.73	159.16
674.87	163.84
675.01	117.03
675.15	154.48
675.29	184.90
675.43	154.48
675.56	208.31
675.70	124.05
675.84	168.52
675.98	114.69
676.12	119.37
676.26	128.73
676.40	177.88
676.54	105.32
676.68	88.94
676.82	112.35
676.96	100.64
677.10	117.03
677.23	191.92
677.37	70.22
677.51	187.24
677.65	210.65
677.79	117.03
677.93	65.54
678.07	152.13
678.21	217.67
678.34	86.60
678.48	105.32
678.62	131.07
678.76	140.43
678.90	135.75
679.04	140.43
679.18	105.32
679.31	105.32
679.45	163.84
679.59	93.62
679.73	70.22
679.87	114.69
680.00	147.45
680.14	163.84
680.28	145.11
680.42	126.39
680.56	152.13
680.70	77.24
680.83	147.45
680.97	133.41
681.11	107.66
681.25	119.37
681.39	100.64
681.52	138.09
681.66	203.63
681.80	201.29
681.94	0.00
682.07	124.05
682.21	124.05
682.35	149.79
682.49	58.51
682.62	117.03
682.76	102.98
682.90	147.45
683.04	119.37
683.17	170.86
683.31	142.77
683.45	79.58
683.59	154.48
683.72	107.66
683.86	180.22
684.00	117.03
684.13	110.01
684.27	152.13
684.41	135.75
684.55	142.77
684.68	182.56
684.82	124.05
684.96	88.94
685.09	23.41
685.23	84.26
685.37	121.71
685.50	126.39
685.64	189.58
685.78	135.75
685.91	142.77
686.05	131.07
686.19	140.43
686.32	74.90
686.46	114.69
686.60	114.69
686.73	147.45
686.87	156.82
687.01	114.69
687.14	124.05
687.28	119.37
687.42	147.45
687.55	107.66
687.69	163.84
687.82	145.11
687.96	182.56
688.10	149.79
688.23	117.03
688.37	161.50
688.50	128.73
688.64	100.64
688.78	166.18
688.91	126.39
689.05	124.05
689.18	110.01
689.32	105.32
689.46	74.90
689.59	100.64
689.73	147.45
689.86	177.88
690.00	128.73
690.13	154.48
690.27	131.07
690.41	175.54
690.54	161.50
690.68	110.01
690.81	95.96
690.95	142.77
691.08	119.37
691.22	51.49
691.35	140.43
691.49	49.15
691.62	86.60
691.76	46.81
691.89	70.22
692.03	124.05
692.16	88.94
692.30	124.05
692.43	198.95
692.57	524.28
692.70	657.69
692.84	875.36
692.97	835.57
693.11	603.86
693.24	404.91
693.38	269.16
693.51	229.37
693.65	259.80
693.78	156.82
693.92	133.41
694.05	138.09
694.19	119.37
694.32	84.26
694.45	126.39
694.59	79.58
694.72	42.13
694.86	95.96
694.99	79.58
695.13	46.81
695.26	102.98
695.39	95.96
695.53	236.39
695.66	98.30
695.80	140.43
695.93	173.20
696.07	173.20
696.20	161.50
696.33	194.26
696.47	222.35
696.60	269.16
696.73	205.97
696.87	177.88
697.00	203.63
697.14	166.18
697.27	112.35
697.40	168.52
697.54	81.92
697.67	117.03
697.80	147.45
697.94	182.56
698.07	93.62
698.21	112.35
698.34	112.35
698.47	84.26
698.61	95.96
698.74	51.49
698.87	217.67
699.01	84.26
699.14	159.16
699.27	175.54
699.40	259.80
699.54	121.71
699.67	175.54
699.80	77.24
699.94	187.24
700.07	86.60
700.20	117.03
700.34	51.49
700.47	84.26
700.60	51.49
700.73	147.45
700.87	126.39
701.00	152.13
701.13	147.45
701.26	86.60
701.40	117.03
701.53	152.13
701.66	105.32
701.79	126.39
701.93	86.60
702.06	159.16
702.19	102.98
702.32	212.99
702.46	168.52
702.59	189.58
702.72	269.16
702.85	608.54
702.99	1256.87
703.12	1551.78
703.25	1600.93
703.38	1329.42
703.51	1144.52
703.65	840.25
703.78	561.73
703.91	461.09
704.04	379.17
704.17	198.95
704.31	163.84
704.44	152.13
704.57	112.35
704.70	149.79
704.83	65.54
704.96	126.39
705.10	112.35
705.23	77.24
>>>>>End Processed Spectral Data<<<<<
