SpectraSuite Data File
++++++++++++++++++++++++++++++++++++
Date: Fri Oct 04 11:47:21 GMT-05:00 2013
User: price-jones
Dark Spectrum Present: No
Reference Spectrum Present: No
Number of Sampled Component Spectra: 1
Spectrometers: USB2+H05261
Integration Time (usec): 100000 (USB2+H05261)
Spectra Averaged: 1 (USB2+H05261)
Boxcar Smoothing: 0 (USB2+H05261)
Correct for Electrical Dark: No (USB2+H05261)
Strobe/Lamp Enabled: No (USB2+H05261)
Correct for Detector Non-linearity: No (USB2+H05261)
Correct for Stray Light: No (USB2+H05261)
Number of Pixels in Processed Spectrum: 2048
>>>>>Begin Processed Spectral Data<<<<<
365.73	39.79
365.92	39.79
366.12	39.79
366.32	0.00
366.52	0.00
366.72	0.00
366.91	0.00
367.11	0.00
367.31	0.00
367.51	0.00
367.70	0.00
367.90	0.00
368.10	0.00
368.30	0.00
368.49	0.00
368.69	0.00
368.89	0.00
369.09	0.00
369.28	0.00
369.48	0.00
369.68	0.00
369.87	0.00
370.07	0.00
370.27	0.00
370.47	0.00
370.66	0.00
370.86	14.04
371.06	39.79
371.25	56.17
371.45	84.26
371.65	21.06
371.84	14.04
372.04	23.41
372.24	88.94
372.44	18.72
372.63	119.37
372.83	79.58
373.03	74.90
373.22	14.04
373.42	105.32
373.62	124.05
373.81	175.54
374.01	166.18
374.21	93.62
374.40	79.58
374.60	67.88
374.79	102.98
374.99	112.35
375.19	102.98
375.38	18.72
375.58	128.73
375.78	126.39
375.97	74.90
376.17	142.77
376.37	0.00
376.56	67.88
376.76	124.05
376.95	105.32
377.15	107.66
377.35	147.45
377.54	152.13
377.74	63.19
377.93	110.01
378.13	175.54
378.33	105.32
378.52	107.66
378.72	168.52
378.91	74.90
379.11	70.22
379.31	53.83
379.50	77.24
379.70	145.11
379.89	128.73
380.09	86.60
380.28	105.32
380.48	77.24
380.68	128.73
380.87	67.88
381.07	131.07
381.26	175.54
381.46	131.07
381.65	161.50
381.85	98.30
382.04	110.01
382.24	70.22
382.43	56.17
382.63	126.39
382.83	77.24
383.02	117.03
383.22	170.86
383.41	58.51
383.61	56.17
383.80	67.88
384.00	93.62
384.19	98.30
384.39	124.05
384.58	140.43
384.78	74.90
384.97	42.13
385.17	100.64
385.36	100.64
385.56	159.16
385.75	98.30
385.95	35.11
386.14	142.77
386.34	0.00
386.53	91.28
386.72	0.00
386.92	126.39
387.11	79.58
387.31	142.77
387.50	77.24
387.70	42.13
387.89	51.49
388.09	42.13
388.28	0.00
388.48	93.62
388.67	74.90
388.86	84.26
389.06	152.13
389.25	86.60
389.45	107.66
389.64	74.90
389.84	147.45
390.03	49.15
390.22	161.50
390.42	44.47
390.61	81.92
390.81	74.90
391.00	105.32
391.19	140.43
391.39	56.17
391.58	142.77
391.78	84.26
391.97	140.43
392.16	53.83
392.36	100.64
392.55	161.50
392.75	65.54
392.94	100.64
393.13	161.50
393.33	149.79
393.52	114.69
393.71	53.83
393.91	110.01
394.10	37.45
394.29	114.69
394.49	131.07
394.68	114.69
394.88	124.05
395.07	145.11
395.26	95.96
395.46	39.79
395.65	191.92
395.84	46.81
396.04	138.09
396.23	67.88
396.42	95.96
396.62	177.88
396.81	117.03
397.00	30.43
397.19	100.64
397.39	98.30
397.58	128.73
397.77	42.13
397.97	135.75
398.16	133.41
398.35	105.32
398.55	91.28
398.74	93.62
398.93	77.24
399.12	72.56
399.32	79.58
399.51	100.64
399.70	110.01
399.90	70.22
400.09	124.05
400.28	128.73
400.47	58.51
400.67	121.71
400.86	44.47
401.05	93.62
401.24	170.86
401.44	152.13
401.63	112.35
401.82	77.24
402.01	37.45
402.21	70.22
402.40	112.35
402.59	53.83
402.78	91.28
402.97	70.22
403.17	51.49
403.36	128.73
403.55	128.73
403.74	37.45
403.93	79.58
404.13	114.69
404.32	98.30
404.51	91.28
404.70	60.85
404.89	35.11
405.09	131.07
405.28	79.58
405.47	95.96
405.66	154.48
405.85	149.79
406.05	91.28
406.24	72.56
406.43	21.06
406.62	81.92
406.81	91.28
407.00	133.41
407.20	98.30
407.39	39.79
407.58	112.35
407.77	117.03
407.96	191.92
408.15	86.60
408.34	156.82
408.54	88.94
408.73	46.81
408.92	121.71
409.11	170.86
409.30	163.84
409.49	65.54
409.68	49.15
409.87	98.30
410.07	37.45
410.26	84.26
410.45	124.05
410.64	105.32
410.83	84.26
411.02	140.43
411.21	112.35
411.40	163.84
411.59	16.38
411.78	39.79
411.98	98.30
412.17	74.90
412.36	121.71
412.55	91.28
412.74	124.05
412.93	131.07
413.12	98.30
413.31	114.69
413.50	119.37
413.69	91.28
413.88	88.94
414.07	95.96
414.26	184.90
414.45	91.28
414.64	152.13
414.83	194.26
415.02	117.03
415.22	156.82
415.41	149.79
415.60	81.92
415.79	128.73
415.98	102.98
416.17	154.48
416.36	117.03
416.55	105.32
416.74	161.50
416.93	2.34
417.12	86.60
417.31	42.13
417.50	67.88
417.69	161.50
417.88	67.88
418.07	39.79
418.26	128.73
418.45	149.79
418.64	170.86
418.83	117.03
419.02	133.41
419.21	191.92
419.39	135.75
419.58	86.60
419.77	124.05
419.96	140.43
420.15	170.86
420.34	128.73
420.53	79.58
420.72	112.35
420.91	133.41
421.10	175.54
421.29	95.96
421.48	93.62
421.67	166.18
421.86	121.71
422.05	133.41
422.24	110.01
422.43	72.56
422.61	35.11
422.80	98.30
422.99	166.18
423.18	95.96
423.37	166.18
423.56	107.66
423.75	163.84
423.94	84.26
424.13	121.71
424.32	86.60
424.50	102.98
424.69	98.30
424.88	170.86
425.07	117.03
425.26	124.05
425.45	145.11
425.64	107.66
425.83	117.03
426.01	133.41
426.20	124.05
426.39	159.16
426.58	114.69
426.77	126.39
426.96	107.66
427.15	142.77
427.33	107.66
427.52	110.01
427.71	119.37
427.90	102.98
428.09	126.39
428.28	112.35
428.46	79.58
428.65	126.39
428.84	102.98
429.03	112.35
429.22	128.73
429.40	159.16
429.59	74.90
429.78	133.41
429.97	112.35
430.16	46.81
430.34	110.01
430.53	46.81
430.72	114.69
430.91	156.82
431.10	60.85
431.28	126.39
431.47	93.62
431.66	140.43
431.85	42.13
432.03	72.56
432.22	187.24
432.41	100.64
432.60	170.86
432.79	32.77
432.97	58.51
433.16	131.07
433.35	98.30
433.54	112.35
433.72	173.20
433.91	119.37
434.10	25.75
434.28	133.41
434.47	156.82
434.66	91.28
434.85	128.73
435.03	7.02
435.22	168.52
435.41	163.84
435.59	163.84
435.78	131.07
435.97	110.01
436.16	128.73
436.34	107.66
436.53	121.71
436.72	140.43
436.90	126.39
437.09	65.54
437.28	91.28
437.46	91.28
437.65	114.69
437.84	135.75
438.02	112.35
438.21	126.39
438.40	114.69
438.58	42.13
438.77	60.85
438.96	107.66
439.14	63.19
439.33	100.64
439.52	161.50
439.70	220.01
439.89	149.79
440.08	156.82
440.26	84.26
440.45	102.98
440.63	168.52
440.82	112.35
441.01	117.03
441.19	91.28
441.38	159.16
441.57	133.41
441.75	168.52
441.94	182.56
442.12	173.20
442.31	105.32
442.50	138.09
442.68	154.48
442.87	173.20
443.05	110.01
443.24	95.96
443.43	140.43
443.61	191.92
443.80	126.39
443.98	105.32
444.17	93.62
444.35	149.79
444.54	177.88
444.73	117.03
444.91	212.99
445.10	114.69
445.28	135.75
445.47	110.01
445.65	105.32
445.84	180.22
446.02	107.66
446.21	110.01
446.39	105.32
446.58	147.45
446.77	110.01
446.95	67.88
447.14	91.28
447.32	114.69
447.51	128.73
447.69	140.43
447.88	205.97
448.06	131.07
448.25	142.77
448.43	156.82
448.62	147.45
448.80	107.66
448.99	154.48
449.17	112.35
449.36	105.32
449.54	91.28
449.73	102.98
449.91	117.03
450.10	124.05
450.28	152.13
450.46	135.75
450.65	121.71
450.83	166.18
451.02	77.24
451.20	102.98
451.39	119.37
451.57	121.71
451.76	131.07
451.94	248.10
452.13	142.77
452.31	114.69
452.49	88.94
452.68	119.37
452.86	128.73
453.05	131.07
453.23	86.60
453.42	49.15
453.60	161.50
453.78	98.30
453.97	140.43
454.15	117.03
454.34	72.56
454.52	95.96
454.70	147.45
454.89	154.48
455.07	93.62
455.26	107.66
455.44	102.98
455.62	250.44
455.81	142.77
455.99	112.35
456.17	102.98
456.36	156.82
456.54	126.39
456.73	110.01
456.91	60.85
457.09	107.66
457.28	166.18
457.46	119.37
457.64	175.54
457.83	198.95
458.01	182.56
458.19	198.95
458.38	133.41
458.56	163.84
458.74	121.71
458.93	128.73
459.11	124.05
459.29	74.90
459.48	187.24
459.66	180.22
459.84	95.96
460.03	189.58
460.21	161.50
460.39	175.54
460.57	74.90
460.76	159.16
460.94	65.54
461.12	234.05
461.31	117.03
461.49	156.82
461.67	124.05
461.85	112.35
462.04	112.35
462.22	599.18
462.40	177.88
462.59	91.28
462.77	121.71
462.95	70.22
463.13	154.48
463.32	107.66
463.50	91.28
463.68	121.71
463.86	135.75
464.05	145.11
464.23	152.13
464.41	191.92
464.59	182.56
464.78	86.60
464.96	95.96
465.14	159.16
465.32	105.32
465.50	124.05
465.69	88.94
465.87	102.98
466.05	93.62
466.23	81.92
466.41	100.64
466.60	205.97
466.78	175.54
466.96	182.56
467.14	182.56
467.32	105.32
467.51	93.62
467.69	177.88
467.87	163.84
468.05	128.73
468.23	187.24
468.41	72.56
468.60	154.48
468.78	184.90
468.96	156.82
469.14	166.18
469.32	166.18
469.50	194.26
469.69	201.29
469.87	142.77
470.05	177.88
470.23	107.66
470.41	168.52
470.59	138.09
470.77	205.97
470.95	152.13
471.14	131.07
471.32	102.98
471.50	182.56
471.68	210.65
471.86	231.71
472.04	140.43
472.22	189.58
472.40	145.11
472.58	149.79
472.77	112.35
472.95	110.01
473.13	159.16
473.31	229.37
473.49	46.81
473.67	124.05
473.85	105.32
474.03	124.05
474.21	102.98
474.39	236.39
474.57	182.56
474.75	205.97
474.93	117.03
475.12	105.32
475.30	56.17
475.48	142.77
475.66	166.18
475.84	135.75
476.02	124.05
476.20	147.45
476.38	191.92
476.56	224.69
476.74	98.30
476.92	131.07
477.10	175.54
477.28	208.31
477.46	119.37
477.64	126.39
477.82	86.60
478.00	124.05
478.18	140.43
478.36	117.03
478.54	102.98
478.72	156.82
478.90	205.97
479.08	212.99
479.26	142.77
479.44	182.56
479.62	128.73
479.80	187.24
479.98	131.07
480.16	159.16
480.34	133.41
480.52	152.13
480.70	231.71
480.88	74.90
481.06	184.90
481.24	168.52
481.41	126.39
481.59	147.45
481.77	152.13
481.95	227.03
482.13	170.86
482.31	166.18
482.49	222.35
482.67	180.22
482.85	142.77
483.03	175.54
483.21	163.84
483.39	142.77
483.57	133.41
483.74	227.03
483.92	175.54
484.10	131.07
484.28	227.03
484.46	290.23
484.64	131.07
484.82	124.05
485.00	163.84
485.18	147.45
485.35	205.97
485.53	93.62
485.71	147.45
485.89	145.11
486.07	152.13
486.25	163.84
486.43	184.90
486.61	133.41
486.78	145.11
486.96	180.22
487.14	138.09
487.32	187.24
487.50	191.92
487.68	152.13
487.85	135.75
488.03	205.97
488.21	198.95
488.39	107.66
488.57	149.79
488.75	154.48
488.92	437.68
489.10	210.65
489.28	215.33
489.46	152.13
489.64	177.88
489.81	154.48
489.99	210.65
490.17	145.11
490.35	180.22
490.53	173.20
490.70	138.09
490.88	168.52
491.06	163.84
491.24	147.45
491.41	231.71
491.59	173.20
491.77	128.73
491.95	210.65
492.13	220.01
492.30	145.11
492.48	163.84
492.66	177.88
492.84	88.94
493.01	187.24
493.19	161.50
493.37	194.26
493.54	229.37
493.72	236.39
493.90	163.84
494.08	145.11
494.25	194.26
494.43	159.16
494.61	177.88
494.79	182.56
494.96	152.13
495.14	208.31
495.32	227.03
495.49	182.56
495.67	231.71
495.85	128.73
496.02	184.90
496.20	229.37
496.38	196.60
496.55	191.92
496.73	208.31
496.91	112.35
497.09	198.95
497.26	177.88
497.44	177.88
497.62	180.22
497.79	187.24
497.97	175.54
498.14	194.26
498.32	117.03
498.50	149.79
498.67	229.37
498.85	147.45
499.03	182.56
499.20	210.65
499.38	107.66
499.56	138.09
499.73	124.05
499.91	191.92
500.08	250.44
500.26	177.88
500.44	252.78
500.61	234.05
500.79	142.77
500.97	161.50
501.14	198.95
501.32	147.45
501.49	191.92
501.67	154.48
501.84	238.73
502.02	159.16
502.20	250.44
502.37	177.88
502.55	159.16
502.72	191.92
502.90	224.69
503.07	194.26
503.25	229.37
503.43	175.54
503.60	182.56
503.78	124.05
503.95	234.05
504.13	156.82
504.30	177.88
504.48	257.46
504.65	220.01
504.83	222.35
505.01	182.56
505.18	257.46
505.36	149.79
505.53	234.05
505.71	131.07
505.88	271.50
506.06	271.50
506.23	203.63
506.41	177.88
506.58	163.84
506.76	72.56
506.93	147.45
507.11	163.84
507.28	215.33
507.46	145.11
507.63	177.88
507.81	168.52
507.98	187.24
508.16	234.05
508.33	201.29
508.50	215.33
508.68	234.05
508.85	215.33
509.03	271.50
509.20	306.61
509.38	163.84
509.55	203.63
509.73	231.71
509.90	255.12
510.08	271.50
510.25	215.33
510.42	159.16
510.60	210.65
510.77	205.97
510.95	177.88
511.12	166.18
511.30	243.42
511.47	259.80
511.64	299.59
511.82	189.58
511.99	208.31
512.17	236.39
512.34	177.88
512.51	196.60
512.69	259.80
512.86	217.67
513.04	191.92
513.21	166.18
513.38	117.03
513.56	198.95
513.73	229.37
513.90	180.22
514.08	205.97
514.25	255.12
514.43	173.20
514.60	201.29
514.77	227.03
514.95	236.39
515.12	198.95
515.29	170.86
515.47	168.52
515.64	135.75
515.81	198.95
515.99	212.99
516.16	196.60
516.33	248.10
516.51	182.56
516.68	203.63
516.85	142.77
517.03	149.79
517.20	191.92
517.37	262.14
517.54	245.76
517.72	273.84
517.89	236.39
518.06	194.26
518.24	161.50
518.41	269.16
518.58	229.37
518.75	138.09
518.93	161.50
519.10	252.78
519.27	203.63
519.45	229.37
519.62	156.82
519.79	238.73
519.96	159.16
520.14	189.58
520.31	220.01
520.48	222.35
520.65	187.24
520.83	215.33
521.00	177.88
521.17	163.84
521.34	128.73
521.52	278.52
521.69	177.88
521.86	259.80
522.03	161.50
522.20	177.88
522.38	217.67
522.55	170.86
522.72	170.86
522.89	198.95
523.07	241.08
523.24	224.69
523.41	227.03
523.58	212.99
523.75	227.03
523.92	135.75
524.10	168.52
524.27	168.52
524.44	152.13
524.61	131.07
524.78	159.16
524.96	175.54
525.13	175.54
525.30	196.60
525.47	154.48
525.64	182.56
525.81	264.48
525.98	234.05
526.16	168.52
526.33	152.13
526.50	117.03
526.67	145.11
526.84	147.45
527.01	168.52
527.18	166.18
527.36	212.99
527.53	112.35
527.70	173.20
527.87	166.18
528.04	222.35
528.21	220.01
528.38	222.35
528.55	280.86
528.72	241.08
528.89	217.67
529.07	238.73
529.24	114.69
529.41	236.39
529.58	208.31
529.75	166.18
529.92	236.39
530.09	210.65
530.26	208.31
530.43	257.46
530.60	229.37
530.77	248.10
530.94	236.39
531.11	280.86
531.28	180.22
531.46	215.33
531.63	198.95
531.80	189.58
531.97	234.05
532.14	222.35
532.31	159.16
532.48	175.54
532.65	236.39
532.82	154.48
532.99	168.52
533.16	212.99
533.33	175.54
533.50	163.84
533.67	154.48
533.84	262.14
534.01	241.08
534.18	241.08
534.35	189.58
534.52	229.37
534.69	276.18
534.86	196.60
535.03	241.08
535.20	234.05
535.37	212.99
535.54	220.01
535.71	238.73
535.88	248.10
536.05	259.80
536.22	124.05
536.38	168.52
536.55	180.22
536.72	191.92
536.89	166.18
537.06	145.11
537.23	306.61
537.40	212.99
537.57	161.50
537.74	243.42
537.91	227.03
538.08	271.50
538.25	191.92
538.42	201.29
538.59	259.80
538.75	177.88
538.92	222.35
539.09	205.97
539.26	198.95
539.43	259.80
539.60	173.20
539.77	175.54
539.94	248.10
540.11	215.33
540.28	262.14
540.44	280.86
540.61	287.89
540.78	196.60
540.95	163.84
541.12	243.42
541.29	269.16
541.46	311.29
541.62	266.82
541.79	287.89
541.96	238.73
542.13	266.82
542.30	238.73
542.47	259.80
542.63	229.37
542.80	255.12
542.97	252.78
543.14	259.80
543.31	182.56
543.48	243.42
543.64	201.29
543.81	222.35
543.98	182.56
544.15	229.37
544.32	262.14
544.48	215.33
544.65	215.33
544.82	220.01
544.99	177.88
545.16	285.55
545.32	184.90
545.49	212.99
545.66	313.63
545.83	234.05
546.00	229.37
546.16	203.63
546.33	187.24
546.50	255.12
546.67	227.03
546.83	196.60
547.00	264.48
547.17	173.20
547.34	243.42
547.50	241.08
547.67	259.80
547.84	156.82
548.00	215.33
548.17	292.57
548.34	198.95
548.51	276.18
548.67	203.63
548.84	210.65
549.01	245.76
549.18	196.60
549.34	236.39
549.51	250.44
549.68	163.84
549.84	217.67
550.01	238.73
550.18	241.08
550.34	276.18
550.51	191.92
550.68	304.27
550.84	210.65
551.01	224.69
551.18	138.09
551.34	208.31
551.51	257.46
551.68	177.88
551.84	234.05
552.01	217.67
552.18	283.20
552.34	255.12
552.51	154.48
552.68	173.20
552.84	222.35
553.01	201.29
553.18	208.31
553.34	205.97
553.51	210.65
553.67	210.65
553.84	292.57
554.01	234.05
554.17	315.97
554.34	124.05
554.51	231.71
554.67	245.76
554.84	229.37
555.00	198.95
555.17	287.89
555.33	210.65
555.50	205.97
555.67	255.12
555.83	229.37
556.00	184.90
556.16	325.33
556.33	215.33
556.50	142.77
556.66	201.29
556.83	168.52
556.99	180.22
557.16	189.58
557.32	194.26
557.49	196.60
557.65	273.84
557.82	217.67
557.98	271.50
558.15	220.01
558.32	234.05
558.48	159.16
558.65	142.77
558.81	243.42
558.98	250.44
559.14	166.18
559.31	266.82
559.47	168.52
559.64	222.35
559.80	248.10
559.97	105.32
560.13	201.29
560.30	161.50
560.46	210.65
560.63	110.01
560.79	243.42
560.96	182.56
561.12	173.20
561.29	245.76
561.45	117.03
561.61	196.60
561.78	344.06
561.94	220.01
562.11	229.37
562.27	154.48
562.44	227.03
562.60	212.99
562.77	245.76
562.93	215.33
563.10	187.24
563.26	205.97
563.42	184.90
563.59	215.33
563.75	250.44
563.92	257.46
564.08	173.20
564.24	187.24
564.41	271.50
564.57	102.98
564.74	154.48
564.90	234.05
565.07	161.50
565.23	194.26
565.39	173.20
565.56	184.90
565.72	159.16
565.88	229.37
566.05	238.73
566.21	173.20
566.38	208.31
566.54	203.63
566.70	154.48
566.87	238.73
567.03	177.88
567.19	215.33
567.36	149.79
567.52	217.67
567.68	217.67
567.85	184.90
568.01	191.92
568.17	220.01
568.34	212.99
568.50	231.71
568.66	170.86
568.83	271.50
568.99	131.07
569.15	217.67
569.32	170.86
569.48	201.29
569.64	154.48
569.81	177.88
569.97	180.22
570.13	58.51
570.30	203.63
570.46	212.99
570.62	135.75
570.78	177.88
570.95	135.75
571.11	177.88
571.27	273.84
571.43	147.45
571.60	243.42
571.76	112.35
571.92	168.52
572.09	121.71
572.25	198.95
572.41	145.11
572.57	189.58
572.74	201.29
572.90	273.84
573.06	133.41
573.22	194.26
573.38	217.67
573.55	283.20
573.71	297.25
573.87	140.43
574.03	196.60
574.20	245.76
574.36	170.86
574.52	142.77
574.68	201.29
574.84	161.50
575.01	234.05
575.17	191.92
575.33	227.03
575.49	194.26
575.65	313.63
575.82	175.54
575.98	210.65
576.14	217.67
576.30	222.35
576.46	147.45
576.62	210.65
576.79	126.39
576.95	259.80
577.11	161.50
577.27	147.45
577.43	217.67
577.59	252.78
577.75	236.39
577.92	168.52
578.08	156.82
578.24	205.97
578.40	161.50
578.56	245.76
578.72	215.33
578.88	271.50
579.04	166.18
579.21	168.52
579.37	161.50
579.53	121.71
579.69	241.08
579.85	184.90
580.01	245.76
580.17	196.60
580.33	177.88
580.49	196.60
580.65	250.44
580.82	184.90
580.98	194.26
581.14	189.58
581.30	269.16
581.46	210.65
581.62	220.01
581.78	147.45
581.94	222.35
582.10	175.54
582.26	107.66
582.42	180.22
582.58	198.95
582.74	259.80
582.90	212.99
583.06	182.56
583.22	170.86
583.38	245.76
583.54	180.22
583.70	266.82
583.86	297.25
584.02	215.33
584.18	168.52
584.34	149.79
584.50	156.82
584.66	212.99
584.82	234.05
584.98	245.76
585.14	175.54
585.30	215.33
585.46	180.22
585.62	149.79
585.78	229.37
585.94	210.65
586.10	194.26
586.26	189.58
586.42	273.84
586.58	187.24
586.74	184.90
586.90	147.45
587.06	271.50
587.22	245.76
587.38	220.01
587.54	212.99
587.70	292.57
587.86	224.69
588.02	189.58
588.18	177.88
588.34	173.20
588.49	142.77
588.65	140.43
588.81	184.90
588.97	147.45
589.13	152.13
589.29	114.69
589.45	191.92
589.61	166.18
589.77	168.52
589.93	102.98
590.08	231.71
590.24	159.16
590.40	222.35
590.56	248.10
590.72	152.13
590.88	168.52
591.04	257.46
591.20	180.22
591.35	215.33
591.51	138.09
591.67	175.54
591.83	154.48
591.99	177.88
592.15	189.58
592.31	220.01
592.46	212.99
592.62	266.82
592.78	124.05
592.94	173.20
593.10	173.20
593.26	180.22
593.41	201.29
593.57	241.08
593.73	187.24
593.89	147.45
594.05	149.79
594.20	159.16
594.36	194.26
594.52	166.18
594.68	175.54
594.84	280.86
594.99	266.82
595.15	189.58
595.31	170.86
595.47	229.37
595.62	135.75
595.78	184.90
595.94	138.09
596.10	234.05
596.25	180.22
596.41	210.65
596.57	187.24
596.73	196.60
596.88	180.22
597.04	245.76
597.20	100.64
597.36	182.56
597.51	175.54
597.67	117.03
597.83	208.31
597.99	236.39
598.14	198.95
598.30	229.37
598.46	262.14
598.61	217.67
598.77	180.22
598.93	133.41
599.09	196.60
599.24	173.20
599.40	327.68
599.56	180.22
599.71	168.52
599.87	201.29
600.03	222.35
600.18	152.13
600.34	208.31
600.50	117.03
600.65	126.39
600.81	135.75
600.97	187.24
601.12	154.48
601.28	182.56
601.44	255.12
601.59	72.56
601.75	135.75
601.91	107.66
602.06	93.62
602.22	224.69
602.37	184.90
602.53	91.28
602.69	159.16
602.84	159.16
603.00	163.84
603.16	215.33
603.31	189.58
603.47	220.01
603.62	222.35
603.78	163.84
603.94	308.95
604.09	93.62
604.25	119.37
604.40	145.11
604.56	128.73
604.71	159.16
604.87	191.92
605.03	154.48
605.18	205.97
605.34	248.10
605.49	215.33
605.65	135.75
605.80	128.73
605.96	175.54
606.12	114.69
606.27	173.20
606.43	175.54
606.58	184.90
606.74	259.80
606.89	257.46
607.05	220.01
607.20	203.63
607.36	224.69
607.51	191.92
607.67	227.03
607.82	180.22
607.98	255.12
608.13	145.11
608.29	238.73
608.44	201.29
608.60	224.69
608.75	252.78
608.91	212.99
609.06	182.56
609.22	196.60
609.37	238.73
609.53	217.67
609.68	147.45
609.84	177.88
609.99	180.22
610.15	224.69
610.30	140.43
610.46	257.46
610.61	266.82
610.76	187.24
610.92	252.78
611.07	337.04
611.23	269.16
611.38	301.93
611.54	212.99
611.69	245.76
611.84	245.76
612.00	201.29
612.15	271.50
612.31	203.63
612.46	217.67
612.62	234.05
612.77	250.44
612.92	245.76
613.08	245.76
613.23	215.33
613.39	177.88
613.54	238.73
613.69	245.76
613.85	227.03
614.00	182.56
614.15	203.63
614.31	187.24
614.46	212.99
614.62	236.39
614.77	210.65
614.92	229.37
615.08	175.54
615.23	184.90
615.38	205.97
615.54	217.67
615.69	184.90
615.84	198.95
616.00	163.84
616.15	191.92
616.30	133.41
616.46	140.43
616.61	140.43
616.76	184.90
616.92	203.63
617.07	133.41
617.22	119.37
617.37	180.22
617.53	166.18
617.68	117.03
617.83	187.24
617.99	205.97
618.14	205.97
618.29	189.58
618.45	182.56
618.60	234.05
618.75	156.82
618.90	184.90
619.06	128.73
619.21	147.45
619.36	231.71
619.51	215.33
619.67	201.29
619.82	110.01
619.97	168.52
620.12	236.39
620.28	196.60
620.43	163.84
620.58	170.86
620.73	149.79
620.89	159.16
621.04	198.95
621.19	173.20
621.34	81.92
621.49	177.88
621.65	215.33
621.80	126.39
621.95	173.20
622.10	145.11
622.25	98.30
622.41	198.95
622.56	229.37
622.71	224.69
622.86	191.92
623.01	60.85
623.16	159.16
623.32	177.88
623.47	194.26
623.62	112.35
623.77	170.86
623.92	119.37
624.07	133.41
624.23	191.92
624.38	177.88
624.53	208.31
624.68	175.54
624.83	196.60
624.98	205.97
625.13	131.07
625.29	124.05
625.44	234.05
625.59	191.92
625.74	222.35
625.89	191.92
626.04	173.20
626.19	168.52
626.34	170.86
626.49	154.48
626.65	170.86
626.80	212.99
626.95	91.28
627.10	81.92
627.25	163.84
627.40	208.31
627.55	215.33
627.70	121.71
627.85	142.77
628.00	180.22
628.15	191.92
628.30	177.88
628.45	93.62
628.60	140.43
628.76	121.71
628.91	140.43
629.06	131.07
629.21	201.29
629.36	222.35
629.51	91.28
629.66	170.86
629.81	133.41
629.96	114.69
630.11	196.60
630.26	110.01
630.41	166.18
630.56	229.37
630.71	208.31
630.86	124.05
631.01	100.64
631.16	105.32
631.31	184.90
631.46	128.73
631.61	191.92
631.76	163.84
631.91	114.69
632.06	173.20
632.21	147.45
632.36	154.48
632.51	222.35
632.66	135.75
632.81	187.24
632.96	168.52
633.10	163.84
633.25	161.50
633.40	189.58
633.55	182.56
633.70	121.71
633.85	166.18
634.00	161.50
634.15	252.78
634.30	170.86
634.45	117.03
634.60	173.20
634.75	163.84
634.90	168.52
635.05	131.07
635.19	149.79
635.34	154.48
635.49	175.54
635.64	198.95
635.79	133.41
635.94	156.82
636.09	177.88
636.24	175.54
636.39	102.98
636.53	142.77
636.68	159.16
636.83	184.90
636.98	156.82
637.13	175.54
637.28	142.77
637.43	191.92
637.57	152.13
637.72	189.58
637.87	201.29
638.02	189.58
638.17	88.94
638.32	74.90
638.46	166.18
638.61	198.95
638.76	128.73
638.91	194.26
639.06	133.41
639.20	110.01
639.35	248.10
639.50	107.66
639.65	194.26
639.80	91.28
639.94	147.45
640.09	210.65
640.24	180.22
640.39	135.75
640.54	102.98
640.68	112.35
640.83	131.07
640.98	107.66
641.13	159.16
641.27	175.54
641.42	161.50
641.57	166.18
641.72	191.92
641.86	105.32
642.01	191.92
642.16	205.97
642.31	133.41
642.45	210.65
642.60	95.96
642.75	191.92
642.90	241.08
643.04	182.56
643.19	166.18
643.34	212.99
643.48	138.09
643.63	133.41
643.78	194.26
643.93	140.43
644.07	175.54
644.22	175.54
644.37	124.05
644.51	161.50
644.66	259.80
644.81	170.86
644.95	166.18
645.10	100.64
645.25	124.05
645.39	135.75
645.54	180.22
645.69	152.13
645.83	182.56
645.98	262.14
646.13	198.95
646.27	236.39
646.42	138.09
646.57	110.01
646.71	170.86
646.86	147.45
647.00	177.88
647.15	154.48
647.30	112.35
647.44	166.18
647.59	131.07
647.74	119.37
647.88	98.30
648.03	121.71
648.17	154.48
648.32	53.83
648.47	110.01
648.61	147.45
648.76	72.56
648.90	194.26
649.05	191.92
649.20	163.84
649.34	177.88
649.49	117.03
649.63	196.60
649.78	140.43
649.92	124.05
650.07	114.69
650.21	138.09
650.36	149.79
650.51	121.71
650.65	154.48
650.80	187.24
650.94	112.35
651.09	121.71
651.23	53.83
651.38	138.09
651.52	100.64
651.67	98.30
651.81	135.75
651.96	294.91
652.10	210.65
652.25	138.09
652.39	131.07
652.54	105.32
652.68	124.05
652.83	198.95
652.97	152.13
653.12	147.45
653.26	152.13
653.41	196.60
653.55	112.35
653.70	88.94
653.84	117.03
653.99	124.05
654.13	86.60
654.27	95.96
654.42	105.32
654.56	154.48
654.71	210.65
654.85	154.48
655.00	79.58
655.14	93.62
655.29	119.37
655.43	65.54
655.57	161.50
655.72	191.92
655.86	196.60
656.01	154.48
656.15	112.35
656.30	163.84
656.44	93.62
656.58	86.60
656.73	175.54
656.87	149.79
657.01	131.07
657.16	154.48
657.30	182.56
657.45	152.13
657.59	222.35
657.73	168.52
657.88	170.86
658.02	184.90
658.16	114.69
658.31	86.60
658.45	198.95
658.60	159.16
658.74	210.65
658.88	166.18
659.03	84.26
659.17	142.77
659.31	224.69
659.46	147.45
659.60	140.43
659.74	154.48
659.89	205.97
660.03	208.31
660.17	170.86
660.32	95.96
660.46	182.56
660.60	149.79
660.74	182.56
660.89	145.11
661.03	107.66
661.17	100.64
661.32	177.88
661.46	60.85
661.60	86.60
661.74	189.58
661.89	107.66
662.03	175.54
662.17	205.97
662.31	262.14
662.46	152.13
662.60	159.16
662.74	128.73
662.88	145.11
663.03	149.79
663.17	138.09
663.31	173.20
663.45	191.92
663.60	102.98
663.74	67.88
663.88	126.39
664.02	156.82
664.17	142.77
664.31	166.18
664.45	124.05
664.59	107.66
664.73	138.09
664.88	124.05
665.02	128.73
665.16	138.09
665.30	196.60
665.44	128.73
665.59	187.24
665.73	93.62
665.87	107.66
666.01	121.71
666.15	114.69
666.29	51.49
666.44	191.92
666.58	189.58
666.72	105.32
666.86	159.16
667.00	88.94
667.14	198.95
667.28	121.71
667.43	107.66
667.57	149.79
667.71	142.77
667.85	126.39
667.99	168.52
668.13	121.71
668.27	142.77
668.41	100.64
668.56	126.39
668.70	182.56
668.84	159.16
668.98	126.39
669.12	102.98
669.26	124.05
669.40	154.48
669.54	110.01
669.68	142.77
669.82	84.26
669.96	187.24
670.10	112.35
670.25	149.79
670.39	140.43
670.53	98.30
670.67	126.39
670.81	124.05
670.95	154.48
671.09	145.11
671.23	177.88
671.37	138.09
671.51	95.96
671.65	154.48
671.79	156.82
671.93	117.03
672.07	152.13
672.21	180.22
672.35	140.43
672.49	86.60
672.63	145.11
672.77	121.71
672.91	112.35
673.05	177.88
673.19	173.20
673.33	93.62
673.47	198.95
673.61	156.82
673.75	100.64
673.89	110.01
674.03	117.03
674.17	105.32
674.31	46.81
674.45	79.58
674.59	173.20
674.73	145.11
674.87	135.75
675.01	140.43
675.15	44.47
675.29	173.20
675.43	126.39
675.56	156.82
675.70	203.63
675.84	135.75
675.98	84.26
676.12	112.35
676.26	105.32
676.40	140.43
676.54	194.26
676.68	58.51
676.82	124.05
676.96	140.43
677.10	37.45
677.23	119.37
677.37	95.96
677.51	152.13
677.65	173.20
677.79	119.37
677.93	114.69
678.07	131.07
678.21	154.48
678.34	135.75
678.48	163.84
678.62	222.35
678.76	107.66
678.90	196.60
679.04	107.66
679.18	154.48
679.31	77.24
679.45	135.75
679.59	191.92
679.73	170.86
679.87	93.62
680.00	112.35
680.14	100.64
680.28	107.66
680.42	126.39
680.56	114.69
680.70	51.49
680.83	175.54
680.97	74.90
681.11	170.86
681.25	135.75
681.39	128.73
681.52	149.79
681.66	133.41
681.80	154.48
681.94	177.88
682.07	170.86
682.21	147.45
682.35	128.73
682.49	51.49
682.62	203.63
682.76	121.71
682.90	140.43
683.04	138.09
683.17	147.45
683.31	95.96
683.45	42.13
683.59	98.30
683.72	117.03
683.86	191.92
684.00	124.05
684.13	81.92
684.27	168.52
684.41	121.71
684.55	102.98
684.68	147.45
684.82	79.58
684.96	107.66
685.09	156.82
685.23	84.26
685.37	81.92
685.50	163.84
685.64	105.32
685.78	170.86
685.91	147.45
686.05	177.88
686.19	147.45
686.32	133.41
686.46	105.32
686.60	112.35
686.73	152.13
686.87	81.92
687.01	44.47
687.14	63.19
687.28	63.19
687.42	4.68
687.55	126.39
687.69	159.16
687.82	105.32
687.96	37.45
688.10	112.35
688.23	117.03
688.37	117.03
688.50	210.65
688.64	133.41
688.78	156.82
688.91	67.88
689.05	86.60
689.18	114.69
689.32	53.83
689.46	128.73
689.59	100.64
689.73	121.71
689.86	102.98
690.00	72.56
690.13	53.83
690.27	110.01
690.41	156.82
690.54	126.39
690.68	91.28
690.81	112.35
690.95	105.32
691.08	77.24
691.22	88.94
691.35	100.64
691.49	133.41
691.62	159.16
691.76	98.30
691.89	135.75
692.03	88.94
692.16	107.66
692.30	128.73
692.43	124.05
692.57	72.56
692.70	74.90
692.84	117.03
692.97	107.66
693.11	84.26
693.24	152.13
693.38	32.77
693.51	124.05
693.65	175.54
693.78	105.32
693.92	74.90
694.05	138.09
694.19	67.88
694.32	77.24
694.45	21.06
694.59	42.13
694.72	79.58
694.86	119.37
694.99	163.84
695.13	131.07
695.26	91.28
695.39	152.13
695.53	133.41
695.66	58.51
695.80	163.84
695.93	131.07
696.07	51.49
696.20	88.94
696.33	95.96
696.47	154.48
696.60	128.73
696.73	145.11
696.87	107.66
697.00	121.71
697.14	131.07
697.27	168.52
697.40	196.60
697.54	135.75
697.67	102.98
697.80	140.43
697.94	175.54
698.07	58.51
698.21	161.50
698.34	131.07
698.47	110.01
698.61	84.26
698.74	107.66
698.87	79.58
699.01	124.05
699.14	152.13
699.27	152.13
699.40	191.92
699.54	60.85
699.67	56.17
699.80	81.92
699.94	105.32
700.07	114.69
700.20	37.45
700.34	159.16
700.47	114.69
700.60	126.39
700.73	35.11
700.87	93.62
701.00	35.11
701.13	131.07
701.26	112.35
701.40	147.45
701.53	46.81
701.66	60.85
701.79	121.71
701.93	149.79
702.06	126.39
702.19	88.94
702.32	91.28
702.46	215.33
702.59	81.92
702.72	42.13
702.85	133.41
702.99	121.71
703.12	131.07
703.25	70.22
703.38	110.01
703.51	124.05
703.65	32.77
703.78	95.96
703.91	170.86
704.04	168.52
704.17	86.60
704.31	107.66
704.44	53.83
704.57	131.07
704.70	152.13
704.83	58.51
704.96	77.24
705.10	93.62
705.23	72.56
>>>>>End Processed Spectral Data<<<<<
