SpectraSuite Data File
++++++++++++++++++++++++++++++++++++
Date: Fri Oct 04 11:51:04 GMT-05:00 2013
User: price-jones
Dark Spectrum Present: No
Reference Spectrum Present: No
Number of Sampled Component Spectra: 1
Spectrometers: USB2+H05261
Integration Time (usec): 100000 (USB2+H05261)
Spectra Averaged: 1 (USB2+H05261)
Boxcar Smoothing: 0 (USB2+H05261)
Correct for Electrical Dark: No (USB2+H05261)
Strobe/Lamp Enabled: No (USB2+H05261)
Correct for Detector Non-linearity: No (USB2+H05261)
Correct for Stray Light: No (USB2+H05261)
Number of Pixels in Processed Spectrum: 2048
>>>>>Begin Processed Spectral Data<<<<<
365.73	9.36
365.92	9.36
366.12	9.36
366.32	0.00
366.52	0.00
366.72	4.68
366.91	0.00
367.11	0.00
367.31	0.00
367.51	0.00
367.70	0.00
367.90	0.00
368.10	0.00
368.30	0.00
368.49	0.00
368.69	0.00
368.89	0.00
369.09	0.00
369.28	0.00
369.48	0.00
369.68	0.00
369.87	0.00
370.07	0.00
370.27	37.45
370.47	37.45
370.66	2.34
370.86	28.09
371.06	0.00
371.25	124.05
371.45	44.47
371.65	74.90
371.84	46.81
372.04	0.00
372.24	100.64
372.44	28.09
372.63	32.77
372.83	100.64
373.03	100.64
373.22	56.17
373.42	114.69
373.62	77.24
373.81	147.45
374.01	105.32
374.21	154.48
374.40	35.11
374.60	182.56
374.79	105.32
374.99	126.39
375.19	72.56
375.38	91.28
375.58	189.58
375.78	100.64
375.97	102.98
376.17	161.50
376.37	35.11
376.56	110.01
376.76	100.64
376.95	117.03
377.15	142.77
377.35	60.85
377.54	91.28
377.74	98.30
377.93	102.98
378.13	128.73
378.33	149.79
378.52	51.49
378.72	142.77
378.91	91.28
379.11	16.38
379.31	86.60
379.50	67.88
379.70	86.60
379.89	117.03
380.09	84.26
380.28	67.88
380.48	117.03
380.68	110.01
380.87	53.83
381.07	60.85
381.26	91.28
381.46	100.64
381.65	105.32
381.85	112.35
382.04	42.13
382.24	67.88
382.43	18.72
382.63	51.49
382.83	100.64
383.02	88.94
383.22	65.54
383.41	79.58
383.61	95.96
383.80	72.56
384.00	140.43
384.19	112.35
384.39	72.56
384.58	81.92
384.78	98.30
384.97	49.15
385.17	142.77
385.36	140.43
385.56	72.56
385.75	53.83
385.95	58.51
386.14	173.20
386.34	70.22
386.53	60.85
386.72	133.41
386.92	166.18
387.11	135.75
387.31	56.17
387.50	37.45
387.70	72.56
387.89	112.35
388.09	79.58
388.28	74.90
388.48	126.39
388.67	126.39
388.86	86.60
389.06	152.13
389.25	23.41
389.45	79.58
389.64	102.98
389.84	21.06
390.03	77.24
390.22	102.98
390.42	18.72
390.61	0.00
390.81	84.26
391.00	119.37
391.19	84.26
391.39	0.00
391.58	112.35
391.78	37.45
391.97	110.01
392.16	98.30
392.36	156.82
392.55	70.22
392.75	63.19
392.94	110.01
393.13	147.45
393.33	105.32
393.52	156.82
393.71	149.79
393.91	72.56
394.10	30.43
394.29	53.83
394.49	42.13
394.68	93.62
394.88	110.01
395.07	44.47
395.26	84.26
395.46	79.58
395.65	145.11
395.84	112.35
396.04	145.11
396.23	49.15
396.42	128.73
396.62	72.56
396.81	86.60
397.00	81.92
397.19	110.01
397.39	0.00
397.58	126.39
397.77	9.36
397.97	77.24
398.16	60.85
398.35	156.82
398.55	58.51
398.74	133.41
398.93	81.92
399.12	79.58
399.32	102.98
399.51	60.85
399.70	152.13
399.90	70.22
400.09	88.94
400.28	154.48
400.47	30.43
400.67	102.98
400.86	74.90
401.05	72.56
401.24	149.79
401.44	170.86
401.63	77.24
401.82	175.54
402.01	117.03
402.21	93.62
402.40	32.77
402.59	102.98
402.78	159.16
402.97	28.09
403.17	4.68
403.36	35.11
403.55	140.43
403.74	124.05
403.93	110.01
404.13	147.45
404.32	100.64
404.51	91.28
404.70	58.51
404.89	16.38
405.09	138.09
405.28	112.35
405.47	74.90
405.66	63.19
405.85	154.48
406.05	74.90
406.24	63.19
406.43	112.35
406.62	159.16
406.81	133.41
407.00	81.92
407.20	107.66
407.39	152.13
407.58	74.90
407.77	65.54
407.96	107.66
408.15	145.11
408.34	152.13
408.54	100.64
408.73	102.98
408.92	131.07
409.11	133.41
409.30	135.75
409.49	46.81
409.68	131.07
409.87	100.64
410.07	100.64
410.26	95.96
410.45	98.30
410.64	58.51
410.83	107.66
411.02	56.17
411.21	95.96
411.40	198.95
411.59	100.64
411.78	77.24
411.98	126.39
412.17	77.24
412.36	95.96
412.55	93.62
412.74	119.37
412.93	95.96
413.12	37.45
413.31	149.79
413.50	44.47
413.69	135.75
413.88	142.77
414.07	189.58
414.26	60.85
414.45	107.66
414.64	114.69
414.83	105.32
415.02	107.66
415.22	147.45
415.41	140.43
415.60	102.98
415.79	135.75
415.98	128.73
416.17	152.13
416.36	21.06
416.55	149.79
416.74	95.96
416.93	117.03
417.12	124.05
417.31	46.81
417.50	114.69
417.69	170.86
417.88	81.92
418.07	98.30
418.26	163.84
418.45	110.01
418.64	112.35
418.83	135.75
419.02	133.41
419.21	138.09
419.39	135.75
419.58	128.73
419.77	46.81
419.96	156.82
420.15	184.90
420.34	98.30
420.53	112.35
420.72	121.71
420.91	128.73
421.10	65.54
421.29	74.90
421.48	128.73
421.67	100.64
421.86	81.92
422.05	107.66
422.24	128.73
422.43	114.69
422.61	74.90
422.80	152.13
422.99	117.03
423.18	105.32
423.37	149.79
423.56	93.62
423.75	70.22
423.94	58.51
424.13	105.32
424.32	133.41
424.50	70.22
424.69	159.16
424.88	180.22
425.07	168.52
425.26	95.96
425.45	117.03
425.64	131.07
425.83	107.66
426.01	138.09
426.20	142.77
426.39	140.43
426.58	74.90
426.77	145.11
426.96	142.77
427.15	124.05
427.33	91.28
427.52	147.45
427.71	56.17
427.90	91.28
428.09	133.41
428.28	133.41
428.46	93.62
428.65	138.09
428.84	121.71
429.03	142.77
429.22	119.37
429.40	135.75
429.59	86.60
429.78	102.98
429.97	114.69
430.16	72.56
430.34	100.64
430.53	131.07
430.72	44.47
430.91	156.82
431.10	67.88
431.28	131.07
431.47	142.77
431.66	107.66
431.85	119.37
432.03	95.96
432.22	198.95
432.41	138.09
432.60	161.50
432.79	91.28
432.97	100.64
433.16	60.85
433.35	135.75
433.54	93.62
433.72	65.54
433.91	138.09
434.10	126.39
434.28	95.96
434.47	159.16
434.66	121.71
434.85	149.79
435.03	121.71
435.22	93.62
435.41	117.03
435.59	168.52
435.78	124.05
435.97	110.01
436.16	131.07
436.34	98.30
436.53	128.73
436.72	159.16
436.90	168.52
437.09	77.24
437.28	67.88
437.46	119.37
437.65	60.85
437.84	119.37
438.02	84.26
438.21	114.69
438.40	53.83
438.58	163.84
438.77	86.60
438.96	95.96
439.14	102.98
439.33	105.32
439.52	91.28
439.70	117.03
439.89	105.32
440.08	124.05
440.26	88.94
440.45	198.95
440.63	184.90
440.82	126.39
441.01	86.60
441.19	145.11
441.38	166.18
441.57	114.69
441.75	156.82
441.94	168.52
442.12	91.28
442.31	135.75
442.50	161.50
442.68	81.92
442.87	93.62
443.05	154.48
443.24	112.35
443.43	126.39
443.61	105.32
443.80	140.43
443.98	142.77
444.17	161.50
444.35	88.94
444.54	88.94
444.73	67.88
444.91	63.19
445.10	93.62
445.28	170.86
445.47	131.07
445.65	110.01
445.84	114.69
446.02	149.79
446.21	175.54
446.39	124.05
446.58	114.69
446.77	121.71
446.95	215.33
447.14	110.01
447.32	168.52
447.51	159.16
447.69	133.41
447.88	166.18
448.06	126.39
448.25	60.85
448.43	156.82
448.62	114.69
448.80	184.90
448.99	180.22
449.17	114.69
449.36	74.90
449.54	110.01
449.73	79.58
449.91	215.33
450.10	110.01
450.28	212.99
450.46	138.09
450.65	187.24
450.83	161.50
451.02	121.71
451.20	107.66
451.39	98.30
451.57	159.16
451.76	67.88
451.94	166.18
452.13	140.43
452.31	170.86
452.49	119.37
452.68	107.66
452.86	170.86
453.05	180.22
453.23	147.45
453.42	70.22
453.60	60.85
453.78	110.01
453.97	77.24
454.15	114.69
454.34	74.90
454.52	119.37
454.70	88.94
454.89	187.24
455.07	191.92
455.26	173.20
455.44	114.69
455.62	95.96
455.81	124.05
455.99	212.99
456.17	107.66
456.36	88.94
456.54	77.24
456.73	35.11
456.91	79.58
457.09	145.11
457.28	198.95
457.46	121.71
457.64	182.56
457.83	98.30
458.01	121.71
458.19	182.56
458.38	212.99
458.56	121.71
458.74	84.26
458.93	140.43
459.11	152.13
459.29	79.58
459.48	142.77
459.66	98.30
459.84	147.45
460.03	159.16
460.21	93.62
460.39	133.41
460.57	175.54
460.76	60.85
460.94	182.56
461.12	175.54
461.31	131.07
461.49	114.69
461.67	133.41
461.85	124.05
462.04	147.45
462.22	538.32
462.40	161.50
462.59	238.73
462.77	156.82
462.95	98.30
463.13	65.54
463.32	114.69
463.50	184.90
463.68	119.37
463.86	196.60
464.05	180.22
464.23	152.13
464.41	149.79
464.59	121.71
464.78	117.03
464.96	112.35
465.14	98.30
465.32	191.92
465.50	177.88
465.69	119.37
465.87	114.69
466.05	168.52
466.23	84.26
466.41	154.48
466.60	173.20
466.78	102.98
466.96	152.13
467.14	131.07
467.32	217.67
467.51	107.66
467.69	168.52
467.87	135.75
468.05	138.09
468.23	145.11
468.41	131.07
468.60	189.58
468.78	88.94
468.96	168.52
469.14	86.60
469.32	93.62
469.50	112.35
469.69	177.88
469.87	119.37
470.05	138.09
470.23	159.16
470.41	72.56
470.59	124.05
470.77	175.54
470.95	187.24
471.14	154.48
471.32	100.64
471.50	191.92
471.68	77.24
471.86	187.24
472.04	163.84
472.22	140.43
472.40	133.41
472.58	67.88
472.77	95.96
472.95	128.73
473.13	149.79
473.31	161.50
473.49	121.71
473.67	100.64
473.85	131.07
474.03	121.71
474.21	170.86
474.39	187.24
474.57	145.11
474.75	117.03
474.93	53.83
475.12	112.35
475.30	138.09
475.48	154.48
475.66	105.32
475.84	156.82
476.02	170.86
476.20	170.86
476.38	135.75
476.56	257.46
476.74	138.09
476.92	201.29
477.10	196.60
477.28	105.32
477.46	152.13
477.64	177.88
477.82	182.56
478.00	147.45
478.18	81.92
478.36	177.88
478.54	215.33
478.72	168.52
478.90	182.56
479.08	152.13
479.26	184.90
479.44	131.07
479.62	65.54
479.80	170.86
479.98	170.86
480.16	147.45
480.34	161.50
480.52	156.82
480.70	173.20
480.88	95.96
481.06	102.98
481.24	184.90
481.41	156.82
481.59	173.20
481.77	147.45
481.95	187.24
482.13	149.79
482.31	191.92
482.49	194.26
482.67	227.03
482.85	175.54
483.03	255.12
483.21	182.56
483.39	191.92
483.57	133.41
483.74	163.84
483.92	74.90
484.10	196.60
484.28	182.56
484.46	248.10
484.64	184.90
484.82	133.41
485.00	135.75
485.18	166.18
485.35	161.50
485.53	145.11
485.71	205.97
485.89	81.92
486.07	166.18
486.25	173.20
486.43	133.41
486.61	117.03
486.78	212.99
486.96	161.50
487.14	112.35
487.32	67.88
487.50	131.07
487.68	138.09
487.85	184.90
488.03	147.45
488.21	187.24
488.39	173.20
488.57	252.78
488.75	170.86
488.92	458.74
489.10	191.92
489.28	222.35
489.46	163.84
489.64	184.90
489.81	173.20
489.99	168.52
490.17	112.35
490.35	215.33
490.53	154.48
490.70	77.24
490.88	154.48
491.06	112.35
491.24	145.11
491.41	229.37
491.59	212.99
491.77	128.73
491.95	63.19
492.13	140.43
492.30	138.09
492.48	138.09
492.66	173.20
492.84	168.52
493.01	217.67
493.19	166.18
493.37	194.26
493.54	154.48
493.72	175.54
493.90	173.20
494.08	229.37
494.25	159.16
494.43	163.84
494.61	198.95
494.79	208.31
494.96	182.56
495.14	166.18
495.32	212.99
495.49	152.13
495.67	212.99
495.85	198.95
496.02	149.79
496.20	177.88
496.38	220.01
496.55	156.82
496.73	138.09
496.91	135.75
497.09	205.97
497.26	231.71
497.44	201.29
497.62	159.16
497.79	159.16
497.97	110.01
498.14	271.50
498.32	161.50
498.50	98.30
498.67	212.99
498.85	250.44
499.03	180.22
499.20	217.67
499.38	198.95
499.56	198.95
499.73	152.13
499.91	210.65
500.08	166.18
500.26	220.01
500.44	234.05
500.61	196.60
500.79	133.41
500.97	145.11
501.14	255.12
501.32	266.82
501.49	140.43
501.67	140.43
501.84	248.10
502.02	177.88
502.20	252.78
502.37	184.90
502.55	208.31
502.72	238.73
502.90	220.01
503.07	131.07
503.25	215.33
503.43	182.56
503.60	159.16
503.78	262.14
503.95	135.75
504.13	161.50
504.30	173.20
504.48	156.82
504.65	220.01
504.83	201.29
505.01	201.29
505.18	152.13
505.36	112.35
505.53	117.03
505.71	189.58
505.88	320.65
506.06	133.41
506.23	236.39
506.41	184.90
506.58	212.99
506.76	149.79
506.93	121.71
507.11	189.58
507.28	208.31
507.46	184.90
507.63	203.63
507.81	138.09
507.98	147.45
508.16	196.60
508.33	269.16
508.50	147.45
508.68	152.13
508.85	217.67
509.03	152.13
509.20	241.08
509.38	220.01
509.55	266.82
509.73	205.97
509.90	273.84
510.08	154.48
510.25	173.20
510.42	196.60
510.60	175.54
510.77	229.37
510.95	175.54
511.12	250.44
511.30	215.33
511.47	203.63
511.64	287.89
511.82	187.24
511.99	227.03
512.17	166.18
512.34	88.94
512.51	180.22
512.69	184.90
512.86	194.26
513.04	196.60
513.21	184.90
513.38	229.37
513.56	222.35
513.73	215.33
513.90	135.75
514.08	156.82
514.25	203.63
514.43	173.20
514.60	201.29
514.77	215.33
514.95	227.03
515.12	198.95
515.29	187.24
515.47	175.54
515.64	147.45
515.81	234.05
515.99	215.33
516.16	149.79
516.33	152.13
516.51	156.82
516.68	149.79
516.85	166.18
517.03	191.92
517.20	177.88
517.37	168.52
517.54	173.20
517.72	182.56
517.89	231.71
518.06	205.97
518.24	243.42
518.41	205.97
518.58	234.05
518.75	205.97
518.93	191.92
519.10	166.18
519.27	135.75
519.45	161.50
519.62	154.48
519.79	236.39
519.96	205.97
520.14	194.26
520.31	220.01
520.48	177.88
520.65	241.08
520.83	248.10
521.00	201.29
521.17	252.78
521.34	177.88
521.52	212.99
521.69	220.01
521.86	163.84
522.03	180.22
522.20	271.50
522.38	191.92
522.55	152.13
522.72	187.24
522.89	196.60
523.07	250.44
523.24	212.99
523.41	180.22
523.58	184.90
523.75	138.09
523.92	175.54
524.10	212.99
524.27	173.20
524.44	102.98
524.61	311.29
524.78	241.08
524.96	184.90
525.13	147.45
525.30	224.69
525.47	152.13
525.64	166.18
525.81	241.08
525.98	220.01
526.16	187.24
526.33	135.75
526.50	154.48
526.67	220.01
526.84	175.54
527.01	131.07
527.18	184.90
527.36	208.31
527.53	182.56
527.70	234.05
527.87	205.97
528.04	217.67
528.21	217.67
528.38	147.45
528.55	196.60
528.72	222.35
528.89	259.80
529.07	262.14
529.24	208.31
529.41	276.18
529.58	191.92
529.75	149.79
529.92	180.22
530.09	203.63
530.26	184.90
530.43	229.37
530.60	299.59
530.77	205.97
530.94	238.73
531.11	215.33
531.28	163.84
531.46	142.77
531.63	205.97
531.80	234.05
531.97	222.35
532.14	229.37
532.31	180.22
532.48	220.01
532.65	301.93
532.82	182.56
532.99	194.26
533.16	184.90
533.33	203.63
533.50	203.63
533.67	201.29
533.84	236.39
534.01	191.92
534.18	201.29
534.35	201.29
534.52	276.18
534.69	292.57
534.86	224.69
535.03	250.44
535.20	220.01
535.37	196.60
535.54	224.69
535.71	224.69
535.88	210.65
536.05	201.29
536.22	180.22
536.38	135.75
536.55	217.67
536.72	227.03
536.89	243.42
537.06	205.97
537.23	234.05
537.40	161.50
537.57	112.35
537.74	161.50
537.91	245.76
538.08	222.35
538.25	212.99
538.42	243.42
538.59	248.10
538.75	222.35
538.92	210.65
539.09	259.80
539.26	203.63
539.43	212.99
539.60	196.60
539.77	215.33
539.94	220.01
540.11	189.58
540.28	259.80
540.44	191.92
540.61	222.35
540.78	156.82
540.95	119.37
541.12	229.37
541.29	187.24
541.46	187.24
541.62	285.55
541.79	234.05
541.96	215.33
542.13	191.92
542.30	203.63
542.47	245.76
542.63	248.10
542.80	231.71
542.97	196.60
543.14	182.56
543.31	231.71
543.48	224.69
543.64	231.71
543.81	212.99
543.98	257.46
544.15	166.18
544.32	184.90
544.48	205.97
544.65	191.92
544.82	175.54
544.99	184.90
545.16	273.84
545.32	241.08
545.49	203.63
545.66	208.31
545.83	191.92
546.00	215.33
546.16	257.46
546.33	245.76
546.50	229.37
546.67	262.14
546.83	220.01
547.00	243.42
547.17	135.75
547.34	163.84
547.50	210.65
547.67	187.24
547.84	191.92
548.00	252.78
548.17	220.01
548.34	273.84
548.51	245.76
548.67	184.90
548.84	238.73
549.01	264.48
549.18	159.16
549.34	236.39
549.51	245.76
549.68	208.31
549.84	205.97
550.01	163.84
550.18	332.36
550.34	252.78
550.51	175.54
550.68	271.50
550.84	210.65
551.01	191.92
551.18	175.54
551.34	187.24
551.51	243.42
551.68	182.56
551.84	276.18
552.01	222.35
552.18	201.29
552.34	196.60
552.51	278.52
552.68	201.29
552.84	236.39
553.01	152.13
553.18	210.65
553.34	271.50
553.51	292.57
553.67	250.44
553.84	283.20
554.01	224.69
554.17	224.69
554.34	205.97
554.51	210.65
554.67	255.12
554.84	250.44
555.00	276.18
555.17	198.95
555.33	255.12
555.50	191.92
555.67	131.07
555.83	138.09
556.00	128.73
556.16	257.46
556.33	138.09
556.50	212.99
556.66	217.67
556.83	170.86
556.99	189.58
557.16	255.12
557.32	222.35
557.49	177.88
557.65	189.58
557.82	234.05
557.98	182.56
558.15	147.45
558.32	145.11
558.48	224.69
558.65	117.03
558.81	234.05
558.98	100.64
559.14	217.67
559.31	203.63
559.47	102.98
559.64	147.45
559.80	222.35
559.97	194.26
560.13	205.97
560.30	210.65
560.46	224.69
560.63	159.16
560.79	135.75
560.96	156.82
561.12	135.75
561.29	142.77
561.45	180.22
561.61	152.13
561.78	231.71
561.94	196.60
562.11	180.22
562.27	184.90
562.44	278.52
562.60	306.61
562.77	224.69
562.93	255.12
563.10	248.10
563.26	182.56
563.42	292.57
563.59	250.44
563.75	203.63
563.92	198.95
564.08	236.39
564.24	198.95
564.41	231.71
564.57	173.20
564.74	201.29
564.90	131.07
565.07	180.22
565.23	231.71
565.39	238.73
565.56	138.09
565.72	198.95
565.88	187.24
566.05	163.84
566.21	84.26
566.38	168.52
566.54	259.80
566.70	131.07
566.87	222.35
567.03	168.52
567.19	194.26
567.36	257.46
567.52	159.16
567.68	168.52
567.85	236.39
568.01	227.03
568.17	138.09
568.34	147.45
568.50	119.37
568.66	184.90
568.83	301.93
568.99	170.86
569.15	205.97
569.32	173.20
569.48	187.24
569.64	191.92
569.81	189.58
569.97	173.20
570.13	229.37
570.30	161.50
570.46	229.37
570.62	131.07
570.78	107.66
570.95	224.69
571.11	238.73
571.27	205.97
571.43	142.77
571.60	231.71
571.76	198.95
571.92	173.20
572.09	156.82
572.25	208.31
572.41	159.16
572.57	180.22
572.74	196.60
572.90	212.99
573.06	205.97
573.22	159.16
573.38	198.95
573.55	301.93
573.71	255.12
573.87	156.82
574.03	196.60
574.20	201.29
574.36	229.37
574.52	222.35
574.68	147.45
574.84	194.26
575.01	208.31
575.17	266.82
575.33	182.56
575.49	264.48
575.65	201.29
575.82	217.67
575.98	215.33
576.14	112.35
576.30	201.29
576.46	135.75
576.62	154.48
576.79	212.99
576.95	229.37
577.11	142.77
577.27	184.90
577.43	238.73
577.59	208.31
577.75	163.84
577.92	152.13
578.08	201.29
578.24	182.56
578.40	215.33
578.56	138.09
578.72	227.03
578.88	231.71
579.04	189.58
579.21	205.97
579.37	121.71
579.53	168.52
579.69	259.80
579.85	189.58
580.01	170.86
580.17	170.86
580.33	147.45
580.49	170.86
580.65	234.05
580.82	187.24
580.98	203.63
581.14	184.90
581.30	264.48
581.46	177.88
581.62	191.92
581.78	168.52
581.94	308.95
582.10	145.11
582.26	194.26
582.42	173.20
582.58	135.75
582.74	250.44
582.90	212.99
583.06	177.88
583.22	196.60
583.38	86.60
583.54	152.13
583.70	238.73
583.86	198.95
584.02	182.56
584.18	224.69
584.34	229.37
584.50	259.80
584.66	128.73
584.82	191.92
584.98	180.22
585.14	180.22
585.30	252.78
585.46	152.13
585.62	175.54
585.78	166.18
585.94	161.50
586.10	180.22
586.26	156.82
586.42	191.92
586.58	198.95
586.74	145.11
586.90	166.18
587.06	187.24
587.22	135.75
587.38	175.54
587.54	215.33
587.70	245.76
587.86	152.13
588.02	135.75
588.18	140.43
588.34	184.90
588.49	173.20
588.65	198.95
588.81	189.58
588.97	95.96
589.13	168.52
589.29	161.50
589.45	208.31
589.61	184.90
589.77	201.29
589.93	128.73
590.08	161.50
590.24	196.60
590.40	138.09
590.56	145.11
590.72	191.92
590.88	147.45
591.04	159.16
591.20	135.75
591.35	163.84
591.51	220.01
591.67	140.43
591.83	159.16
591.99	212.99
592.15	161.50
592.31	208.31
592.46	81.92
592.62	140.43
592.78	149.79
592.94	177.88
593.10	145.11
593.26	142.77
593.41	238.73
593.57	198.95
593.73	217.67
593.89	159.16
594.05	208.31
594.20	205.97
594.36	222.35
594.52	88.94
594.68	173.20
594.84	198.95
594.99	259.80
595.15	203.63
595.31	250.44
595.47	243.42
595.62	222.35
595.78	187.24
595.94	205.97
596.10	140.43
596.25	124.05
596.41	236.39
596.57	180.22
596.73	205.97
596.88	154.48
597.04	187.24
597.20	175.54
597.36	170.86
597.51	198.95
597.67	198.95
597.83	152.13
597.99	191.92
598.14	110.01
598.30	243.42
598.46	161.50
598.61	220.01
598.77	201.29
598.93	170.86
599.09	112.35
599.24	156.82
599.40	224.69
599.56	166.18
599.71	175.54
599.87	187.24
600.03	142.77
600.18	203.63
600.34	280.86
600.50	180.22
600.65	175.54
600.81	133.41
600.97	227.03
601.12	149.79
601.28	184.90
601.44	166.18
601.59	159.16
601.75	161.50
601.91	156.82
602.06	170.86
602.22	264.48
602.37	231.71
602.53	145.11
602.69	212.99
602.84	166.18
603.00	196.60
603.16	168.52
603.31	147.45
603.47	166.18
603.62	198.95
603.78	182.56
603.94	220.01
604.09	194.26
604.25	194.26
604.40	180.22
604.56	227.03
604.71	135.75
604.87	217.67
605.03	231.71
605.18	152.13
605.34	163.84
605.49	215.33
605.65	163.84
605.80	117.03
605.96	208.31
606.12	191.92
606.27	184.90
606.43	142.77
606.58	133.41
606.74	163.84
606.89	121.71
607.05	220.01
607.20	124.05
607.36	217.67
607.51	161.50
607.67	201.29
607.82	119.37
607.98	189.58
608.13	166.18
608.29	163.84
608.44	222.35
608.60	177.88
608.75	184.90
608.91	189.58
609.06	222.35
609.22	205.97
609.37	140.43
609.53	215.33
609.68	166.18
609.84	107.66
609.99	149.79
610.15	177.88
610.30	152.13
610.46	170.86
610.61	175.54
610.76	187.24
610.92	102.98
611.07	173.20
611.23	229.37
611.38	191.92
611.54	138.09
611.69	152.13
611.84	166.18
612.00	180.22
612.15	177.88
612.31	142.77
612.46	196.60
612.62	128.73
612.77	138.09
612.92	229.37
613.08	170.86
613.23	163.84
613.39	234.05
613.54	173.20
613.69	222.35
613.85	131.07
614.00	145.11
614.15	154.48
614.31	140.43
614.46	222.35
614.62	131.07
614.77	208.31
614.92	124.05
615.08	161.50
615.23	128.73
615.38	210.65
615.54	163.84
615.69	147.45
615.84	117.03
616.00	175.54
616.15	210.65
616.30	154.48
616.46	170.86
616.61	138.09
616.76	201.29
616.92	168.52
617.07	217.67
617.22	208.31
617.37	161.50
617.53	159.16
617.68	163.84
617.83	222.35
617.99	255.12
618.14	152.13
618.29	142.77
618.45	175.54
618.60	196.60
618.75	182.56
618.90	184.90
619.06	189.58
619.21	224.69
619.36	173.20
619.51	114.69
619.67	173.20
619.82	198.95
619.97	205.97
620.12	152.13
620.28	145.11
620.43	154.48
620.58	159.16
620.73	163.84
620.89	187.24
621.04	224.69
621.19	318.31
621.34	152.13
621.49	142.77
621.65	145.11
621.80	187.24
621.95	166.18
622.10	191.92
622.25	191.92
622.41	191.92
622.56	152.13
622.71	180.22
622.86	191.92
623.01	163.84
623.16	161.50
623.32	161.50
623.47	182.56
623.62	138.09
623.77	133.41
623.92	173.20
624.07	121.71
624.23	112.35
624.38	220.01
624.53	117.03
624.68	184.90
624.83	173.20
624.98	168.52
625.13	168.52
625.29	135.75
625.44	126.39
625.59	156.82
625.74	131.07
625.89	191.92
626.04	161.50
626.19	184.90
626.34	124.05
626.49	166.18
626.65	133.41
626.80	166.18
626.95	201.29
627.10	107.66
627.25	191.92
627.40	149.79
627.55	161.50
627.70	159.16
627.85	156.82
628.00	124.05
628.15	86.60
628.30	201.29
628.45	63.19
628.60	149.79
628.76	191.92
628.91	112.35
629.06	102.98
629.21	149.79
629.36	175.54
629.51	131.07
629.66	98.30
629.81	140.43
629.96	131.07
630.11	81.92
630.26	117.03
630.41	184.90
630.56	138.09
630.71	131.07
630.86	145.11
631.01	114.69
631.16	152.13
631.31	194.26
631.46	182.56
631.61	170.86
631.76	205.97
631.91	166.18
632.06	140.43
632.21	222.35
632.36	184.90
632.51	86.60
632.66	117.03
632.81	159.16
632.96	107.66
633.10	145.11
633.25	210.65
633.40	126.39
633.55	128.73
633.70	112.35
633.85	112.35
634.00	121.71
634.15	187.24
634.30	147.45
634.45	152.13
634.60	107.66
634.75	173.20
634.90	156.82
635.05	91.28
635.19	163.84
635.34	117.03
635.49	154.48
635.64	98.30
635.79	147.45
635.94	121.71
636.09	166.18
636.24	156.82
636.39	133.41
636.53	147.45
636.68	86.60
636.83	154.48
636.98	175.54
637.13	81.92
637.28	168.52
637.43	117.03
637.57	161.50
637.72	182.56
637.87	159.16
638.02	166.18
638.17	159.16
638.32	208.31
638.46	208.31
638.61	177.88
638.76	156.82
638.91	117.03
639.06	154.48
639.20	128.73
639.35	210.65
639.50	203.63
639.65	241.08
639.80	168.52
639.94	124.05
640.09	191.92
640.24	182.56
640.39	117.03
640.54	126.39
640.68	173.20
640.83	126.39
640.98	212.99
641.13	95.96
641.27	180.22
641.42	110.01
641.57	227.03
641.72	112.35
641.86	107.66
642.01	138.09
642.16	135.75
642.31	154.48
642.45	163.84
642.60	154.48
642.75	159.16
642.90	119.37
643.04	102.98
643.19	156.82
643.34	93.62
643.48	81.92
643.63	210.65
643.78	212.99
643.93	175.54
644.07	184.90
644.22	166.18
644.37	100.64
644.51	98.30
644.66	119.37
644.81	131.07
644.95	133.41
645.10	133.41
645.25	102.98
645.39	163.84
645.54	170.86
645.69	231.71
645.83	173.20
645.98	189.58
646.13	135.75
646.27	159.16
646.42	110.01
646.57	135.75
646.71	138.09
646.86	72.56
647.00	196.60
647.15	203.63
647.30	121.71
647.44	58.51
647.59	119.37
647.74	98.30
647.88	91.28
648.03	107.66
648.17	163.84
648.32	114.69
648.47	133.41
648.61	175.54
648.76	133.41
648.90	189.58
649.05	170.86
649.20	102.98
649.34	107.66
649.49	152.13
649.63	102.98
649.78	145.11
649.92	180.22
650.07	177.88
650.21	138.09
650.36	173.20
650.51	105.32
650.65	189.58
650.80	159.16
650.94	135.75
651.09	138.09
651.23	23.41
651.38	173.20
651.52	175.54
651.67	177.88
651.81	74.90
651.96	243.42
652.10	107.66
652.25	110.01
652.39	133.41
652.54	156.82
652.68	168.52
652.83	107.66
652.97	138.09
653.12	154.48
653.26	166.18
653.41	95.96
653.55	163.84
653.70	124.05
653.84	86.60
653.99	119.37
654.13	74.90
654.27	124.05
654.42	154.48
654.56	184.90
654.71	194.26
654.85	53.83
655.00	156.82
655.14	140.43
655.29	105.32
655.43	177.88
655.57	112.35
655.72	117.03
655.86	205.97
656.01	91.28
656.15	56.17
656.30	191.92
656.44	110.01
656.58	100.64
656.73	194.26
656.87	156.82
657.01	126.39
657.16	215.33
657.30	161.50
657.45	170.86
657.59	100.64
657.73	212.99
657.88	220.01
658.02	224.69
658.16	112.35
658.31	173.20
658.45	163.84
658.60	65.54
658.74	177.88
658.88	95.96
659.03	51.49
659.17	145.11
659.31	84.26
659.46	107.66
659.60	180.22
659.74	166.18
659.89	126.39
660.03	184.90
660.17	154.48
660.32	142.77
660.46	117.03
660.60	51.49
660.74	156.82
660.89	154.48
661.03	74.90
661.17	100.64
661.32	119.37
661.46	133.41
661.60	95.96
661.74	189.58
661.89	154.48
662.03	107.66
662.17	175.54
662.31	102.98
662.46	194.26
662.60	166.18
662.74	168.52
662.88	259.80
663.03	140.43
663.17	135.75
663.31	124.05
663.45	173.20
663.60	107.66
663.74	84.26
663.88	140.43
664.02	100.64
664.17	86.60
664.31	119.37
664.45	156.82
664.59	105.32
664.73	149.79
664.88	161.50
665.02	60.85
665.16	166.18
665.30	152.13
665.44	133.41
665.59	187.24
665.73	173.20
665.87	145.11
666.01	205.97
666.15	147.45
666.29	156.82
666.44	128.73
666.58	231.71
666.72	147.45
666.86	140.43
667.00	168.52
667.14	114.69
667.28	138.09
667.43	131.07
667.57	140.43
667.71	241.08
667.85	152.13
667.99	133.41
668.13	105.32
668.27	126.39
668.41	180.22
668.56	145.11
668.70	140.43
668.84	95.96
668.98	114.69
669.12	105.32
669.26	149.79
669.40	98.30
669.54	159.16
669.68	149.79
669.82	133.41
669.96	142.77
670.10	131.07
670.25	166.18
670.39	91.28
670.53	102.98
670.67	208.31
670.81	102.98
670.95	128.73
671.09	117.03
671.23	156.82
671.37	133.41
671.51	159.16
671.65	156.82
671.79	88.94
671.93	182.56
672.07	166.18
672.21	142.77
672.35	124.05
672.49	175.54
672.63	161.50
672.77	84.26
672.91	117.03
673.05	152.13
673.19	63.19
673.33	58.51
673.47	117.03
673.61	142.77
673.75	91.28
673.89	72.56
674.03	110.01
674.17	156.82
674.31	117.03
674.45	91.28
674.59	133.41
674.73	142.77
674.87	161.50
675.01	159.16
675.15	124.05
675.29	119.37
675.43	124.05
675.56	159.16
675.70	173.20
675.84	114.69
675.98	100.64
676.12	133.41
676.26	163.84
676.40	72.56
676.54	74.90
676.68	147.45
676.82	161.50
676.96	95.96
677.10	145.11
677.23	70.22
677.37	117.03
677.51	149.79
677.65	215.33
677.79	147.45
677.93	145.11
678.07	149.79
678.21	110.01
678.34	100.64
678.48	121.71
678.62	170.86
678.76	44.47
678.90	67.88
679.04	91.28
679.18	98.30
679.31	67.88
679.45	110.01
679.59	124.05
679.73	142.77
679.87	44.47
680.00	173.20
680.14	77.24
680.28	201.29
680.42	121.71
680.56	128.73
680.70	98.30
680.83	173.20
680.97	63.19
681.11	77.24
681.25	112.35
681.39	72.56
681.52	159.16
681.66	114.69
681.80	58.51
681.94	128.73
682.07	81.92
682.21	159.16
682.35	105.32
682.49	131.07
682.62	191.92
682.76	124.05
682.90	177.88
683.04	180.22
683.17	117.03
683.31	110.01
683.45	149.79
683.59	180.22
683.72	147.45
683.86	163.84
684.00	105.32
684.13	163.84
684.27	128.73
684.41	156.82
684.55	184.90
684.68	105.32
684.82	95.96
684.96	77.24
685.09	117.03
685.23	49.15
685.37	114.69
685.50	182.56
685.64	84.26
685.78	112.35
685.91	112.35
686.05	191.92
686.19	117.03
686.32	173.20
686.46	100.64
686.60	112.35
686.73	114.69
686.87	95.96
687.01	32.77
687.14	84.26
687.28	93.62
687.42	86.60
687.55	91.28
687.69	161.50
687.82	110.01
687.96	51.49
688.10	107.66
688.23	138.09
688.37	173.20
688.50	98.30
688.64	149.79
688.78	105.32
688.91	126.39
689.05	131.07
689.18	35.11
689.32	98.30
689.46	42.13
689.59	140.43
689.73	175.54
689.86	4.68
690.00	86.60
690.13	49.15
690.27	84.26
690.41	65.54
690.54	105.32
690.68	105.32
690.81	100.64
690.95	23.41
691.08	121.71
691.22	81.92
691.35	49.15
691.49	93.62
691.62	53.83
691.76	63.19
691.89	112.35
692.03	126.39
692.16	112.35
692.30	77.24
692.43	119.37
692.57	58.51
692.70	63.19
692.84	105.32
692.97	95.96
693.11	140.43
693.24	105.32
693.38	95.96
693.51	121.71
693.65	65.54
693.78	60.85
693.92	91.28
694.05	105.32
694.19	28.09
694.32	135.75
694.45	60.85
694.59	86.60
694.72	72.56
694.86	133.41
694.99	126.39
695.13	131.07
695.26	93.62
695.39	72.56
695.53	131.07
695.66	128.73
695.80	131.07
695.93	56.17
696.07	114.69
696.20	107.66
696.33	93.62
696.47	93.62
696.60	102.98
696.73	86.60
696.87	60.85
697.00	173.20
697.14	142.77
697.27	128.73
697.40	145.11
697.54	88.94
697.67	53.83
697.80	112.35
697.94	49.15
698.07	88.94
698.21	114.69
698.34	124.05
698.47	53.83
698.61	0.00
698.74	95.96
698.87	142.77
699.01	79.58
699.14	56.17
699.27	126.39
699.40	156.82
699.54	63.19
699.67	63.19
699.80	42.13
699.94	37.45
700.07	81.92
700.20	112.35
700.34	100.64
700.47	79.58
700.60	72.56
700.73	84.26
700.87	117.03
701.00	51.49
701.13	114.69
701.26	117.03
701.40	105.32
701.53	77.24
701.66	58.51
701.79	161.50
701.93	100.64
702.06	156.82
702.19	91.28
702.32	114.69
702.46	74.90
702.59	72.56
702.72	91.28
702.85	63.19
702.99	63.19
703.12	117.03
703.25	126.39
703.38	105.32
703.51	159.16
703.65	21.06
703.78	142.77
703.91	95.96
704.04	105.32
704.17	110.01
704.31	44.47
704.44	14.04
704.57	98.30
704.70	173.20
704.83	121.71
704.96	70.22
705.10	91.28
705.23	112.35
>>>>>End Processed Spectral Data<<<<<
