SpectraSuite Data File
++++++++++++++++++++++++++++++++++++
Date: Fri Oct 04 11:47:21 GMT-05:00 2013
User: price-jones
Dark Spectrum Present: No
Reference Spectrum Present: No
Number of Sampled Component Spectra: 1
Spectrometers: USB2+H05261
Integration Time (usec): 100000 (USB2+H05261)
Spectra Averaged: 1 (USB2+H05261)
Boxcar Smoothing: 0 (USB2+H05261)
Correct for Electrical Dark: No (USB2+H05261)
Strobe/Lamp Enabled: No (USB2+H05261)
Correct for Detector Non-linearity: No (USB2+H05261)
Correct for Stray Light: No (USB2+H05261)
Number of Pixels in Processed Spectrum: 2048
>>>>>Begin Processed Spectral Data<<<<<
365.73	63.19
365.92	63.19
366.12	63.19
366.32	0.00
366.52	0.00
366.72	0.00
366.91	0.00
367.11	0.00
367.31	0.00
367.51	0.00
367.70	0.00
367.90	0.00
368.10	2.34
368.30	0.00
368.49	0.00
368.69	0.00
368.89	0.00
369.09	0.00
369.28	0.00
369.48	0.00
369.68	0.00
369.87	0.00
370.07	0.00
370.27	84.26
370.47	0.00
370.66	7.02
370.86	88.94
371.06	72.56
371.25	98.30
371.45	28.09
371.65	51.49
371.84	88.94
372.04	49.15
372.24	98.30
372.44	102.98
372.63	98.30
372.83	46.81
373.03	14.04
373.22	98.30
373.42	142.77
373.62	138.09
373.81	56.17
374.01	124.05
374.21	142.77
374.40	28.09
374.60	117.03
374.79	46.81
374.99	77.24
375.19	65.54
375.38	98.30
375.58	60.85
375.78	168.52
375.97	119.37
376.17	88.94
376.37	112.35
376.56	126.39
376.76	117.03
376.95	70.22
377.15	177.88
377.35	126.39
377.54	88.94
377.74	95.96
377.93	72.56
378.13	128.73
378.33	154.48
378.52	170.86
378.72	112.35
378.91	63.19
379.11	58.51
379.31	110.01
379.50	53.83
379.70	112.35
379.89	86.60
380.09	53.83
380.28	84.26
380.48	93.62
380.68	46.81
380.87	23.41
381.07	23.41
381.26	126.39
381.46	149.79
381.65	175.54
381.85	86.60
382.04	37.45
382.24	105.32
382.43	32.77
382.63	0.00
382.83	95.96
383.02	175.54
383.22	208.31
383.41	91.28
383.61	152.13
383.80	117.03
384.00	58.51
384.19	86.60
384.39	95.96
384.58	88.94
384.78	119.37
384.97	14.04
385.17	84.26
385.36	119.37
385.56	91.28
385.75	35.11
385.95	175.54
386.14	100.64
386.34	100.64
386.53	46.81
386.72	114.69
386.92	112.35
387.11	142.77
387.31	98.30
387.50	112.35
387.70	63.19
387.89	74.90
388.09	58.51
388.28	81.92
388.48	58.51
388.67	166.18
388.86	145.11
389.06	28.09
389.25	135.75
389.45	72.56
389.64	72.56
389.84	119.37
390.03	84.26
390.22	86.60
390.42	79.58
390.61	46.81
390.81	37.45
391.00	102.98
391.19	121.71
391.39	88.94
391.58	133.41
391.78	100.64
391.97	16.38
392.16	93.62
392.36	74.90
392.55	74.90
392.75	44.47
392.94	110.01
393.13	86.60
393.33	0.00
393.52	88.94
393.71	140.43
393.91	42.13
394.10	72.56
394.29	14.04
394.49	107.66
394.68	133.41
394.88	49.15
395.07	156.82
395.26	79.58
395.46	74.90
395.65	184.90
395.84	117.03
396.04	196.60
396.23	117.03
396.42	42.13
396.62	39.79
396.81	114.69
397.00	84.26
397.19	93.62
397.39	93.62
397.58	117.03
397.77	114.69
397.97	142.77
398.16	114.69
398.35	105.32
398.55	180.22
398.74	105.32
398.93	44.47
399.12	21.06
399.32	72.56
399.51	84.26
399.70	35.11
399.90	117.03
400.09	168.52
400.28	107.66
400.47	124.05
400.67	72.56
400.86	72.56
401.05	65.54
401.24	65.54
401.44	210.65
401.63	58.51
401.82	100.64
402.01	145.11
402.21	98.30
402.40	114.69
402.59	126.39
402.78	70.22
402.97	114.69
403.17	119.37
403.36	110.01
403.55	86.60
403.74	72.56
403.93	93.62
404.13	74.90
404.32	88.94
404.51	93.62
404.70	81.92
404.89	140.43
405.09	98.30
405.28	117.03
405.47	91.28
405.66	173.20
405.85	224.69
406.05	145.11
406.24	100.64
406.43	184.90
406.62	65.54
406.81	163.84
407.00	147.45
407.20	67.88
407.39	117.03
407.58	98.30
407.77	91.28
407.96	128.73
408.15	152.13
408.34	154.48
408.54	152.13
408.73	91.28
408.92	53.83
409.11	95.96
409.30	142.77
409.49	35.11
409.68	79.58
409.87	131.07
410.07	114.69
410.26	175.54
410.45	107.66
410.64	140.43
410.83	131.07
411.02	72.56
411.21	98.30
411.40	147.45
411.59	121.71
411.78	161.50
411.98	98.30
412.17	124.05
412.36	84.26
412.55	63.19
412.74	81.92
412.93	163.84
413.12	133.41
413.31	126.39
413.50	110.01
413.69	168.52
413.88	37.45
414.07	107.66
414.26	98.30
414.45	110.01
414.64	74.90
414.83	124.05
415.02	128.73
415.22	208.31
415.41	156.82
415.60	124.05
415.79	133.41
415.98	147.45
416.17	56.17
416.36	135.75
416.55	81.92
416.74	156.82
416.93	194.26
417.12	25.75
417.31	114.69
417.50	152.13
417.69	166.18
417.88	117.03
418.07	84.26
418.26	63.19
418.45	135.75
418.64	133.41
418.83	95.96
419.02	53.83
419.21	140.43
419.39	191.92
419.58	14.04
419.77	60.85
419.96	168.52
420.15	91.28
420.34	114.69
420.53	119.37
420.72	182.56
420.91	93.62
421.10	100.64
421.29	131.07
421.48	86.60
421.67	133.41
421.86	58.51
422.05	93.62
422.24	124.05
422.43	142.77
422.61	72.56
422.80	74.90
422.99	166.18
423.18	114.69
423.37	133.41
423.56	107.66
423.75	140.43
423.94	102.98
424.13	163.84
424.32	117.03
424.50	93.62
424.69	32.77
424.88	177.88
425.07	149.79
425.26	124.05
425.45	81.92
425.64	70.22
425.83	126.39
426.01	173.20
426.20	189.58
426.39	133.41
426.58	98.30
426.77	138.09
426.96	140.43
427.15	112.35
427.33	166.18
427.52	112.35
427.71	114.69
427.90	93.62
428.09	91.28
428.28	58.51
428.46	149.79
428.65	168.52
428.84	84.26
429.03	119.37
429.22	126.39
429.40	63.19
429.59	110.01
429.78	177.88
429.97	126.39
430.16	107.66
430.34	93.62
430.53	44.47
430.72	194.26
430.91	182.56
431.10	95.96
431.28	60.85
431.47	138.09
431.66	110.01
431.85	196.60
432.03	166.18
432.22	152.13
432.41	91.28
432.60	119.37
432.79	74.90
432.97	149.79
433.16	91.28
433.35	124.05
433.54	79.58
433.72	166.18
433.91	152.13
434.10	44.47
434.28	147.45
434.47	128.73
434.66	77.24
434.85	95.96
435.03	112.35
435.22	166.18
435.41	224.69
435.59	140.43
435.78	210.65
435.97	95.96
436.16	175.54
436.34	86.60
436.53	119.37
436.72	163.84
436.90	156.82
437.09	161.50
437.28	98.30
437.46	170.86
437.65	121.71
437.84	166.18
438.02	72.56
438.21	102.98
438.40	121.71
438.58	117.03
438.77	126.39
438.96	135.75
439.14	187.24
439.33	95.96
439.52	147.45
439.70	105.32
439.89	182.56
440.08	149.79
440.26	88.94
440.45	159.16
440.63	117.03
440.82	201.29
441.01	117.03
441.19	102.98
441.38	152.13
441.57	159.16
441.75	138.09
441.94	203.63
442.12	110.01
442.31	98.30
442.50	107.66
442.68	114.69
442.87	117.03
443.05	121.71
443.24	119.37
443.43	147.45
443.61	114.69
443.80	149.79
443.98	72.56
444.17	131.07
444.35	180.22
444.54	95.96
444.73	194.26
444.91	147.45
445.10	159.16
445.28	152.13
445.47	124.05
445.65	217.67
445.84	154.48
446.02	220.01
446.21	166.18
446.39	175.54
446.58	135.75
446.77	154.48
446.95	175.54
447.14	154.48
447.32	135.75
447.51	114.69
447.69	114.69
447.88	74.90
448.06	170.86
448.25	149.79
448.43	84.26
448.62	91.28
448.80	138.09
448.99	248.10
449.17	173.20
449.36	173.20
449.54	173.20
449.73	133.41
449.91	212.99
450.10	173.20
450.28	203.63
450.46	149.79
450.65	112.35
450.83	110.01
451.02	128.73
451.20	168.52
451.39	60.85
451.57	84.26
451.76	124.05
451.94	105.32
452.13	217.67
452.31	222.35
452.49	201.29
452.68	180.22
452.86	180.22
453.05	238.73
453.23	9.36
453.42	107.66
453.60	145.11
453.78	98.30
453.97	156.82
454.15	154.48
454.34	135.75
454.52	95.96
454.70	184.90
454.89	147.45
455.07	124.05
455.26	86.60
455.44	56.17
455.62	98.30
455.81	182.56
455.99	168.52
456.17	191.92
456.36	133.41
456.54	147.45
456.73	184.90
456.91	173.20
457.09	98.30
457.28	117.03
457.46	170.86
457.64	117.03
457.83	135.75
458.01	110.01
458.19	140.43
458.38	217.67
458.56	147.45
458.74	102.98
458.93	124.05
459.11	142.77
459.29	142.77
459.48	119.37
459.66	196.60
459.84	170.86
460.03	250.44
460.21	173.20
460.39	93.62
460.57	119.37
460.76	102.98
460.94	138.09
461.12	175.54
461.31	149.79
461.49	159.16
461.67	156.82
461.85	145.11
462.04	74.90
462.22	645.99
462.40	107.66
462.59	170.86
462.77	86.60
462.95	173.20
463.13	142.77
463.32	222.35
463.50	88.94
463.68	161.50
463.86	177.88
464.05	138.09
464.23	175.54
464.41	198.95
464.59	156.82
464.78	128.73
464.96	46.81
465.14	135.75
465.32	67.88
465.50	135.75
465.69	163.84
465.87	156.82
466.05	145.11
466.23	131.07
466.41	112.35
466.60	107.66
466.78	114.69
466.96	255.12
467.14	145.11
467.32	184.90
467.51	149.79
467.69	182.56
467.87	245.76
468.05	194.26
468.23	156.82
468.41	220.01
468.60	142.77
468.78	117.03
468.96	102.98
469.14	77.24
469.32	184.90
469.50	168.52
469.69	154.48
469.87	135.75
470.05	147.45
470.23	140.43
470.41	110.01
470.59	138.09
470.77	93.62
470.95	163.84
471.14	91.28
471.32	128.73
471.50	102.98
471.68	145.11
471.86	79.58
472.04	170.86
472.22	140.43
472.40	114.69
472.58	133.41
472.77	110.01
472.95	95.96
473.13	173.20
473.31	128.73
473.49	128.73
473.67	168.52
473.85	168.52
474.03	152.13
474.21	147.45
474.39	121.71
474.57	168.52
474.75	198.95
474.93	133.41
475.12	70.22
475.30	182.56
475.48	180.22
475.66	152.13
475.84	140.43
476.02	84.26
476.20	222.35
476.38	156.82
476.56	276.18
476.74	126.39
476.92	166.18
477.10	72.56
477.28	131.07
477.46	93.62
477.64	168.52
477.82	133.41
478.00	100.64
478.18	124.05
478.36	128.73
478.54	74.90
478.72	175.54
478.90	145.11
479.08	161.50
479.26	133.41
479.44	77.24
479.62	187.24
479.80	126.39
479.98	88.94
480.16	135.75
480.34	177.88
480.52	161.50
480.70	100.64
480.88	100.64
481.06	56.17
481.24	147.45
481.41	149.79
481.59	217.67
481.77	128.73
481.95	184.90
482.13	224.69
482.31	124.05
482.49	166.18
482.67	126.39
482.85	208.31
483.03	163.84
483.21	187.24
483.39	173.20
483.57	142.77
483.74	238.73
483.92	187.24
484.10	133.41
484.28	205.97
484.46	220.01
484.64	81.92
484.82	187.24
485.00	205.97
485.18	98.30
485.35	131.07
485.53	184.90
485.71	168.52
485.89	84.26
486.07	105.32
486.25	250.44
486.43	133.41
486.61	88.94
486.78	117.03
486.96	149.79
487.14	84.26
487.32	191.92
487.50	163.84
487.68	189.58
487.85	128.73
488.03	128.73
488.21	224.69
488.39	121.71
488.57	177.88
488.75	205.97
488.92	433.00
489.10	170.86
489.28	173.20
489.46	196.60
489.64	149.79
489.81	180.22
489.99	166.18
490.17	131.07
490.35	227.03
490.53	236.39
490.70	110.01
490.88	175.54
491.06	201.29
491.24	182.56
491.41	203.63
491.59	163.84
491.77	173.20
491.95	220.01
492.13	215.33
492.30	170.86
492.48	205.97
492.66	231.71
492.84	161.50
493.01	241.08
493.19	112.35
493.37	252.78
493.54	166.18
493.72	147.45
493.90	184.90
494.08	205.97
494.25	187.24
494.43	161.50
494.61	189.58
494.79	105.32
494.96	128.73
495.14	163.84
495.32	222.35
495.49	180.22
495.67	166.18
495.85	170.86
496.02	194.26
496.20	114.69
496.38	170.86
496.55	147.45
496.73	215.33
496.91	187.24
497.09	166.18
497.26	189.58
497.44	194.26
497.62	180.22
497.79	184.90
497.97	175.54
498.14	170.86
498.32	203.63
498.50	175.54
498.67	142.77
498.85	121.71
499.03	105.32
499.20	173.20
499.38	166.18
499.56	161.50
499.73	220.01
499.91	138.09
500.08	243.42
500.26	184.90
500.44	95.96
500.61	196.60
500.79	184.90
500.97	182.56
501.14	184.90
501.32	203.63
501.49	201.29
501.67	168.52
501.84	128.73
502.02	135.75
502.20	112.35
502.37	201.29
502.55	121.71
502.72	114.69
502.90	252.78
503.07	203.63
503.25	191.92
503.43	110.01
503.60	201.29
503.78	231.71
503.95	166.18
504.13	147.45
504.30	259.80
504.48	252.78
504.65	128.73
504.83	166.18
505.01	117.03
505.18	149.79
505.36	142.77
505.53	88.94
505.71	149.79
505.88	259.80
506.06	168.52
506.23	189.58
506.41	236.39
506.58	212.99
506.76	191.92
506.93	177.88
507.11	112.35
507.28	81.92
507.46	142.77
507.63	126.39
507.81	128.73
507.98	126.39
508.16	114.69
508.33	201.29
508.50	248.10
508.68	196.60
508.85	285.55
509.03	161.50
509.20	110.01
509.38	287.89
509.55	250.44
509.73	210.65
509.90	290.23
510.08	177.88
510.25	173.20
510.42	175.54
510.60	236.39
510.77	126.39
510.95	191.92
511.12	208.31
511.30	269.16
511.47	241.08
511.64	257.46
511.82	180.22
511.99	212.99
512.17	250.44
512.34	210.65
512.51	182.56
512.69	135.75
512.86	245.76
513.04	184.90
513.21	201.29
513.38	140.43
513.56	257.46
513.73	131.07
513.90	74.90
514.08	173.20
514.25	182.56
514.43	177.88
514.60	175.54
514.77	173.20
514.95	170.86
515.12	194.26
515.29	259.80
515.47	208.31
515.64	180.22
515.81	215.33
515.99	159.16
516.16	170.86
516.33	224.69
516.51	149.79
516.68	145.11
516.85	156.82
517.03	234.05
517.20	243.42
517.37	175.54
517.54	238.73
517.72	131.07
517.89	117.03
518.06	203.63
518.24	285.55
518.41	285.55
518.58	189.58
518.75	119.37
518.93	173.20
519.10	215.33
519.27	224.69
519.45	259.80
519.62	170.86
519.79	255.12
519.96	196.60
520.14	156.82
520.31	210.65
520.48	182.56
520.65	184.90
520.83	161.50
521.00	257.46
521.17	215.33
521.34	159.16
521.52	191.92
521.69	173.20
521.86	180.22
522.03	205.97
522.20	245.76
522.38	180.22
522.55	241.08
522.72	189.58
522.89	210.65
523.07	203.63
523.24	177.88
523.41	177.88
523.58	187.24
523.75	156.82
523.92	180.22
524.10	205.97
524.27	201.29
524.44	208.31
524.61	205.97
524.78	173.20
524.96	243.42
525.13	208.31
525.30	198.95
525.47	269.16
525.64	217.67
525.81	220.01
525.98	175.54
526.16	121.71
526.33	135.75
526.50	205.97
526.67	212.99
526.84	180.22
527.01	161.50
527.18	217.67
527.36	175.54
527.53	191.92
527.70	229.37
527.87	145.11
528.04	227.03
528.21	229.37
528.38	168.52
528.55	184.90
528.72	229.37
528.89	208.31
529.07	191.92
529.24	161.50
529.41	203.63
529.58	269.16
529.75	231.71
529.92	196.60
530.09	163.84
530.26	266.82
530.43	241.08
530.60	177.88
530.77	175.54
530.94	198.95
531.11	175.54
531.28	273.84
531.46	138.09
531.63	217.67
531.80	201.29
531.97	205.97
532.14	168.52
532.31	194.26
532.48	168.52
532.65	163.84
532.82	100.64
532.99	238.73
533.16	196.60
533.33	210.65
533.50	208.31
533.67	140.43
533.84	177.88
534.01	194.26
534.18	173.20
534.35	168.52
534.52	187.24
534.69	325.33
534.86	191.92
535.03	187.24
535.20	184.90
535.37	177.88
535.54	210.65
535.71	241.08
535.88	182.56
536.05	224.69
536.22	264.48
536.38	142.77
536.55	217.67
536.72	252.78
536.89	184.90
537.06	184.90
537.23	182.56
537.40	194.26
537.57	191.92
537.74	250.44
537.91	238.73
538.08	248.10
538.25	194.26
538.42	149.79
538.59	156.82
538.75	238.73
538.92	161.50
539.09	170.86
539.26	217.67
539.43	245.76
539.60	173.20
539.77	208.31
539.94	255.12
540.11	252.78
540.28	243.42
540.44	182.56
540.61	231.71
540.78	269.16
540.95	191.92
541.12	220.01
541.29	156.82
541.46	266.82
541.62	173.20
541.79	161.50
541.96	159.16
542.13	140.43
542.30	131.07
542.47	189.58
542.63	257.46
542.80	212.99
542.97	156.82
543.14	217.67
543.31	196.60
543.48	145.11
543.64	187.24
543.81	173.20
543.98	147.45
544.15	140.43
544.32	93.62
544.48	149.79
544.65	159.16
544.82	196.60
544.99	231.71
545.16	287.89
545.32	184.90
545.49	220.01
545.66	245.76
545.83	187.24
546.00	142.77
546.16	173.20
546.33	203.63
546.50	173.20
546.67	250.44
546.83	180.22
547.00	245.76
547.17	161.50
547.34	187.24
547.50	234.05
547.67	229.37
547.84	159.16
548.00	203.63
548.17	154.48
548.34	196.60
548.51	220.01
548.67	259.80
548.84	201.29
549.01	245.76
549.18	163.84
549.34	238.73
549.51	224.69
549.68	156.82
549.84	140.43
550.01	182.56
550.18	299.59
550.34	278.52
550.51	229.37
550.68	332.36
550.84	217.67
551.01	159.16
551.18	208.31
551.34	210.65
551.51	161.50
551.68	131.07
551.84	217.67
552.01	175.54
552.18	149.79
552.34	145.11
552.51	208.31
552.68	273.84
552.84	215.33
553.01	208.31
553.18	191.92
553.34	196.60
553.51	133.41
553.67	278.52
553.84	292.57
554.01	191.92
554.17	194.26
554.34	135.75
554.51	243.42
554.67	252.78
554.84	187.24
555.00	222.35
555.17	212.99
555.33	222.35
555.50	212.99
555.67	229.37
555.83	180.22
556.00	215.33
556.16	442.36
556.33	126.39
556.50	163.84
556.66	191.92
556.83	180.22
556.99	175.54
557.16	215.33
557.32	205.97
557.49	184.90
557.65	201.29
557.82	215.33
557.98	208.31
558.15	198.95
558.32	243.42
558.48	255.12
558.65	110.01
558.81	124.05
558.98	168.52
559.14	217.67
559.31	140.43
559.47	156.82
559.64	161.50
559.80	184.90
559.97	259.80
560.13	189.58
560.30	133.41
560.46	215.33
560.63	215.33
560.79	248.10
560.96	152.13
561.12	168.52
561.29	184.90
561.45	245.76
561.61	250.44
561.78	311.29
561.94	220.01
562.11	259.80
562.27	187.24
562.44	173.20
562.60	189.58
562.77	215.33
562.93	318.31
563.10	217.67
563.26	236.39
563.42	147.45
563.59	212.99
563.75	128.73
563.92	236.39
564.08	182.56
564.24	201.29
564.41	241.08
564.57	142.77
564.74	161.50
564.90	212.99
565.07	182.56
565.23	243.42
565.39	198.95
565.56	170.86
565.72	184.90
565.88	201.29
566.05	234.05
566.21	212.99
566.38	224.69
566.54	182.56
566.70	163.84
566.87	175.54
567.03	177.88
567.19	161.50
567.36	189.58
567.52	128.73
567.68	110.01
567.85	145.11
568.01	147.45
568.17	156.82
568.34	142.77
568.50	220.01
568.66	203.63
568.83	201.29
568.99	205.97
569.15	231.71
569.32	140.43
569.48	156.82
569.64	187.24
569.81	203.63
569.97	163.84
570.13	156.82
570.30	140.43
570.46	224.69
570.62	215.33
570.78	156.82
570.95	156.82
571.11	196.60
571.27	217.67
571.43	210.65
571.60	212.99
571.76	161.50
571.92	224.69
572.09	128.73
572.25	198.95
572.41	145.11
572.57	117.03
572.74	266.82
572.90	159.16
573.06	252.78
573.22	173.20
573.38	243.42
573.55	243.42
573.71	208.31
573.87	198.95
574.03	177.88
574.20	119.37
574.36	227.03
574.52	147.45
574.68	196.60
574.84	194.26
575.01	175.54
575.17	252.78
575.33	220.01
575.49	194.26
575.65	205.97
575.82	273.84
575.98	285.55
576.14	161.50
576.30	194.26
576.46	196.60
576.62	248.10
576.79	189.58
576.95	234.05
577.11	191.92
577.27	173.20
577.43	168.52
577.59	245.76
577.75	255.12
577.92	124.05
578.08	175.54
578.24	128.73
578.40	182.56
578.56	285.55
578.72	269.16
578.88	159.16
579.04	180.22
579.21	198.95
579.37	189.58
579.53	205.97
579.69	212.99
579.85	196.60
580.01	198.95
580.17	152.13
580.33	191.92
580.49	210.65
580.65	220.01
580.82	163.84
580.98	138.09
581.14	152.13
581.30	205.97
581.46	149.79
581.62	215.33
581.78	163.84
581.94	198.95
582.10	140.43
582.26	201.29
582.42	191.92
582.58	184.90
582.74	203.63
582.90	184.90
583.06	248.10
583.22	205.97
583.38	149.79
583.54	177.88
583.70	203.63
583.86	182.56
584.02	184.90
584.18	250.44
584.34	170.86
584.50	184.90
584.66	196.60
584.82	182.56
584.98	215.33
585.14	262.14
585.30	264.48
585.46	147.45
585.62	135.75
585.78	119.37
585.94	175.54
586.10	175.54
586.26	166.18
586.42	231.71
586.58	161.50
586.74	245.76
586.90	154.48
587.06	161.50
587.22	208.31
587.38	159.16
587.54	124.05
587.70	173.20
587.86	184.90
588.02	112.35
588.18	149.79
588.34	215.33
588.49	166.18
588.65	114.69
588.81	128.73
588.97	133.41
589.13	182.56
589.29	156.82
589.45	227.03
589.61	208.31
589.77	173.20
589.93	161.50
590.08	168.52
590.24	182.56
590.40	142.77
590.56	166.18
590.72	163.84
590.88	154.48
591.04	161.50
591.20	161.50
591.35	227.03
591.51	166.18
591.67	166.18
591.83	175.54
591.99	163.84
592.15	212.99
592.31	154.48
592.46	142.77
592.62	217.67
592.78	152.13
592.94	135.75
593.10	243.42
593.26	170.86
593.41	177.88
593.57	133.41
593.73	212.99
593.89	215.33
594.05	220.01
594.20	135.75
594.36	184.90
594.52	124.05
594.68	201.29
594.84	245.76
594.99	170.86
595.15	152.13
595.31	210.65
595.47	208.31
595.62	86.60
595.78	173.20
595.94	98.30
596.10	184.90
596.25	145.11
596.41	180.22
596.57	173.20
596.73	168.52
596.88	187.24
597.04	135.75
597.20	159.16
597.36	166.18
597.51	203.63
597.67	105.32
597.83	135.75
597.99	262.14
598.14	152.13
598.30	159.16
598.46	156.82
598.61	215.33
598.77	205.97
598.93	138.09
599.09	126.39
599.24	187.24
599.40	187.24
599.56	142.77
599.71	135.75
599.87	194.26
600.03	110.01
600.18	191.92
600.34	184.90
600.50	149.79
600.65	177.88
600.81	248.10
600.97	175.54
601.12	131.07
601.28	217.67
601.44	161.50
601.59	147.45
601.75	156.82
601.91	201.29
602.06	173.20
602.22	161.50
602.37	215.33
602.53	156.82
602.69	212.99
602.84	217.67
603.00	112.35
603.16	182.56
603.31	149.79
603.47	189.58
603.62	114.69
603.78	229.37
603.94	100.64
604.09	138.09
604.25	159.16
604.40	227.03
604.56	131.07
604.71	147.45
604.87	128.73
605.03	145.11
605.18	145.11
605.34	248.10
605.49	177.88
605.65	182.56
605.80	175.54
605.96	187.24
606.12	194.26
606.27	196.60
606.43	173.20
606.58	170.86
606.74	194.26
606.89	145.11
607.05	142.77
607.20	175.54
607.36	152.13
607.51	140.43
607.67	196.60
607.82	231.71
607.98	147.45
608.13	173.20
608.29	135.75
608.44	166.18
608.60	168.52
608.75	234.05
608.91	166.18
609.06	154.48
609.22	208.31
609.37	187.24
609.53	173.20
609.68	166.18
609.84	191.92
609.99	124.05
610.15	152.13
610.30	198.95
610.46	220.01
610.61	149.79
610.76	224.69
610.92	198.95
611.07	107.66
611.23	250.44
611.38	231.71
611.54	166.18
611.69	156.82
611.84	152.13
612.00	175.54
612.15	184.90
612.31	161.50
612.46	140.43
612.62	166.18
612.77	245.76
612.92	280.86
613.08	259.80
613.23	159.16
613.39	128.73
613.54	231.71
613.69	163.84
613.85	140.43
614.00	159.16
614.15	177.88
614.31	67.88
614.46	163.84
614.62	191.92
614.77	182.56
614.92	112.35
615.08	166.18
615.23	198.95
615.38	98.30
615.54	168.52
615.69	187.24
615.84	140.43
616.00	133.41
616.15	131.07
616.30	196.60
616.46	241.08
616.61	170.86
616.76	184.90
616.92	133.41
617.07	140.43
617.22	133.41
617.37	152.13
617.53	194.26
617.68	166.18
617.83	128.73
617.99	220.01
618.14	266.82
618.29	222.35
618.45	194.26
618.60	159.16
618.75	189.58
618.90	145.11
619.06	201.29
619.21	189.58
619.36	168.52
619.51	220.01
619.67	212.99
619.82	149.79
619.97	173.20
620.12	191.92
620.28	135.75
620.43	149.79
620.58	149.79
620.73	205.97
620.89	142.77
621.04	177.88
621.19	227.03
621.34	166.18
621.49	173.20
621.65	124.05
621.80	100.64
621.95	168.52
622.10	175.54
622.25	142.77
622.41	117.03
622.56	212.99
622.71	140.43
622.86	152.13
623.01	170.86
623.16	175.54
623.32	126.39
623.47	93.62
623.62	138.09
623.77	224.69
623.92	166.18
624.07	126.39
624.23	215.33
624.38	91.28
624.53	182.56
624.68	138.09
624.83	194.26
624.98	269.16
625.13	133.41
625.29	142.77
625.44	128.73
625.59	117.03
625.74	159.16
625.89	241.08
626.04	110.01
626.19	163.84
626.34	187.24
626.49	189.58
626.65	133.41
626.80	173.20
626.95	168.52
627.10	175.54
627.25	294.91
627.40	124.05
627.55	236.39
627.70	142.77
627.85	107.66
628.00	95.96
628.15	128.73
628.30	128.73
628.45	117.03
628.60	161.50
628.76	133.41
628.91	248.10
629.06	126.39
629.21	173.20
629.36	210.65
629.51	191.92
629.66	65.54
629.81	182.56
629.96	191.92
630.11	161.50
630.26	203.63
630.41	159.16
630.56	112.35
630.71	180.22
630.86	145.11
631.01	142.77
631.16	124.05
631.31	135.75
631.46	159.16
631.61	173.20
631.76	100.64
631.91	86.60
632.06	208.31
632.21	173.20
632.36	121.71
632.51	126.39
632.66	248.10
632.81	138.09
632.96	42.13
633.10	95.96
633.25	215.33
633.40	177.88
633.55	124.05
633.70	217.67
633.85	238.73
634.00	147.45
634.15	161.50
634.30	152.13
634.45	156.82
634.60	110.01
634.75	119.37
634.90	182.56
635.05	140.43
635.19	142.77
635.34	147.45
635.49	100.64
635.64	95.96
635.79	133.41
635.94	166.18
636.09	177.88
636.24	93.62
636.39	205.97
636.53	114.69
636.68	166.18
636.83	140.43
636.98	180.22
637.13	84.26
637.28	98.30
637.43	149.79
637.57	124.05
637.72	198.95
637.87	189.58
638.02	149.79
638.17	159.16
638.32	184.90
638.46	152.13
638.61	147.45
638.76	112.35
638.91	147.45
639.06	154.48
639.20	163.84
639.35	234.05
639.50	98.30
639.65	201.29
639.80	198.95
639.94	126.39
640.09	173.20
640.24	205.97
640.39	156.82
640.54	147.45
640.68	93.62
640.83	168.52
640.98	212.99
641.13	145.11
641.27	119.37
641.42	182.56
641.57	170.86
641.72	84.26
641.86	205.97
642.01	145.11
642.16	191.92
642.31	149.79
642.45	238.73
642.60	161.50
642.75	180.22
642.90	88.94
643.04	145.11
643.19	163.84
643.34	166.18
643.48	145.11
643.63	191.92
643.78	124.05
643.93	229.37
644.07	112.35
644.22	131.07
644.37	107.66
644.51	147.45
644.66	105.32
644.81	138.09
644.95	133.41
645.10	145.11
645.25	182.56
645.39	184.90
645.54	159.16
645.69	168.52
645.83	133.41
645.98	229.37
646.13	243.42
646.27	149.79
646.42	84.26
646.57	149.79
646.71	147.45
646.86	154.48
647.00	173.20
647.15	49.15
647.30	117.03
647.44	152.13
647.59	131.07
647.74	112.35
647.88	133.41
648.03	91.28
648.17	201.29
648.32	102.98
648.47	140.43
648.61	100.64
648.76	145.11
648.90	184.90
649.05	177.88
649.20	128.73
649.34	140.43
649.49	86.60
649.63	124.05
649.78	168.52
649.92	196.60
650.07	145.11
650.21	173.20
650.36	177.88
650.51	149.79
650.65	152.13
650.80	124.05
650.94	184.90
651.09	110.01
651.23	100.64
651.38	119.37
651.52	114.69
651.67	119.37
651.81	173.20
651.96	184.90
652.10	177.88
652.25	121.71
652.39	177.88
652.54	217.67
652.68	187.24
652.83	91.28
652.97	117.03
653.12	135.75
653.26	70.22
653.41	222.35
653.55	114.69
653.70	114.69
653.84	81.92
653.99	187.24
654.13	102.98
654.27	140.43
654.42	93.62
654.56	119.37
654.71	175.54
654.85	112.35
655.00	102.98
655.14	117.03
655.29	131.07
655.43	110.01
655.57	65.54
655.72	65.54
655.86	145.11
656.01	184.90
656.15	126.39
656.30	152.13
656.44	95.96
656.58	105.32
656.73	105.32
656.87	154.48
657.01	107.66
657.16	142.77
657.30	191.92
657.45	147.45
657.59	184.90
657.73	102.98
657.88	138.09
658.02	229.37
658.16	170.86
658.31	131.07
658.45	170.86
658.60	117.03
658.74	112.35
658.88	184.90
659.03	79.58
659.17	191.92
659.31	105.32
659.46	110.01
659.60	166.18
659.74	140.43
659.89	147.45
660.03	168.52
660.17	203.63
660.32	131.07
660.46	173.20
660.60	149.79
660.74	147.45
660.89	138.09
661.03	184.90
661.17	70.22
661.32	124.05
661.46	156.82
661.60	189.58
661.74	147.45
661.89	60.85
662.03	161.50
662.17	187.24
662.31	128.73
662.46	147.45
662.60	159.16
662.74	133.41
662.88	170.86
663.03	133.41
663.17	152.13
663.31	138.09
663.45	156.82
663.60	93.62
663.74	154.48
663.88	44.47
664.02	131.07
664.17	121.71
664.31	121.71
664.45	88.94
664.59	156.82
664.73	142.77
664.88	74.90
665.02	133.41
665.16	145.11
665.30	224.69
665.44	159.16
665.59	91.28
665.73	86.60
665.87	173.20
666.01	168.52
666.15	184.90
666.29	180.22
666.44	196.60
666.58	138.09
666.72	170.86
666.86	145.11
667.00	196.60
667.14	86.60
667.28	112.35
667.43	145.11
667.57	180.22
667.71	154.48
667.85	98.30
667.99	163.84
668.13	91.28
668.27	112.35
668.41	126.39
668.56	86.60
668.70	128.73
668.84	152.13
668.98	124.05
669.12	102.98
669.26	107.66
669.40	159.16
669.54	152.13
669.68	124.05
669.82	117.03
669.96	156.82
670.10	147.45
670.25	91.28
670.39	156.82
670.53	128.73
670.67	112.35
670.81	147.45
670.95	145.11
671.09	128.73
671.23	203.63
671.37	191.92
671.51	128.73
671.65	205.97
671.79	128.73
671.93	142.77
672.07	241.08
672.21	131.07
672.35	93.62
672.49	102.98
672.63	58.51
672.77	203.63
672.91	98.30
673.05	154.48
673.19	135.75
673.33	128.73
673.47	271.50
673.61	117.03
673.75	114.69
673.89	35.11
674.03	147.45
674.17	147.45
674.31	88.94
674.45	159.16
674.59	117.03
674.73	170.86
674.87	117.03
675.01	72.56
675.15	128.73
675.29	175.54
675.43	170.86
675.56	297.25
675.70	147.45
675.84	140.43
675.98	114.69
676.12	107.66
676.26	163.84
676.40	126.39
676.54	86.60
676.68	114.69
676.82	117.03
676.96	147.45
677.10	159.16
677.23	102.98
677.37	161.50
677.51	124.05
677.65	152.13
677.79	138.09
677.93	105.32
678.07	117.03
678.21	156.82
678.34	72.56
678.48	177.88
678.62	163.84
678.76	95.96
678.90	28.09
679.04	110.01
679.18	142.77
679.31	138.09
679.45	154.48
679.59	166.18
679.73	117.03
679.87	95.96
680.00	156.82
680.14	84.26
680.28	84.26
680.42	117.03
680.56	93.62
680.70	37.45
680.83	140.43
680.97	93.62
681.11	112.35
681.25	107.66
681.39	198.95
681.52	182.56
681.66	138.09
681.80	201.29
681.94	163.84
682.07	117.03
682.21	128.73
682.35	95.96
682.49	112.35
682.62	131.07
682.76	173.20
682.90	65.54
683.04	170.86
683.17	131.07
683.31	67.88
683.45	93.62
683.59	189.58
683.72	138.09
683.86	145.11
684.00	135.75
684.13	105.32
684.27	177.88
684.41	161.50
684.55	102.98
684.68	77.24
684.82	142.77
684.96	175.54
685.09	152.13
685.23	91.28
685.37	107.66
685.50	93.62
685.64	161.50
685.78	133.41
685.91	133.41
686.05	168.52
686.19	154.48
686.32	124.05
686.46	88.94
686.60	23.41
686.73	161.50
686.87	119.37
687.01	131.07
687.14	117.03
687.28	114.69
687.42	131.07
687.55	128.73
687.69	81.92
687.82	72.56
687.96	86.60
688.10	121.71
688.23	86.60
688.37	156.82
688.50	187.24
688.64	98.30
688.78	86.60
688.91	110.01
689.05	133.41
689.18	72.56
689.32	79.58
689.46	119.37
689.59	91.28
689.73	180.22
689.86	105.32
690.00	110.01
690.13	147.45
690.27	95.96
690.41	117.03
690.54	159.16
690.68	77.24
690.81	77.24
690.95	128.73
691.08	60.85
691.22	91.28
691.35	25.75
691.49	72.56
691.62	124.05
691.76	30.43
691.89	152.13
692.03	180.22
692.16	133.41
692.30	128.73
692.43	133.41
692.57	95.96
692.70	102.98
692.84	138.09
692.97	166.18
693.11	70.22
693.24	133.41
693.38	105.32
693.51	126.39
693.65	149.79
693.78	107.66
693.92	163.84
694.05	100.64
694.19	145.11
694.32	93.62
694.45	70.22
694.59	133.41
694.72	98.30
694.86	131.07
694.99	135.75
695.13	161.50
695.26	194.26
695.39	128.73
695.53	147.45
695.66	138.09
695.80	128.73
695.93	79.58
696.07	135.75
696.20	70.22
696.33	140.43
696.47	60.85
696.60	56.17
696.73	84.26
696.87	110.01
697.00	149.79
697.14	67.88
697.27	56.17
697.40	201.29
697.54	119.37
697.67	112.35
697.80	70.22
697.94	149.79
698.07	175.54
698.21	105.32
698.34	140.43
698.47	46.81
698.61	105.32
698.74	60.85
698.87	105.32
699.01	138.09
699.14	100.64
699.27	133.41
699.40	184.90
699.54	126.39
699.67	93.62
699.80	102.98
699.94	51.49
700.07	156.82
700.20	98.30
700.34	39.79
700.47	79.58
700.60	84.26
700.73	100.64
700.87	126.39
701.00	98.30
701.13	131.07
701.26	98.30
701.40	166.18
701.53	131.07
701.66	79.58
701.79	88.94
701.93	117.03
702.06	135.75
702.19	35.11
702.32	168.52
702.46	135.75
702.59	84.26
702.72	79.58
702.85	154.48
702.99	149.79
703.12	63.19
703.25	114.69
703.38	70.22
703.51	121.71
703.65	32.77
703.78	86.60
703.91	70.22
704.04	119.37
704.17	56.17
704.31	91.28
704.44	32.77
704.57	128.73
704.70	110.01
704.83	56.17
704.96	107.66
705.10	114.69
705.23	67.88
>>>>>End Processed Spectral Data<<<<<
