SpectraSuite Data File
++++++++++++++++++++++++++++++++++++
Date: Fri Oct 04 11:51:09 GMT-05:00 2013
User: price-jones
Dark Spectrum Present: No
Reference Spectrum Present: No
Number of Sampled Component Spectra: 1
Spectrometers: USB2+H05261
Integration Time (usec): 100000 (USB2+H05261)
Spectra Averaged: 1 (USB2+H05261)
Boxcar Smoothing: 0 (USB2+H05261)
Correct for Electrical Dark: No (USB2+H05261)
Strobe/Lamp Enabled: No (USB2+H05261)
Correct for Detector Non-linearity: No (USB2+H05261)
Correct for Stray Light: No (USB2+H05261)
Number of Pixels in Processed Spectrum: 2048
>>>>>Begin Processed Spectral Data<<<<<
365.73	74.90
365.92	74.90
366.12	74.90
366.32	0.00
366.52	0.00
366.72	0.00
366.91	0.00
367.11	0.00
367.31	0.00
367.51	0.00
367.70	0.00
367.90	0.00
368.10	0.00
368.30	0.00
368.49	0.00
368.69	0.00
368.89	0.00
369.09	0.00
369.28	0.00
369.48	0.00
369.68	0.00
369.87	0.00
370.07	0.00
370.27	0.00
370.47	46.81
370.66	0.00
370.86	49.15
371.06	81.92
371.25	39.79
371.45	37.45
371.65	91.28
371.84	86.60
372.04	0.00
372.24	81.92
372.44	0.00
372.63	70.22
372.83	79.58
373.03	128.73
373.22	18.72
373.42	67.88
373.62	126.39
373.81	67.88
374.01	105.32
374.21	67.88
374.40	100.64
374.60	133.41
374.79	46.81
374.99	86.60
375.19	117.03
375.38	140.43
375.58	131.07
375.78	72.56
375.97	67.88
376.17	175.54
376.37	112.35
376.56	145.11
376.76	35.11
376.95	102.98
377.15	88.94
377.35	37.45
377.54	63.19
377.74	4.68
377.93	84.26
378.13	107.66
378.33	91.28
378.52	81.92
378.72	124.05
378.91	86.60
379.11	56.17
379.31	77.24
379.50	65.54
379.70	133.41
379.89	133.41
380.09	23.41
380.28	93.62
380.48	37.45
380.68	91.28
380.87	77.24
381.07	18.72
381.26	131.07
381.46	74.90
381.65	25.75
381.85	70.22
382.04	117.03
382.24	107.66
382.43	124.05
382.63	140.43
382.83	44.47
383.02	147.45
383.22	128.73
383.41	11.70
383.61	140.43
383.80	81.92
384.00	91.28
384.19	35.11
384.39	93.62
384.58	39.79
384.78	58.51
384.97	35.11
385.17	95.96
385.36	98.30
385.56	117.03
385.75	53.83
385.95	114.69
386.14	46.81
386.34	133.41
386.53	105.32
386.72	95.96
386.92	135.75
387.11	159.16
387.31	67.88
387.50	44.47
387.70	0.00
387.89	119.37
388.09	74.90
388.28	63.19
388.48	77.24
388.67	121.71
388.86	154.48
389.06	138.09
389.25	102.98
389.45	65.54
389.64	67.88
389.84	124.05
390.03	72.56
390.22	63.19
390.42	126.39
390.61	28.09
390.81	4.68
391.00	124.05
391.19	84.26
391.39	100.64
391.58	105.32
391.78	53.83
391.97	56.17
392.16	63.19
392.36	121.71
392.55	177.88
392.75	84.26
392.94	98.30
393.13	4.68
393.33	49.15
393.52	63.19
393.71	142.77
393.91	46.81
394.10	0.00
394.29	58.51
394.49	107.66
394.68	0.00
394.88	58.51
395.07	149.79
395.26	102.98
395.46	152.13
395.65	121.71
395.84	142.77
396.04	133.41
396.23	0.00
396.42	23.41
396.62	72.56
396.81	128.73
397.00	0.00
397.19	133.41
397.39	177.88
397.58	138.09
397.77	25.75
397.97	119.37
398.16	56.17
398.35	60.85
398.55	114.69
398.74	70.22
398.93	81.92
399.12	124.05
399.32	119.37
399.51	119.37
399.70	119.37
399.90	114.69
400.09	114.69
400.28	145.11
400.47	107.66
400.67	112.35
400.86	86.60
401.05	145.11
401.24	131.07
401.44	163.84
401.63	117.03
401.82	119.37
402.01	124.05
402.21	156.82
402.40	95.96
402.59	93.62
402.78	135.75
402.97	67.88
403.17	79.58
403.36	77.24
403.55	95.96
403.74	65.54
403.93	70.22
404.13	131.07
404.32	126.39
404.51	95.96
404.70	135.75
404.89	81.92
405.09	114.69
405.28	112.35
405.47	18.72
405.66	37.45
405.85	131.07
406.05	131.07
406.24	147.45
406.43	88.94
406.62	126.39
406.81	177.88
407.00	156.82
407.20	114.69
407.39	105.32
407.58	28.09
407.77	91.28
407.96	119.37
408.15	168.52
408.34	86.60
408.54	124.05
408.73	70.22
408.92	135.75
409.11	152.13
409.30	140.43
409.49	110.01
409.68	32.77
409.87	133.41
410.07	121.71
410.26	84.26
410.45	124.05
410.64	67.88
410.83	88.94
411.02	28.09
411.21	77.24
411.40	98.30
411.59	110.01
411.78	117.03
411.98	102.98
412.17	112.35
412.36	133.41
412.55	91.28
412.74	114.69
412.93	147.45
413.12	107.66
413.31	154.48
413.50	124.05
413.69	205.97
413.88	93.62
414.07	98.30
414.26	23.41
414.45	133.41
414.64	159.16
414.83	70.22
415.02	159.16
415.22	114.69
415.41	156.82
415.60	107.66
415.79	117.03
415.98	88.94
416.17	93.62
416.36	51.49
416.55	72.56
416.74	133.41
416.93	149.79
417.12	51.49
417.31	84.26
417.50	49.15
417.69	131.07
417.88	124.05
418.07	86.60
418.26	44.47
418.45	79.58
418.64	189.58
418.83	93.62
419.02	149.79
419.21	133.41
419.39	154.48
419.58	91.28
419.77	58.51
419.96	117.03
420.15	142.77
420.34	91.28
420.53	114.69
420.72	100.64
420.91	161.50
421.10	198.95
421.29	161.50
421.48	105.32
421.67	156.82
421.86	191.92
422.05	124.05
422.24	117.03
422.43	65.54
422.61	30.43
422.80	56.17
422.99	140.43
423.18	25.75
423.37	173.20
423.56	74.90
423.75	124.05
423.94	173.20
424.13	128.73
424.32	105.32
424.50	152.13
424.69	175.54
424.88	147.45
425.07	145.11
425.26	51.49
425.45	11.70
425.64	51.49
425.83	70.22
426.01	126.39
426.20	147.45
426.39	159.16
426.58	84.26
426.77	67.88
426.96	112.35
427.15	119.37
427.33	95.96
427.52	107.66
427.71	147.45
427.90	95.96
428.09	126.39
428.28	77.24
428.46	131.07
428.65	149.79
428.84	51.49
429.03	86.60
429.22	119.37
429.40	133.41
429.59	84.26
429.78	159.16
429.97	81.92
430.16	37.45
430.34	131.07
430.53	147.45
430.72	121.71
430.91	86.60
431.10	128.73
431.28	110.01
431.47	114.69
431.66	220.01
431.85	56.17
432.03	168.52
432.22	191.92
432.41	102.98
432.60	102.98
432.79	81.92
432.97	142.77
433.16	105.32
433.35	105.32
433.54	110.01
433.72	138.09
433.91	93.62
434.10	65.54
434.28	152.13
434.47	154.48
434.66	152.13
434.85	91.28
435.03	126.39
435.22	159.16
435.41	102.98
435.59	114.69
435.78	166.18
435.97	121.71
436.16	156.82
436.34	131.07
436.53	117.03
436.72	184.90
436.90	67.88
437.09	184.90
437.28	119.37
437.46	95.96
437.65	159.16
437.84	65.54
438.02	121.71
438.21	119.37
438.40	21.06
438.58	105.32
438.77	140.43
438.96	110.01
439.14	154.48
439.33	102.98
439.52	131.07
439.70	140.43
439.89	147.45
440.08	182.56
440.26	110.01
440.45	145.11
440.63	131.07
440.82	105.32
441.01	124.05
441.19	107.66
441.38	117.03
441.57	138.09
441.75	121.71
441.94	72.56
442.12	98.30
442.31	119.37
442.50	175.54
442.68	72.56
442.87	121.71
443.05	145.11
443.24	166.18
443.43	184.90
443.61	205.97
443.80	98.30
443.98	88.94
444.17	114.69
444.35	149.79
444.54	114.69
444.73	170.86
444.91	112.35
445.10	128.73
445.28	91.28
445.47	84.26
445.65	79.58
445.84	131.07
446.02	0.00
446.21	131.07
446.39	156.82
446.58	147.45
446.77	65.54
446.95	84.26
447.14	79.58
447.32	152.13
447.51	100.64
447.69	77.24
447.88	128.73
448.06	177.88
448.25	201.29
448.43	128.73
448.62	212.99
448.80	121.71
448.99	79.58
449.17	91.28
449.36	32.77
449.54	170.86
449.73	107.66
449.91	215.33
450.10	112.35
450.28	147.45
450.46	147.45
450.65	124.05
450.83	112.35
451.02	175.54
451.20	131.07
451.39	161.50
451.57	175.54
451.76	119.37
451.94	88.94
452.13	145.11
452.31	168.52
452.49	124.05
452.68	112.35
452.86	114.69
453.05	102.98
453.23	131.07
453.42	138.09
453.60	121.71
453.78	133.41
453.97	154.48
454.15	86.60
454.34	166.18
454.52	140.43
454.70	170.86
454.89	138.09
455.07	117.03
455.26	205.97
455.44	177.88
455.62	117.03
455.81	168.52
455.99	128.73
456.17	140.43
456.36	135.75
456.54	53.83
456.73	81.92
456.91	110.01
457.09	145.11
457.28	147.45
457.46	138.09
457.64	241.08
457.83	86.60
458.01	163.84
458.19	138.09
458.38	124.05
458.56	138.09
458.74	149.79
458.93	46.81
459.11	147.45
459.29	107.66
459.48	220.01
459.66	138.09
459.84	152.13
460.03	180.22
460.21	191.92
460.39	126.39
460.57	152.13
460.76	91.28
460.94	133.41
461.12	189.58
461.31	180.22
461.49	124.05
461.67	117.03
461.85	107.66
462.04	58.51
462.22	566.41
462.40	189.58
462.59	224.69
462.77	154.48
462.95	91.28
463.13	70.22
463.32	107.66
463.50	196.60
463.68	175.54
463.86	131.07
464.05	93.62
464.23	126.39
464.41	138.09
464.59	159.16
464.78	98.30
464.96	70.22
465.14	170.86
465.32	220.01
465.50	128.73
465.69	77.24
465.87	21.06
466.05	182.56
466.23	86.60
466.41	142.77
466.60	58.51
466.78	121.71
466.96	203.63
467.14	58.51
467.32	205.97
467.51	135.75
467.69	119.37
467.87	147.45
468.05	79.58
468.23	138.09
468.41	198.95
468.60	131.07
468.78	210.65
468.96	210.65
469.14	173.20
469.32	93.62
469.50	0.00
469.69	98.30
469.87	126.39
470.05	121.71
470.23	128.73
470.41	138.09
470.59	184.90
470.77	161.50
470.95	131.07
471.14	124.05
471.32	117.03
471.50	102.98
471.68	102.98
471.86	173.20
472.04	126.39
472.22	110.01
472.40	170.86
472.58	180.22
472.77	114.69
472.95	154.48
473.13	215.33
473.31	156.82
473.49	173.20
473.67	128.73
473.85	100.64
474.03	121.71
474.21	124.05
474.39	138.09
474.57	149.79
474.75	63.19
474.93	93.62
475.12	149.79
475.30	114.69
475.48	110.01
475.66	117.03
475.84	147.45
476.02	49.15
476.20	81.92
476.38	170.86
476.56	170.86
476.74	147.45
476.92	81.92
477.10	91.28
477.28	191.92
477.46	147.45
477.64	166.18
477.82	194.26
478.00	161.50
478.18	191.92
478.36	117.03
478.54	140.43
478.72	126.39
478.90	131.07
479.08	145.11
479.26	191.92
479.44	145.11
479.62	208.31
479.80	119.37
479.98	107.66
480.16	119.37
480.34	210.65
480.52	180.22
480.70	191.92
480.88	86.60
481.06	147.45
481.24	154.48
481.41	161.50
481.59	220.01
481.77	210.65
481.95	95.96
482.13	264.48
482.31	142.77
482.49	196.60
482.67	203.63
482.85	236.39
483.03	147.45
483.21	187.24
483.39	140.43
483.57	133.41
483.74	175.54
483.92	161.50
484.10	117.03
484.28	124.05
484.46	184.90
484.64	173.20
484.82	152.13
485.00	163.84
485.18	98.30
485.35	170.86
485.53	168.52
485.71	145.11
485.89	126.39
486.07	140.43
486.25	133.41
486.43	203.63
486.61	215.33
486.78	215.33
486.96	177.88
487.14	250.44
487.32	205.97
487.50	205.97
487.68	175.54
487.85	170.86
488.03	88.94
488.21	201.29
488.39	250.44
488.57	198.95
488.75	86.60
488.92	425.98
489.10	234.05
489.28	203.63
489.46	175.54
489.64	187.24
489.81	280.86
489.99	187.24
490.17	142.77
490.35	196.60
490.53	182.56
490.70	173.20
490.88	241.08
491.06	168.52
491.24	145.11
491.41	203.63
491.59	140.43
491.77	93.62
491.95	224.69
492.13	191.92
492.30	88.94
492.48	189.58
492.66	177.88
492.84	170.86
493.01	119.37
493.19	191.92
493.37	243.42
493.54	135.75
493.72	173.20
493.90	112.35
494.08	131.07
494.25	128.73
494.43	182.56
494.61	114.69
494.79	156.82
494.96	147.45
495.14	245.76
495.32	147.45
495.49	154.48
495.67	189.58
495.85	152.13
496.02	175.54
496.20	201.29
496.38	191.92
496.55	229.37
496.73	110.01
496.91	133.41
497.09	236.39
497.26	236.39
497.44	128.73
497.62	161.50
497.79	198.95
497.97	234.05
498.14	170.86
498.32	212.99
498.50	238.73
498.67	166.18
498.85	128.73
499.03	231.71
499.20	227.03
499.38	201.29
499.56	121.71
499.73	227.03
499.91	220.01
500.08	133.41
500.26	229.37
500.44	140.43
500.61	201.29
500.79	161.50
500.97	227.03
501.14	203.63
501.32	161.50
501.49	257.46
501.67	184.90
501.84	208.31
502.02	156.82
502.20	271.50
502.37	217.67
502.55	180.22
502.72	224.69
502.90	273.84
503.07	271.50
503.25	180.22
503.43	84.26
503.60	173.20
503.78	196.60
503.95	112.35
504.13	133.41
504.30	201.29
504.48	252.78
504.65	212.99
504.83	278.52
505.01	159.16
505.18	177.88
505.36	234.05
505.53	173.20
505.71	196.60
505.88	276.18
506.06	135.75
506.23	131.07
506.41	175.54
506.58	194.26
506.76	231.71
506.93	189.58
507.11	210.65
507.28	187.24
507.46	121.71
507.63	205.97
507.81	257.46
507.98	217.67
508.16	191.92
508.33	175.54
508.50	217.67
508.68	152.13
508.85	189.58
509.03	166.18
509.20	252.78
509.38	229.37
509.55	255.12
509.73	220.01
509.90	177.88
510.08	149.79
510.25	194.26
510.42	184.90
510.60	187.24
510.77	196.60
510.95	229.37
511.12	243.42
511.30	180.22
511.47	166.18
511.64	175.54
511.82	187.24
511.99	126.39
512.17	196.60
512.34	149.79
512.51	215.33
512.69	159.16
512.86	191.92
513.04	220.01
513.21	224.69
513.38	184.90
513.56	191.92
513.73	128.73
513.90	194.26
514.08	124.05
514.25	133.41
514.43	241.08
514.60	205.97
514.77	184.90
514.95	149.79
515.12	149.79
515.29	278.52
515.47	208.31
515.64	194.26
515.81	208.31
515.99	285.55
516.16	170.86
516.33	191.92
516.51	189.58
516.68	138.09
516.85	210.65
517.03	133.41
517.20	93.62
517.37	180.22
517.54	227.03
517.72	208.31
517.89	119.37
518.06	105.32
518.24	133.41
518.41	301.93
518.58	161.50
518.75	170.86
518.93	210.65
519.10	280.86
519.27	227.03
519.45	231.71
519.62	248.10
519.79	243.42
519.96	215.33
520.14	212.99
520.31	234.05
520.48	212.99
520.65	234.05
520.83	227.03
521.00	234.05
521.17	220.01
521.34	173.20
521.52	131.07
521.69	222.35
521.86	243.42
522.03	241.08
522.20	208.31
522.38	215.33
522.55	201.29
522.72	147.45
522.89	196.60
523.07	262.14
523.24	175.54
523.41	231.71
523.58	159.16
523.75	229.37
523.92	135.75
524.10	198.95
524.27	208.31
524.44	243.42
524.61	266.82
524.78	154.48
524.96	201.29
525.13	292.57
525.30	292.57
525.47	220.01
525.64	187.24
525.81	220.01
525.98	201.29
526.16	196.60
526.33	168.52
526.50	147.45
526.67	262.14
526.84	243.42
527.01	142.77
527.18	252.78
527.36	177.88
527.53	145.11
527.70	236.39
527.87	140.43
528.04	234.05
528.21	222.35
528.38	217.67
528.55	173.20
528.72	222.35
528.89	264.48
529.07	215.33
529.24	194.26
529.41	273.84
529.58	227.03
529.75	163.84
529.92	210.65
530.09	224.69
530.26	187.24
530.43	269.16
530.60	187.24
530.77	175.54
530.94	187.24
531.11	259.80
531.28	255.12
531.46	238.73
531.63	250.44
531.80	159.16
531.97	287.89
532.14	278.52
532.31	234.05
532.48	236.39
532.65	208.31
532.82	210.65
532.99	198.95
533.16	259.80
533.33	243.42
533.50	152.13
533.67	191.92
533.84	252.78
534.01	217.67
534.18	208.31
534.35	231.71
534.52	110.01
534.69	198.95
534.86	222.35
535.03	224.69
535.20	198.95
535.37	208.31
535.54	194.26
535.71	224.69
535.88	250.44
536.05	180.22
536.22	196.60
536.38	234.05
536.55	243.42
536.72	210.65
536.89	191.92
537.06	194.26
537.23	147.45
537.40	102.98
537.57	245.76
537.74	187.24
537.91	241.08
538.08	224.69
538.25	215.33
538.42	205.97
538.59	182.56
538.75	252.78
538.92	203.63
539.09	231.71
539.26	203.63
539.43	234.05
539.60	201.29
539.77	248.10
539.94	222.35
540.11	222.35
540.28	222.35
540.44	236.39
540.61	198.95
540.78	222.35
540.95	191.92
541.12	203.63
541.29	152.13
541.46	250.44
541.62	198.95
541.79	250.44
541.96	159.16
542.13	224.69
542.30	180.22
542.47	271.50
542.63	198.95
542.80	222.35
542.97	217.67
543.14	187.24
543.31	203.63
543.48	175.54
543.64	222.35
543.81	175.54
543.98	224.69
544.15	229.37
544.32	184.90
544.48	210.65
544.65	159.16
544.82	222.35
544.99	215.33
545.16	201.29
545.32	266.82
545.49	180.22
545.66	238.73
545.83	208.31
546.00	152.13
546.16	257.46
546.33	280.86
546.50	269.16
546.67	269.16
546.83	229.37
547.00	229.37
547.17	140.43
547.34	243.42
547.50	170.86
547.67	208.31
547.84	241.08
548.00	250.44
548.17	152.13
548.34	208.31
548.51	294.91
548.67	255.12
548.84	212.99
549.01	198.95
549.18	271.50
549.34	212.99
549.51	234.05
549.68	194.26
549.84	215.33
550.01	220.01
550.18	414.27
550.34	315.97
550.51	194.26
550.68	255.12
550.84	180.22
551.01	170.86
551.18	217.67
551.34	257.46
551.51	205.97
551.68	187.24
551.84	243.42
552.01	191.92
552.18	191.92
552.34	250.44
552.51	306.61
552.68	252.78
552.84	217.67
553.01	222.35
553.18	238.73
553.34	234.05
553.51	259.80
553.67	215.33
553.84	259.80
554.01	201.29
554.17	194.26
554.34	138.09
554.51	168.52
554.67	330.02
554.84	252.78
555.00	149.79
555.17	159.16
555.33	220.01
555.50	297.25
555.67	250.44
555.83	189.58
556.00	182.56
556.16	376.83
556.33	210.65
556.50	203.63
556.66	196.60
556.83	292.57
556.99	222.35
557.16	201.29
557.32	194.26
557.49	156.82
557.65	124.05
557.82	161.50
557.98	149.79
558.15	248.10
558.32	210.65
558.48	229.37
558.65	238.73
558.81	234.05
558.98	252.78
559.14	266.82
559.31	208.31
559.47	149.79
559.64	222.35
559.80	229.37
559.97	156.82
560.13	205.97
560.30	224.69
560.46	248.10
560.63	210.65
560.79	184.90
560.96	217.67
561.12	140.43
561.29	203.63
561.45	212.99
561.61	236.39
561.78	248.10
561.94	194.26
562.11	220.01
562.27	271.50
562.44	255.12
562.60	163.84
562.77	191.92
562.93	318.31
563.10	149.79
563.26	243.42
563.42	236.39
563.59	224.69
563.75	187.24
563.92	285.55
564.08	187.24
564.24	220.01
564.41	210.65
564.57	168.52
564.74	191.92
564.90	201.29
565.07	210.65
565.23	241.08
565.39	159.16
565.56	198.95
565.72	238.73
565.88	227.03
566.05	262.14
566.21	182.56
566.38	210.65
566.54	201.29
566.70	173.20
566.87	264.48
567.03	168.52
567.19	217.67
567.36	248.10
567.52	236.39
567.68	205.97
567.85	229.37
568.01	191.92
568.17	142.77
568.34	147.45
568.50	212.99
568.66	163.84
568.83	278.52
568.99	198.95
569.15	259.80
569.32	241.08
569.48	191.92
569.64	189.58
569.81	138.09
569.97	184.90
570.13	229.37
570.30	67.88
570.46	220.01
570.62	201.29
570.78	187.24
570.95	241.08
571.11	222.35
571.27	210.65
571.43	245.76
571.60	229.37
571.76	255.12
571.92	198.95
572.09	208.31
572.25	224.69
572.41	250.44
572.57	205.97
572.74	210.65
572.90	278.52
573.06	224.69
573.22	224.69
573.38	194.26
573.55	248.10
573.71	248.10
573.87	236.39
574.03	121.71
574.20	168.52
574.36	285.55
574.52	243.42
574.68	210.65
574.84	210.65
575.01	252.78
575.17	243.42
575.33	135.75
575.49	212.99
575.65	248.10
575.82	217.67
575.98	322.99
576.14	194.26
576.30	217.67
576.46	184.90
576.62	177.88
576.79	191.92
576.95	241.08
577.11	177.88
577.27	91.28
577.43	330.02
577.59	145.11
577.75	264.48
577.92	170.86
578.08	238.73
578.24	245.76
578.40	238.73
578.56	238.73
578.72	210.65
578.88	168.52
579.04	170.86
579.21	212.99
579.37	198.95
579.53	180.22
579.69	210.65
579.85	159.16
580.01	205.97
580.17	159.16
580.33	222.35
580.49	194.26
580.65	224.69
580.82	208.31
580.98	161.50
581.14	163.84
581.30	182.56
581.46	156.82
581.62	231.71
581.78	220.01
581.94	215.33
582.10	138.09
582.26	252.78
582.42	147.45
582.58	238.73
582.74	201.29
582.90	166.18
583.06	177.88
583.22	170.86
583.38	140.43
583.54	168.52
583.70	191.92
583.86	262.14
584.02	201.29
584.18	198.95
584.34	180.22
584.50	191.92
584.66	229.37
584.82	224.69
584.98	156.82
585.14	194.26
585.30	177.88
585.46	194.26
585.62	182.56
585.78	163.84
585.94	205.97
586.10	161.50
586.26	138.09
586.42	191.92
586.58	271.50
586.74	227.03
586.90	95.96
587.06	156.82
587.22	170.86
587.38	156.82
587.54	117.03
587.70	149.79
587.86	166.18
588.02	180.22
588.18	184.90
588.34	215.33
588.49	159.16
588.65	149.79
588.81	229.37
588.97	177.88
589.13	201.29
589.29	124.05
589.45	191.92
589.61	166.18
589.77	220.01
589.93	152.13
590.08	180.22
590.24	126.39
590.40	163.84
590.56	257.46
590.72	110.01
590.88	161.50
591.04	191.92
591.20	196.60
591.35	205.97
591.51	128.73
591.67	168.52
591.83	156.82
591.99	135.75
592.15	212.99
592.31	170.86
592.46	140.43
592.62	187.24
592.78	170.86
592.94	177.88
593.10	191.92
593.26	161.50
593.41	187.24
593.57	201.29
593.73	154.48
593.89	194.26
594.05	180.22
594.20	210.65
594.36	201.29
594.52	156.82
594.68	203.63
594.84	149.79
594.99	121.71
595.15	170.86
595.31	198.95
595.47	283.20
595.62	156.82
595.78	198.95
595.94	238.73
596.10	229.37
596.25	170.86
596.41	292.57
596.57	81.92
596.73	182.56
596.88	191.92
597.04	266.82
597.20	201.29
597.36	182.56
597.51	156.82
597.67	173.20
597.83	220.01
597.99	245.76
598.14	126.39
598.30	161.50
598.46	140.43
598.61	229.37
598.77	212.99
598.93	163.84
599.09	220.01
599.24	201.29
599.40	154.48
599.56	91.28
599.71	191.92
599.87	236.39
600.03	166.18
600.18	238.73
600.34	173.20
600.50	212.99
600.65	140.43
600.81	201.29
600.97	156.82
601.12	238.73
601.28	266.82
601.44	156.82
601.59	126.39
601.75	236.39
601.91	217.67
602.06	135.75
602.22	238.73
602.37	203.63
602.53	184.90
602.69	201.29
602.84	191.92
603.00	236.39
603.16	241.08
603.31	182.56
603.47	145.11
603.62	191.92
603.78	152.13
603.94	273.84
604.09	124.05
604.25	229.37
604.40	198.95
604.56	93.62
604.71	161.50
604.87	149.79
605.03	227.03
605.18	208.31
605.34	198.95
605.49	140.43
605.65	117.03
605.80	102.98
605.96	187.24
606.12	138.09
606.27	201.29
606.43	196.60
606.58	215.33
606.74	255.12
606.89	173.20
607.05	163.84
607.20	168.52
607.36	175.54
607.51	124.05
607.67	152.13
607.82	201.29
607.98	301.93
608.13	182.56
608.29	100.64
608.44	241.08
608.60	212.99
608.75	227.03
608.91	170.86
609.06	257.46
609.22	131.07
609.37	166.18
609.53	217.67
609.68	208.31
609.84	210.65
609.99	161.50
610.15	189.58
610.30	245.76
610.46	203.63
610.61	163.84
610.76	154.48
610.92	215.33
611.07	156.82
611.23	215.33
611.38	187.24
611.54	175.54
611.69	201.29
611.84	255.12
612.00	308.95
612.15	187.24
612.31	156.82
612.46	170.86
612.62	198.95
612.77	208.31
612.92	168.52
613.08	205.97
613.23	161.50
613.39	198.95
613.54	201.29
613.69	163.84
613.85	227.03
614.00	149.79
614.15	208.31
614.31	138.09
614.46	196.60
614.62	138.09
614.77	231.71
614.92	177.88
615.08	154.48
615.23	245.76
615.38	128.73
615.54	170.86
615.69	145.11
615.84	112.35
616.00	198.95
616.15	168.52
616.30	140.43
616.46	126.39
616.61	159.16
616.76	210.65
616.92	149.79
617.07	222.35
617.22	145.11
617.37	196.60
617.53	168.52
617.68	107.66
617.83	152.13
617.99	177.88
618.14	194.26
618.29	152.13
618.45	173.20
618.60	208.31
618.75	159.16
618.90	156.82
619.06	182.56
619.21	187.24
619.36	231.71
619.51	180.22
619.67	182.56
619.82	145.11
619.97	121.71
620.12	184.90
620.28	154.48
620.43	273.84
620.58	191.92
620.73	126.39
620.89	173.20
621.04	154.48
621.19	142.77
621.34	198.95
621.49	117.03
621.65	135.75
621.80	91.28
621.95	149.79
622.10	168.52
622.25	100.64
622.41	184.90
622.56	154.48
622.71	100.64
622.86	198.95
623.01	166.18
623.16	177.88
623.32	187.24
623.47	175.54
623.62	163.84
623.77	159.16
623.92	152.13
624.07	163.84
624.23	189.58
624.38	121.71
624.53	131.07
624.68	170.86
624.83	276.18
624.98	201.29
625.13	208.31
625.29	203.63
625.44	154.48
625.59	140.43
625.74	142.77
625.89	175.54
626.04	163.84
626.19	208.31
626.34	177.88
626.49	180.22
626.65	149.79
626.80	177.88
626.95	145.11
627.10	173.20
627.25	128.73
627.40	140.43
627.55	110.01
627.70	159.16
627.85	156.82
628.00	91.28
628.15	152.13
628.30	182.56
628.45	154.48
628.60	163.84
628.76	159.16
628.91	63.19
629.06	217.67
629.21	60.85
629.36	234.05
629.51	124.05
629.66	128.73
629.81	175.54
629.96	180.22
630.11	187.24
630.26	145.11
630.41	135.75
630.56	138.09
630.71	121.71
630.86	105.32
631.01	156.82
631.16	135.75
631.31	166.18
631.46	212.99
631.61	177.88
631.76	182.56
631.91	147.45
632.06	142.77
632.21	154.48
632.36	175.54
632.51	128.73
632.66	100.64
632.81	98.30
632.96	161.50
633.10	140.43
633.25	212.99
633.40	152.13
633.55	210.65
633.70	110.01
633.85	168.52
634.00	149.79
634.15	128.73
634.30	140.43
634.45	180.22
634.60	91.28
634.75	168.52
634.90	112.35
635.05	154.48
635.19	126.39
635.34	117.03
635.49	198.95
635.64	124.05
635.79	135.75
635.94	182.56
636.09	173.20
636.24	191.92
636.39	138.09
636.53	196.60
636.68	126.39
636.83	166.18
636.98	184.90
637.13	138.09
637.28	149.79
637.43	175.54
637.57	173.20
637.72	280.86
637.87	170.86
638.02	191.92
638.17	152.13
638.32	161.50
638.46	135.75
638.61	198.95
638.76	140.43
638.91	149.79
639.06	154.48
639.20	166.18
639.35	138.09
639.50	117.03
639.65	173.20
639.80	205.97
639.94	212.99
640.09	215.33
640.24	145.11
640.39	168.52
640.54	175.54
640.68	149.79
640.83	180.22
640.98	189.58
641.13	81.92
641.27	135.75
641.42	177.88
641.57	166.18
641.72	121.71
641.86	194.26
642.01	205.97
642.16	262.14
642.31	86.60
642.45	187.24
642.60	215.33
642.75	100.64
642.90	166.18
643.04	117.03
643.19	121.71
643.34	133.41
643.48	173.20
643.63	182.56
643.78	210.65
643.93	147.45
644.07	184.90
644.22	168.52
644.37	105.32
644.51	152.13
644.66	170.86
644.81	163.84
644.95	182.56
645.10	191.92
645.25	154.48
645.39	154.48
645.54	119.37
645.69	128.73
645.83	159.16
645.98	128.73
646.13	147.45
646.27	177.88
646.42	140.43
646.57	138.09
646.71	215.33
646.86	58.51
647.00	140.43
647.15	131.07
647.30	149.79
647.44	74.90
647.59	79.58
647.74	93.62
647.88	180.22
648.03	166.18
648.17	117.03
648.32	140.43
648.47	95.96
648.61	126.39
648.76	131.07
648.90	147.45
649.05	110.01
649.20	170.86
649.34	91.28
649.49	170.86
649.63	187.24
649.78	140.43
649.92	114.69
650.07	159.16
650.21	152.13
650.36	149.79
650.51	110.01
650.65	161.50
650.80	196.60
650.94	140.43
651.09	121.71
651.23	180.22
651.38	166.18
651.52	37.45
651.67	173.20
651.81	161.50
651.96	49.15
652.10	119.37
652.25	173.20
652.39	269.16
652.54	180.22
652.68	229.37
652.83	102.98
652.97	117.03
653.12	121.71
653.26	138.09
653.41	56.17
653.55	124.05
653.70	173.20
653.84	135.75
653.99	154.48
654.13	142.77
654.27	93.62
654.42	170.86
654.56	142.77
654.71	198.95
654.85	173.20
655.00	184.90
655.14	114.69
655.29	74.90
655.43	149.79
655.57	194.26
655.72	95.96
655.86	147.45
656.01	173.20
656.15	107.66
656.30	203.63
656.44	191.92
656.58	30.43
656.73	105.32
656.87	105.32
657.01	138.09
657.16	168.52
657.30	93.62
657.45	201.29
657.59	140.43
657.73	119.37
657.88	194.26
658.02	117.03
658.16	110.01
658.31	56.17
658.45	107.66
658.60	114.69
658.74	149.79
658.88	98.30
659.03	161.50
659.17	49.15
659.31	117.03
659.46	81.92
659.60	133.41
659.74	147.45
659.89	154.48
660.03	138.09
660.17	140.43
660.32	161.50
660.46	133.41
660.60	124.05
660.74	81.92
660.89	110.01
661.03	56.17
661.17	208.31
661.32	110.01
661.46	163.84
661.60	168.52
661.74	121.71
661.89	135.75
662.03	145.11
662.17	135.75
662.31	117.03
662.46	184.90
662.60	191.92
662.74	168.52
662.88	187.24
663.03	138.09
663.17	126.39
663.31	131.07
663.45	110.01
663.60	32.77
663.74	81.92
663.88	149.79
664.02	114.69
664.17	138.09
664.31	110.01
664.45	187.24
664.59	119.37
664.73	173.20
664.88	168.52
665.02	102.98
665.16	114.69
665.30	154.48
665.44	102.98
665.59	138.09
665.73	156.82
665.87	161.50
666.01	98.30
666.15	205.97
666.29	147.45
666.44	170.86
666.58	166.18
666.72	124.05
666.86	187.24
667.00	161.50
667.14	145.11
667.28	187.24
667.43	140.43
667.57	95.96
667.71	91.28
667.85	147.45
667.99	86.60
668.13	156.82
668.27	220.01
668.41	163.84
668.56	114.69
668.70	180.22
668.84	182.56
668.98	154.48
669.12	114.69
669.26	128.73
669.40	224.69
669.54	231.71
669.68	145.11
669.82	91.28
669.96	107.66
670.10	114.69
670.25	152.13
670.39	112.35
670.53	196.60
670.67	159.16
670.81	152.13
670.95	175.54
671.09	112.35
671.23	117.03
671.37	110.01
671.51	145.11
671.65	142.77
671.79	110.01
671.93	105.32
672.07	194.26
672.21	138.09
672.35	105.32
672.49	142.77
672.63	91.28
672.77	140.43
672.91	95.96
673.05	152.13
673.19	121.71
673.33	107.66
673.47	163.84
673.61	70.22
673.75	102.98
673.89	117.03
674.03	105.32
674.17	163.84
674.31	119.37
674.45	102.98
674.59	133.41
674.73	114.69
674.87	142.77
675.01	184.90
675.15	131.07
675.29	210.65
675.43	135.75
675.56	191.92
675.70	140.43
675.84	131.07
675.98	187.24
676.12	74.90
676.26	177.88
676.40	86.60
676.54	140.43
676.68	67.88
676.82	201.29
676.96	112.35
677.10	56.17
677.23	86.60
677.37	105.32
677.51	147.45
677.65	234.05
677.79	140.43
677.93	168.52
678.07	154.48
678.21	133.41
678.34	88.94
678.48	177.88
678.62	168.52
678.76	65.54
678.90	140.43
679.04	102.98
679.18	110.01
679.31	112.35
679.45	105.32
679.59	112.35
679.73	126.39
679.87	98.30
680.00	175.54
680.14	105.32
680.28	110.01
680.42	95.96
680.56	98.30
680.70	95.96
680.83	84.26
680.97	124.05
681.11	65.54
681.25	182.56
681.39	124.05
681.52	98.30
681.66	91.28
681.80	117.03
681.94	121.71
682.07	126.39
682.21	177.88
682.35	105.32
682.49	124.05
682.62	121.71
682.76	35.11
682.90	145.11
683.04	95.96
683.17	117.03
683.31	138.09
683.45	229.37
683.59	170.86
683.72	114.69
683.86	98.30
684.00	114.69
684.13	215.33
684.27	166.18
684.41	191.92
684.55	112.35
684.68	152.13
684.82	117.03
684.96	175.54
685.09	65.54
685.23	147.45
685.37	121.71
685.50	161.50
685.64	117.03
685.78	63.19
685.91	107.66
686.05	105.32
686.19	81.92
686.32	140.43
686.46	102.98
686.60	46.81
686.73	152.13
686.87	100.64
687.01	35.11
687.14	133.41
687.28	159.16
687.42	95.96
687.55	100.64
687.69	72.56
687.82	140.43
687.96	117.03
688.10	138.09
688.23	88.94
688.37	156.82
688.50	133.41
688.64	117.03
688.78	28.09
688.91	126.39
689.05	170.86
689.18	121.71
689.32	131.07
689.46	56.17
689.59	145.11
689.73	142.77
689.86	70.22
690.00	119.37
690.13	117.03
690.27	88.94
690.41	128.73
690.54	110.01
690.68	105.32
690.81	119.37
690.95	81.92
691.08	119.37
691.22	95.96
691.35	53.83
691.49	102.98
691.62	98.30
691.76	81.92
691.89	128.73
692.03	105.32
692.16	126.39
692.30	138.09
692.43	149.79
692.57	102.98
692.70	21.06
692.84	133.41
692.97	124.05
693.11	145.11
693.24	95.96
693.38	117.03
693.51	42.13
693.65	163.84
693.78	170.86
693.92	77.24
694.05	142.77
694.19	133.41
694.32	67.88
694.45	119.37
694.59	135.75
694.72	119.37
694.86	110.01
694.99	102.98
695.13	140.43
695.26	170.86
695.39	81.92
695.53	140.43
695.66	100.64
695.80	72.56
695.93	88.94
696.07	49.15
696.20	117.03
696.33	91.28
696.47	67.88
696.60	84.26
696.73	79.58
696.87	95.96
697.00	63.19
697.14	28.09
697.27	60.85
697.40	126.39
697.54	93.62
697.67	105.32
697.80	135.75
697.94	114.69
698.07	105.32
698.21	79.58
698.34	133.41
698.47	74.90
698.61	72.56
698.74	42.13
698.87	138.09
699.01	93.62
699.14	170.86
699.27	102.98
699.40	292.57
699.54	124.05
699.67	88.94
699.80	0.00
699.94	65.54
700.07	67.88
700.20	95.96
700.34	184.90
700.47	93.62
700.60	77.24
700.73	133.41
700.87	131.07
701.00	95.96
701.13	63.19
701.26	119.37
701.40	46.81
701.53	117.03
701.66	112.35
701.79	77.24
701.93	72.56
702.06	124.05
702.19	154.48
702.32	119.37
702.46	159.16
702.59	110.01
702.72	39.79
702.85	100.64
702.99	65.54
703.12	156.82
703.25	91.28
703.38	117.03
703.51	147.45
703.65	84.26
703.78	72.56
703.91	117.03
704.04	67.88
704.17	32.77
704.31	93.62
704.44	95.96
704.57	56.17
704.70	60.85
704.83	135.75
704.96	117.03
705.10	86.60
705.23	105.32
>>>>>End Processed Spectral Data<<<<<
