SpectraSuite Data File
++++++++++++++++++++++++++++++++++++
Date: Fri Oct 04 11:47:20 GMT-05:00 2013
User: price-jones
Dark Spectrum Present: No
Reference Spectrum Present: No
Number of Sampled Component Spectra: 1
Spectrometers: USB2+H05261
Integration Time (usec): 100000 (USB2+H05261)
Spectra Averaged: 1 (USB2+H05261)
Boxcar Smoothing: 0 (USB2+H05261)
Correct for Electrical Dark: No (USB2+H05261)
Strobe/Lamp Enabled: No (USB2+H05261)
Correct for Detector Non-linearity: No (USB2+H05261)
Correct for Stray Light: No (USB2+H05261)
Number of Pixels in Processed Spectrum: 2048
>>>>>Begin Processed Spectral Data<<<<<
365.73	0.00
365.92	0.00
366.12	0.00
366.32	0.00
366.52	0.00
366.72	0.00
366.91	0.00
367.11	0.00
367.31	0.00
367.51	0.00
367.70	0.00
367.90	0.00
368.10	0.00
368.30	0.00
368.49	0.00
368.69	0.00
368.89	0.00
369.09	0.00
369.28	0.00
369.48	0.00
369.68	0.00
369.87	0.00
370.07	0.00
370.27	0.00
370.47	32.77
370.66	0.00
370.86	9.36
371.06	0.00
371.25	79.58
371.45	84.26
371.65	44.47
371.84	74.90
372.04	124.05
372.24	79.58
372.44	42.13
372.63	93.62
372.83	93.62
373.03	121.71
373.22	70.22
373.42	140.43
373.62	93.62
373.81	65.54
374.01	145.11
374.21	102.98
374.40	56.17
374.60	46.81
374.79	131.07
374.99	65.54
375.19	70.22
375.38	98.30
375.58	117.03
375.78	191.92
375.97	126.39
376.17	217.67
376.37	126.39
376.56	56.17
376.76	98.30
376.95	67.88
377.15	208.31
377.35	91.28
377.54	112.35
377.74	70.22
377.93	131.07
378.13	93.62
378.33	133.41
378.52	93.62
378.72	156.82
378.91	74.90
379.11	70.22
379.31	0.00
379.50	88.94
379.70	110.01
379.89	30.43
380.09	56.17
380.28	91.28
380.48	105.32
380.68	44.47
380.87	93.62
381.07	72.56
381.26	159.16
381.46	100.64
381.65	110.01
381.85	37.45
382.04	93.62
382.24	126.39
382.43	91.28
382.63	37.45
382.83	49.15
383.02	133.41
383.22	121.71
383.41	142.77
383.61	91.28
383.80	67.88
384.00	70.22
384.19	112.35
384.39	65.54
384.58	133.41
384.78	63.19
384.97	67.88
385.17	114.69
385.36	35.11
385.56	100.64
385.75	70.22
385.95	133.41
386.14	126.39
386.34	114.69
386.53	42.13
386.72	21.06
386.92	77.24
387.11	84.26
387.31	60.85
387.50	51.49
387.70	60.85
387.89	110.01
388.09	121.71
388.28	84.26
388.48	35.11
388.67	86.60
388.86	88.94
389.06	126.39
389.25	145.11
389.45	49.15
389.64	91.28
389.84	114.69
390.03	67.88
390.22	98.30
390.42	81.92
390.61	53.83
390.81	161.50
391.00	70.22
391.19	177.88
391.39	131.07
391.58	74.90
391.78	138.09
391.97	88.94
392.16	91.28
392.36	147.45
392.55	121.71
392.75	42.13
392.94	98.30
393.13	149.79
393.33	35.11
393.52	86.60
393.71	117.03
393.91	100.64
394.10	124.05
394.29	39.79
394.49	128.73
394.68	74.90
394.88	84.26
395.07	142.77
395.26	107.66
395.46	126.39
395.65	77.24
395.84	138.09
396.04	128.73
396.23	100.64
396.42	135.75
396.62	119.37
396.81	107.66
397.00	81.92
397.19	46.81
397.39	60.85
397.58	98.30
397.77	147.45
397.97	81.92
398.16	121.71
398.35	128.73
398.55	72.56
398.74	81.92
398.93	72.56
399.12	114.69
399.32	107.66
399.51	194.26
399.70	81.92
399.90	30.43
400.09	81.92
400.28	86.60
400.47	70.22
400.67	84.26
400.86	131.07
401.05	147.45
401.24	142.77
401.44	95.96
401.63	124.05
401.82	28.09
402.01	86.60
402.21	81.92
402.40	156.82
402.59	114.69
402.78	128.73
402.97	70.22
403.17	131.07
403.36	72.56
403.55	102.98
403.74	163.84
403.93	93.62
404.13	105.32
404.32	74.90
404.51	138.09
404.70	154.48
404.89	44.47
405.09	212.99
405.28	35.11
405.47	110.01
405.66	142.77
405.85	131.07
406.05	93.62
406.24	56.17
406.43	49.15
406.62	84.26
406.81	140.43
407.00	107.66
407.20	128.73
407.39	124.05
407.58	74.90
407.77	105.32
407.96	112.35
408.15	102.98
408.34	53.83
408.54	121.71
408.73	112.35
408.92	28.09
409.11	56.17
409.30	72.56
409.49	102.98
409.68	65.54
409.87	156.82
410.07	81.92
410.26	133.41
410.45	95.96
410.64	105.32
410.83	91.28
411.02	121.71
411.21	102.98
411.40	147.45
411.59	79.58
411.78	163.84
411.98	161.50
412.17	86.60
412.36	86.60
412.55	32.77
412.74	86.60
412.93	79.58
413.12	117.03
413.31	175.54
413.50	121.71
413.69	102.98
413.88	119.37
414.07	145.11
414.26	51.49
414.45	42.13
414.64	131.07
414.83	88.94
415.02	131.07
415.22	175.54
415.41	159.16
415.60	138.09
415.79	58.51
415.98	189.58
416.17	187.24
416.36	131.07
416.55	72.56
416.74	159.16
416.93	140.43
417.12	74.90
417.31	102.98
417.50	161.50
417.69	152.13
417.88	128.73
418.07	91.28
418.26	63.19
418.45	110.01
418.64	194.26
418.83	88.94
419.02	112.35
419.21	229.37
419.39	133.41
419.58	46.81
419.77	121.71
419.96	117.03
420.15	173.20
420.34	161.50
420.53	166.18
420.72	86.60
420.91	175.54
421.10	39.79
421.29	44.47
421.48	74.90
421.67	114.69
421.86	203.63
422.05	2.34
422.24	100.64
422.43	84.26
422.61	149.79
422.80	126.39
422.99	121.71
423.18	77.24
423.37	121.71
423.56	86.60
423.75	145.11
423.94	93.62
424.13	74.90
424.32	100.64
424.50	121.71
424.69	135.75
424.88	133.41
425.07	49.15
425.26	107.66
425.45	149.79
425.64	112.35
425.83	67.88
426.01	117.03
426.20	147.45
426.39	93.62
426.58	161.50
426.77	56.17
426.96	112.35
427.15	128.73
427.33	135.75
427.52	152.13
427.71	205.97
427.90	77.24
428.09	28.09
428.28	79.58
428.46	84.26
428.65	126.39
428.84	117.03
429.03	131.07
429.22	107.66
429.40	142.77
429.59	163.84
429.78	278.52
429.97	135.75
430.16	44.47
430.34	21.06
430.53	84.26
430.72	114.69
430.91	147.45
431.10	0.00
431.28	72.56
431.47	98.30
431.66	131.07
431.85	154.48
432.03	142.77
432.22	180.22
432.41	156.82
432.60	142.77
432.79	114.69
432.97	121.71
433.16	84.26
433.35	135.75
433.54	102.98
433.72	88.94
433.91	147.45
434.10	79.58
434.28	117.03
434.47	121.71
434.66	114.69
434.85	95.96
435.03	133.41
435.22	119.37
435.41	98.30
435.59	65.54
435.78	67.88
435.97	124.05
436.16	58.51
436.34	135.75
436.53	74.90
436.72	133.41
436.90	117.03
437.09	107.66
437.28	184.90
437.46	121.71
437.65	194.26
437.84	98.30
438.02	126.39
438.21	121.71
438.40	112.35
438.58	72.56
438.77	166.18
438.96	196.60
439.14	95.96
439.33	205.97
439.52	114.69
439.70	79.58
439.89	46.81
440.08	46.81
440.26	32.77
440.45	189.58
440.63	159.16
440.82	58.51
441.01	65.54
441.19	95.96
441.38	154.48
441.57	67.88
441.75	105.32
441.94	168.52
442.12	173.20
442.31	152.13
442.50	112.35
442.68	128.73
442.87	170.86
443.05	138.09
443.24	145.11
443.43	126.39
443.61	177.88
443.80	159.16
443.98	180.22
444.17	149.79
444.35	212.99
444.54	131.07
444.73	117.03
444.91	159.16
445.10	121.71
445.28	110.01
445.47	126.39
445.65	184.90
445.84	175.54
446.02	147.45
446.21	128.73
446.39	124.05
446.58	131.07
446.77	131.07
446.95	140.43
447.14	114.69
447.32	149.79
447.51	86.60
447.69	159.16
447.88	74.90
448.06	163.84
448.25	145.11
448.43	51.49
448.62	131.07
448.80	142.77
448.99	175.54
449.17	56.17
449.36	159.16
449.54	170.86
449.73	161.50
449.91	102.98
450.10	159.16
450.28	175.54
450.46	79.58
450.65	145.11
450.83	124.05
451.02	119.37
451.20	105.32
451.39	77.24
451.57	117.03
451.76	86.60
451.94	79.58
452.13	119.37
452.31	154.48
452.49	70.22
452.68	53.83
452.86	70.22
453.05	147.45
453.23	159.16
453.42	210.65
453.60	138.09
453.78	79.58
453.97	53.83
454.15	124.05
454.34	135.75
454.52	107.66
454.70	152.13
454.89	145.11
455.07	166.18
455.26	203.63
455.44	161.50
455.62	81.92
455.81	107.66
455.99	168.52
456.17	180.22
456.36	88.94
456.54	88.94
456.73	128.73
456.91	133.41
457.09	119.37
457.28	210.65
457.46	107.66
457.64	154.48
457.83	180.22
458.01	131.07
458.19	189.58
458.38	105.32
458.56	88.94
458.74	107.66
458.93	201.29
459.11	145.11
459.29	140.43
459.48	138.09
459.66	98.30
459.84	140.43
460.03	170.86
460.21	170.86
460.39	163.84
460.57	196.60
460.76	117.03
460.94	135.75
461.12	170.86
461.31	105.32
461.49	70.22
461.67	131.07
461.85	100.64
462.04	86.60
462.22	564.07
462.40	177.88
462.59	168.52
462.77	91.28
462.95	67.88
463.13	131.07
463.32	159.16
463.50	168.52
463.68	140.43
463.86	112.35
464.05	91.28
464.23	184.90
464.41	154.48
464.59	53.83
464.78	135.75
464.96	37.45
465.14	131.07
465.32	145.11
465.50	124.05
465.69	86.60
465.87	107.66
466.05	107.66
466.23	117.03
466.41	110.01
466.60	63.19
466.78	140.43
466.96	166.18
467.14	220.01
467.32	154.48
467.51	154.48
467.69	163.84
467.87	203.63
468.05	135.75
468.23	72.56
468.41	152.13
468.60	149.79
468.78	121.71
468.96	163.84
469.14	166.18
469.32	98.30
469.50	168.52
469.69	91.28
469.87	175.54
470.05	88.94
470.23	119.37
470.41	161.50
470.59	121.71
470.77	138.09
470.95	131.07
471.14	128.73
471.32	51.49
471.50	196.60
471.68	205.97
471.86	159.16
472.04	46.81
472.22	168.52
472.40	95.96
472.58	135.75
472.77	63.19
472.95	133.41
473.13	175.54
473.31	173.20
473.49	133.41
473.67	49.15
473.85	177.88
474.03	138.09
474.21	93.62
474.39	201.29
474.57	285.55
474.75	156.82
474.93	121.71
475.12	161.50
475.30	210.65
475.48	182.56
475.66	180.22
475.84	100.64
476.02	156.82
476.20	140.43
476.38	224.69
476.56	208.31
476.74	161.50
476.92	126.39
477.10	198.95
477.28	154.48
477.46	182.56
477.64	154.48
477.82	229.37
478.00	131.07
478.18	131.07
478.36	112.35
478.54	189.58
478.72	147.45
478.90	86.60
479.08	124.05
479.26	147.45
479.44	102.98
479.62	105.32
479.80	182.56
479.98	107.66
480.16	107.66
480.34	170.86
480.52	149.79
480.70	147.45
480.88	140.43
481.06	88.94
481.24	126.39
481.41	156.82
481.59	156.82
481.77	60.85
481.95	112.35
482.13	203.63
482.31	210.65
482.49	102.98
482.67	215.33
482.85	154.48
483.03	196.60
483.21	154.48
483.39	79.58
483.57	131.07
483.74	198.95
483.92	168.52
484.10	175.54
484.28	156.82
484.46	198.95
484.64	58.51
484.82	159.16
485.00	163.84
485.18	117.03
485.35	117.03
485.53	182.56
485.71	177.88
485.89	81.92
486.07	194.26
486.25	234.05
486.43	117.03
486.61	154.48
486.78	126.39
486.96	138.09
487.14	60.85
487.32	121.71
487.50	98.30
487.68	154.48
487.85	170.86
488.03	215.33
488.21	166.18
488.39	100.64
488.57	180.22
488.75	177.88
488.92	463.43
489.10	175.54
489.28	173.20
489.46	168.52
489.64	95.96
489.81	114.69
489.99	189.58
490.17	98.30
490.35	248.10
490.53	135.75
490.70	208.31
490.88	168.52
491.06	133.41
491.24	177.88
491.41	187.24
491.59	201.29
491.77	105.32
491.95	168.52
492.13	170.86
492.30	145.11
492.48	154.48
492.66	163.84
492.84	126.39
493.01	266.82
493.19	241.08
493.37	154.48
493.54	126.39
493.72	229.37
493.90	189.58
494.08	215.33
494.25	236.39
494.43	222.35
494.61	180.22
494.79	156.82
494.96	131.07
495.14	166.18
495.32	180.22
495.49	126.39
495.67	187.24
495.85	147.45
496.02	184.90
496.20	264.48
496.38	234.05
496.55	196.60
496.73	152.13
496.91	170.86
497.09	201.29
497.26	182.56
497.44	210.65
497.62	140.43
497.79	128.73
497.97	187.24
498.14	149.79
498.32	224.69
498.50	161.50
498.67	102.98
498.85	142.77
499.03	191.92
499.20	121.71
499.38	203.63
499.56	177.88
499.73	227.03
499.91	175.54
500.08	173.20
500.26	175.54
500.44	114.69
500.61	126.39
500.79	152.13
500.97	264.48
501.14	217.67
501.32	170.86
501.49	208.31
501.67	194.26
501.84	177.88
502.02	91.28
502.20	208.31
502.37	198.95
502.55	180.22
502.72	135.75
502.90	173.20
503.07	175.54
503.25	147.45
503.43	81.92
503.60	102.98
503.78	217.67
503.95	290.23
504.13	163.84
504.30	177.88
504.48	191.92
504.65	224.69
504.83	287.89
505.01	259.80
505.18	196.60
505.36	154.48
505.53	203.63
505.71	138.09
505.88	168.52
506.06	184.90
506.23	147.45
506.41	107.66
506.58	227.03
506.76	154.48
506.93	138.09
507.11	180.22
507.28	138.09
507.46	154.48
507.63	173.20
507.81	156.82
507.98	170.86
508.16	161.50
508.33	187.24
508.50	194.26
508.68	248.10
508.85	112.35
509.03	170.86
509.20	210.65
509.38	210.65
509.55	189.58
509.73	180.22
509.90	163.84
510.08	187.24
510.25	215.33
510.42	208.31
510.60	205.97
510.77	229.37
510.95	215.33
511.12	95.96
511.30	205.97
511.47	196.60
511.64	163.84
511.82	161.50
511.99	194.26
512.17	205.97
512.34	304.27
512.51	177.88
512.69	161.50
512.86	177.88
513.04	212.99
513.21	229.37
513.38	70.22
513.56	88.94
513.73	182.56
513.90	131.07
514.08	159.16
514.25	203.63
514.43	212.99
514.60	212.99
514.77	138.09
514.95	163.84
515.12	119.37
515.29	210.65
515.47	262.14
515.64	147.45
515.81	177.88
515.99	191.92
516.16	231.71
516.33	229.37
516.51	133.41
516.68	205.97
516.85	166.18
517.03	135.75
517.20	229.37
517.37	215.33
517.54	248.10
517.72	227.03
517.89	138.09
518.06	100.64
518.24	297.25
518.41	215.33
518.58	198.95
518.75	135.75
518.93	229.37
519.10	180.22
519.27	154.48
519.45	147.45
519.62	220.01
519.79	212.99
519.96	117.03
520.14	238.73
520.31	203.63
520.48	198.95
520.65	201.29
520.83	222.35
521.00	198.95
521.17	51.49
521.34	159.16
521.52	205.97
521.69	163.84
521.86	140.43
522.03	182.56
522.20	259.80
522.38	163.84
522.55	189.58
522.72	196.60
522.89	191.92
523.07	205.97
523.24	159.16
523.41	229.37
523.58	203.63
523.75	182.56
523.92	133.41
524.10	175.54
524.27	217.67
524.44	198.95
524.61	248.10
524.78	215.33
524.96	187.24
525.13	224.69
525.30	217.67
525.47	241.08
525.64	234.05
525.81	203.63
525.98	142.77
526.16	110.01
526.33	168.52
526.50	196.60
526.67	196.60
526.84	159.16
527.01	203.63
527.18	112.35
527.36	238.73
527.53	168.52
527.70	227.03
527.87	210.65
528.04	290.23
528.21	220.01
528.38	250.44
528.55	191.92
528.72	348.74
528.89	299.59
529.07	299.59
529.24	121.71
529.41	290.23
529.58	184.90
529.75	241.08
529.92	257.46
530.09	236.39
530.26	196.60
530.43	227.03
530.60	194.26
530.77	208.31
530.94	222.35
531.11	243.42
531.28	208.31
531.46	119.37
531.63	301.93
531.80	198.95
531.97	156.82
532.14	182.56
532.31	301.93
532.48	238.73
532.65	154.48
532.82	140.43
532.99	187.24
533.16	210.65
533.33	227.03
533.50	114.69
533.67	126.39
533.84	234.05
534.01	212.99
534.18	131.07
534.35	198.95
534.52	224.69
534.69	222.35
534.86	266.82
535.03	231.71
535.20	173.20
535.37	196.60
535.54	229.37
535.71	124.05
535.88	163.84
536.05	198.95
536.22	227.03
536.38	222.35
536.55	187.24
536.72	248.10
536.89	271.50
537.06	217.67
537.23	175.54
537.40	102.98
537.57	227.03
537.74	231.71
537.91	198.95
538.08	238.73
538.25	205.97
538.42	154.48
538.59	147.45
538.75	184.90
538.92	297.25
539.09	203.63
539.26	308.95
539.43	124.05
539.60	231.71
539.77	208.31
539.94	156.82
540.11	156.82
540.28	224.69
540.44	201.29
540.61	227.03
540.78	194.26
540.95	112.35
541.12	252.78
541.29	128.73
541.46	266.82
541.62	238.73
541.79	159.16
541.96	234.05
542.13	227.03
542.30	145.11
542.47	224.69
542.63	163.84
542.80	198.95
542.97	262.14
543.14	184.90
543.31	182.56
543.48	198.95
543.64	224.69
543.81	154.48
543.98	198.95
544.15	194.26
544.32	163.84
544.48	154.48
544.65	187.24
544.82	203.63
544.99	173.20
545.16	229.37
545.32	154.48
545.49	210.65
545.66	182.56
545.83	205.97
546.00	152.13
546.16	170.86
546.33	224.69
546.50	257.46
546.67	205.97
546.83	170.86
547.00	208.31
547.17	222.35
547.34	93.62
547.50	222.35
547.67	191.92
547.84	238.73
548.00	205.97
548.17	152.13
548.34	170.86
548.51	278.52
548.67	236.39
548.84	224.69
549.01	198.95
549.18	217.67
549.34	210.65
549.51	170.86
549.68	210.65
549.84	189.58
550.01	198.95
550.18	287.89
550.34	236.39
550.51	159.16
550.68	224.69
550.84	222.35
551.01	215.33
551.18	217.67
551.34	222.35
551.51	187.24
551.68	184.90
551.84	180.22
552.01	215.33
552.18	194.26
552.34	243.42
552.51	121.71
552.68	112.35
552.84	208.31
553.01	224.69
553.18	205.97
553.34	189.58
553.51	187.24
553.67	250.44
553.84	128.73
554.01	191.92
554.17	191.92
554.34	168.52
554.51	222.35
554.67	191.92
554.84	215.33
555.00	173.20
555.17	245.76
555.33	163.84
555.50	196.60
555.67	187.24
555.83	156.82
556.00	276.18
556.16	374.49
556.33	212.99
556.50	205.97
556.66	191.92
556.83	117.03
556.99	269.16
557.16	196.60
557.32	105.32
557.49	170.86
557.65	229.37
557.82	145.11
557.98	264.48
558.15	154.48
558.32	205.97
558.48	201.29
558.65	210.65
558.81	266.82
558.98	210.65
559.14	147.45
559.31	191.92
559.47	257.46
559.64	135.75
559.80	149.79
559.97	166.18
560.13	170.86
560.30	149.79
560.46	175.54
560.63	184.90
560.79	196.60
560.96	210.65
561.12	205.97
561.29	217.67
561.45	189.58
561.61	173.20
561.78	315.97
561.94	124.05
562.11	161.50
562.27	175.54
562.44	187.24
562.60	175.54
562.77	194.26
562.93	220.01
563.10	189.58
563.26	128.73
563.42	189.58
563.59	222.35
563.75	208.31
563.92	248.10
564.08	262.14
564.24	238.73
564.41	346.40
564.57	184.90
564.74	220.01
564.90	187.24
565.07	198.95
565.23	236.39
565.39	243.42
565.56	224.69
565.72	112.35
565.88	180.22
566.05	177.88
566.21	201.29
566.38	173.20
566.54	252.78
566.70	238.73
566.87	121.71
567.03	224.69
567.19	126.39
567.36	114.69
567.52	201.29
567.68	159.16
567.85	173.20
568.01	149.79
568.17	161.50
568.34	210.65
568.50	227.03
568.66	156.82
568.83	322.99
568.99	114.69
569.15	259.80
569.32	166.18
569.48	173.20
569.64	241.08
569.81	161.50
569.97	173.20
570.13	196.60
570.30	114.69
570.46	222.35
570.62	191.92
570.78	234.05
570.95	67.88
571.11	236.39
571.27	215.33
571.43	124.05
571.60	210.65
571.76	205.97
571.92	177.88
572.09	208.31
572.25	210.65
572.41	121.71
572.57	187.24
572.74	212.99
572.90	91.28
573.06	227.03
573.22	280.86
573.38	252.78
573.55	173.20
573.71	203.63
573.87	227.03
574.03	236.39
574.20	231.71
574.36	245.76
574.52	133.41
574.68	194.26
574.84	140.43
575.01	243.42
575.17	210.65
575.33	168.52
575.49	210.65
575.65	203.63
575.82	208.31
575.98	224.69
576.14	182.56
576.30	189.58
576.46	189.58
576.62	175.54
576.79	154.48
576.95	184.90
577.11	184.90
577.27	238.73
577.43	142.77
577.59	170.86
577.75	215.33
577.92	154.48
578.08	147.45
578.24	145.11
578.40	156.82
578.56	238.73
578.72	138.09
578.88	168.52
579.04	194.26
579.21	142.77
579.37	168.52
579.53	182.56
579.69	201.29
579.85	161.50
580.01	210.65
580.17	208.31
580.33	212.99
580.49	245.76
580.65	217.67
580.82	100.64
580.98	175.54
581.14	201.29
581.30	175.54
581.46	156.82
581.62	184.90
581.78	224.69
581.94	147.45
582.10	124.05
582.26	210.65
582.42	210.65
582.58	255.12
582.74	217.67
582.90	184.90
583.06	266.82
583.22	175.54
583.38	128.73
583.54	212.99
583.70	217.67
583.86	128.73
584.02	208.31
584.18	212.99
584.34	215.33
584.50	210.65
584.66	212.99
584.82	180.22
584.98	238.73
585.14	297.25
585.30	194.26
585.46	217.67
585.62	154.48
585.78	276.18
585.94	107.66
586.10	166.18
586.26	159.16
586.42	241.08
586.58	203.63
586.74	159.16
586.90	156.82
587.06	196.60
587.22	238.73
587.38	262.14
587.54	175.54
587.70	210.65
587.86	194.26
588.02	119.37
588.18	147.45
588.34	159.16
588.49	154.48
588.65	119.37
588.81	159.16
588.97	177.88
589.13	126.39
589.29	208.31
589.45	191.92
589.61	131.07
589.77	184.90
589.93	217.67
590.08	166.18
590.24	191.92
590.40	236.39
590.56	208.31
590.72	117.03
590.88	114.69
591.04	262.14
591.20	231.71
591.35	257.46
591.51	161.50
591.67	166.18
591.83	166.18
591.99	180.22
592.15	173.20
592.31	149.79
592.46	140.43
592.62	201.29
592.78	93.62
592.94	159.16
593.10	173.20
593.26	161.50
593.41	161.50
593.57	248.10
593.73	154.48
593.89	236.39
594.05	156.82
594.20	168.52
594.36	191.92
594.52	131.07
594.68	121.71
594.84	189.58
594.99	212.99
595.15	154.48
595.31	222.35
595.47	194.26
595.62	212.99
595.78	191.92
595.94	154.48
596.10	170.86
596.25	201.29
596.41	117.03
596.57	135.75
596.73	173.20
596.88	117.03
597.04	152.13
597.20	149.79
597.36	154.48
597.51	107.66
597.67	138.09
597.83	208.31
597.99	194.26
598.14	110.01
598.30	287.89
598.46	112.35
598.61	234.05
598.77	168.52
598.93	177.88
599.09	166.18
599.24	152.13
599.40	257.46
599.56	114.69
599.71	161.50
599.87	126.39
600.03	220.01
600.18	142.77
600.34	224.69
600.50	131.07
600.65	177.88
600.81	166.18
600.97	119.37
601.12	156.82
601.28	222.35
601.44	79.58
601.59	161.50
601.75	215.33
601.91	212.99
602.06	98.30
602.22	248.10
602.37	234.05
602.53	208.31
602.69	210.65
602.84	210.65
603.00	133.41
603.16	163.84
603.31	184.90
603.47	184.90
603.62	203.63
603.78	198.95
603.94	212.99
604.09	222.35
604.25	208.31
604.40	189.58
604.56	166.18
604.71	140.43
604.87	224.69
605.03	210.65
605.18	180.22
605.34	205.97
605.49	161.50
605.65	182.56
605.80	187.24
605.96	180.22
606.12	224.69
606.27	142.77
606.43	184.90
606.58	184.90
606.74	194.26
606.89	182.56
607.05	191.92
607.20	177.88
607.36	222.35
607.51	175.54
607.67	149.79
607.82	126.39
607.98	182.56
608.13	135.75
608.29	177.88
608.44	156.82
608.60	182.56
608.75	161.50
608.91	203.63
609.06	210.65
609.22	217.67
609.37	180.22
609.53	205.97
609.68	170.86
609.84	168.52
609.99	131.07
610.15	243.42
610.30	217.67
610.46	222.35
610.61	217.67
610.76	194.26
610.92	140.43
611.07	170.86
611.23	264.48
611.38	184.90
611.54	112.35
611.69	168.52
611.84	184.90
612.00	105.32
612.15	126.39
612.31	161.50
612.46	138.09
612.62	215.33
612.77	280.86
612.92	170.86
613.08	175.54
613.23	250.44
613.39	121.71
613.54	140.43
613.69	149.79
613.85	135.75
614.00	163.84
614.15	149.79
614.31	138.09
614.46	191.92
614.62	166.18
614.77	173.20
614.92	121.71
615.08	170.86
615.23	182.56
615.38	180.22
615.54	114.69
615.69	121.71
615.84	133.41
616.00	166.18
616.15	102.98
616.30	215.33
616.46	238.73
616.61	173.20
616.76	161.50
616.92	86.60
617.07	196.60
617.22	180.22
617.37	117.03
617.53	140.43
617.68	182.56
617.83	248.10
617.99	142.77
618.14	264.48
618.29	142.77
618.45	163.84
618.60	154.48
618.75	173.20
618.90	79.58
619.06	175.54
619.21	238.73
619.36	142.77
619.51	72.56
619.67	163.84
619.82	234.05
619.97	159.16
620.12	95.96
620.28	159.16
620.43	187.24
620.58	133.41
620.73	180.22
620.89	194.26
621.04	210.65
621.19	187.24
621.34	60.85
621.49	227.03
621.65	224.69
621.80	154.48
621.95	173.20
622.10	177.88
622.25	128.73
622.41	166.18
622.56	145.11
622.71	145.11
622.86	173.20
623.01	184.90
623.16	170.86
623.32	154.48
623.47	203.63
623.62	191.92
623.77	168.52
623.92	191.92
624.07	156.82
624.23	191.92
624.38	142.77
624.53	173.20
624.68	163.84
624.83	217.67
624.98	135.75
625.13	182.56
625.29	163.84
625.44	156.82
625.59	184.90
625.74	238.73
625.89	215.33
626.04	222.35
626.19	177.88
626.34	84.26
626.49	156.82
626.65	72.56
626.80	210.65
626.95	86.60
627.10	98.30
627.25	173.20
627.40	152.13
627.55	152.13
627.70	128.73
627.85	159.16
628.00	149.79
628.15	145.11
628.30	93.62
628.45	163.84
628.60	156.82
628.76	189.58
628.91	128.73
629.06	135.75
629.21	170.86
629.36	198.95
629.51	131.07
629.66	149.79
629.81	161.50
629.96	184.90
630.11	201.29
630.26	180.22
630.41	147.45
630.56	227.03
630.71	166.18
630.86	222.35
631.01	140.43
631.16	205.97
631.31	241.08
631.46	196.60
631.61	156.82
631.76	149.79
631.91	187.24
632.06	142.77
632.21	142.77
632.36	189.58
632.51	126.39
632.66	121.71
632.81	65.54
632.96	194.26
633.10	201.29
633.25	175.54
633.40	184.90
633.55	112.35
633.70	77.24
633.85	110.01
634.00	121.71
634.15	196.60
634.30	191.92
634.45	126.39
634.60	114.69
634.75	133.41
634.90	133.41
635.05	168.52
635.19	79.58
635.34	124.05
635.49	170.86
635.64	114.69
635.79	156.82
635.94	119.37
636.09	173.20
636.24	159.16
636.39	117.03
636.53	110.01
636.68	145.11
636.83	135.75
636.98	187.24
637.13	205.97
637.28	159.16
637.43	210.65
637.57	187.24
637.72	138.09
637.87	124.05
638.02	227.03
638.17	203.63
638.32	147.45
638.46	147.45
638.61	145.11
638.76	180.22
638.91	100.64
639.06	138.09
639.20	140.43
639.35	128.73
639.50	184.90
639.65	168.52
639.80	177.88
639.94	154.48
640.09	140.43
640.24	217.67
640.39	140.43
640.54	210.65
640.68	79.58
640.83	210.65
640.98	182.56
641.13	175.54
641.27	84.26
641.42	175.54
641.57	161.50
641.72	156.82
641.86	128.73
642.01	159.16
642.16	168.52
642.31	168.52
642.45	203.63
642.60	168.52
642.75	126.39
642.90	184.90
643.04	140.43
643.19	124.05
643.34	107.66
643.48	133.41
643.63	128.73
643.78	166.18
643.93	177.88
644.07	142.77
644.22	154.48
644.37	173.20
644.51	149.79
644.66	154.48
644.81	147.45
644.95	156.82
645.10	145.11
645.25	236.39
645.39	201.29
645.54	152.13
645.69	198.95
645.83	154.48
645.98	220.01
646.13	173.20
646.27	215.33
646.42	98.30
646.57	135.75
646.71	138.09
646.86	112.35
647.00	124.05
647.15	205.97
647.30	95.96
647.44	133.41
647.59	102.98
647.74	81.92
647.88	231.71
648.03	119.37
648.17	163.84
648.32	163.84
648.47	152.13
648.61	135.75
648.76	140.43
648.90	142.77
649.05	88.94
649.20	112.35
649.34	133.41
649.49	98.30
649.63	72.56
649.78	117.03
649.92	194.26
650.07	102.98
650.21	149.79
650.36	131.07
650.51	175.54
650.65	131.07
650.80	93.62
650.94	81.92
651.09	133.41
651.23	107.66
651.38	74.90
651.52	114.69
651.67	128.73
651.81	72.56
651.96	215.33
652.10	177.88
652.25	37.45
652.39	124.05
652.54	168.52
652.68	156.82
652.83	161.50
652.97	191.92
653.12	177.88
653.26	163.84
653.41	100.64
653.55	180.22
653.70	147.45
653.84	147.45
653.99	180.22
654.13	112.35
654.27	156.82
654.42	173.20
654.56	231.71
654.71	163.84
654.85	133.41
655.00	131.07
655.14	212.99
655.29	149.79
655.43	140.43
655.57	140.43
655.72	88.94
655.86	163.84
656.01	102.98
656.15	142.77
656.30	196.60
656.44	93.62
656.58	142.77
656.73	81.92
656.87	154.48
657.01	168.52
657.16	201.29
657.30	102.98
657.45	154.48
657.59	100.64
657.73	126.39
657.88	93.62
658.02	234.05
658.16	154.48
658.31	117.03
658.45	163.84
658.60	170.86
658.74	124.05
658.88	149.79
659.03	110.01
659.17	53.83
659.31	117.03
659.46	105.32
659.60	117.03
659.74	72.56
659.89	133.41
660.03	175.54
660.17	135.75
660.32	166.18
660.46	142.77
660.60	142.77
660.74	220.01
660.89	107.66
661.03	70.22
661.17	74.90
661.32	128.73
661.46	93.62
661.60	187.24
661.74	175.54
661.89	156.82
662.03	110.01
662.17	119.37
662.31	102.98
662.46	189.58
662.60	227.03
662.74	72.56
662.88	131.07
663.03	168.52
663.17	187.24
663.31	147.45
663.45	154.48
663.60	98.30
663.74	44.47
663.88	79.58
664.02	163.84
664.17	140.43
664.31	105.32
664.45	170.86
664.59	147.45
664.73	110.01
664.88	131.07
665.02	140.43
665.16	140.43
665.30	205.97
665.44	135.75
665.59	138.09
665.73	205.97
665.87	236.39
666.01	152.13
666.15	95.96
666.29	98.30
666.44	210.65
666.58	229.37
666.72	168.52
666.86	201.29
667.00	133.41
667.14	166.18
667.28	93.62
667.43	117.03
667.57	128.73
667.71	119.37
667.85	91.28
667.99	173.20
668.13	156.82
668.27	154.48
668.41	227.03
668.56	65.54
668.70	189.58
668.84	131.07
668.98	170.86
669.12	184.90
669.26	149.79
669.40	191.92
669.54	112.35
669.68	152.13
669.82	126.39
669.96	117.03
670.10	161.50
670.25	117.03
670.39	128.73
670.53	152.13
670.67	168.52
670.81	140.43
670.95	205.97
671.09	161.50
671.23	205.97
671.37	177.88
671.51	119.37
671.65	145.11
671.79	152.13
671.93	163.84
672.07	79.58
672.21	154.48
672.35	74.90
672.49	114.69
672.63	79.58
672.77	138.09
672.91	86.60
673.05	100.64
673.19	131.07
673.33	81.92
673.47	203.63
673.61	98.30
673.75	142.77
673.89	86.60
674.03	124.05
674.17	65.54
674.31	149.79
674.45	131.07
674.59	102.98
674.73	189.58
674.87	112.35
675.01	121.71
675.15	133.41
675.29	191.92
675.43	149.79
675.56	168.52
675.70	131.07
675.84	84.26
675.98	161.50
676.12	138.09
676.26	133.41
676.40	189.58
676.54	79.58
676.68	42.13
676.82	166.18
676.96	126.39
677.10	93.62
677.23	152.13
677.37	72.56
677.51	128.73
677.65	154.48
677.79	105.32
677.93	147.45
678.07	152.13
678.21	159.16
678.34	173.20
678.48	86.60
678.62	142.77
678.76	65.54
678.90	100.64
679.04	110.01
679.18	93.62
679.31	117.03
679.45	107.66
679.59	187.24
679.73	95.96
679.87	128.73
680.00	154.48
680.14	147.45
680.28	140.43
680.42	161.50
680.56	168.52
680.70	63.19
680.83	79.58
680.97	124.05
681.11	88.94
681.25	208.31
681.39	131.07
681.52	100.64
681.66	145.11
681.80	140.43
681.94	112.35
682.07	161.50
682.21	107.66
682.35	88.94
682.49	42.13
682.62	147.45
682.76	156.82
682.90	147.45
683.04	98.30
683.17	182.56
683.31	105.32
683.45	182.56
683.59	203.63
683.72	133.41
683.86	173.20
684.00	56.17
684.13	110.01
684.27	212.99
684.41	100.64
684.55	154.48
684.68	114.69
684.82	7.02
684.96	67.88
685.09	156.82
685.23	63.19
685.37	140.43
685.50	161.50
685.64	191.92
685.78	128.73
685.91	175.54
686.05	170.86
686.19	121.71
686.32	140.43
686.46	133.41
686.60	95.96
686.73	177.88
686.87	133.41
687.01	49.15
687.14	149.79
687.28	107.66
687.42	128.73
687.55	124.05
687.69	93.62
687.82	91.28
687.96	74.90
688.10	191.92
688.23	91.28
688.37	149.79
688.50	53.83
688.64	114.69
688.78	124.05
688.91	88.94
689.05	53.83
689.18	86.60
689.32	128.73
689.46	126.39
689.59	142.77
689.73	159.16
689.86	112.35
690.00	163.84
690.13	58.51
690.27	65.54
690.41	58.51
690.54	44.47
690.68	79.58
690.81	81.92
690.95	93.62
691.08	117.03
691.22	102.98
691.35	131.07
691.49	70.22
691.62	119.37
691.76	105.32
691.89	67.88
692.03	128.73
692.16	163.84
692.30	138.09
692.43	95.96
692.57	133.41
692.70	126.39
692.84	121.71
692.97	173.20
693.11	138.09
693.24	117.03
693.38	39.79
693.51	79.58
693.65	114.69
693.78	49.15
693.92	145.11
694.05	145.11
694.19	149.79
694.32	154.48
694.45	126.39
694.59	110.01
694.72	98.30
694.86	67.88
694.99	95.96
695.13	91.28
695.26	124.05
695.39	86.60
695.53	147.45
695.66	124.05
695.80	124.05
695.93	93.62
696.07	112.35
696.20	95.96
696.33	88.94
696.47	140.43
696.60	44.47
696.73	117.03
696.87	135.75
697.00	283.20
697.14	88.94
697.27	42.13
697.40	191.92
697.54	112.35
697.67	126.39
697.80	154.48
697.94	128.73
698.07	100.64
698.21	152.13
698.34	112.35
698.47	42.13
698.61	86.60
698.74	53.83
698.87	105.32
699.01	119.37
699.14	70.22
699.27	149.79
699.40	140.43
699.54	53.83
699.67	84.26
699.80	110.01
699.94	93.62
700.07	121.71
700.20	105.32
700.34	91.28
700.47	95.96
700.60	46.81
700.73	128.73
700.87	180.22
701.00	93.62
701.13	117.03
701.26	133.41
701.40	107.66
701.53	140.43
701.66	63.19
701.79	121.71
701.93	91.28
702.06	177.88
702.19	124.05
702.32	77.24
702.46	98.30
702.59	60.85
702.72	98.30
702.85	58.51
702.99	9.36
703.12	145.11
703.25	117.03
703.38	77.24
703.51	98.30
703.65	100.64
703.78	0.00
703.91	98.30
704.04	56.17
704.17	70.22
704.31	102.98
704.44	126.39
704.57	93.62
704.70	187.24
704.83	93.62
704.96	84.26
705.10	95.96
705.23	79.58
>>>>>End Processed Spectral Data<<<<<
