SpectraSuite Data File
++++++++++++++++++++++++++++++++++++
Date: Fri Oct 04 11:47:15 GMT-05:00 2013
User: price-jones
Dark Spectrum Present: No
Reference Spectrum Present: No
Number of Sampled Component Spectra: 1
Spectrometers: USB2+H05261
Integration Time (usec): 100000 (USB2+H05261)
Spectra Averaged: 1 (USB2+H05261)
Boxcar Smoothing: 0 (USB2+H05261)
Correct for Electrical Dark: No (USB2+H05261)
Strobe/Lamp Enabled: No (USB2+H05261)
Correct for Detector Non-linearity: No (USB2+H05261)
Correct for Stray Light: No (USB2+H05261)
Number of Pixels in Processed Spectrum: 2048
>>>>>Begin Processed Spectral Data<<<<<
365.73	46.81
365.92	46.81
366.12	46.81
366.32	0.00
366.52	0.00
366.72	0.00
366.91	0.00
367.11	0.00
367.31	0.00
367.51	0.00
367.70	0.00
367.90	0.00
368.10	0.00
368.30	0.00
368.49	0.00
368.69	0.00
368.89	0.00
369.09	0.00
369.28	0.00
369.48	0.00
369.68	0.00
369.87	14.04
370.07	0.00
370.27	0.00
370.47	32.77
370.66	30.43
370.86	0.00
371.06	49.15
371.25	81.92
371.45	37.45
371.65	114.69
371.84	25.75
372.04	37.45
372.24	79.58
372.44	44.47
372.63	131.07
372.83	170.86
373.03	100.64
373.22	84.26
373.42	16.38
373.62	105.32
373.81	102.98
374.01	81.92
374.21	119.37
374.40	112.35
374.60	182.56
374.79	74.90
374.99	117.03
375.19	124.05
375.38	58.51
375.58	74.90
375.78	187.24
375.97	114.69
376.17	145.11
376.37	74.90
376.56	170.86
376.76	102.98
376.95	93.62
377.15	194.26
377.35	65.54
377.54	152.13
377.74	49.15
377.93	95.96
378.13	117.03
378.33	147.45
378.52	114.69
378.72	81.92
378.91	88.94
379.11	105.32
379.31	81.92
379.50	93.62
379.70	149.79
379.89	49.15
380.09	133.41
380.28	32.77
380.48	95.96
380.68	93.62
380.87	105.32
381.07	135.75
381.26	67.88
381.46	70.22
381.65	100.64
381.85	65.54
382.04	39.79
382.24	117.03
382.43	72.56
382.63	105.32
382.83	70.22
383.02	63.19
383.22	102.98
383.41	42.13
383.61	138.09
383.80	117.03
384.00	119.37
384.19	98.30
384.39	46.81
384.58	93.62
384.78	119.37
384.97	77.24
385.17	133.41
385.36	65.54
385.56	117.03
385.75	65.54
385.95	72.56
386.14	166.18
386.34	81.92
386.53	102.98
386.72	112.35
386.92	98.30
387.11	95.96
387.31	110.01
387.50	39.79
387.70	128.73
387.89	112.35
388.09	88.94
388.28	135.75
388.48	77.24
388.67	102.98
388.86	35.11
389.06	81.92
389.25	142.77
389.45	23.41
389.64	56.17
389.84	86.60
390.03	114.69
390.22	81.92
390.42	112.35
390.61	70.22
390.81	60.85
391.00	79.58
391.19	107.66
391.39	77.24
391.58	124.05
391.78	86.60
391.97	70.22
392.16	56.17
392.36	88.94
392.55	117.03
392.75	166.18
392.94	142.77
393.13	88.94
393.33	114.69
393.52	124.05
393.71	142.77
393.91	25.75
394.10	0.00
394.29	60.85
394.49	149.79
394.68	74.90
394.88	95.96
395.07	131.07
395.26	119.37
395.46	42.13
395.65	63.19
395.84	84.26
396.04	152.13
396.23	149.79
396.42	121.71
396.62	63.19
396.81	88.94
397.00	91.28
397.19	81.92
397.39	67.88
397.58	81.92
397.77	147.45
397.97	102.98
398.16	114.69
398.35	102.98
398.55	114.69
398.74	105.32
398.93	93.62
399.12	39.79
399.32	180.22
399.51	138.09
399.70	114.69
399.90	161.50
400.09	88.94
400.28	53.83
400.47	72.56
400.67	77.24
400.86	93.62
401.05	46.81
401.24	117.03
401.44	98.30
401.63	154.48
401.82	72.56
402.01	53.83
402.21	102.98
402.40	149.79
402.59	128.73
402.78	112.35
402.97	112.35
403.17	156.82
403.36	49.15
403.55	166.18
403.74	147.45
403.93	124.05
404.13	184.90
404.32	177.88
404.51	25.75
404.70	65.54
404.89	21.06
405.09	93.62
405.28	154.48
405.47	91.28
405.66	149.79
405.85	98.30
406.05	58.51
406.24	175.54
406.43	147.45
406.62	154.48
406.81	170.86
407.00	81.92
407.20	81.92
407.39	107.66
407.58	95.96
407.77	79.58
407.96	126.39
408.15	119.37
408.34	67.88
408.54	131.07
408.73	102.98
408.92	81.92
409.11	107.66
409.30	131.07
409.49	53.83
409.68	142.77
409.87	191.92
410.07	77.24
410.26	16.38
410.45	58.51
410.64	51.49
410.83	119.37
411.02	46.81
411.21	37.45
411.40	133.41
411.59	95.96
411.78	67.88
411.98	175.54
412.17	138.09
412.36	138.09
412.55	86.60
412.74	133.41
412.93	100.64
413.12	65.54
413.31	117.03
413.50	107.66
413.69	117.03
413.88	135.75
414.07	121.71
414.26	138.09
414.45	88.94
414.64	187.24
414.83	126.39
415.02	133.41
415.22	161.50
415.41	119.37
415.60	88.94
415.79	77.24
415.98	53.83
416.17	0.00
416.36	117.03
416.55	147.45
416.74	173.20
416.93	74.90
417.12	44.47
417.31	131.07
417.50	49.15
417.69	124.05
417.88	112.35
418.07	110.01
418.26	189.58
418.45	98.30
418.64	191.92
418.83	67.88
419.02	175.54
419.21	88.94
419.39	107.66
419.58	135.75
419.77	102.98
419.96	149.79
420.15	105.32
420.34	131.07
420.53	72.56
420.72	121.71
420.91	161.50
421.10	119.37
421.29	138.09
421.48	147.45
421.67	117.03
421.86	128.73
422.05	124.05
422.24	105.32
422.43	187.24
422.61	72.56
422.80	182.56
422.99	88.94
423.18	119.37
423.37	98.30
423.56	21.06
423.75	114.69
423.94	142.77
424.13	177.88
424.32	84.26
424.50	74.90
424.69	145.11
424.88	154.48
425.07	98.30
425.26	177.88
425.45	121.71
425.64	98.30
425.83	138.09
426.01	145.11
426.20	154.48
426.39	119.37
426.58	74.90
426.77	110.01
426.96	140.43
427.15	93.62
427.33	58.51
427.52	159.16
427.71	100.64
427.90	58.51
428.09	126.39
428.28	84.26
428.46	147.45
428.65	114.69
428.84	88.94
429.03	138.09
429.22	110.01
429.40	53.83
429.59	74.90
429.78	210.65
429.97	51.49
430.16	67.88
430.34	67.88
430.53	117.03
430.72	147.45
430.91	142.77
431.10	114.69
431.28	142.77
431.47	128.73
431.66	173.20
431.85	133.41
432.03	117.03
432.22	234.05
432.41	128.73
432.60	124.05
432.79	100.64
432.97	194.26
433.16	163.84
433.35	184.90
433.54	124.05
433.72	168.52
433.91	112.35
434.10	128.73
434.28	138.09
434.47	25.75
434.66	70.22
434.85	88.94
435.03	124.05
435.22	191.92
435.41	208.31
435.59	100.64
435.78	86.60
435.97	152.13
436.16	182.56
436.34	126.39
436.53	135.75
436.72	168.52
436.90	191.92
437.09	152.13
437.28	154.48
437.46	121.71
437.65	133.41
437.84	119.37
438.02	196.60
438.21	124.05
438.40	95.96
438.58	119.37
438.77	135.75
438.96	56.17
439.14	102.98
439.33	121.71
439.52	112.35
439.70	9.36
439.89	60.85
440.08	135.75
440.26	126.39
440.45	156.82
440.63	107.66
440.82	152.13
441.01	156.82
441.19	145.11
441.38	105.32
441.57	128.73
441.75	175.54
441.94	117.03
442.12	255.12
442.31	70.22
442.50	86.60
442.68	117.03
442.87	114.69
443.05	74.90
443.24	166.18
443.43	177.88
443.61	189.58
443.80	145.11
443.98	166.18
444.17	170.86
444.35	170.86
444.54	159.16
444.73	86.60
444.91	100.64
445.10	119.37
445.28	110.01
445.47	88.94
445.65	128.73
445.84	135.75
446.02	166.18
446.21	147.45
446.39	154.48
446.58	121.71
446.77	65.54
446.95	152.13
447.14	149.79
447.32	98.30
447.51	149.79
447.69	140.43
447.88	154.48
448.06	140.43
448.25	140.43
448.43	119.37
448.62	67.88
448.80	170.86
448.99	142.77
449.17	166.18
449.36	117.03
449.54	128.73
449.73	119.37
449.91	159.16
450.10	149.79
450.28	140.43
450.46	243.42
450.65	161.50
450.83	163.84
451.02	156.82
451.20	91.28
451.39	154.48
451.57	147.45
451.76	102.98
451.94	91.28
452.13	145.11
452.31	170.86
452.49	72.56
452.68	107.66
452.86	93.62
453.05	91.28
453.23	44.47
453.42	67.88
453.60	84.26
453.78	95.96
453.97	70.22
454.15	28.09
454.34	56.17
454.52	154.48
454.70	201.29
454.89	187.24
455.07	56.17
455.26	88.94
455.44	126.39
455.62	67.88
455.81	117.03
455.99	177.88
456.17	88.94
456.36	58.51
456.54	93.62
456.73	60.85
456.91	84.26
457.09	105.32
457.28	142.77
457.46	126.39
457.64	138.09
457.83	84.26
458.01	128.73
458.19	205.97
458.38	112.35
458.56	152.13
458.74	147.45
458.93	170.86
459.11	138.09
459.29	159.16
459.48	117.03
459.66	168.52
459.84	81.92
460.03	292.57
460.21	156.82
460.39	65.54
460.57	147.45
460.76	112.35
460.94	166.18
461.12	107.66
461.31	191.92
461.49	159.16
461.67	170.86
461.85	117.03
462.04	112.35
462.22	564.07
462.40	159.16
462.59	140.43
462.77	131.07
462.95	105.32
463.13	149.79
463.32	147.45
463.50	149.79
463.68	131.07
463.86	170.86
464.05	128.73
464.23	159.16
464.41	114.69
464.59	98.30
464.78	86.60
464.96	170.86
465.14	159.16
465.32	84.26
465.50	147.45
465.69	159.16
465.87	128.73
466.05	128.73
466.23	168.52
466.41	119.37
466.60	173.20
466.78	95.96
466.96	175.54
467.14	149.79
467.32	145.11
467.51	149.79
467.69	117.03
467.87	180.22
468.05	177.88
468.23	135.75
468.41	217.67
468.60	119.37
468.78	102.98
468.96	138.09
469.14	142.77
469.32	147.45
469.50	138.09
469.69	140.43
469.87	198.95
470.05	182.56
470.23	114.69
470.41	98.30
470.59	182.56
470.77	145.11
470.95	133.41
471.14	154.48
471.32	142.77
471.50	142.77
471.68	93.62
471.86	98.30
472.04	189.58
472.22	173.20
472.40	110.01
472.58	135.75
472.77	56.17
472.95	156.82
473.13	170.86
473.31	189.58
473.49	135.75
473.67	135.75
473.85	135.75
474.03	227.03
474.21	119.37
474.39	191.92
474.57	203.63
474.75	187.24
474.93	152.13
475.12	126.39
475.30	142.77
475.48	117.03
475.66	187.24
475.84	124.05
476.02	119.37
476.20	110.01
476.38	168.52
476.56	217.67
476.74	147.45
476.92	91.28
477.10	114.69
477.28	152.13
477.46	110.01
477.64	182.56
477.82	177.88
478.00	124.05
478.18	138.09
478.36	98.30
478.54	196.60
478.72	86.60
478.90	67.88
479.08	156.82
479.26	100.64
479.44	100.64
479.62	93.62
479.80	112.35
479.98	131.07
480.16	170.86
480.34	107.66
480.52	140.43
480.70	203.63
480.88	152.13
481.06	112.35
481.24	180.22
481.41	173.20
481.59	154.48
481.77	119.37
481.95	124.05
482.13	189.58
482.31	124.05
482.49	114.69
482.67	124.05
482.85	86.60
483.03	177.88
483.21	145.11
483.39	187.24
483.57	112.35
483.74	198.95
483.92	145.11
484.10	170.86
484.28	215.33
484.46	196.60
484.64	135.75
484.82	147.45
485.00	149.79
485.18	128.73
485.35	175.54
485.53	173.20
485.71	126.39
485.89	128.73
486.07	180.22
486.25	227.03
486.43	203.63
486.61	180.22
486.78	138.09
486.96	138.09
487.14	175.54
487.32	154.48
487.50	152.13
487.68	184.90
487.85	110.01
488.03	152.13
488.21	156.82
488.39	208.31
488.57	154.48
488.75	147.45
488.92	397.89
489.10	161.50
489.28	222.35
489.46	95.96
489.64	163.84
489.81	208.31
489.99	142.77
490.17	126.39
490.35	215.33
490.53	124.05
490.70	201.29
490.88	124.05
491.06	161.50
491.24	198.95
491.41	182.56
491.59	224.69
491.77	135.75
491.95	138.09
492.13	152.13
492.30	217.67
492.48	95.96
492.66	177.88
492.84	152.13
493.01	168.52
493.19	131.07
493.37	189.58
493.54	187.24
493.72	166.18
493.90	170.86
494.08	166.18
494.25	182.56
494.43	182.56
494.61	112.35
494.79	133.41
494.96	138.09
495.14	255.12
495.32	287.89
495.49	203.63
495.67	189.58
495.85	152.13
496.02	175.54
496.20	191.92
496.38	166.18
496.55	147.45
496.73	124.05
496.91	196.60
497.09	248.10
497.26	189.58
497.44	243.42
497.62	182.56
497.79	161.50
497.97	145.11
498.14	147.45
498.32	194.26
498.50	269.16
498.67	112.35
498.85	166.18
499.03	205.97
499.20	138.09
499.38	215.33
499.56	138.09
499.73	208.31
499.91	248.10
500.08	166.18
500.26	163.84
500.44	175.54
500.61	166.18
500.79	194.26
500.97	222.35
501.14	215.33
501.32	142.77
501.49	217.67
501.67	194.26
501.84	156.82
502.02	168.52
502.20	208.31
502.37	163.84
502.55	215.33
502.72	154.48
502.90	182.56
503.07	243.42
503.25	154.48
503.43	135.75
503.60	173.20
503.78	154.48
503.95	198.95
504.13	166.18
504.30	166.18
504.48	177.88
504.65	234.05
504.83	152.13
505.01	168.52
505.18	231.71
505.36	142.77
505.53	236.39
505.71	215.33
505.88	180.22
506.06	238.73
506.23	238.73
506.41	198.95
506.58	236.39
506.76	191.92
506.93	140.43
507.11	229.37
507.28	220.01
507.46	224.69
507.63	168.52
507.81	161.50
507.98	217.67
508.16	182.56
508.33	177.88
508.50	201.29
508.68	217.67
508.85	138.09
509.03	187.24
509.20	107.66
509.38	159.16
509.55	142.77
509.73	257.46
509.90	189.58
510.08	212.99
510.25	220.01
510.42	182.56
510.60	224.69
510.77	152.13
510.95	220.01
511.12	191.92
511.30	238.73
511.47	196.60
511.64	205.97
511.82	117.03
511.99	212.99
512.17	147.45
512.34	191.92
512.51	236.39
512.69	177.88
512.86	238.73
513.04	166.18
513.21	168.52
513.38	131.07
513.56	189.58
513.73	196.60
513.90	166.18
514.08	180.22
514.25	222.35
514.43	201.29
514.60	227.03
514.77	257.46
514.95	227.03
515.12	147.45
515.29	140.43
515.47	280.86
515.64	222.35
515.81	191.92
515.99	259.80
516.16	196.60
516.33	205.97
516.51	128.73
516.68	201.29
516.85	187.24
517.03	133.41
517.20	280.86
517.37	194.26
517.54	262.14
517.72	215.33
517.89	271.50
518.06	229.37
518.24	198.95
518.41	212.99
518.58	140.43
518.75	168.52
518.93	205.97
519.10	159.16
519.27	227.03
519.45	208.31
519.62	117.03
519.79	203.63
519.96	255.12
520.14	184.90
520.31	208.31
520.48	166.18
520.65	212.99
520.83	147.45
521.00	180.22
521.17	238.73
521.34	180.22
521.52	184.90
521.69	203.63
521.86	231.71
522.03	224.69
522.20	187.24
522.38	255.12
522.55	259.80
522.72	191.92
522.89	271.50
523.07	238.73
523.24	177.88
523.41	212.99
523.58	175.54
523.75	128.73
523.92	147.45
524.10	224.69
524.27	231.71
524.44	168.52
524.61	224.69
524.78	133.41
524.96	250.44
525.13	189.58
525.30	222.35
525.47	149.79
525.64	248.10
525.81	163.84
525.98	112.35
526.16	229.37
526.33	182.56
526.50	173.20
526.67	163.84
526.84	161.50
527.01	135.75
527.18	184.90
527.36	166.18
527.53	184.90
527.70	250.44
527.87	238.73
528.04	222.35
528.21	187.24
528.38	292.57
528.55	252.78
528.72	196.60
528.89	245.76
529.07	117.03
529.24	184.90
529.41	252.78
529.58	161.50
529.75	149.79
529.92	187.24
530.09	191.92
530.26	224.69
530.43	196.60
530.60	198.95
530.77	196.60
530.94	250.44
531.11	177.88
531.28	229.37
531.46	184.90
531.63	241.08
531.80	215.33
531.97	154.48
532.14	187.24
532.31	227.03
532.48	238.73
532.65	189.58
532.82	196.60
532.99	220.01
533.16	245.76
533.33	220.01
533.50	248.10
533.67	168.52
533.84	255.12
534.01	236.39
534.18	259.80
534.35	266.82
534.52	250.44
534.69	238.73
534.86	245.76
535.03	191.92
535.20	257.46
535.37	292.57
535.54	152.13
535.71	191.92
535.88	287.89
536.05	152.13
536.22	194.26
536.38	168.52
536.55	170.86
536.72	168.52
536.89	180.22
537.06	177.88
537.23	257.46
537.40	191.92
537.57	152.13
537.74	243.42
537.91	280.86
538.08	194.26
538.25	189.58
538.42	203.63
538.59	170.86
538.75	255.12
538.92	168.52
539.09	252.78
539.26	182.56
539.43	285.55
539.60	255.12
539.77	365.12
539.94	332.36
540.11	294.91
540.28	280.86
540.44	243.42
540.61	170.86
540.78	238.73
540.95	187.24
541.12	220.01
541.29	236.39
541.46	224.69
541.62	250.44
541.79	168.52
541.96	140.43
542.13	227.03
542.30	191.92
542.47	245.76
542.63	166.18
542.80	156.82
542.97	229.37
543.14	212.99
543.31	245.76
543.48	222.35
543.64	227.03
543.81	222.35
543.98	234.05
544.15	224.69
544.32	212.99
544.48	140.43
544.65	145.11
544.82	212.99
544.99	161.50
545.16	201.29
545.32	208.31
545.49	159.16
545.66	166.18
545.83	170.86
546.00	175.54
546.16	182.56
546.33	180.22
546.50	173.20
546.67	203.63
546.83	208.31
547.00	177.88
547.17	154.48
547.34	142.77
547.50	173.20
547.67	159.16
547.84	170.86
548.00	166.18
548.17	161.50
548.34	147.45
548.51	159.16
548.67	159.16
548.84	147.45
549.01	168.52
549.18	189.58
549.34	252.78
549.51	236.39
549.68	229.37
549.84	259.80
550.01	203.63
550.18	180.22
550.34	245.76
550.51	220.01
550.68	280.86
550.84	142.77
551.01	231.71
551.18	229.37
551.34	238.73
551.51	271.50
551.68	177.88
551.84	147.45
552.01	250.44
552.18	161.50
552.34	203.63
552.51	250.44
552.68	159.16
552.84	187.24
553.01	222.35
553.18	191.92
553.34	201.29
553.51	191.92
553.67	217.67
553.84	273.84
554.01	187.24
554.17	173.20
554.34	149.79
554.51	180.22
554.67	205.97
554.84	191.92
555.00	180.22
555.17	224.69
555.33	255.12
555.50	182.56
555.67	243.42
555.83	259.80
556.00	187.24
556.16	285.55
556.33	208.31
556.50	191.92
556.66	255.12
556.83	121.71
556.99	138.09
557.16	224.69
557.32	145.11
557.49	163.84
557.65	163.84
557.82	191.92
557.98	173.20
558.15	170.86
558.32	170.86
558.48	184.90
558.65	236.39
558.81	187.24
558.98	163.84
559.14	215.33
559.31	229.37
559.47	187.24
559.64	180.22
559.80	241.08
559.97	177.88
560.13	191.92
560.30	128.73
560.46	159.16
560.63	212.99
560.79	217.67
560.96	100.64
561.12	189.58
561.29	220.01
561.45	189.58
561.61	201.29
561.78	304.27
561.94	124.05
562.11	222.35
562.27	194.26
562.44	208.31
562.60	184.90
562.77	212.99
562.93	241.08
563.10	170.86
563.26	131.07
563.42	201.29
563.59	241.08
563.75	177.88
563.92	203.63
564.08	184.90
564.24	224.69
564.41	217.67
564.57	154.48
564.74	163.84
564.90	175.54
565.07	182.56
565.23	283.20
565.39	236.39
565.56	196.60
565.72	177.88
565.88	166.18
566.05	187.24
566.21	236.39
566.38	191.92
566.54	222.35
566.70	177.88
566.87	152.13
567.03	222.35
567.19	175.54
567.36	220.01
567.52	217.67
567.68	217.67
567.85	224.69
568.01	245.76
568.17	131.07
568.34	231.71
568.50	170.86
568.66	114.69
568.83	252.78
568.99	154.48
569.15	287.89
569.32	252.78
569.48	163.84
569.64	208.31
569.81	215.33
569.97	161.50
570.13	159.16
570.30	159.16
570.46	198.95
570.62	156.82
570.78	231.71
570.95	124.05
571.11	271.50
571.27	196.60
571.43	98.30
571.60	166.18
571.76	212.99
571.92	173.20
572.09	161.50
572.25	205.97
572.41	184.90
572.57	187.24
572.74	245.76
572.90	220.01
573.06	224.69
573.22	147.45
573.38	257.46
573.55	201.29
573.71	217.67
573.87	168.52
574.03	220.01
574.20	196.60
574.36	227.03
574.52	173.20
574.68	285.55
574.84	243.42
575.01	208.31
575.17	198.95
575.33	238.73
575.49	149.79
575.65	201.29
575.82	177.88
575.98	177.88
576.14	259.80
576.30	243.42
576.46	297.25
576.62	245.76
576.79	205.97
576.95	301.93
577.11	166.18
577.27	163.84
577.43	203.63
577.59	187.24
577.75	201.29
577.92	231.71
578.08	180.22
578.24	205.97
578.40	224.69
578.56	184.90
578.72	266.82
578.88	184.90
579.04	227.03
579.21	170.86
579.37	198.95
579.53	184.90
579.69	170.86
579.85	138.09
580.01	182.56
580.17	234.05
580.33	220.01
580.49	210.65
580.65	259.80
580.82	196.60
580.98	220.01
581.14	145.11
581.30	208.31
581.46	264.48
581.62	201.29
581.78	163.84
581.94	128.73
582.10	269.16
582.26	212.99
582.42	152.13
582.58	208.31
582.74	266.82
582.90	189.58
583.06	187.24
583.22	212.99
583.38	196.60
583.54	182.56
583.70	255.12
583.86	229.37
584.02	339.38
584.18	217.67
584.34	252.78
584.50	596.84
584.66	3253.34
584.82	6981.82
584.98	9025.11
585.14	7850.16
585.30	5144.50
585.46	3023.97
585.62	1977.75
585.78	1076.65
585.94	561.73
586.10	283.20
586.26	358.10
586.42	264.48
586.58	191.92
586.74	124.05
586.90	248.10
587.06	241.08
587.22	208.31
587.38	175.54
587.54	231.71
587.70	641.31
587.86	807.48
588.02	786.42
588.18	627.26
588.34	521.94
588.49	355.76
588.65	287.89
588.81	259.80
588.97	222.35
589.13	166.18
589.29	266.82
589.45	175.54
589.61	142.77
589.77	229.37
589.93	163.84
590.08	290.23
590.24	126.39
590.40	205.97
590.56	170.86
590.72	112.35
590.88	203.63
591.04	189.58
591.20	201.29
591.35	177.88
591.51	220.01
591.67	191.92
591.83	140.43
591.99	189.58
592.15	189.58
592.31	215.33
592.46	159.16
592.62	131.07
592.78	159.16
592.94	187.24
593.10	182.56
593.26	182.56
593.41	250.44
593.57	175.54
593.73	252.78
593.89	557.05
594.05	1034.52
594.20	1277.93
594.36	1228.78
594.52	898.77
594.68	645.99
594.84	442.36
594.99	271.50
595.15	231.71
595.31	234.05
595.47	229.37
595.62	189.58
595.78	248.10
595.94	234.05
596.10	198.95
596.25	217.67
596.41	198.95
596.57	138.09
596.73	156.82
596.88	245.76
597.04	322.99
597.20	322.99
597.36	437.68
597.51	360.44
597.67	257.46
597.83	156.82
597.99	250.44
598.14	224.69
598.30	152.13
598.46	180.22
598.61	222.35
598.77	208.31
598.93	220.01
599.09	229.37
599.24	189.58
599.40	220.01
599.56	191.92
599.71	91.28
599.87	217.67
600.03	168.52
600.18	161.50
600.34	208.31
600.50	222.35
600.65	154.48
600.81	163.84
600.97	220.01
601.12	170.86
601.28	205.97
601.44	222.35
601.59	138.09
601.75	205.97
601.91	138.09
602.06	168.52
602.22	210.65
602.37	262.14
602.53	395.55
602.69	353.42
602.84	491.51
603.00	444.70
603.16	325.33
603.31	224.69
603.47	369.80
603.62	114.69
603.78	191.92
603.94	163.84
604.09	152.13
604.25	147.45
604.40	173.20
604.56	107.66
604.71	191.92
604.87	142.77
605.03	156.82
605.18	191.92
605.34	229.37
605.49	107.66
605.65	173.20
605.80	152.13
605.96	234.05
606.12	152.13
606.27	194.26
606.43	145.11
606.58	212.99
606.74	248.10
606.89	620.24
607.05	968.98
607.20	1151.54
607.36	947.92
607.51	667.05
607.67	550.03
607.82	332.36
607.98	325.33
608.13	131.07
608.29	147.45
608.44	266.82
608.60	224.69
608.75	294.91
608.91	348.74
609.06	887.06
609.22	1547.09
609.37	1795.19
609.53	1549.43
609.68	1015.79
609.84	741.95
609.99	514.92
610.15	362.78
610.30	262.14
610.46	238.73
610.61	196.60
610.76	177.88
610.92	173.20
611.07	182.56
611.23	224.69
611.38	250.44
611.54	280.86
611.69	187.24
611.84	149.79
612.00	128.73
612.15	205.97
612.31	212.99
612.46	191.92
612.62	191.92
612.77	210.65
612.92	248.10
613.08	299.59
613.23	215.33
613.39	224.69
613.54	299.59
613.69	915.15
613.85	1923.92
614.00	2654.17
614.15	2708.00
614.31	1956.69
614.46	1406.66
614.62	973.66
614.77	716.20
614.92	353.42
615.08	234.05
615.23	243.42
615.38	191.92
615.54	217.67
615.69	257.46
615.84	540.66
616.00	772.38
616.15	767.70
616.30	624.92
616.46	517.26
616.61	325.33
616.76	379.17
616.92	184.90
617.07	231.71
617.22	231.71
617.37	173.20
617.53	147.45
617.68	88.94
617.83	205.97
617.99	152.13
618.14	234.05
618.29	170.86
618.45	128.73
618.60	201.29
618.75	227.03
618.90	133.41
619.06	159.16
619.21	166.18
619.36	184.90
619.51	131.07
619.67	163.84
619.82	194.26
619.97	201.29
620.12	177.88
620.28	173.20
620.43	168.52
620.58	149.79
620.73	100.64
620.89	131.07
621.04	191.92
621.19	376.83
621.34	449.38
621.49	543.00
621.65	407.25
621.80	379.17
621.95	276.18
622.10	348.74
622.25	248.10
622.41	208.31
622.56	210.65
622.71	140.43
622.86	168.52
623.01	205.97
623.16	149.79
623.32	100.64
623.47	107.66
623.62	142.77
623.77	131.07
623.92	245.76
624.07	180.22
624.23	191.92
624.38	133.41
624.53	126.39
624.68	140.43
624.83	283.20
624.98	189.58
625.13	152.13
625.29	154.48
625.44	147.45
625.59	166.18
625.74	189.58
625.89	262.14
626.04	463.43
626.19	968.98
626.34	1397.30
626.49	1490.92
626.65	1135.16
626.80	856.64
626.95	585.13
627.10	381.51
627.25	269.16
627.40	245.76
627.55	154.48
627.70	177.88
627.85	149.79
628.00	152.13
628.15	208.31
628.30	163.84
628.45	180.22
628.60	93.62
628.76	110.01
628.91	133.41
629.06	208.31
629.21	126.39
629.36	175.54
629.51	135.75
629.66	163.84
629.81	187.24
629.96	297.25
630.11	517.26
630.26	510.24
630.41	461.09
630.56	320.65
630.71	299.59
630.86	278.52
631.01	152.13
631.16	191.92
631.31	210.65
631.46	159.16
631.61	250.44
631.76	194.26
631.91	142.77
632.06	210.65
632.21	196.60
632.36	205.97
632.51	196.60
632.66	184.90
632.81	287.89
632.96	690.46
633.10	887.06
633.25	1228.78
633.40	826.21
633.55	662.37
633.70	449.38
633.85	294.91
634.00	212.99
634.15	159.16
634.30	198.95
634.45	231.71
634.60	149.79
634.75	168.52
634.90	152.13
635.05	236.39
635.19	177.88
635.34	252.78
635.49	203.63
635.64	180.22
635.79	191.92
635.94	227.03
636.09	170.86
636.24	149.79
636.39	170.86
636.53	131.07
636.68	208.31
636.83	220.01
636.98	201.29
637.13	142.77
637.28	198.95
637.43	227.03
637.57	222.35
637.72	582.79
637.87	1343.47
638.02	1764.76
638.17	1832.64
638.32	1373.89
638.46	1135.16
638.61	807.48
638.76	454.06
638.91	299.59
639.06	241.08
639.20	248.10
639.35	285.55
639.50	283.20
639.65	858.98
639.80	1839.66
639.94	2534.80
640.09	2757.15
640.24	2129.89
640.39	1500.28
640.54	1011.11
640.68	674.07
640.83	344.06
640.98	194.26
641.13	191.92
641.27	163.84
641.42	149.79
641.57	212.99
641.72	86.60
641.86	177.88
642.01	81.92
642.16	95.96
642.31	205.97
642.45	170.86
642.60	121.71
642.75	177.88
642.90	212.99
643.04	159.16
643.19	168.52
643.34	140.43
643.48	149.79
643.63	133.41
643.78	208.31
643.93	217.67
644.07	210.65
644.22	135.75
644.37	154.48
644.51	187.24
644.66	168.52
644.81	156.82
644.95	121.71
645.10	140.43
645.25	142.77
645.39	250.44
645.54	133.41
645.69	161.50
645.83	159.16
645.98	205.97
646.13	44.47
646.27	105.32
646.42	114.69
646.57	88.94
646.71	67.88
646.86	149.79
647.00	180.22
647.15	159.16
647.30	121.71
647.44	145.11
647.59	142.77
647.74	135.75
647.88	128.73
648.03	156.82
648.17	168.52
648.32	74.90
648.47	152.13
648.61	121.71
648.76	170.86
648.90	110.01
649.05	135.75
649.20	152.13
649.34	142.77
649.49	128.73
649.63	114.69
649.78	117.03
649.92	133.41
650.07	465.77
650.21	868.34
650.36	1320.06
650.51	1511.99
650.65	1296.66
650.80	903.45
650.94	674.07
651.09	388.53
651.23	337.04
651.38	184.90
651.52	215.33
651.67	131.07
651.81	67.88
651.96	168.52
652.10	191.92
652.25	201.29
652.39	166.18
652.54	140.43
652.68	220.01
652.83	409.59
652.97	484.49
653.12	596.84
653.26	575.77
653.41	498.53
653.55	292.57
653.70	257.46
653.84	177.88
653.99	173.20
654.13	175.54
654.27	161.50
654.42	145.11
654.56	126.39
654.71	131.07
654.85	184.90
655.00	168.52
655.14	175.54
655.29	110.01
655.43	147.45
655.57	142.77
655.72	119.37
655.86	102.98
656.01	173.20
656.15	149.79
656.30	191.92
656.44	102.98
656.58	180.22
656.73	105.32
656.87	117.03
657.01	128.73
657.16	215.33
657.30	173.20
657.45	231.71
657.59	86.60
657.73	152.13
657.88	191.92
658.02	205.97
658.16	161.50
658.31	182.56
658.45	152.13
658.60	110.01
658.74	140.43
658.88	147.45
659.03	168.52
659.17	156.82
659.31	234.05
659.46	484.49
659.60	744.29
659.74	870.68
659.89	732.59
660.03	575.77
660.17	404.91
660.32	266.82
660.46	252.78
660.60	107.66
660.74	95.96
660.89	173.20
661.03	140.43
661.17	114.69
661.32	126.39
661.46	98.30
661.60	182.56
661.74	173.20
661.89	189.58
662.03	227.03
662.17	81.92
662.31	145.11
662.46	184.90
662.60	145.11
662.74	93.62
662.88	210.65
663.03	163.84
663.17	175.54
663.31	145.11
663.45	170.86
663.60	177.88
663.74	91.28
663.88	102.98
664.02	138.09
664.17	145.11
664.31	81.92
664.45	81.92
664.59	142.77
664.73	74.90
664.88	168.52
665.02	220.01
665.16	128.73
665.30	128.73
665.44	180.22
665.59	175.54
665.73	126.39
665.87	168.52
666.01	105.32
666.15	88.94
666.29	81.92
666.44	227.03
666.58	98.30
666.72	168.52
666.86	102.98
667.00	196.60
667.14	168.52
667.28	348.74
667.43	706.84
667.57	1088.35
667.71	1270.91
667.85	1057.92
667.99	933.87
668.13	528.96
668.27	334.70
668.41	273.84
668.56	154.48
668.70	187.24
668.84	133.41
668.98	140.43
669.12	177.88
669.26	224.69
669.40	182.56
669.54	110.01
669.68	177.88
669.82	154.48
669.96	189.58
670.10	112.35
670.25	180.22
670.39	194.26
670.53	88.94
670.67	145.11
670.81	142.77
670.95	229.37
671.09	250.44
671.23	468.11
671.37	711.52
671.51	828.55
671.65	774.72
671.79	678.76
671.93	538.32
672.07	344.06
672.21	280.86
672.35	203.63
672.49	147.45
672.63	145.11
672.77	121.71
672.91	138.09
673.05	196.60
673.19	170.86
673.33	149.79
673.47	154.48
673.61	133.41
673.75	142.77
673.89	100.64
674.03	84.26
674.17	112.35
674.31	110.01
674.45	112.35
674.59	154.48
674.73	147.45
674.87	177.88
675.01	175.54
675.15	91.28
675.29	173.20
675.43	124.05
675.56	131.07
675.70	175.54
675.84	152.13
675.98	114.69
676.12	126.39
676.26	114.69
676.40	98.30
676.54	117.03
676.68	128.73
676.82	163.84
676.96	140.43
677.10	74.90
677.23	198.95
677.37	100.64
677.51	98.30
677.65	182.56
677.79	124.05
677.93	145.11
678.07	124.05
678.21	67.88
678.34	124.05
678.48	133.41
678.62	119.37
678.76	121.71
678.90	86.60
679.04	117.03
679.18	140.43
679.31	112.35
679.45	21.06
679.59	86.60
679.73	173.20
679.87	121.71
680.00	210.65
680.14	93.62
680.28	121.71
680.42	110.01
680.56	98.30
680.70	112.35
680.83	196.60
680.97	102.98
681.11	119.37
681.25	177.88
681.39	107.66
681.52	166.18
681.66	128.73
681.80	168.52
681.94	138.09
682.07	91.28
682.21	140.43
682.35	114.69
682.49	119.37
682.62	135.75
682.76	72.56
682.90	140.43
683.04	161.50
683.17	100.64
683.31	152.13
683.45	124.05
683.59	163.84
683.72	201.29
683.86	189.58
684.00	72.56
684.13	173.20
684.27	198.95
684.41	84.26
684.55	65.54
684.68	112.35
684.82	142.77
684.96	133.41
685.09	175.54
685.23	105.32
685.37	100.64
685.50	166.18
685.64	79.58
685.78	147.45
685.91	154.48
686.05	100.64
686.19	79.58
686.32	173.20
686.46	107.66
686.60	117.03
686.73	133.41
686.87	84.26
687.01	114.69
687.14	105.32
687.28	67.88
687.42	81.92
687.55	128.73
687.69	126.39
687.82	67.88
687.96	56.17
688.10	161.50
688.23	147.45
688.37	124.05
688.50	124.05
688.64	128.73
688.78	124.05
688.91	177.88
689.05	126.39
689.18	128.73
689.32	88.94
689.46	131.07
689.59	128.73
689.73	159.16
689.86	65.54
690.00	32.77
690.13	154.48
690.27	102.98
690.41	135.75
690.54	140.43
690.68	51.49
690.81	100.64
690.95	215.33
691.08	145.11
691.22	112.35
691.35	112.35
691.49	170.86
691.62	196.60
691.76	86.60
691.89	98.30
692.03	147.45
692.16	107.66
692.30	152.13
692.43	227.03
692.57	341.72
692.70	472.79
692.84	594.50
692.97	531.30
693.11	461.09
693.24	390.87
693.38	262.14
693.51	245.76
693.65	107.66
693.78	98.30
693.92	67.88
694.05	152.13
694.19	124.05
694.32	126.39
694.45	74.90
694.59	110.01
694.72	100.64
694.86	133.41
694.99	177.88
695.13	105.32
695.26	56.17
695.39	145.11
695.53	227.03
695.66	128.73
695.80	145.11
695.93	124.05
696.07	149.79
696.20	196.60
696.33	119.37
696.47	135.75
696.60	250.44
696.73	166.18
696.87	79.58
697.00	215.33
697.14	102.98
697.27	65.54
697.40	191.92
697.54	86.60
697.67	138.09
697.80	128.73
697.94	119.37
698.07	102.98
698.21	124.05
698.34	67.88
698.47	112.35
698.61	60.85
698.74	84.26
698.87	212.99
699.01	30.43
699.14	117.03
699.27	147.45
699.40	187.24
699.54	142.77
699.67	138.09
699.80	74.90
699.94	121.71
700.07	81.92
700.20	91.28
700.34	119.37
700.47	112.35
700.60	102.98
700.73	163.84
700.87	117.03
701.00	147.45
701.13	98.30
701.26	112.35
701.40	184.90
701.53	100.64
701.66	88.94
701.79	124.05
701.93	126.39
702.06	166.18
702.19	112.35
702.32	222.35
702.46	166.18
702.59	126.39
702.72	182.56
702.85	564.07
702.99	842.59
703.12	1064.94
703.25	1043.88
703.38	1036.86
703.51	699.82
703.65	543.00
703.78	367.46
703.91	322.99
704.04	259.80
704.17	208.31
704.31	128.73
704.44	163.84
704.57	81.92
704.70	74.90
704.83	198.95
704.96	77.24
705.10	110.01
705.23	114.69
>>>>>End Processed Spectral Data<<<<<
