SpectraSuite Data File
++++++++++++++++++++++++++++++++++++
Date: Fri Oct 04 12:13:39 GMT-05:00 2013
User: price-jones
Dark Spectrum Present: No
Reference Spectrum Present: No
Number of Sampled Component Spectra: 1
Spectrometers: USB2+H05261
Integration Time (usec): 10000 (USB2+H05261)
Spectra Averaged: 1 (USB2+H05261)
Boxcar Smoothing: 0 (USB2+H05261)
Correct for Electrical Dark: No (USB2+H05261)
Strobe/Lamp Enabled: No (USB2+H05261)
Correct for Detector Non-linearity: No (USB2+H05261)
Correct for Stray Light: No (USB2+H05261)
Number of Pixels in Processed Spectrum: 2048
>>>>>Begin Processed Spectral Data<<<<<
365.73	0.00
365.92	0.00
366.12	0.00
366.32	0.00
366.52	0.00
366.72	0.00
366.91	0.00
367.11	0.00
367.31	0.00
367.51	0.00
367.70	0.00
367.90	0.00
368.10	0.00
368.30	0.00
368.49	0.00
368.69	0.00
368.89	0.00
369.09	0.00
369.28	0.00
369.48	0.00
369.68	0.00
369.87	0.00
370.07	0.00
370.27	0.00
370.47	0.00
370.66	0.00
370.86	0.00
371.06	0.00
371.25	0.00
371.45	0.00
371.65	2.34
371.84	0.00
372.04	0.00
372.24	0.00
372.44	53.83
372.63	11.70
372.83	49.15
373.03	30.43
373.22	37.45
373.42	30.43
373.62	11.70
373.81	11.70
374.01	81.92
374.21	42.13
374.40	0.00
374.60	65.54
374.79	25.75
374.99	21.06
375.19	0.00
375.38	35.11
375.58	18.72
375.78	0.00
375.97	0.00
376.17	7.02
376.37	14.04
376.56	39.79
376.76	39.79
376.95	0.00
377.15	44.47
377.35	46.81
377.54	65.54
377.74	16.38
377.93	2.34
378.13	0.00
378.33	0.00
378.52	0.00
378.72	0.00
378.91	21.06
379.11	21.06
379.31	14.04
379.50	16.38
379.70	0.00
379.89	32.77
380.09	18.72
380.28	0.00
380.48	0.00
380.68	9.36
380.87	0.00
381.07	42.13
381.26	11.70
381.46	102.98
381.65	102.98
381.85	16.38
382.04	79.58
382.24	56.17
382.43	35.11
382.63	37.45
382.83	14.04
383.02	0.00
383.22	0.00
383.41	18.72
383.61	37.45
383.80	88.94
384.00	42.13
384.19	81.92
384.39	65.54
384.58	0.00
384.78	0.00
384.97	0.00
385.17	70.22
385.36	0.00
385.56	0.00
385.75	0.00
385.95	58.51
386.14	0.00
386.34	18.72
386.53	30.43
386.72	32.77
386.92	0.00
387.11	0.00
387.31	16.38
387.50	39.79
387.70	46.81
387.89	0.00
388.09	0.00
388.28	70.22
388.48	0.00
388.67	0.00
388.86	44.47
389.06	0.00
389.25	0.00
389.45	23.41
389.64	30.43
389.84	0.00
390.03	0.00
390.22	98.30
390.42	0.00
390.61	0.00
390.81	28.09
391.00	0.00
391.19	32.77
391.39	21.06
391.58	2.34
391.78	39.79
391.97	49.15
392.16	0.00
392.36	9.36
392.55	42.13
392.75	42.13
392.94	0.00
393.13	0.00
393.33	0.00
393.52	0.00
393.71	0.00
393.91	0.00
394.10	44.47
394.29	79.58
394.49	56.17
394.68	39.79
394.88	37.45
395.07	30.43
395.26	37.45
395.46	63.19
395.65	0.00
395.84	93.62
396.04	0.00
396.23	0.00
396.42	0.00
396.62	11.70
396.81	49.15
397.00	0.00
397.19	95.96
397.39	81.92
397.58	0.00
397.77	39.79
397.97	81.92
398.16	0.00
398.35	0.00
398.55	9.36
398.74	0.00
398.93	35.11
399.12	16.38
399.32	11.70
399.51	0.00
399.70	0.00
399.90	32.77
400.09	0.00
400.28	18.72
400.47	65.54
400.67	56.17
400.86	0.00
401.05	0.00
401.24	0.00
401.44	0.00
401.63	0.00
401.82	46.81
402.01	46.81
402.21	23.41
402.40	9.36
402.59	72.56
402.78	42.13
402.97	21.06
403.17	0.00
403.36	44.47
403.55	16.38
403.74	98.30
403.93	7.02
404.13	28.09
404.32	0.00
404.51	28.09
404.70	53.83
404.89	67.88
405.09	16.38
405.28	30.43
405.47	88.94
405.66	0.00
405.85	0.00
406.05	102.98
406.24	0.00
406.43	91.28
406.62	70.22
406.81	0.00
407.00	0.00
407.20	0.00
407.39	53.83
407.58	28.09
407.77	0.00
407.96	74.90
408.15	0.00
408.34	98.30
408.54	23.41
408.73	23.41
408.92	0.00
409.11	9.36
409.30	35.11
409.49	107.66
409.68	32.77
409.87	46.81
410.07	30.43
410.26	16.38
410.45	35.11
410.64	74.90
410.83	2.34
411.02	0.00
411.21	14.04
411.40	30.43
411.59	28.09
411.78	30.43
411.98	88.94
412.17	114.69
412.36	60.85
412.55	9.36
412.74	0.00
412.93	11.70
413.12	0.00
413.31	18.72
413.50	21.06
413.69	0.00
413.88	30.43
414.07	65.54
414.26	25.75
414.45	0.00
414.64	49.15
414.83	44.47
415.02	18.72
415.22	63.19
415.41	23.41
415.60	23.41
415.79	28.09
415.98	0.00
416.17	100.64
416.36	0.00
416.55	86.60
416.74	23.41
416.93	107.66
417.12	65.54
417.31	35.11
417.50	53.83
417.69	35.11
417.88	65.54
418.07	0.00
418.26	70.22
418.45	0.00
418.64	35.11
418.83	37.45
419.02	16.38
419.21	44.47
419.39	67.88
419.58	46.81
419.77	14.04
419.96	9.36
420.15	46.81
420.34	58.51
420.53	65.54
420.72	42.13
420.91	32.77
421.10	46.81
421.29	79.58
421.48	0.00
421.67	0.00
421.86	67.88
422.05	0.00
422.24	42.13
422.43	4.68
422.61	93.62
422.80	44.47
422.99	44.47
423.18	65.54
423.37	102.98
423.56	11.70
423.75	28.09
423.94	105.32
424.13	67.88
424.32	21.06
424.50	7.02
424.69	32.77
424.88	37.45
425.07	2.34
425.26	35.11
425.45	67.88
425.64	107.66
425.83	46.81
426.01	74.90
426.20	51.49
426.39	28.09
426.58	88.94
426.77	112.35
426.96	65.54
427.15	14.04
427.33	0.00
427.52	51.49
427.71	93.62
427.90	65.54
428.09	0.00
428.28	4.68
428.46	58.51
428.65	72.56
428.84	23.41
429.03	39.79
429.22	72.56
429.40	0.00
429.59	37.45
429.78	9.36
429.97	0.00
430.16	56.17
430.34	70.22
430.53	16.38
430.72	7.02
430.91	102.98
431.10	28.09
431.28	7.02
431.47	28.09
431.66	23.41
431.85	0.00
432.03	53.83
432.22	65.54
432.41	35.11
432.60	93.62
432.79	56.17
432.97	4.68
433.16	25.75
433.35	0.00
433.54	39.79
433.72	42.13
433.91	46.81
434.10	70.22
434.28	35.11
434.47	37.45
434.66	105.32
434.85	42.13
435.03	70.22
435.22	42.13
435.41	67.88
435.59	7.02
435.78	49.15
435.97	11.70
436.16	14.04
436.34	79.58
436.53	53.83
436.72	70.22
436.90	0.00
437.09	126.39
437.28	67.88
437.46	70.22
437.65	81.92
437.84	7.02
438.02	91.28
438.21	4.68
438.40	21.06
438.58	30.43
438.77	46.81
438.96	42.13
439.14	18.72
439.33	86.60
439.52	46.81
439.70	28.09
439.89	81.92
440.08	63.19
440.26	93.62
440.45	49.15
440.63	4.68
440.82	14.04
441.01	56.17
441.19	42.13
441.38	95.96
441.57	60.85
441.75	51.49
441.94	4.68
442.12	39.79
442.31	56.17
442.50	77.24
442.68	88.94
442.87	105.32
443.05	0.00
443.24	70.22
443.43	44.47
443.61	98.30
443.80	51.49
443.98	37.45
444.17	53.83
444.35	67.88
444.54	58.51
444.73	30.43
444.91	65.54
445.10	63.19
445.28	14.04
445.47	35.11
445.65	51.49
445.84	51.49
446.02	37.45
446.21	30.43
446.39	25.75
446.58	37.45
446.77	35.11
446.95	91.28
447.14	95.96
447.32	70.22
447.51	35.11
447.69	14.04
447.88	56.17
448.06	98.30
448.25	39.79
448.43	70.22
448.62	44.47
448.80	25.75
448.99	72.56
449.17	0.00
449.36	74.90
449.54	65.54
449.73	0.00
449.91	51.49
450.10	63.19
450.28	63.19
450.46	44.47
450.65	102.98
450.83	18.72
451.02	128.73
451.20	53.83
451.39	35.11
451.57	49.15
451.76	53.83
451.94	58.51
452.13	119.37
452.31	7.02
452.49	42.13
452.68	14.04
452.86	32.77
453.05	51.49
453.23	51.49
453.42	105.32
453.60	74.90
453.78	98.30
453.97	100.64
454.15	67.88
454.34	0.00
454.52	37.45
454.70	23.41
454.89	23.41
455.07	39.79
455.26	23.41
455.44	86.60
455.62	44.47
455.81	35.11
455.99	91.28
456.17	126.39
456.36	44.47
456.54	18.72
456.73	35.11
456.91	105.32
457.09	77.24
457.28	81.92
457.46	53.83
457.64	7.02
457.83	25.75
458.01	0.00
458.19	25.75
458.38	39.79
458.56	32.77
458.74	44.47
458.93	58.51
459.11	124.05
459.29	51.49
459.48	30.43
459.66	0.00
459.84	58.51
460.03	46.81
460.21	77.24
460.39	37.45
460.57	39.79
460.76	133.41
460.94	18.72
461.12	88.94
461.31	2.34
461.49	51.49
461.67	18.72
461.85	16.38
462.04	70.22
462.22	105.32
462.40	72.56
462.59	110.01
462.77	86.60
462.95	21.06
463.13	65.54
463.32	63.19
463.50	35.11
463.68	39.79
463.86	25.75
464.05	105.32
464.23	77.24
464.41	72.56
464.59	70.22
464.78	37.45
464.96	105.32
465.14	51.49
465.32	53.83
465.50	60.85
465.69	133.41
465.87	25.75
466.05	98.30
466.23	81.92
466.41	53.83
466.60	74.90
466.78	74.90
466.96	72.56
467.14	35.11
467.32	0.00
467.51	44.47
467.69	91.28
467.87	28.09
468.05	23.41
468.23	100.64
468.41	9.36
468.60	56.17
468.78	23.41
468.96	53.83
469.14	4.68
469.32	88.94
469.50	77.24
469.69	53.83
469.87	2.34
470.05	140.43
470.23	0.00
470.41	84.26
470.59	60.85
470.77	46.81
470.95	25.75
471.14	88.94
471.32	44.47
471.50	0.00
471.68	14.04
471.86	65.54
472.04	100.64
472.22	58.51
472.40	0.00
472.58	93.62
472.77	107.66
472.95	18.72
473.13	53.83
473.31	58.51
473.49	91.28
473.67	138.09
473.85	9.36
474.03	7.02
474.21	44.47
474.39	93.62
474.57	88.94
474.75	67.88
474.93	95.96
475.12	100.64
475.30	56.17
475.48	86.60
475.66	16.38
475.84	39.79
476.02	32.77
476.20	107.66
476.38	21.06
476.56	0.00
476.74	84.26
476.92	84.26
477.10	16.38
477.28	35.11
477.46	42.13
477.64	65.54
477.82	23.41
478.00	21.06
478.18	70.22
478.36	44.47
478.54	14.04
478.72	74.90
478.90	70.22
479.08	117.03
479.26	65.54
479.44	77.24
479.62	18.72
479.80	0.00
479.98	23.41
480.16	23.41
480.34	42.13
480.52	70.22
480.70	56.17
480.88	88.94
481.06	124.05
481.24	58.51
481.41	53.83
481.59	30.43
481.77	0.00
481.95	72.56
482.13	35.11
482.31	135.75
482.49	93.62
482.67	42.13
482.85	0.00
483.03	49.15
483.21	98.30
483.39	98.30
483.57	93.62
483.74	30.43
483.92	67.88
484.10	93.62
484.28	53.83
484.46	21.06
484.64	72.56
484.82	91.28
485.00	46.81
485.18	65.54
485.35	56.17
485.53	32.77
485.71	72.56
485.89	16.38
486.07	51.49
486.25	37.45
486.43	25.75
486.61	44.47
486.78	95.96
486.96	28.09
487.14	95.96
487.32	98.30
487.50	86.60
487.68	95.96
487.85	28.09
488.03	56.17
488.21	93.62
488.39	42.13
488.57	49.15
488.75	86.60
488.92	100.64
489.10	81.92
489.28	86.60
489.46	98.30
489.64	124.05
489.81	65.54
489.99	100.64
490.17	84.26
490.35	95.96
490.53	98.30
490.70	51.49
490.88	86.60
491.06	65.54
491.24	124.05
491.41	65.54
491.59	42.13
491.77	95.96
491.95	74.90
492.13	84.26
492.30	51.49
492.48	49.15
492.66	0.00
492.84	25.75
493.01	56.17
493.19	107.66
493.37	79.58
493.54	46.81
493.72	95.96
493.90	63.19
494.08	119.37
494.25	105.32
494.43	70.22
494.61	91.28
494.79	65.54
494.96	49.15
495.14	79.58
495.32	173.20
495.49	81.92
495.67	79.58
495.85	117.03
496.02	67.88
496.20	60.85
496.38	86.60
496.55	95.96
496.73	16.38
496.91	23.41
497.09	112.35
497.26	0.00
497.44	105.32
497.62	65.54
497.79	102.98
497.97	131.07
498.14	79.58
498.32	28.09
498.50	39.79
498.67	102.98
498.85	91.28
499.03	42.13
499.20	100.64
499.38	93.62
499.56	110.01
499.73	98.30
499.91	60.85
500.08	70.22
500.26	30.43
500.44	0.00
500.61	0.00
500.79	21.06
500.97	51.49
501.14	88.94
501.32	128.73
501.49	72.56
501.67	107.66
501.84	60.85
502.02	72.56
502.20	119.37
502.37	95.96
502.55	35.11
502.72	56.17
502.90	70.22
503.07	119.37
503.25	72.56
503.43	51.49
503.60	163.84
503.78	70.22
503.95	60.85
504.13	35.11
504.30	117.03
504.48	51.49
504.65	72.56
504.83	100.64
505.01	91.28
505.18	88.94
505.36	72.56
505.53	74.90
505.71	84.26
505.88	30.43
506.06	74.90
506.23	114.69
506.41	93.62
506.58	65.54
506.76	93.62
506.93	49.15
507.11	42.13
507.28	60.85
507.46	121.71
507.63	60.85
507.81	28.09
507.98	124.05
508.16	70.22
508.33	95.96
508.50	84.26
508.68	93.62
508.85	147.45
509.03	63.19
509.20	98.30
509.38	7.02
509.55	39.79
509.73	79.58
509.90	117.03
510.08	53.83
510.25	53.83
510.42	25.75
510.60	46.81
510.77	65.54
510.95	30.43
511.12	44.47
511.30	32.77
511.47	100.64
511.64	124.05
511.82	63.19
511.99	149.79
512.17	72.56
512.34	42.13
512.51	124.05
512.69	81.92
512.86	79.58
513.04	135.75
513.21	112.35
513.38	44.47
513.56	102.98
513.73	67.88
513.90	91.28
514.08	117.03
514.25	126.39
514.43	121.71
514.60	117.03
514.77	77.24
514.95	128.73
515.12	93.62
515.29	72.56
515.47	84.26
515.64	46.81
515.81	77.24
515.99	91.28
516.16	84.26
516.33	133.41
516.51	98.30
516.68	28.09
516.85	7.02
517.03	42.13
517.20	84.26
517.37	39.79
517.54	168.52
517.72	117.03
517.89	18.72
518.06	112.35
518.24	88.94
518.41	39.79
518.58	37.45
518.75	93.62
518.93	14.04
519.10	84.26
519.27	180.22
519.45	56.17
519.62	98.30
519.79	46.81
519.96	135.75
520.14	168.52
520.31	65.54
520.48	79.58
520.65	163.84
520.83	70.22
521.00	128.73
521.17	107.66
521.34	77.24
521.52	77.24
521.69	67.88
521.86	65.54
522.03	140.43
522.20	100.64
522.38	39.79
522.55	102.98
522.72	49.15
522.89	114.69
523.07	98.30
523.24	128.73
523.41	77.24
523.58	37.45
523.75	65.54
523.92	67.88
524.10	107.66
524.27	124.05
524.44	102.98
524.61	119.37
524.78	112.35
524.96	0.00
525.13	79.58
525.30	166.18
525.47	88.94
525.64	100.64
525.81	25.75
525.98	37.45
526.16	93.62
526.33	88.94
526.50	9.36
526.67	14.04
526.84	100.64
527.01	58.51
527.18	140.43
527.36	105.32
527.53	53.83
527.70	119.37
527.87	53.83
528.04	121.71
528.21	65.54
528.38	121.71
528.55	51.49
528.72	56.17
528.89	67.88
529.07	91.28
529.24	46.81
529.41	107.66
529.58	102.98
529.75	95.96
529.92	74.90
530.09	91.28
530.26	100.64
530.43	32.77
530.60	46.81
530.77	88.94
530.94	93.62
531.11	114.69
531.28	86.60
531.46	58.51
531.63	105.32
531.80	95.96
531.97	44.47
532.14	102.98
532.31	110.01
532.48	93.62
532.65	18.72
532.82	117.03
532.99	88.94
533.16	102.98
533.33	93.62
533.50	44.47
533.67	98.30
533.84	0.00
534.01	53.83
534.18	86.60
534.35	74.90
534.52	56.17
534.69	102.98
534.86	74.90
535.03	42.13
535.20	105.32
535.37	102.98
535.54	0.00
535.71	30.43
535.88	18.72
536.05	135.75
536.22	74.90
536.38	70.22
536.55	53.83
536.72	114.69
536.89	79.58
537.06	100.64
537.23	86.60
537.40	93.62
537.57	117.03
537.74	81.92
537.91	187.24
538.08	105.32
538.25	98.30
538.42	131.07
538.59	72.56
538.75	72.56
538.92	86.60
539.09	140.43
539.26	65.54
539.43	112.35
539.60	65.54
539.77	133.41
539.94	28.09
540.11	91.28
540.28	131.07
540.44	53.83
540.61	131.07
540.78	95.96
540.95	91.28
541.12	18.72
541.29	49.15
541.46	102.98
541.62	112.35
541.79	42.13
541.96	88.94
542.13	53.83
542.30	63.19
542.47	156.82
542.63	93.62
542.80	30.43
542.97	72.56
543.14	56.17
543.31	72.56
543.48	63.19
543.64	91.28
543.81	44.47
543.98	72.56
544.15	145.11
544.32	126.39
544.48	112.35
544.65	77.24
544.82	107.66
544.99	98.30
545.16	95.96
545.32	81.92
545.49	88.94
545.66	74.90
545.83	77.24
546.00	86.60
546.16	39.79
546.33	117.03
546.50	81.92
546.67	72.56
546.83	131.07
547.00	88.94
547.17	114.69
547.34	70.22
547.50	72.56
547.67	39.79
547.84	126.39
548.00	107.66
548.17	0.00
548.34	84.26
548.51	14.04
548.67	145.11
548.84	42.13
549.01	51.49
549.18	74.90
549.34	88.94
549.51	124.05
549.68	60.85
549.84	175.54
550.01	60.85
550.18	44.47
550.34	74.90
550.51	107.66
550.68	119.37
550.84	124.05
551.01	67.88
551.18	49.15
551.34	4.68
551.51	74.90
551.68	72.56
551.84	135.75
552.01	60.85
552.18	95.96
552.34	58.51
552.51	114.69
552.68	42.13
552.84	93.62
553.01	65.54
553.18	128.73
553.34	93.62
553.51	42.13
553.67	93.62
553.84	67.88
554.01	65.54
554.17	0.00
554.34	30.43
554.51	25.75
554.67	39.79
554.84	35.11
555.00	53.83
555.17	142.77
555.33	133.41
555.50	161.50
555.67	35.11
555.83	7.02
556.00	42.13
556.16	161.50
556.33	100.64
556.50	91.28
556.66	147.45
556.83	74.90
556.99	102.98
557.16	117.03
557.32	32.77
557.49	98.30
557.65	112.35
557.82	91.28
557.98	117.03
558.15	93.62
558.32	124.05
558.48	84.26
558.65	86.60
558.81	56.17
558.98	81.92
559.14	98.30
559.31	100.64
559.47	0.00
559.64	56.17
559.80	124.05
559.97	74.90
560.13	35.11
560.30	44.47
560.46	114.69
560.63	105.32
560.79	63.19
560.96	93.62
561.12	65.54
561.29	60.85
561.45	63.19
561.61	39.79
561.78	84.26
561.94	152.13
562.11	44.47
562.27	56.17
562.44	126.39
562.60	98.30
562.77	30.43
562.93	86.60
563.10	72.56
563.26	77.24
563.42	37.45
563.59	93.62
563.75	124.05
563.92	49.15
564.08	32.77
564.24	131.07
564.41	65.54
564.57	81.92
564.74	88.94
564.90	140.43
565.07	119.37
565.23	67.88
565.39	112.35
565.56	65.54
565.72	30.43
565.88	100.64
566.05	102.98
566.21	79.58
566.38	46.81
566.54	91.28
566.70	37.45
566.87	100.64
567.03	60.85
567.19	135.75
567.36	74.90
567.52	110.01
567.68	142.77
567.85	131.07
568.01	81.92
568.17	63.19
568.34	72.56
568.50	84.26
568.66	79.58
568.83	74.90
568.99	65.54
569.15	95.96
569.32	58.51
569.48	124.05
569.64	124.05
569.81	84.26
569.97	21.06
570.13	121.71
570.30	110.01
570.46	53.83
570.62	42.13
570.78	49.15
570.95	107.66
571.11	84.26
571.27	42.13
571.43	58.51
571.60	105.32
571.76	110.01
571.92	39.79
572.09	79.58
572.25	105.32
572.41	95.96
572.57	60.85
572.74	49.15
572.90	105.32
573.06	25.75
573.22	77.24
573.38	56.17
573.55	42.13
573.71	84.26
573.87	88.94
574.03	35.11
574.20	107.66
574.36	63.19
574.52	44.47
574.68	25.75
574.84	84.26
575.01	28.09
575.17	159.16
575.33	105.32
575.49	65.54
575.65	18.72
575.82	49.15
575.98	77.24
576.14	86.60
576.30	95.96
576.46	23.41
576.62	70.22
576.79	58.51
576.95	100.64
577.11	100.64
577.27	21.06
577.43	91.28
577.59	70.22
577.75	39.79
577.92	60.85
578.08	23.41
578.24	30.43
578.40	91.28
578.56	88.94
578.72	147.45
578.88	49.15
579.04	79.58
579.21	32.77
579.37	60.85
579.53	72.56
579.69	145.11
579.85	119.37
580.01	58.51
580.17	77.24
580.33	32.77
580.49	63.19
580.65	100.64
580.82	72.56
580.98	65.54
581.14	119.37
581.30	72.56
581.46	159.16
581.62	60.85
581.78	39.79
581.94	60.85
582.10	121.71
582.26	79.58
582.42	88.94
582.58	37.45
582.74	126.39
582.90	0.00
583.06	63.19
583.22	138.09
583.38	117.03
583.54	30.43
583.70	0.00
583.86	32.77
584.02	88.94
584.18	93.62
584.34	95.96
584.50	74.90
584.66	77.24
584.82	145.11
584.98	114.69
585.14	51.49
585.30	79.58
585.46	53.83
585.62	58.51
585.78	91.28
585.94	81.92
586.10	35.11
586.26	138.09
586.42	74.90
586.58	74.90
586.74	114.69
586.90	88.94
587.06	81.92
587.22	79.58
587.38	37.45
587.54	37.45
587.70	30.43
587.86	140.43
588.02	60.85
588.18	56.17
588.34	119.37
588.49	14.04
588.65	0.00
588.81	88.94
588.97	121.71
589.13	0.00
589.29	30.43
589.45	25.75
589.61	126.39
589.77	81.92
589.93	79.58
590.08	30.43
590.24	79.58
590.40	53.83
590.56	65.54
590.72	63.19
590.88	9.36
591.04	65.54
591.20	72.56
591.35	65.54
591.51	88.94
591.67	53.83
591.83	53.83
591.99	74.90
592.15	107.66
592.31	39.79
592.46	46.81
592.62	133.41
592.78	4.68
592.94	58.51
593.10	102.98
593.26	0.00
593.41	39.79
593.57	67.88
593.73	63.19
593.89	21.06
594.05	63.19
594.20	84.26
594.36	56.17
594.52	53.83
594.68	72.56
594.84	28.09
594.99	9.36
595.15	100.64
595.31	42.13
595.47	4.68
595.62	124.05
595.78	53.83
595.94	102.98
596.10	60.85
596.25	133.41
596.41	35.11
596.57	51.49
596.73	60.85
596.88	114.69
597.04	84.26
597.20	30.43
597.36	110.01
597.51	25.75
597.67	32.77
597.83	35.11
597.99	35.11
598.14	35.11
598.30	131.07
598.46	107.66
598.61	39.79
598.77	63.19
598.93	18.72
599.09	91.28
599.24	23.41
599.40	147.45
599.56	14.04
599.71	37.45
599.87	88.94
600.03	88.94
600.18	32.77
600.34	70.22
600.50	63.19
600.65	86.60
600.81	42.13
600.97	93.62
601.12	21.06
601.28	79.58
601.44	65.54
601.59	95.96
601.75	74.90
601.91	79.58
602.06	58.51
602.22	95.96
602.37	86.60
602.53	39.79
602.69	110.01
602.84	42.13
603.00	0.00
603.16	79.58
603.31	32.77
603.47	46.81
603.62	51.49
603.78	159.16
603.94	44.47
604.09	145.11
604.25	79.58
604.40	56.17
604.56	37.45
604.71	51.49
604.87	74.90
605.03	98.30
605.18	58.51
605.34	30.43
605.49	0.00
605.65	67.88
605.80	121.71
605.96	58.51
606.12	56.17
606.27	51.49
606.43	70.22
606.58	23.41
606.74	42.13
606.89	65.54
607.05	138.09
607.20	70.22
607.36	77.24
607.51	65.54
607.67	133.41
607.82	0.00
607.98	23.41
608.13	49.15
608.29	100.64
608.44	9.36
608.60	107.66
608.75	91.28
608.91	7.02
609.06	112.35
609.22	63.19
609.37	67.88
609.53	4.68
609.68	88.94
609.84	30.43
609.99	58.51
610.15	14.04
610.30	58.51
610.46	84.26
610.61	84.26
610.76	63.19
610.92	95.96
611.07	161.50
611.23	49.15
611.38	60.85
611.54	46.81
611.69	28.09
611.84	140.43
612.00	100.64
612.15	70.22
612.31	63.19
612.46	107.66
612.62	63.19
612.77	60.85
612.92	135.75
613.08	16.38
613.23	18.72
613.39	77.24
613.54	18.72
613.69	128.73
613.85	117.03
614.00	70.22
614.15	107.66
614.31	93.62
614.46	107.66
614.62	60.85
614.77	131.07
614.92	67.88
615.08	74.90
615.23	81.92
615.38	74.90
615.54	32.77
615.69	58.51
615.84	93.62
616.00	37.45
616.15	77.24
616.30	72.56
616.46	51.49
616.61	107.66
616.76	81.92
616.92	74.90
617.07	74.90
617.22	67.88
617.37	88.94
617.53	88.94
617.68	0.00
617.83	84.26
617.99	42.13
618.14	58.51
618.29	74.90
618.45	51.49
618.60	28.09
618.75	110.01
618.90	0.00
619.06	42.13
619.21	67.88
619.36	44.47
619.51	70.22
619.67	112.35
619.82	95.96
619.97	84.26
620.12	49.15
620.28	145.11
620.43	56.17
620.58	37.45
620.73	84.26
620.89	86.60
621.04	131.07
621.19	84.26
621.34	79.58
621.49	107.66
621.65	56.17
621.80	35.11
621.95	65.54
622.10	37.45
622.25	58.51
622.41	56.17
622.56	84.26
622.71	138.09
622.86	4.68
623.01	11.70
623.16	23.41
623.32	105.32
623.47	102.98
623.62	72.56
623.77	37.45
623.92	72.56
624.07	60.85
624.23	93.62
624.38	44.47
624.53	119.37
624.68	56.17
624.83	11.70
624.98	110.01
625.13	77.24
625.29	42.13
625.44	0.00
625.59	39.79
625.74	16.38
625.89	110.01
626.04	63.19
626.19	42.13
626.34	105.32
626.49	51.49
626.65	67.88
626.80	79.58
626.95	2.34
627.10	51.49
627.25	100.64
627.40	58.51
627.55	91.28
627.70	14.04
627.85	93.62
628.00	0.00
628.15	0.00
628.30	28.09
628.45	0.00
628.60	28.09
628.76	60.85
628.91	0.00
629.06	53.83
629.21	51.49
629.36	23.41
629.51	7.02
629.66	7.02
629.81	16.38
629.96	58.51
630.11	102.98
630.26	44.47
630.41	49.15
630.56	30.43
630.71	0.00
630.86	58.51
631.01	72.56
631.16	21.06
631.31	0.00
631.46	28.09
631.61	60.85
631.76	67.88
631.91	91.28
632.06	58.51
632.21	107.66
632.36	60.85
632.51	119.37
632.66	121.71
632.81	58.51
632.96	65.54
633.10	9.36
633.25	63.19
633.40	133.41
633.55	86.60
633.70	95.96
633.85	32.77
634.00	4.68
634.15	35.11
634.30	0.00
634.45	39.79
634.60	107.66
634.75	53.83
634.90	0.00
635.05	37.45
635.19	72.56
635.34	72.56
635.49	58.51
635.64	100.64
635.79	72.56
635.94	56.17
636.09	65.54
636.24	56.17
636.39	74.90
636.53	0.00
636.68	46.81
636.83	39.79
636.98	114.69
637.13	79.58
637.28	46.81
637.43	58.51
637.57	11.70
637.72	117.03
637.87	91.28
638.02	72.56
638.17	58.51
638.32	159.16
638.46	65.54
638.61	0.00
638.76	0.00
638.91	107.66
639.06	70.22
639.20	37.45
639.35	93.62
639.50	35.11
639.65	7.02
639.80	65.54
639.94	102.98
640.09	46.81
640.24	4.68
640.39	32.77
640.54	18.72
640.68	58.51
640.83	30.43
640.98	88.94
641.13	39.79
641.27	105.32
641.42	105.32
641.57	117.03
641.72	32.77
641.86	56.17
642.01	147.45
642.16	21.06
642.31	0.00
642.45	49.15
642.60	131.07
642.75	25.75
642.90	112.35
643.04	60.85
643.19	56.17
643.34	0.00
643.48	173.20
643.63	11.70
643.78	30.43
643.93	138.09
644.07	23.41
644.22	35.11
644.37	102.98
644.51	74.90
644.66	30.43
644.81	18.72
644.95	51.49
645.10	0.00
645.25	14.04
645.39	65.54
645.54	67.88
645.69	81.92
645.83	81.92
645.98	91.28
646.13	32.77
646.27	25.75
646.42	28.09
646.57	4.68
646.71	0.00
646.86	37.45
647.00	42.13
647.15	25.75
647.30	63.19
647.44	51.49
647.59	95.96
647.74	77.24
647.88	2.34
648.03	37.45
648.17	88.94
648.32	88.94
648.47	0.00
648.61	72.56
648.76	53.83
648.90	0.00
649.05	30.43
649.20	121.71
649.34	14.04
649.49	72.56
649.63	63.19
649.78	42.13
649.92	32.77
650.07	74.90
650.21	91.28
650.36	37.45
650.51	44.47
650.65	74.90
650.80	42.13
650.94	11.70
651.09	65.54
651.23	63.19
651.38	14.04
651.52	9.36
651.67	23.41
651.81	95.96
651.96	84.26
652.10	30.43
652.25	49.15
652.39	67.88
652.54	0.00
652.68	32.77
652.83	77.24
652.97	51.49
653.12	0.00
653.26	9.36
653.41	46.81
653.55	81.92
653.70	9.36
653.84	0.00
653.99	84.26
654.13	77.24
654.27	37.45
654.42	51.49
654.56	105.32
654.71	23.41
654.85	23.41
655.00	65.54
655.14	63.19
655.29	39.79
655.43	81.92
655.57	93.62
655.72	39.79
655.86	14.04
656.01	30.43
656.15	77.24
656.30	140.43
656.44	18.72
656.58	86.60
656.73	112.35
656.87	65.54
657.01	28.09
657.16	102.98
657.30	170.86
657.45	44.47
657.59	102.98
657.73	58.51
657.88	102.98
658.02	98.30
658.16	72.56
658.31	46.81
658.45	56.17
658.60	56.17
658.74	86.60
658.88	42.13
659.03	95.96
659.17	70.22
659.31	0.00
659.46	88.94
659.60	117.03
659.74	14.04
659.89	63.19
660.03	79.58
660.17	0.00
660.32	74.90
660.46	105.32
660.60	81.92
660.74	11.70
660.89	9.36
661.03	0.00
661.17	81.92
661.32	95.96
661.46	86.60
661.60	46.81
661.74	16.38
661.89	70.22
662.03	74.90
662.17	65.54
662.31	2.34
662.46	56.17
662.60	72.56
662.74	124.05
662.88	60.85
663.03	58.51
663.17	32.77
663.31	91.28
663.45	67.88
663.60	107.66
663.74	67.88
663.88	95.96
664.02	102.98
664.17	56.17
664.31	74.90
664.45	35.11
664.59	35.11
664.73	18.72
664.88	30.43
665.02	58.51
665.16	51.49
665.30	84.26
665.44	2.34
665.59	67.88
665.73	114.69
665.87	23.41
666.01	53.83
666.15	32.77
666.29	56.17
666.44	23.41
666.58	56.17
666.72	0.00
666.86	86.60
667.00	39.79
667.14	74.90
667.28	23.41
667.43	53.83
667.57	21.06
667.71	49.15
667.85	39.79
667.99	28.09
668.13	18.72
668.27	81.92
668.41	51.49
668.56	49.15
668.70	70.22
668.84	79.58
668.98	16.38
669.12	102.98
669.26	74.90
669.40	93.62
669.54	117.03
669.68	81.92
669.82	7.02
669.96	84.26
670.10	28.09
670.25	28.09
670.39	0.00
670.53	46.81
670.67	46.81
670.81	100.64
670.95	46.81
671.09	37.45
671.23	30.43
671.37	11.70
671.51	74.90
671.65	0.00
671.79	60.85
671.93	102.98
672.07	81.92
672.21	7.02
672.35	49.15
672.49	95.96
672.63	46.81
672.77	32.77
672.91	21.06
673.05	18.72
673.19	63.19
673.33	84.26
673.47	35.11
673.61	63.19
673.75	0.00
673.89	0.00
674.03	56.17
674.17	77.24
674.31	77.24
674.45	142.77
674.59	53.83
674.73	121.71
674.87	4.68
675.01	16.38
675.15	18.72
675.29	74.90
675.43	49.15
675.56	63.19
675.70	65.54
675.84	72.56
675.98	60.85
676.12	93.62
676.26	70.22
676.40	58.51
676.54	0.00
676.68	16.38
676.82	11.70
676.96	86.60
677.10	70.22
677.23	28.09
677.37	77.24
677.51	72.56
677.65	49.15
677.79	93.62
677.93	74.90
678.07	131.07
678.21	0.00
678.34	28.09
678.48	18.72
678.62	32.77
678.76	86.60
678.90	88.94
679.04	11.70
679.18	35.11
679.31	70.22
679.45	11.70
679.59	39.79
679.73	44.47
679.87	37.45
680.00	74.90
680.14	2.34
680.28	56.17
680.42	74.90
680.56	42.13
680.70	14.04
680.83	30.43
680.97	86.60
681.11	0.00
681.25	4.68
681.39	0.00
681.52	51.49
681.66	107.66
681.80	0.00
681.94	0.00
682.07	25.75
682.21	39.79
682.35	35.11
682.49	91.28
682.62	81.92
682.76	0.00
682.90	86.60
683.04	0.00
683.17	67.88
683.31	14.04
683.45	4.68
683.59	0.00
683.72	9.36
683.86	140.43
684.00	0.00
684.13	58.51
684.27	58.51
684.41	49.15
684.55	46.81
684.68	30.43
684.82	0.00
684.96	58.51
685.09	37.45
685.23	28.09
685.37	53.83
685.50	46.81
685.64	53.83
685.78	63.19
685.91	67.88
686.05	46.81
686.19	0.00
686.32	42.13
686.46	42.13
686.60	0.00
686.73	0.00
686.87	77.24
687.01	42.13
687.14	35.11
687.28	53.83
687.42	93.62
687.55	39.79
687.69	0.00
687.82	84.26
687.96	30.43
688.10	0.00
688.23	56.17
688.37	53.83
688.50	51.49
688.64	37.45
688.78	0.00
688.91	63.19
689.05	14.04
689.18	93.62
689.32	14.04
689.46	42.13
689.59	49.15
689.73	93.62
689.86	0.00
690.00	23.41
690.13	72.56
690.27	35.11
690.41	67.88
690.54	16.38
690.68	16.38
690.81	98.30
690.95	70.22
691.08	77.24
691.22	60.85
691.35	0.00
691.49	51.49
691.62	25.75
691.76	4.68
691.89	35.11
692.03	18.72
692.16	21.06
692.30	18.72
692.43	63.19
692.57	11.70
692.70	77.24
692.84	49.15
692.97	79.58
693.11	51.49
693.24	84.26
693.38	35.11
693.51	46.81
693.65	77.24
693.78	0.00
693.92	25.75
694.05	21.06
694.19	63.19
694.32	42.13
694.45	32.77
694.59	30.43
694.72	65.54
694.86	58.51
694.99	56.17
695.13	18.72
695.26	58.51
695.39	53.83
695.53	11.70
695.66	95.96
695.80	79.58
695.93	81.92
696.07	11.70
696.20	44.47
696.33	70.22
696.47	46.81
696.60	0.00
696.73	72.56
696.87	56.17
697.00	39.79
697.14	32.77
697.27	49.15
697.40	0.00
697.54	72.56
697.67	65.54
697.80	93.62
697.94	51.49
698.07	100.64
698.21	0.00
698.34	44.47
698.47	28.09
698.61	86.60
698.74	58.51
698.87	81.92
699.01	0.00
699.14	30.43
699.27	65.54
699.40	9.36
699.54	44.47
699.67	0.00
699.80	25.75
699.94	0.00
700.07	35.11
700.20	0.00
700.34	0.00
700.47	84.26
700.60	81.92
700.73	21.06
700.87	44.47
701.00	23.41
701.13	0.00
701.26	98.30
701.40	25.75
701.53	11.70
701.66	84.26
701.79	51.49
701.93	46.81
702.06	30.43
702.19	39.79
702.32	51.49
702.46	56.17
702.59	93.62
702.72	4.68
702.85	30.43
702.99	32.77
703.12	0.00
703.25	77.24
703.38	53.83
703.51	16.38
703.65	58.51
703.78	7.02
703.91	67.88
704.04	28.09
704.17	37.45
704.31	42.13
704.44	74.90
704.57	7.02
704.70	51.49
704.83	0.00
704.96	0.00
705.10	11.70
705.23	0.00
>>>>>End Processed Spectral Data<<<<<
