SpectraSuite Data File
++++++++++++++++++++++++++++++++++++
Date: Fri Oct 04 12:13:26 GMT-05:00 2013
User: price-jones
Dark Spectrum Present: No
Reference Spectrum Present: No
Number of Sampled Component Spectra: 1
Spectrometers: USB2+H05261
Integration Time (usec): 10000 (USB2+H05261)
Spectra Averaged: 1 (USB2+H05261)
Boxcar Smoothing: 0 (USB2+H05261)
Correct for Electrical Dark: No (USB2+H05261)
Strobe/Lamp Enabled: No (USB2+H05261)
Correct for Detector Non-linearity: No (USB2+H05261)
Correct for Stray Light: No (USB2+H05261)
Number of Pixels in Processed Spectrum: 2048
>>>>>Begin Processed Spectral Data<<<<<
365.73	0.00
365.92	0.00
366.12	0.00
366.32	0.00
366.52	0.00
366.72	0.00
366.91	0.00
367.11	0.00
367.31	0.00
367.51	0.00
367.70	0.00
367.90	0.00
368.10	0.00
368.30	0.00
368.49	0.00
368.69	0.00
368.89	0.00
369.09	0.00
369.28	0.00
369.48	0.00
369.68	0.00
369.87	0.00
370.07	0.00
370.27	0.00
370.47	0.00
370.66	0.00
370.86	0.00
371.06	0.00
371.25	0.00
371.45	0.00
371.65	0.00
371.84	49.15
372.04	0.00
372.24	28.09
372.44	0.00
372.63	0.00
372.83	0.00
373.03	16.38
373.22	28.09
373.42	65.54
373.62	0.00
373.81	42.13
374.01	49.15
374.21	46.81
374.40	0.00
374.60	77.24
374.79	70.22
374.99	0.00
375.19	0.00
375.38	86.60
375.58	72.56
375.78	4.68
375.97	9.36
376.17	35.11
376.37	28.09
376.56	46.81
376.76	60.85
376.95	4.68
377.15	65.54
377.35	0.00
377.54	0.00
377.74	0.00
377.93	18.72
378.13	44.47
378.33	7.02
378.52	14.04
378.72	9.36
378.91	0.00
379.11	30.43
379.31	0.00
379.50	30.43
379.70	0.00
379.89	0.00
380.09	25.75
380.28	14.04
380.48	46.81
380.68	53.83
380.87	0.00
381.07	30.43
381.26	2.34
381.46	25.75
381.65	4.68
381.85	9.36
382.04	77.24
382.24	46.81
382.43	0.00
382.63	51.49
382.83	138.09
383.02	0.00
383.22	4.68
383.41	39.79
383.61	0.00
383.80	0.00
384.00	0.00
384.19	0.00
384.39	0.00
384.58	0.00
384.78	18.72
384.97	0.00
385.17	65.54
385.36	0.00
385.56	7.02
385.75	0.00
385.95	51.49
386.14	23.41
386.34	7.02
386.53	0.00
386.72	14.04
386.92	11.70
387.11	0.00
387.31	0.00
387.50	32.77
387.70	14.04
387.89	63.19
388.09	7.02
388.28	21.06
388.48	35.11
388.67	9.36
388.86	25.75
389.06	0.00
389.25	2.34
389.45	63.19
389.64	4.68
389.84	0.00
390.03	18.72
390.22	0.00
390.42	2.34
390.61	4.68
390.81	0.00
391.00	21.06
391.19	81.92
391.39	0.00
391.58	7.02
391.78	46.81
391.97	7.02
392.16	67.88
392.36	74.90
392.55	0.00
392.75	25.75
392.94	9.36
393.13	37.45
393.33	86.60
393.52	58.51
393.71	28.09
393.91	2.34
394.10	21.06
394.29	11.70
394.49	28.09
394.68	42.13
394.88	0.00
395.07	16.38
395.26	11.70
395.46	32.77
395.65	0.00
395.84	25.75
396.04	0.00
396.23	42.13
396.42	9.36
396.62	21.06
396.81	0.00
397.00	4.68
397.19	2.34
397.39	88.94
397.58	30.43
397.77	0.00
397.97	0.00
398.16	7.02
398.35	0.00
398.55	0.00
398.74	2.34
398.93	72.56
399.12	18.72
399.32	0.00
399.51	0.00
399.70	49.15
399.90	18.72
400.09	65.54
400.28	37.45
400.47	0.00
400.67	4.68
400.86	0.00
401.05	25.75
401.24	56.17
401.44	35.11
401.63	39.79
401.82	18.72
402.01	0.00
402.21	46.81
402.40	0.00
402.59	7.02
402.78	11.70
402.97	42.13
403.17	23.41
403.36	0.00
403.55	0.00
403.74	0.00
403.93	0.00
404.13	70.22
404.32	4.68
404.51	32.77
404.70	105.32
404.89	0.00
405.09	11.70
405.28	0.00
405.47	86.60
405.66	23.41
405.85	0.00
406.05	0.00
406.24	65.54
406.43	16.38
406.62	30.43
406.81	39.79
407.00	0.00
407.20	30.43
407.39	56.17
407.58	0.00
407.77	0.00
407.96	0.00
408.15	63.19
408.34	49.15
408.54	9.36
408.73	4.68
408.92	0.00
409.11	0.00
409.30	46.81
409.49	25.75
409.68	91.28
409.87	28.09
410.07	4.68
410.26	110.01
410.45	35.11
410.64	72.56
410.83	16.38
411.02	0.00
411.21	2.34
411.40	21.06
411.59	18.72
411.78	9.36
411.98	67.88
412.17	4.68
412.36	56.17
412.55	28.09
412.74	11.70
412.93	23.41
413.12	4.68
413.31	14.04
413.50	44.47
413.69	35.11
413.88	7.02
414.07	11.70
414.26	56.17
414.45	9.36
414.64	25.75
414.83	37.45
415.02	95.96
415.22	14.04
415.41	16.38
415.60	44.47
415.79	74.90
415.98	37.45
416.17	0.00
416.36	4.68
416.55	0.00
416.74	0.00
416.93	77.24
417.12	14.04
417.31	49.15
417.50	0.00
417.69	46.81
417.88	53.83
418.07	49.15
418.26	0.00
418.45	7.02
418.64	60.85
418.83	0.00
419.02	46.81
419.21	9.36
419.39	23.41
419.58	32.77
419.77	28.09
419.96	65.54
420.15	42.13
420.34	30.43
420.53	107.66
420.72	0.00
420.91	23.41
421.10	0.00
421.29	0.00
421.48	28.09
421.67	16.38
421.86	23.41
422.05	37.45
422.24	11.70
422.43	46.81
422.61	63.19
422.80	58.51
422.99	93.62
423.18	0.00
423.37	0.00
423.56	0.00
423.75	0.00
423.94	42.13
424.13	49.15
424.32	84.26
424.50	0.00
424.69	21.06
424.88	14.04
425.07	14.04
425.26	65.54
425.45	70.22
425.64	18.72
425.83	0.00
426.01	2.34
426.20	35.11
426.39	7.02
426.58	0.00
426.77	37.45
426.96	35.11
427.15	49.15
427.33	4.68
427.52	0.00
427.71	0.00
427.90	18.72
428.09	18.72
428.28	2.34
428.46	0.00
428.65	72.56
428.84	0.00
429.03	7.02
429.22	11.70
429.40	0.00
429.59	16.38
429.78	11.70
429.97	0.00
430.16	39.79
430.34	25.75
430.53	4.68
430.72	21.06
430.91	81.92
431.10	79.58
431.28	23.41
431.47	70.22
431.66	0.00
431.85	0.00
432.03	0.00
432.22	49.15
432.41	30.43
432.60	0.00
432.79	18.72
432.97	32.77
433.16	4.68
433.35	0.00
433.54	25.75
433.72	0.00
433.91	0.00
434.10	107.66
434.28	37.45
434.47	35.11
434.66	14.04
434.85	25.75
435.03	60.85
435.22	14.04
435.41	9.36
435.59	53.83
435.78	2.34
435.97	25.75
436.16	23.41
436.34	53.83
436.53	4.68
436.72	18.72
436.90	25.75
437.09	70.22
437.28	23.41
437.46	0.00
437.65	0.00
437.84	0.00
438.02	65.54
438.21	0.00
438.40	9.36
438.58	0.00
438.77	25.75
438.96	4.68
439.14	0.00
439.33	16.38
439.52	35.11
439.70	53.83
439.89	0.00
440.08	28.09
440.26	2.34
440.45	37.45
440.63	21.06
440.82	46.81
441.01	16.38
441.19	0.00
441.38	0.00
441.57	32.77
441.75	9.36
441.94	0.00
442.12	0.00
442.31	0.00
442.50	0.00
442.68	37.45
442.87	53.83
443.05	4.68
443.24	37.45
443.43	98.30
443.61	28.09
443.80	21.06
443.98	0.00
444.17	67.88
444.35	0.00
444.54	0.00
444.73	0.00
444.91	9.36
445.10	18.72
445.28	0.00
445.47	107.66
445.65	0.00
445.84	21.06
446.02	0.00
446.21	25.75
446.39	32.77
446.58	44.47
446.77	72.56
446.95	9.36
447.14	67.88
447.32	135.75
447.51	0.00
447.69	21.06
447.88	44.47
448.06	0.00
448.25	0.00
448.43	0.00
448.62	72.56
448.80	56.17
448.99	44.47
449.17	0.00
449.36	154.48
449.54	7.02
449.73	18.72
449.91	65.54
450.10	0.00
450.28	0.00
450.46	7.02
450.65	25.75
450.83	0.00
451.02	16.38
451.20	37.45
451.39	32.77
451.57	21.06
451.76	60.85
451.94	39.79
452.13	44.47
452.31	114.69
452.49	0.00
452.68	23.41
452.86	70.22
453.05	74.90
453.23	0.00
453.42	0.00
453.60	72.56
453.78	124.05
453.97	63.19
454.15	72.56
454.34	98.30
454.52	51.49
454.70	53.83
454.89	7.02
455.07	37.45
455.26	0.00
455.44	21.06
455.62	77.24
455.81	44.47
455.99	0.00
456.17	0.00
456.36	28.09
456.54	93.62
456.73	21.06
456.91	9.36
457.09	37.45
457.28	49.15
457.46	51.49
457.64	9.36
457.83	0.00
458.01	0.00
458.19	21.06
458.38	32.77
458.56	9.36
458.74	72.56
458.93	53.83
459.11	9.36
459.29	16.38
459.48	30.43
459.66	2.34
459.84	70.22
460.03	44.47
460.21	9.36
460.39	14.04
460.57	37.45
460.76	46.81
460.94	39.79
461.12	37.45
461.31	14.04
461.49	11.70
461.67	0.00
461.85	28.09
462.04	4.68
462.22	161.50
462.40	88.94
462.59	58.51
462.77	117.03
462.95	53.83
463.13	0.00
463.32	4.68
463.50	65.54
463.68	23.41
463.86	0.00
464.05	0.00
464.23	65.54
464.41	14.04
464.59	39.79
464.78	65.54
464.96	93.62
465.14	18.72
465.32	0.00
465.50	25.75
465.69	0.00
465.87	23.41
466.05	67.88
466.23	0.00
466.41	16.38
466.60	28.09
466.78	46.81
466.96	0.00
467.14	18.72
467.32	51.49
467.51	81.92
467.69	46.81
467.87	42.13
468.05	32.77
468.23	35.11
468.41	117.03
468.60	39.79
468.78	0.00
468.96	14.04
469.14	2.34
469.32	70.22
469.50	0.00
469.69	16.38
469.87	56.17
470.05	0.00
470.23	42.13
470.41	16.38
470.59	9.36
470.77	35.11
470.95	42.13
471.14	63.19
471.32	30.43
471.50	56.17
471.68	0.00
471.86	0.00
472.04	70.22
472.22	32.77
472.40	0.00
472.58	11.70
472.77	16.38
472.95	79.58
473.13	63.19
473.31	14.04
473.49	0.00
473.67	18.72
473.85	0.00
474.03	30.43
474.21	0.00
474.39	0.00
474.57	0.00
474.75	63.19
474.93	28.09
475.12	37.45
475.30	100.64
475.48	0.00
475.66	46.81
475.84	93.62
476.02	28.09
476.20	84.26
476.38	39.79
476.56	74.90
476.74	0.00
476.92	58.51
477.10	51.49
477.28	0.00
477.46	0.00
477.64	11.70
477.82	11.70
478.00	53.83
478.18	39.79
478.36	0.00
478.54	63.19
478.72	0.00
478.90	95.96
479.08	53.83
479.26	28.09
479.44	16.38
479.62	37.45
479.80	0.00
479.98	28.09
480.16	84.26
480.34	30.43
480.52	11.70
480.70	23.41
480.88	42.13
481.06	72.56
481.24	32.77
481.41	37.45
481.59	46.81
481.77	49.15
481.95	0.00
482.13	28.09
482.31	88.94
482.49	37.45
482.67	46.81
482.85	35.11
483.03	0.00
483.21	23.41
483.39	0.00
483.57	0.00
483.74	79.58
483.92	11.70
484.10	72.56
484.28	14.04
484.46	28.09
484.64	105.32
484.82	88.94
485.00	88.94
485.18	51.49
485.35	56.17
485.53	72.56
485.71	23.41
485.89	39.79
486.07	72.56
486.25	88.94
486.43	42.13
486.61	2.34
486.78	32.77
486.96	0.00
487.14	25.75
487.32	0.00
487.50	37.45
487.68	16.38
487.85	25.75
488.03	18.72
488.21	46.81
488.39	14.04
488.57	84.26
488.75	9.36
488.92	37.45
489.10	28.09
489.28	0.00
489.46	32.77
489.64	35.11
489.81	0.00
489.99	2.34
490.17	58.51
490.35	0.00
490.53	140.43
490.70	0.00
490.88	18.72
491.06	28.09
491.24	35.11
491.41	0.00
491.59	42.13
491.77	23.41
491.95	46.81
492.13	2.34
492.30	102.98
492.48	72.56
492.66	51.49
492.84	46.81
493.01	79.58
493.19	51.49
493.37	88.94
493.54	86.60
493.72	30.43
493.90	18.72
494.08	65.54
494.25	63.19
494.43	72.56
494.61	39.79
494.79	28.09
494.96	95.96
495.14	46.81
495.32	51.49
495.49	46.81
495.67	0.00
495.85	63.19
496.02	0.00
496.20	51.49
496.38	72.56
496.55	51.49
496.73	37.45
496.91	65.54
497.09	30.43
497.26	16.38
497.44	51.49
497.62	28.09
497.79	46.81
497.97	72.56
498.14	0.00
498.32	25.75
498.50	79.58
498.67	46.81
498.85	0.00
499.03	63.19
499.20	2.34
499.38	53.83
499.56	84.26
499.73	37.45
499.91	88.94
500.08	0.00
500.26	4.68
500.44	0.00
500.61	42.13
500.79	51.49
500.97	28.09
501.14	44.47
501.32	63.19
501.49	46.81
501.67	32.77
501.84	0.00
502.02	63.19
502.20	9.36
502.37	49.15
502.55	152.13
502.72	67.88
502.90	65.54
503.07	44.47
503.25	0.00
503.43	30.43
503.60	30.43
503.78	51.49
503.95	35.11
504.13	14.04
504.30	37.45
504.48	79.58
504.65	70.22
504.83	51.49
505.01	65.54
505.18	58.51
505.36	42.13
505.53	11.70
505.71	30.43
505.88	16.38
506.06	14.04
506.23	32.77
506.41	74.90
506.58	30.43
506.76	110.01
506.93	0.00
507.11	0.00
507.28	102.98
507.46	11.70
507.63	91.28
507.81	9.36
507.98	35.11
508.16	56.17
508.33	28.09
508.50	53.83
508.68	70.22
508.85	77.24
509.03	0.00
509.20	58.51
509.38	23.41
509.55	102.98
509.73	39.79
509.90	51.49
510.08	0.00
510.25	93.62
510.42	79.58
510.60	9.36
510.77	18.72
510.95	0.00
511.12	0.00
511.30	42.13
511.47	21.06
511.64	32.77
511.82	37.45
511.99	23.41
512.17	77.24
512.34	91.28
512.51	18.72
512.69	25.75
512.86	39.79
513.04	7.02
513.21	79.58
513.38	56.17
513.56	63.19
513.73	11.70
513.90	0.00
514.08	0.00
514.25	95.96
514.43	0.00
514.60	44.47
514.77	42.13
514.95	2.34
515.12	0.00
515.29	37.45
515.47	65.54
515.64	30.43
515.81	42.13
515.99	32.77
516.16	21.06
516.33	42.13
516.51	37.45
516.68	81.92
516.85	51.49
517.03	21.06
517.20	44.47
517.37	79.58
517.54	35.11
517.72	32.77
517.89	105.32
518.06	11.70
518.24	2.34
518.41	0.00
518.58	67.88
518.75	42.13
518.93	56.17
519.10	60.85
519.27	39.79
519.45	0.00
519.62	91.28
519.79	84.26
519.96	2.34
520.14	49.15
520.31	25.75
520.48	53.83
520.65	84.26
520.83	16.38
521.00	46.81
521.17	42.13
521.34	0.00
521.52	25.75
521.69	46.81
521.86	42.13
522.03	0.00
522.20	7.02
522.38	112.35
522.55	23.41
522.72	7.02
522.89	63.19
523.07	63.19
523.24	70.22
523.41	49.15
523.58	56.17
523.75	32.77
523.92	84.26
524.10	18.72
524.27	25.75
524.44	53.83
524.61	0.00
524.78	37.45
524.96	4.68
525.13	35.11
525.30	56.17
525.47	0.00
525.64	0.00
525.81	44.47
525.98	51.49
526.16	49.15
526.33	91.28
526.50	25.75
526.67	46.81
526.84	56.17
527.01	126.39
527.18	102.98
527.36	63.19
527.53	11.70
527.70	11.70
527.87	51.49
528.04	51.49
528.21	0.00
528.38	49.15
528.55	39.79
528.72	51.49
528.89	105.32
529.07	51.49
529.24	37.45
529.41	30.43
529.58	30.43
529.75	39.79
529.92	79.58
530.09	4.68
530.26	32.77
530.43	4.68
530.60	21.06
530.77	28.09
530.94	0.00
531.11	74.90
531.28	56.17
531.46	58.51
531.63	60.85
531.80	32.77
531.97	114.69
532.14	124.05
532.31	21.06
532.48	42.13
532.65	7.02
532.82	18.72
532.99	46.81
533.16	77.24
533.33	18.72
533.50	72.56
533.67	79.58
533.84	2.34
534.01	25.75
534.18	86.60
534.35	49.15
534.52	16.38
534.69	32.77
534.86	14.04
535.03	23.41
535.20	49.15
535.37	49.15
535.54	56.17
535.71	9.36
535.88	35.11
536.05	93.62
536.22	72.56
536.38	49.15
536.55	21.06
536.72	14.04
536.89	30.43
537.06	0.00
537.23	58.51
537.40	42.13
537.57	86.60
537.74	28.09
537.91	46.81
538.08	42.13
538.25	42.13
538.42	117.03
538.59	37.45
538.75	0.00
538.92	53.83
539.09	53.83
539.26	42.13
539.43	60.85
539.60	91.28
539.77	95.96
539.94	74.90
540.11	72.56
540.28	86.60
540.44	124.05
540.61	2.34
540.78	44.47
540.95	23.41
541.12	9.36
541.29	79.58
541.46	25.75
541.62	98.30
541.79	39.79
541.96	30.43
542.13	44.47
542.30	67.88
542.47	0.00
542.63	77.24
542.80	91.28
542.97	67.88
543.14	37.45
543.31	21.06
543.48	0.00
543.64	67.88
543.81	95.96
543.98	30.43
544.15	77.24
544.32	84.26
544.48	0.00
544.65	30.43
544.82	110.01
544.99	37.45
545.16	2.34
545.32	88.94
545.49	18.72
545.66	25.75
545.83	53.83
546.00	0.00
546.16	51.49
546.33	107.66
546.50	46.81
546.67	49.15
546.83	49.15
547.00	53.83
547.17	21.06
547.34	9.36
547.50	32.77
547.67	4.68
547.84	88.94
548.00	93.62
548.17	2.34
548.34	32.77
548.51	81.92
548.67	0.00
548.84	46.81
549.01	53.83
549.18	0.00
549.34	88.94
549.51	51.49
549.68	49.15
549.84	44.47
550.01	67.88
550.18	42.13
550.34	119.37
550.51	0.00
550.68	39.79
550.84	98.30
551.01	0.00
551.18	0.00
551.34	53.83
551.51	14.04
551.68	46.81
551.84	23.41
552.01	44.47
552.18	46.81
552.34	4.68
552.51	0.00
552.68	0.00
552.84	4.68
553.01	35.11
553.18	84.26
553.34	7.02
553.51	0.00
553.67	0.00
553.84	49.15
554.01	28.09
554.17	37.45
554.34	72.56
554.51	53.83
554.67	0.00
554.84	0.00
555.00	42.13
555.17	35.11
555.33	88.94
555.50	28.09
555.67	110.01
555.83	4.68
556.00	46.81
556.16	74.90
556.33	25.75
556.50	0.00
556.66	25.75
556.83	23.41
556.99	0.00
557.16	51.49
557.32	37.45
557.49	28.09
557.65	35.11
557.82	21.06
557.98	39.79
558.15	72.56
558.32	16.38
558.48	9.36
558.65	11.70
558.81	95.96
558.98	49.15
559.14	60.85
559.31	28.09
559.47	18.72
559.64	4.68
559.80	42.13
559.97	0.00
560.13	126.39
560.30	11.70
560.46	72.56
560.63	25.75
560.79	67.88
560.96	23.41
561.12	63.19
561.29	7.02
561.45	16.38
561.61	51.49
561.78	46.81
561.94	0.00
562.11	0.00
562.27	32.77
562.44	58.51
562.60	0.00
562.77	102.98
562.93	25.75
563.10	2.34
563.26	88.94
563.42	0.00
563.59	14.04
563.75	110.01
563.92	9.36
564.08	72.56
564.24	32.77
564.41	25.75
564.57	11.70
564.74	0.00
564.90	110.01
565.07	30.43
565.23	46.81
565.39	37.45
565.56	86.60
565.72	65.54
565.88	51.49
566.05	72.56
566.21	42.13
566.38	49.15
566.54	25.75
566.70	9.36
566.87	79.58
567.03	30.43
567.19	93.62
567.36	7.02
567.52	39.79
567.68	9.36
567.85	102.98
568.01	65.54
568.17	2.34
568.34	23.41
568.50	67.88
568.66	81.92
568.83	65.54
568.99	25.75
569.15	0.00
569.32	21.06
569.48	30.43
569.64	4.68
569.81	2.34
569.97	51.49
570.13	0.00
570.30	79.58
570.46	49.15
570.62	53.83
570.78	0.00
570.95	0.00
571.11	44.47
571.27	28.09
571.43	58.51
571.60	46.81
571.76	0.00
571.92	63.19
572.09	56.17
572.25	74.90
572.41	18.72
572.57	14.04
572.74	2.34
572.90	9.36
573.06	18.72
573.22	30.43
573.38	11.70
573.55	4.68
573.71	2.34
573.87	18.72
574.03	14.04
574.20	9.36
574.36	56.17
574.52	23.41
574.68	18.72
574.84	105.32
575.01	42.13
575.17	0.00
575.33	121.71
575.49	56.17
575.65	65.54
575.82	70.22
575.98	37.45
576.14	84.26
576.30	30.43
576.46	56.17
576.62	60.85
576.79	46.81
576.95	65.54
577.11	56.17
577.27	23.41
577.43	35.11
577.59	35.11
577.75	72.56
577.92	4.68
578.08	107.66
578.24	42.13
578.40	81.92
578.56	37.45
578.72	28.09
578.88	51.49
579.04	77.24
579.21	79.58
579.37	35.11
579.53	39.79
579.69	51.49
579.85	0.00
580.01	142.77
580.17	51.49
580.33	91.28
580.49	0.00
580.65	58.51
580.82	105.32
580.98	44.47
581.14	53.83
581.30	60.85
581.46	23.41
581.62	72.56
581.78	81.92
581.94	79.58
582.10	44.47
582.26	21.06
582.42	42.13
582.58	81.92
582.74	77.24
582.90	35.11
583.06	0.00
583.22	79.58
583.38	138.09
583.54	30.43
583.70	25.75
583.86	173.20
584.02	51.49
584.18	110.01
584.34	93.62
584.50	198.95
584.66	1371.55
584.82	3279.09
584.98	4418.93
585.14	3988.27
585.30	2658.85
585.46	1607.95
585.62	1027.50
585.78	554.71
585.94	203.63
586.10	147.45
586.26	79.58
586.42	100.64
586.58	53.83
586.74	77.24
586.90	70.22
587.06	51.49
587.22	53.83
587.38	44.47
587.54	152.13
587.70	227.03
587.86	358.10
588.02	407.25
588.18	262.14
588.34	205.97
588.49	107.66
588.65	161.50
588.81	58.51
588.97	58.51
589.13	58.51
589.29	4.68
589.45	58.51
589.61	35.11
589.77	81.92
589.93	93.62
590.08	44.47
590.24	0.00
590.40	110.01
590.56	63.19
590.72	28.09
590.88	98.30
591.04	0.00
591.20	60.85
591.35	9.36
591.51	88.94
591.67	53.83
591.83	35.11
591.99	86.60
592.15	0.00
592.31	74.90
592.46	46.81
592.62	180.22
592.78	86.60
592.94	30.43
593.10	53.83
593.26	81.92
593.41	39.79
593.57	102.98
593.73	46.81
593.89	217.67
594.05	425.98
594.20	629.60
594.36	582.79
594.52	395.55
594.68	278.52
594.84	170.86
594.99	159.16
595.15	81.92
595.31	91.28
595.47	84.26
595.62	49.15
595.78	46.81
595.94	0.00
596.10	53.83
596.25	0.00
596.41	0.00
596.57	70.22
596.73	86.60
596.88	77.24
597.04	117.03
597.20	161.50
597.36	114.69
597.51	112.35
597.67	65.54
597.83	149.79
597.99	37.45
598.14	77.24
598.30	35.11
598.46	0.00
598.61	4.68
598.77	25.75
598.93	102.98
599.09	77.24
599.24	58.51
599.40	56.17
599.56	77.24
599.71	72.56
599.87	2.34
600.03	79.58
600.18	18.72
600.34	18.72
600.50	39.79
600.65	72.56
600.81	0.00
600.97	16.38
601.12	42.13
601.28	88.94
601.44	95.96
601.59	81.92
601.75	2.34
601.91	58.51
602.06	46.81
602.22	23.41
602.37	14.04
602.53	135.75
602.69	257.46
602.84	212.99
603.00	107.66
603.16	119.37
603.31	105.32
603.47	95.96
603.62	53.83
603.78	86.60
603.94	91.28
604.09	39.79
604.25	11.70
604.40	23.41
604.56	0.00
604.71	39.79
604.87	0.00
605.03	60.85
605.18	25.75
605.34	133.41
605.49	25.75
605.65	51.49
605.80	84.26
605.96	30.43
606.12	2.34
606.27	25.75
606.43	35.11
606.58	51.49
606.74	88.94
606.89	215.33
607.05	369.80
607.20	514.92
607.36	437.68
607.51	259.80
607.67	222.35
607.82	149.79
607.98	72.56
608.13	168.52
608.29	46.81
608.44	23.41
608.60	72.56
608.75	23.41
608.91	187.24
609.06	294.91
609.22	723.23
609.37	823.87
609.53	826.21
609.68	552.37
609.84	421.30
609.99	271.50
610.15	147.45
610.30	105.32
610.46	42.13
610.61	30.43
610.76	42.13
610.92	88.94
611.07	0.00
611.23	25.75
611.38	39.79
611.54	42.13
611.69	49.15
611.84	0.00
612.00	42.13
612.15	65.54
612.31	25.75
612.46	49.15
612.62	110.01
612.77	119.37
612.92	86.60
613.08	18.72
613.23	0.00
613.39	79.58
613.54	110.01
613.69	245.76
613.85	863.66
614.00	1256.87
614.15	1343.47
614.31	856.64
614.46	629.60
614.62	437.68
614.77	276.18
614.92	173.20
615.08	95.96
615.23	46.81
615.38	79.58
615.54	84.26
615.69	56.17
615.84	189.58
616.00	322.99
616.15	454.06
616.30	337.04
616.46	173.20
616.61	159.16
616.76	175.54
616.92	156.82
617.07	91.28
617.22	9.36
617.37	51.49
617.53	42.13
617.68	39.79
617.83	35.11
617.99	42.13
618.14	112.35
618.29	37.45
618.45	39.79
618.60	0.00
618.75	0.00
618.90	42.13
619.06	58.51
619.21	21.06
619.36	58.51
619.51	21.06
619.67	51.49
619.82	49.15
619.97	51.49
620.12	42.13
620.28	60.85
620.43	37.45
620.58	74.90
620.73	0.00
620.89	16.38
621.04	70.22
621.19	182.56
621.34	145.11
621.49	308.95
621.65	222.35
621.80	114.69
621.95	135.75
622.10	95.96
622.25	0.00
622.41	112.35
622.56	9.36
622.71	23.41
622.86	25.75
623.01	2.34
623.16	42.13
623.32	0.00
623.47	65.54
623.62	23.41
623.77	11.70
623.92	74.90
624.07	0.00
624.23	14.04
624.38	25.75
624.53	58.51
624.68	0.00
624.83	49.15
624.98	44.47
625.13	65.54
625.29	0.00
625.44	74.90
625.59	0.00
625.74	9.36
625.89	72.56
626.04	161.50
626.19	472.79
626.34	608.54
626.49	683.44
626.65	564.07
626.80	351.08
626.95	306.61
627.10	149.79
627.25	91.28
627.40	102.98
627.55	79.58
627.70	32.77
627.85	56.17
628.00	30.43
628.15	28.09
628.30	0.00
628.45	16.38
628.60	0.00
628.76	49.15
628.91	9.36
629.06	63.19
629.21	95.96
629.36	39.79
629.51	0.00
629.66	0.00
629.81	39.79
629.96	208.31
630.11	154.48
630.26	210.65
630.41	112.35
630.56	138.09
630.71	102.98
630.86	88.94
631.01	37.45
631.16	14.04
631.31	21.06
631.46	23.41
631.61	23.41
631.76	4.68
631.91	0.00
632.06	11.70
632.21	32.77
632.36	95.96
632.51	56.17
632.66	21.06
632.81	140.43
632.96	337.04
633.10	379.17
633.25	505.56
633.40	393.21
633.55	273.84
633.70	210.65
633.85	156.82
634.00	124.05
634.15	53.83
634.30	42.13
634.45	16.38
634.60	39.79
634.75	28.09
634.90	35.11
635.05	37.45
635.19	37.45
635.34	65.54
635.49	72.56
635.64	58.51
635.79	35.11
635.94	7.02
636.09	0.00
636.24	0.00
636.39	37.45
636.53	0.00
636.68	11.70
636.83	65.54
636.98	39.79
637.13	18.72
637.28	32.77
637.43	72.56
637.57	11.70
637.72	224.69
637.87	496.19
638.02	833.23
638.17	901.11
638.32	669.39
638.46	409.59
638.61	339.38
638.76	227.03
638.91	180.22
639.06	84.26
639.20	46.81
639.35	70.22
639.50	95.96
639.65	280.86
639.80	816.85
639.94	1399.64
640.09	1451.13
640.24	1043.88
640.39	763.01
640.54	503.22
640.68	297.25
640.83	173.20
640.98	72.56
641.13	37.45
641.27	21.06
641.42	84.26
641.57	35.11
641.72	51.49
641.86	98.30
642.01	14.04
642.16	67.88
642.31	4.68
642.45	14.04
642.60	18.72
642.75	30.43
642.90	65.54
643.04	86.60
643.19	58.51
643.34	4.68
643.48	56.17
643.63	63.19
643.78	25.75
643.93	14.04
644.07	11.70
644.22	37.45
644.37	58.51
644.51	14.04
644.66	0.00
644.81	72.56
644.95	63.19
645.10	0.00
645.25	32.77
645.39	0.00
645.54	0.00
645.69	14.04
645.83	42.13
645.98	23.41
646.13	65.54
646.27	32.77
646.42	46.81
646.57	0.00
646.71	0.00
646.86	46.81
647.00	72.56
647.15	65.54
647.30	88.94
647.44	63.19
647.59	53.83
647.74	56.17
647.88	7.02
648.03	39.79
648.17	0.00
648.32	93.62
648.47	0.00
648.61	14.04
648.76	28.09
648.90	39.79
649.05	58.51
649.20	84.26
649.34	44.47
649.49	30.43
649.63	0.00
649.78	58.51
649.92	74.90
650.07	65.54
650.21	383.85
650.36	699.82
650.51	770.04
650.65	608.54
650.80	353.42
650.94	313.63
651.09	252.78
651.23	70.22
651.38	32.77
651.52	67.88
651.67	112.35
651.81	21.06
651.96	0.00
652.10	46.81
652.25	44.47
652.39	42.13
652.54	0.00
652.68	42.13
652.83	222.35
652.97	276.18
653.12	341.72
653.26	287.89
653.41	201.29
653.55	74.90
653.70	86.60
653.84	100.64
653.99	46.81
654.13	32.77
654.27	46.81
654.42	25.75
654.56	79.58
654.71	84.26
654.85	14.04
655.00	0.00
655.14	2.34
655.29	42.13
655.43	39.79
655.57	51.49
655.72	0.00
655.86	65.54
656.01	32.77
656.15	16.38
656.30	0.00
656.44	102.98
656.58	0.00
656.73	30.43
656.87	16.38
657.01	0.00
657.16	124.05
657.30	0.00
657.45	74.90
657.59	18.72
657.73	63.19
657.88	46.81
658.02	72.56
658.16	0.00
658.31	39.79
658.45	0.00
658.60	23.41
658.74	28.09
658.88	77.24
659.03	37.45
659.17	4.68
659.31	91.28
659.46	222.35
659.60	327.68
659.74	425.98
659.89	290.23
660.03	217.67
660.17	145.11
660.32	98.30
660.46	16.38
660.60	32.77
660.74	18.72
660.89	51.49
661.03	74.90
661.17	56.17
661.32	72.56
661.46	74.90
661.60	37.45
661.74	11.70
661.89	81.92
662.03	81.92
662.17	42.13
662.31	81.92
662.46	4.68
662.60	63.19
662.74	88.94
662.88	0.00
663.03	0.00
663.17	4.68
663.31	65.54
663.45	46.81
663.60	4.68
663.74	0.00
663.88	4.68
664.02	16.38
664.17	84.26
664.31	84.26
664.45	88.94
664.59	79.58
664.73	16.38
664.88	84.26
665.02	30.43
665.16	56.17
665.30	37.45
665.44	28.09
665.59	0.00
665.73	60.85
665.87	32.77
666.01	18.72
666.15	2.34
666.29	0.00
666.44	14.04
666.58	35.11
666.72	42.13
666.86	67.88
667.00	70.22
667.14	63.19
667.28	81.92
667.43	299.59
667.57	519.60
667.71	669.39
667.85	571.09
667.99	479.81
668.13	285.55
668.27	102.98
668.41	7.02
668.56	131.07
668.70	46.81
668.84	21.06
668.98	44.47
669.12	30.43
669.26	60.85
669.40	0.00
669.54	0.00
669.68	77.24
669.82	16.38
669.96	39.79
670.10	14.04
670.25	0.00
670.39	60.85
670.53	84.26
670.67	25.75
670.81	70.22
670.95	32.77
671.09	84.26
671.23	220.01
671.37	266.82
671.51	402.57
671.65	407.25
671.79	383.85
671.93	222.35
672.07	154.48
672.21	114.69
672.35	102.98
672.49	79.58
672.63	0.00
672.77	16.38
672.91	0.00
673.05	21.06
673.19	84.26
673.33	65.54
673.47	49.15
673.61	14.04
673.75	18.72
673.89	30.43
674.03	44.47
674.17	32.77
674.31	63.19
674.45	51.49
674.59	2.34
674.73	91.28
674.87	0.00
675.01	25.75
675.15	0.00
675.29	21.06
675.43	0.00
675.56	16.38
675.70	0.00
675.84	81.92
675.98	67.88
676.12	56.17
676.26	107.66
676.40	0.00
676.54	0.00
676.68	0.00
676.82	35.11
676.96	16.38
677.10	77.24
677.23	0.00
677.37	39.79
677.51	72.56
677.65	23.41
677.79	70.22
677.93	91.28
678.07	9.36
678.21	32.77
678.34	18.72
678.48	2.34
678.62	30.43
678.76	18.72
678.90	0.00
679.04	37.45
679.18	0.00
679.31	0.00
679.45	0.00
679.59	65.54
679.73	21.06
679.87	0.00
680.00	0.00
680.14	0.00
680.28	35.11
680.42	58.51
680.56	14.04
680.70	14.04
680.83	0.00
680.97	32.77
681.11	21.06
681.25	39.79
681.39	42.13
681.52	51.49
681.66	51.49
681.80	0.00
681.94	86.60
682.07	0.00
682.21	93.62
682.35	18.72
682.49	74.90
682.62	21.06
682.76	93.62
682.90	9.36
683.04	93.62
683.17	16.38
683.31	0.00
683.45	49.15
683.59	35.11
683.72	0.00
683.86	11.70
684.00	14.04
684.13	11.70
684.27	0.00
684.41	58.51
684.55	0.00
684.68	11.70
684.82	42.13
684.96	133.41
685.09	9.36
685.23	30.43
685.37	11.70
685.50	70.22
685.64	9.36
685.78	23.41
685.91	14.04
686.05	4.68
686.19	23.41
686.32	0.00
686.46	0.00
686.60	79.58
686.73	32.77
686.87	30.43
687.01	23.41
687.14	35.11
687.28	0.00
687.42	51.49
687.55	23.41
687.69	49.15
687.82	14.04
687.96	51.49
688.10	44.47
688.23	2.34
688.37	79.58
688.50	100.64
688.64	74.90
688.78	0.00
688.91	37.45
689.05	9.36
689.18	67.88
689.32	53.83
689.46	18.72
689.59	81.92
689.73	11.70
689.86	44.47
690.00	67.88
690.13	35.11
690.27	35.11
690.41	37.45
690.54	65.54
690.68	37.45
690.81	67.88
690.95	0.00
691.08	0.00
691.22	14.04
691.35	49.15
691.49	0.00
691.62	4.68
691.76	0.00
691.89	21.06
692.03	42.13
692.16	18.72
692.30	0.00
692.43	74.90
692.57	236.39
692.70	299.59
692.84	308.95
692.97	344.06
693.11	182.56
693.24	100.64
693.38	84.26
693.51	93.62
693.65	0.00
693.78	0.00
693.92	46.81
694.05	74.90
694.19	35.11
694.32	65.54
694.45	74.90
694.59	53.83
694.72	86.60
694.86	53.83
694.99	53.83
695.13	42.13
695.26	9.36
695.39	56.17
695.53	42.13
695.66	14.04
695.80	30.43
695.93	39.79
696.07	49.15
696.20	51.49
696.33	53.83
696.47	86.60
696.60	18.72
696.73	44.47
696.87	14.04
697.00	18.72
697.14	0.00
697.27	0.00
697.40	67.88
697.54	46.81
697.67	58.51
697.80	14.04
697.94	53.83
698.07	63.19
698.21	72.56
698.34	81.92
698.47	39.79
698.61	51.49
698.74	0.00
698.87	65.54
699.01	14.04
699.14	42.13
699.27	63.19
699.40	46.81
699.54	37.45
699.67	0.00
699.80	23.41
699.94	0.00
700.07	32.77
700.20	86.60
700.34	18.72
700.47	0.00
700.60	81.92
700.73	74.90
700.87	44.47
701.00	9.36
701.13	21.06
701.26	37.45
701.40	18.72
701.53	25.75
701.66	53.83
701.79	16.38
701.93	35.11
702.06	28.09
702.19	49.15
702.32	65.54
702.46	21.06
702.59	56.17
702.72	95.96
702.85	262.14
702.99	311.29
703.12	451.72
703.25	561.73
703.38	395.55
703.51	362.78
703.65	374.49
703.78	255.12
703.91	49.15
704.04	93.62
704.17	81.92
704.31	35.11
704.44	35.11
704.57	0.00
704.70	0.00
704.83	44.47
704.96	0.00
705.10	42.13
705.23	46.81
>>>>>End Processed Spectral Data<<<<<
