SpectraSuite Data File
++++++++++++++++++++++++++++++++++++
Date: Fri Oct 04 12:13:45 GMT-05:00 2013
User: price-jones
Dark Spectrum Present: No
Reference Spectrum Present: No
Number of Sampled Component Spectra: 1
Spectrometers: USB2+H05261
Integration Time (usec): 10000 (USB2+H05261)
Spectra Averaged: 1 (USB2+H05261)
Boxcar Smoothing: 0 (USB2+H05261)
Correct for Electrical Dark: No (USB2+H05261)
Strobe/Lamp Enabled: No (USB2+H05261)
Correct for Detector Non-linearity: No (USB2+H05261)
Correct for Stray Light: No (USB2+H05261)
Number of Pixels in Processed Spectrum: 2048
>>>>>Begin Processed Spectral Data<<<<<
365.73	0.00
365.92	0.00
366.12	0.00
366.32	0.00
366.52	0.00
366.72	0.00
366.91	0.00
367.11	0.00
367.31	0.00
367.51	0.00
367.70	0.00
367.90	0.00
368.10	0.00
368.30	0.00
368.49	0.00
368.69	0.00
368.89	0.00
369.09	0.00
369.28	0.00
369.48	0.00
369.68	0.00
369.87	0.00
370.07	0.00
370.27	0.00
370.47	0.00
370.66	0.00
370.86	0.00
371.06	9.36
371.25	0.00
371.45	0.00
371.65	0.00
371.84	0.00
372.04	28.09
372.24	11.70
372.44	0.00
372.63	53.83
372.83	74.90
373.03	63.19
373.22	18.72
373.42	0.00
373.62	0.00
373.81	9.36
374.01	70.22
374.21	23.41
374.40	14.04
374.60	53.83
374.79	28.09
374.99	65.54
375.19	63.19
375.38	42.13
375.58	14.04
375.78	42.13
375.97	4.68
376.17	37.45
376.37	9.36
376.56	72.56
376.76	14.04
376.95	0.00
377.15	70.22
377.35	30.43
377.54	0.00
377.74	0.00
377.93	14.04
378.13	0.00
378.33	0.00
378.52	44.47
378.72	23.41
378.91	25.75
379.11	21.06
379.31	46.81
379.50	14.04
379.70	95.96
379.89	23.41
380.09	0.00
380.28	7.02
380.48	16.38
380.68	67.88
380.87	25.75
381.07	0.00
381.26	0.00
381.46	60.85
381.65	49.15
381.85	42.13
382.04	65.54
382.24	91.28
382.43	0.00
382.63	25.75
382.83	28.09
383.02	16.38
383.22	18.72
383.41	0.00
383.61	7.02
383.80	74.90
384.00	46.81
384.19	0.00
384.39	0.00
384.58	0.00
384.78	0.00
384.97	16.38
385.17	95.96
385.36	14.04
385.56	0.00
385.75	0.00
385.95	0.00
386.14	44.47
386.34	30.43
386.53	0.00
386.72	0.00
386.92	0.00
387.11	72.56
387.31	11.70
387.50	14.04
387.70	28.09
387.89	0.00
388.09	23.41
388.28	0.00
388.48	0.00
388.67	49.15
388.86	63.19
389.06	58.51
389.25	51.49
389.45	0.00
389.64	46.81
389.84	46.81
390.03	0.00
390.22	18.72
390.42	32.77
390.61	0.00
390.81	21.06
391.00	74.90
391.19	70.22
391.39	23.41
391.58	60.85
391.78	21.06
391.97	91.28
392.16	16.38
392.36	23.41
392.55	35.11
392.75	42.13
392.94	0.00
393.13	0.00
393.33	30.43
393.52	0.00
393.71	16.38
393.91	18.72
394.10	0.00
394.29	35.11
394.49	0.00
394.68	0.00
394.88	37.45
395.07	42.13
395.26	0.00
395.46	0.00
395.65	9.36
395.84	0.00
396.04	14.04
396.23	11.70
396.42	0.00
396.62	37.45
396.81	21.06
397.00	37.45
397.19	18.72
397.39	18.72
397.58	51.49
397.77	81.92
397.97	7.02
398.16	14.04
398.35	14.04
398.55	46.81
398.74	0.00
398.93	67.88
399.12	14.04
399.32	0.00
399.51	81.92
399.70	42.13
399.90	98.30
400.09	0.00
400.28	28.09
400.47	0.00
400.67	7.02
400.86	0.00
401.05	51.49
401.24	35.11
401.44	74.90
401.63	0.00
401.82	79.58
402.01	0.00
402.21	56.17
402.40	9.36
402.59	32.77
402.78	70.22
402.97	93.62
403.17	4.68
403.36	0.00
403.55	0.00
403.74	11.70
403.93	23.41
404.13	16.38
404.32	77.24
404.51	23.41
404.70	0.00
404.89	16.38
405.09	32.77
405.28	51.49
405.47	4.68
405.66	37.45
405.85	2.34
406.05	95.96
406.24	0.00
406.43	21.06
406.62	105.32
406.81	28.09
407.00	18.72
407.20	37.45
407.39	49.15
407.58	0.00
407.77	9.36
407.96	65.54
408.15	49.15
408.34	58.51
408.54	53.83
408.73	51.49
408.92	9.36
409.11	32.77
409.30	11.70
409.49	28.09
409.68	63.19
409.87	32.77
410.07	65.54
410.26	63.19
410.45	70.22
410.64	16.38
410.83	25.75
411.02	30.43
411.21	39.79
411.40	0.00
411.59	0.00
411.78	35.11
411.98	67.88
412.17	58.51
412.36	46.81
412.55	30.43
412.74	28.09
412.93	16.38
413.12	28.09
413.31	37.45
413.50	35.11
413.69	14.04
413.88	23.41
414.07	0.00
414.26	86.60
414.45	0.00
414.64	0.00
414.83	14.04
415.02	7.02
415.22	35.11
415.41	30.43
415.60	0.00
415.79	81.92
415.98	9.36
416.17	16.38
416.36	42.13
416.55	37.45
416.74	0.00
416.93	30.43
417.12	2.34
417.31	21.06
417.50	0.00
417.69	23.41
417.88	51.49
418.07	112.35
418.26	0.00
418.45	49.15
418.64	67.88
418.83	44.47
419.02	60.85
419.21	16.38
419.39	11.70
419.58	32.77
419.77	28.09
419.96	44.47
420.15	44.47
420.34	21.06
420.53	0.00
420.72	49.15
420.91	46.81
421.10	7.02
421.29	9.36
421.48	51.49
421.67	117.03
421.86	0.00
422.05	44.47
422.24	51.49
422.43	0.00
422.61	18.72
422.80	0.00
422.99	39.79
423.18	0.00
423.37	42.13
423.56	0.00
423.75	0.00
423.94	72.56
424.13	21.06
424.32	0.00
424.50	0.00
424.69	37.45
424.88	0.00
425.07	63.19
425.26	58.51
425.45	60.85
425.64	79.58
425.83	30.43
426.01	21.06
426.20	58.51
426.39	21.06
426.58	9.36
426.77	7.02
426.96	84.26
427.15	0.00
427.33	0.00
427.52	18.72
427.71	42.13
427.90	0.00
428.09	88.94
428.28	88.94
428.46	0.00
428.65	14.04
428.84	0.00
429.03	44.47
429.22	77.24
429.40	72.56
429.59	0.00
429.78	79.58
429.97	124.05
430.16	0.00
430.34	35.11
430.53	18.72
430.72	0.00
430.91	16.38
431.10	14.04
431.28	18.72
431.47	0.00
431.66	0.00
431.85	16.38
432.03	32.77
432.22	0.00
432.41	30.43
432.60	84.26
432.79	49.15
432.97	46.81
433.16	98.30
433.35	0.00
433.54	53.83
433.72	28.09
433.91	65.54
434.10	0.00
434.28	79.58
434.47	37.45
434.66	145.11
434.85	39.79
435.03	42.13
435.22	32.77
435.41	37.45
435.59	128.73
435.78	0.00
435.97	0.00
436.16	7.02
436.34	0.00
436.53	91.28
436.72	42.13
436.90	39.79
437.09	14.04
437.28	79.58
437.46	72.56
437.65	117.03
437.84	14.04
438.02	91.28
438.21	37.45
438.40	30.43
438.58	0.00
438.77	77.24
438.96	32.77
439.14	70.22
439.33	32.77
439.52	63.19
439.70	0.00
439.89	88.94
440.08	37.45
440.26	56.17
440.45	25.75
440.63	58.51
440.82	28.09
441.01	0.00
441.19	88.94
441.38	0.00
441.57	37.45
441.75	46.81
441.94	126.39
442.12	2.34
442.31	65.54
442.50	21.06
442.68	42.13
442.87	42.13
443.05	49.15
443.24	0.00
443.43	42.13
443.61	0.00
443.80	16.38
443.98	23.41
444.17	72.56
444.35	0.00
444.54	42.13
444.73	51.49
444.91	56.17
445.10	14.04
445.28	25.75
445.47	65.54
445.65	46.81
445.84	58.51
446.02	49.15
446.21	11.70
446.39	0.00
446.58	46.81
446.77	32.77
446.95	49.15
447.14	30.43
447.32	49.15
447.51	32.77
447.69	65.54
447.88	86.60
448.06	79.58
448.25	67.88
448.43	23.41
448.62	14.04
448.80	0.00
448.99	65.54
449.17	65.54
449.36	30.43
449.54	0.00
449.73	46.81
449.91	37.45
450.10	7.02
450.28	44.47
450.46	0.00
450.65	58.51
450.83	21.06
451.02	23.41
451.20	0.00
451.39	0.00
451.57	77.24
451.76	42.13
451.94	0.00
452.13	30.43
452.31	7.02
452.49	91.28
452.68	44.47
452.86	84.26
453.05	39.79
453.23	14.04
453.42	18.72
453.60	0.00
453.78	107.66
453.97	2.34
454.15	44.47
454.34	16.38
454.52	0.00
454.70	70.22
454.89	2.34
455.07	46.81
455.26	49.15
455.44	84.26
455.62	32.77
455.81	0.00
455.99	60.85
456.17	0.00
456.36	46.81
456.54	30.43
456.73	0.00
456.91	77.24
457.09	25.75
457.28	16.38
457.46	63.19
457.64	46.81
457.83	53.83
458.01	63.19
458.19	7.02
458.38	32.77
458.56	0.00
458.74	25.75
458.93	14.04
459.11	0.00
459.29	2.34
459.48	16.38
459.66	53.83
459.84	4.68
460.03	49.15
460.21	74.90
460.39	49.15
460.57	42.13
460.76	0.00
460.94	60.85
461.12	72.56
461.31	0.00
461.49	0.00
461.67	0.00
461.85	0.00
462.04	21.06
462.22	67.88
462.40	95.96
462.59	95.96
462.77	0.00
462.95	86.60
463.13	30.43
463.32	42.13
463.50	56.17
463.68	49.15
463.86	2.34
464.05	39.79
464.23	0.00
464.41	32.77
464.59	86.60
464.78	23.41
464.96	95.96
465.14	25.75
465.32	53.83
465.50	77.24
465.69	44.47
465.87	0.00
466.05	121.71
466.23	37.45
466.41	58.51
466.60	84.26
466.78	28.09
466.96	30.43
467.14	42.13
467.32	32.77
467.51	16.38
467.69	0.00
467.87	0.00
468.05	44.47
468.23	46.81
468.41	53.83
468.60	46.81
468.78	35.11
468.96	0.00
469.14	0.00
469.32	39.79
469.50	39.79
469.69	95.96
469.87	23.41
470.05	58.51
470.23	110.01
470.41	32.77
470.59	110.01
470.77	32.77
470.95	60.85
471.14	53.83
471.32	46.81
471.50	56.17
471.68	49.15
471.86	86.60
472.04	79.58
472.22	0.00
472.40	32.77
472.58	21.06
472.77	44.47
472.95	44.47
473.13	30.43
473.31	81.92
473.49	25.75
473.67	0.00
473.85	72.56
474.03	0.00
474.21	79.58
474.39	18.72
474.57	14.04
474.75	0.00
474.93	53.83
475.12	35.11
475.30	30.43
475.48	126.39
475.66	0.00
475.84	9.36
476.02	44.47
476.20	39.79
476.38	28.09
476.56	56.17
476.74	39.79
476.92	67.88
477.10	51.49
477.28	81.92
477.46	2.34
477.64	0.00
477.82	14.04
478.00	72.56
478.18	0.00
478.36	0.00
478.54	46.81
478.72	28.09
478.90	0.00
479.08	46.81
479.26	39.79
479.44	74.90
479.62	0.00
479.80	74.90
479.98	46.81
480.16	117.03
480.34	0.00
480.52	32.77
480.70	72.56
480.88	72.56
481.06	42.13
481.24	44.47
481.41	0.00
481.59	100.64
481.77	51.49
481.95	77.24
482.13	72.56
482.31	0.00
482.49	0.00
482.67	0.00
482.85	53.83
483.03	51.49
483.21	77.24
483.39	14.04
483.57	0.00
483.74	9.36
483.92	14.04
484.10	0.00
484.28	35.11
484.46	51.49
484.64	74.90
484.82	4.68
485.00	35.11
485.18	60.85
485.35	46.81
485.53	60.85
485.71	105.32
485.89	70.22
486.07	32.77
486.25	28.09
486.43	32.77
486.61	0.00
486.78	51.49
486.96	28.09
487.14	79.58
487.32	25.75
487.50	46.81
487.68	51.49
487.85	18.72
488.03	58.51
488.21	28.09
488.39	0.00
488.57	145.11
488.75	4.68
488.92	37.45
489.10	16.38
489.28	70.22
489.46	0.00
489.64	44.47
489.81	14.04
489.99	46.81
490.17	0.00
490.35	37.45
490.53	126.39
490.70	79.58
490.88	46.81
491.06	28.09
491.24	39.79
491.41	91.28
491.59	30.43
491.77	67.88
491.95	49.15
492.13	112.35
492.30	37.45
492.48	0.00
492.66	18.72
492.84	16.38
493.01	39.79
493.19	39.79
493.37	0.00
493.54	28.09
493.72	46.81
493.90	65.54
494.08	77.24
494.25	18.72
494.43	72.56
494.61	67.88
494.79	44.47
494.96	18.72
495.14	0.00
495.32	65.54
495.49	0.00
495.67	131.07
495.85	14.04
496.02	44.47
496.20	77.24
496.38	58.51
496.55	23.41
496.73	11.70
496.91	51.49
497.09	23.41
497.26	58.51
497.44	77.24
497.62	2.34
497.79	32.77
497.97	102.98
498.14	72.56
498.32	0.00
498.50	28.09
498.67	79.58
498.85	88.94
499.03	0.00
499.20	2.34
499.38	95.96
499.56	74.90
499.73	79.58
499.91	63.19
500.08	93.62
500.26	21.06
500.44	100.64
500.61	77.24
500.79	70.22
500.97	0.00
501.14	42.13
501.32	42.13
501.49	60.85
501.67	39.79
501.84	44.47
502.02	37.45
502.20	4.68
502.37	9.36
502.55	77.24
502.72	18.72
502.90	23.41
503.07	65.54
503.25	39.79
503.43	72.56
503.60	16.38
503.78	131.07
503.95	93.62
504.13	18.72
504.30	46.81
504.48	0.00
504.65	42.13
504.83	37.45
505.01	98.30
505.18	67.88
505.36	0.00
505.53	18.72
505.71	72.56
505.88	49.15
506.06	91.28
506.23	84.26
506.41	42.13
506.58	42.13
506.76	35.11
506.93	23.41
507.11	124.05
507.28	23.41
507.46	105.32
507.63	114.69
507.81	18.72
507.98	51.49
508.16	77.24
508.33	49.15
508.50	44.47
508.68	51.49
508.85	98.30
509.03	86.60
509.20	44.47
509.38	56.17
509.55	14.04
509.73	51.49
509.90	60.85
510.08	21.06
510.25	88.94
510.42	65.54
510.60	105.32
510.77	70.22
510.95	2.34
511.12	42.13
511.30	100.64
511.47	117.03
511.64	35.11
511.82	0.00
511.99	65.54
512.17	98.30
512.34	110.01
512.51	21.06
512.69	25.75
512.86	23.41
513.04	37.45
513.21	0.00
513.38	23.41
513.56	51.49
513.73	42.13
513.90	46.81
514.08	25.75
514.25	49.15
514.43	39.79
514.60	49.15
514.77	95.96
514.95	30.43
515.12	32.77
515.29	18.72
515.47	95.96
515.64	74.90
515.81	4.68
515.99	37.45
516.16	0.00
516.33	65.54
516.51	51.49
516.68	56.17
516.85	72.56
517.03	2.34
517.20	18.72
517.37	100.64
517.54	51.49
517.72	39.79
517.89	95.96
518.06	88.94
518.24	74.90
518.41	84.26
518.58	49.15
518.75	35.11
518.93	0.00
519.10	56.17
519.27	39.79
519.45	72.56
519.62	30.43
519.79	37.45
519.96	74.90
520.14	0.00
520.31	21.06
520.48	0.00
520.65	0.00
520.83	35.11
521.00	133.41
521.17	53.83
521.34	0.00
521.52	30.43
521.69	46.81
521.86	77.24
522.03	88.94
522.20	58.51
522.38	14.04
522.55	49.15
522.72	46.81
522.89	23.41
523.07	98.30
523.24	100.64
523.41	88.94
523.58	81.92
523.75	79.58
523.92	30.43
524.10	58.51
524.27	84.26
524.44	7.02
524.61	0.00
524.78	46.81
524.96	28.09
525.13	25.75
525.30	0.00
525.47	0.00
525.64	0.00
525.81	102.98
525.98	21.06
526.16	0.00
526.33	56.17
526.50	37.45
526.67	30.43
526.84	77.24
527.01	7.02
527.18	37.45
527.36	18.72
527.53	11.70
527.70	53.83
527.87	39.79
528.04	84.26
528.21	63.19
528.38	14.04
528.55	51.49
528.72	16.38
528.89	65.54
529.07	49.15
529.24	79.58
529.41	0.00
529.58	84.26
529.75	0.00
529.92	65.54
530.09	28.09
530.26	84.26
530.43	63.19
530.60	74.90
530.77	42.13
530.94	18.72
531.11	0.00
531.28	56.17
531.46	93.62
531.63	51.49
531.80	58.51
531.97	49.15
532.14	53.83
532.31	58.51
532.48	86.60
532.65	84.26
532.82	60.85
532.99	28.09
533.16	46.81
533.33	0.00
533.50	74.90
533.67	70.22
533.84	74.90
534.01	44.47
534.18	58.51
534.35	56.17
534.52	35.11
534.69	0.00
534.86	25.75
535.03	84.26
535.20	28.09
535.37	161.50
535.54	21.06
535.71	91.28
535.88	39.79
536.05	77.24
536.22	67.88
536.38	138.09
536.55	67.88
536.72	93.62
536.89	0.00
537.06	65.54
537.23	79.58
537.40	0.00
537.57	23.41
537.74	42.13
537.91	44.47
538.08	86.60
538.25	93.62
538.42	58.51
538.59	65.54
538.75	37.45
538.92	86.60
539.09	39.79
539.26	77.24
539.43	60.85
539.60	0.00
539.77	65.54
539.94	9.36
540.11	74.90
540.28	58.51
540.44	65.54
540.61	70.22
540.78	0.00
540.95	37.45
541.12	25.75
541.29	67.88
541.46	18.72
541.62	70.22
541.79	0.00
541.96	0.00
542.13	0.00
542.30	67.88
542.47	58.51
542.63	53.83
542.80	63.19
542.97	107.66
543.14	65.54
543.31	46.81
543.48	79.58
543.64	0.00
543.81	37.45
543.98	28.09
544.15	25.75
544.32	124.05
544.48	65.54
544.65	110.01
544.82	42.13
544.99	46.81
545.16	42.13
545.32	53.83
545.49	0.00
545.66	74.90
545.83	23.41
546.00	56.17
546.16	56.17
546.33	72.56
546.50	0.00
546.67	0.00
546.83	56.17
547.00	0.00
547.17	53.83
547.34	0.00
547.50	4.68
547.67	9.36
547.84	4.68
548.00	77.24
548.17	70.22
548.34	21.06
548.51	53.83
548.67	44.47
548.84	121.71
549.01	4.68
549.18	32.77
549.34	14.04
549.51	35.11
549.68	46.81
549.84	110.01
550.01	49.15
550.18	56.17
550.34	28.09
550.51	37.45
550.68	65.54
550.84	49.15
551.01	58.51
551.18	51.49
551.34	35.11
551.51	112.35
551.68	16.38
551.84	60.85
552.01	70.22
552.18	18.72
552.34	70.22
552.51	86.60
552.68	63.19
552.84	114.69
553.01	25.75
553.18	46.81
553.34	11.70
553.51	77.24
553.67	32.77
553.84	21.06
554.01	142.77
554.17	0.00
554.34	16.38
554.51	51.49
554.67	72.56
554.84	88.94
555.00	0.00
555.17	16.38
555.33	0.00
555.50	21.06
555.67	0.00
555.83	72.56
556.00	0.00
556.16	42.13
556.33	63.19
556.50	79.58
556.66	44.47
556.83	32.77
556.99	102.98
557.16	42.13
557.32	21.06
557.49	7.02
557.65	18.72
557.82	44.47
557.98	77.24
558.15	16.38
558.32	93.62
558.48	77.24
558.65	30.43
558.81	72.56
558.98	81.92
559.14	39.79
559.31	0.00
559.47	72.56
559.64	95.96
559.80	65.54
559.97	44.47
560.13	107.66
560.30	0.00
560.46	49.15
560.63	0.00
560.79	35.11
560.96	4.68
561.12	98.30
561.29	63.19
561.45	23.41
561.61	119.37
561.78	95.96
561.94	0.00
562.11	100.64
562.27	25.75
562.44	28.09
562.60	56.17
562.77	95.96
562.93	0.00
563.10	37.45
563.26	46.81
563.42	0.00
563.59	58.51
563.75	51.49
563.92	37.45
564.08	23.41
564.24	0.00
564.41	72.56
564.57	70.22
564.74	46.81
564.90	74.90
565.07	46.81
565.23	79.58
565.39	28.09
565.56	51.49
565.72	114.69
565.88	0.00
566.05	102.98
566.21	37.45
566.38	25.75
566.54	72.56
566.70	0.00
566.87	28.09
567.03	88.94
567.19	84.26
567.36	14.04
567.52	0.00
567.68	37.45
567.85	18.72
568.01	0.00
568.17	60.85
568.34	84.26
568.50	88.94
568.66	58.51
568.83	53.83
568.99	0.00
569.15	18.72
569.32	0.00
569.48	14.04
569.64	131.07
569.81	58.51
569.97	0.00
570.13	72.56
570.30	0.00
570.46	0.00
570.62	30.43
570.78	39.79
570.95	70.22
571.11	84.26
571.27	30.43
571.43	0.00
571.60	11.70
571.76	23.41
571.92	53.83
572.09	37.45
572.25	16.38
572.41	81.92
572.57	18.72
572.74	117.03
572.90	81.92
573.06	124.05
573.22	11.70
573.38	37.45
573.55	9.36
573.71	65.54
573.87	53.83
574.03	65.54
574.20	74.90
574.36	46.81
574.52	7.02
574.68	102.98
574.84	58.51
575.01	25.75
575.17	4.68
575.33	21.06
575.49	128.73
575.65	70.22
575.82	79.58
575.98	65.54
576.14	95.96
576.30	0.00
576.46	0.00
576.62	35.11
576.79	0.00
576.95	11.70
577.11	77.24
577.27	46.81
577.43	117.03
577.59	30.43
577.75	37.45
577.92	95.96
578.08	67.88
578.24	16.38
578.40	67.88
578.56	0.00
578.72	16.38
578.88	0.00
579.04	124.05
579.21	79.58
579.37	37.45
579.53	49.15
579.69	23.41
579.85	30.43
580.01	79.58
580.17	0.00
580.33	110.01
580.49	30.43
580.65	88.94
580.82	58.51
580.98	0.00
581.14	53.83
581.30	21.06
581.46	2.34
581.62	53.83
581.78	0.00
581.94	37.45
582.10	25.75
582.26	30.43
582.42	63.19
582.58	0.00
582.74	110.01
582.90	25.75
583.06	37.45
583.22	77.24
583.38	37.45
583.54	0.00
583.70	35.11
583.86	37.45
584.02	49.15
584.18	124.05
584.34	91.28
584.50	39.79
584.66	105.32
584.82	0.00
584.98	84.26
585.14	51.49
585.30	46.81
585.46	30.43
585.62	79.58
585.78	107.66
585.94	98.30
586.10	58.51
586.26	44.47
586.42	0.00
586.58	49.15
586.74	51.49
586.90	65.54
587.06	77.24
587.22	102.98
587.38	18.72
587.54	74.90
587.70	67.88
587.86	35.11
588.02	84.26
588.18	77.24
588.34	60.85
588.49	81.92
588.65	9.36
588.81	2.34
588.97	58.51
589.13	35.11
589.29	30.43
589.45	42.13
589.61	72.56
589.77	18.72
589.93	39.79
590.08	39.79
590.24	14.04
590.40	37.45
590.56	18.72
590.72	124.05
590.88	60.85
591.04	49.15
591.20	51.49
591.35	46.81
591.51	0.00
591.67	0.00
591.83	51.49
591.99	67.88
592.15	21.06
592.31	53.83
592.46	42.13
592.62	53.83
592.78	58.51
592.94	51.49
593.10	70.22
593.26	51.49
593.41	95.96
593.57	0.00
593.73	0.00
593.89	11.70
594.05	25.75
594.20	4.68
594.36	91.28
594.52	84.26
594.68	44.47
594.84	28.09
594.99	2.34
595.15	84.26
595.31	53.83
595.47	51.49
595.62	53.83
595.78	56.17
595.94	7.02
596.10	95.96
596.25	14.04
596.41	91.28
596.57	46.81
596.73	7.02
596.88	25.75
597.04	51.49
597.20	23.41
597.36	16.38
597.51	0.00
597.67	25.75
597.83	60.85
597.99	98.30
598.14	9.36
598.30	91.28
598.46	51.49
598.61	91.28
598.77	23.41
598.93	37.45
599.09	81.92
599.24	72.56
599.40	2.34
599.56	37.45
599.71	23.41
599.87	28.09
600.03	23.41
600.18	49.15
600.34	72.56
600.50	25.75
600.65	44.47
600.81	128.73
600.97	0.00
601.12	42.13
601.28	51.49
601.44	53.83
601.59	7.02
601.75	72.56
601.91	65.54
602.06	35.11
602.22	0.00
602.37	32.77
602.53	67.88
602.69	95.96
602.84	0.00
603.00	9.36
603.16	30.43
603.31	126.39
603.47	70.22
603.62	9.36
603.78	46.81
603.94	25.75
604.09	18.72
604.25	2.34
604.40	81.92
604.56	35.11
604.71	23.41
604.87	86.60
605.03	88.94
605.18	63.19
605.34	28.09
605.49	58.51
605.65	14.04
605.80	25.75
605.96	98.30
606.12	23.41
606.27	0.00
606.43	60.85
606.58	11.70
606.74	70.22
606.89	72.56
607.05	51.49
607.20	4.68
607.36	25.75
607.51	72.56
607.67	0.00
607.82	0.00
607.98	0.00
608.13	0.00
608.29	25.75
608.44	51.49
608.60	81.92
608.75	21.06
608.91	93.62
609.06	7.02
609.22	0.00
609.37	100.64
609.53	72.56
609.68	79.58
609.84	86.60
609.99	51.49
610.15	0.00
610.30	60.85
610.46	65.54
610.61	112.35
610.76	88.94
610.92	110.01
611.07	53.83
611.23	18.72
611.38	30.43
611.54	67.88
611.69	84.26
611.84	16.38
612.00	53.83
612.15	65.54
612.31	16.38
612.46	74.90
612.62	70.22
612.77	110.01
612.92	65.54
613.08	58.51
613.23	11.70
613.39	60.85
613.54	30.43
613.69	138.09
613.85	60.85
614.00	21.06
614.15	30.43
614.31	0.00
614.46	86.60
614.62	60.85
614.77	44.47
614.92	14.04
615.08	53.83
615.23	72.56
615.38	95.96
615.54	58.51
615.69	0.00
615.84	102.98
616.00	25.75
616.15	18.72
616.30	60.85
616.46	53.83
616.61	140.43
616.76	0.00
616.92	49.15
617.07	42.13
617.22	105.32
617.37	42.13
617.53	81.92
617.68	63.19
617.83	53.83
617.99	39.79
618.14	67.88
618.29	0.00
618.45	51.49
618.60	28.09
618.75	53.83
618.90	58.51
619.06	7.02
619.21	0.00
619.36	30.43
619.51	28.09
619.67	18.72
619.82	7.02
619.97	21.06
620.12	58.51
620.28	35.11
620.43	117.03
620.58	53.83
620.73	63.19
620.89	16.38
621.04	42.13
621.19	11.70
621.34	74.90
621.49	39.79
621.65	49.15
621.80	86.60
621.95	9.36
622.10	9.36
622.25	9.36
622.41	30.43
622.56	63.19
622.71	16.38
622.86	37.45
623.01	147.45
623.16	2.34
623.32	32.77
623.47	23.41
623.62	28.09
623.77	0.00
623.92	0.00
624.07	84.26
624.23	46.81
624.38	63.19
624.53	11.70
624.68	21.06
624.83	131.07
624.98	67.88
625.13	86.60
625.29	16.38
625.44	0.00
625.59	77.24
625.74	72.56
625.89	9.36
626.04	79.58
626.19	16.38
626.34	53.83
626.49	98.30
626.65	37.45
626.80	35.11
626.95	37.45
627.10	79.58
627.25	42.13
627.40	39.79
627.55	7.02
627.70	74.90
627.85	2.34
628.00	0.00
628.15	77.24
628.30	86.60
628.45	7.02
628.60	39.79
628.76	46.81
628.91	30.43
629.06	0.00
629.21	28.09
629.36	18.72
629.51	18.72
629.66	65.54
629.81	0.00
629.96	98.30
630.11	32.77
630.26	32.77
630.41	0.00
630.56	23.41
630.71	32.77
630.86	63.19
631.01	0.00
631.16	7.02
631.31	18.72
631.46	32.77
631.61	46.81
631.76	21.06
631.91	0.00
632.06	121.71
632.21	49.15
632.36	84.26
632.51	9.36
632.66	67.88
632.81	2.34
632.96	11.70
633.10	0.00
633.25	42.13
633.40	93.62
633.55	72.56
633.70	28.09
633.85	46.81
634.00	39.79
634.15	7.02
634.30	32.77
634.45	102.98
634.60	42.13
634.75	72.56
634.90	16.38
635.05	9.36
635.19	98.30
635.34	18.72
635.49	11.70
635.64	0.00
635.79	44.47
635.94	63.19
636.09	9.36
636.24	28.09
636.39	51.49
636.53	81.92
636.68	32.77
636.83	9.36
636.98	23.41
637.13	21.06
637.28	49.15
637.43	154.48
637.57	51.49
637.72	114.69
637.87	0.00
638.02	23.41
638.17	46.81
638.32	51.49
638.46	44.47
638.61	72.56
638.76	18.72
638.91	35.11
639.06	39.79
639.20	32.77
639.35	39.79
639.50	0.00
639.65	51.49
639.80	7.02
639.94	7.02
640.09	23.41
640.24	79.58
640.39	79.58
640.54	37.45
640.68	32.77
640.83	42.13
640.98	77.24
641.13	21.06
641.27	0.00
641.42	21.06
641.57	0.00
641.72	86.60
641.86	0.00
642.01	110.01
642.16	0.00
642.31	35.11
642.45	63.19
642.60	39.79
642.75	98.30
642.90	0.00
643.04	39.79
643.19	11.70
643.34	25.75
643.48	35.11
643.63	0.00
643.78	9.36
643.93	7.02
644.07	65.54
644.22	14.04
644.37	21.06
644.51	18.72
644.66	18.72
644.81	77.24
644.95	42.13
645.10	4.68
645.25	4.68
645.39	88.94
645.54	51.49
645.69	0.00
645.83	0.00
645.98	0.00
646.13	51.49
646.27	14.04
646.42	46.81
646.57	25.75
646.71	21.06
646.86	25.75
647.00	0.00
647.15	0.00
647.30	67.88
647.44	0.00
647.59	0.00
647.74	0.00
647.88	53.83
648.03	4.68
648.17	25.75
648.32	4.68
648.47	91.28
648.61	23.41
648.76	98.30
648.90	53.83
649.05	11.70
649.20	2.34
649.34	37.45
649.49	0.00
649.63	39.79
649.78	44.47
649.92	86.60
650.07	49.15
650.21	14.04
650.36	44.47
650.51	4.68
650.65	35.11
650.80	0.00
650.94	0.00
651.09	18.72
651.23	21.06
651.38	37.45
651.52	21.06
651.67	2.34
651.81	63.19
651.96	67.88
652.10	23.41
652.25	42.13
652.39	18.72
652.54	86.60
652.68	44.47
652.83	0.00
652.97	56.17
653.12	49.15
653.26	11.70
653.41	65.54
653.55	79.58
653.70	30.43
653.84	18.72
653.99	0.00
654.13	21.06
654.27	35.11
654.42	65.54
654.56	0.00
654.71	88.94
654.85	39.79
655.00	58.51
655.14	0.00
655.29	37.45
655.43	0.00
655.57	25.75
655.72	0.00
655.86	0.00
656.01	114.69
656.15	84.26
656.30	79.58
656.44	0.00
656.58	0.00
656.73	0.00
656.87	0.00
657.01	32.77
657.16	93.62
657.30	35.11
657.45	0.00
657.59	0.00
657.73	51.49
657.88	0.00
658.02	32.77
658.16	0.00
658.31	44.47
658.45	67.88
658.60	0.00
658.74	51.49
658.88	56.17
659.03	21.06
659.17	0.00
659.31	0.00
659.46	60.85
659.60	72.56
659.74	60.85
659.89	84.26
660.03	14.04
660.17	56.17
660.32	46.81
660.46	53.83
660.60	32.77
660.74	63.19
660.89	79.58
661.03	4.68
661.17	51.49
661.32	56.17
661.46	28.09
661.60	25.75
661.74	28.09
661.89	51.49
662.03	70.22
662.17	70.22
662.31	30.43
662.46	21.06
662.60	0.00
662.74	14.04
662.88	51.49
663.03	32.77
663.17	81.92
663.31	49.15
663.45	63.19
663.60	7.02
663.74	56.17
663.88	93.62
664.02	95.96
664.17	42.13
664.31	35.11
664.45	0.00
664.59	42.13
664.73	77.24
664.88	0.00
665.02	0.00
665.16	25.75
665.30	105.32
665.44	51.49
665.59	74.90
665.73	63.19
665.87	84.26
666.01	9.36
666.15	32.77
666.29	16.38
666.44	60.85
666.58	67.88
666.72	28.09
666.86	49.15
667.00	56.17
667.14	56.17
667.28	0.00
667.43	28.09
667.57	25.75
667.71	28.09
667.85	60.85
667.99	42.13
668.13	72.56
668.27	53.83
668.41	14.04
668.56	4.68
668.70	42.13
668.84	84.26
668.98	11.70
669.12	18.72
669.26	0.00
669.40	56.17
669.54	46.81
669.68	16.38
669.82	0.00
669.96	4.68
670.10	77.24
670.25	18.72
670.39	81.92
670.53	18.72
670.67	53.83
670.81	23.41
670.95	0.00
671.09	77.24
671.23	0.00
671.37	100.64
671.51	42.13
671.65	30.43
671.79	63.19
671.93	35.11
672.07	0.00
672.21	46.81
672.35	0.00
672.49	18.72
672.63	44.47
672.77	56.17
672.91	18.72
673.05	0.00
673.19	0.00
673.33	14.04
673.47	0.00
673.61	0.00
673.75	0.00
673.89	60.85
674.03	131.07
674.17	0.00
674.31	58.51
674.45	42.13
674.59	42.13
674.73	86.60
674.87	117.03
675.01	28.09
675.15	30.43
675.29	7.02
675.43	7.02
675.56	114.69
675.70	35.11
675.84	21.06
675.98	21.06
676.12	0.00
676.26	23.41
676.40	74.90
676.54	14.04
676.68	0.00
676.82	42.13
676.96	67.88
677.10	2.34
677.23	28.09
677.37	16.38
677.51	11.70
677.65	51.49
677.79	56.17
677.93	79.58
678.07	60.85
678.21	93.62
678.34	25.75
678.48	0.00
678.62	42.13
678.76	14.04
678.90	70.22
679.04	0.00
679.18	112.35
679.31	0.00
679.45	84.26
679.59	58.51
679.73	46.81
679.87	44.47
680.00	18.72
680.14	79.58
680.28	84.26
680.42	53.83
680.56	18.72
680.70	70.22
680.83	46.81
680.97	32.77
681.11	0.00
681.25	42.13
681.39	126.39
681.52	91.28
681.66	84.26
681.80	9.36
681.94	65.54
682.07	53.83
682.21	39.79
682.35	21.06
682.49	46.81
682.62	28.09
682.76	30.43
682.90	0.00
683.04	39.79
683.17	67.88
683.31	105.32
683.45	39.79
683.59	2.34
683.72	32.77
683.86	67.88
684.00	23.41
684.13	35.11
684.27	58.51
684.41	30.43
684.55	77.24
684.68	53.83
684.82	74.90
684.96	0.00
685.09	4.68
685.23	0.00
685.37	60.85
685.50	74.90
685.64	30.43
685.78	0.00
685.91	56.17
686.05	72.56
686.19	72.56
686.32	0.00
686.46	63.19
686.60	72.56
686.73	53.83
686.87	18.72
687.01	70.22
687.14	0.00
687.28	98.30
687.42	16.38
687.55	28.09
687.69	0.00
687.82	60.85
687.96	56.17
688.10	25.75
688.23	72.56
688.37	0.00
688.50	4.68
688.64	91.28
688.78	0.00
688.91	86.60
689.05	88.94
689.18	35.11
689.32	30.43
689.46	53.83
689.59	51.49
689.73	72.56
689.86	58.51
690.00	79.58
690.13	35.11
690.27	35.11
690.41	0.00
690.54	81.92
690.68	42.13
690.81	0.00
690.95	28.09
691.08	0.00
691.22	0.00
691.35	46.81
691.49	37.45
691.62	0.00
691.76	35.11
691.89	39.79
692.03	4.68
692.16	35.11
692.30	102.98
692.43	25.75
692.57	39.79
692.70	0.00
692.84	81.92
692.97	0.00
693.11	46.81
693.24	25.75
693.38	63.19
693.51	63.19
693.65	16.38
693.78	42.13
693.92	37.45
694.05	107.66
694.19	0.00
694.32	28.09
694.45	49.15
694.59	46.81
694.72	42.13
694.86	32.77
694.99	58.51
695.13	60.85
695.26	37.45
695.39	0.00
695.53	51.49
695.66	4.68
695.80	0.00
695.93	0.00
696.07	18.72
696.20	37.45
696.33	0.00
696.47	65.54
696.60	25.75
696.73	11.70
696.87	74.90
697.00	51.49
697.14	39.79
697.27	28.09
697.40	0.00
697.54	16.38
697.67	42.13
697.80	56.17
697.94	42.13
698.07	107.66
698.21	32.77
698.34	65.54
698.47	23.41
698.61	46.81
698.74	37.45
698.87	81.92
699.01	0.00
699.14	16.38
699.27	67.88
699.40	79.58
699.54	18.72
699.67	86.60
699.80	37.45
699.94	30.43
700.07	25.75
700.20	21.06
700.34	30.43
700.47	79.58
700.60	16.38
700.73	77.24
700.87	39.79
701.00	4.68
701.13	49.15
701.26	0.00
701.40	35.11
701.53	100.64
701.66	21.06
701.79	9.36
701.93	0.00
702.06	93.62
702.19	14.04
702.32	25.75
702.46	0.00
702.59	53.83
702.72	51.49
702.85	51.49
702.99	23.41
703.12	32.77
703.25	79.58
703.38	2.34
703.51	0.00
703.65	67.88
703.78	53.83
703.91	25.75
704.04	2.34
704.17	42.13
704.31	0.00
704.44	49.15
704.57	7.02
704.70	25.75
704.83	23.41
704.96	0.00
705.10	100.64
705.23	18.72
>>>>>End Processed Spectral Data<<<<<
