SpectraSuite Data File
++++++++++++++++++++++++++++++++++++
Date: Fri Oct 04 12:13:29 GMT-05:00 2013
User: price-jones
Dark Spectrum Present: No
Reference Spectrum Present: No
Number of Sampled Component Spectra: 1
Spectrometers: USB2+H05261
Integration Time (usec): 10000 (USB2+H05261)
Spectra Averaged: 1 (USB2+H05261)
Boxcar Smoothing: 0 (USB2+H05261)
Correct for Electrical Dark: No (USB2+H05261)
Strobe/Lamp Enabled: No (USB2+H05261)
Correct for Detector Non-linearity: No (USB2+H05261)
Correct for Stray Light: No (USB2+H05261)
Number of Pixels in Processed Spectrum: 2048
>>>>>Begin Processed Spectral Data<<<<<
365.73	0.00
365.92	0.00
366.12	0.00
366.32	0.00
366.52	0.00
366.72	0.00
366.91	0.00
367.11	0.00
367.31	0.00
367.51	0.00
367.70	0.00
367.90	0.00
368.10	0.00
368.30	0.00
368.49	0.00
368.69	0.00
368.89	0.00
369.09	0.00
369.28	0.00
369.48	0.00
369.68	0.00
369.87	0.00
370.07	0.00
370.27	0.00
370.47	0.00
370.66	0.00
370.86	0.00
371.06	0.00
371.25	0.00
371.45	0.00
371.65	0.00
371.84	7.02
372.04	0.00
372.24	0.00
372.44	11.70
372.63	0.00
372.83	0.00
373.03	58.51
373.22	2.34
373.42	37.45
373.62	0.00
373.81	28.09
374.01	65.54
374.21	0.00
374.40	42.13
374.60	18.72
374.79	46.81
374.99	88.94
375.19	95.96
375.38	32.77
375.58	49.15
375.78	28.09
375.97	0.00
376.17	0.00
376.37	0.00
376.56	0.00
376.76	49.15
376.95	60.85
377.15	25.75
377.35	81.92
377.54	105.32
377.74	4.68
377.93	0.00
378.13	0.00
378.33	95.96
378.52	7.02
378.72	35.11
378.91	145.11
379.11	46.81
379.31	65.54
379.50	25.75
379.70	21.06
379.89	9.36
380.09	0.00
380.28	44.47
380.48	21.06
380.68	35.11
380.87	25.75
381.07	0.00
381.26	25.75
381.46	79.58
381.65	58.51
381.85	0.00
382.04	0.00
382.24	9.36
382.43	60.85
382.63	0.00
382.83	9.36
383.02	23.41
383.22	23.41
383.41	25.75
383.61	37.45
383.80	0.00
384.00	0.00
384.19	28.09
384.39	9.36
384.58	0.00
384.78	72.56
384.97	56.17
385.17	0.00
385.36	7.02
385.56	23.41
385.75	0.00
385.95	56.17
386.14	14.04
386.34	0.00
386.53	63.19
386.72	0.00
386.92	0.00
387.11	14.04
387.31	74.90
387.50	7.02
387.70	0.00
387.89	84.26
388.09	0.00
388.28	14.04
388.48	65.54
388.67	30.43
388.86	72.56
389.06	105.32
389.25	37.45
389.45	63.19
389.64	0.00
389.84	14.04
390.03	9.36
390.22	32.77
390.42	18.72
390.61	79.58
390.81	42.13
391.00	25.75
391.19	72.56
391.39	0.00
391.58	0.00
391.78	4.68
391.97	25.75
392.16	32.77
392.36	16.38
392.55	30.43
392.75	25.75
392.94	0.00
393.13	49.15
393.33	79.58
393.52	0.00
393.71	23.41
393.91	0.00
394.10	100.64
394.29	49.15
394.49	32.77
394.68	7.02
394.88	42.13
395.07	0.00
395.26	98.30
395.46	42.13
395.65	0.00
395.84	37.45
396.04	25.75
396.23	117.03
396.42	0.00
396.62	7.02
396.81	14.04
397.00	74.90
397.19	0.00
397.39	56.17
397.58	53.83
397.77	63.19
397.97	28.09
398.16	30.43
398.35	4.68
398.55	35.11
398.74	28.09
398.93	72.56
399.12	25.75
399.32	35.11
399.51	0.00
399.70	72.56
399.90	23.41
400.09	0.00
400.28	0.00
400.47	18.72
400.67	35.11
400.86	0.00
401.05	0.00
401.24	0.00
401.44	56.17
401.63	0.00
401.82	44.47
402.01	18.72
402.21	0.00
402.40	25.75
402.59	37.45
402.78	18.72
402.97	67.88
403.17	0.00
403.36	0.00
403.55	0.00
403.74	42.13
403.93	0.00
404.13	0.00
404.32	28.09
404.51	0.00
404.70	58.51
404.89	67.88
405.09	35.11
405.28	0.00
405.47	0.00
405.66	44.47
405.85	79.58
406.05	9.36
406.24	65.54
406.43	25.75
406.62	44.47
406.81	0.00
407.00	0.00
407.20	9.36
407.39	79.58
407.58	30.43
407.77	37.45
407.96	100.64
408.15	56.17
408.34	21.06
408.54	102.98
408.73	88.94
408.92	4.68
409.11	4.68
409.30	9.36
409.49	42.13
409.68	49.15
409.87	44.47
410.07	0.00
410.26	2.34
410.45	46.81
410.64	0.00
410.83	46.81
411.02	63.19
411.21	0.00
411.40	0.00
411.59	0.00
411.78	37.45
411.98	0.00
412.17	0.00
412.36	0.00
412.55	0.00
412.74	0.00
412.93	70.22
413.12	14.04
413.31	56.17
413.50	4.68
413.69	4.68
413.88	4.68
414.07	95.96
414.26	91.28
414.45	0.00
414.64	18.72
414.83	56.17
415.02	58.51
415.22	28.09
415.41	0.00
415.60	51.49
415.79	0.00
415.98	53.83
416.17	35.11
416.36	0.00
416.55	23.41
416.74	37.45
416.93	0.00
417.12	60.85
417.31	0.00
417.50	60.85
417.69	93.62
417.88	0.00
418.07	30.43
418.26	0.00
418.45	25.75
418.64	4.68
418.83	72.56
419.02	65.54
419.21	65.54
419.39	0.00
419.58	51.49
419.77	28.09
419.96	74.90
420.15	28.09
420.34	28.09
420.53	28.09
420.72	70.22
420.91	0.00
421.10	30.43
421.29	25.75
421.48	9.36
421.67	2.34
421.86	65.54
422.05	0.00
422.24	0.00
422.43	46.81
422.61	0.00
422.80	110.01
422.99	0.00
423.18	39.79
423.37	28.09
423.56	35.11
423.75	88.94
423.94	0.00
424.13	100.64
424.32	86.60
424.50	32.77
424.69	0.00
424.88	9.36
425.07	16.38
425.26	7.02
425.45	51.49
425.64	39.79
425.83	23.41
426.01	0.00
426.20	46.81
426.39	39.79
426.58	23.41
426.77	16.38
426.96	0.00
427.15	14.04
427.33	51.49
427.52	119.37
427.71	56.17
427.90	0.00
428.09	0.00
428.28	56.17
428.46	53.83
428.65	46.81
428.84	18.72
429.03	16.38
429.22	7.02
429.40	9.36
429.59	0.00
429.78	30.43
429.97	39.79
430.16	44.47
430.34	0.00
430.53	58.51
430.72	46.81
430.91	56.17
431.10	0.00
431.28	11.70
431.47	44.47
431.66	86.60
431.85	65.54
432.03	4.68
432.22	49.15
432.41	60.85
432.60	0.00
432.79	11.70
432.97	2.34
433.16	84.26
433.35	0.00
433.54	67.88
433.72	65.54
433.91	98.30
434.10	0.00
434.28	14.04
434.47	4.68
434.66	70.22
434.85	0.00
435.03	32.77
435.22	0.00
435.41	0.00
435.59	16.38
435.78	30.43
435.97	14.04
436.16	44.47
436.34	21.06
436.53	95.96
436.72	60.85
436.90	51.49
437.09	0.00
437.28	49.15
437.46	46.81
437.65	56.17
437.84	0.00
438.02	51.49
438.21	14.04
438.40	0.00
438.58	0.00
438.77	37.45
438.96	86.60
439.14	63.19
439.33	0.00
439.52	77.24
439.70	0.00
439.89	63.19
440.08	37.45
440.26	18.72
440.45	51.49
440.63	53.83
440.82	35.11
441.01	11.70
441.19	74.90
441.38	0.00
441.57	70.22
441.75	53.83
441.94	110.01
442.12	0.00
442.31	79.58
442.50	44.47
442.68	32.77
442.87	42.13
443.05	30.43
443.24	42.13
443.43	25.75
443.61	79.58
443.80	0.00
443.98	88.94
444.17	63.19
444.35	35.11
444.54	16.38
444.73	0.00
444.91	44.47
445.10	60.85
445.28	0.00
445.47	4.68
445.65	16.38
445.84	56.17
446.02	53.83
446.21	88.94
446.39	7.02
446.58	0.00
446.77	67.88
446.95	2.34
447.14	0.00
447.32	23.41
447.51	14.04
447.69	79.58
447.88	2.34
448.06	25.75
448.25	32.77
448.43	46.81
448.62	60.85
448.80	46.81
448.99	51.49
449.17	42.13
449.36	0.00
449.54	0.00
449.73	21.06
449.91	0.00
450.10	0.00
450.28	7.02
450.46	11.70
450.65	25.75
450.83	86.60
451.02	32.77
451.20	53.83
451.39	70.22
451.57	86.60
451.76	0.00
451.94	60.85
452.13	2.34
452.31	51.49
452.49	25.75
452.68	46.81
452.86	32.77
453.05	0.00
453.23	18.72
453.42	16.38
453.60	60.85
453.78	0.00
453.97	32.77
454.15	0.00
454.34	0.00
454.52	2.34
454.70	11.70
454.89	16.38
455.07	70.22
455.26	23.41
455.44	46.81
455.62	23.41
455.81	0.00
455.99	37.45
456.17	35.11
456.36	46.81
456.54	49.15
456.73	63.19
456.91	60.85
457.09	65.54
457.28	32.77
457.46	56.17
457.64	9.36
457.83	37.45
458.01	9.36
458.19	28.09
458.38	98.30
458.56	0.00
458.74	14.04
458.93	18.72
459.11	0.00
459.29	28.09
459.48	14.04
459.66	35.11
459.84	14.04
460.03	46.81
460.21	32.77
460.39	110.01
460.57	79.58
460.76	0.00
460.94	70.22
461.12	77.24
461.31	74.90
461.49	37.45
461.67	0.00
461.85	9.36
462.04	77.24
462.22	77.24
462.40	4.68
462.59	0.00
462.77	65.54
462.95	86.60
463.13	0.00
463.32	67.88
463.50	56.17
463.68	102.98
463.86	21.06
464.05	42.13
464.23	4.68
464.41	63.19
464.59	91.28
464.78	37.45
464.96	0.00
465.14	32.77
465.32	0.00
465.50	98.30
465.69	0.00
465.87	35.11
466.05	0.00
466.23	32.77
466.41	58.51
466.60	49.15
466.78	44.47
466.96	28.09
467.14	16.38
467.32	32.77
467.51	30.43
467.69	28.09
467.87	42.13
468.05	74.90
468.23	39.79
468.41	58.51
468.60	58.51
468.78	72.56
468.96	70.22
469.14	88.94
469.32	53.83
469.50	46.81
469.69	4.68
469.87	49.15
470.05	0.00
470.23	56.17
470.41	84.26
470.59	49.15
470.77	65.54
470.95	63.19
471.14	107.66
471.32	39.79
471.50	56.17
471.68	65.54
471.86	72.56
472.04	14.04
472.22	0.00
472.40	0.00
472.58	14.04
472.77	37.45
472.95	79.58
473.13	56.17
473.31	9.36
473.49	65.54
473.67	65.54
473.85	58.51
474.03	14.04
474.21	32.77
474.39	0.00
474.57	138.09
474.75	77.24
474.93	30.43
475.12	93.62
475.30	39.79
475.48	0.00
475.66	60.85
475.84	21.06
476.02	142.77
476.20	0.00
476.38	51.49
476.56	65.54
476.74	77.24
476.92	0.00
477.10	58.51
477.28	56.17
477.46	23.41
477.64	16.38
477.82	39.79
478.00	117.03
478.18	53.83
478.36	51.49
478.54	46.81
478.72	42.13
478.90	30.43
479.08	11.70
479.26	21.06
479.44	0.00
479.62	98.30
479.80	0.00
479.98	128.73
480.16	49.15
480.34	49.15
480.52	25.75
480.70	0.00
480.88	9.36
481.06	0.00
481.24	49.15
481.41	86.60
481.59	18.72
481.77	37.45
481.95	65.54
482.13	63.19
482.31	25.75
482.49	86.60
482.67	91.28
482.85	35.11
483.03	23.41
483.21	51.49
483.39	65.54
483.57	86.60
483.74	58.51
483.92	35.11
484.10	49.15
484.28	74.90
484.46	46.81
484.64	63.19
484.82	46.81
485.00	56.17
485.18	58.51
485.35	102.98
485.53	60.85
485.71	16.38
485.89	46.81
486.07	53.83
486.25	42.13
486.43	44.47
486.61	49.15
486.78	49.15
486.96	35.11
487.14	39.79
487.32	67.88
487.50	117.03
487.68	16.38
487.85	25.75
488.03	114.69
488.21	25.75
488.39	2.34
488.57	16.38
488.75	147.45
488.92	140.43
489.10	9.36
489.28	0.00
489.46	39.79
489.64	32.77
489.81	46.81
489.99	14.04
490.17	0.00
490.35	65.54
490.53	25.75
490.70	16.38
490.88	46.81
491.06	58.51
491.24	46.81
491.41	0.00
491.59	28.09
491.77	63.19
491.95	0.00
492.13	105.32
492.30	0.00
492.48	21.06
492.66	14.04
492.84	32.77
493.01	72.56
493.19	39.79
493.37	107.66
493.54	21.06
493.72	30.43
493.90	51.49
494.08	4.68
494.25	58.51
494.43	49.15
494.61	42.13
494.79	21.06
494.96	0.00
495.14	28.09
495.32	56.17
495.49	60.85
495.67	32.77
495.85	25.75
496.02	9.36
496.20	60.85
496.38	105.32
496.55	98.30
496.73	25.75
496.91	14.04
497.09	70.22
497.26	51.49
497.44	39.79
497.62	0.00
497.79	44.47
497.97	0.00
498.14	0.00
498.32	7.02
498.50	65.54
498.67	105.32
498.85	0.00
499.03	4.68
499.20	30.43
499.38	46.81
499.56	23.41
499.73	86.60
499.91	44.47
500.08	37.45
500.26	14.04
500.44	28.09
500.61	56.17
500.79	102.98
500.97	42.13
501.14	42.13
501.32	18.72
501.49	32.77
501.67	74.90
501.84	0.00
502.02	0.00
502.20	21.06
502.37	23.41
502.55	0.00
502.72	0.00
502.90	25.75
503.07	53.83
503.25	0.00
503.43	39.79
503.60	39.79
503.78	32.77
503.95	0.00
504.13	46.81
504.30	53.83
504.48	39.79
504.65	23.41
504.83	0.00
505.01	28.09
505.18	30.43
505.36	25.75
505.53	23.41
505.71	63.19
505.88	30.43
506.06	56.17
506.23	42.13
506.41	114.69
506.58	30.43
506.76	9.36
506.93	0.00
507.11	0.00
507.28	35.11
507.46	88.94
507.63	65.54
507.81	72.56
507.98	46.81
508.16	35.11
508.33	30.43
508.50	44.47
508.68	0.00
508.85	46.81
509.03	51.49
509.20	16.38
509.38	74.90
509.55	0.00
509.73	72.56
509.90	0.00
510.08	16.38
510.25	7.02
510.42	74.90
510.60	46.81
510.77	72.56
510.95	32.77
511.12	39.79
511.30	63.19
511.47	114.69
511.64	25.75
511.82	42.13
511.99	2.34
512.17	0.00
512.34	81.92
512.51	0.00
512.69	98.30
512.86	39.79
513.04	37.45
513.21	65.54
513.38	56.17
513.56	2.34
513.73	77.24
513.90	42.13
514.08	63.19
514.25	46.81
514.43	79.58
514.60	39.79
514.77	53.83
514.95	21.06
515.12	65.54
515.29	67.88
515.47	28.09
515.64	21.06
515.81	23.41
515.99	70.22
516.16	16.38
516.33	81.92
516.51	63.19
516.68	0.00
516.85	32.77
517.03	58.51
517.20	81.92
517.37	35.11
517.54	88.94
517.72	51.49
517.89	51.49
518.06	32.77
518.24	88.94
518.41	88.94
518.58	30.43
518.75	44.47
518.93	18.72
519.10	14.04
519.27	0.00
519.45	56.17
519.62	56.17
519.79	37.45
519.96	46.81
520.14	49.15
520.31	0.00
520.48	81.92
520.65	51.49
520.83	107.66
521.00	0.00
521.17	95.96
521.34	135.75
521.52	81.92
521.69	91.28
521.86	49.15
522.03	4.68
522.20	0.00
522.38	21.06
522.55	30.43
522.72	95.96
522.89	65.54
523.07	0.00
523.24	100.64
523.41	67.88
523.58	2.34
523.75	32.77
523.92	2.34
524.10	98.30
524.27	93.62
524.44	100.64
524.61	23.41
524.78	117.03
524.96	53.83
525.13	79.58
525.30	67.88
525.47	60.85
525.64	98.30
525.81	91.28
525.98	65.54
526.16	102.98
526.33	0.00
526.50	28.09
526.67	14.04
526.84	25.75
527.01	9.36
527.18	11.70
527.36	37.45
527.53	9.36
527.70	14.04
527.87	0.00
528.04	91.28
528.21	39.79
528.38	0.00
528.55	72.56
528.72	44.47
528.89	30.43
529.07	86.60
529.24	65.54
529.41	7.02
529.58	28.09
529.75	49.15
529.92	0.00
530.09	77.24
530.26	11.70
530.43	58.51
530.60	39.79
530.77	63.19
530.94	63.19
531.11	44.47
531.28	119.37
531.46	14.04
531.63	30.43
531.80	79.58
531.97	88.94
532.14	32.77
532.31	16.38
532.48	23.41
532.65	51.49
532.82	42.13
532.99	7.02
533.16	18.72
533.33	44.47
533.50	46.81
533.67	39.79
533.84	44.47
534.01	14.04
534.18	35.11
534.35	49.15
534.52	74.90
534.69	30.43
534.86	51.49
535.03	88.94
535.20	72.56
535.37	0.00
535.54	25.75
535.71	46.81
535.88	86.60
536.05	7.02
536.22	79.58
536.38	37.45
536.55	72.56
536.72	88.94
536.89	4.68
537.06	86.60
537.23	16.38
537.40	46.81
537.57	56.17
537.74	37.45
537.91	11.70
538.08	0.00
538.25	46.81
538.42	56.17
538.59	77.24
538.75	91.28
538.92	49.15
539.09	14.04
539.26	25.75
539.43	81.92
539.60	39.79
539.77	81.92
539.94	145.11
540.11	30.43
540.28	39.79
540.44	32.77
540.61	0.00
540.78	107.66
540.95	35.11
541.12	126.39
541.29	28.09
541.46	70.22
541.62	53.83
541.79	23.41
541.96	0.00
542.13	95.96
542.30	37.45
542.47	49.15
542.63	4.68
542.80	60.85
542.97	14.04
543.14	4.68
543.31	102.98
543.48	2.34
543.64	9.36
543.81	93.62
543.98	112.35
544.15	46.81
544.32	105.32
544.48	65.54
544.65	35.11
544.82	53.83
544.99	53.83
545.16	60.85
545.32	70.22
545.49	4.68
545.66	0.00
545.83	72.56
546.00	70.22
546.16	84.26
546.33	9.36
546.50	0.00
546.67	51.49
546.83	93.62
547.00	35.11
547.17	0.00
547.34	56.17
547.50	28.09
547.67	107.66
547.84	28.09
548.00	95.96
548.17	58.51
548.34	30.43
548.51	0.00
548.67	49.15
548.84	81.92
549.01	0.00
549.18	65.54
549.34	58.51
549.51	53.83
549.68	4.68
549.84	60.85
550.01	37.45
550.18	0.00
550.34	0.00
550.51	0.00
550.68	72.56
550.84	95.96
551.01	11.70
551.18	42.13
551.34	63.19
551.51	86.60
551.68	7.02
551.84	28.09
552.01	72.56
552.18	0.00
552.34	0.00
552.51	44.47
552.68	0.00
552.84	16.38
553.01	42.13
553.18	56.17
553.34	53.83
553.51	56.17
553.67	67.88
553.84	44.47
554.01	37.45
554.17	63.19
554.34	0.00
554.51	9.36
554.67	110.01
554.84	39.79
555.00	63.19
555.17	0.00
555.33	30.43
555.50	72.56
555.67	51.49
555.83	93.62
556.00	88.94
556.16	49.15
556.33	0.00
556.50	74.90
556.66	56.17
556.83	39.79
556.99	0.00
557.16	63.19
557.32	0.00
557.49	0.00
557.65	0.00
557.82	93.62
557.98	49.15
558.15	46.81
558.32	18.72
558.48	110.01
558.65	72.56
558.81	65.54
558.98	72.56
559.14	32.77
559.31	46.81
559.47	86.60
559.64	42.13
559.80	93.62
559.97	53.83
560.13	0.00
560.30	0.00
560.46	70.22
560.63	72.56
560.79	98.30
560.96	7.02
561.12	133.41
561.29	14.04
561.45	53.83
561.61	74.90
561.78	39.79
561.94	32.77
562.11	9.36
562.27	53.83
562.44	65.54
562.60	72.56
562.77	25.75
562.93	30.43
563.10	0.00
563.26	98.30
563.42	0.00
563.59	67.88
563.75	60.85
563.92	95.96
564.08	147.45
564.24	65.54
564.41	131.07
564.57	0.00
564.74	84.26
564.90	0.00
565.07	91.28
565.23	44.47
565.39	44.47
565.56	88.94
565.72	18.72
565.88	35.11
566.05	28.09
566.21	67.88
566.38	9.36
566.54	46.81
566.70	67.88
566.87	0.00
567.03	42.13
567.19	37.45
567.36	0.00
567.52	98.30
567.68	100.64
567.85	42.13
568.01	72.56
568.17	88.94
568.34	0.00
568.50	25.75
568.66	21.06
568.83	65.54
568.99	11.70
569.15	84.26
569.32	93.62
569.48	114.69
569.64	49.15
569.81	114.69
569.97	0.00
570.13	11.70
570.30	77.24
570.46	39.79
570.62	60.85
570.78	25.75
570.95	102.98
571.11	60.85
571.27	77.24
571.43	18.72
571.60	0.00
571.76	0.00
571.92	100.64
572.09	100.64
572.25	65.54
572.41	35.11
572.57	28.09
572.74	23.41
572.90	77.24
573.06	58.51
573.22	16.38
573.38	0.00
573.55	32.77
573.71	23.41
573.87	49.15
574.03	9.36
574.20	16.38
574.36	42.13
574.52	95.96
574.68	124.05
574.84	11.70
575.01	18.72
575.17	28.09
575.33	58.51
575.49	32.77
575.65	0.00
575.82	39.79
575.98	74.90
576.14	58.51
576.30	84.26
576.46	49.15
576.62	74.90
576.79	0.00
576.95	39.79
577.11	39.79
577.27	44.47
577.43	35.11
577.59	58.51
577.75	58.51
577.92	65.54
578.08	131.07
578.24	53.83
578.40	18.72
578.56	7.02
578.72	0.00
578.88	86.60
579.04	7.02
579.21	70.22
579.37	23.41
579.53	88.94
579.69	0.00
579.85	65.54
580.01	21.06
580.17	11.70
580.33	56.17
580.49	0.00
580.65	23.41
580.82	46.81
580.98	11.70
581.14	28.09
581.30	7.02
581.46	11.70
581.62	56.17
581.78	74.90
581.94	72.56
582.10	107.66
582.26	138.09
582.42	7.02
582.58	28.09
582.74	100.64
582.90	35.11
583.06	49.15
583.22	28.09
583.38	49.15
583.54	44.47
583.70	107.66
583.86	53.83
584.02	112.35
584.18	46.81
584.34	70.22
584.50	191.92
584.66	1350.49
584.82	3180.79
584.98	4339.35
585.14	3798.69
585.30	2427.14
585.46	1469.86
585.62	929.19
585.78	470.45
585.94	283.20
586.10	88.94
586.26	39.79
586.42	56.17
586.58	79.58
586.74	70.22
586.90	93.62
587.06	51.49
587.22	84.26
587.38	58.51
587.54	114.69
587.70	201.29
587.86	287.89
588.02	337.04
588.18	227.03
588.34	184.90
588.49	72.56
588.65	93.62
588.81	0.00
588.97	53.83
589.13	77.24
589.29	25.75
589.45	86.60
589.61	0.00
589.77	0.00
589.93	77.24
590.08	21.06
590.24	67.88
590.40	16.38
590.56	67.88
590.72	46.81
590.88	18.72
591.04	77.24
591.20	60.85
591.35	18.72
591.51	16.38
591.67	0.00
591.83	18.72
591.99	14.04
592.15	39.79
592.31	28.09
592.46	56.17
592.62	93.62
592.78	53.83
592.94	37.45
593.10	70.22
593.26	60.85
593.41	56.17
593.57	107.66
593.73	98.30
593.89	210.65
594.05	437.68
594.20	592.16
594.36	517.26
594.52	425.98
594.68	306.61
594.84	191.92
594.99	70.22
595.15	58.51
595.31	42.13
595.47	51.49
595.62	42.13
595.78	49.15
595.94	14.04
596.10	25.75
596.25	65.54
596.41	154.48
596.57	14.04
596.73	98.30
596.88	65.54
597.04	84.26
597.20	84.26
597.36	170.86
597.51	119.37
597.67	88.94
597.83	35.11
597.99	65.54
598.14	135.75
598.30	67.88
598.46	95.96
598.61	23.41
598.77	23.41
598.93	53.83
599.09	79.58
599.24	49.15
599.40	18.72
599.56	0.00
599.71	81.92
599.87	0.00
600.03	44.47
600.18	51.49
600.34	4.68
600.50	7.02
600.65	46.81
600.81	49.15
600.97	65.54
601.12	95.96
601.28	91.28
601.44	81.92
601.59	32.77
601.75	0.00
601.91	51.49
602.06	77.24
602.22	7.02
602.37	65.54
602.53	147.45
602.69	191.92
602.84	163.84
603.00	173.20
603.16	14.04
603.31	32.77
603.47	117.03
603.62	81.92
603.78	28.09
603.94	32.77
604.09	42.13
604.25	81.92
604.40	4.68
604.56	0.00
604.71	58.51
604.87	0.00
605.03	0.00
605.18	98.30
605.34	56.17
605.49	14.04
605.65	58.51
605.80	7.02
605.96	72.56
606.12	25.75
606.27	49.15
606.43	42.13
606.58	121.71
606.74	114.69
606.89	290.23
607.05	372.15
607.20	503.22
607.36	447.04
607.51	252.78
607.67	234.05
607.82	175.54
607.98	84.26
608.13	35.11
608.29	79.58
608.44	28.09
608.60	35.11
608.75	0.00
608.91	124.05
609.06	346.40
609.22	669.39
609.37	823.87
609.53	692.80
609.68	554.71
609.84	388.53
609.99	203.63
610.15	152.13
610.30	46.81
610.46	67.88
610.61	72.56
610.76	60.85
610.92	28.09
611.07	14.04
611.23	70.22
611.38	51.49
611.54	14.04
611.69	25.75
611.84	58.51
612.00	0.00
612.15	51.49
612.31	105.32
612.46	25.75
612.62	51.49
612.77	74.90
612.92	72.56
613.08	51.49
613.23	110.01
613.39	21.06
613.54	119.37
613.69	271.50
613.85	786.42
614.00	1254.53
614.15	1315.38
614.31	973.66
614.46	533.64
614.62	458.74
614.77	299.59
614.92	74.90
615.08	70.22
615.23	21.06
615.38	60.85
615.54	14.04
615.69	0.00
615.84	248.10
616.00	327.68
616.15	404.91
616.30	280.86
616.46	259.80
616.61	184.90
616.76	107.66
616.92	84.26
617.07	32.77
617.22	30.43
617.37	0.00
617.53	53.83
617.68	30.43
617.83	21.06
617.99	18.72
618.14	91.28
618.29	53.83
618.45	60.85
618.60	42.13
618.75	56.17
618.90	70.22
619.06	0.00
619.21	0.00
619.36	7.02
619.51	60.85
619.67	16.38
619.82	14.04
619.97	79.58
620.12	124.05
620.28	81.92
620.43	86.60
620.58	0.00
620.73	63.19
620.89	35.11
621.04	37.45
621.19	84.26
621.34	161.50
621.49	238.73
621.65	241.08
621.80	168.52
621.95	117.03
622.10	65.54
622.25	77.24
622.41	56.17
622.56	16.38
622.71	39.79
622.86	23.41
623.01	39.79
623.16	37.45
623.32	84.26
623.47	2.34
623.62	65.54
623.77	0.00
623.92	63.19
624.07	16.38
624.23	56.17
624.38	16.38
624.53	11.70
624.68	51.49
624.83	7.02
624.98	0.00
625.13	0.00
625.29	56.17
625.44	4.68
625.59	32.77
625.74	0.00
625.89	37.45
626.04	135.75
626.19	442.36
626.34	725.57
626.49	678.76
626.65	575.77
626.80	334.70
626.95	304.27
627.10	173.20
627.25	119.37
627.40	58.51
627.55	126.39
627.70	30.43
627.85	23.41
628.00	126.39
628.15	142.77
628.30	60.85
628.45	0.00
628.60	11.70
628.76	93.62
628.91	39.79
629.06	11.70
629.21	56.17
629.36	39.79
629.51	60.85
629.66	28.09
629.81	39.79
629.96	107.66
630.11	135.75
630.26	156.82
630.41	102.98
630.56	98.30
630.71	112.35
630.86	81.92
631.01	79.58
631.16	30.43
631.31	86.60
631.46	30.43
631.61	0.00
631.76	0.00
631.91	67.88
632.06	39.79
632.21	11.70
632.36	25.75
632.51	65.54
632.66	112.35
632.81	72.56
632.96	297.25
633.10	397.89
633.25	517.26
633.40	369.80
633.55	304.27
633.70	238.73
633.85	212.99
634.00	107.66
634.15	18.72
634.30	7.02
634.45	42.13
634.60	9.36
634.75	44.47
634.90	16.38
635.05	105.32
635.19	2.34
635.34	7.02
635.49	35.11
635.64	35.11
635.79	93.62
635.94	88.94
636.09	7.02
636.24	16.38
636.39	51.49
636.53	74.90
636.68	39.79
636.83	46.81
636.98	51.49
637.13	53.83
637.28	93.62
637.43	72.56
637.57	58.51
637.72	231.71
637.87	484.49
638.02	858.98
638.17	863.66
638.32	653.01
638.46	521.94
638.61	313.63
638.76	191.92
638.91	93.62
639.06	126.39
639.20	131.07
639.35	44.47
639.50	81.92
639.65	332.36
639.80	856.64
639.94	1240.48
640.09	1376.24
640.24	1034.52
640.39	793.44
640.54	512.58
640.68	322.99
640.83	201.29
640.98	135.75
641.13	49.15
641.27	53.83
641.42	16.38
641.57	0.00
641.72	44.47
641.86	51.49
642.01	9.36
642.16	18.72
642.31	28.09
642.45	51.49
642.60	42.13
642.75	91.28
642.90	9.36
643.04	32.77
643.19	23.41
643.34	107.66
643.48	46.81
643.63	7.02
643.78	37.45
643.93	58.51
644.07	49.15
644.22	4.68
644.37	51.49
644.51	0.00
644.66	51.49
644.81	81.92
644.95	23.41
645.10	18.72
645.25	42.13
645.39	110.01
645.54	51.49
645.69	49.15
645.83	18.72
645.98	0.00
646.13	14.04
646.27	117.03
646.42	37.45
646.57	58.51
646.71	30.43
646.86	37.45
647.00	46.81
647.15	0.00
647.30	32.77
647.44	49.15
647.59	0.00
647.74	23.41
647.88	67.88
648.03	0.00
648.17	11.70
648.32	0.00
648.47	4.68
648.61	18.72
648.76	0.00
648.90	30.43
649.05	119.37
649.20	60.85
649.34	74.90
649.49	25.75
649.63	63.19
649.78	0.00
649.92	49.15
650.07	140.43
650.21	430.66
650.36	622.58
650.51	748.97
650.65	645.99
650.80	454.06
650.94	341.72
651.09	212.99
651.23	35.11
651.38	0.00
651.52	44.47
651.67	95.96
651.81	39.79
651.96	2.34
652.10	58.51
652.25	46.81
652.39	25.75
652.54	0.00
652.68	77.24
652.83	154.48
652.97	208.31
653.12	287.89
653.26	290.23
653.41	201.29
653.55	114.69
653.70	79.58
653.84	74.90
653.99	44.47
654.13	51.49
654.27	0.00
654.42	0.00
654.56	107.66
654.71	39.79
654.85	77.24
655.00	0.00
655.14	39.79
655.29	18.72
655.43	18.72
655.57	25.75
655.72	46.81
655.86	0.00
656.01	0.00
656.15	30.43
656.30	7.02
656.44	9.36
656.58	0.00
656.73	25.75
656.87	0.00
657.01	0.00
657.16	11.70
657.30	21.06
657.45	56.17
657.59	0.00
657.73	30.43
657.88	16.38
658.02	81.92
658.16	95.96
658.31	28.09
658.45	63.19
658.60	30.43
658.74	46.81
658.88	0.00
659.03	30.43
659.17	28.09
659.31	88.94
659.46	168.52
659.60	241.08
659.74	383.85
659.89	411.93
660.03	196.60
660.17	168.52
660.32	124.05
660.46	112.35
660.60	30.43
660.74	72.56
660.89	0.00
661.03	14.04
661.17	42.13
661.32	107.66
661.46	46.81
661.60	21.06
661.74	32.77
661.89	0.00
662.03	37.45
662.17	65.54
662.31	39.79
662.46	74.90
662.60	0.00
662.74	37.45
662.88	131.07
663.03	7.02
663.17	7.02
663.31	32.77
663.45	102.98
663.60	0.00
663.74	65.54
663.88	0.00
664.02	28.09
664.17	35.11
664.31	25.75
664.45	53.83
664.59	0.00
664.73	107.66
664.88	67.88
665.02	53.83
665.16	28.09
665.30	102.98
665.44	46.81
665.59	42.13
665.73	32.77
665.87	23.41
666.01	18.72
666.15	63.19
666.29	121.71
666.44	65.54
666.58	0.00
666.72	11.70
666.86	74.90
667.00	0.00
667.14	56.17
667.28	159.16
667.43	374.49
667.57	486.83
667.71	681.10
667.85	458.74
667.99	409.59
668.13	285.55
668.27	210.65
668.41	161.50
668.56	91.28
668.70	37.45
668.84	56.17
668.98	25.75
669.12	23.41
669.26	67.88
669.40	63.19
669.54	72.56
669.68	44.47
669.82	23.41
669.96	100.64
670.10	30.43
670.25	21.06
670.39	0.00
670.53	58.51
670.67	0.00
670.81	0.00
670.95	0.00
671.09	14.04
671.23	105.32
671.37	243.42
671.51	278.52
671.65	442.36
671.79	330.02
671.93	147.45
672.07	170.86
672.21	100.64
672.35	28.09
672.49	18.72
672.63	84.26
672.77	28.09
672.91	14.04
673.05	49.15
673.19	0.00
673.33	0.00
673.47	0.00
673.61	70.22
673.75	74.90
673.89	0.00
674.03	25.75
674.17	44.47
674.31	44.47
674.45	86.60
674.59	0.00
674.73	0.00
674.87	21.06
675.01	56.17
675.15	63.19
675.29	32.77
675.43	0.00
675.56	16.38
675.70	58.51
675.84	0.00
675.98	14.04
676.12	25.75
676.26	28.09
676.40	32.77
676.54	0.00
676.68	93.62
676.82	91.28
676.96	37.45
677.10	79.58
677.23	30.43
677.37	0.00
677.51	37.45
677.65	98.30
677.79	4.68
677.93	18.72
678.07	39.79
678.21	39.79
678.34	56.17
678.48	35.11
678.62	53.83
678.76	95.96
678.90	42.13
679.04	60.85
679.18	0.00
679.31	18.72
679.45	0.00
679.59	42.13
679.73	11.70
679.87	0.00
680.00	0.00
680.14	32.77
680.28	32.77
680.42	7.02
680.56	58.51
680.70	14.04
680.83	63.19
680.97	39.79
681.11	95.96
681.25	102.98
681.39	0.00
681.52	79.58
681.66	112.35
681.80	37.45
681.94	39.79
682.07	88.94
682.21	25.75
682.35	46.81
682.49	0.00
682.62	53.83
682.76	39.79
682.90	32.77
683.04	9.36
683.17	0.00
683.31	28.09
683.45	0.00
683.59	11.70
683.72	30.43
683.86	44.47
684.00	112.35
684.13	79.58
684.27	7.02
684.41	39.79
684.55	42.13
684.68	42.13
684.82	39.79
684.96	65.54
685.09	0.00
685.23	18.72
685.37	0.00
685.50	0.00
685.64	18.72
685.78	9.36
685.91	25.75
686.05	53.83
686.19	35.11
686.32	23.41
686.46	0.00
686.60	0.00
686.73	2.34
686.87	65.54
687.01	53.83
687.14	37.45
687.28	25.75
687.42	30.43
687.55	63.19
687.69	11.70
687.82	7.02
687.96	84.26
688.10	14.04
688.23	42.13
688.37	18.72
688.50	67.88
688.64	124.05
688.78	72.56
688.91	53.83
689.05	93.62
689.18	51.49
689.32	42.13
689.46	0.00
689.59	42.13
689.73	0.00
689.86	39.79
690.00	56.17
690.13	18.72
690.27	0.00
690.41	0.00
690.54	65.54
690.68	0.00
690.81	35.11
690.95	35.11
691.08	56.17
691.22	28.09
691.35	37.45
691.49	16.38
691.62	67.88
691.76	18.72
691.89	32.77
692.03	63.19
692.16	0.00
692.30	7.02
692.43	25.75
692.57	220.01
692.70	217.67
692.84	367.46
692.97	248.10
693.11	177.88
693.24	222.35
693.38	102.98
693.51	126.39
693.65	39.79
693.78	7.02
693.92	46.81
694.05	98.30
694.19	42.13
694.32	58.51
694.45	30.43
694.59	0.00
694.72	4.68
694.86	9.36
694.99	11.70
695.13	100.64
695.26	39.79
695.39	23.41
695.53	14.04
695.66	42.13
695.80	35.11
695.93	51.49
696.07	0.00
696.20	93.62
696.33	0.00
696.47	53.83
696.60	21.06
696.73	56.17
696.87	0.00
697.00	65.54
697.14	95.96
697.27	77.24
697.40	49.15
697.54	0.00
697.67	126.39
697.80	2.34
697.94	4.68
698.07	25.75
698.21	44.47
698.34	7.02
698.47	11.70
698.61	86.60
698.74	21.06
698.87	46.81
699.01	0.00
699.14	0.00
699.27	25.75
699.40	42.13
699.54	0.00
699.67	67.88
699.80	63.19
699.94	79.58
700.07	23.41
700.20	0.00
700.34	65.54
700.47	51.49
700.60	0.00
700.73	28.09
700.87	65.54
701.00	2.34
701.13	30.43
701.26	42.13
701.40	14.04
701.53	32.77
701.66	0.00
701.79	60.85
701.93	84.26
702.06	79.58
702.19	42.13
702.32	0.00
702.46	44.47
702.59	21.06
702.72	42.13
702.85	156.82
702.99	313.63
703.12	449.38
703.25	606.20
703.38	484.49
703.51	491.51
703.65	280.86
703.78	227.03
703.91	126.39
704.04	84.26
704.17	30.43
704.31	0.00
704.44	21.06
704.57	18.72
704.70	58.51
704.83	0.00
704.96	86.60
705.10	11.70
705.23	30.43
>>>>>End Processed Spectral Data<<<<<
