SpectraSuite Data File
++++++++++++++++++++++++++++++++++++
Date: Fri Oct 04 12:13:36 GMT-05:00 2013
User: price-jones
Dark Spectrum Present: No
Reference Spectrum Present: No
Number of Sampled Component Spectra: 1
Spectrometers: USB2+H05261
Integration Time (usec): 10000 (USB2+H05261)
Spectra Averaged: 1 (USB2+H05261)
Boxcar Smoothing: 0 (USB2+H05261)
Correct for Electrical Dark: No (USB2+H05261)
Strobe/Lamp Enabled: No (USB2+H05261)
Correct for Detector Non-linearity: No (USB2+H05261)
Correct for Stray Light: No (USB2+H05261)
Number of Pixels in Processed Spectrum: 2048
>>>>>Begin Processed Spectral Data<<<<<
365.73	0.00
365.92	0.00
366.12	0.00
366.32	0.00
366.52	0.00
366.72	0.00
366.91	0.00
367.11	0.00
367.31	0.00
367.51	0.00
367.70	0.00
367.90	0.00
368.10	0.00
368.30	0.00
368.49	0.00
368.69	0.00
368.89	0.00
369.09	0.00
369.28	0.00
369.48	0.00
369.68	0.00
369.87	0.00
370.07	0.00
370.27	0.00
370.47	0.00
370.66	0.00
370.86	0.00
371.06	0.00
371.25	11.70
371.45	0.00
371.65	0.00
371.84	25.75
372.04	9.36
372.24	0.00
372.44	0.00
372.63	67.88
372.83	2.34
373.03	18.72
373.22	16.38
373.42	0.00
373.62	0.00
373.81	21.06
374.01	14.04
374.21	16.38
374.40	42.13
374.60	53.83
374.79	23.41
374.99	49.15
375.19	53.83
375.38	21.06
375.58	0.00
375.78	25.75
375.97	28.09
376.17	60.85
376.37	16.38
376.56	32.77
376.76	63.19
376.95	16.38
377.15	0.00
377.35	46.81
377.54	70.22
377.74	72.56
377.93	0.00
378.13	0.00
378.33	0.00
378.52	14.04
378.72	86.60
378.91	39.79
379.11	30.43
379.31	58.51
379.50	44.47
379.70	0.00
379.89	0.00
380.09	84.26
380.28	25.75
380.48	14.04
380.68	0.00
380.87	32.77
381.07	65.54
381.26	7.02
381.46	9.36
381.65	0.00
381.85	7.02
382.04	42.13
382.24	32.77
382.43	30.43
382.63	0.00
382.83	0.00
383.02	0.00
383.22	58.51
383.41	14.04
383.61	0.00
383.80	42.13
384.00	0.00
384.19	65.54
384.39	0.00
384.58	51.49
384.78	0.00
384.97	0.00
385.17	86.60
385.36	37.45
385.56	2.34
385.75	0.00
385.95	0.00
386.14	0.00
386.34	16.38
386.53	21.06
386.72	0.00
386.92	67.88
387.11	0.00
387.31	88.94
387.50	58.51
387.70	0.00
387.89	39.79
388.09	11.70
388.28	0.00
388.48	0.00
388.67	9.36
388.86	51.49
389.06	70.22
389.25	37.45
389.45	77.24
389.64	4.68
389.84	121.71
390.03	18.72
390.22	63.19
390.42	21.06
390.61	58.51
390.81	14.04
391.00	11.70
391.19	0.00
391.39	0.00
391.58	18.72
391.78	95.96
391.97	4.68
392.16	53.83
392.36	72.56
392.55	42.13
392.75	65.54
392.94	30.43
393.13	91.28
393.33	4.68
393.52	58.51
393.71	11.70
393.91	39.79
394.10	28.09
394.29	65.54
394.49	49.15
394.68	32.77
394.88	16.38
395.07	0.00
395.26	35.11
395.46	77.24
395.65	16.38
395.84	0.00
396.04	74.90
396.23	37.45
396.42	81.92
396.62	95.96
396.81	25.75
397.00	0.00
397.19	49.15
397.39	72.56
397.58	37.45
397.77	53.83
397.97	42.13
398.16	0.00
398.35	35.11
398.55	14.04
398.74	14.04
398.93	0.00
399.12	0.00
399.32	53.83
399.51	28.09
399.70	0.00
399.90	67.88
400.09	46.81
400.28	98.30
400.47	32.77
400.67	4.68
400.86	56.17
401.05	0.00
401.24	0.00
401.44	9.36
401.63	18.72
401.82	7.02
402.01	23.41
402.21	2.34
402.40	9.36
402.59	32.77
402.78	0.00
402.97	42.13
403.17	28.09
403.36	0.00
403.55	35.11
403.74	23.41
403.93	117.03
404.13	11.70
404.32	18.72
404.51	42.13
404.70	67.88
404.89	30.43
405.09	58.51
405.28	11.70
405.47	46.81
405.66	114.69
405.85	37.45
406.05	0.00
406.24	100.64
406.43	51.49
406.62	74.90
406.81	56.17
407.00	14.04
407.20	46.81
407.39	18.72
407.58	58.51
407.77	16.38
407.96	117.03
408.15	39.79
408.34	16.38
408.54	65.54
408.73	37.45
408.92	63.19
409.11	88.94
409.30	4.68
409.49	30.43
409.68	44.47
409.87	39.79
410.07	49.15
410.26	58.51
410.45	65.54
410.64	39.79
410.83	98.30
411.02	0.00
411.21	18.72
411.40	91.28
411.59	21.06
411.78	30.43
411.98	21.06
412.17	49.15
412.36	39.79
412.55	0.00
412.74	21.06
412.93	32.77
413.12	37.45
413.31	46.81
413.50	0.00
413.69	0.00
413.88	74.90
414.07	84.26
414.26	72.56
414.45	65.54
414.64	74.90
414.83	56.17
415.02	58.51
415.22	32.77
415.41	35.11
415.60	63.19
415.79	46.81
415.98	0.00
416.17	58.51
416.36	28.09
416.55	32.77
416.74	0.00
416.93	102.98
417.12	42.13
417.31	84.26
417.50	112.35
417.69	0.00
417.88	0.00
418.07	0.00
418.26	39.79
418.45	0.00
418.64	25.75
418.83	14.04
419.02	25.75
419.21	67.88
419.39	18.72
419.58	65.54
419.77	0.00
419.96	23.41
420.15	56.17
420.34	30.43
420.53	23.41
420.72	28.09
420.91	0.00
421.10	91.28
421.29	60.85
421.48	58.51
421.67	32.77
421.86	105.32
422.05	0.00
422.24	37.45
422.43	63.19
422.61	7.02
422.80	11.70
422.99	0.00
423.18	46.81
423.37	0.00
423.56	49.15
423.75	37.45
423.94	74.90
424.13	121.71
424.32	0.00
424.50	14.04
424.69	124.05
424.88	23.41
425.07	46.81
425.26	51.49
425.45	0.00
425.64	9.36
425.83	51.49
426.01	51.49
426.20	84.26
426.39	98.30
426.58	21.06
426.77	126.39
426.96	67.88
427.15	70.22
427.33	63.19
427.52	16.38
427.71	0.00
427.90	46.81
428.09	51.49
428.28	28.09
428.46	0.00
428.65	60.85
428.84	63.19
429.03	72.56
429.22	0.00
429.40	0.00
429.59	79.58
429.78	86.60
429.97	58.51
430.16	63.19
430.34	0.00
430.53	35.11
430.72	58.51
430.91	4.68
431.10	35.11
431.28	42.13
431.47	30.43
431.66	74.90
431.85	23.41
432.03	42.13
432.22	23.41
432.41	35.11
432.60	11.70
432.79	18.72
432.97	117.03
433.16	39.79
433.35	95.96
433.54	9.36
433.72	0.00
433.91	25.75
434.10	51.49
434.28	60.85
434.47	4.68
434.66	23.41
434.85	67.88
435.03	21.06
435.22	121.71
435.41	86.60
435.59	63.19
435.78	0.00
435.97	37.45
436.16	105.32
436.34	16.38
436.53	56.17
436.72	88.94
436.90	37.45
437.09	58.51
437.28	51.49
437.46	7.02
437.65	49.15
437.84	63.19
438.02	0.00
438.21	23.41
438.40	79.58
438.58	30.43
438.77	53.83
438.96	14.04
439.14	35.11
439.33	18.72
439.52	88.94
439.70	91.28
439.89	18.72
440.08	32.77
440.26	4.68
440.45	0.00
440.63	60.85
440.82	65.54
441.01	4.68
441.19	28.09
441.38	128.73
441.57	11.70
441.75	72.56
441.94	25.75
442.12	35.11
442.31	4.68
442.50	0.00
442.68	37.45
442.87	65.54
443.05	9.36
443.24	0.00
443.43	77.24
443.61	72.56
443.80	79.58
443.98	74.90
444.17	56.17
444.35	98.30
444.54	56.17
444.73	14.04
444.91	32.77
445.10	30.43
445.28	11.70
445.47	23.41
445.65	49.15
445.84	74.90
446.02	70.22
446.21	95.96
446.39	67.88
446.58	51.49
446.77	25.75
446.95	56.17
447.14	37.45
447.32	91.28
447.51	91.28
447.69	121.71
447.88	65.54
448.06	28.09
448.25	0.00
448.43	42.13
448.62	74.90
448.80	58.51
448.99	117.03
449.17	58.51
449.36	16.38
449.54	114.69
449.73	0.00
449.91	28.09
450.10	25.75
450.28	56.17
450.46	28.09
450.65	88.94
450.83	98.30
451.02	39.79
451.20	70.22
451.39	56.17
451.57	72.56
451.76	65.54
451.94	9.36
452.13	86.60
452.31	49.15
452.49	9.36
452.68	88.94
452.86	53.83
453.05	95.96
453.23	23.41
453.42	86.60
453.60	0.00
453.78	51.49
453.97	30.43
454.15	42.13
454.34	58.51
454.52	21.06
454.70	77.24
454.89	56.17
455.07	63.19
455.26	46.81
455.44	0.00
455.62	49.15
455.81	77.24
455.99	98.30
456.17	11.70
456.36	77.24
456.54	51.49
456.73	67.88
456.91	79.58
457.09	110.01
457.28	88.94
457.46	58.51
457.64	93.62
457.83	63.19
458.01	35.11
458.19	0.00
458.38	91.28
458.56	0.00
458.74	0.00
458.93	121.71
459.11	142.77
459.29	98.30
459.48	23.41
459.66	42.13
459.84	117.03
460.03	21.06
460.21	21.06
460.39	30.43
460.57	84.26
460.76	102.98
460.94	67.88
461.12	44.47
461.31	11.70
461.49	18.72
461.67	79.58
461.85	18.72
462.04	77.24
462.22	117.03
462.40	42.13
462.59	53.83
462.77	51.49
462.95	65.54
463.13	53.83
463.32	14.04
463.50	46.81
463.68	46.81
463.86	88.94
464.05	16.38
464.23	93.62
464.41	72.56
464.59	95.96
464.78	133.41
464.96	81.92
465.14	74.90
465.32	0.00
465.50	102.98
465.69	39.79
465.87	77.24
466.05	23.41
466.23	0.00
466.41	39.79
466.60	142.77
466.78	39.79
466.96	23.41
467.14	86.60
467.32	53.83
467.51	107.66
467.69	53.83
467.87	11.70
468.05	95.96
468.23	72.56
468.41	135.75
468.60	23.41
468.78	88.94
468.96	32.77
469.14	4.68
469.32	86.60
469.50	11.70
469.69	18.72
469.87	23.41
470.05	74.90
470.23	95.96
470.41	110.01
470.59	16.38
470.77	51.49
470.95	60.85
471.14	56.17
471.32	100.64
471.50	0.00
471.68	56.17
471.86	81.92
472.04	35.11
472.22	124.05
472.40	35.11
472.58	56.17
472.77	7.02
472.95	72.56
473.13	51.49
473.31	11.70
473.49	86.60
473.67	102.98
473.85	58.51
474.03	49.15
474.21	79.58
474.39	84.26
474.57	42.13
474.75	14.04
474.93	65.54
475.12	51.49
475.30	65.54
475.48	65.54
475.66	42.13
475.84	77.24
476.02	77.24
476.20	44.47
476.38	56.17
476.56	9.36
476.74	100.64
476.92	32.77
477.10	70.22
477.28	32.77
477.46	88.94
477.64	112.35
477.82	140.43
478.00	72.56
478.18	67.88
478.36	121.71
478.54	88.94
478.72	46.81
478.90	74.90
479.08	25.75
479.26	14.04
479.44	35.11
479.62	37.45
479.80	100.64
479.98	53.83
480.16	88.94
480.34	74.90
480.52	58.51
480.70	37.45
480.88	11.70
481.06	86.60
481.24	70.22
481.41	77.24
481.59	39.79
481.77	86.60
481.95	35.11
482.13	39.79
482.31	93.62
482.49	32.77
482.67	67.88
482.85	110.01
483.03	107.66
483.21	32.77
483.39	63.19
483.57	124.05
483.74	98.30
483.92	18.72
484.10	2.34
484.28	77.24
484.46	131.07
484.64	91.28
484.82	114.69
485.00	9.36
485.18	0.00
485.35	32.77
485.53	25.75
485.71	84.26
485.89	86.60
486.07	65.54
486.25	81.92
486.43	72.56
486.61	67.88
486.78	53.83
486.96	56.17
487.14	98.30
487.32	79.58
487.50	63.19
487.68	88.94
487.85	37.45
488.03	51.49
488.21	0.00
488.39	37.45
488.57	112.35
488.75	88.94
488.92	128.73
489.10	93.62
489.28	107.66
489.46	81.92
489.64	133.41
489.81	37.45
489.99	53.83
490.17	140.43
490.35	77.24
490.53	81.92
490.70	95.96
490.88	133.41
491.06	0.00
491.24	77.24
491.41	105.32
491.59	84.26
491.77	86.60
491.95	100.64
492.13	135.75
492.30	44.47
492.48	28.09
492.66	128.73
492.84	65.54
493.01	39.79
493.19	28.09
493.37	126.39
493.54	46.81
493.72	124.05
493.90	93.62
494.08	65.54
494.25	70.22
494.43	128.73
494.61	30.43
494.79	46.81
494.96	0.00
495.14	39.79
495.32	56.17
495.49	28.09
495.67	72.56
495.85	117.03
496.02	72.56
496.20	56.17
496.38	46.81
496.55	0.00
496.73	84.26
496.91	72.56
497.09	72.56
497.26	84.26
497.44	77.24
497.62	74.90
497.79	88.94
497.97	81.92
498.14	42.13
498.32	77.24
498.50	53.83
498.67	67.88
498.85	93.62
499.03	49.15
499.20	58.51
499.38	98.30
499.56	77.24
499.73	58.51
499.91	117.03
500.08	21.06
500.26	23.41
500.44	84.26
500.61	70.22
500.79	159.16
500.97	46.81
501.14	121.71
501.32	84.26
501.49	51.49
501.67	140.43
501.84	114.69
502.02	35.11
502.20	117.03
502.37	102.98
502.55	72.56
502.72	79.58
502.90	159.16
503.07	81.92
503.25	102.98
503.43	39.79
503.60	60.85
503.78	28.09
503.95	18.72
504.13	44.47
504.30	30.43
504.48	32.77
504.65	74.90
504.83	95.96
505.01	51.49
505.18	42.13
505.36	63.19
505.53	0.00
505.71	35.11
505.88	58.51
506.06	84.26
506.23	88.94
506.41	114.69
506.58	88.94
506.76	37.45
506.93	72.56
507.11	72.56
507.28	84.26
507.46	124.05
507.63	117.03
507.81	32.77
507.98	74.90
508.16	100.64
508.33	98.30
508.50	131.07
508.68	39.79
508.85	58.51
509.03	60.85
509.20	56.17
509.38	67.88
509.55	81.92
509.73	37.45
509.90	63.19
510.08	147.45
510.25	119.37
510.42	18.72
510.60	95.96
510.77	114.69
510.95	112.35
511.12	79.58
511.30	98.30
511.47	74.90
511.64	88.94
511.82	117.03
511.99	100.64
512.17	77.24
512.34	67.88
512.51	56.17
512.69	100.64
512.86	163.84
513.04	81.92
513.21	119.37
513.38	42.13
513.56	77.24
513.73	37.45
513.90	65.54
514.08	56.17
514.25	39.79
514.43	84.26
514.60	102.98
514.77	44.47
514.95	44.47
515.12	51.49
515.29	65.54
515.47	95.96
515.64	117.03
515.81	70.22
515.99	128.73
516.16	119.37
516.33	138.09
516.51	98.30
516.68	79.58
516.85	128.73
517.03	93.62
517.20	77.24
517.37	51.49
517.54	35.11
517.72	58.51
517.89	70.22
518.06	42.13
518.24	145.11
518.41	79.58
518.58	159.16
518.75	63.19
518.93	46.81
519.10	105.32
519.27	56.17
519.45	65.54
519.62	72.56
519.79	60.85
519.96	56.17
520.14	63.19
520.31	105.32
520.48	65.54
520.65	81.92
520.83	107.66
521.00	93.62
521.17	30.43
521.34	72.56
521.52	133.41
521.69	44.47
521.86	163.84
522.03	93.62
522.20	77.24
522.38	110.01
522.55	37.45
522.72	86.60
522.89	72.56
523.07	65.54
523.24	9.36
523.41	93.62
523.58	86.60
523.75	98.30
523.92	142.77
524.10	65.54
524.27	67.88
524.44	39.79
524.61	88.94
524.78	91.28
524.96	53.83
525.13	128.73
525.30	60.85
525.47	77.24
525.64	51.49
525.81	154.48
525.98	119.37
526.16	142.77
526.33	51.49
526.50	35.11
526.67	42.13
526.84	74.90
527.01	81.92
527.18	95.96
527.36	70.22
527.53	107.66
527.70	65.54
527.87	100.64
528.04	100.64
528.21	124.05
528.38	58.51
528.55	112.35
528.72	67.88
528.89	79.58
529.07	44.47
529.24	35.11
529.41	88.94
529.58	131.07
529.75	42.13
529.92	173.20
530.09	112.35
530.26	126.39
530.43	74.90
530.60	79.58
530.77	147.45
530.94	70.22
531.11	70.22
531.28	91.28
531.46	145.11
531.63	159.16
531.80	107.66
531.97	166.18
532.14	49.15
532.31	114.69
532.48	102.98
532.65	42.13
532.82	112.35
532.99	84.26
533.16	126.39
533.33	81.92
533.50	51.49
533.67	95.96
533.84	133.41
534.01	0.00
534.18	86.60
534.35	170.86
534.52	117.03
534.69	58.51
534.86	44.47
535.03	114.69
535.20	77.24
535.37	140.43
535.54	124.05
535.71	46.81
535.88	161.50
536.05	79.58
536.22	65.54
536.38	63.19
536.55	72.56
536.72	16.38
536.89	91.28
537.06	88.94
537.23	9.36
537.40	37.45
537.57	119.37
537.74	23.41
537.91	156.82
538.08	67.88
538.25	114.69
538.42	91.28
538.59	138.09
538.75	88.94
538.92	93.62
539.09	124.05
539.26	35.11
539.43	88.94
539.60	81.92
539.77	65.54
539.94	32.77
540.11	46.81
540.28	154.48
540.44	35.11
540.61	58.51
540.78	37.45
540.95	86.60
541.12	72.56
541.29	93.62
541.46	44.47
541.62	70.22
541.79	117.03
541.96	86.60
542.13	46.81
542.30	74.90
542.47	60.85
542.63	49.15
542.80	63.19
542.97	88.94
543.14	79.58
543.31	39.79
543.48	67.88
543.64	100.64
543.81	114.69
543.98	53.83
544.15	119.37
544.32	77.24
544.48	156.82
544.65	65.54
544.82	86.60
544.99	49.15
545.16	63.19
545.32	67.88
545.49	63.19
545.66	156.82
545.83	88.94
546.00	117.03
546.16	128.73
546.33	121.71
546.50	84.26
546.67	107.66
546.83	95.96
547.00	93.62
547.17	84.26
547.34	135.75
547.50	72.56
547.67	63.19
547.84	95.96
548.00	93.62
548.17	88.94
548.34	2.34
548.51	74.90
548.67	126.39
548.84	152.13
549.01	56.17
549.18	58.51
549.34	145.11
549.51	77.24
549.68	98.30
549.84	138.09
550.01	140.43
550.18	60.85
550.34	117.03
550.51	131.07
550.68	67.88
550.84	18.72
551.01	39.79
551.18	74.90
551.34	98.30
551.51	98.30
551.68	114.69
551.84	14.04
552.01	37.45
552.18	42.13
552.34	49.15
552.51	154.48
552.68	74.90
552.84	88.94
553.01	91.28
553.18	0.00
553.34	152.13
553.51	98.30
553.67	95.96
553.84	81.92
554.01	49.15
554.17	39.79
554.34	63.19
554.51	65.54
554.67	152.13
554.84	74.90
555.00	163.84
555.17	56.17
555.33	70.22
555.50	32.77
555.67	91.28
555.83	145.11
556.00	9.36
556.16	95.96
556.33	112.35
556.50	112.35
556.66	30.43
556.83	86.60
556.99	152.13
557.16	51.49
557.32	0.00
557.49	49.15
557.65	74.90
557.82	119.37
557.98	121.71
558.15	105.32
558.32	77.24
558.48	145.11
558.65	86.60
558.81	142.77
558.98	156.82
559.14	91.28
559.31	25.75
559.47	114.69
559.64	14.04
559.80	9.36
559.97	98.30
560.13	196.60
560.30	91.28
560.46	107.66
560.63	28.09
560.79	93.62
560.96	72.56
561.12	110.01
561.29	77.24
561.45	95.96
561.61	91.28
561.78	32.77
561.94	49.15
562.11	102.98
562.27	163.84
562.44	100.64
562.60	95.96
562.77	18.72
562.93	35.11
563.10	93.62
563.26	58.51
563.42	131.07
563.59	91.28
563.75	93.62
563.92	81.92
564.08	0.00
564.24	107.66
564.41	110.01
564.57	65.54
564.74	67.88
564.90	149.79
565.07	74.90
565.23	65.54
565.39	42.13
565.56	121.71
565.72	46.81
565.88	49.15
566.05	35.11
566.21	100.64
566.38	37.45
566.54	93.62
566.70	37.45
566.87	4.68
567.03	110.01
567.19	58.51
567.36	147.45
567.52	51.49
567.68	35.11
567.85	119.37
568.01	25.75
568.17	86.60
568.34	77.24
568.50	25.75
568.66	77.24
568.83	42.13
568.99	95.96
569.15	70.22
569.32	44.47
569.48	114.69
569.64	72.56
569.81	81.92
569.97	58.51
570.13	53.83
570.30	88.94
570.46	107.66
570.62	9.36
570.78	63.19
570.95	95.96
571.11	32.77
571.27	21.06
571.43	79.58
571.60	110.01
571.76	32.77
571.92	39.79
572.09	23.41
572.25	124.05
572.41	81.92
572.57	65.54
572.74	102.98
572.90	56.17
573.06	4.68
573.22	91.28
573.38	67.88
573.55	98.30
573.71	131.07
573.87	140.43
574.03	86.60
574.20	135.75
574.36	39.79
574.52	51.49
574.68	95.96
574.84	112.35
575.01	84.26
575.17	86.60
575.33	18.72
575.49	63.19
575.65	32.77
575.82	72.56
575.98	42.13
576.14	44.47
576.30	74.90
576.46	77.24
576.62	58.51
576.79	88.94
576.95	58.51
577.11	0.00
577.27	117.03
577.43	77.24
577.59	135.75
577.75	100.64
577.92	81.92
578.08	32.77
578.24	88.94
578.40	65.54
578.56	49.15
578.72	98.30
578.88	51.49
579.04	32.77
579.21	161.50
579.37	133.41
579.53	110.01
579.69	30.43
579.85	86.60
580.01	42.13
580.17	58.51
580.33	44.47
580.49	14.04
580.65	88.94
580.82	93.62
580.98	37.45
581.14	131.07
581.30	37.45
581.46	135.75
581.62	25.75
581.78	88.94
581.94	58.51
582.10	49.15
582.26	56.17
582.42	60.85
582.58	119.37
582.74	7.02
582.90	65.54
583.06	105.32
583.22	7.02
583.38	142.77
583.54	49.15
583.70	77.24
583.86	42.13
584.02	39.79
584.18	0.00
584.34	70.22
584.50	58.51
584.66	126.39
584.82	70.22
584.98	63.19
585.14	84.26
585.30	95.96
585.46	74.90
585.62	100.64
585.78	46.81
585.94	49.15
586.10	128.73
586.26	81.92
586.42	142.77
586.58	95.96
586.74	72.56
586.90	0.00
587.06	100.64
587.22	110.01
587.38	67.88
587.54	60.85
587.70	163.84
587.86	28.09
588.02	70.22
588.18	0.00
588.34	60.85
588.49	126.39
588.65	98.30
588.81	84.26
588.97	70.22
589.13	95.96
589.29	37.45
589.45	95.96
589.61	63.19
589.77	58.51
589.93	18.72
590.08	102.98
590.24	46.81
590.40	65.54
590.56	105.32
590.72	74.90
590.88	102.98
591.04	121.71
591.20	16.38
591.35	65.54
591.51	51.49
591.67	39.79
591.83	30.43
591.99	93.62
592.15	84.26
592.31	21.06
592.46	107.66
592.62	60.85
592.78	18.72
592.94	53.83
593.10	51.49
593.26	39.79
593.41	110.01
593.57	44.47
593.73	25.75
593.89	46.81
594.05	32.77
594.20	28.09
594.36	107.66
594.52	117.03
594.68	0.00
594.84	4.68
594.99	46.81
595.15	121.71
595.31	81.92
595.47	105.32
595.62	63.19
595.78	49.15
595.94	84.26
596.10	100.64
596.25	51.49
596.41	70.22
596.57	100.64
596.73	95.96
596.88	25.75
597.04	0.00
597.20	74.90
597.36	23.41
597.51	102.98
597.67	65.54
597.83	42.13
597.99	84.26
598.14	72.56
598.30	30.43
598.46	74.90
598.61	131.07
598.77	32.77
598.93	77.24
599.09	84.26
599.24	95.96
599.40	42.13
599.56	74.90
599.71	60.85
599.87	42.13
600.03	105.32
600.18	49.15
600.34	112.35
600.50	32.77
600.65	86.60
600.81	95.96
600.97	163.84
601.12	70.22
601.28	72.56
601.44	67.88
601.59	53.83
601.75	95.96
601.91	35.11
602.06	124.05
602.22	84.26
602.37	60.85
602.53	63.19
602.69	56.17
602.84	93.62
603.00	121.71
603.16	21.06
603.31	119.37
603.47	0.00
603.62	60.85
603.78	102.98
603.94	119.37
604.09	49.15
604.25	100.64
604.40	70.22
604.56	35.11
604.71	126.39
604.87	79.58
605.03	37.45
605.18	117.03
605.34	102.98
605.49	114.69
605.65	28.09
605.80	56.17
605.96	88.94
606.12	117.03
606.27	105.32
606.43	156.82
606.58	49.15
606.74	86.60
606.89	84.26
607.05	23.41
607.20	30.43
607.36	63.19
607.51	58.51
607.67	98.30
607.82	74.90
607.98	37.45
608.13	79.58
608.29	67.88
608.44	72.56
608.60	86.60
608.75	46.81
608.91	7.02
609.06	0.00
609.22	70.22
609.37	21.06
609.53	79.58
609.68	37.45
609.84	95.96
609.99	110.01
610.15	67.88
610.30	102.98
610.46	53.83
610.61	124.05
610.76	81.92
610.92	65.54
611.07	37.45
611.23	105.32
611.38	35.11
611.54	46.81
611.69	112.35
611.84	42.13
612.00	102.98
612.15	72.56
612.31	25.75
612.46	102.98
612.62	95.96
612.77	88.94
612.92	67.88
613.08	11.70
613.23	14.04
613.39	7.02
613.54	63.19
613.69	28.09
613.85	11.70
614.00	56.17
614.15	21.06
614.31	65.54
614.46	60.85
614.62	63.19
614.77	107.66
614.92	21.06
615.08	77.24
615.23	77.24
615.38	51.49
615.54	16.38
615.69	44.47
615.84	88.94
616.00	91.28
616.15	39.79
616.30	114.69
616.46	84.26
616.61	102.98
616.76	77.24
616.92	107.66
617.07	0.00
617.22	56.17
617.37	60.85
617.53	63.19
617.68	77.24
617.83	30.43
617.99	37.45
618.14	53.83
618.29	25.75
618.45	67.88
618.60	86.60
618.75	70.22
618.90	121.71
619.06	77.24
619.21	51.49
619.36	102.98
619.51	21.06
619.67	23.41
619.82	77.24
619.97	131.07
620.12	49.15
620.28	11.70
620.43	105.32
620.58	84.26
620.73	79.58
620.89	0.00
621.04	74.90
621.19	32.77
621.34	21.06
621.49	70.22
621.65	30.43
621.80	74.90
621.95	42.13
622.10	49.15
622.25	46.81
622.41	0.00
622.56	84.26
622.71	91.28
622.86	135.75
623.01	100.64
623.16	42.13
623.32	105.32
623.47	161.50
623.62	117.03
623.77	63.19
623.92	35.11
624.07	39.79
624.23	42.13
624.38	37.45
624.53	114.69
624.68	145.11
624.83	0.00
624.98	70.22
625.13	72.56
625.29	117.03
625.44	37.45
625.59	63.19
625.74	84.26
625.89	28.09
626.04	112.35
626.19	23.41
626.34	30.43
626.49	72.56
626.65	32.77
626.80	65.54
626.95	28.09
627.10	98.30
627.25	95.96
627.40	18.72
627.55	42.13
627.70	70.22
627.85	18.72
628.00	105.32
628.15	60.85
628.30	56.17
628.45	84.26
628.60	37.45
628.76	102.98
628.91	121.71
629.06	11.70
629.21	53.83
629.36	35.11
629.51	86.60
629.66	72.56
629.81	21.06
629.96	84.26
630.11	0.00
630.26	63.19
630.41	44.47
630.56	56.17
630.71	51.49
630.86	0.00
631.01	86.60
631.16	0.00
631.31	77.24
631.46	88.94
631.61	63.19
631.76	42.13
631.91	65.54
632.06	72.56
632.21	56.17
632.36	42.13
632.51	131.07
632.66	2.34
632.81	102.98
632.96	28.09
633.10	46.81
633.25	49.15
633.40	37.45
633.55	0.00
633.70	28.09
633.85	74.90
634.00	67.88
634.15	56.17
634.30	93.62
634.45	100.64
634.60	102.98
634.75	98.30
634.90	107.66
635.05	86.60
635.19	42.13
635.34	44.47
635.49	58.51
635.64	18.72
635.79	60.85
635.94	74.90
636.09	67.88
636.24	42.13
636.39	95.96
636.53	63.19
636.68	77.24
636.83	65.54
636.98	42.13
637.13	44.47
637.28	53.83
637.43	25.75
637.57	84.26
637.72	102.98
637.87	79.58
638.02	42.13
638.17	84.26
638.32	81.92
638.46	67.88
638.61	81.92
638.76	21.06
638.91	65.54
639.06	0.00
639.20	131.07
639.35	67.88
639.50	42.13
639.65	53.83
639.80	84.26
639.94	72.56
640.09	21.06
640.24	74.90
640.39	58.51
640.54	49.15
640.68	77.24
640.83	53.83
640.98	124.05
641.13	91.28
641.27	28.09
641.42	23.41
641.57	117.03
641.72	114.69
641.86	44.47
642.01	63.19
642.16	0.00
642.31	32.77
642.45	159.16
642.60	98.30
642.75	114.69
642.90	98.30
643.04	60.85
643.19	42.13
643.34	42.13
643.48	60.85
643.63	63.19
643.78	16.38
643.93	46.81
644.07	117.03
644.22	152.13
644.37	9.36
644.51	14.04
644.66	63.19
644.81	46.81
644.95	51.49
645.10	0.00
645.25	77.24
645.39	131.07
645.54	63.19
645.69	95.96
645.83	0.00
645.98	35.11
646.13	0.00
646.27	65.54
646.42	9.36
646.57	88.94
646.71	37.45
646.86	53.83
647.00	0.00
647.15	46.81
647.30	77.24
647.44	84.26
647.59	21.06
647.74	74.90
647.88	42.13
648.03	0.00
648.17	30.43
648.32	98.30
648.47	56.17
648.61	65.54
648.76	58.51
648.90	25.75
649.05	110.01
649.20	84.26
649.34	16.38
649.49	102.98
649.63	28.09
649.78	128.73
649.92	58.51
650.07	53.83
650.21	42.13
650.36	63.19
650.51	63.19
650.65	9.36
650.80	2.34
650.94	37.45
651.09	25.75
651.23	18.72
651.38	79.58
651.52	30.43
651.67	91.28
651.81	74.90
651.96	93.62
652.10	32.77
652.25	100.64
652.39	58.51
652.54	119.37
652.68	58.51
652.83	110.01
652.97	0.00
653.12	30.43
653.26	32.77
653.41	81.92
653.55	67.88
653.70	51.49
653.84	0.00
653.99	58.51
654.13	84.26
654.27	32.77
654.42	0.00
654.56	25.75
654.71	86.60
654.85	9.36
655.00	35.11
655.14	95.96
655.29	119.37
655.43	128.73
655.57	84.26
655.72	2.34
655.86	0.00
656.01	37.45
656.15	42.13
656.30	58.51
656.44	42.13
656.58	65.54
656.73	32.77
656.87	44.47
657.01	74.90
657.16	14.04
657.30	67.88
657.45	98.30
657.59	63.19
657.73	51.49
657.88	72.56
658.02	58.51
658.16	98.30
658.31	142.77
658.45	88.94
658.60	124.05
658.74	107.66
658.88	28.09
659.03	16.38
659.17	93.62
659.31	95.96
659.46	0.00
659.60	14.04
659.74	58.51
659.89	60.85
660.03	2.34
660.17	42.13
660.32	49.15
660.46	37.45
660.60	138.09
660.74	67.88
660.89	28.09
661.03	14.04
661.17	46.81
661.32	58.51
661.46	28.09
661.60	0.00
661.74	0.00
661.89	42.13
662.03	58.51
662.17	46.81
662.31	39.79
662.46	58.51
662.60	21.06
662.74	0.00
662.88	51.49
663.03	100.64
663.17	0.00
663.31	58.51
663.45	30.43
663.60	128.73
663.74	49.15
663.88	32.77
664.02	11.70
664.17	23.41
664.31	93.62
664.45	84.26
664.59	53.83
664.73	65.54
664.88	74.90
665.02	63.19
665.16	60.85
665.30	121.71
665.44	0.00
665.59	65.54
665.73	39.79
665.87	11.70
666.01	42.13
666.15	131.07
666.29	0.00
666.44	138.09
666.58	81.92
666.72	51.49
666.86	21.06
667.00	67.88
667.14	25.75
667.28	63.19
667.43	58.51
667.57	32.77
667.71	30.43
667.85	28.09
667.99	60.85
668.13	93.62
668.27	51.49
668.41	58.51
668.56	44.47
668.70	30.43
668.84	72.56
668.98	84.26
669.12	70.22
669.26	74.90
669.40	56.17
669.54	81.92
669.68	79.58
669.82	95.96
669.96	25.75
670.10	67.88
670.25	25.75
670.39	74.90
670.53	44.47
670.67	124.05
670.81	46.81
670.95	9.36
671.09	84.26
671.23	138.09
671.37	88.94
671.51	11.70
671.65	0.00
671.79	77.24
671.93	98.30
672.07	114.69
672.21	84.26
672.35	58.51
672.49	23.41
672.63	56.17
672.77	14.04
672.91	53.83
673.05	100.64
673.19	4.68
673.33	42.13
673.47	39.79
673.61	133.41
673.75	117.03
673.89	70.22
674.03	42.13
674.17	4.68
674.31	0.00
674.45	86.60
674.59	72.56
674.73	100.64
674.87	30.43
675.01	79.58
675.15	79.58
675.29	72.56
675.43	105.32
675.56	35.11
675.70	117.03
675.84	124.05
675.98	65.54
676.12	42.13
676.26	0.00
676.40	0.00
676.54	74.90
676.68	51.49
676.82	63.19
676.96	21.06
677.10	35.11
677.23	39.79
677.37	35.11
677.51	0.00
677.65	86.60
677.79	42.13
677.93	72.56
678.07	16.38
678.21	39.79
678.34	112.35
678.48	0.00
678.62	77.24
678.76	0.00
678.90	0.00
679.04	56.17
679.18	42.13
679.31	18.72
679.45	7.02
679.59	18.72
679.73	42.13
679.87	51.49
680.00	25.75
680.14	58.51
680.28	81.92
680.42	56.17
680.56	126.39
680.70	0.00
680.83	100.64
680.97	0.00
681.11	58.51
681.25	56.17
681.39	51.49
681.52	65.54
681.66	2.34
681.80	21.06
681.94	74.90
682.07	42.13
682.21	60.85
682.35	105.32
682.49	25.75
682.62	0.00
682.76	72.56
682.90	25.75
683.04	110.01
683.17	79.58
683.31	63.19
683.45	37.45
683.59	60.85
683.72	51.49
683.86	4.68
684.00	7.02
684.13	72.56
684.27	0.00
684.41	0.00
684.55	60.85
684.68	23.41
684.82	39.79
684.96	112.35
685.09	28.09
685.23	39.79
685.37	42.13
685.50	0.00
685.64	0.00
685.78	46.81
685.91	0.00
686.05	72.56
686.19	56.17
686.32	23.41
686.46	2.34
686.60	93.62
686.73	65.54
686.87	117.03
687.01	100.64
687.14	39.79
687.28	53.83
687.42	37.45
687.55	35.11
687.69	42.13
687.82	0.00
687.96	32.77
688.10	32.77
688.23	72.56
688.37	60.85
688.50	16.38
688.64	63.19
688.78	0.00
688.91	44.47
689.05	25.75
689.18	7.02
689.32	0.00
689.46	86.60
689.59	53.83
689.73	42.13
689.86	39.79
690.00	51.49
690.13	51.49
690.27	74.90
690.41	86.60
690.54	74.90
690.68	79.58
690.81	46.81
690.95	131.07
691.08	42.13
691.22	88.94
691.35	18.72
691.49	56.17
691.62	74.90
691.76	37.45
691.89	74.90
692.03	67.88
692.16	46.81
692.30	42.13
692.43	4.68
692.57	39.79
692.70	37.45
692.84	35.11
692.97	14.04
693.11	46.81
693.24	0.00
693.38	77.24
693.51	18.72
693.65	37.45
693.78	0.00
693.92	46.81
694.05	79.58
694.19	0.00
694.32	60.85
694.45	9.36
694.59	32.77
694.72	49.15
694.86	77.24
694.99	7.02
695.13	23.41
695.26	84.26
695.39	77.24
695.53	70.22
695.66	25.75
695.80	0.00
695.93	28.09
696.07	58.51
696.20	0.00
696.33	25.75
696.47	60.85
696.60	119.37
696.73	30.43
696.87	88.94
697.00	35.11
697.14	0.00
697.27	65.54
697.40	74.90
697.54	65.54
697.67	63.19
697.80	44.47
697.94	0.00
698.07	0.00
698.21	0.00
698.34	42.13
698.47	84.26
698.61	21.06
698.74	23.41
698.87	25.75
699.01	0.00
699.14	53.83
699.27	49.15
699.40	65.54
699.54	81.92
699.67	16.38
699.80	65.54
699.94	28.09
700.07	67.88
700.20	23.41
700.34	42.13
700.47	30.43
700.60	25.75
700.73	107.66
700.87	39.79
701.00	49.15
701.13	21.06
701.26	79.58
701.40	18.72
701.53	112.35
701.66	37.45
701.79	25.75
701.93	49.15
702.06	28.09
702.19	32.77
702.32	44.47
702.46	28.09
702.59	0.00
702.72	25.75
702.85	14.04
702.99	37.45
703.12	7.02
703.25	28.09
703.38	25.75
703.51	65.54
703.65	46.81
703.78	56.17
703.91	18.72
704.04	53.83
704.17	9.36
704.31	53.83
704.44	37.45
704.57	60.85
704.70	77.24
704.83	63.19
704.96	65.54
705.10	25.75
705.23	0.00
>>>>>End Processed Spectral Data<<<<<
