SpectraSuite Data File
++++++++++++++++++++++++++++++++++++
Date: Fri Oct 04 12:13:40 GMT-05:00 2013
User: price-jones
Dark Spectrum Present: No
Reference Spectrum Present: No
Number of Sampled Component Spectra: 1
Spectrometers: USB2+H05261
Integration Time (usec): 10000 (USB2+H05261)
Spectra Averaged: 1 (USB2+H05261)
Boxcar Smoothing: 0 (USB2+H05261)
Correct for Electrical Dark: No (USB2+H05261)
Strobe/Lamp Enabled: No (USB2+H05261)
Correct for Detector Non-linearity: No (USB2+H05261)
Correct for Stray Light: No (USB2+H05261)
Number of Pixels in Processed Spectrum: 2048
>>>>>Begin Processed Spectral Data<<<<<
365.73	0.00
365.92	0.00
366.12	0.00
366.32	0.00
366.52	0.00
366.72	0.00
366.91	0.00
367.11	0.00
367.31	0.00
367.51	0.00
367.70	0.00
367.90	0.00
368.10	0.00
368.30	0.00
368.49	0.00
368.69	0.00
368.89	0.00
369.09	0.00
369.28	0.00
369.48	0.00
369.68	0.00
369.87	0.00
370.07	0.00
370.27	0.00
370.47	0.00
370.66	0.00
370.86	0.00
371.06	7.02
371.25	0.00
371.45	0.00
371.65	14.04
371.84	0.00
372.04	0.00
372.24	46.81
372.44	30.43
372.63	9.36
372.83	60.85
373.03	0.00
373.22	18.72
373.42	0.00
373.62	46.81
373.81	37.45
374.01	32.77
374.21	56.17
374.40	37.45
374.60	0.00
374.79	14.04
374.99	25.75
375.19	9.36
375.38	30.43
375.58	7.02
375.78	74.90
375.97	72.56
376.17	117.03
376.37	51.49
376.56	60.85
376.76	32.77
376.95	23.41
377.15	21.06
377.35	14.04
377.54	2.34
377.74	18.72
377.93	105.32
378.13	11.70
378.33	32.77
378.52	37.45
378.72	37.45
378.91	37.45
379.11	60.85
379.31	32.77
379.50	35.11
379.70	0.00
379.89	49.15
380.09	124.05
380.28	0.00
380.48	23.41
380.68	14.04
380.87	9.36
381.07	21.06
381.26	28.09
381.46	0.00
381.65	0.00
381.85	21.06
382.04	7.02
382.24	0.00
382.43	65.54
382.63	9.36
382.83	44.47
383.02	21.06
383.22	14.04
383.41	23.41
383.61	7.02
383.80	77.24
384.00	56.17
384.19	25.75
384.39	70.22
384.58	0.00
384.78	42.13
384.97	0.00
385.17	53.83
385.36	0.00
385.56	21.06
385.75	0.00
385.95	2.34
386.14	42.13
386.34	11.70
386.53	39.79
386.72	18.72
386.92	32.77
387.11	30.43
387.31	23.41
387.50	0.00
387.70	44.47
387.89	0.00
388.09	32.77
388.28	98.30
388.48	21.06
388.67	0.00
388.86	79.58
389.06	0.00
389.25	21.06
389.45	79.58
389.64	72.56
389.84	25.75
390.03	11.70
390.22	39.79
390.42	25.75
390.61	25.75
390.81	30.43
391.00	7.02
391.19	0.00
391.39	0.00
391.58	0.00
391.78	18.72
391.97	14.04
392.16	0.00
392.36	16.38
392.55	28.09
392.75	49.15
392.94	25.75
393.13	56.17
393.33	14.04
393.52	32.77
393.71	4.68
393.91	0.00
394.10	0.00
394.29	86.60
394.49	53.83
394.68	0.00
394.88	0.00
395.07	46.81
395.26	37.45
395.46	42.13
395.65	39.79
395.84	93.62
396.04	88.94
396.23	7.02
396.42	23.41
396.62	46.81
396.81	35.11
397.00	21.06
397.19	0.00
397.39	0.00
397.58	0.00
397.77	39.79
397.97	39.79
398.16	4.68
398.35	7.02
398.55	81.92
398.74	18.72
398.93	42.13
399.12	56.17
399.32	21.06
399.51	95.96
399.70	65.54
399.90	0.00
400.09	23.41
400.28	16.38
400.47	0.00
400.67	11.70
400.86	11.70
401.05	30.43
401.24	23.41
401.44	51.49
401.63	0.00
401.82	14.04
402.01	0.00
402.21	23.41
402.40	42.13
402.59	0.00
402.78	30.43
402.97	0.00
403.17	56.17
403.36	65.54
403.55	67.88
403.74	63.19
403.93	35.11
404.13	0.00
404.32	32.77
404.51	77.24
404.70	0.00
404.89	32.77
405.09	18.72
405.28	0.00
405.47	0.00
405.66	74.90
405.85	16.38
406.05	42.13
406.24	86.60
406.43	60.85
406.62	39.79
406.81	18.72
407.00	16.38
407.20	46.81
407.39	0.00
407.58	77.24
407.77	18.72
407.96	91.28
408.15	11.70
408.34	35.11
408.54	28.09
408.73	46.81
408.92	0.00
409.11	14.04
409.30	9.36
409.49	42.13
409.68	60.85
409.87	60.85
410.07	2.34
410.26	4.68
410.45	37.45
410.64	58.51
410.83	72.56
411.02	67.88
411.21	25.75
411.40	9.36
411.59	46.81
411.78	39.79
411.98	39.79
412.17	58.51
412.36	112.35
412.55	30.43
412.74	42.13
412.93	25.75
413.12	74.90
413.31	37.45
413.50	35.11
413.69	112.35
413.88	14.04
414.07	67.88
414.26	46.81
414.45	0.00
414.64	37.45
414.83	56.17
415.02	0.00
415.22	60.85
415.41	56.17
415.60	58.51
415.79	39.79
415.98	46.81
416.17	23.41
416.36	49.15
416.55	70.22
416.74	16.38
416.93	72.56
417.12	21.06
417.31	23.41
417.50	77.24
417.69	39.79
417.88	46.81
418.07	16.38
418.26	23.41
418.45	58.51
418.64	63.19
418.83	74.90
419.02	70.22
419.21	74.90
419.39	23.41
419.58	0.00
419.77	84.26
419.96	0.00
420.15	0.00
420.34	100.64
420.53	16.38
420.72	0.00
420.91	65.54
421.10	0.00
421.29	44.47
421.48	28.09
421.67	51.49
421.86	63.19
422.05	14.04
422.24	114.69
422.43	98.30
422.61	37.45
422.80	86.60
422.99	98.30
423.18	93.62
423.37	51.49
423.56	79.58
423.75	105.32
423.94	79.58
424.13	84.26
424.32	32.77
424.50	21.06
424.69	53.83
424.88	30.43
425.07	0.00
425.26	107.66
425.45	63.19
425.64	4.68
425.83	67.88
426.01	79.58
426.20	11.70
426.39	32.77
426.58	23.41
426.77	0.00
426.96	72.56
427.15	49.15
427.33	0.00
427.52	126.39
427.71	37.45
427.90	58.51
428.09	21.06
428.28	72.56
428.46	0.00
428.65	0.00
428.84	30.43
429.03	0.00
429.22	21.06
429.40	23.41
429.59	0.00
429.78	133.41
429.97	84.26
430.16	0.00
430.34	70.22
430.53	56.17
430.72	25.75
430.91	77.24
431.10	32.77
431.28	14.04
431.47	0.00
431.66	58.51
431.85	58.51
432.03	39.79
432.22	18.72
432.41	67.88
432.60	0.00
432.79	67.88
432.97	44.47
433.16	42.13
433.35	4.68
433.54	32.77
433.72	100.64
433.91	84.26
434.10	0.00
434.28	77.24
434.47	72.56
434.66	70.22
434.85	72.56
435.03	28.09
435.22	32.77
435.41	63.19
435.59	100.64
435.78	70.22
435.97	105.32
436.16	117.03
436.34	51.49
436.53	102.98
436.72	88.94
436.90	102.98
437.09	0.00
437.28	56.17
437.46	39.79
437.65	0.00
437.84	70.22
438.02	0.00
438.21	119.37
438.40	44.47
438.58	30.43
438.77	46.81
438.96	121.71
439.14	67.88
439.33	119.37
439.52	74.90
439.70	81.92
439.89	44.47
440.08	67.88
440.26	28.09
440.45	35.11
440.63	30.43
440.82	46.81
441.01	30.43
441.19	79.58
441.38	84.26
441.57	7.02
441.75	32.77
441.94	135.75
442.12	119.37
442.31	32.77
442.50	60.85
442.68	0.00
442.87	49.15
443.05	28.09
443.24	25.75
443.43	77.24
443.61	49.15
443.80	30.43
443.98	42.13
444.17	0.00
444.35	49.15
444.54	88.94
444.73	79.58
444.91	16.38
445.10	74.90
445.28	42.13
445.47	44.47
445.65	112.35
445.84	91.28
446.02	88.94
446.21	37.45
446.39	23.41
446.58	0.00
446.77	72.56
446.95	23.41
447.14	0.00
447.32	42.13
447.51	98.30
447.69	72.56
447.88	0.00
448.06	105.32
448.25	0.00
448.43	35.11
448.62	39.79
448.80	0.00
448.99	51.49
449.17	74.90
449.36	86.60
449.54	63.19
449.73	58.51
449.91	37.45
450.10	11.70
450.28	30.43
450.46	86.60
450.65	72.56
450.83	21.06
451.02	88.94
451.20	46.81
451.39	84.26
451.57	0.00
451.76	39.79
451.94	49.15
452.13	46.81
452.31	16.38
452.49	0.00
452.68	28.09
452.86	84.26
453.05	107.66
453.23	30.43
453.42	70.22
453.60	63.19
453.78	77.24
453.97	28.09
454.15	72.56
454.34	16.38
454.52	53.83
454.70	21.06
454.89	0.00
455.07	0.00
455.26	65.54
455.44	67.88
455.62	84.26
455.81	65.54
455.99	95.96
456.17	84.26
456.36	93.62
456.54	72.56
456.73	23.41
456.91	44.47
457.09	21.06
457.28	124.05
457.46	70.22
457.64	70.22
457.83	14.04
458.01	25.75
458.19	25.75
458.38	0.00
458.56	11.70
458.74	100.64
458.93	79.58
459.11	72.56
459.29	42.13
459.48	107.66
459.66	60.85
459.84	65.54
460.03	105.32
460.21	37.45
460.39	42.13
460.57	112.35
460.76	102.98
460.94	60.85
461.12	51.49
461.31	77.24
461.49	39.79
461.67	30.43
461.85	86.60
462.04	44.47
462.22	121.71
462.40	100.64
462.59	67.88
462.77	72.56
462.95	0.00
463.13	23.41
463.32	114.69
463.50	58.51
463.68	84.26
463.86	0.00
464.05	53.83
464.23	21.06
464.41	25.75
464.59	42.13
464.78	91.28
464.96	56.17
465.14	88.94
465.32	0.00
465.50	72.56
465.69	60.85
465.87	30.43
466.05	88.94
466.23	121.71
466.41	35.11
466.60	32.77
466.78	77.24
466.96	67.88
467.14	39.79
467.32	53.83
467.51	9.36
467.69	88.94
467.87	84.26
468.05	0.00
468.23	0.00
468.41	121.71
468.60	70.22
468.78	44.47
468.96	72.56
469.14	119.37
469.32	67.88
469.50	58.51
469.69	0.00
469.87	79.58
470.05	67.88
470.23	63.19
470.41	51.49
470.59	11.70
470.77	44.47
470.95	37.45
471.14	70.22
471.32	0.00
471.50	21.06
471.68	63.19
471.86	86.60
472.04	49.15
472.22	60.85
472.40	65.54
472.58	72.56
472.77	37.45
472.95	37.45
473.13	112.35
473.31	51.49
473.49	18.72
473.67	14.04
473.85	0.00
474.03	32.77
474.21	0.00
474.39	39.79
474.57	63.19
474.75	81.92
474.93	35.11
475.12	102.98
475.30	112.35
475.48	81.92
475.66	37.45
475.84	44.47
476.02	67.88
476.20	0.00
476.38	67.88
476.56	51.49
476.74	49.15
476.92	72.56
477.10	30.43
477.28	100.64
477.46	39.79
477.64	88.94
477.82	100.64
478.00	140.43
478.18	79.58
478.36	11.70
478.54	42.13
478.72	84.26
478.90	11.70
479.08	21.06
479.26	117.03
479.44	58.51
479.62	81.92
479.80	65.54
479.98	107.66
480.16	74.90
480.34	28.09
480.52	74.90
480.70	72.56
480.88	0.00
481.06	79.58
481.24	60.85
481.41	63.19
481.59	42.13
481.77	4.68
481.95	77.24
482.13	105.32
482.31	107.66
482.49	79.58
482.67	119.37
482.85	16.38
483.03	32.77
483.21	70.22
483.39	37.45
483.57	39.79
483.74	46.81
483.92	67.88
484.10	102.98
484.28	32.77
484.46	100.64
484.64	39.79
484.82	14.04
485.00	42.13
485.18	65.54
485.35	28.09
485.53	79.58
485.71	42.13
485.89	42.13
486.07	42.13
486.25	53.83
486.43	49.15
486.61	65.54
486.78	93.62
486.96	86.60
487.14	93.62
487.32	72.56
487.50	4.68
487.68	9.36
487.85	84.26
488.03	35.11
488.21	39.79
488.39	91.28
488.57	114.69
488.75	117.03
488.92	60.85
489.10	14.04
489.28	16.38
489.46	56.17
489.64	58.51
489.81	11.70
489.99	79.58
490.17	105.32
490.35	100.64
490.53	63.19
490.70	58.51
490.88	88.94
491.06	110.01
491.24	60.85
491.41	25.75
491.59	0.00
491.77	46.81
491.95	74.90
492.13	58.51
492.30	79.58
492.48	119.37
492.66	102.98
492.84	175.54
493.01	58.51
493.19	60.85
493.37	65.54
493.54	23.41
493.72	14.04
493.90	93.62
494.08	84.26
494.25	91.28
494.43	79.58
494.61	44.47
494.79	114.69
494.96	67.88
495.14	60.85
495.32	65.54
495.49	16.38
495.67	16.38
495.85	42.13
496.02	32.77
496.20	81.92
496.38	154.48
496.55	21.06
496.73	21.06
496.91	84.26
497.09	65.54
497.26	49.15
497.44	126.39
497.62	98.30
497.79	88.94
497.97	84.26
498.14	72.56
498.32	102.98
498.50	32.77
498.67	77.24
498.85	135.75
499.03	117.03
499.20	114.69
499.38	51.49
499.56	159.16
499.73	70.22
499.91	0.00
500.08	65.54
500.26	88.94
500.44	0.00
500.61	35.11
500.79	21.06
500.97	56.17
501.14	112.35
501.32	138.09
501.49	21.06
501.67	112.35
501.84	14.04
502.02	105.32
502.20	53.83
502.37	63.19
502.55	124.05
502.72	53.83
502.90	100.64
503.07	79.58
503.25	46.81
503.43	88.94
503.60	105.32
503.78	105.32
503.95	30.43
504.13	35.11
504.30	25.75
504.48	135.75
504.65	100.64
504.83	100.64
505.01	58.51
505.18	154.48
505.36	30.43
505.53	102.98
505.71	88.94
505.88	91.28
506.06	65.54
506.23	70.22
506.41	60.85
506.58	100.64
506.76	37.45
506.93	74.90
507.11	102.98
507.28	14.04
507.46	81.92
507.63	98.30
507.81	56.17
507.98	51.49
508.16	91.28
508.33	88.94
508.50	58.51
508.68	180.22
508.85	133.41
509.03	79.58
509.20	91.28
509.38	4.68
509.55	46.81
509.73	56.17
509.90	86.60
510.08	0.00
510.25	35.11
510.42	84.26
510.60	39.79
510.77	93.62
510.95	56.17
511.12	18.72
511.30	140.43
511.47	107.66
511.64	124.05
511.82	81.92
511.99	42.13
512.17	79.58
512.34	58.51
512.51	42.13
512.69	60.85
512.86	154.48
513.04	126.39
513.21	86.60
513.38	91.28
513.56	9.36
513.73	67.88
513.90	81.92
514.08	79.58
514.25	131.07
514.43	9.36
514.60	60.85
514.77	39.79
514.95	63.19
515.12	37.45
515.29	152.13
515.47	133.41
515.64	9.36
515.81	18.72
515.99	60.85
516.16	121.71
516.33	88.94
516.51	56.17
516.68	126.39
516.85	156.82
517.03	145.11
517.20	145.11
517.37	140.43
517.54	110.01
517.72	114.69
517.89	4.68
518.06	53.83
518.24	56.17
518.41	56.17
518.58	95.96
518.75	72.56
518.93	93.62
519.10	53.83
519.27	23.41
519.45	131.07
519.62	119.37
519.79	105.32
519.96	81.92
520.14	168.52
520.31	161.50
520.48	107.66
520.65	65.54
520.83	93.62
521.00	72.56
521.17	67.88
521.34	56.17
521.52	86.60
521.69	112.35
521.86	117.03
522.03	147.45
522.20	9.36
522.38	77.24
522.55	102.98
522.72	142.77
522.89	74.90
523.07	110.01
523.24	60.85
523.41	114.69
523.58	133.41
523.75	35.11
523.92	86.60
524.10	0.00
524.27	133.41
524.44	70.22
524.61	63.19
524.78	67.88
524.96	65.54
525.13	93.62
525.30	126.39
525.47	117.03
525.64	114.69
525.81	74.90
525.98	110.01
526.16	77.24
526.33	65.54
526.50	84.26
526.67	32.77
526.84	53.83
527.01	30.43
527.18	21.06
527.36	2.34
527.53	46.81
527.70	152.13
527.87	182.56
528.04	18.72
528.21	124.05
528.38	117.03
528.55	86.60
528.72	142.77
528.89	86.60
529.07	60.85
529.24	95.96
529.41	44.47
529.58	32.77
529.75	93.62
529.92	100.64
530.09	135.75
530.26	65.54
530.43	112.35
530.60	152.13
530.77	72.56
530.94	70.22
531.11	58.51
531.28	53.83
531.46	74.90
531.63	133.41
531.80	65.54
531.97	149.79
532.14	91.28
532.31	93.62
532.48	95.96
532.65	81.92
532.82	81.92
532.99	39.79
533.16	81.92
533.33	126.39
533.50	117.03
533.67	72.56
533.84	58.51
534.01	112.35
534.18	39.79
534.35	0.00
534.52	70.22
534.69	25.75
534.86	119.37
535.03	72.56
535.20	60.85
535.37	102.98
535.54	67.88
535.71	72.56
535.88	46.81
536.05	39.79
536.22	133.41
536.38	81.92
536.55	128.73
536.72	60.85
536.89	79.58
537.06	23.41
537.23	81.92
537.40	95.96
537.57	105.32
537.74	42.13
537.91	119.37
538.08	114.69
538.25	110.01
538.42	72.56
538.59	86.60
538.75	70.22
538.92	70.22
539.09	126.39
539.26	56.17
539.43	147.45
539.60	49.15
539.77	93.62
539.94	119.37
540.11	93.62
540.28	95.96
540.44	58.51
540.61	93.62
540.78	18.72
540.95	98.30
541.12	88.94
541.29	65.54
541.46	81.92
541.62	93.62
541.79	88.94
541.96	93.62
542.13	86.60
542.30	79.58
542.47	161.50
542.63	124.05
542.80	121.71
542.97	42.13
543.14	72.56
543.31	65.54
543.48	95.96
543.64	60.85
543.81	88.94
543.98	32.77
544.15	63.19
544.32	107.66
544.48	72.56
544.65	93.62
544.82	70.22
544.99	74.90
545.16	86.60
545.32	58.51
545.49	117.03
545.66	105.32
545.83	53.83
546.00	102.98
546.16	49.15
546.33	98.30
546.50	93.62
546.67	110.01
546.83	42.13
547.00	131.07
547.17	100.64
547.34	79.58
547.50	112.35
547.67	168.52
547.84	128.73
548.00	107.66
548.17	102.98
548.34	95.96
548.51	117.03
548.67	105.32
548.84	77.24
549.01	131.07
549.18	117.03
549.34	28.09
549.51	133.41
549.68	110.01
549.84	49.15
550.01	28.09
550.18	93.62
550.34	81.92
550.51	28.09
550.68	121.71
550.84	56.17
551.01	46.81
551.18	135.75
551.34	95.96
551.51	72.56
551.68	46.81
551.84	63.19
552.01	121.71
552.18	100.64
552.34	35.11
552.51	93.62
552.68	128.73
552.84	32.77
553.01	86.60
553.18	140.43
553.34	79.58
553.51	102.98
553.67	49.15
553.84	119.37
554.01	23.41
554.17	182.56
554.34	81.92
554.51	98.30
554.67	149.79
554.84	100.64
555.00	81.92
555.17	117.03
555.33	119.37
555.50	86.60
555.67	39.79
555.83	88.94
556.00	98.30
556.16	147.45
556.33	51.49
556.50	105.32
556.66	140.43
556.83	98.30
556.99	56.17
557.16	81.92
557.32	98.30
557.49	77.24
557.65	63.19
557.82	35.11
557.98	88.94
558.15	86.60
558.32	86.60
558.48	72.56
558.65	98.30
558.81	51.49
558.98	124.05
559.14	110.01
559.31	95.96
559.47	56.17
559.64	93.62
559.80	88.94
559.97	95.96
560.13	51.49
560.30	65.54
560.46	35.11
560.63	114.69
560.79	140.43
560.96	53.83
561.12	63.19
561.29	44.47
561.45	51.49
561.61	37.45
561.78	133.41
561.94	131.07
562.11	51.49
562.27	79.58
562.44	100.64
562.60	70.22
562.77	53.83
562.93	84.26
563.10	133.41
563.26	110.01
563.42	51.49
563.59	114.69
563.75	60.85
563.92	95.96
564.08	147.45
564.24	67.88
564.41	98.30
564.57	51.49
564.74	100.64
564.90	175.54
565.07	16.38
565.23	70.22
565.39	98.30
565.56	98.30
565.72	91.28
565.88	79.58
566.05	100.64
566.21	72.56
566.38	128.73
566.54	107.66
566.70	35.11
566.87	63.19
567.03	142.77
567.19	39.79
567.36	42.13
567.52	117.03
567.68	42.13
567.85	65.54
568.01	121.71
568.17	72.56
568.34	67.88
568.50	114.69
568.66	91.28
568.83	63.19
568.99	93.62
569.15	60.85
569.32	30.43
569.48	60.85
569.64	107.66
569.81	84.26
569.97	77.24
570.13	93.62
570.30	98.30
570.46	60.85
570.62	65.54
570.78	135.75
570.95	51.49
571.11	32.77
571.27	140.43
571.43	37.45
571.60	84.26
571.76	140.43
571.92	98.30
572.09	30.43
572.25	102.98
572.41	67.88
572.57	88.94
572.74	117.03
572.90	93.62
573.06	84.26
573.22	32.77
573.38	49.15
573.55	60.85
573.71	56.17
573.87	93.62
574.03	124.05
574.20	0.00
574.36	0.00
574.52	135.75
574.68	107.66
574.84	72.56
575.01	58.51
575.17	32.77
575.33	79.58
575.49	58.51
575.65	63.19
575.82	98.30
575.98	77.24
576.14	133.41
576.30	84.26
576.46	100.64
576.62	51.49
576.79	77.24
576.95	81.92
577.11	37.45
577.27	119.37
577.43	98.30
577.59	58.51
577.75	119.37
577.92	72.56
578.08	105.32
578.24	39.79
578.40	49.15
578.56	124.05
578.72	102.98
578.88	35.11
579.04	88.94
579.21	98.30
579.37	63.19
579.53	67.88
579.69	51.49
579.85	110.01
580.01	107.66
580.17	124.05
580.33	37.45
580.49	117.03
580.65	16.38
580.82	37.45
580.98	128.73
581.14	49.15
581.30	23.41
581.46	93.62
581.62	49.15
581.78	51.49
581.94	30.43
582.10	39.79
582.26	95.96
582.42	56.17
582.58	107.66
582.74	70.22
582.90	21.06
583.06	86.60
583.22	37.45
583.38	74.90
583.54	39.79
583.70	81.92
583.86	86.60
584.02	70.22
584.18	100.64
584.34	60.85
584.50	98.30
584.66	21.06
584.82	102.98
584.98	117.03
585.14	58.51
585.30	131.07
585.46	86.60
585.62	74.90
585.78	28.09
585.94	105.32
586.10	25.75
586.26	18.72
586.42	88.94
586.58	86.60
586.74	133.41
586.90	107.66
587.06	81.92
587.22	84.26
587.38	112.35
587.54	100.64
587.70	114.69
587.86	42.13
588.02	119.37
588.18	135.75
588.34	110.01
588.49	72.56
588.65	77.24
588.81	16.38
588.97	65.54
589.13	100.64
589.29	32.77
589.45	93.62
589.61	65.54
589.77	67.88
589.93	84.26
590.08	114.69
590.24	79.58
590.40	7.02
590.56	67.88
590.72	140.43
590.88	44.47
591.04	81.92
591.20	53.83
591.35	65.54
591.51	105.32
591.67	110.01
591.83	105.32
591.99	30.43
592.15	93.62
592.31	81.92
592.46	7.02
592.62	114.69
592.78	98.30
592.94	95.96
593.10	119.37
593.26	9.36
593.41	21.06
593.57	25.75
593.73	67.88
593.89	0.00
594.05	65.54
594.20	0.00
594.36	86.60
594.52	18.72
594.68	91.28
594.84	91.28
594.99	117.03
595.15	70.22
595.31	63.19
595.47	74.90
595.62	44.47
595.78	84.26
595.94	84.26
596.10	95.96
596.25	138.09
596.41	67.88
596.57	74.90
596.73	18.72
596.88	53.83
597.04	0.00
597.20	77.24
597.36	128.73
597.51	124.05
597.67	102.98
597.83	88.94
597.99	65.54
598.14	86.60
598.30	74.90
598.46	91.28
598.61	58.51
598.77	131.07
598.93	44.47
599.09	56.17
599.24	98.30
599.40	18.72
599.56	37.45
599.71	114.69
599.87	100.64
600.03	30.43
600.18	58.51
600.34	100.64
600.50	67.88
600.65	98.30
600.81	102.98
600.97	7.02
601.12	7.02
601.28	60.85
601.44	95.96
601.59	102.98
601.75	114.69
601.91	51.49
602.06	112.35
602.22	51.49
602.37	81.92
602.53	0.00
602.69	58.51
602.84	65.54
603.00	14.04
603.16	77.24
603.31	58.51
603.47	9.36
603.62	117.03
603.78	58.51
603.94	28.09
604.09	53.83
604.25	60.85
604.40	42.13
604.56	53.83
604.71	84.26
604.87	51.49
605.03	30.43
605.18	128.73
605.34	100.64
605.49	117.03
605.65	49.15
605.80	98.30
605.96	56.17
606.12	86.60
606.27	95.96
606.43	105.32
606.58	58.51
606.74	72.56
606.89	67.88
607.05	39.79
607.20	67.88
607.36	44.47
607.51	91.28
607.67	56.17
607.82	79.58
607.98	112.35
608.13	49.15
608.29	65.54
608.44	53.83
608.60	44.47
608.75	105.32
608.91	124.05
609.06	67.88
609.22	124.05
609.37	88.94
609.53	67.88
609.68	65.54
609.84	67.88
609.99	44.47
610.15	93.62
610.30	56.17
610.46	0.00
610.61	37.45
610.76	39.79
610.92	86.60
611.07	124.05
611.23	16.38
611.38	53.83
611.54	100.64
611.69	128.73
611.84	49.15
612.00	67.88
612.15	67.88
612.31	67.88
612.46	124.05
612.62	65.54
612.77	88.94
612.92	117.03
613.08	51.49
613.23	63.19
613.39	77.24
613.54	58.51
613.69	67.88
613.85	84.26
614.00	79.58
614.15	58.51
614.31	25.75
614.46	133.41
614.62	100.64
614.77	81.92
614.92	93.62
615.08	77.24
615.23	46.81
615.38	65.54
615.54	25.75
615.69	46.81
615.84	91.28
616.00	39.79
616.15	91.28
616.30	77.24
616.46	81.92
616.61	9.36
616.76	117.03
616.92	51.49
617.07	63.19
617.22	98.30
617.37	77.24
617.53	77.24
617.68	88.94
617.83	107.66
617.99	102.98
618.14	53.83
618.29	100.64
618.45	63.19
618.60	74.90
618.75	32.77
618.90	107.66
619.06	0.00
619.21	138.09
619.36	44.47
619.51	74.90
619.67	63.19
619.82	42.13
619.97	79.58
620.12	49.15
620.28	51.49
620.43	14.04
620.58	88.94
620.73	74.90
620.89	42.13
621.04	25.75
621.19	9.36
621.34	30.43
621.49	63.19
621.65	42.13
621.80	110.01
621.95	168.52
622.10	84.26
622.25	135.75
622.41	86.60
622.56	21.06
622.71	72.56
622.86	46.81
623.01	11.70
623.16	95.96
623.32	72.56
623.47	44.47
623.62	124.05
623.77	51.49
623.92	0.00
624.07	16.38
624.23	42.13
624.38	65.54
624.53	102.98
624.68	16.38
624.83	39.79
624.98	56.17
625.13	98.30
625.29	84.26
625.44	72.56
625.59	49.15
625.74	72.56
625.89	79.58
626.04	7.02
626.19	124.05
626.34	23.41
626.49	32.77
626.65	84.26
626.80	37.45
626.95	2.34
627.10	18.72
627.25	9.36
627.40	145.11
627.55	86.60
627.70	138.09
627.85	0.00
628.00	79.58
628.15	37.45
628.30	117.03
628.45	56.17
628.60	46.81
628.76	60.85
628.91	65.54
629.06	93.62
629.21	72.56
629.36	93.62
629.51	70.22
629.66	98.30
629.81	39.79
629.96	35.11
630.11	14.04
630.26	79.58
630.41	35.11
630.56	65.54
630.71	44.47
630.86	93.62
631.01	81.92
631.16	39.79
631.31	0.00
631.46	60.85
631.61	81.92
631.76	70.22
631.91	44.47
632.06	37.45
632.21	9.36
632.36	63.19
632.51	74.90
632.66	86.60
632.81	65.54
632.96	70.22
633.10	30.43
633.25	114.69
633.40	42.13
633.55	65.54
633.70	74.90
633.85	63.19
634.00	37.45
634.15	0.00
634.30	100.64
634.45	11.70
634.60	0.00
634.75	131.07
634.90	70.22
635.05	63.19
635.19	93.62
635.34	67.88
635.49	0.00
635.64	60.85
635.79	21.06
635.94	4.68
636.09	152.13
636.24	51.49
636.39	84.26
636.53	70.22
636.68	44.47
636.83	124.05
636.98	107.66
637.13	37.45
637.28	39.79
637.43	30.43
637.57	77.24
637.72	67.88
637.87	74.90
638.02	37.45
638.17	30.43
638.32	72.56
638.46	0.00
638.61	51.49
638.76	9.36
638.91	51.49
639.06	63.19
639.20	63.19
639.35	0.00
639.50	74.90
639.65	37.45
639.80	44.47
639.94	16.38
640.09	42.13
640.24	77.24
640.39	0.00
640.54	32.77
640.68	65.54
640.83	60.85
640.98	138.09
641.13	32.77
641.27	53.83
641.42	18.72
641.57	9.36
641.72	67.88
641.86	70.22
642.01	67.88
642.16	18.72
642.31	65.54
642.45	119.37
642.60	21.06
642.75	0.00
642.90	28.09
643.04	11.70
643.19	86.60
643.34	77.24
643.48	74.90
643.63	35.11
643.78	107.66
643.93	70.22
644.07	0.00
644.22	0.00
644.37	51.49
644.51	72.56
644.66	56.17
644.81	81.92
644.95	60.85
645.10	18.72
645.25	93.62
645.39	9.36
645.54	14.04
645.69	60.85
645.83	65.54
645.98	25.75
646.13	56.17
646.27	63.19
646.42	63.19
646.57	81.92
646.71	23.41
646.86	37.45
647.00	81.92
647.15	81.92
647.30	58.51
647.44	58.51
647.59	28.09
647.74	42.13
647.88	100.64
648.03	14.04
648.17	117.03
648.32	0.00
648.47	67.88
648.61	86.60
648.76	65.54
648.90	58.51
649.05	70.22
649.20	86.60
649.34	56.17
649.49	107.66
649.63	74.90
649.78	84.26
649.92	16.38
650.07	21.06
650.21	18.72
650.36	30.43
650.51	0.00
650.65	133.41
650.80	46.81
650.94	23.41
651.09	135.75
651.23	0.00
651.38	77.24
651.52	86.60
651.67	21.06
651.81	42.13
651.96	121.71
652.10	49.15
652.25	63.19
652.39	107.66
652.54	35.11
652.68	0.00
652.83	21.06
652.97	35.11
653.12	21.06
653.26	63.19
653.41	56.17
653.55	46.81
653.70	67.88
653.84	58.51
653.99	18.72
654.13	0.00
654.27	21.06
654.42	70.22
654.56	21.06
654.71	114.69
654.85	79.58
655.00	44.47
655.14	56.17
655.29	77.24
655.43	65.54
655.57	21.06
655.72	4.68
655.86	110.01
656.01	42.13
656.15	0.00
656.30	4.68
656.44	77.24
656.58	37.45
656.73	28.09
656.87	72.56
657.01	58.51
657.16	91.28
657.30	102.98
657.45	93.62
657.59	81.92
657.73	117.03
657.88	4.68
658.02	21.06
658.16	93.62
658.31	0.00
658.45	72.56
658.60	70.22
658.74	53.83
658.88	91.28
659.03	51.49
659.17	86.60
659.31	0.00
659.46	79.58
659.60	65.54
659.74	37.45
659.89	25.75
660.03	2.34
660.17	0.00
660.32	28.09
660.46	25.75
660.60	67.88
660.74	51.49
660.89	14.04
661.03	0.00
661.17	18.72
661.32	28.09
661.46	44.47
661.60	44.47
661.74	44.47
661.89	93.62
662.03	74.90
662.17	98.30
662.31	18.72
662.46	65.54
662.60	0.00
662.74	14.04
662.88	30.43
663.03	32.77
663.17	70.22
663.31	18.72
663.45	0.00
663.60	58.51
663.74	77.24
663.88	72.56
664.02	39.79
664.17	0.00
664.31	67.88
664.45	42.13
664.59	93.62
664.73	53.83
664.88	2.34
665.02	70.22
665.16	102.98
665.30	58.51
665.44	44.47
665.59	39.79
665.73	7.02
665.87	37.45
666.01	145.11
666.15	53.83
666.29	107.66
666.44	28.09
666.58	67.88
666.72	35.11
666.86	140.43
667.00	44.47
667.14	28.09
667.28	25.75
667.43	39.79
667.57	65.54
667.71	70.22
667.85	44.47
667.99	95.96
668.13	16.38
668.27	35.11
668.41	107.66
668.56	53.83
668.70	133.41
668.84	58.51
668.98	72.56
669.12	74.90
669.26	60.85
669.40	110.01
669.54	63.19
669.68	65.54
669.82	60.85
669.96	112.35
670.10	70.22
670.25	53.83
670.39	53.83
670.53	53.83
670.67	0.00
670.81	18.72
670.95	42.13
671.09	124.05
671.23	46.81
671.37	56.17
671.51	16.38
671.65	102.98
671.79	39.79
671.93	37.45
672.07	0.00
672.21	74.90
672.35	37.45
672.49	21.06
672.63	98.30
672.77	35.11
672.91	14.04
673.05	53.83
673.19	112.35
673.33	0.00
673.47	70.22
673.61	77.24
673.75	44.47
673.89	16.38
674.03	49.15
674.17	11.70
674.31	49.15
674.45	72.56
674.59	7.02
674.73	117.03
674.87	0.00
675.01	49.15
675.15	114.69
675.29	65.54
675.43	86.60
675.56	37.45
675.70	58.51
675.84	11.70
675.98	124.05
676.12	0.00
676.26	88.94
676.40	88.94
676.54	9.36
676.68	100.64
676.82	58.51
676.96	37.45
677.10	63.19
677.23	23.41
677.37	88.94
677.51	65.54
677.65	72.56
677.79	93.62
677.93	39.79
678.07	18.72
678.21	0.00
678.34	0.00
678.48	112.35
678.62	4.68
678.76	21.06
678.90	23.41
679.04	102.98
679.18	9.36
679.31	42.13
679.45	53.83
679.59	42.13
679.73	56.17
679.87	77.24
680.00	30.43
680.14	42.13
680.28	65.54
680.42	37.45
680.56	28.09
680.70	23.41
680.83	4.68
680.97	37.45
681.11	107.66
681.25	46.81
681.39	77.24
681.52	77.24
681.66	53.83
681.80	65.54
681.94	4.68
682.07	77.24
682.21	32.77
682.35	30.43
682.49	21.06
682.62	0.00
682.76	65.54
682.90	53.83
683.04	46.81
683.17	39.79
683.31	131.07
683.45	84.26
683.59	0.00
683.72	77.24
683.86	46.81
684.00	56.17
684.13	88.94
684.27	95.96
684.41	0.00
684.55	56.17
684.68	86.60
684.82	79.58
684.96	91.28
685.09	91.28
685.23	95.96
685.37	2.34
685.50	25.75
685.64	63.19
685.78	49.15
685.91	35.11
686.05	60.85
686.19	49.15
686.32	32.77
686.46	98.30
686.60	11.70
686.73	4.68
686.87	77.24
687.01	60.85
687.14	56.17
687.28	56.17
687.42	0.00
687.55	2.34
687.69	28.09
687.82	25.75
687.96	35.11
688.10	63.19
688.23	107.66
688.37	98.30
688.50	0.00
688.64	0.00
688.78	102.98
688.91	72.56
689.05	124.05
689.18	46.81
689.32	58.51
689.46	53.83
689.59	84.26
689.73	67.88
689.86	23.41
690.00	74.90
690.13	9.36
690.27	25.75
690.41	0.00
690.54	107.66
690.68	60.85
690.81	39.79
690.95	0.00
691.08	0.00
691.22	63.19
691.35	37.45
691.49	0.00
691.62	51.49
691.76	39.79
691.89	67.88
692.03	0.00
692.16	58.51
692.30	35.11
692.43	72.56
692.57	93.62
692.70	42.13
692.84	84.26
692.97	39.79
693.11	67.88
693.24	9.36
693.38	42.13
693.51	16.38
693.65	72.56
693.78	65.54
693.92	39.79
694.05	51.49
694.19	0.00
694.32	65.54
694.45	0.00
694.59	0.00
694.72	46.81
694.86	72.56
694.99	32.77
695.13	56.17
695.26	79.58
695.39	110.01
695.53	51.49
695.66	21.06
695.80	49.15
695.93	58.51
696.07	53.83
696.20	74.90
696.33	63.19
696.47	126.39
696.60	25.75
696.73	44.47
696.87	56.17
697.00	67.88
697.14	51.49
697.27	0.00
697.40	0.00
697.54	42.13
697.67	25.75
697.80	37.45
697.94	18.72
698.07	32.77
698.21	65.54
698.34	11.70
698.47	67.88
698.61	70.22
698.74	0.00
698.87	58.51
699.01	49.15
699.14	0.00
699.27	23.41
699.40	21.06
699.54	53.83
699.67	32.77
699.80	0.00
699.94	28.09
700.07	70.22
700.20	23.41
700.34	0.00
700.47	39.79
700.60	0.00
700.73	30.43
700.87	91.28
701.00	63.19
701.13	7.02
701.26	58.51
701.40	23.41
701.53	28.09
701.66	4.68
701.79	32.77
701.93	23.41
702.06	35.11
702.19	39.79
702.32	95.96
702.46	0.00
702.59	72.56
702.72	77.24
702.85	46.81
702.99	39.79
703.12	65.54
703.25	0.00
703.38	0.00
703.51	44.47
703.65	53.83
703.78	133.41
703.91	30.43
704.04	46.81
704.17	138.09
704.31	37.45
704.44	0.00
704.57	58.51
704.70	32.77
704.83	65.54
704.96	42.13
705.10	88.94
705.23	18.72
>>>>>End Processed Spectral Data<<<<<
