SpectraSuite Data File
++++++++++++++++++++++++++++++++++++
Date: Fri Oct 04 12:13:39 GMT-05:00 2013
User: price-jones
Dark Spectrum Present: No
Reference Spectrum Present: No
Number of Sampled Component Spectra: 1
Spectrometers: USB2+H05261
Integration Time (usec): 10000 (USB2+H05261)
Spectra Averaged: 1 (USB2+H05261)
Boxcar Smoothing: 0 (USB2+H05261)
Correct for Electrical Dark: No (USB2+H05261)
Strobe/Lamp Enabled: No (USB2+H05261)
Correct for Detector Non-linearity: No (USB2+H05261)
Correct for Stray Light: No (USB2+H05261)
Number of Pixels in Processed Spectrum: 2048
>>>>>Begin Processed Spectral Data<<<<<
365.73	35.11
365.92	35.11
366.12	35.11
366.32	0.00
366.52	0.00
366.72	0.00
366.91	0.00
367.11	0.00
367.31	0.00
367.51	0.00
367.70	0.00
367.90	0.00
368.10	0.00
368.30	0.00
368.49	0.00
368.69	0.00
368.89	0.00
369.09	0.00
369.28	0.00
369.48	0.00
369.68	0.00
369.87	0.00
370.07	0.00
370.27	0.00
370.47	0.00
370.66	0.00
370.86	0.00
371.06	0.00
371.25	0.00
371.45	0.00
371.65	0.00
371.84	0.00
372.04	9.36
372.24	0.00
372.44	39.79
372.63	51.49
372.83	39.79
373.03	98.30
373.22	21.06
373.42	14.04
373.62	28.09
373.81	30.43
374.01	37.45
374.21	46.81
374.40	0.00
374.60	16.38
374.79	53.83
374.99	0.00
375.19	9.36
375.38	46.81
375.58	2.34
375.78	25.75
375.97	0.00
376.17	0.00
376.37	53.83
376.56	0.00
376.76	58.51
376.95	0.00
377.15	0.00
377.35	18.72
377.54	0.00
377.74	0.00
377.93	0.00
378.13	32.77
378.33	0.00
378.52	58.51
378.72	0.00
378.91	0.00
379.11	9.36
379.31	16.38
379.50	25.75
379.70	23.41
379.89	74.90
380.09	16.38
380.28	32.77
380.48	14.04
380.68	42.13
380.87	56.17
381.07	44.47
381.26	67.88
381.46	0.00
381.65	25.75
381.85	0.00
382.04	0.00
382.24	72.56
382.43	11.70
382.63	0.00
382.83	0.00
383.02	72.56
383.22	16.38
383.41	0.00
383.61	7.02
383.80	14.04
384.00	49.15
384.19	9.36
384.39	44.47
384.58	84.26
384.78	98.30
384.97	35.11
385.17	23.41
385.36	7.02
385.56	25.75
385.75	0.00
385.95	2.34
386.14	23.41
386.34	39.79
386.53	23.41
386.72	105.32
386.92	0.00
387.11	9.36
387.31	9.36
387.50	0.00
387.70	0.00
387.89	0.00
388.09	16.38
388.28	46.81
388.48	0.00
388.67	16.38
388.86	44.47
389.06	0.00
389.25	18.72
389.45	0.00
389.64	42.13
389.84	37.45
390.03	35.11
390.22	0.00
390.42	14.04
390.61	7.02
390.81	0.00
391.00	44.47
391.19	37.45
391.39	58.51
391.58	9.36
391.78	25.75
391.97	23.41
392.16	4.68
392.36	42.13
392.55	53.83
392.75	0.00
392.94	0.00
393.13	25.75
393.33	0.00
393.52	18.72
393.71	74.90
393.91	60.85
394.10	37.45
394.29	0.00
394.49	93.62
394.68	49.15
394.88	74.90
395.07	98.30
395.26	88.94
395.46	0.00
395.65	67.88
395.84	4.68
396.04	2.34
396.23	0.00
396.42	9.36
396.62	0.00
396.81	42.13
397.00	18.72
397.19	39.79
397.39	9.36
397.58	49.15
397.77	39.79
397.97	42.13
398.16	46.81
398.35	23.41
398.55	28.09
398.74	35.11
398.93	21.06
399.12	9.36
399.32	53.83
399.51	77.24
399.70	51.49
399.90	49.15
400.09	0.00
400.28	9.36
400.47	7.02
400.67	23.41
400.86	25.75
401.05	67.88
401.24	63.19
401.44	0.00
401.63	0.00
401.82	28.09
402.01	9.36
402.21	77.24
402.40	53.83
402.59	30.43
402.78	30.43
402.97	25.75
403.17	0.00
403.36	56.17
403.55	0.00
403.74	49.15
403.93	39.79
404.13	46.81
404.32	18.72
404.51	51.49
404.70	14.04
404.89	18.72
405.09	16.38
405.28	21.06
405.47	44.47
405.66	28.09
405.85	63.19
406.05	32.77
406.24	39.79
406.43	84.26
406.62	0.00
406.81	35.11
407.00	100.64
407.20	65.54
407.39	23.41
407.58	23.41
407.77	98.30
407.96	53.83
408.15	63.19
408.34	79.58
408.54	23.41
408.73	88.94
408.92	18.72
409.11	58.51
409.30	72.56
409.49	86.60
409.68	30.43
409.87	0.00
410.07	0.00
410.26	14.04
410.45	77.24
410.64	86.60
410.83	37.45
411.02	56.17
411.21	74.90
411.40	63.19
411.59	79.58
411.78	0.00
411.98	42.13
412.17	110.01
412.36	0.00
412.55	105.32
412.74	42.13
412.93	70.22
413.12	46.81
413.31	58.51
413.50	112.35
413.69	0.00
413.88	91.28
414.07	23.41
414.26	0.00
414.45	65.54
414.64	32.77
414.83	39.79
415.02	14.04
415.22	60.85
415.41	77.24
415.60	81.92
415.79	49.15
415.98	14.04
416.17	0.00
416.36	4.68
416.55	0.00
416.74	60.85
416.93	79.58
417.12	0.00
417.31	4.68
417.50	65.54
417.69	72.56
417.88	0.00
418.07	0.00
418.26	37.45
418.45	37.45
418.64	42.13
418.83	18.72
419.02	0.00
419.21	0.00
419.39	102.98
419.58	35.11
419.77	0.00
419.96	32.77
420.15	63.19
420.34	7.02
420.53	0.00
420.72	18.72
420.91	81.92
421.10	39.79
421.29	21.06
421.48	46.81
421.67	65.54
421.86	53.83
422.05	37.45
422.24	86.60
422.43	28.09
422.61	35.11
422.80	145.11
422.99	4.68
423.18	16.38
423.37	51.49
423.56	0.00
423.75	161.50
423.94	9.36
424.13	35.11
424.32	56.17
424.50	0.00
424.69	0.00
424.88	58.51
425.07	21.06
425.26	2.34
425.45	30.43
425.64	58.51
425.83	0.00
426.01	37.45
426.20	7.02
426.39	32.77
426.58	77.24
426.77	0.00
426.96	2.34
427.15	60.85
427.33	56.17
427.52	102.98
427.71	7.02
427.90	72.56
428.09	77.24
428.28	63.19
428.46	65.54
428.65	86.60
428.84	9.36
429.03	32.77
429.22	65.54
429.40	56.17
429.59	16.38
429.78	93.62
429.97	0.00
430.16	0.00
430.34	21.06
430.53	0.00
430.72	84.26
430.91	39.79
431.10	51.49
431.28	58.51
431.47	18.72
431.66	74.90
431.85	0.00
432.03	51.49
432.22	65.54
432.41	11.70
432.60	81.92
432.79	63.19
432.97	77.24
433.16	14.04
433.35	91.28
433.54	65.54
433.72	9.36
433.91	0.00
434.10	0.00
434.28	60.85
434.47	70.22
434.66	86.60
434.85	37.45
435.03	63.19
435.22	105.32
435.41	102.98
435.59	112.35
435.78	67.88
435.97	37.45
436.16	0.00
436.34	86.60
436.53	67.88
436.72	7.02
436.90	46.81
437.09	0.00
437.28	0.00
437.46	58.51
437.65	128.73
437.84	39.79
438.02	65.54
438.21	63.19
438.40	39.79
438.58	32.77
438.77	91.28
438.96	58.51
439.14	21.06
439.33	119.37
439.52	53.83
439.70	23.41
439.89	70.22
440.08	88.94
440.26	60.85
440.45	25.75
440.63	126.39
440.82	39.79
441.01	81.92
441.19	72.56
441.38	0.00
441.57	63.19
441.75	60.85
441.94	44.47
442.12	23.41
442.31	60.85
442.50	35.11
442.68	53.83
442.87	0.00
443.05	46.81
443.24	58.51
443.43	77.24
443.61	114.69
443.80	88.94
443.98	46.81
444.17	14.04
444.35	28.09
444.54	70.22
444.73	93.62
444.91	86.60
445.10	60.85
445.28	56.17
445.47	46.81
445.65	4.68
445.84	86.60
446.02	30.43
446.21	133.41
446.39	93.62
446.58	117.03
446.77	79.58
446.95	102.98
447.14	30.43
447.32	173.20
447.51	60.85
447.69	70.22
447.88	0.00
448.06	42.13
448.25	74.90
448.43	0.00
448.62	63.19
448.80	72.56
448.99	84.26
449.17	32.77
449.36	74.90
449.54	81.92
449.73	60.85
449.91	70.22
450.10	30.43
450.28	60.85
450.46	88.94
450.65	112.35
450.83	93.62
451.02	51.49
451.20	0.00
451.39	42.13
451.57	88.94
451.76	51.49
451.94	51.49
452.13	67.88
452.31	81.92
452.49	4.68
452.68	23.41
452.86	21.06
453.05	105.32
453.23	102.98
453.42	39.79
453.60	77.24
453.78	49.15
453.97	51.49
454.15	72.56
454.34	67.88
454.52	63.19
454.70	51.49
454.89	21.06
455.07	86.60
455.26	56.17
455.44	0.00
455.62	37.45
455.81	30.43
455.99	0.00
456.17	88.94
456.36	0.00
456.54	84.26
456.73	138.09
456.91	74.90
457.09	25.75
457.28	131.07
457.46	56.17
457.64	23.41
457.83	0.00
458.01	32.77
458.19	0.00
458.38	0.00
458.56	0.00
458.74	91.28
458.93	60.85
459.11	74.90
459.29	49.15
459.48	28.09
459.66	74.90
459.84	84.26
460.03	91.28
460.21	91.28
460.39	21.06
460.57	16.38
460.76	77.24
460.94	35.11
461.12	53.83
461.31	112.35
461.49	81.92
461.67	44.47
461.85	86.60
462.04	86.60
462.22	100.64
462.40	18.72
462.59	14.04
462.77	0.00
462.95	77.24
463.13	0.00
463.32	53.83
463.50	0.00
463.68	42.13
463.86	25.75
464.05	77.24
464.23	67.88
464.41	0.00
464.59	81.92
464.78	58.51
464.96	23.41
465.14	30.43
465.32	117.03
465.50	21.06
465.69	88.94
465.87	42.13
466.05	14.04
466.23	49.15
466.41	100.64
466.60	107.66
466.78	32.77
466.96	44.47
467.14	46.81
467.32	88.94
467.51	0.00
467.69	126.39
467.87	63.19
468.05	14.04
468.23	44.47
468.41	16.38
468.60	49.15
468.78	86.60
468.96	18.72
469.14	44.47
469.32	32.77
469.50	77.24
469.69	81.92
469.87	39.79
470.05	0.00
470.23	14.04
470.41	121.71
470.59	32.77
470.77	63.19
470.95	44.47
471.14	142.77
471.32	53.83
471.50	58.51
471.68	25.75
471.86	161.50
472.04	93.62
472.22	0.00
472.40	56.17
472.58	0.00
472.77	140.43
472.95	107.66
473.13	44.47
473.31	39.79
473.49	65.54
473.67	9.36
473.85	0.00
474.03	121.71
474.21	110.01
474.39	56.17
474.57	46.81
474.75	25.75
474.93	65.54
475.12	81.92
475.30	74.90
475.48	42.13
475.66	95.96
475.84	63.19
476.02	28.09
476.20	77.24
476.38	37.45
476.56	93.62
476.74	88.94
476.92	60.85
477.10	4.68
477.28	88.94
477.46	23.41
477.64	95.96
477.82	110.01
478.00	126.39
478.18	67.88
478.36	0.00
478.54	56.17
478.72	86.60
478.90	9.36
479.08	0.00
479.26	56.17
479.44	35.11
479.62	84.26
479.80	0.00
479.98	49.15
480.16	84.26
480.34	98.30
480.52	67.88
480.70	14.04
480.88	124.05
481.06	93.62
481.24	56.17
481.41	91.28
481.59	70.22
481.77	145.11
481.95	79.58
482.13	39.79
482.31	77.24
482.49	98.30
482.67	9.36
482.85	60.85
483.03	88.94
483.21	121.71
483.39	21.06
483.57	0.00
483.74	105.32
483.92	46.81
484.10	21.06
484.28	79.58
484.46	60.85
484.64	67.88
484.82	58.51
485.00	128.73
485.18	138.09
485.35	107.66
485.53	88.94
485.71	79.58
485.89	56.17
486.07	35.11
486.25	39.79
486.43	91.28
486.61	30.43
486.78	110.01
486.96	65.54
487.14	0.00
487.32	70.22
487.50	39.79
487.68	117.03
487.85	42.13
488.03	18.72
488.21	0.00
488.39	60.85
488.57	84.26
488.75	39.79
488.92	133.41
489.10	9.36
489.28	32.77
489.46	84.26
489.64	124.05
489.81	30.43
489.99	65.54
490.17	46.81
490.35	44.47
490.53	126.39
490.70	67.88
490.88	98.30
491.06	135.75
491.24	63.19
491.41	107.66
491.59	51.49
491.77	95.96
491.95	145.11
492.13	37.45
492.30	105.32
492.48	107.66
492.66	112.35
492.84	53.83
493.01	44.47
493.19	67.88
493.37	72.56
493.54	74.90
493.72	60.85
493.90	147.45
494.08	91.28
494.25	49.15
494.43	112.35
494.61	42.13
494.79	0.00
494.96	77.24
495.14	100.64
495.32	86.60
495.49	93.62
495.67	65.54
495.85	95.96
496.02	152.13
496.20	107.66
496.38	173.20
496.55	91.28
496.73	53.83
496.91	100.64
497.09	112.35
497.26	128.73
497.44	74.90
497.62	42.13
497.79	67.88
497.97	58.51
498.14	110.01
498.32	131.07
498.50	79.58
498.67	58.51
498.85	51.49
499.03	0.00
499.20	23.41
499.38	70.22
499.56	119.37
499.73	58.51
499.91	93.62
500.08	124.05
500.26	138.09
500.44	105.32
500.61	161.50
500.79	60.85
500.97	60.85
501.14	25.75
501.32	42.13
501.49	44.47
501.67	110.01
501.84	70.22
502.02	44.47
502.20	119.37
502.37	72.56
502.55	25.75
502.72	42.13
502.90	46.81
503.07	102.98
503.25	91.28
503.43	91.28
503.60	86.60
503.78	65.54
503.95	98.30
504.13	112.35
504.30	81.92
504.48	74.90
504.65	84.26
504.83	35.11
505.01	70.22
505.18	49.15
505.36	56.17
505.53	63.19
505.71	86.60
505.88	112.35
506.06	37.45
506.23	63.19
506.41	93.62
506.58	128.73
506.76	88.94
506.93	95.96
507.11	74.90
507.28	93.62
507.46	114.69
507.63	46.81
507.81	21.06
507.98	117.03
508.16	63.19
508.33	91.28
508.50	138.09
508.68	39.79
508.85	42.13
509.03	86.60
509.20	65.54
509.38	35.11
509.55	159.16
509.73	14.04
509.90	91.28
510.08	42.13
510.25	46.81
510.42	67.88
510.60	105.32
510.77	32.77
510.95	98.30
511.12	81.92
511.30	95.96
511.47	156.82
511.64	37.45
511.82	121.71
511.99	88.94
512.17	49.15
512.34	74.90
512.51	170.86
512.69	60.85
512.86	51.49
513.04	39.79
513.21	25.75
513.38	86.60
513.56	81.92
513.73	58.51
513.90	42.13
514.08	135.75
514.25	86.60
514.43	95.96
514.60	16.38
514.77	131.07
514.95	79.58
515.12	2.34
515.29	95.96
515.47	72.56
515.64	60.85
515.81	0.00
515.99	88.94
516.16	28.09
516.33	49.15
516.51	37.45
516.68	42.13
516.85	32.77
517.03	107.66
517.20	145.11
517.37	63.19
517.54	102.98
517.72	58.51
517.89	84.26
518.06	32.77
518.24	67.88
518.41	156.82
518.58	72.56
518.75	79.58
518.93	79.58
519.10	138.09
519.27	93.62
519.45	112.35
519.62	63.19
519.79	88.94
519.96	51.49
520.14	37.45
520.31	7.02
520.48	79.58
520.65	84.26
520.83	91.28
521.00	135.75
521.17	79.58
521.34	112.35
521.52	77.24
521.69	77.24
521.86	117.03
522.03	77.24
522.20	131.07
522.38	86.60
522.55	91.28
522.72	93.62
522.89	93.62
523.07	63.19
523.24	25.75
523.41	79.58
523.58	60.85
523.75	88.94
523.92	21.06
524.10	88.94
524.27	105.32
524.44	65.54
524.61	100.64
524.78	51.49
524.96	84.26
525.13	84.26
525.30	149.79
525.47	11.70
525.64	95.96
525.81	102.98
525.98	159.16
526.16	49.15
526.33	131.07
526.50	72.56
526.67	67.88
526.84	149.79
527.01	37.45
527.18	149.79
527.36	74.90
527.53	138.09
527.70	88.94
527.87	98.30
528.04	156.82
528.21	124.05
528.38	86.60
528.55	72.56
528.72	7.02
528.89	117.03
529.07	81.92
529.24	107.66
529.41	166.18
529.58	110.01
529.75	117.03
529.92	114.69
530.09	107.66
530.26	105.32
530.43	107.66
530.60	72.56
530.77	159.16
530.94	56.17
531.11	0.00
531.28	93.62
531.46	84.26
531.63	63.19
531.80	100.64
531.97	98.30
532.14	53.83
532.31	25.75
532.48	114.69
532.65	84.26
532.82	72.56
532.99	135.75
533.16	88.94
533.33	74.90
533.50	81.92
533.67	32.77
533.84	65.54
534.01	88.94
534.18	105.32
534.35	72.56
534.52	107.66
534.69	84.26
534.86	95.96
535.03	74.90
535.20	35.11
535.37	35.11
535.54	131.07
535.71	126.39
535.88	105.32
536.05	81.92
536.22	44.47
536.38	49.15
536.55	152.13
536.72	25.75
536.89	119.37
537.06	84.26
537.23	102.98
537.40	63.19
537.57	154.48
537.74	32.77
537.91	44.47
538.08	39.79
538.25	119.37
538.42	105.32
538.59	72.56
538.75	102.98
538.92	74.90
539.09	65.54
539.26	84.26
539.43	35.11
539.60	25.75
539.77	88.94
539.94	91.28
540.11	140.43
540.28	110.01
540.44	16.38
540.61	74.90
540.78	60.85
540.95	63.19
541.12	86.60
541.29	0.00
541.46	42.13
541.62	70.22
541.79	53.83
541.96	110.01
542.13	81.92
542.30	126.39
542.47	110.01
542.63	142.77
542.80	70.22
542.97	51.49
543.14	145.11
543.31	79.58
543.48	60.85
543.64	84.26
543.81	21.06
543.98	53.83
544.15	91.28
544.32	60.85
544.48	44.47
544.65	98.30
544.82	84.26
544.99	16.38
545.16	11.70
545.32	88.94
545.49	35.11
545.66	72.56
545.83	18.72
546.00	161.50
546.16	112.35
546.33	91.28
546.50	51.49
546.67	65.54
546.83	107.66
547.00	91.28
547.17	30.43
547.34	93.62
547.50	168.52
547.67	53.83
547.84	51.49
548.00	98.30
548.17	21.06
548.34	60.85
548.51	107.66
548.67	98.30
548.84	107.66
549.01	35.11
549.18	30.43
549.34	4.68
549.51	159.16
549.68	98.30
549.84	65.54
550.01	100.64
550.18	163.84
550.34	100.64
550.51	126.39
550.68	65.54
550.84	35.11
551.01	112.35
551.18	112.35
551.34	88.94
551.51	142.77
551.68	110.01
551.84	9.36
552.01	102.98
552.18	100.64
552.34	37.45
552.51	18.72
552.68	44.47
552.84	53.83
553.01	102.98
553.18	77.24
553.34	88.94
553.51	58.51
553.67	65.54
553.84	72.56
554.01	86.60
554.17	65.54
554.34	93.62
554.51	56.17
554.67	44.47
554.84	112.35
555.00	119.37
555.17	131.07
555.33	65.54
555.50	63.19
555.67	84.26
555.83	142.77
556.00	98.30
556.16	49.15
556.33	42.13
556.50	67.88
556.66	81.92
556.83	46.81
556.99	161.50
557.16	88.94
557.32	25.75
557.49	53.83
557.65	84.26
557.82	117.03
557.98	81.92
558.15	93.62
558.32	67.88
558.48	79.58
558.65	95.96
558.81	77.24
558.98	121.71
559.14	37.45
559.31	37.45
559.47	79.58
559.64	42.13
559.80	88.94
559.97	74.90
560.13	65.54
560.30	44.47
560.46	56.17
560.63	124.05
560.79	70.22
560.96	67.88
561.12	67.88
561.29	70.22
561.45	39.79
561.61	81.92
561.78	67.88
561.94	70.22
562.11	72.56
562.27	77.24
562.44	35.11
562.60	74.90
562.77	98.30
562.93	65.54
563.10	107.66
563.26	81.92
563.42	86.60
563.59	124.05
563.75	98.30
563.92	124.05
564.08	93.62
564.24	95.96
564.41	117.03
564.57	100.64
564.74	102.98
564.90	79.58
565.07	88.94
565.23	46.81
565.39	107.66
565.56	110.01
565.72	58.51
565.88	72.56
566.05	0.00
566.21	98.30
566.38	147.45
566.54	131.07
566.70	44.47
566.87	161.50
567.03	60.85
567.19	65.54
567.36	102.98
567.52	53.83
567.68	124.05
567.85	60.85
568.01	63.19
568.17	163.84
568.34	77.24
568.50	119.37
568.66	93.62
568.83	105.32
568.99	126.39
569.15	7.02
569.32	81.92
569.48	77.24
569.64	30.43
569.81	77.24
569.97	67.88
570.13	91.28
570.30	2.34
570.46	18.72
570.62	88.94
570.78	107.66
570.95	70.22
571.11	117.03
571.27	28.09
571.43	35.11
571.60	44.47
571.76	30.43
571.92	77.24
572.09	98.30
572.25	51.49
572.41	56.17
572.57	58.51
572.74	63.19
572.90	110.01
573.06	46.81
573.22	93.62
573.38	37.45
573.55	121.71
573.71	110.01
573.87	53.83
574.03	23.41
574.20	100.64
574.36	56.17
574.52	128.73
574.68	28.09
574.84	72.56
575.01	37.45
575.17	91.28
575.33	121.71
575.49	191.92
575.65	77.24
575.82	2.34
575.98	49.15
576.14	170.86
576.30	86.60
576.46	149.79
576.62	30.43
576.79	70.22
576.95	79.58
577.11	102.98
577.27	84.26
577.43	100.64
577.59	100.64
577.75	56.17
577.92	72.56
578.08	110.01
578.24	39.79
578.40	60.85
578.56	56.17
578.72	42.13
578.88	81.92
579.04	100.64
579.21	131.07
579.37	88.94
579.53	14.04
579.69	84.26
579.85	67.88
580.01	46.81
580.17	95.96
580.33	51.49
580.49	77.24
580.65	98.30
580.82	95.96
580.98	93.62
581.14	100.64
581.30	77.24
581.46	128.73
581.62	102.98
581.78	114.69
581.94	88.94
582.10	110.01
582.26	63.19
582.42	138.09
582.58	131.07
582.74	32.77
582.90	0.00
583.06	14.04
583.22	168.52
583.38	25.75
583.54	21.06
583.70	72.56
583.86	60.85
584.02	74.90
584.18	7.02
584.34	51.49
584.50	28.09
584.66	140.43
584.82	42.13
584.98	28.09
585.14	72.56
585.30	140.43
585.46	60.85
585.62	63.19
585.78	100.64
585.94	35.11
586.10	65.54
586.26	39.79
586.42	126.39
586.58	67.88
586.74	100.64
586.90	63.19
587.06	98.30
587.22	88.94
587.38	74.90
587.54	65.54
587.70	32.77
587.86	121.71
588.02	203.63
588.18	135.75
588.34	93.62
588.49	142.77
588.65	93.62
588.81	124.05
588.97	42.13
589.13	7.02
589.29	93.62
589.45	23.41
589.61	51.49
589.77	7.02
589.93	65.54
590.08	72.56
590.24	39.79
590.40	67.88
590.56	119.37
590.72	21.06
590.88	67.88
591.04	23.41
591.20	60.85
591.35	51.49
591.51	98.30
591.67	18.72
591.83	65.54
591.99	147.45
592.15	56.17
592.31	72.56
592.46	16.38
592.62	32.77
592.78	74.90
592.94	49.15
593.10	63.19
593.26	39.79
593.41	67.88
593.57	88.94
593.73	30.43
593.89	53.83
594.05	2.34
594.20	95.96
594.36	72.56
594.52	70.22
594.68	105.32
594.84	114.69
594.99	28.09
595.15	110.01
595.31	44.47
595.47	119.37
595.62	105.32
595.78	46.81
595.94	60.85
596.10	79.58
596.25	98.30
596.41	70.22
596.57	77.24
596.73	114.69
596.88	72.56
597.04	70.22
597.20	56.17
597.36	11.70
597.51	102.98
597.67	39.79
597.83	77.24
597.99	100.64
598.14	100.64
598.30	145.11
598.46	88.94
598.61	84.26
598.77	98.30
598.93	14.04
599.09	49.15
599.24	16.38
599.40	110.01
599.56	21.06
599.71	128.73
599.87	95.96
600.03	70.22
600.18	51.49
600.34	81.92
600.50	63.19
600.65	0.00
600.81	74.90
600.97	138.09
601.12	105.32
601.28	46.81
601.44	72.56
601.59	107.66
601.75	81.92
601.91	72.56
602.06	2.34
602.22	70.22
602.37	131.07
602.53	0.00
602.69	32.77
602.84	142.77
603.00	56.17
603.16	44.47
603.31	23.41
603.47	105.32
603.62	42.13
603.78	51.49
603.94	51.49
604.09	74.90
604.25	112.35
604.40	105.32
604.56	124.05
604.71	72.56
604.87	107.66
605.03	72.56
605.18	67.88
605.34	121.71
605.49	65.54
605.65	142.77
605.80	60.85
605.96	30.43
606.12	46.81
606.27	91.28
606.43	30.43
606.58	79.58
606.74	191.92
606.89	44.47
607.05	67.88
607.20	163.84
607.36	44.47
607.51	67.88
607.67	102.98
607.82	95.96
607.98	77.24
608.13	142.77
608.29	131.07
608.44	74.90
608.60	18.72
608.75	51.49
608.91	4.68
609.06	4.68
609.22	51.49
609.37	23.41
609.53	74.90
609.68	77.24
609.84	93.62
609.99	65.54
610.15	88.94
610.30	65.54
610.46	117.03
610.61	70.22
610.76	35.11
610.92	77.24
611.07	67.88
611.23	46.81
611.38	35.11
611.54	23.41
611.69	70.22
611.84	88.94
612.00	110.01
612.15	0.00
612.31	2.34
612.46	91.28
612.62	72.56
612.77	72.56
612.92	79.58
613.08	60.85
613.23	46.81
613.39	0.00
613.54	35.11
613.69	91.28
613.85	112.35
614.00	91.28
614.15	51.49
614.31	142.77
614.46	16.38
614.62	81.92
614.77	131.07
614.92	65.54
615.08	105.32
615.23	42.13
615.38	65.54
615.54	117.03
615.69	32.77
615.84	53.83
616.00	0.00
616.15	88.94
616.30	95.96
616.46	93.62
616.61	7.02
616.76	74.90
616.92	79.58
617.07	56.17
617.22	53.83
617.37	42.13
617.53	4.68
617.68	135.75
617.83	35.11
617.99	65.54
618.14	58.51
618.29	81.92
618.45	77.24
618.60	77.24
618.75	28.09
618.90	105.32
619.06	49.15
619.21	121.71
619.36	100.64
619.51	35.11
619.67	32.77
619.82	65.54
619.97	81.92
620.12	77.24
620.28	60.85
620.43	0.00
620.58	37.45
620.73	56.17
620.89	65.54
621.04	39.79
621.19	42.13
621.34	39.79
621.49	67.88
621.65	147.45
621.80	133.41
621.95	77.24
622.10	105.32
622.25	46.81
622.41	93.62
622.56	4.68
622.71	63.19
622.86	44.47
623.01	72.56
623.16	23.41
623.32	0.00
623.47	2.34
623.62	60.85
623.77	105.32
623.92	67.88
624.07	21.06
624.23	14.04
624.38	60.85
624.53	18.72
624.68	161.50
624.83	72.56
624.98	67.88
625.13	131.07
625.29	4.68
625.44	42.13
625.59	74.90
625.74	107.66
625.89	95.96
626.04	81.92
626.19	35.11
626.34	37.45
626.49	30.43
626.65	84.26
626.80	32.77
626.95	74.90
627.10	79.58
627.25	58.51
627.40	81.92
627.55	110.01
627.70	35.11
627.85	114.69
628.00	32.77
628.15	63.19
628.30	84.26
628.45	28.09
628.60	84.26
628.76	107.66
628.91	114.69
629.06	14.04
629.21	79.58
629.36	128.73
629.51	88.94
629.66	95.96
629.81	98.30
629.96	70.22
630.11	117.03
630.26	112.35
630.41	2.34
630.56	140.43
630.71	53.83
630.86	81.92
631.01	25.75
631.16	107.66
631.31	37.45
631.46	93.62
631.61	0.00
631.76	140.43
631.91	44.47
632.06	81.92
632.21	37.45
632.36	124.05
632.51	42.13
632.66	117.03
632.81	105.32
632.96	35.11
633.10	42.13
633.25	0.00
633.40	58.51
633.55	86.60
633.70	42.13
633.85	49.15
634.00	18.72
634.15	18.72
634.30	100.64
634.45	79.58
634.60	53.83
634.75	18.72
634.90	100.64
635.05	86.60
635.19	32.77
635.34	77.24
635.49	77.24
635.64	95.96
635.79	35.11
635.94	2.34
636.09	77.24
636.24	30.43
636.39	56.17
636.53	18.72
636.68	98.30
636.83	51.49
636.98	79.58
637.13	112.35
637.28	86.60
637.43	67.88
637.57	39.79
637.72	18.72
637.87	32.77
638.02	70.22
638.17	35.11
638.32	79.58
638.46	0.00
638.61	91.28
638.76	0.00
638.91	53.83
639.06	0.00
639.20	2.34
639.35	25.75
639.50	112.35
639.65	0.00
639.80	81.92
639.94	46.81
640.09	100.64
640.24	67.88
640.39	105.32
640.54	37.45
640.68	25.75
640.83	49.15
640.98	35.11
641.13	42.13
641.27	102.98
641.42	126.39
641.57	32.77
641.72	21.06
641.86	37.45
642.01	37.45
642.16	102.98
642.31	117.03
642.45	72.56
642.60	28.09
642.75	46.81
642.90	100.64
643.04	77.24
643.19	25.75
643.34	9.36
643.48	67.88
643.63	56.17
643.78	56.17
643.93	67.88
644.07	70.22
644.22	114.69
644.37	56.17
644.51	65.54
644.66	51.49
644.81	133.41
644.95	30.43
645.10	42.13
645.25	74.90
645.39	63.19
645.54	37.45
645.69	30.43
645.83	0.00
645.98	21.06
646.13	21.06
646.27	37.45
646.42	110.01
646.57	65.54
646.71	51.49
646.86	30.43
647.00	63.19
647.15	32.77
647.30	86.60
647.44	70.22
647.59	84.26
647.74	18.72
647.88	65.54
648.03	0.00
648.17	74.90
648.32	53.83
648.47	102.98
648.61	9.36
648.76	35.11
648.90	112.35
649.05	39.79
649.20	18.72
649.34	58.51
649.49	18.72
649.63	105.32
649.78	86.60
649.92	21.06
650.07	0.00
650.21	51.49
650.36	74.90
650.51	28.09
650.65	79.58
650.80	42.13
650.94	42.13
651.09	16.38
651.23	35.11
651.38	0.00
651.52	60.85
651.67	2.34
651.81	63.19
651.96	53.83
652.10	126.39
652.25	67.88
652.39	72.56
652.54	128.73
652.68	46.81
652.83	67.88
652.97	9.36
653.12	102.98
653.26	23.41
653.41	105.32
653.55	9.36
653.70	93.62
653.84	84.26
653.99	49.15
654.13	0.00
654.27	86.60
654.42	23.41
654.56	35.11
654.71	65.54
654.85	67.88
655.00	23.41
655.14	67.88
655.29	91.28
655.43	32.77
655.57	60.85
655.72	0.00
655.86	51.49
656.01	63.19
656.15	0.00
656.30	58.51
656.44	79.58
656.58	0.00
656.73	16.38
656.87	56.17
657.01	28.09
657.16	0.00
657.30	53.83
657.45	21.06
657.59	93.62
657.73	84.26
657.88	126.39
658.02	98.30
658.16	18.72
658.31	37.45
658.45	28.09
658.60	42.13
658.74	30.43
658.88	86.60
659.03	18.72
659.17	37.45
659.31	0.00
659.46	63.19
659.60	88.94
659.74	42.13
659.89	0.00
660.03	74.90
660.17	119.37
660.32	79.58
660.46	39.79
660.60	154.48
660.74	67.88
660.89	28.09
661.03	42.13
661.17	35.11
661.32	58.51
661.46	67.88
661.60	53.83
661.74	74.90
661.89	46.81
662.03	60.85
662.17	42.13
662.31	0.00
662.46	53.83
662.60	67.88
662.74	70.22
662.88	65.54
663.03	28.09
663.17	4.68
663.31	65.54
663.45	65.54
663.60	112.35
663.74	84.26
663.88	0.00
664.02	74.90
664.17	126.39
664.31	98.30
664.45	93.62
664.59	0.00
664.73	67.88
664.88	56.17
665.02	42.13
665.16	112.35
665.30	70.22
665.44	7.02
665.59	14.04
665.73	35.11
665.87	7.02
666.01	79.58
666.15	112.35
666.29	0.00
666.44	107.66
666.58	42.13
666.72	102.98
666.86	98.30
667.00	0.00
667.14	65.54
667.28	56.17
667.43	11.70
667.57	2.34
667.71	23.41
667.85	35.11
667.99	65.54
668.13	51.49
668.27	49.15
668.41	58.51
668.56	9.36
668.70	60.85
668.84	60.85
668.98	100.64
669.12	35.11
669.26	49.15
669.40	53.83
669.54	91.28
669.68	35.11
669.82	53.83
669.96	53.83
670.10	65.54
670.25	102.98
670.39	117.03
670.53	100.64
670.67	131.07
670.81	67.88
670.95	35.11
671.09	37.45
671.23	95.96
671.37	60.85
671.51	79.58
671.65	23.41
671.79	30.43
671.93	81.92
672.07	81.92
672.21	25.75
672.35	63.19
672.49	11.70
672.63	49.15
672.77	56.17
672.91	93.62
673.05	107.66
673.19	23.41
673.33	0.00
673.47	18.72
673.61	49.15
673.75	35.11
673.89	79.58
674.03	84.26
674.17	32.77
674.31	58.51
674.45	0.00
674.59	0.00
674.73	21.06
674.87	110.01
675.01	65.54
675.15	0.00
675.29	35.11
675.43	100.64
675.56	42.13
675.70	4.68
675.84	0.00
675.98	39.79
676.12	58.51
676.26	49.15
676.40	16.38
676.54	65.54
676.68	112.35
676.82	110.01
676.96	49.15
677.10	37.45
677.23	124.05
677.37	65.54
677.51	58.51
677.65	142.77
677.79	44.47
677.93	7.02
678.07	0.00
678.21	7.02
678.34	91.28
678.48	21.06
678.62	11.70
678.76	77.24
678.90	63.19
679.04	91.28
679.18	42.13
679.31	77.24
679.45	0.00
679.59	63.19
679.73	0.00
679.87	37.45
680.00	72.56
680.14	67.88
680.28	0.00
680.42	0.00
680.56	28.09
680.70	51.49
680.83	102.98
680.97	60.85
681.11	58.51
681.25	7.02
681.39	60.85
681.52	44.47
681.66	21.06
681.80	58.51
681.94	23.41
682.07	46.81
682.21	32.77
682.35	53.83
682.49	7.02
682.62	0.00
682.76	0.00
682.90	37.45
683.04	25.75
683.17	11.70
683.31	30.43
683.45	9.36
683.59	65.54
683.72	67.88
683.86	102.98
684.00	74.90
684.13	51.49
684.27	32.77
684.41	51.49
684.55	53.83
684.68	93.62
684.82	39.79
684.96	18.72
685.09	79.58
685.23	46.81
685.37	53.83
685.50	70.22
685.64	72.56
685.78	124.05
685.91	65.54
686.05	53.83
686.19	88.94
686.32	79.58
686.46	46.81
686.60	51.49
686.73	79.58
686.87	77.24
687.01	23.41
687.14	25.75
687.28	23.41
687.42	37.45
687.55	0.00
687.69	126.39
687.82	65.54
687.96	25.75
688.10	81.92
688.23	32.77
688.37	60.85
688.50	4.68
688.64	23.41
688.78	35.11
688.91	37.45
689.05	79.58
689.18	46.81
689.32	28.09
689.46	0.00
689.59	25.75
689.73	0.00
689.86	51.49
690.00	46.81
690.13	16.38
690.27	0.00
690.41	21.06
690.54	46.81
690.68	105.32
690.81	53.83
690.95	39.79
691.08	42.13
691.22	0.00
691.35	0.00
691.49	72.56
691.62	18.72
691.76	0.00
691.89	0.00
692.03	25.75
692.16	14.04
692.30	72.56
692.43	53.83
692.57	44.47
692.70	65.54
692.84	16.38
692.97	98.30
693.11	11.70
693.24	23.41
693.38	18.72
693.51	9.36
693.65	18.72
693.78	0.00
693.92	81.92
694.05	84.26
694.19	0.00
694.32	0.00
694.45	53.83
694.59	39.79
694.72	0.00
694.86	0.00
694.99	112.35
695.13	4.68
695.26	7.02
695.39	4.68
695.53	30.43
695.66	0.00
695.80	86.60
695.93	44.47
696.07	67.88
696.20	0.00
696.33	42.13
696.47	0.00
696.60	105.32
696.73	63.19
696.87	4.68
697.00	81.92
697.14	32.77
697.27	53.83
697.40	58.51
697.54	0.00
697.67	51.49
697.80	0.00
697.94	39.79
698.07	79.58
698.21	18.72
698.34	56.17
698.47	0.00
698.61	100.64
698.74	44.47
698.87	23.41
699.01	37.45
699.14	51.49
699.27	56.17
699.40	72.56
699.54	91.28
699.67	23.41
699.80	0.00
699.94	30.43
700.07	63.19
700.20	56.17
700.34	93.62
700.47	81.92
700.60	35.11
700.73	0.00
700.87	0.00
701.00	30.43
701.13	14.04
701.26	72.56
701.40	39.79
701.53	0.00
701.66	86.60
701.79	91.28
701.93	0.00
702.06	14.04
702.19	63.19
702.32	0.00
702.46	37.45
702.59	72.56
702.72	74.90
702.85	0.00
702.99	72.56
703.12	0.00
703.25	95.96
703.38	35.11
703.51	56.17
703.65	7.02
703.78	16.38
703.91	35.11
704.04	98.30
704.17	58.51
704.31	21.06
704.44	16.38
704.57	79.58
704.70	37.45
704.83	81.92
704.96	77.24
705.10	4.68
705.23	95.96
>>>>>End Processed Spectral Data<<<<<
