SpectraSuite Data File
++++++++++++++++++++++++++++++++++++
Date: Fri Oct 04 12:13:34 GMT-05:00 2013
User: price-jones
Dark Spectrum Present: No
Reference Spectrum Present: No
Number of Sampled Component Spectra: 1
Spectrometers: USB2+H05261
Integration Time (usec): 10000 (USB2+H05261)
Spectra Averaged: 1 (USB2+H05261)
Boxcar Smoothing: 0 (USB2+H05261)
Correct for Electrical Dark: No (USB2+H05261)
Strobe/Lamp Enabled: No (USB2+H05261)
Correct for Detector Non-linearity: No (USB2+H05261)
Correct for Stray Light: No (USB2+H05261)
Number of Pixels in Processed Spectrum: 2048
>>>>>Begin Processed Spectral Data<<<<<
365.73	107.66
365.92	107.66
366.12	107.66
366.32	0.00
366.52	0.00
366.72	0.00
366.91	0.00
367.11	0.00
367.31	0.00
367.51	0.00
367.70	0.00
367.90	0.00
368.10	0.00
368.30	0.00
368.49	0.00
368.69	0.00
368.89	0.00
369.09	0.00
369.28	0.00
369.48	0.00
369.68	0.00
369.87	0.00
370.07	0.00
370.27	0.00
370.47	0.00
370.66	0.00
370.86	0.00
371.06	7.02
371.25	0.00
371.45	74.90
371.65	0.00
371.84	0.00
372.04	4.68
372.24	0.00
372.44	0.00
372.63	84.26
372.83	30.43
373.03	2.34
373.22	21.06
373.42	0.00
373.62	32.77
373.81	0.00
374.01	23.41
374.21	37.45
374.40	58.51
374.60	37.45
374.79	117.03
374.99	4.68
375.19	42.13
375.38	42.13
375.58	51.49
375.78	21.06
375.97	0.00
376.17	11.70
376.37	70.22
376.56	81.92
376.76	37.45
376.95	58.51
377.15	35.11
377.35	0.00
377.54	18.72
377.74	58.51
377.93	0.00
378.13	18.72
378.33	81.92
378.52	37.45
378.72	28.09
378.91	14.04
379.11	0.00
379.31	32.77
379.50	23.41
379.70	11.70
379.89	21.06
380.09	11.70
380.28	7.02
380.48	7.02
380.68	58.51
380.87	0.00
381.07	0.00
381.26	9.36
381.46	35.11
381.65	44.47
381.85	14.04
382.04	0.00
382.24	0.00
382.43	37.45
382.63	0.00
382.83	25.75
383.02	60.85
383.22	18.72
383.41	91.28
383.61	0.00
383.80	0.00
384.00	0.00
384.19	0.00
384.39	0.00
384.58	23.41
384.78	32.77
384.97	25.75
385.17	9.36
385.36	79.58
385.56	0.00
385.75	0.00
385.95	18.72
386.14	0.00
386.34	0.00
386.53	65.54
386.72	63.19
386.92	14.04
387.11	21.06
387.31	100.64
387.50	23.41
387.70	9.36
387.89	77.24
388.09	9.36
388.28	28.09
388.48	30.43
388.67	49.15
388.86	7.02
389.06	49.15
389.25	63.19
389.45	25.75
389.64	9.36
389.84	56.17
390.03	7.02
390.22	4.68
390.42	0.00
390.61	0.00
390.81	0.00
391.00	0.00
391.19	91.28
391.39	91.28
391.58	0.00
391.78	18.72
391.97	44.47
392.16	0.00
392.36	51.49
392.55	88.94
392.75	0.00
392.94	0.00
393.13	42.13
393.33	25.75
393.52	0.00
393.71	39.79
393.91	67.88
394.10	7.02
394.29	58.51
394.49	0.00
394.68	63.19
394.88	79.58
395.07	4.68
395.26	51.49
395.46	0.00
395.65	63.19
395.84	37.45
396.04	39.79
396.23	18.72
396.42	28.09
396.62	0.00
396.81	0.00
397.00	4.68
397.19	32.77
397.39	0.00
397.58	53.83
397.77	58.51
397.97	0.00
398.16	2.34
398.35	100.64
398.55	0.00
398.74	14.04
398.93	56.17
399.12	0.00
399.32	4.68
399.51	14.04
399.70	51.49
399.90	0.00
400.09	0.00
400.28	77.24
400.47	67.88
400.67	0.00
400.86	107.66
401.05	11.70
401.24	0.00
401.44	32.77
401.63	77.24
401.82	2.34
402.01	2.34
402.21	46.81
402.40	79.58
402.59	65.54
402.78	23.41
402.97	46.81
403.17	95.96
403.36	39.79
403.55	0.00
403.74	18.72
403.93	9.36
404.13	74.90
404.32	88.94
404.51	25.75
404.70	0.00
404.89	37.45
405.09	60.85
405.28	98.30
405.47	0.00
405.66	2.34
405.85	28.09
406.05	39.79
406.24	58.51
406.43	28.09
406.62	35.11
406.81	60.85
407.00	0.00
407.20	65.54
407.39	14.04
407.58	46.81
407.77	84.26
407.96	30.43
408.15	0.00
408.34	39.79
408.54	49.15
408.73	21.06
408.92	0.00
409.11	70.22
409.30	86.60
409.49	0.00
409.68	23.41
409.87	42.13
410.07	42.13
410.26	79.58
410.45	28.09
410.64	0.00
410.83	84.26
411.02	86.60
411.21	42.13
411.40	51.49
411.59	0.00
411.78	23.41
411.98	56.17
412.17	114.69
412.36	4.68
412.55	44.47
412.74	0.00
412.93	35.11
413.12	18.72
413.31	63.19
413.50	44.47
413.69	0.00
413.88	30.43
414.07	91.28
414.26	74.90
414.45	84.26
414.64	4.68
414.83	2.34
415.02	42.13
415.22	4.68
415.41	56.17
415.60	30.43
415.79	35.11
415.98	25.75
416.17	0.00
416.36	23.41
416.55	11.70
416.74	0.00
416.93	39.79
417.12	0.00
417.31	0.00
417.50	58.51
417.69	37.45
417.88	16.38
418.07	0.00
418.26	102.98
418.45	30.43
418.64	44.47
418.83	14.04
419.02	49.15
419.21	63.19
419.39	46.81
419.58	72.56
419.77	56.17
419.96	0.00
420.15	67.88
420.34	67.88
420.53	32.77
420.72	51.49
420.91	117.03
421.10	84.26
421.29	18.72
421.48	32.77
421.67	14.04
421.86	60.85
422.05	56.17
422.24	79.58
422.43	88.94
422.61	91.28
422.80	74.90
422.99	23.41
423.18	81.92
423.37	39.79
423.56	32.77
423.75	0.00
423.94	60.85
424.13	58.51
424.32	25.75
424.50	65.54
424.69	65.54
424.88	98.30
425.07	51.49
425.26	86.60
425.45	74.90
425.64	0.00
425.83	42.13
426.01	65.54
426.20	42.13
426.39	60.85
426.58	16.38
426.77	112.35
426.96	112.35
427.15	60.85
427.33	51.49
427.52	74.90
427.71	42.13
427.90	2.34
428.09	16.38
428.28	46.81
428.46	23.41
428.65	0.00
428.84	46.81
429.03	100.64
429.22	30.43
429.40	0.00
429.59	23.41
429.78	44.47
429.97	28.09
430.16	23.41
430.34	67.88
430.53	9.36
430.72	11.70
430.91	51.49
431.10	0.00
431.28	74.90
431.47	77.24
431.66	72.56
431.85	49.15
432.03	95.96
432.22	91.28
432.41	65.54
432.60	0.00
432.79	51.49
432.97	32.77
433.16	42.13
433.35	95.96
433.54	11.70
433.72	18.72
433.91	51.49
434.10	21.06
434.28	65.54
434.47	37.45
434.66	95.96
434.85	28.09
435.03	46.81
435.22	11.70
435.41	42.13
435.59	117.03
435.78	0.00
435.97	88.94
436.16	49.15
436.34	79.58
436.53	63.19
436.72	46.81
436.90	11.70
437.09	74.90
437.28	53.83
437.46	0.00
437.65	42.13
437.84	42.13
438.02	70.22
438.21	60.85
438.40	42.13
438.58	74.90
438.77	4.68
438.96	0.00
439.14	2.34
439.33	60.85
439.52	16.38
439.70	39.79
439.89	21.06
440.08	93.62
440.26	46.81
440.45	56.17
440.63	65.54
440.82	46.81
441.01	102.98
441.19	0.00
441.38	63.19
441.57	37.45
441.75	39.79
441.94	49.15
442.12	44.47
442.31	23.41
442.50	30.43
442.68	105.32
442.87	16.38
443.05	74.90
443.24	79.58
443.43	58.51
443.61	60.85
443.80	30.43
443.98	72.56
444.17	60.85
444.35	0.00
444.54	81.92
444.73	28.09
444.91	100.64
445.10	14.04
445.28	14.04
445.47	0.00
445.65	30.43
445.84	112.35
446.02	60.85
446.21	0.00
446.39	18.72
446.58	65.54
446.77	95.96
446.95	74.90
447.14	21.06
447.32	39.79
447.51	65.54
447.69	53.83
447.88	49.15
448.06	9.36
448.25	105.32
448.43	60.85
448.62	93.62
448.80	21.06
448.99	42.13
449.17	32.77
449.36	28.09
449.54	60.85
449.73	81.92
449.91	32.77
450.10	39.79
450.28	0.00
450.46	77.24
450.65	86.60
450.83	28.09
451.02	46.81
451.20	105.32
451.39	86.60
451.57	79.58
451.76	53.83
451.94	37.45
452.13	84.26
452.31	98.30
452.49	86.60
452.68	58.51
452.86	44.47
453.05	93.62
453.23	35.11
453.42	84.26
453.60	16.38
453.78	16.38
453.97	0.00
454.15	32.77
454.34	35.11
454.52	0.00
454.70	2.34
454.89	60.85
455.07	4.68
455.26	58.51
455.44	67.88
455.62	79.58
455.81	32.77
455.99	37.45
456.17	72.56
456.36	110.01
456.54	65.54
456.73	72.56
456.91	77.24
457.09	56.17
457.28	35.11
457.46	126.39
457.64	84.26
457.83	60.85
458.01	117.03
458.19	51.49
458.38	28.09
458.56	21.06
458.74	11.70
458.93	58.51
459.11	100.64
459.29	67.88
459.48	91.28
459.66	86.60
459.84	74.90
460.03	0.00
460.21	28.09
460.39	58.51
460.57	81.92
460.76	72.56
460.94	56.17
461.12	46.81
461.31	102.98
461.49	119.37
461.67	72.56
461.85	105.32
462.04	51.49
462.22	110.01
462.40	60.85
462.59	42.13
462.77	117.03
462.95	119.37
463.13	135.75
463.32	58.51
463.50	14.04
463.68	72.56
463.86	37.45
464.05	39.79
464.23	30.43
464.41	58.51
464.59	23.41
464.78	53.83
464.96	88.94
465.14	28.09
465.32	30.43
465.50	53.83
465.69	95.96
465.87	124.05
466.05	128.73
466.23	25.75
466.41	30.43
466.60	28.09
466.78	65.54
466.96	35.11
467.14	65.54
467.32	23.41
467.51	35.11
467.69	7.02
467.87	65.54
468.05	0.00
468.23	81.92
468.41	16.38
468.60	0.00
468.78	74.90
468.96	74.90
469.14	70.22
469.32	119.37
469.50	84.26
469.69	51.49
469.87	2.34
470.05	95.96
470.23	9.36
470.41	0.00
470.59	88.94
470.77	74.90
470.95	91.28
471.14	4.68
471.32	28.09
471.50	119.37
471.68	84.26
471.86	117.03
472.04	100.64
472.22	86.60
472.40	35.11
472.58	56.17
472.77	0.00
472.95	11.70
473.13	25.75
473.31	39.79
473.49	63.19
473.67	91.28
473.85	4.68
474.03	0.00
474.21	53.83
474.39	44.47
474.57	44.47
474.75	98.30
474.93	42.13
475.12	100.64
475.30	84.26
475.48	2.34
475.66	79.58
475.84	44.47
476.02	126.39
476.20	112.35
476.38	39.79
476.56	58.51
476.74	51.49
476.92	112.35
477.10	28.09
477.28	112.35
477.46	46.81
477.64	0.00
477.82	44.47
478.00	39.79
478.18	65.54
478.36	95.96
478.54	7.02
478.72	37.45
478.90	56.17
479.08	46.81
479.26	0.00
479.44	77.24
479.62	77.24
479.80	35.11
479.98	51.49
480.16	110.01
480.34	46.81
480.52	105.32
480.70	2.34
480.88	95.96
481.06	86.60
481.24	74.90
481.41	39.79
481.59	42.13
481.77	65.54
481.95	16.38
482.13	42.13
482.31	114.69
482.49	37.45
482.67	37.45
482.85	77.24
483.03	56.17
483.21	72.56
483.39	28.09
483.57	77.24
483.74	86.60
483.92	39.79
484.10	11.70
484.28	35.11
484.46	100.64
484.64	70.22
484.82	58.51
485.00	56.17
485.18	81.92
485.35	44.47
485.53	79.58
485.71	63.19
485.89	53.83
486.07	51.49
486.25	60.85
486.43	86.60
486.61	74.90
486.78	37.45
486.96	56.17
487.14	63.19
487.32	138.09
487.50	154.48
487.68	93.62
487.85	32.77
488.03	81.92
488.21	67.88
488.39	56.17
488.57	124.05
488.75	88.94
488.92	74.90
489.10	86.60
489.28	56.17
489.46	102.98
489.64	81.92
489.81	142.77
489.99	44.47
490.17	98.30
490.35	67.88
490.53	23.41
490.70	28.09
490.88	46.81
491.06	53.83
491.24	70.22
491.41	39.79
491.59	21.06
491.77	0.00
491.95	37.45
492.13	0.00
492.30	58.51
492.48	112.35
492.66	98.30
492.84	23.41
493.01	51.49
493.19	74.90
493.37	32.77
493.54	72.56
493.72	84.26
493.90	65.54
494.08	44.47
494.25	154.48
494.43	44.47
494.61	105.32
494.79	53.83
494.96	65.54
495.14	65.54
495.32	63.19
495.49	65.54
495.67	44.47
495.85	86.60
496.02	51.49
496.20	51.49
496.38	95.96
496.55	114.69
496.73	32.77
496.91	95.96
497.09	84.26
497.26	86.60
497.44	161.50
497.62	39.79
497.79	135.75
497.97	56.17
498.14	0.00
498.32	56.17
498.50	16.38
498.67	39.79
498.85	72.56
499.03	58.51
499.20	86.60
499.38	74.90
499.56	14.04
499.73	0.00
499.91	98.30
500.08	91.28
500.26	79.58
500.44	102.98
500.61	79.58
500.79	93.62
500.97	102.98
501.14	142.77
501.32	79.58
501.49	58.51
501.67	107.66
501.84	88.94
502.02	51.49
502.20	74.90
502.37	46.81
502.55	114.69
502.72	51.49
502.90	35.11
503.07	117.03
503.25	16.38
503.43	91.28
503.60	98.30
503.78	72.56
503.95	44.47
504.13	30.43
504.30	84.26
504.48	58.51
504.65	117.03
504.83	93.62
505.01	77.24
505.18	84.26
505.36	110.01
505.53	72.56
505.71	77.24
505.88	65.54
506.06	60.85
506.23	23.41
506.41	112.35
506.58	84.26
506.76	128.73
506.93	72.56
507.11	30.43
507.28	72.56
507.46	138.09
507.63	58.51
507.81	25.75
507.98	81.92
508.16	86.60
508.33	98.30
508.50	39.79
508.68	117.03
508.85	74.90
509.03	37.45
509.20	105.32
509.38	95.96
509.55	74.90
509.73	117.03
509.90	77.24
510.08	25.75
510.25	93.62
510.42	81.92
510.60	110.01
510.77	70.22
510.95	49.15
511.12	49.15
511.30	65.54
511.47	84.26
511.64	28.09
511.82	102.98
511.99	91.28
512.17	51.49
512.34	112.35
512.51	51.49
512.69	102.98
512.86	93.62
513.04	133.41
513.21	65.54
513.38	107.66
513.56	145.11
513.73	124.05
513.90	98.30
514.08	74.90
514.25	100.64
514.43	117.03
514.60	65.54
514.77	88.94
514.95	44.47
515.12	39.79
515.29	49.15
515.47	58.51
515.64	58.51
515.81	74.90
515.99	65.54
516.16	91.28
516.33	0.00
516.51	95.96
516.68	93.62
516.85	28.09
517.03	70.22
517.20	23.41
517.37	117.03
517.54	100.64
517.72	28.09
517.89	121.71
518.06	98.30
518.24	114.69
518.41	152.13
518.58	49.15
518.75	63.19
518.93	93.62
519.10	128.73
519.27	51.49
519.45	2.34
519.62	100.64
519.79	124.05
519.96	163.84
520.14	102.98
520.31	100.64
520.48	37.45
520.65	70.22
520.83	163.84
521.00	39.79
521.17	112.35
521.34	86.60
521.52	44.47
521.69	72.56
521.86	88.94
522.03	93.62
522.20	117.03
522.38	124.05
522.55	51.49
522.72	110.01
522.89	63.19
523.07	4.68
523.24	39.79
523.41	0.00
523.58	58.51
523.75	74.90
523.92	100.64
524.10	133.41
524.27	25.75
524.44	107.66
524.61	67.88
524.78	79.58
524.96	65.54
525.13	28.09
525.30	98.30
525.47	102.98
525.64	95.96
525.81	25.75
525.98	79.58
526.16	72.56
526.33	119.37
526.50	124.05
526.67	53.83
526.84	56.17
527.01	119.37
527.18	128.73
527.36	145.11
527.53	77.24
527.70	161.50
527.87	63.19
528.04	18.72
528.21	72.56
528.38	95.96
528.55	42.13
528.72	86.60
528.89	117.03
529.07	0.00
529.24	114.69
529.41	138.09
529.58	37.45
529.75	44.47
529.92	135.75
530.09	110.01
530.26	49.15
530.43	81.92
530.60	74.90
530.77	28.09
530.94	119.37
531.11	117.03
531.28	23.41
531.46	117.03
531.63	135.75
531.80	58.51
531.97	119.37
532.14	44.47
532.31	98.30
532.48	159.16
532.65	86.60
532.82	74.90
532.99	74.90
533.16	44.47
533.33	102.98
533.50	2.34
533.67	53.83
533.84	9.36
534.01	107.66
534.18	81.92
534.35	60.85
534.52	74.90
534.69	121.71
534.86	77.24
535.03	74.90
535.20	44.47
535.37	102.98
535.54	114.69
535.71	135.75
535.88	70.22
536.05	67.88
536.22	37.45
536.38	154.48
536.55	81.92
536.72	142.77
536.89	70.22
537.06	46.81
537.23	114.69
537.40	95.96
537.57	35.11
537.74	121.71
537.91	117.03
538.08	152.13
538.25	100.64
538.42	46.81
538.59	110.01
538.75	131.07
538.92	100.64
539.09	0.00
539.26	88.94
539.43	88.94
539.60	67.88
539.77	51.49
539.94	51.49
540.11	107.66
540.28	70.22
540.44	70.22
540.61	84.26
540.78	77.24
540.95	44.47
541.12	84.26
541.29	131.07
541.46	42.13
541.62	112.35
541.79	77.24
541.96	51.49
542.13	11.70
542.30	74.90
542.47	60.85
542.63	86.60
542.80	72.56
542.97	91.28
543.14	49.15
543.31	49.15
543.48	11.70
543.64	56.17
543.81	0.00
543.98	0.00
544.15	95.96
544.32	126.39
544.48	107.66
544.65	98.30
544.82	51.49
544.99	28.09
545.16	91.28
545.32	58.51
545.49	102.98
545.66	161.50
545.83	107.66
546.00	32.77
546.16	56.17
546.33	86.60
546.50	18.72
546.67	42.13
546.83	124.05
547.00	14.04
547.17	124.05
547.34	124.05
547.50	51.49
547.67	126.39
547.84	121.71
548.00	102.98
548.17	121.71
548.34	95.96
548.51	86.60
548.67	159.16
548.84	117.03
549.01	86.60
549.18	49.15
549.34	56.17
549.51	4.68
549.68	65.54
549.84	114.69
550.01	60.85
550.18	65.54
550.34	81.92
550.51	131.07
550.68	86.60
550.84	117.03
551.01	145.11
551.18	95.96
551.34	133.41
551.51	138.09
551.68	102.98
551.84	149.79
552.01	93.62
552.18	124.05
552.34	46.81
552.51	102.98
552.68	110.01
552.84	135.75
553.01	124.05
553.18	86.60
553.34	42.13
553.51	117.03
553.67	23.41
553.84	70.22
554.01	128.73
554.17	84.26
554.34	79.58
554.51	121.71
554.67	114.69
554.84	163.84
555.00	79.58
555.17	9.36
555.33	0.00
555.50	100.64
555.67	14.04
555.83	84.26
556.00	88.94
556.16	81.92
556.33	93.62
556.50	112.35
556.66	49.15
556.83	84.26
556.99	35.11
557.16	135.75
557.32	131.07
557.49	140.43
557.65	131.07
557.82	53.83
557.98	93.62
558.15	79.58
558.32	46.81
558.48	149.79
558.65	102.98
558.81	51.49
558.98	32.77
559.14	126.39
559.31	166.18
559.47	60.85
559.64	21.06
559.80	112.35
559.97	91.28
560.13	0.00
560.30	117.03
560.46	119.37
560.63	44.47
560.79	53.83
560.96	77.24
561.12	86.60
561.29	88.94
561.45	56.17
561.61	86.60
561.78	77.24
561.94	84.26
562.11	70.22
562.27	16.38
562.44	63.19
562.60	77.24
562.77	42.13
562.93	72.56
563.10	105.32
563.26	86.60
563.42	74.90
563.59	86.60
563.75	117.03
563.92	63.19
564.08	14.04
564.24	131.07
564.41	142.77
564.57	60.85
564.74	56.17
564.90	84.26
565.07	133.41
565.23	102.98
565.39	72.56
565.56	72.56
565.72	126.39
565.88	37.45
566.05	67.88
566.21	70.22
566.38	42.13
566.54	67.88
566.70	81.92
566.87	28.09
567.03	51.49
567.19	84.26
567.36	124.05
567.52	91.28
567.68	42.13
567.85	135.75
568.01	37.45
568.17	21.06
568.34	18.72
568.50	79.58
568.66	42.13
568.83	117.03
568.99	21.06
569.15	140.43
569.32	203.63
569.48	49.15
569.64	39.79
569.81	60.85
569.97	42.13
570.13	91.28
570.30	77.24
570.46	25.75
570.62	16.38
570.78	147.45
570.95	107.66
571.11	112.35
571.27	86.60
571.43	114.69
571.60	2.34
571.76	42.13
571.92	18.72
572.09	95.96
572.25	2.34
572.41	77.24
572.57	46.81
572.74	124.05
572.90	91.28
573.06	77.24
573.22	100.64
573.38	180.22
573.55	84.26
573.71	86.60
573.87	32.77
574.03	67.88
574.20	37.45
574.36	58.51
574.52	102.98
574.68	112.35
574.84	91.28
575.01	65.54
575.17	35.11
575.33	30.43
575.49	84.26
575.65	70.22
575.82	91.28
575.98	110.01
576.14	2.34
576.30	79.58
576.46	11.70
576.62	124.05
576.79	65.54
576.95	93.62
577.11	107.66
577.27	60.85
577.43	32.77
577.59	35.11
577.75	147.45
577.92	74.90
578.08	72.56
578.24	49.15
578.40	159.16
578.56	93.62
578.72	100.64
578.88	74.90
579.04	21.06
579.21	58.51
579.37	65.54
579.53	35.11
579.69	23.41
579.85	119.37
580.01	124.05
580.17	42.13
580.33	30.43
580.49	60.85
580.65	180.22
580.82	126.39
580.98	51.49
581.14	53.83
581.30	53.83
581.46	32.77
581.62	56.17
581.78	84.26
581.94	86.60
582.10	102.98
582.26	39.79
582.42	7.02
582.58	100.64
582.74	84.26
582.90	170.86
583.06	95.96
583.22	49.15
583.38	100.64
583.54	63.19
583.70	58.51
583.86	105.32
584.02	37.45
584.18	152.13
584.34	46.81
584.50	0.00
584.66	93.62
584.82	110.01
584.98	49.15
585.14	0.00
585.30	53.83
585.46	53.83
585.62	74.90
585.78	74.90
585.94	93.62
586.10	110.01
586.26	32.77
586.42	49.15
586.58	51.49
586.74	140.43
586.90	56.17
587.06	100.64
587.22	63.19
587.38	0.00
587.54	51.49
587.70	60.85
587.86	70.22
588.02	56.17
588.18	102.98
588.34	32.77
588.49	53.83
588.65	84.26
588.81	98.30
588.97	84.26
589.13	44.47
589.29	60.85
589.45	102.98
589.61	77.24
589.77	74.90
589.93	95.96
590.08	100.64
590.24	81.92
590.40	21.06
590.56	16.38
590.72	56.17
590.88	42.13
591.04	93.62
591.20	58.51
591.35	81.92
591.51	88.94
591.67	74.90
591.83	100.64
591.99	93.62
592.15	35.11
592.31	93.62
592.46	21.06
592.62	9.36
592.78	135.75
592.94	70.22
593.10	0.00
593.26	25.75
593.41	77.24
593.57	49.15
593.73	28.09
593.89	65.54
594.05	67.88
594.20	60.85
594.36	161.50
594.52	154.48
594.68	67.88
594.84	67.88
594.99	37.45
595.15	84.26
595.31	74.90
595.47	56.17
595.62	95.96
595.78	18.72
595.94	77.24
596.10	37.45
596.25	53.83
596.41	88.94
596.57	49.15
596.73	102.98
596.88	74.90
597.04	67.88
597.20	9.36
597.36	112.35
597.51	67.88
597.67	49.15
597.83	81.92
597.99	42.13
598.14	37.45
598.30	51.49
598.46	126.39
598.61	53.83
598.77	70.22
598.93	98.30
599.09	72.56
599.24	114.69
599.40	74.90
599.56	102.98
599.71	107.66
599.87	102.98
600.03	77.24
600.18	32.77
600.34	49.15
600.50	49.15
600.65	117.03
600.81	42.13
600.97	128.73
601.12	11.70
601.28	105.32
601.44	63.19
601.59	58.51
601.75	65.54
601.91	37.45
602.06	70.22
602.22	35.11
602.37	77.24
602.53	70.22
602.69	37.45
602.84	107.66
603.00	95.96
603.16	91.28
603.31	114.69
603.47	77.24
603.62	119.37
603.78	18.72
603.94	56.17
604.09	77.24
604.25	35.11
604.40	72.56
604.56	70.22
604.71	42.13
604.87	35.11
605.03	107.66
605.18	46.81
605.34	98.30
605.49	93.62
605.65	67.88
605.80	100.64
605.96	95.96
606.12	117.03
606.27	124.05
606.43	100.64
606.58	0.00
606.74	35.11
606.89	51.49
607.05	95.96
607.20	98.30
607.36	7.02
607.51	102.98
607.67	107.66
607.82	98.30
607.98	107.66
608.13	0.00
608.29	42.13
608.44	86.60
608.60	84.26
608.75	58.51
608.91	84.26
609.06	152.13
609.22	100.64
609.37	128.73
609.53	91.28
609.68	140.43
609.84	67.88
609.99	74.90
610.15	124.05
610.30	112.35
610.46	138.09
610.61	88.94
610.76	77.24
610.92	58.51
611.07	4.68
611.23	74.90
611.38	74.90
611.54	7.02
611.69	105.32
611.84	35.11
612.00	42.13
612.15	65.54
612.31	98.30
612.46	53.83
612.62	126.39
612.77	67.88
612.92	107.66
613.08	14.04
613.23	67.88
613.39	77.24
613.54	58.51
613.69	30.43
613.85	100.64
614.00	58.51
614.15	81.92
614.31	63.19
614.46	51.49
614.62	49.15
614.77	7.02
614.92	74.90
615.08	70.22
615.23	14.04
615.38	107.66
615.54	74.90
615.69	18.72
615.84	63.19
616.00	60.85
616.15	60.85
616.30	7.02
616.46	72.56
616.61	30.43
616.76	72.56
616.92	81.92
617.07	25.75
617.22	25.75
617.37	105.32
617.53	37.45
617.68	30.43
617.83	60.85
617.99	84.26
618.14	98.30
618.29	28.09
618.45	88.94
618.60	63.19
618.75	124.05
618.90	51.49
619.06	102.98
619.21	65.54
619.36	37.45
619.51	93.62
619.67	102.98
619.82	77.24
619.97	86.60
620.12	0.00
620.28	4.68
620.43	98.30
620.58	98.30
620.73	84.26
620.89	98.30
621.04	11.70
621.19	53.83
621.34	16.38
621.49	142.77
621.65	112.35
621.80	74.90
621.95	58.51
622.10	56.17
622.25	0.00
622.41	77.24
622.56	56.17
622.71	18.72
622.86	58.51
623.01	65.54
623.16	46.81
623.32	86.60
623.47	154.48
623.62	56.17
623.77	53.83
623.92	4.68
624.07	88.94
624.23	56.17
624.38	25.75
624.53	49.15
624.68	51.49
624.83	49.15
624.98	0.00
625.13	140.43
625.29	56.17
625.44	88.94
625.59	44.47
625.74	42.13
625.89	28.09
626.04	67.88
626.19	39.79
626.34	58.51
626.49	2.34
626.65	63.19
626.80	42.13
626.95	9.36
627.10	53.83
627.25	79.58
627.40	72.56
627.55	121.71
627.70	60.85
627.85	44.47
628.00	32.77
628.15	0.00
628.30	79.58
628.45	131.07
628.60	65.54
628.76	67.88
628.91	67.88
629.06	0.00
629.21	42.13
629.36	74.90
629.51	84.26
629.66	58.51
629.81	39.79
629.96	88.94
630.11	23.41
630.26	14.04
630.41	18.72
630.56	72.56
630.71	67.88
630.86	51.49
631.01	42.13
631.16	28.09
631.31	42.13
631.46	42.13
631.61	53.83
631.76	56.17
631.91	0.00
632.06	16.38
632.21	58.51
632.36	49.15
632.51	28.09
632.66	56.17
632.81	95.96
632.96	25.75
633.10	100.64
633.25	95.96
633.40	35.11
633.55	67.88
633.70	95.96
633.85	91.28
634.00	9.36
634.15	30.43
634.30	23.41
634.45	32.77
634.60	63.19
634.75	58.51
634.90	35.11
635.05	46.81
635.19	67.88
635.34	42.13
635.49	0.00
635.64	53.83
635.79	23.41
635.94	67.88
636.09	98.30
636.24	93.62
636.39	95.96
636.53	95.96
636.68	102.98
636.83	42.13
636.98	51.49
637.13	74.90
637.28	7.02
637.43	74.90
637.57	84.26
637.72	77.24
637.87	35.11
638.02	0.00
638.17	53.83
638.32	67.88
638.46	98.30
638.61	49.15
638.76	30.43
638.91	93.62
639.06	51.49
639.20	30.43
639.35	23.41
639.50	88.94
639.65	84.26
639.80	65.54
639.94	65.54
640.09	95.96
640.24	88.94
640.39	0.00
640.54	74.90
640.68	42.13
640.83	21.06
640.98	95.96
641.13	4.68
641.27	114.69
641.42	44.47
641.57	16.38
641.72	53.83
641.86	67.88
642.01	0.00
642.16	0.00
642.31	84.26
642.45	81.92
642.60	25.75
642.75	11.70
642.90	79.58
643.04	93.62
643.19	77.24
643.34	0.00
643.48	142.77
643.63	42.13
643.78	28.09
643.93	86.60
644.07	58.51
644.22	25.75
644.37	28.09
644.51	53.83
644.66	37.45
644.81	58.51
644.95	28.09
645.10	46.81
645.25	70.22
645.39	67.88
645.54	39.79
645.69	63.19
645.83	105.32
645.98	46.81
646.13	65.54
646.27	60.85
646.42	42.13
646.57	46.81
646.71	84.26
646.86	74.90
647.00	16.38
647.15	58.51
647.30	0.00
647.44	37.45
647.59	37.45
647.74	18.72
647.88	37.45
648.03	14.04
648.17	84.26
648.32	93.62
648.47	53.83
648.61	86.60
648.76	28.09
648.90	53.83
649.05	77.24
649.20	93.62
649.34	51.49
649.49	2.34
649.63	0.00
649.78	14.04
649.92	72.56
650.07	0.00
650.21	30.43
650.36	70.22
650.51	23.41
650.65	0.00
650.80	114.69
650.94	102.98
651.09	49.15
651.23	60.85
651.38	23.41
651.52	84.26
651.67	53.83
651.81	0.00
651.96	18.72
652.10	102.98
652.25	79.58
652.39	14.04
652.54	37.45
652.68	30.43
652.83	70.22
652.97	25.75
653.12	84.26
653.26	60.85
653.41	56.17
653.55	4.68
653.70	0.00
653.84	51.49
653.99	65.54
654.13	37.45
654.27	72.56
654.42	16.38
654.56	23.41
654.71	67.88
654.85	119.37
655.00	0.00
655.14	35.11
655.29	0.00
655.43	30.43
655.57	44.47
655.72	42.13
655.86	70.22
656.01	56.17
656.15	131.07
656.30	46.81
656.44	46.81
656.58	2.34
656.73	60.85
656.87	110.01
657.01	32.77
657.16	11.70
657.30	56.17
657.45	25.75
657.59	44.47
657.73	4.68
657.88	102.98
658.02	37.45
658.16	25.75
658.31	77.24
658.45	79.58
658.60	81.92
658.74	72.56
658.88	86.60
659.03	49.15
659.17	72.56
659.31	72.56
659.46	0.00
659.60	60.85
659.74	63.19
659.89	67.88
660.03	88.94
660.17	114.69
660.32	84.26
660.46	53.83
660.60	4.68
660.74	0.00
660.89	51.49
661.03	18.72
661.17	32.77
661.32	81.92
661.46	44.47
661.60	21.06
661.74	95.96
661.89	91.28
662.03	37.45
662.17	46.81
662.31	30.43
662.46	0.00
662.60	0.00
662.74	63.19
662.88	4.68
663.03	128.73
663.17	44.47
663.31	105.32
663.45	11.70
663.60	65.54
663.74	56.17
663.88	88.94
664.02	11.70
664.17	91.28
664.31	30.43
664.45	51.49
664.59	9.36
664.73	49.15
664.88	0.00
665.02	100.64
665.16	4.68
665.30	21.06
665.44	86.60
665.59	100.64
665.73	70.22
665.87	23.41
666.01	95.96
666.15	16.38
666.29	35.11
666.44	46.81
666.58	131.07
666.72	37.45
666.86	102.98
667.00	95.96
667.14	39.79
667.28	70.22
667.43	74.90
667.57	16.38
667.71	35.11
667.85	0.00
667.99	77.24
668.13	14.04
668.27	37.45
668.41	65.54
668.56	0.00
668.70	32.77
668.84	126.39
668.98	9.36
669.12	72.56
669.26	42.13
669.40	72.56
669.54	46.81
669.68	128.73
669.82	72.56
669.96	42.13
670.10	84.26
670.25	44.47
670.39	28.09
670.53	46.81
670.67	60.85
670.81	77.24
670.95	32.77
671.09	44.47
671.23	72.56
671.37	28.09
671.51	0.00
671.65	110.01
671.79	46.81
671.93	81.92
672.07	25.75
672.21	98.30
672.35	35.11
672.49	0.00
672.63	21.06
672.77	56.17
672.91	9.36
673.05	98.30
673.19	67.88
673.33	21.06
673.47	95.96
673.61	49.15
673.75	14.04
673.89	98.30
674.03	0.00
674.17	93.62
674.31	18.72
674.45	18.72
674.59	21.06
674.73	81.92
674.87	105.32
675.01	65.54
675.15	49.15
675.29	121.71
675.43	63.19
675.56	23.41
675.70	35.11
675.84	58.51
675.98	49.15
676.12	58.51
676.26	18.72
676.40	84.26
676.54	0.00
676.68	44.47
676.82	23.41
676.96	21.06
677.10	21.06
677.23	65.54
677.37	58.51
677.51	74.90
677.65	4.68
677.79	25.75
677.93	35.11
678.07	18.72
678.21	72.56
678.34	30.43
678.48	39.79
678.62	23.41
678.76	74.90
678.90	51.49
679.04	0.00
679.18	56.17
679.31	0.00
679.45	70.22
679.59	7.02
679.73	30.43
679.87	49.15
680.00	70.22
680.14	39.79
680.28	44.47
680.42	42.13
680.56	93.62
680.70	121.71
680.83	23.41
680.97	84.26
681.11	7.02
681.25	25.75
681.39	23.41
681.52	79.58
681.66	67.88
681.80	37.45
681.94	42.13
682.07	42.13
682.21	18.72
682.35	35.11
682.49	0.00
682.62	9.36
682.76	46.81
682.90	28.09
683.04	23.41
683.17	67.88
683.31	32.77
683.45	9.36
683.59	37.45
683.72	72.56
683.86	9.36
684.00	77.24
684.13	86.60
684.27	23.41
684.41	58.51
684.55	28.09
684.68	91.28
684.82	0.00
684.96	7.02
685.09	53.83
685.23	7.02
685.37	25.75
685.50	0.00
685.64	140.43
685.78	23.41
685.91	32.77
686.05	154.48
686.19	79.58
686.32	0.00
686.46	79.58
686.60	86.60
686.73	84.26
686.87	35.11
687.01	37.45
687.14	56.17
687.28	30.43
687.42	67.88
687.55	25.75
687.69	0.00
687.82	0.00
687.96	0.00
688.10	46.81
688.23	14.04
688.37	135.75
688.50	46.81
688.64	32.77
688.78	16.38
688.91	11.70
689.05	53.83
689.18	35.11
689.32	84.26
689.46	11.70
689.59	28.09
689.73	16.38
689.86	0.00
690.00	44.47
690.13	67.88
690.27	11.70
690.41	32.77
690.54	93.62
690.68	0.00
690.81	0.00
690.95	63.19
691.08	74.90
691.22	35.11
691.35	84.26
691.49	7.02
691.62	0.00
691.76	102.98
691.89	0.00
692.03	0.00
692.16	81.92
692.30	88.94
692.43	110.01
692.57	30.43
692.70	63.19
692.84	81.92
692.97	88.94
693.11	49.15
693.24	79.58
693.38	70.22
693.51	35.11
693.65	60.85
693.78	25.75
693.92	60.85
694.05	51.49
694.19	77.24
694.32	60.85
694.45	0.00
694.59	124.05
694.72	53.83
694.86	51.49
694.99	32.77
695.13	105.32
695.26	0.00
695.39	14.04
695.53	147.45
695.66	37.45
695.80	93.62
695.93	74.90
696.07	0.00
696.20	58.51
696.33	93.62
696.47	0.00
696.60	0.00
696.73	0.00
696.87	42.13
697.00	46.81
697.14	0.00
697.27	0.00
697.40	39.79
697.54	44.47
697.67	2.34
697.80	14.04
697.94	0.00
698.07	0.00
698.21	84.26
698.34	58.51
698.47	0.00
698.61	0.00
698.74	67.88
698.87	0.00
699.01	46.81
699.14	91.28
699.27	81.92
699.40	28.09
699.54	44.47
699.67	93.62
699.80	30.43
699.94	77.24
700.07	63.19
700.20	37.45
700.34	67.88
700.47	23.41
700.60	0.00
700.73	21.06
700.87	56.17
701.00	49.15
701.13	0.00
701.26	49.15
701.40	46.81
701.53	42.13
701.66	32.77
701.79	46.81
701.93	88.94
702.06	2.34
702.19	84.26
702.32	72.56
702.46	49.15
702.59	81.92
702.72	18.72
702.85	21.06
702.99	18.72
703.12	25.75
703.25	9.36
703.38	30.43
703.51	102.98
703.65	60.85
703.78	37.45
703.91	0.00
704.04	46.81
704.17	0.00
704.31	42.13
704.44	86.60
704.57	58.51
704.70	117.03
704.83	23.41
704.96	72.56
705.10	77.24
705.23	72.56
>>>>>End Processed Spectral Data<<<<<
