SpectraSuite Data File
++++++++++++++++++++++++++++++++++++
Date: Fri Oct 04 12:13:39 GMT-05:00 2013
User: price-jones
Dark Spectrum Present: No
Reference Spectrum Present: No
Number of Sampled Component Spectra: 1
Spectrometers: USB2+H05261
Integration Time (usec): 10000 (USB2+H05261)
Spectra Averaged: 1 (USB2+H05261)
Boxcar Smoothing: 0 (USB2+H05261)
Correct for Electrical Dark: No (USB2+H05261)
Strobe/Lamp Enabled: No (USB2+H05261)
Correct for Detector Non-linearity: No (USB2+H05261)
Correct for Stray Light: No (USB2+H05261)
Number of Pixels in Processed Spectrum: 2048
>>>>>Begin Processed Spectral Data<<<<<
365.73	32.77
365.92	32.77
366.12	32.77
366.32	0.00
366.52	0.00
366.72	0.00
366.91	0.00
367.11	0.00
367.31	0.00
367.51	0.00
367.70	0.00
367.90	0.00
368.10	0.00
368.30	0.00
368.49	0.00
368.69	0.00
368.89	0.00
369.09	0.00
369.28	0.00
369.48	0.00
369.68	0.00
369.87	0.00
370.07	0.00
370.27	0.00
370.47	0.00
370.66	0.00
370.86	0.00
371.06	0.00
371.25	0.00
371.45	0.00
371.65	0.00
371.84	0.00
372.04	0.00
372.24	0.00
372.44	86.60
372.63	0.00
372.83	16.38
373.03	39.79
373.22	51.49
373.42	39.79
373.62	81.92
373.81	32.77
374.01	84.26
374.21	37.45
374.40	56.17
374.60	58.51
374.79	42.13
374.99	16.38
375.19	28.09
375.38	23.41
375.58	49.15
375.78	65.54
375.97	39.79
376.17	16.38
376.37	14.04
376.56	91.28
376.76	21.06
376.95	0.00
377.15	0.00
377.35	0.00
377.54	65.54
377.74	23.41
377.93	7.02
378.13	0.00
378.33	0.00
378.52	70.22
378.72	0.00
378.91	46.81
379.11	53.83
379.31	0.00
379.50	0.00
379.70	0.00
379.89	53.83
380.09	0.00
380.28	0.00
380.48	0.00
380.68	4.68
380.87	23.41
381.07	37.45
381.26	37.45
381.46	18.72
381.65	16.38
381.85	0.00
382.04	0.00
382.24	0.00
382.43	42.13
382.63	79.58
382.83	28.09
383.02	114.69
383.22	21.06
383.41	0.00
383.61	14.04
383.80	42.13
384.00	0.00
384.19	0.00
384.39	4.68
384.58	25.75
384.78	65.54
384.97	0.00
385.17	39.79
385.36	37.45
385.56	37.45
385.75	2.34
385.95	63.19
386.14	65.54
386.34	0.00
386.53	35.11
386.72	21.06
386.92	2.34
387.11	0.00
387.31	23.41
387.50	49.15
387.70	0.00
387.89	0.00
388.09	49.15
388.28	63.19
388.48	0.00
388.67	60.85
388.86	81.92
389.06	39.79
389.25	0.00
389.45	110.01
389.64	58.51
389.84	105.32
390.03	51.49
390.22	21.06
390.42	14.04
390.61	11.70
390.81	21.06
391.00	9.36
391.19	32.77
391.39	0.00
391.58	37.45
391.78	91.28
391.97	124.05
392.16	49.15
392.36	35.11
392.55	21.06
392.75	0.00
392.94	0.00
393.13	0.00
393.33	42.13
393.52	4.68
393.71	0.00
393.91	2.34
394.10	70.22
394.29	23.41
394.49	46.81
394.68	18.72
394.88	86.60
395.07	30.43
395.26	25.75
395.46	67.88
395.65	0.00
395.84	0.00
396.04	93.62
396.23	77.24
396.42	16.38
396.62	77.24
396.81	0.00
397.00	21.06
397.19	42.13
397.39	0.00
397.58	21.06
397.77	56.17
397.97	49.15
398.16	0.00
398.35	98.30
398.55	28.09
398.74	70.22
398.93	0.00
399.12	0.00
399.32	0.00
399.51	28.09
399.70	39.79
399.90	135.75
400.09	0.00
400.28	74.90
400.47	56.17
400.67	32.77
400.86	37.45
401.05	46.81
401.24	11.70
401.44	0.00
401.63	51.49
401.82	25.75
402.01	14.04
402.21	49.15
402.40	112.35
402.59	0.00
402.78	42.13
402.97	77.24
403.17	37.45
403.36	35.11
403.55	0.00
403.74	16.38
403.93	35.11
404.13	37.45
404.32	21.06
404.51	51.49
404.70	32.77
404.89	28.09
405.09	0.00
405.28	9.36
405.47	23.41
405.66	25.75
405.85	39.79
406.05	30.43
406.24	14.04
406.43	25.75
406.62	9.36
406.81	67.88
407.00	0.00
407.20	128.73
407.39	0.00
407.58	91.28
407.77	65.54
407.96	44.47
408.15	67.88
408.34	53.83
408.54	9.36
408.73	14.04
408.92	0.00
409.11	42.13
409.30	51.49
409.49	46.81
409.68	0.00
409.87	88.94
410.07	0.00
410.26	124.05
410.45	37.45
410.64	46.81
410.83	67.88
411.02	46.81
411.21	49.15
411.40	37.45
411.59	53.83
411.78	46.81
411.98	4.68
412.17	112.35
412.36	0.00
412.55	18.72
412.74	32.77
412.93	74.90
413.12	42.13
413.31	112.35
413.50	77.24
413.69	44.47
413.88	0.00
414.07	58.51
414.26	4.68
414.45	0.00
414.64	44.47
414.83	46.81
415.02	30.43
415.22	30.43
415.41	58.51
415.60	74.90
415.79	88.94
415.98	11.70
416.17	11.70
416.36	23.41
416.55	110.01
416.74	56.17
416.93	21.06
417.12	0.00
417.31	39.79
417.50	95.96
417.69	79.58
417.88	18.72
418.07	2.34
418.26	51.49
418.45	79.58
418.64	23.41
418.83	63.19
419.02	0.00
419.21	49.15
419.39	56.17
419.58	60.85
419.77	35.11
419.96	51.49
420.15	79.58
420.34	65.54
420.53	30.43
420.72	28.09
420.91	25.75
421.10	77.24
421.29	65.54
421.48	37.45
421.67	112.35
421.86	0.00
422.05	2.34
422.24	65.54
422.43	93.62
422.61	44.47
422.80	18.72
422.99	79.58
423.18	46.81
423.37	39.79
423.56	0.00
423.75	81.92
423.94	7.02
424.13	0.00
424.32	84.26
424.50	28.09
424.69	74.90
424.88	32.77
425.07	0.00
425.26	58.51
425.45	35.11
425.64	77.24
425.83	49.15
426.01	51.49
426.20	23.41
426.39	44.47
426.58	51.49
426.77	51.49
426.96	18.72
427.15	30.43
427.33	0.00
427.52	0.00
427.71	9.36
427.90	18.72
428.09	95.96
428.28	28.09
428.46	7.02
428.65	84.26
428.84	53.83
429.03	18.72
429.22	39.79
429.40	2.34
429.59	4.68
429.78	53.83
429.97	58.51
430.16	49.15
430.34	46.81
430.53	42.13
430.72	44.47
430.91	35.11
431.10	91.28
431.28	25.75
431.47	72.56
431.66	32.77
431.85	67.88
432.03	39.79
432.22	0.00
432.41	84.26
432.60	0.00
432.79	35.11
432.97	60.85
433.16	28.09
433.35	23.41
433.54	0.00
433.72	51.49
433.91	51.49
434.10	4.68
434.28	74.90
434.47	21.06
434.66	25.75
434.85	84.26
435.03	102.98
435.22	58.51
435.41	112.35
435.59	51.49
435.78	0.00
435.97	53.83
436.16	102.98
436.34	65.54
436.53	18.72
436.72	51.49
436.90	100.64
437.09	100.64
437.28	39.79
437.46	105.32
437.65	58.51
437.84	21.06
438.02	95.96
438.21	28.09
438.40	23.41
438.58	86.60
438.77	32.77
438.96	70.22
439.14	35.11
439.33	28.09
439.52	131.07
439.70	28.09
439.89	49.15
440.08	56.17
440.26	39.79
440.45	23.41
440.63	35.11
440.82	114.69
441.01	72.56
441.19	124.05
441.38	56.17
441.57	63.19
441.75	51.49
441.94	39.79
442.12	74.90
442.31	72.56
442.50	30.43
442.68	28.09
442.87	128.73
443.05	46.81
443.24	4.68
443.43	74.90
443.61	44.47
443.80	4.68
443.98	21.06
444.17	65.54
444.35	30.43
444.54	67.88
444.73	77.24
444.91	70.22
445.10	39.79
445.28	60.85
445.47	16.38
445.65	63.19
445.84	51.49
446.02	79.58
446.21	93.62
446.39	39.79
446.58	0.00
446.77	14.04
446.95	51.49
447.14	121.71
447.32	39.79
447.51	65.54
447.69	44.47
447.88	56.17
448.06	58.51
448.25	30.43
448.43	28.09
448.62	79.58
448.80	42.13
448.99	18.72
449.17	70.22
449.36	32.77
449.54	67.88
449.73	72.56
449.91	56.17
450.10	21.06
450.28	0.00
450.46	9.36
450.65	49.15
450.83	44.47
451.02	42.13
451.20	0.00
451.39	84.26
451.57	91.28
451.76	2.34
451.94	86.60
452.13	0.00
452.31	39.79
452.49	74.90
452.68	35.11
452.86	81.92
453.05	65.54
453.23	98.30
453.42	39.79
453.60	154.48
453.78	117.03
453.97	30.43
454.15	4.68
454.34	49.15
454.52	72.56
454.70	7.02
454.89	37.45
455.07	58.51
455.26	93.62
455.44	142.77
455.62	56.17
455.81	67.88
455.99	100.64
456.17	46.81
456.36	121.71
456.54	70.22
456.73	28.09
456.91	72.56
457.09	58.51
457.28	42.13
457.46	30.43
457.64	79.58
457.83	42.13
458.01	30.43
458.19	9.36
458.38	60.85
458.56	49.15
458.74	56.17
458.93	30.43
459.11	84.26
459.29	91.28
459.48	70.22
459.66	11.70
459.84	49.15
460.03	0.00
460.21	51.49
460.39	117.03
460.57	21.06
460.76	58.51
460.94	142.77
461.12	11.70
461.31	60.85
461.49	28.09
461.67	121.71
461.85	91.28
462.04	46.81
462.22	51.49
462.40	98.30
462.59	95.96
462.77	0.00
462.95	42.13
463.13	86.60
463.32	128.73
463.50	9.36
463.68	84.26
463.86	9.36
464.05	56.17
464.23	49.15
464.41	42.13
464.59	74.90
464.78	147.45
464.96	53.83
465.14	21.06
465.32	77.24
465.50	81.92
465.69	44.47
465.87	65.54
466.05	32.77
466.23	72.56
466.41	60.85
466.60	39.79
466.78	35.11
466.96	30.43
467.14	72.56
467.32	72.56
467.51	70.22
467.69	16.38
467.87	84.26
468.05	79.58
468.23	49.15
468.41	88.94
468.60	117.03
468.78	77.24
468.96	63.19
469.14	35.11
469.32	95.96
469.50	21.06
469.69	37.45
469.87	95.96
470.05	100.64
470.23	126.39
470.41	35.11
470.59	81.92
470.77	65.54
470.95	131.07
471.14	105.32
471.32	7.02
471.50	30.43
471.68	30.43
471.86	88.94
472.04	56.17
472.22	23.41
472.40	14.04
472.58	100.64
472.77	102.98
472.95	60.85
473.13	49.15
473.31	93.62
473.49	46.81
473.67	74.90
473.85	37.45
474.03	88.94
474.21	60.85
474.39	77.24
474.57	79.58
474.75	14.04
474.93	21.06
475.12	72.56
475.30	100.64
475.48	84.26
475.66	65.54
475.84	56.17
476.02	88.94
476.20	112.35
476.38	4.68
476.56	44.47
476.74	65.54
476.92	35.11
477.10	72.56
477.28	60.85
477.46	23.41
477.64	91.28
477.82	119.37
478.00	32.77
478.18	0.00
478.36	65.54
478.54	77.24
478.72	126.39
478.90	67.88
479.08	32.77
479.26	28.09
479.44	95.96
479.62	114.69
479.80	28.09
479.98	65.54
480.16	84.26
480.34	67.88
480.52	63.19
480.70	93.62
480.88	65.54
481.06	95.96
481.24	147.45
481.41	95.96
481.59	58.51
481.77	91.28
481.95	14.04
482.13	72.56
482.31	81.92
482.49	91.28
482.67	56.17
482.85	51.49
483.03	42.13
483.21	60.85
483.39	51.49
483.57	23.41
483.74	14.04
483.92	70.22
484.10	98.30
484.28	86.60
484.46	0.00
484.64	16.38
484.82	107.66
485.00	107.66
485.18	25.75
485.35	42.13
485.53	4.68
485.71	93.62
485.89	16.38
486.07	56.17
486.25	74.90
486.43	65.54
486.61	18.72
486.78	67.88
486.96	81.92
487.14	81.92
487.32	46.81
487.50	81.92
487.68	58.51
487.85	88.94
488.03	72.56
488.21	42.13
488.39	65.54
488.57	114.69
488.75	46.81
488.92	53.83
489.10	95.96
489.28	112.35
489.46	93.62
489.64	79.58
489.81	88.94
489.99	110.01
490.17	28.09
490.35	16.38
490.53	95.96
490.70	53.83
490.88	44.47
491.06	72.56
491.24	112.35
491.41	110.01
491.59	95.96
491.77	35.11
491.95	0.00
492.13	145.11
492.30	49.15
492.48	4.68
492.66	53.83
492.84	51.49
493.01	119.37
493.19	145.11
493.37	0.00
493.54	4.68
493.72	74.90
493.90	0.00
494.08	102.98
494.25	32.77
494.43	0.00
494.61	79.58
494.79	30.43
494.96	173.20
495.14	84.26
495.32	140.43
495.49	81.92
495.67	72.56
495.85	0.00
496.02	42.13
496.20	0.00
496.38	60.85
496.55	79.58
496.73	100.64
496.91	51.49
497.09	56.17
497.26	86.60
497.44	74.90
497.62	79.58
497.79	65.54
497.97	88.94
498.14	147.45
498.32	74.90
498.50	86.60
498.67	67.88
498.85	91.28
499.03	42.13
499.20	56.17
499.38	110.01
499.56	110.01
499.73	0.00
499.91	81.92
500.08	70.22
500.26	77.24
500.44	60.85
500.61	81.92
500.79	105.32
500.97	65.54
501.14	74.90
501.32	102.98
501.49	98.30
501.67	107.66
501.84	63.19
502.02	67.88
502.20	58.51
502.37	44.47
502.55	37.45
502.72	117.03
502.90	84.26
503.07	67.88
503.25	107.66
503.43	93.62
503.60	77.24
503.78	42.13
503.95	91.28
504.13	86.60
504.30	79.58
504.48	112.35
504.65	81.92
504.83	95.96
505.01	105.32
505.18	105.32
505.36	51.49
505.53	53.83
505.71	77.24
505.88	119.37
506.06	14.04
506.23	51.49
506.41	46.81
506.58	28.09
506.76	145.11
506.93	44.47
507.11	105.32
507.28	65.54
507.46	98.30
507.63	70.22
507.81	39.79
507.98	81.92
508.16	133.41
508.33	100.64
508.50	74.90
508.68	72.56
508.85	51.49
509.03	63.19
509.20	100.64
509.38	110.01
509.55	93.62
509.73	84.26
509.90	67.88
510.08	93.62
510.25	25.75
510.42	102.98
510.60	58.51
510.77	107.66
510.95	0.00
511.12	98.30
511.30	98.30
511.47	56.17
511.64	70.22
511.82	67.88
511.99	81.92
512.17	95.96
512.34	86.60
512.51	84.26
512.69	81.92
512.86	58.51
513.04	93.62
513.21	51.49
513.38	145.11
513.56	93.62
513.73	58.51
513.90	84.26
514.08	81.92
514.25	74.90
514.43	102.98
514.60	37.45
514.77	133.41
514.95	124.05
515.12	74.90
515.29	30.43
515.47	35.11
515.64	81.92
515.81	98.30
515.99	173.20
516.16	124.05
516.33	100.64
516.51	49.15
516.68	100.64
516.85	18.72
517.03	100.64
517.20	32.77
517.37	168.52
517.54	173.20
517.72	124.05
517.89	110.01
518.06	44.47
518.24	107.66
518.41	7.02
518.58	88.94
518.75	74.90
518.93	107.66
519.10	110.01
519.27	95.96
519.45	124.05
519.62	154.48
519.79	84.26
519.96	124.05
520.14	23.41
520.31	30.43
520.48	49.15
520.65	124.05
520.83	145.11
521.00	100.64
521.17	100.64
521.34	81.92
521.52	51.49
521.69	63.19
521.86	74.90
522.03	163.84
522.20	126.39
522.38	117.03
522.55	128.73
522.72	74.90
522.89	67.88
523.07	124.05
523.24	74.90
523.41	93.62
523.58	28.09
523.75	49.15
523.92	100.64
524.10	44.47
524.27	140.43
524.44	81.92
524.61	53.83
524.78	128.73
524.96	91.28
525.13	112.35
525.30	163.84
525.47	93.62
525.64	42.13
525.81	72.56
525.98	60.85
526.16	58.51
526.33	60.85
526.50	124.05
526.67	65.54
526.84	100.64
527.01	2.34
527.18	124.05
527.36	138.09
527.53	145.11
527.70	208.31
527.87	88.94
528.04	39.79
528.21	117.03
528.38	65.54
528.55	159.16
528.72	184.90
528.89	140.43
529.07	93.62
529.24	79.58
529.41	117.03
529.58	58.51
529.75	65.54
529.92	37.45
530.09	49.15
530.26	154.48
530.43	105.32
530.60	42.13
530.77	67.88
530.94	107.66
531.11	72.56
531.28	70.22
531.46	112.35
531.63	25.75
531.80	53.83
531.97	131.07
532.14	145.11
532.31	128.73
532.48	79.58
532.65	86.60
532.82	23.41
532.99	140.43
533.16	63.19
533.33	95.96
533.50	46.81
533.67	102.98
533.84	124.05
534.01	51.49
534.18	72.56
534.35	112.35
534.52	145.11
534.69	152.13
534.86	100.64
535.03	0.00
535.20	56.17
535.37	53.83
535.54	77.24
535.71	30.43
535.88	74.90
536.05	107.66
536.22	58.51
536.38	107.66
536.55	114.69
536.72	39.79
536.89	126.39
537.06	105.32
537.23	51.49
537.40	107.66
537.57	100.64
537.74	88.94
537.91	84.26
538.08	112.35
538.25	105.32
538.42	58.51
538.59	0.00
538.75	81.92
538.92	42.13
539.09	58.51
539.26	107.66
539.43	88.94
539.60	173.20
539.77	88.94
539.94	67.88
540.11	112.35
540.28	86.60
540.44	60.85
540.61	63.19
540.78	84.26
540.95	140.43
541.12	53.83
541.29	95.96
541.46	126.39
541.62	37.45
541.79	0.00
541.96	60.85
542.13	53.83
542.30	72.56
542.47	86.60
542.63	128.73
542.80	44.47
542.97	140.43
543.14	74.90
543.31	91.28
543.48	81.92
543.64	110.01
543.81	98.30
543.98	32.77
544.15	98.30
544.32	32.77
544.48	18.72
544.65	95.96
544.82	72.56
544.99	88.94
545.16	100.64
545.32	81.92
545.49	46.81
545.66	74.90
545.83	56.17
546.00	84.26
546.16	46.81
546.33	119.37
546.50	110.01
546.67	100.64
546.83	131.07
547.00	126.39
547.17	166.18
547.34	60.85
547.50	67.88
547.67	152.13
547.84	107.66
548.00	140.43
548.17	117.03
548.34	4.68
548.51	0.00
548.67	0.00
548.84	32.77
549.01	42.13
549.18	175.54
549.34	102.98
549.51	58.51
549.68	93.62
549.84	9.36
550.01	72.56
550.18	30.43
550.34	0.00
550.51	79.58
550.68	51.49
550.84	117.03
551.01	60.85
551.18	39.79
551.34	95.96
551.51	152.13
551.68	110.01
551.84	135.75
552.01	117.03
552.18	119.37
552.34	95.96
552.51	154.48
552.68	145.11
552.84	74.90
553.01	114.69
553.18	117.03
553.34	93.62
553.51	49.15
553.67	67.88
553.84	91.28
554.01	102.98
554.17	128.73
554.34	93.62
554.51	135.75
554.67	163.84
554.84	58.51
555.00	107.66
555.17	126.39
555.33	159.16
555.50	70.22
555.67	98.30
555.83	32.77
556.00	93.62
556.16	84.26
556.33	51.49
556.50	121.71
556.66	65.54
556.83	121.71
556.99	0.00
557.16	110.01
557.32	65.54
557.49	131.07
557.65	28.09
557.82	0.00
557.98	32.77
558.15	91.28
558.32	93.62
558.48	53.83
558.65	58.51
558.81	149.79
558.98	70.22
559.14	138.09
559.31	9.36
559.47	100.64
559.64	58.51
559.80	105.32
559.97	72.56
560.13	35.11
560.30	105.32
560.46	138.09
560.63	84.26
560.79	105.32
560.96	88.94
561.12	110.01
561.29	84.26
561.45	63.19
561.61	49.15
561.78	39.79
561.94	60.85
562.11	110.01
562.27	65.54
562.44	72.56
562.60	84.26
562.77	63.19
562.93	107.66
563.10	98.30
563.26	117.03
563.42	91.28
563.59	60.85
563.75	128.73
563.92	30.43
564.08	16.38
564.24	112.35
564.41	102.98
564.57	32.77
564.74	121.71
564.90	21.06
565.07	88.94
565.23	72.56
565.39	117.03
565.56	86.60
565.72	72.56
565.88	63.19
566.05	81.92
566.21	98.30
566.38	142.77
566.54	16.38
566.70	16.38
566.87	77.24
567.03	49.15
567.19	42.13
567.36	67.88
567.52	49.15
567.68	128.73
567.85	98.30
568.01	32.77
568.17	74.90
568.34	124.05
568.50	60.85
568.66	32.77
568.83	98.30
568.99	53.83
569.15	121.71
569.32	117.03
569.48	0.00
569.64	91.28
569.81	42.13
569.97	110.01
570.13	74.90
570.30	53.83
570.46	112.35
570.62	105.32
570.78	30.43
570.95	74.90
571.11	21.06
571.27	128.73
571.43	65.54
571.60	119.37
571.76	88.94
571.92	14.04
572.09	124.05
572.25	39.79
572.41	79.58
572.57	93.62
572.74	110.01
572.90	88.94
573.06	74.90
573.22	110.01
573.38	25.75
573.55	28.09
573.71	114.69
573.87	112.35
574.03	105.32
574.20	93.62
574.36	65.54
574.52	147.45
574.68	121.71
574.84	74.90
575.01	138.09
575.17	60.85
575.33	32.77
575.49	79.58
575.65	119.37
575.82	44.47
575.98	145.11
576.14	110.01
576.30	126.39
576.46	30.43
576.62	0.00
576.79	0.00
576.95	46.81
577.11	110.01
577.27	2.34
577.43	42.13
577.59	67.88
577.75	67.88
577.92	65.54
578.08	84.26
578.24	58.51
578.40	58.51
578.56	119.37
578.72	39.79
578.88	72.56
579.04	88.94
579.21	93.62
579.37	124.05
579.53	107.66
579.69	105.32
579.85	58.51
580.01	37.45
580.17	140.43
580.33	67.88
580.49	67.88
580.65	100.64
580.82	0.00
580.98	98.30
581.14	67.88
581.30	135.75
581.46	93.62
581.62	86.60
581.78	51.49
581.94	126.39
582.10	21.06
582.26	46.81
582.42	79.58
582.58	51.49
582.74	79.58
582.90	117.03
583.06	28.09
583.22	65.54
583.38	77.24
583.54	107.66
583.70	102.98
583.86	30.43
584.02	63.19
584.18	46.81
584.34	0.00
584.50	32.77
584.66	95.96
584.82	88.94
584.98	60.85
585.14	74.90
585.30	81.92
585.46	102.98
585.62	0.00
585.78	114.69
585.94	88.94
586.10	126.39
586.26	128.73
586.42	49.15
586.58	86.60
586.74	74.90
586.90	117.03
587.06	46.81
587.22	84.26
587.38	63.19
587.54	77.24
587.70	102.98
587.86	140.43
588.02	102.98
588.18	74.90
588.34	46.81
588.49	67.88
588.65	53.83
588.81	72.56
588.97	9.36
589.13	0.00
589.29	65.54
589.45	37.45
589.61	58.51
589.77	37.45
589.93	86.60
590.08	32.77
590.24	88.94
590.40	86.60
590.56	119.37
590.72	70.22
590.88	95.96
591.04	117.03
591.20	98.30
591.35	46.81
591.51	67.88
591.67	21.06
591.83	67.88
591.99	65.54
592.15	77.24
592.31	102.98
592.46	70.22
592.62	126.39
592.78	58.51
592.94	95.96
593.10	60.85
593.26	60.85
593.41	91.28
593.57	110.01
593.73	126.39
593.89	65.54
594.05	4.68
594.20	74.90
594.36	72.56
594.52	21.06
594.68	46.81
594.84	100.64
594.99	49.15
595.15	30.43
595.31	70.22
595.47	112.35
595.62	98.30
595.78	77.24
595.94	58.51
596.10	147.45
596.25	56.17
596.41	63.19
596.57	53.83
596.73	16.38
596.88	93.62
597.04	67.88
597.20	32.77
597.36	70.22
597.51	131.07
597.67	51.49
597.83	58.51
597.99	95.96
598.14	131.07
598.30	23.41
598.46	110.01
598.61	18.72
598.77	74.90
598.93	56.17
599.09	32.77
599.24	135.75
599.40	112.35
599.56	72.56
599.71	114.69
599.87	53.83
600.03	93.62
600.18	23.41
600.34	67.88
600.50	42.13
600.65	86.60
600.81	91.28
600.97	79.58
601.12	7.02
601.28	65.54
601.44	28.09
601.59	0.00
601.75	74.90
601.91	74.90
602.06	84.26
602.22	16.38
602.37	147.45
602.53	30.43
602.69	149.79
602.84	91.28
603.00	32.77
603.16	74.90
603.31	67.88
603.47	56.17
603.62	105.32
603.78	79.58
603.94	110.01
604.09	0.00
604.25	93.62
604.40	65.54
604.56	0.00
604.71	184.90
604.87	152.13
605.03	112.35
605.18	53.83
605.34	84.26
605.49	84.26
605.65	70.22
605.80	44.47
605.96	126.39
606.12	23.41
606.27	39.79
606.43	74.90
606.58	86.60
606.74	100.64
606.89	51.49
607.05	56.17
607.20	65.54
607.36	65.54
607.51	91.28
607.67	2.34
607.82	117.03
607.98	95.96
608.13	74.90
608.29	67.88
608.44	95.96
608.60	56.17
608.75	60.85
608.91	102.98
609.06	105.32
609.22	110.01
609.37	74.90
609.53	131.07
609.68	140.43
609.84	93.62
609.99	4.68
610.15	21.06
610.30	72.56
610.46	177.88
610.61	46.81
610.76	133.41
610.92	23.41
611.07	135.75
611.23	0.00
611.38	53.83
611.54	88.94
611.69	49.15
611.84	11.70
612.00	58.51
612.15	72.56
612.31	46.81
612.46	74.90
612.62	21.06
612.77	46.81
612.92	44.47
613.08	67.88
613.23	105.32
613.39	58.51
613.54	28.09
613.69	102.98
613.85	142.77
614.00	100.64
614.15	25.75
614.31	32.77
614.46	44.47
614.62	86.60
614.77	102.98
614.92	65.54
615.08	46.81
615.23	0.00
615.38	28.09
615.54	51.49
615.69	98.30
615.84	42.13
616.00	84.26
616.15	74.90
616.30	16.38
616.46	91.28
616.61	128.73
616.76	77.24
616.92	44.47
617.07	107.66
617.22	84.26
617.37	149.79
617.53	2.34
617.68	39.79
617.83	86.60
617.99	63.19
618.14	95.96
618.29	37.45
618.45	67.88
618.60	35.11
618.75	30.43
618.90	51.49
619.06	51.49
619.21	86.60
619.36	149.79
619.51	7.02
619.67	37.45
619.82	124.05
619.97	110.01
620.12	35.11
620.28	95.96
620.43	7.02
620.58	117.03
620.73	110.01
620.89	145.11
621.04	11.70
621.19	117.03
621.34	46.81
621.49	67.88
621.65	65.54
621.80	37.45
621.95	77.24
622.10	46.81
622.25	105.32
622.41	37.45
622.56	100.64
622.71	128.73
622.86	121.71
623.01	25.75
623.16	77.24
623.32	91.28
623.47	84.26
623.62	93.62
623.77	35.11
623.92	119.37
624.07	74.90
624.23	86.60
624.38	25.75
624.53	98.30
624.68	74.90
624.83	63.19
624.98	100.64
625.13	95.96
625.29	70.22
625.44	74.90
625.59	51.49
625.74	152.13
625.89	128.73
626.04	4.68
626.19	51.49
626.34	44.47
626.49	74.90
626.65	35.11
626.80	84.26
626.95	91.28
627.10	4.68
627.25	49.15
627.40	46.81
627.55	81.92
627.70	93.62
627.85	42.13
628.00	72.56
628.15	86.60
628.30	51.49
628.45	46.81
628.60	60.85
628.76	49.15
628.91	72.56
629.06	65.54
629.21	74.90
629.36	51.49
629.51	21.06
629.66	100.64
629.81	60.85
629.96	77.24
630.11	100.64
630.26	37.45
630.41	124.05
630.56	42.13
630.71	25.75
630.86	39.79
631.01	0.00
631.16	7.02
631.31	37.45
631.46	56.17
631.61	86.60
631.76	102.98
631.91	30.43
632.06	39.79
632.21	7.02
632.36	14.04
632.51	65.54
632.66	46.81
632.81	102.98
632.96	23.41
633.10	88.94
633.25	63.19
633.40	56.17
633.55	42.13
633.70	105.32
633.85	105.32
634.00	86.60
634.15	35.11
634.30	16.38
634.45	70.22
634.60	63.19
634.75	37.45
634.90	21.06
635.05	88.94
635.19	119.37
635.34	30.43
635.49	67.88
635.64	105.32
635.79	133.41
635.94	14.04
636.09	46.81
636.24	0.00
636.39	2.34
636.53	32.77
636.68	16.38
636.83	67.88
636.98	100.64
637.13	0.00
637.28	46.81
637.43	107.66
637.57	81.92
637.72	32.77
637.87	67.88
638.02	49.15
638.17	98.30
638.32	110.01
638.46	86.60
638.61	63.19
638.76	67.88
638.91	58.51
639.06	37.45
639.20	39.79
639.35	16.38
639.50	65.54
639.65	74.90
639.80	30.43
639.94	58.51
640.09	30.43
640.24	60.85
640.39	49.15
640.54	16.38
640.68	77.24
640.83	102.98
640.98	39.79
641.13	44.47
641.27	30.43
641.42	25.75
641.57	4.68
641.72	112.35
641.86	117.03
642.01	79.58
642.16	84.26
642.31	88.94
642.45	124.05
642.60	126.39
642.75	67.88
642.90	32.77
643.04	77.24
643.19	65.54
643.34	11.70
643.48	65.54
643.63	79.58
643.78	0.00
643.93	77.24
644.07	21.06
644.22	53.83
644.37	44.47
644.51	39.79
644.66	32.77
644.81	67.88
644.95	53.83
645.10	18.72
645.25	21.06
645.39	7.02
645.54	60.85
645.69	30.43
645.83	100.64
645.98	35.11
646.13	35.11
646.27	91.28
646.42	4.68
646.57	32.77
646.71	51.49
646.86	84.26
647.00	32.77
647.15	53.83
647.30	86.60
647.44	46.81
647.59	79.58
647.74	0.00
647.88	86.60
648.03	28.09
648.17	53.83
648.32	93.62
648.47	107.66
648.61	81.92
648.76	79.58
648.90	67.88
649.05	88.94
649.20	0.00
649.34	86.60
649.49	16.38
649.63	72.56
649.78	65.54
649.92	39.79
650.07	58.51
650.21	84.26
650.36	100.64
650.51	98.30
650.65	128.73
650.80	77.24
650.94	91.28
651.09	95.96
651.23	39.79
651.38	98.30
651.52	86.60
651.67	4.68
651.81	79.58
651.96	60.85
652.10	16.38
652.25	28.09
652.39	2.34
652.54	58.51
652.68	84.26
652.83	74.90
652.97	74.90
653.12	37.45
653.26	93.62
653.41	93.62
653.55	74.90
653.70	0.00
653.84	126.39
653.99	93.62
654.13	0.00
654.27	0.00
654.42	30.43
654.56	32.77
654.71	35.11
654.85	49.15
655.00	84.26
655.14	117.03
655.29	105.32
655.43	51.49
655.57	42.13
655.72	86.60
655.86	65.54
656.01	11.70
656.15	18.72
656.30	28.09
656.44	60.85
656.58	11.70
656.73	72.56
656.87	58.51
657.01	14.04
657.16	98.30
657.30	91.28
657.45	56.17
657.59	77.24
657.73	74.90
657.88	35.11
658.02	79.58
658.16	67.88
658.31	53.83
658.45	91.28
658.60	58.51
658.74	91.28
658.88	37.45
659.03	30.43
659.17	53.83
659.31	37.45
659.46	112.35
659.60	95.96
659.74	23.41
659.89	14.04
660.03	74.90
660.17	105.32
660.32	67.88
660.46	74.90
660.60	79.58
660.74	102.98
660.89	0.00
661.03	4.68
661.17	102.98
661.32	23.41
661.46	74.90
661.60	70.22
661.74	0.00
661.89	72.56
662.03	67.88
662.17	37.45
662.31	37.45
662.46	0.00
662.60	9.36
662.74	56.17
662.88	67.88
663.03	67.88
663.17	74.90
663.31	32.77
663.45	49.15
663.60	60.85
663.74	11.70
663.88	9.36
664.02	4.68
664.17	39.79
664.31	0.00
664.45	32.77
664.59	95.96
664.73	114.69
664.88	91.28
665.02	42.13
665.16	44.47
665.30	0.00
665.44	81.92
665.59	58.51
665.73	51.49
665.87	72.56
666.01	4.68
666.15	65.54
666.29	18.72
666.44	81.92
666.58	86.60
666.72	102.98
666.86	56.17
667.00	138.09
667.14	14.04
667.28	102.98
667.43	35.11
667.57	0.00
667.71	60.85
667.85	95.96
667.99	51.49
668.13	11.70
668.27	46.81
668.41	49.15
668.56	32.77
668.70	49.15
668.84	39.79
668.98	28.09
669.12	51.49
669.26	11.70
669.40	156.82
669.54	23.41
669.68	91.28
669.82	46.81
669.96	88.94
670.10	49.15
670.25	67.88
670.39	37.45
670.53	93.62
670.67	42.13
670.81	86.60
670.95	56.17
671.09	28.09
671.23	0.00
671.37	28.09
671.51	9.36
671.65	100.64
671.79	112.35
671.93	37.45
672.07	117.03
672.21	70.22
672.35	91.28
672.49	63.19
672.63	32.77
672.77	2.34
672.91	49.15
673.05	81.92
673.19	53.83
673.33	86.60
673.47	32.77
673.61	63.19
673.75	70.22
673.89	0.00
674.03	60.85
674.17	35.11
674.31	37.45
674.45	21.06
674.59	107.66
674.73	117.03
674.87	49.15
675.01	0.00
675.15	60.85
675.29	56.17
675.43	42.13
675.56	0.00
675.70	79.58
675.84	49.15
675.98	74.90
676.12	70.22
676.26	65.54
676.40	88.94
676.54	0.00
676.68	58.51
676.82	70.22
676.96	79.58
677.10	7.02
677.23	67.88
677.37	98.30
677.51	2.34
677.65	91.28
677.79	32.77
677.93	46.81
678.07	46.81
678.21	0.00
678.34	44.47
678.48	117.03
678.62	44.47
678.76	65.54
678.90	2.34
679.04	28.09
679.18	32.77
679.31	58.51
679.45	98.30
679.59	35.11
679.73	49.15
679.87	35.11
680.00	49.15
680.14	37.45
680.28	42.13
680.42	70.22
680.56	18.72
680.70	49.15
680.83	91.28
680.97	16.38
681.11	14.04
681.25	65.54
681.39	42.13
681.52	46.81
681.66	102.98
681.80	32.77
681.94	9.36
682.07	44.47
682.21	77.24
682.35	39.79
682.49	4.68
682.62	0.00
682.76	4.68
682.90	0.00
683.04	46.81
683.17	23.41
683.31	65.54
683.45	60.85
683.59	0.00
683.72	28.09
683.86	0.00
684.00	46.81
684.13	37.45
684.27	0.00
684.41	23.41
684.55	102.98
684.68	84.26
684.82	0.00
684.96	98.30
685.09	0.00
685.23	42.13
685.37	32.77
685.50	21.06
685.64	21.06
685.78	30.43
685.91	74.90
686.05	11.70
686.19	35.11
686.32	0.00
686.46	14.04
686.60	39.79
686.73	72.56
686.87	67.88
687.01	0.00
687.14	9.36
687.28	0.00
687.42	53.83
687.55	0.00
687.69	0.00
687.82	16.38
687.96	0.00
688.10	25.75
688.23	25.75
688.37	128.73
688.50	39.79
688.64	112.35
688.78	37.45
688.91	25.75
689.05	0.00
689.18	53.83
689.32	0.00
689.46	25.75
689.59	39.79
689.73	128.73
689.86	0.00
690.00	60.85
690.13	77.24
690.27	23.41
690.41	91.28
690.54	0.00
690.68	14.04
690.81	60.85
690.95	37.45
691.08	11.70
691.22	44.47
691.35	14.04
691.49	72.56
691.62	70.22
691.76	140.43
691.89	25.75
692.03	4.68
692.16	9.36
692.30	18.72
692.43	35.11
692.57	37.45
692.70	0.00
692.84	4.68
692.97	74.90
693.11	56.17
693.24	0.00
693.38	0.00
693.51	16.38
693.65	39.79
693.78	42.13
693.92	77.24
694.05	88.94
694.19	74.90
694.32	44.47
694.45	72.56
694.59	2.34
694.72	0.00
694.86	0.00
694.99	4.68
695.13	14.04
695.26	23.41
695.39	0.00
695.53	93.62
695.66	63.19
695.80	37.45
695.93	30.43
696.07	0.00
696.20	67.88
696.33	46.81
696.47	102.98
696.60	44.47
696.73	42.13
696.87	23.41
697.00	7.02
697.14	18.72
697.27	0.00
697.40	11.70
697.54	25.75
697.67	95.96
697.80	28.09
697.94	30.43
698.07	67.88
698.21	49.15
698.34	21.06
698.47	49.15
698.61	11.70
698.74	11.70
698.87	2.34
699.01	0.00
699.14	0.00
699.27	42.13
699.40	0.00
699.54	9.36
699.67	51.49
699.80	25.75
699.94	84.26
700.07	0.00
700.20	46.81
700.34	11.70
700.47	0.00
700.60	14.04
700.73	28.09
700.87	35.11
701.00	72.56
701.13	14.04
701.26	11.70
701.40	25.75
701.53	110.01
701.66	142.77
701.79	112.35
701.93	25.75
702.06	46.81
702.19	51.49
702.32	25.75
702.46	93.62
702.59	74.90
702.72	81.92
702.85	46.81
702.99	21.06
703.12	60.85
703.25	0.00
703.38	7.02
703.51	53.83
703.65	0.00
703.78	30.43
703.91	88.94
704.04	88.94
704.17	63.19
704.31	60.85
704.44	58.51
704.57	0.00
704.70	32.77
704.83	37.45
704.96	58.51
705.10	9.36
705.23	32.77
>>>>>End Processed Spectral Data<<<<<
