SpectraSuite Data File
++++++++++++++++++++++++++++++++++++
Date: Fri Oct 04 12:13:25 GMT-05:00 2013
User: price-jones
Dark Spectrum Present: No
Reference Spectrum Present: No
Number of Sampled Component Spectra: 1
Spectrometers: USB2+H05261
Integration Time (usec): 10000 (USB2+H05261)
Spectra Averaged: 1 (USB2+H05261)
Boxcar Smoothing: 0 (USB2+H05261)
Correct for Electrical Dark: No (USB2+H05261)
Strobe/Lamp Enabled: No (USB2+H05261)
Correct for Detector Non-linearity: No (USB2+H05261)
Correct for Stray Light: No (USB2+H05261)
Number of Pixels in Processed Spectrum: 2048
>>>>>Begin Processed Spectral Data<<<<<
365.73	0.00
365.92	0.00
366.12	0.00
366.32	0.00
366.52	0.00
366.72	0.00
366.91	0.00
367.11	0.00
367.31	0.00
367.51	0.00
367.70	0.00
367.90	0.00
368.10	0.00
368.30	0.00
368.49	0.00
368.69	0.00
368.89	0.00
369.09	0.00
369.28	0.00
369.48	0.00
369.68	0.00
369.87	0.00
370.07	0.00
370.27	0.00
370.47	0.00
370.66	0.00
370.86	0.00
371.06	0.00
371.25	0.00
371.45	11.70
371.65	42.13
371.84	0.00
372.04	44.47
372.24	11.70
372.44	37.45
372.63	53.83
372.83	51.49
373.03	11.70
373.22	4.68
373.42	14.04
373.62	56.17
373.81	0.00
374.01	28.09
374.21	30.43
374.40	4.68
374.60	46.81
374.79	9.36
374.99	0.00
375.19	16.38
375.38	56.17
375.58	95.96
375.78	51.49
375.97	23.41
376.17	49.15
376.37	67.88
376.56	0.00
376.76	0.00
376.95	0.00
377.15	46.81
377.35	32.77
377.54	0.00
377.74	9.36
377.93	9.36
378.13	7.02
378.33	58.51
378.52	18.72
378.72	11.70
378.91	30.43
379.11	39.79
379.31	67.88
379.50	0.00
379.70	37.45
379.89	4.68
380.09	0.00
380.28	0.00
380.48	0.00
380.68	0.00
380.87	0.00
381.07	32.77
381.26	58.51
381.46	0.00
381.65	0.00
381.85	0.00
382.04	0.00
382.24	46.81
382.43	79.58
382.63	53.83
382.83	7.02
383.02	0.00
383.22	65.54
383.41	0.00
383.61	0.00
383.80	0.00
384.00	28.09
384.19	0.00
384.39	21.06
384.58	0.00
384.78	58.51
384.97	0.00
385.17	0.00
385.36	0.00
385.56	28.09
385.75	4.68
385.95	0.00
386.14	0.00
386.34	35.11
386.53	0.00
386.72	0.00
386.92	60.85
387.11	53.83
387.31	0.00
387.50	0.00
387.70	11.70
387.89	49.15
388.09	0.00
388.28	21.06
388.48	0.00
388.67	18.72
388.86	28.09
389.06	35.11
389.25	53.83
389.45	0.00
389.64	0.00
389.84	37.45
390.03	28.09
390.22	72.56
390.42	23.41
390.61	28.09
390.81	39.79
391.00	28.09
391.19	2.34
391.39	2.34
391.58	70.22
391.78	0.00
391.97	0.00
392.16	0.00
392.36	37.45
392.55	72.56
392.75	53.83
392.94	21.06
393.13	0.00
393.33	30.43
393.52	0.00
393.71	0.00
393.91	53.83
394.10	39.79
394.29	63.19
394.49	16.38
394.68	0.00
394.88	37.45
395.07	0.00
395.26	44.47
395.46	51.49
395.65	0.00
395.84	9.36
396.04	0.00
396.23	63.19
396.42	81.92
396.62	0.00
396.81	37.45
397.00	0.00
397.19	67.88
397.39	16.38
397.58	21.06
397.77	0.00
397.97	0.00
398.16	28.09
398.35	53.83
398.55	0.00
398.74	25.75
398.93	25.75
399.12	0.00
399.32	35.11
399.51	35.11
399.70	49.15
399.90	0.00
400.09	0.00
400.28	4.68
400.47	16.38
400.67	46.81
400.86	30.43
401.05	28.09
401.24	28.09
401.44	100.64
401.63	0.00
401.82	58.51
402.01	14.04
402.21	4.68
402.40	0.00
402.59	18.72
402.78	0.00
402.97	7.02
403.17	25.75
403.36	0.00
403.55	16.38
403.74	0.00
403.93	44.47
404.13	102.98
404.32	0.00
404.51	0.00
404.70	0.00
404.89	23.41
405.09	35.11
405.28	35.11
405.47	25.75
405.66	98.30
405.85	42.13
406.05	21.06
406.24	0.00
406.43	0.00
406.62	56.17
406.81	9.36
407.00	60.85
407.20	67.88
407.39	0.00
407.58	51.49
407.77	2.34
407.96	16.38
408.15	60.85
408.34	58.51
408.54	49.15
408.73	0.00
408.92	81.92
409.11	11.70
409.30	0.00
409.49	23.41
409.68	25.75
409.87	0.00
410.07	0.00
410.26	32.77
410.45	28.09
410.64	0.00
410.83	49.15
411.02	0.00
411.21	0.00
411.40	4.68
411.59	11.70
411.78	0.00
411.98	11.70
412.17	0.00
412.36	0.00
412.55	23.41
412.74	28.09
412.93	7.02
413.12	0.00
413.31	0.00
413.50	67.88
413.69	51.49
413.88	91.28
414.07	0.00
414.26	79.58
414.45	100.64
414.64	72.56
414.83	0.00
415.02	0.00
415.22	81.92
415.41	35.11
415.60	32.77
415.79	81.92
415.98	53.83
416.17	0.00
416.36	25.75
416.55	0.00
416.74	16.38
416.93	65.54
417.12	44.47
417.31	0.00
417.50	11.70
417.69	65.54
417.88	37.45
418.07	2.34
418.26	110.01
418.45	81.92
418.64	58.51
418.83	0.00
419.02	51.49
419.21	35.11
419.39	72.56
419.58	2.34
419.77	18.72
419.96	18.72
420.15	63.19
420.34	0.00
420.53	81.92
420.72	7.02
420.91	14.04
421.10	100.64
421.29	67.88
421.48	35.11
421.67	53.83
421.86	0.00
422.05	0.00
422.24	18.72
422.43	84.26
422.61	37.45
422.80	9.36
422.99	44.47
423.18	11.70
423.37	11.70
423.56	119.37
423.75	14.04
423.94	0.00
424.13	84.26
424.32	0.00
424.50	119.37
424.69	42.13
424.88	14.04
425.07	105.32
425.26	2.34
425.45	0.00
425.64	35.11
425.83	0.00
426.01	46.81
426.20	72.56
426.39	9.36
426.58	63.19
426.77	0.00
426.96	0.00
427.15	35.11
427.33	107.66
427.52	112.35
427.71	79.58
427.90	0.00
428.09	0.00
428.28	2.34
428.46	39.79
428.65	42.13
428.84	18.72
429.03	16.38
429.22	37.45
429.40	70.22
429.59	56.17
429.78	65.54
429.97	58.51
430.16	35.11
430.34	11.70
430.53	56.17
430.72	49.15
430.91	72.56
431.10	32.77
431.28	91.28
431.47	67.88
431.66	86.60
431.85	93.62
432.03	14.04
432.22	16.38
432.41	9.36
432.60	72.56
432.79	60.85
432.97	4.68
433.16	0.00
433.35	67.88
433.54	30.43
433.72	67.88
433.91	74.90
434.10	114.69
434.28	60.85
434.47	51.49
434.66	28.09
434.85	65.54
435.03	42.13
435.22	23.41
435.41	0.00
435.59	0.00
435.78	25.75
435.97	56.17
436.16	67.88
436.34	79.58
436.53	0.00
436.72	4.68
436.90	39.79
437.09	72.56
437.28	74.90
437.46	0.00
437.65	51.49
437.84	9.36
438.02	14.04
438.21	0.00
438.40	28.09
438.58	46.81
438.77	0.00
438.96	72.56
439.14	0.00
439.33	56.17
439.52	65.54
439.70	30.43
439.89	51.49
440.08	21.06
440.26	28.09
440.45	23.41
440.63	51.49
440.82	23.41
441.01	56.17
441.19	0.00
441.38	28.09
441.57	35.11
441.75	28.09
441.94	95.96
442.12	0.00
442.31	9.36
442.50	0.00
442.68	39.79
442.87	9.36
443.05	25.75
443.24	56.17
443.43	74.90
443.61	28.09
443.80	21.06
443.98	49.15
444.17	79.58
444.35	0.00
444.54	0.00
444.73	32.77
444.91	28.09
445.10	0.00
445.28	16.38
445.47	51.49
445.65	93.62
445.84	53.83
446.02	0.00
446.21	0.00
446.39	23.41
446.58	46.81
446.77	70.22
446.95	30.43
447.14	25.75
447.32	81.92
447.51	30.43
447.69	30.43
447.88	30.43
448.06	9.36
448.25	18.72
448.43	56.17
448.62	51.49
448.80	51.49
448.99	70.22
449.17	51.49
449.36	81.92
449.54	74.90
449.73	0.00
449.91	58.51
450.10	105.32
450.28	39.79
450.46	53.83
450.65	70.22
450.83	39.79
451.02	18.72
451.20	0.00
451.39	42.13
451.57	21.06
451.76	2.34
451.94	30.43
452.13	21.06
452.31	42.13
452.49	93.62
452.68	28.09
452.86	0.00
453.05	60.85
453.23	11.70
453.42	0.00
453.60	25.75
453.78	63.19
453.97	0.00
454.15	70.22
454.34	14.04
454.52	60.85
454.70	7.02
454.89	53.83
455.07	79.58
455.26	0.00
455.44	58.51
455.62	0.00
455.81	0.00
455.99	4.68
456.17	16.38
456.36	0.00
456.54	102.98
456.73	77.24
456.91	0.00
457.09	44.47
457.28	0.00
457.46	14.04
457.64	28.09
457.83	0.00
458.01	70.22
458.19	39.79
458.38	16.38
458.56	44.47
458.74	65.54
458.93	0.00
459.11	84.26
459.29	35.11
459.48	0.00
459.66	51.49
459.84	0.00
460.03	98.30
460.21	51.49
460.39	42.13
460.57	84.26
460.76	18.72
460.94	18.72
461.12	53.83
461.31	46.81
461.49	84.26
461.67	114.69
461.85	51.49
462.04	0.00
462.22	2.34
462.40	0.00
462.59	0.00
462.77	58.51
462.95	0.00
463.13	35.11
463.32	51.49
463.50	0.00
463.68	39.79
463.86	95.96
464.05	0.00
464.23	39.79
464.41	35.11
464.59	60.85
464.78	58.51
464.96	0.00
465.14	23.41
465.32	0.00
465.50	37.45
465.69	0.00
465.87	46.81
466.05	9.36
466.23	0.00
466.41	63.19
466.60	4.68
466.78	0.00
466.96	51.49
467.14	0.00
467.32	35.11
467.51	28.09
467.69	18.72
467.87	0.00
468.05	28.09
468.23	63.19
468.41	53.83
468.60	58.51
468.78	25.75
468.96	105.32
469.14	0.00
469.32	56.17
469.50	0.00
469.69	110.01
469.87	77.24
470.05	46.81
470.23	44.47
470.41	7.02
470.59	30.43
470.77	0.00
470.95	25.75
471.14	53.83
471.32	60.85
471.50	0.00
471.68	28.09
471.86	35.11
472.04	0.00
472.22	79.58
472.40	16.38
472.58	51.49
472.77	39.79
472.95	0.00
473.13	42.13
473.31	51.49
473.49	2.34
473.67	0.00
473.85	0.00
474.03	46.81
474.21	42.13
474.39	131.07
474.57	79.58
474.75	11.70
474.93	25.75
475.12	42.13
475.30	58.51
475.48	49.15
475.66	53.83
475.84	16.38
476.02	30.43
476.20	0.00
476.38	42.13
476.56	0.00
476.74	65.54
476.92	42.13
477.10	39.79
477.28	32.77
477.46	32.77
477.64	4.68
477.82	0.00
478.00	16.38
478.18	60.85
478.36	65.54
478.54	37.45
478.72	21.06
478.90	86.60
479.08	56.17
479.26	0.00
479.44	25.75
479.62	0.00
479.80	74.90
479.98	56.17
480.16	0.00
480.34	0.00
480.52	65.54
480.70	18.72
480.88	0.00
481.06	67.88
481.24	35.11
481.41	32.77
481.59	18.72
481.77	79.58
481.95	51.49
482.13	63.19
482.31	2.34
482.49	28.09
482.67	32.77
482.85	74.90
483.03	81.92
483.21	25.75
483.39	32.77
483.57	98.30
483.74	46.81
483.92	11.70
484.10	46.81
484.28	16.38
484.46	4.68
484.64	0.00
484.82	0.00
485.00	56.17
485.18	49.15
485.35	77.24
485.53	25.75
485.71	30.43
485.89	0.00
486.07	9.36
486.25	18.72
486.43	7.02
486.61	37.45
486.78	0.00
486.96	11.70
487.14	95.96
487.32	37.45
487.50	91.28
487.68	4.68
487.85	0.00
488.03	16.38
488.21	58.51
488.39	23.41
488.57	0.00
488.75	65.54
488.92	107.66
489.10	16.38
489.28	91.28
489.46	60.85
489.64	84.26
489.81	0.00
489.99	49.15
490.17	2.34
490.35	138.09
490.53	9.36
490.70	32.77
490.88	18.72
491.06	37.45
491.24	18.72
491.41	23.41
491.59	21.06
491.77	23.41
491.95	0.00
492.13	77.24
492.30	2.34
492.48	0.00
492.66	18.72
492.84	0.00
493.01	72.56
493.19	28.09
493.37	77.24
493.54	25.75
493.72	23.41
493.90	72.56
494.08	44.47
494.25	21.06
494.43	32.77
494.61	53.83
494.79	0.00
494.96	56.17
495.14	32.77
495.32	70.22
495.49	65.54
495.67	0.00
495.85	0.00
496.02	16.38
496.20	0.00
496.38	0.00
496.55	49.15
496.73	32.77
496.91	51.49
497.09	60.85
497.26	0.00
497.44	11.70
497.62	2.34
497.79	21.06
497.97	0.00
498.14	0.00
498.32	53.83
498.50	86.60
498.67	44.47
498.85	25.75
499.03	60.85
499.20	63.19
499.38	49.15
499.56	102.98
499.73	42.13
499.91	63.19
500.08	56.17
500.26	81.92
500.44	30.43
500.61	105.32
500.79	0.00
500.97	37.45
501.14	86.60
501.32	9.36
501.49	4.68
501.67	0.00
501.84	100.64
502.02	4.68
502.20	11.70
502.37	25.75
502.55	58.51
502.72	35.11
502.90	37.45
503.07	63.19
503.25	65.54
503.43	49.15
503.60	32.77
503.78	51.49
503.95	93.62
504.13	23.41
504.30	49.15
504.48	0.00
504.65	32.77
504.83	0.00
505.01	7.02
505.18	18.72
505.36	42.13
505.53	74.90
505.71	77.24
505.88	30.43
506.06	49.15
506.23	32.77
506.41	56.17
506.58	53.83
506.76	42.13
506.93	53.83
507.11	9.36
507.28	0.00
507.46	77.24
507.63	112.35
507.81	7.02
507.98	70.22
508.16	4.68
508.33	67.88
508.50	56.17
508.68	0.00
508.85	42.13
509.03	37.45
509.20	42.13
509.38	65.54
509.55	9.36
509.73	0.00
509.90	56.17
510.08	0.00
510.25	28.09
510.42	39.79
510.60	7.02
510.77	7.02
510.95	35.11
511.12	7.02
511.30	9.36
511.47	14.04
511.64	74.90
511.82	67.88
511.99	100.64
512.17	28.09
512.34	37.45
512.51	70.22
512.69	51.49
512.86	44.47
513.04	23.41
513.21	30.43
513.38	7.02
513.56	67.88
513.73	49.15
513.90	37.45
514.08	0.00
514.25	53.83
514.43	35.11
514.60	56.17
514.77	53.83
514.95	0.00
515.12	11.70
515.29	42.13
515.47	32.77
515.64	18.72
515.81	37.45
515.99	2.34
516.16	88.94
516.33	110.01
516.51	35.11
516.68	0.00
516.85	25.75
517.03	0.00
517.20	58.51
517.37	0.00
517.54	9.36
517.72	67.88
517.89	51.49
518.06	39.79
518.24	39.79
518.41	16.38
518.58	93.62
518.75	35.11
518.93	86.60
519.10	58.51
519.27	53.83
519.45	28.09
519.62	60.85
519.79	18.72
519.96	51.49
520.14	60.85
520.31	21.06
520.48	23.41
520.65	44.47
520.83	0.00
521.00	39.79
521.17	46.81
521.34	49.15
521.52	0.00
521.69	95.96
521.86	98.30
522.03	60.85
522.20	105.32
522.38	4.68
522.55	67.88
522.72	42.13
522.89	79.58
523.07	0.00
523.24	9.36
523.41	98.30
523.58	53.83
523.75	0.00
523.92	65.54
524.10	0.00
524.27	67.88
524.44	30.43
524.61	0.00
524.78	42.13
524.96	100.64
525.13	51.49
525.30	86.60
525.47	60.85
525.64	0.00
525.81	4.68
525.98	0.00
526.16	42.13
526.33	42.13
526.50	21.06
526.67	49.15
526.84	35.11
527.01	0.00
527.18	42.13
527.36	74.90
527.53	23.41
527.70	28.09
527.87	18.72
528.04	79.58
528.21	0.00
528.38	77.24
528.55	58.51
528.72	65.54
528.89	9.36
529.07	35.11
529.24	35.11
529.41	51.49
529.58	70.22
529.75	79.58
529.92	7.02
530.09	30.43
530.26	35.11
530.43	91.28
530.60	44.47
530.77	25.75
530.94	95.96
531.11	18.72
531.28	46.81
531.46	49.15
531.63	44.47
531.80	23.41
531.97	93.62
532.14	70.22
532.31	0.00
532.48	14.04
532.65	60.85
532.82	11.70
532.99	0.00
533.16	53.83
533.33	0.00
533.50	42.13
533.67	58.51
533.84	0.00
534.01	0.00
534.18	37.45
534.35	11.70
534.52	14.04
534.69	0.00
534.86	74.90
535.03	70.22
535.20	74.90
535.37	177.88
535.54	0.00
535.71	35.11
535.88	2.34
536.05	7.02
536.22	46.81
536.38	0.00
536.55	0.00
536.72	14.04
536.89	163.84
537.06	35.11
537.23	32.77
537.40	21.06
537.57	0.00
537.74	9.36
537.91	51.49
538.08	88.94
538.25	72.56
538.42	25.75
538.59	32.77
538.75	23.41
538.92	95.96
539.09	72.56
539.26	60.85
539.43	42.13
539.60	53.83
539.77	79.58
539.94	0.00
540.11	42.13
540.28	30.43
540.44	32.77
540.61	0.00
540.78	30.43
540.95	0.00
541.12	0.00
541.29	0.00
541.46	16.38
541.62	44.47
541.79	56.17
541.96	79.58
542.13	25.75
542.30	74.90
542.47	0.00
542.63	28.09
542.80	70.22
542.97	25.75
543.14	7.02
543.31	67.88
543.48	70.22
543.64	67.88
543.81	58.51
543.98	91.28
544.15	0.00
544.32	4.68
544.48	49.15
544.65	56.17
544.82	79.58
544.99	25.75
545.16	67.88
545.32	39.79
545.49	28.09
545.66	0.00
545.83	30.43
546.00	0.00
546.16	7.02
546.33	2.34
546.50	56.17
546.67	49.15
546.83	51.49
547.00	100.64
547.17	28.09
547.34	21.06
547.50	0.00
547.67	0.00
547.84	138.09
548.00	0.00
548.17	21.06
548.34	0.00
548.51	46.81
548.67	58.51
548.84	72.56
549.01	0.00
549.18	63.19
549.34	30.43
549.51	2.34
549.68	49.15
549.84	39.79
550.01	65.54
550.18	65.54
550.34	95.96
550.51	72.56
550.68	53.83
550.84	86.60
551.01	0.00
551.18	126.39
551.34	72.56
551.51	14.04
551.68	131.07
551.84	88.94
552.01	72.56
552.18	32.77
552.34	77.24
552.51	56.17
552.68	11.70
552.84	56.17
553.01	37.45
553.18	49.15
553.34	105.32
553.51	51.49
553.67	18.72
553.84	0.00
554.01	63.19
554.17	81.92
554.34	0.00
554.51	11.70
554.67	0.00
554.84	53.83
555.00	63.19
555.17	56.17
555.33	0.00
555.50	0.00
555.67	18.72
555.83	23.41
556.00	67.88
556.16	91.28
556.33	67.88
556.50	0.00
556.66	28.09
556.83	49.15
556.99	74.90
557.16	4.68
557.32	0.00
557.49	0.00
557.65	74.90
557.82	23.41
557.98	51.49
558.15	0.00
558.32	63.19
558.48	42.13
558.65	37.45
558.81	0.00
558.98	0.00
559.14	53.83
559.31	65.54
559.47	30.43
559.64	9.36
559.80	114.69
559.97	37.45
560.13	72.56
560.30	0.00
560.46	42.13
560.63	0.00
560.79	56.17
560.96	100.64
561.12	11.70
561.29	30.43
561.45	14.04
561.61	86.60
561.78	49.15
561.94	23.41
562.11	11.70
562.27	81.92
562.44	117.03
562.60	72.56
562.77	95.96
562.93	72.56
563.10	21.06
563.26	58.51
563.42	128.73
563.59	114.69
563.75	46.81
563.92	49.15
564.08	14.04
564.24	21.06
564.41	56.17
564.57	37.45
564.74	7.02
564.90	0.00
565.07	67.88
565.23	56.17
565.39	107.66
565.56	0.00
565.72	0.00
565.88	63.19
566.05	0.00
566.21	49.15
566.38	0.00
566.54	0.00
566.70	9.36
566.87	39.79
567.03	84.26
567.19	0.00
567.36	30.43
567.52	30.43
567.68	58.51
567.85	0.00
568.01	0.00
568.17	2.34
568.34	23.41
568.50	9.36
568.66	56.17
568.83	63.19
568.99	42.13
569.15	11.70
569.32	121.71
569.48	0.00
569.64	65.54
569.81	67.88
569.97	23.41
570.13	25.75
570.30	58.51
570.46	72.56
570.62	32.77
570.78	0.00
570.95	110.01
571.11	32.77
571.27	39.79
571.43	49.15
571.60	77.24
571.76	88.94
571.92	0.00
572.09	28.09
572.25	46.81
572.41	53.83
572.57	49.15
572.74	25.75
572.90	30.43
573.06	35.11
573.22	74.90
573.38	93.62
573.55	0.00
573.71	18.72
573.87	70.22
574.03	60.85
574.20	58.51
574.36	79.58
574.52	37.45
574.68	23.41
574.84	81.92
575.01	0.00
575.17	49.15
575.33	4.68
575.49	2.34
575.65	0.00
575.82	30.43
575.98	105.32
576.14	11.70
576.30	37.45
576.46	0.00
576.62	0.00
576.79	23.41
576.95	65.54
577.11	51.49
577.27	0.00
577.43	56.17
577.59	53.83
577.75	25.75
577.92	35.11
578.08	60.85
578.24	39.79
578.40	51.49
578.56	49.15
578.72	2.34
578.88	0.00
579.04	18.72
579.21	0.00
579.37	35.11
579.53	2.34
579.69	9.36
579.85	39.79
580.01	35.11
580.17	91.28
580.33	58.51
580.49	49.15
580.65	37.45
580.82	58.51
580.98	98.30
581.14	9.36
581.30	42.13
581.46	18.72
581.62	18.72
581.78	46.81
581.94	63.19
582.10	67.88
582.26	9.36
582.42	58.51
582.58	21.06
582.74	56.17
582.90	0.00
583.06	42.13
583.22	0.00
583.38	14.04
583.54	2.34
583.70	79.58
583.86	32.77
584.02	0.00
584.18	0.00
584.34	0.00
584.50	46.81
584.66	35.11
584.82	51.49
584.98	65.54
585.14	21.06
585.30	72.56
585.46	18.72
585.62	77.24
585.78	0.00
585.94	53.83
586.10	4.68
586.26	46.81
586.42	60.85
586.58	28.09
586.74	70.22
586.90	112.35
587.06	72.56
587.22	60.85
587.38	84.26
587.54	16.38
587.70	44.47
587.86	58.51
588.02	32.77
588.18	4.68
588.34	42.13
588.49	60.85
588.65	0.00
588.81	60.85
588.97	16.38
589.13	65.54
589.29	42.13
589.45	32.77
589.61	67.88
589.77	60.85
589.93	72.56
590.08	46.81
590.24	51.49
590.40	21.06
590.56	0.00
590.72	18.72
590.88	0.00
591.04	35.11
591.20	65.54
591.35	53.83
591.51	37.45
591.67	0.00
591.83	0.00
591.99	56.17
592.15	58.51
592.31	0.00
592.46	28.09
592.62	0.00
592.78	16.38
592.94	67.88
593.10	11.70
593.26	39.79
593.41	42.13
593.57	35.11
593.73	79.58
593.89	84.26
594.05	0.00
594.20	72.56
594.36	74.90
594.52	128.73
594.68	0.00
594.84	18.72
594.99	0.00
595.15	0.00
595.31	9.36
595.47	39.79
595.62	0.00
595.78	9.36
595.94	93.62
596.10	58.51
596.25	9.36
596.41	14.04
596.57	53.83
596.73	39.79
596.88	49.15
597.04	35.11
597.20	25.75
597.36	86.60
597.51	37.45
597.67	14.04
597.83	65.54
597.99	74.90
598.14	23.41
598.30	63.19
598.46	30.43
598.61	98.30
598.77	39.79
598.93	44.47
599.09	28.09
599.24	35.11
599.40	58.51
599.56	0.00
599.71	51.49
599.87	0.00
600.03	53.83
600.18	0.00
600.34	84.26
600.50	0.00
600.65	65.54
600.81	60.85
600.97	30.43
601.12	0.00
601.28	107.66
601.44	30.43
601.59	58.51
601.75	39.79
601.91	98.30
602.06	2.34
602.22	28.09
602.37	14.04
602.53	23.41
602.69	35.11
602.84	32.77
603.00	49.15
603.16	56.17
603.31	28.09
603.47	56.17
603.62	65.54
603.78	49.15
603.94	23.41
604.09	60.85
604.25	39.79
604.40	4.68
604.56	49.15
604.71	46.81
604.87	0.00
605.03	0.00
605.18	7.02
605.34	70.22
605.49	79.58
605.65	37.45
605.80	93.62
605.96	0.00
606.12	51.49
606.27	56.17
606.43	0.00
606.58	0.00
606.74	23.41
606.89	60.85
607.05	86.60
607.20	0.00
607.36	11.70
607.51	0.00
607.67	0.00
607.82	32.77
607.98	58.51
608.13	42.13
608.29	0.00
608.44	35.11
608.60	30.43
608.75	60.85
608.91	51.49
609.06	70.22
609.22	39.79
609.37	67.88
609.53	18.72
609.68	25.75
609.84	30.43
609.99	30.43
610.15	23.41
610.30	56.17
610.46	16.38
610.61	0.00
610.76	9.36
610.92	49.15
611.07	67.88
611.23	0.00
611.38	72.56
611.54	32.77
611.69	56.17
611.84	65.54
612.00	49.15
612.15	51.49
612.31	39.79
612.46	21.06
612.62	42.13
612.77	46.81
612.92	86.60
613.08	65.54
613.23	30.43
613.39	81.92
613.54	28.09
613.69	37.45
613.85	86.60
614.00	67.88
614.15	58.51
614.31	4.68
614.46	35.11
614.62	28.09
614.77	0.00
614.92	77.24
615.08	0.00
615.23	4.68
615.38	86.60
615.54	63.19
615.69	42.13
615.84	23.41
616.00	28.09
616.15	0.00
616.30	39.79
616.46	0.00
616.61	25.75
616.76	32.77
616.92	0.00
617.07	23.41
617.22	0.00
617.37	35.11
617.53	0.00
617.68	42.13
617.83	145.11
617.99	18.72
618.14	16.38
618.29	39.79
618.45	0.00
618.60	21.06
618.75	21.06
618.90	21.06
619.06	4.68
619.21	60.85
619.36	46.81
619.51	91.28
619.67	16.38
619.82	42.13
619.97	72.56
620.12	25.75
620.28	70.22
620.43	4.68
620.58	37.45
620.73	30.43
620.89	14.04
621.04	53.83
621.19	30.43
621.34	81.92
621.49	65.54
621.65	32.77
621.80	46.81
621.95	0.00
622.10	0.00
622.25	32.77
622.41	23.41
622.56	81.92
622.71	49.15
622.86	49.15
623.01	72.56
623.16	23.41
623.32	70.22
623.47	28.09
623.62	30.43
623.77	56.17
623.92	16.38
624.07	21.06
624.23	23.41
624.38	0.00
624.53	0.00
624.68	7.02
624.83	72.56
624.98	46.81
625.13	79.58
625.29	65.54
625.44	2.34
625.59	0.00
625.74	70.22
625.89	72.56
626.04	0.00
626.19	23.41
626.34	51.49
626.49	42.13
626.65	84.26
626.80	7.02
626.95	93.62
627.10	35.11
627.25	32.77
627.40	0.00
627.55	23.41
627.70	25.75
627.85	14.04
628.00	60.85
628.15	56.17
628.30	0.00
628.45	35.11
628.60	18.72
628.76	30.43
628.91	35.11
629.06	0.00
629.21	0.00
629.36	28.09
629.51	30.43
629.66	11.70
629.81	58.51
629.96	4.68
630.11	53.83
630.26	46.81
630.41	14.04
630.56	72.56
630.71	0.00
630.86	25.75
631.01	28.09
631.16	30.43
631.31	30.43
631.46	7.02
631.61	56.17
631.76	18.72
631.91	30.43
632.06	79.58
632.21	140.43
632.36	67.88
632.51	35.11
632.66	18.72
632.81	53.83
632.96	9.36
633.10	0.00
633.25	23.41
633.40	0.00
633.55	11.70
633.70	16.38
633.85	70.22
634.00	14.04
634.15	11.70
634.30	2.34
634.45	32.77
634.60	70.22
634.75	35.11
634.90	72.56
635.05	0.00
635.19	58.51
635.34	28.09
635.49	7.02
635.64	49.15
635.79	9.36
635.94	49.15
636.09	0.00
636.24	0.00
636.39	16.38
636.53	44.47
636.68	30.43
636.83	16.38
636.98	23.41
637.13	0.00
637.28	7.02
637.43	30.43
637.57	42.13
637.72	58.51
637.87	0.00
638.02	9.36
638.17	32.77
638.32	44.47
638.46	23.41
638.61	42.13
638.76	39.79
638.91	23.41
639.06	18.72
639.20	30.43
639.35	39.79
639.50	0.00
639.65	63.19
639.80	0.00
639.94	60.85
640.09	107.66
640.24	110.01
640.39	37.45
640.54	14.04
640.68	110.01
640.83	0.00
640.98	0.00
641.13	39.79
641.27	121.71
641.42	0.00
641.57	0.00
641.72	0.00
641.86	95.96
642.01	23.41
642.16	25.75
642.31	39.79
642.45	0.00
642.60	58.51
642.75	51.49
642.90	0.00
643.04	42.13
643.19	67.88
643.34	4.68
643.48	35.11
643.63	39.79
643.78	49.15
643.93	77.24
644.07	67.88
644.22	0.00
644.37	32.77
644.51	21.06
644.66	0.00
644.81	16.38
644.95	18.72
645.10	49.15
645.25	46.81
645.39	21.06
645.54	70.22
645.69	56.17
645.83	56.17
645.98	63.19
646.13	100.64
646.27	86.60
646.42	88.94
646.57	0.00
646.71	7.02
646.86	11.70
647.00	23.41
647.15	30.43
647.30	58.51
647.44	0.00
647.59	32.77
647.74	81.92
647.88	70.22
648.03	56.17
648.17	25.75
648.32	65.54
648.47	51.49
648.61	74.90
648.76	30.43
648.90	49.15
649.05	18.72
649.20	0.00
649.34	112.35
649.49	0.00
649.63	0.00
649.78	51.49
649.92	7.02
650.07	56.17
650.21	14.04
650.36	9.36
650.51	14.04
650.65	37.45
650.80	37.45
650.94	88.94
651.09	35.11
651.23	30.43
651.38	72.56
651.52	0.00
651.67	28.09
651.81	14.04
651.96	35.11
652.10	98.30
652.25	53.83
652.39	74.90
652.54	0.00
652.68	70.22
652.83	84.26
652.97	25.75
653.12	18.72
653.26	100.64
653.41	0.00
653.55	0.00
653.70	100.64
653.84	16.38
653.99	65.54
654.13	81.92
654.27	65.54
654.42	72.56
654.56	67.88
654.71	53.83
654.85	70.22
655.00	93.62
655.14	56.17
655.29	70.22
655.43	46.81
655.57	60.85
655.72	51.49
655.86	0.00
656.01	23.41
656.15	63.19
656.30	98.30
656.44	53.83
656.58	0.00
656.73	53.83
656.87	79.58
657.01	2.34
657.16	93.62
657.30	11.70
657.45	0.00
657.59	67.88
657.73	16.38
657.88	46.81
658.02	95.96
658.16	11.70
658.31	51.49
658.45	37.45
658.60	28.09
658.74	0.00
658.88	46.81
659.03	35.11
659.17	21.06
659.31	0.00
659.46	11.70
659.60	0.00
659.74	0.00
659.89	58.51
660.03	30.43
660.17	58.51
660.32	95.96
660.46	37.45
660.60	21.06
660.74	81.92
660.89	0.00
661.03	105.32
661.17	74.90
661.32	0.00
661.46	0.00
661.60	70.22
661.74	14.04
661.89	72.56
662.03	46.81
662.17	30.43
662.31	77.24
662.46	49.15
662.60	32.77
662.74	42.13
662.88	28.09
663.03	0.00
663.17	0.00
663.31	70.22
663.45	14.04
663.60	0.00
663.74	65.54
663.88	0.00
664.02	2.34
664.17	56.17
664.31	0.00
664.45	70.22
664.59	56.17
664.73	0.00
664.88	0.00
665.02	74.90
665.16	93.62
665.30	49.15
665.44	42.13
665.59	110.01
665.73	102.98
665.87	86.60
666.01	35.11
666.15	60.85
666.29	93.62
666.44	21.06
666.58	65.54
666.72	30.43
666.86	67.88
667.00	0.00
667.14	74.90
667.28	23.41
667.43	0.00
667.57	23.41
667.71	0.00
667.85	0.00
667.99	60.85
668.13	53.83
668.27	42.13
668.41	0.00
668.56	107.66
668.70	44.47
668.84	51.49
668.98	28.09
669.12	63.19
669.26	4.68
669.40	32.77
669.54	0.00
669.68	72.56
669.82	39.79
669.96	30.43
670.10	49.15
670.25	32.77
670.39	79.58
670.53	91.28
670.67	79.58
670.81	117.03
670.95	53.83
671.09	28.09
671.23	56.17
671.37	42.13
671.51	93.62
671.65	0.00
671.79	86.60
671.93	35.11
672.07	7.02
672.21	56.17
672.35	102.98
672.49	56.17
672.63	35.11
672.77	35.11
672.91	46.81
673.05	0.00
673.19	9.36
673.33	0.00
673.47	117.03
673.61	7.02
673.75	46.81
673.89	7.02
674.03	72.56
674.17	95.96
674.31	56.17
674.45	81.92
674.59	56.17
674.73	67.88
674.87	18.72
675.01	0.00
675.15	0.00
675.29	11.70
675.43	0.00
675.56	25.75
675.70	44.47
675.84	72.56
675.98	91.28
676.12	16.38
676.26	42.13
676.40	74.90
676.54	30.43
676.68	37.45
676.82	100.64
676.96	0.00
677.10	0.00
677.23	72.56
677.37	53.83
677.51	39.79
677.65	37.45
677.79	32.77
677.93	0.00
678.07	2.34
678.21	0.00
678.34	46.81
678.48	30.43
678.62	0.00
678.76	2.34
678.90	74.90
679.04	14.04
679.18	28.09
679.31	35.11
679.45	0.00
679.59	53.83
679.73	30.43
679.87	46.81
680.00	72.56
680.14	98.30
680.28	37.45
680.42	51.49
680.56	0.00
680.70	0.00
680.83	28.09
680.97	14.04
681.11	0.00
681.25	18.72
681.39	32.77
681.52	0.00
681.66	0.00
681.80	37.45
681.94	95.96
682.07	18.72
682.21	0.00
682.35	81.92
682.49	102.98
682.62	14.04
682.76	58.51
682.90	42.13
683.04	0.00
683.17	44.47
683.31	2.34
683.45	51.49
683.59	35.11
683.72	39.79
683.86	23.41
684.00	0.00
684.13	14.04
684.27	53.83
684.41	2.34
684.55	0.00
684.68	4.68
684.82	35.11
684.96	16.38
685.09	44.47
685.23	0.00
685.37	86.60
685.50	112.35
685.64	0.00
685.78	30.43
685.91	28.09
686.05	42.13
686.19	0.00
686.32	32.77
686.46	0.00
686.60	0.00
686.73	49.15
686.87	0.00
687.01	0.00
687.14	11.70
687.28	32.77
687.42	25.75
687.55	0.00
687.69	46.81
687.82	63.19
687.96	21.06
688.10	21.06
688.23	0.00
688.37	23.41
688.50	56.17
688.64	98.30
688.78	16.38
688.91	0.00
689.05	60.85
689.18	18.72
689.32	32.77
689.46	60.85
689.59	70.22
689.73	0.00
689.86	23.41
690.00	0.00
690.13	16.38
690.27	18.72
690.41	0.00
690.54	42.13
690.68	18.72
690.81	72.56
690.95	2.34
691.08	70.22
691.22	0.00
691.35	7.02
691.49	67.88
691.62	49.15
691.76	53.83
691.89	72.56
692.03	7.02
692.16	9.36
692.30	63.19
692.43	9.36
692.57	7.02
692.70	0.00
692.84	0.00
692.97	0.00
693.11	25.75
693.24	60.85
693.38	30.43
693.51	7.02
693.65	42.13
693.78	0.00
693.92	4.68
694.05	46.81
694.19	65.54
694.32	81.92
694.45	18.72
694.59	117.03
694.72	49.15
694.86	60.85
694.99	81.92
695.13	0.00
695.26	84.26
695.39	84.26
695.53	86.60
695.66	131.07
695.80	23.41
695.93	42.13
696.07	37.45
696.20	25.75
696.33	0.00
696.47	72.56
696.60	14.04
696.73	60.85
696.87	65.54
697.00	14.04
697.14	18.72
697.27	9.36
697.40	74.90
697.54	32.77
697.67	114.69
697.80	32.77
697.94	0.00
698.07	53.83
698.21	4.68
698.34	23.41
698.47	32.77
698.61	72.56
698.74	37.45
698.87	0.00
699.01	39.79
699.14	0.00
699.27	18.72
699.40	110.01
699.54	11.70
699.67	0.00
699.80	18.72
699.94	81.92
700.07	18.72
700.20	0.00
700.34	0.00
700.47	86.60
700.60	117.03
700.73	11.70
700.87	46.81
701.00	46.81
701.13	0.00
701.26	70.22
701.40	18.72
701.53	0.00
701.66	117.03
701.79	0.00
701.93	30.43
702.06	14.04
702.19	0.00
702.32	35.11
702.46	79.58
702.59	25.75
702.72	37.45
702.85	0.00
702.99	0.00
703.12	70.22
703.25	42.13
703.38	35.11
703.51	7.02
703.65	107.66
703.78	0.00
703.91	35.11
704.04	0.00
704.17	25.75
704.31	37.45
704.44	70.22
704.57	95.96
704.70	51.49
704.83	0.00
704.96	4.68
705.10	0.00
705.23	49.15
>>>>>End Processed Spectral Data<<<<<
