SpectraSuite Data File
++++++++++++++++++++++++++++++++++++
Date: Fri Oct 04 12:13:30 GMT-05:00 2013
User: price-jones
Dark Spectrum Present: No
Reference Spectrum Present: No
Number of Sampled Component Spectra: 1
Spectrometers: USB2+H05261
Integration Time (usec): 10000 (USB2+H05261)
Spectra Averaged: 1 (USB2+H05261)
Boxcar Smoothing: 0 (USB2+H05261)
Correct for Electrical Dark: No (USB2+H05261)
Strobe/Lamp Enabled: No (USB2+H05261)
Correct for Detector Non-linearity: No (USB2+H05261)
Correct for Stray Light: No (USB2+H05261)
Number of Pixels in Processed Spectrum: 2048
>>>>>Begin Processed Spectral Data<<<<<
365.73	0.00
365.92	0.00
366.12	0.00
366.32	0.00
366.52	0.00
366.72	0.00
366.91	0.00
367.11	0.00
367.31	0.00
367.51	0.00
367.70	0.00
367.90	0.00
368.10	0.00
368.30	0.00
368.49	0.00
368.69	0.00
368.89	0.00
369.09	0.00
369.28	0.00
369.48	0.00
369.68	0.00
369.87	0.00
370.07	0.00
370.27	0.00
370.47	0.00
370.66	0.00
370.86	0.00
371.06	0.00
371.25	23.41
371.45	0.00
371.65	30.43
371.84	0.00
372.04	28.09
372.24	91.28
372.44	7.02
372.63	0.00
372.83	21.06
373.03	49.15
373.22	0.00
373.42	7.02
373.62	63.19
373.81	39.79
374.01	65.54
374.21	84.26
374.40	0.00
374.60	30.43
374.79	51.49
374.99	32.77
375.19	21.06
375.38	60.85
375.58	63.19
375.78	35.11
375.97	124.05
376.17	28.09
376.37	23.41
376.56	49.15
376.76	0.00
376.95	0.00
377.15	0.00
377.35	16.38
377.54	14.04
377.74	53.83
377.93	56.17
378.13	9.36
378.33	70.22
378.52	70.22
378.72	79.58
378.91	56.17
379.11	72.56
379.31	56.17
379.50	51.49
379.70	25.75
379.89	42.13
380.09	35.11
380.28	11.70
380.48	4.68
380.68	46.81
380.87	28.09
381.07	53.83
381.26	49.15
381.46	23.41
381.65	0.00
381.85	28.09
382.04	2.34
382.24	39.79
382.43	23.41
382.63	37.45
382.83	14.04
383.02	0.00
383.22	2.34
383.41	67.88
383.61	0.00
383.80	23.41
384.00	25.75
384.19	14.04
384.39	98.30
384.58	39.79
384.78	0.00
384.97	0.00
385.17	140.43
385.36	16.38
385.56	0.00
385.75	0.00
385.95	0.00
386.14	0.00
386.34	0.00
386.53	18.72
386.72	9.36
386.92	23.41
387.11	23.41
387.31	9.36
387.50	42.13
387.70	0.00
387.89	21.06
388.09	0.00
388.28	7.02
388.48	0.00
388.67	0.00
388.86	0.00
389.06	37.45
389.25	0.00
389.45	32.77
389.64	0.00
389.84	0.00
390.03	56.17
390.22	7.02
390.42	2.34
390.61	18.72
390.81	46.81
391.00	21.06
391.19	0.00
391.39	4.68
391.58	42.13
391.78	0.00
391.97	0.00
392.16	0.00
392.36	9.36
392.55	18.72
392.75	56.17
392.94	0.00
393.13	0.00
393.33	86.60
393.52	0.00
393.71	81.92
393.91	0.00
394.10	7.02
394.29	0.00
394.49	35.11
394.68	77.24
394.88	44.47
395.07	0.00
395.26	23.41
395.46	39.79
395.65	0.00
395.84	72.56
396.04	42.13
396.23	0.00
396.42	0.00
396.62	0.00
396.81	65.54
397.00	23.41
397.19	30.43
397.39	58.51
397.58	28.09
397.77	0.00
397.97	4.68
398.16	0.00
398.35	0.00
398.55	91.28
398.74	23.41
398.93	42.13
399.12	32.77
399.32	35.11
399.51	39.79
399.70	0.00
399.90	32.77
400.09	0.00
400.28	0.00
400.47	0.00
400.67	0.00
400.86	0.00
401.05	37.45
401.24	18.72
401.44	42.13
401.63	0.00
401.82	0.00
402.01	35.11
402.21	0.00
402.40	70.22
402.59	51.49
402.78	121.71
402.97	79.58
403.17	46.81
403.36	0.00
403.55	74.90
403.74	0.00
403.93	18.72
404.13	14.04
404.32	9.36
404.51	18.72
404.70	18.72
404.89	18.72
405.09	35.11
405.28	37.45
405.47	0.00
405.66	44.47
405.85	53.83
406.05	67.88
406.24	30.43
406.43	25.75
406.62	56.17
406.81	25.75
407.00	46.81
407.20	23.41
407.39	14.04
407.58	7.02
407.77	0.00
407.96	16.38
408.15	28.09
408.34	23.41
408.54	46.81
408.73	65.54
408.92	58.51
409.11	49.15
409.30	53.83
409.49	65.54
409.68	42.13
409.87	0.00
410.07	51.49
410.26	0.00
410.45	84.26
410.64	4.68
410.83	0.00
411.02	4.68
411.21	35.11
411.40	0.00
411.59	28.09
411.78	35.11
411.98	86.60
412.17	0.00
412.36	37.45
412.55	16.38
412.74	7.02
412.93	72.56
413.12	25.75
413.31	0.00
413.50	44.47
413.69	16.38
413.88	0.00
414.07	70.22
414.26	0.00
414.45	25.75
414.64	100.64
414.83	14.04
415.02	0.00
415.22	2.34
415.41	0.00
415.60	46.81
415.79	49.15
415.98	0.00
416.17	7.02
416.36	21.06
416.55	0.00
416.74	44.47
416.93	79.58
417.12	0.00
417.31	25.75
417.50	25.75
417.69	25.75
417.88	0.00
418.07	21.06
418.26	74.90
418.45	0.00
418.64	23.41
418.83	16.38
419.02	0.00
419.21	0.00
419.39	77.24
419.58	0.00
419.77	56.17
419.96	98.30
420.15	25.75
420.34	46.81
420.53	21.06
420.72	56.17
420.91	42.13
421.10	39.79
421.29	0.00
421.48	51.49
421.67	9.36
421.86	67.88
422.05	7.02
422.24	60.85
422.43	53.83
422.61	23.41
422.80	77.24
422.99	11.70
423.18	18.72
423.37	0.00
423.56	9.36
423.75	0.00
423.94	84.26
424.13	0.00
424.32	37.45
424.50	9.36
424.69	77.24
424.88	58.51
425.07	0.00
425.26	56.17
425.45	0.00
425.64	46.81
425.83	81.92
426.01	0.00
426.20	0.00
426.39	18.72
426.58	107.66
426.77	28.09
426.96	56.17
427.15	53.83
427.33	4.68
427.52	28.09
427.71	32.77
427.90	0.00
428.09	42.13
428.28	25.75
428.46	28.09
428.65	35.11
428.84	58.51
429.03	0.00
429.22	0.00
429.40	28.09
429.59	42.13
429.78	2.34
429.97	67.88
430.16	65.54
430.34	32.77
430.53	23.41
430.72	0.00
430.91	4.68
431.10	105.32
431.28	42.13
431.47	100.64
431.66	21.06
431.85	14.04
432.03	65.54
432.22	46.81
432.41	30.43
432.60	138.09
432.79	23.41
432.97	72.56
433.16	44.47
433.35	74.90
433.54	51.49
433.72	60.85
433.91	74.90
434.10	49.15
434.28	21.06
434.47	0.00
434.66	102.98
434.85	25.75
435.03	79.58
435.22	77.24
435.41	0.00
435.59	0.00
435.78	65.54
435.97	0.00
436.16	0.00
436.34	14.04
436.53	67.88
436.72	42.13
436.90	7.02
437.09	72.56
437.28	51.49
437.46	0.00
437.65	16.38
437.84	49.15
438.02	70.22
438.21	135.75
438.40	58.51
438.58	32.77
438.77	32.77
438.96	70.22
439.14	23.41
439.33	67.88
439.52	23.41
439.70	21.06
439.89	42.13
440.08	0.00
440.26	0.00
440.45	95.96
440.63	39.79
440.82	0.00
441.01	65.54
441.19	60.85
441.38	0.00
441.57	28.09
441.75	49.15
441.94	0.00
442.12	51.49
442.31	4.68
442.50	23.41
442.68	0.00
442.87	28.09
443.05	0.00
443.24	0.00
443.43	105.32
443.61	98.30
443.80	28.09
443.98	14.04
444.17	60.85
444.35	65.54
444.54	0.00
444.73	28.09
444.91	30.43
445.10	30.43
445.28	0.00
445.47	63.19
445.65	70.22
445.84	0.00
446.02	35.11
446.21	51.49
446.39	0.00
446.58	0.00
446.77	60.85
446.95	23.41
447.14	4.68
447.32	128.73
447.51	70.22
447.69	21.06
447.88	74.90
448.06	25.75
448.25	28.09
448.43	0.00
448.62	16.38
448.80	0.00
448.99	0.00
449.17	56.17
449.36	53.83
449.54	63.19
449.73	60.85
449.91	102.98
450.10	0.00
450.28	0.00
450.46	60.85
450.65	39.79
450.83	28.09
451.02	44.47
451.20	18.72
451.39	23.41
451.57	53.83
451.76	93.62
451.94	0.00
452.13	30.43
452.31	77.24
452.49	67.88
452.68	44.47
452.86	53.83
453.05	46.81
453.23	0.00
453.42	9.36
453.60	11.70
453.78	32.77
453.97	0.00
454.15	30.43
454.34	18.72
454.52	0.00
454.70	0.00
454.89	95.96
455.07	16.38
455.26	21.06
455.44	70.22
455.62	0.00
455.81	70.22
455.99	14.04
456.17	18.72
456.36	0.00
456.54	51.49
456.73	67.88
456.91	79.58
457.09	49.15
457.28	0.00
457.46	0.00
457.64	4.68
457.83	39.79
458.01	86.60
458.19	0.00
458.38	0.00
458.56	0.00
458.74	42.13
458.93	7.02
459.11	60.85
459.29	18.72
459.48	63.19
459.66	37.45
459.84	56.17
460.03	72.56
460.21	0.00
460.39	44.47
460.57	9.36
460.76	58.51
460.94	18.72
461.12	72.56
461.31	39.79
461.49	4.68
461.67	0.00
461.85	28.09
462.04	51.49
462.22	93.62
462.40	88.94
462.59	0.00
462.77	44.47
462.95	107.66
463.13	0.00
463.32	42.13
463.50	39.79
463.68	42.13
463.86	21.06
464.05	7.02
464.23	0.00
464.41	65.54
464.59	42.13
464.78	11.70
464.96	0.00
465.14	39.79
465.32	32.77
465.50	49.15
465.69	30.43
465.87	21.06
466.05	53.83
466.23	0.00
466.41	65.54
466.60	49.15
466.78	51.49
466.96	28.09
467.14	149.79
467.32	53.83
467.51	46.81
467.69	18.72
467.87	51.49
468.05	21.06
468.23	11.70
468.41	28.09
468.60	14.04
468.78	37.45
468.96	84.26
469.14	4.68
469.32	7.02
469.50	4.68
469.69	98.30
469.87	25.75
470.05	98.30
470.23	35.11
470.41	0.00
470.59	4.68
470.77	23.41
470.95	44.47
471.14	100.64
471.32	0.00
471.50	46.81
471.68	0.00
471.86	39.79
472.04	0.00
472.22	70.22
472.40	14.04
472.58	37.45
472.77	49.15
472.95	4.68
473.13	35.11
473.31	14.04
473.49	0.00
473.67	0.00
473.85	79.58
474.03	23.41
474.21	60.85
474.39	37.45
474.57	35.11
474.75	65.54
474.93	110.01
475.12	28.09
475.30	0.00
475.48	23.41
475.66	11.70
475.84	91.28
476.02	35.11
476.20	70.22
476.38	110.01
476.56	32.77
476.74	39.79
476.92	0.00
477.10	56.17
477.28	81.92
477.46	32.77
477.64	117.03
477.82	11.70
478.00	56.17
478.18	2.34
478.36	0.00
478.54	37.45
478.72	21.06
478.90	95.96
479.08	18.72
479.26	28.09
479.44	0.00
479.62	107.66
479.80	0.00
479.98	44.47
480.16	25.75
480.34	49.15
480.52	32.77
480.70	98.30
480.88	37.45
481.06	46.81
481.24	28.09
481.41	0.00
481.59	81.92
481.77	18.72
481.95	93.62
482.13	30.43
482.31	30.43
482.49	35.11
482.67	42.13
482.85	51.49
483.03	44.47
483.21	60.85
483.39	0.00
483.57	0.00
483.74	32.77
483.92	46.81
484.10	67.88
484.28	21.06
484.46	91.28
484.64	46.81
484.82	21.06
485.00	63.19
485.18	16.38
485.35	39.79
485.53	53.83
485.71	25.75
485.89	7.02
486.07	32.77
486.25	0.00
486.43	9.36
486.61	9.36
486.78	11.70
486.96	0.00
487.14	28.09
487.32	72.56
487.50	56.17
487.68	4.68
487.85	32.77
488.03	0.00
488.21	56.17
488.39	67.88
488.57	37.45
488.75	21.06
488.92	18.72
489.10	35.11
489.28	23.41
489.46	56.17
489.64	0.00
489.81	18.72
489.99	4.68
490.17	81.92
490.35	49.15
490.53	39.79
490.70	79.58
490.88	74.90
491.06	42.13
491.24	74.90
491.41	56.17
491.59	81.92
491.77	9.36
491.95	0.00
492.13	81.92
492.30	70.22
492.48	28.09
492.66	35.11
492.84	51.49
493.01	0.00
493.19	0.00
493.37	0.00
493.54	28.09
493.72	32.77
493.90	67.88
494.08	53.83
494.25	23.41
494.43	0.00
494.61	39.79
494.79	51.49
494.96	107.66
495.14	110.01
495.32	49.15
495.49	58.51
495.67	56.17
495.85	2.34
496.02	56.17
496.20	88.94
496.38	63.19
496.55	110.01
496.73	70.22
496.91	0.00
497.09	98.30
497.26	16.38
497.44	44.47
497.62	51.49
497.79	0.00
497.97	0.00
498.14	88.94
498.32	0.00
498.50	65.54
498.67	37.45
498.85	0.00
499.03	39.79
499.20	0.00
499.38	39.79
499.56	46.81
499.73	79.58
499.91	65.54
500.08	74.90
500.26	105.32
500.44	128.73
500.61	70.22
500.79	67.88
500.97	63.19
501.14	0.00
501.32	32.77
501.49	53.83
501.67	63.19
501.84	4.68
502.02	37.45
502.20	77.24
502.37	60.85
502.55	7.02
502.72	74.90
502.90	51.49
503.07	42.13
503.25	44.47
503.43	67.88
503.60	0.00
503.78	93.62
503.95	9.36
504.13	49.15
504.30	4.68
504.48	30.43
504.65	16.38
504.83	44.47
505.01	35.11
505.18	28.09
505.36	95.96
505.53	21.06
505.71	14.04
505.88	0.00
506.06	4.68
506.23	49.15
506.41	65.54
506.58	112.35
506.76	81.92
506.93	72.56
507.11	14.04
507.28	0.00
507.46	35.11
507.63	9.36
507.81	93.62
507.98	0.00
508.16	65.54
508.33	42.13
508.50	25.75
508.68	49.15
508.85	72.56
509.03	100.64
509.20	53.83
509.38	95.96
509.55	42.13
509.73	49.15
509.90	67.88
510.08	18.72
510.25	77.24
510.42	0.00
510.60	49.15
510.77	91.28
510.95	86.60
511.12	32.77
511.30	39.79
511.47	18.72
511.64	107.66
511.82	56.17
511.99	88.94
512.17	30.43
512.34	16.38
512.51	63.19
512.69	56.17
512.86	98.30
513.04	21.06
513.21	14.04
513.38	81.92
513.56	74.90
513.73	77.24
513.90	0.00
514.08	67.88
514.25	18.72
514.43	56.17
514.60	84.26
514.77	0.00
514.95	49.15
515.12	60.85
515.29	53.83
515.47	44.47
515.64	35.11
515.81	0.00
515.99	37.45
516.16	4.68
516.33	53.83
516.51	81.92
516.68	32.77
516.85	91.28
517.03	0.00
517.20	0.00
517.37	32.77
517.54	51.49
517.72	135.75
517.89	67.88
518.06	84.26
518.24	58.51
518.41	74.90
518.58	51.49
518.75	2.34
518.93	16.38
519.10	49.15
519.27	49.15
519.45	30.43
519.62	23.41
519.79	0.00
519.96	4.68
520.14	0.00
520.31	51.49
520.48	37.45
520.65	67.88
520.83	16.38
521.00	28.09
521.17	32.77
521.34	0.00
521.52	53.83
521.69	65.54
521.86	70.22
522.03	93.62
522.20	9.36
522.38	16.38
522.55	14.04
522.72	25.75
522.89	51.49
523.07	25.75
523.24	9.36
523.41	44.47
523.58	49.15
523.75	77.24
523.92	77.24
524.10	44.47
524.27	39.79
524.44	86.60
524.61	28.09
524.78	70.22
524.96	77.24
525.13	32.77
525.30	79.58
525.47	0.00
525.64	18.72
525.81	0.00
525.98	11.70
526.16	56.17
526.33	51.49
526.50	9.36
526.67	23.41
526.84	117.03
527.01	49.15
527.18	0.00
527.36	107.66
527.53	100.64
527.70	81.92
527.87	2.34
528.04	56.17
528.21	88.94
528.38	21.06
528.55	21.06
528.72	0.00
528.89	119.37
529.07	2.34
529.24	107.66
529.41	32.77
529.58	72.56
529.75	28.09
529.92	0.00
530.09	44.47
530.26	70.22
530.43	35.11
530.60	53.83
530.77	0.00
530.94	107.66
531.11	74.90
531.28	39.79
531.46	4.68
531.63	53.83
531.80	23.41
531.97	0.00
532.14	0.00
532.31	25.75
532.48	88.94
532.65	25.75
532.82	72.56
532.99	79.58
533.16	86.60
533.33	161.50
533.50	0.00
533.67	14.04
533.84	81.92
534.01	9.36
534.18	9.36
534.35	39.79
534.52	32.77
534.69	18.72
534.86	39.79
535.03	0.00
535.20	58.51
535.37	21.06
535.54	65.54
535.71	14.04
535.88	70.22
536.05	28.09
536.22	32.77
536.38	37.45
536.55	46.81
536.72	93.62
536.89	74.90
537.06	9.36
537.23	70.22
537.40	67.88
537.57	65.54
537.74	0.00
537.91	23.41
538.08	67.88
538.25	23.41
538.42	0.00
538.59	30.43
538.75	53.83
538.92	58.51
539.09	11.70
539.26	44.47
539.43	114.69
539.60	74.90
539.77	25.75
539.94	128.73
540.11	39.79
540.28	65.54
540.44	46.81
540.61	93.62
540.78	44.47
540.95	60.85
541.12	32.77
541.29	2.34
541.46	58.51
541.62	74.90
541.79	23.41
541.96	9.36
542.13	77.24
542.30	49.15
542.47	4.68
542.63	51.49
542.80	74.90
542.97	46.81
543.14	117.03
543.31	11.70
543.48	0.00
543.64	51.49
543.81	58.51
543.98	56.17
544.15	56.17
544.32	60.85
544.48	2.34
544.65	11.70
544.82	93.62
544.99	35.11
545.16	112.35
545.32	42.13
545.49	0.00
545.66	79.58
545.83	0.00
546.00	2.34
546.16	46.81
546.33	42.13
546.50	11.70
546.67	98.30
546.83	46.81
547.00	21.06
547.17	77.24
547.34	84.26
547.50	0.00
547.67	2.34
547.84	28.09
548.00	79.58
548.17	0.00
548.34	67.88
548.51	65.54
548.67	74.90
548.84	11.70
549.01	49.15
549.18	28.09
549.34	70.22
549.51	42.13
549.68	0.00
549.84	0.00
550.01	0.00
550.18	72.56
550.34	51.49
550.51	0.00
550.68	32.77
550.84	44.47
551.01	21.06
551.18	0.00
551.34	16.38
551.51	2.34
551.68	56.17
551.84	32.77
552.01	39.79
552.18	46.81
552.34	72.56
552.51	30.43
552.68	105.32
552.84	0.00
553.01	0.00
553.18	63.19
553.34	46.81
553.51	0.00
553.67	9.36
553.84	102.98
554.01	0.00
554.17	100.64
554.34	0.00
554.51	65.54
554.67	58.51
554.84	0.00
555.00	72.56
555.17	107.66
555.33	16.38
555.50	58.51
555.67	28.09
555.83	67.88
556.00	44.47
556.16	0.00
556.33	7.02
556.50	56.17
556.66	72.56
556.83	35.11
556.99	35.11
557.16	0.00
557.32	44.47
557.49	98.30
557.65	65.54
557.82	23.41
557.98	30.43
558.15	51.49
558.32	58.51
558.48	44.47
558.65	0.00
558.81	0.00
558.98	14.04
559.14	0.00
559.31	0.00
559.47	0.00
559.64	74.90
559.80	11.70
559.97	28.09
560.13	0.00
560.30	32.77
560.46	81.92
560.63	105.32
560.79	65.54
560.96	60.85
561.12	9.36
561.29	0.00
561.45	30.43
561.61	4.68
561.78	18.72
561.94	0.00
562.11	0.00
562.27	0.00
562.44	16.38
562.60	67.88
562.77	0.00
562.93	21.06
563.10	4.68
563.26	53.83
563.42	81.92
563.59	0.00
563.75	0.00
563.92	25.75
564.08	39.79
564.24	58.51
564.41	44.47
564.57	79.58
564.74	4.68
564.90	21.06
565.07	0.00
565.23	7.02
565.39	42.13
565.56	53.83
565.72	56.17
565.88	84.26
566.05	18.72
566.21	72.56
566.38	51.49
566.54	44.47
566.70	63.19
566.87	42.13
567.03	58.51
567.19	30.43
567.36	32.77
567.52	11.70
567.68	7.02
567.85	44.47
568.01	58.51
568.17	44.47
568.34	39.79
568.50	0.00
568.66	49.15
568.83	74.90
568.99	0.00
569.15	0.00
569.32	18.72
569.48	23.41
569.64	46.81
569.81	88.94
569.97	11.70
570.13	58.51
570.30	0.00
570.46	7.02
570.62	32.77
570.78	91.28
570.95	32.77
571.11	4.68
571.27	14.04
571.43	25.75
571.60	0.00
571.76	70.22
571.92	32.77
572.09	35.11
572.25	32.77
572.41	11.70
572.57	28.09
572.74	4.68
572.90	44.47
573.06	65.54
573.22	18.72
573.38	0.00
573.55	0.00
573.71	49.15
573.87	14.04
574.03	37.45
574.20	0.00
574.36	16.38
574.52	126.39
574.68	93.62
574.84	49.15
575.01	23.41
575.17	21.06
575.33	9.36
575.49	35.11
575.65	9.36
575.82	32.77
575.98	58.51
576.14	100.64
576.30	77.24
576.46	58.51
576.62	42.13
576.79	86.60
576.95	37.45
577.11	39.79
577.27	93.62
577.43	9.36
577.59	117.03
577.75	9.36
577.92	65.54
578.08	63.19
578.24	63.19
578.40	51.49
578.56	30.43
578.72	0.00
578.88	0.00
579.04	65.54
579.21	7.02
579.37	91.28
579.53	74.90
579.69	35.11
579.85	67.88
580.01	100.64
580.17	32.77
580.33	67.88
580.49	44.47
580.65	67.88
580.82	88.94
580.98	102.98
581.14	79.58
581.30	28.09
581.46	56.17
581.62	60.85
581.78	46.81
581.94	44.47
582.10	107.66
582.26	39.79
582.42	86.60
582.58	93.62
582.74	16.38
582.90	37.45
583.06	102.98
583.22	53.83
583.38	37.45
583.54	121.71
583.70	60.85
583.86	30.43
584.02	95.96
584.18	32.77
584.34	11.70
584.50	149.79
584.66	854.30
584.82	1629.01
584.98	2291.38
585.14	1963.71
585.30	1224.10
585.46	725.57
585.62	500.87
585.78	280.86
585.94	152.13
586.10	42.13
586.26	105.32
586.42	28.09
586.58	0.00
586.74	23.41
586.90	32.77
587.06	21.06
587.22	7.02
587.38	0.00
587.54	128.73
587.70	145.11
587.86	222.35
588.02	191.92
588.18	121.71
588.34	79.58
588.49	91.28
588.65	16.38
588.81	117.03
588.97	18.72
589.13	30.43
589.29	37.45
589.45	46.81
589.61	16.38
589.77	121.71
589.93	23.41
590.08	0.00
590.24	56.17
590.40	72.56
590.56	39.79
590.72	25.75
590.88	0.00
591.04	124.05
591.20	30.43
591.35	9.36
591.51	25.75
591.67	21.06
591.83	32.77
591.99	0.00
592.15	100.64
592.31	91.28
592.46	30.43
592.62	65.54
592.78	60.85
592.94	28.09
593.10	0.00
593.26	84.26
593.41	131.07
593.57	49.15
593.73	16.38
593.89	114.69
594.05	304.27
594.20	332.36
594.36	367.46
594.52	205.97
594.68	182.56
594.84	163.84
594.99	131.07
595.15	74.90
595.31	0.00
595.47	74.90
595.62	39.79
595.78	42.13
595.94	88.94
596.10	105.32
596.25	30.43
596.41	49.15
596.57	0.00
596.73	65.54
596.88	102.98
597.04	114.69
597.20	74.90
597.36	117.03
597.51	124.05
597.67	60.85
597.83	117.03
597.99	53.83
598.14	81.92
598.30	72.56
598.46	0.00
598.61	0.00
598.77	79.58
598.93	81.92
599.09	0.00
599.24	49.15
599.40	63.19
599.56	60.85
599.71	42.13
599.87	63.19
600.03	93.62
600.18	65.54
600.34	0.00
600.50	65.54
600.65	93.62
600.81	49.15
600.97	65.54
601.12	42.13
601.28	44.47
601.44	0.00
601.59	37.45
601.75	0.00
601.91	145.11
602.06	53.83
602.22	46.81
602.37	56.17
602.53	56.17
602.69	117.03
602.84	114.69
603.00	110.01
603.16	107.66
603.31	95.96
603.47	51.49
603.62	30.43
603.78	72.56
603.94	49.15
604.09	93.62
604.25	72.56
604.40	9.36
604.56	58.51
604.71	100.64
604.87	39.79
605.03	51.49
605.18	72.56
605.34	9.36
605.49	117.03
605.65	11.70
605.80	25.75
605.96	18.72
606.12	0.00
606.27	11.70
606.43	14.04
606.58	4.68
606.74	95.96
606.89	196.60
607.05	189.58
607.20	341.72
607.36	245.76
607.51	180.22
607.67	44.47
607.82	70.22
607.98	28.09
608.13	86.60
608.29	58.51
608.44	23.41
608.60	72.56
608.75	42.13
608.91	42.13
609.06	156.82
609.22	444.70
609.37	409.59
609.53	383.85
609.68	266.82
609.84	215.33
609.99	107.66
610.15	46.81
610.30	70.22
610.46	65.54
610.61	0.00
610.76	4.68
610.92	16.38
611.07	0.00
611.23	0.00
611.38	0.00
611.54	21.06
611.69	58.51
611.84	0.00
612.00	9.36
612.15	79.58
612.31	70.22
612.46	70.22
612.62	21.06
612.77	28.09
612.92	11.70
613.08	100.64
613.23	0.00
613.39	32.77
613.54	42.13
613.69	187.24
613.85	458.74
614.00	702.16
614.15	690.46
614.31	512.58
614.46	327.68
614.62	208.31
614.77	117.03
614.92	70.22
615.08	23.41
615.23	30.43
615.38	86.60
615.54	70.22
615.69	65.54
615.84	135.75
616.00	208.31
616.15	248.10
616.30	161.50
616.46	147.45
616.61	42.13
616.76	114.69
616.92	44.47
617.07	4.68
617.22	30.43
617.37	7.02
617.53	81.92
617.68	56.17
617.83	79.58
617.99	60.85
618.14	35.11
618.29	39.79
618.45	0.00
618.60	95.96
618.75	9.36
618.90	91.28
619.06	9.36
619.21	0.00
619.36	58.51
619.51	0.00
619.67	0.00
619.82	51.49
619.97	28.09
620.12	0.00
620.28	25.75
620.43	7.02
620.58	56.17
620.73	0.00
620.89	2.34
621.04	44.47
621.19	30.43
621.34	77.24
621.49	161.50
621.65	121.71
621.80	112.35
621.95	56.17
622.10	9.36
622.25	53.83
622.41	51.49
622.56	28.09
622.71	56.17
622.86	65.54
623.01	77.24
623.16	46.81
623.32	28.09
623.47	0.00
623.62	30.43
623.77	11.70
623.92	30.43
624.07	93.62
624.23	49.15
624.38	88.94
624.53	16.38
624.68	0.00
624.83	25.75
624.98	37.45
625.13	25.75
625.29	7.02
625.44	44.47
625.59	0.00
625.74	2.34
625.89	37.45
626.04	79.58
626.19	154.48
626.34	348.74
626.49	341.72
626.65	243.42
626.80	285.55
626.95	159.16
627.10	119.37
627.25	0.00
627.40	25.75
627.55	72.56
627.70	9.36
627.85	9.36
628.00	35.11
628.15	23.41
628.30	0.00
628.45	0.00
628.60	16.38
628.76	11.70
628.91	28.09
629.06	49.15
629.21	112.35
629.36	0.00
629.51	63.19
629.66	0.00
629.81	79.58
629.96	51.49
630.11	91.28
630.26	168.52
630.41	117.03
630.56	58.51
630.71	67.88
630.86	0.00
631.01	67.88
631.16	0.00
631.31	65.54
631.46	30.43
631.61	100.64
631.76	60.85
631.91	60.85
632.06	65.54
632.21	0.00
632.36	14.04
632.51	77.24
632.66	51.49
632.81	152.13
632.96	121.71
633.10	250.44
633.25	341.72
633.40	191.92
633.55	154.48
633.70	170.86
633.85	67.88
634.00	49.15
634.15	86.60
634.30	0.00
634.45	53.83
634.60	28.09
634.75	37.45
634.90	37.45
635.05	0.00
635.19	44.47
635.34	65.54
635.49	149.79
635.64	88.94
635.79	7.02
635.94	14.04
636.09	0.00
636.24	88.94
636.39	14.04
636.53	49.15
636.68	46.81
636.83	35.11
636.98	119.37
637.13	35.11
637.28	79.58
637.43	35.11
637.57	60.85
637.72	182.56
637.87	322.99
638.02	470.45
638.17	491.51
638.32	327.68
638.46	292.57
638.61	273.84
638.76	166.18
638.91	84.26
639.06	39.79
639.20	35.11
639.35	53.83
639.50	107.66
639.65	220.01
639.80	535.98
639.94	732.59
640.09	732.59
640.24	568.75
640.39	332.36
640.54	344.06
640.68	215.33
640.83	53.83
640.98	30.43
641.13	14.04
641.27	18.72
641.42	25.75
641.57	79.58
641.72	21.06
641.86	23.41
642.01	16.38
642.16	11.70
642.31	95.96
642.45	49.15
642.60	23.41
642.75	0.00
642.90	56.17
643.04	79.58
643.19	28.09
643.34	44.47
643.48	30.43
643.63	135.75
643.78	51.49
643.93	35.11
644.07	121.71
644.22	67.88
644.37	4.68
644.51	81.92
644.66	56.17
644.81	7.02
644.95	25.75
645.10	107.66
645.25	32.77
645.39	72.56
645.54	0.00
645.69	32.77
645.83	0.00
645.98	0.00
646.13	23.41
646.27	42.13
646.42	98.30
646.57	70.22
646.71	4.68
646.86	0.00
647.00	42.13
647.15	0.00
647.30	11.70
647.44	53.83
647.59	84.26
647.74	37.45
647.88	4.68
648.03	32.77
648.17	53.83
648.32	0.00
648.47	110.01
648.61	49.15
648.76	107.66
648.90	25.75
649.05	60.85
649.20	70.22
649.34	0.00
649.49	11.70
649.63	0.00
649.78	65.54
649.92	79.58
650.07	159.16
650.21	294.91
650.36	287.89
650.51	320.65
650.65	311.29
650.80	269.16
650.94	194.26
651.09	140.43
651.23	46.81
651.38	11.70
651.52	46.81
651.67	84.26
651.81	56.17
651.96	35.11
652.10	77.24
652.25	23.41
652.39	53.83
652.54	102.98
652.68	100.64
652.83	93.62
652.97	86.60
653.12	210.65
653.26	201.29
653.41	163.84
653.55	67.88
653.70	84.26
653.84	42.13
653.99	32.77
654.13	30.43
654.27	11.70
654.42	14.04
654.56	79.58
654.71	74.90
654.85	0.00
655.00	2.34
655.14	42.13
655.29	74.90
655.43	0.00
655.57	60.85
655.72	9.36
655.86	79.58
656.01	28.09
656.15	0.00
656.30	0.00
656.44	46.81
656.58	60.85
656.73	112.35
656.87	25.75
657.01	37.45
657.16	53.83
657.30	7.02
657.45	25.75
657.59	65.54
657.73	18.72
657.88	95.96
658.02	86.60
658.16	74.90
658.31	28.09
658.45	42.13
658.60	0.00
658.74	72.56
658.88	0.00
659.03	0.00
659.17	44.47
659.31	63.19
659.46	124.05
659.60	180.22
659.74	187.24
659.89	215.33
660.03	79.58
660.17	105.32
660.32	102.98
660.46	65.54
660.60	138.09
660.74	0.00
660.89	37.45
661.03	0.00
661.17	98.30
661.32	110.01
661.46	93.62
661.60	74.90
661.74	53.83
661.89	4.68
662.03	18.72
662.17	18.72
662.31	49.15
662.46	0.00
662.60	28.09
662.74	42.13
662.88	67.88
663.03	14.04
663.17	21.06
663.31	0.00
663.45	0.00
663.60	0.00
663.74	58.51
663.88	53.83
664.02	4.68
664.17	18.72
664.31	53.83
664.45	2.34
664.59	14.04
664.73	67.88
664.88	53.83
665.02	0.00
665.16	107.66
665.30	126.39
665.44	35.11
665.59	53.83
665.73	63.19
665.87	28.09
666.01	91.28
666.15	67.88
666.29	18.72
666.44	0.00
666.58	0.00
666.72	0.00
666.86	56.17
667.00	88.94
667.14	7.02
667.28	67.88
667.43	170.86
667.57	278.52
667.71	348.74
667.85	276.18
667.99	154.48
668.13	154.48
668.27	72.56
668.41	86.60
668.56	37.45
668.70	135.75
668.84	0.00
668.98	42.13
669.12	58.51
669.26	51.49
669.40	25.75
669.54	0.00
669.68	25.75
669.82	35.11
669.96	49.15
670.10	4.68
670.25	0.00
670.39	0.00
670.53	23.41
670.67	58.51
670.81	100.64
670.95	39.79
671.09	79.58
671.23	126.39
671.37	110.01
671.51	187.24
671.65	184.90
671.79	142.77
671.93	126.39
672.07	138.09
672.21	102.98
672.35	72.56
672.49	35.11
672.63	79.58
672.77	35.11
672.91	0.00
673.05	0.00
673.19	0.00
673.33	30.43
673.47	9.36
673.61	117.03
673.75	65.54
673.89	100.64
674.03	37.45
674.17	32.77
674.31	42.13
674.45	0.00
674.59	0.00
674.73	9.36
674.87	4.68
675.01	30.43
675.15	25.75
675.29	56.17
675.43	65.54
675.56	51.49
675.70	60.85
675.84	4.68
675.98	9.36
676.12	46.81
676.26	30.43
676.40	0.00
676.54	18.72
676.68	0.00
676.82	0.00
676.96	0.00
677.10	65.54
677.23	110.01
677.37	42.13
677.51	72.56
677.65	44.47
677.79	53.83
677.93	42.13
678.07	35.11
678.21	112.35
678.34	0.00
678.48	56.17
678.62	72.56
678.76	42.13
678.90	16.38
679.04	16.38
679.18	0.00
679.31	53.83
679.45	51.49
679.59	0.00
679.73	86.60
679.87	39.79
680.00	14.04
680.14	65.54
680.28	72.56
680.42	21.06
680.56	0.00
680.70	9.36
680.83	30.43
680.97	37.45
681.11	70.22
681.25	67.88
681.39	88.94
681.52	39.79
681.66	0.00
681.80	0.00
681.94	21.06
682.07	67.88
682.21	0.00
682.35	32.77
682.49	37.45
682.62	18.72
682.76	93.62
682.90	35.11
683.04	42.13
683.17	56.17
683.31	35.11
683.45	49.15
683.59	28.09
683.72	7.02
683.86	91.28
684.00	37.45
684.13	53.83
684.27	0.00
684.41	32.77
684.55	84.26
684.68	74.90
684.82	18.72
684.96	77.24
685.09	79.58
685.23	39.79
685.37	14.04
685.50	74.90
685.64	28.09
685.78	9.36
685.91	39.79
686.05	23.41
686.19	14.04
686.32	32.77
686.46	11.70
686.60	32.77
686.73	14.04
686.87	4.68
687.01	23.41
687.14	11.70
687.28	7.02
687.42	0.00
687.55	32.77
687.69	74.90
687.82	28.09
687.96	65.54
688.10	28.09
688.23	23.41
688.37	0.00
688.50	58.51
688.64	0.00
688.78	56.17
688.91	72.56
689.05	25.75
689.18	0.00
689.32	102.98
689.46	51.49
689.59	53.83
689.73	18.72
689.86	77.24
690.00	4.68
690.13	49.15
690.27	0.00
690.41	0.00
690.54	21.06
690.68	70.22
690.81	32.77
690.95	49.15
691.08	65.54
691.22	42.13
691.35	138.09
691.49	30.43
691.62	23.41
691.76	44.47
691.89	32.77
692.03	9.36
692.16	37.45
692.30	74.90
692.43	25.75
692.57	51.49
692.70	114.69
692.84	177.88
692.97	170.86
693.11	138.09
693.24	100.64
693.38	107.66
693.51	39.79
693.65	42.13
693.78	37.45
693.92	74.90
694.05	67.88
694.19	0.00
694.32	14.04
694.45	79.58
694.59	32.77
694.72	16.38
694.86	21.06
694.99	58.51
695.13	0.00
695.26	70.22
695.39	4.68
695.53	0.00
695.66	79.58
695.80	67.88
695.93	9.36
696.07	65.54
696.20	63.19
696.33	42.13
696.47	74.90
696.60	23.41
696.73	21.06
696.87	46.81
697.00	4.68
697.14	0.00
697.27	2.34
697.40	86.60
697.54	49.15
697.67	28.09
697.80	0.00
697.94	35.11
698.07	7.02
698.21	4.68
698.34	53.83
698.47	0.00
698.61	37.45
698.74	44.47
698.87	30.43
699.01	0.00
699.14	30.43
699.27	37.45
699.40	39.79
699.54	67.88
699.67	46.81
699.80	77.24
699.94	35.11
700.07	9.36
700.20	16.38
700.34	32.77
700.47	42.13
700.60	44.47
700.73	107.66
700.87	11.70
701.00	37.45
701.13	9.36
701.26	53.83
701.40	0.00
701.53	21.06
701.66	0.00
701.79	53.83
701.93	110.01
702.06	37.45
702.19	51.49
702.32	65.54
702.46	95.96
702.59	51.49
702.72	70.22
702.85	159.16
702.99	161.50
703.12	248.10
703.25	259.80
703.38	287.89
703.51	121.71
703.65	149.79
703.78	112.35
703.91	110.01
704.04	114.69
704.17	0.00
704.31	14.04
704.44	93.62
704.57	84.26
704.70	4.68
704.83	18.72
704.96	93.62
705.10	56.17
705.23	30.43
>>>>>End Processed Spectral Data<<<<<
