SpectraSuite Data File
++++++++++++++++++++++++++++++++++++
Date: Fri Oct 04 12:13:40 GMT-05:00 2013
User: price-jones
Dark Spectrum Present: No
Reference Spectrum Present: No
Number of Sampled Component Spectra: 1
Spectrometers: USB2+H05261
Integration Time (usec): 10000 (USB2+H05261)
Spectra Averaged: 1 (USB2+H05261)
Boxcar Smoothing: 0 (USB2+H05261)
Correct for Electrical Dark: No (USB2+H05261)
Strobe/Lamp Enabled: No (USB2+H05261)
Correct for Detector Non-linearity: No (USB2+H05261)
Correct for Stray Light: No (USB2+H05261)
Number of Pixels in Processed Spectrum: 2048
>>>>>Begin Processed Spectral Data<<<<<
365.73	0.00
365.92	0.00
366.12	0.00
366.32	0.00
366.52	0.00
366.72	0.00
366.91	0.00
367.11	0.00
367.31	0.00
367.51	0.00
367.70	0.00
367.90	0.00
368.10	0.00
368.30	0.00
368.49	0.00
368.69	0.00
368.89	0.00
369.09	0.00
369.28	0.00
369.48	0.00
369.68	0.00
369.87	0.00
370.07	0.00
370.27	0.00
370.47	0.00
370.66	0.00
370.86	0.00
371.06	0.00
371.25	18.72
371.45	0.00
371.65	49.15
371.84	0.00
372.04	9.36
372.24	4.68
372.44	9.36
372.63	7.02
372.83	16.38
373.03	25.75
373.22	16.38
373.42	0.00
373.62	0.00
373.81	28.09
374.01	39.79
374.21	44.47
374.40	56.17
374.60	79.58
374.79	0.00
374.99	9.36
375.19	0.00
375.38	0.00
375.58	0.00
375.78	23.41
375.97	65.54
376.17	93.62
376.37	46.81
376.56	53.83
376.76	25.75
376.95	49.15
377.15	14.04
377.35	25.75
377.54	49.15
377.74	42.13
377.93	0.00
378.13	35.11
378.33	0.00
378.52	28.09
378.72	9.36
378.91	74.90
379.11	0.00
379.31	18.72
379.50	0.00
379.70	77.24
379.89	42.13
380.09	28.09
380.28	0.00
380.48	18.72
380.68	16.38
380.87	0.00
381.07	16.38
381.26	56.17
381.46	0.00
381.65	18.72
381.85	100.64
382.04	23.41
382.24	23.41
382.43	37.45
382.63	0.00
382.83	9.36
383.02	11.70
383.22	0.00
383.41	32.77
383.61	0.00
383.80	0.00
384.00	0.00
384.19	0.00
384.39	35.11
384.58	0.00
384.78	7.02
384.97	30.43
385.17	0.00
385.36	21.06
385.56	0.00
385.75	35.11
385.95	21.06
386.14	25.75
386.34	21.06
386.53	16.38
386.72	9.36
386.92	60.85
387.11	28.09
387.31	0.00
387.50	9.36
387.70	51.49
387.89	0.00
388.09	81.92
388.28	0.00
388.48	72.56
388.67	35.11
388.86	0.00
389.06	58.51
389.25	14.04
389.45	0.00
389.64	0.00
389.84	0.00
390.03	0.00
390.22	42.13
390.42	53.83
390.61	0.00
390.81	23.41
391.00	114.69
391.19	0.00
391.39	39.79
391.58	4.68
391.78	32.77
391.97	72.56
392.16	93.62
392.36	56.17
392.55	21.06
392.75	51.49
392.94	0.00
393.13	32.77
393.33	86.60
393.52	0.00
393.71	60.85
393.91	37.45
394.10	23.41
394.29	84.26
394.49	95.96
394.68	0.00
394.88	11.70
395.07	14.04
395.26	0.00
395.46	0.00
395.65	0.00
395.84	18.72
396.04	112.35
396.23	35.11
396.42	74.90
396.62	0.00
396.81	0.00
397.00	0.00
397.19	58.51
397.39	58.51
397.58	23.41
397.77	0.00
397.97	46.81
398.16	93.62
398.35	51.49
398.55	0.00
398.74	91.28
398.93	84.26
399.12	67.88
399.32	0.00
399.51	49.15
399.70	65.54
399.90	0.00
400.09	21.06
400.28	25.75
400.47	81.92
400.67	49.15
400.86	30.43
401.05	14.04
401.24	65.54
401.44	42.13
401.63	9.36
401.82	4.68
402.01	119.37
402.21	56.17
402.40	0.00
402.59	37.45
402.78	0.00
402.97	23.41
403.17	0.00
403.36	46.81
403.55	4.68
403.74	4.68
403.93	28.09
404.13	70.22
404.32	28.09
404.51	30.43
404.70	9.36
404.89	25.75
405.09	7.02
405.28	67.88
405.47	7.02
405.66	30.43
405.85	16.38
406.05	21.06
406.24	58.51
406.43	39.79
406.62	53.83
406.81	56.17
407.00	14.04
407.20	0.00
407.39	0.00
407.58	49.15
407.77	16.38
407.96	72.56
408.15	46.81
408.34	21.06
408.54	49.15
408.73	21.06
408.92	35.11
409.11	25.75
409.30	0.00
409.49	88.94
409.68	9.36
409.87	21.06
410.07	46.81
410.26	23.41
410.45	51.49
410.64	2.34
410.83	49.15
411.02	0.00
411.21	23.41
411.40	28.09
411.59	0.00
411.78	121.71
411.98	11.70
412.17	0.00
412.36	58.51
412.55	79.58
412.74	0.00
412.93	49.15
413.12	32.77
413.31	32.77
413.50	77.24
413.69	70.22
413.88	44.47
414.07	32.77
414.26	46.81
414.45	42.13
414.64	0.00
414.83	4.68
415.02	81.92
415.22	28.09
415.41	70.22
415.60	14.04
415.79	0.00
415.98	32.77
416.17	114.69
416.36	79.58
416.55	110.01
416.74	72.56
416.93	44.47
417.12	70.22
417.31	86.60
417.50	28.09
417.69	16.38
417.88	74.90
418.07	65.54
418.26	70.22
418.45	93.62
418.64	32.77
418.83	58.51
419.02	86.60
419.21	67.88
419.39	0.00
419.58	23.41
419.77	81.92
419.96	0.00
420.15	30.43
420.34	37.45
420.53	44.47
420.72	60.85
420.91	39.79
421.10	60.85
421.29	86.60
421.48	58.51
421.67	39.79
421.86	0.00
422.05	46.81
422.24	0.00
422.43	70.22
422.61	0.00
422.80	28.09
422.99	67.88
423.18	16.38
423.37	58.51
423.56	0.00
423.75	0.00
423.94	51.49
424.13	49.15
424.32	32.77
424.50	23.41
424.69	30.43
424.88	140.43
425.07	42.13
425.26	58.51
425.45	56.17
425.64	81.92
425.83	39.79
426.01	49.15
426.20	7.02
426.39	72.56
426.58	65.54
426.77	0.00
426.96	44.47
427.15	4.68
427.33	88.94
427.52	65.54
427.71	14.04
427.90	30.43
428.09	35.11
428.28	0.00
428.46	28.09
428.65	39.79
428.84	4.68
429.03	70.22
429.22	0.00
429.40	30.43
429.59	112.35
429.78	14.04
429.97	98.30
430.16	18.72
430.34	79.58
430.53	51.49
430.72	100.64
430.91	23.41
431.10	58.51
431.28	37.45
431.47	105.32
431.66	0.00
431.85	0.00
432.03	35.11
432.22	98.30
432.41	67.88
432.60	32.77
432.79	2.34
432.97	51.49
433.16	98.30
433.35	49.15
433.54	23.41
433.72	112.35
433.91	46.81
434.10	53.83
434.28	37.45
434.47	0.00
434.66	0.00
434.85	56.17
435.03	0.00
435.22	88.94
435.41	70.22
435.59	77.24
435.78	0.00
435.97	49.15
436.16	70.22
436.34	51.49
436.53	23.41
436.72	98.30
436.90	42.13
437.09	67.88
437.28	35.11
437.46	114.69
437.65	14.04
437.84	30.43
438.02	79.58
438.21	21.06
438.40	32.77
438.58	0.00
438.77	9.36
438.96	60.85
439.14	0.00
439.33	11.70
439.52	58.51
439.70	65.54
439.89	46.81
440.08	16.38
440.26	81.92
440.45	14.04
440.63	28.09
440.82	42.13
441.01	77.24
441.19	42.13
441.38	102.98
441.57	39.79
441.75	56.17
441.94	58.51
442.12	51.49
442.31	0.00
442.50	79.58
442.68	63.19
442.87	23.41
443.05	60.85
443.24	0.00
443.43	77.24
443.61	42.13
443.80	21.06
443.98	84.26
444.17	49.15
444.35	77.24
444.54	112.35
444.73	21.06
444.91	77.24
445.10	18.72
445.28	58.51
445.47	102.98
445.65	37.45
445.84	81.92
446.02	9.36
446.21	56.17
446.39	25.75
446.58	23.41
446.77	65.54
446.95	65.54
447.14	0.00
447.32	35.11
447.51	0.00
447.69	9.36
447.88	91.28
448.06	60.85
448.25	21.06
448.43	7.02
448.62	25.75
448.80	72.56
448.99	70.22
449.17	30.43
449.36	65.54
449.54	37.45
449.73	105.32
449.91	28.09
450.10	53.83
450.28	60.85
450.46	126.39
450.65	70.22
450.83	37.45
451.02	37.45
451.20	44.47
451.39	84.26
451.57	107.66
451.76	58.51
451.94	63.19
452.13	0.00
452.31	46.81
452.49	110.01
452.68	86.60
452.86	23.41
453.05	56.17
453.23	4.68
453.42	77.24
453.60	93.62
453.78	0.00
453.97	74.90
454.15	67.88
454.34	39.79
454.52	25.75
454.70	0.00
454.89	25.75
455.07	49.15
455.26	44.47
455.44	9.36
455.62	56.17
455.81	35.11
455.99	65.54
456.17	67.88
456.36	72.56
456.54	58.51
456.73	25.75
456.91	112.35
457.09	86.60
457.28	81.92
457.46	0.00
457.64	25.75
457.83	110.01
458.01	84.26
458.19	105.32
458.38	30.43
458.56	0.00
458.74	72.56
458.93	110.01
459.11	51.49
459.29	63.19
459.48	70.22
459.66	0.00
459.84	79.58
460.03	42.13
460.21	86.60
460.39	16.38
460.57	39.79
460.76	0.00
460.94	58.51
461.12	77.24
461.31	81.92
461.49	49.15
461.67	51.49
461.85	14.04
462.04	21.06
462.22	121.71
462.40	28.09
462.59	121.71
462.77	0.00
462.95	79.58
463.13	53.83
463.32	147.45
463.50	58.51
463.68	35.11
463.86	25.75
464.05	114.69
464.23	0.00
464.41	74.90
464.59	63.19
464.78	77.24
464.96	72.56
465.14	49.15
465.32	23.41
465.50	67.88
465.69	0.00
465.87	56.17
466.05	46.81
466.23	65.54
466.41	124.05
466.60	81.92
466.78	7.02
466.96	86.60
467.14	81.92
467.32	72.56
467.51	53.83
467.69	91.28
467.87	37.45
468.05	2.34
468.23	81.92
468.41	74.90
468.60	110.01
468.78	7.02
468.96	46.81
469.14	58.51
469.32	110.01
469.50	4.68
469.69	84.26
469.87	16.38
470.05	23.41
470.23	88.94
470.41	84.26
470.59	77.24
470.77	93.62
470.95	51.49
471.14	25.75
471.32	93.62
471.50	65.54
471.68	161.50
471.86	60.85
472.04	44.47
472.22	39.79
472.40	114.69
472.58	30.43
472.77	121.71
472.95	88.94
473.13	0.00
473.31	23.41
473.49	51.49
473.67	67.88
473.85	81.92
474.03	14.04
474.21	0.00
474.39	140.43
474.57	121.71
474.75	37.45
474.93	126.39
475.12	39.79
475.30	102.98
475.48	110.01
475.66	49.15
475.84	128.73
476.02	39.79
476.20	37.45
476.38	0.00
476.56	56.17
476.74	44.47
476.92	14.04
477.10	65.54
477.28	60.85
477.46	74.90
477.64	88.94
477.82	74.90
478.00	46.81
478.18	37.45
478.36	0.00
478.54	21.06
478.72	70.22
478.90	93.62
479.08	42.13
479.26	39.79
479.44	124.05
479.62	70.22
479.80	53.83
479.98	131.07
480.16	56.17
480.34	28.09
480.52	49.15
480.70	56.17
480.88	74.90
481.06	23.41
481.24	95.96
481.41	37.45
481.59	163.84
481.77	72.56
481.95	86.60
482.13	95.96
482.31	49.15
482.49	74.90
482.67	23.41
482.85	42.13
483.03	0.00
483.21	67.88
483.39	21.06
483.57	114.69
483.74	107.66
483.92	7.02
484.10	58.51
484.28	98.30
484.46	124.05
484.64	28.09
484.82	72.56
485.00	91.28
485.18	49.15
485.35	23.41
485.53	112.35
485.71	72.56
485.89	58.51
486.07	84.26
486.25	49.15
486.43	110.01
486.61	14.04
486.78	0.00
486.96	56.17
487.14	79.58
487.32	84.26
487.50	86.60
487.68	70.22
487.85	56.17
488.03	53.83
488.21	51.49
488.39	58.51
488.57	74.90
488.75	46.81
488.92	46.81
489.10	0.00
489.28	86.60
489.46	74.90
489.64	56.17
489.81	84.26
489.99	53.83
490.17	102.98
490.35	93.62
490.53	135.75
490.70	128.73
490.88	44.47
491.06	121.71
491.24	107.66
491.41	117.03
491.59	147.45
491.77	51.49
491.95	23.41
492.13	39.79
492.30	49.15
492.48	145.11
492.66	91.28
492.84	11.70
493.01	63.19
493.19	72.56
493.37	88.94
493.54	147.45
493.72	88.94
493.90	154.48
494.08	105.32
494.25	42.13
494.43	133.41
494.61	128.73
494.79	117.03
494.96	98.30
495.14	56.17
495.32	74.90
495.49	49.15
495.67	37.45
495.85	131.07
496.02	79.58
496.20	74.90
496.38	58.51
496.55	84.26
496.73	74.90
496.91	114.69
497.09	84.26
497.26	86.60
497.44	91.28
497.62	102.98
497.79	58.51
497.97	4.68
498.14	128.73
498.32	70.22
498.50	131.07
498.67	84.26
498.85	60.85
499.03	16.38
499.20	161.50
499.38	18.72
499.56	110.01
499.73	117.03
499.91	35.11
500.08	110.01
500.26	110.01
500.44	79.58
500.61	149.79
500.79	100.64
500.97	44.47
501.14	25.75
501.32	0.00
501.49	81.92
501.67	81.92
501.84	140.43
502.02	72.56
502.20	53.83
502.37	65.54
502.55	81.92
502.72	107.66
502.90	49.15
503.07	114.69
503.25	28.09
503.43	51.49
503.60	91.28
503.78	142.77
503.95	28.09
504.13	91.28
504.30	51.49
504.48	131.07
504.65	133.41
504.83	67.88
505.01	14.04
505.18	42.13
505.36	100.64
505.53	107.66
505.71	49.15
505.88	105.32
506.06	21.06
506.23	117.03
506.41	28.09
506.58	102.98
506.76	77.24
506.93	60.85
507.11	39.79
507.28	30.43
507.46	77.24
507.63	84.26
507.81	72.56
507.98	98.30
508.16	77.24
508.33	126.39
508.50	142.77
508.68	133.41
508.85	77.24
509.03	42.13
509.20	46.81
509.38	0.00
509.55	46.81
509.73	100.64
509.90	107.66
510.08	91.28
510.25	70.22
510.42	35.11
510.60	44.47
510.77	49.15
510.95	84.26
511.12	46.81
511.30	65.54
511.47	124.05
511.64	140.43
511.82	9.36
511.99	9.36
512.17	60.85
512.34	124.05
512.51	0.00
512.69	72.56
512.86	63.19
513.04	91.28
513.21	124.05
513.38	128.73
513.56	42.13
513.73	35.11
513.90	86.60
514.08	98.30
514.25	124.05
514.43	74.90
514.60	37.45
514.77	70.22
514.95	44.47
515.12	51.49
515.29	74.90
515.47	79.58
515.64	0.00
515.81	149.79
515.99	74.90
516.16	98.30
516.33	56.17
516.51	51.49
516.68	128.73
516.85	112.35
517.03	9.36
517.20	51.49
517.37	98.30
517.54	72.56
517.72	107.66
517.89	74.90
518.06	93.62
518.24	107.66
518.41	28.09
518.58	53.83
518.75	0.00
518.93	58.51
519.10	145.11
519.27	91.28
519.45	191.92
519.62	117.03
519.79	37.45
519.96	44.47
520.14	84.26
520.31	84.26
520.48	42.13
520.65	81.92
520.83	110.01
521.00	46.81
521.17	84.26
521.34	98.30
521.52	44.47
521.69	56.17
521.86	42.13
522.03	28.09
522.20	86.60
522.38	117.03
522.55	95.96
522.72	117.03
522.89	147.45
523.07	88.94
523.24	128.73
523.41	93.62
523.58	4.68
523.75	93.62
523.92	81.92
524.10	46.81
524.27	14.04
524.44	107.66
524.61	49.15
524.78	23.41
524.96	30.43
525.13	100.64
525.30	7.02
525.47	46.81
525.64	107.66
525.81	56.17
525.98	70.22
526.16	88.94
526.33	14.04
526.50	107.66
526.67	23.41
526.84	44.47
527.01	67.88
527.18	23.41
527.36	23.41
527.53	74.90
527.70	93.62
527.87	107.66
528.04	72.56
528.21	32.77
528.38	77.24
528.55	4.68
528.72	152.13
528.89	81.92
529.07	86.60
529.24	168.52
529.41	25.75
529.58	135.75
529.75	91.28
529.92	63.19
530.09	67.88
530.26	161.50
530.43	117.03
530.60	53.83
530.77	23.41
530.94	112.35
531.11	67.88
531.28	79.58
531.46	67.88
531.63	159.16
531.80	46.81
531.97	74.90
532.14	112.35
532.31	168.52
532.48	63.19
532.65	86.60
532.82	65.54
532.99	46.81
533.16	117.03
533.33	25.75
533.50	88.94
533.67	70.22
533.84	77.24
534.01	105.32
534.18	88.94
534.35	72.56
534.52	126.39
534.69	98.30
534.86	119.37
535.03	70.22
535.20	161.50
535.37	44.47
535.54	88.94
535.71	53.83
535.88	44.47
536.05	88.94
536.22	49.15
536.38	119.37
536.55	98.30
536.72	23.41
536.89	110.01
537.06	121.71
537.23	65.54
537.40	105.32
537.57	114.69
537.74	84.26
537.91	65.54
538.08	147.45
538.25	79.58
538.42	28.09
538.59	95.96
538.75	70.22
538.92	84.26
539.09	88.94
539.26	126.39
539.43	67.88
539.60	58.51
539.77	65.54
539.94	126.39
540.11	119.37
540.28	95.96
540.44	107.66
540.61	86.60
540.78	32.77
540.95	114.69
541.12	35.11
541.29	63.19
541.46	102.98
541.62	131.07
541.79	102.98
541.96	11.70
542.13	93.62
542.30	70.22
542.47	46.81
542.63	168.52
542.80	63.19
542.97	147.45
543.14	63.19
543.31	112.35
543.48	65.54
543.64	67.88
543.81	152.13
543.98	58.51
544.15	74.90
544.32	152.13
544.48	18.72
544.65	112.35
544.82	93.62
544.99	81.92
545.16	91.28
545.32	135.75
545.49	105.32
545.66	126.39
545.83	2.34
546.00	53.83
546.16	0.00
546.33	95.96
546.50	77.24
546.67	107.66
546.83	105.32
547.00	86.60
547.17	30.43
547.34	63.19
547.50	145.11
547.67	0.00
547.84	86.60
548.00	93.62
548.17	63.19
548.34	135.75
548.51	131.07
548.67	81.92
548.84	74.90
549.01	95.96
549.18	100.64
549.34	74.90
549.51	67.88
549.68	91.28
549.84	140.43
550.01	74.90
550.18	102.98
550.34	51.49
550.51	44.47
550.68	114.69
550.84	65.54
551.01	70.22
551.18	86.60
551.34	98.30
551.51	60.85
551.68	37.45
551.84	112.35
552.01	11.70
552.18	102.98
552.34	74.90
552.51	56.17
552.68	77.24
552.84	102.98
553.01	58.51
553.18	128.73
553.34	198.95
553.51	67.88
553.67	100.64
553.84	133.41
554.01	49.15
554.17	86.60
554.34	46.81
554.51	121.71
554.67	65.54
554.84	77.24
555.00	67.88
555.17	119.37
555.33	107.66
555.50	133.41
555.67	72.56
555.83	58.51
556.00	102.98
556.16	135.75
556.33	49.15
556.50	70.22
556.66	37.45
556.83	95.96
556.99	124.05
557.16	39.79
557.32	91.28
557.49	98.30
557.65	74.90
557.82	110.01
557.98	114.69
558.15	58.51
558.32	93.62
558.48	117.03
558.65	114.69
558.81	65.54
558.98	67.88
559.14	95.96
559.31	110.01
559.47	145.11
559.64	67.88
559.80	21.06
559.97	39.79
560.13	100.64
560.30	154.48
560.46	88.94
560.63	56.17
560.79	102.98
560.96	25.75
561.12	88.94
561.29	58.51
561.45	56.17
561.61	126.39
561.78	102.98
561.94	35.11
562.11	51.49
562.27	46.81
562.44	32.77
562.60	70.22
562.77	70.22
562.93	70.22
563.10	46.81
563.26	81.92
563.42	56.17
563.59	163.84
563.75	114.69
563.92	110.01
564.08	2.34
564.24	77.24
564.41	133.41
564.57	44.47
564.74	100.64
564.90	112.35
565.07	107.66
565.23	65.54
565.39	60.85
565.56	147.45
565.72	107.66
565.88	112.35
566.05	16.38
566.21	4.68
566.38	70.22
566.54	21.06
566.70	30.43
566.87	23.41
567.03	49.15
567.19	21.06
567.36	16.38
567.52	51.49
567.68	112.35
567.85	95.96
568.01	72.56
568.17	79.58
568.34	128.73
568.50	37.45
568.66	187.24
568.83	77.24
568.99	35.11
569.15	58.51
569.32	86.60
569.48	65.54
569.64	0.00
569.81	14.04
569.97	86.60
570.13	72.56
570.30	131.07
570.46	84.26
570.62	72.56
570.78	74.90
570.95	77.24
571.11	117.03
571.27	77.24
571.43	44.47
571.60	100.64
571.76	4.68
571.92	77.24
572.09	53.83
572.25	86.60
572.41	117.03
572.57	49.15
572.74	67.88
572.90	121.71
573.06	44.47
573.22	23.41
573.38	9.36
573.55	67.88
573.71	81.92
573.87	51.49
574.03	161.50
574.20	60.85
574.36	88.94
574.52	84.26
574.68	138.09
574.84	114.69
575.01	142.77
575.17	142.77
575.33	65.54
575.49	81.92
575.65	84.26
575.82	49.15
575.98	42.13
576.14	74.90
576.30	9.36
576.46	72.56
576.62	100.64
576.79	74.90
576.95	102.98
577.11	79.58
577.27	131.07
577.43	79.58
577.59	42.13
577.75	79.58
577.92	86.60
578.08	25.75
578.24	42.13
578.40	35.11
578.56	126.39
578.72	30.43
578.88	63.19
579.04	100.64
579.21	147.45
579.37	60.85
579.53	100.64
579.69	74.90
579.85	105.32
580.01	95.96
580.17	25.75
580.33	70.22
580.49	49.15
580.65	84.26
580.82	95.96
580.98	100.64
581.14	133.41
581.30	119.37
581.46	100.64
581.62	53.83
581.78	46.81
581.94	100.64
582.10	86.60
582.26	39.79
582.42	84.26
582.58	86.60
582.74	44.47
582.90	77.24
583.06	32.77
583.22	65.54
583.38	126.39
583.54	60.85
583.70	77.24
583.86	63.19
584.02	42.13
584.18	140.43
584.34	11.70
584.50	28.09
584.66	77.24
584.82	138.09
584.98	147.45
585.14	72.56
585.30	84.26
585.46	119.37
585.62	51.49
585.78	53.83
585.94	159.16
586.10	86.60
586.26	67.88
586.42	91.28
586.58	95.96
586.74	56.17
586.90	53.83
587.06	51.49
587.22	77.24
587.38	74.90
587.54	0.00
587.70	65.54
587.86	35.11
588.02	58.51
588.18	124.05
588.34	100.64
588.49	107.66
588.65	42.13
588.81	28.09
588.97	67.88
589.13	117.03
589.29	74.90
589.45	9.36
589.61	126.39
589.77	72.56
589.93	46.81
590.08	58.51
590.24	67.88
590.40	117.03
590.56	63.19
590.72	84.26
590.88	63.19
591.04	51.49
591.20	79.58
591.35	70.22
591.51	11.70
591.67	102.98
591.83	44.47
591.99	95.96
592.15	65.54
592.31	77.24
592.46	0.00
592.62	58.51
592.78	28.09
592.94	70.22
593.10	79.58
593.26	133.41
593.41	67.88
593.57	112.35
593.73	67.88
593.89	91.28
594.05	70.22
594.20	60.85
594.36	44.47
594.52	91.28
594.68	51.49
594.84	63.19
594.99	28.09
595.15	81.92
595.31	53.83
595.47	124.05
595.62	53.83
595.78	49.15
595.94	60.85
596.10	98.30
596.25	44.47
596.41	119.37
596.57	72.56
596.73	51.49
596.88	70.22
597.04	107.66
597.20	91.28
597.36	138.09
597.51	65.54
597.67	0.00
597.83	70.22
597.99	60.85
598.14	86.60
598.30	140.43
598.46	98.30
598.61	105.32
598.77	11.70
598.93	119.37
599.09	0.00
599.24	112.35
599.40	126.39
599.56	44.47
599.71	32.77
599.87	46.81
600.03	30.43
600.18	39.79
600.34	86.60
600.50	30.43
600.65	72.56
600.81	21.06
600.97	42.13
601.12	46.81
601.28	72.56
601.44	9.36
601.59	98.30
601.75	98.30
601.91	95.96
602.06	49.15
602.22	88.94
602.37	65.54
602.53	72.56
602.69	81.92
602.84	105.32
603.00	58.51
603.16	46.81
603.31	65.54
603.47	32.77
603.62	63.19
603.78	95.96
603.94	128.73
604.09	18.72
604.25	124.05
604.40	84.26
604.56	56.17
604.71	121.71
604.87	93.62
605.03	56.17
605.18	145.11
605.34	93.62
605.49	70.22
605.65	39.79
605.80	65.54
605.96	74.90
606.12	98.30
606.27	39.79
606.43	30.43
606.58	98.30
606.74	135.75
606.89	18.72
607.05	0.00
607.20	51.49
607.36	79.58
607.51	28.09
607.67	102.98
607.82	93.62
607.98	0.00
608.13	110.01
608.29	117.03
608.44	53.83
608.60	72.56
608.75	63.19
608.91	100.64
609.06	58.51
609.22	0.00
609.37	30.43
609.53	133.41
609.68	79.58
609.84	0.00
609.99	25.75
610.15	23.41
610.30	37.45
610.46	117.03
610.61	56.17
610.76	93.62
610.92	30.43
611.07	30.43
611.23	67.88
611.38	107.66
611.54	32.77
611.69	84.26
611.84	23.41
612.00	32.77
612.15	51.49
612.31	84.26
612.46	93.62
612.62	74.90
612.77	93.62
612.92	79.58
613.08	65.54
613.23	60.85
613.39	126.39
613.54	18.72
613.69	70.22
613.85	65.54
614.00	56.17
614.15	70.22
614.31	72.56
614.46	70.22
614.62	72.56
614.77	51.49
614.92	70.22
615.08	56.17
615.23	39.79
615.38	88.94
615.54	21.06
615.69	49.15
615.84	93.62
616.00	9.36
616.15	56.17
616.30	51.49
616.46	70.22
616.61	72.56
616.76	28.09
616.92	44.47
617.07	128.73
617.22	51.49
617.37	39.79
617.53	28.09
617.68	28.09
617.83	121.71
617.99	88.94
618.14	18.72
618.29	121.71
618.45	18.72
618.60	16.38
618.75	117.03
618.90	72.56
619.06	44.47
619.21	42.13
619.36	16.38
619.51	49.15
619.67	77.24
619.82	60.85
619.97	35.11
620.12	119.37
620.28	28.09
620.43	49.15
620.58	49.15
620.73	91.28
620.89	95.96
621.04	110.01
621.19	124.05
621.34	16.38
621.49	67.88
621.65	53.83
621.80	42.13
621.95	84.26
622.10	53.83
622.25	126.39
622.41	44.47
622.56	51.49
622.71	37.45
622.86	60.85
623.01	51.49
623.16	0.00
623.32	44.47
623.47	51.49
623.62	110.01
623.77	70.22
623.92	74.90
624.07	51.49
624.23	4.68
624.38	102.98
624.53	51.49
624.68	72.56
624.83	56.17
624.98	95.96
625.13	51.49
625.29	81.92
625.44	39.79
625.59	67.88
625.74	72.56
625.89	53.83
626.04	124.05
626.19	65.54
626.34	121.71
626.49	105.32
626.65	42.13
626.80	18.72
626.95	58.51
627.10	67.88
627.25	58.51
627.40	14.04
627.55	63.19
627.70	95.96
627.85	110.01
628.00	102.98
628.15	63.19
628.30	4.68
628.45	35.11
628.60	110.01
628.76	51.49
628.91	56.17
629.06	79.58
629.21	60.85
629.36	86.60
629.51	60.85
629.66	23.41
629.81	30.43
629.96	0.00
630.11	95.96
630.26	65.54
630.41	28.09
630.56	86.60
630.71	0.00
630.86	88.94
631.01	126.39
631.16	51.49
631.31	100.64
631.46	56.17
631.61	91.28
631.76	44.47
631.91	100.64
632.06	72.56
632.21	91.28
632.36	112.35
632.51	49.15
632.66	93.62
632.81	9.36
632.96	58.51
633.10	105.32
633.25	25.75
633.40	65.54
633.55	81.92
633.70	93.62
633.85	42.13
634.00	60.85
634.15	16.38
634.30	77.24
634.45	60.85
634.60	65.54
634.75	18.72
634.90	0.00
635.05	39.79
635.19	77.24
635.34	21.06
635.49	102.98
635.64	168.52
635.79	88.94
635.94	32.77
636.09	51.49
636.24	88.94
636.39	114.69
636.53	107.66
636.68	51.49
636.83	37.45
636.98	119.37
637.13	117.03
637.28	32.77
637.43	49.15
637.57	0.00
637.72	100.64
637.87	51.49
638.02	79.58
638.17	98.30
638.32	0.00
638.46	4.68
638.61	28.09
638.76	44.47
638.91	170.86
639.06	81.92
639.20	51.49
639.35	95.96
639.50	65.54
639.65	51.49
639.80	28.09
639.94	65.54
640.09	100.64
640.24	14.04
640.39	58.51
640.54	42.13
640.68	60.85
640.83	102.98
640.98	100.64
641.13	86.60
641.27	79.58
641.42	60.85
641.57	74.90
641.72	0.00
641.86	77.24
642.01	21.06
642.16	70.22
642.31	70.22
642.45	93.62
642.60	39.79
642.75	32.77
642.90	112.35
643.04	105.32
643.19	117.03
643.34	81.92
643.48	0.00
643.63	9.36
643.78	117.03
643.93	51.49
644.07	51.49
644.22	35.11
644.37	60.85
644.51	67.88
644.66	16.38
644.81	0.00
644.95	91.28
645.10	126.39
645.25	0.00
645.39	37.45
645.54	119.37
645.69	74.90
645.83	0.00
645.98	131.07
646.13	77.24
646.27	4.68
646.42	56.17
646.57	25.75
646.71	51.49
646.86	110.01
647.00	16.38
647.15	0.00
647.30	28.09
647.44	9.36
647.59	86.60
647.74	42.13
647.88	77.24
648.03	0.00
648.17	16.38
648.32	81.92
648.47	32.77
648.61	11.70
648.76	51.49
648.90	84.26
649.05	88.94
649.20	39.79
649.34	105.32
649.49	58.51
649.63	72.56
649.78	42.13
649.92	4.68
650.07	0.00
650.21	51.49
650.36	105.32
650.51	0.00
650.65	70.22
650.80	107.66
650.94	37.45
651.09	65.54
651.23	67.88
651.38	46.81
651.52	86.60
651.67	30.43
651.81	9.36
651.96	81.92
652.10	126.39
652.25	42.13
652.39	58.51
652.54	91.28
652.68	60.85
652.83	67.88
652.97	32.77
653.12	23.41
653.26	117.03
653.41	161.50
653.55	65.54
653.70	86.60
653.84	11.70
653.99	105.32
654.13	72.56
654.27	25.75
654.42	42.13
654.56	28.09
654.71	117.03
654.85	84.26
655.00	46.81
655.14	70.22
655.29	46.81
655.43	74.90
655.57	63.19
655.72	14.04
655.86	30.43
656.01	42.13
656.15	100.64
656.30	74.90
656.44	53.83
656.58	23.41
656.73	79.58
656.87	0.00
657.01	0.00
657.16	105.32
657.30	128.73
657.45	16.38
657.59	74.90
657.73	56.17
657.88	16.38
658.02	91.28
658.16	110.01
658.31	121.71
658.45	65.54
658.60	4.68
658.74	81.92
658.88	0.00
659.03	77.24
659.17	37.45
659.31	79.58
659.46	16.38
659.60	53.83
659.74	58.51
659.89	14.04
660.03	42.13
660.17	37.45
660.32	63.19
660.46	98.30
660.60	16.38
660.74	28.09
660.89	39.79
661.03	11.70
661.17	18.72
661.32	23.41
661.46	0.00
661.60	28.09
661.74	37.45
661.89	32.77
662.03	30.43
662.17	65.54
662.31	37.45
662.46	53.83
662.60	0.00
662.74	39.79
662.88	39.79
663.03	32.77
663.17	23.41
663.31	18.72
663.45	65.54
663.60	79.58
663.74	0.00
663.88	95.96
664.02	91.28
664.17	39.79
664.31	86.60
664.45	35.11
664.59	25.75
664.73	46.81
664.88	53.83
665.02	37.45
665.16	74.90
665.30	51.49
665.44	0.00
665.59	32.77
665.73	18.72
665.87	63.19
666.01	88.94
666.15	44.47
666.29	0.00
666.44	105.32
666.58	25.75
666.72	14.04
666.86	18.72
667.00	88.94
667.14	63.19
667.28	11.70
667.43	147.45
667.57	32.77
667.71	18.72
667.85	23.41
667.99	49.15
668.13	49.15
668.27	35.11
668.41	4.68
668.56	65.54
668.70	14.04
668.84	72.56
668.98	72.56
669.12	133.41
669.26	119.37
669.40	0.00
669.54	32.77
669.68	74.90
669.82	56.17
669.96	44.47
670.10	25.75
670.25	28.09
670.39	9.36
670.53	46.81
670.67	79.58
670.81	30.43
670.95	70.22
671.09	11.70
671.23	77.24
671.37	11.70
671.51	65.54
671.65	39.79
671.79	0.00
671.93	35.11
672.07	0.00
672.21	91.28
672.35	91.28
672.49	28.09
672.63	35.11
672.77	51.49
672.91	0.00
673.05	95.96
673.19	0.00
673.33	42.13
673.47	100.64
673.61	0.00
673.75	58.51
673.89	77.24
674.03	51.49
674.17	37.45
674.31	49.15
674.45	23.41
674.59	107.66
674.73	63.19
674.87	60.85
675.01	88.94
675.15	102.98
675.29	39.79
675.43	49.15
675.56	42.13
675.70	84.26
675.84	0.00
675.98	0.00
676.12	105.32
676.26	21.06
676.40	72.56
676.54	14.04
676.68	7.02
676.82	14.04
676.96	0.00
677.10	18.72
677.23	0.00
677.37	98.30
677.51	114.69
677.65	56.17
677.79	60.85
677.93	25.75
678.07	35.11
678.21	11.70
678.34	28.09
678.48	37.45
678.62	49.15
678.76	58.51
678.90	145.11
679.04	70.22
679.18	35.11
679.31	2.34
679.45	51.49
679.59	42.13
679.73	42.13
679.87	0.00
680.00	0.00
680.14	0.00
680.28	65.54
680.42	23.41
680.56	88.94
680.70	86.60
680.83	35.11
680.97	23.41
681.11	7.02
681.25	93.62
681.39	56.17
681.52	32.77
681.66	46.81
681.80	0.00
681.94	67.88
682.07	56.17
682.21	91.28
682.35	88.94
682.49	53.83
682.62	39.79
682.76	30.43
682.90	44.47
683.04	18.72
683.17	32.77
683.31	53.83
683.45	77.24
683.59	42.13
683.72	7.02
683.86	0.00
684.00	63.19
684.13	60.85
684.27	11.70
684.41	32.77
684.55	0.00
684.68	9.36
684.82	70.22
684.96	63.19
685.09	65.54
685.23	30.43
685.37	95.96
685.50	35.11
685.64	23.41
685.78	35.11
685.91	0.00
686.05	42.13
686.19	0.00
686.32	117.03
686.46	51.49
686.60	0.00
686.73	14.04
686.87	28.09
687.01	49.15
687.14	95.96
687.28	56.17
687.42	32.77
687.55	30.43
687.69	28.09
687.82	37.45
687.96	0.00
688.10	0.00
688.23	30.43
688.37	0.00
688.50	53.83
688.64	67.88
688.78	0.00
688.91	0.00
689.05	58.51
689.18	117.03
689.32	0.00
689.46	42.13
689.59	39.79
689.73	39.79
689.86	72.56
690.00	42.13
690.13	53.83
690.27	51.49
690.41	98.30
690.54	0.00
690.68	53.83
690.81	77.24
690.95	11.70
691.08	39.79
691.22	126.39
691.35	0.00
691.49	79.58
691.62	49.15
691.76	93.62
691.89	16.38
692.03	98.30
692.16	0.00
692.30	46.81
692.43	39.79
692.57	77.24
692.70	0.00
692.84	18.72
692.97	9.36
693.11	65.54
693.24	51.49
693.38	46.81
693.51	28.09
693.65	44.47
693.78	70.22
693.92	30.43
694.05	35.11
694.19	25.75
694.32	0.00
694.45	11.70
694.59	9.36
694.72	46.81
694.86	30.43
694.99	0.00
695.13	30.43
695.26	35.11
695.39	7.02
695.53	63.19
695.66	16.38
695.80	42.13
695.93	42.13
696.07	58.51
696.20	14.04
696.33	0.00
696.47	16.38
696.60	28.09
696.73	35.11
696.87	42.13
697.00	67.88
697.14	39.79
697.27	37.45
697.40	65.54
697.54	35.11
697.67	0.00
697.80	42.13
697.94	81.92
698.07	46.81
698.21	0.00
698.34	70.22
698.47	0.00
698.61	30.43
698.74	46.81
698.87	46.81
699.01	37.45
699.14	39.79
699.27	46.81
699.40	16.38
699.54	60.85
699.67	77.24
699.80	95.96
699.94	0.00
700.07	86.60
700.20	42.13
700.34	53.83
700.47	9.36
700.60	21.06
700.73	74.90
700.87	119.37
701.00	81.92
701.13	23.41
701.26	0.00
701.40	0.00
701.53	18.72
701.66	42.13
701.79	86.60
701.93	93.62
702.06	0.00
702.19	0.00
702.32	74.90
702.46	98.30
702.59	32.77
702.72	0.00
702.85	30.43
702.99	58.51
703.12	46.81
703.25	2.34
703.38	119.37
703.51	4.68
703.65	53.83
703.78	0.00
703.91	98.30
704.04	0.00
704.17	84.26
704.31	42.13
704.44	28.09
704.57	9.36
704.70	53.83
704.83	39.79
704.96	0.00
705.10	67.88
705.23	84.26
>>>>>End Processed Spectral Data<<<<<
