SpectraSuite Data File
++++++++++++++++++++++++++++++++++++
Date: Fri Oct 04 12:13:34 GMT-05:00 2013
User: price-jones
Dark Spectrum Present: No
Reference Spectrum Present: No
Number of Sampled Component Spectra: 1
Spectrometers: USB2+H05261
Integration Time (usec): 10000 (USB2+H05261)
Spectra Averaged: 1 (USB2+H05261)
Boxcar Smoothing: 0 (USB2+H05261)
Correct for Electrical Dark: No (USB2+H05261)
Strobe/Lamp Enabled: No (USB2+H05261)
Correct for Detector Non-linearity: No (USB2+H05261)
Correct for Stray Light: No (USB2+H05261)
Number of Pixels in Processed Spectrum: 2048
>>>>>Begin Processed Spectral Data<<<<<
365.73	0.00
365.92	0.00
366.12	0.00
366.32	0.00
366.52	0.00
366.72	0.00
366.91	0.00
367.11	0.00
367.31	0.00
367.51	0.00
367.70	0.00
367.90	0.00
368.10	0.00
368.30	0.00
368.49	0.00
368.69	0.00
368.89	0.00
369.09	0.00
369.28	0.00
369.48	0.00
369.68	0.00
369.87	0.00
370.07	0.00
370.27	0.00
370.47	0.00
370.66	0.00
370.86	0.00
371.06	2.34
371.25	0.00
371.45	0.00
371.65	0.00
371.84	0.00
372.04	0.00
372.24	2.34
372.44	0.00
372.63	0.00
372.83	91.28
373.03	28.09
373.22	7.02
373.42	21.06
373.62	21.06
373.81	51.49
374.01	39.79
374.21	53.83
374.40	56.17
374.60	60.85
374.79	9.36
374.99	0.00
375.19	23.41
375.38	18.72
375.58	42.13
375.78	63.19
375.97	86.60
376.17	23.41
376.37	46.81
376.56	28.09
376.76	53.83
376.95	11.70
377.15	95.96
377.35	63.19
377.54	39.79
377.74	18.72
377.93	74.90
378.13	35.11
378.33	23.41
378.52	32.77
378.72	35.11
378.91	44.47
379.11	0.00
379.31	16.38
379.50	0.00
379.70	42.13
379.89	9.36
380.09	9.36
380.28	0.00
380.48	49.15
380.68	11.70
380.87	25.75
381.07	56.17
381.26	25.75
381.46	4.68
381.65	28.09
381.85	30.43
382.04	0.00
382.24	77.24
382.43	0.00
382.63	91.28
382.83	42.13
383.02	46.81
383.22	0.00
383.41	0.00
383.61	0.00
383.80	9.36
384.00	35.11
384.19	16.38
384.39	0.00
384.58	67.88
384.78	25.75
384.97	46.81
385.17	56.17
385.36	81.92
385.56	0.00
385.75	23.41
385.95	14.04
386.14	49.15
386.34	53.83
386.53	135.75
386.72	56.17
386.92	49.15
387.11	56.17
387.31	67.88
387.50	0.00
387.70	84.26
387.89	0.00
388.09	0.00
388.28	32.77
388.48	0.00
388.67	0.00
388.86	11.70
389.06	60.85
389.25	0.00
389.45	56.17
389.64	32.77
389.84	0.00
390.03	0.00
390.22	14.04
390.42	56.17
390.61	37.45
390.81	46.81
391.00	0.00
391.19	35.11
391.39	0.00
391.58	37.45
391.78	44.47
391.97	46.81
392.16	53.83
392.36	28.09
392.55	11.70
392.75	0.00
392.94	0.00
393.13	32.77
393.33	21.06
393.52	0.00
393.71	0.00
393.91	4.68
394.10	14.04
394.29	46.81
394.49	4.68
394.68	11.70
394.88	28.09
395.07	30.43
395.26	0.00
395.46	65.54
395.65	79.58
395.84	0.00
396.04	65.54
396.23	0.00
396.42	25.75
396.62	30.43
396.81	0.00
397.00	81.92
397.19	93.62
397.39	44.47
397.58	0.00
397.77	32.77
397.97	67.88
398.16	79.58
398.35	72.56
398.55	0.00
398.74	0.00
398.93	0.00
399.12	30.43
399.32	51.49
399.51	4.68
399.70	56.17
399.90	0.00
400.09	53.83
400.28	30.43
400.47	16.38
400.67	0.00
400.86	0.00
401.05	58.51
401.24	46.81
401.44	0.00
401.63	0.00
401.82	79.58
402.01	39.79
402.21	7.02
402.40	49.15
402.59	44.47
402.78	21.06
402.97	4.68
403.17	42.13
403.36	60.85
403.55	30.43
403.74	42.13
403.93	84.26
404.13	77.24
404.32	60.85
404.51	16.38
404.70	44.47
404.89	114.69
405.09	74.90
405.28	32.77
405.47	25.75
405.66	51.49
405.85	39.79
406.05	0.00
406.24	84.26
406.43	42.13
406.62	95.96
406.81	0.00
407.00	0.00
407.20	88.94
407.39	4.68
407.58	21.06
407.77	42.13
407.96	0.00
408.15	81.92
408.34	37.45
408.54	44.47
408.73	100.64
408.92	2.34
409.11	0.00
409.30	46.81
409.49	44.47
409.68	0.00
409.87	32.77
410.07	91.28
410.26	91.28
410.45	23.41
410.64	88.94
410.83	60.85
411.02	0.00
411.21	23.41
411.40	28.09
411.59	102.98
411.78	107.66
411.98	84.26
412.17	0.00
412.36	0.00
412.55	32.77
412.74	37.45
412.93	112.35
413.12	0.00
413.31	0.00
413.50	0.00
413.69	79.58
413.88	93.62
414.07	21.06
414.26	11.70
414.45	2.34
414.64	70.22
414.83	77.24
415.02	49.15
415.22	74.90
415.41	7.02
415.60	58.51
415.79	56.17
415.98	18.72
416.17	88.94
416.36	133.41
416.55	77.24
416.74	11.70
416.93	0.00
417.12	28.09
417.31	18.72
417.50	81.92
417.69	0.00
417.88	37.45
418.07	0.00
418.26	0.00
418.45	0.00
418.64	0.00
418.83	60.85
419.02	138.09
419.21	138.09
419.39	9.36
419.58	0.00
419.77	23.41
419.96	60.85
420.15	0.00
420.34	0.00
420.53	63.19
420.72	0.00
420.91	42.13
421.10	28.09
421.29	30.43
421.48	0.00
421.67	67.88
421.86	16.38
422.05	56.17
422.24	49.15
422.43	30.43
422.61	0.00
422.80	70.22
422.99	51.49
423.18	23.41
423.37	0.00
423.56	46.81
423.75	79.58
423.94	56.17
424.13	9.36
424.32	44.47
424.50	77.24
424.69	84.26
424.88	30.43
425.07	28.09
425.26	63.19
425.45	81.92
425.64	72.56
425.83	14.04
426.01	44.47
426.20	46.81
426.39	70.22
426.58	23.41
426.77	21.06
426.96	28.09
427.15	100.64
427.33	81.92
427.52	18.72
427.71	23.41
427.90	46.81
428.09	58.51
428.28	9.36
428.46	51.49
428.65	84.26
428.84	65.54
429.03	67.88
429.22	21.06
429.40	14.04
429.59	70.22
429.78	114.69
429.97	58.51
430.16	77.24
430.34	65.54
430.53	81.92
430.72	56.17
430.91	60.85
431.10	49.15
431.28	51.49
431.47	74.90
431.66	86.60
431.85	46.81
432.03	58.51
432.22	84.26
432.41	18.72
432.60	72.56
432.79	46.81
432.97	88.94
433.16	9.36
433.35	65.54
433.54	46.81
433.72	18.72
433.91	77.24
434.10	63.19
434.28	9.36
434.47	18.72
434.66	44.47
434.85	58.51
435.03	84.26
435.22	60.85
435.41	58.51
435.59	32.77
435.78	0.00
435.97	32.77
436.16	91.28
436.34	56.17
436.53	30.43
436.72	0.00
436.90	100.64
437.09	18.72
437.28	25.75
437.46	84.26
437.65	53.83
437.84	119.37
438.02	56.17
438.21	42.13
438.40	91.28
438.58	0.00
438.77	79.58
438.96	18.72
439.14	49.15
439.33	0.00
439.52	37.45
439.70	23.41
439.89	56.17
440.08	79.58
440.26	46.81
440.45	42.13
440.63	91.28
440.82	124.05
441.01	119.37
441.19	51.49
441.38	49.15
441.57	23.41
441.75	18.72
441.94	11.70
442.12	88.94
442.31	95.96
442.50	67.88
442.68	51.49
442.87	79.58
443.05	88.94
443.24	65.54
443.43	42.13
443.61	119.37
443.80	32.77
443.98	7.02
444.17	72.56
444.35	56.17
444.54	72.56
444.73	18.72
444.91	37.45
445.10	37.45
445.28	25.75
445.47	7.02
445.65	30.43
445.84	53.83
446.02	46.81
446.21	107.66
446.39	60.85
446.58	25.75
446.77	56.17
446.95	42.13
447.14	46.81
447.32	7.02
447.51	2.34
447.69	98.30
447.88	28.09
448.06	30.43
448.25	35.11
448.43	46.81
448.62	53.83
448.80	84.26
448.99	49.15
449.17	42.13
449.36	100.64
449.54	51.49
449.73	65.54
449.91	51.49
450.10	32.77
450.28	37.45
450.46	46.81
450.65	51.49
450.83	72.56
451.02	100.64
451.20	0.00
451.39	65.54
451.57	42.13
451.76	88.94
451.94	65.54
452.13	35.11
452.31	88.94
452.49	18.72
452.68	49.15
452.86	110.01
453.05	84.26
453.23	0.00
453.42	67.88
453.60	4.68
453.78	65.54
453.97	105.32
454.15	86.60
454.34	126.39
454.52	37.45
454.70	0.00
454.89	30.43
455.07	124.05
455.26	51.49
455.44	51.49
455.62	117.03
455.81	53.83
455.99	81.92
456.17	131.07
456.36	25.75
456.54	67.88
456.73	39.79
456.91	84.26
457.09	25.75
457.28	63.19
457.46	0.00
457.64	11.70
457.83	91.28
458.01	0.00
458.19	84.26
458.38	63.19
458.56	2.34
458.74	28.09
458.93	107.66
459.11	0.00
459.29	117.03
459.48	81.92
459.66	14.04
459.84	28.09
460.03	70.22
460.21	4.68
460.39	0.00
460.57	16.38
460.76	42.13
460.94	58.51
461.12	79.58
461.31	77.24
461.49	105.32
461.67	28.09
461.85	42.13
462.04	0.00
462.22	161.50
462.40	70.22
462.59	18.72
462.77	79.58
462.95	44.47
463.13	25.75
463.32	2.34
463.50	65.54
463.68	0.00
463.86	53.83
464.05	112.35
464.23	0.00
464.41	18.72
464.59	58.51
464.78	4.68
464.96	18.72
465.14	51.49
465.32	72.56
465.50	4.68
465.69	0.00
465.87	67.88
466.05	60.85
466.23	84.26
466.41	30.43
466.60	77.24
466.78	11.70
466.96	42.13
467.14	70.22
467.32	9.36
467.51	84.26
467.69	72.56
467.87	9.36
468.05	63.19
468.23	25.75
468.41	39.79
468.60	25.75
468.78	39.79
468.96	49.15
469.14	86.60
469.32	88.94
469.50	58.51
469.69	28.09
469.87	0.00
470.05	63.19
470.23	58.51
470.41	0.00
470.59	86.60
470.77	91.28
470.95	46.81
471.14	35.11
471.32	102.98
471.50	138.09
471.68	67.88
471.86	86.60
472.04	7.02
472.22	110.01
472.40	0.00
472.58	58.51
472.77	0.00
472.95	32.77
473.13	112.35
473.31	131.07
473.49	91.28
473.67	25.75
473.85	35.11
474.03	18.72
474.21	23.41
474.39	138.09
474.57	88.94
474.75	18.72
474.93	49.15
475.12	51.49
475.30	88.94
475.48	88.94
475.66	37.45
475.84	28.09
476.02	28.09
476.20	39.79
476.38	42.13
476.56	79.58
476.74	49.15
476.92	11.70
477.10	107.66
477.28	67.88
477.46	35.11
477.64	86.60
477.82	67.88
478.00	63.19
478.18	72.56
478.36	56.17
478.54	46.81
478.72	16.38
478.90	0.00
479.08	14.04
479.26	44.47
479.44	63.19
479.62	72.56
479.80	16.38
479.98	42.13
480.16	56.17
480.34	93.62
480.52	84.26
480.70	23.41
480.88	42.13
481.06	65.54
481.24	0.00
481.41	65.54
481.59	63.19
481.77	95.96
481.95	79.58
482.13	121.71
482.31	58.51
482.49	14.04
482.67	72.56
482.85	74.90
483.03	142.77
483.21	44.47
483.39	95.96
483.57	51.49
483.74	60.85
483.92	63.19
484.10	72.56
484.28	84.26
484.46	44.47
484.64	112.35
484.82	74.90
485.00	56.17
485.18	18.72
485.35	67.88
485.53	39.79
485.71	0.00
485.89	18.72
486.07	21.06
486.25	44.47
486.43	18.72
486.61	35.11
486.78	126.39
486.96	86.60
487.14	147.45
487.32	0.00
487.50	58.51
487.68	42.13
487.85	9.36
488.03	110.01
488.21	145.11
488.39	95.96
488.57	88.94
488.75	117.03
488.92	44.47
489.10	67.88
489.28	95.96
489.46	72.56
489.64	112.35
489.81	65.54
489.99	72.56
490.17	70.22
490.35	37.45
490.53	121.71
490.70	53.83
490.88	30.43
491.06	84.26
491.24	112.35
491.41	39.79
491.59	81.92
491.77	74.90
491.95	49.15
492.13	53.83
492.30	72.56
492.48	149.79
492.66	81.92
492.84	74.90
493.01	86.60
493.19	86.60
493.37	51.49
493.54	159.16
493.72	81.92
493.90	16.38
494.08	98.30
494.25	70.22
494.43	86.60
494.61	70.22
494.79	21.06
494.96	135.75
495.14	135.75
495.32	46.81
495.49	67.88
495.67	51.49
495.85	77.24
496.02	21.06
496.20	110.01
496.38	32.77
496.55	110.01
496.73	72.56
496.91	77.24
497.09	65.54
497.26	91.28
497.44	44.47
497.62	110.01
497.79	53.83
497.97	67.88
498.14	93.62
498.32	117.03
498.50	28.09
498.67	77.24
498.85	74.90
499.03	86.60
499.20	128.73
499.38	95.96
499.56	112.35
499.73	84.26
499.91	18.72
500.08	128.73
500.26	79.58
500.44	67.88
500.61	60.85
500.79	0.00
500.97	56.17
501.14	72.56
501.32	30.43
501.49	114.69
501.67	114.69
501.84	93.62
502.02	93.62
502.20	49.15
502.37	16.38
502.55	65.54
502.72	30.43
502.90	46.81
503.07	49.15
503.25	119.37
503.43	121.71
503.60	105.32
503.78	133.41
503.95	39.79
504.13	0.00
504.30	117.03
504.48	23.41
504.65	25.75
504.83	173.20
505.01	145.11
505.18	25.75
505.36	93.62
505.53	30.43
505.71	159.16
505.88	72.56
506.06	138.09
506.23	93.62
506.41	98.30
506.58	51.49
506.76	46.81
506.93	114.69
507.11	42.13
507.28	60.85
507.46	74.90
507.63	60.85
507.81	79.58
507.98	46.81
508.16	88.94
508.33	18.72
508.50	79.58
508.68	98.30
508.85	23.41
509.03	39.79
509.20	147.45
509.38	51.49
509.55	110.01
509.73	49.15
509.90	128.73
510.08	107.66
510.25	14.04
510.42	98.30
510.60	81.92
510.77	81.92
510.95	100.64
511.12	30.43
511.30	86.60
511.47	53.83
511.64	112.35
511.82	0.00
511.99	44.47
512.17	30.43
512.34	56.17
512.51	70.22
512.69	56.17
512.86	72.56
513.04	4.68
513.21	117.03
513.38	63.19
513.56	46.81
513.73	86.60
513.90	84.26
514.08	14.04
514.25	42.13
514.43	110.01
514.60	14.04
514.77	11.70
514.95	63.19
515.12	98.30
515.29	102.98
515.47	70.22
515.64	9.36
515.81	63.19
515.99	107.66
516.16	44.47
516.33	81.92
516.51	95.96
516.68	74.90
516.85	81.92
517.03	93.62
517.20	77.24
517.37	65.54
517.54	58.51
517.72	117.03
517.89	4.68
518.06	7.02
518.24	88.94
518.41	100.64
518.58	102.98
518.75	16.38
518.93	100.64
519.10	79.58
519.27	88.94
519.45	51.49
519.62	23.41
519.79	70.22
519.96	79.58
520.14	84.26
520.31	121.71
520.48	72.56
520.65	140.43
520.83	100.64
521.00	70.22
521.17	46.81
521.34	60.85
521.52	60.85
521.69	119.37
521.86	0.00
522.03	114.69
522.20	112.35
522.38	58.51
522.55	138.09
522.72	117.03
522.89	121.71
523.07	124.05
523.24	30.43
523.41	37.45
523.58	58.51
523.75	119.37
523.92	86.60
524.10	93.62
524.27	42.13
524.44	93.62
524.61	93.62
524.78	117.03
524.96	58.51
525.13	72.56
525.30	14.04
525.47	42.13
525.64	88.94
525.81	121.71
525.98	9.36
526.16	53.83
526.33	51.49
526.50	112.35
526.67	74.90
526.84	72.56
527.01	58.51
527.18	91.28
527.36	105.32
527.53	60.85
527.70	56.17
527.87	107.66
528.04	119.37
528.21	32.77
528.38	44.47
528.55	110.01
528.72	117.03
528.89	149.79
529.07	173.20
529.24	77.24
529.41	152.13
529.58	86.60
529.75	63.19
529.92	79.58
530.09	117.03
530.26	72.56
530.43	58.51
530.60	91.28
530.77	131.07
530.94	79.58
531.11	98.30
531.28	65.54
531.46	100.64
531.63	79.58
531.80	51.49
531.97	72.56
532.14	23.41
532.31	37.45
532.48	98.30
532.65	32.77
532.82	102.98
532.99	53.83
533.16	0.00
533.33	98.30
533.50	112.35
533.67	110.01
533.84	74.90
534.01	79.58
534.18	49.15
534.35	67.88
534.52	119.37
534.69	44.47
534.86	107.66
535.03	107.66
535.20	140.43
535.37	112.35
535.54	117.03
535.71	107.66
535.88	105.32
536.05	74.90
536.22	119.37
536.38	63.19
536.55	145.11
536.72	93.62
536.89	84.26
537.06	46.81
537.23	98.30
537.40	93.62
537.57	131.07
537.74	56.17
537.91	79.58
538.08	63.19
538.25	60.85
538.42	112.35
538.59	49.15
538.75	138.09
538.92	112.35
539.09	98.30
539.26	74.90
539.43	56.17
539.60	110.01
539.77	114.69
539.94	51.49
540.11	39.79
540.28	46.81
540.44	114.69
540.61	114.69
540.78	67.88
540.95	14.04
541.12	107.66
541.29	74.90
541.46	93.62
541.62	105.32
541.79	81.92
541.96	65.54
542.13	79.58
542.30	91.28
542.47	65.54
542.63	42.13
542.80	51.49
542.97	79.58
543.14	133.41
543.31	86.60
543.48	56.17
543.64	98.30
543.81	42.13
543.98	95.96
544.15	72.56
544.32	53.83
544.48	91.28
544.65	16.38
544.82	117.03
544.99	105.32
545.16	81.92
545.32	119.37
545.49	147.45
545.66	102.98
545.83	67.88
546.00	37.45
546.16	86.60
546.33	124.05
546.50	79.58
546.67	102.98
546.83	112.35
547.00	65.54
547.17	46.81
547.34	105.32
547.50	28.09
547.67	86.60
547.84	74.90
548.00	126.39
548.17	102.98
548.34	74.90
548.51	72.56
548.67	70.22
548.84	93.62
549.01	53.83
549.18	138.09
549.34	98.30
549.51	67.88
549.68	93.62
549.84	0.00
550.01	65.54
550.18	121.71
550.34	53.83
550.51	102.98
550.68	105.32
550.84	56.17
551.01	102.98
551.18	98.30
551.34	67.88
551.51	84.26
551.68	81.92
551.84	145.11
552.01	37.45
552.18	28.09
552.34	84.26
552.51	93.62
552.68	0.00
552.84	110.01
553.01	60.85
553.18	44.47
553.34	121.71
553.51	39.79
553.67	159.16
553.84	91.28
554.01	67.88
554.17	46.81
554.34	35.11
554.51	21.06
554.67	35.11
554.84	51.49
555.00	14.04
555.17	14.04
555.33	72.56
555.50	105.32
555.67	126.39
555.83	142.77
556.00	95.96
556.16	88.94
556.33	70.22
556.50	84.26
556.66	60.85
556.83	128.73
556.99	56.17
557.16	93.62
557.32	25.75
557.49	9.36
557.65	32.77
557.82	107.66
557.98	88.94
558.15	91.28
558.32	93.62
558.48	49.15
558.65	32.77
558.81	81.92
558.98	88.94
559.14	93.62
559.31	140.43
559.47	112.35
559.64	100.64
559.80	67.88
559.97	91.28
560.13	70.22
560.30	145.11
560.46	110.01
560.63	74.90
560.79	98.30
560.96	105.32
561.12	37.45
561.29	86.60
561.45	42.13
561.61	72.56
561.78	79.58
561.94	44.47
562.11	79.58
562.27	35.11
562.44	81.92
562.60	39.79
562.77	84.26
562.93	121.71
563.10	128.73
563.26	51.49
563.42	105.32
563.59	86.60
563.75	107.66
563.92	42.13
564.08	112.35
564.24	42.13
564.41	56.17
564.57	60.85
564.74	77.24
564.90	23.41
565.07	100.64
565.23	107.66
565.39	86.60
565.56	135.75
565.72	110.01
565.88	74.90
566.05	11.70
566.21	56.17
566.38	86.60
566.54	7.02
566.70	84.26
566.87	56.17
567.03	23.41
567.19	51.49
567.36	117.03
567.52	93.62
567.68	81.92
567.85	51.49
568.01	142.77
568.17	79.58
568.34	67.88
568.50	60.85
568.66	100.64
568.83	126.39
568.99	105.32
569.15	117.03
569.32	98.30
569.48	39.79
569.64	128.73
569.81	35.11
569.97	42.13
570.13	56.17
570.30	16.38
570.46	74.90
570.62	117.03
570.78	86.60
570.95	84.26
571.11	107.66
571.27	60.85
571.43	30.43
571.60	53.83
571.76	46.81
571.92	149.79
572.09	114.69
572.25	46.81
572.41	110.01
572.57	51.49
572.74	112.35
572.90	51.49
573.06	81.92
573.22	79.58
573.38	98.30
573.55	95.96
573.71	135.75
573.87	65.54
574.03	81.92
574.20	67.88
574.36	117.03
574.52	37.45
574.68	16.38
574.84	46.81
575.01	25.75
575.17	121.71
575.33	72.56
575.49	60.85
575.65	112.35
575.82	105.32
575.98	107.66
576.14	60.85
576.30	7.02
576.46	84.26
576.62	117.03
576.79	21.06
576.95	72.56
577.11	133.41
577.27	58.51
577.43	93.62
577.59	149.79
577.75	18.72
577.92	9.36
578.08	84.26
578.24	70.22
578.40	86.60
578.56	81.92
578.72	51.49
578.88	81.92
579.04	60.85
579.21	114.69
579.37	51.49
579.53	91.28
579.69	0.00
579.85	86.60
580.01	72.56
580.17	77.24
580.33	44.47
580.49	84.26
580.65	56.17
580.82	14.04
580.98	84.26
581.14	93.62
581.30	28.09
581.46	98.30
581.62	102.98
581.78	105.32
581.94	70.22
582.10	88.94
582.26	77.24
582.42	44.47
582.58	117.03
582.74	53.83
582.90	42.13
583.06	70.22
583.22	16.38
583.38	81.92
583.54	117.03
583.70	184.90
583.86	77.24
584.02	53.83
584.18	126.39
584.34	65.54
584.50	21.06
584.66	86.60
584.82	53.83
584.98	58.51
585.14	11.70
585.30	112.35
585.46	25.75
585.62	138.09
585.78	60.85
585.94	88.94
586.10	58.51
586.26	32.77
586.42	79.58
586.58	42.13
586.74	74.90
586.90	74.90
587.06	124.05
587.22	117.03
587.38	70.22
587.54	53.83
587.70	58.51
587.86	67.88
588.02	72.56
588.18	86.60
588.34	112.35
588.49	37.45
588.65	98.30
588.81	95.96
588.97	77.24
589.13	147.45
589.29	60.85
589.45	4.68
589.61	67.88
589.77	51.49
589.93	9.36
590.08	0.00
590.24	0.00
590.40	51.49
590.56	49.15
590.72	39.79
590.88	93.62
591.04	121.71
591.20	119.37
591.35	77.24
591.51	53.83
591.67	77.24
591.83	126.39
591.99	102.98
592.15	163.84
592.31	121.71
592.46	60.85
592.62	81.92
592.78	110.01
592.94	56.17
593.10	56.17
593.26	63.19
593.41	84.26
593.57	156.82
593.73	65.54
593.89	107.66
594.05	67.88
594.20	21.06
594.36	67.88
594.52	56.17
594.68	124.05
594.84	49.15
594.99	107.66
595.15	102.98
595.31	72.56
595.47	84.26
595.62	58.51
595.78	60.85
595.94	67.88
596.10	46.81
596.25	42.13
596.41	86.60
596.57	23.41
596.73	39.79
596.88	35.11
597.04	156.82
597.20	65.54
597.36	126.39
597.51	88.94
597.67	84.26
597.83	110.01
597.99	110.01
598.14	63.19
598.30	51.49
598.46	79.58
598.61	35.11
598.77	110.01
598.93	60.85
599.09	107.66
599.24	63.19
599.40	98.30
599.56	56.17
599.71	112.35
599.87	37.45
600.03	53.83
600.18	53.83
600.34	124.05
600.50	114.69
600.65	93.62
600.81	98.30
600.97	102.98
601.12	88.94
601.28	133.41
601.44	81.92
601.59	79.58
601.75	51.49
601.91	72.56
602.06	140.43
602.22	56.17
602.37	65.54
602.53	119.37
602.69	49.15
602.84	131.07
603.00	88.94
603.16	56.17
603.31	121.71
603.47	72.56
603.62	110.01
603.78	112.35
603.94	72.56
604.09	35.11
604.25	84.26
604.40	63.19
604.56	30.43
604.71	51.49
604.87	147.45
605.03	67.88
605.18	79.58
605.34	105.32
605.49	100.64
605.65	88.94
605.80	44.47
605.96	98.30
606.12	95.96
606.27	21.06
606.43	121.71
606.58	110.01
606.74	88.94
606.89	65.54
607.05	110.01
607.20	51.49
607.36	4.68
607.51	56.17
607.67	156.82
607.82	46.81
607.98	100.64
608.13	46.81
608.29	84.26
608.44	35.11
608.60	37.45
608.75	84.26
608.91	74.90
609.06	95.96
609.22	65.54
609.37	0.00
609.53	65.54
609.68	142.77
609.84	51.49
609.99	67.88
610.15	23.41
610.30	2.34
610.46	84.26
610.61	107.66
610.76	65.54
610.92	21.06
611.07	18.72
611.23	72.56
611.38	86.60
611.54	105.32
611.69	58.51
611.84	46.81
612.00	42.13
612.15	51.49
612.31	39.79
612.46	74.90
612.62	95.96
612.77	35.11
612.92	9.36
613.08	51.49
613.23	32.77
613.39	91.28
613.54	44.47
613.69	105.32
613.85	51.49
614.00	114.69
614.15	58.51
614.31	11.70
614.46	107.66
614.62	107.66
614.77	72.56
614.92	7.02
615.08	35.11
615.23	60.85
615.38	88.94
615.54	28.09
615.69	93.62
615.84	2.34
616.00	65.54
616.15	67.88
616.30	21.06
616.46	81.92
616.61	84.26
616.76	56.17
616.92	51.49
617.07	60.85
617.22	74.90
617.37	72.56
617.53	145.11
617.68	60.85
617.83	102.98
617.99	81.92
618.14	81.92
618.29	74.90
618.45	93.62
618.60	32.77
618.75	0.00
618.90	100.64
619.06	77.24
619.21	49.15
619.36	72.56
619.51	42.13
619.67	91.28
619.82	4.68
619.97	63.19
620.12	131.07
620.28	32.77
620.43	72.56
620.58	18.72
620.73	91.28
620.89	81.92
621.04	65.54
621.19	58.51
621.34	21.06
621.49	74.90
621.65	51.49
621.80	42.13
621.95	86.60
622.10	51.49
622.25	63.19
622.41	35.11
622.56	14.04
622.71	49.15
622.86	49.15
623.01	49.15
623.16	84.26
623.32	107.66
623.47	11.70
623.62	114.69
623.77	0.00
623.92	98.30
624.07	16.38
624.23	88.94
624.38	77.24
624.53	46.81
624.68	25.75
624.83	72.56
624.98	112.35
625.13	124.05
625.29	4.68
625.44	0.00
625.59	95.96
625.74	124.05
625.89	53.83
626.04	81.92
626.19	121.71
626.34	91.28
626.49	131.07
626.65	30.43
626.80	53.83
626.95	37.45
627.10	105.32
627.25	14.04
627.40	0.00
627.55	9.36
627.70	58.51
627.85	49.15
628.00	42.13
628.15	39.79
628.30	0.00
628.45	63.19
628.60	67.88
628.76	105.32
628.91	56.17
629.06	16.38
629.21	49.15
629.36	95.96
629.51	107.66
629.66	56.17
629.81	0.00
629.96	53.83
630.11	32.77
630.26	39.79
630.41	112.35
630.56	53.83
630.71	133.41
630.86	74.90
631.01	2.34
631.16	84.26
631.31	25.75
631.46	60.85
631.61	37.45
631.76	53.83
631.91	107.66
632.06	86.60
632.21	79.58
632.36	28.09
632.51	49.15
632.66	60.85
632.81	23.41
632.96	168.52
633.10	93.62
633.25	74.90
633.40	28.09
633.55	93.62
633.70	102.98
633.85	39.79
634.00	44.47
634.15	32.77
634.30	49.15
634.45	67.88
634.60	28.09
634.75	72.56
634.90	74.90
635.05	110.01
635.19	98.30
635.34	110.01
635.49	9.36
635.64	49.15
635.79	23.41
635.94	4.68
636.09	65.54
636.24	95.96
636.39	100.64
636.53	53.83
636.68	37.45
636.83	60.85
636.98	121.71
637.13	46.81
637.28	60.85
637.43	25.75
637.57	88.94
637.72	4.68
637.87	51.49
638.02	0.00
638.17	74.90
638.32	74.90
638.46	70.22
638.61	56.17
638.76	35.11
638.91	126.39
639.06	100.64
639.20	74.90
639.35	0.00
639.50	18.72
639.65	32.77
639.80	16.38
639.94	11.70
640.09	42.13
640.24	107.66
640.39	93.62
640.54	35.11
640.68	37.45
640.83	65.54
640.98	95.96
641.13	60.85
641.27	39.79
641.42	63.19
641.57	81.92
641.72	74.90
641.86	51.49
642.01	39.79
642.16	79.58
642.31	77.24
642.45	77.24
642.60	23.41
642.75	42.13
642.90	70.22
643.04	63.19
643.19	102.98
643.34	11.70
643.48	53.83
643.63	16.38
643.78	46.81
643.93	77.24
644.07	119.37
644.22	95.96
644.37	46.81
644.51	84.26
644.66	67.88
644.81	88.94
644.95	117.03
645.10	39.79
645.25	67.88
645.39	93.62
645.54	88.94
645.69	86.60
645.83	63.19
645.98	0.00
646.13	44.47
646.27	37.45
646.42	18.72
646.57	51.49
646.71	16.38
646.86	42.13
647.00	65.54
647.15	91.28
647.30	65.54
647.44	72.56
647.59	98.30
647.74	44.47
647.88	23.41
648.03	84.26
648.17	65.54
648.32	79.58
648.47	28.09
648.61	32.77
648.76	28.09
648.90	0.00
649.05	30.43
649.20	51.49
649.34	9.36
649.49	112.35
649.63	161.50
649.78	2.34
649.92	49.15
650.07	46.81
650.21	39.79
650.36	63.19
650.51	11.70
650.65	30.43
650.80	100.64
650.94	93.62
651.09	93.62
651.23	65.54
651.38	72.56
651.52	32.77
651.67	126.39
651.81	18.72
651.96	30.43
652.10	44.47
652.25	49.15
652.39	21.06
652.54	74.90
652.68	91.28
652.83	56.17
652.97	44.47
653.12	0.00
653.26	51.49
653.41	46.81
653.55	16.38
653.70	21.06
653.84	51.49
653.99	14.04
654.13	37.45
654.27	65.54
654.42	70.22
654.56	51.49
654.71	95.96
654.85	56.17
655.00	84.26
655.14	9.36
655.29	0.00
655.43	91.28
655.57	39.79
655.72	32.77
655.86	2.34
656.01	56.17
656.15	86.60
656.30	32.77
656.44	53.83
656.58	0.00
656.73	44.47
656.87	2.34
657.01	44.47
657.16	105.32
657.30	0.00
657.45	60.85
657.59	51.49
657.73	37.45
657.88	53.83
658.02	79.58
658.16	107.66
658.31	105.32
658.45	2.34
658.60	21.06
658.74	63.19
658.88	56.17
659.03	102.98
659.17	16.38
659.31	72.56
659.46	49.15
659.60	32.77
659.74	39.79
659.89	14.04
660.03	30.43
660.17	58.51
660.32	0.00
660.46	67.88
660.60	23.41
660.74	14.04
660.89	35.11
661.03	14.04
661.17	93.62
661.32	77.24
661.46	72.56
661.60	46.81
661.74	98.30
661.89	91.28
662.03	60.85
662.17	119.37
662.31	63.19
662.46	126.39
662.60	93.62
662.74	74.90
662.88	16.38
663.03	0.00
663.17	117.03
663.31	65.54
663.45	53.83
663.60	81.92
663.74	65.54
663.88	30.43
664.02	86.60
664.17	39.79
664.31	0.00
664.45	67.88
664.59	0.00
664.73	58.51
664.88	49.15
665.02	37.45
665.16	56.17
665.30	105.32
665.44	110.01
665.59	42.13
665.73	58.51
665.87	18.72
666.01	138.09
666.15	105.32
666.29	67.88
666.44	72.56
666.58	114.69
666.72	70.22
666.86	9.36
667.00	30.43
667.14	70.22
667.28	56.17
667.43	0.00
667.57	16.38
667.71	91.28
667.85	67.88
667.99	42.13
668.13	32.77
668.27	51.49
668.41	63.19
668.56	32.77
668.70	74.90
668.84	117.03
668.98	88.94
669.12	77.24
669.26	63.19
669.40	53.83
669.54	4.68
669.68	35.11
669.82	39.79
669.96	81.92
670.10	0.00
670.25	58.51
670.39	28.09
670.53	133.41
670.67	72.56
670.81	70.22
670.95	56.17
671.09	16.38
671.23	2.34
671.37	23.41
671.51	0.00
671.65	88.94
671.79	21.06
671.93	72.56
672.07	86.60
672.21	58.51
672.35	84.26
672.49	21.06
672.63	30.43
672.77	14.04
672.91	37.45
673.05	110.01
673.19	102.98
673.33	21.06
673.47	9.36
673.61	65.54
673.75	65.54
673.89	114.69
674.03	74.90
674.17	81.92
674.31	2.34
674.45	63.19
674.59	37.45
674.73	46.81
674.87	32.77
675.01	0.00
675.15	21.06
675.29	25.75
675.43	39.79
675.56	30.43
675.70	30.43
675.84	46.81
675.98	100.64
676.12	100.64
676.26	37.45
676.40	60.85
676.54	117.03
676.68	65.54
676.82	126.39
676.96	102.98
677.10	77.24
677.23	72.56
677.37	0.00
677.51	35.11
677.65	23.41
677.79	58.51
677.93	79.58
678.07	0.00
678.21	28.09
678.34	42.13
678.48	0.00
678.62	35.11
678.76	67.88
678.90	70.22
679.04	53.83
679.18	72.56
679.31	56.17
679.45	93.62
679.59	42.13
679.73	72.56
679.87	9.36
680.00	0.00
680.14	28.09
680.28	11.70
680.42	32.77
680.56	88.94
680.70	25.75
680.83	105.32
680.97	60.85
681.11	81.92
681.25	84.26
681.39	107.66
681.52	0.00
681.66	88.94
681.80	135.75
681.94	65.54
682.07	91.28
682.21	42.13
682.35	81.92
682.49	28.09
682.62	4.68
682.76	110.01
682.90	4.68
683.04	32.77
683.17	117.03
683.31	81.92
683.45	0.00
683.59	25.75
683.72	42.13
683.86	32.77
684.00	140.43
684.13	51.49
684.27	39.79
684.41	18.72
684.55	79.58
684.68	49.15
684.82	84.26
684.96	105.32
685.09	32.77
685.23	25.75
685.37	42.13
685.50	28.09
685.64	39.79
685.78	63.19
685.91	100.64
686.05	65.54
686.19	110.01
686.32	86.60
686.46	53.83
686.60	58.51
686.73	0.00
686.87	39.79
687.01	0.00
687.14	86.60
687.28	77.24
687.42	60.85
687.55	39.79
687.69	95.96
687.82	67.88
687.96	58.51
688.10	28.09
688.23	53.83
688.37	39.79
688.50	39.79
688.64	72.56
688.78	0.00
688.91	25.75
689.05	110.01
689.18	93.62
689.32	30.43
689.46	44.47
689.59	9.36
689.73	18.72
689.86	46.81
690.00	65.54
690.13	98.30
690.27	21.06
690.41	46.81
690.54	0.00
690.68	67.88
690.81	14.04
690.95	9.36
691.08	65.54
691.22	0.00
691.35	39.79
691.49	0.00
691.62	105.32
691.76	9.36
691.89	81.92
692.03	37.45
692.16	37.45
692.30	2.34
692.43	28.09
692.57	74.90
692.70	60.85
692.84	0.00
692.97	42.13
693.11	0.00
693.24	30.43
693.38	65.54
693.51	9.36
693.65	4.68
693.78	39.79
693.92	0.00
694.05	49.15
694.19	21.06
694.32	60.85
694.45	37.45
694.59	25.75
694.72	81.92
694.86	0.00
694.99	28.09
695.13	74.90
695.26	58.51
695.39	56.17
695.53	37.45
695.66	56.17
695.80	18.72
695.93	91.28
696.07	44.47
696.20	4.68
696.33	42.13
696.47	30.43
696.60	4.68
696.73	79.58
696.87	18.72
697.00	70.22
697.14	53.83
697.27	72.56
697.40	42.13
697.54	0.00
697.67	0.00
697.80	28.09
697.94	0.00
698.07	0.00
698.21	0.00
698.34	28.09
698.47	102.98
698.61	11.70
698.74	0.00
698.87	44.47
699.01	63.19
699.14	0.00
699.27	51.49
699.40	70.22
699.54	70.22
699.67	25.75
699.80	51.49
699.94	65.54
700.07	63.19
700.20	39.79
700.34	77.24
700.47	11.70
700.60	0.00
700.73	77.24
700.87	60.85
701.00	0.00
701.13	4.68
701.26	0.00
701.40	0.00
701.53	42.13
701.66	60.85
701.79	60.85
701.93	51.49
702.06	67.88
702.19	23.41
702.32	105.32
702.46	0.00
702.59	23.41
702.72	58.51
702.85	56.17
702.99	0.00
703.12	56.17
703.25	74.90
703.38	0.00
703.51	32.77
703.65	9.36
703.78	0.00
703.91	81.92
704.04	86.60
704.17	25.75
704.31	0.00
704.44	4.68
704.57	37.45
704.70	0.00
704.83	32.77
704.96	39.79
705.10	7.02
705.23	84.26
>>>>>End Processed Spectral Data<<<<<
