SpectraSuite Data File
++++++++++++++++++++++++++++++++++++
Date: Fri Oct 04 12:13:31 GMT-05:00 2013
User: price-jones
Dark Spectrum Present: No
Reference Spectrum Present: No
Number of Sampled Component Spectra: 1
Spectrometers: USB2+H05261
Integration Time (usec): 10000 (USB2+H05261)
Spectra Averaged: 1 (USB2+H05261)
Boxcar Smoothing: 0 (USB2+H05261)
Correct for Electrical Dark: No (USB2+H05261)
Strobe/Lamp Enabled: No (USB2+H05261)
Correct for Detector Non-linearity: No (USB2+H05261)
Correct for Stray Light: No (USB2+H05261)
Number of Pixels in Processed Spectrum: 2048
>>>>>Begin Processed Spectral Data<<<<<
365.73	7.02
365.92	7.02
366.12	7.02
366.32	0.00
366.52	0.00
366.72	0.00
366.91	0.00
367.11	0.00
367.31	0.00
367.51	0.00
367.70	0.00
367.90	0.00
368.10	0.00
368.30	0.00
368.49	0.00
368.69	0.00
368.89	0.00
369.09	0.00
369.28	0.00
369.48	0.00
369.68	0.00
369.87	0.00
370.07	0.00
370.27	0.00
370.47	0.00
370.66	0.00
370.86	0.00
371.06	0.00
371.25	0.00
371.45	0.00
371.65	0.00
371.84	30.43
372.04	0.00
372.24	46.81
372.44	0.00
372.63	0.00
372.83	58.51
373.03	0.00
373.22	4.68
373.42	0.00
373.62	49.15
373.81	4.68
374.01	58.51
374.21	18.72
374.40	4.68
374.60	9.36
374.79	70.22
374.99	30.43
375.19	79.58
375.38	46.81
375.58	84.26
375.78	53.83
375.97	100.64
376.17	0.00
376.37	117.03
376.56	65.54
376.76	32.77
376.95	28.09
377.15	9.36
377.35	0.00
377.54	21.06
377.74	9.36
377.93	0.00
378.13	35.11
378.33	30.43
378.52	32.77
378.72	0.00
378.91	58.51
379.11	37.45
379.31	42.13
379.50	0.00
379.70	0.00
379.89	0.00
380.09	2.34
380.28	0.00
380.48	0.00
380.68	46.81
380.87	2.34
381.07	0.00
381.26	9.36
381.46	0.00
381.65	0.00
381.85	28.09
382.04	0.00
382.24	0.00
382.43	14.04
382.63	14.04
382.83	93.62
383.02	16.38
383.22	0.00
383.41	0.00
383.61	53.83
383.80	16.38
384.00	0.00
384.19	49.15
384.39	7.02
384.58	63.19
384.78	0.00
384.97	0.00
385.17	63.19
385.36	30.43
385.56	42.13
385.75	32.77
385.95	14.04
386.14	25.75
386.34	39.79
386.53	37.45
386.72	0.00
386.92	16.38
387.11	0.00
387.31	0.00
387.50	0.00
387.70	0.00
387.89	2.34
388.09	0.00
388.28	37.45
388.48	32.77
388.67	25.75
388.86	74.90
389.06	102.98
389.25	21.06
389.45	35.11
389.64	88.94
389.84	65.54
390.03	42.13
390.22	35.11
390.42	25.75
390.61	14.04
390.81	16.38
391.00	70.22
391.19	32.77
391.39	51.49
391.58	60.85
391.78	0.00
391.97	0.00
392.16	11.70
392.36	67.88
392.55	28.09
392.75	79.58
392.94	42.13
393.13	86.60
393.33	11.70
393.52	0.00
393.71	44.47
393.91	21.06
394.10	35.11
394.29	72.56
394.49	0.00
394.68	98.30
394.88	32.77
395.07	0.00
395.26	0.00
395.46	53.83
395.65	91.28
395.84	23.41
396.04	0.00
396.23	77.24
396.42	110.01
396.62	37.45
396.81	0.00
397.00	39.79
397.19	63.19
397.39	0.00
397.58	91.28
397.77	70.22
397.97	25.75
398.16	53.83
398.35	0.00
398.55	46.81
398.74	9.36
398.93	91.28
399.12	67.88
399.32	77.24
399.51	30.43
399.70	37.45
399.90	77.24
400.09	58.51
400.28	44.47
400.47	0.00
400.67	53.83
400.86	0.00
401.05	0.00
401.24	0.00
401.44	28.09
401.63	30.43
401.82	4.68
402.01	2.34
402.21	23.41
402.40	30.43
402.59	0.00
402.78	53.83
402.97	63.19
403.17	0.00
403.36	30.43
403.55	49.15
403.74	0.00
403.93	0.00
404.13	0.00
404.32	51.49
404.51	67.88
404.70	9.36
404.89	79.58
405.09	72.56
405.28	0.00
405.47	86.60
405.66	63.19
405.85	18.72
406.05	9.36
406.24	37.45
406.43	2.34
406.62	25.75
406.81	14.04
407.00	28.09
407.20	49.15
407.39	44.47
407.58	32.77
407.77	51.49
407.96	32.77
408.15	37.45
408.34	32.77
408.54	0.00
408.73	23.41
408.92	56.17
409.11	11.70
409.30	2.34
409.49	67.88
409.68	0.00
409.87	18.72
410.07	7.02
410.26	0.00
410.45	77.24
410.64	63.19
410.83	7.02
411.02	37.45
411.21	18.72
411.40	16.38
411.59	2.34
411.78	28.09
411.98	28.09
412.17	74.90
412.36	9.36
412.55	21.06
412.74	37.45
412.93	56.17
413.12	77.24
413.31	70.22
413.50	39.79
413.69	91.28
413.88	32.77
414.07	11.70
414.26	35.11
414.45	142.77
414.64	2.34
414.83	0.00
415.02	28.09
415.22	74.90
415.41	0.00
415.60	77.24
415.79	18.72
415.98	44.47
416.17	30.43
416.36	14.04
416.55	11.70
416.74	0.00
416.93	60.85
417.12	0.00
417.31	0.00
417.50	67.88
417.69	37.45
417.88	63.19
418.07	23.41
418.26	18.72
418.45	42.13
418.64	14.04
418.83	51.49
419.02	42.13
419.21	88.94
419.39	25.75
419.58	84.26
419.77	9.36
419.96	21.06
420.15	14.04
420.34	0.00
420.53	44.47
420.72	0.00
420.91	56.17
421.10	0.00
421.29	84.26
421.48	0.00
421.67	91.28
421.86	79.58
422.05	9.36
422.24	58.51
422.43	2.34
422.61	0.00
422.80	46.81
422.99	51.49
423.18	46.81
423.37	65.54
423.56	21.06
423.75	51.49
423.94	53.83
424.13	0.00
424.32	58.51
424.50	67.88
424.69	46.81
424.88	11.70
425.07	0.00
425.26	49.15
425.45	0.00
425.64	0.00
425.83	0.00
426.01	16.38
426.20	77.24
426.39	18.72
426.58	0.00
426.77	0.00
426.96	0.00
427.15	0.00
427.33	21.06
427.52	53.83
427.71	51.49
427.90	0.00
428.09	53.83
428.28	25.75
428.46	28.09
428.65	16.38
428.84	0.00
429.03	46.81
429.22	0.00
429.40	60.85
429.59	37.45
429.78	72.56
429.97	0.00
430.16	37.45
430.34	39.79
430.53	53.83
430.72	0.00
430.91	37.45
431.10	60.85
431.28	42.13
431.47	46.81
431.66	14.04
431.85	4.68
432.03	0.00
432.22	72.56
432.41	30.43
432.60	0.00
432.79	63.19
432.97	0.00
433.16	0.00
433.35	0.00
433.54	23.41
433.72	65.54
433.91	53.83
434.10	18.72
434.28	16.38
434.47	60.85
434.66	0.00
434.85	11.70
435.03	65.54
435.22	35.11
435.41	0.00
435.59	0.00
435.78	0.00
435.97	0.00
436.16	72.56
436.34	60.85
436.53	35.11
436.72	95.96
436.90	58.51
437.09	44.47
437.28	0.00
437.46	70.22
437.65	0.00
437.84	42.13
438.02	23.41
438.21	77.24
438.40	0.00
438.58	0.00
438.77	14.04
438.96	0.00
439.14	11.70
439.33	51.49
439.52	60.85
439.70	18.72
439.89	0.00
440.08	0.00
440.26	14.04
440.45	0.00
440.63	74.90
440.82	9.36
441.01	32.77
441.19	28.09
441.38	35.11
441.57	14.04
441.75	18.72
441.94	46.81
442.12	23.41
442.31	0.00
442.50	35.11
442.68	18.72
442.87	0.00
443.05	58.51
443.24	30.43
443.43	28.09
443.61	74.90
443.80	49.15
443.98	56.17
444.17	67.88
444.35	42.13
444.54	58.51
444.73	0.00
444.91	53.83
445.10	0.00
445.28	77.24
445.47	2.34
445.65	72.56
445.84	65.54
446.02	79.58
446.21	0.00
446.39	16.38
446.58	49.15
446.77	32.77
446.95	23.41
447.14	11.70
447.32	65.54
447.51	44.47
447.69	23.41
447.88	51.49
448.06	58.51
448.25	37.45
448.43	37.45
448.62	51.49
448.80	9.36
448.99	7.02
449.17	63.19
449.36	28.09
449.54	53.83
449.73	86.60
449.91	102.98
450.10	23.41
450.28	32.77
450.46	11.70
450.65	4.68
450.83	53.83
451.02	49.15
451.20	51.49
451.39	4.68
451.57	65.54
451.76	25.75
451.94	56.17
452.13	21.06
452.31	4.68
452.49	28.09
452.68	0.00
452.86	81.92
453.05	70.22
453.23	7.02
453.42	0.00
453.60	65.54
453.78	65.54
453.97	53.83
454.15	79.58
454.34	67.88
454.52	110.01
454.70	0.00
454.89	4.68
455.07	95.96
455.26	42.13
455.44	4.68
455.62	51.49
455.81	28.09
455.99	35.11
456.17	51.49
456.36	30.43
456.54	39.79
456.73	32.77
456.91	0.00
457.09	0.00
457.28	63.19
457.46	16.38
457.64	93.62
457.83	21.06
458.01	9.36
458.19	28.09
458.38	0.00
458.56	4.68
458.74	25.75
458.93	67.88
459.11	51.49
459.29	28.09
459.48	28.09
459.66	0.00
459.84	30.43
460.03	53.83
460.21	46.81
460.39	32.77
460.57	0.00
460.76	119.37
460.94	16.38
461.12	0.00
461.31	65.54
461.49	112.35
461.67	46.81
461.85	0.00
462.04	63.19
462.22	95.96
462.40	98.30
462.59	42.13
462.77	0.00
462.95	46.81
463.13	18.72
463.32	0.00
463.50	21.06
463.68	63.19
463.86	0.00
464.05	114.69
464.23	93.62
464.41	18.72
464.59	95.96
464.78	44.47
464.96	42.13
465.14	60.85
465.32	39.79
465.50	0.00
465.69	32.77
465.87	23.41
466.05	44.47
466.23	51.49
466.41	39.79
466.60	37.45
466.78	18.72
466.96	51.49
467.14	63.19
467.32	16.38
467.51	39.79
467.69	58.51
467.87	28.09
468.05	51.49
468.23	30.43
468.41	28.09
468.60	98.30
468.78	21.06
468.96	44.47
469.14	63.19
469.32	0.00
469.50	18.72
469.69	0.00
469.87	0.00
470.05	86.60
470.23	67.88
470.41	63.19
470.59	81.92
470.77	35.11
470.95	23.41
471.14	28.09
471.32	0.00
471.50	30.43
471.68	23.41
471.86	0.00
472.04	18.72
472.22	32.77
472.40	28.09
472.58	30.43
472.77	79.58
472.95	25.75
473.13	49.15
473.31	91.28
473.49	46.81
473.67	39.79
473.85	0.00
474.03	2.34
474.21	84.26
474.39	63.19
474.57	28.09
474.75	56.17
474.93	28.09
475.12	9.36
475.30	9.36
475.48	25.75
475.66	46.81
475.84	30.43
476.02	0.00
476.20	46.81
476.38	46.81
476.56	63.19
476.74	18.72
476.92	21.06
477.10	49.15
477.28	60.85
477.46	0.00
477.64	117.03
477.82	2.34
478.00	114.69
478.18	21.06
478.36	56.17
478.54	14.04
478.72	0.00
478.90	0.00
479.08	42.13
479.26	0.00
479.44	37.45
479.62	0.00
479.80	21.06
479.98	58.51
480.16	0.00
480.34	25.75
480.52	42.13
480.70	49.15
480.88	14.04
481.06	25.75
481.24	53.83
481.41	110.01
481.59	14.04
481.77	9.36
481.95	60.85
482.13	4.68
482.31	21.06
482.49	11.70
482.67	46.81
482.85	46.81
483.03	21.06
483.21	28.09
483.39	30.43
483.57	0.00
483.74	44.47
483.92	25.75
484.10	107.66
484.28	7.02
484.46	0.00
484.64	0.00
484.82	37.45
485.00	65.54
485.18	0.00
485.35	28.09
485.53	14.04
485.71	81.92
485.89	46.81
486.07	35.11
486.25	28.09
486.43	0.00
486.61	67.88
486.78	51.49
486.96	67.88
487.14	32.77
487.32	49.15
487.50	107.66
487.68	93.62
487.85	65.54
488.03	14.04
488.21	0.00
488.39	21.06
488.57	63.19
488.75	0.00
488.92	0.00
489.10	56.17
489.28	0.00
489.46	42.13
489.64	72.56
489.81	16.38
489.99	105.32
490.17	67.88
490.35	77.24
490.53	42.13
490.70	93.62
490.88	46.81
491.06	0.00
491.24	42.13
491.41	46.81
491.59	53.83
491.77	37.45
491.95	81.92
492.13	42.13
492.30	138.09
492.48	39.79
492.66	58.51
492.84	67.88
493.01	0.00
493.19	128.73
493.37	23.41
493.54	65.54
493.72	32.77
493.90	60.85
494.08	0.00
494.25	18.72
494.43	60.85
494.61	37.45
494.79	46.81
494.96	0.00
495.14	53.83
495.32	0.00
495.49	28.09
495.67	37.45
495.85	63.19
496.02	0.00
496.20	28.09
496.38	28.09
496.55	56.17
496.73	39.79
496.91	32.77
497.09	46.81
497.26	110.01
497.44	56.17
497.62	14.04
497.79	25.75
497.97	39.79
498.14	0.00
498.32	30.43
498.50	58.51
498.67	77.24
498.85	21.06
499.03	0.00
499.20	25.75
499.38	16.38
499.56	44.47
499.73	0.00
499.91	67.88
500.08	14.04
500.26	0.00
500.44	86.60
500.61	9.36
500.79	7.02
500.97	2.34
501.14	56.17
501.32	9.36
501.49	30.43
501.67	72.56
501.84	4.68
502.02	46.81
502.20	37.45
502.37	121.71
502.55	0.00
502.72	0.00
502.90	56.17
503.07	81.92
503.25	72.56
503.43	0.00
503.60	46.81
503.78	9.36
503.95	2.34
504.13	0.00
504.30	63.19
504.48	16.38
504.65	23.41
504.83	25.75
505.01	58.51
505.18	65.54
505.36	25.75
505.53	14.04
505.71	44.47
505.88	77.24
506.06	28.09
506.23	0.00
506.41	67.88
506.58	95.96
506.76	23.41
506.93	79.58
507.11	0.00
507.28	53.83
507.46	14.04
507.63	39.79
507.81	91.28
507.98	28.09
508.16	49.15
508.33	0.00
508.50	30.43
508.68	18.72
508.85	35.11
509.03	51.49
509.20	25.75
509.38	28.09
509.55	67.88
509.73	23.41
509.90	70.22
510.08	88.94
510.25	0.00
510.42	32.77
510.60	79.58
510.77	21.06
510.95	60.85
511.12	35.11
511.30	32.77
511.47	70.22
511.64	28.09
511.82	28.09
511.99	77.24
512.17	60.85
512.34	32.77
512.51	18.72
512.69	18.72
512.86	14.04
513.04	35.11
513.21	98.30
513.38	110.01
513.56	23.41
513.73	39.79
513.90	42.13
514.08	18.72
514.25	30.43
514.43	9.36
514.60	86.60
514.77	93.62
514.95	7.02
515.12	77.24
515.29	65.54
515.47	25.75
515.64	14.04
515.81	32.77
515.99	91.28
516.16	63.19
516.33	63.19
516.51	39.79
516.68	60.85
516.85	37.45
517.03	14.04
517.20	67.88
517.37	14.04
517.54	117.03
517.72	0.00
517.89	42.13
518.06	51.49
518.24	0.00
518.41	30.43
518.58	16.38
518.75	74.90
518.93	4.68
519.10	21.06
519.27	63.19
519.45	88.94
519.62	88.94
519.79	0.00
519.96	42.13
520.14	91.28
520.31	14.04
520.48	42.13
520.65	49.15
520.83	72.56
521.00	21.06
521.17	65.54
521.34	25.75
521.52	44.47
521.69	84.26
521.86	119.37
522.03	21.06
522.20	0.00
522.38	105.32
522.55	63.19
522.72	23.41
522.89	37.45
523.07	79.58
523.24	70.22
523.41	107.66
523.58	93.62
523.75	53.83
523.92	21.06
524.10	53.83
524.27	46.81
524.44	21.06
524.61	18.72
524.78	79.58
524.96	23.41
525.13	70.22
525.30	42.13
525.47	86.60
525.64	16.38
525.81	74.90
525.98	51.49
526.16	86.60
526.33	110.01
526.50	37.45
526.67	23.41
526.84	0.00
527.01	0.00
527.18	65.54
527.36	23.41
527.53	39.79
527.70	0.00
527.87	51.49
528.04	95.96
528.21	30.43
528.38	51.49
528.55	9.36
528.72	53.83
528.89	11.70
529.07	11.70
529.24	16.38
529.41	117.03
529.58	63.19
529.75	74.90
529.92	32.77
530.09	37.45
530.26	28.09
530.43	67.88
530.60	60.85
530.77	18.72
530.94	23.41
531.11	32.77
531.28	79.58
531.46	128.73
531.63	18.72
531.80	60.85
531.97	39.79
532.14	53.83
532.31	0.00
532.48	21.06
532.65	49.15
532.82	32.77
532.99	39.79
533.16	0.00
533.33	102.98
533.50	21.06
533.67	112.35
533.84	67.88
534.01	0.00
534.18	16.38
534.35	60.85
534.52	9.36
534.69	86.60
534.86	53.83
535.03	105.32
535.20	79.58
535.37	39.79
535.54	65.54
535.71	37.45
535.88	60.85
536.05	0.00
536.22	25.75
536.38	65.54
536.55	28.09
536.72	79.58
536.89	0.00
537.06	100.64
537.23	53.83
537.40	39.79
537.57	60.85
537.74	0.00
537.91	30.43
538.08	65.54
538.25	46.81
538.42	0.00
538.59	11.70
538.75	65.54
538.92	91.28
539.09	30.43
539.26	7.02
539.43	23.41
539.60	95.96
539.77	7.02
539.94	23.41
540.11	21.06
540.28	81.92
540.44	37.45
540.61	51.49
540.78	60.85
540.95	7.02
541.12	56.17
541.29	11.70
541.46	25.75
541.62	65.54
541.79	0.00
541.96	51.49
542.13	88.94
542.30	49.15
542.47	77.24
542.63	14.04
542.80	56.17
542.97	0.00
543.14	9.36
543.31	53.83
543.48	35.11
543.64	0.00
543.81	49.15
543.98	42.13
544.15	91.28
544.32	23.41
544.48	0.00
544.65	42.13
544.82	63.19
544.99	0.00
545.16	124.05
545.32	23.41
545.49	81.92
545.66	53.83
545.83	0.00
546.00	14.04
546.16	51.49
546.33	72.56
546.50	23.41
546.67	16.38
546.83	51.49
547.00	42.13
547.17	30.43
547.34	114.69
547.50	44.47
547.67	58.51
547.84	49.15
548.00	49.15
548.17	65.54
548.34	98.30
548.51	0.00
548.67	51.49
548.84	77.24
549.01	42.13
549.18	107.66
549.34	49.15
549.51	67.88
549.68	16.38
549.84	23.41
550.01	49.15
550.18	30.43
550.34	86.60
550.51	110.01
550.68	56.17
550.84	7.02
551.01	60.85
551.18	124.05
551.34	14.04
551.51	0.00
551.68	18.72
551.84	18.72
552.01	7.02
552.18	131.07
552.34	9.36
552.51	60.85
552.68	25.75
552.84	0.00
553.01	0.00
553.18	21.06
553.34	23.41
553.51	4.68
553.67	28.09
553.84	0.00
554.01	65.54
554.17	72.56
554.34	107.66
554.51	63.19
554.67	58.51
554.84	37.45
555.00	49.15
555.17	0.00
555.33	105.32
555.50	56.17
555.67	95.96
555.83	35.11
556.00	21.06
556.16	53.83
556.33	88.94
556.50	58.51
556.66	30.43
556.83	79.58
556.99	84.26
557.16	2.34
557.32	79.58
557.49	53.83
557.65	72.56
557.82	0.00
557.98	0.00
558.15	32.77
558.32	100.64
558.48	107.66
558.65	28.09
558.81	35.11
558.98	21.06
559.14	58.51
559.31	95.96
559.47	58.51
559.64	67.88
559.80	7.02
559.97	28.09
560.13	21.06
560.30	14.04
560.46	56.17
560.63	4.68
560.79	42.13
560.96	9.36
561.12	39.79
561.29	102.98
561.45	9.36
561.61	35.11
561.78	0.00
561.94	56.17
562.11	16.38
562.27	49.15
562.44	37.45
562.60	7.02
562.77	95.96
562.93	21.06
563.10	70.22
563.26	30.43
563.42	81.92
563.59	77.24
563.75	25.75
563.92	0.00
564.08	21.06
564.24	37.45
564.41	53.83
564.57	0.00
564.74	65.54
564.90	35.11
565.07	16.38
565.23	11.70
565.39	56.17
565.56	32.77
565.72	0.00
565.88	28.09
566.05	56.17
566.21	0.00
566.38	67.88
566.54	77.24
566.70	21.06
566.87	121.71
567.03	39.79
567.19	39.79
567.36	53.83
567.52	39.79
567.68	42.13
567.85	86.60
568.01	30.43
568.17	25.75
568.34	49.15
568.50	21.06
568.66	37.45
568.83	60.85
568.99	39.79
569.15	37.45
569.32	79.58
569.48	35.11
569.64	70.22
569.81	58.51
569.97	84.26
570.13	0.00
570.30	11.70
570.46	63.19
570.62	16.38
570.78	58.51
570.95	16.38
571.11	74.90
571.27	65.54
571.43	49.15
571.60	124.05
571.76	25.75
571.92	49.15
572.09	44.47
572.25	0.00
572.41	56.17
572.57	91.28
572.74	49.15
572.90	14.04
573.06	16.38
573.22	51.49
573.38	46.81
573.55	70.22
573.71	56.17
573.87	23.41
574.03	70.22
574.20	28.09
574.36	25.75
574.52	0.00
574.68	42.13
574.84	37.45
575.01	70.22
575.17	84.26
575.33	46.81
575.49	77.24
575.65	44.47
575.82	0.00
575.98	11.70
576.14	42.13
576.30	37.45
576.46	21.06
576.62	112.35
576.79	67.88
576.95	16.38
577.11	84.26
577.27	74.90
577.43	51.49
577.59	51.49
577.75	0.00
577.92	46.81
578.08	74.90
578.24	100.64
578.40	100.64
578.56	35.11
578.72	60.85
578.88	7.02
579.04	25.75
579.21	0.00
579.37	81.92
579.53	7.02
579.69	60.85
579.85	30.43
580.01	37.45
580.17	65.54
580.33	79.58
580.49	18.72
580.65	65.54
580.82	60.85
580.98	32.77
581.14	23.41
581.30	25.75
581.46	46.81
581.62	65.54
581.78	39.79
581.94	77.24
582.10	0.00
582.26	39.79
582.42	23.41
582.58	119.37
582.74	91.28
582.90	79.58
583.06	128.73
583.22	46.81
583.38	46.81
583.54	30.43
583.70	56.17
583.86	65.54
584.02	51.49
584.18	35.11
584.34	0.00
584.50	4.68
584.66	81.92
584.82	86.60
584.98	110.01
585.14	105.32
585.30	112.35
585.46	67.88
585.62	39.79
585.78	105.32
585.94	95.96
586.10	0.00
586.26	65.54
586.42	23.41
586.58	0.00
586.74	63.19
586.90	53.83
587.06	32.77
587.22	42.13
587.38	35.11
587.54	51.49
587.70	39.79
587.86	46.81
588.02	39.79
588.18	86.60
588.34	74.90
588.49	42.13
588.65	77.24
588.81	25.75
588.97	0.00
589.13	51.49
589.29	74.90
589.45	91.28
589.61	0.00
589.77	23.41
589.93	95.96
590.08	30.43
590.24	77.24
590.40	74.90
590.56	95.96
590.72	0.00
590.88	70.22
591.04	4.68
591.20	35.11
591.35	86.60
591.51	23.41
591.67	84.26
591.83	35.11
591.99	35.11
592.15	9.36
592.31	53.83
592.46	0.00
592.62	35.11
592.78	14.04
592.94	46.81
593.10	0.00
593.26	0.00
593.41	42.13
593.57	44.47
593.73	0.00
593.89	65.54
594.05	0.00
594.20	32.77
594.36	16.38
594.52	49.15
594.68	9.36
594.84	0.00
594.99	9.36
595.15	0.00
595.31	11.70
595.47	67.88
595.62	93.62
595.78	72.56
595.94	49.15
596.10	0.00
596.25	0.00
596.41	14.04
596.57	60.85
596.73	0.00
596.88	56.17
597.04	18.72
597.20	42.13
597.36	159.16
597.51	32.77
597.67	0.00
597.83	58.51
597.99	18.72
598.14	32.77
598.30	0.00
598.46	35.11
598.61	30.43
598.77	65.54
598.93	56.17
599.09	0.00
599.24	0.00
599.40	25.75
599.56	0.00
599.71	0.00
599.87	39.79
600.03	0.00
600.18	49.15
600.34	14.04
600.50	0.00
600.65	58.51
600.81	72.56
600.97	53.83
601.12	46.81
601.28	72.56
601.44	23.41
601.59	30.43
601.75	0.00
601.91	124.05
602.06	56.17
602.22	42.13
602.37	0.00
602.53	88.94
602.69	46.81
602.84	49.15
603.00	86.60
603.16	65.54
603.31	105.32
603.47	91.28
603.62	49.15
603.78	70.22
603.94	58.51
604.09	58.51
604.25	35.11
604.40	0.00
604.56	16.38
604.71	0.00
604.87	65.54
605.03	11.70
605.18	0.00
605.34	4.68
605.49	77.24
605.65	35.11
605.80	95.96
605.96	44.47
606.12	21.06
606.27	28.09
606.43	0.00
606.58	0.00
606.74	51.49
606.89	67.88
607.05	100.64
607.20	70.22
607.36	56.17
607.51	37.45
607.67	44.47
607.82	0.00
607.98	72.56
608.13	28.09
608.29	0.00
608.44	86.60
608.60	30.43
608.75	0.00
608.91	63.19
609.06	23.41
609.22	72.56
609.37	23.41
609.53	30.43
609.68	0.00
609.84	14.04
609.99	51.49
610.15	0.00
610.30	42.13
610.46	18.72
610.61	53.83
610.76	35.11
610.92	60.85
611.07	79.58
611.23	4.68
611.38	49.15
611.54	74.90
611.69	51.49
611.84	23.41
612.00	0.00
612.15	42.13
612.31	70.22
612.46	0.00
612.62	70.22
612.77	4.68
612.92	37.45
613.08	117.03
613.23	9.36
613.39	30.43
613.54	0.00
613.69	84.26
613.85	65.54
614.00	0.00
614.15	95.96
614.31	21.06
614.46	0.00
614.62	16.38
614.77	0.00
614.92	112.35
615.08	0.00
615.23	42.13
615.38	0.00
615.54	0.00
615.69	74.90
615.84	0.00
616.00	0.00
616.15	0.00
616.30	100.64
616.46	30.43
616.61	39.79
616.76	14.04
616.92	0.00
617.07	135.75
617.22	37.45
617.37	0.00
617.53	32.77
617.68	107.66
617.83	21.06
617.99	67.88
618.14	77.24
618.29	9.36
618.45	9.36
618.60	37.45
618.75	84.26
618.90	28.09
619.06	0.00
619.21	32.77
619.36	25.75
619.51	49.15
619.67	2.34
619.82	60.85
619.97	7.02
620.12	23.41
620.28	42.13
620.43	74.90
620.58	46.81
620.73	39.79
620.89	0.00
621.04	42.13
621.19	60.85
621.34	14.04
621.49	81.92
621.65	58.51
621.80	9.36
621.95	21.06
622.10	21.06
622.25	0.00
622.41	18.72
622.56	51.49
622.71	91.28
622.86	74.90
623.01	46.81
623.16	105.32
623.32	32.77
623.47	51.49
623.62	51.49
623.77	145.11
623.92	23.41
624.07	0.00
624.23	9.36
624.38	77.24
624.53	84.26
624.68	53.83
624.83	74.90
624.98	84.26
625.13	16.38
625.29	133.41
625.44	58.51
625.59	9.36
625.74	4.68
625.89	56.17
626.04	86.60
626.19	84.26
626.34	65.54
626.49	51.49
626.65	67.88
626.80	39.79
626.95	23.41
627.10	0.00
627.25	44.47
627.40	0.00
627.55	16.38
627.70	9.36
627.85	70.22
628.00	28.09
628.15	39.79
628.30	86.60
628.45	79.58
628.60	0.00
628.76	25.75
628.91	14.04
629.06	58.51
629.21	60.85
629.36	44.47
629.51	0.00
629.66	74.90
629.81	39.79
629.96	25.75
630.11	112.35
630.26	44.47
630.41	58.51
630.56	37.45
630.71	46.81
630.86	39.79
631.01	0.00
631.16	7.02
631.31	51.49
631.46	46.81
631.61	46.81
631.76	49.15
631.91	23.41
632.06	16.38
632.21	0.00
632.36	23.41
632.51	18.72
632.66	39.79
632.81	72.56
632.96	65.54
633.10	56.17
633.25	46.81
633.40	4.68
633.55	79.58
633.70	11.70
633.85	32.77
634.00	18.72
634.15	2.34
634.30	98.30
634.45	28.09
634.60	21.06
634.75	53.83
634.90	79.58
635.05	42.13
635.19	0.00
635.34	30.43
635.49	46.81
635.64	70.22
635.79	65.54
635.94	46.81
636.09	28.09
636.24	25.75
636.39	16.38
636.53	0.00
636.68	49.15
636.83	44.47
636.98	72.56
637.13	100.64
637.28	0.00
637.43	100.64
637.57	60.85
637.72	0.00
637.87	70.22
638.02	25.75
638.17	44.47
638.32	18.72
638.46	0.00
638.61	63.19
638.76	0.00
638.91	18.72
639.06	86.60
639.20	4.68
639.35	16.38
639.50	7.02
639.65	0.00
639.80	84.26
639.94	49.15
640.09	95.96
640.24	91.28
640.39	0.00
640.54	107.66
640.68	39.79
640.83	65.54
640.98	18.72
641.13	77.24
641.27	0.00
641.42	18.72
641.57	46.81
641.72	39.79
641.86	70.22
642.01	0.00
642.16	51.49
642.31	30.43
642.45	49.15
642.60	23.41
642.75	0.00
642.90	95.96
643.04	53.83
643.19	60.85
643.34	32.77
643.48	39.79
643.63	0.00
643.78	32.77
643.93	16.38
644.07	7.02
644.22	21.06
644.37	0.00
644.51	0.00
644.66	67.88
644.81	30.43
644.95	0.00
645.10	0.00
645.25	35.11
645.39	42.13
645.54	67.88
645.69	39.79
645.83	0.00
645.98	0.00
646.13	81.92
646.27	91.28
646.42	65.54
646.57	4.68
646.71	23.41
646.86	60.85
647.00	21.06
647.15	44.47
647.30	35.11
647.44	63.19
647.59	28.09
647.74	16.38
647.88	37.45
648.03	14.04
648.17	133.41
648.32	0.00
648.47	0.00
648.61	23.41
648.76	105.32
648.90	46.81
649.05	14.04
649.20	39.79
649.34	9.36
649.49	56.17
649.63	60.85
649.78	60.85
649.92	42.13
650.07	28.09
650.21	58.51
650.36	74.90
650.51	70.22
650.65	60.85
650.80	0.00
650.94	51.49
651.09	110.01
651.23	102.98
651.38	119.37
651.52	63.19
651.67	46.81
651.81	114.69
651.96	0.00
652.10	46.81
652.25	44.47
652.39	35.11
652.54	105.32
652.68	4.68
652.83	0.00
652.97	67.88
653.12	74.90
653.26	25.75
653.41	88.94
653.55	14.04
653.70	0.00
653.84	23.41
653.99	65.54
654.13	70.22
654.27	49.15
654.42	23.41
654.56	58.51
654.71	93.62
654.85	30.43
655.00	0.00
655.14	46.81
655.29	51.49
655.43	0.00
655.57	28.09
655.72	74.90
655.86	14.04
656.01	0.00
656.15	35.11
656.30	0.00
656.44	58.51
656.58	32.77
656.73	39.79
656.87	18.72
657.01	60.85
657.16	32.77
657.30	51.49
657.45	0.00
657.59	0.00
657.73	16.38
657.88	0.00
658.02	32.77
658.16	9.36
658.31	16.38
658.45	88.94
658.60	14.04
658.74	60.85
658.88	65.54
659.03	9.36
659.17	16.38
659.31	0.00
659.46	32.77
659.60	77.24
659.74	65.54
659.89	0.00
660.03	21.06
660.17	18.72
660.32	23.41
660.46	105.32
660.60	37.45
660.74	23.41
660.89	0.00
661.03	0.00
661.17	37.45
661.32	58.51
661.46	53.83
661.60	0.00
661.74	16.38
661.89	32.77
662.03	0.00
662.17	39.79
662.31	7.02
662.46	58.51
662.60	35.11
662.74	53.83
662.88	9.36
663.03	9.36
663.17	21.06
663.31	51.49
663.45	110.01
663.60	39.79
663.74	21.06
663.88	53.83
664.02	65.54
664.17	110.01
664.31	23.41
664.45	56.17
664.59	0.00
664.73	0.00
664.88	25.75
665.02	100.64
665.16	77.24
665.30	0.00
665.44	0.00
665.59	0.00
665.73	9.36
665.87	70.22
666.01	42.13
666.15	84.26
666.29	107.66
666.44	60.85
666.58	9.36
666.72	18.72
666.86	0.00
667.00	37.45
667.14	23.41
667.28	105.32
667.43	56.17
667.57	63.19
667.71	60.85
667.85	0.00
667.99	9.36
668.13	0.00
668.27	0.00
668.41	32.77
668.56	51.49
668.70	126.39
668.84	98.30
668.98	23.41
669.12	11.70
669.26	60.85
669.40	102.98
669.54	46.81
669.68	124.05
669.82	65.54
669.96	58.51
670.10	51.49
670.25	140.43
670.39	51.49
670.53	110.01
670.67	58.51
670.81	0.00
670.95	42.13
671.09	23.41
671.23	46.81
671.37	98.30
671.51	18.72
671.65	0.00
671.79	32.77
671.93	16.38
672.07	107.66
672.21	30.43
672.35	98.30
672.49	2.34
672.63	51.49
672.77	18.72
672.91	74.90
673.05	21.06
673.19	0.00
673.33	2.34
673.47	46.81
673.61	0.00
673.75	37.45
673.89	0.00
674.03	0.00
674.17	53.83
674.31	65.54
674.45	79.58
674.59	49.15
674.73	37.45
674.87	28.09
675.01	32.77
675.15	14.04
675.29	95.96
675.43	0.00
675.56	49.15
675.70	18.72
675.84	74.90
675.98	74.90
676.12	0.00
676.26	35.11
676.40	126.39
676.54	56.17
676.68	0.00
676.82	35.11
676.96	51.49
677.10	70.22
677.23	25.75
677.37	95.96
677.51	0.00
677.65	0.00
677.79	77.24
677.93	0.00
678.07	0.00
678.21	35.11
678.34	0.00
678.48	67.88
678.62	124.05
678.76	51.49
678.90	18.72
679.04	81.92
679.18	56.17
679.31	60.85
679.45	39.79
679.59	11.70
679.73	14.04
679.87	0.00
680.00	65.54
680.14	70.22
680.28	37.45
680.42	28.09
680.56	4.68
680.70	0.00
680.83	117.03
680.97	37.45
681.11	35.11
681.25	21.06
681.39	0.00
681.52	11.70
681.66	65.54
681.80	30.43
681.94	16.38
682.07	28.09
682.21	32.77
682.35	0.00
682.49	37.45
682.62	91.28
682.76	21.06
682.90	0.00
683.04	0.00
683.17	11.70
683.31	23.41
683.45	128.73
683.59	32.77
683.72	0.00
683.86	28.09
684.00	35.11
684.13	53.83
684.27	53.83
684.41	102.98
684.55	37.45
684.68	23.41
684.82	37.45
684.96	39.79
685.09	9.36
685.23	18.72
685.37	0.00
685.50	44.47
685.64	88.94
685.78	21.06
685.91	60.85
686.05	28.09
686.19	7.02
686.32	91.28
686.46	0.00
686.60	0.00
686.73	51.49
686.87	0.00
687.01	84.26
687.14	56.17
687.28	23.41
687.42	72.56
687.55	56.17
687.69	74.90
687.82	74.90
687.96	23.41
688.10	28.09
688.23	72.56
688.37	7.02
688.50	23.41
688.64	117.03
688.78	0.00
688.91	35.11
689.05	23.41
689.18	9.36
689.32	14.04
689.46	0.00
689.59	74.90
689.73	21.06
689.86	56.17
690.00	105.32
690.13	65.54
690.27	0.00
690.41	35.11
690.54	72.56
690.68	35.11
690.81	37.45
690.95	65.54
691.08	72.56
691.22	42.13
691.35	86.60
691.49	4.68
691.62	74.90
691.76	126.39
691.89	11.70
692.03	9.36
692.16	30.43
692.30	18.72
692.43	0.00
692.57	53.83
692.70	14.04
692.84	131.07
692.97	11.70
693.11	42.13
693.24	0.00
693.38	65.54
693.51	16.38
693.65	0.00
693.78	79.58
693.92	28.09
694.05	142.77
694.19	124.05
694.32	39.79
694.45	74.90
694.59	100.64
694.72	0.00
694.86	0.00
694.99	21.06
695.13	46.81
695.26	86.60
695.39	32.77
695.53	44.47
695.66	44.47
695.80	84.26
695.93	0.00
696.07	35.11
696.20	14.04
696.33	60.85
696.47	70.22
696.60	39.79
696.73	58.51
696.87	16.38
697.00	70.22
697.14	28.09
697.27	14.04
697.40	91.28
697.54	70.22
697.67	14.04
697.80	4.68
697.94	0.00
698.07	65.54
698.21	37.45
698.34	4.68
698.47	16.38
698.61	74.90
698.74	51.49
698.87	39.79
699.01	0.00
699.14	58.51
699.27	39.79
699.40	4.68
699.54	30.43
699.67	42.13
699.80	37.45
699.94	91.28
700.07	16.38
700.20	65.54
700.34	2.34
700.47	42.13
700.60	0.00
700.73	14.04
700.87	39.79
701.00	7.02
701.13	0.00
701.26	98.30
701.40	0.00
701.53	32.77
701.66	39.79
701.79	37.45
701.93	131.07
702.06	110.01
702.19	11.70
702.32	0.00
702.46	35.11
702.59	102.98
702.72	77.24
702.85	7.02
702.99	86.60
703.12	11.70
703.25	58.51
703.38	107.66
703.51	53.83
703.65	121.71
703.78	91.28
703.91	65.54
704.04	67.88
704.17	63.19
704.31	0.00
704.44	100.64
704.57	56.17
704.70	91.28
704.83	98.30
704.96	28.09
705.10	2.34
705.23	9.36
>>>>>End Processed Spectral Data<<<<<
