SpectraSuite Data File
++++++++++++++++++++++++++++++++++++
Date: Fri Oct 04 12:13:43 GMT-05:00 2013
User: price-jones
Dark Spectrum Present: No
Reference Spectrum Present: No
Number of Sampled Component Spectra: 1
Spectrometers: USB2+H05261
Integration Time (usec): 10000 (USB2+H05261)
Spectra Averaged: 1 (USB2+H05261)
Boxcar Smoothing: 0 (USB2+H05261)
Correct for Electrical Dark: No (USB2+H05261)
Strobe/Lamp Enabled: No (USB2+H05261)
Correct for Detector Non-linearity: No (USB2+H05261)
Correct for Stray Light: No (USB2+H05261)
Number of Pixels in Processed Spectrum: 2048
>>>>>Begin Processed Spectral Data<<<<<
365.73	28.09
365.92	28.09
366.12	28.09
366.32	0.00
366.52	0.00
366.72	0.00
366.91	0.00
367.11	0.00
367.31	0.00
367.51	0.00
367.70	0.00
367.90	0.00
368.10	0.00
368.30	0.00
368.49	0.00
368.69	0.00
368.89	0.00
369.09	0.00
369.28	0.00
369.48	0.00
369.68	0.00
369.87	0.00
370.07	0.00
370.27	0.00
370.47	0.00
370.66	0.00
370.86	0.00
371.06	0.00
371.25	9.36
371.45	0.00
371.65	0.00
371.84	0.00
372.04	2.34
372.24	0.00
372.44	23.41
372.63	0.00
372.83	0.00
373.03	0.00
373.22	0.00
373.42	11.70
373.62	37.45
373.81	51.49
374.01	77.24
374.21	2.34
374.40	0.00
374.60	7.02
374.79	35.11
374.99	49.15
375.19	63.19
375.38	53.83
375.58	23.41
375.78	67.88
375.97	74.90
376.17	65.54
376.37	9.36
376.56	77.24
376.76	51.49
376.95	30.43
377.15	7.02
377.35	60.85
377.54	30.43
377.74	51.49
377.93	21.06
378.13	51.49
378.33	79.58
378.52	0.00
378.72	58.51
378.91	32.77
379.11	23.41
379.31	0.00
379.50	42.13
379.70	88.94
379.89	0.00
380.09	0.00
380.28	46.81
380.48	79.58
380.68	9.36
380.87	25.75
381.07	0.00
381.26	2.34
381.46	0.00
381.65	0.00
381.85	16.38
382.04	18.72
382.24	23.41
382.43	35.11
382.63	0.00
382.83	105.32
383.02	0.00
383.22	0.00
383.41	46.81
383.61	35.11
383.80	77.24
384.00	39.79
384.19	0.00
384.39	14.04
384.58	0.00
384.78	0.00
384.97	0.00
385.17	79.58
385.36	49.15
385.56	37.45
385.75	46.81
385.95	0.00
386.14	21.06
386.34	0.00
386.53	21.06
386.72	42.13
386.92	42.13
387.11	16.38
387.31	7.02
387.50	35.11
387.70	11.70
387.89	9.36
388.09	35.11
388.28	60.85
388.48	0.00
388.67	0.00
388.86	0.00
389.06	30.43
389.25	16.38
389.45	42.13
389.64	11.70
389.84	0.00
390.03	32.77
390.22	39.79
390.42	0.00
390.61	42.13
390.81	39.79
391.00	21.06
391.19	0.00
391.39	51.49
391.58	56.17
391.78	84.26
391.97	18.72
392.16	0.00
392.36	49.15
392.55	39.79
392.75	42.13
392.94	60.85
393.13	7.02
393.33	72.56
393.52	0.00
393.71	77.24
393.91	0.00
394.10	58.51
394.29	58.51
394.49	0.00
394.68	67.88
394.88	23.41
395.07	18.72
395.26	119.37
395.46	35.11
395.65	4.68
395.84	67.88
396.04	39.79
396.23	65.54
396.42	77.24
396.62	30.43
396.81	37.45
397.00	49.15
397.19	37.45
397.39	11.70
397.58	37.45
397.77	0.00
397.97	18.72
398.16	74.90
398.35	14.04
398.55	25.75
398.74	7.02
398.93	16.38
399.12	37.45
399.32	0.00
399.51	93.62
399.70	7.02
399.90	4.68
400.09	0.00
400.28	0.00
400.47	0.00
400.67	70.22
400.86	0.00
401.05	42.13
401.24	84.26
401.44	49.15
401.63	9.36
401.82	30.43
402.01	37.45
402.21	0.00
402.40	65.54
402.59	0.00
402.78	46.81
402.97	112.35
403.17	79.58
403.36	28.09
403.55	2.34
403.74	35.11
403.93	35.11
404.13	51.49
404.32	28.09
404.51	30.43
404.70	0.00
404.89	28.09
405.09	56.17
405.28	0.00
405.47	63.19
405.66	60.85
405.85	32.77
406.05	18.72
406.24	46.81
406.43	0.00
406.62	9.36
406.81	0.00
407.00	42.13
407.20	39.79
407.39	18.72
407.58	0.00
407.77	56.17
407.96	65.54
408.15	0.00
408.34	0.00
408.54	70.22
408.73	18.72
408.92	14.04
409.11	58.51
409.30	39.79
409.49	39.79
409.68	16.38
409.87	2.34
410.07	32.77
410.26	56.17
410.45	28.09
410.64	56.17
410.83	0.00
411.02	60.85
411.21	0.00
411.40	77.24
411.59	7.02
411.78	0.00
411.98	63.19
412.17	35.11
412.36	79.58
412.55	18.72
412.74	23.41
412.93	21.06
413.12	72.56
413.31	39.79
413.50	0.00
413.69	49.15
413.88	18.72
414.07	46.81
414.26	0.00
414.45	30.43
414.64	63.19
414.83	32.77
415.02	60.85
415.22	39.79
415.41	58.51
415.60	74.90
415.79	70.22
415.98	9.36
416.17	53.83
416.36	0.00
416.55	98.30
416.74	35.11
416.93	14.04
417.12	107.66
417.31	0.00
417.50	84.26
417.69	81.92
417.88	0.00
418.07	65.54
418.26	72.56
418.45	23.41
418.64	32.77
418.83	0.00
419.02	60.85
419.21	2.34
419.39	39.79
419.58	23.41
419.77	44.47
419.96	0.00
420.15	98.30
420.34	58.51
420.53	14.04
420.72	72.56
420.91	16.38
421.10	53.83
421.29	30.43
421.48	70.22
421.67	56.17
421.86	4.68
422.05	44.47
422.24	0.00
422.43	65.54
422.61	44.47
422.80	0.00
422.99	0.00
423.18	28.09
423.37	58.51
423.56	77.24
423.75	9.36
423.94	16.38
424.13	60.85
424.32	117.03
424.50	18.72
424.69	53.83
424.88	4.68
425.07	70.22
425.26	86.60
425.45	35.11
425.64	39.79
425.83	67.88
426.01	84.26
426.20	16.38
426.39	30.43
426.58	98.30
426.77	0.00
426.96	60.85
427.15	32.77
427.33	2.34
427.52	11.70
427.71	46.81
427.90	58.51
428.09	65.54
428.28	0.00
428.46	11.70
428.65	32.77
428.84	63.19
429.03	67.88
429.22	42.13
429.40	4.68
429.59	39.79
429.78	16.38
429.97	49.15
430.16	32.77
430.34	9.36
430.53	44.47
430.72	0.00
430.91	30.43
431.10	56.17
431.28	110.01
431.47	18.72
431.66	18.72
431.85	0.00
432.03	102.98
432.22	119.37
432.41	63.19
432.60	0.00
432.79	16.38
432.97	35.11
433.16	0.00
433.35	35.11
433.54	117.03
433.72	0.00
433.91	51.49
434.10	58.51
434.28	0.00
434.47	0.00
434.66	0.00
434.85	56.17
435.03	88.94
435.22	100.64
435.41	53.83
435.59	58.51
435.78	25.75
435.97	25.75
436.16	0.00
436.34	58.51
436.53	51.49
436.72	67.88
436.90	16.38
437.09	0.00
437.28	37.45
437.46	35.11
437.65	32.77
437.84	0.00
438.02	0.00
438.21	9.36
438.40	21.06
438.58	39.79
438.77	88.94
438.96	88.94
439.14	44.47
439.33	42.13
439.52	67.88
439.70	0.00
439.89	0.00
440.08	39.79
440.26	63.19
440.45	0.00
440.63	79.58
440.82	114.69
441.01	100.64
441.19	21.06
441.38	2.34
441.57	30.43
441.75	0.00
441.94	56.17
442.12	112.35
442.31	100.64
442.50	42.13
442.68	0.00
442.87	14.04
443.05	2.34
443.24	0.00
443.43	11.70
443.61	63.19
443.80	0.00
443.98	100.64
444.17	32.77
444.35	23.41
444.54	0.00
444.73	11.70
444.91	105.32
445.10	37.45
445.28	74.90
445.47	81.92
445.65	86.60
445.84	0.00
446.02	46.81
446.21	0.00
446.39	23.41
446.58	72.56
446.77	72.56
446.95	131.07
447.14	79.58
447.32	95.96
447.51	18.72
447.69	88.94
447.88	98.30
448.06	37.45
448.25	30.43
448.43	44.47
448.62	14.04
448.80	77.24
448.99	60.85
449.17	42.13
449.36	63.19
449.54	11.70
449.73	63.19
449.91	32.77
450.10	35.11
450.28	0.00
450.46	117.03
450.65	7.02
450.83	51.49
451.02	51.49
451.20	39.79
451.39	23.41
451.57	58.51
451.76	84.26
451.94	51.49
452.13	63.19
452.31	44.47
452.49	9.36
452.68	74.90
452.86	56.17
453.05	126.39
453.23	102.98
453.42	126.39
453.60	11.70
453.78	105.32
453.97	49.15
454.15	49.15
454.34	81.92
454.52	67.88
454.70	21.06
454.89	23.41
455.07	67.88
455.26	60.85
455.44	53.83
455.62	25.75
455.81	30.43
455.99	0.00
456.17	39.79
456.36	86.60
456.54	30.43
456.73	21.06
456.91	4.68
457.09	21.06
457.28	23.41
457.46	56.17
457.64	30.43
457.83	74.90
458.01	32.77
458.19	53.83
458.38	49.15
458.56	65.54
458.74	23.41
458.93	42.13
459.11	0.00
459.29	11.70
459.48	0.00
459.66	32.77
459.84	60.85
460.03	46.81
460.21	51.49
460.39	44.47
460.57	2.34
460.76	51.49
460.94	0.00
461.12	63.19
461.31	11.70
461.49	77.24
461.67	63.19
461.85	60.85
462.04	114.69
462.22	88.94
462.40	65.54
462.59	110.01
462.77	37.45
462.95	25.75
463.13	39.79
463.32	72.56
463.50	32.77
463.68	79.58
463.86	0.00
464.05	53.83
464.23	25.75
464.41	67.88
464.59	9.36
464.78	0.00
464.96	0.00
465.14	0.00
465.32	0.00
465.50	117.03
465.69	58.51
465.87	30.43
466.05	30.43
466.23	67.88
466.41	49.15
466.60	86.60
466.78	58.51
466.96	11.70
467.14	0.00
467.32	72.56
467.51	72.56
467.69	58.51
467.87	110.01
468.05	16.38
468.23	37.45
468.41	16.38
468.60	37.45
468.78	65.54
468.96	28.09
469.14	9.36
469.32	65.54
469.50	28.09
469.69	37.45
469.87	23.41
470.05	46.81
470.23	14.04
470.41	98.30
470.59	0.00
470.77	42.13
470.95	30.43
471.14	0.00
471.32	70.22
471.50	0.00
471.68	86.60
471.86	70.22
472.04	100.64
472.22	53.83
472.40	51.49
472.58	37.45
472.77	0.00
472.95	9.36
473.13	56.17
473.31	35.11
473.49	35.11
473.67	7.02
473.85	60.85
474.03	25.75
474.21	7.02
474.39	14.04
474.57	79.58
474.75	30.43
474.93	88.94
475.12	0.00
475.30	44.47
475.48	72.56
475.66	60.85
475.84	25.75
476.02	37.45
476.20	0.00
476.38	2.34
476.56	51.49
476.74	30.43
476.92	138.09
477.10	60.85
477.28	84.26
477.46	30.43
477.64	14.04
477.82	58.51
478.00	0.00
478.18	46.81
478.36	0.00
478.54	46.81
478.72	46.81
478.90	42.13
479.08	46.81
479.26	84.26
479.44	119.37
479.62	58.51
479.80	70.22
479.98	14.04
480.16	9.36
480.34	84.26
480.52	0.00
480.70	39.79
480.88	58.51
481.06	107.66
481.24	21.06
481.41	11.70
481.59	67.88
481.77	67.88
481.95	67.88
482.13	44.47
482.31	16.38
482.49	77.24
482.67	16.38
482.85	67.88
483.03	14.04
483.21	140.43
483.39	98.30
483.57	30.43
483.74	145.11
483.92	77.24
484.10	93.62
484.28	28.09
484.46	72.56
484.64	79.58
484.82	0.00
485.00	0.00
485.18	60.85
485.35	39.79
485.53	14.04
485.71	95.96
485.89	16.38
486.07	16.38
486.25	70.22
486.43	23.41
486.61	84.26
486.78	32.77
486.96	0.00
487.14	16.38
487.32	72.56
487.50	51.49
487.68	39.79
487.85	72.56
488.03	39.79
488.21	0.00
488.39	95.96
488.57	0.00
488.75	98.30
488.92	142.77
489.10	65.54
489.28	67.88
489.46	25.75
489.64	4.68
489.81	49.15
489.99	65.54
490.17	77.24
490.35	0.00
490.53	23.41
490.70	88.94
490.88	0.00
491.06	70.22
491.24	42.13
491.41	0.00
491.59	0.00
491.77	84.26
491.95	53.83
492.13	98.30
492.30	7.02
492.48	110.01
492.66	46.81
492.84	11.70
493.01	30.43
493.19	98.30
493.37	42.13
493.54	0.00
493.72	23.41
493.90	107.66
494.08	77.24
494.25	63.19
494.43	166.18
494.61	49.15
494.79	53.83
494.96	86.60
495.14	163.84
495.32	39.79
495.49	53.83
495.67	21.06
495.85	72.56
496.02	4.68
496.20	37.45
496.38	14.04
496.55	102.98
496.73	51.49
496.91	32.77
497.09	18.72
497.26	42.13
497.44	70.22
497.62	88.94
497.79	88.94
497.97	126.39
498.14	0.00
498.32	18.72
498.50	102.98
498.67	100.64
498.85	18.72
499.03	74.90
499.20	60.85
499.38	65.54
499.56	44.47
499.73	49.15
499.91	91.28
500.08	79.58
500.26	79.58
500.44	28.09
500.61	114.69
500.79	0.00
500.97	74.90
501.14	79.58
501.32	49.15
501.49	53.83
501.67	0.00
501.84	46.81
502.02	28.09
502.20	30.43
502.37	44.47
502.55	32.77
502.72	42.13
502.90	126.39
503.07	74.90
503.25	114.69
503.43	37.45
503.60	95.96
503.78	65.54
503.95	77.24
504.13	114.69
504.30	28.09
504.48	86.60
504.65	53.83
504.83	91.28
505.01	70.22
505.18	81.92
505.36	58.51
505.53	63.19
505.71	112.35
505.88	95.96
506.06	14.04
506.23	16.38
506.41	11.70
506.58	65.54
506.76	77.24
506.93	49.15
507.11	100.64
507.28	74.90
507.46	93.62
507.63	16.38
507.81	63.19
507.98	60.85
508.16	100.64
508.33	105.32
508.50	100.64
508.68	81.92
508.85	74.90
509.03	60.85
509.20	84.26
509.38	60.85
509.55	93.62
509.73	0.00
509.90	44.47
510.08	49.15
510.25	14.04
510.42	58.51
510.60	53.83
510.77	25.75
510.95	56.17
511.12	60.85
511.30	84.26
511.47	23.41
511.64	65.54
511.82	56.17
511.99	7.02
512.17	102.98
512.34	37.45
512.51	65.54
512.69	28.09
512.86	63.19
513.04	180.22
513.21	70.22
513.38	11.70
513.56	70.22
513.73	105.32
513.90	53.83
514.08	105.32
514.25	79.58
514.43	133.41
514.60	72.56
514.77	37.45
514.95	25.75
515.12	9.36
515.29	4.68
515.47	16.38
515.64	63.19
515.81	30.43
515.99	0.00
516.16	39.79
516.33	79.58
516.51	65.54
516.68	93.62
516.85	81.92
517.03	0.00
517.20	128.73
517.37	11.70
517.54	91.28
517.72	30.43
517.89	63.19
518.06	65.54
518.24	23.41
518.41	0.00
518.58	56.17
518.75	60.85
518.93	51.49
519.10	21.06
519.27	18.72
519.45	60.85
519.62	28.09
519.79	4.68
519.96	9.36
520.14	28.09
520.31	100.64
520.48	44.47
520.65	60.85
520.83	51.49
521.00	0.00
521.17	74.90
521.34	74.90
521.52	95.96
521.69	0.00
521.86	98.30
522.03	72.56
522.20	140.43
522.38	32.77
522.55	100.64
522.72	28.09
522.89	37.45
523.07	56.17
523.24	16.38
523.41	0.00
523.58	93.62
523.75	49.15
523.92	67.88
524.10	105.32
524.27	86.60
524.44	86.60
524.61	42.13
524.78	18.72
524.96	42.13
525.13	60.85
525.30	84.26
525.47	88.94
525.64	145.11
525.81	67.88
525.98	74.90
526.16	100.64
526.33	0.00
526.50	39.79
526.67	56.17
526.84	131.07
527.01	81.92
527.18	107.66
527.36	67.88
527.53	46.81
527.70	79.58
527.87	142.77
528.04	138.09
528.21	74.90
528.38	107.66
528.55	35.11
528.72	67.88
528.89	56.17
529.07	0.00
529.24	0.00
529.41	72.56
529.58	142.77
529.75	37.45
529.92	91.28
530.09	39.79
530.26	46.81
530.43	49.15
530.60	25.75
530.77	42.13
530.94	32.77
531.11	84.26
531.28	30.43
531.46	56.17
531.63	74.90
531.80	30.43
531.97	86.60
532.14	0.00
532.31	84.26
532.48	56.17
532.65	46.81
532.82	67.88
532.99	0.00
533.16	44.47
533.33	67.88
533.50	28.09
533.67	79.58
533.84	128.73
534.01	88.94
534.18	102.98
534.35	93.62
534.52	23.41
534.69	44.47
534.86	58.51
535.03	35.11
535.20	2.34
535.37	126.39
535.54	105.32
535.71	117.03
535.88	110.01
536.05	72.56
536.22	93.62
536.38	49.15
536.55	0.00
536.72	91.28
536.89	63.19
537.06	84.26
537.23	56.17
537.40	74.90
537.57	63.19
537.74	39.79
537.91	58.51
538.08	9.36
538.25	14.04
538.42	105.32
538.59	42.13
538.75	46.81
538.92	37.45
539.09	102.98
539.26	37.45
539.43	98.30
539.60	119.37
539.77	49.15
539.94	72.56
540.11	72.56
540.28	81.92
540.44	0.00
540.61	95.96
540.78	88.94
540.95	65.54
541.12	21.06
541.29	7.02
541.46	23.41
541.62	77.24
541.79	53.83
541.96	86.60
542.13	81.92
542.30	95.96
542.47	79.58
542.63	93.62
542.80	110.01
542.97	28.09
543.14	0.00
543.31	53.83
543.48	18.72
543.64	65.54
543.81	28.09
543.98	58.51
544.15	67.88
544.32	128.73
544.48	110.01
544.65	93.62
544.82	88.94
544.99	21.06
545.16	44.47
545.32	53.83
545.49	163.84
545.66	114.69
545.83	81.92
546.00	42.13
546.16	100.64
546.33	28.09
546.50	65.54
546.67	74.90
546.83	135.75
547.00	63.19
547.17	81.92
547.34	56.17
547.50	4.68
547.67	0.00
547.84	28.09
548.00	67.88
548.17	0.00
548.34	49.15
548.51	100.64
548.67	0.00
548.84	30.43
549.01	86.60
549.18	77.24
549.34	0.00
549.51	98.30
549.68	28.09
549.84	46.81
550.01	30.43
550.18	147.45
550.34	81.92
550.51	56.17
550.68	112.35
550.84	79.58
551.01	42.13
551.18	77.24
551.34	126.39
551.51	93.62
551.68	25.75
551.84	100.64
552.01	16.38
552.18	72.56
552.34	35.11
552.51	32.77
552.68	88.94
552.84	49.15
553.01	79.58
553.18	32.77
553.34	100.64
553.51	67.88
553.67	65.54
553.84	77.24
554.01	112.35
554.17	142.77
554.34	16.38
554.51	86.60
554.67	74.90
554.84	63.19
555.00	39.79
555.17	72.56
555.33	133.41
555.50	42.13
555.67	25.75
555.83	37.45
556.00	49.15
556.16	28.09
556.33	49.15
556.50	7.02
556.66	86.60
556.83	98.30
556.99	2.34
557.16	42.13
557.32	126.39
557.49	46.81
557.65	72.56
557.82	21.06
557.98	86.60
558.15	56.17
558.32	74.90
558.48	21.06
558.65	74.90
558.81	44.47
558.98	51.49
559.14	95.96
559.31	112.35
559.47	58.51
559.64	79.58
559.80	84.26
559.97	49.15
560.13	88.94
560.30	0.00
560.46	100.64
560.63	58.51
560.79	0.00
560.96	23.41
561.12	0.00
561.29	42.13
561.45	102.98
561.61	56.17
561.78	114.69
561.94	4.68
562.11	21.06
562.27	21.06
562.44	21.06
562.60	16.38
562.77	44.47
562.93	46.81
563.10	65.54
563.26	0.00
563.42	56.17
563.59	67.88
563.75	44.47
563.92	67.88
564.08	56.17
564.24	67.88
564.41	23.41
564.57	44.47
564.74	58.51
564.90	56.17
565.07	53.83
565.23	37.45
565.39	32.77
565.56	14.04
565.72	37.45
565.88	65.54
566.05	79.58
566.21	100.64
566.38	112.35
566.54	42.13
566.70	121.71
566.87	74.90
567.03	16.38
567.19	32.77
567.36	74.90
567.52	63.19
567.68	46.81
567.85	25.75
568.01	124.05
568.17	79.58
568.34	72.56
568.50	46.81
568.66	28.09
568.83	32.77
568.99	49.15
569.15	95.96
569.32	53.83
569.48	72.56
569.64	67.88
569.81	100.64
569.97	23.41
570.13	30.43
570.30	11.70
570.46	0.00
570.62	44.47
570.78	63.19
570.95	138.09
571.11	112.35
571.27	86.60
571.43	49.15
571.60	51.49
571.76	74.90
571.92	46.81
572.09	51.49
572.25	105.32
572.41	72.56
572.57	51.49
572.74	126.39
572.90	65.54
573.06	0.00
573.22	128.73
573.38	98.30
573.55	84.26
573.71	79.58
573.87	39.79
574.03	4.68
574.20	21.06
574.36	46.81
574.52	100.64
574.68	53.83
574.84	39.79
575.01	0.00
575.17	42.13
575.33	51.49
575.49	128.73
575.65	91.28
575.82	81.92
575.98	91.28
576.14	4.68
576.30	16.38
576.46	131.07
576.62	105.32
576.79	56.17
576.95	95.96
577.11	7.02
577.27	65.54
577.43	60.85
577.59	58.51
577.75	65.54
577.92	60.85
578.08	53.83
578.24	49.15
578.40	23.41
578.56	65.54
578.72	67.88
578.88	70.22
579.04	49.15
579.21	28.09
579.37	25.75
579.53	21.06
579.69	65.54
579.85	0.00
580.01	42.13
580.17	58.51
580.33	102.98
580.49	0.00
580.65	53.83
580.82	110.01
580.98	25.75
581.14	126.39
581.30	63.19
581.46	156.82
581.62	23.41
581.78	32.77
581.94	72.56
582.10	30.43
582.26	93.62
582.42	86.60
582.58	67.88
582.74	0.00
582.90	28.09
583.06	95.96
583.22	88.94
583.38	37.45
583.54	65.54
583.70	46.81
583.86	37.45
584.02	147.45
584.18	28.09
584.34	9.36
584.50	49.15
584.66	72.56
584.82	37.45
584.98	37.45
585.14	110.01
585.30	35.11
585.46	95.96
585.62	42.13
585.78	67.88
585.94	7.02
586.10	58.51
586.26	7.02
586.42	60.85
586.58	88.94
586.74	56.17
586.90	39.79
587.06	72.56
587.22	119.37
587.38	16.38
587.54	49.15
587.70	0.00
587.86	39.79
588.02	88.94
588.18	56.17
588.34	91.28
588.49	79.58
588.65	58.51
588.81	95.96
588.97	51.49
589.13	95.96
589.29	18.72
589.45	65.54
589.61	72.56
589.77	138.09
589.93	72.56
590.08	72.56
590.24	56.17
590.40	88.94
590.56	4.68
590.72	28.09
590.88	11.70
591.04	49.15
591.20	60.85
591.35	102.98
591.51	74.90
591.67	44.47
591.83	35.11
591.99	18.72
592.15	105.32
592.31	110.01
592.46	30.43
592.62	46.81
592.78	9.36
592.94	91.28
593.10	23.41
593.26	88.94
593.41	49.15
593.57	0.00
593.73	128.73
593.89	53.83
594.05	58.51
594.20	0.00
594.36	51.49
594.52	39.79
594.68	21.06
594.84	14.04
594.99	14.04
595.15	117.03
595.31	39.79
595.47	51.49
595.62	53.83
595.78	42.13
595.94	32.77
596.10	65.54
596.25	74.90
596.41	16.38
596.57	32.77
596.73	9.36
596.88	0.00
597.04	81.92
597.20	77.24
597.36	133.41
597.51	79.58
597.67	58.51
597.83	117.03
597.99	67.88
598.14	49.15
598.30	49.15
598.46	72.56
598.61	91.28
598.77	100.64
598.93	58.51
599.09	23.41
599.24	32.77
599.40	14.04
599.56	77.24
599.71	28.09
599.87	0.00
600.03	79.58
600.18	0.00
600.34	60.85
600.50	102.98
600.65	0.00
600.81	56.17
600.97	93.62
601.12	65.54
601.28	67.88
601.44	140.43
601.59	11.70
601.75	46.81
601.91	4.68
602.06	58.51
602.22	110.01
602.37	28.09
602.53	9.36
602.69	11.70
602.84	51.49
603.00	95.96
603.16	11.70
603.31	21.06
603.47	74.90
603.62	7.02
603.78	16.38
603.94	58.51
604.09	74.90
604.25	42.13
604.40	124.05
604.56	16.38
604.71	56.17
604.87	44.47
605.03	100.64
605.18	51.49
605.34	4.68
605.49	0.00
605.65	74.90
605.80	110.01
605.96	0.00
606.12	81.92
606.27	11.70
606.43	28.09
606.58	23.41
606.74	91.28
606.89	46.81
607.05	84.26
607.20	32.77
607.36	0.00
607.51	114.69
607.67	16.38
607.82	100.64
607.98	86.60
608.13	70.22
608.29	28.09
608.44	53.83
608.60	117.03
608.75	81.92
608.91	16.38
609.06	63.19
609.22	0.00
609.37	23.41
609.53	70.22
609.68	56.17
609.84	16.38
609.99	65.54
610.15	46.81
610.30	32.77
610.46	9.36
610.61	56.17
610.76	100.64
610.92	51.49
611.07	70.22
611.23	95.96
611.38	0.00
611.54	74.90
611.69	53.83
611.84	56.17
612.00	81.92
612.15	102.98
612.31	93.62
612.46	79.58
612.62	28.09
612.77	56.17
612.92	49.15
613.08	102.98
613.23	46.81
613.39	28.09
613.54	138.09
613.69	65.54
613.85	37.45
614.00	32.77
614.15	14.04
614.31	44.47
614.46	16.38
614.62	28.09
614.77	46.81
614.92	23.41
615.08	67.88
615.23	70.22
615.38	18.72
615.54	79.58
615.69	58.51
615.84	30.43
616.00	67.88
616.15	32.77
616.30	2.34
616.46	39.79
616.61	81.92
616.76	21.06
616.92	0.00
617.07	63.19
617.22	79.58
617.37	72.56
617.53	74.90
617.68	11.70
617.83	0.00
617.99	74.90
618.14	74.90
618.29	70.22
618.45	32.77
618.60	42.13
618.75	72.56
618.90	46.81
619.06	56.17
619.21	93.62
619.36	0.00
619.51	44.47
619.67	60.85
619.82	7.02
619.97	30.43
620.12	58.51
620.28	79.58
620.43	49.15
620.58	42.13
620.73	74.90
620.89	2.34
621.04	7.02
621.19	2.34
621.34	23.41
621.49	32.77
621.65	0.00
621.80	0.00
621.95	44.47
622.10	32.77
622.25	2.34
622.41	32.77
622.56	133.41
622.71	2.34
622.86	88.94
623.01	14.04
623.16	0.00
623.32	44.47
623.47	72.56
623.62	77.24
623.77	37.45
623.92	25.75
624.07	58.51
624.23	30.43
624.38	63.19
624.53	16.38
624.68	81.92
624.83	63.19
624.98	119.37
625.13	11.70
625.29	53.83
625.44	107.66
625.59	18.72
625.74	58.51
625.89	56.17
626.04	2.34
626.19	74.90
626.34	65.54
626.49	39.79
626.65	51.49
626.80	84.26
626.95	0.00
627.10	0.00
627.25	88.94
627.40	39.79
627.55	42.13
627.70	30.43
627.85	65.54
628.00	35.11
628.15	0.00
628.30	60.85
628.45	2.34
628.60	0.00
628.76	56.17
628.91	0.00
629.06	53.83
629.21	65.54
629.36	32.77
629.51	0.00
629.66	21.06
629.81	9.36
629.96	63.19
630.11	0.00
630.26	35.11
630.41	35.11
630.56	11.70
630.71	21.06
630.86	74.90
631.01	77.24
631.16	44.47
631.31	0.00
631.46	102.98
631.61	60.85
631.76	32.77
631.91	46.81
632.06	18.72
632.21	18.72
632.36	72.56
632.51	86.60
632.66	70.22
632.81	77.24
632.96	58.51
633.10	14.04
633.25	0.00
633.40	25.75
633.55	86.60
633.70	44.47
633.85	72.56
634.00	124.05
634.15	0.00
634.30	0.00
634.45	49.15
634.60	2.34
634.75	2.34
634.90	7.02
635.05	42.13
635.19	58.51
635.34	44.47
635.49	44.47
635.64	72.56
635.79	63.19
635.94	25.75
636.09	32.77
636.24	32.77
636.39	102.98
636.53	44.47
636.68	0.00
636.83	51.49
636.98	21.06
637.13	23.41
637.28	51.49
637.43	39.79
637.57	74.90
637.72	74.90
637.87	32.77
638.02	30.43
638.17	91.28
638.32	65.54
638.46	53.83
638.61	93.62
638.76	23.41
638.91	86.60
639.06	60.85
639.20	44.47
639.35	0.00
639.50	98.30
639.65	67.88
639.80	58.51
639.94	35.11
640.09	110.01
640.24	79.58
640.39	35.11
640.54	53.83
640.68	46.81
640.83	49.15
640.98	53.83
641.13	0.00
641.27	30.43
641.42	65.54
641.57	100.64
641.72	49.15
641.86	16.38
642.01	0.00
642.16	107.66
642.31	30.43
642.45	86.60
642.60	79.58
642.75	81.92
642.90	4.68
643.04	35.11
643.19	42.13
643.34	51.49
643.48	32.77
643.63	56.17
643.78	18.72
643.93	56.17
644.07	30.43
644.22	121.71
644.37	4.68
644.51	0.00
644.66	28.09
644.81	21.06
644.95	72.56
645.10	100.64
645.25	32.77
645.39	49.15
645.54	11.70
645.69	58.51
645.83	9.36
645.98	77.24
646.13	0.00
646.27	46.81
646.42	23.41
646.57	37.45
646.71	18.72
646.86	0.00
647.00	30.43
647.15	9.36
647.30	32.77
647.44	63.19
647.59	0.00
647.74	0.00
647.88	32.77
648.03	30.43
648.17	65.54
648.32	0.00
648.47	0.00
648.61	72.56
648.76	53.83
648.90	37.45
649.05	28.09
649.20	72.56
649.34	53.83
649.49	35.11
649.63	2.34
649.78	0.00
649.92	4.68
650.07	56.17
650.21	51.49
650.36	39.79
650.51	74.90
650.65	81.92
650.80	60.85
650.94	51.49
651.09	39.79
651.23	51.49
651.38	44.47
651.52	11.70
651.67	93.62
651.81	42.13
651.96	0.00
652.10	44.47
652.25	25.75
652.39	53.83
652.54	81.92
652.68	11.70
652.83	79.58
652.97	102.98
653.12	16.38
653.26	46.81
653.41	53.83
653.55	112.35
653.70	25.75
653.84	14.04
653.99	25.75
654.13	67.88
654.27	35.11
654.42	0.00
654.56	49.15
654.71	0.00
654.85	21.06
655.00	2.34
655.14	65.54
655.29	53.83
655.43	42.13
655.57	9.36
655.72	9.36
655.86	79.58
656.01	16.38
656.15	35.11
656.30	65.54
656.44	0.00
656.58	28.09
656.73	7.02
656.87	51.49
657.01	88.94
657.16	2.34
657.30	63.19
657.45	0.00
657.59	44.47
657.73	86.60
657.88	58.51
658.02	84.26
658.16	39.79
658.31	23.41
658.45	74.90
658.60	23.41
658.74	70.22
658.88	88.94
659.03	0.00
659.17	28.09
659.31	51.49
659.46	56.17
659.60	86.60
659.74	30.43
659.89	0.00
660.03	37.45
660.17	84.26
660.32	51.49
660.46	49.15
660.60	9.36
660.74	44.47
660.89	65.54
661.03	25.75
661.17	46.81
661.32	7.02
661.46	49.15
661.60	44.47
661.74	44.47
661.89	49.15
662.03	0.00
662.17	58.51
662.31	2.34
662.46	65.54
662.60	145.11
662.74	79.58
662.88	37.45
663.03	9.36
663.17	86.60
663.31	18.72
663.45	67.88
663.60	65.54
663.74	39.79
663.88	102.98
664.02	79.58
664.17	56.17
664.31	65.54
664.45	53.83
664.59	16.38
664.73	49.15
664.88	51.49
665.02	70.22
665.16	14.04
665.30	72.56
665.44	23.41
665.59	0.00
665.73	37.45
665.87	93.62
666.01	74.90
666.15	0.00
666.29	9.36
666.44	28.09
666.58	0.00
666.72	0.00
666.86	60.85
667.00	67.88
667.14	58.51
667.28	9.36
667.43	42.13
667.57	32.77
667.71	58.51
667.85	0.00
667.99	2.34
668.13	0.00
668.27	23.41
668.41	79.58
668.56	0.00
668.70	42.13
668.84	67.88
668.98	46.81
669.12	86.60
669.26	60.85
669.40	14.04
669.54	56.17
669.68	56.17
669.82	42.13
669.96	77.24
670.10	100.64
670.25	35.11
670.39	63.19
670.53	91.28
670.67	23.41
670.81	0.00
670.95	74.90
671.09	67.88
671.23	81.92
671.37	84.26
671.51	25.75
671.65	4.68
671.79	0.00
671.93	32.77
672.07	74.90
672.21	18.72
672.35	95.96
672.49	107.66
672.63	70.22
672.77	4.68
672.91	58.51
673.05	0.00
673.19	14.04
673.33	142.77
673.47	30.43
673.61	42.13
673.75	86.60
673.89	9.36
674.03	65.54
674.17	30.43
674.31	60.85
674.45	23.41
674.59	42.13
674.73	16.38
674.87	81.92
675.01	30.43
675.15	95.96
675.29	91.28
675.43	42.13
675.56	14.04
675.70	32.77
675.84	105.32
675.98	16.38
676.12	0.00
676.26	0.00
676.40	9.36
676.54	30.43
676.68	0.00
676.82	23.41
676.96	0.00
677.10	79.58
677.23	0.00
677.37	63.19
677.51	58.51
677.65	35.11
677.79	67.88
677.93	37.45
678.07	9.36
678.21	30.43
678.34	21.06
678.48	0.00
678.62	105.32
678.76	95.96
678.90	49.15
679.04	35.11
679.18	32.77
679.31	2.34
679.45	0.00
679.59	56.17
679.73	46.81
679.87	42.13
680.00	65.54
680.14	91.28
680.28	37.45
680.42	30.43
680.56	23.41
680.70	2.34
680.83	88.94
680.97	0.00
681.11	23.41
681.25	63.19
681.39	0.00
681.52	53.83
681.66	4.68
681.80	28.09
681.94	35.11
682.07	93.62
682.21	35.11
682.35	42.13
682.49	74.90
682.62	0.00
682.76	0.00
682.90	88.94
683.04	18.72
683.17	0.00
683.31	72.56
683.45	2.34
683.59	35.11
683.72	0.00
683.86	67.88
684.00	51.49
684.13	100.64
684.27	9.36
684.41	42.13
684.55	0.00
684.68	0.00
684.82	9.36
684.96	9.36
685.09	77.24
685.23	67.88
685.37	58.51
685.50	0.00
685.64	37.45
685.78	67.88
685.91	42.13
686.05	0.00
686.19	16.38
686.32	0.00
686.46	86.60
686.60	39.79
686.73	37.45
686.87	28.09
687.01	56.17
687.14	28.09
687.28	18.72
687.42	25.75
687.55	0.00
687.69	25.75
687.82	4.68
687.96	0.00
688.10	58.51
688.23	28.09
688.37	21.06
688.50	60.85
688.64	49.15
688.78	79.58
688.91	7.02
689.05	21.06
689.18	51.49
689.32	0.00
689.46	72.56
689.59	14.04
689.73	60.85
689.86	95.96
690.00	0.00
690.13	28.09
690.27	30.43
690.41	93.62
690.54	67.88
690.68	0.00
690.81	37.45
690.95	81.92
691.08	100.64
691.22	9.36
691.35	30.43
691.49	37.45
691.62	60.85
691.76	0.00
691.89	21.06
692.03	86.60
692.16	63.19
692.30	7.02
692.43	21.06
692.57	0.00
692.70	91.28
692.84	23.41
692.97	58.51
693.11	4.68
693.24	51.49
693.38	14.04
693.51	11.70
693.65	30.43
693.78	14.04
693.92	44.47
694.05	0.00
694.19	58.51
694.32	42.13
694.45	93.62
694.59	18.72
694.72	23.41
694.86	9.36
694.99	0.00
695.13	0.00
695.26	39.79
695.39	42.13
695.53	88.94
695.66	0.00
695.80	0.00
695.93	49.15
696.07	37.45
696.20	9.36
696.33	21.06
696.47	98.30
696.60	14.04
696.73	4.68
696.87	18.72
697.00	0.00
697.14	63.19
697.27	25.75
697.40	0.00
697.54	0.00
697.67	100.64
697.80	58.51
697.94	74.90
698.07	25.75
698.21	98.30
698.34	46.81
698.47	0.00
698.61	51.49
698.74	72.56
698.87	9.36
699.01	0.00
699.14	58.51
699.27	42.13
699.40	112.35
699.54	21.06
699.67	0.00
699.80	0.00
699.94	0.00
700.07	51.49
700.20	56.17
700.34	67.88
700.47	21.06
700.60	107.66
700.73	51.49
700.87	0.00
701.00	16.38
701.13	0.00
701.26	23.41
701.40	0.00
701.53	42.13
701.66	14.04
701.79	7.02
701.93	0.00
702.06	49.15
702.19	18.72
702.32	53.83
702.46	9.36
702.59	23.41
702.72	16.38
702.85	28.09
702.99	0.00
703.12	14.04
703.25	65.54
703.38	81.92
703.51	46.81
703.65	60.85
703.78	39.79
703.91	11.70
704.04	21.06
704.17	2.34
704.31	4.68
704.44	105.32
704.57	65.54
704.70	23.41
704.83	77.24
704.96	37.45
705.10	0.00
705.23	42.13
>>>>>End Processed Spectral Data<<<<<
