SpectraSuite Data File
++++++++++++++++++++++++++++++++++++
Date: Fri Oct 04 12:13:43 GMT-05:00 2013
User: price-jones
Dark Spectrum Present: No
Reference Spectrum Present: No
Number of Sampled Component Spectra: 1
Spectrometers: USB2+H05261
Integration Time (usec): 10000 (USB2+H05261)
Spectra Averaged: 1 (USB2+H05261)
Boxcar Smoothing: 0 (USB2+H05261)
Correct for Electrical Dark: No (USB2+H05261)
Strobe/Lamp Enabled: No (USB2+H05261)
Correct for Detector Non-linearity: No (USB2+H05261)
Correct for Stray Light: No (USB2+H05261)
Number of Pixels in Processed Spectrum: 2048
>>>>>Begin Processed Spectral Data<<<<<
365.73	0.00
365.92	0.00
366.12	0.00
366.32	0.00
366.52	0.00
366.72	0.00
366.91	0.00
367.11	0.00
367.31	0.00
367.51	0.00
367.70	0.00
367.90	0.00
368.10	0.00
368.30	0.00
368.49	0.00
368.69	0.00
368.89	0.00
369.09	0.00
369.28	0.00
369.48	0.00
369.68	0.00
369.87	0.00
370.07	0.00
370.27	0.00
370.47	0.00
370.66	0.00
370.86	0.00
371.06	0.00
371.25	0.00
371.45	0.00
371.65	0.00
371.84	0.00
372.04	0.00
372.24	0.00
372.44	0.00
372.63	0.00
372.83	0.00
373.03	0.00
373.22	2.34
373.42	0.00
373.62	0.00
373.81	49.15
374.01	18.72
374.21	18.72
374.40	0.00
374.60	32.77
374.79	58.51
374.99	39.79
375.19	100.64
375.38	63.19
375.58	28.09
375.78	0.00
375.97	18.72
376.17	30.43
376.37	44.47
376.56	119.37
376.76	21.06
376.95	53.83
377.15	25.75
377.35	84.26
377.54	0.00
377.74	23.41
377.93	63.19
378.13	4.68
378.33	37.45
378.52	16.38
378.72	25.75
378.91	100.64
379.11	58.51
379.31	9.36
379.50	11.70
379.70	0.00
379.89	0.00
380.09	0.00
380.28	0.00
380.48	4.68
380.68	42.13
380.87	0.00
381.07	9.36
381.26	23.41
381.46	0.00
381.65	9.36
381.85	102.98
382.04	42.13
382.24	14.04
382.43	79.58
382.63	9.36
382.83	0.00
383.02	14.04
383.22	37.45
383.41	67.88
383.61	30.43
383.80	25.75
384.00	42.13
384.19	65.54
384.39	0.00
384.58	0.00
384.78	46.81
384.97	0.00
385.17	112.35
385.36	0.00
385.56	95.96
385.75	0.00
385.95	0.00
386.14	0.00
386.34	60.85
386.53	30.43
386.72	23.41
386.92	42.13
387.11	11.70
387.31	39.79
387.50	23.41
387.70	0.00
387.89	11.70
388.09	0.00
388.28	51.49
388.48	16.38
388.67	35.11
388.86	32.77
389.06	14.04
389.25	4.68
389.45	56.17
389.64	65.54
389.84	9.36
390.03	0.00
390.22	81.92
390.42	32.77
390.61	14.04
390.81	28.09
391.00	42.13
391.19	51.49
391.39	49.15
391.58	0.00
391.78	30.43
391.97	0.00
392.16	39.79
392.36	23.41
392.55	72.56
392.75	2.34
392.94	67.88
393.13	32.77
393.33	37.45
393.52	32.77
393.71	56.17
393.91	25.75
394.10	4.68
394.29	0.00
394.49	0.00
394.68	42.13
394.88	37.45
395.07	14.04
395.26	0.00
395.46	30.43
395.65	51.49
395.84	0.00
396.04	49.15
396.23	93.62
396.42	88.94
396.62	0.00
396.81	9.36
397.00	14.04
397.19	58.51
397.39	42.13
397.58	65.54
397.77	37.45
397.97	25.75
398.16	32.77
398.35	0.00
398.55	21.06
398.74	0.00
398.93	53.83
399.12	81.92
399.32	0.00
399.51	16.38
399.70	65.54
399.90	39.79
400.09	58.51
400.28	65.54
400.47	107.66
400.67	42.13
400.86	58.51
401.05	81.92
401.24	91.28
401.44	21.06
401.63	14.04
401.82	51.49
402.01	0.00
402.21	0.00
402.40	53.83
402.59	0.00
402.78	65.54
402.97	49.15
403.17	51.49
403.36	9.36
403.55	42.13
403.74	14.04
403.93	18.72
404.13	86.60
404.32	37.45
404.51	18.72
404.70	9.36
404.89	53.83
405.09	32.77
405.28	74.90
405.47	2.34
405.66	23.41
405.85	86.60
406.05	60.85
406.24	0.00
406.43	46.81
406.62	21.06
406.81	7.02
407.00	25.75
407.20	65.54
407.39	4.68
407.58	0.00
407.77	42.13
407.96	39.79
408.15	44.47
408.34	30.43
408.54	21.06
408.73	0.00
408.92	65.54
409.11	107.66
409.30	72.56
409.49	0.00
409.68	53.83
409.87	28.09
410.07	60.85
410.26	0.00
410.45	63.19
410.64	18.72
410.83	51.49
411.02	37.45
411.21	39.79
411.40	37.45
411.59	23.41
411.78	51.49
411.98	70.22
412.17	79.58
412.36	84.26
412.55	35.11
412.74	51.49
412.93	74.90
413.12	84.26
413.31	37.45
413.50	0.00
413.69	21.06
413.88	28.09
414.07	25.75
414.26	23.41
414.45	84.26
414.64	72.56
414.83	60.85
415.02	0.00
415.22	39.79
415.41	63.19
415.60	51.49
415.79	42.13
415.98	58.51
416.17	84.26
416.36	28.09
416.55	53.83
416.74	18.72
416.93	0.00
417.12	88.94
417.31	65.54
417.50	4.68
417.69	39.79
417.88	25.75
418.07	46.81
418.26	117.03
418.45	67.88
418.64	91.28
418.83	65.54
419.02	121.71
419.21	81.92
419.39	56.17
419.58	37.45
419.77	98.30
419.96	0.00
420.15	112.35
420.34	63.19
420.53	86.60
420.72	51.49
420.91	70.22
421.10	28.09
421.29	65.54
421.48	0.00
421.67	56.17
421.86	9.36
422.05	86.60
422.24	28.09
422.43	21.06
422.61	32.77
422.80	0.00
422.99	9.36
423.18	46.81
423.37	93.62
423.56	7.02
423.75	70.22
423.94	65.54
424.13	18.72
424.32	18.72
424.50	51.49
424.69	65.54
424.88	79.58
425.07	46.81
425.26	63.19
425.45	46.81
425.64	65.54
425.83	65.54
426.01	98.30
426.20	102.98
426.39	35.11
426.58	91.28
426.77	86.60
426.96	16.38
427.15	25.75
427.33	0.00
427.52	42.13
427.71	28.09
427.90	30.43
428.09	60.85
428.28	44.47
428.46	77.24
428.65	11.70
428.84	74.90
429.03	102.98
429.22	30.43
429.40	18.72
429.59	93.62
429.78	67.88
429.97	67.88
430.16	0.00
430.34	51.49
430.53	79.58
430.72	11.70
430.91	0.00
431.10	53.83
431.28	28.09
431.47	37.45
431.66	28.09
431.85	79.58
432.03	51.49
432.22	110.01
432.41	63.19
432.60	42.13
432.79	39.79
432.97	49.15
433.16	51.49
433.35	35.11
433.54	65.54
433.72	124.05
433.91	117.03
434.10	14.04
434.28	79.58
434.47	81.92
434.66	91.28
434.85	77.24
435.03	67.88
435.22	114.69
435.41	70.22
435.59	0.00
435.78	42.13
435.97	131.07
436.16	63.19
436.34	0.00
436.53	93.62
436.72	79.58
436.90	86.60
437.09	35.11
437.28	65.54
437.46	28.09
437.65	0.00
437.84	79.58
438.02	46.81
438.21	77.24
438.40	0.00
438.58	93.62
438.77	72.56
438.96	16.38
439.14	56.17
439.33	51.49
439.52	30.43
439.70	110.01
439.89	98.30
440.08	51.49
440.26	53.83
440.45	25.75
440.63	86.60
440.82	58.51
441.01	32.77
441.19	14.04
441.38	67.88
441.57	0.00
441.75	39.79
441.94	168.52
442.12	25.75
442.31	100.64
442.50	91.28
442.68	91.28
442.87	30.43
443.05	53.83
443.24	0.00
443.43	72.56
443.61	63.19
443.80	88.94
443.98	70.22
444.17	51.49
444.35	46.81
444.54	107.66
444.73	126.39
444.91	119.37
445.10	56.17
445.28	72.56
445.47	119.37
445.65	46.81
445.84	79.58
446.02	25.75
446.21	140.43
446.39	51.49
446.58	128.73
446.77	35.11
446.95	21.06
447.14	98.30
447.32	98.30
447.51	91.28
447.69	74.90
447.88	0.00
448.06	7.02
448.25	46.81
448.43	74.90
448.62	60.85
448.80	77.24
448.99	39.79
449.17	84.26
449.36	133.41
449.54	65.54
449.73	72.56
449.91	102.98
450.10	53.83
450.28	0.00
450.46	56.17
450.65	60.85
450.83	128.73
451.02	0.00
451.20	81.92
451.39	74.90
451.57	133.41
451.76	161.50
451.94	70.22
452.13	70.22
452.31	77.24
452.49	35.11
452.68	37.45
452.86	70.22
453.05	119.37
453.23	100.64
453.42	100.64
453.60	35.11
453.78	42.13
453.97	91.28
454.15	72.56
454.34	21.06
454.52	93.62
454.70	60.85
454.89	74.90
455.07	32.77
455.26	67.88
455.44	35.11
455.62	79.58
455.81	93.62
455.99	119.37
456.17	46.81
456.36	135.75
456.54	100.64
456.73	46.81
456.91	74.90
457.09	21.06
457.28	72.56
457.46	18.72
457.64	65.54
457.83	70.22
458.01	7.02
458.19	46.81
458.38	65.54
458.56	49.15
458.74	35.11
458.93	84.26
459.11	67.88
459.29	67.88
459.48	49.15
459.66	124.05
459.84	77.24
460.03	56.17
460.21	91.28
460.39	79.58
460.57	110.01
460.76	72.56
460.94	7.02
461.12	142.77
461.31	9.36
461.49	152.13
461.67	58.51
461.85	60.85
462.04	100.64
462.22	98.30
462.40	81.92
462.59	25.75
462.77	49.15
462.95	0.00
463.13	63.19
463.32	105.32
463.50	53.83
463.68	53.83
463.86	51.49
464.05	9.36
464.23	128.73
464.41	138.09
464.59	46.81
464.78	0.00
464.96	46.81
465.14	81.92
465.32	2.34
465.50	79.58
465.69	9.36
465.87	98.30
466.05	138.09
466.23	23.41
466.41	53.83
466.60	65.54
466.78	93.62
466.96	53.83
467.14	93.62
467.32	121.71
467.51	114.69
467.69	30.43
467.87	60.85
468.05	95.96
468.23	11.70
468.41	126.39
468.60	37.45
468.78	0.00
468.96	74.90
469.14	121.71
469.32	56.17
469.50	42.13
469.69	93.62
469.87	28.09
470.05	42.13
470.23	93.62
470.41	53.83
470.59	93.62
470.77	91.28
470.95	30.43
471.14	9.36
471.32	65.54
471.50	65.54
471.68	65.54
471.86	63.19
472.04	39.79
472.22	35.11
472.40	79.58
472.58	126.39
472.77	11.70
472.95	117.03
473.13	88.94
473.31	95.96
473.49	63.19
473.67	149.79
473.85	42.13
474.03	35.11
474.21	0.00
474.39	121.71
474.57	25.75
474.75	112.35
474.93	65.54
475.12	77.24
475.30	30.43
475.48	88.94
475.66	0.00
475.84	51.49
476.02	100.64
476.20	98.30
476.38	56.17
476.56	84.26
476.74	95.96
476.92	35.11
477.10	79.58
477.28	18.72
477.46	37.45
477.64	11.70
477.82	86.60
478.00	86.60
478.18	56.17
478.36	100.64
478.54	110.01
478.72	74.90
478.90	18.72
479.08	107.66
479.26	56.17
479.44	107.66
479.62	98.30
479.80	86.60
479.98	79.58
480.16	98.30
480.34	102.98
480.52	114.69
480.70	65.54
480.88	28.09
481.06	9.36
481.24	93.62
481.41	79.58
481.59	91.28
481.77	58.51
481.95	25.75
482.13	16.38
482.31	98.30
482.49	67.88
482.67	124.05
482.85	110.01
483.03	60.85
483.21	74.90
483.39	79.58
483.57	56.17
483.74	126.39
483.92	72.56
484.10	72.56
484.28	65.54
484.46	117.03
484.64	121.71
484.82	166.18
485.00	93.62
485.18	93.62
485.35	37.45
485.53	44.47
485.71	117.03
485.89	114.69
486.07	142.77
486.25	65.54
486.43	133.41
486.61	100.64
486.78	110.01
486.96	0.00
487.14	95.96
487.32	28.09
487.50	84.26
487.68	126.39
487.85	39.79
488.03	133.41
488.21	117.03
488.39	11.70
488.57	105.32
488.75	91.28
488.92	119.37
489.10	88.94
489.28	93.62
489.46	93.62
489.64	65.54
489.81	110.01
489.99	23.41
490.17	98.30
490.35	58.51
490.53	44.47
490.70	81.92
490.88	119.37
491.06	114.69
491.24	138.09
491.41	86.60
491.59	177.88
491.77	42.13
491.95	95.96
492.13	79.58
492.30	114.69
492.48	114.69
492.66	72.56
492.84	35.11
493.01	86.60
493.19	105.32
493.37	44.47
493.54	9.36
493.72	145.11
493.90	112.35
494.08	102.98
494.25	105.32
494.43	98.30
494.61	184.90
494.79	152.13
494.96	105.32
495.14	107.66
495.32	140.43
495.49	46.81
495.67	95.96
495.85	100.64
496.02	128.73
496.20	110.01
496.38	51.49
496.55	65.54
496.73	37.45
496.91	86.60
497.09	65.54
497.26	105.32
497.44	39.79
497.62	51.49
497.79	131.07
497.97	70.22
498.14	91.28
498.32	84.26
498.50	189.58
498.67	88.94
498.85	117.03
499.03	102.98
499.20	121.71
499.38	86.60
499.56	100.64
499.73	81.92
499.91	53.83
500.08	39.79
500.26	189.58
500.44	93.62
500.61	156.82
500.79	91.28
500.97	70.22
501.14	107.66
501.32	112.35
501.49	105.32
501.67	91.28
501.84	60.85
502.02	95.96
502.20	88.94
502.37	117.03
502.55	112.35
502.72	86.60
502.90	163.84
503.07	126.39
503.25	63.19
503.43	102.98
503.60	65.54
503.78	86.60
503.95	46.81
504.13	70.22
504.30	23.41
504.48	124.05
504.65	42.13
504.83	74.90
505.01	65.54
505.18	147.45
505.36	147.45
505.53	86.60
505.71	67.88
505.88	163.84
506.06	163.84
506.23	84.26
506.41	114.69
506.58	133.41
506.76	121.71
506.93	65.54
507.11	159.16
507.28	58.51
507.46	105.32
507.63	114.69
507.81	79.58
507.98	67.88
508.16	117.03
508.33	70.22
508.50	128.73
508.68	23.41
508.85	112.35
509.03	79.58
509.20	21.06
509.38	133.41
509.55	110.01
509.73	180.22
509.90	98.30
510.08	198.95
510.25	159.16
510.42	117.03
510.60	102.98
510.77	135.75
510.95	95.96
511.12	124.05
511.30	37.45
511.47	86.60
511.64	128.73
511.82	112.35
511.99	91.28
512.17	107.66
512.34	152.13
512.51	46.81
512.69	91.28
512.86	110.01
513.04	98.30
513.21	74.90
513.38	37.45
513.56	88.94
513.73	70.22
513.90	124.05
514.08	49.15
514.25	84.26
514.43	100.64
514.60	58.51
514.77	110.01
514.95	88.94
515.12	102.98
515.29	67.88
515.47	161.50
515.64	93.62
515.81	86.60
515.99	117.03
516.16	72.56
516.33	81.92
516.51	81.92
516.68	93.62
516.85	49.15
517.03	100.64
517.20	105.32
517.37	110.01
517.54	170.86
517.72	105.32
517.89	37.45
518.06	102.98
518.24	81.92
518.41	110.01
518.58	32.77
518.75	152.13
518.93	166.18
519.10	119.37
519.27	131.07
519.45	98.30
519.62	65.54
519.79	98.30
519.96	142.77
520.14	102.98
520.31	145.11
520.48	102.98
520.65	128.73
520.83	100.64
521.00	112.35
521.17	42.13
521.34	138.09
521.52	117.03
521.69	126.39
521.86	81.92
522.03	74.90
522.20	138.09
522.38	91.28
522.55	110.01
522.72	107.66
522.89	67.88
523.07	138.09
523.24	95.96
523.41	105.32
523.58	138.09
523.75	100.64
523.92	93.62
524.10	67.88
524.27	88.94
524.44	74.90
524.61	91.28
524.78	49.15
524.96	126.39
525.13	105.32
525.30	119.37
525.47	77.24
525.64	133.41
525.81	39.79
525.98	163.84
526.16	63.19
526.33	51.49
526.50	124.05
526.67	86.60
526.84	88.94
527.01	107.66
527.18	77.24
527.36	112.35
527.53	114.69
527.70	86.60
527.87	88.94
528.04	65.54
528.21	119.37
528.38	159.16
528.55	135.75
528.72	105.32
528.89	70.22
529.07	112.35
529.24	124.05
529.41	70.22
529.58	117.03
529.75	105.32
529.92	51.49
530.09	100.64
530.26	180.22
530.43	60.85
530.60	114.69
530.77	58.51
530.94	60.85
531.11	107.66
531.28	117.03
531.46	42.13
531.63	128.73
531.80	142.77
531.97	102.98
532.14	98.30
532.31	93.62
532.48	93.62
532.65	53.83
532.82	173.20
532.99	93.62
533.16	72.56
533.33	74.90
533.50	159.16
533.67	98.30
533.84	117.03
534.01	166.18
534.18	145.11
534.35	128.73
534.52	74.90
534.69	133.41
534.86	77.24
535.03	135.75
535.20	119.37
535.37	63.19
535.54	124.05
535.71	86.60
535.88	95.96
536.05	56.17
536.22	98.30
536.38	70.22
536.55	56.17
536.72	140.43
536.89	60.85
537.06	131.07
537.23	88.94
537.40	91.28
537.57	201.29
537.74	112.35
537.91	84.26
538.08	114.69
538.25	56.17
538.42	51.49
538.59	98.30
538.75	145.11
538.92	140.43
539.09	93.62
539.26	177.88
539.43	58.51
539.60	154.48
539.77	114.69
539.94	72.56
540.11	175.54
540.28	147.45
540.44	166.18
540.61	58.51
540.78	91.28
540.95	25.75
541.12	79.58
541.29	112.35
541.46	117.03
541.62	53.83
541.79	163.84
541.96	81.92
542.13	81.92
542.30	126.39
542.47	147.45
542.63	119.37
542.80	84.26
542.97	112.35
543.14	81.92
543.31	93.62
543.48	84.26
543.64	46.81
543.81	63.19
543.98	93.62
544.15	100.64
544.32	114.69
544.48	84.26
544.65	93.62
544.82	161.50
544.99	49.15
545.16	131.07
545.32	67.88
545.49	110.01
545.66	117.03
545.83	81.92
546.00	70.22
546.16	131.07
546.33	32.77
546.50	105.32
546.67	86.60
546.83	203.63
547.00	84.26
547.17	53.83
547.34	74.90
547.50	145.11
547.67	140.43
547.84	42.13
548.00	105.32
548.17	100.64
548.34	119.37
548.51	102.98
548.67	177.88
548.84	201.29
549.01	156.82
549.18	58.51
549.34	126.39
549.51	149.79
549.68	74.90
549.84	133.41
550.01	119.37
550.18	124.05
550.34	161.50
550.51	166.18
550.68	84.26
550.84	98.30
551.01	42.13
551.18	145.11
551.34	140.43
551.51	138.09
551.68	117.03
551.84	56.17
552.01	145.11
552.18	110.01
552.34	107.66
552.51	138.09
552.68	121.71
552.84	131.07
553.01	133.41
553.18	117.03
553.34	135.75
553.51	51.49
553.67	74.90
553.84	77.24
554.01	70.22
554.17	128.73
554.34	84.26
554.51	100.64
554.67	105.32
554.84	65.54
555.00	138.09
555.17	91.28
555.33	110.01
555.50	16.38
555.67	65.54
555.83	98.30
556.00	32.77
556.16	74.90
556.33	107.66
556.50	112.35
556.66	100.64
556.83	114.69
556.99	95.96
557.16	49.15
557.32	60.85
557.49	102.98
557.65	140.43
557.82	81.92
557.98	124.05
558.15	44.47
558.32	74.90
558.48	133.41
558.65	145.11
558.81	114.69
558.98	7.02
559.14	168.52
559.31	63.19
559.47	35.11
559.64	70.22
559.80	58.51
559.97	67.88
560.13	49.15
560.30	119.37
560.46	135.75
560.63	114.69
560.79	187.24
560.96	74.90
561.12	84.26
561.29	110.01
561.45	138.09
561.61	65.54
561.78	49.15
561.94	117.03
562.11	105.32
562.27	49.15
562.44	117.03
562.60	124.05
562.77	131.07
562.93	100.64
563.10	95.96
563.26	98.30
563.42	53.83
563.59	145.11
563.75	70.22
563.92	105.32
564.08	112.35
564.24	86.60
564.41	81.92
564.57	145.11
564.74	35.11
564.90	135.75
565.07	91.28
565.23	49.15
565.39	79.58
565.56	65.54
565.72	138.09
565.88	140.43
566.05	93.62
566.21	14.04
566.38	95.96
566.54	100.64
566.70	100.64
566.87	121.71
567.03	152.13
567.19	53.83
567.36	140.43
567.52	105.32
567.68	37.45
567.85	100.64
568.01	58.51
568.17	119.37
568.34	49.15
568.50	63.19
568.66	42.13
568.83	44.47
568.99	142.77
569.15	95.96
569.32	30.43
569.48	46.81
569.64	23.41
569.81	35.11
569.97	114.69
570.13	65.54
570.30	140.43
570.46	135.75
570.62	117.03
570.78	65.54
570.95	114.69
571.11	117.03
571.27	131.07
571.43	114.69
571.60	121.71
571.76	105.32
571.92	79.58
572.09	74.90
572.25	86.60
572.41	79.58
572.57	98.30
572.74	121.71
572.90	107.66
573.06	51.49
573.22	121.71
573.38	128.73
573.55	114.69
573.71	84.26
573.87	128.73
574.03	21.06
574.20	0.00
574.36	128.73
574.52	81.92
574.68	35.11
574.84	32.77
575.01	65.54
575.17	95.96
575.33	86.60
575.49	67.88
575.65	58.51
575.82	131.07
575.98	81.92
576.14	105.32
576.30	98.30
576.46	149.79
576.62	58.51
576.79	60.85
576.95	121.71
577.11	7.02
577.27	114.69
577.43	28.09
577.59	65.54
577.75	149.79
577.92	86.60
578.08	42.13
578.24	74.90
578.40	114.69
578.56	21.06
578.72	42.13
578.88	112.35
579.04	7.02
579.21	110.01
579.37	79.58
579.53	72.56
579.69	58.51
579.85	95.96
580.01	53.83
580.17	32.77
580.33	81.92
580.49	74.90
580.65	77.24
580.82	95.96
580.98	119.37
581.14	63.19
581.30	84.26
581.46	63.19
581.62	11.70
581.78	86.60
581.94	100.64
582.10	74.90
582.26	58.51
582.42	88.94
582.58	86.60
582.74	88.94
582.90	60.85
583.06	67.88
583.22	93.62
583.38	95.96
583.54	135.75
583.70	131.07
583.86	107.66
584.02	44.47
584.18	46.81
584.34	112.35
584.50	70.22
584.66	65.54
584.82	145.11
584.98	86.60
585.14	60.85
585.30	79.58
585.46	56.17
585.62	114.69
585.78	72.56
585.94	70.22
586.10	67.88
586.26	79.58
586.42	110.01
586.58	81.92
586.74	149.79
586.90	39.79
587.06	60.85
587.22	49.15
587.38	77.24
587.54	53.83
587.70	131.07
587.86	49.15
588.02	102.98
588.18	42.13
588.34	98.30
588.49	88.94
588.65	42.13
588.81	67.88
588.97	25.75
589.13	35.11
589.29	100.64
589.45	72.56
589.61	51.49
589.77	88.94
589.93	70.22
590.08	42.13
590.24	102.98
590.40	63.19
590.56	124.05
590.72	81.92
590.88	84.26
591.04	95.96
591.20	131.07
591.35	91.28
591.51	81.92
591.67	70.22
591.83	88.94
591.99	44.47
592.15	58.51
592.31	86.60
592.46	149.79
592.62	72.56
592.78	81.92
592.94	39.79
593.10	44.47
593.26	79.58
593.41	67.88
593.57	84.26
593.73	39.79
593.89	21.06
594.05	58.51
594.20	84.26
594.36	72.56
594.52	77.24
594.68	25.75
594.84	18.72
594.99	44.47
595.15	70.22
595.31	128.73
595.47	105.32
595.62	49.15
595.78	93.62
595.94	81.92
596.10	14.04
596.25	100.64
596.41	81.92
596.57	0.00
596.73	102.98
596.88	84.26
597.04	102.98
597.20	49.15
597.36	142.77
597.51	93.62
597.67	79.58
597.83	81.92
597.99	173.20
598.14	154.48
598.30	74.90
598.46	93.62
598.61	138.09
598.77	30.43
598.93	131.07
599.09	93.62
599.24	72.56
599.40	100.64
599.56	84.26
599.71	77.24
599.87	7.02
600.03	86.60
600.18	114.69
600.34	133.41
600.50	110.01
600.65	86.60
600.81	105.32
600.97	28.09
601.12	107.66
601.28	93.62
601.44	74.90
601.59	56.17
601.75	93.62
601.91	124.05
602.06	14.04
602.22	114.69
602.37	56.17
602.53	93.62
602.69	77.24
602.84	28.09
603.00	84.26
603.16	114.69
603.31	128.73
603.47	84.26
603.62	49.15
603.78	84.26
603.94	18.72
604.09	79.58
604.25	142.77
604.40	37.45
604.56	42.13
604.71	102.98
604.87	44.47
605.03	77.24
605.18	67.88
605.34	30.43
605.49	93.62
605.65	133.41
605.80	51.49
605.96	58.51
606.12	95.96
606.27	124.05
606.43	25.75
606.58	79.58
606.74	102.98
606.89	105.32
607.05	117.03
607.20	25.75
607.36	131.07
607.51	72.56
607.67	110.01
607.82	65.54
607.98	70.22
608.13	51.49
608.29	114.69
608.44	147.45
608.60	91.28
608.75	114.69
608.91	88.94
609.06	91.28
609.22	70.22
609.37	67.88
609.53	65.54
609.68	63.19
609.84	93.62
609.99	72.56
610.15	65.54
610.30	138.09
610.46	102.98
610.61	53.83
610.76	79.58
610.92	86.60
611.07	105.32
611.23	114.69
611.38	124.05
611.54	107.66
611.69	119.37
611.84	93.62
612.00	56.17
612.15	74.90
612.31	124.05
612.46	16.38
612.62	42.13
612.77	86.60
612.92	16.38
613.08	67.88
613.23	119.37
613.39	11.70
613.54	0.00
613.69	79.58
613.85	117.03
614.00	86.60
614.15	0.00
614.31	100.64
614.46	51.49
614.62	79.58
614.77	121.71
614.92	70.22
615.08	107.66
615.23	44.47
615.38	72.56
615.54	67.88
615.69	142.77
615.84	65.54
616.00	91.28
616.15	0.00
616.30	86.60
616.46	49.15
616.61	11.70
616.76	114.69
616.92	107.66
617.07	46.81
617.22	124.05
617.37	44.47
617.53	86.60
617.68	107.66
617.83	25.75
617.99	81.92
618.14	128.73
618.29	51.49
618.45	126.39
618.60	60.85
618.75	79.58
618.90	23.41
619.06	74.90
619.21	49.15
619.36	77.24
619.51	58.51
619.67	67.88
619.82	67.88
619.97	14.04
620.12	88.94
620.28	23.41
620.43	86.60
620.58	14.04
620.73	51.49
620.89	107.66
621.04	117.03
621.19	95.96
621.34	91.28
621.49	100.64
621.65	39.79
621.80	91.28
621.95	119.37
622.10	112.35
622.25	119.37
622.41	105.32
622.56	100.64
622.71	93.62
622.86	98.30
623.01	95.96
623.16	114.69
623.32	39.79
623.47	46.81
623.62	49.15
623.77	30.43
623.92	93.62
624.07	67.88
624.23	72.56
624.38	84.26
624.53	21.06
624.68	44.47
624.83	60.85
624.98	44.47
625.13	65.54
625.29	63.19
625.44	60.85
625.59	98.30
625.74	49.15
625.89	86.60
626.04	14.04
626.19	0.00
626.34	93.62
626.49	14.04
626.65	147.45
626.80	72.56
626.95	91.28
627.10	79.58
627.25	86.60
627.40	67.88
627.55	14.04
627.70	9.36
627.85	23.41
628.00	0.00
628.15	79.58
628.30	72.56
628.45	156.82
628.60	49.15
628.76	107.66
628.91	49.15
629.06	88.94
629.21	91.28
629.36	98.30
629.51	60.85
629.66	51.49
629.81	51.49
629.96	9.36
630.11	49.15
630.26	81.92
630.41	37.45
630.56	67.88
630.71	152.13
630.86	74.90
631.01	32.77
631.16	107.66
631.31	84.26
631.46	46.81
631.61	105.32
631.76	72.56
631.91	84.26
632.06	93.62
632.21	70.22
632.36	25.75
632.51	14.04
632.66	114.69
632.81	84.26
632.96	58.51
633.10	128.73
633.25	63.19
633.40	16.38
633.55	58.51
633.70	51.49
633.85	56.17
634.00	74.90
634.15	51.49
634.30	112.35
634.45	168.52
634.60	77.24
634.75	95.96
634.90	0.00
635.05	58.51
635.19	65.54
635.34	25.75
635.49	84.26
635.64	49.15
635.79	100.64
635.94	74.90
636.09	156.82
636.24	107.66
636.39	51.49
636.53	21.06
636.68	117.03
636.83	70.22
636.98	46.81
637.13	63.19
637.28	46.81
637.43	49.15
637.57	0.00
637.72	86.60
637.87	44.47
638.02	135.75
638.17	88.94
638.32	51.49
638.46	102.98
638.61	86.60
638.76	67.88
638.91	117.03
639.06	131.07
639.20	0.00
639.35	112.35
639.50	72.56
639.65	117.03
639.80	131.07
639.94	110.01
640.09	32.77
640.24	60.85
640.39	194.26
640.54	35.11
640.68	60.85
640.83	46.81
640.98	56.17
641.13	63.19
641.27	42.13
641.42	119.37
641.57	74.90
641.72	0.00
641.86	74.90
642.01	133.41
642.16	98.30
642.31	28.09
642.45	51.49
642.60	72.56
642.75	95.96
642.90	32.77
643.04	23.41
643.19	65.54
643.34	39.79
643.48	63.19
643.63	70.22
643.78	74.90
643.93	133.41
644.07	86.60
644.22	135.75
644.37	58.51
644.51	131.07
644.66	102.98
644.81	46.81
644.95	49.15
645.10	72.56
645.25	0.00
645.39	60.85
645.54	93.62
645.69	25.75
645.83	14.04
645.98	28.09
646.13	56.17
646.27	84.26
646.42	53.83
646.57	53.83
646.71	28.09
646.86	95.96
647.00	81.92
647.15	39.79
647.30	117.03
647.44	16.38
647.59	44.47
647.74	25.75
647.88	91.28
648.03	93.62
648.17	32.77
648.32	18.72
648.47	30.43
648.61	67.88
648.76	105.32
648.90	56.17
649.05	39.79
649.20	95.96
649.34	63.19
649.49	65.54
649.63	60.85
649.78	46.81
649.92	42.13
650.07	39.79
650.21	131.07
650.36	114.69
650.51	112.35
650.65	91.28
650.80	81.92
650.94	37.45
651.09	11.70
651.23	107.66
651.38	21.06
651.52	60.85
651.67	53.83
651.81	44.47
651.96	95.96
652.10	117.03
652.25	56.17
652.39	4.68
652.54	14.04
652.68	25.75
652.83	0.00
652.97	28.09
653.12	65.54
653.26	110.01
653.41	65.54
653.55	86.60
653.70	63.19
653.84	32.77
653.99	133.41
654.13	77.24
654.27	39.79
654.42	74.90
654.56	16.38
654.71	70.22
654.85	23.41
655.00	0.00
655.14	30.43
655.29	81.92
655.43	30.43
655.57	110.01
655.72	77.24
655.86	63.19
656.01	39.79
656.15	37.45
656.30	67.88
656.44	114.69
656.58	84.26
656.73	79.58
656.87	44.47
657.01	0.00
657.16	0.00
657.30	56.17
657.45	79.58
657.59	77.24
657.73	107.66
657.88	72.56
658.02	93.62
658.16	0.00
658.31	86.60
658.45	25.75
658.60	28.09
658.74	79.58
658.88	91.28
659.03	60.85
659.17	91.28
659.31	100.64
659.46	0.00
659.60	37.45
659.74	81.92
659.89	53.83
660.03	100.64
660.17	32.77
660.32	74.90
660.46	32.77
660.60	67.88
660.74	70.22
660.89	23.41
661.03	35.11
661.17	35.11
661.32	18.72
661.46	0.00
661.60	30.43
661.74	16.38
661.89	63.19
662.03	0.00
662.17	37.45
662.31	112.35
662.46	91.28
662.60	35.11
662.74	32.77
662.88	23.41
663.03	77.24
663.17	58.51
663.31	98.30
663.45	65.54
663.60	23.41
663.74	14.04
663.88	46.81
664.02	44.47
664.17	93.62
664.31	77.24
664.45	0.00
664.59	65.54
664.73	2.34
664.88	81.92
665.02	91.28
665.16	42.13
665.30	0.00
665.44	0.00
665.59	79.58
665.73	23.41
665.87	30.43
666.01	121.71
666.15	18.72
666.29	67.88
666.44	14.04
666.58	39.79
666.72	9.36
666.86	4.68
667.00	98.30
667.14	58.51
667.28	112.35
667.43	65.54
667.57	14.04
667.71	11.70
667.85	72.56
667.99	35.11
668.13	46.81
668.27	35.11
668.41	37.45
668.56	30.43
668.70	23.41
668.84	65.54
668.98	53.83
669.12	98.30
669.26	25.75
669.40	32.77
669.54	42.13
669.68	44.47
669.82	107.66
669.96	60.85
670.10	102.98
670.25	112.35
670.39	70.22
670.53	60.85
670.67	84.26
670.81	67.88
670.95	53.83
671.09	60.85
671.23	0.00
671.37	46.81
671.51	70.22
671.65	114.69
671.79	67.88
671.93	32.77
672.07	70.22
672.21	91.28
672.35	46.81
672.49	72.56
672.63	0.00
672.77	117.03
672.91	0.00
673.05	16.38
673.19	124.05
673.33	0.00
673.47	42.13
673.61	74.90
673.75	21.06
673.89	7.02
674.03	25.75
674.17	18.72
674.31	56.17
674.45	72.56
674.59	70.22
674.73	65.54
674.87	42.13
675.01	28.09
675.15	42.13
675.29	74.90
675.43	32.77
675.56	0.00
675.70	102.98
675.84	145.11
675.98	124.05
676.12	88.94
676.26	72.56
676.40	35.11
676.54	56.17
676.68	49.15
676.82	44.47
676.96	37.45
677.10	0.00
677.23	126.39
677.37	173.20
677.51	74.90
677.65	114.69
677.79	77.24
677.93	72.56
678.07	46.81
678.21	4.68
678.34	0.00
678.48	16.38
678.62	39.79
678.76	39.79
678.90	53.83
679.04	93.62
679.18	4.68
679.31	105.32
679.45	53.83
679.59	121.71
679.73	84.26
679.87	0.00
680.00	88.94
680.14	0.00
680.28	98.30
680.42	14.04
680.56	46.81
680.70	28.09
680.83	0.00
680.97	95.96
681.11	93.62
681.25	42.13
681.39	28.09
681.52	28.09
681.66	51.49
681.80	11.70
681.94	72.56
682.07	72.56
682.21	23.41
682.35	135.75
682.49	28.09
682.62	63.19
682.76	72.56
682.90	14.04
683.04	28.09
683.17	21.06
683.31	93.62
683.45	4.68
683.59	98.30
683.72	51.49
683.86	84.26
684.00	35.11
684.13	18.72
684.27	95.96
684.41	37.45
684.55	7.02
684.68	14.04
684.82	77.24
684.96	46.81
685.09	0.00
685.23	51.49
685.37	0.00
685.50	39.79
685.64	51.49
685.78	0.00
685.91	4.68
686.05	46.81
686.19	16.38
686.32	81.92
686.46	49.15
686.60	39.79
686.73	74.90
686.87	53.83
687.01	4.68
687.14	32.77
687.28	60.85
687.42	0.00
687.55	7.02
687.69	18.72
687.82	32.77
687.96	84.26
688.10	44.47
688.23	63.19
688.37	9.36
688.50	11.70
688.64	39.79
688.78	32.77
688.91	0.00
689.05	72.56
689.18	25.75
689.32	46.81
689.46	56.17
689.59	4.68
689.73	25.75
689.86	70.22
690.00	72.56
690.13	25.75
690.27	51.49
690.41	4.68
690.54	42.13
690.68	23.41
690.81	58.51
690.95	21.06
691.08	0.00
691.22	70.22
691.35	53.83
691.49	44.47
691.62	23.41
691.76	51.49
691.89	0.00
692.03	0.00
692.16	51.49
692.30	14.04
692.43	25.75
692.57	95.96
692.70	79.58
692.84	60.85
692.97	0.00
693.11	37.45
693.24	16.38
693.38	23.41
693.51	51.49
693.65	42.13
693.78	107.66
693.92	49.15
694.05	88.94
694.19	21.06
694.32	21.06
694.45	84.26
694.59	37.45
694.72	16.38
694.86	58.51
694.99	32.77
695.13	28.09
695.26	23.41
695.39	35.11
695.53	58.51
695.66	28.09
695.80	58.51
695.93	53.83
696.07	32.77
696.20	79.58
696.33	65.54
696.47	42.13
696.60	14.04
696.73	0.00
696.87	79.58
697.00	42.13
697.14	117.03
697.27	30.43
697.40	107.66
697.54	35.11
697.67	79.58
697.80	91.28
697.94	0.00
698.07	16.38
698.21	28.09
698.34	74.90
698.47	0.00
698.61	51.49
698.74	49.15
698.87	81.92
699.01	18.72
699.14	84.26
699.27	7.02
699.40	32.77
699.54	37.45
699.67	30.43
699.80	23.41
699.94	37.45
700.07	0.00
700.20	58.51
700.34	28.09
700.47	56.17
700.60	65.54
700.73	49.15
700.87	16.38
701.00	30.43
701.13	0.00
701.26	91.28
701.40	46.81
701.53	25.75
701.66	25.75
701.79	0.00
701.93	86.60
702.06	32.77
702.19	42.13
702.32	46.81
702.46	102.98
702.59	81.92
702.72	42.13
702.85	88.94
702.99	7.02
703.12	63.19
703.25	0.00
703.38	91.28
703.51	37.45
703.65	23.41
703.78	25.75
703.91	91.28
704.04	18.72
704.17	98.30
704.31	32.77
704.44	11.70
704.57	86.60
704.70	70.22
704.83	74.90
704.96	46.81
705.10	42.13
705.23	4.68
>>>>>End Processed Spectral Data<<<<<
