SpectraSuite Data File
++++++++++++++++++++++++++++++++++++
Date: Fri Oct 04 12:13:39 GMT-05:00 2013
User: price-jones
Dark Spectrum Present: No
Reference Spectrum Present: No
Number of Sampled Component Spectra: 1
Spectrometers: USB2+H05261
Integration Time (usec): 10000 (USB2+H05261)
Spectra Averaged: 1 (USB2+H05261)
Boxcar Smoothing: 0 (USB2+H05261)
Correct for Electrical Dark: No (USB2+H05261)
Strobe/Lamp Enabled: No (USB2+H05261)
Correct for Detector Non-linearity: No (USB2+H05261)
Correct for Stray Light: No (USB2+H05261)
Number of Pixels in Processed Spectrum: 2048
>>>>>Begin Processed Spectral Data<<<<<
365.73	18.72
365.92	18.72
366.12	18.72
366.32	0.00
366.52	0.00
366.72	0.00
366.91	0.00
367.11	0.00
367.31	0.00
367.51	0.00
367.70	0.00
367.90	0.00
368.10	0.00
368.30	0.00
368.49	0.00
368.69	0.00
368.89	0.00
369.09	0.00
369.28	0.00
369.48	0.00
369.68	0.00
369.87	0.00
370.07	0.00
370.27	0.00
370.47	0.00
370.66	0.00
370.86	0.00
371.06	0.00
371.25	21.06
371.45	0.00
371.65	0.00
371.84	37.45
372.04	44.47
372.24	0.00
372.44	0.00
372.63	51.49
372.83	0.00
373.03	0.00
373.22	0.00
373.42	30.43
373.62	39.79
373.81	9.36
374.01	23.41
374.21	4.68
374.40	0.00
374.60	7.02
374.79	0.00
374.99	16.38
375.19	35.11
375.38	16.38
375.58	70.22
375.78	44.47
375.97	44.47
376.17	63.19
376.37	44.47
376.56	2.34
376.76	14.04
376.95	42.13
377.15	88.94
377.35	11.70
377.54	70.22
377.74	14.04
377.93	9.36
378.13	0.00
378.33	0.00
378.52	39.79
378.72	46.81
378.91	70.22
379.11	14.04
379.31	56.17
379.50	23.41
379.70	23.41
379.89	0.00
380.09	0.00
380.28	0.00
380.48	0.00
380.68	105.32
380.87	35.11
381.07	60.85
381.26	79.58
381.46	4.68
381.65	44.47
381.85	0.00
382.04	42.13
382.24	0.00
382.43	35.11
382.63	67.88
382.83	25.75
383.02	37.45
383.22	58.51
383.41	35.11
383.61	32.77
383.80	46.81
384.00	0.00
384.19	37.45
384.39	30.43
384.58	4.68
384.78	53.83
384.97	16.38
385.17	37.45
385.36	65.54
385.56	16.38
385.75	98.30
385.95	18.72
386.14	0.00
386.34	35.11
386.53	53.83
386.72	49.15
386.92	0.00
387.11	11.70
387.31	86.60
387.50	28.09
387.70	30.43
387.89	0.00
388.09	39.79
388.28	63.19
388.48	9.36
388.67	0.00
388.86	0.00
389.06	53.83
389.25	49.15
389.45	0.00
389.64	21.06
389.84	51.49
390.03	0.00
390.22	0.00
390.42	21.06
390.61	46.81
390.81	9.36
391.00	0.00
391.19	74.90
391.39	23.41
391.58	23.41
391.78	0.00
391.97	21.06
392.16	7.02
392.36	72.56
392.55	77.24
392.75	44.47
392.94	63.19
393.13	28.09
393.33	7.02
393.52	0.00
393.71	58.51
393.91	51.49
394.10	44.47
394.29	0.00
394.49	46.81
394.68	51.49
394.88	0.00
395.07	74.90
395.26	0.00
395.46	72.56
395.65	18.72
395.84	67.88
396.04	58.51
396.23	4.68
396.42	0.00
396.62	44.47
396.81	0.00
397.00	16.38
397.19	91.28
397.39	14.04
397.58	39.79
397.77	0.00
397.97	0.00
398.16	79.58
398.35	93.62
398.55	67.88
398.74	0.00
398.93	0.00
399.12	18.72
399.32	11.70
399.51	58.51
399.70	72.56
399.90	77.24
400.09	79.58
400.28	0.00
400.47	32.77
400.67	0.00
400.86	51.49
401.05	46.81
401.24	18.72
401.44	0.00
401.63	25.75
401.82	93.62
402.01	0.00
402.21	4.68
402.40	7.02
402.59	46.81
402.78	30.43
402.97	42.13
403.17	0.00
403.36	35.11
403.55	32.77
403.74	18.72
403.93	9.36
404.13	149.79
404.32	56.17
404.51	32.77
404.70	86.60
404.89	74.90
405.09	58.51
405.28	60.85
405.47	67.88
405.66	70.22
405.85	67.88
406.05	7.02
406.24	100.64
406.43	14.04
406.62	53.83
406.81	0.00
407.00	23.41
407.20	93.62
407.39	53.83
407.58	28.09
407.77	23.41
407.96	51.49
408.15	21.06
408.34	51.49
408.54	58.51
408.73	49.15
408.92	21.06
409.11	28.09
409.30	39.79
409.49	25.75
409.68	21.06
409.87	7.02
410.07	32.77
410.26	49.15
410.45	11.70
410.64	86.60
410.83	46.81
411.02	9.36
411.21	65.54
411.40	0.00
411.59	28.09
411.78	0.00
411.98	0.00
412.17	0.00
412.36	7.02
412.55	67.88
412.74	9.36
412.93	0.00
413.12	86.60
413.31	67.88
413.50	39.79
413.69	35.11
413.88	138.09
414.07	79.58
414.26	79.58
414.45	86.60
414.64	28.09
414.83	30.43
415.02	32.77
415.22	56.17
415.41	0.00
415.60	32.77
415.79	0.00
415.98	46.81
416.17	98.30
416.36	32.77
416.55	42.13
416.74	98.30
416.93	67.88
417.12	28.09
417.31	0.00
417.50	58.51
417.69	23.41
417.88	58.51
418.07	81.92
418.26	56.17
418.45	0.00
418.64	0.00
418.83	14.04
419.02	14.04
419.21	0.00
419.39	93.62
419.58	16.38
419.77	9.36
419.96	124.05
420.15	51.49
420.34	25.75
420.53	25.75
420.72	79.58
420.91	16.38
421.10	56.17
421.29	74.90
421.48	63.19
421.67	23.41
421.86	49.15
422.05	32.77
422.24	67.88
422.43	0.00
422.61	44.47
422.80	39.79
422.99	0.00
423.18	72.56
423.37	18.72
423.56	11.70
423.75	98.30
423.94	35.11
424.13	72.56
424.32	53.83
424.50	84.26
424.69	60.85
424.88	42.13
425.07	0.00
425.26	11.70
425.45	37.45
425.64	0.00
425.83	30.43
426.01	70.22
426.20	0.00
426.39	56.17
426.58	56.17
426.77	9.36
426.96	39.79
427.15	0.00
427.33	63.19
427.52	117.03
427.71	0.00
427.90	35.11
428.09	14.04
428.28	25.75
428.46	53.83
428.65	28.09
428.84	39.79
429.03	51.49
429.22	0.00
429.40	46.81
429.59	30.43
429.78	95.96
429.97	65.54
430.16	95.96
430.34	30.43
430.53	0.00
430.72	0.00
430.91	0.00
431.10	70.22
431.28	79.58
431.47	42.13
431.66	16.38
431.85	42.13
432.03	25.75
432.22	51.49
432.41	28.09
432.60	112.35
432.79	74.90
432.97	74.90
433.16	14.04
433.35	37.45
433.54	0.00
433.72	58.51
433.91	70.22
434.10	39.79
434.28	11.70
434.47	65.54
434.66	18.72
434.85	0.00
435.03	49.15
435.22	42.13
435.41	0.00
435.59	4.68
435.78	0.00
435.97	46.81
436.16	49.15
436.34	23.41
436.53	63.19
436.72	86.60
436.90	23.41
437.09	30.43
437.28	58.51
437.46	0.00
437.65	11.70
437.84	37.45
438.02	42.13
438.21	60.85
438.40	4.68
438.58	135.75
438.77	105.32
438.96	35.11
439.14	117.03
439.33	0.00
439.52	44.47
439.70	93.62
439.89	18.72
440.08	7.02
440.26	46.81
440.45	100.64
440.63	32.77
440.82	4.68
441.01	70.22
441.19	119.37
441.38	79.58
441.57	0.00
441.75	60.85
441.94	2.34
442.12	49.15
442.31	30.43
442.50	23.41
442.68	0.00
442.87	9.36
443.05	32.77
443.24	25.75
443.43	58.51
443.61	51.49
443.80	91.28
443.98	14.04
444.17	91.28
444.35	16.38
444.54	21.06
444.73	65.54
444.91	0.00
445.10	51.49
445.28	0.00
445.47	46.81
445.65	25.75
445.84	95.96
446.02	81.92
446.21	25.75
446.39	88.94
446.58	51.49
446.77	23.41
446.95	30.43
447.14	63.19
447.32	51.49
447.51	51.49
447.69	44.47
447.88	135.75
448.06	0.00
448.25	93.62
448.43	72.56
448.62	79.58
448.80	67.88
448.99	21.06
449.17	88.94
449.36	95.96
449.54	74.90
449.73	117.03
449.91	11.70
450.10	70.22
450.28	121.71
450.46	56.17
450.65	46.81
450.83	60.85
451.02	77.24
451.20	67.88
451.39	9.36
451.57	56.17
451.76	44.47
451.94	46.81
452.13	37.45
452.31	23.41
452.49	70.22
452.68	98.30
452.86	49.15
453.05	56.17
453.23	32.77
453.42	4.68
453.60	37.45
453.78	0.00
453.97	65.54
454.15	2.34
454.34	9.36
454.52	2.34
454.70	67.88
454.89	60.85
455.07	72.56
455.26	74.90
455.44	65.54
455.62	37.45
455.81	77.24
455.99	16.38
456.17	23.41
456.36	0.00
456.54	46.81
456.73	65.54
456.91	30.43
457.09	159.16
457.28	93.62
457.46	60.85
457.64	74.90
457.83	0.00
458.01	58.51
458.19	30.43
458.38	95.96
458.56	121.71
458.74	37.45
458.93	72.56
459.11	77.24
459.29	39.79
459.48	77.24
459.66	107.66
459.84	79.58
460.03	0.00
460.21	110.01
460.39	35.11
460.57	67.88
460.76	28.09
460.94	23.41
461.12	49.15
461.31	30.43
461.49	9.36
461.67	25.75
461.85	95.96
462.04	23.41
462.22	124.05
462.40	72.56
462.59	131.07
462.77	67.88
462.95	0.00
463.13	79.58
463.32	70.22
463.50	91.28
463.68	56.17
463.86	63.19
464.05	49.15
464.23	23.41
464.41	28.09
464.59	74.90
464.78	44.47
464.96	67.88
465.14	28.09
465.32	0.00
465.50	11.70
465.69	46.81
465.87	39.79
466.05	93.62
466.23	32.77
466.41	114.69
466.60	70.22
466.78	44.47
466.96	95.96
467.14	117.03
467.32	18.72
467.51	114.69
467.69	70.22
467.87	117.03
468.05	9.36
468.23	46.81
468.41	37.45
468.60	131.07
468.78	86.60
468.96	65.54
469.14	88.94
469.32	119.37
469.50	77.24
469.69	88.94
469.87	81.92
470.05	84.26
470.23	30.43
470.41	56.17
470.59	37.45
470.77	88.94
470.95	0.00
471.14	91.28
471.32	63.19
471.50	49.15
471.68	93.62
471.86	56.17
472.04	39.79
472.22	77.24
472.40	37.45
472.58	79.58
472.77	81.92
472.95	114.69
473.13	117.03
473.31	88.94
473.49	65.54
473.67	42.13
473.85	2.34
474.03	70.22
474.21	0.00
474.39	102.98
474.57	128.73
474.75	74.90
474.93	119.37
475.12	60.85
475.30	67.88
475.48	46.81
475.66	60.85
475.84	65.54
476.02	30.43
476.20	35.11
476.38	65.54
476.56	35.11
476.74	100.64
476.92	44.47
477.10	18.72
477.28	9.36
477.46	67.88
477.64	98.30
477.82	56.17
478.00	0.00
478.18	63.19
478.36	30.43
478.54	0.00
478.72	84.26
478.90	107.66
479.08	7.02
479.26	72.56
479.44	56.17
479.62	65.54
479.80	72.56
479.98	67.88
480.16	58.51
480.34	140.43
480.52	23.41
480.70	70.22
480.88	0.00
481.06	18.72
481.24	18.72
481.41	32.77
481.59	95.96
481.77	84.26
481.95	25.75
482.13	74.90
482.31	140.43
482.49	0.00
482.67	23.41
482.85	77.24
483.03	70.22
483.21	84.26
483.39	110.01
483.57	56.17
483.74	53.83
483.92	88.94
484.10	56.17
484.28	42.13
484.46	133.41
484.64	39.79
484.82	65.54
485.00	67.88
485.18	18.72
485.35	56.17
485.53	42.13
485.71	44.47
485.89	51.49
486.07	65.54
486.25	58.51
486.43	102.98
486.61	21.06
486.78	0.00
486.96	77.24
487.14	49.15
487.32	0.00
487.50	53.83
487.68	44.47
487.85	23.41
488.03	65.54
488.21	84.26
488.39	74.90
488.57	121.71
488.75	65.54
488.92	128.73
489.10	44.47
489.28	81.92
489.46	102.98
489.64	95.96
489.81	0.00
489.99	112.35
490.17	114.69
490.35	147.45
490.53	44.47
490.70	91.28
490.88	53.83
491.06	72.56
491.24	135.75
491.41	84.26
491.59	44.47
491.77	86.60
491.95	53.83
492.13	98.30
492.30	98.30
492.48	95.96
492.66	16.38
492.84	161.50
493.01	58.51
493.19	14.04
493.37	58.51
493.54	81.92
493.72	95.96
493.90	102.98
494.08	124.05
494.25	67.88
494.43	124.05
494.61	100.64
494.79	25.75
494.96	23.41
495.14	93.62
495.32	42.13
495.49	74.90
495.67	65.54
495.85	114.69
496.02	67.88
496.20	107.66
496.38	60.85
496.55	49.15
496.73	42.13
496.91	25.75
497.09	95.96
497.26	42.13
497.44	126.39
497.62	72.56
497.79	58.51
497.97	28.09
498.14	98.30
498.32	86.60
498.50	51.49
498.67	72.56
498.85	91.28
499.03	95.96
499.20	107.66
499.38	30.43
499.56	70.22
499.73	0.00
499.91	88.94
500.08	102.98
500.26	95.96
500.44	65.54
500.61	67.88
500.79	91.28
500.97	42.13
501.14	84.26
501.32	88.94
501.49	135.75
501.67	95.96
501.84	128.73
502.02	70.22
502.20	28.09
502.37	128.73
502.55	56.17
502.72	7.02
502.90	77.24
503.07	121.71
503.25	74.90
503.43	91.28
503.60	126.39
503.78	117.03
503.95	117.03
504.13	0.00
504.30	63.19
504.48	46.81
504.65	91.28
504.83	114.69
505.01	119.37
505.18	2.34
505.36	74.90
505.53	11.70
505.71	119.37
505.88	163.84
506.06	58.51
506.23	81.92
506.41	112.35
506.58	138.09
506.76	154.48
506.93	53.83
507.11	86.60
507.28	56.17
507.46	18.72
507.63	84.26
507.81	93.62
507.98	79.58
508.16	39.79
508.33	126.39
508.50	131.07
508.68	126.39
508.85	100.64
509.03	86.60
509.20	177.88
509.38	65.54
509.55	70.22
509.73	60.85
509.90	159.16
510.08	121.71
510.25	102.98
510.42	70.22
510.60	60.85
510.77	84.26
510.95	81.92
511.12	100.64
511.30	53.83
511.47	119.37
511.64	100.64
511.82	102.98
511.99	98.30
512.17	23.41
512.34	93.62
512.51	121.71
512.69	44.47
512.86	126.39
513.04	170.86
513.21	42.13
513.38	95.96
513.56	105.32
513.73	88.94
513.90	121.71
514.08	60.85
514.25	93.62
514.43	107.66
514.60	63.19
514.77	77.24
514.95	84.26
515.12	110.01
515.29	44.47
515.47	0.00
515.64	131.07
515.81	51.49
515.99	0.00
516.16	131.07
516.33	110.01
516.51	46.81
516.68	88.94
516.85	95.96
517.03	37.45
517.20	79.58
517.37	46.81
517.54	102.98
517.72	107.66
517.89	117.03
518.06	161.50
518.24	86.60
518.41	42.13
518.58	133.41
518.75	91.28
518.93	142.77
519.10	53.83
519.27	67.88
519.45	72.56
519.62	16.38
519.79	67.88
519.96	60.85
520.14	100.64
520.31	65.54
520.48	56.17
520.65	84.26
520.83	70.22
521.00	91.28
521.17	63.19
521.34	60.85
521.52	142.77
521.69	86.60
521.86	95.96
522.03	88.94
522.20	168.52
522.38	102.98
522.55	133.41
522.72	74.90
522.89	63.19
523.07	110.01
523.24	156.82
523.41	91.28
523.58	74.90
523.75	56.17
523.92	86.60
524.10	28.09
524.27	145.11
524.44	110.01
524.61	77.24
524.78	91.28
524.96	100.64
525.13	84.26
525.30	107.66
525.47	100.64
525.64	63.19
525.81	37.45
525.98	84.26
526.16	105.32
526.33	30.43
526.50	63.19
526.67	49.15
526.84	56.17
527.01	147.45
527.18	88.94
527.36	9.36
527.53	0.00
527.70	25.75
527.87	0.00
528.04	63.19
528.21	105.32
528.38	114.69
528.55	81.92
528.72	65.54
528.89	72.56
529.07	124.05
529.24	86.60
529.41	16.38
529.58	100.64
529.75	105.32
529.92	138.09
530.09	86.60
530.26	60.85
530.43	79.58
530.60	44.47
530.77	100.64
530.94	105.32
531.11	91.28
531.28	58.51
531.46	84.26
531.63	37.45
531.80	77.24
531.97	79.58
532.14	95.96
532.31	46.81
532.48	86.60
532.65	46.81
532.82	86.60
532.99	133.41
533.16	65.54
533.33	84.26
533.50	98.30
533.67	117.03
533.84	98.30
534.01	63.19
534.18	81.92
534.35	63.19
534.52	138.09
534.69	44.47
534.86	60.85
535.03	79.58
535.20	100.64
535.37	105.32
535.54	46.81
535.71	37.45
535.88	107.66
536.05	86.60
536.22	86.60
536.38	72.56
536.55	39.79
536.72	100.64
536.89	18.72
537.06	37.45
537.23	114.69
537.40	67.88
537.57	102.98
537.74	25.75
537.91	72.56
538.08	145.11
538.25	107.66
538.42	102.98
538.59	30.43
538.75	37.45
538.92	39.79
539.09	114.69
539.26	56.17
539.43	100.64
539.60	77.24
539.77	138.09
539.94	102.98
540.11	25.75
540.28	84.26
540.44	107.66
540.61	23.41
540.78	133.41
540.95	98.30
541.12	201.29
541.29	105.32
541.46	84.26
541.62	102.98
541.79	138.09
541.96	70.22
542.13	100.64
542.30	86.60
542.47	114.69
542.63	42.13
542.80	72.56
542.97	77.24
543.14	42.13
543.31	102.98
543.48	91.28
543.64	114.69
543.81	88.94
543.98	88.94
544.15	112.35
544.32	44.47
544.48	56.17
544.65	95.96
544.82	39.79
544.99	35.11
545.16	98.30
545.32	39.79
545.49	117.03
545.66	70.22
545.83	135.75
546.00	65.54
546.16	53.83
546.33	95.96
546.50	18.72
546.67	84.26
546.83	124.05
547.00	112.35
547.17	77.24
547.34	140.43
547.50	91.28
547.67	42.13
547.84	91.28
548.00	30.43
548.17	81.92
548.34	72.56
548.51	93.62
548.67	95.96
548.84	77.24
549.01	93.62
549.18	63.19
549.34	81.92
549.51	124.05
549.68	72.56
549.84	67.88
550.01	16.38
550.18	51.49
550.34	126.39
550.51	86.60
550.68	35.11
550.84	133.41
551.01	58.51
551.18	98.30
551.34	98.30
551.51	98.30
551.68	138.09
551.84	93.62
552.01	126.39
552.18	32.77
552.34	128.73
552.51	35.11
552.68	42.13
552.84	65.54
553.01	100.64
553.18	110.01
553.34	49.15
553.51	131.07
553.67	95.96
553.84	114.69
554.01	39.79
554.17	93.62
554.34	88.94
554.51	135.75
554.67	142.77
554.84	91.28
555.00	93.62
555.17	46.81
555.33	117.03
555.50	72.56
555.67	117.03
555.83	95.96
556.00	0.00
556.16	114.69
556.33	110.01
556.50	88.94
556.66	81.92
556.83	77.24
556.99	56.17
557.16	95.96
557.32	81.92
557.49	95.96
557.65	117.03
557.82	67.88
557.98	58.51
558.15	81.92
558.32	107.66
558.48	58.51
558.65	81.92
558.81	138.09
558.98	37.45
559.14	117.03
559.31	126.39
559.47	81.92
559.64	93.62
559.80	42.13
559.97	107.66
560.13	100.64
560.30	117.03
560.46	70.22
560.63	131.07
560.79	72.56
560.96	159.16
561.12	135.75
561.29	35.11
561.45	37.45
561.61	65.54
561.78	86.60
561.94	110.01
562.11	74.90
562.27	37.45
562.44	67.88
562.60	23.41
562.77	23.41
562.93	86.60
563.10	88.94
563.26	67.88
563.42	32.77
563.59	70.22
563.75	7.02
563.92	102.98
564.08	105.32
564.24	112.35
564.41	77.24
564.57	93.62
564.74	117.03
564.90	88.94
565.07	65.54
565.23	39.79
565.39	0.00
565.56	53.83
565.72	98.30
565.88	65.54
566.05	44.47
566.21	110.01
566.38	93.62
566.54	72.56
566.70	124.05
566.87	128.73
567.03	98.30
567.19	131.07
567.36	112.35
567.52	30.43
567.68	72.56
567.85	126.39
568.01	53.83
568.17	91.28
568.34	14.04
568.50	63.19
568.66	46.81
568.83	124.05
568.99	35.11
569.15	9.36
569.32	70.22
569.48	114.69
569.64	77.24
569.81	46.81
569.97	67.88
570.13	58.51
570.30	37.45
570.46	70.22
570.62	81.92
570.78	72.56
570.95	124.05
571.11	105.32
571.27	32.77
571.43	2.34
571.60	65.54
571.76	91.28
571.92	91.28
572.09	93.62
572.25	77.24
572.41	72.56
572.57	63.19
572.74	147.45
572.90	98.30
573.06	105.32
573.22	180.22
573.38	42.13
573.55	107.66
573.71	95.96
573.87	145.11
574.03	42.13
574.20	112.35
574.36	28.09
574.52	74.90
574.68	42.13
574.84	44.47
575.01	74.90
575.17	30.43
575.33	70.22
575.49	119.37
575.65	70.22
575.82	107.66
575.98	77.24
576.14	0.00
576.30	110.01
576.46	77.24
576.62	72.56
576.79	25.75
576.95	32.77
577.11	70.22
577.27	135.75
577.43	58.51
577.59	67.88
577.75	107.66
577.92	25.75
578.08	112.35
578.24	56.17
578.40	93.62
578.56	138.09
578.72	77.24
578.88	124.05
579.04	23.41
579.21	131.07
579.37	49.15
579.53	25.75
579.69	77.24
579.85	138.09
580.01	131.07
580.17	70.22
580.33	88.94
580.49	23.41
580.65	149.79
580.82	91.28
580.98	65.54
581.14	142.77
581.30	93.62
581.46	25.75
581.62	37.45
581.78	70.22
581.94	105.32
582.10	124.05
582.26	72.56
582.42	32.77
582.58	60.85
582.74	49.15
582.90	131.07
583.06	107.66
583.22	112.35
583.38	95.96
583.54	98.30
583.70	60.85
583.86	133.41
584.02	39.79
584.18	131.07
584.34	107.66
584.50	79.58
584.66	42.13
584.82	32.77
584.98	35.11
585.14	93.62
585.30	9.36
585.46	28.09
585.62	105.32
585.78	32.77
585.94	74.90
586.10	32.77
586.26	32.77
586.42	110.01
586.58	74.90
586.74	42.13
586.90	42.13
587.06	79.58
587.22	121.71
587.38	102.98
587.54	46.81
587.70	49.15
587.86	105.32
588.02	18.72
588.18	88.94
588.34	0.00
588.49	49.15
588.65	63.19
588.81	51.49
588.97	65.54
589.13	65.54
589.29	42.13
589.45	32.77
589.61	102.98
589.77	79.58
589.93	46.81
590.08	72.56
590.24	0.00
590.40	77.24
590.56	84.26
590.72	91.28
590.88	39.79
591.04	131.07
591.20	72.56
591.35	46.81
591.51	0.00
591.67	37.45
591.83	70.22
591.99	70.22
592.15	49.15
592.31	126.39
592.46	121.71
592.62	35.11
592.78	107.66
592.94	72.56
593.10	77.24
593.26	84.26
593.41	91.28
593.57	65.54
593.73	138.09
593.89	37.45
594.05	93.62
594.20	4.68
594.36	56.17
594.52	58.51
594.68	72.56
594.84	49.15
594.99	84.26
595.15	128.73
595.31	37.45
595.47	42.13
595.62	84.26
595.78	0.00
595.94	88.94
596.10	95.96
596.25	51.49
596.41	28.09
596.57	79.58
596.73	39.79
596.88	74.90
597.04	105.32
597.20	117.03
597.36	70.22
597.51	91.28
597.67	72.56
597.83	51.49
597.99	98.30
598.14	44.47
598.30	102.98
598.46	49.15
598.61	18.72
598.77	65.54
598.93	93.62
599.09	53.83
599.24	93.62
599.40	39.79
599.56	51.49
599.71	84.26
599.87	32.77
600.03	70.22
600.18	56.17
600.34	86.60
600.50	67.88
600.65	84.26
600.81	58.51
600.97	11.70
601.12	53.83
601.28	49.15
601.44	70.22
601.59	102.98
601.75	98.30
601.91	4.68
602.06	4.68
602.22	86.60
602.37	58.51
602.53	91.28
602.69	70.22
602.84	63.19
603.00	102.98
603.16	95.96
603.31	0.00
603.47	88.94
603.62	60.85
603.78	74.90
603.94	65.54
604.09	44.47
604.25	42.13
604.40	32.77
604.56	81.92
604.71	79.58
604.87	28.09
605.03	67.88
605.18	95.96
605.34	91.28
605.49	16.38
605.65	91.28
605.80	102.98
605.96	84.26
606.12	70.22
606.27	46.81
606.43	58.51
606.58	2.34
606.74	105.32
606.89	86.60
607.05	51.49
607.20	112.35
607.36	88.94
607.51	58.51
607.67	37.45
607.82	65.54
607.98	51.49
608.13	32.77
608.29	110.01
608.44	121.71
608.60	77.24
608.75	30.43
608.91	119.37
609.06	112.35
609.22	107.66
609.37	35.11
609.53	65.54
609.68	23.41
609.84	37.45
609.99	77.24
610.15	51.49
610.30	60.85
610.46	117.03
610.61	128.73
610.76	56.17
610.92	72.56
611.07	84.26
611.23	93.62
611.38	37.45
611.54	79.58
611.69	67.88
611.84	0.00
612.00	16.38
612.15	60.85
612.31	49.15
612.46	79.58
612.62	53.83
612.77	35.11
612.92	74.90
613.08	100.64
613.23	63.19
613.39	84.26
613.54	70.22
613.69	67.88
613.85	18.72
614.00	32.77
614.15	35.11
614.31	72.56
614.46	23.41
614.62	32.77
614.77	128.73
614.92	42.13
615.08	91.28
615.23	44.47
615.38	58.51
615.54	86.60
615.69	91.28
615.84	58.51
616.00	23.41
616.15	63.19
616.30	84.26
616.46	58.51
616.61	140.43
616.76	79.58
616.92	25.75
617.07	23.41
617.22	86.60
617.37	91.28
617.53	28.09
617.68	0.00
617.83	21.06
617.99	0.00
618.14	63.19
618.29	93.62
618.45	70.22
618.60	35.11
618.75	35.11
618.90	67.88
619.06	121.71
619.21	72.56
619.36	58.51
619.51	70.22
619.67	93.62
619.82	30.43
619.97	74.90
620.12	56.17
620.28	70.22
620.43	25.75
620.58	100.64
620.73	93.62
620.89	100.64
621.04	67.88
621.19	58.51
621.34	58.51
621.49	74.90
621.65	32.77
621.80	53.83
621.95	44.47
622.10	79.58
622.25	81.92
622.41	11.70
622.56	74.90
622.71	49.15
622.86	49.15
623.01	56.17
623.16	77.24
623.32	23.41
623.47	30.43
623.62	91.28
623.77	63.19
623.92	18.72
624.07	18.72
624.23	74.90
624.38	79.58
624.53	60.85
624.68	110.01
624.83	60.85
624.98	9.36
625.13	105.32
625.29	30.43
625.44	60.85
625.59	28.09
625.74	107.66
625.89	53.83
626.04	0.00
626.19	88.94
626.34	74.90
626.49	32.77
626.65	74.90
626.80	107.66
626.95	105.32
627.10	49.15
627.25	81.92
627.40	49.15
627.55	32.77
627.70	142.77
627.85	16.38
628.00	65.54
628.15	70.22
628.30	42.13
628.45	91.28
628.60	110.01
628.76	60.85
628.91	18.72
629.06	65.54
629.21	140.43
629.36	72.56
629.51	14.04
629.66	23.41
629.81	79.58
629.96	0.00
630.11	63.19
630.26	102.98
630.41	23.41
630.56	53.83
630.71	67.88
630.86	70.22
631.01	44.47
631.16	49.15
631.31	63.19
631.46	42.13
631.61	70.22
631.76	21.06
631.91	98.30
632.06	37.45
632.21	25.75
632.36	100.64
632.51	42.13
632.66	70.22
632.81	32.77
632.96	18.72
633.10	25.75
633.25	79.58
633.40	117.03
633.55	93.62
633.70	60.85
633.85	86.60
634.00	42.13
634.15	35.11
634.30	79.58
634.45	88.94
634.60	39.79
634.75	58.51
634.90	84.26
635.05	81.92
635.19	63.19
635.34	102.98
635.49	60.85
635.64	0.00
635.79	60.85
635.94	37.45
636.09	79.58
636.24	0.00
636.39	124.05
636.53	0.00
636.68	67.88
636.83	77.24
636.98	170.86
637.13	49.15
637.28	102.98
637.43	126.39
637.57	49.15
637.72	67.88
637.87	51.49
638.02	28.09
638.17	70.22
638.32	21.06
638.46	102.98
638.61	88.94
638.76	84.26
638.91	70.22
639.06	35.11
639.20	65.54
639.35	67.88
639.50	105.32
639.65	93.62
639.80	39.79
639.94	53.83
640.09	2.34
640.24	124.05
640.39	35.11
640.54	32.77
640.68	35.11
640.83	79.58
640.98	46.81
641.13	18.72
641.27	30.43
641.42	9.36
641.57	56.17
641.72	102.98
641.86	35.11
642.01	70.22
642.16	30.43
642.31	23.41
642.45	35.11
642.60	107.66
642.75	67.88
642.90	65.54
643.04	121.71
643.19	46.81
643.34	35.11
643.48	88.94
643.63	70.22
643.78	53.83
643.93	49.15
644.07	60.85
644.22	0.00
644.37	51.49
644.51	100.64
644.66	35.11
644.81	67.88
644.95	42.13
645.10	30.43
645.25	95.96
645.39	67.88
645.54	35.11
645.69	46.81
645.83	95.96
645.98	60.85
646.13	121.71
646.27	4.68
646.42	60.85
646.57	0.00
646.71	91.28
646.86	37.45
647.00	35.11
647.15	84.26
647.30	60.85
647.44	42.13
647.59	21.06
647.74	32.77
647.88	117.03
648.03	25.75
648.17	37.45
648.32	42.13
648.47	74.90
648.61	49.15
648.76	23.41
648.90	100.64
649.05	93.62
649.20	37.45
649.34	93.62
649.49	93.62
649.63	88.94
649.78	93.62
649.92	88.94
650.07	86.60
650.21	49.15
650.36	18.72
650.51	11.70
650.65	77.24
650.80	2.34
650.94	0.00
651.09	18.72
651.23	86.60
651.38	0.00
651.52	58.51
651.67	117.03
651.81	79.58
651.96	0.00
652.10	88.94
652.25	88.94
652.39	32.77
652.54	9.36
652.68	0.00
652.83	81.92
652.97	9.36
653.12	39.79
653.26	112.35
653.41	93.62
653.55	77.24
653.70	88.94
653.84	23.41
653.99	60.85
654.13	16.38
654.27	128.73
654.42	77.24
654.56	0.00
654.71	28.09
654.85	53.83
655.00	53.83
655.14	39.79
655.29	65.54
655.43	11.70
655.57	37.45
655.72	95.96
655.86	79.58
656.01	74.90
656.15	32.77
656.30	30.43
656.44	93.62
656.58	110.01
656.73	39.79
656.87	16.38
657.01	49.15
657.16	11.70
657.30	0.00
657.45	77.24
657.59	79.58
657.73	51.49
657.88	79.58
658.02	37.45
658.16	42.13
658.31	70.22
658.45	74.90
658.60	79.58
658.74	58.51
658.88	86.60
659.03	30.43
659.17	18.72
659.31	21.06
659.46	70.22
659.60	79.58
659.74	0.00
659.89	25.75
660.03	100.64
660.17	60.85
660.32	67.88
660.46	23.41
660.60	39.79
660.74	23.41
660.89	46.81
661.03	23.41
661.17	46.81
661.32	53.83
661.46	102.98
661.60	114.69
661.74	135.75
661.89	4.68
662.03	37.45
662.17	25.75
662.31	98.30
662.46	9.36
662.60	56.17
662.74	60.85
662.88	88.94
663.03	42.13
663.17	93.62
663.31	39.79
663.45	0.00
663.60	30.43
663.74	72.56
663.88	77.24
664.02	63.19
664.17	2.34
664.31	0.00
664.45	46.81
664.59	44.47
664.73	86.60
664.88	86.60
665.02	74.90
665.16	88.94
665.30	84.26
665.44	0.00
665.59	42.13
665.73	58.51
665.87	53.83
666.01	46.81
666.15	28.09
666.29	16.38
666.44	25.75
666.58	42.13
666.72	35.11
666.86	88.94
667.00	53.83
667.14	32.77
667.28	49.15
667.43	30.43
667.57	60.85
667.71	79.58
667.85	44.47
667.99	16.38
668.13	77.24
668.27	11.70
668.41	67.88
668.56	84.26
668.70	56.17
668.84	147.45
668.98	74.90
669.12	126.39
669.26	81.92
669.40	11.70
669.54	49.15
669.68	25.75
669.82	53.83
669.96	9.36
670.10	21.06
670.25	84.26
670.39	84.26
670.53	72.56
670.67	46.81
670.81	65.54
670.95	44.47
671.09	105.32
671.23	93.62
671.37	30.43
671.51	0.00
671.65	25.75
671.79	56.17
671.93	35.11
672.07	77.24
672.21	25.75
672.35	56.17
672.49	4.68
672.63	86.60
672.77	77.24
672.91	32.77
673.05	25.75
673.19	102.98
673.33	84.26
673.47	30.43
673.61	0.00
673.75	0.00
673.89	39.79
674.03	114.69
674.17	35.11
674.31	60.85
674.45	65.54
674.59	58.51
674.73	53.83
674.87	74.90
675.01	32.77
675.15	58.51
675.29	9.36
675.43	16.38
675.56	74.90
675.70	84.26
675.84	93.62
675.98	107.66
676.12	81.92
676.26	18.72
676.40	7.02
676.54	37.45
676.68	4.68
676.82	63.19
676.96	88.94
677.10	110.01
677.23	84.26
677.37	60.85
677.51	21.06
677.65	77.24
677.79	88.94
677.93	37.45
678.07	0.00
678.21	0.00
678.34	11.70
678.48	35.11
678.62	37.45
678.76	0.00
678.90	28.09
679.04	88.94
679.18	32.77
679.31	25.75
679.45	49.15
679.59	58.51
679.73	53.83
679.87	56.17
680.00	25.75
680.14	49.15
680.28	2.34
680.42	72.56
680.56	67.88
680.70	18.72
680.83	112.35
680.97	86.60
681.11	0.00
681.25	112.35
681.39	58.51
681.52	44.47
681.66	0.00
681.80	105.32
681.94	0.00
682.07	58.51
682.21	14.04
682.35	0.00
682.49	42.13
682.62	58.51
682.76	63.19
682.90	23.41
683.04	14.04
683.17	42.13
683.31	9.36
683.45	49.15
683.59	63.19
683.72	25.75
683.86	30.43
684.00	9.36
684.13	0.00
684.27	11.70
684.41	56.17
684.55	65.54
684.68	0.00
684.82	0.00
684.96	98.30
685.09	51.49
685.23	39.79
685.37	102.98
685.50	98.30
685.64	91.28
685.78	49.15
685.91	65.54
686.05	32.77
686.19	65.54
686.32	0.00
686.46	56.17
686.60	18.72
686.73	46.81
686.87	28.09
687.01	0.00
687.14	65.54
687.28	95.96
687.42	7.02
687.55	65.54
687.69	23.41
687.82	0.00
687.96	2.34
688.10	37.45
688.23	37.45
688.37	21.06
688.50	35.11
688.64	72.56
688.78	23.41
688.91	56.17
689.05	35.11
689.18	63.19
689.32	39.79
689.46	0.00
689.59	60.85
689.73	58.51
689.86	102.98
690.00	25.75
690.13	28.09
690.27	46.81
690.41	21.06
690.54	37.45
690.68	7.02
690.81	4.68
690.95	21.06
691.08	42.13
691.22	16.38
691.35	11.70
691.49	42.13
691.62	63.19
691.76	77.24
691.89	18.72
692.03	0.00
692.16	49.15
692.30	56.17
692.43	9.36
692.57	14.04
692.70	0.00
692.84	0.00
692.97	79.58
693.11	39.79
693.24	32.77
693.38	0.00
693.51	44.47
693.65	2.34
693.78	0.00
693.92	0.00
694.05	11.70
694.19	35.11
694.32	93.62
694.45	0.00
694.59	67.88
694.72	35.11
694.86	81.92
694.99	42.13
695.13	0.00
695.26	0.00
695.39	28.09
695.53	72.56
695.66	60.85
695.80	39.79
695.93	46.81
696.07	65.54
696.20	84.26
696.33	117.03
696.47	0.00
696.60	0.00
696.73	21.06
696.87	16.38
697.00	42.13
697.14	140.43
697.27	7.02
697.40	86.60
697.54	35.11
697.67	35.11
697.80	32.77
697.94	0.00
698.07	110.01
698.21	0.00
698.34	84.26
698.47	53.83
698.61	39.79
698.74	107.66
698.87	65.54
699.01	79.58
699.14	42.13
699.27	0.00
699.40	7.02
699.54	4.68
699.67	124.05
699.80	70.22
699.94	0.00
700.07	0.00
700.20	9.36
700.34	56.17
700.47	0.00
700.60	14.04
700.73	32.77
700.87	23.41
701.00	93.62
701.13	58.51
701.26	18.72
701.40	9.36
701.53	46.81
701.66	98.30
701.79	91.28
701.93	46.81
702.06	0.00
702.19	35.11
702.32	16.38
702.46	4.68
702.59	98.30
702.72	88.94
702.85	0.00
702.99	21.06
703.12	0.00
703.25	53.83
703.38	23.41
703.51	9.36
703.65	65.54
703.78	2.34
703.91	23.41
704.04	0.00
704.17	44.47
704.31	39.79
704.44	0.00
704.57	51.49
704.70	32.77
704.83	91.28
704.96	16.38
705.10	32.77
705.23	70.22
>>>>>End Processed Spectral Data<<<<<
