SpectraSuite Data File
++++++++++++++++++++++++++++++++++++
Date: Fri Oct 04 12:13:31 GMT-05:00 2013
User: price-jones
Dark Spectrum Present: No
Reference Spectrum Present: No
Number of Sampled Component Spectra: 1
Spectrometers: USB2+H05261
Integration Time (usec): 10000 (USB2+H05261)
Spectra Averaged: 1 (USB2+H05261)
Boxcar Smoothing: 0 (USB2+H05261)
Correct for Electrical Dark: No (USB2+H05261)
Strobe/Lamp Enabled: No (USB2+H05261)
Correct for Detector Non-linearity: No (USB2+H05261)
Correct for Stray Light: No (USB2+H05261)
Number of Pixels in Processed Spectrum: 2048
>>>>>Begin Processed Spectral Data<<<<<
365.73	32.77
365.92	32.77
366.12	32.77
366.32	0.00
366.52	0.00
366.72	0.00
366.91	0.00
367.11	0.00
367.31	0.00
367.51	0.00
367.70	0.00
367.90	0.00
368.10	0.00
368.30	0.00
368.49	0.00
368.69	0.00
368.89	0.00
369.09	0.00
369.28	0.00
369.48	0.00
369.68	0.00
369.87	0.00
370.07	0.00
370.27	0.00
370.47	0.00
370.66	0.00
370.86	0.00
371.06	0.00
371.25	4.68
371.45	0.00
371.65	37.45
371.84	60.85
372.04	0.00
372.24	0.00
372.44	18.72
372.63	7.02
372.83	37.45
373.03	56.17
373.22	9.36
373.42	4.68
373.62	0.00
373.81	18.72
374.01	0.00
374.21	37.45
374.40	0.00
374.60	16.38
374.79	79.58
374.99	7.02
375.19	42.13
375.38	42.13
375.58	7.02
375.78	39.79
375.97	11.70
376.17	56.17
376.37	28.09
376.56	4.68
376.76	37.45
376.95	0.00
377.15	21.06
377.35	0.00
377.54	0.00
377.74	16.38
377.93	63.19
378.13	0.00
378.33	58.51
378.52	32.77
378.72	14.04
378.91	0.00
379.11	58.51
379.31	0.00
379.50	0.00
379.70	0.00
379.89	37.45
380.09	86.60
380.28	39.79
380.48	0.00
380.68	16.38
380.87	14.04
381.07	18.72
381.26	60.85
381.46	0.00
381.65	30.43
381.85	0.00
382.04	0.00
382.24	11.70
382.43	60.85
382.63	0.00
382.83	49.15
383.02	23.41
383.22	7.02
383.41	42.13
383.61	46.81
383.80	0.00
384.00	0.00
384.19	0.00
384.39	0.00
384.58	28.09
384.78	18.72
384.97	2.34
385.17	39.79
385.36	0.00
385.56	0.00
385.75	0.00
385.95	81.92
386.14	32.77
386.34	51.49
386.53	21.06
386.72	110.01
386.92	16.38
387.11	60.85
387.31	37.45
387.50	0.00
387.70	39.79
387.89	9.36
388.09	21.06
388.28	0.00
388.48	0.00
388.67	0.00
388.86	0.00
389.06	65.54
389.25	49.15
389.45	44.47
389.64	65.54
389.84	25.75
390.03	0.00
390.22	0.00
390.42	9.36
390.61	0.00
390.81	70.22
391.00	0.00
391.19	35.11
391.39	0.00
391.58	107.66
391.78	77.24
391.97	42.13
392.16	63.19
392.36	23.41
392.55	7.02
392.75	25.75
392.94	37.45
393.13	35.11
393.33	77.24
393.52	0.00
393.71	46.81
393.91	77.24
394.10	63.19
394.29	63.19
394.49	0.00
394.68	42.13
394.88	25.75
395.07	32.77
395.26	63.19
395.46	21.06
395.65	0.00
395.84	30.43
396.04	14.04
396.23	88.94
396.42	16.38
396.62	4.68
396.81	35.11
397.00	79.58
397.19	16.38
397.39	28.09
397.58	32.77
397.77	28.09
397.97	0.00
398.16	46.81
398.35	46.81
398.55	88.94
398.74	14.04
398.93	30.43
399.12	16.38
399.32	0.00
399.51	28.09
399.70	42.13
399.90	42.13
400.09	42.13
400.28	44.47
400.47	70.22
400.67	16.38
400.86	0.00
401.05	32.77
401.24	0.00
401.44	0.00
401.63	53.83
401.82	30.43
402.01	0.00
402.21	0.00
402.40	46.81
402.59	58.51
402.78	0.00
402.97	51.49
403.17	28.09
403.36	16.38
403.55	56.17
403.74	0.00
403.93	51.49
404.13	60.85
404.32	11.70
404.51	4.68
404.70	0.00
404.89	0.00
405.09	126.39
405.28	21.06
405.47	0.00
405.66	21.06
405.85	51.49
406.05	0.00
406.24	28.09
406.43	0.00
406.62	21.06
406.81	60.85
407.00	42.13
407.20	28.09
407.39	7.02
407.58	72.56
407.77	58.51
407.96	49.15
408.15	28.09
408.34	49.15
408.54	70.22
408.73	16.38
408.92	25.75
409.11	88.94
409.30	30.43
409.49	11.70
409.68	81.92
409.87	56.17
410.07	100.64
410.26	30.43
410.45	7.02
410.64	25.75
410.83	23.41
411.02	0.00
411.21	0.00
411.40	0.00
411.59	37.45
411.78	14.04
411.98	30.43
412.17	53.83
412.36	18.72
412.55	0.00
412.74	39.79
412.93	21.06
413.12	44.47
413.31	35.11
413.50	9.36
413.69	30.43
413.88	60.85
414.07	9.36
414.26	53.83
414.45	114.69
414.64	0.00
414.83	28.09
415.02	25.75
415.22	23.41
415.41	32.77
415.60	2.34
415.79	0.00
415.98	7.02
416.17	35.11
416.36	21.06
416.55	21.06
416.74	9.36
416.93	44.47
417.12	51.49
417.31	4.68
417.50	86.60
417.69	37.45
417.88	0.00
418.07	35.11
418.26	9.36
418.45	42.13
418.64	51.49
418.83	0.00
419.02	84.26
419.21	79.58
419.39	39.79
419.58	37.45
419.77	0.00
419.96	49.15
420.15	28.09
420.34	56.17
420.53	77.24
420.72	0.00
420.91	100.64
421.10	21.06
421.29	7.02
421.48	60.85
421.67	11.70
421.86	0.00
422.05	0.00
422.24	32.77
422.43	0.00
422.61	46.81
422.80	0.00
422.99	0.00
423.18	39.79
423.37	77.24
423.56	14.04
423.75	44.47
423.94	0.00
424.13	0.00
424.32	53.83
424.50	107.66
424.69	18.72
424.88	70.22
425.07	0.00
425.26	60.85
425.45	28.09
425.64	51.49
425.83	67.88
426.01	35.11
426.20	32.77
426.39	28.09
426.58	11.70
426.77	25.75
426.96	0.00
427.15	0.00
427.33	42.13
427.52	14.04
427.71	9.36
427.90	30.43
428.09	44.47
428.28	16.38
428.46	16.38
428.65	23.41
428.84	81.92
429.03	72.56
429.22	67.88
429.40	37.45
429.59	0.00
429.78	53.83
429.97	0.00
430.16	44.47
430.34	74.90
430.53	25.75
430.72	9.36
430.91	0.00
431.10	98.30
431.28	30.43
431.47	14.04
431.66	23.41
431.85	21.06
432.03	0.00
432.22	46.81
432.41	11.70
432.60	32.77
432.79	0.00
432.97	21.06
433.16	0.00
433.35	72.56
433.54	37.45
433.72	0.00
433.91	0.00
434.10	25.75
434.28	44.47
434.47	84.26
434.66	60.85
434.85	0.00
435.03	0.00
435.22	14.04
435.41	18.72
435.59	56.17
435.78	28.09
435.97	4.68
436.16	0.00
436.34	9.36
436.53	35.11
436.72	63.19
436.90	39.79
437.09	2.34
437.28	30.43
437.46	56.17
437.65	46.81
437.84	37.45
438.02	4.68
438.21	9.36
438.40	0.00
438.58	0.00
438.77	0.00
438.96	86.60
439.14	56.17
439.33	30.43
439.52	44.47
439.70	16.38
439.89	16.38
440.08	16.38
440.26	84.26
440.45	14.04
440.63	0.00
440.82	16.38
441.01	11.70
441.19	0.00
441.38	7.02
441.57	0.00
441.75	32.77
441.94	46.81
442.12	0.00
442.31	25.75
442.50	39.79
442.68	84.26
442.87	37.45
443.05	14.04
443.24	9.36
443.43	0.00
443.61	42.13
443.80	35.11
443.98	42.13
444.17	16.38
444.35	28.09
444.54	44.47
444.73	37.45
444.91	30.43
445.10	42.13
445.28	42.13
445.47	16.38
445.65	35.11
445.84	51.49
446.02	74.90
446.21	25.75
446.39	35.11
446.58	81.92
446.77	30.43
446.95	37.45
447.14	16.38
447.32	42.13
447.51	42.13
447.69	46.81
447.88	18.72
448.06	2.34
448.25	91.28
448.43	0.00
448.62	44.47
448.80	46.81
448.99	23.41
449.17	112.35
449.36	0.00
449.54	51.49
449.73	0.00
449.91	58.51
450.10	51.49
450.28	91.28
450.46	18.72
450.65	70.22
450.83	0.00
451.02	0.00
451.20	44.47
451.39	88.94
451.57	11.70
451.76	58.51
451.94	46.81
452.13	28.09
452.31	63.19
452.49	46.81
452.68	105.32
452.86	74.90
453.05	46.81
453.23	35.11
453.42	56.17
453.60	21.06
453.78	49.15
453.97	46.81
454.15	49.15
454.34	21.06
454.52	0.00
454.70	65.54
454.89	42.13
455.07	72.56
455.26	18.72
455.44	72.56
455.62	14.04
455.81	21.06
455.99	49.15
456.17	44.47
456.36	53.83
456.54	16.38
456.73	37.45
456.91	14.04
457.09	53.83
457.28	74.90
457.46	72.56
457.64	65.54
457.83	30.43
458.01	9.36
458.19	0.00
458.38	0.00
458.56	11.70
458.74	23.41
458.93	46.81
459.11	74.90
459.29	30.43
459.48	56.17
459.66	25.75
459.84	0.00
460.03	16.38
460.21	44.47
460.39	72.56
460.57	11.70
460.76	79.58
460.94	77.24
461.12	18.72
461.31	51.49
461.49	0.00
461.67	23.41
461.85	60.85
462.04	21.06
462.22	67.88
462.40	51.49
462.59	60.85
462.77	53.83
462.95	9.36
463.13	67.88
463.32	0.00
463.50	9.36
463.68	77.24
463.86	14.04
464.05	0.00
464.23	2.34
464.41	74.90
464.59	30.43
464.78	49.15
464.96	28.09
465.14	30.43
465.32	49.15
465.50	46.81
465.69	23.41
465.87	56.17
466.05	72.56
466.23	49.15
466.41	14.04
466.60	65.54
466.78	0.00
466.96	72.56
467.14	0.00
467.32	0.00
467.51	70.22
467.69	100.64
467.87	0.00
468.05	39.79
468.23	79.58
468.41	56.17
468.60	46.81
468.78	72.56
468.96	42.13
469.14	70.22
469.32	91.28
469.50	60.85
469.69	32.77
469.87	35.11
470.05	2.34
470.23	30.43
470.41	93.62
470.59	79.58
470.77	67.88
470.95	74.90
471.14	0.00
471.32	79.58
471.50	53.83
471.68	58.51
471.86	18.72
472.04	14.04
472.22	98.30
472.40	0.00
472.58	30.43
472.77	28.09
472.95	0.00
473.13	98.30
473.31	88.94
473.49	58.51
473.67	67.88
473.85	16.38
474.03	42.13
474.21	37.45
474.39	23.41
474.57	32.77
474.75	0.00
474.93	53.83
475.12	0.00
475.30	32.77
475.48	65.54
475.66	65.54
475.84	28.09
476.02	0.00
476.20	14.04
476.38	46.81
476.56	9.36
476.74	58.51
476.92	0.00
477.10	16.38
477.28	28.09
477.46	25.75
477.64	81.92
477.82	107.66
478.00	72.56
478.18	39.79
478.36	58.51
478.54	58.51
478.72	7.02
478.90	77.24
479.08	35.11
479.26	0.00
479.44	0.00
479.62	53.83
479.80	67.88
479.98	0.00
480.16	53.83
480.34	18.72
480.52	4.68
480.70	63.19
480.88	51.49
481.06	0.00
481.24	46.81
481.41	81.92
481.59	65.54
481.77	0.00
481.95	28.09
482.13	0.00
482.31	51.49
482.49	0.00
482.67	98.30
482.85	84.26
483.03	81.92
483.21	110.01
483.39	16.38
483.57	67.88
483.74	49.15
483.92	30.43
484.10	9.36
484.28	42.13
484.46	23.41
484.64	65.54
484.82	84.26
485.00	0.00
485.18	32.77
485.35	67.88
485.53	42.13
485.71	67.88
485.89	25.75
486.07	0.00
486.25	42.13
486.43	42.13
486.61	145.11
486.78	84.26
486.96	98.30
487.14	65.54
487.32	67.88
487.50	9.36
487.68	28.09
487.85	42.13
488.03	0.00
488.21	16.38
488.39	14.04
488.57	84.26
488.75	21.06
488.92	42.13
489.10	18.72
489.28	51.49
489.46	70.22
489.64	44.47
489.81	28.09
489.99	0.00
490.17	79.58
490.35	86.60
490.53	42.13
490.70	35.11
490.88	42.13
491.06	88.94
491.24	84.26
491.41	53.83
491.59	93.62
491.77	42.13
491.95	0.00
492.13	77.24
492.30	49.15
492.48	32.77
492.66	0.00
492.84	60.85
493.01	0.00
493.19	14.04
493.37	53.83
493.54	44.47
493.72	79.58
493.90	32.77
494.08	95.96
494.25	63.19
494.43	37.45
494.61	60.85
494.79	42.13
494.96	14.04
495.14	35.11
495.32	4.68
495.49	0.00
495.67	25.75
495.85	93.62
496.02	84.26
496.20	0.00
496.38	0.00
496.55	42.13
496.73	81.92
496.91	65.54
497.09	67.88
497.26	65.54
497.44	51.49
497.62	0.00
497.79	11.70
497.97	0.00
498.14	58.51
498.32	49.15
498.50	46.81
498.67	0.00
498.85	49.15
499.03	11.70
499.20	60.85
499.38	56.17
499.56	81.92
499.73	21.06
499.91	30.43
500.08	11.70
500.26	2.34
500.44	11.70
500.61	74.90
500.79	11.70
500.97	35.11
501.14	110.01
501.32	53.83
501.49	53.83
501.67	67.88
501.84	51.49
502.02	37.45
502.20	42.13
502.37	60.85
502.55	44.47
502.72	39.79
502.90	49.15
503.07	39.79
503.25	7.02
503.43	32.77
503.60	53.83
503.78	51.49
503.95	35.11
504.13	9.36
504.30	28.09
504.48	4.68
504.65	49.15
504.83	25.75
505.01	7.02
505.18	23.41
505.36	0.00
505.53	70.22
505.71	100.64
505.88	37.45
506.06	37.45
506.23	23.41
506.41	14.04
506.58	32.77
506.76	7.02
506.93	23.41
507.11	32.77
507.28	0.00
507.46	0.00
507.63	42.13
507.81	102.98
507.98	0.00
508.16	0.00
508.33	16.38
508.50	39.79
508.68	25.75
508.85	107.66
509.03	72.56
509.20	46.81
509.38	77.24
509.55	30.43
509.73	117.03
509.90	51.49
510.08	16.38
510.25	74.90
510.42	0.00
510.60	21.06
510.77	51.49
510.95	42.13
511.12	0.00
511.30	4.68
511.47	4.68
511.64	16.38
511.82	39.79
511.99	39.79
512.17	21.06
512.34	39.79
512.51	2.34
512.69	60.85
512.86	23.41
513.04	21.06
513.21	79.58
513.38	60.85
513.56	0.00
513.73	30.43
513.90	67.88
514.08	37.45
514.25	72.56
514.43	0.00
514.60	63.19
514.77	0.00
514.95	30.43
515.12	51.49
515.29	95.96
515.47	112.35
515.64	14.04
515.81	51.49
515.99	65.54
516.16	95.96
516.33	58.51
516.51	42.13
516.68	0.00
516.85	86.60
517.03	0.00
517.20	37.45
517.37	51.49
517.54	46.81
517.72	9.36
517.89	21.06
518.06	44.47
518.24	28.09
518.41	23.41
518.58	81.92
518.75	63.19
518.93	0.00
519.10	0.00
519.27	60.85
519.45	51.49
519.62	30.43
519.79	0.00
519.96	39.79
520.14	51.49
520.31	42.13
520.48	0.00
520.65	18.72
520.83	0.00
521.00	0.00
521.17	9.36
521.34	107.66
521.52	39.79
521.69	44.47
521.86	72.56
522.03	74.90
522.20	2.34
522.38	114.69
522.55	28.09
522.72	0.00
522.89	81.92
523.07	95.96
523.24	0.00
523.41	46.81
523.58	51.49
523.75	42.13
523.92	53.83
524.10	39.79
524.27	81.92
524.44	25.75
524.61	32.77
524.78	60.85
524.96	60.85
525.13	72.56
525.30	39.79
525.47	23.41
525.64	70.22
525.81	84.26
525.98	32.77
526.16	0.00
526.33	93.62
526.50	9.36
526.67	23.41
526.84	0.00
527.01	0.00
527.18	63.19
527.36	25.75
527.53	0.00
527.70	58.51
527.87	114.69
528.04	25.75
528.21	77.24
528.38	46.81
528.55	35.11
528.72	81.92
528.89	28.09
529.07	18.72
529.24	58.51
529.41	42.13
529.58	81.92
529.75	14.04
529.92	32.77
530.09	11.70
530.26	56.17
530.43	0.00
530.60	58.51
530.77	58.51
530.94	53.83
531.11	0.00
531.28	21.06
531.46	58.51
531.63	35.11
531.80	0.00
531.97	35.11
532.14	81.92
532.31	51.49
532.48	46.81
532.65	37.45
532.82	49.15
532.99	51.49
533.16	46.81
533.33	88.94
533.50	60.85
533.67	53.83
533.84	32.77
534.01	21.06
534.18	9.36
534.35	84.26
534.52	79.58
534.69	0.00
534.86	9.36
535.03	63.19
535.20	63.19
535.37	30.43
535.54	49.15
535.71	60.85
535.88	4.68
536.05	119.37
536.22	154.48
536.38	74.90
536.55	51.49
536.72	105.32
536.89	0.00
537.06	0.00
537.23	51.49
537.40	67.88
537.57	63.19
537.74	0.00
537.91	95.96
538.08	32.77
538.25	25.75
538.42	0.00
538.59	53.83
538.75	88.94
538.92	56.17
539.09	67.88
539.26	67.88
539.43	121.71
539.60	53.83
539.77	107.66
539.94	95.96
540.11	86.60
540.28	81.92
540.44	81.92
540.61	16.38
540.78	77.24
540.95	4.68
541.12	11.70
541.29	58.51
541.46	67.88
541.62	77.24
541.79	53.83
541.96	56.17
542.13	21.06
542.30	39.79
542.47	53.83
542.63	42.13
542.80	21.06
542.97	21.06
543.14	93.62
543.31	28.09
543.48	58.51
543.64	23.41
543.81	63.19
543.98	58.51
544.15	112.35
544.32	42.13
544.48	35.11
544.65	0.00
544.82	28.09
544.99	72.56
545.16	63.19
545.32	16.38
545.49	77.24
545.66	16.38
545.83	53.83
546.00	0.00
546.16	39.79
546.33	14.04
546.50	42.13
546.67	23.41
546.83	100.64
547.00	79.58
547.17	23.41
547.34	9.36
547.50	72.56
547.67	35.11
547.84	28.09
548.00	79.58
548.17	32.77
548.34	53.83
548.51	42.13
548.67	7.02
548.84	49.15
549.01	51.49
549.18	25.75
549.34	14.04
549.51	23.41
549.68	0.00
549.84	81.92
550.01	81.92
550.18	0.00
550.34	28.09
550.51	93.62
550.68	30.43
550.84	37.45
551.01	79.58
551.18	56.17
551.34	53.83
551.51	72.56
551.68	128.73
551.84	72.56
552.01	98.30
552.18	51.49
552.34	51.49
552.51	9.36
552.68	0.00
552.84	23.41
553.01	74.90
553.18	28.09
553.34	42.13
553.51	79.58
553.67	105.32
553.84	98.30
554.01	35.11
554.17	49.15
554.34	49.15
554.51	74.90
554.67	56.17
554.84	32.77
555.00	0.00
555.17	11.70
555.33	105.32
555.50	110.01
555.67	86.60
555.83	58.51
556.00	102.98
556.16	117.03
556.33	93.62
556.50	0.00
556.66	4.68
556.83	42.13
556.99	93.62
557.16	25.75
557.32	63.19
557.49	0.00
557.65	65.54
557.82	67.88
557.98	28.09
558.15	56.17
558.32	0.00
558.48	128.73
558.65	21.06
558.81	18.72
558.98	102.98
559.14	70.22
559.31	86.60
559.47	11.70
559.64	16.38
559.80	0.00
559.97	58.51
560.13	23.41
560.30	58.51
560.46	51.49
560.63	63.19
560.79	25.75
560.96	16.38
561.12	35.11
561.29	46.81
561.45	46.81
561.61	0.00
561.78	142.77
561.94	124.05
562.11	0.00
562.27	21.06
562.44	74.90
562.60	44.47
562.77	28.09
562.93	7.02
563.10	25.75
563.26	35.11
563.42	114.69
563.59	81.92
563.75	112.35
563.92	30.43
564.08	93.62
564.24	124.05
564.41	58.51
564.57	42.13
564.74	35.11
564.90	0.00
565.07	77.24
565.23	46.81
565.39	9.36
565.56	42.13
565.72	86.60
565.88	72.56
566.05	145.11
566.21	91.28
566.38	0.00
566.54	18.72
566.70	51.49
566.87	131.07
567.03	0.00
567.19	53.83
567.36	42.13
567.52	72.56
567.68	42.13
567.85	63.19
568.01	7.02
568.17	67.88
568.34	30.43
568.50	0.00
568.66	100.64
568.83	46.81
568.99	117.03
569.15	86.60
569.32	39.79
569.48	0.00
569.64	56.17
569.81	0.00
569.97	14.04
570.13	53.83
570.30	49.15
570.46	37.45
570.62	53.83
570.78	44.47
570.95	60.85
571.11	112.35
571.27	128.73
571.43	93.62
571.60	98.30
571.76	25.75
571.92	35.11
572.09	86.60
572.25	60.85
572.41	60.85
572.57	77.24
572.74	46.81
572.90	88.94
573.06	28.09
573.22	32.77
573.38	0.00
573.55	16.38
573.71	0.00
573.87	21.06
574.03	42.13
574.20	63.19
574.36	0.00
574.52	37.45
574.68	56.17
574.84	21.06
575.01	42.13
575.17	32.77
575.33	16.38
575.49	65.54
575.65	35.11
575.82	51.49
575.98	37.45
576.14	49.15
576.30	77.24
576.46	51.49
576.62	46.81
576.79	44.47
576.95	37.45
577.11	0.00
577.27	65.54
577.43	60.85
577.59	77.24
577.75	35.11
577.92	35.11
578.08	0.00
578.24	0.00
578.40	4.68
578.56	39.79
578.72	30.43
578.88	23.41
579.04	105.32
579.21	100.64
579.37	0.00
579.53	46.81
579.69	65.54
579.85	32.77
580.01	21.06
580.17	0.00
580.33	98.30
580.49	30.43
580.65	77.24
580.82	56.17
580.98	65.54
581.14	16.38
581.30	60.85
581.46	81.92
581.62	117.03
581.78	37.45
581.94	93.62
582.10	51.49
582.26	46.81
582.42	84.26
582.58	2.34
582.74	35.11
582.90	93.62
583.06	53.83
583.22	30.43
583.38	84.26
583.54	100.64
583.70	0.00
583.86	65.54
584.02	51.49
584.18	98.30
584.34	114.69
584.50	245.76
584.66	1467.52
584.82	3651.24
584.98	5533.03
585.14	5114.07
585.30	3279.09
585.46	1952.01
585.62	1181.97
585.78	606.20
585.94	184.90
586.10	86.60
586.26	77.24
586.42	37.45
586.58	84.26
586.74	79.58
586.90	77.24
587.06	72.56
587.22	133.41
587.38	93.62
587.54	53.83
587.70	248.10
587.86	374.49
588.02	477.47
588.18	290.23
588.34	220.01
588.49	110.01
588.65	93.62
588.81	30.43
588.97	98.30
589.13	39.79
589.29	44.47
589.45	39.79
589.61	0.00
589.77	0.00
589.93	23.41
590.08	44.47
590.24	44.47
590.40	74.90
590.56	30.43
590.72	46.81
590.88	35.11
591.04	42.13
591.20	0.00
591.35	51.49
591.51	28.09
591.67	23.41
591.83	56.17
591.99	63.19
592.15	0.00
592.31	42.13
592.46	0.00
592.62	30.43
592.78	0.00
592.94	56.17
593.10	39.79
593.26	70.22
593.41	138.09
593.57	67.88
593.73	0.00
593.89	220.01
594.05	519.60
594.20	711.52
594.36	746.63
594.52	510.24
594.68	292.57
594.84	205.97
594.99	149.79
595.15	60.85
595.31	9.36
595.47	42.13
595.62	32.77
595.78	7.02
595.94	44.47
596.10	35.11
596.25	0.00
596.41	74.90
596.57	60.85
596.73	81.92
596.88	70.22
597.04	131.07
597.20	163.84
597.36	217.67
597.51	114.69
597.67	191.92
597.83	173.20
597.99	74.90
598.14	100.64
598.30	58.51
598.46	65.54
598.61	30.43
598.77	23.41
598.93	0.00
599.09	65.54
599.24	4.68
599.40	11.70
599.56	86.60
599.71	65.54
599.87	0.00
600.03	4.68
600.18	0.00
600.34	51.49
600.50	23.41
600.65	35.11
600.81	4.68
600.97	65.54
601.12	67.88
601.28	102.98
601.44	119.37
601.59	0.00
601.75	28.09
601.91	16.38
602.06	0.00
602.22	0.00
602.37	95.96
602.53	84.26
602.69	149.79
602.84	346.40
603.00	163.84
603.16	124.05
603.31	166.18
603.47	84.26
603.62	14.04
603.78	18.72
603.94	70.22
604.09	65.54
604.25	14.04
604.40	0.00
604.56	72.56
604.71	0.00
604.87	81.92
605.03	0.00
605.18	0.00
605.34	0.00
605.49	0.00
605.65	110.01
605.80	4.68
605.96	58.51
606.12	60.85
606.27	37.45
606.43	11.70
606.58	117.03
606.74	42.13
606.89	271.50
607.05	461.09
607.20	622.58
607.36	601.52
607.51	390.87
607.67	299.59
607.82	215.33
607.98	217.67
608.13	67.88
608.29	37.45
608.44	95.96
608.60	28.09
608.75	79.58
608.91	77.24
609.06	360.44
609.22	770.04
609.37	1118.78
609.53	912.81
609.68	711.52
609.84	484.49
609.99	278.52
610.15	147.45
610.30	86.60
610.46	58.51
610.61	60.85
610.76	67.88
610.92	74.90
611.07	4.68
611.23	14.04
611.38	0.00
611.54	0.00
611.69	56.17
611.84	56.17
612.00	102.98
612.15	42.13
612.31	84.26
612.46	44.47
612.62	39.79
612.77	16.38
612.92	91.28
613.08	0.00
613.23	72.56
613.39	110.01
613.54	25.75
613.69	358.10
613.85	898.77
614.00	1563.48
614.15	1757.74
614.31	1310.70
614.46	816.85
614.62	575.77
614.77	353.42
614.92	191.92
615.08	98.30
615.23	88.94
615.38	100.64
615.54	56.17
615.69	77.24
615.84	163.84
616.00	376.83
616.15	400.23
616.30	416.62
616.46	229.37
616.61	117.03
616.76	149.79
616.92	86.60
617.07	77.24
617.22	58.51
617.37	35.11
617.53	72.56
617.68	18.72
617.83	9.36
617.99	60.85
618.14	30.43
618.29	21.06
618.45	0.00
618.60	21.06
618.75	67.88
618.90	14.04
619.06	49.15
619.21	46.81
619.36	44.47
619.51	140.43
619.67	25.75
619.82	23.41
619.97	0.00
620.12	2.34
620.28	0.00
620.43	0.00
620.58	100.64
620.73	107.66
620.89	81.92
621.04	79.58
621.19	131.07
621.34	248.10
621.49	259.80
621.65	318.31
621.80	215.33
621.95	126.39
622.10	84.26
622.25	77.24
622.41	56.17
622.56	67.88
622.71	11.70
622.86	74.90
623.01	56.17
623.16	72.56
623.32	35.11
623.47	18.72
623.62	67.88
623.77	32.77
623.92	37.45
624.07	28.09
624.23	91.28
624.38	21.06
624.53	58.51
624.68	65.54
624.83	16.38
624.98	105.32
625.13	53.83
625.29	107.66
625.44	70.22
625.59	44.47
625.74	0.00
625.89	131.07
626.04	222.35
626.19	554.71
626.34	791.10
626.49	929.19
626.65	725.57
626.80	540.66
626.95	262.14
627.10	250.44
627.25	105.32
627.40	37.45
627.55	51.49
627.70	95.96
627.85	93.62
628.00	35.11
628.15	42.13
628.30	65.54
628.45	58.51
628.60	74.90
628.76	67.88
628.91	65.54
629.06	86.60
629.21	72.56
629.36	0.00
629.51	14.04
629.66	42.13
629.81	88.94
629.96	147.45
630.11	236.39
630.26	245.76
630.41	262.14
630.56	187.24
630.71	161.50
630.86	49.15
631.01	133.41
631.16	56.17
631.31	65.54
631.46	117.03
631.61	126.39
631.76	102.98
631.91	86.60
632.06	56.17
632.21	102.98
632.36	53.83
632.51	81.92
632.66	18.72
632.81	124.05
632.96	287.89
633.10	505.56
633.25	610.88
633.40	552.37
633.55	379.17
633.70	187.24
633.85	163.84
634.00	133.41
634.15	110.01
634.30	0.00
634.45	60.85
634.60	28.09
634.75	16.38
634.90	37.45
635.05	56.17
635.19	58.51
635.34	42.13
635.49	77.24
635.64	91.28
635.79	11.70
635.94	0.00
636.09	0.00
636.24	91.28
636.39	0.00
636.53	49.15
636.68	42.13
636.83	53.83
636.98	0.00
637.13	0.00
637.28	56.17
637.43	51.49
637.57	124.05
637.72	264.48
637.87	648.33
638.02	992.39
638.17	1188.99
638.32	870.68
638.46	585.13
638.61	440.02
638.76	271.50
638.91	135.75
639.06	93.62
639.20	98.30
639.35	53.83
639.50	119.37
639.65	341.72
639.80	1032.18
639.94	1558.80
640.09	1722.63
640.24	1383.26
640.39	915.15
640.54	620.24
640.68	388.53
640.83	252.78
640.98	117.03
641.13	42.13
641.27	35.11
641.42	42.13
641.57	32.77
641.72	51.49
641.86	4.68
642.01	28.09
642.16	42.13
642.31	2.34
642.45	32.77
642.60	46.81
642.75	9.36
642.90	44.47
643.04	37.45
643.19	32.77
643.34	2.34
643.48	0.00
643.63	51.49
643.78	49.15
643.93	91.28
644.07	65.54
644.22	23.41
644.37	0.00
644.51	0.00
644.66	9.36
644.81	32.77
644.95	0.00
645.10	65.54
645.25	63.19
645.39	0.00
645.54	37.45
645.69	42.13
645.83	4.68
645.98	102.98
646.13	56.17
646.27	18.72
646.42	23.41
646.57	56.17
646.71	42.13
646.86	18.72
647.00	4.68
647.15	70.22
647.30	14.04
647.44	0.00
647.59	0.00
647.74	18.72
647.88	119.37
648.03	56.17
648.17	58.51
648.32	98.30
648.47	58.51
648.61	0.00
648.76	72.56
648.90	11.70
649.05	2.34
649.20	30.43
649.34	0.00
649.49	95.96
649.63	25.75
649.78	0.00
649.92	42.13
650.07	182.56
650.21	433.00
650.36	767.70
650.51	1081.33
650.65	816.85
650.80	578.11
650.94	440.02
651.09	283.20
651.23	110.01
651.38	128.73
651.52	14.04
651.67	79.58
651.81	16.38
651.96	18.72
652.10	79.58
652.25	0.00
652.39	11.70
652.54	46.81
652.68	53.83
652.83	140.43
652.97	210.65
653.12	327.68
653.26	320.65
653.41	297.25
653.55	177.88
653.70	149.79
653.84	121.71
653.99	0.00
654.13	14.04
654.27	81.92
654.42	32.77
654.56	79.58
654.71	86.60
654.85	23.41
655.00	37.45
655.14	53.83
655.29	58.51
655.43	30.43
655.57	63.19
655.72	30.43
655.86	23.41
656.01	7.02
656.15	58.51
656.30	77.24
656.44	14.04
656.58	0.00
656.73	65.54
656.87	63.19
657.01	23.41
657.16	0.00
657.30	32.77
657.45	124.05
657.59	56.17
657.73	14.04
657.88	44.47
658.02	72.56
658.16	25.75
658.31	23.41
658.45	14.04
658.60	67.88
658.74	49.15
658.88	42.13
659.03	0.00
659.17	46.81
659.31	58.51
659.46	220.01
659.60	390.87
659.74	472.79
659.89	526.62
660.03	315.97
660.17	222.35
660.32	119.37
660.46	72.56
660.60	39.79
660.74	65.54
660.89	0.00
661.03	70.22
661.17	51.49
661.32	63.19
661.46	86.60
661.60	0.00
661.74	35.11
661.89	0.00
662.03	25.75
662.17	0.00
662.31	39.79
662.46	32.77
662.60	9.36
662.74	56.17
662.88	30.43
663.03	0.00
663.17	7.02
663.31	60.85
663.45	119.37
663.60	16.38
663.74	37.45
663.88	81.92
664.02	35.11
664.17	32.77
664.31	28.09
664.45	65.54
664.59	63.19
664.73	63.19
664.88	0.00
665.02	42.13
665.16	42.13
665.30	74.90
665.44	0.00
665.59	70.22
665.73	98.30
665.87	35.11
666.01	0.00
666.15	18.72
666.29	35.11
666.44	42.13
666.58	11.70
666.72	60.85
666.86	39.79
667.00	93.62
667.14	0.00
667.28	74.90
667.43	451.72
667.57	636.63
667.71	755.99
667.85	734.93
667.99	582.79
668.13	315.97
668.27	252.78
668.41	65.54
668.56	93.62
668.70	86.60
668.84	79.58
668.98	37.45
669.12	28.09
669.26	86.60
669.40	49.15
669.54	11.70
669.68	81.92
669.82	30.43
669.96	16.38
670.10	51.49
670.25	0.00
670.39	74.90
670.53	11.70
670.67	0.00
670.81	25.75
670.95	16.38
671.09	65.54
671.23	191.92
671.37	351.08
671.51	533.64
671.65	477.47
671.79	397.89
671.93	262.14
672.07	184.90
672.21	30.43
672.35	77.24
672.49	77.24
672.63	67.88
672.77	93.62
672.91	35.11
673.05	128.73
673.19	35.11
673.33	53.83
673.47	44.47
673.61	25.75
673.75	21.06
673.89	60.85
674.03	0.00
674.17	4.68
674.31	16.38
674.45	0.00
674.59	0.00
674.73	65.54
674.87	16.38
675.01	0.00
675.15	86.60
675.29	79.58
675.43	105.32
675.56	95.96
675.70	37.45
675.84	18.72
675.98	70.22
676.12	0.00
676.26	37.45
676.40	60.85
676.54	4.68
676.68	30.43
676.82	0.00
676.96	42.13
677.10	63.19
677.23	105.32
677.37	74.90
677.51	2.34
677.65	0.00
677.79	30.43
677.93	28.09
678.07	0.00
678.21	28.09
678.34	0.00
678.48	46.81
678.62	49.15
678.76	14.04
678.90	37.45
679.04	51.49
679.18	74.90
679.31	53.83
679.45	35.11
679.59	0.00
679.73	56.17
679.87	93.62
680.00	23.41
680.14	35.11
680.28	11.70
680.42	67.88
680.56	56.17
680.70	28.09
680.83	2.34
680.97	7.02
681.11	0.00
681.25	46.81
681.39	14.04
681.52	91.28
681.66	35.11
681.80	37.45
681.94	102.98
682.07	93.62
682.21	81.92
682.35	30.43
682.49	70.22
682.62	88.94
682.76	23.41
682.90	9.36
683.04	51.49
683.17	0.00
683.31	32.77
683.45	74.90
683.59	65.54
683.72	30.43
683.86	0.00
684.00	0.00
684.13	16.38
684.27	0.00
684.41	37.45
684.55	42.13
684.68	0.00
684.82	112.35
684.96	23.41
685.09	84.26
685.23	0.00
685.37	42.13
685.50	18.72
685.64	30.43
685.78	56.17
685.91	95.96
686.05	110.01
686.19	74.90
686.32	46.81
686.46	14.04
686.60	21.06
686.73	4.68
686.87	107.66
687.01	81.92
687.14	84.26
687.28	70.22
687.42	2.34
687.55	7.02
687.69	72.56
687.82	67.88
687.96	49.15
688.10	39.79
688.23	72.56
688.37	114.69
688.50	0.00
688.64	63.19
688.78	0.00
688.91	16.38
689.05	53.83
689.18	23.41
689.32	56.17
689.46	72.56
689.59	0.00
689.73	16.38
689.86	14.04
690.00	0.00
690.13	37.45
690.27	0.00
690.41	0.00
690.54	14.04
690.68	0.00
690.81	46.81
690.95	23.41
691.08	44.47
691.22	0.00
691.35	28.09
691.49	0.00
691.62	0.00
691.76	32.77
691.89	67.88
692.03	30.43
692.16	51.49
692.30	74.90
692.43	72.56
692.57	163.84
692.70	362.78
692.84	421.30
692.97	306.61
693.11	304.27
693.24	262.14
693.38	147.45
693.51	65.54
693.65	142.77
693.78	58.51
693.92	42.13
694.05	0.00
694.19	79.58
694.32	7.02
694.45	65.54
694.59	74.90
694.72	56.17
694.86	42.13
694.99	70.22
695.13	46.81
695.26	42.13
695.39	53.83
695.53	53.83
695.66	0.00
695.80	32.77
695.93	79.58
696.07	2.34
696.20	49.15
696.33	46.81
696.47	32.77
696.60	0.00
696.73	16.38
696.87	11.70
697.00	63.19
697.14	93.62
697.27	42.13
697.40	32.77
697.54	32.77
697.67	2.34
697.80	9.36
697.94	30.43
698.07	105.32
698.21	0.00
698.34	72.56
698.47	46.81
698.61	49.15
698.74	0.00
698.87	0.00
699.01	0.00
699.14	77.24
699.27	60.85
699.40	53.83
699.54	21.06
699.67	0.00
699.80	7.02
699.94	93.62
700.07	21.06
700.20	14.04
700.34	30.43
700.47	0.00
700.60	35.11
700.73	30.43
700.87	0.00
701.00	4.68
701.13	77.24
701.26	16.38
701.40	0.00
701.53	49.15
701.66	23.41
701.79	44.47
701.93	9.36
702.06	58.51
702.19	72.56
702.32	51.49
702.46	42.13
702.59	56.17
702.72	93.62
702.85	252.78
702.99	444.70
703.12	592.16
703.25	793.44
703.38	622.58
703.51	568.75
703.65	402.57
703.78	294.91
703.91	224.69
704.04	156.82
704.17	46.81
704.31	65.54
704.44	88.94
704.57	11.70
704.70	110.01
704.83	81.92
704.96	49.15
705.10	49.15
705.23	0.00
>>>>>End Processed Spectral Data<<<<<
