SpectraSuite Data File
++++++++++++++++++++++++++++++++++++
Date: Fri Oct 04 12:13:34 GMT-05:00 2013
User: price-jones
Dark Spectrum Present: No
Reference Spectrum Present: No
Number of Sampled Component Spectra: 1
Spectrometers: USB2+H05261
Integration Time (usec): 10000 (USB2+H05261)
Spectra Averaged: 1 (USB2+H05261)
Boxcar Smoothing: 0 (USB2+H05261)
Correct for Electrical Dark: No (USB2+H05261)
Strobe/Lamp Enabled: No (USB2+H05261)
Correct for Detector Non-linearity: No (USB2+H05261)
Correct for Stray Light: No (USB2+H05261)
Number of Pixels in Processed Spectrum: 2048
>>>>>Begin Processed Spectral Data<<<<<
365.73	23.41
365.92	23.41
366.12	23.41
366.32	0.00
366.52	0.00
366.72	0.00
366.91	0.00
367.11	0.00
367.31	0.00
367.51	0.00
367.70	0.00
367.90	0.00
368.10	0.00
368.30	0.00
368.49	0.00
368.69	0.00
368.89	0.00
369.09	0.00
369.28	0.00
369.48	0.00
369.68	0.00
369.87	0.00
370.07	0.00
370.27	0.00
370.47	0.00
370.66	0.00
370.86	0.00
371.06	0.00
371.25	0.00
371.45	0.00
371.65	0.00
371.84	14.04
372.04	0.00
372.24	0.00
372.44	4.68
372.63	63.19
372.83	30.43
373.03	30.43
373.22	7.02
373.42	4.68
373.62	0.00
373.81	0.00
374.01	39.79
374.21	0.00
374.40	51.49
374.60	32.77
374.79	51.49
374.99	35.11
375.19	30.43
375.38	0.00
375.58	70.22
375.78	16.38
375.97	23.41
376.17	0.00
376.37	30.43
376.56	53.83
376.76	28.09
376.95	18.72
377.15	4.68
377.35	86.60
377.54	16.38
377.74	0.00
377.93	0.00
378.13	67.88
378.33	7.02
378.52	0.00
378.72	4.68
378.91	67.88
379.11	46.81
379.31	11.70
379.50	4.68
379.70	4.68
379.89	49.15
380.09	0.00
380.28	58.51
380.48	58.51
380.68	0.00
380.87	0.00
381.07	21.06
381.26	0.00
381.46	0.00
381.65	0.00
381.85	0.00
382.04	0.00
382.24	30.43
382.43	39.79
382.63	0.00
382.83	14.04
383.02	0.00
383.22	0.00
383.41	0.00
383.61	65.54
383.80	28.09
384.00	60.85
384.19	23.41
384.39	0.00
384.58	37.45
384.78	16.38
384.97	58.51
385.17	11.70
385.36	0.00
385.56	0.00
385.75	14.04
385.95	30.43
386.14	23.41
386.34	39.79
386.53	7.02
386.72	0.00
386.92	0.00
387.11	56.17
387.31	49.15
387.50	79.58
387.70	11.70
387.89	56.17
388.09	0.00
388.28	46.81
388.48	0.00
388.67	58.51
388.86	25.75
389.06	4.68
389.25	121.71
389.45	117.03
389.64	30.43
389.84	0.00
390.03	11.70
390.22	4.68
390.42	21.06
390.61	28.09
390.81	0.00
391.00	63.19
391.19	0.00
391.39	72.56
391.58	0.00
391.78	0.00
391.97	2.34
392.16	0.00
392.36	0.00
392.55	0.00
392.75	28.09
392.94	28.09
393.13	0.00
393.33	9.36
393.52	0.00
393.71	77.24
393.91	23.41
394.10	51.49
394.29	11.70
394.49	32.77
394.68	0.00
394.88	0.00
395.07	35.11
395.26	0.00
395.46	42.13
395.65	0.00
395.84	18.72
396.04	30.43
396.23	16.38
396.42	9.36
396.62	0.00
396.81	21.06
397.00	21.06
397.19	70.22
397.39	7.02
397.58	0.00
397.77	46.81
397.97	14.04
398.16	2.34
398.35	51.49
398.55	86.60
398.74	0.00
398.93	0.00
399.12	16.38
399.32	51.49
399.51	18.72
399.70	16.38
399.90	46.81
400.09	25.75
400.28	0.00
400.47	0.00
400.67	0.00
400.86	37.45
401.05	30.43
401.24	58.51
401.44	11.70
401.63	18.72
401.82	14.04
402.01	39.79
402.21	0.00
402.40	70.22
402.59	2.34
402.78	11.70
402.97	23.41
403.17	16.38
403.36	0.00
403.55	0.00
403.74	9.36
403.93	0.00
404.13	28.09
404.32	18.72
404.51	105.32
404.70	32.77
404.89	14.04
405.09	30.43
405.28	72.56
405.47	65.54
405.66	0.00
405.85	65.54
406.05	4.68
406.24	18.72
406.43	65.54
406.62	25.75
406.81	35.11
407.00	105.32
407.20	0.00
407.39	21.06
407.58	67.88
407.77	74.90
407.96	32.77
408.15	74.90
408.34	0.00
408.54	0.00
408.73	0.00
408.92	0.00
409.11	0.00
409.30	65.54
409.49	77.24
409.68	28.09
409.87	119.37
410.07	70.22
410.26	77.24
410.45	0.00
410.64	65.54
410.83	53.83
411.02	32.77
411.21	7.02
411.40	7.02
411.59	124.05
411.78	49.15
411.98	42.13
412.17	79.58
412.36	28.09
412.55	21.06
412.74	28.09
412.93	58.51
413.12	35.11
413.31	53.83
413.50	7.02
413.69	77.24
413.88	25.75
414.07	58.51
414.26	39.79
414.45	39.79
414.64	105.32
414.83	65.54
415.02	21.06
415.22	0.00
415.41	0.00
415.60	65.54
415.79	88.94
415.98	95.96
416.17	21.06
416.36	0.00
416.55	93.62
416.74	79.58
416.93	25.75
417.12	9.36
417.31	65.54
417.50	58.51
417.69	0.00
417.88	135.75
418.07	0.00
418.26	42.13
418.45	35.11
418.64	39.79
418.83	4.68
419.02	56.17
419.21	0.00
419.39	32.77
419.58	42.13
419.77	16.38
419.96	21.06
420.15	42.13
420.34	18.72
420.53	72.56
420.72	0.00
420.91	21.06
421.10	0.00
421.29	51.49
421.48	39.79
421.67	56.17
421.86	79.58
422.05	114.69
422.24	81.92
422.43	30.43
422.61	42.13
422.80	51.49
422.99	110.01
423.18	30.43
423.37	138.09
423.56	93.62
423.75	107.66
423.94	0.00
424.13	56.17
424.32	0.00
424.50	46.81
424.69	44.47
424.88	0.00
425.07	49.15
425.26	44.47
425.45	67.88
425.64	53.83
425.83	18.72
426.01	28.09
426.20	0.00
426.39	91.28
426.58	42.13
426.77	77.24
426.96	86.60
427.15	51.49
427.33	0.00
427.52	23.41
427.71	53.83
427.90	65.54
428.09	51.49
428.28	86.60
428.46	56.17
428.65	4.68
428.84	117.03
429.03	30.43
429.22	93.62
429.40	16.38
429.59	70.22
429.78	65.54
429.97	18.72
430.16	44.47
430.34	37.45
430.53	39.79
430.72	63.19
430.91	98.30
431.10	67.88
431.28	74.90
431.47	72.56
431.66	25.75
431.85	7.02
432.03	39.79
432.22	72.56
432.41	51.49
432.60	67.88
432.79	81.92
432.97	44.47
433.16	58.51
433.35	51.49
433.54	128.73
433.72	0.00
433.91	51.49
434.10	63.19
434.28	42.13
434.47	100.64
434.66	25.75
434.85	58.51
435.03	32.77
435.22	25.75
435.41	65.54
435.59	0.00
435.78	0.00
435.97	112.35
436.16	117.03
436.34	42.13
436.53	44.47
436.72	88.94
436.90	25.75
437.09	56.17
437.28	32.77
437.46	11.70
437.65	74.90
437.84	86.60
438.02	39.79
438.21	63.19
438.40	42.13
438.58	128.73
438.77	95.96
438.96	4.68
439.14	72.56
439.33	0.00
439.52	88.94
439.70	77.24
439.89	107.66
440.08	98.30
440.26	84.26
440.45	49.15
440.63	0.00
440.82	60.85
441.01	95.96
441.19	0.00
441.38	46.81
441.57	81.92
441.75	63.19
441.94	44.47
442.12	35.11
442.31	42.13
442.50	77.24
442.68	98.30
442.87	46.81
443.05	37.45
443.24	44.47
443.43	0.00
443.61	74.90
443.80	42.13
443.98	32.77
444.17	23.41
444.35	9.36
444.54	65.54
444.73	25.75
444.91	56.17
445.10	42.13
445.28	44.47
445.47	30.43
445.65	58.51
445.84	39.79
446.02	79.58
446.21	0.00
446.39	32.77
446.58	131.07
446.77	32.77
446.95	63.19
447.14	56.17
447.32	84.26
447.51	60.85
447.69	88.94
447.88	84.26
448.06	35.11
448.25	79.58
448.43	63.19
448.62	46.81
448.80	100.64
448.99	0.00
449.17	42.13
449.36	37.45
449.54	107.66
449.73	105.32
449.91	86.60
450.10	79.58
450.28	23.41
450.46	65.54
450.65	18.72
450.83	135.75
451.02	79.58
451.20	84.26
451.39	53.83
451.57	84.26
451.76	51.49
451.94	46.81
452.13	49.15
452.31	0.00
452.49	0.00
452.68	14.04
452.86	0.00
453.05	23.41
453.23	63.19
453.42	35.11
453.60	28.09
453.78	93.62
453.97	98.30
454.15	56.17
454.34	63.19
454.52	79.58
454.70	4.68
454.89	39.79
455.07	49.15
455.26	86.60
455.44	79.58
455.62	18.72
455.81	74.90
455.99	30.43
456.17	98.30
456.36	53.83
456.54	60.85
456.73	44.47
456.91	81.92
457.09	0.00
457.28	56.17
457.46	60.85
457.64	110.01
457.83	65.54
458.01	44.47
458.19	0.00
458.38	95.96
458.56	39.79
458.74	88.94
458.93	91.28
459.11	67.88
459.29	65.54
459.48	42.13
459.66	23.41
459.84	100.64
460.03	44.47
460.21	42.13
460.39	67.88
460.57	49.15
460.76	124.05
460.94	86.60
461.12	28.09
461.31	21.06
461.49	44.47
461.67	86.60
461.85	100.64
462.04	72.56
462.22	138.09
462.40	67.88
462.59	77.24
462.77	77.24
462.95	51.49
463.13	60.85
463.32	42.13
463.50	63.19
463.68	119.37
463.86	91.28
464.05	37.45
464.23	79.58
464.41	95.96
464.59	95.96
464.78	4.68
464.96	112.35
465.14	42.13
465.32	70.22
465.50	51.49
465.69	35.11
465.87	11.70
466.05	37.45
466.23	32.77
466.41	81.92
466.60	98.30
466.78	93.62
466.96	42.13
467.14	91.28
467.32	46.81
467.51	0.00
467.69	93.62
467.87	32.77
468.05	0.00
468.23	91.28
468.41	74.90
468.60	65.54
468.78	51.49
468.96	63.19
469.14	28.09
469.32	114.69
469.50	32.77
469.69	0.00
469.87	65.54
470.05	58.51
470.23	147.45
470.41	46.81
470.59	53.83
470.77	79.58
470.95	98.30
471.14	63.19
471.32	42.13
471.50	0.00
471.68	98.30
471.86	21.06
472.04	60.85
472.22	0.00
472.40	84.26
472.58	56.17
472.77	11.70
472.95	91.28
473.13	30.43
473.31	79.58
473.49	91.28
473.67	23.41
473.85	107.66
474.03	91.28
474.21	95.96
474.39	0.00
474.57	39.79
474.75	84.26
474.93	117.03
475.12	72.56
475.30	56.17
475.48	0.00
475.66	39.79
475.84	58.51
476.02	60.85
476.20	70.22
476.38	25.75
476.56	0.00
476.74	70.22
476.92	7.02
477.10	28.09
477.28	49.15
477.46	88.94
477.64	14.04
477.82	84.26
478.00	107.66
478.18	72.56
478.36	154.48
478.54	95.96
478.72	100.64
478.90	39.79
479.08	53.83
479.26	98.30
479.44	30.43
479.62	46.81
479.80	7.02
479.98	70.22
480.16	84.26
480.34	18.72
480.52	0.00
480.70	58.51
480.88	84.26
481.06	16.38
481.24	49.15
481.41	37.45
481.59	74.90
481.77	100.64
481.95	91.28
482.13	58.51
482.31	49.15
482.49	2.34
482.67	39.79
482.85	60.85
483.03	91.28
483.21	53.83
483.39	98.30
483.57	147.45
483.74	138.09
483.92	107.66
484.10	110.01
484.28	4.68
484.46	91.28
484.64	32.77
484.82	0.00
485.00	112.35
485.18	74.90
485.35	14.04
485.53	58.51
485.71	79.58
485.89	28.09
486.07	18.72
486.25	7.02
486.43	110.01
486.61	9.36
486.78	49.15
486.96	60.85
487.14	39.79
487.32	100.64
487.50	51.49
487.68	105.32
487.85	0.00
488.03	58.51
488.21	35.11
488.39	49.15
488.57	60.85
488.75	124.05
488.92	95.96
489.10	128.73
489.28	77.24
489.46	63.19
489.64	0.00
489.81	79.58
489.99	91.28
490.17	114.69
490.35	121.71
490.53	74.90
490.70	11.70
490.88	93.62
491.06	79.58
491.24	77.24
491.41	95.96
491.59	107.66
491.77	128.73
491.95	28.09
492.13	98.30
492.30	126.39
492.48	98.30
492.66	49.15
492.84	51.49
493.01	72.56
493.19	107.66
493.37	105.32
493.54	4.68
493.72	72.56
493.90	32.77
494.08	65.54
494.25	117.03
494.43	91.28
494.61	119.37
494.79	72.56
494.96	23.41
495.14	35.11
495.32	46.81
495.49	58.51
495.67	60.85
495.85	84.26
496.02	100.64
496.20	124.05
496.38	72.56
496.55	166.18
496.73	0.00
496.91	79.58
497.09	79.58
497.26	51.49
497.44	74.90
497.62	117.03
497.79	102.98
497.97	121.71
498.14	105.32
498.32	86.60
498.50	65.54
498.67	100.64
498.85	107.66
499.03	28.09
499.20	65.54
499.38	0.00
499.56	88.94
499.73	67.88
499.91	39.79
500.08	21.06
500.26	114.69
500.44	105.32
500.61	60.85
500.79	58.51
500.97	152.13
501.14	98.30
501.32	74.90
501.49	32.77
501.67	100.64
501.84	114.69
502.02	98.30
502.20	117.03
502.37	46.81
502.55	49.15
502.72	81.92
502.90	74.90
503.07	49.15
503.25	79.58
503.43	86.60
503.60	79.58
503.78	173.20
503.95	100.64
504.13	32.77
504.30	28.09
504.48	0.00
504.65	58.51
504.83	86.60
505.01	16.38
505.18	21.06
505.36	21.06
505.53	166.18
505.71	102.98
505.88	65.54
506.06	84.26
506.23	39.79
506.41	107.66
506.58	21.06
506.76	21.06
506.93	72.56
507.11	60.85
507.28	100.64
507.46	44.47
507.63	72.56
507.81	93.62
507.98	77.24
508.16	60.85
508.33	37.45
508.50	46.81
508.68	91.28
508.85	100.64
509.03	49.15
509.20	93.62
509.38	175.54
509.55	107.66
509.73	42.13
509.90	74.90
510.08	117.03
510.25	72.56
510.42	112.35
510.60	37.45
510.77	117.03
510.95	107.66
511.12	65.54
511.30	105.32
511.47	77.24
511.64	102.98
511.82	58.51
511.99	161.50
512.17	91.28
512.34	58.51
512.51	86.60
512.69	119.37
512.86	117.03
513.04	86.60
513.21	114.69
513.38	60.85
513.56	58.51
513.73	74.90
513.90	60.85
514.08	56.17
514.25	72.56
514.43	121.71
514.60	28.09
514.77	79.58
514.95	65.54
515.12	56.17
515.29	49.15
515.47	126.39
515.64	37.45
515.81	49.15
515.99	95.96
516.16	65.54
516.33	42.13
516.51	126.39
516.68	56.17
516.85	56.17
517.03	93.62
517.20	124.05
517.37	124.05
517.54	56.17
517.72	72.56
517.89	84.26
518.06	37.45
518.24	25.75
518.41	53.83
518.58	93.62
518.75	74.90
518.93	112.35
519.10	79.58
519.27	77.24
519.45	107.66
519.62	63.19
519.79	196.60
519.96	35.11
520.14	98.30
520.31	65.54
520.48	124.05
520.65	58.51
520.83	126.39
521.00	21.06
521.17	93.62
521.34	91.28
521.52	77.24
521.69	49.15
521.86	58.51
522.03	84.26
522.20	131.07
522.38	102.98
522.55	72.56
522.72	102.98
522.89	23.41
523.07	60.85
523.24	11.70
523.41	156.82
523.58	0.00
523.75	63.19
523.92	81.92
524.10	65.54
524.27	30.43
524.44	114.69
524.61	72.56
524.78	53.83
524.96	79.58
525.13	124.05
525.30	2.34
525.47	79.58
525.64	100.64
525.81	133.41
525.98	58.51
526.16	128.73
526.33	112.35
526.50	133.41
526.67	145.11
526.84	63.19
527.01	102.98
527.18	51.49
527.36	95.96
527.53	49.15
527.70	102.98
527.87	84.26
528.04	63.19
528.21	25.75
528.38	140.43
528.55	124.05
528.72	77.24
528.89	81.92
529.07	124.05
529.24	91.28
529.41	7.02
529.58	114.69
529.75	30.43
529.92	102.98
530.09	135.75
530.26	114.69
530.43	100.64
530.60	98.30
530.77	63.19
530.94	81.92
531.11	65.54
531.28	67.88
531.46	147.45
531.63	177.88
531.80	74.90
531.97	84.26
532.14	37.45
532.31	51.49
532.48	32.77
532.65	65.54
532.82	46.81
532.99	93.62
533.16	70.22
533.33	35.11
533.50	152.13
533.67	128.73
533.84	124.05
534.01	0.00
534.18	0.00
534.35	46.81
534.52	25.75
534.69	112.35
534.86	100.64
535.03	126.39
535.20	105.32
535.37	117.03
535.54	95.96
535.71	49.15
535.88	105.32
536.05	14.04
536.22	72.56
536.38	128.73
536.55	102.98
536.72	114.69
536.89	110.01
537.06	121.71
537.23	35.11
537.40	74.90
537.57	30.43
537.74	147.45
537.91	79.58
538.08	110.01
538.25	100.64
538.42	67.88
538.59	110.01
538.75	70.22
538.92	91.28
539.09	86.60
539.26	105.32
539.43	4.68
539.60	42.13
539.77	21.06
539.94	44.47
540.11	133.41
540.28	112.35
540.44	100.64
540.61	58.51
540.78	79.58
540.95	91.28
541.12	77.24
541.29	60.85
541.46	39.79
541.62	74.90
541.79	114.69
541.96	191.92
542.13	117.03
542.30	117.03
542.47	63.19
542.63	67.88
542.80	119.37
542.97	49.15
543.14	95.96
543.31	25.75
543.48	4.68
543.64	51.49
543.81	37.45
543.98	56.17
544.15	63.19
544.32	65.54
544.48	84.26
544.65	93.62
544.82	42.13
544.99	93.62
545.16	112.35
545.32	60.85
545.49	44.47
545.66	49.15
545.83	107.66
546.00	77.24
546.16	28.09
546.33	32.77
546.50	91.28
546.67	49.15
546.83	63.19
547.00	100.64
547.17	79.58
547.34	67.88
547.50	70.22
547.67	79.58
547.84	42.13
548.00	110.01
548.17	114.69
548.34	107.66
548.51	51.49
548.67	53.83
548.84	2.34
549.01	131.07
549.18	112.35
549.34	91.28
549.51	72.56
549.68	72.56
549.84	105.32
550.01	74.90
550.18	70.22
550.34	81.92
550.51	98.30
550.68	105.32
550.84	84.26
551.01	74.90
551.18	70.22
551.34	0.00
551.51	72.56
551.68	91.28
551.84	86.60
552.01	98.30
552.18	79.58
552.34	58.51
552.51	95.96
552.68	112.35
552.84	39.79
553.01	114.69
553.18	91.28
553.34	93.62
553.51	14.04
553.67	126.39
553.84	138.09
554.01	98.30
554.17	72.56
554.34	91.28
554.51	114.69
554.67	63.19
554.84	86.60
555.00	128.73
555.17	119.37
555.33	67.88
555.50	84.26
555.67	63.19
555.83	42.13
556.00	110.01
556.16	32.77
556.33	42.13
556.50	65.54
556.66	49.15
556.83	93.62
556.99	126.39
557.16	74.90
557.32	37.45
557.49	107.66
557.65	46.81
557.82	70.22
557.98	46.81
558.15	98.30
558.32	63.19
558.48	28.09
558.65	79.58
558.81	182.56
558.98	77.24
559.14	93.62
559.31	70.22
559.47	98.30
559.64	42.13
559.80	100.64
559.97	51.49
560.13	152.13
560.30	110.01
560.46	119.37
560.63	138.09
560.79	95.96
560.96	77.24
561.12	126.39
561.29	112.35
561.45	110.01
561.61	81.92
561.78	86.60
561.94	14.04
562.11	70.22
562.27	60.85
562.44	91.28
562.60	91.28
562.77	18.72
562.93	42.13
563.10	14.04
563.26	39.79
563.42	98.30
563.59	112.35
563.75	67.88
563.92	56.17
564.08	86.60
564.24	35.11
564.41	98.30
564.57	58.51
564.74	28.09
564.90	126.39
565.07	72.56
565.23	105.32
565.39	81.92
565.56	70.22
565.72	84.26
565.88	86.60
566.05	114.69
566.21	93.62
566.38	37.45
566.54	154.48
566.70	56.17
566.87	107.66
567.03	51.49
567.19	42.13
567.36	65.54
567.52	98.30
567.68	74.90
567.85	105.32
568.01	84.26
568.17	110.01
568.34	131.07
568.50	51.49
568.66	88.94
568.83	28.09
568.99	0.00
569.15	79.58
569.32	145.11
569.48	128.73
569.64	0.00
569.81	60.85
569.97	135.75
570.13	77.24
570.30	28.09
570.46	126.39
570.62	28.09
570.78	84.26
570.95	72.56
571.11	11.70
571.27	126.39
571.43	100.64
571.60	49.15
571.76	56.17
571.92	107.66
572.09	16.38
572.25	93.62
572.41	39.79
572.57	65.54
572.74	11.70
572.90	23.41
573.06	9.36
573.22	46.81
573.38	86.60
573.55	81.92
573.71	110.01
573.87	86.60
574.03	95.96
574.20	70.22
574.36	67.88
574.52	63.19
574.68	72.56
574.84	42.13
575.01	46.81
575.17	49.15
575.33	79.58
575.49	44.47
575.65	65.54
575.82	107.66
575.98	35.11
576.14	67.88
576.30	60.85
576.46	98.30
576.62	49.15
576.79	156.82
576.95	79.58
577.11	88.94
577.27	84.26
577.43	51.49
577.59	42.13
577.75	110.01
577.92	42.13
578.08	9.36
578.24	35.11
578.40	128.73
578.56	138.09
578.72	67.88
578.88	110.01
579.04	70.22
579.21	2.34
579.37	0.00
579.53	98.30
579.69	119.37
579.85	124.05
580.01	39.79
580.17	2.34
580.33	81.92
580.49	98.30
580.65	56.17
580.82	152.13
580.98	72.56
581.14	110.01
581.30	58.51
581.46	117.03
581.62	0.00
581.78	30.43
581.94	84.26
582.10	0.00
582.26	91.28
582.42	119.37
582.58	147.45
582.74	42.13
582.90	60.85
583.06	42.13
583.22	88.94
583.38	102.98
583.54	32.77
583.70	124.05
583.86	70.22
584.02	117.03
584.18	79.58
584.34	131.07
584.50	145.11
584.66	72.56
584.82	65.54
584.98	35.11
585.14	131.07
585.30	147.45
585.46	51.49
585.62	46.81
585.78	67.88
585.94	58.51
586.10	124.05
586.26	180.22
586.42	46.81
586.58	105.32
586.74	86.60
586.90	74.90
587.06	74.90
587.22	154.48
587.38	70.22
587.54	86.60
587.70	51.49
587.86	117.03
588.02	88.94
588.18	63.19
588.34	72.56
588.49	112.35
588.65	51.49
588.81	56.17
588.97	25.75
589.13	98.30
589.29	93.62
589.45	156.82
589.61	121.71
589.77	74.90
589.93	35.11
590.08	58.51
590.24	88.94
590.40	23.41
590.56	51.49
590.72	35.11
590.88	117.03
591.04	74.90
591.20	110.01
591.35	95.96
591.51	86.60
591.67	102.98
591.83	58.51
591.99	53.83
592.15	42.13
592.31	32.77
592.46	39.79
592.62	114.69
592.78	30.43
592.94	77.24
593.10	107.66
593.26	98.30
593.41	60.85
593.57	88.94
593.73	65.54
593.89	102.98
594.05	95.96
594.20	58.51
594.36	39.79
594.52	74.90
594.68	102.98
594.84	16.38
594.99	93.62
595.15	98.30
595.31	32.77
595.47	42.13
595.62	159.16
595.78	128.73
595.94	98.30
596.10	135.75
596.25	49.15
596.41	58.51
596.57	93.62
596.73	86.60
596.88	81.92
597.04	98.30
597.20	58.51
597.36	72.56
597.51	14.04
597.67	72.56
597.83	0.00
597.99	84.26
598.14	100.64
598.30	4.68
598.46	126.39
598.61	4.68
598.77	86.60
598.93	16.38
599.09	81.92
599.24	124.05
599.40	70.22
599.56	32.77
599.71	81.92
599.87	86.60
600.03	0.00
600.18	51.49
600.34	37.45
600.50	42.13
600.65	70.22
600.81	81.92
600.97	117.03
601.12	44.47
601.28	56.17
601.44	4.68
601.59	98.30
601.75	16.38
601.91	28.09
602.06	39.79
602.22	49.15
602.37	58.51
602.53	39.79
602.69	133.41
602.84	102.98
603.00	67.88
603.16	77.24
603.31	67.88
603.47	105.32
603.62	119.37
603.78	21.06
603.94	79.58
604.09	133.41
604.25	0.00
604.40	39.79
604.56	39.79
604.71	51.49
604.87	112.35
605.03	70.22
605.18	84.26
605.34	44.47
605.49	67.88
605.65	30.43
605.80	44.47
605.96	142.77
606.12	56.17
606.27	98.30
606.43	25.75
606.58	0.00
606.74	39.79
606.89	42.13
607.05	56.17
607.20	79.58
607.36	53.83
607.51	102.98
607.67	72.56
607.82	39.79
607.98	93.62
608.13	166.18
608.29	23.41
608.44	74.90
608.60	11.70
608.75	117.03
608.91	49.15
609.06	102.98
609.22	44.47
609.37	67.88
609.53	63.19
609.68	39.79
609.84	51.49
609.99	81.92
610.15	74.90
610.30	98.30
610.46	35.11
610.61	100.64
610.76	53.83
610.92	58.51
611.07	93.62
611.23	131.07
611.38	67.88
611.54	70.22
611.69	70.22
611.84	58.51
612.00	21.06
612.15	56.17
612.31	63.19
612.46	93.62
612.62	70.22
612.77	133.41
612.92	79.58
613.08	126.39
613.23	25.75
613.39	37.45
613.54	98.30
613.69	42.13
613.85	117.03
614.00	51.49
614.15	72.56
614.31	28.09
614.46	0.00
614.62	72.56
614.77	49.15
614.92	56.17
615.08	44.47
615.23	121.71
615.38	11.70
615.54	14.04
615.69	102.98
615.84	30.43
616.00	25.75
616.15	84.26
616.30	32.77
616.46	28.09
616.61	107.66
616.76	35.11
616.92	25.75
617.07	133.41
617.22	37.45
617.37	77.24
617.53	124.05
617.68	30.43
617.83	91.28
617.99	32.77
618.14	53.83
618.29	126.39
618.45	112.35
618.60	37.45
618.75	102.98
618.90	107.66
619.06	79.58
619.21	51.49
619.36	110.01
619.51	9.36
619.67	0.00
619.82	44.47
619.97	79.58
620.12	175.54
620.28	98.30
620.43	4.68
620.58	44.47
620.73	110.01
620.89	53.83
621.04	49.15
621.19	67.88
621.34	79.58
621.49	124.05
621.65	58.51
621.80	63.19
621.95	58.51
622.10	30.43
622.25	37.45
622.41	88.94
622.56	102.98
622.71	77.24
622.86	88.94
623.01	67.88
623.16	9.36
623.32	37.45
623.47	7.02
623.62	72.56
623.77	72.56
623.92	0.00
624.07	32.77
624.23	65.54
624.38	58.51
624.53	18.72
624.68	102.98
624.83	53.83
624.98	114.69
625.13	88.94
625.29	21.06
625.44	124.05
625.59	30.43
625.74	107.66
625.89	126.39
626.04	53.83
626.19	70.22
626.34	42.13
626.49	93.62
626.65	37.45
626.80	95.96
626.95	51.49
627.10	51.49
627.25	91.28
627.40	53.83
627.55	70.22
627.70	0.00
627.85	56.17
628.00	35.11
628.15	86.60
628.30	39.79
628.45	14.04
628.60	0.00
628.76	74.90
628.91	98.30
629.06	0.00
629.21	46.81
629.36	135.75
629.51	49.15
629.66	7.02
629.81	42.13
629.96	39.79
630.11	49.15
630.26	51.49
630.41	77.24
630.56	110.01
630.71	18.72
630.86	133.41
631.01	105.32
631.16	72.56
631.31	39.79
631.46	63.19
631.61	11.70
631.76	81.92
631.91	74.90
632.06	67.88
632.21	128.73
632.36	63.19
632.51	46.81
632.66	121.71
632.81	42.13
632.96	53.83
633.10	16.38
633.25	0.00
633.40	93.62
633.55	60.85
633.70	126.39
633.85	67.88
634.00	110.01
634.15	0.00
634.30	23.41
634.45	14.04
634.60	25.75
634.75	77.24
634.90	0.00
635.05	65.54
635.19	67.88
635.34	37.45
635.49	124.05
635.64	88.94
635.79	58.51
635.94	9.36
636.09	105.32
636.24	18.72
636.39	67.88
636.53	81.92
636.68	0.00
636.83	11.70
636.98	60.85
637.13	32.77
637.28	39.79
637.43	81.92
637.57	117.03
637.72	46.81
637.87	49.15
638.02	70.22
638.17	28.09
638.32	63.19
638.46	0.00
638.61	4.68
638.76	0.00
638.91	110.01
639.06	102.98
639.20	88.94
639.35	58.51
639.50	23.41
639.65	53.83
639.80	84.26
639.94	9.36
640.09	4.68
640.24	81.92
640.39	9.36
640.54	95.96
640.68	46.81
640.83	147.45
640.98	102.98
641.13	105.32
641.27	53.83
641.42	72.56
641.57	86.60
641.72	51.49
641.86	67.88
642.01	35.11
642.16	74.90
642.31	58.51
642.45	56.17
642.60	70.22
642.75	58.51
642.90	58.51
643.04	67.88
643.19	145.11
643.34	49.15
643.48	0.00
643.63	67.88
643.78	88.94
643.93	0.00
644.07	124.05
644.22	21.06
644.37	30.43
644.51	0.00
644.66	81.92
644.81	88.94
644.95	72.56
645.10	95.96
645.25	77.24
645.39	105.32
645.54	77.24
645.69	63.19
645.83	88.94
645.98	44.47
646.13	23.41
646.27	9.36
646.42	42.13
646.57	35.11
646.71	112.35
646.86	4.68
647.00	30.43
647.15	74.90
647.30	91.28
647.44	35.11
647.59	60.85
647.74	11.70
647.88	0.00
648.03	63.19
648.17	0.00
648.32	74.90
648.47	4.68
648.61	91.28
648.76	53.83
648.90	42.13
649.05	0.00
649.20	14.04
649.34	18.72
649.49	9.36
649.63	30.43
649.78	107.66
649.92	145.11
650.07	28.09
650.21	74.90
650.36	16.38
650.51	39.79
650.65	86.60
650.80	30.43
650.94	88.94
651.09	86.60
651.23	81.92
651.38	65.54
651.52	91.28
651.67	32.77
651.81	72.56
651.96	2.34
652.10	67.88
652.25	46.81
652.39	135.75
652.54	16.38
652.68	11.70
652.83	46.81
652.97	0.00
653.12	23.41
653.26	9.36
653.41	44.47
653.55	65.54
653.70	107.66
653.84	37.45
653.99	49.15
654.13	32.77
654.27	46.81
654.42	21.06
654.56	0.00
654.71	30.43
654.85	84.26
655.00	74.90
655.14	60.85
655.29	100.64
655.43	39.79
655.57	18.72
655.72	0.00
655.86	39.79
656.01	65.54
656.15	7.02
656.30	67.88
656.44	18.72
656.58	30.43
656.73	84.26
656.87	98.30
657.01	88.94
657.16	21.06
657.30	35.11
657.45	4.68
657.59	28.09
657.73	39.79
657.88	88.94
658.02	0.00
658.16	74.90
658.31	0.00
658.45	18.72
658.60	60.85
658.74	11.70
658.88	0.00
659.03	28.09
659.17	44.47
659.31	23.41
659.46	56.17
659.60	107.66
659.74	21.06
659.89	79.58
660.03	28.09
660.17	79.58
660.32	58.51
660.46	100.64
660.60	77.24
660.74	21.06
660.89	102.98
661.03	63.19
661.17	79.58
661.32	77.24
661.46	42.13
661.60	23.41
661.74	105.32
661.89	77.24
662.03	46.81
662.17	51.49
662.31	51.49
662.46	11.70
662.60	74.90
662.74	49.15
662.88	51.49
663.03	35.11
663.17	0.00
663.31	74.90
663.45	0.00
663.60	28.09
663.74	100.64
663.88	49.15
664.02	46.81
664.17	28.09
664.31	46.81
664.45	93.62
664.59	86.60
664.73	0.00
664.88	65.54
665.02	35.11
665.16	79.58
665.30	95.96
665.44	58.51
665.59	42.13
665.73	65.54
665.87	58.51
666.01	88.94
666.15	105.32
666.29	51.49
666.44	39.79
666.58	51.49
666.72	37.45
666.86	56.17
667.00	39.79
667.14	53.83
667.28	42.13
667.43	14.04
667.57	30.43
667.71	63.19
667.85	112.35
667.99	126.39
668.13	0.00
668.27	42.13
668.41	9.36
668.56	56.17
668.70	21.06
668.84	49.15
668.98	18.72
669.12	0.00
669.26	95.96
669.40	63.19
669.54	0.00
669.68	9.36
669.82	18.72
669.96	0.00
670.10	81.92
670.25	2.34
670.39	72.56
670.53	81.92
670.67	124.05
670.81	88.94
670.95	107.66
671.09	72.56
671.23	98.30
671.37	107.66
671.51	93.62
671.65	93.62
671.79	102.98
671.93	0.00
672.07	51.49
672.21	42.13
672.35	9.36
672.49	0.00
672.63	72.56
672.77	16.38
672.91	0.00
673.05	0.00
673.19	11.70
673.33	32.77
673.47	49.15
673.61	79.58
673.75	110.01
673.89	70.22
674.03	86.60
674.17	23.41
674.31	58.51
674.45	39.79
674.59	35.11
674.73	70.22
674.87	84.26
675.01	74.90
675.15	37.45
675.29	7.02
675.43	25.75
675.56	93.62
675.70	46.81
675.84	14.04
675.98	114.69
676.12	63.19
676.26	81.92
676.40	91.28
676.54	39.79
676.68	14.04
676.82	0.00
676.96	46.81
677.10	0.00
677.23	32.77
677.37	46.81
677.51	84.26
677.65	60.85
677.79	0.00
677.93	72.56
678.07	7.02
678.21	67.88
678.34	102.98
678.48	70.22
678.62	21.06
678.76	23.41
678.90	23.41
679.04	0.00
679.18	72.56
679.31	9.36
679.45	37.45
679.59	39.79
679.73	51.49
679.87	32.77
680.00	72.56
680.14	39.79
680.28	0.00
680.42	0.00
680.56	25.75
680.70	44.47
680.83	35.11
680.97	9.36
681.11	95.96
681.25	44.47
681.39	88.94
681.52	70.22
681.66	63.19
681.80	28.09
681.94	63.19
682.07	0.00
682.21	16.38
682.35	60.85
682.49	0.00
682.62	0.00
682.76	14.04
682.90	56.17
683.04	4.68
683.17	117.03
683.31	72.56
683.45	37.45
683.59	32.77
683.72	56.17
683.86	0.00
684.00	58.51
684.13	42.13
684.27	23.41
684.41	60.85
684.55	0.00
684.68	65.54
684.82	32.77
684.96	32.77
685.09	51.49
685.23	58.51
685.37	44.47
685.50	77.24
685.64	4.68
685.78	28.09
685.91	35.11
686.05	2.34
686.19	39.79
686.32	70.22
686.46	49.15
686.60	72.56
686.73	60.85
686.87	60.85
687.01	32.77
687.14	23.41
687.28	18.72
687.42	28.09
687.55	42.13
687.69	0.00
687.82	7.02
687.96	63.19
688.10	91.28
688.23	74.90
688.37	105.32
688.50	0.00
688.64	0.00
688.78	84.26
688.91	46.81
689.05	70.22
689.18	39.79
689.32	84.26
689.46	0.00
689.59	67.88
689.73	25.75
689.86	91.28
690.00	9.36
690.13	28.09
690.27	16.38
690.41	56.17
690.54	30.43
690.68	44.47
690.81	0.00
690.95	9.36
691.08	25.75
691.22	23.41
691.35	81.92
691.49	65.54
691.62	70.22
691.76	65.54
691.89	42.13
692.03	74.90
692.16	0.00
692.30	7.02
692.43	65.54
692.57	16.38
692.70	100.64
692.84	58.51
692.97	32.77
693.11	65.54
693.24	72.56
693.38	49.15
693.51	21.06
693.65	74.90
693.78	72.56
693.92	0.00
694.05	58.51
694.19	81.92
694.32	23.41
694.45	65.54
694.59	53.83
694.72	0.00
694.86	7.02
694.99	16.38
695.13	42.13
695.26	65.54
695.39	25.75
695.53	93.62
695.66	35.11
695.80	0.00
695.93	0.00
696.07	11.70
696.20	11.70
696.33	63.19
696.47	35.11
696.60	67.88
696.73	0.00
696.87	0.00
697.00	42.13
697.14	53.83
697.27	0.00
697.40	67.88
697.54	35.11
697.67	0.00
697.80	105.32
697.94	23.41
698.07	14.04
698.21	56.17
698.34	114.69
698.47	4.68
698.61	37.45
698.74	65.54
698.87	53.83
699.01	18.72
699.14	42.13
699.27	131.07
699.40	0.00
699.54	0.00
699.67	51.49
699.80	2.34
699.94	79.58
700.07	39.79
700.20	9.36
700.34	37.45
700.47	72.56
700.60	32.77
700.73	21.06
700.87	42.13
701.00	63.19
701.13	56.17
701.26	18.72
701.40	53.83
701.53	100.64
701.66	49.15
701.79	60.85
701.93	37.45
702.06	32.77
702.19	0.00
702.32	7.02
702.46	0.00
702.59	49.15
702.72	65.54
702.85	42.13
702.99	74.90
703.12	51.49
703.25	86.60
703.38	35.11
703.51	74.90
703.65	56.17
703.78	46.81
703.91	35.11
704.04	58.51
704.17	28.09
704.31	21.06
704.44	0.00
704.57	51.49
704.70	0.00
704.83	0.00
704.96	28.09
705.10	51.49
705.23	23.41
>>>>>End Processed Spectral Data<<<<<
