SpectraSuite Data File
++++++++++++++++++++++++++++++++++++
Date: Fri Oct 04 12:13:42 GMT-05:00 2013
User: price-jones
Dark Spectrum Present: No
Reference Spectrum Present: No
Number of Sampled Component Spectra: 1
Spectrometers: USB2+H05261
Integration Time (usec): 10000 (USB2+H05261)
Spectra Averaged: 1 (USB2+H05261)
Boxcar Smoothing: 0 (USB2+H05261)
Correct for Electrical Dark: No (USB2+H05261)
Strobe/Lamp Enabled: No (USB2+H05261)
Correct for Detector Non-linearity: No (USB2+H05261)
Correct for Stray Light: No (USB2+H05261)
Number of Pixels in Processed Spectrum: 2048
>>>>>Begin Processed Spectral Data<<<<<
365.73	0.00
365.92	0.00
366.12	0.00
366.32	0.00
366.52	0.00
366.72	0.00
366.91	0.00
367.11	0.00
367.31	0.00
367.51	0.00
367.70	0.00
367.90	0.00
368.10	0.00
368.30	0.00
368.49	0.00
368.69	0.00
368.89	0.00
369.09	0.00
369.28	0.00
369.48	0.00
369.68	0.00
369.87	0.00
370.07	0.00
370.27	0.00
370.47	0.00
370.66	0.00
370.86	0.00
371.06	0.00
371.25	0.00
371.45	0.00
371.65	0.00
371.84	0.00
372.04	0.00
372.24	0.00
372.44	28.09
372.63	16.38
372.83	37.45
373.03	28.09
373.22	58.51
373.42	0.00
373.62	81.92
373.81	102.98
374.01	93.62
374.21	39.79
374.40	18.72
374.60	0.00
374.79	28.09
374.99	14.04
375.19	0.00
375.38	67.88
375.58	0.00
375.78	88.94
375.97	30.43
376.17	56.17
376.37	110.01
376.56	39.79
376.76	0.00
376.95	25.75
377.15	46.81
377.35	16.38
377.54	28.09
377.74	7.02
377.93	56.17
378.13	23.41
378.33	74.90
378.52	56.17
378.72	0.00
378.91	67.88
379.11	0.00
379.31	0.00
379.50	0.00
379.70	42.13
379.89	39.79
380.09	42.13
380.28	53.83
380.48	2.34
380.68	53.83
380.87	0.00
381.07	0.00
381.26	49.15
381.46	32.77
381.65	32.77
381.85	0.00
382.04	18.72
382.24	44.47
382.43	42.13
382.63	28.09
382.83	0.00
383.02	0.00
383.22	77.24
383.41	14.04
383.61	37.45
383.80	88.94
384.00	7.02
384.19	0.00
384.39	32.77
384.58	30.43
384.78	14.04
384.97	56.17
385.17	14.04
385.36	56.17
385.56	72.56
385.75	25.75
385.95	4.68
386.14	9.36
386.34	35.11
386.53	39.79
386.72	25.75
386.92	72.56
387.11	14.04
387.31	0.00
387.50	18.72
387.70	0.00
387.89	7.02
388.09	46.81
388.28	37.45
388.48	0.00
388.67	16.38
388.86	0.00
389.06	0.00
389.25	9.36
389.45	25.75
389.64	46.81
389.84	0.00
390.03	0.00
390.22	0.00
390.42	117.03
390.61	49.15
390.81	0.00
391.00	84.26
391.19	0.00
391.39	0.00
391.58	9.36
391.78	63.19
391.97	0.00
392.16	39.79
392.36	18.72
392.55	126.39
392.75	28.09
392.94	0.00
393.13	9.36
393.33	35.11
393.52	65.54
393.71	0.00
393.91	25.75
394.10	23.41
394.29	79.58
394.49	0.00
394.68	49.15
394.88	37.45
395.07	4.68
395.26	35.11
395.46	0.00
395.65	60.85
395.84	25.75
396.04	7.02
396.23	53.83
396.42	25.75
396.62	117.03
396.81	0.00
397.00	16.38
397.19	23.41
397.39	0.00
397.58	70.22
397.77	0.00
397.97	81.92
398.16	42.13
398.35	72.56
398.55	72.56
398.74	88.94
398.93	16.38
399.12	0.00
399.32	18.72
399.51	51.49
399.70	37.45
399.90	0.00
400.09	32.77
400.28	7.02
400.47	44.47
400.67	93.62
400.86	23.41
401.05	51.49
401.24	112.35
401.44	51.49
401.63	0.00
401.82	39.79
402.01	102.98
402.21	44.47
402.40	18.72
402.59	18.72
402.78	9.36
402.97	30.43
403.17	93.62
403.36	21.06
403.55	0.00
403.74	65.54
403.93	35.11
404.13	0.00
404.32	28.09
404.51	32.77
404.70	46.81
404.89	51.49
405.09	70.22
405.28	67.88
405.47	56.17
405.66	39.79
405.85	60.85
406.05	14.04
406.24	65.54
406.43	88.94
406.62	0.00
406.81	58.51
407.00	86.60
407.20	28.09
407.39	0.00
407.58	21.06
407.77	49.15
407.96	32.77
408.15	18.72
408.34	105.32
408.54	0.00
408.73	65.54
408.92	0.00
409.11	51.49
409.30	49.15
409.49	32.77
409.68	32.77
409.87	58.51
410.07	0.00
410.26	14.04
410.45	49.15
410.64	32.77
410.83	0.00
411.02	60.85
411.21	105.32
411.40	72.56
411.59	91.28
411.78	49.15
411.98	0.00
412.17	18.72
412.36	53.83
412.55	105.32
412.74	16.38
412.93	21.06
413.12	32.77
413.31	39.79
413.50	32.77
413.69	95.96
413.88	28.09
414.07	72.56
414.26	56.17
414.45	100.64
414.64	39.79
414.83	58.51
415.02	98.30
415.22	4.68
415.41	81.92
415.60	42.13
415.79	16.38
415.98	51.49
416.17	35.11
416.36	72.56
416.55	79.58
416.74	67.88
416.93	0.00
417.12	107.66
417.31	0.00
417.50	84.26
417.69	4.68
417.88	16.38
418.07	81.92
418.26	7.02
418.45	0.00
418.64	53.83
418.83	32.77
419.02	21.06
419.21	39.79
419.39	18.72
419.58	0.00
419.77	0.00
419.96	9.36
420.15	70.22
420.34	60.85
420.53	56.17
420.72	9.36
420.91	0.00
421.10	60.85
421.29	84.26
421.48	51.49
421.67	95.96
421.86	21.06
422.05	11.70
422.24	56.17
422.43	100.64
422.61	51.49
422.80	65.54
422.99	124.05
423.18	49.15
423.37	0.00
423.56	56.17
423.75	0.00
423.94	102.98
424.13	72.56
424.32	25.75
424.50	128.73
424.69	44.47
424.88	21.06
425.07	58.51
425.26	72.56
425.45	77.24
425.64	53.83
425.83	0.00
426.01	35.11
426.20	53.83
426.39	93.62
426.58	56.17
426.77	23.41
426.96	28.09
427.15	0.00
427.33	63.19
427.52	88.94
427.71	18.72
427.90	98.30
428.09	93.62
428.28	74.90
428.46	28.09
428.65	0.00
428.84	58.51
429.03	14.04
429.22	44.47
429.40	117.03
429.59	28.09
429.78	28.09
429.97	23.41
430.16	25.75
430.34	0.00
430.53	0.00
430.72	28.09
430.91	23.41
431.10	32.77
431.28	58.51
431.47	65.54
431.66	4.68
431.85	39.79
432.03	11.70
432.22	77.24
432.41	7.02
432.60	53.83
432.79	0.00
432.97	65.54
433.16	30.43
433.35	93.62
433.54	84.26
433.72	18.72
433.91	77.24
434.10	32.77
434.28	67.88
434.47	46.81
434.66	72.56
434.85	53.83
435.03	28.09
435.22	28.09
435.41	23.41
435.59	63.19
435.78	74.90
435.97	37.45
436.16	16.38
436.34	28.09
436.53	114.69
436.72	42.13
436.90	44.47
437.09	51.49
437.28	102.98
437.46	21.06
437.65	35.11
437.84	28.09
438.02	95.96
438.21	84.26
438.40	32.77
438.58	0.00
438.77	88.94
438.96	67.88
439.14	4.68
439.33	86.60
439.52	42.13
439.70	72.56
439.89	0.00
440.08	60.85
440.26	72.56
440.45	86.60
440.63	16.38
440.82	35.11
441.01	49.15
441.19	35.11
441.38	46.81
441.57	63.19
441.75	60.85
441.94	53.83
442.12	74.90
442.31	14.04
442.50	63.19
442.68	88.94
442.87	25.75
443.05	58.51
443.24	42.13
443.43	0.00
443.61	42.13
443.80	46.81
443.98	39.79
444.17	9.36
444.35	102.98
444.54	152.13
444.73	152.13
444.91	4.68
445.10	98.30
445.28	91.28
445.47	98.30
445.65	9.36
445.84	42.13
446.02	112.35
446.21	81.92
446.39	72.56
446.58	0.00
446.77	98.30
446.95	105.32
447.14	25.75
447.32	77.24
447.51	74.90
447.69	81.92
447.88	100.64
448.06	0.00
448.25	21.06
448.43	9.36
448.62	0.00
448.80	35.11
448.99	30.43
449.17	131.07
449.36	2.34
449.54	25.75
449.73	0.00
449.91	93.62
450.10	37.45
450.28	11.70
450.46	70.22
450.65	58.51
450.83	60.85
451.02	7.02
451.20	35.11
451.39	30.43
451.57	32.77
451.76	98.30
451.94	4.68
452.13	51.49
452.31	93.62
452.49	14.04
452.68	28.09
452.86	65.54
453.05	95.96
453.23	65.54
453.42	100.64
453.60	51.49
453.78	128.73
453.97	58.51
454.15	102.98
454.34	67.88
454.52	25.75
454.70	79.58
454.89	23.41
455.07	0.00
455.26	81.92
455.44	77.24
455.62	37.45
455.81	35.11
455.99	51.49
456.17	105.32
456.36	84.26
456.54	42.13
456.73	70.22
456.91	56.17
457.09	58.51
457.28	0.00
457.46	42.13
457.64	32.77
457.83	95.96
458.01	102.98
458.19	74.90
458.38	0.00
458.56	70.22
458.74	81.92
458.93	110.01
459.11	11.70
459.29	0.00
459.48	72.56
459.66	49.15
459.84	39.79
460.03	21.06
460.21	28.09
460.39	117.03
460.57	28.09
460.76	49.15
460.94	23.41
461.12	44.47
461.31	86.60
461.49	32.77
461.67	117.03
461.85	28.09
462.04	0.00
462.22	126.39
462.40	30.43
462.59	44.47
462.77	93.62
462.95	2.34
463.13	77.24
463.32	67.88
463.50	100.64
463.68	56.17
463.86	72.56
464.05	16.38
464.23	98.30
464.41	53.83
464.59	53.83
464.78	46.81
464.96	102.98
465.14	51.49
465.32	30.43
465.50	102.98
465.69	107.66
465.87	58.51
466.05	91.28
466.23	105.32
466.41	74.90
466.60	65.54
466.78	95.96
466.96	0.00
467.14	88.94
467.32	81.92
467.51	95.96
467.69	51.49
467.87	49.15
468.05	77.24
468.23	18.72
468.41	42.13
468.60	9.36
468.78	16.38
468.96	88.94
469.14	110.01
469.32	46.81
469.50	98.30
469.69	98.30
469.87	133.41
470.05	51.49
470.23	79.58
470.41	25.75
470.59	7.02
470.77	77.24
470.95	42.13
471.14	49.15
471.32	60.85
471.50	23.41
471.68	32.77
471.86	25.75
472.04	51.49
472.22	70.22
472.40	11.70
472.58	39.79
472.77	18.72
472.95	77.24
473.13	35.11
473.31	88.94
473.49	84.26
473.67	46.81
473.85	35.11
474.03	93.62
474.21	32.77
474.39	95.96
474.57	91.28
474.75	0.00
474.93	88.94
475.12	46.81
475.30	16.38
475.48	65.54
475.66	28.09
475.84	16.38
476.02	84.26
476.20	30.43
476.38	30.43
476.56	58.51
476.74	79.58
476.92	149.79
477.10	72.56
477.28	114.69
477.46	86.60
477.64	53.83
477.82	81.92
478.00	72.56
478.18	135.75
478.36	35.11
478.54	51.49
478.72	105.32
478.90	88.94
479.08	79.58
479.26	77.24
479.44	88.94
479.62	81.92
479.80	11.70
479.98	23.41
480.16	58.51
480.34	39.79
480.52	30.43
480.70	105.32
480.88	25.75
481.06	58.51
481.24	124.05
481.41	11.70
481.59	95.96
481.77	93.62
481.95	91.28
482.13	46.81
482.31	98.30
482.49	84.26
482.67	98.30
482.85	74.90
483.03	135.75
483.21	0.00
483.39	91.28
483.57	18.72
483.74	131.07
483.92	32.77
484.10	102.98
484.28	46.81
484.46	51.49
484.64	84.26
484.82	72.56
485.00	72.56
485.18	67.88
485.35	49.15
485.53	49.15
485.71	86.60
485.89	102.98
486.07	72.56
486.25	95.96
486.43	51.49
486.61	70.22
486.78	149.79
486.96	117.03
487.14	46.81
487.32	67.88
487.50	25.75
487.68	98.30
487.85	53.83
488.03	39.79
488.21	98.30
488.39	21.06
488.57	112.35
488.75	44.47
488.92	110.01
489.10	0.00
489.28	81.92
489.46	56.17
489.64	37.45
489.81	112.35
489.99	131.07
490.17	56.17
490.35	107.66
490.53	44.47
490.70	56.17
490.88	81.92
491.06	51.49
491.24	81.92
491.41	79.58
491.59	114.69
491.77	135.75
491.95	79.58
492.13	117.03
492.30	84.26
492.48	74.90
492.66	114.69
492.84	70.22
493.01	37.45
493.19	93.62
493.37	72.56
493.54	98.30
493.72	23.41
493.90	28.09
494.08	84.26
494.25	72.56
494.43	100.64
494.61	72.56
494.79	49.15
494.96	44.47
495.14	58.51
495.32	95.96
495.49	117.03
495.67	112.35
495.85	72.56
496.02	100.64
496.20	110.01
496.38	51.49
496.55	102.98
496.73	86.60
496.91	77.24
497.09	70.22
497.26	46.81
497.44	84.26
497.62	30.43
497.79	37.45
497.97	93.62
498.14	72.56
498.32	70.22
498.50	170.86
498.67	0.00
498.85	117.03
499.03	21.06
499.20	102.98
499.38	124.05
499.56	49.15
499.73	105.32
499.91	131.07
500.08	32.77
500.26	110.01
500.44	88.94
500.61	28.09
500.79	53.83
500.97	58.51
501.14	133.41
501.32	56.17
501.49	46.81
501.67	145.11
501.84	44.47
502.02	67.88
502.20	159.16
502.37	53.83
502.55	100.64
502.72	70.22
502.90	98.30
503.07	74.90
503.25	42.13
503.43	133.41
503.60	84.26
503.78	112.35
503.95	84.26
504.13	105.32
504.30	81.92
504.48	63.19
504.65	25.75
504.83	81.92
505.01	63.19
505.18	74.90
505.36	60.85
505.53	93.62
505.71	21.06
505.88	86.60
506.06	63.19
506.23	0.00
506.41	58.51
506.58	81.92
506.76	154.48
506.93	46.81
507.11	60.85
507.28	30.43
507.46	72.56
507.63	74.90
507.81	56.17
507.98	72.56
508.16	98.30
508.33	163.84
508.50	154.48
508.68	4.68
508.85	105.32
509.03	44.47
509.20	93.62
509.38	67.88
509.55	74.90
509.73	46.81
509.90	126.39
510.08	39.79
510.25	9.36
510.42	70.22
510.60	79.58
510.77	88.94
510.95	63.19
511.12	102.98
511.30	77.24
511.47	84.26
511.64	133.41
511.82	67.88
511.99	105.32
512.17	51.49
512.34	112.35
512.51	56.17
512.69	37.45
512.86	28.09
513.04	88.94
513.21	102.98
513.38	60.85
513.56	102.98
513.73	100.64
513.90	131.07
514.08	42.13
514.25	65.54
514.43	135.75
514.60	86.60
514.77	100.64
514.95	18.72
515.12	91.28
515.29	112.35
515.47	9.36
515.64	72.56
515.81	44.47
515.99	84.26
516.16	102.98
516.33	65.54
516.51	39.79
516.68	84.26
516.85	23.41
517.03	86.60
517.20	46.81
517.37	119.37
517.54	70.22
517.72	121.71
517.89	131.07
518.06	100.64
518.24	65.54
518.41	58.51
518.58	119.37
518.75	91.28
518.93	147.45
519.10	110.01
519.27	93.62
519.45	63.19
519.62	110.01
519.79	72.56
519.96	49.15
520.14	128.73
520.31	14.04
520.48	121.71
520.65	84.26
520.83	100.64
521.00	35.11
521.17	88.94
521.34	112.35
521.52	65.54
521.69	110.01
521.86	84.26
522.03	16.38
522.20	67.88
522.38	77.24
522.55	32.77
522.72	63.19
522.89	135.75
523.07	74.90
523.24	67.88
523.41	128.73
523.58	81.92
523.75	131.07
523.92	91.28
524.10	23.41
524.27	37.45
524.44	79.58
524.61	58.51
524.78	42.13
524.96	53.83
525.13	119.37
525.30	56.17
525.47	72.56
525.64	39.79
525.81	156.82
525.98	124.05
526.16	63.19
526.33	124.05
526.50	58.51
526.67	25.75
526.84	105.32
527.01	88.94
527.18	173.20
527.36	128.73
527.53	93.62
527.70	37.45
527.87	58.51
528.04	107.66
528.21	138.09
528.38	140.43
528.55	70.22
528.72	95.96
528.89	133.41
529.07	110.01
529.24	135.75
529.41	60.85
529.58	77.24
529.75	84.26
529.92	102.98
530.09	67.88
530.26	156.82
530.43	46.81
530.60	70.22
530.77	9.36
530.94	84.26
531.11	93.62
531.28	21.06
531.46	39.79
531.63	81.92
531.80	44.47
531.97	72.56
532.14	65.54
532.31	142.77
532.48	65.54
532.65	63.19
532.82	65.54
532.99	63.19
533.16	117.03
533.33	201.29
533.50	114.69
533.67	93.62
533.84	51.49
534.01	9.36
534.18	124.05
534.35	187.24
534.52	65.54
534.69	124.05
534.86	67.88
535.03	138.09
535.20	110.01
535.37	131.07
535.54	102.98
535.71	121.71
535.88	81.92
536.05	98.30
536.22	42.13
536.38	133.41
536.55	51.49
536.72	84.26
536.89	51.49
537.06	30.43
537.23	63.19
537.40	168.52
537.57	65.54
537.74	107.66
537.91	114.69
538.08	107.66
538.25	65.54
538.42	121.71
538.59	102.98
538.75	79.58
538.92	161.50
539.09	147.45
539.26	46.81
539.43	46.81
539.60	93.62
539.77	110.01
539.94	135.75
540.11	81.92
540.28	173.20
540.44	117.03
540.61	84.26
540.78	114.69
540.95	7.02
541.12	105.32
541.29	91.28
541.46	95.96
541.62	88.94
541.79	91.28
541.96	51.49
542.13	84.26
542.30	102.98
542.47	74.90
542.63	49.15
542.80	112.35
542.97	70.22
543.14	119.37
543.31	95.96
543.48	70.22
543.64	91.28
543.81	126.39
543.98	100.64
544.15	0.00
544.32	100.64
544.48	128.73
544.65	124.05
544.82	70.22
544.99	79.58
545.16	145.11
545.32	102.98
545.49	98.30
545.66	39.79
545.83	81.92
546.00	67.88
546.16	35.11
546.33	138.09
546.50	105.32
546.67	58.51
546.83	142.77
547.00	131.07
547.17	72.56
547.34	81.92
547.50	53.83
547.67	77.24
547.84	63.19
548.00	84.26
548.17	72.56
548.34	32.77
548.51	65.54
548.67	110.01
548.84	77.24
549.01	110.01
549.18	142.77
549.34	65.54
549.51	135.75
549.68	124.05
549.84	88.94
550.01	112.35
550.18	110.01
550.34	88.94
550.51	110.01
550.68	74.90
550.84	93.62
551.01	65.54
551.18	42.13
551.34	154.48
551.51	84.26
551.68	56.17
551.84	105.32
552.01	39.79
552.18	93.62
552.34	58.51
552.51	58.51
552.68	74.90
552.84	98.30
553.01	84.26
553.18	91.28
553.34	107.66
553.51	81.92
553.67	107.66
553.84	56.17
554.01	86.60
554.17	147.45
554.34	0.00
554.51	145.11
554.67	65.54
554.84	100.64
555.00	114.69
555.17	84.26
555.33	44.47
555.50	112.35
555.67	117.03
555.83	121.71
556.00	128.73
556.16	86.60
556.33	60.85
556.50	23.41
556.66	70.22
556.83	51.49
556.99	145.11
557.16	32.77
557.32	91.28
557.49	74.90
557.65	42.13
557.82	114.69
557.98	95.96
558.15	182.56
558.32	110.01
558.48	35.11
558.65	110.01
558.81	88.94
558.98	107.66
559.14	77.24
559.31	74.90
559.47	112.35
559.64	88.94
559.80	88.94
559.97	149.79
560.13	84.26
560.30	37.45
560.46	84.26
560.63	70.22
560.79	84.26
560.96	70.22
561.12	81.92
561.29	119.37
561.45	107.66
561.61	88.94
561.78	63.19
561.94	86.60
562.11	79.58
562.27	152.13
562.44	77.24
562.60	124.05
562.77	67.88
562.93	30.43
563.10	16.38
563.26	84.26
563.42	145.11
563.59	67.88
563.75	72.56
563.92	79.58
564.08	93.62
564.24	93.62
564.41	58.51
564.57	86.60
564.74	39.79
564.90	49.15
565.07	74.90
565.23	107.66
565.39	74.90
565.56	56.17
565.72	107.66
565.88	135.75
566.05	126.39
566.21	77.24
566.38	121.71
566.54	35.11
566.70	149.79
566.87	49.15
567.03	39.79
567.19	88.94
567.36	93.62
567.52	98.30
567.68	163.84
567.85	23.41
568.01	42.13
568.17	149.79
568.34	100.64
568.50	91.28
568.66	58.51
568.83	44.47
568.99	77.24
569.15	121.71
569.32	86.60
569.48	126.39
569.64	128.73
569.81	84.26
569.97	91.28
570.13	203.63
570.30	133.41
570.46	131.07
570.62	119.37
570.78	39.79
570.95	60.85
571.11	114.69
571.27	65.54
571.43	51.49
571.60	138.09
571.76	88.94
571.92	91.28
572.09	121.71
572.25	42.13
572.41	18.72
572.57	84.26
572.74	124.05
572.90	51.49
573.06	46.81
573.22	142.77
573.38	77.24
573.55	131.07
573.71	84.26
573.87	53.83
574.03	81.92
574.20	100.64
574.36	25.75
574.52	128.73
574.68	74.90
574.84	107.66
575.01	51.49
575.17	86.60
575.33	77.24
575.49	102.98
575.65	65.54
575.82	135.75
575.98	74.90
576.14	161.50
576.30	28.09
576.46	56.17
576.62	95.96
576.79	110.01
576.95	128.73
577.11	105.32
577.27	107.66
577.43	79.58
577.59	170.86
577.75	124.05
577.92	95.96
578.08	67.88
578.24	70.22
578.40	35.11
578.56	93.62
578.72	114.69
578.88	110.01
579.04	60.85
579.21	128.73
579.37	14.04
579.53	86.60
579.69	32.77
579.85	100.64
580.01	56.17
580.17	100.64
580.33	126.39
580.49	128.73
580.65	79.58
580.82	114.69
580.98	156.82
581.14	194.26
581.30	105.32
581.46	39.79
581.62	86.60
581.78	7.02
581.94	91.28
582.10	0.00
582.26	30.43
582.42	39.79
582.58	23.41
582.74	126.39
582.90	84.26
583.06	65.54
583.22	74.90
583.38	67.88
583.54	67.88
583.70	95.96
583.86	98.30
584.02	86.60
584.18	79.58
584.34	0.00
584.50	21.06
584.66	51.49
584.82	74.90
584.98	32.77
585.14	112.35
585.30	65.54
585.46	140.43
585.62	28.09
585.78	53.83
585.94	46.81
586.10	93.62
586.26	81.92
586.42	112.35
586.58	70.22
586.74	39.79
586.90	72.56
587.06	74.90
587.22	95.96
587.38	46.81
587.54	102.98
587.70	88.94
587.86	93.62
588.02	63.19
588.18	56.17
588.34	72.56
588.49	0.00
588.65	39.79
588.81	0.00
588.97	107.66
589.13	77.24
589.29	37.45
589.45	65.54
589.61	28.09
589.77	70.22
589.93	98.30
590.08	100.64
590.24	28.09
590.40	114.69
590.56	79.58
590.72	0.00
590.88	9.36
591.04	42.13
591.20	44.47
591.35	60.85
591.51	88.94
591.67	145.11
591.83	110.01
591.99	88.94
592.15	67.88
592.31	58.51
592.46	42.13
592.62	32.77
592.78	0.00
592.94	21.06
593.10	25.75
593.26	51.49
593.41	91.28
593.57	58.51
593.73	91.28
593.89	58.51
594.05	112.35
594.20	95.96
594.36	60.85
594.52	79.58
594.68	42.13
594.84	84.26
594.99	84.26
595.15	77.24
595.31	81.92
595.47	114.69
595.62	72.56
595.78	91.28
595.94	23.41
596.10	37.45
596.25	46.81
596.41	72.56
596.57	100.64
596.73	44.47
596.88	77.24
597.04	23.41
597.20	84.26
597.36	102.98
597.51	81.92
597.67	53.83
597.83	93.62
597.99	95.96
598.14	74.90
598.30	67.88
598.46	91.28
598.61	72.56
598.77	11.70
598.93	88.94
599.09	74.90
599.24	35.11
599.40	67.88
599.56	9.36
599.71	49.15
599.87	86.60
600.03	84.26
600.18	42.13
600.34	74.90
600.50	124.05
600.65	16.38
600.81	84.26
600.97	95.96
601.12	114.69
601.28	28.09
601.44	100.64
601.59	93.62
601.75	56.17
601.91	110.01
602.06	63.19
602.22	81.92
602.37	67.88
602.53	72.56
602.69	93.62
602.84	65.54
603.00	51.49
603.16	79.58
603.31	117.03
603.47	81.92
603.62	114.69
603.78	72.56
603.94	79.58
604.09	110.01
604.25	110.01
604.40	58.51
604.56	102.98
604.71	121.71
604.87	53.83
605.03	46.81
605.18	28.09
605.34	32.77
605.49	18.72
605.65	67.88
605.80	0.00
605.96	95.96
606.12	60.85
606.27	95.96
606.43	74.90
606.58	88.94
606.74	86.60
606.89	46.81
607.05	53.83
607.20	110.01
607.36	28.09
607.51	18.72
607.67	95.96
607.82	39.79
607.98	72.56
608.13	60.85
608.29	35.11
608.44	18.72
608.60	72.56
608.75	79.58
608.91	133.41
609.06	70.22
609.22	9.36
609.37	84.26
609.53	39.79
609.68	93.62
609.84	7.02
609.99	79.58
610.15	18.72
610.30	53.83
610.46	74.90
610.61	25.75
610.76	93.62
610.92	56.17
611.07	124.05
611.23	39.79
611.38	91.28
611.54	39.79
611.69	117.03
611.84	105.32
612.00	149.79
612.15	93.62
612.31	37.45
612.46	67.88
612.62	86.60
612.77	107.66
612.92	18.72
613.08	98.30
613.23	53.83
613.39	79.58
613.54	51.49
613.69	0.00
613.85	79.58
614.00	42.13
614.15	81.92
614.31	4.68
614.46	91.28
614.62	91.28
614.77	91.28
614.92	37.45
615.08	39.79
615.23	63.19
615.38	16.38
615.54	0.00
615.69	46.81
615.84	39.79
616.00	60.85
616.15	67.88
616.30	42.13
616.46	28.09
616.61	98.30
616.76	63.19
616.92	21.06
617.07	128.73
617.22	98.30
617.37	72.56
617.53	23.41
617.68	28.09
617.83	25.75
617.99	37.45
618.14	81.92
618.29	7.02
618.45	42.13
618.60	91.28
618.75	95.96
618.90	51.49
619.06	124.05
619.21	51.49
619.36	60.85
619.51	56.17
619.67	79.58
619.82	119.37
619.97	119.37
620.12	70.22
620.28	58.51
620.43	37.45
620.58	65.54
620.73	30.43
620.89	110.01
621.04	18.72
621.19	67.88
621.34	44.47
621.49	46.81
621.65	72.56
621.80	56.17
621.95	102.98
622.10	63.19
622.25	142.77
622.41	88.94
622.56	37.45
622.71	63.19
622.86	74.90
623.01	131.07
623.16	44.47
623.32	93.62
623.47	65.54
623.62	37.45
623.77	25.75
623.92	18.72
624.07	60.85
624.23	23.41
624.38	2.34
624.53	46.81
624.68	49.15
624.83	93.62
624.98	53.83
625.13	63.19
625.29	98.30
625.44	154.48
625.59	58.51
625.74	110.01
625.89	46.81
626.04	72.56
626.19	39.79
626.34	88.94
626.49	105.32
626.65	56.17
626.80	53.83
626.95	63.19
627.10	63.19
627.25	81.92
627.40	35.11
627.55	95.96
627.70	65.54
627.85	93.62
628.00	93.62
628.15	44.47
628.30	124.05
628.45	0.00
628.60	88.94
628.76	21.06
628.91	91.28
629.06	65.54
629.21	72.56
629.36	56.17
629.51	46.81
629.66	0.00
629.81	74.90
629.96	72.56
630.11	30.43
630.26	14.04
630.41	14.04
630.56	63.19
630.71	53.83
630.86	74.90
631.01	65.54
631.16	58.51
631.31	126.39
631.46	30.43
631.61	53.83
631.76	79.58
631.91	7.02
632.06	117.03
632.21	42.13
632.36	140.43
632.51	23.41
632.66	60.85
632.81	74.90
632.96	46.81
633.10	0.00
633.25	88.94
633.40	88.94
633.55	70.22
633.70	7.02
633.85	35.11
634.00	102.98
634.15	0.00
634.30	0.00
634.45	124.05
634.60	18.72
634.75	110.01
634.90	88.94
635.05	51.49
635.19	60.85
635.34	110.01
635.49	9.36
635.64	79.58
635.79	39.79
635.94	79.58
636.09	53.83
636.24	77.24
636.39	86.60
636.53	44.47
636.68	67.88
636.83	107.66
636.98	11.70
637.13	42.13
637.28	9.36
637.43	65.54
637.57	79.58
637.72	133.41
637.87	100.64
638.02	58.51
638.17	53.83
638.32	110.01
638.46	70.22
638.61	21.06
638.76	86.60
638.91	72.56
639.06	110.01
639.20	0.00
639.35	25.75
639.50	30.43
639.65	117.03
639.80	95.96
639.94	23.41
640.09	23.41
640.24	37.45
640.39	79.58
640.54	100.64
640.68	93.62
640.83	102.98
640.98	63.19
641.13	65.54
641.27	14.04
641.42	32.77
641.57	0.00
641.72	81.92
641.86	0.00
642.01	74.90
642.16	39.79
642.31	56.17
642.45	91.28
642.60	110.01
642.75	135.75
642.90	140.43
643.04	51.49
643.19	35.11
643.34	4.68
643.48	28.09
643.63	65.54
643.78	65.54
643.93	23.41
644.07	0.00
644.22	93.62
644.37	35.11
644.51	84.26
644.66	42.13
644.81	32.77
644.95	95.96
645.10	53.83
645.25	0.00
645.39	0.00
645.54	70.22
645.69	70.22
645.83	65.54
645.98	18.72
646.13	107.66
646.27	7.02
646.42	56.17
646.57	81.92
646.71	35.11
646.86	84.26
647.00	86.60
647.15	30.43
647.30	63.19
647.44	65.54
647.59	0.00
647.74	86.60
647.88	79.58
648.03	112.35
648.17	86.60
648.32	46.81
648.47	2.34
648.61	0.00
648.76	51.49
648.90	88.94
649.05	65.54
649.20	53.83
649.34	42.13
649.49	72.56
649.63	102.98
649.78	11.70
649.92	105.32
650.07	35.11
650.21	67.88
650.36	0.00
650.51	81.92
650.65	30.43
650.80	53.83
650.94	18.72
651.09	79.58
651.23	35.11
651.38	79.58
651.52	84.26
651.67	102.98
651.81	46.81
651.96	53.83
652.10	42.13
652.25	25.75
652.39	93.62
652.54	51.49
652.68	58.51
652.83	51.49
652.97	44.47
653.12	44.47
653.26	159.16
653.41	23.41
653.55	32.77
653.70	112.35
653.84	107.66
653.99	37.45
654.13	49.15
654.27	0.00
654.42	95.96
654.56	2.34
654.71	21.06
654.85	37.45
655.00	70.22
655.14	77.24
655.29	72.56
655.43	49.15
655.57	72.56
655.72	70.22
655.86	0.00
656.01	39.79
656.15	86.60
656.30	49.15
656.44	16.38
656.58	0.00
656.73	51.49
656.87	117.03
657.01	72.56
657.16	44.47
657.30	0.00
657.45	107.66
657.59	25.75
657.73	25.75
657.88	74.90
658.02	135.75
658.16	0.00
658.31	63.19
658.45	67.88
658.60	35.11
658.74	42.13
658.88	67.88
659.03	63.19
659.17	28.09
659.31	60.85
659.46	114.69
659.60	60.85
659.74	74.90
659.89	7.02
660.03	65.54
660.17	46.81
660.32	32.77
660.46	42.13
660.60	100.64
660.74	86.60
660.89	4.68
661.03	65.54
661.17	49.15
661.32	23.41
661.46	63.19
661.60	56.17
661.74	0.00
661.89	53.83
662.03	88.94
662.17	14.04
662.31	133.41
662.46	128.73
662.60	51.49
662.74	0.00
662.88	60.85
663.03	77.24
663.17	58.51
663.31	21.06
663.45	79.58
663.60	32.77
663.74	23.41
663.88	95.96
664.02	56.17
664.17	51.49
664.31	56.17
664.45	0.00
664.59	37.45
664.73	0.00
664.88	74.90
665.02	39.79
665.16	93.62
665.30	0.00
665.44	81.92
665.59	4.68
665.73	60.85
665.87	72.56
666.01	28.09
666.15	14.04
666.29	46.81
666.44	60.85
666.58	119.37
666.72	72.56
666.86	63.19
667.00	0.00
667.14	4.68
667.28	86.60
667.43	53.83
667.57	67.88
667.71	7.02
667.85	86.60
667.99	49.15
668.13	0.00
668.27	46.81
668.41	149.79
668.56	51.49
668.70	88.94
668.84	21.06
668.98	79.58
669.12	32.77
669.26	51.49
669.40	51.49
669.54	39.79
669.68	25.75
669.82	98.30
669.96	65.54
670.10	49.15
670.25	32.77
670.39	11.70
670.53	39.79
670.67	117.03
670.81	28.09
670.95	53.83
671.09	18.72
671.23	98.30
671.37	79.58
671.51	0.00
671.65	0.00
671.79	105.32
671.93	121.71
672.07	114.69
672.21	44.47
672.35	49.15
672.49	4.68
672.63	93.62
672.77	25.75
672.91	63.19
673.05	107.66
673.19	81.92
673.33	63.19
673.47	37.45
673.61	46.81
673.75	30.43
673.89	84.26
674.03	35.11
674.17	107.66
674.31	67.88
674.45	95.96
674.59	42.13
674.73	51.49
674.87	49.15
675.01	4.68
675.15	46.81
675.29	60.85
675.43	0.00
675.56	79.58
675.70	56.17
675.84	44.47
675.98	37.45
676.12	18.72
676.26	56.17
676.40	0.00
676.54	0.00
676.68	28.09
676.82	95.96
676.96	56.17
677.10	93.62
677.23	16.38
677.37	32.77
677.51	39.79
677.65	105.32
677.79	60.85
677.93	0.00
678.07	18.72
678.21	124.05
678.34	7.02
678.48	56.17
678.62	70.22
678.76	53.83
678.90	100.64
679.04	65.54
679.18	0.00
679.31	21.06
679.45	44.47
679.59	37.45
679.73	70.22
679.87	51.49
680.00	32.77
680.14	58.51
680.28	44.47
680.42	25.75
680.56	65.54
680.70	67.88
680.83	58.51
680.97	51.49
681.11	39.79
681.25	4.68
681.39	9.36
681.52	0.00
681.66	140.43
681.80	11.70
681.94	30.43
682.07	0.00
682.21	25.75
682.35	72.56
682.49	37.45
682.62	2.34
682.76	72.56
682.90	0.00
683.04	46.81
683.17	11.70
683.31	49.15
683.45	0.00
683.59	25.75
683.72	28.09
683.86	35.11
684.00	23.41
684.13	63.19
684.27	0.00
684.41	46.81
684.55	37.45
684.68	4.68
684.82	32.77
684.96	135.75
685.09	77.24
685.23	49.15
685.37	30.43
685.50	0.00
685.64	60.85
685.78	65.54
685.91	32.77
686.05	81.92
686.19	46.81
686.32	32.77
686.46	81.92
686.60	39.79
686.73	46.81
686.87	11.70
687.01	4.68
687.14	86.60
687.28	7.02
687.42	65.54
687.55	46.81
687.69	63.19
687.82	30.43
687.96	9.36
688.10	70.22
688.23	16.38
688.37	53.83
688.50	42.13
688.64	0.00
688.78	23.41
688.91	159.16
689.05	25.75
689.18	74.90
689.32	23.41
689.46	44.47
689.59	37.45
689.73	30.43
689.86	51.49
690.00	124.05
690.13	42.13
690.27	72.56
690.41	60.85
690.54	49.15
690.68	32.77
690.81	79.58
690.95	63.19
691.08	25.75
691.22	2.34
691.35	30.43
691.49	79.58
691.62	53.83
691.76	46.81
691.89	0.00
692.03	46.81
692.16	128.73
692.30	44.47
692.43	25.75
692.57	0.00
692.70	0.00
692.84	25.75
692.97	9.36
693.11	60.85
693.24	30.43
693.38	60.85
693.51	9.36
693.65	30.43
693.78	93.62
693.92	7.02
694.05	44.47
694.19	60.85
694.32	21.06
694.45	7.02
694.59	11.70
694.72	18.72
694.86	56.17
694.99	32.77
695.13	56.17
695.26	21.06
695.39	37.45
695.53	25.75
695.66	42.13
695.80	53.83
695.93	42.13
696.07	30.43
696.20	100.64
696.33	21.06
696.47	58.51
696.60	23.41
696.73	42.13
696.87	9.36
697.00	0.00
697.14	0.00
697.27	0.00
697.40	21.06
697.54	14.04
697.67	39.79
697.80	39.79
697.94	30.43
698.07	39.79
698.21	70.22
698.34	133.41
698.47	49.15
698.61	105.32
698.74	74.90
698.87	28.09
699.01	65.54
699.14	2.34
699.27	28.09
699.40	86.60
699.54	49.15
699.67	44.47
699.80	0.00
699.94	65.54
700.07	0.00
700.20	7.02
700.34	56.17
700.47	114.69
700.60	95.96
700.73	81.92
700.87	32.77
701.00	16.38
701.13	0.00
701.26	14.04
701.40	14.04
701.53	42.13
701.66	65.54
701.79	25.75
701.93	0.00
702.06	0.00
702.19	84.26
702.32	0.00
702.46	98.30
702.59	39.79
702.72	51.49
702.85	67.88
702.99	67.88
703.12	65.54
703.25	74.90
703.38	84.26
703.51	102.98
703.65	46.81
703.78	25.75
703.91	39.79
704.04	60.85
704.17	2.34
704.31	39.79
704.44	0.00
704.57	107.66
704.70	46.81
704.83	56.17
704.96	46.81
705.10	53.83
705.23	23.41
>>>>>End Processed Spectral Data<<<<<
