SpectraSuite Data File
++++++++++++++++++++++++++++++++++++
Date: Fri Oct 04 12:13:39 GMT-05:00 2013
User: price-jones
Dark Spectrum Present: No
Reference Spectrum Present: No
Number of Sampled Component Spectra: 1
Spectrometers: USB2+H05261
Integration Time (usec): 10000 (USB2+H05261)
Spectra Averaged: 1 (USB2+H05261)
Boxcar Smoothing: 0 (USB2+H05261)
Correct for Electrical Dark: No (USB2+H05261)
Strobe/Lamp Enabled: No (USB2+H05261)
Correct for Detector Non-linearity: No (USB2+H05261)
Correct for Stray Light: No (USB2+H05261)
Number of Pixels in Processed Spectrum: 2048
>>>>>Begin Processed Spectral Data<<<<<
365.73	0.00
365.92	0.00
366.12	0.00
366.32	0.00
366.52	0.00
366.72	0.00
366.91	0.00
367.11	0.00
367.31	0.00
367.51	0.00
367.70	0.00
367.90	0.00
368.10	0.00
368.30	0.00
368.49	0.00
368.69	0.00
368.89	0.00
369.09	0.00
369.28	0.00
369.48	0.00
369.68	0.00
369.87	0.00
370.07	0.00
370.27	0.00
370.47	23.41
370.66	0.00
370.86	0.00
371.06	0.00
371.25	0.00
371.45	0.00
371.65	0.00
371.84	53.83
372.04	74.90
372.24	0.00
372.44	0.00
372.63	30.43
372.83	53.83
373.03	25.75
373.22	30.43
373.42	0.00
373.62	28.09
373.81	25.75
374.01	93.62
374.21	124.05
374.40	46.81
374.60	28.09
374.79	91.28
374.99	58.51
375.19	9.36
375.38	14.04
375.58	30.43
375.78	42.13
375.97	0.00
376.17	65.54
376.37	46.81
376.56	2.34
376.76	102.98
376.95	14.04
377.15	0.00
377.35	95.96
377.54	28.09
377.74	74.90
377.93	93.62
378.13	9.36
378.33	32.77
378.52	0.00
378.72	49.15
378.91	32.77
379.11	0.00
379.31	39.79
379.50	53.83
379.70	39.79
379.89	79.58
380.09	60.85
380.28	25.75
380.48	18.72
380.68	7.02
380.87	32.77
381.07	0.00
381.26	0.00
381.46	42.13
381.65	30.43
381.85	72.56
382.04	53.83
382.24	49.15
382.43	0.00
382.63	60.85
382.83	46.81
383.02	0.00
383.22	2.34
383.41	0.00
383.61	60.85
383.80	60.85
384.00	74.90
384.19	0.00
384.39	72.56
384.58	0.00
384.78	16.38
384.97	37.45
385.17	0.00
385.36	9.36
385.56	23.41
385.75	42.13
385.95	11.70
386.14	28.09
386.34	0.00
386.53	0.00
386.72	0.00
386.92	51.49
387.11	28.09
387.31	81.92
387.50	0.00
387.70	0.00
387.89	0.00
388.09	0.00
388.28	0.00
388.48	0.00
388.67	79.58
388.86	0.00
389.06	102.98
389.25	49.15
389.45	39.79
389.64	21.06
389.84	7.02
390.03	44.47
390.22	0.00
390.42	44.47
390.61	0.00
390.81	9.36
391.00	86.60
391.19	44.47
391.39	0.00
391.58	0.00
391.78	0.00
391.97	46.81
392.16	0.00
392.36	114.69
392.55	11.70
392.75	46.81
392.94	65.54
393.13	51.49
393.33	0.00
393.52	32.77
393.71	39.79
393.91	58.51
394.10	25.75
394.29	121.71
394.49	56.17
394.68	119.37
394.88	14.04
395.07	25.75
395.26	23.41
395.46	9.36
395.65	42.13
395.84	4.68
396.04	56.17
396.23	74.90
396.42	0.00
396.62	9.36
396.81	28.09
397.00	46.81
397.19	51.49
397.39	44.47
397.58	16.38
397.77	0.00
397.97	65.54
398.16	0.00
398.35	77.24
398.55	7.02
398.74	0.00
398.93	0.00
399.12	37.45
399.32	39.79
399.51	0.00
399.70	102.98
399.90	16.38
400.09	93.62
400.28	21.06
400.47	32.77
400.67	0.00
400.86	0.00
401.05	25.75
401.24	21.06
401.44	0.00
401.63	32.77
401.82	0.00
402.01	63.19
402.21	46.81
402.40	0.00
402.59	21.06
402.78	32.77
402.97	84.26
403.17	0.00
403.36	14.04
403.55	0.00
403.74	30.43
403.93	0.00
404.13	53.83
404.32	0.00
404.51	53.83
404.70	39.79
404.89	0.00
405.09	86.60
405.28	56.17
405.47	0.00
405.66	58.51
405.85	46.81
406.05	58.51
406.24	44.47
406.43	32.77
406.62	51.49
406.81	63.19
407.00	14.04
407.20	18.72
407.39	0.00
407.58	32.77
407.77	23.41
407.96	16.38
408.15	42.13
408.34	28.09
408.54	56.17
408.73	9.36
408.92	56.17
409.11	0.00
409.30	39.79
409.49	0.00
409.68	30.43
409.87	2.34
410.07	11.70
410.26	18.72
410.45	79.58
410.64	138.09
410.83	11.70
411.02	51.49
411.21	42.13
411.40	60.85
411.59	117.03
411.78	42.13
411.98	32.77
412.17	25.75
412.36	74.90
412.55	70.22
412.74	21.06
412.93	30.43
413.12	63.19
413.31	42.13
413.50	72.56
413.69	42.13
413.88	0.00
414.07	16.38
414.26	18.72
414.45	32.77
414.64	25.75
414.83	14.04
415.02	70.22
415.22	11.70
415.41	53.83
415.60	0.00
415.79	51.49
415.98	63.19
416.17	9.36
416.36	30.43
416.55	0.00
416.74	35.11
416.93	4.68
417.12	0.00
417.31	18.72
417.50	79.58
417.69	51.49
417.88	86.60
418.07	16.38
418.26	70.22
418.45	49.15
418.64	0.00
418.83	81.92
419.02	0.00
419.21	0.00
419.39	44.47
419.58	49.15
419.77	0.00
419.96	14.04
420.15	25.75
420.34	58.51
420.53	32.77
420.72	37.45
420.91	42.13
421.10	25.75
421.29	37.45
421.48	37.45
421.67	0.00
421.86	46.81
422.05	74.90
422.24	42.13
422.43	98.30
422.61	7.02
422.80	44.47
422.99	39.79
423.18	23.41
423.37	72.56
423.56	51.49
423.75	67.88
423.94	21.06
424.13	0.00
424.32	23.41
424.50	39.79
424.69	30.43
424.88	51.49
425.07	49.15
425.26	84.26
425.45	98.30
425.64	18.72
425.83	35.11
426.01	37.45
426.20	21.06
426.39	32.77
426.58	100.64
426.77	0.00
426.96	93.62
427.15	88.94
427.33	0.00
427.52	72.56
427.71	65.54
427.90	67.88
428.09	14.04
428.28	65.54
428.46	56.17
428.65	65.54
428.84	110.01
429.03	0.00
429.22	56.17
429.40	0.00
429.59	35.11
429.78	18.72
429.97	77.24
430.16	30.43
430.34	51.49
430.53	0.00
430.72	46.81
430.91	35.11
431.10	58.51
431.28	72.56
431.47	49.15
431.66	42.13
431.85	77.24
432.03	42.13
432.22	35.11
432.41	18.72
432.60	102.98
432.79	0.00
432.97	9.36
433.16	93.62
433.35	105.32
433.54	28.09
433.72	4.68
433.91	53.83
434.10	0.00
434.28	88.94
434.47	60.85
434.66	107.66
434.85	84.26
435.03	124.05
435.22	56.17
435.41	58.51
435.59	51.49
435.78	7.02
435.97	44.47
436.16	95.96
436.34	37.45
436.53	67.88
436.72	91.28
436.90	44.47
437.09	95.96
437.28	98.30
437.46	72.56
437.65	67.88
437.84	49.15
438.02	63.19
438.21	39.79
438.40	91.28
438.58	63.19
438.77	79.58
438.96	102.98
439.14	49.15
439.33	44.47
439.52	37.45
439.70	74.90
439.89	37.45
440.08	7.02
440.26	65.54
440.45	0.00
440.63	79.58
440.82	95.96
441.01	4.68
441.19	117.03
441.38	0.00
441.57	72.56
441.75	95.96
441.94	51.49
442.12	32.77
442.31	42.13
442.50	70.22
442.68	49.15
442.87	49.15
443.05	35.11
443.24	0.00
443.43	100.64
443.61	60.85
443.80	98.30
443.98	11.70
444.17	49.15
444.35	46.81
444.54	63.19
444.73	124.05
444.91	51.49
445.10	0.00
445.28	0.00
445.47	70.22
445.65	72.56
445.84	77.24
446.02	102.98
446.21	140.43
446.39	7.02
446.58	53.83
446.77	72.56
446.95	18.72
447.14	16.38
447.32	56.17
447.51	9.36
447.69	58.51
447.88	14.04
448.06	46.81
448.25	63.19
448.43	11.70
448.62	11.70
448.80	0.00
448.99	70.22
449.17	32.77
449.36	35.11
449.54	25.75
449.73	16.38
449.91	2.34
450.10	63.19
450.28	77.24
450.46	35.11
450.65	37.45
450.83	2.34
451.02	0.00
451.20	2.34
451.39	37.45
451.57	58.51
451.76	95.96
451.94	93.62
452.13	49.15
452.31	46.81
452.49	0.00
452.68	21.06
452.86	72.56
453.05	74.90
453.23	0.00
453.42	56.17
453.60	60.85
453.78	44.47
453.97	56.17
454.15	84.26
454.34	23.41
454.52	58.51
454.70	79.58
454.89	21.06
455.07	39.79
455.26	77.24
455.44	88.94
455.62	0.00
455.81	32.77
455.99	128.73
456.17	30.43
456.36	0.00
456.54	30.43
456.73	2.34
456.91	35.11
457.09	56.17
457.28	42.13
457.46	105.32
457.64	18.72
457.83	23.41
458.01	7.02
458.19	58.51
458.38	18.72
458.56	37.45
458.74	9.36
458.93	51.49
459.11	46.81
459.29	23.41
459.48	0.00
459.66	0.00
459.84	107.66
460.03	56.17
460.21	63.19
460.39	88.94
460.57	39.79
460.76	133.41
460.94	51.49
461.12	114.69
461.31	46.81
461.49	18.72
461.67	95.96
461.85	56.17
462.04	42.13
462.22	147.45
462.40	98.30
462.59	44.47
462.77	81.92
462.95	91.28
463.13	98.30
463.32	77.24
463.50	0.00
463.68	88.94
463.86	0.00
464.05	51.49
464.23	102.98
464.41	23.41
464.59	65.54
464.78	105.32
464.96	102.98
465.14	0.00
465.32	35.11
465.50	79.58
465.69	79.58
465.87	56.17
466.05	0.00
466.23	58.51
466.41	77.24
466.60	39.79
466.78	72.56
466.96	11.70
467.14	121.71
467.32	0.00
467.51	84.26
467.69	93.62
467.87	0.00
468.05	79.58
468.23	98.30
468.41	51.49
468.60	70.22
468.78	18.72
468.96	58.51
469.14	84.26
469.32	0.00
469.50	0.00
469.69	74.90
469.87	30.43
470.05	0.00
470.23	39.79
470.41	0.00
470.59	63.19
470.77	30.43
470.95	51.49
471.14	9.36
471.32	168.52
471.50	67.88
471.68	35.11
471.86	60.85
472.04	74.90
472.22	119.37
472.40	74.90
472.58	4.68
472.77	16.38
472.95	100.64
473.13	86.60
473.31	37.45
473.49	37.45
473.67	100.64
473.85	63.19
474.03	37.45
474.21	28.09
474.39	84.26
474.57	81.92
474.75	56.17
474.93	0.00
475.12	65.54
475.30	9.36
475.48	30.43
475.66	65.54
475.84	53.83
476.02	74.90
476.20	81.92
476.38	95.96
476.56	93.62
476.74	0.00
476.92	0.00
477.10	60.85
477.28	81.92
477.46	11.70
477.64	0.00
477.82	74.90
478.00	86.60
478.18	63.19
478.36	11.70
478.54	86.60
478.72	126.39
478.90	63.19
479.08	44.47
479.26	23.41
479.44	49.15
479.62	0.00
479.80	25.75
479.98	51.49
480.16	79.58
480.34	86.60
480.52	7.02
480.70	126.39
480.88	37.45
481.06	138.09
481.24	30.43
481.41	32.77
481.59	98.30
481.77	0.00
481.95	49.15
482.13	42.13
482.31	86.60
482.49	77.24
482.67	67.88
482.85	0.00
483.03	21.06
483.21	44.47
483.39	81.92
483.57	53.83
483.74	56.17
483.92	49.15
484.10	86.60
484.28	63.19
484.46	79.58
484.64	91.28
484.82	131.07
485.00	53.83
485.18	53.83
485.35	42.13
485.53	37.45
485.71	102.98
485.89	42.13
486.07	39.79
486.25	0.00
486.43	32.77
486.61	65.54
486.78	72.56
486.96	126.39
487.14	93.62
487.32	56.17
487.50	42.13
487.68	126.39
487.85	35.11
488.03	98.30
488.21	60.85
488.39	9.36
488.57	124.05
488.75	4.68
488.92	51.49
489.10	42.13
489.28	51.49
489.46	84.26
489.64	140.43
489.81	65.54
489.99	7.02
490.17	7.02
490.35	95.96
490.53	110.01
490.70	131.07
490.88	74.90
491.06	72.56
491.24	102.98
491.41	79.58
491.59	91.28
491.77	84.26
491.95	58.51
492.13	49.15
492.30	65.54
492.48	93.62
492.66	30.43
492.84	93.62
493.01	0.00
493.19	49.15
493.37	95.96
493.54	114.69
493.72	112.35
493.90	112.35
494.08	91.28
494.25	93.62
494.43	133.41
494.61	86.60
494.79	84.26
494.96	63.19
495.14	51.49
495.32	105.32
495.49	149.79
495.67	63.19
495.85	88.94
496.02	37.45
496.20	100.64
496.38	88.94
496.55	98.30
496.73	77.24
496.91	117.03
497.09	93.62
497.26	88.94
497.44	79.58
497.62	28.09
497.79	39.79
497.97	128.73
498.14	107.66
498.32	39.79
498.50	70.22
498.67	95.96
498.85	86.60
499.03	0.00
499.20	135.75
499.38	102.98
499.56	140.43
499.73	53.83
499.91	100.64
500.08	107.66
500.26	100.64
500.44	65.54
500.61	110.01
500.79	110.01
500.97	86.60
501.14	105.32
501.32	74.90
501.49	93.62
501.67	32.77
501.84	79.58
502.02	46.81
502.20	126.39
502.37	25.75
502.55	58.51
502.72	81.92
502.90	60.85
503.07	51.49
503.25	110.01
503.43	107.66
503.60	58.51
503.78	70.22
503.95	147.45
504.13	28.09
504.30	30.43
504.48	11.70
504.65	110.01
504.83	117.03
505.01	100.64
505.18	105.32
505.36	42.13
505.53	42.13
505.71	49.15
505.88	131.07
506.06	98.30
506.23	60.85
506.41	56.17
506.58	140.43
506.76	21.06
506.93	72.56
507.11	58.51
507.28	16.38
507.46	67.88
507.63	44.47
507.81	105.32
507.98	63.19
508.16	58.51
508.33	86.60
508.50	138.09
508.68	138.09
508.85	117.03
509.03	84.26
509.20	124.05
509.38	91.28
509.55	95.96
509.73	107.66
509.90	21.06
510.08	58.51
510.25	65.54
510.42	91.28
510.60	67.88
510.77	110.01
510.95	140.43
511.12	51.49
511.30	149.79
511.47	110.01
511.64	110.01
511.82	102.98
511.99	49.15
512.17	70.22
512.34	86.60
512.51	56.17
512.69	65.54
512.86	49.15
513.04	70.22
513.21	95.96
513.38	23.41
513.56	81.92
513.73	77.24
513.90	63.19
514.08	154.48
514.25	147.45
514.43	44.47
514.60	102.98
514.77	182.56
514.95	65.54
515.12	126.39
515.29	105.32
515.47	84.26
515.64	133.41
515.81	107.66
515.99	72.56
516.16	114.69
516.33	63.19
516.51	37.45
516.68	51.49
516.85	119.37
517.03	7.02
517.20	105.32
517.37	154.48
517.54	65.54
517.72	121.71
517.89	67.88
518.06	0.00
518.24	25.75
518.41	81.92
518.58	110.01
518.75	88.94
518.93	81.92
519.10	159.16
519.27	74.90
519.45	77.24
519.62	131.07
519.79	56.17
519.96	77.24
520.14	105.32
520.31	46.81
520.48	138.09
520.65	53.83
520.83	77.24
521.00	9.36
521.17	84.26
521.34	65.54
521.52	84.26
521.69	112.35
521.86	84.26
522.03	114.69
522.20	95.96
522.38	74.90
522.55	133.41
522.72	0.00
522.89	42.13
523.07	121.71
523.24	60.85
523.41	67.88
523.58	28.09
523.75	86.60
523.92	88.94
524.10	112.35
524.27	65.54
524.44	49.15
524.61	7.02
524.78	105.32
524.96	131.07
525.13	102.98
525.30	53.83
525.47	49.15
525.64	93.62
525.81	86.60
525.98	65.54
526.16	142.77
526.33	77.24
526.50	117.03
526.67	112.35
526.84	65.54
527.01	53.83
527.18	145.11
527.36	88.94
527.53	18.72
527.70	107.66
527.87	77.24
528.04	46.81
528.21	56.17
528.38	107.66
528.55	4.68
528.72	28.09
528.89	65.54
529.07	0.00
529.24	72.56
529.41	65.54
529.58	32.77
529.75	81.92
529.92	110.01
530.09	119.37
530.26	67.88
530.43	58.51
530.60	53.83
530.77	117.03
530.94	88.94
531.11	67.88
531.28	121.71
531.46	86.60
531.63	77.24
531.80	112.35
531.97	81.92
532.14	81.92
532.31	58.51
532.48	72.56
532.65	0.00
532.82	67.88
532.99	102.98
533.16	105.32
533.33	53.83
533.50	84.26
533.67	77.24
533.84	93.62
534.01	79.58
534.18	117.03
534.35	72.56
534.52	46.81
534.69	53.83
534.86	135.75
535.03	60.85
535.20	49.15
535.37	70.22
535.54	110.01
535.71	102.98
535.88	18.72
536.05	42.13
536.22	42.13
536.38	65.54
536.55	60.85
536.72	2.34
536.89	65.54
537.06	112.35
537.23	74.90
537.40	63.19
537.57	72.56
537.74	107.66
537.91	124.05
538.08	74.90
538.25	140.43
538.42	98.30
538.59	67.88
538.75	133.41
538.92	100.64
539.09	138.09
539.26	56.17
539.43	91.28
539.60	91.28
539.77	14.04
539.94	51.49
540.11	86.60
540.28	67.88
540.44	110.01
540.61	9.36
540.78	91.28
540.95	88.94
541.12	135.75
541.29	126.39
541.46	147.45
541.62	63.19
541.79	98.30
541.96	100.64
542.13	100.64
542.30	110.01
542.47	147.45
542.63	84.26
542.80	86.60
542.97	79.58
543.14	0.00
543.31	117.03
543.48	84.26
543.64	70.22
543.81	84.26
543.98	149.79
544.15	77.24
544.32	51.49
544.48	100.64
544.65	79.58
544.82	9.36
544.99	147.45
545.16	65.54
545.32	79.58
545.49	74.90
545.66	42.13
545.83	32.77
546.00	77.24
546.16	30.43
546.33	65.54
546.50	110.01
546.67	79.58
546.83	135.75
547.00	63.19
547.17	88.94
547.34	84.26
547.50	95.96
547.67	72.56
547.84	140.43
548.00	131.07
548.17	121.71
548.34	110.01
548.51	46.81
548.67	95.96
548.84	84.26
549.01	53.83
549.18	131.07
549.34	86.60
549.51	131.07
549.68	32.77
549.84	100.64
550.01	166.18
550.18	194.26
550.34	166.18
550.51	72.56
550.68	74.90
550.84	51.49
551.01	23.41
551.18	114.69
551.34	25.75
551.51	46.81
551.68	37.45
551.84	18.72
552.01	91.28
552.18	91.28
552.34	145.11
552.51	14.04
552.68	72.56
552.84	119.37
553.01	56.17
553.18	72.56
553.34	32.77
553.51	84.26
553.67	114.69
553.84	126.39
554.01	60.85
554.17	74.90
554.34	84.26
554.51	53.83
554.67	105.32
554.84	60.85
555.00	53.83
555.17	102.98
555.33	60.85
555.50	60.85
555.67	86.60
555.83	93.62
556.00	67.88
556.16	65.54
556.33	77.24
556.50	105.32
556.66	119.37
556.83	95.96
556.99	46.81
557.16	79.58
557.32	60.85
557.49	44.47
557.65	44.47
557.82	77.24
557.98	102.98
558.15	63.19
558.32	65.54
558.48	18.72
558.65	98.30
558.81	72.56
558.98	119.37
559.14	114.69
559.31	110.01
559.47	16.38
559.64	63.19
559.80	117.03
559.97	91.28
560.13	42.13
560.30	114.69
560.46	107.66
560.63	86.60
560.79	126.39
560.96	163.84
561.12	77.24
561.29	72.56
561.45	42.13
561.61	60.85
561.78	25.75
561.94	93.62
562.11	72.56
562.27	0.00
562.44	81.92
562.60	114.69
562.77	67.88
562.93	56.17
563.10	149.79
563.26	107.66
563.42	102.98
563.59	133.41
563.75	65.54
563.92	126.39
564.08	70.22
564.24	93.62
564.41	0.00
564.57	42.13
564.74	124.05
564.90	107.66
565.07	142.77
565.23	4.68
565.39	37.45
565.56	117.03
565.72	74.90
565.88	131.07
566.05	72.56
566.21	72.56
566.38	121.71
566.54	133.41
566.70	107.66
566.87	86.60
567.03	77.24
567.19	77.24
567.36	107.66
567.52	124.05
567.68	0.00
567.85	35.11
568.01	35.11
568.17	49.15
568.34	145.11
568.50	128.73
568.66	74.90
568.83	126.39
568.99	81.92
569.15	53.83
569.32	16.38
569.48	112.35
569.64	117.03
569.81	58.51
569.97	16.38
570.13	112.35
570.30	100.64
570.46	14.04
570.62	98.30
570.78	72.56
570.95	84.26
571.11	60.85
571.27	67.88
571.43	100.64
571.60	67.88
571.76	79.58
571.92	81.92
572.09	39.79
572.25	114.69
572.41	114.69
572.57	25.75
572.74	60.85
572.90	86.60
573.06	65.54
573.22	117.03
573.38	107.66
573.55	107.66
573.71	86.60
573.87	72.56
574.03	25.75
574.20	53.83
574.36	46.81
574.52	133.41
574.68	126.39
574.84	114.69
575.01	58.51
575.17	98.30
575.33	102.98
575.49	9.36
575.65	37.45
575.82	58.51
575.98	63.19
576.14	81.92
576.30	79.58
576.46	67.88
576.62	107.66
576.79	46.81
576.95	88.94
577.11	67.88
577.27	67.88
577.43	65.54
577.59	65.54
577.75	112.35
577.92	49.15
578.08	102.98
578.24	46.81
578.40	35.11
578.56	105.32
578.72	42.13
578.88	74.90
579.04	63.19
579.21	7.02
579.37	110.01
579.53	105.32
579.69	81.92
579.85	65.54
580.01	44.47
580.17	102.98
580.33	53.83
580.49	91.28
580.65	86.60
580.82	112.35
580.98	117.03
581.14	42.13
581.30	131.07
581.46	93.62
581.62	84.26
581.78	67.88
581.94	79.58
582.10	65.54
582.26	81.92
582.42	81.92
582.58	105.32
582.74	49.15
582.90	79.58
583.06	49.15
583.22	88.94
583.38	39.79
583.54	149.79
583.70	124.05
583.86	112.35
584.02	51.49
584.18	124.05
584.34	121.71
584.50	105.32
584.66	124.05
584.82	23.41
584.98	79.58
585.14	58.51
585.30	138.09
585.46	65.54
585.62	72.56
585.78	102.98
585.94	4.68
586.10	81.92
586.26	35.11
586.42	74.90
586.58	84.26
586.74	93.62
586.90	98.30
587.06	88.94
587.22	128.73
587.38	65.54
587.54	44.47
587.70	117.03
587.86	126.39
588.02	42.13
588.18	95.96
588.34	98.30
588.49	42.13
588.65	56.17
588.81	65.54
588.97	28.09
589.13	23.41
589.29	58.51
589.45	56.17
589.61	18.72
589.77	18.72
589.93	79.58
590.08	67.88
590.24	65.54
590.40	60.85
590.56	88.94
590.72	37.45
590.88	81.92
591.04	121.71
591.20	79.58
591.35	65.54
591.51	79.58
591.67	93.62
591.83	0.00
591.99	67.88
592.15	65.54
592.31	25.75
592.46	117.03
592.62	105.32
592.78	49.15
592.94	0.00
593.10	86.60
593.26	25.75
593.41	114.69
593.57	100.64
593.73	23.41
593.89	0.00
594.05	124.05
594.20	67.88
594.36	58.51
594.52	81.92
594.68	58.51
594.84	4.68
594.99	102.98
595.15	18.72
595.31	95.96
595.47	124.05
595.62	65.54
595.78	88.94
595.94	77.24
596.10	53.83
596.25	49.15
596.41	67.88
596.57	53.83
596.73	0.00
596.88	51.49
597.04	81.92
597.20	121.71
597.36	114.69
597.51	65.54
597.67	79.58
597.83	16.38
597.99	28.09
598.14	95.96
598.30	74.90
598.46	63.19
598.61	58.51
598.77	98.30
598.93	124.05
599.09	133.41
599.24	117.03
599.40	147.45
599.56	28.09
599.71	4.68
599.87	72.56
600.03	140.43
600.18	81.92
600.34	98.30
600.50	93.62
600.65	154.48
600.81	0.00
600.97	67.88
601.12	81.92
601.28	77.24
601.44	88.94
601.59	138.09
601.75	112.35
601.91	28.09
602.06	67.88
602.22	74.90
602.37	93.62
602.53	117.03
602.69	117.03
602.84	110.01
603.00	60.85
603.16	46.81
603.31	95.96
603.47	84.26
603.62	65.54
603.78	70.22
603.94	18.72
604.09	0.00
604.25	67.88
604.40	67.88
604.56	0.00
604.71	93.62
604.87	88.94
605.03	93.62
605.18	79.58
605.34	0.00
605.49	67.88
605.65	110.01
605.80	102.98
605.96	140.43
606.12	93.62
606.27	163.84
606.43	60.85
606.58	117.03
606.74	37.45
606.89	81.92
607.05	14.04
607.20	98.30
607.36	128.73
607.51	60.85
607.67	42.13
607.82	91.28
607.98	175.54
608.13	67.88
608.29	121.71
608.44	102.98
608.60	58.51
608.75	9.36
608.91	4.68
609.06	0.00
609.22	72.56
609.37	51.49
609.53	86.60
609.68	105.32
609.84	4.68
609.99	21.06
610.15	0.00
610.30	102.98
610.46	107.66
610.61	107.66
610.76	91.28
610.92	53.83
611.07	7.02
611.23	98.30
611.38	114.69
611.54	49.15
611.69	4.68
611.84	72.56
612.00	11.70
612.15	79.58
612.31	102.98
612.46	121.71
612.62	81.92
612.77	51.49
612.92	93.62
613.08	79.58
613.23	81.92
613.39	131.07
613.54	35.11
613.69	58.51
613.85	70.22
614.00	65.54
614.15	88.94
614.31	79.58
614.46	53.83
614.62	88.94
614.77	0.00
614.92	72.56
615.08	65.54
615.23	4.68
615.38	152.13
615.54	138.09
615.69	142.77
615.84	67.88
616.00	49.15
616.15	49.15
616.30	0.00
616.46	7.02
616.61	102.98
616.76	72.56
616.92	65.54
617.07	30.43
617.22	4.68
617.37	98.30
617.53	72.56
617.68	110.01
617.83	53.83
617.99	72.56
618.14	74.90
618.29	72.56
618.45	131.07
618.60	0.00
618.75	72.56
618.90	93.62
619.06	49.15
619.21	70.22
619.36	77.24
619.51	138.09
619.67	56.17
619.82	105.32
619.97	124.05
620.12	23.41
620.28	39.79
620.43	9.36
620.58	72.56
620.73	58.51
620.89	28.09
621.04	95.96
621.19	95.96
621.34	107.66
621.49	72.56
621.65	44.47
621.80	11.70
621.95	70.22
622.10	46.81
622.25	39.79
622.41	74.90
622.56	53.83
622.71	51.49
622.86	105.32
623.01	74.90
623.16	60.85
623.32	77.24
623.47	124.05
623.62	4.68
623.77	70.22
623.92	67.88
624.07	58.51
624.23	37.45
624.38	84.26
624.53	46.81
624.68	46.81
624.83	53.83
624.98	86.60
625.13	133.41
625.29	100.64
625.44	46.81
625.59	98.30
625.74	105.32
625.89	84.26
626.04	121.71
626.19	14.04
626.34	65.54
626.49	79.58
626.65	42.13
626.80	56.17
626.95	74.90
627.10	49.15
627.25	49.15
627.40	72.56
627.55	0.00
627.70	0.00
627.85	16.38
628.00	21.06
628.15	39.79
628.30	110.01
628.45	91.28
628.60	86.60
628.76	53.83
628.91	91.28
629.06	105.32
629.21	42.13
629.36	58.51
629.51	51.49
629.66	70.22
629.81	49.15
629.96	18.72
630.11	91.28
630.26	114.69
630.41	44.47
630.56	53.83
630.71	11.70
630.86	44.47
631.01	95.96
631.16	100.64
631.31	81.92
631.46	135.75
631.61	72.56
631.76	56.17
631.91	46.81
632.06	30.43
632.21	67.88
632.36	37.45
632.51	84.26
632.66	65.54
632.81	32.77
632.96	46.81
633.10	9.36
633.25	7.02
633.40	4.68
633.55	56.17
633.70	32.77
633.85	58.51
634.00	0.00
634.15	81.92
634.30	100.64
634.45	16.38
634.60	21.06
634.75	74.90
634.90	72.56
635.05	0.00
635.19	23.41
635.34	32.77
635.49	95.96
635.64	72.56
635.79	60.85
635.94	135.75
636.09	84.26
636.24	58.51
636.39	70.22
636.53	37.45
636.68	28.09
636.83	14.04
636.98	46.81
637.13	114.69
637.28	81.92
637.43	39.79
637.57	56.17
637.72	74.90
637.87	46.81
638.02	23.41
638.17	74.90
638.32	53.83
638.46	140.43
638.61	7.02
638.76	32.77
638.91	16.38
639.06	81.92
639.20	44.47
639.35	133.41
639.50	4.68
639.65	37.45
639.80	70.22
639.94	0.00
640.09	84.26
640.24	46.81
640.39	35.11
640.54	65.54
640.68	28.09
640.83	124.05
640.98	30.43
641.13	88.94
641.27	135.75
641.42	84.26
641.57	25.75
641.72	0.00
641.86	44.47
642.01	91.28
642.16	70.22
642.31	9.36
642.45	77.24
642.60	56.17
642.75	105.32
642.90	114.69
643.04	44.47
643.19	39.79
643.34	119.37
643.48	58.51
643.63	117.03
643.78	74.90
643.93	84.26
644.07	28.09
644.22	79.58
644.37	84.26
644.51	88.94
644.66	32.77
644.81	44.47
644.95	51.49
645.10	56.17
645.25	84.26
645.39	39.79
645.54	51.49
645.69	39.79
645.83	65.54
645.98	30.43
646.13	65.54
646.27	65.54
646.42	100.64
646.57	84.26
646.71	51.49
646.86	0.00
647.00	56.17
647.15	4.68
647.30	56.17
647.44	110.01
647.59	42.13
647.74	74.90
647.88	39.79
648.03	81.92
648.17	133.41
648.32	7.02
648.47	39.79
648.61	32.77
648.76	51.49
648.90	63.19
649.05	102.98
649.20	14.04
649.34	65.54
649.49	72.56
649.63	21.06
649.78	37.45
649.92	67.88
650.07	35.11
650.21	58.51
650.36	93.62
650.51	28.09
650.65	84.26
650.80	2.34
650.94	46.81
651.09	0.00
651.23	110.01
651.38	67.88
651.52	88.94
651.67	7.02
651.81	119.37
651.96	18.72
652.10	16.38
652.25	14.04
652.39	30.43
652.54	86.60
652.68	28.09
652.83	42.13
652.97	65.54
653.12	77.24
653.26	72.56
653.41	70.22
653.55	79.58
653.70	145.11
653.84	0.00
653.99	42.13
654.13	11.70
654.27	74.90
654.42	58.51
654.56	4.68
654.71	65.54
654.85	121.71
655.00	32.77
655.14	72.56
655.29	21.06
655.43	30.43
655.57	0.00
655.72	51.49
655.86	51.49
656.01	9.36
656.15	51.49
656.30	51.49
656.44	105.32
656.58	49.15
656.73	0.00
656.87	0.00
657.01	21.06
657.16	112.35
657.30	119.37
657.45	110.01
657.59	60.85
657.73	124.05
657.88	142.77
658.02	44.47
658.16	18.72
658.31	0.00
658.45	112.35
658.60	16.38
658.74	37.45
658.88	32.77
659.03	51.49
659.17	37.45
659.31	51.49
659.46	51.49
659.60	60.85
659.74	28.09
659.89	21.06
660.03	0.00
660.17	51.49
660.32	84.26
660.46	86.60
660.60	46.81
660.74	0.00
660.89	28.09
661.03	28.09
661.17	0.00
661.32	39.79
661.46	72.56
661.60	117.03
661.74	56.17
661.89	56.17
662.03	28.09
662.17	53.83
662.31	42.13
662.46	163.84
662.60	16.38
662.74	65.54
662.88	67.88
663.03	11.70
663.17	32.77
663.31	100.64
663.45	46.81
663.60	37.45
663.74	63.19
663.88	70.22
664.02	37.45
664.17	105.32
664.31	18.72
664.45	28.09
664.59	77.24
664.73	14.04
664.88	93.62
665.02	28.09
665.16	2.34
665.30	56.17
665.44	44.47
665.59	88.94
665.73	121.71
665.87	81.92
666.01	0.00
666.15	147.45
666.29	65.54
666.44	105.32
666.58	39.79
666.72	98.30
666.86	46.81
667.00	51.49
667.14	107.66
667.28	25.75
667.43	42.13
667.57	72.56
667.71	28.09
667.85	32.77
667.99	42.13
668.13	30.43
668.27	9.36
668.41	56.17
668.56	37.45
668.70	81.92
668.84	72.56
668.98	65.54
669.12	86.60
669.26	107.66
669.40	77.24
669.54	42.13
669.68	18.72
669.82	49.15
669.96	23.41
670.10	14.04
670.25	0.00
670.39	25.75
670.53	93.62
670.67	4.68
670.81	11.70
670.95	23.41
671.09	95.96
671.23	110.01
671.37	51.49
671.51	46.81
671.65	42.13
671.79	25.75
671.93	58.51
672.07	0.00
672.21	88.94
672.35	91.28
672.49	88.94
672.63	0.00
672.77	51.49
672.91	93.62
673.05	23.41
673.19	53.83
673.33	74.90
673.47	100.64
673.61	63.19
673.75	32.77
673.89	32.77
674.03	18.72
674.17	58.51
674.31	51.49
674.45	70.22
674.59	0.00
674.73	0.00
674.87	93.62
675.01	53.83
675.15	16.38
675.29	9.36
675.43	49.15
675.56	25.75
675.70	32.77
675.84	0.00
675.98	135.75
676.12	86.60
676.26	91.28
676.40	28.09
676.54	37.45
676.68	21.06
676.82	56.17
676.96	121.71
677.10	72.56
677.23	95.96
677.37	44.47
677.51	112.35
677.65	121.71
677.79	105.32
677.93	28.09
678.07	112.35
678.21	44.47
678.34	7.02
678.48	86.60
678.62	70.22
678.76	72.56
678.90	0.00
679.04	58.51
679.18	58.51
679.31	53.83
679.45	105.32
679.59	37.45
679.73	117.03
679.87	60.85
680.00	49.15
680.14	21.06
680.28	2.34
680.42	2.34
680.56	0.00
680.70	32.77
680.83	49.15
680.97	70.22
681.11	0.00
681.25	60.85
681.39	56.17
681.52	60.85
681.66	88.94
681.80	84.26
681.94	21.06
682.07	72.56
682.21	37.45
682.35	14.04
682.49	2.34
682.62	84.26
682.76	72.56
682.90	30.43
683.04	4.68
683.17	58.51
683.31	18.72
683.45	79.58
683.59	44.47
683.72	39.79
683.86	51.49
684.00	25.75
684.13	7.02
684.27	9.36
684.41	51.49
684.55	42.13
684.68	86.60
684.82	25.75
684.96	14.04
685.09	0.00
685.23	30.43
685.37	35.11
685.50	67.88
685.64	84.26
685.78	93.62
685.91	0.00
686.05	0.00
686.19	4.68
686.32	100.64
686.46	9.36
686.60	86.60
686.73	46.81
686.87	72.56
687.01	117.03
687.14	37.45
687.28	60.85
687.42	9.36
687.55	2.34
687.69	91.28
687.82	21.06
687.96	46.81
688.10	0.00
688.23	51.49
688.37	67.88
688.50	37.45
688.64	0.00
688.78	14.04
688.91	81.92
689.05	49.15
689.18	32.77
689.32	16.38
689.46	4.68
689.59	44.47
689.73	0.00
689.86	81.92
690.00	14.04
690.13	32.77
690.27	30.43
690.41	0.00
690.54	81.92
690.68	46.81
690.81	86.60
690.95	58.51
691.08	77.24
691.22	60.85
691.35	25.75
691.49	0.00
691.62	32.77
691.76	18.72
691.89	16.38
692.03	39.79
692.16	79.58
692.30	16.38
692.43	58.51
692.57	0.00
692.70	0.00
692.84	49.15
692.97	0.00
693.11	84.26
693.24	32.77
693.38	53.83
693.51	32.77
693.65	25.75
693.78	65.54
693.92	72.56
694.05	51.49
694.19	35.11
694.32	7.02
694.45	51.49
694.59	77.24
694.72	21.06
694.86	65.54
694.99	56.17
695.13	0.00
695.26	32.77
695.39	30.43
695.53	39.79
695.66	77.24
695.80	81.92
695.93	23.41
696.07	7.02
696.20	0.00
696.33	0.00
696.47	0.00
696.60	60.85
696.73	39.79
696.87	30.43
697.00	18.72
697.14	74.90
697.27	63.19
697.40	53.83
697.54	53.83
697.67	81.92
697.80	7.02
697.94	145.11
698.07	58.51
698.21	95.96
698.34	65.54
698.47	23.41
698.61	9.36
698.74	25.75
698.87	21.06
699.01	16.38
699.14	72.56
699.27	11.70
699.40	124.05
699.54	58.51
699.67	56.17
699.80	60.85
699.94	74.90
700.07	32.77
700.20	39.79
700.34	77.24
700.47	49.15
700.60	23.41
700.73	84.26
700.87	2.34
701.00	28.09
701.13	67.88
701.26	42.13
701.40	21.06
701.53	0.00
701.66	28.09
701.79	0.00
701.93	46.81
702.06	28.09
702.19	77.24
702.32	21.06
702.46	53.83
702.59	51.49
702.72	0.00
702.85	35.11
702.99	28.09
703.12	32.77
703.25	86.60
703.38	0.00
703.51	49.15
703.65	28.09
703.78	16.38
703.91	53.83
704.04	30.43
704.17	35.11
704.31	39.79
704.44	46.81
704.57	84.26
704.70	79.58
704.83	79.58
704.96	65.54
705.10	0.00
705.23	9.36
>>>>>End Processed Spectral Data<<<<<
