SpectraSuite Data File
++++++++++++++++++++++++++++++++++++
Date: Fri Oct 04 12:13:24 GMT-05:00 2013
User: price-jones
Dark Spectrum Present: No
Reference Spectrum Present: No
Number of Sampled Component Spectra: 1
Spectrometers: USB2+H05261
Integration Time (usec): 10000 (USB2+H05261)
Spectra Averaged: 1 (USB2+H05261)
Boxcar Smoothing: 0 (USB2+H05261)
Correct for Electrical Dark: No (USB2+H05261)
Strobe/Lamp Enabled: No (USB2+H05261)
Correct for Detector Non-linearity: No (USB2+H05261)
Correct for Stray Light: No (USB2+H05261)
Number of Pixels in Processed Spectrum: 2048
>>>>>Begin Processed Spectral Data<<<<<
365.73	18.72
365.92	18.72
366.12	18.72
366.32	0.00
366.52	0.00
366.72	0.00
366.91	0.00
367.11	0.00
367.31	0.00
367.51	0.00
367.70	0.00
367.90	0.00
368.10	0.00
368.30	0.00
368.49	0.00
368.69	0.00
368.89	0.00
369.09	0.00
369.28	0.00
369.48	0.00
369.68	0.00
369.87	0.00
370.07	0.00
370.27	0.00
370.47	0.00
370.66	0.00
370.86	0.00
371.06	0.00
371.25	0.00
371.45	14.04
371.65	0.00
371.84	0.00
372.04	0.00
372.24	0.00
372.44	37.45
372.63	0.00
372.83	49.15
373.03	63.19
373.22	0.00
373.42	42.13
373.62	32.77
373.81	37.45
374.01	0.00
374.21	0.00
374.40	37.45
374.60	37.45
374.79	11.70
374.99	0.00
375.19	70.22
375.38	88.94
375.58	35.11
375.78	49.15
375.97	4.68
376.17	95.96
376.37	16.38
376.56	77.24
376.76	0.00
376.95	21.06
377.15	21.06
377.35	28.09
377.54	0.00
377.74	70.22
377.93	42.13
378.13	39.79
378.33	53.83
378.52	30.43
378.72	0.00
378.91	86.60
379.11	18.72
379.31	0.00
379.50	14.04
379.70	23.41
379.89	0.00
380.09	23.41
380.28	32.77
380.48	35.11
380.68	70.22
380.87	67.88
381.07	14.04
381.26	44.47
381.46	39.79
381.65	7.02
381.85	0.00
382.04	42.13
382.24	0.00
382.43	91.28
382.63	67.88
382.83	37.45
383.02	14.04
383.22	4.68
383.41	42.13
383.61	32.77
383.80	42.13
384.00	0.00
384.19	16.38
384.39	23.41
384.58	30.43
384.78	14.04
384.97	0.00
385.17	0.00
385.36	72.56
385.56	79.58
385.75	25.75
385.95	11.70
386.14	51.49
386.34	84.26
386.53	0.00
386.72	35.11
386.92	0.00
387.11	0.00
387.31	67.88
387.50	39.79
387.70	28.09
387.89	0.00
388.09	86.60
388.28	0.00
388.48	2.34
388.67	2.34
388.86	14.04
389.06	18.72
389.25	14.04
389.45	18.72
389.64	0.00
389.84	0.00
390.03	28.09
390.22	18.72
390.42	25.75
390.61	0.00
390.81	44.47
391.00	23.41
391.19	18.72
391.39	56.17
391.58	0.00
391.78	0.00
391.97	0.00
392.16	23.41
392.36	49.15
392.55	11.70
392.75	84.26
392.94	65.54
393.13	11.70
393.33	4.68
393.52	93.62
393.71	30.43
393.91	23.41
394.10	16.38
394.29	0.00
394.49	0.00
394.68	58.51
394.88	14.04
395.07	7.02
395.26	7.02
395.46	0.00
395.65	0.00
395.84	42.13
396.04	14.04
396.23	37.45
396.42	37.45
396.62	0.00
396.81	14.04
397.00	9.36
397.19	23.41
397.39	56.17
397.58	0.00
397.77	0.00
397.97	28.09
398.16	4.68
398.35	0.00
398.55	0.00
398.74	0.00
398.93	16.38
399.12	0.00
399.32	0.00
399.51	25.75
399.70	2.34
399.90	51.49
400.09	0.00
400.28	0.00
400.47	65.54
400.67	0.00
400.86	42.13
401.05	44.47
401.24	2.34
401.44	42.13
401.63	0.00
401.82	49.15
402.01	14.04
402.21	32.77
402.40	0.00
402.59	21.06
402.78	28.09
402.97	0.00
403.17	23.41
403.36	0.00
403.55	0.00
403.74	0.00
403.93	0.00
404.13	32.77
404.32	0.00
404.51	63.19
404.70	23.41
404.89	0.00
405.09	28.09
405.28	42.13
405.47	2.34
405.66	138.09
405.85	42.13
406.05	30.43
406.24	0.00
406.43	0.00
406.62	49.15
406.81	0.00
407.00	0.00
407.20	4.68
407.39	0.00
407.58	0.00
407.77	0.00
407.96	67.88
408.15	46.81
408.34	18.72
408.54	11.70
408.73	72.56
408.92	30.43
409.11	2.34
409.30	32.77
409.49	51.49
409.68	46.81
409.87	56.17
410.07	0.00
410.26	21.06
410.45	79.58
410.64	11.70
410.83	21.06
411.02	58.51
411.21	14.04
411.40	0.00
411.59	0.00
411.78	0.00
411.98	63.19
412.17	0.00
412.36	0.00
412.55	56.17
412.74	105.32
412.93	25.75
413.12	46.81
413.31	70.22
413.50	0.00
413.69	23.41
413.88	30.43
414.07	56.17
414.26	51.49
414.45	9.36
414.64	18.72
414.83	18.72
415.02	86.60
415.22	53.83
415.41	49.15
415.60	14.04
415.79	14.04
415.98	56.17
416.17	16.38
416.36	49.15
416.55	53.83
416.74	0.00
416.93	37.45
417.12	65.54
417.31	2.34
417.50	42.13
417.69	39.79
417.88	16.38
418.07	65.54
418.26	49.15
418.45	46.81
418.64	77.24
418.83	53.83
419.02	93.62
419.21	117.03
419.39	70.22
419.58	84.26
419.77	35.11
419.96	0.00
420.15	60.85
420.34	7.02
420.53	0.00
420.72	21.06
420.91	35.11
421.10	126.39
421.29	4.68
421.48	114.69
421.67	51.49
421.86	0.00
422.05	0.00
422.24	74.90
422.43	51.49
422.61	30.43
422.80	2.34
422.99	0.00
423.18	46.81
423.37	70.22
423.56	32.77
423.75	44.47
423.94	0.00
424.13	119.37
424.32	110.01
424.50	4.68
424.69	35.11
424.88	23.41
425.07	63.19
425.26	0.00
425.45	35.11
425.64	44.47
425.83	53.83
426.01	74.90
426.20	35.11
426.39	35.11
426.58	9.36
426.77	56.17
426.96	105.32
427.15	37.45
427.33	0.00
427.52	0.00
427.71	42.13
427.90	60.85
428.09	16.38
428.28	0.00
428.46	70.22
428.65	60.85
428.84	145.11
429.03	56.17
429.22	25.75
429.40	9.36
429.59	16.38
429.78	18.72
429.97	25.75
430.16	14.04
430.34	53.83
430.53	7.02
430.72	0.00
430.91	42.13
431.10	37.45
431.28	9.36
431.47	60.85
431.66	56.17
431.85	30.43
432.03	121.71
432.22	42.13
432.41	0.00
432.60	88.94
432.79	77.24
432.97	49.15
433.16	35.11
433.35	0.00
433.54	86.60
433.72	39.79
433.91	0.00
434.10	74.90
434.28	72.56
434.47	42.13
434.66	46.81
434.85	58.51
435.03	60.85
435.22	39.79
435.41	0.00
435.59	32.77
435.78	0.00
435.97	49.15
436.16	0.00
436.34	46.81
436.53	35.11
436.72	42.13
436.90	86.60
437.09	35.11
437.28	117.03
437.46	39.79
437.65	77.24
437.84	84.26
438.02	49.15
438.21	35.11
438.40	7.02
438.58	58.51
438.77	74.90
438.96	79.58
439.14	0.00
439.33	0.00
439.52	30.43
439.70	11.70
439.89	0.00
440.08	0.00
440.26	49.15
440.45	0.00
440.63	0.00
440.82	0.00
441.01	42.13
441.19	28.09
441.38	35.11
441.57	102.98
441.75	58.51
441.94	14.04
442.12	37.45
442.31	58.51
442.50	25.75
442.68	44.47
442.87	49.15
443.05	39.79
443.24	0.00
443.43	16.38
443.61	67.88
443.80	0.00
443.98	72.56
444.17	37.45
444.35	28.09
444.54	21.06
444.73	44.47
444.91	0.00
445.10	0.00
445.28	46.81
445.47	42.13
445.65	53.83
445.84	49.15
446.02	4.68
446.21	30.43
446.39	0.00
446.58	30.43
446.77	81.92
446.95	44.47
447.14	56.17
447.32	4.68
447.51	0.00
447.69	25.75
447.88	0.00
448.06	30.43
448.25	44.47
448.43	0.00
448.62	65.54
448.80	23.41
448.99	88.94
449.17	0.00
449.36	70.22
449.54	0.00
449.73	25.75
449.91	58.51
450.10	37.45
450.28	60.85
450.46	14.04
450.65	102.98
450.83	0.00
451.02	110.01
451.20	88.94
451.39	28.09
451.57	0.00
451.76	9.36
451.94	0.00
452.13	16.38
452.31	18.72
452.49	53.83
452.68	0.00
452.86	0.00
453.05	0.00
453.23	42.13
453.42	88.94
453.60	0.00
453.78	21.06
453.97	49.15
454.15	0.00
454.34	16.38
454.52	35.11
454.70	18.72
454.89	44.47
455.07	7.02
455.26	18.72
455.44	0.00
455.62	16.38
455.81	21.06
455.99	51.49
456.17	0.00
456.36	11.70
456.54	42.13
456.73	0.00
456.91	25.75
457.09	53.83
457.28	67.88
457.46	16.38
457.64	60.85
457.83	46.81
458.01	0.00
458.19	60.85
458.38	56.17
458.56	35.11
458.74	72.56
458.93	51.49
459.11	72.56
459.29	60.85
459.48	0.00
459.66	56.17
459.84	18.72
460.03	56.17
460.21	9.36
460.39	49.15
460.57	72.56
460.76	44.47
460.94	35.11
461.12	30.43
461.31	0.00
461.49	35.11
461.67	110.01
461.85	0.00
462.04	0.00
462.22	70.22
462.40	23.41
462.59	16.38
462.77	86.60
462.95	51.49
463.13	51.49
463.32	16.38
463.50	53.83
463.68	67.88
463.86	18.72
464.05	77.24
464.23	100.64
464.41	0.00
464.59	0.00
464.78	30.43
464.96	0.00
465.14	14.04
465.32	88.94
465.50	21.06
465.69	65.54
465.87	14.04
466.05	23.41
466.23	28.09
466.41	23.41
466.60	74.90
466.78	91.28
466.96	77.24
467.14	67.88
467.32	67.88
467.51	11.70
467.69	7.02
467.87	35.11
468.05	37.45
468.23	28.09
468.41	0.00
468.60	65.54
468.78	53.83
468.96	37.45
469.14	25.75
469.32	0.00
469.50	58.51
469.69	0.00
469.87	42.13
470.05	74.90
470.23	37.45
470.41	49.15
470.59	30.43
470.77	74.90
470.95	18.72
471.14	42.13
471.32	25.75
471.50	0.00
471.68	30.43
471.86	42.13
472.04	51.49
472.22	72.56
472.40	65.54
472.58	11.70
472.77	25.75
472.95	9.36
473.13	7.02
473.31	51.49
473.49	9.36
473.67	9.36
473.85	0.00
474.03	84.26
474.21	0.00
474.39	0.00
474.57	42.13
474.75	49.15
474.93	28.09
475.12	37.45
475.30	14.04
475.48	51.49
475.66	37.45
475.84	42.13
476.02	7.02
476.20	63.19
476.38	95.96
476.56	39.79
476.74	14.04
476.92	21.06
477.10	91.28
477.28	72.56
477.46	53.83
477.64	65.54
477.82	39.79
478.00	9.36
478.18	0.00
478.36	0.00
478.54	16.38
478.72	86.60
478.90	79.58
479.08	28.09
479.26	9.36
479.44	49.15
479.62	42.13
479.80	74.90
479.98	53.83
480.16	44.47
480.34	39.79
480.52	46.81
480.70	46.81
480.88	42.13
481.06	51.49
481.24	49.15
481.41	0.00
481.59	35.11
481.77	84.26
481.95	0.00
482.13	32.77
482.31	39.79
482.49	72.56
482.67	16.38
482.85	60.85
483.03	0.00
483.21	25.75
483.39	74.90
483.57	0.00
483.74	42.13
483.92	49.15
484.10	28.09
484.28	18.72
484.46	60.85
484.64	32.77
484.82	28.09
485.00	72.56
485.18	32.77
485.35	0.00
485.53	42.13
485.71	32.77
485.89	0.00
486.07	44.47
486.25	67.88
486.43	44.47
486.61	91.28
486.78	0.00
486.96	88.94
487.14	56.17
487.32	70.22
487.50	60.85
487.68	95.96
487.85	67.88
488.03	9.36
488.21	0.00
488.39	18.72
488.57	70.22
488.75	63.19
488.92	35.11
489.10	30.43
489.28	81.92
489.46	0.00
489.64	0.00
489.81	0.00
489.99	23.41
490.17	0.00
490.35	7.02
490.53	105.32
490.70	42.13
490.88	121.71
491.06	30.43
491.24	51.49
491.41	28.09
491.59	0.00
491.77	72.56
491.95	60.85
492.13	77.24
492.30	79.58
492.48	0.00
492.66	112.35
492.84	51.49
493.01	53.83
493.19	0.00
493.37	2.34
493.54	32.77
493.72	14.04
493.90	42.13
494.08	16.38
494.25	102.98
494.43	16.38
494.61	9.36
494.79	18.72
494.96	60.85
495.14	88.94
495.32	112.35
495.49	14.04
495.67	21.06
495.85	56.17
496.02	67.88
496.20	46.81
496.38	0.00
496.55	14.04
496.73	2.34
496.91	42.13
497.09	11.70
497.26	105.32
497.44	25.75
497.62	56.17
497.79	28.09
497.97	65.54
498.14	91.28
498.32	110.01
498.50	14.04
498.67	53.83
498.85	0.00
499.03	0.00
499.20	67.88
499.38	44.47
499.56	63.19
499.73	126.39
499.91	88.94
500.08	2.34
500.26	93.62
500.44	49.15
500.61	25.75
500.79	4.68
500.97	0.00
501.14	84.26
501.32	0.00
501.49	28.09
501.67	67.88
501.84	0.00
502.02	0.00
502.20	0.00
502.37	49.15
502.55	11.70
502.72	79.58
502.90	25.75
503.07	124.05
503.25	18.72
503.43	44.47
503.60	98.30
503.78	86.60
503.95	81.92
504.13	53.83
504.30	39.79
504.48	23.41
504.65	28.09
504.83	7.02
505.01	56.17
505.18	70.22
505.36	42.13
505.53	95.96
505.71	30.43
505.88	67.88
506.06	37.45
506.23	0.00
506.41	72.56
506.58	56.17
506.76	30.43
506.93	32.77
507.11	72.56
507.28	0.00
507.46	72.56
507.63	86.60
507.81	30.43
507.98	56.17
508.16	86.60
508.33	14.04
508.50	30.43
508.68	0.00
508.85	14.04
509.03	74.90
509.20	0.00
509.38	28.09
509.55	58.51
509.73	98.30
509.90	65.54
510.08	2.34
510.25	14.04
510.42	28.09
510.60	2.34
510.77	63.19
510.95	58.51
511.12	100.64
511.30	37.45
511.47	67.88
511.64	63.19
511.82	44.47
511.99	86.60
512.17	9.36
512.34	84.26
512.51	44.47
512.69	25.75
512.86	0.00
513.04	42.13
513.21	70.22
513.38	25.75
513.56	32.77
513.73	30.43
513.90	30.43
514.08	39.79
514.25	110.01
514.43	21.06
514.60	32.77
514.77	74.90
514.95	95.96
515.12	93.62
515.29	28.09
515.47	74.90
515.64	100.64
515.81	0.00
515.99	37.45
516.16	84.26
516.33	23.41
516.51	39.79
516.68	4.68
516.85	28.09
517.03	0.00
517.20	72.56
517.37	7.02
517.54	56.17
517.72	58.51
517.89	4.68
518.06	58.51
518.24	79.58
518.41	107.66
518.58	42.13
518.75	0.00
518.93	30.43
519.10	39.79
519.27	4.68
519.45	11.70
519.62	14.04
519.79	32.77
519.96	117.03
520.14	39.79
520.31	65.54
520.48	67.88
520.65	67.88
520.83	42.13
521.00	35.11
521.17	0.00
521.34	44.47
521.52	21.06
521.69	72.56
521.86	42.13
522.03	30.43
522.20	42.13
522.38	44.47
522.55	28.09
522.72	14.04
522.89	42.13
523.07	0.00
523.24	23.41
523.41	32.77
523.58	0.00
523.75	23.41
523.92	86.60
524.10	121.71
524.27	28.09
524.44	63.19
524.61	56.17
524.78	60.85
524.96	0.00
525.13	18.72
525.30	0.00
525.47	0.00
525.64	44.47
525.81	14.04
525.98	79.58
526.16	30.43
526.33	0.00
526.50	7.02
526.67	51.49
526.84	7.02
527.01	21.06
527.18	28.09
527.36	53.83
527.53	70.22
527.70	74.90
527.87	42.13
528.04	60.85
528.21	16.38
528.38	25.75
528.55	2.34
528.72	70.22
528.89	39.79
529.07	77.24
529.24	67.88
529.41	21.06
529.58	79.58
529.75	74.90
529.92	42.13
530.09	25.75
530.26	70.22
530.43	32.77
530.60	32.77
530.77	63.19
530.94	74.90
531.11	119.37
531.28	67.88
531.46	56.17
531.63	72.56
531.80	105.32
531.97	44.47
532.14	44.47
532.31	79.58
532.48	39.79
532.65	105.32
532.82	51.49
532.99	88.94
533.16	14.04
533.33	60.85
533.50	112.35
533.67	11.70
533.84	53.83
534.01	105.32
534.18	46.81
534.35	84.26
534.52	53.83
534.69	35.11
534.86	32.77
535.03	32.77
535.20	84.26
535.37	21.06
535.54	23.41
535.71	44.47
535.88	88.94
536.05	74.90
536.22	42.13
536.38	0.00
536.55	18.72
536.72	2.34
536.89	74.90
537.06	58.51
537.23	9.36
537.40	0.00
537.57	4.68
537.74	0.00
537.91	63.19
538.08	56.17
538.25	32.77
538.42	16.38
538.59	58.51
538.75	4.68
538.92	58.51
539.09	79.58
539.26	102.98
539.43	23.41
539.60	77.24
539.77	51.49
539.94	7.02
540.11	18.72
540.28	79.58
540.44	112.35
540.61	30.43
540.78	60.85
540.95	56.17
541.12	53.83
541.29	60.85
541.46	67.88
541.62	95.96
541.79	18.72
541.96	88.94
542.13	23.41
542.30	133.41
542.47	107.66
542.63	67.88
542.80	51.49
542.97	114.69
543.14	44.47
543.31	60.85
543.48	39.79
543.64	72.56
543.81	133.41
543.98	0.00
544.15	32.77
544.32	25.75
544.48	2.34
544.65	30.43
544.82	39.79
544.99	0.00
545.16	7.02
545.32	49.15
545.49	58.51
545.66	14.04
545.83	16.38
546.00	72.56
546.16	2.34
546.33	51.49
546.50	25.75
546.67	0.00
546.83	39.79
547.00	110.01
547.17	56.17
547.34	2.34
547.50	42.13
547.67	4.68
547.84	49.15
548.00	93.62
548.17	56.17
548.34	58.51
548.51	37.45
548.67	70.22
548.84	21.06
549.01	37.45
549.18	25.75
549.34	63.19
549.51	28.09
549.68	14.04
549.84	39.79
550.01	86.60
550.18	7.02
550.34	18.72
550.51	0.00
550.68	18.72
550.84	163.84
551.01	67.88
551.18	60.85
551.34	16.38
551.51	51.49
551.68	60.85
551.84	42.13
552.01	0.00
552.18	21.06
552.34	102.98
552.51	4.68
552.68	28.09
552.84	0.00
553.01	25.75
553.18	21.06
553.34	77.24
553.51	74.90
553.67	110.01
553.84	53.83
554.01	93.62
554.17	70.22
554.34	4.68
554.51	0.00
554.67	72.56
554.84	72.56
555.00	2.34
555.17	49.15
555.33	91.28
555.50	37.45
555.67	74.90
555.83	7.02
556.00	32.77
556.16	70.22
556.33	18.72
556.50	74.90
556.66	32.77
556.83	49.15
556.99	77.24
557.16	46.81
557.32	37.45
557.49	53.83
557.65	93.62
557.82	39.79
557.98	105.32
558.15	58.51
558.32	86.60
558.48	0.00
558.65	0.00
558.81	84.26
558.98	91.28
559.14	44.47
559.31	79.58
559.47	63.19
559.64	60.85
559.80	74.90
559.97	95.96
560.13	32.77
560.30	11.70
560.46	32.77
560.63	0.00
560.79	0.00
560.96	58.51
561.12	70.22
561.29	0.00
561.45	42.13
561.61	9.36
561.78	63.19
561.94	25.75
562.11	32.77
562.27	49.15
562.44	18.72
562.60	23.41
562.77	105.32
562.93	100.64
563.10	25.75
563.26	81.92
563.42	0.00
563.59	35.11
563.75	77.24
563.92	79.58
564.08	65.54
564.24	65.54
564.41	91.28
564.57	21.06
564.74	140.43
564.90	84.26
565.07	25.75
565.23	117.03
565.39	53.83
565.56	37.45
565.72	56.17
565.88	65.54
566.05	18.72
566.21	23.41
566.38	0.00
566.54	2.34
566.70	79.58
566.87	46.81
567.03	49.15
567.19	4.68
567.36	23.41
567.52	37.45
567.68	58.51
567.85	51.49
568.01	0.00
568.17	0.00
568.34	30.43
568.50	65.54
568.66	44.47
568.83	63.19
568.99	18.72
569.15	0.00
569.32	42.13
569.48	84.26
569.64	110.01
569.81	25.75
569.97	0.00
570.13	42.13
570.30	0.00
570.46	11.70
570.62	49.15
570.78	95.96
570.95	95.96
571.11	25.75
571.27	77.24
571.43	58.51
571.60	18.72
571.76	4.68
571.92	39.79
572.09	58.51
572.25	0.00
572.41	67.88
572.57	25.75
572.74	0.00
572.90	95.96
573.06	49.15
573.22	32.77
573.38	65.54
573.55	9.36
573.71	79.58
573.87	74.90
574.03	91.28
574.20	49.15
574.36	77.24
574.52	56.17
574.68	60.85
574.84	79.58
575.01	63.19
575.17	2.34
575.33	49.15
575.49	11.70
575.65	42.13
575.82	53.83
575.98	32.77
576.14	112.35
576.30	105.32
576.46	56.17
576.62	72.56
576.79	0.00
576.95	74.90
577.11	86.60
577.27	107.66
577.43	44.47
577.59	0.00
577.75	2.34
577.92	30.43
578.08	70.22
578.24	72.56
578.40	53.83
578.56	25.75
578.72	0.00
578.88	88.94
579.04	77.24
579.21	21.06
579.37	70.22
579.53	107.66
579.69	28.09
579.85	0.00
580.01	0.00
580.17	67.88
580.33	14.04
580.49	0.00
580.65	135.75
580.82	74.90
580.98	16.38
581.14	21.06
581.30	18.72
581.46	23.41
581.62	58.51
581.78	18.72
581.94	53.83
582.10	35.11
582.26	37.45
582.42	7.02
582.58	81.92
582.74	46.81
582.90	0.00
583.06	46.81
583.22	60.85
583.38	37.45
583.54	46.81
583.70	91.28
583.86	14.04
584.02	21.06
584.18	46.81
584.34	0.00
584.50	49.15
584.66	25.75
584.82	53.83
584.98	56.17
585.14	18.72
585.30	51.49
585.46	84.26
585.62	133.41
585.78	46.81
585.94	84.26
586.10	37.45
586.26	37.45
586.42	98.30
586.58	0.00
586.74	0.00
586.90	9.36
587.06	67.88
587.22	93.62
587.38	88.94
587.54	138.09
587.70	21.06
587.86	102.98
588.02	0.00
588.18	51.49
588.34	70.22
588.49	51.49
588.65	23.41
588.81	4.68
588.97	46.81
589.13	65.54
589.29	2.34
589.45	16.38
589.61	53.83
589.77	46.81
589.93	4.68
590.08	28.09
590.24	49.15
590.40	4.68
590.56	93.62
590.72	98.30
590.88	102.98
591.04	65.54
591.20	60.85
591.35	72.56
591.51	53.83
591.67	79.58
591.83	21.06
591.99	35.11
592.15	79.58
592.31	60.85
592.46	56.17
592.62	28.09
592.78	4.68
592.94	51.49
593.10	102.98
593.26	86.60
593.41	58.51
593.57	98.30
593.73	35.11
593.89	39.79
594.05	53.83
594.20	124.05
594.36	67.88
594.52	49.15
594.68	79.58
594.84	0.00
594.99	67.88
595.15	23.41
595.31	44.47
595.47	53.83
595.62	86.60
595.78	102.98
595.94	58.51
596.10	98.30
596.25	0.00
596.41	14.04
596.57	74.90
596.73	0.00
596.88	42.13
597.04	65.54
597.20	112.35
597.36	81.92
597.51	4.68
597.67	0.00
597.83	23.41
597.99	63.19
598.14	4.68
598.30	16.38
598.46	65.54
598.61	135.75
598.77	98.30
598.93	44.47
599.09	0.00
599.24	18.72
599.40	58.51
599.56	42.13
599.71	49.15
599.87	30.43
600.03	16.38
600.18	70.22
600.34	58.51
600.50	56.17
600.65	25.75
600.81	98.30
600.97	44.47
601.12	100.64
601.28	86.60
601.44	53.83
601.59	53.83
601.75	37.45
601.91	67.88
602.06	18.72
602.22	67.88
602.37	49.15
602.53	42.13
602.69	37.45
602.84	86.60
603.00	53.83
603.16	72.56
603.31	21.06
603.47	67.88
603.62	91.28
603.78	67.88
603.94	72.56
604.09	0.00
604.25	0.00
604.40	14.04
604.56	49.15
604.71	2.34
604.87	0.00
605.03	117.03
605.18	11.70
605.34	79.58
605.49	9.36
605.65	65.54
605.80	70.22
605.96	35.11
606.12	53.83
606.27	39.79
606.43	35.11
606.58	60.85
606.74	107.66
606.89	58.51
607.05	70.22
607.20	56.17
607.36	110.01
607.51	23.41
607.67	100.64
607.82	56.17
607.98	121.71
608.13	102.98
608.29	37.45
608.44	37.45
608.60	72.56
608.75	37.45
608.91	9.36
609.06	35.11
609.22	37.45
609.37	7.02
609.53	0.00
609.68	81.92
609.84	0.00
609.99	65.54
610.15	95.96
610.30	30.43
610.46	60.85
610.61	0.00
610.76	37.45
610.92	91.28
611.07	30.43
611.23	46.81
611.38	67.88
611.54	58.51
611.69	0.00
611.84	35.11
612.00	51.49
612.15	32.77
612.31	21.06
612.46	0.00
612.62	49.15
612.77	30.43
612.92	70.22
613.08	23.41
613.23	49.15
613.39	46.81
613.54	121.71
613.69	70.22
613.85	135.75
614.00	30.43
614.15	30.43
614.31	21.06
614.46	49.15
614.62	58.51
614.77	11.70
614.92	0.00
615.08	37.45
615.23	49.15
615.38	56.17
615.54	44.47
615.69	25.75
615.84	42.13
616.00	0.00
616.15	37.45
616.30	35.11
616.46	4.68
616.61	63.19
616.76	44.47
616.92	81.92
617.07	65.54
617.22	84.26
617.37	65.54
617.53	67.88
617.68	35.11
617.83	93.62
617.99	23.41
618.14	32.77
618.29	14.04
618.45	21.06
618.60	77.24
618.75	25.75
618.90	46.81
619.06	84.26
619.21	46.81
619.36	0.00
619.51	58.51
619.67	88.94
619.82	23.41
619.97	72.56
620.12	4.68
620.28	0.00
620.43	81.92
620.58	74.90
620.73	32.77
620.89	56.17
621.04	28.09
621.19	60.85
621.34	23.41
621.49	58.51
621.65	18.72
621.80	37.45
621.95	63.19
622.10	42.13
622.25	14.04
622.41	35.11
622.56	65.54
622.71	67.88
622.86	23.41
623.01	0.00
623.16	51.49
623.32	39.79
623.47	56.17
623.62	100.64
623.77	72.56
623.92	53.83
624.07	4.68
624.23	4.68
624.38	35.11
624.53	95.96
624.68	0.00
624.83	0.00
624.98	0.00
625.13	4.68
625.29	0.00
625.44	58.51
625.59	128.73
625.74	28.09
625.89	105.32
626.04	30.43
626.19	23.41
626.34	18.72
626.49	0.00
626.65	84.26
626.80	0.00
626.95	72.56
627.10	98.30
627.25	23.41
627.40	49.15
627.55	39.79
627.70	23.41
627.85	58.51
628.00	7.02
628.15	51.49
628.30	39.79
628.45	4.68
628.60	37.45
628.76	0.00
628.91	39.79
629.06	18.72
629.21	72.56
629.36	98.30
629.51	14.04
629.66	23.41
629.81	72.56
629.96	60.85
630.11	72.56
630.26	46.81
630.41	84.26
630.56	70.22
630.71	46.81
630.86	28.09
631.01	46.81
631.16	58.51
631.31	23.41
631.46	67.88
631.61	53.83
631.76	18.72
631.91	58.51
632.06	56.17
632.21	44.47
632.36	72.56
632.51	30.43
632.66	37.45
632.81	23.41
632.96	110.01
633.10	65.54
633.25	98.30
633.40	25.75
633.55	58.51
633.70	53.83
633.85	60.85
634.00	0.00
634.15	14.04
634.30	42.13
634.45	149.79
634.60	53.83
634.75	42.13
634.90	51.49
635.05	14.04
635.19	58.51
635.34	53.83
635.49	9.36
635.64	0.00
635.79	0.00
635.94	18.72
636.09	91.28
636.24	105.32
636.39	28.09
636.53	35.11
636.68	51.49
636.83	58.51
636.98	51.49
637.13	11.70
637.28	16.38
637.43	11.70
637.57	23.41
637.72	21.06
637.87	102.98
638.02	44.47
638.17	95.96
638.32	0.00
638.46	2.34
638.61	39.79
638.76	65.54
638.91	91.28
639.06	86.60
639.20	7.02
639.35	0.00
639.50	60.85
639.65	72.56
639.80	11.70
639.94	53.83
640.09	21.06
640.24	60.85
640.39	67.88
640.54	65.54
640.68	42.13
640.83	14.04
640.98	28.09
641.13	0.00
641.27	9.36
641.42	11.70
641.57	9.36
641.72	51.49
641.86	30.43
642.01	0.00
642.16	28.09
642.31	44.47
642.45	84.26
642.60	16.38
642.75	37.45
642.90	70.22
643.04	63.19
643.19	21.06
643.34	58.51
643.48	49.15
643.63	18.72
643.78	23.41
643.93	51.49
644.07	53.83
644.22	67.88
644.37	28.09
644.51	30.43
644.66	70.22
644.81	42.13
644.95	39.79
645.10	0.00
645.25	7.02
645.39	56.17
645.54	9.36
645.69	84.26
645.83	42.13
645.98	95.96
646.13	84.26
646.27	14.04
646.42	23.41
646.57	124.05
646.71	30.43
646.86	16.38
647.00	72.56
647.15	21.06
647.30	4.68
647.44	0.00
647.59	30.43
647.74	60.85
647.88	9.36
648.03	63.19
648.17	39.79
648.32	49.15
648.47	39.79
648.61	0.00
648.76	105.32
648.90	16.38
649.05	46.81
649.20	79.58
649.34	67.88
649.49	39.79
649.63	46.81
649.78	18.72
649.92	0.00
650.07	70.22
650.21	9.36
650.36	16.38
650.51	51.49
650.65	14.04
650.80	102.98
650.94	74.90
651.09	42.13
651.23	63.19
651.38	58.51
651.52	0.00
651.67	42.13
651.81	37.45
651.96	11.70
652.10	23.41
652.25	56.17
652.39	23.41
652.54	0.00
652.68	11.70
652.83	0.00
652.97	35.11
653.12	0.00
653.26	65.54
653.41	53.83
653.55	74.90
653.70	74.90
653.84	51.49
653.99	28.09
654.13	0.00
654.27	9.36
654.42	67.88
654.56	2.34
654.71	11.70
654.85	0.00
655.00	0.00
655.14	105.32
655.29	86.60
655.43	0.00
655.57	2.34
655.72	65.54
655.86	0.00
656.01	21.06
656.15	49.15
656.30	49.15
656.44	28.09
656.58	0.00
656.73	51.49
656.87	77.24
657.01	88.94
657.16	7.02
657.30	21.06
657.45	72.56
657.59	72.56
657.73	0.00
657.88	0.00
658.02	49.15
658.16	0.00
658.31	7.02
658.45	18.72
658.60	44.47
658.74	65.54
658.88	18.72
659.03	42.13
659.17	4.68
659.31	30.43
659.46	0.00
659.60	49.15
659.74	42.13
659.89	32.77
660.03	0.00
660.17	0.00
660.32	37.45
660.46	0.00
660.60	35.11
660.74	42.13
660.89	0.00
661.03	42.13
661.17	0.00
661.32	23.41
661.46	0.00
661.60	7.02
661.74	9.36
661.89	44.47
662.03	25.75
662.17	0.00
662.31	51.49
662.46	7.02
662.60	91.28
662.74	65.54
662.88	0.00
663.03	39.79
663.17	0.00
663.31	42.13
663.45	53.83
663.60	35.11
663.74	0.00
663.88	25.75
664.02	88.94
664.17	14.04
664.31	35.11
664.45	86.60
664.59	77.24
664.73	21.06
664.88	18.72
665.02	0.00
665.16	42.13
665.30	21.06
665.44	28.09
665.59	74.90
665.73	11.70
665.87	67.88
666.01	0.00
666.15	0.00
666.29	23.41
666.44	60.85
666.58	128.73
666.72	81.92
666.86	58.51
667.00	0.00
667.14	74.90
667.28	32.77
667.43	72.56
667.57	0.00
667.71	21.06
667.85	49.15
667.99	14.04
668.13	18.72
668.27	28.09
668.41	0.00
668.56	53.83
668.70	72.56
668.84	14.04
668.98	0.00
669.12	49.15
669.26	100.64
669.40	14.04
669.54	67.88
669.68	7.02
669.82	0.00
669.96	79.58
670.10	0.00
670.25	84.26
670.39	14.04
670.53	37.45
670.67	39.79
670.81	39.79
670.95	30.43
671.09	32.77
671.23	2.34
671.37	65.54
671.51	46.81
671.65	23.41
671.79	163.84
671.93	0.00
672.07	53.83
672.21	107.66
672.35	84.26
672.49	63.19
672.63	49.15
672.77	107.66
672.91	79.58
673.05	60.85
673.19	77.24
673.33	9.36
673.47	28.09
673.61	63.19
673.75	88.94
673.89	0.00
674.03	11.70
674.17	46.81
674.31	63.19
674.45	51.49
674.59	46.81
674.73	46.81
674.87	53.83
675.01	46.81
675.15	84.26
675.29	63.19
675.43	0.00
675.56	42.13
675.70	0.00
675.84	56.17
675.98	7.02
676.12	51.49
676.26	30.43
676.40	44.47
676.54	21.06
676.68	0.00
676.82	81.92
676.96	23.41
677.10	0.00
677.23	0.00
677.37	51.49
677.51	53.83
677.65	35.11
677.79	0.00
677.93	18.72
678.07	67.88
678.21	79.58
678.34	81.92
678.48	0.00
678.62	28.09
678.76	49.15
678.90	88.94
679.04	0.00
679.18	14.04
679.31	0.00
679.45	74.90
679.59	7.02
679.73	51.49
679.87	4.68
680.00	37.45
680.14	58.51
680.28	46.81
680.42	86.60
680.56	63.19
680.70	9.36
680.83	18.72
680.97	0.00
681.11	0.00
681.25	21.06
681.39	16.38
681.52	37.45
681.66	23.41
681.80	30.43
681.94	67.88
682.07	0.00
682.21	105.32
682.35	37.45
682.49	25.75
682.62	58.51
682.76	42.13
682.90	0.00
683.04	56.17
683.17	28.09
683.31	23.41
683.45	0.00
683.59	72.56
683.72	0.00
683.86	32.77
684.00	51.49
684.13	30.43
684.27	7.02
684.41	88.94
684.55	0.00
684.68	74.90
684.82	0.00
684.96	23.41
685.09	65.54
685.23	46.81
685.37	0.00
685.50	0.00
685.64	65.54
685.78	84.26
685.91	25.75
686.05	37.45
686.19	35.11
686.32	91.28
686.46	42.13
686.60	53.83
686.73	0.00
686.87	28.09
687.01	9.36
687.14	53.83
687.28	44.47
687.42	14.04
687.55	4.68
687.69	107.66
687.82	81.92
687.96	0.00
688.10	0.00
688.23	102.98
688.37	25.75
688.50	35.11
688.64	11.70
688.78	35.11
688.91	72.56
689.05	51.49
689.18	51.49
689.32	44.47
689.46	51.49
689.59	2.34
689.73	114.69
689.86	72.56
690.00	14.04
690.13	0.00
690.27	42.13
690.41	23.41
690.54	46.81
690.68	56.17
690.81	23.41
690.95	16.38
691.08	9.36
691.22	0.00
691.35	0.00
691.49	65.54
691.62	0.00
691.76	60.85
691.89	60.85
692.03	32.77
692.16	25.75
692.30	14.04
692.43	42.13
692.57	0.00
692.70	67.88
692.84	58.51
692.97	39.79
693.11	0.00
693.24	37.45
693.38	65.54
693.51	32.77
693.65	107.66
693.78	0.00
693.92	35.11
694.05	32.77
694.19	7.02
694.32	56.17
694.45	11.70
694.59	58.51
694.72	11.70
694.86	39.79
694.99	60.85
695.13	21.06
695.26	11.70
695.39	112.35
695.53	65.54
695.66	14.04
695.80	42.13
695.93	124.05
696.07	49.15
696.20	23.41
696.33	30.43
696.47	28.09
696.60	49.15
696.73	46.81
696.87	0.00
697.00	0.00
697.14	91.28
697.27	60.85
697.40	46.81
697.54	0.00
697.67	28.09
697.80	0.00
697.94	0.00
698.07	0.00
698.21	0.00
698.34	0.00
698.47	49.15
698.61	93.62
698.74	25.75
698.87	28.09
699.01	0.00
699.14	18.72
699.27	0.00
699.40	72.56
699.54	11.70
699.67	0.00
699.80	4.68
699.94	0.00
700.07	44.47
700.20	14.04
700.34	77.24
700.47	7.02
700.60	0.00
700.73	14.04
700.87	95.96
701.00	28.09
701.13	0.00
701.26	0.00
701.40	37.45
701.53	58.51
701.66	28.09
701.79	98.30
701.93	23.41
702.06	9.36
702.19	81.92
702.32	63.19
702.46	51.49
702.59	28.09
702.72	14.04
702.85	0.00
702.99	7.02
703.12	91.28
703.25	7.02
703.38	23.41
703.51	9.36
703.65	7.02
703.78	49.15
703.91	18.72
704.04	35.11
704.17	51.49
704.31	117.03
704.44	14.04
704.57	30.43
704.70	0.00
704.83	0.00
704.96	0.00
705.10	35.11
705.23	2.34
>>>>>End Processed Spectral Data<<<<<
