SpectraSuite Data File
++++++++++++++++++++++++++++++++++++
Date: Fri Oct 04 12:13:24 GMT-05:00 2013
User: price-jones
Dark Spectrum Present: No
Reference Spectrum Present: No
Number of Sampled Component Spectra: 1
Spectrometers: USB2+H05261
Integration Time (usec): 10000 (USB2+H05261)
Spectra Averaged: 1 (USB2+H05261)
Boxcar Smoothing: 0 (USB2+H05261)
Correct for Electrical Dark: No (USB2+H05261)
Strobe/Lamp Enabled: No (USB2+H05261)
Correct for Detector Non-linearity: No (USB2+H05261)
Correct for Stray Light: No (USB2+H05261)
Number of Pixels in Processed Spectrum: 2048
>>>>>Begin Processed Spectral Data<<<<<
365.73	51.49
365.92	51.49
366.12	51.49
366.32	0.00
366.52	0.00
366.72	0.00
366.91	0.00
367.11	0.00
367.31	0.00
367.51	0.00
367.70	0.00
367.90	0.00
368.10	0.00
368.30	0.00
368.49	0.00
368.69	0.00
368.89	0.00
369.09	0.00
369.28	0.00
369.48	0.00
369.68	0.00
369.87	0.00
370.07	0.00
370.27	0.00
370.47	0.00
370.66	0.00
370.86	0.00
371.06	0.00
371.25	21.06
371.45	2.34
371.65	0.00
371.84	18.72
372.04	0.00
372.24	30.43
372.44	0.00
372.63	0.00
372.83	0.00
373.03	128.73
373.22	0.00
373.42	46.81
373.62	0.00
373.81	18.72
374.01	35.11
374.21	32.77
374.40	25.75
374.60	39.79
374.79	4.68
374.99	30.43
375.19	70.22
375.38	65.54
375.58	72.56
375.78	11.70
375.97	74.90
376.17	0.00
376.37	74.90
376.56	117.03
376.76	32.77
376.95	0.00
377.15	0.00
377.35	0.00
377.54	9.36
377.74	51.49
377.93	23.41
378.13	0.00
378.33	81.92
378.52	39.79
378.72	2.34
378.91	25.75
379.11	0.00
379.31	0.00
379.50	0.00
379.70	14.04
379.89	42.13
380.09	21.06
380.28	0.00
380.48	30.43
380.68	0.00
380.87	16.38
381.07	35.11
381.26	35.11
381.46	16.38
381.65	23.41
381.85	37.45
382.04	56.17
382.24	0.00
382.43	56.17
382.63	28.09
382.83	4.68
383.02	30.43
383.22	16.38
383.41	16.38
383.61	46.81
383.80	2.34
384.00	30.43
384.19	0.00
384.39	60.85
384.58	0.00
384.78	16.38
384.97	0.00
385.17	11.70
385.36	0.00
385.56	28.09
385.75	0.00
385.95	0.00
386.14	35.11
386.34	7.02
386.53	107.66
386.72	81.92
386.92	0.00
387.11	65.54
387.31	16.38
387.50	14.04
387.70	0.00
387.89	0.00
388.09	14.04
388.28	4.68
388.48	42.13
388.67	25.75
388.86	35.11
389.06	7.02
389.25	74.90
389.45	0.00
389.64	0.00
389.84	0.00
390.03	51.49
390.22	0.00
390.42	4.68
390.61	37.45
390.81	37.45
391.00	65.54
391.19	39.79
391.39	14.04
391.58	44.47
391.78	0.00
391.97	0.00
392.16	42.13
392.36	7.02
392.55	0.00
392.75	4.68
392.94	16.38
393.13	44.47
393.33	0.00
393.52	42.13
393.71	18.72
393.91	9.36
394.10	32.77
394.29	39.79
394.49	42.13
394.68	46.81
394.88	4.68
395.07	56.17
395.26	23.41
395.46	39.79
395.65	60.85
395.84	49.15
396.04	0.00
396.23	0.00
396.42	25.75
396.62	58.51
396.81	11.70
397.00	11.70
397.19	28.09
397.39	0.00
397.58	7.02
397.77	11.70
397.97	11.70
398.16	30.43
398.35	2.34
398.55	0.00
398.74	0.00
398.93	0.00
399.12	0.00
399.32	0.00
399.51	0.00
399.70	86.60
399.90	0.00
400.09	0.00
400.28	21.06
400.47	23.41
400.67	70.22
400.86	9.36
401.05	2.34
401.24	0.00
401.44	30.43
401.63	100.64
401.82	35.11
402.01	88.94
402.21	0.00
402.40	0.00
402.59	30.43
402.78	35.11
402.97	37.45
403.17	16.38
403.36	9.36
403.55	21.06
403.74	28.09
403.93	0.00
404.13	25.75
404.32	21.06
404.51	18.72
404.70	77.24
404.89	44.47
405.09	67.88
405.28	0.00
405.47	74.90
405.66	37.45
405.85	70.22
406.05	88.94
406.24	77.24
406.43	32.77
406.62	0.00
406.81	9.36
407.00	58.51
407.20	0.00
407.39	0.00
407.58	0.00
407.77	0.00
407.96	0.00
408.15	56.17
408.34	4.68
408.54	0.00
408.73	46.81
408.92	23.41
409.11	0.00
409.30	23.41
409.49	79.58
409.68	49.15
409.87	0.00
410.07	0.00
410.26	51.49
410.45	86.60
410.64	0.00
410.83	42.13
411.02	0.00
411.21	21.06
411.40	0.00
411.59	46.81
411.78	63.19
411.98	18.72
412.17	23.41
412.36	67.88
412.55	0.00
412.74	11.70
412.93	35.11
413.12	0.00
413.31	86.60
413.50	0.00
413.69	21.06
413.88	0.00
414.07	0.00
414.26	84.26
414.45	42.13
414.64	39.79
414.83	0.00
415.02	2.34
415.22	46.81
415.41	67.88
415.60	67.88
415.79	0.00
415.98	11.70
416.17	51.49
416.36	88.94
416.55	0.00
416.74	25.75
416.93	23.41
417.12	56.17
417.31	21.06
417.50	28.09
417.69	32.77
417.88	14.04
418.07	98.30
418.26	14.04
418.45	16.38
418.64	0.00
418.83	51.49
419.02	53.83
419.21	0.00
419.39	23.41
419.58	30.43
419.77	77.24
419.96	84.26
420.15	21.06
420.34	110.01
420.53	0.00
420.72	0.00
420.91	0.00
421.10	0.00
421.29	28.09
421.48	74.90
421.67	0.00
421.86	39.79
422.05	14.04
422.24	9.36
422.43	0.00
422.61	0.00
422.80	51.49
422.99	18.72
423.18	18.72
423.37	0.00
423.56	0.00
423.75	21.06
423.94	0.00
424.13	65.54
424.32	0.00
424.50	42.13
424.69	16.38
424.88	25.75
425.07	74.90
425.26	9.36
425.45	0.00
425.64	58.51
425.83	81.92
426.01	128.73
426.20	53.83
426.39	39.79
426.58	0.00
426.77	58.51
426.96	2.34
427.15	0.00
427.33	0.00
427.52	4.68
427.71	49.15
427.90	77.24
428.09	88.94
428.28	30.43
428.46	51.49
428.65	86.60
428.84	14.04
429.03	23.41
429.22	7.02
429.40	42.13
429.59	35.11
429.78	51.49
429.97	32.77
430.16	60.85
430.34	0.00
430.53	7.02
430.72	0.00
430.91	28.09
431.10	53.83
431.28	39.79
431.47	42.13
431.66	0.00
431.85	0.00
432.03	0.00
432.22	30.43
432.41	16.38
432.60	44.47
432.79	42.13
432.97	32.77
433.16	14.04
433.35	98.30
433.54	25.75
433.72	2.34
433.91	44.47
434.10	72.56
434.28	79.58
434.47	91.28
434.66	79.58
434.85	72.56
435.03	0.00
435.22	51.49
435.41	42.13
435.59	42.13
435.78	56.17
435.97	0.00
436.16	44.47
436.34	0.00
436.53	0.00
436.72	60.85
436.90	42.13
437.09	32.77
437.28	0.00
437.46	32.77
437.65	65.54
437.84	67.88
438.02	0.00
438.21	58.51
438.40	30.43
438.58	4.68
438.77	0.00
438.96	11.70
439.14	0.00
439.33	37.45
439.52	16.38
439.70	4.68
439.89	0.00
440.08	67.88
440.26	95.96
440.45	0.00
440.63	49.15
440.82	49.15
441.01	44.47
441.19	18.72
441.38	0.00
441.57	18.72
441.75	23.41
441.94	2.34
442.12	9.36
442.31	53.83
442.50	56.17
442.68	0.00
442.87	56.17
443.05	7.02
443.24	44.47
443.43	72.56
443.61	37.45
443.80	46.81
443.98	0.00
444.17	4.68
444.35	42.13
444.54	28.09
444.73	0.00
444.91	9.36
445.10	9.36
445.28	28.09
445.47	2.34
445.65	53.83
445.84	0.00
446.02	46.81
446.21	0.00
446.39	0.00
446.58	25.75
446.77	0.00
446.95	35.11
447.14	0.00
447.32	81.92
447.51	42.13
447.69	9.36
447.88	70.22
448.06	0.00
448.25	53.83
448.43	16.38
448.62	58.51
448.80	79.58
448.99	30.43
449.17	91.28
449.36	0.00
449.54	107.66
449.73	25.75
449.91	23.41
450.10	84.26
450.28	65.54
450.46	0.00
450.65	21.06
450.83	46.81
451.02	102.98
451.20	35.11
451.39	42.13
451.57	67.88
451.76	0.00
451.94	142.77
452.13	35.11
452.31	74.90
452.49	4.68
452.68	32.77
452.86	51.49
453.05	77.24
453.23	77.24
453.42	23.41
453.60	9.36
453.78	0.00
453.97	0.00
454.15	23.41
454.34	42.13
454.52	0.00
454.70	7.02
454.89	35.11
455.07	32.77
455.26	7.02
455.44	0.00
455.62	21.06
455.81	67.88
455.99	100.64
456.17	63.19
456.36	25.75
456.54	42.13
456.73	72.56
456.91	42.13
457.09	42.13
457.28	16.38
457.46	21.06
457.64	32.77
457.83	0.00
458.01	0.00
458.19	35.11
458.38	32.77
458.56	56.17
458.74	49.15
458.93	98.30
459.11	98.30
459.29	35.11
459.48	65.54
459.66	42.13
459.84	46.81
460.03	77.24
460.21	49.15
460.39	0.00
460.57	11.70
460.76	18.72
460.94	28.09
461.12	84.26
461.31	35.11
461.49	0.00
461.67	0.00
461.85	74.90
462.04	0.00
462.22	114.69
462.40	21.06
462.59	0.00
462.77	65.54
462.95	23.41
463.13	37.45
463.32	16.38
463.50	0.00
463.68	2.34
463.86	30.43
464.05	0.00
464.23	25.75
464.41	0.00
464.59	9.36
464.78	0.00
464.96	0.00
465.14	37.45
465.32	18.72
465.50	105.32
465.69	110.01
465.87	0.00
466.05	42.13
466.23	84.26
466.41	58.51
466.60	0.00
466.78	28.09
466.96	30.43
467.14	93.62
467.32	14.04
467.51	60.85
467.69	9.36
467.87	53.83
468.05	18.72
468.23	35.11
468.41	0.00
468.60	70.22
468.78	67.88
468.96	0.00
469.14	0.00
469.32	21.06
469.50	98.30
469.69	70.22
469.87	14.04
470.05	98.30
470.23	107.66
470.41	70.22
470.59	63.19
470.77	23.41
470.95	0.00
471.14	44.47
471.32	39.79
471.50	53.83
471.68	70.22
471.86	0.00
472.04	0.00
472.22	37.45
472.40	0.00
472.58	32.77
472.77	0.00
472.95	0.00
473.13	25.75
473.31	121.71
473.49	21.06
473.67	35.11
473.85	0.00
474.03	0.00
474.21	58.51
474.39	0.00
474.57	60.85
474.75	9.36
474.93	60.85
475.12	35.11
475.30	58.51
475.48	42.13
475.66	56.17
475.84	0.00
476.02	0.00
476.20	77.24
476.38	30.43
476.56	42.13
476.74	9.36
476.92	0.00
477.10	25.75
477.28	0.00
477.46	0.00
477.64	49.15
477.82	14.04
478.00	30.43
478.18	11.70
478.36	0.00
478.54	21.06
478.72	86.60
478.90	107.66
479.08	18.72
479.26	102.98
479.44	98.30
479.62	86.60
479.80	18.72
479.98	58.51
480.16	16.38
480.34	0.00
480.52	53.83
480.70	49.15
480.88	28.09
481.06	30.43
481.24	49.15
481.41	2.34
481.59	70.22
481.77	42.13
481.95	28.09
482.13	21.06
482.31	11.70
482.49	117.03
482.67	51.49
482.85	11.70
483.03	65.54
483.21	60.85
483.39	32.77
483.57	0.00
483.74	32.77
483.92	4.68
484.10	37.45
484.28	37.45
484.46	18.72
484.64	4.68
484.82	51.49
485.00	42.13
485.18	0.00
485.35	25.75
485.53	60.85
485.71	53.83
485.89	30.43
486.07	63.19
486.25	65.54
486.43	60.85
486.61	72.56
486.78	88.94
486.96	46.81
487.14	37.45
487.32	72.56
487.50	0.00
487.68	39.79
487.85	72.56
488.03	77.24
488.21	42.13
488.39	91.28
488.57	0.00
488.75	0.00
488.92	39.79
489.10	58.51
489.28	25.75
489.46	86.60
489.64	84.26
489.81	105.32
489.99	30.43
490.17	79.58
490.35	112.35
490.53	9.36
490.70	0.00
490.88	0.00
491.06	0.00
491.24	98.30
491.41	42.13
491.59	21.06
491.77	65.54
491.95	23.41
492.13	9.36
492.30	23.41
492.48	70.22
492.66	51.49
492.84	18.72
493.01	35.11
493.19	25.75
493.37	35.11
493.54	72.56
493.72	77.24
493.90	28.09
494.08	60.85
494.25	16.38
494.43	46.81
494.61	58.51
494.79	74.90
494.96	14.04
495.14	63.19
495.32	23.41
495.49	0.00
495.67	0.00
495.85	46.81
496.02	0.00
496.20	0.00
496.38	39.79
496.55	128.73
496.73	44.47
496.91	60.85
497.09	0.00
497.26	0.00
497.44	88.94
497.62	39.79
497.79	88.94
497.97	74.90
498.14	32.77
498.32	23.41
498.50	39.79
498.67	0.00
498.85	0.00
499.03	44.47
499.20	63.19
499.38	84.26
499.56	51.49
499.73	18.72
499.91	35.11
500.08	16.38
500.26	51.49
500.44	42.13
500.61	88.94
500.79	156.82
500.97	74.90
501.14	35.11
501.32	32.77
501.49	39.79
501.67	0.00
501.84	2.34
502.02	16.38
502.20	93.62
502.37	32.77
502.55	0.00
502.72	2.34
502.90	39.79
503.07	0.00
503.25	91.28
503.43	35.11
503.60	91.28
503.78	28.09
503.95	23.41
504.13	16.38
504.30	0.00
504.48	9.36
504.65	77.24
504.83	39.79
505.01	30.43
505.18	86.60
505.36	4.68
505.53	28.09
505.71	42.13
505.88	30.43
506.06	0.00
506.23	0.00
506.41	0.00
506.58	131.07
506.76	56.17
506.93	65.54
507.11	42.13
507.28	88.94
507.46	28.09
507.63	7.02
507.81	39.79
507.98	35.11
508.16	58.51
508.33	65.54
508.50	56.17
508.68	16.38
508.85	58.51
509.03	84.26
509.20	4.68
509.38	18.72
509.55	23.41
509.73	58.51
509.90	30.43
510.08	0.00
510.25	23.41
510.42	46.81
510.60	60.85
510.77	49.15
510.95	2.34
511.12	95.96
511.30	70.22
511.47	56.17
511.64	81.92
511.82	9.36
511.99	28.09
512.17	14.04
512.34	51.49
512.51	72.56
512.69	39.79
512.86	14.04
513.04	60.85
513.21	0.00
513.38	30.43
513.56	32.77
513.73	49.15
513.90	0.00
514.08	53.83
514.25	63.19
514.43	58.51
514.60	58.51
514.77	42.13
514.95	44.47
515.12	44.47
515.29	14.04
515.47	0.00
515.64	37.45
515.81	4.68
515.99	28.09
516.16	53.83
516.33	0.00
516.51	98.30
516.68	65.54
516.85	88.94
517.03	0.00
517.20	46.81
517.37	7.02
517.54	2.34
517.72	46.81
517.89	86.60
518.06	0.00
518.24	0.00
518.41	39.79
518.58	0.00
518.75	70.22
518.93	23.41
519.10	25.75
519.27	60.85
519.45	42.13
519.62	56.17
519.79	42.13
519.96	114.69
520.14	100.64
520.31	67.88
520.48	35.11
520.65	28.09
520.83	7.02
521.00	35.11
521.17	79.58
521.34	0.00
521.52	0.00
521.69	28.09
521.86	0.00
522.03	23.41
522.20	39.79
522.38	56.17
522.55	11.70
522.72	77.24
522.89	35.11
523.07	86.60
523.24	63.19
523.41	91.28
523.58	37.45
523.75	9.36
523.92	65.54
524.10	72.56
524.27	49.15
524.44	56.17
524.61	72.56
524.78	35.11
524.96	65.54
525.13	2.34
525.30	46.81
525.47	28.09
525.64	21.06
525.81	30.43
525.98	16.38
526.16	77.24
526.33	0.00
526.50	37.45
526.67	37.45
526.84	9.36
527.01	2.34
527.18	0.00
527.36	56.17
527.53	0.00
527.70	81.92
527.87	51.49
528.04	39.79
528.21	39.79
528.38	53.83
528.55	23.41
528.72	37.45
528.89	30.43
529.07	74.90
529.24	51.49
529.41	77.24
529.58	58.51
529.75	70.22
529.92	70.22
530.09	65.54
530.26	77.24
530.43	18.72
530.60	44.47
530.77	0.00
530.94	110.01
531.11	128.73
531.28	72.56
531.46	0.00
531.63	56.17
531.80	4.68
531.97	0.00
532.14	35.11
532.31	60.85
532.48	60.85
532.65	23.41
532.82	65.54
532.99	4.68
533.16	0.00
533.33	98.30
533.50	18.72
533.67	51.49
533.84	21.06
534.01	46.81
534.18	32.77
534.35	16.38
534.52	2.34
534.69	60.85
534.86	58.51
535.03	2.34
535.20	100.64
535.37	23.41
535.54	72.56
535.71	0.00
535.88	67.88
536.05	100.64
536.22	91.28
536.38	102.98
536.55	42.13
536.72	23.41
536.89	81.92
537.06	51.49
537.23	79.58
537.40	35.11
537.57	91.28
537.74	70.22
537.91	44.47
538.08	25.75
538.25	4.68
538.42	42.13
538.59	0.00
538.75	58.51
538.92	2.34
539.09	0.00
539.26	23.41
539.43	11.70
539.60	42.13
539.77	32.77
539.94	56.17
540.11	70.22
540.28	4.68
540.44	35.11
540.61	14.04
540.78	91.28
540.95	16.38
541.12	21.06
541.29	0.00
541.46	58.51
541.62	32.77
541.79	35.11
541.96	2.34
542.13	67.88
542.30	95.96
542.47	0.00
542.63	42.13
542.80	81.92
542.97	65.54
543.14	35.11
543.31	0.00
543.48	60.85
543.64	84.26
543.81	4.68
543.98	0.00
544.15	25.75
544.32	28.09
544.48	65.54
544.65	25.75
544.82	51.49
544.99	93.62
545.16	25.75
545.32	56.17
545.49	0.00
545.66	63.19
545.83	79.58
546.00	0.00
546.16	74.90
546.33	42.13
546.50	9.36
546.67	2.34
546.83	0.00
547.00	46.81
547.17	51.49
547.34	28.09
547.50	46.81
547.67	42.13
547.84	44.47
548.00	81.92
548.17	145.11
548.34	98.30
548.51	65.54
548.67	11.70
548.84	4.68
549.01	0.00
549.18	0.00
549.34	14.04
549.51	46.81
549.68	0.00
549.84	46.81
550.01	0.00
550.18	79.58
550.34	0.00
550.51	51.49
550.68	9.36
550.84	37.45
551.01	0.00
551.18	79.58
551.34	30.43
551.51	53.83
551.68	11.70
551.84	128.73
552.01	46.81
552.18	72.56
552.34	58.51
552.51	60.85
552.68	53.83
552.84	53.83
553.01	25.75
553.18	21.06
553.34	98.30
553.51	0.00
553.67	58.51
553.84	21.06
554.01	51.49
554.17	0.00
554.34	60.85
554.51	42.13
554.67	0.00
554.84	39.79
555.00	0.00
555.17	25.75
555.33	35.11
555.50	65.54
555.67	53.83
555.83	70.22
556.00	42.13
556.16	2.34
556.33	93.62
556.50	35.11
556.66	44.47
556.83	11.70
556.99	70.22
557.16	0.00
557.32	63.19
557.49	60.85
557.65	23.41
557.82	67.88
557.98	77.24
558.15	21.06
558.32	58.51
558.48	58.51
558.65	21.06
558.81	49.15
558.98	60.85
559.14	32.77
559.31	14.04
559.47	70.22
559.64	63.19
559.80	0.00
559.97	11.70
560.13	65.54
560.30	32.77
560.46	0.00
560.63	28.09
560.79	56.17
560.96	107.66
561.12	32.77
561.29	21.06
561.45	63.19
561.61	112.35
561.78	4.68
561.94	0.00
562.11	28.09
562.27	44.47
562.44	114.69
562.60	51.49
562.77	4.68
562.93	25.75
563.10	46.81
563.26	105.32
563.42	60.85
563.59	0.00
563.75	32.77
563.92	32.77
564.08	16.38
564.24	121.71
564.41	14.04
564.57	58.51
564.74	63.19
564.90	53.83
565.07	0.00
565.23	37.45
565.39	65.54
565.56	84.26
565.72	32.77
565.88	7.02
566.05	51.49
566.21	30.43
566.38	14.04
566.54	0.00
566.70	39.79
566.87	65.54
567.03	91.28
567.19	2.34
567.36	81.92
567.52	28.09
567.68	58.51
567.85	25.75
568.01	14.04
568.17	16.38
568.34	0.00
568.50	39.79
568.66	14.04
568.83	9.36
568.99	39.79
569.15	58.51
569.32	0.00
569.48	23.41
569.64	46.81
569.81	88.94
569.97	16.38
570.13	39.79
570.30	60.85
570.46	107.66
570.62	84.26
570.78	0.00
570.95	35.11
571.11	49.15
571.27	65.54
571.43	86.60
571.60	32.77
571.76	135.75
571.92	72.56
572.09	9.36
572.25	9.36
572.41	60.85
572.57	51.49
572.74	0.00
572.90	4.68
573.06	105.32
573.22	53.83
573.38	0.00
573.55	16.38
573.71	28.09
573.87	0.00
574.03	79.58
574.20	14.04
574.36	37.45
574.52	49.15
574.68	14.04
574.84	18.72
575.01	72.56
575.17	21.06
575.33	53.83
575.49	0.00
575.65	42.13
575.82	16.38
575.98	0.00
576.14	0.00
576.30	72.56
576.46	81.92
576.62	74.90
576.79	79.58
576.95	74.90
577.11	0.00
577.27	32.77
577.43	49.15
577.59	46.81
577.75	14.04
577.92	30.43
578.08	65.54
578.24	11.70
578.40	51.49
578.56	77.24
578.72	0.00
578.88	7.02
579.04	0.00
579.21	32.77
579.37	21.06
579.53	30.43
579.69	7.02
579.85	74.90
580.01	18.72
580.17	79.58
580.33	53.83
580.49	23.41
580.65	37.45
580.82	72.56
580.98	7.02
581.14	65.54
581.30	44.47
581.46	0.00
581.62	53.83
581.78	30.43
581.94	51.49
582.10	18.72
582.26	35.11
582.42	79.58
582.58	0.00
582.74	16.38
582.90	84.26
583.06	53.83
583.22	91.28
583.38	81.92
583.54	86.60
583.70	0.00
583.86	79.58
584.02	88.94
584.18	18.72
584.34	63.19
584.50	77.24
584.66	105.32
584.82	37.45
584.98	65.54
585.14	105.32
585.30	28.09
585.46	30.43
585.62	0.00
585.78	0.00
585.94	30.43
586.10	107.66
586.26	140.43
586.42	7.02
586.58	124.05
586.74	7.02
586.90	44.47
587.06	30.43
587.22	21.06
587.38	49.15
587.54	14.04
587.70	11.70
587.86	65.54
588.02	46.81
588.18	51.49
588.34	42.13
588.49	121.71
588.65	25.75
588.81	11.70
588.97	81.92
589.13	18.72
589.29	16.38
589.45	60.85
589.61	51.49
589.77	44.47
589.93	44.47
590.08	16.38
590.24	30.43
590.40	67.88
590.56	107.66
590.72	16.38
590.88	0.00
591.04	21.06
591.20	105.32
591.35	56.17
591.51	4.68
591.67	37.45
591.83	21.06
591.99	32.77
592.15	56.17
592.31	58.51
592.46	14.04
592.62	9.36
592.78	32.77
592.94	46.81
593.10	30.43
593.26	81.92
593.41	74.90
593.57	21.06
593.73	53.83
593.89	65.54
594.05	0.00
594.20	0.00
594.36	49.15
594.52	0.00
594.68	70.22
594.84	4.68
594.99	79.58
595.15	0.00
595.31	72.56
595.47	53.83
595.62	0.00
595.78	49.15
595.94	0.00
596.10	23.41
596.25	0.00
596.41	7.02
596.57	58.51
596.73	49.15
596.88	100.64
597.04	0.00
597.20	9.36
597.36	39.79
597.51	56.17
597.67	100.64
597.83	65.54
597.99	114.69
598.14	46.81
598.30	112.35
598.46	0.00
598.61	81.92
598.77	2.34
598.93	77.24
599.09	44.47
599.24	23.41
599.40	100.64
599.56	0.00
599.71	28.09
599.87	0.00
600.03	77.24
600.18	0.00
600.34	58.51
600.50	74.90
600.65	56.17
600.81	32.77
600.97	0.00
601.12	81.92
601.28	88.94
601.44	0.00
601.59	0.00
601.75	0.00
601.91	0.00
602.06	0.00
602.22	74.90
602.37	65.54
602.53	0.00
602.69	0.00
602.84	46.81
603.00	105.32
603.16	30.43
603.31	51.49
603.47	81.92
603.62	16.38
603.78	44.47
603.94	65.54
604.09	23.41
604.25	70.22
604.40	0.00
604.56	60.85
604.71	44.47
604.87	4.68
605.03	14.04
605.18	114.69
605.34	0.00
605.49	9.36
605.65	11.70
605.80	25.75
605.96	21.06
606.12	25.75
606.27	23.41
606.43	11.70
606.58	95.96
606.74	77.24
606.89	18.72
607.05	37.45
607.20	51.49
607.36	56.17
607.51	0.00
607.67	0.00
607.82	91.28
607.98	51.49
608.13	56.17
608.29	30.43
608.44	0.00
608.60	37.45
608.75	21.06
608.91	107.66
609.06	67.88
609.22	23.41
609.37	49.15
609.53	7.02
609.68	0.00
609.84	14.04
609.99	49.15
610.15	42.13
610.30	37.45
610.46	21.06
610.61	32.77
610.76	30.43
610.92	9.36
611.07	56.17
611.23	2.34
611.38	30.43
611.54	18.72
611.69	0.00
611.84	58.51
612.00	77.24
612.15	4.68
612.31	28.09
612.46	11.70
612.62	65.54
612.77	79.58
612.92	81.92
613.08	2.34
613.23	74.90
613.39	119.37
613.54	112.35
613.69	28.09
613.85	65.54
614.00	23.41
614.15	60.85
614.31	18.72
614.46	81.92
614.62	0.00
614.77	72.56
614.92	28.09
615.08	91.28
615.23	16.38
615.38	77.24
615.54	42.13
615.69	25.75
615.84	9.36
616.00	32.77
616.15	18.72
616.30	70.22
616.46	11.70
616.61	30.43
616.76	0.00
616.92	42.13
617.07	16.38
617.22	79.58
617.37	25.75
617.53	51.49
617.68	39.79
617.83	46.81
617.99	32.77
618.14	77.24
618.29	4.68
618.45	32.77
618.60	9.36
618.75	74.90
618.90	72.56
619.06	35.11
619.21	56.17
619.36	44.47
619.51	42.13
619.67	21.06
619.82	42.13
619.97	7.02
620.12	39.79
620.28	77.24
620.43	35.11
620.58	37.45
620.73	7.02
620.89	28.09
621.04	74.90
621.19	16.38
621.34	2.34
621.49	0.00
621.65	46.81
621.80	63.19
621.95	49.15
622.10	0.00
622.25	51.49
622.41	35.11
622.56	63.19
622.71	0.00
622.86	39.79
623.01	60.85
623.16	37.45
623.32	84.26
623.47	102.98
623.62	7.02
623.77	49.15
623.92	0.00
624.07	9.36
624.23	0.00
624.38	30.43
624.53	56.17
624.68	0.00
624.83	0.00
624.98	42.13
625.13	0.00
625.29	58.51
625.44	0.00
625.59	16.38
625.74	65.54
625.89	58.51
626.04	23.41
626.19	93.62
626.34	58.51
626.49	60.85
626.65	0.00
626.80	74.90
626.95	72.56
627.10	14.04
627.25	84.26
627.40	0.00
627.55	128.73
627.70	0.00
627.85	63.19
628.00	51.49
628.15	16.38
628.30	44.47
628.45	42.13
628.60	86.60
628.76	74.90
628.91	11.70
629.06	14.04
629.21	0.00
629.36	79.58
629.51	84.26
629.66	63.19
629.81	53.83
629.96	81.92
630.11	0.00
630.26	28.09
630.41	21.06
630.56	0.00
630.71	37.45
630.86	37.45
631.01	105.32
631.16	18.72
631.31	84.26
631.46	81.92
631.61	14.04
631.76	51.49
631.91	0.00
632.06	81.92
632.21	86.60
632.36	14.04
632.51	46.81
632.66	0.00
632.81	0.00
632.96	93.62
633.10	133.41
633.25	49.15
633.40	67.88
633.55	86.60
633.70	63.19
633.85	0.00
634.00	100.64
634.15	56.17
634.30	35.11
634.45	4.68
634.60	88.94
634.75	67.88
634.90	88.94
635.05	0.00
635.19	60.85
635.34	0.00
635.49	84.26
635.64	0.00
635.79	32.77
635.94	16.38
636.09	14.04
636.24	2.34
636.39	30.43
636.53	7.02
636.68	18.72
636.83	74.90
636.98	0.00
637.13	25.75
637.28	23.41
637.43	35.11
637.57	0.00
637.72	0.00
637.87	37.45
638.02	16.38
638.17	4.68
638.32	23.41
638.46	30.43
638.61	18.72
638.76	65.54
638.91	51.49
639.06	39.79
639.20	28.09
639.35	88.94
639.50	0.00
639.65	51.49
639.80	65.54
639.94	117.03
640.09	65.54
640.24	49.15
640.39	51.49
640.54	9.36
640.68	81.92
640.83	0.00
640.98	0.00
641.13	58.51
641.27	0.00
641.42	67.88
641.57	53.83
641.72	0.00
641.86	7.02
642.01	67.88
642.16	44.47
642.31	37.45
642.45	86.60
642.60	51.49
642.75	72.56
642.90	58.51
643.04	37.45
643.19	51.49
643.34	58.51
643.48	39.79
643.63	9.36
643.78	79.58
643.93	126.39
644.07	21.06
644.22	0.00
644.37	25.75
644.51	14.04
644.66	65.54
644.81	86.60
644.95	42.13
645.10	63.19
645.25	63.19
645.39	51.49
645.54	131.07
645.69	7.02
645.83	0.00
645.98	32.77
646.13	58.51
646.27	67.88
646.42	28.09
646.57	46.81
646.71	37.45
646.86	30.43
647.00	0.00
647.15	53.83
647.30	37.45
647.44	21.06
647.59	11.70
647.74	23.41
647.88	4.68
648.03	60.85
648.17	30.43
648.32	0.00
648.47	2.34
648.61	44.47
648.76	98.30
648.90	9.36
649.05	46.81
649.20	30.43
649.34	23.41
649.49	0.00
649.63	0.00
649.78	0.00
649.92	18.72
650.07	0.00
650.21	16.38
650.36	0.00
650.51	16.38
650.65	77.24
650.80	74.90
650.94	133.41
651.09	42.13
651.23	2.34
651.38	53.83
651.52	42.13
651.67	42.13
651.81	65.54
651.96	2.34
652.10	95.96
652.25	14.04
652.39	53.83
652.54	84.26
652.68	11.70
652.83	39.79
652.97	39.79
653.12	0.00
653.26	98.30
653.41	56.17
653.55	51.49
653.70	42.13
653.84	67.88
653.99	95.96
654.13	9.36
654.27	16.38
654.42	37.45
654.56	84.26
654.71	51.49
654.85	46.81
655.00	81.92
655.14	7.02
655.29	2.34
655.43	0.00
655.57	0.00
655.72	84.26
655.86	42.13
656.01	42.13
656.15	44.47
656.30	42.13
656.44	0.00
656.58	0.00
656.73	18.72
656.87	9.36
657.01	79.58
657.16	21.06
657.30	0.00
657.45	39.79
657.59	0.00
657.73	0.00
657.88	32.77
658.02	4.68
658.16	53.83
658.31	58.51
658.45	95.96
658.60	0.00
658.74	42.13
658.88	21.06
659.03	65.54
659.17	23.41
659.31	0.00
659.46	2.34
659.60	14.04
659.74	0.00
659.89	0.00
660.03	28.09
660.17	35.11
660.32	0.00
660.46	105.32
660.60	63.19
660.74	35.11
660.89	86.60
661.03	0.00
661.17	74.90
661.32	0.00
661.46	65.54
661.60	77.24
661.74	39.79
661.89	60.85
662.03	9.36
662.17	9.36
662.31	0.00
662.46	110.01
662.60	0.00
662.74	46.81
662.88	0.00
663.03	39.79
663.17	131.07
663.31	58.51
663.45	28.09
663.60	51.49
663.74	28.09
663.88	46.81
664.02	23.41
664.17	11.70
664.31	91.28
664.45	28.09
664.59	14.04
664.73	0.00
664.88	0.00
665.02	21.06
665.16	0.00
665.30	56.17
665.44	11.70
665.59	0.00
665.73	30.43
665.87	63.19
666.01	91.28
666.15	16.38
666.29	0.00
666.44	14.04
666.58	16.38
666.72	51.49
666.86	65.54
667.00	0.00
667.14	32.77
667.28	11.70
667.43	0.00
667.57	0.00
667.71	63.19
667.85	32.77
667.99	56.17
668.13	56.17
668.27	0.00
668.41	0.00
668.56	37.45
668.70	46.81
668.84	46.81
668.98	46.81
669.12	0.00
669.26	51.49
669.40	67.88
669.54	72.56
669.68	0.00
669.82	9.36
669.96	0.00
670.10	63.19
670.25	0.00
670.39	107.66
670.53	21.06
670.67	56.17
670.81	107.66
670.95	88.94
671.09	53.83
671.23	56.17
671.37	11.70
671.51	67.88
671.65	79.58
671.79	138.09
671.93	53.83
672.07	81.92
672.21	0.00
672.35	14.04
672.49	32.77
672.63	102.98
672.77	28.09
672.91	9.36
673.05	63.19
673.19	56.17
673.33	67.88
673.47	9.36
673.61	39.79
673.75	60.85
673.89	67.88
674.03	37.45
674.17	105.32
674.31	72.56
674.45	0.00
674.59	0.00
674.73	72.56
674.87	23.41
675.01	18.72
675.15	0.00
675.29	11.70
675.43	58.51
675.56	58.51
675.70	56.17
675.84	0.00
675.98	63.19
676.12	102.98
676.26	30.43
676.40	28.09
676.54	11.70
676.68	37.45
676.82	39.79
676.96	42.13
677.10	0.00
677.23	14.04
677.37	11.70
677.51	46.81
677.65	42.13
677.79	102.98
677.93	67.88
678.07	60.85
678.21	0.00
678.34	51.49
678.48	35.11
678.62	35.11
678.76	2.34
678.90	21.06
679.04	95.96
679.18	11.70
679.31	46.81
679.45	7.02
679.59	72.56
679.73	0.00
679.87	18.72
680.00	7.02
680.14	0.00
680.28	0.00
680.42	39.79
680.56	0.00
680.70	0.00
680.83	77.24
680.97	93.62
681.11	37.45
681.25	126.39
681.39	121.71
681.52	9.36
681.66	95.96
681.80	107.66
681.94	14.04
682.07	70.22
682.21	44.47
682.35	0.00
682.49	25.75
682.62	0.00
682.76	37.45
682.90	9.36
683.04	0.00
683.17	65.54
683.31	0.00
683.45	23.41
683.59	84.26
683.72	44.47
683.86	18.72
684.00	18.72
684.13	30.43
684.27	46.81
684.41	4.68
684.55	0.00
684.68	42.13
684.82	32.77
684.96	28.09
685.09	79.58
685.23	110.01
685.37	0.00
685.50	67.88
685.64	58.51
685.78	0.00
685.91	30.43
686.05	124.05
686.19	95.96
686.32	0.00
686.46	65.54
686.60	37.45
686.73	9.36
686.87	35.11
687.01	65.54
687.14	16.38
687.28	14.04
687.42	72.56
687.55	32.77
687.69	37.45
687.82	0.00
687.96	0.00
688.10	39.79
688.23	72.56
688.37	91.28
688.50	16.38
688.64	88.94
688.78	63.19
688.91	63.19
689.05	0.00
689.18	23.41
689.32	25.75
689.46	42.13
689.59	0.00
689.73	16.38
689.86	4.68
690.00	42.13
690.13	11.70
690.27	37.45
690.41	0.00
690.54	53.83
690.68	37.45
690.81	58.51
690.95	51.49
691.08	0.00
691.22	23.41
691.35	0.00
691.49	23.41
691.62	16.38
691.76	124.05
691.89	49.15
692.03	35.11
692.16	95.96
692.30	70.22
692.43	93.62
692.57	60.85
692.70	88.94
692.84	30.43
692.97	46.81
693.11	2.34
693.24	0.00
693.38	53.83
693.51	63.19
693.65	42.13
693.78	84.26
693.92	28.09
694.05	37.45
694.19	77.24
694.32	28.09
694.45	63.19
694.59	0.00
694.72	79.58
694.86	0.00
694.99	58.51
695.13	30.43
695.26	11.70
695.39	58.51
695.53	16.38
695.66	49.15
695.80	0.00
695.93	44.47
696.07	30.43
696.20	0.00
696.33	114.69
696.47	39.79
696.60	14.04
696.73	2.34
696.87	77.24
697.00	77.24
697.14	60.85
697.27	91.28
697.40	84.26
697.54	32.77
697.67	9.36
697.80	51.49
697.94	9.36
698.07	9.36
698.21	28.09
698.34	0.00
698.47	0.00
698.61	35.11
698.74	86.60
698.87	46.81
699.01	0.00
699.14	35.11
699.27	35.11
699.40	81.92
699.54	28.09
699.67	60.85
699.80	86.60
699.94	88.94
700.07	28.09
700.20	60.85
700.34	79.58
700.47	7.02
700.60	14.04
700.73	0.00
700.87	53.83
701.00	25.75
701.13	0.00
701.26	16.38
701.40	4.68
701.53	21.06
701.66	44.47
701.79	53.83
701.93	58.51
702.06	42.13
702.19	0.00
702.32	88.94
702.46	28.09
702.59	0.00
702.72	0.00
702.85	7.02
702.99	91.28
703.12	0.00
703.25	7.02
703.38	18.72
703.51	70.22
703.65	0.00
703.78	35.11
703.91	63.19
704.04	0.00
704.17	2.34
704.31	49.15
704.44	16.38
704.57	63.19
704.70	0.00
704.83	51.49
704.96	44.47
705.10	2.34
705.23	0.00
>>>>>End Processed Spectral Data<<<<<
