SpectraSuite Data File
++++++++++++++++++++++++++++++++++++
Date: Fri Oct 04 12:13:26 GMT-05:00 2013
User: price-jones
Dark Spectrum Present: No
Reference Spectrum Present: No
Number of Sampled Component Spectra: 1
Spectrometers: USB2+H05261
Integration Time (usec): 10000 (USB2+H05261)
Spectra Averaged: 1 (USB2+H05261)
Boxcar Smoothing: 0 (USB2+H05261)
Correct for Electrical Dark: No (USB2+H05261)
Strobe/Lamp Enabled: No (USB2+H05261)
Correct for Detector Non-linearity: No (USB2+H05261)
Correct for Stray Light: No (USB2+H05261)
Number of Pixels in Processed Spectrum: 2048
>>>>>Begin Processed Spectral Data<<<<<
365.73	23.41
365.92	23.41
366.12	23.41
366.32	0.00
366.52	0.00
366.72	0.00
366.91	0.00
367.11	0.00
367.31	0.00
367.51	0.00
367.70	0.00
367.90	0.00
368.10	0.00
368.30	0.00
368.49	0.00
368.69	0.00
368.89	0.00
369.09	0.00
369.28	0.00
369.48	0.00
369.68	0.00
369.87	0.00
370.07	0.00
370.27	0.00
370.47	0.00
370.66	0.00
370.86	0.00
371.06	0.00
371.25	0.00
371.45	0.00
371.65	0.00
371.84	0.00
372.04	0.00
372.24	0.00
372.44	0.00
372.63	14.04
372.83	72.56
373.03	0.00
373.22	0.00
373.42	35.11
373.62	51.49
373.81	0.00
374.01	0.00
374.21	0.00
374.40	0.00
374.60	7.02
374.79	30.43
374.99	0.00
375.19	35.11
375.38	46.81
375.58	11.70
375.78	100.64
375.97	9.36
376.17	23.41
376.37	49.15
376.56	0.00
376.76	30.43
376.95	0.00
377.15	0.00
377.35	65.54
377.54	39.79
377.74	58.51
377.93	60.85
378.13	39.79
378.33	0.00
378.52	0.00
378.72	0.00
378.91	49.15
379.11	11.70
379.31	0.00
379.50	18.72
379.70	32.77
379.89	16.38
380.09	0.00
380.28	0.00
380.48	0.00
380.68	32.77
380.87	0.00
381.07	161.50
381.26	7.02
381.46	7.02
381.65	0.00
381.85	18.72
382.04	91.28
382.24	9.36
382.43	0.00
382.63	0.00
382.83	74.90
383.02	102.98
383.22	70.22
383.41	0.00
383.61	0.00
383.80	49.15
384.00	0.00
384.19	100.64
384.39	11.70
384.58	58.51
384.78	7.02
384.97	0.00
385.17	0.00
385.36	0.00
385.56	0.00
385.75	14.04
385.95	0.00
386.14	0.00
386.34	35.11
386.53	84.26
386.72	0.00
386.92	44.47
387.11	0.00
387.31	11.70
387.50	58.51
387.70	18.72
387.89	0.00
388.09	23.41
388.28	49.15
388.48	9.36
388.67	30.43
388.86	51.49
389.06	28.09
389.25	4.68
389.45	0.00
389.64	0.00
389.84	28.09
390.03	21.06
390.22	65.54
390.42	14.04
390.61	4.68
390.81	0.00
391.00	77.24
391.19	35.11
391.39	42.13
391.58	28.09
391.78	16.38
391.97	0.00
392.16	18.72
392.36	72.56
392.55	18.72
392.75	60.85
392.94	7.02
393.13	51.49
393.33	21.06
393.52	51.49
393.71	18.72
393.91	0.00
394.10	0.00
394.29	28.09
394.49	0.00
394.68	23.41
394.88	0.00
395.07	7.02
395.26	14.04
395.46	0.00
395.65	42.13
395.84	14.04
396.04	56.17
396.23	91.28
396.42	51.49
396.62	77.24
396.81	81.92
397.00	0.00
397.19	95.96
397.39	72.56
397.58	9.36
397.77	44.47
397.97	65.54
398.16	28.09
398.35	74.90
398.55	28.09
398.74	0.00
398.93	18.72
399.12	60.85
399.32	32.77
399.51	0.00
399.70	0.00
399.90	93.62
400.09	0.00
400.28	37.45
400.47	2.34
400.67	0.00
400.86	21.06
401.05	11.70
401.24	18.72
401.44	37.45
401.63	0.00
401.82	39.79
402.01	0.00
402.21	0.00
402.40	42.13
402.59	28.09
402.78	46.81
402.97	37.45
403.17	0.00
403.36	112.35
403.55	25.75
403.74	32.77
403.93	74.90
404.13	86.60
404.32	81.92
404.51	32.77
404.70	11.70
404.89	70.22
405.09	0.00
405.28	37.45
405.47	35.11
405.66	11.70
405.85	67.88
406.05	77.24
406.24	0.00
406.43	16.38
406.62	4.68
406.81	18.72
407.00	131.07
407.20	72.56
407.39	14.04
407.58	0.00
407.77	39.79
407.96	51.49
408.15	35.11
408.34	7.02
408.54	4.68
408.73	7.02
408.92	67.88
409.11	0.00
409.30	9.36
409.49	0.00
409.68	18.72
409.87	37.45
410.07	30.43
410.26	93.62
410.45	16.38
410.64	74.90
410.83	30.43
411.02	16.38
411.21	58.51
411.40	65.54
411.59	16.38
411.78	53.83
411.98	44.47
412.17	23.41
412.36	79.58
412.55	9.36
412.74	25.75
412.93	0.00
413.12	30.43
413.31	0.00
413.50	0.00
413.69	0.00
413.88	23.41
414.07	49.15
414.26	14.04
414.45	77.24
414.64	35.11
414.83	39.79
415.02	67.88
415.22	14.04
415.41	53.83
415.60	21.06
415.79	53.83
415.98	7.02
416.17	9.36
416.36	53.83
416.55	0.00
416.74	16.38
416.93	65.54
417.12	0.00
417.31	9.36
417.50	51.49
417.69	60.85
417.88	44.47
418.07	16.38
418.26	60.85
418.45	30.43
418.64	11.70
418.83	2.34
419.02	0.00
419.21	0.00
419.39	84.26
419.58	39.79
419.77	9.36
419.96	51.49
420.15	32.77
420.34	0.00
420.53	58.51
420.72	44.47
420.91	28.09
421.10	37.45
421.29	18.72
421.48	51.49
421.67	39.79
421.86	0.00
422.05	0.00
422.24	0.00
422.43	88.94
422.61	53.83
422.80	0.00
422.99	4.68
423.18	49.15
423.37	0.00
423.56	46.81
423.75	37.45
423.94	86.60
424.13	44.47
424.32	0.00
424.50	46.81
424.69	105.32
424.88	49.15
425.07	70.22
425.26	44.47
425.45	16.38
425.64	37.45
425.83	9.36
426.01	58.51
426.20	88.94
426.39	42.13
426.58	0.00
426.77	154.48
426.96	44.47
427.15	14.04
427.33	46.81
427.52	72.56
427.71	56.17
427.90	0.00
428.09	42.13
428.28	0.00
428.46	0.00
428.65	79.58
428.84	0.00
429.03	30.43
429.22	37.45
429.40	4.68
429.59	18.72
429.78	46.81
429.97	37.45
430.16	35.11
430.34	58.51
430.53	42.13
430.72	11.70
430.91	0.00
431.10	67.88
431.28	60.85
431.47	32.77
431.66	88.94
431.85	0.00
432.03	0.00
432.22	21.06
432.41	79.58
432.60	30.43
432.79	9.36
432.97	81.92
433.16	16.38
433.35	35.11
433.54	30.43
433.72	4.68
433.91	0.00
434.10	51.49
434.28	79.58
434.47	28.09
434.66	93.62
434.85	56.17
435.03	30.43
435.22	37.45
435.41	42.13
435.59	67.88
435.78	30.43
435.97	72.56
436.16	0.00
436.34	0.00
436.53	0.00
436.72	0.00
436.90	74.90
437.09	0.00
437.28	35.11
437.46	28.09
437.65	32.77
437.84	0.00
438.02	44.47
438.21	49.15
438.40	46.81
438.58	0.00
438.77	4.68
438.96	23.41
439.14	0.00
439.33	0.00
439.52	0.00
439.70	0.00
439.89	9.36
440.08	9.36
440.26	53.83
440.45	72.56
440.63	84.26
440.82	81.92
441.01	0.00
441.19	44.47
441.38	53.83
441.57	32.77
441.75	28.09
441.94	46.81
442.12	23.41
442.31	37.45
442.50	25.75
442.68	58.51
442.87	35.11
443.05	30.43
443.24	58.51
443.43	0.00
443.61	39.79
443.80	32.77
443.98	28.09
444.17	14.04
444.35	14.04
444.54	7.02
444.73	35.11
444.91	49.15
445.10	11.70
445.28	72.56
445.47	46.81
445.65	32.77
445.84	35.11
446.02	0.00
446.21	23.41
446.39	0.00
446.58	65.54
446.77	39.79
446.95	46.81
447.14	9.36
447.32	60.85
447.51	30.43
447.69	21.06
447.88	70.22
448.06	42.13
448.25	49.15
448.43	37.45
448.62	30.43
448.80	56.17
448.99	0.00
449.17	53.83
449.36	53.83
449.54	0.00
449.73	32.77
449.91	58.51
450.10	37.45
450.28	58.51
450.46	53.83
450.65	0.00
450.83	30.43
451.02	4.68
451.20	16.38
451.39	49.15
451.57	18.72
451.76	74.90
451.94	7.02
452.13	16.38
452.31	46.81
452.49	18.72
452.68	42.13
452.86	63.19
453.05	49.15
453.23	44.47
453.42	30.43
453.60	37.45
453.78	21.06
453.97	77.24
454.15	0.00
454.34	0.00
454.52	86.60
454.70	0.00
454.89	60.85
455.07	21.06
455.26	56.17
455.44	37.45
455.62	32.77
455.81	81.92
455.99	23.41
456.17	23.41
456.36	65.54
456.54	0.00
456.73	100.64
456.91	0.00
457.09	0.00
457.28	42.13
457.46	67.88
457.64	4.68
457.83	58.51
458.01	4.68
458.19	21.06
458.38	0.00
458.56	49.15
458.74	4.68
458.93	65.54
459.11	14.04
459.29	32.77
459.48	39.79
459.66	0.00
459.84	84.26
460.03	56.17
460.21	53.83
460.39	9.36
460.57	63.19
460.76	7.02
460.94	65.54
461.12	28.09
461.31	7.02
461.49	35.11
461.67	49.15
461.85	60.85
462.04	49.15
462.22	91.28
462.40	46.81
462.59	67.88
462.77	79.58
462.95	9.36
463.13	18.72
463.32	65.54
463.50	46.81
463.68	58.51
463.86	0.00
464.05	51.49
464.23	91.28
464.41	4.68
464.59	0.00
464.78	63.19
464.96	14.04
465.14	0.00
465.32	42.13
465.50	63.19
465.69	91.28
465.87	44.47
466.05	67.88
466.23	60.85
466.41	23.41
466.60	63.19
466.78	0.00
466.96	0.00
467.14	51.49
467.32	72.56
467.51	0.00
467.69	56.17
467.87	23.41
468.05	30.43
468.23	0.00
468.41	4.68
468.60	79.58
468.78	67.88
468.96	0.00
469.14	44.47
469.32	91.28
469.50	0.00
469.69	0.00
469.87	60.85
470.05	79.58
470.23	39.79
470.41	60.85
470.59	51.49
470.77	0.00
470.95	0.00
471.14	0.00
471.32	46.81
471.50	0.00
471.68	51.49
471.86	58.51
472.04	39.79
472.22	65.54
472.40	21.06
472.58	28.09
472.77	51.49
472.95	44.47
473.13	0.00
473.31	18.72
473.49	0.00
473.67	0.00
473.85	58.51
474.03	25.75
474.21	44.47
474.39	67.88
474.57	46.81
474.75	25.75
474.93	28.09
475.12	0.00
475.30	77.24
475.48	91.28
475.66	2.34
475.84	124.05
476.02	28.09
476.20	0.00
476.38	11.70
476.56	16.38
476.74	2.34
476.92	44.47
477.10	35.11
477.28	0.00
477.46	46.81
477.64	58.51
477.82	74.90
478.00	30.43
478.18	21.06
478.36	0.00
478.54	65.54
478.72	0.00
478.90	53.83
479.08	60.85
479.26	18.72
479.44	72.56
479.62	51.49
479.80	4.68
479.98	63.19
480.16	0.00
480.34	18.72
480.52	0.00
480.70	0.00
480.88	23.41
481.06	46.81
481.24	79.58
481.41	49.15
481.59	58.51
481.77	32.77
481.95	56.17
482.13	0.00
482.31	42.13
482.49	49.15
482.67	28.09
482.85	4.68
483.03	53.83
483.21	11.70
483.39	0.00
483.57	18.72
483.74	30.43
483.92	95.96
484.10	77.24
484.28	51.49
484.46	30.43
484.64	37.45
484.82	18.72
485.00	35.11
485.18	51.49
485.35	7.02
485.53	88.94
485.71	16.38
485.89	35.11
486.07	49.15
486.25	53.83
486.43	53.83
486.61	42.13
486.78	88.94
486.96	72.56
487.14	56.17
487.32	51.49
487.50	42.13
487.68	44.47
487.85	81.92
488.03	11.70
488.21	51.49
488.39	0.00
488.57	11.70
488.75	60.85
488.92	81.92
489.10	65.54
489.28	4.68
489.46	84.26
489.64	0.00
489.81	9.36
489.99	0.00
490.17	16.38
490.35	51.49
490.53	74.90
490.70	2.34
490.88	46.81
491.06	95.96
491.24	39.79
491.41	0.00
491.59	0.00
491.77	14.04
491.95	0.00
492.13	0.00
492.30	98.30
492.48	0.00
492.66	46.81
492.84	16.38
493.01	9.36
493.19	72.56
493.37	16.38
493.54	4.68
493.72	42.13
493.90	35.11
494.08	93.62
494.25	49.15
494.43	28.09
494.61	49.15
494.79	133.41
494.96	44.47
495.14	35.11
495.32	51.49
495.49	58.51
495.67	2.34
495.85	28.09
496.02	21.06
496.20	0.00
496.38	70.22
496.55	18.72
496.73	28.09
496.91	79.58
497.09	23.41
497.26	63.19
497.44	70.22
497.62	53.83
497.79	30.43
497.97	67.88
498.14	67.88
498.32	7.02
498.50	0.00
498.67	42.13
498.85	70.22
499.03	28.09
499.20	30.43
499.38	35.11
499.56	23.41
499.73	100.64
499.91	14.04
500.08	7.02
500.26	88.94
500.44	0.00
500.61	23.41
500.79	14.04
500.97	21.06
501.14	0.00
501.32	65.54
501.49	35.11
501.67	44.47
501.84	0.00
502.02	0.00
502.20	46.81
502.37	0.00
502.55	42.13
502.72	0.00
502.90	11.70
503.07	2.34
503.25	65.54
503.43	58.51
503.60	7.02
503.78	0.00
503.95	25.75
504.13	53.83
504.30	28.09
504.48	23.41
504.65	23.41
504.83	49.15
505.01	79.58
505.18	93.62
505.36	42.13
505.53	14.04
505.71	25.75
505.88	9.36
506.06	14.04
506.23	0.00
506.41	37.45
506.58	0.00
506.76	56.17
506.93	0.00
507.11	0.00
507.28	18.72
507.46	28.09
507.63	51.49
507.81	70.22
507.98	53.83
508.16	56.17
508.33	0.00
508.50	18.72
508.68	56.17
508.85	30.43
509.03	23.41
509.20	7.02
509.38	49.15
509.55	67.88
509.73	65.54
509.90	102.98
510.08	51.49
510.25	56.17
510.42	81.92
510.60	51.49
510.77	11.70
510.95	0.00
511.12	107.66
511.30	84.26
511.47	16.38
511.64	21.06
511.82	93.62
511.99	91.28
512.17	37.45
512.34	23.41
512.51	46.81
512.69	0.00
512.86	44.47
513.04	25.75
513.21	32.77
513.38	21.06
513.56	53.83
513.73	0.00
513.90	28.09
514.08	0.00
514.25	0.00
514.43	18.72
514.60	46.81
514.77	63.19
514.95	37.45
515.12	53.83
515.29	86.60
515.47	74.90
515.64	44.47
515.81	21.06
515.99	35.11
516.16	74.90
516.33	16.38
516.51	53.83
516.68	0.00
516.85	28.09
517.03	18.72
517.20	16.38
517.37	32.77
517.54	32.77
517.72	70.22
517.89	51.49
518.06	9.36
518.24	58.51
518.41	102.98
518.58	28.09
518.75	60.85
518.93	91.28
519.10	0.00
519.27	102.98
519.45	100.64
519.62	72.56
519.79	107.66
519.96	49.15
520.14	16.38
520.31	18.72
520.48	70.22
520.65	86.60
520.83	0.00
521.00	98.30
521.17	65.54
521.34	44.47
521.52	58.51
521.69	0.00
521.86	0.00
522.03	81.92
522.20	79.58
522.38	28.09
522.55	37.45
522.72	44.47
522.89	37.45
523.07	86.60
523.24	0.00
523.41	14.04
523.58	117.03
523.75	51.49
523.92	42.13
524.10	18.72
524.27	107.66
524.44	51.49
524.61	25.75
524.78	58.51
524.96	81.92
525.13	65.54
525.30	42.13
525.47	0.00
525.64	95.96
525.81	63.19
525.98	63.19
526.16	25.75
526.33	77.24
526.50	93.62
526.67	25.75
526.84	63.19
527.01	14.04
527.18	0.00
527.36	18.72
527.53	35.11
527.70	39.79
527.87	32.77
528.04	51.49
528.21	102.98
528.38	86.60
528.55	25.75
528.72	32.77
528.89	37.45
529.07	81.92
529.24	39.79
529.41	70.22
529.58	95.96
529.75	65.54
529.92	23.41
530.09	58.51
530.26	65.54
530.43	42.13
530.60	56.17
530.77	39.79
530.94	56.17
531.11	44.47
531.28	23.41
531.46	49.15
531.63	25.75
531.80	18.72
531.97	60.85
532.14	74.90
532.31	49.15
532.48	28.09
532.65	53.83
532.82	56.17
532.99	74.90
533.16	95.96
533.33	91.28
533.50	51.49
533.67	37.45
533.84	77.24
534.01	37.45
534.18	0.00
534.35	49.15
534.52	37.45
534.69	23.41
534.86	65.54
535.03	67.88
535.20	2.34
535.37	58.51
535.54	28.09
535.71	0.00
535.88	42.13
536.05	16.38
536.22	37.45
536.38	74.90
536.55	39.79
536.72	86.60
536.89	56.17
537.06	0.00
537.23	51.49
537.40	16.38
537.57	0.00
537.74	37.45
537.91	72.56
538.08	0.00
538.25	14.04
538.42	119.37
538.59	32.77
538.75	0.00
538.92	9.36
539.09	0.00
539.26	51.49
539.43	21.06
539.60	49.15
539.77	32.77
539.94	133.41
540.11	30.43
540.28	18.72
540.44	0.00
540.61	30.43
540.78	28.09
540.95	14.04
541.12	23.41
541.29	65.54
541.46	23.41
541.62	77.24
541.79	21.06
541.96	56.17
542.13	11.70
542.30	65.54
542.47	93.62
542.63	74.90
542.80	35.11
542.97	91.28
543.14	70.22
543.31	72.56
543.48	58.51
543.64	37.45
543.81	58.51
543.98	42.13
544.15	63.19
544.32	117.03
544.48	67.88
544.65	39.79
544.82	7.02
544.99	11.70
545.16	86.60
545.32	25.75
545.49	95.96
545.66	102.98
545.83	28.09
546.00	0.00
546.16	56.17
546.33	35.11
546.50	4.68
546.67	0.00
546.83	100.64
547.00	2.34
547.17	2.34
547.34	88.94
547.50	32.77
547.67	23.41
547.84	81.92
548.00	86.60
548.17	51.49
548.34	0.00
548.51	30.43
548.67	95.96
548.84	0.00
549.01	30.43
549.18	11.70
549.34	60.85
549.51	72.56
549.68	14.04
549.84	51.49
550.01	0.00
550.18	21.06
550.34	46.81
550.51	44.47
550.68	79.58
550.84	65.54
551.01	56.17
551.18	28.09
551.34	0.00
551.51	84.26
551.68	25.75
551.84	0.00
552.01	39.79
552.18	49.15
552.34	39.79
552.51	28.09
552.68	86.60
552.84	39.79
553.01	37.45
553.18	18.72
553.34	110.01
553.51	0.00
553.67	30.43
553.84	81.92
554.01	16.38
554.17	95.96
554.34	11.70
554.51	0.00
554.67	74.90
554.84	42.13
555.00	49.15
555.17	0.00
555.33	112.35
555.50	102.98
555.67	0.00
555.83	35.11
556.00	25.75
556.16	0.00
556.33	0.00
556.50	117.03
556.66	51.49
556.83	4.68
556.99	74.90
557.16	14.04
557.32	0.00
557.49	0.00
557.65	0.00
557.82	35.11
557.98	46.81
558.15	44.47
558.32	32.77
558.48	39.79
558.65	0.00
558.81	112.35
558.98	56.17
559.14	70.22
559.31	67.88
559.47	18.72
559.64	32.77
559.80	44.47
559.97	0.00
560.13	44.47
560.30	53.83
560.46	60.85
560.63	9.36
560.79	65.54
560.96	16.38
561.12	51.49
561.29	98.30
561.45	0.00
561.61	25.75
561.78	56.17
561.94	0.00
562.11	0.00
562.27	30.43
562.44	49.15
562.60	56.17
562.77	0.00
562.93	0.00
563.10	67.88
563.26	72.56
563.42	51.49
563.59	4.68
563.75	60.85
563.92	42.13
564.08	88.94
564.24	110.01
564.41	93.62
564.57	81.92
564.74	0.00
564.90	93.62
565.07	95.96
565.23	119.37
565.39	0.00
565.56	2.34
565.72	0.00
565.88	2.34
566.05	63.19
566.21	102.98
566.38	39.79
566.54	0.00
566.70	56.17
566.87	51.49
567.03	131.07
567.19	0.00
567.36	28.09
567.52	0.00
567.68	0.00
567.85	16.38
568.01	0.00
568.17	51.49
568.34	0.00
568.50	110.01
568.66	32.77
568.83	30.43
568.99	18.72
569.15	32.77
569.32	35.11
569.48	0.00
569.64	39.79
569.81	16.38
569.97	49.15
570.13	105.32
570.30	56.17
570.46	67.88
570.62	0.00
570.78	86.60
570.95	58.51
571.11	98.30
571.27	49.15
571.43	4.68
571.60	14.04
571.76	131.07
571.92	35.11
572.09	0.00
572.25	16.38
572.41	25.75
572.57	77.24
572.74	25.75
572.90	0.00
573.06	25.75
573.22	77.24
573.38	107.66
573.55	37.45
573.71	23.41
573.87	11.70
574.03	21.06
574.20	42.13
574.36	56.17
574.52	100.64
574.68	93.62
574.84	0.00
575.01	72.56
575.17	37.45
575.33	21.06
575.49	9.36
575.65	16.38
575.82	46.81
575.98	100.64
576.14	46.81
576.30	0.00
576.46	30.43
576.62	4.68
576.79	114.69
576.95	46.81
577.11	18.72
577.27	51.49
577.43	39.79
577.59	28.09
577.75	81.92
577.92	0.00
578.08	163.84
578.24	18.72
578.40	0.00
578.56	0.00
578.72	91.28
578.88	0.00
579.04	114.69
579.21	4.68
579.37	65.54
579.53	79.58
579.69	30.43
579.85	46.81
580.01	65.54
580.17	28.09
580.33	0.00
580.49	32.77
580.65	11.70
580.82	0.00
580.98	18.72
581.14	0.00
581.30	65.54
581.46	88.94
581.62	84.26
581.78	70.22
581.94	16.38
582.10	0.00
582.26	86.60
582.42	0.00
582.58	58.51
582.74	11.70
582.90	46.81
583.06	107.66
583.22	46.81
583.38	28.09
583.54	46.81
583.70	7.02
583.86	46.81
584.02	30.43
584.18	110.01
584.34	37.45
584.50	145.11
584.66	257.46
584.82	608.54
584.98	910.47
585.14	947.92
585.30	510.24
585.46	374.49
585.62	222.35
585.78	208.31
585.94	14.04
586.10	51.49
586.26	65.54
586.42	72.56
586.58	32.77
586.74	84.26
586.90	67.88
587.06	77.24
587.22	11.70
587.38	91.28
587.54	14.04
587.70	53.83
587.86	86.60
588.02	117.03
588.18	81.92
588.34	93.62
588.49	119.37
588.65	23.41
588.81	70.22
588.97	28.09
589.13	0.00
589.29	42.13
589.45	42.13
589.61	117.03
589.77	67.88
589.93	11.70
590.08	9.36
590.24	37.45
590.40	21.06
590.56	0.00
590.72	46.81
590.88	32.77
591.04	72.56
591.20	42.13
591.35	32.77
591.51	44.47
591.67	21.06
591.83	58.51
591.99	70.22
592.15	0.00
592.31	98.30
592.46	86.60
592.62	16.38
592.78	25.75
592.94	28.09
593.10	53.83
593.26	11.70
593.41	0.00
593.57	16.38
593.73	28.09
593.89	28.09
594.05	121.71
594.20	154.48
594.36	128.73
594.52	119.37
594.68	98.30
594.84	100.64
594.99	14.04
595.15	42.13
595.31	91.28
595.47	42.13
595.62	11.70
595.78	49.15
595.94	65.54
596.10	9.36
596.25	93.62
596.41	0.00
596.57	30.43
596.73	0.00
596.88	91.28
597.04	0.00
597.20	77.24
597.36	58.51
597.51	18.72
597.67	49.15
597.83	28.09
597.99	35.11
598.14	18.72
598.30	70.22
598.46	32.77
598.61	25.75
598.77	51.49
598.93	21.06
599.09	93.62
599.24	32.77
599.40	60.85
599.56	51.49
599.71	28.09
599.87	42.13
600.03	95.96
600.18	4.68
600.34	25.75
600.50	56.17
600.65	102.98
600.81	0.00
600.97	98.30
601.12	21.06
601.28	14.04
601.44	133.41
601.59	4.68
601.75	42.13
601.91	21.06
602.06	0.00
602.22	42.13
602.37	0.00
602.53	105.32
602.69	79.58
602.84	95.96
603.00	135.75
603.16	0.00
603.31	0.00
603.47	0.00
603.62	32.77
603.78	56.17
603.94	39.79
604.09	60.85
604.25	49.15
604.40	65.54
604.56	25.75
604.71	30.43
604.87	37.45
605.03	0.00
605.18	0.00
605.34	42.13
605.49	0.00
605.65	0.00
605.80	77.24
605.96	56.17
606.12	74.90
606.27	126.39
606.43	4.68
606.58	53.83
606.74	95.96
606.89	53.83
607.05	0.00
607.20	124.05
607.36	102.98
607.51	156.82
607.67	77.24
607.82	124.05
607.98	117.03
608.13	23.41
608.29	51.49
608.44	84.26
608.60	39.79
608.75	131.07
608.91	49.15
609.06	142.77
609.22	126.39
609.37	250.44
609.53	231.71
609.68	114.69
609.84	58.51
609.99	65.54
610.15	56.17
610.30	93.62
610.46	2.34
610.61	91.28
610.76	91.28
610.92	21.06
611.07	0.00
611.23	81.92
611.38	70.22
611.54	74.90
611.69	70.22
611.84	30.43
612.00	16.38
612.15	42.13
612.31	32.77
612.46	0.00
612.62	0.00
612.77	88.94
612.92	60.85
613.08	32.77
613.23	93.62
613.39	102.98
613.54	56.17
613.69	107.66
613.85	234.05
614.00	248.10
614.15	315.97
614.31	229.37
614.46	124.05
614.62	77.24
614.77	117.03
614.92	65.54
615.08	102.98
615.23	60.85
615.38	63.19
615.54	4.68
615.69	9.36
615.84	100.64
616.00	117.03
616.15	74.90
616.30	49.15
616.46	84.26
616.61	42.13
616.76	74.90
616.92	60.85
617.07	44.47
617.22	58.51
617.37	7.02
617.53	42.13
617.68	100.64
617.83	63.19
617.99	0.00
618.14	32.77
618.29	9.36
618.45	25.75
618.60	60.85
618.75	72.56
618.90	37.45
619.06	0.00
619.21	46.81
619.36	44.47
619.51	32.77
619.67	65.54
619.82	7.02
619.97	44.47
620.12	86.60
620.28	117.03
620.43	77.24
620.58	32.77
620.73	32.77
620.89	25.75
621.04	49.15
621.19	102.98
621.34	79.58
621.49	112.35
621.65	67.88
621.80	156.82
621.95	65.54
622.10	81.92
622.25	107.66
622.41	65.54
622.56	56.17
622.71	28.09
622.86	30.43
623.01	35.11
623.16	18.72
623.32	30.43
623.47	112.35
623.62	56.17
623.77	30.43
623.92	42.13
624.07	21.06
624.23	23.41
624.38	32.77
624.53	56.17
624.68	9.36
624.83	102.98
624.98	9.36
625.13	42.13
625.29	16.38
625.44	4.68
625.59	18.72
625.74	46.81
625.89	86.60
626.04	93.62
626.19	161.50
626.34	140.43
626.49	189.58
626.65	166.18
626.80	138.09
626.95	70.22
627.10	58.51
627.25	53.83
627.40	46.81
627.55	9.36
627.70	51.49
627.85	63.19
628.00	39.79
628.15	30.43
628.30	53.83
628.45	44.47
628.60	0.00
628.76	70.22
628.91	0.00
629.06	119.37
629.21	56.17
629.36	9.36
629.51	42.13
629.66	46.81
629.81	0.00
629.96	0.00
630.11	44.47
630.26	84.26
630.41	56.17
630.56	100.64
630.71	65.54
630.86	0.00
631.01	67.88
631.16	49.15
631.31	124.05
631.46	16.38
631.61	93.62
631.76	79.58
631.91	0.00
632.06	46.81
632.21	86.60
632.36	42.13
632.51	39.79
632.66	18.72
632.81	16.38
632.96	44.47
633.10	166.18
633.25	152.13
633.40	166.18
633.55	105.32
633.70	138.09
633.85	93.62
634.00	23.41
634.15	11.70
634.30	0.00
634.45	18.72
634.60	42.13
634.75	32.77
634.90	23.41
635.05	18.72
635.19	95.96
635.34	51.49
635.49	49.15
635.64	58.51
635.79	21.06
635.94	49.15
636.09	23.41
636.24	67.88
636.39	25.75
636.53	0.00
636.68	2.34
636.83	21.06
636.98	32.77
637.13	18.72
637.28	67.88
637.43	72.56
637.57	0.00
637.72	117.03
637.87	81.92
638.02	156.82
638.17	217.67
638.32	166.18
638.46	93.62
638.61	198.95
638.76	37.45
638.91	46.81
639.06	51.49
639.20	100.64
639.35	72.56
639.50	30.43
639.65	128.73
639.80	163.84
639.94	283.20
640.09	393.21
640.24	259.80
640.39	198.95
640.54	163.84
640.68	11.70
640.83	23.41
640.98	21.06
641.13	53.83
641.27	58.51
641.42	39.79
641.57	28.09
641.72	60.85
641.86	7.02
642.01	44.47
642.16	0.00
642.31	21.06
642.45	0.00
642.60	39.79
642.75	28.09
642.90	9.36
643.04	21.06
643.19	21.06
643.34	21.06
643.48	53.83
643.63	0.00
643.78	46.81
643.93	9.36
644.07	14.04
644.22	65.54
644.37	7.02
644.51	44.47
644.66	65.54
644.81	65.54
644.95	100.64
645.10	0.00
645.25	32.77
645.39	112.35
645.54	88.94
645.69	65.54
645.83	0.00
645.98	25.75
646.13	37.45
646.27	0.00
646.42	0.00
646.57	37.45
646.71	0.00
646.86	7.02
647.00	4.68
647.15	79.58
647.30	91.28
647.44	44.47
647.59	35.11
647.74	46.81
647.88	18.72
648.03	0.00
648.17	30.43
648.32	37.45
648.47	42.13
648.61	0.00
648.76	49.15
648.90	28.09
649.05	58.51
649.20	16.38
649.34	39.79
649.49	23.41
649.63	44.47
649.78	0.00
649.92	42.13
650.07	67.88
650.21	119.37
650.36	142.77
650.51	215.33
650.65	201.29
650.80	93.62
650.94	28.09
651.09	117.03
651.23	46.81
651.38	102.98
651.52	88.94
651.67	0.00
651.81	0.00
651.96	0.00
652.10	70.22
652.25	0.00
652.39	0.00
652.54	2.34
652.68	37.45
652.83	74.90
652.97	138.09
653.12	53.83
653.26	93.62
653.41	65.54
653.55	0.00
653.70	91.28
653.84	30.43
653.99	46.81
654.13	79.58
654.27	0.00
654.42	95.96
654.56	51.49
654.71	0.00
654.85	0.00
655.00	0.00
655.14	72.56
655.29	58.51
655.43	25.75
655.57	2.34
655.72	39.79
655.86	0.00
656.01	86.60
656.15	70.22
656.30	4.68
656.44	0.00
656.58	79.58
656.73	25.75
656.87	60.85
657.01	7.02
657.16	53.83
657.30	65.54
657.45	0.00
657.59	9.36
657.73	18.72
657.88	25.75
658.02	11.70
658.16	32.77
658.31	79.58
658.45	46.81
658.60	2.34
658.74	107.66
658.88	44.47
659.03	56.17
659.17	67.88
659.31	0.00
659.46	77.24
659.60	102.98
659.74	105.32
659.89	133.41
660.03	51.49
660.17	161.50
660.32	21.06
660.46	63.19
660.60	30.43
660.74	0.00
660.89	9.36
661.03	0.00
661.17	0.00
661.32	49.15
661.46	0.00
661.60	0.00
661.74	107.66
661.89	79.58
662.03	58.51
662.17	0.00
662.31	42.13
662.46	49.15
662.60	51.49
662.74	7.02
662.88	107.66
663.03	7.02
663.17	32.77
663.31	0.00
663.45	84.26
663.60	0.00
663.74	11.70
663.88	23.41
664.02	42.13
664.17	32.77
664.31	23.41
664.45	42.13
664.59	63.19
664.73	60.85
664.88	131.07
665.02	39.79
665.16	28.09
665.30	32.77
665.44	32.77
665.59	2.34
665.73	53.83
665.87	23.41
666.01	4.68
666.15	39.79
666.29	49.15
666.44	67.88
666.58	37.45
666.72	49.15
666.86	72.56
667.00	35.11
667.14	39.79
667.28	67.88
667.43	145.11
667.57	152.13
667.71	117.03
667.85	79.58
667.99	112.35
668.13	93.62
668.27	65.54
668.41	121.71
668.56	25.75
668.70	16.38
668.84	65.54
668.98	18.72
669.12	0.00
669.26	25.75
669.40	91.28
669.54	0.00
669.68	11.70
669.82	7.02
669.96	58.51
670.10	72.56
670.25	14.04
670.39	0.00
670.53	30.43
670.67	0.00
670.81	23.41
670.95	53.83
671.09	4.68
671.23	86.60
671.37	88.94
671.51	105.32
671.65	56.17
671.79	117.03
671.93	128.73
672.07	102.98
672.21	63.19
672.35	0.00
672.49	74.90
672.63	56.17
672.77	44.47
672.91	0.00
673.05	32.77
673.19	0.00
673.33	112.35
673.47	56.17
673.61	35.11
673.75	11.70
673.89	42.13
674.03	51.49
674.17	0.00
674.31	60.85
674.45	0.00
674.59	81.92
674.73	70.22
674.87	56.17
675.01	9.36
675.15	28.09
675.29	49.15
675.43	49.15
675.56	65.54
675.70	35.11
675.84	0.00
675.98	0.00
676.12	58.51
676.26	0.00
676.40	60.85
676.54	39.79
676.68	107.66
676.82	30.43
676.96	117.03
677.10	39.79
677.23	28.09
677.37	0.00
677.51	37.45
677.65	0.00
677.79	53.83
677.93	28.09
678.07	16.38
678.21	0.00
678.34	0.00
678.48	0.00
678.62	4.68
678.76	0.00
678.90	65.54
679.04	42.13
679.18	18.72
679.31	51.49
679.45	30.43
679.59	16.38
679.73	0.00
679.87	49.15
680.00	44.47
680.14	60.85
680.28	60.85
680.42	84.26
680.56	23.41
680.70	51.49
680.83	44.47
680.97	42.13
681.11	4.68
681.25	53.83
681.39	14.04
681.52	14.04
681.66	44.47
681.80	0.00
681.94	44.47
682.07	74.90
682.21	35.11
682.35	0.00
682.49	2.34
682.62	53.83
682.76	74.90
682.90	28.09
683.04	133.41
683.17	35.11
683.31	0.00
683.45	65.54
683.59	2.34
683.72	14.04
683.86	25.75
684.00	4.68
684.13	18.72
684.27	56.17
684.41	9.36
684.55	0.00
684.68	32.77
684.82	67.88
684.96	0.00
685.09	98.30
685.23	11.70
685.37	18.72
685.50	16.38
685.64	56.17
685.78	30.43
685.91	46.81
686.05	18.72
686.19	0.00
686.32	39.79
686.46	16.38
686.60	32.77
686.73	107.66
686.87	77.24
687.01	2.34
687.14	0.00
687.28	37.45
687.42	74.90
687.55	84.26
687.69	23.41
687.82	39.79
687.96	32.77
688.10	35.11
688.23	77.24
688.37	53.83
688.50	0.00
688.64	0.00
688.78	77.24
688.91	60.85
689.05	18.72
689.18	23.41
689.32	18.72
689.46	9.36
689.59	23.41
689.73	42.13
689.86	0.00
690.00	0.00
690.13	49.15
690.27	91.28
690.41	30.43
690.54	28.09
690.68	32.77
690.81	9.36
690.95	14.04
691.08	46.81
691.22	44.47
691.35	4.68
691.49	35.11
691.62	28.09
691.76	28.09
691.89	23.41
692.03	2.34
692.16	60.85
692.30	119.37
692.43	0.00
692.57	4.68
692.70	112.35
692.84	63.19
692.97	138.09
693.11	60.85
693.24	28.09
693.38	51.49
693.51	39.79
693.65	72.56
693.78	44.47
693.92	0.00
694.05	23.41
694.19	4.68
694.32	0.00
694.45	35.11
694.59	35.11
694.72	21.06
694.86	30.43
694.99	42.13
695.13	37.45
695.26	44.47
695.39	16.38
695.53	42.13
695.66	23.41
695.80	23.41
695.93	14.04
696.07	23.41
696.20	42.13
696.33	63.19
696.47	16.38
696.60	58.51
696.73	0.00
696.87	37.45
697.00	105.32
697.14	32.77
697.27	39.79
697.40	37.45
697.54	81.92
697.67	18.72
697.80	11.70
697.94	25.75
698.07	25.75
698.21	11.70
698.34	0.00
698.47	0.00
698.61	60.85
698.74	32.77
698.87	18.72
699.01	44.47
699.14	7.02
699.27	91.28
699.40	39.79
699.54	37.45
699.67	0.00
699.80	51.49
699.94	77.24
700.07	0.00
700.20	21.06
700.34	0.00
700.47	58.51
700.60	91.28
700.73	74.90
700.87	23.41
701.00	0.00
701.13	0.00
701.26	25.75
701.40	2.34
701.53	0.00
701.66	0.00
701.79	65.54
701.93	16.38
702.06	18.72
702.19	44.47
702.32	0.00
702.46	25.75
702.59	7.02
702.72	51.49
702.85	4.68
702.99	35.11
703.12	124.05
703.25	128.73
703.38	215.33
703.51	88.94
703.65	98.30
703.78	100.64
703.91	102.98
704.04	14.04
704.17	0.00
704.31	49.15
704.44	0.00
704.57	42.13
704.70	77.24
704.83	44.47
704.96	102.98
705.10	0.00
705.23	9.36
>>>>>End Processed Spectral Data<<<<<
