SpectraSuite Data File
++++++++++++++++++++++++++++++++++++
Date: Fri Oct 04 12:13:29 GMT-05:00 2013
User: price-jones
Dark Spectrum Present: No
Reference Spectrum Present: No
Number of Sampled Component Spectra: 1
Spectrometers: USB2+H05261
Integration Time (usec): 10000 (USB2+H05261)
Spectra Averaged: 1 (USB2+H05261)
Boxcar Smoothing: 0 (USB2+H05261)
Correct for Electrical Dark: No (USB2+H05261)
Strobe/Lamp Enabled: No (USB2+H05261)
Correct for Detector Non-linearity: No (USB2+H05261)
Correct for Stray Light: No (USB2+H05261)
Number of Pixels in Processed Spectrum: 2048
>>>>>Begin Processed Spectral Data<<<<<
365.73	0.00
365.92	0.00
366.12	0.00
366.32	0.00
366.52	0.00
366.72	0.00
366.91	0.00
367.11	0.00
367.31	0.00
367.51	0.00
367.70	0.00
367.90	0.00
368.10	0.00
368.30	0.00
368.49	0.00
368.69	0.00
368.89	0.00
369.09	0.00
369.28	0.00
369.48	0.00
369.68	0.00
369.87	0.00
370.07	0.00
370.27	0.00
370.47	0.00
370.66	0.00
370.86	0.00
371.06	21.06
371.25	0.00
371.45	0.00
371.65	0.00
371.84	44.47
372.04	9.36
372.24	0.00
372.44	25.75
372.63	0.00
372.83	11.70
373.03	44.47
373.22	53.83
373.42	11.70
373.62	49.15
373.81	7.02
374.01	58.51
374.21	0.00
374.40	9.36
374.60	35.11
374.79	0.00
374.99	9.36
375.19	65.54
375.38	0.00
375.58	11.70
375.78	0.00
375.97	39.79
376.17	58.51
376.37	0.00
376.56	0.00
376.76	0.00
376.95	9.36
377.15	42.13
377.35	0.00
377.54	2.34
377.74	0.00
377.93	39.79
378.13	4.68
378.33	23.41
378.52	21.06
378.72	0.00
378.91	0.00
379.11	65.54
379.31	72.56
379.50	51.49
379.70	14.04
379.89	9.36
380.09	0.00
380.28	51.49
380.48	37.45
380.68	0.00
380.87	32.77
381.07	53.83
381.26	49.15
381.46	135.75
381.65	16.38
381.85	0.00
382.04	49.15
382.24	9.36
382.43	37.45
382.63	0.00
382.83	0.00
383.02	7.02
383.22	0.00
383.41	0.00
383.61	0.00
383.80	0.00
384.00	0.00
384.19	0.00
384.39	0.00
384.58	60.85
384.78	9.36
384.97	4.68
385.17	56.17
385.36	53.83
385.56	0.00
385.75	0.00
385.95	0.00
386.14	42.13
386.34	0.00
386.53	0.00
386.72	39.79
386.92	0.00
387.11	35.11
387.31	93.62
387.50	32.77
387.70	39.79
387.89	35.11
388.09	39.79
388.28	51.49
388.48	81.92
388.67	4.68
388.86	67.88
389.06	18.72
389.25	0.00
389.45	0.00
389.64	0.00
389.84	30.43
390.03	0.00
390.22	0.00
390.42	11.70
390.61	25.75
390.81	0.00
391.00	9.36
391.19	0.00
391.39	16.38
391.58	28.09
391.78	18.72
391.97	21.06
392.16	63.19
392.36	30.43
392.55	44.47
392.75	25.75
392.94	114.69
393.13	23.41
393.33	53.83
393.52	35.11
393.71	7.02
393.91	53.83
394.10	0.00
394.29	0.00
394.49	42.13
394.68	14.04
394.88	100.64
395.07	112.35
395.26	0.00
395.46	0.00
395.65	14.04
395.84	100.64
396.04	16.38
396.23	0.00
396.42	0.00
396.62	53.83
396.81	63.19
397.00	60.85
397.19	100.64
397.39	49.15
397.58	16.38
397.77	49.15
397.97	37.45
398.16	30.43
398.35	21.06
398.55	0.00
398.74	77.24
398.93	18.72
399.12	51.49
399.32	9.36
399.51	51.49
399.70	14.04
399.90	16.38
400.09	77.24
400.28	91.28
400.47	37.45
400.67	51.49
400.86	28.09
401.05	16.38
401.24	70.22
401.44	28.09
401.63	32.77
401.82	9.36
402.01	0.00
402.21	16.38
402.40	18.72
402.59	37.45
402.78	0.00
402.97	0.00
403.17	49.15
403.36	93.62
403.55	0.00
403.74	0.00
403.93	0.00
404.13	0.00
404.32	81.92
404.51	51.49
404.70	21.06
404.89	0.00
405.09	35.11
405.28	16.38
405.47	39.79
405.66	65.54
405.85	25.75
406.05	0.00
406.24	70.22
406.43	21.06
406.62	9.36
406.81	4.68
407.00	0.00
407.20	67.88
407.39	44.47
407.58	70.22
407.77	7.02
407.96	51.49
408.15	25.75
408.34	7.02
408.54	0.00
408.73	0.00
408.92	65.54
409.11	2.34
409.30	28.09
409.49	35.11
409.68	88.94
409.87	63.19
410.07	30.43
410.26	93.62
410.45	67.88
410.64	0.00
410.83	0.00
411.02	39.79
411.21	86.60
411.40	95.96
411.59	23.41
411.78	35.11
411.98	39.79
412.17	16.38
412.36	2.34
412.55	51.49
412.74	93.62
412.93	44.47
413.12	102.98
413.31	37.45
413.50	49.15
413.69	51.49
413.88	21.06
414.07	16.38
414.26	0.00
414.45	65.54
414.64	16.38
414.83	2.34
415.02	0.00
415.22	2.34
415.41	81.92
415.60	51.49
415.79	46.81
415.98	18.72
416.17	37.45
416.36	9.36
416.55	56.17
416.74	21.06
416.93	0.00
417.12	21.06
417.31	77.24
417.50	0.00
417.69	2.34
417.88	28.09
418.07	0.00
418.26	2.34
418.45	11.70
418.64	56.17
418.83	21.06
419.02	49.15
419.21	0.00
419.39	0.00
419.58	9.36
419.77	42.13
419.96	2.34
420.15	46.81
420.34	67.88
420.53	0.00
420.72	0.00
420.91	30.43
421.10	42.13
421.29	58.51
421.48	49.15
421.67	88.94
421.86	88.94
422.05	37.45
422.24	16.38
422.43	4.68
422.61	28.09
422.80	60.85
422.99	58.51
423.18	32.77
423.37	32.77
423.56	67.88
423.75	0.00
423.94	51.49
424.13	37.45
424.32	65.54
424.50	28.09
424.69	18.72
424.88	35.11
425.07	0.00
425.26	16.38
425.45	16.38
425.64	23.41
425.83	16.38
426.01	16.38
426.20	7.02
426.39	39.79
426.58	42.13
426.77	9.36
426.96	0.00
427.15	72.56
427.33	21.06
427.52	49.15
427.71	4.68
427.90	100.64
428.09	32.77
428.28	0.00
428.46	77.24
428.65	25.75
428.84	42.13
429.03	49.15
429.22	42.13
429.40	88.94
429.59	0.00
429.78	70.22
429.97	51.49
430.16	44.47
430.34	14.04
430.53	23.41
430.72	84.26
430.91	0.00
431.10	21.06
431.28	65.54
431.47	21.06
431.66	28.09
431.85	25.75
432.03	84.26
432.22	100.64
432.41	14.04
432.60	65.54
432.79	0.00
432.97	2.34
433.16	32.77
433.35	7.02
433.54	35.11
433.72	39.79
433.91	0.00
434.10	0.00
434.28	0.00
434.47	51.49
434.66	0.00
434.85	25.75
435.03	0.00
435.22	0.00
435.41	72.56
435.59	23.41
435.78	39.79
435.97	21.06
436.16	44.47
436.34	49.15
436.53	35.11
436.72	56.17
436.90	35.11
437.09	21.06
437.28	0.00
437.46	42.13
437.65	0.00
437.84	2.34
438.02	25.75
438.21	7.02
438.40	0.00
438.58	56.17
438.77	72.56
438.96	51.49
439.14	53.83
439.33	51.49
439.52	44.47
439.70	0.00
439.89	30.43
440.08	18.72
440.26	67.88
440.45	18.72
440.63	74.90
440.82	84.26
441.01	39.79
441.19	37.45
441.38	14.04
441.57	56.17
441.75	21.06
441.94	11.70
442.12	37.45
442.31	9.36
442.50	53.83
442.68	37.45
442.87	23.41
443.05	2.34
443.24	70.22
443.43	14.04
443.61	32.77
443.80	35.11
443.98	79.58
444.17	72.56
444.35	25.75
444.54	0.00
444.73	49.15
444.91	7.02
445.10	42.13
445.28	0.00
445.47	0.00
445.65	0.00
445.84	37.45
446.02	35.11
446.21	0.00
446.39	0.00
446.58	93.62
446.77	25.75
446.95	23.41
447.14	65.54
447.32	51.49
447.51	7.02
447.69	88.94
447.88	58.51
448.06	58.51
448.25	35.11
448.43	2.34
448.62	39.79
448.80	63.19
448.99	23.41
449.17	7.02
449.36	65.54
449.54	56.17
449.73	32.77
449.91	23.41
450.10	42.13
450.28	18.72
450.46	21.06
450.65	53.83
450.83	65.54
451.02	65.54
451.20	2.34
451.39	2.34
451.57	37.45
451.76	4.68
451.94	56.17
452.13	86.60
452.31	4.68
452.49	37.45
452.68	37.45
452.86	0.00
453.05	42.13
453.23	72.56
453.42	51.49
453.60	0.00
453.78	25.75
453.97	23.41
454.15	58.51
454.34	0.00
454.52	0.00
454.70	51.49
454.89	42.13
455.07	56.17
455.26	9.36
455.44	18.72
455.62	25.75
455.81	88.94
455.99	65.54
456.17	0.00
456.36	65.54
456.54	77.24
456.73	37.45
456.91	23.41
457.09	30.43
457.28	0.00
457.46	51.49
457.64	0.00
457.83	14.04
458.01	0.00
458.19	0.00
458.38	39.79
458.56	84.26
458.74	0.00
458.93	25.75
459.11	0.00
459.29	7.02
459.48	18.72
459.66	44.47
459.84	105.32
460.03	37.45
460.21	0.00
460.39	49.15
460.57	65.54
460.76	7.02
460.94	0.00
461.12	72.56
461.31	9.36
461.49	21.06
461.67	28.09
461.85	37.45
462.04	4.68
462.22	138.09
462.40	63.19
462.59	72.56
462.77	28.09
462.95	0.00
463.13	51.49
463.32	7.02
463.50	74.90
463.68	46.81
463.86	32.77
464.05	0.00
464.23	23.41
464.41	9.36
464.59	0.00
464.78	0.00
464.96	53.83
465.14	16.38
465.32	46.81
465.50	63.19
465.69	16.38
465.87	65.54
466.05	0.00
466.23	0.00
466.41	0.00
466.60	53.83
466.78	16.38
466.96	74.90
467.14	16.38
467.32	4.68
467.51	74.90
467.69	39.79
467.87	28.09
468.05	70.22
468.23	58.51
468.41	100.64
468.60	74.90
468.78	18.72
468.96	51.49
469.14	37.45
469.32	0.00
469.50	0.00
469.69	25.75
469.87	14.04
470.05	18.72
470.23	65.54
470.41	37.45
470.59	0.00
470.77	46.81
470.95	30.43
471.14	51.49
471.32	53.83
471.50	0.00
471.68	23.41
471.86	30.43
472.04	53.83
472.22	46.81
472.40	21.06
472.58	79.58
472.77	42.13
472.95	9.36
473.13	0.00
473.31	9.36
473.49	25.75
473.67	35.11
473.85	4.68
474.03	7.02
474.21	23.41
474.39	70.22
474.57	65.54
474.75	7.02
474.93	0.00
475.12	42.13
475.30	11.70
475.48	79.58
475.66	37.45
475.84	37.45
476.02	60.85
476.20	25.75
476.38	53.83
476.56	138.09
476.74	58.51
476.92	9.36
477.10	84.26
477.28	0.00
477.46	42.13
477.64	56.17
477.82	0.00
478.00	21.06
478.18	0.00
478.36	28.09
478.54	42.13
478.72	81.92
478.90	14.04
479.08	32.77
479.26	95.96
479.44	35.11
479.62	114.69
479.80	58.51
479.98	114.69
480.16	0.00
480.34	4.68
480.52	32.77
480.70	77.24
480.88	53.83
481.06	16.38
481.24	39.79
481.41	30.43
481.59	65.54
481.77	32.77
481.95	11.70
482.13	35.11
482.31	60.85
482.49	77.24
482.67	0.00
482.85	0.00
483.03	9.36
483.21	28.09
483.39	16.38
483.57	9.36
483.74	0.00
483.92	0.00
484.10	42.13
484.28	70.22
484.46	25.75
484.64	126.39
484.82	46.81
485.00	28.09
485.18	16.38
485.35	77.24
485.53	88.94
485.71	14.04
485.89	0.00
486.07	16.38
486.25	4.68
486.43	37.45
486.61	9.36
486.78	0.00
486.96	23.41
487.14	42.13
487.32	0.00
487.50	0.00
487.68	9.36
487.85	46.81
488.03	14.04
488.21	44.47
488.39	72.56
488.57	70.22
488.75	44.47
488.92	63.19
489.10	16.38
489.28	0.00
489.46	58.51
489.64	91.28
489.81	0.00
489.99	35.11
490.17	72.56
490.35	77.24
490.53	0.00
490.70	16.38
490.88	9.36
491.06	7.02
491.24	79.58
491.41	58.51
491.59	74.90
491.77	23.41
491.95	84.26
492.13	58.51
492.30	4.68
492.48	102.98
492.66	23.41
492.84	51.49
493.01	107.66
493.19	86.60
493.37	95.96
493.54	0.00
493.72	49.15
493.90	2.34
494.08	86.60
494.25	51.49
494.43	63.19
494.61	79.58
494.79	110.01
494.96	49.15
495.14	28.09
495.32	0.00
495.49	0.00
495.67	49.15
495.85	74.90
496.02	0.00
496.20	58.51
496.38	18.72
496.55	49.15
496.73	37.45
496.91	44.47
497.09	51.49
497.26	42.13
497.44	44.47
497.62	67.88
497.79	0.00
497.97	39.79
498.14	58.51
498.32	0.00
498.50	56.17
498.67	65.54
498.85	49.15
499.03	56.17
499.20	16.38
499.38	63.19
499.56	9.36
499.73	93.62
499.91	58.51
500.08	49.15
500.26	72.56
500.44	44.47
500.61	42.13
500.79	77.24
500.97	46.81
501.14	0.00
501.32	95.96
501.49	25.75
501.67	58.51
501.84	65.54
502.02	25.75
502.20	4.68
502.37	65.54
502.55	0.00
502.72	42.13
502.90	60.85
503.07	72.56
503.25	53.83
503.43	7.02
503.60	65.54
503.78	32.77
503.95	0.00
504.13	21.06
504.30	11.70
504.48	63.19
504.65	51.49
504.83	72.56
505.01	35.11
505.18	32.77
505.36	84.26
505.53	44.47
505.71	37.45
505.88	65.54
506.06	100.64
506.23	74.90
506.41	58.51
506.58	86.60
506.76	95.96
506.93	23.41
507.11	58.51
507.28	46.81
507.46	81.92
507.63	37.45
507.81	23.41
507.98	25.75
508.16	16.38
508.33	51.49
508.50	77.24
508.68	95.96
508.85	51.49
509.03	70.22
509.20	81.92
509.38	32.77
509.55	49.15
509.73	0.00
509.90	7.02
510.08	131.07
510.25	7.02
510.42	98.30
510.60	2.34
510.77	37.45
510.95	53.83
511.12	72.56
511.30	91.28
511.47	100.64
511.64	14.04
511.82	0.00
511.99	35.11
512.17	23.41
512.34	51.49
512.51	0.00
512.69	58.51
512.86	9.36
513.04	72.56
513.21	35.11
513.38	84.26
513.56	0.00
513.73	30.43
513.90	23.41
514.08	9.36
514.25	11.70
514.43	0.00
514.60	53.83
514.77	0.00
514.95	84.26
515.12	39.79
515.29	0.00
515.47	46.81
515.64	35.11
515.81	42.13
515.99	11.70
516.16	0.00
516.33	119.37
516.51	100.64
516.68	16.38
516.85	9.36
517.03	63.19
517.20	46.81
517.37	0.00
517.54	9.36
517.72	0.00
517.89	67.88
518.06	58.51
518.24	21.06
518.41	100.64
518.58	67.88
518.75	32.77
518.93	60.85
519.10	21.06
519.27	67.88
519.45	88.94
519.62	28.09
519.79	46.81
519.96	2.34
520.14	16.38
520.31	79.58
520.48	46.81
520.65	60.85
520.83	51.49
521.00	102.98
521.17	77.24
521.34	21.06
521.52	7.02
521.69	0.00
521.86	9.36
522.03	37.45
522.20	23.41
522.38	37.45
522.55	0.00
522.72	88.94
522.89	30.43
523.07	53.83
523.24	53.83
523.41	95.96
523.58	32.77
523.75	65.54
523.92	2.34
524.10	53.83
524.27	72.56
524.44	7.02
524.61	53.83
524.78	30.43
524.96	58.51
525.13	46.81
525.30	81.92
525.47	35.11
525.64	60.85
525.81	51.49
525.98	42.13
526.16	42.13
526.33	117.03
526.50	56.17
526.67	2.34
526.84	53.83
527.01	32.77
527.18	117.03
527.36	65.54
527.53	21.06
527.70	9.36
527.87	51.49
528.04	42.13
528.21	23.41
528.38	70.22
528.55	37.45
528.72	25.75
528.89	72.56
529.07	100.64
529.24	49.15
529.41	91.28
529.58	105.32
529.75	56.17
529.92	35.11
530.09	18.72
530.26	49.15
530.43	0.00
530.60	37.45
530.77	28.09
530.94	0.00
531.11	72.56
531.28	88.94
531.46	72.56
531.63	28.09
531.80	81.92
531.97	107.66
532.14	30.43
532.31	77.24
532.48	0.00
532.65	72.56
532.82	4.68
532.99	95.96
533.16	0.00
533.33	28.09
533.50	110.01
533.67	98.30
533.84	0.00
534.01	39.79
534.18	0.00
534.35	0.00
534.52	0.00
534.69	35.11
534.86	58.51
535.03	46.81
535.20	25.75
535.37	37.45
535.54	63.19
535.71	44.47
535.88	25.75
536.05	14.04
536.22	35.11
536.38	51.49
536.55	0.00
536.72	37.45
536.89	51.49
537.06	98.30
537.23	110.01
537.40	72.56
537.57	56.17
537.74	56.17
537.91	35.11
538.08	39.79
538.25	65.54
538.42	53.83
538.59	105.32
538.75	70.22
538.92	65.54
539.09	0.00
539.26	0.00
539.43	65.54
539.60	65.54
539.77	63.19
539.94	0.00
540.11	86.60
540.28	107.66
540.44	56.17
540.61	30.43
540.78	32.77
540.95	0.00
541.12	42.13
541.29	42.13
541.46	30.43
541.62	95.96
541.79	67.88
541.96	11.70
542.13	2.34
542.30	32.77
542.47	95.96
542.63	74.90
542.80	72.56
542.97	42.13
543.14	53.83
543.31	77.24
543.48	72.56
543.64	0.00
543.81	14.04
543.98	4.68
544.15	11.70
544.32	91.28
544.48	32.77
544.65	60.85
544.82	0.00
544.99	21.06
545.16	110.01
545.32	21.06
545.49	21.06
545.66	63.19
545.83	147.45
546.00	0.00
546.16	18.72
546.33	4.68
546.50	11.70
546.67	67.88
546.83	18.72
547.00	117.03
547.17	49.15
547.34	2.34
547.50	4.68
547.67	23.41
547.84	56.17
548.00	30.43
548.17	133.41
548.34	114.69
548.51	49.15
548.67	21.06
548.84	39.79
549.01	70.22
549.18	79.58
549.34	0.00
549.51	63.19
549.68	16.38
549.84	102.98
550.01	37.45
550.18	51.49
550.34	49.15
550.51	77.24
550.68	86.60
550.84	105.32
551.01	133.41
551.18	35.11
551.34	37.45
551.51	37.45
551.68	0.00
551.84	63.19
552.01	35.11
552.18	0.00
552.34	0.00
552.51	88.94
552.68	65.54
552.84	58.51
553.01	46.81
553.18	18.72
553.34	18.72
553.51	53.83
553.67	14.04
553.84	39.79
554.01	44.47
554.17	21.06
554.34	81.92
554.51	70.22
554.67	77.24
554.84	44.47
555.00	28.09
555.17	42.13
555.33	51.49
555.50	86.60
555.67	4.68
555.83	25.75
556.00	88.94
556.16	70.22
556.33	25.75
556.50	35.11
556.66	86.60
556.83	39.79
556.99	0.00
557.16	30.43
557.32	56.17
557.49	102.98
557.65	135.75
557.82	21.06
557.98	65.54
558.15	0.00
558.32	88.94
558.48	0.00
558.65	0.00
558.81	0.00
558.98	28.09
559.14	37.45
559.31	0.00
559.47	67.88
559.64	70.22
559.80	25.75
559.97	58.51
560.13	0.00
560.30	86.60
560.46	44.47
560.63	81.92
560.79	49.15
560.96	0.00
561.12	37.45
561.29	98.30
561.45	25.75
561.61	102.98
561.78	37.45
561.94	25.75
562.11	51.49
562.27	74.90
562.44	51.49
562.60	53.83
562.77	32.77
562.93	2.34
563.10	51.49
563.26	53.83
563.42	58.51
563.59	0.00
563.75	11.70
563.92	0.00
564.08	102.98
564.24	21.06
564.41	39.79
564.57	11.70
564.74	16.38
564.90	2.34
565.07	65.54
565.23	91.28
565.39	124.05
565.56	2.34
565.72	0.00
565.88	49.15
566.05	0.00
566.21	0.00
566.38	70.22
566.54	14.04
566.70	37.45
566.87	18.72
567.03	28.09
567.19	0.00
567.36	39.79
567.52	0.00
567.68	0.00
567.85	67.88
568.01	0.00
568.17	0.00
568.34	35.11
568.50	7.02
568.66	42.13
568.83	58.51
568.99	95.96
569.15	0.00
569.32	16.38
569.48	0.00
569.64	65.54
569.81	77.24
569.97	32.77
570.13	58.51
570.30	42.13
570.46	81.92
570.62	51.49
570.78	21.06
570.95	16.38
571.11	32.77
571.27	11.70
571.43	11.70
571.60	7.02
571.76	23.41
571.92	0.00
572.09	65.54
572.25	65.54
572.41	74.90
572.57	0.00
572.74	51.49
572.90	42.13
573.06	100.64
573.22	0.00
573.38	0.00
573.55	56.17
573.71	79.58
573.87	23.41
574.03	39.79
574.20	14.04
574.36	16.38
574.52	0.00
574.68	51.49
574.84	56.17
575.01	77.24
575.17	44.47
575.33	0.00
575.49	11.70
575.65	65.54
575.82	60.85
575.98	37.45
576.14	81.92
576.30	81.92
576.46	81.92
576.62	91.28
576.79	63.19
576.95	131.07
577.11	23.41
577.27	23.41
577.43	21.06
577.59	107.66
577.75	2.34
577.92	0.00
578.08	44.47
578.24	72.56
578.40	0.00
578.56	23.41
578.72	98.30
578.88	0.00
579.04	0.00
579.21	18.72
579.37	60.85
579.53	0.00
579.69	28.09
579.85	65.54
580.01	107.66
580.17	65.54
580.33	60.85
580.49	84.26
580.65	102.98
580.82	56.17
580.98	30.43
581.14	35.11
581.30	70.22
581.46	0.00
581.62	37.45
581.78	16.38
581.94	0.00
582.10	98.30
582.26	72.56
582.42	79.58
582.58	84.26
582.74	7.02
582.90	2.34
583.06	7.02
583.22	79.58
583.38	53.83
583.54	0.00
583.70	28.09
583.86	93.62
584.02	42.13
584.18	28.09
584.34	11.70
584.50	145.11
584.66	538.32
584.82	1214.74
584.98	1680.50
585.14	1444.11
585.30	961.96
585.46	617.90
585.62	416.62
585.78	154.48
585.94	28.09
586.10	105.32
586.26	51.49
586.42	58.51
586.58	0.00
586.74	128.73
586.90	77.24
587.06	117.03
587.22	119.37
587.38	14.04
587.54	74.90
587.70	112.35
587.86	187.24
588.02	191.92
588.18	182.56
588.34	98.30
588.49	107.66
588.65	107.66
588.81	112.35
588.97	74.90
589.13	11.70
589.29	74.90
589.45	0.00
589.61	0.00
589.77	81.92
589.93	77.24
590.08	77.24
590.24	56.17
590.40	37.45
590.56	98.30
590.72	25.75
590.88	51.49
591.04	67.88
591.20	49.15
591.35	14.04
591.51	39.79
591.67	28.09
591.83	51.49
591.99	42.13
592.15	7.02
592.31	28.09
592.46	23.41
592.62	44.47
592.78	9.36
592.94	65.54
593.10	105.32
593.26	18.72
593.41	42.13
593.57	95.96
593.73	102.98
593.89	67.88
594.05	173.20
594.20	236.39
594.36	208.31
594.52	154.48
594.68	173.20
594.84	147.45
594.99	60.85
595.15	46.81
595.31	0.00
595.47	39.79
595.62	0.00
595.78	81.92
595.94	23.41
596.10	0.00
596.25	84.26
596.41	46.81
596.57	88.94
596.73	67.88
596.88	0.00
597.04	63.19
597.20	138.09
597.36	0.00
597.51	105.32
597.67	91.28
597.83	28.09
597.99	42.13
598.14	72.56
598.30	95.96
598.46	0.00
598.61	0.00
598.77	11.70
598.93	67.88
599.09	84.26
599.24	16.38
599.40	46.81
599.56	51.49
599.71	0.00
599.87	0.00
600.03	44.47
600.18	21.06
600.34	23.41
600.50	14.04
600.65	70.22
600.81	42.13
600.97	42.13
601.12	91.28
601.28	70.22
601.44	32.77
601.59	65.54
601.75	67.88
601.91	72.56
602.06	4.68
602.22	42.13
602.37	74.90
602.53	121.71
602.69	35.11
602.84	124.05
603.00	49.15
603.16	84.26
603.31	53.83
603.47	81.92
603.62	72.56
603.78	39.79
603.94	0.00
604.09	95.96
604.25	72.56
604.40	0.00
604.56	35.11
604.71	56.17
604.87	0.00
605.03	0.00
605.18	21.06
605.34	56.17
605.49	37.45
605.65	65.54
605.80	7.02
605.96	65.54
606.12	0.00
606.27	70.22
606.43	21.06
606.58	0.00
606.74	91.28
606.89	79.58
607.05	173.20
607.20	248.10
607.36	205.97
607.51	70.22
607.67	100.64
607.82	98.30
607.98	28.09
608.13	0.00
608.29	86.60
608.44	77.24
608.60	74.90
608.75	74.90
608.91	56.17
609.06	196.60
609.22	278.52
609.37	322.99
609.53	339.38
609.68	149.79
609.84	86.60
609.99	63.19
610.15	67.88
610.30	81.92
610.46	72.56
610.61	102.98
610.76	32.77
610.92	58.51
611.07	0.00
611.23	0.00
611.38	11.70
611.54	14.04
611.69	0.00
611.84	74.90
612.00	53.83
612.15	11.70
612.31	0.00
612.46	32.77
612.62	79.58
612.77	93.62
612.92	60.85
613.08	39.79
613.23	135.75
613.39	9.36
613.54	0.00
613.69	177.88
613.85	362.78
614.00	484.49
614.15	531.30
614.31	411.93
614.46	297.25
614.62	173.20
614.77	74.90
614.92	56.17
615.08	28.09
615.23	37.45
615.38	49.15
615.54	49.15
615.69	37.45
615.84	81.92
616.00	184.90
616.15	212.99
616.30	114.69
616.46	91.28
616.61	102.98
616.76	30.43
616.92	60.85
617.07	63.19
617.22	11.70
617.37	74.90
617.53	105.32
617.68	18.72
617.83	0.00
617.99	0.00
618.14	30.43
618.29	77.24
618.45	32.77
618.60	16.38
618.75	25.75
618.90	42.13
619.06	72.56
619.21	39.79
619.36	9.36
619.51	14.04
619.67	0.00
619.82	25.75
619.97	77.24
620.12	30.43
620.28	112.35
620.43	35.11
620.58	70.22
620.73	81.92
620.89	65.54
621.04	14.04
621.19	65.54
621.34	119.37
621.49	154.48
621.65	119.37
621.80	0.00
621.95	60.85
622.10	25.75
622.25	9.36
622.41	56.17
622.56	23.41
622.71	58.51
622.86	23.41
623.01	0.00
623.16	11.70
623.32	0.00
623.47	2.34
623.62	51.49
623.77	46.81
623.92	16.38
624.07	18.72
624.23	0.00
624.38	79.58
624.53	49.15
624.68	58.51
624.83	119.37
624.98	58.51
625.13	58.51
625.29	28.09
625.44	14.04
625.59	91.28
625.74	23.41
625.89	32.77
626.04	117.03
626.19	173.20
626.34	245.76
626.49	259.80
626.65	231.71
626.80	159.16
626.95	152.13
627.10	112.35
627.25	70.22
627.40	39.79
627.55	9.36
627.70	44.47
627.85	84.26
628.00	46.81
628.15	25.75
628.30	23.41
628.45	46.81
628.60	4.68
628.76	4.68
628.91	0.00
629.06	30.43
629.21	53.83
629.36	0.00
629.51	14.04
629.66	42.13
629.81	56.17
629.96	58.51
630.11	86.60
630.26	156.82
630.41	102.98
630.56	28.09
630.71	102.98
630.86	35.11
631.01	77.24
631.16	18.72
631.31	16.38
631.46	65.54
631.61	0.00
631.76	98.30
631.91	65.54
632.06	18.72
632.21	51.49
632.36	49.15
632.51	84.26
632.66	51.49
632.81	79.58
632.96	9.36
633.10	201.29
633.25	212.99
633.40	112.35
633.55	124.05
633.70	81.92
633.85	16.38
634.00	49.15
634.15	70.22
634.30	35.11
634.45	4.68
634.60	4.68
634.75	72.56
634.90	74.90
635.05	42.13
635.19	84.26
635.34	88.94
635.49	63.19
635.64	21.06
635.79	44.47
635.94	7.02
636.09	46.81
636.24	51.49
636.39	32.77
636.53	32.77
636.68	14.04
636.83	0.00
636.98	0.00
637.13	51.49
637.28	58.51
637.43	21.06
637.57	58.51
637.72	149.79
637.87	285.55
638.02	351.08
638.17	407.25
638.32	287.89
638.46	191.92
638.61	133.41
638.76	93.62
638.91	138.09
639.06	53.83
639.20	25.75
639.35	51.49
639.50	79.58
639.65	84.26
639.80	325.33
639.94	550.03
640.09	526.62
640.24	414.27
640.39	262.14
640.54	173.20
640.68	175.54
640.83	84.26
640.98	42.13
641.13	74.90
641.27	77.24
641.42	16.38
641.57	110.01
641.72	91.28
641.86	35.11
642.01	0.00
642.16	0.00
642.31	58.51
642.45	30.43
642.60	91.28
642.75	56.17
642.90	60.85
643.04	74.90
643.19	0.00
643.34	0.00
643.48	28.09
643.63	4.68
643.78	72.56
643.93	0.00
644.07	37.45
644.22	30.43
644.37	0.00
644.51	0.00
644.66	60.85
644.81	0.00
644.95	32.77
645.10	44.47
645.25	16.38
645.39	0.00
645.54	0.00
645.69	14.04
645.83	53.83
645.98	44.47
646.13	51.49
646.27	112.35
646.42	0.00
646.57	16.38
646.71	23.41
646.86	35.11
647.00	21.06
647.15	0.00
647.30	58.51
647.44	39.79
647.59	39.79
647.74	44.47
647.88	60.85
648.03	42.13
648.17	11.70
648.32	37.45
648.47	23.41
648.61	86.60
648.76	58.51
648.90	0.00
649.05	9.36
649.20	0.00
649.34	53.83
649.49	37.45
649.63	25.75
649.78	18.72
649.92	0.00
650.07	67.88
650.21	189.58
650.36	259.80
650.51	339.38
650.65	222.35
650.80	149.79
650.94	128.73
651.09	147.45
651.23	156.82
651.38	63.19
651.52	11.70
651.67	0.00
651.81	0.00
651.96	70.22
652.10	23.41
652.25	0.00
652.39	0.00
652.54	0.00
652.68	44.47
652.83	39.79
652.97	91.28
653.12	51.49
653.26	133.41
653.41	49.15
653.55	98.30
653.70	0.00
653.84	2.34
653.99	0.00
654.13	30.43
654.27	79.58
654.42	0.00
654.56	35.11
654.71	16.38
654.85	7.02
655.00	65.54
655.14	0.00
655.29	28.09
655.43	32.77
655.57	49.15
655.72	42.13
655.86	79.58
656.01	74.90
656.15	49.15
656.30	37.45
656.44	11.70
656.58	60.85
656.73	0.00
656.87	30.43
657.01	56.17
657.16	37.45
657.30	53.83
657.45	39.79
657.59	25.75
657.73	0.00
657.88	49.15
658.02	32.77
658.16	63.19
658.31	72.56
658.45	53.83
658.60	16.38
658.74	67.88
658.88	105.32
659.03	0.00
659.17	18.72
659.31	72.56
659.46	177.88
659.60	49.15
659.74	175.54
659.89	187.24
660.03	98.30
660.17	81.92
660.32	105.32
660.46	63.19
660.60	39.79
660.74	114.69
660.89	30.43
661.03	84.26
661.17	84.26
661.32	72.56
661.46	121.71
661.60	42.13
661.74	77.24
661.89	65.54
662.03	0.00
662.17	14.04
662.31	46.81
662.46	0.00
662.60	11.70
662.74	21.06
662.88	23.41
663.03	35.11
663.17	0.00
663.31	32.77
663.45	53.83
663.60	42.13
663.74	117.03
663.88	9.36
664.02	49.15
664.17	56.17
664.31	88.94
664.45	2.34
664.59	37.45
664.73	0.00
664.88	23.41
665.02	91.28
665.16	16.38
665.30	42.13
665.44	53.83
665.59	14.04
665.73	53.83
665.87	42.13
666.01	0.00
666.15	49.15
666.29	67.88
666.44	65.54
666.58	0.00
666.72	18.72
666.86	2.34
667.00	63.19
667.14	32.77
667.28	173.20
667.43	163.84
667.57	215.33
667.71	306.61
667.85	269.16
667.99	229.37
668.13	60.85
668.27	86.60
668.41	60.85
668.56	9.36
668.70	16.38
668.84	11.70
668.98	0.00
669.12	4.68
669.26	0.00
669.40	18.72
669.54	25.75
669.68	39.79
669.82	0.00
669.96	32.77
670.10	65.54
670.25	0.00
670.39	51.49
670.53	11.70
670.67	23.41
670.81	11.70
670.95	79.58
671.09	0.00
671.23	84.26
671.37	140.43
671.51	173.20
671.65	187.24
671.79	105.32
671.93	112.35
672.07	42.13
672.21	30.43
672.35	0.00
672.49	23.41
672.63	0.00
672.77	88.94
672.91	44.47
673.05	21.06
673.19	37.45
673.33	0.00
673.47	35.11
673.61	9.36
673.75	95.96
673.89	72.56
674.03	14.04
674.17	25.75
674.31	49.15
674.45	11.70
674.59	86.60
674.73	30.43
674.87	56.17
675.01	42.13
675.15	4.68
675.29	18.72
675.43	23.41
675.56	4.68
675.70	39.79
675.84	14.04
675.98	58.51
676.12	0.00
676.26	14.04
676.40	0.00
676.54	30.43
676.68	58.51
676.82	60.85
676.96	23.41
677.10	0.00
677.23	7.02
677.37	9.36
677.51	0.00
677.65	44.47
677.79	53.83
677.93	37.45
678.07	23.41
678.21	79.58
678.34	14.04
678.48	65.54
678.62	16.38
678.76	42.13
678.90	42.13
679.04	0.00
679.18	0.00
679.31	23.41
679.45	42.13
679.59	4.68
679.73	77.24
679.87	60.85
680.00	65.54
680.14	25.75
680.28	77.24
680.42	42.13
680.56	65.54
680.70	79.58
680.83	37.45
680.97	37.45
681.11	42.13
681.25	53.83
681.39	0.00
681.52	37.45
681.66	37.45
681.80	30.43
681.94	0.00
682.07	0.00
682.21	0.00
682.35	49.15
682.49	0.00
682.62	44.47
682.76	0.00
682.90	7.02
683.04	56.17
683.17	63.19
683.31	35.11
683.45	72.56
683.59	21.06
683.72	58.51
683.86	51.49
684.00	0.00
684.13	0.00
684.27	0.00
684.41	18.72
684.55	86.60
684.68	42.13
684.82	9.36
684.96	4.68
685.09	30.43
685.23	0.00
685.37	46.81
685.50	39.79
685.64	25.75
685.78	35.11
685.91	56.17
686.05	53.83
686.19	95.96
686.32	42.13
686.46	0.00
686.60	14.04
686.73	44.47
686.87	32.77
687.01	35.11
687.14	42.13
687.28	9.36
687.42	67.88
687.55	0.00
687.69	0.00
687.82	72.56
687.96	9.36
688.10	30.43
688.23	70.22
688.37	121.71
688.50	0.00
688.64	0.00
688.78	28.09
688.91	0.00
689.05	32.77
689.18	0.00
689.32	44.47
689.46	86.60
689.59	30.43
689.73	0.00
689.86	32.77
690.00	56.17
690.13	0.00
690.27	0.00
690.41	39.79
690.54	49.15
690.68	46.81
690.81	0.00
690.95	0.00
691.08	14.04
691.22	65.54
691.35	74.90
691.49	0.00
691.62	53.83
691.76	25.75
691.89	11.70
692.03	0.00
692.16	0.00
692.30	81.92
692.43	60.85
692.57	105.32
692.70	145.11
692.84	152.13
692.97	112.35
693.11	84.26
693.24	84.26
693.38	114.69
693.51	35.11
693.65	46.81
693.78	88.94
693.92	18.72
694.05	0.00
694.19	0.00
694.32	53.83
694.45	0.00
694.59	14.04
694.72	81.92
694.86	2.34
694.99	88.94
695.13	56.17
695.26	28.09
695.39	0.00
695.53	56.17
695.66	84.26
695.80	60.85
695.93	0.00
696.07	79.58
696.20	7.02
696.33	37.45
696.47	0.00
696.60	0.00
696.73	65.54
696.87	0.00
697.00	14.04
697.14	37.45
697.27	21.06
697.40	65.54
697.54	0.00
697.67	21.06
697.80	0.00
697.94	49.15
698.07	18.72
698.21	23.41
698.34	60.85
698.47	0.00
698.61	35.11
698.74	84.26
698.87	21.06
699.01	74.90
699.14	16.38
699.27	37.45
699.40	37.45
699.54	0.00
699.67	0.00
699.80	35.11
699.94	28.09
700.07	88.94
700.20	0.00
700.34	42.13
700.47	49.15
700.60	58.51
700.73	0.00
700.87	0.00
701.00	91.28
701.13	53.83
701.26	88.94
701.40	0.00
701.53	16.38
701.66	51.49
701.79	121.71
701.93	0.00
702.06	65.54
702.19	112.35
702.32	0.00
702.46	11.70
702.59	4.68
702.72	88.94
702.85	79.58
702.99	191.92
703.12	243.42
703.25	238.73
703.38	182.56
703.51	126.39
703.65	58.51
703.78	145.11
703.91	53.83
704.04	88.94
704.17	58.51
704.31	65.54
704.44	88.94
704.57	4.68
704.70	4.68
704.83	65.54
704.96	0.00
705.10	28.09
705.23	25.75
>>>>>End Processed Spectral Data<<<<<
