SpectraSuite Data File
++++++++++++++++++++++++++++++++++++
Date: Fri Oct 04 12:13:31 GMT-05:00 2013
User: price-jones
Dark Spectrum Present: No
Reference Spectrum Present: No
Number of Sampled Component Spectra: 1
Spectrometers: USB2+H05261
Integration Time (usec): 10000 (USB2+H05261)
Spectra Averaged: 1 (USB2+H05261)
Boxcar Smoothing: 0 (USB2+H05261)
Correct for Electrical Dark: No (USB2+H05261)
Strobe/Lamp Enabled: No (USB2+H05261)
Correct for Detector Non-linearity: No (USB2+H05261)
Correct for Stray Light: No (USB2+H05261)
Number of Pixels in Processed Spectrum: 2048
>>>>>Begin Processed Spectral Data<<<<<
365.73	0.00
365.92	0.00
366.12	0.00
366.32	0.00
366.52	0.00
366.72	0.00
366.91	0.00
367.11	0.00
367.31	0.00
367.51	0.00
367.70	0.00
367.90	0.00
368.10	0.00
368.30	0.00
368.49	0.00
368.69	0.00
368.89	0.00
369.09	0.00
369.28	0.00
369.48	0.00
369.68	0.00
369.87	0.00
370.07	0.00
370.27	0.00
370.47	0.00
370.66	0.00
370.86	0.00
371.06	0.00
371.25	0.00
371.45	0.00
371.65	0.00
371.84	0.00
372.04	35.11
372.24	16.38
372.44	0.00
372.63	0.00
372.83	0.00
373.03	0.00
373.22	0.00
373.42	0.00
373.62	86.60
373.81	2.34
374.01	0.00
374.21	60.85
374.40	0.00
374.60	88.94
374.79	16.38
374.99	58.51
375.19	0.00
375.38	32.77
375.58	46.81
375.78	51.49
375.97	28.09
376.17	0.00
376.37	35.11
376.56	21.06
376.76	23.41
376.95	65.54
377.15	28.09
377.35	28.09
377.54	65.54
377.74	0.00
377.93	37.45
378.13	39.79
378.33	63.19
378.52	4.68
378.72	4.68
378.91	44.47
379.11	2.34
379.31	37.45
379.50	30.43
379.70	72.56
379.89	37.45
380.09	9.36
380.28	56.17
380.48	0.00
380.68	9.36
380.87	11.70
381.07	32.77
381.26	21.06
381.46	65.54
381.65	0.00
381.85	0.00
382.04	30.43
382.24	0.00
382.43	65.54
382.63	63.19
382.83	0.00
383.02	9.36
383.22	0.00
383.41	30.43
383.61	0.00
383.80	0.00
384.00	0.00
384.19	0.00
384.39	23.41
384.58	77.24
384.78	21.06
384.97	28.09
385.17	67.88
385.36	0.00
385.56	11.70
385.75	0.00
385.95	42.13
386.14	32.77
386.34	37.45
386.53	23.41
386.72	0.00
386.92	39.79
387.11	51.49
387.31	51.49
387.50	2.34
387.70	21.06
387.89	30.43
388.09	0.00
388.28	0.00
388.48	23.41
388.67	0.00
388.86	4.68
389.06	30.43
389.25	51.49
389.45	30.43
389.64	0.00
389.84	60.85
390.03	32.77
390.22	9.36
390.42	23.41
390.61	9.36
390.81	35.11
391.00	0.00
391.19	0.00
391.39	39.79
391.58	37.45
391.78	0.00
391.97	7.02
392.16	18.72
392.36	0.00
392.55	35.11
392.75	0.00
392.94	0.00
393.13	28.09
393.33	0.00
393.52	9.36
393.71	0.00
393.91	51.49
394.10	0.00
394.29	30.43
394.49	30.43
394.68	74.90
394.88	44.47
395.07	0.00
395.26	0.00
395.46	0.00
395.65	0.00
395.84	4.68
396.04	49.15
396.23	7.02
396.42	74.90
396.62	32.77
396.81	56.17
397.00	35.11
397.19	39.79
397.39	35.11
397.58	37.45
397.77	23.41
397.97	46.81
398.16	21.06
398.35	88.94
398.55	39.79
398.74	37.45
398.93	117.03
399.12	14.04
399.32	21.06
399.51	107.66
399.70	49.15
399.90	35.11
400.09	0.00
400.28	58.51
400.47	14.04
400.67	37.45
400.86	7.02
401.05	0.00
401.24	39.79
401.44	0.00
401.63	0.00
401.82	0.00
402.01	32.77
402.21	0.00
402.40	63.19
402.59	25.75
402.78	21.06
402.97	81.92
403.17	11.70
403.36	9.36
403.55	49.15
403.74	21.06
403.93	7.02
404.13	72.56
404.32	16.38
404.51	88.94
404.70	74.90
404.89	65.54
405.09	95.96
405.28	14.04
405.47	35.11
405.66	46.81
405.85	0.00
406.05	0.00
406.24	2.34
406.43	0.00
406.62	74.90
406.81	25.75
407.00	32.77
407.20	91.28
407.39	9.36
407.58	79.58
407.77	32.77
407.96	49.15
408.15	42.13
408.34	0.00
408.54	39.79
408.73	72.56
408.92	30.43
409.11	39.79
409.30	14.04
409.49	28.09
409.68	0.00
409.87	18.72
410.07	30.43
410.26	53.83
410.45	0.00
410.64	28.09
410.83	25.75
411.02	11.70
411.21	0.00
411.40	0.00
411.59	88.94
411.78	32.77
411.98	42.13
412.17	67.88
412.36	0.00
412.55	32.77
412.74	23.41
412.93	65.54
413.12	37.45
413.31	32.77
413.50	9.36
413.69	0.00
413.88	53.83
414.07	79.58
414.26	14.04
414.45	0.00
414.64	39.79
414.83	14.04
415.02	39.79
415.22	51.49
415.41	72.56
415.60	16.38
415.79	42.13
415.98	110.01
416.17	0.00
416.36	0.00
416.55	7.02
416.74	77.24
416.93	53.83
417.12	39.79
417.31	28.09
417.50	0.00
417.69	88.94
417.88	63.19
418.07	44.47
418.26	105.32
418.45	18.72
418.64	74.90
418.83	0.00
419.02	14.04
419.21	21.06
419.39	14.04
419.58	63.19
419.77	14.04
419.96	9.36
420.15	23.41
420.34	7.02
420.53	0.00
420.72	0.00
420.91	0.00
421.10	0.00
421.29	23.41
421.48	0.00
421.67	0.00
421.86	0.00
422.05	4.68
422.24	35.11
422.43	60.85
422.61	49.15
422.80	46.81
422.99	25.75
423.18	0.00
423.37	0.00
423.56	56.17
423.75	0.00
423.94	0.00
424.13	0.00
424.32	58.51
424.50	86.60
424.69	60.85
424.88	2.34
425.07	81.92
425.26	0.00
425.45	32.77
425.64	39.79
425.83	49.15
426.01	65.54
426.20	0.00
426.39	14.04
426.58	7.02
426.77	23.41
426.96	0.00
427.15	0.00
427.33	53.83
427.52	23.41
427.71	0.00
427.90	56.17
428.09	65.54
428.28	11.70
428.46	9.36
428.65	58.51
428.84	53.83
429.03	25.75
429.22	42.13
429.40	91.28
429.59	67.88
429.78	77.24
429.97	4.68
430.16	51.49
430.34	70.22
430.53	56.17
430.72	4.68
430.91	21.06
431.10	37.45
431.28	32.77
431.47	72.56
431.66	32.77
431.85	79.58
432.03	2.34
432.22	53.83
432.41	32.77
432.60	53.83
432.79	16.38
432.97	32.77
433.16	0.00
433.35	39.79
433.54	14.04
433.72	81.92
433.91	18.72
434.10	49.15
434.28	14.04
434.47	51.49
434.66	11.70
434.85	30.43
435.03	23.41
435.22	46.81
435.41	37.45
435.59	65.54
435.78	60.85
435.97	28.09
436.16	86.60
436.34	0.00
436.53	63.19
436.72	32.77
436.90	63.19
437.09	11.70
437.28	0.00
437.46	88.94
437.65	84.26
437.84	7.02
438.02	91.28
438.21	44.47
438.40	65.54
438.58	46.81
438.77	44.47
438.96	23.41
439.14	9.36
439.33	39.79
439.52	37.45
439.70	18.72
439.89	30.43
440.08	0.00
440.26	16.38
440.45	44.47
440.63	74.90
440.82	0.00
441.01	91.28
441.19	37.45
441.38	53.83
441.57	2.34
441.75	46.81
441.94	63.19
442.12	81.92
442.31	51.49
442.50	30.43
442.68	0.00
442.87	70.22
443.05	32.77
443.24	67.88
443.43	77.24
443.61	32.77
443.80	121.71
443.98	23.41
444.17	0.00
444.35	0.00
444.54	2.34
444.73	0.00
444.91	105.32
445.10	0.00
445.28	0.00
445.47	65.54
445.65	77.24
445.84	21.06
446.02	77.24
446.21	72.56
446.39	9.36
446.58	58.51
446.77	0.00
446.95	0.00
447.14	0.00
447.32	112.35
447.51	9.36
447.69	2.34
447.88	77.24
448.06	74.90
448.25	0.00
448.43	56.17
448.62	0.00
448.80	18.72
448.99	16.38
449.17	21.06
449.36	0.00
449.54	72.56
449.73	84.26
449.91	63.19
450.10	0.00
450.28	14.04
450.46	30.43
450.65	51.49
450.83	0.00
451.02	23.41
451.20	23.41
451.39	138.09
451.57	42.13
451.76	46.81
451.94	46.81
452.13	0.00
452.31	0.00
452.49	9.36
452.68	30.43
452.86	16.38
453.05	7.02
453.23	30.43
453.42	0.00
453.60	53.83
453.78	51.49
453.97	46.81
454.15	0.00
454.34	51.49
454.52	156.82
454.70	51.49
454.89	21.06
455.07	14.04
455.26	14.04
455.44	0.00
455.62	0.00
455.81	21.06
455.99	28.09
456.17	16.38
456.36	63.19
456.54	4.68
456.73	11.70
456.91	46.81
457.09	18.72
457.28	25.75
457.46	0.00
457.64	98.30
457.83	49.15
458.01	4.68
458.19	25.75
458.38	28.09
458.56	42.13
458.74	56.17
458.93	14.04
459.11	0.00
459.29	65.54
459.48	21.06
459.66	0.00
459.84	51.49
460.03	79.58
460.21	4.68
460.39	42.13
460.57	23.41
460.76	65.54
460.94	0.00
461.12	0.00
461.31	0.00
461.49	30.43
461.67	0.00
461.85	39.79
462.04	0.00
462.22	126.39
462.40	84.26
462.59	58.51
462.77	107.66
462.95	65.54
463.13	25.75
463.32	84.26
463.50	2.34
463.68	79.58
463.86	14.04
464.05	0.00
464.23	16.38
464.41	84.26
464.59	0.00
464.78	2.34
464.96	21.06
465.14	72.56
465.32	21.06
465.50	74.90
465.69	23.41
465.87	30.43
466.05	35.11
466.23	0.00
466.41	23.41
466.60	32.77
466.78	119.37
466.96	0.00
467.14	0.00
467.32	18.72
467.51	28.09
467.69	35.11
467.87	58.51
468.05	95.96
468.23	0.00
468.41	84.26
468.60	112.35
468.78	4.68
468.96	84.26
469.14	0.00
469.32	77.24
469.50	49.15
469.69	72.56
469.87	0.00
470.05	105.32
470.23	44.47
470.41	95.96
470.59	67.88
470.77	4.68
470.95	11.70
471.14	65.54
471.32	110.01
471.50	35.11
471.68	32.77
471.86	70.22
472.04	37.45
472.22	154.48
472.40	49.15
472.58	81.92
472.77	60.85
472.95	30.43
473.13	32.77
473.31	28.09
473.49	74.90
473.67	51.49
473.85	30.43
474.03	32.77
474.21	42.13
474.39	67.88
474.57	39.79
474.75	0.00
474.93	79.58
475.12	98.30
475.30	53.83
475.48	74.90
475.66	23.41
475.84	58.51
476.02	0.00
476.20	0.00
476.38	32.77
476.56	53.83
476.74	44.47
476.92	18.72
477.10	11.70
477.28	84.26
477.46	25.75
477.64	42.13
477.82	0.00
478.00	49.15
478.18	51.49
478.36	25.75
478.54	21.06
478.72	14.04
478.90	42.13
479.08	32.77
479.26	30.43
479.44	11.70
479.62	35.11
479.80	16.38
479.98	37.45
480.16	49.15
480.34	39.79
480.52	70.22
480.70	9.36
480.88	21.06
481.06	44.47
481.24	70.22
481.41	56.17
481.59	51.49
481.77	7.02
481.95	58.51
482.13	51.49
482.31	14.04
482.49	0.00
482.67	58.51
482.85	25.75
483.03	51.49
483.21	107.66
483.39	72.56
483.57	65.54
483.74	11.70
483.92	11.70
484.10	51.49
484.28	30.43
484.46	51.49
484.64	37.45
484.82	39.79
485.00	9.36
485.18	21.06
485.35	39.79
485.53	0.00
485.71	65.54
485.89	16.38
486.07	0.00
486.25	0.00
486.43	58.51
486.61	0.00
486.78	0.00
486.96	21.06
487.14	46.81
487.32	32.77
487.50	7.02
487.68	88.94
487.85	67.88
488.03	37.45
488.21	0.00
488.39	0.00
488.57	60.85
488.75	74.90
488.92	49.15
489.10	0.00
489.28	63.19
489.46	0.00
489.64	9.36
489.81	14.04
489.99	53.83
490.17	84.26
490.35	67.88
490.53	35.11
490.70	7.02
490.88	0.00
491.06	0.00
491.24	16.38
491.41	72.56
491.59	9.36
491.77	21.06
491.95	0.00
492.13	86.60
492.30	124.05
492.48	100.64
492.66	124.05
492.84	51.49
493.01	119.37
493.19	37.45
493.37	39.79
493.54	0.00
493.72	0.00
493.90	32.77
494.08	56.17
494.25	39.79
494.43	100.64
494.61	7.02
494.79	21.06
494.96	67.88
495.14	35.11
495.32	77.24
495.49	18.72
495.67	0.00
495.85	0.00
496.02	35.11
496.20	9.36
496.38	95.96
496.55	9.36
496.73	102.98
496.91	56.17
497.09	21.06
497.26	46.81
497.44	9.36
497.62	81.92
497.79	53.83
497.97	0.00
498.14	49.15
498.32	21.06
498.50	37.45
498.67	30.43
498.85	0.00
499.03	100.64
499.20	0.00
499.38	35.11
499.56	0.00
499.73	44.47
499.91	42.13
500.08	117.03
500.26	51.49
500.44	112.35
500.61	74.90
500.79	42.13
500.97	60.85
501.14	0.00
501.32	100.64
501.49	0.00
501.67	39.79
501.84	49.15
502.02	9.36
502.20	56.17
502.37	60.85
502.55	67.88
502.72	30.43
502.90	107.66
503.07	42.13
503.25	49.15
503.43	9.36
503.60	23.41
503.78	42.13
503.95	21.06
504.13	44.47
504.30	28.09
504.48	70.22
504.65	35.11
504.83	51.49
505.01	58.51
505.18	81.92
505.36	37.45
505.53	58.51
505.71	11.70
505.88	65.54
506.06	60.85
506.23	0.00
506.41	77.24
506.58	79.58
506.76	25.75
506.93	77.24
507.11	32.77
507.28	72.56
507.46	18.72
507.63	60.85
507.81	14.04
507.98	32.77
508.16	46.81
508.33	4.68
508.50	44.47
508.68	25.75
508.85	37.45
509.03	110.01
509.20	18.72
509.38	65.54
509.55	23.41
509.73	60.85
509.90	44.47
510.08	14.04
510.25	44.47
510.42	0.00
510.60	86.60
510.77	28.09
510.95	7.02
511.12	7.02
511.30	28.09
511.47	53.83
511.64	79.58
511.82	105.32
511.99	11.70
512.17	49.15
512.34	4.68
512.51	86.60
512.69	58.51
512.86	44.47
513.04	67.88
513.21	2.34
513.38	112.35
513.56	42.13
513.73	42.13
513.90	79.58
514.08	49.15
514.25	107.66
514.43	0.00
514.60	95.96
514.77	2.34
514.95	4.68
515.12	56.17
515.29	7.02
515.47	100.64
515.64	63.19
515.81	9.36
515.99	79.58
516.16	21.06
516.33	77.24
516.51	7.02
516.68	49.15
516.85	0.00
517.03	0.00
517.20	37.45
517.37	37.45
517.54	39.79
517.72	60.85
517.89	11.70
518.06	23.41
518.24	53.83
518.41	70.22
518.58	70.22
518.75	67.88
518.93	44.47
519.10	102.98
519.27	79.58
519.45	65.54
519.62	72.56
519.79	25.75
519.96	9.36
520.14	81.92
520.31	156.82
520.48	7.02
520.65	39.79
520.83	35.11
521.00	91.28
521.17	42.13
521.34	21.06
521.52	53.83
521.69	44.47
521.86	32.77
522.03	42.13
522.20	51.49
522.38	16.38
522.55	9.36
522.72	81.92
522.89	16.38
523.07	7.02
523.24	18.72
523.41	81.92
523.58	28.09
523.75	60.85
523.92	0.00
524.10	60.85
524.27	93.62
524.44	21.06
524.61	42.13
524.78	0.00
524.96	44.47
525.13	140.43
525.30	77.24
525.47	35.11
525.64	67.88
525.81	23.41
525.98	60.85
526.16	93.62
526.33	65.54
526.50	30.43
526.67	16.38
526.84	44.47
527.01	112.35
527.18	0.00
527.36	0.00
527.53	58.51
527.70	21.06
527.87	42.13
528.04	53.83
528.21	60.85
528.38	0.00
528.55	16.38
528.72	110.01
528.89	42.13
529.07	74.90
529.24	79.58
529.41	42.13
529.58	21.06
529.75	65.54
529.92	156.82
530.09	74.90
530.26	30.43
530.43	42.13
530.60	21.06
530.77	32.77
530.94	0.00
531.11	49.15
531.28	119.37
531.46	86.60
531.63	98.30
531.80	11.70
531.97	18.72
532.14	0.00
532.31	21.06
532.48	56.17
532.65	42.13
532.82	16.38
532.99	16.38
533.16	60.85
533.33	49.15
533.50	77.24
533.67	86.60
533.84	88.94
534.01	56.17
534.18	81.92
534.35	65.54
534.52	110.01
534.69	9.36
534.86	0.00
535.03	0.00
535.20	0.00
535.37	77.24
535.54	79.58
535.71	56.17
535.88	32.77
536.05	42.13
536.22	53.83
536.38	93.62
536.55	35.11
536.72	112.35
536.89	81.92
537.06	42.13
537.23	100.64
537.40	30.43
537.57	0.00
537.74	49.15
537.91	0.00
538.08	28.09
538.25	91.28
538.42	0.00
538.59	79.58
538.75	0.00
538.92	39.79
539.09	23.41
539.26	72.56
539.43	56.17
539.60	91.28
539.77	117.03
539.94	32.77
540.11	72.56
540.28	37.45
540.44	86.60
540.61	88.94
540.78	37.45
540.95	4.68
541.12	30.43
541.29	86.60
541.46	44.47
541.62	28.09
541.79	25.75
541.96	37.45
542.13	35.11
542.30	56.17
542.47	51.49
542.63	44.47
542.80	4.68
542.97	42.13
543.14	32.77
543.31	18.72
543.48	23.41
543.64	166.18
543.81	42.13
543.98	37.45
544.15	56.17
544.32	51.49
544.48	4.68
544.65	14.04
544.82	53.83
544.99	37.45
545.16	166.18
545.32	74.90
545.49	0.00
545.66	25.75
545.83	0.00
546.00	56.17
546.16	18.72
546.33	88.94
546.50	16.38
546.67	74.90
546.83	37.45
547.00	88.94
547.17	0.00
547.34	23.41
547.50	93.62
547.67	21.06
547.84	49.15
548.00	63.19
548.17	70.22
548.34	65.54
548.51	9.36
548.67	28.09
548.84	0.00
549.01	30.43
549.18	21.06
549.34	51.49
549.51	16.38
549.68	25.75
549.84	51.49
550.01	51.49
550.18	35.11
550.34	93.62
550.51	70.22
550.68	84.26
550.84	63.19
551.01	56.17
551.18	32.77
551.34	14.04
551.51	93.62
551.68	58.51
551.84	25.75
552.01	30.43
552.18	14.04
552.34	16.38
552.51	39.79
552.68	18.72
552.84	16.38
553.01	79.58
553.18	95.96
553.34	65.54
553.51	7.02
553.67	67.88
553.84	46.81
554.01	35.11
554.17	42.13
554.34	32.77
554.51	93.62
554.67	44.47
554.84	72.56
555.00	124.05
555.17	37.45
555.33	56.17
555.50	0.00
555.67	79.58
555.83	30.43
556.00	32.77
556.16	93.62
556.33	44.47
556.50	86.60
556.66	25.75
556.83	56.17
556.99	102.98
557.16	49.15
557.32	0.00
557.49	16.38
557.65	14.04
557.82	0.00
557.98	35.11
558.15	42.13
558.32	60.85
558.48	0.00
558.65	39.79
558.81	39.79
558.98	81.92
559.14	81.92
559.31	0.00
559.47	30.43
559.64	77.24
559.80	81.92
559.97	72.56
560.13	7.02
560.30	0.00
560.46	39.79
560.63	0.00
560.79	44.47
560.96	44.47
561.12	102.98
561.29	70.22
561.45	65.54
561.61	14.04
561.78	35.11
561.94	44.47
562.11	114.69
562.27	18.72
562.44	53.83
562.60	0.00
562.77	16.38
562.93	49.15
563.10	63.19
563.26	16.38
563.42	28.09
563.59	0.00
563.75	44.47
563.92	58.51
564.08	37.45
564.24	88.94
564.41	98.30
564.57	0.00
564.74	86.60
564.90	79.58
565.07	0.00
565.23	0.00
565.39	21.06
565.56	37.45
565.72	9.36
565.88	0.00
566.05	46.81
566.21	49.15
566.38	0.00
566.54	18.72
566.70	28.09
566.87	105.32
567.03	60.85
567.19	7.02
567.36	56.17
567.52	28.09
567.68	0.00
567.85	0.00
568.01	35.11
568.17	0.00
568.34	9.36
568.50	23.41
568.66	51.49
568.83	72.56
568.99	0.00
569.15	70.22
569.32	49.15
569.48	0.00
569.64	49.15
569.81	21.06
569.97	53.83
570.13	91.28
570.30	44.47
570.46	28.09
570.62	0.00
570.78	37.45
570.95	93.62
571.11	37.45
571.27	32.77
571.43	58.51
571.60	91.28
571.76	77.24
571.92	14.04
572.09	56.17
572.25	0.00
572.41	77.24
572.57	21.06
572.74	86.60
572.90	42.13
573.06	23.41
573.22	9.36
573.38	91.28
573.55	88.94
573.71	25.75
573.87	74.90
574.03	88.94
574.20	7.02
574.36	79.58
574.52	44.47
574.68	63.19
574.84	23.41
575.01	23.41
575.17	58.51
575.33	105.32
575.49	0.00
575.65	32.77
575.82	0.00
575.98	81.92
576.14	107.66
576.30	74.90
576.46	35.11
576.62	37.45
576.79	16.38
576.95	98.30
577.11	81.92
577.27	0.00
577.43	51.49
577.59	11.70
577.75	28.09
577.92	0.00
578.08	4.68
578.24	9.36
578.40	0.00
578.56	56.17
578.72	51.49
578.88	56.17
579.04	88.94
579.21	95.96
579.37	11.70
579.53	23.41
579.69	32.77
579.85	32.77
580.01	72.56
580.17	0.00
580.33	65.54
580.49	25.75
580.65	72.56
580.82	42.13
580.98	35.11
581.14	42.13
581.30	0.00
581.46	0.00
581.62	18.72
581.78	65.54
581.94	86.60
582.10	105.32
582.26	32.77
582.42	0.00
582.58	30.43
582.74	84.26
582.90	84.26
583.06	44.47
583.22	0.00
583.38	77.24
583.54	88.94
583.70	60.85
583.86	100.64
584.02	44.47
584.18	86.60
584.34	145.11
584.50	140.43
584.66	1083.67
584.82	2520.76
584.98	3768.26
585.14	3400.80
585.30	2139.25
585.46	1299.00
585.62	791.10
585.78	374.49
585.94	217.67
586.10	194.26
586.26	124.05
586.42	110.01
586.58	88.94
586.74	53.83
586.90	11.70
587.06	81.92
587.22	63.19
587.38	44.47
587.54	100.64
587.70	140.43
587.86	262.14
588.02	306.61
588.18	161.50
588.34	145.11
588.49	140.43
588.65	25.75
588.81	70.22
588.97	74.90
589.13	9.36
589.29	46.81
589.45	56.17
589.61	37.45
589.77	86.60
589.93	86.60
590.08	0.00
590.24	79.58
590.40	51.49
590.56	77.24
590.72	67.88
590.88	30.43
591.04	105.32
591.20	0.00
591.35	23.41
591.51	56.17
591.67	53.83
591.83	74.90
591.99	51.49
592.15	32.77
592.31	107.66
592.46	110.01
592.62	11.70
592.78	72.56
592.94	16.38
593.10	0.00
593.26	39.79
593.41	53.83
593.57	14.04
593.73	67.88
593.89	119.37
594.05	365.12
594.20	545.34
594.36	505.56
594.52	339.38
594.68	243.42
594.84	152.13
594.99	161.50
595.15	77.24
595.31	142.77
595.47	60.85
595.62	0.00
595.78	63.19
595.94	93.62
596.10	0.00
596.25	11.70
596.41	72.56
596.57	93.62
596.73	60.85
596.88	65.54
597.04	93.62
597.20	187.24
597.36	212.99
597.51	74.90
597.67	9.36
597.83	95.96
597.99	0.00
598.14	23.41
598.30	56.17
598.46	14.04
598.61	28.09
598.77	91.28
598.93	95.96
599.09	0.00
599.24	79.58
599.40	49.15
599.56	51.49
599.71	51.49
599.87	16.38
600.03	9.36
600.18	9.36
600.34	7.02
600.50	21.06
600.65	46.81
600.81	42.13
600.97	44.47
601.12	35.11
601.28	42.13
601.44	72.56
601.59	0.00
601.75	70.22
601.91	0.00
602.06	16.38
602.22	2.34
602.37	117.03
602.53	152.13
602.69	156.82
602.84	166.18
603.00	114.69
603.16	28.09
603.31	63.19
603.47	77.24
603.62	37.45
603.78	30.43
603.94	18.72
604.09	35.11
604.25	0.00
604.40	51.49
604.56	0.00
604.71	11.70
604.87	21.06
605.03	58.51
605.18	46.81
605.34	0.00
605.49	4.68
605.65	28.09
605.80	53.83
605.96	100.64
606.12	16.38
606.27	63.19
606.43	0.00
606.58	42.13
606.74	128.73
606.89	124.05
607.05	313.63
607.20	435.34
607.36	362.78
607.51	273.84
607.67	224.69
607.82	191.92
607.98	2.34
608.13	88.94
608.29	35.11
608.44	2.34
608.60	25.75
608.75	9.36
608.91	102.98
609.06	290.23
609.22	533.64
609.37	727.91
609.53	655.35
609.68	383.85
609.84	313.63
609.99	210.65
610.15	128.73
610.30	51.49
610.46	56.17
610.61	58.51
610.76	74.90
610.92	37.45
611.07	46.81
611.23	91.28
611.38	0.00
611.54	74.90
611.69	25.75
611.84	56.17
612.00	18.72
612.15	58.51
612.31	105.32
612.46	21.06
612.62	81.92
612.77	44.47
612.92	11.70
613.08	53.83
613.23	100.64
613.39	0.00
613.54	46.81
613.69	311.29
613.85	622.58
614.00	1032.18
614.15	1078.99
614.31	777.06
614.46	554.71
614.62	367.46
614.77	248.10
614.92	77.24
615.08	84.26
615.23	77.24
615.38	67.88
615.54	93.62
615.69	110.01
615.84	191.92
616.00	248.10
616.15	346.40
616.30	255.12
616.46	205.97
616.61	114.69
616.76	121.71
616.92	51.49
617.07	60.85
617.22	0.00
617.37	0.00
617.53	42.13
617.68	23.41
617.83	16.38
617.99	2.34
618.14	53.83
618.29	32.77
618.45	25.75
618.60	110.01
618.75	37.45
618.90	42.13
619.06	18.72
619.21	25.75
619.36	51.49
619.51	42.13
619.67	58.51
619.82	25.75
619.97	25.75
620.12	0.00
620.28	21.06
620.43	39.79
620.58	58.51
620.73	56.17
620.89	58.51
621.04	39.79
621.19	65.54
621.34	128.73
621.49	271.50
621.65	149.79
621.80	166.18
621.95	121.71
622.10	49.15
622.25	79.58
622.41	23.41
622.56	81.92
622.71	23.41
622.86	39.79
623.01	25.75
623.16	42.13
623.32	0.00
623.47	32.77
623.62	81.92
623.77	72.56
623.92	67.88
624.07	18.72
624.23	2.34
624.38	46.81
624.53	32.77
624.68	79.58
624.83	42.13
624.98	65.54
625.13	0.00
625.29	42.13
625.44	4.68
625.59	100.64
625.74	37.45
625.89	28.09
626.04	142.77
626.19	367.46
626.34	489.17
626.49	606.20
626.65	433.00
626.80	308.95
626.95	126.39
627.10	175.54
627.25	91.28
627.40	9.36
627.55	60.85
627.70	28.09
627.85	79.58
628.00	88.94
628.15	107.66
628.30	0.00
628.45	14.04
628.60	0.00
628.76	56.17
628.91	4.68
629.06	110.01
629.21	56.17
629.36	53.83
629.51	42.13
629.66	79.58
629.81	77.24
629.96	135.75
630.11	208.31
630.26	271.50
630.41	175.54
630.56	142.77
630.71	63.19
630.86	65.54
631.01	95.96
631.16	39.79
631.31	0.00
631.46	11.70
631.61	0.00
631.76	2.34
631.91	7.02
632.06	35.11
632.21	28.09
632.36	9.36
632.51	49.15
632.66	72.56
632.81	84.26
632.96	175.54
633.10	358.10
633.25	447.04
633.40	332.36
633.55	208.31
633.70	229.37
633.85	46.81
634.00	35.11
634.15	28.09
634.30	30.43
634.45	56.17
634.60	9.36
634.75	56.17
634.90	37.45
635.05	14.04
635.19	39.79
635.34	0.00
635.49	4.68
635.64	28.09
635.79	35.11
635.94	65.54
636.09	51.49
636.24	72.56
636.39	11.70
636.53	9.36
636.68	93.62
636.83	23.41
636.98	152.13
637.13	11.70
637.28	72.56
637.43	60.85
637.57	16.38
637.72	191.92
637.87	449.38
638.02	650.67
638.17	765.36
638.32	566.41
638.46	372.15
638.61	245.76
638.76	245.76
638.91	86.60
639.06	131.07
639.20	100.64
639.35	44.47
639.50	98.30
639.65	238.73
639.80	725.57
639.94	1135.16
640.09	1212.40
640.24	891.74
640.39	713.86
640.54	411.93
640.68	292.57
640.83	114.69
640.98	100.64
641.13	77.24
641.27	100.64
641.42	63.19
641.57	14.04
641.72	11.70
641.86	0.00
642.01	44.47
642.16	18.72
642.31	46.81
642.45	21.06
642.60	102.98
642.75	18.72
642.90	0.00
643.04	72.56
643.19	32.77
643.34	42.13
643.48	23.41
643.63	16.38
643.78	37.45
643.93	0.00
644.07	0.00
644.22	2.34
644.37	37.45
644.51	0.00
644.66	0.00
644.81	56.17
644.95	44.47
645.10	91.28
645.25	0.00
645.39	25.75
645.54	7.02
645.69	56.17
645.83	124.05
645.98	32.77
646.13	46.81
646.27	70.22
646.42	37.45
646.57	67.88
646.71	0.00
646.86	35.11
647.00	100.64
647.15	14.04
647.30	51.49
647.44	11.70
647.59	21.06
647.74	74.90
647.88	93.62
648.03	23.41
648.17	49.15
648.32	72.56
648.47	49.15
648.61	56.17
648.76	58.51
648.90	28.09
649.05	0.00
649.20	46.81
649.34	0.00
649.49	32.77
649.63	28.09
649.78	79.58
649.92	0.00
650.07	110.01
650.21	325.33
650.36	465.77
650.51	552.37
650.65	491.51
650.80	402.57
650.94	257.46
651.09	131.07
651.23	114.69
651.38	102.98
651.52	60.85
651.67	0.00
651.81	2.34
651.96	7.02
652.10	0.00
652.25	0.00
652.39	105.32
652.54	0.00
652.68	44.47
652.83	110.01
652.97	224.69
653.12	166.18
653.26	252.78
653.41	198.95
653.55	95.96
653.70	60.85
653.84	42.13
653.99	102.98
654.13	0.00
654.27	32.77
654.42	9.36
654.56	0.00
654.71	23.41
654.85	0.00
655.00	53.83
655.14	46.81
655.29	46.81
655.43	114.69
655.57	93.62
655.72	0.00
655.86	18.72
656.01	0.00
656.15	35.11
656.30	28.09
656.44	0.00
656.58	0.00
656.73	46.81
656.87	25.75
657.01	91.28
657.16	0.00
657.30	77.24
657.45	21.06
657.59	46.81
657.73	72.56
657.88	14.04
658.02	9.36
658.16	18.72
658.31	77.24
658.45	16.38
658.60	0.00
658.74	44.47
658.88	72.56
659.03	65.54
659.17	67.88
659.31	121.71
659.46	161.50
659.60	250.44
659.74	290.23
659.89	287.89
660.03	208.31
660.17	135.75
660.32	91.28
660.46	77.24
660.60	21.06
660.74	53.83
660.89	63.19
661.03	56.17
661.17	2.34
661.32	56.17
661.46	88.94
661.60	2.34
661.74	58.51
661.89	39.79
662.03	65.54
662.17	138.09
662.31	98.30
662.46	28.09
662.60	32.77
662.74	2.34
662.88	32.77
663.03	11.70
663.17	9.36
663.31	28.09
663.45	16.38
663.60	0.00
663.74	4.68
663.88	39.79
664.02	32.77
664.17	58.51
664.31	37.45
664.45	9.36
664.59	46.81
664.73	23.41
664.88	46.81
665.02	11.70
665.16	39.79
665.30	25.75
665.44	91.28
665.59	35.11
665.73	46.81
665.87	44.47
666.01	16.38
666.15	30.43
666.29	2.34
666.44	0.00
666.58	14.04
666.72	0.00
666.86	58.51
667.00	53.83
667.14	0.00
667.28	39.79
667.43	292.57
667.57	437.68
667.71	545.34
667.85	435.34
667.99	330.02
668.13	205.97
668.27	152.13
668.41	77.24
668.56	28.09
668.70	70.22
668.84	7.02
668.98	23.41
669.12	32.77
669.26	56.17
669.40	67.88
669.54	39.79
669.68	119.37
669.82	16.38
669.96	56.17
670.10	35.11
670.25	11.70
670.39	25.75
670.53	72.56
670.67	70.22
670.81	35.11
670.95	30.43
671.09	110.01
671.23	159.16
671.37	212.99
671.51	287.89
671.65	332.36
671.79	276.18
671.93	135.75
672.07	159.16
672.21	39.79
672.35	79.58
672.49	35.11
672.63	21.06
672.77	112.35
672.91	25.75
673.05	65.54
673.19	21.06
673.33	37.45
673.47	28.09
673.61	32.77
673.75	30.43
673.89	53.83
674.03	51.49
674.17	16.38
674.31	0.00
674.45	32.77
674.59	0.00
674.73	16.38
674.87	39.79
675.01	126.39
675.15	23.41
675.29	53.83
675.43	63.19
675.56	0.00
675.70	2.34
675.84	49.15
675.98	30.43
676.12	138.09
676.26	53.83
676.40	7.02
676.54	0.00
676.68	0.00
676.82	21.06
676.96	44.47
677.10	74.90
677.23	25.75
677.37	16.38
677.51	0.00
677.65	81.92
677.79	0.00
677.93	42.13
678.07	88.94
678.21	11.70
678.34	11.70
678.48	21.06
678.62	30.43
678.76	49.15
678.90	35.11
679.04	0.00
679.18	44.47
679.31	121.71
679.45	35.11
679.59	0.00
679.73	46.81
679.87	42.13
680.00	67.88
680.14	100.64
680.28	35.11
680.42	21.06
680.56	70.22
680.70	2.34
680.83	23.41
680.97	25.75
681.11	65.54
681.25	32.77
681.39	70.22
681.52	0.00
681.66	14.04
681.80	0.00
681.94	0.00
682.07	53.83
682.21	4.68
682.35	0.00
682.49	0.00
682.62	7.02
682.76	21.06
682.90	14.04
683.04	110.01
683.17	9.36
683.31	65.54
683.45	53.83
683.59	0.00
683.72	70.22
683.86	44.47
684.00	30.43
684.13	77.24
684.27	0.00
684.41	25.75
684.55	0.00
684.68	0.00
684.82	7.02
684.96	0.00
685.09	37.45
685.23	39.79
685.37	32.77
685.50	16.38
685.64	25.75
685.78	0.00
685.91	32.77
686.05	74.90
686.19	44.47
686.32	81.92
686.46	37.45
686.60	0.00
686.73	56.17
686.87	39.79
687.01	72.56
687.14	88.94
687.28	51.49
687.42	32.77
687.55	25.75
687.69	0.00
687.82	37.45
687.96	46.81
688.10	65.54
688.23	46.81
688.37	39.79
688.50	32.77
688.64	35.11
688.78	0.00
688.91	30.43
689.05	0.00
689.18	18.72
689.32	46.81
689.46	93.62
689.59	7.02
689.73	63.19
689.86	32.77
690.00	102.98
690.13	25.75
690.27	58.51
690.41	37.45
690.54	9.36
690.68	53.83
690.81	65.54
690.95	51.49
691.08	56.17
691.22	25.75
691.35	65.54
691.49	16.38
691.62	0.00
691.76	0.00
691.89	74.90
692.03	0.00
692.16	25.75
692.30	16.38
692.43	72.56
692.57	88.94
692.70	189.58
692.84	301.93
692.97	227.03
693.11	210.65
693.24	128.73
693.38	147.45
693.51	11.70
693.65	65.54
693.78	0.00
693.92	32.77
694.05	18.72
694.19	93.62
694.32	7.02
694.45	51.49
694.59	70.22
694.72	42.13
694.86	65.54
694.99	0.00
695.13	0.00
695.26	32.77
695.39	11.70
695.53	23.41
695.66	39.79
695.80	30.43
695.93	56.17
696.07	44.47
696.20	21.06
696.33	79.58
696.47	67.88
696.60	51.49
696.73	44.47
696.87	49.15
697.00	67.88
697.14	58.51
697.27	46.81
697.40	30.43
697.54	98.30
697.67	21.06
697.80	30.43
697.94	0.00
698.07	86.60
698.21	35.11
698.34	65.54
698.47	81.92
698.61	44.47
698.74	14.04
698.87	44.47
699.01	44.47
699.14	7.02
699.27	32.77
699.40	39.79
699.54	25.75
699.67	86.60
699.80	58.51
699.94	14.04
700.07	0.00
700.20	9.36
700.34	81.92
700.47	42.13
700.60	124.05
700.73	0.00
700.87	53.83
701.00	23.41
701.13	39.79
701.26	0.00
701.40	9.36
701.53	0.00
701.66	28.09
701.79	25.75
701.93	72.56
702.06	65.54
702.19	21.06
702.32	42.13
702.46	39.79
702.59	74.90
702.72	112.35
702.85	121.71
702.99	238.73
703.12	507.90
703.25	461.09
703.38	463.43
703.51	344.06
703.65	248.10
703.78	128.73
703.91	182.56
704.04	133.41
704.17	98.30
704.31	42.13
704.44	79.58
704.57	11.70
704.70	30.43
704.83	0.00
704.96	60.85
705.10	60.85
705.23	51.49
>>>>>End Processed Spectral Data<<<<<
