SpectraSuite Data File
++++++++++++++++++++++++++++++++++++
Date: Fri Oct 04 12:13:25 GMT-05:00 2013
User: price-jones
Dark Spectrum Present: No
Reference Spectrum Present: No
Number of Sampled Component Spectra: 1
Spectrometers: USB2+H05261
Integration Time (usec): 10000 (USB2+H05261)
Spectra Averaged: 1 (USB2+H05261)
Boxcar Smoothing: 0 (USB2+H05261)
Correct for Electrical Dark: No (USB2+H05261)
Strobe/Lamp Enabled: No (USB2+H05261)
Correct for Detector Non-linearity: No (USB2+H05261)
Correct for Stray Light: No (USB2+H05261)
Number of Pixels in Processed Spectrum: 2048
>>>>>Begin Processed Spectral Data<<<<<
365.73	58.51
365.92	58.51
366.12	58.51
366.32	0.00
366.52	0.00
366.72	0.00
366.91	0.00
367.11	0.00
367.31	0.00
367.51	0.00
367.70	0.00
367.90	0.00
368.10	0.00
368.30	0.00
368.49	0.00
368.69	0.00
368.89	0.00
369.09	0.00
369.28	0.00
369.48	0.00
369.68	0.00
369.87	0.00
370.07	0.00
370.27	0.00
370.47	0.00
370.66	0.00
370.86	0.00
371.06	0.00
371.25	16.38
371.45	0.00
371.65	0.00
371.84	0.00
372.04	21.06
372.24	23.41
372.44	9.36
372.63	53.83
372.83	42.13
373.03	0.00
373.22	2.34
373.42	21.06
373.62	46.81
373.81	4.68
374.01	0.00
374.21	14.04
374.40	23.41
374.60	16.38
374.79	4.68
374.99	74.90
375.19	16.38
375.38	65.54
375.58	42.13
375.78	46.81
375.97	37.45
376.17	74.90
376.37	2.34
376.56	98.30
376.76	0.00
376.95	37.45
377.15	46.81
377.35	95.96
377.54	0.00
377.74	28.09
377.93	14.04
378.13	0.00
378.33	51.49
378.52	88.94
378.72	49.15
378.91	0.00
379.11	70.22
379.31	121.71
379.50	51.49
379.70	0.00
379.89	28.09
380.09	0.00
380.28	23.41
380.48	25.75
380.68	0.00
380.87	39.79
381.07	0.00
381.26	18.72
381.46	0.00
381.65	0.00
381.85	25.75
382.04	39.79
382.24	0.00
382.43	49.15
382.63	0.00
382.83	56.17
383.02	42.13
383.22	70.22
383.41	4.68
383.61	25.75
383.80	16.38
384.00	28.09
384.19	18.72
384.39	35.11
384.58	4.68
384.78	95.96
384.97	0.00
385.17	0.00
385.36	84.26
385.56	14.04
385.75	9.36
385.95	2.34
386.14	49.15
386.34	39.79
386.53	32.77
386.72	0.00
386.92	0.00
387.11	0.00
387.31	58.51
387.50	39.79
387.70	0.00
387.89	21.06
388.09	7.02
388.28	0.00
388.48	58.51
388.67	72.56
388.86	56.17
389.06	11.70
389.25	16.38
389.45	11.70
389.64	44.47
389.84	23.41
390.03	0.00
390.22	42.13
390.42	63.19
390.61	107.66
390.81	49.15
391.00	4.68
391.19	88.94
391.39	0.00
391.58	72.56
391.78	23.41
391.97	0.00
392.16	9.36
392.36	0.00
392.55	28.09
392.75	7.02
392.94	0.00
393.13	16.38
393.33	63.19
393.52	32.77
393.71	0.00
393.91	0.00
394.10	16.38
394.29	63.19
394.49	53.83
394.68	16.38
394.88	18.72
395.07	30.43
395.26	0.00
395.46	16.38
395.65	44.47
395.84	49.15
396.04	39.79
396.23	0.00
396.42	86.60
396.62	0.00
396.81	46.81
397.00	0.00
397.19	0.00
397.39	37.45
397.58	105.32
397.77	0.00
397.97	44.47
398.16	4.68
398.35	81.92
398.55	49.15
398.74	18.72
398.93	0.00
399.12	35.11
399.32	0.00
399.51	4.68
399.70	39.79
399.90	74.90
400.09	60.85
400.28	0.00
400.47	44.47
400.67	11.70
400.86	0.00
401.05	30.43
401.24	0.00
401.44	60.85
401.63	0.00
401.82	4.68
402.01	0.00
402.21	0.00
402.40	35.11
402.59	11.70
402.78	56.17
402.97	35.11
403.17	14.04
403.36	16.38
403.55	42.13
403.74	44.47
403.93	102.98
404.13	79.58
404.32	35.11
404.51	23.41
404.70	51.49
404.89	0.00
405.09	67.88
405.28	25.75
405.47	49.15
405.66	0.00
405.85	28.09
406.05	42.13
406.24	21.06
406.43	11.70
406.62	56.17
406.81	0.00
407.00	14.04
407.20	25.75
407.39	51.49
407.58	35.11
407.77	21.06
407.96	117.03
408.15	63.19
408.34	91.28
408.54	70.22
408.73	67.88
408.92	0.00
409.11	23.41
409.30	0.00
409.49	9.36
409.68	39.79
409.87	0.00
410.07	0.00
410.26	0.00
410.45	44.47
410.64	16.38
410.83	32.77
411.02	91.28
411.21	60.85
411.40	39.79
411.59	79.58
411.78	35.11
411.98	58.51
412.17	51.49
412.36	65.54
412.55	0.00
412.74	0.00
412.93	84.26
413.12	0.00
413.31	9.36
413.50	37.45
413.69	0.00
413.88	0.00
414.07	25.75
414.26	0.00
414.45	0.00
414.64	28.09
414.83	32.77
415.02	7.02
415.22	0.00
415.41	2.34
415.60	72.56
415.79	0.00
415.98	0.00
416.17	37.45
416.36	0.00
416.55	58.51
416.74	86.60
416.93	39.79
417.12	30.43
417.31	9.36
417.50	9.36
417.69	53.83
417.88	0.00
418.07	91.28
418.26	44.47
418.45	65.54
418.64	4.68
418.83	21.06
419.02	95.96
419.21	72.56
419.39	18.72
419.58	30.43
419.77	51.49
419.96	7.02
420.15	60.85
420.34	30.43
420.53	11.70
420.72	16.38
420.91	42.13
421.10	23.41
421.29	46.81
421.48	18.72
421.67	58.51
421.86	0.00
422.05	14.04
422.24	0.00
422.43	46.81
422.61	14.04
422.80	46.81
422.99	28.09
423.18	88.94
423.37	84.26
423.56	35.11
423.75	77.24
423.94	30.43
424.13	81.92
424.32	58.51
424.50	0.00
424.69	28.09
424.88	25.75
425.07	0.00
425.26	0.00
425.45	44.47
425.64	0.00
425.83	46.81
426.01	0.00
426.20	32.77
426.39	28.09
426.58	30.43
426.77	7.02
426.96	0.00
427.15	0.00
427.33	18.72
427.52	0.00
427.71	70.22
427.90	46.81
428.09	53.83
428.28	44.47
428.46	49.15
428.65	35.11
428.84	7.02
429.03	0.00
429.22	0.00
429.40	4.68
429.59	39.79
429.78	32.77
429.97	53.83
430.16	18.72
430.34	0.00
430.53	39.79
430.72	32.77
430.91	2.34
431.10	0.00
431.28	0.00
431.47	70.22
431.66	39.79
431.85	11.70
432.03	0.00
432.22	18.72
432.41	98.30
432.60	23.41
432.79	105.32
432.97	70.22
433.16	37.45
433.35	0.00
433.54	93.62
433.72	25.75
433.91	0.00
434.10	65.54
434.28	49.15
434.47	79.58
434.66	30.43
434.85	32.77
435.03	0.00
435.22	0.00
435.41	25.75
435.59	0.00
435.78	56.17
435.97	0.00
436.16	32.77
436.34	32.77
436.53	0.00
436.72	7.02
436.90	0.00
437.09	39.79
437.28	70.22
437.46	67.88
437.65	56.17
437.84	72.56
438.02	11.70
438.21	4.68
438.40	46.81
438.58	88.94
438.77	32.77
438.96	0.00
439.14	35.11
439.33	11.70
439.52	60.85
439.70	21.06
439.89	70.22
440.08	37.45
440.26	28.09
440.45	28.09
440.63	63.19
440.82	51.49
441.01	65.54
441.19	39.79
441.38	100.64
441.57	32.77
441.75	0.00
441.94	2.34
442.12	25.75
442.31	0.00
442.50	98.30
442.68	16.38
442.87	35.11
443.05	86.60
443.24	0.00
443.43	4.68
443.61	77.24
443.80	9.36
443.98	37.45
444.17	4.68
444.35	95.96
444.54	63.19
444.73	16.38
444.91	2.34
445.10	4.68
445.28	9.36
445.47	32.77
445.65	44.47
445.84	0.00
446.02	67.88
446.21	93.62
446.39	37.45
446.58	72.56
446.77	18.72
446.95	0.00
447.14	2.34
447.32	14.04
447.51	42.13
447.69	46.81
447.88	0.00
448.06	0.00
448.25	18.72
448.43	0.00
448.62	30.43
448.80	86.60
448.99	49.15
449.17	88.94
449.36	77.24
449.54	0.00
449.73	0.00
449.91	0.00
450.10	11.70
450.28	37.45
450.46	49.15
450.65	30.43
450.83	49.15
451.02	11.70
451.20	28.09
451.39	0.00
451.57	0.00
451.76	0.00
451.94	56.17
452.13	14.04
452.31	37.45
452.49	21.06
452.68	35.11
452.86	98.30
453.05	88.94
453.23	0.00
453.42	39.79
453.60	2.34
453.78	58.51
453.97	42.13
454.15	11.70
454.34	0.00
454.52	4.68
454.70	63.19
454.89	37.45
455.07	25.75
455.26	32.77
455.44	77.24
455.62	56.17
455.81	0.00
455.99	7.02
456.17	0.00
456.36	9.36
456.54	11.70
456.73	100.64
456.91	121.71
457.09	18.72
457.28	0.00
457.46	0.00
457.64	37.45
457.83	18.72
458.01	9.36
458.19	21.06
458.38	49.15
458.56	44.47
458.74	60.85
458.93	32.77
459.11	79.58
459.29	0.00
459.48	0.00
459.66	56.17
459.84	28.09
460.03	93.62
460.21	21.06
460.39	37.45
460.57	0.00
460.76	49.15
460.94	58.51
461.12	58.51
461.31	44.47
461.49	2.34
461.67	11.70
461.85	32.77
462.04	56.17
462.22	124.05
462.40	79.58
462.59	107.66
462.77	74.90
462.95	77.24
463.13	63.19
463.32	35.11
463.50	23.41
463.68	72.56
463.86	81.92
464.05	35.11
464.23	32.77
464.41	35.11
464.59	7.02
464.78	30.43
464.96	39.79
465.14	37.45
465.32	25.75
465.50	23.41
465.69	112.35
465.87	4.68
466.05	53.83
466.23	39.79
466.41	25.75
466.60	35.11
466.78	0.00
466.96	0.00
467.14	0.00
467.32	11.70
467.51	30.43
467.69	70.22
467.87	159.16
468.05	65.54
468.23	49.15
468.41	7.02
468.60	77.24
468.78	2.34
468.96	74.90
469.14	21.06
469.32	25.75
469.50	0.00
469.69	100.64
469.87	63.19
470.05	42.13
470.23	77.24
470.41	25.75
470.59	35.11
470.77	0.00
470.95	0.00
471.14	21.06
471.32	91.28
471.50	4.68
471.68	72.56
471.86	16.38
472.04	0.00
472.22	58.51
472.40	72.56
472.58	56.17
472.77	23.41
472.95	63.19
473.13	44.47
473.31	28.09
473.49	0.00
473.67	42.13
473.85	0.00
474.03	110.01
474.21	112.35
474.39	7.02
474.57	86.60
474.75	23.41
474.93	84.26
475.12	11.70
475.30	18.72
475.48	49.15
475.66	9.36
475.84	0.00
476.02	0.00
476.20	133.41
476.38	56.17
476.56	46.81
476.74	74.90
476.92	56.17
477.10	18.72
477.28	28.09
477.46	49.15
477.64	11.70
477.82	21.06
478.00	18.72
478.18	51.49
478.36	44.47
478.54	25.75
478.72	86.60
478.90	23.41
479.08	0.00
479.26	39.79
479.44	0.00
479.62	49.15
479.80	98.30
479.98	58.51
480.16	46.81
480.34	46.81
480.52	44.47
480.70	0.00
480.88	9.36
481.06	88.94
481.24	30.43
481.41	100.64
481.59	0.00
481.77	60.85
481.95	46.81
482.13	28.09
482.31	14.04
482.49	49.15
482.67	25.75
482.85	121.71
483.03	72.56
483.21	21.06
483.39	18.72
483.57	44.47
483.74	46.81
483.92	16.38
484.10	14.04
484.28	0.00
484.46	42.13
484.64	23.41
484.82	42.13
485.00	42.13
485.18	81.92
485.35	32.77
485.53	44.47
485.71	35.11
485.89	46.81
486.07	74.90
486.25	81.92
486.43	35.11
486.61	88.94
486.78	39.79
486.96	16.38
487.14	7.02
487.32	60.85
487.50	28.09
487.68	60.85
487.85	81.92
488.03	51.49
488.21	42.13
488.39	0.00
488.57	51.49
488.75	4.68
488.92	35.11
489.10	35.11
489.28	4.68
489.46	145.11
489.64	32.77
489.81	42.13
489.99	32.77
490.17	107.66
490.35	28.09
490.53	14.04
490.70	21.06
490.88	37.45
491.06	39.79
491.24	51.49
491.41	0.00
491.59	88.94
491.77	0.00
491.95	4.68
492.13	18.72
492.30	46.81
492.48	63.19
492.66	11.70
492.84	9.36
493.01	63.19
493.19	81.92
493.37	98.30
493.54	77.24
493.72	39.79
493.90	0.00
494.08	30.43
494.25	95.96
494.43	0.00
494.61	37.45
494.79	35.11
494.96	53.83
495.14	14.04
495.32	77.24
495.49	37.45
495.67	84.26
495.85	81.92
496.02	91.28
496.20	84.26
496.38	14.04
496.55	63.19
496.73	28.09
496.91	67.88
497.09	107.66
497.26	32.77
497.44	9.36
497.62	49.15
497.79	42.13
497.97	44.47
498.14	0.00
498.32	30.43
498.50	67.88
498.67	28.09
498.85	23.41
499.03	74.90
499.20	28.09
499.38	46.81
499.56	98.30
499.73	84.26
499.91	0.00
500.08	0.00
500.26	14.04
500.44	35.11
500.61	7.02
500.79	67.88
500.97	56.17
501.14	16.38
501.32	37.45
501.49	112.35
501.67	95.96
501.84	7.02
502.02	14.04
502.20	30.43
502.37	102.98
502.55	2.34
502.72	107.66
502.90	25.75
503.07	39.79
503.25	9.36
503.43	0.00
503.60	37.45
503.78	0.00
503.95	84.26
504.13	21.06
504.30	0.00
504.48	74.90
504.65	32.77
504.83	14.04
505.01	25.75
505.18	35.11
505.36	84.26
505.53	44.47
505.71	11.70
505.88	16.38
506.06	30.43
506.23	28.09
506.41	88.94
506.58	25.75
506.76	81.92
506.93	70.22
507.11	128.73
507.28	44.47
507.46	0.00
507.63	53.83
507.81	46.81
507.98	0.00
508.16	124.05
508.33	0.00
508.50	84.26
508.68	23.41
508.85	56.17
509.03	9.36
509.20	21.06
509.38	0.00
509.55	49.15
509.73	44.47
509.90	44.47
510.08	51.49
510.25	65.54
510.42	51.49
510.60	72.56
510.77	0.00
510.95	44.47
511.12	72.56
511.30	63.19
511.47	88.94
511.64	49.15
511.82	39.79
511.99	16.38
512.17	53.83
512.34	88.94
512.51	0.00
512.69	0.00
512.86	11.70
513.04	39.79
513.21	2.34
513.38	0.00
513.56	37.45
513.73	2.34
513.90	46.81
514.08	42.13
514.25	9.36
514.43	110.01
514.60	2.34
514.77	0.00
514.95	49.15
515.12	53.83
515.29	16.38
515.47	49.15
515.64	114.69
515.81	121.71
515.99	0.00
516.16	44.47
516.33	65.54
516.51	4.68
516.68	44.47
516.85	0.00
517.03	72.56
517.20	0.00
517.37	7.02
517.54	37.45
517.72	30.43
517.89	42.13
518.06	2.34
518.24	58.51
518.41	32.77
518.58	49.15
518.75	28.09
518.93	72.56
519.10	0.00
519.27	51.49
519.45	21.06
519.62	0.00
519.79	58.51
519.96	0.00
520.14	81.92
520.31	88.94
520.48	35.11
520.65	60.85
520.83	112.35
521.00	18.72
521.17	39.79
521.34	63.19
521.52	84.26
521.69	18.72
521.86	56.17
522.03	32.77
522.20	77.24
522.38	56.17
522.55	18.72
522.72	0.00
522.89	142.77
523.07	53.83
523.24	60.85
523.41	21.06
523.58	42.13
523.75	53.83
523.92	53.83
524.10	53.83
524.27	35.11
524.44	65.54
524.61	0.00
524.78	0.00
524.96	117.03
525.13	60.85
525.30	21.06
525.47	79.58
525.64	28.09
525.81	32.77
525.98	65.54
526.16	84.26
526.33	37.45
526.50	0.00
526.67	91.28
526.84	23.41
527.01	37.45
527.18	0.00
527.36	39.79
527.53	4.68
527.70	18.72
527.87	35.11
528.04	18.72
528.21	72.56
528.38	37.45
528.55	2.34
528.72	65.54
528.89	70.22
529.07	37.45
529.24	35.11
529.41	63.19
529.58	70.22
529.75	16.38
529.92	53.83
530.09	0.00
530.26	0.00
530.43	98.30
530.60	11.70
530.77	67.88
530.94	49.15
531.11	79.58
531.28	46.81
531.46	21.06
531.63	70.22
531.80	32.77
531.97	53.83
532.14	0.00
532.31	0.00
532.48	30.43
532.65	91.28
532.82	65.54
532.99	53.83
533.16	42.13
533.33	0.00
533.50	51.49
533.67	72.56
533.84	14.04
534.01	14.04
534.18	86.60
534.35	7.02
534.52	0.00
534.69	0.00
534.86	39.79
535.03	56.17
535.20	7.02
535.37	0.00
535.54	102.98
535.71	42.13
535.88	95.96
536.05	37.45
536.22	67.88
536.38	28.09
536.55	49.15
536.72	4.68
536.89	63.19
537.06	86.60
537.23	25.75
537.40	60.85
537.57	58.51
537.74	46.81
537.91	121.71
538.08	74.90
538.25	32.77
538.42	32.77
538.59	100.64
538.75	0.00
538.92	16.38
539.09	49.15
539.26	63.19
539.43	63.19
539.60	56.17
539.77	63.19
539.94	42.13
540.11	39.79
540.28	114.69
540.44	74.90
540.61	0.00
540.78	0.00
540.95	44.47
541.12	2.34
541.29	39.79
541.46	49.15
541.62	14.04
541.79	23.41
541.96	65.54
542.13	63.19
542.30	46.81
542.47	11.70
542.63	0.00
542.80	53.83
542.97	70.22
543.14	79.58
543.31	32.77
543.48	74.90
543.64	32.77
543.81	37.45
543.98	0.00
544.15	14.04
544.32	9.36
544.48	0.00
544.65	42.13
544.82	81.92
544.99	0.00
545.16	0.00
545.32	4.68
545.49	28.09
545.66	44.47
545.83	2.34
546.00	0.00
546.16	110.01
546.33	25.75
546.50	51.49
546.67	42.13
546.83	28.09
547.00	0.00
547.17	0.00
547.34	114.69
547.50	30.43
547.67	11.70
547.84	35.11
548.00	0.00
548.17	25.75
548.34	46.81
548.51	63.19
548.67	91.28
548.84	7.02
549.01	37.45
549.18	0.00
549.34	74.90
549.51	65.54
549.68	23.41
549.84	39.79
550.01	67.88
550.18	70.22
550.34	35.11
550.51	51.49
550.68	42.13
550.84	46.81
551.01	25.75
551.18	91.28
551.34	18.72
551.51	77.24
551.68	16.38
551.84	30.43
552.01	0.00
552.18	7.02
552.34	9.36
552.51	56.17
552.68	0.00
552.84	58.51
553.01	0.00
553.18	9.36
553.34	32.77
553.51	100.64
553.67	18.72
553.84	11.70
554.01	46.81
554.17	9.36
554.34	93.62
554.51	84.26
554.67	84.26
554.84	0.00
555.00	2.34
555.17	0.00
555.33	49.15
555.50	18.72
555.67	67.88
555.83	110.01
556.00	0.00
556.16	100.64
556.33	30.43
556.50	30.43
556.66	14.04
556.83	51.49
556.99	65.54
557.16	30.43
557.32	0.00
557.49	2.34
557.65	0.00
557.82	7.02
557.98	2.34
558.15	0.00
558.32	9.36
558.48	18.72
558.65	32.77
558.81	4.68
558.98	28.09
559.14	16.38
559.31	102.98
559.47	63.19
559.64	0.00
559.80	77.24
559.97	32.77
560.13	0.00
560.30	0.00
560.46	93.62
560.63	56.17
560.79	37.45
560.96	72.56
561.12	60.85
561.29	4.68
561.45	107.66
561.61	0.00
561.78	28.09
561.94	91.28
562.11	0.00
562.27	4.68
562.44	0.00
562.60	0.00
562.77	32.77
562.93	30.43
563.10	30.43
563.26	72.56
563.42	32.77
563.59	0.00
563.75	4.68
563.92	14.04
564.08	72.56
564.24	9.36
564.41	65.54
564.57	58.51
564.74	77.24
564.90	72.56
565.07	49.15
565.23	51.49
565.39	39.79
565.56	65.54
565.72	72.56
565.88	0.00
566.05	63.19
566.21	35.11
566.38	56.17
566.54	39.79
566.70	56.17
566.87	44.47
567.03	58.51
567.19	65.54
567.36	93.62
567.52	60.85
567.68	86.60
567.85	35.11
568.01	0.00
568.17	60.85
568.34	0.00
568.50	25.75
568.66	44.47
568.83	23.41
568.99	4.68
569.15	46.81
569.32	28.09
569.48	58.51
569.64	32.77
569.81	112.35
569.97	42.13
570.13	0.00
570.30	35.11
570.46	0.00
570.62	35.11
570.78	65.54
570.95	0.00
571.11	23.41
571.27	95.96
571.43	21.06
571.60	65.54
571.76	53.83
571.92	67.88
572.09	39.79
572.25	49.15
572.41	112.35
572.57	39.79
572.74	0.00
572.90	0.00
573.06	98.30
573.22	32.77
573.38	30.43
573.55	107.66
573.71	51.49
573.87	4.68
574.03	117.03
574.20	7.02
574.36	77.24
574.52	4.68
574.68	39.79
574.84	0.00
575.01	25.75
575.17	23.41
575.33	79.58
575.49	0.00
575.65	60.85
575.82	23.41
575.98	14.04
576.14	84.26
576.30	100.64
576.46	53.83
576.62	126.39
576.79	93.62
576.95	11.70
577.11	21.06
577.27	79.58
577.43	0.00
577.59	0.00
577.75	0.00
577.92	67.88
578.08	67.88
578.24	35.11
578.40	114.69
578.56	2.34
578.72	86.60
578.88	53.83
579.04	56.17
579.21	49.15
579.37	23.41
579.53	28.09
579.69	9.36
579.85	77.24
580.01	0.00
580.17	86.60
580.33	0.00
580.49	32.77
580.65	0.00
580.82	49.15
580.98	25.75
581.14	0.00
581.30	0.00
581.46	110.01
581.62	30.43
581.78	88.94
581.94	32.77
582.10	46.81
582.26	0.00
582.42	63.19
582.58	65.54
582.74	58.51
582.90	46.81
583.06	86.60
583.22	21.06
583.38	0.00
583.54	88.94
583.70	0.00
583.86	0.00
584.02	60.85
584.18	0.00
584.34	0.00
584.50	0.00
584.66	0.00
584.82	0.00
584.98	56.17
585.14	51.49
585.30	4.68
585.46	37.45
585.62	30.43
585.78	39.79
585.94	0.00
586.10	0.00
586.26	30.43
586.42	18.72
586.58	37.45
586.74	0.00
586.90	0.00
587.06	49.15
587.22	67.88
587.38	67.88
587.54	58.51
587.70	18.72
587.86	67.88
588.02	23.41
588.18	53.83
588.34	77.24
588.49	51.49
588.65	0.00
588.81	35.11
588.97	0.00
589.13	35.11
589.29	72.56
589.45	79.58
589.61	39.79
589.77	39.79
589.93	53.83
590.08	46.81
590.24	0.00
590.40	25.75
590.56	39.79
590.72	49.15
590.88	42.13
591.04	74.90
591.20	0.00
591.35	9.36
591.51	0.00
591.67	0.00
591.83	114.69
591.99	28.09
592.15	42.13
592.31	84.26
592.46	11.70
592.62	18.72
592.78	30.43
592.94	30.43
593.10	30.43
593.26	191.92
593.41	51.49
593.57	7.02
593.73	72.56
593.89	7.02
594.05	67.88
594.20	79.58
594.36	30.43
594.52	25.75
594.68	86.60
594.84	58.51
594.99	79.58
595.15	21.06
595.31	63.19
595.47	98.30
595.62	42.13
595.78	9.36
595.94	102.98
596.10	2.34
596.25	0.00
596.41	49.15
596.57	32.77
596.73	67.88
596.88	46.81
597.04	14.04
597.20	18.72
597.36	0.00
597.51	0.00
597.67	95.96
597.83	110.01
597.99	37.45
598.14	44.47
598.30	30.43
598.46	0.00
598.61	23.41
598.77	0.00
598.93	95.96
599.09	65.54
599.24	30.43
599.40	0.00
599.56	30.43
599.71	7.02
599.87	0.00
600.03	60.85
600.18	18.72
600.34	53.83
600.50	0.00
600.65	74.90
600.81	79.58
600.97	128.73
601.12	25.75
601.28	74.90
601.44	14.04
601.59	11.70
601.75	46.81
601.91	0.00
602.06	0.00
602.22	42.13
602.37	0.00
602.53	53.83
602.69	142.77
602.84	25.75
603.00	46.81
603.16	88.94
603.31	67.88
603.47	16.38
603.62	23.41
603.78	25.75
603.94	53.83
604.09	9.36
604.25	49.15
604.40	70.22
604.56	53.83
604.71	154.48
604.87	2.34
605.03	30.43
605.18	0.00
605.34	23.41
605.49	39.79
605.65	39.79
605.80	30.43
605.96	0.00
606.12	23.41
606.27	18.72
606.43	0.00
606.58	18.72
606.74	42.13
606.89	0.00
607.05	0.00
607.20	14.04
607.36	51.49
607.51	2.34
607.67	63.19
607.82	16.38
607.98	14.04
608.13	35.11
608.29	25.75
608.44	0.00
608.60	131.07
608.75	11.70
608.91	93.62
609.06	9.36
609.22	79.58
609.37	88.94
609.53	56.17
609.68	0.00
609.84	65.54
609.99	44.47
610.15	74.90
610.30	79.58
610.46	28.09
610.61	39.79
610.76	110.01
610.92	7.02
611.07	14.04
611.23	72.56
611.38	74.90
611.54	25.75
611.69	23.41
611.84	42.13
612.00	4.68
612.15	56.17
612.31	39.79
612.46	32.77
612.62	25.75
612.77	81.92
612.92	0.00
613.08	112.35
613.23	51.49
613.39	0.00
613.54	14.04
613.69	0.00
613.85	23.41
614.00	23.41
614.15	0.00
614.31	88.94
614.46	7.02
614.62	74.90
614.77	16.38
614.92	30.43
615.08	53.83
615.23	39.79
615.38	39.79
615.54	32.77
615.69	42.13
615.84	42.13
616.00	60.85
616.15	110.01
616.30	91.28
616.46	2.34
616.61	58.51
616.76	39.79
616.92	63.19
617.07	32.77
617.22	37.45
617.37	60.85
617.53	0.00
617.68	46.81
617.83	46.81
617.99	84.26
618.14	28.09
618.29	0.00
618.45	102.98
618.60	21.06
618.75	49.15
618.90	53.83
619.06	39.79
619.21	7.02
619.36	65.54
619.51	37.45
619.67	30.43
619.82	0.00
619.97	72.56
620.12	42.13
620.28	58.51
620.43	18.72
620.58	65.54
620.73	105.32
620.89	74.90
621.04	9.36
621.19	79.58
621.34	46.81
621.49	81.92
621.65	67.88
621.80	49.15
621.95	56.17
622.10	51.49
622.25	51.49
622.41	46.81
622.56	4.68
622.71	30.43
622.86	23.41
623.01	49.15
623.16	32.77
623.32	53.83
623.47	14.04
623.62	16.38
623.77	67.88
623.92	77.24
624.07	0.00
624.23	4.68
624.38	88.94
624.53	65.54
624.68	0.00
624.83	91.28
624.98	18.72
625.13	30.43
625.29	0.00
625.44	30.43
625.59	56.17
625.74	100.64
625.89	9.36
626.04	42.13
626.19	18.72
626.34	23.41
626.49	35.11
626.65	51.49
626.80	60.85
626.95	0.00
627.10	91.28
627.25	46.81
627.40	0.00
627.55	0.00
627.70	56.17
627.85	77.24
628.00	30.43
628.15	16.38
628.30	11.70
628.45	56.17
628.60	51.49
628.76	21.06
628.91	0.00
629.06	4.68
629.21	0.00
629.36	70.22
629.51	21.06
629.66	72.56
629.81	42.13
629.96	4.68
630.11	0.00
630.26	49.15
630.41	58.51
630.56	21.06
630.71	4.68
630.86	2.34
631.01	32.77
631.16	49.15
631.31	28.09
631.46	7.02
631.61	51.49
631.76	16.38
631.91	35.11
632.06	65.54
632.21	58.51
632.36	53.83
632.51	67.88
632.66	11.70
632.81	107.66
632.96	0.00
633.10	11.70
633.25	14.04
633.40	79.58
633.55	152.13
633.70	7.02
633.85	16.38
634.00	60.85
634.15	0.00
634.30	0.00
634.45	81.92
634.60	74.90
634.75	25.75
634.90	18.72
635.05	51.49
635.19	74.90
635.34	51.49
635.49	63.19
635.64	51.49
635.79	58.51
635.94	86.60
636.09	44.47
636.24	0.00
636.39	60.85
636.53	114.69
636.68	28.09
636.83	0.00
636.98	60.85
637.13	86.60
637.28	25.75
637.43	65.54
637.57	18.72
637.72	16.38
637.87	0.00
638.02	56.17
638.17	35.11
638.32	53.83
638.46	32.77
638.61	23.41
638.76	37.45
638.91	0.00
639.06	79.58
639.20	91.28
639.35	70.22
639.50	0.00
639.65	25.75
639.80	4.68
639.94	56.17
640.09	72.56
640.24	72.56
640.39	67.88
640.54	25.75
640.68	0.00
640.83	67.88
640.98	93.62
641.13	28.09
641.27	21.06
641.42	39.79
641.57	11.70
641.72	58.51
641.86	119.37
642.01	72.56
642.16	0.00
642.31	16.38
642.45	35.11
642.60	49.15
642.75	42.13
642.90	21.06
643.04	18.72
643.19	70.22
643.34	25.75
643.48	37.45
643.63	56.17
643.78	0.00
643.93	21.06
644.07	0.00
644.22	44.47
644.37	11.70
644.51	16.38
644.66	46.81
644.81	0.00
644.95	0.00
645.10	0.00
645.25	0.00
645.39	2.34
645.54	72.56
645.69	32.77
645.83	53.83
645.98	18.72
646.13	42.13
646.27	7.02
646.42	53.83
646.57	4.68
646.71	23.41
646.86	0.00
647.00	0.00
647.15	56.17
647.30	39.79
647.44	56.17
647.59	102.98
647.74	49.15
647.88	0.00
648.03	39.79
648.17	58.51
648.32	49.15
648.47	0.00
648.61	102.98
648.76	49.15
648.90	72.56
649.05	16.38
649.20	44.47
649.34	2.34
649.49	0.00
649.63	51.49
649.78	79.58
649.92	39.79
650.07	84.26
650.21	42.13
650.36	18.72
650.51	0.00
650.65	0.00
650.80	14.04
650.94	0.00
651.09	18.72
651.23	23.41
651.38	9.36
651.52	0.00
651.67	30.43
651.81	0.00
651.96	60.85
652.10	46.81
652.25	44.47
652.39	0.00
652.54	4.68
652.68	0.00
652.83	30.43
652.97	39.79
653.12	65.54
653.26	60.85
653.41	0.00
653.55	53.83
653.70	72.56
653.84	0.00
653.99	32.77
654.13	46.81
654.27	0.00
654.42	0.00
654.56	49.15
654.71	37.45
654.85	21.06
655.00	14.04
655.14	51.49
655.29	46.81
655.43	32.77
655.57	0.00
655.72	11.70
655.86	0.00
656.01	81.92
656.15	4.68
656.30	30.43
656.44	0.00
656.58	0.00
656.73	28.09
656.87	0.00
657.01	91.28
657.16	28.09
657.30	0.00
657.45	95.96
657.59	0.00
657.73	46.81
657.88	44.47
658.02	0.00
658.16	60.85
658.31	0.00
658.45	84.26
658.60	30.43
658.74	28.09
658.88	2.34
659.03	35.11
659.17	49.15
659.31	28.09
659.46	51.49
659.60	9.36
659.74	46.81
659.89	32.77
660.03	30.43
660.17	42.13
660.32	25.75
660.46	9.36
660.60	37.45
660.74	88.94
660.89	30.43
661.03	18.72
661.17	25.75
661.32	23.41
661.46	35.11
661.60	51.49
661.74	56.17
661.89	51.49
662.03	0.00
662.17	39.79
662.31	0.00
662.46	0.00
662.60	0.00
662.74	18.72
662.88	28.09
663.03	39.79
663.17	88.94
663.31	4.68
663.45	14.04
663.60	25.75
663.74	11.70
663.88	0.00
664.02	67.88
664.17	63.19
664.31	37.45
664.45	23.41
664.59	0.00
664.73	9.36
664.88	0.00
665.02	0.00
665.16	53.83
665.30	14.04
665.44	9.36
665.59	18.72
665.73	23.41
665.87	18.72
666.01	84.26
666.15	16.38
666.29	0.00
666.44	18.72
666.58	56.17
666.72	95.96
666.86	16.38
667.00	32.77
667.14	88.94
667.28	81.92
667.43	14.04
667.57	42.13
667.71	51.49
667.85	23.41
667.99	49.15
668.13	32.77
668.27	53.83
668.41	58.51
668.56	39.79
668.70	42.13
668.84	0.00
668.98	70.22
669.12	0.00
669.26	21.06
669.40	23.41
669.54	51.49
669.68	56.17
669.82	0.00
669.96	25.75
670.10	60.85
670.25	72.56
670.39	32.77
670.53	7.02
670.67	49.15
670.81	30.43
670.95	11.70
671.09	14.04
671.23	14.04
671.37	46.81
671.51	42.13
671.65	79.58
671.79	88.94
671.93	91.28
672.07	65.54
672.21	42.13
672.35	16.38
672.49	0.00
672.63	2.34
672.77	67.88
672.91	0.00
673.05	42.13
673.19	105.32
673.33	0.00
673.47	121.71
673.61	65.54
673.75	28.09
673.89	67.88
674.03	0.00
674.17	42.13
674.31	2.34
674.45	0.00
674.59	49.15
674.73	21.06
674.87	28.09
675.01	23.41
675.15	0.00
675.29	7.02
675.43	30.43
675.56	0.00
675.70	63.19
675.84	25.75
675.98	65.54
676.12	74.90
676.26	9.36
676.40	0.00
676.54	58.51
676.68	21.06
676.82	51.49
676.96	42.13
677.10	65.54
677.23	70.22
677.37	4.68
677.51	0.00
677.65	9.36
677.79	16.38
677.93	65.54
678.07	4.68
678.21	39.79
678.34	0.00
678.48	21.06
678.62	74.90
678.76	32.77
678.90	30.43
679.04	114.69
679.18	0.00
679.31	2.34
679.45	86.60
679.59	25.75
679.73	25.75
679.87	93.62
680.00	58.51
680.14	51.49
680.28	95.96
680.42	32.77
680.56	11.70
680.70	4.68
680.83	88.94
680.97	7.02
681.11	42.13
681.25	23.41
681.39	4.68
681.52	44.47
681.66	32.77
681.80	98.30
681.94	65.54
682.07	44.47
682.21	67.88
682.35	0.00
682.49	0.00
682.62	25.75
682.76	23.41
682.90	0.00
683.04	46.81
683.17	0.00
683.31	32.77
683.45	0.00
683.59	25.75
683.72	32.77
683.86	53.83
684.00	0.00
684.13	21.06
684.27	14.04
684.41	28.09
684.55	32.77
684.68	86.60
684.82	0.00
684.96	14.04
685.09	11.70
685.23	60.85
685.37	18.72
685.50	0.00
685.64	44.47
685.78	23.41
685.91	53.83
686.05	0.00
686.19	21.06
686.32	32.77
686.46	0.00
686.60	81.92
686.73	53.83
686.87	37.45
687.01	23.41
687.14	18.72
687.28	0.00
687.42	51.49
687.55	16.38
687.69	49.15
687.82	44.47
687.96	7.02
688.10	60.85
688.23	86.60
688.37	112.35
688.50	37.45
688.64	102.98
688.78	23.41
688.91	0.00
689.05	65.54
689.18	72.56
689.32	51.49
689.46	21.06
689.59	0.00
689.73	35.11
689.86	23.41
690.00	0.00
690.13	77.24
690.27	9.36
690.41	42.13
690.54	0.00
690.68	11.70
690.81	35.11
690.95	56.17
691.08	0.00
691.22	35.11
691.35	74.90
691.49	16.38
691.62	21.06
691.76	56.17
691.89	81.92
692.03	0.00
692.16	21.06
692.30	0.00
692.43	51.49
692.57	72.56
692.70	30.43
692.84	46.81
692.97	0.00
693.11	56.17
693.24	16.38
693.38	79.58
693.51	67.88
693.65	84.26
693.78	46.81
693.92	0.00
694.05	58.51
694.19	63.19
694.32	35.11
694.45	0.00
694.59	72.56
694.72	32.77
694.86	74.90
694.99	46.81
695.13	18.72
695.26	60.85
695.39	28.09
695.53	56.17
695.66	0.00
695.80	0.00
695.93	84.26
696.07	23.41
696.20	0.00
696.33	58.51
696.47	42.13
696.60	23.41
696.73	2.34
696.87	0.00
697.00	11.70
697.14	0.00
697.27	18.72
697.40	7.02
697.54	37.45
697.67	2.34
697.80	28.09
697.94	67.88
698.07	32.77
698.21	0.00
698.34	28.09
698.47	30.43
698.61	21.06
698.74	0.00
698.87	56.17
699.01	0.00
699.14	21.06
699.27	23.41
699.40	88.94
699.54	39.79
699.67	39.79
699.80	84.26
699.94	65.54
700.07	0.00
700.20	88.94
700.34	21.06
700.47	79.58
700.60	23.41
700.73	114.69
700.87	0.00
701.00	0.00
701.13	42.13
701.26	0.00
701.40	35.11
701.53	91.28
701.66	25.75
701.79	28.09
701.93	93.62
702.06	51.49
702.19	74.90
702.32	72.56
702.46	98.30
702.59	35.11
702.72	28.09
702.85	0.00
702.99	28.09
703.12	46.81
703.25	60.85
703.38	35.11
703.51	0.00
703.65	58.51
703.78	16.38
703.91	44.47
704.04	18.72
704.17	25.75
704.31	0.00
704.44	0.00
704.57	25.75
704.70	11.70
704.83	126.39
704.96	42.13
705.10	0.00
705.23	42.13
>>>>>End Processed Spectral Data<<<<<
