SpectraSuite Data File
++++++++++++++++++++++++++++++++++++
Date: Fri Oct 04 12:13:40 GMT-05:00 2013
User: price-jones
Dark Spectrum Present: No
Reference Spectrum Present: No
Number of Sampled Component Spectra: 1
Spectrometers: USB2+H05261
Integration Time (usec): 10000 (USB2+H05261)
Spectra Averaged: 1 (USB2+H05261)
Boxcar Smoothing: 0 (USB2+H05261)
Correct for Electrical Dark: No (USB2+H05261)
Strobe/Lamp Enabled: No (USB2+H05261)
Correct for Detector Non-linearity: No (USB2+H05261)
Correct for Stray Light: No (USB2+H05261)
Number of Pixels in Processed Spectrum: 2048
>>>>>Begin Processed Spectral Data<<<<<
365.73	25.75
365.92	25.75
366.12	25.75
366.32	0.00
366.52	0.00
366.72	0.00
366.91	0.00
367.11	0.00
367.31	0.00
367.51	0.00
367.70	0.00
367.90	0.00
368.10	0.00
368.30	0.00
368.49	0.00
368.69	0.00
368.89	0.00
369.09	0.00
369.28	0.00
369.48	0.00
369.68	0.00
369.87	0.00
370.07	0.00
370.27	0.00
370.47	0.00
370.66	0.00
370.86	0.00
371.06	0.00
371.25	32.77
371.45	23.41
371.65	0.00
371.84	14.04
372.04	0.00
372.24	0.00
372.44	14.04
372.63	42.13
372.83	32.77
373.03	21.06
373.22	0.00
373.42	18.72
373.62	0.00
373.81	35.11
374.01	11.70
374.21	91.28
374.40	35.11
374.60	51.49
374.79	25.75
374.99	39.79
375.19	11.70
375.38	44.47
375.58	35.11
375.78	67.88
375.97	60.85
376.17	35.11
376.37	0.00
376.56	7.02
376.76	14.04
376.95	56.17
377.15	74.90
377.35	53.83
377.54	0.00
377.74	35.11
377.93	88.94
378.13	37.45
378.33	0.00
378.52	46.81
378.72	11.70
378.91	0.00
379.11	32.77
379.31	46.81
379.50	21.06
379.70	0.00
379.89	0.00
380.09	0.00
380.28	0.00
380.48	0.00
380.68	49.15
380.87	35.11
381.07	63.19
381.26	102.98
381.46	51.49
381.65	0.00
381.85	21.06
382.04	28.09
382.24	0.00
382.43	81.92
382.63	7.02
382.83	32.77
383.02	46.81
383.22	28.09
383.41	37.45
383.61	53.83
383.80	32.77
384.00	9.36
384.19	0.00
384.39	0.00
384.58	2.34
384.78	49.15
384.97	0.00
385.17	30.43
385.36	30.43
385.56	2.34
385.75	0.00
385.95	72.56
386.14	35.11
386.34	0.00
386.53	0.00
386.72	67.88
386.92	35.11
387.11	39.79
387.31	0.00
387.50	70.22
387.70	0.00
387.89	44.47
388.09	0.00
388.28	32.77
388.48	32.77
388.67	11.70
388.86	0.00
389.06	32.77
389.25	35.11
389.45	0.00
389.64	0.00
389.84	74.90
390.03	70.22
390.22	28.09
390.42	0.00
390.61	0.00
390.81	0.00
391.00	0.00
391.19	18.72
391.39	0.00
391.58	42.13
391.78	0.00
391.97	58.51
392.16	63.19
392.36	0.00
392.55	0.00
392.75	0.00
392.94	16.38
393.13	28.09
393.33	35.11
393.52	14.04
393.71	28.09
393.91	14.04
394.10	49.15
394.29	9.36
394.49	79.58
394.68	28.09
394.88	74.90
395.07	0.00
395.26	11.70
395.46	32.77
395.65	0.00
395.84	0.00
396.04	37.45
396.23	28.09
396.42	0.00
396.62	46.81
396.81	7.02
397.00	0.00
397.19	0.00
397.39	53.83
397.58	35.11
397.77	23.41
397.97	0.00
398.16	65.54
398.35	32.77
398.55	28.09
398.74	39.79
398.93	9.36
399.12	67.88
399.32	95.96
399.51	0.00
399.70	14.04
399.90	30.43
400.09	21.06
400.28	44.47
400.47	35.11
400.67	30.43
400.86	7.02
401.05	44.47
401.24	18.72
401.44	51.49
401.63	58.51
401.82	0.00
402.01	2.34
402.21	42.13
402.40	9.36
402.59	23.41
402.78	35.11
402.97	98.30
403.17	37.45
403.36	28.09
403.55	7.02
403.74	9.36
403.93	37.45
404.13	11.70
404.32	16.38
404.51	9.36
404.70	58.51
404.89	49.15
405.09	49.15
405.28	65.54
405.47	18.72
405.66	16.38
405.85	16.38
406.05	60.85
406.24	16.38
406.43	4.68
406.62	46.81
406.81	4.68
407.00	30.43
407.20	63.19
407.39	0.00
407.58	23.41
407.77	39.79
407.96	21.06
408.15	0.00
408.34	16.38
408.54	7.02
408.73	67.88
408.92	65.54
409.11	23.41
409.30	56.17
409.49	79.58
409.68	63.19
409.87	0.00
410.07	9.36
410.26	21.06
410.45	0.00
410.64	30.43
410.83	70.22
411.02	0.00
411.21	51.49
411.40	58.51
411.59	60.85
411.78	70.22
411.98	53.83
412.17	32.77
412.36	95.96
412.55	11.70
412.74	51.49
412.93	53.83
413.12	11.70
413.31	37.45
413.50	23.41
413.69	23.41
413.88	70.22
414.07	25.75
414.26	105.32
414.45	35.11
414.64	37.45
414.83	46.81
415.02	30.43
415.22	84.26
415.41	84.26
415.60	11.70
415.79	30.43
415.98	35.11
416.17	0.00
416.36	9.36
416.55	0.00
416.74	37.45
416.93	70.22
417.12	56.17
417.31	7.02
417.50	51.49
417.69	65.54
417.88	58.51
418.07	79.58
418.26	58.51
418.45	58.51
418.64	70.22
418.83	0.00
419.02	0.00
419.21	102.98
419.39	42.13
419.58	35.11
419.77	84.26
419.96	25.75
420.15	25.75
420.34	46.81
420.53	7.02
420.72	56.17
420.91	98.30
421.10	0.00
421.29	0.00
421.48	112.35
421.67	53.83
421.86	21.06
422.05	0.00
422.24	4.68
422.43	0.00
422.61	4.68
422.80	0.00
422.99	63.19
423.18	0.00
423.37	14.04
423.56	67.88
423.75	18.72
423.94	7.02
424.13	53.83
424.32	93.62
424.50	28.09
424.69	0.00
424.88	23.41
425.07	131.07
425.26	65.54
425.45	0.00
425.64	30.43
425.83	72.56
426.01	46.81
426.20	112.35
426.39	42.13
426.58	32.77
426.77	18.72
426.96	11.70
427.15	74.90
427.33	112.35
427.52	25.75
427.71	81.92
427.90	81.92
428.09	72.56
428.28	60.85
428.46	0.00
428.65	4.68
428.84	51.49
429.03	9.36
429.22	70.22
429.40	16.38
429.59	0.00
429.78	72.56
429.97	0.00
430.16	91.28
430.34	0.00
430.53	67.88
430.72	9.36
430.91	42.13
431.10	9.36
431.28	88.94
431.47	30.43
431.66	18.72
431.85	18.72
432.03	49.15
432.22	63.19
432.41	58.51
432.60	58.51
432.79	2.34
432.97	84.26
433.16	39.79
433.35	51.49
433.54	149.79
433.72	0.00
433.91	124.05
434.10	46.81
434.28	0.00
434.47	30.43
434.66	88.94
434.85	77.24
435.03	74.90
435.22	105.32
435.41	53.83
435.59	32.77
435.78	72.56
435.97	56.17
436.16	77.24
436.34	35.11
436.53	16.38
436.72	58.51
436.90	32.77
437.09	91.28
437.28	91.28
437.46	32.77
437.65	23.41
437.84	79.58
438.02	0.00
438.21	4.68
438.40	9.36
438.58	30.43
438.77	0.00
438.96	0.00
439.14	7.02
439.33	114.69
439.52	79.58
439.70	49.15
439.89	56.17
440.08	16.38
440.26	58.51
440.45	53.83
440.63	77.24
440.82	39.79
441.01	0.00
441.19	67.88
441.38	70.22
441.57	49.15
441.75	0.00
441.94	86.60
442.12	30.43
442.31	86.60
442.50	131.07
442.68	112.35
442.87	44.47
443.05	114.69
443.24	44.47
443.43	63.19
443.61	100.64
443.80	0.00
443.98	88.94
444.17	100.64
444.35	28.09
444.54	77.24
444.73	56.17
444.91	37.45
445.10	0.00
445.28	0.00
445.47	65.54
445.65	70.22
445.84	84.26
446.02	9.36
446.21	30.43
446.39	16.38
446.58	51.49
446.77	107.66
446.95	60.85
447.14	79.58
447.32	70.22
447.51	84.26
447.69	77.24
447.88	21.06
448.06	140.43
448.25	88.94
448.43	107.66
448.62	49.15
448.80	35.11
448.99	28.09
449.17	58.51
449.36	14.04
449.54	105.32
449.73	39.79
449.91	7.02
450.10	35.11
450.28	23.41
450.46	0.00
450.65	0.00
450.83	93.62
451.02	32.77
451.20	77.24
451.39	72.56
451.57	65.54
451.76	67.88
451.94	63.19
452.13	67.88
452.31	63.19
452.49	53.83
452.68	67.88
452.86	35.11
453.05	9.36
453.23	35.11
453.42	102.98
453.60	67.88
453.78	81.92
453.97	0.00
454.15	18.72
454.34	72.56
454.52	105.32
454.70	70.22
454.89	30.43
455.07	11.70
455.26	18.72
455.44	102.98
455.62	58.51
455.81	0.00
455.99	39.79
456.17	58.51
456.36	25.75
456.54	138.09
456.73	67.88
456.91	0.00
457.09	2.34
457.28	102.98
457.46	135.75
457.64	51.49
457.83	42.13
458.01	112.35
458.19	28.09
458.38	2.34
458.56	51.49
458.74	30.43
458.93	32.77
459.11	100.64
459.29	32.77
459.48	98.30
459.66	0.00
459.84	4.68
460.03	14.04
460.21	102.98
460.39	79.58
460.57	79.58
460.76	9.36
460.94	23.41
461.12	159.16
461.31	74.90
461.49	11.70
461.67	79.58
461.85	65.54
462.04	0.00
462.22	98.30
462.40	77.24
462.59	107.66
462.77	30.43
462.95	86.60
463.13	23.41
463.32	23.41
463.50	91.28
463.68	100.64
463.86	32.77
464.05	84.26
464.23	91.28
464.41	84.26
464.59	117.03
464.78	156.82
464.96	65.54
465.14	67.88
465.32	93.62
465.50	79.58
465.69	53.83
465.87	60.85
466.05	16.38
466.23	30.43
466.41	37.45
466.60	91.28
466.78	11.70
466.96	74.90
467.14	46.81
467.32	46.81
467.51	79.58
467.69	88.94
467.87	11.70
468.05	51.49
468.23	88.94
468.41	37.45
468.60	21.06
468.78	65.54
468.96	21.06
469.14	107.66
469.32	58.51
469.50	28.09
469.69	126.39
469.87	18.72
470.05	72.56
470.23	0.00
470.41	0.00
470.59	102.98
470.77	51.49
470.95	37.45
471.14	70.22
471.32	0.00
471.50	86.60
471.68	2.34
471.86	67.88
472.04	56.17
472.22	107.66
472.40	53.83
472.58	79.58
472.77	98.30
472.95	16.38
473.13	39.79
473.31	0.00
473.49	30.43
473.67	60.85
473.85	81.92
474.03	7.02
474.21	77.24
474.39	42.13
474.57	72.56
474.75	9.36
474.93	44.47
475.12	37.45
475.30	86.60
475.48	72.56
475.66	28.09
475.84	79.58
476.02	23.41
476.20	58.51
476.38	32.77
476.56	112.35
476.74	95.96
476.92	60.85
477.10	46.81
477.28	25.75
477.46	56.17
477.64	79.58
477.82	88.94
478.00	0.00
478.18	63.19
478.36	30.43
478.54	16.38
478.72	74.90
478.90	49.15
479.08	79.58
479.26	23.41
479.44	0.00
479.62	88.94
479.80	114.69
479.98	56.17
480.16	84.26
480.34	58.51
480.52	18.72
480.70	74.90
480.88	98.30
481.06	74.90
481.24	46.81
481.41	23.41
481.59	72.56
481.77	14.04
481.95	44.47
482.13	25.75
482.31	4.68
482.49	95.96
482.67	0.00
482.85	93.62
483.03	119.37
483.21	161.50
483.39	98.30
483.57	25.75
483.74	154.48
483.92	102.98
484.10	84.26
484.28	39.79
484.46	63.19
484.64	86.60
484.82	79.58
485.00	95.96
485.18	88.94
485.35	30.43
485.53	65.54
485.71	102.98
485.89	98.30
486.07	138.09
486.25	72.56
486.43	105.32
486.61	86.60
486.78	7.02
486.96	9.36
487.14	51.49
487.32	77.24
487.50	100.64
487.68	86.60
487.85	46.81
488.03	70.22
488.21	49.15
488.39	49.15
488.57	95.96
488.75	30.43
488.92	72.56
489.10	110.01
489.28	74.90
489.46	11.70
489.64	18.72
489.81	23.41
489.99	105.32
490.17	98.30
490.35	46.81
490.53	112.35
490.70	63.19
490.88	23.41
491.06	49.15
491.24	147.45
491.41	30.43
491.59	11.70
491.77	21.06
491.95	93.62
492.13	84.26
492.30	117.03
492.48	21.06
492.66	67.88
492.84	42.13
493.01	93.62
493.19	88.94
493.37	65.54
493.54	18.72
493.72	21.06
493.90	0.00
494.08	37.45
494.25	56.17
494.43	95.96
494.61	112.35
494.79	95.96
494.96	11.70
495.14	65.54
495.32	44.47
495.49	149.79
495.67	93.62
495.85	100.64
496.02	88.94
496.20	0.00
496.38	93.62
496.55	0.00
496.73	70.22
496.91	91.28
497.09	14.04
497.26	105.32
497.44	65.54
497.62	14.04
497.79	25.75
497.97	74.90
498.14	107.66
498.32	142.77
498.50	84.26
498.67	63.19
498.85	63.19
499.03	65.54
499.20	138.09
499.38	126.39
499.56	32.77
499.73	23.41
499.91	95.96
500.08	100.64
500.26	138.09
500.44	91.28
500.61	65.54
500.79	107.66
500.97	70.22
501.14	93.62
501.32	138.09
501.49	74.90
501.67	131.07
501.84	88.94
502.02	159.16
502.20	88.94
502.37	110.01
502.55	112.35
502.72	79.58
502.90	42.13
503.07	91.28
503.25	37.45
503.43	56.17
503.60	91.28
503.78	110.01
503.95	95.96
504.13	98.30
504.30	98.30
504.48	2.34
504.65	107.66
504.83	39.79
505.01	84.26
505.18	39.79
505.36	107.66
505.53	117.03
505.71	70.22
505.88	110.01
506.06	53.83
506.23	65.54
506.41	46.81
506.58	149.79
506.76	84.26
506.93	39.79
507.11	65.54
507.28	100.64
507.46	28.09
507.63	74.90
507.81	119.37
507.98	93.62
508.16	84.26
508.33	135.75
508.50	70.22
508.68	105.32
508.85	124.05
509.03	117.03
509.20	112.35
509.38	46.81
509.55	140.43
509.73	98.30
509.90	100.64
510.08	105.32
510.25	88.94
510.42	25.75
510.60	135.75
510.77	98.30
510.95	88.94
511.12	91.28
511.30	163.84
511.47	72.56
511.64	110.01
511.82	107.66
511.99	159.16
512.17	79.58
512.34	51.49
512.51	9.36
512.69	124.05
512.86	98.30
513.04	145.11
513.21	58.51
513.38	91.28
513.56	163.84
513.73	81.92
513.90	107.66
514.08	42.13
514.25	60.85
514.43	124.05
514.60	98.30
514.77	39.79
514.95	37.45
515.12	98.30
515.29	30.43
515.47	60.85
515.64	119.37
515.81	67.88
515.99	39.79
516.16	105.32
516.33	86.60
516.51	107.66
516.68	39.79
516.85	131.07
517.03	79.58
517.20	56.17
517.37	70.22
517.54	107.66
517.72	88.94
517.89	56.17
518.06	39.79
518.24	67.88
518.41	100.64
518.58	74.90
518.75	114.69
518.93	198.95
519.10	93.62
519.27	95.96
519.45	70.22
519.62	91.28
519.79	79.58
519.96	98.30
520.14	25.75
520.31	88.94
520.48	53.83
520.65	145.11
520.83	131.07
521.00	46.81
521.17	140.43
521.34	98.30
521.52	98.30
521.69	30.43
521.86	100.64
522.03	65.54
522.20	133.41
522.38	67.88
522.55	131.07
522.72	88.94
522.89	114.69
523.07	77.24
523.24	67.88
523.41	100.64
523.58	102.98
523.75	77.24
523.92	133.41
524.10	49.15
524.27	119.37
524.44	91.28
524.61	121.71
524.78	58.51
524.96	114.69
525.13	117.03
525.30	49.15
525.47	58.51
525.64	140.43
525.81	159.16
525.98	95.96
526.16	2.34
526.33	72.56
526.50	56.17
526.67	65.54
526.84	93.62
527.01	84.26
527.18	25.75
527.36	95.96
527.53	37.45
527.70	35.11
527.87	44.47
528.04	86.60
528.21	119.37
528.38	98.30
528.55	105.32
528.72	124.05
528.89	91.28
529.07	44.47
529.24	32.77
529.41	107.66
529.58	81.92
529.75	46.81
529.92	58.51
530.09	56.17
530.26	58.51
530.43	46.81
530.60	142.77
530.77	51.49
530.94	58.51
531.11	72.56
531.28	147.45
531.46	91.28
531.63	88.94
531.80	88.94
531.97	35.11
532.14	67.88
532.31	65.54
532.48	119.37
532.65	79.58
532.82	112.35
532.99	53.83
533.16	51.49
533.33	140.43
533.50	35.11
533.67	133.41
533.84	119.37
534.01	77.24
534.18	98.30
534.35	124.05
534.52	91.28
534.69	110.01
534.86	58.51
535.03	91.28
535.20	98.30
535.37	102.98
535.54	84.26
535.71	88.94
535.88	74.90
536.05	30.43
536.22	114.69
536.38	180.22
536.55	46.81
536.72	98.30
536.89	14.04
537.06	49.15
537.23	133.41
537.40	152.13
537.57	93.62
537.74	133.41
537.91	86.60
538.08	65.54
538.25	121.71
538.42	44.47
538.59	100.64
538.75	124.05
538.92	114.69
539.09	112.35
539.26	86.60
539.43	72.56
539.60	107.66
539.77	88.94
539.94	110.01
540.11	63.19
540.28	117.03
540.44	81.92
540.61	32.77
540.78	72.56
540.95	77.24
541.12	56.17
541.29	70.22
541.46	98.30
541.62	42.13
541.79	72.56
541.96	72.56
542.13	131.07
542.30	105.32
542.47	91.28
542.63	100.64
542.80	131.07
542.97	124.05
543.14	81.92
543.31	65.54
543.48	128.73
543.64	128.73
543.81	49.15
543.98	145.11
544.15	117.03
544.32	126.39
544.48	74.90
544.65	65.54
544.82	77.24
544.99	91.28
545.16	93.62
545.32	107.66
545.49	91.28
545.66	65.54
545.83	0.00
546.00	117.03
546.16	67.88
546.33	65.54
546.50	107.66
546.67	81.92
546.83	95.96
547.00	102.98
547.17	86.60
547.34	28.09
547.50	95.96
547.67	67.88
547.84	135.75
548.00	107.66
548.17	81.92
548.34	25.75
548.51	138.09
548.67	86.60
548.84	88.94
549.01	133.41
549.18	37.45
549.34	112.35
549.51	63.19
549.68	107.66
549.84	105.32
550.01	86.60
550.18	30.43
550.34	67.88
550.51	14.04
550.68	74.90
550.84	74.90
551.01	65.54
551.18	72.56
551.34	110.01
551.51	63.19
551.68	114.69
551.84	39.79
552.01	65.54
552.18	49.15
552.34	46.81
552.51	114.69
552.68	86.60
552.84	117.03
553.01	49.15
553.18	70.22
553.34	93.62
553.51	138.09
553.67	91.28
553.84	77.24
554.01	98.30
554.17	170.86
554.34	51.49
554.51	114.69
554.67	93.62
554.84	37.45
555.00	124.05
555.17	135.75
555.33	81.92
555.50	88.94
555.67	25.75
555.83	117.03
556.00	81.92
556.16	42.13
556.33	65.54
556.50	74.90
556.66	42.13
556.83	44.47
556.99	84.26
557.16	114.69
557.32	91.28
557.49	110.01
557.65	39.79
557.82	42.13
557.98	51.49
558.15	42.13
558.32	88.94
558.48	107.66
558.65	95.96
558.81	117.03
558.98	138.09
559.14	173.20
559.31	93.62
559.47	175.54
559.64	39.79
559.80	51.49
559.97	100.64
560.13	4.68
560.30	53.83
560.46	37.45
560.63	51.49
560.79	72.56
560.96	65.54
561.12	117.03
561.29	77.24
561.45	79.58
561.61	93.62
561.78	117.03
561.94	14.04
562.11	161.50
562.27	58.51
562.44	124.05
562.60	107.66
562.77	161.50
562.93	168.52
563.10	0.00
563.26	4.68
563.42	168.52
563.59	93.62
563.75	124.05
563.92	110.01
564.08	114.69
564.24	117.03
564.41	86.60
564.57	51.49
564.74	88.94
564.90	84.26
565.07	88.94
565.23	133.41
565.39	131.07
565.56	91.28
565.72	53.83
565.88	67.88
566.05	91.28
566.21	72.56
566.38	91.28
566.54	51.49
566.70	9.36
566.87	67.88
567.03	128.73
567.19	77.24
567.36	142.77
567.52	67.88
567.68	0.00
567.85	86.60
568.01	25.75
568.17	91.28
568.34	53.83
568.50	98.30
568.66	46.81
568.83	79.58
568.99	117.03
569.15	107.66
569.32	107.66
569.48	88.94
569.64	53.83
569.81	2.34
569.97	72.56
570.13	128.73
570.30	142.77
570.46	114.69
570.62	93.62
570.78	28.09
570.95	23.41
571.11	56.17
571.27	110.01
571.43	93.62
571.60	86.60
571.76	18.72
571.92	91.28
572.09	102.98
572.25	60.85
572.41	86.60
572.57	119.37
572.74	65.54
572.90	56.17
573.06	0.00
573.22	51.49
573.38	86.60
573.55	74.90
573.71	7.02
573.87	32.77
574.03	56.17
574.20	70.22
574.36	2.34
574.52	114.69
574.68	79.58
574.84	142.77
575.01	56.17
575.17	32.77
575.33	42.13
575.49	79.58
575.65	49.15
575.82	79.58
575.98	0.00
576.14	86.60
576.30	126.39
576.46	35.11
576.62	93.62
576.79	23.41
576.95	117.03
577.11	53.83
577.27	149.79
577.43	42.13
577.59	70.22
577.75	72.56
577.92	74.90
578.08	32.77
578.24	60.85
578.40	65.54
578.56	84.26
578.72	93.62
578.88	49.15
579.04	98.30
579.21	79.58
579.37	105.32
579.53	60.85
579.69	77.24
579.85	114.69
580.01	74.90
580.17	32.77
580.33	79.58
580.49	152.13
580.65	79.58
580.82	72.56
580.98	98.30
581.14	145.11
581.30	81.92
581.46	51.49
581.62	184.90
581.78	72.56
581.94	65.54
582.10	70.22
582.26	79.58
582.42	81.92
582.58	72.56
582.74	79.58
582.90	11.70
583.06	72.56
583.22	112.35
583.38	4.68
583.54	77.24
583.70	70.22
583.86	63.19
584.02	63.19
584.18	93.62
584.34	58.51
584.50	149.79
584.66	98.30
584.82	79.58
584.98	79.58
585.14	39.79
585.30	53.83
585.46	9.36
585.62	9.36
585.78	58.51
585.94	63.19
586.10	91.28
586.26	121.71
586.42	32.77
586.58	124.05
586.74	72.56
586.90	102.98
587.06	39.79
587.22	53.83
587.38	105.32
587.54	88.94
587.70	81.92
587.86	58.51
588.02	56.17
588.18	117.03
588.34	93.62
588.49	49.15
588.65	49.15
588.81	105.32
588.97	46.81
589.13	0.00
589.29	46.81
589.45	49.15
589.61	67.88
589.77	84.26
589.93	121.71
590.08	81.92
590.24	42.13
590.40	42.13
590.56	79.58
590.72	58.51
590.88	14.04
591.04	46.81
591.20	119.37
591.35	35.11
591.51	60.85
591.67	37.45
591.83	56.17
591.99	58.51
592.15	58.51
592.31	2.34
592.46	51.49
592.62	81.92
592.78	21.06
592.94	25.75
593.10	44.47
593.26	63.19
593.41	110.01
593.57	114.69
593.73	28.09
593.89	121.71
594.05	65.54
594.20	67.88
594.36	72.56
594.52	35.11
594.68	25.75
594.84	102.98
594.99	18.72
595.15	117.03
595.31	37.45
595.47	0.00
595.62	23.41
595.78	67.88
595.94	86.60
596.10	51.49
596.25	65.54
596.41	77.24
596.57	102.98
596.73	23.41
596.88	112.35
597.04	0.00
597.20	107.66
597.36	72.56
597.51	74.90
597.67	32.77
597.83	14.04
597.99	56.17
598.14	93.62
598.30	128.73
598.46	53.83
598.61	60.85
598.77	51.49
598.93	88.94
599.09	93.62
599.24	21.06
599.40	70.22
599.56	74.90
599.71	65.54
599.87	124.05
600.03	56.17
600.18	107.66
600.34	91.28
600.50	140.43
600.65	91.28
600.81	102.98
600.97	107.66
601.12	93.62
601.28	60.85
601.44	93.62
601.59	159.16
601.75	25.75
601.91	42.13
602.06	30.43
602.22	53.83
602.37	121.71
602.53	79.58
602.69	39.79
602.84	119.37
603.00	126.39
603.16	0.00
603.31	53.83
603.47	60.85
603.62	74.90
603.78	117.03
603.94	84.26
604.09	51.49
604.25	23.41
604.40	60.85
604.56	98.30
604.71	28.09
604.87	70.22
605.03	14.04
605.18	65.54
605.34	74.90
605.49	140.43
605.65	60.85
605.80	84.26
605.96	18.72
606.12	35.11
606.27	35.11
606.43	65.54
606.58	88.94
606.74	72.56
606.89	63.19
607.05	16.38
607.20	67.88
607.36	44.47
607.51	58.51
607.67	42.13
607.82	30.43
607.98	145.11
608.13	49.15
608.29	60.85
608.44	77.24
608.60	124.05
608.75	65.54
608.91	133.41
609.06	0.00
609.22	86.60
609.37	112.35
609.53	39.79
609.68	100.64
609.84	65.54
609.99	23.41
610.15	77.24
610.30	44.47
610.46	81.92
610.61	39.79
610.76	145.11
610.92	65.54
611.07	72.56
611.23	49.15
611.38	30.43
611.54	60.85
611.69	105.32
611.84	37.45
612.00	77.24
612.15	4.68
612.31	102.98
612.46	95.96
612.62	63.19
612.77	49.15
612.92	53.83
613.08	81.92
613.23	124.05
613.39	110.01
613.54	42.13
613.69	37.45
613.85	102.98
614.00	79.58
614.15	58.51
614.31	49.15
614.46	0.00
614.62	65.54
614.77	72.56
614.92	140.43
615.08	42.13
615.23	91.28
615.38	79.58
615.54	32.77
615.69	88.94
615.84	58.51
616.00	67.88
616.15	23.41
616.30	107.66
616.46	2.34
616.61	72.56
616.76	32.77
616.92	23.41
617.07	0.00
617.22	79.58
617.37	51.49
617.53	93.62
617.68	32.77
617.83	51.49
617.99	58.51
618.14	67.88
618.29	46.81
618.45	110.01
618.60	28.09
618.75	88.94
618.90	56.17
619.06	25.75
619.21	84.26
619.36	105.32
619.51	110.01
619.67	88.94
619.82	44.47
619.97	58.51
620.12	112.35
620.28	95.96
620.43	72.56
620.58	9.36
620.73	77.24
620.89	7.02
621.04	0.00
621.19	117.03
621.34	35.11
621.49	112.35
621.65	166.18
621.80	91.28
621.95	95.96
622.10	74.90
622.25	46.81
622.41	91.28
622.56	65.54
622.71	100.64
622.86	98.30
623.01	58.51
623.16	77.24
623.32	91.28
623.47	81.92
623.62	28.09
623.77	35.11
623.92	25.75
624.07	58.51
624.23	28.09
624.38	44.47
624.53	81.92
624.68	95.96
624.83	72.56
624.98	44.47
625.13	7.02
625.29	74.90
625.44	86.60
625.59	98.30
625.74	42.13
625.89	46.81
626.04	58.51
626.19	70.22
626.34	86.60
626.49	67.88
626.65	77.24
626.80	72.56
626.95	74.90
627.10	119.37
627.25	23.41
627.40	65.54
627.55	11.70
627.70	60.85
627.85	95.96
628.00	63.19
628.15	18.72
628.30	107.66
628.45	131.07
628.60	21.06
628.76	81.92
628.91	56.17
629.06	39.79
629.21	114.69
629.36	112.35
629.51	77.24
629.66	105.32
629.81	79.58
629.96	58.51
630.11	0.00
630.26	56.17
630.41	0.00
630.56	77.24
630.71	88.94
630.86	86.60
631.01	58.51
631.16	4.68
631.31	72.56
631.46	4.68
631.61	37.45
631.76	39.79
631.91	65.54
632.06	9.36
632.21	63.19
632.36	58.51
632.51	70.22
632.66	23.41
632.81	53.83
632.96	28.09
633.10	49.15
633.25	105.32
633.40	74.90
633.55	67.88
633.70	65.54
633.85	25.75
634.00	44.47
634.15	72.56
634.30	98.30
634.45	98.30
634.60	100.64
634.75	79.58
634.90	100.64
635.05	100.64
635.19	65.54
635.34	39.79
635.49	63.19
635.64	60.85
635.79	37.45
635.94	65.54
636.09	60.85
636.24	56.17
636.39	42.13
636.53	44.47
636.68	49.15
636.83	46.81
636.98	53.83
637.13	63.19
637.28	25.75
637.43	49.15
637.57	23.41
637.72	63.19
637.87	58.51
638.02	11.70
638.17	86.60
638.32	79.58
638.46	63.19
638.61	0.00
638.76	42.13
638.91	39.79
639.06	67.88
639.20	32.77
639.35	117.03
639.50	0.00
639.65	56.17
639.80	84.26
639.94	63.19
640.09	93.62
640.24	0.00
640.39	53.83
640.54	4.68
640.68	0.00
640.83	56.17
640.98	9.36
641.13	49.15
641.27	79.58
641.42	14.04
641.57	88.94
641.72	88.94
641.86	126.39
642.01	67.88
642.16	70.22
642.31	16.38
642.45	28.09
642.60	63.19
642.75	65.54
642.90	65.54
643.04	49.15
643.19	63.19
643.34	105.32
643.48	81.92
643.63	18.72
643.78	18.72
643.93	84.26
644.07	84.26
644.22	0.00
644.37	0.00
644.51	95.96
644.66	77.24
644.81	53.83
644.95	32.77
645.10	67.88
645.25	23.41
645.39	79.58
645.54	18.72
645.69	39.79
645.83	65.54
645.98	0.00
646.13	42.13
646.27	70.22
646.42	4.68
646.57	49.15
646.71	14.04
646.86	0.00
647.00	51.49
647.15	49.15
647.30	77.24
647.44	42.13
647.59	46.81
647.74	121.71
647.88	51.49
648.03	0.00
648.17	126.39
648.32	67.88
648.47	74.90
648.61	37.45
648.76	107.66
648.90	56.17
649.05	77.24
649.20	39.79
649.34	131.07
649.49	91.28
649.63	58.51
649.78	53.83
649.92	88.94
650.07	46.81
650.21	0.00
650.36	84.26
650.51	91.28
650.65	128.73
650.80	53.83
650.94	142.77
651.09	81.92
651.23	107.66
651.38	0.00
651.52	100.64
651.67	7.02
651.81	98.30
651.96	72.56
652.10	39.79
652.25	105.32
652.39	84.26
652.54	9.36
652.68	14.04
652.83	53.83
652.97	60.85
653.12	100.64
653.26	0.00
653.41	60.85
653.55	110.01
653.70	70.22
653.84	30.43
653.99	65.54
654.13	110.01
654.27	84.26
654.42	23.41
654.56	65.54
654.71	30.43
654.85	2.34
655.00	53.83
655.14	74.90
655.29	74.90
655.43	154.48
655.57	98.30
655.72	79.58
655.86	110.01
656.01	84.26
656.15	56.17
656.30	0.00
656.44	0.00
656.58	56.17
656.73	39.79
656.87	32.77
657.01	28.09
657.16	0.00
657.30	39.79
657.45	46.81
657.59	0.00
657.73	16.38
657.88	67.88
658.02	65.54
658.16	56.17
658.31	79.58
658.45	42.13
658.60	42.13
658.74	58.51
658.88	135.75
659.03	72.56
659.17	72.56
659.31	28.09
659.46	58.51
659.60	49.15
659.74	81.92
659.89	44.47
660.03	49.15
660.17	46.81
660.32	16.38
660.46	100.64
660.60	63.19
660.74	0.00
660.89	98.30
661.03	100.64
661.17	93.62
661.32	32.77
661.46	4.68
661.60	74.90
661.74	44.47
661.89	74.90
662.03	119.37
662.17	65.54
662.31	39.79
662.46	0.00
662.60	4.68
662.74	81.92
662.88	126.39
663.03	16.38
663.17	7.02
663.31	60.85
663.45	121.71
663.60	74.90
663.74	7.02
663.88	77.24
664.02	58.51
664.17	0.00
664.31	124.05
664.45	44.47
664.59	18.72
664.73	30.43
664.88	0.00
665.02	44.47
665.16	30.43
665.30	100.64
665.44	32.77
665.59	0.00
665.73	0.00
665.87	39.79
666.01	107.66
666.15	65.54
666.29	84.26
666.44	25.75
666.58	58.51
666.72	56.17
666.86	86.60
667.00	79.58
667.14	2.34
667.28	67.88
667.43	98.30
667.57	0.00
667.71	4.68
667.85	35.11
667.99	79.58
668.13	110.01
668.27	60.85
668.41	46.81
668.56	21.06
668.70	58.51
668.84	60.85
668.98	18.72
669.12	91.28
669.26	46.81
669.40	30.43
669.54	74.90
669.68	117.03
669.82	58.51
669.96	28.09
670.10	84.26
670.25	131.07
670.39	30.43
670.53	98.30
670.67	0.00
670.81	23.41
670.95	84.26
671.09	35.11
671.23	107.66
671.37	56.17
671.51	39.79
671.65	56.17
671.79	11.70
671.93	79.58
672.07	84.26
672.21	95.96
672.35	84.26
672.49	49.15
672.63	77.24
672.77	42.13
672.91	0.00
673.05	117.03
673.19	133.41
673.33	0.00
673.47	107.66
673.61	60.85
673.75	121.71
673.89	119.37
674.03	77.24
674.17	25.75
674.31	63.19
674.45	23.41
674.59	0.00
674.73	0.00
674.87	7.02
675.01	7.02
675.15	63.19
675.29	16.38
675.43	105.32
675.56	79.58
675.70	60.85
675.84	60.85
675.98	44.47
676.12	7.02
676.26	16.38
676.40	60.85
676.54	7.02
676.68	39.79
676.82	7.02
676.96	0.00
677.10	16.38
677.23	124.05
677.37	84.26
677.51	30.43
677.65	56.17
677.79	81.92
677.93	56.17
678.07	49.15
678.21	14.04
678.34	42.13
678.48	86.60
678.62	56.17
678.76	74.90
678.90	58.51
679.04	147.45
679.18	63.19
679.31	46.81
679.45	32.77
679.59	16.38
679.73	60.85
679.87	46.81
680.00	42.13
680.14	23.41
680.28	86.60
680.42	86.60
680.56	16.38
680.70	11.70
680.83	39.79
680.97	46.81
681.11	98.30
681.25	37.45
681.39	149.79
681.52	72.56
681.66	53.83
681.80	14.04
681.94	16.38
682.07	53.83
682.21	0.00
682.35	49.15
682.49	0.00
682.62	93.62
682.76	4.68
682.90	58.51
683.04	39.79
683.17	110.01
683.31	32.77
683.45	56.17
683.59	0.00
683.72	81.92
683.86	9.36
684.00	9.36
684.13	65.54
684.27	11.70
684.41	25.75
684.55	63.19
684.68	37.45
684.82	77.24
684.96	72.56
685.09	0.00
685.23	86.60
685.37	2.34
685.50	91.28
685.64	4.68
685.78	56.17
685.91	100.64
686.05	35.11
686.19	60.85
686.32	28.09
686.46	114.69
686.60	51.49
686.73	0.00
686.87	93.62
687.01	112.35
687.14	35.11
687.28	0.00
687.42	74.90
687.55	39.79
687.69	21.06
687.82	0.00
687.96	0.00
688.10	63.19
688.23	72.56
688.37	0.00
688.50	53.83
688.64	0.00
688.78	102.98
688.91	35.11
689.05	39.79
689.18	23.41
689.32	23.41
689.46	0.00
689.59	37.45
689.73	117.03
689.86	98.30
690.00	2.34
690.13	53.83
690.27	16.38
690.41	4.68
690.54	112.35
690.68	23.41
690.81	21.06
690.95	107.66
691.08	30.43
691.22	58.51
691.35	60.85
691.49	65.54
691.62	23.41
691.76	70.22
691.89	74.90
692.03	28.09
692.16	70.22
692.30	0.00
692.43	25.75
692.57	0.00
692.70	100.64
692.84	2.34
692.97	44.47
693.11	4.68
693.24	0.00
693.38	7.02
693.51	63.19
693.65	72.56
693.78	56.17
693.92	4.68
694.05	44.47
694.19	63.19
694.32	30.43
694.45	42.13
694.59	16.38
694.72	63.19
694.86	60.85
694.99	98.30
695.13	14.04
695.26	49.15
695.39	0.00
695.53	35.11
695.66	81.92
695.80	28.09
695.93	11.70
696.07	0.00
696.20	46.81
696.33	14.04
696.47	56.17
696.60	51.49
696.73	65.54
696.87	44.47
697.00	25.75
697.14	60.85
697.27	0.00
697.40	37.45
697.54	46.81
697.67	84.26
697.80	53.83
697.94	28.09
698.07	9.36
698.21	25.75
698.34	44.47
698.47	46.81
698.61	112.35
698.74	74.90
698.87	84.26
699.01	63.19
699.14	21.06
699.27	88.94
699.40	37.45
699.54	98.30
699.67	79.58
699.80	16.38
699.94	0.00
700.07	16.38
700.20	25.75
700.34	46.81
700.47	0.00
700.60	0.00
700.73	7.02
700.87	11.70
701.00	0.00
701.13	23.41
701.26	39.79
701.40	70.22
701.53	67.88
701.66	37.45
701.79	7.02
701.93	37.45
702.06	63.19
702.19	7.02
702.32	56.17
702.46	72.56
702.59	32.77
702.72	25.75
702.85	63.19
702.99	0.00
703.12	42.13
703.25	91.28
703.38	35.11
703.51	72.56
703.65	0.00
703.78	21.06
703.91	39.79
704.04	63.19
704.17	86.60
704.31	0.00
704.44	11.70
704.57	2.34
704.70	0.00
704.83	25.75
704.96	79.58
705.10	30.43
705.23	51.49
>>>>>End Processed Spectral Data<<<<<
