SpectraSuite Data File
++++++++++++++++++++++++++++++++++++
Date: Fri Oct 04 12:13:31 GMT-05:00 2013
User: price-jones
Dark Spectrum Present: No
Reference Spectrum Present: No
Number of Sampled Component Spectra: 1
Spectrometers: USB2+H05261
Integration Time (usec): 10000 (USB2+H05261)
Spectra Averaged: 1 (USB2+H05261)
Boxcar Smoothing: 0 (USB2+H05261)
Correct for Electrical Dark: No (USB2+H05261)
Strobe/Lamp Enabled: No (USB2+H05261)
Correct for Detector Non-linearity: No (USB2+H05261)
Correct for Stray Light: No (USB2+H05261)
Number of Pixels in Processed Spectrum: 2048
>>>>>Begin Processed Spectral Data<<<<<
365.73	9.36
365.92	9.36
366.12	9.36
366.32	0.00
366.52	0.00
366.72	0.00
366.91	0.00
367.11	0.00
367.31	0.00
367.51	0.00
367.70	0.00
367.90	0.00
368.10	0.00
368.30	0.00
368.49	0.00
368.69	0.00
368.89	0.00
369.09	0.00
369.28	0.00
369.48	0.00
369.68	0.00
369.87	0.00
370.07	0.00
370.27	0.00
370.47	0.00
370.66	30.43
370.86	0.00
371.06	0.00
371.25	0.00
371.45	2.34
371.65	0.00
371.84	11.70
372.04	0.00
372.24	0.00
372.44	35.11
372.63	0.00
372.83	0.00
373.03	0.00
373.22	23.41
373.42	0.00
373.62	7.02
373.81	44.47
374.01	30.43
374.21	58.51
374.40	79.58
374.60	0.00
374.79	67.88
374.99	95.96
375.19	121.71
375.38	51.49
375.58	0.00
375.78	0.00
375.97	0.00
376.17	30.43
376.37	32.77
376.56	49.15
376.76	51.49
376.95	21.06
377.15	23.41
377.35	44.47
377.54	32.77
377.74	7.02
377.93	21.06
378.13	2.34
378.33	49.15
378.52	2.34
378.72	46.81
378.91	0.00
379.11	18.72
379.31	0.00
379.50	51.49
379.70	0.00
379.89	37.45
380.09	0.00
380.28	4.68
380.48	25.75
380.68	7.02
380.87	0.00
381.07	0.00
381.26	0.00
381.46	42.13
381.65	0.00
381.85	56.17
382.04	35.11
382.24	0.00
382.43	51.49
382.63	16.38
382.83	21.06
383.02	7.02
383.22	23.41
383.41	0.00
383.61	65.54
383.80	0.00
384.00	16.38
384.19	0.00
384.39	14.04
384.58	23.41
384.78	23.41
384.97	14.04
385.17	0.00
385.36	0.00
385.56	7.02
385.75	11.70
385.95	44.47
386.14	18.72
386.34	44.47
386.53	0.00
386.72	42.13
386.92	0.00
387.11	32.77
387.31	4.68
387.50	0.00
387.70	0.00
387.89	100.64
388.09	9.36
388.28	21.06
388.48	4.68
388.67	42.13
388.86	32.77
389.06	9.36
389.25	37.45
389.45	53.83
389.64	0.00
389.84	25.75
390.03	23.41
390.22	0.00
390.42	49.15
390.61	0.00
390.81	0.00
391.00	0.00
391.19	37.45
391.39	9.36
391.58	0.00
391.78	42.13
391.97	63.19
392.16	14.04
392.36	9.36
392.55	9.36
392.75	7.02
392.94	28.09
393.13	0.00
393.33	18.72
393.52	25.75
393.71	0.00
393.91	77.24
394.10	0.00
394.29	0.00
394.49	0.00
394.68	0.00
394.88	44.47
395.07	25.75
395.26	0.00
395.46	72.56
395.65	67.88
395.84	77.24
396.04	42.13
396.23	53.83
396.42	7.02
396.62	0.00
396.81	0.00
397.00	39.79
397.19	7.02
397.39	2.34
397.58	32.77
397.77	18.72
397.97	2.34
398.16	37.45
398.35	56.17
398.55	0.00
398.74	9.36
398.93	0.00
399.12	53.83
399.32	0.00
399.51	0.00
399.70	0.00
399.90	7.02
400.09	37.45
400.28	0.00
400.47	0.00
400.67	81.92
400.86	35.11
401.05	0.00
401.24	4.68
401.44	9.36
401.63	63.19
401.82	42.13
402.01	0.00
402.21	0.00
402.40	0.00
402.59	0.00
402.78	0.00
402.97	95.96
403.17	58.51
403.36	0.00
403.55	37.45
403.74	0.00
403.93	65.54
404.13	0.00
404.32	0.00
404.51	65.54
404.70	2.34
404.89	72.56
405.09	23.41
405.28	91.28
405.47	65.54
405.66	0.00
405.85	53.83
406.05	77.24
406.24	100.64
406.43	53.83
406.62	0.00
406.81	21.06
407.00	56.17
407.20	21.06
407.39	7.02
407.58	49.15
407.77	70.22
407.96	0.00
408.15	9.36
408.34	18.72
408.54	14.04
408.73	117.03
408.92	0.00
409.11	51.49
409.30	23.41
409.49	46.81
409.68	102.98
409.87	58.51
410.07	21.06
410.26	32.77
410.45	25.75
410.64	93.62
410.83	23.41
411.02	18.72
411.21	39.79
411.40	53.83
411.59	72.56
411.78	0.00
411.98	49.15
412.17	56.17
412.36	2.34
412.55	46.81
412.74	65.54
412.93	81.92
413.12	11.70
413.31	0.00
413.50	53.83
413.69	30.43
413.88	42.13
414.07	18.72
414.26	21.06
414.45	28.09
414.64	81.92
414.83	37.45
415.02	72.56
415.22	32.77
415.41	4.68
415.60	2.34
415.79	35.11
415.98	23.41
416.17	0.00
416.36	0.00
416.55	0.00
416.74	7.02
416.93	84.26
417.12	16.38
417.31	21.06
417.50	0.00
417.69	74.90
417.88	9.36
418.07	72.56
418.26	0.00
418.45	0.00
418.64	30.43
418.83	0.00
419.02	35.11
419.21	9.36
419.39	44.47
419.58	30.43
419.77	9.36
419.96	42.13
420.15	65.54
420.34	51.49
420.53	0.00
420.72	9.36
420.91	53.83
421.10	110.01
421.29	28.09
421.48	0.00
421.67	49.15
421.86	74.90
422.05	58.51
422.24	14.04
422.43	32.77
422.61	0.00
422.80	0.00
422.99	28.09
423.18	0.00
423.37	93.62
423.56	0.00
423.75	44.47
423.94	121.71
424.13	18.72
424.32	0.00
424.50	23.41
424.69	84.26
424.88	46.81
425.07	0.00
425.26	0.00
425.45	32.77
425.64	25.75
425.83	0.00
426.01	58.51
426.20	0.00
426.39	11.70
426.58	51.49
426.77	67.88
426.96	21.06
427.15	18.72
427.33	7.02
427.52	58.51
427.71	53.83
427.90	93.62
428.09	28.09
428.28	2.34
428.46	30.43
428.65	0.00
428.84	0.00
429.03	32.77
429.22	25.75
429.40	18.72
429.59	0.00
429.78	25.75
429.97	0.00
430.16	35.11
430.34	74.90
430.53	70.22
430.72	63.19
430.91	56.17
431.10	107.66
431.28	42.13
431.47	74.90
431.66	25.75
431.85	63.19
432.03	39.79
432.22	60.85
432.41	32.77
432.60	16.38
432.79	28.09
432.97	124.05
433.16	32.77
433.35	9.36
433.54	0.00
433.72	0.00
433.91	46.81
434.10	49.15
434.28	11.70
434.47	0.00
434.66	49.15
434.85	56.17
435.03	14.04
435.22	65.54
435.41	44.47
435.59	21.06
435.78	37.45
435.97	37.45
436.16	28.09
436.34	35.11
436.53	11.70
436.72	0.00
436.90	21.06
437.09	0.00
437.28	4.68
437.46	95.96
437.65	86.60
437.84	51.49
438.02	110.01
438.21	0.00
438.40	39.79
438.58	39.79
438.77	49.15
438.96	91.28
439.14	0.00
439.33	0.00
439.52	14.04
439.70	53.83
439.89	30.43
440.08	63.19
440.26	65.54
440.45	35.11
440.63	81.92
440.82	0.00
441.01	53.83
441.19	30.43
441.38	21.06
441.57	14.04
441.75	30.43
441.94	14.04
442.12	65.54
442.31	16.38
442.50	42.13
442.68	65.54
442.87	46.81
443.05	124.05
443.24	9.36
443.43	28.09
443.61	9.36
443.80	37.45
443.98	0.00
444.17	70.22
444.35	131.07
444.54	70.22
444.73	0.00
444.91	4.68
445.10	7.02
445.28	93.62
445.47	16.38
445.65	60.85
445.84	74.90
446.02	0.00
446.21	32.77
446.39	23.41
446.58	51.49
446.77	67.88
446.95	74.90
447.14	0.00
447.32	14.04
447.51	65.54
447.69	30.43
447.88	0.00
448.06	18.72
448.25	46.81
448.43	0.00
448.62	56.17
448.80	0.00
448.99	0.00
449.17	56.17
449.36	44.47
449.54	58.51
449.73	32.77
449.91	28.09
450.10	51.49
450.28	11.70
450.46	49.15
450.65	0.00
450.83	49.15
451.02	16.38
451.20	4.68
451.39	65.54
451.57	0.00
451.76	37.45
451.94	67.88
452.13	77.24
452.31	37.45
452.49	93.62
452.68	28.09
452.86	0.00
453.05	0.00
453.23	28.09
453.42	14.04
453.60	0.00
453.78	0.00
453.97	77.24
454.15	49.15
454.34	0.00
454.52	37.45
454.70	58.51
454.89	32.77
455.07	25.75
455.26	14.04
455.44	11.70
455.62	0.00
455.81	98.30
455.99	98.30
456.17	23.41
456.36	32.77
456.54	65.54
456.73	63.19
456.91	30.43
457.09	7.02
457.28	42.13
457.46	0.00
457.64	0.00
457.83	9.36
458.01	63.19
458.19	44.47
458.38	16.38
458.56	0.00
458.74	0.00
458.93	60.85
459.11	70.22
459.29	67.88
459.48	58.51
459.66	124.05
459.84	37.45
460.03	58.51
460.21	11.70
460.39	42.13
460.57	0.00
460.76	14.04
460.94	72.56
461.12	16.38
461.31	23.41
461.49	70.22
461.67	72.56
461.85	72.56
462.04	46.81
462.22	140.43
462.40	88.94
462.59	63.19
462.77	0.00
462.95	14.04
463.13	4.68
463.32	37.45
463.50	28.09
463.68	110.01
463.86	30.43
464.05	46.81
464.23	0.00
464.41	60.85
464.59	32.77
464.78	86.60
464.96	0.00
465.14	14.04
465.32	37.45
465.50	98.30
465.69	70.22
465.87	0.00
466.05	0.00
466.23	79.58
466.41	98.30
466.60	77.24
466.78	0.00
466.96	49.15
467.14	72.56
467.32	102.98
467.51	4.68
467.69	14.04
467.87	0.00
468.05	42.13
468.23	0.00
468.41	14.04
468.60	0.00
468.78	51.49
468.96	56.17
469.14	21.06
469.32	74.90
469.50	28.09
469.69	7.02
469.87	0.00
470.05	51.49
470.23	0.00
470.41	0.00
470.59	0.00
470.77	39.79
470.95	79.58
471.14	56.17
471.32	9.36
471.50	56.17
471.68	79.58
471.86	72.56
472.04	53.83
472.22	11.70
472.40	4.68
472.58	79.58
472.77	35.11
472.95	63.19
473.13	18.72
473.31	0.00
473.49	0.00
473.67	28.09
473.85	25.75
474.03	51.49
474.21	107.66
474.39	53.83
474.57	60.85
474.75	9.36
474.93	60.85
475.12	114.69
475.30	51.49
475.48	60.85
475.66	72.56
475.84	4.68
476.02	0.00
476.20	0.00
476.38	46.81
476.56	9.36
476.74	131.07
476.92	28.09
477.10	84.26
477.28	98.30
477.46	65.54
477.64	51.49
477.82	21.06
478.00	91.28
478.18	74.90
478.36	0.00
478.54	56.17
478.72	84.26
478.90	0.00
479.08	30.43
479.26	84.26
479.44	0.00
479.62	30.43
479.80	30.43
479.98	35.11
480.16	60.85
480.34	53.83
480.52	25.75
480.70	65.54
480.88	86.60
481.06	46.81
481.24	56.17
481.41	18.72
481.59	35.11
481.77	37.45
481.95	25.75
482.13	42.13
482.31	7.02
482.49	58.51
482.67	9.36
482.85	35.11
483.03	72.56
483.21	0.00
483.39	0.00
483.57	88.94
483.74	51.49
483.92	44.47
484.10	39.79
484.28	63.19
484.46	0.00
484.64	35.11
484.82	7.02
485.00	0.00
485.18	0.00
485.35	49.15
485.53	53.83
485.71	42.13
485.89	0.00
486.07	74.90
486.25	77.24
486.43	0.00
486.61	25.75
486.78	14.04
486.96	23.41
487.14	51.49
487.32	44.47
487.50	0.00
487.68	0.00
487.85	0.00
488.03	14.04
488.21	49.15
488.39	14.04
488.57	25.75
488.75	35.11
488.92	107.66
489.10	46.81
489.28	91.28
489.46	88.94
489.64	77.24
489.81	21.06
489.99	60.85
490.17	84.26
490.35	23.41
490.53	0.00
490.70	53.83
490.88	11.70
491.06	49.15
491.24	0.00
491.41	28.09
491.59	0.00
491.77	100.64
491.95	81.92
492.13	28.09
492.30	58.51
492.48	79.58
492.66	44.47
492.84	65.54
493.01	25.75
493.19	0.00
493.37	86.60
493.54	67.88
493.72	74.90
493.90	37.45
494.08	65.54
494.25	53.83
494.43	74.90
494.61	30.43
494.79	21.06
494.96	11.70
495.14	21.06
495.32	0.00
495.49	0.00
495.67	63.19
495.85	7.02
496.02	58.51
496.20	32.77
496.38	37.45
496.55	39.79
496.73	44.47
496.91	7.02
497.09	0.00
497.26	65.54
497.44	32.77
497.62	79.58
497.79	42.13
497.97	100.64
498.14	53.83
498.32	88.94
498.50	44.47
498.67	44.47
498.85	51.49
499.03	77.24
499.20	49.15
499.38	0.00
499.56	63.19
499.73	42.13
499.91	0.00
500.08	86.60
500.26	112.35
500.44	72.56
500.61	74.90
500.79	58.51
500.97	56.17
501.14	0.00
501.32	65.54
501.49	67.88
501.67	0.00
501.84	56.17
502.02	72.56
502.20	46.81
502.37	37.45
502.55	18.72
502.72	0.00
502.90	79.58
503.07	102.98
503.25	58.51
503.43	56.17
503.60	28.09
503.78	16.38
503.95	0.00
504.13	14.04
504.30	81.92
504.48	14.04
504.65	39.79
504.83	0.00
505.01	44.47
505.18	42.13
505.36	0.00
505.53	95.96
505.71	95.96
505.88	30.43
506.06	98.30
506.23	32.77
506.41	67.88
506.58	35.11
506.76	42.13
506.93	39.79
507.11	65.54
507.28	16.38
507.46	67.88
507.63	49.15
507.81	44.47
507.98	25.75
508.16	58.51
508.33	39.79
508.50	32.77
508.68	86.60
508.85	79.58
509.03	2.34
509.20	84.26
509.38	53.83
509.55	25.75
509.73	51.49
509.90	32.77
510.08	72.56
510.25	0.00
510.42	7.02
510.60	53.83
510.77	0.00
510.95	63.19
511.12	93.62
511.30	9.36
511.47	98.30
511.64	0.00
511.82	32.77
511.99	7.02
512.17	72.56
512.34	44.47
512.51	23.41
512.69	107.66
512.86	0.00
513.04	37.45
513.21	37.45
513.38	28.09
513.56	56.17
513.73	98.30
513.90	11.70
514.08	44.47
514.25	98.30
514.43	0.00
514.60	46.81
514.77	32.77
514.95	60.85
515.12	0.00
515.29	60.85
515.47	28.09
515.64	91.28
515.81	53.83
515.99	16.38
516.16	0.00
516.33	4.68
516.51	9.36
516.68	70.22
516.85	9.36
517.03	51.49
517.20	46.81
517.37	7.02
517.54	107.66
517.72	53.83
517.89	49.15
518.06	53.83
518.24	14.04
518.41	30.43
518.58	56.17
518.75	44.47
518.93	86.60
519.10	42.13
519.27	105.32
519.45	32.77
519.62	74.90
519.79	35.11
519.96	46.81
520.14	67.88
520.31	18.72
520.48	30.43
520.65	93.62
520.83	28.09
521.00	11.70
521.17	67.88
521.34	14.04
521.52	28.09
521.69	88.94
521.86	81.92
522.03	49.15
522.20	42.13
522.38	79.58
522.55	23.41
522.72	0.00
522.89	7.02
523.07	39.79
523.24	9.36
523.41	23.41
523.58	21.06
523.75	58.51
523.92	32.77
524.10	25.75
524.27	65.54
524.44	98.30
524.61	0.00
524.78	16.38
524.96	53.83
525.13	67.88
525.30	39.79
525.47	37.45
525.64	4.68
525.81	51.49
525.98	46.81
526.16	79.58
526.33	0.00
526.50	25.75
526.67	86.60
526.84	4.68
527.01	72.56
527.18	88.94
527.36	110.01
527.53	84.26
527.70	0.00
527.87	60.85
528.04	100.64
528.21	0.00
528.38	21.06
528.55	67.88
528.72	84.26
528.89	35.11
529.07	44.47
529.24	51.49
529.41	58.51
529.58	63.19
529.75	28.09
529.92	63.19
530.09	0.00
530.26	58.51
530.43	0.00
530.60	4.68
530.77	0.00
530.94	7.02
531.11	0.00
531.28	53.83
531.46	77.24
531.63	49.15
531.80	18.72
531.97	53.83
532.14	30.43
532.31	30.43
532.48	37.45
532.65	44.47
532.82	91.28
532.99	0.00
533.16	56.17
533.33	84.26
533.50	0.00
533.67	65.54
533.84	9.36
534.01	84.26
534.18	23.41
534.35	9.36
534.52	0.00
534.69	58.51
534.86	84.26
535.03	86.60
535.20	9.36
535.37	63.19
535.54	39.79
535.71	0.00
535.88	14.04
536.05	16.38
536.22	9.36
536.38	39.79
536.55	25.75
536.72	58.51
536.89	74.90
537.06	44.47
537.23	35.11
537.40	51.49
537.57	74.90
537.74	0.00
537.91	93.62
538.08	51.49
538.25	32.77
538.42	102.98
538.59	44.47
538.75	81.92
538.92	72.56
539.09	91.28
539.26	39.79
539.43	56.17
539.60	93.62
539.77	84.26
539.94	74.90
540.11	105.32
540.28	93.62
540.44	65.54
540.61	28.09
540.78	37.45
540.95	46.81
541.12	2.34
541.29	7.02
541.46	35.11
541.62	56.17
541.79	124.05
541.96	30.43
542.13	28.09
542.30	60.85
542.47	72.56
542.63	16.38
542.80	30.43
542.97	9.36
543.14	77.24
543.31	2.34
543.48	37.45
543.64	25.75
543.81	42.13
543.98	77.24
544.15	16.38
544.32	32.77
544.48	86.60
544.65	39.79
544.82	67.88
544.99	7.02
545.16	70.22
545.32	37.45
545.49	0.00
545.66	0.00
545.83	42.13
546.00	4.68
546.16	21.06
546.33	0.00
546.50	28.09
546.67	9.36
546.83	58.51
547.00	72.56
547.17	0.00
547.34	112.35
547.50	46.81
547.67	102.98
547.84	30.43
548.00	25.75
548.17	135.75
548.34	0.00
548.51	56.17
548.67	0.00
548.84	0.00
549.01	35.11
549.18	46.81
549.34	140.43
549.51	7.02
549.68	0.00
549.84	65.54
550.01	16.38
550.18	37.45
550.34	110.01
550.51	18.72
550.68	11.70
550.84	18.72
551.01	21.06
551.18	131.07
551.34	28.09
551.51	0.00
551.68	77.24
551.84	46.81
552.01	56.17
552.18	53.83
552.34	117.03
552.51	119.37
552.68	128.73
552.84	35.11
553.01	4.68
553.18	67.88
553.34	58.51
553.51	56.17
553.67	95.96
553.84	63.19
554.01	18.72
554.17	95.96
554.34	56.17
554.51	56.17
554.67	53.83
554.84	44.47
555.00	25.75
555.17	51.49
555.33	14.04
555.50	86.60
555.67	18.72
555.83	21.06
556.00	28.09
556.16	91.28
556.33	72.56
556.50	0.00
556.66	67.88
556.83	49.15
556.99	51.49
557.16	63.19
557.32	65.54
557.49	81.92
557.65	21.06
557.82	65.54
557.98	70.22
558.15	67.88
558.32	37.45
558.48	0.00
558.65	53.83
558.81	21.06
558.98	0.00
559.14	18.72
559.31	63.19
559.47	53.83
559.64	88.94
559.80	77.24
559.97	102.98
560.13	49.15
560.30	119.37
560.46	32.77
560.63	7.02
560.79	0.00
560.96	0.00
561.12	25.75
561.29	79.58
561.45	39.79
561.61	110.01
561.78	88.94
561.94	0.00
562.11	30.43
562.27	79.58
562.44	16.38
562.60	4.68
562.77	58.51
562.93	23.41
563.10	58.51
563.26	65.54
563.42	110.01
563.59	56.17
563.75	25.75
563.92	107.66
564.08	95.96
564.24	74.90
564.41	35.11
564.57	21.06
564.74	35.11
564.90	0.00
565.07	25.75
565.23	21.06
565.39	74.90
565.56	44.47
565.72	23.41
565.88	35.11
566.05	18.72
566.21	77.24
566.38	105.32
566.54	51.49
566.70	42.13
566.87	39.79
567.03	49.15
567.19	25.75
567.36	60.85
567.52	60.85
567.68	32.77
567.85	0.00
568.01	58.51
568.17	0.00
568.34	49.15
568.50	46.81
568.66	58.51
568.83	7.02
568.99	0.00
569.15	58.51
569.32	39.79
569.48	42.13
569.64	32.77
569.81	86.60
569.97	67.88
570.13	0.00
570.30	23.41
570.46	60.85
570.62	28.09
570.78	81.92
570.95	42.13
571.11	72.56
571.27	67.88
571.43	21.06
571.60	0.00
571.76	23.41
571.92	44.47
572.09	53.83
572.25	51.49
572.41	46.81
572.57	21.06
572.74	14.04
572.90	91.28
573.06	35.11
573.22	46.81
573.38	79.58
573.55	58.51
573.71	0.00
573.87	18.72
574.03	4.68
574.20	0.00
574.36	14.04
574.52	35.11
574.68	37.45
574.84	86.60
575.01	100.64
575.17	23.41
575.33	51.49
575.49	51.49
575.65	63.19
575.82	51.49
575.98	39.79
576.14	81.92
576.30	39.79
576.46	49.15
576.62	88.94
576.79	23.41
576.95	72.56
577.11	0.00
577.27	0.00
577.43	51.49
577.59	81.92
577.75	72.56
577.92	30.43
578.08	60.85
578.24	81.92
578.40	58.51
578.56	0.00
578.72	0.00
578.88	28.09
579.04	74.90
579.21	0.00
579.37	56.17
579.53	7.02
579.69	65.54
579.85	25.75
580.01	32.77
580.17	11.70
580.33	46.81
580.49	63.19
580.65	0.00
580.82	46.81
580.98	58.51
581.14	53.83
581.30	86.60
581.46	105.32
581.62	53.83
581.78	4.68
581.94	49.15
582.10	58.51
582.26	110.01
582.42	72.56
582.58	14.04
582.74	56.17
582.90	18.72
583.06	11.70
583.22	95.96
583.38	49.15
583.54	100.64
583.70	35.11
583.86	60.85
584.02	72.56
584.18	0.00
584.34	21.06
584.50	28.09
584.66	142.77
584.82	124.05
584.98	121.71
585.14	170.86
585.30	100.64
585.46	114.69
585.62	65.54
585.78	91.28
585.94	14.04
586.10	0.00
586.26	42.13
586.42	53.83
586.58	56.17
586.74	0.00
586.90	46.81
587.06	4.68
587.22	56.17
587.38	0.00
587.54	35.11
587.70	110.01
587.86	77.24
588.02	77.24
588.18	121.71
588.34	0.00
588.49	72.56
588.65	16.38
588.81	21.06
588.97	0.00
589.13	11.70
589.29	0.00
589.45	84.26
589.61	88.94
589.77	32.77
589.93	37.45
590.08	25.75
590.24	2.34
590.40	32.77
590.56	32.77
590.72	0.00
590.88	35.11
591.04	46.81
591.20	56.17
591.35	107.66
591.51	72.56
591.67	37.45
591.83	32.77
591.99	72.56
592.15	138.09
592.31	0.00
592.46	70.22
592.62	51.49
592.78	44.47
592.94	46.81
593.10	74.90
593.26	0.00
593.41	0.00
593.57	35.11
593.73	56.17
593.89	56.17
594.05	93.62
594.20	112.35
594.36	60.85
594.52	39.79
594.68	37.45
594.84	32.77
594.99	53.83
595.15	56.17
595.31	32.77
595.47	18.72
595.62	72.56
595.78	65.54
595.94	49.15
596.10	88.94
596.25	60.85
596.41	23.41
596.57	67.88
596.73	0.00
596.88	16.38
597.04	46.81
597.20	32.77
597.36	60.85
597.51	77.24
597.67	79.58
597.83	51.49
597.99	18.72
598.14	46.81
598.30	37.45
598.46	0.00
598.61	7.02
598.77	0.00
598.93	25.75
599.09	58.51
599.24	42.13
599.40	88.94
599.56	58.51
599.71	0.00
599.87	70.22
600.03	11.70
600.18	77.24
600.34	42.13
600.50	44.47
600.65	28.09
600.81	70.22
600.97	35.11
601.12	0.00
601.28	28.09
601.44	0.00
601.59	44.47
601.75	86.60
601.91	88.94
602.06	2.34
602.22	30.43
602.37	110.01
602.53	70.22
602.69	86.60
602.84	37.45
603.00	114.69
603.16	60.85
603.31	14.04
603.47	14.04
603.62	58.51
603.78	14.04
603.94	25.75
604.09	88.94
604.25	0.00
604.40	70.22
604.56	14.04
604.71	11.70
604.87	2.34
605.03	16.38
605.18	4.68
605.34	81.92
605.49	11.70
605.65	114.69
605.80	77.24
605.96	56.17
606.12	0.00
606.27	53.83
606.43	88.94
606.58	37.45
606.74	39.79
606.89	7.02
607.05	65.54
607.20	25.75
607.36	56.17
607.51	46.81
607.67	35.11
607.82	18.72
607.98	77.24
608.13	91.28
608.29	65.54
608.44	51.49
608.60	72.56
608.75	107.66
608.91	35.11
609.06	51.49
609.22	72.56
609.37	86.60
609.53	72.56
609.68	70.22
609.84	30.43
609.99	32.77
610.15	28.09
610.30	77.24
610.46	30.43
610.61	28.09
610.76	49.15
610.92	0.00
611.07	35.11
611.23	74.90
611.38	65.54
611.54	32.77
611.69	56.17
611.84	67.88
612.00	0.00
612.15	44.47
612.31	0.00
612.46	79.58
612.62	11.70
612.77	23.41
612.92	100.64
613.08	23.41
613.23	9.36
613.39	32.77
613.54	4.68
613.69	81.92
613.85	95.96
614.00	0.00
614.15	126.39
614.31	159.16
614.46	32.77
614.62	0.00
614.77	25.75
614.92	0.00
615.08	16.38
615.23	0.00
615.38	49.15
615.54	51.49
615.69	49.15
615.84	32.77
616.00	32.77
616.15	2.34
616.30	72.56
616.46	21.06
616.61	60.85
616.76	0.00
616.92	2.34
617.07	28.09
617.22	88.94
617.37	39.79
617.53	95.96
617.68	79.58
617.83	65.54
617.99	37.45
618.14	0.00
618.29	60.85
618.45	0.00
618.60	0.00
618.75	67.88
618.90	0.00
619.06	0.00
619.21	0.00
619.36	56.17
619.51	14.04
619.67	56.17
619.82	37.45
619.97	0.00
620.12	46.81
620.28	77.24
620.43	0.00
620.58	124.05
620.73	74.90
620.89	100.64
621.04	9.36
621.19	25.75
621.34	4.68
621.49	107.66
621.65	67.88
621.80	58.51
621.95	9.36
622.10	4.68
622.25	18.72
622.41	9.36
622.56	21.06
622.71	25.75
622.86	72.56
623.01	28.09
623.16	56.17
623.32	49.15
623.47	18.72
623.62	14.04
623.77	39.79
623.92	60.85
624.07	60.85
624.23	110.01
624.38	56.17
624.53	51.49
624.68	56.17
624.83	67.88
624.98	30.43
625.13	9.36
625.29	58.51
625.44	58.51
625.59	58.51
625.74	0.00
625.89	9.36
626.04	37.45
626.19	81.92
626.34	93.62
626.49	77.24
626.65	18.72
626.80	88.94
626.95	100.64
627.10	60.85
627.25	0.00
627.40	39.79
627.55	46.81
627.70	0.00
627.85	7.02
628.00	35.11
628.15	9.36
628.30	58.51
628.45	65.54
628.60	46.81
628.76	79.58
628.91	84.26
629.06	81.92
629.21	7.02
629.36	49.15
629.51	0.00
629.66	46.81
629.81	95.96
629.96	0.00
630.11	9.36
630.26	14.04
630.41	0.00
630.56	0.00
630.71	49.15
630.86	107.66
631.01	49.15
631.16	35.11
631.31	51.49
631.46	0.00
631.61	37.45
631.76	18.72
631.91	88.94
632.06	28.09
632.21	72.56
632.36	0.00
632.51	114.69
632.66	65.54
632.81	119.37
632.96	39.79
633.10	46.81
633.25	65.54
633.40	44.47
633.55	74.90
633.70	70.22
633.85	37.45
634.00	58.51
634.15	32.77
634.30	56.17
634.45	63.19
634.60	0.00
634.75	32.77
634.90	7.02
635.05	7.02
635.19	16.38
635.34	35.11
635.49	14.04
635.64	51.49
635.79	2.34
635.94	25.75
636.09	16.38
636.24	0.00
636.39	21.06
636.53	4.68
636.68	105.32
636.83	56.17
636.98	81.92
637.13	0.00
637.28	112.35
637.43	35.11
637.57	0.00
637.72	86.60
637.87	30.43
638.02	65.54
638.17	0.00
638.32	81.92
638.46	32.77
638.61	37.45
638.76	14.04
638.91	60.85
639.06	30.43
639.20	93.62
639.35	51.49
639.50	100.64
639.65	70.22
639.80	86.60
639.94	126.39
640.09	117.03
640.24	100.64
640.39	91.28
640.54	88.94
640.68	53.83
640.83	37.45
640.98	32.77
641.13	56.17
641.27	0.00
641.42	18.72
641.57	16.38
641.72	107.66
641.86	51.49
642.01	93.62
642.16	79.58
642.31	77.24
642.45	58.51
642.60	0.00
642.75	9.36
642.90	9.36
643.04	53.83
643.19	7.02
643.34	2.34
643.48	35.11
643.63	81.92
643.78	49.15
643.93	4.68
644.07	37.45
644.22	60.85
644.37	42.13
644.51	21.06
644.66	56.17
644.81	16.38
644.95	35.11
645.10	16.38
645.25	32.77
645.39	63.19
645.54	100.64
645.69	77.24
645.83	91.28
645.98	0.00
646.13	98.30
646.27	28.09
646.42	16.38
646.57	65.54
646.71	117.03
646.86	0.00
647.00	37.45
647.15	0.00
647.30	0.00
647.44	32.77
647.59	25.75
647.74	42.13
647.88	56.17
648.03	51.49
648.17	16.38
648.32	56.17
648.47	0.00
648.61	49.15
648.76	53.83
648.90	46.81
649.05	18.72
649.20	49.15
649.34	84.26
649.49	58.51
649.63	102.98
649.78	0.00
649.92	56.17
650.07	110.01
650.21	56.17
650.36	18.72
650.51	67.88
650.65	35.11
650.80	74.90
650.94	77.24
651.09	4.68
651.23	102.98
651.38	0.00
651.52	44.47
651.67	65.54
651.81	53.83
651.96	58.51
652.10	0.00
652.25	58.51
652.39	63.19
652.54	4.68
652.68	0.00
652.83	65.54
652.97	79.58
653.12	14.04
653.26	9.36
653.41	0.00
653.55	39.79
653.70	149.79
653.84	65.54
653.99	32.77
654.13	25.75
654.27	86.60
654.42	39.79
654.56	114.69
654.71	0.00
654.85	72.56
655.00	0.00
655.14	37.45
655.29	49.15
655.43	88.94
655.57	42.13
655.72	0.00
655.86	67.88
656.01	51.49
656.15	39.79
656.30	79.58
656.44	65.54
656.58	23.41
656.73	37.45
656.87	11.70
657.01	93.62
657.16	49.15
657.30	0.00
657.45	58.51
657.59	23.41
657.73	30.43
657.88	56.17
658.02	30.43
658.16	21.06
658.31	70.22
658.45	35.11
658.60	84.26
658.74	44.47
658.88	2.34
659.03	4.68
659.17	28.09
659.31	102.98
659.46	77.24
659.60	0.00
659.74	65.54
659.89	37.45
660.03	23.41
660.17	107.66
660.32	56.17
660.46	0.00
660.60	4.68
660.74	18.72
660.89	44.47
661.03	72.56
661.17	42.13
661.32	4.68
661.46	11.70
661.60	9.36
661.74	7.02
661.89	56.17
662.03	25.75
662.17	65.54
662.31	39.79
662.46	11.70
662.60	112.35
662.74	14.04
662.88	93.62
663.03	46.81
663.17	23.41
663.31	9.36
663.45	72.56
663.60	53.83
663.74	58.51
663.88	14.04
664.02	49.15
664.17	23.41
664.31	0.00
664.45	35.11
664.59	16.38
664.73	9.36
664.88	21.06
665.02	46.81
665.16	0.00
665.30	0.00
665.44	7.02
665.59	0.00
665.73	32.77
665.87	56.17
666.01	23.41
666.15	0.00
666.29	93.62
666.44	28.09
666.58	72.56
666.72	21.06
666.86	16.38
667.00	56.17
667.14	0.00
667.28	30.43
667.43	81.92
667.57	42.13
667.71	65.54
667.85	0.00
667.99	77.24
668.13	63.19
668.27	32.77
668.41	0.00
668.56	0.00
668.70	51.49
668.84	23.41
668.98	14.04
669.12	0.00
669.26	65.54
669.40	0.00
669.54	35.11
669.68	79.58
669.82	35.11
669.96	95.96
670.10	42.13
670.25	4.68
670.39	28.09
670.53	18.72
670.67	72.56
670.81	25.75
670.95	4.68
671.09	91.28
671.23	32.77
671.37	135.75
671.51	0.00
671.65	25.75
671.79	0.00
671.93	65.54
672.07	28.09
672.21	42.13
672.35	25.75
672.49	58.51
672.63	81.92
672.77	11.70
672.91	0.00
673.05	0.00
673.19	0.00
673.33	72.56
673.47	84.26
673.61	77.24
673.75	18.72
673.89	32.77
674.03	11.70
674.17	0.00
674.31	91.28
674.45	23.41
674.59	53.83
674.73	35.11
674.87	42.13
675.01	100.64
675.15	88.94
675.29	72.56
675.43	18.72
675.56	32.77
675.70	0.00
675.84	4.68
675.98	112.35
676.12	7.02
676.26	107.66
676.40	65.54
676.54	14.04
676.68	0.00
676.82	79.58
676.96	46.81
677.10	67.88
677.23	42.13
677.37	30.43
677.51	0.00
677.65	72.56
677.79	0.00
677.93	21.06
678.07	86.60
678.21	4.68
678.34	9.36
678.48	86.60
678.62	72.56
678.76	0.00
678.90	30.43
679.04	0.00
679.18	9.36
679.31	53.83
679.45	35.11
679.59	4.68
679.73	51.49
679.87	42.13
680.00	0.00
680.14	63.19
680.28	30.43
680.42	16.38
680.56	79.58
680.70	46.81
680.83	93.62
680.97	0.00
681.11	51.49
681.25	0.00
681.39	16.38
681.52	42.13
681.66	14.04
681.80	0.00
681.94	0.00
682.07	18.72
682.21	0.00
682.35	9.36
682.49	16.38
682.62	14.04
682.76	37.45
682.90	67.88
683.04	58.51
683.17	42.13
683.31	37.45
683.45	32.77
683.59	18.72
683.72	14.04
683.86	37.45
684.00	39.79
684.13	4.68
684.27	49.15
684.41	44.47
684.55	0.00
684.68	56.17
684.82	51.49
684.96	70.22
685.09	30.43
685.23	0.00
685.37	23.41
685.50	0.00
685.64	7.02
685.78	72.56
685.91	102.98
686.05	46.81
686.19	86.60
686.32	91.28
686.46	46.81
686.60	60.85
686.73	79.58
686.87	0.00
687.01	37.45
687.14	65.54
687.28	95.96
687.42	60.85
687.55	56.17
687.69	14.04
687.82	23.41
687.96	0.00
688.10	7.02
688.23	53.83
688.37	53.83
688.50	4.68
688.64	9.36
688.78	14.04
688.91	77.24
689.05	56.17
689.18	42.13
689.32	23.41
689.46	0.00
689.59	25.75
689.73	14.04
689.86	32.77
690.00	65.54
690.13	51.49
690.27	0.00
690.41	32.77
690.54	2.34
690.68	58.51
690.81	133.41
690.95	65.54
691.08	21.06
691.22	11.70
691.35	7.02
691.49	11.70
691.62	25.75
691.76	42.13
691.89	0.00
692.03	53.83
692.16	37.45
692.30	86.60
692.43	0.00
692.57	0.00
692.70	7.02
692.84	60.85
692.97	79.58
693.11	30.43
693.24	0.00
693.38	42.13
693.51	32.77
693.65	44.47
693.78	93.62
693.92	42.13
694.05	60.85
694.19	39.79
694.32	93.62
694.45	16.38
694.59	91.28
694.72	11.70
694.86	0.00
694.99	46.81
695.13	0.00
695.26	11.70
695.39	49.15
695.53	53.83
695.66	0.00
695.80	0.00
695.93	37.45
696.07	53.83
696.20	51.49
696.33	25.75
696.47	112.35
696.60	63.19
696.73	23.41
696.87	37.45
697.00	72.56
697.14	79.58
697.27	58.51
697.40	32.77
697.54	0.00
697.67	102.98
697.80	107.66
697.94	23.41
698.07	37.45
698.21	32.77
698.34	21.06
698.47	11.70
698.61	58.51
698.74	44.47
698.87	0.00
699.01	0.00
699.14	74.90
699.27	49.15
699.40	74.90
699.54	63.19
699.67	58.51
699.80	37.45
699.94	63.19
700.07	25.75
700.20	81.92
700.34	0.00
700.47	56.17
700.60	39.79
700.73	16.38
700.87	74.90
701.00	0.00
701.13	0.00
701.26	72.56
701.40	21.06
701.53	7.02
701.66	49.15
701.79	88.94
701.93	11.70
702.06	37.45
702.19	32.77
702.32	93.62
702.46	58.51
702.59	63.19
702.72	4.68
702.85	11.70
702.99	79.58
703.12	25.75
703.25	28.09
703.38	39.79
703.51	0.00
703.65	79.58
703.78	56.17
703.91	9.36
704.04	77.24
704.17	58.51
704.31	16.38
704.44	30.43
704.57	28.09
704.70	49.15
704.83	37.45
704.96	2.34
705.10	0.00
705.23	16.38
>>>>>End Processed Spectral Data<<<<<
