SpectraSuite Data File
++++++++++++++++++++++++++++++++++++
Date: Fri Oct 04 12:13:32 GMT-05:00 2013
User: price-jones
Dark Spectrum Present: No
Reference Spectrum Present: No
Number of Sampled Component Spectra: 1
Spectrometers: USB2+H05261
Integration Time (usec): 10000 (USB2+H05261)
Spectra Averaged: 1 (USB2+H05261)
Boxcar Smoothing: 0 (USB2+H05261)
Correct for Electrical Dark: No (USB2+H05261)
Strobe/Lamp Enabled: No (USB2+H05261)
Correct for Detector Non-linearity: No (USB2+H05261)
Correct for Stray Light: No (USB2+H05261)
Number of Pixels in Processed Spectrum: 2048
>>>>>Begin Processed Spectral Data<<<<<
365.73	30.43
365.92	30.43
366.12	30.43
366.32	0.00
366.52	0.00
366.72	0.00
366.91	0.00
367.11	0.00
367.31	0.00
367.51	0.00
367.70	0.00
367.90	0.00
368.10	0.00
368.30	0.00
368.49	0.00
368.69	0.00
368.89	0.00
369.09	0.00
369.28	0.00
369.48	0.00
369.68	0.00
369.87	0.00
370.07	0.00
370.27	0.00
370.47	0.00
370.66	0.00
370.86	0.00
371.06	0.00
371.25	0.00
371.45	46.81
371.65	0.00
371.84	0.00
372.04	0.00
372.24	4.68
372.44	0.00
372.63	0.00
372.83	56.17
373.03	0.00
373.22	32.77
373.42	0.00
373.62	51.49
373.81	81.92
374.01	42.13
374.21	0.00
374.40	60.85
374.60	0.00
374.79	32.77
374.99	0.00
375.19	0.00
375.38	0.00
375.58	67.88
375.78	25.75
375.97	49.15
376.17	37.45
376.37	18.72
376.56	58.51
376.76	21.06
376.95	46.81
377.15	32.77
377.35	49.15
377.54	0.00
377.74	44.47
377.93	100.64
378.13	56.17
378.33	0.00
378.52	25.75
378.72	0.00
378.91	0.00
379.11	0.00
379.31	32.77
379.50	119.37
379.70	21.06
379.89	46.81
380.09	14.04
380.28	0.00
380.48	35.11
380.68	72.56
380.87	0.00
381.07	74.90
381.26	58.51
381.46	32.77
381.65	32.77
381.85	0.00
382.04	51.49
382.24	0.00
382.43	9.36
382.63	0.00
382.83	0.00
383.02	21.06
383.22	88.94
383.41	0.00
383.61	14.04
383.80	81.92
384.00	23.41
384.19	28.09
384.39	0.00
384.58	0.00
384.78	25.75
384.97	77.24
385.17	67.88
385.36	0.00
385.56	7.02
385.75	0.00
385.95	0.00
386.14	21.06
386.34	11.70
386.53	9.36
386.72	58.51
386.92	11.70
387.11	0.00
387.31	65.54
387.50	39.79
387.70	0.00
387.89	32.77
388.09	0.00
388.28	0.00
388.48	74.90
388.67	2.34
388.86	0.00
389.06	56.17
389.25	53.83
389.45	23.41
389.64	0.00
389.84	0.00
390.03	93.62
390.22	58.51
390.42	77.24
390.61	0.00
390.81	0.00
391.00	28.09
391.19	0.00
391.39	0.00
391.58	9.36
391.78	81.92
391.97	0.00
392.16	0.00
392.36	37.45
392.55	72.56
392.75	0.00
392.94	74.90
393.13	126.39
393.33	65.54
393.52	0.00
393.71	9.36
393.91	74.90
394.10	18.72
394.29	0.00
394.49	7.02
394.68	28.09
394.88	63.19
395.07	11.70
395.26	65.54
395.46	0.00
395.65	0.00
395.84	56.17
396.04	9.36
396.23	0.00
396.42	63.19
396.62	42.13
396.81	60.85
397.00	63.19
397.19	0.00
397.39	11.70
397.58	25.75
397.77	56.17
397.97	51.49
398.16	0.00
398.35	11.70
398.55	81.92
398.74	0.00
398.93	16.38
399.12	2.34
399.32	18.72
399.51	23.41
399.70	56.17
399.90	72.56
400.09	60.85
400.28	18.72
400.47	0.00
400.67	37.45
400.86	37.45
401.05	35.11
401.24	58.51
401.44	0.00
401.63	37.45
401.82	95.96
402.01	51.49
402.21	93.62
402.40	0.00
402.59	49.15
402.78	23.41
402.97	28.09
403.17	67.88
403.36	0.00
403.55	0.00
403.74	42.13
403.93	35.11
404.13	16.38
404.32	0.00
404.51	72.56
404.70	79.58
404.89	0.00
405.09	35.11
405.28	35.11
405.47	44.47
405.66	0.00
405.85	51.49
406.05	4.68
406.24	28.09
406.43	11.70
406.62	0.00
406.81	14.04
407.00	9.36
407.20	74.90
407.39	21.06
407.58	0.00
407.77	0.00
407.96	49.15
408.15	0.00
408.34	63.19
408.54	0.00
408.73	7.02
408.92	77.24
409.11	42.13
409.30	0.00
409.49	21.06
409.68	70.22
409.87	23.41
410.07	0.00
410.26	16.38
410.45	72.56
410.64	28.09
410.83	51.49
411.02	58.51
411.21	0.00
411.40	4.68
411.59	21.06
411.78	30.43
411.98	79.58
412.17	14.04
412.36	81.92
412.55	0.00
412.74	30.43
412.93	0.00
413.12	56.17
413.31	131.07
413.50	0.00
413.69	0.00
413.88	35.11
414.07	42.13
414.26	9.36
414.45	51.49
414.64	74.90
414.83	23.41
415.02	32.77
415.22	93.62
415.41	100.64
415.60	53.83
415.79	35.11
415.98	46.81
416.17	30.43
416.36	0.00
416.55	21.06
416.74	0.00
416.93	39.79
417.12	21.06
417.31	35.11
417.50	86.60
417.69	18.72
417.88	0.00
418.07	98.30
418.26	0.00
418.45	30.43
418.64	56.17
418.83	51.49
419.02	77.24
419.21	0.00
419.39	4.68
419.58	11.70
419.77	44.47
419.96	23.41
420.15	0.00
420.34	102.98
420.53	16.38
420.72	44.47
420.91	0.00
421.10	37.45
421.29	30.43
421.48	42.13
421.67	0.00
421.86	65.54
422.05	0.00
422.24	0.00
422.43	0.00
422.61	0.00
422.80	21.06
422.99	84.26
423.18	35.11
423.37	51.49
423.56	0.00
423.75	32.77
423.94	0.00
424.13	0.00
424.32	32.77
424.50	42.13
424.69	21.06
424.88	11.70
425.07	11.70
425.26	28.09
425.45	32.77
425.64	30.43
425.83	0.00
426.01	0.00
426.20	4.68
426.39	0.00
426.58	49.15
426.77	0.00
426.96	4.68
427.15	0.00
427.33	51.49
427.52	14.04
427.71	0.00
427.90	49.15
428.09	32.77
428.28	35.11
428.46	37.45
428.65	25.75
428.84	4.68
429.03	56.17
429.22	32.77
429.40	53.83
429.59	2.34
429.78	0.00
429.97	0.00
430.16	30.43
430.34	0.00
430.53	91.28
430.72	79.58
430.91	0.00
431.10	14.04
431.28	0.00
431.47	0.00
431.66	49.15
431.85	0.00
432.03	70.22
432.22	30.43
432.41	0.00
432.60	16.38
432.79	35.11
432.97	25.75
433.16	37.45
433.35	7.02
433.54	21.06
433.72	37.45
433.91	0.00
434.10	2.34
434.28	44.47
434.47	145.11
434.66	51.49
434.85	44.47
435.03	16.38
435.22	0.00
435.41	70.22
435.59	81.92
435.78	39.79
435.97	11.70
436.16	0.00
436.34	18.72
436.53	65.54
436.72	84.26
436.90	0.00
437.09	49.15
437.28	0.00
437.46	32.77
437.65	124.05
437.84	70.22
438.02	72.56
438.21	49.15
438.40	49.15
438.58	70.22
438.77	77.24
438.96	11.70
439.14	53.83
439.33	46.81
439.52	63.19
439.70	9.36
439.89	81.92
440.08	67.88
440.26	32.77
440.45	79.58
440.63	25.75
440.82	58.51
441.01	21.06
441.19	86.60
441.38	0.00
441.57	95.96
441.75	32.77
441.94	0.00
442.12	23.41
442.31	98.30
442.50	25.75
442.68	28.09
442.87	0.00
443.05	56.17
443.24	0.00
443.43	84.26
443.61	42.13
443.80	32.77
443.98	56.17
444.17	51.49
444.35	56.17
444.54	0.00
444.73	0.00
444.91	65.54
445.10	25.75
445.28	131.07
445.47	46.81
445.65	0.00
445.84	65.54
446.02	35.11
446.21	0.00
446.39	0.00
446.58	58.51
446.77	51.49
446.95	18.72
447.14	95.96
447.32	9.36
447.51	37.45
447.69	39.79
447.88	0.00
448.06	58.51
448.25	0.00
448.43	0.00
448.62	0.00
448.80	0.00
448.99	60.85
449.17	65.54
449.36	9.36
449.54	65.54
449.73	0.00
449.91	39.79
450.10	32.77
450.28	74.90
450.46	37.45
450.65	28.09
450.83	21.06
451.02	35.11
451.20	39.79
451.39	23.41
451.57	51.49
451.76	46.81
451.94	16.38
452.13	72.56
452.31	35.11
452.49	67.88
452.68	0.00
452.86	119.37
453.05	0.00
453.23	35.11
453.42	39.79
453.60	53.83
453.78	28.09
453.97	0.00
454.15	0.00
454.34	30.43
454.52	0.00
454.70	0.00
454.89	39.79
455.07	0.00
455.26	49.15
455.44	2.34
455.62	2.34
455.81	0.00
455.99	0.00
456.17	14.04
456.36	63.19
456.54	37.45
456.73	0.00
456.91	14.04
457.09	21.06
457.28	0.00
457.46	46.81
457.64	56.17
457.83	81.92
458.01	35.11
458.19	39.79
458.38	0.00
458.56	16.38
458.74	30.43
458.93	11.70
459.11	51.49
459.29	30.43
459.48	53.83
459.66	35.11
459.84	25.75
460.03	51.49
460.21	32.77
460.39	74.90
460.57	88.94
460.76	63.19
460.94	70.22
461.12	49.15
461.31	2.34
461.49	175.54
461.67	23.41
461.85	23.41
462.04	49.15
462.22	72.56
462.40	32.77
462.59	42.13
462.77	23.41
462.95	9.36
463.13	72.56
463.32	60.85
463.50	28.09
463.68	0.00
463.86	25.75
464.05	9.36
464.23	51.49
464.41	44.47
464.59	0.00
464.78	11.70
464.96	23.41
465.14	4.68
465.32	16.38
465.50	60.85
465.69	30.43
465.87	23.41
466.05	2.34
466.23	16.38
466.41	53.83
466.60	88.94
466.78	30.43
466.96	2.34
467.14	0.00
467.32	72.56
467.51	0.00
467.69	77.24
467.87	56.17
468.05	0.00
468.23	21.06
468.41	23.41
468.60	0.00
468.78	0.00
468.96	49.15
469.14	14.04
469.32	63.19
469.50	0.00
469.69	16.38
469.87	60.85
470.05	58.51
470.23	56.17
470.41	35.11
470.59	23.41
470.77	56.17
470.95	74.90
471.14	21.06
471.32	63.19
471.50	56.17
471.68	9.36
471.86	42.13
472.04	39.79
472.22	4.68
472.40	23.41
472.58	56.17
472.77	0.00
472.95	37.45
473.13	21.06
473.31	58.51
473.49	58.51
473.67	88.94
473.85	70.22
474.03	58.51
474.21	140.43
474.39	63.19
474.57	65.54
474.75	42.13
474.93	11.70
475.12	7.02
475.30	0.00
475.48	37.45
475.66	23.41
475.84	16.38
476.02	18.72
476.20	16.38
476.38	11.70
476.56	11.70
476.74	70.22
476.92	49.15
477.10	65.54
477.28	39.79
477.46	11.70
477.64	0.00
477.82	74.90
478.00	67.88
478.18	67.88
478.36	32.77
478.54	81.92
478.72	72.56
478.90	53.83
479.08	46.81
479.26	0.00
479.44	37.45
479.62	39.79
479.80	28.09
479.98	0.00
480.16	0.00
480.34	37.45
480.52	30.43
480.70	14.04
480.88	2.34
481.06	37.45
481.24	4.68
481.41	56.17
481.59	42.13
481.77	23.41
481.95	0.00
482.13	14.04
482.31	0.00
482.49	58.51
482.67	44.47
482.85	112.35
483.03	32.77
483.21	95.96
483.39	0.00
483.57	112.35
483.74	70.22
483.92	14.04
484.10	74.90
484.28	58.51
484.46	0.00
484.64	49.15
484.82	2.34
485.00	58.51
485.18	39.79
485.35	9.36
485.53	0.00
485.71	21.06
485.89	0.00
486.07	30.43
486.25	21.06
486.43	63.19
486.61	25.75
486.78	14.04
486.96	0.00
487.14	56.17
487.32	121.71
487.50	9.36
487.68	0.00
487.85	91.28
488.03	70.22
488.21	95.96
488.39	46.81
488.57	39.79
488.75	32.77
488.92	28.09
489.10	53.83
489.28	0.00
489.46	35.11
489.64	58.51
489.81	60.85
489.99	0.00
490.17	0.00
490.35	18.72
490.53	74.90
490.70	11.70
490.88	60.85
491.06	65.54
491.24	14.04
491.41	2.34
491.59	25.75
491.77	11.70
491.95	30.43
492.13	0.00
492.30	0.00
492.48	7.02
492.66	60.85
492.84	65.54
493.01	25.75
493.19	0.00
493.37	21.06
493.54	30.43
493.72	0.00
493.90	77.24
494.08	0.00
494.25	46.81
494.43	7.02
494.61	49.15
494.79	32.77
494.96	21.06
495.14	112.35
495.32	32.77
495.49	35.11
495.67	28.09
495.85	70.22
496.02	0.00
496.20	0.00
496.38	0.00
496.55	0.00
496.73	0.00
496.91	79.58
497.09	84.26
497.26	21.06
497.44	51.49
497.62	53.83
497.79	0.00
497.97	28.09
498.14	0.00
498.32	0.00
498.50	16.38
498.67	65.54
498.85	44.47
499.03	32.77
499.20	39.79
499.38	46.81
499.56	32.77
499.73	46.81
499.91	74.90
500.08	58.51
500.26	84.26
500.44	56.17
500.61	67.88
500.79	105.32
500.97	84.26
501.14	37.45
501.32	86.60
501.49	44.47
501.67	7.02
501.84	9.36
502.02	95.96
502.20	0.00
502.37	53.83
502.55	63.19
502.72	0.00
502.90	30.43
503.07	28.09
503.25	11.70
503.43	39.79
503.60	51.49
503.78	14.04
503.95	23.41
504.13	7.02
504.30	51.49
504.48	0.00
504.65	23.41
504.83	14.04
505.01	25.75
505.18	56.17
505.36	14.04
505.53	93.62
505.71	37.45
505.88	30.43
506.06	56.17
506.23	11.70
506.41	98.30
506.58	53.83
506.76	77.24
506.93	49.15
507.11	72.56
507.28	119.37
507.46	39.79
507.63	37.45
507.81	46.81
507.98	70.22
508.16	0.00
508.33	16.38
508.50	46.81
508.68	11.70
508.85	39.79
509.03	7.02
509.20	42.13
509.38	53.83
509.55	49.15
509.73	2.34
509.90	16.38
510.08	0.00
510.25	0.00
510.42	23.41
510.60	14.04
510.77	0.00
510.95	4.68
511.12	53.83
511.30	98.30
511.47	46.81
511.64	51.49
511.82	0.00
511.99	0.00
512.17	46.81
512.34	37.45
512.51	11.70
512.69	0.00
512.86	39.79
513.04	16.38
513.21	23.41
513.38	0.00
513.56	30.43
513.73	4.68
513.90	9.36
514.08	21.06
514.25	23.41
514.43	21.06
514.60	14.04
514.77	100.64
514.95	72.56
515.12	32.77
515.29	23.41
515.47	11.70
515.64	28.09
515.81	60.85
515.99	86.60
516.16	32.77
516.33	37.45
516.51	44.47
516.68	88.94
516.85	63.19
517.03	74.90
517.20	9.36
517.37	0.00
517.54	0.00
517.72	79.58
517.89	28.09
518.06	21.06
518.24	63.19
518.41	65.54
518.58	0.00
518.75	18.72
518.93	4.68
519.10	39.79
519.27	70.22
519.45	42.13
519.62	2.34
519.79	84.26
519.96	35.11
520.14	98.30
520.31	74.90
520.48	63.19
520.65	25.75
520.83	21.06
521.00	67.88
521.17	88.94
521.34	30.43
521.52	0.00
521.69	53.83
521.86	60.85
522.03	42.13
522.20	7.02
522.38	72.56
522.55	16.38
522.72	74.90
522.89	0.00
523.07	91.28
523.24	79.58
523.41	93.62
523.58	51.49
523.75	18.72
523.92	28.09
524.10	37.45
524.27	46.81
524.44	98.30
524.61	77.24
524.78	67.88
524.96	58.51
525.13	25.75
525.30	72.56
525.47	74.90
525.64	2.34
525.81	53.83
525.98	46.81
526.16	121.71
526.33	58.51
526.50	0.00
526.67	56.17
526.84	53.83
527.01	0.00
527.18	0.00
527.36	77.24
527.53	56.17
527.70	49.15
527.87	88.94
528.04	25.75
528.21	14.04
528.38	46.81
528.55	0.00
528.72	70.22
528.89	30.43
529.07	58.51
529.24	56.17
529.41	42.13
529.58	18.72
529.75	77.24
529.92	49.15
530.09	77.24
530.26	0.00
530.43	23.41
530.60	46.81
530.77	84.26
530.94	9.36
531.11	88.94
531.28	23.41
531.46	0.00
531.63	49.15
531.80	67.88
531.97	37.45
532.14	9.36
532.31	18.72
532.48	0.00
532.65	86.60
532.82	72.56
532.99	46.81
533.16	7.02
533.33	37.45
533.50	35.11
533.67	88.94
533.84	23.41
534.01	42.13
534.18	72.56
534.35	32.77
534.52	63.19
534.69	32.77
534.86	110.01
535.03	18.72
535.20	63.19
535.37	53.83
535.54	65.54
535.71	60.85
535.88	11.70
536.05	23.41
536.22	18.72
536.38	0.00
536.55	44.47
536.72	79.58
536.89	28.09
537.06	86.60
537.23	46.81
537.40	23.41
537.57	32.77
537.74	93.62
537.91	72.56
538.08	72.56
538.25	70.22
538.42	11.70
538.59	72.56
538.75	39.79
538.92	102.98
539.09	0.00
539.26	18.72
539.43	0.00
539.60	81.92
539.77	72.56
539.94	74.90
540.11	18.72
540.28	35.11
540.44	23.41
540.61	51.49
540.78	58.51
540.95	23.41
541.12	4.68
541.29	63.19
541.46	0.00
541.62	98.30
541.79	60.85
541.96	37.45
542.13	30.43
542.30	0.00
542.47	44.47
542.63	30.43
542.80	110.01
542.97	77.24
543.14	9.36
543.31	49.15
543.48	67.88
543.64	100.64
543.81	91.28
543.98	37.45
544.15	124.05
544.32	28.09
544.48	65.54
544.65	7.02
544.82	119.37
544.99	53.83
545.16	30.43
545.32	0.00
545.49	30.43
545.66	51.49
545.83	0.00
546.00	0.00
546.16	4.68
546.33	37.45
546.50	4.68
546.67	46.81
546.83	93.62
547.00	91.28
547.17	35.11
547.34	42.13
547.50	39.79
547.67	0.00
547.84	72.56
548.00	88.94
548.17	9.36
548.34	0.00
548.51	56.17
548.67	84.26
548.84	21.06
549.01	0.00
549.18	102.98
549.34	107.66
549.51	0.00
549.68	65.54
549.84	9.36
550.01	88.94
550.18	112.35
550.34	28.09
550.51	18.72
550.68	81.92
550.84	56.17
551.01	35.11
551.18	74.90
551.34	112.35
551.51	79.58
551.68	81.92
551.84	46.81
552.01	14.04
552.18	98.30
552.34	11.70
552.51	93.62
552.68	18.72
552.84	32.77
553.01	7.02
553.18	65.54
553.34	14.04
553.51	42.13
553.67	72.56
553.84	30.43
554.01	56.17
554.17	39.79
554.34	37.45
554.51	79.58
554.67	0.00
554.84	63.19
555.00	84.26
555.17	30.43
555.33	67.88
555.50	37.45
555.67	35.11
555.83	102.98
556.00	0.00
556.16	53.83
556.33	84.26
556.50	0.00
556.66	86.60
556.83	0.00
556.99	14.04
557.16	16.38
557.32	11.70
557.49	98.30
557.65	0.00
557.82	46.81
557.98	39.79
558.15	100.64
558.32	0.00
558.48	72.56
558.65	51.49
558.81	65.54
558.98	32.77
559.14	9.36
559.31	14.04
559.47	39.79
559.64	46.81
559.80	53.83
559.97	65.54
560.13	11.70
560.30	23.41
560.46	42.13
560.63	53.83
560.79	32.77
560.96	39.79
561.12	23.41
561.29	58.51
561.45	84.26
561.61	84.26
561.78	58.51
561.94	53.83
562.11	44.47
562.27	56.17
562.44	32.77
562.60	0.00
562.77	70.22
562.93	0.00
563.10	44.47
563.26	51.49
563.42	67.88
563.59	32.77
563.75	0.00
563.92	0.00
564.08	11.70
564.24	37.45
564.41	65.54
564.57	0.00
564.74	119.37
564.90	0.00
565.07	23.41
565.23	63.19
565.39	30.43
565.56	21.06
565.72	35.11
565.88	28.09
566.05	0.00
566.21	11.70
566.38	32.77
566.54	56.17
566.70	0.00
566.87	56.17
567.03	25.75
567.19	46.81
567.36	56.17
567.52	53.83
567.68	0.00
567.85	0.00
568.01	0.00
568.17	60.85
568.34	70.22
568.50	11.70
568.66	42.13
568.83	30.43
568.99	35.11
569.15	58.51
569.32	42.13
569.48	42.13
569.64	65.54
569.81	86.60
569.97	84.26
570.13	56.17
570.30	93.62
570.46	28.09
570.62	7.02
570.78	21.06
570.95	9.36
571.11	72.56
571.27	23.41
571.43	124.05
571.60	28.09
571.76	42.13
571.92	88.94
572.09	28.09
572.25	53.83
572.41	102.98
572.57	84.26
572.74	79.58
572.90	74.90
573.06	18.72
573.22	25.75
573.38	0.00
573.55	74.90
573.71	70.22
573.87	30.43
574.03	63.19
574.20	16.38
574.36	14.04
574.52	58.51
574.68	56.17
574.84	0.00
575.01	63.19
575.17	67.88
575.33	39.79
575.49	4.68
575.65	53.83
575.82	70.22
575.98	46.81
576.14	110.01
576.30	53.83
576.46	23.41
576.62	70.22
576.79	100.64
576.95	42.13
577.11	18.72
577.27	44.47
577.43	100.64
577.59	30.43
577.75	0.00
577.92	7.02
578.08	81.92
578.24	4.68
578.40	37.45
578.56	79.58
578.72	56.17
578.88	4.68
579.04	35.11
579.21	18.72
579.37	72.56
579.53	79.58
579.69	28.09
579.85	39.79
580.01	88.94
580.17	37.45
580.33	0.00
580.49	0.00
580.65	42.13
580.82	77.24
580.98	0.00
581.14	28.09
581.30	42.13
581.46	51.49
581.62	14.04
581.78	28.09
581.94	0.00
582.10	84.26
582.26	0.00
582.42	70.22
582.58	119.37
582.74	58.51
582.90	7.02
583.06	79.58
583.22	51.49
583.38	72.56
583.54	4.68
583.70	0.00
583.86	60.85
584.02	0.00
584.18	37.45
584.34	84.26
584.50	98.30
584.66	0.00
584.82	28.09
584.98	60.85
585.14	110.01
585.30	28.09
585.46	46.81
585.62	70.22
585.78	42.13
585.94	107.66
586.10	0.00
586.26	35.11
586.42	0.00
586.58	74.90
586.74	32.77
586.90	58.51
587.06	0.00
587.22	44.47
587.38	0.00
587.54	4.68
587.70	16.38
587.86	53.83
588.02	49.15
588.18	128.73
588.34	0.00
588.49	67.88
588.65	28.09
588.81	65.54
588.97	51.49
589.13	53.83
589.29	4.68
589.45	0.00
589.61	25.75
589.77	0.00
589.93	21.06
590.08	46.81
590.24	60.85
590.40	49.15
590.56	0.00
590.72	49.15
590.88	63.19
591.04	9.36
591.20	18.72
591.35	28.09
591.51	39.79
591.67	35.11
591.83	56.17
591.99	63.19
592.15	67.88
592.31	91.28
592.46	21.06
592.62	70.22
592.78	42.13
592.94	49.15
593.10	0.00
593.26	25.75
593.41	49.15
593.57	2.34
593.73	0.00
593.89	32.77
594.05	98.30
594.20	60.85
594.36	67.88
594.52	21.06
594.68	9.36
594.84	11.70
594.99	58.51
595.15	53.83
595.31	51.49
595.47	51.49
595.62	0.00
595.78	28.09
595.94	39.79
596.10	23.41
596.25	4.68
596.41	0.00
596.57	16.38
596.73	51.49
596.88	0.00
597.04	53.83
597.20	28.09
597.36	0.00
597.51	14.04
597.67	32.77
597.83	42.13
597.99	53.83
598.14	46.81
598.30	0.00
598.46	37.45
598.61	9.36
598.77	9.36
598.93	0.00
599.09	49.15
599.24	53.83
599.40	46.81
599.56	37.45
599.71	114.69
599.87	0.00
600.03	14.04
600.18	11.70
600.34	0.00
600.50	102.98
600.65	21.06
600.81	51.49
600.97	0.00
601.12	18.72
601.28	0.00
601.44	86.60
601.59	84.26
601.75	0.00
601.91	110.01
602.06	30.43
602.22	46.81
602.37	11.70
602.53	32.77
602.69	37.45
602.84	65.54
603.00	51.49
603.16	44.47
603.31	67.88
603.47	67.88
603.62	23.41
603.78	4.68
603.94	0.00
604.09	35.11
604.25	9.36
604.40	63.19
604.56	28.09
604.71	9.36
604.87	49.15
605.03	2.34
605.18	60.85
605.34	0.00
605.49	42.13
605.65	37.45
605.80	0.00
605.96	49.15
606.12	86.60
606.27	16.38
606.43	49.15
606.58	21.06
606.74	16.38
606.89	21.06
607.05	23.41
607.20	44.47
607.36	51.49
607.51	42.13
607.67	0.00
607.82	56.17
607.98	51.49
608.13	0.00
608.29	0.00
608.44	77.24
608.60	95.96
608.75	63.19
608.91	98.30
609.06	74.90
609.22	46.81
609.37	74.90
609.53	102.98
609.68	9.36
609.84	32.77
609.99	32.77
610.15	86.60
610.30	30.43
610.46	91.28
610.61	84.26
610.76	0.00
610.92	84.26
611.07	53.83
611.23	88.94
611.38	0.00
611.54	0.00
611.69	81.92
611.84	65.54
612.00	145.11
612.15	9.36
612.31	0.00
612.46	16.38
612.62	0.00
612.77	28.09
612.92	56.17
613.08	30.43
613.23	21.06
613.39	30.43
613.54	72.56
613.69	0.00
613.85	53.83
614.00	35.11
614.15	0.00
614.31	39.79
614.46	23.41
614.62	63.19
614.77	67.88
614.92	35.11
615.08	0.00
615.23	2.34
615.38	58.51
615.54	0.00
615.69	0.00
615.84	0.00
616.00	56.17
616.15	32.77
616.30	16.38
616.46	28.09
616.61	35.11
616.76	133.41
616.92	23.41
617.07	25.75
617.22	70.22
617.37	44.47
617.53	70.22
617.68	28.09
617.83	0.00
617.99	67.88
618.14	2.34
618.29	126.39
618.45	32.77
618.60	70.22
618.75	128.73
618.90	16.38
619.06	56.17
619.21	42.13
619.36	0.00
619.51	0.00
619.67	74.90
619.82	23.41
619.97	81.92
620.12	91.28
620.28	56.17
620.43	37.45
620.58	16.38
620.73	18.72
620.89	4.68
621.04	9.36
621.19	77.24
621.34	81.92
621.49	53.83
621.65	67.88
621.80	7.02
621.95	25.75
622.10	67.88
622.25	46.81
622.41	0.00
622.56	32.77
622.71	37.45
622.86	0.00
623.01	65.54
623.16	37.45
623.32	21.06
623.47	51.49
623.62	35.11
623.77	60.85
623.92	135.75
624.07	63.19
624.23	0.00
624.38	0.00
624.53	44.47
624.68	30.43
624.83	14.04
624.98	65.54
625.13	67.88
625.29	14.04
625.44	112.35
625.59	0.00
625.74	77.24
625.89	0.00
626.04	0.00
626.19	16.38
626.34	0.00
626.49	14.04
626.65	28.09
626.80	0.00
626.95	2.34
627.10	49.15
627.25	9.36
627.40	9.36
627.55	0.00
627.70	18.72
627.85	25.75
628.00	42.13
628.15	30.43
628.30	0.00
628.45	51.49
628.60	21.06
628.76	37.45
628.91	51.49
629.06	95.96
629.21	77.24
629.36	42.13
629.51	42.13
629.66	77.24
629.81	117.03
629.96	72.56
630.11	28.09
630.26	35.11
630.41	0.00
630.56	70.22
630.71	14.04
630.86	81.92
631.01	16.38
631.16	51.49
631.31	77.24
631.46	30.43
631.61	7.02
631.76	4.68
631.91	58.51
632.06	18.72
632.21	23.41
632.36	30.43
632.51	51.49
632.66	0.00
632.81	37.45
632.96	18.72
633.10	23.41
633.25	7.02
633.40	14.04
633.55	51.49
633.70	9.36
633.85	65.54
634.00	0.00
634.15	11.70
634.30	51.49
634.45	35.11
634.60	16.38
634.75	2.34
634.90	25.75
635.05	112.35
635.19	0.00
635.34	67.88
635.49	23.41
635.64	0.00
635.79	23.41
635.94	0.00
636.09	35.11
636.24	28.09
636.39	114.69
636.53	110.01
636.68	30.43
636.83	72.56
636.98	100.64
637.13	65.54
637.28	46.81
637.43	51.49
637.57	128.73
637.72	35.11
637.87	35.11
638.02	77.24
638.17	0.00
638.32	25.75
638.46	9.36
638.61	25.75
638.76	93.62
638.91	18.72
639.06	4.68
639.20	16.38
639.35	60.85
639.50	14.04
639.65	18.72
639.80	70.22
639.94	95.96
640.09	32.77
640.24	18.72
640.39	7.02
640.54	37.45
640.68	0.00
640.83	0.00
640.98	21.06
641.13	0.00
641.27	23.41
641.42	88.94
641.57	0.00
641.72	0.00
641.86	65.54
642.01	23.41
642.16	65.54
642.31	23.41
642.45	7.02
642.60	0.00
642.75	11.70
642.90	46.81
643.04	105.32
643.19	0.00
643.34	0.00
643.48	37.45
643.63	0.00
643.78	86.60
643.93	58.51
644.07	28.09
644.22	63.19
644.37	102.98
644.51	107.66
644.66	58.51
644.81	77.24
644.95	0.00
645.10	35.11
645.25	0.00
645.39	0.00
645.54	2.34
645.69	65.54
645.83	46.81
645.98	35.11
646.13	105.32
646.27	65.54
646.42	39.79
646.57	0.00
646.71	133.41
646.86	74.90
647.00	60.85
647.15	0.00
647.30	0.00
647.44	18.72
647.59	11.70
647.74	74.90
647.88	77.24
648.03	0.00
648.17	67.88
648.32	9.36
648.47	35.11
648.61	42.13
648.76	11.70
648.90	0.00
649.05	18.72
649.20	67.88
649.34	25.75
649.49	0.00
649.63	21.06
649.78	56.17
649.92	28.09
650.07	60.85
650.21	86.60
650.36	79.58
650.51	0.00
650.65	0.00
650.80	74.90
650.94	0.00
651.09	0.00
651.23	23.41
651.38	25.75
651.52	39.79
651.67	2.34
651.81	35.11
651.96	42.13
652.10	32.77
652.25	0.00
652.39	79.58
652.54	77.24
652.68	53.83
652.83	46.81
652.97	9.36
653.12	51.49
653.26	4.68
653.41	0.00
653.55	28.09
653.70	0.00
653.84	60.85
653.99	77.24
654.13	28.09
654.27	9.36
654.42	0.00
654.56	93.62
654.71	0.00
654.85	4.68
655.00	11.70
655.14	70.22
655.29	35.11
655.43	0.00
655.57	49.15
655.72	0.00
655.86	77.24
656.01	117.03
656.15	51.49
656.30	37.45
656.44	30.43
656.58	25.75
656.73	53.83
656.87	93.62
657.01	42.13
657.16	32.77
657.30	86.60
657.45	37.45
657.59	28.09
657.73	42.13
657.88	0.00
658.02	35.11
658.16	105.32
658.31	107.66
658.45	35.11
658.60	0.00
658.74	39.79
658.88	25.75
659.03	4.68
659.17	131.07
659.31	0.00
659.46	79.58
659.60	25.75
659.74	7.02
659.89	56.17
660.03	9.36
660.17	56.17
660.32	30.43
660.46	0.00
660.60	14.04
660.74	30.43
660.89	58.51
661.03	35.11
661.17	95.96
661.32	46.81
661.46	44.47
661.60	0.00
661.74	0.00
661.89	51.49
662.03	65.54
662.17	102.98
662.31	72.56
662.46	0.00
662.60	4.68
662.74	28.09
662.88	39.79
663.03	14.04
663.17	107.66
663.31	58.51
663.45	0.00
663.60	91.28
663.74	0.00
663.88	49.15
664.02	56.17
664.17	42.13
664.31	9.36
664.45	28.09
664.59	77.24
664.73	51.49
664.88	32.77
665.02	74.90
665.16	23.41
665.30	21.06
665.44	67.88
665.59	44.47
665.73	0.00
665.87	9.36
666.01	0.00
666.15	39.79
666.29	11.70
666.44	0.00
666.58	81.92
666.72	0.00
666.86	30.43
667.00	11.70
667.14	63.19
667.28	0.00
667.43	53.83
667.57	44.47
667.71	28.09
667.85	56.17
667.99	4.68
668.13	79.58
668.27	44.47
668.41	37.45
668.56	56.17
668.70	49.15
668.84	37.45
668.98	11.70
669.12	32.77
669.26	35.11
669.40	9.36
669.54	63.19
669.68	44.47
669.82	0.00
669.96	11.70
670.10	28.09
670.25	44.47
670.39	0.00
670.53	58.51
670.67	14.04
670.81	28.09
670.95	81.92
671.09	39.79
671.23	0.00
671.37	14.04
671.51	65.54
671.65	30.43
671.79	84.26
671.93	30.43
672.07	60.85
672.21	32.77
672.35	18.72
672.49	30.43
672.63	28.09
672.77	37.45
672.91	16.38
673.05	16.38
673.19	49.15
673.33	14.04
673.47	67.88
673.61	77.24
673.75	39.79
673.89	79.58
674.03	0.00
674.17	91.28
674.31	0.00
674.45	18.72
674.59	44.47
674.73	7.02
674.87	14.04
675.01	0.00
675.15	0.00
675.29	65.54
675.43	21.06
675.56	14.04
675.70	30.43
675.84	65.54
675.98	0.00
676.12	93.62
676.26	9.36
676.40	0.00
676.54	65.54
676.68	65.54
676.82	67.88
676.96	23.41
677.10	51.49
677.23	18.72
677.37	51.49
677.51	63.19
677.65	58.51
677.79	16.38
677.93	28.09
678.07	4.68
678.21	35.11
678.34	46.81
678.48	11.70
678.62	79.58
678.76	39.79
678.90	126.39
679.04	95.96
679.18	35.11
679.31	7.02
679.45	16.38
679.59	0.00
679.73	0.00
679.87	0.00
680.00	28.09
680.14	46.81
680.28	25.75
680.42	16.38
680.56	117.03
680.70	63.19
680.83	30.43
680.97	23.41
681.11	7.02
681.25	37.45
681.39	11.70
681.52	0.00
681.66	56.17
681.80	30.43
681.94	35.11
682.07	49.15
682.21	35.11
682.35	95.96
682.49	28.09
682.62	56.17
682.76	67.88
682.90	0.00
683.04	46.81
683.17	88.94
683.31	30.43
683.45	0.00
683.59	23.41
683.72	0.00
683.86	37.45
684.00	25.75
684.13	28.09
684.27	124.05
684.41	16.38
684.55	28.09
684.68	0.00
684.82	4.68
684.96	49.15
685.09	0.00
685.23	25.75
685.37	37.45
685.50	72.56
685.64	67.88
685.78	18.72
685.91	56.17
686.05	65.54
686.19	0.00
686.32	42.13
686.46	49.15
686.60	21.06
686.73	9.36
686.87	63.19
687.01	21.06
687.14	0.00
687.28	135.75
687.42	44.47
687.55	0.00
687.69	0.00
687.82	42.13
687.96	16.38
688.10	124.05
688.23	72.56
688.37	0.00
688.50	14.04
688.64	37.45
688.78	44.47
688.91	60.85
689.05	0.00
689.18	21.06
689.32	51.49
689.46	0.00
689.59	35.11
689.73	72.56
689.86	105.32
690.00	46.81
690.13	95.96
690.27	0.00
690.41	25.75
690.54	32.77
690.68	32.77
690.81	102.98
690.95	23.41
691.08	25.75
691.22	53.83
691.35	28.09
691.49	63.19
691.62	32.77
691.76	51.49
691.89	9.36
692.03	56.17
692.16	46.81
692.30	0.00
692.43	42.13
692.57	2.34
692.70	30.43
692.84	0.00
692.97	11.70
693.11	84.26
693.24	46.81
693.38	0.00
693.51	0.00
693.65	37.45
693.78	0.00
693.92	9.36
694.05	18.72
694.19	2.34
694.32	4.68
694.45	0.00
694.59	39.79
694.72	100.64
694.86	60.85
694.99	110.01
695.13	0.00
695.26	51.49
695.39	4.68
695.53	86.60
695.66	35.11
695.80	21.06
695.93	46.81
696.07	9.36
696.20	102.98
696.33	0.00
696.47	0.00
696.60	39.79
696.73	7.02
696.87	63.19
697.00	86.60
697.14	0.00
697.27	0.00
697.40	11.70
697.54	49.15
697.67	11.70
697.80	37.45
697.94	65.54
698.07	51.49
698.21	88.94
698.34	58.51
698.47	32.77
698.61	0.00
698.74	23.41
698.87	0.00
699.01	18.72
699.14	149.79
699.27	63.19
699.40	63.19
699.54	28.09
699.67	67.88
699.80	0.00
699.94	0.00
700.07	32.77
700.20	0.00
700.34	98.30
700.47	23.41
700.60	25.75
700.73	49.15
700.87	44.47
701.00	0.00
701.13	30.43
701.26	0.00
701.40	77.24
701.53	51.49
701.66	35.11
701.79	77.24
701.93	14.04
702.06	39.79
702.19	11.70
702.32	14.04
702.46	28.09
702.59	70.22
702.72	39.79
702.85	58.51
702.99	4.68
703.12	58.51
703.25	25.75
703.38	86.60
703.51	39.79
703.65	39.79
703.78	9.36
703.91	51.49
704.04	98.30
704.17	42.13
704.31	11.70
704.44	77.24
704.57	7.02
704.70	25.75
704.83	2.34
704.96	28.09
705.10	35.11
705.23	2.34
>>>>>End Processed Spectral Data<<<<<
