SpectraSuite Data File
++++++++++++++++++++++++++++++++++++
Date: Fri Oct 04 12:13:34 GMT-05:00 2013
User: price-jones
Dark Spectrum Present: No
Reference Spectrum Present: No
Number of Sampled Component Spectra: 1
Spectrometers: USB2+H05261
Integration Time (usec): 10000 (USB2+H05261)
Spectra Averaged: 1 (USB2+H05261)
Boxcar Smoothing: 0 (USB2+H05261)
Correct for Electrical Dark: No (USB2+H05261)
Strobe/Lamp Enabled: No (USB2+H05261)
Correct for Detector Non-linearity: No (USB2+H05261)
Correct for Stray Light: No (USB2+H05261)
Number of Pixels in Processed Spectrum: 2048
>>>>>Begin Processed Spectral Data<<<<<
365.73	7.02
365.92	7.02
366.12	7.02
366.32	0.00
366.52	0.00
366.72	0.00
366.91	0.00
367.11	0.00
367.31	0.00
367.51	0.00
367.70	0.00
367.90	0.00
368.10	0.00
368.30	0.00
368.49	0.00
368.69	0.00
368.89	0.00
369.09	0.00
369.28	0.00
369.48	0.00
369.68	0.00
369.87	0.00
370.07	0.00
370.27	0.00
370.47	0.00
370.66	0.00
370.86	0.00
371.06	0.00
371.25	4.68
371.45	0.00
371.65	0.00
371.84	0.00
372.04	23.41
372.24	0.00
372.44	0.00
372.63	0.00
372.83	7.02
373.03	42.13
373.22	21.06
373.42	32.77
373.62	0.00
373.81	0.00
374.01	0.00
374.21	56.17
374.40	72.56
374.60	65.54
374.79	23.41
374.99	39.79
375.19	74.90
375.38	74.90
375.58	67.88
375.78	9.36
375.97	25.75
376.17	53.83
376.37	35.11
376.56	7.02
376.76	91.28
376.95	21.06
377.15	51.49
377.35	74.90
377.54	39.79
377.74	0.00
377.93	0.00
378.13	39.79
378.33	0.00
378.52	0.00
378.72	0.00
378.91	0.00
379.11	98.30
379.31	28.09
379.50	39.79
379.70	9.36
379.89	0.00
380.09	0.00
380.28	21.06
380.48	25.75
380.68	7.02
380.87	105.32
381.07	16.38
381.26	0.00
381.46	28.09
381.65	46.81
381.85	0.00
382.04	74.90
382.24	0.00
382.43	63.19
382.63	74.90
382.83	23.41
383.02	4.68
383.22	84.26
383.41	37.45
383.61	30.43
383.80	16.38
384.00	4.68
384.19	51.49
384.39	56.17
384.58	30.43
384.78	44.47
384.97	0.00
385.17	0.00
385.36	93.62
385.56	21.06
385.75	21.06
385.95	56.17
386.14	14.04
386.34	0.00
386.53	9.36
386.72	0.00
386.92	60.85
387.11	4.68
387.31	72.56
387.50	110.01
387.70	23.41
387.89	0.00
388.09	7.02
388.28	11.70
388.48	32.77
388.67	4.68
388.86	88.94
389.06	4.68
389.25	21.06
389.45	37.45
389.64	2.34
389.84	51.49
390.03	39.79
390.22	0.00
390.42	0.00
390.61	0.00
390.81	0.00
391.00	28.09
391.19	0.00
391.39	56.17
391.58	98.30
391.78	14.04
391.97	32.77
392.16	88.94
392.36	0.00
392.55	0.00
392.75	0.00
392.94	0.00
393.13	32.77
393.33	51.49
393.52	51.49
393.71	39.79
393.91	32.77
394.10	23.41
394.29	0.00
394.49	0.00
394.68	25.75
394.88	21.06
395.07	35.11
395.26	35.11
395.46	9.36
395.65	18.72
395.84	14.04
396.04	25.75
396.23	112.35
396.42	4.68
396.62	25.75
396.81	28.09
397.00	32.77
397.19	58.51
397.39	49.15
397.58	0.00
397.77	0.00
397.97	0.00
398.16	84.26
398.35	39.79
398.55	25.75
398.74	51.49
398.93	51.49
399.12	4.68
399.32	46.81
399.51	42.13
399.70	42.13
399.90	0.00
400.09	0.00
400.28	98.30
400.47	49.15
400.67	18.72
400.86	0.00
401.05	0.00
401.24	42.13
401.44	0.00
401.63	0.00
401.82	0.00
402.01	81.92
402.21	32.77
402.40	0.00
402.59	0.00
402.78	0.00
402.97	0.00
403.17	42.13
403.36	49.15
403.55	72.56
403.74	74.90
403.93	65.54
404.13	81.92
404.32	98.30
404.51	2.34
404.70	14.04
404.89	53.83
405.09	4.68
405.28	102.98
405.47	0.00
405.66	18.72
405.85	84.26
406.05	16.38
406.24	25.75
406.43	42.13
406.62	56.17
406.81	30.43
407.00	0.00
407.20	25.75
407.39	0.00
407.58	70.22
407.77	0.00
407.96	49.15
408.15	0.00
408.34	39.79
408.54	42.13
408.73	32.77
408.92	60.85
409.11	102.98
409.30	0.00
409.49	81.92
409.68	0.00
409.87	35.11
410.07	2.34
410.26	0.00
410.45	28.09
410.64	30.43
410.83	58.51
411.02	16.38
411.21	112.35
411.40	79.58
411.59	25.75
411.78	49.15
411.98	65.54
412.17	91.28
412.36	110.01
412.55	39.79
412.74	49.15
412.93	88.94
413.12	21.06
413.31	0.00
413.50	88.94
413.69	14.04
413.88	14.04
414.07	21.06
414.26	37.45
414.45	46.81
414.64	4.68
414.83	91.28
415.02	44.47
415.22	4.68
415.41	14.04
415.60	0.00
415.79	25.75
415.98	88.94
416.17	37.45
416.36	72.56
416.55	0.00
416.74	114.69
416.93	23.41
417.12	18.72
417.31	30.43
417.50	102.98
417.69	23.41
417.88	51.49
418.07	74.90
418.26	53.83
418.45	9.36
418.64	58.51
418.83	39.79
419.02	63.19
419.21	65.54
419.39	16.38
419.58	0.00
419.77	70.22
419.96	0.00
420.15	37.45
420.34	14.04
420.53	51.49
420.72	58.51
420.91	35.11
421.10	56.17
421.29	49.15
421.48	0.00
421.67	117.03
421.86	49.15
422.05	42.13
422.24	0.00
422.43	77.24
422.61	39.79
422.80	79.58
422.99	35.11
423.18	42.13
423.37	88.94
423.56	112.35
423.75	32.77
423.94	0.00
424.13	23.41
424.32	25.75
424.50	42.13
424.69	56.17
424.88	84.26
425.07	32.77
425.26	23.41
425.45	51.49
425.64	2.34
425.83	67.88
426.01	35.11
426.20	0.00
426.39	28.09
426.58	74.90
426.77	0.00
426.96	18.72
427.15	21.06
427.33	0.00
427.52	11.70
427.71	39.79
427.90	51.49
428.09	58.51
428.28	21.06
428.46	95.96
428.65	67.88
428.84	56.17
429.03	79.58
429.22	86.60
429.40	9.36
429.59	124.05
429.78	51.49
429.97	25.75
430.16	46.81
430.34	0.00
430.53	28.09
430.72	44.47
430.91	65.54
431.10	117.03
431.28	86.60
431.47	32.77
431.66	86.60
431.85	23.41
432.03	14.04
432.22	28.09
432.41	72.56
432.60	32.77
432.79	72.56
432.97	70.22
433.16	32.77
433.35	35.11
433.54	58.51
433.72	84.26
433.91	91.28
434.10	93.62
434.28	0.00
434.47	39.79
434.66	21.06
434.85	60.85
435.03	42.13
435.22	60.85
435.41	74.90
435.59	35.11
435.78	14.04
435.97	72.56
436.16	49.15
436.34	67.88
436.53	0.00
436.72	44.47
436.90	18.72
437.09	11.70
437.28	30.43
437.46	44.47
437.65	25.75
437.84	28.09
438.02	51.49
438.21	0.00
438.40	0.00
438.58	25.75
438.77	42.13
438.96	98.30
439.14	4.68
439.33	53.83
439.52	35.11
439.70	0.00
439.89	65.54
440.08	0.00
440.26	105.32
440.45	51.49
440.63	88.94
440.82	39.79
441.01	70.22
441.19	0.00
441.38	98.30
441.57	49.15
441.75	65.54
441.94	63.19
442.12	23.41
442.31	81.92
442.50	58.51
442.68	67.88
442.87	91.28
443.05	32.77
443.24	25.75
443.43	79.58
443.61	18.72
443.80	2.34
443.98	0.00
444.17	56.17
444.35	70.22
444.54	18.72
444.73	9.36
444.91	0.00
445.10	0.00
445.28	63.19
445.47	95.96
445.65	56.17
445.84	70.22
446.02	56.17
446.21	0.00
446.39	56.17
446.58	25.75
446.77	91.28
446.95	117.03
447.14	72.56
447.32	35.11
447.51	49.15
447.69	51.49
447.88	14.04
448.06	37.45
448.25	16.38
448.43	21.06
448.62	42.13
448.80	114.69
448.99	42.13
449.17	18.72
449.36	65.54
449.54	56.17
449.73	79.58
449.91	77.24
450.10	77.24
450.28	126.39
450.46	98.30
450.65	79.58
450.83	81.92
451.02	42.13
451.20	58.51
451.39	81.92
451.57	114.69
451.76	84.26
451.94	70.22
452.13	117.03
452.31	84.26
452.49	70.22
452.68	65.54
452.86	46.81
453.05	91.28
453.23	0.00
453.42	74.90
453.60	63.19
453.78	65.54
453.97	79.58
454.15	159.16
454.34	93.62
454.52	35.11
454.70	0.00
454.89	32.77
455.07	39.79
455.26	58.51
455.44	58.51
455.62	79.58
455.81	56.17
455.99	88.94
456.17	95.96
456.36	51.49
456.54	98.30
456.73	35.11
456.91	53.83
457.09	91.28
457.28	70.22
457.46	7.02
457.64	79.58
457.83	81.92
458.01	30.43
458.19	21.06
458.38	35.11
458.56	88.94
458.74	79.58
458.93	72.56
459.11	23.41
459.29	102.98
459.48	98.30
459.66	135.75
459.84	56.17
460.03	32.77
460.21	72.56
460.39	102.98
460.57	121.71
460.76	74.90
460.94	37.45
461.12	21.06
461.31	60.85
461.49	159.16
461.67	72.56
461.85	81.92
462.04	88.94
462.22	124.05
462.40	53.83
462.59	100.64
462.77	0.00
462.95	44.47
463.13	42.13
463.32	53.83
463.50	42.13
463.68	28.09
463.86	7.02
464.05	37.45
464.23	25.75
464.41	28.09
464.59	88.94
464.78	44.47
464.96	79.58
465.14	16.38
465.32	0.00
465.50	74.90
465.69	44.47
465.87	32.77
466.05	18.72
466.23	7.02
466.41	23.41
466.60	30.43
466.78	28.09
466.96	53.83
467.14	56.17
467.32	112.35
467.51	28.09
467.69	84.26
467.87	72.56
468.05	49.15
468.23	14.04
468.41	119.37
468.60	32.77
468.78	28.09
468.96	11.70
469.14	37.45
469.32	0.00
469.50	39.79
469.69	67.88
469.87	72.56
470.05	53.83
470.23	14.04
470.41	16.38
470.59	37.45
470.77	93.62
470.95	105.32
471.14	81.92
471.32	121.71
471.50	56.17
471.68	23.41
471.86	37.45
472.04	16.38
472.22	72.56
472.40	49.15
472.58	79.58
472.77	110.01
472.95	16.38
473.13	30.43
473.31	60.85
473.49	74.90
473.67	4.68
473.85	67.88
474.03	53.83
474.21	53.83
474.39	88.94
474.57	114.69
474.75	2.34
474.93	67.88
475.12	63.19
475.30	14.04
475.48	7.02
475.66	91.28
475.84	28.09
476.02	42.13
476.20	30.43
476.38	46.81
476.56	0.00
476.74	0.00
476.92	142.77
477.10	60.85
477.28	56.17
477.46	35.11
477.64	16.38
477.82	44.47
478.00	25.75
478.18	25.75
478.36	42.13
478.54	42.13
478.72	79.58
478.90	86.60
479.08	4.68
479.26	58.51
479.44	60.85
479.62	119.37
479.80	65.54
479.98	119.37
480.16	70.22
480.34	37.45
480.52	7.02
480.70	14.04
480.88	2.34
481.06	74.90
481.24	2.34
481.41	35.11
481.59	37.45
481.77	86.60
481.95	77.24
482.13	16.38
482.31	70.22
482.49	117.03
482.67	21.06
482.85	65.54
483.03	93.62
483.21	81.92
483.39	102.98
483.57	98.30
483.74	56.17
483.92	131.07
484.10	70.22
484.28	114.69
484.46	49.15
484.64	60.85
484.82	79.58
485.00	23.41
485.18	49.15
485.35	44.47
485.53	58.51
485.71	81.92
485.89	60.85
486.07	14.04
486.25	32.77
486.43	42.13
486.61	60.85
486.78	105.32
486.96	91.28
487.14	56.17
487.32	60.85
487.50	70.22
487.68	110.01
487.85	65.54
488.03	110.01
488.21	67.88
488.39	79.58
488.57	117.03
488.75	102.98
488.92	105.32
489.10	72.56
489.28	81.92
489.46	0.00
489.64	105.32
489.81	126.39
489.99	114.69
490.17	95.96
490.35	65.54
490.53	112.35
490.70	70.22
490.88	77.24
491.06	124.05
491.24	63.19
491.41	25.75
491.59	56.17
491.77	65.54
491.95	0.00
492.13	107.66
492.30	63.19
492.48	39.79
492.66	102.98
492.84	91.28
493.01	65.54
493.19	56.17
493.37	126.39
493.54	86.60
493.72	42.13
493.90	86.60
494.08	119.37
494.25	112.35
494.43	49.15
494.61	0.00
494.79	98.30
494.96	121.71
495.14	145.11
495.32	39.79
495.49	60.85
495.67	124.05
495.85	95.96
496.02	0.00
496.20	95.96
496.38	44.47
496.55	121.71
496.73	72.56
496.91	63.19
497.09	0.00
497.26	114.69
497.44	100.64
497.62	133.41
497.79	128.73
497.97	107.66
498.14	70.22
498.32	79.58
498.50	149.79
498.67	102.98
498.85	91.28
499.03	53.83
499.20	77.24
499.38	81.92
499.56	46.81
499.73	126.39
499.91	58.51
500.08	35.11
500.26	86.60
500.44	107.66
500.61	74.90
500.79	79.58
500.97	63.19
501.14	93.62
501.32	81.92
501.49	114.69
501.67	30.43
501.84	65.54
502.02	72.56
502.20	93.62
502.37	88.94
502.55	177.88
502.72	100.64
502.90	2.34
503.07	84.26
503.25	105.32
503.43	28.09
503.60	51.49
503.78	67.88
503.95	74.90
504.13	88.94
504.30	51.49
504.48	147.45
504.65	53.83
504.83	79.58
505.01	107.66
505.18	173.20
505.36	81.92
505.53	65.54
505.71	112.35
505.88	105.32
506.06	77.24
506.23	60.85
506.41	46.81
506.58	124.05
506.76	63.19
506.93	4.68
507.11	23.41
507.28	46.81
507.46	184.90
507.63	95.96
507.81	63.19
507.98	35.11
508.16	58.51
508.33	79.58
508.50	142.77
508.68	124.05
508.85	91.28
509.03	56.17
509.20	100.64
509.38	133.41
509.55	86.60
509.73	93.62
509.90	51.49
510.08	60.85
510.25	93.62
510.42	37.45
510.60	102.98
510.77	191.92
510.95	18.72
511.12	91.28
511.30	112.35
511.47	63.19
511.64	46.81
511.82	53.83
511.99	39.79
512.17	100.64
512.34	131.07
512.51	117.03
512.69	95.96
512.86	70.22
513.04	72.56
513.21	79.58
513.38	173.20
513.56	112.35
513.73	37.45
513.90	30.43
514.08	42.13
514.25	105.32
514.43	159.16
514.60	28.09
514.77	53.83
514.95	56.17
515.12	102.98
515.29	58.51
515.47	49.15
515.64	60.85
515.81	98.30
515.99	77.24
516.16	117.03
516.33	79.58
516.51	56.17
516.68	131.07
516.85	91.28
517.03	58.51
517.20	107.66
517.37	86.60
517.54	65.54
517.72	100.64
517.89	35.11
518.06	37.45
518.24	91.28
518.41	37.45
518.58	81.92
518.75	91.28
518.93	110.01
519.10	65.54
519.27	88.94
519.45	35.11
519.62	88.94
519.79	142.77
519.96	35.11
520.14	32.77
520.31	126.39
520.48	63.19
520.65	88.94
520.83	105.32
521.00	107.66
521.17	95.96
521.34	7.02
521.52	107.66
521.69	93.62
521.86	102.98
522.03	86.60
522.20	14.04
522.38	42.13
522.55	147.45
522.72	28.09
522.89	105.32
523.07	121.71
523.24	63.19
523.41	65.54
523.58	98.30
523.75	79.58
523.92	49.15
524.10	65.54
524.27	0.00
524.44	56.17
524.61	63.19
524.78	102.98
524.96	67.88
525.13	39.79
525.30	149.79
525.47	44.47
525.64	72.56
525.81	105.32
525.98	145.11
526.16	79.58
526.33	32.77
526.50	56.17
526.67	60.85
526.84	11.70
527.01	81.92
527.18	159.16
527.36	105.32
527.53	4.68
527.70	49.15
527.87	65.54
528.04	100.64
528.21	9.36
528.38	28.09
528.55	74.90
528.72	86.60
528.89	42.13
529.07	147.45
529.24	81.92
529.41	84.26
529.58	110.01
529.75	42.13
529.92	93.62
530.09	126.39
530.26	117.03
530.43	63.19
530.60	44.47
530.77	152.13
530.94	9.36
531.11	98.30
531.28	159.16
531.46	135.75
531.63	56.17
531.80	58.51
531.97	77.24
532.14	84.26
532.31	72.56
532.48	56.17
532.65	25.75
532.82	114.69
532.99	84.26
533.16	63.19
533.33	81.92
533.50	95.96
533.67	28.09
533.84	114.69
534.01	133.41
534.18	84.26
534.35	154.48
534.52	81.92
534.69	9.36
534.86	117.03
535.03	105.32
535.20	105.32
535.37	37.45
535.54	128.73
535.71	112.35
535.88	51.49
536.05	105.32
536.22	11.70
536.38	93.62
536.55	18.72
536.72	77.24
536.89	7.02
537.06	51.49
537.23	88.94
537.40	131.07
537.57	32.77
537.74	95.96
537.91	67.88
538.08	88.94
538.25	110.01
538.42	126.39
538.59	95.96
538.75	44.47
538.92	84.26
539.09	98.30
539.26	98.30
539.43	7.02
539.60	88.94
539.77	131.07
539.94	112.35
540.11	98.30
540.28	110.01
540.44	11.70
540.61	117.03
540.78	58.51
540.95	105.32
541.12	58.51
541.29	46.81
541.46	21.06
541.62	72.56
541.79	84.26
541.96	46.81
542.13	142.77
542.30	95.96
542.47	100.64
542.63	18.72
542.80	102.98
542.97	44.47
543.14	95.96
543.31	147.45
543.48	51.49
543.64	114.69
543.81	110.01
543.98	100.64
544.15	18.72
544.32	72.56
544.48	100.64
544.65	58.51
544.82	42.13
544.99	88.94
545.16	56.17
545.32	60.85
545.49	37.45
545.66	142.77
545.83	67.88
546.00	49.15
546.16	44.47
546.33	117.03
546.50	7.02
546.67	124.05
546.83	53.83
547.00	100.64
547.17	74.90
547.34	79.58
547.50	72.56
547.67	145.11
547.84	49.15
548.00	145.11
548.17	110.01
548.34	63.19
548.51	81.92
548.67	112.35
548.84	91.28
549.01	42.13
549.18	53.83
549.34	35.11
549.51	23.41
549.68	100.64
549.84	70.22
550.01	107.66
550.18	91.28
550.34	86.60
550.51	102.98
550.68	98.30
550.84	110.01
551.01	133.41
551.18	77.24
551.34	65.54
551.51	112.35
551.68	86.60
551.84	107.66
552.01	63.19
552.18	133.41
552.34	117.03
552.51	100.64
552.68	110.01
552.84	112.35
553.01	126.39
553.18	84.26
553.34	88.94
553.51	77.24
553.67	72.56
553.84	98.30
554.01	147.45
554.17	32.77
554.34	21.06
554.51	65.54
554.67	72.56
554.84	74.90
555.00	105.32
555.17	100.64
555.33	58.51
555.50	51.49
555.67	35.11
555.83	0.00
556.00	63.19
556.16	166.18
556.33	84.26
556.50	58.51
556.66	28.09
556.83	44.47
556.99	49.15
557.16	72.56
557.32	70.22
557.49	117.03
557.65	23.41
557.82	70.22
557.98	70.22
558.15	49.15
558.32	67.88
558.48	39.79
558.65	67.88
558.81	81.92
558.98	77.24
559.14	135.75
559.31	112.35
559.47	70.22
559.64	117.03
559.80	79.58
559.97	112.35
560.13	23.41
560.30	72.56
560.46	84.26
560.63	102.98
560.79	128.73
560.96	100.64
561.12	46.81
561.29	70.22
561.45	131.07
561.61	107.66
561.78	63.19
561.94	112.35
562.11	147.45
562.27	51.49
562.44	81.92
562.60	117.03
562.77	39.79
562.93	91.28
563.10	114.69
563.26	74.90
563.42	142.77
563.59	58.51
563.75	98.30
563.92	121.71
564.08	70.22
564.24	28.09
564.41	102.98
564.57	74.90
564.74	37.45
564.90	107.66
565.07	63.19
565.23	70.22
565.39	126.39
565.56	65.54
565.72	28.09
565.88	7.02
566.05	63.19
566.21	91.28
566.38	77.24
566.54	32.77
566.70	124.05
566.87	70.22
567.03	102.98
567.19	102.98
567.36	79.58
567.52	131.07
567.68	23.41
567.85	58.51
568.01	100.64
568.17	72.56
568.34	53.83
568.50	30.43
568.66	65.54
568.83	42.13
568.99	107.66
569.15	70.22
569.32	32.77
569.48	70.22
569.64	44.47
569.81	56.17
569.97	63.19
570.13	0.00
570.30	51.49
570.46	88.94
570.62	88.94
570.78	9.36
570.95	67.88
571.11	65.54
571.27	53.83
571.43	93.62
571.60	88.94
571.76	63.19
571.92	63.19
572.09	77.24
572.25	124.05
572.41	39.79
572.57	70.22
572.74	88.94
572.90	138.09
573.06	51.49
573.22	67.88
573.38	84.26
573.55	72.56
573.71	79.58
573.87	98.30
574.03	72.56
574.20	23.41
574.36	70.22
574.52	91.28
574.68	107.66
574.84	110.01
575.01	86.60
575.17	58.51
575.33	79.58
575.49	105.32
575.65	88.94
575.82	67.88
575.98	56.17
576.14	9.36
576.30	32.77
576.46	42.13
576.62	67.88
576.79	114.69
576.95	114.69
577.11	58.51
577.27	88.94
577.43	0.00
577.59	102.98
577.75	51.49
577.92	93.62
578.08	86.60
578.24	100.64
578.40	53.83
578.56	135.75
578.72	77.24
578.88	58.51
579.04	46.81
579.21	86.60
579.37	7.02
579.53	93.62
579.69	107.66
579.85	175.54
580.01	114.69
580.17	42.13
580.33	28.09
580.49	65.54
580.65	117.03
580.82	70.22
580.98	39.79
581.14	102.98
581.30	175.54
581.46	182.56
581.62	58.51
581.78	126.39
581.94	60.85
582.10	46.81
582.26	46.81
582.42	46.81
582.58	67.88
582.74	119.37
582.90	56.17
583.06	53.83
583.22	56.17
583.38	65.54
583.54	98.30
583.70	91.28
583.86	100.64
584.02	60.85
584.18	126.39
584.34	98.30
584.50	65.54
584.66	88.94
584.82	91.28
584.98	133.41
585.14	84.26
585.30	102.98
585.46	51.49
585.62	79.58
585.78	28.09
585.94	84.26
586.10	117.03
586.26	39.79
586.42	93.62
586.58	56.17
586.74	53.83
586.90	88.94
587.06	107.66
587.22	32.77
587.38	4.68
587.54	95.96
587.70	74.90
587.86	154.48
588.02	100.64
588.18	70.22
588.34	60.85
588.49	74.90
588.65	65.54
588.81	65.54
588.97	21.06
589.13	131.07
589.29	67.88
589.45	25.75
589.61	39.79
589.77	86.60
589.93	25.75
590.08	84.26
590.24	32.77
590.40	102.98
590.56	88.94
590.72	0.00
590.88	105.32
591.04	79.58
591.20	81.92
591.35	84.26
591.51	88.94
591.67	95.96
591.83	56.17
591.99	105.32
592.15	88.94
592.31	163.84
592.46	84.26
592.62	112.35
592.78	35.11
592.94	44.47
593.10	86.60
593.26	140.43
593.41	53.83
593.57	42.13
593.73	7.02
593.89	70.22
594.05	35.11
594.20	25.75
594.36	23.41
594.52	21.06
594.68	119.37
594.84	53.83
594.99	53.83
595.15	28.09
595.31	77.24
595.47	35.11
595.62	18.72
595.78	14.04
595.94	72.56
596.10	77.24
596.25	128.73
596.41	173.20
596.57	23.41
596.73	32.77
596.88	74.90
597.04	28.09
597.20	37.45
597.36	81.92
597.51	100.64
597.67	126.39
597.83	79.58
597.99	121.71
598.14	30.43
598.30	86.60
598.46	74.90
598.61	98.30
598.77	98.30
598.93	124.05
599.09	65.54
599.24	100.64
599.40	93.62
599.56	72.56
599.71	100.64
599.87	88.94
600.03	110.01
600.18	70.22
600.34	102.98
600.50	65.54
600.65	77.24
600.81	95.96
600.97	102.98
601.12	79.58
601.28	65.54
601.44	37.45
601.59	138.09
601.75	84.26
601.91	53.83
602.06	110.01
602.22	95.96
602.37	93.62
602.53	105.32
602.69	84.26
602.84	119.37
603.00	60.85
603.16	117.03
603.31	84.26
603.47	63.19
603.62	0.00
603.78	35.11
603.94	88.94
604.09	70.22
604.25	0.00
604.40	126.39
604.56	46.81
604.71	156.82
604.87	74.90
605.03	49.15
605.18	58.51
605.34	81.92
605.49	100.64
605.65	91.28
605.80	44.47
605.96	70.22
606.12	107.66
606.27	60.85
606.43	28.09
606.58	53.83
606.74	9.36
606.89	0.00
607.05	110.01
607.20	161.50
607.36	180.22
607.51	81.92
607.67	74.90
607.82	51.49
607.98	0.00
608.13	35.11
608.29	25.75
608.44	114.69
608.60	79.58
608.75	86.60
608.91	77.24
609.06	58.51
609.22	46.81
609.37	39.79
609.53	0.00
609.68	56.17
609.84	42.13
609.99	63.19
610.15	98.30
610.30	77.24
610.46	77.24
610.61	77.24
610.76	79.58
610.92	84.26
611.07	28.09
611.23	35.11
611.38	74.90
611.54	112.35
611.69	91.28
611.84	86.60
612.00	102.98
612.15	30.43
612.31	30.43
612.46	65.54
612.62	49.15
612.77	67.88
612.92	133.41
613.08	107.66
613.23	39.79
613.39	0.00
613.54	44.47
613.69	2.34
613.85	51.49
614.00	16.38
614.15	16.38
614.31	74.90
614.46	18.72
614.62	81.92
614.77	88.94
614.92	63.19
615.08	74.90
615.23	0.00
615.38	58.51
615.54	124.05
615.69	107.66
615.84	67.88
616.00	81.92
616.15	128.73
616.30	28.09
616.46	53.83
616.61	84.26
616.76	2.34
616.92	119.37
617.07	16.38
617.22	53.83
617.37	84.26
617.53	18.72
617.68	39.79
617.83	112.35
617.99	81.92
618.14	32.77
618.29	70.22
618.45	0.00
618.60	25.75
618.75	91.28
618.90	58.51
619.06	9.36
619.21	65.54
619.36	105.32
619.51	51.49
619.67	37.45
619.82	18.72
619.97	30.43
620.12	44.47
620.28	77.24
620.43	86.60
620.58	39.79
620.73	0.00
620.89	30.43
621.04	112.35
621.19	67.88
621.34	100.64
621.49	126.39
621.65	46.81
621.80	86.60
621.95	51.49
622.10	100.64
622.25	58.51
622.41	70.22
622.56	37.45
622.71	110.01
622.86	79.58
623.01	37.45
623.16	112.35
623.32	60.85
623.47	102.98
623.62	44.47
623.77	67.88
623.92	70.22
624.07	112.35
624.23	18.72
624.38	126.39
624.53	107.66
624.68	91.28
624.83	63.19
624.98	4.68
625.13	60.85
625.29	65.54
625.44	14.04
625.59	51.49
625.74	81.92
625.89	42.13
626.04	81.92
626.19	0.00
626.34	84.26
626.49	46.81
626.65	105.32
626.80	88.94
626.95	77.24
627.10	77.24
627.25	16.38
627.40	42.13
627.55	121.71
627.70	7.02
627.85	0.00
628.00	25.75
628.15	35.11
628.30	0.00
628.45	72.56
628.60	117.03
628.76	138.09
628.91	46.81
629.06	35.11
629.21	70.22
629.36	28.09
629.51	119.37
629.66	140.43
629.81	44.47
629.96	0.00
630.11	65.54
630.26	44.47
630.41	126.39
630.56	11.70
630.71	70.22
630.86	67.88
631.01	81.92
631.16	37.45
631.31	65.54
631.46	37.45
631.61	121.71
631.76	0.00
631.91	25.75
632.06	49.15
632.21	88.94
632.36	49.15
632.51	0.00
632.66	16.38
632.81	100.64
632.96	56.17
633.10	98.30
633.25	63.19
633.40	84.26
633.55	126.39
633.70	79.58
633.85	46.81
634.00	88.94
634.15	56.17
634.30	84.26
634.45	49.15
634.60	49.15
634.75	72.56
634.90	56.17
635.05	149.79
635.19	70.22
635.34	121.71
635.49	42.13
635.64	105.32
635.79	0.00
635.94	93.62
636.09	58.51
636.24	126.39
636.39	105.32
636.53	30.43
636.68	0.00
636.83	58.51
636.98	67.88
637.13	51.49
637.28	14.04
637.43	53.83
637.57	63.19
637.72	49.15
637.87	32.77
638.02	126.39
638.17	39.79
638.32	58.51
638.46	44.47
638.61	42.13
638.76	86.60
638.91	25.75
639.06	77.24
639.20	70.22
639.35	51.49
639.50	37.45
639.65	88.94
639.80	37.45
639.94	18.72
640.09	70.22
640.24	39.79
640.39	49.15
640.54	30.43
640.68	93.62
640.83	28.09
640.98	42.13
641.13	46.81
641.27	70.22
641.42	79.58
641.57	0.00
641.72	14.04
641.86	58.51
642.01	74.90
642.16	42.13
642.31	49.15
642.45	58.51
642.60	46.81
642.75	72.56
642.90	107.66
643.04	81.92
643.19	39.79
643.34	14.04
643.48	67.88
643.63	105.32
643.78	93.62
643.93	110.01
644.07	79.58
644.22	131.07
644.37	58.51
644.51	9.36
644.66	74.90
644.81	65.54
644.95	98.30
645.10	65.54
645.25	53.83
645.39	110.01
645.54	70.22
645.69	100.64
645.83	114.69
645.98	49.15
646.13	138.09
646.27	49.15
646.42	0.00
646.57	67.88
646.71	37.45
646.86	56.17
647.00	60.85
647.15	0.00
647.30	7.02
647.44	39.79
647.59	49.15
647.74	88.94
647.88	53.83
648.03	37.45
648.17	65.54
648.32	107.66
648.47	77.24
648.61	98.30
648.76	53.83
648.90	14.04
649.05	135.75
649.20	44.47
649.34	44.47
649.49	0.00
649.63	18.72
649.78	37.45
649.92	28.09
650.07	23.41
650.21	70.22
650.36	77.24
650.51	11.70
650.65	60.85
650.80	93.62
650.94	0.00
651.09	28.09
651.23	0.00
651.38	0.00
651.52	98.30
651.67	84.26
651.81	49.15
651.96	30.43
652.10	79.58
652.25	67.88
652.39	23.41
652.54	18.72
652.68	84.26
652.83	56.17
652.97	58.51
653.12	81.92
653.26	11.70
653.41	112.35
653.55	25.75
653.70	46.81
653.84	63.19
653.99	70.22
654.13	42.13
654.27	0.00
654.42	0.00
654.56	49.15
654.71	9.36
654.85	65.54
655.00	18.72
655.14	86.60
655.29	25.75
655.43	84.26
655.57	28.09
655.72	58.51
655.86	18.72
656.01	0.00
656.15	23.41
656.30	0.00
656.44	37.45
656.58	93.62
656.73	70.22
656.87	53.83
657.01	0.00
657.16	14.04
657.30	0.00
657.45	46.81
657.59	77.24
657.73	4.68
657.88	0.00
658.02	79.58
658.16	98.30
658.31	100.64
658.45	16.38
658.60	39.79
658.74	56.17
658.88	88.94
659.03	46.81
659.17	72.56
659.31	9.36
659.46	63.19
659.60	63.19
659.74	44.47
659.89	81.92
660.03	65.54
660.17	110.01
660.32	37.45
660.46	53.83
660.60	72.56
660.74	35.11
660.89	32.77
661.03	67.88
661.17	49.15
661.32	100.64
661.46	0.00
661.60	0.00
661.74	74.90
661.89	102.98
662.03	7.02
662.17	32.77
662.31	0.00
662.46	51.49
662.60	95.96
662.74	60.85
662.88	77.24
663.03	44.47
663.17	102.98
663.31	0.00
663.45	74.90
663.60	74.90
663.74	112.35
663.88	72.56
664.02	25.75
664.17	0.00
664.31	28.09
664.45	2.34
664.59	60.85
664.73	102.98
664.88	112.35
665.02	49.15
665.16	49.15
665.30	28.09
665.44	77.24
665.59	114.69
665.73	58.51
665.87	44.47
666.01	56.17
666.15	88.94
666.29	100.64
666.44	79.58
666.58	39.79
666.72	60.85
666.86	88.94
667.00	112.35
667.14	0.00
667.28	72.56
667.43	51.49
667.57	44.47
667.71	0.00
667.85	58.51
667.99	14.04
668.13	0.00
668.27	84.26
668.41	21.06
668.56	60.85
668.70	88.94
668.84	23.41
668.98	0.00
669.12	49.15
669.26	88.94
669.40	21.06
669.54	53.83
669.68	56.17
669.82	21.06
669.96	23.41
670.10	18.72
670.25	117.03
670.39	112.35
670.53	28.09
670.67	63.19
670.81	0.00
670.95	126.39
671.09	0.00
671.23	74.90
671.37	53.83
671.51	95.96
671.65	74.90
671.79	16.38
671.93	23.41
672.07	72.56
672.21	67.88
672.35	81.92
672.49	49.15
672.63	70.22
672.77	102.98
672.91	63.19
673.05	9.36
673.19	51.49
673.33	0.00
673.47	91.28
673.61	9.36
673.75	21.06
673.89	0.00
674.03	105.32
674.17	105.32
674.31	42.13
674.45	0.00
674.59	32.77
674.73	70.22
674.87	79.58
675.01	9.36
675.15	32.77
675.29	88.94
675.43	60.85
675.56	53.83
675.70	0.00
675.84	14.04
675.98	14.04
676.12	0.00
676.26	14.04
676.40	91.28
676.54	23.41
676.68	79.58
676.82	65.54
676.96	138.09
677.10	58.51
677.23	14.04
677.37	63.19
677.51	0.00
677.65	28.09
677.79	11.70
677.93	49.15
678.07	44.47
678.21	39.79
678.34	72.56
678.48	138.09
678.62	2.34
678.76	14.04
678.90	0.00
679.04	63.19
679.18	53.83
679.31	88.94
679.45	9.36
679.59	14.04
679.73	95.96
679.87	72.56
680.00	81.92
680.14	0.00
680.28	7.02
680.42	39.79
680.56	28.09
680.70	77.24
680.83	79.58
680.97	91.28
681.11	4.68
681.25	44.47
681.39	72.56
681.52	9.36
681.66	72.56
681.80	44.47
681.94	0.00
682.07	81.92
682.21	84.26
682.35	28.09
682.49	4.68
682.62	37.45
682.76	42.13
682.90	65.54
683.04	4.68
683.17	81.92
683.31	51.49
683.45	81.92
683.59	28.09
683.72	84.26
683.86	0.00
684.00	74.90
684.13	0.00
684.27	11.70
684.41	67.88
684.55	42.13
684.68	0.00
684.82	21.06
684.96	2.34
685.09	72.56
685.23	74.90
685.37	67.88
685.50	25.75
685.64	16.38
685.78	35.11
685.91	49.15
686.05	42.13
686.19	0.00
686.32	35.11
686.46	37.45
686.60	28.09
686.73	25.75
686.87	0.00
687.01	60.85
687.14	30.43
687.28	67.88
687.42	0.00
687.55	44.47
687.69	7.02
687.82	100.64
687.96	56.17
688.10	9.36
688.23	46.81
688.37	23.41
688.50	79.58
688.64	65.54
688.78	91.28
688.91	39.79
689.05	0.00
689.18	46.81
689.32	37.45
689.46	84.26
689.59	46.81
689.73	14.04
689.86	2.34
690.00	30.43
690.13	142.77
690.27	67.88
690.41	95.96
690.54	53.83
690.68	98.30
690.81	0.00
690.95	23.41
691.08	72.56
691.22	0.00
691.35	86.60
691.49	107.66
691.62	91.28
691.76	74.90
691.89	72.56
692.03	39.79
692.16	0.00
692.30	119.37
692.43	58.51
692.57	70.22
692.70	88.94
692.84	79.58
692.97	0.00
693.11	25.75
693.24	0.00
693.38	0.00
693.51	100.64
693.65	114.69
693.78	4.68
693.92	72.56
694.05	28.09
694.19	70.22
694.32	7.02
694.45	46.81
694.59	56.17
694.72	37.45
694.86	56.17
694.99	0.00
695.13	46.81
695.26	42.13
695.39	60.85
695.53	16.38
695.66	49.15
695.80	0.00
695.93	44.47
696.07	49.15
696.20	0.00
696.33	16.38
696.47	46.81
696.60	4.68
696.73	23.41
696.87	30.43
697.00	4.68
697.14	60.85
697.27	65.54
697.40	9.36
697.54	4.68
697.67	0.00
697.80	9.36
697.94	21.06
698.07	81.92
698.21	51.49
698.34	63.19
698.47	16.38
698.61	42.13
698.74	128.73
698.87	51.49
699.01	0.00
699.14	42.13
699.27	51.49
699.40	2.34
699.54	63.19
699.67	65.54
699.80	30.43
699.94	42.13
700.07	0.00
700.20	0.00
700.34	28.09
700.47	37.45
700.60	67.88
700.73	77.24
700.87	25.75
701.00	16.38
701.13	53.83
701.26	14.04
701.40	0.00
701.53	56.17
701.66	35.11
701.79	32.77
701.93	95.96
702.06	70.22
702.19	51.49
702.32	77.24
702.46	0.00
702.59	0.00
702.72	0.00
702.85	23.41
702.99	84.26
703.12	77.24
703.25	28.09
703.38	2.34
703.51	4.68
703.65	84.26
703.78	23.41
703.91	39.79
704.04	46.81
704.17	9.36
704.31	91.28
704.44	0.00
704.57	18.72
704.70	49.15
704.83	51.49
704.96	0.00
705.10	0.00
705.23	16.38
>>>>>End Processed Spectral Data<<<<<
