SpectraSuite Data File
++++++++++++++++++++++++++++++++++++
Date: Fri Oct 04 12:13:30 GMT-05:00 2013
User: price-jones
Dark Spectrum Present: No
Reference Spectrum Present: No
Number of Sampled Component Spectra: 1
Spectrometers: USB2+H05261
Integration Time (usec): 10000 (USB2+H05261)
Spectra Averaged: 1 (USB2+H05261)
Boxcar Smoothing: 0 (USB2+H05261)
Correct for Electrical Dark: No (USB2+H05261)
Strobe/Lamp Enabled: No (USB2+H05261)
Correct for Detector Non-linearity: No (USB2+H05261)
Correct for Stray Light: No (USB2+H05261)
Number of Pixels in Processed Spectrum: 2048
>>>>>Begin Processed Spectral Data<<<<<
365.73	0.00
365.92	0.00
366.12	0.00
366.32	0.00
366.52	0.00
366.72	0.00
366.91	0.00
367.11	0.00
367.31	0.00
367.51	0.00
367.70	0.00
367.90	0.00
368.10	0.00
368.30	0.00
368.49	0.00
368.69	0.00
368.89	0.00
369.09	0.00
369.28	0.00
369.48	0.00
369.68	0.00
369.87	0.00
370.07	0.00
370.27	0.00
370.47	0.00
370.66	0.00
370.86	0.00
371.06	4.68
371.25	0.00
371.45	0.00
371.65	0.00
371.84	0.00
372.04	0.00
372.24	0.00
372.44	0.00
372.63	25.75
372.83	39.79
373.03	58.51
373.22	0.00
373.42	21.06
373.62	35.11
373.81	0.00
374.01	0.00
374.21	30.43
374.40	18.72
374.60	18.72
374.79	0.00
374.99	37.45
375.19	56.17
375.38	53.83
375.58	4.68
375.78	0.00
375.97	25.75
376.17	63.19
376.37	0.00
376.56	30.43
376.76	0.00
376.95	0.00
377.15	9.36
377.35	28.09
377.54	100.64
377.74	39.79
377.93	28.09
378.13	0.00
378.33	0.00
378.52	37.45
378.72	51.49
378.91	60.85
379.11	51.49
379.31	35.11
379.50	25.75
379.70	0.00
379.89	0.00
380.09	0.00
380.28	14.04
380.48	0.00
380.68	30.43
380.87	30.43
381.07	0.00
381.26	46.81
381.46	0.00
381.65	0.00
381.85	0.00
382.04	0.00
382.24	58.51
382.43	0.00
382.63	30.43
382.83	0.00
383.02	88.94
383.22	25.75
383.41	0.00
383.61	51.49
383.80	4.68
384.00	0.00
384.19	0.00
384.39	37.45
384.58	21.06
384.78	39.79
384.97	63.19
385.17	0.00
385.36	16.38
385.56	65.54
385.75	77.24
385.95	0.00
386.14	51.49
386.34	98.30
386.53	32.77
386.72	51.49
386.92	16.38
387.11	44.47
387.31	0.00
387.50	0.00
387.70	0.00
387.89	58.51
388.09	67.88
388.28	39.79
388.48	0.00
388.67	58.51
388.86	32.77
389.06	0.00
389.25	18.72
389.45	4.68
389.64	0.00
389.84	37.45
390.03	18.72
390.22	14.04
390.42	0.00
390.61	21.06
390.81	44.47
391.00	49.15
391.19	2.34
391.39	16.38
391.58	18.72
391.78	37.45
391.97	14.04
392.16	2.34
392.36	16.38
392.55	91.28
392.75	16.38
392.94	72.56
393.13	51.49
393.33	46.81
393.52	0.00
393.71	74.90
393.91	84.26
394.10	0.00
394.29	7.02
394.49	21.06
394.68	49.15
394.88	42.13
395.07	0.00
395.26	16.38
395.46	56.17
395.65	0.00
395.84	0.00
396.04	0.00
396.23	0.00
396.42	79.58
396.62	86.60
396.81	2.34
397.00	23.41
397.19	98.30
397.39	77.24
397.58	0.00
397.77	30.43
397.97	7.02
398.16	4.68
398.35	0.00
398.55	0.00
398.74	0.00
398.93	11.70
399.12	0.00
399.32	2.34
399.51	9.36
399.70	74.90
399.90	49.15
400.09	0.00
400.28	37.45
400.47	0.00
400.67	9.36
400.86	84.26
401.05	67.88
401.24	25.75
401.44	39.79
401.63	0.00
401.82	0.00
402.01	0.00
402.21	0.00
402.40	0.00
402.59	86.60
402.78	0.00
402.97	9.36
403.17	39.79
403.36	14.04
403.55	0.00
403.74	32.77
403.93	0.00
404.13	25.75
404.32	0.00
404.51	0.00
404.70	42.13
404.89	0.00
405.09	16.38
405.28	0.00
405.47	0.00
405.66	0.00
405.85	39.79
406.05	21.06
406.24	0.00
406.43	0.00
406.62	37.45
406.81	35.11
407.00	0.00
407.20	0.00
407.39	21.06
407.58	0.00
407.77	32.77
407.96	74.90
408.15	107.66
408.34	25.75
408.54	93.62
408.73	72.56
408.92	42.13
409.11	25.75
409.30	4.68
409.49	84.26
409.68	7.02
409.87	74.90
410.07	86.60
410.26	44.47
410.45	77.24
410.64	51.49
410.83	32.77
411.02	9.36
411.21	100.64
411.40	0.00
411.59	0.00
411.78	58.51
411.98	0.00
412.17	28.09
412.36	67.88
412.55	53.83
412.74	0.00
412.93	4.68
413.12	7.02
413.31	51.49
413.50	0.00
413.69	35.11
413.88	44.47
414.07	0.00
414.26	16.38
414.45	0.00
414.64	74.90
414.83	32.77
415.02	0.00
415.22	30.43
415.41	11.70
415.60	16.38
415.79	105.32
415.98	2.34
416.17	35.11
416.36	16.38
416.55	11.70
416.74	35.11
416.93	23.41
417.12	67.88
417.31	28.09
417.50	0.00
417.69	2.34
417.88	0.00
418.07	0.00
418.26	21.06
418.45	0.00
418.64	0.00
418.83	49.15
419.02	23.41
419.21	37.45
419.39	37.45
419.58	70.22
419.77	0.00
419.96	95.96
420.15	56.17
420.34	110.01
420.53	9.36
420.72	9.36
420.91	9.36
421.10	0.00
421.29	0.00
421.48	88.94
421.67	74.90
421.86	18.72
422.05	56.17
422.24	21.06
422.43	0.00
422.61	37.45
422.80	56.17
422.99	117.03
423.18	0.00
423.37	0.00
423.56	72.56
423.75	88.94
423.94	25.75
424.13	32.77
424.32	0.00
424.50	0.00
424.69	44.47
424.88	0.00
425.07	0.00
425.26	0.00
425.45	51.49
425.64	2.34
425.83	21.06
426.01	0.00
426.20	9.36
426.39	16.38
426.58	0.00
426.77	37.45
426.96	32.77
427.15	14.04
427.33	0.00
427.52	4.68
427.71	18.72
427.90	28.09
428.09	0.00
428.28	0.00
428.46	37.45
428.65	37.45
428.84	23.41
429.03	42.13
429.22	42.13
429.40	56.17
429.59	7.02
429.78	30.43
429.97	0.00
430.16	9.36
430.34	37.45
430.53	37.45
430.72	9.36
430.91	42.13
431.10	14.04
431.28	46.81
431.47	77.24
431.66	65.54
431.85	46.81
432.03	4.68
432.22	2.34
432.41	70.22
432.60	23.41
432.79	9.36
432.97	16.38
433.16	77.24
433.35	25.75
433.54	0.00
433.72	58.51
433.91	53.83
434.10	14.04
434.28	21.06
434.47	0.00
434.66	0.00
434.85	9.36
435.03	77.24
435.22	35.11
435.41	74.90
435.59	0.00
435.78	2.34
435.97	16.38
436.16	16.38
436.34	56.17
436.53	81.92
436.72	60.85
436.90	37.45
437.09	0.00
437.28	77.24
437.46	4.68
437.65	60.85
437.84	65.54
438.02	46.81
438.21	25.75
438.40	44.47
438.58	42.13
438.77	21.06
438.96	14.04
439.14	35.11
439.33	42.13
439.52	81.92
439.70	51.49
439.89	74.90
440.08	0.00
440.26	0.00
440.45	46.81
440.63	23.41
440.82	58.51
441.01	81.92
441.19	30.43
441.38	30.43
441.57	0.00
441.75	14.04
441.94	49.15
442.12	67.88
442.31	0.00
442.50	30.43
442.68	23.41
442.87	79.58
443.05	39.79
443.24	133.41
443.43	63.19
443.61	70.22
443.80	30.43
443.98	0.00
444.17	77.24
444.35	0.00
444.54	37.45
444.73	58.51
444.91	56.17
445.10	0.00
445.28	18.72
445.47	70.22
445.65	0.00
445.84	0.00
446.02	131.07
446.21	0.00
446.39	44.47
446.58	0.00
446.77	11.70
446.95	70.22
447.14	28.09
447.32	2.34
447.51	28.09
447.69	0.00
447.88	102.98
448.06	105.32
448.25	14.04
448.43	32.77
448.62	53.83
448.80	23.41
448.99	91.28
449.17	58.51
449.36	0.00
449.54	23.41
449.73	0.00
449.91	16.38
450.10	4.68
450.28	0.00
450.46	0.00
450.65	53.83
450.83	0.00
451.02	53.83
451.20	49.15
451.39	2.34
451.57	0.00
451.76	7.02
451.94	79.58
452.13	93.62
452.31	23.41
452.49	37.45
452.68	51.49
452.86	37.45
453.05	86.60
453.23	51.49
453.42	0.00
453.60	28.09
453.78	21.06
453.97	0.00
454.15	60.85
454.34	39.79
454.52	28.09
454.70	30.43
454.89	65.54
455.07	0.00
455.26	84.26
455.44	49.15
455.62	0.00
455.81	25.75
455.99	42.13
456.17	0.00
456.36	44.47
456.54	58.51
456.73	25.75
456.91	84.26
457.09	39.79
457.28	0.00
457.46	98.30
457.64	74.90
457.83	4.68
458.01	23.41
458.19	0.00
458.38	74.90
458.56	84.26
458.74	63.19
458.93	49.15
459.11	42.13
459.29	37.45
459.48	107.66
459.66	79.58
459.84	81.92
460.03	79.58
460.21	84.26
460.39	0.00
460.57	21.06
460.76	56.17
460.94	53.83
461.12	114.69
461.31	49.15
461.49	25.75
461.67	46.81
461.85	67.88
462.04	74.90
462.22	107.66
462.40	0.00
462.59	16.38
462.77	46.81
462.95	51.49
463.13	37.45
463.32	0.00
463.50	0.00
463.68	49.15
463.86	49.15
464.05	39.79
464.23	51.49
464.41	35.11
464.59	67.88
464.78	28.09
464.96	0.00
465.14	0.00
465.32	21.06
465.50	42.13
465.69	44.47
465.87	21.06
466.05	46.81
466.23	0.00
466.41	35.11
466.60	53.83
466.78	23.41
466.96	0.00
467.14	56.17
467.32	63.19
467.51	72.56
467.69	7.02
467.87	30.43
468.05	16.38
468.23	67.88
468.41	0.00
468.60	37.45
468.78	70.22
468.96	49.15
469.14	42.13
469.32	86.60
469.50	39.79
469.69	28.09
469.87	70.22
470.05	67.88
470.23	74.90
470.41	28.09
470.59	0.00
470.77	0.00
470.95	0.00
471.14	86.60
471.32	37.45
471.50	42.13
471.68	4.68
471.86	79.58
472.04	32.77
472.22	44.47
472.40	95.96
472.58	35.11
472.77	28.09
472.95	51.49
473.13	58.51
473.31	100.64
473.49	81.92
473.67	28.09
473.85	30.43
474.03	32.77
474.21	58.51
474.39	39.79
474.57	18.72
474.75	70.22
474.93	2.34
475.12	0.00
475.30	23.41
475.48	0.00
475.66	88.94
475.84	67.88
476.02	0.00
476.20	112.35
476.38	2.34
476.56	77.24
476.74	11.70
476.92	65.54
477.10	42.13
477.28	77.24
477.46	9.36
477.64	42.13
477.82	7.02
478.00	11.70
478.18	23.41
478.36	53.83
478.54	67.88
478.72	7.02
478.90	4.68
479.08	67.88
479.26	58.51
479.44	42.13
479.62	39.79
479.80	44.47
479.98	2.34
480.16	67.88
480.34	32.77
480.52	0.00
480.70	21.06
480.88	23.41
481.06	91.28
481.24	0.00
481.41	0.00
481.59	0.00
481.77	46.81
481.95	46.81
482.13	42.13
482.31	42.13
482.49	0.00
482.67	37.45
482.85	25.75
483.03	58.51
483.21	4.68
483.39	88.94
483.57	46.81
483.74	37.45
483.92	98.30
484.10	79.58
484.28	65.54
484.46	37.45
484.64	67.88
484.82	35.11
485.00	138.09
485.18	11.70
485.35	7.02
485.53	44.47
485.71	37.45
485.89	37.45
486.07	58.51
486.25	23.41
486.43	72.56
486.61	67.88
486.78	21.06
486.96	42.13
487.14	46.81
487.32	81.92
487.50	37.45
487.68	39.79
487.85	91.28
488.03	49.15
488.21	56.17
488.39	28.09
488.57	23.41
488.75	74.90
488.92	70.22
489.10	21.06
489.28	60.85
489.46	30.43
489.64	60.85
489.81	98.30
489.99	0.00
490.17	105.32
490.35	77.24
490.53	28.09
490.70	110.01
490.88	67.88
491.06	37.45
491.24	74.90
491.41	7.02
491.59	0.00
491.77	2.34
491.95	79.58
492.13	105.32
492.30	56.17
492.48	37.45
492.66	65.54
492.84	0.00
493.01	0.00
493.19	107.66
493.37	44.47
493.54	0.00
493.72	51.49
493.90	67.88
494.08	9.36
494.25	16.38
494.43	102.98
494.61	95.96
494.79	67.88
494.96	102.98
495.14	21.06
495.32	81.92
495.49	0.00
495.67	30.43
495.85	30.43
496.02	93.62
496.20	63.19
496.38	11.70
496.55	14.04
496.73	7.02
496.91	51.49
497.09	23.41
497.26	72.56
497.44	23.41
497.62	32.77
497.79	56.17
497.97	4.68
498.14	11.70
498.32	23.41
498.50	98.30
498.67	0.00
498.85	0.00
499.03	0.00
499.20	32.77
499.38	0.00
499.56	51.49
499.73	0.00
499.91	56.17
500.08	67.88
500.26	105.32
500.44	0.00
500.61	37.45
500.79	28.09
500.97	11.70
501.14	32.77
501.32	0.00
501.49	60.85
501.67	58.51
501.84	63.19
502.02	53.83
502.20	98.30
502.37	28.09
502.55	0.00
502.72	46.81
502.90	4.68
503.07	74.90
503.25	81.92
503.43	4.68
503.60	2.34
503.78	28.09
503.95	32.77
504.13	42.13
504.30	0.00
504.48	39.79
504.65	18.72
504.83	2.34
505.01	81.92
505.18	49.15
505.36	21.06
505.53	117.03
505.71	98.30
505.88	65.54
506.06	0.00
506.23	105.32
506.41	42.13
506.58	39.79
506.76	0.00
506.93	4.68
507.11	51.49
507.28	49.15
507.46	32.77
507.63	23.41
507.81	0.00
507.98	79.58
508.16	0.00
508.33	2.34
508.50	0.00
508.68	0.00
508.85	30.43
509.03	28.09
509.20	42.13
509.38	51.49
509.55	14.04
509.73	98.30
509.90	135.75
510.08	42.13
510.25	88.94
510.42	63.19
510.60	42.13
510.77	51.49
510.95	11.70
511.12	7.02
511.30	39.79
511.47	42.13
511.64	46.81
511.82	32.77
511.99	30.43
512.17	37.45
512.34	110.01
512.51	63.19
512.69	135.75
512.86	65.54
513.04	51.49
513.21	67.88
513.38	93.62
513.56	11.70
513.73	32.77
513.90	32.77
514.08	35.11
514.25	39.79
514.43	142.77
514.60	46.81
514.77	49.15
514.95	30.43
515.12	39.79
515.29	88.94
515.47	14.04
515.64	0.00
515.81	110.01
515.99	51.49
516.16	79.58
516.33	0.00
516.51	18.72
516.68	28.09
516.85	65.54
517.03	42.13
517.20	18.72
517.37	4.68
517.54	0.00
517.72	21.06
517.89	0.00
518.06	46.81
518.24	16.38
518.41	39.79
518.58	28.09
518.75	32.77
518.93	56.17
519.10	11.70
519.27	63.19
519.45	32.77
519.62	16.38
519.79	2.34
519.96	0.00
520.14	28.09
520.31	88.94
520.48	51.49
520.65	70.22
520.83	39.79
521.00	56.17
521.17	23.41
521.34	46.81
521.52	21.06
521.69	100.64
521.86	23.41
522.03	84.26
522.20	42.13
522.38	58.51
522.55	74.90
522.72	0.00
522.89	70.22
523.07	93.62
523.24	60.85
523.41	60.85
523.58	56.17
523.75	65.54
523.92	42.13
524.10	0.00
524.27	35.11
524.44	0.00
524.61	0.00
524.78	0.00
524.96	39.79
525.13	65.54
525.30	126.39
525.47	95.96
525.64	9.36
525.81	42.13
525.98	9.36
526.16	28.09
526.33	0.00
526.50	53.83
526.67	72.56
526.84	39.79
527.01	0.00
527.18	67.88
527.36	72.56
527.53	60.85
527.70	32.77
527.87	21.06
528.04	65.54
528.21	21.06
528.38	117.03
528.55	56.17
528.72	9.36
528.89	51.49
529.07	46.81
529.24	37.45
529.41	11.70
529.58	30.43
529.75	46.81
529.92	114.69
530.09	49.15
530.26	53.83
530.43	39.79
530.60	91.28
530.77	25.75
530.94	51.49
531.11	39.79
531.28	77.24
531.46	4.68
531.63	28.09
531.80	28.09
531.97	16.38
532.14	105.32
532.31	25.75
532.48	35.11
532.65	30.43
532.82	63.19
532.99	32.77
533.16	58.51
533.33	51.49
533.50	60.85
533.67	0.00
533.84	32.77
534.01	11.70
534.18	7.02
534.35	84.26
534.52	51.49
534.69	84.26
534.86	81.92
535.03	9.36
535.20	37.45
535.37	23.41
535.54	9.36
535.71	0.00
535.88	7.02
536.05	35.11
536.22	51.49
536.38	35.11
536.55	37.45
536.72	74.90
536.89	42.13
537.06	0.00
537.23	0.00
537.40	105.32
537.57	11.70
537.74	46.81
537.91	28.09
538.08	28.09
538.25	7.02
538.42	0.00
538.59	60.85
538.75	18.72
538.92	14.04
539.09	28.09
539.26	2.34
539.43	81.92
539.60	95.96
539.77	84.26
539.94	44.47
540.11	0.00
540.28	30.43
540.44	28.09
540.61	70.22
540.78	128.73
540.95	53.83
541.12	128.73
541.29	39.79
541.46	30.43
541.62	32.77
541.79	67.88
541.96	51.49
542.13	14.04
542.30	32.77
542.47	0.00
542.63	44.47
542.80	49.15
542.97	65.54
543.14	56.17
543.31	0.00
543.48	39.79
543.64	81.92
543.81	14.04
543.98	18.72
544.15	35.11
544.32	58.51
544.48	0.00
544.65	91.28
544.82	23.41
544.99	49.15
545.16	53.83
545.32	72.56
545.49	35.11
545.66	4.68
545.83	84.26
546.00	88.94
546.16	84.26
546.33	46.81
546.50	51.49
546.67	51.49
546.83	0.00
547.00	58.51
547.17	0.00
547.34	35.11
547.50	98.30
547.67	72.56
547.84	81.92
548.00	58.51
548.17	60.85
548.34	32.77
548.51	67.88
548.67	77.24
548.84	86.60
549.01	35.11
549.18	56.17
549.34	16.38
549.51	25.75
549.68	77.24
549.84	56.17
550.01	0.00
550.18	51.49
550.34	58.51
550.51	51.49
550.68	42.13
550.84	51.49
551.01	86.60
551.18	0.00
551.34	49.15
551.51	88.94
551.68	32.77
551.84	14.04
552.01	0.00
552.18	65.54
552.34	0.00
552.51	98.30
552.68	37.45
552.84	7.02
553.01	37.45
553.18	58.51
553.34	14.04
553.51	0.00
553.67	23.41
553.84	56.17
554.01	60.85
554.17	25.75
554.34	21.06
554.51	86.60
554.67	0.00
554.84	105.32
555.00	28.09
555.17	0.00
555.33	39.79
555.50	72.56
555.67	11.70
555.83	18.72
556.00	56.17
556.16	121.71
556.33	14.04
556.50	32.77
556.66	16.38
556.83	79.58
556.99	23.41
557.16	23.41
557.32	65.54
557.49	42.13
557.65	105.32
557.82	58.51
557.98	0.00
558.15	28.09
558.32	9.36
558.48	77.24
558.65	79.58
558.81	37.45
558.98	18.72
559.14	0.00
559.31	93.62
559.47	63.19
559.64	49.15
559.80	56.17
559.97	51.49
560.13	42.13
560.30	30.43
560.46	63.19
560.63	70.22
560.79	37.45
560.96	65.54
561.12	23.41
561.29	18.72
561.45	0.00
561.61	18.72
561.78	70.22
561.94	21.06
562.11	35.11
562.27	46.81
562.44	86.60
562.60	63.19
562.77	72.56
562.93	0.00
563.10	0.00
563.26	39.79
563.42	30.43
563.59	84.26
563.75	79.58
563.92	4.68
564.08	0.00
564.24	35.11
564.41	39.79
564.57	0.00
564.74	16.38
564.90	39.79
565.07	86.60
565.23	79.58
565.39	28.09
565.56	98.30
565.72	100.64
565.88	117.03
566.05	42.13
566.21	100.64
566.38	100.64
566.54	32.77
566.70	0.00
566.87	65.54
567.03	30.43
567.19	77.24
567.36	65.54
567.52	51.49
567.68	56.17
567.85	7.02
568.01	72.56
568.17	18.72
568.34	65.54
568.50	72.56
568.66	72.56
568.83	0.00
568.99	60.85
569.15	28.09
569.32	53.83
569.48	32.77
569.64	14.04
569.81	74.90
569.97	11.70
570.13	74.90
570.30	0.00
570.46	91.28
570.62	37.45
570.78	86.60
570.95	70.22
571.11	0.00
571.27	0.00
571.43	60.85
571.60	91.28
571.76	58.51
571.92	0.00
572.09	65.54
572.25	0.00
572.41	49.15
572.57	0.00
572.74	91.28
572.90	21.06
573.06	51.49
573.22	0.00
573.38	28.09
573.55	53.83
573.71	28.09
573.87	67.88
574.03	0.00
574.20	67.88
574.36	25.75
574.52	37.45
574.68	51.49
574.84	84.26
575.01	42.13
575.17	37.45
575.33	4.68
575.49	105.32
575.65	32.77
575.82	102.98
575.98	88.94
576.14	32.77
576.30	21.06
576.46	35.11
576.62	2.34
576.79	46.81
576.95	2.34
577.11	0.00
577.27	53.83
577.43	44.47
577.59	98.30
577.75	60.85
577.92	44.47
578.08	14.04
578.24	32.77
578.40	28.09
578.56	44.47
578.72	0.00
578.88	44.47
579.04	124.05
579.21	9.36
579.37	35.11
579.53	93.62
579.69	0.00
579.85	63.19
580.01	100.64
580.17	133.41
580.33	32.77
580.49	77.24
580.65	0.00
580.82	53.83
580.98	25.75
581.14	35.11
581.30	0.00
581.46	0.00
581.62	44.47
581.78	72.56
581.94	72.56
582.10	93.62
582.26	0.00
582.42	39.79
582.58	0.00
582.74	18.72
582.90	88.94
583.06	25.75
583.22	74.90
583.38	4.68
583.54	37.45
583.70	42.13
583.86	42.13
584.02	16.38
584.18	63.19
584.34	18.72
584.50	60.85
584.66	526.62
584.82	891.74
584.98	1013.45
585.14	896.43
585.30	681.10
585.46	447.04
585.62	318.31
585.78	128.73
585.94	121.71
586.10	88.94
586.26	21.06
586.42	16.38
586.58	7.02
586.74	67.88
586.90	16.38
587.06	51.49
587.22	51.49
587.38	46.81
587.54	0.00
587.70	63.19
587.86	107.66
588.02	168.52
588.18	39.79
588.34	100.64
588.49	84.26
588.65	28.09
588.81	37.45
588.97	0.00
589.13	25.75
589.29	4.68
589.45	28.09
589.61	51.49
589.77	0.00
589.93	117.03
590.08	25.75
590.24	30.43
590.40	0.00
590.56	28.09
590.72	39.79
590.88	30.43
591.04	14.04
591.20	63.19
591.35	0.00
591.51	9.36
591.67	39.79
591.83	58.51
591.99	91.28
592.15	74.90
592.31	9.36
592.46	63.19
592.62	88.94
592.78	56.17
592.94	0.00
593.10	53.83
593.26	16.38
593.41	84.26
593.57	32.77
593.73	53.83
593.89	98.30
594.05	166.18
594.20	131.07
594.36	95.96
594.52	100.64
594.68	110.01
594.84	35.11
594.99	28.09
595.15	11.70
595.31	98.30
595.47	7.02
595.62	28.09
595.78	58.51
595.94	42.13
596.10	16.38
596.25	0.00
596.41	23.41
596.57	7.02
596.73	70.22
596.88	30.43
597.04	56.17
597.20	32.77
597.36	88.94
597.51	65.54
597.67	91.28
597.83	51.49
597.99	63.19
598.14	65.54
598.30	23.41
598.46	70.22
598.61	0.00
598.77	74.90
598.93	4.68
599.09	51.49
599.24	25.75
599.40	70.22
599.56	35.11
599.71	11.70
599.87	91.28
600.03	25.75
600.18	72.56
600.34	112.35
600.50	7.02
600.65	23.41
600.81	32.77
600.97	4.68
601.12	30.43
601.28	63.19
601.44	7.02
601.59	44.47
601.75	88.94
601.91	0.00
602.06	0.00
602.22	21.06
602.37	18.72
602.53	53.83
602.69	77.24
602.84	39.79
603.00	67.88
603.16	86.60
603.31	35.11
603.47	44.47
603.62	46.81
603.78	0.00
603.94	9.36
604.09	25.75
604.25	0.00
604.40	42.13
604.56	60.85
604.71	42.13
604.87	93.62
605.03	18.72
605.18	23.41
605.34	35.11
605.49	110.01
605.65	0.00
605.80	32.77
605.96	37.45
606.12	58.51
606.27	0.00
606.43	11.70
606.58	53.83
606.74	114.69
606.89	65.54
607.05	220.01
607.20	196.60
607.36	86.60
607.51	107.66
607.67	77.24
607.82	79.58
607.98	112.35
608.13	70.22
608.29	77.24
608.44	35.11
608.60	37.45
608.75	23.41
608.91	53.83
609.06	149.79
609.22	234.05
609.37	292.57
609.53	210.65
609.68	149.79
609.84	121.71
609.99	98.30
610.15	91.28
610.30	65.54
610.46	32.77
610.61	0.00
610.76	28.09
610.92	72.56
611.07	30.43
611.23	0.00
611.38	30.43
611.54	53.83
611.69	28.09
611.84	88.94
612.00	86.60
612.15	0.00
612.31	74.90
612.46	9.36
612.62	70.22
612.77	56.17
612.92	37.45
613.08	21.06
613.23	0.00
613.39	0.00
613.54	70.22
613.69	180.22
613.85	313.63
614.00	425.98
614.15	386.19
614.31	224.69
614.46	110.01
614.62	91.28
614.77	154.48
614.92	39.79
615.08	58.51
615.23	42.13
615.38	46.81
615.54	65.54
615.69	18.72
615.84	16.38
616.00	44.47
616.15	138.09
616.30	117.03
616.46	42.13
616.61	63.19
616.76	72.56
616.92	72.56
617.07	4.68
617.22	72.56
617.37	0.00
617.53	98.30
617.68	74.90
617.83	79.58
617.99	53.83
618.14	7.02
618.29	67.88
618.45	0.00
618.60	2.34
618.75	0.00
618.90	117.03
619.06	77.24
619.21	0.00
619.36	65.54
619.51	39.79
619.67	53.83
619.82	4.68
619.97	0.00
620.12	42.13
620.28	93.62
620.43	65.54
620.58	11.70
620.73	65.54
620.89	77.24
621.04	105.32
621.19	21.06
621.34	44.47
621.49	98.30
621.65	84.26
621.80	72.56
621.95	0.00
622.10	74.90
622.25	46.81
622.41	72.56
622.56	0.00
622.71	18.72
622.86	72.56
623.01	30.43
623.16	39.79
623.32	23.41
623.47	9.36
623.62	0.00
623.77	91.28
623.92	23.41
624.07	0.00
624.23	14.04
624.38	114.69
624.53	0.00
624.68	0.00
624.83	0.00
624.98	117.03
625.13	21.06
625.29	0.00
625.44	30.43
625.59	0.00
625.74	30.43
625.89	0.00
626.04	25.75
626.19	67.88
626.34	189.58
626.49	222.35
626.65	102.98
626.80	149.79
626.95	77.24
627.10	37.45
627.25	53.83
627.40	84.26
627.55	37.45
627.70	84.26
627.85	0.00
628.00	0.00
628.15	42.13
628.30	23.41
628.45	95.96
628.60	0.00
628.76	4.68
628.91	35.11
629.06	98.30
629.21	0.00
629.36	117.03
629.51	77.24
629.66	11.70
629.81	63.19
629.96	79.58
630.11	88.94
630.26	49.15
630.41	84.26
630.56	32.77
630.71	21.06
630.86	44.47
631.01	30.43
631.16	72.56
631.31	49.15
631.46	0.00
631.61	74.90
631.76	0.00
631.91	88.94
632.06	44.47
632.21	72.56
632.36	25.75
632.51	21.06
632.66	0.00
632.81	0.00
632.96	93.62
633.10	177.88
633.25	126.39
633.40	147.45
633.55	105.32
633.70	18.72
633.85	107.66
634.00	23.41
634.15	98.30
634.30	58.51
634.45	25.75
634.60	49.15
634.75	138.09
634.90	9.36
635.05	0.00
635.19	2.34
635.34	21.06
635.49	16.38
635.64	11.70
635.79	70.22
635.94	70.22
636.09	4.68
636.24	84.26
636.39	16.38
636.53	74.90
636.68	32.77
636.83	0.00
636.98	58.51
637.13	53.83
637.28	0.00
637.43	51.49
637.57	74.90
637.72	95.96
637.87	266.82
638.02	266.82
638.17	224.69
638.32	177.88
638.46	105.32
638.61	77.24
638.76	56.17
638.91	98.30
639.06	95.96
639.20	0.00
639.35	44.47
639.50	81.92
639.65	128.73
639.80	287.89
639.94	344.06
640.09	283.20
640.24	301.93
640.39	215.33
640.54	182.56
640.68	63.19
640.83	0.00
640.98	60.85
641.13	77.24
641.27	9.36
641.42	63.19
641.57	0.00
641.72	0.00
641.86	58.51
642.01	0.00
642.16	21.06
642.31	0.00
642.45	23.41
642.60	51.49
642.75	0.00
642.90	51.49
643.04	46.81
643.19	4.68
643.34	49.15
643.48	0.00
643.63	79.58
643.78	81.92
643.93	42.13
644.07	49.15
644.22	0.00
644.37	42.13
644.51	46.81
644.66	58.51
644.81	2.34
644.95	44.47
645.10	79.58
645.25	0.00
645.39	23.41
645.54	16.38
645.69	11.70
645.83	79.58
645.98	51.49
646.13	0.00
646.27	65.54
646.42	58.51
646.57	2.34
646.71	25.75
646.86	0.00
647.00	0.00
647.15	23.41
647.30	32.77
647.44	74.90
647.59	0.00
647.74	0.00
647.88	114.69
648.03	81.92
648.17	23.41
648.32	11.70
648.47	18.72
648.61	9.36
648.76	42.13
648.90	37.45
649.05	0.00
649.20	53.83
649.34	86.60
649.49	4.68
649.63	18.72
649.78	14.04
649.92	46.81
650.07	51.49
650.21	198.95
650.36	159.16
650.51	191.92
650.65	236.39
650.80	177.88
650.94	70.22
651.09	42.13
651.23	131.07
651.38	0.00
651.52	39.79
651.67	39.79
651.81	4.68
651.96	25.75
652.10	18.72
652.25	0.00
652.39	18.72
652.54	98.30
652.68	4.68
652.83	25.75
652.97	95.96
653.12	58.51
653.26	70.22
653.41	121.71
653.55	23.41
653.70	86.60
653.84	37.45
653.99	42.13
654.13	30.43
654.27	9.36
654.42	53.83
654.56	70.22
654.71	53.83
654.85	58.51
655.00	0.00
655.14	0.00
655.29	30.43
655.43	32.77
655.57	35.11
655.72	0.00
655.86	67.88
656.01	35.11
656.15	44.47
656.30	28.09
656.44	42.13
656.58	0.00
656.73	88.94
656.87	25.75
657.01	77.24
657.16	63.19
657.30	67.88
657.45	0.00
657.59	0.00
657.73	51.49
657.88	77.24
658.02	60.85
658.16	35.11
658.31	35.11
658.45	30.43
658.60	0.00
658.74	4.68
658.88	23.41
659.03	110.01
659.17	35.11
659.31	35.11
659.46	63.19
659.60	67.88
659.74	117.03
659.89	161.50
660.03	81.92
660.17	49.15
660.32	32.77
660.46	74.90
660.60	35.11
660.74	84.26
660.89	30.43
661.03	56.17
661.17	84.26
661.32	60.85
661.46	7.02
661.60	77.24
661.74	58.51
661.89	39.79
662.03	44.47
662.17	77.24
662.31	16.38
662.46	32.77
662.60	2.34
662.74	67.88
662.88	84.26
663.03	32.77
663.17	0.00
663.31	11.70
663.45	42.13
663.60	0.00
663.74	0.00
663.88	88.94
664.02	84.26
664.17	58.51
664.31	16.38
664.45	102.98
664.59	32.77
664.73	16.38
664.88	0.00
665.02	81.92
665.16	9.36
665.30	18.72
665.44	51.49
665.59	63.19
665.73	56.17
665.87	16.38
666.01	18.72
666.15	9.36
666.29	0.00
666.44	58.51
666.58	49.15
666.72	18.72
666.86	9.36
667.00	37.45
667.14	124.05
667.28	86.60
667.43	93.62
667.57	149.79
667.71	152.13
667.85	201.29
667.99	163.84
668.13	77.24
668.27	0.00
668.41	46.81
668.56	67.88
668.70	16.38
668.84	0.00
668.98	7.02
669.12	23.41
669.26	74.90
669.40	72.56
669.54	53.83
669.68	2.34
669.82	7.02
669.96	23.41
670.10	28.09
670.25	11.70
670.39	95.96
670.53	42.13
670.67	53.83
670.81	49.15
670.95	7.02
671.09	65.54
671.23	154.48
671.37	98.30
671.51	203.63
671.65	140.43
671.79	126.39
671.93	128.73
672.07	79.58
672.21	16.38
672.35	70.22
672.49	112.35
672.63	74.90
672.77	11.70
672.91	0.00
673.05	37.45
673.19	60.85
673.33	32.77
673.47	53.83
673.61	0.00
673.75	58.51
673.89	0.00
674.03	81.92
674.17	35.11
674.31	63.19
674.45	37.45
674.59	39.79
674.73	44.47
674.87	18.72
675.01	63.19
675.15	35.11
675.29	0.00
675.43	0.00
675.56	37.45
675.70	77.24
675.84	0.00
675.98	37.45
676.12	0.00
676.26	70.22
676.40	4.68
676.54	84.26
676.68	51.49
676.82	35.11
676.96	112.35
677.10	16.38
677.23	0.00
677.37	28.09
677.51	23.41
677.65	0.00
677.79	7.02
677.93	65.54
678.07	131.07
678.21	46.81
678.34	37.45
678.48	0.00
678.62	63.19
678.76	0.00
678.90	60.85
679.04	0.00
679.18	49.15
679.31	44.47
679.45	0.00
679.59	0.00
679.73	70.22
679.87	14.04
680.00	28.09
680.14	21.06
680.28	0.00
680.42	25.75
680.56	0.00
680.70	100.64
680.83	9.36
680.97	18.72
681.11	32.77
681.25	11.70
681.39	0.00
681.52	2.34
681.66	9.36
681.80	7.02
681.94	39.79
682.07	35.11
682.21	25.75
682.35	79.58
682.49	0.00
682.62	7.02
682.76	4.68
682.90	0.00
683.04	32.77
683.17	25.75
683.31	67.88
683.45	25.75
683.59	18.72
683.72	37.45
683.86	23.41
684.00	0.00
684.13	60.85
684.27	46.81
684.41	51.49
684.55	72.56
684.68	65.54
684.82	77.24
684.96	0.00
685.09	4.68
685.23	74.90
685.37	95.96
685.50	44.47
685.64	110.01
685.78	63.19
685.91	14.04
686.05	16.38
686.19	28.09
686.32	0.00
686.46	42.13
686.60	46.81
686.73	0.00
686.87	81.92
687.01	79.58
687.14	56.17
687.28	30.43
687.42	0.00
687.55	84.26
687.69	11.70
687.82	0.00
687.96	11.70
688.10	58.51
688.23	84.26
688.37	9.36
688.50	67.88
688.64	53.83
688.78	11.70
688.91	0.00
689.05	0.00
689.18	74.90
689.32	32.77
689.46	21.06
689.59	102.98
689.73	32.77
689.86	0.00
690.00	0.00
690.13	18.72
690.27	0.00
690.41	21.06
690.54	51.49
690.68	39.79
690.81	46.81
690.95	0.00
691.08	0.00
691.22	0.00
691.35	53.83
691.49	35.11
691.62	23.41
691.76	7.02
691.89	11.70
692.03	30.43
692.16	37.45
692.30	0.00
692.43	65.54
692.57	67.88
692.70	119.37
692.84	58.51
692.97	140.43
693.11	79.58
693.24	9.36
693.38	88.94
693.51	0.00
693.65	35.11
693.78	37.45
693.92	32.77
694.05	16.38
694.19	49.15
694.32	56.17
694.45	67.88
694.59	21.06
694.72	23.41
694.86	79.58
694.99	67.88
695.13	37.45
695.26	58.51
695.39	0.00
695.53	60.85
695.66	30.43
695.80	51.49
695.93	58.51
696.07	77.24
696.20	63.19
696.33	37.45
696.47	42.13
696.60	18.72
696.73	72.56
696.87	53.83
697.00	0.00
697.14	0.00
697.27	58.51
697.40	25.75
697.54	0.00
697.67	58.51
697.80	16.38
697.94	0.00
698.07	18.72
698.21	53.83
698.34	0.00
698.47	42.13
698.61	14.04
698.74	16.38
698.87	77.24
699.01	49.15
699.14	0.00
699.27	18.72
699.40	39.79
699.54	4.68
699.67	93.62
699.80	28.09
699.94	0.00
700.07	4.68
700.20	51.49
700.34	46.81
700.47	60.85
700.60	0.00
700.73	32.77
700.87	35.11
701.00	35.11
701.13	21.06
701.26	93.62
701.40	0.00
701.53	102.98
701.66	21.06
701.79	56.17
701.93	63.19
702.06	14.04
702.19	77.24
702.32	21.06
702.46	0.00
702.59	79.58
702.72	42.13
702.85	98.30
702.99	60.85
703.12	170.86
703.25	159.16
703.38	217.67
703.51	173.20
703.65	93.62
703.78	77.24
703.91	11.70
704.04	67.88
704.17	63.19
704.31	25.75
704.44	53.83
704.57	0.00
704.70	18.72
704.83	70.22
704.96	16.38
705.10	21.06
705.23	0.00
>>>>>End Processed Spectral Data<<<<<
