SpectraSuite Data File
++++++++++++++++++++++++++++++++++++
Date: Fri Oct 04 12:13:24 GMT-05:00 2013
User: price-jones
Dark Spectrum Present: No
Reference Spectrum Present: No
Number of Sampled Component Spectra: 1
Spectrometers: USB2+H05261
Integration Time (usec): 10000 (USB2+H05261)
Spectra Averaged: 1 (USB2+H05261)
Boxcar Smoothing: 0 (USB2+H05261)
Correct for Electrical Dark: No (USB2+H05261)
Strobe/Lamp Enabled: No (USB2+H05261)
Correct for Detector Non-linearity: No (USB2+H05261)
Correct for Stray Light: No (USB2+H05261)
Number of Pixels in Processed Spectrum: 2048
>>>>>Begin Processed Spectral Data<<<<<
365.73	4.68
365.92	4.68
366.12	4.68
366.32	0.00
366.52	0.00
366.72	0.00
366.91	0.00
367.11	0.00
367.31	0.00
367.51	0.00
367.70	0.00
367.90	0.00
368.10	0.00
368.30	0.00
368.49	0.00
368.69	0.00
368.89	0.00
369.09	0.00
369.28	0.00
369.48	0.00
369.68	0.00
369.87	0.00
370.07	0.00
370.27	0.00
370.47	0.00
370.66	0.00
370.86	0.00
371.06	0.00
371.25	0.00
371.45	0.00
371.65	7.02
371.84	0.00
372.04	0.00
372.24	37.45
372.44	0.00
372.63	9.36
372.83	16.38
373.03	53.83
373.22	0.00
373.42	0.00
373.62	42.13
373.81	32.77
374.01	58.51
374.21	11.70
374.40	4.68
374.60	11.70
374.79	7.02
374.99	91.28
375.19	91.28
375.38	2.34
375.58	0.00
375.78	14.04
375.97	0.00
376.17	4.68
376.37	46.81
376.56	16.38
376.76	21.06
376.95	65.54
377.15	25.75
377.35	0.00
377.54	35.11
377.74	25.75
377.93	35.11
378.13	11.70
378.33	16.38
378.52	25.75
378.72	0.00
378.91	0.00
379.11	14.04
379.31	53.83
379.50	63.19
379.70	0.00
379.89	0.00
380.09	28.09
380.28	0.00
380.48	39.79
380.68	51.49
380.87	30.43
381.07	67.88
381.26	30.43
381.46	0.00
381.65	63.19
381.85	0.00
382.04	0.00
382.24	37.45
382.43	0.00
382.63	58.51
382.83	67.88
383.02	4.68
383.22	28.09
383.41	0.00
383.61	28.09
383.80	60.85
384.00	0.00
384.19	58.51
384.39	18.72
384.58	30.43
384.78	0.00
384.97	23.41
385.17	49.15
385.36	0.00
385.56	35.11
385.75	11.70
385.95	0.00
386.14	49.15
386.34	0.00
386.53	0.00
386.72	0.00
386.92	16.38
387.11	0.00
387.31	63.19
387.50	16.38
387.70	44.47
387.89	98.30
388.09	0.00
388.28	0.00
388.48	0.00
388.67	35.11
388.86	49.15
389.06	91.28
389.25	18.72
389.45	32.77
389.64	0.00
389.84	0.00
390.03	0.00
390.22	7.02
390.42	7.02
390.61	0.00
390.81	135.75
391.00	65.54
391.19	56.17
391.39	79.58
391.58	49.15
391.78	2.34
391.97	102.98
392.16	9.36
392.36	0.00
392.55	0.00
392.75	28.09
392.94	4.68
393.13	9.36
393.33	0.00
393.52	79.58
393.71	39.79
393.91	0.00
394.10	37.45
394.29	0.00
394.49	0.00
394.68	16.38
394.88	84.26
395.07	35.11
395.26	46.81
395.46	21.06
395.65	0.00
395.84	65.54
396.04	79.58
396.23	16.38
396.42	35.11
396.62	58.51
396.81	0.00
397.00	0.00
397.19	0.00
397.39	51.49
397.58	32.77
397.77	0.00
397.97	39.79
398.16	7.02
398.35	0.00
398.55	0.00
398.74	0.00
398.93	7.02
399.12	74.90
399.32	0.00
399.51	23.41
399.70	49.15
399.90	23.41
400.09	42.13
400.28	21.06
400.47	60.85
400.67	65.54
400.86	46.81
401.05	11.70
401.24	9.36
401.44	21.06
401.63	67.88
401.82	18.72
402.01	42.13
402.21	72.56
402.40	32.77
402.59	0.00
402.78	16.38
402.97	91.28
403.17	72.56
403.36	0.00
403.55	35.11
403.74	70.22
403.93	35.11
404.13	35.11
404.32	35.11
404.51	79.58
404.70	0.00
404.89	9.36
405.09	39.79
405.28	23.41
405.47	16.38
405.66	0.00
405.85	0.00
406.05	28.09
406.24	60.85
406.43	0.00
406.62	0.00
406.81	42.13
407.00	23.41
407.20	9.36
407.39	35.11
407.58	72.56
407.77	30.43
407.96	42.13
408.15	4.68
408.34	0.00
408.54	32.77
408.73	0.00
408.92	0.00
409.11	44.47
409.30	81.92
409.49	70.22
409.68	0.00
409.87	25.75
410.07	0.00
410.26	30.43
410.45	11.70
410.64	32.77
410.83	39.79
411.02	30.43
411.21	11.70
411.40	46.81
411.59	46.81
411.78	0.00
411.98	0.00
412.17	84.26
412.36	18.72
412.55	21.06
412.74	2.34
412.93	42.13
413.12	0.00
413.31	25.75
413.50	0.00
413.69	53.83
413.88	0.00
414.07	9.36
414.26	63.19
414.45	88.94
414.64	14.04
414.83	124.05
415.02	0.00
415.22	7.02
415.41	60.85
415.60	0.00
415.79	14.04
415.98	11.70
416.17	0.00
416.36	63.19
416.55	18.72
416.74	0.00
416.93	0.00
417.12	65.54
417.31	0.00
417.50	4.68
417.69	0.00
417.88	46.81
418.07	18.72
418.26	0.00
418.45	42.13
418.64	30.43
418.83	79.58
419.02	0.00
419.21	14.04
419.39	32.77
419.58	18.72
419.77	37.45
419.96	14.04
420.15	84.26
420.34	0.00
420.53	39.79
420.72	77.24
420.91	56.17
421.10	81.92
421.29	67.88
421.48	16.38
421.67	77.24
421.86	67.88
422.05	16.38
422.24	9.36
422.43	0.00
422.61	46.81
422.80	4.68
422.99	91.28
423.18	60.85
423.37	37.45
423.56	63.19
423.75	25.75
423.94	7.02
424.13	21.06
424.32	0.00
424.50	0.00
424.69	58.51
424.88	70.22
425.07	79.58
425.26	93.62
425.45	0.00
425.64	0.00
425.83	63.19
426.01	25.75
426.20	18.72
426.39	44.47
426.58	32.77
426.77	30.43
426.96	46.81
427.15	44.47
427.33	37.45
427.52	44.47
427.71	42.13
427.90	2.34
428.09	56.17
428.28	0.00
428.46	56.17
428.65	0.00
428.84	32.77
429.03	70.22
429.22	39.79
429.40	53.83
429.59	74.90
429.78	7.02
429.97	11.70
430.16	74.90
430.34	23.41
430.53	35.11
430.72	32.77
430.91	65.54
431.10	0.00
431.28	65.54
431.47	46.81
431.66	28.09
431.85	60.85
432.03	32.77
432.22	93.62
432.41	0.00
432.60	126.39
432.79	18.72
432.97	49.15
433.16	4.68
433.35	39.79
433.54	9.36
433.72	39.79
433.91	53.83
434.10	7.02
434.28	0.00
434.47	0.00
434.66	56.17
434.85	70.22
435.03	0.00
435.22	32.77
435.41	46.81
435.59	42.13
435.78	46.81
435.97	39.79
436.16	11.70
436.34	23.41
436.53	44.47
436.72	4.68
436.90	0.00
437.09	58.51
437.28	32.77
437.46	74.90
437.65	37.45
437.84	63.19
438.02	4.68
438.21	7.02
438.40	0.00
438.58	0.00
438.77	51.49
438.96	42.13
439.14	46.81
439.33	74.90
439.52	88.94
439.70	2.34
439.89	25.75
440.08	53.83
440.26	0.00
440.45	56.17
440.63	21.06
440.82	44.47
441.01	18.72
441.19	72.56
441.38	16.38
441.57	11.70
441.75	11.70
441.94	74.90
442.12	2.34
442.31	14.04
442.50	100.64
442.68	23.41
442.87	35.11
443.05	30.43
443.24	51.49
443.43	28.09
443.61	72.56
443.80	37.45
443.98	105.32
444.17	35.11
444.35	35.11
444.54	25.75
444.73	21.06
444.91	0.00
445.10	37.45
445.28	28.09
445.47	42.13
445.65	21.06
445.84	39.79
446.02	0.00
446.21	23.41
446.39	110.01
446.58	51.49
446.77	49.15
446.95	16.38
447.14	79.58
447.32	0.00
447.51	14.04
447.69	56.17
447.88	0.00
448.06	16.38
448.25	16.38
448.43	0.00
448.62	0.00
448.80	0.00
448.99	23.41
449.17	23.41
449.36	30.43
449.54	46.81
449.73	42.13
449.91	23.41
450.10	14.04
450.28	28.09
450.46	79.58
450.65	70.22
450.83	23.41
451.02	0.00
451.20	70.22
451.39	32.77
451.57	0.00
451.76	0.00
451.94	21.06
452.13	2.34
452.31	42.13
452.49	11.70
452.68	42.13
452.86	0.00
453.05	2.34
453.23	11.70
453.42	63.19
453.60	0.00
453.78	42.13
453.97	18.72
454.15	23.41
454.34	0.00
454.52	46.81
454.70	53.83
454.89	0.00
455.07	112.35
455.26	21.06
455.44	30.43
455.62	49.15
455.81	0.00
455.99	30.43
456.17	0.00
456.36	58.51
456.54	39.79
456.73	0.00
456.91	0.00
457.09	7.02
457.28	35.11
457.46	35.11
457.64	0.00
457.83	0.00
458.01	44.47
458.19	74.90
458.38	42.13
458.56	2.34
458.74	46.81
458.93	65.54
459.11	98.30
459.29	18.72
459.48	28.09
459.66	53.83
459.84	37.45
460.03	30.43
460.21	28.09
460.39	0.00
460.57	30.43
460.76	2.34
460.94	18.72
461.12	30.43
461.31	0.00
461.49	58.51
461.67	28.09
461.85	49.15
462.04	42.13
462.22	93.62
462.40	23.41
462.59	51.49
462.77	21.06
462.95	0.00
463.13	30.43
463.32	14.04
463.50	4.68
463.68	67.88
463.86	25.75
464.05	18.72
464.23	25.75
464.41	49.15
464.59	9.36
464.78	91.28
464.96	0.00
465.14	0.00
465.32	58.51
465.50	23.41
465.69	0.00
465.87	35.11
466.05	35.11
466.23	53.83
466.41	0.00
466.60	14.04
466.78	0.00
466.96	37.45
467.14	49.15
467.32	37.45
467.51	39.79
467.69	21.06
467.87	46.81
468.05	77.24
468.23	44.47
468.41	37.45
468.60	79.58
468.78	4.68
468.96	0.00
469.14	0.00
469.32	0.00
469.50	74.90
469.69	2.34
469.87	84.26
470.05	18.72
470.23	16.38
470.41	21.06
470.59	74.90
470.77	63.19
470.95	16.38
471.14	102.98
471.32	0.00
471.50	51.49
471.68	30.43
471.86	30.43
472.04	0.00
472.22	58.51
472.40	0.00
472.58	67.88
472.77	21.06
472.95	58.51
473.13	100.64
473.31	0.00
473.49	0.00
473.67	32.77
473.85	30.43
474.03	37.45
474.21	16.38
474.39	0.00
474.57	65.54
474.75	4.68
474.93	11.70
475.12	100.64
475.30	0.00
475.48	93.62
475.66	117.03
475.84	53.83
476.02	56.17
476.20	0.00
476.38	37.45
476.56	0.00
476.74	35.11
476.92	14.04
477.10	7.02
477.28	0.00
477.46	28.09
477.64	28.09
477.82	28.09
478.00	32.77
478.18	0.00
478.36	65.54
478.54	44.47
478.72	65.54
478.90	23.41
479.08	0.00
479.26	63.19
479.44	42.13
479.62	63.19
479.80	23.41
479.98	124.05
480.16	88.94
480.34	60.85
480.52	16.38
480.70	21.06
480.88	95.96
481.06	117.03
481.24	114.69
481.41	72.56
481.59	60.85
481.77	91.28
481.95	28.09
482.13	35.11
482.31	49.15
482.49	0.00
482.67	110.01
482.85	60.85
483.03	93.62
483.21	49.15
483.39	53.83
483.57	56.17
483.74	86.60
483.92	79.58
484.10	37.45
484.28	0.00
484.46	60.85
484.64	0.00
484.82	79.58
485.00	0.00
485.18	60.85
485.35	0.00
485.53	56.17
485.71	23.41
485.89	0.00
486.07	49.15
486.25	65.54
486.43	0.00
486.61	9.36
486.78	65.54
486.96	0.00
487.14	0.00
487.32	58.51
487.50	79.58
487.68	0.00
487.85	74.90
488.03	0.00
488.21	100.64
488.39	4.68
488.57	0.00
488.75	23.41
488.92	124.05
489.10	11.70
489.28	32.77
489.46	9.36
489.64	133.41
489.81	98.30
489.99	49.15
490.17	58.51
490.35	91.28
490.53	56.17
490.70	0.00
490.88	74.90
491.06	32.77
491.24	4.68
491.41	37.45
491.59	32.77
491.77	32.77
491.95	30.43
492.13	28.09
492.30	9.36
492.48	7.02
492.66	42.13
492.84	30.43
493.01	44.47
493.19	0.00
493.37	65.54
493.54	18.72
493.72	30.43
493.90	14.04
494.08	56.17
494.25	0.00
494.43	39.79
494.61	23.41
494.79	2.34
494.96	88.94
495.14	93.62
495.32	107.66
495.49	0.00
495.67	53.83
495.85	0.00
496.02	9.36
496.20	95.96
496.38	60.85
496.55	56.17
496.73	37.45
496.91	93.62
497.09	0.00
497.26	0.00
497.44	32.77
497.62	25.75
497.79	81.92
497.97	35.11
498.14	67.88
498.32	133.41
498.50	72.56
498.67	25.75
498.85	42.13
499.03	49.15
499.20	58.51
499.38	35.11
499.56	56.17
499.73	11.70
499.91	63.19
500.08	79.58
500.26	91.28
500.44	0.00
500.61	0.00
500.79	11.70
500.97	23.41
501.14	86.60
501.32	72.56
501.49	93.62
501.67	0.00
501.84	67.88
502.02	16.38
502.20	0.00
502.37	46.81
502.55	25.75
502.72	79.58
502.90	98.30
503.07	0.00
503.25	35.11
503.43	65.54
503.60	58.51
503.78	0.00
503.95	49.15
504.13	32.77
504.30	37.45
504.48	7.02
504.65	16.38
504.83	0.00
505.01	9.36
505.18	28.09
505.36	23.41
505.53	74.90
505.71	49.15
505.88	56.17
506.06	25.75
506.23	0.00
506.41	42.13
506.58	32.77
506.76	72.56
506.93	25.75
507.11	21.06
507.28	9.36
507.46	0.00
507.63	2.34
507.81	86.60
507.98	81.92
508.16	7.02
508.33	60.85
508.50	72.56
508.68	0.00
508.85	25.75
509.03	0.00
509.20	0.00
509.38	0.00
509.55	74.90
509.73	23.41
509.90	0.00
510.08	0.00
510.25	65.54
510.42	11.70
510.60	0.00
510.77	0.00
510.95	63.19
511.12	2.34
511.30	44.47
511.47	39.79
511.64	42.13
511.82	77.24
511.99	37.45
512.17	25.75
512.34	110.01
512.51	95.96
512.69	21.06
512.86	18.72
513.04	28.09
513.21	18.72
513.38	67.88
513.56	35.11
513.73	2.34
513.90	56.17
514.08	46.81
514.25	16.38
514.43	21.06
514.60	30.43
514.77	81.92
514.95	7.02
515.12	84.26
515.29	18.72
515.47	53.83
515.64	56.17
515.81	105.32
515.99	110.01
516.16	7.02
516.33	14.04
516.51	9.36
516.68	0.00
516.85	0.00
517.03	51.49
517.20	37.45
517.37	117.03
517.54	107.66
517.72	49.15
517.89	21.06
518.06	35.11
518.24	0.00
518.41	49.15
518.58	16.38
518.75	56.17
518.93	98.30
519.10	9.36
519.27	51.49
519.45	37.45
519.62	49.15
519.79	16.38
519.96	4.68
520.14	23.41
520.31	0.00
520.48	0.00
520.65	56.17
520.83	88.94
521.00	7.02
521.17	91.28
521.34	4.68
521.52	0.00
521.69	72.56
521.86	39.79
522.03	0.00
522.20	67.88
522.38	93.62
522.55	23.41
522.72	53.83
522.89	63.19
523.07	21.06
523.24	14.04
523.41	0.00
523.58	79.58
523.75	46.81
523.92	70.22
524.10	70.22
524.27	58.51
524.44	70.22
524.61	37.45
524.78	60.85
524.96	65.54
525.13	81.92
525.30	28.09
525.47	21.06
525.64	56.17
525.81	2.34
525.98	30.43
526.16	46.81
526.33	65.54
526.50	65.54
526.67	16.38
526.84	23.41
527.01	65.54
527.18	35.11
527.36	0.00
527.53	0.00
527.70	16.38
527.87	0.00
528.04	0.00
528.21	18.72
528.38	53.83
528.55	42.13
528.72	7.02
528.89	58.51
529.07	4.68
529.24	65.54
529.41	91.28
529.58	0.00
529.75	0.00
529.92	18.72
530.09	0.00
530.26	56.17
530.43	105.32
530.60	51.49
530.77	88.94
530.94	79.58
531.11	60.85
531.28	23.41
531.46	18.72
531.63	0.00
531.80	11.70
531.97	0.00
532.14	98.30
532.31	74.90
532.48	56.17
532.65	30.43
532.82	0.00
532.99	46.81
533.16	114.69
533.33	37.45
533.50	60.85
533.67	65.54
533.84	0.00
534.01	14.04
534.18	2.34
534.35	84.26
534.52	63.19
534.69	77.24
534.86	30.43
535.03	49.15
535.20	42.13
535.37	67.88
535.54	30.43
535.71	28.09
535.88	74.90
536.05	35.11
536.22	84.26
536.38	79.58
536.55	42.13
536.72	21.06
536.89	30.43
537.06	42.13
537.23	32.77
537.40	23.41
537.57	37.45
537.74	98.30
537.91	28.09
538.08	60.85
538.25	0.00
538.42	124.05
538.59	46.81
538.75	46.81
538.92	56.17
539.09	0.00
539.26	70.22
539.43	0.00
539.60	51.49
539.77	11.70
539.94	25.75
540.11	23.41
540.28	44.47
540.44	72.56
540.61	9.36
540.78	37.45
540.95	0.00
541.12	23.41
541.29	0.00
541.46	11.70
541.62	58.51
541.79	11.70
541.96	0.00
542.13	39.79
542.30	42.13
542.47	51.49
542.63	42.13
542.80	37.45
542.97	16.38
543.14	0.00
543.31	11.70
543.48	51.49
543.64	2.34
543.81	11.70
543.98	0.00
544.15	21.06
544.32	37.45
544.48	88.94
544.65	51.49
544.82	0.00
544.99	102.98
545.16	0.00
545.32	0.00
545.49	42.13
545.66	63.19
545.83	65.54
546.00	112.35
546.16	105.32
546.33	30.43
546.50	28.09
546.67	25.75
546.83	49.15
547.00	35.11
547.17	35.11
547.34	18.72
547.50	0.00
547.67	56.17
547.84	46.81
548.00	60.85
548.17	114.69
548.34	84.26
548.51	30.43
548.67	32.77
548.84	32.77
549.01	65.54
549.18	11.70
549.34	30.43
549.51	18.72
549.68	37.45
549.84	4.68
550.01	18.72
550.18	72.56
550.34	44.47
550.51	4.68
550.68	0.00
550.84	0.00
551.01	11.70
551.18	102.98
551.34	28.09
551.51	46.81
551.68	46.81
551.84	28.09
552.01	46.81
552.18	0.00
552.34	0.00
552.51	37.45
552.68	67.88
552.84	63.19
553.01	0.00
553.18	32.77
553.34	7.02
553.51	28.09
553.67	23.41
553.84	102.98
554.01	74.90
554.17	28.09
554.34	23.41
554.51	102.98
554.67	11.70
554.84	0.00
555.00	65.54
555.17	72.56
555.33	9.36
555.50	2.34
555.67	77.24
555.83	81.92
556.00	105.32
556.16	21.06
556.33	95.96
556.50	0.00
556.66	42.13
556.83	70.22
556.99	35.11
557.16	7.02
557.32	28.09
557.49	49.15
557.65	56.17
557.82	35.11
557.98	11.70
558.15	25.75
558.32	70.22
558.48	0.00
558.65	72.56
558.81	28.09
558.98	67.88
559.14	7.02
559.31	53.83
559.47	70.22
559.64	0.00
559.80	28.09
559.97	7.02
560.13	74.90
560.30	0.00
560.46	79.58
560.63	65.54
560.79	63.19
560.96	65.54
561.12	91.28
561.29	98.30
561.45	30.43
561.61	42.13
561.78	11.70
561.94	0.00
562.11	67.88
562.27	37.45
562.44	0.00
562.60	0.00
562.77	74.90
562.93	56.17
563.10	0.00
563.26	77.24
563.42	0.00
563.59	79.58
563.75	14.04
563.92	91.28
564.08	0.00
564.24	11.70
564.41	100.64
564.57	14.04
564.74	98.30
564.90	60.85
565.07	35.11
565.23	107.66
565.39	60.85
565.56	93.62
565.72	35.11
565.88	49.15
566.05	79.58
566.21	63.19
566.38	25.75
566.54	14.04
566.70	0.00
566.87	65.54
567.03	93.62
567.19	105.32
567.36	70.22
567.52	0.00
567.68	21.06
567.85	42.13
568.01	56.17
568.17	28.09
568.34	16.38
568.50	84.26
568.66	25.75
568.83	145.11
568.99	42.13
569.15	53.83
569.32	166.18
569.48	16.38
569.64	42.13
569.81	2.34
569.97	79.58
570.13	60.85
570.30	35.11
570.46	49.15
570.62	65.54
570.78	14.04
570.95	25.75
571.11	0.00
571.27	93.62
571.43	0.00
571.60	102.98
571.76	93.62
571.92	25.75
572.09	4.68
572.25	53.83
572.41	74.90
572.57	18.72
572.74	0.00
572.90	32.77
573.06	42.13
573.22	0.00
573.38	35.11
573.55	84.26
573.71	77.24
573.87	81.92
574.03	56.17
574.20	84.26
574.36	0.00
574.52	81.92
574.68	39.79
574.84	23.41
575.01	70.22
575.17	21.06
575.33	60.85
575.49	21.06
575.65	32.77
575.82	28.09
575.98	67.88
576.14	18.72
576.30	25.75
576.46	56.17
576.62	67.88
576.79	72.56
576.95	42.13
577.11	37.45
577.27	81.92
577.43	100.64
577.59	114.69
577.75	25.75
577.92	11.70
578.08	0.00
578.24	65.54
578.40	65.54
578.56	25.75
578.72	21.06
578.88	21.06
579.04	37.45
579.21	0.00
579.37	49.15
579.53	42.13
579.69	110.01
579.85	14.04
580.01	91.28
580.17	7.02
580.33	14.04
580.49	37.45
580.65	0.00
580.82	53.83
580.98	77.24
581.14	63.19
581.30	0.00
581.46	37.45
581.62	28.09
581.78	65.54
581.94	72.56
582.10	0.00
582.26	81.92
582.42	23.41
582.58	9.36
582.74	95.96
582.90	60.85
583.06	2.34
583.22	84.26
583.38	18.72
583.54	37.45
583.70	35.11
583.86	63.19
584.02	46.81
584.18	67.88
584.34	0.00
584.50	65.54
584.66	42.13
584.82	21.06
584.98	0.00
585.14	42.13
585.30	0.00
585.46	39.79
585.62	74.90
585.78	42.13
585.94	30.43
586.10	77.24
586.26	9.36
586.42	77.24
586.58	0.00
586.74	37.45
586.90	46.81
587.06	0.00
587.22	18.72
587.38	100.64
587.54	0.00
587.70	9.36
587.86	21.06
588.02	4.68
588.18	0.00
588.34	105.32
588.49	28.09
588.65	30.43
588.81	46.81
588.97	53.83
589.13	84.26
589.29	25.75
589.45	28.09
589.61	35.11
589.77	67.88
589.93	11.70
590.08	91.28
590.24	65.54
590.40	0.00
590.56	32.77
590.72	0.00
590.88	14.04
591.04	56.17
591.20	0.00
591.35	51.49
591.51	58.51
591.67	0.00
591.83	35.11
591.99	37.45
592.15	28.09
592.31	44.47
592.46	42.13
592.62	37.45
592.78	4.68
592.94	0.00
593.10	49.15
593.26	35.11
593.41	18.72
593.57	32.77
593.73	0.00
593.89	56.17
594.05	53.83
594.20	81.92
594.36	86.60
594.52	0.00
594.68	0.00
594.84	32.77
594.99	4.68
595.15	86.60
595.31	4.68
595.47	0.00
595.62	25.75
595.78	49.15
595.94	105.32
596.10	84.26
596.25	30.43
596.41	98.30
596.57	28.09
596.73	67.88
596.88	77.24
597.04	0.00
597.20	74.90
597.36	0.00
597.51	51.49
597.67	23.41
597.83	60.85
597.99	46.81
598.14	72.56
598.30	32.77
598.46	121.71
598.61	93.62
598.77	2.34
598.93	77.24
599.09	7.02
599.24	16.38
599.40	37.45
599.56	56.17
599.71	28.09
599.87	25.75
600.03	0.00
600.18	0.00
600.34	0.00
600.50	0.00
600.65	14.04
600.81	58.51
600.97	95.96
601.12	100.64
601.28	49.15
601.44	11.70
601.59	95.96
601.75	32.77
601.91	11.70
602.06	39.79
602.22	4.68
602.37	23.41
602.53	100.64
602.69	60.85
602.84	0.00
603.00	18.72
603.16	84.26
603.31	35.11
603.47	65.54
603.62	0.00
603.78	16.38
603.94	37.45
604.09	88.94
604.25	65.54
604.40	0.00
604.56	0.00
604.71	0.00
604.87	53.83
605.03	25.75
605.18	30.43
605.34	72.56
605.49	16.38
605.65	25.75
605.80	0.00
605.96	81.92
606.12	28.09
606.27	30.43
606.43	14.04
606.58	44.47
606.74	39.79
606.89	0.00
607.05	32.77
607.20	0.00
607.36	0.00
607.51	4.68
607.67	67.88
607.82	88.94
607.98	14.04
608.13	18.72
608.29	25.75
608.44	0.00
608.60	35.11
608.75	84.26
608.91	0.00
609.06	30.43
609.22	105.32
609.37	7.02
609.53	0.00
609.68	0.00
609.84	9.36
609.99	42.13
610.15	67.88
610.30	67.88
610.46	72.56
610.61	42.13
610.76	32.77
610.92	18.72
611.07	91.28
611.23	100.64
611.38	37.45
611.54	35.11
611.69	11.70
611.84	23.41
612.00	0.00
612.15	32.77
612.31	32.77
612.46	0.00
612.62	42.13
612.77	65.54
612.92	0.00
613.08	25.75
613.23	2.34
613.39	74.90
613.54	51.49
613.69	23.41
613.85	4.68
614.00	25.75
614.15	0.00
614.31	32.77
614.46	46.81
614.62	95.96
614.77	56.17
614.92	23.41
615.08	23.41
615.23	0.00
615.38	105.32
615.54	0.00
615.69	0.00
615.84	74.90
616.00	86.60
616.15	91.28
616.30	30.43
616.46	7.02
616.61	0.00
616.76	0.00
616.92	32.77
617.07	53.83
617.22	35.11
617.37	23.41
617.53	0.00
617.68	67.88
617.83	81.92
617.99	11.70
618.14	30.43
618.29	0.00
618.45	65.54
618.60	56.17
618.75	74.90
618.90	46.81
619.06	65.54
619.21	138.09
619.36	16.38
619.51	32.77
619.67	42.13
619.82	42.13
619.97	30.43
620.12	18.72
620.28	0.00
620.43	25.75
620.58	112.35
620.73	49.15
620.89	53.83
621.04	0.00
621.19	53.83
621.34	16.38
621.49	53.83
621.65	114.69
621.80	53.83
621.95	30.43
622.10	7.02
622.25	14.04
622.41	91.28
622.56	23.41
622.71	91.28
622.86	63.19
623.01	46.81
623.16	51.49
623.32	32.77
623.47	49.15
623.62	0.00
623.77	70.22
623.92	70.22
624.07	98.30
624.23	77.24
624.38	86.60
624.53	98.30
624.68	58.51
624.83	37.45
624.98	37.45
625.13	4.68
625.29	21.06
625.44	14.04
625.59	35.11
625.74	58.51
625.89	7.02
626.04	72.56
626.19	0.00
626.34	23.41
626.49	84.26
626.65	53.83
626.80	0.00
626.95	25.75
627.10	0.00
627.25	51.49
627.40	63.19
627.55	2.34
627.70	46.81
627.85	112.35
628.00	84.26
628.15	42.13
628.30	32.77
628.45	39.79
628.60	88.94
628.76	98.30
628.91	63.19
629.06	9.36
629.21	39.79
629.36	23.41
629.51	119.37
629.66	0.00
629.81	46.81
629.96	0.00
630.11	84.26
630.26	21.06
630.41	0.00
630.56	35.11
630.71	18.72
630.86	95.96
631.01	84.26
631.16	0.00
631.31	74.90
631.46	0.00
631.61	4.68
631.76	79.58
631.91	60.85
632.06	0.00
632.21	30.43
632.36	0.00
632.51	0.00
632.66	51.49
632.81	4.68
632.96	25.75
633.10	0.00
633.25	46.81
633.40	88.94
633.55	0.00
633.70	91.28
633.85	30.43
634.00	53.83
634.15	9.36
634.30	79.58
634.45	44.47
634.60	37.45
634.75	86.60
634.90	58.51
635.05	65.54
635.19	23.41
635.34	25.75
635.49	98.30
635.64	25.75
635.79	67.88
635.94	23.41
636.09	56.17
636.24	23.41
636.39	0.00
636.53	131.07
636.68	44.47
636.83	51.49
636.98	0.00
637.13	0.00
637.28	18.72
637.43	25.75
637.57	60.85
637.72	65.54
637.87	16.38
638.02	46.81
638.17	23.41
638.32	65.54
638.46	65.54
638.61	30.43
638.76	65.54
638.91	98.30
639.06	37.45
639.20	100.64
639.35	35.11
639.50	77.24
639.65	44.47
639.80	0.00
639.94	25.75
640.09	0.00
640.24	42.13
640.39	60.85
640.54	4.68
640.68	37.45
640.83	79.58
640.98	4.68
641.13	0.00
641.27	39.79
641.42	0.00
641.57	107.66
641.72	72.56
641.86	58.51
642.01	49.15
642.16	37.45
642.31	9.36
642.45	35.11
642.60	37.45
642.75	9.36
642.90	18.72
643.04	112.35
643.19	14.04
643.34	58.51
643.48	35.11
643.63	0.00
643.78	37.45
643.93	60.85
644.07	28.09
644.22	32.77
644.37	56.17
644.51	86.60
644.66	49.15
644.81	49.15
644.95	63.19
645.10	0.00
645.25	49.15
645.39	30.43
645.54	0.00
645.69	42.13
645.83	4.68
645.98	84.26
646.13	114.69
646.27	65.54
646.42	39.79
646.57	30.43
646.71	21.06
646.86	0.00
647.00	28.09
647.15	35.11
647.30	28.09
647.44	7.02
647.59	93.62
647.74	0.00
647.88	91.28
648.03	0.00
648.17	93.62
648.32	0.00
648.47	16.38
648.61	2.34
648.76	56.17
648.90	4.68
649.05	81.92
649.20	32.77
649.34	21.06
649.49	23.41
649.63	9.36
649.78	102.98
649.92	93.62
650.07	35.11
650.21	37.45
650.36	124.05
650.51	0.00
650.65	0.00
650.80	23.41
650.94	95.96
651.09	14.04
651.23	0.00
651.38	63.19
651.52	84.26
651.67	39.79
651.81	25.75
651.96	16.38
652.10	70.22
652.25	63.19
652.39	58.51
652.54	51.49
652.68	32.77
652.83	4.68
652.97	14.04
653.12	14.04
653.26	0.00
653.41	16.38
653.55	44.47
653.70	91.28
653.84	63.19
653.99	58.51
654.13	0.00
654.27	7.02
654.42	4.68
654.56	72.56
654.71	44.47
654.85	2.34
655.00	56.17
655.14	0.00
655.29	14.04
655.43	32.77
655.57	39.79
655.72	30.43
655.86	65.54
656.01	102.98
656.15	2.34
656.30	65.54
656.44	46.81
656.58	53.83
656.73	112.35
656.87	91.28
657.01	11.70
657.16	53.83
657.30	4.68
657.45	9.36
657.59	0.00
657.73	72.56
657.88	0.00
658.02	21.06
658.16	0.00
658.31	28.09
658.45	88.94
658.60	0.00
658.74	0.00
658.88	81.92
659.03	65.54
659.17	9.36
659.31	46.81
659.46	35.11
659.60	35.11
659.74	9.36
659.89	51.49
660.03	0.00
660.17	70.22
660.32	53.83
660.46	42.13
660.60	25.75
660.74	58.51
660.89	11.70
661.03	0.00
661.17	0.00
661.32	37.45
661.46	42.13
661.60	0.00
661.74	67.88
661.89	37.45
662.03	7.02
662.17	79.58
662.31	0.00
662.46	0.00
662.60	72.56
662.74	0.00
662.88	37.45
663.03	0.00
663.17	0.00
663.31	77.24
663.45	74.90
663.60	53.83
663.74	0.00
663.88	0.00
664.02	63.19
664.17	81.92
664.31	0.00
664.45	0.00
664.59	18.72
664.73	37.45
664.88	35.11
665.02	51.49
665.16	23.41
665.30	58.51
665.44	0.00
665.59	46.81
665.73	65.54
665.87	58.51
666.01	30.43
666.15	0.00
666.29	49.15
666.44	28.09
666.58	114.69
666.72	28.09
666.86	4.68
667.00	30.43
667.14	14.04
667.28	0.00
667.43	0.00
667.57	81.92
667.71	53.83
667.85	0.00
667.99	60.85
668.13	102.98
668.27	0.00
668.41	77.24
668.56	65.54
668.70	0.00
668.84	72.56
668.98	21.06
669.12	9.36
669.26	46.81
669.40	21.06
669.54	4.68
669.68	63.19
669.82	42.13
669.96	72.56
670.10	25.75
670.25	51.49
670.39	46.81
670.53	23.41
670.67	0.00
670.81	16.38
670.95	0.00
671.09	0.00
671.23	0.00
671.37	72.56
671.51	9.36
671.65	81.92
671.79	7.02
671.93	4.68
672.07	110.01
672.21	51.49
672.35	32.77
672.49	30.43
672.63	14.04
672.77	56.17
672.91	86.60
673.05	0.00
673.19	70.22
673.33	30.43
673.47	25.75
673.61	30.43
673.75	86.60
673.89	21.06
674.03	16.38
674.17	4.68
674.31	65.54
674.45	46.81
674.59	23.41
674.73	44.47
674.87	77.24
675.01	4.68
675.15	124.05
675.29	0.00
675.43	0.00
675.56	63.19
675.70	60.85
675.84	0.00
675.98	58.51
676.12	4.68
676.26	0.00
676.40	28.09
676.54	0.00
676.68	37.45
676.82	39.79
676.96	35.11
677.10	0.00
677.23	35.11
677.37	91.28
677.51	16.38
677.65	0.00
677.79	0.00
677.93	37.45
678.07	49.15
678.21	16.38
678.34	46.81
678.48	88.94
678.62	0.00
678.76	32.77
678.90	23.41
679.04	35.11
679.18	0.00
679.31	74.90
679.45	39.79
679.59	37.45
679.73	0.00
679.87	18.72
680.00	32.77
680.14	0.00
680.28	0.00
680.42	0.00
680.56	60.85
680.70	21.06
680.83	110.01
680.97	53.83
681.11	0.00
681.25	23.41
681.39	56.17
681.52	72.56
681.66	4.68
681.80	77.24
681.94	0.00
682.07	7.02
682.21	98.30
682.35	0.00
682.49	0.00
682.62	56.17
682.76	0.00
682.90	4.68
683.04	51.49
683.17	21.06
683.31	77.24
683.45	23.41
683.59	58.51
683.72	60.85
683.86	100.64
684.00	16.38
684.13	23.41
684.27	98.30
684.41	42.13
684.55	0.00
684.68	35.11
684.82	14.04
684.96	60.85
685.09	0.00
685.23	0.00
685.37	58.51
685.50	53.83
685.64	56.17
685.78	23.41
685.91	46.81
686.05	63.19
686.19	81.92
686.32	4.68
686.46	18.72
686.60	81.92
686.73	58.51
686.87	67.88
687.01	37.45
687.14	4.68
687.28	74.90
687.42	70.22
687.55	0.00
687.69	95.96
687.82	72.56
687.96	14.04
688.10	98.30
688.23	63.19
688.37	56.17
688.50	70.22
688.64	65.54
688.78	58.51
688.91	39.79
689.05	35.11
689.18	37.45
689.32	72.56
689.46	2.34
689.59	28.09
689.73	16.38
689.86	0.00
690.00	65.54
690.13	39.79
690.27	63.19
690.41	74.90
690.54	16.38
690.68	91.28
690.81	39.79
690.95	58.51
691.08	30.43
691.22	23.41
691.35	42.13
691.49	0.00
691.62	0.00
691.76	30.43
691.89	0.00
692.03	0.00
692.16	18.72
692.30	39.79
692.43	53.83
692.57	21.06
692.70	56.17
692.84	2.34
692.97	35.11
693.11	0.00
693.24	11.70
693.38	51.49
693.51	9.36
693.65	56.17
693.78	2.34
693.92	0.00
694.05	37.45
694.19	0.00
694.32	39.79
694.45	65.54
694.59	0.00
694.72	107.66
694.86	39.79
694.99	7.02
695.13	86.60
695.26	30.43
695.39	117.03
695.53	0.00
695.66	53.83
695.80	0.00
695.93	2.34
696.07	21.06
696.20	58.51
696.33	0.00
696.47	25.75
696.60	88.94
696.73	0.00
696.87	9.36
697.00	11.70
697.14	7.02
697.27	53.83
697.40	72.56
697.54	0.00
697.67	0.00
697.80	0.00
697.94	56.17
698.07	35.11
698.21	0.00
698.34	53.83
698.47	51.49
698.61	72.56
698.74	39.79
698.87	84.26
699.01	107.66
699.14	65.54
699.27	23.41
699.40	0.00
699.54	21.06
699.67	44.47
699.80	18.72
699.94	35.11
700.07	14.04
700.20	28.09
700.34	39.79
700.47	0.00
700.60	28.09
700.73	11.70
700.87	4.68
701.00	65.54
701.13	42.13
701.26	44.47
701.40	93.62
701.53	84.26
701.66	23.41
701.79	72.56
701.93	65.54
702.06	35.11
702.19	14.04
702.32	0.00
702.46	21.06
702.59	58.51
702.72	39.79
702.85	114.69
702.99	0.00
703.12	67.88
703.25	100.64
703.38	53.83
703.51	44.47
703.65	58.51
703.78	23.41
703.91	49.15
704.04	32.77
704.17	100.64
704.31	65.54
704.44	0.00
704.57	23.41
704.70	25.75
704.83	30.43
704.96	88.94
705.10	28.09
705.23	21.06
>>>>>End Processed Spectral Data<<<<<
