SpectraSuite Data File
++++++++++++++++++++++++++++++++++++
Date: Fri Oct 04 12:13:25 GMT-05:00 2013
User: price-jones
Dark Spectrum Present: No
Reference Spectrum Present: No
Number of Sampled Component Spectra: 1
Spectrometers: USB2+H05261
Integration Time (usec): 10000 (USB2+H05261)
Spectra Averaged: 1 (USB2+H05261)
Boxcar Smoothing: 0 (USB2+H05261)
Correct for Electrical Dark: No (USB2+H05261)
Strobe/Lamp Enabled: No (USB2+H05261)
Correct for Detector Non-linearity: No (USB2+H05261)
Correct for Stray Light: No (USB2+H05261)
Number of Pixels in Processed Spectrum: 2048
>>>>>Begin Processed Spectral Data<<<<<
365.73	0.00
365.92	0.00
366.12	0.00
366.32	0.00
366.52	0.00
366.72	0.00
366.91	0.00
367.11	0.00
367.31	0.00
367.51	0.00
367.70	0.00
367.90	0.00
368.10	0.00
368.30	0.00
368.49	0.00
368.69	0.00
368.89	0.00
369.09	0.00
369.28	0.00
369.48	0.00
369.68	0.00
369.87	0.00
370.07	0.00
370.27	0.00
370.47	0.00
370.66	0.00
370.86	0.00
371.06	0.00
371.25	0.00
371.45	0.00
371.65	0.00
371.84	0.00
372.04	23.41
372.24	0.00
372.44	0.00
372.63	0.00
372.83	46.81
373.03	35.11
373.22	35.11
373.42	7.02
373.62	44.47
373.81	7.02
374.01	28.09
374.21	51.49
374.40	21.06
374.60	42.13
374.79	42.13
374.99	44.47
375.19	51.49
375.38	0.00
375.58	0.00
375.78	14.04
375.97	56.17
376.17	0.00
376.37	0.00
376.56	44.47
376.76	21.06
376.95	37.45
377.15	28.09
377.35	63.19
377.54	86.60
377.74	23.41
377.93	0.00
378.13	11.70
378.33	35.11
378.52	18.72
378.72	9.36
378.91	11.70
379.11	0.00
379.31	14.04
379.50	23.41
379.70	0.00
379.89	0.00
380.09	0.00
380.28	84.26
380.48	67.88
380.68	0.00
380.87	0.00
381.07	63.19
381.26	60.85
381.46	0.00
381.65	0.00
381.85	0.00
382.04	81.92
382.24	0.00
382.43	4.68
382.63	60.85
382.83	0.00
383.02	0.00
383.22	77.24
383.41	0.00
383.61	0.00
383.80	46.81
384.00	23.41
384.19	95.96
384.39	53.83
384.58	0.00
384.78	23.41
384.97	84.26
385.17	44.47
385.36	56.17
385.56	0.00
385.75	51.49
385.95	35.11
386.14	4.68
386.34	0.00
386.53	0.00
386.72	0.00
386.92	60.85
387.11	28.09
387.31	30.43
387.50	9.36
387.70	51.49
387.89	28.09
388.09	11.70
388.28	0.00
388.48	9.36
388.67	32.77
388.86	0.00
389.06	0.00
389.25	23.41
389.45	28.09
389.64	72.56
389.84	0.00
390.03	70.22
390.22	23.41
390.42	4.68
390.61	0.00
390.81	0.00
391.00	28.09
391.19	0.00
391.39	18.72
391.58	21.06
391.78	42.13
391.97	0.00
392.16	28.09
392.36	37.45
392.55	70.22
392.75	70.22
392.94	0.00
393.13	32.77
393.33	79.58
393.52	119.37
393.71	72.56
393.91	37.45
394.10	30.43
394.29	60.85
394.49	23.41
394.68	4.68
394.88	30.43
395.07	84.26
395.26	49.15
395.46	4.68
395.65	42.13
395.84	32.77
396.04	0.00
396.23	2.34
396.42	0.00
396.62	37.45
396.81	2.34
397.00	0.00
397.19	42.13
397.39	0.00
397.58	0.00
397.77	18.72
397.97	18.72
398.16	0.00
398.35	25.75
398.55	91.28
398.74	65.54
398.93	0.00
399.12	0.00
399.32	16.38
399.51	51.49
399.70	0.00
399.90	14.04
400.09	0.00
400.28	35.11
400.47	11.70
400.67	58.51
400.86	44.47
401.05	42.13
401.24	28.09
401.44	58.51
401.63	51.49
401.82	37.45
402.01	58.51
402.21	18.72
402.40	0.00
402.59	23.41
402.78	0.00
402.97	35.11
403.17	42.13
403.36	35.11
403.55	0.00
403.74	0.00
403.93	63.19
404.13	25.75
404.32	70.22
404.51	30.43
404.70	0.00
404.89	0.00
405.09	0.00
405.28	0.00
405.47	2.34
405.66	0.00
405.85	72.56
406.05	28.09
406.24	77.24
406.43	53.83
406.62	28.09
406.81	16.38
407.00	9.36
407.20	77.24
407.39	0.00
407.58	81.92
407.77	0.00
407.96	30.43
408.15	11.70
408.34	32.77
408.54	107.66
408.73	9.36
408.92	0.00
409.11	39.79
409.30	53.83
409.49	0.00
409.68	0.00
409.87	63.19
410.07	11.70
410.26	0.00
410.45	0.00
410.64	0.00
410.83	9.36
411.02	0.00
411.21	0.00
411.40	51.49
411.59	84.26
411.78	4.68
411.98	42.13
412.17	30.43
412.36	0.00
412.55	0.00
412.74	72.56
412.93	11.70
413.12	49.15
413.31	30.43
413.50	23.41
413.69	46.81
413.88	23.41
414.07	0.00
414.26	84.26
414.45	39.79
414.64	4.68
414.83	7.02
415.02	72.56
415.22	0.00
415.41	49.15
415.60	18.72
415.79	30.43
415.98	9.36
416.17	81.92
416.36	37.45
416.55	25.75
416.74	93.62
416.93	39.79
417.12	7.02
417.31	30.43
417.50	0.00
417.69	100.64
417.88	0.00
418.07	0.00
418.26	7.02
418.45	0.00
418.64	16.38
418.83	79.58
419.02	0.00
419.21	0.00
419.39	112.35
419.58	14.04
419.77	0.00
419.96	0.00
420.15	32.77
420.34	11.70
420.53	42.13
420.72	39.79
420.91	46.81
421.10	0.00
421.29	77.24
421.48	0.00
421.67	72.56
421.86	51.49
422.05	2.34
422.24	0.00
422.43	0.00
422.61	23.41
422.80	58.51
422.99	16.38
423.18	44.47
423.37	11.70
423.56	0.00
423.75	0.00
423.94	0.00
424.13	49.15
424.32	39.79
424.50	0.00
424.69	81.92
424.88	21.06
425.07	46.81
425.26	95.96
425.45	72.56
425.64	0.00
425.83	77.24
426.01	23.41
426.20	30.43
426.39	70.22
426.58	18.72
426.77	2.34
426.96	28.09
427.15	56.17
427.33	0.00
427.52	42.13
427.71	35.11
427.90	32.77
428.09	16.38
428.28	4.68
428.46	56.17
428.65	9.36
428.84	121.71
429.03	46.81
429.22	0.00
429.40	0.00
429.59	16.38
429.78	126.39
429.97	72.56
430.16	32.77
430.34	9.36
430.53	0.00
430.72	58.51
430.91	44.47
431.10	44.47
431.28	0.00
431.47	0.00
431.66	23.41
431.85	51.49
432.03	0.00
432.22	0.00
432.41	28.09
432.60	11.70
432.79	18.72
432.97	63.19
433.16	65.54
433.35	0.00
433.54	0.00
433.72	23.41
433.91	88.94
434.10	39.79
434.28	39.79
434.47	58.51
434.66	49.15
434.85	7.02
435.03	0.00
435.22	30.43
435.41	42.13
435.59	11.70
435.78	35.11
435.97	74.90
436.16	0.00
436.34	0.00
436.53	16.38
436.72	42.13
436.90	32.77
437.09	0.00
437.28	30.43
437.46	14.04
437.65	28.09
437.84	67.88
438.02	72.56
438.21	0.00
438.40	0.00
438.58	42.13
438.77	44.47
438.96	79.58
439.14	23.41
439.33	4.68
439.52	28.09
439.70	9.36
439.89	77.24
440.08	91.28
440.26	7.02
440.45	0.00
440.63	70.22
440.82	51.49
441.01	0.00
441.19	30.43
441.38	81.92
441.57	46.81
441.75	28.09
441.94	16.38
442.12	2.34
442.31	60.85
442.50	77.24
442.68	79.58
442.87	39.79
443.05	32.77
443.24	60.85
443.43	0.00
443.61	53.83
443.80	77.24
443.98	35.11
444.17	35.11
444.35	86.60
444.54	32.77
444.73	28.09
444.91	46.81
445.10	58.51
445.28	7.02
445.47	25.75
445.65	79.58
445.84	7.02
446.02	2.34
446.21	56.17
446.39	21.06
446.58	39.79
446.77	42.13
446.95	35.11
447.14	77.24
447.32	79.58
447.51	53.83
447.69	0.00
447.88	60.85
448.06	23.41
448.25	0.00
448.43	0.00
448.62	23.41
448.80	0.00
448.99	39.79
449.17	63.19
449.36	0.00
449.54	30.43
449.73	30.43
449.91	70.22
450.10	35.11
450.28	51.49
450.46	70.22
450.65	0.00
450.83	0.00
451.02	0.00
451.20	42.13
451.39	9.36
451.57	58.51
451.76	77.24
451.94	53.83
452.13	81.92
452.31	72.56
452.49	93.62
452.68	32.77
452.86	63.19
453.05	0.00
453.23	49.15
453.42	98.30
453.60	42.13
453.78	53.83
453.97	0.00
454.15	0.00
454.34	44.47
454.52	0.00
454.70	0.00
454.89	0.00
455.07	63.19
455.26	0.00
455.44	11.70
455.62	46.81
455.81	49.15
455.99	9.36
456.17	14.04
456.36	0.00
456.54	37.45
456.73	32.77
456.91	0.00
457.09	42.13
457.28	0.00
457.46	63.19
457.64	0.00
457.83	65.54
458.01	28.09
458.19	67.88
458.38	112.35
458.56	42.13
458.74	63.19
458.93	0.00
459.11	37.45
459.29	0.00
459.48	0.00
459.66	70.22
459.84	72.56
460.03	60.85
460.21	42.13
460.39	25.75
460.57	79.58
460.76	46.81
460.94	42.13
461.12	53.83
461.31	2.34
461.49	46.81
461.67	21.06
461.85	100.64
462.04	16.38
462.22	32.77
462.40	21.06
462.59	37.45
462.77	0.00
462.95	9.36
463.13	32.77
463.32	0.00
463.50	0.00
463.68	51.49
463.86	56.17
464.05	81.92
464.23	53.83
464.41	11.70
464.59	65.54
464.78	105.32
464.96	9.36
465.14	37.45
465.32	32.77
465.50	49.15
465.69	0.00
465.87	58.51
466.05	25.75
466.23	65.54
466.41	0.00
466.60	74.90
466.78	0.00
466.96	0.00
467.14	0.00
467.32	35.11
467.51	56.17
467.69	2.34
467.87	0.00
468.05	7.02
468.23	60.85
468.41	65.54
468.60	39.79
468.78	84.26
468.96	133.41
469.14	0.00
469.32	72.56
469.50	44.47
469.69	74.90
469.87	16.38
470.05	56.17
470.23	46.81
470.41	37.45
470.59	0.00
470.77	21.06
470.95	84.26
471.14	18.72
471.32	0.00
471.50	49.15
471.68	16.38
471.86	18.72
472.04	63.19
472.22	25.75
472.40	18.72
472.58	46.81
472.77	0.00
472.95	37.45
473.13	14.04
473.31	18.72
473.49	65.54
473.67	28.09
473.85	44.47
474.03	114.69
474.21	23.41
474.39	28.09
474.57	91.28
474.75	16.38
474.93	18.72
475.12	0.00
475.30	51.49
475.48	49.15
475.66	0.00
475.84	18.72
476.02	7.02
476.20	58.51
476.38	84.26
476.56	0.00
476.74	0.00
476.92	0.00
477.10	7.02
477.28	7.02
477.46	32.77
477.64	4.68
477.82	37.45
478.00	35.11
478.18	7.02
478.36	81.92
478.54	63.19
478.72	39.79
478.90	18.72
479.08	72.56
479.26	30.43
479.44	18.72
479.62	49.15
479.80	11.70
479.98	11.70
480.16	88.94
480.34	0.00
480.52	0.00
480.70	0.00
480.88	56.17
481.06	65.54
481.24	70.22
481.41	53.83
481.59	4.68
481.77	35.11
481.95	25.75
482.13	100.64
482.31	14.04
482.49	2.34
482.67	16.38
482.85	18.72
483.03	0.00
483.21	21.06
483.39	56.17
483.57	46.81
483.74	0.00
483.92	84.26
484.10	16.38
484.28	11.70
484.46	0.00
484.64	0.00
484.82	63.19
485.00	74.90
485.18	102.98
485.35	74.90
485.53	0.00
485.71	63.19
485.89	32.77
486.07	0.00
486.25	0.00
486.43	32.77
486.61	0.00
486.78	51.49
486.96	0.00
487.14	0.00
487.32	30.43
487.50	14.04
487.68	14.04
487.85	46.81
488.03	23.41
488.21	32.77
488.39	0.00
488.57	88.94
488.75	18.72
488.92	154.48
489.10	60.85
489.28	44.47
489.46	67.88
489.64	117.03
489.81	14.04
489.99	16.38
490.17	16.38
490.35	0.00
490.53	4.68
490.70	102.98
490.88	23.41
491.06	60.85
491.24	77.24
491.41	0.00
491.59	0.00
491.77	0.00
491.95	9.36
492.13	39.79
492.30	23.41
492.48	35.11
492.66	39.79
492.84	77.24
493.01	95.96
493.19	86.60
493.37	23.41
493.54	16.38
493.72	77.24
493.90	53.83
494.08	60.85
494.25	0.00
494.43	9.36
494.61	37.45
494.79	0.00
494.96	23.41
495.14	18.72
495.32	81.92
495.49	0.00
495.67	42.13
495.85	25.75
496.02	25.75
496.20	4.68
496.38	100.64
496.55	86.60
496.73	93.62
496.91	21.06
497.09	67.88
497.26	81.92
497.44	105.32
497.62	56.17
497.79	0.00
497.97	32.77
498.14	25.75
498.32	95.96
498.50	35.11
498.67	46.81
498.85	49.15
499.03	121.71
499.20	42.13
499.38	72.56
499.56	56.17
499.73	51.49
499.91	51.49
500.08	32.77
500.26	65.54
500.44	30.43
500.61	21.06
500.79	44.47
500.97	32.77
501.14	121.71
501.32	35.11
501.49	18.72
501.67	14.04
501.84	18.72
502.02	49.15
502.20	107.66
502.37	21.06
502.55	72.56
502.72	51.49
502.90	0.00
503.07	65.54
503.25	0.00
503.43	0.00
503.60	77.24
503.78	7.02
503.95	7.02
504.13	16.38
504.30	39.79
504.48	14.04
504.65	30.43
504.83	28.09
505.01	30.43
505.18	91.28
505.36	60.85
505.53	84.26
505.71	39.79
505.88	74.90
506.06	86.60
506.23	32.77
506.41	91.28
506.58	25.75
506.76	28.09
506.93	91.28
507.11	67.88
507.28	0.00
507.46	0.00
507.63	4.68
507.81	93.62
507.98	0.00
508.16	42.13
508.33	46.81
508.50	86.60
508.68	42.13
508.85	0.00
509.03	11.70
509.20	51.49
509.38	91.28
509.55	98.30
509.73	7.02
509.90	28.09
510.08	28.09
510.25	88.94
510.42	81.92
510.60	67.88
510.77	105.32
510.95	42.13
511.12	0.00
511.30	21.06
511.47	0.00
511.64	79.58
511.82	39.79
511.99	93.62
512.17	23.41
512.34	18.72
512.51	4.68
512.69	0.00
512.86	18.72
513.04	44.47
513.21	7.02
513.38	0.00
513.56	0.00
513.73	0.00
513.90	18.72
514.08	53.83
514.25	14.04
514.43	56.17
514.60	65.54
514.77	0.00
514.95	77.24
515.12	67.88
515.29	14.04
515.47	81.92
515.64	70.22
515.81	9.36
515.99	70.22
516.16	49.15
516.33	0.00
516.51	35.11
516.68	18.72
516.85	53.83
517.03	0.00
517.20	77.24
517.37	53.83
517.54	74.90
517.72	14.04
517.89	35.11
518.06	117.03
518.24	0.00
518.41	21.06
518.58	58.51
518.75	9.36
518.93	9.36
519.10	72.56
519.27	0.00
519.45	4.68
519.62	84.26
519.79	60.85
519.96	124.05
520.14	28.09
520.31	0.00
520.48	67.88
520.65	0.00
520.83	25.75
521.00	21.06
521.17	0.00
521.34	42.13
521.52	0.00
521.69	74.90
521.86	74.90
522.03	28.09
522.20	4.68
522.38	0.00
522.55	0.00
522.72	77.24
522.89	0.00
523.07	39.79
523.24	93.62
523.41	0.00
523.58	0.00
523.75	100.64
523.92	46.81
524.10	65.54
524.27	30.43
524.44	28.09
524.61	91.28
524.78	32.77
524.96	0.00
525.13	46.81
525.30	58.51
525.47	0.00
525.64	2.34
525.81	0.00
525.98	77.24
526.16	67.88
526.33	21.06
526.50	37.45
526.67	53.83
526.84	7.02
527.01	35.11
527.18	0.00
527.36	91.28
527.53	49.15
527.70	14.04
527.87	23.41
528.04	44.47
528.21	39.79
528.38	81.92
528.55	32.77
528.72	131.07
528.89	65.54
529.07	21.06
529.24	37.45
529.41	63.19
529.58	0.00
529.75	16.38
529.92	70.22
530.09	42.13
530.26	35.11
530.43	46.81
530.60	11.70
530.77	60.85
530.94	25.75
531.11	18.72
531.28	16.38
531.46	46.81
531.63	30.43
531.80	35.11
531.97	0.00
532.14	9.36
532.31	65.54
532.48	7.02
532.65	28.09
532.82	67.88
532.99	28.09
533.16	77.24
533.33	53.83
533.50	18.72
533.67	39.79
533.84	0.00
534.01	74.90
534.18	30.43
534.35	21.06
534.52	84.26
534.69	46.81
534.86	35.11
535.03	9.36
535.20	4.68
535.37	95.96
535.54	56.17
535.71	0.00
535.88	79.58
536.05	77.24
536.22	77.24
536.38	63.19
536.55	9.36
536.72	60.85
536.89	79.58
537.06	16.38
537.23	53.83
537.40	0.00
537.57	0.00
537.74	42.13
537.91	0.00
538.08	0.00
538.25	60.85
538.42	44.47
538.59	44.47
538.75	0.00
538.92	32.77
539.09	114.69
539.26	112.35
539.43	25.75
539.60	91.28
539.77	58.51
539.94	77.24
540.11	28.09
540.28	93.62
540.44	65.54
540.61	16.38
540.78	74.90
540.95	0.00
541.12	46.81
541.29	0.00
541.46	56.17
541.62	2.34
541.79	100.64
541.96	0.00
542.13	21.06
542.30	65.54
542.47	0.00
542.63	32.77
542.80	11.70
542.97	56.17
543.14	81.92
543.31	86.60
543.48	0.00
543.64	42.13
543.81	4.68
543.98	124.05
544.15	23.41
544.32	0.00
544.48	51.49
544.65	56.17
544.82	0.00
544.99	9.36
545.16	39.79
545.32	11.70
545.49	72.56
545.66	30.43
545.83	84.26
546.00	32.77
546.16	98.30
546.33	77.24
546.50	58.51
546.67	112.35
546.83	112.35
547.00	53.83
547.17	0.00
547.34	72.56
547.50	2.34
547.67	0.00
547.84	72.56
548.00	18.72
548.17	39.79
548.34	21.06
548.51	86.60
548.67	25.75
548.84	67.88
549.01	70.22
549.18	0.00
549.34	91.28
549.51	25.75
549.68	79.58
549.84	0.00
550.01	30.43
550.18	28.09
550.34	60.85
550.51	46.81
550.68	74.90
550.84	0.00
551.01	65.54
551.18	49.15
551.34	9.36
551.51	7.02
551.68	18.72
551.84	81.92
552.01	0.00
552.18	79.58
552.34	25.75
552.51	2.34
552.68	46.81
552.84	77.24
553.01	0.00
553.18	4.68
553.34	53.83
553.51	21.06
553.67	93.62
553.84	49.15
554.01	67.88
554.17	65.54
554.34	39.79
554.51	91.28
554.67	56.17
554.84	72.56
555.00	107.66
555.17	56.17
555.33	32.77
555.50	37.45
555.67	9.36
555.83	32.77
556.00	81.92
556.16	65.54
556.33	37.45
556.50	7.02
556.66	23.41
556.83	23.41
556.99	49.15
557.16	35.11
557.32	9.36
557.49	35.11
557.65	18.72
557.82	0.00
557.98	16.38
558.15	44.47
558.32	42.13
558.48	67.88
558.65	0.00
558.81	7.02
558.98	35.11
559.14	72.56
559.31	21.06
559.47	72.56
559.64	0.00
559.80	77.24
559.97	0.00
560.13	23.41
560.30	0.00
560.46	39.79
560.63	9.36
560.79	42.13
560.96	11.70
561.12	0.00
561.29	46.81
561.45	58.51
561.61	84.26
561.78	14.04
561.94	0.00
562.11	46.81
562.27	25.75
562.44	70.22
562.60	25.75
562.77	32.77
562.93	56.17
563.10	25.75
563.26	95.96
563.42	44.47
563.59	32.77
563.75	88.94
563.92	72.56
564.08	14.04
564.24	107.66
564.41	32.77
564.57	63.19
564.74	4.68
564.90	32.77
565.07	39.79
565.23	9.36
565.39	37.45
565.56	0.00
565.72	0.00
565.88	70.22
566.05	51.49
566.21	18.72
566.38	63.19
566.54	46.81
566.70	30.43
566.87	21.06
567.03	0.00
567.19	35.11
567.36	56.17
567.52	0.00
567.68	51.49
567.85	9.36
568.01	51.49
568.17	49.15
568.34	16.38
568.50	0.00
568.66	91.28
568.83	49.15
568.99	72.56
569.15	81.92
569.32	0.00
569.48	67.88
569.64	4.68
569.81	58.51
569.97	0.00
570.13	81.92
570.30	0.00
570.46	4.68
570.62	21.06
570.78	0.00
570.95	44.47
571.11	35.11
571.27	4.68
571.43	16.38
571.60	58.51
571.76	11.70
571.92	63.19
572.09	70.22
572.25	58.51
572.41	30.43
572.57	39.79
572.74	67.88
572.90	7.02
573.06	35.11
573.22	32.77
573.38	14.04
573.55	11.70
573.71	0.00
573.87	21.06
574.03	42.13
574.20	25.75
574.36	44.47
574.52	100.64
574.68	88.94
574.84	35.11
575.01	56.17
575.17	0.00
575.33	23.41
575.49	67.88
575.65	58.51
575.82	37.45
575.98	0.00
576.14	105.32
576.30	18.72
576.46	58.51
576.62	58.51
576.79	23.41
576.95	9.36
577.11	18.72
577.27	44.47
577.43	0.00
577.59	37.45
577.75	65.54
577.92	9.36
578.08	14.04
578.24	7.02
578.40	105.32
578.56	28.09
578.72	0.00
578.88	58.51
579.04	30.43
579.21	49.15
579.37	51.49
579.53	46.81
579.69	84.26
579.85	44.47
580.01	100.64
580.17	11.70
580.33	53.83
580.49	37.45
580.65	32.77
580.82	0.00
580.98	60.85
581.14	14.04
581.30	28.09
581.46	7.02
581.62	98.30
581.78	121.71
581.94	32.77
582.10	16.38
582.26	7.02
582.42	4.68
582.58	79.58
582.74	67.88
582.90	51.49
583.06	28.09
583.22	0.00
583.38	53.83
583.54	63.19
583.70	65.54
583.86	0.00
584.02	84.26
584.18	0.00
584.34	18.72
584.50	30.43
584.66	304.27
584.82	578.11
584.98	741.95
585.14	608.54
585.30	400.23
585.46	334.70
585.62	205.97
585.78	42.13
585.94	49.15
586.10	11.70
586.26	30.43
586.42	28.09
586.58	42.13
586.74	39.79
586.90	86.60
587.06	35.11
587.22	16.38
587.38	25.75
587.54	35.11
587.70	98.30
587.86	53.83
588.02	58.51
588.18	11.70
588.34	30.43
588.49	74.90
588.65	98.30
588.81	21.06
588.97	65.54
589.13	51.49
589.29	98.30
589.45	58.51
589.61	46.81
589.77	23.41
589.93	25.75
590.08	14.04
590.24	4.68
590.40	88.94
590.56	98.30
590.72	88.94
590.88	93.62
591.04	95.96
591.20	0.00
591.35	49.15
591.51	79.58
591.67	0.00
591.83	0.00
591.99	88.94
592.15	18.72
592.31	0.00
592.46	35.11
592.62	2.34
592.78	28.09
592.94	16.38
593.10	0.00
593.26	42.13
593.41	74.90
593.57	72.56
593.73	60.85
593.89	77.24
594.05	135.75
594.20	88.94
594.36	79.58
594.52	124.05
594.68	84.26
594.84	30.43
594.99	35.11
595.15	51.49
595.31	18.72
595.47	18.72
595.62	0.00
595.78	11.70
595.94	70.22
596.10	18.72
596.25	42.13
596.41	2.34
596.57	53.83
596.73	74.90
596.88	4.68
597.04	0.00
597.20	14.04
597.36	0.00
597.51	0.00
597.67	39.79
597.83	32.77
597.99	2.34
598.14	14.04
598.30	42.13
598.46	88.94
598.61	25.75
598.77	0.00
598.93	42.13
599.09	18.72
599.24	49.15
599.40	37.45
599.56	16.38
599.71	56.17
599.87	63.19
600.03	0.00
600.18	18.72
600.34	74.90
600.50	21.06
600.65	98.30
600.81	21.06
600.97	42.13
601.12	74.90
601.28	88.94
601.44	16.38
601.59	0.00
601.75	14.04
601.91	16.38
602.06	21.06
602.22	0.00
602.37	56.17
602.53	70.22
602.69	86.60
602.84	46.81
603.00	84.26
603.16	28.09
603.31	65.54
603.47	39.79
603.62	0.00
603.78	67.88
603.94	28.09
604.09	16.38
604.25	60.85
604.40	131.07
604.56	86.60
604.71	42.13
604.87	67.88
605.03	39.79
605.18	112.35
605.34	21.06
605.49	84.26
605.65	79.58
605.80	25.75
605.96	88.94
606.12	88.94
606.27	4.68
606.43	46.81
606.58	0.00
606.74	65.54
606.89	32.77
607.05	121.71
607.20	138.09
607.36	102.98
607.51	35.11
607.67	21.06
607.82	37.45
607.98	72.56
608.13	28.09
608.29	67.88
608.44	4.68
608.60	42.13
608.75	0.00
608.91	51.49
609.06	102.98
609.22	86.60
609.37	184.90
609.53	124.05
609.68	91.28
609.84	28.09
609.99	46.81
610.15	42.13
610.30	51.49
610.46	23.41
610.61	72.56
610.76	0.00
610.92	0.00
611.07	21.06
611.23	63.19
611.38	30.43
611.54	95.96
611.69	25.75
611.84	70.22
612.00	51.49
612.15	35.11
612.31	18.72
612.46	46.81
612.62	18.72
612.77	77.24
612.92	58.51
613.08	56.17
613.23	30.43
613.39	56.17
613.54	49.15
613.69	102.98
613.85	238.73
614.00	194.26
614.15	257.46
614.31	133.41
614.46	152.13
614.62	140.43
614.77	58.51
614.92	88.94
615.08	35.11
615.23	25.75
615.38	18.72
615.54	0.00
615.69	102.98
615.84	105.32
616.00	46.81
616.15	46.81
616.30	114.69
616.46	39.79
616.61	42.13
616.76	39.79
616.92	0.00
617.07	2.34
617.22	25.75
617.37	42.13
617.53	35.11
617.68	18.72
617.83	11.70
617.99	25.75
618.14	30.43
618.29	84.26
618.45	70.22
618.60	16.38
618.75	32.77
618.90	81.92
619.06	16.38
619.21	28.09
619.36	2.34
619.51	60.85
619.67	37.45
619.82	21.06
619.97	28.09
620.12	46.81
620.28	11.70
620.43	98.30
620.58	56.17
620.73	25.75
620.89	35.11
621.04	7.02
621.19	44.47
621.34	65.54
621.49	32.77
621.65	28.09
621.80	79.58
621.95	18.72
622.10	23.41
622.25	14.04
622.41	51.49
622.56	135.75
622.71	51.49
622.86	49.15
623.01	0.00
623.16	51.49
623.32	28.09
623.47	91.28
623.62	53.83
623.77	51.49
623.92	46.81
624.07	49.15
624.23	0.00
624.38	77.24
624.53	0.00
624.68	14.04
624.83	56.17
624.98	0.00
625.13	60.85
625.29	58.51
625.44	37.45
625.59	0.00
625.74	23.41
625.89	0.00
626.04	21.06
626.19	140.43
626.34	154.48
626.49	74.90
626.65	149.79
626.80	112.35
626.95	86.60
627.10	49.15
627.25	14.04
627.40	37.45
627.55	131.07
627.70	0.00
627.85	65.54
628.00	25.75
628.15	145.11
628.30	14.04
628.45	9.36
628.60	72.56
628.76	46.81
628.91	0.00
629.06	51.49
629.21	65.54
629.36	0.00
629.51	30.43
629.66	70.22
629.81	28.09
629.96	37.45
630.11	70.22
630.26	51.49
630.41	16.38
630.56	58.51
630.71	74.90
630.86	0.00
631.01	74.90
631.16	53.83
631.31	60.85
631.46	88.94
631.61	53.83
631.76	0.00
631.91	32.77
632.06	35.11
632.21	84.26
632.36	0.00
632.51	0.00
632.66	60.85
632.81	25.75
632.96	84.26
633.10	147.45
633.25	86.60
633.40	63.19
633.55	39.79
633.70	84.26
633.85	14.04
634.00	28.09
634.15	42.13
634.30	93.62
634.45	60.85
634.60	21.06
634.75	16.38
634.90	37.45
635.05	51.49
635.19	0.00
635.34	35.11
635.49	93.62
635.64	77.24
635.79	0.00
635.94	46.81
636.09	21.06
636.24	49.15
636.39	0.00
636.53	58.51
636.68	42.13
636.83	58.51
636.98	121.71
637.13	81.92
637.28	58.51
637.43	102.98
637.57	77.24
637.72	126.39
637.87	142.77
638.02	152.13
638.17	131.07
638.32	138.09
638.46	88.94
638.61	9.36
638.76	63.19
638.91	39.79
639.06	0.00
639.20	39.79
639.35	112.35
639.50	39.79
639.65	88.94
639.80	208.31
639.94	217.67
640.09	182.56
640.24	159.16
640.39	180.22
640.54	114.69
640.68	63.19
640.83	23.41
640.98	60.85
641.13	0.00
641.27	0.00
641.42	0.00
641.57	79.58
641.72	44.47
641.86	14.04
642.01	21.06
642.16	51.49
642.31	37.45
642.45	79.58
642.60	49.15
642.75	98.30
642.90	95.96
643.04	56.17
643.19	30.43
643.34	32.77
643.48	28.09
643.63	18.72
643.78	65.54
643.93	2.34
644.07	18.72
644.22	81.92
644.37	56.17
644.51	140.43
644.66	0.00
644.81	46.81
644.95	81.92
645.10	16.38
645.25	39.79
645.39	0.00
645.54	14.04
645.69	63.19
645.83	81.92
645.98	2.34
646.13	0.00
646.27	88.94
646.42	18.72
646.57	25.75
646.71	58.51
646.86	42.13
647.00	4.68
647.15	39.79
647.30	18.72
647.44	88.94
647.59	91.28
647.74	35.11
647.88	23.41
648.03	60.85
648.17	65.54
648.32	79.58
648.47	32.77
648.61	21.06
648.76	51.49
648.90	0.00
649.05	14.04
649.20	35.11
649.34	32.77
649.49	0.00
649.63	23.41
649.78	105.32
649.92	0.00
650.07	119.37
650.21	105.32
650.36	194.26
650.51	110.01
650.65	159.16
650.80	133.41
650.94	107.66
651.09	0.00
651.23	39.79
651.38	0.00
651.52	28.09
651.67	70.22
651.81	11.70
651.96	14.04
652.10	0.00
652.25	4.68
652.39	72.56
652.54	46.81
652.68	53.83
652.83	77.24
652.97	74.90
653.12	42.13
653.26	63.19
653.41	37.45
653.55	30.43
653.70	56.17
653.84	25.75
653.99	53.83
654.13	0.00
654.27	16.38
654.42	56.17
654.56	0.00
654.71	42.13
654.85	42.13
655.00	0.00
655.14	4.68
655.29	23.41
655.43	35.11
655.57	28.09
655.72	81.92
655.86	37.45
656.01	14.04
656.15	9.36
656.30	16.38
656.44	81.92
656.58	88.94
656.73	0.00
656.87	46.81
657.01	32.77
657.16	28.09
657.30	4.68
657.45	25.75
657.59	2.34
657.73	18.72
657.88	7.02
658.02	67.88
658.16	58.51
658.31	32.77
658.45	28.09
658.60	86.60
658.74	21.06
658.88	51.49
659.03	9.36
659.17	105.32
659.31	0.00
659.46	58.51
659.60	100.64
659.74	67.88
659.89	72.56
660.03	93.62
660.17	88.94
660.32	67.88
660.46	21.06
660.60	88.94
660.74	0.00
660.89	46.81
661.03	51.49
661.17	11.70
661.32	42.13
661.46	39.79
661.60	18.72
661.74	35.11
661.89	0.00
662.03	74.90
662.17	46.81
662.31	46.81
662.46	21.06
662.60	0.00
662.74	39.79
662.88	35.11
663.03	7.02
663.17	0.00
663.31	0.00
663.45	0.00
663.60	60.85
663.74	16.38
663.88	58.51
664.02	77.24
664.17	0.00
664.31	11.70
664.45	72.56
664.59	14.04
664.73	9.36
664.88	49.15
665.02	37.45
665.16	9.36
665.30	23.41
665.44	37.45
665.59	4.68
665.73	63.19
665.87	72.56
666.01	0.00
666.15	9.36
666.29	0.00
666.44	18.72
666.58	37.45
666.72	35.11
666.86	0.00
667.00	11.70
667.14	79.58
667.28	18.72
667.43	100.64
667.57	133.41
667.71	180.22
667.85	140.43
667.99	49.15
668.13	107.66
668.27	74.90
668.41	112.35
668.56	53.83
668.70	28.09
668.84	18.72
668.98	81.92
669.12	2.34
669.26	11.70
669.40	110.01
669.54	67.88
669.68	51.49
669.82	112.35
669.96	9.36
670.10	51.49
670.25	0.00
670.39	0.00
670.53	53.83
670.67	28.09
670.81	44.47
670.95	42.13
671.09	14.04
671.23	67.88
671.37	35.11
671.51	93.62
671.65	86.60
671.79	110.01
671.93	0.00
672.07	39.79
672.21	65.54
672.35	98.30
672.49	58.51
672.63	37.45
672.77	21.06
672.91	0.00
673.05	0.00
673.19	30.43
673.33	30.43
673.47	49.15
673.61	9.36
673.75	138.09
673.89	16.38
674.03	14.04
674.17	0.00
674.31	28.09
674.45	25.75
674.59	44.47
674.73	39.79
674.87	35.11
675.01	51.49
675.15	79.58
675.29	2.34
675.43	25.75
675.56	0.00
675.70	100.64
675.84	37.45
675.98	9.36
676.12	9.36
676.26	49.15
676.40	81.92
676.54	37.45
676.68	67.88
676.82	74.90
676.96	91.28
677.10	23.41
677.23	42.13
677.37	0.00
677.51	0.00
677.65	0.00
677.79	14.04
677.93	0.00
678.07	23.41
678.21	42.13
678.34	72.56
678.48	0.00
678.62	60.85
678.76	0.00
678.90	56.17
679.04	16.38
679.18	32.77
679.31	39.79
679.45	53.83
679.59	4.68
679.73	46.81
679.87	49.15
680.00	60.85
680.14	21.06
680.28	53.83
680.42	28.09
680.56	107.66
680.70	0.00
680.83	11.70
680.97	0.00
681.11	25.75
681.25	42.13
681.39	35.11
681.52	0.00
681.66	42.13
681.80	16.38
681.94	86.60
682.07	77.24
682.21	32.77
682.35	2.34
682.49	79.58
682.62	0.00
682.76	79.58
682.90	72.56
683.04	9.36
683.17	63.19
683.31	95.96
683.45	63.19
683.59	84.26
683.72	56.17
683.86	0.00
684.00	70.22
684.13	9.36
684.27	25.75
684.41	30.43
684.55	51.49
684.68	2.34
684.82	25.75
684.96	49.15
685.09	0.00
685.23	28.09
685.37	100.64
685.50	39.79
685.64	84.26
685.78	0.00
685.91	4.68
686.05	63.19
686.19	39.79
686.32	16.38
686.46	37.45
686.60	2.34
686.73	25.75
686.87	37.45
687.01	0.00
687.14	0.00
687.28	14.04
687.42	0.00
687.55	7.02
687.69	56.17
687.82	0.00
687.96	16.38
688.10	28.09
688.23	32.77
688.37	35.11
688.50	60.85
688.64	4.68
688.78	65.54
688.91	60.85
689.05	0.00
689.18	65.54
689.32	0.00
689.46	53.83
689.59	63.19
689.73	0.00
689.86	18.72
690.00	44.47
690.13	25.75
690.27	18.72
690.41	63.19
690.54	58.51
690.68	0.00
690.81	65.54
690.95	23.41
691.08	42.13
691.22	98.30
691.35	14.04
691.49	58.51
691.62	58.51
691.76	0.00
691.89	28.09
692.03	32.77
692.16	21.06
692.30	51.49
692.43	35.11
692.57	32.77
692.70	28.09
692.84	77.24
692.97	93.62
693.11	70.22
693.24	98.30
693.38	0.00
693.51	39.79
693.65	23.41
693.78	67.88
693.92	51.49
694.05	28.09
694.19	39.79
694.32	28.09
694.45	49.15
694.59	30.43
694.72	2.34
694.86	16.38
694.99	4.68
695.13	21.06
695.26	37.45
695.39	0.00
695.53	51.49
695.66	0.00
695.80	114.69
695.93	49.15
696.07	58.51
696.20	0.00
696.33	56.17
696.47	0.00
696.60	25.75
696.73	0.00
696.87	11.70
697.00	70.22
697.14	100.64
697.27	0.00
697.40	0.00
697.54	0.00
697.67	11.70
697.80	0.00
697.94	14.04
698.07	53.83
698.21	51.49
698.34	32.77
698.47	9.36
698.61	28.09
698.74	60.85
698.87	9.36
699.01	44.47
699.14	32.77
699.27	4.68
699.40	128.73
699.54	16.38
699.67	95.96
699.80	7.02
699.94	0.00
700.07	9.36
700.20	0.00
700.34	53.83
700.47	32.77
700.60	32.77
700.73	0.00
700.87	42.13
701.00	60.85
701.13	74.90
701.26	37.45
701.40	0.00
701.53	25.75
701.66	18.72
701.79	53.83
701.93	58.51
702.06	30.43
702.19	81.92
702.32	0.00
702.46	30.43
702.59	0.00
702.72	25.75
702.85	114.69
702.99	107.66
703.12	149.79
703.25	70.22
703.38	67.88
703.51	67.88
703.65	98.30
703.78	44.47
703.91	51.49
704.04	21.06
704.17	11.70
704.31	7.02
704.44	25.75
704.57	0.00
704.70	0.00
704.83	0.00
704.96	79.58
705.10	9.36
705.23	44.47
>>>>>End Processed Spectral Data<<<<<
