SpectraSuite Data File
++++++++++++++++++++++++++++++++++++
Date: Fri Oct 04 12:13:30 GMT-05:00 2013
User: price-jones
Dark Spectrum Present: No
Reference Spectrum Present: No
Number of Sampled Component Spectra: 1
Spectrometers: USB2+H05261
Integration Time (usec): 10000 (USB2+H05261)
Spectra Averaged: 1 (USB2+H05261)
Boxcar Smoothing: 0 (USB2+H05261)
Correct for Electrical Dark: No (USB2+H05261)
Strobe/Lamp Enabled: No (USB2+H05261)
Correct for Detector Non-linearity: No (USB2+H05261)
Correct for Stray Light: No (USB2+H05261)
Number of Pixels in Processed Spectrum: 2048
>>>>>Begin Processed Spectral Data<<<<<
365.73	46.81
365.92	46.81
366.12	46.81
366.32	0.00
366.52	0.00
366.72	0.00
366.91	0.00
367.11	0.00
367.31	0.00
367.51	0.00
367.70	0.00
367.90	0.00
368.10	0.00
368.30	0.00
368.49	0.00
368.69	0.00
368.89	0.00
369.09	0.00
369.28	0.00
369.48	0.00
369.68	0.00
369.87	0.00
370.07	0.00
370.27	0.00
370.47	0.00
370.66	0.00
370.86	0.00
371.06	0.00
371.25	60.85
371.45	0.00
371.65	0.00
371.84	21.06
372.04	21.06
372.24	0.00
372.44	67.88
372.63	0.00
372.83	16.38
373.03	0.00
373.22	16.38
373.42	9.36
373.62	14.04
373.81	0.00
374.01	0.00
374.21	18.72
374.40	51.49
374.60	0.00
374.79	18.72
374.99	0.00
375.19	14.04
375.38	93.62
375.58	70.22
375.78	67.88
375.97	42.13
376.17	18.72
376.37	37.45
376.56	32.77
376.76	44.47
376.95	84.26
377.15	28.09
377.35	14.04
377.54	7.02
377.74	14.04
377.93	77.24
378.13	60.85
378.33	0.00
378.52	100.64
378.72	58.51
378.91	16.38
379.11	9.36
379.31	0.00
379.50	30.43
379.70	70.22
379.89	0.00
380.09	70.22
380.28	56.17
380.48	67.88
380.68	9.36
380.87	0.00
381.07	53.83
381.26	4.68
381.46	7.02
381.65	0.00
381.85	37.45
382.04	0.00
382.24	0.00
382.43	16.38
382.63	0.00
382.83	37.45
383.02	0.00
383.22	0.00
383.41	21.06
383.61	32.77
383.80	44.47
384.00	23.41
384.19	0.00
384.39	21.06
384.58	102.98
384.78	21.06
384.97	32.77
385.17	0.00
385.36	74.90
385.56	53.83
385.75	86.60
385.95	0.00
386.14	70.22
386.34	53.83
386.53	0.00
386.72	21.06
386.92	16.38
387.11	23.41
387.31	9.36
387.50	51.49
387.70	0.00
387.89	0.00
388.09	0.00
388.28	51.49
388.48	0.00
388.67	53.83
388.86	25.75
389.06	23.41
389.25	0.00
389.45	9.36
389.64	0.00
389.84	42.13
390.03	18.72
390.22	51.49
390.42	56.17
390.61	0.00
390.81	32.77
391.00	23.41
391.19	0.00
391.39	0.00
391.58	37.45
391.78	51.49
391.97	39.79
392.16	0.00
392.36	35.11
392.55	39.79
392.75	32.77
392.94	0.00
393.13	2.34
393.33	86.60
393.52	0.00
393.71	39.79
393.91	46.81
394.10	0.00
394.29	0.00
394.49	37.45
394.68	0.00
394.88	37.45
395.07	16.38
395.26	74.90
395.46	0.00
395.65	0.00
395.84	28.09
396.04	11.70
396.23	14.04
396.42	14.04
396.62	0.00
396.81	0.00
397.00	14.04
397.19	0.00
397.39	0.00
397.58	4.68
397.77	35.11
397.97	67.88
398.16	0.00
398.35	11.70
398.55	0.00
398.74	51.49
398.93	0.00
399.12	28.09
399.32	7.02
399.51	0.00
399.70	0.00
399.90	0.00
400.09	2.34
400.28	56.17
400.47	67.88
400.67	18.72
400.86	49.15
401.05	23.41
401.24	39.79
401.44	119.37
401.63	14.04
401.82	63.19
402.01	0.00
402.21	35.11
402.40	67.88
402.59	93.62
402.78	0.00
402.97	0.00
403.17	65.54
403.36	93.62
403.55	107.66
403.74	0.00
403.93	0.00
404.13	58.51
404.32	53.83
404.51	0.00
404.70	44.47
404.89	4.68
405.09	37.45
405.28	88.94
405.47	37.45
405.66	0.00
405.85	49.15
406.05	14.04
406.24	51.49
406.43	0.00
406.62	25.75
406.81	0.00
407.00	11.70
407.20	21.06
407.39	91.28
407.58	2.34
407.77	23.41
407.96	51.49
408.15	0.00
408.34	0.00
408.54	93.62
408.73	35.11
408.92	79.58
409.11	0.00
409.30	14.04
409.49	42.13
409.68	18.72
409.87	0.00
410.07	93.62
410.26	11.70
410.45	11.70
410.64	23.41
410.83	0.00
411.02	0.00
411.21	35.11
411.40	21.06
411.59	30.43
411.78	0.00
411.98	0.00
412.17	0.00
412.36	9.36
412.55	46.81
412.74	28.09
412.93	44.47
413.12	81.92
413.31	140.43
413.50	44.47
413.69	9.36
413.88	121.71
414.07	65.54
414.26	53.83
414.45	0.00
414.64	42.13
414.83	0.00
415.02	25.75
415.22	37.45
415.41	30.43
415.60	98.30
415.79	30.43
415.98	84.26
416.17	28.09
416.36	0.00
416.55	32.77
416.74	0.00
416.93	14.04
417.12	25.75
417.31	30.43
417.50	32.77
417.69	42.13
417.88	30.43
418.07	9.36
418.26	0.00
418.45	42.13
418.64	81.92
418.83	42.13
419.02	86.60
419.21	0.00
419.39	46.81
419.58	67.88
419.77	0.00
419.96	65.54
420.15	49.15
420.34	21.06
420.53	0.00
420.72	0.00
420.91	86.60
421.10	37.45
421.29	0.00
421.48	0.00
421.67	35.11
421.86	91.28
422.05	9.36
422.24	42.13
422.43	98.30
422.61	9.36
422.80	7.02
422.99	32.77
423.18	0.00
423.37	119.37
423.56	72.56
423.75	53.83
423.94	49.15
424.13	23.41
424.32	0.00
424.50	14.04
424.69	0.00
424.88	63.19
425.07	63.19
425.26	44.47
425.45	9.36
425.64	0.00
425.83	46.81
426.01	93.62
426.20	37.45
426.39	0.00
426.58	2.34
426.77	0.00
426.96	25.75
427.15	35.11
427.33	51.49
427.52	67.88
427.71	0.00
427.90	0.00
428.09	37.45
428.28	37.45
428.46	105.32
428.65	30.43
428.84	7.02
429.03	49.15
429.22	0.00
429.40	60.85
429.59	46.81
429.78	58.51
429.97	32.77
430.16	11.70
430.34	84.26
430.53	30.43
430.72	37.45
430.91	0.00
431.10	11.70
431.28	11.70
431.47	0.00
431.66	0.00
431.85	11.70
432.03	0.00
432.22	51.49
432.41	0.00
432.60	14.04
432.79	30.43
432.97	14.04
433.16	56.17
433.35	63.19
433.54	77.24
433.72	2.34
433.91	23.41
434.10	7.02
434.28	25.75
434.47	56.17
434.66	23.41
434.85	35.11
435.03	65.54
435.22	56.17
435.41	60.85
435.59	63.19
435.78	56.17
435.97	49.15
436.16	23.41
436.34	93.62
436.53	37.45
436.72	16.38
436.90	0.00
437.09	110.01
437.28	28.09
437.46	0.00
437.65	32.77
437.84	0.00
438.02	0.00
438.21	107.66
438.40	32.77
438.58	0.00
438.77	7.02
438.96	25.75
439.14	0.00
439.33	37.45
439.52	0.00
439.70	0.00
439.89	42.13
440.08	0.00
440.26	0.00
440.45	67.88
440.63	14.04
440.82	58.51
441.01	46.81
441.19	49.15
441.38	28.09
441.57	0.00
441.75	16.38
441.94	42.13
442.12	114.69
442.31	60.85
442.50	25.75
442.68	7.02
442.87	63.19
443.05	18.72
443.24	74.90
443.43	67.88
443.61	37.45
443.80	0.00
443.98	18.72
444.17	30.43
444.35	0.00
444.54	0.00
444.73	28.09
444.91	4.68
445.10	21.06
445.28	0.00
445.47	7.02
445.65	35.11
445.84	42.13
446.02	0.00
446.21	18.72
446.39	25.75
446.58	86.60
446.77	67.88
446.95	67.88
447.14	0.00
447.32	0.00
447.51	35.11
447.69	81.92
447.88	46.81
448.06	51.49
448.25	51.49
448.43	0.00
448.62	14.04
448.80	0.00
448.99	37.45
449.17	23.41
449.36	51.49
449.54	2.34
449.73	0.00
449.91	53.83
450.10	0.00
450.28	44.47
450.46	60.85
450.65	46.81
450.83	16.38
451.02	28.09
451.20	0.00
451.39	0.00
451.57	72.56
451.76	0.00
451.94	51.49
452.13	98.30
452.31	0.00
452.49	0.00
452.68	21.06
452.86	25.75
453.05	16.38
453.23	18.72
453.42	84.26
453.60	4.68
453.78	67.88
453.97	28.09
454.15	32.77
454.34	35.11
454.52	21.06
454.70	25.75
454.89	28.09
455.07	0.00
455.26	0.00
455.44	0.00
455.62	0.00
455.81	9.36
455.99	65.54
456.17	14.04
456.36	28.09
456.54	49.15
456.73	9.36
456.91	51.49
457.09	67.88
457.28	49.15
457.46	91.28
457.64	72.56
457.83	23.41
458.01	51.49
458.19	25.75
458.38	58.51
458.56	42.13
458.74	86.60
458.93	67.88
459.11	84.26
459.29	74.90
459.48	0.00
459.66	16.38
459.84	46.81
460.03	16.38
460.21	25.75
460.39	4.68
460.57	21.06
460.76	98.30
460.94	81.92
461.12	0.00
461.31	74.90
461.49	46.81
461.67	35.11
461.85	21.06
462.04	0.00
462.22	105.32
462.40	56.17
462.59	16.38
462.77	16.38
462.95	60.85
463.13	23.41
463.32	21.06
463.50	7.02
463.68	16.38
463.86	44.47
464.05	2.34
464.23	21.06
464.41	84.26
464.59	58.51
464.78	65.54
464.96	58.51
465.14	23.41
465.32	0.00
465.50	37.45
465.69	37.45
465.87	37.45
466.05	91.28
466.23	81.92
466.41	91.28
466.60	21.06
466.78	58.51
466.96	72.56
467.14	9.36
467.32	0.00
467.51	51.49
467.69	60.85
467.87	21.06
468.05	0.00
468.23	91.28
468.41	102.98
468.60	0.00
468.78	37.45
468.96	46.81
469.14	60.85
469.32	67.88
469.50	32.77
469.69	100.64
469.87	51.49
470.05	107.66
470.23	32.77
470.41	14.04
470.59	0.00
470.77	0.00
470.95	0.00
471.14	79.58
471.32	0.00
471.50	91.28
471.68	0.00
471.86	32.77
472.04	37.45
472.22	7.02
472.40	16.38
472.58	37.45
472.77	37.45
472.95	49.15
473.13	67.88
473.31	91.28
473.49	37.45
473.67	65.54
473.85	0.00
474.03	117.03
474.21	25.75
474.39	44.47
474.57	0.00
474.75	79.58
474.93	11.70
475.12	81.92
475.30	84.26
475.48	39.79
475.66	98.30
475.84	70.22
476.02	100.64
476.20	16.38
476.38	32.77
476.56	67.88
476.74	23.41
476.92	63.19
477.10	11.70
477.28	77.24
477.46	0.00
477.64	51.49
477.82	72.56
478.00	72.56
478.18	81.92
478.36	121.71
478.54	4.68
478.72	49.15
478.90	49.15
479.08	39.79
479.26	42.13
479.44	35.11
479.62	72.56
479.80	30.43
479.98	0.00
480.16	0.00
480.34	58.51
480.52	56.17
480.70	60.85
480.88	14.04
481.06	86.60
481.24	35.11
481.41	49.15
481.59	93.62
481.77	63.19
481.95	46.81
482.13	56.17
482.31	0.00
482.49	32.77
482.67	79.58
482.85	14.04
483.03	0.00
483.21	30.43
483.39	131.07
483.57	44.47
483.74	98.30
483.92	58.51
484.10	105.32
484.28	0.00
484.46	14.04
484.64	0.00
484.82	2.34
485.00	0.00
485.18	9.36
485.35	30.43
485.53	11.70
485.71	0.00
485.89	98.30
486.07	72.56
486.25	32.77
486.43	39.79
486.61	56.17
486.78	0.00
486.96	53.83
487.14	2.34
487.32	18.72
487.50	51.49
487.68	25.75
487.85	56.17
488.03	58.51
488.21	98.30
488.39	49.15
488.57	86.60
488.75	67.88
488.92	21.06
489.10	0.00
489.28	0.00
489.46	74.90
489.64	81.92
489.81	14.04
489.99	72.56
490.17	72.56
490.35	4.68
490.53	25.75
490.70	58.51
490.88	37.45
491.06	28.09
491.24	107.66
491.41	0.00
491.59	53.83
491.77	65.54
491.95	30.43
492.13	32.77
492.30	84.26
492.48	56.17
492.66	23.41
492.84	79.58
493.01	30.43
493.19	7.02
493.37	58.51
493.54	72.56
493.72	88.94
493.90	23.41
494.08	2.34
494.25	0.00
494.43	56.17
494.61	53.83
494.79	42.13
494.96	86.60
495.14	58.51
495.32	16.38
495.49	0.00
495.67	0.00
495.85	23.41
496.02	42.13
496.20	95.96
496.38	28.09
496.55	100.64
496.73	56.17
496.91	0.00
497.09	93.62
497.26	74.90
497.44	39.79
497.62	11.70
497.79	35.11
497.97	0.00
498.14	117.03
498.32	44.47
498.50	0.00
498.67	4.68
498.85	11.70
499.03	49.15
499.20	107.66
499.38	0.00
499.56	63.19
499.73	121.71
499.91	0.00
500.08	37.45
500.26	0.00
500.44	42.13
500.61	23.41
500.79	77.24
500.97	88.94
501.14	11.70
501.32	60.85
501.49	124.05
501.67	39.79
501.84	51.49
502.02	91.28
502.20	93.62
502.37	44.47
502.55	25.75
502.72	21.06
502.90	51.49
503.07	21.06
503.25	11.70
503.43	0.00
503.60	0.00
503.78	7.02
503.95	0.00
504.13	114.69
504.30	9.36
504.48	56.17
504.65	0.00
504.83	49.15
505.01	51.49
505.18	0.00
505.36	30.43
505.53	81.92
505.71	25.75
505.88	63.19
506.06	25.75
506.23	14.04
506.41	65.54
506.58	74.90
506.76	60.85
506.93	72.56
507.11	28.09
507.28	56.17
507.46	21.06
507.63	63.19
507.81	46.81
507.98	46.81
508.16	16.38
508.33	0.00
508.50	60.85
508.68	65.54
508.85	121.71
509.03	95.96
509.20	0.00
509.38	63.19
509.55	32.77
509.73	102.98
509.90	102.98
510.08	67.88
510.25	100.64
510.42	0.00
510.60	0.00
510.77	44.47
510.95	42.13
511.12	79.58
511.30	49.15
511.47	58.51
511.64	32.77
511.82	74.90
511.99	4.68
512.17	0.00
512.34	0.00
512.51	77.24
512.69	58.51
512.86	49.15
513.04	28.09
513.21	16.38
513.38	4.68
513.56	0.00
513.73	81.92
513.90	74.90
514.08	23.41
514.25	112.35
514.43	0.00
514.60	63.19
514.77	21.06
514.95	86.60
515.12	0.00
515.29	4.68
515.47	35.11
515.64	126.39
515.81	39.79
515.99	58.51
516.16	4.68
516.33	28.09
516.51	63.19
516.68	72.56
516.85	74.90
517.03	30.43
517.20	49.15
517.37	60.85
517.54	79.58
517.72	21.06
517.89	30.43
518.06	42.13
518.24	88.94
518.41	102.98
518.58	77.24
518.75	67.88
518.93	65.54
519.10	9.36
519.27	0.00
519.45	49.15
519.62	77.24
519.79	53.83
519.96	30.43
520.14	35.11
520.31	0.00
520.48	0.00
520.65	60.85
520.83	44.47
521.00	9.36
521.17	42.13
521.34	49.15
521.52	74.90
521.69	46.81
521.86	72.56
522.03	63.19
522.20	35.11
522.38	42.13
522.55	53.83
522.72	0.00
522.89	79.58
523.07	16.38
523.24	0.00
523.41	56.17
523.58	23.41
523.75	37.45
523.92	9.36
524.10	86.60
524.27	32.77
524.44	63.19
524.61	37.45
524.78	9.36
524.96	11.70
525.13	0.00
525.30	67.88
525.47	30.43
525.64	95.96
525.81	35.11
525.98	49.15
526.16	60.85
526.33	0.00
526.50	46.81
526.67	28.09
526.84	95.96
527.01	56.17
527.18	37.45
527.36	25.75
527.53	0.00
527.70	44.47
527.87	0.00
528.04	56.17
528.21	84.26
528.38	35.11
528.55	77.24
528.72	93.62
528.89	16.38
529.07	2.34
529.24	91.28
529.41	84.26
529.58	14.04
529.75	0.00
529.92	23.41
530.09	37.45
530.26	98.30
530.43	46.81
530.60	39.79
530.77	0.00
530.94	37.45
531.11	53.83
531.28	16.38
531.46	60.85
531.63	51.49
531.80	14.04
531.97	51.49
532.14	0.00
532.31	0.00
532.48	25.75
532.65	100.64
532.82	0.00
532.99	37.45
533.16	46.81
533.33	63.19
533.50	0.00
533.67	77.24
533.84	58.51
534.01	70.22
534.18	81.92
534.35	28.09
534.52	105.32
534.69	72.56
534.86	21.06
535.03	67.88
535.20	63.19
535.37	91.28
535.54	39.79
535.71	9.36
535.88	21.06
536.05	95.96
536.22	51.49
536.38	91.28
536.55	18.72
536.72	56.17
536.89	84.26
537.06	0.00
537.23	105.32
537.40	86.60
537.57	77.24
537.74	14.04
537.91	74.90
538.08	0.00
538.25	0.00
538.42	42.13
538.59	2.34
538.75	77.24
538.92	42.13
539.09	88.94
539.26	7.02
539.43	105.32
539.60	21.06
539.77	16.38
539.94	124.05
540.11	102.98
540.28	124.05
540.44	35.11
540.61	0.00
540.78	2.34
540.95	70.22
541.12	49.15
541.29	65.54
541.46	23.41
541.62	23.41
541.79	72.56
541.96	63.19
542.13	2.34
542.30	14.04
542.47	72.56
542.63	37.45
542.80	49.15
542.97	53.83
543.14	0.00
543.31	30.43
543.48	0.00
543.64	91.28
543.81	21.06
543.98	16.38
544.15	37.45
544.32	23.41
544.48	42.13
544.65	14.04
544.82	9.36
544.99	126.39
545.16	0.00
545.32	14.04
545.49	35.11
545.66	0.00
545.83	67.88
546.00	105.32
546.16	95.96
546.33	74.90
546.50	21.06
546.67	51.49
546.83	70.22
547.00	0.00
547.17	44.47
547.34	79.58
547.50	79.58
547.67	4.68
547.84	39.79
548.00	56.17
548.17	0.00
548.34	60.85
548.51	46.81
548.67	28.09
548.84	2.34
549.01	84.26
549.18	110.01
549.34	21.06
549.51	21.06
549.68	32.77
549.84	63.19
550.01	88.94
550.18	46.81
550.34	95.96
550.51	0.00
550.68	37.45
550.84	23.41
551.01	65.54
551.18	18.72
551.34	42.13
551.51	4.68
551.68	32.77
551.84	70.22
552.01	72.56
552.18	112.35
552.34	18.72
552.51	21.06
552.68	44.47
552.84	32.77
553.01	21.06
553.18	72.56
553.34	72.56
553.51	18.72
553.67	133.41
553.84	25.75
554.01	63.19
554.17	39.79
554.34	16.38
554.51	98.30
554.67	37.45
554.84	0.00
555.00	91.28
555.17	74.90
555.33	30.43
555.50	58.51
555.67	0.00
555.83	53.83
556.00	63.19
556.16	9.36
556.33	56.17
556.50	72.56
556.66	58.51
556.83	138.09
556.99	49.15
557.16	70.22
557.32	35.11
557.49	56.17
557.65	37.45
557.82	81.92
557.98	0.00
558.15	11.70
558.32	56.17
558.48	102.98
558.65	86.60
558.81	0.00
558.98	117.03
559.14	11.70
559.31	18.72
559.47	46.81
559.64	14.04
559.80	35.11
559.97	11.70
560.13	51.49
560.30	37.45
560.46	58.51
560.63	44.47
560.79	98.30
560.96	49.15
561.12	79.58
561.29	21.06
561.45	21.06
561.61	0.00
561.78	28.09
561.94	58.51
562.11	51.49
562.27	81.92
562.44	110.01
562.60	135.75
562.77	9.36
562.93	60.85
563.10	88.94
563.26	0.00
563.42	37.45
563.59	63.19
563.75	2.34
563.92	18.72
564.08	44.47
564.24	0.00
564.41	77.24
564.57	53.83
564.74	14.04
564.90	51.49
565.07	11.70
565.23	30.43
565.39	74.90
565.56	30.43
565.72	7.02
565.88	65.54
566.05	98.30
566.21	42.13
566.38	77.24
566.54	49.15
566.70	4.68
566.87	18.72
567.03	70.22
567.19	79.58
567.36	16.38
567.52	79.58
567.68	79.58
567.85	42.13
568.01	107.66
568.17	11.70
568.34	93.62
568.50	0.00
568.66	46.81
568.83	67.88
568.99	51.49
569.15	0.00
569.32	9.36
569.48	65.54
569.64	21.06
569.81	112.35
569.97	42.13
570.13	86.60
570.30	39.79
570.46	28.09
570.62	32.77
570.78	0.00
570.95	72.56
571.11	56.17
571.27	107.66
571.43	72.56
571.60	119.37
571.76	93.62
571.92	51.49
572.09	42.13
572.25	2.34
572.41	67.88
572.57	4.68
572.74	72.56
572.90	42.13
573.06	77.24
573.22	0.00
573.38	46.81
573.55	44.47
573.71	81.92
573.87	42.13
574.03	0.00
574.20	60.85
574.36	91.28
574.52	74.90
574.68	67.88
574.84	0.00
575.01	42.13
575.17	70.22
575.33	25.75
575.49	46.81
575.65	79.58
575.82	114.69
575.98	32.77
576.14	35.11
576.30	53.83
576.46	77.24
576.62	58.51
576.79	81.92
576.95	91.28
577.11	44.47
577.27	0.00
577.43	60.85
577.59	79.58
577.75	60.85
577.92	39.79
578.08	4.68
578.24	18.72
578.40	2.34
578.56	44.47
578.72	65.54
578.88	72.56
579.04	67.88
579.21	0.00
579.37	51.49
579.53	16.38
579.69	21.06
579.85	42.13
580.01	53.83
580.17	0.00
580.33	58.51
580.49	49.15
580.65	133.41
580.82	9.36
580.98	32.77
581.14	25.75
581.30	44.47
581.46	65.54
581.62	14.04
581.78	0.00
581.94	102.98
582.10	74.90
582.26	49.15
582.42	58.51
582.58	46.81
582.74	0.00
582.90	72.56
583.06	126.39
583.22	117.03
583.38	74.90
583.54	28.09
583.70	142.77
583.86	16.38
584.02	46.81
584.18	30.43
584.34	86.60
584.50	182.56
584.66	657.69
584.82	1205.38
584.98	1511.99
585.14	1249.85
585.30	774.72
585.46	491.51
585.62	360.44
585.78	198.95
585.94	67.88
586.10	32.77
586.26	35.11
586.42	117.03
586.58	42.13
586.74	58.51
586.90	7.02
587.06	25.75
587.22	56.17
587.38	81.92
587.54	91.28
587.70	112.35
587.86	124.05
588.02	173.20
588.18	100.64
588.34	81.92
588.49	0.00
588.65	46.81
588.81	16.38
588.97	93.62
589.13	14.04
589.29	58.51
589.45	51.49
589.61	65.54
589.77	23.41
589.93	16.38
590.08	30.43
590.24	35.11
590.40	0.00
590.56	51.49
590.72	21.06
590.88	11.70
591.04	14.04
591.20	81.92
591.35	67.88
591.51	9.36
591.67	37.45
591.83	4.68
591.99	56.17
592.15	30.43
592.31	44.47
592.46	32.77
592.62	39.79
592.78	63.19
592.94	0.00
593.10	0.00
593.26	46.81
593.41	18.72
593.57	95.96
593.73	37.45
593.89	159.16
594.05	149.79
594.20	231.71
594.36	238.73
594.52	210.65
594.68	152.13
594.84	88.94
594.99	70.22
595.15	51.49
595.31	105.32
595.47	0.00
595.62	79.58
595.78	56.17
595.94	86.60
596.10	60.85
596.25	2.34
596.41	11.70
596.57	35.11
596.73	44.47
596.88	0.00
597.04	0.00
597.20	124.05
597.36	72.56
597.51	93.62
597.67	72.56
597.83	18.72
597.99	84.26
598.14	53.83
598.30	7.02
598.46	14.04
598.61	2.34
598.77	74.90
598.93	53.83
599.09	21.06
599.24	88.94
599.40	60.85
599.56	4.68
599.71	49.15
599.87	35.11
600.03	0.00
600.18	28.09
600.34	25.75
600.50	84.26
600.65	72.56
600.81	37.45
600.97	63.19
601.12	7.02
601.28	0.00
601.44	25.75
601.59	0.00
601.75	65.54
601.91	9.36
602.06	30.43
602.22	0.00
602.37	65.54
602.53	14.04
602.69	142.77
602.84	74.90
603.00	35.11
603.16	93.62
603.31	112.35
603.47	42.13
603.62	35.11
603.78	119.37
603.94	0.00
604.09	14.04
604.25	49.15
604.40	46.81
604.56	39.79
604.71	14.04
604.87	77.24
605.03	30.43
605.18	18.72
605.34	37.45
605.49	0.00
605.65	23.41
605.80	0.00
605.96	100.64
606.12	58.51
606.27	2.34
606.43	42.13
606.58	39.79
606.74	98.30
606.89	126.39
607.05	201.29
607.20	250.44
607.36	112.35
607.51	110.01
607.67	86.60
607.82	70.22
607.98	65.54
608.13	42.13
608.29	70.22
608.44	0.00
608.60	42.13
608.75	2.34
608.91	67.88
609.06	166.18
609.22	294.91
609.37	332.36
609.53	337.04
609.68	177.88
609.84	126.39
609.99	74.90
610.15	37.45
610.30	32.77
610.46	42.13
610.61	56.17
610.76	49.15
610.92	93.62
611.07	0.00
611.23	0.00
611.38	51.49
611.54	49.15
611.69	0.00
611.84	30.43
612.00	2.34
612.15	0.00
612.31	0.00
612.46	77.24
612.62	58.51
612.77	77.24
612.92	79.58
613.08	95.96
613.23	65.54
613.39	128.73
613.54	37.45
613.69	154.48
613.85	320.65
614.00	430.66
614.15	407.25
614.31	297.25
614.46	262.14
614.62	194.26
614.77	156.82
614.92	51.49
615.08	0.00
615.23	32.77
615.38	53.83
615.54	21.06
615.69	98.30
615.84	112.35
616.00	203.63
616.15	131.07
616.30	88.94
616.46	23.41
616.61	65.54
616.76	37.45
616.92	65.54
617.07	53.83
617.22	39.79
617.37	35.11
617.53	65.54
617.68	53.83
617.83	25.75
617.99	32.77
618.14	112.35
618.29	51.49
618.45	21.06
618.60	44.47
618.75	100.64
618.90	65.54
619.06	42.13
619.21	79.58
619.36	65.54
619.51	63.19
619.67	58.51
619.82	0.00
619.97	0.00
620.12	63.19
620.28	18.72
620.43	58.51
620.58	124.05
620.73	51.49
620.89	60.85
621.04	126.39
621.19	100.64
621.34	39.79
621.49	152.13
621.65	121.71
621.80	60.85
621.95	91.28
622.10	35.11
622.25	2.34
622.41	35.11
622.56	9.36
622.71	32.77
622.86	65.54
623.01	32.77
623.16	39.79
623.32	9.36
623.47	79.58
623.62	44.47
623.77	72.56
623.92	49.15
624.07	51.49
624.23	39.79
624.38	18.72
624.53	91.28
624.68	91.28
624.83	77.24
624.98	58.51
625.13	42.13
625.29	25.75
625.44	35.11
625.59	39.79
625.74	44.47
625.89	95.96
626.04	119.37
626.19	149.79
626.34	243.42
626.49	227.03
626.65	182.56
626.80	245.76
626.95	72.56
627.10	60.85
627.25	79.58
627.40	91.28
627.55	74.90
627.70	37.45
627.85	98.30
628.00	133.41
628.15	39.79
628.30	0.00
628.45	44.47
628.60	0.00
628.76	32.77
628.91	60.85
629.06	39.79
629.21	77.24
629.36	39.79
629.51	77.24
629.66	56.17
629.81	65.54
629.96	102.98
630.11	110.01
630.26	105.32
630.41	117.03
630.56	0.00
630.71	39.79
630.86	0.00
631.01	88.94
631.16	42.13
631.31	84.26
631.46	53.83
631.61	0.00
631.76	35.11
631.91	84.26
632.06	65.54
632.21	74.90
632.36	77.24
632.51	63.19
632.66	44.47
632.81	46.81
632.96	147.45
633.10	177.88
633.25	102.98
633.40	98.30
633.55	117.03
633.70	93.62
633.85	149.79
634.00	121.71
634.15	77.24
634.30	63.19
634.45	105.32
634.60	0.00
634.75	0.00
634.90	81.92
635.05	56.17
635.19	32.77
635.34	56.17
635.49	56.17
635.64	7.02
635.79	21.06
635.94	79.58
636.09	49.15
636.24	25.75
636.39	77.24
636.53	0.00
636.68	18.72
636.83	16.38
636.98	0.00
637.13	23.41
637.28	46.81
637.43	16.38
637.57	30.43
637.72	105.32
637.87	177.88
638.02	346.40
638.17	287.89
638.32	227.03
638.46	180.22
638.61	149.79
638.76	65.54
638.91	65.54
639.06	84.26
639.20	70.22
639.35	65.54
639.50	21.06
639.65	187.24
639.80	285.55
639.94	463.43
640.09	449.38
640.24	397.89
640.39	313.63
640.54	140.43
640.68	126.39
640.83	140.43
640.98	56.17
641.13	32.77
641.27	81.92
641.42	4.68
641.57	21.06
641.72	28.09
641.86	39.79
642.01	0.00
642.16	60.85
642.31	30.43
642.45	42.13
642.60	42.13
642.75	0.00
642.90	84.26
643.04	49.15
643.19	56.17
643.34	67.88
643.48	32.77
643.63	14.04
643.78	25.75
643.93	14.04
644.07	49.15
644.22	81.92
644.37	58.51
644.51	37.45
644.66	84.26
644.81	0.00
644.95	70.22
645.10	0.00
645.25	0.00
645.39	35.11
645.54	44.47
645.69	46.81
645.83	70.22
645.98	98.30
646.13	107.66
646.27	100.64
646.42	91.28
646.57	28.09
646.71	14.04
646.86	53.83
647.00	0.00
647.15	79.58
647.30	95.96
647.44	23.41
647.59	30.43
647.74	9.36
647.88	63.19
648.03	44.47
648.17	30.43
648.32	58.51
648.47	63.19
648.61	0.00
648.76	56.17
648.90	0.00
649.05	2.34
649.20	60.85
649.34	60.85
649.49	44.47
649.63	65.54
649.78	93.62
649.92	11.70
650.07	84.26
650.21	184.90
650.36	196.60
650.51	294.91
650.65	250.44
650.80	95.96
650.94	145.11
651.09	84.26
651.23	81.92
651.38	0.00
651.52	11.70
651.67	67.88
651.81	2.34
651.96	35.11
652.10	0.00
652.25	51.49
652.39	4.68
652.54	4.68
652.68	46.81
652.83	88.94
652.97	128.73
653.12	112.35
653.26	49.15
653.41	107.66
653.55	58.51
653.70	53.83
653.84	11.70
653.99	18.72
654.13	53.83
654.27	35.11
654.42	9.36
654.56	49.15
654.71	4.68
654.85	0.00
655.00	16.38
655.14	30.43
655.29	95.96
655.43	67.88
655.57	65.54
655.72	18.72
655.86	37.45
656.01	77.24
656.15	58.51
656.30	23.41
656.44	58.51
656.58	0.00
656.73	16.38
656.87	23.41
657.01	35.11
657.16	7.02
657.30	9.36
657.45	67.88
657.59	63.19
657.73	30.43
657.88	124.05
658.02	93.62
658.16	0.00
658.31	0.00
658.45	28.09
658.60	51.49
658.74	84.26
658.88	49.15
659.03	21.06
659.17	49.15
659.31	98.30
659.46	131.07
659.60	170.86
659.74	110.01
659.89	117.03
660.03	84.26
660.17	60.85
660.32	72.56
660.46	53.83
660.60	0.00
660.74	58.51
660.89	58.51
661.03	0.00
661.17	77.24
661.32	18.72
661.46	0.00
661.60	0.00
661.74	65.54
661.89	53.83
662.03	95.96
662.17	0.00
662.31	0.00
662.46	53.83
662.60	0.00
662.74	58.51
662.88	44.47
663.03	53.83
663.17	30.43
663.31	25.75
663.45	114.69
663.60	37.45
663.74	4.68
663.88	25.75
664.02	7.02
664.17	70.22
664.31	60.85
664.45	0.00
664.59	25.75
664.73	25.75
664.88	25.75
665.02	39.79
665.16	81.92
665.30	93.62
665.44	74.90
665.59	16.38
665.73	32.77
665.87	28.09
666.01	9.36
666.15	0.00
666.29	35.11
666.44	86.60
666.58	79.58
666.72	65.54
666.86	28.09
667.00	35.11
667.14	86.60
667.28	51.49
667.43	133.41
667.57	280.86
667.71	191.92
667.85	243.42
667.99	159.16
668.13	119.37
668.27	18.72
668.41	72.56
668.56	53.83
668.70	72.56
668.84	107.66
668.98	131.07
669.12	95.96
669.26	21.06
669.40	0.00
669.54	7.02
669.68	117.03
669.82	63.19
669.96	74.90
670.10	16.38
670.25	32.77
670.39	35.11
670.53	21.06
670.67	51.49
670.81	14.04
670.95	21.06
671.09	46.81
671.23	86.60
671.37	173.20
671.51	107.66
671.65	121.71
671.79	168.52
671.93	72.56
672.07	119.37
672.21	88.94
672.35	53.83
672.49	18.72
672.63	32.77
672.77	70.22
672.91	51.49
673.05	30.43
673.19	28.09
673.33	42.13
673.47	7.02
673.61	60.85
673.75	16.38
673.89	51.49
674.03	49.15
674.17	37.45
674.31	30.43
674.45	44.47
674.59	32.77
674.73	9.36
674.87	0.00
675.01	84.26
675.15	107.66
675.29	84.26
675.43	23.41
675.56	18.72
675.70	51.49
675.84	0.00
675.98	23.41
676.12	21.06
676.26	126.39
676.40	0.00
676.54	28.09
676.68	28.09
676.82	88.94
676.96	0.00
677.10	70.22
677.23	60.85
677.37	46.81
677.51	23.41
677.65	0.00
677.79	16.38
677.93	11.70
678.07	32.77
678.21	51.49
678.34	25.75
678.48	46.81
678.62	0.00
678.76	0.00
678.90	23.41
679.04	25.75
679.18	67.88
679.31	0.00
679.45	21.06
679.59	39.79
679.73	84.26
679.87	14.04
680.00	16.38
680.14	42.13
680.28	35.11
680.42	124.05
680.56	67.88
680.70	30.43
680.83	2.34
680.97	91.28
681.11	84.26
681.25	53.83
681.39	0.00
681.52	86.60
681.66	77.24
681.80	23.41
681.94	0.00
682.07	0.00
682.21	74.90
682.35	112.35
682.49	42.13
682.62	0.00
682.76	16.38
682.90	28.09
683.04	72.56
683.17	63.19
683.31	58.51
683.45	21.06
683.59	67.88
683.72	7.02
683.86	32.77
684.00	72.56
684.13	117.03
684.27	28.09
684.41	63.19
684.55	23.41
684.68	28.09
684.82	70.22
684.96	37.45
685.09	46.81
685.23	74.90
685.37	4.68
685.50	37.45
685.64	0.00
685.78	0.00
685.91	63.19
686.05	37.45
686.19	35.11
686.32	2.34
686.46	56.17
686.60	100.64
686.73	0.00
686.87	37.45
687.01	53.83
687.14	35.11
687.28	79.58
687.42	53.83
687.55	42.13
687.69	51.49
687.82	86.60
687.96	114.69
688.10	28.09
688.23	46.81
688.37	23.41
688.50	74.90
688.64	39.79
688.78	2.34
688.91	4.68
689.05	67.88
689.18	0.00
689.32	0.00
689.46	9.36
689.59	4.68
689.73	67.88
689.86	28.09
690.00	0.00
690.13	25.75
690.27	37.45
690.41	0.00
690.54	84.26
690.68	39.79
690.81	0.00
690.95	58.51
691.08	51.49
691.22	0.00
691.35	72.56
691.49	9.36
691.62	25.75
691.76	42.13
691.89	88.94
692.03	28.09
692.16	0.00
692.30	23.41
692.43	63.19
692.57	117.03
692.70	65.54
692.84	86.60
692.97	65.54
693.11	112.35
693.24	46.81
693.38	21.06
693.51	0.00
693.65	7.02
693.78	16.38
693.92	21.06
694.05	37.45
694.19	35.11
694.32	0.00
694.45	35.11
694.59	44.47
694.72	51.49
694.86	7.02
694.99	0.00
695.13	93.62
695.26	23.41
695.39	105.32
695.53	53.83
695.66	0.00
695.80	0.00
695.93	9.36
696.07	93.62
696.20	95.96
696.33	32.77
696.47	53.83
696.60	100.64
696.73	0.00
696.87	32.77
697.00	46.81
697.14	51.49
697.27	74.90
697.40	49.15
697.54	58.51
697.67	42.13
697.80	11.70
697.94	42.13
698.07	23.41
698.21	25.75
698.34	7.02
698.47	46.81
698.61	56.17
698.74	0.00
698.87	0.00
699.01	0.00
699.14	0.00
699.27	56.17
699.40	0.00
699.54	16.38
699.67	53.83
699.80	7.02
699.94	9.36
700.07	60.85
700.20	0.00
700.34	56.17
700.47	49.15
700.60	32.77
700.73	49.15
700.87	28.09
701.00	0.00
701.13	0.00
701.26	51.49
701.40	149.79
701.53	0.00
701.66	11.70
701.79	51.49
701.93	58.51
702.06	4.68
702.19	2.34
702.32	37.45
702.46	67.88
702.59	30.43
702.72	56.17
702.85	88.94
702.99	145.11
703.12	259.80
703.25	205.97
703.38	152.13
703.51	266.82
703.65	7.02
703.78	110.01
703.91	88.94
704.04	93.62
704.17	18.72
704.31	49.15
704.44	72.56
704.57	93.62
704.70	67.88
704.83	42.13
704.96	0.00
705.10	0.00
705.23	30.43
>>>>>End Processed Spectral Data<<<<<
