SpectraSuite Data File
++++++++++++++++++++++++++++++++++++
Date: Fri Oct 04 12:13:39 GMT-05:00 2013
User: price-jones
Dark Spectrum Present: No
Reference Spectrum Present: No
Number of Sampled Component Spectra: 1
Spectrometers: USB2+H05261
Integration Time (usec): 10000 (USB2+H05261)
Spectra Averaged: 1 (USB2+H05261)
Boxcar Smoothing: 0 (USB2+H05261)
Correct for Electrical Dark: No (USB2+H05261)
Strobe/Lamp Enabled: No (USB2+H05261)
Correct for Detector Non-linearity: No (USB2+H05261)
Correct for Stray Light: No (USB2+H05261)
Number of Pixels in Processed Spectrum: 2048
>>>>>Begin Processed Spectral Data<<<<<
365.73	4.68
365.92	4.68
366.12	4.68
366.32	0.00
366.52	0.00
366.72	0.00
366.91	0.00
367.11	0.00
367.31	0.00
367.51	0.00
367.70	0.00
367.90	0.00
368.10	0.00
368.30	0.00
368.49	0.00
368.69	0.00
368.89	0.00
369.09	0.00
369.28	0.00
369.48	0.00
369.68	0.00
369.87	0.00
370.07	0.00
370.27	0.00
370.47	0.00
370.66	0.00
370.86	0.00
371.06	9.36
371.25	0.00
371.45	0.00
371.65	9.36
371.84	23.41
372.04	9.36
372.24	25.75
372.44	4.68
372.63	0.00
372.83	0.00
373.03	35.11
373.22	0.00
373.42	30.43
373.62	56.17
373.81	2.34
374.01	51.49
374.21	49.15
374.40	25.75
374.60	28.09
374.79	42.13
374.99	35.11
375.19	39.79
375.38	37.45
375.58	35.11
375.78	0.00
375.97	32.77
376.17	0.00
376.37	0.00
376.56	37.45
376.76	0.00
376.95	7.02
377.15	0.00
377.35	11.70
377.54	0.00
377.74	7.02
377.93	30.43
378.13	42.13
378.33	0.00
378.52	102.98
378.72	2.34
378.91	42.13
379.11	0.00
379.31	30.43
379.50	32.77
379.70	14.04
379.89	25.75
380.09	46.81
380.28	67.88
380.48	51.49
380.68	25.75
380.87	0.00
381.07	0.00
381.26	65.54
381.46	7.02
381.65	42.13
381.85	4.68
382.04	0.00
382.24	16.38
382.43	51.49
382.63	56.17
382.83	0.00
383.02	77.24
383.22	21.06
383.41	0.00
383.61	53.83
383.80	35.11
384.00	11.70
384.19	4.68
384.39	0.00
384.58	18.72
384.78	16.38
384.97	4.68
385.17	0.00
385.36	0.00
385.56	46.81
385.75	0.00
385.95	7.02
386.14	65.54
386.34	65.54
386.53	0.00
386.72	46.81
386.92	7.02
387.11	9.36
387.31	0.00
387.50	91.28
387.70	28.09
387.89	42.13
388.09	23.41
388.28	0.00
388.48	21.06
388.67	30.43
388.86	0.00
389.06	18.72
389.25	65.54
389.45	0.00
389.64	53.83
389.84	0.00
390.03	18.72
390.22	72.56
390.42	0.00
390.61	0.00
390.81	81.92
391.00	44.47
391.19	16.38
391.39	23.41
391.58	37.45
391.78	7.02
391.97	30.43
392.16	30.43
392.36	42.13
392.55	70.22
392.75	23.41
392.94	0.00
393.13	60.85
393.33	4.68
393.52	42.13
393.71	53.83
393.91	39.79
394.10	30.43
394.29	42.13
394.49	0.00
394.68	23.41
394.88	0.00
395.07	0.00
395.26	0.00
395.46	0.00
395.65	84.26
395.84	25.75
396.04	35.11
396.23	16.38
396.42	0.00
396.62	0.00
396.81	14.04
397.00	4.68
397.19	9.36
397.39	35.11
397.58	7.02
397.77	14.04
397.97	49.15
398.16	21.06
398.35	14.04
398.55	0.00
398.74	16.38
398.93	23.41
399.12	72.56
399.32	56.17
399.51	0.00
399.70	0.00
399.90	65.54
400.09	28.09
400.28	72.56
400.47	0.00
400.67	23.41
400.86	0.00
401.05	49.15
401.24	0.00
401.44	35.11
401.63	51.49
401.82	46.81
402.01	0.00
402.21	2.34
402.40	23.41
402.59	2.34
402.78	53.83
402.97	110.01
403.17	37.45
403.36	46.81
403.55	0.00
403.74	0.00
403.93	30.43
404.13	70.22
404.32	60.85
404.51	60.85
404.70	0.00
404.89	124.05
405.09	0.00
405.28	23.41
405.47	56.17
405.66	0.00
405.85	30.43
406.05	100.64
406.24	42.13
406.43	35.11
406.62	0.00
406.81	0.00
407.00	121.71
407.20	2.34
407.39	77.24
407.58	23.41
407.77	30.43
407.96	110.01
408.15	63.19
408.34	107.66
408.54	77.24
408.73	56.17
408.92	21.06
409.11	42.13
409.30	44.47
409.49	25.75
409.68	30.43
409.87	0.00
410.07	0.00
410.26	30.43
410.45	39.79
410.64	63.19
410.83	30.43
411.02	0.00
411.21	11.70
411.40	16.38
411.59	44.47
411.78	0.00
411.98	44.47
412.17	65.54
412.36	0.00
412.55	21.06
412.74	4.68
412.93	91.28
413.12	0.00
413.31	21.06
413.50	23.41
413.69	46.81
413.88	86.60
414.07	53.83
414.26	110.01
414.45	86.60
414.64	84.26
414.83	67.88
415.02	35.11
415.22	0.00
415.41	91.28
415.60	0.00
415.79	32.77
415.98	37.45
416.17	35.11
416.36	51.49
416.55	58.51
416.74	51.49
416.93	51.49
417.12	32.77
417.31	2.34
417.50	56.17
417.69	30.43
417.88	56.17
418.07	42.13
418.26	84.26
418.45	114.69
418.64	86.60
418.83	32.77
419.02	49.15
419.21	67.88
419.39	49.15
419.58	37.45
419.77	51.49
419.96	107.66
420.15	49.15
420.34	107.66
420.53	0.00
420.72	0.00
420.91	23.41
421.10	58.51
421.29	67.88
421.48	51.49
421.67	11.70
421.86	0.00
422.05	14.04
422.24	21.06
422.43	0.00
422.61	30.43
422.80	30.43
422.99	39.79
423.18	74.90
423.37	37.45
423.56	11.70
423.75	49.15
423.94	51.49
424.13	44.47
424.32	79.58
424.50	58.51
424.69	0.00
424.88	70.22
425.07	53.83
425.26	44.47
425.45	60.85
425.64	79.58
425.83	86.60
426.01	110.01
426.20	37.45
426.39	63.19
426.58	37.45
426.77	93.62
426.96	32.77
427.15	23.41
427.33	39.79
427.52	142.77
427.71	49.15
427.90	0.00
428.09	126.39
428.28	25.75
428.46	32.77
428.65	18.72
428.84	42.13
429.03	58.51
429.22	51.49
429.40	53.83
429.59	35.11
429.78	60.85
429.97	4.68
430.16	32.77
430.34	72.56
430.53	42.13
430.72	51.49
430.91	95.96
431.10	46.81
431.28	70.22
431.47	0.00
431.66	21.06
431.85	9.36
432.03	44.47
432.22	4.68
432.41	95.96
432.60	7.02
432.79	25.75
432.97	14.04
433.16	53.83
433.35	16.38
433.54	98.30
433.72	84.26
433.91	0.00
434.10	86.60
434.28	51.49
434.47	93.62
434.66	70.22
434.85	60.85
435.03	65.54
435.22	74.90
435.41	0.00
435.59	44.47
435.78	121.71
435.97	121.71
436.16	0.00
436.34	93.62
436.53	0.00
436.72	23.41
436.90	86.60
437.09	18.72
437.28	42.13
437.46	30.43
437.65	58.51
437.84	32.77
438.02	63.19
438.21	74.90
438.40	46.81
438.58	0.00
438.77	11.70
438.96	44.47
439.14	21.06
439.33	60.85
439.52	14.04
439.70	39.79
439.89	93.62
440.08	58.51
440.26	0.00
440.45	0.00
440.63	9.36
440.82	63.19
441.01	93.62
441.19	81.92
441.38	35.11
441.57	107.66
441.75	58.51
441.94	77.24
442.12	77.24
442.31	0.00
442.50	18.72
442.68	65.54
442.87	35.11
443.05	23.41
443.24	21.06
443.43	60.85
443.61	53.83
443.80	37.45
443.98	4.68
444.17	35.11
444.35	35.11
444.54	21.06
444.73	9.36
444.91	0.00
445.10	30.43
445.28	63.19
445.47	86.60
445.65	98.30
445.84	14.04
446.02	14.04
446.21	23.41
446.39	39.79
446.58	72.56
446.77	46.81
446.95	100.64
447.14	9.36
447.32	37.45
447.51	56.17
447.69	91.28
447.88	84.26
448.06	4.68
448.25	0.00
448.43	84.26
448.62	4.68
448.80	7.02
448.99	51.49
449.17	56.17
449.36	30.43
449.54	93.62
449.73	39.79
449.91	56.17
450.10	88.94
450.28	42.13
450.46	23.41
450.65	44.47
450.83	28.09
451.02	84.26
451.20	51.49
451.39	74.90
451.57	30.43
451.76	77.24
451.94	105.32
452.13	30.43
452.31	60.85
452.49	74.90
452.68	63.19
452.86	35.11
453.05	107.66
453.23	46.81
453.42	42.13
453.60	30.43
453.78	86.60
453.97	81.92
454.15	16.38
454.34	53.83
454.52	70.22
454.70	51.49
454.89	60.85
455.07	93.62
455.26	67.88
455.44	0.00
455.62	49.15
455.81	46.81
455.99	88.94
456.17	65.54
456.36	30.43
456.54	74.90
456.73	107.66
456.91	72.56
457.09	110.01
457.28	53.83
457.46	100.64
457.64	30.43
457.83	140.43
458.01	37.45
458.19	74.90
458.38	102.98
458.56	72.56
458.74	67.88
458.93	23.41
459.11	63.19
459.29	60.85
459.48	98.30
459.66	28.09
459.84	102.98
460.03	49.15
460.21	88.94
460.39	21.06
460.57	72.56
460.76	39.79
460.94	28.09
461.12	25.75
461.31	72.56
461.49	0.00
461.67	53.83
461.85	42.13
462.04	32.77
462.22	168.52
462.40	30.43
462.59	37.45
462.77	58.51
462.95	74.90
463.13	25.75
463.32	88.94
463.50	60.85
463.68	51.49
463.86	105.32
464.05	84.26
464.23	9.36
464.41	63.19
464.59	46.81
464.78	16.38
464.96	28.09
465.14	32.77
465.32	67.88
465.50	4.68
465.69	23.41
465.87	84.26
466.05	56.17
466.23	7.02
466.41	0.00
466.60	95.96
466.78	42.13
466.96	65.54
467.14	72.56
467.32	49.15
467.51	46.81
467.69	74.90
467.87	100.64
468.05	23.41
468.23	18.72
468.41	84.26
468.60	74.90
468.78	30.43
468.96	74.90
469.14	138.09
469.32	86.60
469.50	70.22
469.69	11.70
469.87	0.00
470.05	84.26
470.23	65.54
470.41	86.60
470.59	84.26
470.77	126.39
470.95	58.51
471.14	16.38
471.32	74.90
471.50	60.85
471.68	28.09
471.86	72.56
472.04	18.72
472.22	18.72
472.40	49.15
472.58	63.19
472.77	67.88
472.95	44.47
473.13	21.06
473.31	110.01
473.49	65.54
473.67	46.81
473.85	67.88
474.03	42.13
474.21	42.13
474.39	86.60
474.57	58.51
474.75	81.92
474.93	112.35
475.12	79.58
475.30	142.77
475.48	46.81
475.66	79.58
475.84	0.00
476.02	35.11
476.20	9.36
476.38	30.43
476.56	110.01
476.74	93.62
476.92	91.28
477.10	77.24
477.28	74.90
477.46	72.56
477.64	58.51
477.82	77.24
478.00	149.79
478.18	121.71
478.36	102.98
478.54	56.17
478.72	110.01
478.90	32.77
479.08	95.96
479.26	56.17
479.44	95.96
479.62	72.56
479.80	72.56
479.98	70.22
480.16	0.00
480.34	67.88
480.52	84.26
480.70	35.11
480.88	35.11
481.06	56.17
481.24	46.81
481.41	98.30
481.59	81.92
481.77	93.62
481.95	46.81
482.13	25.75
482.31	16.38
482.49	44.47
482.67	126.39
482.85	0.00
483.03	28.09
483.21	9.36
483.39	39.79
483.57	60.85
483.74	98.30
483.92	65.54
484.10	37.45
484.28	37.45
484.46	28.09
484.64	79.58
484.82	25.75
485.00	53.83
485.18	58.51
485.35	9.36
485.53	91.28
485.71	110.01
485.89	46.81
486.07	37.45
486.25	110.01
486.43	95.96
486.61	65.54
486.78	37.45
486.96	11.70
487.14	131.07
487.32	58.51
487.50	77.24
487.68	49.15
487.85	56.17
488.03	35.11
488.21	14.04
488.39	37.45
488.57	58.51
488.75	49.15
488.92	126.39
489.10	105.32
489.28	81.92
489.46	9.36
489.64	28.09
489.81	65.54
489.99	28.09
490.17	168.52
490.35	126.39
490.53	18.72
490.70	119.37
490.88	46.81
491.06	95.96
491.24	117.03
491.41	126.39
491.59	18.72
491.77	58.51
491.95	21.06
492.13	98.30
492.30	102.98
492.48	23.41
492.66	84.26
492.84	77.24
493.01	81.92
493.19	0.00
493.37	25.75
493.54	140.43
493.72	173.20
493.90	95.96
494.08	102.98
494.25	32.77
494.43	30.43
494.61	98.30
494.79	112.35
494.96	117.03
495.14	166.18
495.32	56.17
495.49	44.47
495.67	16.38
495.85	81.92
496.02	42.13
496.20	81.92
496.38	93.62
496.55	65.54
496.73	163.84
496.91	133.41
497.09	60.85
497.26	74.90
497.44	159.16
497.62	39.79
497.79	63.19
497.97	91.28
498.14	140.43
498.32	105.32
498.50	28.09
498.67	18.72
498.85	42.13
499.03	93.62
499.20	51.49
499.38	51.49
499.56	84.26
499.73	86.60
499.91	37.45
500.08	18.72
500.26	74.90
500.44	46.81
500.61	93.62
500.79	81.92
500.97	88.94
501.14	37.45
501.32	23.41
501.49	91.28
501.67	88.94
501.84	44.47
502.02	93.62
502.20	117.03
502.37	60.85
502.55	7.02
502.72	39.79
502.90	65.54
503.07	56.17
503.25	58.51
503.43	86.60
503.60	11.70
503.78	180.22
503.95	119.37
504.13	93.62
504.30	121.71
504.48	107.66
504.65	63.19
504.83	105.32
505.01	46.81
505.18	0.00
505.36	21.06
505.53	93.62
505.71	56.17
505.88	84.26
506.06	126.39
506.23	0.00
506.41	30.43
506.58	49.15
506.76	16.38
506.93	63.19
507.11	102.98
507.28	56.17
507.46	51.49
507.63	63.19
507.81	117.03
507.98	95.96
508.16	35.11
508.33	110.01
508.50	35.11
508.68	37.45
508.85	121.71
509.03	102.98
509.20	56.17
509.38	84.26
509.55	53.83
509.73	25.75
509.90	86.60
510.08	60.85
510.25	72.56
510.42	74.90
510.60	102.98
510.77	84.26
510.95	67.88
511.12	63.19
511.30	74.90
511.47	100.64
511.64	93.62
511.82	135.75
511.99	112.35
512.17	77.24
512.34	32.77
512.51	53.83
512.69	25.75
512.86	128.73
513.04	51.49
513.21	11.70
513.38	70.22
513.56	21.06
513.73	65.54
513.90	39.79
514.08	74.90
514.25	74.90
514.43	110.01
514.60	58.51
514.77	114.69
514.95	88.94
515.12	142.77
515.29	56.17
515.47	102.98
515.64	86.60
515.81	93.62
515.99	81.92
516.16	58.51
516.33	72.56
516.51	16.38
516.68	77.24
516.85	46.81
517.03	42.13
517.20	35.11
517.37	53.83
517.54	93.62
517.72	98.30
517.89	58.51
518.06	145.11
518.24	93.62
518.41	0.00
518.58	42.13
518.75	53.83
518.93	114.69
519.10	121.71
519.27	114.69
519.45	70.22
519.62	91.28
519.79	86.60
519.96	70.22
520.14	98.30
520.31	102.98
520.48	126.39
520.65	98.30
520.83	4.68
521.00	79.58
521.17	67.88
521.34	142.77
521.52	86.60
521.69	126.39
521.86	39.79
522.03	100.64
522.20	102.98
522.38	102.98
522.55	93.62
522.72	100.64
522.89	49.15
523.07	107.66
523.24	72.56
523.41	119.37
523.58	28.09
523.75	142.77
523.92	98.30
524.10	58.51
524.27	53.83
524.44	84.26
524.61	100.64
524.78	100.64
524.96	128.73
525.13	107.66
525.30	60.85
525.47	53.83
525.64	65.54
525.81	119.37
525.98	70.22
526.16	107.66
526.33	102.98
526.50	107.66
526.67	44.47
526.84	67.88
527.01	107.66
527.18	138.09
527.36	58.51
527.53	65.54
527.70	16.38
527.87	63.19
528.04	110.01
528.21	142.77
528.38	133.41
528.55	131.07
528.72	166.18
528.89	44.47
529.07	124.05
529.24	84.26
529.41	100.64
529.58	37.45
529.75	67.88
529.92	98.30
530.09	63.19
530.26	98.30
530.43	100.64
530.60	77.24
530.77	25.75
530.94	112.35
531.11	42.13
531.28	53.83
531.46	84.26
531.63	124.05
531.80	93.62
531.97	86.60
532.14	21.06
532.31	46.81
532.48	74.90
532.65	74.90
532.82	112.35
532.99	67.88
533.16	79.58
533.33	133.41
533.50	124.05
533.67	72.56
533.84	145.11
534.01	44.47
534.18	56.17
534.35	67.88
534.52	74.90
534.69	42.13
534.86	117.03
535.03	95.96
535.20	91.28
535.37	131.07
535.54	86.60
535.71	142.77
535.88	91.28
536.05	88.94
536.22	100.64
536.38	145.11
536.55	105.32
536.72	39.79
536.89	51.49
537.06	25.75
537.23	128.73
537.40	177.88
537.57	35.11
537.74	63.19
537.91	131.07
538.08	112.35
538.25	74.90
538.42	77.24
538.59	93.62
538.75	98.30
538.92	70.22
539.09	100.64
539.26	110.01
539.43	95.96
539.60	110.01
539.77	93.62
539.94	91.28
540.11	110.01
540.28	112.35
540.44	53.83
540.61	30.43
540.78	86.60
540.95	14.04
541.12	91.28
541.29	32.77
541.46	58.51
541.62	86.60
541.79	77.24
541.96	124.05
542.13	126.39
542.30	124.05
542.47	100.64
542.63	32.77
542.80	60.85
542.97	119.37
543.14	46.81
543.31	86.60
543.48	49.15
543.64	51.49
543.81	91.28
543.98	70.22
544.15	30.43
544.32	28.09
544.48	86.60
544.65	114.69
544.82	70.22
544.99	30.43
545.16	121.71
545.32	114.69
545.49	70.22
545.66	84.26
545.83	117.03
546.00	46.81
546.16	105.32
546.33	65.54
546.50	16.38
546.67	65.54
546.83	105.32
547.00	16.38
547.17	91.28
547.34	4.68
547.50	93.62
547.67	77.24
547.84	65.54
548.00	21.06
548.17	91.28
548.34	53.83
548.51	149.79
548.67	0.00
548.84	105.32
549.01	95.96
549.18	79.58
549.34	102.98
549.51	86.60
549.68	65.54
549.84	112.35
550.01	72.56
550.18	79.58
550.34	28.09
550.51	93.62
550.68	182.56
550.84	124.05
551.01	70.22
551.18	110.01
551.34	44.47
551.51	72.56
551.68	86.60
551.84	154.48
552.01	16.38
552.18	14.04
552.34	107.66
552.51	72.56
552.68	67.88
552.84	32.77
553.01	72.56
553.18	72.56
553.34	88.94
553.51	95.96
553.67	84.26
553.84	70.22
554.01	138.09
554.17	88.94
554.34	107.66
554.51	74.90
554.67	88.94
554.84	67.88
555.00	84.26
555.17	28.09
555.33	91.28
555.50	35.11
555.67	142.77
555.83	70.22
556.00	152.13
556.16	95.96
556.33	95.96
556.50	100.64
556.66	88.94
556.83	86.60
556.99	42.13
557.16	88.94
557.32	124.05
557.49	110.01
557.65	117.03
557.82	98.30
557.98	93.62
558.15	35.11
558.32	105.32
558.48	51.49
558.65	98.30
558.81	79.58
558.98	39.79
559.14	142.77
559.31	79.58
559.47	56.17
559.64	163.84
559.80	93.62
559.97	67.88
560.13	56.17
560.30	159.16
560.46	95.96
560.63	121.71
560.79	112.35
560.96	88.94
561.12	67.88
561.29	74.90
561.45	49.15
561.61	110.01
561.78	84.26
561.94	86.60
562.11	81.92
562.27	91.28
562.44	56.17
562.60	51.49
562.77	56.17
562.93	114.69
563.10	147.45
563.26	84.26
563.42	159.16
563.59	95.96
563.75	98.30
563.92	131.07
564.08	161.50
564.24	79.58
564.41	77.24
564.57	126.39
564.74	102.98
564.90	72.56
565.07	74.90
565.23	0.00
565.39	65.54
565.56	74.90
565.72	39.79
565.88	35.11
566.05	42.13
566.21	98.30
566.38	37.45
566.54	105.32
566.70	72.56
566.87	105.32
567.03	142.77
567.19	91.28
567.36	42.13
567.52	95.96
567.68	154.48
567.85	72.56
568.01	58.51
568.17	65.54
568.34	53.83
568.50	117.03
568.66	84.26
568.83	72.56
568.99	93.62
569.15	100.64
569.32	67.88
569.48	0.00
569.64	114.69
569.81	98.30
569.97	154.48
570.13	67.88
570.30	100.64
570.46	110.01
570.62	28.09
570.78	53.83
570.95	107.66
571.11	79.58
571.27	2.34
571.43	79.58
571.60	32.77
571.76	0.00
571.92	46.81
572.09	138.09
572.25	86.60
572.41	14.04
572.57	72.56
572.74	105.32
572.90	77.24
573.06	91.28
573.22	28.09
573.38	93.62
573.55	124.05
573.71	107.66
573.87	32.77
574.03	100.64
574.20	79.58
574.36	114.69
574.52	131.07
574.68	49.15
574.84	2.34
575.01	56.17
575.17	58.51
575.33	145.11
575.49	98.30
575.65	72.56
575.82	86.60
575.98	74.90
576.14	25.75
576.30	53.83
576.46	58.51
576.62	102.98
576.79	93.62
576.95	84.26
577.11	35.11
577.27	98.30
577.43	100.64
577.59	77.24
577.75	138.09
577.92	58.51
578.08	102.98
578.24	84.26
578.40	117.03
578.56	79.58
578.72	114.69
578.88	0.00
579.04	16.38
579.21	46.81
579.37	53.83
579.53	44.47
579.69	100.64
579.85	74.90
580.01	2.34
580.17	95.96
580.33	79.58
580.49	67.88
580.65	84.26
580.82	86.60
580.98	88.94
581.14	56.17
581.30	112.35
581.46	65.54
581.62	39.79
581.78	117.03
581.94	30.43
582.10	86.60
582.26	58.51
582.42	86.60
582.58	135.75
582.74	53.83
582.90	32.77
583.06	124.05
583.22	74.90
583.38	0.00
583.54	131.07
583.70	74.90
583.86	128.73
584.02	77.24
584.18	28.09
584.34	0.00
584.50	56.17
584.66	63.19
584.82	65.54
584.98	37.45
585.14	88.94
585.30	46.81
585.46	67.88
585.62	121.71
585.78	81.92
585.94	56.17
586.10	102.98
586.26	145.11
586.42	119.37
586.58	100.64
586.74	51.49
586.90	105.32
587.06	142.77
587.22	46.81
587.38	84.26
587.54	49.15
587.70	42.13
587.86	98.30
588.02	98.30
588.18	67.88
588.34	86.60
588.49	2.34
588.65	63.19
588.81	88.94
588.97	88.94
589.13	2.34
589.29	37.45
589.45	14.04
589.61	77.24
589.77	126.39
589.93	77.24
590.08	88.94
590.24	23.41
590.40	98.30
590.56	42.13
590.72	159.16
590.88	98.30
591.04	16.38
591.20	37.45
591.35	110.01
591.51	110.01
591.67	126.39
591.83	56.17
591.99	42.13
592.15	56.17
592.31	28.09
592.46	70.22
592.62	44.47
592.78	117.03
592.94	70.22
593.10	107.66
593.26	44.47
593.41	84.26
593.57	107.66
593.73	21.06
593.89	7.02
594.05	63.19
594.20	133.41
594.36	91.28
594.52	44.47
594.68	46.81
594.84	56.17
594.99	93.62
595.15	79.58
595.31	60.85
595.47	44.47
595.62	0.00
595.78	58.51
595.94	110.01
596.10	110.01
596.25	84.26
596.41	72.56
596.57	77.24
596.73	49.15
596.88	11.70
597.04	49.15
597.20	126.39
597.36	30.43
597.51	86.60
597.67	28.09
597.83	100.64
597.99	114.69
598.14	102.98
598.30	107.66
598.46	81.92
598.61	126.39
598.77	86.60
598.93	46.81
599.09	88.94
599.24	70.22
599.40	49.15
599.56	81.92
599.71	135.75
599.87	67.88
600.03	91.28
600.18	7.02
600.34	39.79
600.50	79.58
600.65	23.41
600.81	0.00
600.97	79.58
601.12	65.54
601.28	37.45
601.44	121.71
601.59	124.05
601.75	42.13
601.91	30.43
602.06	42.13
602.22	114.69
602.37	9.36
602.53	0.00
602.69	35.11
602.84	93.62
603.00	91.28
603.16	149.79
603.31	28.09
603.47	44.47
603.62	133.41
603.78	105.32
603.94	23.41
604.09	60.85
604.25	46.81
604.40	112.35
604.56	58.51
604.71	18.72
604.87	58.51
605.03	145.11
605.18	44.47
605.34	25.75
605.49	0.00
605.65	46.81
605.80	126.39
605.96	114.69
606.12	7.02
606.27	32.77
606.43	105.32
606.58	110.01
606.74	37.45
606.89	79.58
607.05	77.24
607.20	51.49
607.36	74.90
607.51	63.19
607.67	95.96
607.82	79.58
607.98	37.45
608.13	112.35
608.29	53.83
608.44	81.92
608.60	32.77
608.75	70.22
608.91	65.54
609.06	102.98
609.22	32.77
609.37	63.19
609.53	70.22
609.68	70.22
609.84	42.13
609.99	30.43
610.15	145.11
610.30	70.22
610.46	35.11
610.61	67.88
610.76	46.81
610.92	114.69
611.07	77.24
611.23	117.03
611.38	84.26
611.54	86.60
611.69	81.92
611.84	42.13
612.00	102.98
612.15	70.22
612.31	110.01
612.46	46.81
612.62	67.88
612.77	60.85
612.92	65.54
613.08	37.45
613.23	46.81
613.39	91.28
613.54	18.72
613.69	117.03
613.85	42.13
614.00	93.62
614.15	128.73
614.31	58.51
614.46	25.75
614.62	2.34
614.77	39.79
614.92	93.62
615.08	67.88
615.23	117.03
615.38	35.11
615.54	79.58
615.69	84.26
615.84	51.49
616.00	0.00
616.15	156.82
616.30	117.03
616.46	11.70
616.61	65.54
616.76	35.11
616.92	42.13
617.07	0.00
617.22	70.22
617.37	58.51
617.53	77.24
617.68	79.58
617.83	49.15
617.99	49.15
618.14	39.79
618.29	100.64
618.45	4.68
618.60	44.47
618.75	88.94
618.90	56.17
619.06	63.19
619.21	60.85
619.36	28.09
619.51	0.00
619.67	84.26
619.82	51.49
619.97	79.58
620.12	63.19
620.28	18.72
620.43	42.13
620.58	93.62
620.73	28.09
620.89	70.22
621.04	0.00
621.19	72.56
621.34	32.77
621.49	39.79
621.65	79.58
621.80	98.30
621.95	35.11
622.10	70.22
622.25	42.13
622.41	53.83
622.56	145.11
622.71	72.56
622.86	0.00
623.01	140.43
623.16	86.60
623.32	105.32
623.47	86.60
623.62	117.03
623.77	65.54
623.92	30.43
624.07	98.30
624.23	86.60
624.38	49.15
624.53	91.28
624.68	58.51
624.83	105.32
624.98	63.19
625.13	77.24
625.29	53.83
625.44	100.64
625.59	81.92
625.74	51.49
625.89	32.77
626.04	67.88
626.19	11.70
626.34	91.28
626.49	46.81
626.65	63.19
626.80	100.64
626.95	11.70
627.10	147.45
627.25	114.69
627.40	49.15
627.55	42.13
627.70	63.19
627.85	46.81
628.00	63.19
628.15	37.45
628.30	70.22
628.45	93.62
628.60	11.70
628.76	81.92
628.91	77.24
629.06	30.43
629.21	28.09
629.36	72.56
629.51	131.07
629.66	53.83
629.81	39.79
629.96	32.77
630.11	67.88
630.26	91.28
630.41	60.85
630.56	44.47
630.71	56.17
630.86	102.98
631.01	63.19
631.16	18.72
631.31	93.62
631.46	60.85
631.61	18.72
631.76	53.83
631.91	56.17
632.06	56.17
632.21	30.43
632.36	18.72
632.51	60.85
632.66	32.77
632.81	46.81
632.96	0.00
633.10	14.04
633.25	93.62
633.40	39.79
633.55	86.60
633.70	25.75
633.85	0.00
634.00	23.41
634.15	63.19
634.30	0.00
634.45	56.17
634.60	44.47
634.75	49.15
634.90	25.75
635.05	84.26
635.19	93.62
635.34	11.70
635.49	58.51
635.64	14.04
635.79	110.01
635.94	88.94
636.09	70.22
636.24	58.51
636.39	93.62
636.53	42.13
636.68	44.47
636.83	46.81
636.98	32.77
637.13	84.26
637.28	86.60
637.43	25.75
637.57	46.81
637.72	110.01
637.87	72.56
638.02	74.90
638.17	53.83
638.32	74.90
638.46	95.96
638.61	102.98
638.76	23.41
638.91	63.19
639.06	46.81
639.20	84.26
639.35	124.05
639.50	84.26
639.65	42.13
639.80	0.00
639.94	105.32
640.09	44.47
640.24	81.92
640.39	79.58
640.54	74.90
640.68	72.56
640.83	11.70
640.98	70.22
641.13	44.47
641.27	84.26
641.42	46.81
641.57	9.36
641.72	117.03
641.86	9.36
642.01	95.96
642.16	65.54
642.31	25.75
642.45	93.62
642.60	46.81
642.75	72.56
642.90	46.81
643.04	93.62
643.19	32.77
643.34	9.36
643.48	88.94
643.63	93.62
643.78	44.47
643.93	77.24
644.07	60.85
644.22	63.19
644.37	44.47
644.51	51.49
644.66	23.41
644.81	46.81
644.95	84.26
645.10	58.51
645.25	98.30
645.39	63.19
645.54	58.51
645.69	18.72
645.83	72.56
645.98	35.11
646.13	49.15
646.27	7.02
646.42	2.34
646.57	126.39
646.71	25.75
646.86	74.90
647.00	60.85
647.15	53.83
647.30	23.41
647.44	0.00
647.59	65.54
647.74	0.00
647.88	7.02
648.03	49.15
648.17	0.00
648.32	9.36
648.47	72.56
648.61	23.41
648.76	60.85
648.90	30.43
649.05	16.38
649.20	21.06
649.34	0.00
649.49	0.00
649.63	128.73
649.78	42.13
649.92	65.54
650.07	42.13
650.21	37.45
650.36	46.81
650.51	16.38
650.65	30.43
650.80	72.56
650.94	60.85
651.09	65.54
651.23	56.17
651.38	0.00
651.52	42.13
651.67	72.56
651.81	67.88
651.96	53.83
652.10	46.81
652.25	35.11
652.39	58.51
652.54	28.09
652.68	88.94
652.83	72.56
652.97	91.28
653.12	51.49
653.26	46.81
653.41	117.03
653.55	88.94
653.70	0.00
653.84	67.88
653.99	32.77
654.13	81.92
654.27	70.22
654.42	79.58
654.56	60.85
654.71	70.22
654.85	0.00
655.00	9.36
655.14	79.58
655.29	135.75
655.43	23.41
655.57	74.90
655.72	105.32
655.86	11.70
656.01	65.54
656.15	16.38
656.30	37.45
656.44	53.83
656.58	77.24
656.73	63.19
656.87	86.60
657.01	9.36
657.16	11.70
657.30	65.54
657.45	56.17
657.59	53.83
657.73	81.92
657.88	32.77
658.02	11.70
658.16	30.43
658.31	105.32
658.45	121.71
658.60	58.51
658.74	21.06
658.88	32.77
659.03	2.34
659.17	65.54
659.31	25.75
659.46	18.72
659.60	0.00
659.74	81.92
659.89	42.13
660.03	42.13
660.17	63.19
660.32	56.17
660.46	70.22
660.60	70.22
660.74	58.51
660.89	16.38
661.03	88.94
661.17	112.35
661.32	2.34
661.46	67.88
661.60	0.00
661.74	11.70
661.89	63.19
662.03	56.17
662.17	105.32
662.31	7.02
662.46	37.45
662.60	32.77
662.74	18.72
662.88	56.17
663.03	18.72
663.17	42.13
663.31	35.11
663.45	0.00
663.60	28.09
663.74	14.04
663.88	18.72
664.02	44.47
664.17	18.72
664.31	58.51
664.45	21.06
664.59	28.09
664.73	65.54
664.88	23.41
665.02	51.49
665.16	77.24
665.30	9.36
665.44	44.47
665.59	63.19
665.73	60.85
665.87	0.00
666.01	39.79
666.15	35.11
666.29	49.15
666.44	67.88
666.58	56.17
666.72	0.00
666.86	100.64
667.00	84.26
667.14	56.17
667.28	74.90
667.43	18.72
667.57	2.34
667.71	16.38
667.85	86.60
667.99	11.70
668.13	86.60
668.27	32.77
668.41	49.15
668.56	44.47
668.70	93.62
668.84	0.00
668.98	56.17
669.12	0.00
669.26	28.09
669.40	102.98
669.54	9.36
669.68	79.58
669.82	44.47
669.96	70.22
670.10	63.19
670.25	51.49
670.39	51.49
670.53	65.54
670.67	77.24
670.81	35.11
670.95	23.41
671.09	65.54
671.23	23.41
671.37	0.00
671.51	58.51
671.65	44.47
671.79	46.81
671.93	67.88
672.07	91.28
672.21	14.04
672.35	88.94
672.49	77.24
672.63	30.43
672.77	37.45
672.91	145.11
673.05	86.60
673.19	37.45
673.33	21.06
673.47	18.72
673.61	93.62
673.75	28.09
673.89	18.72
674.03	28.09
674.17	39.79
674.31	25.75
674.45	117.03
674.59	117.03
674.73	60.85
674.87	70.22
675.01	65.54
675.15	37.45
675.29	0.00
675.43	25.75
675.56	72.56
675.70	110.01
675.84	65.54
675.98	60.85
676.12	86.60
676.26	86.60
676.40	16.38
676.54	0.00
676.68	46.81
676.82	67.88
676.96	67.88
677.10	49.15
677.23	32.77
677.37	51.49
677.51	18.72
677.65	21.06
677.79	16.38
677.93	32.77
678.07	58.51
678.21	53.83
678.34	88.94
678.48	44.47
678.62	67.88
678.76	11.70
678.90	86.60
679.04	84.26
679.18	28.09
679.31	0.00
679.45	0.00
679.59	28.09
679.73	0.00
679.87	100.64
680.00	128.73
680.14	72.56
680.28	79.58
680.42	28.09
680.56	65.54
680.70	84.26
680.83	88.94
680.97	0.00
681.11	56.17
681.25	23.41
681.39	53.83
681.52	30.43
681.66	91.28
681.80	11.70
681.94	7.02
682.07	70.22
682.21	0.00
682.35	60.85
682.49	77.24
682.62	25.75
682.76	65.54
682.90	4.68
683.04	9.36
683.17	56.17
683.31	53.83
683.45	42.13
683.59	67.88
683.72	30.43
683.86	18.72
684.00	93.62
684.13	0.00
684.27	65.54
684.41	0.00
684.55	30.43
684.68	53.83
684.82	28.09
684.96	72.56
685.09	67.88
685.23	39.79
685.37	70.22
685.50	18.72
685.64	32.77
685.78	39.79
685.91	37.45
686.05	46.81
686.19	74.90
686.32	98.30
686.46	74.90
686.60	65.54
686.73	53.83
686.87	91.28
687.01	0.00
687.14	18.72
687.28	23.41
687.42	53.83
687.55	49.15
687.69	79.58
687.82	7.02
687.96	0.00
688.10	14.04
688.23	84.26
688.37	65.54
688.50	0.00
688.64	0.00
688.78	86.60
688.91	67.88
689.05	42.13
689.18	72.56
689.32	23.41
689.46	4.68
689.59	35.11
689.73	14.04
689.86	39.79
690.00	81.92
690.13	60.85
690.27	58.51
690.41	0.00
690.54	112.35
690.68	46.81
690.81	9.36
690.95	0.00
691.08	2.34
691.22	21.06
691.35	0.00
691.49	23.41
691.62	51.49
691.76	46.81
691.89	42.13
692.03	32.77
692.16	9.36
692.30	28.09
692.43	37.45
692.57	0.00
692.70	23.41
692.84	39.79
692.97	0.00
693.11	46.81
693.24	25.75
693.38	30.43
693.51	53.83
693.65	121.71
693.78	86.60
693.92	30.43
694.05	102.98
694.19	0.00
694.32	0.00
694.45	70.22
694.59	42.13
694.72	42.13
694.86	84.26
694.99	42.13
695.13	37.45
695.26	49.15
695.39	4.68
695.53	65.54
695.66	63.19
695.80	37.45
695.93	0.00
696.07	65.54
696.20	23.41
696.33	18.72
696.47	46.81
696.60	28.09
696.73	14.04
696.87	21.06
697.00	72.56
697.14	28.09
697.27	53.83
697.40	9.36
697.54	39.79
697.67	72.56
697.80	58.51
697.94	58.51
698.07	67.88
698.21	35.11
698.34	86.60
698.47	58.51
698.61	16.38
698.74	79.58
698.87	53.83
699.01	18.72
699.14	16.38
699.27	100.64
699.40	58.51
699.54	53.83
699.67	124.05
699.80	53.83
699.94	11.70
700.07	32.77
700.20	35.11
700.34	21.06
700.47	16.38
700.60	0.00
700.73	46.81
700.87	4.68
701.00	46.81
701.13	51.49
701.26	30.43
701.40	74.90
701.53	30.43
701.66	42.13
701.79	4.68
701.93	30.43
702.06	11.70
702.19	44.47
702.32	56.17
702.46	0.00
702.59	44.47
702.72	39.79
702.85	44.47
702.99	53.83
703.12	7.02
703.25	39.79
703.38	0.00
703.51	42.13
703.65	0.00
703.78	86.60
703.91	30.43
704.04	16.38
704.17	21.06
704.31	18.72
704.44	51.49
704.57	11.70
704.70	30.43
704.83	0.00
704.96	74.90
705.10	112.35
705.23	56.17
>>>>>End Processed Spectral Data<<<<<
