SpectraSuite Data File
++++++++++++++++++++++++++++++++++++
Date: Fri Oct 04 12:13:38 GMT-05:00 2013
User: price-jones
Dark Spectrum Present: No
Reference Spectrum Present: No
Number of Sampled Component Spectra: 1
Spectrometers: USB2+H05261
Integration Time (usec): 10000 (USB2+H05261)
Spectra Averaged: 1 (USB2+H05261)
Boxcar Smoothing: 0 (USB2+H05261)
Correct for Electrical Dark: No (USB2+H05261)
Strobe/Lamp Enabled: No (USB2+H05261)
Correct for Detector Non-linearity: No (USB2+H05261)
Correct for Stray Light: No (USB2+H05261)
Number of Pixels in Processed Spectrum: 2048
>>>>>Begin Processed Spectral Data<<<<<
365.73	0.00
365.92	0.00
366.12	0.00
366.32	0.00
366.52	0.00
366.72	0.00
366.91	0.00
367.11	0.00
367.31	0.00
367.51	0.00
367.70	0.00
367.90	0.00
368.10	0.00
368.30	0.00
368.49	0.00
368.69	0.00
368.89	0.00
369.09	0.00
369.28	0.00
369.48	0.00
369.68	0.00
369.87	0.00
370.07	0.00
370.27	0.00
370.47	0.00
370.66	0.00
370.86	0.00
371.06	9.36
371.25	0.00
371.45	0.00
371.65	0.00
371.84	0.00
372.04	0.00
372.24	0.00
372.44	32.77
372.63	0.00
372.83	60.85
373.03	4.68
373.22	9.36
373.42	23.41
373.62	18.72
373.81	9.36
374.01	53.83
374.21	23.41
374.40	107.66
374.60	7.02
374.79	77.24
374.99	149.79
375.19	93.62
375.38	23.41
375.58	0.00
375.78	0.00
375.97	84.26
376.17	23.41
376.37	60.85
376.56	28.09
376.76	18.72
376.95	72.56
377.15	119.37
377.35	25.75
377.54	0.00
377.74	32.77
377.93	49.15
378.13	2.34
378.33	0.00
378.52	28.09
378.72	18.72
378.91	0.00
379.11	11.70
379.31	114.69
379.50	23.41
379.70	11.70
379.89	11.70
380.09	9.36
380.28	37.45
380.48	28.09
380.68	39.79
380.87	56.17
381.07	42.13
381.26	14.04
381.46	37.45
381.65	32.77
381.85	16.38
382.04	0.00
382.24	0.00
382.43	2.34
382.63	0.00
382.83	30.43
383.02	67.88
383.22	16.38
383.41	51.49
383.61	44.47
383.80	0.00
384.00	25.75
384.19	0.00
384.39	0.00
384.58	60.85
384.78	0.00
384.97	0.00
385.17	0.00
385.36	65.54
385.56	74.90
385.75	30.43
385.95	60.85
386.14	44.47
386.34	67.88
386.53	39.79
386.72	0.00
386.92	0.00
387.11	53.83
387.31	86.60
387.50	30.43
387.70	56.17
387.89	0.00
388.09	11.70
388.28	21.06
388.48	0.00
388.67	0.00
388.86	63.19
389.06	79.58
389.25	28.09
389.45	42.13
389.64	65.54
389.84	21.06
390.03	102.98
390.22	77.24
390.42	37.45
390.61	53.83
390.81	18.72
391.00	0.00
391.19	53.83
391.39	49.15
391.58	72.56
391.78	39.79
391.97	0.00
392.16	0.00
392.36	0.00
392.55	0.00
392.75	0.00
392.94	0.00
393.13	86.60
393.33	65.54
393.52	0.00
393.71	53.83
393.91	0.00
394.10	46.81
394.29	42.13
394.49	0.00
394.68	16.38
394.88	28.09
395.07	2.34
395.26	67.88
395.46	53.83
395.65	0.00
395.84	0.00
396.04	0.00
396.23	56.17
396.42	37.45
396.62	21.06
396.81	65.54
397.00	0.00
397.19	0.00
397.39	0.00
397.58	39.79
397.77	0.00
397.97	11.70
398.16	46.81
398.35	11.70
398.55	0.00
398.74	28.09
398.93	14.04
399.12	0.00
399.32	0.00
399.51	0.00
399.70	0.00
399.90	0.00
400.09	7.02
400.28	4.68
400.47	42.13
400.67	18.72
400.86	84.26
401.05	25.75
401.24	46.81
401.44	25.75
401.63	2.34
401.82	53.83
402.01	81.92
402.21	35.11
402.40	28.09
402.59	42.13
402.78	102.98
402.97	46.81
403.17	0.00
403.36	0.00
403.55	11.70
403.74	67.88
403.93	0.00
404.13	91.28
404.32	0.00
404.51	74.90
404.70	60.85
404.89	110.01
405.09	32.77
405.28	58.51
405.47	86.60
405.66	44.47
405.85	0.00
406.05	51.49
406.24	0.00
406.43	28.09
406.62	46.81
406.81	9.36
407.00	0.00
407.20	65.54
407.39	51.49
407.58	25.75
407.77	39.79
407.96	28.09
408.15	51.49
408.34	32.77
408.54	9.36
408.73	44.47
408.92	0.00
409.11	0.00
409.30	23.41
409.49	30.43
409.68	42.13
409.87	35.11
410.07	32.77
410.26	23.41
410.45	65.54
410.64	0.00
410.83	0.00
411.02	23.41
411.21	51.49
411.40	95.96
411.59	23.41
411.78	67.88
411.98	0.00
412.17	107.66
412.36	88.94
412.55	37.45
412.74	131.07
412.93	42.13
413.12	9.36
413.31	37.45
413.50	42.13
413.69	4.68
413.88	16.38
414.07	23.41
414.26	16.38
414.45	0.00
414.64	9.36
414.83	53.83
415.02	102.98
415.22	91.28
415.41	23.41
415.60	53.83
415.79	23.41
415.98	28.09
416.17	93.62
416.36	65.54
416.55	11.70
416.74	44.47
416.93	53.83
417.12	14.04
417.31	51.49
417.50	74.90
417.69	0.00
417.88	121.71
418.07	0.00
418.26	25.75
418.45	14.04
418.64	11.70
418.83	58.51
419.02	86.60
419.21	70.22
419.39	53.83
419.58	0.00
419.77	32.77
419.96	42.13
420.15	0.00
420.34	35.11
420.53	77.24
420.72	35.11
420.91	56.17
421.10	53.83
421.29	0.00
421.48	124.05
421.67	51.49
421.86	0.00
422.05	23.41
422.24	100.64
422.43	79.58
422.61	46.81
422.80	0.00
422.99	95.96
423.18	0.00
423.37	11.70
423.56	100.64
423.75	60.85
423.94	49.15
424.13	28.09
424.32	28.09
424.50	58.51
424.69	0.00
424.88	93.62
425.07	74.90
425.26	18.72
425.45	0.00
425.64	56.17
425.83	0.00
426.01	44.47
426.20	39.79
426.39	72.56
426.58	0.00
426.77	58.51
426.96	44.47
427.15	42.13
427.33	107.66
427.52	53.83
427.71	58.51
427.90	14.04
428.09	46.81
428.28	117.03
428.46	58.51
428.65	0.00
428.84	23.41
429.03	9.36
429.22	0.00
429.40	95.96
429.59	0.00
429.78	37.45
429.97	39.79
430.16	65.54
430.34	49.15
430.53	88.94
430.72	30.43
430.91	2.34
431.10	65.54
431.28	53.83
431.47	51.49
431.66	53.83
431.85	112.35
432.03	30.43
432.22	0.00
432.41	98.30
432.60	42.13
432.79	51.49
432.97	23.41
433.16	58.51
433.35	98.30
433.54	65.54
433.72	91.28
433.91	65.54
434.10	18.72
434.28	21.06
434.47	72.56
434.66	107.66
434.85	16.38
435.03	91.28
435.22	70.22
435.41	53.83
435.59	23.41
435.78	53.83
435.97	56.17
436.16	58.51
436.34	4.68
436.53	35.11
436.72	28.09
436.90	53.83
437.09	124.05
437.28	67.88
437.46	72.56
437.65	72.56
437.84	98.30
438.02	32.77
438.21	2.34
438.40	79.58
438.58	112.35
438.77	72.56
438.96	95.96
439.14	98.30
439.33	30.43
439.52	102.98
439.70	65.54
439.89	79.58
440.08	74.90
440.26	65.54
440.45	107.66
440.63	28.09
440.82	60.85
441.01	25.75
441.19	93.62
441.38	25.75
441.57	2.34
441.75	25.75
441.94	0.00
442.12	46.81
442.31	0.00
442.50	60.85
442.68	65.54
442.87	14.04
443.05	14.04
443.24	35.11
443.43	77.24
443.61	63.19
443.80	46.81
443.98	25.75
444.17	9.36
444.35	58.51
444.54	53.83
444.73	70.22
444.91	95.96
445.10	21.06
445.28	16.38
445.47	100.64
445.65	16.38
445.84	0.00
446.02	77.24
446.21	93.62
446.39	81.92
446.58	58.51
446.77	152.13
446.95	112.35
447.14	53.83
447.32	65.54
447.51	16.38
447.69	58.51
447.88	0.00
448.06	102.98
448.25	53.83
448.43	100.64
448.62	42.13
448.80	81.92
448.99	53.83
449.17	0.00
449.36	0.00
449.54	135.75
449.73	32.77
449.91	119.37
450.10	91.28
450.28	81.92
450.46	100.64
450.65	0.00
450.83	81.92
451.02	124.05
451.20	77.24
451.39	79.58
451.57	145.11
451.76	95.96
451.94	70.22
452.13	79.58
452.31	9.36
452.49	28.09
452.68	149.79
452.86	86.60
453.05	51.49
453.23	46.81
453.42	60.85
453.60	93.62
453.78	131.07
453.97	39.79
454.15	39.79
454.34	0.00
454.52	39.79
454.70	49.15
454.89	28.09
455.07	63.19
455.26	98.30
455.44	21.06
455.62	25.75
455.81	102.98
455.99	58.51
456.17	117.03
456.36	119.37
456.54	98.30
456.73	30.43
456.91	86.60
457.09	126.39
457.28	53.83
457.46	105.32
457.64	65.54
457.83	30.43
458.01	53.83
458.19	65.54
458.38	79.58
458.56	0.00
458.74	23.41
458.93	25.75
459.11	107.66
459.29	51.49
459.48	60.85
459.66	35.11
459.84	32.77
460.03	70.22
460.21	112.35
460.39	67.88
460.57	4.68
460.76	56.17
460.94	88.94
461.12	93.62
461.31	53.83
461.49	161.50
461.67	44.47
461.85	72.56
462.04	84.26
462.22	133.41
462.40	93.62
462.59	95.96
462.77	98.30
462.95	39.79
463.13	0.00
463.32	46.81
463.50	105.32
463.68	9.36
463.86	91.28
464.05	72.56
464.23	102.98
464.41	60.85
464.59	51.49
464.78	0.00
464.96	131.07
465.14	0.00
465.32	58.51
465.50	32.77
465.69	58.51
465.87	56.17
466.05	51.49
466.23	74.90
466.41	65.54
466.60	21.06
466.78	86.60
466.96	58.51
467.14	88.94
467.32	2.34
467.51	67.88
467.69	84.26
467.87	107.66
468.05	0.00
468.23	0.00
468.41	30.43
468.60	140.43
468.78	60.85
468.96	79.58
469.14	0.00
469.32	0.00
469.50	77.24
469.69	102.98
469.87	44.47
470.05	77.24
470.23	84.26
470.41	67.88
470.59	70.22
470.77	44.47
470.95	21.06
471.14	16.38
471.32	95.96
471.50	107.66
471.68	25.75
471.86	0.00
472.04	86.60
472.22	70.22
472.40	70.22
472.58	21.06
472.77	44.47
472.95	42.13
473.13	100.64
473.31	93.62
473.49	91.28
473.67	46.81
473.85	72.56
474.03	74.90
474.21	67.88
474.39	79.58
474.57	145.11
474.75	93.62
474.93	81.92
475.12	65.54
475.30	72.56
475.48	93.62
475.66	98.30
475.84	46.81
476.02	100.64
476.20	86.60
476.38	58.51
476.56	131.07
476.74	119.37
476.92	72.56
477.10	44.47
477.28	9.36
477.46	0.00
477.64	0.00
477.82	81.92
478.00	56.17
478.18	91.28
478.36	16.38
478.54	70.22
478.72	44.47
478.90	93.62
479.08	60.85
479.26	84.26
479.44	51.49
479.62	53.83
479.80	86.60
479.98	51.49
480.16	114.69
480.34	74.90
480.52	42.13
480.70	2.34
480.88	119.37
481.06	58.51
481.24	42.13
481.41	14.04
481.59	65.54
481.77	93.62
481.95	91.28
482.13	49.15
482.31	58.51
482.49	100.64
482.67	117.03
482.85	91.28
483.03	23.41
483.21	0.00
483.39	77.24
483.57	88.94
483.74	189.58
483.92	58.51
484.10	70.22
484.28	74.90
484.46	84.26
484.64	98.30
484.82	63.19
485.00	16.38
485.18	39.79
485.35	117.03
485.53	77.24
485.71	63.19
485.89	74.90
486.07	51.49
486.25	88.94
486.43	121.71
486.61	23.41
486.78	37.45
486.96	56.17
487.14	39.79
487.32	79.58
487.50	0.00
487.68	16.38
487.85	11.70
488.03	28.09
488.21	79.58
488.39	58.51
488.57	72.56
488.75	56.17
488.92	42.13
489.10	102.98
489.28	156.82
489.46	77.24
489.64	0.00
489.81	119.37
489.99	81.92
490.17	72.56
490.35	114.69
490.53	65.54
490.70	81.92
490.88	70.22
491.06	107.66
491.24	51.49
491.41	65.54
491.59	91.28
491.77	98.30
491.95	23.41
492.13	32.77
492.30	107.66
492.48	88.94
492.66	81.92
492.84	131.07
493.01	9.36
493.19	58.51
493.37	72.56
493.54	79.58
493.72	133.41
493.90	119.37
494.08	72.56
494.25	72.56
494.43	51.49
494.61	142.77
494.79	53.83
494.96	112.35
495.14	65.54
495.32	102.98
495.49	63.19
495.67	88.94
495.85	70.22
496.02	154.48
496.20	93.62
496.38	114.69
496.55	58.51
496.73	91.28
496.91	102.98
497.09	119.37
497.26	152.13
497.44	173.20
497.62	74.90
497.79	98.30
497.97	72.56
498.14	65.54
498.32	98.30
498.50	72.56
498.67	74.90
498.85	133.41
499.03	56.17
499.20	77.24
499.38	49.15
499.56	18.72
499.73	124.05
499.91	0.00
500.08	159.16
500.26	77.24
500.44	46.81
500.61	77.24
500.79	88.94
500.97	124.05
501.14	74.90
501.32	114.69
501.49	56.17
501.67	39.79
501.84	0.00
502.02	126.39
502.20	63.19
502.37	0.00
502.55	77.24
502.72	0.00
502.90	84.26
503.07	23.41
503.25	91.28
503.43	56.17
503.60	70.22
503.78	107.66
503.95	60.85
504.13	88.94
504.30	84.26
504.48	88.94
504.65	105.32
504.83	112.35
505.01	0.00
505.18	98.30
505.36	28.09
505.53	63.19
505.71	74.90
505.88	117.03
506.06	86.60
506.23	105.32
506.41	9.36
506.58	0.00
506.76	102.98
506.93	30.43
507.11	84.26
507.28	100.64
507.46	79.58
507.63	65.54
507.81	100.64
507.98	84.26
508.16	51.49
508.33	72.56
508.50	70.22
508.68	163.84
508.85	56.17
509.03	53.83
509.20	86.60
509.38	102.98
509.55	23.41
509.73	81.92
509.90	28.09
510.08	67.88
510.25	88.94
510.42	72.56
510.60	170.86
510.77	105.32
510.95	119.37
511.12	77.24
511.30	105.32
511.47	110.01
511.64	93.62
511.82	117.03
511.99	149.79
512.17	128.73
512.34	119.37
512.51	102.98
512.69	60.85
512.86	91.28
513.04	102.98
513.21	67.88
513.38	0.00
513.56	72.56
513.73	121.71
513.90	77.24
514.08	56.17
514.25	28.09
514.43	81.92
514.60	35.11
514.77	46.81
514.95	128.73
515.12	86.60
515.29	121.71
515.47	67.88
515.64	91.28
515.81	98.30
515.99	67.88
516.16	107.66
516.33	49.15
516.51	35.11
516.68	102.98
516.85	112.35
517.03	91.28
517.20	156.82
517.37	35.11
517.54	131.07
517.72	79.58
517.89	84.26
518.06	21.06
518.24	42.13
518.41	84.26
518.58	98.30
518.75	121.71
518.93	72.56
519.10	95.96
519.27	86.60
519.45	35.11
519.62	51.49
519.79	105.32
519.96	44.47
520.14	32.77
520.31	42.13
520.48	65.54
520.65	105.32
520.83	58.51
521.00	4.68
521.17	133.41
521.34	44.47
521.52	77.24
521.69	74.90
521.86	126.39
522.03	156.82
522.20	91.28
522.38	58.51
522.55	133.41
522.72	154.48
522.89	95.96
523.07	88.94
523.24	100.64
523.41	25.75
523.58	112.35
523.75	156.82
523.92	63.19
524.10	105.32
524.27	9.36
524.44	105.32
524.61	217.67
524.78	42.13
524.96	95.96
525.13	161.50
525.30	175.54
525.47	91.28
525.64	131.07
525.81	84.26
525.98	95.96
526.16	70.22
526.33	133.41
526.50	56.17
526.67	93.62
526.84	74.90
527.01	42.13
527.18	30.43
527.36	102.98
527.53	72.56
527.70	100.64
527.87	98.30
528.04	182.56
528.21	74.90
528.38	65.54
528.55	126.39
528.72	112.35
528.89	100.64
529.07	70.22
529.24	77.24
529.41	107.66
529.58	70.22
529.75	121.71
529.92	35.11
530.09	117.03
530.26	51.49
530.43	84.26
530.60	102.98
530.77	0.00
530.94	74.90
531.11	39.79
531.28	53.83
531.46	100.64
531.63	72.56
531.80	135.75
531.97	110.01
532.14	70.22
532.31	95.96
532.48	149.79
532.65	46.81
532.82	60.85
532.99	98.30
533.16	140.43
533.33	114.69
533.50	23.41
533.67	32.77
533.84	93.62
534.01	126.39
534.18	102.98
534.35	58.51
534.52	86.60
534.69	74.90
534.86	91.28
535.03	121.71
535.20	86.60
535.37	198.95
535.54	105.32
535.71	30.43
535.88	112.35
536.05	60.85
536.22	14.04
536.38	102.98
536.55	60.85
536.72	18.72
536.89	0.00
537.06	145.11
537.23	79.58
537.40	110.01
537.57	98.30
537.74	70.22
537.91	72.56
538.08	56.17
538.25	133.41
538.42	35.11
538.59	105.32
538.75	119.37
538.92	88.94
539.09	51.49
539.26	70.22
539.43	74.90
539.60	196.60
539.77	121.71
539.94	88.94
540.11	25.75
540.28	56.17
540.44	56.17
540.61	49.15
540.78	32.77
540.95	44.47
541.12	100.64
541.29	65.54
541.46	114.69
541.62	72.56
541.79	98.30
541.96	100.64
542.13	9.36
542.30	119.37
542.47	84.26
542.63	93.62
542.80	77.24
542.97	88.94
543.14	70.22
543.31	56.17
543.48	110.01
543.64	35.11
543.81	100.64
543.98	35.11
544.15	154.48
544.32	110.01
544.48	110.01
544.65	79.58
544.82	28.09
544.99	51.49
545.16	93.62
545.32	93.62
545.49	91.28
545.66	86.60
545.83	124.05
546.00	88.94
546.16	173.20
546.33	70.22
546.50	98.30
546.67	110.01
546.83	39.79
547.00	100.64
547.17	107.66
547.34	107.66
547.50	119.37
547.67	100.64
547.84	100.64
548.00	93.62
548.17	72.56
548.34	138.09
548.51	98.30
548.67	2.34
548.84	131.07
549.01	53.83
549.18	74.90
549.34	114.69
549.51	98.30
549.68	105.32
549.84	51.49
550.01	126.39
550.18	58.51
550.34	98.30
550.51	72.56
550.68	98.30
550.84	70.22
551.01	133.41
551.18	77.24
551.34	140.43
551.51	70.22
551.68	53.83
551.84	95.96
552.01	72.56
552.18	112.35
552.34	30.43
552.51	154.48
552.68	121.71
552.84	112.35
553.01	112.35
553.18	105.32
553.34	112.35
553.51	107.66
553.67	63.19
553.84	70.22
554.01	88.94
554.17	63.19
554.34	91.28
554.51	60.85
554.67	74.90
554.84	60.85
555.00	117.03
555.17	49.15
555.33	72.56
555.50	135.75
555.67	18.72
555.83	79.58
556.00	65.54
556.16	154.48
556.33	58.51
556.50	74.90
556.66	67.88
556.83	4.68
556.99	74.90
557.16	56.17
557.32	91.28
557.49	63.19
557.65	81.92
557.82	56.17
557.98	42.13
558.15	77.24
558.32	58.51
558.48	88.94
558.65	60.85
558.81	114.69
558.98	91.28
559.14	46.81
559.31	70.22
559.47	44.47
559.64	77.24
559.80	88.94
559.97	42.13
560.13	2.34
560.30	44.47
560.46	51.49
560.63	107.66
560.79	74.90
560.96	110.01
561.12	117.03
561.29	39.79
561.45	21.06
561.61	100.64
561.78	98.30
561.94	91.28
562.11	70.22
562.27	79.58
562.44	91.28
562.60	184.90
562.77	56.17
562.93	67.88
563.10	39.79
563.26	131.07
563.42	79.58
563.59	98.30
563.75	60.85
563.92	145.11
564.08	86.60
564.24	121.71
564.41	0.00
564.57	30.43
564.74	88.94
564.90	21.06
565.07	74.90
565.23	95.96
565.39	30.43
565.56	65.54
565.72	91.28
565.88	117.03
566.05	102.98
566.21	63.19
566.38	28.09
566.54	161.50
566.70	35.11
566.87	86.60
567.03	131.07
567.19	93.62
567.36	119.37
567.52	105.32
567.68	60.85
567.85	65.54
568.01	91.28
568.17	107.66
568.34	0.00
568.50	110.01
568.66	98.30
568.83	86.60
568.99	46.81
569.15	100.64
569.32	74.90
569.48	117.03
569.64	77.24
569.81	49.15
569.97	60.85
570.13	95.96
570.30	44.47
570.46	42.13
570.62	56.17
570.78	124.05
570.95	63.19
571.11	147.45
571.27	53.83
571.43	58.51
571.60	35.11
571.76	79.58
571.92	100.64
572.09	0.00
572.25	98.30
572.41	46.81
572.57	138.09
572.74	79.58
572.90	110.01
573.06	72.56
573.22	93.62
573.38	42.13
573.55	105.32
573.71	35.11
573.87	142.77
574.03	98.30
574.20	86.60
574.36	46.81
574.52	142.77
574.68	25.75
574.84	79.58
575.01	100.64
575.17	91.28
575.33	46.81
575.49	105.32
575.65	70.22
575.82	88.94
575.98	25.75
576.14	44.47
576.30	74.90
576.46	119.37
576.62	37.45
576.79	110.01
576.95	58.51
577.11	16.38
577.27	110.01
577.43	39.79
577.59	72.56
577.75	84.26
577.92	131.07
578.08	67.88
578.24	32.77
578.40	21.06
578.56	46.81
578.72	79.58
578.88	7.02
579.04	35.11
579.21	67.88
579.37	16.38
579.53	23.41
579.69	60.85
579.85	60.85
580.01	84.26
580.17	53.83
580.33	112.35
580.49	105.32
580.65	58.51
580.82	84.26
580.98	112.35
581.14	35.11
581.30	93.62
581.46	135.75
581.62	124.05
581.78	65.54
581.94	114.69
582.10	56.17
582.26	51.49
582.42	102.98
582.58	74.90
582.74	135.75
582.90	117.03
583.06	142.77
583.22	60.85
583.38	81.92
583.54	88.94
583.70	128.73
583.86	119.37
584.02	117.03
584.18	74.90
584.34	44.47
584.50	100.64
584.66	79.58
584.82	53.83
584.98	51.49
585.14	81.92
585.30	77.24
585.46	79.58
585.62	18.72
585.78	53.83
585.94	46.81
586.10	84.26
586.26	56.17
586.42	42.13
586.58	37.45
586.74	49.15
586.90	0.00
587.06	107.66
587.22	25.75
587.38	70.22
587.54	58.51
587.70	133.41
587.86	126.39
588.02	74.90
588.18	67.88
588.34	91.28
588.49	37.45
588.65	35.11
588.81	119.37
588.97	95.96
589.13	51.49
589.29	49.15
589.45	81.92
589.61	74.90
589.77	37.45
589.93	135.75
590.08	88.94
590.24	65.54
590.40	79.58
590.56	88.94
590.72	0.00
590.88	30.43
591.04	138.09
591.20	67.88
591.35	98.30
591.51	105.32
591.67	117.03
591.83	70.22
591.99	30.43
592.15	84.26
592.31	39.79
592.46	91.28
592.62	51.49
592.78	95.96
592.94	44.47
593.10	53.83
593.26	0.00
593.41	16.38
593.57	49.15
593.73	63.19
593.89	102.98
594.05	49.15
594.20	124.05
594.36	72.56
594.52	46.81
594.68	16.38
594.84	121.71
594.99	60.85
595.15	72.56
595.31	102.98
595.47	86.60
595.62	93.62
595.78	86.60
595.94	79.58
596.10	0.00
596.25	42.13
596.41	72.56
596.57	0.00
596.73	67.88
596.88	128.73
597.04	39.79
597.20	114.69
597.36	88.94
597.51	42.13
597.67	0.00
597.83	91.28
597.99	58.51
598.14	102.98
598.30	51.49
598.46	79.58
598.61	37.45
598.77	14.04
598.93	100.64
599.09	4.68
599.24	117.03
599.40	74.90
599.56	107.66
599.71	100.64
599.87	46.81
600.03	102.98
600.18	4.68
600.34	95.96
600.50	77.24
600.65	30.43
600.81	152.13
600.97	65.54
601.12	135.75
601.28	86.60
601.44	84.26
601.59	49.15
601.75	65.54
601.91	65.54
602.06	23.41
602.22	88.94
602.37	9.36
602.53	100.64
602.69	28.09
602.84	63.19
603.00	60.85
603.16	107.66
603.31	91.28
603.47	95.96
603.62	18.72
603.78	91.28
603.94	63.19
604.09	100.64
604.25	74.90
604.40	58.51
604.56	56.17
604.71	102.98
604.87	37.45
605.03	74.90
605.18	114.69
605.34	0.00
605.49	0.00
605.65	74.90
605.80	70.22
605.96	138.09
606.12	93.62
606.27	100.64
606.43	58.51
606.58	81.92
606.74	4.68
606.89	0.00
607.05	124.05
607.20	70.22
607.36	39.79
607.51	16.38
607.67	60.85
607.82	105.32
607.98	72.56
608.13	152.13
608.29	9.36
608.44	67.88
608.60	35.11
608.75	88.94
608.91	65.54
609.06	65.54
609.22	0.00
609.37	110.01
609.53	95.96
609.68	131.07
609.84	84.26
609.99	23.41
610.15	79.58
610.30	56.17
610.46	91.28
610.61	84.26
610.76	74.90
610.92	65.54
611.07	0.00
611.23	77.24
611.38	126.39
611.54	77.24
611.69	42.13
611.84	79.58
612.00	63.19
612.15	84.26
612.31	124.05
612.46	72.56
612.62	77.24
612.77	23.41
612.92	74.90
613.08	84.26
613.23	37.45
613.39	46.81
613.54	121.71
613.69	81.92
613.85	74.90
614.00	14.04
614.15	39.79
614.31	147.45
614.46	23.41
614.62	81.92
614.77	65.54
614.92	46.81
615.08	32.77
615.23	91.28
615.38	128.73
615.54	98.30
615.69	18.72
615.84	9.36
616.00	28.09
616.15	110.01
616.30	25.75
616.46	100.64
616.61	84.26
616.76	23.41
616.92	91.28
617.07	79.58
617.22	46.81
617.37	2.34
617.53	39.79
617.68	88.94
617.83	44.47
617.99	30.43
618.14	65.54
618.29	46.81
618.45	84.26
618.60	93.62
618.75	4.68
618.90	65.54
619.06	51.49
619.21	16.38
619.36	51.49
619.51	98.30
619.67	63.19
619.82	37.45
619.97	79.58
620.12	65.54
620.28	124.05
620.43	7.02
620.58	18.72
620.73	35.11
620.89	18.72
621.04	49.15
621.19	84.26
621.34	39.79
621.49	60.85
621.65	0.00
621.80	133.41
621.95	95.96
622.10	65.54
622.25	2.34
622.41	30.43
622.56	53.83
622.71	70.22
622.86	119.37
623.01	58.51
623.16	0.00
623.32	70.22
623.47	117.03
623.62	72.56
623.77	72.56
623.92	72.56
624.07	9.36
624.23	16.38
624.38	91.28
624.53	56.17
624.68	35.11
624.83	93.62
624.98	44.47
625.13	77.24
625.29	44.47
625.44	51.49
625.59	0.00
625.74	28.09
625.89	84.26
626.04	67.88
626.19	0.00
626.34	56.17
626.49	0.00
626.65	16.38
626.80	70.22
626.95	39.79
627.10	56.17
627.25	58.51
627.40	0.00
627.55	0.00
627.70	25.75
627.85	86.60
628.00	70.22
628.15	98.30
628.30	67.88
628.45	28.09
628.60	56.17
628.76	32.77
628.91	110.01
629.06	4.68
629.21	84.26
629.36	21.06
629.51	0.00
629.66	124.05
629.81	49.15
629.96	42.13
630.11	128.73
630.26	72.56
630.41	159.16
630.56	9.36
630.71	16.38
630.86	44.47
631.01	58.51
631.16	88.94
631.31	60.85
631.46	70.22
631.61	58.51
631.76	110.01
631.91	77.24
632.06	0.00
632.21	86.60
632.36	49.15
632.51	0.00
632.66	46.81
632.81	65.54
632.96	0.00
633.10	58.51
633.25	86.60
633.40	56.17
633.55	4.68
633.70	0.00
633.85	107.66
634.00	37.45
634.15	67.88
634.30	77.24
634.45	84.26
634.60	77.24
634.75	56.17
634.90	79.58
635.05	131.07
635.19	42.13
635.34	72.56
635.49	70.22
635.64	84.26
635.79	56.17
635.94	79.58
636.09	0.00
636.24	56.17
636.39	7.02
636.53	86.60
636.68	95.96
636.83	107.66
636.98	51.49
637.13	100.64
637.28	44.47
637.43	63.19
637.57	95.96
637.72	51.49
637.87	91.28
638.02	100.64
638.17	0.00
638.32	102.98
638.46	49.15
638.61	51.49
638.76	11.70
638.91	142.77
639.06	51.49
639.20	0.00
639.35	72.56
639.50	56.17
639.65	35.11
639.80	2.34
639.94	37.45
640.09	98.30
640.24	121.71
640.39	105.32
640.54	7.02
640.68	25.75
640.83	119.37
640.98	74.90
641.13	51.49
641.27	67.88
641.42	138.09
641.57	133.41
641.72	2.34
641.86	0.00
642.01	81.92
642.16	86.60
642.31	7.02
642.45	79.58
642.60	86.60
642.75	0.00
642.90	88.94
643.04	14.04
643.19	93.62
643.34	84.26
643.48	110.01
643.63	63.19
643.78	44.47
643.93	79.58
644.07	14.04
644.22	70.22
644.37	79.58
644.51	74.90
644.66	56.17
644.81	16.38
644.95	28.09
645.10	119.37
645.25	58.51
645.39	114.69
645.54	37.45
645.69	91.28
645.83	0.00
645.98	0.00
646.13	0.00
646.27	39.79
646.42	65.54
646.57	0.00
646.71	2.34
646.86	63.19
647.00	25.75
647.15	14.04
647.30	0.00
647.44	37.45
647.59	32.77
647.74	95.96
647.88	39.79
648.03	9.36
648.17	81.92
648.32	107.66
648.47	110.01
648.61	107.66
648.76	49.15
648.90	70.22
649.05	107.66
649.20	74.90
649.34	72.56
649.49	49.15
649.63	102.98
649.78	42.13
649.92	0.00
650.07	4.68
650.21	0.00
650.36	30.43
650.51	0.00
650.65	44.47
650.80	60.85
650.94	23.41
651.09	2.34
651.23	110.01
651.38	77.24
651.52	18.72
651.67	93.62
651.81	35.11
651.96	0.00
652.10	0.00
652.25	58.51
652.39	11.70
652.54	0.00
652.68	14.04
652.83	88.94
652.97	117.03
653.12	81.92
653.26	16.38
653.41	79.58
653.55	74.90
653.70	25.75
653.84	74.90
653.99	60.85
654.13	81.92
654.27	9.36
654.42	86.60
654.56	58.51
654.71	95.96
654.85	65.54
655.00	21.06
655.14	30.43
655.29	60.85
655.43	25.75
655.57	74.90
655.72	32.77
655.86	133.41
656.01	53.83
656.15	81.92
656.30	32.77
656.44	0.00
656.58	39.79
656.73	32.77
656.87	60.85
657.01	51.49
657.16	37.45
657.30	121.71
657.45	72.56
657.59	2.34
657.73	70.22
657.88	30.43
658.02	65.54
658.16	63.19
658.31	58.51
658.45	74.90
658.60	23.41
658.74	4.68
658.88	37.45
659.03	30.43
659.17	95.96
659.31	53.83
659.46	28.09
659.60	114.69
659.74	32.77
659.89	11.70
660.03	70.22
660.17	74.90
660.32	65.54
660.46	16.38
660.60	81.92
660.74	28.09
660.89	37.45
661.03	49.15
661.17	93.62
661.32	25.75
661.46	35.11
661.60	11.70
661.74	25.75
661.89	88.94
662.03	86.60
662.17	112.35
662.31	30.43
662.46	35.11
662.60	65.54
662.74	70.22
662.88	67.88
663.03	110.01
663.17	49.15
663.31	79.58
663.45	72.56
663.60	21.06
663.74	70.22
663.88	21.06
664.02	37.45
664.17	44.47
664.31	18.72
664.45	32.77
664.59	100.64
664.73	58.51
664.88	95.96
665.02	77.24
665.16	0.00
665.30	9.36
665.44	44.47
665.59	51.49
665.73	0.00
665.87	194.26
666.01	67.88
666.15	0.00
666.29	42.13
666.44	65.54
666.58	25.75
666.72	16.38
666.86	0.00
667.00	0.00
667.14	39.79
667.28	72.56
667.43	100.64
667.57	0.00
667.71	93.62
667.85	11.70
667.99	25.75
668.13	14.04
668.27	49.15
668.41	18.72
668.56	0.00
668.70	114.69
668.84	58.51
668.98	107.66
669.12	16.38
669.26	32.77
669.40	30.43
669.54	53.83
669.68	67.88
669.82	56.17
669.96	32.77
670.10	77.24
670.25	32.77
670.39	42.13
670.53	79.58
670.67	133.41
670.81	88.94
670.95	23.41
671.09	42.13
671.23	63.19
671.37	95.96
671.51	60.85
671.65	77.24
671.79	79.58
671.93	42.13
672.07	88.94
672.21	154.48
672.35	23.41
672.49	86.60
672.63	21.06
672.77	119.37
672.91	0.00
673.05	11.70
673.19	124.05
673.33	46.81
673.47	0.00
673.61	0.00
673.75	28.09
673.89	28.09
674.03	128.73
674.17	32.77
674.31	0.00
674.45	51.49
674.59	67.88
674.73	102.98
674.87	16.38
675.01	21.06
675.15	39.79
675.29	28.09
675.43	23.41
675.56	117.03
675.70	91.28
675.84	91.28
675.98	42.13
676.12	16.38
676.26	56.17
676.40	42.13
676.54	51.49
676.68	21.06
676.82	37.45
676.96	30.43
677.10	4.68
677.23	39.79
677.37	135.75
677.51	112.35
677.65	119.37
677.79	58.51
677.93	21.06
678.07	18.72
678.21	77.24
678.34	30.43
678.48	28.09
678.62	86.60
678.76	42.13
678.90	7.02
679.04	49.15
679.18	51.49
679.31	35.11
679.45	42.13
679.59	0.00
679.73	91.28
679.87	65.54
680.00	112.35
680.14	105.32
680.28	2.34
680.42	25.75
680.56	28.09
680.70	65.54
680.83	0.00
680.97	93.62
681.11	25.75
681.25	28.09
681.39	51.49
681.52	65.54
681.66	0.00
681.80	21.06
681.94	0.00
682.07	32.77
682.21	9.36
682.35	35.11
682.49	91.28
682.62	51.49
682.76	58.51
682.90	44.47
683.04	42.13
683.17	0.00
683.31	0.00
683.45	0.00
683.59	35.11
683.72	18.72
683.86	4.68
684.00	72.56
684.13	46.81
684.27	105.32
684.41	119.37
684.55	0.00
684.68	53.83
684.82	16.38
684.96	60.85
685.09	0.00
685.23	42.13
685.37	81.92
685.50	60.85
685.64	42.13
685.78	28.09
685.91	18.72
686.05	77.24
686.19	0.00
686.32	30.43
686.46	46.81
686.60	0.00
686.73	32.77
686.87	0.00
687.01	67.88
687.14	4.68
687.28	56.17
687.42	67.88
687.55	67.88
687.69	4.68
687.82	39.79
687.96	0.00
688.10	72.56
688.23	0.00
688.37	65.54
688.50	79.58
688.64	88.94
688.78	58.51
688.91	0.00
689.05	60.85
689.18	0.00
689.32	0.00
689.46	42.13
689.59	110.01
689.73	35.11
689.86	56.17
690.00	0.00
690.13	11.70
690.27	77.24
690.41	63.19
690.54	4.68
690.68	7.02
690.81	4.68
690.95	21.06
691.08	91.28
691.22	4.68
691.35	9.36
691.49	70.22
691.62	53.83
691.76	37.45
691.89	79.58
692.03	0.00
692.16	67.88
692.30	9.36
692.43	51.49
692.57	91.28
692.70	51.49
692.84	46.81
692.97	100.64
693.11	58.51
693.24	11.70
693.38	0.00
693.51	60.85
693.65	7.02
693.78	35.11
693.92	74.90
694.05	65.54
694.19	42.13
694.32	21.06
694.45	2.34
694.59	107.66
694.72	7.02
694.86	49.15
694.99	28.09
695.13	65.54
695.26	84.26
695.39	77.24
695.53	39.79
695.66	51.49
695.80	88.94
695.93	65.54
696.07	60.85
696.20	56.17
696.33	51.49
696.47	37.45
696.60	0.00
696.73	0.00
696.87	65.54
697.00	93.62
697.14	58.51
697.27	58.51
697.40	53.83
697.54	25.75
697.67	0.00
697.80	0.00
697.94	0.00
698.07	72.56
698.21	56.17
698.34	25.75
698.47	7.02
698.61	0.00
698.74	0.00
698.87	67.88
699.01	7.02
699.14	9.36
699.27	65.54
699.40	39.79
699.54	25.75
699.67	70.22
699.80	28.09
699.94	42.13
700.07	84.26
700.20	0.00
700.34	23.41
700.47	28.09
700.60	7.02
700.73	56.17
700.87	37.45
701.00	67.88
701.13	74.90
701.26	88.94
701.40	42.13
701.53	0.00
701.66	49.15
701.79	39.79
701.93	81.92
702.06	72.56
702.19	42.13
702.32	0.00
702.46	58.51
702.59	9.36
702.72	16.38
702.85	28.09
702.99	81.92
703.12	102.98
703.25	28.09
703.38	117.03
703.51	39.79
703.65	0.00
703.78	60.85
703.91	77.24
704.04	32.77
704.17	0.00
704.31	70.22
704.44	79.58
704.57	39.79
704.70	44.47
704.83	35.11
704.96	93.62
705.10	28.09
705.23	0.00
>>>>>End Processed Spectral Data<<<<<
