SpectraSuite Data File
++++++++++++++++++++++++++++++++++++
Date: Fri Oct 04 12:13:27 GMT-05:00 2013
User: price-jones
Dark Spectrum Present: No
Reference Spectrum Present: No
Number of Sampled Component Spectra: 1
Spectrometers: USB2+H05261
Integration Time (usec): 10000 (USB2+H05261)
Spectra Averaged: 1 (USB2+H05261)
Boxcar Smoothing: 0 (USB2+H05261)
Correct for Electrical Dark: No (USB2+H05261)
Strobe/Lamp Enabled: No (USB2+H05261)
Correct for Detector Non-linearity: No (USB2+H05261)
Correct for Stray Light: No (USB2+H05261)
Number of Pixels in Processed Spectrum: 2048
>>>>>Begin Processed Spectral Data<<<<<
365.73	0.00
365.92	0.00
366.12	0.00
366.32	0.00
366.52	0.00
366.72	0.00
366.91	0.00
367.11	0.00
367.31	0.00
367.51	0.00
367.70	0.00
367.90	0.00
368.10	0.00
368.30	0.00
368.49	0.00
368.69	0.00
368.89	0.00
369.09	0.00
369.28	0.00
369.48	0.00
369.68	0.00
369.87	0.00
370.07	0.00
370.27	0.00
370.47	0.00
370.66	0.00
370.86	0.00
371.06	0.00
371.25	9.36
371.45	0.00
371.65	0.00
371.84	0.00
372.04	0.00
372.24	0.00
372.44	0.00
372.63	14.04
372.83	0.00
373.03	0.00
373.22	30.43
373.42	11.70
373.62	35.11
373.81	0.00
374.01	42.13
374.21	0.00
374.40	60.85
374.60	35.11
374.79	42.13
374.99	53.83
375.19	14.04
375.38	23.41
375.58	4.68
375.78	9.36
375.97	42.13
376.17	23.41
376.37	72.56
376.56	51.49
376.76	18.72
376.95	112.35
377.15	58.51
377.35	11.70
377.54	0.00
377.74	2.34
377.93	72.56
378.13	72.56
378.33	28.09
378.52	0.00
378.72	53.83
378.91	0.00
379.11	9.36
379.31	2.34
379.50	4.68
379.70	21.06
379.89	23.41
380.09	0.00
380.28	0.00
380.48	51.49
380.68	46.81
380.87	18.72
381.07	42.13
381.26	4.68
381.46	0.00
381.65	58.51
381.85	39.79
382.04	28.09
382.24	4.68
382.43	35.11
382.63	60.85
382.83	0.00
383.02	0.00
383.22	110.01
383.41	18.72
383.61	0.00
383.80	0.00
384.00	32.77
384.19	9.36
384.39	35.11
384.58	0.00
384.78	16.38
384.97	37.45
385.17	51.49
385.36	16.38
385.56	65.54
385.75	42.13
385.95	0.00
386.14	42.13
386.34	49.15
386.53	42.13
386.72	81.92
386.92	65.54
387.11	0.00
387.31	0.00
387.50	0.00
387.70	7.02
387.89	0.00
388.09	53.83
388.28	0.00
388.48	93.62
388.67	67.88
388.86	42.13
389.06	81.92
389.25	0.00
389.45	72.56
389.64	51.49
389.84	60.85
390.03	0.00
390.22	42.13
390.42	65.54
390.61	25.75
390.81	74.90
391.00	28.09
391.19	0.00
391.39	2.34
391.58	0.00
391.78	14.04
391.97	35.11
392.16	16.38
392.36	39.79
392.55	7.02
392.75	37.45
392.94	23.41
393.13	28.09
393.33	42.13
393.52	0.00
393.71	77.24
393.91	74.90
394.10	21.06
394.29	49.15
394.49	0.00
394.68	0.00
394.88	25.75
395.07	39.79
395.26	0.00
395.46	25.75
395.65	84.26
395.84	0.00
396.04	16.38
396.23	0.00
396.42	0.00
396.62	102.98
396.81	37.45
397.00	32.77
397.19	25.75
397.39	81.92
397.58	0.00
397.77	0.00
397.97	21.06
398.16	14.04
398.35	67.88
398.55	124.05
398.74	11.70
398.93	42.13
399.12	25.75
399.32	30.43
399.51	0.00
399.70	30.43
399.90	65.54
400.09	28.09
400.28	0.00
400.47	0.00
400.67	37.45
400.86	0.00
401.05	79.58
401.24	46.81
401.44	0.00
401.63	37.45
401.82	39.79
402.01	18.72
402.21	67.88
402.40	112.35
402.59	14.04
402.78	67.88
402.97	9.36
403.17	30.43
403.36	56.17
403.55	30.43
403.74	28.09
403.93	16.38
404.13	0.00
404.32	23.41
404.51	0.00
404.70	39.79
404.89	0.00
405.09	0.00
405.28	18.72
405.47	0.00
405.66	37.45
405.85	42.13
406.05	46.81
406.24	0.00
406.43	0.00
406.62	0.00
406.81	0.00
407.00	39.79
407.20	11.70
407.39	0.00
407.58	39.79
407.77	51.49
407.96	21.06
408.15	28.09
408.34	65.54
408.54	46.81
408.73	0.00
408.92	14.04
409.11	70.22
409.30	74.90
409.49	44.47
409.68	42.13
409.87	100.64
410.07	0.00
410.26	28.09
410.45	30.43
410.64	39.79
410.83	51.49
411.02	0.00
411.21	0.00
411.40	60.85
411.59	4.68
411.78	0.00
411.98	4.68
412.17	14.04
412.36	0.00
412.55	35.11
412.74	53.83
412.93	0.00
413.12	14.04
413.31	16.38
413.50	60.85
413.69	56.17
413.88	51.49
414.07	21.06
414.26	0.00
414.45	0.00
414.64	91.28
414.83	11.70
415.02	42.13
415.22	0.00
415.41	42.13
415.60	21.06
415.79	0.00
415.98	0.00
416.17	0.00
416.36	35.11
416.55	16.38
416.74	81.92
416.93	32.77
417.12	0.00
417.31	42.13
417.50	65.54
417.69	0.00
417.88	37.45
418.07	46.81
418.26	32.77
418.45	4.68
418.64	44.47
418.83	32.77
419.02	32.77
419.21	60.85
419.39	2.34
419.58	16.38
419.77	88.94
419.96	0.00
420.15	4.68
420.34	44.47
420.53	0.00
420.72	58.51
420.91	9.36
421.10	39.79
421.29	65.54
421.48	131.07
421.67	49.15
421.86	0.00
422.05	37.45
422.24	0.00
422.43	18.72
422.61	39.79
422.80	46.81
422.99	60.85
423.18	77.24
423.37	11.70
423.56	74.90
423.75	0.00
423.94	49.15
424.13	35.11
424.32	67.88
424.50	42.13
424.69	84.26
424.88	25.75
425.07	51.49
425.26	14.04
425.45	91.28
425.64	30.43
425.83	117.03
426.01	77.24
426.20	81.92
426.39	81.92
426.58	53.83
426.77	23.41
426.96	0.00
427.15	23.41
427.33	9.36
427.52	30.43
427.71	70.22
427.90	60.85
428.09	37.45
428.28	0.00
428.46	72.56
428.65	51.49
428.84	16.38
429.03	63.19
429.22	42.13
429.40	39.79
429.59	18.72
429.78	72.56
429.97	18.72
430.16	60.85
430.34	4.68
430.53	0.00
430.72	67.88
430.91	32.77
431.10	0.00
431.28	0.00
431.47	30.43
431.66	0.00
431.85	35.11
432.03	0.00
432.22	0.00
432.41	9.36
432.60	63.19
432.79	88.94
432.97	56.17
433.16	11.70
433.35	35.11
433.54	0.00
433.72	16.38
433.91	14.04
434.10	4.68
434.28	16.38
434.47	58.51
434.66	32.77
434.85	95.96
435.03	37.45
435.22	30.43
435.41	39.79
435.59	117.03
435.78	46.81
435.97	46.81
436.16	0.00
436.34	86.60
436.53	28.09
436.72	67.88
436.90	79.58
437.09	28.09
437.28	0.00
437.46	2.34
437.65	14.04
437.84	4.68
438.02	79.58
438.21	74.90
438.40	35.11
438.58	49.15
438.77	0.00
438.96	7.02
439.14	23.41
439.33	7.02
439.52	79.58
439.70	23.41
439.89	86.60
440.08	0.00
440.26	16.38
440.45	42.13
440.63	14.04
440.82	51.49
441.01	30.43
441.19	60.85
441.38	37.45
441.57	14.04
441.75	28.09
441.94	0.00
442.12	2.34
442.31	67.88
442.50	25.75
442.68	18.72
442.87	77.24
443.05	37.45
443.24	0.00
443.43	25.75
443.61	49.15
443.80	16.38
443.98	39.79
444.17	0.00
444.35	0.00
444.54	30.43
444.73	14.04
444.91	0.00
445.10	0.00
445.28	51.49
445.47	46.81
445.65	11.70
445.84	30.43
446.02	0.00
446.21	93.62
446.39	18.72
446.58	72.56
446.77	49.15
446.95	46.81
447.14	25.75
447.32	23.41
447.51	56.17
447.69	9.36
447.88	21.06
448.06	21.06
448.25	4.68
448.43	72.56
448.62	46.81
448.80	28.09
448.99	39.79
449.17	42.13
449.36	88.94
449.54	49.15
449.73	0.00
449.91	0.00
450.10	42.13
450.28	67.88
450.46	77.24
450.65	9.36
450.83	30.43
451.02	0.00
451.20	35.11
451.39	21.06
451.57	60.85
451.76	46.81
451.94	30.43
452.13	72.56
452.31	11.70
452.49	23.41
452.68	14.04
452.86	67.88
453.05	51.49
453.23	37.45
453.42	32.77
453.60	21.06
453.78	25.75
453.97	32.77
454.15	60.85
454.34	74.90
454.52	28.09
454.70	4.68
454.89	7.02
455.07	102.98
455.26	0.00
455.44	32.77
455.62	0.00
455.81	4.68
455.99	0.00
456.17	0.00
456.36	7.02
456.54	72.56
456.73	56.17
456.91	0.00
457.09	18.72
457.28	0.00
457.46	46.81
457.64	11.70
457.83	42.13
458.01	23.41
458.19	0.00
458.38	0.00
458.56	65.54
458.74	28.09
458.93	0.00
459.11	30.43
459.29	18.72
459.48	18.72
459.66	0.00
459.84	42.13
460.03	117.03
460.21	138.09
460.39	124.05
460.57	16.38
460.76	0.00
460.94	11.70
461.12	72.56
461.31	9.36
461.49	86.60
461.67	42.13
461.85	0.00
462.04	14.04
462.22	105.32
462.40	0.00
462.59	25.75
462.77	42.13
462.95	91.28
463.13	107.66
463.32	77.24
463.50	0.00
463.68	53.83
463.86	124.05
464.05	28.09
464.23	0.00
464.41	77.24
464.59	7.02
464.78	9.36
464.96	16.38
465.14	11.70
465.32	7.02
465.50	9.36
465.69	28.09
465.87	0.00
466.05	14.04
466.23	0.00
466.41	49.15
466.60	11.70
466.78	44.47
466.96	11.70
467.14	0.00
467.32	42.13
467.51	0.00
467.69	32.77
467.87	44.47
468.05	0.00
468.23	72.56
468.41	39.79
468.60	30.43
468.78	28.09
468.96	93.62
469.14	63.19
469.32	51.49
469.50	0.00
469.69	72.56
469.87	39.79
470.05	81.92
470.23	35.11
470.41	0.00
470.59	0.00
470.77	14.04
470.95	44.47
471.14	0.00
471.32	9.36
471.50	0.00
471.68	25.75
471.86	35.11
472.04	32.77
472.22	81.92
472.40	53.83
472.58	42.13
472.77	58.51
472.95	65.54
473.13	9.36
473.31	0.00
473.49	56.17
473.67	37.45
473.85	0.00
474.03	0.00
474.21	98.30
474.39	86.60
474.57	53.83
474.75	0.00
474.93	11.70
475.12	100.64
475.30	0.00
475.48	0.00
475.66	0.00
475.84	107.66
476.02	93.62
476.20	42.13
476.38	58.51
476.56	98.30
476.74	0.00
476.92	14.04
477.10	4.68
477.28	35.11
477.46	49.15
477.64	0.00
477.82	0.00
478.00	18.72
478.18	32.77
478.36	51.49
478.54	21.06
478.72	16.38
478.90	72.56
479.08	21.06
479.26	44.47
479.44	9.36
479.62	0.00
479.80	0.00
479.98	23.41
480.16	18.72
480.34	77.24
480.52	46.81
480.70	44.47
480.88	2.34
481.06	65.54
481.24	21.06
481.41	0.00
481.59	72.56
481.77	0.00
481.95	46.81
482.13	0.00
482.31	14.04
482.49	0.00
482.67	77.24
482.85	74.90
483.03	32.77
483.21	2.34
483.39	16.38
483.57	0.00
483.74	53.83
483.92	49.15
484.10	63.19
484.28	0.00
484.46	46.81
484.64	42.13
484.82	51.49
485.00	49.15
485.18	32.77
485.35	65.54
485.53	9.36
485.71	32.77
485.89	32.77
486.07	0.00
486.25	30.43
486.43	110.01
486.61	39.79
486.78	65.54
486.96	23.41
487.14	21.06
487.32	0.00
487.50	0.00
487.68	0.00
487.85	77.24
488.03	72.56
488.21	110.01
488.39	84.26
488.57	102.98
488.75	39.79
488.92	51.49
489.10	0.00
489.28	32.77
489.46	32.77
489.64	65.54
489.81	77.24
489.99	2.34
490.17	44.47
490.35	72.56
490.53	67.88
490.70	84.26
490.88	44.47
491.06	30.43
491.24	0.00
491.41	53.83
491.59	0.00
491.77	0.00
491.95	21.06
492.13	28.09
492.30	65.54
492.48	11.70
492.66	9.36
492.84	79.58
493.01	49.15
493.19	14.04
493.37	2.34
493.54	39.79
493.72	46.81
493.90	4.68
494.08	0.00
494.25	0.00
494.43	100.64
494.61	112.35
494.79	35.11
494.96	0.00
495.14	28.09
495.32	56.17
495.49	53.83
495.67	74.90
495.85	74.90
496.02	49.15
496.20	30.43
496.38	58.51
496.55	58.51
496.73	42.13
496.91	0.00
497.09	0.00
497.26	39.79
497.44	63.19
497.62	51.49
497.79	39.79
497.97	7.02
498.14	9.36
498.32	37.45
498.50	0.00
498.67	25.75
498.85	110.01
499.03	32.77
499.20	51.49
499.38	70.22
499.56	77.24
499.73	51.49
499.91	0.00
500.08	0.00
500.26	14.04
500.44	77.24
500.61	46.81
500.79	32.77
500.97	0.00
501.14	30.43
501.32	18.72
501.49	67.88
501.67	79.58
501.84	16.38
502.02	53.83
502.20	93.62
502.37	58.51
502.55	65.54
502.72	126.39
502.90	14.04
503.07	0.00
503.25	63.19
503.43	39.79
503.60	0.00
503.78	63.19
503.95	77.24
504.13	9.36
504.30	49.15
504.48	51.49
504.65	30.43
504.83	0.00
505.01	58.51
505.18	91.28
505.36	86.60
505.53	39.79
505.71	53.83
505.88	18.72
506.06	37.45
506.23	79.58
506.41	23.41
506.58	11.70
506.76	0.00
506.93	70.22
507.11	74.90
507.28	77.24
507.46	28.09
507.63	49.15
507.81	21.06
507.98	63.19
508.16	67.88
508.33	2.34
508.50	86.60
508.68	0.00
508.85	21.06
509.03	88.94
509.20	32.77
509.38	65.54
509.55	110.01
509.73	86.60
509.90	72.56
510.08	53.83
510.25	18.72
510.42	0.00
510.60	21.06
510.77	56.17
510.95	4.68
511.12	98.30
511.30	42.13
511.47	70.22
511.64	74.90
511.82	16.38
511.99	0.00
512.17	53.83
512.34	9.36
512.51	0.00
512.69	58.51
512.86	0.00
513.04	11.70
513.21	79.58
513.38	0.00
513.56	0.00
513.73	0.00
513.90	51.49
514.08	114.69
514.25	79.58
514.43	0.00
514.60	102.98
514.77	65.54
514.95	49.15
515.12	25.75
515.29	44.47
515.47	65.54
515.64	79.58
515.81	25.75
515.99	37.45
516.16	37.45
516.33	0.00
516.51	42.13
516.68	42.13
516.85	0.00
517.03	107.66
517.20	93.62
517.37	74.90
517.54	46.81
517.72	67.88
517.89	21.06
518.06	49.15
518.24	28.09
518.41	53.83
518.58	65.54
518.75	63.19
518.93	65.54
519.10	18.72
519.27	11.70
519.45	58.51
519.62	72.56
519.79	25.75
519.96	4.68
520.14	126.39
520.31	18.72
520.48	21.06
520.65	58.51
520.83	0.00
521.00	79.58
521.17	65.54
521.34	30.43
521.52	7.02
521.69	32.77
521.86	74.90
522.03	53.83
522.20	44.47
522.38	0.00
522.55	49.15
522.72	37.45
522.89	35.11
523.07	0.00
523.24	0.00
523.41	77.24
523.58	28.09
523.75	77.24
523.92	14.04
524.10	53.83
524.27	0.00
524.44	42.13
524.61	35.11
524.78	88.94
524.96	58.51
525.13	39.79
525.30	46.81
525.47	133.41
525.64	37.45
525.81	37.45
525.98	9.36
526.16	42.13
526.33	53.83
526.50	81.92
526.67	65.54
526.84	72.56
527.01	44.47
527.18	128.73
527.36	44.47
527.53	77.24
527.70	39.79
527.87	93.62
528.04	9.36
528.21	0.00
528.38	9.36
528.55	93.62
528.72	37.45
528.89	37.45
529.07	72.56
529.24	35.11
529.41	0.00
529.58	56.17
529.75	46.81
529.92	53.83
530.09	95.96
530.26	84.26
530.43	51.49
530.60	30.43
530.77	37.45
530.94	21.06
531.11	0.00
531.28	9.36
531.46	9.36
531.63	46.81
531.80	79.58
531.97	84.26
532.14	79.58
532.31	7.02
532.48	32.77
532.65	25.75
532.82	0.00
532.99	67.88
533.16	79.58
533.33	70.22
533.50	86.60
533.67	110.01
533.84	128.73
534.01	56.17
534.18	39.79
534.35	74.90
534.52	0.00
534.69	67.88
534.86	0.00
535.03	2.34
535.20	58.51
535.37	0.00
535.54	0.00
535.71	42.13
535.88	110.01
536.05	70.22
536.22	58.51
536.38	2.34
536.55	0.00
536.72	119.37
536.89	63.19
537.06	58.51
537.23	65.54
537.40	46.81
537.57	30.43
537.74	11.70
537.91	49.15
538.08	63.19
538.25	72.56
538.42	49.15
538.59	2.34
538.75	49.15
538.92	7.02
539.09	67.88
539.26	91.28
539.43	60.85
539.60	110.01
539.77	243.42
539.94	255.12
540.11	135.75
540.28	70.22
540.44	114.69
540.61	18.72
540.78	0.00
540.95	37.45
541.12	32.77
541.29	25.75
541.46	81.92
541.62	9.36
541.79	35.11
541.96	16.38
542.13	7.02
542.30	0.00
542.47	93.62
542.63	53.83
542.80	72.56
542.97	25.75
543.14	135.75
543.31	46.81
543.48	72.56
543.64	30.43
543.81	32.77
543.98	53.83
544.15	39.79
544.32	86.60
544.48	0.00
544.65	65.54
544.82	32.77
544.99	95.96
545.16	11.70
545.32	133.41
545.49	14.04
545.66	11.70
545.83	51.49
546.00	44.47
546.16	4.68
546.33	58.51
546.50	49.15
546.67	21.06
546.83	21.06
547.00	0.00
547.17	88.94
547.34	23.41
547.50	14.04
547.67	70.22
547.84	70.22
548.00	23.41
548.17	63.19
548.34	51.49
548.51	117.03
548.67	32.77
548.84	72.56
549.01	0.00
549.18	102.98
549.34	37.45
549.51	18.72
549.68	88.94
549.84	74.90
550.01	46.81
550.18	74.90
550.34	23.41
550.51	70.22
550.68	9.36
550.84	25.75
551.01	30.43
551.18	7.02
551.34	100.64
551.51	0.00
551.68	79.58
551.84	105.32
552.01	30.43
552.18	72.56
552.34	7.02
552.51	0.00
552.68	39.79
552.84	25.75
553.01	49.15
553.18	93.62
553.34	42.13
553.51	39.79
553.67	95.96
553.84	42.13
554.01	91.28
554.17	11.70
554.34	49.15
554.51	28.09
554.67	0.00
554.84	98.30
555.00	25.75
555.17	0.00
555.33	0.00
555.50	0.00
555.67	0.00
555.83	21.06
556.00	37.45
556.16	28.09
556.33	46.81
556.50	49.15
556.66	60.85
556.83	39.79
556.99	58.51
557.16	72.56
557.32	4.68
557.49	0.00
557.65	42.13
557.82	11.70
557.98	35.11
558.15	79.58
558.32	86.60
558.48	126.39
558.65	18.72
558.81	0.00
558.98	107.66
559.14	23.41
559.31	70.22
559.47	107.66
559.64	37.45
559.80	51.49
559.97	35.11
560.13	51.49
560.30	58.51
560.46	0.00
560.63	53.83
560.79	0.00
560.96	77.24
561.12	86.60
561.29	93.62
561.45	149.79
561.61	30.43
561.78	44.47
561.94	0.00
562.11	91.28
562.27	77.24
562.44	9.36
562.60	37.45
562.77	44.47
562.93	56.17
563.10	79.58
563.26	35.11
563.42	117.03
563.59	58.51
563.75	0.00
563.92	65.54
564.08	7.02
564.24	37.45
564.41	21.06
564.57	70.22
564.74	35.11
564.90	16.38
565.07	39.79
565.23	58.51
565.39	74.90
565.56	58.51
565.72	49.15
565.88	93.62
566.05	72.56
566.21	42.13
566.38	67.88
566.54	131.07
566.70	95.96
566.87	72.56
567.03	79.58
567.19	58.51
567.36	102.98
567.52	0.00
567.68	23.41
567.85	121.71
568.01	79.58
568.17	107.66
568.34	77.24
568.50	84.26
568.66	65.54
568.83	49.15
568.99	0.00
569.15	32.77
569.32	25.75
569.48	0.00
569.64	16.38
569.81	37.45
569.97	46.81
570.13	79.58
570.30	4.68
570.46	67.88
570.62	110.01
570.78	0.00
570.95	49.15
571.11	51.49
571.27	28.09
571.43	60.85
571.60	32.77
571.76	23.41
571.92	79.58
572.09	2.34
572.25	81.92
572.41	0.00
572.57	65.54
572.74	0.00
572.90	0.00
573.06	16.38
573.22	0.00
573.38	58.51
573.55	0.00
573.71	49.15
573.87	35.11
574.03	49.15
574.20	63.19
574.36	42.13
574.52	91.28
574.68	28.09
574.84	39.79
575.01	37.45
575.17	11.70
575.33	25.75
575.49	46.81
575.65	53.83
575.82	65.54
575.98	56.17
576.14	44.47
576.30	70.22
576.46	70.22
576.62	98.30
576.79	86.60
576.95	35.11
577.11	102.98
577.27	32.77
577.43	42.13
577.59	21.06
577.75	23.41
577.92	51.49
578.08	72.56
578.24	63.19
578.40	107.66
578.56	11.70
578.72	63.19
578.88	14.04
579.04	35.11
579.21	11.70
579.37	37.45
579.53	18.72
579.69	70.22
579.85	65.54
580.01	58.51
580.17	56.17
580.33	53.83
580.49	72.56
580.65	63.19
580.82	18.72
580.98	56.17
581.14	0.00
581.30	44.47
581.46	98.30
581.62	105.32
581.78	117.03
581.94	93.62
582.10	112.35
582.26	86.60
582.42	98.30
582.58	98.30
582.74	46.81
582.90	102.98
583.06	79.58
583.22	121.71
583.38	72.56
583.54	142.77
583.70	110.01
583.86	105.32
584.02	133.41
584.18	173.20
584.34	147.45
584.50	470.45
584.66	3751.88
584.82	9048.51
584.98	13729.58
585.14	12215.26
585.30	7527.16
585.46	4470.42
585.62	2897.58
585.78	1270.91
585.94	580.45
586.10	241.08
586.26	86.60
586.42	79.58
586.58	53.83
586.74	46.81
586.90	70.22
587.06	112.35
587.22	79.58
587.38	117.03
587.54	187.24
587.70	613.22
587.86	889.40
588.02	1069.62
588.18	704.50
588.34	393.21
588.49	280.86
588.65	149.79
588.81	58.51
588.97	51.49
589.13	81.92
589.29	110.01
589.45	100.64
589.61	72.56
589.77	93.62
589.93	60.85
590.08	149.79
590.24	81.92
590.40	138.09
590.56	77.24
590.72	51.49
590.88	63.19
591.04	25.75
591.20	0.00
591.35	70.22
591.51	30.43
591.67	74.90
591.83	0.00
591.99	35.11
592.15	0.00
592.31	51.49
592.46	58.51
592.62	21.06
592.78	16.38
592.94	18.72
593.10	49.15
593.26	105.32
593.41	88.94
593.57	25.75
593.73	67.88
593.89	428.32
594.05	1146.86
594.20	1722.63
594.36	1713.27
594.52	1081.33
594.68	662.37
594.84	423.64
594.99	262.14
595.15	133.41
595.31	100.64
595.47	86.60
595.62	119.37
595.78	37.45
595.94	60.85
596.10	35.11
596.25	0.00
596.41	39.79
596.57	0.00
596.73	56.17
596.88	107.66
597.04	245.76
597.20	376.83
597.36	402.57
597.51	397.89
597.67	297.25
597.83	117.03
597.99	149.79
598.14	51.49
598.30	16.38
598.46	70.22
598.61	14.04
598.77	60.85
598.93	25.75
599.09	74.90
599.24	2.34
599.40	25.75
599.56	86.60
599.71	2.34
599.87	9.36
600.03	119.37
600.18	37.45
600.34	0.00
600.50	88.94
600.65	32.77
600.81	112.35
600.97	67.88
601.12	0.00
601.28	21.06
601.44	46.81
601.59	58.51
601.75	72.56
601.91	128.73
602.06	70.22
602.22	79.58
602.37	131.07
602.53	297.25
602.69	489.17
602.84	435.34
603.00	383.85
603.16	234.05
603.31	102.98
603.47	117.03
603.62	67.88
603.78	30.43
603.94	18.72
604.09	9.36
604.25	81.92
604.40	16.38
604.56	95.96
604.71	49.15
604.87	70.22
605.03	0.00
605.18	39.79
605.34	70.22
605.49	110.01
605.65	156.82
605.80	42.13
605.96	0.00
606.12	77.24
606.27	16.38
606.43	100.64
606.58	51.49
606.74	212.99
606.89	550.03
607.05	1118.78
607.20	1467.52
607.36	1217.08
607.51	807.48
607.67	456.40
607.82	355.76
607.98	212.99
608.13	145.11
608.29	49.15
608.44	74.90
608.60	84.26
608.75	124.05
608.91	138.09
609.06	835.57
609.22	1748.38
609.37	2455.22
609.53	2230.53
609.68	1476.88
609.84	985.37
609.99	603.86
610.15	327.68
610.30	142.77
610.46	28.09
610.61	46.81
610.76	53.83
610.92	0.00
611.07	65.54
611.23	21.06
611.38	42.13
611.54	0.00
611.69	37.45
611.84	63.19
612.00	9.36
612.15	42.13
612.31	79.58
612.46	93.62
612.62	121.71
612.77	126.39
612.92	65.54
613.08	63.19
613.23	0.00
613.39	60.85
613.54	189.58
613.69	791.10
613.85	2338.20
614.00	3705.07
614.15	4028.06
614.31	2935.03
614.46	1802.21
614.62	1282.61
614.77	819.19
614.92	395.55
615.08	142.77
615.23	131.07
615.38	67.88
615.54	112.35
615.69	159.16
615.84	449.38
616.00	905.79
616.15	1062.60
616.30	873.02
616.46	622.58
616.61	475.13
616.76	259.80
616.92	196.60
617.07	86.60
617.22	124.05
617.37	0.00
617.53	42.13
617.68	44.47
617.83	4.68
617.99	138.09
618.14	110.01
618.29	112.35
618.45	53.83
618.60	86.60
618.75	0.00
618.90	65.54
619.06	21.06
619.21	30.43
619.36	11.70
619.51	18.72
619.67	88.94
619.82	42.13
619.97	105.32
620.12	63.19
620.28	4.68
620.43	51.49
620.58	25.75
620.73	60.85
620.89	93.62
621.04	131.07
621.19	220.01
621.34	463.43
621.49	641.31
621.65	519.60
621.80	386.19
621.95	222.35
622.10	248.10
622.25	105.32
622.41	58.51
622.56	14.04
622.71	42.13
622.86	63.19
623.01	32.77
623.16	25.75
623.32	0.00
623.47	0.00
623.62	46.81
623.77	37.45
623.92	18.72
624.07	74.90
624.23	0.00
624.38	91.28
624.53	37.45
624.68	0.00
624.83	0.00
624.98	74.90
625.13	0.00
625.29	51.49
625.44	42.13
625.59	53.83
625.74	91.28
625.89	63.19
626.04	425.98
626.19	1144.52
626.34	1781.15
626.49	2111.16
626.65	1516.67
626.80	1083.67
626.95	685.78
627.10	468.11
627.25	205.97
627.40	79.58
627.55	67.88
627.70	65.54
627.85	0.00
628.00	58.51
628.15	107.66
628.30	56.17
628.45	11.70
628.60	18.72
628.76	0.00
628.91	18.72
629.06	56.17
629.21	105.32
629.36	14.04
629.51	16.38
629.66	21.06
629.81	74.90
629.96	159.16
630.11	369.80
630.26	554.71
630.41	603.86
630.56	362.78
630.71	189.58
630.86	203.63
631.01	93.62
631.16	67.88
631.31	32.77
631.46	14.04
631.61	11.70
631.76	9.36
631.91	0.00
632.06	65.54
632.21	35.11
632.36	70.22
632.51	46.81
632.66	86.60
632.81	175.54
632.96	599.18
633.10	1153.88
633.25	1481.56
633.40	1116.44
633.55	837.91
633.70	505.56
633.85	411.93
634.00	187.24
634.15	168.52
634.30	93.62
634.45	42.13
634.60	14.04
634.75	56.17
634.90	60.85
635.05	77.24
635.19	51.49
635.34	23.41
635.49	72.56
635.64	28.09
635.79	63.19
635.94	84.26
636.09	72.56
636.24	51.49
636.39	35.11
636.53	32.77
636.68	131.07
636.83	9.36
636.98	65.54
637.13	58.51
637.28	102.98
637.43	110.01
637.57	110.01
637.72	582.79
637.87	1409.00
638.02	2436.50
638.17	2651.83
638.32	2038.61
638.46	1308.36
638.61	905.79
638.76	620.24
638.91	351.08
639.06	138.09
639.20	187.24
639.35	126.39
639.50	161.50
639.65	849.61
639.80	2216.49
639.94	3698.05
640.09	4135.73
640.24	3218.24
640.39	2132.23
640.54	1397.30
640.68	908.13
640.83	376.83
640.98	238.73
641.13	147.45
641.27	53.83
641.42	191.92
641.57	65.54
641.72	91.28
641.86	70.22
642.01	74.90
642.16	63.19
642.31	0.00
642.45	35.11
642.60	58.51
642.75	72.56
642.90	110.01
643.04	53.83
643.19	37.45
643.34	84.26
643.48	65.54
643.63	9.36
643.78	42.13
643.93	39.79
644.07	37.45
644.22	21.06
644.37	7.02
644.51	30.43
644.66	0.00
644.81	56.17
644.95	25.75
645.10	42.13
645.25	0.00
645.39	51.49
645.54	14.04
645.69	84.26
645.83	49.15
645.98	49.15
646.13	63.19
646.27	100.64
646.42	0.00
646.57	131.07
646.71	0.00
646.86	102.98
647.00	23.41
647.15	0.00
647.30	84.26
647.44	51.49
647.59	65.54
647.74	23.41
647.88	56.17
648.03	42.13
648.17	0.00
648.32	0.00
648.47	2.34
648.61	35.11
648.76	0.00
648.90	37.45
649.05	88.94
649.20	0.00
649.34	11.70
649.49	35.11
649.63	58.51
649.78	18.72
649.92	91.28
650.07	337.04
650.21	1006.43
650.36	1687.53
650.51	2190.74
650.65	1764.76
650.80	1212.40
650.94	840.25
651.09	519.60
651.23	273.84
651.38	189.58
651.52	126.39
651.67	102.98
651.81	56.17
651.96	65.54
652.10	79.58
652.25	98.30
652.39	105.32
652.54	67.88
652.68	133.41
652.83	297.25
652.97	585.13
653.12	816.85
653.26	737.27
653.41	568.75
653.55	320.65
653.70	301.93
653.84	177.88
653.99	112.35
654.13	0.00
654.27	67.88
654.42	21.06
654.56	9.36
654.71	72.56
654.85	65.54
655.00	4.68
655.14	67.88
655.29	0.00
655.43	114.69
655.57	49.15
655.72	91.28
655.86	2.34
656.01	39.79
656.15	56.17
656.30	7.02
656.44	0.00
656.58	79.58
656.73	133.41
656.87	70.22
657.01	56.17
657.16	21.06
657.30	23.41
657.45	0.00
657.59	65.54
657.73	39.79
657.88	110.01
658.02	32.77
658.16	110.01
658.31	65.54
658.45	35.11
658.60	11.70
658.74	37.45
658.88	25.75
659.03	114.69
659.17	79.58
659.31	105.32
659.46	496.19
659.60	844.93
659.74	1053.24
659.89	950.26
660.03	685.78
660.17	449.38
660.32	294.91
660.46	173.20
660.60	39.79
660.74	28.09
660.89	21.06
661.03	100.64
661.17	35.11
661.32	49.15
661.46	9.36
661.60	4.68
661.74	28.09
661.89	39.79
662.03	11.70
662.17	32.77
662.31	2.34
662.46	11.70
662.60	63.19
662.74	42.13
662.88	0.00
663.03	81.92
663.17	93.62
663.31	9.36
663.45	18.72
663.60	51.49
663.74	9.36
663.88	51.49
664.02	0.00
664.17	58.51
664.31	32.77
664.45	95.96
664.59	4.68
664.73	28.09
664.88	93.62
665.02	60.85
665.16	49.15
665.30	32.77
665.44	88.94
665.59	114.69
665.73	0.00
665.87	0.00
666.01	4.68
666.15	67.88
666.29	42.13
666.44	65.54
666.58	114.69
666.72	67.88
666.86	28.09
667.00	35.11
667.14	35.11
667.28	367.46
667.43	791.10
667.57	1472.20
667.71	1870.09
667.85	1626.67
667.99	1226.44
668.13	786.42
668.27	486.83
668.41	308.95
668.56	166.18
668.70	91.28
668.84	100.64
668.98	79.58
669.12	14.04
669.26	42.13
669.40	0.00
669.54	42.13
669.68	53.83
669.82	0.00
669.96	23.41
670.10	49.15
670.25	0.00
670.39	23.41
670.53	32.77
670.67	0.00
670.81	63.19
670.95	74.90
671.09	102.98
671.23	287.89
671.37	767.70
671.51	1081.33
671.65	1320.06
671.79	926.85
671.93	627.26
672.07	477.47
672.21	220.01
672.35	184.90
672.49	81.92
672.63	72.56
672.77	56.17
672.91	46.81
673.05	44.47
673.19	58.51
673.33	16.38
673.47	23.41
673.61	88.94
673.75	18.72
673.89	21.06
674.03	74.90
674.17	58.51
674.31	100.64
674.45	0.00
674.59	16.38
674.73	39.79
674.87	4.68
675.01	42.13
675.15	11.70
675.29	93.62
675.43	91.28
675.56	32.77
675.70	60.85
675.84	21.06
675.98	60.85
676.12	28.09
676.26	79.58
676.40	28.09
676.54	60.85
676.68	0.00
676.82	46.81
676.96	2.34
677.10	42.13
677.23	0.00
677.37	32.77
677.51	56.17
677.65	25.75
677.79	0.00
677.93	72.56
678.07	32.77
678.21	32.77
678.34	53.83
678.48	81.92
678.62	51.49
678.76	35.11
678.90	14.04
679.04	0.00
679.18	128.73
679.31	37.45
679.45	32.77
679.59	44.47
679.73	0.00
679.87	4.68
680.00	0.00
680.14	14.04
680.28	0.00
680.42	46.81
680.56	44.47
680.70	35.11
680.83	65.54
680.97	65.54
681.11	0.00
681.25	0.00
681.39	0.00
681.52	32.77
681.66	46.81
681.80	42.13
681.94	23.41
682.07	0.00
682.21	28.09
682.35	44.47
682.49	81.92
682.62	21.06
682.76	7.02
682.90	28.09
683.04	25.75
683.17	74.90
683.31	53.83
683.45	0.00
683.59	42.13
683.72	28.09
683.86	18.72
684.00	46.81
684.13	0.00
684.27	63.19
684.41	4.68
684.55	25.75
684.68	102.98
684.82	93.62
684.96	18.72
685.09	74.90
685.23	46.81
685.37	23.41
685.50	21.06
685.64	0.00
685.78	44.47
685.91	0.00
686.05	51.49
686.19	16.38
686.32	0.00
686.46	0.00
686.60	30.43
686.73	37.45
686.87	93.62
687.01	63.19
687.14	35.11
687.28	0.00
687.42	84.26
687.55	7.02
687.69	14.04
687.82	46.81
687.96	0.00
688.10	60.85
688.23	0.00
688.37	44.47
688.50	39.79
688.64	39.79
688.78	0.00
688.91	44.47
689.05	42.13
689.18	88.94
689.32	49.15
689.46	53.83
689.59	28.09
689.73	32.77
689.86	0.00
690.00	44.47
690.13	18.72
690.27	56.17
690.41	100.64
690.54	37.45
690.68	0.00
690.81	28.09
690.95	86.60
691.08	42.13
691.22	51.49
691.35	0.00
691.49	0.00
691.62	79.58
691.76	112.35
691.89	63.19
692.03	7.02
692.16	60.85
692.30	67.88
692.43	70.22
692.57	372.15
692.70	589.82
692.84	849.61
692.97	727.91
693.11	524.28
693.24	437.68
693.38	308.95
693.51	189.58
693.65	145.11
693.78	86.60
693.92	60.85
694.05	25.75
694.19	32.77
694.32	32.77
694.45	65.54
694.59	42.13
694.72	18.72
694.86	65.54
694.99	49.15
695.13	39.79
695.26	25.75
695.39	0.00
695.53	0.00
695.66	42.13
695.80	30.43
695.93	18.72
696.07	39.79
696.20	60.85
696.33	112.35
696.47	98.30
696.60	0.00
696.73	79.58
696.87	86.60
697.00	60.85
697.14	32.77
697.27	37.45
697.40	67.88
697.54	28.09
697.67	42.13
697.80	39.79
697.94	18.72
698.07	14.04
698.21	0.00
698.34	2.34
698.47	16.38
698.61	0.00
698.74	21.06
698.87	28.09
699.01	133.41
699.14	42.13
699.27	44.47
699.40	84.26
699.54	42.13
699.67	65.54
699.80	49.15
699.94	53.83
700.07	72.56
700.20	2.34
700.34	18.72
700.47	25.75
700.60	77.24
700.73	25.75
700.87	0.00
701.00	35.11
701.13	0.00
701.26	18.72
701.40	42.13
701.53	72.56
701.66	21.06
701.79	51.49
701.93	39.79
702.06	63.19
702.19	88.94
702.32	93.62
702.46	107.66
702.59	37.45
702.72	177.88
702.85	477.47
702.99	1011.11
703.12	1413.68
703.25	1605.61
703.38	1437.09
703.51	1088.35
703.65	816.85
703.78	636.63
703.91	346.40
704.04	210.65
704.17	290.23
704.31	117.03
704.44	81.92
704.57	30.43
704.70	81.92
704.83	74.90
704.96	0.00
705.10	32.77
705.23	16.38
>>>>>End Processed Spectral Data<<<<<
