SpectraSuite Data File
++++++++++++++++++++++++++++++++++++
Date: Fri Oct 04 12:13:31 GMT-05:00 2013
User: price-jones
Dark Spectrum Present: No
Reference Spectrum Present: No
Number of Sampled Component Spectra: 1
Spectrometers: USB2+H05261
Integration Time (usec): 10000 (USB2+H05261)
Spectra Averaged: 1 (USB2+H05261)
Boxcar Smoothing: 0 (USB2+H05261)
Correct for Electrical Dark: No (USB2+H05261)
Strobe/Lamp Enabled: No (USB2+H05261)
Correct for Detector Non-linearity: No (USB2+H05261)
Correct for Stray Light: No (USB2+H05261)
Number of Pixels in Processed Spectrum: 2048
>>>>>Begin Processed Spectral Data<<<<<
365.73	0.00
365.92	0.00
366.12	0.00
366.32	0.00
366.52	0.00
366.72	0.00
366.91	0.00
367.11	0.00
367.31	0.00
367.51	0.00
367.70	0.00
367.90	0.00
368.10	0.00
368.30	0.00
368.49	0.00
368.69	0.00
368.89	0.00
369.09	0.00
369.28	0.00
369.48	0.00
369.68	0.00
369.87	0.00
370.07	0.00
370.27	0.00
370.47	0.00
370.66	0.00
370.86	0.00
371.06	0.00
371.25	21.06
371.45	0.00
371.65	0.00
371.84	16.38
372.04	0.00
372.24	28.09
372.44	2.34
372.63	0.00
372.83	4.68
373.03	18.72
373.22	7.02
373.42	0.00
373.62	23.41
373.81	42.13
374.01	16.38
374.21	67.88
374.40	7.02
374.60	4.68
374.79	72.56
374.99	53.83
375.19	0.00
375.38	35.11
375.58	0.00
375.78	7.02
375.97	86.60
376.17	58.51
376.37	32.77
376.56	0.00
376.76	25.75
376.95	70.22
377.15	56.17
377.35	39.79
377.54	0.00
377.74	44.47
377.93	72.56
378.13	77.24
378.33	53.83
378.52	0.00
378.72	28.09
378.91	44.47
379.11	0.00
379.31	0.00
379.50	74.90
379.70	23.41
379.89	0.00
380.09	28.09
380.28	28.09
380.48	0.00
380.68	0.00
380.87	0.00
381.07	21.06
381.26	0.00
381.46	11.70
381.65	0.00
381.85	7.02
382.04	60.85
382.24	0.00
382.43	51.49
382.63	49.15
382.83	2.34
383.02	49.15
383.22	0.00
383.41	39.79
383.61	0.00
383.80	16.38
384.00	51.49
384.19	14.04
384.39	67.88
384.58	4.68
384.78	0.00
384.97	0.00
385.17	18.72
385.36	23.41
385.56	0.00
385.75	9.36
385.95	0.00
386.14	42.13
386.34	23.41
386.53	65.54
386.72	0.00
386.92	30.43
387.11	42.13
387.31	56.17
387.50	0.00
387.70	0.00
387.89	44.47
388.09	60.85
388.28	0.00
388.48	0.00
388.67	0.00
388.86	0.00
389.06	0.00
389.25	49.15
389.45	37.45
389.64	0.00
389.84	56.17
390.03	86.60
390.22	51.49
390.42	46.81
390.61	23.41
390.81	4.68
391.00	9.36
391.19	0.00
391.39	37.45
391.58	0.00
391.78	46.81
391.97	11.70
392.16	37.45
392.36	0.00
392.55	0.00
392.75	9.36
392.94	7.02
393.13	0.00
393.33	9.36
393.52	37.45
393.71	0.00
393.91	49.15
394.10	37.45
394.29	2.34
394.49	51.49
394.68	39.79
394.88	88.94
395.07	14.04
395.26	46.81
395.46	0.00
395.65	7.02
395.84	53.83
396.04	14.04
396.23	0.00
396.42	0.00
396.62	42.13
396.81	0.00
397.00	14.04
397.19	35.11
397.39	42.13
397.58	0.00
397.77	0.00
397.97	56.17
398.16	124.05
398.35	7.02
398.55	81.92
398.74	21.06
398.93	63.19
399.12	4.68
399.32	39.79
399.51	37.45
399.70	0.00
399.90	35.11
400.09	0.00
400.28	0.00
400.47	16.38
400.67	0.00
400.86	14.04
401.05	70.22
401.24	14.04
401.44	0.00
401.63	44.47
401.82	11.70
402.01	0.00
402.21	58.51
402.40	0.00
402.59	0.00
402.78	0.00
402.97	72.56
403.17	7.02
403.36	4.68
403.55	23.41
403.74	21.06
403.93	35.11
404.13	37.45
404.32	102.98
404.51	0.00
404.70	0.00
404.89	84.26
405.09	60.85
405.28	63.19
405.47	4.68
405.66	0.00
405.85	18.72
406.05	51.49
406.24	46.81
406.43	30.43
406.62	79.58
406.81	74.90
407.00	9.36
407.20	91.28
407.39	98.30
407.58	7.02
407.77	30.43
407.96	0.00
408.15	72.56
408.34	42.13
408.54	0.00
408.73	39.79
408.92	58.51
409.11	0.00
409.30	91.28
409.49	72.56
409.68	77.24
409.87	32.77
410.07	74.90
410.26	23.41
410.45	0.00
410.64	2.34
410.83	0.00
411.02	0.00
411.21	11.70
411.40	0.00
411.59	14.04
411.78	58.51
411.98	21.06
412.17	0.00
412.36	23.41
412.55	42.13
412.74	46.81
412.93	51.49
413.12	0.00
413.31	44.47
413.50	37.45
413.69	126.39
413.88	0.00
414.07	0.00
414.26	32.77
414.45	0.00
414.64	0.00
414.83	88.94
415.02	0.00
415.22	84.26
415.41	18.72
415.60	32.77
415.79	51.49
415.98	0.00
416.17	21.06
416.36	21.06
416.55	56.17
416.74	21.06
416.93	65.54
417.12	0.00
417.31	74.90
417.50	25.75
417.69	0.00
417.88	72.56
418.07	25.75
418.26	49.15
418.45	39.79
418.64	35.11
418.83	32.77
419.02	58.51
419.21	23.41
419.39	0.00
419.58	35.11
419.77	28.09
419.96	4.68
420.15	63.19
420.34	0.00
420.53	2.34
420.72	28.09
420.91	112.35
421.10	0.00
421.29	63.19
421.48	70.22
421.67	37.45
421.86	35.11
422.05	35.11
422.24	37.45
422.43	0.00
422.61	39.79
422.80	0.00
422.99	0.00
423.18	7.02
423.37	105.32
423.56	53.83
423.75	18.72
423.94	37.45
424.13	0.00
424.32	14.04
424.50	42.13
424.69	9.36
424.88	0.00
425.07	51.49
425.26	0.00
425.45	0.00
425.64	70.22
425.83	88.94
426.01	0.00
426.20	39.79
426.39	0.00
426.58	0.00
426.77	14.04
426.96	11.70
427.15	0.00
427.33	100.64
427.52	81.92
427.71	39.79
427.90	0.00
428.09	23.41
428.28	4.68
428.46	4.68
428.65	21.06
428.84	60.85
429.03	39.79
429.22	32.77
429.40	58.51
429.59	2.34
429.78	49.15
429.97	51.49
430.16	14.04
430.34	0.00
430.53	0.00
430.72	4.68
430.91	0.00
431.10	0.00
431.28	16.38
431.47	63.19
431.66	46.81
431.85	23.41
432.03	0.00
432.22	32.77
432.41	28.09
432.60	18.72
432.79	0.00
432.97	25.75
433.16	25.75
433.35	0.00
433.54	11.70
433.72	0.00
433.91	0.00
434.10	16.38
434.28	25.75
434.47	0.00
434.66	2.34
434.85	93.62
435.03	32.77
435.22	84.26
435.41	86.60
435.59	18.72
435.78	49.15
435.97	81.92
436.16	35.11
436.34	0.00
436.53	11.70
436.72	0.00
436.90	25.75
437.09	32.77
437.28	84.26
437.46	0.00
437.65	0.00
437.84	28.09
438.02	32.77
438.21	32.77
438.40	21.06
438.58	58.51
438.77	32.77
438.96	35.11
439.14	81.92
439.33	46.81
439.52	23.41
439.70	0.00
439.89	86.60
440.08	37.45
440.26	53.83
440.45	18.72
440.63	4.68
440.82	28.09
441.01	0.00
441.19	44.47
441.38	37.45
441.57	4.68
441.75	65.54
441.94	60.85
442.12	53.83
442.31	16.38
442.50	105.32
442.68	53.83
442.87	46.81
443.05	21.06
443.24	30.43
443.43	0.00
443.61	21.06
443.80	30.43
443.98	9.36
444.17	9.36
444.35	0.00
444.54	0.00
444.73	86.60
444.91	0.00
445.10	88.94
445.28	35.11
445.47	23.41
445.65	30.43
445.84	79.58
446.02	63.19
446.21	95.96
446.39	88.94
446.58	81.92
446.77	21.06
446.95	9.36
447.14	30.43
447.32	42.13
447.51	18.72
447.69	11.70
447.88	25.75
448.06	77.24
448.25	53.83
448.43	56.17
448.62	56.17
448.80	37.45
448.99	21.06
449.17	0.00
449.36	42.13
449.54	53.83
449.73	77.24
449.91	28.09
450.10	14.04
450.28	23.41
450.46	14.04
450.65	77.24
450.83	112.35
451.02	14.04
451.20	35.11
451.39	23.41
451.57	4.68
451.76	77.24
451.94	95.96
452.13	60.85
452.31	49.15
452.49	112.35
452.68	0.00
452.86	95.96
453.05	77.24
453.23	25.75
453.42	0.00
453.60	14.04
453.78	35.11
453.97	0.00
454.15	0.00
454.34	44.47
454.52	18.72
454.70	4.68
454.89	0.00
455.07	2.34
455.26	72.56
455.44	14.04
455.62	28.09
455.81	0.00
455.99	100.64
456.17	44.47
456.36	70.22
456.54	28.09
456.73	60.85
456.91	72.56
457.09	0.00
457.28	56.17
457.46	46.81
457.64	30.43
457.83	98.30
458.01	63.19
458.19	100.64
458.38	30.43
458.56	35.11
458.74	86.60
458.93	88.94
459.11	30.43
459.29	0.00
459.48	65.54
459.66	0.00
459.84	0.00
460.03	39.79
460.21	0.00
460.39	42.13
460.57	0.00
460.76	39.79
460.94	4.68
461.12	0.00
461.31	32.77
461.49	23.41
461.67	0.00
461.85	0.00
462.04	42.13
462.22	51.49
462.40	37.45
462.59	35.11
462.77	56.17
462.95	16.38
463.13	35.11
463.32	11.70
463.50	0.00
463.68	39.79
463.86	16.38
464.05	28.09
464.23	30.43
464.41	35.11
464.59	39.79
464.78	56.17
464.96	0.00
465.14	65.54
465.32	72.56
465.50	72.56
465.69	65.54
465.87	107.66
466.05	84.26
466.23	0.00
466.41	0.00
466.60	42.13
466.78	42.13
466.96	0.00
467.14	37.45
467.32	98.30
467.51	53.83
467.69	32.77
467.87	42.13
468.05	63.19
468.23	18.72
468.41	93.62
468.60	0.00
468.78	49.15
468.96	35.11
469.14	21.06
469.32	0.00
469.50	0.00
469.69	35.11
469.87	18.72
470.05	0.00
470.23	16.38
470.41	0.00
470.59	0.00
470.77	30.43
470.95	14.04
471.14	30.43
471.32	67.88
471.50	0.00
471.68	49.15
471.86	77.24
472.04	25.75
472.22	11.70
472.40	100.64
472.58	51.49
472.77	51.49
472.95	46.81
473.13	58.51
473.31	88.94
473.49	0.00
473.67	4.68
473.85	84.26
474.03	32.77
474.21	0.00
474.39	98.30
474.57	49.15
474.75	9.36
474.93	16.38
475.12	51.49
475.30	25.75
475.48	49.15
475.66	7.02
475.84	28.09
476.02	39.79
476.20	58.51
476.38	114.69
476.56	25.75
476.74	56.17
476.92	86.60
477.10	21.06
477.28	58.51
477.46	21.06
477.64	28.09
477.82	56.17
478.00	18.72
478.18	0.00
478.36	81.92
478.54	65.54
478.72	93.62
478.90	30.43
479.08	37.45
479.26	0.00
479.44	49.15
479.62	16.38
479.80	51.49
479.98	91.28
480.16	81.92
480.34	0.00
480.52	0.00
480.70	91.28
480.88	30.43
481.06	0.00
481.24	4.68
481.41	0.00
481.59	44.47
481.77	21.06
481.95	2.34
482.13	0.00
482.31	30.43
482.49	58.51
482.67	84.26
482.85	60.85
483.03	56.17
483.21	25.75
483.39	53.83
483.57	63.19
483.74	25.75
483.92	39.79
484.10	0.00
484.28	0.00
484.46	28.09
484.64	16.38
484.82	0.00
485.00	25.75
485.18	0.00
485.35	0.00
485.53	11.70
485.71	7.02
485.89	0.00
486.07	46.81
486.25	0.00
486.43	0.00
486.61	138.09
486.78	46.81
486.96	44.47
487.14	79.58
487.32	9.36
487.50	0.00
487.68	7.02
487.85	0.00
488.03	84.26
488.21	53.83
488.39	56.17
488.57	65.54
488.75	88.94
488.92	4.68
489.10	49.15
489.28	51.49
489.46	44.47
489.64	39.79
489.81	56.17
489.99	35.11
490.17	0.00
490.35	138.09
490.53	16.38
490.70	11.70
490.88	25.75
491.06	51.49
491.24	77.24
491.41	25.75
491.59	0.00
491.77	32.77
491.95	39.79
492.13	67.88
492.30	77.24
492.48	0.00
492.66	126.39
492.84	0.00
493.01	77.24
493.19	16.38
493.37	14.04
493.54	67.88
493.72	110.01
493.90	4.68
494.08	0.00
494.25	46.81
494.43	72.56
494.61	0.00
494.79	30.43
494.96	65.54
495.14	70.22
495.32	11.70
495.49	30.43
495.67	16.38
495.85	56.17
496.02	0.00
496.20	63.19
496.38	42.13
496.55	25.75
496.73	2.34
496.91	21.06
497.09	11.70
497.26	0.00
497.44	88.94
497.62	32.77
497.79	0.00
497.97	0.00
498.14	18.72
498.32	0.00
498.50	39.79
498.67	65.54
498.85	28.09
499.03	65.54
499.20	51.49
499.38	56.17
499.56	2.34
499.73	35.11
499.91	65.54
500.08	16.38
500.26	100.64
500.44	23.41
500.61	25.75
500.79	28.09
500.97	63.19
501.14	0.00
501.32	88.94
501.49	21.06
501.67	51.49
501.84	28.09
502.02	0.00
502.20	30.43
502.37	86.60
502.55	0.00
502.72	44.47
502.90	49.15
503.07	102.98
503.25	107.66
503.43	23.41
503.60	84.26
503.78	84.26
503.95	74.90
504.13	30.43
504.30	42.13
504.48	77.24
504.65	39.79
504.83	0.00
505.01	14.04
505.18	81.92
505.36	18.72
505.53	46.81
505.71	65.54
505.88	91.28
506.06	18.72
506.23	9.36
506.41	32.77
506.58	51.49
506.76	9.36
506.93	0.00
507.11	21.06
507.28	25.75
507.46	53.83
507.63	53.83
507.81	84.26
507.98	9.36
508.16	0.00
508.33	63.19
508.50	39.79
508.68	39.79
508.85	44.47
509.03	102.98
509.20	81.92
509.38	79.58
509.55	88.94
509.73	14.04
509.90	93.62
510.08	60.85
510.25	23.41
510.42	51.49
510.60	7.02
510.77	100.64
510.95	44.47
511.12	105.32
511.30	32.77
511.47	4.68
511.64	18.72
511.82	107.66
511.99	88.94
512.17	30.43
512.34	4.68
512.51	18.72
512.69	65.54
512.86	91.28
513.04	11.70
513.21	30.43
513.38	67.88
513.56	56.17
513.73	65.54
513.90	39.79
514.08	79.58
514.25	65.54
514.43	93.62
514.60	37.45
514.77	16.38
514.95	49.15
515.12	0.00
515.29	79.58
515.47	91.28
515.64	72.56
515.81	0.00
515.99	70.22
516.16	70.22
516.33	37.45
516.51	0.00
516.68	105.32
516.85	23.41
517.03	70.22
517.20	56.17
517.37	63.19
517.54	30.43
517.72	42.13
517.89	11.70
518.06	46.81
518.24	28.09
518.41	14.04
518.58	16.38
518.75	39.79
518.93	60.85
519.10	35.11
519.27	84.26
519.45	65.54
519.62	11.70
519.79	63.19
519.96	32.77
520.14	63.19
520.31	23.41
520.48	42.13
520.65	86.60
520.83	4.68
521.00	39.79
521.17	100.64
521.34	60.85
521.52	42.13
521.69	72.56
521.86	95.96
522.03	107.66
522.20	93.62
522.38	70.22
522.55	0.00
522.72	60.85
522.89	16.38
523.07	98.30
523.24	44.47
523.41	21.06
523.58	16.38
523.75	74.90
523.92	28.09
524.10	9.36
524.27	39.79
524.44	77.24
524.61	86.60
524.78	4.68
524.96	0.00
525.13	37.45
525.30	72.56
525.47	42.13
525.64	0.00
525.81	0.00
525.98	49.15
526.16	56.17
526.33	98.30
526.50	67.88
526.67	58.51
526.84	0.00
527.01	0.00
527.18	0.00
527.36	42.13
527.53	60.85
527.70	72.56
527.87	37.45
528.04	35.11
528.21	0.00
528.38	60.85
528.55	0.00
528.72	39.79
528.89	0.00
529.07	28.09
529.24	86.60
529.41	25.75
529.58	7.02
529.75	37.45
529.92	11.70
530.09	4.68
530.26	67.88
530.43	112.35
530.60	53.83
530.77	0.00
530.94	18.72
531.11	0.00
531.28	23.41
531.46	53.83
531.63	70.22
531.80	60.85
531.97	72.56
532.14	56.17
532.31	42.13
532.48	56.17
532.65	74.90
532.82	30.43
532.99	0.00
533.16	67.88
533.33	0.00
533.50	58.51
533.67	23.41
533.84	81.92
534.01	84.26
534.18	72.56
534.35	72.56
534.52	11.70
534.69	51.49
534.86	44.47
535.03	0.00
535.20	21.06
535.37	32.77
535.54	37.45
535.71	0.00
535.88	84.26
536.05	23.41
536.22	0.00
536.38	0.00
536.55	16.38
536.72	0.00
536.89	63.19
537.06	32.77
537.23	74.90
537.40	42.13
537.57	126.39
537.74	16.38
537.91	0.00
538.08	0.00
538.25	2.34
538.42	11.70
538.59	0.00
538.75	63.19
538.92	42.13
539.09	70.22
539.26	110.01
539.43	2.34
539.60	107.66
539.77	152.13
539.94	88.94
540.11	53.83
540.28	37.45
540.44	65.54
540.61	18.72
540.78	74.90
540.95	0.00
541.12	7.02
541.29	93.62
541.46	4.68
541.62	49.15
541.79	72.56
541.96	25.75
542.13	60.85
542.30	28.09
542.47	16.38
542.63	100.64
542.80	4.68
542.97	32.77
543.14	0.00
543.31	84.26
543.48	35.11
543.64	9.36
543.81	74.90
543.98	35.11
544.15	9.36
544.32	0.00
544.48	72.56
544.65	95.96
544.82	100.64
544.99	114.69
545.16	70.22
545.32	7.02
545.49	77.24
545.66	67.88
545.83	67.88
546.00	4.68
546.16	16.38
546.33	51.49
546.50	28.09
546.67	44.47
546.83	25.75
547.00	16.38
547.17	79.58
547.34	49.15
547.50	65.54
547.67	25.75
547.84	44.47
548.00	44.47
548.17	51.49
548.34	56.17
548.51	51.49
548.67	53.83
548.84	0.00
549.01	14.04
549.18	74.90
549.34	95.96
549.51	0.00
549.68	30.43
549.84	51.49
550.01	51.49
550.18	53.83
550.34	110.01
550.51	35.11
550.68	63.19
550.84	100.64
551.01	21.06
551.18	14.04
551.34	7.02
551.51	0.00
551.68	9.36
551.84	11.70
552.01	0.00
552.18	98.30
552.34	70.22
552.51	9.36
552.68	4.68
552.84	39.79
553.01	44.47
553.18	63.19
553.34	0.00
553.51	39.79
553.67	28.09
553.84	60.85
554.01	0.00
554.17	21.06
554.34	11.70
554.51	37.45
554.67	0.00
554.84	51.49
555.00	44.47
555.17	0.00
555.33	37.45
555.50	0.00
555.67	93.62
555.83	23.41
556.00	2.34
556.16	42.13
556.33	18.72
556.50	81.92
556.66	105.32
556.83	67.88
556.99	53.83
557.16	63.19
557.32	23.41
557.49	56.17
557.65	107.66
557.82	58.51
557.98	7.02
558.15	60.85
558.32	30.43
558.48	0.00
558.65	30.43
558.81	42.13
558.98	49.15
559.14	56.17
559.31	79.58
559.47	32.77
559.64	46.81
559.80	53.83
559.97	0.00
560.13	46.81
560.30	95.96
560.46	18.72
560.63	35.11
560.79	100.64
560.96	30.43
561.12	32.77
561.29	0.00
561.45	14.04
561.61	0.00
561.78	93.62
561.94	56.17
562.11	0.00
562.27	0.00
562.44	0.00
562.60	7.02
562.77	14.04
562.93	51.49
563.10	0.00
563.26	74.90
563.42	28.09
563.59	21.06
563.75	35.11
563.92	0.00
564.08	0.00
564.24	0.00
564.41	67.88
564.57	56.17
564.74	93.62
564.90	0.00
565.07	51.49
565.23	0.00
565.39	30.43
565.56	56.17
565.72	0.00
565.88	0.00
566.05	67.88
566.21	23.41
566.38	4.68
566.54	9.36
566.70	39.79
566.87	21.06
567.03	0.00
567.19	0.00
567.36	74.90
567.52	11.70
567.68	63.19
567.85	39.79
568.01	42.13
568.17	23.41
568.34	65.54
568.50	67.88
568.66	9.36
568.83	23.41
568.99	58.51
569.15	46.81
569.32	30.43
569.48	51.49
569.64	0.00
569.81	0.00
569.97	107.66
570.13	44.47
570.30	102.98
570.46	32.77
570.62	23.41
570.78	23.41
570.95	42.13
571.11	0.00
571.27	4.68
571.43	91.28
571.60	53.83
571.76	110.01
571.92	72.56
572.09	7.02
572.25	0.00
572.41	93.62
572.57	37.45
572.74	35.11
572.90	79.58
573.06	98.30
573.22	56.17
573.38	65.54
573.55	44.47
573.71	77.24
573.87	65.54
574.03	9.36
574.20	35.11
574.36	39.79
574.52	14.04
574.68	81.92
574.84	105.32
575.01	88.94
575.17	110.01
575.33	0.00
575.49	35.11
575.65	37.45
575.82	37.45
575.98	77.24
576.14	98.30
576.30	128.73
576.46	86.60
576.62	86.60
576.79	117.03
576.95	25.75
577.11	95.96
577.27	53.83
577.43	28.09
577.59	39.79
577.75	51.49
577.92	16.38
578.08	107.66
578.24	65.54
578.40	81.92
578.56	119.37
578.72	72.56
578.88	28.09
579.04	93.62
579.21	56.17
579.37	9.36
579.53	88.94
579.69	0.00
579.85	74.90
580.01	86.60
580.17	14.04
580.33	16.38
580.49	2.34
580.65	100.64
580.82	114.69
580.98	79.58
581.14	74.90
581.30	107.66
581.46	51.49
581.62	23.41
581.78	30.43
581.94	25.75
582.10	67.88
582.26	95.96
582.42	105.32
582.58	100.64
582.74	23.41
582.90	30.43
583.06	46.81
583.22	2.34
583.38	74.90
583.54	0.00
583.70	51.49
583.86	70.22
584.02	28.09
584.18	51.49
584.34	102.98
584.50	318.31
584.66	1708.59
584.82	4177.86
584.98	5654.73
585.14	4950.23
585.30	3321.22
585.46	1968.39
585.62	1217.08
585.78	587.47
585.94	285.55
586.10	138.09
586.26	67.88
586.42	39.79
586.58	49.15
586.74	114.69
586.90	140.43
587.06	93.62
587.22	140.43
587.38	84.26
587.54	133.41
587.70	245.76
587.86	414.27
588.02	498.53
588.18	346.40
588.34	180.22
588.49	131.07
588.65	154.48
588.81	81.92
588.97	0.00
589.13	25.75
589.29	4.68
589.45	46.81
589.61	112.35
589.77	65.54
589.93	16.38
590.08	35.11
590.24	110.01
590.40	0.00
590.56	72.56
590.72	0.00
590.88	51.49
591.04	100.64
591.20	67.88
591.35	56.17
591.51	67.88
591.67	67.88
591.83	0.00
591.99	7.02
592.15	0.00
592.31	30.43
592.46	77.24
592.62	84.26
592.78	51.49
592.94	105.32
593.10	23.41
593.26	2.34
593.41	0.00
593.57	58.51
593.73	91.28
593.89	191.92
594.05	575.77
594.20	760.67
594.36	688.12
594.52	461.09
594.68	229.37
594.84	245.76
594.99	166.18
595.15	91.28
595.31	0.00
595.47	11.70
595.62	37.45
595.78	25.75
595.94	98.30
596.10	74.90
596.25	30.43
596.41	44.47
596.57	42.13
596.73	0.00
596.88	105.32
597.04	124.05
597.20	196.60
597.36	215.33
597.51	128.73
597.67	107.66
597.83	135.75
597.99	72.56
598.14	0.00
598.30	11.70
598.46	58.51
598.61	11.70
598.77	0.00
598.93	37.45
599.09	53.83
599.24	32.77
599.40	74.90
599.56	18.72
599.71	77.24
599.87	46.81
600.03	30.43
600.18	0.00
600.34	105.32
600.50	51.49
600.65	2.34
600.81	25.75
600.97	58.51
601.12	67.88
601.28	0.00
601.44	28.09
601.59	95.96
601.75	18.72
601.91	28.09
602.06	16.38
602.22	4.68
602.37	16.38
602.53	117.03
602.69	205.97
602.84	194.26
603.00	184.90
603.16	98.30
603.31	58.51
603.47	70.22
603.62	74.90
603.78	121.71
603.94	0.00
604.09	58.51
604.25	32.77
604.40	37.45
604.56	44.47
604.71	0.00
604.87	88.94
605.03	98.30
605.18	30.43
605.34	81.92
605.49	51.49
605.65	51.49
605.80	14.04
605.96	65.54
606.12	7.02
606.27	0.00
606.43	119.37
606.58	35.11
606.74	9.36
606.89	294.91
607.05	550.03
607.20	547.69
607.36	517.26
607.51	348.74
607.67	227.03
607.82	198.95
607.98	149.79
608.13	95.96
608.29	32.77
608.44	102.98
608.60	63.19
608.75	128.73
608.91	131.07
609.06	435.34
609.22	767.70
609.37	1102.39
609.53	905.79
609.68	704.50
609.84	519.60
609.99	285.55
610.15	166.18
610.30	42.13
610.46	51.49
610.61	16.38
610.76	56.17
610.92	60.85
611.07	72.56
611.23	60.85
611.38	18.72
611.54	77.24
611.69	72.56
611.84	7.02
612.00	4.68
612.15	0.00
612.31	100.64
612.46	77.24
612.62	105.32
612.77	72.56
612.92	88.94
613.08	93.62
613.23	51.49
613.39	58.51
613.54	133.41
613.69	416.62
613.85	1074.31
614.00	1554.12
614.15	1778.81
614.31	1233.46
614.46	844.93
614.62	543.00
614.77	360.44
614.92	138.09
615.08	77.24
615.23	60.85
615.38	11.70
615.54	84.26
615.69	112.35
615.84	215.33
616.00	404.91
616.15	454.06
616.30	365.12
616.46	222.35
616.61	201.29
616.76	175.54
616.92	117.03
617.07	0.00
617.22	63.19
617.37	0.00
617.53	25.75
617.68	23.41
617.83	42.13
617.99	56.17
618.14	30.43
618.29	23.41
618.45	37.45
618.60	21.06
618.75	67.88
618.90	53.83
619.06	42.13
619.21	2.34
619.36	32.77
619.51	14.04
619.67	95.96
619.82	42.13
619.97	0.00
620.12	0.00
620.28	4.68
620.43	77.24
620.58	0.00
620.73	32.77
620.89	39.79
621.04	37.45
621.19	84.26
621.34	180.22
621.49	287.89
621.65	311.29
621.80	180.22
621.95	152.13
622.10	168.52
622.25	138.09
622.41	53.83
622.56	30.43
622.71	0.00
622.86	56.17
623.01	0.00
623.16	49.15
623.32	4.68
623.47	72.56
623.62	98.30
623.77	67.88
623.92	23.41
624.07	70.22
624.23	37.45
624.38	7.02
624.53	51.49
624.68	63.19
624.83	65.54
624.98	0.00
625.13	60.85
625.29	44.47
625.44	42.13
625.59	23.41
625.74	11.70
625.89	56.17
626.04	159.16
626.19	540.66
626.34	894.08
626.49	968.98
626.65	709.18
626.80	397.89
626.95	320.65
627.10	262.14
627.25	117.03
627.40	58.51
627.55	25.75
627.70	0.00
627.85	46.81
628.00	58.51
628.15	0.00
628.30	28.09
628.45	72.56
628.60	39.79
628.76	21.06
628.91	74.90
629.06	0.00
629.21	35.11
629.36	49.15
629.51	42.13
629.66	0.00
629.81	56.17
629.96	112.35
630.11	236.39
630.26	292.57
630.41	271.50
630.56	187.24
630.71	142.77
630.86	81.92
631.01	28.09
631.16	39.79
631.31	100.64
631.46	0.00
631.61	63.19
631.76	86.60
631.91	30.43
632.06	21.06
632.21	84.26
632.36	107.66
632.51	53.83
632.66	14.04
632.81	100.64
632.96	348.74
633.10	533.64
633.25	650.67
633.40	456.40
633.55	337.04
633.70	212.99
633.85	201.29
634.00	74.90
634.15	11.70
634.30	25.75
634.45	39.79
634.60	65.54
634.75	0.00
634.90	42.13
635.05	30.43
635.19	30.43
635.34	35.11
635.49	44.47
635.64	49.15
635.79	60.85
635.94	67.88
636.09	77.24
636.24	0.00
636.39	2.34
636.53	0.00
636.68	28.09
636.83	16.38
636.98	30.43
637.13	77.24
637.28	93.62
637.43	37.45
637.57	7.02
637.72	259.80
637.87	732.59
638.02	1008.77
638.17	1130.48
638.32	875.36
638.46	571.09
638.61	407.25
638.76	269.16
638.91	166.18
639.06	163.84
639.20	95.96
639.35	7.02
639.50	63.19
639.65	407.25
639.80	1062.60
639.94	1664.12
640.09	1734.34
640.24	1345.81
640.39	933.87
640.54	631.94
640.68	374.49
640.83	208.31
640.98	110.01
641.13	58.51
641.27	102.98
641.42	0.00
641.57	46.81
641.72	32.77
641.86	51.49
642.01	23.41
642.16	91.28
642.31	35.11
642.45	0.00
642.60	72.56
642.75	51.49
642.90	67.88
643.04	16.38
643.19	7.02
643.34	0.00
643.48	46.81
643.63	21.06
643.78	63.19
643.93	0.00
644.07	32.77
644.22	46.81
644.37	65.54
644.51	46.81
644.66	49.15
644.81	28.09
644.95	21.06
645.10	0.00
645.25	0.00
645.39	0.00
645.54	98.30
645.69	72.56
645.83	77.24
645.98	110.01
646.13	2.34
646.27	0.00
646.42	32.77
646.57	28.09
646.71	56.17
646.86	23.41
647.00	46.81
647.15	58.51
647.30	7.02
647.44	0.00
647.59	51.49
647.74	51.49
647.88	51.49
648.03	16.38
648.17	11.70
648.32	84.26
648.47	49.15
648.61	98.30
648.76	0.00
648.90	81.92
649.05	95.96
649.20	37.45
649.34	65.54
649.49	74.90
649.63	58.51
649.78	42.13
649.92	145.11
650.07	166.18
650.21	463.43
650.36	760.67
650.51	943.24
650.65	788.76
650.80	601.52
650.94	388.53
651.09	241.08
651.23	114.69
651.38	124.05
651.52	128.73
651.67	60.85
651.81	63.19
651.96	0.00
652.10	9.36
652.25	91.28
652.39	25.75
652.54	39.79
652.68	140.43
652.83	262.14
652.97	238.73
653.12	390.87
653.26	287.89
653.41	198.95
653.55	161.50
653.70	98.30
653.84	112.35
653.99	72.56
654.13	25.75
654.27	35.11
654.42	0.00
654.56	70.22
654.71	32.77
654.85	107.66
655.00	35.11
655.14	23.41
655.29	98.30
655.43	14.04
655.57	91.28
655.72	23.41
655.86	110.01
656.01	51.49
656.15	79.58
656.30	25.75
656.44	14.04
656.58	21.06
656.73	0.00
656.87	7.02
657.01	58.51
657.16	49.15
657.30	102.98
657.45	112.35
657.59	0.00
657.73	9.36
657.88	28.09
658.02	37.45
658.16	56.17
658.31	112.35
658.45	42.13
658.60	21.06
658.74	58.51
658.88	81.92
659.03	44.47
659.17	95.96
659.31	121.71
659.46	271.50
659.60	416.62
659.74	491.51
659.89	447.04
660.03	339.38
660.17	266.82
660.32	154.48
660.46	93.62
660.60	119.37
660.74	63.19
660.89	35.11
661.03	2.34
661.17	67.88
661.32	32.77
661.46	0.00
661.60	30.43
661.74	0.00
661.89	0.00
662.03	56.17
662.17	56.17
662.31	58.51
662.46	53.83
662.60	53.83
662.74	135.75
662.88	39.79
663.03	63.19
663.17	0.00
663.31	0.00
663.45	28.09
663.60	37.45
663.74	21.06
663.88	0.00
664.02	0.00
664.17	14.04
664.31	51.49
664.45	0.00
664.59	14.04
664.73	79.58
664.88	11.70
665.02	0.00
665.16	93.62
665.30	37.45
665.44	0.00
665.59	63.19
665.73	0.00
665.87	91.28
666.01	72.56
666.15	23.41
666.29	67.88
666.44	91.28
666.58	49.15
666.72	58.51
666.86	28.09
667.00	58.51
667.14	53.83
667.28	121.71
667.43	440.02
667.57	627.26
667.71	791.10
667.85	730.25
667.99	489.17
668.13	348.74
668.27	210.65
668.41	187.24
668.56	105.32
668.70	11.70
668.84	23.41
668.98	37.45
669.12	56.17
669.26	60.85
669.40	70.22
669.54	18.72
669.68	60.85
669.82	42.13
669.96	51.49
670.10	0.00
670.25	35.11
670.39	16.38
670.53	0.00
670.67	0.00
670.81	58.51
670.95	46.81
671.09	65.54
671.23	217.67
671.37	311.29
671.51	437.68
671.65	510.24
671.79	421.30
671.93	344.06
672.07	170.86
672.21	74.90
672.35	32.77
672.49	110.01
672.63	107.66
672.77	18.72
672.91	35.11
673.05	39.79
673.19	98.30
673.33	74.90
673.47	35.11
673.61	46.81
673.75	21.06
673.89	4.68
674.03	93.62
674.17	32.77
674.31	49.15
674.45	49.15
674.59	11.70
674.73	67.88
674.87	105.32
675.01	9.36
675.15	72.56
675.29	11.70
675.43	11.70
675.56	42.13
675.70	11.70
675.84	0.00
675.98	0.00
676.12	18.72
676.26	74.90
676.40	84.26
676.54	65.54
676.68	91.28
676.82	23.41
676.96	53.83
677.10	0.00
677.23	70.22
677.37	42.13
677.51	0.00
677.65	37.45
677.79	0.00
677.93	0.00
678.07	23.41
678.21	72.56
678.34	28.09
678.48	25.75
678.62	161.50
678.76	18.72
678.90	70.22
679.04	88.94
679.18	107.66
679.31	110.01
679.45	11.70
679.59	0.00
679.73	67.88
679.87	32.77
680.00	0.00
680.14	0.00
680.28	39.79
680.42	53.83
680.56	46.81
680.70	0.00
680.83	119.37
680.97	4.68
681.11	42.13
681.25	23.41
681.39	11.70
681.52	0.00
681.66	37.45
681.80	42.13
681.94	0.00
682.07	21.06
682.21	9.36
682.35	51.49
682.49	51.49
682.62	42.13
682.76	18.72
682.90	84.26
683.04	56.17
683.17	42.13
683.31	0.00
683.45	53.83
683.59	0.00
683.72	91.28
683.86	23.41
684.00	32.77
684.13	91.28
684.27	46.81
684.41	100.64
684.55	14.04
684.68	0.00
684.82	21.06
684.96	58.51
685.09	84.26
685.23	98.30
685.37	81.92
685.50	21.06
685.64	58.51
685.78	0.00
685.91	42.13
686.05	4.68
686.19	35.11
686.32	46.81
686.46	67.88
686.60	49.15
686.73	25.75
686.87	49.15
687.01	81.92
687.14	51.49
687.28	44.47
687.42	86.60
687.55	77.24
687.69	58.51
687.82	44.47
687.96	56.17
688.10	107.66
688.23	56.17
688.37	46.81
688.50	35.11
688.64	102.98
688.78	35.11
688.91	11.70
689.05	110.01
689.18	9.36
689.32	0.00
689.46	46.81
689.59	0.00
689.73	39.79
689.86	14.04
690.00	16.38
690.13	21.06
690.27	56.17
690.41	7.02
690.54	42.13
690.68	11.70
690.81	65.54
690.95	79.58
691.08	86.60
691.22	28.09
691.35	28.09
691.49	0.00
691.62	25.75
691.76	79.58
691.89	58.51
692.03	117.03
692.16	63.19
692.30	14.04
692.43	121.71
692.57	194.26
692.70	231.71
692.84	276.18
692.97	397.89
693.11	320.65
693.24	187.24
693.38	168.52
693.51	32.77
693.65	72.56
693.78	58.51
693.92	86.60
694.05	0.00
694.19	4.68
694.32	16.38
694.45	0.00
694.59	39.79
694.72	91.28
694.86	93.62
694.99	93.62
695.13	32.77
695.26	91.28
695.39	0.00
695.53	0.00
695.66	124.05
695.80	49.15
695.93	0.00
696.07	46.81
696.20	14.04
696.33	84.26
696.47	14.04
696.60	44.47
696.73	35.11
696.87	60.85
697.00	0.00
697.14	0.00
697.27	37.45
697.40	37.45
697.54	39.79
697.67	46.81
697.80	0.00
697.94	42.13
698.07	35.11
698.21	93.62
698.34	65.54
698.47	0.00
698.61	2.34
698.74	0.00
698.87	25.75
699.01	0.00
699.14	46.81
699.27	49.15
699.40	42.13
699.54	74.90
699.67	32.77
699.80	0.00
699.94	35.11
700.07	42.13
700.20	39.79
700.34	37.45
700.47	51.49
700.60	7.02
700.73	16.38
700.87	51.49
701.00	25.75
701.13	0.00
701.26	63.19
701.40	79.58
701.53	86.60
701.66	16.38
701.79	0.00
701.93	0.00
702.06	65.54
702.19	81.92
702.32	95.96
702.46	0.00
702.59	42.13
702.72	107.66
702.85	189.58
702.99	444.70
703.12	596.84
703.25	692.80
703.38	568.75
703.51	510.24
703.65	386.19
703.78	299.59
703.91	135.75
704.04	63.19
704.17	138.09
704.31	11.70
704.44	72.56
704.57	58.51
704.70	7.02
704.83	102.98
704.96	60.85
705.10	14.04
705.23	28.09
>>>>>End Processed Spectral Data<<<<<
