SpectraSuite Data File
++++++++++++++++++++++++++++++++++++
Date: Fri Oct 04 12:13:36 GMT-05:00 2013
User: price-jones
Dark Spectrum Present: No
Reference Spectrum Present: No
Number of Sampled Component Spectra: 1
Spectrometers: USB2+H05261
Integration Time (usec): 10000 (USB2+H05261)
Spectra Averaged: 1 (USB2+H05261)
Boxcar Smoothing: 0 (USB2+H05261)
Correct for Electrical Dark: No (USB2+H05261)
Strobe/Lamp Enabled: No (USB2+H05261)
Correct for Detector Non-linearity: No (USB2+H05261)
Correct for Stray Light: No (USB2+H05261)
Number of Pixels in Processed Spectrum: 2048
>>>>>Begin Processed Spectral Data<<<<<
365.73	0.00
365.92	0.00
366.12	0.00
366.32	0.00
366.52	0.00
366.72	0.00
366.91	0.00
367.11	0.00
367.31	0.00
367.51	0.00
367.70	0.00
367.90	0.00
368.10	0.00
368.30	0.00
368.49	0.00
368.69	0.00
368.89	0.00
369.09	0.00
369.28	0.00
369.48	0.00
369.68	0.00
369.87	0.00
370.07	0.00
370.27	0.00
370.47	0.00
370.66	0.00
370.86	0.00
371.06	0.00
371.25	7.02
371.45	0.00
371.65	37.45
371.84	0.00
372.04	30.43
372.24	72.56
372.44	18.72
372.63	0.00
372.83	30.43
373.03	93.62
373.22	7.02
373.42	51.49
373.62	60.85
373.81	53.83
374.01	0.00
374.21	4.68
374.40	16.38
374.60	21.06
374.79	25.75
374.99	72.56
375.19	18.72
375.38	0.00
375.58	30.43
375.78	0.00
375.97	0.00
376.17	28.09
376.37	0.00
376.56	11.70
376.76	37.45
376.95	0.00
377.15	0.00
377.35	0.00
377.54	2.34
377.74	28.09
377.93	0.00
378.13	93.62
378.33	4.68
378.52	7.02
378.72	42.13
378.91	84.26
379.11	14.04
379.31	0.00
379.50	0.00
379.70	39.79
379.89	0.00
380.09	4.68
380.28	11.70
380.48	11.70
380.68	0.00
380.87	77.24
381.07	0.00
381.26	0.00
381.46	44.47
381.65	42.13
381.85	0.00
382.04	58.51
382.24	102.98
382.43	0.00
382.63	4.68
382.83	0.00
383.02	100.64
383.22	28.09
383.41	0.00
383.61	0.00
383.80	21.06
384.00	44.47
384.19	0.00
384.39	0.00
384.58	21.06
384.78	0.00
384.97	0.00
385.17	44.47
385.36	0.00
385.56	49.15
385.75	0.00
385.95	11.70
386.14	0.00
386.34	65.54
386.53	25.75
386.72	0.00
386.92	77.24
387.11	0.00
387.31	28.09
387.50	23.41
387.70	0.00
387.89	16.38
388.09	53.83
388.28	39.79
388.48	4.68
388.67	39.79
388.86	37.45
389.06	56.17
389.25	0.00
389.45	42.13
389.64	46.81
389.84	35.11
390.03	28.09
390.22	25.75
390.42	32.77
390.61	23.41
390.81	88.94
391.00	28.09
391.19	18.72
391.39	0.00
391.58	0.00
391.78	11.70
391.97	70.22
392.16	95.96
392.36	30.43
392.55	21.06
392.75	32.77
392.94	39.79
393.13	16.38
393.33	46.81
393.52	65.54
393.71	11.70
393.91	0.00
394.10	18.72
394.29	0.00
394.49	2.34
394.68	9.36
394.88	53.83
395.07	65.54
395.26	65.54
395.46	58.51
395.65	0.00
395.84	23.41
396.04	0.00
396.23	0.00
396.42	88.94
396.62	53.83
396.81	84.26
397.00	77.24
397.19	0.00
397.39	46.81
397.58	0.00
397.77	16.38
397.97	39.79
398.16	98.30
398.35	4.68
398.55	44.47
398.74	0.00
398.93	0.00
399.12	51.49
399.32	53.83
399.51	2.34
399.70	95.96
399.90	37.45
400.09	39.79
400.28	32.77
400.47	11.70
400.67	9.36
400.86	28.09
401.05	30.43
401.24	23.41
401.44	0.00
401.63	18.72
401.82	21.06
402.01	70.22
402.21	56.17
402.40	39.79
402.59	18.72
402.78	0.00
402.97	30.43
403.17	0.00
403.36	14.04
403.55	63.19
403.74	42.13
403.93	30.43
404.13	14.04
404.32	70.22
404.51	0.00
404.70	0.00
404.89	60.85
405.09	49.15
405.28	100.64
405.47	11.70
405.66	39.79
405.85	46.81
406.05	53.83
406.24	0.00
406.43	30.43
406.62	42.13
406.81	35.11
407.00	53.83
407.20	7.02
407.39	32.77
407.58	81.92
407.77	21.06
407.96	14.04
408.15	70.22
408.34	14.04
408.54	11.70
408.73	23.41
408.92	35.11
409.11	0.00
409.30	28.09
409.49	0.00
409.68	30.43
409.87	79.58
410.07	70.22
410.26	0.00
410.45	105.32
410.64	14.04
410.83	35.11
411.02	60.85
411.21	16.38
411.40	0.00
411.59	95.96
411.78	32.77
411.98	53.83
412.17	60.85
412.36	0.00
412.55	4.68
412.74	0.00
412.93	81.92
413.12	37.45
413.31	51.49
413.50	11.70
413.69	32.77
413.88	42.13
414.07	84.26
414.26	53.83
414.45	25.75
414.64	7.02
414.83	46.81
415.02	4.68
415.22	37.45
415.41	70.22
415.60	70.22
415.79	0.00
415.98	32.77
416.17	39.79
416.36	49.15
416.55	51.49
416.74	37.45
416.93	30.43
417.12	14.04
417.31	0.00
417.50	9.36
417.69	81.92
417.88	30.43
418.07	21.06
418.26	46.81
418.45	0.00
418.64	39.79
418.83	110.01
419.02	93.62
419.21	32.77
419.39	2.34
419.58	0.00
419.77	28.09
419.96	42.13
420.15	28.09
420.34	51.49
420.53	163.84
420.72	30.43
420.91	0.00
421.10	42.13
421.29	56.17
421.48	0.00
421.67	63.19
421.86	0.00
422.05	25.75
422.24	0.00
422.43	0.00
422.61	51.49
422.80	60.85
422.99	44.47
423.18	51.49
423.37	100.64
423.56	51.49
423.75	7.02
423.94	63.19
424.13	21.06
424.32	46.81
424.50	16.38
424.69	98.30
424.88	51.49
425.07	49.15
425.26	25.75
425.45	0.00
425.64	25.75
425.83	4.68
426.01	39.79
426.20	37.45
426.39	0.00
426.58	60.85
426.77	0.00
426.96	74.90
427.15	23.41
427.33	81.92
427.52	14.04
427.71	93.62
427.90	72.56
428.09	0.00
428.28	56.17
428.46	81.92
428.65	30.43
428.84	84.26
429.03	60.85
429.22	88.94
429.40	70.22
429.59	49.15
429.78	88.94
429.97	42.13
430.16	4.68
430.34	18.72
430.53	70.22
430.72	74.90
430.91	25.75
431.10	0.00
431.28	124.05
431.47	49.15
431.66	28.09
431.85	102.98
432.03	124.05
432.22	42.13
432.41	16.38
432.60	112.35
432.79	39.79
432.97	39.79
433.16	2.34
433.35	0.00
433.54	72.56
433.72	39.79
433.91	28.09
434.10	56.17
434.28	102.98
434.47	74.90
434.66	42.13
434.85	53.83
435.03	0.00
435.22	46.81
435.41	79.58
435.59	100.64
435.78	44.47
435.97	112.35
436.16	37.45
436.34	0.00
436.53	46.81
436.72	67.88
436.90	14.04
437.09	2.34
437.28	70.22
437.46	46.81
437.65	53.83
437.84	44.47
438.02	58.51
438.21	39.79
438.40	0.00
438.58	60.85
438.77	2.34
438.96	39.79
439.14	58.51
439.33	14.04
439.52	65.54
439.70	98.30
439.89	126.39
440.08	67.88
440.26	81.92
440.45	44.47
440.63	9.36
440.82	56.17
441.01	63.19
441.19	117.03
441.38	30.43
441.57	32.77
441.75	74.90
441.94	65.54
442.12	16.38
442.31	51.49
442.50	110.01
442.68	79.58
442.87	63.19
443.05	53.83
443.24	77.24
443.43	74.90
443.61	79.58
443.80	35.11
443.98	91.28
444.17	32.77
444.35	74.90
444.54	81.92
444.73	0.00
444.91	65.54
445.10	37.45
445.28	56.17
445.47	72.56
445.65	32.77
445.84	0.00
446.02	2.34
446.21	56.17
446.39	93.62
446.58	30.43
446.77	121.71
446.95	81.92
447.14	0.00
447.32	79.58
447.51	30.43
447.69	60.85
447.88	0.00
448.06	86.60
448.25	84.26
448.43	145.11
448.62	7.02
448.80	46.81
448.99	79.58
449.17	53.83
449.36	102.98
449.54	88.94
449.73	128.73
449.91	105.32
450.10	46.81
450.28	18.72
450.46	79.58
450.65	84.26
450.83	23.41
451.02	39.79
451.20	49.15
451.39	46.81
451.57	58.51
451.76	79.58
451.94	18.72
452.13	56.17
452.31	74.90
452.49	44.47
452.68	21.06
452.86	25.75
453.05	16.38
453.23	0.00
453.42	11.70
453.60	0.00
453.78	44.47
453.97	37.45
454.15	58.51
454.34	56.17
454.52	46.81
454.70	93.62
454.89	16.38
455.07	67.88
455.26	88.94
455.44	67.88
455.62	0.00
455.81	98.30
455.99	0.00
456.17	77.24
456.36	53.83
456.54	65.54
456.73	53.83
456.91	88.94
457.09	46.81
457.28	72.56
457.46	110.01
457.64	35.11
457.83	63.19
458.01	49.15
458.19	93.62
458.38	70.22
458.56	74.90
458.74	51.49
458.93	74.90
459.11	39.79
459.29	74.90
459.48	81.92
459.66	30.43
459.84	39.79
460.03	112.35
460.21	49.15
460.39	77.24
460.57	112.35
460.76	51.49
460.94	60.85
461.12	91.28
461.31	35.11
461.49	44.47
461.67	23.41
461.85	16.38
462.04	93.62
462.22	133.41
462.40	79.58
462.59	25.75
462.77	65.54
462.95	53.83
463.13	84.26
463.32	0.00
463.50	14.04
463.68	0.00
463.86	58.51
464.05	28.09
464.23	14.04
464.41	37.45
464.59	37.45
464.78	18.72
464.96	60.85
465.14	100.64
465.32	145.11
465.50	60.85
465.69	49.15
465.87	74.90
466.05	23.41
466.23	88.94
466.41	0.00
466.60	35.11
466.78	21.06
466.96	65.54
467.14	46.81
467.32	46.81
467.51	131.07
467.69	72.56
467.87	37.45
468.05	32.77
468.23	86.60
468.41	84.26
468.60	121.71
468.78	46.81
468.96	28.09
469.14	72.56
469.32	67.88
469.50	91.28
469.69	65.54
469.87	32.77
470.05	79.58
470.23	91.28
470.41	93.62
470.59	21.06
470.77	70.22
470.95	9.36
471.14	102.98
471.32	14.04
471.50	126.39
471.68	81.92
471.86	70.22
472.04	112.35
472.22	21.06
472.40	70.22
472.58	67.88
472.77	91.28
472.95	51.49
473.13	102.98
473.31	81.92
473.49	58.51
473.67	18.72
473.85	88.94
474.03	60.85
474.21	44.47
474.39	30.43
474.57	70.22
474.75	135.75
474.93	25.75
475.12	74.90
475.30	67.88
475.48	44.47
475.66	53.83
475.84	133.41
476.02	140.43
476.20	49.15
476.38	35.11
476.56	4.68
476.74	46.81
476.92	39.79
477.10	35.11
477.28	25.75
477.46	0.00
477.64	65.54
477.82	70.22
478.00	93.62
478.18	81.92
478.36	93.62
478.54	42.13
478.72	102.98
478.90	0.00
479.08	0.00
479.26	112.35
479.44	53.83
479.62	18.72
479.80	121.71
479.98	67.88
480.16	74.90
480.34	81.92
480.52	81.92
480.70	72.56
480.88	23.41
481.06	81.92
481.24	65.54
481.41	25.75
481.59	77.24
481.77	0.00
481.95	49.15
482.13	93.62
482.31	142.77
482.49	112.35
482.67	58.51
482.85	51.49
483.03	49.15
483.21	51.49
483.39	42.13
483.57	18.72
483.74	65.54
483.92	74.90
484.10	51.49
484.28	93.62
484.46	105.32
484.64	74.90
484.82	79.58
485.00	0.00
485.18	88.94
485.35	0.00
485.53	84.26
485.71	21.06
485.89	67.88
486.07	56.17
486.25	37.45
486.43	105.32
486.61	74.90
486.78	124.05
486.96	88.94
487.14	70.22
487.32	23.41
487.50	100.64
487.68	46.81
487.85	9.36
488.03	16.38
488.21	81.92
488.39	58.51
488.57	46.81
488.75	105.32
488.92	98.30
489.10	95.96
489.28	156.82
489.46	14.04
489.64	65.54
489.81	60.85
489.99	142.77
490.17	72.56
490.35	77.24
490.53	42.13
490.70	25.75
490.88	4.68
491.06	67.88
491.24	105.32
491.41	21.06
491.59	81.92
491.77	21.06
491.95	84.26
492.13	39.79
492.30	117.03
492.48	0.00
492.66	77.24
492.84	23.41
493.01	51.49
493.19	0.00
493.37	79.58
493.54	67.88
493.72	72.56
493.90	117.03
494.08	102.98
494.25	42.13
494.43	107.66
494.61	161.50
494.79	42.13
494.96	88.94
495.14	98.30
495.32	138.09
495.49	114.69
495.67	119.37
495.85	119.37
496.02	112.35
496.20	119.37
496.38	30.43
496.55	93.62
496.73	16.38
496.91	95.96
497.09	30.43
497.26	46.81
497.44	46.81
497.62	152.13
497.79	42.13
497.97	74.90
498.14	81.92
498.32	112.35
498.50	105.32
498.67	95.96
498.85	74.90
499.03	28.09
499.20	112.35
499.38	145.11
499.56	149.79
499.73	65.54
499.91	21.06
500.08	142.77
500.26	42.13
500.44	72.56
500.61	37.45
500.79	72.56
500.97	131.07
501.14	51.49
501.32	84.26
501.49	14.04
501.67	79.58
501.84	93.62
502.02	121.71
502.20	88.94
502.37	60.85
502.55	72.56
502.72	74.90
502.90	105.32
503.07	86.60
503.25	77.24
503.43	9.36
503.60	53.83
503.78	100.64
503.95	142.77
504.13	67.88
504.30	4.68
504.48	49.15
504.65	63.19
504.83	114.69
505.01	60.85
505.18	102.98
505.36	25.75
505.53	98.30
505.71	79.58
505.88	81.92
506.06	49.15
506.23	7.02
506.41	131.07
506.58	86.60
506.76	88.94
506.93	4.68
507.11	84.26
507.28	70.22
507.46	0.00
507.63	42.13
507.81	18.72
507.98	93.62
508.16	91.28
508.33	119.37
508.50	28.09
508.68	107.66
508.85	142.77
509.03	42.13
509.20	72.56
509.38	159.16
509.55	98.30
509.73	91.28
509.90	72.56
510.08	72.56
510.25	117.03
510.42	156.82
510.60	81.92
510.77	95.96
510.95	117.03
511.12	121.71
511.30	84.26
511.47	93.62
511.64	84.26
511.82	119.37
511.99	147.45
512.17	100.64
512.34	58.51
512.51	81.92
512.69	67.88
512.86	119.37
513.04	86.60
513.21	70.22
513.38	114.69
513.56	11.70
513.73	91.28
513.90	102.98
514.08	105.32
514.25	81.92
514.43	72.56
514.60	77.24
514.77	86.60
514.95	58.51
515.12	84.26
515.29	51.49
515.47	0.00
515.64	28.09
515.81	46.81
515.99	44.47
516.16	126.39
516.33	39.79
516.51	100.64
516.68	51.49
516.85	58.51
517.03	4.68
517.20	86.60
517.37	25.75
517.54	30.43
517.72	135.75
517.89	100.64
518.06	88.94
518.24	58.51
518.41	119.37
518.58	84.26
518.75	102.98
518.93	142.77
519.10	21.06
519.27	105.32
519.45	58.51
519.62	124.05
519.79	84.26
519.96	42.13
520.14	23.41
520.31	133.41
520.48	131.07
520.65	67.88
520.83	74.90
521.00	70.22
521.17	21.06
521.34	14.04
521.52	77.24
521.69	74.90
521.86	105.32
522.03	56.17
522.20	14.04
522.38	67.88
522.55	119.37
522.72	145.11
522.89	112.35
523.07	56.17
523.24	14.04
523.41	131.07
523.58	147.45
523.75	77.24
523.92	93.62
524.10	128.73
524.27	30.43
524.44	65.54
524.61	91.28
524.78	58.51
524.96	46.81
525.13	49.15
525.30	131.07
525.47	159.16
525.64	114.69
525.81	67.88
525.98	74.90
526.16	145.11
526.33	44.47
526.50	0.00
526.67	138.09
526.84	65.54
527.01	46.81
527.18	37.45
527.36	91.28
527.53	84.26
527.70	72.56
527.87	49.15
528.04	81.92
528.21	60.85
528.38	81.92
528.55	105.32
528.72	98.30
528.89	138.09
529.07	53.83
529.24	124.05
529.41	60.85
529.58	79.58
529.75	56.17
529.92	86.60
530.09	28.09
530.26	91.28
530.43	44.47
530.60	77.24
530.77	32.77
530.94	58.51
531.11	98.30
531.28	39.79
531.46	112.35
531.63	140.43
531.80	124.05
531.97	56.17
532.14	100.64
532.31	25.75
532.48	49.15
532.65	0.00
532.82	105.32
532.99	79.58
533.16	65.54
533.33	98.30
533.50	56.17
533.67	133.41
533.84	65.54
534.01	70.22
534.18	107.66
534.35	0.00
534.52	100.64
534.69	124.05
534.86	67.88
535.03	102.98
535.20	70.22
535.37	16.38
535.54	18.72
535.71	70.22
535.88	32.77
536.05	63.19
536.22	128.73
536.38	135.75
536.55	88.94
536.72	65.54
536.89	37.45
537.06	72.56
537.23	70.22
537.40	86.60
537.57	100.64
537.74	95.96
537.91	117.03
538.08	135.75
538.25	170.86
538.42	119.37
538.59	37.45
538.75	72.56
538.92	124.05
539.09	86.60
539.26	72.56
539.43	86.60
539.60	72.56
539.77	105.32
539.94	37.45
540.11	37.45
540.28	51.49
540.44	60.85
540.61	98.30
540.78	65.54
540.95	93.62
541.12	84.26
541.29	119.37
541.46	117.03
541.62	110.01
541.79	91.28
541.96	102.98
542.13	131.07
542.30	88.94
542.47	46.81
542.63	56.17
542.80	74.90
542.97	37.45
543.14	114.69
543.31	46.81
543.48	91.28
543.64	46.81
543.81	84.26
543.98	32.77
544.15	79.58
544.32	63.19
544.48	112.35
544.65	0.00
544.82	56.17
544.99	46.81
545.16	98.30
545.32	28.09
545.49	79.58
545.66	46.81
545.83	86.60
546.00	0.00
546.16	53.83
546.33	70.22
546.50	88.94
546.67	91.28
546.83	117.03
547.00	81.92
547.17	133.41
547.34	74.90
547.50	93.62
547.67	32.77
547.84	65.54
548.00	102.98
548.17	126.39
548.34	84.26
548.51	77.24
548.67	72.56
548.84	37.45
549.01	98.30
549.18	32.77
549.34	21.06
549.51	72.56
549.68	88.94
549.84	107.66
550.01	131.07
550.18	121.71
550.34	58.51
550.51	32.77
550.68	28.09
550.84	117.03
551.01	100.64
551.18	100.64
551.34	14.04
551.51	81.92
551.68	84.26
551.84	88.94
552.01	93.62
552.18	117.03
552.34	18.72
552.51	105.32
552.68	128.73
552.84	77.24
553.01	105.32
553.18	72.56
553.34	28.09
553.51	91.28
553.67	32.77
553.84	42.13
554.01	49.15
554.17	88.94
554.34	86.60
554.51	98.30
554.67	56.17
554.84	117.03
555.00	105.32
555.17	88.94
555.33	102.98
555.50	88.94
555.67	39.79
555.83	21.06
556.00	149.79
556.16	140.43
556.33	4.68
556.50	74.90
556.66	110.01
556.83	35.11
556.99	42.13
557.16	140.43
557.32	84.26
557.49	58.51
557.65	46.81
557.82	93.62
557.98	67.88
558.15	51.49
558.32	88.94
558.48	9.36
558.65	14.04
558.81	100.64
558.98	93.62
559.14	37.45
559.31	74.90
559.47	0.00
559.64	140.43
559.80	28.09
559.97	67.88
560.13	42.13
560.30	91.28
560.46	79.58
560.63	63.19
560.79	91.28
560.96	0.00
561.12	63.19
561.29	58.51
561.45	112.35
561.61	70.22
561.78	63.19
561.94	4.68
562.11	49.15
562.27	70.22
562.44	51.49
562.60	98.30
562.77	65.54
562.93	184.90
563.10	72.56
563.26	133.41
563.42	119.37
563.59	102.98
563.75	21.06
563.92	58.51
564.08	74.90
564.24	154.48
564.41	60.85
564.57	53.83
564.74	95.96
564.90	60.85
565.07	63.19
565.23	30.43
565.39	65.54
565.56	7.02
565.72	86.60
565.88	84.26
566.05	84.26
566.21	51.49
566.38	121.71
566.54	98.30
566.70	42.13
566.87	46.81
567.03	138.09
567.19	74.90
567.36	39.79
567.52	63.19
567.68	95.96
567.85	37.45
568.01	25.75
568.17	60.85
568.34	119.37
568.50	81.92
568.66	133.41
568.83	72.56
568.99	121.71
569.15	79.58
569.32	42.13
569.48	0.00
569.64	18.72
569.81	77.24
569.97	79.58
570.13	84.26
570.30	51.49
570.46	93.62
570.62	49.15
570.78	49.15
570.95	23.41
571.11	53.83
571.27	100.64
571.43	133.41
571.60	156.82
571.76	86.60
571.92	105.32
572.09	0.00
572.25	74.90
572.41	100.64
572.57	35.11
572.74	77.24
572.90	39.79
573.06	128.73
573.22	121.71
573.38	88.94
573.55	201.29
573.71	65.54
573.87	14.04
574.03	77.24
574.20	133.41
574.36	70.22
574.52	98.30
574.68	46.81
574.84	138.09
575.01	194.26
575.17	79.58
575.33	60.85
575.49	74.90
575.65	53.83
575.82	56.17
575.98	51.49
576.14	18.72
576.30	147.45
576.46	77.24
576.62	18.72
576.79	93.62
576.95	72.56
577.11	46.81
577.27	91.28
577.43	63.19
577.59	70.22
577.75	84.26
577.92	32.77
578.08	44.47
578.24	84.26
578.40	51.49
578.56	58.51
578.72	124.05
578.88	63.19
579.04	98.30
579.21	70.22
579.37	93.62
579.53	72.56
579.69	81.92
579.85	53.83
580.01	93.62
580.17	112.35
580.33	25.75
580.49	107.66
580.65	128.73
580.82	77.24
580.98	135.75
581.14	93.62
581.30	79.58
581.46	81.92
581.62	72.56
581.78	100.64
581.94	4.68
582.10	63.19
582.26	154.48
582.42	28.09
582.58	46.81
582.74	37.45
582.90	135.75
583.06	63.19
583.22	42.13
583.38	65.54
583.54	107.66
583.70	77.24
583.86	95.96
584.02	65.54
584.18	56.17
584.34	77.24
584.50	44.47
584.66	107.66
584.82	72.56
584.98	37.45
585.14	100.64
585.30	86.60
585.46	60.85
585.62	121.71
585.78	107.66
585.94	42.13
586.10	74.90
586.26	65.54
586.42	124.05
586.58	28.09
586.74	117.03
586.90	51.49
587.06	77.24
587.22	84.26
587.38	63.19
587.54	2.34
587.70	60.85
587.86	117.03
588.02	30.43
588.18	81.92
588.34	37.45
588.49	119.37
588.65	9.36
588.81	25.75
588.97	46.81
589.13	7.02
589.29	32.77
589.45	102.98
589.61	60.85
589.77	0.00
589.93	86.60
590.08	32.77
590.24	81.92
590.40	9.36
590.56	60.85
590.72	18.72
590.88	0.00
591.04	88.94
591.20	0.00
591.35	32.77
591.51	7.02
591.67	35.11
591.83	58.51
591.99	0.00
592.15	67.88
592.31	25.75
592.46	65.54
592.62	72.56
592.78	70.22
592.94	4.68
593.10	44.47
593.26	67.88
593.41	81.92
593.57	81.92
593.73	67.88
593.89	65.54
594.05	60.85
594.20	0.00
594.36	42.13
594.52	51.49
594.68	53.83
594.84	95.96
594.99	49.15
595.15	35.11
595.31	49.15
595.47	133.41
595.62	37.45
595.78	88.94
595.94	0.00
596.10	21.06
596.25	121.71
596.41	0.00
596.57	72.56
596.73	77.24
596.88	102.98
597.04	72.56
597.20	117.03
597.36	84.26
597.51	0.00
597.67	70.22
597.83	119.37
597.99	51.49
598.14	98.30
598.30	110.01
598.46	37.45
598.61	60.85
598.77	28.09
598.93	119.37
599.09	63.19
599.24	0.00
599.40	107.66
599.56	2.34
599.71	88.94
599.87	102.98
600.03	72.56
600.18	131.07
600.34	30.43
600.50	74.90
600.65	28.09
600.81	53.83
600.97	84.26
601.12	65.54
601.28	138.09
601.44	119.37
601.59	42.13
601.75	25.75
601.91	100.64
602.06	74.90
602.22	84.26
602.37	60.85
602.53	147.45
602.69	86.60
602.84	114.69
603.00	39.79
603.16	98.30
603.31	42.13
603.47	93.62
603.62	105.32
603.78	72.56
603.94	67.88
604.09	0.00
604.25	30.43
604.40	70.22
604.56	46.81
604.71	37.45
604.87	35.11
605.03	56.17
605.18	105.32
605.34	81.92
605.49	102.98
605.65	63.19
605.80	77.24
605.96	142.77
606.12	70.22
606.27	105.32
606.43	7.02
606.58	28.09
606.74	112.35
606.89	86.60
607.05	121.71
607.20	74.90
607.36	49.15
607.51	102.98
607.67	138.09
607.82	46.81
607.98	35.11
608.13	0.00
608.29	84.26
608.44	30.43
608.60	79.58
608.75	60.85
608.91	91.28
609.06	95.96
609.22	81.92
609.37	124.05
609.53	98.30
609.68	35.11
609.84	93.62
609.99	168.52
610.15	35.11
610.30	93.62
610.46	72.56
610.61	84.26
610.76	86.60
610.92	114.69
611.07	63.19
611.23	70.22
611.38	70.22
611.54	117.03
611.69	70.22
611.84	56.17
612.00	28.09
612.15	42.13
612.31	70.22
612.46	114.69
612.62	70.22
612.77	67.88
612.92	70.22
613.08	84.26
613.23	18.72
613.39	9.36
613.54	60.85
613.69	135.75
613.85	65.54
614.00	95.96
614.15	67.88
614.31	81.92
614.46	70.22
614.62	135.75
614.77	142.77
614.92	79.58
615.08	81.92
615.23	105.32
615.38	110.01
615.54	0.00
615.69	21.06
615.84	107.66
616.00	93.62
616.15	79.58
616.30	32.77
616.46	110.01
616.61	98.30
616.76	7.02
616.92	88.94
617.07	177.88
617.22	4.68
617.37	39.79
617.53	11.70
617.68	140.43
617.83	53.83
617.99	84.26
618.14	70.22
618.29	175.54
618.45	65.54
618.60	46.81
618.75	32.77
618.90	0.00
619.06	51.49
619.21	72.56
619.36	0.00
619.51	93.62
619.67	67.88
619.82	98.30
619.97	25.75
620.12	11.70
620.28	88.94
620.43	77.24
620.58	79.58
620.73	84.26
620.89	32.77
621.04	93.62
621.19	0.00
621.34	51.49
621.49	107.66
621.65	72.56
621.80	39.79
621.95	46.81
622.10	60.85
622.25	81.92
622.41	119.37
622.56	23.41
622.71	32.77
622.86	135.75
623.01	95.96
623.16	140.43
623.32	4.68
623.47	44.47
623.62	42.13
623.77	124.05
623.92	95.96
624.07	91.28
624.23	56.17
624.38	105.32
624.53	65.54
624.68	32.77
624.83	110.01
624.98	124.05
625.13	21.06
625.29	58.51
625.44	53.83
625.59	93.62
625.74	93.62
625.89	58.51
626.04	9.36
626.19	93.62
626.34	140.43
626.49	67.88
626.65	44.47
626.80	72.56
626.95	98.30
627.10	70.22
627.25	65.54
627.40	0.00
627.55	67.88
627.70	88.94
627.85	0.00
628.00	14.04
628.15	88.94
628.30	30.43
628.45	53.83
628.60	124.05
628.76	42.13
628.91	53.83
629.06	37.45
629.21	67.88
629.36	86.60
629.51	23.41
629.66	46.81
629.81	60.85
629.96	65.54
630.11	49.15
630.26	58.51
630.41	30.43
630.56	60.85
630.71	91.28
630.86	88.94
631.01	49.15
631.16	18.72
631.31	37.45
631.46	86.60
631.61	67.88
631.76	46.81
631.91	51.49
632.06	114.69
632.21	91.28
632.36	53.83
632.51	84.26
632.66	93.62
632.81	91.28
632.96	4.68
633.10	67.88
633.25	46.81
633.40	70.22
633.55	28.09
633.70	56.17
633.85	107.66
634.00	21.06
634.15	91.28
634.30	11.70
634.45	70.22
634.60	37.45
634.75	32.77
634.90	63.19
635.05	16.38
635.19	100.64
635.34	60.85
635.49	74.90
635.64	95.96
635.79	117.03
635.94	16.38
636.09	44.47
636.24	77.24
636.39	0.00
636.53	11.70
636.68	28.09
636.83	100.64
636.98	32.77
637.13	124.05
637.28	49.15
637.43	51.49
637.57	110.01
637.72	131.07
637.87	81.92
638.02	49.15
638.17	84.26
638.32	32.77
638.46	91.28
638.61	14.04
638.76	60.85
638.91	0.00
639.06	65.54
639.20	88.94
639.35	84.26
639.50	51.49
639.65	100.64
639.80	72.56
639.94	0.00
640.09	9.36
640.24	51.49
640.39	128.73
640.54	95.96
640.68	70.22
640.83	46.81
640.98	53.83
641.13	65.54
641.27	35.11
641.42	117.03
641.57	56.17
641.72	30.43
641.86	18.72
642.01	121.71
642.16	2.34
642.31	67.88
642.45	14.04
642.60	0.00
642.75	16.38
642.90	70.22
643.04	16.38
643.19	16.38
643.34	84.26
643.48	21.06
643.63	9.36
643.78	23.41
643.93	18.72
644.07	42.13
644.22	84.26
644.37	51.49
644.51	72.56
644.66	49.15
644.81	74.90
644.95	81.92
645.10	100.64
645.25	51.49
645.39	14.04
645.54	0.00
645.69	46.81
645.83	70.22
645.98	0.00
646.13	25.75
646.27	81.92
646.42	4.68
646.57	58.51
646.71	9.36
646.86	0.00
647.00	107.66
647.15	58.51
647.30	84.26
647.44	91.28
647.59	65.54
647.74	2.34
647.88	30.43
648.03	56.17
648.17	42.13
648.32	32.77
648.47	25.75
648.61	70.22
648.76	93.62
648.90	49.15
649.05	0.00
649.20	7.02
649.34	44.47
649.49	72.56
649.63	7.02
649.78	30.43
649.92	93.62
650.07	58.51
650.21	60.85
650.36	37.45
650.51	28.09
650.65	49.15
650.80	30.43
650.94	84.26
651.09	65.54
651.23	49.15
651.38	4.68
651.52	28.09
651.67	65.54
651.81	133.41
651.96	79.58
652.10	114.69
652.25	79.58
652.39	65.54
652.54	11.70
652.68	32.77
652.83	77.24
652.97	37.45
653.12	65.54
653.26	81.92
653.41	58.51
653.55	37.45
653.70	4.68
653.84	35.11
653.99	28.09
654.13	124.05
654.27	37.45
654.42	74.90
654.56	21.06
654.71	0.00
654.85	88.94
655.00	74.90
655.14	63.19
655.29	49.15
655.43	77.24
655.57	0.00
655.72	74.90
655.86	117.03
656.01	56.17
656.15	110.01
656.30	37.45
656.44	58.51
656.58	46.81
656.73	0.00
656.87	79.58
657.01	42.13
657.16	39.79
657.30	25.75
657.45	28.09
657.59	84.26
657.73	25.75
657.88	14.04
658.02	93.62
658.16	100.64
658.31	32.77
658.45	44.47
658.60	91.28
658.74	23.41
658.88	0.00
659.03	65.54
659.17	16.38
659.31	37.45
659.46	67.88
659.60	70.22
659.74	126.39
659.89	51.49
660.03	18.72
660.17	72.56
660.32	51.49
660.46	2.34
660.60	81.92
660.74	77.24
660.89	72.56
661.03	98.30
661.17	95.96
661.32	121.71
661.46	32.77
661.60	67.88
661.74	81.92
661.89	91.28
662.03	98.30
662.17	79.58
662.31	74.90
662.46	67.88
662.60	30.43
662.74	72.56
662.88	67.88
663.03	0.00
663.17	72.56
663.31	58.51
663.45	21.06
663.60	63.19
663.74	0.00
663.88	63.19
664.02	25.75
664.17	67.88
664.31	35.11
664.45	25.75
664.59	0.00
664.73	93.62
664.88	81.92
665.02	100.64
665.16	58.51
665.30	32.77
665.44	2.34
665.59	98.30
665.73	74.90
665.87	60.85
666.01	79.58
666.15	46.81
666.29	0.00
666.44	44.47
666.58	49.15
666.72	21.06
666.86	11.70
667.00	28.09
667.14	39.79
667.28	9.36
667.43	124.05
667.57	44.47
667.71	16.38
667.85	37.45
667.99	79.58
668.13	11.70
668.27	14.04
668.41	21.06
668.56	0.00
668.70	65.54
668.84	2.34
668.98	84.26
669.12	135.75
669.26	46.81
669.40	58.51
669.54	18.72
669.68	46.81
669.82	46.81
669.96	53.83
670.10	98.30
670.25	72.56
670.39	0.00
670.53	0.00
670.67	0.00
670.81	81.92
670.95	51.49
671.09	58.51
671.23	32.77
671.37	39.79
671.51	93.62
671.65	18.72
671.79	14.04
671.93	14.04
672.07	65.54
672.21	84.26
672.35	39.79
672.49	86.60
672.63	86.60
672.77	114.69
672.91	23.41
673.05	81.92
673.19	0.00
673.33	88.94
673.47	67.88
673.61	0.00
673.75	124.05
673.89	35.11
674.03	58.51
674.17	0.00
674.31	14.04
674.45	46.81
674.59	79.58
674.73	53.83
674.87	42.13
675.01	67.88
675.15	0.00
675.29	32.77
675.43	51.49
675.56	0.00
675.70	53.83
675.84	56.17
675.98	51.49
676.12	77.24
676.26	44.47
676.40	74.90
676.54	77.24
676.68	11.70
676.82	72.56
676.96	16.38
677.10	58.51
677.23	81.92
677.37	67.88
677.51	102.98
677.65	60.85
677.79	28.09
677.93	84.26
678.07	35.11
678.21	30.43
678.34	81.92
678.48	42.13
678.62	84.26
678.76	93.62
678.90	25.75
679.04	44.47
679.18	79.58
679.31	11.70
679.45	93.62
679.59	46.81
679.73	88.94
679.87	23.41
680.00	23.41
680.14	81.92
680.28	14.04
680.42	0.00
680.56	86.60
680.70	70.22
680.83	0.00
680.97	37.45
681.11	0.00
681.25	51.49
681.39	58.51
681.52	25.75
681.66	93.62
681.80	49.15
681.94	25.75
682.07	86.60
682.21	63.19
682.35	51.49
682.49	28.09
682.62	30.43
682.76	21.06
682.90	11.70
683.04	100.64
683.17	32.77
683.31	35.11
683.45	37.45
683.59	30.43
683.72	30.43
683.86	21.06
684.00	0.00
684.13	11.70
684.27	49.15
684.41	65.54
684.55	51.49
684.68	56.17
684.82	100.64
684.96	42.13
685.09	95.96
685.23	30.43
685.37	0.00
685.50	110.01
685.64	65.54
685.78	42.13
685.91	9.36
686.05	0.00
686.19	0.00
686.32	21.06
686.46	117.03
686.60	126.39
686.73	110.01
686.87	0.00
687.01	0.00
687.14	0.00
687.28	23.41
687.42	25.75
687.55	0.00
687.69	23.41
687.82	63.19
687.96	25.75
688.10	0.00
688.23	128.73
688.37	16.38
688.50	46.81
688.64	56.17
688.78	23.41
688.91	0.00
689.05	11.70
689.18	35.11
689.32	0.00
689.46	37.45
689.59	0.00
689.73	84.26
689.86	0.00
690.00	44.47
690.13	11.70
690.27	28.09
690.41	30.43
690.54	0.00
690.68	65.54
690.81	0.00
690.95	21.06
691.08	39.79
691.22	23.41
691.35	65.54
691.49	37.45
691.62	39.79
691.76	28.09
691.89	0.00
692.03	28.09
692.16	74.90
692.30	2.34
692.43	42.13
692.57	11.70
692.70	23.41
692.84	44.47
692.97	51.49
693.11	86.60
693.24	0.00
693.38	9.36
693.51	18.72
693.65	2.34
693.78	21.06
693.92	58.51
694.05	0.00
694.19	37.45
694.32	18.72
694.45	91.28
694.59	0.00
694.72	0.00
694.86	0.00
694.99	7.02
695.13	0.00
695.26	0.00
695.39	67.88
695.53	53.83
695.66	95.96
695.80	77.24
695.93	35.11
696.07	0.00
696.20	14.04
696.33	37.45
696.47	7.02
696.60	9.36
696.73	30.43
696.87	51.49
697.00	121.71
697.14	44.47
697.27	39.79
697.40	119.37
697.54	53.83
697.67	63.19
697.80	72.56
697.94	0.00
698.07	0.00
698.21	0.00
698.34	105.32
698.47	102.98
698.61	18.72
698.74	37.45
698.87	100.64
699.01	74.90
699.14	0.00
699.27	58.51
699.40	7.02
699.54	25.75
699.67	32.77
699.80	23.41
699.94	0.00
700.07	74.90
700.20	11.70
700.34	14.04
700.47	35.11
700.60	56.17
700.73	0.00
700.87	70.22
701.00	56.17
701.13	51.49
701.26	23.41
701.40	25.75
701.53	30.43
701.66	35.11
701.79	56.17
701.93	0.00
702.06	30.43
702.19	77.24
702.32	121.71
702.46	60.85
702.59	37.45
702.72	0.00
702.85	53.83
702.99	18.72
703.12	14.04
703.25	0.00
703.38	28.09
703.51	0.00
703.65	84.26
703.78	18.72
703.91	56.17
704.04	121.71
704.17	2.34
704.31	0.00
704.44	0.00
704.57	37.45
704.70	21.06
704.83	46.81
704.96	67.88
705.10	60.85
705.23	7.02
>>>>>End Processed Spectral Data<<<<<
