SpectraSuite Data File
++++++++++++++++++++++++++++++++++++
Date: Fri Oct 04 12:13:26 GMT-05:00 2013
User: price-jones
Dark Spectrum Present: No
Reference Spectrum Present: No
Number of Sampled Component Spectra: 1
Spectrometers: USB2+H05261
Integration Time (usec): 10000 (USB2+H05261)
Spectra Averaged: 1 (USB2+H05261)
Boxcar Smoothing: 0 (USB2+H05261)
Correct for Electrical Dark: No (USB2+H05261)
Strobe/Lamp Enabled: No (USB2+H05261)
Correct for Detector Non-linearity: No (USB2+H05261)
Correct for Stray Light: No (USB2+H05261)
Number of Pixels in Processed Spectrum: 2048
>>>>>Begin Processed Spectral Data<<<<<
365.73	0.00
365.92	0.00
366.12	0.00
366.32	0.00
366.52	0.00
366.72	0.00
366.91	0.00
367.11	0.00
367.31	0.00
367.51	0.00
367.70	0.00
367.90	0.00
368.10	0.00
368.30	0.00
368.49	0.00
368.69	0.00
368.89	0.00
369.09	0.00
369.28	0.00
369.48	0.00
369.68	0.00
369.87	0.00
370.07	0.00
370.27	0.00
370.47	0.00
370.66	0.00
370.86	0.00
371.06	0.00
371.25	0.00
371.45	28.09
371.65	84.26
371.84	0.00
372.04	0.00
372.24	0.00
372.44	0.00
372.63	70.22
372.83	0.00
373.03	0.00
373.22	35.11
373.42	0.00
373.62	30.43
373.81	7.02
374.01	0.00
374.21	44.47
374.40	114.69
374.60	70.22
374.79	105.32
374.99	0.00
375.19	91.28
375.38	25.75
375.58	0.00
375.78	0.00
375.97	0.00
376.17	42.13
376.37	7.02
376.56	14.04
376.76	0.00
376.95	126.39
377.15	11.70
377.35	9.36
377.54	0.00
377.74	0.00
377.93	21.06
378.13	0.00
378.33	18.72
378.52	74.90
378.72	84.26
378.91	0.00
379.11	0.00
379.31	60.85
379.50	0.00
379.70	30.43
379.89	11.70
380.09	9.36
380.28	4.68
380.48	63.19
380.68	49.15
380.87	72.56
381.07	0.00
381.26	0.00
381.46	0.00
381.65	60.85
381.85	79.58
382.04	53.83
382.24	0.00
382.43	25.75
382.63	39.79
382.83	39.79
383.02	16.38
383.22	0.00
383.41	56.17
383.61	88.94
383.80	0.00
384.00	0.00
384.19	65.54
384.39	72.56
384.58	0.00
384.78	37.45
384.97	74.90
385.17	25.75
385.36	39.79
385.56	63.19
385.75	14.04
385.95	23.41
386.14	53.83
386.34	51.49
386.53	21.06
386.72	0.00
386.92	0.00
387.11	4.68
387.31	28.09
387.50	0.00
387.70	84.26
387.89	11.70
388.09	23.41
388.28	25.75
388.48	81.92
388.67	79.58
388.86	25.75
389.06	0.00
389.25	21.06
389.45	53.83
389.64	51.49
389.84	23.41
390.03	0.00
390.22	0.00
390.42	0.00
390.61	9.36
390.81	4.68
391.00	51.49
391.19	0.00
391.39	51.49
391.58	58.51
391.78	51.49
391.97	49.15
392.16	25.75
392.36	0.00
392.55	0.00
392.75	9.36
392.94	46.81
393.13	0.00
393.33	53.83
393.52	49.15
393.71	56.17
393.91	28.09
394.10	0.00
394.29	79.58
394.49	14.04
394.68	39.79
394.88	42.13
395.07	11.70
395.26	46.81
395.46	25.75
395.65	65.54
395.84	7.02
396.04	28.09
396.23	42.13
396.42	0.00
396.62	0.00
396.81	65.54
397.00	11.70
397.19	44.47
397.39	30.43
397.58	32.77
397.77	35.11
397.97	49.15
398.16	112.35
398.35	95.96
398.55	0.00
398.74	51.49
398.93	37.45
399.12	0.00
399.32	0.00
399.51	25.75
399.70	0.00
399.90	11.70
400.09	30.43
400.28	39.79
400.47	21.06
400.67	0.00
400.86	25.75
401.05	0.00
401.24	0.00
401.44	0.00
401.63	14.04
401.82	37.45
402.01	53.83
402.21	23.41
402.40	51.49
402.59	0.00
402.78	9.36
402.97	60.85
403.17	44.47
403.36	56.17
403.55	58.51
403.74	39.79
403.93	37.45
404.13	37.45
404.32	0.00
404.51	16.38
404.70	49.15
404.89	21.06
405.09	0.00
405.28	39.79
405.47	0.00
405.66	18.72
405.85	0.00
406.05	0.00
406.24	0.00
406.43	18.72
406.62	0.00
406.81	2.34
407.00	42.13
407.20	0.00
407.39	0.00
407.58	14.04
407.77	72.56
407.96	49.15
408.15	42.13
408.34	39.79
408.54	0.00
408.73	7.02
408.92	37.45
409.11	60.85
409.30	56.17
409.49	0.00
409.68	56.17
409.87	7.02
410.07	58.51
410.26	2.34
410.45	35.11
410.64	0.00
410.83	0.00
411.02	25.75
411.21	93.62
411.40	16.38
411.59	60.85
411.78	23.41
411.98	11.70
412.17	79.58
412.36	2.34
412.55	46.81
412.74	0.00
412.93	32.77
413.12	11.70
413.31	81.92
413.50	58.51
413.69	0.00
413.88	49.15
414.07	32.77
414.26	39.79
414.45	63.19
414.64	124.05
414.83	49.15
415.02	70.22
415.22	0.00
415.41	28.09
415.60	42.13
415.79	79.58
415.98	0.00
416.17	32.77
416.36	21.06
416.55	65.54
416.74	0.00
416.93	56.17
417.12	0.00
417.31	23.41
417.50	18.72
417.69	0.00
417.88	18.72
418.07	0.00
418.26	58.51
418.45	0.00
418.64	0.00
418.83	0.00
419.02	9.36
419.21	14.04
419.39	60.85
419.58	100.64
419.77	2.34
419.96	46.81
420.15	0.00
420.34	51.49
420.53	37.45
420.72	0.00
420.91	37.45
421.10	53.83
421.29	53.83
421.48	28.09
421.67	16.38
421.86	0.00
422.05	46.81
422.24	39.79
422.43	28.09
422.61	0.00
422.80	98.30
422.99	0.00
423.18	42.13
423.37	21.06
423.56	44.47
423.75	86.60
423.94	4.68
424.13	4.68
424.32	42.13
424.50	39.79
424.69	74.90
424.88	4.68
425.07	35.11
425.26	7.02
425.45	0.00
425.64	46.81
425.83	0.00
426.01	63.19
426.20	0.00
426.39	23.41
426.58	70.22
426.77	0.00
426.96	14.04
427.15	91.28
427.33	49.15
427.52	0.00
427.71	67.88
427.90	0.00
428.09	84.26
428.28	7.02
428.46	0.00
428.65	0.00
428.84	30.43
429.03	28.09
429.22	11.70
429.40	112.35
429.59	35.11
429.78	32.77
429.97	0.00
430.16	42.13
430.34	35.11
430.53	42.13
430.72	70.22
430.91	16.38
431.10	18.72
431.28	18.72
431.47	100.64
431.66	49.15
431.85	0.00
432.03	44.47
432.22	35.11
432.41	0.00
432.60	46.81
432.79	67.88
432.97	23.41
433.16	25.75
433.35	16.38
433.54	98.30
433.72	51.49
433.91	0.00
434.10	60.85
434.28	39.79
434.47	25.75
434.66	4.68
434.85	0.00
435.03	21.06
435.22	30.43
435.41	37.45
435.59	23.41
435.78	25.75
435.97	42.13
436.16	18.72
436.34	0.00
436.53	84.26
436.72	102.98
436.90	35.11
437.09	56.17
437.28	0.00
437.46	0.00
437.65	42.13
437.84	21.06
438.02	18.72
438.21	14.04
438.40	81.92
438.58	23.41
438.77	23.41
438.96	91.28
439.14	0.00
439.33	53.83
439.52	16.38
439.70	25.75
439.89	46.81
440.08	37.45
440.26	110.01
440.45	77.24
440.63	7.02
440.82	11.70
441.01	51.49
441.19	39.79
441.38	0.00
441.57	72.56
441.75	9.36
441.94	28.09
442.12	7.02
442.31	67.88
442.50	0.00
442.68	35.11
442.87	14.04
443.05	7.02
443.24	72.56
443.43	0.00
443.61	0.00
443.80	18.72
443.98	0.00
444.17	37.45
444.35	16.38
444.54	0.00
444.73	21.06
444.91	88.94
445.10	11.70
445.28	16.38
445.47	91.28
445.65	18.72
445.84	51.49
446.02	16.38
446.21	56.17
446.39	14.04
446.58	39.79
446.77	58.51
446.95	126.39
447.14	91.28
447.32	49.15
447.51	63.19
447.69	23.41
447.88	18.72
448.06	18.72
448.25	0.00
448.43	53.83
448.62	28.09
448.80	49.15
448.99	56.17
449.17	16.38
449.36	51.49
449.54	0.00
449.73	79.58
449.91	32.77
450.10	28.09
450.28	51.49
450.46	37.45
450.65	81.92
450.83	28.09
451.02	0.00
451.20	110.01
451.39	0.00
451.57	65.54
451.76	42.13
451.94	58.51
452.13	0.00
452.31	100.64
452.49	126.39
452.68	30.43
452.86	58.51
453.05	35.11
453.23	56.17
453.42	0.00
453.60	0.00
453.78	44.47
453.97	49.15
454.15	32.77
454.34	32.77
454.52	0.00
454.70	7.02
454.89	30.43
455.07	131.07
455.26	65.54
455.44	56.17
455.62	58.51
455.81	0.00
455.99	0.00
456.17	53.83
456.36	0.00
456.54	0.00
456.73	149.79
456.91	79.58
457.09	77.24
457.28	81.92
457.46	58.51
457.64	0.00
457.83	4.68
458.01	21.06
458.19	42.13
458.38	49.15
458.56	28.09
458.74	42.13
458.93	44.47
459.11	0.00
459.29	37.45
459.48	74.90
459.66	65.54
459.84	25.75
460.03	0.00
460.21	23.41
460.39	42.13
460.57	88.94
460.76	67.88
460.94	11.70
461.12	0.00
461.31	65.54
461.49	67.88
461.67	21.06
461.85	42.13
462.04	53.83
462.22	74.90
462.40	0.00
462.59	0.00
462.77	16.38
462.95	107.66
463.13	63.19
463.32	0.00
463.50	98.30
463.68	9.36
463.86	21.06
464.05	32.77
464.23	0.00
464.41	21.06
464.59	21.06
464.78	0.00
464.96	25.75
465.14	60.85
465.32	44.47
465.50	79.58
465.69	2.34
465.87	84.26
466.05	39.79
466.23	0.00
466.41	0.00
466.60	56.17
466.78	0.00
466.96	49.15
467.14	42.13
467.32	30.43
467.51	72.56
467.69	105.32
467.87	14.04
468.05	30.43
468.23	14.04
468.41	0.00
468.60	74.90
468.78	42.13
468.96	49.15
469.14	0.00
469.32	58.51
469.50	58.51
469.69	30.43
469.87	0.00
470.05	18.72
470.23	25.75
470.41	0.00
470.59	23.41
470.77	65.54
470.95	56.17
471.14	16.38
471.32	60.85
471.50	16.38
471.68	46.81
471.86	11.70
472.04	0.00
472.22	0.00
472.40	28.09
472.58	74.90
472.77	2.34
472.95	0.00
473.13	23.41
473.31	23.41
473.49	44.47
473.67	39.79
473.85	0.00
474.03	56.17
474.21	46.81
474.39	67.88
474.57	72.56
474.75	93.62
474.93	25.75
475.12	16.38
475.30	42.13
475.48	53.83
475.66	74.90
475.84	9.36
476.02	37.45
476.20	0.00
476.38	23.41
476.56	53.83
476.74	88.94
476.92	42.13
477.10	0.00
477.28	77.24
477.46	4.68
477.64	21.06
477.82	58.51
478.00	28.09
478.18	25.75
478.36	0.00
478.54	32.77
478.72	9.36
478.90	11.70
479.08	95.96
479.26	18.72
479.44	0.00
479.62	44.47
479.80	35.11
479.98	7.02
480.16	42.13
480.34	56.17
480.52	65.54
480.70	9.36
480.88	81.92
481.06	70.22
481.24	42.13
481.41	44.47
481.59	98.30
481.77	0.00
481.95	49.15
482.13	9.36
482.31	88.94
482.49	0.00
482.67	91.28
482.85	126.39
483.03	86.60
483.21	0.00
483.39	35.11
483.57	37.45
483.74	18.72
483.92	74.90
484.10	49.15
484.28	0.00
484.46	93.62
484.64	0.00
484.82	49.15
485.00	2.34
485.18	0.00
485.35	102.98
485.53	30.43
485.71	23.41
485.89	25.75
486.07	32.77
486.25	60.85
486.43	74.90
486.61	56.17
486.78	74.90
486.96	18.72
487.14	0.00
487.32	56.17
487.50	0.00
487.68	70.22
487.85	0.00
488.03	42.13
488.21	18.72
488.39	0.00
488.57	49.15
488.75	0.00
488.92	63.19
489.10	7.02
489.28	0.00
489.46	70.22
489.64	14.04
489.81	0.00
489.99	9.36
490.17	30.43
490.35	0.00
490.53	65.54
490.70	44.47
490.88	42.13
491.06	35.11
491.24	0.00
491.41	11.70
491.59	49.15
491.77	30.43
491.95	2.34
492.13	81.92
492.30	128.73
492.48	30.43
492.66	51.49
492.84	16.38
493.01	11.70
493.19	0.00
493.37	49.15
493.54	60.85
493.72	79.58
493.90	56.17
494.08	32.77
494.25	56.17
494.43	0.00
494.61	46.81
494.79	70.22
494.96	58.51
495.14	70.22
495.32	0.00
495.49	32.77
495.67	9.36
495.85	39.79
496.02	72.56
496.20	4.68
496.38	37.45
496.55	0.00
496.73	70.22
496.91	72.56
497.09	11.70
497.26	88.94
497.44	56.17
497.62	0.00
497.79	39.79
497.97	0.00
498.14	72.56
498.32	51.49
498.50	42.13
498.67	44.47
498.85	21.06
499.03	39.79
499.20	35.11
499.38	23.41
499.56	49.15
499.73	131.07
499.91	16.38
500.08	21.06
500.26	0.00
500.44	84.26
500.61	0.00
500.79	58.51
500.97	0.00
501.14	49.15
501.32	32.77
501.49	0.00
501.67	84.26
501.84	37.45
502.02	35.11
502.20	23.41
502.37	74.90
502.55	42.13
502.72	0.00
502.90	70.22
503.07	23.41
503.25	88.94
503.43	21.06
503.60	30.43
503.78	32.77
503.95	0.00
504.13	60.85
504.30	53.83
504.48	49.15
504.65	56.17
504.83	79.58
505.01	7.02
505.18	63.19
505.36	39.79
505.53	0.00
505.71	39.79
505.88	65.54
506.06	11.70
506.23	58.51
506.41	95.96
506.58	42.13
506.76	0.00
506.93	0.00
507.11	25.75
507.28	51.49
507.46	51.49
507.63	4.68
507.81	49.15
507.98	46.81
508.16	32.77
508.33	65.54
508.50	7.02
508.68	16.38
508.85	18.72
509.03	35.11
509.20	28.09
509.38	14.04
509.55	93.62
509.73	49.15
509.90	37.45
510.08	32.77
510.25	0.00
510.42	44.47
510.60	79.58
510.77	49.15
510.95	21.06
511.12	2.34
511.30	37.45
511.47	35.11
511.64	44.47
511.82	0.00
511.99	79.58
512.17	53.83
512.34	28.09
512.51	9.36
512.69	91.28
512.86	16.38
513.04	0.00
513.21	37.45
513.38	39.79
513.56	16.38
513.73	23.41
513.90	74.90
514.08	60.85
514.25	0.00
514.43	21.06
514.60	51.49
514.77	4.68
514.95	11.70
515.12	91.28
515.29	84.26
515.47	0.00
515.64	91.28
515.81	88.94
515.99	51.49
516.16	32.77
516.33	77.24
516.51	53.83
516.68	37.45
516.85	35.11
517.03	18.72
517.20	39.79
517.37	32.77
517.54	74.90
517.72	70.22
517.89	2.34
518.06	25.75
518.24	0.00
518.41	117.03
518.58	30.43
518.75	91.28
518.93	4.68
519.10	79.58
519.27	28.09
519.45	18.72
519.62	7.02
519.79	58.51
519.96	42.13
520.14	18.72
520.31	51.49
520.48	51.49
520.65	51.49
520.83	86.60
521.00	81.92
521.17	23.41
521.34	51.49
521.52	152.13
521.69	0.00
521.86	39.79
522.03	4.68
522.20	70.22
522.38	86.60
522.55	53.83
522.72	16.38
522.89	0.00
523.07	0.00
523.24	53.83
523.41	39.79
523.58	2.34
523.75	79.58
523.92	77.24
524.10	77.24
524.27	77.24
524.44	0.00
524.61	0.00
524.78	63.19
524.96	14.04
525.13	4.68
525.30	44.47
525.47	0.00
525.64	35.11
525.81	35.11
525.98	37.45
526.16	72.56
526.33	63.19
526.50	7.02
526.67	0.00
526.84	44.47
527.01	65.54
527.18	72.56
527.36	65.54
527.53	77.24
527.70	86.60
527.87	79.58
528.04	65.54
528.21	81.92
528.38	112.35
528.55	7.02
528.72	46.81
528.89	60.85
529.07	51.49
529.24	7.02
529.41	0.00
529.58	42.13
529.75	53.83
529.92	84.26
530.09	25.75
530.26	60.85
530.43	32.77
530.60	28.09
530.77	16.38
530.94	37.45
531.11	28.09
531.28	77.24
531.46	25.75
531.63	18.72
531.80	46.81
531.97	37.45
532.14	46.81
532.31	23.41
532.48	0.00
532.65	46.81
532.82	105.32
532.99	42.13
533.16	77.24
533.33	44.47
533.50	9.36
533.67	46.81
533.84	0.00
534.01	32.77
534.18	133.41
534.35	60.85
534.52	67.88
534.69	46.81
534.86	18.72
535.03	0.00
535.20	28.09
535.37	37.45
535.54	18.72
535.71	44.47
535.88	11.70
536.05	0.00
536.22	95.96
536.38	30.43
536.55	18.72
536.72	0.00
536.89	46.81
537.06	88.94
537.23	88.94
537.40	53.83
537.57	70.22
537.74	25.75
537.91	25.75
538.08	74.90
538.25	84.26
538.42	28.09
538.59	0.00
538.75	77.24
538.92	72.56
539.09	39.79
539.26	67.88
539.43	44.47
539.60	30.43
539.77	110.01
539.94	67.88
540.11	72.56
540.28	63.19
540.44	95.96
540.61	23.41
540.78	18.72
540.95	70.22
541.12	25.75
541.29	21.06
541.46	65.54
541.62	0.00
541.79	2.34
541.96	9.36
542.13	0.00
542.30	0.00
542.47	0.00
542.63	77.24
542.80	21.06
542.97	58.51
543.14	23.41
543.31	58.51
543.48	65.54
543.64	44.47
543.81	58.51
543.98	166.18
544.15	77.24
544.32	56.17
544.48	72.56
544.65	49.15
544.82	32.77
544.99	51.49
545.16	107.66
545.32	39.79
545.49	11.70
545.66	14.04
545.83	65.54
546.00	60.85
546.16	60.85
546.33	0.00
546.50	91.28
546.67	58.51
546.83	42.13
547.00	79.58
547.17	9.36
547.34	42.13
547.50	49.15
547.67	0.00
547.84	0.00
548.00	21.06
548.17	46.81
548.34	70.22
548.51	88.94
548.67	81.92
548.84	152.13
549.01	2.34
549.18	100.64
549.34	53.83
549.51	0.00
549.68	67.88
549.84	30.43
550.01	25.75
550.18	93.62
550.34	0.00
550.51	14.04
550.68	37.45
550.84	58.51
551.01	14.04
551.18	0.00
551.34	30.43
551.51	147.45
551.68	32.77
551.84	56.17
552.01	16.38
552.18	84.26
552.34	9.36
552.51	14.04
552.68	42.13
552.84	0.00
553.01	74.90
553.18	72.56
553.34	46.81
553.51	9.36
553.67	25.75
553.84	35.11
554.01	14.04
554.17	11.70
554.34	51.49
554.51	11.70
554.67	63.19
554.84	98.30
555.00	35.11
555.17	18.72
555.33	9.36
555.50	53.83
555.67	0.00
555.83	42.13
556.00	56.17
556.16	0.00
556.33	35.11
556.50	46.81
556.66	105.32
556.83	11.70
556.99	56.17
557.16	79.58
557.32	0.00
557.49	0.00
557.65	60.85
557.82	74.90
557.98	46.81
558.15	58.51
558.32	65.54
558.48	32.77
558.65	42.13
558.81	65.54
558.98	42.13
559.14	53.83
559.31	0.00
559.47	0.00
559.64	114.69
559.80	56.17
559.97	58.51
560.13	35.11
560.30	112.35
560.46	53.83
560.63	30.43
560.79	49.15
560.96	0.00
561.12	0.00
561.29	0.00
561.45	2.34
561.61	0.00
561.78	7.02
561.94	114.69
562.11	30.43
562.27	32.77
562.44	23.41
562.60	49.15
562.77	95.96
562.93	23.41
563.10	88.94
563.26	51.49
563.42	23.41
563.59	32.77
563.75	100.64
563.92	44.47
564.08	44.47
564.24	11.70
564.41	0.00
564.57	0.00
564.74	18.72
564.90	121.71
565.07	56.17
565.23	44.47
565.39	35.11
565.56	60.85
565.72	81.92
565.88	56.17
566.05	14.04
566.21	128.73
566.38	25.75
566.54	21.06
566.70	65.54
566.87	39.79
567.03	30.43
567.19	91.28
567.36	39.79
567.52	107.66
567.68	32.77
567.85	51.49
568.01	11.70
568.17	42.13
568.34	21.06
568.50	53.83
568.66	114.69
568.83	72.56
568.99	0.00
569.15	30.43
569.32	53.83
569.48	65.54
569.64	84.26
569.81	0.00
569.97	30.43
570.13	2.34
570.30	21.06
570.46	70.22
570.62	0.00
570.78	9.36
570.95	39.79
571.11	67.88
571.27	67.88
571.43	0.00
571.60	21.06
571.76	100.64
571.92	37.45
572.09	35.11
572.25	18.72
572.41	14.04
572.57	39.79
572.74	86.60
572.90	67.88
573.06	9.36
573.22	14.04
573.38	44.47
573.55	18.72
573.71	37.45
573.87	32.77
574.03	39.79
574.20	53.83
574.36	42.13
574.52	42.13
574.68	0.00
574.84	0.00
575.01	81.92
575.17	60.85
575.33	70.22
575.49	0.00
575.65	11.70
575.82	91.28
575.98	46.81
576.14	18.72
576.30	117.03
576.46	72.56
576.62	4.68
576.79	63.19
576.95	56.17
577.11	37.45
577.27	74.90
577.43	0.00
577.59	100.64
577.75	9.36
577.92	25.75
578.08	77.24
578.24	70.22
578.40	28.09
578.56	11.70
578.72	37.45
578.88	79.58
579.04	51.49
579.21	95.96
579.37	53.83
579.53	32.77
579.69	63.19
579.85	0.00
580.01	42.13
580.17	84.26
580.33	2.34
580.49	72.56
580.65	28.09
580.82	67.88
580.98	0.00
581.14	56.17
581.30	30.43
581.46	0.00
581.62	70.22
581.78	58.51
581.94	63.19
582.10	53.83
582.26	21.06
582.42	0.00
582.58	11.70
582.74	67.88
582.90	102.98
583.06	107.66
583.22	60.85
583.38	0.00
583.54	23.41
583.70	74.90
583.86	42.13
584.02	49.15
584.18	100.64
584.34	67.88
584.50	74.90
584.66	205.97
584.82	634.29
584.98	964.30
585.14	823.87
585.30	547.69
585.46	351.08
585.62	269.16
585.78	234.05
585.94	51.49
586.10	110.01
586.26	88.94
586.42	44.47
586.58	9.36
586.74	79.58
586.90	74.90
587.06	0.00
587.22	49.15
587.38	14.04
587.54	51.49
587.70	35.11
587.86	79.58
588.02	145.11
588.18	72.56
588.34	60.85
588.49	63.19
588.65	60.85
588.81	114.69
588.97	44.47
589.13	39.79
589.29	4.68
589.45	91.28
589.61	23.41
589.77	110.01
589.93	9.36
590.08	39.79
590.24	9.36
590.40	23.41
590.56	28.09
590.72	105.32
590.88	16.38
591.04	60.85
591.20	58.51
591.35	0.00
591.51	58.51
591.67	91.28
591.83	74.90
591.99	72.56
592.15	7.02
592.31	0.00
592.46	11.70
592.62	2.34
592.78	0.00
592.94	9.36
593.10	44.47
593.26	138.09
593.41	60.85
593.57	86.60
593.73	11.70
593.89	46.81
594.05	170.86
594.20	131.07
594.36	173.20
594.52	107.66
594.68	184.90
594.84	81.92
594.99	32.77
595.15	65.54
595.31	81.92
595.47	11.70
595.62	58.51
595.78	51.49
595.94	84.26
596.10	0.00
596.25	70.22
596.41	58.51
596.57	9.36
596.73	70.22
596.88	44.47
597.04	14.04
597.20	0.00
597.36	18.72
597.51	37.45
597.67	42.13
597.83	44.47
597.99	23.41
598.14	42.13
598.30	42.13
598.46	14.04
598.61	28.09
598.77	2.34
598.93	51.49
599.09	79.58
599.24	25.75
599.40	37.45
599.56	74.90
599.71	0.00
599.87	35.11
600.03	58.51
600.18	0.00
600.34	67.88
600.50	25.75
600.65	63.19
600.81	39.79
600.97	58.51
601.12	93.62
601.28	51.49
601.44	63.19
601.59	35.11
601.75	9.36
601.91	88.94
602.06	84.26
602.22	63.19
602.37	23.41
602.53	0.00
602.69	77.24
602.84	70.22
603.00	42.13
603.16	32.77
603.31	70.22
603.47	37.45
603.62	0.00
603.78	42.13
603.94	58.51
604.09	117.03
604.25	0.00
604.40	74.90
604.56	0.00
604.71	0.00
604.87	51.49
605.03	56.17
605.18	44.47
605.34	32.77
605.49	84.26
605.65	35.11
605.80	18.72
605.96	124.05
606.12	0.00
606.27	0.00
606.43	70.22
606.58	37.45
606.74	56.17
606.89	81.92
607.05	93.62
607.20	161.50
607.36	81.92
607.51	98.30
607.67	39.79
607.82	51.49
607.98	18.72
608.13	4.68
608.29	16.38
608.44	46.81
608.60	63.19
608.75	16.38
608.91	0.00
609.06	105.32
609.22	98.30
609.37	182.56
609.53	215.33
609.68	131.07
609.84	58.51
609.99	121.71
610.15	88.94
610.30	28.09
610.46	14.04
610.61	60.85
610.76	63.19
610.92	63.19
611.07	9.36
611.23	0.00
611.38	51.49
611.54	67.88
611.69	7.02
611.84	65.54
612.00	0.00
612.15	81.92
612.31	0.00
612.46	35.11
612.62	0.00
612.77	63.19
612.92	119.37
613.08	42.13
613.23	91.28
613.39	107.66
613.54	67.88
613.69	149.79
613.85	182.56
614.00	341.72
614.15	388.53
614.31	194.26
614.46	243.42
614.62	138.09
614.77	63.19
614.92	35.11
615.08	74.90
615.23	63.19
615.38	67.88
615.54	63.19
615.69	42.13
615.84	95.96
616.00	121.71
616.15	128.73
616.30	161.50
616.46	70.22
616.61	81.92
616.76	51.49
616.92	65.54
617.07	84.26
617.22	11.70
617.37	70.22
617.53	28.09
617.68	35.11
617.83	23.41
617.99	23.41
618.14	51.49
618.29	18.72
618.45	114.69
618.60	39.79
618.75	0.00
618.90	37.45
619.06	0.00
619.21	39.79
619.36	79.58
619.51	35.11
619.67	58.51
619.82	7.02
619.97	16.38
620.12	7.02
620.28	7.02
620.43	28.09
620.58	35.11
620.73	30.43
620.89	65.54
621.04	25.75
621.19	79.58
621.34	58.51
621.49	119.37
621.65	124.05
621.80	79.58
621.95	63.19
622.10	49.15
622.25	53.83
622.41	107.66
622.56	77.24
622.71	88.94
622.86	0.00
623.01	11.70
623.16	58.51
623.32	0.00
623.47	37.45
623.62	0.00
623.77	49.15
623.92	114.69
624.07	58.51
624.23	21.06
624.38	58.51
624.53	91.28
624.68	46.81
624.83	30.43
624.98	102.98
625.13	81.92
625.29	0.00
625.44	0.00
625.59	18.72
625.74	70.22
625.89	32.77
626.04	81.92
626.19	60.85
626.34	135.75
626.49	147.45
626.65	86.60
626.80	100.64
626.95	0.00
627.10	49.15
627.25	18.72
627.40	0.00
627.55	0.00
627.70	25.75
627.85	58.51
628.00	37.45
628.15	7.02
628.30	0.00
628.45	23.41
628.60	86.60
628.76	0.00
628.91	28.09
629.06	30.43
629.21	0.00
629.36	21.06
629.51	4.68
629.66	25.75
629.81	35.11
629.96	39.79
630.11	98.30
630.26	79.58
630.41	93.62
630.56	95.96
630.71	0.00
630.86	0.00
631.01	16.38
631.16	11.70
631.31	79.58
631.46	2.34
631.61	0.00
631.76	0.00
631.91	58.51
632.06	67.88
632.21	32.77
632.36	58.51
632.51	98.30
632.66	46.81
632.81	25.75
632.96	49.15
633.10	117.03
633.25	145.11
633.40	102.98
633.55	39.79
633.70	14.04
633.85	25.75
634.00	0.00
634.15	49.15
634.30	0.00
634.45	0.00
634.60	35.11
634.75	65.54
634.90	0.00
635.05	2.34
635.19	42.13
635.34	0.00
635.49	0.00
635.64	18.72
635.79	67.88
635.94	0.00
636.09	67.88
636.24	84.26
636.39	72.56
636.53	72.56
636.68	21.06
636.83	44.47
636.98	0.00
637.13	53.83
637.28	70.22
637.43	39.79
637.57	56.17
637.72	72.56
637.87	198.95
638.02	114.69
638.17	205.97
638.32	135.75
638.46	86.60
638.61	112.35
638.76	21.06
638.91	63.19
639.06	49.15
639.20	84.26
639.35	60.85
639.50	23.41
639.65	100.64
639.80	238.73
639.94	278.52
640.09	355.76
640.24	325.33
640.39	182.56
640.54	168.52
640.68	126.39
640.83	14.04
640.98	53.83
641.13	51.49
641.27	30.43
641.42	65.54
641.57	51.49
641.72	58.51
641.86	51.49
642.01	23.41
642.16	4.68
642.31	53.83
642.45	18.72
642.60	32.77
642.75	56.17
642.90	46.81
643.04	53.83
643.19	25.75
643.34	88.94
643.48	7.02
643.63	21.06
643.78	21.06
643.93	2.34
644.07	4.68
644.22	46.81
644.37	0.00
644.51	58.51
644.66	28.09
644.81	42.13
644.95	65.54
645.10	81.92
645.25	91.28
645.39	91.28
645.54	16.38
645.69	32.77
645.83	63.19
645.98	42.13
646.13	0.00
646.27	11.70
646.42	18.72
646.57	49.15
646.71	30.43
646.86	0.00
647.00	37.45
647.15	70.22
647.30	63.19
647.44	23.41
647.59	72.56
647.74	39.79
647.88	9.36
648.03	0.00
648.17	58.51
648.32	0.00
648.47	7.02
648.61	0.00
648.76	37.45
648.90	77.24
649.05	0.00
649.20	16.38
649.34	28.09
649.49	77.24
649.63	0.00
649.78	56.17
649.92	58.51
650.07	0.00
650.21	147.45
650.36	149.79
650.51	184.90
650.65	175.54
650.80	86.60
650.94	53.83
651.09	84.26
651.23	0.00
651.38	0.00
651.52	63.19
651.67	39.79
651.81	42.13
651.96	9.36
652.10	119.37
652.25	58.51
652.39	25.75
652.54	11.70
652.68	0.00
652.83	46.81
652.97	77.24
653.12	140.43
653.26	91.28
653.41	23.41
653.55	81.92
653.70	16.38
653.84	18.72
653.99	0.00
654.13	7.02
654.27	100.64
654.42	23.41
654.56	39.79
654.71	0.00
654.85	60.85
655.00	9.36
655.14	39.79
655.29	51.49
655.43	67.88
655.57	0.00
655.72	23.41
655.86	112.35
656.01	0.00
656.15	23.41
656.30	56.17
656.44	39.79
656.58	56.17
656.73	0.00
656.87	30.43
657.01	49.15
657.16	65.54
657.30	72.56
657.45	0.00
657.59	42.13
657.73	0.00
657.88	14.04
658.02	110.01
658.16	42.13
658.31	37.45
658.45	91.28
658.60	18.72
658.74	49.15
658.88	0.00
659.03	44.47
659.17	98.30
659.31	60.85
659.46	0.00
659.60	107.66
659.74	112.35
659.89	159.16
660.03	79.58
660.17	56.17
660.32	16.38
660.46	35.11
660.60	16.38
660.74	124.05
660.89	9.36
661.03	0.00
661.17	67.88
661.32	30.43
661.46	16.38
661.60	39.79
661.74	88.94
661.89	65.54
662.03	18.72
662.17	56.17
662.31	49.15
662.46	18.72
662.60	53.83
662.74	39.79
662.88	39.79
663.03	0.00
663.17	49.15
663.31	7.02
663.45	0.00
663.60	39.79
663.74	0.00
663.88	21.06
664.02	77.24
664.17	35.11
664.31	51.49
664.45	44.47
664.59	0.00
664.73	37.45
664.88	0.00
665.02	53.83
665.16	25.75
665.30	7.02
665.44	0.00
665.59	46.81
665.73	28.09
665.87	0.00
666.01	2.34
666.15	30.43
666.29	49.15
666.44	4.68
666.58	7.02
666.72	0.00
666.86	32.77
667.00	58.51
667.14	0.00
667.28	121.71
667.43	102.98
667.57	182.56
667.71	131.07
667.85	145.11
667.99	149.79
668.13	32.77
668.27	63.19
668.41	49.15
668.56	7.02
668.70	28.09
668.84	0.00
668.98	79.58
669.12	0.00
669.26	37.45
669.40	46.81
669.54	0.00
669.68	0.00
669.82	21.06
669.96	4.68
670.10	23.41
670.25	77.24
670.39	44.47
670.53	67.88
670.67	98.30
670.81	91.28
670.95	21.06
671.09	25.75
671.23	11.70
671.37	65.54
671.51	74.90
671.65	182.56
671.79	100.64
671.93	51.49
672.07	72.56
672.21	42.13
672.35	30.43
672.49	119.37
672.63	39.79
672.77	53.83
672.91	35.11
673.05	70.22
673.19	0.00
673.33	25.75
673.47	65.54
673.61	0.00
673.75	114.69
673.89	74.90
674.03	77.24
674.17	0.00
674.31	18.72
674.45	32.77
674.59	42.13
674.73	70.22
674.87	0.00
675.01	0.00
675.15	74.90
675.29	53.83
675.43	37.45
675.56	0.00
675.70	37.45
675.84	46.81
675.98	37.45
676.12	14.04
676.26	23.41
676.40	7.02
676.54	0.00
676.68	49.15
676.82	88.94
676.96	32.77
677.10	25.75
677.23	39.79
677.37	0.00
677.51	0.00
677.65	28.09
677.79	30.43
677.93	0.00
678.07	25.75
678.21	42.13
678.34	39.79
678.48	18.72
678.62	25.75
678.76	0.00
678.90	0.00
679.04	46.81
679.18	7.02
679.31	77.24
679.45	0.00
679.59	46.81
679.73	53.83
679.87	14.04
680.00	11.70
680.14	0.00
680.28	21.06
680.42	44.47
680.56	0.00
680.70	0.00
680.83	65.54
680.97	23.41
681.11	72.56
681.25	49.15
681.39	65.54
681.52	0.00
681.66	0.00
681.80	28.09
681.94	14.04
682.07	81.92
682.21	25.75
682.35	86.60
682.49	0.00
682.62	72.56
682.76	0.00
682.90	0.00
683.04	35.11
683.17	42.13
683.31	49.15
683.45	77.24
683.59	74.90
683.72	105.32
683.86	18.72
684.00	70.22
684.13	7.02
684.27	30.43
684.41	53.83
684.55	30.43
684.68	9.36
684.82	0.00
684.96	46.81
685.09	72.56
685.23	28.09
685.37	95.96
685.50	0.00
685.64	44.47
685.78	35.11
685.91	23.41
686.05	60.85
686.19	0.00
686.32	63.19
686.46	56.17
686.60	60.85
686.73	7.02
686.87	0.00
687.01	21.06
687.14	37.45
687.28	93.62
687.42	30.43
687.55	88.94
687.69	60.85
687.82	0.00
687.96	7.02
688.10	98.30
688.23	100.64
688.37	0.00
688.50	100.64
688.64	51.49
688.78	58.51
688.91	18.72
689.05	37.45
689.18	7.02
689.32	30.43
689.46	63.19
689.59	88.94
689.73	0.00
689.86	23.41
690.00	28.09
690.13	88.94
690.27	9.36
690.41	25.75
690.54	0.00
690.68	0.00
690.81	39.79
690.95	60.85
691.08	23.41
691.22	39.79
691.35	95.96
691.49	39.79
691.62	0.00
691.76	70.22
691.89	63.19
692.03	7.02
692.16	11.70
692.30	58.51
692.43	49.15
692.57	0.00
692.70	63.19
692.84	133.41
692.97	110.01
693.11	88.94
693.24	65.54
693.38	84.26
693.51	0.00
693.65	18.72
693.78	32.77
693.92	11.70
694.05	9.36
694.19	49.15
694.32	49.15
694.45	28.09
694.59	72.56
694.72	42.13
694.86	28.09
694.99	0.00
695.13	60.85
695.26	0.00
695.39	2.34
695.53	7.02
695.66	7.02
695.80	51.49
695.93	23.41
696.07	0.00
696.20	124.05
696.33	9.36
696.47	21.06
696.60	77.24
696.73	88.94
696.87	30.43
697.00	9.36
697.14	0.00
697.27	14.04
697.40	39.79
697.54	0.00
697.67	0.00
697.80	39.79
697.94	105.32
698.07	18.72
698.21	28.09
698.34	0.00
698.47	7.02
698.61	0.00
698.74	0.00
698.87	16.38
699.01	23.41
699.14	91.28
699.27	0.00
699.40	0.00
699.54	25.75
699.67	7.02
699.80	60.85
699.94	28.09
700.07	25.75
700.20	44.47
700.34	70.22
700.47	39.79
700.60	35.11
700.73	0.00
700.87	74.90
701.00	0.00
701.13	23.41
701.26	39.79
701.40	51.49
701.53	95.96
701.66	93.62
701.79	37.45
701.93	0.00
702.06	25.75
702.19	25.75
702.32	9.36
702.46	56.17
702.59	16.38
702.72	70.22
702.85	79.58
702.99	117.03
703.12	131.07
703.25	173.20
703.38	191.92
703.51	72.56
703.65	166.18
703.78	112.35
703.91	46.81
704.04	58.51
704.17	9.36
704.31	79.58
704.44	4.68
704.57	37.45
704.70	14.04
704.83	56.17
704.96	0.00
705.10	98.30
705.23	9.36
>>>>>End Processed Spectral Data<<<<<
