SpectraSuite Data File
++++++++++++++++++++++++++++++++++++
Date: Fri Oct 04 12:13:32 GMT-05:00 2013
User: price-jones
Dark Spectrum Present: No
Reference Spectrum Present: No
Number of Sampled Component Spectra: 1
Spectrometers: USB2+H05261
Integration Time (usec): 10000 (USB2+H05261)
Spectra Averaged: 1 (USB2+H05261)
Boxcar Smoothing: 0 (USB2+H05261)
Correct for Electrical Dark: No (USB2+H05261)
Strobe/Lamp Enabled: No (USB2+H05261)
Correct for Detector Non-linearity: No (USB2+H05261)
Correct for Stray Light: No (USB2+H05261)
Number of Pixels in Processed Spectrum: 2048
>>>>>Begin Processed Spectral Data<<<<<
365.73	0.00
365.92	0.00
366.12	0.00
366.32	0.00
366.52	0.00
366.72	0.00
366.91	0.00
367.11	0.00
367.31	0.00
367.51	0.00
367.70	0.00
367.90	0.00
368.10	0.00
368.30	0.00
368.49	0.00
368.69	0.00
368.89	0.00
369.09	0.00
369.28	0.00
369.48	0.00
369.68	0.00
369.87	0.00
370.07	0.00
370.27	0.00
370.47	0.00
370.66	0.00
370.86	0.00
371.06	0.00
371.25	0.00
371.45	0.00
371.65	0.00
371.84	0.00
372.04	0.00
372.24	35.11
372.44	18.72
372.63	28.09
372.83	37.45
373.03	30.43
373.22	0.00
373.42	58.51
373.62	16.38
373.81	56.17
374.01	35.11
374.21	60.85
374.40	25.75
374.60	53.83
374.79	0.00
374.99	11.70
375.19	28.09
375.38	60.85
375.58	32.77
375.78	7.02
375.97	18.72
376.17	46.81
376.37	39.79
376.56	0.00
376.76	51.49
376.95	0.00
377.15	46.81
377.35	23.41
377.54	51.49
377.74	0.00
377.93	0.00
378.13	60.85
378.33	0.00
378.52	53.83
378.72	0.00
378.91	0.00
379.11	23.41
379.31	44.47
379.50	86.60
379.70	0.00
379.89	0.00
380.09	65.54
380.28	51.49
380.48	25.75
380.68	0.00
380.87	23.41
381.07	49.15
381.26	0.00
381.46	14.04
381.65	46.81
381.85	42.13
382.04	51.49
382.24	44.47
382.43	21.06
382.63	14.04
382.83	14.04
383.02	0.00
383.22	0.00
383.41	0.00
383.61	0.00
383.80	23.41
384.00	35.11
384.19	0.00
384.39	44.47
384.58	0.00
384.78	23.41
384.97	53.83
385.17	2.34
385.36	0.00
385.56	37.45
385.75	58.51
385.95	140.43
386.14	98.30
386.34	42.13
386.53	2.34
386.72	14.04
386.92	84.26
387.11	0.00
387.31	114.69
387.50	0.00
387.70	30.43
387.89	18.72
388.09	56.17
388.28	0.00
388.48	44.47
388.67	79.58
388.86	63.19
389.06	53.83
389.25	25.75
389.45	0.00
389.64	0.00
389.84	18.72
390.03	30.43
390.22	11.70
390.42	63.19
390.61	37.45
390.81	35.11
391.00	4.68
391.19	0.00
391.39	18.72
391.58	28.09
391.78	7.02
391.97	7.02
392.16	11.70
392.36	70.22
392.55	105.32
392.75	74.90
392.94	0.00
393.13	28.09
393.33	4.68
393.52	7.02
393.71	35.11
393.91	0.00
394.10	0.00
394.29	44.47
394.49	16.38
394.68	16.38
394.88	16.38
395.07	39.79
395.26	35.11
395.46	0.00
395.65	18.72
395.84	0.00
396.04	23.41
396.23	23.41
396.42	0.00
396.62	0.00
396.81	67.88
397.00	53.83
397.19	0.00
397.39	49.15
397.58	16.38
397.77	30.43
397.97	11.70
398.16	4.68
398.35	18.72
398.55	79.58
398.74	58.51
398.93	11.70
399.12	16.38
399.32	14.04
399.51	81.92
399.70	2.34
399.90	30.43
400.09	135.75
400.28	32.77
400.47	4.68
400.67	0.00
400.86	79.58
401.05	0.00
401.24	0.00
401.44	0.00
401.63	53.83
401.82	100.64
402.01	0.00
402.21	49.15
402.40	9.36
402.59	35.11
402.78	0.00
402.97	9.36
403.17	81.92
403.36	21.06
403.55	25.75
403.74	60.85
403.93	0.00
404.13	32.77
404.32	65.54
404.51	0.00
404.70	58.51
404.89	0.00
405.09	2.34
405.28	16.38
405.47	23.41
405.66	0.00
405.85	42.13
406.05	35.11
406.24	74.90
406.43	51.49
406.62	9.36
406.81	72.56
407.00	18.72
407.20	11.70
407.39	65.54
407.58	46.81
407.77	49.15
407.96	0.00
408.15	0.00
408.34	23.41
408.54	44.47
408.73	37.45
408.92	23.41
409.11	0.00
409.30	35.11
409.49	0.00
409.68	14.04
409.87	79.58
410.07	95.96
410.26	14.04
410.45	70.22
410.64	0.00
410.83	51.49
411.02	11.70
411.21	56.17
411.40	42.13
411.59	30.43
411.78	70.22
411.98	0.00
412.17	25.75
412.36	51.49
412.55	18.72
412.74	4.68
412.93	0.00
413.12	63.19
413.31	0.00
413.50	0.00
413.69	9.36
413.88	0.00
414.07	49.15
414.26	0.00
414.45	18.72
414.64	72.56
414.83	28.09
415.02	39.79
415.22	0.00
415.41	18.72
415.60	0.00
415.79	35.11
415.98	0.00
416.17	11.70
416.36	23.41
416.55	0.00
416.74	11.70
416.93	32.77
417.12	0.00
417.31	16.38
417.50	72.56
417.69	91.28
417.88	14.04
418.07	65.54
418.26	72.56
418.45	56.17
418.64	7.02
418.83	49.15
419.02	0.00
419.21	0.00
419.39	37.45
419.58	0.00
419.77	32.77
419.96	32.77
420.15	23.41
420.34	56.17
420.53	60.85
420.72	30.43
420.91	51.49
421.10	49.15
421.29	0.00
421.48	0.00
421.67	0.00
421.86	0.00
422.05	51.49
422.24	18.72
422.43	0.00
422.61	37.45
422.80	16.38
422.99	0.00
423.18	18.72
423.37	4.68
423.56	35.11
423.75	93.62
423.94	0.00
424.13	0.00
424.32	0.00
424.50	18.72
424.69	0.00
424.88	0.00
425.07	7.02
425.26	16.38
425.45	0.00
425.64	21.06
425.83	23.41
426.01	7.02
426.20	0.00
426.39	18.72
426.58	37.45
426.77	126.39
426.96	67.88
427.15	72.56
427.33	0.00
427.52	28.09
427.71	60.85
427.90	0.00
428.09	21.06
428.28	0.00
428.46	23.41
428.65	37.45
428.84	0.00
429.03	37.45
429.22	0.00
429.40	42.13
429.59	51.49
429.78	51.49
429.97	53.83
430.16	51.49
430.34	0.00
430.53	56.17
430.72	102.98
430.91	49.15
431.10	30.43
431.28	11.70
431.47	0.00
431.66	0.00
431.85	0.00
432.03	42.13
432.22	35.11
432.41	0.00
432.60	21.06
432.79	77.24
432.97	0.00
433.16	23.41
433.35	51.49
433.54	0.00
433.72	53.83
433.91	0.00
434.10	35.11
434.28	42.13
434.47	100.64
434.66	25.75
434.85	0.00
435.03	11.70
435.22	51.49
435.41	42.13
435.59	0.00
435.78	7.02
435.97	60.85
436.16	79.58
436.34	0.00
436.53	7.02
436.72	74.90
436.90	102.98
437.09	67.88
437.28	7.02
437.46	35.11
437.65	42.13
437.84	79.58
438.02	39.79
438.21	44.47
438.40	35.11
438.58	42.13
438.77	121.71
438.96	65.54
439.14	56.17
439.33	51.49
439.52	0.00
439.70	0.00
439.89	23.41
440.08	32.77
440.26	0.00
440.45	74.90
440.63	65.54
440.82	32.77
441.01	56.17
441.19	86.60
441.38	16.38
441.57	7.02
441.75	0.00
441.94	79.58
442.12	60.85
442.31	44.47
442.50	0.00
442.68	42.13
442.87	0.00
443.05	25.75
443.24	39.79
443.43	28.09
443.61	77.24
443.80	60.85
443.98	32.77
444.17	4.68
444.35	0.00
444.54	14.04
444.73	46.81
444.91	9.36
445.10	0.00
445.28	23.41
445.47	121.71
445.65	11.70
445.84	0.00
446.02	0.00
446.21	58.51
446.39	117.03
446.58	0.00
446.77	56.17
446.95	0.00
447.14	86.60
447.32	114.69
447.51	0.00
447.69	14.04
447.88	35.11
448.06	53.83
448.25	91.28
448.43	91.28
448.62	23.41
448.80	14.04
448.99	28.09
449.17	2.34
449.36	58.51
449.54	0.00
449.73	32.77
449.91	35.11
450.10	53.83
450.28	2.34
450.46	53.83
450.65	30.43
450.83	32.77
451.02	0.00
451.20	81.92
451.39	46.81
451.57	53.83
451.76	7.02
451.94	28.09
452.13	25.75
452.31	16.38
452.49	46.81
452.68	53.83
452.86	14.04
453.05	0.00
453.23	0.00
453.42	7.02
453.60	84.26
453.78	56.17
453.97	51.49
454.15	63.19
454.34	84.26
454.52	0.00
454.70	2.34
454.89	107.66
455.07	77.24
455.26	16.38
455.44	0.00
455.62	95.96
455.81	35.11
455.99	16.38
456.17	77.24
456.36	67.88
456.54	23.41
456.73	23.41
456.91	0.00
457.09	53.83
457.28	0.00
457.46	0.00
457.64	46.81
457.83	0.00
458.01	28.09
458.19	28.09
458.38	35.11
458.56	25.75
458.74	128.73
458.93	0.00
459.11	35.11
459.29	46.81
459.48	88.94
459.66	67.88
459.84	42.13
460.03	58.51
460.21	0.00
460.39	58.51
460.57	25.75
460.76	0.00
460.94	0.00
461.12	74.90
461.31	100.64
461.49	44.47
461.67	39.79
461.85	0.00
462.04	42.13
462.22	110.01
462.40	18.72
462.59	53.83
462.77	0.00
462.95	44.47
463.13	2.34
463.32	93.62
463.50	9.36
463.68	16.38
463.86	49.15
464.05	30.43
464.23	51.49
464.41	25.75
464.59	58.51
464.78	0.00
464.96	39.79
465.14	63.19
465.32	56.17
465.50	77.24
465.69	95.96
465.87	0.00
466.05	7.02
466.23	46.81
466.41	51.49
466.60	42.13
466.78	74.90
466.96	30.43
467.14	30.43
467.32	14.04
467.51	14.04
467.69	58.51
467.87	77.24
468.05	126.39
468.23	28.09
468.41	58.51
468.60	16.38
468.78	0.00
468.96	9.36
469.14	74.90
469.32	0.00
469.50	0.00
469.69	81.92
469.87	0.00
470.05	28.09
470.23	58.51
470.41	42.13
470.59	56.17
470.77	4.68
470.95	4.68
471.14	44.47
471.32	86.60
471.50	42.13
471.68	51.49
471.86	28.09
472.04	0.00
472.22	18.72
472.40	0.00
472.58	51.49
472.77	49.15
472.95	51.49
473.13	77.24
473.31	117.03
473.49	37.45
473.67	63.19
473.85	16.38
474.03	60.85
474.21	16.38
474.39	7.02
474.57	88.94
474.75	0.00
474.93	46.81
475.12	0.00
475.30	0.00
475.48	65.54
475.66	0.00
475.84	42.13
476.02	0.00
476.20	0.00
476.38	77.24
476.56	46.81
476.74	39.79
476.92	0.00
477.10	7.02
477.28	53.83
477.46	70.22
477.64	39.79
477.82	67.88
478.00	67.88
478.18	0.00
478.36	0.00
478.54	14.04
478.72	42.13
478.90	0.00
479.08	0.00
479.26	35.11
479.44	7.02
479.62	42.13
479.80	84.26
479.98	0.00
480.16	0.00
480.34	16.38
480.52	44.47
480.70	30.43
480.88	95.96
481.06	86.60
481.24	49.15
481.41	0.00
481.59	0.00
481.77	46.81
481.95	98.30
482.13	9.36
482.31	42.13
482.49	53.83
482.67	0.00
482.85	18.72
483.03	21.06
483.21	37.45
483.39	18.72
483.57	0.00
483.74	114.69
483.92	37.45
484.10	56.17
484.28	98.30
484.46	63.19
484.64	21.06
484.82	0.00
485.00	86.60
485.18	49.15
485.35	49.15
485.53	14.04
485.71	25.75
485.89	95.96
486.07	14.04
486.25	112.35
486.43	79.58
486.61	56.17
486.78	58.51
486.96	37.45
487.14	0.00
487.32	58.51
487.50	14.04
487.68	105.32
487.85	0.00
488.03	0.00
488.21	14.04
488.39	32.77
488.57	60.85
488.75	11.70
488.92	21.06
489.10	30.43
489.28	25.75
489.46	0.00
489.64	39.79
489.81	23.41
489.99	74.90
490.17	105.32
490.35	23.41
490.53	114.69
490.70	56.17
490.88	95.96
491.06	79.58
491.24	53.83
491.41	0.00
491.59	25.75
491.77	7.02
491.95	53.83
492.13	46.81
492.30	91.28
492.48	95.96
492.66	67.88
492.84	81.92
493.01	53.83
493.19	49.15
493.37	39.79
493.54	93.62
493.72	79.58
493.90	18.72
494.08	7.02
494.25	42.13
494.43	7.02
494.61	53.83
494.79	105.32
494.96	21.06
495.14	58.51
495.32	88.94
495.49	14.04
495.67	44.47
495.85	81.92
496.02	0.00
496.20	44.47
496.38	81.92
496.55	39.79
496.73	74.90
496.91	42.13
497.09	25.75
497.26	4.68
497.44	93.62
497.62	86.60
497.79	18.72
497.97	42.13
498.14	135.75
498.32	4.68
498.50	42.13
498.67	81.92
498.85	77.24
499.03	0.00
499.20	0.00
499.38	63.19
499.56	56.17
499.73	11.70
499.91	2.34
500.08	42.13
500.26	42.13
500.44	35.11
500.61	14.04
500.79	39.79
500.97	25.75
501.14	30.43
501.32	56.17
501.49	60.85
501.67	9.36
501.84	37.45
502.02	0.00
502.20	98.30
502.37	14.04
502.55	21.06
502.72	37.45
502.90	14.04
503.07	21.06
503.25	56.17
503.43	39.79
503.60	28.09
503.78	49.15
503.95	0.00
504.13	25.75
504.30	53.83
504.48	28.09
504.65	42.13
504.83	46.81
505.01	58.51
505.18	0.00
505.36	86.60
505.53	28.09
505.71	9.36
505.88	21.06
506.06	4.68
506.23	44.47
506.41	37.45
506.58	0.00
506.76	53.83
506.93	0.00
507.11	46.81
507.28	14.04
507.46	84.26
507.63	56.17
507.81	126.39
507.98	0.00
508.16	28.09
508.33	79.58
508.50	84.26
508.68	67.88
508.85	91.28
509.03	14.04
509.20	46.81
509.38	11.70
509.55	0.00
509.73	28.09
509.90	35.11
510.08	35.11
510.25	72.56
510.42	32.77
510.60	0.00
510.77	37.45
510.95	112.35
511.12	138.09
511.30	18.72
511.47	11.70
511.64	72.56
511.82	49.15
511.99	86.60
512.17	46.81
512.34	63.19
512.51	46.81
512.69	9.36
512.86	18.72
513.04	0.00
513.21	51.49
513.38	32.77
513.56	0.00
513.73	0.00
513.90	93.62
514.08	56.17
514.25	81.92
514.43	21.06
514.60	58.51
514.77	7.02
514.95	79.58
515.12	81.92
515.29	0.00
515.47	49.15
515.64	42.13
515.81	4.68
515.99	32.77
516.16	35.11
516.33	63.19
516.51	56.17
516.68	107.66
516.85	7.02
517.03	53.83
517.20	0.00
517.37	32.77
517.54	25.75
517.72	67.88
517.89	88.94
518.06	49.15
518.24	2.34
518.41	0.00
518.58	18.72
518.75	7.02
518.93	102.98
519.10	67.88
519.27	53.83
519.45	46.81
519.62	32.77
519.79	21.06
519.96	21.06
520.14	88.94
520.31	65.54
520.48	0.00
520.65	4.68
520.83	105.32
521.00	51.49
521.17	11.70
521.34	72.56
521.52	58.51
521.69	42.13
521.86	58.51
522.03	56.17
522.20	32.77
522.38	35.11
522.55	58.51
522.72	93.62
522.89	86.60
523.07	77.24
523.24	65.54
523.41	16.38
523.58	91.28
523.75	37.45
523.92	63.19
524.10	11.70
524.27	110.01
524.44	49.15
524.61	14.04
524.78	0.00
524.96	0.00
525.13	39.79
525.30	65.54
525.47	67.88
525.64	44.47
525.81	0.00
525.98	39.79
526.16	11.70
526.33	32.77
526.50	4.68
526.67	60.85
526.84	25.75
527.01	100.64
527.18	11.70
527.36	49.15
527.53	23.41
527.70	28.09
527.87	37.45
528.04	53.83
528.21	21.06
528.38	28.09
528.55	14.04
528.72	0.00
528.89	102.98
529.07	74.90
529.24	25.75
529.41	51.49
529.58	88.94
529.75	0.00
529.92	0.00
530.09	49.15
530.26	23.41
530.43	32.77
530.60	0.00
530.77	37.45
530.94	0.00
531.11	88.94
531.28	42.13
531.46	70.22
531.63	56.17
531.80	93.62
531.97	72.56
532.14	9.36
532.31	0.00
532.48	39.79
532.65	23.41
532.82	0.00
532.99	39.79
533.16	0.00
533.33	60.85
533.50	11.70
533.67	35.11
533.84	46.81
534.01	9.36
534.18	37.45
534.35	0.00
534.52	18.72
534.69	11.70
534.86	63.19
535.03	23.41
535.20	0.00
535.37	14.04
535.54	77.24
535.71	0.00
535.88	0.00
536.05	30.43
536.22	11.70
536.38	0.00
536.55	79.58
536.72	35.11
536.89	112.35
537.06	16.38
537.23	63.19
537.40	37.45
537.57	9.36
537.74	53.83
537.91	18.72
538.08	0.00
538.25	28.09
538.42	98.30
538.59	49.15
538.75	56.17
538.92	0.00
539.09	72.56
539.26	72.56
539.43	14.04
539.60	35.11
539.77	0.00
539.94	32.77
540.11	81.92
540.28	0.00
540.44	86.60
540.61	0.00
540.78	7.02
540.95	53.83
541.12	25.75
541.29	51.49
541.46	28.09
541.62	14.04
541.79	0.00
541.96	60.85
542.13	37.45
542.30	84.26
542.47	0.00
542.63	0.00
542.80	0.00
542.97	91.28
543.14	56.17
543.31	32.77
543.48	95.96
543.64	0.00
543.81	16.38
543.98	95.96
544.15	93.62
544.32	79.58
544.48	70.22
544.65	46.81
544.82	100.64
544.99	35.11
545.16	32.77
545.32	0.00
545.49	60.85
545.66	25.75
545.83	28.09
546.00	0.00
546.16	70.22
546.33	98.30
546.50	74.90
546.67	25.75
546.83	14.04
547.00	86.60
547.17	44.47
547.34	0.00
547.50	0.00
547.67	91.28
547.84	72.56
548.00	67.88
548.17	4.68
548.34	23.41
548.51	0.00
548.67	0.00
548.84	88.94
549.01	0.00
549.18	63.19
549.34	44.47
549.51	2.34
549.68	14.04
549.84	84.26
550.01	53.83
550.18	84.26
550.34	0.00
550.51	51.49
550.68	18.72
550.84	39.79
551.01	30.43
551.18	44.47
551.34	44.47
551.51	84.26
551.68	74.90
551.84	70.22
552.01	74.90
552.18	58.51
552.34	98.30
552.51	37.45
552.68	18.72
552.84	14.04
553.01	46.81
553.18	49.15
553.34	84.26
553.51	84.26
553.67	25.75
553.84	98.30
554.01	7.02
554.17	51.49
554.34	58.51
554.51	67.88
554.67	42.13
554.84	49.15
555.00	4.68
555.17	67.88
555.33	102.98
555.50	35.11
555.67	67.88
555.83	42.13
556.00	86.60
556.16	35.11
556.33	63.19
556.50	53.83
556.66	14.04
556.83	70.22
556.99	44.47
557.16	79.58
557.32	74.90
557.49	18.72
557.65	0.00
557.82	0.00
557.98	18.72
558.15	35.11
558.32	30.43
558.48	56.17
558.65	32.77
558.81	35.11
558.98	110.01
559.14	25.75
559.31	0.00
559.47	0.00
559.64	30.43
559.80	112.35
559.97	117.03
560.13	53.83
560.30	39.79
560.46	44.47
560.63	0.00
560.79	0.00
560.96	70.22
561.12	39.79
561.29	74.90
561.45	56.17
561.61	67.88
561.78	39.79
561.94	0.00
562.11	65.54
562.27	93.62
562.44	16.38
562.60	114.69
562.77	44.47
562.93	88.94
563.10	60.85
563.26	42.13
563.42	9.36
563.59	49.15
563.75	2.34
563.92	93.62
564.08	93.62
564.24	56.17
564.41	112.35
564.57	2.34
564.74	32.77
564.90	0.00
565.07	53.83
565.23	35.11
565.39	16.38
565.56	28.09
565.72	88.94
565.88	25.75
566.05	0.00
566.21	86.60
566.38	81.92
566.54	63.19
566.70	77.24
566.87	0.00
567.03	44.47
567.19	0.00
567.36	16.38
567.52	65.54
567.68	63.19
567.85	9.36
568.01	11.70
568.17	32.77
568.34	105.32
568.50	84.26
568.66	23.41
568.83	95.96
568.99	0.00
569.15	74.90
569.32	138.09
569.48	25.75
569.64	18.72
569.81	81.92
569.97	58.51
570.13	70.22
570.30	112.35
570.46	0.00
570.62	30.43
570.78	18.72
570.95	51.49
571.11	32.77
571.27	117.03
571.43	63.19
571.60	35.11
571.76	63.19
571.92	74.90
572.09	98.30
572.25	0.00
572.41	53.83
572.57	95.96
572.74	65.54
572.90	42.13
573.06	79.58
573.22	124.05
573.38	86.60
573.55	0.00
573.71	39.79
573.87	86.60
574.03	51.49
574.20	110.01
574.36	74.90
574.52	0.00
574.68	0.00
574.84	88.94
575.01	30.43
575.17	65.54
575.33	56.17
575.49	30.43
575.65	28.09
575.82	18.72
575.98	35.11
576.14	95.96
576.30	14.04
576.46	0.00
576.62	93.62
576.79	11.70
576.95	28.09
577.11	23.41
577.27	67.88
577.43	93.62
577.59	23.41
577.75	35.11
577.92	0.00
578.08	18.72
578.24	58.51
578.40	21.06
578.56	16.38
578.72	0.00
578.88	23.41
579.04	65.54
579.21	84.26
579.37	74.90
579.53	30.43
579.69	11.70
579.85	65.54
580.01	46.81
580.17	42.13
580.33	28.09
580.49	30.43
580.65	18.72
580.82	72.56
580.98	16.38
581.14	11.70
581.30	0.00
581.46	37.45
581.62	11.70
581.78	37.45
581.94	72.56
582.10	51.49
582.26	32.77
582.42	18.72
582.58	65.54
582.74	4.68
582.90	32.77
583.06	44.47
583.22	4.68
583.38	93.62
583.54	46.81
583.70	32.77
583.86	63.19
584.02	25.75
584.18	0.00
584.34	46.81
584.50	72.56
584.66	42.13
584.82	70.22
584.98	0.00
585.14	35.11
585.30	65.54
585.46	14.04
585.62	58.51
585.78	0.00
585.94	32.77
586.10	0.00
586.26	65.54
586.42	32.77
586.58	14.04
586.74	30.43
586.90	0.00
587.06	14.04
587.22	0.00
587.38	56.17
587.54	0.00
587.70	0.00
587.86	49.15
588.02	16.38
588.18	11.70
588.34	44.47
588.49	25.75
588.65	23.41
588.81	77.24
588.97	35.11
589.13	30.43
589.29	65.54
589.45	51.49
589.61	0.00
589.77	23.41
589.93	37.45
590.08	60.85
590.24	88.94
590.40	0.00
590.56	9.36
590.72	0.00
590.88	30.43
591.04	81.92
591.20	67.88
591.35	93.62
591.51	7.02
591.67	84.26
591.83	32.77
591.99	81.92
592.15	21.06
592.31	86.60
592.46	9.36
592.62	37.45
592.78	9.36
592.94	0.00
593.10	58.51
593.26	110.01
593.41	0.00
593.57	49.15
593.73	44.47
593.89	0.00
594.05	9.36
594.20	67.88
594.36	49.15
594.52	44.47
594.68	0.00
594.84	7.02
594.99	16.38
595.15	93.62
595.31	0.00
595.47	74.90
595.62	11.70
595.78	21.06
595.94	117.03
596.10	119.37
596.25	81.92
596.41	79.58
596.57	60.85
596.73	0.00
596.88	0.00
597.04	9.36
597.20	0.00
597.36	105.32
597.51	58.51
597.67	0.00
597.83	28.09
597.99	11.70
598.14	49.15
598.30	32.77
598.46	56.17
598.61	70.22
598.77	100.64
598.93	37.45
599.09	65.54
599.24	70.22
599.40	102.98
599.56	7.02
599.71	46.81
599.87	79.58
600.03	25.75
600.18	84.26
600.34	44.47
600.50	140.43
600.65	110.01
600.81	65.54
600.97	4.68
601.12	42.13
601.28	95.96
601.44	18.72
601.59	91.28
601.75	32.77
601.91	102.98
602.06	16.38
602.22	53.83
602.37	37.45
602.53	9.36
602.69	65.54
602.84	42.13
603.00	30.43
603.16	14.04
603.31	51.49
603.47	44.47
603.62	65.54
603.78	84.26
603.94	14.04
604.09	30.43
604.25	72.56
604.40	60.85
604.56	0.00
604.71	39.79
604.87	25.75
605.03	60.85
605.18	35.11
605.34	81.92
605.49	70.22
605.65	0.00
605.80	72.56
605.96	2.34
606.12	86.60
606.27	16.38
606.43	37.45
606.58	14.04
606.74	112.35
606.89	49.15
607.05	79.58
607.20	23.41
607.36	23.41
607.51	67.88
607.67	37.45
607.82	51.49
607.98	51.49
608.13	0.00
608.29	30.43
608.44	67.88
608.60	18.72
608.75	56.17
608.91	25.75
609.06	0.00
609.22	60.85
609.37	0.00
609.53	23.41
609.68	23.41
609.84	21.06
609.99	18.72
610.15	9.36
610.30	51.49
610.46	63.19
610.61	51.49
610.76	51.49
610.92	65.54
611.07	72.56
611.23	79.58
611.38	67.88
611.54	63.19
611.69	9.36
611.84	63.19
612.00	49.15
612.15	84.26
612.31	49.15
612.46	28.09
612.62	37.45
612.77	14.04
612.92	35.11
613.08	110.01
613.23	14.04
613.39	72.56
613.54	37.45
613.69	44.47
613.85	28.09
614.00	93.62
614.15	0.00
614.31	77.24
614.46	53.83
614.62	23.41
614.77	60.85
614.92	18.72
615.08	2.34
615.23	32.77
615.38	65.54
615.54	46.81
615.69	0.00
615.84	72.56
616.00	0.00
616.15	51.49
616.30	49.15
616.46	14.04
616.61	93.62
616.76	18.72
616.92	119.37
617.07	35.11
617.22	9.36
617.37	0.00
617.53	28.09
617.68	0.00
617.83	53.83
617.99	84.26
618.14	32.77
618.29	14.04
618.45	42.13
618.60	49.15
618.75	30.43
618.90	58.51
619.06	110.01
619.21	56.17
619.36	32.77
619.51	44.47
619.67	21.06
619.82	23.41
619.97	58.51
620.12	56.17
620.28	56.17
620.43	4.68
620.58	35.11
620.73	37.45
620.89	25.75
621.04	42.13
621.19	0.00
621.34	60.85
621.49	58.51
621.65	11.70
621.80	0.00
621.95	98.30
622.10	23.41
622.25	46.81
622.41	0.00
622.56	140.43
622.71	67.88
622.86	21.06
623.01	0.00
623.16	102.98
623.32	44.47
623.47	37.45
623.62	0.00
623.77	0.00
623.92	0.00
624.07	60.85
624.23	86.60
624.38	21.06
624.53	32.77
624.68	65.54
624.83	93.62
624.98	56.17
625.13	79.58
625.29	23.41
625.44	102.98
625.59	28.09
625.74	0.00
625.89	0.00
626.04	37.45
626.19	51.49
626.34	65.54
626.49	0.00
626.65	0.00
626.80	14.04
626.95	79.58
627.10	51.49
627.25	67.88
627.40	51.49
627.55	25.75
627.70	4.68
627.85	51.49
628.00	4.68
628.15	77.24
628.30	11.70
628.45	0.00
628.60	0.00
628.76	67.88
628.91	39.79
629.06	46.81
629.21	100.64
629.36	60.85
629.51	28.09
629.66	0.00
629.81	58.51
629.96	0.00
630.11	30.43
630.26	0.00
630.41	30.43
630.56	74.90
630.71	0.00
630.86	49.15
631.01	0.00
631.16	39.79
631.31	70.22
631.46	0.00
631.61	42.13
631.76	35.11
631.91	117.03
632.06	46.81
632.21	30.43
632.36	23.41
632.51	0.00
632.66	25.75
632.81	14.04
632.96	18.72
633.10	65.54
633.25	60.85
633.40	0.00
633.55	39.79
633.70	18.72
633.85	30.43
634.00	11.70
634.15	7.02
634.30	79.58
634.45	16.38
634.60	7.02
634.75	30.43
634.90	21.06
635.05	0.00
635.19	53.83
635.34	0.00
635.49	28.09
635.64	0.00
635.79	88.94
635.94	14.04
636.09	35.11
636.24	14.04
636.39	0.00
636.53	21.06
636.68	42.13
636.83	46.81
636.98	0.00
637.13	0.00
637.28	65.54
637.43	93.62
637.57	51.49
637.72	0.00
637.87	14.04
638.02	4.68
638.17	30.43
638.32	0.00
638.46	44.47
638.61	135.75
638.76	58.51
638.91	14.04
639.06	16.38
639.20	60.85
639.35	63.19
639.50	30.43
639.65	53.83
639.80	102.98
639.94	0.00
640.09	37.45
640.24	16.38
640.39	58.51
640.54	37.45
640.68	107.66
640.83	21.06
640.98	63.19
641.13	21.06
641.27	4.68
641.42	30.43
641.57	58.51
641.72	46.81
641.86	81.92
642.01	11.70
642.16	42.13
642.31	67.88
642.45	60.85
642.60	0.00
642.75	37.45
642.90	2.34
643.04	46.81
643.19	88.94
643.34	65.54
643.48	28.09
643.63	60.85
643.78	0.00
643.93	46.81
644.07	18.72
644.22	44.47
644.37	0.00
644.51	84.26
644.66	11.70
644.81	25.75
644.95	42.13
645.10	56.17
645.25	28.09
645.39	56.17
645.54	88.94
645.69	56.17
645.83	0.00
645.98	0.00
646.13	49.15
646.27	0.00
646.42	0.00
646.57	2.34
646.71	28.09
646.86	32.77
647.00	49.15
647.15	51.49
647.30	49.15
647.44	0.00
647.59	16.38
647.74	18.72
647.88	0.00
648.03	0.00
648.17	32.77
648.32	42.13
648.47	60.85
648.61	32.77
648.76	18.72
648.90	46.81
649.05	0.00
649.20	4.68
649.34	51.49
649.49	39.79
649.63	49.15
649.78	53.83
649.92	9.36
650.07	98.30
650.21	35.11
650.36	0.00
650.51	72.56
650.65	79.58
650.80	51.49
650.94	72.56
651.09	60.85
651.23	0.00
651.38	46.81
651.52	74.90
651.67	63.19
651.81	56.17
651.96	28.09
652.10	16.38
652.25	93.62
652.39	56.17
652.54	72.56
652.68	21.06
652.83	11.70
652.97	53.83
653.12	21.06
653.26	46.81
653.41	0.00
653.55	58.51
653.70	0.00
653.84	79.58
653.99	0.00
654.13	0.00
654.27	0.00
654.42	35.11
654.56	11.70
654.71	0.00
654.85	0.00
655.00	46.81
655.14	60.85
655.29	56.17
655.43	4.68
655.57	16.38
655.72	65.54
655.86	44.47
656.01	65.54
656.15	21.06
656.30	49.15
656.44	0.00
656.58	0.00
656.73	0.00
656.87	23.41
657.01	0.00
657.16	0.00
657.30	51.49
657.45	0.00
657.59	0.00
657.73	0.00
657.88	58.51
658.02	0.00
658.16	9.36
658.31	0.00
658.45	11.70
658.60	0.00
658.74	0.00
658.88	0.00
659.03	11.70
659.17	0.00
659.31	32.77
659.46	21.06
659.60	11.70
659.74	84.26
659.89	39.79
660.03	35.11
660.17	0.00
660.32	32.77
660.46	72.56
660.60	56.17
660.74	63.19
660.89	25.75
661.03	35.11
661.17	72.56
661.32	0.00
661.46	0.00
661.60	39.79
661.74	0.00
661.89	28.09
662.03	46.81
662.17	35.11
662.31	23.41
662.46	0.00
662.60	0.00
662.74	49.15
662.88	7.02
663.03	39.79
663.17	0.00
663.31	63.19
663.45	0.00
663.60	72.56
663.74	23.41
663.88	77.24
664.02	37.45
664.17	0.00
664.31	0.00
664.45	100.64
664.59	9.36
664.73	11.70
664.88	51.49
665.02	72.56
665.16	23.41
665.30	0.00
665.44	58.51
665.59	72.56
665.73	67.88
665.87	9.36
666.01	32.77
666.15	0.00
666.29	65.54
666.44	72.56
666.58	25.75
666.72	37.45
666.86	42.13
667.00	72.56
667.14	0.00
667.28	0.00
667.43	112.35
667.57	0.00
667.71	56.17
667.85	9.36
667.99	42.13
668.13	9.36
668.27	60.85
668.41	7.02
668.56	35.11
668.70	16.38
668.84	56.17
668.98	0.00
669.12	0.00
669.26	28.09
669.40	42.13
669.54	77.24
669.68	0.00
669.82	11.70
669.96	74.90
670.10	56.17
670.25	28.09
670.39	42.13
670.53	63.19
670.67	0.00
670.81	21.06
670.95	46.81
671.09	39.79
671.23	18.72
671.37	30.43
671.51	0.00
671.65	53.83
671.79	30.43
671.93	0.00
672.07	63.19
672.21	4.68
672.35	7.02
672.49	23.41
672.63	0.00
672.77	138.09
672.91	37.45
673.05	67.88
673.19	14.04
673.33	0.00
673.47	9.36
673.61	63.19
673.75	21.06
673.89	0.00
674.03	25.75
674.17	60.85
674.31	32.77
674.45	0.00
674.59	49.15
674.73	0.00
674.87	46.81
675.01	74.90
675.15	53.83
675.29	11.70
675.43	0.00
675.56	7.02
675.70	117.03
675.84	77.24
675.98	0.00
676.12	30.43
676.26	91.28
676.40	49.15
676.54	35.11
676.68	0.00
676.82	0.00
676.96	110.01
677.10	53.83
677.23	21.06
677.37	44.47
677.51	65.54
677.65	39.79
677.79	11.70
677.93	0.00
678.07	23.41
678.21	0.00
678.34	131.07
678.48	32.77
678.62	35.11
678.76	16.38
678.90	0.00
679.04	0.00
679.18	28.09
679.31	60.85
679.45	4.68
679.59	0.00
679.73	56.17
679.87	0.00
680.00	95.96
680.14	21.06
680.28	0.00
680.42	42.13
680.56	0.00
680.70	0.00
680.83	11.70
680.97	0.00
681.11	30.43
681.25	63.19
681.39	32.77
681.52	72.56
681.66	42.13
681.80	0.00
681.94	21.06
682.07	114.69
682.21	32.77
682.35	46.81
682.49	9.36
682.62	0.00
682.76	0.00
682.90	7.02
683.04	14.04
683.17	53.83
683.31	0.00
683.45	0.00
683.59	0.00
683.72	0.00
683.86	28.09
684.00	46.81
684.13	0.00
684.27	0.00
684.41	56.17
684.55	32.77
684.68	51.49
684.82	42.13
684.96	56.17
685.09	56.17
685.23	42.13
685.37	0.00
685.50	0.00
685.64	58.51
685.78	18.72
685.91	72.56
686.05	32.77
686.19	0.00
686.32	39.79
686.46	79.58
686.60	21.06
686.73	0.00
686.87	9.36
687.01	67.88
687.14	2.34
687.28	28.09
687.42	23.41
687.55	39.79
687.69	86.60
687.82	0.00
687.96	25.75
688.10	42.13
688.23	14.04
688.37	18.72
688.50	0.00
688.64	39.79
688.78	44.47
688.91	25.75
689.05	37.45
689.18	56.17
689.32	0.00
689.46	25.75
689.59	77.24
689.73	39.79
689.86	0.00
690.00	0.00
690.13	18.72
690.27	25.75
690.41	32.77
690.54	16.38
690.68	7.02
690.81	39.79
690.95	11.70
691.08	0.00
691.22	74.90
691.35	72.56
691.49	63.19
691.62	128.73
691.76	0.00
691.89	65.54
692.03	18.72
692.16	81.92
692.30	14.04
692.43	0.00
692.57	91.28
692.70	81.92
692.84	35.11
692.97	7.02
693.11	67.88
693.24	0.00
693.38	51.49
693.51	70.22
693.65	86.60
693.78	53.83
693.92	105.32
694.05	46.81
694.19	56.17
694.32	70.22
694.45	0.00
694.59	0.00
694.72	0.00
694.86	23.41
694.99	11.70
695.13	35.11
695.26	23.41
695.39	0.00
695.53	121.71
695.66	0.00
695.80	37.45
695.93	81.92
696.07	37.45
696.20	35.11
696.33	2.34
696.47	32.77
696.60	0.00
696.73	37.45
696.87	21.06
697.00	65.54
697.14	46.81
697.27	51.49
697.40	0.00
697.54	53.83
697.67	11.70
697.80	53.83
697.94	39.79
698.07	60.85
698.21	117.03
698.34	0.00
698.47	9.36
698.61	0.00
698.74	0.00
698.87	0.00
699.01	4.68
699.14	58.51
699.27	49.15
699.40	72.56
699.54	0.00
699.67	63.19
699.80	18.72
699.94	86.60
700.07	37.45
700.20	32.77
700.34	79.58
700.47	0.00
700.60	0.00
700.73	23.41
700.87	32.77
701.00	70.22
701.13	32.77
701.26	0.00
701.40	0.00
701.53	0.00
701.66	30.43
701.79	53.83
701.93	9.36
702.06	60.85
702.19	46.81
702.32	79.58
702.46	0.00
702.59	0.00
702.72	72.56
702.85	0.00
702.99	39.79
703.12	0.00
703.25	0.00
703.38	88.94
703.51	74.90
703.65	65.54
703.78	39.79
703.91	0.00
704.04	18.72
704.17	105.32
704.31	25.75
704.44	93.62
704.57	44.47
704.70	67.88
704.83	0.00
704.96	28.09
705.10	74.90
705.23	44.47
>>>>>End Processed Spectral Data<<<<<
