SpectraSuite Data File
++++++++++++++++++++++++++++++++++++
Date: Fri Oct 04 12:13:41 GMT-05:00 2013
User: price-jones
Dark Spectrum Present: No
Reference Spectrum Present: No
Number of Sampled Component Spectra: 1
Spectrometers: USB2+H05261
Integration Time (usec): 10000 (USB2+H05261)
Spectra Averaged: 1 (USB2+H05261)
Boxcar Smoothing: 0 (USB2+H05261)
Correct for Electrical Dark: No (USB2+H05261)
Strobe/Lamp Enabled: No (USB2+H05261)
Correct for Detector Non-linearity: No (USB2+H05261)
Correct for Stray Light: No (USB2+H05261)
Number of Pixels in Processed Spectrum: 2048
>>>>>Begin Processed Spectral Data<<<<<
365.73	0.00
365.92	0.00
366.12	0.00
366.32	0.00
366.52	0.00
366.72	0.00
366.91	0.00
367.11	0.00
367.31	0.00
367.51	0.00
367.70	0.00
367.90	0.00
368.10	0.00
368.30	0.00
368.49	0.00
368.69	0.00
368.89	0.00
369.09	0.00
369.28	0.00
369.48	0.00
369.68	0.00
369.87	0.00
370.07	0.00
370.27	0.00
370.47	0.00
370.66	0.00
370.86	0.00
371.06	0.00
371.25	0.00
371.45	0.00
371.65	0.00
371.84	0.00
372.04	0.00
372.24	0.00
372.44	30.43
372.63	0.00
372.83	11.70
373.03	67.88
373.22	21.06
373.42	0.00
373.62	44.47
373.81	72.56
374.01	105.32
374.21	102.98
374.40	51.49
374.60	7.02
374.79	28.09
374.99	44.47
375.19	44.47
375.38	72.56
375.58	35.11
375.78	56.17
375.97	0.00
376.17	79.58
376.37	67.88
376.56	21.06
376.76	79.58
376.95	11.70
377.15	0.00
377.35	0.00
377.54	44.47
377.74	14.04
377.93	70.22
378.13	32.77
378.33	79.58
378.52	0.00
378.72	23.41
378.91	79.58
379.11	0.00
379.31	39.79
379.50	0.00
379.70	0.00
379.89	60.85
380.09	0.00
380.28	86.60
380.48	4.68
380.68	2.34
380.87	0.00
381.07	11.70
381.26	11.70
381.46	30.43
381.65	32.77
381.85	30.43
382.04	11.70
382.24	25.75
382.43	39.79
382.63	0.00
382.83	0.00
383.02	60.85
383.22	42.13
383.41	30.43
383.61	25.75
383.80	4.68
384.00	0.00
384.19	32.77
384.39	91.28
384.58	30.43
384.78	0.00
384.97	0.00
385.17	30.43
385.36	51.49
385.56	30.43
385.75	37.45
385.95	51.49
386.14	0.00
386.34	0.00
386.53	18.72
386.72	0.00
386.92	0.00
387.11	0.00
387.31	9.36
387.50	42.13
387.70	79.58
387.89	14.04
388.09	32.77
388.28	0.00
388.48	30.43
388.67	46.81
388.86	0.00
389.06	0.00
389.25	30.43
389.45	72.56
389.64	0.00
389.84	28.09
390.03	0.00
390.22	42.13
390.42	21.06
390.61	7.02
390.81	14.04
391.00	25.75
391.19	46.81
391.39	114.69
391.58	23.41
391.78	0.00
391.97	2.34
392.16	9.36
392.36	46.81
392.55	11.70
392.75	67.88
392.94	0.00
393.13	44.47
393.33	0.00
393.52	42.13
393.71	0.00
393.91	35.11
394.10	23.41
394.29	86.60
394.49	77.24
394.68	35.11
394.88	30.43
395.07	32.77
395.26	30.43
395.46	14.04
395.65	21.06
395.84	65.54
396.04	0.00
396.23	39.79
396.42	39.79
396.62	0.00
396.81	0.00
397.00	9.36
397.19	63.19
397.39	21.06
397.58	0.00
397.77	60.85
397.97	0.00
398.16	7.02
398.35	79.58
398.55	67.88
398.74	0.00
398.93	72.56
399.12	28.09
399.32	46.81
399.51	0.00
399.70	0.00
399.90	79.58
400.09	0.00
400.28	0.00
400.47	0.00
400.67	46.81
400.86	0.00
401.05	42.13
401.24	21.06
401.44	11.70
401.63	0.00
401.82	37.45
402.01	63.19
402.21	11.70
402.40	42.13
402.59	72.56
402.78	112.35
402.97	0.00
403.17	56.17
403.36	0.00
403.55	0.00
403.74	81.92
403.93	0.00
404.13	67.88
404.32	11.70
404.51	39.79
404.70	0.00
404.89	72.56
405.09	28.09
405.28	23.41
405.47	42.13
405.66	56.17
405.85	37.45
406.05	67.88
406.24	37.45
406.43	39.79
406.62	7.02
406.81	18.72
407.00	44.47
407.20	32.77
407.39	9.36
407.58	51.49
407.77	32.77
407.96	72.56
408.15	42.13
408.34	79.58
408.54	44.47
408.73	0.00
408.92	0.00
409.11	56.17
409.30	0.00
409.49	0.00
409.68	35.11
409.87	21.06
410.07	65.54
410.26	0.00
410.45	49.15
410.64	18.72
410.83	30.43
411.02	0.00
411.21	63.19
411.40	32.77
411.59	56.17
411.78	39.79
411.98	0.00
412.17	67.88
412.36	49.15
412.55	0.00
412.74	4.68
412.93	42.13
413.12	138.09
413.31	4.68
413.50	7.02
413.69	107.66
413.88	107.66
414.07	51.49
414.26	0.00
414.45	49.15
414.64	23.41
414.83	46.81
415.02	0.00
415.22	37.45
415.41	72.56
415.60	16.38
415.79	72.56
415.98	74.90
416.17	63.19
416.36	2.34
416.55	44.47
416.74	67.88
416.93	46.81
417.12	23.41
417.31	56.17
417.50	32.77
417.69	28.09
417.88	7.02
418.07	81.92
418.26	30.43
418.45	32.77
418.64	0.00
418.83	70.22
419.02	60.85
419.21	119.37
419.39	65.54
419.58	32.77
419.77	39.79
419.96	100.64
420.15	63.19
420.34	18.72
420.53	65.54
420.72	53.83
420.91	142.77
421.10	42.13
421.29	16.38
421.48	28.09
421.67	0.00
421.86	60.85
422.05	93.62
422.24	42.13
422.43	95.96
422.61	46.81
422.80	0.00
422.99	35.11
423.18	84.26
423.37	56.17
423.56	0.00
423.75	72.56
423.94	46.81
424.13	53.83
424.32	28.09
424.50	23.41
424.69	112.35
424.88	25.75
425.07	14.04
425.26	14.04
425.45	58.51
425.64	46.81
425.83	65.54
426.01	72.56
426.20	0.00
426.39	39.79
426.58	32.77
426.77	32.77
426.96	86.60
427.15	60.85
427.33	93.62
427.52	46.81
427.71	21.06
427.90	0.00
428.09	65.54
428.28	2.34
428.46	81.92
428.65	11.70
428.84	42.13
429.03	11.70
429.22	25.75
429.40	7.02
429.59	11.70
429.78	0.00
429.97	100.64
430.16	2.34
430.34	18.72
430.53	60.85
430.72	102.98
430.91	4.68
431.10	4.68
431.28	16.38
431.47	4.68
431.66	56.17
431.85	53.83
432.03	30.43
432.22	84.26
432.41	70.22
432.60	72.56
432.79	28.09
432.97	63.19
433.16	21.06
433.35	70.22
433.54	56.17
433.72	35.11
433.91	28.09
434.10	42.13
434.28	56.17
434.47	70.22
434.66	35.11
434.85	42.13
435.03	63.19
435.22	84.26
435.41	0.00
435.59	37.45
435.78	119.37
435.97	119.37
436.16	18.72
436.34	86.60
436.53	44.47
436.72	39.79
436.90	95.96
437.09	46.81
437.28	0.00
437.46	39.79
437.65	28.09
437.84	16.38
438.02	25.75
438.21	44.47
438.40	51.49
438.58	60.85
438.77	65.54
438.96	65.54
439.14	77.24
439.33	72.56
439.52	0.00
439.70	14.04
439.89	56.17
440.08	35.11
440.26	86.60
440.45	86.60
440.63	51.49
440.82	32.77
441.01	39.79
441.19	44.47
441.38	46.81
441.57	0.00
441.75	46.81
441.94	44.47
442.12	51.49
442.31	95.96
442.50	37.45
442.68	4.68
442.87	88.94
443.05	65.54
443.24	56.17
443.43	0.00
443.61	91.28
443.80	98.30
443.98	77.24
444.17	42.13
444.35	51.49
444.54	67.88
444.73	102.98
444.91	51.49
445.10	23.41
445.28	30.43
445.47	77.24
445.65	2.34
445.84	81.92
446.02	51.49
446.21	112.35
446.39	56.17
446.58	44.47
446.77	77.24
446.95	49.15
447.14	30.43
447.32	74.90
447.51	53.83
447.69	16.38
447.88	159.16
448.06	81.92
448.25	39.79
448.43	110.01
448.62	0.00
448.80	0.00
448.99	28.09
449.17	46.81
449.36	77.24
449.54	58.51
449.73	28.09
449.91	65.54
450.10	23.41
450.28	25.75
450.46	0.00
450.65	65.54
450.83	4.68
451.02	79.58
451.20	79.58
451.39	79.58
451.57	77.24
451.76	35.11
451.94	51.49
452.13	60.85
452.31	30.43
452.49	86.60
452.68	37.45
452.86	117.03
453.05	65.54
453.23	72.56
453.42	44.47
453.60	98.30
453.78	35.11
453.97	77.24
454.15	9.36
454.34	91.28
454.52	42.13
454.70	72.56
454.89	53.83
455.07	23.41
455.26	25.75
455.44	23.41
455.62	37.45
455.81	42.13
455.99	53.83
456.17	42.13
456.36	46.81
456.54	46.81
456.73	4.68
456.91	65.54
457.09	126.39
457.28	63.19
457.46	0.00
457.64	70.22
457.83	81.92
458.01	100.64
458.19	67.88
458.38	95.96
458.56	72.56
458.74	2.34
458.93	18.72
459.11	42.13
459.29	81.92
459.48	79.58
459.66	79.58
459.84	21.06
460.03	79.58
460.21	44.47
460.39	0.00
460.57	77.24
460.76	110.01
460.94	100.64
461.12	98.30
461.31	70.22
461.49	49.15
461.67	124.05
461.85	16.38
462.04	60.85
462.22	112.35
462.40	79.58
462.59	46.81
462.77	18.72
462.95	23.41
463.13	46.81
463.32	102.98
463.50	28.09
463.68	44.47
463.86	110.01
464.05	0.00
464.23	39.79
464.41	58.51
464.59	100.64
464.78	30.43
464.96	18.72
465.14	9.36
465.32	0.00
465.50	79.58
465.69	56.17
465.87	37.45
466.05	56.17
466.23	65.54
466.41	95.96
466.60	28.09
466.78	42.13
466.96	72.56
467.14	67.88
467.32	88.94
467.51	46.81
467.69	107.66
467.87	110.01
468.05	74.90
468.23	39.79
468.41	65.54
468.60	18.72
468.78	0.00
468.96	67.88
469.14	67.88
469.32	32.77
469.50	51.49
469.69	67.88
469.87	131.07
470.05	67.88
470.23	58.51
470.41	37.45
470.59	14.04
470.77	65.54
470.95	39.79
471.14	39.79
471.32	14.04
471.50	0.00
471.68	44.47
471.86	140.43
472.04	16.38
472.22	7.02
472.40	32.77
472.58	4.68
472.77	0.00
472.95	77.24
473.13	16.38
473.31	72.56
473.49	65.54
473.67	84.26
473.85	147.45
474.03	51.49
474.21	67.88
474.39	60.85
474.57	9.36
474.75	30.43
474.93	0.00
475.12	11.70
475.30	16.38
475.48	100.64
475.66	28.09
475.84	110.01
476.02	25.75
476.20	53.83
476.38	63.19
476.56	65.54
476.74	63.19
476.92	28.09
477.10	63.19
477.28	117.03
477.46	58.51
477.64	63.19
477.82	44.47
478.00	21.06
478.18	93.62
478.36	81.92
478.54	0.00
478.72	91.28
478.90	81.92
479.08	67.88
479.26	77.24
479.44	37.45
479.62	72.56
479.80	30.43
479.98	39.79
480.16	35.11
480.34	46.81
480.52	49.15
480.70	42.13
480.88	51.49
481.06	98.30
481.24	46.81
481.41	65.54
481.59	95.96
481.77	72.56
481.95	72.56
482.13	91.28
482.31	88.94
482.49	105.32
482.67	95.96
482.85	84.26
483.03	140.43
483.21	46.81
483.39	39.79
483.57	124.05
483.74	117.03
483.92	91.28
484.10	79.58
484.28	79.58
484.46	135.75
484.64	126.39
484.82	70.22
485.00	65.54
485.18	4.68
485.35	23.41
485.53	140.43
485.71	110.01
485.89	7.02
486.07	9.36
486.25	16.38
486.43	53.83
486.61	77.24
486.78	42.13
486.96	30.43
487.14	107.66
487.32	67.88
487.50	65.54
487.68	70.22
487.85	25.75
488.03	51.49
488.21	98.30
488.39	124.05
488.57	56.17
488.75	67.88
488.92	53.83
489.10	28.09
489.28	35.11
489.46	93.62
489.64	119.37
489.81	63.19
489.99	60.85
490.17	79.58
490.35	81.92
490.53	105.32
490.70	65.54
490.88	79.58
491.06	16.38
491.24	79.58
491.41	25.75
491.59	7.02
491.77	39.79
491.95	138.09
492.13	107.66
492.30	114.69
492.48	74.90
492.66	25.75
492.84	32.77
493.01	56.17
493.19	21.06
493.37	63.19
493.54	152.13
493.72	95.96
493.90	67.88
494.08	79.58
494.25	42.13
494.43	79.58
494.61	126.39
494.79	65.54
494.96	86.60
495.14	105.32
495.32	67.88
495.49	91.28
495.67	63.19
495.85	67.88
496.02	98.30
496.20	53.83
496.38	91.28
496.55	35.11
496.73	102.98
496.91	117.03
497.09	4.68
497.26	107.66
497.44	121.71
497.62	60.85
497.79	49.15
497.97	100.64
498.14	95.96
498.32	42.13
498.50	77.24
498.67	114.69
498.85	140.43
499.03	63.19
499.20	63.19
499.38	98.30
499.56	60.85
499.73	72.56
499.91	42.13
500.08	98.30
500.26	70.22
500.44	23.41
500.61	60.85
500.79	60.85
500.97	11.70
501.14	91.28
501.32	93.62
501.49	117.03
501.67	88.94
501.84	84.26
502.02	39.79
502.20	102.98
502.37	121.71
502.55	88.94
502.72	98.30
502.90	84.26
503.07	28.09
503.25	42.13
503.43	105.32
503.60	86.60
503.78	37.45
503.95	147.45
504.13	86.60
504.30	72.56
504.48	44.47
504.65	58.51
504.83	56.17
505.01	32.77
505.18	161.50
505.36	128.73
505.53	131.07
505.71	37.45
505.88	86.60
506.06	14.04
506.23	102.98
506.41	93.62
506.58	102.98
506.76	58.51
506.93	177.88
507.11	79.58
507.28	42.13
507.46	95.96
507.63	46.81
507.81	0.00
507.98	51.49
508.16	93.62
508.33	84.26
508.50	46.81
508.68	58.51
508.85	67.88
509.03	72.56
509.20	16.38
509.38	95.96
509.55	67.88
509.73	117.03
509.90	140.43
510.08	25.75
510.25	142.77
510.42	51.49
510.60	65.54
510.77	79.58
510.95	107.66
511.12	53.83
511.30	74.90
511.47	114.69
511.64	128.73
511.82	98.30
511.99	86.60
512.17	107.66
512.34	63.19
512.51	107.66
512.69	77.24
512.86	91.28
513.04	58.51
513.21	135.75
513.38	93.62
513.56	138.09
513.73	117.03
513.90	81.92
514.08	100.64
514.25	93.62
514.43	102.98
514.60	93.62
514.77	91.28
514.95	86.60
515.12	72.56
515.29	95.96
515.47	60.85
515.64	60.85
515.81	124.05
515.99	81.92
516.16	86.60
516.33	98.30
516.51	65.54
516.68	42.13
516.85	42.13
517.03	56.17
517.20	56.17
517.37	86.60
517.54	77.24
517.72	98.30
517.89	84.26
518.06	86.60
518.24	51.49
518.41	32.77
518.58	30.43
518.75	93.62
518.93	0.00
519.10	56.17
519.27	49.15
519.45	56.17
519.62	112.35
519.79	32.77
519.96	70.22
520.14	135.75
520.31	79.58
520.48	70.22
520.65	100.64
520.83	51.49
521.00	65.54
521.17	107.66
521.34	81.92
521.52	79.58
521.69	100.64
521.86	72.56
522.03	30.43
522.20	23.41
522.38	70.22
522.55	95.96
522.72	102.98
522.89	156.82
523.07	91.28
523.24	79.58
523.41	88.94
523.58	107.66
523.75	65.54
523.92	100.64
524.10	126.39
524.27	95.96
524.44	79.58
524.61	53.83
524.78	72.56
524.96	145.11
525.13	67.88
525.30	110.01
525.47	86.60
525.64	28.09
525.81	98.30
525.98	88.94
526.16	142.77
526.33	107.66
526.50	93.62
526.67	0.00
526.84	112.35
527.01	72.56
527.18	56.17
527.36	56.17
527.53	95.96
527.70	2.34
527.87	70.22
528.04	117.03
528.21	93.62
528.38	191.92
528.55	100.64
528.72	56.17
528.89	154.48
529.07	145.11
529.24	84.26
529.41	124.05
529.58	138.09
529.75	105.32
529.92	30.43
530.09	126.39
530.26	77.24
530.43	121.71
530.60	128.73
530.77	102.98
530.94	93.62
531.11	145.11
531.28	114.69
531.46	107.66
531.63	100.64
531.80	65.54
531.97	124.05
532.14	117.03
532.31	63.19
532.48	140.43
532.65	81.92
532.82	79.58
532.99	79.58
533.16	53.83
533.33	124.05
533.50	67.88
533.67	140.43
533.84	79.58
534.01	102.98
534.18	74.90
534.35	91.28
534.52	93.62
534.69	95.96
534.86	67.88
535.03	74.90
535.20	91.28
535.37	119.37
535.54	105.32
535.71	44.47
535.88	126.39
536.05	142.77
536.22	88.94
536.38	81.92
536.55	138.09
536.72	91.28
536.89	95.96
537.06	77.24
537.23	126.39
537.40	58.51
537.57	79.58
537.74	112.35
537.91	42.13
538.08	93.62
538.25	56.17
538.42	93.62
538.59	49.15
538.75	0.00
538.92	88.94
539.09	18.72
539.26	30.43
539.43	187.24
539.60	60.85
539.77	81.92
539.94	112.35
540.11	138.09
540.28	110.01
540.44	44.47
540.61	16.38
540.78	30.43
540.95	95.96
541.12	114.69
541.29	105.32
541.46	49.15
541.62	28.09
541.79	147.45
541.96	161.50
542.13	39.79
542.30	77.24
542.47	93.62
542.63	215.33
542.80	110.01
542.97	102.98
543.14	140.43
543.31	98.30
543.48	161.50
543.64	88.94
543.81	168.52
543.98	58.51
544.15	86.60
544.32	110.01
544.48	100.64
544.65	72.56
544.82	107.66
544.99	95.96
545.16	65.54
545.32	119.37
545.49	70.22
545.66	70.22
545.83	14.04
546.00	198.95
546.16	65.54
546.33	18.72
546.50	32.77
546.67	79.58
546.83	72.56
547.00	58.51
547.17	51.49
547.34	84.26
547.50	58.51
547.67	105.32
547.84	124.05
548.00	0.00
548.17	91.28
548.34	65.54
548.51	46.81
548.67	56.17
548.84	65.54
549.01	91.28
549.18	138.09
549.34	81.92
549.51	60.85
549.68	42.13
549.84	133.41
550.01	84.26
550.18	110.01
550.34	60.85
550.51	102.98
550.68	72.56
550.84	117.03
551.01	81.92
551.18	152.13
551.34	30.43
551.51	79.58
551.68	72.56
551.84	128.73
552.01	30.43
552.18	95.96
552.34	105.32
552.51	81.92
552.68	135.75
552.84	107.66
553.01	135.75
553.18	63.19
553.34	58.51
553.51	100.64
553.67	110.01
553.84	124.05
554.01	56.17
554.17	91.28
554.34	79.58
554.51	152.13
554.67	65.54
554.84	18.72
555.00	86.60
555.17	72.56
555.33	42.13
555.50	128.73
555.67	65.54
555.83	65.54
556.00	65.54
556.16	121.71
556.33	70.22
556.50	161.50
556.66	93.62
556.83	7.02
556.99	133.41
557.16	23.41
557.32	81.92
557.49	51.49
557.65	81.92
557.82	100.64
557.98	98.30
558.15	74.90
558.32	77.24
558.48	39.79
558.65	79.58
558.81	58.51
558.98	49.15
559.14	72.56
559.31	65.54
559.47	128.73
559.64	81.92
559.80	100.64
559.97	88.94
560.13	79.58
560.30	46.81
560.46	72.56
560.63	79.58
560.79	95.96
560.96	63.19
561.12	110.01
561.29	93.62
561.45	156.82
561.61	74.90
561.78	72.56
561.94	58.51
562.11	72.56
562.27	131.07
562.44	105.32
562.60	77.24
562.77	0.00
562.93	79.58
563.10	65.54
563.26	112.35
563.42	88.94
563.59	56.17
563.75	72.56
563.92	58.51
564.08	93.62
564.24	28.09
564.41	2.34
564.57	88.94
564.74	44.47
564.90	81.92
565.07	100.64
565.23	32.77
565.39	110.01
565.56	67.88
565.72	77.24
565.88	159.16
566.05	112.35
566.21	138.09
566.38	114.69
566.54	0.00
566.70	28.09
566.87	25.75
567.03	121.71
567.19	102.98
567.36	117.03
567.52	93.62
567.68	110.01
567.85	124.05
568.01	117.03
568.17	70.22
568.34	56.17
568.50	86.60
568.66	44.47
568.83	70.22
568.99	86.60
569.15	49.15
569.32	72.56
569.48	126.39
569.64	46.81
569.81	81.92
569.97	84.26
570.13	86.60
570.30	100.64
570.46	72.56
570.62	138.09
570.78	49.15
570.95	84.26
571.11	0.00
571.27	0.00
571.43	105.32
571.60	79.58
571.76	65.54
571.92	105.32
572.09	37.45
572.25	138.09
572.41	77.24
572.57	98.30
572.74	35.11
572.90	81.92
573.06	28.09
573.22	63.19
573.38	98.30
573.55	149.79
573.71	35.11
573.87	70.22
574.03	0.00
574.20	93.62
574.36	37.45
574.52	42.13
574.68	117.03
574.84	86.60
575.01	74.90
575.17	51.49
575.33	84.26
575.49	81.92
575.65	46.81
575.82	79.58
575.98	81.92
576.14	107.66
576.30	128.73
576.46	18.72
576.62	117.03
576.79	95.96
576.95	65.54
577.11	44.47
577.27	67.88
577.43	81.92
577.59	79.58
577.75	117.03
577.92	128.73
578.08	56.17
578.24	105.32
578.40	112.35
578.56	100.64
578.72	131.07
578.88	67.88
579.04	70.22
579.21	126.39
579.37	100.64
579.53	81.92
579.69	70.22
579.85	56.17
580.01	4.68
580.17	23.41
580.33	67.88
580.49	56.17
580.65	74.90
580.82	63.19
580.98	44.47
581.14	77.24
581.30	74.90
581.46	0.00
581.62	49.15
581.78	21.06
581.94	95.96
582.10	79.58
582.26	56.17
582.42	133.41
582.58	86.60
582.74	0.00
582.90	149.79
583.06	0.00
583.22	0.00
583.38	84.26
583.54	93.62
583.70	60.85
583.86	114.69
584.02	79.58
584.18	49.15
584.34	88.94
584.50	98.30
584.66	91.28
584.82	51.49
584.98	81.92
585.14	91.28
585.30	107.66
585.46	91.28
585.62	135.75
585.78	91.28
585.94	16.38
586.10	51.49
586.26	72.56
586.42	23.41
586.58	110.01
586.74	95.96
586.90	79.58
587.06	9.36
587.22	53.83
587.38	84.26
587.54	37.45
587.70	49.15
587.86	114.69
588.02	91.28
588.18	35.11
588.34	84.26
588.49	30.43
588.65	25.75
588.81	4.68
588.97	0.00
589.13	44.47
589.29	58.51
589.45	65.54
589.61	46.81
589.77	91.28
589.93	95.96
590.08	42.13
590.24	124.05
590.40	77.24
590.56	95.96
590.72	91.28
590.88	23.41
591.04	2.34
591.20	126.39
591.35	58.51
591.51	77.24
591.67	88.94
591.83	0.00
591.99	0.00
592.15	65.54
592.31	88.94
592.46	81.92
592.62	60.85
592.78	60.85
592.94	74.90
593.10	72.56
593.26	51.49
593.41	112.35
593.57	81.92
593.73	67.88
593.89	32.77
594.05	53.83
594.20	117.03
594.36	60.85
594.52	7.02
594.68	114.69
594.84	35.11
594.99	95.96
595.15	37.45
595.31	28.09
595.47	88.94
595.62	70.22
595.78	63.19
595.94	67.88
596.10	51.49
596.25	0.00
596.41	51.49
596.57	18.72
596.73	93.62
596.88	126.39
597.04	102.98
597.20	93.62
597.36	0.00
597.51	77.24
597.67	32.77
597.83	42.13
597.99	81.92
598.14	56.17
598.30	102.98
598.46	56.17
598.61	74.90
598.77	63.19
598.93	74.90
599.09	138.09
599.24	51.49
599.40	81.92
599.56	156.82
599.71	25.75
599.87	67.88
600.03	63.19
600.18	91.28
600.34	49.15
600.50	0.00
600.65	79.58
600.81	149.79
600.97	67.88
601.12	42.13
601.28	56.17
601.44	14.04
601.59	58.51
601.75	72.56
601.91	119.37
602.06	44.47
602.22	79.58
602.37	168.52
602.53	93.62
602.69	39.79
602.84	53.83
603.00	98.30
603.16	7.02
603.31	86.60
603.47	65.54
603.62	77.24
603.78	74.90
603.94	72.56
604.09	74.90
604.25	0.00
604.40	46.81
604.56	98.30
604.71	105.32
604.87	0.00
605.03	100.64
605.18	81.92
605.34	72.56
605.49	44.47
605.65	74.90
605.80	102.98
605.96	63.19
606.12	0.00
606.27	46.81
606.43	60.85
606.58	86.60
606.74	117.03
606.89	25.75
607.05	2.34
607.20	42.13
607.36	117.03
607.51	72.56
607.67	81.92
607.82	117.03
607.98	67.88
608.13	53.83
608.29	156.82
608.44	67.88
608.60	51.49
608.75	16.38
608.91	63.19
609.06	65.54
609.22	32.77
609.37	112.35
609.53	88.94
609.68	44.47
609.84	67.88
609.99	35.11
610.15	81.92
610.30	131.07
610.46	81.92
610.61	49.15
610.76	44.47
610.92	35.11
611.07	93.62
611.23	51.49
611.38	100.64
611.54	72.56
611.69	28.09
611.84	49.15
612.00	30.43
612.15	56.17
612.31	91.28
612.46	51.49
612.62	35.11
612.77	32.77
612.92	56.17
613.08	14.04
613.23	88.94
613.39	16.38
613.54	95.96
613.69	72.56
613.85	105.32
614.00	74.90
614.15	67.88
614.31	88.94
614.46	16.38
614.62	63.19
614.77	9.36
614.92	58.51
615.08	105.32
615.23	16.38
615.38	14.04
615.54	49.15
615.69	70.22
615.84	102.98
616.00	112.35
616.15	42.13
616.30	58.51
616.46	91.28
616.61	53.83
616.76	16.38
616.92	53.83
617.07	44.47
617.22	81.92
617.37	53.83
617.53	93.62
617.68	21.06
617.83	58.51
617.99	53.83
618.14	93.62
618.29	53.83
618.45	65.54
618.60	70.22
618.75	72.56
618.90	23.41
619.06	53.83
619.21	46.81
619.36	95.96
619.51	112.35
619.67	46.81
619.82	135.75
619.97	49.15
620.12	65.54
620.28	159.16
620.43	119.37
620.58	72.56
620.73	86.60
620.89	93.62
621.04	37.45
621.19	81.92
621.34	37.45
621.49	79.58
621.65	49.15
621.80	128.73
621.95	77.24
622.10	21.06
622.25	65.54
622.41	65.54
622.56	42.13
622.71	58.51
622.86	74.90
623.01	4.68
623.16	30.43
623.32	30.43
623.47	107.66
623.62	74.90
623.77	46.81
623.92	70.22
624.07	100.64
624.23	74.90
624.38	100.64
624.53	49.15
624.68	107.66
624.83	70.22
624.98	100.64
625.13	102.98
625.29	39.79
625.44	121.71
625.59	114.69
625.74	44.47
625.89	60.85
626.04	53.83
626.19	58.51
626.34	81.92
626.49	51.49
626.65	65.54
626.80	114.69
626.95	63.19
627.10	86.60
627.25	60.85
627.40	9.36
627.55	46.81
627.70	11.70
627.85	77.24
628.00	86.60
628.15	2.34
628.30	135.75
628.45	51.49
628.60	60.85
628.76	114.69
628.91	63.19
629.06	98.30
629.21	16.38
629.36	30.43
629.51	98.30
629.66	100.64
629.81	65.54
629.96	77.24
630.11	37.45
630.26	30.43
630.41	67.88
630.56	53.83
630.71	18.72
630.86	51.49
631.01	65.54
631.16	77.24
631.31	86.60
631.46	84.26
631.61	72.56
631.76	0.00
631.91	135.75
632.06	93.62
632.21	51.49
632.36	39.79
632.51	37.45
632.66	23.41
632.81	70.22
632.96	32.77
633.10	93.62
633.25	107.66
633.40	72.56
633.55	51.49
633.70	102.98
633.85	39.79
634.00	0.00
634.15	147.45
634.30	91.28
634.45	35.11
634.60	124.05
634.75	44.47
634.90	11.70
635.05	0.00
635.19	98.30
635.34	25.75
635.49	58.51
635.64	81.92
635.79	39.79
635.94	138.09
636.09	37.45
636.24	14.04
636.39	98.30
636.53	37.45
636.68	86.60
636.83	128.73
636.98	112.35
637.13	56.17
637.28	74.90
637.43	32.77
637.57	32.77
637.72	21.06
637.87	4.68
638.02	65.54
638.17	88.94
638.32	77.24
638.46	32.77
638.61	53.83
638.76	14.04
638.91	42.13
639.06	74.90
639.20	74.90
639.35	56.17
639.50	0.00
639.65	88.94
639.80	65.54
639.94	72.56
640.09	21.06
640.24	77.24
640.39	56.17
640.54	30.43
640.68	21.06
640.83	23.41
640.98	65.54
641.13	18.72
641.27	56.17
641.42	37.45
641.57	44.47
641.72	138.09
641.86	0.00
642.01	67.88
642.16	0.00
642.31	23.41
642.45	49.15
642.60	42.13
642.75	77.24
642.90	28.09
643.04	119.37
643.19	46.81
643.34	46.81
643.48	79.58
643.63	25.75
643.78	60.85
643.93	79.58
644.07	30.43
644.22	7.02
644.37	72.56
644.51	44.47
644.66	77.24
644.81	56.17
644.95	51.49
645.10	60.85
645.25	37.45
645.39	95.96
645.54	51.49
645.69	86.60
645.83	39.79
645.98	56.17
646.13	102.98
646.27	56.17
646.42	25.75
646.57	81.92
646.71	53.83
646.86	131.07
647.00	51.49
647.15	56.17
647.30	67.88
647.44	56.17
647.59	21.06
647.74	0.00
647.88	4.68
648.03	49.15
648.17	86.60
648.32	9.36
648.47	77.24
648.61	77.24
648.76	25.75
648.90	49.15
649.05	7.02
649.20	65.54
649.34	53.83
649.49	0.00
649.63	49.15
649.78	72.56
649.92	39.79
650.07	25.75
650.21	9.36
650.36	77.24
650.51	70.22
650.65	49.15
650.80	56.17
650.94	60.85
651.09	37.45
651.23	0.00
651.38	0.00
651.52	39.79
651.67	98.30
651.81	53.83
651.96	39.79
652.10	86.60
652.25	102.98
652.39	95.96
652.54	77.24
652.68	147.45
652.83	84.26
652.97	7.02
653.12	0.00
653.26	91.28
653.41	51.49
653.55	79.58
653.70	124.05
653.84	11.70
653.99	81.92
654.13	42.13
654.27	25.75
654.42	70.22
654.56	39.79
654.71	0.00
654.85	4.68
655.00	39.79
655.14	53.83
655.29	56.17
655.43	18.72
655.57	84.26
655.72	51.49
655.86	0.00
656.01	63.19
656.15	119.37
656.30	81.92
656.44	74.90
656.58	77.24
656.73	44.47
656.87	63.19
657.01	25.75
657.16	11.70
657.30	98.30
657.45	154.48
657.59	121.71
657.73	65.54
657.88	58.51
658.02	65.54
658.16	16.38
658.31	77.24
658.45	0.00
658.60	107.66
658.74	0.00
658.88	16.38
659.03	81.92
659.17	53.83
659.31	25.75
659.46	4.68
659.60	25.75
659.74	30.43
659.89	46.81
660.03	37.45
660.17	32.77
660.32	67.88
660.46	84.26
660.60	49.15
660.74	30.43
660.89	16.38
661.03	30.43
661.17	42.13
661.32	91.28
661.46	70.22
661.60	74.90
661.74	35.11
661.89	72.56
662.03	21.06
662.17	107.66
662.31	46.81
662.46	37.45
662.60	53.83
662.74	63.19
662.88	11.70
663.03	60.85
663.17	88.94
663.31	60.85
663.45	35.11
663.60	37.45
663.74	0.00
663.88	23.41
664.02	0.00
664.17	72.56
664.31	86.60
664.45	135.75
664.59	72.56
664.73	56.17
664.88	18.72
665.02	42.13
665.16	56.17
665.30	53.83
665.44	58.51
665.59	53.83
665.73	60.85
665.87	39.79
666.01	0.00
666.15	35.11
666.29	9.36
666.44	23.41
666.58	79.58
666.72	79.58
666.86	74.90
667.00	0.00
667.14	79.58
667.28	102.98
667.43	86.60
667.57	14.04
667.71	60.85
667.85	23.41
667.99	56.17
668.13	56.17
668.27	107.66
668.41	67.88
668.56	95.96
668.70	77.24
668.84	63.19
668.98	95.96
669.12	18.72
669.26	65.54
669.40	58.51
669.54	100.64
669.68	14.04
669.82	51.49
669.96	28.09
670.10	42.13
670.25	65.54
670.39	37.45
670.53	65.54
670.67	16.38
670.81	32.77
670.95	51.49
671.09	30.43
671.23	30.43
671.37	74.90
671.51	119.37
671.65	100.64
671.79	102.98
671.93	37.45
672.07	79.58
672.21	0.00
672.35	44.47
672.49	44.47
672.63	28.09
672.77	56.17
672.91	42.13
673.05	93.62
673.19	39.79
673.33	79.58
673.47	60.85
673.61	56.17
673.75	35.11
673.89	65.54
674.03	119.37
674.17	37.45
674.31	37.45
674.45	30.43
674.59	91.28
674.73	63.19
674.87	53.83
675.01	28.09
675.15	4.68
675.29	60.85
675.43	37.45
675.56	23.41
675.70	65.54
675.84	44.47
675.98	56.17
676.12	0.00
676.26	18.72
676.40	28.09
676.54	28.09
676.68	74.90
676.82	100.64
676.96	88.94
677.10	21.06
677.23	7.02
677.37	44.47
677.51	67.88
677.65	60.85
677.79	42.13
677.93	30.43
678.07	39.79
678.21	39.79
678.34	58.51
678.48	74.90
678.62	58.51
678.76	53.83
678.90	49.15
679.04	74.90
679.18	102.98
679.31	39.79
679.45	79.58
679.59	77.24
679.73	16.38
679.87	72.56
680.00	49.15
680.14	37.45
680.28	9.36
680.42	35.11
680.56	53.83
680.70	56.17
680.83	0.00
680.97	4.68
681.11	23.41
681.25	56.17
681.39	35.11
681.52	14.04
681.66	102.98
681.80	81.92
681.94	51.49
682.07	0.00
682.21	60.85
682.35	39.79
682.49	88.94
682.62	88.94
682.76	0.00
682.90	14.04
683.04	0.00
683.17	28.09
683.31	53.83
683.45	67.88
683.59	32.77
683.72	0.00
683.86	9.36
684.00	51.49
684.13	72.56
684.27	37.45
684.41	79.58
684.55	72.56
684.68	100.64
684.82	0.00
684.96	21.06
685.09	60.85
685.23	91.28
685.37	16.38
685.50	95.96
685.64	81.92
685.78	21.06
685.91	65.54
686.05	70.22
686.19	9.36
686.32	25.75
686.46	72.56
686.60	70.22
686.73	86.60
686.87	63.19
687.01	49.15
687.14	35.11
687.28	9.36
687.42	9.36
687.55	0.00
687.69	7.02
687.82	2.34
687.96	0.00
688.10	0.00
688.23	117.03
688.37	0.00
688.50	25.75
688.64	42.13
688.78	0.00
688.91	7.02
689.05	14.04
689.18	0.00
689.32	25.75
689.46	49.15
689.59	65.54
689.73	72.56
689.86	0.00
690.00	18.72
690.13	28.09
690.27	58.51
690.41	18.72
690.54	0.00
690.68	107.66
690.81	39.79
690.95	28.09
691.08	44.47
691.22	65.54
691.35	21.06
691.49	67.88
691.62	67.88
691.76	102.98
691.89	44.47
692.03	58.51
692.16	65.54
692.30	9.36
692.43	39.79
692.57	39.79
692.70	4.68
692.84	42.13
692.97	65.54
693.11	0.00
693.24	79.58
693.38	44.47
693.51	86.60
693.65	77.24
693.78	16.38
693.92	25.75
694.05	67.88
694.19	16.38
694.32	9.36
694.45	0.00
694.59	93.62
694.72	0.00
694.86	98.30
694.99	72.56
695.13	35.11
695.26	53.83
695.39	0.00
695.53	70.22
695.66	74.90
695.80	23.41
695.93	4.68
696.07	0.00
696.20	0.00
696.33	39.79
696.47	23.41
696.60	7.02
696.73	63.19
696.87	117.03
697.00	7.02
697.14	135.75
697.27	0.00
697.40	14.04
697.54	14.04
697.67	37.45
697.80	39.79
697.94	72.56
698.07	84.26
698.21	32.77
698.34	32.77
698.47	77.24
698.61	49.15
698.74	39.79
698.87	14.04
699.01	9.36
699.14	0.00
699.27	9.36
699.40	32.77
699.54	35.11
699.67	0.00
699.80	42.13
699.94	11.70
700.07	25.75
700.20	30.43
700.34	72.56
700.47	14.04
700.60	0.00
700.73	28.09
700.87	0.00
701.00	37.45
701.13	0.00
701.26	46.81
701.40	51.49
701.53	7.02
701.66	0.00
701.79	0.00
701.93	25.75
702.06	32.77
702.19	21.06
702.32	37.45
702.46	56.17
702.59	58.51
702.72	39.79
702.85	4.68
702.99	30.43
703.12	0.00
703.25	0.00
703.38	46.81
703.51	91.28
703.65	23.41
703.78	81.92
703.91	67.88
704.04	46.81
704.17	0.00
704.31	46.81
704.44	56.17
704.57	42.13
704.70	70.22
704.83	51.49
704.96	35.11
705.10	0.00
705.23	56.17
>>>>>End Processed Spectral Data<<<<<
