SpectraSuite Data File
++++++++++++++++++++++++++++++++++++
Date: Fri Oct 04 12:13:41 GMT-05:00 2013
User: price-jones
Dark Spectrum Present: No
Reference Spectrum Present: No
Number of Sampled Component Spectra: 1
Spectrometers: USB2+H05261
Integration Time (usec): 10000 (USB2+H05261)
Spectra Averaged: 1 (USB2+H05261)
Boxcar Smoothing: 0 (USB2+H05261)
Correct for Electrical Dark: No (USB2+H05261)
Strobe/Lamp Enabled: No (USB2+H05261)
Correct for Detector Non-linearity: No (USB2+H05261)
Correct for Stray Light: No (USB2+H05261)
Number of Pixels in Processed Spectrum: 2048
>>>>>Begin Processed Spectral Data<<<<<
365.73	0.00
365.92	0.00
366.12	0.00
366.32	0.00
366.52	0.00
366.72	0.00
366.91	0.00
367.11	0.00
367.31	0.00
367.51	0.00
367.70	0.00
367.90	0.00
368.10	0.00
368.30	0.00
368.49	0.00
368.69	0.00
368.89	0.00
369.09	0.00
369.28	0.00
369.48	0.00
369.68	0.00
369.87	0.00
370.07	0.00
370.27	0.00
370.47	0.00
370.66	0.00
370.86	0.00
371.06	0.00
371.25	58.51
371.45	51.49
371.65	23.41
371.84	0.00
372.04	0.00
372.24	0.00
372.44	0.00
372.63	23.41
372.83	4.68
373.03	63.19
373.22	23.41
373.42	0.00
373.62	28.09
373.81	58.51
374.01	16.38
374.21	91.28
374.40	58.51
374.60	42.13
374.79	91.28
374.99	93.62
375.19	63.19
375.38	72.56
375.58	72.56
375.78	88.94
375.97	0.00
376.17	30.43
376.37	56.17
376.56	11.70
376.76	74.90
376.95	0.00
377.15	9.36
377.35	9.36
377.54	60.85
377.74	28.09
377.93	32.77
378.13	32.77
378.33	147.45
378.52	0.00
378.72	35.11
378.91	39.79
379.11	0.00
379.31	44.47
379.50	37.45
379.70	0.00
379.89	56.17
380.09	32.77
380.28	46.81
380.48	7.02
380.68	11.70
380.87	35.11
381.07	0.00
381.26	0.00
381.46	30.43
381.65	0.00
381.85	0.00
382.04	0.00
382.24	35.11
382.43	79.58
382.63	84.26
382.83	39.79
383.02	65.54
383.22	9.36
383.41	23.41
383.61	63.19
383.80	39.79
384.00	0.00
384.19	0.00
384.39	16.38
384.58	44.47
384.78	0.00
384.97	0.00
385.17	58.51
385.36	0.00
385.56	46.81
385.75	35.11
385.95	32.77
386.14	88.94
386.34	0.00
386.53	32.77
386.72	2.34
386.92	0.00
387.11	0.00
387.31	0.00
387.50	0.00
387.70	0.00
387.89	0.00
388.09	35.11
388.28	9.36
388.48	0.00
388.67	46.81
388.86	42.13
389.06	42.13
389.25	0.00
389.45	35.11
389.64	58.51
389.84	72.56
390.03	49.15
390.22	98.30
390.42	56.17
390.61	49.15
390.81	0.00
391.00	0.00
391.19	37.45
391.39	0.00
391.58	58.51
391.78	14.04
391.97	65.54
392.16	84.26
392.36	32.77
392.55	4.68
392.75	0.00
392.94	39.79
393.13	0.00
393.33	63.19
393.52	42.13
393.71	14.04
393.91	58.51
394.10	49.15
394.29	105.32
394.49	0.00
394.68	60.85
394.88	81.92
395.07	7.02
395.26	63.19
395.46	9.36
395.65	25.75
395.84	0.00
396.04	2.34
396.23	77.24
396.42	46.81
396.62	35.11
396.81	11.70
397.00	0.00
397.19	2.34
397.39	7.02
397.58	14.04
397.77	4.68
397.97	14.04
398.16	0.00
398.35	0.00
398.55	49.15
398.74	88.94
398.93	114.69
399.12	112.35
399.32	42.13
399.51	0.00
399.70	53.83
399.90	0.00
400.09	25.75
400.28	4.68
400.47	72.56
400.67	51.49
400.86	81.92
401.05	0.00
401.24	42.13
401.44	23.41
401.63	18.72
401.82	117.03
402.01	0.00
402.21	39.79
402.40	63.19
402.59	0.00
402.78	67.88
402.97	18.72
403.17	42.13
403.36	0.00
403.55	46.81
403.74	0.00
403.93	0.00
404.13	4.68
404.32	63.19
404.51	28.09
404.70	56.17
404.89	25.75
405.09	77.24
405.28	49.15
405.47	49.15
405.66	70.22
405.85	2.34
406.05	0.00
406.24	21.06
406.43	0.00
406.62	37.45
406.81	70.22
407.00	56.17
407.20	30.43
407.39	49.15
407.58	0.00
407.77	37.45
407.96	56.17
408.15	60.85
408.34	0.00
408.54	53.83
408.73	25.75
408.92	35.11
409.11	44.47
409.30	23.41
409.49	63.19
409.68	117.03
409.87	0.00
410.07	23.41
410.26	32.77
410.45	0.00
410.64	42.13
410.83	77.24
411.02	44.47
411.21	77.24
411.40	0.00
411.59	56.17
411.78	95.96
411.98	23.41
412.17	51.49
412.36	84.26
412.55	23.41
412.74	35.11
412.93	51.49
413.12	74.90
413.31	77.24
413.50	72.56
413.69	42.13
413.88	0.00
414.07	58.51
414.26	58.51
414.45	0.00
414.64	23.41
414.83	39.79
415.02	93.62
415.22	2.34
415.41	7.02
415.60	28.09
415.79	37.45
415.98	53.83
416.17	35.11
416.36	32.77
416.55	46.81
416.74	93.62
416.93	39.79
417.12	0.00
417.31	4.68
417.50	56.17
417.69	67.88
417.88	11.70
418.07	11.70
418.26	28.09
418.45	44.47
418.64	0.00
418.83	65.54
419.02	63.19
419.21	14.04
419.39	46.81
419.58	7.02
419.77	28.09
419.96	2.34
420.15	32.77
420.34	0.00
420.53	0.00
420.72	46.81
420.91	93.62
421.10	51.49
421.29	42.13
421.48	91.28
421.67	58.51
421.86	0.00
422.05	28.09
422.24	0.00
422.43	2.34
422.61	67.88
422.80	53.83
422.99	105.32
423.18	42.13
423.37	28.09
423.56	46.81
423.75	51.49
423.94	74.90
424.13	25.75
424.32	14.04
424.50	0.00
424.69	21.06
424.88	77.24
425.07	9.36
425.26	95.96
425.45	63.19
425.64	112.35
425.83	72.56
426.01	63.19
426.20	16.38
426.39	0.00
426.58	53.83
426.77	0.00
426.96	79.58
427.15	58.51
427.33	0.00
427.52	0.00
427.71	58.51
427.90	16.38
428.09	49.15
428.28	46.81
428.46	23.41
428.65	25.75
428.84	4.68
429.03	0.00
429.22	133.41
429.40	58.51
429.59	60.85
429.78	95.96
429.97	60.85
430.16	21.06
430.34	102.98
430.53	93.62
430.72	23.41
430.91	25.75
431.10	28.09
431.28	14.04
431.47	39.79
431.66	105.32
431.85	23.41
432.03	135.75
432.22	9.36
432.41	4.68
432.60	51.49
432.79	53.83
432.97	51.49
433.16	102.98
433.35	18.72
433.54	32.77
433.72	44.47
433.91	30.43
434.10	81.92
434.28	126.39
434.47	65.54
434.66	0.00
434.85	51.49
435.03	88.94
435.22	72.56
435.41	37.45
435.59	81.92
435.78	42.13
435.97	35.11
436.16	93.62
436.34	32.77
436.53	18.72
436.72	56.17
436.90	53.83
437.09	0.00
437.28	60.85
437.46	56.17
437.65	67.88
437.84	21.06
438.02	53.83
438.21	79.58
438.40	131.07
438.58	51.49
438.77	0.00
438.96	30.43
439.14	18.72
439.33	124.05
439.52	88.94
439.70	53.83
439.89	23.41
440.08	81.92
440.26	30.43
440.45	98.30
440.63	37.45
440.82	74.90
441.01	133.41
441.19	18.72
441.38	0.00
441.57	114.69
441.75	93.62
441.94	25.75
442.12	46.81
442.31	51.49
442.50	16.38
442.68	35.11
442.87	65.54
443.05	23.41
443.24	35.11
443.43	39.79
443.61	60.85
443.80	79.58
443.98	58.51
444.17	4.68
444.35	42.13
444.54	21.06
444.73	30.43
444.91	16.38
445.10	60.85
445.28	14.04
445.47	72.56
445.65	42.13
445.84	14.04
446.02	46.81
446.21	2.34
446.39	77.24
446.58	28.09
446.77	42.13
446.95	110.01
447.14	72.56
447.32	63.19
447.51	28.09
447.69	46.81
447.88	100.64
448.06	79.58
448.25	79.58
448.43	93.62
448.62	51.49
448.80	119.37
448.99	25.75
449.17	86.60
449.36	95.96
449.54	72.56
449.73	95.96
449.91	93.62
450.10	0.00
450.28	56.17
450.46	53.83
450.65	53.83
450.83	70.22
451.02	46.81
451.20	88.94
451.39	21.06
451.57	67.88
451.76	95.96
451.94	60.85
452.13	51.49
452.31	16.38
452.49	79.58
452.68	0.00
452.86	25.75
453.05	72.56
453.23	44.47
453.42	4.68
453.60	11.70
453.78	35.11
453.97	0.00
454.15	11.70
454.34	16.38
454.52	0.00
454.70	44.47
454.89	0.00
455.07	14.04
455.26	100.64
455.44	46.81
455.62	60.85
455.81	91.28
455.99	93.62
456.17	72.56
456.36	53.83
456.54	7.02
456.73	18.72
456.91	37.45
457.09	128.73
457.28	72.56
457.46	42.13
457.64	114.69
457.83	56.17
458.01	67.88
458.19	84.26
458.38	70.22
458.56	21.06
458.74	14.04
458.93	25.75
459.11	79.58
459.29	74.90
459.48	39.79
459.66	23.41
459.84	65.54
460.03	58.51
460.21	35.11
460.39	42.13
460.57	35.11
460.76	39.79
460.94	25.75
461.12	49.15
461.31	0.00
461.49	16.38
461.67	11.70
461.85	93.62
462.04	0.00
462.22	102.98
462.40	0.00
462.59	77.24
462.77	70.22
462.95	0.00
463.13	60.85
463.32	35.11
463.50	35.11
463.68	35.11
463.86	25.75
464.05	18.72
464.23	79.58
464.41	86.60
464.59	0.00
464.78	18.72
464.96	32.77
465.14	142.77
465.32	105.32
465.50	93.62
465.69	65.54
465.87	28.09
466.05	46.81
466.23	53.83
466.41	35.11
466.60	37.45
466.78	42.13
466.96	95.96
467.14	95.96
467.32	42.13
467.51	32.77
467.69	119.37
467.87	14.04
468.05	72.56
468.23	44.47
468.41	110.01
468.60	42.13
468.78	42.13
468.96	79.58
469.14	39.79
469.32	9.36
469.50	0.00
469.69	56.17
469.87	58.51
470.05	117.03
470.23	77.24
470.41	110.01
470.59	58.51
470.77	70.22
470.95	0.00
471.14	35.11
471.32	49.15
471.50	72.56
471.68	0.00
471.86	133.41
472.04	60.85
472.22	35.11
472.40	93.62
472.58	95.96
472.77	140.43
472.95	98.30
473.13	107.66
473.31	51.49
473.49	56.17
473.67	21.06
473.85	86.60
474.03	128.73
474.21	110.01
474.39	30.43
474.57	28.09
474.75	70.22
474.93	110.01
475.12	42.13
475.30	21.06
475.48	35.11
475.66	58.51
475.84	105.32
476.02	51.49
476.20	84.26
476.38	0.00
476.56	98.30
476.74	124.05
476.92	49.15
477.10	70.22
477.28	39.79
477.46	35.11
477.64	0.00
477.82	77.24
478.00	51.49
478.18	70.22
478.36	60.85
478.54	114.69
478.72	56.17
478.90	72.56
479.08	98.30
479.26	79.58
479.44	114.69
479.62	126.39
479.80	70.22
479.98	60.85
480.16	25.75
480.34	42.13
480.52	18.72
480.70	81.92
480.88	37.45
481.06	72.56
481.24	119.37
481.41	79.58
481.59	28.09
481.77	44.47
481.95	28.09
482.13	49.15
482.31	46.81
482.49	37.45
482.67	91.28
482.85	91.28
483.03	84.26
483.21	107.66
483.39	91.28
483.57	86.60
483.74	11.70
483.92	18.72
484.10	63.19
484.28	53.83
484.46	9.36
484.64	70.22
484.82	124.05
485.00	98.30
485.18	124.05
485.35	58.51
485.53	7.02
485.71	0.00
485.89	30.43
486.07	131.07
486.25	32.77
486.43	72.56
486.61	88.94
486.78	0.00
486.96	77.24
487.14	77.24
487.32	42.13
487.50	145.11
487.68	77.24
487.85	39.79
488.03	42.13
488.21	0.00
488.39	25.75
488.57	65.54
488.75	63.19
488.92	88.94
489.10	65.54
489.28	60.85
489.46	53.83
489.64	0.00
489.81	79.58
489.99	72.56
490.17	49.15
490.35	53.83
490.53	86.60
490.70	60.85
490.88	98.30
491.06	35.11
491.24	51.49
491.41	100.64
491.59	95.96
491.77	95.96
491.95	84.26
492.13	114.69
492.30	142.77
492.48	126.39
492.66	95.96
492.84	84.26
493.01	100.64
493.19	70.22
493.37	93.62
493.54	39.79
493.72	28.09
493.90	65.54
494.08	42.13
494.25	70.22
494.43	114.69
494.61	58.51
494.79	95.96
494.96	65.54
495.14	102.98
495.32	77.24
495.49	86.60
495.67	0.00
495.85	28.09
496.02	0.00
496.20	14.04
496.38	67.88
496.55	42.13
496.73	49.15
496.91	88.94
497.09	39.79
497.26	56.17
497.44	93.62
497.62	67.88
497.79	9.36
497.97	42.13
498.14	81.92
498.32	65.54
498.50	77.24
498.67	51.49
498.85	35.11
499.03	110.01
499.20	84.26
499.38	84.26
499.56	60.85
499.73	74.90
499.91	51.49
500.08	0.00
500.26	81.92
500.44	39.79
500.61	114.69
500.79	72.56
500.97	70.22
501.14	110.01
501.32	128.73
501.49	0.00
501.67	67.88
501.84	37.45
502.02	51.49
502.20	114.69
502.37	60.85
502.55	42.13
502.72	65.54
502.90	23.41
503.07	100.64
503.25	135.75
503.43	91.28
503.60	95.96
503.78	21.06
503.95	53.83
504.13	121.71
504.30	114.69
504.48	88.94
504.65	110.01
504.83	117.03
505.01	58.51
505.18	210.65
505.36	131.07
505.53	189.58
505.71	128.73
505.88	51.49
506.06	98.30
506.23	72.56
506.41	32.77
506.58	95.96
506.76	9.36
506.93	65.54
507.11	49.15
507.28	0.00
507.46	72.56
507.63	114.69
507.81	37.45
507.98	154.48
508.16	91.28
508.33	88.94
508.50	128.73
508.68	145.11
508.85	100.64
509.03	107.66
509.20	84.26
509.38	135.75
509.55	95.96
509.73	39.79
509.90	30.43
510.08	95.96
510.25	79.58
510.42	72.56
510.60	72.56
510.77	53.83
510.95	131.07
511.12	126.39
511.30	91.28
511.47	44.47
511.64	114.69
511.82	53.83
511.99	145.11
512.17	86.60
512.34	46.81
512.51	131.07
512.69	0.00
512.86	147.45
513.04	98.30
513.21	60.85
513.38	58.51
513.56	65.54
513.73	81.92
513.90	114.69
514.08	81.92
514.25	56.17
514.43	28.09
514.60	74.90
514.77	67.88
514.95	74.90
515.12	44.47
515.29	9.36
515.47	88.94
515.64	114.69
515.81	81.92
515.99	86.60
516.16	112.35
516.33	114.69
516.51	93.62
516.68	86.60
516.85	72.56
517.03	56.17
517.20	95.96
517.37	51.49
517.54	98.30
517.72	39.79
517.89	114.69
518.06	72.56
518.24	149.79
518.41	30.43
518.58	110.01
518.75	114.69
518.93	105.32
519.10	119.37
519.27	60.85
519.45	72.56
519.62	60.85
519.79	74.90
519.96	95.96
520.14	58.51
520.31	42.13
520.48	70.22
520.65	95.96
520.83	126.39
521.00	117.03
521.17	4.68
521.34	65.54
521.52	88.94
521.69	91.28
521.86	102.98
522.03	65.54
522.20	107.66
522.38	14.04
522.55	110.01
522.72	74.90
522.89	74.90
523.07	173.20
523.24	42.13
523.41	28.09
523.58	79.58
523.75	124.05
523.92	65.54
524.10	81.92
524.27	124.05
524.44	107.66
524.61	88.94
524.78	42.13
524.96	49.15
525.13	110.01
525.30	135.75
525.47	102.98
525.64	86.60
525.81	49.15
525.98	95.96
526.16	107.66
526.33	84.26
526.50	77.24
526.67	49.15
526.84	84.26
527.01	128.73
527.18	51.49
527.36	74.90
527.53	126.39
527.70	37.45
527.87	102.98
528.04	42.13
528.21	81.92
528.38	81.92
528.55	131.07
528.72	121.71
528.89	114.69
529.07	88.94
529.24	138.09
529.41	28.09
529.58	74.90
529.75	117.03
529.92	100.64
530.09	86.60
530.26	140.43
530.43	126.39
530.60	140.43
530.77	81.92
530.94	95.96
531.11	21.06
531.28	67.88
531.46	147.45
531.63	81.92
531.80	72.56
531.97	56.17
532.14	2.34
532.31	53.83
532.48	100.64
532.65	79.58
532.82	79.58
532.99	79.58
533.16	67.88
533.33	138.09
533.50	51.49
533.67	16.38
533.84	32.77
534.01	95.96
534.18	0.00
534.35	135.75
534.52	51.49
534.69	72.56
534.86	126.39
535.03	60.85
535.20	28.09
535.37	93.62
535.54	2.34
535.71	110.01
535.88	180.22
536.05	67.88
536.22	35.11
536.38	126.39
536.55	166.18
536.72	112.35
536.89	79.58
537.06	126.39
537.23	98.30
537.40	95.96
537.57	53.83
537.74	44.47
537.91	117.03
538.08	98.30
538.25	105.32
538.42	51.49
538.59	98.30
538.75	114.69
538.92	110.01
539.09	124.05
539.26	91.28
539.43	128.73
539.60	42.13
539.77	133.41
539.94	124.05
540.11	112.35
540.28	119.37
540.44	191.92
540.61	58.51
540.78	67.88
540.95	51.49
541.12	119.37
541.29	65.54
541.46	72.56
541.62	58.51
541.79	112.35
541.96	63.19
542.13	84.26
542.30	39.79
542.47	72.56
542.63	86.60
542.80	42.13
542.97	112.35
543.14	156.82
543.31	9.36
543.48	102.98
543.64	133.41
543.81	56.17
543.98	189.58
544.15	65.54
544.32	56.17
544.48	44.47
544.65	81.92
544.82	98.30
544.99	65.54
545.16	81.92
545.32	37.45
545.49	124.05
545.66	70.22
545.83	117.03
546.00	56.17
546.16	135.75
546.33	91.28
546.50	53.83
546.67	0.00
546.83	56.17
547.00	77.24
547.17	105.32
547.34	51.49
547.50	67.88
547.67	77.24
547.84	39.79
548.00	112.35
548.17	102.98
548.34	84.26
548.51	53.83
548.67	93.62
548.84	107.66
549.01	147.45
549.18	107.66
549.34	37.45
549.51	102.98
549.68	30.43
549.84	128.73
550.01	28.09
550.18	70.22
550.34	32.77
550.51	100.64
550.68	91.28
550.84	0.00
551.01	81.92
551.18	100.64
551.34	100.64
551.51	65.54
551.68	0.00
551.84	189.58
552.01	112.35
552.18	30.43
552.34	88.94
552.51	88.94
552.68	140.43
552.84	126.39
553.01	121.71
553.18	49.15
553.34	79.58
553.51	86.60
553.67	86.60
553.84	107.66
554.01	88.94
554.17	79.58
554.34	49.15
554.51	112.35
554.67	9.36
554.84	65.54
555.00	23.41
555.17	72.56
555.33	79.58
555.50	121.71
555.67	79.58
555.83	65.54
556.00	56.17
556.16	84.26
556.33	51.49
556.50	112.35
556.66	149.79
556.83	140.43
556.99	58.51
557.16	58.51
557.32	124.05
557.49	70.22
557.65	91.28
557.82	107.66
557.98	168.52
558.15	60.85
558.32	112.35
558.48	81.92
558.65	77.24
558.81	112.35
558.98	39.79
559.14	37.45
559.31	35.11
559.47	170.86
559.64	168.52
559.80	107.66
559.97	81.92
560.13	74.90
560.30	110.01
560.46	79.58
560.63	119.37
560.79	112.35
560.96	110.01
561.12	74.90
561.29	110.01
561.45	110.01
561.61	37.45
561.78	53.83
561.94	110.01
562.11	0.00
562.27	170.86
562.44	67.88
562.60	67.88
562.77	93.62
562.93	79.58
563.10	110.01
563.26	124.05
563.42	72.56
563.59	124.05
563.75	100.64
563.92	107.66
564.08	79.58
564.24	147.45
564.41	81.92
564.57	39.79
564.74	147.45
564.90	44.47
565.07	18.72
565.23	142.77
565.39	53.83
565.56	42.13
565.72	84.26
565.88	0.00
566.05	49.15
566.21	37.45
566.38	79.58
566.54	25.75
566.70	77.24
566.87	7.02
567.03	81.92
567.19	93.62
567.36	77.24
567.52	46.81
567.68	67.88
567.85	182.56
568.01	79.58
568.17	107.66
568.34	95.96
568.50	102.98
568.66	102.98
568.83	84.26
568.99	46.81
569.15	70.22
569.32	67.88
569.48	102.98
569.64	81.92
569.81	100.64
569.97	58.51
570.13	30.43
570.30	81.92
570.46	95.96
570.62	60.85
570.78	102.98
570.95	60.85
571.11	81.92
571.27	67.88
571.43	128.73
571.60	60.85
571.76	102.98
571.92	81.92
572.09	46.81
572.25	91.28
572.41	86.60
572.57	93.62
572.74	121.71
572.90	88.94
573.06	119.37
573.22	44.47
573.38	23.41
573.55	42.13
573.71	147.45
573.87	72.56
574.03	93.62
574.20	98.30
574.36	93.62
574.52	51.49
574.68	131.07
574.84	39.79
575.01	128.73
575.17	110.01
575.33	133.41
575.49	119.37
575.65	60.85
575.82	0.00
575.98	72.56
576.14	60.85
576.30	65.54
576.46	100.64
576.62	140.43
576.79	119.37
576.95	53.83
577.11	77.24
577.27	93.62
577.43	140.43
577.59	114.69
577.75	60.85
577.92	138.09
578.08	42.13
578.24	77.24
578.40	168.52
578.56	154.48
578.72	63.19
578.88	72.56
579.04	72.56
579.21	58.51
579.37	119.37
579.53	65.54
579.69	95.96
579.85	7.02
580.01	49.15
580.17	161.50
580.33	56.17
580.49	128.73
580.65	98.30
580.82	100.64
580.98	56.17
581.14	21.06
581.30	147.45
581.46	91.28
581.62	65.54
581.78	67.88
581.94	147.45
582.10	63.19
582.26	86.60
582.42	124.05
582.58	79.58
582.74	107.66
582.90	140.43
583.06	65.54
583.22	39.79
583.38	63.19
583.54	35.11
583.70	67.88
583.86	44.47
584.02	51.49
584.18	126.39
584.34	81.92
584.50	56.17
584.66	4.68
584.82	51.49
584.98	67.88
585.14	37.45
585.30	114.69
585.46	70.22
585.62	128.73
585.78	58.51
585.94	56.17
586.10	93.62
586.26	81.92
586.42	42.13
586.58	28.09
586.74	53.83
586.90	72.56
587.06	51.49
587.22	0.00
587.38	58.51
587.54	126.39
587.70	37.45
587.86	70.22
588.02	91.28
588.18	21.06
588.34	100.64
588.49	2.34
588.65	84.26
588.81	16.38
588.97	56.17
589.13	37.45
589.29	79.58
589.45	60.85
589.61	44.47
589.77	70.22
589.93	35.11
590.08	53.83
590.24	74.90
590.40	72.56
590.56	102.98
590.72	60.85
590.88	91.28
591.04	53.83
591.20	102.98
591.35	14.04
591.51	81.92
591.67	159.16
591.83	95.96
591.99	95.96
592.15	72.56
592.31	70.22
592.46	124.05
592.62	107.66
592.78	86.60
592.94	91.28
593.10	56.17
593.26	23.41
593.41	88.94
593.57	135.75
593.73	46.81
593.89	70.22
594.05	58.51
594.20	63.19
594.36	51.49
594.52	56.17
594.68	110.01
594.84	74.90
594.99	88.94
595.15	44.47
595.31	63.19
595.47	117.03
595.62	74.90
595.78	105.32
595.94	0.00
596.10	49.15
596.25	84.26
596.41	102.98
596.57	63.19
596.73	91.28
596.88	86.60
597.04	86.60
597.20	154.48
597.36	74.90
597.51	51.49
597.67	72.56
597.83	65.54
597.99	105.32
598.14	70.22
598.30	126.39
598.46	11.70
598.61	84.26
598.77	7.02
598.93	63.19
599.09	98.30
599.24	65.54
599.40	86.60
599.56	39.79
599.71	91.28
599.87	102.98
600.03	72.56
600.18	77.24
600.34	142.77
600.50	95.96
600.65	23.41
600.81	107.66
600.97	60.85
601.12	28.09
601.28	128.73
601.44	93.62
601.59	25.75
601.75	46.81
601.91	95.96
602.06	58.51
602.22	102.98
602.37	49.15
602.53	81.92
602.69	93.62
602.84	74.90
603.00	95.96
603.16	37.45
603.31	60.85
603.47	81.92
603.62	18.72
603.78	84.26
603.94	14.04
604.09	110.01
604.25	98.30
604.40	102.98
604.56	163.84
604.71	49.15
604.87	114.69
605.03	49.15
605.18	138.09
605.34	79.58
605.49	110.01
605.65	138.09
605.80	63.19
605.96	32.77
606.12	110.01
606.27	107.66
606.43	49.15
606.58	72.56
606.74	46.81
606.89	77.24
607.05	112.35
607.20	46.81
607.36	107.66
607.51	60.85
607.67	67.88
607.82	49.15
607.98	91.28
608.13	74.90
608.29	42.13
608.44	63.19
608.60	25.75
608.75	56.17
608.91	44.47
609.06	86.60
609.22	51.49
609.37	39.79
609.53	23.41
609.68	79.58
609.84	110.01
609.99	58.51
610.15	131.07
610.30	105.32
610.46	65.54
610.61	72.56
610.76	93.62
610.92	95.96
611.07	79.58
611.23	42.13
611.38	74.90
611.54	112.35
611.69	100.64
611.84	70.22
612.00	0.00
612.15	93.62
612.31	21.06
612.46	138.09
612.62	65.54
612.77	16.38
612.92	77.24
613.08	32.77
613.23	114.69
613.39	140.43
613.54	56.17
613.69	100.64
613.85	18.72
614.00	60.85
614.15	95.96
614.31	21.06
614.46	102.98
614.62	63.19
614.77	0.00
614.92	2.34
615.08	30.43
615.23	95.96
615.38	102.98
615.54	86.60
615.69	67.88
615.84	100.64
616.00	44.47
616.15	32.77
616.30	39.79
616.46	56.17
616.61	56.17
616.76	51.49
616.92	23.41
617.07	2.34
617.22	91.28
617.37	128.73
617.53	77.24
617.68	91.28
617.83	65.54
617.99	63.19
618.14	42.13
618.29	74.90
618.45	51.49
618.60	51.49
618.75	149.79
618.90	70.22
619.06	91.28
619.21	105.32
619.36	105.32
619.51	88.94
619.67	100.64
619.82	35.11
619.97	49.15
620.12	0.00
620.28	11.70
620.43	84.26
620.58	53.83
620.73	63.19
620.89	72.56
621.04	9.36
621.19	42.13
621.34	112.35
621.49	91.28
621.65	49.15
621.80	21.06
621.95	28.09
622.10	37.45
622.25	35.11
622.41	60.85
622.56	35.11
622.71	30.43
622.86	93.62
623.01	53.83
623.16	67.88
623.32	70.22
623.47	18.72
623.62	91.28
623.77	77.24
623.92	95.96
624.07	77.24
624.23	93.62
624.38	42.13
624.53	77.24
624.68	35.11
624.83	72.56
624.98	0.00
625.13	23.41
625.29	65.54
625.44	32.77
625.59	0.00
625.74	145.11
625.89	42.13
626.04	58.51
626.19	42.13
626.34	35.11
626.49	53.83
626.65	30.43
626.80	23.41
626.95	53.83
627.10	2.34
627.25	18.72
627.40	145.11
627.55	0.00
627.70	72.56
627.85	65.54
628.00	114.69
628.15	77.24
628.30	28.09
628.45	14.04
628.60	42.13
628.76	91.28
628.91	121.71
629.06	93.62
629.21	60.85
629.36	128.73
629.51	70.22
629.66	84.26
629.81	58.51
629.96	72.56
630.11	63.19
630.26	42.13
630.41	72.56
630.56	28.09
630.71	60.85
630.86	63.19
631.01	86.60
631.16	37.45
631.31	56.17
631.46	65.54
631.61	32.77
631.76	30.43
631.91	114.69
632.06	70.22
632.21	28.09
632.36	72.56
632.51	65.54
632.66	0.00
632.81	49.15
632.96	37.45
633.10	91.28
633.25	32.77
633.40	95.96
633.55	98.30
633.70	77.24
633.85	88.94
634.00	46.81
634.15	100.64
634.30	58.51
634.45	93.62
634.60	112.35
634.75	32.77
634.90	0.00
635.05	46.81
635.19	88.94
635.34	105.32
635.49	117.03
635.64	44.47
635.79	44.47
635.94	65.54
636.09	77.24
636.24	35.11
636.39	32.77
636.53	56.17
636.68	0.00
636.83	70.22
636.98	37.45
637.13	60.85
637.28	18.72
637.43	37.45
637.57	63.19
637.72	2.34
637.87	86.60
638.02	51.49
638.17	84.26
638.32	28.09
638.46	51.49
638.61	58.51
638.76	35.11
638.91	84.26
639.06	58.51
639.20	56.17
639.35	91.28
639.50	79.58
639.65	58.51
639.80	25.75
639.94	121.71
640.09	25.75
640.24	107.66
640.39	51.49
640.54	60.85
640.68	16.38
640.83	63.19
640.98	23.41
641.13	0.00
641.27	88.94
641.42	112.35
641.57	32.77
641.72	98.30
641.86	81.92
642.01	84.26
642.16	28.09
642.31	56.17
642.45	0.00
642.60	25.75
642.75	121.71
642.90	88.94
643.04	35.11
643.19	28.09
643.34	30.43
643.48	42.13
643.63	58.51
643.78	86.60
643.93	93.62
644.07	77.24
644.22	56.17
644.37	63.19
644.51	65.54
644.66	25.75
644.81	100.64
644.95	51.49
645.10	72.56
645.25	58.51
645.39	32.77
645.54	86.60
645.69	42.13
645.83	0.00
645.98	126.39
646.13	32.77
646.27	126.39
646.42	16.38
646.57	56.17
646.71	32.77
646.86	105.32
647.00	49.15
647.15	9.36
647.30	72.56
647.44	44.47
647.59	70.22
647.74	91.28
647.88	95.96
648.03	63.19
648.17	88.94
648.32	39.79
648.47	25.75
648.61	37.45
648.76	114.69
648.90	53.83
649.05	124.05
649.20	32.77
649.34	30.43
649.49	70.22
649.63	112.35
649.78	60.85
649.92	39.79
650.07	81.92
650.21	4.68
650.36	107.66
650.51	112.35
650.65	49.15
650.80	11.70
650.94	37.45
651.09	65.54
651.23	67.88
651.38	58.51
651.52	56.17
651.67	21.06
651.81	11.70
651.96	77.24
652.10	138.09
652.25	51.49
652.39	79.58
652.54	0.00
652.68	74.90
652.83	105.32
652.97	35.11
653.12	49.15
653.26	35.11
653.41	67.88
653.55	133.41
653.70	37.45
653.84	44.47
653.99	32.77
654.13	81.92
654.27	42.13
654.42	98.30
654.56	49.15
654.71	4.68
654.85	149.79
655.00	81.92
655.14	0.00
655.29	100.64
655.43	51.49
655.57	95.96
655.72	25.75
655.86	21.06
656.01	51.49
656.15	79.58
656.30	44.47
656.44	16.38
656.58	42.13
656.73	95.96
656.87	63.19
657.01	0.00
657.16	30.43
657.30	105.32
657.45	21.06
657.59	114.69
657.73	30.43
657.88	65.54
658.02	28.09
658.16	25.75
658.31	56.17
658.45	21.06
658.60	84.26
658.74	42.13
658.88	4.68
659.03	95.96
659.17	0.00
659.31	63.19
659.46	79.58
659.60	60.85
659.74	65.54
659.89	65.54
660.03	35.11
660.17	72.56
660.32	56.17
660.46	32.77
660.60	42.13
660.74	63.19
660.89	39.79
661.03	23.41
661.17	93.62
661.32	0.00
661.46	72.56
661.60	117.03
661.74	51.49
661.89	49.15
662.03	28.09
662.17	93.62
662.31	46.81
662.46	79.58
662.60	91.28
662.74	53.83
662.88	18.72
663.03	11.70
663.17	72.56
663.31	28.09
663.45	16.38
663.60	37.45
663.74	21.06
663.88	58.51
664.02	72.56
664.17	91.28
664.31	110.01
664.45	21.06
664.59	30.43
664.73	86.60
664.88	44.47
665.02	79.58
665.16	93.62
665.30	67.88
665.44	0.00
665.59	9.36
665.73	112.35
665.87	46.81
666.01	56.17
666.15	65.54
666.29	65.54
666.44	4.68
666.58	65.54
666.72	42.13
666.86	58.51
667.00	9.36
667.14	119.37
667.28	4.68
667.43	16.38
667.57	7.02
667.71	35.11
667.85	58.51
667.99	39.79
668.13	79.58
668.27	77.24
668.41	49.15
668.56	60.85
668.70	56.17
668.84	65.54
668.98	77.24
669.12	0.00
669.26	53.83
669.40	67.88
669.54	46.81
669.68	58.51
669.82	51.49
669.96	60.85
670.10	138.09
670.25	79.58
670.39	53.83
670.53	56.17
670.67	102.98
670.81	32.77
670.95	88.94
671.09	51.49
671.23	56.17
671.37	53.83
671.51	39.79
671.65	16.38
671.79	74.90
671.93	0.00
672.07	21.06
672.21	2.34
672.35	72.56
672.49	60.85
672.63	35.11
672.77	25.75
672.91	88.94
673.05	63.19
673.19	70.22
673.33	112.35
673.47	77.24
673.61	88.94
673.75	86.60
673.89	49.15
674.03	0.00
674.17	49.15
674.31	67.88
674.45	81.92
674.59	35.11
674.73	72.56
674.87	0.00
675.01	35.11
675.15	0.00
675.29	65.54
675.43	60.85
675.56	121.71
675.70	0.00
675.84	28.09
675.98	95.96
676.12	60.85
676.26	91.28
676.40	81.92
676.54	53.83
676.68	16.38
676.82	60.85
676.96	0.00
677.10	72.56
677.23	124.05
677.37	102.98
677.51	77.24
677.65	32.77
677.79	70.22
677.93	25.75
678.07	86.60
678.21	81.92
678.34	95.96
678.48	65.54
678.62	105.32
678.76	72.56
678.90	77.24
679.04	72.56
679.18	74.90
679.31	46.81
679.45	70.22
679.59	0.00
679.73	21.06
679.87	49.15
680.00	30.43
680.14	60.85
680.28	39.79
680.42	28.09
680.56	2.34
680.70	21.06
680.83	0.00
680.97	79.58
681.11	63.19
681.25	21.06
681.39	67.88
681.52	60.85
681.66	4.68
681.80	70.22
681.94	32.77
682.07	0.00
682.21	4.68
682.35	100.64
682.49	9.36
682.62	110.01
682.76	25.75
682.90	0.00
683.04	72.56
683.17	51.49
683.31	32.77
683.45	67.88
683.59	46.81
683.72	56.17
683.86	46.81
684.00	49.15
684.13	51.49
684.27	46.81
684.41	32.77
684.55	23.41
684.68	56.17
684.82	86.60
684.96	7.02
685.09	0.00
685.23	65.54
685.37	86.60
685.50	58.51
685.64	74.90
685.78	11.70
685.91	51.49
686.05	21.06
686.19	49.15
686.32	11.70
686.46	105.32
686.60	107.66
686.73	30.43
686.87	7.02
687.01	28.09
687.14	25.75
687.28	42.13
687.42	49.15
687.55	77.24
687.69	30.43
687.82	0.00
687.96	51.49
688.10	72.56
688.23	88.94
688.37	51.49
688.50	77.24
688.64	14.04
688.78	60.85
688.91	14.04
689.05	14.04
689.18	67.88
689.32	37.45
689.46	16.38
689.59	28.09
689.73	60.85
689.86	102.98
690.00	67.88
690.13	23.41
690.27	51.49
690.41	0.00
690.54	58.51
690.68	0.00
690.81	74.90
690.95	88.94
691.08	9.36
691.22	25.75
691.35	21.06
691.49	35.11
691.62	58.51
691.76	105.32
691.89	110.01
692.03	35.11
692.16	28.09
692.30	35.11
692.43	58.51
692.57	51.49
692.70	51.49
692.84	105.32
692.97	0.00
693.11	70.22
693.24	93.62
693.38	37.45
693.51	37.45
693.65	30.43
693.78	0.00
693.92	53.83
694.05	30.43
694.19	18.72
694.32	63.19
694.45	93.62
694.59	88.94
694.72	25.75
694.86	60.85
694.99	98.30
695.13	30.43
695.26	58.51
695.39	37.45
695.53	79.58
695.66	39.79
695.80	0.00
695.93	23.41
696.07	11.70
696.20	0.00
696.33	0.00
696.47	32.77
696.60	23.41
696.73	60.85
696.87	112.35
697.00	30.43
697.14	0.00
697.27	51.49
697.40	63.19
697.54	88.94
697.67	91.28
697.80	42.13
697.94	30.43
698.07	32.77
698.21	56.17
698.34	0.00
698.47	14.04
698.61	51.49
698.74	0.00
698.87	21.06
699.01	105.32
699.14	30.43
699.27	63.19
699.40	81.92
699.54	93.62
699.67	25.75
699.80	0.00
699.94	23.41
700.07	0.00
700.20	16.38
700.34	37.45
700.47	58.51
700.60	46.81
700.73	77.24
700.87	30.43
701.00	25.75
701.13	95.96
701.26	32.77
701.40	0.00
701.53	53.83
701.66	11.70
701.79	28.09
701.93	25.75
702.06	25.75
702.19	0.00
702.32	84.26
702.46	14.04
702.59	70.22
702.72	16.38
702.85	100.64
702.99	0.00
703.12	23.41
703.25	21.06
703.38	56.17
703.51	7.02
703.65	49.15
703.78	2.34
703.91	53.83
704.04	30.43
704.17	56.17
704.31	0.00
704.44	56.17
704.57	4.68
704.70	100.64
704.83	58.51
704.96	53.83
705.10	88.94
705.23	14.04
>>>>>End Processed Spectral Data<<<<<
