SpectraSuite Data File
++++++++++++++++++++++++++++++++++++
Date: Fri Oct 04 12:13:36 GMT-05:00 2013
User: price-jones
Dark Spectrum Present: No
Reference Spectrum Present: No
Number of Sampled Component Spectra: 1
Spectrometers: USB2+H05261
Integration Time (usec): 10000 (USB2+H05261)
Spectra Averaged: 1 (USB2+H05261)
Boxcar Smoothing: 0 (USB2+H05261)
Correct for Electrical Dark: No (USB2+H05261)
Strobe/Lamp Enabled: No (USB2+H05261)
Correct for Detector Non-linearity: No (USB2+H05261)
Correct for Stray Light: No (USB2+H05261)
Number of Pixels in Processed Spectrum: 2048
>>>>>Begin Processed Spectral Data<<<<<
365.73	0.00
365.92	0.00
366.12	0.00
366.32	0.00
366.52	0.00
366.72	0.00
366.91	0.00
367.11	0.00
367.31	0.00
367.51	0.00
367.70	0.00
367.90	0.00
368.10	0.00
368.30	0.00
368.49	0.00
368.69	0.00
368.89	0.00
369.09	0.00
369.28	0.00
369.48	0.00
369.68	0.00
369.87	0.00
370.07	0.00
370.27	0.00
370.47	0.00
370.66	0.00
370.86	0.00
371.06	0.00
371.25	0.00
371.45	67.88
371.65	4.68
371.84	0.00
372.04	2.34
372.24	56.17
372.44	21.06
372.63	25.75
372.83	2.34
373.03	21.06
373.22	32.77
373.42	46.81
373.62	0.00
373.81	60.85
374.01	11.70
374.21	46.81
374.40	53.83
374.60	30.43
374.79	58.51
374.99	9.36
375.19	11.70
375.38	74.90
375.58	0.00
375.78	4.68
375.97	18.72
376.17	21.06
376.37	105.32
376.56	9.36
376.76	0.00
376.95	0.00
377.15	21.06
377.35	0.00
377.54	35.11
377.74	0.00
377.93	44.47
378.13	58.51
378.33	30.43
378.52	21.06
378.72	65.54
378.91	9.36
379.11	0.00
379.31	42.13
379.50	44.47
379.70	0.00
379.89	42.13
380.09	37.45
380.28	0.00
380.48	79.58
380.68	0.00
380.87	58.51
381.07	0.00
381.26	0.00
381.46	0.00
381.65	7.02
381.85	0.00
382.04	0.00
382.24	79.58
382.43	9.36
382.63	74.90
382.83	49.15
383.02	32.77
383.22	117.03
383.41	60.85
383.61	42.13
383.80	0.00
384.00	0.00
384.19	0.00
384.39	37.45
384.58	0.00
384.78	21.06
384.97	0.00
385.17	0.00
385.36	21.06
385.56	0.00
385.75	56.17
385.95	0.00
386.14	53.83
386.34	0.00
386.53	70.22
386.72	18.72
386.92	11.70
387.11	11.70
387.31	67.88
387.50	56.17
387.70	9.36
387.89	32.77
388.09	28.09
388.28	0.00
388.48	21.06
388.67	14.04
388.86	105.32
389.06	51.49
389.25	25.75
389.45	23.41
389.64	51.49
389.84	0.00
390.03	56.17
390.22	23.41
390.42	7.02
390.61	0.00
390.81	67.88
391.00	2.34
391.19	0.00
391.39	0.00
391.58	4.68
391.78	30.43
391.97	25.75
392.16	16.38
392.36	79.58
392.55	0.00
392.75	23.41
392.94	53.83
393.13	0.00
393.33	0.00
393.52	46.81
393.71	102.98
393.91	58.51
394.10	0.00
394.29	44.47
394.49	53.83
394.68	88.94
394.88	37.45
395.07	4.68
395.26	18.72
395.46	70.22
395.65	14.04
395.84	0.00
396.04	0.00
396.23	16.38
396.42	4.68
396.62	9.36
396.81	16.38
397.00	67.88
397.19	74.90
397.39	14.04
397.58	11.70
397.77	4.68
397.97	56.17
398.16	35.11
398.35	28.09
398.55	30.43
398.74	56.17
398.93	0.00
399.12	46.81
399.32	0.00
399.51	25.75
399.70	0.00
399.90	14.04
400.09	37.45
400.28	39.79
400.47	74.90
400.67	42.13
400.86	25.75
401.05	91.28
401.24	98.30
401.44	49.15
401.63	49.15
401.82	0.00
402.01	30.43
402.21	11.70
402.40	30.43
402.59	30.43
402.78	9.36
402.97	0.00
403.17	0.00
403.36	81.92
403.55	81.92
403.74	21.06
403.93	0.00
404.13	2.34
404.32	51.49
404.51	56.17
404.70	39.79
404.89	0.00
405.09	65.54
405.28	98.30
405.47	0.00
405.66	51.49
405.85	23.41
406.05	32.77
406.24	126.39
406.43	42.13
406.62	51.49
406.81	32.77
407.00	0.00
407.20	23.41
407.39	95.96
407.58	95.96
407.77	44.47
407.96	9.36
408.15	35.11
408.34	91.28
408.54	49.15
408.73	23.41
408.92	0.00
409.11	51.49
409.30	65.54
409.49	39.79
409.68	70.22
409.87	18.72
410.07	0.00
410.26	0.00
410.45	32.77
410.64	63.19
410.83	9.36
411.02	4.68
411.21	93.62
411.40	49.15
411.59	30.43
411.78	16.38
411.98	37.45
412.17	0.00
412.36	65.54
412.55	0.00
412.74	21.06
412.93	95.96
413.12	63.19
413.31	58.51
413.50	0.00
413.69	63.19
413.88	74.90
414.07	39.79
414.26	11.70
414.45	37.45
414.64	49.15
414.83	0.00
415.02	23.41
415.22	2.34
415.41	11.70
415.60	51.49
415.79	0.00
415.98	23.41
416.17	77.24
416.36	58.51
416.55	53.83
416.74	35.11
416.93	51.49
417.12	0.00
417.31	49.15
417.50	23.41
417.69	70.22
417.88	0.00
418.07	58.51
418.26	21.06
418.45	49.15
418.64	39.79
418.83	23.41
419.02	49.15
419.21	74.90
419.39	65.54
419.58	35.11
419.77	46.81
419.96	21.06
420.15	65.54
420.34	0.00
420.53	117.03
420.72	9.36
420.91	81.92
421.10	37.45
421.29	32.77
421.48	107.66
421.67	117.03
421.86	114.69
422.05	42.13
422.24	42.13
422.43	0.00
422.61	0.00
422.80	32.77
422.99	105.32
423.18	51.49
423.37	2.34
423.56	91.28
423.75	9.36
423.94	25.75
424.13	0.00
424.32	30.43
424.50	91.28
424.69	28.09
424.88	39.79
425.07	18.72
425.26	0.00
425.45	0.00
425.64	16.38
425.83	9.36
426.01	58.51
426.20	91.28
426.39	65.54
426.58	74.90
426.77	25.75
426.96	16.38
427.15	65.54
427.33	147.45
427.52	77.24
427.71	0.00
427.90	21.06
428.09	110.01
428.28	51.49
428.46	21.06
428.65	0.00
428.84	88.94
429.03	14.04
429.22	74.90
429.40	77.24
429.59	0.00
429.78	11.70
429.97	56.17
430.16	35.11
430.34	9.36
430.53	51.49
430.72	53.83
430.91	46.81
431.10	16.38
431.28	72.56
431.47	32.77
431.66	23.41
431.85	128.73
432.03	60.85
432.22	67.88
432.41	102.98
432.60	84.26
432.79	53.83
432.97	70.22
433.16	32.77
433.35	37.45
433.54	11.70
433.72	86.60
433.91	28.09
434.10	77.24
434.28	46.81
434.47	79.58
434.66	63.19
434.85	9.36
435.03	7.02
435.22	4.68
435.41	30.43
435.59	56.17
435.78	105.32
435.97	63.19
436.16	7.02
436.34	86.60
436.53	30.43
436.72	84.26
436.90	4.68
437.09	39.79
437.28	49.15
437.46	0.00
437.65	2.34
437.84	16.38
438.02	37.45
438.21	0.00
438.40	0.00
438.58	0.00
438.77	58.51
438.96	86.60
439.14	53.83
439.33	35.11
439.52	67.88
439.70	86.60
439.89	93.62
440.08	35.11
440.26	42.13
440.45	67.88
440.63	98.30
440.82	84.26
441.01	67.88
441.19	88.94
441.38	46.81
441.57	21.06
441.75	53.83
441.94	0.00
442.12	112.35
442.31	58.51
442.50	100.64
442.68	70.22
442.87	63.19
443.05	53.83
443.24	65.54
443.43	72.56
443.61	65.54
443.80	79.58
443.98	51.49
444.17	18.72
444.35	49.15
444.54	4.68
444.73	44.47
444.91	67.88
445.10	39.79
445.28	14.04
445.47	51.49
445.65	102.98
445.84	32.77
446.02	37.45
446.21	44.47
446.39	21.06
446.58	0.00
446.77	56.17
446.95	30.43
447.14	9.36
447.32	39.79
447.51	88.94
447.69	81.92
447.88	107.66
448.06	0.00
448.25	58.51
448.43	56.17
448.62	65.54
448.80	16.38
448.99	74.90
449.17	107.66
449.36	21.06
449.54	23.41
449.73	23.41
449.91	7.02
450.10	49.15
450.28	25.75
450.46	37.45
450.65	72.56
450.83	44.47
451.02	4.68
451.20	65.54
451.39	0.00
451.57	35.11
451.76	30.43
451.94	93.62
452.13	56.17
452.31	39.79
452.49	0.00
452.68	21.06
452.86	58.51
453.05	117.03
453.23	51.49
453.42	16.38
453.60	37.45
453.78	74.90
453.97	91.28
454.15	23.41
454.34	37.45
454.52	79.58
454.70	79.58
454.89	56.17
455.07	119.37
455.26	74.90
455.44	93.62
455.62	72.56
455.81	11.70
455.99	18.72
456.17	39.79
456.36	88.94
456.54	70.22
456.73	46.81
456.91	25.75
457.09	4.68
457.28	18.72
457.46	67.88
457.64	67.88
457.83	46.81
458.01	70.22
458.19	37.45
458.38	72.56
458.56	81.92
458.74	79.58
458.93	23.41
459.11	14.04
459.29	30.43
459.48	49.15
459.66	35.11
459.84	35.11
460.03	60.85
460.21	112.35
460.39	98.30
460.57	16.38
460.76	21.06
460.94	72.56
461.12	39.79
461.31	44.47
461.49	70.22
461.67	18.72
461.85	81.92
462.04	30.43
462.22	56.17
462.40	79.58
462.59	51.49
462.77	18.72
462.95	56.17
463.13	35.11
463.32	110.01
463.50	21.06
463.68	37.45
463.86	117.03
464.05	21.06
464.23	93.62
464.41	0.00
464.59	42.13
464.78	117.03
464.96	77.24
465.14	138.09
465.32	18.72
465.50	14.04
465.69	74.90
465.87	35.11
466.05	14.04
466.23	65.54
466.41	0.00
466.60	0.00
466.78	0.00
466.96	72.56
467.14	0.00
467.32	131.07
467.51	51.49
467.69	42.13
467.87	152.13
468.05	84.26
468.23	70.22
468.41	35.11
468.60	32.77
468.78	84.26
468.96	65.54
469.14	18.72
469.32	35.11
469.50	77.24
469.69	81.92
469.87	25.75
470.05	72.56
470.23	53.83
470.41	21.06
470.59	135.75
470.77	79.58
470.95	98.30
471.14	114.69
471.32	65.54
471.50	77.24
471.68	16.38
471.86	105.32
472.04	35.11
472.22	7.02
472.40	0.00
472.58	49.15
472.77	128.73
472.95	60.85
473.13	63.19
473.31	65.54
473.49	67.88
473.67	51.49
473.85	95.96
474.03	18.72
474.21	35.11
474.39	42.13
474.57	51.49
474.75	28.09
474.93	37.45
475.12	100.64
475.30	88.94
475.48	70.22
475.66	105.32
475.84	72.56
476.02	37.45
476.20	95.96
476.38	35.11
476.56	16.38
476.74	25.75
476.92	102.98
477.10	140.43
477.28	72.56
477.46	16.38
477.64	7.02
477.82	79.58
478.00	30.43
478.18	72.56
478.36	32.77
478.54	53.83
478.72	114.69
478.90	16.38
479.08	0.00
479.26	60.85
479.44	42.13
479.62	0.00
479.80	4.68
479.98	121.71
480.16	60.85
480.34	44.47
480.52	56.17
480.70	60.85
480.88	25.75
481.06	81.92
481.24	25.75
481.41	0.00
481.59	63.19
481.77	46.81
481.95	0.00
482.13	79.58
482.31	110.01
482.49	63.19
482.67	53.83
482.85	32.77
483.03	18.72
483.21	65.54
483.39	46.81
483.57	79.58
483.74	42.13
483.92	49.15
484.10	2.34
484.28	95.96
484.46	105.32
484.64	126.39
484.82	77.24
485.00	0.00
485.18	56.17
485.35	32.77
485.53	67.88
485.71	98.30
485.89	0.00
486.07	16.38
486.25	86.60
486.43	9.36
486.61	67.88
486.78	53.83
486.96	18.72
487.14	65.54
487.32	18.72
487.50	14.04
487.68	86.60
487.85	107.66
488.03	105.32
488.21	72.56
488.39	98.30
488.57	84.26
488.75	72.56
488.92	42.13
489.10	110.01
489.28	49.15
489.46	23.41
489.64	58.51
489.81	93.62
489.99	84.26
490.17	0.00
490.35	67.88
490.53	88.94
490.70	100.64
490.88	42.13
491.06	16.38
491.24	79.58
491.41	110.01
491.59	142.77
491.77	70.22
491.95	117.03
492.13	58.51
492.30	102.98
492.48	95.96
492.66	95.96
492.84	51.49
493.01	74.90
493.19	72.56
493.37	149.79
493.54	70.22
493.72	46.81
493.90	60.85
494.08	63.19
494.25	65.54
494.43	51.49
494.61	105.32
494.79	93.62
494.96	133.41
495.14	110.01
495.32	37.45
495.49	25.75
495.67	49.15
495.85	140.43
496.02	86.60
496.20	67.88
496.38	74.90
496.55	107.66
496.73	63.19
496.91	149.79
497.09	81.92
497.26	133.41
497.44	9.36
497.62	23.41
497.79	58.51
497.97	53.83
498.14	119.37
498.32	67.88
498.50	114.69
498.67	70.22
498.85	60.85
499.03	84.26
499.20	37.45
499.38	79.58
499.56	100.64
499.73	121.71
499.91	77.24
500.08	142.77
500.26	84.26
500.44	98.30
500.61	88.94
500.79	70.22
500.97	39.79
501.14	98.30
501.32	77.24
501.49	100.64
501.67	53.83
501.84	159.16
502.02	9.36
502.20	131.07
502.37	44.47
502.55	72.56
502.72	77.24
502.90	98.30
503.07	77.24
503.25	37.45
503.43	105.32
503.60	110.01
503.78	72.56
503.95	25.75
504.13	100.64
504.30	70.22
504.48	28.09
504.65	67.88
504.83	35.11
505.01	86.60
505.18	44.47
505.36	119.37
505.53	105.32
505.71	37.45
505.88	7.02
506.06	100.64
506.23	84.26
506.41	51.49
506.58	67.88
506.76	35.11
506.93	79.58
507.11	56.17
507.28	102.98
507.46	107.66
507.63	102.98
507.81	0.00
507.98	154.48
508.16	100.64
508.33	28.09
508.50	100.64
508.68	58.51
508.85	67.88
509.03	88.94
509.20	77.24
509.38	86.60
509.55	42.13
509.73	86.60
509.90	46.81
510.08	124.05
510.25	124.05
510.42	84.26
510.60	79.58
510.77	117.03
510.95	102.98
511.12	72.56
511.30	88.94
511.47	16.38
511.64	0.00
511.82	74.90
511.99	110.01
512.17	147.45
512.34	138.09
512.51	156.82
512.69	79.58
512.86	81.92
513.04	37.45
513.21	70.22
513.38	112.35
513.56	70.22
513.73	30.43
513.90	117.03
514.08	86.60
514.25	35.11
514.43	88.94
514.60	60.85
514.77	49.15
514.95	53.83
515.12	145.11
515.29	77.24
515.47	67.88
515.64	51.49
515.81	98.30
515.99	70.22
516.16	37.45
516.33	102.98
516.51	117.03
516.68	138.09
516.85	131.07
517.03	32.77
517.20	117.03
517.37	117.03
517.54	95.96
517.72	105.32
517.89	44.47
518.06	138.09
518.24	0.00
518.41	156.82
518.58	161.50
518.75	25.75
518.93	100.64
519.10	70.22
519.27	86.60
519.45	86.60
519.62	81.92
519.79	88.94
519.96	166.18
520.14	77.24
520.31	32.77
520.48	42.13
520.65	63.19
520.83	79.58
521.00	42.13
521.17	88.94
521.34	81.92
521.52	77.24
521.69	81.92
521.86	131.07
522.03	110.01
522.20	46.81
522.38	35.11
522.55	30.43
522.72	91.28
522.89	46.81
523.07	149.79
523.24	60.85
523.41	35.11
523.58	32.77
523.75	91.28
523.92	138.09
524.10	98.30
524.27	98.30
524.44	121.71
524.61	128.73
524.78	88.94
524.96	46.81
525.13	81.92
525.30	70.22
525.47	88.94
525.64	81.92
525.81	67.88
525.98	74.90
526.16	110.01
526.33	74.90
526.50	21.06
526.67	147.45
526.84	102.98
527.01	107.66
527.18	105.32
527.36	51.49
527.53	74.90
527.70	98.30
527.87	46.81
528.04	70.22
528.21	65.54
528.38	124.05
528.55	128.73
528.72	98.30
528.89	37.45
529.07	32.77
529.24	93.62
529.41	131.07
529.58	93.62
529.75	95.96
529.92	67.88
530.09	25.75
530.26	119.37
530.43	159.16
530.60	74.90
530.77	102.98
530.94	65.54
531.11	37.45
531.28	117.03
531.46	51.49
531.63	49.15
531.80	60.85
531.97	25.75
532.14	133.41
532.31	49.15
532.48	88.94
532.65	37.45
532.82	84.26
532.99	4.68
533.16	124.05
533.33	60.85
533.50	93.62
533.67	44.47
533.84	77.24
534.01	105.32
534.18	58.51
534.35	72.56
534.52	70.22
534.69	105.32
534.86	100.64
535.03	81.92
535.20	131.07
535.37	49.15
535.54	67.88
535.71	77.24
535.88	124.05
536.05	84.26
536.22	32.77
536.38	121.71
536.55	138.09
536.72	93.62
536.89	86.60
537.06	77.24
537.23	23.41
537.40	7.02
537.57	11.70
537.74	72.56
537.91	65.54
538.08	110.01
538.25	53.83
538.42	49.15
538.59	58.51
538.75	156.82
538.92	88.94
539.09	23.41
539.26	91.28
539.43	102.98
539.60	42.13
539.77	46.81
539.94	56.17
540.11	53.83
540.28	124.05
540.44	81.92
540.61	79.58
540.78	84.26
540.95	35.11
541.12	124.05
541.29	95.96
541.46	84.26
541.62	70.22
541.79	74.90
541.96	70.22
542.13	166.18
542.30	128.73
542.47	93.62
542.63	117.03
542.80	16.38
542.97	149.79
543.14	65.54
543.31	51.49
543.48	79.58
543.64	140.43
543.81	107.66
543.98	39.79
544.15	9.36
544.32	112.35
544.48	102.98
544.65	60.85
544.82	102.98
544.99	39.79
545.16	35.11
545.32	95.96
545.49	30.43
545.66	114.69
545.83	63.19
546.00	105.32
546.16	126.39
546.33	72.56
546.50	18.72
546.67	91.28
546.83	77.24
547.00	49.15
547.17	145.11
547.34	88.94
547.50	81.92
547.67	67.88
547.84	28.09
548.00	84.26
548.17	142.77
548.34	93.62
548.51	39.79
548.67	107.66
548.84	112.35
549.01	91.28
549.18	166.18
549.34	72.56
549.51	63.19
549.68	42.13
549.84	51.49
550.01	25.75
550.18	86.60
550.34	0.00
550.51	140.43
550.68	93.62
550.84	110.01
551.01	102.98
551.18	81.92
551.34	0.00
551.51	126.39
551.68	100.64
551.84	93.62
552.01	93.62
552.18	81.92
552.34	86.60
552.51	147.45
552.68	124.05
552.84	131.07
553.01	72.56
553.18	147.45
553.34	119.37
553.51	140.43
553.67	105.32
553.84	112.35
554.01	49.15
554.17	42.13
554.34	56.17
554.51	70.22
554.67	65.54
554.84	79.58
555.00	42.13
555.17	88.94
555.33	88.94
555.50	142.77
555.67	14.04
555.83	91.28
556.00	53.83
556.16	112.35
556.33	70.22
556.50	93.62
556.66	156.82
556.83	70.22
556.99	86.60
557.16	102.98
557.32	14.04
557.49	51.49
557.65	46.81
557.82	86.60
557.98	81.92
558.15	110.01
558.32	63.19
558.48	23.41
558.65	37.45
558.81	53.83
558.98	79.58
559.14	91.28
559.31	81.92
559.47	84.26
559.64	67.88
559.80	70.22
559.97	117.03
560.13	117.03
560.30	37.45
560.46	86.60
560.63	154.48
560.79	100.64
560.96	110.01
561.12	100.64
561.29	49.15
561.45	152.13
561.61	133.41
561.78	63.19
561.94	65.54
562.11	88.94
562.27	60.85
562.44	70.22
562.60	74.90
562.77	98.30
562.93	9.36
563.10	28.09
563.26	49.15
563.42	98.30
563.59	70.22
563.75	93.62
563.92	46.81
564.08	39.79
564.24	72.56
564.41	88.94
564.57	0.00
564.74	135.75
564.90	95.96
565.07	133.41
565.23	74.90
565.39	72.56
565.56	114.69
565.72	53.83
565.88	70.22
566.05	152.13
566.21	91.28
566.38	77.24
566.54	135.75
566.70	28.09
566.87	7.02
567.03	133.41
567.19	35.11
567.36	67.88
567.52	35.11
567.68	28.09
567.85	161.50
568.01	102.98
568.17	25.75
568.34	53.83
568.50	46.81
568.66	112.35
568.83	65.54
568.99	102.98
569.15	152.13
569.32	121.71
569.48	86.60
569.64	105.32
569.81	67.88
569.97	32.77
570.13	107.66
570.30	84.26
570.46	81.92
570.62	60.85
570.78	88.94
570.95	32.77
571.11	44.47
571.27	21.06
571.43	107.66
571.60	74.90
571.76	56.17
571.92	91.28
572.09	133.41
572.25	79.58
572.41	133.41
572.57	95.96
572.74	42.13
572.90	166.18
573.06	86.60
573.22	65.54
573.38	138.09
573.55	46.81
573.71	79.58
573.87	114.69
574.03	84.26
574.20	14.04
574.36	88.94
574.52	70.22
574.68	121.71
574.84	0.00
575.01	72.56
575.17	46.81
575.33	79.58
575.49	37.45
575.65	16.38
575.82	72.56
575.98	84.26
576.14	35.11
576.30	105.32
576.46	21.06
576.62	112.35
576.79	65.54
576.95	102.98
577.11	60.85
577.27	51.49
577.43	74.90
577.59	79.58
577.75	119.37
577.92	72.56
578.08	67.88
578.24	105.32
578.40	51.49
578.56	0.00
578.72	49.15
578.88	105.32
579.04	124.05
579.21	117.03
579.37	77.24
579.53	70.22
579.69	79.58
579.85	14.04
580.01	14.04
580.17	53.83
580.33	86.60
580.49	93.62
580.65	21.06
580.82	46.81
580.98	49.15
581.14	28.09
581.30	100.64
581.46	95.96
581.62	4.68
581.78	0.00
581.94	93.62
582.10	102.98
582.26	133.41
582.42	0.00
582.58	53.83
582.74	0.00
582.90	117.03
583.06	44.47
583.22	86.60
583.38	98.30
583.54	72.56
583.70	67.88
583.86	128.73
584.02	93.62
584.18	117.03
584.34	93.62
584.50	110.01
584.66	25.75
584.82	16.38
584.98	86.60
585.14	63.19
585.30	37.45
585.46	46.81
585.62	91.28
585.78	7.02
585.94	60.85
586.10	88.94
586.26	37.45
586.42	53.83
586.58	46.81
586.74	72.56
586.90	133.41
587.06	79.58
587.22	107.66
587.38	121.71
587.54	102.98
587.70	84.26
587.86	98.30
588.02	0.00
588.18	133.41
588.34	114.69
588.49	16.38
588.65	124.05
588.81	84.26
588.97	86.60
589.13	58.51
589.29	70.22
589.45	95.96
589.61	44.47
589.77	39.79
589.93	147.45
590.08	107.66
590.24	98.30
590.40	18.72
590.56	56.17
590.72	112.35
590.88	53.83
591.04	65.54
591.20	37.45
591.35	114.69
591.51	84.26
591.67	0.00
591.83	84.26
591.99	86.60
592.15	18.72
592.31	124.05
592.46	67.88
592.62	70.22
592.78	60.85
592.94	88.94
593.10	58.51
593.26	86.60
593.41	107.66
593.57	105.32
593.73	86.60
593.89	77.24
594.05	105.32
594.20	39.79
594.36	105.32
594.52	79.58
594.68	58.51
594.84	49.15
594.99	102.98
595.15	121.71
595.31	65.54
595.47	74.90
595.62	67.88
595.78	74.90
595.94	145.11
596.10	23.41
596.25	93.62
596.41	117.03
596.57	65.54
596.73	70.22
596.88	39.79
597.04	51.49
597.20	93.62
597.36	65.54
597.51	102.98
597.67	11.70
597.83	149.79
597.99	117.03
598.14	131.07
598.30	32.77
598.46	60.85
598.61	102.98
598.77	46.81
598.93	35.11
599.09	119.37
599.24	91.28
599.40	39.79
599.56	28.09
599.71	74.90
599.87	11.70
600.03	72.56
600.18	63.19
600.34	98.30
600.50	81.92
600.65	79.58
600.81	79.58
600.97	42.13
601.12	86.60
601.28	23.41
601.44	142.77
601.59	44.47
601.75	74.90
601.91	56.17
602.06	81.92
602.22	133.41
602.37	152.13
602.53	63.19
602.69	110.01
602.84	44.47
603.00	67.88
603.16	65.54
603.31	72.56
603.47	0.00
603.62	16.38
603.78	79.58
603.94	79.58
604.09	67.88
604.25	93.62
604.40	30.43
604.56	102.98
604.71	46.81
604.87	58.51
605.03	25.75
605.18	65.54
605.34	117.03
605.49	107.66
605.65	110.01
605.80	86.60
605.96	114.69
606.12	163.84
606.27	0.00
606.43	0.00
606.58	100.64
606.74	98.30
606.89	53.83
607.05	147.45
607.20	135.75
607.36	100.64
607.51	88.94
607.67	84.26
607.82	42.13
607.98	138.09
608.13	63.19
608.29	79.58
608.44	77.24
608.60	91.28
608.75	74.90
608.91	28.09
609.06	72.56
609.22	95.96
609.37	112.35
609.53	107.66
609.68	53.83
609.84	98.30
609.99	84.26
610.15	72.56
610.30	51.49
610.46	77.24
610.61	84.26
610.76	110.01
610.92	88.94
611.07	37.45
611.23	107.66
611.38	42.13
611.54	35.11
611.69	9.36
611.84	63.19
612.00	56.17
612.15	124.05
612.31	91.28
612.46	42.13
612.62	56.17
612.77	91.28
612.92	112.35
613.08	56.17
613.23	107.66
613.39	86.60
613.54	110.01
613.69	46.81
613.85	63.19
614.00	79.58
614.15	74.90
614.31	56.17
614.46	65.54
614.62	30.43
614.77	60.85
614.92	7.02
615.08	28.09
615.23	72.56
615.38	58.51
615.54	74.90
615.69	21.06
615.84	39.79
616.00	93.62
616.15	51.49
616.30	121.71
616.46	60.85
616.61	0.00
616.76	0.00
616.92	88.94
617.07	53.83
617.22	72.56
617.37	70.22
617.53	131.07
617.68	39.79
617.83	161.50
617.99	102.98
618.14	88.94
618.29	49.15
618.45	51.49
618.60	86.60
618.75	11.70
618.90	53.83
619.06	170.86
619.21	98.30
619.36	74.90
619.51	58.51
619.67	95.96
619.82	72.56
619.97	72.56
620.12	0.00
620.28	72.56
620.43	67.88
620.58	95.96
620.73	58.51
620.89	9.36
621.04	93.62
621.19	65.54
621.34	81.92
621.49	105.32
621.65	117.03
621.80	0.00
621.95	25.75
622.10	49.15
622.25	70.22
622.41	49.15
622.56	2.34
622.71	128.73
622.86	107.66
623.01	98.30
623.16	98.30
623.32	60.85
623.47	72.56
623.62	9.36
623.77	63.19
623.92	39.79
624.07	81.92
624.23	0.00
624.38	84.26
624.53	79.58
624.68	95.96
624.83	35.11
624.98	74.90
625.13	37.45
625.29	84.26
625.44	91.28
625.59	107.66
625.74	14.04
625.89	2.34
626.04	117.03
626.19	67.88
626.34	39.79
626.49	84.26
626.65	56.17
626.80	58.51
626.95	37.45
627.10	60.85
627.25	51.49
627.40	51.49
627.55	72.56
627.70	70.22
627.85	21.06
628.00	49.15
628.15	65.54
628.30	95.96
628.45	95.96
628.60	60.85
628.76	154.48
628.91	35.11
629.06	56.17
629.21	53.83
629.36	49.15
629.51	44.47
629.66	70.22
629.81	91.28
629.96	70.22
630.11	4.68
630.26	72.56
630.41	93.62
630.56	100.64
630.71	81.92
630.86	14.04
631.01	93.62
631.16	119.37
631.31	128.73
631.46	30.43
631.61	46.81
631.76	105.32
631.91	93.62
632.06	65.54
632.21	74.90
632.36	11.70
632.51	51.49
632.66	25.75
632.81	60.85
632.96	72.56
633.10	112.35
633.25	44.47
633.40	58.51
633.55	107.66
633.70	65.54
633.85	79.58
634.00	84.26
634.15	58.51
634.30	77.24
634.45	44.47
634.60	18.72
634.75	30.43
634.90	53.83
635.05	0.00
635.19	37.45
635.34	74.90
635.49	107.66
635.64	77.24
635.79	107.66
635.94	9.36
636.09	91.28
636.24	63.19
636.39	0.00
636.53	42.13
636.68	81.92
636.83	16.38
636.98	107.66
637.13	95.96
637.28	105.32
637.43	93.62
637.57	4.68
637.72	93.62
637.87	63.19
638.02	65.54
638.17	114.69
638.32	60.85
638.46	70.22
638.61	25.75
638.76	74.90
638.91	14.04
639.06	0.00
639.20	32.77
639.35	102.98
639.50	0.00
639.65	74.90
639.80	110.01
639.94	63.19
640.09	46.81
640.24	46.81
640.39	117.03
640.54	79.58
640.68	25.75
640.83	0.00
640.98	58.51
641.13	25.75
641.27	81.92
641.42	65.54
641.57	135.75
641.72	67.88
641.86	77.24
642.01	39.79
642.16	46.81
642.31	81.92
642.45	74.90
642.60	65.54
642.75	112.35
642.90	35.11
643.04	135.75
643.19	112.35
643.34	117.03
643.48	2.34
643.63	49.15
643.78	70.22
643.93	9.36
644.07	0.00
644.22	98.30
644.37	74.90
644.51	60.85
644.66	32.77
644.81	32.77
644.95	77.24
645.10	91.28
645.25	39.79
645.39	23.41
645.54	63.19
645.69	46.81
645.83	58.51
645.98	60.85
646.13	39.79
646.27	65.54
646.42	65.54
646.57	88.94
646.71	25.75
646.86	30.43
647.00	32.77
647.15	95.96
647.30	51.49
647.44	42.13
647.59	46.81
647.74	49.15
647.88	114.69
648.03	51.49
648.17	46.81
648.32	53.83
648.47	0.00
648.61	102.98
648.76	88.94
648.90	35.11
649.05	0.00
649.20	77.24
649.34	81.92
649.49	126.39
649.63	56.17
649.78	58.51
649.92	2.34
650.07	16.38
650.21	53.83
650.36	60.85
650.51	39.79
650.65	114.69
650.80	30.43
650.94	70.22
651.09	110.01
651.23	0.00
651.38	16.38
651.52	95.96
651.67	18.72
651.81	23.41
651.96	77.24
652.10	37.45
652.25	44.47
652.39	114.69
652.54	79.58
652.68	42.13
652.83	39.79
652.97	35.11
653.12	42.13
653.26	51.49
653.41	102.98
653.55	107.66
653.70	114.69
653.84	95.96
653.99	135.75
654.13	39.79
654.27	4.68
654.42	4.68
654.56	18.72
654.71	56.17
654.85	30.43
655.00	74.90
655.14	88.94
655.29	79.58
655.43	56.17
655.57	44.47
655.72	51.49
655.86	49.15
656.01	70.22
656.15	49.15
656.30	42.13
656.44	18.72
656.58	32.77
656.73	102.98
656.87	23.41
657.01	14.04
657.16	81.92
657.30	39.79
657.45	72.56
657.59	30.43
657.73	149.79
657.88	0.00
658.02	79.58
658.16	46.81
658.31	84.26
658.45	4.68
658.60	11.70
658.74	49.15
658.88	7.02
659.03	51.49
659.17	56.17
659.31	72.56
659.46	16.38
659.60	91.28
659.74	35.11
659.89	0.00
660.03	7.02
660.17	135.75
660.32	37.45
660.46	84.26
660.60	25.75
660.74	84.26
660.89	42.13
661.03	16.38
661.17	28.09
661.32	117.03
661.46	0.00
661.60	42.13
661.74	81.92
661.89	93.62
662.03	7.02
662.17	77.24
662.31	67.88
662.46	79.58
662.60	142.77
662.74	140.43
662.88	28.09
663.03	70.22
663.17	88.94
663.31	56.17
663.45	49.15
663.60	30.43
663.74	46.81
663.88	44.47
664.02	0.00
664.17	39.79
664.31	0.00
664.45	65.54
664.59	67.88
664.73	42.13
664.88	32.77
665.02	65.54
665.16	86.60
665.30	63.19
665.44	32.77
665.59	60.85
665.73	65.54
665.87	35.11
666.01	37.45
666.15	0.00
666.29	14.04
666.44	35.11
666.58	56.17
666.72	25.75
666.86	95.96
667.00	30.43
667.14	77.24
667.28	18.72
667.43	0.00
667.57	51.49
667.71	72.56
667.85	74.90
667.99	37.45
668.13	84.26
668.27	105.32
668.41	79.58
668.56	28.09
668.70	42.13
668.84	23.41
668.98	126.39
669.12	35.11
669.26	0.00
669.40	112.35
669.54	49.15
669.68	0.00
669.82	0.00
669.96	105.32
670.10	42.13
670.25	2.34
670.39	77.24
670.53	0.00
670.67	9.36
670.81	23.41
670.95	14.04
671.09	25.75
671.23	70.22
671.37	84.26
671.51	37.45
671.65	67.88
671.79	35.11
671.93	37.45
672.07	112.35
672.21	86.60
672.35	9.36
672.49	0.00
672.63	93.62
672.77	100.64
672.91	42.13
673.05	49.15
673.19	4.68
673.33	44.47
673.47	0.00
673.61	70.22
673.75	79.58
673.89	102.98
674.03	88.94
674.17	112.35
674.31	18.72
674.45	0.00
674.59	84.26
674.73	63.19
674.87	102.98
675.01	35.11
675.15	35.11
675.29	0.00
675.43	9.36
675.56	42.13
675.70	30.43
675.84	0.00
675.98	74.90
676.12	28.09
676.26	21.06
676.40	28.09
676.54	95.96
676.68	49.15
676.82	93.62
676.96	72.56
677.10	133.41
677.23	25.75
677.37	56.17
677.51	16.38
677.65	81.92
677.79	72.56
677.93	23.41
678.07	4.68
678.21	100.64
678.34	84.26
678.48	21.06
678.62	16.38
678.76	32.77
678.90	28.09
679.04	70.22
679.18	39.79
679.31	23.41
679.45	44.47
679.59	112.35
679.73	70.22
679.87	49.15
680.00	4.68
680.14	0.00
680.28	18.72
680.42	0.00
680.56	23.41
680.70	35.11
680.83	98.30
680.97	28.09
681.11	2.34
681.25	67.88
681.39	42.13
681.52	100.64
681.66	93.62
681.80	51.49
681.94	0.00
682.07	0.00
682.21	86.60
682.35	2.34
682.49	60.85
682.62	93.62
682.76	51.49
682.90	102.98
683.04	4.68
683.17	58.51
683.31	30.43
683.45	72.56
683.59	110.01
683.72	35.11
683.86	0.00
684.00	117.03
684.13	28.09
684.27	35.11
684.41	79.58
684.55	35.11
684.68	18.72
684.82	0.00
684.96	65.54
685.09	110.01
685.23	2.34
685.37	58.51
685.50	16.38
685.64	44.47
685.78	79.58
685.91	112.35
686.05	79.58
686.19	0.00
686.32	65.54
686.46	44.47
686.60	7.02
686.73	72.56
686.87	11.70
687.01	9.36
687.14	18.72
687.28	11.70
687.42	79.58
687.55	86.60
687.69	0.00
687.82	63.19
687.96	39.79
688.10	0.00
688.23	72.56
688.37	56.17
688.50	9.36
688.64	138.09
688.78	119.37
688.91	72.56
689.05	0.00
689.18	58.51
689.32	46.81
689.46	25.75
689.59	44.47
689.73	102.98
689.86	0.00
690.00	35.11
690.13	102.98
690.27	11.70
690.41	28.09
690.54	49.15
690.68	51.49
690.81	11.70
690.95	23.41
691.08	58.51
691.22	67.88
691.35	88.94
691.49	51.49
691.62	74.90
691.76	56.17
691.89	81.92
692.03	21.06
692.16	58.51
692.30	4.68
692.43	16.38
692.57	117.03
692.70	30.43
692.84	9.36
692.97	91.28
693.11	51.49
693.24	147.45
693.38	23.41
693.51	0.00
693.65	25.75
693.78	91.28
693.92	0.00
694.05	46.81
694.19	58.51
694.32	28.09
694.45	0.00
694.59	37.45
694.72	0.00
694.86	16.38
694.99	0.00
695.13	0.00
695.26	91.28
695.39	95.96
695.53	56.17
695.66	30.43
695.80	79.58
695.93	72.56
696.07	49.15
696.20	53.83
696.33	11.70
696.47	0.00
696.60	7.02
696.73	0.00
696.87	84.26
697.00	58.51
697.14	91.28
697.27	0.00
697.40	18.72
697.54	0.00
697.67	0.00
697.80	0.00
697.94	0.00
698.07	23.41
698.21	53.83
698.34	2.34
698.47	63.19
698.61	0.00
698.74	39.79
698.87	88.94
699.01	35.11
699.14	0.00
699.27	18.72
699.40	23.41
699.54	56.17
699.67	2.34
699.80	86.60
699.94	30.43
700.07	23.41
700.20	44.47
700.34	35.11
700.47	56.17
700.60	35.11
700.73	16.38
700.87	128.73
701.00	42.13
701.13	86.60
701.26	35.11
701.40	21.06
701.53	32.77
701.66	56.17
701.79	60.85
701.93	39.79
702.06	30.43
702.19	46.81
702.32	60.85
702.46	46.81
702.59	2.34
702.72	42.13
702.85	51.49
702.99	67.88
703.12	35.11
703.25	133.41
703.38	25.75
703.51	102.98
703.65	39.79
703.78	16.38
703.91	0.00
704.04	49.15
704.17	74.90
704.31	63.19
704.44	58.51
704.57	0.00
704.70	7.02
704.83	25.75
704.96	74.90
705.10	14.04
705.23	30.43
>>>>>End Processed Spectral Data<<<<<
