SpectraSuite Data File
++++++++++++++++++++++++++++++++++++
Date: Fri Oct 04 12:13:25 GMT-05:00 2013
User: price-jones
Dark Spectrum Present: No
Reference Spectrum Present: No
Number of Sampled Component Spectra: 1
Spectrometers: USB2+H05261
Integration Time (usec): 10000 (USB2+H05261)
Spectra Averaged: 1 (USB2+H05261)
Boxcar Smoothing: 0 (USB2+H05261)
Correct for Electrical Dark: No (USB2+H05261)
Strobe/Lamp Enabled: No (USB2+H05261)
Correct for Detector Non-linearity: No (USB2+H05261)
Correct for Stray Light: No (USB2+H05261)
Number of Pixels in Processed Spectrum: 2048
>>>>>Begin Processed Spectral Data<<<<<
365.73	72.56
365.92	72.56
366.12	72.56
366.32	0.00
366.52	0.00
366.72	0.00
366.91	0.00
367.11	0.00
367.31	0.00
367.51	0.00
367.70	0.00
367.90	0.00
368.10	0.00
368.30	0.00
368.49	0.00
368.69	0.00
368.89	0.00
369.09	0.00
369.28	0.00
369.48	0.00
369.68	0.00
369.87	0.00
370.07	0.00
370.27	0.00
370.47	0.00
370.66	0.00
370.86	0.00
371.06	0.00
371.25	0.00
371.45	0.00
371.65	0.00
371.84	16.38
372.04	0.00
372.24	0.00
372.44	51.49
372.63	0.00
372.83	0.00
373.03	0.00
373.22	79.58
373.42	9.36
373.62	39.79
373.81	44.47
374.01	53.83
374.21	56.17
374.40	63.19
374.60	49.15
374.79	60.85
374.99	7.02
375.19	56.17
375.38	77.24
375.58	7.02
375.78	79.58
375.97	53.83
376.17	16.38
376.37	35.11
376.56	67.88
376.76	0.00
376.95	0.00
377.15	77.24
377.35	0.00
377.54	28.09
377.74	23.41
377.93	0.00
378.13	37.45
378.33	14.04
378.52	4.68
378.72	16.38
378.91	14.04
379.11	0.00
379.31	7.02
379.50	0.00
379.70	65.54
379.89	56.17
380.09	86.60
380.28	0.00
380.48	74.90
380.68	0.00
380.87	60.85
381.07	65.54
381.26	37.45
381.46	18.72
381.65	37.45
381.85	0.00
382.04	79.58
382.24	49.15
382.43	70.22
382.63	49.15
382.83	23.41
383.02	0.00
383.22	86.60
383.41	21.06
383.61	25.75
383.80	18.72
384.00	18.72
384.19	30.43
384.39	18.72
384.58	65.54
384.78	114.69
384.97	9.36
385.17	65.54
385.36	14.04
385.56	0.00
385.75	11.70
385.95	37.45
386.14	9.36
386.34	32.77
386.53	42.13
386.72	39.79
386.92	49.15
387.11	4.68
387.31	37.45
387.50	0.00
387.70	11.70
387.89	35.11
388.09	0.00
388.28	2.34
388.48	133.41
388.67	25.75
388.86	0.00
389.06	0.00
389.25	72.56
389.45	56.17
389.64	0.00
389.84	35.11
390.03	4.68
390.22	0.00
390.42	2.34
390.61	39.79
390.81	25.75
391.00	0.00
391.19	9.36
391.39	0.00
391.58	0.00
391.78	46.81
391.97	9.36
392.16	72.56
392.36	46.81
392.55	44.47
392.75	0.00
392.94	21.06
393.13	42.13
393.33	14.04
393.52	53.83
393.71	9.36
393.91	56.17
394.10	0.00
394.29	58.51
394.49	0.00
394.68	25.75
394.88	44.47
395.07	0.00
395.26	67.88
395.46	7.02
395.65	2.34
395.84	7.02
396.04	46.81
396.23	16.38
396.42	93.62
396.62	42.13
396.81	70.22
397.00	35.11
397.19	30.43
397.39	126.39
397.58	0.00
397.77	9.36
397.97	0.00
398.16	0.00
398.35	84.26
398.55	0.00
398.74	0.00
398.93	9.36
399.12	30.43
399.32	58.51
399.51	84.26
399.70	93.62
399.90	0.00
400.09	0.00
400.28	65.54
400.47	11.70
400.67	0.00
400.86	63.19
401.05	93.62
401.24	112.35
401.44	58.51
401.63	100.64
401.82	30.43
402.01	0.00
402.21	14.04
402.40	86.60
402.59	18.72
402.78	39.79
402.97	14.04
403.17	16.38
403.36	0.00
403.55	28.09
403.74	23.41
403.93	2.34
404.13	86.60
404.32	21.06
404.51	0.00
404.70	0.00
404.89	0.00
405.09	7.02
405.28	23.41
405.47	46.81
405.66	70.22
405.85	30.43
406.05	23.41
406.24	49.15
406.43	44.47
406.62	4.68
406.81	16.38
407.00	16.38
407.20	42.13
407.39	53.83
407.58	0.00
407.77	81.92
407.96	67.88
408.15	4.68
408.34	46.81
408.54	44.47
408.73	16.38
408.92	42.13
409.11	18.72
409.30	0.00
409.49	23.41
409.68	77.24
409.87	0.00
410.07	168.52
410.26	114.69
410.45	0.00
410.64	0.00
410.83	0.00
411.02	25.75
411.21	14.04
411.40	2.34
411.59	14.04
411.78	51.49
411.98	28.09
412.17	49.15
412.36	86.60
412.55	14.04
412.74	9.36
412.93	81.92
413.12	58.51
413.31	0.00
413.50	79.58
413.69	0.00
413.88	0.00
414.07	93.62
414.26	0.00
414.45	25.75
414.64	25.75
414.83	117.03
415.02	0.00
415.22	0.00
415.41	37.45
415.60	9.36
415.79	23.41
415.98	39.79
416.17	0.00
416.36	56.17
416.55	46.81
416.74	88.94
416.93	0.00
417.12	79.58
417.31	58.51
417.50	23.41
417.69	98.30
417.88	18.72
418.07	11.70
418.26	0.00
418.45	86.60
418.64	25.75
418.83	16.38
419.02	65.54
419.21	7.02
419.39	53.83
419.58	16.38
419.77	60.85
419.96	0.00
420.15	39.79
420.34	4.68
420.53	7.02
420.72	35.11
420.91	39.79
421.10	2.34
421.29	7.02
421.48	58.51
421.67	63.19
421.86	44.47
422.05	14.04
422.24	0.00
422.43	0.00
422.61	0.00
422.80	81.92
422.99	0.00
423.18	0.00
423.37	0.00
423.56	0.00
423.75	18.72
423.94	28.09
424.13	0.00
424.32	0.00
424.50	0.00
424.69	18.72
424.88	65.54
425.07	49.15
425.26	4.68
425.45	23.41
425.64	14.04
425.83	14.04
426.01	35.11
426.20	16.38
426.39	56.17
426.58	2.34
426.77	0.00
426.96	49.15
427.15	0.00
427.33	0.00
427.52	16.38
427.71	63.19
427.90	21.06
428.09	124.05
428.28	4.68
428.46	0.00
428.65	14.04
428.84	21.06
429.03	65.54
429.22	14.04
429.40	0.00
429.59	39.79
429.78	28.09
429.97	44.47
430.16	37.45
430.34	0.00
430.53	58.51
430.72	25.75
430.91	9.36
431.10	16.38
431.28	70.22
431.47	53.83
431.66	30.43
431.85	0.00
432.03	0.00
432.22	0.00
432.41	0.00
432.60	0.00
432.79	0.00
432.97	49.15
433.16	7.02
433.35	53.83
433.54	53.83
433.72	0.00
433.91	49.15
434.10	23.41
434.28	0.00
434.47	0.00
434.66	56.17
434.85	23.41
435.03	16.38
435.22	102.98
435.41	0.00
435.59	0.00
435.78	56.17
435.97	0.00
436.16	49.15
436.34	0.00
436.53	0.00
436.72	105.32
436.90	30.43
437.09	42.13
437.28	46.81
437.46	46.81
437.65	14.04
437.84	4.68
438.02	0.00
438.21	28.09
438.40	67.88
438.58	0.00
438.77	14.04
438.96	39.79
439.14	46.81
439.33	86.60
439.52	25.75
439.70	0.00
439.89	44.47
440.08	65.54
440.26	67.88
440.45	0.00
440.63	49.15
440.82	37.45
441.01	51.49
441.19	14.04
441.38	70.22
441.57	9.36
441.75	0.00
441.94	79.58
442.12	25.75
442.31	7.02
442.50	0.00
442.68	0.00
442.87	70.22
443.05	0.00
443.24	65.54
443.43	32.77
443.61	18.72
443.80	32.77
443.98	14.04
444.17	65.54
444.35	56.17
444.54	53.83
444.73	72.56
444.91	39.79
445.10	4.68
445.28	39.79
445.47	23.41
445.65	81.92
445.84	77.24
446.02	28.09
446.21	51.49
446.39	14.04
446.58	18.72
446.77	42.13
446.95	63.19
447.14	91.28
447.32	30.43
447.51	58.51
447.69	98.30
447.88	46.81
448.06	18.72
448.25	44.47
448.43	0.00
448.62	4.68
448.80	91.28
448.99	16.38
449.17	0.00
449.36	0.00
449.54	91.28
449.73	74.90
449.91	11.70
450.10	0.00
450.28	16.38
450.46	0.00
450.65	37.45
450.83	4.68
451.02	28.09
451.20	18.72
451.39	53.83
451.57	44.47
451.76	37.45
451.94	2.34
452.13	95.96
452.31	30.43
452.49	7.02
452.68	84.26
452.86	93.62
453.05	84.26
453.23	37.45
453.42	51.49
453.60	56.17
453.78	42.13
453.97	32.77
454.15	70.22
454.34	28.09
454.52	14.04
454.70	37.45
454.89	42.13
455.07	0.00
455.26	44.47
455.44	0.00
455.62	35.11
455.81	37.45
455.99	60.85
456.17	21.06
456.36	42.13
456.54	7.02
456.73	0.00
456.91	0.00
457.09	23.41
457.28	16.38
457.46	30.43
457.64	0.00
457.83	0.00
458.01	42.13
458.19	7.02
458.38	28.09
458.56	16.38
458.74	37.45
458.93	4.68
459.11	2.34
459.29	11.70
459.48	51.49
459.66	39.79
459.84	21.06
460.03	11.70
460.21	0.00
460.39	0.00
460.57	49.15
460.76	4.68
460.94	39.79
461.12	25.75
461.31	21.06
461.49	0.00
461.67	21.06
461.85	0.00
462.04	23.41
462.22	9.36
462.40	35.11
462.59	42.13
462.77	0.00
462.95	16.38
463.13	0.00
463.32	11.70
463.50	65.54
463.68	32.77
463.86	42.13
464.05	21.06
464.23	100.64
464.41	72.56
464.59	0.00
464.78	0.00
464.96	67.88
465.14	39.79
465.32	84.26
465.50	67.88
465.69	0.00
465.87	74.90
466.05	37.45
466.23	21.06
466.41	39.79
466.60	0.00
466.78	0.00
466.96	25.75
467.14	7.02
467.32	11.70
467.51	23.41
467.69	51.49
467.87	37.45
468.05	65.54
468.23	28.09
468.41	7.02
468.60	60.85
468.78	0.00
468.96	56.17
469.14	23.41
469.32	14.04
469.50	67.88
469.69	0.00
469.87	7.02
470.05	128.73
470.23	63.19
470.41	0.00
470.59	51.49
470.77	0.00
470.95	23.41
471.14	112.35
471.32	84.26
471.50	37.45
471.68	28.09
471.86	79.58
472.04	70.22
472.22	72.56
472.40	30.43
472.58	46.81
472.77	0.00
472.95	32.77
473.13	35.11
473.31	51.49
473.49	25.75
473.67	18.72
473.85	4.68
474.03	53.83
474.21	23.41
474.39	30.43
474.57	32.77
474.75	21.06
474.93	0.00
475.12	0.00
475.30	30.43
475.48	91.28
475.66	21.06
475.84	25.75
476.02	9.36
476.20	53.83
476.38	0.00
476.56	2.34
476.74	0.00
476.92	119.37
477.10	0.00
477.28	0.00
477.46	74.90
477.64	7.02
477.82	7.02
478.00	18.72
478.18	0.00
478.36	9.36
478.54	32.77
478.72	18.72
478.90	117.03
479.08	0.00
479.26	14.04
479.44	49.15
479.62	0.00
479.80	84.26
479.98	44.47
480.16	21.06
480.34	42.13
480.52	63.19
480.70	0.00
480.88	70.22
481.06	30.43
481.24	0.00
481.41	0.00
481.59	18.72
481.77	72.56
481.95	0.00
482.13	9.36
482.31	25.75
482.49	60.85
482.67	16.38
482.85	0.00
483.03	56.17
483.21	0.00
483.39	42.13
483.57	117.03
483.74	49.15
483.92	21.06
484.10	46.81
484.28	42.13
484.46	21.06
484.64	23.41
484.82	74.90
485.00	65.54
485.18	30.43
485.35	58.51
485.53	35.11
485.71	58.51
485.89	39.79
486.07	67.88
486.25	100.64
486.43	39.79
486.61	14.04
486.78	0.00
486.96	4.68
487.14	0.00
487.32	30.43
487.50	35.11
487.68	58.51
487.85	56.17
488.03	53.83
488.21	60.85
488.39	25.75
488.57	0.00
488.75	35.11
488.92	58.51
489.10	4.68
489.28	23.41
489.46	0.00
489.64	0.00
489.81	63.19
489.99	39.79
490.17	81.92
490.35	16.38
490.53	0.00
490.70	65.54
490.88	60.85
491.06	0.00
491.24	0.00
491.41	0.00
491.59	58.51
491.77	107.66
491.95	42.13
492.13	70.22
492.30	16.38
492.48	63.19
492.66	145.11
492.84	49.15
493.01	4.68
493.19	21.06
493.37	46.81
493.54	9.36
493.72	7.02
493.90	49.15
494.08	60.85
494.25	2.34
494.43	100.64
494.61	88.94
494.79	11.70
494.96	72.56
495.14	44.47
495.32	58.51
495.49	18.72
495.67	58.51
495.85	98.30
496.02	0.00
496.20	30.43
496.38	42.13
496.55	37.45
496.73	60.85
496.91	72.56
497.09	35.11
497.26	56.17
497.44	4.68
497.62	0.00
497.79	70.22
497.97	28.09
498.14	35.11
498.32	67.88
498.50	0.00
498.67	32.77
498.85	28.09
499.03	42.13
499.20	25.75
499.38	0.00
499.56	74.90
499.73	49.15
499.91	0.00
500.08	81.92
500.26	44.47
500.44	2.34
500.61	77.24
500.79	30.43
500.97	72.56
501.14	58.51
501.32	81.92
501.49	53.83
501.67	14.04
501.84	60.85
502.02	4.68
502.20	0.00
502.37	21.06
502.55	30.43
502.72	11.70
502.90	51.49
503.07	49.15
503.25	28.09
503.43	51.49
503.60	88.94
503.78	4.68
503.95	25.75
504.13	63.19
504.30	9.36
504.48	102.98
504.65	65.54
504.83	23.41
505.01	67.88
505.18	18.72
505.36	0.00
505.53	53.83
505.71	0.00
505.88	74.90
506.06	60.85
506.23	32.77
506.41	37.45
506.58	7.02
506.76	9.36
506.93	77.24
507.11	79.58
507.28	42.13
507.46	0.00
507.63	49.15
507.81	95.96
507.98	25.75
508.16	11.70
508.33	23.41
508.50	65.54
508.68	2.34
508.85	21.06
509.03	60.85
509.20	7.02
509.38	65.54
509.55	44.47
509.73	0.00
509.90	42.13
510.08	35.11
510.25	0.00
510.42	30.43
510.60	39.79
510.77	14.04
510.95	67.88
511.12	25.75
511.30	39.79
511.47	23.41
511.64	7.02
511.82	0.00
511.99	39.79
512.17	39.79
512.34	2.34
512.51	0.00
512.69	14.04
512.86	23.41
513.04	37.45
513.21	39.79
513.38	0.00
513.56	67.88
513.73	56.17
513.90	18.72
514.08	44.47
514.25	72.56
514.43	58.51
514.60	110.01
514.77	2.34
514.95	9.36
515.12	0.00
515.29	23.41
515.47	25.75
515.64	30.43
515.81	21.06
515.99	9.36
516.16	74.90
516.33	32.77
516.51	46.81
516.68	37.45
516.85	67.88
517.03	51.49
517.20	30.43
517.37	7.02
517.54	4.68
517.72	79.58
517.89	53.83
518.06	0.00
518.24	56.17
518.41	0.00
518.58	63.19
518.75	72.56
518.93	7.02
519.10	25.75
519.27	25.75
519.45	11.70
519.62	0.00
519.79	46.81
519.96	44.47
520.14	74.90
520.31	4.68
520.48	37.45
520.65	100.64
520.83	0.00
521.00	67.88
521.17	84.26
521.34	30.43
521.52	28.09
521.69	16.38
521.86	18.72
522.03	18.72
522.20	49.15
522.38	28.09
522.55	51.49
522.72	30.43
522.89	51.49
523.07	42.13
523.24	35.11
523.41	65.54
523.58	35.11
523.75	35.11
523.92	140.43
524.10	60.85
524.27	121.71
524.44	30.43
524.61	11.70
524.78	44.47
524.96	28.09
525.13	25.75
525.30	30.43
525.47	35.11
525.64	0.00
525.81	51.49
525.98	16.38
526.16	74.90
526.33	44.47
526.50	14.04
526.67	0.00
526.84	67.88
527.01	21.06
527.18	9.36
527.36	70.22
527.53	93.62
527.70	67.88
527.87	39.79
528.04	32.77
528.21	42.13
528.38	93.62
528.55	84.26
528.72	28.09
528.89	49.15
529.07	58.51
529.24	30.43
529.41	100.64
529.58	112.35
529.75	72.56
529.92	0.00
530.09	32.77
530.26	91.28
530.43	67.88
530.60	0.00
530.77	88.94
530.94	63.19
531.11	105.32
531.28	42.13
531.46	49.15
531.63	60.85
531.80	25.75
531.97	23.41
532.14	56.17
532.31	28.09
532.48	81.92
532.65	25.75
532.82	53.83
532.99	37.45
533.16	39.79
533.33	46.81
533.50	28.09
533.67	0.00
533.84	37.45
534.01	23.41
534.18	72.56
534.35	70.22
534.52	53.83
534.69	42.13
534.86	2.34
535.03	56.17
535.20	65.54
535.37	110.01
535.54	0.00
535.71	39.79
535.88	16.38
536.05	30.43
536.22	53.83
536.38	18.72
536.55	0.00
536.72	65.54
536.89	46.81
537.06	21.06
537.23	25.75
537.40	42.13
537.57	32.77
537.74	70.22
537.91	65.54
538.08	51.49
538.25	0.00
538.42	30.43
538.59	39.79
538.75	58.51
538.92	51.49
539.09	53.83
539.26	0.00
539.43	0.00
539.60	23.41
539.77	0.00
539.94	72.56
540.11	0.00
540.28	18.72
540.44	84.26
540.61	100.64
540.78	74.90
540.95	63.19
541.12	114.69
541.29	30.43
541.46	23.41
541.62	77.24
541.79	81.92
541.96	112.35
542.13	46.81
542.30	70.22
542.47	46.81
542.63	46.81
542.80	65.54
542.97	65.54
543.14	53.83
543.31	37.45
543.48	9.36
543.64	67.88
543.81	81.92
543.98	46.81
544.15	79.58
544.32	0.00
544.48	0.00
544.65	88.94
544.82	7.02
544.99	56.17
545.16	51.49
545.32	51.49
545.49	16.38
545.66	77.24
545.83	124.05
546.00	30.43
546.16	58.51
546.33	35.11
546.50	16.38
546.67	93.62
546.83	30.43
547.00	95.96
547.17	0.00
547.34	58.51
547.50	51.49
547.67	44.47
547.84	72.56
548.00	39.79
548.17	0.00
548.34	4.68
548.51	37.45
548.67	67.88
548.84	110.01
549.01	0.00
549.18	0.00
549.34	0.00
549.51	46.81
549.68	74.90
549.84	37.45
550.01	0.00
550.18	46.81
550.34	39.79
550.51	98.30
550.68	0.00
550.84	72.56
551.01	51.49
551.18	77.24
551.34	135.75
551.51	58.51
551.68	32.77
551.84	74.90
552.01	0.00
552.18	135.75
552.34	77.24
552.51	16.38
552.68	11.70
552.84	4.68
553.01	42.13
553.18	49.15
553.34	14.04
553.51	53.83
553.67	98.30
553.84	72.56
554.01	0.00
554.17	49.15
554.34	0.00
554.51	128.73
554.67	28.09
554.84	74.90
555.00	63.19
555.17	2.34
555.33	4.68
555.50	46.81
555.67	4.68
555.83	0.00
556.00	4.68
556.16	98.30
556.33	119.37
556.50	44.47
556.66	63.19
556.83	46.81
556.99	107.66
557.16	11.70
557.32	42.13
557.49	21.06
557.65	32.77
557.82	56.17
557.98	2.34
558.15	51.49
558.32	7.02
558.48	4.68
558.65	110.01
558.81	107.66
558.98	37.45
559.14	58.51
559.31	70.22
559.47	14.04
559.64	93.62
559.80	74.90
559.97	70.22
560.13	74.90
560.30	51.49
560.46	23.41
560.63	70.22
560.79	39.79
560.96	58.51
561.12	44.47
561.29	138.09
561.45	81.92
561.61	56.17
561.78	84.26
561.94	91.28
562.11	0.00
562.27	93.62
562.44	65.54
562.60	56.17
562.77	58.51
562.93	56.17
563.10	46.81
563.26	16.38
563.42	46.81
563.59	28.09
563.75	65.54
563.92	128.73
564.08	91.28
564.24	25.75
564.41	37.45
564.57	0.00
564.74	58.51
564.90	2.34
565.07	46.81
565.23	77.24
565.39	21.06
565.56	88.94
565.72	114.69
565.88	14.04
566.05	60.85
566.21	37.45
566.38	60.85
566.54	112.35
566.70	53.83
566.87	58.51
567.03	2.34
567.19	4.68
567.36	35.11
567.52	65.54
567.68	91.28
567.85	14.04
568.01	14.04
568.17	53.83
568.34	51.49
568.50	25.75
568.66	23.41
568.83	25.75
568.99	21.06
569.15	32.77
569.32	0.00
569.48	21.06
569.64	16.38
569.81	86.60
569.97	4.68
570.13	0.00
570.30	4.68
570.46	74.90
570.62	32.77
570.78	7.02
570.95	95.96
571.11	39.79
571.27	21.06
571.43	102.98
571.60	32.77
571.76	42.13
571.92	35.11
572.09	51.49
572.25	65.54
572.41	0.00
572.57	44.47
572.74	11.70
572.90	39.79
573.06	32.77
573.22	77.24
573.38	39.79
573.55	49.15
573.71	60.85
573.87	70.22
574.03	42.13
574.20	2.34
574.36	0.00
574.52	0.00
574.68	81.92
574.84	0.00
575.01	30.43
575.17	53.83
575.33	14.04
575.49	16.38
575.65	58.51
575.82	0.00
575.98	30.43
576.14	98.30
576.30	0.00
576.46	0.00
576.62	84.26
576.79	2.34
576.95	44.47
577.11	65.54
577.27	39.79
577.43	25.75
577.59	21.06
577.75	56.17
577.92	35.11
578.08	9.36
578.24	0.00
578.40	102.98
578.56	42.13
578.72	42.13
578.88	39.79
579.04	25.75
579.21	2.34
579.37	37.45
579.53	49.15
579.69	30.43
579.85	25.75
580.01	46.81
580.17	25.75
580.33	35.11
580.49	0.00
580.65	35.11
580.82	18.72
580.98	88.94
581.14	9.36
581.30	51.49
581.46	11.70
581.62	0.00
581.78	9.36
581.94	25.75
582.10	0.00
582.26	28.09
582.42	14.04
582.58	58.51
582.74	81.92
582.90	81.92
583.06	11.70
583.22	21.06
583.38	0.00
583.54	88.94
583.70	58.51
583.86	30.43
584.02	60.85
584.18	32.77
584.34	56.17
584.50	0.00
584.66	0.00
584.82	65.54
584.98	46.81
585.14	95.96
585.30	0.00
585.46	56.17
585.62	42.13
585.78	49.15
585.94	7.02
586.10	0.00
586.26	0.00
586.42	2.34
586.58	65.54
586.74	0.00
586.90	105.32
587.06	58.51
587.22	88.94
587.38	21.06
587.54	44.47
587.70	51.49
587.86	65.54
588.02	0.00
588.18	37.45
588.34	77.24
588.49	37.45
588.65	77.24
588.81	67.88
588.97	60.85
589.13	53.83
589.29	37.45
589.45	0.00
589.61	4.68
589.77	79.58
589.93	49.15
590.08	25.75
590.24	0.00
590.40	28.09
590.56	44.47
590.72	11.70
590.88	98.30
591.04	28.09
591.20	88.94
591.35	53.83
591.51	28.09
591.67	107.66
591.83	28.09
591.99	30.43
592.15	0.00
592.31	72.56
592.46	114.69
592.62	28.09
592.78	18.72
592.94	2.34
593.10	0.00
593.26	81.92
593.41	35.11
593.57	23.41
593.73	37.45
593.89	95.96
594.05	63.19
594.20	9.36
594.36	0.00
594.52	60.85
594.68	0.00
594.84	16.38
594.99	58.51
595.15	98.30
595.31	23.41
595.47	39.79
595.62	107.66
595.78	53.83
595.94	46.81
596.10	114.69
596.25	70.22
596.41	2.34
596.57	67.88
596.73	42.13
596.88	56.17
597.04	14.04
597.20	35.11
597.36	0.00
597.51	35.11
597.67	49.15
597.83	39.79
597.99	58.51
598.14	9.36
598.30	18.72
598.46	39.79
598.61	0.00
598.77	0.00
598.93	93.62
599.09	79.58
599.24	11.70
599.40	0.00
599.56	0.00
599.71	70.22
599.87	0.00
600.03	23.41
600.18	46.81
600.34	0.00
600.50	49.15
600.65	0.00
600.81	16.38
600.97	88.94
601.12	0.00
601.28	102.98
601.44	39.79
601.59	32.77
601.75	18.72
601.91	21.06
602.06	46.81
602.22	2.34
602.37	4.68
602.53	0.00
602.69	56.17
602.84	110.01
603.00	21.06
603.16	81.92
603.31	65.54
603.47	32.77
603.62	18.72
603.78	0.00
603.94	60.85
604.09	16.38
604.25	44.47
604.40	79.58
604.56	37.45
604.71	88.94
604.87	67.88
605.03	63.19
605.18	51.49
605.34	2.34
605.49	0.00
605.65	84.26
605.80	0.00
605.96	93.62
606.12	30.43
606.27	49.15
606.43	37.45
606.58	79.58
606.74	0.00
606.89	98.30
607.05	14.04
607.20	60.85
607.36	84.26
607.51	60.85
607.67	23.41
607.82	56.17
607.98	102.98
608.13	56.17
608.29	0.00
608.44	28.09
608.60	16.38
608.75	65.54
608.91	53.83
609.06	39.79
609.22	100.64
609.37	37.45
609.53	30.43
609.68	4.68
609.84	65.54
609.99	32.77
610.15	58.51
610.30	98.30
610.46	58.51
610.61	56.17
610.76	93.62
610.92	65.54
611.07	32.77
611.23	30.43
611.38	21.06
611.54	86.60
611.69	84.26
611.84	18.72
612.00	88.94
612.15	25.75
612.31	0.00
612.46	51.49
612.62	37.45
612.77	37.45
612.92	72.56
613.08	0.00
613.23	9.36
613.39	49.15
613.54	37.45
613.69	110.01
613.85	60.85
614.00	93.62
614.15	32.77
614.31	42.13
614.46	25.75
614.62	9.36
614.77	35.11
614.92	81.92
615.08	58.51
615.23	46.81
615.38	112.35
615.54	25.75
615.69	4.68
615.84	58.51
616.00	32.77
616.15	63.19
616.30	65.54
616.46	49.15
616.61	0.00
616.76	4.68
616.92	16.38
617.07	51.49
617.22	56.17
617.37	21.06
617.53	37.45
617.68	84.26
617.83	35.11
617.99	63.19
618.14	63.19
618.29	0.00
618.45	0.00
618.60	65.54
618.75	79.58
618.90	23.41
619.06	42.13
619.21	49.15
619.36	2.34
619.51	42.13
619.67	84.26
619.82	9.36
619.97	2.34
620.12	28.09
620.28	0.00
620.43	49.15
620.58	81.92
620.73	70.22
620.89	35.11
621.04	63.19
621.19	32.77
621.34	9.36
621.49	60.85
621.65	107.66
621.80	53.83
621.95	70.22
622.10	30.43
622.25	58.51
622.41	18.72
622.56	37.45
622.71	18.72
622.86	14.04
623.01	98.30
623.16	35.11
623.32	126.39
623.47	0.00
623.62	28.09
623.77	18.72
623.92	46.81
624.07	28.09
624.23	0.00
624.38	0.00
624.53	74.90
624.68	74.90
624.83	79.58
624.98	46.81
625.13	0.00
625.29	133.41
625.44	0.00
625.59	4.68
625.74	25.75
625.89	77.24
626.04	0.00
626.19	11.70
626.34	0.00
626.49	77.24
626.65	42.13
626.80	21.06
626.95	0.00
627.10	58.51
627.25	0.00
627.40	37.45
627.55	60.85
627.70	0.00
627.85	98.30
628.00	60.85
628.15	21.06
628.30	49.15
628.45	28.09
628.60	0.00
628.76	0.00
628.91	53.83
629.06	49.15
629.21	112.35
629.36	142.77
629.51	70.22
629.66	65.54
629.81	16.38
629.96	86.60
630.11	0.00
630.26	32.77
630.41	51.49
630.56	35.11
630.71	49.15
630.86	35.11
631.01	14.04
631.16	95.96
631.31	9.36
631.46	93.62
631.61	32.77
631.76	0.00
631.91	53.83
632.06	0.00
632.21	21.06
632.36	4.68
632.51	105.32
632.66	44.47
632.81	37.45
632.96	30.43
633.10	51.49
633.25	21.06
633.40	65.54
633.55	25.75
633.70	0.00
633.85	0.00
634.00	9.36
634.15	60.85
634.30	88.94
634.45	79.58
634.60	18.72
634.75	63.19
634.90	28.09
635.05	0.00
635.19	0.00
635.34	0.00
635.49	23.41
635.64	16.38
635.79	30.43
635.94	4.68
636.09	51.49
636.24	25.75
636.39	0.00
636.53	37.45
636.68	70.22
636.83	67.88
636.98	60.85
637.13	30.43
637.28	30.43
637.43	53.83
637.57	70.22
637.72	25.75
637.87	86.60
638.02	67.88
638.17	0.00
638.32	9.36
638.46	77.24
638.61	67.88
638.76	4.68
638.91	84.26
639.06	28.09
639.20	28.09
639.35	56.17
639.50	0.00
639.65	49.15
639.80	0.00
639.94	67.88
640.09	16.38
640.24	14.04
640.39	32.77
640.54	14.04
640.68	0.00
640.83	18.72
640.98	58.51
641.13	98.30
641.27	37.45
641.42	30.43
641.57	11.70
641.72	39.79
641.86	58.51
642.01	65.54
642.16	39.79
642.31	93.62
642.45	77.24
642.60	7.02
642.75	0.00
642.90	51.49
643.04	14.04
643.19	0.00
643.34	35.11
643.48	0.00
643.63	65.54
643.78	25.75
643.93	37.45
644.07	30.43
644.22	74.90
644.37	28.09
644.51	100.64
644.66	56.17
644.81	0.00
644.95	35.11
645.10	70.22
645.25	0.00
645.39	0.00
645.54	98.30
645.69	23.41
645.83	51.49
645.98	0.00
646.13	25.75
646.27	35.11
646.42	28.09
646.57	0.00
646.71	70.22
646.86	9.36
647.00	0.00
647.15	0.00
647.30	25.75
647.44	0.00
647.59	0.00
647.74	21.06
647.88	4.68
648.03	35.11
648.17	74.90
648.32	0.00
648.47	2.34
648.61	46.81
648.76	4.68
648.90	18.72
649.05	23.41
649.20	23.41
649.34	53.83
649.49	88.94
649.63	58.51
649.78	46.81
649.92	2.34
650.07	16.38
650.21	0.00
650.36	7.02
650.51	11.70
650.65	23.41
650.80	63.19
650.94	0.00
651.09	95.96
651.23	91.28
651.38	16.38
651.52	30.43
651.67	145.11
651.81	63.19
651.96	42.13
652.10	11.70
652.25	0.00
652.39	0.00
652.54	56.17
652.68	35.11
652.83	0.00
652.97	9.36
653.12	28.09
653.26	25.75
653.41	0.00
653.55	0.00
653.70	51.49
653.84	11.70
653.99	74.90
654.13	37.45
654.27	9.36
654.42	28.09
654.56	56.17
654.71	0.00
654.85	56.17
655.00	18.72
655.14	44.47
655.29	77.24
655.43	37.45
655.57	72.56
655.72	28.09
655.86	35.11
656.01	70.22
656.15	0.00
656.30	79.58
656.44	18.72
656.58	25.75
656.73	7.02
656.87	37.45
657.01	79.58
657.16	32.77
657.30	39.79
657.45	30.43
657.59	58.51
657.73	93.62
657.88	35.11
658.02	21.06
658.16	84.26
658.31	30.43
658.45	74.90
658.60	32.77
658.74	32.77
658.88	30.43
659.03	44.47
659.17	35.11
659.31	110.01
659.46	70.22
659.60	0.00
659.74	42.13
659.89	28.09
660.03	42.13
660.17	65.54
660.32	44.47
660.46	0.00
660.60	16.38
660.74	93.62
660.89	53.83
661.03	0.00
661.17	30.43
661.32	0.00
661.46	0.00
661.60	60.85
661.74	35.11
661.89	0.00
662.03	53.83
662.17	2.34
662.31	28.09
662.46	25.75
662.60	39.79
662.74	53.83
662.88	58.51
663.03	16.38
663.17	56.17
663.31	56.17
663.45	86.60
663.60	39.79
663.74	28.09
663.88	30.43
664.02	39.79
664.17	30.43
664.31	28.09
664.45	53.83
664.59	18.72
664.73	23.41
664.88	70.22
665.02	72.56
665.16	11.70
665.30	98.30
665.44	67.88
665.59	39.79
665.73	53.83
665.87	37.45
666.01	98.30
666.15	30.43
666.29	23.41
666.44	16.38
666.58	0.00
666.72	9.36
666.86	16.38
667.00	2.34
667.14	30.43
667.28	2.34
667.43	60.85
667.57	0.00
667.71	9.36
667.85	79.58
667.99	63.19
668.13	18.72
668.27	32.77
668.41	39.79
668.56	37.45
668.70	30.43
668.84	0.00
668.98	25.75
669.12	46.81
669.26	84.26
669.40	37.45
669.54	35.11
669.68	44.47
669.82	77.24
669.96	16.38
670.10	53.83
670.25	0.00
670.39	46.81
670.53	18.72
670.67	25.75
670.81	46.81
670.95	37.45
671.09	0.00
671.23	11.70
671.37	9.36
671.51	0.00
671.65	65.54
671.79	51.49
671.93	23.41
672.07	35.11
672.21	133.41
672.35	30.43
672.49	42.13
672.63	7.02
672.77	102.98
672.91	107.66
673.05	37.45
673.19	35.11
673.33	37.45
673.47	30.43
673.61	16.38
673.75	65.54
673.89	25.75
674.03	16.38
674.17	84.26
674.31	9.36
674.45	60.85
674.59	21.06
674.73	0.00
674.87	4.68
675.01	0.00
675.15	98.30
675.29	30.43
675.43	0.00
675.56	86.60
675.70	53.83
675.84	7.02
675.98	42.13
676.12	35.11
676.26	37.45
676.40	93.62
676.54	16.38
676.68	93.62
676.82	0.00
676.96	0.00
677.10	16.38
677.23	16.38
677.37	0.00
677.51	4.68
677.65	65.54
677.79	0.00
677.93	56.17
678.07	23.41
678.21	0.00
678.34	88.94
678.48	39.79
678.62	74.90
678.76	23.41
678.90	77.24
679.04	42.13
679.18	4.68
679.31	49.15
679.45	77.24
679.59	46.81
679.73	18.72
679.87	37.45
680.00	39.79
680.14	42.13
680.28	35.11
680.42	28.09
680.56	42.13
680.70	42.13
680.83	70.22
680.97	9.36
681.11	86.60
681.25	44.47
681.39	63.19
681.52	39.79
681.66	86.60
681.80	0.00
681.94	16.38
682.07	39.79
682.21	0.00
682.35	25.75
682.49	84.26
682.62	60.85
682.76	77.24
682.90	42.13
683.04	0.00
683.17	0.00
683.31	0.00
683.45	7.02
683.59	84.26
683.72	0.00
683.86	23.41
684.00	0.00
684.13	63.19
684.27	77.24
684.41	84.26
684.55	23.41
684.68	0.00
684.82	16.38
684.96	79.58
685.09	86.60
685.23	39.79
685.37	30.43
685.50	28.09
685.64	63.19
685.78	28.09
685.91	84.26
686.05	23.41
686.19	0.00
686.32	44.47
686.46	0.00
686.60	0.00
686.73	49.15
686.87	35.11
687.01	46.81
687.14	0.00
687.28	60.85
687.42	32.77
687.55	56.17
687.69	35.11
687.82	39.79
687.96	88.94
688.10	16.38
688.23	0.00
688.37	0.00
688.50	0.00
688.64	0.00
688.78	44.47
688.91	37.45
689.05	14.04
689.18	37.45
689.32	30.43
689.46	7.02
689.59	32.77
689.73	32.77
689.86	16.38
690.00	46.81
690.13	28.09
690.27	39.79
690.41	119.37
690.54	11.70
690.68	121.71
690.81	0.00
690.95	37.45
691.08	39.79
691.22	4.68
691.35	37.45
691.49	7.02
691.62	18.72
691.76	79.58
691.89	65.54
692.03	70.22
692.16	77.24
692.30	0.00
692.43	0.00
692.57	37.45
692.70	0.00
692.84	0.00
692.97	81.92
693.11	14.04
693.24	0.00
693.38	14.04
693.51	42.13
693.65	93.62
693.78	0.00
693.92	79.58
694.05	72.56
694.19	70.22
694.32	58.51
694.45	21.06
694.59	49.15
694.72	30.43
694.86	0.00
694.99	0.00
695.13	39.79
695.26	44.47
695.39	0.00
695.53	18.72
695.66	79.58
695.80	25.75
695.93	35.11
696.07	7.02
696.20	0.00
696.33	18.72
696.47	16.38
696.60	14.04
696.73	86.60
696.87	0.00
697.00	0.00
697.14	35.11
697.27	112.35
697.40	25.75
697.54	4.68
697.67	18.72
697.80	77.24
697.94	70.22
698.07	23.41
698.21	77.24
698.34	11.70
698.47	4.68
698.61	39.79
698.74	65.54
698.87	30.43
699.01	49.15
699.14	4.68
699.27	51.49
699.40	0.00
699.54	11.70
699.67	7.02
699.80	0.00
699.94	0.00
700.07	49.15
700.20	63.19
700.34	0.00
700.47	9.36
700.60	67.88
700.73	30.43
700.87	51.49
701.00	72.56
701.13	46.81
701.26	84.26
701.40	37.45
701.53	67.88
701.66	0.00
701.79	0.00
701.93	0.00
702.06	0.00
702.19	2.34
702.32	0.00
702.46	28.09
702.59	77.24
702.72	58.51
702.85	14.04
702.99	0.00
703.12	0.00
703.25	0.00
703.38	72.56
703.51	35.11
703.65	23.41
703.78	25.75
703.91	4.68
704.04	0.00
704.17	49.15
704.31	0.00
704.44	42.13
704.57	70.22
704.70	11.70
704.83	0.00
704.96	42.13
705.10	79.58
705.23	0.00
>>>>>End Processed Spectral Data<<<<<
