SpectraSuite Data File
++++++++++++++++++++++++++++++++++++
Date: Fri Oct 04 12:13:40 GMT-05:00 2013
User: price-jones
Dark Spectrum Present: No
Reference Spectrum Present: No
Number of Sampled Component Spectra: 1
Spectrometers: USB2+H05261
Integration Time (usec): 10000 (USB2+H05261)
Spectra Averaged: 1 (USB2+H05261)
Boxcar Smoothing: 0 (USB2+H05261)
Correct for Electrical Dark: No (USB2+H05261)
Strobe/Lamp Enabled: No (USB2+H05261)
Correct for Detector Non-linearity: No (USB2+H05261)
Correct for Stray Light: No (USB2+H05261)
Number of Pixels in Processed Spectrum: 2048
>>>>>Begin Processed Spectral Data<<<<<
365.73	0.00
365.92	0.00
366.12	0.00
366.32	0.00
366.52	0.00
366.72	0.00
366.91	0.00
367.11	0.00
367.31	0.00
367.51	0.00
367.70	0.00
367.90	0.00
368.10	0.00
368.30	0.00
368.49	0.00
368.69	0.00
368.89	0.00
369.09	0.00
369.28	0.00
369.48	0.00
369.68	0.00
369.87	0.00
370.07	0.00
370.27	0.00
370.47	0.00
370.66	0.00
370.86	0.00
371.06	0.00
371.25	0.00
371.45	0.00
371.65	0.00
371.84	16.38
372.04	0.00
372.24	91.28
372.44	86.60
372.63	18.72
372.83	0.00
373.03	2.34
373.22	77.24
373.42	0.00
373.62	77.24
373.81	37.45
374.01	25.75
374.21	70.22
374.40	23.41
374.60	79.58
374.79	7.02
374.99	9.36
375.19	46.81
375.38	21.06
375.58	4.68
375.78	56.17
375.97	25.75
376.17	37.45
376.37	28.09
376.56	42.13
376.76	9.36
376.95	2.34
377.15	49.15
377.35	0.00
377.54	7.02
377.74	53.83
377.93	0.00
378.13	88.94
378.33	51.49
378.52	32.77
378.72	0.00
378.91	0.00
379.11	51.49
379.31	65.54
379.50	14.04
379.70	0.00
379.89	0.00
380.09	0.00
380.28	11.70
380.48	63.19
380.68	63.19
380.87	35.11
381.07	23.41
381.26	4.68
381.46	0.00
381.65	0.00
381.85	0.00
382.04	65.54
382.24	37.45
382.43	39.79
382.63	0.00
382.83	49.15
383.02	56.17
383.22	49.15
383.41	4.68
383.61	131.07
383.80	30.43
384.00	42.13
384.19	21.06
384.39	4.68
384.58	0.00
384.78	25.75
384.97	0.00
385.17	9.36
385.36	0.00
385.56	30.43
385.75	53.83
385.95	49.15
386.14	0.00
386.34	30.43
386.53	56.17
386.72	25.75
386.92	0.00
387.11	58.51
387.31	4.68
387.50	4.68
387.70	93.62
387.89	63.19
388.09	9.36
388.28	0.00
388.48	0.00
388.67	9.36
388.86	30.43
389.06	37.45
389.25	0.00
389.45	11.70
389.64	18.72
389.84	14.04
390.03	56.17
390.22	44.47
390.42	28.09
390.61	105.32
390.81	42.13
391.00	60.85
391.19	81.92
391.39	37.45
391.58	0.00
391.78	18.72
391.97	35.11
392.16	42.13
392.36	58.51
392.55	70.22
392.75	42.13
392.94	0.00
393.13	7.02
393.33	14.04
393.52	56.17
393.71	49.15
393.91	0.00
394.10	0.00
394.29	0.00
394.49	39.79
394.68	9.36
394.88	35.11
395.07	25.75
395.26	0.00
395.46	16.38
395.65	0.00
395.84	0.00
396.04	60.85
396.23	88.94
396.42	23.41
396.62	58.51
396.81	30.43
397.00	42.13
397.19	65.54
397.39	0.00
397.58	21.06
397.77	7.02
397.97	44.47
398.16	91.28
398.35	23.41
398.55	32.77
398.74	58.51
398.93	63.19
399.12	32.77
399.32	30.43
399.51	2.34
399.70	37.45
399.90	16.38
400.09	72.56
400.28	39.79
400.47	0.00
400.67	18.72
400.86	23.41
401.05	60.85
401.24	42.13
401.44	21.06
401.63	4.68
401.82	39.79
402.01	21.06
402.21	42.13
402.40	11.70
402.59	0.00
402.78	35.11
402.97	0.00
403.17	70.22
403.36	11.70
403.55	16.38
403.74	67.88
403.93	44.47
404.13	72.56
404.32	18.72
404.51	98.30
404.70	21.06
404.89	39.79
405.09	72.56
405.28	0.00
405.47	70.22
405.66	18.72
405.85	65.54
406.05	65.54
406.24	14.04
406.43	35.11
406.62	14.04
406.81	49.15
407.00	0.00
407.20	0.00
407.39	0.00
407.58	65.54
407.77	133.41
407.96	18.72
408.15	46.81
408.34	37.45
408.54	42.13
408.73	0.00
408.92	39.79
409.11	16.38
409.30	35.11
409.49	42.13
409.68	23.41
409.87	77.24
410.07	159.16
410.26	65.54
410.45	35.11
410.64	60.85
410.83	72.56
411.02	110.01
411.21	58.51
411.40	37.45
411.59	0.00
411.78	16.38
411.98	79.58
412.17	44.47
412.36	88.94
412.55	0.00
412.74	11.70
412.93	67.88
413.12	0.00
413.31	93.62
413.50	86.60
413.69	42.13
413.88	105.32
414.07	35.11
414.26	0.00
414.45	70.22
414.64	51.49
414.83	39.79
415.02	67.88
415.22	25.75
415.41	77.24
415.60	58.51
415.79	11.70
415.98	81.92
416.17	39.79
416.36	0.00
416.55	23.41
416.74	93.62
416.93	58.51
417.12	39.79
417.31	0.00
417.50	37.45
417.69	0.00
417.88	42.13
418.07	56.17
418.26	72.56
418.45	35.11
418.64	0.00
418.83	0.00
419.02	0.00
419.21	7.02
419.39	60.85
419.58	46.81
419.77	44.47
419.96	46.81
420.15	28.09
420.34	39.79
420.53	107.66
420.72	95.96
420.91	4.68
421.10	35.11
421.29	84.26
421.48	100.64
421.67	53.83
421.86	51.49
422.05	63.19
422.24	14.04
422.43	72.56
422.61	14.04
422.80	35.11
422.99	81.92
423.18	25.75
423.37	14.04
423.56	84.26
423.75	93.62
423.94	0.00
424.13	70.22
424.32	39.79
424.50	84.26
424.69	11.70
424.88	23.41
425.07	56.17
425.26	81.92
425.45	63.19
425.64	9.36
425.83	56.17
426.01	0.00
426.20	39.79
426.39	0.00
426.58	35.11
426.77	93.62
426.96	46.81
427.15	56.17
427.33	58.51
427.52	0.00
427.71	93.62
427.90	88.94
428.09	23.41
428.28	42.13
428.46	46.81
428.65	42.13
428.84	112.35
429.03	37.45
429.22	4.68
429.40	23.41
429.59	21.06
429.78	16.38
429.97	28.09
430.16	37.45
430.34	16.38
430.53	0.00
430.72	9.36
430.91	0.00
431.10	0.00
431.28	84.26
431.47	49.15
431.66	11.70
431.85	56.17
432.03	67.88
432.22	21.06
432.41	21.06
432.60	42.13
432.79	105.32
432.97	23.41
433.16	100.64
433.35	39.79
433.54	11.70
433.72	2.34
433.91	102.98
434.10	88.94
434.28	77.24
434.47	30.43
434.66	28.09
434.85	0.00
435.03	49.15
435.22	0.00
435.41	65.54
435.59	110.01
435.78	21.06
435.97	32.77
436.16	74.90
436.34	2.34
436.53	28.09
436.72	0.00
436.90	30.43
437.09	4.68
437.28	0.00
437.46	77.24
437.65	53.83
437.84	102.98
438.02	23.41
438.21	0.00
438.40	0.00
438.58	42.13
438.77	88.94
438.96	9.36
439.14	42.13
439.33	91.28
439.52	32.77
439.70	77.24
439.89	0.00
440.08	67.88
440.26	56.17
440.45	51.49
440.63	65.54
440.82	60.85
441.01	117.03
441.19	35.11
441.38	23.41
441.57	35.11
441.75	91.28
441.94	107.66
442.12	67.88
442.31	67.88
442.50	53.83
442.68	88.94
442.87	74.90
443.05	74.90
443.24	56.17
443.43	56.17
443.61	11.70
443.80	74.90
443.98	60.85
444.17	0.00
444.35	21.06
444.54	114.69
444.73	9.36
444.91	74.90
445.10	117.03
445.28	23.41
445.47	56.17
445.65	74.90
445.84	46.81
446.02	51.49
446.21	23.41
446.39	37.45
446.58	46.81
446.77	112.35
446.95	0.00
447.14	9.36
447.32	117.03
447.51	49.15
447.69	74.90
447.88	67.88
448.06	44.47
448.25	25.75
448.43	11.70
448.62	88.94
448.80	37.45
448.99	37.45
449.17	119.37
449.36	63.19
449.54	95.96
449.73	77.24
449.91	25.75
450.10	30.43
450.28	74.90
450.46	60.85
450.65	107.66
450.83	46.81
451.02	32.77
451.20	32.77
451.39	86.60
451.57	117.03
451.76	44.47
451.94	131.07
452.13	35.11
452.31	14.04
452.49	16.38
452.68	23.41
452.86	16.38
453.05	30.43
453.23	53.83
453.42	0.00
453.60	23.41
453.78	21.06
453.97	0.00
454.15	88.94
454.34	67.88
454.52	46.81
454.70	184.90
454.89	65.54
455.07	67.88
455.26	58.51
455.44	0.00
455.62	74.90
455.81	100.64
455.99	102.98
456.17	21.06
456.36	114.69
456.54	35.11
456.73	95.96
456.91	11.70
457.09	86.60
457.28	107.66
457.46	7.02
457.64	30.43
457.83	16.38
458.01	46.81
458.19	121.71
458.38	91.28
458.56	105.32
458.74	42.13
458.93	51.49
459.11	51.49
459.29	114.69
459.48	30.43
459.66	70.22
459.84	56.17
460.03	46.81
460.21	88.94
460.39	79.58
460.57	70.22
460.76	65.54
460.94	65.54
461.12	28.09
461.31	28.09
461.49	23.41
461.67	0.00
461.85	107.66
462.04	58.51
462.22	159.16
462.40	128.73
462.59	18.72
462.77	35.11
462.95	0.00
463.13	67.88
463.32	74.90
463.50	88.94
463.68	112.35
463.86	25.75
464.05	112.35
464.23	81.92
464.41	60.85
464.59	37.45
464.78	93.62
464.96	39.79
465.14	95.96
465.32	84.26
465.50	63.19
465.69	0.00
465.87	49.15
466.05	2.34
466.23	32.77
466.41	39.79
466.60	32.77
466.78	107.66
466.96	114.69
467.14	91.28
467.32	32.77
467.51	44.47
467.69	18.72
467.87	46.81
468.05	0.00
468.23	30.43
468.41	16.38
468.60	16.38
468.78	32.77
468.96	84.26
469.14	121.71
469.32	98.30
469.50	63.19
469.69	81.92
469.87	0.00
470.05	9.36
470.23	79.58
470.41	58.51
470.59	119.37
470.77	25.75
470.95	63.19
471.14	95.96
471.32	46.81
471.50	0.00
471.68	9.36
471.86	67.88
472.04	32.77
472.22	42.13
472.40	98.30
472.58	58.51
472.77	16.38
472.95	30.43
473.13	107.66
473.31	100.64
473.49	63.19
473.67	91.28
473.85	4.68
474.03	0.00
474.21	58.51
474.39	23.41
474.57	91.28
474.75	77.24
474.93	2.34
475.12	2.34
475.30	21.06
475.48	70.22
475.66	44.47
475.84	133.41
476.02	81.92
476.20	56.17
476.38	32.77
476.56	39.79
476.74	131.07
476.92	79.58
477.10	42.13
477.28	9.36
477.46	42.13
477.64	81.92
477.82	37.45
478.00	100.64
478.18	107.66
478.36	28.09
478.54	44.47
478.72	23.41
478.90	81.92
479.08	60.85
479.26	74.90
479.44	93.62
479.62	49.15
479.80	56.17
479.98	51.49
480.16	79.58
480.34	60.85
480.52	70.22
480.70	72.56
480.88	18.72
481.06	16.38
481.24	105.32
481.41	37.45
481.59	63.19
481.77	44.47
481.95	63.19
482.13	119.37
482.31	81.92
482.49	9.36
482.67	42.13
482.85	77.24
483.03	51.49
483.21	105.32
483.39	49.15
483.57	133.41
483.74	14.04
483.92	21.06
484.10	93.62
484.28	60.85
484.46	39.79
484.64	98.30
484.82	74.90
485.00	102.98
485.18	42.13
485.35	70.22
485.53	77.24
485.71	28.09
485.89	0.00
486.07	4.68
486.25	81.92
486.43	191.92
486.61	77.24
486.78	42.13
486.96	49.15
487.14	107.66
487.32	140.43
487.50	42.13
487.68	131.07
487.85	175.54
488.03	131.07
488.21	74.90
488.39	93.62
488.57	49.15
488.75	0.00
488.92	128.73
489.10	74.90
489.28	53.83
489.46	88.94
489.64	56.17
489.81	79.58
489.99	93.62
490.17	21.06
490.35	88.94
490.53	105.32
490.70	4.68
490.88	79.58
491.06	163.84
491.24	156.82
491.41	65.54
491.59	11.70
491.77	63.19
491.95	156.82
492.13	79.58
492.30	72.56
492.48	135.75
492.66	105.32
492.84	98.30
493.01	163.84
493.19	39.79
493.37	117.03
493.54	126.39
493.72	81.92
493.90	135.75
494.08	67.88
494.25	60.85
494.43	0.00
494.61	58.51
494.79	37.45
494.96	81.92
495.14	91.28
495.32	182.56
495.49	166.18
495.67	124.05
495.85	65.54
496.02	70.22
496.20	46.81
496.38	93.62
496.55	49.15
496.73	77.24
496.91	9.36
497.09	140.43
497.26	140.43
497.44	95.96
497.62	105.32
497.79	88.94
497.97	70.22
498.14	21.06
498.32	88.94
498.50	107.66
498.67	56.17
498.85	25.75
499.03	84.26
499.20	79.58
499.38	121.71
499.56	60.85
499.73	77.24
499.91	46.81
500.08	70.22
500.26	117.03
500.44	67.88
500.61	65.54
500.79	91.28
500.97	46.81
501.14	86.60
501.32	159.16
501.49	42.13
501.67	39.79
501.84	28.09
502.02	58.51
502.20	74.90
502.37	67.88
502.55	93.62
502.72	100.64
502.90	63.19
503.07	100.64
503.25	81.92
503.43	105.32
503.60	95.96
503.78	107.66
503.95	77.24
504.13	35.11
504.30	117.03
504.48	74.90
504.65	58.51
504.83	49.15
505.01	126.39
505.18	81.92
505.36	133.41
505.53	142.77
505.71	93.62
505.88	65.54
506.06	110.01
506.23	95.96
506.41	86.60
506.58	98.30
506.76	65.54
506.93	140.43
507.11	140.43
507.28	110.01
507.46	60.85
507.63	86.60
507.81	112.35
507.98	77.24
508.16	74.90
508.33	140.43
508.50	74.90
508.68	65.54
508.85	51.49
509.03	56.17
509.20	28.09
509.38	84.26
509.55	156.82
509.73	0.00
509.90	110.01
510.08	128.73
510.25	196.60
510.42	152.13
510.60	98.30
510.77	74.90
510.95	138.09
511.12	126.39
511.30	107.66
511.47	74.90
511.64	58.51
511.82	74.90
511.99	86.60
512.17	100.64
512.34	93.62
512.51	102.98
512.69	58.51
512.86	156.82
513.04	77.24
513.21	56.17
513.38	51.49
513.56	110.01
513.73	39.79
513.90	107.66
514.08	25.75
514.25	98.30
514.43	91.28
514.60	100.64
514.77	39.79
514.95	86.60
515.12	93.62
515.29	37.45
515.47	147.45
515.64	58.51
515.81	142.77
515.99	16.38
516.16	74.90
516.33	74.90
516.51	74.90
516.68	79.58
516.85	46.81
517.03	100.64
517.20	46.81
517.37	88.94
517.54	91.28
517.72	142.77
517.89	107.66
518.06	84.26
518.24	81.92
518.41	147.45
518.58	51.49
518.75	112.35
518.93	58.51
519.10	126.39
519.27	63.19
519.45	91.28
519.62	88.94
519.79	39.79
519.96	114.69
520.14	67.88
520.31	81.92
520.48	107.66
520.65	107.66
520.83	58.51
521.00	65.54
521.17	140.43
521.34	77.24
521.52	105.32
521.69	65.54
521.86	51.49
522.03	154.48
522.20	135.75
522.38	70.22
522.55	9.36
522.72	91.28
522.89	152.13
523.07	105.32
523.24	42.13
523.41	51.49
523.58	44.47
523.75	46.81
523.92	145.11
524.10	100.64
524.27	121.71
524.44	112.35
524.61	74.90
524.78	58.51
524.96	105.32
525.13	105.32
525.30	95.96
525.47	126.39
525.64	72.56
525.81	42.13
525.98	84.26
526.16	79.58
526.33	110.01
526.50	35.11
526.67	102.98
526.84	32.77
527.01	110.01
527.18	86.60
527.36	46.81
527.53	88.94
527.70	46.81
527.87	79.58
528.04	79.58
528.21	91.28
528.38	91.28
528.55	37.45
528.72	74.90
528.89	112.35
529.07	135.75
529.24	126.39
529.41	100.64
529.58	46.81
529.75	58.51
529.92	107.66
530.09	110.01
530.26	74.90
530.43	110.01
530.60	93.62
530.77	23.41
530.94	70.22
531.11	53.83
531.28	72.56
531.46	65.54
531.63	30.43
531.80	91.28
531.97	65.54
532.14	23.41
532.31	23.41
532.48	145.11
532.65	133.41
532.82	133.41
532.99	84.26
533.16	79.58
533.33	58.51
533.50	93.62
533.67	119.37
533.84	98.30
534.01	65.54
534.18	98.30
534.35	102.98
534.52	18.72
534.69	81.92
534.86	142.77
535.03	65.54
535.20	58.51
535.37	51.49
535.54	117.03
535.71	51.49
535.88	79.58
536.05	112.35
536.22	114.69
536.38	95.96
536.55	67.88
536.72	86.60
536.89	79.58
537.06	182.56
537.23	107.66
537.40	79.58
537.57	74.90
537.74	51.49
537.91	60.85
538.08	91.28
538.25	124.05
538.42	135.75
538.59	60.85
538.75	98.30
538.92	95.96
539.09	119.37
539.26	53.83
539.43	112.35
539.60	23.41
539.77	142.77
539.94	117.03
540.11	102.98
540.28	84.26
540.44	74.90
540.61	53.83
540.78	74.90
540.95	105.32
541.12	67.88
541.29	98.30
541.46	39.79
541.62	65.54
541.79	81.92
541.96	100.64
542.13	105.32
542.30	74.90
542.47	117.03
542.63	124.05
542.80	72.56
542.97	147.45
543.14	112.35
543.31	114.69
543.48	25.75
543.64	60.85
543.81	79.58
543.98	51.49
544.15	81.92
544.32	110.01
544.48	32.77
544.65	107.66
544.82	32.77
544.99	49.15
545.16	84.26
545.32	70.22
545.49	128.73
545.66	107.66
545.83	63.19
546.00	119.37
546.16	86.60
546.33	44.47
546.50	112.35
546.67	105.32
546.83	49.15
547.00	79.58
547.17	119.37
547.34	77.24
547.50	110.01
547.67	100.64
547.84	86.60
548.00	131.07
548.17	74.90
548.34	112.35
548.51	58.51
548.67	147.45
548.84	128.73
549.01	86.60
549.18	142.77
549.34	49.15
549.51	107.66
549.68	114.69
549.84	42.13
550.01	84.26
550.18	79.58
550.34	191.92
550.51	79.58
550.68	37.45
550.84	81.92
551.01	100.64
551.18	65.54
551.34	128.73
551.51	135.75
551.68	37.45
551.84	114.69
552.01	112.35
552.18	46.81
552.34	91.28
552.51	65.54
552.68	14.04
552.84	91.28
553.01	86.60
553.18	166.18
553.34	110.01
553.51	131.07
553.67	79.58
553.84	84.26
554.01	65.54
554.17	147.45
554.34	112.35
554.51	126.39
554.67	37.45
554.84	149.79
555.00	119.37
555.17	65.54
555.33	128.73
555.50	84.26
555.67	84.26
555.83	121.71
556.00	86.60
556.16	65.54
556.33	51.49
556.50	107.66
556.66	51.49
556.83	56.17
556.99	135.75
557.16	37.45
557.32	51.49
557.49	21.06
557.65	114.69
557.82	95.96
557.98	9.36
558.15	18.72
558.32	131.07
558.48	119.37
558.65	84.26
558.81	107.66
558.98	81.92
559.14	114.69
559.31	100.64
559.47	58.51
559.64	16.38
559.80	74.90
559.97	77.24
560.13	74.90
560.30	93.62
560.46	37.45
560.63	49.15
560.79	142.77
560.96	32.77
561.12	88.94
561.29	105.32
561.45	72.56
561.61	98.30
561.78	114.69
561.94	88.94
562.11	39.79
562.27	67.88
562.44	11.70
562.60	91.28
562.77	126.39
562.93	63.19
563.10	93.62
563.26	42.13
563.42	161.50
563.59	112.35
563.75	67.88
563.92	65.54
564.08	84.26
564.24	74.90
564.41	65.54
564.57	14.04
564.74	0.00
564.90	91.28
565.07	65.54
565.23	112.35
565.39	35.11
565.56	140.43
565.72	81.92
565.88	14.04
566.05	112.35
566.21	7.02
566.38	14.04
566.54	114.69
566.70	95.96
566.87	86.60
567.03	56.17
567.19	67.88
567.36	147.45
567.52	124.05
567.68	65.54
567.85	2.34
568.01	126.39
568.17	91.28
568.34	51.49
568.50	67.88
568.66	32.77
568.83	102.98
568.99	95.96
569.15	95.96
569.32	100.64
569.48	30.43
569.64	53.83
569.81	93.62
569.97	70.22
570.13	95.96
570.30	86.60
570.46	44.47
570.62	131.07
570.78	77.24
570.95	110.01
571.11	77.24
571.27	67.88
571.43	88.94
571.60	74.90
571.76	28.09
571.92	23.41
572.09	138.09
572.25	93.62
572.41	35.11
572.57	105.32
572.74	107.66
572.90	72.56
573.06	25.75
573.22	107.66
573.38	21.06
573.55	56.17
573.71	98.30
573.87	107.66
574.03	126.39
574.20	117.03
574.36	56.17
574.52	84.26
574.68	60.85
574.84	124.05
575.01	60.85
575.17	131.07
575.33	18.72
575.49	77.24
575.65	102.98
575.82	56.17
575.98	102.98
576.14	98.30
576.30	0.00
576.46	65.54
576.62	46.81
576.79	147.45
576.95	49.15
577.11	79.58
577.27	112.35
577.43	102.98
577.59	105.32
577.75	79.58
577.92	0.00
578.08	14.04
578.24	70.22
578.40	126.39
578.56	88.94
578.72	79.58
578.88	84.26
579.04	79.58
579.21	88.94
579.37	119.37
579.53	79.58
579.69	159.16
579.85	53.83
580.01	16.38
580.17	119.37
580.33	77.24
580.49	60.85
580.65	67.88
580.82	100.64
580.98	145.11
581.14	93.62
581.30	93.62
581.46	84.26
581.62	18.72
581.78	81.92
581.94	72.56
582.10	56.17
582.26	131.07
582.42	128.73
582.58	142.77
582.74	72.56
582.90	37.45
583.06	81.92
583.22	72.56
583.38	135.75
583.54	124.05
583.70	102.98
583.86	56.17
584.02	98.30
584.18	88.94
584.34	18.72
584.50	72.56
584.66	18.72
584.82	51.49
584.98	81.92
585.14	39.79
585.30	35.11
585.46	65.54
585.62	91.28
585.78	32.77
585.94	25.75
586.10	77.24
586.26	131.07
586.42	23.41
586.58	112.35
586.74	46.81
586.90	79.58
587.06	119.37
587.22	124.05
587.38	49.15
587.54	35.11
587.70	93.62
587.86	4.68
588.02	79.58
588.18	65.54
588.34	65.54
588.49	79.58
588.65	79.58
588.81	42.13
588.97	79.58
589.13	37.45
589.29	110.01
589.45	81.92
589.61	49.15
589.77	37.45
589.93	42.13
590.08	18.72
590.24	86.60
590.40	110.01
590.56	79.58
590.72	44.47
590.88	98.30
591.04	49.15
591.20	110.01
591.35	126.39
591.51	11.70
591.67	65.54
591.83	112.35
591.99	88.94
592.15	67.88
592.31	74.90
592.46	65.54
592.62	0.00
592.78	46.81
592.94	53.83
593.10	11.70
593.26	131.07
593.41	53.83
593.57	28.09
593.73	161.50
593.89	72.56
594.05	58.51
594.20	105.32
594.36	107.66
594.52	60.85
594.68	147.45
594.84	95.96
594.99	63.19
595.15	42.13
595.31	65.54
595.47	105.32
595.62	63.19
595.78	93.62
595.94	117.03
596.10	46.81
596.25	28.09
596.41	25.75
596.57	124.05
596.73	67.88
596.88	37.45
597.04	28.09
597.20	21.06
597.36	51.49
597.51	44.47
597.67	25.75
597.83	0.00
597.99	18.72
598.14	91.28
598.30	135.75
598.46	16.38
598.61	166.18
598.77	112.35
598.93	44.47
599.09	124.05
599.24	14.04
599.40	105.32
599.56	81.92
599.71	65.54
599.87	56.17
600.03	114.69
600.18	56.17
600.34	23.41
600.50	70.22
600.65	58.51
600.81	60.85
600.97	53.83
601.12	100.64
601.28	65.54
601.44	65.54
601.59	9.36
601.75	16.38
601.91	53.83
602.06	65.54
602.22	35.11
602.37	72.56
602.53	56.17
602.69	11.70
602.84	42.13
603.00	58.51
603.16	117.03
603.31	105.32
603.47	93.62
603.62	63.19
603.78	58.51
603.94	60.85
604.09	145.11
604.25	56.17
604.40	70.22
604.56	9.36
604.71	124.05
604.87	77.24
605.03	81.92
605.18	126.39
605.34	51.49
605.49	110.01
605.65	93.62
605.80	58.51
605.96	0.00
606.12	88.94
606.27	60.85
606.43	135.75
606.58	93.62
606.74	86.60
606.89	105.32
607.05	25.75
607.20	37.45
607.36	81.92
607.51	81.92
607.67	79.58
607.82	79.58
607.98	60.85
608.13	105.32
608.29	63.19
608.44	70.22
608.60	53.83
608.75	51.49
608.91	131.07
609.06	126.39
609.22	30.43
609.37	105.32
609.53	67.88
609.68	56.17
609.84	0.00
609.99	67.88
610.15	49.15
610.30	74.90
610.46	100.64
610.61	95.96
610.76	0.00
610.92	0.00
611.07	0.00
611.23	107.66
611.38	79.58
611.54	23.41
611.69	39.79
611.84	114.69
612.00	79.58
612.15	56.17
612.31	88.94
612.46	49.15
612.62	51.49
612.77	51.49
612.92	53.83
613.08	30.43
613.23	16.38
613.39	114.69
613.54	53.83
613.69	100.64
613.85	93.62
614.00	91.28
614.15	70.22
614.31	67.88
614.46	121.71
614.62	2.34
614.77	60.85
614.92	74.90
615.08	124.05
615.23	63.19
615.38	37.45
615.54	124.05
615.69	51.49
615.84	25.75
616.00	65.54
616.15	74.90
616.30	46.81
616.46	98.30
616.61	65.54
616.76	79.58
616.92	72.56
617.07	51.49
617.22	39.79
617.37	44.47
617.53	67.88
617.68	0.00
617.83	25.75
617.99	77.24
618.14	9.36
618.29	46.81
618.45	81.92
618.60	65.54
618.75	88.94
618.90	42.13
619.06	58.51
619.21	51.49
619.36	117.03
619.51	81.92
619.67	114.69
619.82	32.77
619.97	60.85
620.12	84.26
620.28	37.45
620.43	102.98
620.58	51.49
620.73	65.54
620.89	25.75
621.04	42.13
621.19	102.98
621.34	65.54
621.49	37.45
621.65	95.96
621.80	65.54
621.95	98.30
622.10	140.43
622.25	70.22
622.41	60.85
622.56	63.19
622.71	88.94
622.86	56.17
623.01	91.28
623.16	102.98
623.32	95.96
623.47	128.73
623.62	60.85
623.77	53.83
623.92	81.92
624.07	44.47
624.23	98.30
624.38	49.15
624.53	30.43
624.68	135.75
624.83	65.54
624.98	46.81
625.13	30.43
625.29	65.54
625.44	16.38
625.59	51.49
625.74	44.47
625.89	72.56
626.04	46.81
626.19	135.75
626.34	88.94
626.49	4.68
626.65	49.15
626.80	42.13
626.95	56.17
627.10	86.60
627.25	133.41
627.40	37.45
627.55	42.13
627.70	79.58
627.85	30.43
628.00	30.43
628.15	35.11
628.30	86.60
628.45	86.60
628.60	0.00
628.76	138.09
628.91	86.60
629.06	0.00
629.21	28.09
629.36	53.83
629.51	77.24
629.66	126.39
629.81	58.51
629.96	42.13
630.11	79.58
630.26	105.32
630.41	65.54
630.56	21.06
630.71	60.85
630.86	131.07
631.01	49.15
631.16	72.56
631.31	42.13
631.46	124.05
631.61	11.70
631.76	4.68
631.91	63.19
632.06	93.62
632.21	98.30
632.36	28.09
632.51	98.30
632.66	93.62
632.81	98.30
632.96	86.60
633.10	49.15
633.25	7.02
633.40	86.60
633.55	58.51
633.70	65.54
633.85	0.00
634.00	126.39
634.15	39.79
634.30	86.60
634.45	28.09
634.60	32.77
634.75	18.72
634.90	81.92
635.05	56.17
635.19	86.60
635.34	58.51
635.49	79.58
635.64	81.92
635.79	102.98
635.94	44.47
636.09	121.71
636.24	81.92
636.39	44.47
636.53	42.13
636.68	11.70
636.83	28.09
636.98	79.58
637.13	23.41
637.28	25.75
637.43	74.90
637.57	95.96
637.72	58.51
637.87	16.38
638.02	25.75
638.17	49.15
638.32	0.00
638.46	51.49
638.61	77.24
638.76	65.54
638.91	112.35
639.06	9.36
639.20	105.32
639.35	58.51
639.50	7.02
639.65	49.15
639.80	44.47
639.94	74.90
640.09	102.98
640.24	67.88
640.39	42.13
640.54	32.77
640.68	49.15
640.83	100.64
640.98	102.98
641.13	49.15
641.27	18.72
641.42	100.64
641.57	9.36
641.72	0.00
641.86	49.15
642.01	74.90
642.16	60.85
642.31	77.24
642.45	32.77
642.60	0.00
642.75	63.19
642.90	60.85
643.04	51.49
643.19	0.00
643.34	74.90
643.48	0.00
643.63	81.92
643.78	140.43
643.93	70.22
644.07	39.79
644.22	53.83
644.37	102.98
644.51	72.56
644.66	56.17
644.81	39.79
644.95	60.85
645.10	72.56
645.25	46.81
645.39	67.88
645.54	140.43
645.69	0.00
645.83	0.00
645.98	32.77
646.13	63.19
646.27	70.22
646.42	86.60
646.57	107.66
646.71	70.22
646.86	9.36
647.00	0.00
647.15	7.02
647.30	0.00
647.44	74.90
647.59	16.38
647.74	18.72
647.88	42.13
648.03	18.72
648.17	23.41
648.32	65.54
648.47	56.17
648.61	0.00
648.76	18.72
648.90	35.11
649.05	21.06
649.20	23.41
649.34	0.00
649.49	100.64
649.63	37.45
649.78	58.51
649.92	49.15
650.07	79.58
650.21	117.03
650.36	126.39
650.51	0.00
650.65	91.28
650.80	72.56
650.94	35.11
651.09	30.43
651.23	67.88
651.38	60.85
651.52	51.49
651.67	86.60
651.81	46.81
651.96	25.75
652.10	9.36
652.25	81.92
652.39	32.77
652.54	79.58
652.68	4.68
652.83	28.09
652.97	0.00
653.12	7.02
653.26	128.73
653.41	100.64
653.55	60.85
653.70	11.70
653.84	44.47
653.99	49.15
654.13	51.49
654.27	7.02
654.42	0.00
654.56	39.79
654.71	56.17
654.85	42.13
655.00	65.54
655.14	65.54
655.29	0.00
655.43	79.58
655.57	81.92
655.72	0.00
655.86	88.94
656.01	28.09
656.15	65.54
656.30	88.94
656.44	107.66
656.58	67.88
656.73	16.38
656.87	86.60
657.01	46.81
657.16	65.54
657.30	93.62
657.45	25.75
657.59	46.81
657.73	58.51
657.88	84.26
658.02	0.00
658.16	42.13
658.31	4.68
658.45	67.88
658.60	105.32
658.74	91.28
658.88	39.79
659.03	91.28
659.17	147.45
659.31	91.28
659.46	98.30
659.60	0.00
659.74	91.28
659.89	102.98
660.03	60.85
660.17	84.26
660.32	86.60
660.46	105.32
660.60	37.45
660.74	11.70
660.89	74.90
661.03	49.15
661.17	25.75
661.32	0.00
661.46	25.75
661.60	56.17
661.74	18.72
661.89	93.62
662.03	81.92
662.17	35.11
662.31	77.24
662.46	53.83
662.60	25.75
662.74	42.13
662.88	0.00
663.03	0.00
663.17	46.81
663.31	16.38
663.45	4.68
663.60	100.64
663.74	107.66
663.88	14.04
664.02	0.00
664.17	46.81
664.31	93.62
664.45	65.54
664.59	42.13
664.73	0.00
664.88	35.11
665.02	58.51
665.16	84.26
665.30	35.11
665.44	14.04
665.59	39.79
665.73	37.45
665.87	95.96
666.01	95.96
666.15	93.62
666.29	0.00
666.44	65.54
666.58	0.00
666.72	0.00
666.86	112.35
667.00	60.85
667.14	21.06
667.28	37.45
667.43	16.38
667.57	88.94
667.71	46.81
667.85	39.79
667.99	53.83
668.13	65.54
668.27	32.77
668.41	74.90
668.56	107.66
668.70	39.79
668.84	30.43
668.98	16.38
669.12	23.41
669.26	105.32
669.40	2.34
669.54	67.88
669.68	0.00
669.82	18.72
669.96	28.09
670.10	0.00
670.25	0.00
670.39	42.13
670.53	81.92
670.67	0.00
670.81	95.96
670.95	63.19
671.09	23.41
671.23	140.43
671.37	32.77
671.51	35.11
671.65	4.68
671.79	110.01
671.93	65.54
672.07	0.00
672.21	0.00
672.35	0.00
672.49	86.60
672.63	65.54
672.77	9.36
672.91	77.24
673.05	91.28
673.19	32.77
673.33	7.02
673.47	37.45
673.61	16.38
673.75	77.24
673.89	0.00
674.03	37.45
674.17	37.45
674.31	58.51
674.45	121.71
674.59	0.00
674.73	0.00
674.87	72.56
675.01	46.81
675.15	65.54
675.29	0.00
675.43	58.51
675.56	114.69
675.70	79.58
675.84	102.98
675.98	60.85
676.12	0.00
676.26	16.38
676.40	107.66
676.54	77.24
676.68	88.94
676.82	91.28
676.96	65.54
677.10	18.72
677.23	51.49
677.37	63.19
677.51	44.47
677.65	63.19
677.79	72.56
677.93	154.48
678.07	67.88
678.21	0.00
678.34	16.38
678.48	105.32
678.62	81.92
678.76	84.26
678.90	58.51
679.04	93.62
679.18	51.49
679.31	77.24
679.45	77.24
679.59	65.54
679.73	39.79
679.87	28.09
680.00	86.60
680.14	14.04
680.28	81.92
680.42	42.13
680.56	51.49
680.70	72.56
680.83	2.34
680.97	79.58
681.11	79.58
681.25	46.81
681.39	46.81
681.52	11.70
681.66	0.00
681.80	67.88
681.94	0.00
682.07	0.00
682.21	53.83
682.35	7.02
682.49	67.88
682.62	53.83
682.76	28.09
682.90	46.81
683.04	30.43
683.17	46.81
683.31	100.64
683.45	74.90
683.59	28.09
683.72	9.36
683.86	51.49
684.00	37.45
684.13	28.09
684.27	39.79
684.41	84.26
684.55	88.94
684.68	0.00
684.82	21.06
684.96	49.15
685.09	117.03
685.23	131.07
685.37	0.00
685.50	28.09
685.64	35.11
685.78	28.09
685.91	74.90
686.05	21.06
686.19	56.17
686.32	44.47
686.46	98.30
686.60	2.34
686.73	23.41
686.87	67.88
687.01	0.00
687.14	18.72
687.28	56.17
687.42	53.83
687.55	100.64
687.69	0.00
687.82	23.41
687.96	58.51
688.10	18.72
688.23	11.70
688.37	44.47
688.50	0.00
688.64	18.72
688.78	42.13
688.91	42.13
689.05	95.96
689.18	53.83
689.32	0.00
689.46	72.56
689.59	18.72
689.73	0.00
689.86	0.00
690.00	65.54
690.13	44.47
690.27	42.13
690.41	49.15
690.54	37.45
690.68	72.56
690.81	0.00
690.95	91.28
691.08	14.04
691.22	70.22
691.35	37.45
691.49	21.06
691.62	0.00
691.76	49.15
691.89	35.11
692.03	53.83
692.16	42.13
692.30	35.11
692.43	88.94
692.57	9.36
692.70	79.58
692.84	21.06
692.97	53.83
693.11	124.05
693.24	39.79
693.38	56.17
693.51	0.00
693.65	25.75
693.78	9.36
693.92	28.09
694.05	0.00
694.19	35.11
694.32	0.00
694.45	11.70
694.59	4.68
694.72	74.90
694.86	35.11
694.99	21.06
695.13	4.68
695.26	74.90
695.39	46.81
695.53	18.72
695.66	39.79
695.80	70.22
695.93	32.77
696.07	11.70
696.20	42.13
696.33	88.94
696.47	37.45
696.60	25.75
696.73	21.06
696.87	58.51
697.00	25.75
697.14	16.38
697.27	46.81
697.40	63.19
697.54	81.92
697.67	23.41
697.80	67.88
697.94	14.04
698.07	70.22
698.21	32.77
698.34	30.43
698.47	11.70
698.61	156.82
698.74	49.15
698.87	23.41
699.01	11.70
699.14	28.09
699.27	14.04
699.40	102.98
699.54	32.77
699.67	23.41
699.80	0.00
699.94	9.36
700.07	84.26
700.20	56.17
700.34	58.51
700.47	56.17
700.60	0.00
700.73	0.00
700.87	100.64
701.00	30.43
701.13	58.51
701.26	21.06
701.40	44.47
701.53	93.62
701.66	0.00
701.79	60.85
701.93	67.88
702.06	42.13
702.19	0.00
702.32	93.62
702.46	32.77
702.59	65.54
702.72	65.54
702.85	0.00
702.99	0.00
703.12	0.00
703.25	37.45
703.38	4.68
703.51	0.00
703.65	79.58
703.78	42.13
703.91	135.75
704.04	56.17
704.17	67.88
704.31	72.56
704.44	65.54
704.57	0.00
704.70	32.77
704.83	11.70
704.96	25.75
705.10	72.56
705.23	91.28
>>>>>End Processed Spectral Data<<<<<
