SpectraSuite Data File
++++++++++++++++++++++++++++++++++++
Date: Fri Oct 04 12:13:26 GMT-05:00 2013
User: price-jones
Dark Spectrum Present: No
Reference Spectrum Present: No
Number of Sampled Component Spectra: 1
Spectrometers: USB2+H05261
Integration Time (usec): 10000 (USB2+H05261)
Spectra Averaged: 1 (USB2+H05261)
Boxcar Smoothing: 0 (USB2+H05261)
Correct for Electrical Dark: No (USB2+H05261)
Strobe/Lamp Enabled: No (USB2+H05261)
Correct for Detector Non-linearity: No (USB2+H05261)
Correct for Stray Light: No (USB2+H05261)
Number of Pixels in Processed Spectrum: 2048
>>>>>Begin Processed Spectral Data<<<<<
365.73	0.00
365.92	0.00
366.12	0.00
366.32	0.00
366.52	0.00
366.72	0.00
366.91	0.00
367.11	0.00
367.31	0.00
367.51	0.00
367.70	0.00
367.90	0.00
368.10	0.00
368.30	0.00
368.49	0.00
368.69	0.00
368.89	0.00
369.09	0.00
369.28	0.00
369.48	0.00
369.68	0.00
369.87	0.00
370.07	0.00
370.27	0.00
370.47	0.00
370.66	0.00
370.86	0.00
371.06	0.00
371.25	0.00
371.45	0.00
371.65	0.00
371.84	0.00
372.04	0.00
372.24	0.00
372.44	37.45
372.63	23.41
372.83	0.00
373.03	9.36
373.22	18.72
373.42	0.00
373.62	56.17
373.81	65.54
374.01	16.38
374.21	72.56
374.40	0.00
374.60	9.36
374.79	11.70
374.99	49.15
375.19	63.19
375.38	18.72
375.58	37.45
375.78	49.15
375.97	0.00
376.17	44.47
376.37	72.56
376.56	0.00
376.76	9.36
376.95	44.47
377.15	79.58
377.35	11.70
377.54	0.00
377.74	0.00
377.93	42.13
378.13	44.47
378.33	0.00
378.52	37.45
378.72	49.15
378.91	51.49
379.11	0.00
379.31	25.75
379.50	0.00
379.70	44.47
379.89	49.15
380.09	11.70
380.28	0.00
380.48	21.06
380.68	37.45
380.87	28.09
381.07	42.13
381.26	0.00
381.46	0.00
381.65	0.00
381.85	14.04
382.04	25.75
382.24	7.02
382.43	88.94
382.63	16.38
382.83	0.00
383.02	46.81
383.22	0.00
383.41	60.85
383.61	0.00
383.80	0.00
384.00	46.81
384.19	0.00
384.39	0.00
384.58	0.00
384.78	11.70
384.97	0.00
385.17	0.00
385.36	21.06
385.56	0.00
385.75	0.00
385.95	0.00
386.14	0.00
386.34	25.75
386.53	0.00
386.72	140.43
386.92	30.43
387.11	51.49
387.31	51.49
387.50	70.22
387.70	0.00
387.89	21.06
388.09	30.43
388.28	72.56
388.48	37.45
388.67	65.54
388.86	18.72
389.06	63.19
389.25	0.00
389.45	9.36
389.64	0.00
389.84	51.49
390.03	16.38
390.22	0.00
390.42	49.15
390.61	14.04
390.81	0.00
391.00	46.81
391.19	16.38
391.39	63.19
391.58	16.38
391.78	32.77
391.97	0.00
392.16	56.17
392.36	46.81
392.55	0.00
392.75	84.26
392.94	21.06
393.13	0.00
393.33	0.00
393.52	4.68
393.71	51.49
393.91	25.75
394.10	0.00
394.29	32.77
394.49	49.15
394.68	77.24
394.88	67.88
395.07	86.60
395.26	18.72
395.46	46.81
395.65	46.81
395.84	58.51
396.04	63.19
396.23	81.92
396.42	35.11
396.62	0.00
396.81	0.00
397.00	0.00
397.19	0.00
397.39	23.41
397.58	84.26
397.77	0.00
397.97	0.00
398.16	11.70
398.35	0.00
398.55	14.04
398.74	0.00
398.93	7.02
399.12	0.00
399.32	98.30
399.51	28.09
399.70	14.04
399.90	65.54
400.09	58.51
400.28	0.00
400.47	0.00
400.67	11.70
400.86	56.17
401.05	39.79
401.24	0.00
401.44	2.34
401.63	49.15
401.82	81.92
402.01	0.00
402.21	58.51
402.40	0.00
402.59	14.04
402.78	0.00
402.97	58.51
403.17	11.70
403.36	0.00
403.55	0.00
403.74	25.75
403.93	4.68
404.13	102.98
404.32	42.13
404.51	51.49
404.70	51.49
404.89	53.83
405.09	46.81
405.28	32.77
405.47	25.75
405.66	44.47
405.85	46.81
406.05	60.85
406.24	0.00
406.43	98.30
406.62	58.51
406.81	11.70
407.00	35.11
407.20	25.75
407.39	39.79
407.58	9.36
407.77	0.00
407.96	0.00
408.15	79.58
408.34	0.00
408.54	44.47
408.73	7.02
408.92	32.77
409.11	30.43
409.30	30.43
409.49	0.00
409.68	2.34
409.87	56.17
410.07	95.96
410.26	37.45
410.45	56.17
410.64	14.04
410.83	0.00
411.02	9.36
411.21	65.54
411.40	0.00
411.59	53.83
411.78	0.00
411.98	2.34
412.17	63.19
412.36	16.38
412.55	23.41
412.74	37.45
412.93	0.00
413.12	16.38
413.31	42.13
413.50	53.83
413.69	16.38
413.88	0.00
414.07	32.77
414.26	105.32
414.45	70.22
414.64	0.00
414.83	0.00
415.02	0.00
415.22	51.49
415.41	37.45
415.60	0.00
415.79	18.72
415.98	14.04
416.17	60.85
416.36	32.77
416.55	63.19
416.74	16.38
416.93	16.38
417.12	0.00
417.31	0.00
417.50	23.41
417.69	0.00
417.88	21.06
418.07	51.49
418.26	16.38
418.45	39.79
418.64	0.00
418.83	28.09
419.02	42.13
419.21	30.43
419.39	0.00
419.58	28.09
419.77	56.17
419.96	60.85
420.15	49.15
420.34	0.00
420.53	32.77
420.72	2.34
420.91	0.00
421.10	0.00
421.29	30.43
421.48	30.43
421.67	30.43
421.86	35.11
422.05	107.66
422.24	56.17
422.43	16.38
422.61	0.00
422.80	18.72
422.99	9.36
423.18	60.85
423.37	124.05
423.56	21.06
423.75	53.83
423.94	23.41
424.13	0.00
424.32	0.00
424.50	0.00
424.69	133.41
424.88	37.45
425.07	105.32
425.26	23.41
425.45	18.72
425.64	0.00
425.83	0.00
426.01	56.17
426.20	60.85
426.39	0.00
426.58	51.49
426.77	37.45
426.96	46.81
427.15	42.13
427.33	11.70
427.52	0.00
427.71	0.00
427.90	0.00
428.09	74.90
428.28	46.81
428.46	37.45
428.65	25.75
428.84	0.00
429.03	95.96
429.22	11.70
429.40	0.00
429.59	21.06
429.78	37.45
429.97	74.90
430.16	23.41
430.34	0.00
430.53	51.49
430.72	35.11
430.91	121.71
431.10	0.00
431.28	0.00
431.47	46.81
431.66	42.13
431.85	79.58
432.03	0.00
432.22	25.75
432.41	4.68
432.60	11.70
432.79	0.00
432.97	0.00
433.16	0.00
433.35	51.49
433.54	0.00
433.72	53.83
433.91	2.34
434.10	51.49
434.28	72.56
434.47	7.02
434.66	37.45
434.85	91.28
435.03	74.90
435.22	30.43
435.41	46.81
435.59	9.36
435.78	18.72
435.97	32.77
436.16	0.00
436.34	39.79
436.53	0.00
436.72	18.72
436.90	9.36
437.09	44.47
437.28	53.83
437.46	60.85
437.65	0.00
437.84	0.00
438.02	51.49
438.21	7.02
438.40	63.19
438.58	37.45
438.77	58.51
438.96	72.56
439.14	18.72
439.33	44.47
439.52	63.19
439.70	39.79
439.89	11.70
440.08	32.77
440.26	53.83
440.45	53.83
440.63	79.58
440.82	51.49
441.01	51.49
441.19	70.22
441.38	0.00
441.57	0.00
441.75	67.88
441.94	51.49
442.12	63.19
442.31	0.00
442.50	0.00
442.68	23.41
442.87	0.00
443.05	21.06
443.24	18.72
443.43	28.09
443.61	77.24
443.80	46.81
443.98	25.75
444.17	0.00
444.35	0.00
444.54	37.45
444.73	42.13
444.91	18.72
445.10	53.83
445.28	100.64
445.47	21.06
445.65	46.81
445.84	7.02
446.02	11.70
446.21	107.66
446.39	4.68
446.58	0.00
446.77	0.00
446.95	30.43
447.14	2.34
447.32	7.02
447.51	74.90
447.69	23.41
447.88	67.88
448.06	0.00
448.25	35.11
448.43	37.45
448.62	11.70
448.80	51.49
448.99	72.56
449.17	0.00
449.36	0.00
449.54	37.45
449.73	51.49
449.91	4.68
450.10	46.81
450.28	2.34
450.46	58.51
450.65	63.19
450.83	0.00
451.02	46.81
451.20	2.34
451.39	58.51
451.57	60.85
451.76	0.00
451.94	117.03
452.13	16.38
452.31	0.00
452.49	30.43
452.68	65.54
452.86	21.06
453.05	110.01
453.23	21.06
453.42	18.72
453.60	4.68
453.78	0.00
453.97	0.00
454.15	0.00
454.34	88.94
454.52	9.36
454.70	30.43
454.89	58.51
455.07	56.17
455.26	63.19
455.44	25.75
455.62	51.49
455.81	74.90
455.99	49.15
456.17	44.47
456.36	14.04
456.54	25.75
456.73	46.81
456.91	49.15
457.09	81.92
457.28	74.90
457.46	11.70
457.64	60.85
457.83	49.15
458.01	93.62
458.19	0.00
458.38	0.00
458.56	0.00
458.74	30.43
458.93	86.60
459.11	21.06
459.29	49.15
459.48	9.36
459.66	9.36
459.84	0.00
460.03	35.11
460.21	72.56
460.39	0.00
460.57	14.04
460.76	0.00
460.94	67.88
461.12	58.51
461.31	21.06
461.49	86.60
461.67	51.49
461.85	67.88
462.04	0.00
462.22	138.09
462.40	114.69
462.59	0.00
462.77	30.43
462.95	49.15
463.13	0.00
463.32	72.56
463.50	23.41
463.68	23.41
463.86	9.36
464.05	67.88
464.23	79.58
464.41	91.28
464.59	79.58
464.78	21.06
464.96	84.26
465.14	49.15
465.32	4.68
465.50	30.43
465.69	84.26
465.87	100.64
466.05	77.24
466.23	9.36
466.41	91.28
466.60	39.79
466.78	70.22
466.96	28.09
467.14	28.09
467.32	67.88
467.51	58.51
467.69	0.00
467.87	91.28
468.05	56.17
468.23	79.58
468.41	23.41
468.60	23.41
468.78	74.90
468.96	93.62
469.14	51.49
469.32	0.00
469.50	14.04
469.69	39.79
469.87	37.45
470.05	65.54
470.23	30.43
470.41	0.00
470.59	2.34
470.77	44.47
470.95	49.15
471.14	72.56
471.32	35.11
471.50	0.00
471.68	0.00
471.86	0.00
472.04	51.49
472.22	14.04
472.40	28.09
472.58	49.15
472.77	88.94
472.95	46.81
473.13	65.54
473.31	28.09
473.49	0.00
473.67	56.17
473.85	37.45
474.03	0.00
474.21	67.88
474.39	28.09
474.57	53.83
474.75	42.13
474.93	77.24
475.12	0.00
475.30	60.85
475.48	39.79
475.66	16.38
475.84	86.60
476.02	63.19
476.20	81.92
476.38	37.45
476.56	0.00
476.74	53.83
476.92	37.45
477.10	42.13
477.28	11.70
477.46	25.75
477.64	28.09
477.82	81.92
478.00	18.72
478.18	37.45
478.36	58.51
478.54	86.60
478.72	44.47
478.90	70.22
479.08	135.75
479.26	37.45
479.44	86.60
479.62	0.00
479.80	121.71
479.98	81.92
480.16	72.56
480.34	21.06
480.52	30.43
480.70	21.06
480.88	9.36
481.06	18.72
481.24	46.81
481.41	56.17
481.59	0.00
481.77	70.22
481.95	30.43
482.13	0.00
482.31	0.00
482.49	18.72
482.67	32.77
482.85	56.17
483.03	44.47
483.21	16.38
483.39	25.75
483.57	0.00
483.74	37.45
483.92	7.02
484.10	79.58
484.28	0.00
484.46	110.01
484.64	81.92
484.82	77.24
485.00	70.22
485.18	0.00
485.35	56.17
485.53	42.13
485.71	4.68
485.89	0.00
486.07	53.83
486.25	112.35
486.43	7.02
486.61	0.00
486.78	79.58
486.96	56.17
487.14	39.79
487.32	77.24
487.50	46.81
487.68	25.75
487.85	37.45
488.03	9.36
488.21	49.15
488.39	63.19
488.57	49.15
488.75	28.09
488.92	91.28
489.10	46.81
489.28	39.79
489.46	51.49
489.64	0.00
489.81	46.81
489.99	51.49
490.17	110.01
490.35	0.00
490.53	0.00
490.70	35.11
490.88	0.00
491.06	58.51
491.24	0.00
491.41	93.62
491.59	51.49
491.77	25.75
491.95	23.41
492.13	0.00
492.30	37.45
492.48	102.98
492.66	53.83
492.84	74.90
493.01	11.70
493.19	60.85
493.37	23.41
493.54	60.85
493.72	51.49
493.90	28.09
494.08	86.60
494.25	84.26
494.43	70.22
494.61	65.54
494.79	88.94
494.96	93.62
495.14	0.00
495.32	0.00
495.49	91.28
495.67	65.54
495.85	70.22
496.02	67.88
496.20	65.54
496.38	42.13
496.55	14.04
496.73	21.06
496.91	18.72
497.09	23.41
497.26	58.51
497.44	18.72
497.62	77.24
497.79	56.17
497.97	4.68
498.14	35.11
498.32	32.77
498.50	65.54
498.67	0.00
498.85	2.34
499.03	42.13
499.20	21.06
499.38	65.54
499.56	30.43
499.73	0.00
499.91	32.77
500.08	28.09
500.26	46.81
500.44	58.51
500.61	7.02
500.79	91.28
500.97	39.79
501.14	107.66
501.32	23.41
501.49	35.11
501.67	0.00
501.84	74.90
502.02	37.45
502.20	58.51
502.37	0.00
502.55	51.49
502.72	44.47
502.90	39.79
503.07	25.75
503.25	0.00
503.43	35.11
503.60	0.00
503.78	0.00
503.95	4.68
504.13	30.43
504.30	7.02
504.48	9.36
504.65	32.77
504.83	32.77
505.01	23.41
505.18	28.09
505.36	39.79
505.53	18.72
505.71	28.09
505.88	0.00
506.06	16.38
506.23	35.11
506.41	95.96
506.58	95.96
506.76	37.45
506.93	49.15
507.11	53.83
507.28	72.56
507.46	21.06
507.63	72.56
507.81	91.28
507.98	49.15
508.16	30.43
508.33	0.00
508.50	30.43
508.68	0.00
508.85	63.19
509.03	9.36
509.20	60.85
509.38	93.62
509.55	88.94
509.73	88.94
509.90	11.70
510.08	58.51
510.25	23.41
510.42	81.92
510.60	42.13
510.77	49.15
510.95	28.09
511.12	42.13
511.30	79.58
511.47	14.04
511.64	30.43
511.82	42.13
511.99	58.51
512.17	79.58
512.34	58.51
512.51	98.30
512.69	0.00
512.86	0.00
513.04	35.11
513.21	4.68
513.38	65.54
513.56	46.81
513.73	53.83
513.90	0.00
514.08	56.17
514.25	72.56
514.43	42.13
514.60	63.19
514.77	2.34
514.95	11.70
515.12	16.38
515.29	0.00
515.47	51.49
515.64	0.00
515.81	46.81
515.99	35.11
516.16	95.96
516.33	0.00
516.51	21.06
516.68	0.00
516.85	77.24
517.03	67.88
517.20	21.06
517.37	65.54
517.54	4.68
517.72	30.43
517.89	9.36
518.06	51.49
518.24	95.96
518.41	16.38
518.58	74.90
518.75	4.68
518.93	16.38
519.10	39.79
519.27	56.17
519.45	93.62
519.62	28.09
519.79	11.70
519.96	7.02
520.14	0.00
520.31	131.07
520.48	25.75
520.65	18.72
520.83	51.49
521.00	65.54
521.17	46.81
521.34	74.90
521.52	25.75
521.69	56.17
521.86	84.26
522.03	46.81
522.20	0.00
522.38	37.45
522.55	72.56
522.72	37.45
522.89	58.51
523.07	77.24
523.24	0.00
523.41	35.11
523.58	32.77
523.75	49.15
523.92	42.13
524.10	86.60
524.27	77.24
524.44	25.75
524.61	128.73
524.78	35.11
524.96	2.34
525.13	0.00
525.30	46.81
525.47	0.00
525.64	18.72
525.81	65.54
525.98	30.43
526.16	86.60
526.33	58.51
526.50	39.79
526.67	9.36
526.84	28.09
527.01	77.24
527.18	35.11
527.36	63.19
527.53	2.34
527.70	42.13
527.87	107.66
528.04	35.11
528.21	37.45
528.38	9.36
528.55	98.30
528.72	9.36
528.89	14.04
529.07	84.26
529.24	35.11
529.41	35.11
529.58	21.06
529.75	4.68
529.92	91.28
530.09	0.00
530.26	67.88
530.43	16.38
530.60	0.00
530.77	37.45
530.94	11.70
531.11	51.49
531.28	56.17
531.46	7.02
531.63	28.09
531.80	4.68
531.97	18.72
532.14	21.06
532.31	7.02
532.48	0.00
532.65	72.56
532.82	70.22
532.99	117.03
533.16	58.51
533.33	98.30
533.50	21.06
533.67	0.00
533.84	95.96
534.01	44.47
534.18	98.30
534.35	0.00
534.52	23.41
534.69	42.13
534.86	49.15
535.03	65.54
535.20	53.83
535.37	77.24
535.54	51.49
535.71	0.00
535.88	72.56
536.05	25.75
536.22	25.75
536.38	16.38
536.55	0.00
536.72	7.02
536.89	58.51
537.06	0.00
537.23	46.81
537.40	32.77
537.57	35.11
537.74	0.00
537.91	7.02
538.08	49.15
538.25	14.04
538.42	4.68
538.59	44.47
538.75	35.11
538.92	0.00
539.09	9.36
539.26	0.00
539.43	32.77
539.60	51.49
539.77	32.77
539.94	0.00
540.11	58.51
540.28	7.02
540.44	32.77
540.61	135.75
540.78	42.13
540.95	42.13
541.12	70.22
541.29	0.00
541.46	4.68
541.62	53.83
541.79	0.00
541.96	28.09
542.13	53.83
542.30	77.24
542.47	2.34
542.63	60.85
542.80	72.56
542.97	0.00
543.14	32.77
543.31	63.19
543.48	56.17
543.64	0.00
543.81	49.15
543.98	0.00
544.15	0.00
544.32	37.45
544.48	4.68
544.65	9.36
544.82	14.04
544.99	65.54
545.16	44.47
545.32	88.94
545.49	32.77
545.66	21.06
545.83	56.17
546.00	49.15
546.16	81.92
546.33	56.17
546.50	56.17
546.67	23.41
546.83	86.60
547.00	102.98
547.17	21.06
547.34	46.81
547.50	72.56
547.67	35.11
547.84	9.36
548.00	65.54
548.17	14.04
548.34	42.13
548.51	21.06
548.67	0.00
548.84	39.79
549.01	28.09
549.18	65.54
549.34	25.75
549.51	42.13
549.68	53.83
549.84	53.83
550.01	49.15
550.18	25.75
550.34	18.72
550.51	30.43
550.68	102.98
550.84	4.68
551.01	39.79
551.18	159.16
551.34	18.72
551.51	11.70
551.68	42.13
551.84	67.88
552.01	53.83
552.18	74.90
552.34	88.94
552.51	44.47
552.68	67.88
552.84	70.22
553.01	0.00
553.18	77.24
553.34	35.11
553.51	56.17
553.67	14.04
553.84	46.81
554.01	91.28
554.17	25.75
554.34	98.30
554.51	124.05
554.67	44.47
554.84	58.51
555.00	72.56
555.17	0.00
555.33	65.54
555.50	16.38
555.67	0.00
555.83	37.45
556.00	0.00
556.16	39.79
556.33	18.72
556.50	37.45
556.66	23.41
556.83	37.45
556.99	91.28
557.16	63.19
557.32	79.58
557.49	86.60
557.65	2.34
557.82	18.72
557.98	60.85
558.15	0.00
558.32	25.75
558.48	53.83
558.65	0.00
558.81	51.49
558.98	74.90
559.14	32.77
559.31	32.77
559.47	60.85
559.64	56.17
559.80	9.36
559.97	0.00
560.13	70.22
560.30	102.98
560.46	0.00
560.63	21.06
560.79	51.49
560.96	18.72
561.12	0.00
561.29	51.49
561.45	0.00
561.61	44.47
561.78	53.83
561.94	46.81
562.11	56.17
562.27	70.22
562.44	0.00
562.60	0.00
562.77	51.49
562.93	105.32
563.10	70.22
563.26	28.09
563.42	51.49
563.59	9.36
563.75	49.15
563.92	60.85
564.08	37.45
564.24	0.00
564.41	2.34
564.57	49.15
564.74	63.19
564.90	63.19
565.07	95.96
565.23	30.43
565.39	16.38
565.56	39.79
565.72	95.96
565.88	0.00
566.05	14.04
566.21	25.75
566.38	32.77
566.54	0.00
566.70	133.41
566.87	18.72
567.03	4.68
567.19	46.81
567.36	28.09
567.52	0.00
567.68	21.06
567.85	0.00
568.01	0.00
568.17	0.00
568.34	18.72
568.50	28.09
568.66	51.49
568.83	25.75
568.99	86.60
569.15	4.68
569.32	44.47
569.48	28.09
569.64	74.90
569.81	65.54
569.97	35.11
570.13	51.49
570.30	9.36
570.46	53.83
570.62	110.01
570.78	18.72
570.95	7.02
571.11	77.24
571.27	112.35
571.43	0.00
571.60	79.58
571.76	11.70
571.92	46.81
572.09	70.22
572.25	86.60
572.41	14.04
572.57	35.11
572.74	39.79
572.90	74.90
573.06	93.62
573.22	77.24
573.38	84.26
573.55	30.43
573.71	77.24
573.87	39.79
574.03	25.75
574.20	25.75
574.36	7.02
574.52	37.45
574.68	0.00
574.84	56.17
575.01	42.13
575.17	0.00
575.33	84.26
575.49	37.45
575.65	86.60
575.82	44.47
575.98	56.17
576.14	32.77
576.30	0.00
576.46	56.17
576.62	4.68
576.79	18.72
576.95	79.58
577.11	170.86
577.27	72.56
577.43	110.01
577.59	51.49
577.75	60.85
577.92	84.26
578.08	23.41
578.24	56.17
578.40	0.00
578.56	28.09
578.72	86.60
578.88	16.38
579.04	100.64
579.21	67.88
579.37	16.38
579.53	60.85
579.69	42.13
579.85	63.19
580.01	42.13
580.17	117.03
580.33	100.64
580.49	88.94
580.65	30.43
580.82	39.79
580.98	98.30
581.14	0.00
581.30	102.98
581.46	93.62
581.62	79.58
581.78	60.85
581.94	23.41
582.10	65.54
582.26	21.06
582.42	0.00
582.58	58.51
582.74	0.00
582.90	0.00
583.06	18.72
583.22	14.04
583.38	2.34
583.54	81.92
583.70	23.41
583.86	0.00
584.02	58.51
584.18	35.11
584.34	2.34
584.50	32.77
584.66	194.26
584.82	503.22
584.98	667.05
585.14	720.88
585.30	489.17
585.46	313.63
585.62	203.63
585.78	98.30
585.94	37.45
586.10	49.15
586.26	0.00
586.42	14.04
586.58	14.04
586.74	4.68
586.90	9.36
587.06	30.43
587.22	11.70
587.38	0.00
587.54	0.00
587.70	37.45
587.86	131.07
588.02	81.92
588.18	100.64
588.34	67.88
588.49	93.62
588.65	18.72
588.81	81.92
588.97	28.09
589.13	37.45
589.29	21.06
589.45	7.02
589.61	74.90
589.77	14.04
589.93	74.90
590.08	0.00
590.24	84.26
590.40	93.62
590.56	32.77
590.72	2.34
590.88	18.72
591.04	72.56
591.20	98.30
591.35	86.60
591.51	25.75
591.67	65.54
591.83	53.83
591.99	14.04
592.15	0.00
592.31	11.70
592.46	60.85
592.62	16.38
592.78	11.70
592.94	49.15
593.10	9.36
593.26	0.00
593.41	0.00
593.57	74.90
593.73	70.22
593.89	72.56
594.05	32.77
594.20	65.54
594.36	102.98
594.52	0.00
594.68	121.71
594.84	49.15
594.99	49.15
595.15	56.17
595.31	16.38
595.47	63.19
595.62	100.64
595.78	30.43
595.94	0.00
596.10	4.68
596.25	0.00
596.41	0.00
596.57	107.66
596.73	0.00
596.88	35.11
597.04	30.43
597.20	0.00
597.36	44.47
597.51	25.75
597.67	23.41
597.83	58.51
597.99	7.02
598.14	42.13
598.30	25.75
598.46	112.35
598.61	65.54
598.77	42.13
598.93	44.47
599.09	51.49
599.24	67.88
599.40	30.43
599.56	0.00
599.71	35.11
599.87	0.00
600.03	39.79
600.18	21.06
600.34	28.09
600.50	39.79
600.65	56.17
600.81	53.83
600.97	23.41
601.12	88.94
601.28	65.54
601.44	11.70
601.59	16.38
601.75	18.72
601.91	9.36
602.06	65.54
602.22	28.09
602.37	145.11
602.53	53.83
602.69	72.56
602.84	56.17
603.00	32.77
603.16	9.36
603.31	42.13
603.47	0.00
603.62	11.70
603.78	84.26
603.94	42.13
604.09	0.00
604.25	81.92
604.40	11.70
604.56	0.00
604.71	72.56
604.87	4.68
605.03	72.56
605.18	65.54
605.34	84.26
605.49	0.00
605.65	39.79
605.80	23.41
605.96	23.41
606.12	7.02
606.27	131.07
606.43	49.15
606.58	60.85
606.74	9.36
606.89	70.22
607.05	112.35
607.20	70.22
607.36	4.68
607.51	112.35
607.67	107.66
607.82	11.70
607.98	91.28
608.13	100.64
608.29	65.54
608.44	51.49
608.60	9.36
608.75	39.79
608.91	63.19
609.06	28.09
609.22	65.54
609.37	107.66
609.53	107.66
609.68	53.83
609.84	16.38
609.99	58.51
610.15	112.35
610.30	51.49
610.46	51.49
610.61	32.77
610.76	60.85
610.92	0.00
611.07	0.00
611.23	74.90
611.38	91.28
611.54	23.41
611.69	11.70
611.84	39.79
612.00	53.83
612.15	2.34
612.31	7.02
612.46	77.24
612.62	16.38
612.77	25.75
612.92	0.00
613.08	28.09
613.23	86.60
613.39	74.90
613.54	53.83
613.69	84.26
613.85	156.82
614.00	159.16
614.15	182.56
614.31	107.66
614.46	100.64
614.62	112.35
614.77	79.58
614.92	74.90
615.08	11.70
615.23	84.26
615.38	0.00
615.54	0.00
615.69	0.00
615.84	110.01
616.00	51.49
616.15	21.06
616.30	121.71
616.46	39.79
616.61	14.04
616.76	0.00
616.92	35.11
617.07	16.38
617.22	0.00
617.37	30.43
617.53	35.11
617.68	107.66
617.83	56.17
617.99	0.00
618.14	42.13
618.29	11.70
618.45	32.77
618.60	25.75
618.75	32.77
618.90	53.83
619.06	0.00
619.21	110.01
619.36	67.88
619.51	100.64
619.67	14.04
619.82	0.00
619.97	65.54
620.12	0.00
620.28	21.06
620.43	0.00
620.58	58.51
620.73	63.19
620.89	18.72
621.04	49.15
621.19	70.22
621.34	28.09
621.49	65.54
621.65	53.83
621.80	74.90
621.95	102.98
622.10	0.00
622.25	7.02
622.41	21.06
622.56	4.68
622.71	18.72
622.86	44.47
623.01	42.13
623.16	11.70
623.32	0.00
623.47	49.15
623.62	0.00
623.77	63.19
623.92	84.26
624.07	58.51
624.23	77.24
624.38	37.45
624.53	60.85
624.68	49.15
624.83	93.62
624.98	14.04
625.13	2.34
625.29	46.81
625.44	16.38
625.59	0.00
625.74	86.60
625.89	14.04
626.04	46.81
626.19	63.19
626.34	191.92
626.49	196.60
626.65	91.28
626.80	161.50
626.95	84.26
627.10	56.17
627.25	23.41
627.40	25.75
627.55	81.92
627.70	39.79
627.85	44.47
628.00	4.68
628.15	0.00
628.30	51.49
628.45	11.70
628.60	39.79
628.76	23.41
628.91	0.00
629.06	32.77
629.21	21.06
629.36	0.00
629.51	39.79
629.66	79.58
629.81	0.00
629.96	60.85
630.11	35.11
630.26	114.69
630.41	46.81
630.56	39.79
630.71	0.00
630.86	0.00
631.01	53.83
631.16	4.68
631.31	18.72
631.46	35.11
631.61	117.03
631.76	79.58
631.91	84.26
632.06	0.00
632.21	0.00
632.36	44.47
632.51	7.02
632.66	42.13
632.81	28.09
632.96	77.24
633.10	107.66
633.25	60.85
633.40	93.62
633.55	91.28
633.70	0.00
633.85	25.75
634.00	0.00
634.15	0.00
634.30	0.00
634.45	0.00
634.60	58.51
634.75	0.00
634.90	39.79
635.05	49.15
635.19	53.83
635.34	39.79
635.49	93.62
635.64	37.45
635.79	0.00
635.94	30.43
636.09	21.06
636.24	28.09
636.39	30.43
636.53	74.90
636.68	21.06
636.83	39.79
636.98	35.11
637.13	114.69
637.28	30.43
637.43	11.70
637.57	98.30
637.72	81.92
637.87	67.88
638.02	102.98
638.17	128.73
638.32	149.79
638.46	182.56
638.61	112.35
638.76	84.26
638.91	49.15
639.06	18.72
639.20	7.02
639.35	74.90
639.50	9.36
639.65	95.96
639.80	175.54
639.94	229.37
640.09	262.14
640.24	205.97
640.39	140.43
640.54	107.66
640.68	117.03
640.83	112.35
640.98	91.28
641.13	58.51
641.27	84.26
641.42	23.41
641.57	39.79
641.72	0.00
641.86	110.01
642.01	0.00
642.16	86.60
642.31	91.28
642.45	37.45
642.60	67.88
642.75	65.54
642.90	32.77
643.04	58.51
643.19	9.36
643.34	63.19
643.48	18.72
643.63	53.83
643.78	14.04
643.93	35.11
644.07	0.00
644.22	77.24
644.37	70.22
644.51	0.00
644.66	44.47
644.81	14.04
644.95	0.00
645.10	77.24
645.25	32.77
645.39	0.00
645.54	42.13
645.69	28.09
645.83	0.00
645.98	0.00
646.13	30.43
646.27	18.72
646.42	100.64
646.57	86.60
646.71	25.75
646.86	0.00
647.00	32.77
647.15	79.58
647.30	46.81
647.44	0.00
647.59	18.72
647.74	58.51
647.88	0.00
648.03	42.13
648.17	0.00
648.32	44.47
648.47	63.19
648.61	88.94
648.76	60.85
648.90	11.70
649.05	98.30
649.20	84.26
649.34	37.45
649.49	0.00
649.63	56.17
649.78	63.19
649.92	0.00
650.07	100.64
650.21	53.83
650.36	140.43
650.51	121.71
650.65	124.05
650.80	84.26
650.94	53.83
651.09	180.22
651.23	53.83
651.38	35.11
651.52	88.94
651.67	7.02
651.81	117.03
651.96	32.77
652.10	37.45
652.25	56.17
652.39	9.36
652.54	21.06
652.68	0.00
652.83	14.04
652.97	110.01
653.12	30.43
653.26	102.98
653.41	44.47
653.55	23.41
653.70	79.58
653.84	60.85
653.99	91.28
654.13	49.15
654.27	0.00
654.42	0.00
654.56	81.92
654.71	91.28
654.85	35.11
655.00	0.00
655.14	28.09
655.29	21.06
655.43	53.83
655.57	44.47
655.72	37.45
655.86	37.45
656.01	91.28
656.15	65.54
656.30	30.43
656.44	23.41
656.58	11.70
656.73	51.49
656.87	28.09
657.01	58.51
657.16	0.00
657.30	86.60
657.45	0.00
657.59	117.03
657.73	42.13
657.88	105.32
658.02	44.47
658.16	0.00
658.31	37.45
658.45	42.13
658.60	0.00
658.74	46.81
658.88	51.49
659.03	91.28
659.17	11.70
659.31	0.00
659.46	16.38
659.60	60.85
659.74	53.83
659.89	37.45
660.03	16.38
660.17	86.60
660.32	23.41
660.46	77.24
660.60	56.17
660.74	32.77
660.89	88.94
661.03	100.64
661.17	63.19
661.32	0.00
661.46	0.00
661.60	0.00
661.74	46.81
661.89	60.85
662.03	35.11
662.17	0.00
662.31	0.00
662.46	0.00
662.60	0.00
662.74	0.00
662.88	77.24
663.03	0.00
663.17	14.04
663.31	0.00
663.45	39.79
663.60	30.43
663.74	74.90
663.88	44.47
664.02	72.56
664.17	37.45
664.31	86.60
664.45	67.88
664.59	0.00
664.73	0.00
664.88	4.68
665.02	32.77
665.16	79.58
665.30	39.79
665.44	79.58
665.59	51.49
665.73	32.77
665.87	0.00
666.01	14.04
666.15	49.15
666.29	0.00
666.44	16.38
666.58	72.56
666.72	32.77
666.86	0.00
667.00	42.13
667.14	93.62
667.28	49.15
667.43	84.26
667.57	107.66
667.71	74.90
667.85	117.03
667.99	147.45
668.13	124.05
668.27	4.68
668.41	0.00
668.56	77.24
668.70	81.92
668.84	44.47
668.98	4.68
669.12	53.83
669.26	79.58
669.40	86.60
669.54	37.45
669.68	4.68
669.82	74.90
669.96	0.00
670.10	0.00
670.25	0.00
670.39	23.41
670.53	21.06
670.67	7.02
670.81	84.26
670.95	35.11
671.09	42.13
671.23	44.47
671.37	74.90
671.51	81.92
671.65	124.05
671.79	84.26
671.93	39.79
672.07	0.00
672.21	81.92
672.35	21.06
672.49	0.00
672.63	51.49
672.77	67.88
672.91	65.54
673.05	0.00
673.19	35.11
673.33	0.00
673.47	21.06
673.61	0.00
673.75	4.68
673.89	70.22
674.03	98.30
674.17	35.11
674.31	53.83
674.45	11.70
674.59	21.06
674.73	18.72
674.87	102.98
675.01	0.00
675.15	37.45
675.29	7.02
675.43	46.81
675.56	0.00
675.70	14.04
675.84	0.00
675.98	0.00
676.12	30.43
676.26	0.00
676.40	39.79
676.54	9.36
676.68	28.09
676.82	56.17
676.96	0.00
677.10	79.58
677.23	37.45
677.37	0.00
677.51	56.17
677.65	32.77
677.79	0.00
677.93	0.00
678.07	0.00
678.21	4.68
678.34	0.00
678.48	25.75
678.62	77.24
678.76	2.34
678.90	65.54
679.04	86.60
679.18	0.00
679.31	91.28
679.45	65.54
679.59	25.75
679.73	28.09
679.87	105.32
680.00	51.49
680.14	67.88
680.28	0.00
680.42	0.00
680.56	65.54
680.70	39.79
680.83	0.00
680.97	0.00
681.11	16.38
681.25	0.00
681.39	67.88
681.52	32.77
681.66	58.51
681.80	39.79
681.94	0.00
682.07	79.58
682.21	51.49
682.35	0.00
682.49	0.00
682.62	0.00
682.76	16.38
682.90	37.45
683.04	37.45
683.17	74.90
683.31	2.34
683.45	0.00
683.59	79.58
683.72	88.94
683.86	0.00
684.00	16.38
684.13	37.45
684.27	86.60
684.41	51.49
684.55	72.56
684.68	7.02
684.82	0.00
684.96	44.47
685.09	60.85
685.23	4.68
685.37	16.38
685.50	25.75
685.64	0.00
685.78	44.47
685.91	21.06
686.05	37.45
686.19	44.47
686.32	0.00
686.46	67.88
686.60	7.02
686.73	32.77
686.87	35.11
687.01	32.77
687.14	0.00
687.28	81.92
687.42	0.00
687.55	0.00
687.69	67.88
687.82	25.75
687.96	30.43
688.10	133.41
688.23	35.11
688.37	58.51
688.50	60.85
688.64	0.00
688.78	114.69
688.91	0.00
689.05	51.49
689.18	9.36
689.32	35.11
689.46	67.88
689.59	0.00
689.73	86.60
689.86	0.00
690.00	65.54
690.13	44.47
690.27	23.41
690.41	53.83
690.54	107.66
690.68	63.19
690.81	0.00
690.95	51.49
691.08	0.00
691.22	81.92
691.35	4.68
691.49	21.06
691.62	63.19
691.76	42.13
691.89	35.11
692.03	63.19
692.16	21.06
692.30	107.66
692.43	49.15
692.57	0.00
692.70	58.51
692.84	70.22
692.97	46.81
693.11	0.00
693.24	53.83
693.38	98.30
693.51	53.83
693.65	0.00
693.78	39.79
693.92	0.00
694.05	11.70
694.19	44.47
694.32	4.68
694.45	21.06
694.59	39.79
694.72	7.02
694.86	0.00
694.99	0.00
695.13	63.19
695.26	63.19
695.39	0.00
695.53	0.00
695.66	30.43
695.80	74.90
695.93	0.00
696.07	32.77
696.20	30.43
696.33	63.19
696.47	0.00
696.60	0.00
696.73	0.00
696.87	4.68
697.00	95.96
697.14	37.45
697.27	28.09
697.40	60.85
697.54	37.45
697.67	65.54
697.80	35.11
697.94	0.00
698.07	0.00
698.21	28.09
698.34	32.77
698.47	46.81
698.61	30.43
698.74	25.75
698.87	0.00
699.01	56.17
699.14	72.56
699.27	0.00
699.40	60.85
699.54	74.90
699.67	0.00
699.80	14.04
699.94	0.00
700.07	28.09
700.20	119.37
700.34	0.00
700.47	21.06
700.60	16.38
700.73	51.49
700.87	23.41
701.00	32.77
701.13	131.07
701.26	2.34
701.40	35.11
701.53	0.00
701.66	2.34
701.79	74.90
701.93	117.03
702.06	16.38
702.19	0.00
702.32	28.09
702.46	0.00
702.59	0.00
702.72	39.79
702.85	14.04
702.99	84.26
703.12	70.22
703.25	77.24
703.38	100.64
703.51	79.58
703.65	65.54
703.78	124.05
703.91	32.77
704.04	63.19
704.17	21.06
704.31	51.49
704.44	4.68
704.57	9.36
704.70	58.51
704.83	117.03
704.96	117.03
705.10	0.00
705.23	51.49
>>>>>End Processed Spectral Data<<<<<
