SpectraSuite Data File
++++++++++++++++++++++++++++++++++++
Date: Fri Oct 04 12:13:27 GMT-05:00 2013
User: price-jones
Dark Spectrum Present: No
Reference Spectrum Present: No
Number of Sampled Component Spectra: 1
Spectrometers: USB2+H05261
Integration Time (usec): 10000 (USB2+H05261)
Spectra Averaged: 1 (USB2+H05261)
Boxcar Smoothing: 0 (USB2+H05261)
Correct for Electrical Dark: No (USB2+H05261)
Strobe/Lamp Enabled: No (USB2+H05261)
Correct for Detector Non-linearity: No (USB2+H05261)
Correct for Stray Light: No (USB2+H05261)
Number of Pixels in Processed Spectrum: 2048
>>>>>Begin Processed Spectral Data<<<<<
365.73	4.68
365.92	4.68
366.12	4.68
366.32	0.00
366.52	0.00
366.72	0.00
366.91	0.00
367.11	0.00
367.31	0.00
367.51	0.00
367.70	0.00
367.90	0.00
368.10	0.00
368.30	0.00
368.49	0.00
368.69	0.00
368.89	0.00
369.09	0.00
369.28	0.00
369.48	0.00
369.68	0.00
369.87	0.00
370.07	0.00
370.27	0.00
370.47	0.00
370.66	0.00
370.86	0.00
371.06	0.00
371.25	0.00
371.45	0.00
371.65	0.00
371.84	0.00
372.04	0.00
372.24	14.04
372.44	2.34
372.63	0.00
372.83	21.06
373.03	72.56
373.22	0.00
373.42	37.45
373.62	14.04
373.81	49.15
374.01	32.77
374.21	74.90
374.40	35.11
374.60	46.81
374.79	25.75
374.99	46.81
375.19	53.83
375.38	21.06
375.58	72.56
375.78	39.79
375.97	44.47
376.17	58.51
376.37	88.94
376.56	4.68
376.76	0.00
376.95	14.04
377.15	30.43
377.35	84.26
377.54	35.11
377.74	0.00
377.93	0.00
378.13	63.19
378.33	70.22
378.52	0.00
378.72	28.09
378.91	0.00
379.11	0.00
379.31	28.09
379.50	32.77
379.70	16.38
379.89	79.58
380.09	11.70
380.28	37.45
380.48	25.75
380.68	42.13
380.87	0.00
381.07	9.36
381.26	4.68
381.46	37.45
381.65	60.85
381.85	0.00
382.04	91.28
382.24	95.96
382.43	49.15
382.63	44.47
382.83	4.68
383.02	0.00
383.22	4.68
383.41	0.00
383.61	65.54
383.80	7.02
384.00	16.38
384.19	9.36
384.39	51.49
384.58	0.00
384.78	9.36
384.97	0.00
385.17	25.75
385.36	0.00
385.56	9.36
385.75	9.36
385.95	0.00
386.14	44.47
386.34	42.13
386.53	9.36
386.72	98.30
386.92	21.06
387.11	0.00
387.31	35.11
387.50	88.94
387.70	0.00
387.89	9.36
388.09	56.17
388.28	14.04
388.48	32.77
388.67	65.54
388.86	79.58
389.06	35.11
389.25	44.47
389.45	98.30
389.64	0.00
389.84	16.38
390.03	0.00
390.22	4.68
390.42	14.04
390.61	7.02
390.81	0.00
391.00	16.38
391.19	0.00
391.39	65.54
391.58	30.43
391.78	18.72
391.97	53.83
392.16	67.88
392.36	51.49
392.55	79.58
392.75	23.41
392.94	39.79
393.13	30.43
393.33	0.00
393.52	0.00
393.71	0.00
393.91	0.00
394.10	0.00
394.29	0.00
394.49	0.00
394.68	70.22
394.88	0.00
395.07	0.00
395.26	0.00
395.46	44.47
395.65	0.00
395.84	14.04
396.04	14.04
396.23	0.00
396.42	105.32
396.62	23.41
396.81	0.00
397.00	11.70
397.19	0.00
397.39	21.06
397.58	23.41
397.77	70.22
397.97	67.88
398.16	42.13
398.35	0.00
398.55	14.04
398.74	14.04
398.93	0.00
399.12	0.00
399.32	131.07
399.51	140.43
399.70	0.00
399.90	23.41
400.09	53.83
400.28	0.00
400.47	2.34
400.67	0.00
400.86	0.00
401.05	0.00
401.24	0.00
401.44	21.06
401.63	74.90
401.82	2.34
402.01	0.00
402.21	58.51
402.40	28.09
402.59	0.00
402.78	67.88
402.97	49.15
403.17	0.00
403.36	25.75
403.55	23.41
403.74	11.70
403.93	84.26
404.13	30.43
404.32	49.15
404.51	124.05
404.70	51.49
404.89	30.43
405.09	39.79
405.28	56.17
405.47	0.00
405.66	23.41
405.85	65.54
406.05	81.92
406.24	35.11
406.43	60.85
406.62	18.72
406.81	21.06
407.00	37.45
407.20	60.85
407.39	39.79
407.58	105.32
407.77	49.15
407.96	0.00
408.15	2.34
408.34	0.00
408.54	51.49
408.73	0.00
408.92	25.75
409.11	18.72
409.30	79.58
409.49	25.75
409.68	51.49
409.87	21.06
410.07	44.47
410.26	0.00
410.45	7.02
410.64	25.75
410.83	0.00
411.02	35.11
411.21	37.45
411.40	60.85
411.59	21.06
411.78	60.85
411.98	0.00
412.17	72.56
412.36	98.30
412.55	14.04
412.74	0.00
412.93	0.00
413.12	11.70
413.31	77.24
413.50	65.54
413.69	49.15
413.88	32.77
414.07	35.11
414.26	16.38
414.45	0.00
414.64	23.41
414.83	0.00
415.02	0.00
415.22	46.81
415.41	72.56
415.60	0.00
415.79	28.09
415.98	0.00
416.17	2.34
416.36	0.00
416.55	30.43
416.74	46.81
416.93	42.13
417.12	0.00
417.31	42.13
417.50	28.09
417.69	37.45
417.88	0.00
418.07	9.36
418.26	79.58
418.45	49.15
418.64	56.17
418.83	42.13
419.02	25.75
419.21	16.38
419.39	18.72
419.58	51.49
419.77	7.02
419.96	65.54
420.15	51.49
420.34	117.03
420.53	35.11
420.72	58.51
420.91	131.07
421.10	37.45
421.29	53.83
421.48	30.43
421.67	25.75
421.86	0.00
422.05	42.13
422.24	124.05
422.43	4.68
422.61	53.83
422.80	0.00
422.99	9.36
423.18	44.47
423.37	37.45
423.56	63.19
423.75	16.38
423.94	35.11
424.13	35.11
424.32	0.00
424.50	51.49
424.69	46.81
424.88	77.24
425.07	100.64
425.26	16.38
425.45	21.06
425.64	60.85
425.83	11.70
426.01	79.58
426.20	53.83
426.39	32.77
426.58	60.85
426.77	65.54
426.96	4.68
427.15	21.06
427.33	18.72
427.52	7.02
427.71	0.00
427.90	28.09
428.09	23.41
428.28	44.47
428.46	42.13
428.65	4.68
428.84	39.79
429.03	49.15
429.22	44.47
429.40	93.62
429.59	51.49
429.78	42.13
429.97	7.02
430.16	49.15
430.34	65.54
430.53	21.06
430.72	0.00
430.91	11.70
431.10	7.02
431.28	46.81
431.47	4.68
431.66	46.81
431.85	7.02
432.03	9.36
432.22	107.66
432.41	7.02
432.60	0.00
432.79	42.13
432.97	2.34
433.16	9.36
433.35	18.72
433.54	11.70
433.72	44.47
433.91	23.41
434.10	0.00
434.28	0.00
434.47	67.88
434.66	60.85
434.85	18.72
435.03	74.90
435.22	0.00
435.41	46.81
435.59	100.64
435.78	46.81
435.97	35.11
436.16	32.77
436.34	2.34
436.53	21.06
436.72	7.02
436.90	4.68
437.09	74.90
437.28	77.24
437.46	72.56
437.65	77.24
437.84	28.09
438.02	0.00
438.21	93.62
438.40	28.09
438.58	0.00
438.77	32.77
438.96	0.00
439.14	0.00
439.33	4.68
439.52	63.19
439.70	44.47
439.89	65.54
440.08	72.56
440.26	53.83
440.45	63.19
440.63	79.58
440.82	21.06
441.01	14.04
441.19	58.51
441.38	23.41
441.57	16.38
441.75	32.77
441.94	0.00
442.12	18.72
442.31	42.13
442.50	0.00
442.68	21.06
442.87	0.00
443.05	32.77
443.24	18.72
443.43	70.22
443.61	39.79
443.80	107.66
443.98	44.47
444.17	0.00
444.35	0.00
444.54	35.11
444.73	0.00
444.91	56.17
445.10	30.43
445.28	0.00
445.47	46.81
445.65	9.36
445.84	2.34
446.02	25.75
446.21	0.00
446.39	9.36
446.58	0.00
446.77	25.75
446.95	91.28
447.14	65.54
447.32	21.06
447.51	74.90
447.69	72.56
447.88	100.64
448.06	0.00
448.25	79.58
448.43	0.00
448.62	0.00
448.80	0.00
448.99	16.38
449.17	18.72
449.36	7.02
449.54	23.41
449.73	21.06
449.91	74.90
450.10	56.17
450.28	11.70
450.46	100.64
450.65	42.13
450.83	42.13
451.02	98.30
451.20	9.36
451.39	51.49
451.57	65.54
451.76	0.00
451.94	32.77
452.13	0.00
452.31	30.43
452.49	30.43
452.68	28.09
452.86	39.79
453.05	86.60
453.23	86.60
453.42	16.38
453.60	0.00
453.78	0.00
453.97	67.88
454.15	4.68
454.34	14.04
454.52	79.58
454.70	51.49
454.89	0.00
455.07	53.83
455.26	44.47
455.44	0.00
455.62	25.75
455.81	39.79
455.99	39.79
456.17	0.00
456.36	37.45
456.54	11.70
456.73	44.47
456.91	9.36
457.09	11.70
457.28	0.00
457.46	86.60
457.64	18.72
457.83	25.75
458.01	30.43
458.19	25.75
458.38	0.00
458.56	0.00
458.74	35.11
458.93	56.17
459.11	28.09
459.29	0.00
459.48	42.13
459.66	14.04
459.84	35.11
460.03	18.72
460.21	51.49
460.39	63.19
460.57	42.13
460.76	74.90
460.94	0.00
461.12	16.38
461.31	42.13
461.49	18.72
461.67	49.15
461.85	51.49
462.04	18.72
462.22	0.00
462.40	70.22
462.59	44.47
462.77	56.17
462.95	35.11
463.13	32.77
463.32	46.81
463.50	126.39
463.68	53.83
463.86	37.45
464.05	18.72
464.23	65.54
464.41	0.00
464.59	67.88
464.78	84.26
464.96	28.09
465.14	46.81
465.32	2.34
465.50	0.00
465.69	49.15
465.87	42.13
466.05	49.15
466.23	51.49
466.41	81.92
466.60	46.81
466.78	0.00
466.96	65.54
467.14	100.64
467.32	49.15
467.51	39.79
467.69	18.72
467.87	0.00
468.05	23.41
468.23	67.88
468.41	63.19
468.60	138.09
468.78	14.04
468.96	37.45
469.14	70.22
469.32	0.00
469.50	58.51
469.69	44.47
469.87	0.00
470.05	0.00
470.23	11.70
470.41	44.47
470.59	79.58
470.77	98.30
470.95	9.36
471.14	28.09
471.32	32.77
471.50	9.36
471.68	11.70
471.86	44.47
472.04	98.30
472.22	28.09
472.40	4.68
472.58	70.22
472.77	25.75
472.95	70.22
473.13	23.41
473.31	32.77
473.49	37.45
473.67	16.38
473.85	0.00
474.03	11.70
474.21	32.77
474.39	0.00
474.57	77.24
474.75	0.00
474.93	74.90
475.12	0.00
475.30	0.00
475.48	30.43
475.66	44.47
475.84	7.02
476.02	44.47
476.20	53.83
476.38	23.41
476.56	32.77
476.74	9.36
476.92	23.41
477.10	14.04
477.28	28.09
477.46	23.41
477.64	28.09
477.82	0.00
478.00	53.83
478.18	18.72
478.36	72.56
478.54	77.24
478.72	16.38
478.90	49.15
479.08	44.47
479.26	14.04
479.44	42.13
479.62	98.30
479.80	102.98
479.98	42.13
480.16	35.11
480.34	39.79
480.52	18.72
480.70	58.51
480.88	100.64
481.06	4.68
481.24	53.83
481.41	0.00
481.59	25.75
481.77	35.11
481.95	23.41
482.13	67.88
482.31	4.68
482.49	0.00
482.67	14.04
482.85	42.13
483.03	18.72
483.21	0.00
483.39	23.41
483.57	2.34
483.74	79.58
483.92	49.15
484.10	42.13
484.28	21.06
484.46	18.72
484.64	11.70
484.82	72.56
485.00	42.13
485.18	23.41
485.35	49.15
485.53	0.00
485.71	81.92
485.89	74.90
486.07	16.38
486.25	0.00
486.43	51.49
486.61	77.24
486.78	42.13
486.96	0.00
487.14	37.45
487.32	49.15
487.50	39.79
487.68	35.11
487.85	16.38
488.03	11.70
488.21	93.62
488.39	0.00
488.57	37.45
488.75	51.49
488.92	70.22
489.10	18.72
489.28	145.11
489.46	39.79
489.64	0.00
489.81	53.83
489.99	0.00
490.17	46.81
490.35	0.00
490.53	0.00
490.70	0.00
490.88	21.06
491.06	60.85
491.24	0.00
491.41	70.22
491.59	18.72
491.77	42.13
491.95	25.75
492.13	0.00
492.30	32.77
492.48	81.92
492.66	81.92
492.84	25.75
493.01	21.06
493.19	0.00
493.37	84.26
493.54	88.94
493.72	63.19
493.90	28.09
494.08	51.49
494.25	49.15
494.43	74.90
494.61	49.15
494.79	23.41
494.96	18.72
495.14	63.19
495.32	0.00
495.49	16.38
495.67	63.19
495.85	14.04
496.02	100.64
496.20	0.00
496.38	16.38
496.55	51.49
496.73	23.41
496.91	18.72
497.09	77.24
497.26	7.02
497.44	39.79
497.62	81.92
497.79	56.17
497.97	102.98
498.14	39.79
498.32	63.19
498.50	0.00
498.67	37.45
498.85	65.54
499.03	35.11
499.20	100.64
499.38	35.11
499.56	28.09
499.73	16.38
499.91	37.45
500.08	60.85
500.26	51.49
500.44	77.24
500.61	30.43
500.79	60.85
500.97	0.00
501.14	102.98
501.32	60.85
501.49	100.64
501.67	37.45
501.84	30.43
502.02	4.68
502.20	30.43
502.37	58.51
502.55	0.00
502.72	7.02
502.90	30.43
503.07	4.68
503.25	49.15
503.43	42.13
503.60	112.35
503.78	0.00
503.95	0.00
504.13	49.15
504.30	65.54
504.48	16.38
504.65	70.22
504.83	56.17
505.01	79.58
505.18	25.75
505.36	60.85
505.53	11.70
505.71	58.51
505.88	63.19
506.06	18.72
506.23	0.00
506.41	56.17
506.58	0.00
506.76	21.06
506.93	58.51
507.11	14.04
507.28	32.77
507.46	0.00
507.63	44.47
507.81	0.00
507.98	46.81
508.16	74.90
508.33	2.34
508.50	11.70
508.68	18.72
508.85	44.47
509.03	16.38
509.20	77.24
509.38	39.79
509.55	91.28
509.73	56.17
509.90	53.83
510.08	63.19
510.25	81.92
510.42	60.85
510.60	46.81
510.77	93.62
510.95	0.00
511.12	9.36
511.30	91.28
511.47	28.09
511.64	44.47
511.82	70.22
511.99	53.83
512.17	51.49
512.34	77.24
512.51	110.01
512.69	0.00
512.86	4.68
513.04	46.81
513.21	77.24
513.38	65.54
513.56	63.19
513.73	0.00
513.90	49.15
514.08	70.22
514.25	7.02
514.43	0.00
514.60	35.11
514.77	95.96
514.95	49.15
515.12	95.96
515.29	42.13
515.47	9.36
515.64	16.38
515.81	0.00
515.99	35.11
516.16	0.00
516.33	81.92
516.51	51.49
516.68	53.83
516.85	44.47
517.03	11.70
517.20	21.06
517.37	58.51
517.54	95.96
517.72	51.49
517.89	44.47
518.06	35.11
518.24	72.56
518.41	88.94
518.58	0.00
518.75	0.00
518.93	37.45
519.10	81.92
519.27	30.43
519.45	46.81
519.62	21.06
519.79	2.34
519.96	35.11
520.14	0.00
520.31	28.09
520.48	70.22
520.65	42.13
520.83	32.77
521.00	65.54
521.17	39.79
521.34	63.19
521.52	42.13
521.69	56.17
521.86	46.81
522.03	0.00
522.20	0.00
522.38	42.13
522.55	98.30
522.72	16.38
522.89	58.51
523.07	81.92
523.24	63.19
523.41	53.83
523.58	0.00
523.75	53.83
523.92	35.11
524.10	42.13
524.27	42.13
524.44	49.15
524.61	46.81
524.78	42.13
524.96	18.72
525.13	70.22
525.30	81.92
525.47	60.85
525.64	28.09
525.81	18.72
525.98	53.83
526.16	72.56
526.33	11.70
526.50	0.00
526.67	74.90
526.84	37.45
527.01	88.94
527.18	16.38
527.36	21.06
527.53	44.47
527.70	39.79
527.87	28.09
528.04	42.13
528.21	107.66
528.38	110.01
528.55	84.26
528.72	0.00
528.89	70.22
529.07	0.00
529.24	18.72
529.41	32.77
529.58	7.02
529.75	93.62
529.92	46.81
530.09	0.00
530.26	23.41
530.43	49.15
530.60	128.73
530.77	9.36
530.94	81.92
531.11	63.19
531.28	58.51
531.46	67.88
531.63	32.77
531.80	77.24
531.97	14.04
532.14	23.41
532.31	0.00
532.48	100.64
532.65	30.43
532.82	18.72
532.99	72.56
533.16	0.00
533.33	30.43
533.50	21.06
533.67	56.17
533.84	42.13
534.01	32.77
534.18	0.00
534.35	37.45
534.52	32.77
534.69	56.17
534.86	128.73
535.03	7.02
535.20	4.68
535.37	46.81
535.54	0.00
535.71	39.79
535.88	72.56
536.05	107.66
536.22	0.00
536.38	37.45
536.55	25.75
536.72	35.11
536.89	0.00
537.06	112.35
537.23	98.30
537.40	53.83
537.57	32.77
537.74	0.00
537.91	25.75
538.08	74.90
538.25	86.60
538.42	7.02
538.59	0.00
538.75	42.13
538.92	117.03
539.09	16.38
539.26	9.36
539.43	98.30
539.60	32.77
539.77	114.69
539.94	126.39
540.11	39.79
540.28	49.15
540.44	0.00
540.61	46.81
540.78	86.60
540.95	14.04
541.12	93.62
541.29	28.09
541.46	18.72
541.62	58.51
541.79	77.24
541.96	65.54
542.13	28.09
542.30	42.13
542.47	51.49
542.63	67.88
542.80	16.38
542.97	2.34
543.14	77.24
543.31	60.85
543.48	46.81
543.64	28.09
543.81	42.13
543.98	37.45
544.15	65.54
544.32	46.81
544.48	23.41
544.65	102.98
544.82	14.04
544.99	53.83
545.16	35.11
545.32	53.83
545.49	14.04
545.66	25.75
545.83	30.43
546.00	0.00
546.16	39.79
546.33	77.24
546.50	95.96
546.67	140.43
546.83	23.41
547.00	18.72
547.17	7.02
547.34	35.11
547.50	65.54
547.67	65.54
547.84	63.19
548.00	42.13
548.17	88.94
548.34	23.41
548.51	28.09
548.67	84.26
548.84	0.00
549.01	23.41
549.18	81.92
549.34	81.92
549.51	0.00
549.68	18.72
549.84	65.54
550.01	39.79
550.18	0.00
550.34	53.83
550.51	9.36
550.68	63.19
550.84	7.02
551.01	88.94
551.18	0.00
551.34	56.17
551.51	9.36
551.68	70.22
551.84	98.30
552.01	32.77
552.18	35.11
552.34	46.81
552.51	16.38
552.68	4.68
552.84	81.92
553.01	0.00
553.18	51.49
553.34	21.06
553.51	81.92
553.67	105.32
553.84	32.77
554.01	0.00
554.17	42.13
554.34	0.00
554.51	9.36
554.67	14.04
554.84	0.00
555.00	102.98
555.17	79.58
555.33	86.60
555.50	110.01
555.67	100.64
555.83	39.79
556.00	35.11
556.16	0.00
556.33	46.81
556.50	60.85
556.66	28.09
556.83	81.92
556.99	0.00
557.16	56.17
557.32	23.41
557.49	46.81
557.65	46.81
557.82	23.41
557.98	42.13
558.15	44.47
558.32	0.00
558.48	32.77
558.65	74.90
558.81	49.15
558.98	60.85
559.14	0.00
559.31	0.00
559.47	35.11
559.64	49.15
559.80	51.49
559.97	42.13
560.13	0.00
560.30	65.54
560.46	77.24
560.63	77.24
560.79	63.19
560.96	86.60
561.12	0.00
561.29	79.58
561.45	56.17
561.61	14.04
561.78	14.04
561.94	67.88
562.11	53.83
562.27	28.09
562.44	25.75
562.60	95.96
562.77	42.13
562.93	0.00
563.10	0.00
563.26	4.68
563.42	0.00
563.59	16.38
563.75	79.58
563.92	79.58
564.08	0.00
564.24	65.54
564.41	86.60
564.57	49.15
564.74	0.00
564.90	14.04
565.07	49.15
565.23	4.68
565.39	56.17
565.56	39.79
565.72	72.56
565.88	79.58
566.05	100.64
566.21	72.56
566.38	93.62
566.54	42.13
566.70	44.47
566.87	0.00
567.03	60.85
567.19	35.11
567.36	9.36
567.52	4.68
567.68	14.04
567.85	44.47
568.01	25.75
568.17	0.00
568.34	32.77
568.50	18.72
568.66	23.41
568.83	35.11
568.99	9.36
569.15	63.19
569.32	56.17
569.48	70.22
569.64	16.38
569.81	86.60
569.97	0.00
570.13	58.51
570.30	0.00
570.46	53.83
570.62	37.45
570.78	79.58
570.95	35.11
571.11	58.51
571.27	81.92
571.43	51.49
571.60	95.96
571.76	70.22
571.92	86.60
572.09	51.49
572.25	77.24
572.41	42.13
572.57	91.28
572.74	35.11
572.90	0.00
573.06	0.00
573.22	72.56
573.38	56.17
573.55	49.15
573.71	37.45
573.87	86.60
574.03	0.00
574.20	77.24
574.36	37.45
574.52	58.51
574.68	21.06
574.84	63.19
575.01	25.75
575.17	58.51
575.33	4.68
575.49	74.90
575.65	0.00
575.82	23.41
575.98	102.98
576.14	16.38
576.30	60.85
576.46	56.17
576.62	4.68
576.79	4.68
576.95	32.77
577.11	23.41
577.27	53.83
577.43	119.37
577.59	63.19
577.75	0.00
577.92	56.17
578.08	60.85
578.24	51.49
578.40	4.68
578.56	58.51
578.72	95.96
578.88	51.49
579.04	58.51
579.21	18.72
579.37	70.22
579.53	95.96
579.69	74.90
579.85	51.49
580.01	0.00
580.17	23.41
580.33	37.45
580.49	9.36
580.65	0.00
580.82	51.49
580.98	25.75
581.14	30.43
581.30	91.28
581.46	28.09
581.62	30.43
581.78	77.24
581.94	42.13
582.10	138.09
582.26	84.26
582.42	58.51
582.58	65.54
582.74	74.90
582.90	51.49
583.06	49.15
583.22	42.13
583.38	74.90
583.54	28.09
583.70	32.77
583.86	4.68
584.02	46.81
584.18	63.19
584.34	2.34
584.50	189.58
584.66	1373.89
584.82	2925.67
584.98	4098.28
585.14	3522.51
585.30	2253.94
585.46	1486.24
585.62	933.87
585.78	505.56
585.94	198.95
586.10	149.79
586.26	102.98
586.42	9.36
586.58	42.13
586.74	53.83
586.90	30.43
587.06	4.68
587.22	7.02
587.38	51.49
587.54	102.98
587.70	210.65
587.86	367.46
588.02	332.36
588.18	304.27
588.34	241.08
588.49	81.92
588.65	95.96
588.81	79.58
588.97	77.24
589.13	79.58
589.29	65.54
589.45	63.19
589.61	7.02
589.77	0.00
589.93	51.49
590.08	32.77
590.24	42.13
590.40	84.26
590.56	44.47
590.72	0.00
590.88	25.75
591.04	42.13
591.20	79.58
591.35	44.47
591.51	93.62
591.67	58.51
591.83	35.11
591.99	9.36
592.15	0.00
592.31	86.60
592.46	0.00
592.62	11.70
592.78	63.19
592.94	102.98
593.10	21.06
593.26	42.13
593.41	79.58
593.57	56.17
593.73	93.62
593.89	248.10
594.05	395.55
594.20	564.07
594.36	578.11
594.52	409.59
594.68	301.93
594.84	191.92
594.99	114.69
595.15	121.71
595.31	67.88
595.47	0.00
595.62	77.24
595.78	49.15
595.94	4.68
596.10	53.83
596.25	56.17
596.41	23.41
596.57	63.19
596.73	77.24
596.88	46.81
597.04	65.54
597.20	114.69
597.36	105.32
597.51	65.54
597.67	107.66
597.83	107.66
597.99	70.22
598.14	72.56
598.30	35.11
598.46	0.00
598.61	102.98
598.77	53.83
598.93	28.09
599.09	95.96
599.24	25.75
599.40	107.66
599.56	53.83
599.71	93.62
599.87	79.58
600.03	46.81
600.18	46.81
600.34	25.75
600.50	49.15
600.65	35.11
600.81	0.00
600.97	0.00
601.12	14.04
601.28	16.38
601.44	77.24
601.59	0.00
601.75	63.19
601.91	81.92
602.06	72.56
602.22	28.09
602.37	124.05
602.53	161.50
602.69	128.73
602.84	152.13
603.00	84.26
603.16	112.35
603.31	86.60
603.47	119.37
603.62	37.45
603.78	35.11
603.94	18.72
604.09	102.98
604.25	93.62
604.40	30.43
604.56	37.45
604.71	46.81
604.87	11.70
605.03	30.43
605.18	60.85
605.34	81.92
605.49	35.11
605.65	93.62
605.80	11.70
605.96	9.36
606.12	0.00
606.27	23.41
606.43	49.15
606.58	98.30
606.74	102.98
606.89	215.33
607.05	381.51
607.20	461.09
607.36	376.83
607.51	241.08
607.67	149.79
607.82	131.07
607.98	93.62
608.13	79.58
608.29	114.69
608.44	65.54
608.60	187.24
608.75	67.88
608.91	107.66
609.06	322.99
609.22	589.82
609.37	821.53
609.53	610.88
609.68	482.15
609.84	341.72
609.99	184.90
610.15	227.03
610.30	117.03
610.46	56.17
610.61	28.09
610.76	0.00
610.92	16.38
611.07	0.00
611.23	77.24
611.38	49.15
611.54	105.32
611.69	135.75
611.84	117.03
612.00	67.88
612.15	117.03
612.31	0.00
612.46	60.85
612.62	16.38
612.77	117.03
612.92	58.51
613.08	65.54
613.23	81.92
613.39	65.54
613.54	110.01
613.69	386.19
613.85	767.70
614.00	1263.89
614.15	1306.02
614.31	926.85
614.46	592.16
614.62	447.04
614.77	276.18
614.92	107.66
615.08	0.00
615.23	79.58
615.38	30.43
615.54	0.00
615.69	133.41
615.84	220.01
616.00	175.54
616.15	351.08
616.30	330.02
616.46	201.29
616.61	140.43
616.76	105.32
616.92	121.71
617.07	107.66
617.22	53.83
617.37	93.62
617.53	74.90
617.68	44.47
617.83	60.85
617.99	46.81
618.14	65.54
618.29	18.72
618.45	35.11
618.60	49.15
618.75	86.60
618.90	32.77
619.06	0.00
619.21	0.00
619.36	46.81
619.51	53.83
619.67	0.00
619.82	25.75
619.97	35.11
620.12	70.22
620.28	49.15
620.43	11.70
620.58	0.00
620.73	100.64
620.89	25.75
621.04	131.07
621.19	105.32
621.34	220.01
621.49	187.24
621.65	182.56
621.80	145.11
621.95	145.11
622.10	46.81
622.25	30.43
622.41	30.43
622.56	51.49
622.71	49.15
622.86	93.62
623.01	79.58
623.16	0.00
623.32	46.81
623.47	65.54
623.62	44.47
623.77	21.06
623.92	0.00
624.07	0.00
624.23	4.68
624.38	18.72
624.53	0.00
624.68	81.92
624.83	23.41
624.98	112.35
625.13	70.22
625.29	16.38
625.44	32.77
625.59	0.00
625.74	91.28
625.89	124.05
626.04	128.73
626.19	390.87
626.34	617.90
626.49	688.12
626.65	526.62
626.80	337.04
626.95	259.80
627.10	88.94
627.25	67.88
627.40	25.75
627.55	60.85
627.70	81.92
627.85	35.11
628.00	39.79
628.15	16.38
628.30	11.70
628.45	53.83
628.60	72.56
628.76	46.81
628.91	39.79
629.06	46.81
629.21	0.00
629.36	35.11
629.51	23.41
629.66	88.94
629.81	56.17
629.96	58.51
630.11	168.52
630.26	161.50
630.41	147.45
630.56	86.60
630.71	135.75
630.86	70.22
631.01	93.62
631.16	119.37
631.31	119.37
631.46	56.17
631.61	30.43
631.76	72.56
631.91	39.79
632.06	53.83
632.21	56.17
632.36	51.49
632.51	16.38
632.66	135.75
632.81	138.09
632.96	229.37
633.10	332.36
633.25	470.45
633.40	327.68
633.55	259.80
633.70	177.88
633.85	159.16
634.00	60.85
634.15	23.41
634.30	25.75
634.45	0.00
634.60	77.24
634.75	14.04
634.90	119.37
635.05	16.38
635.19	14.04
635.34	0.00
635.49	60.85
635.64	93.62
635.79	11.70
635.94	28.09
636.09	56.17
636.24	91.28
636.39	0.00
636.53	72.56
636.68	0.00
636.83	35.11
636.98	0.00
637.13	49.15
637.28	35.11
637.43	30.43
637.57	0.00
637.72	212.99
637.87	400.23
638.02	779.40
638.17	861.32
638.32	643.65
638.46	407.25
638.61	297.25
638.76	194.26
638.91	105.32
639.06	37.45
639.20	0.00
639.35	58.51
639.50	65.54
639.65	257.46
639.80	781.74
639.94	1163.25
640.09	1294.32
640.24	936.21
640.39	634.29
640.54	423.64
640.68	355.76
640.83	163.84
640.98	28.09
641.13	42.13
641.27	93.62
641.42	32.77
641.57	14.04
641.72	65.54
641.86	21.06
642.01	0.00
642.16	63.19
642.31	0.00
642.45	159.16
642.60	7.02
642.75	46.81
642.90	25.75
643.04	44.47
643.19	11.70
643.34	4.68
643.48	121.71
643.63	65.54
643.78	21.06
643.93	30.43
644.07	81.92
644.22	9.36
644.37	37.45
644.51	0.00
644.66	0.00
644.81	37.45
644.95	0.00
645.10	56.17
645.25	7.02
645.39	35.11
645.54	81.92
645.69	72.56
645.83	30.43
645.98	21.06
646.13	77.24
646.27	28.09
646.42	44.47
646.57	39.79
646.71	110.01
646.86	63.19
647.00	81.92
647.15	110.01
647.30	65.54
647.44	63.19
647.59	0.00
647.74	56.17
647.88	42.13
648.03	7.02
648.17	35.11
648.32	56.17
648.47	0.00
648.61	16.38
648.76	112.35
648.90	42.13
649.05	14.04
649.20	16.38
649.34	56.17
649.49	0.00
649.63	0.00
649.78	0.00
649.92	42.13
650.07	177.88
650.21	416.62
650.36	580.45
650.51	734.93
650.65	636.63
650.80	451.72
650.94	259.80
651.09	205.97
651.23	140.43
651.38	35.11
651.52	86.60
651.67	98.30
651.81	46.81
651.96	39.79
652.10	21.06
652.25	100.64
652.39	67.88
652.54	37.45
652.68	42.13
652.83	138.09
652.97	255.12
653.12	243.42
653.26	248.10
653.41	135.75
653.55	173.20
653.70	65.54
653.84	56.17
653.99	30.43
654.13	46.81
654.27	35.11
654.42	84.26
654.56	58.51
654.71	28.09
654.85	21.06
655.00	32.77
655.14	63.19
655.29	42.13
655.43	28.09
655.57	105.32
655.72	0.00
655.86	0.00
656.01	67.88
656.15	65.54
656.30	102.98
656.44	2.34
656.58	37.45
656.73	93.62
656.87	49.15
657.01	51.49
657.16	14.04
657.30	79.58
657.45	35.11
657.59	9.36
657.73	30.43
657.88	37.45
658.02	98.30
658.16	14.04
658.31	53.83
658.45	9.36
658.60	72.56
658.74	35.11
658.88	70.22
659.03	9.36
659.17	39.79
659.31	67.88
659.46	201.29
659.60	318.31
659.74	308.95
659.89	306.61
660.03	194.26
660.17	182.56
660.32	147.45
660.46	51.49
660.60	77.24
660.74	107.66
660.89	0.00
661.03	0.00
661.17	0.00
661.32	0.00
661.46	42.13
661.60	53.83
661.74	4.68
661.89	0.00
662.03	18.72
662.17	9.36
662.31	14.04
662.46	0.00
662.60	16.38
662.74	18.72
662.88	0.00
663.03	107.66
663.17	60.85
663.31	21.06
663.45	0.00
663.60	46.81
663.74	14.04
663.88	0.00
664.02	32.77
664.17	88.94
664.31	11.70
664.45	0.00
664.59	49.15
664.73	30.43
664.88	28.09
665.02	58.51
665.16	30.43
665.30	84.26
665.44	21.06
665.59	25.75
665.73	30.43
665.87	28.09
666.01	7.02
666.15	35.11
666.29	11.70
666.44	0.00
666.58	9.36
666.72	0.00
666.86	0.00
667.00	28.09
667.14	30.43
667.28	131.07
667.43	308.95
667.57	475.13
667.71	566.41
667.85	491.51
667.99	379.17
668.13	234.05
668.27	166.18
668.41	156.82
668.56	65.54
668.70	51.49
668.84	23.41
668.98	4.68
669.12	0.00
669.26	56.17
669.40	35.11
669.54	11.70
669.68	23.41
669.82	7.02
669.96	53.83
670.10	88.94
670.25	21.06
670.39	0.00
670.53	49.15
670.67	46.81
670.81	105.32
670.95	93.62
671.09	72.56
671.23	131.07
671.37	278.52
671.51	374.49
671.65	383.85
671.79	330.02
671.93	257.46
672.07	138.09
672.21	46.81
672.35	119.37
672.49	77.24
672.63	145.11
672.77	0.00
672.91	51.49
673.05	0.00
673.19	74.90
673.33	0.00
673.47	0.00
673.61	0.00
673.75	0.00
673.89	0.00
674.03	0.00
674.17	18.72
674.31	30.43
674.45	32.77
674.59	18.72
674.73	56.17
674.87	56.17
675.01	28.09
675.15	7.02
675.29	84.26
675.43	72.56
675.56	18.72
675.70	72.56
675.84	0.00
675.98	37.45
676.12	35.11
676.26	0.00
676.40	14.04
676.54	0.00
676.68	35.11
676.82	2.34
676.96	37.45
677.10	56.17
677.23	32.77
677.37	4.68
677.51	14.04
677.65	30.43
677.79	0.00
677.93	91.28
678.07	51.49
678.21	74.90
678.34	21.06
678.48	0.00
678.62	44.47
678.76	25.75
678.90	44.47
679.04	7.02
679.18	18.72
679.31	32.77
679.45	79.58
679.59	60.85
679.73	0.00
679.87	0.00
680.00	0.00
680.14	0.00
680.28	0.00
680.42	0.00
680.56	21.06
680.70	105.32
680.83	32.77
680.97	51.49
681.11	0.00
681.25	35.11
681.39	0.00
681.52	44.47
681.66	81.92
681.80	49.15
681.94	39.79
682.07	51.49
682.21	37.45
682.35	18.72
682.49	0.00
682.62	23.41
682.76	72.56
682.90	16.38
683.04	100.64
683.17	79.58
683.31	25.75
683.45	70.22
683.59	35.11
683.72	0.00
683.86	21.06
684.00	0.00
684.13	0.00
684.27	0.00
684.41	63.19
684.55	23.41
684.68	39.79
684.82	21.06
684.96	14.04
685.09	63.19
685.23	0.00
685.37	2.34
685.50	0.00
685.64	21.06
685.78	81.92
685.91	18.72
686.05	2.34
686.19	65.54
686.32	16.38
686.46	4.68
686.60	37.45
686.73	46.81
686.87	65.54
687.01	11.70
687.14	25.75
687.28	46.81
687.42	51.49
687.55	14.04
687.69	0.00
687.82	42.13
687.96	4.68
688.10	0.00
688.23	9.36
688.37	79.58
688.50	37.45
688.64	35.11
688.78	0.00
688.91	74.90
689.05	35.11
689.18	21.06
689.32	9.36
689.46	2.34
689.59	23.41
689.73	39.79
689.86	81.92
690.00	14.04
690.13	121.71
690.27	35.11
690.41	0.00
690.54	65.54
690.68	11.70
690.81	72.56
690.95	28.09
691.08	28.09
691.22	42.13
691.35	0.00
691.49	0.00
691.62	67.88
691.76	4.68
691.89	49.15
692.03	0.00
692.16	32.77
692.30	9.36
692.43	65.54
692.57	142.77
692.70	229.37
692.84	287.89
692.97	271.50
693.11	180.22
693.24	81.92
693.38	119.37
693.51	60.85
693.65	105.32
693.78	128.73
693.92	0.00
694.05	4.68
694.19	39.79
694.32	44.47
694.45	58.51
694.59	102.98
694.72	93.62
694.86	65.54
694.99	0.00
695.13	63.19
695.26	56.17
695.39	70.22
695.53	60.85
695.66	7.02
695.80	35.11
695.93	56.17
696.07	79.58
696.20	67.88
696.33	23.41
696.47	39.79
696.60	77.24
696.73	11.70
696.87	49.15
697.00	37.45
697.14	56.17
697.27	0.00
697.40	30.43
697.54	0.00
697.67	0.00
697.80	11.70
697.94	44.47
698.07	16.38
698.21	65.54
698.34	25.75
698.47	0.00
698.61	16.38
698.74	2.34
698.87	49.15
699.01	28.09
699.14	9.36
699.27	56.17
699.40	77.24
699.54	56.17
699.67	30.43
699.80	53.83
699.94	4.68
700.07	9.36
700.20	25.75
700.34	51.49
700.47	77.24
700.60	63.19
700.73	51.49
700.87	4.68
701.00	0.00
701.13	0.00
701.26	37.45
701.40	56.17
701.53	25.75
701.66	0.00
701.79	74.90
701.93	84.26
702.06	105.32
702.19	100.64
702.32	84.26
702.46	44.47
702.59	84.26
702.72	79.58
702.85	205.97
702.99	355.76
703.12	472.79
703.25	512.58
703.38	353.42
703.51	351.08
703.65	236.39
703.78	170.86
703.91	114.69
704.04	159.16
704.17	70.22
704.31	39.79
704.44	49.15
704.57	79.58
704.70	35.11
704.83	65.54
704.96	53.83
705.10	46.81
705.23	95.96
>>>>>End Processed Spectral Data<<<<<
