SpectraSuite Data File
++++++++++++++++++++++++++++++++++++
Date: Fri Oct 04 12:13:31 GMT-05:00 2013
User: price-jones
Dark Spectrum Present: No
Reference Spectrum Present: No
Number of Sampled Component Spectra: 1
Spectrometers: USB2+H05261
Integration Time (usec): 10000 (USB2+H05261)
Spectra Averaged: 1 (USB2+H05261)
Boxcar Smoothing: 0 (USB2+H05261)
Correct for Electrical Dark: No (USB2+H05261)
Strobe/Lamp Enabled: No (USB2+H05261)
Correct for Detector Non-linearity: No (USB2+H05261)
Correct for Stray Light: No (USB2+H05261)
Number of Pixels in Processed Spectrum: 2048
>>>>>Begin Processed Spectral Data<<<<<
365.73	74.90
365.92	74.90
366.12	74.90
366.32	0.00
366.52	0.00
366.72	0.00
366.91	0.00
367.11	0.00
367.31	0.00
367.51	0.00
367.70	0.00
367.90	0.00
368.10	0.00
368.30	0.00
368.49	0.00
368.69	0.00
368.89	0.00
369.09	0.00
369.28	0.00
369.48	0.00
369.68	0.00
369.87	0.00
370.07	0.00
370.27	0.00
370.47	0.00
370.66	0.00
370.86	0.00
371.06	0.00
371.25	0.00
371.45	0.00
371.65	0.00
371.84	0.00
372.04	0.00
372.24	39.79
372.44	0.00
372.63	0.00
372.83	11.70
373.03	39.79
373.22	39.79
373.42	51.49
373.62	58.51
373.81	60.85
374.01	49.15
374.21	86.60
374.40	46.81
374.60	65.54
374.79	67.88
374.99	28.09
375.19	79.58
375.38	86.60
375.58	30.43
375.78	102.98
375.97	16.38
376.17	51.49
376.37	88.94
376.56	2.34
376.76	9.36
376.95	0.00
377.15	14.04
377.35	30.43
377.54	9.36
377.74	67.88
377.93	74.90
378.13	0.00
378.33	0.00
378.52	14.04
378.72	7.02
378.91	23.41
379.11	39.79
379.31	84.26
379.50	49.15
379.70	9.36
379.89	0.00
380.09	0.00
380.28	0.00
380.48	42.13
380.68	0.00
380.87	0.00
381.07	18.72
381.26	28.09
381.46	14.04
381.65	0.00
381.85	2.34
382.04	21.06
382.24	28.09
382.43	11.70
382.63	7.02
382.83	4.68
383.02	0.00
383.22	0.00
383.41	28.09
383.61	0.00
383.80	58.51
384.00	84.26
384.19	9.36
384.39	35.11
384.58	0.00
384.78	16.38
384.97	0.00
385.17	121.71
385.36	0.00
385.56	30.43
385.75	9.36
385.95	4.68
386.14	0.00
386.34	28.09
386.53	0.00
386.72	0.00
386.92	74.90
387.11	0.00
387.31	0.00
387.50	81.92
387.70	53.83
387.89	0.00
388.09	0.00
388.28	7.02
388.48	0.00
388.67	0.00
388.86	25.75
389.06	0.00
389.25	0.00
389.45	2.34
389.64	9.36
389.84	0.00
390.03	0.00
390.22	0.00
390.42	0.00
390.61	79.58
390.81	18.72
391.00	16.38
391.19	84.26
391.39	0.00
391.58	25.75
391.78	4.68
391.97	28.09
392.16	23.41
392.36	0.00
392.55	49.15
392.75	56.17
392.94	35.11
393.13	23.41
393.33	37.45
393.52	30.43
393.71	21.06
393.91	18.72
394.10	28.09
394.29	16.38
394.49	35.11
394.68	25.75
394.88	7.02
395.07	21.06
395.26	37.45
395.46	84.26
395.65	91.28
395.84	4.68
396.04	28.09
396.23	42.13
396.42	21.06
396.62	74.90
396.81	21.06
397.00	60.85
397.19	117.03
397.39	67.88
397.58	53.83
397.77	42.13
397.97	0.00
398.16	74.90
398.35	63.19
398.55	86.60
398.74	56.17
398.93	7.02
399.12	32.77
399.32	9.36
399.51	0.00
399.70	0.00
399.90	21.06
400.09	35.11
400.28	37.45
400.47	0.00
400.67	70.22
400.86	0.00
401.05	51.49
401.24	39.79
401.44	0.00
401.63	0.00
401.82	58.51
402.01	0.00
402.21	0.00
402.40	0.00
402.59	37.45
402.78	51.49
402.97	14.04
403.17	39.79
403.36	32.77
403.55	49.15
403.74	14.04
403.93	44.47
404.13	93.62
404.32	58.51
404.51	23.41
404.70	25.75
404.89	39.79
405.09	23.41
405.28	0.00
405.47	16.38
405.66	77.24
405.85	102.98
406.05	51.49
406.24	65.54
406.43	93.62
406.62	0.00
406.81	0.00
407.00	0.00
407.20	102.98
407.39	0.00
407.58	72.56
407.77	25.75
407.96	42.13
408.15	0.00
408.34	0.00
408.54	37.45
408.73	58.51
408.92	0.00
409.11	77.24
409.30	46.81
409.49	58.51
409.68	32.77
409.87	46.81
410.07	23.41
410.26	2.34
410.45	39.79
410.64	28.09
410.83	93.62
411.02	35.11
411.21	9.36
411.40	42.13
411.59	0.00
411.78	25.75
411.98	11.70
412.17	11.70
412.36	51.49
412.55	114.69
412.74	0.00
412.93	16.38
413.12	46.81
413.31	37.45
413.50	37.45
413.69	0.00
413.88	67.88
414.07	49.15
414.26	81.92
414.45	77.24
414.64	95.96
414.83	0.00
415.02	18.72
415.22	0.00
415.41	65.54
415.60	107.66
415.79	0.00
415.98	42.13
416.17	77.24
416.36	14.04
416.55	28.09
416.74	23.41
416.93	0.00
417.12	21.06
417.31	0.00
417.50	0.00
417.69	49.15
417.88	28.09
418.07	21.06
418.26	25.75
418.45	30.43
418.64	18.72
418.83	0.00
419.02	0.00
419.21	53.83
419.39	86.60
419.58	35.11
419.77	11.70
419.96	49.15
420.15	0.00
420.34	0.00
420.53	0.00
420.72	60.85
420.91	53.83
421.10	18.72
421.29	23.41
421.48	18.72
421.67	37.45
421.86	88.94
422.05	0.00
422.24	21.06
422.43	9.36
422.61	0.00
422.80	65.54
422.99	39.79
423.18	7.02
423.37	0.00
423.56	114.69
423.75	110.01
423.94	14.04
424.13	32.77
424.32	23.41
424.50	4.68
424.69	0.00
424.88	63.19
425.07	114.69
425.26	39.79
425.45	39.79
425.64	42.13
425.83	32.77
426.01	58.51
426.20	18.72
426.39	25.75
426.58	0.00
426.77	0.00
426.96	60.85
427.15	0.00
427.33	4.68
427.52	2.34
427.71	88.94
427.90	0.00
428.09	100.64
428.28	9.36
428.46	30.43
428.65	32.77
428.84	23.41
429.03	67.88
429.22	51.49
429.40	4.68
429.59	0.00
429.78	23.41
429.97	42.13
430.16	9.36
430.34	58.51
430.53	11.70
430.72	49.15
430.91	95.96
431.10	67.88
431.28	63.19
431.47	63.19
431.66	70.22
431.85	18.72
432.03	35.11
432.22	0.00
432.41	23.41
432.60	25.75
432.79	9.36
432.97	98.30
433.16	65.54
433.35	37.45
433.54	16.38
433.72	25.75
433.91	0.00
434.10	39.79
434.28	0.00
434.47	0.00
434.66	35.11
434.85	70.22
435.03	72.56
435.22	79.58
435.41	58.51
435.59	9.36
435.78	23.41
435.97	51.49
436.16	51.49
436.34	37.45
436.53	28.09
436.72	0.00
436.90	0.00
437.09	39.79
437.28	53.83
437.46	67.88
437.65	0.00
437.84	0.00
438.02	88.94
438.21	46.81
438.40	7.02
438.58	25.75
438.77	4.68
438.96	0.00
439.14	0.00
439.33	32.77
439.52	32.77
439.70	21.06
439.89	84.26
440.08	67.88
440.26	35.11
440.45	25.75
440.63	7.02
440.82	18.72
441.01	25.75
441.19	131.07
441.38	67.88
441.57	53.83
441.75	91.28
441.94	18.72
442.12	37.45
442.31	0.00
442.50	0.00
442.68	42.13
442.87	2.34
443.05	14.04
443.24	60.85
443.43	0.00
443.61	4.68
443.80	39.79
443.98	23.41
444.17	88.94
444.35	74.90
444.54	25.75
444.73	0.00
444.91	0.00
445.10	67.88
445.28	0.00
445.47	53.83
445.65	60.85
445.84	4.68
446.02	44.47
446.21	53.83
446.39	44.47
446.58	18.72
446.77	105.32
446.95	9.36
447.14	21.06
447.32	2.34
447.51	0.00
447.69	60.85
447.88	16.38
448.06	16.38
448.25	77.24
448.43	51.49
448.62	0.00
448.80	37.45
448.99	91.28
449.17	23.41
449.36	23.41
449.54	63.19
449.73	58.51
449.91	16.38
450.10	2.34
450.28	44.47
450.46	0.00
450.65	0.00
450.83	30.43
451.02	23.41
451.20	91.28
451.39	93.62
451.57	72.56
451.76	0.00
451.94	16.38
452.13	58.51
452.31	0.00
452.49	128.73
452.68	0.00
452.86	32.77
453.05	49.15
453.23	49.15
453.42	0.00
453.60	32.77
453.78	18.72
453.97	21.06
454.15	65.54
454.34	21.06
454.52	49.15
454.70	11.70
454.89	32.77
455.07	67.88
455.26	14.04
455.44	25.75
455.62	25.75
455.81	56.17
455.99	18.72
456.17	84.26
456.36	9.36
456.54	51.49
456.73	28.09
456.91	0.00
457.09	81.92
457.28	4.68
457.46	18.72
457.64	93.62
457.83	117.03
458.01	0.00
458.19	11.70
458.38	0.00
458.56	0.00
458.74	63.19
458.93	28.09
459.11	0.00
459.29	81.92
459.48	49.15
459.66	70.22
459.84	2.34
460.03	95.96
460.21	91.28
460.39	79.58
460.57	21.06
460.76	0.00
460.94	32.77
461.12	0.00
461.31	46.81
461.49	58.51
461.67	51.49
461.85	39.79
462.04	0.00
462.22	72.56
462.40	9.36
462.59	23.41
462.77	72.56
462.95	51.49
463.13	58.51
463.32	32.77
463.50	0.00
463.68	32.77
463.86	49.15
464.05	63.19
464.23	0.00
464.41	28.09
464.59	35.11
464.78	0.00
464.96	35.11
465.14	4.68
465.32	95.96
465.50	44.47
465.69	0.00
465.87	2.34
466.05	25.75
466.23	14.04
466.41	7.02
466.60	32.77
466.78	60.85
466.96	42.13
467.14	86.60
467.32	32.77
467.51	112.35
467.69	98.30
467.87	35.11
468.05	0.00
468.23	44.47
468.41	32.77
468.60	0.00
468.78	67.88
468.96	2.34
469.14	67.88
469.32	16.38
469.50	28.09
469.69	9.36
469.87	11.70
470.05	70.22
470.23	0.00
470.41	46.81
470.59	0.00
470.77	44.47
470.95	4.68
471.14	51.49
471.32	72.56
471.50	0.00
471.68	93.62
471.86	53.83
472.04	30.43
472.22	0.00
472.40	21.06
472.58	37.45
472.77	7.02
472.95	0.00
473.13	32.77
473.31	77.24
473.49	42.13
473.67	98.30
473.85	70.22
474.03	49.15
474.21	117.03
474.39	11.70
474.57	16.38
474.75	51.49
474.93	0.00
475.12	16.38
475.30	93.62
475.48	0.00
475.66	9.36
475.84	131.07
476.02	51.49
476.20	0.00
476.38	60.85
476.56	32.77
476.74	0.00
476.92	0.00
477.10	0.00
477.28	30.43
477.46	44.47
477.64	2.34
477.82	0.00
478.00	0.00
478.18	2.34
478.36	88.94
478.54	0.00
478.72	37.45
478.90	0.00
479.08	51.49
479.26	110.01
479.44	18.72
479.62	0.00
479.80	0.00
479.98	0.00
480.16	0.00
480.34	0.00
480.52	0.00
480.70	70.22
480.88	30.43
481.06	0.00
481.24	70.22
481.41	0.00
481.59	102.98
481.77	65.54
481.95	11.70
482.13	0.00
482.31	0.00
482.49	53.83
482.67	79.58
482.85	0.00
483.03	32.77
483.21	39.79
483.39	100.64
483.57	140.43
483.74	16.38
483.92	30.43
484.10	84.26
484.28	84.26
484.46	107.66
484.64	67.88
484.82	46.81
485.00	2.34
485.18	84.26
485.35	102.98
485.53	46.81
485.71	72.56
485.89	0.00
486.07	21.06
486.25	72.56
486.43	44.47
486.61	67.88
486.78	72.56
486.96	37.45
487.14	0.00
487.32	81.92
487.50	16.38
487.68	0.00
487.85	16.38
488.03	0.00
488.21	7.02
488.39	46.81
488.57	0.00
488.75	77.24
488.92	44.47
489.10	46.81
489.28	63.19
489.46	7.02
489.64	42.13
489.81	95.96
489.99	42.13
490.17	53.83
490.35	63.19
490.53	91.28
490.70	67.88
490.88	16.38
491.06	88.94
491.24	77.24
491.41	37.45
491.59	0.00
491.77	91.28
491.95	70.22
492.13	42.13
492.30	32.77
492.48	16.38
492.66	44.47
492.84	0.00
493.01	67.88
493.19	72.56
493.37	51.49
493.54	77.24
493.72	84.26
493.90	0.00
494.08	0.00
494.25	95.96
494.43	81.92
494.61	44.47
494.79	21.06
494.96	0.00
495.14	67.88
495.32	42.13
495.49	23.41
495.67	18.72
495.85	42.13
496.02	91.28
496.20	91.28
496.38	49.15
496.55	32.77
496.73	100.64
496.91	42.13
497.09	65.54
497.26	0.00
497.44	7.02
497.62	25.75
497.79	44.47
497.97	0.00
498.14	0.00
498.32	0.00
498.50	91.28
498.67	63.19
498.85	44.47
499.03	72.56
499.20	51.49
499.38	37.45
499.56	88.94
499.73	88.94
499.91	32.77
500.08	91.28
500.26	58.51
500.44	25.75
500.61	39.79
500.79	30.43
500.97	14.04
501.14	35.11
501.32	100.64
501.49	105.32
501.67	11.70
501.84	0.00
502.02	77.24
502.20	72.56
502.37	49.15
502.55	67.88
502.72	7.02
502.90	0.00
503.07	53.83
503.25	84.26
503.43	2.34
503.60	79.58
503.78	63.19
503.95	39.79
504.13	32.77
504.30	39.79
504.48	56.17
504.65	18.72
504.83	65.54
505.01	58.51
505.18	0.00
505.36	25.75
505.53	44.47
505.71	77.24
505.88	16.38
506.06	56.17
506.23	21.06
506.41	28.09
506.58	74.90
506.76	67.88
506.93	58.51
507.11	18.72
507.28	4.68
507.46	98.30
507.63	49.15
507.81	0.00
507.98	58.51
508.16	30.43
508.33	25.75
508.50	18.72
508.68	32.77
508.85	0.00
509.03	110.01
509.20	56.17
509.38	42.13
509.55	18.72
509.73	25.75
509.90	58.51
510.08	53.83
510.25	98.30
510.42	81.92
510.60	23.41
510.77	42.13
510.95	39.79
511.12	56.17
511.30	63.19
511.47	30.43
511.64	81.92
511.82	0.00
511.99	35.11
512.17	4.68
512.34	107.66
512.51	95.96
512.69	0.00
512.86	0.00
513.04	46.81
513.21	11.70
513.38	46.81
513.56	37.45
513.73	37.45
513.90	0.00
514.08	35.11
514.25	0.00
514.43	42.13
514.60	7.02
514.77	77.24
514.95	39.79
515.12	112.35
515.29	0.00
515.47	0.00
515.64	114.69
515.81	77.24
515.99	7.02
516.16	60.85
516.33	0.00
516.51	58.51
516.68	0.00
516.85	51.49
517.03	70.22
517.20	0.00
517.37	77.24
517.54	65.54
517.72	18.72
517.89	28.09
518.06	35.11
518.24	51.49
518.41	18.72
518.58	53.83
518.75	39.79
518.93	30.43
519.10	0.00
519.27	9.36
519.45	23.41
519.62	9.36
519.79	70.22
519.96	42.13
520.14	65.54
520.31	56.17
520.48	0.00
520.65	21.06
520.83	32.77
521.00	39.79
521.17	35.11
521.34	2.34
521.52	88.94
521.69	23.41
521.86	44.47
522.03	140.43
522.20	46.81
522.38	0.00
522.55	46.81
522.72	14.04
522.89	16.38
523.07	37.45
523.24	32.77
523.41	35.11
523.58	37.45
523.75	0.00
523.92	107.66
524.10	84.26
524.27	39.79
524.44	65.54
524.61	79.58
524.78	0.00
524.96	72.56
525.13	56.17
525.30	81.92
525.47	91.28
525.64	53.83
525.81	44.47
525.98	25.75
526.16	49.15
526.33	93.62
526.50	0.00
526.67	79.58
526.84	67.88
527.01	0.00
527.18	77.24
527.36	81.92
527.53	39.79
527.70	70.22
527.87	42.13
528.04	74.90
528.21	112.35
528.38	60.85
528.55	46.81
528.72	67.88
528.89	63.19
529.07	42.13
529.24	110.01
529.41	93.62
529.58	0.00
529.75	67.88
529.92	67.88
530.09	7.02
530.26	51.49
530.43	60.85
530.60	18.72
530.77	105.32
530.94	86.60
531.11	16.38
531.28	0.00
531.46	14.04
531.63	88.94
531.80	53.83
531.97	95.96
532.14	84.26
532.31	67.88
532.48	67.88
532.65	4.68
532.82	0.00
532.99	124.05
533.16	100.64
533.33	56.17
533.50	28.09
533.67	42.13
533.84	11.70
534.01	42.13
534.18	9.36
534.35	65.54
534.52	84.26
534.69	93.62
534.86	35.11
535.03	58.51
535.20	2.34
535.37	95.96
535.54	0.00
535.71	16.38
535.88	56.17
536.05	0.00
536.22	23.41
536.38	14.04
536.55	0.00
536.72	60.85
536.89	37.45
537.06	95.96
537.23	0.00
537.40	53.83
537.57	72.56
537.74	84.26
537.91	74.90
538.08	86.60
538.25	74.90
538.42	51.49
538.59	138.09
538.75	51.49
538.92	2.34
539.09	51.49
539.26	4.68
539.43	81.92
539.60	173.20
539.77	161.50
539.94	201.29
540.11	133.41
540.28	131.07
540.44	65.54
540.61	91.28
540.78	0.00
540.95	42.13
541.12	72.56
541.29	63.19
541.46	7.02
541.62	77.24
541.79	70.22
541.96	72.56
542.13	0.00
542.30	32.77
542.47	4.68
542.63	4.68
542.80	60.85
542.97	67.88
543.14	46.81
543.31	0.00
543.48	70.22
543.64	107.66
543.81	53.83
543.98	67.88
544.15	30.43
544.32	56.17
544.48	79.58
544.65	70.22
544.82	0.00
544.99	93.62
545.16	0.00
545.32	9.36
545.49	114.69
545.66	25.75
545.83	0.00
546.00	39.79
546.16	0.00
546.33	58.51
546.50	14.04
546.67	0.00
546.83	23.41
547.00	56.17
547.17	49.15
547.34	35.11
547.50	16.38
547.67	21.06
547.84	16.38
548.00	0.00
548.17	95.96
548.34	30.43
548.51	88.94
548.67	0.00
548.84	0.00
549.01	4.68
549.18	42.13
549.34	65.54
549.51	46.81
549.68	88.94
549.84	124.05
550.01	49.15
550.18	65.54
550.34	74.90
550.51	60.85
550.68	14.04
550.84	7.02
551.01	58.51
551.18	35.11
551.34	0.00
551.51	102.98
551.68	56.17
551.84	44.47
552.01	49.15
552.18	46.81
552.34	2.34
552.51	56.17
552.68	49.15
552.84	0.00
553.01	35.11
553.18	65.54
553.34	105.32
553.51	0.00
553.67	121.71
553.84	142.77
554.01	44.47
554.17	23.41
554.34	0.00
554.51	14.04
554.67	11.70
554.84	81.92
555.00	72.56
555.17	23.41
555.33	0.00
555.50	35.11
555.67	21.06
555.83	0.00
556.00	53.83
556.16	58.51
556.33	70.22
556.50	102.98
556.66	42.13
556.83	124.05
556.99	28.09
557.16	30.43
557.32	70.22
557.49	42.13
557.65	0.00
557.82	93.62
557.98	0.00
558.15	0.00
558.32	21.06
558.48	65.54
558.65	23.41
558.81	0.00
558.98	4.68
559.14	4.68
559.31	25.75
559.47	37.45
559.64	65.54
559.80	74.90
559.97	117.03
560.13	88.94
560.30	77.24
560.46	37.45
560.63	16.38
560.79	14.04
560.96	42.13
561.12	39.79
561.29	81.92
561.45	9.36
561.61	23.41
561.78	16.38
561.94	51.49
562.11	30.43
562.27	4.68
562.44	93.62
562.60	91.28
562.77	37.45
562.93	11.70
563.10	42.13
563.26	81.92
563.42	70.22
563.59	18.72
563.75	25.75
563.92	107.66
564.08	30.43
564.24	0.00
564.41	9.36
564.57	2.34
564.74	67.88
564.90	63.19
565.07	102.98
565.23	28.09
565.39	74.90
565.56	49.15
565.72	0.00
565.88	0.00
566.05	0.00
566.21	0.00
566.38	0.00
566.54	72.56
566.70	114.69
566.87	53.83
567.03	56.17
567.19	2.34
567.36	44.47
567.52	0.00
567.68	168.52
567.85	0.00
568.01	88.94
568.17	53.83
568.34	74.90
568.50	88.94
568.66	7.02
568.83	37.45
568.99	95.96
569.15	65.54
569.32	81.92
569.48	56.17
569.64	14.04
569.81	30.43
569.97	23.41
570.13	105.32
570.30	93.62
570.46	42.13
570.62	0.00
570.78	11.70
570.95	32.77
571.11	39.79
571.27	7.02
571.43	58.51
571.60	60.85
571.76	0.00
571.92	0.00
572.09	51.49
572.25	58.51
572.41	0.00
572.57	93.62
572.74	18.72
572.90	0.00
573.06	91.28
573.22	32.77
573.38	7.02
573.55	7.02
573.71	0.00
573.87	110.01
574.03	44.47
574.20	88.94
574.36	49.15
574.52	0.00
574.68	18.72
574.84	46.81
575.01	7.02
575.17	32.77
575.33	60.85
575.49	74.90
575.65	112.35
575.82	107.66
575.98	117.03
576.14	102.98
576.30	135.75
576.46	84.26
576.62	65.54
576.79	86.60
576.95	11.70
577.11	81.92
577.27	58.51
577.43	67.88
577.59	0.00
577.75	30.43
577.92	51.49
578.08	39.79
578.24	44.47
578.40	67.88
578.56	9.36
578.72	77.24
578.88	35.11
579.04	84.26
579.21	70.22
579.37	91.28
579.53	18.72
579.69	117.03
579.85	100.64
580.01	51.49
580.17	14.04
580.33	79.58
580.49	51.49
580.65	14.04
580.82	28.09
580.98	35.11
581.14	100.64
581.30	14.04
581.46	30.43
581.62	25.75
581.78	84.26
581.94	49.15
582.10	14.04
582.26	0.00
582.42	9.36
582.58	53.83
582.74	70.22
582.90	0.00
583.06	95.96
583.22	63.19
583.38	53.83
583.54	65.54
583.70	30.43
583.86	35.11
584.02	79.58
584.18	112.35
584.34	91.28
584.50	248.10
584.66	1778.81
584.82	4444.68
584.98	6986.50
585.14	6441.15
585.30	3978.91
585.46	2317.13
585.62	1474.54
585.78	713.86
585.94	358.10
586.10	140.43
586.26	63.19
586.42	65.54
586.58	51.49
586.74	49.15
586.90	58.51
587.06	140.43
587.22	63.19
587.38	56.17
587.54	140.43
587.70	241.08
587.86	451.72
588.02	561.73
588.18	425.98
588.34	320.65
588.49	177.88
588.65	53.83
588.81	28.09
588.97	81.92
589.13	107.66
589.29	39.79
589.45	88.94
589.61	84.26
589.77	42.13
589.93	21.06
590.08	42.13
590.24	95.96
590.40	84.26
590.56	84.26
590.72	0.00
590.88	42.13
591.04	93.62
591.20	110.01
591.35	98.30
591.51	9.36
591.67	25.75
591.83	84.26
591.99	72.56
592.15	30.43
592.31	84.26
592.46	72.56
592.62	49.15
592.78	0.00
592.94	65.54
593.10	79.58
593.26	0.00
593.41	35.11
593.57	63.19
593.73	93.62
593.89	287.89
594.05	624.92
594.20	957.28
594.36	961.96
594.52	566.41
594.68	407.25
594.84	238.73
594.99	95.96
595.15	124.05
595.31	60.85
595.47	65.54
595.62	46.81
595.78	2.34
595.94	42.13
596.10	0.00
596.25	28.09
596.41	4.68
596.57	39.79
596.73	58.51
596.88	65.54
597.04	159.16
597.20	154.48
597.36	297.25
597.51	182.56
597.67	163.84
597.83	159.16
597.99	39.79
598.14	91.28
598.30	49.15
598.46	0.00
598.61	72.56
598.77	70.22
598.93	77.24
599.09	53.83
599.24	18.72
599.40	58.51
599.56	67.88
599.71	65.54
599.87	63.19
600.03	91.28
600.18	51.49
600.34	63.19
600.50	65.54
600.65	112.35
600.81	39.79
600.97	65.54
601.12	30.43
601.28	74.90
601.44	60.85
601.59	74.90
601.75	58.51
601.91	58.51
602.06	28.09
602.22	0.00
602.37	156.82
602.53	210.65
602.69	250.44
602.84	332.36
603.00	271.50
603.16	114.69
603.31	86.60
603.47	105.32
603.62	39.79
603.78	67.88
603.94	91.28
604.09	0.00
604.25	77.24
604.40	18.72
604.56	0.00
604.71	0.00
604.87	70.22
605.03	65.54
605.18	18.72
605.34	86.60
605.49	49.15
605.65	46.81
605.80	30.43
605.96	30.43
606.12	60.85
606.27	37.45
606.43	37.45
606.58	44.47
606.74	28.09
606.89	332.36
607.05	571.09
607.20	760.67
607.36	575.77
607.51	468.11
607.67	348.74
607.82	220.01
607.98	126.39
608.13	91.28
608.29	46.81
608.44	124.05
608.60	35.11
608.75	156.82
608.91	77.24
609.06	411.93
609.22	936.21
609.37	1228.78
609.53	1224.10
609.68	884.72
609.84	566.41
609.99	297.25
610.15	152.13
610.30	114.69
610.46	49.15
610.61	49.15
610.76	37.45
610.92	86.60
611.07	88.94
611.23	88.94
611.38	93.62
611.54	65.54
611.69	0.00
611.84	9.36
612.00	44.47
612.15	58.51
612.31	51.49
612.46	84.26
612.62	51.49
612.77	63.19
612.92	84.26
613.08	35.11
613.23	77.24
613.39	98.30
613.54	140.43
613.69	374.49
613.85	1093.03
614.00	1893.49
614.15	2139.25
614.31	1401.98
614.46	968.98
614.62	533.64
614.77	425.98
614.92	191.92
615.08	79.58
615.23	152.13
615.38	131.07
615.54	98.30
615.69	124.05
615.84	241.08
616.00	437.68
616.15	571.09
616.30	472.79
616.46	383.85
616.61	250.44
616.76	191.92
616.92	74.90
617.07	100.64
617.22	42.13
617.37	0.00
617.53	72.56
617.68	51.49
617.83	56.17
617.99	32.77
618.14	86.60
618.29	0.00
618.45	74.90
618.60	23.41
618.75	67.88
618.90	0.00
619.06	42.13
619.21	14.04
619.36	32.77
619.51	67.88
619.67	42.13
619.82	35.11
619.97	79.58
620.12	42.13
620.28	35.11
620.43	51.49
620.58	0.00
620.73	105.32
620.89	14.04
621.04	18.72
621.19	112.35
621.34	227.03
621.49	397.89
621.65	400.23
621.80	231.71
621.95	156.82
622.10	117.03
622.25	18.72
622.41	7.02
622.56	107.66
622.71	53.83
622.86	60.85
623.01	37.45
623.16	35.11
623.32	70.22
623.47	105.32
623.62	0.00
623.77	105.32
623.92	49.15
624.07	28.09
624.23	0.00
624.38	67.88
624.53	131.07
624.68	70.22
624.83	46.81
624.98	0.00
625.13	21.06
625.29	4.68
625.44	21.06
625.59	81.92
625.74	7.02
625.89	18.72
626.04	231.71
626.19	470.45
626.34	964.30
626.49	1167.93
626.65	856.64
626.80	641.31
626.95	425.98
627.10	212.99
627.25	91.28
627.40	42.13
627.55	102.98
627.70	70.22
627.85	56.17
628.00	2.34
628.15	91.28
628.30	0.00
628.45	18.72
628.60	23.41
628.76	0.00
628.91	86.60
629.06	35.11
629.21	32.77
629.36	4.68
629.51	2.34
629.66	46.81
629.81	46.81
629.96	173.20
630.11	234.05
630.26	257.46
630.41	266.82
630.56	163.84
630.71	187.24
630.86	166.18
631.01	60.85
631.16	72.56
631.31	77.24
631.46	81.92
631.61	39.79
631.76	39.79
631.91	23.41
632.06	25.75
632.21	74.90
632.36	72.56
632.51	53.83
632.66	53.83
632.81	110.01
632.96	320.65
633.10	557.05
633.25	807.48
633.40	613.22
633.55	395.55
633.70	320.65
633.85	201.29
634.00	140.43
634.15	126.39
634.30	44.47
634.45	4.68
634.60	46.81
634.75	0.00
634.90	46.81
635.05	0.00
635.19	65.54
635.34	77.24
635.49	88.94
635.64	28.09
635.79	79.58
635.94	126.39
636.09	11.70
636.24	39.79
636.39	37.45
636.53	35.11
636.68	77.24
636.83	0.00
636.98	25.75
637.13	91.28
637.28	49.15
637.43	0.00
637.57	86.60
637.72	285.55
637.87	746.63
638.02	1235.80
638.17	1385.60
638.32	1001.75
638.46	688.12
638.61	498.53
638.76	299.59
638.91	156.82
639.06	119.37
639.20	119.37
639.35	142.77
639.50	105.32
639.65	444.70
639.80	1153.88
639.94	1919.24
640.09	2260.96
640.24	1792.85
640.39	1184.31
640.54	716.20
640.68	510.24
640.83	266.82
640.98	126.39
641.13	86.60
641.27	56.17
641.42	46.81
641.57	102.98
641.72	18.72
641.86	0.00
642.01	35.11
642.16	18.72
642.31	32.77
642.45	93.62
642.60	35.11
642.75	44.47
642.90	51.49
643.04	37.45
643.19	37.45
643.34	86.60
643.48	100.64
643.63	30.43
643.78	9.36
643.93	28.09
644.07	0.00
644.22	67.88
644.37	51.49
644.51	16.38
644.66	53.83
644.81	37.45
644.95	86.60
645.10	16.38
645.25	21.06
645.39	60.85
645.54	42.13
645.69	81.92
645.83	0.00
645.98	74.90
646.13	42.13
646.27	37.45
646.42	7.02
646.57	46.81
646.71	44.47
646.86	4.68
647.00	110.01
647.15	0.00
647.30	30.43
647.44	0.00
647.59	0.00
647.74	25.75
647.88	0.00
648.03	0.00
648.17	28.09
648.32	18.72
648.47	30.43
648.61	14.04
648.76	65.54
648.90	0.00
649.05	0.00
649.20	14.04
649.34	4.68
649.49	105.32
649.63	72.56
649.78	39.79
649.92	74.90
650.07	215.33
650.21	521.94
650.36	891.74
650.51	1158.57
650.65	1069.62
650.80	674.07
650.94	477.47
651.09	262.14
651.23	168.52
651.38	119.37
651.52	74.90
651.67	25.75
651.81	91.28
651.96	65.54
652.10	44.47
652.25	102.98
652.39	39.79
652.54	28.09
652.68	95.96
652.83	189.58
652.97	332.36
653.12	353.42
653.26	393.21
653.41	374.49
653.55	227.03
653.70	102.98
653.84	67.88
653.99	11.70
654.13	30.43
654.27	58.51
654.42	0.00
654.56	18.72
654.71	95.96
654.85	72.56
655.00	0.00
655.14	72.56
655.29	70.22
655.43	0.00
655.57	16.38
655.72	21.06
655.86	46.81
656.01	105.32
656.15	30.43
656.30	77.24
656.44	86.60
656.58	86.60
656.73	74.90
656.87	53.83
657.01	67.88
657.16	0.00
657.30	32.77
657.45	39.79
657.59	67.88
657.73	37.45
657.88	0.00
658.02	142.77
658.16	32.77
658.31	21.06
658.45	0.00
658.60	0.00
658.74	37.45
658.88	21.06
659.03	42.13
659.17	88.94
659.31	84.26
659.46	238.73
659.60	418.96
659.74	599.18
659.89	552.37
660.03	418.96
660.17	250.44
660.32	187.24
660.46	77.24
660.60	60.85
660.74	114.69
660.89	42.13
661.03	77.24
661.17	37.45
661.32	7.02
661.46	7.02
661.60	0.00
661.74	42.13
661.89	70.22
662.03	56.17
662.17	0.00
662.31	0.00
662.46	18.72
662.60	72.56
662.74	0.00
662.88	53.83
663.03	14.04
663.17	0.00
663.31	16.38
663.45	91.28
663.60	28.09
663.74	0.00
663.88	56.17
664.02	0.00
664.17	37.45
664.31	9.36
664.45	100.64
664.59	67.88
664.73	0.00
664.88	46.81
665.02	21.06
665.16	2.34
665.30	93.62
665.44	39.79
665.59	4.68
665.73	0.00
665.87	46.81
666.01	58.51
666.15	63.19
666.29	0.00
666.44	56.17
666.58	51.49
666.72	56.17
666.86	37.45
667.00	56.17
667.14	23.41
667.28	159.16
667.43	397.89
667.57	730.25
667.71	938.55
667.85	856.64
667.99	697.48
668.13	505.56
668.27	250.44
668.41	156.82
668.56	110.01
668.70	30.43
668.84	35.11
668.98	0.00
669.12	88.94
669.26	0.00
669.40	51.49
669.54	58.51
669.68	32.77
669.82	25.75
669.96	79.58
670.10	18.72
670.25	14.04
670.39	42.13
670.53	110.01
670.67	63.19
670.81	32.77
670.95	128.73
671.09	95.96
671.23	180.22
671.37	400.23
671.51	533.64
671.65	741.95
671.79	491.51
671.93	414.27
672.07	222.35
672.21	117.03
672.35	39.79
672.49	140.43
672.63	9.36
672.77	58.51
672.91	21.06
673.05	42.13
673.19	98.30
673.33	21.06
673.47	28.09
673.61	0.00
673.75	2.34
673.89	42.13
674.03	44.47
674.17	14.04
674.31	28.09
674.45	60.85
674.59	14.04
674.73	65.54
674.87	14.04
675.01	53.83
675.15	81.92
675.29	117.03
675.43	65.54
675.56	14.04
675.70	23.41
675.84	86.60
675.98	72.56
676.12	65.54
676.26	65.54
676.40	9.36
676.54	16.38
676.68	18.72
676.82	107.66
676.96	105.32
677.10	53.83
677.23	30.43
677.37	135.75
677.51	67.88
677.65	56.17
677.79	51.49
677.93	88.94
678.07	9.36
678.21	14.04
678.34	63.19
678.48	7.02
678.62	30.43
678.76	14.04
678.90	49.15
679.04	2.34
679.18	56.17
679.31	42.13
679.45	63.19
679.59	30.43
679.73	112.35
679.87	25.75
680.00	0.00
680.14	51.49
680.28	0.00
680.42	30.43
680.56	21.06
680.70	121.71
680.83	65.54
680.97	51.49
681.11	4.68
681.25	42.13
681.39	30.43
681.52	0.00
681.66	9.36
681.80	7.02
681.94	23.41
682.07	32.77
682.21	39.79
682.35	2.34
682.49	37.45
682.62	21.06
682.76	60.85
682.90	79.58
683.04	56.17
683.17	72.56
683.31	14.04
683.45	32.77
683.59	53.83
683.72	67.88
683.86	65.54
684.00	0.00
684.13	37.45
684.27	65.54
684.41	16.38
684.55	30.43
684.68	44.47
684.82	30.43
684.96	16.38
685.09	18.72
685.23	14.04
685.37	51.49
685.50	30.43
685.64	51.49
685.78	7.02
685.91	2.34
686.05	23.41
686.19	23.41
686.32	35.11
686.46	7.02
686.60	9.36
686.73	23.41
686.87	35.11
687.01	194.26
687.14	53.83
687.28	0.00
687.42	35.11
687.55	18.72
687.69	30.43
687.82	42.13
687.96	14.04
688.10	53.83
688.23	42.13
688.37	74.90
688.50	0.00
688.64	0.00
688.78	30.43
688.91	95.96
689.05	67.88
689.18	0.00
689.32	60.85
689.46	9.36
689.59	9.36
689.73	51.49
689.86	0.00
690.00	0.00
690.13	4.68
690.27	39.79
690.41	98.30
690.54	0.00
690.68	88.94
690.81	16.38
690.95	63.19
691.08	16.38
691.22	35.11
691.35	0.00
691.49	74.90
691.62	30.43
691.76	25.75
691.89	39.79
692.03	4.68
692.16	56.17
692.30	110.01
692.43	21.06
692.57	266.82
692.70	308.95
692.84	454.06
692.97	418.96
693.11	269.16
693.24	234.05
693.38	184.90
693.51	142.77
693.65	70.22
693.78	74.90
693.92	21.06
694.05	72.56
694.19	60.85
694.32	100.64
694.45	60.85
694.59	0.00
694.72	32.77
694.86	81.92
694.99	9.36
695.13	28.09
695.26	0.00
695.39	4.68
695.53	37.45
695.66	32.77
695.80	70.22
695.93	32.77
696.07	39.79
696.20	21.06
696.33	39.79
696.47	142.77
696.60	86.60
696.73	100.64
696.87	49.15
697.00	18.72
697.14	126.39
697.27	49.15
697.40	37.45
697.54	0.00
697.67	112.35
697.80	53.83
697.94	18.72
698.07	18.72
698.21	30.43
698.34	46.81
698.47	58.51
698.61	53.83
698.74	49.15
698.87	44.47
699.01	46.81
699.14	84.26
699.27	65.54
699.40	56.17
699.54	30.43
699.67	84.26
699.80	53.83
699.94	42.13
700.07	0.00
700.20	14.04
700.34	95.96
700.47	25.75
700.60	0.00
700.73	0.00
700.87	0.00
701.00	11.70
701.13	74.90
701.26	60.85
701.40	35.11
701.53	58.51
701.66	53.83
701.79	0.00
701.93	58.51
702.06	37.45
702.19	70.22
702.32	56.17
702.46	60.85
702.59	53.83
702.72	126.39
702.85	238.73
702.99	514.92
703.12	765.36
703.25	821.53
703.38	718.54
703.51	601.52
703.65	470.45
703.78	332.36
703.91	187.24
704.04	138.09
704.17	128.73
704.31	53.83
704.44	112.35
704.57	56.17
704.70	14.04
704.83	18.72
704.96	2.34
705.10	11.70
705.23	39.79
>>>>>End Processed Spectral Data<<<<<
