SpectraSuite Data File
++++++++++++++++++++++++++++++++++++
Date: Fri Oct 04 12:13:42 GMT-05:00 2013
User: price-jones
Dark Spectrum Present: No
Reference Spectrum Present: No
Number of Sampled Component Spectra: 1
Spectrometers: USB2+H05261
Integration Time (usec): 10000 (USB2+H05261)
Spectra Averaged: 1 (USB2+H05261)
Boxcar Smoothing: 0 (USB2+H05261)
Correct for Electrical Dark: No (USB2+H05261)
Strobe/Lamp Enabled: No (USB2+H05261)
Correct for Detector Non-linearity: No (USB2+H05261)
Correct for Stray Light: No (USB2+H05261)
Number of Pixels in Processed Spectrum: 2048
>>>>>Begin Processed Spectral Data<<<<<
365.73	0.00
365.92	0.00
366.12	0.00
366.32	14.04
366.52	0.00
366.72	0.00
366.91	0.00
367.11	0.00
367.31	0.00
367.51	0.00
367.70	0.00
367.90	0.00
368.10	0.00
368.30	0.00
368.49	0.00
368.69	0.00
368.89	0.00
369.09	0.00
369.28	0.00
369.48	0.00
369.68	0.00
369.87	0.00
370.07	0.00
370.27	0.00
370.47	0.00
370.66	0.00
370.86	0.00
371.06	0.00
371.25	0.00
371.45	0.00
371.65	30.43
371.84	0.00
372.04	0.00
372.24	4.68
372.44	0.00
372.63	21.06
372.83	18.72
373.03	102.98
373.22	7.02
373.42	0.00
373.62	32.77
373.81	77.24
374.01	23.41
374.21	0.00
374.40	35.11
374.60	44.47
374.79	25.75
374.99	0.00
375.19	81.92
375.38	42.13
375.58	56.17
375.78	23.41
375.97	81.92
376.17	58.51
376.37	0.00
376.56	46.81
376.76	72.56
376.95	102.98
377.15	18.72
377.35	56.17
377.54	0.00
377.74	44.47
377.93	35.11
378.13	112.35
378.33	28.09
378.52	37.45
378.72	56.17
378.91	88.94
379.11	32.77
379.31	30.43
379.50	28.09
379.70	81.92
379.89	0.00
380.09	44.47
380.28	0.00
380.48	39.79
380.68	0.00
380.87	4.68
381.07	65.54
381.26	32.77
381.46	35.11
381.65	0.00
381.85	30.43
382.04	25.75
382.24	4.68
382.43	35.11
382.63	49.15
382.83	35.11
383.02	4.68
383.22	0.00
383.41	44.47
383.61	16.38
383.80	0.00
384.00	0.00
384.19	11.70
384.39	9.36
384.58	21.06
384.78	49.15
384.97	0.00
385.17	32.77
385.36	14.04
385.56	16.38
385.75	0.00
385.95	18.72
386.14	0.00
386.34	9.36
386.53	23.41
386.72	0.00
386.92	0.00
387.11	23.41
387.31	49.15
387.50	51.49
387.70	18.72
387.89	9.36
388.09	2.34
388.28	14.04
388.48	16.38
388.67	0.00
388.86	0.00
389.06	2.34
389.25	23.41
389.45	0.00
389.64	28.09
389.84	28.09
390.03	53.83
390.22	56.17
390.42	35.11
390.61	63.19
390.81	37.45
391.00	67.88
391.19	28.09
391.39	53.83
391.58	110.01
391.78	79.58
391.97	0.00
392.16	42.13
392.36	84.26
392.55	49.15
392.75	0.00
392.94	0.00
393.13	39.79
393.33	28.09
393.52	11.70
393.71	0.00
393.91	58.51
394.10	0.00
394.29	11.70
394.49	72.56
394.68	9.36
394.88	30.43
395.07	28.09
395.26	42.13
395.46	0.00
395.65	9.36
395.84	0.00
396.04	0.00
396.23	32.77
396.42	56.17
396.62	53.83
396.81	63.19
397.00	42.13
397.19	67.88
397.39	2.34
397.58	67.88
397.77	37.45
397.97	65.54
398.16	0.00
398.35	4.68
398.55	53.83
398.74	37.45
398.93	77.24
399.12	77.24
399.32	49.15
399.51	2.34
399.70	0.00
399.90	0.00
400.09	9.36
400.28	9.36
400.47	35.11
400.67	51.49
400.86	16.38
401.05	0.00
401.24	0.00
401.44	0.00
401.63	46.81
401.82	21.06
402.01	105.32
402.21	0.00
402.40	81.92
402.59	14.04
402.78	60.85
402.97	65.54
403.17	56.17
403.36	67.88
403.55	16.38
403.74	11.70
403.93	21.06
404.13	25.75
404.32	16.38
404.51	81.92
404.70	49.15
404.89	7.02
405.09	70.22
405.28	11.70
405.47	2.34
405.66	56.17
405.85	49.15
406.05	0.00
406.24	81.92
406.43	9.36
406.62	23.41
406.81	18.72
407.00	95.96
407.20	4.68
407.39	35.11
407.58	0.00
407.77	0.00
407.96	58.51
408.15	49.15
408.34	39.79
408.54	35.11
408.73	14.04
408.92	23.41
409.11	53.83
409.30	67.88
409.49	95.96
409.68	93.62
409.87	72.56
410.07	0.00
410.26	11.70
410.45	25.75
410.64	86.60
410.83	14.04
411.02	0.00
411.21	46.81
411.40	56.17
411.59	91.28
411.78	25.75
411.98	0.00
412.17	0.00
412.36	21.06
412.55	7.02
412.74	105.32
412.93	14.04
413.12	25.75
413.31	70.22
413.50	0.00
413.69	84.26
413.88	119.37
414.07	77.24
414.26	51.49
414.45	0.00
414.64	32.77
414.83	91.28
415.02	107.66
415.22	32.77
415.41	60.85
415.60	51.49
415.79	88.94
415.98	51.49
416.17	70.22
416.36	37.45
416.55	37.45
416.74	95.96
416.93	0.00
417.12	28.09
417.31	0.00
417.50	51.49
417.69	88.94
417.88	72.56
418.07	102.98
418.26	95.96
418.45	58.51
418.64	0.00
418.83	37.45
419.02	145.11
419.21	39.79
419.39	65.54
419.58	58.51
419.77	49.15
419.96	74.90
420.15	79.58
420.34	65.54
420.53	53.83
420.72	25.75
420.91	77.24
421.10	0.00
421.29	9.36
421.48	7.02
421.67	84.26
421.86	56.17
422.05	74.90
422.24	25.75
422.43	4.68
422.61	23.41
422.80	53.83
422.99	138.09
423.18	30.43
423.37	39.79
423.56	79.58
423.75	93.62
423.94	0.00
424.13	88.94
424.32	32.77
424.50	60.85
424.69	11.70
424.88	53.83
425.07	98.30
425.26	60.85
425.45	131.07
425.64	4.68
425.83	72.56
426.01	25.75
426.20	42.13
426.39	18.72
426.58	0.00
426.77	98.30
426.96	112.35
427.15	0.00
427.33	70.22
427.52	25.75
427.71	70.22
427.90	88.94
428.09	30.43
428.28	74.90
428.46	23.41
428.65	0.00
428.84	114.69
429.03	60.85
429.22	21.06
429.40	23.41
429.59	93.62
429.78	88.94
429.97	46.81
430.16	11.70
430.34	0.00
430.53	49.15
430.72	2.34
430.91	107.66
431.10	37.45
431.28	51.49
431.47	58.51
431.66	0.00
431.85	0.00
432.03	9.36
432.22	7.02
432.41	102.98
432.60	56.17
432.79	42.13
432.97	100.64
433.16	32.77
433.35	35.11
433.54	21.06
433.72	56.17
433.91	77.24
434.10	67.88
434.28	9.36
434.47	56.17
434.66	23.41
434.85	63.19
435.03	9.36
435.22	70.22
435.41	56.17
435.59	0.00
435.78	42.13
435.97	105.32
436.16	0.00
436.34	149.79
436.53	88.94
436.72	58.51
436.90	0.00
437.09	11.70
437.28	112.35
437.46	88.94
437.65	67.88
437.84	0.00
438.02	63.19
438.21	23.41
438.40	95.96
438.58	56.17
438.77	88.94
438.96	35.11
439.14	25.75
439.33	107.66
439.52	72.56
439.70	79.58
439.89	0.00
440.08	9.36
440.26	23.41
440.45	37.45
440.63	46.81
440.82	37.45
441.01	16.38
441.19	39.79
441.38	100.64
441.57	102.98
441.75	63.19
441.94	14.04
442.12	124.05
442.31	63.19
442.50	161.50
442.68	72.56
442.87	37.45
443.05	23.41
443.24	28.09
443.43	16.38
443.61	39.79
443.80	9.36
443.98	114.69
444.17	56.17
444.35	30.43
444.54	100.64
444.73	0.00
444.91	51.49
445.10	14.04
445.28	30.43
445.47	154.48
445.65	81.92
445.84	124.05
446.02	77.24
446.21	100.64
446.39	53.83
446.58	79.58
446.77	56.17
446.95	32.77
447.14	32.77
447.32	86.60
447.51	18.72
447.69	0.00
447.88	91.28
448.06	65.54
448.25	16.38
448.43	93.62
448.62	30.43
448.80	25.75
448.99	79.58
449.17	0.00
449.36	100.64
449.54	32.77
449.73	72.56
449.91	72.56
450.10	58.51
450.28	39.79
450.46	9.36
450.65	0.00
450.83	60.85
451.02	74.90
451.20	0.00
451.39	100.64
451.57	53.83
451.76	56.17
451.94	53.83
452.13	79.58
452.31	58.51
452.49	81.92
452.68	51.49
452.86	37.45
453.05	100.64
453.23	88.94
453.42	35.11
453.60	32.77
453.78	0.00
453.97	67.88
454.15	112.35
454.34	39.79
454.52	9.36
454.70	86.60
454.89	100.64
455.07	74.90
455.26	53.83
455.44	124.05
455.62	91.28
455.81	79.58
455.99	102.98
456.17	112.35
456.36	25.75
456.54	21.06
456.73	95.96
456.91	65.54
457.09	81.92
457.28	39.79
457.46	119.37
457.64	84.26
457.83	7.02
458.01	23.41
458.19	58.51
458.38	51.49
458.56	0.00
458.74	56.17
458.93	0.00
459.11	93.62
459.29	21.06
459.48	35.11
459.66	51.49
459.84	0.00
460.03	86.60
460.21	39.79
460.39	53.83
460.57	79.58
460.76	56.17
460.94	70.22
461.12	86.60
461.31	53.83
461.49	124.05
461.67	93.62
461.85	0.00
462.04	9.36
462.22	152.13
462.40	0.00
462.59	56.17
462.77	67.88
462.95	9.36
463.13	84.26
463.32	0.00
463.50	63.19
463.68	93.62
463.86	102.98
464.05	65.54
464.23	58.51
464.41	7.02
464.59	67.88
464.78	51.49
464.96	46.81
465.14	58.51
465.32	114.69
465.50	65.54
465.69	2.34
465.87	14.04
466.05	74.90
466.23	119.37
466.41	135.75
466.60	56.17
466.78	110.01
466.96	53.83
467.14	79.58
467.32	112.35
467.51	9.36
467.69	63.19
467.87	44.47
468.05	105.32
468.23	63.19
468.41	32.77
468.60	42.13
468.78	51.49
468.96	81.92
469.14	60.85
469.32	35.11
469.50	30.43
469.69	93.62
469.87	81.92
470.05	119.37
470.23	51.49
470.41	49.15
470.59	25.75
470.77	51.49
470.95	28.09
471.14	67.88
471.32	25.75
471.50	117.03
471.68	51.49
471.86	9.36
472.04	56.17
472.22	51.49
472.40	49.15
472.58	95.96
472.77	44.47
472.95	46.81
473.13	84.26
473.31	58.51
473.49	0.00
473.67	18.72
473.85	70.22
474.03	25.75
474.21	112.35
474.39	77.24
474.57	84.26
474.75	53.83
474.93	77.24
475.12	25.75
475.30	28.09
475.48	21.06
475.66	81.92
475.84	35.11
476.02	37.45
476.20	91.28
476.38	4.68
476.56	0.00
476.74	84.26
476.92	88.94
477.10	93.62
477.28	88.94
477.46	16.38
477.64	4.68
477.82	35.11
478.00	18.72
478.18	42.13
478.36	30.43
478.54	91.28
478.72	72.56
478.90	7.02
479.08	100.64
479.26	39.79
479.44	102.98
479.62	88.94
479.80	28.09
479.98	88.94
480.16	44.47
480.34	67.88
480.52	91.28
480.70	51.49
480.88	58.51
481.06	88.94
481.24	72.56
481.41	65.54
481.59	49.15
481.77	14.04
481.95	74.90
482.13	88.94
482.31	49.15
482.49	107.66
482.67	16.38
482.85	37.45
483.03	70.22
483.21	93.62
483.39	65.54
483.57	44.47
483.74	56.17
483.92	79.58
484.10	25.75
484.28	28.09
484.46	117.03
484.64	30.43
484.82	91.28
485.00	16.38
485.18	9.36
485.35	25.75
485.53	30.43
485.71	21.06
485.89	56.17
486.07	42.13
486.25	74.90
486.43	72.56
486.61	91.28
486.78	74.90
486.96	65.54
487.14	58.51
487.32	74.90
487.50	88.94
487.68	51.49
487.85	44.47
488.03	65.54
488.21	84.26
488.39	46.81
488.57	11.70
488.75	98.30
488.92	49.15
489.10	16.38
489.28	42.13
489.46	0.00
489.64	44.47
489.81	21.06
489.99	58.51
490.17	70.22
490.35	100.64
490.53	72.56
490.70	49.15
490.88	84.26
491.06	98.30
491.24	35.11
491.41	49.15
491.59	72.56
491.77	86.60
491.95	102.98
492.13	44.47
492.30	81.92
492.48	42.13
492.66	79.58
492.84	81.92
493.01	98.30
493.19	98.30
493.37	63.19
493.54	124.05
493.72	32.77
493.90	117.03
494.08	98.30
494.25	16.38
494.43	51.49
494.61	77.24
494.79	70.22
494.96	21.06
495.14	67.88
495.32	32.77
495.49	114.69
495.67	37.45
495.85	93.62
496.02	35.11
496.20	56.17
496.38	124.05
496.55	88.94
496.73	74.90
496.91	107.66
497.09	131.07
497.26	105.32
497.44	18.72
497.62	11.70
497.79	77.24
497.97	44.47
498.14	81.92
498.32	44.47
498.50	114.69
498.67	86.60
498.85	67.88
499.03	126.39
499.20	126.39
499.38	100.64
499.56	86.60
499.73	0.00
499.91	65.54
500.08	0.00
500.26	56.17
500.44	35.11
500.61	37.45
500.79	138.09
500.97	117.03
501.14	126.39
501.32	81.92
501.49	72.56
501.67	35.11
501.84	79.58
502.02	39.79
502.20	91.28
502.37	60.85
502.55	67.88
502.72	114.69
502.90	42.13
503.07	79.58
503.25	110.01
503.43	65.54
503.60	63.19
503.78	51.49
503.95	51.49
504.13	152.13
504.30	107.66
504.48	107.66
504.65	95.96
504.83	60.85
505.01	133.41
505.18	110.01
505.36	81.92
505.53	93.62
505.71	58.51
505.88	107.66
506.06	98.30
506.23	105.32
506.41	91.28
506.58	42.13
506.76	9.36
506.93	0.00
507.11	67.88
507.28	46.81
507.46	81.92
507.63	102.98
507.81	74.90
507.98	70.22
508.16	77.24
508.33	138.09
508.50	81.92
508.68	7.02
508.85	44.47
509.03	98.30
509.20	138.09
509.38	74.90
509.55	98.30
509.73	7.02
509.90	100.64
510.08	11.70
510.25	79.58
510.42	53.83
510.60	110.01
510.77	147.45
510.95	23.41
511.12	86.60
511.30	114.69
511.47	86.60
511.64	30.43
511.82	100.64
511.99	4.68
512.17	63.19
512.34	79.58
512.51	25.75
512.69	140.43
512.86	53.83
513.04	100.64
513.21	51.49
513.38	112.35
513.56	105.32
513.73	91.28
513.90	35.11
514.08	16.38
514.25	79.58
514.43	107.66
514.60	49.15
514.77	56.17
514.95	0.00
515.12	74.90
515.29	124.05
515.47	201.29
515.64	102.98
515.81	56.17
515.99	72.56
516.16	110.01
516.33	65.54
516.51	63.19
516.68	107.66
516.85	93.62
517.03	65.54
517.20	72.56
517.37	100.64
517.54	121.71
517.72	35.11
517.89	105.32
518.06	53.83
518.24	117.03
518.41	79.58
518.58	98.30
518.75	39.79
518.93	81.92
519.10	49.15
519.27	100.64
519.45	51.49
519.62	126.39
519.79	131.07
519.96	100.64
520.14	88.94
520.31	107.66
520.48	67.88
520.65	70.22
520.83	140.43
521.00	65.54
521.17	79.58
521.34	133.41
521.52	35.11
521.69	0.00
521.86	79.58
522.03	63.19
522.20	53.83
522.38	93.62
522.55	81.92
522.72	65.54
522.89	105.32
523.07	77.24
523.24	18.72
523.41	63.19
523.58	51.49
523.75	102.98
523.92	128.73
524.10	79.58
524.27	56.17
524.44	128.73
524.61	142.77
524.78	121.71
524.96	72.56
525.13	65.54
525.30	74.90
525.47	65.54
525.64	93.62
525.81	56.17
525.98	79.58
526.16	124.05
526.33	53.83
526.50	135.75
526.67	98.30
526.84	79.58
527.01	161.50
527.18	14.04
527.36	138.09
527.53	112.35
527.70	112.35
527.87	51.49
528.04	126.39
528.21	140.43
528.38	74.90
528.55	149.79
528.72	112.35
528.89	74.90
529.07	72.56
529.24	70.22
529.41	126.39
529.58	63.19
529.75	25.75
529.92	107.66
530.09	105.32
530.26	117.03
530.43	28.09
530.60	74.90
530.77	95.96
530.94	110.01
531.11	86.60
531.28	91.28
531.46	51.49
531.63	53.83
531.80	60.85
531.97	84.26
532.14	117.03
532.31	91.28
532.48	56.17
532.65	28.09
532.82	63.19
532.99	60.85
533.16	152.13
533.33	58.51
533.50	198.95
533.67	138.09
533.84	32.77
534.01	95.96
534.18	131.07
534.35	93.62
534.52	119.37
534.69	65.54
534.86	81.92
535.03	112.35
535.20	93.62
535.37	121.71
535.54	81.92
535.71	124.05
535.88	98.30
536.05	79.58
536.22	98.30
536.38	88.94
536.55	100.64
536.72	102.98
536.89	74.90
537.06	98.30
537.23	74.90
537.40	18.72
537.57	51.49
537.74	0.00
537.91	152.13
538.08	93.62
538.25	58.51
538.42	30.43
538.59	138.09
538.75	79.58
538.92	117.03
539.09	84.26
539.26	98.30
539.43	102.98
539.60	138.09
539.77	77.24
539.94	180.22
540.11	84.26
540.28	4.68
540.44	107.66
540.61	79.58
540.78	114.69
540.95	88.94
541.12	119.37
541.29	79.58
541.46	112.35
541.62	142.77
541.79	126.39
541.96	133.41
542.13	121.71
542.30	88.94
542.47	98.30
542.63	81.92
542.80	81.92
542.97	53.83
543.14	110.01
543.31	67.88
543.48	70.22
543.64	93.62
543.81	110.01
543.98	86.60
544.15	140.43
544.32	60.85
544.48	72.56
544.65	77.24
544.82	88.94
544.99	67.88
545.16	65.54
545.32	67.88
545.49	110.01
545.66	58.51
545.83	81.92
546.00	81.92
546.16	135.75
546.33	58.51
546.50	65.54
546.67	16.38
546.83	81.92
547.00	170.86
547.17	39.79
547.34	4.68
547.50	145.11
547.67	84.26
547.84	56.17
548.00	63.19
548.17	98.30
548.34	93.62
548.51	128.73
548.67	100.64
548.84	156.82
549.01	98.30
549.18	51.49
549.34	102.98
549.51	16.38
549.68	51.49
549.84	110.01
550.01	63.19
550.18	91.28
550.34	117.03
550.51	119.37
550.68	79.58
550.84	4.68
551.01	67.88
551.18	110.01
551.34	72.56
551.51	56.17
551.68	44.47
551.84	2.34
552.01	107.66
552.18	46.81
552.34	86.60
552.51	49.15
552.68	110.01
552.84	77.24
553.01	110.01
553.18	9.36
553.34	49.15
553.51	88.94
553.67	72.56
553.84	135.75
554.01	114.69
554.17	79.58
554.34	72.56
554.51	133.41
554.67	100.64
554.84	133.41
555.00	93.62
555.17	81.92
555.33	98.30
555.50	51.49
555.67	46.81
555.83	91.28
556.00	117.03
556.16	175.54
556.33	14.04
556.50	74.90
556.66	140.43
556.83	74.90
556.99	74.90
557.16	70.22
557.32	138.09
557.49	121.71
557.65	91.28
557.82	46.81
557.98	117.03
558.15	56.17
558.32	128.73
558.48	93.62
558.65	128.73
558.81	70.22
558.98	98.30
559.14	81.92
559.31	60.85
559.47	84.26
559.64	98.30
559.80	77.24
559.97	105.32
560.13	53.83
560.30	142.77
560.46	159.16
560.63	91.28
560.79	46.81
560.96	0.00
561.12	0.00
561.29	86.60
561.45	72.56
561.61	81.92
561.78	84.26
561.94	81.92
562.11	56.17
562.27	65.54
562.44	88.94
562.60	107.66
562.77	74.90
562.93	32.77
563.10	117.03
563.26	93.62
563.42	63.19
563.59	124.05
563.75	112.35
563.92	74.90
564.08	107.66
564.24	166.18
564.41	107.66
564.57	35.11
564.74	126.39
564.90	44.47
565.07	14.04
565.23	140.43
565.39	105.32
565.56	67.88
565.72	161.50
565.88	74.90
566.05	98.30
566.21	107.66
566.38	124.05
566.54	93.62
566.70	51.49
566.87	9.36
567.03	142.77
567.19	49.15
567.36	88.94
567.52	84.26
567.68	70.22
567.85	81.92
568.01	88.94
568.17	79.58
568.34	124.05
568.50	107.66
568.66	79.58
568.83	149.79
568.99	114.69
569.15	74.90
569.32	88.94
569.48	30.43
569.64	79.58
569.81	25.75
569.97	42.13
570.13	95.96
570.30	93.62
570.46	42.13
570.62	81.92
570.78	121.71
570.95	84.26
571.11	42.13
571.27	86.60
571.43	110.01
571.60	102.98
571.76	18.72
571.92	112.35
572.09	77.24
572.25	79.58
572.41	88.94
572.57	25.75
572.74	128.73
572.90	9.36
573.06	65.54
573.22	91.28
573.38	81.92
573.55	140.43
573.71	128.73
573.87	84.26
574.03	84.26
574.20	79.58
574.36	56.17
574.52	124.05
574.68	42.13
574.84	84.26
575.01	46.81
575.17	98.30
575.33	114.69
575.49	91.28
575.65	114.69
575.82	58.51
575.98	161.50
576.14	63.19
576.30	37.45
576.46	60.85
576.62	44.47
576.79	142.77
576.95	7.02
577.11	65.54
577.27	74.90
577.43	147.45
577.59	147.45
577.75	72.56
577.92	51.49
578.08	72.56
578.24	91.28
578.40	23.41
578.56	56.17
578.72	168.52
578.88	102.98
579.04	67.88
579.21	49.15
579.37	35.11
579.53	74.90
579.69	63.19
579.85	56.17
580.01	11.70
580.17	39.79
580.33	126.39
580.49	93.62
580.65	67.88
580.82	46.81
580.98	84.26
581.14	53.83
581.30	95.96
581.46	133.41
581.62	88.94
581.78	51.49
581.94	44.47
582.10	95.96
582.26	110.01
582.42	72.56
582.58	131.07
582.74	63.19
582.90	56.17
583.06	98.30
583.22	56.17
583.38	74.90
583.54	112.35
583.70	107.66
583.86	91.28
584.02	84.26
584.18	44.47
584.34	49.15
584.50	110.01
584.66	70.22
584.82	16.38
584.98	102.98
585.14	159.16
585.30	91.28
585.46	100.64
585.62	37.45
585.78	88.94
585.94	124.05
586.10	98.30
586.26	81.92
586.42	102.98
586.58	100.64
586.74	100.64
586.90	49.15
587.06	58.51
587.22	145.11
587.38	60.85
587.54	95.96
587.70	98.30
587.86	140.43
588.02	124.05
588.18	14.04
588.34	79.58
588.49	88.94
588.65	18.72
588.81	70.22
588.97	21.06
589.13	84.26
589.29	77.24
589.45	58.51
589.61	102.98
589.77	0.00
589.93	60.85
590.08	77.24
590.24	60.85
590.40	79.58
590.56	117.03
590.72	98.30
590.88	18.72
591.04	86.60
591.20	131.07
591.35	81.92
591.51	42.13
591.67	102.98
591.83	7.02
591.99	32.77
592.15	25.75
592.31	112.35
592.46	95.96
592.62	110.01
592.78	23.41
592.94	0.00
593.10	70.22
593.26	70.22
593.41	81.92
593.57	117.03
593.73	53.83
593.89	74.90
594.05	46.81
594.20	51.49
594.36	124.05
594.52	63.19
594.68	42.13
594.84	30.43
594.99	67.88
595.15	4.68
595.31	25.75
595.47	72.56
595.62	65.54
595.78	95.96
595.94	74.90
596.10	65.54
596.25	117.03
596.41	46.81
596.57	93.62
596.73	86.60
596.88	23.41
597.04	37.45
597.20	53.83
597.36	102.98
597.51	114.69
597.67	53.83
597.83	42.13
597.99	37.45
598.14	112.35
598.30	37.45
598.46	53.83
598.61	44.47
598.77	53.83
598.93	70.22
599.09	124.05
599.24	67.88
599.40	16.38
599.56	86.60
599.71	46.81
599.87	105.32
600.03	119.37
600.18	18.72
600.34	95.96
600.50	60.85
600.65	37.45
600.81	91.28
600.97	93.62
601.12	121.71
601.28	124.05
601.44	77.24
601.59	37.45
601.75	67.88
601.91	74.90
602.06	46.81
602.22	91.28
602.37	105.32
602.53	44.47
602.69	110.01
602.84	138.09
603.00	28.09
603.16	32.77
603.31	102.98
603.47	84.26
603.62	91.28
603.78	72.56
603.94	46.81
604.09	28.09
604.25	124.05
604.40	11.70
604.56	124.05
604.71	58.51
604.87	37.45
605.03	7.02
605.18	74.90
605.34	70.22
605.49	117.03
605.65	0.00
605.80	4.68
605.96	74.90
606.12	93.62
606.27	63.19
606.43	4.68
606.58	91.28
606.74	51.49
606.89	0.00
607.05	21.06
607.20	86.60
607.36	0.00
607.51	51.49
607.67	70.22
607.82	60.85
607.98	149.79
608.13	112.35
608.29	110.01
608.44	81.92
608.60	86.60
608.75	46.81
608.91	79.58
609.06	0.00
609.22	21.06
609.37	39.79
609.53	51.49
609.68	32.77
609.84	105.32
609.99	72.56
610.15	81.92
610.30	65.54
610.46	60.85
610.61	135.75
610.76	86.60
610.92	81.92
611.07	49.15
611.23	0.00
611.38	102.98
611.54	49.15
611.69	25.75
611.84	42.13
612.00	79.58
612.15	79.58
612.31	91.28
612.46	77.24
612.62	81.92
612.77	107.66
612.92	74.90
613.08	142.77
613.23	119.37
613.39	58.51
613.54	44.47
613.69	117.03
613.85	7.02
614.00	70.22
614.15	88.94
614.31	135.75
614.46	53.83
614.62	56.17
614.77	23.41
614.92	119.37
615.08	23.41
615.23	91.28
615.38	60.85
615.54	100.64
615.69	0.00
615.84	88.94
616.00	51.49
616.15	63.19
616.30	91.28
616.46	98.30
616.61	35.11
616.76	65.54
616.92	67.88
617.07	58.51
617.22	107.66
617.37	9.36
617.53	0.00
617.68	28.09
617.83	79.58
617.99	105.32
618.14	91.28
618.29	140.43
618.45	98.30
618.60	7.02
618.75	30.43
618.90	107.66
619.06	51.49
619.21	25.75
619.36	67.88
619.51	74.90
619.67	77.24
619.82	126.39
619.97	4.68
620.12	81.92
620.28	60.85
620.43	49.15
620.58	30.43
620.73	53.83
620.89	100.64
621.04	95.96
621.19	56.17
621.34	81.92
621.49	81.92
621.65	110.01
621.80	28.09
621.95	0.00
622.10	0.00
622.25	23.41
622.41	60.85
622.56	11.70
622.71	58.51
622.86	65.54
623.01	0.00
623.16	91.28
623.32	46.81
623.47	77.24
623.62	0.00
623.77	21.06
623.92	28.09
624.07	0.00
624.23	0.00
624.38	49.15
624.53	21.06
624.68	42.13
624.83	51.49
624.98	39.79
625.13	56.17
625.29	140.43
625.44	58.51
625.59	91.28
625.74	81.92
625.89	16.38
626.04	88.94
626.19	95.96
626.34	44.47
626.49	25.75
626.65	51.49
626.80	44.47
626.95	126.39
627.10	93.62
627.25	46.81
627.40	86.60
627.55	86.60
627.70	37.45
627.85	142.77
628.00	37.45
628.15	121.71
628.30	86.60
628.45	86.60
628.60	60.85
628.76	67.88
628.91	44.47
629.06	56.17
629.21	60.85
629.36	110.01
629.51	53.83
629.66	0.00
629.81	56.17
629.96	37.45
630.11	70.22
630.26	42.13
630.41	30.43
630.56	11.70
630.71	9.36
630.86	105.32
631.01	63.19
631.16	72.56
631.31	117.03
631.46	56.17
631.61	53.83
631.76	32.77
631.91	39.79
632.06	93.62
632.21	77.24
632.36	114.69
632.51	51.49
632.66	0.00
632.81	14.04
632.96	60.85
633.10	63.19
633.25	37.45
633.40	51.49
633.55	124.05
633.70	79.58
633.85	14.04
634.00	44.47
634.15	84.26
634.30	11.70
634.45	79.58
634.60	77.24
634.75	114.69
634.90	35.11
635.05	77.24
635.19	84.26
635.34	95.96
635.49	72.56
635.64	53.83
635.79	0.00
635.94	77.24
636.09	170.86
636.24	35.11
636.39	70.22
636.53	117.03
636.68	131.07
636.83	128.73
636.98	49.15
637.13	51.49
637.28	114.69
637.43	9.36
637.57	102.98
637.72	0.00
637.87	51.49
638.02	46.81
638.17	140.43
638.32	30.43
638.46	7.02
638.61	46.81
638.76	98.30
638.91	58.51
639.06	100.64
639.20	70.22
639.35	102.98
639.50	65.54
639.65	21.06
639.80	79.58
639.94	39.79
640.09	88.94
640.24	114.69
640.39	135.75
640.54	65.54
640.68	18.72
640.83	77.24
640.98	0.00
641.13	65.54
641.27	77.24
641.42	4.68
641.57	28.09
641.72	46.81
641.86	16.38
642.01	63.19
642.16	53.83
642.31	58.51
642.45	51.49
642.60	81.92
642.75	81.92
642.90	35.11
643.04	44.47
643.19	56.17
643.34	37.45
643.48	39.79
643.63	58.51
643.78	42.13
643.93	114.69
644.07	18.72
644.22	28.09
644.37	91.28
644.51	0.00
644.66	49.15
644.81	0.00
644.95	84.26
645.10	0.00
645.25	0.00
645.39	131.07
645.54	107.66
645.69	105.32
645.83	124.05
645.98	79.58
646.13	56.17
646.27	142.77
646.42	84.26
646.57	79.58
646.71	4.68
646.86	37.45
647.00	110.01
647.15	63.19
647.30	53.83
647.44	65.54
647.59	112.35
647.74	28.09
647.88	102.98
648.03	2.34
648.17	56.17
648.32	49.15
648.47	72.56
648.61	44.47
648.76	0.00
648.90	72.56
649.05	28.09
649.20	39.79
649.34	65.54
649.49	25.75
649.63	0.00
649.78	32.77
649.92	39.79
650.07	9.36
650.21	11.70
650.36	42.13
650.51	60.85
650.65	77.24
650.80	32.77
650.94	28.09
651.09	0.00
651.23	14.04
651.38	16.38
651.52	37.45
651.67	44.47
651.81	58.51
651.96	58.51
652.10	117.03
652.25	46.81
652.39	77.24
652.54	77.24
652.68	98.30
652.83	79.58
652.97	44.47
653.12	131.07
653.26	81.92
653.41	77.24
653.55	60.85
653.70	60.85
653.84	107.66
653.99	63.19
654.13	39.79
654.27	0.00
654.42	70.22
654.56	112.35
654.71	93.62
654.85	100.64
655.00	105.32
655.14	49.15
655.29	0.00
655.43	23.41
655.57	63.19
655.72	7.02
655.86	37.45
656.01	70.22
656.15	49.15
656.30	95.96
656.44	30.43
656.58	98.30
656.73	30.43
656.87	4.68
657.01	100.64
657.16	100.64
657.30	51.49
657.45	46.81
657.59	98.30
657.73	74.90
657.88	91.28
658.02	105.32
658.16	16.38
658.31	0.00
658.45	93.62
658.60	56.17
658.74	84.26
658.88	81.92
659.03	70.22
659.17	9.36
659.31	44.47
659.46	128.73
659.60	25.75
659.74	100.64
659.89	67.88
660.03	51.49
660.17	44.47
660.32	28.09
660.46	30.43
660.60	63.19
660.74	67.88
660.89	16.38
661.03	56.17
661.17	0.00
661.32	28.09
661.46	0.00
661.60	63.19
661.74	21.06
661.89	91.28
662.03	0.00
662.17	77.24
662.31	42.13
662.46	65.54
662.60	60.85
662.74	23.41
662.88	42.13
663.03	0.00
663.17	56.17
663.31	67.88
663.45	44.47
663.60	30.43
663.74	86.60
663.88	32.77
664.02	126.39
664.17	84.26
664.31	107.66
664.45	81.92
664.59	60.85
664.73	70.22
664.88	2.34
665.02	21.06
665.16	86.60
665.30	84.26
665.44	65.54
665.59	0.00
665.73	102.98
665.87	39.79
666.01	39.79
666.15	44.47
666.29	91.28
666.44	21.06
666.58	60.85
666.72	81.92
666.86	63.19
667.00	7.02
667.14	77.24
667.28	44.47
667.43	42.13
667.57	67.88
667.71	14.04
667.85	91.28
667.99	51.49
668.13	72.56
668.27	93.62
668.41	56.17
668.56	95.96
668.70	77.24
668.84	88.94
668.98	39.79
669.12	23.41
669.26	58.51
669.40	23.41
669.54	0.00
669.68	81.92
669.82	65.54
669.96	49.15
670.10	60.85
670.25	0.00
670.39	11.70
670.53	35.11
670.67	60.85
670.81	65.54
670.95	93.62
671.09	67.88
671.23	51.49
671.37	93.62
671.51	86.60
671.65	51.49
671.79	72.56
671.93	23.41
672.07	58.51
672.21	18.72
672.35	60.85
672.49	30.43
672.63	0.00
672.77	58.51
672.91	21.06
673.05	28.09
673.19	0.00
673.33	37.45
673.47	112.35
673.61	67.88
673.75	74.90
673.89	21.06
674.03	51.49
674.17	93.62
674.31	67.88
674.45	67.88
674.59	88.94
674.73	11.70
674.87	58.51
675.01	42.13
675.15	51.49
675.29	72.56
675.43	107.66
675.56	102.98
675.70	23.41
675.84	46.81
675.98	35.11
676.12	117.03
676.26	65.54
676.40	53.83
676.54	63.19
676.68	56.17
676.82	42.13
676.96	35.11
677.10	98.30
677.23	161.50
677.37	102.98
677.51	37.45
677.65	4.68
677.79	84.26
677.93	0.00
678.07	100.64
678.21	58.51
678.34	77.24
678.48	100.64
678.62	37.45
678.76	9.36
678.90	0.00
679.04	124.05
679.18	72.56
679.31	14.04
679.45	74.90
679.59	46.81
679.73	46.81
679.87	60.85
680.00	72.56
680.14	58.51
680.28	56.17
680.42	21.06
680.56	44.47
680.70	70.22
680.83	21.06
680.97	49.15
681.11	67.88
681.25	0.00
681.39	23.41
681.52	39.79
681.66	0.00
681.80	95.96
681.94	42.13
682.07	58.51
682.21	100.64
682.35	11.70
682.49	16.38
682.62	51.49
682.76	74.90
682.90	0.00
683.04	91.28
683.17	77.24
683.31	63.19
683.45	32.77
683.59	56.17
683.72	46.81
683.86	9.36
684.00	53.83
684.13	25.75
684.27	70.22
684.41	37.45
684.55	39.79
684.68	35.11
684.82	88.94
684.96	14.04
685.09	37.45
685.23	84.26
685.37	77.24
685.50	72.56
685.64	35.11
685.78	67.88
685.91	98.30
686.05	102.98
686.19	0.00
686.32	0.00
686.46	46.81
686.60	58.51
686.73	0.00
686.87	0.00
687.01	4.68
687.14	105.32
687.28	39.79
687.42	86.60
687.55	32.77
687.69	53.83
687.82	28.09
687.96	81.92
688.10	28.09
688.23	23.41
688.37	95.96
688.50	35.11
688.64	30.43
688.78	25.75
688.91	98.30
689.05	30.43
689.18	60.85
689.32	39.79
689.46	30.43
689.59	37.45
689.73	0.00
689.86	49.15
690.00	37.45
690.13	44.47
690.27	49.15
690.41	135.75
690.54	9.36
690.68	46.81
690.81	74.90
690.95	42.13
691.08	88.94
691.22	77.24
691.35	56.17
691.49	74.90
691.62	84.26
691.76	91.28
691.89	25.75
692.03	0.00
692.16	70.22
692.30	42.13
692.43	100.64
692.57	37.45
692.70	7.02
692.84	21.06
692.97	0.00
693.11	65.54
693.24	4.68
693.38	84.26
693.51	35.11
693.65	25.75
693.78	51.49
693.92	72.56
694.05	4.68
694.19	0.00
694.32	51.49
694.45	7.02
694.59	0.00
694.72	49.15
694.86	74.90
694.99	18.72
695.13	84.26
695.26	0.00
695.39	0.00
695.53	18.72
695.66	65.54
695.80	30.43
695.93	51.49
696.07	2.34
696.20	4.68
696.33	42.13
696.47	119.37
696.60	60.85
696.73	84.26
696.87	77.24
697.00	25.75
697.14	49.15
697.27	25.75
697.40	114.69
697.54	28.09
697.67	67.88
697.80	67.88
697.94	46.81
698.07	21.06
698.21	110.01
698.34	18.72
698.47	53.83
698.61	0.00
698.74	63.19
698.87	95.96
699.01	28.09
699.14	67.88
699.27	0.00
699.40	119.37
699.54	70.22
699.67	0.00
699.80	46.81
699.94	37.45
700.07	4.68
700.20	53.83
700.34	100.64
700.47	0.00
700.60	9.36
700.73	0.00
700.87	30.43
701.00	4.68
701.13	51.49
701.26	53.83
701.40	0.00
701.53	2.34
701.66	58.51
701.79	56.17
701.93	0.00
702.06	63.19
702.19	7.02
702.32	23.41
702.46	0.00
702.59	32.77
702.72	63.19
702.85	0.00
702.99	2.34
703.12	25.75
703.25	70.22
703.38	0.00
703.51	23.41
703.65	39.79
703.78	23.41
703.91	0.00
704.04	16.38
704.17	32.77
704.31	53.83
704.44	0.00
704.57	0.00
704.70	0.00
704.83	28.09
704.96	9.36
705.10	14.04
705.23	0.00
>>>>>End Processed Spectral Data<<<<<
