SpectraSuite Data File
++++++++++++++++++++++++++++++++++++
Date: Fri Oct 04 12:13:32 GMT-05:00 2013
User: price-jones
Dark Spectrum Present: No
Reference Spectrum Present: No
Number of Sampled Component Spectra: 1
Spectrometers: USB2+H05261
Integration Time (usec): 10000 (USB2+H05261)
Spectra Averaged: 1 (USB2+H05261)
Boxcar Smoothing: 0 (USB2+H05261)
Correct for Electrical Dark: No (USB2+H05261)
Strobe/Lamp Enabled: No (USB2+H05261)
Correct for Detector Non-linearity: No (USB2+H05261)
Correct for Stray Light: No (USB2+H05261)
Number of Pixels in Processed Spectrum: 2048
>>>>>Begin Processed Spectral Data<<<<<
365.73	0.00
365.92	0.00
366.12	0.00
366.32	0.00
366.52	0.00
366.72	0.00
366.91	0.00
367.11	0.00
367.31	0.00
367.51	0.00
367.70	0.00
367.90	0.00
368.10	0.00
368.30	0.00
368.49	0.00
368.69	0.00
368.89	0.00
369.09	0.00
369.28	0.00
369.48	0.00
369.68	0.00
369.87	0.00
370.07	0.00
370.27	0.00
370.47	0.00
370.66	0.00
370.86	0.00
371.06	0.00
371.25	0.00
371.45	0.00
371.65	0.00
371.84	49.15
372.04	65.54
372.24	37.45
372.44	0.00
372.63	0.00
372.83	0.00
373.03	9.36
373.22	42.13
373.42	56.17
373.62	44.47
373.81	51.49
374.01	35.11
374.21	35.11
374.40	46.81
374.60	21.06
374.79	14.04
374.99	77.24
375.19	46.81
375.38	70.22
375.58	65.54
375.78	0.00
375.97	0.00
376.17	51.49
376.37	21.06
376.56	91.28
376.76	53.83
376.95	32.77
377.15	93.62
377.35	32.77
377.54	60.85
377.74	0.00
377.93	46.81
378.13	7.02
378.33	51.49
378.52	14.04
378.72	79.58
378.91	37.45
379.11	0.00
379.31	0.00
379.50	4.68
379.70	58.51
379.89	0.00
380.09	0.00
380.28	0.00
380.48	42.13
380.68	0.00
380.87	9.36
381.07	0.00
381.26	44.47
381.46	18.72
381.65	39.79
381.85	25.75
382.04	0.00
382.24	77.24
382.43	0.00
382.63	4.68
382.83	16.38
383.02	0.00
383.22	14.04
383.41	65.54
383.61	0.00
383.80	23.41
384.00	9.36
384.19	21.06
384.39	0.00
384.58	35.11
384.78	58.51
384.97	39.79
385.17	4.68
385.36	21.06
385.56	0.00
385.75	0.00
385.95	0.00
386.14	18.72
386.34	51.49
386.53	0.00
386.72	0.00
386.92	46.81
387.11	21.06
387.31	0.00
387.50	32.77
387.70	0.00
387.89	25.75
388.09	0.00
388.28	21.06
388.48	7.02
388.67	0.00
388.86	0.00
389.06	0.00
389.25	9.36
389.45	23.41
389.64	0.00
389.84	70.22
390.03	25.75
390.22	25.75
390.42	44.47
390.61	56.17
390.81	21.06
391.00	16.38
391.19	0.00
391.39	2.34
391.58	0.00
391.78	53.83
391.97	100.64
392.16	39.79
392.36	0.00
392.55	84.26
392.75	0.00
392.94	11.70
393.13	21.06
393.33	9.36
393.52	0.00
393.71	0.00
393.91	0.00
394.10	42.13
394.29	0.00
394.49	23.41
394.68	0.00
394.88	21.06
395.07	67.88
395.26	0.00
395.46	0.00
395.65	9.36
395.84	14.04
396.04	56.17
396.23	56.17
396.42	0.00
396.62	11.70
396.81	51.49
397.00	44.47
397.19	28.09
397.39	32.77
397.58	30.43
397.77	0.00
397.97	42.13
398.16	74.90
398.35	0.00
398.55	51.49
398.74	0.00
398.93	0.00
399.12	46.81
399.32	11.70
399.51	39.79
399.70	56.17
399.90	65.54
400.09	0.00
400.28	30.43
400.47	60.85
400.67	16.38
400.86	16.38
401.05	35.11
401.24	21.06
401.44	7.02
401.63	0.00
401.82	0.00
402.01	35.11
402.21	4.68
402.40	58.51
402.59	0.00
402.78	86.60
402.97	0.00
403.17	0.00
403.36	25.75
403.55	7.02
403.74	74.90
403.93	42.13
404.13	67.88
404.32	74.90
404.51	0.00
404.70	0.00
404.89	0.00
405.09	7.02
405.28	18.72
405.47	72.56
405.66	14.04
405.85	4.68
406.05	86.60
406.24	4.68
406.43	60.85
406.62	60.85
406.81	23.41
407.00	81.92
407.20	18.72
407.39	9.36
407.58	63.19
407.77	56.17
407.96	53.83
408.15	0.00
408.34	16.38
408.54	4.68
408.73	58.51
408.92	0.00
409.11	0.00
409.30	32.77
409.49	74.90
409.68	100.64
409.87	53.83
410.07	44.47
410.26	18.72
410.45	11.70
410.64	81.92
410.83	0.00
411.02	9.36
411.21	7.02
411.40	70.22
411.59	42.13
411.78	44.47
411.98	63.19
412.17	30.43
412.36	65.54
412.55	0.00
412.74	58.51
412.93	11.70
413.12	74.90
413.31	53.83
413.50	0.00
413.69	0.00
413.88	74.90
414.07	0.00
414.26	11.70
414.45	28.09
414.64	46.81
414.83	0.00
415.02	9.36
415.22	0.00
415.41	0.00
415.60	9.36
415.79	37.45
415.98	0.00
416.17	44.47
416.36	16.38
416.55	74.90
416.74	77.24
416.93	23.41
417.12	42.13
417.31	42.13
417.50	53.83
417.69	93.62
417.88	18.72
418.07	7.02
418.26	49.15
418.45	18.72
418.64	37.45
418.83	44.47
419.02	16.38
419.21	9.36
419.39	16.38
419.58	77.24
419.77	126.39
419.96	0.00
420.15	70.22
420.34	28.09
420.53	56.17
420.72	51.49
420.91	39.79
421.10	37.45
421.29	28.09
421.48	0.00
421.67	9.36
421.86	0.00
422.05	70.22
422.24	37.45
422.43	23.41
422.61	0.00
422.80	28.09
422.99	49.15
423.18	35.11
423.37	0.00
423.56	14.04
423.75	58.51
423.94	32.77
424.13	84.26
424.32	25.75
424.50	0.00
424.69	53.83
424.88	46.81
425.07	23.41
425.26	42.13
425.45	28.09
425.64	44.47
425.83	35.11
426.01	0.00
426.20	21.06
426.39	0.00
426.58	32.77
426.77	95.96
426.96	21.06
427.15	25.75
427.33	11.70
427.52	0.00
427.71	14.04
427.90	0.00
428.09	0.00
428.28	37.45
428.46	0.00
428.65	0.00
428.84	58.51
429.03	44.47
429.22	56.17
429.40	32.77
429.59	102.98
429.78	53.83
429.97	7.02
430.16	0.00
430.34	46.81
430.53	119.37
430.72	16.38
430.91	0.00
431.10	42.13
431.28	14.04
431.47	0.00
431.66	0.00
431.85	28.09
432.03	46.81
432.22	9.36
432.41	11.70
432.60	100.64
432.79	23.41
432.97	7.02
433.16	39.79
433.35	49.15
433.54	0.00
433.72	53.83
433.91	14.04
434.10	42.13
434.28	0.00
434.47	0.00
434.66	60.85
434.85	86.60
435.03	35.11
435.22	191.92
435.41	102.98
435.59	7.02
435.78	107.66
435.97	30.43
436.16	86.60
436.34	35.11
436.53	0.00
436.72	0.00
436.90	0.00
437.09	21.06
437.28	25.75
437.46	21.06
437.65	70.22
437.84	18.72
438.02	9.36
438.21	21.06
438.40	11.70
438.58	37.45
438.77	28.09
438.96	23.41
439.14	39.79
439.33	77.24
439.52	35.11
439.70	0.00
439.89	49.15
440.08	0.00
440.26	91.28
440.45	58.51
440.63	100.64
440.82	51.49
441.01	0.00
441.19	4.68
441.38	65.54
441.57	0.00
441.75	63.19
441.94	58.51
442.12	42.13
442.31	72.56
442.50	9.36
442.68	81.92
442.87	37.45
443.05	58.51
443.24	35.11
443.43	9.36
443.61	0.00
443.80	49.15
443.98	42.13
444.17	81.92
444.35	67.88
444.54	95.96
444.73	72.56
444.91	7.02
445.10	2.34
445.28	28.09
445.47	37.45
445.65	77.24
445.84	147.45
446.02	9.36
446.21	91.28
446.39	16.38
446.58	0.00
446.77	9.36
446.95	18.72
447.14	51.49
447.32	35.11
447.51	58.51
447.69	65.54
447.88	60.85
448.06	39.79
448.25	77.24
448.43	42.13
448.62	56.17
448.80	0.00
448.99	16.38
449.17	0.00
449.36	0.00
449.54	44.47
449.73	65.54
449.91	4.68
450.10	30.43
450.28	0.00
450.46	25.75
450.65	74.90
450.83	0.00
451.02	28.09
451.20	53.83
451.39	86.60
451.57	11.70
451.76	60.85
451.94	4.68
452.13	70.22
452.31	0.00
452.49	107.66
452.68	0.00
452.86	84.26
453.05	11.70
453.23	0.00
453.42	110.01
453.60	67.88
453.78	14.04
453.97	35.11
454.15	0.00
454.34	65.54
454.52	11.70
454.70	58.51
454.89	11.70
455.07	42.13
455.26	42.13
455.44	23.41
455.62	93.62
455.81	37.45
455.99	0.00
456.17	0.00
456.36	46.81
456.54	72.56
456.73	65.54
456.91	60.85
457.09	28.09
457.28	44.47
457.46	60.85
457.64	32.77
457.83	67.88
458.01	28.09
458.19	56.17
458.38	107.66
458.56	39.79
458.74	72.56
458.93	79.58
459.11	44.47
459.29	53.83
459.48	110.01
459.66	23.41
459.84	0.00
460.03	56.17
460.21	91.28
460.39	77.24
460.57	42.13
460.76	25.75
460.94	0.00
461.12	44.47
461.31	60.85
461.49	35.11
461.67	63.19
461.85	11.70
462.04	49.15
462.22	95.96
462.40	91.28
462.59	0.00
462.77	51.49
462.95	81.92
463.13	46.81
463.32	51.49
463.50	49.15
463.68	11.70
463.86	0.00
464.05	16.38
464.23	23.41
464.41	49.15
464.59	42.13
464.78	37.45
464.96	7.02
465.14	30.43
465.32	0.00
465.50	60.85
465.69	25.75
465.87	9.36
466.05	63.19
466.23	93.62
466.41	98.30
466.60	53.83
466.78	63.19
466.96	56.17
467.14	0.00
467.32	60.85
467.51	51.49
467.69	0.00
467.87	0.00
468.05	70.22
468.23	56.17
468.41	35.11
468.60	16.38
468.78	23.41
468.96	4.68
469.14	18.72
469.32	37.45
469.50	16.38
469.69	18.72
469.87	0.00
470.05	67.88
470.23	44.47
470.41	72.56
470.59	16.38
470.77	30.43
470.95	72.56
471.14	0.00
471.32	32.77
471.50	0.00
471.68	0.00
471.86	126.39
472.04	44.47
472.22	18.72
472.40	21.06
472.58	67.88
472.77	74.90
472.95	77.24
473.13	79.58
473.31	53.83
473.49	86.60
473.67	4.68
473.85	91.28
474.03	28.09
474.21	70.22
474.39	0.00
474.57	4.68
474.75	0.00
474.93	0.00
475.12	95.96
475.30	32.77
475.48	21.06
475.66	0.00
475.84	42.13
476.02	140.43
476.20	0.00
476.38	107.66
476.56	58.51
476.74	11.70
476.92	79.58
477.10	2.34
477.28	86.60
477.46	91.28
477.64	0.00
477.82	56.17
478.00	32.77
478.18	88.94
478.36	35.11
478.54	49.15
478.72	67.88
478.90	0.00
479.08	91.28
479.26	28.09
479.44	11.70
479.62	0.00
479.80	0.00
479.98	0.00
480.16	37.45
480.34	0.00
480.52	98.30
480.70	23.41
480.88	9.36
481.06	53.83
481.24	77.24
481.41	49.15
481.59	53.83
481.77	91.28
481.95	32.77
482.13	74.90
482.31	23.41
482.49	60.85
482.67	72.56
482.85	67.88
483.03	53.83
483.21	95.96
483.39	30.43
483.57	91.28
483.74	25.75
483.92	2.34
484.10	65.54
484.28	9.36
484.46	30.43
484.64	93.62
484.82	23.41
485.00	91.28
485.18	25.75
485.35	18.72
485.53	32.77
485.71	0.00
485.89	11.70
486.07	39.79
486.25	56.17
486.43	35.11
486.61	0.00
486.78	7.02
486.96	46.81
487.14	72.56
487.32	0.00
487.50	0.00
487.68	63.19
487.85	39.79
488.03	56.17
488.21	56.17
488.39	114.69
488.57	11.70
488.75	56.17
488.92	18.72
489.10	21.06
489.28	53.83
489.46	65.54
489.64	112.35
489.81	70.22
489.99	72.56
490.17	56.17
490.35	4.68
490.53	72.56
490.70	79.58
490.88	2.34
491.06	133.41
491.24	0.00
491.41	65.54
491.59	46.81
491.77	44.47
491.95	100.64
492.13	51.49
492.30	14.04
492.48	58.51
492.66	63.19
492.84	93.62
493.01	49.15
493.19	4.68
493.37	91.28
493.54	32.77
493.72	77.24
493.90	14.04
494.08	28.09
494.25	60.85
494.43	65.54
494.61	11.70
494.79	56.17
494.96	77.24
495.14	42.13
495.32	37.45
495.49	39.79
495.67	53.83
495.85	9.36
496.02	42.13
496.20	60.85
496.38	0.00
496.55	49.15
496.73	4.68
496.91	86.60
497.09	46.81
497.26	95.96
497.44	93.62
497.62	51.49
497.79	77.24
497.97	11.70
498.14	30.43
498.32	32.77
498.50	58.51
498.67	53.83
498.85	23.41
499.03	14.04
499.20	65.54
499.38	42.13
499.56	84.26
499.73	11.70
499.91	58.51
500.08	51.49
500.26	84.26
500.44	39.79
500.61	72.56
500.79	42.13
500.97	25.75
501.14	74.90
501.32	58.51
501.49	32.77
501.67	42.13
501.84	86.60
502.02	44.47
502.20	56.17
502.37	79.58
502.55	4.68
502.72	95.96
502.90	4.68
503.07	86.60
503.25	98.30
503.43	63.19
503.60	102.98
503.78	86.60
503.95	0.00
504.13	79.58
504.30	81.92
504.48	88.94
504.65	110.01
504.83	56.17
505.01	7.02
505.18	91.28
505.36	39.79
505.53	49.15
505.71	28.09
505.88	67.88
506.06	93.62
506.23	16.38
506.41	117.03
506.58	42.13
506.76	60.85
506.93	11.70
507.11	51.49
507.28	60.85
507.46	49.15
507.63	56.17
507.81	9.36
507.98	35.11
508.16	0.00
508.33	35.11
508.50	0.00
508.68	23.41
508.85	79.58
509.03	28.09
509.20	67.88
509.38	16.38
509.55	121.71
509.73	25.75
509.90	46.81
510.08	37.45
510.25	91.28
510.42	114.69
510.60	60.85
510.77	128.73
510.95	28.09
511.12	0.00
511.30	51.49
511.47	32.77
511.64	25.75
511.82	88.94
511.99	28.09
512.17	56.17
512.34	79.58
512.51	65.54
512.69	117.03
512.86	56.17
513.04	79.58
513.21	0.00
513.38	56.17
513.56	65.54
513.73	110.01
513.90	63.19
514.08	112.35
514.25	74.90
514.43	63.19
514.60	98.30
514.77	4.68
514.95	135.75
515.12	53.83
515.29	39.79
515.47	86.60
515.64	42.13
515.81	53.83
515.99	44.47
516.16	23.41
516.33	65.54
516.51	14.04
516.68	46.81
516.85	51.49
517.03	117.03
517.20	79.58
517.37	0.00
517.54	25.75
517.72	0.00
517.89	72.56
518.06	51.49
518.24	39.79
518.41	23.41
518.58	16.38
518.75	18.72
518.93	0.00
519.10	25.75
519.27	77.24
519.45	51.49
519.62	37.45
519.79	14.04
519.96	67.88
520.14	39.79
520.31	93.62
520.48	21.06
520.65	53.83
520.83	114.69
521.00	21.06
521.17	67.88
521.34	124.05
521.52	63.19
521.69	9.36
521.86	23.41
522.03	67.88
522.20	30.43
522.38	81.92
522.55	21.06
522.72	42.13
522.89	60.85
523.07	60.85
523.24	56.17
523.41	74.90
523.58	4.68
523.75	0.00
523.92	46.81
524.10	100.64
524.27	7.02
524.44	53.83
524.61	28.09
524.78	49.15
524.96	37.45
525.13	67.88
525.30	58.51
525.47	53.83
525.64	25.75
525.81	49.15
525.98	23.41
526.16	60.85
526.33	11.70
526.50	84.26
526.67	51.49
526.84	86.60
527.01	39.79
527.18	21.06
527.36	49.15
527.53	135.75
527.70	100.64
527.87	53.83
528.04	70.22
528.21	58.51
528.38	25.75
528.55	63.19
528.72	25.75
528.89	35.11
529.07	51.49
529.24	88.94
529.41	67.88
529.58	30.43
529.75	0.00
529.92	18.72
530.09	63.19
530.26	0.00
530.43	39.79
530.60	37.45
530.77	0.00
530.94	21.06
531.11	7.02
531.28	56.17
531.46	18.72
531.63	70.22
531.80	53.83
531.97	72.56
532.14	51.49
532.31	79.58
532.48	42.13
532.65	58.51
532.82	35.11
532.99	114.69
533.16	14.04
533.33	60.85
533.50	67.88
533.67	51.49
533.84	0.00
534.01	88.94
534.18	46.81
534.35	145.11
534.52	107.66
534.69	32.77
534.86	49.15
535.03	23.41
535.20	67.88
535.37	60.85
535.54	79.58
535.71	65.54
535.88	91.28
536.05	93.62
536.22	67.88
536.38	30.43
536.55	81.92
536.72	77.24
536.89	18.72
537.06	86.60
537.23	4.68
537.40	86.60
537.57	37.45
537.74	53.83
537.91	14.04
538.08	44.47
538.25	133.41
538.42	0.00
538.59	88.94
538.75	72.56
538.92	30.43
539.09	44.47
539.26	51.49
539.43	9.36
539.60	0.00
539.77	81.92
539.94	7.02
540.11	95.96
540.28	23.41
540.44	84.26
540.61	67.88
540.78	37.45
540.95	30.43
541.12	35.11
541.29	133.41
541.46	42.13
541.62	74.90
541.79	72.56
541.96	63.19
542.13	51.49
542.30	9.36
542.47	42.13
542.63	117.03
542.80	56.17
542.97	0.00
543.14	37.45
543.31	39.79
543.48	53.83
543.64	14.04
543.81	44.47
543.98	2.34
544.15	30.43
544.32	30.43
544.48	39.79
544.65	67.88
544.82	72.56
544.99	51.49
545.16	35.11
545.32	86.60
545.49	77.24
545.66	25.75
545.83	110.01
546.00	21.06
546.16	53.83
546.33	0.00
546.50	56.17
546.67	53.83
546.83	67.88
547.00	58.51
547.17	58.51
547.34	70.22
547.50	0.00
547.67	0.00
547.84	18.72
548.00	21.06
548.17	0.00
548.34	114.69
548.51	37.45
548.67	65.54
548.84	39.79
549.01	53.83
549.18	88.94
549.34	11.70
549.51	28.09
549.68	9.36
549.84	0.00
550.01	56.17
550.18	0.00
550.34	91.28
550.51	60.85
550.68	46.81
550.84	79.58
551.01	86.60
551.18	23.41
551.34	0.00
551.51	98.30
551.68	77.24
551.84	23.41
552.01	16.38
552.18	49.15
552.34	67.88
552.51	63.19
552.68	72.56
552.84	0.00
553.01	16.38
553.18	23.41
553.34	18.72
553.51	9.36
553.67	44.47
553.84	74.90
554.01	37.45
554.17	0.00
554.34	51.49
554.51	77.24
554.67	37.45
554.84	53.83
555.00	60.85
555.17	32.77
555.33	149.79
555.50	0.00
555.67	42.13
555.83	46.81
556.00	7.02
556.16	37.45
556.33	51.49
556.50	114.69
556.66	124.05
556.83	0.00
556.99	67.88
557.16	67.88
557.32	42.13
557.49	18.72
557.65	32.77
557.82	28.09
557.98	25.75
558.15	77.24
558.32	9.36
558.48	0.00
558.65	95.96
558.81	4.68
558.98	14.04
559.14	86.60
559.31	0.00
559.47	88.94
559.64	67.88
559.80	23.41
559.97	98.30
560.13	14.04
560.30	14.04
560.46	14.04
560.63	0.00
560.79	0.00
560.96	30.43
561.12	42.13
561.29	102.98
561.45	110.01
561.61	25.75
561.78	0.00
561.94	86.60
562.11	93.62
562.27	30.43
562.44	72.56
562.60	51.49
562.77	67.88
562.93	44.47
563.10	128.73
563.26	67.88
563.42	39.79
563.59	0.00
563.75	67.88
563.92	74.90
564.08	72.56
564.24	32.77
564.41	81.92
564.57	51.49
564.74	84.26
564.90	18.72
565.07	39.79
565.23	72.56
565.39	14.04
565.56	4.68
565.72	0.00
565.88	49.15
566.05	32.77
566.21	88.94
566.38	39.79
566.54	95.96
566.70	98.30
566.87	30.43
567.03	9.36
567.19	42.13
567.36	91.28
567.52	77.24
567.68	46.81
567.85	63.19
568.01	37.45
568.17	4.68
568.34	37.45
568.50	0.00
568.66	65.54
568.83	95.96
568.99	65.54
569.15	25.75
569.32	42.13
569.48	95.96
569.64	44.47
569.81	46.81
569.97	42.13
570.13	35.11
570.30	32.77
570.46	7.02
570.62	32.77
570.78	91.28
570.95	23.41
571.11	23.41
571.27	74.90
571.43	131.07
571.60	51.49
571.76	58.51
571.92	63.19
572.09	42.13
572.25	65.54
572.41	117.03
572.57	51.49
572.74	65.54
572.90	70.22
573.06	51.49
573.22	63.19
573.38	70.22
573.55	44.47
573.71	0.00
573.87	0.00
574.03	65.54
574.20	107.66
574.36	37.45
574.52	14.04
574.68	21.06
574.84	51.49
575.01	0.00
575.17	23.41
575.33	53.83
575.49	23.41
575.65	107.66
575.82	37.45
575.98	23.41
576.14	39.79
576.30	65.54
576.46	77.24
576.62	81.92
576.79	91.28
576.95	0.00
577.11	42.13
577.27	107.66
577.43	44.47
577.59	105.32
577.75	147.45
577.92	4.68
578.08	46.81
578.24	35.11
578.40	42.13
578.56	0.00
578.72	79.58
578.88	42.13
579.04	72.56
579.21	56.17
579.37	30.43
579.53	16.38
579.69	28.09
579.85	65.54
580.01	79.58
580.17	0.00
580.33	56.17
580.49	21.06
580.65	7.02
580.82	0.00
580.98	35.11
581.14	39.79
581.30	0.00
581.46	63.19
581.62	42.13
581.78	58.51
581.94	25.75
582.10	35.11
582.26	16.38
582.42	107.66
582.58	30.43
582.74	65.54
582.90	21.06
583.06	49.15
583.22	0.00
583.38	44.47
583.54	0.00
583.70	42.13
583.86	37.45
584.02	81.92
584.18	46.81
584.34	25.75
584.50	21.06
584.66	35.11
584.82	23.41
584.98	46.81
585.14	100.64
585.30	0.00
585.46	0.00
585.62	39.79
585.78	23.41
585.94	0.00
586.10	0.00
586.26	67.88
586.42	35.11
586.58	4.68
586.74	14.04
586.90	42.13
587.06	0.00
587.22	44.47
587.38	58.51
587.54	81.92
587.70	95.96
587.86	46.81
588.02	16.38
588.18	28.09
588.34	65.54
588.49	32.77
588.65	84.26
588.81	42.13
588.97	7.02
589.13	0.00
589.29	72.56
589.45	110.01
589.61	32.77
589.77	0.00
589.93	86.60
590.08	67.88
590.24	67.88
590.40	58.51
590.56	42.13
590.72	173.20
590.88	112.35
591.04	18.72
591.20	16.38
591.35	11.70
591.51	18.72
591.67	70.22
591.83	30.43
591.99	77.24
592.15	21.06
592.31	58.51
592.46	30.43
592.62	65.54
592.78	7.02
592.94	0.00
593.10	14.04
593.26	60.85
593.41	60.85
593.57	98.30
593.73	37.45
593.89	18.72
594.05	63.19
594.20	49.15
594.36	86.60
594.52	67.88
594.68	32.77
594.84	114.69
594.99	110.01
595.15	0.00
595.31	39.79
595.47	32.77
595.62	28.09
595.78	84.26
595.94	0.00
596.10	39.79
596.25	37.45
596.41	25.75
596.57	21.06
596.73	21.06
596.88	0.00
597.04	86.60
597.20	49.15
597.36	95.96
597.51	44.47
597.67	28.09
597.83	25.75
597.99	30.43
598.14	79.58
598.30	0.00
598.46	37.45
598.61	63.19
598.77	16.38
598.93	60.85
599.09	0.00
599.24	0.00
599.40	74.90
599.56	102.98
599.71	42.13
599.87	11.70
600.03	60.85
600.18	39.79
600.34	67.88
600.50	35.11
600.65	60.85
600.81	42.13
600.97	117.03
601.12	32.77
601.28	70.22
601.44	63.19
601.59	74.90
601.75	65.54
601.91	37.45
602.06	0.00
602.22	39.79
602.37	74.90
602.53	65.54
602.69	95.96
602.84	86.60
603.00	39.79
603.16	72.56
603.31	23.41
603.47	110.01
603.62	0.00
603.78	23.41
603.94	77.24
604.09	32.77
604.25	63.19
604.40	126.39
604.56	32.77
604.71	58.51
604.87	35.11
605.03	74.90
605.18	56.17
605.34	100.64
605.49	25.75
605.65	25.75
605.80	14.04
605.96	23.41
606.12	65.54
606.27	39.79
606.43	18.72
606.58	0.00
606.74	25.75
606.89	21.06
607.05	65.54
607.20	77.24
607.36	14.04
607.51	79.58
607.67	81.92
607.82	39.79
607.98	58.51
608.13	42.13
608.29	100.64
608.44	72.56
608.60	60.85
608.75	28.09
608.91	42.13
609.06	56.17
609.22	18.72
609.37	42.13
609.53	98.30
609.68	53.83
609.84	84.26
609.99	0.00
610.15	0.00
610.30	84.26
610.46	28.09
610.61	0.00
610.76	0.00
610.92	72.56
611.07	39.79
611.23	37.45
611.38	53.83
611.54	42.13
611.69	51.49
611.84	0.00
612.00	14.04
612.15	56.17
612.31	51.49
612.46	79.58
612.62	56.17
612.77	21.06
612.92	30.43
613.08	102.98
613.23	53.83
613.39	30.43
613.54	49.15
613.69	0.00
613.85	105.32
614.00	60.85
614.15	65.54
614.31	39.79
614.46	0.00
614.62	135.75
614.77	72.56
614.92	56.17
615.08	21.06
615.23	53.83
615.38	42.13
615.54	35.11
615.69	0.00
615.84	117.03
616.00	70.22
616.15	18.72
616.30	16.38
616.46	79.58
616.61	32.77
616.76	46.81
616.92	51.49
617.07	84.26
617.22	98.30
617.37	0.00
617.53	102.98
617.68	58.51
617.83	49.15
617.99	53.83
618.14	39.79
618.29	86.60
618.45	65.54
618.60	49.15
618.75	0.00
618.90	84.26
619.06	16.38
619.21	58.51
619.36	0.00
619.51	0.00
619.67	95.96
619.82	81.92
619.97	2.34
620.12	91.28
620.28	42.13
620.43	56.17
620.58	0.00
620.73	28.09
620.89	30.43
621.04	105.32
621.19	67.88
621.34	9.36
621.49	0.00
621.65	21.06
621.80	49.15
621.95	56.17
622.10	112.35
622.25	14.04
622.41	46.81
622.56	88.94
622.71	81.92
622.86	93.62
623.01	46.81
623.16	0.00
623.32	121.71
623.47	25.75
623.62	0.00
623.77	21.06
623.92	86.60
624.07	37.45
624.23	2.34
624.38	86.60
624.53	46.81
624.68	65.54
624.83	32.77
624.98	84.26
625.13	77.24
625.29	14.04
625.44	84.26
625.59	86.60
625.74	23.41
625.89	44.47
626.04	14.04
626.19	11.70
626.34	42.13
626.49	79.58
626.65	79.58
626.80	18.72
626.95	72.56
627.10	28.09
627.25	18.72
627.40	30.43
627.55	0.00
627.70	0.00
627.85	23.41
628.00	51.49
628.15	4.68
628.30	0.00
628.45	51.49
628.60	65.54
628.76	0.00
628.91	0.00
629.06	44.47
629.21	95.96
629.36	14.04
629.51	37.45
629.66	98.30
629.81	49.15
629.96	86.60
630.11	63.19
630.26	81.92
630.41	100.64
630.56	0.00
630.71	32.77
630.86	42.13
631.01	2.34
631.16	2.34
631.31	30.43
631.46	0.00
631.61	53.83
631.76	25.75
631.91	25.75
632.06	112.35
632.21	70.22
632.36	79.58
632.51	42.13
632.66	67.88
632.81	37.45
632.96	49.15
633.10	63.19
633.25	77.24
633.40	86.60
633.55	74.90
633.70	37.45
633.85	56.17
634.00	77.24
634.15	35.11
634.30	25.75
634.45	42.13
634.60	39.79
634.75	67.88
634.90	16.38
635.05	35.11
635.19	37.45
635.34	72.56
635.49	0.00
635.64	51.49
635.79	7.02
635.94	11.70
636.09	37.45
636.24	18.72
636.39	0.00
636.53	53.83
636.68	72.56
636.83	51.49
636.98	35.11
637.13	21.06
637.28	46.81
637.43	0.00
637.57	56.17
637.72	51.49
637.87	65.54
638.02	0.00
638.17	49.15
638.32	25.75
638.46	37.45
638.61	7.02
638.76	70.22
638.91	84.26
639.06	49.15
639.20	4.68
639.35	30.43
639.50	25.75
639.65	16.38
639.80	46.81
639.94	16.38
640.09	32.77
640.24	23.41
640.39	37.45
640.54	0.00
640.68	70.22
640.83	16.38
640.98	9.36
641.13	32.77
641.27	91.28
641.42	23.41
641.57	58.51
641.72	14.04
641.86	49.15
642.01	102.98
642.16	60.85
642.31	21.06
642.45	65.54
642.60	35.11
642.75	65.54
642.90	72.56
643.04	30.43
643.19	2.34
643.34	16.38
643.48	53.83
643.63	16.38
643.78	77.24
643.93	0.00
644.07	84.26
644.22	0.00
644.37	63.19
644.51	0.00
644.66	39.79
644.81	70.22
644.95	0.00
645.10	16.38
645.25	25.75
645.39	35.11
645.54	42.13
645.69	67.88
645.83	53.83
645.98	53.83
646.13	65.54
646.27	4.68
646.42	147.45
646.57	42.13
646.71	91.28
646.86	42.13
647.00	46.81
647.15	0.00
647.30	39.79
647.44	60.85
647.59	32.77
647.74	14.04
647.88	32.77
648.03	25.75
648.17	14.04
648.32	2.34
648.47	18.72
648.61	93.62
648.76	0.00
648.90	23.41
649.05	67.88
649.20	16.38
649.34	58.51
649.49	53.83
649.63	4.68
649.78	11.70
649.92	0.00
650.07	88.94
650.21	60.85
650.36	25.75
650.51	58.51
650.65	88.94
650.80	32.77
650.94	23.41
651.09	28.09
651.23	81.92
651.38	16.38
651.52	46.81
651.67	74.90
651.81	25.75
651.96	30.43
652.10	163.84
652.25	4.68
652.39	79.58
652.54	11.70
652.68	25.75
652.83	58.51
652.97	79.58
653.12	37.45
653.26	9.36
653.41	0.00
653.55	14.04
653.70	35.11
653.84	0.00
653.99	95.96
654.13	0.00
654.27	39.79
654.42	4.68
654.56	0.00
654.71	25.75
654.85	102.98
655.00	37.45
655.14	9.36
655.29	35.11
655.43	37.45
655.57	28.09
655.72	0.00
655.86	60.85
656.01	32.77
656.15	79.58
656.30	86.60
656.44	0.00
656.58	32.77
656.73	0.00
656.87	28.09
657.01	0.00
657.16	30.43
657.30	35.11
657.45	100.64
657.59	112.35
657.73	0.00
657.88	0.00
658.02	11.70
658.16	93.62
658.31	0.00
658.45	0.00
658.60	11.70
658.74	46.81
658.88	117.03
659.03	11.70
659.17	28.09
659.31	46.81
659.46	65.54
659.60	35.11
659.74	46.81
659.89	0.00
660.03	14.04
660.17	25.75
660.32	35.11
660.46	56.17
660.60	79.58
660.74	39.79
660.89	16.38
661.03	0.00
661.17	35.11
661.32	44.47
661.46	28.09
661.60	44.47
661.74	53.83
661.89	32.77
662.03	25.75
662.17	0.00
662.31	30.43
662.46	23.41
662.60	0.00
662.74	53.83
662.88	56.17
663.03	4.68
663.17	84.26
663.31	30.43
663.45	77.24
663.60	35.11
663.74	56.17
663.88	25.75
664.02	60.85
664.17	39.79
664.31	2.34
664.45	44.47
664.59	88.94
664.73	23.41
664.88	70.22
665.02	30.43
665.16	0.00
665.30	65.54
665.44	53.83
665.59	53.83
665.73	0.00
665.87	18.72
666.01	58.51
666.15	0.00
666.29	23.41
666.44	84.26
666.58	42.13
666.72	32.77
666.86	0.00
667.00	65.54
667.14	93.62
667.28	0.00
667.43	37.45
667.57	51.49
667.71	63.19
667.85	32.77
667.99	35.11
668.13	72.56
668.27	51.49
668.41	0.00
668.56	32.77
668.70	0.00
668.84	9.36
668.98	42.13
669.12	7.02
669.26	46.81
669.40	72.56
669.54	49.15
669.68	49.15
669.82	4.68
669.96	42.13
670.10	37.45
670.25	49.15
670.39	11.70
670.53	0.00
670.67	14.04
670.81	4.68
670.95	60.85
671.09	0.00
671.23	0.00
671.37	67.88
671.51	0.00
671.65	0.00
671.79	58.51
671.93	21.06
672.07	53.83
672.21	110.01
672.35	0.00
672.49	16.38
672.63	74.90
672.77	46.81
672.91	95.96
673.05	42.13
673.19	11.70
673.33	14.04
673.47	49.15
673.61	23.41
673.75	0.00
673.89	81.92
674.03	4.68
674.17	0.00
674.31	4.68
674.45	0.00
674.59	51.49
674.73	70.22
674.87	88.94
675.01	56.17
675.15	18.72
675.29	35.11
675.43	7.02
675.56	67.88
675.70	70.22
675.84	93.62
675.98	0.00
676.12	147.45
676.26	72.56
676.40	0.00
676.54	93.62
676.68	56.17
676.82	79.58
676.96	93.62
677.10	44.47
677.23	53.83
677.37	11.70
677.51	37.45
677.65	81.92
677.79	107.66
677.93	28.09
678.07	51.49
678.21	28.09
678.34	0.00
678.48	58.51
678.62	0.00
678.76	0.00
678.90	0.00
679.04	25.75
679.18	81.92
679.31	70.22
679.45	152.13
679.59	65.54
679.73	4.68
679.87	32.77
680.00	11.70
680.14	72.56
680.28	0.00
680.42	60.85
680.56	77.24
680.70	0.00
680.83	93.62
680.97	0.00
681.11	0.00
681.25	58.51
681.39	72.56
681.52	18.72
681.66	2.34
681.80	0.00
681.94	0.00
682.07	16.38
682.21	49.15
682.35	18.72
682.49	25.75
682.62	49.15
682.76	46.81
682.90	32.77
683.04	0.00
683.17	0.00
683.31	93.62
683.45	21.06
683.59	53.83
683.72	2.34
683.86	0.00
684.00	46.81
684.13	88.94
684.27	86.60
684.41	67.88
684.55	37.45
684.68	53.83
684.82	46.81
684.96	28.09
685.09	42.13
685.23	46.81
685.37	30.43
685.50	65.54
685.64	0.00
685.78	9.36
685.91	0.00
686.05	16.38
686.19	42.13
686.32	28.09
686.46	0.00
686.60	124.05
686.73	58.51
686.87	44.47
687.01	60.85
687.14	39.79
687.28	77.24
687.42	67.88
687.55	2.34
687.69	35.11
687.82	14.04
687.96	112.35
688.10	46.81
688.23	7.02
688.37	37.45
688.50	60.85
688.64	23.41
688.78	14.04
688.91	16.38
689.05	4.68
689.18	21.06
689.32	42.13
689.46	74.90
689.59	53.83
689.73	9.36
689.86	0.00
690.00	28.09
690.13	35.11
690.27	7.02
690.41	35.11
690.54	56.17
690.68	49.15
690.81	21.06
690.95	18.72
691.08	21.06
691.22	0.00
691.35	44.47
691.49	98.30
691.62	32.77
691.76	21.06
691.89	63.19
692.03	58.51
692.16	2.34
692.30	74.90
692.43	63.19
692.57	25.75
692.70	42.13
692.84	53.83
692.97	0.00
693.11	49.15
693.24	0.00
693.38	0.00
693.51	0.00
693.65	58.51
693.78	32.77
693.92	25.75
694.05	23.41
694.19	23.41
694.32	0.00
694.45	56.17
694.59	39.79
694.72	63.19
694.86	25.75
694.99	25.75
695.13	84.26
695.26	84.26
695.39	65.54
695.53	37.45
695.66	0.00
695.80	14.04
695.93	44.47
696.07	88.94
696.20	53.83
696.33	0.00
696.47	14.04
696.60	0.00
696.73	28.09
696.87	0.00
697.00	65.54
697.14	37.45
697.27	11.70
697.40	46.81
697.54	107.66
697.67	30.43
697.80	60.85
697.94	7.02
698.07	98.30
698.21	95.96
698.34	23.41
698.47	7.02
698.61	25.75
698.74	77.24
698.87	25.75
699.01	37.45
699.14	74.90
699.27	11.70
699.40	79.58
699.54	84.26
699.67	39.79
699.80	56.17
699.94	0.00
700.07	0.00
700.20	102.98
700.34	0.00
700.47	72.56
700.60	11.70
700.73	105.32
700.87	18.72
701.00	0.00
701.13	42.13
701.26	28.09
701.40	23.41
701.53	49.15
701.66	100.64
701.79	77.24
701.93	0.00
702.06	105.32
702.19	100.64
702.32	28.09
702.46	0.00
702.59	25.75
702.72	0.00
702.85	117.03
702.99	56.17
703.12	32.77
703.25	37.45
703.38	32.77
703.51	65.54
703.65	0.00
703.78	84.26
703.91	86.60
704.04	7.02
704.17	0.00
704.31	37.45
704.44	0.00
704.57	42.13
704.70	16.38
704.83	25.75
704.96	0.00
705.10	0.00
705.23	37.45
>>>>>End Processed Spectral Data<<<<<
