SpectraSuite Data File
++++++++++++++++++++++++++++++++++++
Date: Fri Oct 04 12:13:34 GMT-05:00 2013
User: price-jones
Dark Spectrum Present: No
Reference Spectrum Present: No
Number of Sampled Component Spectra: 1
Spectrometers: USB2+H05261
Integration Time (usec): 10000 (USB2+H05261)
Spectra Averaged: 1 (USB2+H05261)
Boxcar Smoothing: 0 (USB2+H05261)
Correct for Electrical Dark: No (USB2+H05261)
Strobe/Lamp Enabled: No (USB2+H05261)
Correct for Detector Non-linearity: No (USB2+H05261)
Correct for Stray Light: No (USB2+H05261)
Number of Pixels in Processed Spectrum: 2048
>>>>>Begin Processed Spectral Data<<<<<
365.73	51.49
365.92	51.49
366.12	51.49
366.32	0.00
366.52	0.00
366.72	0.00
366.91	0.00
367.11	0.00
367.31	0.00
367.51	0.00
367.70	0.00
367.90	0.00
368.10	0.00
368.30	0.00
368.49	0.00
368.69	0.00
368.89	0.00
369.09	0.00
369.28	0.00
369.48	0.00
369.68	0.00
369.87	0.00
370.07	0.00
370.27	0.00
370.47	0.00
370.66	0.00
370.86	0.00
371.06	4.68
371.25	42.13
371.45	0.00
371.65	0.00
371.84	0.00
372.04	0.00
372.24	0.00
372.44	37.45
372.63	9.36
372.83	56.17
373.03	14.04
373.22	0.00
373.42	0.00
373.62	0.00
373.81	2.34
374.01	16.38
374.21	72.56
374.40	25.75
374.60	4.68
374.79	0.00
374.99	18.72
375.19	28.09
375.38	0.00
375.58	49.15
375.78	0.00
375.97	114.69
376.17	0.00
376.37	37.45
376.56	49.15
376.76	0.00
376.95	63.19
377.15	0.00
377.35	11.70
377.54	21.06
377.74	74.90
377.93	11.70
378.13	0.00
378.33	21.06
378.52	0.00
378.72	0.00
378.91	16.38
379.11	16.38
379.31	0.00
379.50	79.58
379.70	72.56
379.89	0.00
380.09	9.36
380.28	23.41
380.48	14.04
380.68	7.02
380.87	44.47
381.07	0.00
381.26	46.81
381.46	42.13
381.65	0.00
381.85	4.68
382.04	63.19
382.24	2.34
382.43	0.00
382.63	65.54
382.83	16.38
383.02	2.34
383.22	9.36
383.41	63.19
383.61	16.38
383.80	35.11
384.00	46.81
384.19	49.15
384.39	23.41
384.58	65.54
384.78	0.00
384.97	110.01
385.17	46.81
385.36	4.68
385.56	37.45
385.75	37.45
385.95	44.47
386.14	42.13
386.34	0.00
386.53	21.06
386.72	9.36
386.92	84.26
387.11	0.00
387.31	74.90
387.50	51.49
387.70	4.68
387.89	37.45
388.09	9.36
388.28	44.47
388.48	9.36
388.67	79.58
388.86	58.51
389.06	9.36
389.25	60.85
389.45	0.00
389.64	42.13
389.84	79.58
390.03	110.01
390.22	28.09
390.42	0.00
390.61	11.70
390.81	42.13
391.00	7.02
391.19	0.00
391.39	9.36
391.58	16.38
391.78	63.19
391.97	4.68
392.16	46.81
392.36	0.00
392.55	14.04
392.75	32.77
392.94	84.26
393.13	42.13
393.33	105.32
393.52	25.75
393.71	72.56
393.91	0.00
394.10	42.13
394.29	0.00
394.49	0.00
394.68	65.54
394.88	30.43
395.07	107.66
395.26	21.06
395.46	9.36
395.65	86.60
395.84	32.77
396.04	117.03
396.23	51.49
396.42	21.06
396.62	65.54
396.81	25.75
397.00	21.06
397.19	30.43
397.39	53.83
397.58	4.68
397.77	25.75
397.97	25.75
398.16	0.00
398.35	42.13
398.55	14.04
398.74	18.72
398.93	2.34
399.12	30.43
399.32	28.09
399.51	112.35
399.70	9.36
399.90	28.09
400.09	2.34
400.28	0.00
400.47	74.90
400.67	25.75
400.86	21.06
401.05	28.09
401.24	56.17
401.44	14.04
401.63	16.38
401.82	0.00
402.01	37.45
402.21	2.34
402.40	9.36
402.59	2.34
402.78	35.11
402.97	30.43
403.17	25.75
403.36	42.13
403.55	49.15
403.74	16.38
403.93	58.51
404.13	60.85
404.32	9.36
404.51	0.00
404.70	16.38
404.89	56.17
405.09	49.15
405.28	88.94
405.47	0.00
405.66	16.38
405.85	25.75
406.05	23.41
406.24	42.13
406.43	63.19
406.62	58.51
406.81	9.36
407.00	58.51
407.20	0.00
407.39	14.04
407.58	0.00
407.77	79.58
407.96	51.49
408.15	9.36
408.34	74.90
408.54	86.60
408.73	23.41
408.92	37.45
409.11	72.56
409.30	16.38
409.49	56.17
409.68	74.90
409.87	0.00
410.07	28.09
410.26	32.77
410.45	0.00
410.64	16.38
410.83	14.04
411.02	65.54
411.21	46.81
411.40	70.22
411.59	56.17
411.78	0.00
411.98	0.00
412.17	77.24
412.36	65.54
412.55	53.83
412.74	21.06
412.93	28.09
413.12	42.13
413.31	0.00
413.50	72.56
413.69	121.71
413.88	21.06
414.07	16.38
414.26	74.90
414.45	25.75
414.64	65.54
414.83	93.62
415.02	44.47
415.22	53.83
415.41	49.15
415.60	0.00
415.79	0.00
415.98	70.22
416.17	23.41
416.36	37.45
416.55	21.06
416.74	14.04
416.93	56.17
417.12	98.30
417.31	46.81
417.50	0.00
417.69	72.56
417.88	30.43
418.07	58.51
418.26	32.77
418.45	65.54
418.64	44.47
418.83	74.90
419.02	93.62
419.21	35.11
419.39	72.56
419.58	56.17
419.77	4.68
419.96	58.51
420.15	0.00
420.34	74.90
420.53	7.02
420.72	65.54
420.91	4.68
421.10	110.01
421.29	74.90
421.48	72.56
421.67	88.94
421.86	112.35
422.05	46.81
422.24	35.11
422.43	126.39
422.61	70.22
422.80	7.02
422.99	0.00
423.18	25.75
423.37	25.75
423.56	28.09
423.75	60.85
423.94	46.81
424.13	88.94
424.32	28.09
424.50	105.32
424.69	0.00
424.88	46.81
425.07	81.92
425.26	42.13
425.45	65.54
425.64	39.79
425.83	18.72
426.01	95.96
426.20	28.09
426.39	14.04
426.58	18.72
426.77	4.68
426.96	77.24
427.15	65.54
427.33	84.26
427.52	18.72
427.71	39.79
427.90	16.38
428.09	44.47
428.28	18.72
428.46	18.72
428.65	39.79
428.84	88.94
429.03	39.79
429.22	117.03
429.40	65.54
429.59	56.17
429.78	121.71
429.97	16.38
430.16	58.51
430.34	9.36
430.53	0.00
430.72	0.00
430.91	128.73
431.10	0.00
431.28	117.03
431.47	65.54
431.66	46.81
431.85	2.34
432.03	98.30
432.22	58.51
432.41	67.88
432.60	86.60
432.79	49.15
432.97	152.13
433.16	110.01
433.35	4.68
433.54	0.00
433.72	56.17
433.91	14.04
434.10	72.56
434.28	28.09
434.47	4.68
434.66	42.13
434.85	0.00
435.03	39.79
435.22	98.30
435.41	117.03
435.59	74.90
435.78	0.00
435.97	14.04
436.16	88.94
436.34	58.51
436.53	35.11
436.72	42.13
436.90	14.04
437.09	42.13
437.28	70.22
437.46	4.68
437.65	37.45
437.84	84.26
438.02	7.02
438.21	0.00
438.40	81.92
438.58	28.09
438.77	102.98
438.96	0.00
439.14	35.11
439.33	42.13
439.52	67.88
439.70	42.13
439.89	56.17
440.08	156.82
440.26	46.81
440.45	25.75
440.63	39.79
440.82	58.51
441.01	46.81
441.19	4.68
441.38	16.38
441.57	35.11
441.75	0.00
441.94	60.85
442.12	63.19
442.31	7.02
442.50	30.43
442.68	128.73
442.87	131.07
443.05	49.15
443.24	30.43
443.43	60.85
443.61	58.51
443.80	35.11
443.98	105.32
444.17	81.92
444.35	70.22
444.54	23.41
444.73	7.02
444.91	49.15
445.10	42.13
445.28	88.94
445.47	79.58
445.65	32.77
445.84	46.81
446.02	126.39
446.21	35.11
446.39	88.94
446.58	84.26
446.77	0.00
446.95	14.04
447.14	44.47
447.32	58.51
447.51	14.04
447.69	32.77
447.88	18.72
448.06	46.81
448.25	18.72
448.43	86.60
448.62	28.09
448.80	0.00
448.99	42.13
449.17	18.72
449.36	86.60
449.54	60.85
449.73	65.54
449.91	133.41
450.10	35.11
450.28	114.69
450.46	2.34
450.65	84.26
450.83	95.96
451.02	53.83
451.20	28.09
451.39	30.43
451.57	21.06
451.76	53.83
451.94	53.83
452.13	35.11
452.31	93.62
452.49	65.54
452.68	86.60
452.86	39.79
453.05	70.22
453.23	77.24
453.42	42.13
453.60	56.17
453.78	2.34
453.97	23.41
454.15	88.94
454.34	121.71
454.52	53.83
454.70	42.13
454.89	4.68
455.07	93.62
455.26	70.22
455.44	100.64
455.62	102.98
455.81	145.11
455.99	60.85
456.17	67.88
456.36	65.54
456.54	63.19
456.73	142.77
456.91	0.00
457.09	25.75
457.28	91.28
457.46	49.15
457.64	51.49
457.83	79.58
458.01	49.15
458.19	74.90
458.38	18.72
458.56	53.83
458.74	84.26
458.93	117.03
459.11	81.92
459.29	119.37
459.48	93.62
459.66	58.51
459.84	18.72
460.03	95.96
460.21	35.11
460.39	121.71
460.57	93.62
460.76	7.02
460.94	81.92
461.12	79.58
461.31	32.77
461.49	58.51
461.67	70.22
461.85	37.45
462.04	53.83
462.22	177.88
462.40	79.58
462.59	138.09
462.77	72.56
462.95	37.45
463.13	74.90
463.32	0.00
463.50	42.13
463.68	117.03
463.86	63.19
464.05	70.22
464.23	42.13
464.41	35.11
464.59	65.54
464.78	79.58
464.96	72.56
465.14	0.00
465.32	77.24
465.50	72.56
465.69	67.88
465.87	72.56
466.05	70.22
466.23	107.66
466.41	4.68
466.60	102.98
466.78	49.15
466.96	81.92
467.14	95.96
467.32	95.96
467.51	70.22
467.69	102.98
467.87	105.32
468.05	51.49
468.23	14.04
468.41	30.43
468.60	32.77
468.78	0.00
468.96	9.36
469.14	39.79
469.32	86.60
469.50	18.72
469.69	58.51
469.87	56.17
470.05	39.79
470.23	25.75
470.41	58.51
470.59	112.35
470.77	84.26
470.95	93.62
471.14	67.88
471.32	74.90
471.50	18.72
471.68	81.92
471.86	63.19
472.04	46.81
472.22	4.68
472.40	93.62
472.58	4.68
472.77	39.79
472.95	67.88
473.13	49.15
473.31	44.47
473.49	28.09
473.67	46.81
473.85	91.28
474.03	95.96
474.21	56.17
474.39	77.24
474.57	49.15
474.75	16.38
474.93	72.56
475.12	23.41
475.30	65.54
475.48	58.51
475.66	35.11
475.84	65.54
476.02	131.07
476.20	65.54
476.38	95.96
476.56	114.69
476.74	4.68
476.92	84.26
477.10	140.43
477.28	72.56
477.46	11.70
477.64	77.24
477.82	30.43
478.00	30.43
478.18	107.66
478.36	0.00
478.54	25.75
478.72	86.60
478.90	0.00
479.08	9.36
479.26	67.88
479.44	25.75
479.62	77.24
479.80	84.26
479.98	49.15
480.16	53.83
480.34	84.26
480.52	58.51
480.70	88.94
480.88	88.94
481.06	88.94
481.24	81.92
481.41	119.37
481.59	86.60
481.77	18.72
481.95	51.49
482.13	98.30
482.31	53.83
482.49	23.41
482.67	0.00
482.85	102.98
483.03	102.98
483.21	88.94
483.39	58.51
483.57	65.54
483.74	46.81
483.92	98.30
484.10	91.28
484.28	56.17
484.46	88.94
484.64	35.11
484.82	107.66
485.00	37.45
485.18	39.79
485.35	119.37
485.53	70.22
485.71	88.94
485.89	74.90
486.07	39.79
486.25	117.03
486.43	86.60
486.61	25.75
486.78	84.26
486.96	65.54
487.14	88.94
487.32	46.81
487.50	72.56
487.68	81.92
487.85	77.24
488.03	49.15
488.21	67.88
488.39	93.62
488.57	16.38
488.75	53.83
488.92	119.37
489.10	72.56
489.28	30.43
489.46	107.66
489.64	42.13
489.81	63.19
489.99	0.00
490.17	21.06
490.35	91.28
490.53	119.37
490.70	114.69
490.88	2.34
491.06	112.35
491.24	168.52
491.41	88.94
491.59	44.47
491.77	77.24
491.95	0.00
492.13	0.00
492.30	58.51
492.48	81.92
492.66	51.49
492.84	133.41
493.01	58.51
493.19	39.79
493.37	53.83
493.54	53.83
493.72	102.98
493.90	44.47
494.08	21.06
494.25	49.15
494.43	79.58
494.61	2.34
494.79	0.00
494.96	117.03
495.14	168.52
495.32	39.79
495.49	30.43
495.67	154.48
495.85	119.37
496.02	95.96
496.20	88.94
496.38	128.73
496.55	114.69
496.73	135.75
496.91	56.17
497.09	91.28
497.26	110.01
497.44	65.54
497.62	84.26
497.79	77.24
497.97	126.39
498.14	58.51
498.32	42.13
498.50	138.09
498.67	102.98
498.85	86.60
499.03	56.17
499.20	121.71
499.38	37.45
499.56	23.41
499.73	60.85
499.91	35.11
500.08	0.00
500.26	121.71
500.44	88.94
500.61	65.54
500.79	35.11
500.97	28.09
501.14	49.15
501.32	25.75
501.49	72.56
501.67	18.72
501.84	86.60
502.02	53.83
502.20	70.22
502.37	21.06
502.55	25.75
502.72	56.17
502.90	28.09
503.07	79.58
503.25	100.64
503.43	114.69
503.60	95.96
503.78	70.22
503.95	142.77
504.13	114.69
504.30	81.92
504.48	100.64
504.65	58.51
504.83	128.73
505.01	63.19
505.18	4.68
505.36	126.39
505.53	91.28
505.71	142.77
505.88	112.35
506.06	88.94
506.23	44.47
506.41	77.24
506.58	11.70
506.76	95.96
506.93	77.24
507.11	53.83
507.28	107.66
507.46	88.94
507.63	25.75
507.81	119.37
507.98	37.45
508.16	42.13
508.33	72.56
508.50	86.60
508.68	60.85
508.85	18.72
509.03	91.28
509.20	65.54
509.38	81.92
509.55	77.24
509.73	16.38
509.90	4.68
510.08	84.26
510.25	37.45
510.42	88.94
510.60	84.26
510.77	93.62
510.95	98.30
511.12	49.15
511.30	114.69
511.47	42.13
511.64	107.66
511.82	161.50
511.99	77.24
512.17	124.05
512.34	102.98
512.51	53.83
512.69	46.81
512.86	93.62
513.04	131.07
513.21	152.13
513.38	56.17
513.56	30.43
513.73	65.54
513.90	112.35
514.08	84.26
514.25	51.49
514.43	39.79
514.60	30.43
514.77	145.11
514.95	86.60
515.12	131.07
515.29	51.49
515.47	105.32
515.64	126.39
515.81	44.47
515.99	102.98
516.16	149.79
516.33	84.26
516.51	39.79
516.68	16.38
516.85	35.11
517.03	49.15
517.20	58.51
517.37	46.81
517.54	42.13
517.72	23.41
517.89	86.60
518.06	107.66
518.24	79.58
518.41	117.03
518.58	56.17
518.75	93.62
518.93	100.64
519.10	105.32
519.27	9.36
519.45	44.47
519.62	7.02
519.79	56.17
519.96	84.26
520.14	56.17
520.31	46.81
520.48	114.69
520.65	102.98
520.83	67.88
521.00	56.17
521.17	86.60
521.34	114.69
521.52	100.64
521.69	65.54
521.86	110.01
522.03	93.62
522.20	91.28
522.38	110.01
522.55	138.09
522.72	88.94
522.89	65.54
523.07	49.15
523.24	25.75
523.41	117.03
523.58	77.24
523.75	72.56
523.92	63.19
524.10	84.26
524.27	112.35
524.44	100.64
524.61	86.60
524.78	53.83
524.96	21.06
525.13	53.83
525.30	126.39
525.47	142.77
525.64	79.58
525.81	102.98
525.98	39.79
526.16	98.30
526.33	58.51
526.50	88.94
526.67	70.22
526.84	25.75
527.01	84.26
527.18	93.62
527.36	110.01
527.53	98.30
527.70	102.98
527.87	60.85
528.04	93.62
528.21	56.17
528.38	72.56
528.55	102.98
528.72	93.62
528.89	84.26
529.07	133.41
529.24	53.83
529.41	30.43
529.58	72.56
529.75	74.90
529.92	53.83
530.09	56.17
530.26	77.24
530.43	100.64
530.60	56.17
530.77	128.73
530.94	102.98
531.11	79.58
531.28	49.15
531.46	110.01
531.63	51.49
531.80	58.51
531.97	67.88
532.14	79.58
532.31	159.16
532.48	37.45
532.65	100.64
532.82	25.75
532.99	21.06
533.16	114.69
533.33	128.73
533.50	79.58
533.67	135.75
533.84	133.41
534.01	95.96
534.18	46.81
534.35	23.41
534.52	110.01
534.69	56.17
534.86	42.13
535.03	119.37
535.20	93.62
535.37	107.66
535.54	124.05
535.71	49.15
535.88	110.01
536.05	161.50
536.22	154.48
536.38	102.98
536.55	112.35
536.72	112.35
536.89	98.30
537.06	44.47
537.23	70.22
537.40	79.58
537.57	42.13
537.74	42.13
537.91	121.71
538.08	105.32
538.25	95.96
538.42	63.19
538.59	60.85
538.75	95.96
538.92	70.22
539.09	67.88
539.26	39.79
539.43	98.30
539.60	163.84
539.77	110.01
539.94	98.30
540.11	107.66
540.28	9.36
540.44	0.00
540.61	131.07
540.78	102.98
540.95	63.19
541.12	128.73
541.29	67.88
541.46	49.15
541.62	14.04
541.79	107.66
541.96	147.45
542.13	88.94
542.30	86.60
542.47	63.19
542.63	74.90
542.80	51.49
542.97	16.38
543.14	128.73
543.31	84.26
543.48	67.88
543.64	35.11
543.81	86.60
543.98	100.64
544.15	70.22
544.32	79.58
544.48	88.94
544.65	170.86
544.82	32.77
544.99	91.28
545.16	140.43
545.32	86.60
545.49	100.64
545.66	53.83
545.83	7.02
546.00	102.98
546.16	32.77
546.33	88.94
546.50	25.75
546.67	84.26
546.83	44.47
547.00	58.51
547.17	72.56
547.34	133.41
547.50	95.96
547.67	114.69
547.84	49.15
548.00	102.98
548.17	46.81
548.34	56.17
548.51	110.01
548.67	140.43
548.84	121.71
549.01	131.07
549.18	138.09
549.34	67.88
549.51	72.56
549.68	88.94
549.84	72.56
550.01	46.81
550.18	117.03
550.34	60.85
550.51	37.45
550.68	81.92
550.84	79.58
551.01	56.17
551.18	88.94
551.34	32.77
551.51	74.90
551.68	46.81
551.84	21.06
552.01	93.62
552.18	100.64
552.34	35.11
552.51	56.17
552.68	126.39
552.84	49.15
553.01	79.58
553.18	93.62
553.34	28.09
553.51	93.62
553.67	58.51
553.84	98.30
554.01	70.22
554.17	138.09
554.34	126.39
554.51	42.13
554.67	28.09
554.84	42.13
555.00	77.24
555.17	56.17
555.33	114.69
555.50	124.05
555.67	51.49
555.83	30.43
556.00	60.85
556.16	72.56
556.33	58.51
556.50	74.90
556.66	140.43
556.83	107.66
556.99	32.77
557.16	53.83
557.32	91.28
557.49	51.49
557.65	37.45
557.82	84.26
557.98	53.83
558.15	0.00
558.32	51.49
558.48	25.75
558.65	72.56
558.81	88.94
558.98	70.22
559.14	67.88
559.31	79.58
559.47	35.11
559.64	25.75
559.80	14.04
559.97	93.62
560.13	30.43
560.30	35.11
560.46	51.49
560.63	154.48
560.79	175.54
560.96	147.45
561.12	102.98
561.29	67.88
561.45	37.45
561.61	124.05
561.78	79.58
561.94	95.96
562.11	74.90
562.27	18.72
562.44	95.96
562.60	161.50
562.77	49.15
562.93	65.54
563.10	110.01
563.26	142.77
563.42	51.49
563.59	28.09
563.75	32.77
563.92	131.07
564.08	65.54
564.24	91.28
564.41	58.51
564.57	95.96
564.74	95.96
564.90	86.60
565.07	91.28
565.23	77.24
565.39	91.28
565.56	70.22
565.72	42.13
565.88	67.88
566.05	79.58
566.21	65.54
566.38	51.49
566.54	147.45
566.70	166.18
566.87	117.03
567.03	124.05
567.19	53.83
567.36	35.11
567.52	81.92
567.68	93.62
567.85	110.01
568.01	46.81
568.17	100.64
568.34	93.62
568.50	21.06
568.66	84.26
568.83	124.05
568.99	142.77
569.15	159.16
569.32	18.72
569.48	56.17
569.64	112.35
569.81	37.45
569.97	161.50
570.13	77.24
570.30	79.58
570.46	60.85
570.62	124.05
570.78	133.41
570.95	84.26
571.11	21.06
571.27	11.70
571.43	79.58
571.60	140.43
571.76	11.70
571.92	88.94
572.09	60.85
572.25	56.17
572.41	25.75
572.57	49.15
572.74	91.28
572.90	88.94
573.06	79.58
573.22	173.20
573.38	70.22
573.55	37.45
573.71	142.77
573.87	70.22
574.03	46.81
574.20	84.26
574.36	95.96
574.52	147.45
574.68	84.26
574.84	58.51
575.01	124.05
575.17	119.37
575.33	37.45
575.49	91.28
575.65	145.11
575.82	65.54
575.98	32.77
576.14	60.85
576.30	145.11
576.46	93.62
576.62	110.01
576.79	119.37
576.95	63.19
577.11	91.28
577.27	56.17
577.43	53.83
577.59	74.90
577.75	46.81
577.92	114.69
578.08	131.07
578.24	11.70
578.40	110.01
578.56	86.60
578.72	131.07
578.88	60.85
579.04	79.58
579.21	114.69
579.37	91.28
579.53	60.85
579.69	93.62
579.85	53.83
580.01	102.98
580.17	88.94
580.33	84.26
580.49	81.92
580.65	84.26
580.82	84.26
580.98	58.51
581.14	117.03
581.30	77.24
581.46	86.60
581.62	70.22
581.78	63.19
581.94	145.11
582.10	107.66
582.26	128.73
582.42	107.66
582.58	72.56
582.74	110.01
582.90	194.26
583.06	128.73
583.22	84.26
583.38	126.39
583.54	110.01
583.70	58.51
583.86	28.09
584.02	95.96
584.18	72.56
584.34	39.79
584.50	84.26
584.66	44.47
584.82	91.28
584.98	140.43
585.14	0.00
585.30	93.62
585.46	0.00
585.62	60.85
585.78	93.62
585.94	95.96
586.10	77.24
586.26	58.51
586.42	105.32
586.58	44.47
586.74	30.43
586.90	161.50
587.06	49.15
587.22	42.13
587.38	74.90
587.54	18.72
587.70	58.51
587.86	0.00
588.02	126.39
588.18	0.00
588.34	70.22
588.49	58.51
588.65	37.45
588.81	74.90
588.97	60.85
589.13	124.05
589.29	58.51
589.45	81.92
589.61	35.11
589.77	86.60
589.93	2.34
590.08	49.15
590.24	60.85
590.40	70.22
590.56	142.77
590.72	147.45
590.88	0.00
591.04	114.69
591.20	95.96
591.35	91.28
591.51	56.17
591.67	79.58
591.83	84.26
591.99	56.17
592.15	30.43
592.31	105.32
592.46	126.39
592.62	60.85
592.78	51.49
592.94	126.39
593.10	110.01
593.26	21.06
593.41	142.77
593.57	88.94
593.73	114.69
593.89	93.62
594.05	0.00
594.20	63.19
594.36	49.15
594.52	49.15
594.68	128.73
594.84	88.94
594.99	9.36
595.15	0.00
595.31	63.19
595.47	46.81
595.62	77.24
595.78	74.90
595.94	14.04
596.10	105.32
596.25	70.22
596.41	70.22
596.57	81.92
596.73	0.00
596.88	32.77
597.04	119.37
597.20	46.81
597.36	159.16
597.51	30.43
597.67	37.45
597.83	67.88
597.99	98.30
598.14	56.17
598.30	56.17
598.46	133.41
598.61	49.15
598.77	65.54
598.93	74.90
599.09	53.83
599.24	2.34
599.40	65.54
599.56	65.54
599.71	32.77
599.87	81.92
600.03	46.81
600.18	142.77
600.34	79.58
600.50	98.30
600.65	95.96
600.81	70.22
600.97	79.58
601.12	91.28
601.28	84.26
601.44	51.49
601.59	65.54
601.75	23.41
601.91	74.90
602.06	84.26
602.22	84.26
602.37	51.49
602.53	147.45
602.69	30.43
602.84	105.32
603.00	95.96
603.16	86.60
603.31	49.15
603.47	18.72
603.62	32.77
603.78	0.00
603.94	98.30
604.09	7.02
604.25	121.71
604.40	42.13
604.56	98.30
604.71	88.94
604.87	100.64
605.03	105.32
605.18	72.56
605.34	39.79
605.49	98.30
605.65	65.54
605.80	16.38
605.96	4.68
606.12	42.13
606.27	53.83
606.43	72.56
606.58	102.98
606.74	65.54
606.89	112.35
607.05	72.56
607.20	102.98
607.36	79.58
607.51	60.85
607.67	72.56
607.82	21.06
607.98	86.60
608.13	46.81
608.29	65.54
608.44	0.00
608.60	51.49
608.75	117.03
608.91	105.32
609.06	0.00
609.22	105.32
609.37	72.56
609.53	74.90
609.68	154.48
609.84	117.03
609.99	23.41
610.15	154.48
610.30	65.54
610.46	74.90
610.61	102.98
610.76	58.51
610.92	119.37
611.07	77.24
611.23	147.45
611.38	49.15
611.54	140.43
611.69	105.32
611.84	72.56
612.00	95.96
612.15	46.81
612.31	0.00
612.46	102.98
612.62	86.60
612.77	88.94
612.92	105.32
613.08	42.13
613.23	28.09
613.39	25.75
613.54	37.45
613.69	138.09
613.85	35.11
614.00	0.00
614.15	28.09
614.31	154.48
614.46	131.07
614.62	81.92
614.77	98.30
614.92	32.77
615.08	58.51
615.23	14.04
615.38	88.94
615.54	56.17
615.69	98.30
615.84	0.00
616.00	44.47
616.15	42.13
616.30	72.56
616.46	39.79
616.61	95.96
616.76	86.60
616.92	93.62
617.07	166.18
617.22	58.51
617.37	140.43
617.53	21.06
617.68	102.98
617.83	44.47
617.99	51.49
618.14	37.45
618.29	21.06
618.45	70.22
618.60	81.92
618.75	51.49
618.90	30.43
619.06	63.19
619.21	56.17
619.36	51.49
619.51	93.62
619.67	72.56
619.82	39.79
619.97	37.45
620.12	60.85
620.28	107.66
620.43	37.45
620.58	95.96
620.73	95.96
620.89	86.60
621.04	81.92
621.19	84.26
621.34	14.04
621.49	2.34
621.65	0.00
621.80	65.54
621.95	65.54
622.10	42.13
622.25	49.15
622.41	74.90
622.56	49.15
622.71	63.19
622.86	63.19
623.01	56.17
623.16	100.64
623.32	32.77
623.47	110.01
623.62	74.90
623.77	51.49
623.92	77.24
624.07	0.00
624.23	112.35
624.38	16.38
624.53	23.41
624.68	51.49
624.83	46.81
624.98	152.13
625.13	35.11
625.29	84.26
625.44	51.49
625.59	84.26
625.74	67.88
625.89	81.92
626.04	77.24
626.19	110.01
626.34	189.58
626.49	58.51
626.65	117.03
626.80	42.13
626.95	81.92
627.10	72.56
627.25	74.90
627.40	84.26
627.55	53.83
627.70	86.60
627.85	79.58
628.00	79.58
628.15	105.32
628.30	114.69
628.45	86.60
628.60	81.92
628.76	63.19
628.91	18.72
629.06	65.54
629.21	28.09
629.36	58.51
629.51	49.15
629.66	65.54
629.81	79.58
629.96	37.45
630.11	7.02
630.26	107.66
630.41	30.43
630.56	30.43
630.71	25.75
630.86	81.92
631.01	65.54
631.16	63.19
631.31	77.24
631.46	147.45
631.61	140.43
631.76	79.58
631.91	65.54
632.06	46.81
632.21	102.98
632.36	81.92
632.51	37.45
632.66	65.54
632.81	42.13
632.96	60.85
633.10	53.83
633.25	84.26
633.40	25.75
633.55	32.77
633.70	112.35
633.85	74.90
634.00	28.09
634.15	128.73
634.30	0.00
634.45	95.96
634.60	60.85
634.75	67.88
634.90	46.81
635.05	49.15
635.19	37.45
635.34	16.38
635.49	32.77
635.64	51.49
635.79	58.51
635.94	86.60
636.09	35.11
636.24	58.51
636.39	119.37
636.53	105.32
636.68	56.17
636.83	60.85
636.98	4.68
637.13	91.28
637.28	147.45
637.43	58.51
637.57	60.85
637.72	58.51
637.87	81.92
638.02	0.00
638.17	28.09
638.32	37.45
638.46	2.34
638.61	110.01
638.76	149.79
638.91	121.71
639.06	81.92
639.20	72.56
639.35	53.83
639.50	44.47
639.65	102.98
639.80	56.17
639.94	93.62
640.09	131.07
640.24	91.28
640.39	77.24
640.54	9.36
640.68	58.51
640.83	72.56
640.98	81.92
641.13	25.75
641.27	93.62
641.42	107.66
641.57	126.39
641.72	37.45
641.86	131.07
642.01	88.94
642.16	0.00
642.31	60.85
642.45	53.83
642.60	131.07
642.75	138.09
642.90	30.43
643.04	14.04
643.19	81.92
643.34	65.54
643.48	86.60
643.63	56.17
643.78	91.28
643.93	93.62
644.07	60.85
644.22	58.51
644.37	35.11
644.51	53.83
644.66	93.62
644.81	0.00
644.95	98.30
645.10	74.90
645.25	102.98
645.39	79.58
645.54	25.75
645.69	81.92
645.83	77.24
645.98	79.58
646.13	14.04
646.27	14.04
646.42	53.83
646.57	30.43
646.71	58.51
646.86	32.77
647.00	56.17
647.15	131.07
647.30	0.00
647.44	60.85
647.59	44.47
647.74	9.36
647.88	74.90
648.03	74.90
648.17	79.58
648.32	86.60
648.47	100.64
648.61	49.15
648.76	0.00
648.90	74.90
649.05	67.88
649.20	126.39
649.34	46.81
649.49	30.43
649.63	25.75
649.78	124.05
649.92	100.64
650.07	21.06
650.21	70.22
650.36	39.79
650.51	44.47
650.65	81.92
650.80	44.47
650.94	16.38
651.09	39.79
651.23	84.26
651.38	107.66
651.52	18.72
651.67	18.72
651.81	51.49
651.96	74.90
652.10	72.56
652.25	28.09
652.39	46.81
652.54	74.90
652.68	0.00
652.83	110.01
652.97	117.03
653.12	65.54
653.26	140.43
653.41	107.66
653.55	79.58
653.70	102.98
653.84	49.15
653.99	53.83
654.13	23.41
654.27	60.85
654.42	86.60
654.56	77.24
654.71	56.17
654.85	37.45
655.00	93.62
655.14	0.00
655.29	23.41
655.43	81.92
655.57	32.77
655.72	60.85
655.86	77.24
656.01	53.83
656.15	70.22
656.30	70.22
656.44	42.13
656.58	86.60
656.73	67.88
656.87	37.45
657.01	28.09
657.16	39.79
657.30	110.01
657.45	161.50
657.59	119.37
657.73	63.19
657.88	14.04
658.02	0.00
658.16	58.51
658.31	91.28
658.45	140.43
658.60	60.85
658.74	67.88
658.88	30.43
659.03	14.04
659.17	77.24
659.31	32.77
659.46	23.41
659.60	53.83
659.74	16.38
659.89	25.75
660.03	56.17
660.17	84.26
660.32	100.64
660.46	51.49
660.60	18.72
660.74	56.17
660.89	0.00
661.03	44.47
661.17	70.22
661.32	0.00
661.46	67.88
661.60	0.00
661.74	18.72
661.89	58.51
662.03	105.32
662.17	9.36
662.31	65.54
662.46	28.09
662.60	2.34
662.74	105.32
662.88	4.68
663.03	53.83
663.17	51.49
663.31	0.00
663.45	60.85
663.60	23.41
663.74	44.47
663.88	0.00
664.02	28.09
664.17	42.13
664.31	63.19
664.45	84.26
664.59	74.90
664.73	49.15
664.88	77.24
665.02	44.47
665.16	51.49
665.30	7.02
665.44	56.17
665.59	84.26
665.73	49.15
665.87	65.54
666.01	42.13
666.15	105.32
666.29	63.19
666.44	70.22
666.58	35.11
666.72	95.96
666.86	138.09
667.00	44.47
667.14	44.47
667.28	51.49
667.43	63.19
667.57	77.24
667.71	117.03
667.85	81.92
667.99	4.68
668.13	14.04
668.27	98.30
668.41	4.68
668.56	91.28
668.70	142.77
668.84	74.90
668.98	135.75
669.12	56.17
669.26	63.19
669.40	49.15
669.54	37.45
669.68	49.15
669.82	35.11
669.96	11.70
670.10	105.32
670.25	32.77
670.39	4.68
670.53	42.13
670.67	44.47
670.81	4.68
670.95	135.75
671.09	58.51
671.23	114.69
671.37	63.19
671.51	63.19
671.65	72.56
671.79	0.00
671.93	0.00
672.07	25.75
672.21	84.26
672.35	79.58
672.49	86.60
672.63	70.22
672.77	39.79
672.91	84.26
673.05	39.79
673.19	0.00
673.33	121.71
673.47	44.47
673.61	7.02
673.75	44.47
673.89	77.24
674.03	23.41
674.17	0.00
674.31	49.15
674.45	53.83
674.59	32.77
674.73	35.11
674.87	124.05
675.01	18.72
675.15	42.13
675.29	91.28
675.43	56.17
675.56	11.70
675.70	0.00
675.84	53.83
675.98	79.58
676.12	25.75
676.26	60.85
676.40	93.62
676.54	74.90
676.68	46.81
676.82	46.81
676.96	25.75
677.10	53.83
677.23	44.47
677.37	51.49
677.51	84.26
677.65	39.79
677.79	0.00
677.93	35.11
678.07	102.98
678.21	35.11
678.34	16.38
678.48	28.09
678.62	88.94
678.76	37.45
678.90	84.26
679.04	37.45
679.18	42.13
679.31	86.60
679.45	49.15
679.59	81.92
679.73	95.96
679.87	39.79
680.00	0.00
680.14	77.24
680.28	56.17
680.42	39.79
680.56	102.98
680.70	42.13
680.83	56.17
680.97	35.11
681.11	65.54
681.25	70.22
681.39	88.94
681.52	16.38
681.66	56.17
681.80	28.09
681.94	63.19
682.07	51.49
682.21	18.72
682.35	84.26
682.49	9.36
682.62	86.60
682.76	42.13
682.90	44.47
683.04	63.19
683.17	49.15
683.31	0.00
683.45	11.70
683.59	30.43
683.72	95.96
683.86	0.00
684.00	46.81
684.13	35.11
684.27	49.15
684.41	63.19
684.55	9.36
684.68	49.15
684.82	77.24
684.96	105.32
685.09	98.30
685.23	124.05
685.37	86.60
685.50	67.88
685.64	56.17
685.78	14.04
685.91	65.54
686.05	102.98
686.19	70.22
686.32	124.05
686.46	63.19
686.60	28.09
686.73	112.35
686.87	46.81
687.01	2.34
687.14	60.85
687.28	0.00
687.42	32.77
687.55	35.11
687.69	32.77
687.82	79.58
687.96	60.85
688.10	32.77
688.23	7.02
688.37	25.75
688.50	46.81
688.64	25.75
688.78	0.00
688.91	0.00
689.05	32.77
689.18	35.11
689.32	60.85
689.46	30.43
689.59	42.13
689.73	58.51
689.86	0.00
690.00	32.77
690.13	49.15
690.27	14.04
690.41	9.36
690.54	2.34
690.68	63.19
690.81	32.77
690.95	93.62
691.08	39.79
691.22	0.00
691.35	84.26
691.49	35.11
691.62	46.81
691.76	25.75
691.89	0.00
692.03	72.56
692.16	42.13
692.30	72.56
692.43	21.06
692.57	53.83
692.70	142.77
692.84	23.41
692.97	16.38
693.11	35.11
693.24	51.49
693.38	63.19
693.51	67.88
693.65	39.79
693.78	30.43
693.92	14.04
694.05	67.88
694.19	74.90
694.32	110.01
694.45	42.13
694.59	0.00
694.72	16.38
694.86	23.41
694.99	56.17
695.13	0.00
695.26	0.00
695.39	0.00
695.53	58.51
695.66	46.81
695.80	14.04
695.93	112.35
696.07	39.79
696.20	88.94
696.33	39.79
696.47	74.90
696.60	56.17
696.73	56.17
696.87	7.02
697.00	79.58
697.14	98.30
697.27	119.37
697.40	49.15
697.54	0.00
697.67	72.56
697.80	46.81
697.94	84.26
698.07	35.11
698.21	11.70
698.34	30.43
698.47	67.88
698.61	81.92
698.74	72.56
698.87	58.51
699.01	44.47
699.14	16.38
699.27	49.15
699.40	63.19
699.54	63.19
699.67	0.00
699.80	0.00
699.94	102.98
700.07	72.56
700.20	16.38
700.34	105.32
700.47	0.00
700.60	65.54
700.73	7.02
700.87	23.41
701.00	35.11
701.13	44.47
701.26	44.47
701.40	37.45
701.53	133.41
701.66	63.19
701.79	0.00
701.93	46.81
702.06	25.75
702.19	74.90
702.32	0.00
702.46	60.85
702.59	0.00
702.72	98.30
702.85	23.41
702.99	77.24
703.12	28.09
703.25	30.43
703.38	4.68
703.51	56.17
703.65	58.51
703.78	18.72
703.91	37.45
704.04	84.26
704.17	42.13
704.31	4.68
704.44	53.83
704.57	39.79
704.70	35.11
704.83	28.09
704.96	14.04
705.10	0.00
705.23	63.19
>>>>>End Processed Spectral Data<<<<<
