SpectraSuite Data File
++++++++++++++++++++++++++++++++++++
Date: Fri Oct 04 12:13:36 GMT-05:00 2013
User: price-jones
Dark Spectrum Present: No
Reference Spectrum Present: No
Number of Sampled Component Spectra: 1
Spectrometers: USB2+H05261
Integration Time (usec): 10000 (USB2+H05261)
Spectra Averaged: 1 (USB2+H05261)
Boxcar Smoothing: 0 (USB2+H05261)
Correct for Electrical Dark: No (USB2+H05261)
Strobe/Lamp Enabled: No (USB2+H05261)
Correct for Detector Non-linearity: No (USB2+H05261)
Correct for Stray Light: No (USB2+H05261)
Number of Pixels in Processed Spectrum: 2048
>>>>>Begin Processed Spectral Data<<<<<
365.73	0.00
365.92	0.00
366.12	0.00
366.32	0.00
366.52	0.00
366.72	0.00
366.91	0.00
367.11	0.00
367.31	0.00
367.51	0.00
367.70	0.00
367.90	0.00
368.10	0.00
368.30	0.00
368.49	0.00
368.69	0.00
368.89	0.00
369.09	0.00
369.28	0.00
369.48	0.00
369.68	0.00
369.87	0.00
370.07	0.00
370.27	0.00
370.47	0.00
370.66	0.00
370.86	4.68
371.06	0.00
371.25	0.00
371.45	23.41
371.65	18.72
371.84	0.00
372.04	0.00
372.24	49.15
372.44	30.43
372.63	28.09
372.83	0.00
373.03	49.15
373.22	23.41
373.42	49.15
373.62	86.60
373.81	35.11
374.01	0.00
374.21	46.81
374.40	39.79
374.60	25.75
374.79	35.11
374.99	51.49
375.19	42.13
375.38	53.83
375.58	18.72
375.78	7.02
375.97	91.28
376.17	32.77
376.37	86.60
376.56	0.00
376.76	30.43
376.95	11.70
377.15	77.24
377.35	32.77
377.54	86.60
377.74	70.22
377.93	0.00
378.13	56.17
378.33	0.00
378.52	4.68
378.72	60.85
378.91	58.51
379.11	2.34
379.31	30.43
379.50	0.00
379.70	18.72
379.89	28.09
380.09	28.09
380.28	7.02
380.48	32.77
380.68	16.38
380.87	86.60
381.07	11.70
381.26	14.04
381.46	0.00
381.65	77.24
381.85	32.77
382.04	14.04
382.24	25.75
382.43	44.47
382.63	7.02
382.83	0.00
383.02	0.00
383.22	53.83
383.41	0.00
383.61	0.00
383.80	0.00
384.00	0.00
384.19	28.09
384.39	4.68
384.58	88.94
384.78	0.00
384.97	0.00
385.17	42.13
385.36	107.66
385.56	0.00
385.75	0.00
385.95	0.00
386.14	4.68
386.34	7.02
386.53	2.34
386.72	0.00
386.92	18.72
387.11	14.04
387.31	23.41
387.50	44.47
387.70	14.04
387.89	0.00
388.09	35.11
388.28	58.51
388.48	58.51
388.67	7.02
388.86	72.56
389.06	81.92
389.25	16.38
389.45	0.00
389.64	0.00
389.84	0.00
390.03	16.38
390.22	145.11
390.42	44.47
390.61	7.02
390.81	9.36
391.00	0.00
391.19	56.17
391.39	21.06
391.58	23.41
391.78	39.79
391.97	4.68
392.16	7.02
392.36	56.17
392.55	7.02
392.75	28.09
392.94	25.75
393.13	0.00
393.33	39.79
393.52	0.00
393.71	39.79
393.91	30.43
394.10	0.00
394.29	56.17
394.49	0.00
394.68	49.15
394.88	95.96
395.07	37.45
395.26	79.58
395.46	21.06
395.65	11.70
395.84	0.00
396.04	58.51
396.23	18.72
396.42	49.15
396.62	28.09
396.81	25.75
397.00	32.77
397.19	142.77
397.39	16.38
397.58	23.41
397.77	37.45
397.97	44.47
398.16	51.49
398.35	65.54
398.55	56.17
398.74	21.06
398.93	28.09
399.12	81.92
399.32	0.00
399.51	0.00
399.70	11.70
399.90	9.36
400.09	63.19
400.28	16.38
400.47	4.68
400.67	14.04
400.86	4.68
401.05	11.70
401.24	0.00
401.44	98.30
401.63	18.72
401.82	49.15
402.01	0.00
402.21	25.75
402.40	23.41
402.59	35.11
402.78	58.51
402.97	0.00
403.17	32.77
403.36	63.19
403.55	16.38
403.74	56.17
403.93	4.68
404.13	63.19
404.32	0.00
404.51	51.49
404.70	112.35
404.89	58.51
405.09	81.92
405.28	9.36
405.47	42.13
405.66	0.00
405.85	72.56
406.05	30.43
406.24	18.72
406.43	56.17
406.62	0.00
406.81	42.13
407.00	46.81
407.20	32.77
407.39	60.85
407.58	16.38
407.77	0.00
407.96	16.38
408.15	65.54
408.34	11.70
408.54	72.56
408.73	0.00
408.92	4.68
409.11	0.00
409.30	2.34
409.49	0.00
409.68	25.75
409.87	0.00
410.07	0.00
410.26	72.56
410.45	44.47
410.64	0.00
410.83	0.00
411.02	37.45
411.21	53.83
411.40	91.28
411.59	65.54
411.78	53.83
411.98	70.22
412.17	49.15
412.36	37.45
412.55	0.00
412.74	86.60
412.93	18.72
413.12	119.37
413.31	70.22
413.50	67.88
413.69	0.00
413.88	35.11
414.07	4.68
414.26	28.09
414.45	119.37
414.64	25.75
414.83	126.39
415.02	100.64
415.22	0.00
415.41	53.83
415.60	46.81
415.79	56.17
415.98	18.72
416.17	44.47
416.36	18.72
416.55	67.88
416.74	9.36
416.93	4.68
417.12	0.00
417.31	30.43
417.50	70.22
417.69	0.00
417.88	44.47
418.07	81.92
418.26	70.22
418.45	51.49
418.64	16.38
418.83	65.54
419.02	81.92
419.21	81.92
419.39	84.26
419.58	117.03
419.77	14.04
419.96	0.00
420.15	49.15
420.34	65.54
420.53	42.13
420.72	32.77
420.91	51.49
421.10	28.09
421.29	39.79
421.48	77.24
421.67	58.51
421.86	23.41
422.05	49.15
422.24	51.49
422.43	79.58
422.61	63.19
422.80	4.68
422.99	74.90
423.18	112.35
423.37	124.05
423.56	67.88
423.75	86.60
423.94	28.09
424.13	46.81
424.32	79.58
424.50	39.79
424.69	23.41
424.88	46.81
425.07	28.09
425.26	74.90
425.45	65.54
425.64	0.00
425.83	16.38
426.01	42.13
426.20	58.51
426.39	16.38
426.58	81.92
426.77	0.00
426.96	30.43
427.15	2.34
427.33	60.85
427.52	42.13
427.71	4.68
427.90	39.79
428.09	56.17
428.28	107.66
428.46	23.41
428.65	65.54
428.84	28.09
429.03	152.13
429.22	88.94
429.40	67.88
429.59	77.24
429.78	32.77
429.97	63.19
430.16	72.56
430.34	0.00
430.53	63.19
430.72	9.36
430.91	37.45
431.10	37.45
431.28	2.34
431.47	46.81
431.66	21.06
431.85	49.15
432.03	60.85
432.22	37.45
432.41	98.30
432.60	117.03
432.79	81.92
432.97	91.28
433.16	49.15
433.35	81.92
433.54	114.69
433.72	84.26
433.91	70.22
434.10	30.43
434.28	23.41
434.47	102.98
434.66	53.83
434.85	0.00
435.03	60.85
435.22	70.22
435.41	9.36
435.59	102.98
435.78	9.36
435.97	0.00
436.16	2.34
436.34	4.68
436.53	74.90
436.72	63.19
436.90	7.02
437.09	58.51
437.28	7.02
437.46	72.56
437.65	70.22
437.84	23.41
438.02	65.54
438.21	67.88
438.40	0.00
438.58	126.39
438.77	98.30
438.96	32.77
439.14	0.00
439.33	9.36
439.52	16.38
439.70	67.88
439.89	70.22
440.08	79.58
440.26	0.00
440.45	35.11
440.63	32.77
440.82	72.56
441.01	86.60
441.19	107.66
441.38	86.60
441.57	25.75
441.75	53.83
441.94	60.85
442.12	74.90
442.31	14.04
442.50	105.32
442.68	142.77
442.87	42.13
443.05	37.45
443.24	39.79
443.43	110.01
443.61	14.04
443.80	39.79
443.98	65.54
444.17	51.49
444.35	30.43
444.54	81.92
444.73	67.88
444.91	58.51
445.10	63.19
445.28	46.81
445.47	65.54
445.65	32.77
445.84	42.13
446.02	98.30
446.21	0.00
446.39	74.90
446.58	44.47
446.77	102.98
446.95	63.19
447.14	93.62
447.32	102.98
447.51	98.30
447.69	88.94
447.88	51.49
448.06	121.71
448.25	88.94
448.43	28.09
448.62	58.51
448.80	37.45
448.99	2.34
449.17	7.02
449.36	74.90
449.54	114.69
449.73	0.00
449.91	44.47
450.10	77.24
450.28	42.13
450.46	14.04
450.65	140.43
450.83	105.32
451.02	46.81
451.20	100.64
451.39	23.41
451.57	63.19
451.76	107.66
451.94	86.60
452.13	0.00
452.31	60.85
452.49	81.92
452.68	65.54
452.86	49.15
453.05	28.09
453.23	35.11
453.42	46.81
453.60	58.51
453.78	23.41
453.97	39.79
454.15	0.00
454.34	84.26
454.52	23.41
454.70	18.72
454.89	35.11
455.07	74.90
455.26	93.62
455.44	0.00
455.62	9.36
455.81	0.00
455.99	56.17
456.17	14.04
456.36	145.11
456.54	60.85
456.73	0.00
456.91	46.81
457.09	100.64
457.28	21.06
457.46	72.56
457.64	58.51
457.83	131.07
458.01	95.96
458.19	49.15
458.38	0.00
458.56	11.70
458.74	44.47
458.93	0.00
459.11	91.28
459.29	65.54
459.48	58.51
459.66	4.68
459.84	9.36
460.03	51.49
460.21	63.19
460.39	18.72
460.57	42.13
460.76	65.54
460.94	77.24
461.12	100.64
461.31	18.72
461.49	93.62
461.67	37.45
461.85	72.56
462.04	60.85
462.22	88.94
462.40	30.43
462.59	25.75
462.77	56.17
462.95	46.81
463.13	35.11
463.32	35.11
463.50	51.49
463.68	70.22
463.86	53.83
464.05	79.58
464.23	58.51
464.41	9.36
464.59	84.26
464.78	46.81
464.96	79.58
465.14	39.79
465.32	77.24
465.50	56.17
465.69	110.01
465.87	65.54
466.05	39.79
466.23	63.19
466.41	77.24
466.60	53.83
466.78	37.45
466.96	37.45
467.14	84.26
467.32	44.47
467.51	65.54
467.69	112.35
467.87	98.30
468.05	7.02
468.23	30.43
468.41	124.05
468.60	135.75
468.78	72.56
468.96	93.62
469.14	46.81
469.32	0.00
469.50	56.17
469.69	119.37
469.87	114.69
470.05	72.56
470.23	77.24
470.41	11.70
470.59	16.38
470.77	56.17
470.95	51.49
471.14	84.26
471.32	60.85
471.50	133.41
471.68	67.88
471.86	42.13
472.04	84.26
472.22	135.75
472.40	46.81
472.58	9.36
472.77	93.62
472.95	56.17
473.13	21.06
473.31	30.43
473.49	53.83
473.67	77.24
473.85	0.00
474.03	88.94
474.21	70.22
474.39	42.13
474.57	37.45
474.75	65.54
474.93	110.01
475.12	88.94
475.30	98.30
475.48	84.26
475.66	70.22
475.84	23.41
476.02	30.43
476.20	9.36
476.38	110.01
476.56	67.88
476.74	32.77
476.92	77.24
477.10	35.11
477.28	37.45
477.46	28.09
477.64	67.88
477.82	72.56
478.00	102.98
478.18	23.41
478.36	16.38
478.54	102.98
478.72	84.26
478.90	72.56
479.08	44.47
479.26	53.83
479.44	53.83
479.62	4.68
479.80	81.92
479.98	65.54
480.16	84.26
480.34	23.41
480.52	117.03
480.70	25.75
480.88	74.90
481.06	112.35
481.24	72.56
481.41	44.47
481.59	88.94
481.77	4.68
481.95	77.24
482.13	23.41
482.31	23.41
482.49	86.60
482.67	53.83
482.85	25.75
483.03	91.28
483.21	81.92
483.39	98.30
483.57	37.45
483.74	107.66
483.92	124.05
484.10	79.58
484.28	49.15
484.46	84.26
484.64	98.30
484.82	35.11
485.00	91.28
485.18	79.58
485.35	65.54
485.53	84.26
485.71	81.92
485.89	49.15
486.07	49.15
486.25	51.49
486.43	72.56
486.61	91.28
486.78	72.56
486.96	72.56
487.14	79.58
487.32	67.88
487.50	91.28
487.68	67.88
487.85	93.62
488.03	100.64
488.21	21.06
488.39	112.35
488.57	77.24
488.75	44.47
488.92	133.41
489.10	42.13
489.28	63.19
489.46	152.13
489.64	84.26
489.81	28.09
489.99	117.03
490.17	65.54
490.35	95.96
490.53	0.00
490.70	58.51
490.88	51.49
491.06	21.06
491.24	7.02
491.41	4.68
491.59	39.79
491.77	86.60
491.95	86.60
492.13	23.41
492.30	88.94
492.48	95.96
492.66	74.90
492.84	95.96
493.01	65.54
493.19	42.13
493.37	65.54
493.54	16.38
493.72	91.28
493.90	0.00
494.08	126.39
494.25	65.54
494.43	35.11
494.61	88.94
494.79	102.98
494.96	32.77
495.14	60.85
495.32	70.22
495.49	44.47
495.67	138.09
495.85	79.58
496.02	63.19
496.20	79.58
496.38	79.58
496.55	124.05
496.73	91.28
496.91	86.60
497.09	49.15
497.26	44.47
497.44	91.28
497.62	4.68
497.79	70.22
497.97	65.54
498.14	72.56
498.32	117.03
498.50	93.62
498.67	154.48
498.85	51.49
499.03	35.11
499.20	65.54
499.38	128.73
499.56	30.43
499.73	140.43
499.91	65.54
500.08	135.75
500.26	102.98
500.44	88.94
500.61	100.64
500.79	49.15
500.97	65.54
501.14	124.05
501.32	39.79
501.49	102.98
501.67	93.62
501.84	147.45
502.02	49.15
502.20	79.58
502.37	91.28
502.55	131.07
502.72	93.62
502.90	44.47
503.07	110.01
503.25	74.90
503.43	70.22
503.60	131.07
503.78	53.83
503.95	72.56
504.13	37.45
504.30	39.79
504.48	81.92
504.65	72.56
504.83	91.28
505.01	53.83
505.18	70.22
505.36	74.90
505.53	23.41
505.71	18.72
505.88	37.45
506.06	11.70
506.23	117.03
506.41	114.69
506.58	44.47
506.76	86.60
506.93	86.60
507.11	74.90
507.28	119.37
507.46	119.37
507.63	65.54
507.81	102.98
507.98	124.05
508.16	77.24
508.33	84.26
508.50	88.94
508.68	35.11
508.85	128.73
509.03	37.45
509.20	79.58
509.38	86.60
509.55	56.17
509.73	49.15
509.90	32.77
510.08	4.68
510.25	7.02
510.42	23.41
510.60	110.01
510.77	88.94
510.95	91.28
511.12	131.07
511.30	93.62
511.47	77.24
511.64	65.54
511.82	93.62
511.99	86.60
512.17	86.60
512.34	117.03
512.51	46.81
512.69	65.54
512.86	100.64
513.04	70.22
513.21	88.94
513.38	60.85
513.56	126.39
513.73	77.24
513.90	88.94
514.08	98.30
514.25	46.81
514.43	93.62
514.60	102.98
514.77	84.26
514.95	91.28
515.12	46.81
515.29	114.69
515.47	84.26
515.64	168.52
515.81	65.54
515.99	112.35
516.16	39.79
516.33	46.81
516.51	44.47
516.68	77.24
516.85	67.88
517.03	110.01
517.20	88.94
517.37	86.60
517.54	0.00
517.72	67.88
517.89	60.85
518.06	44.47
518.24	102.98
518.41	35.11
518.58	81.92
518.75	42.13
518.93	74.90
519.10	56.17
519.27	112.35
519.45	88.94
519.62	60.85
519.79	70.22
519.96	86.60
520.14	32.77
520.31	154.48
520.48	161.50
520.65	63.19
520.83	128.73
521.00	53.83
521.17	46.81
521.34	84.26
521.52	65.54
521.69	63.19
521.86	37.45
522.03	56.17
522.20	112.35
522.38	95.96
522.55	49.15
522.72	95.96
522.89	72.56
523.07	72.56
523.24	18.72
523.41	72.56
523.58	81.92
523.75	112.35
523.92	105.32
524.10	102.98
524.27	35.11
524.44	72.56
524.61	145.11
524.78	107.66
524.96	147.45
525.13	58.51
525.30	135.75
525.47	95.96
525.64	67.88
525.81	91.28
525.98	86.60
526.16	58.51
526.33	107.66
526.50	65.54
526.67	67.88
526.84	91.28
527.01	84.26
527.18	105.32
527.36	39.79
527.53	63.19
527.70	42.13
527.87	67.88
528.04	58.51
528.21	23.41
528.38	147.45
528.55	79.58
528.72	121.71
528.89	79.58
529.07	124.05
529.24	81.92
529.41	70.22
529.58	98.30
529.75	110.01
529.92	44.47
530.09	70.22
530.26	84.26
530.43	110.01
530.60	117.03
530.77	30.43
530.94	63.19
531.11	102.98
531.28	77.24
531.46	4.68
531.63	30.43
531.80	63.19
531.97	95.96
532.14	105.32
532.31	77.24
532.48	18.72
532.65	77.24
532.82	147.45
532.99	67.88
533.16	65.54
533.33	133.41
533.50	65.54
533.67	67.88
533.84	44.47
534.01	133.41
534.18	88.94
534.35	140.43
534.52	42.13
534.69	93.62
534.86	65.54
535.03	42.13
535.20	88.94
535.37	16.38
535.54	56.17
535.71	74.90
535.88	117.03
536.05	39.79
536.22	114.69
536.38	65.54
536.55	112.35
536.72	67.88
536.89	81.92
537.06	86.60
537.23	79.58
537.40	161.50
537.57	140.43
537.74	173.20
537.91	72.56
538.08	86.60
538.25	161.50
538.42	138.09
538.59	0.00
538.75	102.98
538.92	0.00
539.09	67.88
539.26	58.51
539.43	79.58
539.60	65.54
539.77	49.15
539.94	81.92
540.11	70.22
540.28	170.86
540.44	77.24
540.61	67.88
540.78	67.88
540.95	67.88
541.12	58.51
541.29	93.62
541.46	100.64
541.62	93.62
541.79	84.26
541.96	65.54
542.13	77.24
542.30	51.49
542.47	133.41
542.63	32.77
542.80	70.22
542.97	74.90
543.14	86.60
543.31	39.79
543.48	32.77
543.64	70.22
543.81	53.83
543.98	39.79
544.15	32.77
544.32	44.47
544.48	44.47
544.65	77.24
544.82	86.60
544.99	56.17
545.16	93.62
545.32	124.05
545.49	102.98
545.66	44.47
545.83	114.69
546.00	65.54
546.16	67.88
546.33	72.56
546.50	131.07
546.67	49.15
546.83	74.90
547.00	70.22
547.17	58.51
547.34	53.83
547.50	84.26
547.67	147.45
547.84	100.64
548.00	63.19
548.17	72.56
548.34	86.60
548.51	65.54
548.67	88.94
548.84	42.13
549.01	79.58
549.18	79.58
549.34	88.94
549.51	126.39
549.68	126.39
549.84	100.64
550.01	133.41
550.18	32.77
550.34	138.09
550.51	168.52
550.68	58.51
550.84	86.60
551.01	124.05
551.18	128.73
551.34	35.11
551.51	42.13
551.68	0.00
551.84	86.60
552.01	159.16
552.18	32.77
552.34	156.82
552.51	114.69
552.68	88.94
552.84	119.37
553.01	117.03
553.18	63.19
553.34	84.26
553.51	58.51
553.67	70.22
553.84	63.19
554.01	37.45
554.17	16.38
554.34	152.13
554.51	53.83
554.67	117.03
554.84	93.62
555.00	98.30
555.17	126.39
555.33	0.00
555.50	88.94
555.67	91.28
555.83	79.58
556.00	74.90
556.16	112.35
556.33	58.51
556.50	18.72
556.66	37.45
556.83	105.32
556.99	105.32
557.16	70.22
557.32	154.48
557.49	51.49
557.65	91.28
557.82	126.39
557.98	65.54
558.15	56.17
558.32	112.35
558.48	93.62
558.65	128.73
558.81	114.69
558.98	60.85
559.14	119.37
559.31	84.26
559.47	135.75
559.64	91.28
559.80	93.62
559.97	65.54
560.13	70.22
560.30	98.30
560.46	149.79
560.63	105.32
560.79	49.15
560.96	131.07
561.12	0.00
561.29	119.37
561.45	74.90
561.61	70.22
561.78	112.35
561.94	124.05
562.11	112.35
562.27	95.96
562.44	65.54
562.60	84.26
562.77	128.73
562.93	84.26
563.10	11.70
563.26	95.96
563.42	128.73
563.59	126.39
563.75	117.03
563.92	65.54
564.08	63.19
564.24	79.58
564.41	49.15
564.57	79.58
564.74	100.64
564.90	91.28
565.07	98.30
565.23	49.15
565.39	42.13
565.56	117.03
565.72	21.06
565.88	53.83
566.05	100.64
566.21	35.11
566.38	107.66
566.54	142.77
566.70	9.36
566.87	135.75
567.03	107.66
567.19	105.32
567.36	63.19
567.52	67.88
567.68	74.90
567.85	81.92
568.01	133.41
568.17	100.64
568.34	98.30
568.50	133.41
568.66	18.72
568.83	42.13
568.99	93.62
569.15	91.28
569.32	16.38
569.48	72.56
569.64	30.43
569.81	84.26
569.97	102.98
570.13	81.92
570.30	138.09
570.46	117.03
570.62	72.56
570.78	49.15
570.95	81.92
571.11	79.58
571.27	58.51
571.43	56.17
571.60	44.47
571.76	46.81
571.92	74.90
572.09	63.19
572.25	18.72
572.41	133.41
572.57	49.15
572.74	72.56
572.90	63.19
573.06	121.71
573.22	126.39
573.38	102.98
573.55	30.43
573.71	39.79
573.87	70.22
574.03	98.30
574.20	79.58
574.36	84.26
574.52	65.54
574.68	121.71
574.84	72.56
575.01	79.58
575.17	117.03
575.33	74.90
575.49	95.96
575.65	100.64
575.82	114.69
575.98	42.13
576.14	9.36
576.30	95.96
576.46	107.66
576.62	110.01
576.79	58.51
576.95	112.35
577.11	37.45
577.27	4.68
577.43	60.85
577.59	133.41
577.75	67.88
577.92	37.45
578.08	79.58
578.24	65.54
578.40	107.66
578.56	110.01
578.72	140.43
578.88	58.51
579.04	0.00
579.21	23.41
579.37	119.37
579.53	100.64
579.69	74.90
579.85	51.49
580.01	156.82
580.17	56.17
580.33	0.00
580.49	46.81
580.65	142.77
580.82	102.98
580.98	65.54
581.14	79.58
581.30	39.79
581.46	42.13
581.62	39.79
581.78	42.13
581.94	51.49
582.10	0.00
582.26	44.47
582.42	58.51
582.58	72.56
582.74	42.13
582.90	35.11
583.06	126.39
583.22	44.47
583.38	60.85
583.54	51.49
583.70	72.56
583.86	77.24
584.02	28.09
584.18	72.56
584.34	53.83
584.50	112.35
584.66	112.35
584.82	42.13
584.98	16.38
585.14	51.49
585.30	11.70
585.46	105.32
585.62	110.01
585.78	70.22
585.94	37.45
586.10	44.47
586.26	49.15
586.42	121.71
586.58	91.28
586.74	51.49
586.90	100.64
587.06	32.77
587.22	39.79
587.38	102.98
587.54	11.70
587.70	14.04
587.86	126.39
588.02	102.98
588.18	51.49
588.34	105.32
588.49	58.51
588.65	11.70
588.81	25.75
588.97	51.49
589.13	23.41
589.29	18.72
589.45	98.30
589.61	60.85
589.77	140.43
589.93	93.62
590.08	39.79
590.24	37.45
590.40	18.72
590.56	25.75
590.72	49.15
590.88	23.41
591.04	56.17
591.20	39.79
591.35	25.75
591.51	98.30
591.67	32.77
591.83	25.75
591.99	56.17
592.15	81.92
592.31	60.85
592.46	53.83
592.62	37.45
592.78	49.15
592.94	14.04
593.10	77.24
593.26	44.47
593.41	86.60
593.57	44.47
593.73	91.28
593.89	46.81
594.05	79.58
594.20	74.90
594.36	88.94
594.52	135.75
594.68	124.05
594.84	142.77
594.99	74.90
595.15	49.15
595.31	86.60
595.47	46.81
595.62	25.75
595.78	131.07
595.94	124.05
596.10	126.39
596.25	56.17
596.41	79.58
596.57	9.36
596.73	77.24
596.88	65.54
597.04	30.43
597.20	117.03
597.36	93.62
597.51	95.96
597.67	81.92
597.83	39.79
597.99	128.73
598.14	81.92
598.30	16.38
598.46	46.81
598.61	25.75
598.77	35.11
598.93	67.88
599.09	98.30
599.24	110.01
599.40	91.28
599.56	63.19
599.71	86.60
599.87	72.56
600.03	46.81
600.18	58.51
600.34	51.49
600.50	16.38
600.65	44.47
600.81	77.24
600.97	63.19
601.12	77.24
601.28	23.41
601.44	37.45
601.59	131.07
601.75	77.24
601.91	138.09
602.06	37.45
602.22	102.98
602.37	37.45
602.53	63.19
602.69	39.79
602.84	67.88
603.00	49.15
603.16	51.49
603.31	7.02
603.47	112.35
603.62	63.19
603.78	84.26
603.94	39.79
604.09	9.36
604.25	58.51
604.40	37.45
604.56	32.77
604.71	88.94
604.87	98.30
605.03	67.88
605.18	58.51
605.34	56.17
605.49	2.34
605.65	93.62
605.80	88.94
605.96	105.32
606.12	21.06
606.27	77.24
606.43	42.13
606.58	58.51
606.74	105.32
606.89	9.36
607.05	74.90
607.20	42.13
607.36	102.98
607.51	39.79
607.67	30.43
607.82	30.43
607.98	37.45
608.13	98.30
608.29	79.58
608.44	30.43
608.60	28.09
608.75	53.83
608.91	65.54
609.06	28.09
609.22	42.13
609.37	79.58
609.53	32.77
609.68	91.28
609.84	49.15
609.99	112.35
610.15	30.43
610.30	77.24
610.46	117.03
610.61	74.90
610.76	7.02
610.92	72.56
611.07	67.88
611.23	107.66
611.38	58.51
611.54	0.00
611.69	86.60
611.84	95.96
612.00	112.35
612.15	35.11
612.31	72.56
612.46	93.62
612.62	70.22
612.77	74.90
612.92	28.09
613.08	56.17
613.23	67.88
613.39	25.75
613.54	0.00
613.69	77.24
613.85	9.36
614.00	53.83
614.15	128.73
614.31	0.00
614.46	16.38
614.62	65.54
614.77	65.54
614.92	100.64
615.08	67.88
615.23	60.85
615.38	39.79
615.54	16.38
615.69	58.51
615.84	49.15
616.00	14.04
616.15	74.90
616.30	107.66
616.46	72.56
616.61	32.77
616.76	156.82
616.92	133.41
617.07	112.35
617.22	84.26
617.37	70.22
617.53	100.64
617.68	67.88
617.83	77.24
617.99	32.77
618.14	140.43
618.29	21.06
618.45	0.00
618.60	72.56
618.75	42.13
618.90	53.83
619.06	58.51
619.21	126.39
619.36	86.60
619.51	72.56
619.67	44.47
619.82	39.79
619.97	53.83
620.12	30.43
620.28	53.83
620.43	74.90
620.58	63.19
620.73	149.79
620.89	63.19
621.04	14.04
621.19	18.72
621.34	37.45
621.49	93.62
621.65	39.79
621.80	0.00
621.95	100.64
622.10	32.77
622.25	67.88
622.41	42.13
622.56	44.47
622.71	77.24
622.86	95.96
623.01	14.04
623.16	46.81
623.32	42.13
623.47	95.96
623.62	49.15
623.77	30.43
623.92	56.17
624.07	72.56
624.23	44.47
624.38	100.64
624.53	102.98
624.68	77.24
624.83	72.56
624.98	53.83
625.13	107.66
625.29	84.26
625.44	42.13
625.59	88.94
625.74	93.62
625.89	107.66
626.04	86.60
626.19	95.96
626.34	72.56
626.49	60.85
626.65	63.19
626.80	72.56
626.95	131.07
627.10	21.06
627.25	79.58
627.40	32.77
627.55	81.92
627.70	42.13
627.85	46.81
628.00	53.83
628.15	0.00
628.30	39.79
628.45	74.90
628.60	0.00
628.76	110.01
628.91	140.43
629.06	9.36
629.21	51.49
629.36	110.01
629.51	79.58
629.66	67.88
629.81	14.04
629.96	131.07
630.11	81.92
630.26	25.75
630.41	74.90
630.56	112.35
630.71	88.94
630.86	95.96
631.01	35.11
631.16	32.77
631.31	42.13
631.46	56.17
631.61	72.56
631.76	49.15
631.91	100.64
632.06	23.41
632.21	23.41
632.36	107.66
632.51	42.13
632.66	46.81
632.81	39.79
632.96	142.77
633.10	79.58
633.25	46.81
633.40	0.00
633.55	32.77
633.70	86.60
633.85	100.64
634.00	11.70
634.15	25.75
634.30	56.17
634.45	72.56
634.60	35.11
634.75	39.79
634.90	0.00
635.05	86.60
635.19	46.81
635.34	107.66
635.49	28.09
635.64	0.00
635.79	51.49
635.94	32.77
636.09	9.36
636.24	67.88
636.39	35.11
636.53	25.75
636.68	60.85
636.83	0.00
636.98	56.17
637.13	77.24
637.28	49.15
637.43	53.83
637.57	18.72
637.72	9.36
637.87	46.81
638.02	58.51
638.17	14.04
638.32	32.77
638.46	93.62
638.61	70.22
638.76	124.05
638.91	16.38
639.06	67.88
639.20	81.92
639.35	0.00
639.50	21.06
639.65	72.56
639.80	7.02
639.94	53.83
640.09	91.28
640.24	49.15
640.39	49.15
640.54	18.72
640.68	37.45
640.83	93.62
640.98	14.04
641.13	0.00
641.27	79.58
641.42	84.26
641.57	74.90
641.72	60.85
641.86	112.35
642.01	16.38
642.16	67.88
642.31	35.11
642.45	93.62
642.60	14.04
642.75	110.01
642.90	7.02
643.04	9.36
643.19	49.15
643.34	44.47
643.48	121.71
643.63	53.83
643.78	77.24
643.93	21.06
644.07	14.04
644.22	70.22
644.37	65.54
644.51	84.26
644.66	72.56
644.81	49.15
644.95	49.15
645.10	138.09
645.25	0.00
645.39	39.79
645.54	42.13
645.69	23.41
645.83	93.62
645.98	49.15
646.13	110.01
646.27	23.41
646.42	105.32
646.57	44.47
646.71	37.45
646.86	9.36
647.00	37.45
647.15	11.70
647.30	51.49
647.44	93.62
647.59	28.09
647.74	67.88
647.88	16.38
648.03	0.00
648.17	88.94
648.32	88.94
648.47	0.00
648.61	18.72
648.76	23.41
648.90	110.01
649.05	110.01
649.20	100.64
649.34	74.90
649.49	37.45
649.63	84.26
649.78	14.04
649.92	46.81
650.07	28.09
650.21	112.35
650.36	102.98
650.51	88.94
650.65	2.34
650.80	81.92
650.94	84.26
651.09	81.92
651.23	84.26
651.38	77.24
651.52	44.47
651.67	100.64
651.81	60.85
651.96	46.81
652.10	32.77
652.25	11.70
652.39	74.90
652.54	46.81
652.68	110.01
652.83	60.85
652.97	72.56
653.12	51.49
653.26	74.90
653.41	49.15
653.55	49.15
653.70	0.00
653.84	74.90
653.99	93.62
654.13	39.79
654.27	25.75
654.42	56.17
654.56	21.06
654.71	110.01
654.85	100.64
655.00	65.54
655.14	51.49
655.29	81.92
655.43	77.24
655.57	112.35
655.72	2.34
655.86	67.88
656.01	42.13
656.15	11.70
656.30	30.43
656.44	81.92
656.58	49.15
656.73	42.13
656.87	0.00
657.01	39.79
657.16	14.04
657.30	72.56
657.45	86.60
657.59	49.15
657.73	124.05
657.88	77.24
658.02	37.45
658.16	51.49
658.31	0.00
658.45	0.00
658.60	11.70
658.74	77.24
658.88	51.49
659.03	30.43
659.17	32.77
659.31	100.64
659.46	49.15
659.60	35.11
659.74	72.56
659.89	23.41
660.03	51.49
660.17	39.79
660.32	65.54
660.46	14.04
660.60	0.00
660.74	102.98
660.89	0.00
661.03	72.56
661.17	131.07
661.32	56.17
661.46	95.96
661.60	21.06
661.74	63.19
661.89	44.47
662.03	74.90
662.17	44.47
662.31	72.56
662.46	117.03
662.60	67.88
662.74	72.56
662.88	0.00
663.03	65.54
663.17	4.68
663.31	0.00
663.45	49.15
663.60	32.77
663.74	28.09
663.88	21.06
664.02	0.00
664.17	58.51
664.31	0.00
664.45	67.88
664.59	0.00
664.73	0.00
664.88	4.68
665.02	67.88
665.16	79.58
665.30	79.58
665.44	30.43
665.59	37.45
665.73	67.88
665.87	58.51
666.01	18.72
666.15	88.94
666.29	88.94
666.44	126.39
666.58	79.58
666.72	70.22
666.86	28.09
667.00	39.79
667.14	67.88
667.28	9.36
667.43	0.00
667.57	0.00
667.71	67.88
667.85	25.75
667.99	11.70
668.13	70.22
668.27	35.11
668.41	39.79
668.56	46.81
668.70	65.54
668.84	21.06
668.98	95.96
669.12	42.13
669.26	105.32
669.40	74.90
669.54	105.32
669.68	44.47
669.82	72.56
669.96	100.64
670.10	74.90
670.25	16.38
670.39	110.01
670.53	49.15
670.67	86.60
670.81	35.11
670.95	110.01
671.09	35.11
671.23	0.00
671.37	119.37
671.51	0.00
671.65	46.81
671.79	58.51
671.93	35.11
672.07	49.15
672.21	58.51
672.35	60.85
672.49	74.90
672.63	102.98
672.77	21.06
672.91	79.58
673.05	30.43
673.19	42.13
673.33	91.28
673.47	0.00
673.61	44.47
673.75	49.15
673.89	131.07
674.03	88.94
674.17	124.05
674.31	67.88
674.45	37.45
674.59	0.00
674.73	7.02
674.87	49.15
675.01	0.00
675.15	91.28
675.29	39.79
675.43	23.41
675.56	67.88
675.70	72.56
675.84	51.49
675.98	81.92
676.12	0.00
676.26	102.98
676.40	21.06
676.54	30.43
676.68	63.19
676.82	46.81
676.96	23.41
677.10	18.72
677.23	56.17
677.37	65.54
677.51	149.79
677.65	63.19
677.79	39.79
677.93	70.22
678.07	39.79
678.21	72.56
678.34	72.56
678.48	0.00
678.62	53.83
678.76	49.15
678.90	58.51
679.04	0.00
679.18	46.81
679.31	65.54
679.45	21.06
679.59	60.85
679.73	23.41
679.87	0.00
680.00	60.85
680.14	0.00
680.28	84.26
680.42	65.54
680.56	0.00
680.70	0.00
680.83	0.00
680.97	42.13
681.11	65.54
681.25	21.06
681.39	79.58
681.52	77.24
681.66	0.00
681.80	91.28
681.94	32.77
682.07	0.00
682.21	32.77
682.35	35.11
682.49	79.58
682.62	102.98
682.76	23.41
682.90	14.04
683.04	18.72
683.17	21.06
683.31	0.00
683.45	58.51
683.59	42.13
683.72	79.58
683.86	46.81
684.00	18.72
684.13	32.77
684.27	70.22
684.41	4.68
684.55	28.09
684.68	30.43
684.82	67.88
684.96	77.24
685.09	23.41
685.23	70.22
685.37	0.00
685.50	42.13
685.64	65.54
685.78	9.36
685.91	0.00
686.05	21.06
686.19	0.00
686.32	67.88
686.46	46.81
686.60	58.51
686.73	133.41
686.87	0.00
687.01	32.77
687.14	79.58
687.28	53.83
687.42	14.04
687.55	18.72
687.69	16.38
687.82	16.38
687.96	58.51
688.10	65.54
688.23	18.72
688.37	0.00
688.50	2.34
688.64	25.75
688.78	44.47
688.91	30.43
689.05	25.75
689.18	4.68
689.32	65.54
689.46	0.00
689.59	84.26
689.73	84.26
689.86	72.56
690.00	16.38
690.13	11.70
690.27	11.70
690.41	56.17
690.54	53.83
690.68	16.38
690.81	0.00
690.95	53.83
691.08	81.92
691.22	60.85
691.35	37.45
691.49	18.72
691.62	16.38
691.76	16.38
691.89	72.56
692.03	18.72
692.16	0.00
692.30	56.17
692.43	74.90
692.57	72.56
692.70	46.81
692.84	4.68
692.97	49.15
693.11	44.47
693.24	11.70
693.38	35.11
693.51	37.45
693.65	28.09
693.78	14.04
693.92	11.70
694.05	42.13
694.19	25.75
694.32	11.70
694.45	0.00
694.59	28.09
694.72	11.70
694.86	35.11
694.99	53.83
695.13	88.94
695.26	16.38
695.39	7.02
695.53	81.92
695.66	51.49
695.80	86.60
695.93	46.81
696.07	65.54
696.20	0.00
696.33	0.00
696.47	131.07
696.60	72.56
696.73	63.19
696.87	37.45
697.00	4.68
697.14	44.47
697.27	77.24
697.40	93.62
697.54	0.00
697.67	23.41
697.80	46.81
697.94	35.11
698.07	28.09
698.21	25.75
698.34	0.00
698.47	0.00
698.61	58.51
698.74	58.51
698.87	46.81
699.01	74.90
699.14	0.00
699.27	51.49
699.40	170.86
699.54	23.41
699.67	70.22
699.80	9.36
699.94	0.00
700.07	65.54
700.20	131.07
700.34	0.00
700.47	35.11
700.60	0.00
700.73	0.00
700.87	95.96
701.00	23.41
701.13	98.30
701.26	77.24
701.40	0.00
701.53	44.47
701.66	56.17
701.79	7.02
701.93	81.92
702.06	0.00
702.19	32.77
702.32	0.00
702.46	44.47
702.59	18.72
702.72	42.13
702.85	65.54
702.99	37.45
703.12	49.15
703.25	79.58
703.38	0.00
703.51	21.06
703.65	60.85
703.78	2.34
703.91	42.13
704.04	95.96
704.17	65.54
704.31	18.72
704.44	42.13
704.57	37.45
704.70	84.26
704.83	2.34
704.96	42.13
705.10	74.90
705.23	37.45
>>>>>End Processed Spectral Data<<<<<
