SpectraSuite Data File
++++++++++++++++++++++++++++++++++++
Date: Fri Oct 04 12:13:33 GMT-05:00 2013
User: price-jones
Dark Spectrum Present: No
Reference Spectrum Present: No
Number of Sampled Component Spectra: 1
Spectrometers: USB2+H05261
Integration Time (usec): 10000 (USB2+H05261)
Spectra Averaged: 1 (USB2+H05261)
Boxcar Smoothing: 0 (USB2+H05261)
Correct for Electrical Dark: No (USB2+H05261)
Strobe/Lamp Enabled: No (USB2+H05261)
Correct for Detector Non-linearity: No (USB2+H05261)
Correct for Stray Light: No (USB2+H05261)
Number of Pixels in Processed Spectrum: 2048
>>>>>Begin Processed Spectral Data<<<<<
365.73	42.13
365.92	42.13
366.12	42.13
366.32	0.00
366.52	0.00
366.72	0.00
366.91	0.00
367.11	0.00
367.31	0.00
367.51	0.00
367.70	0.00
367.90	0.00
368.10	0.00
368.30	0.00
368.49	0.00
368.69	0.00
368.89	0.00
369.09	0.00
369.28	0.00
369.48	0.00
369.68	0.00
369.87	0.00
370.07	0.00
370.27	0.00
370.47	0.00
370.66	0.00
370.86	0.00
371.06	11.70
371.25	0.00
371.45	0.00
371.65	0.00
371.84	0.00
372.04	0.00
372.24	0.00
372.44	2.34
372.63	9.36
372.83	0.00
373.03	32.77
373.22	0.00
373.42	23.41
373.62	30.43
373.81	2.34
374.01	0.00
374.21	7.02
374.40	28.09
374.60	63.19
374.79	0.00
374.99	25.75
375.19	44.47
375.38	42.13
375.58	0.00
375.78	0.00
375.97	21.06
376.17	0.00
376.37	23.41
376.56	51.49
376.76	28.09
376.95	30.43
377.15	81.92
377.35	53.83
377.54	9.36
377.74	51.49
377.93	0.00
378.13	11.70
378.33	21.06
378.52	0.00
378.72	37.45
378.91	28.09
379.11	0.00
379.31	0.00
379.50	0.00
379.70	0.00
379.89	42.13
380.09	0.00
380.28	4.68
380.48	0.00
380.68	65.54
380.87	39.79
381.07	39.79
381.26	49.15
381.46	44.47
381.65	0.00
381.85	18.72
382.04	65.54
382.24	0.00
382.43	0.00
382.63	0.00
382.83	21.06
383.02	0.00
383.22	16.38
383.41	0.00
383.61	35.11
383.80	25.75
384.00	72.56
384.19	0.00
384.39	32.77
384.58	25.75
384.78	56.17
384.97	9.36
385.17	37.45
385.36	0.00
385.56	23.41
385.75	32.77
385.95	7.02
386.14	0.00
386.34	84.26
386.53	11.70
386.72	107.66
386.92	21.06
387.11	0.00
387.31	32.77
387.50	21.06
387.70	7.02
387.89	7.02
388.09	0.00
388.28	0.00
388.48	0.00
388.67	58.51
388.86	25.75
389.06	58.51
389.25	0.00
389.45	49.15
389.64	23.41
389.84	67.88
390.03	46.81
390.22	28.09
390.42	0.00
390.61	16.38
390.81	32.77
391.00	72.56
391.19	53.83
391.39	0.00
391.58	37.45
391.78	16.38
391.97	16.38
392.16	23.41
392.36	0.00
392.55	0.00
392.75	4.68
392.94	0.00
393.13	0.00
393.33	46.81
393.52	44.47
393.71	49.15
393.91	4.68
394.10	32.77
394.29	81.92
394.49	0.00
394.68	0.00
394.88	16.38
395.07	114.69
395.26	0.00
395.46	21.06
395.65	72.56
395.84	84.26
396.04	63.19
396.23	37.45
396.42	11.70
396.62	65.54
396.81	23.41
397.00	0.00
397.19	0.00
397.39	0.00
397.58	30.43
397.77	37.45
397.97	77.24
398.16	28.09
398.35	51.49
398.55	0.00
398.74	2.34
398.93	9.36
399.12	0.00
399.32	0.00
399.51	30.43
399.70	32.77
399.90	0.00
400.09	0.00
400.28	25.75
400.47	23.41
400.67	67.88
400.86	0.00
401.05	0.00
401.24	65.54
401.44	39.79
401.63	7.02
401.82	0.00
402.01	51.49
402.21	58.51
402.40	70.22
402.59	28.09
402.78	16.38
402.97	0.00
403.17	25.75
403.36	28.09
403.55	32.77
403.74	86.60
403.93	9.36
404.13	25.75
404.32	53.83
404.51	0.00
404.70	30.43
404.89	72.56
405.09	37.45
405.28	0.00
405.47	58.51
405.66	0.00
405.85	110.01
406.05	0.00
406.24	63.19
406.43	42.13
406.62	9.36
406.81	0.00
407.00	23.41
407.20	16.38
407.39	30.43
407.58	44.47
407.77	0.00
407.96	30.43
408.15	14.04
408.34	25.75
408.54	23.41
408.73	0.00
408.92	0.00
409.11	18.72
409.30	102.98
409.49	42.13
409.68	81.92
409.87	30.43
410.07	21.06
410.26	16.38
410.45	35.11
410.64	95.96
410.83	28.09
411.02	21.06
411.21	42.13
411.40	28.09
411.59	56.17
411.78	100.64
411.98	42.13
412.17	46.81
412.36	42.13
412.55	2.34
412.74	39.79
412.93	51.49
413.12	9.36
413.31	2.34
413.50	128.73
413.69	21.06
413.88	79.58
414.07	0.00
414.26	0.00
414.45	72.56
414.64	70.22
414.83	11.70
415.02	49.15
415.22	65.54
415.41	23.41
415.60	23.41
415.79	0.00
415.98	0.00
416.17	0.00
416.36	21.06
416.55	25.75
416.74	35.11
416.93	39.79
417.12	74.90
417.31	11.70
417.50	37.45
417.69	60.85
417.88	0.00
418.07	0.00
418.26	0.00
418.45	0.00
418.64	25.75
418.83	16.38
419.02	77.24
419.21	18.72
419.39	0.00
419.58	4.68
419.77	9.36
419.96	56.17
420.15	0.00
420.34	72.56
420.53	51.49
420.72	25.75
420.91	67.88
421.10	0.00
421.29	11.70
421.48	65.54
421.67	35.11
421.86	72.56
422.05	0.00
422.24	0.00
422.43	0.00
422.61	30.43
422.80	60.85
422.99	32.77
423.18	0.00
423.37	0.00
423.56	28.09
423.75	0.00
423.94	0.00
424.13	0.00
424.32	0.00
424.50	23.41
424.69	98.30
424.88	77.24
425.07	18.72
425.26	14.04
425.45	39.79
425.64	63.19
425.83	0.00
426.01	0.00
426.20	0.00
426.39	42.13
426.58	21.06
426.77	105.32
426.96	84.26
427.15	42.13
427.33	44.47
427.52	56.17
427.71	67.88
427.90	0.00
428.09	9.36
428.28	30.43
428.46	49.15
428.65	16.38
428.84	28.09
429.03	2.34
429.22	11.70
429.40	91.28
429.59	39.79
429.78	60.85
429.97	25.75
430.16	0.00
430.34	9.36
430.53	0.00
430.72	0.00
430.91	56.17
431.10	88.94
431.28	35.11
431.47	30.43
431.66	0.00
431.85	0.00
432.03	16.38
432.22	7.02
432.41	37.45
432.60	42.13
432.79	112.35
432.97	67.88
433.16	0.00
433.35	105.32
433.54	0.00
433.72	107.66
433.91	0.00
434.10	77.24
434.28	105.32
434.47	70.22
434.66	56.17
434.85	25.75
435.03	88.94
435.22	42.13
435.41	46.81
435.59	16.38
435.78	0.00
435.97	95.96
436.16	18.72
436.34	30.43
436.53	16.38
436.72	51.49
436.90	25.75
437.09	39.79
437.28	0.00
437.46	14.04
437.65	0.00
437.84	9.36
438.02	21.06
438.21	53.83
438.40	21.06
438.58	51.49
438.77	65.54
438.96	49.15
439.14	42.13
439.33	49.15
439.52	0.00
439.70	105.32
439.89	32.77
440.08	0.00
440.26	42.13
440.45	84.26
440.63	9.36
440.82	0.00
441.01	65.54
441.19	79.58
441.38	35.11
441.57	51.49
441.75	9.36
441.94	21.06
442.12	46.81
442.31	114.69
442.50	70.22
442.68	63.19
442.87	37.45
443.05	60.85
443.24	35.11
443.43	16.38
443.61	46.81
443.80	49.15
443.98	4.68
444.17	53.83
444.35	67.88
444.54	0.00
444.73	0.00
444.91	51.49
445.10	30.43
445.28	28.09
445.47	53.83
445.65	30.43
445.84	23.41
446.02	42.13
446.21	117.03
446.39	119.37
446.58	23.41
446.77	21.06
446.95	0.00
447.14	0.00
447.32	0.00
447.51	72.56
447.69	53.83
447.88	7.02
448.06	14.04
448.25	23.41
448.43	25.75
448.62	18.72
448.80	0.00
448.99	14.04
449.17	28.09
449.36	0.00
449.54	0.00
449.73	0.00
449.91	77.24
450.10	23.41
450.28	25.75
450.46	0.00
450.65	72.56
450.83	39.79
451.02	56.17
451.20	102.98
451.39	60.85
451.57	63.19
451.76	18.72
451.94	23.41
452.13	42.13
452.31	91.28
452.49	23.41
452.68	0.00
452.86	11.70
453.05	70.22
453.23	28.09
453.42	88.94
453.60	11.70
453.78	119.37
453.97	0.00
454.15	21.06
454.34	0.00
454.52	53.83
454.70	51.49
454.89	46.81
455.07	42.13
455.26	39.79
455.44	46.81
455.62	114.69
455.81	25.75
455.99	0.00
456.17	32.77
456.36	0.00
456.54	0.00
456.73	14.04
456.91	42.13
457.09	67.88
457.28	44.47
457.46	93.62
457.64	65.54
457.83	9.36
458.01	77.24
458.19	21.06
458.38	23.41
458.56	35.11
458.74	49.15
458.93	37.45
459.11	0.00
459.29	21.06
459.48	0.00
459.66	42.13
459.84	11.70
460.03	142.77
460.21	51.49
460.39	70.22
460.57	44.47
460.76	23.41
460.94	14.04
461.12	74.90
461.31	0.00
461.49	18.72
461.67	65.54
461.85	44.47
462.04	37.45
462.22	0.00
462.40	37.45
462.59	4.68
462.77	0.00
462.95	0.00
463.13	53.83
463.32	72.56
463.50	98.30
463.68	9.36
463.86	44.47
464.05	84.26
464.23	37.45
464.41	21.06
464.59	0.00
464.78	0.00
464.96	28.09
465.14	0.00
465.32	0.00
465.50	42.13
465.69	39.79
465.87	0.00
466.05	37.45
466.23	30.43
466.41	25.75
466.60	117.03
466.78	21.06
466.96	7.02
467.14	44.47
467.32	32.77
467.51	25.75
467.69	0.00
467.87	37.45
468.05	102.98
468.23	0.00
468.41	23.41
468.60	0.00
468.78	23.41
468.96	14.04
469.14	46.81
469.32	60.85
469.50	30.43
469.69	4.68
469.87	60.85
470.05	11.70
470.23	67.88
470.41	7.02
470.59	28.09
470.77	51.49
470.95	65.54
471.14	21.06
471.32	60.85
471.50	0.00
471.68	46.81
471.86	107.66
472.04	74.90
472.22	0.00
472.40	42.13
472.58	42.13
472.77	25.75
472.95	14.04
473.13	46.81
473.31	28.09
473.49	0.00
473.67	88.94
473.85	30.43
474.03	37.45
474.21	60.85
474.39	0.00
474.57	79.58
474.75	91.28
474.93	25.75
475.12	39.79
475.30	16.38
475.48	0.00
475.66	112.35
475.84	35.11
476.02	0.00
476.20	63.19
476.38	18.72
476.56	16.38
476.74	0.00
476.92	23.41
477.10	86.60
477.28	0.00
477.46	51.49
477.64	2.34
477.82	11.70
478.00	77.24
478.18	28.09
478.36	81.92
478.54	67.88
478.72	58.51
478.90	30.43
479.08	81.92
479.26	0.00
479.44	37.45
479.62	53.83
479.80	0.00
479.98	49.15
480.16	18.72
480.34	35.11
480.52	107.66
480.70	81.92
480.88	51.49
481.06	0.00
481.24	37.45
481.41	9.36
481.59	37.45
481.77	28.09
481.95	67.88
482.13	30.43
482.31	60.85
482.49	7.02
482.67	14.04
482.85	28.09
483.03	58.51
483.21	11.70
483.39	0.00
483.57	72.56
483.74	25.75
483.92	14.04
484.10	9.36
484.28	32.77
484.46	0.00
484.64	14.04
484.82	21.06
485.00	9.36
485.18	84.26
485.35	42.13
485.53	74.90
485.71	21.06
485.89	16.38
486.07	16.38
486.25	79.58
486.43	25.75
486.61	2.34
486.78	42.13
486.96	86.60
487.14	42.13
487.32	39.79
487.50	7.02
487.68	44.47
487.85	81.92
488.03	7.02
488.21	4.68
488.39	39.79
488.57	44.47
488.75	21.06
488.92	56.17
489.10	77.24
489.28	0.00
489.46	14.04
489.64	37.45
489.81	0.00
489.99	56.17
490.17	35.11
490.35	46.81
490.53	18.72
490.70	0.00
490.88	28.09
491.06	51.49
491.24	46.81
491.41	30.43
491.59	51.49
491.77	0.00
491.95	42.13
492.13	51.49
492.30	0.00
492.48	37.45
492.66	0.00
492.84	60.85
493.01	23.41
493.19	44.47
493.37	23.41
493.54	21.06
493.72	28.09
493.90	0.00
494.08	49.15
494.25	0.00
494.43	60.85
494.61	0.00
494.79	119.37
494.96	60.85
495.14	0.00
495.32	32.77
495.49	0.00
495.67	65.54
495.85	21.06
496.02	51.49
496.20	65.54
496.38	117.03
496.55	65.54
496.73	74.90
496.91	0.00
497.09	46.81
497.26	39.79
497.44	0.00
497.62	79.58
497.79	14.04
497.97	30.43
498.14	0.00
498.32	23.41
498.50	72.56
498.67	53.83
498.85	46.81
499.03	16.38
499.20	11.70
499.38	9.36
499.56	0.00
499.73	0.00
499.91	0.00
500.08	56.17
500.26	49.15
500.44	77.24
500.61	35.11
500.79	0.00
500.97	0.00
501.14	16.38
501.32	14.04
501.49	65.54
501.67	0.00
501.84	37.45
502.02	0.00
502.20	110.01
502.37	0.00
502.55	51.49
502.72	105.32
502.90	0.00
503.07	51.49
503.25	44.47
503.43	63.19
503.60	25.75
503.78	70.22
503.95	44.47
504.13	11.70
504.30	63.19
504.48	32.77
504.65	0.00
504.83	53.83
505.01	39.79
505.18	65.54
505.36	86.60
505.53	35.11
505.71	51.49
505.88	88.94
506.06	46.81
506.23	16.38
506.41	84.26
506.58	63.19
506.76	114.69
506.93	0.00
507.11	18.72
507.28	100.64
507.46	11.70
507.63	37.45
507.81	72.56
507.98	98.30
508.16	42.13
508.33	46.81
508.50	60.85
508.68	21.06
508.85	60.85
509.03	42.13
509.20	60.85
509.38	42.13
509.55	72.56
509.73	37.45
509.90	79.58
510.08	72.56
510.25	11.70
510.42	30.43
510.60	166.18
510.77	74.90
510.95	35.11
511.12	74.90
511.30	58.51
511.47	0.00
511.64	81.92
511.82	0.00
511.99	51.49
512.17	56.17
512.34	25.75
512.51	0.00
512.69	0.00
512.86	39.79
513.04	18.72
513.21	51.49
513.38	0.00
513.56	65.54
513.73	74.90
513.90	53.83
514.08	21.06
514.25	110.01
514.43	23.41
514.60	58.51
514.77	74.90
514.95	84.26
515.12	23.41
515.29	86.60
515.47	16.38
515.64	49.15
515.81	0.00
515.99	32.77
516.16	28.09
516.33	60.85
516.51	18.72
516.68	74.90
516.85	81.92
517.03	7.02
517.20	60.85
517.37	25.75
517.54	0.00
517.72	30.43
517.89	58.51
518.06	51.49
518.24	49.15
518.41	32.77
518.58	39.79
518.75	0.00
518.93	60.85
519.10	0.00
519.27	39.79
519.45	105.32
519.62	70.22
519.79	46.81
519.96	56.17
520.14	56.17
520.31	32.77
520.48	63.19
520.65	51.49
520.83	44.47
521.00	46.81
521.17	39.79
521.34	67.88
521.52	58.51
521.69	0.00
521.86	102.98
522.03	9.36
522.20	49.15
522.38	77.24
522.55	4.68
522.72	74.90
522.89	16.38
523.07	65.54
523.24	46.81
523.41	84.26
523.58	0.00
523.75	84.26
523.92	88.94
524.10	0.00
524.27	56.17
524.44	114.69
524.61	23.41
524.78	0.00
524.96	51.49
525.13	93.62
525.30	53.83
525.47	84.26
525.64	49.15
525.81	0.00
525.98	18.72
526.16	46.81
526.33	42.13
526.50	93.62
526.67	14.04
526.84	65.54
527.01	77.24
527.18	0.00
527.36	51.49
527.53	117.03
527.70	9.36
527.87	42.13
528.04	131.07
528.21	14.04
528.38	77.24
528.55	30.43
528.72	35.11
528.89	7.02
529.07	0.00
529.24	9.36
529.41	32.77
529.58	35.11
529.75	16.38
529.92	81.92
530.09	0.00
530.26	42.13
530.43	37.45
530.60	65.54
530.77	42.13
530.94	60.85
531.11	56.17
531.28	35.11
531.46	84.26
531.63	23.41
531.80	0.00
531.97	9.36
532.14	42.13
532.31	39.79
532.48	72.56
532.65	56.17
532.82	63.19
532.99	46.81
533.16	0.00
533.33	18.72
533.50	95.96
533.67	84.26
533.84	53.83
534.01	84.26
534.18	37.45
534.35	58.51
534.52	0.00
534.69	37.45
534.86	102.98
535.03	91.28
535.20	37.45
535.37	86.60
535.54	44.47
535.71	112.35
535.88	11.70
536.05	84.26
536.22	63.19
536.38	16.38
536.55	56.17
536.72	2.34
536.89	53.83
537.06	67.88
537.23	35.11
537.40	86.60
537.57	25.75
537.74	4.68
537.91	23.41
538.08	32.77
538.25	56.17
538.42	72.56
538.59	67.88
538.75	25.75
538.92	49.15
539.09	28.09
539.26	51.49
539.43	35.11
539.60	16.38
539.77	0.00
539.94	7.02
540.11	4.68
540.28	30.43
540.44	93.62
540.61	81.92
540.78	42.13
540.95	67.88
541.12	49.15
541.29	11.70
541.46	30.43
541.62	35.11
541.79	65.54
541.96	56.17
542.13	60.85
542.30	0.00
542.47	0.00
542.63	70.22
542.80	114.69
542.97	70.22
543.14	14.04
543.31	11.70
543.48	0.00
543.64	51.49
543.81	18.72
543.98	42.13
544.15	42.13
544.32	67.88
544.48	56.17
544.65	35.11
544.82	0.00
544.99	4.68
545.16	72.56
545.32	4.68
545.49	2.34
545.66	16.38
545.83	46.81
546.00	53.83
546.16	32.77
546.33	79.58
546.50	77.24
546.67	102.98
546.83	28.09
547.00	93.62
547.17	84.26
547.34	44.47
547.50	18.72
547.67	46.81
547.84	46.81
548.00	37.45
548.17	35.11
548.34	86.60
548.51	70.22
548.67	65.54
548.84	72.56
549.01	107.66
549.18	7.02
549.34	0.00
549.51	60.85
549.68	77.24
549.84	0.00
550.01	0.00
550.18	91.28
550.34	42.13
550.51	16.38
550.68	32.77
550.84	110.01
551.01	60.85
551.18	11.70
551.34	77.24
551.51	28.09
551.68	67.88
551.84	119.37
552.01	131.07
552.18	30.43
552.34	4.68
552.51	67.88
552.68	14.04
552.84	14.04
553.01	11.70
553.18	65.54
553.34	21.06
553.51	30.43
553.67	0.00
553.84	72.56
554.01	95.96
554.17	63.19
554.34	42.13
554.51	32.77
554.67	58.51
554.84	81.92
555.00	60.85
555.17	37.45
555.33	0.00
555.50	39.79
555.67	14.04
555.83	60.85
556.00	0.00
556.16	93.62
556.33	65.54
556.50	70.22
556.66	42.13
556.83	0.00
556.99	63.19
557.16	39.79
557.32	9.36
557.49	67.88
557.65	0.00
557.82	39.79
557.98	30.43
558.15	65.54
558.32	7.02
558.48	98.30
558.65	32.77
558.81	7.02
558.98	72.56
559.14	49.15
559.31	51.49
559.47	9.36
559.64	0.00
559.80	37.45
559.97	0.00
560.13	0.00
560.30	32.77
560.46	28.09
560.63	25.75
560.79	25.75
560.96	14.04
561.12	72.56
561.29	9.36
561.45	74.90
561.61	95.96
561.78	88.94
561.94	117.03
562.11	72.56
562.27	70.22
562.44	0.00
562.60	0.00
562.77	11.70
562.93	117.03
563.10	4.68
563.26	0.00
563.42	23.41
563.59	70.22
563.75	72.56
563.92	32.77
564.08	14.04
564.24	60.85
564.41	53.83
564.57	0.00
564.74	42.13
564.90	16.38
565.07	28.09
565.23	60.85
565.39	70.22
565.56	79.58
565.72	35.11
565.88	0.00
566.05	51.49
566.21	30.43
566.38	21.06
566.54	79.58
566.70	0.00
566.87	0.00
567.03	70.22
567.19	23.41
567.36	60.85
567.52	0.00
567.68	91.28
567.85	63.19
568.01	11.70
568.17	67.88
568.34	28.09
568.50	39.79
568.66	51.49
568.83	51.49
568.99	11.70
569.15	63.19
569.32	88.94
569.48	46.81
569.64	25.75
569.81	60.85
569.97	46.81
570.13	149.79
570.30	110.01
570.46	53.83
570.62	28.09
570.78	128.73
570.95	53.83
571.11	16.38
571.27	56.17
571.43	18.72
571.60	14.04
571.76	65.54
571.92	49.15
572.09	9.36
572.25	70.22
572.41	0.00
572.57	18.72
572.74	63.19
572.90	16.38
573.06	28.09
573.22	46.81
573.38	0.00
573.55	0.00
573.71	21.06
573.87	56.17
574.03	46.81
574.20	91.28
574.36	11.70
574.52	44.47
574.68	72.56
574.84	91.28
575.01	70.22
575.17	0.00
575.33	11.70
575.49	72.56
575.65	21.06
575.82	2.34
575.98	23.41
576.14	46.81
576.30	60.85
576.46	60.85
576.62	70.22
576.79	35.11
576.95	117.03
577.11	23.41
577.27	0.00
577.43	84.26
577.59	35.11
577.75	72.56
577.92	51.49
578.08	72.56
578.24	11.70
578.40	58.51
578.56	124.05
578.72	74.90
578.88	18.72
579.04	18.72
579.21	93.62
579.37	0.00
579.53	84.26
579.69	4.68
579.85	0.00
580.01	0.00
580.17	30.43
580.33	23.41
580.49	67.88
580.65	4.68
580.82	32.77
580.98	100.64
581.14	16.38
581.30	95.96
581.46	51.49
581.62	0.00
581.78	51.49
581.94	70.22
582.10	42.13
582.26	77.24
582.42	128.73
582.58	7.02
582.74	21.06
582.90	74.90
583.06	114.69
583.22	65.54
583.38	21.06
583.54	112.35
583.70	0.00
583.86	60.85
584.02	0.00
584.18	9.36
584.34	42.13
584.50	18.72
584.66	37.45
584.82	35.11
584.98	4.68
585.14	14.04
585.30	60.85
585.46	49.15
585.62	63.19
585.78	86.60
585.94	77.24
586.10	91.28
586.26	56.17
586.42	56.17
586.58	49.15
586.74	53.83
586.90	42.13
587.06	84.26
587.22	28.09
587.38	42.13
587.54	14.04
587.70	37.45
587.86	4.68
588.02	0.00
588.18	58.51
588.34	25.75
588.49	42.13
588.65	74.90
588.81	32.77
588.97	0.00
589.13	30.43
589.29	16.38
589.45	0.00
589.61	39.79
589.77	51.49
589.93	39.79
590.08	49.15
590.24	39.79
590.40	25.75
590.56	0.00
590.72	91.28
590.88	0.00
591.04	46.81
591.20	51.49
591.35	70.22
591.51	23.41
591.67	23.41
591.83	49.15
591.99	49.15
592.15	4.68
592.31	67.88
592.46	53.83
592.62	37.45
592.78	23.41
592.94	9.36
593.10	0.00
593.26	53.83
593.41	23.41
593.57	21.06
593.73	18.72
593.89	98.30
594.05	67.88
594.20	121.71
594.36	0.00
594.52	86.60
594.68	23.41
594.84	25.75
594.99	81.92
595.15	0.00
595.31	21.06
595.47	88.94
595.62	32.77
595.78	18.72
595.94	0.00
596.10	53.83
596.25	95.96
596.41	0.00
596.57	51.49
596.73	63.19
596.88	32.77
597.04	39.79
597.20	28.09
597.36	58.51
597.51	65.54
597.67	46.81
597.83	39.79
597.99	51.49
598.14	46.81
598.30	65.54
598.46	51.49
598.61	49.15
598.77	0.00
598.93	11.70
599.09	0.00
599.24	49.15
599.40	65.54
599.56	53.83
599.71	18.72
599.87	21.06
600.03	14.04
600.18	91.28
600.34	42.13
600.50	14.04
600.65	14.04
600.81	58.51
600.97	0.00
601.12	32.77
601.28	70.22
601.44	60.85
601.59	32.77
601.75	14.04
601.91	49.15
602.06	28.09
602.22	21.06
602.37	46.81
602.53	72.56
602.69	60.85
602.84	0.00
603.00	21.06
603.16	28.09
603.31	46.81
603.47	0.00
603.62	42.13
603.78	9.36
603.94	79.58
604.09	7.02
604.25	77.24
604.40	65.54
604.56	81.92
604.71	14.04
604.87	44.47
605.03	56.17
605.18	11.70
605.34	65.54
605.49	72.56
605.65	112.35
605.80	2.34
605.96	58.51
606.12	0.00
606.27	9.36
606.43	0.00
606.58	35.11
606.74	28.09
606.89	168.52
607.05	60.85
607.20	63.19
607.36	46.81
607.51	37.45
607.67	65.54
607.82	4.68
607.98	32.77
608.13	124.05
608.29	110.01
608.44	79.58
608.60	30.43
608.75	67.88
608.91	58.51
609.06	58.51
609.22	65.54
609.37	65.54
609.53	0.00
609.68	28.09
609.84	65.54
609.99	70.22
610.15	46.81
610.30	44.47
610.46	0.00
610.61	18.72
610.76	42.13
610.92	2.34
611.07	18.72
611.23	35.11
611.38	32.77
611.54	11.70
611.69	93.62
611.84	39.79
612.00	21.06
612.15	25.75
612.31	23.41
612.46	7.02
612.62	28.09
612.77	14.04
612.92	70.22
613.08	25.75
613.23	0.00
613.39	39.79
613.54	23.41
613.69	28.09
613.85	30.43
614.00	56.17
614.15	32.77
614.31	0.00
614.46	42.13
614.62	67.88
614.77	37.45
614.92	32.77
615.08	86.60
615.23	39.79
615.38	9.36
615.54	25.75
615.69	81.92
615.84	25.75
616.00	79.58
616.15	81.92
616.30	107.66
616.46	16.38
616.61	32.77
616.76	11.70
616.92	25.75
617.07	14.04
617.22	86.60
617.37	21.06
617.53	0.00
617.68	7.02
617.83	65.54
617.99	21.06
618.14	18.72
618.29	39.79
618.45	70.22
618.60	107.66
618.75	32.77
618.90	72.56
619.06	30.43
619.21	60.85
619.36	28.09
619.51	37.45
619.67	0.00
619.82	60.85
619.97	0.00
620.12	0.00
620.28	39.79
620.43	49.15
620.58	65.54
620.73	30.43
620.89	79.58
621.04	0.00
621.19	0.00
621.34	0.00
621.49	70.22
621.65	37.45
621.80	0.00
621.95	11.70
622.10	98.30
622.25	39.79
622.41	9.36
622.56	9.36
622.71	74.90
622.86	0.00
623.01	49.15
623.16	7.02
623.32	16.38
623.47	30.43
623.62	21.06
623.77	25.75
623.92	30.43
624.07	7.02
624.23	0.00
624.38	53.83
624.53	46.81
624.68	18.72
624.83	14.04
624.98	2.34
625.13	7.02
625.29	86.60
625.44	39.79
625.59	102.98
625.74	0.00
625.89	11.70
626.04	67.88
626.19	37.45
626.34	35.11
626.49	32.77
626.65	32.77
626.80	39.79
626.95	88.94
627.10	95.96
627.25	98.30
627.40	28.09
627.55	74.90
627.70	74.90
627.85	53.83
628.00	53.83
628.15	11.70
628.30	25.75
628.45	65.54
628.60	79.58
628.76	51.49
628.91	35.11
629.06	46.81
629.21	37.45
629.36	112.35
629.51	44.47
629.66	65.54
629.81	0.00
629.96	0.00
630.11	81.92
630.26	44.47
630.41	81.92
630.56	30.43
630.71	4.68
630.86	81.92
631.01	114.69
631.16	21.06
631.31	60.85
631.46	46.81
631.61	63.19
631.76	51.49
631.91	74.90
632.06	4.68
632.21	49.15
632.36	14.04
632.51	72.56
632.66	42.13
632.81	56.17
632.96	25.75
633.10	0.00
633.25	18.72
633.40	0.00
633.55	60.85
633.70	42.13
633.85	9.36
634.00	28.09
634.15	70.22
634.30	46.81
634.45	46.81
634.60	65.54
634.75	23.41
634.90	65.54
635.05	28.09
635.19	42.13
635.34	35.11
635.49	51.49
635.64	42.13
635.79	42.13
635.94	0.00
636.09	0.00
636.24	88.94
636.39	51.49
636.53	46.81
636.68	88.94
636.83	42.13
636.98	37.45
637.13	21.06
637.28	0.00
637.43	166.18
637.57	51.49
637.72	65.54
637.87	49.15
638.02	65.54
638.17	51.49
638.32	18.72
638.46	107.66
638.61	0.00
638.76	0.00
638.91	0.00
639.06	86.60
639.20	53.83
639.35	46.81
639.50	35.11
639.65	14.04
639.80	42.13
639.94	23.41
640.09	0.00
640.24	49.15
640.39	110.01
640.54	60.85
640.68	35.11
640.83	79.58
640.98	65.54
641.13	60.85
641.27	23.41
641.42	49.15
641.57	58.51
641.72	86.60
641.86	53.83
642.01	65.54
642.16	70.22
642.31	42.13
642.45	74.90
642.60	2.34
642.75	105.32
642.90	16.38
643.04	7.02
643.19	39.79
643.34	42.13
643.48	70.22
643.63	23.41
643.78	84.26
643.93	56.17
644.07	18.72
644.22	100.64
644.37	7.02
644.51	72.56
644.66	37.45
644.81	0.00
644.95	32.77
645.10	14.04
645.25	67.88
645.39	28.09
645.54	79.58
645.69	70.22
645.83	44.47
645.98	140.43
646.13	60.85
646.27	9.36
646.42	51.49
646.57	44.47
646.71	18.72
646.86	37.45
647.00	56.17
647.15	0.00
647.30	37.45
647.44	21.06
647.59	88.94
647.74	25.75
647.88	25.75
648.03	4.68
648.17	65.54
648.32	0.00
648.47	51.49
648.61	0.00
648.76	23.41
648.90	0.00
649.05	65.54
649.20	58.51
649.34	53.83
649.49	0.00
649.63	58.51
649.78	0.00
649.92	37.45
650.07	117.03
650.21	35.11
650.36	0.00
650.51	0.00
650.65	102.98
650.80	117.03
650.94	53.83
651.09	42.13
651.23	70.22
651.38	58.51
651.52	30.43
651.67	18.72
651.81	0.00
651.96	70.22
652.10	95.96
652.25	14.04
652.39	23.41
652.54	77.24
652.68	4.68
652.83	58.51
652.97	74.90
653.12	72.56
653.26	110.01
653.41	14.04
653.55	60.85
653.70	30.43
653.84	53.83
653.99	0.00
654.13	0.00
654.27	72.56
654.42	14.04
654.56	0.00
654.71	30.43
654.85	74.90
655.00	23.41
655.14	65.54
655.29	0.00
655.43	46.81
655.57	35.11
655.72	112.35
655.86	23.41
656.01	23.41
656.15	56.17
656.30	18.72
656.44	67.88
656.58	0.00
656.73	56.17
656.87	84.26
657.01	77.24
657.16	28.09
657.30	58.51
657.45	51.49
657.59	35.11
657.73	18.72
657.88	53.83
658.02	56.17
658.16	37.45
658.31	0.00
658.45	98.30
658.60	28.09
658.74	0.00
658.88	4.68
659.03	0.00
659.17	0.00
659.31	91.28
659.46	72.56
659.60	16.38
659.74	0.00
659.89	72.56
660.03	102.98
660.17	25.75
660.32	49.15
660.46	91.28
660.60	79.58
660.74	23.41
660.89	14.04
661.03	18.72
661.17	0.00
661.32	9.36
661.46	65.54
661.60	74.90
661.74	88.94
661.89	18.72
662.03	30.43
662.17	21.06
662.31	56.17
662.46	44.47
662.60	37.45
662.74	4.68
662.88	0.00
663.03	0.00
663.17	11.70
663.31	110.01
663.45	28.09
663.60	67.88
663.74	16.38
663.88	35.11
664.02	98.30
664.17	0.00
664.31	84.26
664.45	18.72
664.59	0.00
664.73	16.38
664.88	25.75
665.02	4.68
665.16	79.58
665.30	79.58
665.44	0.00
665.59	2.34
665.73	14.04
665.87	21.06
666.01	65.54
666.15	21.06
666.29	0.00
666.44	37.45
666.58	56.17
666.72	11.70
666.86	58.51
667.00	18.72
667.14	30.43
667.28	30.43
667.43	21.06
667.57	18.72
667.71	30.43
667.85	63.19
667.99	46.81
668.13	102.98
668.27	100.64
668.41	35.11
668.56	42.13
668.70	53.83
668.84	93.62
668.98	18.72
669.12	63.19
669.26	0.00
669.40	44.47
669.54	98.30
669.68	63.19
669.82	0.00
669.96	0.00
670.10	44.47
670.25	0.00
670.39	70.22
670.53	21.06
670.67	0.00
670.81	0.00
670.95	35.11
671.09	0.00
671.23	0.00
671.37	30.43
671.51	0.00
671.65	0.00
671.79	67.88
671.93	23.41
672.07	7.02
672.21	23.41
672.35	56.17
672.49	14.04
672.63	42.13
672.77	44.47
672.91	0.00
673.05	32.77
673.19	21.06
673.33	63.19
673.47	35.11
673.61	51.49
673.75	0.00
673.89	67.88
674.03	37.45
674.17	79.58
674.31	35.11
674.45	14.04
674.59	60.85
674.73	53.83
674.87	49.15
675.01	58.51
675.15	35.11
675.29	0.00
675.43	0.00
675.56	35.11
675.70	16.38
675.84	70.22
675.98	95.96
676.12	14.04
676.26	0.00
676.40	23.41
676.54	0.00
676.68	100.64
676.82	63.19
676.96	65.54
677.10	42.13
677.23	25.75
677.37	44.47
677.51	28.09
677.65	51.49
677.79	21.06
677.93	2.34
678.07	9.36
678.21	0.00
678.34	0.00
678.48	25.75
678.62	70.22
678.76	84.26
678.90	81.92
679.04	72.56
679.18	0.00
679.31	18.72
679.45	21.06
679.59	51.49
679.73	70.22
679.87	81.92
680.00	0.00
680.14	84.26
680.28	49.15
680.42	107.66
680.56	44.47
680.70	58.51
680.83	72.56
680.97	100.64
681.11	18.72
681.25	0.00
681.39	16.38
681.52	70.22
681.66	37.45
681.80	46.81
681.94	14.04
682.07	44.47
682.21	0.00
682.35	0.00
682.49	0.00
682.62	51.49
682.76	46.81
682.90	2.34
683.04	11.70
683.17	23.41
683.31	23.41
683.45	49.15
683.59	35.11
683.72	91.28
683.86	0.00
684.00	0.00
684.13	25.75
684.27	44.47
684.41	81.92
684.55	0.00
684.68	32.77
684.82	91.28
684.96	84.26
685.09	56.17
685.23	23.41
685.37	0.00
685.50	102.98
685.64	51.49
685.78	0.00
685.91	0.00
686.05	0.00
686.19	0.00
686.32	56.17
686.46	56.17
686.60	9.36
686.73	37.45
686.87	4.68
687.01	42.13
687.14	58.51
687.28	0.00
687.42	102.98
687.55	0.00
687.69	28.09
687.82	60.85
687.96	86.60
688.10	14.04
688.23	100.64
688.37	42.13
688.50	4.68
688.64	161.50
688.78	9.36
688.91	39.79
689.05	77.24
689.18	30.43
689.32	23.41
689.46	21.06
689.59	32.77
689.73	60.85
689.86	37.45
690.00	39.79
690.13	56.17
690.27	18.72
690.41	16.38
690.54	9.36
690.68	88.94
690.81	0.00
690.95	14.04
691.08	7.02
691.22	7.02
691.35	56.17
691.49	53.83
691.62	46.81
691.76	51.49
691.89	39.79
692.03	0.00
692.16	86.60
692.30	0.00
692.43	67.88
692.57	39.79
692.70	51.49
692.84	18.72
692.97	37.45
693.11	32.77
693.24	7.02
693.38	0.00
693.51	32.77
693.65	65.54
693.78	53.83
693.92	58.51
694.05	74.90
694.19	14.04
694.32	67.88
694.45	0.00
694.59	30.43
694.72	107.66
694.86	11.70
694.99	35.11
695.13	0.00
695.26	7.02
695.39	0.00
695.53	2.34
695.66	79.58
695.80	0.00
695.93	0.00
696.07	0.00
696.20	74.90
696.33	25.75
696.47	67.88
696.60	91.28
696.73	46.81
696.87	0.00
697.00	4.68
697.14	0.00
697.27	81.92
697.40	65.54
697.54	28.09
697.67	25.75
697.80	16.38
697.94	39.79
698.07	56.17
698.21	91.28
698.34	51.49
698.47	95.96
698.61	42.13
698.74	0.00
698.87	0.00
699.01	39.79
699.14	35.11
699.27	0.00
699.40	74.90
699.54	11.70
699.67	28.09
699.80	39.79
699.94	56.17
700.07	9.36
700.20	0.00
700.34	0.00
700.47	28.09
700.60	67.88
700.73	0.00
700.87	0.00
701.00	2.34
701.13	9.36
701.26	23.41
701.40	105.32
701.53	46.81
701.66	58.51
701.79	63.19
701.93	39.79
702.06	86.60
702.19	49.15
702.32	67.88
702.46	67.88
702.59	105.32
702.72	46.81
702.85	0.00
702.99	42.13
703.12	39.79
703.25	0.00
703.38	93.62
703.51	0.00
703.65	0.00
703.78	0.00
703.91	0.00
704.04	0.00
704.17	0.00
704.31	35.11
704.44	37.45
704.57	46.81
704.70	0.00
704.83	11.70
704.96	25.75
705.10	105.32
705.23	72.56
>>>>>End Processed Spectral Data<<<<<
