SpectraSuite Data File
++++++++++++++++++++++++++++++++++++
Date: Fri Oct 04 12:13:44 GMT-05:00 2013
User: price-jones
Dark Spectrum Present: No
Reference Spectrum Present: No
Number of Sampled Component Spectra: 1
Spectrometers: USB2+H05261
Integration Time (usec): 10000 (USB2+H05261)
Spectra Averaged: 1 (USB2+H05261)
Boxcar Smoothing: 0 (USB2+H05261)
Correct for Electrical Dark: No (USB2+H05261)
Strobe/Lamp Enabled: No (USB2+H05261)
Correct for Detector Non-linearity: No (USB2+H05261)
Correct for Stray Light: No (USB2+H05261)
Number of Pixels in Processed Spectrum: 2048
>>>>>Begin Processed Spectral Data<<<<<
365.73	9.36
365.92	9.36
366.12	9.36
366.32	0.00
366.52	0.00
366.72	0.00
366.91	0.00
367.11	0.00
367.31	0.00
367.51	0.00
367.70	0.00
367.90	0.00
368.10	0.00
368.30	0.00
368.49	0.00
368.69	0.00
368.89	0.00
369.09	0.00
369.28	0.00
369.48	0.00
369.68	0.00
369.87	0.00
370.07	0.00
370.27	0.00
370.47	0.00
370.66	0.00
370.86	0.00
371.06	0.00
371.25	0.00
371.45	0.00
371.65	0.00
371.84	0.00
372.04	0.00
372.24	32.77
372.44	0.00
372.63	0.00
372.83	0.00
373.03	0.00
373.22	42.13
373.42	39.79
373.62	98.30
373.81	4.68
374.01	0.00
374.21	4.68
374.40	0.00
374.60	14.04
374.79	65.54
374.99	63.19
375.19	65.54
375.38	11.70
375.58	0.00
375.78	44.47
375.97	0.00
376.17	30.43
376.37	21.06
376.56	42.13
376.76	0.00
376.95	42.13
377.15	9.36
377.35	51.49
377.54	7.02
377.74	16.38
377.93	42.13
378.13	4.68
378.33	0.00
378.52	0.00
378.72	51.49
378.91	49.15
379.11	21.06
379.31	35.11
379.50	0.00
379.70	0.00
379.89	51.49
380.09	0.00
380.28	0.00
380.48	2.34
380.68	0.00
380.87	65.54
381.07	14.04
381.26	39.79
381.46	0.00
381.65	16.38
381.85	16.38
382.04	23.41
382.24	0.00
382.43	77.24
382.63	77.24
382.83	0.00
383.02	25.75
383.22	9.36
383.41	0.00
383.61	32.77
383.80	0.00
384.00	18.72
384.19	28.09
384.39	0.00
384.58	46.81
384.78	44.47
384.97	49.15
385.17	11.70
385.36	0.00
385.56	32.77
385.75	49.15
385.95	86.60
386.14	65.54
386.34	60.85
386.53	23.41
386.72	0.00
386.92	18.72
387.11	58.51
387.31	0.00
387.50	9.36
387.70	84.26
387.89	32.77
388.09	23.41
388.28	74.90
388.48	21.06
388.67	32.77
388.86	0.00
389.06	46.81
389.25	0.00
389.45	16.38
389.64	21.06
389.84	88.94
390.03	42.13
390.22	2.34
390.42	16.38
390.61	58.51
390.81	0.00
391.00	0.00
391.19	35.11
391.39	39.79
391.58	23.41
391.78	21.06
391.97	11.70
392.16	32.77
392.36	114.69
392.55	28.09
392.75	0.00
392.94	4.68
393.13	28.09
393.33	0.00
393.52	0.00
393.71	49.15
393.91	58.51
394.10	28.09
394.29	0.00
394.49	30.43
394.68	4.68
394.88	0.00
395.07	77.24
395.26	65.54
395.46	56.17
395.65	11.70
395.84	16.38
396.04	37.45
396.23	14.04
396.42	102.98
396.62	0.00
396.81	56.17
397.00	0.00
397.19	23.41
397.39	0.00
397.58	98.30
397.77	0.00
397.97	81.92
398.16	21.06
398.35	2.34
398.55	77.24
398.74	42.13
398.93	9.36
399.12	49.15
399.32	88.94
399.51	0.00
399.70	21.06
399.90	28.09
400.09	49.15
400.28	0.00
400.47	4.68
400.67	65.54
400.86	0.00
401.05	18.72
401.24	0.00
401.44	11.70
401.63	51.49
401.82	56.17
402.01	95.96
402.21	21.06
402.40	9.36
402.59	133.41
402.78	23.41
402.97	0.00
403.17	0.00
403.36	25.75
403.55	0.00
403.74	0.00
403.93	37.45
404.13	9.36
404.32	28.09
404.51	81.92
404.70	46.81
404.89	60.85
405.09	0.00
405.28	2.34
405.47	16.38
405.66	0.00
405.85	16.38
406.05	63.19
406.24	39.79
406.43	9.36
406.62	30.43
406.81	16.38
407.00	77.24
407.20	74.90
407.39	4.68
407.58	0.00
407.77	7.02
407.96	0.00
408.15	9.36
408.34	84.26
408.54	77.24
408.73	74.90
408.92	77.24
409.11	35.11
409.30	0.00
409.49	49.15
409.68	28.09
409.87	0.00
410.07	0.00
410.26	77.24
410.45	21.06
410.64	0.00
410.83	58.51
411.02	9.36
411.21	39.79
411.40	77.24
411.59	77.24
411.78	16.38
411.98	44.47
412.17	51.49
412.36	18.72
412.55	16.38
412.74	25.75
412.93	18.72
413.12	11.70
413.31	58.51
413.50	51.49
413.69	53.83
413.88	30.43
414.07	44.47
414.26	81.92
414.45	53.83
414.64	51.49
414.83	0.00
415.02	79.58
415.22	21.06
415.41	81.92
415.60	0.00
415.79	60.85
415.98	0.00
416.17	11.70
416.36	0.00
416.55	23.41
416.74	0.00
416.93	25.75
417.12	18.72
417.31	25.75
417.50	60.85
417.69	9.36
417.88	65.54
418.07	23.41
418.26	58.51
418.45	53.83
418.64	51.49
418.83	0.00
419.02	28.09
419.21	0.00
419.39	18.72
419.58	46.81
419.77	9.36
419.96	32.77
420.15	14.04
420.34	4.68
420.53	0.00
420.72	16.38
420.91	0.00
421.10	0.00
421.29	0.00
421.48	49.15
421.67	44.47
421.86	30.43
422.05	28.09
422.24	21.06
422.43	119.37
422.61	0.00
422.80	0.00
422.99	32.77
423.18	21.06
423.37	2.34
423.56	46.81
423.75	0.00
423.94	4.68
424.13	117.03
424.32	53.83
424.50	70.22
424.69	72.56
424.88	9.36
425.07	0.00
425.26	0.00
425.45	0.00
425.64	14.04
425.83	4.68
426.01	49.15
426.20	58.51
426.39	4.68
426.58	124.05
426.77	56.17
426.96	28.09
427.15	0.00
427.33	28.09
427.52	58.51
427.71	0.00
427.90	16.38
428.09	0.00
428.28	53.83
428.46	56.17
428.65	28.09
428.84	0.00
429.03	77.24
429.22	7.02
429.40	0.00
429.59	39.79
429.78	23.41
429.97	21.06
430.16	88.94
430.34	63.19
430.53	7.02
430.72	0.00
430.91	53.83
431.10	58.51
431.28	0.00
431.47	39.79
431.66	16.38
431.85	0.00
432.03	0.00
432.22	11.70
432.41	11.70
432.60	46.81
432.79	16.38
432.97	0.00
433.16	42.13
433.35	4.68
433.54	49.15
433.72	63.19
433.91	51.49
434.10	32.77
434.28	91.28
434.47	0.00
434.66	14.04
434.85	28.09
435.03	35.11
435.22	21.06
435.41	44.47
435.59	21.06
435.78	21.06
435.97	46.81
436.16	63.19
436.34	39.79
436.53	77.24
436.72	0.00
436.90	77.24
437.09	0.00
437.28	105.32
437.46	9.36
437.65	37.45
437.84	0.00
438.02	25.75
438.21	0.00
438.40	25.75
438.58	0.00
438.77	88.94
438.96	53.83
439.14	11.70
439.33	9.36
439.52	77.24
439.70	42.13
439.89	0.00
440.08	0.00
440.26	74.90
440.45	0.00
440.63	25.75
440.82	35.11
441.01	79.58
441.19	91.28
441.38	16.38
441.57	0.00
441.75	18.72
441.94	60.85
442.12	32.77
442.31	81.92
442.50	37.45
442.68	28.09
442.87	32.77
443.05	56.17
443.24	0.00
443.43	46.81
443.61	37.45
443.80	0.00
443.98	42.13
444.17	44.47
444.35	11.70
444.54	42.13
444.73	0.00
444.91	42.13
445.10	51.49
445.28	16.38
445.47	28.09
445.65	46.81
445.84	32.77
446.02	30.43
446.21	58.51
446.39	46.81
446.58	0.00
446.77	67.88
446.95	4.68
447.14	39.79
447.32	28.09
447.51	77.24
447.69	51.49
447.88	0.00
448.06	0.00
448.25	7.02
448.43	72.56
448.62	49.15
448.80	0.00
448.99	0.00
449.17	72.56
449.36	65.54
449.54	51.49
449.73	39.79
449.91	7.02
450.10	32.77
450.28	2.34
450.46	72.56
450.65	32.77
450.83	14.04
451.02	0.00
451.20	46.81
451.39	65.54
451.57	53.83
451.76	23.41
451.94	18.72
452.13	84.26
452.31	86.60
452.49	28.09
452.68	39.79
452.86	81.92
453.05	60.85
453.23	14.04
453.42	0.00
453.60	121.71
453.78	23.41
453.97	16.38
454.15	53.83
454.34	72.56
454.52	4.68
454.70	46.81
454.89	9.36
455.07	11.70
455.26	23.41
455.44	86.60
455.62	79.58
455.81	51.49
455.99	7.02
456.17	42.13
456.36	23.41
456.54	67.88
456.73	0.00
456.91	11.70
457.09	44.47
457.28	114.69
457.46	58.51
457.64	58.51
457.83	9.36
458.01	14.04
458.19	0.00
458.38	46.81
458.56	65.54
458.74	39.79
458.93	35.11
459.11	25.75
459.29	25.75
459.48	138.09
459.66	51.49
459.84	28.09
460.03	56.17
460.21	86.60
460.39	37.45
460.57	0.00
460.76	49.15
460.94	14.04
461.12	58.51
461.31	0.00
461.49	23.41
461.67	77.24
461.85	53.83
462.04	39.79
462.22	77.24
462.40	42.13
462.59	44.47
462.77	18.72
462.95	84.26
463.13	0.00
463.32	37.45
463.50	37.45
463.68	72.56
463.86	44.47
464.05	16.38
464.23	86.60
464.41	18.72
464.59	0.00
464.78	7.02
464.96	114.69
465.14	39.79
465.32	112.35
465.50	63.19
465.69	35.11
465.87	42.13
466.05	28.09
466.23	65.54
466.41	35.11
466.60	42.13
466.78	39.79
466.96	30.43
467.14	51.49
467.32	0.00
467.51	39.79
467.69	58.51
467.87	35.11
468.05	9.36
468.23	11.70
468.41	77.24
468.60	4.68
468.78	58.51
468.96	58.51
469.14	32.77
469.32	70.22
469.50	0.00
469.69	72.56
469.87	93.62
470.05	42.13
470.23	0.00
470.41	4.68
470.59	37.45
470.77	93.62
470.95	44.47
471.14	72.56
471.32	0.00
471.50	0.00
471.68	11.70
471.86	42.13
472.04	0.00
472.22	14.04
472.40	32.77
472.58	95.96
472.77	0.00
472.95	107.66
473.13	21.06
473.31	32.77
473.49	7.02
473.67	11.70
473.85	42.13
474.03	100.64
474.21	37.45
474.39	42.13
474.57	18.72
474.75	42.13
474.93	30.43
475.12	42.13
475.30	46.81
475.48	70.22
475.66	126.39
475.84	30.43
476.02	11.70
476.20	63.19
476.38	42.13
476.56	37.45
476.74	0.00
476.92	28.09
477.10	91.28
477.28	67.88
477.46	86.60
477.64	49.15
477.82	0.00
478.00	39.79
478.18	51.49
478.36	14.04
478.54	23.41
478.72	56.17
478.90	0.00
479.08	0.00
479.26	32.77
479.44	67.88
479.62	0.00
479.80	42.13
479.98	35.11
480.16	53.83
480.34	35.11
480.52	35.11
480.70	28.09
480.88	39.79
481.06	67.88
481.24	93.62
481.41	126.39
481.59	37.45
481.77	23.41
481.95	53.83
482.13	49.15
482.31	16.38
482.49	67.88
482.67	60.85
482.85	2.34
483.03	0.00
483.21	51.49
483.39	51.49
483.57	23.41
483.74	77.24
483.92	23.41
484.10	51.49
484.28	9.36
484.46	100.64
484.64	65.54
484.82	49.15
485.00	0.00
485.18	67.88
485.35	65.54
485.53	16.38
485.71	112.35
485.89	51.49
486.07	14.04
486.25	86.60
486.43	9.36
486.61	23.41
486.78	35.11
486.96	35.11
487.14	58.51
487.32	39.79
487.50	23.41
487.68	0.00
487.85	0.00
488.03	49.15
488.21	35.11
488.39	39.79
488.57	46.81
488.75	25.75
488.92	88.94
489.10	30.43
489.28	91.28
489.46	0.00
489.64	46.81
489.81	100.64
489.99	70.22
490.17	0.00
490.35	63.19
490.53	0.00
490.70	32.77
490.88	44.47
491.06	14.04
491.24	0.00
491.41	39.79
491.59	91.28
491.77	9.36
491.95	81.92
492.13	16.38
492.30	28.09
492.48	42.13
492.66	21.06
492.84	67.88
493.01	0.00
493.19	56.17
493.37	0.00
493.54	18.72
493.72	25.75
493.90	9.36
494.08	46.81
494.25	0.00
494.43	28.09
494.61	23.41
494.79	25.75
494.96	32.77
495.14	0.00
495.32	53.83
495.49	37.45
495.67	49.15
495.85	84.26
496.02	105.32
496.20	42.13
496.38	0.00
496.55	14.04
496.73	0.00
496.91	42.13
497.09	93.62
497.26	21.06
497.44	72.56
497.62	2.34
497.79	39.79
497.97	74.90
498.14	44.47
498.32	56.17
498.50	28.09
498.67	46.81
498.85	16.38
499.03	77.24
499.20	86.60
499.38	30.43
499.56	0.00
499.73	0.00
499.91	49.15
500.08	60.85
500.26	9.36
500.44	67.88
500.61	32.77
500.79	42.13
500.97	32.77
501.14	70.22
501.32	21.06
501.49	46.81
501.67	0.00
501.84	53.83
502.02	7.02
502.20	79.58
502.37	23.41
502.55	166.18
502.72	70.22
502.90	79.58
503.07	0.00
503.25	35.11
503.43	11.70
503.60	112.35
503.78	4.68
503.95	42.13
504.13	60.85
504.30	60.85
504.48	0.00
504.65	114.69
504.83	46.81
505.01	56.17
505.18	23.41
505.36	98.30
505.53	23.41
505.71	49.15
505.88	4.68
506.06	86.60
506.23	28.09
506.41	70.22
506.58	58.51
506.76	9.36
506.93	74.90
507.11	102.98
507.28	72.56
507.46	70.22
507.63	58.51
507.81	98.30
507.98	131.07
508.16	0.00
508.33	53.83
508.50	16.38
508.68	16.38
508.85	16.38
509.03	42.13
509.20	46.81
509.38	51.49
509.55	39.79
509.73	63.19
509.90	0.00
510.08	32.77
510.25	49.15
510.42	0.00
510.60	42.13
510.77	28.09
510.95	107.66
511.12	53.83
511.30	46.81
511.47	0.00
511.64	51.49
511.82	84.26
511.99	28.09
512.17	35.11
512.34	114.69
512.51	60.85
512.69	0.00
512.86	112.35
513.04	56.17
513.21	16.38
513.38	107.66
513.56	28.09
513.73	42.13
513.90	133.41
514.08	126.39
514.25	49.15
514.43	58.51
514.60	0.00
514.77	37.45
514.95	72.56
515.12	0.00
515.29	128.73
515.47	105.32
515.64	30.43
515.81	39.79
515.99	21.06
516.16	25.75
516.33	37.45
516.51	32.77
516.68	42.13
516.85	56.17
517.03	81.92
517.20	0.00
517.37	7.02
517.54	42.13
517.72	58.51
517.89	42.13
518.06	77.24
518.24	49.15
518.41	51.49
518.58	0.00
518.75	0.00
518.93	25.75
519.10	0.00
519.27	11.70
519.45	32.77
519.62	60.85
519.79	0.00
519.96	58.51
520.14	0.00
520.31	95.96
520.48	65.54
520.65	60.85
520.83	93.62
521.00	49.15
521.17	25.75
521.34	60.85
521.52	18.72
521.69	21.06
521.86	77.24
522.03	131.07
522.20	110.01
522.38	0.00
522.55	42.13
522.72	93.62
522.89	72.56
523.07	79.58
523.24	32.77
523.41	16.38
523.58	0.00
523.75	72.56
523.92	16.38
524.10	100.64
524.27	49.15
524.44	9.36
524.61	74.90
524.78	88.94
524.96	46.81
525.13	46.81
525.30	25.75
525.47	67.88
525.64	53.83
525.81	0.00
525.98	14.04
526.16	102.98
526.33	39.79
526.50	63.19
526.67	60.85
526.84	30.43
527.01	60.85
527.18	51.49
527.36	88.94
527.53	63.19
527.70	49.15
527.87	35.11
528.04	2.34
528.21	60.85
528.38	79.58
528.55	0.00
528.72	74.90
528.89	93.62
529.07	53.83
529.24	0.00
529.41	49.15
529.58	119.37
529.75	30.43
529.92	44.47
530.09	88.94
530.26	58.51
530.43	63.19
530.60	30.43
530.77	81.92
530.94	28.09
531.11	0.00
531.28	2.34
531.46	39.79
531.63	35.11
531.80	46.81
531.97	25.75
532.14	9.36
532.31	7.02
532.48	7.02
532.65	93.62
532.82	23.41
532.99	28.09
533.16	46.81
533.33	110.01
533.50	4.68
533.67	72.56
533.84	117.03
534.01	81.92
534.18	63.19
534.35	35.11
534.52	46.81
534.69	0.00
534.86	23.41
535.03	81.92
535.20	0.00
535.37	53.83
535.54	58.51
535.71	37.45
535.88	39.79
536.05	16.38
536.22	37.45
536.38	0.00
536.55	21.06
536.72	51.49
536.89	0.00
537.06	58.51
537.23	93.62
537.40	44.47
537.57	16.38
537.74	32.77
537.91	49.15
538.08	30.43
538.25	88.94
538.42	37.45
538.59	53.83
538.75	9.36
538.92	46.81
539.09	91.28
539.26	84.26
539.43	35.11
539.60	37.45
539.77	65.54
539.94	58.51
540.11	124.05
540.28	70.22
540.44	112.35
540.61	74.90
540.78	98.30
540.95	51.49
541.12	11.70
541.29	100.64
541.46	7.02
541.62	39.79
541.79	112.35
541.96	77.24
542.13	32.77
542.30	135.75
542.47	32.77
542.63	70.22
542.80	7.02
542.97	0.00
543.14	67.88
543.31	0.00
543.48	32.77
543.64	58.51
543.81	56.17
543.98	0.00
544.15	60.85
544.32	9.36
544.48	51.49
544.65	72.56
544.82	37.45
544.99	0.00
545.16	63.19
545.32	18.72
545.49	117.03
545.66	49.15
545.83	53.83
546.00	63.19
546.16	44.47
546.33	28.09
546.50	28.09
546.67	67.88
546.83	91.28
547.00	46.81
547.17	58.51
547.34	51.49
547.50	56.17
547.67	0.00
547.84	102.98
548.00	2.34
548.17	60.85
548.34	0.00
548.51	98.30
548.67	81.92
548.84	32.77
549.01	28.09
549.18	72.56
549.34	7.02
549.51	72.56
549.68	44.47
549.84	81.92
550.01	49.15
550.18	88.94
550.34	91.28
550.51	65.54
550.68	0.00
550.84	56.17
551.01	25.75
551.18	42.13
551.34	86.60
551.51	0.00
551.68	0.00
551.84	35.11
552.01	93.62
552.18	72.56
552.34	81.92
552.51	67.88
552.68	51.49
552.84	0.00
553.01	9.36
553.18	49.15
553.34	0.00
553.51	0.00
553.67	51.49
553.84	152.13
554.01	0.00
554.17	81.92
554.34	32.77
554.51	79.58
554.67	86.60
554.84	105.32
555.00	9.36
555.17	110.01
555.33	77.24
555.50	0.00
555.67	14.04
555.83	74.90
556.00	91.28
556.16	79.58
556.33	56.17
556.50	65.54
556.66	28.09
556.83	23.41
556.99	37.45
557.16	21.06
557.32	25.75
557.49	44.47
557.65	74.90
557.82	14.04
557.98	4.68
558.15	70.22
558.32	77.24
558.48	46.81
558.65	58.51
558.81	107.66
558.98	114.69
559.14	49.15
559.31	70.22
559.47	58.51
559.64	51.49
559.80	67.88
559.97	67.88
560.13	14.04
560.30	37.45
560.46	102.98
560.63	32.77
560.79	77.24
560.96	0.00
561.12	58.51
561.29	107.66
561.45	35.11
561.61	117.03
561.78	60.85
561.94	53.83
562.11	63.19
562.27	70.22
562.44	11.70
562.60	100.64
562.77	74.90
562.93	74.90
563.10	77.24
563.26	77.24
563.42	72.56
563.59	74.90
563.75	65.54
563.92	46.81
564.08	0.00
564.24	35.11
564.41	30.43
564.57	67.88
564.74	0.00
564.90	37.45
565.07	98.30
565.23	25.75
565.39	93.62
565.56	37.45
565.72	0.00
565.88	46.81
566.05	77.24
566.21	67.88
566.38	0.00
566.54	70.22
566.70	86.60
566.87	46.81
567.03	0.00
567.19	51.49
567.36	88.94
567.52	0.00
567.68	0.00
567.85	16.38
568.01	112.35
568.17	46.81
568.34	128.73
568.50	63.19
568.66	0.00
568.83	35.11
568.99	49.15
569.15	16.38
569.32	56.17
569.48	39.79
569.64	72.56
569.81	119.37
569.97	110.01
570.13	56.17
570.30	65.54
570.46	11.70
570.62	16.38
570.78	124.05
570.95	70.22
571.11	46.81
571.27	81.92
571.43	32.77
571.60	84.26
571.76	21.06
571.92	63.19
572.09	79.58
572.25	32.77
572.41	81.92
572.57	0.00
572.74	46.81
572.90	77.24
573.06	11.70
573.22	28.09
573.38	53.83
573.55	72.56
573.71	95.96
573.87	7.02
574.03	16.38
574.20	39.79
574.36	58.51
574.52	121.71
574.68	58.51
574.84	37.45
575.01	98.30
575.17	0.00
575.33	46.81
575.49	35.11
575.65	86.60
575.82	95.96
575.98	105.32
576.14	91.28
576.30	135.75
576.46	60.85
576.62	74.90
576.79	18.72
576.95	105.32
577.11	35.11
577.27	72.56
577.43	100.64
577.59	0.00
577.75	18.72
577.92	56.17
578.08	74.90
578.24	0.00
578.40	95.96
578.56	86.60
578.72	72.56
578.88	21.06
579.04	88.94
579.21	4.68
579.37	95.96
579.53	42.13
579.69	56.17
579.85	0.00
580.01	65.54
580.17	74.90
580.33	44.47
580.49	70.22
580.65	51.49
580.82	0.00
580.98	88.94
581.14	0.00
581.30	63.19
581.46	65.54
581.62	60.85
581.78	79.58
581.94	23.41
582.10	72.56
582.26	56.17
582.42	63.19
582.58	67.88
582.74	9.36
582.90	16.38
583.06	49.15
583.22	74.90
583.38	35.11
583.54	70.22
583.70	23.41
583.86	53.83
584.02	72.56
584.18	0.00
584.34	74.90
584.50	28.09
584.66	9.36
584.82	44.47
584.98	81.92
585.14	39.79
585.30	14.04
585.46	25.75
585.62	105.32
585.78	0.00
585.94	77.24
586.10	44.47
586.26	72.56
586.42	100.64
586.58	56.17
586.74	46.81
586.90	0.00
587.06	28.09
587.22	28.09
587.38	79.58
587.54	30.43
587.70	93.62
587.86	37.45
588.02	0.00
588.18	49.15
588.34	86.60
588.49	42.13
588.65	133.41
588.81	49.15
588.97	28.09
589.13	14.04
589.29	49.15
589.45	14.04
589.61	25.75
589.77	88.94
589.93	28.09
590.08	58.51
590.24	44.47
590.40	46.81
590.56	95.96
590.72	42.13
590.88	53.83
591.04	49.15
591.20	65.54
591.35	81.92
591.51	0.00
591.67	37.45
591.83	16.38
591.99	7.02
592.15	42.13
592.31	98.30
592.46	42.13
592.62	35.11
592.78	63.19
592.94	23.41
593.10	23.41
593.26	0.00
593.41	42.13
593.57	37.45
593.73	0.00
593.89	107.66
594.05	53.83
594.20	84.26
594.36	23.41
594.52	21.06
594.68	28.09
594.84	18.72
594.99	0.00
595.15	30.43
595.31	39.79
595.47	60.85
595.62	58.51
595.78	14.04
595.94	0.00
596.10	58.51
596.25	56.17
596.41	110.01
596.57	93.62
596.73	49.15
596.88	0.00
597.04	11.70
597.20	67.88
597.36	63.19
597.51	67.88
597.67	11.70
597.83	60.85
597.99	152.13
598.14	58.51
598.30	56.17
598.46	30.43
598.61	2.34
598.77	49.15
598.93	16.38
599.09	0.00
599.24	0.00
599.40	0.00
599.56	0.00
599.71	30.43
599.87	16.38
600.03	105.32
600.18	98.30
600.34	49.15
600.50	35.11
600.65	51.49
600.81	65.54
600.97	0.00
601.12	88.94
601.28	56.17
601.44	53.83
601.59	0.00
601.75	70.22
601.91	86.60
602.06	63.19
602.22	23.41
602.37	23.41
602.53	25.75
602.69	35.11
602.84	60.85
603.00	28.09
603.16	105.32
603.31	102.98
603.47	0.00
603.62	74.90
603.78	70.22
603.94	9.36
604.09	147.45
604.25	65.54
604.40	42.13
604.56	56.17
604.71	46.81
604.87	77.24
605.03	18.72
605.18	42.13
605.34	18.72
605.49	51.49
605.65	21.06
605.80	37.45
605.96	0.00
606.12	0.00
606.27	67.88
606.43	42.13
606.58	72.56
606.74	11.70
606.89	23.41
607.05	37.45
607.20	58.51
607.36	51.49
607.51	16.38
607.67	77.24
607.82	98.30
607.98	30.43
608.13	32.77
608.29	86.60
608.44	114.69
608.60	98.30
608.75	37.45
608.91	39.79
609.06	25.75
609.22	49.15
609.37	30.43
609.53	37.45
609.68	0.00
609.84	37.45
609.99	98.30
610.15	67.88
610.30	46.81
610.46	42.13
610.61	88.94
610.76	107.66
610.92	42.13
611.07	74.90
611.23	72.56
611.38	67.88
611.54	46.81
611.69	88.94
611.84	28.09
612.00	4.68
612.15	0.00
612.31	18.72
612.46	0.00
612.62	60.85
612.77	28.09
612.92	51.49
613.08	2.34
613.23	16.38
613.39	0.00
613.54	16.38
613.69	63.19
613.85	72.56
614.00	84.26
614.15	100.64
614.31	9.36
614.46	98.30
614.62	56.17
614.77	32.77
614.92	16.38
615.08	44.47
615.23	46.81
615.38	58.51
615.54	28.09
615.69	91.28
615.84	0.00
616.00	44.47
616.15	28.09
616.30	42.13
616.46	35.11
616.61	16.38
616.76	100.64
616.92	25.75
617.07	11.70
617.22	0.00
617.37	16.38
617.53	67.88
617.68	25.75
617.83	93.62
617.99	51.49
618.14	60.85
618.29	46.81
618.45	0.00
618.60	4.68
618.75	39.79
618.90	30.43
619.06	102.98
619.21	93.62
619.36	67.88
619.51	28.09
619.67	23.41
619.82	30.43
619.97	39.79
620.12	79.58
620.28	30.43
620.43	7.02
620.58	25.75
620.73	44.47
620.89	49.15
621.04	2.34
621.19	60.85
621.34	95.96
621.49	35.11
621.65	51.49
621.80	49.15
621.95	0.00
622.10	42.13
622.25	9.36
622.41	0.00
622.56	7.02
622.71	0.00
622.86	28.09
623.01	37.45
623.16	88.94
623.32	65.54
623.47	77.24
623.62	72.56
623.77	37.45
623.92	114.69
624.07	7.02
624.23	0.00
624.38	63.19
624.53	18.72
624.68	67.88
624.83	0.00
624.98	67.88
625.13	74.90
625.29	79.58
625.44	18.72
625.59	51.49
625.74	98.30
625.89	21.06
626.04	44.47
626.19	67.88
626.34	0.00
626.49	21.06
626.65	23.41
626.80	88.94
626.95	9.36
627.10	21.06
627.25	79.58
627.40	42.13
627.55	23.41
627.70	0.00
627.85	16.38
628.00	4.68
628.15	23.41
628.30	51.49
628.45	0.00
628.60	44.47
628.76	32.77
628.91	16.38
629.06	28.09
629.21	11.70
629.36	16.38
629.51	11.70
629.66	4.68
629.81	14.04
629.96	18.72
630.11	0.00
630.26	0.00
630.41	0.00
630.56	86.60
630.71	63.19
630.86	23.41
631.01	44.47
631.16	23.41
631.31	21.06
631.46	23.41
631.61	93.62
631.76	100.64
631.91	74.90
632.06	42.13
632.21	46.81
632.36	4.68
632.51	14.04
632.66	79.58
632.81	58.51
632.96	0.00
633.10	32.77
633.25	2.34
633.40	18.72
633.55	16.38
633.70	21.06
633.85	0.00
634.00	0.00
634.15	49.15
634.30	14.04
634.45	63.19
634.60	9.36
634.75	37.45
634.90	0.00
635.05	39.79
635.19	42.13
635.34	4.68
635.49	70.22
635.64	4.68
635.79	42.13
635.94	7.02
636.09	53.83
636.24	0.00
636.39	63.19
636.53	0.00
636.68	0.00
636.83	9.36
636.98	39.79
637.13	39.79
637.28	79.58
637.43	74.90
637.57	7.02
637.72	42.13
637.87	30.43
638.02	16.38
638.17	32.77
638.32	84.26
638.46	53.83
638.61	14.04
638.76	7.02
638.91	0.00
639.06	102.98
639.20	32.77
639.35	56.17
639.50	37.45
639.65	0.00
639.80	53.83
639.94	4.68
640.09	53.83
640.24	91.28
640.39	72.56
640.54	91.28
640.68	79.58
640.83	4.68
640.98	0.00
641.13	14.04
641.27	53.83
641.42	28.09
641.57	58.51
641.72	30.43
641.86	58.51
642.01	0.00
642.16	32.77
642.31	60.85
642.45	110.01
642.60	74.90
642.75	0.00
642.90	100.64
643.04	7.02
643.19	46.81
643.34	0.00
643.48	14.04
643.63	0.00
643.78	72.56
643.93	79.58
644.07	37.45
644.22	58.51
644.37	35.11
644.51	23.41
644.66	107.66
644.81	42.13
644.95	39.79
645.10	35.11
645.25	0.00
645.39	0.00
645.54	37.45
645.69	28.09
645.83	58.51
645.98	0.00
646.13	81.92
646.27	70.22
646.42	42.13
646.57	49.15
646.71	0.00
646.86	16.38
647.00	56.17
647.15	35.11
647.30	0.00
647.44	58.51
647.59	0.00
647.74	86.60
647.88	4.68
648.03	121.71
648.17	9.36
648.32	98.30
648.47	46.81
648.61	70.22
648.76	72.56
648.90	2.34
649.05	0.00
649.20	35.11
649.34	4.68
649.49	14.04
649.63	72.56
649.78	53.83
649.92	56.17
650.07	28.09
650.21	0.00
650.36	42.13
650.51	67.88
650.65	49.15
650.80	60.85
650.94	14.04
651.09	0.00
651.23	32.77
651.38	105.32
651.52	0.00
651.67	42.13
651.81	14.04
651.96	86.60
652.10	0.00
652.25	32.77
652.39	102.98
652.54	46.81
652.68	14.04
652.83	65.54
652.97	0.00
653.12	84.26
653.26	21.06
653.41	0.00
653.55	49.15
653.70	65.54
653.84	51.49
653.99	28.09
654.13	65.54
654.27	74.90
654.42	77.24
654.56	58.51
654.71	67.88
654.85	44.47
655.00	100.64
655.14	28.09
655.29	39.79
655.43	42.13
655.57	79.58
655.72	0.00
655.86	53.83
656.01	0.00
656.15	16.38
656.30	39.79
656.44	53.83
656.58	21.06
656.73	0.00
656.87	7.02
657.01	37.45
657.16	65.54
657.30	98.30
657.45	18.72
657.59	14.04
657.73	35.11
657.88	60.85
658.02	44.47
658.16	23.41
658.31	107.66
658.45	0.00
658.60	37.45
658.74	25.75
658.88	46.81
659.03	79.58
659.17	46.81
659.31	102.98
659.46	42.13
659.60	79.58
659.74	65.54
659.89	42.13
660.03	79.58
660.17	37.45
660.32	60.85
660.46	0.00
660.60	56.17
660.74	4.68
660.89	74.90
661.03	74.90
661.17	7.02
661.32	42.13
661.46	42.13
661.60	79.58
661.74	30.43
661.89	30.43
662.03	56.17
662.17	145.11
662.31	86.60
662.46	0.00
662.60	67.88
662.74	0.00
662.88	25.75
663.03	35.11
663.17	121.71
663.31	0.00
663.45	0.00
663.60	0.00
663.74	51.49
663.88	0.00
664.02	23.41
664.17	81.92
664.31	67.88
664.45	74.90
664.59	74.90
664.73	60.85
664.88	0.00
665.02	84.26
665.16	72.56
665.30	14.04
665.44	0.00
665.59	16.38
665.73	7.02
665.87	86.60
666.01	35.11
666.15	56.17
666.29	42.13
666.44	77.24
666.58	32.77
666.72	7.02
666.86	100.64
667.00	37.45
667.14	0.00
667.28	0.00
667.43	14.04
667.57	98.30
667.71	0.00
667.85	46.81
667.99	2.34
668.13	18.72
668.27	35.11
668.41	72.56
668.56	37.45
668.70	25.75
668.84	0.00
668.98	25.75
669.12	32.77
669.26	0.00
669.40	35.11
669.54	58.51
669.68	4.68
669.82	56.17
669.96	77.24
670.10	0.00
670.25	32.77
670.39	60.85
670.53	49.15
670.67	74.90
670.81	60.85
670.95	84.26
671.09	53.83
671.23	23.41
671.37	42.13
671.51	0.00
671.65	63.19
671.79	79.58
671.93	58.51
672.07	18.72
672.21	51.49
672.35	98.30
672.49	0.00
672.63	67.88
672.77	67.88
672.91	49.15
673.05	35.11
673.19	23.41
673.33	7.02
673.47	53.83
673.61	42.13
673.75	65.54
673.89	35.11
674.03	28.09
674.17	0.00
674.31	138.09
674.45	35.11
674.59	37.45
674.73	0.00
674.87	9.36
675.01	0.00
675.15	4.68
675.29	49.15
675.43	46.81
675.56	0.00
675.70	32.77
675.84	9.36
675.98	79.58
676.12	105.32
676.26	9.36
676.40	58.51
676.54	42.13
676.68	28.09
676.82	9.36
676.96	23.41
677.10	21.06
677.23	23.41
677.37	4.68
677.51	0.00
677.65	37.45
677.79	4.68
677.93	0.00
678.07	49.15
678.21	4.68
678.34	11.70
678.48	25.75
678.62	70.22
678.76	23.41
678.90	53.83
679.04	0.00
679.18	4.68
679.31	86.60
679.45	110.01
679.59	63.19
679.73	72.56
679.87	49.15
680.00	37.45
680.14	28.09
680.28	0.00
680.42	114.69
680.56	42.13
680.70	105.32
680.83	95.96
680.97	16.38
681.11	0.00
681.25	0.00
681.39	9.36
681.52	0.00
681.66	28.09
681.80	63.19
681.94	56.17
682.07	23.41
682.21	119.37
682.35	51.49
682.49	93.62
682.62	0.00
682.76	4.68
682.90	65.54
683.04	14.04
683.17	0.00
683.31	49.15
683.45	42.13
683.59	30.43
683.72	105.32
683.86	79.58
684.00	0.00
684.13	49.15
684.27	121.71
684.41	2.34
684.55	35.11
684.68	0.00
684.82	53.83
684.96	35.11
685.09	7.02
685.23	0.00
685.37	39.79
685.50	0.00
685.64	60.85
685.78	11.70
685.91	25.75
686.05	0.00
686.19	25.75
686.32	23.41
686.46	35.11
686.60	18.72
686.73	35.11
686.87	49.15
687.01	46.81
687.14	32.77
687.28	0.00
687.42	79.58
687.55	46.81
687.69	42.13
687.82	126.39
687.96	7.02
688.10	9.36
688.23	16.38
688.37	42.13
688.50	35.11
688.64	14.04
688.78	77.24
688.91	67.88
689.05	0.00
689.18	46.81
689.32	18.72
689.46	0.00
689.59	32.77
689.73	110.01
689.86	23.41
690.00	60.85
690.13	49.15
690.27	32.77
690.41	67.88
690.54	25.75
690.68	0.00
690.81	0.00
690.95	28.09
691.08	77.24
691.22	0.00
691.35	23.41
691.49	65.54
691.62	60.85
691.76	81.92
691.89	2.34
692.03	18.72
692.16	93.62
692.30	39.79
692.43	128.73
692.57	23.41
692.70	0.00
692.84	11.70
692.97	23.41
693.11	30.43
693.24	16.38
693.38	84.26
693.51	23.41
693.65	0.00
693.78	0.00
693.92	11.70
694.05	0.00
694.19	28.09
694.32	37.45
694.45	84.26
694.59	0.00
694.72	46.81
694.86	35.11
694.99	60.85
695.13	0.00
695.26	14.04
695.39	98.30
695.53	21.06
695.66	28.09
695.80	0.00
695.93	0.00
696.07	49.15
696.20	81.92
696.33	0.00
696.47	14.04
696.60	28.09
696.73	51.49
696.87	53.83
697.00	39.79
697.14	42.13
697.27	51.49
697.40	28.09
697.54	0.00
697.67	0.00
697.80	37.45
697.94	79.58
698.07	44.47
698.21	2.34
698.34	74.90
698.47	37.45
698.61	0.00
698.74	16.38
698.87	0.00
699.01	44.47
699.14	16.38
699.27	7.02
699.40	44.47
699.54	39.79
699.67	37.45
699.80	11.70
699.94	25.75
700.07	39.79
700.20	0.00
700.34	107.66
700.47	4.68
700.60	28.09
700.73	0.00
700.87	58.51
701.00	0.00
701.13	95.96
701.26	67.88
701.40	0.00
701.53	9.36
701.66	65.54
701.79	0.00
701.93	28.09
702.06	42.13
702.19	49.15
702.32	98.30
702.46	0.00
702.59	100.64
702.72	0.00
702.85	23.41
702.99	9.36
703.12	25.75
703.25	9.36
703.38	37.45
703.51	0.00
703.65	4.68
703.78	0.00
703.91	44.47
704.04	0.00
704.17	18.72
704.31	0.00
704.44	25.75
704.57	37.45
704.70	30.43
704.83	70.22
704.96	107.66
705.10	53.83
705.23	81.92
>>>>>End Processed Spectral Data<<<<<
