SpectraSuite Data File
++++++++++++++++++++++++++++++++++++
Date: Fri Oct 04 12:13:41 GMT-05:00 2013
User: price-jones
Dark Spectrum Present: No
Reference Spectrum Present: No
Number of Sampled Component Spectra: 1
Spectrometers: USB2+H05261
Integration Time (usec): 10000 (USB2+H05261)
Spectra Averaged: 1 (USB2+H05261)
Boxcar Smoothing: 0 (USB2+H05261)
Correct for Electrical Dark: No (USB2+H05261)
Strobe/Lamp Enabled: No (USB2+H05261)
Correct for Detector Non-linearity: No (USB2+H05261)
Correct for Stray Light: No (USB2+H05261)
Number of Pixels in Processed Spectrum: 2048
>>>>>Begin Processed Spectral Data<<<<<
365.73	49.15
365.92	49.15
366.12	49.15
366.32	0.00
366.52	0.00
366.72	0.00
366.91	0.00
367.11	0.00
367.31	0.00
367.51	0.00
367.70	0.00
367.90	0.00
368.10	0.00
368.30	0.00
368.49	0.00
368.69	0.00
368.89	0.00
369.09	0.00
369.28	0.00
369.48	0.00
369.68	0.00
369.87	0.00
370.07	0.00
370.27	0.00
370.47	0.00
370.66	0.00
370.86	0.00
371.06	0.00
371.25	0.00
371.45	0.00
371.65	0.00
371.84	0.00
372.04	32.77
372.24	0.00
372.44	28.09
372.63	0.00
372.83	39.79
373.03	0.00
373.22	37.45
373.42	49.15
373.62	49.15
373.81	42.13
374.01	23.41
374.21	0.00
374.40	79.58
374.60	4.68
374.79	0.00
374.99	46.81
375.19	44.47
375.38	110.01
375.58	0.00
375.78	32.77
375.97	28.09
376.17	11.70
376.37	46.81
376.56	49.15
376.76	28.09
376.95	2.34
377.15	49.15
377.35	72.56
377.54	88.94
377.74	67.88
377.93	42.13
378.13	53.83
378.33	46.81
378.52	21.06
378.72	70.22
378.91	0.00
379.11	67.88
379.31	100.64
379.50	35.11
379.70	25.75
379.89	28.09
380.09	44.47
380.28	49.15
380.48	42.13
380.68	25.75
380.87	51.49
381.07	74.90
381.26	0.00
381.46	0.00
381.65	60.85
381.85	16.38
382.04	21.06
382.24	0.00
382.43	0.00
382.63	35.11
382.83	7.02
383.02	51.49
383.22	105.32
383.41	0.00
383.61	0.00
383.80	14.04
384.00	51.49
384.19	81.92
384.39	0.00
384.58	0.00
384.78	0.00
384.97	4.68
385.17	7.02
385.36	44.47
385.56	28.09
385.75	4.68
385.95	21.06
386.14	86.60
386.34	51.49
386.53	51.49
386.72	105.32
386.92	39.79
387.11	37.45
387.31	44.47
387.50	124.05
387.70	37.45
387.89	25.75
388.09	49.15
388.28	46.81
388.48	32.77
388.67	0.00
388.86	9.36
389.06	0.00
389.25	0.00
389.45	0.00
389.64	0.00
389.84	23.41
390.03	0.00
390.22	53.83
390.42	102.98
390.61	60.85
390.81	16.38
391.00	49.15
391.19	30.43
391.39	42.13
391.58	39.79
391.78	42.13
391.97	0.00
392.16	46.81
392.36	28.09
392.55	0.00
392.75	32.77
392.94	30.43
393.13	60.85
393.33	0.00
393.52	2.34
393.71	25.75
393.91	51.49
394.10	7.02
394.29	60.85
394.49	4.68
394.68	28.09
394.88	0.00
395.07	0.00
395.26	112.35
395.46	63.19
395.65	28.09
395.84	30.43
396.04	56.17
396.23	16.38
396.42	11.70
396.62	0.00
396.81	60.85
397.00	74.90
397.19	0.00
397.39	0.00
397.58	86.60
397.77	56.17
397.97	30.43
398.16	56.17
398.35	2.34
398.55	72.56
398.74	16.38
398.93	91.28
399.12	2.34
399.32	88.94
399.51	58.51
399.70	0.00
399.90	70.22
400.09	72.56
400.28	98.30
400.47	70.22
400.67	112.35
400.86	21.06
401.05	65.54
401.24	67.88
401.44	0.00
401.63	0.00
401.82	21.06
402.01	93.62
402.21	16.38
402.40	51.49
402.59	4.68
402.78	21.06
402.97	0.00
403.17	70.22
403.36	37.45
403.55	81.92
403.74	133.41
403.93	102.98
404.13	9.36
404.32	23.41
404.51	25.75
404.70	9.36
404.89	0.00
405.09	16.38
405.28	35.11
405.47	23.41
405.66	56.17
405.85	0.00
406.05	32.77
406.24	65.54
406.43	37.45
406.62	51.49
406.81	102.98
407.00	14.04
407.20	63.19
407.39	28.09
407.58	70.22
407.77	67.88
407.96	16.38
408.15	25.75
408.34	32.77
408.54	25.75
408.73	79.58
408.92	88.94
409.11	58.51
409.30	67.88
409.49	14.04
409.68	21.06
409.87	37.45
410.07	58.51
410.26	11.70
410.45	95.96
410.64	30.43
410.83	77.24
411.02	58.51
411.21	42.13
411.40	53.83
411.59	63.19
411.78	42.13
411.98	0.00
412.17	0.00
412.36	21.06
412.55	0.00
412.74	65.54
412.93	11.70
413.12	4.68
413.31	42.13
413.50	7.02
413.69	32.77
413.88	46.81
414.07	7.02
414.26	74.90
414.45	23.41
414.64	60.85
414.83	2.34
415.02	9.36
415.22	7.02
415.41	4.68
415.60	14.04
415.79	9.36
415.98	21.06
416.17	44.47
416.36	0.00
416.55	25.75
416.74	9.36
416.93	63.19
417.12	0.00
417.31	105.32
417.50	37.45
417.69	14.04
417.88	32.77
418.07	56.17
418.26	21.06
418.45	72.56
418.64	77.24
418.83	46.81
419.02	9.36
419.21	39.79
419.39	0.00
419.58	32.77
419.77	74.90
419.96	28.09
420.15	100.64
420.34	58.51
420.53	0.00
420.72	88.94
420.91	0.00
421.10	28.09
421.29	44.47
421.48	0.00
421.67	58.51
421.86	23.41
422.05	2.34
422.24	124.05
422.43	72.56
422.61	56.17
422.80	0.00
422.99	88.94
423.18	0.00
423.37	56.17
423.56	37.45
423.75	21.06
423.94	42.13
424.13	46.81
424.32	65.54
424.50	56.17
424.69	81.92
424.88	0.00
425.07	44.47
425.26	0.00
425.45	119.37
425.64	37.45
425.83	30.43
426.01	46.81
426.20	0.00
426.39	0.00
426.58	49.15
426.77	0.00
426.96	67.88
427.15	28.09
427.33	0.00
427.52	25.75
427.71	28.09
427.90	70.22
428.09	100.64
428.28	21.06
428.46	152.13
428.65	46.81
428.84	56.17
429.03	32.77
429.22	9.36
429.40	21.06
429.59	35.11
429.78	0.00
429.97	37.45
430.16	28.09
430.34	58.51
430.53	79.58
430.72	11.70
430.91	25.75
431.10	53.83
431.28	46.81
431.47	56.17
431.66	105.32
431.85	72.56
432.03	107.66
432.22	49.15
432.41	121.71
432.60	18.72
432.79	0.00
432.97	32.77
433.16	0.00
433.35	0.00
433.54	53.83
433.72	32.77
433.91	49.15
434.10	16.38
434.28	49.15
434.47	51.49
434.66	39.79
434.85	11.70
435.03	18.72
435.22	88.94
435.41	53.83
435.59	37.45
435.78	0.00
435.97	42.13
436.16	65.54
436.34	63.19
436.53	28.09
436.72	21.06
436.90	65.54
437.09	58.51
437.28	51.49
437.46	72.56
437.65	28.09
437.84	9.36
438.02	25.75
438.21	105.32
438.40	0.00
438.58	0.00
438.77	93.62
438.96	37.45
439.14	7.02
439.33	67.88
439.52	100.64
439.70	49.15
439.89	28.09
440.08	98.30
440.26	117.03
440.45	23.41
440.63	35.11
440.82	44.47
441.01	11.70
441.19	16.38
441.38	79.58
441.57	72.56
441.75	53.83
441.94	28.09
442.12	60.85
442.31	74.90
442.50	0.00
442.68	23.41
442.87	0.00
443.05	93.62
443.24	63.19
443.43	42.13
443.61	93.62
443.80	37.45
443.98	51.49
444.17	74.90
444.35	102.98
444.54	72.56
444.73	145.11
444.91	30.43
445.10	81.92
445.28	105.32
445.47	16.38
445.65	107.66
445.84	63.19
446.02	49.15
446.21	39.79
446.39	37.45
446.58	86.60
446.77	37.45
446.95	60.85
447.14	11.70
447.32	102.98
447.51	37.45
447.69	30.43
447.88	91.28
448.06	0.00
448.25	74.90
448.43	23.41
448.62	79.58
448.80	0.00
448.99	70.22
449.17	7.02
449.36	28.09
449.54	60.85
449.73	53.83
449.91	46.81
450.10	0.00
450.28	35.11
450.46	145.11
450.65	0.00
450.83	53.83
451.02	14.04
451.20	14.04
451.39	7.02
451.57	93.62
451.76	74.90
451.94	60.85
452.13	70.22
452.31	51.49
452.49	79.58
452.68	79.58
452.86	14.04
453.05	135.75
453.23	25.75
453.42	46.81
453.60	65.54
453.78	16.38
453.97	46.81
454.15	77.24
454.34	35.11
454.52	16.38
454.70	11.70
454.89	0.00
455.07	91.28
455.26	4.68
455.44	67.88
455.62	72.56
455.81	72.56
455.99	63.19
456.17	65.54
456.36	114.69
456.54	35.11
456.73	39.79
456.91	98.30
457.09	14.04
457.28	9.36
457.46	58.51
457.64	112.35
457.83	77.24
458.01	105.32
458.19	37.45
458.38	67.88
458.56	39.79
458.74	32.77
458.93	56.17
459.11	39.79
459.29	0.00
459.48	30.43
459.66	42.13
459.84	56.17
460.03	112.35
460.21	159.16
460.39	79.58
460.57	49.15
460.76	91.28
460.94	105.32
461.12	35.11
461.31	77.24
461.49	0.00
461.67	112.35
461.85	0.00
462.04	0.00
462.22	46.81
462.40	84.26
462.59	30.43
462.77	56.17
462.95	56.17
463.13	91.28
463.32	102.98
463.50	11.70
463.68	110.01
463.86	35.11
464.05	11.70
464.23	93.62
464.41	42.13
464.59	39.79
464.78	56.17
464.96	49.15
465.14	105.32
465.32	86.60
465.50	60.85
465.69	88.94
465.87	86.60
466.05	117.03
466.23	105.32
466.41	51.49
466.60	42.13
466.78	60.85
466.96	56.17
467.14	86.60
467.32	112.35
467.51	100.64
467.69	88.94
467.87	42.13
468.05	0.00
468.23	163.84
468.41	51.49
468.60	0.00
468.78	72.56
468.96	0.00
469.14	49.15
469.32	25.75
469.50	23.41
469.69	72.56
469.87	37.45
470.05	81.92
470.23	98.30
470.41	0.00
470.59	25.75
470.77	58.51
470.95	79.58
471.14	138.09
471.32	60.85
471.50	44.47
471.68	44.47
471.86	63.19
472.04	100.64
472.22	14.04
472.40	28.09
472.58	0.00
472.77	77.24
472.95	117.03
473.13	53.83
473.31	56.17
473.49	0.00
473.67	58.51
473.85	91.28
474.03	79.58
474.21	74.90
474.39	42.13
474.57	39.79
474.75	95.96
474.93	56.17
475.12	86.60
475.30	60.85
475.48	117.03
475.66	35.11
475.84	9.36
476.02	35.11
476.20	79.58
476.38	98.30
476.56	37.45
476.74	77.24
476.92	84.26
477.10	86.60
477.28	51.49
477.46	145.11
477.64	25.75
477.82	70.22
478.00	0.00
478.18	28.09
478.36	18.72
478.54	70.22
478.72	70.22
478.90	81.92
479.08	42.13
479.26	102.98
479.44	7.02
479.62	30.43
479.80	42.13
479.98	107.66
480.16	4.68
480.34	25.75
480.52	67.88
480.70	60.85
480.88	77.24
481.06	63.19
481.24	67.88
481.41	14.04
481.59	32.77
481.77	35.11
481.95	49.15
482.13	88.94
482.31	107.66
482.49	49.15
482.67	84.26
482.85	79.58
483.03	72.56
483.21	70.22
483.39	102.98
483.57	105.32
483.74	88.94
483.92	25.75
484.10	53.83
484.28	70.22
484.46	51.49
484.64	46.81
484.82	0.00
485.00	58.51
485.18	67.88
485.35	100.64
485.53	93.62
485.71	100.64
485.89	81.92
486.07	67.88
486.25	107.66
486.43	74.90
486.61	65.54
486.78	88.94
486.96	95.96
487.14	56.17
487.32	28.09
487.50	128.73
487.68	65.54
487.85	28.09
488.03	70.22
488.21	124.05
488.39	0.00
488.57	84.26
488.75	105.32
488.92	149.79
489.10	77.24
489.28	95.96
489.46	46.81
489.64	46.81
489.81	126.39
489.99	74.90
490.17	42.13
490.35	124.05
490.53	14.04
490.70	81.92
490.88	28.09
491.06	49.15
491.24	93.62
491.41	18.72
491.59	98.30
491.77	114.69
491.95	28.09
492.13	0.00
492.30	93.62
492.48	88.94
492.66	100.64
492.84	46.81
493.01	60.85
493.19	77.24
493.37	98.30
493.54	88.94
493.72	88.94
493.90	84.26
494.08	88.94
494.25	124.05
494.43	86.60
494.61	11.70
494.79	0.00
494.96	35.11
495.14	7.02
495.32	135.75
495.49	91.28
495.67	23.41
495.85	11.70
496.02	117.03
496.20	58.51
496.38	93.62
496.55	102.98
496.73	124.05
496.91	91.28
497.09	119.37
497.26	72.56
497.44	46.81
497.62	11.70
497.79	93.62
497.97	60.85
498.14	72.56
498.32	25.75
498.50	51.49
498.67	95.96
498.85	88.94
499.03	86.60
499.20	65.54
499.38	142.77
499.56	46.81
499.73	102.98
499.91	77.24
500.08	65.54
500.26	70.22
500.44	107.66
500.61	84.26
500.79	95.96
500.97	93.62
501.14	156.82
501.32	102.98
501.49	63.19
501.67	37.45
501.84	124.05
502.02	112.35
502.20	84.26
502.37	91.28
502.55	0.00
502.72	86.60
502.90	84.26
503.07	98.30
503.25	42.13
503.43	126.39
503.60	42.13
503.78	60.85
503.95	46.81
504.13	93.62
504.30	84.26
504.48	121.71
504.65	53.83
504.83	72.56
505.01	86.60
505.18	46.81
505.36	65.54
505.53	25.75
505.71	147.45
505.88	102.98
506.06	79.58
506.23	35.11
506.41	30.43
506.58	77.24
506.76	46.81
506.93	91.28
507.11	159.16
507.28	60.85
507.46	91.28
507.63	56.17
507.81	58.51
507.98	25.75
508.16	58.51
508.33	98.30
508.50	112.35
508.68	44.47
508.85	91.28
509.03	23.41
509.20	81.92
509.38	70.22
509.55	84.26
509.73	128.73
509.90	105.32
510.08	51.49
510.25	84.26
510.42	126.39
510.60	138.09
510.77	93.62
510.95	65.54
511.12	74.90
511.30	74.90
511.47	126.39
511.64	161.50
511.82	124.05
511.99	70.22
512.17	74.90
512.34	51.49
512.51	88.94
512.69	112.35
512.86	72.56
513.04	72.56
513.21	91.28
513.38	84.26
513.56	70.22
513.73	98.30
513.90	53.83
514.08	67.88
514.25	84.26
514.43	51.49
514.60	105.32
514.77	23.41
514.95	32.77
515.12	102.98
515.29	107.66
515.47	42.13
515.64	98.30
515.81	110.01
515.99	51.49
516.16	67.88
516.33	11.70
516.51	46.81
516.68	100.64
516.85	93.62
517.03	72.56
517.20	112.35
517.37	135.75
517.54	74.90
517.72	14.04
517.89	60.85
518.06	37.45
518.24	93.62
518.41	102.98
518.58	14.04
518.75	79.58
518.93	79.58
519.10	121.71
519.27	67.88
519.45	70.22
519.62	102.98
519.79	72.56
519.96	102.98
520.14	121.71
520.31	72.56
520.48	168.52
520.65	91.28
520.83	65.54
521.00	56.17
521.17	86.60
521.34	88.94
521.52	65.54
521.69	67.88
521.86	142.77
522.03	58.51
522.20	53.83
522.38	70.22
522.55	86.60
522.72	35.11
522.89	86.60
523.07	177.88
523.24	133.41
523.41	46.81
523.58	124.05
523.75	72.56
523.92	102.98
524.10	46.81
524.27	35.11
524.44	58.51
524.61	84.26
524.78	81.92
524.96	70.22
525.13	98.30
525.30	95.96
525.47	95.96
525.64	65.54
525.81	205.97
525.98	84.26
526.16	70.22
526.33	91.28
526.50	95.96
526.67	100.64
526.84	74.90
527.01	110.01
527.18	77.24
527.36	117.03
527.53	51.49
527.70	107.66
527.87	37.45
528.04	126.39
528.21	35.11
528.38	39.79
528.55	67.88
528.72	81.92
528.89	98.30
529.07	107.66
529.24	23.41
529.41	70.22
529.58	105.32
529.75	119.37
529.92	56.17
530.09	32.77
530.26	107.66
530.43	110.01
530.60	42.13
530.77	138.09
530.94	72.56
531.11	0.00
531.28	37.45
531.46	135.75
531.63	88.94
531.80	140.43
531.97	84.26
532.14	51.49
532.31	51.49
532.48	0.00
532.65	65.54
532.82	53.83
532.99	28.09
533.16	23.41
533.33	35.11
533.50	126.39
533.67	84.26
533.84	84.26
534.01	86.60
534.18	114.69
534.35	84.26
534.52	28.09
534.69	88.94
534.86	126.39
535.03	110.01
535.20	117.03
535.37	149.79
535.54	53.83
535.71	105.32
535.88	79.58
536.05	128.73
536.22	51.49
536.38	56.17
536.55	51.49
536.72	95.96
536.89	7.02
537.06	44.47
537.23	51.49
537.40	138.09
537.57	86.60
537.74	25.75
537.91	93.62
538.08	110.01
538.25	35.11
538.42	102.98
538.59	145.11
538.75	117.03
538.92	74.90
539.09	135.75
539.26	74.90
539.43	117.03
539.60	79.58
539.77	93.62
539.94	60.85
540.11	42.13
540.28	91.28
540.44	39.79
540.61	110.01
540.78	110.01
540.95	25.75
541.12	46.81
541.29	131.07
541.46	79.58
541.62	28.09
541.79	30.43
541.96	128.73
542.13	168.52
542.30	91.28
542.47	95.96
542.63	0.00
542.80	102.98
542.97	84.26
543.14	93.62
543.31	175.54
543.48	133.41
543.64	126.39
543.81	126.39
543.98	98.30
544.15	102.98
544.32	63.19
544.48	72.56
544.65	60.85
544.82	49.15
544.99	124.05
545.16	112.35
545.32	121.71
545.49	39.79
545.66	56.17
545.83	77.24
546.00	53.83
546.16	84.26
546.33	156.82
546.50	161.50
546.67	117.03
546.83	93.62
547.00	135.75
547.17	128.73
547.34	58.51
547.50	72.56
547.67	56.17
547.84	84.26
548.00	117.03
548.17	107.66
548.34	84.26
548.51	112.35
548.67	86.60
548.84	72.56
549.01	81.92
549.18	128.73
549.34	79.58
549.51	70.22
549.68	110.01
549.84	102.98
550.01	117.03
550.18	74.90
550.34	42.13
550.51	42.13
550.68	112.35
550.84	98.30
551.01	51.49
551.18	124.05
551.34	81.92
551.51	70.22
551.68	56.17
551.84	110.01
552.01	135.75
552.18	18.72
552.34	121.71
552.51	70.22
552.68	65.54
552.84	39.79
553.01	86.60
553.18	100.64
553.34	114.69
553.51	110.01
553.67	93.62
553.84	110.01
554.01	107.66
554.17	56.17
554.34	39.79
554.51	100.64
554.67	81.92
554.84	117.03
555.00	74.90
555.17	56.17
555.33	91.28
555.50	28.09
555.67	88.94
555.83	32.77
556.00	23.41
556.16	86.60
556.33	131.07
556.50	77.24
556.66	156.82
556.83	88.94
556.99	128.73
557.16	112.35
557.32	93.62
557.49	98.30
557.65	88.94
557.82	67.88
557.98	70.22
558.15	49.15
558.32	16.38
558.48	70.22
558.65	81.92
558.81	56.17
558.98	126.39
559.14	77.24
559.31	166.18
559.47	81.92
559.64	133.41
559.80	105.32
559.97	53.83
560.13	88.94
560.30	51.49
560.46	81.92
560.63	51.49
560.79	112.35
560.96	74.90
561.12	53.83
561.29	84.26
561.45	107.66
561.61	140.43
561.78	84.26
561.94	86.60
562.11	100.64
562.27	84.26
562.44	37.45
562.60	133.41
562.77	14.04
562.93	4.68
563.10	112.35
563.26	77.24
563.42	152.13
563.59	70.22
563.75	16.38
563.92	107.66
564.08	114.69
564.24	63.19
564.41	77.24
564.57	105.32
564.74	65.54
564.90	0.00
565.07	74.90
565.23	30.43
565.39	30.43
565.56	81.92
565.72	0.00
565.88	53.83
566.05	131.07
566.21	128.73
566.38	60.85
566.54	35.11
566.70	42.13
566.87	102.98
567.03	23.41
567.19	102.98
567.36	166.18
567.52	126.39
567.68	91.28
567.85	42.13
568.01	124.05
568.17	56.17
568.34	81.92
568.50	72.56
568.66	63.19
568.83	77.24
568.99	105.32
569.15	95.96
569.32	56.17
569.48	18.72
569.64	25.75
569.81	84.26
569.97	79.58
570.13	126.39
570.30	44.47
570.46	124.05
570.62	63.19
570.78	16.38
570.95	102.98
571.11	74.90
571.27	84.26
571.43	79.58
571.60	91.28
571.76	77.24
571.92	58.51
572.09	93.62
572.25	135.75
572.41	39.79
572.57	107.66
572.74	84.26
572.90	84.26
573.06	138.09
573.22	32.77
573.38	23.41
573.55	46.81
573.71	133.41
573.87	65.54
574.03	0.00
574.20	145.11
574.36	100.64
574.52	110.01
574.68	39.79
574.84	105.32
575.01	39.79
575.17	77.24
575.33	11.70
575.49	49.15
575.65	102.98
575.82	44.47
575.98	67.88
576.14	112.35
576.30	88.94
576.46	60.85
576.62	98.30
576.79	93.62
576.95	53.83
577.11	114.69
577.27	72.56
577.43	114.69
577.59	67.88
577.75	39.79
577.92	32.77
578.08	37.45
578.24	30.43
578.40	23.41
578.56	30.43
578.72	88.94
578.88	58.51
579.04	37.45
579.21	56.17
579.37	128.73
579.53	105.32
579.69	67.88
579.85	72.56
580.01	35.11
580.17	16.38
580.33	84.26
580.49	39.79
580.65	105.32
580.82	112.35
580.98	86.60
581.14	37.45
581.30	98.30
581.46	67.88
581.62	32.77
581.78	88.94
581.94	42.13
582.10	70.22
582.26	121.71
582.42	147.45
582.58	133.41
582.74	46.81
582.90	72.56
583.06	77.24
583.22	84.26
583.38	58.51
583.54	63.19
583.70	28.09
583.86	25.75
584.02	30.43
584.18	42.13
584.34	84.26
584.50	93.62
584.66	147.45
584.82	124.05
584.98	23.41
585.14	53.83
585.30	35.11
585.46	95.96
585.62	39.79
585.78	126.39
585.94	46.81
586.10	63.19
586.26	102.98
586.42	98.30
586.58	124.05
586.74	128.73
586.90	18.72
587.06	65.54
587.22	100.64
587.38	56.17
587.54	77.24
587.70	95.96
587.86	142.77
588.02	107.66
588.18	44.47
588.34	35.11
588.49	39.79
588.65	105.32
588.81	93.62
588.97	81.92
589.13	65.54
589.29	21.06
589.45	63.19
589.61	70.22
589.77	70.22
589.93	0.00
590.08	60.85
590.24	56.17
590.40	44.47
590.56	44.47
590.72	23.41
590.88	11.70
591.04	60.85
591.20	117.03
591.35	81.92
591.51	4.68
591.67	44.47
591.83	107.66
591.99	21.06
592.15	65.54
592.31	60.85
592.46	58.51
592.62	84.26
592.78	70.22
592.94	42.13
593.10	53.83
593.26	30.43
593.41	77.24
593.57	105.32
593.73	39.79
593.89	18.72
594.05	114.69
594.20	60.85
594.36	58.51
594.52	93.62
594.68	9.36
594.84	145.11
594.99	60.85
595.15	77.24
595.31	51.49
595.47	60.85
595.62	98.30
595.78	67.88
595.94	51.49
596.10	44.47
596.25	86.60
596.41	102.98
596.57	37.45
596.73	81.92
596.88	93.62
597.04	65.54
597.20	42.13
597.36	49.15
597.51	30.43
597.67	102.98
597.83	56.17
597.99	42.13
598.14	58.51
598.30	98.30
598.46	93.62
598.61	110.01
598.77	86.60
598.93	42.13
599.09	72.56
599.24	42.13
599.40	88.94
599.56	70.22
599.71	63.19
599.87	0.00
600.03	32.77
600.18	81.92
600.34	65.54
600.50	133.41
600.65	65.54
600.81	86.60
600.97	84.26
601.12	46.81
601.28	37.45
601.44	121.71
601.59	44.47
601.75	98.30
601.91	131.07
602.06	152.13
602.22	79.58
602.37	147.45
602.53	70.22
602.69	28.09
602.84	77.24
603.00	84.26
603.16	126.39
603.31	65.54
603.47	100.64
603.62	11.70
603.78	84.26
603.94	98.30
604.09	70.22
604.25	70.22
604.40	98.30
604.56	60.85
604.71	105.32
604.87	44.47
605.03	21.06
605.18	126.39
605.34	88.94
605.49	60.85
605.65	98.30
605.80	42.13
605.96	145.11
606.12	95.96
606.27	72.56
606.43	58.51
606.58	81.92
606.74	88.94
606.89	65.54
607.05	88.94
607.20	74.90
607.36	21.06
607.51	39.79
607.67	102.98
607.82	11.70
607.98	98.30
608.13	11.70
608.29	67.88
608.44	107.66
608.60	107.66
608.75	51.49
608.91	32.77
609.06	72.56
609.22	180.22
609.37	9.36
609.53	25.75
609.68	32.77
609.84	18.72
609.99	102.98
610.15	0.00
610.30	0.00
610.46	77.24
610.61	25.75
610.76	70.22
610.92	65.54
611.07	72.56
611.23	121.71
611.38	74.90
611.54	58.51
611.69	131.07
611.84	49.15
612.00	81.92
612.15	63.19
612.31	114.69
612.46	102.98
612.62	44.47
612.77	32.77
612.92	25.75
613.08	51.49
613.23	93.62
613.39	81.92
613.54	0.00
613.69	51.49
613.85	42.13
614.00	67.88
614.15	65.54
614.31	98.30
614.46	95.96
614.62	67.88
614.77	159.16
614.92	53.83
615.08	28.09
615.23	28.09
615.38	51.49
615.54	86.60
615.69	84.26
615.84	42.13
616.00	2.34
616.15	65.54
616.30	88.94
616.46	163.84
616.61	63.19
616.76	65.54
616.92	77.24
617.07	74.90
617.22	39.79
617.37	86.60
617.53	35.11
617.68	16.38
617.83	56.17
617.99	72.56
618.14	124.05
618.29	105.32
618.45	46.81
618.60	51.49
618.75	91.28
618.90	140.43
619.06	161.50
619.21	32.77
619.36	72.56
619.51	46.81
619.67	105.32
619.82	37.45
619.97	58.51
620.12	88.94
620.28	44.47
620.43	51.49
620.58	131.07
620.73	0.00
620.89	112.35
621.04	37.45
621.19	70.22
621.34	44.47
621.49	51.49
621.65	149.79
621.80	79.58
621.95	56.17
622.10	4.68
622.25	23.41
622.41	93.62
622.56	14.04
622.71	28.09
622.86	39.79
623.01	72.56
623.16	124.05
623.32	86.60
623.47	91.28
623.62	51.49
623.77	88.94
623.92	49.15
624.07	44.47
624.23	72.56
624.38	58.51
624.53	49.15
624.68	121.71
624.83	70.22
624.98	21.06
625.13	84.26
625.29	49.15
625.44	46.81
625.59	63.19
625.74	0.00
625.89	0.00
626.04	37.45
626.19	81.92
626.34	86.60
626.49	60.85
626.65	88.94
626.80	11.70
626.95	65.54
627.10	63.19
627.25	18.72
627.40	74.90
627.55	79.58
627.70	84.26
627.85	112.35
628.00	37.45
628.15	63.19
628.30	35.11
628.45	9.36
628.60	77.24
628.76	58.51
628.91	25.75
629.06	30.43
629.21	30.43
629.36	98.30
629.51	65.54
629.66	166.18
629.81	95.96
629.96	107.66
630.11	63.19
630.26	18.72
630.41	18.72
630.56	58.51
630.71	88.94
630.86	4.68
631.01	98.30
631.16	63.19
631.31	53.83
631.46	79.58
631.61	77.24
631.76	79.58
631.91	91.28
632.06	46.81
632.21	9.36
632.36	72.56
632.51	67.88
632.66	42.13
632.81	81.92
632.96	30.43
633.10	49.15
633.25	105.32
633.40	74.90
633.55	102.98
633.70	173.20
633.85	102.98
634.00	0.00
634.15	63.19
634.30	21.06
634.45	51.49
634.60	51.49
634.75	30.43
634.90	9.36
635.05	67.88
635.19	67.88
635.34	37.45
635.49	53.83
635.64	63.19
635.79	0.00
635.94	88.94
636.09	63.19
636.24	81.92
636.39	88.94
636.53	102.98
636.68	11.70
636.83	102.98
636.98	100.64
637.13	70.22
637.28	39.79
637.43	93.62
637.57	81.92
637.72	91.28
637.87	46.81
638.02	42.13
638.17	46.81
638.32	77.24
638.46	67.88
638.61	30.43
638.76	32.77
638.91	114.69
639.06	51.49
639.20	28.09
639.35	2.34
639.50	46.81
639.65	16.38
639.80	44.47
639.94	65.54
640.09	138.09
640.24	32.77
640.39	49.15
640.54	77.24
640.68	56.17
640.83	121.71
640.98	63.19
641.13	44.47
641.27	7.02
641.42	18.72
641.57	98.30
641.72	28.09
641.86	16.38
642.01	58.51
642.16	84.26
642.31	2.34
642.45	63.19
642.60	117.03
642.75	2.34
642.90	60.85
643.04	30.43
643.19	21.06
643.34	42.13
643.48	42.13
643.63	79.58
643.78	28.09
643.93	25.75
644.07	124.05
644.22	65.54
644.37	30.43
644.51	100.64
644.66	39.79
644.81	56.17
644.95	84.26
645.10	84.26
645.25	53.83
645.39	9.36
645.54	46.81
645.69	58.51
645.83	117.03
645.98	4.68
646.13	46.81
646.27	4.68
646.42	39.79
646.57	100.64
646.71	91.28
646.86	28.09
647.00	0.00
647.15	107.66
647.30	0.00
647.44	53.83
647.59	0.00
647.74	53.83
647.88	81.92
648.03	35.11
648.17	30.43
648.32	74.90
648.47	42.13
648.61	37.45
648.76	7.02
648.90	114.69
649.05	93.62
649.20	88.94
649.34	65.54
649.49	88.94
649.63	70.22
649.78	53.83
649.92	42.13
650.07	23.41
650.21	49.15
650.36	44.47
650.51	67.88
650.65	2.34
650.80	56.17
650.94	70.22
651.09	46.81
651.23	32.77
651.38	72.56
651.52	56.17
651.67	147.45
651.81	63.19
651.96	67.88
652.10	51.49
652.25	81.92
652.39	110.01
652.54	86.60
652.68	117.03
652.83	58.51
652.97	100.64
653.12	102.98
653.26	67.88
653.41	23.41
653.55	95.96
653.70	105.32
653.84	53.83
653.99	0.00
654.13	60.85
654.27	102.98
654.42	74.90
654.56	23.41
654.71	77.24
654.85	88.94
655.00	39.79
655.14	74.90
655.29	0.00
655.43	105.32
655.57	28.09
655.72	32.77
655.86	23.41
656.01	110.01
656.15	84.26
656.30	0.00
656.44	105.32
656.58	42.13
656.73	39.79
656.87	25.75
657.01	60.85
657.16	112.35
657.30	65.54
657.45	74.90
657.59	21.06
657.73	67.88
657.88	121.71
658.02	93.62
658.16	86.60
658.31	95.96
658.45	18.72
658.60	37.45
658.74	32.77
658.88	77.24
659.03	23.41
659.17	44.47
659.31	35.11
659.46	23.41
659.60	84.26
659.74	100.64
659.89	84.26
660.03	21.06
660.17	72.56
660.32	79.58
660.46	65.54
660.60	63.19
660.74	56.17
660.89	35.11
661.03	56.17
661.17	110.01
661.32	25.75
661.46	23.41
661.60	0.00
661.74	21.06
661.89	44.47
662.03	84.26
662.17	81.92
662.31	65.54
662.46	60.85
662.60	124.05
662.74	7.02
662.88	0.00
663.03	128.73
663.17	63.19
663.31	72.56
663.45	51.49
663.60	72.56
663.74	53.83
663.88	95.96
664.02	28.09
664.17	72.56
664.31	58.51
664.45	42.13
664.59	51.49
664.73	32.77
664.88	2.34
665.02	18.72
665.16	14.04
665.30	39.79
665.44	72.56
665.59	84.26
665.73	25.75
665.87	0.00
666.01	65.54
666.15	77.24
666.29	93.62
666.44	93.62
666.58	32.77
666.72	63.19
666.86	11.70
667.00	63.19
667.14	67.88
667.28	37.45
667.43	91.28
667.57	63.19
667.71	53.83
667.85	51.49
667.99	63.19
668.13	25.75
668.27	58.51
668.41	70.22
668.56	53.83
668.70	25.75
668.84	18.72
668.98	154.48
669.12	81.92
669.26	98.30
669.40	28.09
669.54	30.43
669.68	0.00
669.82	100.64
669.96	35.11
670.10	98.30
670.25	42.13
670.39	4.68
670.53	16.38
670.67	72.56
670.81	23.41
670.95	102.98
671.09	91.28
671.23	63.19
671.37	51.49
671.51	25.75
671.65	84.26
671.79	37.45
671.93	37.45
672.07	28.09
672.21	79.58
672.35	56.17
672.49	72.56
672.63	102.98
672.77	95.96
672.91	93.62
673.05	42.13
673.19	81.92
673.33	0.00
673.47	39.79
673.61	91.28
673.75	65.54
673.89	56.17
674.03	84.26
674.17	0.00
674.31	37.45
674.45	72.56
674.59	23.41
674.73	110.01
674.87	70.22
675.01	67.88
675.15	28.09
675.29	32.77
675.43	0.00
675.56	49.15
675.70	72.56
675.84	42.13
675.98	35.11
676.12	49.15
676.26	44.47
676.40	9.36
676.54	44.47
676.68	4.68
676.82	49.15
676.96	72.56
677.10	149.79
677.23	51.49
677.37	121.71
677.51	39.79
677.65	67.88
677.79	32.77
677.93	74.90
678.07	98.30
678.21	35.11
678.34	11.70
678.48	156.82
678.62	23.41
678.76	53.83
678.90	35.11
679.04	39.79
679.18	39.79
679.31	46.81
679.45	95.96
679.59	21.06
679.73	44.47
679.87	11.70
680.00	25.75
680.14	70.22
680.28	105.32
680.42	9.36
680.56	9.36
680.70	9.36
680.83	14.04
680.97	65.54
681.11	0.00
681.25	25.75
681.39	0.00
681.52	28.09
681.66	91.28
681.80	42.13
681.94	77.24
682.07	21.06
682.21	56.17
682.35	7.02
682.49	0.00
682.62	25.75
682.76	44.47
682.90	28.09
683.04	128.73
683.17	23.41
683.31	42.13
683.45	42.13
683.59	39.79
683.72	0.00
683.86	0.00
684.00	60.85
684.13	72.56
684.27	49.15
684.41	46.81
684.55	46.81
684.68	81.92
684.82	98.30
684.96	0.00
685.09	0.00
685.23	21.06
685.37	0.00
685.50	37.45
685.64	53.83
685.78	0.00
685.91	51.49
686.05	93.62
686.19	93.62
686.32	49.15
686.46	51.49
686.60	28.09
686.73	79.58
686.87	7.02
687.01	0.00
687.14	56.17
687.28	35.11
687.42	0.00
687.55	30.43
687.69	39.79
687.82	79.58
687.96	63.19
688.10	56.17
688.23	0.00
688.37	58.51
688.50	0.00
688.64	0.00
688.78	35.11
688.91	81.92
689.05	7.02
689.18	28.09
689.32	63.19
689.46	0.00
689.59	77.24
689.73	110.01
689.86	56.17
690.00	58.51
690.13	56.17
690.27	23.41
690.41	11.70
690.54	88.94
690.68	51.49
690.81	0.00
690.95	23.41
691.08	25.75
691.22	0.00
691.35	72.56
691.49	86.60
691.62	11.70
691.76	51.49
691.89	79.58
692.03	39.79
692.16	0.00
692.30	25.75
692.43	30.43
692.57	14.04
692.70	46.81
692.84	49.15
692.97	70.22
693.11	18.72
693.24	28.09
693.38	0.00
693.51	81.92
693.65	0.00
693.78	30.43
693.92	84.26
694.05	88.94
694.19	35.11
694.32	0.00
694.45	0.00
694.59	4.68
694.72	18.72
694.86	51.49
694.99	0.00
695.13	63.19
695.26	37.45
695.39	16.38
695.53	77.24
695.66	77.24
695.80	35.11
695.93	91.28
696.07	35.11
696.20	56.17
696.33	121.71
696.47	11.70
696.60	98.30
696.73	0.00
696.87	25.75
697.00	0.00
697.14	0.00
697.27	32.77
697.40	46.81
697.54	0.00
697.67	53.83
697.80	28.09
697.94	91.28
698.07	11.70
698.21	11.70
698.34	2.34
698.47	14.04
698.61	0.00
698.74	25.75
698.87	0.00
699.01	0.00
699.14	32.77
699.27	9.36
699.40	46.81
699.54	60.85
699.67	51.49
699.80	39.79
699.94	18.72
700.07	0.00
700.20	93.62
700.34	28.09
700.47	4.68
700.60	30.43
700.73	46.81
700.87	0.00
701.00	7.02
701.13	0.00
701.26	4.68
701.40	23.41
701.53	35.11
701.66	32.77
701.79	46.81
701.93	72.56
702.06	25.75
702.19	86.60
702.32	0.00
702.46	84.26
702.59	49.15
702.72	88.94
702.85	44.47
702.99	91.28
703.12	32.77
703.25	0.00
703.38	79.58
703.51	67.88
703.65	70.22
703.78	154.48
703.91	58.51
704.04	63.19
704.17	18.72
704.31	0.00
704.44	0.00
704.57	49.15
704.70	42.13
704.83	65.54
704.96	35.11
705.10	46.81
705.23	51.49
>>>>>End Processed Spectral Data<<<<<
