SpectraSuite Data File
++++++++++++++++++++++++++++++++++++
Date: Fri Oct 04 12:13:30 GMT-05:00 2013
User: price-jones
Dark Spectrum Present: No
Reference Spectrum Present: No
Number of Sampled Component Spectra: 1
Spectrometers: USB2+H05261
Integration Time (usec): 10000 (USB2+H05261)
Spectra Averaged: 1 (USB2+H05261)
Boxcar Smoothing: 0 (USB2+H05261)
Correct for Electrical Dark: No (USB2+H05261)
Strobe/Lamp Enabled: No (USB2+H05261)
Correct for Detector Non-linearity: No (USB2+H05261)
Correct for Stray Light: No (USB2+H05261)
Number of Pixels in Processed Spectrum: 2048
>>>>>Begin Processed Spectral Data<<<<<
365.73	11.70
365.92	11.70
366.12	11.70
366.32	0.00
366.52	0.00
366.72	0.00
366.91	0.00
367.11	0.00
367.31	0.00
367.51	0.00
367.70	0.00
367.90	0.00
368.10	0.00
368.30	0.00
368.49	0.00
368.69	0.00
368.89	0.00
369.09	0.00
369.28	0.00
369.48	0.00
369.68	0.00
369.87	0.00
370.07	0.00
370.27	0.00
370.47	0.00
370.66	0.00
370.86	0.00
371.06	0.00
371.25	0.00
371.45	0.00
371.65	4.68
371.84	0.00
372.04	0.00
372.24	30.43
372.44	0.00
372.63	35.11
372.83	32.77
373.03	0.00
373.22	0.00
373.42	86.60
373.62	39.79
373.81	25.75
374.01	16.38
374.21	79.58
374.40	42.13
374.60	7.02
374.79	0.00
374.99	0.00
375.19	42.13
375.38	72.56
375.58	51.49
375.78	30.43
375.97	51.49
376.17	9.36
376.37	23.41
376.56	35.11
376.76	91.28
376.95	35.11
377.15	14.04
377.35	30.43
377.54	0.00
377.74	0.00
377.93	21.06
378.13	72.56
378.33	23.41
378.52	25.75
378.72	46.81
378.91	35.11
379.11	65.54
379.31	11.70
379.50	0.00
379.70	21.06
379.89	0.00
380.09	0.00
380.28	79.58
380.48	0.00
380.68	77.24
380.87	0.00
381.07	0.00
381.26	0.00
381.46	79.58
381.65	4.68
381.85	2.34
382.04	9.36
382.24	11.70
382.43	0.00
382.63	14.04
382.83	0.00
383.02	0.00
383.22	0.00
383.41	11.70
383.61	0.00
383.80	16.38
384.00	9.36
384.19	53.83
384.39	0.00
384.58	84.26
384.78	32.77
384.97	11.70
385.17	11.70
385.36	51.49
385.56	30.43
385.75	11.70
385.95	0.00
386.14	60.85
386.34	37.45
386.53	21.06
386.72	0.00
386.92	11.70
387.11	18.72
387.31	37.45
387.50	37.45
387.70	11.70
387.89	23.41
388.09	9.36
388.28	16.38
388.48	2.34
388.67	25.75
388.86	35.11
389.06	53.83
389.25	21.06
389.45	30.43
389.64	32.77
389.84	63.19
390.03	9.36
390.22	0.00
390.42	0.00
390.61	0.00
390.81	2.34
391.00	42.13
391.19	28.09
391.39	7.02
391.58	35.11
391.78	49.15
391.97	9.36
392.16	42.13
392.36	0.00
392.55	16.38
392.75	2.34
392.94	2.34
393.13	49.15
393.33	63.19
393.52	0.00
393.71	32.77
393.91	0.00
394.10	0.00
394.29	0.00
394.49	23.41
394.68	30.43
394.88	0.00
395.07	53.83
395.26	11.70
395.46	25.75
395.65	37.45
395.84	11.70
396.04	86.60
396.23	11.70
396.42	70.22
396.62	72.56
396.81	25.75
397.00	81.92
397.19	23.41
397.39	9.36
397.58	44.47
397.77	25.75
397.97	65.54
398.16	0.00
398.35	2.34
398.55	23.41
398.74	0.00
398.93	63.19
399.12	25.75
399.32	88.94
399.51	14.04
399.70	79.58
399.90	88.94
400.09	53.83
400.28	0.00
400.47	14.04
400.67	0.00
400.86	0.00
401.05	117.03
401.24	0.00
401.44	0.00
401.63	0.00
401.82	14.04
402.01	11.70
402.21	42.13
402.40	81.92
402.59	28.09
402.78	9.36
402.97	0.00
403.17	16.38
403.36	18.72
403.55	51.49
403.74	46.81
403.93	25.75
404.13	37.45
404.32	46.81
404.51	2.34
404.70	30.43
404.89	14.04
405.09	30.43
405.28	35.11
405.47	0.00
405.66	114.69
405.85	28.09
406.05	37.45
406.24	0.00
406.43	0.00
406.62	86.60
406.81	9.36
407.00	25.75
407.20	63.19
407.39	0.00
407.58	35.11
407.77	42.13
407.96	0.00
408.15	0.00
408.34	60.85
408.54	25.75
408.73	81.92
408.92	32.77
409.11	16.38
409.30	84.26
409.49	58.51
409.68	98.30
409.87	23.41
410.07	0.00
410.26	4.68
410.45	0.00
410.64	0.00
410.83	30.43
411.02	49.15
411.21	93.62
411.40	65.54
411.59	0.00
411.78	28.09
411.98	72.56
412.17	39.79
412.36	0.00
412.55	0.00
412.74	128.73
412.93	77.24
413.12	0.00
413.31	23.41
413.50	51.49
413.69	0.00
413.88	0.00
414.07	7.02
414.26	37.45
414.45	14.04
414.64	49.15
414.83	0.00
415.02	0.00
415.22	119.37
415.41	35.11
415.60	7.02
415.79	32.77
415.98	0.00
416.17	51.49
416.36	2.34
416.55	0.00
416.74	14.04
416.93	35.11
417.12	49.15
417.31	0.00
417.50	0.00
417.69	35.11
417.88	11.70
418.07	70.22
418.26	0.00
418.45	88.94
418.64	30.43
418.83	35.11
419.02	51.49
419.21	0.00
419.39	0.00
419.58	39.79
419.77	107.66
419.96	77.24
420.15	35.11
420.34	0.00
420.53	0.00
420.72	51.49
420.91	0.00
421.10	21.06
421.29	102.98
421.48	49.15
421.67	32.77
421.86	9.36
422.05	60.85
422.24	0.00
422.43	18.72
422.61	0.00
422.80	0.00
422.99	37.45
423.18	67.88
423.37	67.88
423.56	0.00
423.75	0.00
423.94	11.70
424.13	18.72
424.32	49.15
424.50	105.32
424.69	51.49
424.88	0.00
425.07	0.00
425.26	9.36
425.45	49.15
425.64	35.11
425.83	42.13
426.01	37.45
426.20	0.00
426.39	37.45
426.58	0.00
426.77	25.75
426.96	0.00
427.15	32.77
427.33	21.06
427.52	9.36
427.71	0.00
427.90	0.00
428.09	0.00
428.28	58.51
428.46	49.15
428.65	25.75
428.84	86.60
429.03	81.92
429.22	60.85
429.40	63.19
429.59	30.43
429.78	0.00
429.97	37.45
430.16	9.36
430.34	23.41
430.53	51.49
430.72	35.11
430.91	28.09
431.10	23.41
431.28	0.00
431.47	63.19
431.66	37.45
431.85	58.51
432.03	32.77
432.22	16.38
432.41	25.75
432.60	37.45
432.79	0.00
432.97	42.13
433.16	32.77
433.35	0.00
433.54	23.41
433.72	30.43
433.91	21.06
434.10	37.45
434.28	49.15
434.47	11.70
434.66	16.38
434.85	39.79
435.03	21.06
435.22	21.06
435.41	72.56
435.59	46.81
435.78	23.41
435.97	0.00
436.16	25.75
436.34	14.04
436.53	72.56
436.72	28.09
436.90	39.79
437.09	39.79
437.28	35.11
437.46	42.13
437.65	0.00
437.84	42.13
438.02	0.00
438.21	18.72
438.40	30.43
438.58	7.02
438.77	0.00
438.96	21.06
439.14	21.06
439.33	0.00
439.52	0.00
439.70	0.00
439.89	0.00
440.08	4.68
440.26	56.17
440.45	35.11
440.63	0.00
440.82	14.04
441.01	0.00
441.19	65.54
441.38	16.38
441.57	0.00
441.75	42.13
441.94	11.70
442.12	28.09
442.31	0.00
442.50	11.70
442.68	0.00
442.87	0.00
443.05	30.43
443.24	0.00
443.43	63.19
443.61	16.38
443.80	0.00
443.98	105.32
444.17	81.92
444.35	18.72
444.54	105.32
444.73	91.28
444.91	18.72
445.10	0.00
445.28	14.04
445.47	32.77
445.65	0.00
445.84	84.26
446.02	56.17
446.21	30.43
446.39	46.81
446.58	51.49
446.77	0.00
446.95	79.58
447.14	72.56
447.32	65.54
447.51	2.34
447.69	0.00
447.88	0.00
448.06	88.94
448.25	91.28
448.43	0.00
448.62	51.49
448.80	42.13
448.99	53.83
449.17	91.28
449.36	98.30
449.54	28.09
449.73	0.00
449.91	11.70
450.10	25.75
450.28	63.19
450.46	25.75
450.65	51.49
450.83	16.38
451.02	53.83
451.20	0.00
451.39	77.24
451.57	88.94
451.76	23.41
451.94	56.17
452.13	44.47
452.31	0.00
452.49	56.17
452.68	58.51
452.86	37.45
453.05	72.56
453.23	14.04
453.42	14.04
453.60	30.43
453.78	35.11
453.97	42.13
454.15	25.75
454.34	46.81
454.52	56.17
454.70	91.28
454.89	46.81
455.07	56.17
455.26	49.15
455.44	65.54
455.62	74.90
455.81	9.36
455.99	35.11
456.17	74.90
456.36	0.00
456.54	112.35
456.73	0.00
456.91	77.24
457.09	23.41
457.28	0.00
457.46	0.00
457.64	0.00
457.83	0.00
458.01	0.00
458.19	60.85
458.38	42.13
458.56	102.98
458.74	7.02
458.93	18.72
459.11	46.81
459.29	72.56
459.48	95.96
459.66	70.22
459.84	81.92
460.03	9.36
460.21	11.70
460.39	42.13
460.57	49.15
460.76	0.00
460.94	0.00
461.12	0.00
461.31	56.17
461.49	30.43
461.67	28.09
461.85	0.00
462.04	25.75
462.22	44.47
462.40	4.68
462.59	11.70
462.77	0.00
462.95	95.96
463.13	21.06
463.32	0.00
463.50	51.49
463.68	86.60
463.86	18.72
464.05	95.96
464.23	0.00
464.41	0.00
464.59	16.38
464.78	11.70
464.96	74.90
465.14	46.81
465.32	18.72
465.50	63.19
465.69	37.45
465.87	46.81
466.05	91.28
466.23	44.47
466.41	25.75
466.60	4.68
466.78	11.70
466.96	7.02
467.14	74.90
467.32	65.54
467.51	60.85
467.69	53.83
467.87	60.85
468.05	35.11
468.23	2.34
468.41	42.13
468.60	30.43
468.78	2.34
468.96	14.04
469.14	0.00
469.32	30.43
469.50	0.00
469.69	35.11
469.87	0.00
470.05	49.15
470.23	9.36
470.41	25.75
470.59	53.83
470.77	60.85
470.95	0.00
471.14	42.13
471.32	21.06
471.50	0.00
471.68	56.17
471.86	28.09
472.04	77.24
472.22	44.47
472.40	46.81
472.58	39.79
472.77	28.09
472.95	72.56
473.13	0.00
473.31	93.62
473.49	39.79
473.67	84.26
473.85	14.04
474.03	21.06
474.21	14.04
474.39	0.00
474.57	0.00
474.75	51.49
474.93	9.36
475.12	25.75
475.30	72.56
475.48	107.66
475.66	98.30
475.84	7.02
476.02	25.75
476.20	0.00
476.38	39.79
476.56	23.41
476.74	60.85
476.92	0.00
477.10	91.28
477.28	28.09
477.46	88.94
477.64	67.88
477.82	39.79
478.00	86.60
478.18	0.00
478.36	23.41
478.54	37.45
478.72	7.02
478.90	39.79
479.08	28.09
479.26	88.94
479.44	0.00
479.62	37.45
479.80	28.09
479.98	65.54
480.16	107.66
480.34	117.03
480.52	14.04
480.70	72.56
480.88	133.41
481.06	70.22
481.24	46.81
481.41	51.49
481.59	0.00
481.77	11.70
481.95	37.45
482.13	53.83
482.31	37.45
482.49	72.56
482.67	67.88
482.85	30.43
483.03	30.43
483.21	23.41
483.39	51.49
483.57	32.77
483.74	135.75
483.92	25.75
484.10	79.58
484.28	63.19
484.46	37.45
484.64	53.83
484.82	91.28
485.00	65.54
485.18	74.90
485.35	81.92
485.53	95.96
485.71	46.81
485.89	23.41
486.07	32.77
486.25	88.94
486.43	49.15
486.61	63.19
486.78	0.00
486.96	0.00
487.14	42.13
487.32	32.77
487.50	37.45
487.68	0.00
487.85	65.54
488.03	25.75
488.21	16.38
488.39	88.94
488.57	18.72
488.75	25.75
488.92	84.26
489.10	30.43
489.28	35.11
489.46	0.00
489.64	100.64
489.81	84.26
489.99	28.09
490.17	46.81
490.35	65.54
490.53	63.19
490.70	21.06
490.88	28.09
491.06	49.15
491.24	88.94
491.41	0.00
491.59	53.83
491.77	14.04
491.95	16.38
492.13	77.24
492.30	86.60
492.48	2.34
492.66	25.75
492.84	79.58
493.01	28.09
493.19	49.15
493.37	0.00
493.54	30.43
493.72	60.85
493.90	42.13
494.08	56.17
494.25	58.51
494.43	35.11
494.61	91.28
494.79	56.17
494.96	37.45
495.14	91.28
495.32	44.47
495.49	117.03
495.67	60.85
495.85	58.51
496.02	0.00
496.20	0.00
496.38	56.17
496.55	0.00
496.73	9.36
496.91	49.15
497.09	16.38
497.26	74.90
497.44	53.83
497.62	28.09
497.79	84.26
497.97	0.00
498.14	77.24
498.32	0.00
498.50	32.77
498.67	21.06
498.85	39.79
499.03	0.00
499.20	35.11
499.38	102.98
499.56	30.43
499.73	0.00
499.91	37.45
500.08	37.45
500.26	9.36
500.44	63.19
500.61	105.32
500.79	98.30
500.97	0.00
501.14	72.56
501.32	0.00
501.49	0.00
501.67	32.77
501.84	60.85
502.02	30.43
502.20	37.45
502.37	11.70
502.55	21.06
502.72	25.75
502.90	23.41
503.07	49.15
503.25	58.51
503.43	0.00
503.60	0.00
503.78	72.56
503.95	49.15
504.13	0.00
504.30	93.62
504.48	86.60
504.65	2.34
504.83	21.06
505.01	0.00
505.18	56.17
505.36	105.32
505.53	0.00
505.71	58.51
505.88	142.77
506.06	117.03
506.23	0.00
506.41	42.13
506.58	51.49
506.76	86.60
506.93	9.36
507.11	16.38
507.28	11.70
507.46	77.24
507.63	0.00
507.81	18.72
507.98	60.85
508.16	79.58
508.33	0.00
508.50	67.88
508.68	58.51
508.85	107.66
509.03	11.70
509.20	14.04
509.38	16.38
509.55	63.19
509.73	32.77
509.90	7.02
510.08	93.62
510.25	60.85
510.42	91.28
510.60	81.92
510.77	30.43
510.95	0.00
511.12	0.00
511.30	107.66
511.47	46.81
511.64	21.06
511.82	81.92
511.99	49.15
512.17	93.62
512.34	28.09
512.51	0.00
512.69	95.96
512.86	60.85
513.04	32.77
513.21	51.49
513.38	28.09
513.56	32.77
513.73	14.04
513.90	32.77
514.08	39.79
514.25	0.00
514.43	0.00
514.60	30.43
514.77	39.79
514.95	65.54
515.12	84.26
515.29	42.13
515.47	46.81
515.64	74.90
515.81	2.34
515.99	30.43
516.16	98.30
516.33	25.75
516.51	72.56
516.68	51.49
516.85	95.96
517.03	44.47
517.20	37.45
517.37	72.56
517.54	28.09
517.72	70.22
517.89	35.11
518.06	74.90
518.24	0.00
518.41	9.36
518.58	86.60
518.75	0.00
518.93	0.00
519.10	37.45
519.27	32.77
519.45	42.13
519.62	86.60
519.79	35.11
519.96	56.17
520.14	42.13
520.31	58.51
520.48	35.11
520.65	79.58
520.83	14.04
521.00	39.79
521.17	37.45
521.34	56.17
521.52	65.54
521.69	0.00
521.86	42.13
522.03	39.79
522.20	91.28
522.38	74.90
522.55	140.43
522.72	70.22
522.89	91.28
523.07	84.26
523.24	126.39
523.41	0.00
523.58	11.70
523.75	79.58
523.92	25.75
524.10	60.85
524.27	25.75
524.44	84.26
524.61	72.56
524.78	58.51
524.96	53.83
525.13	14.04
525.30	79.58
525.47	4.68
525.64	46.81
525.81	14.04
525.98	16.38
526.16	25.75
526.33	49.15
526.50	105.32
526.67	65.54
526.84	16.38
527.01	93.62
527.18	56.17
527.36	88.94
527.53	91.28
527.70	65.54
527.87	81.92
528.04	49.15
528.21	39.79
528.38	107.66
528.55	14.04
528.72	46.81
528.89	11.70
529.07	0.00
529.24	28.09
529.41	67.88
529.58	46.81
529.75	9.36
529.92	4.68
530.09	39.79
530.26	63.19
530.43	39.79
530.60	91.28
530.77	0.00
530.94	0.00
531.11	0.00
531.28	0.00
531.46	0.00
531.63	39.79
531.80	28.09
531.97	74.90
532.14	117.03
532.31	39.79
532.48	35.11
532.65	84.26
532.82	91.28
532.99	23.41
533.16	58.51
533.33	77.24
533.50	9.36
533.67	88.94
533.84	58.51
534.01	84.26
534.18	51.49
534.35	30.43
534.52	51.49
534.69	86.60
534.86	9.36
535.03	51.49
535.20	102.98
535.37	11.70
535.54	84.26
535.71	14.04
535.88	70.22
536.05	107.66
536.22	60.85
536.38	79.58
536.55	42.13
536.72	60.85
536.89	16.38
537.06	25.75
537.23	37.45
537.40	23.41
537.57	30.43
537.74	60.85
537.91	53.83
538.08	88.94
538.25	49.15
538.42	44.47
538.59	67.88
538.75	46.81
538.92	60.85
539.09	11.70
539.26	25.75
539.43	126.39
539.60	16.38
539.77	107.66
539.94	49.15
540.11	11.70
540.28	49.15
540.44	53.83
540.61	18.72
540.78	67.88
540.95	77.24
541.12	88.94
541.29	124.05
541.46	35.11
541.62	30.43
541.79	30.43
541.96	72.56
542.13	72.56
542.30	53.83
542.47	46.81
542.63	25.75
542.80	35.11
542.97	46.81
543.14	18.72
543.31	56.17
543.48	14.04
543.64	95.96
543.81	0.00
543.98	7.02
544.15	25.75
544.32	124.05
544.48	23.41
544.65	42.13
544.82	0.00
544.99	0.00
545.16	0.00
545.32	32.77
545.49	60.85
545.66	53.83
545.83	39.79
546.00	4.68
546.16	32.77
546.33	21.06
546.50	32.77
546.67	0.00
546.83	16.38
547.00	53.83
547.17	0.00
547.34	37.45
547.50	74.90
547.67	30.43
547.84	131.07
548.00	7.02
548.17	60.85
548.34	77.24
548.51	46.81
548.67	60.85
548.84	105.32
549.01	39.79
549.18	0.00
549.34	98.30
549.51	11.70
549.68	9.36
549.84	0.00
550.01	49.15
550.18	81.92
550.34	67.88
550.51	30.43
550.68	11.70
550.84	0.00
551.01	77.24
551.18	35.11
551.34	23.41
551.51	81.92
551.68	0.00
551.84	4.68
552.01	0.00
552.18	74.90
552.34	28.09
552.51	7.02
552.68	65.54
552.84	37.45
553.01	23.41
553.18	110.01
553.34	7.02
553.51	37.45
553.67	0.00
553.84	46.81
554.01	18.72
554.17	88.94
554.34	42.13
554.51	70.22
554.67	0.00
554.84	35.11
555.00	44.47
555.17	65.54
555.33	0.00
555.50	0.00
555.67	32.77
555.83	72.56
556.00	18.72
556.16	16.38
556.33	2.34
556.50	46.81
556.66	35.11
556.83	72.56
556.99	21.06
557.16	56.17
557.32	0.00
557.49	81.92
557.65	49.15
557.82	65.54
557.98	9.36
558.15	74.90
558.32	81.92
558.48	67.88
558.65	79.58
558.81	91.28
558.98	84.26
559.14	0.00
559.31	51.49
559.47	35.11
559.64	18.72
559.80	51.49
559.97	9.36
560.13	56.17
560.30	18.72
560.46	79.58
560.63	23.41
560.79	67.88
560.96	112.35
561.12	84.26
561.29	14.04
561.45	42.13
561.61	0.00
561.78	79.58
561.94	100.64
562.11	58.51
562.27	79.58
562.44	84.26
562.60	46.81
562.77	49.15
562.93	63.19
563.10	30.43
563.26	0.00
563.42	0.00
563.59	25.75
563.75	53.83
563.92	51.49
564.08	63.19
564.24	25.75
564.41	95.96
564.57	0.00
564.74	18.72
564.90	2.34
565.07	0.00
565.23	16.38
565.39	0.00
565.56	105.32
565.72	88.94
565.88	11.70
566.05	65.54
566.21	56.17
566.38	65.54
566.54	25.75
566.70	9.36
566.87	72.56
567.03	7.02
567.19	7.02
567.36	74.90
567.52	60.85
567.68	53.83
567.85	42.13
568.01	95.96
568.17	100.64
568.34	86.60
568.50	105.32
568.66	0.00
568.83	51.49
568.99	56.17
569.15	77.24
569.32	30.43
569.48	39.79
569.64	0.00
569.81	81.92
569.97	70.22
570.13	131.07
570.30	56.17
570.46	58.51
570.62	23.41
570.78	0.00
570.95	37.45
571.11	0.00
571.27	28.09
571.43	0.00
571.60	56.17
571.76	70.22
571.92	35.11
572.09	23.41
572.25	0.00
572.41	0.00
572.57	0.00
572.74	0.00
572.90	21.06
573.06	18.72
573.22	16.38
573.38	53.83
573.55	74.90
573.71	39.79
573.87	0.00
574.03	72.56
574.20	42.13
574.36	53.83
574.52	72.56
574.68	28.09
574.84	25.75
575.01	0.00
575.17	0.00
575.33	67.88
575.49	70.22
575.65	53.83
575.82	46.81
575.98	11.70
576.14	63.19
576.30	67.88
576.46	102.98
576.62	93.62
576.79	145.11
576.95	14.04
577.11	84.26
577.27	91.28
577.43	46.81
577.59	56.17
577.75	7.02
577.92	117.03
578.08	11.70
578.24	11.70
578.40	30.43
578.56	0.00
578.72	30.43
578.88	93.62
579.04	63.19
579.21	53.83
579.37	100.64
579.53	93.62
579.69	81.92
579.85	60.85
580.01	16.38
580.17	53.83
580.33	42.13
580.49	117.03
580.65	4.68
580.82	74.90
580.98	28.09
581.14	65.54
581.30	79.58
581.46	14.04
581.62	128.73
581.78	37.45
581.94	124.05
582.10	37.45
582.26	102.98
582.42	63.19
582.58	4.68
582.74	28.09
582.90	11.70
583.06	28.09
583.22	21.06
583.38	14.04
583.54	49.15
583.70	79.58
583.86	124.05
584.02	67.88
584.18	70.22
584.34	25.75
584.50	154.48
584.66	887.06
584.82	2150.95
584.98	2719.70
585.14	2232.87
585.30	1423.05
585.46	891.74
585.62	507.90
585.78	250.44
585.94	91.28
586.10	112.35
586.26	72.56
586.42	63.19
586.58	46.81
586.74	42.13
586.90	32.77
587.06	81.92
587.22	14.04
587.38	0.00
587.54	0.00
587.70	215.33
587.86	208.31
588.02	208.31
588.18	241.08
588.34	86.60
588.49	93.62
588.65	35.11
588.81	65.54
588.97	72.56
589.13	25.75
589.29	35.11
589.45	51.49
589.61	93.62
589.77	91.28
589.93	0.00
590.08	42.13
590.24	56.17
590.40	58.51
590.56	4.68
590.72	56.17
590.88	88.94
591.04	18.72
591.20	0.00
591.35	74.90
591.51	7.02
591.67	100.64
591.83	23.41
591.99	23.41
592.15	30.43
592.31	74.90
592.46	74.90
592.62	11.70
592.78	0.00
592.94	58.51
593.10	35.11
593.26	32.77
593.41	0.00
593.57	14.04
593.73	23.41
593.89	147.45
594.05	276.18
594.20	381.51
594.36	283.20
594.52	252.78
594.68	154.48
594.84	138.09
594.99	37.45
595.15	105.32
595.31	32.77
595.47	30.43
595.62	39.79
595.78	0.00
595.94	44.47
596.10	32.77
596.25	46.81
596.41	25.75
596.57	0.00
596.73	35.11
596.88	39.79
597.04	37.45
597.20	124.05
597.36	110.01
597.51	79.58
597.67	37.45
597.83	114.69
597.99	84.26
598.14	91.28
598.30	74.90
598.46	63.19
598.61	28.09
598.77	0.00
598.93	0.00
599.09	72.56
599.24	88.94
599.40	53.83
599.56	37.45
599.71	37.45
599.87	60.85
600.03	86.60
600.18	53.83
600.34	21.06
600.50	0.00
600.65	28.09
600.81	0.00
600.97	0.00
601.12	105.32
601.28	81.92
601.44	51.49
601.59	79.58
601.75	35.11
601.91	39.79
602.06	56.17
602.22	0.00
602.37	95.96
602.53	142.77
602.69	77.24
602.84	95.96
603.00	147.45
603.16	79.58
603.31	114.69
603.47	4.68
603.62	0.00
603.78	93.62
603.94	98.30
604.09	16.38
604.25	81.92
604.40	25.75
604.56	0.00
604.71	7.02
604.87	0.00
605.03	88.94
605.18	86.60
605.34	112.35
605.49	39.79
605.65	58.51
605.80	42.13
605.96	37.45
606.12	32.77
606.27	60.85
606.43	7.02
606.58	46.81
606.74	39.79
606.89	196.60
607.05	205.97
607.20	315.97
607.36	252.78
607.51	262.14
607.67	126.39
607.82	154.48
607.98	102.98
608.13	102.98
608.29	58.51
608.44	53.83
608.60	60.85
608.75	112.35
608.91	117.03
609.06	180.22
609.22	435.34
609.37	496.19
609.53	444.70
609.68	365.12
609.84	212.99
609.99	163.84
610.15	131.07
610.30	77.24
610.46	84.26
610.61	39.79
610.76	2.34
610.92	124.05
611.07	67.88
611.23	0.00
611.38	0.00
611.54	67.88
611.69	84.26
611.84	56.17
612.00	46.81
612.15	49.15
612.31	42.13
612.46	102.98
612.62	93.62
612.77	53.83
612.92	49.15
613.08	53.83
613.23	72.56
613.39	18.72
613.54	39.79
613.69	238.73
613.85	517.26
614.00	734.93
614.15	784.08
614.31	559.39
614.46	430.66
614.62	301.93
614.77	238.73
614.92	32.77
615.08	107.66
615.23	58.51
615.38	11.70
615.54	72.56
615.69	25.75
615.84	147.45
616.00	166.18
616.15	184.90
616.30	175.54
616.46	84.26
616.61	79.58
616.76	79.58
616.92	84.26
617.07	0.00
617.22	11.70
617.37	49.15
617.53	23.41
617.68	37.45
617.83	91.28
617.99	9.36
618.14	11.70
618.29	0.00
618.45	28.09
618.60	0.00
618.75	46.81
618.90	67.88
619.06	44.47
619.21	28.09
619.36	81.92
619.51	91.28
619.67	77.24
619.82	28.09
619.97	56.17
620.12	4.68
620.28	121.71
620.43	37.45
620.58	112.35
620.73	79.58
620.89	58.51
621.04	51.49
621.19	110.01
621.34	222.35
621.49	255.12
621.65	168.52
621.80	131.07
621.95	46.81
622.10	67.88
622.25	37.45
622.41	25.75
622.56	65.54
622.71	28.09
622.86	65.54
623.01	0.00
623.16	4.68
623.32	0.00
623.47	81.92
623.62	16.38
623.77	18.72
623.92	95.96
624.07	53.83
624.23	51.49
624.38	35.11
624.53	0.00
624.68	107.66
624.83	91.28
624.98	70.22
625.13	46.81
625.29	18.72
625.44	0.00
625.59	39.79
625.74	81.92
625.89	98.30
626.04	138.09
626.19	273.84
626.34	344.06
626.49	388.53
626.65	327.68
626.80	234.05
626.95	205.97
627.10	173.20
627.25	126.39
627.40	32.77
627.55	142.77
627.70	53.83
627.85	53.83
628.00	77.24
628.15	14.04
628.30	37.45
628.45	42.13
628.60	0.00
628.76	81.92
628.91	44.47
629.06	11.70
629.21	46.81
629.36	60.85
629.51	0.00
629.66	72.56
629.81	4.68
629.96	77.24
630.11	184.90
630.26	126.39
630.41	110.01
630.56	81.92
630.71	63.19
630.86	74.90
631.01	39.79
631.16	44.47
631.31	49.15
631.46	42.13
631.61	74.90
631.76	91.28
631.91	86.60
632.06	18.72
632.21	63.19
632.36	21.06
632.51	81.92
632.66	39.79
632.81	51.49
632.96	166.18
633.10	220.01
633.25	290.23
633.40	287.89
633.55	156.82
633.70	159.16
633.85	70.22
634.00	21.06
634.15	77.24
634.30	44.47
634.45	65.54
634.60	46.81
634.75	67.88
634.90	0.00
635.05	11.70
635.19	0.00
635.34	56.17
635.49	0.00
635.64	0.00
635.79	0.00
635.94	14.04
636.09	60.85
636.24	23.41
636.39	30.43
636.53	16.38
636.68	0.00
636.83	28.09
636.98	18.72
637.13	32.77
637.28	0.00
637.43	30.43
637.57	93.62
637.72	145.11
637.87	360.44
638.02	435.34
638.17	571.09
638.32	402.57
638.46	210.65
638.61	196.60
638.76	91.28
638.91	86.60
639.06	0.00
639.20	131.07
639.35	77.24
639.50	121.71
639.65	229.37
639.80	636.63
639.94	884.72
640.09	816.85
640.24	634.29
640.39	498.53
640.54	227.03
640.68	243.42
640.83	140.43
640.98	42.13
641.13	56.17
641.27	102.98
641.42	60.85
641.57	58.51
641.72	44.47
641.86	2.34
642.01	46.81
642.16	51.49
642.31	0.00
642.45	67.88
642.60	7.02
642.75	28.09
642.90	9.36
643.04	0.00
643.19	7.02
643.34	35.11
643.48	0.00
643.63	0.00
643.78	25.75
643.93	98.30
644.07	60.85
644.22	23.41
644.37	0.00
644.51	30.43
644.66	81.92
644.81	0.00
644.95	79.58
645.10	56.17
645.25	0.00
645.39	0.00
645.54	16.38
645.69	58.51
645.83	37.45
645.98	0.00
646.13	0.00
646.27	124.05
646.42	63.19
646.57	0.00
646.71	77.24
646.86	7.02
647.00	67.88
647.15	16.38
647.30	0.00
647.44	18.72
647.59	28.09
647.74	42.13
647.88	65.54
648.03	0.00
648.17	42.13
648.32	0.00
648.47	0.00
648.61	107.66
648.76	23.41
648.90	25.75
649.05	18.72
649.20	35.11
649.34	84.26
649.49	63.19
649.63	11.70
649.78	23.41
649.92	53.83
650.07	121.71
650.21	262.14
650.36	447.04
650.51	381.51
650.65	463.43
650.80	271.50
650.94	217.67
651.09	112.35
651.23	53.83
651.38	81.92
651.52	98.30
651.67	35.11
651.81	46.81
651.96	0.00
652.10	119.37
652.25	11.70
652.39	0.00
652.54	46.81
652.68	105.32
652.83	110.01
652.97	154.48
653.12	184.90
653.26	145.11
653.41	112.35
653.55	91.28
653.70	100.64
653.84	37.45
653.99	49.15
654.13	77.24
654.27	30.43
654.42	67.88
654.56	42.13
654.71	0.00
654.85	0.00
655.00	35.11
655.14	51.49
655.29	72.56
655.43	28.09
655.57	23.41
655.72	65.54
655.86	84.26
656.01	23.41
656.15	0.00
656.30	37.45
656.44	93.62
656.58	39.79
656.73	42.13
656.87	56.17
657.01	44.47
657.16	44.47
657.30	0.00
657.45	28.09
657.59	2.34
657.73	100.64
657.88	42.13
658.02	81.92
658.16	60.85
658.31	74.90
658.45	28.09
658.60	21.06
658.74	60.85
658.88	32.77
659.03	2.34
659.17	88.94
659.31	46.81
659.46	112.35
659.60	173.20
659.74	243.42
659.89	208.31
660.03	175.54
660.17	138.09
660.32	88.94
660.46	30.43
660.60	0.00
660.74	72.56
660.89	74.90
661.03	58.51
661.17	23.41
661.32	0.00
661.46	51.49
661.60	46.81
661.74	0.00
661.89	49.15
662.03	53.83
662.17	9.36
662.31	25.75
662.46	0.00
662.60	110.01
662.74	51.49
662.88	44.47
663.03	18.72
663.17	93.62
663.31	25.75
663.45	107.66
663.60	9.36
663.74	0.00
663.88	65.54
664.02	18.72
664.17	0.00
664.31	72.56
664.45	58.51
664.59	2.34
664.73	56.17
664.88	28.09
665.02	25.75
665.16	65.54
665.30	4.68
665.44	35.11
665.59	53.83
665.73	0.00
665.87	0.00
666.01	67.88
666.15	32.77
666.29	21.06
666.44	77.24
666.58	121.71
666.72	42.13
666.86	91.28
667.00	14.04
667.14	46.81
667.28	88.94
667.43	217.67
667.57	301.93
667.71	339.38
667.85	407.25
667.99	191.92
668.13	74.90
668.27	203.63
668.41	110.01
668.56	79.58
668.70	67.88
668.84	23.41
668.98	93.62
669.12	95.96
669.26	14.04
669.40	32.77
669.54	7.02
669.68	11.70
669.82	32.77
669.96	0.00
670.10	28.09
670.25	7.02
670.39	70.22
670.53	2.34
670.67	53.83
670.81	65.54
670.95	0.00
671.09	77.24
671.23	100.64
671.37	163.84
671.51	266.82
671.65	245.76
671.79	161.50
671.93	187.24
672.07	112.35
672.21	95.96
672.35	56.17
672.49	18.72
672.63	63.19
672.77	0.00
672.91	70.22
673.05	14.04
673.19	0.00
673.33	56.17
673.47	93.62
673.61	65.54
673.75	0.00
673.89	11.70
674.03	16.38
674.17	32.77
674.31	0.00
674.45	30.43
674.59	23.41
674.73	0.00
674.87	72.56
675.01	0.00
675.15	53.83
675.29	53.83
675.43	35.11
675.56	9.36
675.70	44.47
675.84	60.85
675.98	35.11
676.12	0.00
676.26	14.04
676.40	49.15
676.54	37.45
676.68	49.15
676.82	14.04
676.96	74.90
677.10	63.19
677.23	28.09
677.37	28.09
677.51	14.04
677.65	39.79
677.79	46.81
677.93	84.26
678.07	60.85
678.21	0.00
678.34	105.32
678.48	28.09
678.62	74.90
678.76	88.94
678.90	67.88
679.04	37.45
679.18	0.00
679.31	0.00
679.45	60.85
679.59	2.34
679.73	140.43
679.87	46.81
680.00	65.54
680.14	4.68
680.28	58.51
680.42	51.49
680.56	56.17
680.70	84.26
680.83	0.00
680.97	58.51
681.11	88.94
681.25	49.15
681.39	81.92
681.52	46.81
681.66	49.15
681.80	28.09
681.94	39.79
682.07	42.13
682.21	95.96
682.35	0.00
682.49	51.49
682.62	46.81
682.76	18.72
682.90	37.45
683.04	9.36
683.17	98.30
683.31	65.54
683.45	18.72
683.59	77.24
683.72	74.90
683.86	11.70
684.00	105.32
684.13	65.54
684.27	0.00
684.41	0.00
684.55	0.00
684.68	42.13
684.82	0.00
684.96	0.00
685.09	16.38
685.23	30.43
685.37	0.00
685.50	2.34
685.64	0.00
685.78	30.43
685.91	30.43
686.05	86.60
686.19	100.64
686.32	86.60
686.46	21.06
686.60	11.70
686.73	30.43
686.87	49.15
687.01	14.04
687.14	46.81
687.28	0.00
687.42	28.09
687.55	37.45
687.69	46.81
687.82	0.00
687.96	56.17
688.10	2.34
688.23	98.30
688.37	4.68
688.50	25.75
688.64	39.79
688.78	63.19
688.91	35.11
689.05	0.00
689.18	35.11
689.32	81.92
689.46	70.22
689.59	58.51
689.73	51.49
689.86	7.02
690.00	7.02
690.13	28.09
690.27	0.00
690.41	65.54
690.54	23.41
690.68	65.54
690.81	0.00
690.95	49.15
691.08	65.54
691.22	91.28
691.35	58.51
691.49	107.66
691.62	42.13
691.76	0.00
691.89	11.70
692.03	9.36
692.16	0.00
692.30	42.13
692.43	25.75
692.57	81.92
692.70	175.54
692.84	166.18
692.97	203.63
693.11	145.11
693.24	124.05
693.38	63.19
693.51	79.58
693.65	67.88
693.78	67.88
693.92	100.64
694.05	0.00
694.19	0.00
694.32	0.00
694.45	23.41
694.59	28.09
694.72	18.72
694.86	65.54
694.99	0.00
695.13	30.43
695.26	56.17
695.39	79.58
695.53	70.22
695.66	63.19
695.80	11.70
695.93	49.15
696.07	11.70
696.20	4.68
696.33	0.00
696.47	0.00
696.60	98.30
696.73	46.81
696.87	11.70
697.00	23.41
697.14	0.00
697.27	53.83
697.40	42.13
697.54	53.83
697.67	2.34
697.80	23.41
697.94	114.69
698.07	14.04
698.21	16.38
698.34	42.13
698.47	0.00
698.61	14.04
698.74	58.51
698.87	91.28
699.01	0.00
699.14	44.47
699.27	4.68
699.40	51.49
699.54	39.79
699.67	74.90
699.80	46.81
699.94	16.38
700.07	0.00
700.20	0.00
700.34	49.15
700.47	14.04
700.60	4.68
700.73	65.54
700.87	0.00
701.00	0.00
701.13	9.36
701.26	46.81
701.40	77.24
701.53	95.96
701.66	28.09
701.79	14.04
701.93	84.26
702.06	107.66
702.19	65.54
702.32	84.26
702.46	35.11
702.59	14.04
702.72	56.17
702.85	110.01
702.99	222.35
703.12	243.42
703.25	376.83
703.38	313.63
703.51	271.50
703.65	182.56
703.78	84.26
703.91	114.69
704.04	39.79
704.17	84.26
704.31	28.09
704.44	0.00
704.57	77.24
704.70	0.00
704.83	110.01
704.96	53.83
705.10	86.60
705.23	21.06
>>>>>End Processed Spectral Data<<<<<
