SpectraSuite Data File
++++++++++++++++++++++++++++++++++++
Date: Fri Oct 04 12:13:27 GMT-05:00 2013
User: price-jones
Dark Spectrum Present: No
Reference Spectrum Present: No
Number of Sampled Component Spectra: 1
Spectrometers: USB2+H05261
Integration Time (usec): 10000 (USB2+H05261)
Spectra Averaged: 1 (USB2+H05261)
Boxcar Smoothing: 0 (USB2+H05261)
Correct for Electrical Dark: No (USB2+H05261)
Strobe/Lamp Enabled: No (USB2+H05261)
Correct for Detector Non-linearity: No (USB2+H05261)
Correct for Stray Light: No (USB2+H05261)
Number of Pixels in Processed Spectrum: 2048
>>>>>Begin Processed Spectral Data<<<<<
365.73	0.00
365.92	0.00
366.12	0.00
366.32	0.00
366.52	0.00
366.72	0.00
366.91	0.00
367.11	0.00
367.31	0.00
367.51	0.00
367.70	0.00
367.90	0.00
368.10	0.00
368.30	0.00
368.49	0.00
368.69	0.00
368.89	0.00
369.09	0.00
369.28	0.00
369.48	0.00
369.68	0.00
369.87	0.00
370.07	0.00
370.27	0.00
370.47	0.00
370.66	0.00
370.86	0.00
371.06	0.00
371.25	9.36
371.45	0.00
371.65	7.02
371.84	0.00
372.04	0.00
372.24	16.38
372.44	11.70
372.63	67.88
372.83	32.77
373.03	56.17
373.22	9.36
373.42	28.09
373.62	2.34
373.81	0.00
374.01	53.83
374.21	60.85
374.40	46.81
374.60	35.11
374.79	14.04
374.99	72.56
375.19	60.85
375.38	14.04
375.58	18.72
375.78	21.06
375.97	102.98
376.17	30.43
376.37	42.13
376.56	44.47
376.76	25.75
376.95	0.00
377.15	72.56
377.35	7.02
377.54	4.68
377.74	32.77
377.93	4.68
378.13	0.00
378.33	0.00
378.52	16.38
378.72	0.00
378.91	23.41
379.11	0.00
379.31	2.34
379.50	0.00
379.70	30.43
379.89	4.68
380.09	56.17
380.28	0.00
380.48	7.02
380.68	0.00
380.87	42.13
381.07	16.38
381.26	67.88
381.46	0.00
381.65	14.04
381.85	0.00
382.04	7.02
382.24	14.04
382.43	46.81
382.63	0.00
382.83	16.38
383.02	4.68
383.22	39.79
383.41	93.62
383.61	0.00
383.80	23.41
384.00	0.00
384.19	11.70
384.39	0.00
384.58	0.00
384.78	30.43
384.97	0.00
385.17	60.85
385.36	0.00
385.56	65.54
385.75	32.77
385.95	102.98
386.14	46.81
386.34	9.36
386.53	0.00
386.72	102.98
386.92	7.02
387.11	2.34
387.31	0.00
387.50	0.00
387.70	46.81
387.89	0.00
388.09	67.88
388.28	0.00
388.48	0.00
388.67	42.13
388.86	28.09
389.06	53.83
389.25	35.11
389.45	60.85
389.64	58.51
389.84	21.06
390.03	60.85
390.22	53.83
390.42	23.41
390.61	0.00
390.81	0.00
391.00	84.26
391.19	35.11
391.39	23.41
391.58	21.06
391.78	67.88
391.97	23.41
392.16	30.43
392.36	37.45
392.55	44.47
392.75	0.00
392.94	7.02
393.13	21.06
393.33	0.00
393.52	0.00
393.71	0.00
393.91	30.43
394.10	35.11
394.29	16.38
394.49	30.43
394.68	37.45
394.88	28.09
395.07	23.41
395.26	21.06
395.46	60.85
395.65	28.09
395.84	0.00
396.04	14.04
396.23	0.00
396.42	46.81
396.62	23.41
396.81	0.00
397.00	23.41
397.19	53.83
397.39	25.75
397.58	25.75
397.77	16.38
397.97	11.70
398.16	11.70
398.35	0.00
398.55	9.36
398.74	0.00
398.93	46.81
399.12	0.00
399.32	9.36
399.51	21.06
399.70	46.81
399.90	0.00
400.09	9.36
400.28	9.36
400.47	25.75
400.67	0.00
400.86	98.30
401.05	32.77
401.24	84.26
401.44	35.11
401.63	28.09
401.82	39.79
402.01	25.75
402.21	28.09
402.40	14.04
402.59	21.06
402.78	0.00
402.97	49.15
403.17	21.06
403.36	0.00
403.55	2.34
403.74	11.70
403.93	7.02
404.13	4.68
404.32	30.43
404.51	0.00
404.70	0.00
404.89	0.00
405.09	9.36
405.28	9.36
405.47	0.00
405.66	4.68
405.85	0.00
406.05	67.88
406.24	21.06
406.43	51.49
406.62	23.41
406.81	14.04
407.00	21.06
407.20	21.06
407.39	58.51
407.58	2.34
407.77	37.45
407.96	44.47
408.15	14.04
408.34	21.06
408.54	14.04
408.73	0.00
408.92	7.02
409.11	51.49
409.30	49.15
409.49	42.13
409.68	23.41
409.87	9.36
410.07	30.43
410.26	2.34
410.45	49.15
410.64	0.00
410.83	56.17
411.02	0.00
411.21	0.00
411.40	91.28
411.59	110.01
411.78	4.68
411.98	0.00
412.17	65.54
412.36	53.83
412.55	42.13
412.74	7.02
412.93	18.72
413.12	0.00
413.31	53.83
413.50	0.00
413.69	37.45
413.88	98.30
414.07	0.00
414.26	28.09
414.45	58.51
414.64	28.09
414.83	0.00
415.02	16.38
415.22	9.36
415.41	0.00
415.60	39.79
415.79	0.00
415.98	32.77
416.17	14.04
416.36	0.00
416.55	58.51
416.74	23.41
416.93	79.58
417.12	7.02
417.31	72.56
417.50	35.11
417.69	35.11
417.88	88.94
418.07	51.49
418.26	0.00
418.45	51.49
418.64	63.19
418.83	0.00
419.02	39.79
419.21	46.81
419.39	0.00
419.58	37.45
419.77	58.51
419.96	0.00
420.15	35.11
420.34	2.34
420.53	0.00
420.72	37.45
420.91	0.00
421.10	25.75
421.29	72.56
421.48	25.75
421.67	18.72
421.86	0.00
422.05	0.00
422.24	37.45
422.43	0.00
422.61	70.22
422.80	0.00
422.99	0.00
423.18	42.13
423.37	0.00
423.56	79.58
423.75	30.43
423.94	16.38
424.13	16.38
424.32	0.00
424.50	0.00
424.69	23.41
424.88	23.41
425.07	0.00
425.26	93.62
425.45	88.94
425.64	16.38
425.83	49.15
426.01	58.51
426.20	30.43
426.39	21.06
426.58	0.00
426.77	0.00
426.96	58.51
427.15	14.04
427.33	23.41
427.52	23.41
427.71	25.75
427.90	25.75
428.09	4.68
428.28	0.00
428.46	67.88
428.65	0.00
428.84	0.00
429.03	138.09
429.22	7.02
429.40	110.01
429.59	86.60
429.78	23.41
429.97	42.13
430.16	37.45
430.34	0.00
430.53	44.47
430.72	46.81
430.91	11.70
431.10	7.02
431.28	23.41
431.47	42.13
431.66	23.41
431.85	102.98
432.03	0.00
432.22	72.56
432.41	39.79
432.60	0.00
432.79	16.38
432.97	4.68
433.16	102.98
433.35	77.24
433.54	51.49
433.72	0.00
433.91	0.00
434.10	42.13
434.28	65.54
434.47	7.02
434.66	0.00
434.85	0.00
435.03	74.90
435.22	0.00
435.41	88.94
435.59	107.66
435.78	9.36
435.97	32.77
436.16	77.24
436.34	65.54
436.53	56.17
436.72	79.58
436.90	42.13
437.09	65.54
437.28	65.54
437.46	110.01
437.65	14.04
437.84	65.54
438.02	44.47
438.21	28.09
438.40	98.30
438.58	79.58
438.77	30.43
438.96	28.09
439.14	4.68
439.33	21.06
439.52	0.00
439.70	23.41
439.89	21.06
440.08	51.49
440.26	28.09
440.45	42.13
440.63	49.15
440.82	0.00
441.01	28.09
441.19	49.15
441.38	53.83
441.57	77.24
441.75	0.00
441.94	77.24
442.12	11.70
442.31	42.13
442.50	16.38
442.68	25.75
442.87	53.83
443.05	60.85
443.24	70.22
443.43	30.43
443.61	2.34
443.80	35.11
443.98	49.15
444.17	9.36
444.35	42.13
444.54	14.04
444.73	16.38
444.91	0.00
445.10	63.19
445.28	51.49
445.47	0.00
445.65	18.72
445.84	93.62
446.02	14.04
446.21	84.26
446.39	0.00
446.58	39.79
446.77	74.90
446.95	0.00
447.14	9.36
447.32	105.32
447.51	0.00
447.69	39.79
447.88	60.85
448.06	58.51
448.25	9.36
448.43	14.04
448.62	0.00
448.80	65.54
448.99	58.51
449.17	18.72
449.36	39.79
449.54	14.04
449.73	9.36
449.91	63.19
450.10	79.58
450.28	49.15
450.46	0.00
450.65	58.51
450.83	21.06
451.02	0.00
451.20	14.04
451.39	32.77
451.57	44.47
451.76	67.88
451.94	86.60
452.13	93.62
452.31	0.00
452.49	23.41
452.68	65.54
452.86	58.51
453.05	4.68
453.23	14.04
453.42	18.72
453.60	70.22
453.78	23.41
453.97	25.75
454.15	51.49
454.34	39.79
454.52	35.11
454.70	39.79
454.89	0.00
455.07	95.96
455.26	95.96
455.44	67.88
455.62	4.68
455.81	23.41
455.99	58.51
456.17	51.49
456.36	32.77
456.54	114.69
456.73	21.06
456.91	84.26
457.09	51.49
457.28	95.96
457.46	88.94
457.64	7.02
457.83	18.72
458.01	42.13
458.19	42.13
458.38	28.09
458.56	28.09
458.74	0.00
458.93	98.30
459.11	23.41
459.29	74.90
459.48	39.79
459.66	0.00
459.84	79.58
460.03	16.38
460.21	23.41
460.39	60.85
460.57	11.70
460.76	42.13
460.94	35.11
461.12	53.83
461.31	60.85
461.49	0.00
461.67	0.00
461.85	42.13
462.04	37.45
462.22	4.68
462.40	77.24
462.59	18.72
462.77	77.24
462.95	25.75
463.13	93.62
463.32	11.70
463.50	84.26
463.68	16.38
463.86	37.45
464.05	11.70
464.23	72.56
464.41	23.41
464.59	0.00
464.78	37.45
464.96	53.83
465.14	86.60
465.32	77.24
465.50	25.75
465.69	0.00
465.87	86.60
466.05	124.05
466.23	11.70
466.41	11.70
466.60	49.15
466.78	0.00
466.96	16.38
467.14	0.00
467.32	4.68
467.51	35.11
467.69	32.77
467.87	18.72
468.05	51.49
468.23	67.88
468.41	21.06
468.60	98.30
468.78	86.60
468.96	18.72
469.14	42.13
469.32	65.54
469.50	11.70
469.69	79.58
469.87	16.38
470.05	9.36
470.23	42.13
470.41	0.00
470.59	67.88
470.77	18.72
470.95	28.09
471.14	49.15
471.32	28.09
471.50	32.77
471.68	110.01
471.86	58.51
472.04	42.13
472.22	9.36
472.40	28.09
472.58	63.19
472.77	93.62
472.95	30.43
473.13	25.75
473.31	51.49
473.49	0.00
473.67	7.02
473.85	114.69
474.03	0.00
474.21	18.72
474.39	100.64
474.57	28.09
474.75	23.41
474.93	51.49
475.12	0.00
475.30	0.00
475.48	21.06
475.66	30.43
475.84	67.88
476.02	39.79
476.20	9.36
476.38	32.77
476.56	37.45
476.74	0.00
476.92	37.45
477.10	60.85
477.28	39.79
477.46	95.96
477.64	0.00
477.82	0.00
478.00	28.09
478.18	74.90
478.36	0.00
478.54	21.06
478.72	72.56
478.90	0.00
479.08	37.45
479.26	51.49
479.44	11.70
479.62	30.43
479.80	58.51
479.98	35.11
480.16	42.13
480.34	9.36
480.52	9.36
480.70	72.56
480.88	51.49
481.06	18.72
481.24	46.81
481.41	0.00
481.59	0.00
481.77	0.00
481.95	32.77
482.13	32.77
482.31	63.19
482.49	133.41
482.67	53.83
482.85	128.73
483.03	4.68
483.21	58.51
483.39	11.70
483.57	4.68
483.74	0.00
483.92	138.09
484.10	42.13
484.28	58.51
484.46	32.77
484.64	88.94
484.82	7.02
485.00	0.00
485.18	46.81
485.35	0.00
485.53	0.00
485.71	79.58
485.89	56.17
486.07	67.88
486.25	35.11
486.43	14.04
486.61	16.38
486.78	114.69
486.96	37.45
487.14	39.79
487.32	56.17
487.50	0.00
487.68	37.45
487.85	72.56
488.03	51.49
488.21	42.13
488.39	72.56
488.57	107.66
488.75	18.72
488.92	49.15
489.10	56.17
489.28	65.54
489.46	70.22
489.64	32.77
489.81	11.70
489.99	70.22
490.17	37.45
490.35	56.17
490.53	0.00
490.70	7.02
490.88	110.01
491.06	39.79
491.24	0.00
491.41	9.36
491.59	37.45
491.77	56.17
491.95	4.68
492.13	58.51
492.30	56.17
492.48	65.54
492.66	16.38
492.84	0.00
493.01	37.45
493.19	11.70
493.37	37.45
493.54	102.98
493.72	37.45
493.90	35.11
494.08	0.00
494.25	14.04
494.43	53.83
494.61	44.47
494.79	60.85
494.96	65.54
495.14	39.79
495.32	79.58
495.49	11.70
495.67	16.38
495.85	9.36
496.02	0.00
496.20	4.68
496.38	16.38
496.55	81.92
496.73	14.04
496.91	53.83
497.09	18.72
497.26	72.56
497.44	0.00
497.62	18.72
497.79	0.00
497.97	79.58
498.14	107.66
498.32	32.77
498.50	0.00
498.67	60.85
498.85	44.47
499.03	67.88
499.20	35.11
499.38	35.11
499.56	121.71
499.73	30.43
499.91	114.69
500.08	65.54
500.26	67.88
500.44	25.75
500.61	84.26
500.79	51.49
500.97	18.72
501.14	117.03
501.32	60.85
501.49	86.60
501.67	88.94
501.84	0.00
502.02	51.49
502.20	70.22
502.37	0.00
502.55	7.02
502.72	44.47
502.90	0.00
503.07	95.96
503.25	95.96
503.43	58.51
503.60	77.24
503.78	0.00
503.95	56.17
504.13	7.02
504.30	70.22
504.48	88.94
504.65	56.17
504.83	37.45
505.01	0.00
505.18	79.58
505.36	0.00
505.53	91.28
505.71	7.02
505.88	0.00
506.06	70.22
506.23	102.98
506.41	93.62
506.58	46.81
506.76	0.00
506.93	32.77
507.11	0.00
507.28	88.94
507.46	72.56
507.63	7.02
507.81	0.00
507.98	21.06
508.16	74.90
508.33	70.22
508.50	14.04
508.68	0.00
508.85	0.00
509.03	0.00
509.20	0.00
509.38	0.00
509.55	0.00
509.73	37.45
509.90	107.66
510.08	67.88
510.25	95.96
510.42	65.54
510.60	77.24
510.77	44.47
510.95	58.51
511.12	74.90
511.30	49.15
511.47	84.26
511.64	74.90
511.82	77.24
511.99	81.92
512.17	0.00
512.34	93.62
512.51	18.72
512.69	23.41
512.86	7.02
513.04	23.41
513.21	60.85
513.38	37.45
513.56	18.72
513.73	9.36
513.90	63.19
514.08	72.56
514.25	70.22
514.43	74.90
514.60	88.94
514.77	0.00
514.95	39.79
515.12	91.28
515.29	102.98
515.47	0.00
515.64	14.04
515.81	18.72
515.99	44.47
516.16	56.17
516.33	0.00
516.51	72.56
516.68	70.22
516.85	126.39
517.03	9.36
517.20	67.88
517.37	42.13
517.54	9.36
517.72	88.94
517.89	28.09
518.06	0.00
518.24	44.47
518.41	23.41
518.58	18.72
518.75	0.00
518.93	91.28
519.10	37.45
519.27	42.13
519.45	102.98
519.62	25.75
519.79	32.77
519.96	58.51
520.14	32.77
520.31	77.24
520.48	37.45
520.65	4.68
520.83	14.04
521.00	0.00
521.17	67.88
521.34	0.00
521.52	11.70
521.69	91.28
521.86	18.72
522.03	32.77
522.20	42.13
522.38	37.45
522.55	70.22
522.72	16.38
522.89	7.02
523.07	0.00
523.24	93.62
523.41	42.13
523.58	77.24
523.75	4.68
523.92	11.70
524.10	14.04
524.27	65.54
524.44	98.30
524.61	0.00
524.78	2.34
524.96	0.00
525.13	93.62
525.30	133.41
525.47	77.24
525.64	60.85
525.81	51.49
525.98	25.75
526.16	4.68
526.33	23.41
526.50	0.00
526.67	0.00
526.84	93.62
527.01	28.09
527.18	0.00
527.36	28.09
527.53	42.13
527.70	39.79
527.87	117.03
528.04	84.26
528.21	67.88
528.38	58.51
528.55	65.54
528.72	60.85
528.89	70.22
529.07	14.04
529.24	21.06
529.41	9.36
529.58	53.83
529.75	51.49
529.92	70.22
530.09	49.15
530.26	88.94
530.43	74.90
530.60	37.45
530.77	0.00
530.94	102.98
531.11	30.43
531.28	44.47
531.46	42.13
531.63	56.17
531.80	72.56
531.97	77.24
532.14	23.41
532.31	30.43
532.48	30.43
532.65	25.75
532.82	39.79
532.99	63.19
533.16	70.22
533.33	93.62
533.50	86.60
533.67	18.72
533.84	23.41
534.01	112.35
534.18	53.83
534.35	4.68
534.52	16.38
534.69	79.58
534.86	67.88
535.03	79.58
535.20	53.83
535.37	46.81
535.54	133.41
535.71	0.00
535.88	11.70
536.05	16.38
536.22	74.90
536.38	18.72
536.55	74.90
536.72	37.45
536.89	67.88
537.06	11.70
537.23	42.13
537.40	37.45
537.57	93.62
537.74	14.04
537.91	0.00
538.08	81.92
538.25	53.83
538.42	91.28
538.59	56.17
538.75	9.36
538.92	32.77
539.09	100.64
539.26	86.60
539.43	49.15
539.60	128.73
539.77	205.97
539.94	255.12
540.11	194.26
540.28	58.51
540.44	86.60
540.61	131.07
540.78	28.09
540.95	0.00
541.12	79.58
541.29	23.41
541.46	86.60
541.62	0.00
541.79	11.70
541.96	25.75
542.13	49.15
542.30	0.00
542.47	51.49
542.63	63.19
542.80	28.09
542.97	84.26
543.14	39.79
543.31	74.90
543.48	25.75
543.64	9.36
543.81	4.68
543.98	51.49
544.15	70.22
544.32	51.49
544.48	35.11
544.65	11.70
544.82	11.70
544.99	114.69
545.16	126.39
545.32	14.04
545.49	14.04
545.66	58.51
545.83	93.62
546.00	32.77
546.16	42.13
546.33	11.70
546.50	18.72
546.67	79.58
546.83	65.54
547.00	23.41
547.17	35.11
547.34	18.72
547.50	72.56
547.67	51.49
547.84	21.06
548.00	9.36
548.17	72.56
548.34	53.83
548.51	39.79
548.67	67.88
548.84	30.43
549.01	67.88
549.18	30.43
549.34	58.51
549.51	9.36
549.68	14.04
549.84	0.00
550.01	37.45
550.18	23.41
550.34	65.54
550.51	4.68
550.68	44.47
550.84	11.70
551.01	23.41
551.18	84.26
551.34	28.09
551.51	0.00
551.68	0.00
551.84	32.77
552.01	44.47
552.18	2.34
552.34	0.00
552.51	0.00
552.68	0.00
552.84	53.83
553.01	18.72
553.18	4.68
553.34	28.09
553.51	44.47
553.67	67.88
553.84	35.11
554.01	67.88
554.17	86.60
554.34	46.81
554.51	63.19
554.67	79.58
554.84	58.51
555.00	0.00
555.17	77.24
555.33	65.54
555.50	74.90
555.67	65.54
555.83	16.38
556.00	81.92
556.16	23.41
556.33	79.58
556.50	102.98
556.66	60.85
556.83	95.96
556.99	0.00
557.16	9.36
557.32	0.00
557.49	74.90
557.65	9.36
557.82	4.68
557.98	114.69
558.15	70.22
558.32	56.17
558.48	117.03
558.65	11.70
558.81	65.54
558.98	39.79
559.14	100.64
559.31	77.24
559.47	14.04
559.64	53.83
559.80	79.58
559.97	107.66
560.13	0.00
560.30	7.02
560.46	32.77
560.63	14.04
560.79	44.47
560.96	21.06
561.12	126.39
561.29	35.11
561.45	60.85
561.61	35.11
561.78	53.83
561.94	67.88
562.11	42.13
562.27	107.66
562.44	91.28
562.60	0.00
562.77	56.17
562.93	121.71
563.10	81.92
563.26	0.00
563.42	93.62
563.59	49.15
563.75	0.00
563.92	51.49
564.08	0.00
564.24	49.15
564.41	18.72
564.57	11.70
564.74	44.47
564.90	37.45
565.07	0.00
565.23	37.45
565.39	124.05
565.56	37.45
565.72	51.49
565.88	16.38
566.05	67.88
566.21	60.85
566.38	49.15
566.54	14.04
566.70	32.77
566.87	23.41
567.03	0.00
567.19	77.24
567.36	42.13
567.52	44.47
567.68	46.81
567.85	79.58
568.01	51.49
568.17	84.26
568.34	65.54
568.50	58.51
568.66	7.02
568.83	72.56
568.99	81.92
569.15	46.81
569.32	67.88
569.48	11.70
569.64	42.13
569.81	0.00
569.97	72.56
570.13	84.26
570.30	30.43
570.46	142.77
570.62	0.00
570.78	39.79
570.95	44.47
571.11	4.68
571.27	7.02
571.43	0.00
571.60	72.56
571.76	42.13
571.92	46.81
572.09	46.81
572.25	102.98
572.41	133.41
572.57	77.24
572.74	67.88
572.90	25.75
573.06	102.98
573.22	100.64
573.38	0.00
573.55	39.79
573.71	53.83
573.87	58.51
574.03	0.00
574.20	0.00
574.36	56.17
574.52	145.11
574.68	49.15
574.84	51.49
575.01	23.41
575.17	0.00
575.33	39.79
575.49	74.90
575.65	21.06
575.82	126.39
575.98	51.49
576.14	86.60
576.30	135.75
576.46	114.69
576.62	49.15
576.79	70.22
576.95	74.90
577.11	58.51
577.27	28.09
577.43	14.04
577.59	11.70
577.75	58.51
577.92	35.11
578.08	4.68
578.24	0.00
578.40	67.88
578.56	56.17
578.72	9.36
578.88	110.01
579.04	140.43
579.21	49.15
579.37	107.66
579.53	70.22
579.69	72.56
579.85	84.26
580.01	91.28
580.17	21.06
580.33	65.54
580.49	25.75
580.65	88.94
580.82	28.09
580.98	44.47
581.14	9.36
581.30	91.28
581.46	67.88
581.62	105.32
581.78	105.32
581.94	77.24
582.10	114.69
582.26	58.51
582.42	81.92
582.58	98.30
582.74	121.71
582.90	60.85
583.06	58.51
583.22	60.85
583.38	74.90
583.54	112.35
583.70	140.43
583.86	72.56
584.02	149.79
584.18	133.41
584.34	177.88
584.50	496.19
584.66	3379.73
584.82	8145.06
584.98	11763.53
585.14	10087.71
585.30	6649.46
585.46	3854.86
585.62	2424.80
585.78	1149.20
585.94	505.56
586.10	255.12
586.26	72.56
586.42	114.69
586.58	77.24
586.74	37.45
586.90	126.39
587.06	86.60
587.22	124.05
587.38	72.56
587.54	168.52
587.70	454.06
587.86	793.44
588.02	912.81
588.18	638.97
588.34	402.57
588.49	294.91
588.65	217.67
588.81	100.64
588.97	79.58
589.13	67.88
589.29	145.11
589.45	77.24
589.61	63.19
589.77	135.75
589.93	105.32
590.08	60.85
590.24	84.26
590.40	58.51
590.56	102.98
590.72	39.79
590.88	42.13
591.04	102.98
591.20	65.54
591.35	65.54
591.51	79.58
591.67	100.64
591.83	18.72
591.99	63.19
592.15	65.54
592.31	30.43
592.46	65.54
592.62	58.51
592.78	46.81
592.94	91.28
593.10	44.47
593.26	74.90
593.41	11.70
593.57	37.45
593.73	77.24
593.89	482.15
594.05	1018.13
594.20	1474.54
594.36	1320.06
594.52	978.34
594.68	575.77
594.84	407.25
594.99	224.69
595.15	138.09
595.31	65.54
595.47	102.98
595.62	72.56
595.78	119.37
595.94	56.17
596.10	60.85
596.25	35.11
596.41	149.79
596.57	37.45
596.73	53.83
596.88	39.79
597.04	250.44
597.20	250.44
597.36	397.89
597.51	322.99
597.67	194.26
597.83	105.32
597.99	51.49
598.14	21.06
598.30	72.56
598.46	49.15
598.61	21.06
598.77	49.15
598.93	25.75
599.09	63.19
599.24	72.56
599.40	42.13
599.56	46.81
599.71	0.00
599.87	4.68
600.03	32.77
600.18	42.13
600.34	72.56
600.50	9.36
600.65	135.75
600.81	65.54
600.97	121.71
601.12	0.00
601.28	32.77
601.44	44.47
601.59	4.68
601.75	95.96
601.91	49.15
602.06	7.02
602.22	23.41
602.37	91.28
602.53	276.18
602.69	369.80
602.84	397.89
603.00	292.57
603.16	227.03
603.31	119.37
603.47	77.24
603.62	37.45
603.78	63.19
603.94	70.22
604.09	58.51
604.25	14.04
604.40	9.36
604.56	65.54
604.71	32.77
604.87	30.43
605.03	91.28
605.18	63.19
605.34	56.17
605.49	145.11
605.65	16.38
605.80	74.90
605.96	0.00
606.12	114.69
606.27	14.04
606.43	105.32
606.58	39.79
606.74	149.79
606.89	510.24
607.05	957.28
607.20	1240.48
607.36	950.26
607.51	770.04
607.67	407.25
607.82	311.29
607.98	208.31
608.13	88.94
608.29	117.03
608.44	63.19
608.60	112.35
608.75	91.28
608.91	255.12
609.06	732.59
609.22	1579.86
609.37	2115.84
609.53	1893.49
609.68	1270.91
609.84	819.19
609.99	531.30
610.15	271.50
610.30	217.67
610.46	81.92
610.61	128.73
610.76	152.13
610.92	49.15
611.07	35.11
611.23	119.37
611.38	91.28
611.54	42.13
611.69	46.81
611.84	77.24
612.00	91.28
612.15	88.94
612.31	14.04
612.46	119.37
612.62	100.64
612.77	140.43
612.92	81.92
613.08	95.96
613.23	49.15
613.39	51.49
613.54	105.32
613.69	702.16
613.85	2040.95
614.00	3269.73
614.15	3466.33
614.31	2413.09
614.46	1636.03
614.62	1146.86
614.77	568.75
614.92	285.55
615.08	145.11
615.23	168.52
615.38	63.19
615.54	117.03
615.69	105.32
615.84	463.43
616.00	746.63
616.15	922.17
616.30	718.54
616.46	447.04
616.61	360.44
616.76	311.29
616.92	91.28
617.07	81.92
617.22	95.96
617.37	65.54
617.53	72.56
617.68	58.51
617.83	30.43
617.99	18.72
618.14	37.45
618.29	0.00
618.45	39.79
618.60	14.04
618.75	25.75
618.90	37.45
619.06	67.88
619.21	107.66
619.36	39.79
619.51	25.75
619.67	44.47
619.82	65.54
619.97	30.43
620.12	91.28
620.28	56.17
620.43	11.70
620.58	65.54
620.73	58.51
620.89	72.56
621.04	124.05
621.19	229.37
621.34	409.59
621.49	606.20
621.65	458.74
621.80	327.68
621.95	308.95
622.10	245.76
622.25	95.96
622.41	70.22
622.56	42.13
622.71	95.96
622.86	32.77
623.01	49.15
623.16	4.68
623.32	37.45
623.47	32.77
623.62	98.30
623.77	0.00
623.92	63.19
624.07	28.09
624.23	46.81
624.38	51.49
624.53	0.00
624.68	84.26
624.83	18.72
624.98	23.41
625.13	102.98
625.29	60.85
625.44	67.88
625.59	63.19
625.74	39.79
625.89	77.24
626.04	365.12
626.19	1083.67
626.34	1614.97
626.49	1806.89
626.65	1430.07
626.80	978.34
626.95	716.20
627.10	440.02
627.25	194.26
627.40	86.60
627.55	102.98
627.70	95.96
627.85	56.17
628.00	51.49
628.15	105.32
628.30	79.58
628.45	18.72
628.60	51.49
628.76	49.15
628.91	0.00
629.06	51.49
629.21	35.11
629.36	0.00
629.51	44.47
629.66	51.49
629.81	98.30
629.96	243.42
630.11	404.91
630.26	447.04
630.41	465.77
630.56	376.83
630.71	177.88
630.86	187.24
631.01	88.94
631.16	74.90
631.31	56.17
631.46	74.90
631.61	70.22
631.76	67.88
631.91	0.00
632.06	121.71
632.21	121.71
632.36	72.56
632.51	58.51
632.66	9.36
632.81	173.20
632.96	615.56
633.10	1018.13
633.25	1228.78
633.40	1081.33
633.55	727.91
633.70	512.58
633.85	365.12
634.00	173.20
634.15	234.05
634.30	56.17
634.45	105.32
634.60	105.32
634.75	102.98
634.90	95.96
635.05	95.96
635.19	142.77
635.34	35.11
635.49	21.06
635.64	49.15
635.79	67.88
635.94	72.56
636.09	58.51
636.24	39.79
636.39	35.11
636.53	51.49
636.68	44.47
636.83	30.43
636.98	84.26
637.13	110.01
637.28	138.09
637.43	107.66
637.57	77.24
637.72	496.19
637.87	1296.66
638.02	2090.10
638.17	2277.34
638.32	1668.80
638.46	1088.35
638.61	730.25
638.76	400.23
638.91	163.84
639.06	124.05
639.20	131.07
639.35	107.66
639.50	166.18
639.65	697.48
639.80	2024.56
639.94	3225.26
640.09	3496.76
640.24	2553.52
640.39	1694.55
640.54	1109.41
640.68	657.69
640.83	393.21
640.98	182.56
641.13	93.62
641.27	140.43
641.42	44.47
641.57	28.09
641.72	11.70
641.86	0.00
642.01	42.13
642.16	105.32
642.31	18.72
642.45	65.54
642.60	39.79
642.75	74.90
642.90	46.81
643.04	95.96
643.19	39.79
643.34	42.13
643.48	117.03
643.63	0.00
643.78	63.19
643.93	72.56
644.07	0.00
644.22	117.03
644.37	65.54
644.51	32.77
644.66	70.22
644.81	16.38
644.95	0.00
645.10	79.58
645.25	98.30
645.39	32.77
645.54	23.41
645.69	0.00
645.83	79.58
645.98	53.83
646.13	56.17
646.27	100.64
646.42	77.24
646.57	60.85
646.71	0.00
646.86	67.88
647.00	79.58
647.15	42.13
647.30	49.15
647.44	14.04
647.59	32.77
647.74	2.34
647.88	86.60
648.03	56.17
648.17	60.85
648.32	128.73
648.47	60.85
648.61	53.83
648.76	32.77
648.90	0.00
649.05	0.00
649.20	21.06
649.34	0.00
649.49	60.85
649.63	70.22
649.78	58.51
649.92	60.85
650.07	273.84
650.21	912.81
650.36	1600.93
650.51	1820.94
650.65	1540.07
650.80	1111.75
650.94	770.04
651.09	512.58
651.23	222.35
651.38	198.95
651.52	58.51
651.67	46.81
651.81	95.96
651.96	60.85
652.10	35.11
652.25	28.09
652.39	39.79
652.54	72.56
652.68	98.30
652.83	276.18
652.97	547.69
653.12	676.41
653.26	631.94
653.41	519.60
653.55	369.80
653.70	250.44
653.84	145.11
653.99	60.85
654.13	53.83
654.27	70.22
654.42	9.36
654.56	63.19
654.71	98.30
654.85	91.28
655.00	67.88
655.14	46.81
655.29	107.66
655.43	65.54
655.57	53.83
655.72	70.22
655.86	72.56
656.01	37.45
656.15	95.96
656.30	28.09
656.44	0.00
656.58	25.75
656.73	95.96
656.87	67.88
657.01	0.00
657.16	112.35
657.30	140.43
657.45	88.94
657.59	88.94
657.73	18.72
657.88	0.00
658.02	28.09
658.16	28.09
658.31	44.47
658.45	0.00
658.60	16.38
658.74	74.90
658.88	25.75
659.03	18.72
659.17	100.64
659.31	161.50
659.46	411.93
659.60	755.99
659.74	894.08
659.89	854.30
660.03	692.80
660.17	454.06
660.32	205.97
660.46	173.20
660.60	65.54
660.74	86.60
660.89	32.77
661.03	53.83
661.17	60.85
661.32	35.11
661.46	0.00
661.60	56.17
661.74	32.77
661.89	72.56
662.03	0.00
662.17	14.04
662.31	88.94
662.46	88.94
662.60	65.54
662.74	205.97
662.88	63.19
663.03	0.00
663.17	14.04
663.31	16.38
663.45	21.06
663.60	0.00
663.74	0.00
663.88	46.81
664.02	79.58
664.17	100.64
664.31	9.36
664.45	2.34
664.59	18.72
664.73	60.85
664.88	51.49
665.02	32.77
665.16	58.51
665.30	74.90
665.44	37.45
665.59	39.79
665.73	44.47
665.87	0.00
666.01	39.79
666.15	11.70
666.29	25.75
666.44	51.49
666.58	70.22
666.72	46.81
666.86	32.77
667.00	25.75
667.14	77.24
667.28	287.89
667.43	681.10
667.57	1219.42
667.71	1533.05
667.85	1397.30
667.99	933.87
668.13	608.54
668.27	381.51
668.41	287.89
668.56	93.62
668.70	63.19
668.84	30.43
668.98	77.24
669.12	67.88
669.26	23.41
669.40	79.58
669.54	86.60
669.68	28.09
669.82	67.88
669.96	35.11
670.10	23.41
670.25	81.92
670.39	0.00
670.53	0.00
670.67	35.11
670.81	30.43
670.95	46.81
671.09	79.58
671.23	315.97
671.37	599.18
671.51	985.37
671.65	1013.45
671.79	868.34
671.93	554.71
672.07	409.59
672.21	217.67
672.35	138.09
672.49	84.26
672.63	28.09
672.77	35.11
672.91	0.00
673.05	131.07
673.19	86.60
673.33	46.81
673.47	72.56
673.61	0.00
673.75	0.00
673.89	51.49
674.03	0.00
674.17	44.47
674.31	56.17
674.45	2.34
674.59	63.19
674.73	0.00
674.87	79.58
675.01	93.62
675.15	100.64
675.29	23.41
675.43	39.79
675.56	0.00
675.70	0.00
675.84	60.85
675.98	9.36
676.12	65.54
676.26	35.11
676.40	60.85
676.54	77.24
676.68	93.62
676.82	84.26
676.96	23.41
677.10	30.43
677.23	0.00
677.37	32.77
677.51	0.00
677.65	102.98
677.79	4.68
677.93	0.00
678.07	4.68
678.21	0.00
678.34	42.13
678.48	51.49
678.62	37.45
678.76	18.72
678.90	0.00
679.04	56.17
679.18	0.00
679.31	0.00
679.45	79.58
679.59	4.68
679.73	72.56
679.87	25.75
680.00	32.77
680.14	77.24
680.28	39.79
680.42	63.19
680.56	74.90
680.70	16.38
680.83	51.49
680.97	4.68
681.11	65.54
681.25	42.13
681.39	100.64
681.52	30.43
681.66	46.81
681.80	32.77
681.94	0.00
682.07	2.34
682.21	4.68
682.35	9.36
682.49	9.36
682.62	0.00
682.76	37.45
682.90	2.34
683.04	58.51
683.17	7.02
683.31	11.70
683.45	32.77
683.59	65.54
683.72	86.60
683.86	63.19
684.00	16.38
684.13	0.00
684.27	16.38
684.41	28.09
684.55	65.54
684.68	65.54
684.82	28.09
684.96	18.72
685.09	35.11
685.23	60.85
685.37	21.06
685.50	56.17
685.64	67.88
685.78	56.17
685.91	79.58
686.05	51.49
686.19	25.75
686.32	23.41
686.46	0.00
686.60	32.77
686.73	30.43
686.87	44.47
687.01	25.75
687.14	0.00
687.28	7.02
687.42	21.06
687.55	32.77
687.69	0.00
687.82	18.72
687.96	0.00
688.10	56.17
688.23	84.26
688.37	14.04
688.50	49.15
688.64	39.79
688.78	32.77
688.91	58.51
689.05	51.49
689.18	58.51
689.32	30.43
689.46	110.01
689.59	60.85
689.73	9.36
689.86	23.41
690.00	60.85
690.13	21.06
690.27	46.81
690.41	0.00
690.54	51.49
690.68	0.00
690.81	21.06
690.95	58.51
691.08	63.19
691.22	63.19
691.35	0.00
691.49	79.58
691.62	74.90
691.76	86.60
691.89	11.70
692.03	105.32
692.16	25.75
692.30	0.00
692.43	81.92
692.57	346.40
692.70	458.74
692.84	667.05
692.97	648.33
693.11	461.09
693.24	297.25
693.38	262.14
693.51	93.62
693.65	72.56
693.78	51.49
693.92	67.88
694.05	16.38
694.19	0.00
694.32	58.51
694.45	4.68
694.59	0.00
694.72	53.83
694.86	4.68
694.99	77.24
695.13	91.28
695.26	42.13
695.39	60.85
695.53	0.00
695.66	42.13
695.80	30.43
695.93	0.00
696.07	0.00
696.20	42.13
696.33	30.43
696.47	102.98
696.60	79.58
696.73	107.66
696.87	9.36
697.00	18.72
697.14	60.85
697.27	93.62
697.40	65.54
697.54	42.13
697.67	53.83
697.80	0.00
697.94	30.43
698.07	11.70
698.21	37.45
698.34	74.90
698.47	37.45
698.61	9.36
698.74	35.11
698.87	63.19
699.01	32.77
699.14	0.00
699.27	0.00
699.40	107.66
699.54	46.81
699.67	0.00
699.80	0.00
699.94	18.72
700.07	11.70
700.20	102.98
700.34	72.56
700.47	4.68
700.60	65.54
700.73	53.83
700.87	58.51
701.00	2.34
701.13	70.22
701.26	7.02
701.40	112.35
701.53	102.98
701.66	51.49
701.79	11.70
701.93	65.54
702.06	25.75
702.19	51.49
702.32	98.30
702.46	102.98
702.59	7.02
702.72	79.58
702.85	360.44
702.99	903.45
703.12	1226.44
703.25	1378.58
703.38	1188.99
703.51	922.17
703.65	847.27
703.78	512.58
703.91	334.70
704.04	131.07
704.17	152.13
704.31	126.39
704.44	105.32
704.57	60.85
704.70	0.00
704.83	0.00
704.96	23.41
705.10	74.90
705.23	16.38
>>>>>End Processed Spectral Data<<<<<
