SpectraSuite Data File
++++++++++++++++++++++++++++++++++++
Date: Fri Oct 04 12:13:36 GMT-05:00 2013
User: price-jones
Dark Spectrum Present: No
Reference Spectrum Present: No
Number of Sampled Component Spectra: 1
Spectrometers: USB2+H05261
Integration Time (usec): 10000 (USB2+H05261)
Spectra Averaged: 1 (USB2+H05261)
Boxcar Smoothing: 0 (USB2+H05261)
Correct for Electrical Dark: No (USB2+H05261)
Strobe/Lamp Enabled: No (USB2+H05261)
Correct for Detector Non-linearity: No (USB2+H05261)
Correct for Stray Light: No (USB2+H05261)
Number of Pixels in Processed Spectrum: 2048
>>>>>Begin Processed Spectral Data<<<<<
365.73	0.00
365.92	0.00
366.12	0.00
366.32	0.00
366.52	0.00
366.72	0.00
366.91	0.00
367.11	0.00
367.31	0.00
367.51	0.00
367.70	0.00
367.90	0.00
368.10	0.00
368.30	0.00
368.49	0.00
368.69	0.00
368.89	0.00
369.09	0.00
369.28	0.00
369.48	0.00
369.68	0.00
369.87	0.00
370.07	0.00
370.27	0.00
370.47	0.00
370.66	0.00
370.86	0.00
371.06	0.00
371.25	16.38
371.45	0.00
371.65	0.00
371.84	0.00
372.04	11.70
372.24	0.00
372.44	0.00
372.63	0.00
372.83	0.00
373.03	25.75
373.22	9.36
373.42	0.00
373.62	0.00
373.81	46.81
374.01	84.26
374.21	0.00
374.40	53.83
374.60	21.06
374.79	25.75
374.99	63.19
375.19	114.69
375.38	23.41
375.58	9.36
375.78	91.28
375.97	28.09
376.17	70.22
376.37	18.72
376.56	9.36
376.76	21.06
376.95	16.38
377.15	23.41
377.35	60.85
377.54	0.00
377.74	49.15
377.93	35.11
378.13	49.15
378.33	0.00
378.52	30.43
378.72	25.75
378.91	9.36
379.11	49.15
379.31	0.00
379.50	44.47
379.70	9.36
379.89	21.06
380.09	49.15
380.28	23.41
380.48	98.30
380.68	0.00
380.87	32.77
381.07	35.11
381.26	56.17
381.46	63.19
381.65	0.00
381.85	60.85
382.04	23.41
382.24	0.00
382.43	44.47
382.63	9.36
382.83	0.00
383.02	25.75
383.22	0.00
383.41	35.11
383.61	0.00
383.80	21.06
384.00	42.13
384.19	0.00
384.39	18.72
384.58	65.54
384.78	63.19
384.97	86.60
385.17	30.43
385.36	0.00
385.56	0.00
385.75	37.45
385.95	65.54
386.14	16.38
386.34	32.77
386.53	32.77
386.72	46.81
386.92	9.36
387.11	49.15
387.31	42.13
387.50	0.00
387.70	42.13
387.89	70.22
388.09	98.30
388.28	42.13
388.48	86.60
388.67	0.00
388.86	11.70
389.06	4.68
389.25	16.38
389.45	0.00
389.64	28.09
389.84	65.54
390.03	0.00
390.22	93.62
390.42	0.00
390.61	23.41
390.81	9.36
391.00	65.54
391.19	53.83
391.39	37.45
391.58	32.77
391.78	0.00
391.97	35.11
392.16	0.00
392.36	56.17
392.55	32.77
392.75	42.13
392.94	39.79
393.13	0.00
393.33	74.90
393.52	39.79
393.71	25.75
393.91	9.36
394.10	77.24
394.29	0.00
394.49	88.94
394.68	49.15
394.88	35.11
395.07	65.54
395.26	0.00
395.46	35.11
395.65	37.45
395.84	4.68
396.04	65.54
396.23	0.00
396.42	65.54
396.62	21.06
396.81	49.15
397.00	18.72
397.19	44.47
397.39	0.00
397.58	44.47
397.77	0.00
397.97	16.38
398.16	25.75
398.35	93.62
398.55	88.94
398.74	0.00
398.93	77.24
399.12	25.75
399.32	0.00
399.51	32.77
399.70	0.00
399.90	30.43
400.09	23.41
400.28	81.92
400.47	79.58
400.67	37.45
400.86	23.41
401.05	65.54
401.24	84.26
401.44	42.13
401.63	37.45
401.82	72.56
402.01	16.38
402.21	60.85
402.40	28.09
402.59	0.00
402.78	28.09
402.97	35.11
403.17	49.15
403.36	58.51
403.55	30.43
403.74	72.56
403.93	0.00
404.13	32.77
404.32	35.11
404.51	0.00
404.70	25.75
404.89	9.36
405.09	95.96
405.28	0.00
405.47	60.85
405.66	65.54
405.85	60.85
406.05	124.05
406.24	0.00
406.43	0.00
406.62	42.13
406.81	63.19
407.00	51.49
407.20	0.00
407.39	63.19
407.58	88.94
407.77	37.45
407.96	30.43
408.15	30.43
408.34	46.81
408.54	0.00
408.73	88.94
408.92	0.00
409.11	21.06
409.30	32.77
409.49	126.39
409.68	91.28
409.87	42.13
410.07	42.13
410.26	30.43
410.45	28.09
410.64	49.15
410.83	65.54
411.02	0.00
411.21	60.85
411.40	18.72
411.59	42.13
411.78	28.09
411.98	51.49
412.17	25.75
412.36	91.28
412.55	23.41
412.74	56.17
412.93	25.75
413.12	30.43
413.31	21.06
413.50	44.47
413.69	9.36
413.88	35.11
414.07	39.79
414.26	49.15
414.45	65.54
414.64	42.13
414.83	46.81
415.02	58.51
415.22	4.68
415.41	30.43
415.60	74.90
415.79	58.51
415.98	32.77
416.17	110.01
416.36	30.43
416.55	21.06
416.74	0.00
416.93	51.49
417.12	30.43
417.31	53.83
417.50	18.72
417.69	84.26
417.88	35.11
418.07	25.75
418.26	11.70
418.45	74.90
418.64	53.83
418.83	37.45
419.02	65.54
419.21	72.56
419.39	0.00
419.58	42.13
419.77	16.38
419.96	18.72
420.15	16.38
420.34	77.24
420.53	0.00
420.72	56.17
420.91	72.56
421.10	44.47
421.29	65.54
421.48	53.83
421.67	70.22
421.86	32.77
422.05	9.36
422.24	23.41
422.43	46.81
422.61	25.75
422.80	25.75
422.99	60.85
423.18	44.47
423.37	11.70
423.56	18.72
423.75	2.34
423.94	60.85
424.13	67.88
424.32	28.09
424.50	0.00
424.69	0.00
424.88	46.81
425.07	18.72
425.26	93.62
425.45	100.64
425.64	30.43
425.83	16.38
426.01	60.85
426.20	42.13
426.39	74.90
426.58	81.92
426.77	21.06
426.96	39.79
427.15	28.09
427.33	16.38
427.52	63.19
427.71	39.79
427.90	88.94
428.09	37.45
428.28	35.11
428.46	39.79
428.65	58.51
428.84	110.01
429.03	42.13
429.22	2.34
429.40	14.04
429.59	7.02
429.78	74.90
429.97	67.88
430.16	42.13
430.34	37.45
430.53	44.47
430.72	77.24
430.91	42.13
431.10	63.19
431.28	79.58
431.47	0.00
431.66	152.13
431.85	58.51
432.03	81.92
432.22	84.26
432.41	2.34
432.60	51.49
432.79	30.43
432.97	49.15
433.16	37.45
433.35	11.70
433.54	110.01
433.72	0.00
433.91	135.75
434.10	0.00
434.28	0.00
434.47	4.68
434.66	84.26
434.85	67.88
435.03	51.49
435.22	23.41
435.41	95.96
435.59	4.68
435.78	65.54
435.97	56.17
436.16	53.83
436.34	32.77
436.53	28.09
436.72	102.98
436.90	107.66
437.09	21.06
437.28	56.17
437.46	51.49
437.65	0.00
437.84	56.17
438.02	7.02
438.21	58.51
438.40	60.85
438.58	86.60
438.77	74.90
438.96	14.04
439.14	67.88
439.33	84.26
439.52	9.36
439.70	60.85
439.89	37.45
440.08	18.72
440.26	44.47
440.45	16.38
440.63	77.24
440.82	30.43
441.01	56.17
441.19	42.13
441.38	32.77
441.57	182.56
441.75	0.00
441.94	56.17
442.12	53.83
442.31	67.88
442.50	72.56
442.68	58.51
442.87	30.43
443.05	65.54
443.24	39.79
443.43	74.90
443.61	39.79
443.80	131.07
443.98	39.79
444.17	37.45
444.35	63.19
444.54	91.28
444.73	23.41
444.91	30.43
445.10	39.79
445.28	58.51
445.47	46.81
445.65	60.85
445.84	23.41
446.02	23.41
446.21	0.00
446.39	100.64
446.58	112.35
446.77	21.06
446.95	51.49
447.14	30.43
447.32	35.11
447.51	28.09
447.69	67.88
447.88	32.77
448.06	133.41
448.25	46.81
448.43	28.09
448.62	14.04
448.80	58.51
448.99	25.75
449.17	21.06
449.36	81.92
449.54	46.81
449.73	56.17
449.91	114.69
450.10	110.01
450.28	46.81
450.46	60.85
450.65	86.60
450.83	0.00
451.02	25.75
451.20	84.26
451.39	0.00
451.57	67.88
451.76	77.24
451.94	56.17
452.13	70.22
452.31	81.92
452.49	58.51
452.68	114.69
452.86	74.90
453.05	86.60
453.23	0.00
453.42	100.64
453.60	100.64
453.78	32.77
453.97	32.77
454.15	79.58
454.34	53.83
454.52	28.09
454.70	79.58
454.89	56.17
455.07	44.47
455.26	44.47
455.44	23.41
455.62	9.36
455.81	14.04
455.99	49.15
456.17	105.32
456.36	142.77
456.54	91.28
456.73	14.04
456.91	93.62
457.09	74.90
457.28	18.72
457.46	79.58
457.64	23.41
457.83	110.01
458.01	100.64
458.19	25.75
458.38	56.17
458.56	58.51
458.74	72.56
458.93	23.41
459.11	79.58
459.29	11.70
459.48	14.04
459.66	30.43
459.84	119.37
460.03	46.81
460.21	98.30
460.39	44.47
460.57	79.58
460.76	14.04
460.94	30.43
461.12	18.72
461.31	88.94
461.49	14.04
461.67	98.30
461.85	86.60
462.04	0.00
462.22	67.88
462.40	60.85
462.59	35.11
462.77	67.88
462.95	56.17
463.13	86.60
463.32	51.49
463.50	14.04
463.68	11.70
463.86	35.11
464.05	91.28
464.23	11.70
464.41	84.26
464.59	58.51
464.78	9.36
464.96	79.58
465.14	28.09
465.32	107.66
465.50	46.81
465.69	14.04
465.87	0.00
466.05	60.85
466.23	72.56
466.41	102.98
466.60	30.43
466.78	0.00
466.96	74.90
467.14	53.83
467.32	56.17
467.51	25.75
467.69	39.79
467.87	65.54
468.05	51.49
468.23	67.88
468.41	72.56
468.60	98.30
468.78	35.11
468.96	72.56
469.14	56.17
469.32	70.22
469.50	35.11
469.69	16.38
469.87	63.19
470.05	77.24
470.23	56.17
470.41	81.92
470.59	23.41
470.77	4.68
470.95	28.09
471.14	77.24
471.32	23.41
471.50	58.51
471.68	114.69
471.86	0.00
472.04	121.71
472.22	105.32
472.40	56.17
472.58	67.88
472.77	16.38
472.95	0.00
473.13	81.92
473.31	98.30
473.49	23.41
473.67	112.35
473.85	49.15
474.03	42.13
474.21	65.54
474.39	56.17
474.57	53.83
474.75	11.70
474.93	100.64
475.12	49.15
475.30	0.00
475.48	32.77
475.66	51.49
475.84	65.54
476.02	65.54
476.20	30.43
476.38	79.58
476.56	100.64
476.74	0.00
476.92	9.36
477.10	60.85
477.28	53.83
477.46	0.00
477.64	100.64
477.82	21.06
478.00	77.24
478.18	37.45
478.36	56.17
478.54	46.81
478.72	56.17
478.90	56.17
479.08	18.72
479.26	91.28
479.44	102.98
479.62	16.38
479.80	14.04
479.98	65.54
480.16	23.41
480.34	51.49
480.52	51.49
480.70	72.56
480.88	56.17
481.06	117.03
481.24	128.73
481.41	25.75
481.59	67.88
481.77	110.01
481.95	95.96
482.13	53.83
482.31	72.56
482.49	0.00
482.67	37.45
482.85	112.35
483.03	98.30
483.21	135.75
483.39	67.88
483.57	0.00
483.74	21.06
483.92	112.35
484.10	81.92
484.28	53.83
484.46	11.70
484.64	56.17
484.82	32.77
485.00	84.26
485.18	147.45
485.35	117.03
485.53	53.83
485.71	16.38
485.89	44.47
486.07	56.17
486.25	86.60
486.43	81.92
486.61	49.15
486.78	107.66
486.96	35.11
487.14	84.26
487.32	126.39
487.50	107.66
487.68	86.60
487.85	56.17
488.03	124.05
488.21	133.41
488.39	30.43
488.57	107.66
488.75	60.85
488.92	131.07
489.10	121.71
489.28	110.01
489.46	37.45
489.64	58.51
489.81	42.13
489.99	72.56
490.17	72.56
490.35	58.51
490.53	35.11
490.70	98.30
490.88	84.26
491.06	39.79
491.24	0.00
491.41	105.32
491.59	30.43
491.77	107.66
491.95	93.62
492.13	86.60
492.30	86.60
492.48	53.83
492.66	81.92
492.84	56.17
493.01	65.54
493.19	42.13
493.37	0.00
493.54	184.90
493.72	98.30
493.90	77.24
494.08	4.68
494.25	0.00
494.43	46.81
494.61	98.30
494.79	124.05
494.96	119.37
495.14	49.15
495.32	60.85
495.49	35.11
495.67	63.19
495.85	119.37
496.02	32.77
496.20	44.47
496.38	110.01
496.55	74.90
496.73	60.85
496.91	93.62
497.09	35.11
497.26	81.92
497.44	117.03
497.62	32.77
497.79	128.73
497.97	79.58
498.14	138.09
498.32	86.60
498.50	95.96
498.67	128.73
498.85	65.54
499.03	49.15
499.20	67.88
499.38	42.13
499.56	91.28
499.73	100.64
499.91	95.96
500.08	105.32
500.26	37.45
500.44	173.20
500.61	84.26
500.79	84.26
500.97	105.32
501.14	74.90
501.32	67.88
501.49	23.41
501.67	2.34
501.84	93.62
502.02	93.62
502.20	93.62
502.37	128.73
502.55	53.83
502.72	30.43
502.90	119.37
503.07	60.85
503.25	86.60
503.43	37.45
503.60	65.54
503.78	95.96
503.95	105.32
504.13	30.43
504.30	23.41
504.48	0.00
504.65	98.30
504.83	102.98
505.01	67.88
505.18	126.39
505.36	121.71
505.53	67.88
505.71	56.17
505.88	77.24
506.06	86.60
506.23	93.62
506.41	84.26
506.58	70.22
506.76	65.54
506.93	46.81
507.11	35.11
507.28	79.58
507.46	100.64
507.63	93.62
507.81	28.09
507.98	131.07
508.16	46.81
508.33	102.98
508.50	114.69
508.68	133.41
508.85	88.94
509.03	156.82
509.20	98.30
509.38	147.45
509.55	84.26
509.73	112.35
509.90	145.11
510.08	0.00
510.25	107.66
510.42	145.11
510.60	102.98
510.77	98.30
510.95	102.98
511.12	100.64
511.30	51.49
511.47	44.47
511.64	46.81
511.82	42.13
511.99	86.60
512.17	70.22
512.34	135.75
512.51	142.77
512.69	114.69
512.86	138.09
513.04	44.47
513.21	46.81
513.38	105.32
513.56	72.56
513.73	39.79
513.90	79.58
514.08	0.00
514.25	105.32
514.43	0.00
514.60	42.13
514.77	81.92
514.95	53.83
515.12	60.85
515.29	53.83
515.47	51.49
515.64	156.82
515.81	65.54
515.99	63.19
516.16	140.43
516.33	14.04
516.51	51.49
516.68	114.69
516.85	86.60
517.03	88.94
517.20	114.69
517.37	39.79
517.54	35.11
517.72	0.00
517.89	93.62
518.06	63.19
518.24	65.54
518.41	53.83
518.58	138.09
518.75	159.16
518.93	74.90
519.10	84.26
519.27	84.26
519.45	65.54
519.62	102.98
519.79	93.62
519.96	98.30
520.14	46.81
520.31	149.79
520.48	65.54
520.65	46.81
520.83	37.45
521.00	77.24
521.17	84.26
521.34	128.73
521.52	112.35
521.69	93.62
521.86	67.88
522.03	44.47
522.20	28.09
522.38	100.64
522.55	63.19
522.72	14.04
522.89	37.45
523.07	58.51
523.24	147.45
523.41	105.32
523.58	114.69
523.75	112.35
523.92	0.00
524.10	95.96
524.27	105.32
524.44	88.94
524.61	23.41
524.78	39.79
524.96	100.64
525.13	95.96
525.30	128.73
525.47	63.19
525.64	65.54
525.81	77.24
525.98	170.86
526.16	84.26
526.33	84.26
526.50	63.19
526.67	77.24
526.84	65.54
527.01	107.66
527.18	93.62
527.36	112.35
527.53	110.01
527.70	56.17
527.87	88.94
528.04	128.73
528.21	16.38
528.38	91.28
528.55	72.56
528.72	79.58
528.89	9.36
529.07	72.56
529.24	51.49
529.41	135.75
529.58	58.51
529.75	77.24
529.92	91.28
530.09	79.58
530.26	63.19
530.43	42.13
530.60	70.22
530.77	70.22
530.94	44.47
531.11	105.32
531.28	53.83
531.46	119.37
531.63	88.94
531.80	63.19
531.97	114.69
532.14	86.60
532.31	72.56
532.48	93.62
532.65	110.01
532.82	60.85
532.99	60.85
533.16	67.88
533.33	32.77
533.50	70.22
533.67	93.62
533.84	58.51
534.01	107.66
534.18	39.79
534.35	142.77
534.52	93.62
534.69	46.81
534.86	114.69
535.03	95.96
535.20	86.60
535.37	100.64
535.54	84.26
535.71	58.51
535.88	16.38
536.05	88.94
536.22	163.84
536.38	131.07
536.55	44.47
536.72	117.03
536.89	133.41
537.06	35.11
537.23	117.03
537.40	128.73
537.57	70.22
537.74	67.88
537.91	98.30
538.08	0.00
538.25	49.15
538.42	81.92
538.59	58.51
538.75	46.81
538.92	112.35
539.09	77.24
539.26	98.30
539.43	114.69
539.60	102.98
539.77	205.97
539.94	88.94
540.11	23.41
540.28	63.19
540.44	91.28
540.61	70.22
540.78	74.90
540.95	105.32
541.12	124.05
541.29	93.62
541.46	128.73
541.62	86.60
541.79	25.75
541.96	30.43
542.13	53.83
542.30	91.28
542.47	131.07
542.63	74.90
542.80	102.98
542.97	112.35
543.14	98.30
543.31	58.51
543.48	51.49
543.64	126.39
543.81	117.03
543.98	70.22
544.15	105.32
544.32	95.96
544.48	112.35
544.65	93.62
544.82	95.96
544.99	91.28
545.16	135.75
545.32	100.64
545.49	107.66
545.66	119.37
545.83	88.94
546.00	95.96
546.16	72.56
546.33	133.41
546.50	28.09
546.67	70.22
546.83	135.75
547.00	7.02
547.17	70.22
547.34	35.11
547.50	46.81
547.67	91.28
547.84	63.19
548.00	100.64
548.17	30.43
548.34	58.51
548.51	95.96
548.67	65.54
548.84	88.94
549.01	39.79
549.18	124.05
549.34	126.39
549.51	98.30
549.68	81.92
549.84	133.41
550.01	32.77
550.18	72.56
550.34	138.09
550.51	21.06
550.68	126.39
550.84	121.71
551.01	65.54
551.18	105.32
551.34	28.09
551.51	56.17
551.68	86.60
551.84	107.66
552.01	84.26
552.18	49.15
552.34	67.88
552.51	98.30
552.68	74.90
552.84	128.73
553.01	93.62
553.18	72.56
553.34	138.09
553.51	117.03
553.67	93.62
553.84	74.90
554.01	44.47
554.17	46.81
554.34	72.56
554.51	11.70
554.67	46.81
554.84	65.54
555.00	42.13
555.17	42.13
555.33	86.60
555.50	98.30
555.67	91.28
555.83	51.49
556.00	42.13
556.16	91.28
556.33	124.05
556.50	32.77
556.66	91.28
556.83	88.94
556.99	135.75
557.16	70.22
557.32	14.04
557.49	72.56
557.65	67.88
557.82	133.41
557.98	91.28
558.15	56.17
558.32	119.37
558.48	79.58
558.65	74.90
558.81	65.54
558.98	98.30
559.14	117.03
559.31	128.73
559.47	79.58
559.64	102.98
559.80	58.51
559.97	65.54
560.13	72.56
560.30	65.54
560.46	86.60
560.63	184.90
560.79	46.81
560.96	74.90
561.12	147.45
561.29	114.69
561.45	105.32
561.61	67.88
561.78	28.09
561.94	63.19
562.11	65.54
562.27	51.49
562.44	88.94
562.60	79.58
562.77	49.15
562.93	63.19
563.10	149.79
563.26	138.09
563.42	229.37
563.59	93.62
563.75	9.36
563.92	74.90
564.08	42.13
564.24	88.94
564.41	0.00
564.57	56.17
564.74	72.56
564.90	25.75
565.07	124.05
565.23	140.43
565.39	95.96
565.56	56.17
565.72	100.64
565.88	81.92
566.05	70.22
566.21	65.54
566.38	121.71
566.54	39.79
566.70	131.07
566.87	51.49
567.03	81.92
567.19	121.71
567.36	65.54
567.52	58.51
567.68	37.45
567.85	88.94
568.01	117.03
568.17	128.73
568.34	86.60
568.50	2.34
568.66	9.36
568.83	77.24
568.99	140.43
569.15	102.98
569.32	156.82
569.48	100.64
569.64	88.94
569.81	63.19
569.97	56.17
570.13	65.54
570.30	86.60
570.46	35.11
570.62	53.83
570.78	112.35
570.95	161.50
571.11	56.17
571.27	95.96
571.43	114.69
571.60	105.32
571.76	91.28
571.92	63.19
572.09	70.22
572.25	18.72
572.41	28.09
572.57	63.19
572.74	107.66
572.90	128.73
573.06	49.15
573.22	9.36
573.38	49.15
573.55	77.24
573.71	51.49
573.87	95.96
574.03	70.22
574.20	72.56
574.36	46.81
574.52	79.58
574.68	60.85
574.84	105.32
575.01	98.30
575.17	81.92
575.33	0.00
575.49	133.41
575.65	133.41
575.82	88.94
575.98	93.62
576.14	42.13
576.30	98.30
576.46	79.58
576.62	11.70
576.79	77.24
576.95	81.92
577.11	91.28
577.27	30.43
577.43	16.38
577.59	102.98
577.75	58.51
577.92	21.06
578.08	131.07
578.24	46.81
578.40	74.90
578.56	86.60
578.72	117.03
578.88	88.94
579.04	112.35
579.21	65.54
579.37	126.39
579.53	56.17
579.69	49.15
579.85	88.94
580.01	112.35
580.17	117.03
580.33	72.56
580.49	9.36
580.65	70.22
580.82	107.66
580.98	105.32
581.14	37.45
581.30	39.79
581.46	72.56
581.62	35.11
581.78	60.85
581.94	28.09
582.10	58.51
582.26	84.26
582.42	112.35
582.58	60.85
582.74	0.00
582.90	74.90
583.06	74.90
583.22	86.60
583.38	65.54
583.54	49.15
583.70	93.62
583.86	65.54
584.02	114.69
584.18	49.15
584.34	51.49
584.50	37.45
584.66	95.96
584.82	70.22
584.98	70.22
585.14	42.13
585.30	77.24
585.46	65.54
585.62	0.00
585.78	58.51
585.94	114.69
586.10	77.24
586.26	98.30
586.42	88.94
586.58	70.22
586.74	81.92
586.90	63.19
587.06	105.32
587.22	56.17
587.38	88.94
587.54	63.19
587.70	138.09
587.86	46.81
588.02	23.41
588.18	56.17
588.34	105.32
588.49	4.68
588.65	25.75
588.81	74.90
588.97	32.77
589.13	79.58
589.29	0.00
589.45	0.00
589.61	37.45
589.77	77.24
589.93	7.02
590.08	37.45
590.24	7.02
590.40	107.66
590.56	84.26
590.72	67.88
590.88	30.43
591.04	65.54
591.20	67.88
591.35	21.06
591.51	79.58
591.67	39.79
591.83	60.85
591.99	32.77
592.15	67.88
592.31	18.72
592.46	21.06
592.62	70.22
592.78	88.94
592.94	110.01
593.10	126.39
593.26	95.96
593.41	112.35
593.57	95.96
593.73	79.58
593.89	32.77
594.05	63.19
594.20	67.88
594.36	35.11
594.52	51.49
594.68	126.39
594.84	72.56
594.99	128.73
595.15	65.54
595.31	2.34
595.47	98.30
595.62	44.47
595.78	102.98
595.94	67.88
596.10	79.58
596.25	98.30
596.41	58.51
596.57	49.15
596.73	72.56
596.88	14.04
597.04	53.83
597.20	86.60
597.36	102.98
597.51	72.56
597.67	114.69
597.83	16.38
597.99	53.83
598.14	77.24
598.30	70.22
598.46	49.15
598.61	65.54
598.77	86.60
598.93	58.51
599.09	81.92
599.24	107.66
599.40	84.26
599.56	32.77
599.71	138.09
599.87	63.19
600.03	98.30
600.18	100.64
600.34	9.36
600.50	67.88
600.65	93.62
600.81	30.43
600.97	16.38
601.12	77.24
601.28	74.90
601.44	46.81
601.59	126.39
601.75	25.75
601.91	49.15
602.06	81.92
602.22	79.58
602.37	49.15
602.53	102.98
602.69	72.56
602.84	86.60
603.00	131.07
603.16	147.45
603.31	95.96
603.47	102.98
603.62	14.04
603.78	67.88
603.94	74.90
604.09	23.41
604.25	117.03
604.40	121.71
604.56	65.54
604.71	72.56
604.87	7.02
605.03	49.15
605.18	100.64
605.34	72.56
605.49	72.56
605.65	86.60
605.80	56.17
605.96	60.85
606.12	88.94
606.27	100.64
606.43	105.32
606.58	126.39
606.74	46.81
606.89	126.39
607.05	37.45
607.20	93.62
607.36	91.28
607.51	65.54
607.67	56.17
607.82	60.85
607.98	98.30
608.13	44.47
608.29	93.62
608.44	84.26
608.60	84.26
608.75	30.43
608.91	98.30
609.06	72.56
609.22	16.38
609.37	25.75
609.53	93.62
609.68	117.03
609.84	79.58
609.99	14.04
610.15	58.51
610.30	37.45
610.46	114.69
610.61	93.62
610.76	25.75
610.92	53.83
611.07	49.15
611.23	70.22
611.38	9.36
611.54	107.66
611.69	72.56
611.84	32.77
612.00	18.72
612.15	56.17
612.31	95.96
612.46	100.64
612.62	110.01
612.77	0.00
612.92	37.45
613.08	32.77
613.23	32.77
613.39	117.03
613.54	14.04
613.69	107.66
613.85	126.39
614.00	0.00
614.15	44.47
614.31	84.26
614.46	163.84
614.62	63.19
614.77	117.03
614.92	77.24
615.08	102.98
615.23	32.77
615.38	91.28
615.54	30.43
615.69	138.09
615.84	7.02
616.00	53.83
616.15	126.39
616.30	42.13
616.46	65.54
616.61	53.83
616.76	93.62
616.92	70.22
617.07	81.92
617.22	35.11
617.37	98.30
617.53	98.30
617.68	67.88
617.83	74.90
617.99	7.02
618.14	39.79
618.29	77.24
618.45	0.00
618.60	35.11
618.75	0.00
618.90	25.75
619.06	102.98
619.21	79.58
619.36	72.56
619.51	53.83
619.67	93.62
619.82	18.72
619.97	30.43
620.12	30.43
620.28	102.98
620.43	72.56
620.58	84.26
620.73	51.49
620.89	11.70
621.04	128.73
621.19	84.26
621.34	60.85
621.49	28.09
621.65	119.37
621.80	7.02
621.95	65.54
622.10	0.00
622.25	30.43
622.41	110.01
622.56	65.54
622.71	32.77
622.86	4.68
623.01	74.90
623.16	28.09
623.32	84.26
623.47	0.00
623.62	23.41
623.77	25.75
623.92	102.98
624.07	112.35
624.23	67.88
624.38	72.56
624.53	154.48
624.68	117.03
624.83	32.77
624.98	142.77
625.13	91.28
625.29	93.62
625.44	112.35
625.59	0.00
625.74	67.88
625.89	88.94
626.04	93.62
626.19	44.47
626.34	93.62
626.49	70.22
626.65	63.19
626.80	58.51
626.95	70.22
627.10	93.62
627.25	0.00
627.40	46.81
627.55	79.58
627.70	60.85
627.85	53.83
628.00	56.17
628.15	58.51
628.30	51.49
628.45	95.96
628.60	23.41
628.76	0.00
628.91	98.30
629.06	46.81
629.21	102.98
629.36	56.17
629.51	42.13
629.66	105.32
629.81	121.71
629.96	79.58
630.11	84.26
630.26	114.69
630.41	88.94
630.56	65.54
630.71	81.92
630.86	65.54
631.01	56.17
631.16	121.71
631.31	65.54
631.46	105.32
631.61	21.06
631.76	95.96
631.91	152.13
632.06	100.64
632.21	53.83
632.36	81.92
632.51	51.49
632.66	53.83
632.81	51.49
632.96	63.19
633.10	28.09
633.25	133.41
633.40	44.47
633.55	28.09
633.70	70.22
633.85	60.85
634.00	63.19
634.15	4.68
634.30	35.11
634.45	84.26
634.60	95.96
634.75	46.81
634.90	18.72
635.05	46.81
635.19	95.96
635.34	11.70
635.49	74.90
635.64	51.49
635.79	58.51
635.94	81.92
636.09	18.72
636.24	44.47
636.39	23.41
636.53	0.00
636.68	81.92
636.83	86.60
636.98	65.54
637.13	44.47
637.28	51.49
637.43	35.11
637.57	25.75
637.72	65.54
637.87	51.49
638.02	46.81
638.17	112.35
638.32	67.88
638.46	81.92
638.61	63.19
638.76	105.32
638.91	2.34
639.06	72.56
639.20	70.22
639.35	0.00
639.50	11.70
639.65	84.26
639.80	63.19
639.94	67.88
640.09	46.81
640.24	119.37
640.39	105.32
640.54	67.88
640.68	11.70
640.83	4.68
640.98	70.22
641.13	72.56
641.27	23.41
641.42	95.96
641.57	100.64
641.72	121.71
641.86	18.72
642.01	86.60
642.16	0.00
642.31	84.26
642.45	91.28
642.60	98.30
642.75	63.19
642.90	74.90
643.04	0.00
643.19	42.13
643.34	46.81
643.48	44.47
643.63	81.92
643.78	140.43
643.93	77.24
644.07	72.56
644.22	25.75
644.37	30.43
644.51	9.36
644.66	74.90
644.81	44.47
644.95	49.15
645.10	95.96
645.25	95.96
645.39	112.35
645.54	114.69
645.69	60.85
645.83	128.73
645.98	18.72
646.13	35.11
646.27	100.64
646.42	91.28
646.57	0.00
646.71	23.41
646.86	86.60
647.00	98.30
647.15	0.00
647.30	77.24
647.44	9.36
647.59	81.92
647.74	0.00
647.88	74.90
648.03	42.13
648.17	63.19
648.32	0.00
648.47	95.96
648.61	100.64
648.76	42.13
648.90	107.66
649.05	65.54
649.20	44.47
649.34	95.96
649.49	32.77
649.63	105.32
649.78	56.17
649.92	0.00
650.07	35.11
650.21	42.13
650.36	67.88
650.51	2.34
650.65	44.47
650.80	39.79
650.94	121.71
651.09	84.26
651.23	28.09
651.38	32.77
651.52	25.75
651.67	11.70
651.81	95.96
651.96	124.05
652.10	86.60
652.25	124.05
652.39	100.64
652.54	67.88
652.68	0.00
652.83	56.17
652.97	70.22
653.12	16.38
653.26	37.45
653.41	2.34
653.55	0.00
653.70	0.00
653.84	0.00
653.99	95.96
654.13	42.13
654.27	28.09
654.42	0.00
654.56	7.02
654.71	0.00
654.85	107.66
655.00	42.13
655.14	14.04
655.29	0.00
655.43	28.09
655.57	72.56
655.72	18.72
655.86	117.03
656.01	79.58
656.15	35.11
656.30	77.24
656.44	37.45
656.58	49.15
656.73	0.00
656.87	37.45
657.01	37.45
657.16	102.98
657.30	0.00
657.45	110.01
657.59	70.22
657.73	77.24
657.88	105.32
658.02	70.22
658.16	0.00
658.31	28.09
658.45	53.83
658.60	74.90
658.74	58.51
658.88	39.79
659.03	74.90
659.17	42.13
659.31	51.49
659.46	93.62
659.60	23.41
659.74	49.15
659.89	23.41
660.03	53.83
660.17	98.30
660.32	91.28
660.46	35.11
660.60	67.88
660.74	58.51
660.89	91.28
661.03	30.43
661.17	42.13
661.32	65.54
661.46	102.98
661.60	119.37
661.74	37.45
661.89	0.00
662.03	28.09
662.17	51.49
662.31	35.11
662.46	37.45
662.60	119.37
662.74	46.81
662.88	72.56
663.03	46.81
663.17	32.77
663.31	0.00
663.45	77.24
663.60	60.85
663.74	100.64
663.88	2.34
664.02	156.82
664.17	0.00
664.31	102.98
664.45	49.15
664.59	86.60
664.73	0.00
664.88	84.26
665.02	79.58
665.16	84.26
665.30	0.00
665.44	46.81
665.59	42.13
665.73	67.88
665.87	37.45
666.01	91.28
666.15	35.11
666.29	30.43
666.44	0.00
666.58	91.28
666.72	46.81
666.86	72.56
667.00	63.19
667.14	95.96
667.28	37.45
667.43	58.51
667.57	0.00
667.71	93.62
667.85	79.58
667.99	16.38
668.13	65.54
668.27	65.54
668.41	37.45
668.56	63.19
668.70	145.11
668.84	102.98
668.98	114.69
669.12	70.22
669.26	44.47
669.40	56.17
669.54	2.34
669.68	79.58
669.82	81.92
669.96	53.83
670.10	72.56
670.25	102.98
670.39	56.17
670.53	58.51
670.67	42.13
670.81	70.22
670.95	65.54
671.09	0.00
671.23	25.75
671.37	42.13
671.51	56.17
671.65	65.54
671.79	42.13
671.93	0.00
672.07	67.88
672.21	0.00
672.35	98.30
672.49	0.00
672.63	28.09
672.77	4.68
672.91	46.81
673.05	58.51
673.19	16.38
673.33	44.47
673.47	0.00
673.61	35.11
673.75	44.47
673.89	135.75
674.03	28.09
674.17	49.15
674.31	0.00
674.45	65.54
674.59	58.51
674.73	74.90
674.87	23.41
675.01	70.22
675.15	63.19
675.29	65.54
675.43	77.24
675.56	14.04
675.70	65.54
675.84	21.06
675.98	11.70
676.12	86.60
676.26	25.75
676.40	14.04
676.54	105.32
676.68	18.72
676.82	42.13
676.96	60.85
677.10	42.13
677.23	102.98
677.37	35.11
677.51	49.15
677.65	32.77
677.79	0.00
677.93	25.75
678.07	100.64
678.21	51.49
678.34	65.54
678.48	0.00
678.62	86.60
678.76	51.49
678.90	2.34
679.04	21.06
679.18	35.11
679.31	25.75
679.45	84.26
679.59	95.96
679.73	42.13
679.87	156.82
680.00	0.00
680.14	39.79
680.28	67.88
680.42	74.90
680.56	39.79
680.70	65.54
680.83	0.00
680.97	67.88
681.11	63.19
681.25	67.88
681.39	0.00
681.52	65.54
681.66	70.22
681.80	58.51
681.94	60.85
682.07	49.15
682.21	9.36
682.35	4.68
682.49	67.88
682.62	0.00
682.76	16.38
682.90	91.28
683.04	91.28
683.17	84.26
683.31	100.64
683.45	0.00
683.59	105.32
683.72	65.54
683.86	110.01
684.00	121.71
684.13	16.38
684.27	2.34
684.41	0.00
684.55	0.00
684.68	0.00
684.82	70.22
684.96	4.68
685.09	65.54
685.23	53.83
685.37	56.17
685.50	14.04
685.64	74.90
685.78	81.92
685.91	67.88
686.05	18.72
686.19	51.49
686.32	51.49
686.46	51.49
686.60	23.41
686.73	16.38
686.87	51.49
687.01	37.45
687.14	77.24
687.28	2.34
687.42	84.26
687.55	28.09
687.69	56.17
687.82	4.68
687.96	84.26
688.10	21.06
688.23	91.28
688.37	0.00
688.50	25.75
688.64	18.72
688.78	44.47
688.91	7.02
689.05	39.79
689.18	21.06
689.32	112.35
689.46	74.90
689.59	49.15
689.73	11.70
689.86	9.36
690.00	14.04
690.13	16.38
690.27	2.34
690.41	28.09
690.54	51.49
690.68	2.34
690.81	46.81
690.95	63.19
691.08	0.00
691.22	65.54
691.35	81.92
691.49	30.43
691.62	74.90
691.76	51.49
691.89	28.09
692.03	23.41
692.16	110.01
692.30	23.41
692.43	37.45
692.57	42.13
692.70	28.09
692.84	49.15
692.97	56.17
693.11	35.11
693.24	60.85
693.38	7.02
693.51	74.90
693.65	65.54
693.78	14.04
693.92	14.04
694.05	25.75
694.19	0.00
694.32	0.00
694.45	0.00
694.59	30.43
694.72	44.47
694.86	81.92
694.99	91.28
695.13	32.77
695.26	7.02
695.39	0.00
695.53	23.41
695.66	70.22
695.80	44.47
695.93	37.45
696.07	28.09
696.20	91.28
696.33	18.72
696.47	0.00
696.60	72.56
696.73	110.01
696.87	91.28
697.00	46.81
697.14	0.00
697.27	28.09
697.40	46.81
697.54	35.11
697.67	35.11
697.80	93.62
697.94	37.45
698.07	102.98
698.21	65.54
698.34	2.34
698.47	51.49
698.61	63.19
698.74	72.56
698.87	93.62
699.01	25.75
699.14	2.34
699.27	11.70
699.40	21.06
699.54	4.68
699.67	44.47
699.80	79.58
699.94	18.72
700.07	37.45
700.20	30.43
700.34	11.70
700.47	42.13
700.60	58.51
700.73	0.00
700.87	74.90
701.00	0.00
701.13	44.47
701.26	32.77
701.40	28.09
701.53	39.79
701.66	14.04
701.79	74.90
701.93	67.88
702.06	49.15
702.19	77.24
702.32	25.75
702.46	46.81
702.59	4.68
702.72	25.75
702.85	72.56
702.99	14.04
703.12	37.45
703.25	102.98
703.38	2.34
703.51	0.00
703.65	98.30
703.78	39.79
703.91	2.34
704.04	32.77
704.17	53.83
704.31	63.19
704.44	44.47
704.57	124.05
704.70	46.81
704.83	32.77
704.96	60.85
705.10	0.00
705.23	37.45
>>>>>End Processed Spectral Data<<<<<
