SpectraSuite Data File
++++++++++++++++++++++++++++++++++++
Date: Fri Oct 04 12:13:30 GMT-05:00 2013
User: price-jones
Dark Spectrum Present: No
Reference Spectrum Present: No
Number of Sampled Component Spectra: 1
Spectrometers: USB2+H05261
Integration Time (usec): 10000 (USB2+H05261)
Spectra Averaged: 1 (USB2+H05261)
Boxcar Smoothing: 0 (USB2+H05261)
Correct for Electrical Dark: No (USB2+H05261)
Strobe/Lamp Enabled: No (USB2+H05261)
Correct for Detector Non-linearity: No (USB2+H05261)
Correct for Stray Light: No (USB2+H05261)
Number of Pixels in Processed Spectrum: 2048
>>>>>Begin Processed Spectral Data<<<<<
365.73	0.00
365.92	0.00
366.12	0.00
366.32	0.00
366.52	0.00
366.72	0.00
366.91	0.00
367.11	0.00
367.31	0.00
367.51	0.00
367.70	0.00
367.90	0.00
368.10	0.00
368.30	0.00
368.49	0.00
368.69	0.00
368.89	0.00
369.09	0.00
369.28	0.00
369.48	0.00
369.68	0.00
369.87	0.00
370.07	0.00
370.27	0.00
370.47	0.00
370.66	0.00
370.86	0.00
371.06	0.00
371.25	0.00
371.45	9.36
371.65	18.72
371.84	0.00
372.04	0.00
372.24	32.77
372.44	14.04
372.63	0.00
372.83	32.77
373.03	7.02
373.22	0.00
373.42	0.00
373.62	46.81
373.81	28.09
374.01	88.94
374.21	72.56
374.40	14.04
374.60	14.04
374.79	42.13
374.99	81.92
375.19	0.00
375.38	42.13
375.58	119.37
375.78	91.28
375.97	37.45
376.17	0.00
376.37	0.00
376.56	46.81
376.76	37.45
376.95	32.77
377.15	32.77
377.35	11.70
377.54	0.00
377.74	28.09
377.93	58.51
378.13	28.09
378.33	32.77
378.52	28.09
378.72	0.00
378.91	37.45
379.11	21.06
379.31	0.00
379.50	0.00
379.70	0.00
379.89	14.04
380.09	70.22
380.28	16.38
380.48	0.00
380.68	16.38
380.87	63.19
381.07	39.79
381.26	72.56
381.46	42.13
381.65	39.79
381.85	9.36
382.04	28.09
382.24	39.79
382.43	0.00
382.63	0.00
382.83	58.51
383.02	0.00
383.22	0.00
383.41	65.54
383.61	23.41
383.80	18.72
384.00	65.54
384.19	35.11
384.39	21.06
384.58	4.68
384.78	53.83
384.97	0.00
385.17	11.70
385.36	95.96
385.56	21.06
385.75	0.00
385.95	37.45
386.14	23.41
386.34	0.00
386.53	0.00
386.72	14.04
386.92	0.00
387.11	60.85
387.31	2.34
387.50	58.51
387.70	0.00
387.89	0.00
388.09	25.75
388.28	11.70
388.48	70.22
388.67	0.00
388.86	9.36
389.06	4.68
389.25	53.83
389.45	0.00
389.64	0.00
389.84	0.00
390.03	14.04
390.22	0.00
390.42	49.15
390.61	28.09
390.81	7.02
391.00	30.43
391.19	107.66
391.39	44.47
391.58	25.75
391.78	72.56
391.97	67.88
392.16	49.15
392.36	0.00
392.55	65.54
392.75	0.00
392.94	28.09
393.13	0.00
393.33	2.34
393.52	65.54
393.71	100.64
393.91	0.00
394.10	53.83
394.29	18.72
394.49	131.07
394.68	0.00
394.88	25.75
395.07	53.83
395.26	25.75
395.46	23.41
395.65	18.72
395.84	107.66
396.04	70.22
396.23	63.19
396.42	23.41
396.62	37.45
396.81	60.85
397.00	56.17
397.19	0.00
397.39	0.00
397.58	63.19
397.77	0.00
397.97	0.00
398.16	67.88
398.35	56.17
398.55	0.00
398.74	4.68
398.93	0.00
399.12	0.00
399.32	16.38
399.51	14.04
399.70	0.00
399.90	28.09
400.09	30.43
400.28	60.85
400.47	39.79
400.67	51.49
400.86	30.43
401.05	7.02
401.24	46.81
401.44	23.41
401.63	63.19
401.82	14.04
402.01	44.47
402.21	0.00
402.40	0.00
402.59	65.54
402.78	0.00
402.97	7.02
403.17	0.00
403.36	0.00
403.55	0.00
403.74	28.09
403.93	44.47
404.13	0.00
404.32	79.58
404.51	44.47
404.70	53.83
404.89	18.72
405.09	0.00
405.28	0.00
405.47	37.45
405.66	112.35
405.85	60.85
406.05	30.43
406.24	56.17
406.43	42.13
406.62	7.02
406.81	0.00
407.00	0.00
407.20	30.43
407.39	0.00
407.58	42.13
407.77	32.77
407.96	16.38
408.15	63.19
408.34	44.47
408.54	30.43
408.73	93.62
408.92	51.49
409.11	60.85
409.30	110.01
409.49	0.00
409.68	0.00
409.87	32.77
410.07	2.34
410.26	4.68
410.45	35.11
410.64	32.77
410.83	23.41
411.02	0.00
411.21	0.00
411.40	84.26
411.59	21.06
411.78	39.79
411.98	39.79
412.17	60.85
412.36	0.00
412.55	67.88
412.74	79.58
412.93	28.09
413.12	21.06
413.31	0.00
413.50	14.04
413.69	131.07
413.88	18.72
414.07	14.04
414.26	51.49
414.45	25.75
414.64	30.43
414.83	16.38
415.02	0.00
415.22	72.56
415.41	46.81
415.60	44.47
415.79	63.19
415.98	46.81
416.17	67.88
416.36	14.04
416.55	37.45
416.74	65.54
416.93	0.00
417.12	0.00
417.31	25.75
417.50	0.00
417.69	98.30
417.88	23.41
418.07	18.72
418.26	0.00
418.45	35.11
418.64	16.38
418.83	35.11
419.02	100.64
419.21	84.26
419.39	102.98
419.58	30.43
419.77	44.47
419.96	72.56
420.15	0.00
420.34	0.00
420.53	72.56
420.72	21.06
420.91	14.04
421.10	0.00
421.29	25.75
421.48	28.09
421.67	16.38
421.86	0.00
422.05	37.45
422.24	0.00
422.43	56.17
422.61	81.92
422.80	51.49
422.99	16.38
423.18	39.79
423.37	14.04
423.56	0.00
423.75	58.51
423.94	11.70
424.13	0.00
424.32	0.00
424.50	0.00
424.69	9.36
424.88	0.00
425.07	25.75
425.26	0.00
425.45	14.04
425.64	14.04
425.83	84.26
426.01	37.45
426.20	44.47
426.39	16.38
426.58	60.85
426.77	42.13
426.96	32.77
427.15	9.36
427.33	16.38
427.52	28.09
427.71	42.13
427.90	7.02
428.09	42.13
428.28	37.45
428.46	51.49
428.65	60.85
428.84	84.26
429.03	0.00
429.22	9.36
429.40	0.00
429.59	7.02
429.78	23.41
429.97	21.06
430.16	21.06
430.34	2.34
430.53	37.45
430.72	0.00
430.91	23.41
431.10	0.00
431.28	30.43
431.47	32.77
431.66	58.51
431.85	46.81
432.03	30.43
432.22	0.00
432.41	0.00
432.60	110.01
432.79	32.77
432.97	105.32
433.16	2.34
433.35	42.13
433.54	0.00
433.72	23.41
433.91	32.77
434.10	51.49
434.28	0.00
434.47	35.11
434.66	49.15
434.85	0.00
435.03	63.19
435.22	2.34
435.41	53.83
435.59	0.00
435.78	0.00
435.97	51.49
436.16	39.79
436.34	72.56
436.53	58.51
436.72	37.45
436.90	35.11
437.09	63.19
437.28	0.00
437.46	63.19
437.65	32.77
437.84	72.56
438.02	30.43
438.21	0.00
438.40	9.36
438.58	18.72
438.77	70.22
438.96	0.00
439.14	0.00
439.33	152.13
439.52	0.00
439.70	14.04
439.89	0.00
440.08	67.88
440.26	100.64
440.45	88.94
440.63	18.72
440.82	0.00
441.01	0.00
441.19	81.92
441.38	0.00
441.57	0.00
441.75	7.02
441.94	2.34
442.12	63.19
442.31	21.06
442.50	37.45
442.68	58.51
442.87	16.38
443.05	0.00
443.24	28.09
443.43	0.00
443.61	65.54
443.80	23.41
443.98	0.00
444.17	18.72
444.35	11.70
444.54	0.00
444.73	25.75
444.91	35.11
445.10	0.00
445.28	35.11
445.47	0.00
445.65	0.00
445.84	0.00
446.02	51.49
446.21	70.22
446.39	72.56
446.58	51.49
446.77	70.22
446.95	4.68
447.14	65.54
447.32	42.13
447.51	23.41
447.69	11.70
447.88	21.06
448.06	98.30
448.25	46.81
448.43	21.06
448.62	51.49
448.80	51.49
448.99	79.58
449.17	53.83
449.36	0.00
449.54	60.85
449.73	70.22
449.91	70.22
450.10	0.00
450.28	65.54
450.46	42.13
450.65	37.45
450.83	58.51
451.02	0.00
451.20	49.15
451.39	79.58
451.57	2.34
451.76	65.54
451.94	7.02
452.13	37.45
452.31	0.00
452.49	0.00
452.68	56.17
452.86	56.17
453.05	60.85
453.23	25.75
453.42	35.11
453.60	0.00
453.78	81.92
453.97	37.45
454.15	28.09
454.34	63.19
454.52	0.00
454.70	35.11
454.89	88.94
455.07	35.11
455.26	46.81
455.44	16.38
455.62	81.92
455.81	35.11
455.99	0.00
456.17	0.00
456.36	53.83
456.54	0.00
456.73	7.02
456.91	25.75
457.09	84.26
457.28	0.00
457.46	42.13
457.64	51.49
457.83	9.36
458.01	65.54
458.19	49.15
458.38	60.85
458.56	42.13
458.74	0.00
458.93	37.45
459.11	0.00
459.29	32.77
459.48	91.28
459.66	91.28
459.84	72.56
460.03	60.85
460.21	21.06
460.39	0.00
460.57	14.04
460.76	7.02
460.94	37.45
461.12	0.00
461.31	46.81
461.49	98.30
461.67	0.00
461.85	30.43
462.04	25.75
462.22	70.22
462.40	77.24
462.59	37.45
462.77	23.41
462.95	7.02
463.13	60.85
463.32	88.94
463.50	58.51
463.68	25.75
463.86	32.77
464.05	0.00
464.23	42.13
464.41	105.32
464.59	74.90
464.78	53.83
464.96	56.17
465.14	21.06
465.32	16.38
465.50	65.54
465.69	37.45
465.87	37.45
466.05	18.72
466.23	56.17
466.41	93.62
466.60	14.04
466.78	0.00
466.96	32.77
467.14	46.81
467.32	70.22
467.51	0.00
467.69	51.49
467.87	21.06
468.05	25.75
468.23	0.00
468.41	42.13
468.60	28.09
468.78	39.79
468.96	51.49
469.14	79.58
469.32	16.38
469.50	0.00
469.69	0.00
469.87	16.38
470.05	0.00
470.23	32.77
470.41	7.02
470.59	35.11
470.77	100.64
470.95	49.15
471.14	100.64
471.32	42.13
471.50	77.24
471.68	77.24
471.86	0.00
472.04	0.00
472.22	0.00
472.40	11.70
472.58	9.36
472.77	28.09
472.95	63.19
473.13	28.09
473.31	51.49
473.49	14.04
473.67	56.17
473.85	37.45
474.03	7.02
474.21	0.00
474.39	18.72
474.57	9.36
474.75	81.92
474.93	0.00
475.12	30.43
475.30	51.49
475.48	44.47
475.66	86.60
475.84	65.54
476.02	44.47
476.20	51.49
476.38	14.04
476.56	44.47
476.74	39.79
476.92	25.75
477.10	79.58
477.28	9.36
477.46	60.85
477.64	9.36
477.82	35.11
478.00	0.00
478.18	28.09
478.36	39.79
478.54	28.09
478.72	0.00
478.90	0.00
479.08	25.75
479.26	0.00
479.44	11.70
479.62	112.35
479.80	91.28
479.98	53.83
480.16	0.00
480.34	51.49
480.52	114.69
480.70	74.90
480.88	39.79
481.06	18.72
481.24	39.79
481.41	0.00
481.59	4.68
481.77	28.09
481.95	18.72
482.13	25.75
482.31	44.47
482.49	4.68
482.67	0.00
482.85	16.38
483.03	32.77
483.21	11.70
483.39	53.83
483.57	18.72
483.74	0.00
483.92	70.22
484.10	9.36
484.28	49.15
484.46	0.00
484.64	18.72
484.82	81.92
485.00	74.90
485.18	30.43
485.35	28.09
485.53	39.79
485.71	84.26
485.89	84.26
486.07	86.60
486.25	35.11
486.43	74.90
486.61	0.00
486.78	65.54
486.96	4.68
487.14	9.36
487.32	35.11
487.50	7.02
487.68	44.47
487.85	25.75
488.03	44.47
488.21	95.96
488.39	39.79
488.57	21.06
488.75	74.90
488.92	74.90
489.10	0.00
489.28	67.88
489.46	28.09
489.64	81.92
489.81	7.02
489.99	39.79
490.17	44.47
490.35	23.41
490.53	0.00
490.70	60.85
490.88	23.41
491.06	63.19
491.24	72.56
491.41	63.19
491.59	63.19
491.77	0.00
491.95	30.43
492.13	25.75
492.30	84.26
492.48	56.17
492.66	44.47
492.84	60.85
493.01	46.81
493.19	0.00
493.37	0.00
493.54	56.17
493.72	9.36
493.90	56.17
494.08	56.17
494.25	32.77
494.43	77.24
494.61	32.77
494.79	51.49
494.96	0.00
495.14	4.68
495.32	0.00
495.49	23.41
495.67	0.00
495.85	84.26
496.02	25.75
496.20	67.88
496.38	0.00
496.55	56.17
496.73	88.94
496.91	102.98
497.09	63.19
497.26	23.41
497.44	25.75
497.62	37.45
497.79	0.00
497.97	35.11
498.14	56.17
498.32	88.94
498.50	60.85
498.67	32.77
498.85	72.56
499.03	56.17
499.20	51.49
499.38	9.36
499.56	58.51
499.73	21.06
499.91	23.41
500.08	42.13
500.26	58.51
500.44	51.49
500.61	0.00
500.79	84.26
500.97	77.24
501.14	14.04
501.32	44.47
501.49	0.00
501.67	51.49
501.84	86.60
502.02	30.43
502.20	88.94
502.37	0.00
502.55	81.92
502.72	0.00
502.90	30.43
503.07	0.00
503.25	2.34
503.43	14.04
503.60	98.30
503.78	0.00
503.95	11.70
504.13	16.38
504.30	56.17
504.48	30.43
504.65	46.81
504.83	110.01
505.01	56.17
505.18	93.62
505.36	4.68
505.53	23.41
505.71	63.19
505.88	152.13
506.06	58.51
506.23	46.81
506.41	79.58
506.58	86.60
506.76	49.15
506.93	32.77
507.11	42.13
507.28	0.00
507.46	79.58
507.63	11.70
507.81	67.88
507.98	2.34
508.16	142.77
508.33	30.43
508.50	28.09
508.68	0.00
508.85	67.88
509.03	58.51
509.20	35.11
509.38	95.96
509.55	53.83
509.73	0.00
509.90	39.79
510.08	39.79
510.25	11.70
510.42	42.13
510.60	16.38
510.77	147.45
510.95	126.39
511.12	32.77
511.30	0.00
511.47	67.88
511.64	35.11
511.82	81.92
511.99	67.88
512.17	9.36
512.34	46.81
512.51	0.00
512.69	0.00
512.86	49.15
513.04	63.19
513.21	46.81
513.38	37.45
513.56	0.00
513.73	23.41
513.90	56.17
514.08	84.26
514.25	72.56
514.43	21.06
514.60	67.88
514.77	63.19
514.95	58.51
515.12	88.94
515.29	18.72
515.47	51.49
515.64	37.45
515.81	25.75
515.99	28.09
516.16	88.94
516.33	18.72
516.51	95.96
516.68	86.60
516.85	70.22
517.03	21.06
517.20	63.19
517.37	67.88
517.54	44.47
517.72	35.11
517.89	72.56
518.06	7.02
518.24	74.90
518.41	0.00
518.58	23.41
518.75	53.83
518.93	18.72
519.10	49.15
519.27	84.26
519.45	67.88
519.62	21.06
519.79	23.41
519.96	37.45
520.14	42.13
520.31	35.11
520.48	44.47
520.65	49.15
520.83	72.56
521.00	44.47
521.17	56.17
521.34	28.09
521.52	0.00
521.69	102.98
521.86	0.00
522.03	128.73
522.20	84.26
522.38	63.19
522.55	58.51
522.72	60.85
522.89	72.56
523.07	65.54
523.24	53.83
523.41	42.13
523.58	32.77
523.75	0.00
523.92	51.49
524.10	0.00
524.27	0.00
524.44	28.09
524.61	16.38
524.78	102.98
524.96	51.49
525.13	58.51
525.30	39.79
525.47	49.15
525.64	49.15
525.81	39.79
525.98	39.79
526.16	53.83
526.33	2.34
526.50	0.00
526.67	114.69
526.84	32.77
527.01	0.00
527.18	28.09
527.36	9.36
527.53	114.69
527.70	35.11
527.87	102.98
528.04	77.24
528.21	51.49
528.38	65.54
528.55	70.22
528.72	58.51
528.89	49.15
529.07	79.58
529.24	0.00
529.41	81.92
529.58	0.00
529.75	44.47
529.92	7.02
530.09	21.06
530.26	0.00
530.43	42.13
530.60	32.77
530.77	53.83
530.94	63.19
531.11	49.15
531.28	93.62
531.46	77.24
531.63	42.13
531.80	102.98
531.97	35.11
532.14	30.43
532.31	51.49
532.48	84.26
532.65	79.58
532.82	11.70
532.99	63.19
533.16	28.09
533.33	16.38
533.50	63.19
533.67	0.00
533.84	9.36
534.01	53.83
534.18	53.83
534.35	21.06
534.52	0.00
534.69	2.34
534.86	25.75
535.03	0.00
535.20	65.54
535.37	2.34
535.54	84.26
535.71	44.47
535.88	37.45
536.05	159.16
536.22	44.47
536.38	88.94
536.55	21.06
536.72	39.79
536.89	65.54
537.06	91.28
537.23	11.70
537.40	14.04
537.57	4.68
537.74	2.34
537.91	110.01
538.08	28.09
538.25	63.19
538.42	67.88
538.59	25.75
538.75	4.68
538.92	0.00
539.09	0.00
539.26	0.00
539.43	63.19
539.60	53.83
539.77	173.20
539.94	124.05
540.11	32.77
540.28	70.22
540.44	7.02
540.61	25.75
540.78	11.70
540.95	60.85
541.12	119.37
541.29	135.75
541.46	81.92
541.62	39.79
541.79	81.92
541.96	0.00
542.13	44.47
542.30	84.26
542.47	39.79
542.63	42.13
542.80	51.49
542.97	18.72
543.14	60.85
543.31	67.88
543.48	84.26
543.64	35.11
543.81	46.81
543.98	44.47
544.15	46.81
544.32	30.43
544.48	21.06
544.65	46.81
544.82	100.64
544.99	4.68
545.16	72.56
545.32	0.00
545.49	18.72
545.66	58.51
545.83	0.00
546.00	21.06
546.16	0.00
546.33	0.00
546.50	98.30
546.67	67.88
546.83	37.45
547.00	65.54
547.17	51.49
547.34	114.69
547.50	84.26
547.67	46.81
547.84	117.03
548.00	0.00
548.17	0.00
548.34	65.54
548.51	0.00
548.67	9.36
548.84	65.54
549.01	39.79
549.18	18.72
549.34	0.00
549.51	42.13
549.68	16.38
549.84	0.00
550.01	70.22
550.18	14.04
550.34	0.00
550.51	44.47
550.68	49.15
550.84	0.00
551.01	56.17
551.18	93.62
551.34	11.70
551.51	180.22
551.68	16.38
551.84	32.77
552.01	119.37
552.18	65.54
552.34	0.00
552.51	72.56
552.68	133.41
552.84	35.11
553.01	32.77
553.18	39.79
553.34	35.11
553.51	56.17
553.67	51.49
553.84	100.64
554.01	79.58
554.17	63.19
554.34	23.41
554.51	23.41
554.67	18.72
554.84	28.09
555.00	16.38
555.17	42.13
555.33	147.45
555.50	70.22
555.67	0.00
555.83	74.90
556.00	18.72
556.16	77.24
556.33	9.36
556.50	46.81
556.66	51.49
556.83	72.56
556.99	72.56
557.16	51.49
557.32	4.68
557.49	21.06
557.65	70.22
557.82	0.00
557.98	44.47
558.15	32.77
558.32	79.58
558.48	77.24
558.65	84.26
558.81	77.24
558.98	37.45
559.14	53.83
559.31	7.02
559.47	30.43
559.64	77.24
559.80	11.70
559.97	0.00
560.13	46.81
560.30	117.03
560.46	21.06
560.63	0.00
560.79	67.88
560.96	98.30
561.12	51.49
561.29	11.70
561.45	42.13
561.61	65.54
561.78	21.06
561.94	88.94
562.11	51.49
562.27	86.60
562.44	81.92
562.60	93.62
562.77	42.13
562.93	21.06
563.10	18.72
563.26	0.00
563.42	49.15
563.59	2.34
563.75	0.00
563.92	37.45
564.08	23.41
564.24	70.22
564.41	37.45
564.57	44.47
564.74	32.77
564.90	0.00
565.07	37.45
565.23	28.09
565.39	0.00
565.56	60.85
565.72	67.88
565.88	18.72
566.05	46.81
566.21	42.13
566.38	56.17
566.54	9.36
566.70	42.13
566.87	4.68
567.03	35.11
567.19	0.00
567.36	44.47
567.52	44.47
567.68	37.45
567.85	42.13
568.01	0.00
568.17	74.90
568.34	9.36
568.50	93.62
568.66	102.98
568.83	42.13
568.99	11.70
569.15	35.11
569.32	49.15
569.48	53.83
569.64	18.72
569.81	51.49
569.97	28.09
570.13	11.70
570.30	0.00
570.46	74.90
570.62	35.11
570.78	56.17
570.95	0.00
571.11	39.79
571.27	4.68
571.43	7.02
571.60	105.32
571.76	30.43
571.92	0.00
572.09	0.00
572.25	0.00
572.41	86.60
572.57	42.13
572.74	77.24
572.90	35.11
573.06	44.47
573.22	18.72
573.38	23.41
573.55	14.04
573.71	72.56
573.87	0.00
574.03	72.56
574.20	58.51
574.36	42.13
574.52	49.15
574.68	58.51
574.84	25.75
575.01	0.00
575.17	28.09
575.33	0.00
575.49	23.41
575.65	39.79
575.82	79.58
575.98	102.98
576.14	18.72
576.30	79.58
576.46	65.54
576.62	56.17
576.79	84.26
576.95	44.47
577.11	7.02
577.27	46.81
577.43	2.34
577.59	49.15
577.75	58.51
577.92	35.11
578.08	16.38
578.24	14.04
578.40	49.15
578.56	37.45
578.72	72.56
578.88	51.49
579.04	7.02
579.21	28.09
579.37	95.96
579.53	60.85
579.69	81.92
579.85	67.88
580.01	23.41
580.17	88.94
580.33	37.45
580.49	70.22
580.65	46.81
580.82	46.81
580.98	67.88
581.14	138.09
581.30	56.17
581.46	88.94
581.62	70.22
581.78	56.17
581.94	14.04
582.10	4.68
582.26	65.54
582.42	23.41
582.58	98.30
582.74	79.58
582.90	72.56
583.06	77.24
583.22	0.00
583.38	11.70
583.54	39.79
583.70	86.60
583.86	30.43
584.02	91.28
584.18	67.88
584.34	100.64
584.50	245.76
584.66	882.38
584.82	1968.39
584.98	2623.74
585.14	2389.69
585.30	1380.92
585.46	903.45
585.62	491.51
585.78	229.37
585.94	135.75
586.10	44.47
586.26	77.24
586.42	2.34
586.58	2.34
586.74	25.75
586.90	39.79
587.06	51.49
587.22	86.60
587.38	112.35
587.54	49.15
587.70	203.63
587.86	205.97
588.02	231.71
588.18	163.84
588.34	133.41
588.49	105.32
588.65	18.72
588.81	79.58
588.97	0.00
589.13	70.22
589.29	53.83
589.45	25.75
589.61	39.79
589.77	18.72
589.93	86.60
590.08	4.68
590.24	74.90
590.40	30.43
590.56	117.03
590.72	23.41
590.88	21.06
591.04	74.90
591.20	58.51
591.35	70.22
591.51	56.17
591.67	56.17
591.83	35.11
591.99	49.15
592.15	58.51
592.31	49.15
592.46	56.17
592.62	67.88
592.78	21.06
592.94	63.19
593.10	74.90
593.26	0.00
593.41	37.45
593.57	44.47
593.73	32.77
593.89	175.54
594.05	287.89
594.20	360.44
594.36	365.12
594.52	241.08
594.68	114.69
594.84	98.30
594.99	142.77
595.15	56.17
595.31	110.01
595.47	77.24
595.62	79.58
595.78	86.60
595.94	0.00
596.10	60.85
596.25	0.00
596.41	117.03
596.57	28.09
596.73	44.47
596.88	0.00
597.04	100.64
597.20	65.54
597.36	133.41
597.51	152.13
597.67	72.56
597.83	42.13
597.99	23.41
598.14	0.00
598.30	28.09
598.46	18.72
598.61	74.90
598.77	51.49
598.93	79.58
599.09	46.81
599.24	65.54
599.40	124.05
599.56	135.75
599.71	98.30
599.87	30.43
600.03	39.79
600.18	53.83
600.34	107.66
600.50	84.26
600.65	0.00
600.81	14.04
600.97	14.04
601.12	14.04
601.28	37.45
601.44	32.77
601.59	37.45
601.75	14.04
601.91	30.43
602.06	56.17
602.22	86.60
602.37	119.37
602.53	91.28
602.69	159.16
602.84	140.43
603.00	110.01
603.16	49.15
603.31	74.90
603.47	117.03
603.62	56.17
603.78	77.24
603.94	4.68
604.09	44.47
604.25	51.49
604.40	51.49
604.56	0.00
604.71	0.00
604.87	14.04
605.03	30.43
605.18	39.79
605.34	37.45
605.49	56.17
605.65	44.47
605.80	37.45
605.96	0.00
606.12	110.01
606.27	21.06
606.43	25.75
606.58	65.54
606.74	53.83
606.89	203.63
607.05	285.55
607.20	351.08
607.36	318.31
607.51	250.44
607.67	147.45
607.82	212.99
607.98	81.92
608.13	42.13
608.29	49.15
608.44	70.22
608.60	0.00
608.75	46.81
608.91	18.72
609.06	243.42
609.22	437.68
609.37	526.62
609.53	496.19
609.68	372.15
609.84	236.39
609.99	173.20
610.15	128.73
610.30	102.98
610.46	93.62
610.61	77.24
610.76	14.04
610.92	0.00
611.07	11.70
611.23	95.96
611.38	98.30
611.54	0.00
611.69	72.56
611.84	7.02
612.00	23.41
612.15	21.06
612.31	58.51
612.46	35.11
612.62	58.51
612.77	44.47
612.92	35.11
613.08	7.02
613.23	39.79
613.39	102.98
613.54	196.60
613.69	198.95
613.85	463.43
614.00	805.14
614.15	835.57
614.31	650.67
614.46	411.93
614.62	301.93
614.77	212.99
614.92	114.69
615.08	128.73
615.23	77.24
615.38	0.00
615.54	0.00
615.69	110.01
615.84	88.94
616.00	184.90
616.15	290.23
616.30	163.84
616.46	166.18
616.61	170.86
616.76	119.37
616.92	39.79
617.07	88.94
617.22	49.15
617.37	0.00
617.53	4.68
617.68	23.41
617.83	18.72
617.99	28.09
618.14	67.88
618.29	0.00
618.45	44.47
618.60	0.00
618.75	91.28
618.90	44.47
619.06	25.75
619.21	51.49
619.36	30.43
619.51	30.43
619.67	131.07
619.82	7.02
619.97	35.11
620.12	9.36
620.28	53.83
620.43	0.00
620.58	23.41
620.73	67.88
620.89	124.05
621.04	37.45
621.19	37.45
621.34	107.66
621.49	152.13
621.65	133.41
621.80	88.94
621.95	51.49
622.10	21.06
622.25	2.34
622.41	0.00
622.56	72.56
622.71	23.41
622.86	9.36
623.01	70.22
623.16	65.54
623.32	2.34
623.47	23.41
623.62	84.26
623.77	72.56
623.92	56.17
624.07	32.77
624.23	51.49
624.38	56.17
624.53	23.41
624.68	42.13
624.83	63.19
624.98	0.00
625.13	0.00
625.29	0.00
625.44	39.79
625.59	72.56
625.74	4.68
625.89	42.13
626.04	159.16
626.19	287.89
626.34	400.23
626.49	365.12
626.65	344.06
626.80	161.50
626.95	217.67
627.10	131.07
627.25	18.72
627.40	102.98
627.55	16.38
627.70	0.00
627.85	25.75
628.00	72.56
628.15	30.43
628.30	0.00
628.45	16.38
628.60	0.00
628.76	11.70
628.91	95.96
629.06	46.81
629.21	30.43
629.36	79.58
629.51	23.41
629.66	70.22
629.81	53.83
629.96	110.01
630.11	156.82
630.26	154.48
630.41	95.96
630.56	131.07
630.71	91.28
630.86	72.56
631.01	35.11
631.16	0.00
631.31	51.49
631.46	84.26
631.61	56.17
631.76	102.98
631.91	18.72
632.06	58.51
632.21	0.00
632.36	32.77
632.51	67.88
632.66	39.79
632.81	7.02
632.96	234.05
633.10	269.16
633.25	330.02
633.40	271.50
633.55	191.92
633.70	163.84
633.85	117.03
634.00	0.00
634.15	77.24
634.30	67.88
634.45	23.41
634.60	0.00
634.75	21.06
634.90	53.83
635.05	0.00
635.19	28.09
635.34	11.70
635.49	65.54
635.64	0.00
635.79	46.81
635.94	0.00
636.09	77.24
636.24	0.00
636.39	81.92
636.53	88.94
636.68	56.17
636.83	23.41
636.98	0.00
637.13	42.13
637.28	88.94
637.43	0.00
637.57	4.68
637.72	180.22
637.87	409.59
638.02	552.37
638.17	622.58
638.32	440.02
638.46	294.91
638.61	184.90
638.76	107.66
638.91	81.92
639.06	49.15
639.20	58.51
639.35	35.11
639.50	35.11
639.65	220.01
639.80	552.37
639.94	786.42
640.09	912.81
640.24	671.73
640.39	418.96
640.54	308.95
640.68	229.37
640.83	145.11
640.98	95.96
641.13	42.13
641.27	77.24
641.42	93.62
641.57	46.81
641.72	0.00
641.86	65.54
642.01	102.98
642.16	11.70
642.31	35.11
642.45	105.32
642.60	37.45
642.75	18.72
642.90	79.58
643.04	30.43
643.19	0.00
643.34	77.24
643.48	39.79
643.63	18.72
643.78	37.45
643.93	77.24
644.07	98.30
644.22	32.77
644.37	2.34
644.51	21.06
644.66	25.75
644.81	58.51
644.95	46.81
645.10	93.62
645.25	7.02
645.39	44.47
645.54	72.56
645.69	37.45
645.83	0.00
645.98	88.94
646.13	65.54
646.27	0.00
646.42	44.47
646.57	86.60
646.71	53.83
646.86	79.58
647.00	28.09
647.15	53.83
647.30	46.81
647.44	11.70
647.59	93.62
647.74	0.00
647.88	74.90
648.03	16.38
648.17	77.24
648.32	67.88
648.47	60.85
648.61	42.13
648.76	0.00
648.90	84.26
649.05	21.06
649.20	0.00
649.34	42.13
649.49	23.41
649.63	18.72
649.78	16.38
649.92	21.06
650.07	93.62
650.21	248.10
650.36	372.15
650.51	421.30
650.65	379.17
650.80	271.50
650.94	231.71
651.09	131.07
651.23	77.24
651.38	67.88
651.52	14.04
651.67	0.00
651.81	0.00
651.96	30.43
652.10	32.77
652.25	32.77
652.39	37.45
652.54	18.72
652.68	46.81
652.83	126.39
652.97	175.54
653.12	175.54
653.26	145.11
653.41	177.88
653.55	30.43
653.70	110.01
653.84	28.09
653.99	11.70
654.13	25.75
654.27	53.83
654.42	23.41
654.56	58.51
654.71	0.00
654.85	37.45
655.00	53.83
655.14	32.77
655.29	16.38
655.43	14.04
655.57	53.83
655.72	23.41
655.86	72.56
656.01	42.13
656.15	53.83
656.30	100.64
656.44	0.00
656.58	30.43
656.73	2.34
656.87	60.85
657.01	30.43
657.16	14.04
657.30	39.79
657.45	23.41
657.59	53.83
657.73	25.75
657.88	74.90
658.02	0.00
658.16	0.00
658.31	35.11
658.45	0.00
658.60	21.06
658.74	0.00
658.88	28.09
659.03	44.47
659.17	7.02
659.31	84.26
659.46	135.75
659.60	203.63
659.74	290.23
659.89	222.35
660.03	198.95
660.17	56.17
660.32	119.37
660.46	65.54
660.60	77.24
660.74	63.19
660.89	74.90
661.03	11.70
661.17	56.17
661.32	63.19
661.46	93.62
661.60	39.79
661.74	2.34
661.89	0.00
662.03	0.00
662.17	23.41
662.31	25.75
662.46	25.75
662.60	35.11
662.74	23.41
662.88	16.38
663.03	7.02
663.17	28.09
663.31	28.09
663.45	0.00
663.60	0.00
663.74	25.75
663.88	30.43
664.02	88.94
664.17	37.45
664.31	0.00
664.45	0.00
664.59	30.43
664.73	32.77
664.88	16.38
665.02	14.04
665.16	16.38
665.30	0.00
665.44	14.04
665.59	16.38
665.73	0.00
665.87	77.24
666.01	56.17
666.15	37.45
666.29	18.72
666.44	28.09
666.58	14.04
666.72	44.47
666.86	28.09
667.00	60.85
667.14	0.00
667.28	88.94
667.43	238.73
667.57	346.40
667.71	315.97
667.85	379.17
667.99	189.58
668.13	227.03
668.27	133.41
668.41	77.24
668.56	74.90
668.70	2.34
668.84	56.17
668.98	37.45
669.12	39.79
669.26	135.75
669.40	0.00
669.54	0.00
669.68	72.56
669.82	91.28
669.96	44.47
670.10	67.88
670.25	35.11
670.39	35.11
670.53	39.79
670.67	9.36
670.81	35.11
670.95	133.41
671.09	107.66
671.23	65.54
671.37	194.26
671.51	236.39
671.65	257.46
671.79	131.07
671.93	180.22
672.07	9.36
672.21	39.79
672.35	0.00
672.49	25.75
672.63	49.15
672.77	79.58
672.91	49.15
673.05	65.54
673.19	39.79
673.33	56.17
673.47	70.22
673.61	32.77
673.75	0.00
673.89	0.00
674.03	14.04
674.17	72.56
674.31	65.54
674.45	21.06
674.59	7.02
674.73	81.92
674.87	0.00
675.01	0.00
675.15	72.56
675.29	39.79
675.43	9.36
675.56	16.38
675.70	0.00
675.84	25.75
675.98	23.41
676.12	23.41
676.26	2.34
676.40	74.90
676.54	46.81
676.68	39.79
676.82	37.45
676.96	46.81
677.10	142.77
677.23	53.83
677.37	44.47
677.51	37.45
677.65	107.66
677.79	72.56
677.93	98.30
678.07	32.77
678.21	0.00
678.34	81.92
678.48	0.00
678.62	0.00
678.76	42.13
678.90	51.49
679.04	18.72
679.18	60.85
679.31	0.00
679.45	32.77
679.59	84.26
679.73	18.72
679.87	53.83
680.00	44.47
680.14	25.75
680.28	60.85
680.42	0.00
680.56	0.00
680.70	58.51
680.83	0.00
680.97	0.00
681.11	0.00
681.25	44.47
681.39	81.92
681.52	2.34
681.66	0.00
681.80	35.11
681.94	39.79
682.07	0.00
682.21	91.28
682.35	93.62
682.49	0.00
682.62	39.79
682.76	84.26
682.90	0.00
683.04	28.09
683.17	7.02
683.31	14.04
683.45	30.43
683.59	30.43
683.72	21.06
683.86	72.56
684.00	9.36
684.13	49.15
684.27	93.62
684.41	105.32
684.55	56.17
684.68	37.45
684.82	77.24
684.96	11.70
685.09	11.70
685.23	88.94
685.37	65.54
685.50	91.28
685.64	35.11
685.78	88.94
685.91	63.19
686.05	21.06
686.19	88.94
686.32	42.13
686.46	30.43
686.60	42.13
686.73	49.15
686.87	49.15
687.01	0.00
687.14	79.58
687.28	7.02
687.42	39.79
687.55	44.47
687.69	28.09
687.82	60.85
687.96	0.00
688.10	16.38
688.23	0.00
688.37	0.00
688.50	58.51
688.64	0.00
688.78	30.43
688.91	0.00
689.05	30.43
689.18	0.00
689.32	0.00
689.46	0.00
689.59	0.00
689.73	58.51
689.86	21.06
690.00	4.68
690.13	7.02
690.27	0.00
690.41	67.88
690.54	9.36
690.68	70.22
690.81	100.64
690.95	81.92
691.08	32.77
691.22	49.15
691.35	30.43
691.49	16.38
691.62	44.47
691.76	53.83
691.89	14.04
692.03	63.19
692.16	60.85
692.30	56.17
692.43	88.94
692.57	112.35
692.70	121.71
692.84	196.60
692.97	156.82
693.11	86.60
693.24	107.66
693.38	23.41
693.51	0.00
693.65	35.11
693.78	23.41
693.92	16.38
694.05	0.00
694.19	0.00
694.32	56.17
694.45	0.00
694.59	44.47
694.72	39.79
694.86	35.11
694.99	0.00
695.13	4.68
695.26	58.51
695.39	86.60
695.53	16.38
695.66	39.79
695.80	39.79
695.93	28.09
696.07	9.36
696.20	0.00
696.33	70.22
696.47	0.00
696.60	30.43
696.73	63.19
696.87	37.45
697.00	74.90
697.14	16.38
697.27	0.00
697.40	56.17
697.54	86.60
697.67	0.00
697.80	7.02
697.94	53.83
698.07	72.56
698.21	14.04
698.34	53.83
698.47	28.09
698.61	0.00
698.74	0.00
698.87	37.45
699.01	18.72
699.14	9.36
699.27	77.24
699.40	79.58
699.54	0.00
699.67	56.17
699.80	60.85
699.94	44.47
700.07	0.00
700.20	35.11
700.34	100.64
700.47	0.00
700.60	0.00
700.73	11.70
700.87	23.41
701.00	18.72
701.13	11.70
701.26	25.75
701.40	81.92
701.53	53.83
701.66	88.94
701.79	21.06
701.93	0.00
702.06	30.43
702.19	30.43
702.32	60.85
702.46	9.36
702.59	63.19
702.72	110.01
702.85	84.26
702.99	278.52
703.12	273.84
703.25	299.59
703.38	337.04
703.51	285.55
703.65	177.88
703.78	88.94
703.91	37.45
704.04	74.90
704.17	56.17
704.31	28.09
704.44	28.09
704.57	7.02
704.70	16.38
704.83	42.13
704.96	28.09
705.10	98.30
705.23	60.85
>>>>>End Processed Spectral Data<<<<<
