SpectraSuite Data File
++++++++++++++++++++++++++++++++++++
Date: Fri Oct 04 12:13:42 GMT-05:00 2013
User: price-jones
Dark Spectrum Present: No
Reference Spectrum Present: No
Number of Sampled Component Spectra: 1
Spectrometers: USB2+H05261
Integration Time (usec): 10000 (USB2+H05261)
Spectra Averaged: 1 (USB2+H05261)
Boxcar Smoothing: 0 (USB2+H05261)
Correct for Electrical Dark: No (USB2+H05261)
Strobe/Lamp Enabled: No (USB2+H05261)
Correct for Detector Non-linearity: No (USB2+H05261)
Correct for Stray Light: No (USB2+H05261)
Number of Pixels in Processed Spectrum: 2048
>>>>>Begin Processed Spectral Data<<<<<
365.73	0.00
365.92	0.00
366.12	0.00
366.32	0.00
366.52	0.00
366.72	0.00
366.91	0.00
367.11	0.00
367.31	0.00
367.51	0.00
367.70	0.00
367.90	0.00
368.10	0.00
368.30	0.00
368.49	0.00
368.69	0.00
368.89	0.00
369.09	0.00
369.28	0.00
369.48	0.00
369.68	0.00
369.87	0.00
370.07	0.00
370.27	0.00
370.47	0.00
370.66	0.00
370.86	0.00
371.06	0.00
371.25	0.00
371.45	0.00
371.65	0.00
371.84	0.00
372.04	0.00
372.24	0.00
372.44	0.00
372.63	0.00
372.83	37.45
373.03	30.43
373.22	70.22
373.42	88.94
373.62	91.28
373.81	58.51
374.01	63.19
374.21	91.28
374.40	63.19
374.60	58.51
374.79	58.51
374.99	4.68
375.19	0.00
375.38	7.02
375.58	0.00
375.78	16.38
375.97	0.00
376.17	28.09
376.37	65.54
376.56	37.45
376.76	30.43
376.95	30.43
377.15	0.00
377.35	49.15
377.54	39.79
377.74	0.00
377.93	56.17
378.13	23.41
378.33	37.45
378.52	0.00
378.72	0.00
378.91	25.75
379.11	28.09
379.31	11.70
379.50	46.81
379.70	30.43
379.89	56.17
380.09	14.04
380.28	11.70
380.48	0.00
380.68	0.00
380.87	11.70
381.07	16.38
381.26	0.00
381.46	23.41
381.65	0.00
381.85	53.83
382.04	25.75
382.24	102.98
382.43	65.54
382.63	4.68
382.83	84.26
383.02	58.51
383.22	25.75
383.41	74.90
383.61	21.06
383.80	0.00
384.00	0.00
384.19	0.00
384.39	4.68
384.58	2.34
384.78	25.75
384.97	86.60
385.17	49.15
385.36	16.38
385.56	0.00
385.75	0.00
385.95	60.85
386.14	28.09
386.34	42.13
386.53	0.00
386.72	25.75
386.92	49.15
387.11	58.51
387.31	46.81
387.50	37.45
387.70	37.45
387.89	25.75
388.09	0.00
388.28	37.45
388.48	42.13
388.67	35.11
388.86	0.00
389.06	0.00
389.25	100.64
389.45	53.83
389.64	93.62
389.84	0.00
390.03	7.02
390.22	0.00
390.42	0.00
390.61	0.00
390.81	0.00
391.00	51.49
391.19	37.45
391.39	4.68
391.58	49.15
391.78	25.75
391.97	102.98
392.16	60.85
392.36	23.41
392.55	67.88
392.75	42.13
392.94	0.00
393.13	0.00
393.33	9.36
393.52	7.02
393.71	30.43
393.91	105.32
394.10	88.94
394.29	32.77
394.49	72.56
394.68	16.38
394.88	18.72
395.07	4.68
395.26	9.36
395.46	25.75
395.65	117.03
395.84	0.00
396.04	58.51
396.23	42.13
396.42	18.72
396.62	58.51
396.81	0.00
397.00	67.88
397.19	30.43
397.39	79.58
397.58	28.09
397.77	58.51
397.97	0.00
398.16	39.79
398.35	65.54
398.55	56.17
398.74	0.00
398.93	58.51
399.12	0.00
399.32	88.94
399.51	49.15
399.70	105.32
399.90	42.13
400.09	70.22
400.28	0.00
400.47	42.13
400.67	53.83
400.86	53.83
401.05	60.85
401.24	95.96
401.44	23.41
401.63	0.00
401.82	30.43
402.01	79.58
402.21	7.02
402.40	39.79
402.59	84.26
402.78	18.72
402.97	46.81
403.17	42.13
403.36	100.64
403.55	46.81
403.74	21.06
403.93	21.06
404.13	14.04
404.32	35.11
404.51	93.62
404.70	81.92
404.89	0.00
405.09	21.06
405.28	25.75
405.47	63.19
405.66	0.00
405.85	37.45
406.05	37.45
406.24	49.15
406.43	23.41
406.62	91.28
406.81	117.03
407.00	100.64
407.20	46.81
407.39	14.04
407.58	0.00
407.77	46.81
407.96	60.85
408.15	51.49
408.34	18.72
408.54	81.92
408.73	35.11
408.92	88.94
409.11	28.09
409.30	102.98
409.49	65.54
409.68	70.22
409.87	42.13
410.07	23.41
410.26	60.85
410.45	81.92
410.64	0.00
410.83	67.88
411.02	60.85
411.21	79.58
411.40	60.85
411.59	72.56
411.78	37.45
411.98	46.81
412.17	53.83
412.36	63.19
412.55	32.77
412.74	23.41
412.93	0.00
413.12	28.09
413.31	121.71
413.50	2.34
413.69	42.13
413.88	30.43
414.07	93.62
414.26	88.94
414.45	56.17
414.64	25.75
414.83	11.70
415.02	0.00
415.22	7.02
415.41	49.15
415.60	93.62
415.79	0.00
415.98	0.00
416.17	46.81
416.36	9.36
416.55	56.17
416.74	49.15
416.93	65.54
417.12	28.09
417.31	0.00
417.50	0.00
417.69	35.11
417.88	60.85
418.07	84.26
418.26	105.32
418.45	14.04
418.64	95.96
418.83	44.47
419.02	49.15
419.21	25.75
419.39	25.75
419.58	53.83
419.77	35.11
419.96	7.02
420.15	74.90
420.34	32.77
420.53	28.09
420.72	32.77
420.91	49.15
421.10	49.15
421.29	0.00
421.48	56.17
421.67	0.00
421.86	77.24
422.05	35.11
422.24	91.28
422.43	51.49
422.61	0.00
422.80	9.36
422.99	100.64
423.18	63.19
423.37	98.30
423.56	4.68
423.75	58.51
423.94	63.19
424.13	72.56
424.32	32.77
424.50	93.62
424.69	14.04
424.88	0.00
425.07	77.24
425.26	102.98
425.45	56.17
425.64	60.85
425.83	35.11
426.01	58.51
426.20	16.38
426.39	60.85
426.58	28.09
426.77	2.34
426.96	51.49
427.15	58.51
427.33	51.49
427.52	49.15
427.71	67.88
427.90	25.75
428.09	58.51
428.28	63.19
428.46	70.22
428.65	30.43
428.84	0.00
429.03	51.49
429.22	28.09
429.40	74.90
429.59	25.75
429.78	0.00
429.97	21.06
430.16	23.41
430.34	46.81
430.53	58.51
430.72	77.24
430.91	51.49
431.10	35.11
431.28	44.47
431.47	100.64
431.66	102.98
431.85	67.88
432.03	67.88
432.22	0.00
432.41	7.02
432.60	67.88
432.79	0.00
432.97	60.85
433.16	9.36
433.35	70.22
433.54	42.13
433.72	16.38
433.91	18.72
434.10	4.68
434.28	39.79
434.47	46.81
434.66	60.85
434.85	14.04
435.03	46.81
435.22	65.54
435.41	16.38
435.59	100.64
435.78	53.83
435.97	70.22
436.16	79.58
436.34	93.62
436.53	72.56
436.72	18.72
436.90	7.02
437.09	67.88
437.28	32.77
437.46	65.54
437.65	98.30
437.84	77.24
438.02	58.51
438.21	16.38
438.40	37.45
438.58	35.11
438.77	4.68
438.96	117.03
439.14	0.00
439.33	44.47
439.52	35.11
439.70	70.22
439.89	67.88
440.08	79.58
440.26	147.45
440.45	110.01
440.63	72.56
440.82	18.72
441.01	18.72
441.19	0.00
441.38	37.45
441.57	46.81
441.75	79.58
441.94	53.83
442.12	102.98
442.31	35.11
442.50	110.01
442.68	28.09
442.87	56.17
443.05	49.15
443.24	86.60
443.43	126.39
443.61	77.24
443.80	58.51
443.98	51.49
444.17	53.83
444.35	56.17
444.54	56.17
444.73	98.30
444.91	110.01
445.10	30.43
445.28	0.00
445.47	2.34
445.65	77.24
445.84	11.70
446.02	37.45
446.21	2.34
446.39	63.19
446.58	112.35
446.77	2.34
446.95	14.04
447.14	23.41
447.32	77.24
447.51	95.96
447.69	25.75
447.88	81.92
448.06	100.64
448.25	0.00
448.43	74.90
448.62	7.02
448.80	88.94
448.99	53.83
449.17	18.72
449.36	56.17
449.54	35.11
449.73	35.11
449.91	112.35
450.10	0.00
450.28	0.00
450.46	46.81
450.65	79.58
450.83	37.45
451.02	46.81
451.20	124.05
451.39	42.13
451.57	114.69
451.76	65.54
451.94	79.58
452.13	7.02
452.31	65.54
452.49	0.00
452.68	2.34
452.86	56.17
453.05	25.75
453.23	25.75
453.42	28.09
453.60	32.77
453.78	0.00
453.97	46.81
454.15	107.66
454.34	0.00
454.52	44.47
454.70	18.72
454.89	11.70
455.07	95.96
455.26	56.17
455.44	70.22
455.62	74.90
455.81	14.04
455.99	18.72
456.17	7.02
456.36	102.98
456.54	100.64
456.73	74.90
456.91	4.68
457.09	0.00
457.28	23.41
457.46	58.51
457.64	60.85
457.83	74.90
458.01	79.58
458.19	58.51
458.38	35.11
458.56	131.07
458.74	70.22
458.93	21.06
459.11	37.45
459.29	58.51
459.48	67.88
459.66	42.13
459.84	77.24
460.03	58.51
460.21	0.00
460.39	51.49
460.57	102.98
460.76	49.15
460.94	51.49
461.12	53.83
461.31	72.56
461.49	84.26
461.67	91.28
461.85	149.79
462.04	44.47
462.22	201.29
462.40	74.90
462.59	79.58
462.77	30.43
462.95	65.54
463.13	95.96
463.32	21.06
463.50	21.06
463.68	107.66
463.86	65.54
464.05	42.13
464.23	0.00
464.41	0.00
464.59	21.06
464.78	107.66
464.96	39.79
465.14	58.51
465.32	0.00
465.50	100.64
465.69	98.30
465.87	4.68
466.05	88.94
466.23	138.09
466.41	14.04
466.60	65.54
466.78	110.01
466.96	42.13
467.14	44.47
467.32	0.00
467.51	56.17
467.69	51.49
467.87	86.60
468.05	39.79
468.23	72.56
468.41	84.26
468.60	28.09
468.78	39.79
468.96	86.60
469.14	53.83
469.32	77.24
469.50	60.85
469.69	0.00
469.87	53.83
470.05	39.79
470.23	32.77
470.41	49.15
470.59	93.62
470.77	42.13
470.95	81.92
471.14	93.62
471.32	72.56
471.50	117.03
471.68	95.96
471.86	42.13
472.04	56.17
472.22	14.04
472.40	39.79
472.58	16.38
472.77	23.41
472.95	32.77
473.13	63.19
473.31	63.19
473.49	56.17
473.67	117.03
473.85	79.58
474.03	46.81
474.21	46.81
474.39	0.00
474.57	102.98
474.75	74.90
474.93	30.43
475.12	11.70
475.30	110.01
475.48	42.13
475.66	86.60
475.84	21.06
476.02	25.75
476.20	81.92
476.38	124.05
476.56	138.09
476.74	14.04
476.92	124.05
477.10	65.54
477.28	81.92
477.46	32.77
477.64	79.58
477.82	112.35
478.00	112.35
478.18	28.09
478.36	44.47
478.54	56.17
478.72	18.72
478.90	70.22
479.08	39.79
479.26	4.68
479.44	58.51
479.62	77.24
479.80	107.66
479.98	152.13
480.16	67.88
480.34	81.92
480.52	72.56
480.70	98.30
480.88	2.34
481.06	86.60
481.24	79.58
481.41	51.49
481.59	25.75
481.77	67.88
481.95	42.13
482.13	44.47
482.31	67.88
482.49	37.45
482.67	65.54
482.85	100.64
483.03	46.81
483.21	91.28
483.39	0.00
483.57	46.81
483.74	60.85
483.92	53.83
484.10	88.94
484.28	53.83
484.46	56.17
484.64	30.43
484.82	81.92
485.00	32.77
485.18	60.85
485.35	107.66
485.53	51.49
485.71	67.88
485.89	0.00
486.07	79.58
486.25	102.98
486.43	37.45
486.61	14.04
486.78	70.22
486.96	100.64
487.14	102.98
487.32	84.26
487.50	72.56
487.68	53.83
487.85	30.43
488.03	121.71
488.21	49.15
488.39	124.05
488.57	95.96
488.75	14.04
488.92	86.60
489.10	25.75
489.28	110.01
489.46	88.94
489.64	21.06
489.81	119.37
489.99	42.13
490.17	58.51
490.35	56.17
490.53	0.00
490.70	51.49
490.88	81.92
491.06	46.81
491.24	114.69
491.41	88.94
491.59	58.51
491.77	84.26
491.95	91.28
492.13	110.01
492.30	107.66
492.48	79.58
492.66	84.26
492.84	14.04
493.01	77.24
493.19	74.90
493.37	124.05
493.54	58.51
493.72	58.51
493.90	65.54
494.08	63.19
494.25	126.39
494.43	23.41
494.61	79.58
494.79	107.66
494.96	84.26
495.14	110.01
495.32	86.60
495.49	114.69
495.67	60.85
495.85	107.66
496.02	58.51
496.20	102.98
496.38	42.13
496.55	145.11
496.73	72.56
496.91	67.88
497.09	72.56
497.26	98.30
497.44	74.90
497.62	35.11
497.79	91.28
497.97	16.38
498.14	56.17
498.32	100.64
498.50	63.19
498.67	72.56
498.85	14.04
499.03	63.19
499.20	98.30
499.38	56.17
499.56	114.69
499.73	65.54
499.91	86.60
500.08	32.77
500.26	46.81
500.44	74.90
500.61	107.66
500.79	84.26
500.97	28.09
501.14	81.92
501.32	128.73
501.49	42.13
501.67	133.41
501.84	93.62
502.02	112.35
502.20	44.47
502.37	133.41
502.55	86.60
502.72	84.26
502.90	91.28
503.07	91.28
503.25	98.30
503.43	100.64
503.60	77.24
503.78	124.05
503.95	81.92
504.13	42.13
504.30	65.54
504.48	58.51
504.65	18.72
504.83	44.47
505.01	49.15
505.18	112.35
505.36	16.38
505.53	11.70
505.71	86.60
505.88	126.39
506.06	79.58
506.23	98.30
506.41	156.82
506.58	23.41
506.76	67.88
506.93	100.64
507.11	88.94
507.28	65.54
507.46	133.41
507.63	86.60
507.81	58.51
507.98	42.13
508.16	67.88
508.33	39.79
508.50	91.28
508.68	93.62
508.85	91.28
509.03	98.30
509.20	14.04
509.38	53.83
509.55	77.24
509.73	65.54
509.90	138.09
510.08	81.92
510.25	56.17
510.42	44.47
510.60	86.60
510.77	93.62
510.95	100.64
511.12	4.68
511.30	18.72
511.47	77.24
511.64	28.09
511.82	58.51
511.99	107.66
512.17	86.60
512.34	74.90
512.51	77.24
512.69	107.66
512.86	65.54
513.04	51.49
513.21	142.77
513.38	39.79
513.56	135.75
513.73	105.32
513.90	86.60
514.08	56.17
514.25	112.35
514.43	44.47
514.60	100.64
514.77	86.60
514.95	147.45
515.12	98.30
515.29	102.98
515.47	4.68
515.64	93.62
515.81	72.56
515.99	84.26
516.16	124.05
516.33	133.41
516.51	112.35
516.68	14.04
516.85	44.47
517.03	77.24
517.20	77.24
517.37	107.66
517.54	44.47
517.72	147.45
517.89	133.41
518.06	163.84
518.24	21.06
518.41	11.70
518.58	4.68
518.75	72.56
518.93	72.56
519.10	119.37
519.27	86.60
519.45	56.17
519.62	72.56
519.79	88.94
519.96	86.60
520.14	124.05
520.31	42.13
520.48	135.75
520.65	131.07
520.83	95.96
521.00	49.15
521.17	98.30
521.34	119.37
521.52	88.94
521.69	105.32
521.86	140.43
522.03	49.15
522.20	124.05
522.38	72.56
522.55	56.17
522.72	147.45
522.89	93.62
523.07	91.28
523.24	112.35
523.41	112.35
523.58	91.28
523.75	93.62
523.92	93.62
524.10	84.26
524.27	114.69
524.44	79.58
524.61	128.73
524.78	21.06
524.96	37.45
525.13	149.79
525.30	51.49
525.47	95.96
525.64	88.94
525.81	93.62
525.98	44.47
526.16	53.83
526.33	88.94
526.50	65.54
526.67	70.22
526.84	102.98
527.01	93.62
527.18	100.64
527.36	124.05
527.53	86.60
527.70	70.22
527.87	121.71
528.04	100.64
528.21	102.98
528.38	79.58
528.55	74.90
528.72	110.01
528.89	93.62
529.07	72.56
529.24	65.54
529.41	95.96
529.58	51.49
529.75	65.54
529.92	42.13
530.09	16.38
530.26	110.01
530.43	102.98
530.60	67.88
530.77	91.28
530.94	95.96
531.11	67.88
531.28	110.01
531.46	107.66
531.63	128.73
531.80	60.85
531.97	51.49
532.14	58.51
532.31	58.51
532.48	70.22
532.65	121.71
532.82	60.85
532.99	4.68
533.16	142.77
533.33	60.85
533.50	100.64
533.67	86.60
533.84	91.28
534.01	112.35
534.18	74.90
534.35	32.77
534.52	39.79
534.69	98.30
534.86	60.85
535.03	46.81
535.20	49.15
535.37	65.54
535.54	63.19
535.71	74.90
535.88	121.71
536.05	98.30
536.22	149.79
536.38	77.24
536.55	74.90
536.72	77.24
536.89	84.26
537.06	149.79
537.23	91.28
537.40	65.54
537.57	91.28
537.74	114.69
537.91	60.85
538.08	63.19
538.25	110.01
538.42	126.39
538.59	91.28
538.75	126.39
538.92	145.11
539.09	51.49
539.26	91.28
539.43	105.32
539.60	16.38
539.77	152.13
539.94	84.26
540.11	77.24
540.28	154.48
540.44	93.62
540.61	37.45
540.78	32.77
540.95	117.03
541.12	156.82
541.29	93.62
541.46	98.30
541.62	138.09
541.79	140.43
541.96	70.22
542.13	95.96
542.30	49.15
542.47	49.15
542.63	14.04
542.80	107.66
542.97	124.05
543.14	42.13
543.31	42.13
543.48	135.75
543.64	49.15
543.81	124.05
543.98	58.51
544.15	0.00
544.32	21.06
544.48	81.92
544.65	95.96
544.82	28.09
544.99	112.35
545.16	51.49
545.32	37.45
545.49	88.94
545.66	131.07
545.83	119.37
546.00	138.09
546.16	102.98
546.33	86.60
546.50	128.73
546.67	126.39
546.83	77.24
547.00	70.22
547.17	126.39
547.34	100.64
547.50	74.90
547.67	84.26
547.84	117.03
548.00	51.49
548.17	100.64
548.34	128.73
548.51	105.32
548.67	142.77
548.84	21.06
549.01	70.22
549.18	110.01
549.34	16.38
549.51	88.94
549.68	86.60
549.84	107.66
550.01	79.58
550.18	114.69
550.34	100.64
550.51	86.60
550.68	60.85
550.84	84.26
551.01	65.54
551.18	95.96
551.34	79.58
551.51	72.56
551.68	0.00
551.84	102.98
552.01	0.00
552.18	91.28
552.34	102.98
552.51	84.26
552.68	95.96
552.84	58.51
553.01	166.18
553.18	110.01
553.34	51.49
553.51	63.19
553.67	117.03
553.84	112.35
554.01	119.37
554.17	35.11
554.34	49.15
554.51	112.35
554.67	4.68
554.84	0.00
555.00	77.24
555.17	14.04
555.33	110.01
555.50	72.56
555.67	51.49
555.83	46.81
556.00	110.01
556.16	184.90
556.33	63.19
556.50	67.88
556.66	70.22
556.83	110.01
556.99	77.24
557.16	84.26
557.32	0.00
557.49	70.22
557.65	117.03
557.82	131.07
557.98	35.11
558.15	49.15
558.32	56.17
558.48	25.75
558.65	74.90
558.81	58.51
558.98	81.92
559.14	81.92
559.31	77.24
559.47	23.41
559.64	117.03
559.80	23.41
559.97	88.94
560.13	81.92
560.30	51.49
560.46	152.13
560.63	93.62
560.79	145.11
560.96	112.35
561.12	37.45
561.29	56.17
561.45	58.51
561.61	77.24
561.78	67.88
561.94	74.90
562.11	77.24
562.27	98.30
562.44	88.94
562.60	56.17
562.77	131.07
562.93	46.81
563.10	0.00
563.26	18.72
563.42	187.24
563.59	56.17
563.75	14.04
563.92	152.13
564.08	0.00
564.24	105.32
564.41	117.03
564.57	93.62
564.74	77.24
564.90	51.49
565.07	135.75
565.23	147.45
565.39	74.90
565.56	84.26
565.72	63.19
565.88	86.60
566.05	42.13
566.21	67.88
566.38	133.41
566.54	124.05
566.70	63.19
566.87	72.56
567.03	72.56
567.19	30.43
567.36	53.83
567.52	128.73
567.68	65.54
567.85	145.11
568.01	110.01
568.17	79.58
568.34	124.05
568.50	0.00
568.66	18.72
568.83	65.54
568.99	63.19
569.15	65.54
569.32	107.66
569.48	100.64
569.64	35.11
569.81	51.49
569.97	91.28
570.13	100.64
570.30	56.17
570.46	46.81
570.62	98.30
570.78	114.69
570.95	63.19
571.11	65.54
571.27	102.98
571.43	44.47
571.60	93.62
571.76	79.58
571.92	98.30
572.09	74.90
572.25	30.43
572.41	107.66
572.57	77.24
572.74	84.26
572.90	88.94
573.06	56.17
573.22	95.96
573.38	119.37
573.55	53.83
573.71	79.58
573.87	93.62
574.03	100.64
574.20	60.85
574.36	7.02
574.52	18.72
574.68	81.92
574.84	84.26
575.01	100.64
575.17	4.68
575.33	84.26
575.49	128.73
575.65	93.62
575.82	156.82
575.98	133.41
576.14	105.32
576.30	51.49
576.46	114.69
576.62	77.24
576.79	44.47
576.95	67.88
577.11	46.81
577.27	119.37
577.43	124.05
577.59	149.79
577.75	159.16
577.92	105.32
578.08	53.83
578.24	107.66
578.40	124.05
578.56	93.62
578.72	65.54
578.88	88.94
579.04	70.22
579.21	60.85
579.37	60.85
579.53	79.58
579.69	65.54
579.85	4.68
580.01	35.11
580.17	81.92
580.33	35.11
580.49	88.94
580.65	23.41
580.82	63.19
580.98	0.00
581.14	93.62
581.30	0.00
581.46	145.11
581.62	37.45
581.78	53.83
581.94	119.37
582.10	107.66
582.26	102.98
582.42	25.75
582.58	81.92
582.74	93.62
582.90	25.75
583.06	112.35
583.22	93.62
583.38	25.75
583.54	42.13
583.70	100.64
583.86	21.06
584.02	49.15
584.18	9.36
584.34	53.83
584.50	98.30
584.66	0.00
584.82	74.90
584.98	102.98
585.14	32.77
585.30	81.92
585.46	74.90
585.62	67.88
585.78	2.34
585.94	46.81
586.10	77.24
586.26	67.88
586.42	81.92
586.58	63.19
586.74	133.41
586.90	67.88
587.06	88.94
587.22	56.17
587.38	93.62
587.54	30.43
587.70	98.30
587.86	98.30
588.02	119.37
588.18	67.88
588.34	37.45
588.49	65.54
588.65	102.98
588.81	84.26
588.97	28.09
589.13	93.62
589.29	11.70
589.45	39.79
589.61	21.06
589.77	107.66
589.93	124.05
590.08	58.51
590.24	79.58
590.40	28.09
590.56	74.90
590.72	149.79
590.88	88.94
591.04	74.90
591.20	112.35
591.35	100.64
591.51	131.07
591.67	65.54
591.83	42.13
591.99	133.41
592.15	81.92
592.31	110.01
592.46	140.43
592.62	133.41
592.78	98.30
592.94	30.43
593.10	0.00
593.26	84.26
593.41	14.04
593.57	23.41
593.73	72.56
593.89	72.56
594.05	114.69
594.20	46.81
594.36	70.22
594.52	79.58
594.68	30.43
594.84	58.51
594.99	60.85
595.15	25.75
595.31	70.22
595.47	0.00
595.62	65.54
595.78	117.03
595.94	72.56
596.10	63.19
596.25	114.69
596.41	88.94
596.57	63.19
596.73	16.38
596.88	140.43
597.04	21.06
597.20	14.04
597.36	46.81
597.51	98.30
597.67	32.77
597.83	0.00
597.99	84.26
598.14	53.83
598.30	0.00
598.46	70.22
598.61	79.58
598.77	74.90
598.93	72.56
599.09	65.54
599.24	105.32
599.40	95.96
599.56	32.77
599.71	44.47
599.87	91.28
600.03	93.62
600.18	70.22
600.34	131.07
600.50	72.56
600.65	37.45
600.81	91.28
600.97	81.92
601.12	105.32
601.28	72.56
601.44	156.82
601.59	93.62
601.75	114.69
601.91	60.85
602.06	126.39
602.22	95.96
602.37	114.69
602.53	112.35
602.69	49.15
602.84	9.36
603.00	23.41
603.16	93.62
603.31	23.41
603.47	67.88
603.62	63.19
603.78	102.98
603.94	42.13
604.09	138.09
604.25	98.30
604.40	70.22
604.56	58.51
604.71	42.13
604.87	93.62
605.03	145.11
605.18	86.60
605.34	100.64
605.49	100.64
605.65	32.77
605.80	42.13
605.96	131.07
606.12	70.22
606.27	14.04
606.43	105.32
606.58	65.54
606.74	124.05
606.89	117.03
607.05	63.19
607.20	0.00
607.36	58.51
607.51	126.39
607.67	74.90
607.82	67.88
607.98	112.35
608.13	112.35
608.29	105.32
608.44	105.32
608.60	72.56
608.75	95.96
608.91	56.17
609.06	131.07
609.22	60.85
609.37	135.75
609.53	72.56
609.68	21.06
609.84	70.22
609.99	63.19
610.15	81.92
610.30	107.66
610.46	110.01
610.61	86.60
610.76	53.83
610.92	0.00
611.07	56.17
611.23	114.69
611.38	39.79
611.54	166.18
611.69	42.13
611.84	110.01
612.00	112.35
612.15	67.88
612.31	4.68
612.46	0.00
612.62	42.13
612.77	0.00
612.92	63.19
613.08	126.39
613.23	91.28
613.39	51.49
613.54	72.56
613.69	14.04
613.85	58.51
614.00	53.83
614.15	25.75
614.31	105.32
614.46	28.09
614.62	77.24
614.77	110.01
614.92	53.83
615.08	77.24
615.23	93.62
615.38	4.68
615.54	100.64
615.69	79.58
615.84	88.94
616.00	65.54
616.15	102.98
616.30	74.90
616.46	46.81
616.61	81.92
616.76	91.28
616.92	81.92
617.07	93.62
617.22	28.09
617.37	46.81
617.53	91.28
617.68	35.11
617.83	110.01
617.99	32.77
618.14	23.41
618.29	63.19
618.45	107.66
618.60	65.54
618.75	56.17
618.90	51.49
619.06	18.72
619.21	56.17
619.36	93.62
619.51	14.04
619.67	0.00
619.82	112.35
619.97	100.64
620.12	98.30
620.28	86.60
620.43	102.98
620.58	102.98
620.73	84.26
620.89	74.90
621.04	60.85
621.19	16.38
621.34	74.90
621.49	0.00
621.65	107.66
621.80	74.90
621.95	60.85
622.10	81.92
622.25	56.17
622.41	39.79
622.56	30.43
622.71	81.92
622.86	86.60
623.01	121.71
623.16	166.18
623.32	53.83
623.47	147.45
623.62	98.30
623.77	30.43
623.92	39.79
624.07	32.77
624.23	53.83
624.38	102.98
624.53	44.47
624.68	91.28
624.83	0.00
624.98	16.38
625.13	53.83
625.29	117.03
625.44	30.43
625.59	56.17
625.74	88.94
625.89	112.35
626.04	88.94
626.19	21.06
626.34	74.90
626.49	145.11
626.65	74.90
626.80	25.75
626.95	51.49
627.10	91.28
627.25	124.05
627.40	35.11
627.55	16.38
627.70	74.90
627.85	91.28
628.00	7.02
628.15	46.81
628.30	7.02
628.45	30.43
628.60	70.22
628.76	30.43
628.91	77.24
629.06	163.84
629.21	42.13
629.36	56.17
629.51	65.54
629.66	67.88
629.81	65.54
629.96	53.83
630.11	91.28
630.26	79.58
630.41	28.09
630.56	63.19
630.71	91.28
630.86	32.77
631.01	49.15
631.16	74.90
631.31	35.11
631.46	56.17
631.61	49.15
631.76	30.43
631.91	35.11
632.06	95.96
632.21	107.66
632.36	49.15
632.51	42.13
632.66	117.03
632.81	49.15
632.96	72.56
633.10	84.26
633.25	28.09
633.40	0.00
633.55	65.54
633.70	110.01
633.85	18.72
634.00	95.96
634.15	65.54
634.30	112.35
634.45	67.88
634.60	79.58
634.75	81.92
634.90	58.51
635.05	77.24
635.19	110.01
635.34	21.06
635.49	102.98
635.64	65.54
635.79	46.81
635.94	0.00
636.09	35.11
636.24	30.43
636.39	119.37
636.53	53.83
636.68	39.79
636.83	74.90
636.98	74.90
637.13	142.77
637.28	49.15
637.43	58.51
637.57	46.81
637.72	70.22
637.87	91.28
638.02	105.32
638.17	25.75
638.32	95.96
638.46	100.64
638.61	110.01
638.76	37.45
638.91	72.56
639.06	133.41
639.20	105.32
639.35	74.90
639.50	7.02
639.65	51.49
639.80	39.79
639.94	46.81
640.09	46.81
640.24	21.06
640.39	126.39
640.54	65.54
640.68	53.83
640.83	70.22
640.98	0.00
641.13	91.28
641.27	28.09
641.42	77.24
641.57	11.70
641.72	44.47
641.86	53.83
642.01	77.24
642.16	51.49
642.31	102.98
642.45	32.77
642.60	9.36
642.75	35.11
642.90	53.83
643.04	14.04
643.19	65.54
643.34	23.41
643.48	46.81
643.63	42.13
643.78	49.15
643.93	25.75
644.07	70.22
644.22	67.88
644.37	63.19
644.51	25.75
644.66	131.07
644.81	46.81
644.95	14.04
645.10	7.02
645.25	30.43
645.39	77.24
645.54	9.36
645.69	58.51
645.83	46.81
645.98	70.22
646.13	58.51
646.27	65.54
646.42	114.69
646.57	28.09
646.71	60.85
646.86	30.43
647.00	39.79
647.15	81.92
647.30	39.79
647.44	63.19
647.59	35.11
647.74	112.35
647.88	7.02
648.03	70.22
648.17	93.62
648.32	142.77
648.47	70.22
648.61	49.15
648.76	84.26
648.90	28.09
649.05	0.00
649.20	65.54
649.34	30.43
649.49	70.22
649.63	2.34
649.78	88.94
649.92	0.00
650.07	35.11
650.21	32.77
650.36	16.38
650.51	86.60
650.65	30.43
650.80	58.51
650.94	100.64
651.09	95.96
651.23	70.22
651.38	84.26
651.52	44.47
651.67	74.90
651.81	107.66
651.96	23.41
652.10	63.19
652.25	44.47
652.39	84.26
652.54	107.66
652.68	42.13
652.83	135.75
652.97	42.13
653.12	58.51
653.26	102.98
653.41	70.22
653.55	51.49
653.70	79.58
653.84	32.77
653.99	56.17
654.13	35.11
654.27	30.43
654.42	100.64
654.56	51.49
654.71	46.81
654.85	70.22
655.00	30.43
655.14	0.00
655.29	9.36
655.43	53.83
655.57	81.92
655.72	0.00
655.86	98.30
656.01	14.04
656.15	37.45
656.30	67.88
656.44	16.38
656.58	0.00
656.73	140.43
656.87	67.88
657.01	44.47
657.16	72.56
657.30	100.64
657.45	58.51
657.59	58.51
657.73	30.43
657.88	84.26
658.02	77.24
658.16	30.43
658.31	51.49
658.45	110.01
658.60	14.04
658.74	74.90
658.88	88.94
659.03	102.98
659.17	42.13
659.31	4.68
659.46	140.43
659.60	25.75
659.74	21.06
659.89	93.62
660.03	37.45
660.17	39.79
660.32	21.06
660.46	44.47
660.60	44.47
660.74	39.79
660.89	79.58
661.03	49.15
661.17	44.47
661.32	14.04
661.46	67.88
661.60	23.41
661.74	74.90
661.89	39.79
662.03	74.90
662.17	74.90
662.31	9.36
662.46	58.51
662.60	18.72
662.74	23.41
662.88	60.85
663.03	42.13
663.17	86.60
663.31	16.38
663.45	119.37
663.60	107.66
663.74	84.26
663.88	67.88
664.02	30.43
664.17	14.04
664.31	79.58
664.45	18.72
664.59	11.70
664.73	161.50
664.88	23.41
665.02	46.81
665.16	9.36
665.30	46.81
665.44	58.51
665.59	86.60
665.73	79.58
665.87	0.00
666.01	37.45
666.15	126.39
666.29	70.22
666.44	63.19
666.58	42.13
666.72	0.00
666.86	70.22
667.00	107.66
667.14	72.56
667.28	44.47
667.43	21.06
667.57	166.18
667.71	72.56
667.85	107.66
667.99	81.92
668.13	65.54
668.27	95.96
668.41	0.00
668.56	67.88
668.70	107.66
668.84	93.62
668.98	16.38
669.12	32.77
669.26	30.43
669.40	81.92
669.54	37.45
669.68	84.26
669.82	42.13
669.96	39.79
670.10	37.45
670.25	98.30
670.39	2.34
670.53	0.00
670.67	39.79
670.81	0.00
670.95	72.56
671.09	9.36
671.23	28.09
671.37	7.02
671.51	30.43
671.65	0.00
671.79	98.30
671.93	100.64
672.07	86.60
672.21	93.62
672.35	42.13
672.49	88.94
672.63	58.51
672.77	42.13
672.91	81.92
673.05	91.28
673.19	91.28
673.33	14.04
673.47	51.49
673.61	58.51
673.75	60.85
673.89	14.04
674.03	51.49
674.17	88.94
674.31	42.13
674.45	42.13
674.59	67.88
674.73	4.68
674.87	0.00
675.01	16.38
675.15	95.96
675.29	37.45
675.43	18.72
675.56	65.54
675.70	67.88
675.84	65.54
675.98	51.49
676.12	35.11
676.26	51.49
676.40	81.92
676.54	79.58
676.68	51.49
676.82	74.90
676.96	100.64
677.10	37.45
677.23	74.90
677.37	51.49
677.51	51.49
677.65	2.34
677.79	25.75
677.93	63.19
678.07	81.92
678.21	60.85
678.34	46.81
678.48	39.79
678.62	32.77
678.76	37.45
678.90	21.06
679.04	0.00
679.18	0.00
679.31	84.26
679.45	79.58
679.59	0.00
679.73	53.83
679.87	32.77
680.00	60.85
680.14	58.51
680.28	84.26
680.42	60.85
680.56	0.00
680.70	21.06
680.83	84.26
680.97	79.58
681.11	86.60
681.25	51.49
681.39	117.03
681.52	119.37
681.66	70.22
681.80	0.00
681.94	46.81
682.07	0.00
682.21	18.72
682.35	4.68
682.49	16.38
682.62	74.90
682.76	49.15
682.90	72.56
683.04	44.47
683.17	35.11
683.31	28.09
683.45	0.00
683.59	100.64
683.72	51.49
683.86	25.75
684.00	23.41
684.13	56.17
684.27	112.35
684.41	28.09
684.55	58.51
684.68	39.79
684.82	114.69
684.96	14.04
685.09	30.43
685.23	60.85
685.37	81.92
685.50	42.13
685.64	30.43
685.78	0.00
685.91	39.79
686.05	51.49
686.19	63.19
686.32	56.17
686.46	7.02
686.60	0.00
686.73	0.00
686.87	9.36
687.01	23.41
687.14	7.02
687.28	23.41
687.42	42.13
687.55	23.41
687.69	23.41
687.82	72.56
687.96	72.56
688.10	70.22
688.23	81.92
688.37	114.69
688.50	37.45
688.64	58.51
688.78	56.17
688.91	49.15
689.05	93.62
689.18	37.45
689.32	32.77
689.46	86.60
689.59	0.00
689.73	110.01
689.86	0.00
690.00	67.88
690.13	53.83
690.27	72.56
690.41	65.54
690.54	63.19
690.68	35.11
690.81	14.04
690.95	39.79
691.08	63.19
691.22	0.00
691.35	0.00
691.49	86.60
691.62	100.64
691.76	60.85
691.89	72.56
692.03	37.45
692.16	58.51
692.30	46.81
692.43	18.72
692.57	56.17
692.70	58.51
692.84	9.36
692.97	44.47
693.11	93.62
693.24	81.92
693.38	42.13
693.51	0.00
693.65	81.92
693.78	53.83
693.92	4.68
694.05	140.43
694.19	16.38
694.32	11.70
694.45	0.00
694.59	0.00
694.72	14.04
694.86	0.00
694.99	35.11
695.13	37.45
695.26	35.11
695.39	84.26
695.53	0.00
695.66	35.11
695.80	0.00
695.93	9.36
696.07	60.85
696.20	30.43
696.33	0.00
696.47	0.00
696.60	0.00
696.73	0.00
696.87	0.00
697.00	32.77
697.14	67.88
697.27	0.00
697.40	42.13
697.54	70.22
697.67	25.75
697.80	7.02
697.94	0.00
698.07	77.24
698.21	72.56
698.34	56.17
698.47	0.00
698.61	124.05
698.74	39.79
698.87	16.38
699.01	37.45
699.14	93.62
699.27	100.64
699.40	7.02
699.54	67.88
699.67	0.00
699.80	37.45
699.94	74.90
700.07	21.06
700.20	0.00
700.34	114.69
700.47	44.47
700.60	44.47
700.73	30.43
700.87	79.58
701.00	37.45
701.13	58.51
701.26	14.04
701.40	37.45
701.53	0.00
701.66	9.36
701.79	72.56
701.93	67.88
702.06	9.36
702.19	11.70
702.32	74.90
702.46	58.51
702.59	28.09
702.72	44.47
702.85	9.36
702.99	63.19
703.12	32.77
703.25	28.09
703.38	30.43
703.51	46.81
703.65	72.56
703.78	37.45
703.91	93.62
704.04	86.60
704.17	72.56
704.31	0.00
704.44	102.98
704.57	91.28
704.70	60.85
704.83	0.00
704.96	32.77
705.10	0.00
705.23	7.02
>>>>>End Processed Spectral Data<<<<<
