SpectraSuite Data File
++++++++++++++++++++++++++++++++++++
Date: Fri Oct 04 12:13:37 GMT-05:00 2013
User: price-jones
Dark Spectrum Present: No
Reference Spectrum Present: No
Number of Sampled Component Spectra: 1
Spectrometers: USB2+H05261
Integration Time (usec): 10000 (USB2+H05261)
Spectra Averaged: 1 (USB2+H05261)
Boxcar Smoothing: 0 (USB2+H05261)
Correct for Electrical Dark: No (USB2+H05261)
Strobe/Lamp Enabled: No (USB2+H05261)
Correct for Detector Non-linearity: No (USB2+H05261)
Correct for Stray Light: No (USB2+H05261)
Number of Pixels in Processed Spectrum: 2048
>>>>>Begin Processed Spectral Data<<<<<
365.73	0.00
365.92	0.00
366.12	0.00
366.32	0.00
366.52	0.00
366.72	0.00
366.91	0.00
367.11	0.00
367.31	0.00
367.51	0.00
367.70	0.00
367.90	0.00
368.10	0.00
368.30	0.00
368.49	0.00
368.69	0.00
368.89	0.00
369.09	0.00
369.28	0.00
369.48	0.00
369.68	0.00
369.87	0.00
370.07	0.00
370.27	0.00
370.47	0.00
370.66	0.00
370.86	0.00
371.06	0.00
371.25	0.00
371.45	0.00
371.65	0.00
371.84	28.09
372.04	0.00
372.24	93.62
372.44	4.68
372.63	9.36
372.83	53.83
373.03	37.45
373.22	0.00
373.42	9.36
373.62	86.60
373.81	86.60
374.01	0.00
374.21	44.47
374.40	11.70
374.60	39.79
374.79	4.68
374.99	98.30
375.19	30.43
375.38	37.45
375.58	58.51
375.78	9.36
375.97	79.58
376.17	4.68
376.37	58.51
376.56	53.83
376.76	25.75
376.95	9.36
377.15	0.00
377.35	7.02
377.54	0.00
377.74	0.00
377.93	63.19
378.13	51.49
378.33	21.06
378.52	44.47
378.72	74.90
378.91	0.00
379.11	32.77
379.31	0.00
379.50	0.00
379.70	0.00
379.89	7.02
380.09	67.88
380.28	4.68
380.48	0.00
380.68	91.28
380.87	0.00
381.07	2.34
381.26	37.45
381.46	0.00
381.65	0.00
381.85	46.81
382.04	30.43
382.24	0.00
382.43	0.00
382.63	0.00
382.83	0.00
383.02	7.02
383.22	0.00
383.41	0.00
383.61	2.34
383.80	9.36
384.00	86.60
384.19	0.00
384.39	35.11
384.58	63.19
384.78	44.47
384.97	25.75
385.17	0.00
385.36	16.38
385.56	18.72
385.75	0.00
385.95	9.36
386.14	0.00
386.34	42.13
386.53	9.36
386.72	7.02
386.92	9.36
387.11	37.45
387.31	44.47
387.50	91.28
387.70	46.81
387.89	0.00
388.09	0.00
388.28	51.49
388.48	51.49
388.67	56.17
388.86	51.49
389.06	16.38
389.25	93.62
389.45	4.68
389.64	11.70
389.84	0.00
390.03	0.00
390.22	0.00
390.42	58.51
390.61	39.79
390.81	28.09
391.00	0.00
391.19	53.83
391.39	0.00
391.58	18.72
391.78	30.43
391.97	37.45
392.16	18.72
392.36	32.77
392.55	0.00
392.75	11.70
392.94	35.11
393.13	0.00
393.33	0.00
393.52	25.75
393.71	0.00
393.91	91.28
394.10	16.38
394.29	39.79
394.49	49.15
394.68	28.09
394.88	0.00
395.07	37.45
395.26	51.49
395.46	0.00
395.65	63.19
395.84	0.00
396.04	16.38
396.23	39.79
396.42	0.00
396.62	0.00
396.81	0.00
397.00	0.00
397.19	91.28
397.39	63.19
397.58	39.79
397.77	0.00
397.97	0.00
398.16	58.51
398.35	51.49
398.55	112.35
398.74	0.00
398.93	67.88
399.12	51.49
399.32	28.09
399.51	14.04
399.70	30.43
399.90	39.79
400.09	46.81
400.28	23.41
400.47	21.06
400.67	60.85
400.86	63.19
401.05	67.88
401.24	44.47
401.44	58.51
401.63	21.06
401.82	30.43
402.01	30.43
402.21	58.51
402.40	53.83
402.59	0.00
402.78	30.43
402.97	84.26
403.17	0.00
403.36	14.04
403.55	58.51
403.74	51.49
403.93	77.24
404.13	25.75
404.32	9.36
404.51	37.45
404.70	110.01
404.89	30.43
405.09	0.00
405.28	60.85
405.47	0.00
405.66	0.00
405.85	9.36
406.05	2.34
406.24	60.85
406.43	23.41
406.62	184.90
406.81	30.43
407.00	58.51
407.20	81.92
407.39	32.77
407.58	42.13
407.77	49.15
407.96	42.13
408.15	28.09
408.34	0.00
408.54	46.81
408.73	28.09
408.92	46.81
409.11	49.15
409.30	81.92
409.49	65.54
409.68	58.51
409.87	0.00
410.07	105.32
410.26	65.54
410.45	23.41
410.64	39.79
410.83	35.11
411.02	0.00
411.21	44.47
411.40	53.83
411.59	35.11
411.78	23.41
411.98	0.00
412.17	58.51
412.36	42.13
412.55	25.75
412.74	0.00
412.93	28.09
413.12	74.90
413.31	39.79
413.50	25.75
413.69	0.00
413.88	0.00
414.07	0.00
414.26	93.62
414.45	32.77
414.64	11.70
414.83	42.13
415.02	91.28
415.22	70.22
415.41	9.36
415.60	67.88
415.79	100.64
415.98	60.85
416.17	86.60
416.36	18.72
416.55	98.30
416.74	37.45
416.93	91.28
417.12	0.00
417.31	74.90
417.50	51.49
417.69	112.35
417.88	65.54
418.07	88.94
418.26	37.45
418.45	11.70
418.64	28.09
418.83	16.38
419.02	107.66
419.21	60.85
419.39	44.47
419.58	0.00
419.77	79.58
419.96	119.37
420.15	100.64
420.34	37.45
420.53	32.77
420.72	37.45
420.91	51.49
421.10	65.54
421.29	58.51
421.48	49.15
421.67	74.90
421.86	84.26
422.05	60.85
422.24	2.34
422.43	39.79
422.61	100.64
422.80	14.04
422.99	81.92
423.18	18.72
423.37	51.49
423.56	25.75
423.75	35.11
423.94	0.00
424.13	79.58
424.32	28.09
424.50	14.04
424.69	65.54
424.88	102.98
425.07	65.54
425.26	0.00
425.45	124.05
425.64	0.00
425.83	93.62
426.01	44.47
426.20	84.26
426.39	46.81
426.58	11.70
426.77	102.98
426.96	16.38
427.15	102.98
427.33	46.81
427.52	39.79
427.71	39.79
427.90	0.00
428.09	37.45
428.28	0.00
428.46	0.00
428.65	74.90
428.84	7.02
429.03	23.41
429.22	63.19
429.40	74.90
429.59	37.45
429.78	18.72
429.97	53.83
430.16	56.17
430.34	70.22
430.53	42.13
430.72	98.30
430.91	23.41
431.10	0.00
431.28	63.19
431.47	37.45
431.66	16.38
431.85	18.72
432.03	91.28
432.22	0.00
432.41	35.11
432.60	7.02
432.79	51.49
432.97	0.00
433.16	56.17
433.35	93.62
433.54	14.04
433.72	46.81
433.91	70.22
434.10	44.47
434.28	37.45
434.47	4.68
434.66	37.45
434.85	7.02
435.03	117.03
435.22	37.45
435.41	0.00
435.59	67.88
435.78	142.77
435.97	4.68
436.16	74.90
436.34	37.45
436.53	72.56
436.72	0.00
436.90	0.00
437.09	23.41
437.28	16.38
437.46	0.00
437.65	4.68
437.84	67.88
438.02	9.36
438.21	11.70
438.40	70.22
438.58	18.72
438.77	77.24
438.96	56.17
439.14	21.06
439.33	37.45
439.52	119.37
439.70	2.34
439.89	53.83
440.08	44.47
440.26	79.58
440.45	67.88
440.63	63.19
440.82	60.85
441.01	107.66
441.19	70.22
441.38	79.58
441.57	49.15
441.75	23.41
441.94	21.06
442.12	4.68
442.31	2.34
442.50	23.41
442.68	93.62
442.87	58.51
443.05	0.00
443.24	23.41
443.43	56.17
443.61	81.92
443.80	131.07
443.98	39.79
444.17	4.68
444.35	49.15
444.54	0.00
444.73	98.30
444.91	0.00
445.10	63.19
445.28	35.11
445.47	74.90
445.65	42.13
445.84	88.94
446.02	46.81
446.21	37.45
446.39	53.83
446.58	91.28
446.77	7.02
446.95	93.62
447.14	16.38
447.32	60.85
447.51	4.68
447.69	93.62
447.88	81.92
448.06	67.88
448.25	0.00
448.43	88.94
448.62	65.54
448.80	58.51
448.99	35.11
449.17	37.45
449.36	58.51
449.54	16.38
449.73	35.11
449.91	32.77
450.10	53.83
450.28	56.17
450.46	140.43
450.65	81.92
450.83	74.90
451.02	53.83
451.20	37.45
451.39	107.66
451.57	28.09
451.76	72.56
451.94	65.54
452.13	53.83
452.31	88.94
452.49	0.00
452.68	86.60
452.86	18.72
453.05	102.98
453.23	25.75
453.42	9.36
453.60	65.54
453.78	100.64
453.97	35.11
454.15	35.11
454.34	72.56
454.52	88.94
454.70	88.94
454.89	65.54
455.07	32.77
455.26	18.72
455.44	58.51
455.62	56.17
455.81	18.72
455.99	16.38
456.17	28.09
456.36	0.00
456.54	9.36
456.73	39.79
456.91	9.36
457.09	51.49
457.28	84.26
457.46	77.24
457.64	84.26
457.83	11.70
458.01	81.92
458.19	35.11
458.38	91.28
458.56	23.41
458.74	91.28
458.93	30.43
459.11	4.68
459.29	44.47
459.48	70.22
459.66	53.83
459.84	72.56
460.03	65.54
460.21	63.19
460.39	107.66
460.57	67.88
460.76	28.09
460.94	100.64
461.12	35.11
461.31	112.35
461.49	65.54
461.67	110.01
461.85	63.19
462.04	124.05
462.22	128.73
462.40	65.54
462.59	51.49
462.77	56.17
462.95	93.62
463.13	44.47
463.32	42.13
463.50	93.62
463.68	53.83
463.86	65.54
464.05	11.70
464.23	0.00
464.41	56.17
464.59	9.36
464.78	11.70
464.96	9.36
465.14	32.77
465.32	46.81
465.50	42.13
465.69	0.00
465.87	70.22
466.05	18.72
466.23	110.01
466.41	86.60
466.60	42.13
466.78	23.41
466.96	53.83
467.14	35.11
467.32	70.22
467.51	32.77
467.69	49.15
467.87	159.16
468.05	74.90
468.23	42.13
468.41	46.81
468.60	53.83
468.78	0.00
468.96	9.36
469.14	72.56
469.32	46.81
469.50	39.79
469.69	77.24
469.87	56.17
470.05	67.88
470.23	86.60
470.41	58.51
470.59	93.62
470.77	77.24
470.95	79.58
471.14	11.70
471.32	74.90
471.50	63.19
471.68	35.11
471.86	9.36
472.04	9.36
472.22	72.56
472.40	110.01
472.58	23.41
472.77	42.13
472.95	42.13
473.13	100.64
473.31	46.81
473.49	18.72
473.67	60.85
473.85	98.30
474.03	11.70
474.21	0.00
474.39	0.00
474.57	35.11
474.75	126.39
474.93	72.56
475.12	0.00
475.30	9.36
475.48	84.26
475.66	51.49
475.84	79.58
476.02	102.98
476.20	9.36
476.38	35.11
476.56	14.04
476.74	23.41
476.92	30.43
477.10	25.75
477.28	16.38
477.46	14.04
477.64	63.19
477.82	131.07
478.00	72.56
478.18	18.72
478.36	53.83
478.54	32.77
478.72	74.90
478.90	37.45
479.08	91.28
479.26	16.38
479.44	65.54
479.62	67.88
479.80	18.72
479.98	98.30
480.16	18.72
480.34	88.94
480.52	0.00
480.70	28.09
480.88	74.90
481.06	39.79
481.24	74.90
481.41	70.22
481.59	74.90
481.77	56.17
481.95	102.98
482.13	53.83
482.31	21.06
482.49	0.00
482.67	4.68
482.85	86.60
483.03	53.83
483.21	53.83
483.39	53.83
483.57	74.90
483.74	21.06
483.92	60.85
484.10	152.13
484.28	86.60
484.46	0.00
484.64	46.81
484.82	81.92
485.00	60.85
485.18	98.30
485.35	25.75
485.53	42.13
485.71	25.75
485.89	42.13
486.07	77.24
486.25	44.47
486.43	84.26
486.61	86.60
486.78	95.96
486.96	53.83
487.14	23.41
487.32	88.94
487.50	65.54
487.68	58.51
487.85	84.26
488.03	35.11
488.21	126.39
488.39	60.85
488.57	86.60
488.75	16.38
488.92	121.71
489.10	79.58
489.28	53.83
489.46	25.75
489.64	44.47
489.81	84.26
489.99	140.43
490.17	30.43
490.35	72.56
490.53	67.88
490.70	53.83
490.88	102.98
491.06	42.13
491.24	77.24
491.41	79.58
491.59	117.03
491.77	60.85
491.95	0.00
492.13	140.43
492.30	81.92
492.48	56.17
492.66	51.49
492.84	74.90
493.01	110.01
493.19	46.81
493.37	86.60
493.54	51.49
493.72	60.85
493.90	11.70
494.08	128.73
494.25	72.56
494.43	112.35
494.61	114.69
494.79	128.73
494.96	49.15
495.14	74.90
495.32	53.83
495.49	133.41
495.67	46.81
495.85	25.75
496.02	86.60
496.20	44.47
496.38	86.60
496.55	91.28
496.73	0.00
496.91	84.26
497.09	117.03
497.26	114.69
497.44	161.50
497.62	16.38
497.79	44.47
497.97	65.54
498.14	98.30
498.32	74.90
498.50	35.11
498.67	88.94
498.85	49.15
499.03	16.38
499.20	51.49
499.38	77.24
499.56	81.92
499.73	121.71
499.91	21.06
500.08	21.06
500.26	65.54
500.44	189.58
500.61	102.98
500.79	58.51
500.97	112.35
501.14	74.90
501.32	114.69
501.49	112.35
501.67	107.66
501.84	63.19
502.02	107.66
502.20	133.41
502.37	51.49
502.55	28.09
502.72	84.26
502.90	65.54
503.07	145.11
503.25	67.88
503.43	72.56
503.60	98.30
503.78	53.83
503.95	95.96
504.13	91.28
504.30	72.56
504.48	191.92
504.65	126.39
504.83	91.28
505.01	121.71
505.18	156.82
505.36	110.01
505.53	124.05
505.71	102.98
505.88	46.81
506.06	121.71
506.23	95.96
506.41	147.45
506.58	65.54
506.76	105.32
506.93	65.54
507.11	74.90
507.28	49.15
507.46	0.00
507.63	9.36
507.81	42.13
507.98	119.37
508.16	74.90
508.33	51.49
508.50	70.22
508.68	81.92
508.85	149.79
509.03	79.58
509.20	119.37
509.38	77.24
509.55	95.96
509.73	131.07
509.90	56.17
510.08	79.58
510.25	60.85
510.42	100.64
510.60	100.64
510.77	102.98
510.95	51.49
511.12	126.39
511.30	131.07
511.47	84.26
511.64	81.92
511.82	112.35
511.99	30.43
512.17	114.69
512.34	74.90
512.51	86.60
512.69	21.06
512.86	63.19
513.04	110.01
513.21	35.11
513.38	53.83
513.56	56.17
513.73	56.17
513.90	117.03
514.08	147.45
514.25	46.81
514.43	37.45
514.60	86.60
514.77	81.92
514.95	81.92
515.12	42.13
515.29	121.71
515.47	9.36
515.64	39.79
515.81	51.49
515.99	72.56
516.16	0.00
516.33	56.17
516.51	81.92
516.68	95.96
516.85	39.79
517.03	44.47
517.20	14.04
517.37	49.15
517.54	11.70
517.72	46.81
517.89	91.28
518.06	81.92
518.24	102.98
518.41	93.62
518.58	0.00
518.75	84.26
518.93	32.77
519.10	81.92
519.27	126.39
519.45	16.38
519.62	100.64
519.79	37.45
519.96	46.81
520.14	77.24
520.31	60.85
520.48	46.81
520.65	86.60
520.83	168.52
521.00	81.92
521.17	177.88
521.34	140.43
521.52	42.13
521.69	72.56
521.86	138.09
522.03	119.37
522.20	79.58
522.38	107.66
522.55	187.24
522.72	126.39
522.89	60.85
523.07	121.71
523.24	114.69
523.41	128.73
523.58	60.85
523.75	79.58
523.92	42.13
524.10	7.02
524.27	70.22
524.44	98.30
524.61	23.41
524.78	110.01
524.96	70.22
525.13	77.24
525.30	117.03
525.47	117.03
525.64	58.51
525.81	77.24
525.98	91.28
526.16	63.19
526.33	35.11
526.50	65.54
526.67	79.58
526.84	23.41
527.01	107.66
527.18	93.62
527.36	74.90
527.53	98.30
527.70	63.19
527.87	70.22
528.04	88.94
528.21	60.85
528.38	107.66
528.55	51.49
528.72	124.05
528.89	63.19
529.07	58.51
529.24	7.02
529.41	63.19
529.58	138.09
529.75	121.71
529.92	138.09
530.09	117.03
530.26	88.94
530.43	79.58
530.60	133.41
530.77	114.69
530.94	81.92
531.11	128.73
531.28	60.85
531.46	107.66
531.63	81.92
531.80	30.43
531.97	84.26
532.14	25.75
532.31	88.94
532.48	72.56
532.65	140.43
532.82	0.00
532.99	93.62
533.16	88.94
533.33	110.01
533.50	58.51
533.67	133.41
533.84	86.60
534.01	65.54
534.18	112.35
534.35	102.98
534.52	74.90
534.69	142.77
534.86	135.75
535.03	63.19
535.20	37.45
535.37	37.45
535.54	53.83
535.71	63.19
535.88	72.56
536.05	133.41
536.22	95.96
536.38	119.37
536.55	105.32
536.72	56.17
536.89	74.90
537.06	91.28
537.23	81.92
537.40	86.60
537.57	67.88
537.74	121.71
537.91	77.24
538.08	112.35
538.25	152.13
538.42	56.17
538.59	126.39
538.75	65.54
538.92	100.64
539.09	4.68
539.26	105.32
539.43	60.85
539.60	74.90
539.77	88.94
539.94	58.51
540.11	46.81
540.28	53.83
540.44	60.85
540.61	107.66
540.78	72.56
540.95	84.26
541.12	25.75
541.29	0.00
541.46	93.62
541.62	74.90
541.79	138.09
541.96	91.28
542.13	114.69
542.30	67.88
542.47	177.88
542.63	81.92
542.80	51.49
542.97	93.62
543.14	102.98
543.31	44.47
543.48	126.39
543.64	102.98
543.81	56.17
543.98	65.54
544.15	30.43
544.32	63.19
544.48	72.56
544.65	105.32
544.82	74.90
544.99	74.90
545.16	102.98
545.32	112.35
545.49	105.32
545.66	91.28
545.83	77.24
546.00	91.28
546.16	88.94
546.33	93.62
546.50	42.13
546.67	121.71
546.83	114.69
547.00	58.51
547.17	67.88
547.34	72.56
547.50	35.11
547.67	58.51
547.84	35.11
548.00	63.19
548.17	74.90
548.34	107.66
548.51	88.94
548.67	117.03
548.84	37.45
549.01	11.70
549.18	77.24
549.34	84.26
549.51	35.11
549.68	121.71
549.84	74.90
550.01	70.22
550.18	86.60
550.34	88.94
550.51	110.01
550.68	175.54
550.84	119.37
551.01	46.81
551.18	88.94
551.34	74.90
551.51	86.60
551.68	49.15
551.84	28.09
552.01	21.06
552.18	95.96
552.34	131.07
552.51	88.94
552.68	74.90
552.84	117.03
553.01	56.17
553.18	105.32
553.34	0.00
553.51	51.49
553.67	65.54
553.84	39.79
554.01	42.13
554.17	77.24
554.34	95.96
554.51	84.26
554.67	102.98
554.84	53.83
555.00	84.26
555.17	72.56
555.33	147.45
555.50	156.82
555.67	53.83
555.83	112.35
556.00	79.58
556.16	124.05
556.33	60.85
556.50	102.98
556.66	72.56
556.83	77.24
556.99	77.24
557.16	114.69
557.32	107.66
557.49	23.41
557.65	21.06
557.82	107.66
557.98	135.75
558.15	110.01
558.32	105.32
558.48	156.82
558.65	51.49
558.81	84.26
558.98	70.22
559.14	95.96
559.31	124.05
559.47	63.19
559.64	53.83
559.80	11.70
559.97	79.58
560.13	98.30
560.30	112.35
560.46	28.09
560.63	74.90
560.79	88.94
560.96	63.19
561.12	67.88
561.29	11.70
561.45	133.41
561.61	126.39
561.78	114.69
561.94	72.56
562.11	32.77
562.27	42.13
562.44	93.62
562.60	23.41
562.77	79.58
562.93	79.58
563.10	67.88
563.26	70.22
563.42	77.24
563.59	77.24
563.75	112.35
563.92	79.58
564.08	0.00
564.24	100.64
564.41	46.81
564.57	86.60
564.74	63.19
564.90	166.18
565.07	112.35
565.23	74.90
565.39	112.35
565.56	79.58
565.72	124.05
565.88	149.79
566.05	44.47
566.21	77.24
566.38	37.45
566.54	70.22
566.70	67.88
566.87	65.54
567.03	84.26
567.19	161.50
567.36	100.64
567.52	133.41
567.68	112.35
567.85	100.64
568.01	53.83
568.17	112.35
568.34	70.22
568.50	98.30
568.66	114.69
568.83	88.94
568.99	88.94
569.15	79.58
569.32	117.03
569.48	32.77
569.64	77.24
569.81	84.26
569.97	102.98
570.13	98.30
570.30	86.60
570.46	9.36
570.62	39.79
570.78	117.03
570.95	53.83
571.11	65.54
571.27	72.56
571.43	44.47
571.60	63.19
571.76	63.19
571.92	28.09
572.09	114.69
572.25	147.45
572.41	147.45
572.57	117.03
572.74	117.03
572.90	131.07
573.06	81.92
573.22	58.51
573.38	67.88
573.55	98.30
573.71	44.47
573.87	21.06
574.03	58.51
574.20	63.19
574.36	79.58
574.52	81.92
574.68	42.13
574.84	91.28
575.01	7.02
575.17	51.49
575.33	100.64
575.49	37.45
575.65	149.79
575.82	16.38
575.98	21.06
576.14	58.51
576.30	149.79
576.46	128.73
576.62	110.01
576.79	77.24
576.95	53.83
577.11	112.35
577.27	35.11
577.43	126.39
577.59	60.85
577.75	121.71
577.92	42.13
578.08	95.96
578.24	9.36
578.40	51.49
578.56	86.60
578.72	107.66
578.88	74.90
579.04	23.41
579.21	110.01
579.37	60.85
579.53	91.28
579.69	46.81
579.85	67.88
580.01	88.94
580.17	37.45
580.33	67.88
580.49	124.05
580.65	105.32
580.82	98.30
580.98	35.11
581.14	86.60
581.30	53.83
581.46	117.03
581.62	126.39
581.78	105.32
581.94	4.68
582.10	74.90
582.26	79.58
582.42	110.01
582.58	58.51
582.74	74.90
582.90	63.19
583.06	114.69
583.22	63.19
583.38	88.94
583.54	84.26
583.70	168.52
583.86	105.32
584.02	18.72
584.18	88.94
584.34	51.49
584.50	121.71
584.66	152.13
584.82	98.30
584.98	28.09
585.14	128.73
585.30	35.11
585.46	126.39
585.62	100.64
585.78	93.62
585.94	74.90
586.10	16.38
586.26	98.30
586.42	77.24
586.58	138.09
586.74	42.13
586.90	95.96
587.06	107.66
587.22	63.19
587.38	159.16
587.54	60.85
587.70	16.38
587.86	51.49
588.02	107.66
588.18	107.66
588.34	53.83
588.49	79.58
588.65	102.98
588.81	74.90
588.97	84.26
589.13	91.28
589.29	84.26
589.45	23.41
589.61	21.06
589.77	77.24
589.93	32.77
590.08	65.54
590.24	77.24
590.40	65.54
590.56	184.90
590.72	4.68
590.88	67.88
591.04	100.64
591.20	7.02
591.35	44.47
591.51	65.54
591.67	21.06
591.83	65.54
591.99	86.60
592.15	46.81
592.31	72.56
592.46	51.49
592.62	105.32
592.78	53.83
592.94	166.18
593.10	70.22
593.26	79.58
593.41	0.00
593.57	102.98
593.73	84.26
593.89	60.85
594.05	79.58
594.20	23.41
594.36	154.48
594.52	7.02
594.68	84.26
594.84	60.85
594.99	42.13
595.15	126.39
595.31	4.68
595.47	98.30
595.62	37.45
595.78	16.38
595.94	79.58
596.10	30.43
596.25	95.96
596.41	35.11
596.57	93.62
596.73	9.36
596.88	77.24
597.04	0.00
597.20	98.30
597.36	140.43
597.51	110.01
597.67	98.30
597.83	49.15
597.99	102.98
598.14	18.72
598.30	161.50
598.46	74.90
598.61	72.56
598.77	4.68
598.93	163.84
599.09	63.19
599.24	128.73
599.40	14.04
599.56	51.49
599.71	77.24
599.87	72.56
600.03	70.22
600.18	65.54
600.34	60.85
600.50	112.35
600.65	56.17
600.81	46.81
600.97	107.66
601.12	25.75
601.28	81.92
601.44	93.62
601.59	53.83
601.75	42.13
601.91	84.26
602.06	56.17
602.22	28.09
602.37	32.77
602.53	112.35
602.69	107.66
602.84	63.19
603.00	93.62
603.16	126.39
603.31	107.66
603.47	105.32
603.62	42.13
603.78	46.81
603.94	110.01
604.09	44.47
604.25	58.51
604.40	28.09
604.56	30.43
604.71	77.24
604.87	56.17
605.03	42.13
605.18	9.36
605.34	128.73
605.49	60.85
605.65	46.81
605.80	74.90
605.96	91.28
606.12	70.22
606.27	84.26
606.43	93.62
606.58	81.92
606.74	35.11
606.89	119.37
607.05	72.56
607.20	4.68
607.36	25.75
607.51	74.90
607.67	35.11
607.82	107.66
607.98	81.92
608.13	67.88
608.29	49.15
608.44	67.88
608.60	102.98
608.75	86.60
608.91	37.45
609.06	35.11
609.22	44.47
609.37	49.15
609.53	124.05
609.68	110.01
609.84	98.30
609.99	84.26
610.15	58.51
610.30	2.34
610.46	77.24
610.61	65.54
610.76	39.79
610.92	72.56
611.07	63.19
611.23	65.54
611.38	21.06
611.54	70.22
611.69	56.17
611.84	51.49
612.00	32.77
612.15	56.17
612.31	42.13
612.46	30.43
612.62	74.90
612.77	72.56
612.92	105.32
613.08	95.96
613.23	88.94
613.39	126.39
613.54	0.00
613.69	112.35
613.85	28.09
614.00	91.28
614.15	72.56
614.31	9.36
614.46	0.00
614.62	81.92
614.77	51.49
614.92	46.81
615.08	70.22
615.23	81.92
615.38	98.30
615.54	77.24
615.69	119.37
615.84	100.64
616.00	60.85
616.15	112.35
616.30	56.17
616.46	93.62
616.61	58.51
616.76	2.34
616.92	42.13
617.07	93.62
617.22	60.85
617.37	98.30
617.53	60.85
617.68	18.72
617.83	77.24
617.99	91.28
618.14	77.24
618.29	93.62
618.45	49.15
618.60	147.45
618.75	74.90
618.90	58.51
619.06	60.85
619.21	51.49
619.36	93.62
619.51	112.35
619.67	49.15
619.82	81.92
619.97	114.69
620.12	72.56
620.28	81.92
620.43	30.43
620.58	114.69
620.73	53.83
620.89	67.88
621.04	163.84
621.19	72.56
621.34	117.03
621.49	79.58
621.65	84.26
621.80	9.36
621.95	124.05
622.10	63.19
622.25	16.38
622.41	16.38
622.56	91.28
622.71	11.70
622.86	112.35
623.01	95.96
623.16	56.17
623.32	72.56
623.47	63.19
623.62	67.88
623.77	35.11
623.92	37.45
624.07	53.83
624.23	58.51
624.38	100.64
624.53	112.35
624.68	100.64
624.83	65.54
624.98	65.54
625.13	58.51
625.29	74.90
625.44	56.17
625.59	11.70
625.74	79.58
625.89	39.79
626.04	81.92
626.19	60.85
626.34	53.83
626.49	53.83
626.65	98.30
626.80	49.15
626.95	42.13
627.10	72.56
627.25	46.81
627.40	70.22
627.55	42.13
627.70	88.94
627.85	9.36
628.00	86.60
628.15	72.56
628.30	7.02
628.45	35.11
628.60	98.30
628.76	124.05
628.91	44.47
629.06	56.17
629.21	95.96
629.36	81.92
629.51	77.24
629.66	49.15
629.81	46.81
629.96	56.17
630.11	0.00
630.26	11.70
630.41	81.92
630.56	67.88
630.71	86.60
630.86	60.85
631.01	74.90
631.16	25.75
631.31	42.13
631.46	117.03
631.61	42.13
631.76	53.83
631.91	63.19
632.06	67.88
632.21	16.38
632.36	14.04
632.51	63.19
632.66	46.81
632.81	35.11
632.96	58.51
633.10	63.19
633.25	42.13
633.40	95.96
633.55	44.47
633.70	0.00
633.85	70.22
634.00	86.60
634.15	14.04
634.30	110.01
634.45	119.37
634.60	25.75
634.75	25.75
634.90	37.45
635.05	131.07
635.19	58.51
635.34	105.32
635.49	46.81
635.64	72.56
635.79	7.02
635.94	65.54
636.09	14.04
636.24	65.54
636.39	56.17
636.53	4.68
636.68	84.26
636.83	58.51
636.98	93.62
637.13	63.19
637.28	44.47
637.43	11.70
637.57	28.09
637.72	58.51
637.87	0.00
638.02	65.54
638.17	63.19
638.32	70.22
638.46	51.49
638.61	0.00
638.76	56.17
638.91	53.83
639.06	30.43
639.20	81.92
639.35	21.06
639.50	79.58
639.65	42.13
639.80	79.58
639.94	30.43
640.09	77.24
640.24	39.79
640.39	58.51
640.54	60.85
640.68	70.22
640.83	79.58
640.98	86.60
641.13	91.28
641.27	67.88
641.42	81.92
641.57	0.00
641.72	39.79
641.86	0.00
642.01	4.68
642.16	11.70
642.31	84.26
642.45	32.77
642.60	126.39
642.75	84.26
642.90	93.62
643.04	53.83
643.19	18.72
643.34	49.15
643.48	18.72
643.63	42.13
643.78	58.51
643.93	95.96
644.07	70.22
644.22	58.51
644.37	9.36
644.51	30.43
644.66	23.41
644.81	37.45
644.95	63.19
645.10	0.00
645.25	30.43
645.39	51.49
645.54	88.94
645.69	107.66
645.83	30.43
645.98	98.30
646.13	70.22
646.27	95.96
646.42	72.56
646.57	44.47
646.71	49.15
646.86	74.90
647.00	51.49
647.15	77.24
647.30	145.11
647.44	105.32
647.59	0.00
647.74	11.70
647.88	91.28
648.03	30.43
648.17	51.49
648.32	11.70
648.47	91.28
648.61	58.51
648.76	7.02
648.90	44.47
649.05	77.24
649.20	0.00
649.34	58.51
649.49	0.00
649.63	77.24
649.78	77.24
649.92	91.28
650.07	63.19
650.21	88.94
650.36	77.24
650.51	72.56
650.65	37.45
650.80	44.47
650.94	42.13
651.09	14.04
651.23	2.34
651.38	117.03
651.52	60.85
651.67	105.32
651.81	39.79
651.96	9.36
652.10	25.75
652.25	30.43
652.39	46.81
652.54	0.00
652.68	147.45
652.83	0.00
652.97	105.32
653.12	79.58
653.26	0.00
653.41	72.56
653.55	98.30
653.70	77.24
653.84	65.54
653.99	42.13
654.13	44.47
654.27	18.72
654.42	44.47
654.56	70.22
654.71	79.58
654.85	119.37
655.00	44.47
655.14	0.00
655.29	77.24
655.43	138.09
655.57	51.49
655.72	0.00
655.86	51.49
656.01	56.17
656.15	102.98
656.30	81.92
656.44	124.05
656.58	0.00
656.73	53.83
656.87	72.56
657.01	105.32
657.16	81.92
657.30	28.09
657.45	0.00
657.59	14.04
657.73	117.03
657.88	25.75
658.02	95.96
658.16	49.15
658.31	84.26
658.45	65.54
658.60	63.19
658.74	63.19
658.88	0.00
659.03	11.70
659.17	0.00
659.31	28.09
659.46	0.00
659.60	95.96
659.74	110.01
659.89	25.75
660.03	102.98
660.17	107.66
660.32	84.26
660.46	14.04
660.60	51.49
660.74	51.49
660.89	81.92
661.03	131.07
661.17	159.16
661.32	58.51
661.46	88.94
661.60	56.17
661.74	98.30
661.89	93.62
662.03	18.72
662.17	49.15
662.31	25.75
662.46	51.49
662.60	67.88
662.74	14.04
662.88	58.51
663.03	0.00
663.17	16.38
663.31	114.69
663.45	37.45
663.60	65.54
663.74	84.26
663.88	42.13
664.02	117.03
664.17	81.92
664.31	0.00
664.45	107.66
664.59	46.81
664.73	95.96
664.88	56.17
665.02	23.41
665.16	25.75
665.30	11.70
665.44	56.17
665.59	0.00
665.73	72.56
665.87	35.11
666.01	18.72
666.15	63.19
666.29	93.62
666.44	56.17
666.58	67.88
666.72	0.00
666.86	86.60
667.00	30.43
667.14	65.54
667.28	46.81
667.43	100.64
667.57	46.81
667.71	81.92
667.85	58.51
667.99	9.36
668.13	21.06
668.27	51.49
668.41	46.81
668.56	60.85
668.70	0.00
668.84	67.88
668.98	46.81
669.12	107.66
669.26	77.24
669.40	149.79
669.54	2.34
669.68	65.54
669.82	74.90
669.96	37.45
670.10	30.43
670.25	77.24
670.39	105.32
670.53	11.70
670.67	67.88
670.81	119.37
670.95	72.56
671.09	70.22
671.23	60.85
671.37	67.88
671.51	84.26
671.65	25.75
671.79	2.34
671.93	0.00
672.07	30.43
672.21	65.54
672.35	44.47
672.49	131.07
672.63	65.54
672.77	70.22
672.91	23.41
673.05	28.09
673.19	37.45
673.33	105.32
673.47	46.81
673.61	32.77
673.75	42.13
673.89	60.85
674.03	105.32
674.17	11.70
674.31	30.43
674.45	65.54
674.59	37.45
674.73	98.30
674.87	58.51
675.01	133.41
675.15	60.85
675.29	70.22
675.43	0.00
675.56	67.88
675.70	121.71
675.84	102.98
675.98	39.79
676.12	7.02
676.26	7.02
676.40	58.51
676.54	16.38
676.68	58.51
676.82	60.85
676.96	49.15
677.10	28.09
677.23	70.22
677.37	49.15
677.51	72.56
677.65	65.54
677.79	102.98
677.93	56.17
678.07	91.28
678.21	11.70
678.34	79.58
678.48	140.43
678.62	56.17
678.76	7.02
678.90	11.70
679.04	65.54
679.18	53.83
679.31	0.00
679.45	0.00
679.59	42.13
679.73	53.83
679.87	23.41
680.00	84.26
680.14	74.90
680.28	63.19
680.42	23.41
680.56	44.47
680.70	21.06
680.83	16.38
680.97	42.13
681.11	56.17
681.25	0.00
681.39	0.00
681.52	138.09
681.66	63.19
681.80	25.75
681.94	28.09
682.07	42.13
682.21	2.34
682.35	53.83
682.49	23.41
682.62	72.56
682.76	42.13
682.90	25.75
683.04	7.02
683.17	0.00
683.31	81.92
683.45	84.26
683.59	63.19
683.72	77.24
683.86	0.00
684.00	49.15
684.13	16.38
684.27	0.00
684.41	30.43
684.55	16.38
684.68	53.83
684.82	56.17
684.96	16.38
685.09	53.83
685.23	2.34
685.37	23.41
685.50	142.77
685.64	0.00
685.78	74.90
685.91	63.19
686.05	0.00
686.19	0.00
686.32	25.75
686.46	0.00
686.60	56.17
686.73	18.72
686.87	126.39
687.01	74.90
687.14	53.83
687.28	44.47
687.42	117.03
687.55	37.45
687.69	0.00
687.82	0.00
687.96	46.81
688.10	32.77
688.23	67.88
688.37	60.85
688.50	0.00
688.64	93.62
688.78	0.00
688.91	0.00
689.05	0.00
689.18	0.00
689.32	81.92
689.46	95.96
689.59	9.36
689.73	84.26
689.86	63.19
690.00	14.04
690.13	72.56
690.27	110.01
690.41	81.92
690.54	77.24
690.68	110.01
690.81	37.45
690.95	42.13
691.08	0.00
691.22	0.00
691.35	72.56
691.49	4.68
691.62	70.22
691.76	0.00
691.89	44.47
692.03	11.70
692.16	37.45
692.30	67.88
692.43	0.00
692.57	60.85
692.70	51.49
692.84	37.45
692.97	72.56
693.11	39.79
693.24	58.51
693.38	46.81
693.51	44.47
693.65	51.49
693.78	65.54
693.92	72.56
694.05	42.13
694.19	86.60
694.32	28.09
694.45	53.83
694.59	86.60
694.72	79.58
694.86	63.19
694.99	4.68
695.13	81.92
695.26	81.92
695.39	58.51
695.53	18.72
695.66	46.81
695.80	0.00
695.93	16.38
696.07	44.47
696.20	14.04
696.33	119.37
696.47	51.49
696.60	72.56
696.73	28.09
696.87	16.38
697.00	44.47
697.14	18.72
697.27	9.36
697.40	79.58
697.54	32.77
697.67	2.34
697.80	0.00
697.94	42.13
698.07	0.00
698.21	16.38
698.34	14.04
698.47	18.72
698.61	30.43
698.74	72.56
698.87	53.83
699.01	0.00
699.14	0.00
699.27	0.00
699.40	124.05
699.54	44.47
699.67	98.30
699.80	16.38
699.94	39.79
700.07	63.19
700.20	63.19
700.34	0.00
700.47	21.06
700.60	32.77
700.73	21.06
700.87	32.77
701.00	84.26
701.13	32.77
701.26	65.54
701.40	0.00
701.53	79.58
701.66	77.24
701.79	72.56
701.93	11.70
702.06	0.00
702.19	58.51
702.32	46.81
702.46	35.11
702.59	42.13
702.72	84.26
702.85	58.51
702.99	46.81
703.12	25.75
703.25	77.24
703.38	46.81
703.51	56.17
703.65	56.17
703.78	56.17
703.91	28.09
704.04	0.00
704.17	4.68
704.31	32.77
704.44	0.00
704.57	21.06
704.70	81.92
704.83	25.75
704.96	21.06
705.10	37.45
705.23	84.26
>>>>>End Processed Spectral Data<<<<<
