SpectraSuite Data File
++++++++++++++++++++++++++++++++++++
Date: Fri Oct 04 12:13:42 GMT-05:00 2013
User: price-jones
Dark Spectrum Present: No
Reference Spectrum Present: No
Number of Sampled Component Spectra: 1
Spectrometers: USB2+H05261
Integration Time (usec): 10000 (USB2+H05261)
Spectra Averaged: 1 (USB2+H05261)
Boxcar Smoothing: 0 (USB2+H05261)
Correct for Electrical Dark: No (USB2+H05261)
Strobe/Lamp Enabled: No (USB2+H05261)
Correct for Detector Non-linearity: No (USB2+H05261)
Correct for Stray Light: No (USB2+H05261)
Number of Pixels in Processed Spectrum: 2048
>>>>>Begin Processed Spectral Data<<<<<
365.73	0.00
365.92	0.00
366.12	0.00
366.32	0.00
366.52	0.00
366.72	0.00
366.91	0.00
367.11	0.00
367.31	0.00
367.51	0.00
367.70	0.00
367.90	0.00
368.10	0.00
368.30	0.00
368.49	0.00
368.69	0.00
368.89	0.00
369.09	0.00
369.28	0.00
369.48	0.00
369.68	0.00
369.87	0.00
370.07	0.00
370.27	0.00
370.47	0.00
370.66	0.00
370.86	0.00
371.06	0.00
371.25	0.00
371.45	0.00
371.65	0.00
371.84	0.00
372.04	0.00
372.24	30.43
372.44	0.00
372.63	0.00
372.83	0.00
373.03	0.00
373.22	0.00
373.42	88.94
373.62	0.00
373.81	51.49
374.01	63.19
374.21	0.00
374.40	74.90
374.60	7.02
374.79	32.77
374.99	53.83
375.19	79.58
375.38	74.90
375.58	25.75
375.78	0.00
375.97	2.34
376.17	84.26
376.37	60.85
376.56	46.81
376.76	0.00
376.95	4.68
377.15	0.00
377.35	28.09
377.54	28.09
377.74	0.00
377.93	63.19
378.13	18.72
378.33	35.11
378.52	63.19
378.72	60.85
378.91	0.00
379.11	37.45
379.31	35.11
379.50	32.77
379.70	0.00
379.89	67.88
380.09	16.38
380.28	7.02
380.48	16.38
380.68	126.39
380.87	32.77
381.07	0.00
381.26	0.00
381.46	0.00
381.65	0.00
381.85	35.11
382.04	23.41
382.24	0.00
382.43	0.00
382.63	0.00
382.83	0.00
383.02	0.00
383.22	0.00
383.41	0.00
383.61	49.15
383.80	0.00
384.00	0.00
384.19	21.06
384.39	0.00
384.58	0.00
384.78	0.00
384.97	0.00
385.17	0.00
385.36	42.13
385.56	42.13
385.75	7.02
385.95	53.83
386.14	30.43
386.34	56.17
386.53	46.81
386.72	0.00
386.92	56.17
387.11	53.83
387.31	0.00
387.50	0.00
387.70	67.88
387.89	53.83
388.09	0.00
388.28	14.04
388.48	0.00
388.67	0.00
388.86	25.75
389.06	65.54
389.25	23.41
389.45	18.72
389.64	2.34
389.84	0.00
390.03	30.43
390.22	46.81
390.42	70.22
390.61	14.04
390.81	0.00
391.00	14.04
391.19	110.01
391.39	39.79
391.58	28.09
391.78	32.77
391.97	30.43
392.16	0.00
392.36	0.00
392.55	21.06
392.75	23.41
392.94	0.00
393.13	18.72
393.33	0.00
393.52	4.68
393.71	0.00
393.91	79.58
394.10	0.00
394.29	28.09
394.49	0.00
394.68	56.17
394.88	58.51
395.07	9.36
395.26	0.00
395.46	0.00
395.65	0.00
395.84	60.85
396.04	95.96
396.23	39.79
396.42	14.04
396.62	67.88
396.81	53.83
397.00	0.00
397.19	0.00
397.39	28.09
397.58	7.02
397.77	39.79
397.97	51.49
398.16	114.69
398.35	37.45
398.55	0.00
398.74	21.06
398.93	35.11
399.12	7.02
399.32	56.17
399.51	16.38
399.70	16.38
399.90	65.54
400.09	30.43
400.28	79.58
400.47	84.26
400.67	28.09
400.86	30.43
401.05	42.13
401.24	63.19
401.44	79.58
401.63	0.00
401.82	9.36
402.01	70.22
402.21	21.06
402.40	74.90
402.59	0.00
402.78	14.04
402.97	11.70
403.17	39.79
403.36	77.24
403.55	0.00
403.74	9.36
403.93	95.96
404.13	46.81
404.32	81.92
404.51	0.00
404.70	14.04
404.89	23.41
405.09	0.00
405.28	0.00
405.47	32.77
405.66	21.06
405.85	44.47
406.05	42.13
406.24	65.54
406.43	9.36
406.62	14.04
406.81	37.45
407.00	32.77
407.20	46.81
407.39	37.45
407.58	0.00
407.77	86.60
407.96	46.81
408.15	42.13
408.34	14.04
408.54	2.34
408.73	25.75
408.92	30.43
409.11	53.83
409.30	35.11
409.49	21.06
409.68	7.02
409.87	65.54
410.07	37.45
410.26	0.00
410.45	67.88
410.64	0.00
410.83	56.17
411.02	0.00
411.21	49.15
411.40	74.90
411.59	28.09
411.78	44.47
411.98	91.28
412.17	44.47
412.36	0.00
412.55	0.00
412.74	21.06
412.93	0.00
413.12	51.49
413.31	0.00
413.50	53.83
413.69	7.02
413.88	30.43
414.07	0.00
414.26	53.83
414.45	93.62
414.64	51.49
414.83	53.83
415.02	60.85
415.22	35.11
415.41	84.26
415.60	14.04
415.79	2.34
415.98	0.00
416.17	0.00
416.36	25.75
416.55	44.47
416.74	107.66
416.93	0.00
417.12	9.36
417.31	28.09
417.50	58.51
417.69	72.56
417.88	91.28
418.07	70.22
418.26	37.45
418.45	100.64
418.64	28.09
418.83	44.47
419.02	65.54
419.21	88.94
419.39	30.43
419.58	49.15
419.77	44.47
419.96	16.38
420.15	25.75
420.34	16.38
420.53	0.00
420.72	0.00
420.91	0.00
421.10	81.92
421.29	77.24
421.48	23.41
421.67	18.72
421.86	0.00
422.05	2.34
422.24	60.85
422.43	35.11
422.61	102.98
422.80	37.45
422.99	21.06
423.18	35.11
423.37	67.88
423.56	91.28
423.75	91.28
423.94	117.03
424.13	77.24
424.32	11.70
424.50	0.00
424.69	0.00
424.88	84.26
425.07	77.24
425.26	110.01
425.45	21.06
425.64	0.00
425.83	4.68
426.01	14.04
426.20	126.39
426.39	0.00
426.58	23.41
426.77	0.00
426.96	110.01
427.15	16.38
427.33	72.56
427.52	11.70
427.71	79.58
427.90	121.71
428.09	74.90
428.28	32.77
428.46	9.36
428.65	9.36
428.84	81.92
429.03	35.11
429.22	0.00
429.40	11.70
429.59	28.09
429.78	44.47
429.97	100.64
430.16	0.00
430.34	42.13
430.53	0.00
430.72	30.43
430.91	0.00
431.10	11.70
431.28	102.98
431.47	4.68
431.66	105.32
431.85	25.75
432.03	65.54
432.22	16.38
432.41	16.38
432.60	81.92
432.79	0.00
432.97	7.02
433.16	7.02
433.35	23.41
433.54	2.34
433.72	42.13
433.91	11.70
434.10	91.28
434.28	35.11
434.47	72.56
434.66	91.28
434.85	74.90
435.03	65.54
435.22	7.02
435.41	60.85
435.59	67.88
435.78	102.98
435.97	98.30
436.16	53.83
436.34	39.79
436.53	11.70
436.72	84.26
436.90	30.43
437.09	77.24
437.28	37.45
437.46	70.22
437.65	0.00
437.84	37.45
438.02	2.34
438.21	51.49
438.40	58.51
438.58	32.77
438.77	46.81
438.96	37.45
439.14	77.24
439.33	46.81
439.52	107.66
439.70	0.00
439.89	11.70
440.08	25.75
440.26	93.62
440.45	60.85
440.63	46.81
440.82	4.68
441.01	16.38
441.19	51.49
441.38	77.24
441.57	28.09
441.75	93.62
441.94	72.56
442.12	25.75
442.31	95.96
442.50	95.96
442.68	0.00
442.87	126.39
443.05	0.00
443.24	18.72
443.43	58.51
443.61	77.24
443.80	51.49
443.98	23.41
444.17	65.54
444.35	21.06
444.54	84.26
444.73	93.62
444.91	23.41
445.10	0.00
445.28	37.45
445.47	44.47
445.65	70.22
445.84	39.79
446.02	21.06
446.21	102.98
446.39	42.13
446.58	30.43
446.77	79.58
446.95	60.85
447.14	28.09
447.32	124.05
447.51	7.02
447.69	49.15
447.88	2.34
448.06	37.45
448.25	39.79
448.43	51.49
448.62	30.43
448.80	81.92
448.99	11.70
449.17	28.09
449.36	21.06
449.54	67.88
449.73	67.88
449.91	60.85
450.10	9.36
450.28	128.73
450.46	95.96
450.65	110.01
450.83	72.56
451.02	18.72
451.20	72.56
451.39	37.45
451.57	9.36
451.76	63.19
451.94	49.15
452.13	28.09
452.31	79.58
452.49	88.94
452.68	0.00
452.86	121.71
453.05	107.66
453.23	30.43
453.42	112.35
453.60	74.90
453.78	35.11
453.97	98.30
454.15	93.62
454.34	35.11
454.52	18.72
454.70	74.90
454.89	91.28
455.07	114.69
455.26	72.56
455.44	84.26
455.62	126.39
455.81	86.60
455.99	23.41
456.17	44.47
456.36	42.13
456.54	70.22
456.73	51.49
456.91	0.00
457.09	77.24
457.28	110.01
457.46	72.56
457.64	98.30
457.83	63.19
458.01	14.04
458.19	25.75
458.38	100.64
458.56	44.47
458.74	42.13
458.93	77.24
459.11	86.60
459.29	46.81
459.48	63.19
459.66	77.24
459.84	56.17
460.03	0.00
460.21	46.81
460.39	53.83
460.57	53.83
460.76	53.83
460.94	93.62
461.12	56.17
461.31	28.09
461.49	7.02
461.67	58.51
461.85	86.60
462.04	77.24
462.22	128.73
462.40	70.22
462.59	79.58
462.77	86.60
462.95	49.15
463.13	105.32
463.32	42.13
463.50	84.26
463.68	102.98
463.86	100.64
464.05	39.79
464.23	88.94
464.41	39.79
464.59	0.00
464.78	88.94
464.96	16.38
465.14	9.36
465.32	102.98
465.50	65.54
465.69	110.01
465.87	42.13
466.05	9.36
466.23	39.79
466.41	51.49
466.60	30.43
466.78	25.75
466.96	84.26
467.14	23.41
467.32	44.47
467.51	37.45
467.69	7.02
467.87	121.71
468.05	49.15
468.23	67.88
468.41	30.43
468.60	0.00
468.78	49.15
468.96	56.17
469.14	70.22
469.32	98.30
469.50	60.85
469.69	84.26
469.87	88.94
470.05	63.19
470.23	21.06
470.41	81.92
470.59	0.00
470.77	79.58
470.95	60.85
471.14	39.79
471.32	56.17
471.50	28.09
471.68	56.17
471.86	58.51
472.04	0.00
472.22	133.41
472.40	30.43
472.58	42.13
472.77	4.68
472.95	65.54
473.13	60.85
473.31	39.79
473.49	70.22
473.67	98.30
473.85	77.24
474.03	21.06
474.21	70.22
474.39	51.49
474.57	128.73
474.75	58.51
474.93	51.49
475.12	58.51
475.30	23.41
475.48	67.88
475.66	9.36
475.84	72.56
476.02	35.11
476.20	95.96
476.38	74.90
476.56	65.54
476.74	84.26
476.92	60.85
477.10	51.49
477.28	72.56
477.46	124.05
477.64	119.37
477.82	30.43
478.00	67.88
478.18	102.98
478.36	39.79
478.54	74.90
478.72	42.13
478.90	28.09
479.08	100.64
479.26	74.90
479.44	56.17
479.62	77.24
479.80	102.98
479.98	88.94
480.16	32.77
480.34	65.54
480.52	114.69
480.70	72.56
480.88	67.88
481.06	88.94
481.24	28.09
481.41	100.64
481.59	18.72
481.77	14.04
481.95	84.26
482.13	70.22
482.31	88.94
482.49	37.45
482.67	119.37
482.85	39.79
483.03	63.19
483.21	86.60
483.39	135.75
483.57	81.92
483.74	56.17
483.92	28.09
484.10	79.58
484.28	86.60
484.46	0.00
484.64	102.98
484.82	58.51
485.00	70.22
485.18	46.81
485.35	72.56
485.53	102.98
485.71	121.71
485.89	46.81
486.07	65.54
486.25	91.28
486.43	110.01
486.61	70.22
486.78	23.41
486.96	11.70
487.14	32.77
487.32	7.02
487.50	135.75
487.68	79.58
487.85	28.09
488.03	77.24
488.21	86.60
488.39	67.88
488.57	95.96
488.75	11.70
488.92	56.17
489.10	44.47
489.28	42.13
489.46	44.47
489.64	72.56
489.81	84.26
489.99	84.26
490.17	53.83
490.35	93.62
490.53	2.34
490.70	81.92
490.88	93.62
491.06	4.68
491.24	32.77
491.41	105.32
491.59	70.22
491.77	67.88
491.95	63.19
492.13	67.88
492.30	60.85
492.48	49.15
492.66	102.98
492.84	58.51
493.01	44.47
493.19	114.69
493.37	93.62
493.54	107.66
493.72	65.54
493.90	37.45
494.08	79.58
494.25	65.54
494.43	79.58
494.61	56.17
494.79	39.79
494.96	67.88
495.14	65.54
495.32	81.92
495.49	56.17
495.67	93.62
495.85	46.81
496.02	102.98
496.20	65.54
496.38	168.52
496.55	100.64
496.73	128.73
496.91	74.90
497.09	56.17
497.26	46.81
497.44	110.01
497.62	25.75
497.79	105.32
497.97	16.38
498.14	133.41
498.32	79.58
498.50	117.03
498.67	86.60
498.85	67.88
499.03	81.92
499.20	93.62
499.38	53.83
499.56	95.96
499.73	28.09
499.91	110.01
500.08	56.17
500.26	81.92
500.44	81.92
500.61	63.19
500.79	110.01
500.97	14.04
501.14	88.94
501.32	77.24
501.49	67.88
501.67	77.24
501.84	105.32
502.02	49.15
502.20	196.60
502.37	105.32
502.55	79.58
502.72	74.90
502.90	124.05
503.07	23.41
503.25	58.51
503.43	74.90
503.60	79.58
503.78	84.26
503.95	93.62
504.13	102.98
504.30	67.88
504.48	121.71
504.65	128.73
504.83	30.43
505.01	110.01
505.18	161.50
505.36	133.41
505.53	65.54
505.71	53.83
505.88	58.51
506.06	39.79
506.23	58.51
506.41	77.24
506.58	72.56
506.76	21.06
506.93	65.54
507.11	67.88
507.28	100.64
507.46	18.72
507.63	95.96
507.81	138.09
507.98	79.58
508.16	0.00
508.33	91.28
508.50	0.00
508.68	60.85
508.85	177.88
509.03	119.37
509.20	98.30
509.38	2.34
509.55	170.86
509.73	91.28
509.90	102.98
510.08	102.98
510.25	98.30
510.42	77.24
510.60	74.90
510.77	128.73
510.95	133.41
511.12	98.30
511.30	86.60
511.47	79.58
511.64	105.32
511.82	63.19
511.99	32.77
512.17	7.02
512.34	145.11
512.51	77.24
512.69	88.94
512.86	60.85
513.04	184.90
513.21	95.96
513.38	63.19
513.56	102.98
513.73	79.58
513.90	81.92
514.08	107.66
514.25	44.47
514.43	35.11
514.60	135.75
514.77	70.22
514.95	21.06
515.12	88.94
515.29	42.13
515.47	77.24
515.64	95.96
515.81	56.17
515.99	147.45
516.16	84.26
516.33	58.51
516.51	25.75
516.68	119.37
516.85	159.16
517.03	107.66
517.20	84.26
517.37	98.30
517.54	81.92
517.72	138.09
517.89	53.83
518.06	56.17
518.24	60.85
518.41	77.24
518.58	105.32
518.75	163.84
518.93	117.03
519.10	88.94
519.27	42.13
519.45	37.45
519.62	95.96
519.79	37.45
519.96	23.41
520.14	98.30
520.31	81.92
520.48	105.32
520.65	56.17
520.83	0.00
521.00	102.98
521.17	107.66
521.34	142.77
521.52	121.71
521.69	126.39
521.86	105.32
522.03	105.32
522.20	154.48
522.38	131.07
522.55	100.64
522.72	161.50
522.89	98.30
523.07	114.69
523.24	25.75
523.41	30.43
523.58	91.28
523.75	112.35
523.92	53.83
524.10	131.07
524.27	84.26
524.44	88.94
524.61	102.98
524.78	107.66
524.96	114.69
525.13	105.32
525.30	95.96
525.47	135.75
525.64	88.94
525.81	56.17
525.98	81.92
526.16	117.03
526.33	84.26
526.50	44.47
526.67	77.24
526.84	72.56
527.01	32.77
527.18	65.54
527.36	60.85
527.53	37.45
527.70	67.88
527.87	95.96
528.04	65.54
528.21	147.45
528.38	110.01
528.55	135.75
528.72	149.79
528.89	67.88
529.07	28.09
529.24	58.51
529.41	100.64
529.58	91.28
529.75	119.37
529.92	126.39
530.09	100.64
530.26	79.58
530.43	107.66
530.60	56.17
530.77	86.60
530.94	74.90
531.11	182.56
531.28	67.88
531.46	159.16
531.63	105.32
531.80	79.58
531.97	79.58
532.14	93.62
532.31	133.41
532.48	131.07
532.65	93.62
532.82	46.81
532.99	88.94
533.16	65.54
533.33	117.03
533.50	135.75
533.67	18.72
533.84	100.64
534.01	121.71
534.18	67.88
534.35	58.51
534.52	98.30
534.69	51.49
534.86	107.66
535.03	58.51
535.20	44.47
535.37	77.24
535.54	77.24
535.71	131.07
535.88	107.66
536.05	37.45
536.22	114.69
536.38	114.69
536.55	70.22
536.72	84.26
536.89	81.92
537.06	121.71
537.23	53.83
537.40	98.30
537.57	84.26
537.74	74.90
537.91	70.22
538.08	112.35
538.25	23.41
538.42	30.43
538.59	102.98
538.75	121.71
538.92	142.77
539.09	91.28
539.26	128.73
539.43	119.37
539.60	105.32
539.77	117.03
539.94	91.28
540.11	88.94
540.28	135.75
540.44	95.96
540.61	88.94
540.78	65.54
540.95	63.19
541.12	46.81
541.29	100.64
541.46	70.22
541.62	149.79
541.79	60.85
541.96	67.88
542.13	93.62
542.30	25.75
542.47	67.88
542.63	37.45
542.80	84.26
542.97	79.58
543.14	67.88
543.31	98.30
543.48	110.01
543.64	21.06
543.81	95.96
543.98	39.79
544.15	81.92
544.32	81.92
544.48	91.28
544.65	117.03
544.82	117.03
544.99	107.66
545.16	74.90
545.32	37.45
545.49	67.88
545.66	95.96
545.83	70.22
546.00	42.13
546.16	58.51
546.33	88.94
546.50	93.62
546.67	53.83
546.83	65.54
547.00	28.09
547.17	74.90
547.34	110.01
547.50	98.30
547.67	117.03
547.84	86.60
548.00	42.13
548.17	93.62
548.34	46.81
548.51	124.05
548.67	70.22
548.84	112.35
549.01	149.79
549.18	72.56
549.34	7.02
549.51	74.90
549.68	133.41
549.84	126.39
550.01	128.73
550.18	32.77
550.34	63.19
550.51	138.09
550.68	16.38
550.84	28.09
551.01	138.09
551.18	142.77
551.34	119.37
551.51	67.88
551.68	77.24
551.84	84.26
552.01	102.98
552.18	128.73
552.34	117.03
552.51	49.15
552.68	93.62
552.84	53.83
553.01	9.36
553.18	46.81
553.34	46.81
553.51	107.66
553.67	42.13
553.84	0.00
554.01	138.09
554.17	70.22
554.34	95.96
554.51	58.51
554.67	110.01
554.84	23.41
555.00	121.71
555.17	74.90
555.33	72.56
555.50	46.81
555.67	0.00
555.83	37.45
556.00	102.98
556.16	135.75
556.33	65.54
556.50	98.30
556.66	84.26
556.83	91.28
556.99	74.90
557.16	44.47
557.32	84.26
557.49	131.07
557.65	28.09
557.82	110.01
557.98	114.69
558.15	39.79
558.32	77.24
558.48	58.51
558.65	93.62
558.81	119.37
558.98	72.56
559.14	110.01
559.31	63.19
559.47	32.77
559.64	53.83
559.80	133.41
559.97	60.85
560.13	91.28
560.30	117.03
560.46	142.77
560.63	56.17
560.79	86.60
560.96	58.51
561.12	100.64
561.29	91.28
561.45	102.98
561.61	88.94
561.78	93.62
561.94	0.00
562.11	119.37
562.27	133.41
562.44	102.98
562.60	32.77
562.77	77.24
562.93	182.56
563.10	23.41
563.26	128.73
563.42	93.62
563.59	110.01
563.75	88.94
563.92	112.35
564.08	65.54
564.24	53.83
564.41	110.01
564.57	70.22
564.74	81.92
564.90	128.73
565.07	145.11
565.23	84.26
565.39	117.03
565.56	81.92
565.72	21.06
565.88	93.62
566.05	84.26
566.21	42.13
566.38	161.50
566.54	93.62
566.70	91.28
566.87	56.17
567.03	65.54
567.19	93.62
567.36	100.64
567.52	44.47
567.68	65.54
567.85	110.01
568.01	88.94
568.17	53.83
568.34	70.22
568.50	51.49
568.66	51.49
568.83	95.96
568.99	121.71
569.15	37.45
569.32	60.85
569.48	124.05
569.64	124.05
569.81	112.35
569.97	49.15
570.13	7.02
570.30	39.79
570.46	30.43
570.62	100.64
570.78	124.05
570.95	53.83
571.11	107.66
571.27	39.79
571.43	140.43
571.60	84.26
571.76	28.09
571.92	147.45
572.09	58.51
572.25	133.41
572.41	98.30
572.57	119.37
572.74	56.17
572.90	100.64
573.06	39.79
573.22	58.51
573.38	28.09
573.55	28.09
573.71	79.58
573.87	86.60
574.03	30.43
574.20	81.92
574.36	74.90
574.52	79.58
574.68	28.09
574.84	93.62
575.01	121.71
575.17	60.85
575.33	53.83
575.49	77.24
575.65	86.60
575.82	25.75
575.98	147.45
576.14	102.98
576.30	126.39
576.46	133.41
576.62	65.54
576.79	124.05
576.95	53.83
577.11	14.04
577.27	77.24
577.43	81.92
577.59	100.64
577.75	18.72
577.92	74.90
578.08	72.56
578.24	84.26
578.40	131.07
578.56	77.24
578.72	72.56
578.88	44.47
579.04	93.62
579.21	91.28
579.37	30.43
579.53	81.92
579.69	42.13
579.85	131.07
580.01	102.98
580.17	142.77
580.33	58.51
580.49	98.30
580.65	105.32
580.82	2.34
580.98	72.56
581.14	0.00
581.30	9.36
581.46	42.13
581.62	4.68
581.78	18.72
581.94	56.17
582.10	100.64
582.26	39.79
582.42	93.62
582.58	46.81
582.74	86.60
582.90	42.13
583.06	102.98
583.22	105.32
583.38	126.39
583.54	23.41
583.70	121.71
583.86	72.56
584.02	149.79
584.18	9.36
584.34	88.94
584.50	58.51
584.66	79.58
584.82	44.47
584.98	35.11
585.14	74.90
585.30	67.88
585.46	23.41
585.62	53.83
585.78	131.07
585.94	44.47
586.10	32.77
586.26	138.09
586.42	173.20
586.58	37.45
586.74	16.38
586.90	114.69
587.06	98.30
587.22	60.85
587.38	44.47
587.54	126.39
587.70	93.62
587.86	2.34
588.02	42.13
588.18	112.35
588.34	25.75
588.49	100.64
588.65	74.90
588.81	25.75
588.97	70.22
589.13	46.81
589.29	81.92
589.45	67.88
589.61	35.11
589.77	32.77
589.93	147.45
590.08	86.60
590.24	49.15
590.40	39.79
590.56	152.13
590.72	30.43
590.88	72.56
591.04	86.60
591.20	107.66
591.35	32.77
591.51	88.94
591.67	121.71
591.83	60.85
591.99	65.54
592.15	86.60
592.31	119.37
592.46	0.00
592.62	63.19
592.78	119.37
592.94	28.09
593.10	39.79
593.26	93.62
593.41	126.39
593.57	79.58
593.73	77.24
593.89	14.04
594.05	114.69
594.20	44.47
594.36	60.85
594.52	100.64
594.68	72.56
594.84	147.45
594.99	65.54
595.15	11.70
595.31	88.94
595.47	60.85
595.62	100.64
595.78	86.60
595.94	23.41
596.10	28.09
596.25	95.96
596.41	88.94
596.57	79.58
596.73	21.06
596.88	9.36
597.04	42.13
597.20	42.13
597.36	131.07
597.51	67.88
597.67	32.77
597.83	30.43
597.99	44.47
598.14	88.94
598.30	119.37
598.46	0.00
598.61	84.26
598.77	67.88
598.93	2.34
599.09	110.01
599.24	91.28
599.40	0.00
599.56	95.96
599.71	138.09
599.87	77.24
600.03	145.11
600.18	70.22
600.34	79.58
600.50	88.94
600.65	16.38
600.81	126.39
600.97	56.17
601.12	74.90
601.28	60.85
601.44	79.58
601.59	63.19
601.75	37.45
601.91	74.90
602.06	100.64
602.22	105.32
602.37	156.82
602.53	58.51
602.69	7.02
602.84	91.28
603.00	98.30
603.16	135.75
603.31	100.64
603.47	102.98
603.62	81.92
603.78	114.69
603.94	56.17
604.09	65.54
604.25	81.92
604.40	93.62
604.56	51.49
604.71	81.92
604.87	81.92
605.03	77.24
605.18	107.66
605.34	51.49
605.49	77.24
605.65	126.39
605.80	37.45
605.96	117.03
606.12	100.64
606.27	28.09
606.43	30.43
606.58	53.83
606.74	114.69
606.89	56.17
607.05	28.09
607.20	74.90
607.36	37.45
607.51	70.22
607.67	142.77
607.82	65.54
607.98	70.22
608.13	56.17
608.29	105.32
608.44	63.19
608.60	131.07
608.75	95.96
608.91	110.01
609.06	88.94
609.22	63.19
609.37	46.81
609.53	93.62
609.68	7.02
609.84	72.56
609.99	46.81
610.15	65.54
610.30	100.64
610.46	163.84
610.61	114.69
610.76	49.15
610.92	72.56
611.07	112.35
611.23	58.51
611.38	58.51
611.54	88.94
611.69	58.51
611.84	98.30
612.00	95.96
612.15	124.05
612.31	140.43
612.46	124.05
612.62	63.19
612.77	51.49
612.92	46.81
613.08	77.24
613.23	95.96
613.39	114.69
613.54	112.35
613.69	100.64
613.85	81.92
614.00	23.41
614.15	91.28
614.31	44.47
614.46	67.88
614.62	112.35
614.77	35.11
614.92	67.88
615.08	11.70
615.23	56.17
615.38	114.69
615.54	49.15
615.69	74.90
615.84	95.96
616.00	60.85
616.15	53.83
616.30	35.11
616.46	0.00
616.61	107.66
616.76	77.24
616.92	0.00
617.07	44.47
617.22	72.56
617.37	138.09
617.53	126.39
617.68	98.30
617.83	51.49
617.99	60.85
618.14	46.81
618.29	105.32
618.45	77.24
618.60	28.09
618.75	49.15
618.90	86.60
619.06	46.81
619.21	119.37
619.36	25.75
619.51	21.06
619.67	53.83
619.82	95.96
619.97	88.94
620.12	65.54
620.28	30.43
620.43	9.36
620.58	60.85
620.73	105.32
620.89	142.77
621.04	102.98
621.19	42.13
621.34	39.79
621.49	74.90
621.65	37.45
621.80	72.56
621.95	91.28
622.10	117.03
622.25	39.79
622.41	11.70
622.56	0.00
622.71	9.36
622.86	81.92
623.01	53.83
623.16	46.81
623.32	35.11
623.47	84.26
623.62	2.34
623.77	51.49
623.92	49.15
624.07	119.37
624.23	67.88
624.38	145.11
624.53	182.56
624.68	121.71
624.83	84.26
624.98	18.72
625.13	56.17
625.29	79.58
625.44	74.90
625.59	0.00
625.74	18.72
625.89	79.58
626.04	21.06
626.19	37.45
626.34	16.38
626.49	30.43
626.65	77.24
626.80	21.06
626.95	121.71
627.10	77.24
627.25	86.60
627.40	72.56
627.55	30.43
627.70	86.60
627.85	44.47
628.00	70.22
628.15	74.90
628.30	56.17
628.45	114.69
628.60	84.26
628.76	67.88
628.91	49.15
629.06	35.11
629.21	84.26
629.36	51.49
629.51	4.68
629.66	107.66
629.81	0.00
629.96	21.06
630.11	93.62
630.26	23.41
630.41	56.17
630.56	77.24
630.71	77.24
630.86	18.72
631.01	28.09
631.16	53.83
631.31	79.58
631.46	88.94
631.61	67.88
631.76	44.47
631.91	70.22
632.06	79.58
632.21	70.22
632.36	2.34
632.51	72.56
632.66	126.39
632.81	91.28
632.96	110.01
633.10	81.92
633.25	84.26
633.40	119.37
633.55	79.58
633.70	37.45
633.85	60.85
634.00	42.13
634.15	60.85
634.30	28.09
634.45	39.79
634.60	28.09
634.75	91.28
634.90	25.75
635.05	44.47
635.19	39.79
635.34	72.56
635.49	39.79
635.64	28.09
635.79	14.04
635.94	0.00
636.09	9.36
636.24	51.49
636.39	9.36
636.53	124.05
636.68	42.13
636.83	35.11
636.98	35.11
637.13	84.26
637.28	65.54
637.43	56.17
637.57	25.75
637.72	72.56
637.87	124.05
638.02	53.83
638.17	65.54
638.32	37.45
638.46	18.72
638.61	65.54
638.76	81.92
638.91	114.69
639.06	28.09
639.20	60.85
639.35	63.19
639.50	88.94
639.65	126.39
639.80	107.66
639.94	53.83
640.09	65.54
640.24	46.81
640.39	72.56
640.54	128.73
640.68	58.51
640.83	28.09
640.98	0.00
641.13	107.66
641.27	65.54
641.42	58.51
641.57	100.64
641.72	81.92
641.86	119.37
642.01	65.54
642.16	110.01
642.31	65.54
642.45	23.41
642.60	79.58
642.75	67.88
642.90	98.30
643.04	0.00
643.19	0.00
643.34	65.54
643.48	51.49
643.63	72.56
643.78	18.72
643.93	0.00
644.07	74.90
644.22	42.13
644.37	0.00
644.51	117.03
644.66	77.24
644.81	56.17
644.95	105.32
645.10	74.90
645.25	131.07
645.39	11.70
645.54	51.49
645.69	46.81
645.83	51.49
645.98	93.62
646.13	72.56
646.27	30.43
646.42	112.35
646.57	21.06
646.71	81.92
646.86	49.15
647.00	28.09
647.15	46.81
647.30	0.00
647.44	95.96
647.59	0.00
647.74	86.60
647.88	110.01
648.03	44.47
648.17	93.62
648.32	98.30
648.47	0.00
648.61	51.49
648.76	35.11
648.90	4.68
649.05	37.45
649.20	9.36
649.34	114.69
649.49	105.32
649.63	60.85
649.78	88.94
649.92	0.00
650.07	30.43
650.21	0.00
650.36	51.49
650.51	119.37
650.65	63.19
650.80	53.83
650.94	107.66
651.09	0.00
651.23	74.90
651.38	88.94
651.52	14.04
651.67	0.00
651.81	98.30
651.96	32.77
652.10	93.62
652.25	91.28
652.39	0.00
652.54	37.45
652.68	37.45
652.83	107.66
652.97	56.17
653.12	67.88
653.26	56.17
653.41	133.41
653.55	32.77
653.70	0.00
653.84	44.47
653.99	21.06
654.13	63.19
654.27	53.83
654.42	49.15
654.56	21.06
654.71	0.00
654.85	58.51
655.00	77.24
655.14	58.51
655.29	53.83
655.43	0.00
655.57	0.00
655.72	2.34
655.86	70.22
656.01	74.90
656.15	28.09
656.30	72.56
656.44	86.60
656.58	0.00
656.73	0.00
656.87	30.43
657.01	30.43
657.16	53.83
657.30	35.11
657.45	65.54
657.59	124.05
657.73	84.26
657.88	2.34
658.02	88.94
658.16	23.41
658.31	4.68
658.45	65.54
658.60	35.11
658.74	0.00
658.88	81.92
659.03	98.30
659.17	98.30
659.31	77.24
659.46	0.00
659.60	35.11
659.74	60.85
659.89	86.60
660.03	81.92
660.17	70.22
660.32	46.81
660.46	105.32
660.60	23.41
660.74	114.69
660.89	74.90
661.03	81.92
661.17	35.11
661.32	70.22
661.46	81.92
661.60	37.45
661.74	88.94
661.89	58.51
662.03	95.96
662.17	86.60
662.31	53.83
662.46	42.13
662.60	0.00
662.74	11.70
662.88	0.00
663.03	65.54
663.17	4.68
663.31	133.41
663.45	35.11
663.60	93.62
663.74	70.22
663.88	35.11
664.02	0.00
664.17	79.58
664.31	58.51
664.45	60.85
664.59	105.32
664.73	63.19
664.88	114.69
665.02	25.75
665.16	7.02
665.30	21.06
665.44	23.41
665.59	9.36
665.73	72.56
665.87	42.13
666.01	102.98
666.15	25.75
666.29	131.07
666.44	23.41
666.58	91.28
666.72	56.17
666.86	7.02
667.00	77.24
667.14	42.13
667.28	128.73
667.43	32.77
667.57	18.72
667.71	18.72
667.85	7.02
667.99	86.60
668.13	56.17
668.27	93.62
668.41	0.00
668.56	35.11
668.70	44.47
668.84	74.90
668.98	23.41
669.12	51.49
669.26	2.34
669.40	32.77
669.54	14.04
669.68	23.41
669.82	81.92
669.96	53.83
670.10	79.58
670.25	39.79
670.39	65.54
670.53	128.73
670.67	14.04
670.81	0.00
670.95	93.62
671.09	42.13
671.23	124.05
671.37	32.77
671.51	7.02
671.65	102.98
671.79	42.13
671.93	0.00
672.07	14.04
672.21	84.26
672.35	65.54
672.49	81.92
672.63	86.60
672.77	32.77
672.91	51.49
673.05	58.51
673.19	63.19
673.33	114.69
673.47	63.19
673.61	39.79
673.75	86.60
673.89	107.66
674.03	70.22
674.17	56.17
674.31	117.03
674.45	35.11
674.59	112.35
674.73	58.51
674.87	32.77
675.01	39.79
675.15	102.98
675.29	46.81
675.43	30.43
675.56	0.00
675.70	46.81
675.84	39.79
675.98	79.58
676.12	46.81
676.26	67.88
676.40	23.41
676.54	63.19
676.68	14.04
676.82	56.17
676.96	112.35
677.10	30.43
677.23	70.22
677.37	91.28
677.51	107.66
677.65	60.85
677.79	51.49
677.93	49.15
678.07	63.19
678.21	9.36
678.34	21.06
678.48	51.49
678.62	37.45
678.76	51.49
678.90	81.92
679.04	39.79
679.18	16.38
679.31	51.49
679.45	60.85
679.59	91.28
679.73	0.00
679.87	4.68
680.00	70.22
680.14	72.56
680.28	67.88
680.42	105.32
680.56	77.24
680.70	124.05
680.83	21.06
680.97	7.02
681.11	51.49
681.25	58.51
681.39	23.41
681.52	21.06
681.66	44.47
681.80	53.83
681.94	110.01
682.07	37.45
682.21	35.11
682.35	42.13
682.49	39.79
682.62	98.30
682.76	93.62
682.90	16.38
683.04	72.56
683.17	46.81
683.31	0.00
683.45	156.82
683.59	98.30
683.72	53.83
683.86	102.98
684.00	32.77
684.13	11.70
684.27	25.75
684.41	0.00
684.55	67.88
684.68	124.05
684.82	23.41
684.96	79.58
685.09	16.38
685.23	56.17
685.37	25.75
685.50	42.13
685.64	77.24
685.78	56.17
685.91	58.51
686.05	30.43
686.19	30.43
686.32	37.45
686.46	14.04
686.60	32.77
686.73	9.36
686.87	105.32
687.01	124.05
687.14	0.00
687.28	39.79
687.42	63.19
687.55	91.28
687.69	60.85
687.82	74.90
687.96	126.39
688.10	23.41
688.23	39.79
688.37	58.51
688.50	30.43
688.64	53.83
688.78	70.22
688.91	67.88
689.05	56.17
689.18	35.11
689.32	44.47
689.46	4.68
689.59	0.00
689.73	79.58
689.86	28.09
690.00	2.34
690.13	42.13
690.27	0.00
690.41	30.43
690.54	81.92
690.68	49.15
690.81	21.06
690.95	65.54
691.08	112.35
691.22	7.02
691.35	42.13
691.49	30.43
691.62	65.54
691.76	74.90
691.89	53.83
692.03	53.83
692.16	18.72
692.30	14.04
692.43	44.47
692.57	86.60
692.70	0.00
692.84	46.81
692.97	4.68
693.11	51.49
693.24	44.47
693.38	51.49
693.51	42.13
693.65	0.00
693.78	0.00
693.92	0.00
694.05	79.58
694.19	51.49
694.32	128.73
694.45	0.00
694.59	2.34
694.72	14.04
694.86	107.66
694.99	77.24
695.13	91.28
695.26	70.22
695.39	67.88
695.53	30.43
695.66	28.09
695.80	112.35
695.93	14.04
696.07	4.68
696.20	51.49
696.33	67.88
696.47	53.83
696.60	112.35
696.73	4.68
696.87	58.51
697.00	46.81
697.14	32.77
697.27	30.43
697.40	63.19
697.54	42.13
697.67	39.79
697.80	65.54
697.94	23.41
698.07	0.00
698.21	0.00
698.34	63.19
698.47	37.45
698.61	60.85
698.74	67.88
698.87	93.62
699.01	49.15
699.14	35.11
699.27	14.04
699.40	16.38
699.54	39.79
699.67	81.92
699.80	37.45
699.94	63.19
700.07	49.15
700.20	30.43
700.34	32.77
700.47	32.77
700.60	44.47
700.73	58.51
700.87	53.83
701.00	46.81
701.13	23.41
701.26	53.83
701.40	0.00
701.53	37.45
701.66	9.36
701.79	0.00
701.93	23.41
702.06	70.22
702.19	25.75
702.32	58.51
702.46	65.54
702.59	60.85
702.72	58.51
702.85	53.83
702.99	21.06
703.12	0.00
703.25	88.94
703.38	74.90
703.51	46.81
703.65	11.70
703.78	18.72
703.91	70.22
704.04	65.54
704.17	74.90
704.31	145.11
704.44	51.49
704.57	98.30
704.70	30.43
704.83	0.00
704.96	2.34
705.10	39.79
705.23	11.70
>>>>>End Processed Spectral Data<<<<<
