SpectraSuite Data File
++++++++++++++++++++++++++++++++++++
Date: Fri Oct 04 12:13:38 GMT-05:00 2013
User: price-jones
Dark Spectrum Present: No
Reference Spectrum Present: No
Number of Sampled Component Spectra: 1
Spectrometers: USB2+H05261
Integration Time (usec): 10000 (USB2+H05261)
Spectra Averaged: 1 (USB2+H05261)
Boxcar Smoothing: 0 (USB2+H05261)
Correct for Electrical Dark: No (USB2+H05261)
Strobe/Lamp Enabled: No (USB2+H05261)
Correct for Detector Non-linearity: No (USB2+H05261)
Correct for Stray Light: No (USB2+H05261)
Number of Pixels in Processed Spectrum: 2048
>>>>>Begin Processed Spectral Data<<<<<
365.73	0.00
365.92	0.00
366.12	0.00
366.32	0.00
366.52	0.00
366.72	0.00
366.91	0.00
367.11	0.00
367.31	0.00
367.51	0.00
367.70	0.00
367.90	0.00
368.10	0.00
368.30	0.00
368.49	0.00
368.69	0.00
368.89	0.00
369.09	0.00
369.28	0.00
369.48	0.00
369.68	0.00
369.87	0.00
370.07	0.00
370.27	0.00
370.47	0.00
370.66	0.00
370.86	0.00
371.06	0.00
371.25	0.00
371.45	0.00
371.65	0.00
371.84	4.68
372.04	23.41
372.24	0.00
372.44	0.00
372.63	63.19
372.83	4.68
373.03	0.00
373.22	11.70
373.42	42.13
373.62	53.83
373.81	7.02
374.01	46.81
374.21	0.00
374.40	37.45
374.60	44.47
374.79	128.73
374.99	9.36
375.19	35.11
375.38	49.15
375.58	42.13
375.78	0.00
375.97	28.09
376.17	74.90
376.37	32.77
376.56	28.09
376.76	39.79
376.95	72.56
377.15	65.54
377.35	0.00
377.54	72.56
377.74	11.70
377.93	0.00
378.13	51.49
378.33	0.00
378.52	11.70
378.72	35.11
378.91	25.75
379.11	42.13
379.31	46.81
379.50	60.85
379.70	37.45
379.89	23.41
380.09	74.90
380.28	72.56
380.48	14.04
380.68	0.00
380.87	30.43
381.07	0.00
381.26	0.00
381.46	35.11
381.65	39.79
381.85	84.26
382.04	18.72
382.24	32.77
382.43	46.81
382.63	0.00
382.83	53.83
383.02	51.49
383.22	79.58
383.41	16.38
383.61	0.00
383.80	0.00
384.00	9.36
384.19	0.00
384.39	0.00
384.58	0.00
384.78	4.68
384.97	4.68
385.17	14.04
385.36	67.88
385.56	91.28
385.75	30.43
385.95	0.00
386.14	0.00
386.34	14.04
386.53	0.00
386.72	0.00
386.92	44.47
387.11	4.68
387.31	7.02
387.50	30.43
387.70	0.00
387.89	0.00
388.09	0.00
388.28	0.00
388.48	84.26
388.67	81.92
388.86	0.00
389.06	0.00
389.25	42.13
389.45	0.00
389.64	0.00
389.84	0.00
390.03	49.15
390.22	91.28
390.42	0.00
390.61	77.24
390.81	67.88
391.00	35.11
391.19	0.00
391.39	49.15
391.58	25.75
391.78	0.00
391.97	0.00
392.16	77.24
392.36	18.72
392.55	105.32
392.75	86.60
392.94	70.22
393.13	30.43
393.33	58.51
393.52	72.56
393.71	56.17
393.91	0.00
394.10	23.41
394.29	56.17
394.49	0.00
394.68	21.06
394.88	51.49
395.07	14.04
395.26	2.34
395.46	67.88
395.65	0.00
395.84	32.77
396.04	70.22
396.23	0.00
396.42	0.00
396.62	0.00
396.81	0.00
397.00	0.00
397.19	18.72
397.39	58.51
397.58	18.72
397.77	70.22
397.97	37.45
398.16	0.00
398.35	35.11
398.55	51.49
398.74	51.49
398.93	39.79
399.12	9.36
399.32	18.72
399.51	11.70
399.70	56.17
399.90	4.68
400.09	65.54
400.28	9.36
400.47	9.36
400.67	0.00
400.86	14.04
401.05	25.75
401.24	67.88
401.44	35.11
401.63	0.00
401.82	11.70
402.01	0.00
402.21	86.60
402.40	42.13
402.59	67.88
402.78	0.00
402.97	98.30
403.17	46.81
403.36	39.79
403.55	14.04
403.74	25.75
403.93	51.49
404.13	0.00
404.32	32.77
404.51	42.13
404.70	39.79
404.89	4.68
405.09	51.49
405.28	0.00
405.47	84.26
405.66	37.45
405.85	46.81
406.05	46.81
406.24	39.79
406.43	21.06
406.62	79.58
406.81	16.38
407.00	14.04
407.20	84.26
407.39	21.06
407.58	60.85
407.77	98.30
407.96	49.15
408.15	32.77
408.34	0.00
408.54	81.92
408.73	65.54
408.92	37.45
409.11	14.04
409.30	46.81
409.49	56.17
409.68	9.36
409.87	60.85
410.07	32.77
410.26	2.34
410.45	77.24
410.64	14.04
410.83	98.30
411.02	14.04
411.21	25.75
411.40	18.72
411.59	63.19
411.78	11.70
411.98	72.56
412.17	91.28
412.36	0.00
412.55	44.47
412.74	93.62
412.93	2.34
413.12	7.02
413.31	4.68
413.50	0.00
413.69	81.92
413.88	0.00
414.07	9.36
414.26	51.49
414.45	37.45
414.64	37.45
414.83	0.00
415.02	0.00
415.22	0.00
415.41	51.49
415.60	32.77
415.79	56.17
415.98	58.51
416.17	77.24
416.36	114.69
416.55	4.68
416.74	74.90
416.93	25.75
417.12	51.49
417.31	0.00
417.50	18.72
417.69	2.34
417.88	77.24
418.07	81.92
418.26	86.60
418.45	81.92
418.64	79.58
418.83	0.00
419.02	70.22
419.21	51.49
419.39	86.60
419.58	23.41
419.77	58.51
419.96	25.75
420.15	0.00
420.34	51.49
420.53	28.09
420.72	51.49
420.91	0.00
421.10	28.09
421.29	30.43
421.48	53.83
421.67	86.60
421.86	56.17
422.05	9.36
422.24	91.28
422.43	56.17
422.61	100.64
422.80	39.79
422.99	32.77
423.18	65.54
423.37	70.22
423.56	63.19
423.75	51.49
423.94	39.79
424.13	9.36
424.32	74.90
424.50	65.54
424.69	81.92
424.88	56.17
425.07	0.00
425.26	74.90
425.45	107.66
425.64	65.54
425.83	42.13
426.01	79.58
426.20	30.43
426.39	39.79
426.58	93.62
426.77	0.00
426.96	84.26
427.15	119.37
427.33	0.00
427.52	53.83
427.71	56.17
427.90	74.90
428.09	28.09
428.28	88.94
428.46	65.54
428.65	119.37
428.84	37.45
429.03	84.26
429.22	14.04
429.40	2.34
429.59	0.00
429.78	37.45
429.97	102.98
430.16	100.64
430.34	14.04
430.53	0.00
430.72	11.70
430.91	67.88
431.10	42.13
431.28	4.68
431.47	14.04
431.66	58.51
431.85	9.36
432.03	63.19
432.22	58.51
432.41	28.09
432.60	32.77
432.79	0.00
432.97	18.72
433.16	21.06
433.35	79.58
433.54	100.64
433.72	23.41
433.91	70.22
434.10	86.60
434.28	28.09
434.47	0.00
434.66	4.68
434.85	110.01
435.03	79.58
435.22	32.77
435.41	39.79
435.59	84.26
435.78	88.94
435.97	79.58
436.16	138.09
436.34	77.24
436.53	91.28
436.72	49.15
436.90	56.17
437.09	95.96
437.28	0.00
437.46	0.00
437.65	0.00
437.84	102.98
438.02	7.02
438.21	30.43
438.40	58.51
438.58	21.06
438.77	86.60
438.96	81.92
439.14	0.00
439.33	0.00
439.52	60.85
439.70	95.96
439.89	42.13
440.08	23.41
440.26	18.72
440.45	72.56
440.63	0.00
440.82	9.36
441.01	74.90
441.19	42.13
441.38	4.68
441.57	74.90
441.75	32.77
441.94	86.60
442.12	35.11
442.31	79.58
442.50	60.85
442.68	35.11
442.87	88.94
443.05	23.41
443.24	39.79
443.43	65.54
443.61	51.49
443.80	51.49
443.98	53.83
444.17	28.09
444.35	95.96
444.54	65.54
444.73	44.47
444.91	67.88
445.10	88.94
445.28	35.11
445.47	18.72
445.65	25.75
445.84	72.56
446.02	60.85
446.21	7.02
446.39	58.51
446.58	46.81
446.77	60.85
446.95	91.28
447.14	11.70
447.32	79.58
447.51	30.43
447.69	0.00
447.88	21.06
448.06	37.45
448.25	18.72
448.43	53.83
448.62	88.94
448.80	46.81
448.99	18.72
449.17	58.51
449.36	16.38
449.54	28.09
449.73	35.11
449.91	58.51
450.10	4.68
450.28	98.30
450.46	79.58
450.65	56.17
450.83	88.94
451.02	49.15
451.20	42.13
451.39	42.13
451.57	56.17
451.76	25.75
451.94	107.66
452.13	63.19
452.31	72.56
452.49	21.06
452.68	65.54
452.86	51.49
453.05	46.81
453.23	88.94
453.42	23.41
453.60	16.38
453.78	7.02
453.97	81.92
454.15	100.64
454.34	67.88
454.52	25.75
454.70	145.11
454.89	88.94
455.07	58.51
455.26	98.30
455.44	46.81
455.62	25.75
455.81	32.77
455.99	95.96
456.17	49.15
456.36	35.11
456.54	49.15
456.73	53.83
456.91	72.56
457.09	79.58
457.28	67.88
457.46	49.15
457.64	37.45
457.83	105.32
458.01	37.45
458.19	95.96
458.38	44.47
458.56	30.43
458.74	49.15
458.93	88.94
459.11	35.11
459.29	30.43
459.48	42.13
459.66	74.90
459.84	35.11
460.03	114.69
460.21	39.79
460.39	23.41
460.57	70.22
460.76	16.38
460.94	81.92
461.12	100.64
461.31	70.22
461.49	51.49
461.67	51.49
461.85	0.00
462.04	14.04
462.22	105.32
462.40	14.04
462.59	81.92
462.77	74.90
462.95	102.98
463.13	117.03
463.32	72.56
463.50	0.00
463.68	0.00
463.86	0.00
464.05	30.43
464.23	72.56
464.41	74.90
464.59	72.56
464.78	0.00
464.96	79.58
465.14	53.83
465.32	93.62
465.50	98.30
465.69	77.24
465.87	0.00
466.05	39.79
466.23	0.00
466.41	70.22
466.60	145.11
466.78	49.15
466.96	32.77
467.14	37.45
467.32	93.62
467.51	2.34
467.69	72.56
467.87	25.75
468.05	0.00
468.23	30.43
468.41	30.43
468.60	30.43
468.78	37.45
468.96	14.04
469.14	74.90
469.32	86.60
469.50	32.77
469.69	2.34
469.87	25.75
470.05	79.58
470.23	91.28
470.41	37.45
470.59	72.56
470.77	18.72
470.95	133.41
471.14	74.90
471.32	42.13
471.50	37.45
471.68	60.85
471.86	16.38
472.04	60.85
472.22	42.13
472.40	25.75
472.58	152.13
472.77	14.04
472.95	18.72
473.13	14.04
473.31	51.49
473.49	46.81
473.67	60.85
473.85	42.13
474.03	77.24
474.21	49.15
474.39	93.62
474.57	147.45
474.75	84.26
474.93	46.81
475.12	49.15
475.30	35.11
475.48	0.00
475.66	23.41
475.84	28.09
476.02	53.83
476.20	25.75
476.38	37.45
476.56	93.62
476.74	44.47
476.92	86.60
477.10	28.09
477.28	35.11
477.46	70.22
477.64	105.32
477.82	67.88
478.00	65.54
478.18	93.62
478.36	81.92
478.54	70.22
478.72	56.17
478.90	42.13
479.08	51.49
479.26	60.85
479.44	110.01
479.62	110.01
479.80	128.73
479.98	77.24
480.16	72.56
480.34	65.54
480.52	100.64
480.70	67.88
480.88	65.54
481.06	72.56
481.24	60.85
481.41	163.84
481.59	114.69
481.77	25.75
481.95	124.05
482.13	0.00
482.31	2.34
482.49	37.45
482.67	23.41
482.85	63.19
483.03	42.13
483.21	81.92
483.39	44.47
483.57	77.24
483.74	16.38
483.92	67.88
484.10	79.58
484.28	49.15
484.46	81.92
484.64	124.05
484.82	58.51
485.00	18.72
485.18	56.17
485.35	65.54
485.53	49.15
485.71	56.17
485.89	46.81
486.07	0.00
486.25	51.49
486.43	30.43
486.61	65.54
486.78	42.13
486.96	65.54
487.14	100.64
487.32	46.81
487.50	84.26
487.68	58.51
487.85	140.43
488.03	135.75
488.21	39.79
488.39	49.15
488.57	51.49
488.75	126.39
488.92	95.96
489.10	112.35
489.28	72.56
489.46	37.45
489.64	93.62
489.81	133.41
489.99	56.17
490.17	117.03
490.35	37.45
490.53	126.39
490.70	119.37
490.88	11.70
491.06	0.00
491.24	91.28
491.41	16.38
491.59	28.09
491.77	0.00
491.95	86.60
492.13	86.60
492.30	74.90
492.48	21.06
492.66	74.90
492.84	74.90
493.01	119.37
493.19	95.96
493.37	107.66
493.54	91.28
493.72	105.32
493.90	25.75
494.08	124.05
494.25	35.11
494.43	91.28
494.61	84.26
494.79	35.11
494.96	100.64
495.14	126.39
495.32	105.32
495.49	119.37
495.67	16.38
495.85	135.75
496.02	77.24
496.20	88.94
496.38	100.64
496.55	0.00
496.73	25.75
496.91	56.17
497.09	138.09
497.26	51.49
497.44	46.81
497.62	16.38
497.79	86.60
497.97	100.64
498.14	81.92
498.32	86.60
498.50	84.26
498.67	63.19
498.85	70.22
499.03	49.15
499.20	4.68
499.38	18.72
499.56	107.66
499.73	107.66
499.91	58.51
500.08	28.09
500.26	86.60
500.44	86.60
500.61	91.28
500.79	72.56
500.97	128.73
501.14	37.45
501.32	74.90
501.49	60.85
501.67	126.39
501.84	28.09
502.02	95.96
502.20	77.24
502.37	147.45
502.55	84.26
502.72	7.02
502.90	117.03
503.07	72.56
503.25	93.62
503.43	0.00
503.60	81.92
503.78	100.64
503.95	70.22
504.13	133.41
504.30	88.94
504.48	114.69
504.65	74.90
504.83	67.88
505.01	98.30
505.18	93.62
505.36	0.00
505.53	4.68
505.71	81.92
505.88	142.77
506.06	65.54
506.23	79.58
506.41	105.32
506.58	23.41
506.76	95.96
506.93	53.83
507.11	56.17
507.28	93.62
507.46	114.69
507.63	117.03
507.81	142.77
507.98	124.05
508.16	67.88
508.33	105.32
508.50	156.82
508.68	65.54
508.85	51.49
509.03	53.83
509.20	117.03
509.38	114.69
509.55	98.30
509.73	51.49
509.90	77.24
510.08	37.45
510.25	58.51
510.42	74.90
510.60	95.96
510.77	28.09
510.95	65.54
511.12	44.47
511.30	145.11
511.47	88.94
511.64	63.19
511.82	79.58
511.99	126.39
512.17	147.45
512.34	91.28
512.51	128.73
512.69	32.77
512.86	91.28
513.04	0.00
513.21	42.13
513.38	9.36
513.56	131.07
513.73	138.09
513.90	63.19
514.08	63.19
514.25	67.88
514.43	53.83
514.60	42.13
514.77	131.07
514.95	163.84
515.12	60.85
515.29	39.79
515.47	93.62
515.64	81.92
515.81	93.62
515.99	112.35
516.16	46.81
516.33	93.62
516.51	142.77
516.68	56.17
516.85	58.51
517.03	21.06
517.20	58.51
517.37	56.17
517.54	152.13
517.72	28.09
517.89	91.28
518.06	4.68
518.24	91.28
518.41	86.60
518.58	42.13
518.75	56.17
518.93	63.19
519.10	60.85
519.27	44.47
519.45	51.49
519.62	35.11
519.79	84.26
519.96	70.22
520.14	102.98
520.31	77.24
520.48	81.92
520.65	67.88
520.83	110.01
521.00	35.11
521.17	39.79
521.34	110.01
521.52	98.30
521.69	51.49
521.86	32.77
522.03	65.54
522.20	42.13
522.38	107.66
522.55	112.35
522.72	128.73
522.89	79.58
523.07	107.66
523.24	63.19
523.41	88.94
523.58	98.30
523.75	39.79
523.92	84.26
524.10	70.22
524.27	140.43
524.44	77.24
524.61	74.90
524.78	32.77
524.96	131.07
525.13	77.24
525.30	112.35
525.47	114.69
525.64	9.36
525.81	70.22
525.98	67.88
526.16	79.58
526.33	88.94
526.50	102.98
526.67	63.19
526.84	46.81
527.01	42.13
527.18	121.71
527.36	46.81
527.53	49.15
527.70	121.71
527.87	161.50
528.04	58.51
528.21	107.66
528.38	91.28
528.55	156.82
528.72	60.85
528.89	74.90
529.07	126.39
529.24	117.03
529.41	53.83
529.58	117.03
529.75	35.11
529.92	70.22
530.09	98.30
530.26	91.28
530.43	93.62
530.60	21.06
530.77	37.45
530.94	14.04
531.11	128.73
531.28	163.84
531.46	110.01
531.63	124.05
531.80	98.30
531.97	124.05
532.14	88.94
532.31	44.47
532.48	107.66
532.65	114.69
532.82	35.11
532.99	49.15
533.16	98.30
533.33	70.22
533.50	9.36
533.67	42.13
533.84	53.83
534.01	86.60
534.18	28.09
534.35	79.58
534.52	91.28
534.69	156.82
534.86	88.94
535.03	140.43
535.20	60.85
535.37	28.09
535.54	46.81
535.71	42.13
535.88	102.98
536.05	21.06
536.22	86.60
536.38	81.92
536.55	77.24
536.72	121.71
536.89	58.51
537.06	121.71
537.23	21.06
537.40	74.90
537.57	95.96
537.74	121.71
537.91	67.88
538.08	42.13
538.25	56.17
538.42	67.88
538.59	154.48
538.75	56.17
538.92	46.81
539.09	84.26
539.26	79.58
539.43	42.13
539.60	91.28
539.77	95.96
539.94	117.03
540.11	140.43
540.28	133.41
540.44	142.77
540.61	119.37
540.78	25.75
540.95	39.79
541.12	100.64
541.29	60.85
541.46	79.58
541.62	63.19
541.79	142.77
541.96	135.75
542.13	81.92
542.30	105.32
542.47	16.38
542.63	23.41
542.80	114.69
542.97	149.79
543.14	102.98
543.31	102.98
543.48	84.26
543.64	135.75
543.81	107.66
543.98	0.00
544.15	93.62
544.32	65.54
544.48	53.83
544.65	201.29
544.82	25.75
544.99	42.13
545.16	159.16
545.32	32.77
545.49	140.43
545.66	126.39
545.83	86.60
546.00	35.11
546.16	117.03
546.33	51.49
546.50	28.09
546.67	77.24
546.83	168.52
547.00	79.58
547.17	135.75
547.34	86.60
547.50	79.58
547.67	39.79
547.84	124.05
548.00	93.62
548.17	79.58
548.34	81.92
548.51	140.43
548.67	145.11
548.84	145.11
549.01	35.11
549.18	58.51
549.34	149.79
549.51	46.81
549.68	133.41
549.84	88.94
550.01	53.83
550.18	91.28
550.34	98.30
550.51	16.38
550.68	72.56
550.84	81.92
551.01	42.13
551.18	86.60
551.34	102.98
551.51	21.06
551.68	135.75
551.84	79.58
552.01	44.47
552.18	100.64
552.34	67.88
552.51	56.17
552.68	88.94
552.84	84.26
553.01	77.24
553.18	121.71
553.34	131.07
553.51	67.88
553.67	58.51
553.84	100.64
554.01	93.62
554.17	110.01
554.34	51.49
554.51	63.19
554.67	74.90
554.84	128.73
555.00	63.19
555.17	44.47
555.33	100.64
555.50	102.98
555.67	81.92
555.83	72.56
556.00	37.45
556.16	56.17
556.33	159.16
556.50	56.17
556.66	49.15
556.83	67.88
556.99	46.81
557.16	9.36
557.32	65.54
557.49	81.92
557.65	74.90
557.82	25.75
557.98	53.83
558.15	124.05
558.32	42.13
558.48	74.90
558.65	21.06
558.81	53.83
558.98	105.32
559.14	35.11
559.31	145.11
559.47	0.00
559.64	79.58
559.80	70.22
559.97	46.81
560.13	147.45
560.30	58.51
560.46	110.01
560.63	67.88
560.79	79.58
560.96	11.70
561.12	107.66
561.29	77.24
561.45	53.83
561.61	81.92
561.78	98.30
561.94	91.28
562.11	140.43
562.27	39.79
562.44	44.47
562.60	128.73
562.77	44.47
562.93	70.22
563.10	102.98
563.26	105.32
563.42	46.81
563.59	84.26
563.75	170.86
563.92	102.98
564.08	79.58
564.24	72.56
564.41	93.62
564.57	53.83
564.74	128.73
564.90	119.37
565.07	147.45
565.23	42.13
565.39	110.01
565.56	79.58
565.72	128.73
565.88	112.35
566.05	131.07
566.21	65.54
566.38	58.51
566.54	81.92
566.70	98.30
566.87	65.54
567.03	56.17
567.19	79.58
567.36	126.39
567.52	42.13
567.68	119.37
567.85	51.49
568.01	58.51
568.17	28.09
568.34	107.66
568.50	46.81
568.66	11.70
568.83	142.77
568.99	95.96
569.15	11.70
569.32	84.26
569.48	32.77
569.64	93.62
569.81	95.96
569.97	74.90
570.13	86.60
570.30	79.58
570.46	60.85
570.62	23.41
570.78	81.92
570.95	60.85
571.11	72.56
571.27	117.03
571.43	39.79
571.60	28.09
571.76	39.79
571.92	18.72
572.09	84.26
572.25	46.81
572.41	7.02
572.57	77.24
572.74	95.96
572.90	84.26
573.06	44.47
573.22	70.22
573.38	44.47
573.55	98.30
573.71	53.83
573.87	91.28
574.03	98.30
574.20	7.02
574.36	86.60
574.52	18.72
574.68	114.69
574.84	126.39
575.01	175.54
575.17	81.92
575.33	88.94
575.49	124.05
575.65	67.88
575.82	23.41
575.98	46.81
576.14	105.32
576.30	42.13
576.46	67.88
576.62	81.92
576.79	42.13
576.95	102.98
577.11	58.51
577.27	107.66
577.43	70.22
577.59	42.13
577.75	126.39
577.92	35.11
578.08	84.26
578.24	56.17
578.40	77.24
578.56	60.85
578.72	88.94
578.88	72.56
579.04	39.79
579.21	95.96
579.37	110.01
579.53	86.60
579.69	77.24
579.85	98.30
580.01	98.30
580.17	72.56
580.33	105.32
580.49	88.94
580.65	138.09
580.82	112.35
580.98	42.13
581.14	70.22
581.30	63.19
581.46	25.75
581.62	74.90
581.78	53.83
581.94	0.00
582.10	161.50
582.26	98.30
582.42	79.58
582.58	112.35
582.74	133.41
582.90	49.15
583.06	81.92
583.22	91.28
583.38	88.94
583.54	91.28
583.70	51.49
583.86	74.90
584.02	56.17
584.18	110.01
584.34	114.69
584.50	95.96
584.66	63.19
584.82	114.69
584.98	74.90
585.14	72.56
585.30	114.69
585.46	84.26
585.62	0.00
585.78	126.39
585.94	128.73
586.10	102.98
586.26	112.35
586.42	131.07
586.58	124.05
586.74	121.71
586.90	16.38
587.06	135.75
587.22	51.49
587.38	51.49
587.54	21.06
587.70	121.71
587.86	28.09
588.02	84.26
588.18	88.94
588.34	74.90
588.49	79.58
588.65	100.64
588.81	56.17
588.97	4.68
589.13	51.49
589.29	124.05
589.45	32.77
589.61	114.69
589.77	124.05
589.93	72.56
590.08	138.09
590.24	107.66
590.40	140.43
590.56	58.51
590.72	128.73
590.88	133.41
591.04	107.66
591.20	65.54
591.35	67.88
591.51	81.92
591.67	16.38
591.83	74.90
591.99	100.64
592.15	0.00
592.31	70.22
592.46	9.36
592.62	98.30
592.78	114.69
592.94	88.94
593.10	37.45
593.26	112.35
593.41	35.11
593.57	44.47
593.73	46.81
593.89	58.51
594.05	30.43
594.20	11.70
594.36	25.75
594.52	133.41
594.68	56.17
594.84	49.15
594.99	114.69
595.15	37.45
595.31	77.24
595.47	91.28
595.62	65.54
595.78	37.45
595.94	28.09
596.10	42.13
596.25	79.58
596.41	14.04
596.57	102.98
596.73	91.28
596.88	72.56
597.04	133.41
597.20	107.66
597.36	81.92
597.51	124.05
597.67	81.92
597.83	9.36
597.99	49.15
598.14	25.75
598.30	70.22
598.46	119.37
598.61	42.13
598.77	46.81
598.93	0.00
599.09	88.94
599.24	0.00
599.40	93.62
599.56	51.49
599.71	44.47
599.87	56.17
600.03	58.51
600.18	72.56
600.34	110.01
600.50	35.11
600.65	72.56
600.81	46.81
600.97	79.58
601.12	102.98
601.28	28.09
601.44	121.71
601.59	0.00
601.75	100.64
601.91	0.00
602.06	49.15
602.22	105.32
602.37	166.18
602.53	7.02
602.69	149.79
602.84	105.32
603.00	0.00
603.16	30.43
603.31	79.58
603.47	44.47
603.62	9.36
603.78	51.49
603.94	93.62
604.09	46.81
604.25	152.13
604.40	86.60
604.56	79.58
604.71	77.24
604.87	70.22
605.03	93.62
605.18	72.56
605.34	37.45
605.49	124.05
605.65	56.17
605.80	4.68
605.96	133.41
606.12	70.22
606.27	28.09
606.43	18.72
606.58	72.56
606.74	100.64
606.89	102.98
607.05	63.19
607.20	102.98
607.36	56.17
607.51	63.19
607.67	51.49
607.82	84.26
607.98	74.90
608.13	39.79
608.29	14.04
608.44	0.00
608.60	86.60
608.75	93.62
608.91	42.13
609.06	119.37
609.22	0.00
609.37	42.13
609.53	30.43
609.68	51.49
609.84	107.66
609.99	77.24
610.15	53.83
610.30	117.03
610.46	37.45
610.61	58.51
610.76	84.26
610.92	53.83
611.07	98.30
611.23	138.09
611.38	21.06
611.54	30.43
611.69	0.00
611.84	112.35
612.00	56.17
612.15	25.75
612.31	56.17
612.46	30.43
612.62	0.00
612.77	39.79
612.92	4.68
613.08	25.75
613.23	81.92
613.39	156.82
613.54	86.60
613.69	77.24
613.85	67.88
614.00	112.35
614.15	39.79
614.31	23.41
614.46	72.56
614.62	28.09
614.77	53.83
614.92	56.17
615.08	86.60
615.23	81.92
615.38	63.19
615.54	44.47
615.69	65.54
615.84	7.02
616.00	23.41
616.15	126.39
616.30	102.98
616.46	0.00
616.61	11.70
616.76	95.96
616.92	70.22
617.07	79.58
617.22	74.90
617.37	107.66
617.53	79.58
617.68	37.45
617.83	67.88
617.99	105.32
618.14	100.64
618.29	60.85
618.45	9.36
618.60	70.22
618.75	88.94
618.90	70.22
619.06	65.54
619.21	93.62
619.36	28.09
619.51	42.13
619.67	81.92
619.82	35.11
619.97	60.85
620.12	0.00
620.28	65.54
620.43	46.81
620.58	154.48
620.73	140.43
620.89	98.30
621.04	60.85
621.19	9.36
621.34	107.66
621.49	84.26
621.65	58.51
621.80	100.64
621.95	58.51
622.10	105.32
622.25	102.98
622.41	56.17
622.56	74.90
622.71	21.06
622.86	72.56
623.01	105.32
623.16	60.85
623.32	91.28
623.47	114.69
623.62	32.77
623.77	133.41
623.92	28.09
624.07	51.49
624.23	32.77
624.38	0.00
624.53	138.09
624.68	23.41
624.83	110.01
624.98	14.04
625.13	32.77
625.29	95.96
625.44	140.43
625.59	95.96
625.74	14.04
625.89	42.13
626.04	11.70
626.19	105.32
626.34	74.90
626.49	107.66
626.65	152.13
626.80	81.92
626.95	88.94
627.10	42.13
627.25	81.92
627.40	21.06
627.55	51.49
627.70	28.09
627.85	32.77
628.00	70.22
628.15	70.22
628.30	25.75
628.45	53.83
628.60	110.01
628.76	28.09
628.91	28.09
629.06	60.85
629.21	98.30
629.36	49.15
629.51	42.13
629.66	9.36
629.81	37.45
629.96	100.64
630.11	98.30
630.26	14.04
630.41	42.13
630.56	67.88
630.71	79.58
630.86	128.73
631.01	25.75
631.16	79.58
631.31	7.02
631.46	102.98
631.61	46.81
631.76	25.75
631.91	0.00
632.06	42.13
632.21	0.00
632.36	67.88
632.51	53.83
632.66	100.64
632.81	46.81
632.96	23.41
633.10	60.85
633.25	91.28
633.40	67.88
633.55	0.00
633.70	23.41
633.85	53.83
634.00	32.77
634.15	16.38
634.30	98.30
634.45	88.94
634.60	56.17
634.75	81.92
634.90	53.83
635.05	25.75
635.19	95.96
635.34	0.00
635.49	131.07
635.64	14.04
635.79	7.02
635.94	30.43
636.09	128.73
636.24	46.81
636.39	35.11
636.53	72.56
636.68	110.01
636.83	44.47
636.98	102.98
637.13	25.75
637.28	138.09
637.43	58.51
637.57	0.00
637.72	25.75
637.87	70.22
638.02	86.60
638.17	117.03
638.32	51.49
638.46	100.64
638.61	74.90
638.76	72.56
638.91	56.17
639.06	14.04
639.20	28.09
639.35	44.47
639.50	0.00
639.65	102.98
639.80	0.00
639.94	28.09
640.09	105.32
640.24	72.56
640.39	126.39
640.54	39.79
640.68	65.54
640.83	84.26
640.98	39.79
641.13	63.19
641.27	81.92
641.42	70.22
641.57	93.62
641.72	44.47
641.86	39.79
642.01	145.11
642.16	131.07
642.31	32.77
642.45	46.81
642.60	0.00
642.75	131.07
642.90	60.85
643.04	63.19
643.19	67.88
643.34	93.62
643.48	107.66
643.63	32.77
643.78	53.83
643.93	49.15
644.07	67.88
644.22	25.75
644.37	67.88
644.51	93.62
644.66	105.32
644.81	42.13
644.95	0.00
645.10	21.06
645.25	16.38
645.39	0.00
645.54	25.75
645.69	70.22
645.83	23.41
645.98	74.90
646.13	79.58
646.27	105.32
646.42	21.06
646.57	32.77
646.71	11.70
646.86	105.32
647.00	65.54
647.15	7.02
647.30	110.01
647.44	53.83
647.59	74.90
647.74	81.92
647.88	32.77
648.03	72.56
648.17	65.54
648.32	77.24
648.47	44.47
648.61	0.00
648.76	53.83
648.90	128.73
649.05	42.13
649.20	84.26
649.34	98.30
649.49	60.85
649.63	0.00
649.78	35.11
649.92	65.54
650.07	147.45
650.21	4.68
650.36	39.79
650.51	0.00
650.65	79.58
650.80	18.72
650.94	42.13
651.09	84.26
651.23	95.96
651.38	100.64
651.52	25.75
651.67	53.83
651.81	21.06
651.96	53.83
652.10	81.92
652.25	72.56
652.39	60.85
652.54	0.00
652.68	53.83
652.83	37.45
652.97	56.17
653.12	0.00
653.26	95.96
653.41	39.79
653.55	46.81
653.70	86.60
653.84	93.62
653.99	0.00
654.13	0.00
654.27	11.70
654.42	32.77
654.56	100.64
654.71	35.11
654.85	95.96
655.00	86.60
655.14	74.90
655.29	25.75
655.43	74.90
655.57	77.24
655.72	77.24
655.86	32.77
656.01	74.90
656.15	0.00
656.30	37.45
656.44	0.00
656.58	42.13
656.73	67.88
656.87	86.60
657.01	14.04
657.16	63.19
657.30	0.00
657.45	67.88
657.59	58.51
657.73	72.56
657.88	39.79
658.02	4.68
658.16	58.51
658.31	28.09
658.45	79.58
658.60	46.81
658.74	25.75
658.88	32.77
659.03	44.47
659.17	0.00
659.31	23.41
659.46	25.75
659.60	84.26
659.74	2.34
659.89	131.07
660.03	86.60
660.17	107.66
660.32	67.88
660.46	0.00
660.60	42.13
660.74	58.51
660.89	39.79
661.03	0.00
661.17	81.92
661.32	93.62
661.46	65.54
661.60	18.72
661.74	67.88
661.89	23.41
662.03	77.24
662.17	65.54
662.31	0.00
662.46	60.85
662.60	23.41
662.74	28.09
662.88	65.54
663.03	138.09
663.17	81.92
663.31	74.90
663.45	0.00
663.60	35.11
663.74	72.56
663.88	72.56
664.02	110.01
664.17	21.06
664.31	56.17
664.45	0.00
664.59	2.34
664.73	145.11
664.88	21.06
665.02	35.11
665.16	67.88
665.30	117.03
665.44	67.88
665.59	53.83
665.73	23.41
665.87	49.15
666.01	42.13
666.15	79.58
666.29	102.98
666.44	51.49
666.58	46.81
666.72	28.09
666.86	58.51
667.00	58.51
667.14	0.00
667.28	86.60
667.43	0.00
667.57	51.49
667.71	9.36
667.85	58.51
667.99	88.94
668.13	46.81
668.27	0.00
668.41	56.17
668.56	56.17
668.70	131.07
668.84	88.94
668.98	42.13
669.12	25.75
669.26	58.51
669.40	18.72
669.54	77.24
669.68	56.17
669.82	93.62
669.96	0.00
670.10	107.66
670.25	0.00
670.39	42.13
670.53	100.64
670.67	74.90
670.81	79.58
670.95	60.85
671.09	39.79
671.23	84.26
671.37	67.88
671.51	14.04
671.65	2.34
671.79	37.45
671.93	60.85
672.07	110.01
672.21	46.81
672.35	86.60
672.49	4.68
672.63	25.75
672.77	56.17
672.91	81.92
673.05	72.56
673.19	60.85
673.33	18.72
673.47	100.64
673.61	2.34
673.75	84.26
673.89	18.72
674.03	32.77
674.17	7.02
674.31	14.04
674.45	37.45
674.59	18.72
674.73	88.94
674.87	58.51
675.01	65.54
675.15	46.81
675.29	35.11
675.43	58.51
675.56	79.58
675.70	72.56
675.84	100.64
675.98	42.13
676.12	56.17
676.26	93.62
676.40	58.51
676.54	2.34
676.68	53.83
676.82	0.00
676.96	86.60
677.10	77.24
677.23	2.34
677.37	0.00
677.51	63.19
677.65	88.94
677.79	102.98
677.93	53.83
678.07	46.81
678.21	18.72
678.34	49.15
678.48	25.75
678.62	4.68
678.76	102.98
678.90	67.88
679.04	0.00
679.18	60.85
679.31	23.41
679.45	32.77
679.59	65.54
679.73	53.83
679.87	25.75
680.00	32.77
680.14	46.81
680.28	25.75
680.42	53.83
680.56	4.68
680.70	44.47
680.83	0.00
680.97	102.98
681.11	30.43
681.25	53.83
681.39	32.77
681.52	37.45
681.66	79.58
681.80	49.15
681.94	98.30
682.07	81.92
682.21	16.38
682.35	25.75
682.49	102.98
682.62	18.72
682.76	56.17
682.90	14.04
683.04	16.38
683.17	0.00
683.31	58.51
683.45	0.00
683.59	81.92
683.72	37.45
683.86	37.45
684.00	9.36
684.13	32.77
684.27	42.13
684.41	67.88
684.55	0.00
684.68	67.88
684.82	0.00
684.96	0.00
685.09	84.26
685.23	51.49
685.37	16.38
685.50	44.47
685.64	98.30
685.78	70.22
685.91	84.26
686.05	35.11
686.19	56.17
686.32	56.17
686.46	53.83
686.60	16.38
686.73	25.75
686.87	23.41
687.01	42.13
687.14	0.00
687.28	37.45
687.42	18.72
687.55	67.88
687.69	79.58
687.82	56.17
687.96	0.00
688.10	86.60
688.23	79.58
688.37	86.60
688.50	51.49
688.64	0.00
688.78	95.96
688.91	81.92
689.05	79.58
689.18	35.11
689.32	0.00
689.46	30.43
689.59	21.06
689.73	21.06
689.86	95.96
690.00	46.81
690.13	18.72
690.27	0.00
690.41	30.43
690.54	11.70
690.68	56.17
690.81	0.00
690.95	35.11
691.08	119.37
691.22	49.15
691.35	42.13
691.49	0.00
691.62	44.47
691.76	21.06
691.89	35.11
692.03	4.68
692.16	21.06
692.30	0.00
692.43	0.00
692.57	53.83
692.70	0.00
692.84	30.43
692.97	46.81
693.11	23.41
693.24	0.00
693.38	65.54
693.51	86.60
693.65	100.64
693.78	37.45
693.92	42.13
694.05	14.04
694.19	0.00
694.32	0.00
694.45	86.60
694.59	25.75
694.72	0.00
694.86	0.00
694.99	7.02
695.13	49.15
695.26	95.96
695.39	21.06
695.53	30.43
695.66	21.06
695.80	18.72
695.93	37.45
696.07	56.17
696.20	2.34
696.33	0.00
696.47	37.45
696.60	79.58
696.73	0.00
696.87	14.04
697.00	77.24
697.14	0.00
697.27	70.22
697.40	60.85
697.54	42.13
697.67	28.09
697.80	117.03
697.94	30.43
698.07	46.81
698.21	93.62
698.34	53.83
698.47	81.92
698.61	32.77
698.74	63.19
698.87	0.00
699.01	30.43
699.14	88.94
699.27	35.11
699.40	18.72
699.54	51.49
699.67	0.00
699.80	138.09
699.94	0.00
700.07	21.06
700.20	42.13
700.34	0.00
700.47	42.13
700.60	0.00
700.73	53.83
700.87	14.04
701.00	0.00
701.13	0.00
701.26	72.56
701.40	0.00
701.53	70.22
701.66	11.70
701.79	0.00
701.93	49.15
702.06	4.68
702.19	0.00
702.32	0.00
702.46	0.00
702.59	46.81
702.72	14.04
702.85	30.43
702.99	11.70
703.12	7.02
703.25	72.56
703.38	25.75
703.51	102.98
703.65	42.13
703.78	0.00
703.91	46.81
704.04	16.38
704.17	0.00
704.31	32.77
704.44	9.36
704.57	65.54
704.70	53.83
704.83	0.00
704.96	4.68
705.10	39.79
705.23	32.77
>>>>>End Processed Spectral Data<<<<<
