SpectraSuite Data File
++++++++++++++++++++++++++++++++++++
Date: Fri Oct 04 12:13:29 GMT-05:00 2013
User: price-jones
Dark Spectrum Present: No
Reference Spectrum Present: No
Number of Sampled Component Spectra: 1
Spectrometers: USB2+H05261
Integration Time (usec): 10000 (USB2+H05261)
Spectra Averaged: 1 (USB2+H05261)
Boxcar Smoothing: 0 (USB2+H05261)
Correct for Electrical Dark: No (USB2+H05261)
Strobe/Lamp Enabled: No (USB2+H05261)
Correct for Detector Non-linearity: No (USB2+H05261)
Correct for Stray Light: No (USB2+H05261)
Number of Pixels in Processed Spectrum: 2048
>>>>>Begin Processed Spectral Data<<<<<
365.73	0.00
365.92	0.00
366.12	0.00
366.32	0.00
366.52	0.00
366.72	0.00
366.91	0.00
367.11	0.00
367.31	0.00
367.51	0.00
367.70	0.00
367.90	0.00
368.10	0.00
368.30	0.00
368.49	0.00
368.69	0.00
368.89	0.00
369.09	0.00
369.28	0.00
369.48	0.00
369.68	0.00
369.87	0.00
370.07	0.00
370.27	0.00
370.47	0.00
370.66	0.00
370.86	0.00
371.06	0.00
371.25	0.00
371.45	0.00
371.65	0.00
371.84	2.34
372.04	0.00
372.24	0.00
372.44	4.68
372.63	32.77
372.83	7.02
373.03	9.36
373.22	0.00
373.42	56.17
373.62	0.00
373.81	46.81
374.01	0.00
374.21	28.09
374.40	0.00
374.60	21.06
374.79	60.85
374.99	0.00
375.19	65.54
375.38	58.51
375.58	117.03
375.78	49.15
375.97	18.72
376.17	18.72
376.37	49.15
376.56	16.38
376.76	2.34
376.95	16.38
377.15	23.41
377.35	72.56
377.54	60.85
377.74	51.49
377.93	0.00
378.13	84.26
378.33	14.04
378.52	0.00
378.72	0.00
378.91	70.22
379.11	2.34
379.31	30.43
379.50	65.54
379.70	0.00
379.89	16.38
380.09	23.41
380.28	2.34
380.48	35.11
380.68	25.75
380.87	0.00
381.07	23.41
381.26	25.75
381.46	11.70
381.65	23.41
381.85	110.01
382.04	46.81
382.24	23.41
382.43	0.00
382.63	23.41
382.83	72.56
383.02	23.41
383.22	0.00
383.41	63.19
383.61	11.70
383.80	0.00
384.00	42.13
384.19	0.00
384.39	0.00
384.58	98.30
384.78	39.79
384.97	0.00
385.17	11.70
385.36	30.43
385.56	0.00
385.75	0.00
385.95	35.11
386.14	79.58
386.34	0.00
386.53	42.13
386.72	21.06
386.92	4.68
387.11	32.77
387.31	0.00
387.50	7.02
387.70	25.75
387.89	0.00
388.09	0.00
388.28	46.81
388.48	67.88
388.67	25.75
388.86	14.04
389.06	7.02
389.25	60.85
389.45	0.00
389.64	9.36
389.84	0.00
390.03	0.00
390.22	0.00
390.42	49.15
390.61	0.00
390.81	11.70
391.00	53.83
391.19	0.00
391.39	0.00
391.58	0.00
391.78	42.13
391.97	32.77
392.16	28.09
392.36	86.60
392.55	0.00
392.75	18.72
392.94	0.00
393.13	25.75
393.33	46.81
393.52	2.34
393.71	0.00
393.91	0.00
394.10	0.00
394.29	0.00
394.49	58.51
394.68	88.94
394.88	51.49
395.07	11.70
395.26	72.56
395.46	0.00
395.65	0.00
395.84	35.11
396.04	65.54
396.23	11.70
396.42	23.41
396.62	16.38
396.81	74.90
397.00	88.94
397.19	0.00
397.39	37.45
397.58	18.72
397.77	77.24
397.97	18.72
398.16	112.35
398.35	9.36
398.55	0.00
398.74	28.09
398.93	72.56
399.12	11.70
399.32	16.38
399.51	58.51
399.70	30.43
399.90	30.43
400.09	18.72
400.28	0.00
400.47	0.00
400.67	18.72
400.86	11.70
401.05	0.00
401.24	9.36
401.44	23.41
401.63	18.72
401.82	0.00
402.01	0.00
402.21	63.19
402.40	21.06
402.59	28.09
402.78	0.00
402.97	0.00
403.17	0.00
403.36	35.11
403.55	65.54
403.74	32.77
403.93	81.92
404.13	28.09
404.32	77.24
404.51	9.36
404.70	0.00
404.89	0.00
405.09	7.02
405.28	4.68
405.47	86.60
405.66	56.17
405.85	65.54
406.05	37.45
406.24	0.00
406.43	0.00
406.62	0.00
406.81	14.04
407.00	37.45
407.20	14.04
407.39	63.19
407.58	0.00
407.77	0.00
407.96	0.00
408.15	49.15
408.34	37.45
408.54	79.58
408.73	9.36
408.92	65.54
409.11	81.92
409.30	58.51
409.49	25.75
409.68	32.77
409.87	74.90
410.07	0.00
410.26	49.15
410.45	42.13
410.64	39.79
410.83	42.13
411.02	0.00
411.21	58.51
411.40	16.38
411.59	18.72
411.78	11.70
411.98	14.04
412.17	21.06
412.36	23.41
412.55	16.38
412.74	7.02
412.93	0.00
413.12	14.04
413.31	51.49
413.50	18.72
413.69	65.54
413.88	9.36
414.07	0.00
414.26	37.45
414.45	37.45
414.64	35.11
414.83	35.11
415.02	53.83
415.22	58.51
415.41	44.47
415.60	32.77
415.79	0.00
415.98	0.00
416.17	0.00
416.36	0.00
416.55	18.72
416.74	44.47
416.93	46.81
417.12	16.38
417.31	0.00
417.50	0.00
417.69	56.17
417.88	65.54
418.07	32.77
418.26	0.00
418.45	88.94
418.64	2.34
418.83	14.04
419.02	53.83
419.21	39.79
419.39	4.68
419.58	0.00
419.77	37.45
419.96	42.13
420.15	18.72
420.34	0.00
420.53	0.00
420.72	0.00
420.91	7.02
421.10	46.81
421.29	72.56
421.48	60.85
421.67	70.22
421.86	70.22
422.05	0.00
422.24	0.00
422.43	0.00
422.61	77.24
422.80	0.00
422.99	18.72
423.18	0.00
423.37	58.51
423.56	28.09
423.75	93.62
423.94	60.85
424.13	0.00
424.32	0.00
424.50	102.98
424.69	32.77
424.88	0.00
425.07	0.00
425.26	42.13
425.45	53.83
425.64	0.00
425.83	65.54
426.01	74.90
426.20	0.00
426.39	56.17
426.58	0.00
426.77	63.19
426.96	105.32
427.15	44.47
427.33	72.56
427.52	11.70
427.71	63.19
427.90	0.00
428.09	28.09
428.28	63.19
428.46	53.83
428.65	46.81
428.84	63.19
429.03	25.75
429.22	23.41
429.40	72.56
429.59	0.00
429.78	44.47
429.97	23.41
430.16	42.13
430.34	63.19
430.53	25.75
430.72	51.49
430.91	74.90
431.10	2.34
431.28	4.68
431.47	67.88
431.66	67.88
431.85	0.00
432.03	84.26
432.22	9.36
432.41	30.43
432.60	0.00
432.79	0.00
432.97	28.09
433.16	14.04
433.35	88.94
433.54	37.45
433.72	9.36
433.91	53.83
434.10	25.75
434.28	56.17
434.47	53.83
434.66	42.13
434.85	0.00
435.03	0.00
435.22	42.13
435.41	60.85
435.59	0.00
435.78	0.00
435.97	4.68
436.16	46.81
436.34	49.15
436.53	23.41
436.72	32.77
436.90	0.00
437.09	0.00
437.28	7.02
437.46	77.24
437.65	35.11
437.84	67.88
438.02	0.00
438.21	0.00
438.40	65.54
438.58	0.00
438.77	65.54
438.96	4.68
439.14	58.51
439.33	79.58
439.52	16.38
439.70	0.00
439.89	56.17
440.08	0.00
440.26	0.00
440.45	0.00
440.63	11.70
440.82	0.00
441.01	63.19
441.19	0.00
441.38	49.15
441.57	39.79
441.75	0.00
441.94	0.00
442.12	35.11
442.31	67.88
442.50	0.00
442.68	42.13
442.87	0.00
443.05	0.00
443.24	0.00
443.43	53.83
443.61	102.98
443.80	39.79
443.98	28.09
444.17	0.00
444.35	114.69
444.54	18.72
444.73	4.68
444.91	70.22
445.10	14.04
445.28	63.19
445.47	86.60
445.65	0.00
445.84	42.13
446.02	42.13
446.21	56.17
446.39	11.70
446.58	70.22
446.77	58.51
446.95	32.77
447.14	49.15
447.32	49.15
447.51	0.00
447.69	77.24
447.88	49.15
448.06	30.43
448.25	0.00
448.43	84.26
448.62	35.11
448.80	46.81
448.99	63.19
449.17	58.51
449.36	14.04
449.54	0.00
449.73	39.79
449.91	0.00
450.10	25.75
450.28	0.00
450.46	32.77
450.65	35.11
450.83	25.75
451.02	65.54
451.20	58.51
451.39	49.15
451.57	49.15
451.76	0.00
451.94	30.43
452.13	81.92
452.31	44.47
452.49	37.45
452.68	0.00
452.86	0.00
453.05	39.79
453.23	16.38
453.42	0.00
453.60	63.19
453.78	35.11
453.97	84.26
454.15	91.28
454.34	72.56
454.52	0.00
454.70	37.45
454.89	100.64
455.07	0.00
455.26	0.00
455.44	60.85
455.62	46.81
455.81	25.75
455.99	0.00
456.17	0.00
456.36	9.36
456.54	114.69
456.73	30.43
456.91	105.32
457.09	0.00
457.28	46.81
457.46	16.38
457.64	86.60
457.83	32.77
458.01	32.77
458.19	30.43
458.38	18.72
458.56	63.19
458.74	84.26
458.93	16.38
459.11	0.00
459.29	18.72
459.48	51.49
459.66	86.60
459.84	28.09
460.03	44.47
460.21	58.51
460.39	32.77
460.57	30.43
460.76	14.04
460.94	0.00
461.12	84.26
461.31	60.85
461.49	28.09
461.67	0.00
461.85	0.00
462.04	18.72
462.22	2.34
462.40	56.17
462.59	63.19
462.77	23.41
462.95	0.00
463.13	0.00
463.32	21.06
463.50	11.70
463.68	9.36
463.86	18.72
464.05	0.00
464.23	56.17
464.41	56.17
464.59	86.60
464.78	0.00
464.96	51.49
465.14	0.00
465.32	11.70
465.50	14.04
465.69	35.11
465.87	0.00
466.05	0.00
466.23	51.49
466.41	44.47
466.60	30.43
466.78	2.34
466.96	9.36
467.14	42.13
467.32	30.43
467.51	51.49
467.69	16.38
467.87	124.05
468.05	0.00
468.23	44.47
468.41	88.94
468.60	0.00
468.78	37.45
468.96	18.72
469.14	0.00
469.32	0.00
469.50	0.00
469.69	0.00
469.87	81.92
470.05	63.19
470.23	70.22
470.41	128.73
470.59	32.77
470.77	32.77
470.95	0.00
471.14	25.75
471.32	23.41
471.50	0.00
471.68	32.77
471.86	21.06
472.04	44.47
472.22	105.32
472.40	9.36
472.58	0.00
472.77	23.41
472.95	51.49
473.13	72.56
473.31	84.26
473.49	58.51
473.67	9.36
473.85	0.00
474.03	65.54
474.21	0.00
474.39	32.77
474.57	35.11
474.75	37.45
474.93	16.38
475.12	88.94
475.30	102.98
475.48	18.72
475.66	0.00
475.84	74.90
476.02	53.83
476.20	0.00
476.38	16.38
476.56	77.24
476.74	21.06
476.92	0.00
477.10	0.00
477.28	14.04
477.46	2.34
477.64	0.00
477.82	0.00
478.00	32.77
478.18	114.69
478.36	14.04
478.54	25.75
478.72	0.00
478.90	44.47
479.08	0.00
479.26	4.68
479.44	21.06
479.62	0.00
479.80	65.54
479.98	21.06
480.16	70.22
480.34	51.49
480.52	81.92
480.70	138.09
480.88	53.83
481.06	44.47
481.24	65.54
481.41	25.75
481.59	58.51
481.77	0.00
481.95	0.00
482.13	32.77
482.31	79.58
482.49	28.09
482.67	0.00
482.85	39.79
483.03	30.43
483.21	46.81
483.39	77.24
483.57	58.51
483.74	32.77
483.92	51.49
484.10	0.00
484.28	18.72
484.46	74.90
484.64	39.79
484.82	7.02
485.00	39.79
485.18	65.54
485.35	79.58
485.53	0.00
485.71	21.06
485.89	11.70
486.07	2.34
486.25	81.92
486.43	72.56
486.61	0.00
486.78	86.60
486.96	56.17
487.14	91.28
487.32	46.81
487.50	32.77
487.68	49.15
487.85	70.22
488.03	100.64
488.21	95.96
488.39	79.58
488.57	30.43
488.75	35.11
488.92	18.72
489.10	23.41
489.28	4.68
489.46	44.47
489.64	14.04
489.81	72.56
489.99	21.06
490.17	23.41
490.35	93.62
490.53	79.58
490.70	42.13
490.88	35.11
491.06	86.60
491.24	91.28
491.41	11.70
491.59	81.92
491.77	102.98
491.95	37.45
492.13	0.00
492.30	152.13
492.48	67.88
492.66	0.00
492.84	11.70
493.01	95.96
493.19	88.94
493.37	44.47
493.54	107.66
493.72	0.00
493.90	0.00
494.08	67.88
494.25	37.45
494.43	86.60
494.61	18.72
494.79	77.24
494.96	86.60
495.14	53.83
495.32	37.45
495.49	70.22
495.67	35.11
495.85	88.94
496.02	63.19
496.20	46.81
496.38	49.15
496.55	42.13
496.73	21.06
496.91	32.77
497.09	11.70
497.26	0.00
497.44	44.47
497.62	0.00
497.79	0.00
497.97	11.70
498.14	42.13
498.32	0.00
498.50	53.83
498.67	37.45
498.85	0.00
499.03	37.45
499.20	7.02
499.38	30.43
499.56	53.83
499.73	56.17
499.91	149.79
500.08	53.83
500.26	65.54
500.44	7.02
500.61	37.45
500.79	67.88
500.97	28.09
501.14	86.60
501.32	46.81
501.49	72.56
501.67	58.51
501.84	28.09
502.02	0.00
502.20	0.00
502.37	0.00
502.55	0.00
502.72	51.49
502.90	14.04
503.07	16.38
503.25	37.45
503.43	2.34
503.60	0.00
503.78	23.41
503.95	28.09
504.13	9.36
504.30	110.01
504.48	25.75
504.65	37.45
504.83	9.36
505.01	32.77
505.18	63.19
505.36	28.09
505.53	21.06
505.71	53.83
505.88	42.13
506.06	65.54
506.23	67.88
506.41	126.39
506.58	154.48
506.76	105.32
506.93	63.19
507.11	0.00
507.28	56.17
507.46	110.01
507.63	30.43
507.81	16.38
507.98	93.62
508.16	72.56
508.33	49.15
508.50	56.17
508.68	58.51
508.85	32.77
509.03	0.00
509.20	49.15
509.38	35.11
509.55	0.00
509.73	42.13
509.90	30.43
510.08	110.01
510.25	79.58
510.42	91.28
510.60	49.15
510.77	107.66
510.95	18.72
511.12	74.90
511.30	58.51
511.47	39.79
511.64	81.92
511.82	25.75
511.99	49.15
512.17	9.36
512.34	91.28
512.51	51.49
512.69	4.68
512.86	65.54
513.04	39.79
513.21	0.00
513.38	2.34
513.56	56.17
513.73	74.90
513.90	79.58
514.08	0.00
514.25	37.45
514.43	93.62
514.60	49.15
514.77	32.77
514.95	81.92
515.12	4.68
515.29	44.47
515.47	49.15
515.64	46.81
515.81	11.70
515.99	21.06
516.16	44.47
516.33	53.83
516.51	98.30
516.68	16.38
516.85	39.79
517.03	23.41
517.20	0.00
517.37	124.05
517.54	60.85
517.72	53.83
517.89	11.70
518.06	88.94
518.24	30.43
518.41	77.24
518.58	49.15
518.75	56.17
518.93	49.15
519.10	51.49
519.27	0.00
519.45	28.09
519.62	58.51
519.79	0.00
519.96	37.45
520.14	0.00
520.31	46.81
520.48	65.54
520.65	2.34
520.83	25.75
521.00	95.96
521.17	7.02
521.34	42.13
521.52	32.77
521.69	0.00
521.86	9.36
522.03	49.15
522.20	28.09
522.38	39.79
522.55	35.11
522.72	21.06
522.89	49.15
523.07	53.83
523.24	14.04
523.41	44.47
523.58	53.83
523.75	58.51
523.92	110.01
524.10	98.30
524.27	49.15
524.44	0.00
524.61	2.34
524.78	86.60
524.96	35.11
525.13	67.88
525.30	0.00
525.47	0.00
525.64	114.69
525.81	0.00
525.98	0.00
526.16	105.32
526.33	49.15
526.50	4.68
526.67	0.00
526.84	30.43
527.01	0.00
527.18	84.26
527.36	39.79
527.53	65.54
527.70	14.04
527.87	63.19
528.04	88.94
528.21	53.83
528.38	14.04
528.55	14.04
528.72	4.68
528.89	28.09
529.07	32.77
529.24	114.69
529.41	63.19
529.58	51.49
529.75	28.09
529.92	86.60
530.09	91.28
530.26	0.00
530.43	49.15
530.60	32.77
530.77	25.75
530.94	95.96
531.11	60.85
531.28	32.77
531.46	65.54
531.63	72.56
531.80	53.83
531.97	117.03
532.14	46.81
532.31	156.82
532.48	98.30
532.65	81.92
532.82	39.79
532.99	0.00
533.16	60.85
533.33	63.19
533.50	65.54
533.67	60.85
533.84	11.70
534.01	16.38
534.18	37.45
534.35	63.19
534.52	0.00
534.69	56.17
534.86	51.49
535.03	102.98
535.20	11.70
535.37	0.00
535.54	110.01
535.71	28.09
535.88	84.26
536.05	21.06
536.22	7.02
536.38	53.83
536.55	32.77
536.72	23.41
536.89	81.92
537.06	145.11
537.23	110.01
537.40	39.79
537.57	58.51
537.74	4.68
537.91	46.81
538.08	0.00
538.25	51.49
538.42	0.00
538.59	0.00
538.75	30.43
538.92	79.58
539.09	14.04
539.26	81.92
539.43	0.00
539.60	102.98
539.77	147.45
539.94	154.48
540.11	32.77
540.28	88.94
540.44	53.83
540.61	60.85
540.78	74.90
540.95	114.69
541.12	46.81
541.29	53.83
541.46	7.02
541.62	100.64
541.79	0.00
541.96	84.26
542.13	28.09
542.30	126.39
542.47	128.73
542.63	53.83
542.80	25.75
542.97	35.11
543.14	46.81
543.31	21.06
543.48	21.06
543.64	11.70
543.81	25.75
543.98	49.15
544.15	32.77
544.32	0.00
544.48	37.45
544.65	63.19
544.82	126.39
544.99	70.22
545.16	0.00
545.32	77.24
545.49	51.49
545.66	51.49
545.83	60.85
546.00	58.51
546.16	42.13
546.33	0.00
546.50	35.11
546.67	81.92
546.83	23.41
547.00	74.90
547.17	88.94
547.34	32.77
547.50	2.34
547.67	0.00
547.84	23.41
548.00	77.24
548.17	0.00
548.34	49.15
548.51	105.32
548.67	53.83
548.84	21.06
549.01	4.68
549.18	65.54
549.34	88.94
549.51	21.06
549.68	21.06
549.84	25.75
550.01	14.04
550.18	25.75
550.34	98.30
550.51	11.70
550.68	60.85
550.84	0.00
551.01	37.45
551.18	63.19
551.34	79.58
551.51	65.54
551.68	25.75
551.84	56.17
552.01	0.00
552.18	63.19
552.34	58.51
552.51	49.15
552.68	46.81
552.84	72.56
553.01	44.47
553.18	4.68
553.34	0.00
553.51	53.83
553.67	51.49
553.84	117.03
554.01	135.75
554.17	37.45
554.34	65.54
554.51	70.22
554.67	35.11
554.84	46.81
555.00	86.60
555.17	44.47
555.33	32.77
555.50	16.38
555.67	0.00
555.83	37.45
556.00	117.03
556.16	102.98
556.33	60.85
556.50	0.00
556.66	58.51
556.83	65.54
556.99	88.94
557.16	95.96
557.32	95.96
557.49	11.70
557.65	23.41
557.82	70.22
557.98	42.13
558.15	25.75
558.32	4.68
558.48	72.56
558.65	23.41
558.81	11.70
558.98	25.75
559.14	51.49
559.31	0.00
559.47	37.45
559.64	79.58
559.80	145.11
559.97	28.09
560.13	46.81
560.30	77.24
560.46	9.36
560.63	46.81
560.79	2.34
560.96	39.79
561.12	74.90
561.29	35.11
561.45	2.34
561.61	28.09
561.78	11.70
561.94	37.45
562.11	14.04
562.27	35.11
562.44	32.77
562.60	16.38
562.77	0.00
562.93	21.06
563.10	46.81
563.26	70.22
563.42	4.68
563.59	0.00
563.75	63.19
563.92	58.51
564.08	53.83
564.24	77.24
564.41	30.43
564.57	44.47
564.74	23.41
564.90	0.00
565.07	0.00
565.23	25.75
565.39	0.00
565.56	51.49
565.72	0.00
565.88	0.00
566.05	39.79
566.21	72.56
566.38	42.13
566.54	65.54
566.70	28.09
566.87	107.66
567.03	105.32
567.19	35.11
567.36	49.15
567.52	23.41
567.68	28.09
567.85	0.00
568.01	100.64
568.17	0.00
568.34	44.47
568.50	56.17
568.66	49.15
568.83	91.28
568.99	93.62
569.15	63.19
569.32	44.47
569.48	70.22
569.64	0.00
569.81	30.43
569.97	18.72
570.13	4.68
570.30	18.72
570.46	81.92
570.62	23.41
570.78	4.68
570.95	51.49
571.11	11.70
571.27	46.81
571.43	53.83
571.60	42.13
571.76	4.68
571.92	0.00
572.09	60.85
572.25	86.60
572.41	60.85
572.57	37.45
572.74	0.00
572.90	102.98
573.06	21.06
573.22	138.09
573.38	133.41
573.55	35.11
573.71	84.26
573.87	30.43
574.03	60.85
574.20	110.01
574.36	0.00
574.52	0.00
574.68	25.75
574.84	28.09
575.01	105.32
575.17	25.75
575.33	70.22
575.49	0.00
575.65	14.04
575.82	74.90
575.98	39.79
576.14	28.09
576.30	79.58
576.46	53.83
576.62	88.94
576.79	65.54
576.95	9.36
577.11	60.85
577.27	95.96
577.43	163.84
577.59	53.83
577.75	39.79
577.92	63.19
578.08	0.00
578.24	42.13
578.40	0.00
578.56	51.49
578.72	14.04
578.88	42.13
579.04	93.62
579.21	30.43
579.37	28.09
579.53	21.06
579.69	53.83
579.85	46.81
580.01	86.60
580.17	39.79
580.33	4.68
580.49	100.64
580.65	0.00
580.82	53.83
580.98	77.24
581.14	11.70
581.30	0.00
581.46	107.66
581.62	117.03
581.78	72.56
581.94	28.09
582.10	98.30
582.26	72.56
582.42	100.64
582.58	70.22
582.74	67.88
582.90	95.96
583.06	42.13
583.22	23.41
583.38	49.15
583.54	30.43
583.70	56.17
583.86	117.03
584.02	51.49
584.18	49.15
584.34	107.66
584.50	383.85
584.66	2155.63
584.82	5341.10
584.98	7445.24
585.14	6502.01
585.30	4128.70
585.46	2527.78
585.62	1612.63
585.78	695.14
585.94	362.78
586.10	182.56
586.26	105.32
586.42	112.35
586.58	74.90
586.74	79.58
586.90	25.75
587.06	84.26
587.22	72.56
587.38	124.05
587.54	140.43
587.70	339.38
587.86	489.17
588.02	610.88
588.18	491.51
588.34	273.84
588.49	117.03
588.65	91.28
588.81	149.79
588.97	67.88
589.13	2.34
589.29	56.17
589.45	91.28
589.61	42.13
589.77	21.06
589.93	112.35
590.08	18.72
590.24	9.36
590.40	18.72
590.56	79.58
590.72	28.09
590.88	67.88
591.04	77.24
591.20	51.49
591.35	30.43
591.51	86.60
591.67	23.41
591.83	65.54
591.99	65.54
592.15	0.00
592.31	28.09
592.46	0.00
592.62	25.75
592.78	53.83
592.94	0.00
593.10	91.28
593.26	30.43
593.41	30.43
593.57	7.02
593.73	32.77
593.89	280.86
594.05	723.23
594.20	959.62
594.36	922.17
594.52	566.41
594.68	409.59
594.84	304.27
594.99	131.07
595.15	119.37
595.31	194.26
595.47	9.36
595.62	93.62
595.78	56.17
595.94	46.81
596.10	60.85
596.25	67.88
596.41	0.00
596.57	77.24
596.73	21.06
596.88	91.28
597.04	210.65
597.20	194.26
597.36	252.78
597.51	203.63
597.67	205.97
597.83	102.98
597.99	91.28
598.14	131.07
598.30	72.56
598.46	32.77
598.61	0.00
598.77	79.58
598.93	39.79
599.09	28.09
599.24	32.77
599.40	79.58
599.56	49.15
599.71	56.17
599.87	56.17
600.03	25.75
600.18	0.00
600.34	9.36
600.50	7.02
600.65	70.22
600.81	37.45
600.97	42.13
601.12	0.00
601.28	39.79
601.44	0.00
601.59	91.28
601.75	18.72
601.91	51.49
602.06	49.15
602.22	42.13
602.37	156.82
602.53	119.37
602.69	262.14
602.84	276.18
603.00	243.42
603.16	135.75
603.31	154.48
603.47	112.35
603.62	72.56
603.78	23.41
603.94	32.77
604.09	35.11
604.25	18.72
604.40	0.00
604.56	14.04
604.71	35.11
604.87	0.00
605.03	86.60
605.18	42.13
605.34	72.56
605.49	95.96
605.65	21.06
605.80	51.49
605.96	11.70
606.12	46.81
606.27	88.94
606.43	30.43
606.58	21.06
606.74	63.19
606.89	358.10
607.05	653.01
607.20	833.23
607.36	681.10
607.51	414.27
607.67	287.89
607.82	196.60
607.98	189.58
608.13	149.79
608.29	126.39
608.44	74.90
608.60	79.58
608.75	32.77
608.91	102.98
609.06	510.24
609.22	1062.60
609.37	1343.47
609.53	1240.48
609.68	849.61
609.84	547.69
609.99	425.98
610.15	255.12
610.30	86.60
610.46	112.35
610.61	79.58
610.76	46.81
610.92	77.24
611.07	37.45
611.23	4.68
611.38	49.15
611.54	28.09
611.69	117.03
611.84	42.13
612.00	56.17
612.15	77.24
612.31	86.60
612.46	133.41
612.62	79.58
612.77	37.45
612.92	18.72
613.08	11.70
613.23	119.37
613.39	77.24
613.54	110.01
613.69	547.69
613.85	1343.47
614.00	2134.57
614.15	2104.14
614.31	1542.41
614.46	945.58
614.62	688.12
614.77	463.43
614.92	217.67
615.08	105.32
615.23	42.13
615.38	86.60
615.54	16.38
615.69	79.58
615.84	229.37
616.00	479.81
616.15	540.66
616.30	550.03
616.46	322.99
616.61	273.84
616.76	243.42
616.92	145.11
617.07	4.68
617.22	28.09
617.37	35.11
617.53	56.17
617.68	79.58
617.83	44.47
617.99	56.17
618.14	74.90
618.29	72.56
618.45	0.00
618.60	46.81
618.75	100.64
618.90	23.41
619.06	37.45
619.21	93.62
619.36	7.02
619.51	70.22
619.67	4.68
619.82	121.71
619.97	72.56
620.12	35.11
620.28	88.94
620.43	0.00
620.58	16.38
620.73	0.00
620.89	0.00
621.04	63.19
621.19	215.33
621.34	320.65
621.49	400.23
621.65	346.40
621.80	325.33
621.95	124.05
622.10	131.07
622.25	105.32
622.41	46.81
622.56	0.00
622.71	0.00
622.86	9.36
623.01	30.43
623.16	0.00
623.32	0.00
623.47	28.09
623.62	18.72
623.77	42.13
623.92	70.22
624.07	39.79
624.23	0.00
624.38	65.54
624.53	0.00
624.68	0.00
624.83	60.85
624.98	37.45
625.13	65.54
625.29	65.54
625.44	7.02
625.59	126.39
625.74	95.96
625.89	72.56
626.04	266.82
626.19	669.39
626.34	957.28
626.49	1062.60
626.65	861.32
626.80	613.22
626.95	458.74
627.10	224.69
627.25	131.07
627.40	95.96
627.55	67.88
627.70	65.54
627.85	93.62
628.00	0.00
628.15	74.90
628.30	16.38
628.45	30.43
628.60	0.00
628.76	42.13
628.91	121.71
629.06	98.30
629.21	16.38
629.36	23.41
629.51	32.77
629.66	67.88
629.81	67.88
629.96	140.43
630.11	269.16
630.26	227.03
630.41	290.23
630.56	168.52
630.71	154.48
630.86	102.98
631.01	114.69
631.16	0.00
631.31	11.70
631.46	86.60
631.61	32.77
631.76	25.75
631.91	0.00
632.06	53.83
632.21	35.11
632.36	21.06
632.51	42.13
632.66	60.85
632.81	133.41
632.96	400.23
633.10	664.71
633.25	814.51
633.40	627.26
633.55	404.91
633.70	315.97
633.85	252.78
634.00	98.30
634.15	121.71
634.30	53.83
634.45	0.00
634.60	14.04
634.75	51.49
634.90	53.83
635.05	81.92
635.19	53.83
635.34	0.00
635.49	44.47
635.64	46.81
635.79	11.70
635.94	0.00
636.09	42.13
636.24	70.22
636.39	53.83
636.53	77.24
636.68	23.41
636.83	11.70
636.98	81.92
637.13	81.92
637.28	86.60
637.43	25.75
637.57	119.37
637.72	390.87
637.87	912.81
638.02	1352.83
638.17	1490.92
638.32	1137.50
638.46	741.95
638.61	557.05
638.76	325.33
638.91	112.35
639.06	42.13
639.20	154.48
639.35	110.01
639.50	105.32
639.65	500.87
639.80	1385.60
639.94	2073.71
640.09	2216.49
640.24	1762.42
640.39	1130.48
640.54	779.40
640.68	514.92
640.83	208.31
640.98	156.82
641.13	53.83
641.27	46.81
641.42	30.43
641.57	0.00
641.72	46.81
641.86	58.51
642.01	65.54
642.16	30.43
642.31	42.13
642.45	0.00
642.60	0.00
642.75	0.00
642.90	60.85
643.04	0.00
643.19	84.26
643.34	30.43
643.48	39.79
643.63	53.83
643.78	30.43
643.93	35.11
644.07	60.85
644.22	46.81
644.37	42.13
644.51	30.43
644.66	39.79
644.81	25.75
644.95	56.17
645.10	93.62
645.25	0.00
645.39	72.56
645.54	16.38
645.69	14.04
645.83	79.58
645.98	86.60
646.13	0.00
646.27	0.00
646.42	49.15
646.57	2.34
646.71	79.58
646.86	46.81
647.00	44.47
647.15	72.56
647.30	21.06
647.44	63.19
647.59	51.49
647.74	102.98
647.88	23.41
648.03	18.72
648.17	74.90
648.32	79.58
648.47	14.04
648.61	21.06
648.76	110.01
648.90	0.00
649.05	142.77
649.20	51.49
649.34	14.04
649.49	0.00
649.63	16.38
649.78	35.11
649.92	32.77
650.07	238.73
650.21	627.26
650.36	1039.20
650.51	1231.12
650.65	1001.75
650.80	765.36
650.94	517.26
651.09	334.70
651.23	161.50
651.38	91.28
651.52	4.68
651.67	102.98
651.81	88.94
651.96	70.22
652.10	98.30
652.25	72.56
652.39	70.22
652.54	42.13
652.68	133.41
652.83	224.69
652.97	400.23
653.12	386.19
653.26	425.98
653.41	262.14
653.55	245.76
653.70	163.84
653.84	133.41
653.99	56.17
654.13	23.41
654.27	53.83
654.42	44.47
654.56	98.30
654.71	110.01
654.85	0.00
655.00	65.54
655.14	30.43
655.29	0.00
655.43	56.17
655.57	21.06
655.72	14.04
655.86	23.41
656.01	30.43
656.15	81.92
656.30	14.04
656.44	37.45
656.58	81.92
656.73	65.54
656.87	112.35
657.01	98.30
657.16	51.49
657.30	72.56
657.45	28.09
657.59	9.36
657.73	21.06
657.88	21.06
658.02	14.04
658.16	39.79
658.31	53.83
658.45	56.17
658.60	21.06
658.74	44.47
658.88	53.83
659.03	79.58
659.17	53.83
659.31	88.94
659.46	318.31
659.60	456.40
659.74	603.86
659.89	505.56
660.03	421.30
660.17	280.86
660.32	241.08
660.46	154.48
660.60	131.07
660.74	105.32
660.89	11.70
661.03	119.37
661.17	100.64
661.32	72.56
661.46	0.00
661.60	30.43
661.74	56.17
661.89	30.43
662.03	35.11
662.17	0.00
662.31	65.54
662.46	70.22
662.60	67.88
662.74	63.19
662.88	32.77
663.03	67.88
663.17	53.83
663.31	32.77
663.45	105.32
663.60	35.11
663.74	21.06
663.88	114.69
664.02	37.45
664.17	49.15
664.31	0.00
664.45	0.00
664.59	30.43
664.73	0.00
664.88	70.22
665.02	21.06
665.16	32.77
665.30	46.81
665.44	14.04
665.59	70.22
665.73	126.39
665.87	39.79
666.01	23.41
666.15	42.13
666.29	37.45
666.44	56.17
666.58	18.72
666.72	0.00
666.86	84.26
667.00	0.00
667.14	72.56
667.28	266.82
667.43	559.39
667.57	854.30
667.71	954.94
667.85	861.32
667.99	678.76
668.13	479.81
668.27	313.63
668.41	121.71
668.56	44.47
668.70	72.56
668.84	74.90
668.98	49.15
669.12	18.72
669.26	0.00
669.40	0.00
669.54	0.00
669.68	63.19
669.82	21.06
669.96	51.49
670.10	117.03
670.25	0.00
670.39	11.70
670.53	42.13
670.67	0.00
670.81	23.41
670.95	110.01
671.09	18.72
671.23	201.29
671.37	376.83
671.51	587.47
671.65	631.94
671.79	514.92
671.93	433.00
672.07	220.01
672.21	119.37
672.35	25.75
672.49	81.92
672.63	42.13
672.77	74.90
672.91	74.90
673.05	39.79
673.19	32.77
673.33	0.00
673.47	0.00
673.61	70.22
673.75	0.00
673.89	28.09
674.03	9.36
674.17	0.00
674.31	0.00
674.45	0.00
674.59	60.85
674.73	28.09
674.87	49.15
675.01	51.49
675.15	53.83
675.29	28.09
675.43	60.85
675.56	39.79
675.70	88.94
675.84	65.54
675.98	77.24
676.12	44.47
676.26	58.51
676.40	7.02
676.54	28.09
676.68	63.19
676.82	53.83
676.96	0.00
677.10	32.77
677.23	30.43
677.37	60.85
677.51	2.34
677.65	2.34
677.79	14.04
677.93	7.02
678.07	0.00
678.21	72.56
678.34	2.34
678.48	56.17
678.62	39.79
678.76	77.24
678.90	37.45
679.04	16.38
679.18	44.47
679.31	14.04
679.45	63.19
679.59	11.70
679.73	79.58
679.87	39.79
680.00	25.75
680.14	95.96
680.28	0.00
680.42	72.56
680.56	23.41
680.70	23.41
680.83	9.36
680.97	0.00
681.11	21.06
681.25	0.00
681.39	32.77
681.52	28.09
681.66	53.83
681.80	39.79
681.94	25.75
682.07	30.43
682.21	0.00
682.35	32.77
682.49	70.22
682.62	0.00
682.76	46.81
682.90	74.90
683.04	11.70
683.17	35.11
683.31	56.17
683.45	70.22
683.59	16.38
683.72	49.15
683.86	2.34
684.00	11.70
684.13	84.26
684.27	42.13
684.41	16.38
684.55	58.51
684.68	18.72
684.82	39.79
684.96	0.00
685.09	18.72
685.23	35.11
685.37	21.06
685.50	0.00
685.64	4.68
685.78	93.62
685.91	58.51
686.05	0.00
686.19	23.41
686.32	14.04
686.46	4.68
686.60	51.49
686.73	0.00
686.87	0.00
687.01	72.56
687.14	30.43
687.28	21.06
687.42	0.00
687.55	79.58
687.69	23.41
687.82	0.00
687.96	4.68
688.10	51.49
688.23	46.81
688.37	81.92
688.50	53.83
688.64	60.85
688.78	56.17
688.91	58.51
689.05	60.85
689.18	4.68
689.32	0.00
689.46	0.00
689.59	21.06
689.73	0.00
689.86	16.38
690.00	35.11
690.13	72.56
690.27	14.04
690.41	0.00
690.54	51.49
690.68	11.70
690.81	9.36
690.95	11.70
691.08	67.88
691.22	53.83
691.35	7.02
691.49	0.00
691.62	28.09
691.76	42.13
691.89	74.90
692.03	58.51
692.16	2.34
692.30	7.02
692.43	107.66
692.57	252.78
692.70	372.15
692.84	496.19
692.97	355.76
693.11	355.76
693.24	299.59
693.38	182.56
693.51	142.77
693.65	32.77
693.78	14.04
693.92	7.02
694.05	42.13
694.19	21.06
694.32	0.00
694.45	63.19
694.59	0.00
694.72	35.11
694.86	28.09
694.99	28.09
695.13	49.15
695.26	93.62
695.39	18.72
695.53	0.00
695.66	0.00
695.80	56.17
695.93	42.13
696.07	51.49
696.20	9.36
696.33	37.45
696.47	28.09
696.60	93.62
696.73	37.45
696.87	63.19
697.00	65.54
697.14	39.79
697.27	56.17
697.40	46.81
697.54	18.72
697.67	16.38
697.80	0.00
697.94	7.02
698.07	35.11
698.21	16.38
698.34	0.00
698.47	11.70
698.61	44.47
698.74	0.00
698.87	110.01
699.01	11.70
699.14	0.00
699.27	32.77
699.40	0.00
699.54	32.77
699.67	0.00
699.80	21.06
699.94	0.00
700.07	102.98
700.20	35.11
700.34	37.45
700.47	63.19
700.60	0.00
700.73	11.70
700.87	0.00
701.00	35.11
701.13	39.79
701.26	65.54
701.40	0.00
701.53	16.38
701.66	0.00
701.79	32.77
701.93	0.00
702.06	28.09
702.19	30.43
702.32	91.28
702.46	23.41
702.59	77.24
702.72	105.32
702.85	306.61
702.99	587.47
703.12	814.51
703.25	868.34
703.38	739.61
703.51	566.41
703.65	414.27
703.78	301.93
703.91	248.10
704.04	114.69
704.17	128.73
704.31	91.28
704.44	4.68
704.57	28.09
704.70	0.00
704.83	0.00
704.96	23.41
705.10	0.00
705.23	67.88
>>>>>End Processed Spectral Data<<<<<
