SpectraSuite Data File
++++++++++++++++++++++++++++++++++++
Date: Fri Oct 04 12:13:45 GMT-05:00 2013
User: price-jones
Dark Spectrum Present: No
Reference Spectrum Present: No
Number of Sampled Component Spectra: 1
Spectrometers: USB2+H05261
Integration Time (usec): 10000 (USB2+H05261)
Spectra Averaged: 1 (USB2+H05261)
Boxcar Smoothing: 0 (USB2+H05261)
Correct for Electrical Dark: No (USB2+H05261)
Strobe/Lamp Enabled: No (USB2+H05261)
Correct for Detector Non-linearity: No (USB2+H05261)
Correct for Stray Light: No (USB2+H05261)
Number of Pixels in Processed Spectrum: 2048
>>>>>Begin Processed Spectral Data<<<<<
365.73	0.00
365.92	0.00
366.12	0.00
366.32	0.00
366.52	0.00
366.72	0.00
366.91	0.00
367.11	0.00
367.31	0.00
367.51	0.00
367.70	0.00
367.90	0.00
368.10	0.00
368.30	0.00
368.49	0.00
368.69	0.00
368.89	0.00
369.09	0.00
369.28	0.00
369.48	0.00
369.68	0.00
369.87	0.00
370.07	0.00
370.27	0.00
370.47	0.00
370.66	0.00
370.86	11.70
371.06	0.00
371.25	0.00
371.45	7.02
371.65	7.02
371.84	9.36
372.04	0.00
372.24	0.00
372.44	32.77
372.63	0.00
372.83	9.36
373.03	0.00
373.22	0.00
373.42	46.81
373.62	0.00
373.81	0.00
374.01	9.36
374.21	60.85
374.40	0.00
374.60	0.00
374.79	2.34
374.99	0.00
375.19	4.68
375.38	51.49
375.58	39.79
375.78	79.58
375.97	124.05
376.17	32.77
376.37	67.88
376.56	58.51
376.76	0.00
376.95	9.36
377.15	53.83
377.35	0.00
377.54	28.09
377.74	51.49
377.93	30.43
378.13	0.00
378.33	35.11
378.52	0.00
378.72	39.79
378.91	0.00
379.11	37.45
379.31	56.17
379.50	28.09
379.70	0.00
379.89	0.00
380.09	0.00
380.28	32.77
380.48	25.75
380.68	35.11
380.87	35.11
381.07	0.00
381.26	0.00
381.46	53.83
381.65	0.00
381.85	23.41
382.04	28.09
382.24	30.43
382.43	0.00
382.63	23.41
382.83	7.02
383.02	4.68
383.22	0.00
383.41	30.43
383.61	0.00
383.80	35.11
384.00	21.06
384.19	0.00
384.39	0.00
384.58	0.00
384.78	28.09
384.97	14.04
385.17	0.00
385.36	58.51
385.56	16.38
385.75	0.00
385.95	0.00
386.14	9.36
386.34	28.09
386.53	0.00
386.72	124.05
386.92	42.13
387.11	11.70
387.31	0.00
387.50	46.81
387.70	46.81
387.89	18.72
388.09	7.02
388.28	14.04
388.48	28.09
388.67	72.56
388.86	0.00
389.06	49.15
389.25	42.13
389.45	79.58
389.64	0.00
389.84	21.06
390.03	4.68
390.22	95.96
390.42	18.72
390.61	0.00
390.81	117.03
391.00	65.54
391.19	18.72
391.39	46.81
391.58	9.36
391.78	42.13
391.97	30.43
392.16	44.47
392.36	95.96
392.55	79.58
392.75	53.83
392.94	0.00
393.13	30.43
393.33	0.00
393.52	14.04
393.71	65.54
393.91	2.34
394.10	25.75
394.29	60.85
394.49	0.00
394.68	18.72
394.88	91.28
395.07	0.00
395.26	58.51
395.46	28.09
395.65	39.79
395.84	0.00
396.04	39.79
396.23	0.00
396.42	0.00
396.62	79.58
396.81	0.00
397.00	14.04
397.19	16.38
397.39	46.81
397.58	42.13
397.77	0.00
397.97	23.41
398.16	37.45
398.35	74.90
398.55	11.70
398.74	0.00
398.93	39.79
399.12	0.00
399.32	0.00
399.51	0.00
399.70	28.09
399.90	37.45
400.09	32.77
400.28	9.36
400.47	23.41
400.67	0.00
400.86	114.69
401.05	65.54
401.24	11.70
401.44	9.36
401.63	65.54
401.82	65.54
402.01	56.17
402.21	0.00
402.40	0.00
402.59	7.02
402.78	0.00
402.97	79.58
403.17	124.05
403.36	0.00
403.55	42.13
403.74	51.49
403.93	14.04
404.13	44.47
404.32	72.56
404.51	0.00
404.70	21.06
404.89	7.02
405.09	74.90
405.28	98.30
405.47	63.19
405.66	79.58
405.85	23.41
406.05	58.51
406.24	14.04
406.43	18.72
406.62	51.49
406.81	91.28
407.00	79.58
407.20	25.75
407.39	0.00
407.58	53.83
407.77	23.41
407.96	37.45
408.15	0.00
408.34	9.36
408.54	0.00
408.73	51.49
408.92	35.11
409.11	11.70
409.30	16.38
409.49	0.00
409.68	11.70
409.87	56.17
410.07	32.77
410.26	0.00
410.45	11.70
410.64	4.68
410.83	0.00
411.02	37.45
411.21	0.00
411.40	37.45
411.59	2.34
411.78	9.36
411.98	21.06
412.17	0.00
412.36	37.45
412.55	11.70
412.74	0.00
412.93	65.54
413.12	0.00
413.31	30.43
413.50	42.13
413.69	32.77
413.88	0.00
414.07	0.00
414.26	44.47
414.45	23.41
414.64	93.62
414.83	58.51
415.02	86.60
415.22	79.58
415.41	16.38
415.60	9.36
415.79	0.00
415.98	0.00
416.17	0.00
416.36	11.70
416.55	72.56
416.74	16.38
416.93	32.77
417.12	0.00
417.31	44.47
417.50	65.54
417.69	0.00
417.88	60.85
418.07	0.00
418.26	2.34
418.45	7.02
418.64	42.13
418.83	0.00
419.02	51.49
419.21	0.00
419.39	30.43
419.58	60.85
419.77	14.04
419.96	37.45
420.15	74.90
420.34	84.26
420.53	25.75
420.72	67.88
420.91	35.11
421.10	0.00
421.29	35.11
421.48	0.00
421.67	25.75
421.86	30.43
422.05	49.15
422.24	14.04
422.43	25.75
422.61	63.19
422.80	49.15
422.99	0.00
423.18	44.47
423.37	23.41
423.56	18.72
423.75	18.72
423.94	9.36
424.13	21.06
424.32	138.09
424.50	74.90
424.69	0.00
424.88	67.88
425.07	39.79
425.26	86.60
425.45	58.51
425.64	25.75
425.83	0.00
426.01	23.41
426.20	28.09
426.39	2.34
426.58	14.04
426.77	95.96
426.96	60.85
427.15	9.36
427.33	42.13
427.52	18.72
427.71	4.68
427.90	58.51
428.09	18.72
428.28	25.75
428.46	18.72
428.65	58.51
428.84	79.58
429.03	60.85
429.22	42.13
429.40	23.41
429.59	32.77
429.78	0.00
429.97	70.22
430.16	0.00
430.34	91.28
430.53	86.60
430.72	42.13
430.91	0.00
431.10	0.00
431.28	0.00
431.47	4.68
431.66	58.51
431.85	25.75
432.03	77.24
432.22	63.19
432.41	14.04
432.60	4.68
432.79	0.00
432.97	14.04
433.16	0.00
433.35	46.81
433.54	28.09
433.72	39.79
433.91	0.00
434.10	0.00
434.28	0.00
434.47	46.81
434.66	84.26
434.85	37.45
435.03	14.04
435.22	74.90
435.41	79.58
435.59	0.00
435.78	37.45
435.97	86.60
436.16	56.17
436.34	100.64
436.53	42.13
436.72	0.00
436.90	0.00
437.09	74.90
437.28	35.11
437.46	14.04
437.65	0.00
437.84	30.43
438.02	107.66
438.21	0.00
438.40	42.13
438.58	2.34
438.77	0.00
438.96	84.26
439.14	46.81
439.33	56.17
439.52	21.06
439.70	23.41
439.89	0.00
440.08	53.83
440.26	49.15
440.45	67.88
440.63	81.92
440.82	63.19
441.01	65.54
441.19	30.43
441.38	28.09
441.57	35.11
441.75	21.06
441.94	86.60
442.12	46.81
442.31	21.06
442.50	0.00
442.68	58.51
442.87	16.38
443.05	42.13
443.24	42.13
443.43	30.43
443.61	2.34
443.80	0.00
443.98	37.45
444.17	4.68
444.35	77.24
444.54	0.00
444.73	51.49
444.91	65.54
445.10	37.45
445.28	81.92
445.47	58.51
445.65	98.30
445.84	46.81
446.02	70.22
446.21	56.17
446.39	67.88
446.58	9.36
446.77	25.75
446.95	79.58
447.14	42.13
447.32	0.00
447.51	84.26
447.69	30.43
447.88	25.75
448.06	32.77
448.25	32.77
448.43	37.45
448.62	63.19
448.80	35.11
448.99	81.92
449.17	18.72
449.36	60.85
449.54	37.45
449.73	0.00
449.91	0.00
450.10	28.09
450.28	91.28
450.46	16.38
450.65	7.02
450.83	79.58
451.02	7.02
451.20	7.02
451.39	16.38
451.57	37.45
451.76	74.90
451.94	86.60
452.13	56.17
452.31	37.45
452.49	35.11
452.68	0.00
452.86	11.70
453.05	0.00
453.23	91.28
453.42	51.49
453.60	39.79
453.78	91.28
453.97	7.02
454.15	30.43
454.34	53.83
454.52	11.70
454.70	16.38
454.89	18.72
455.07	65.54
455.26	21.06
455.44	95.96
455.62	67.88
455.81	63.19
455.99	70.22
456.17	35.11
456.36	18.72
456.54	60.85
456.73	0.00
456.91	18.72
457.09	39.79
457.28	32.77
457.46	49.15
457.64	30.43
457.83	67.88
458.01	0.00
458.19	65.54
458.38	9.36
458.56	77.24
458.74	0.00
458.93	37.45
459.11	0.00
459.29	0.00
459.48	72.56
459.66	70.22
459.84	7.02
460.03	9.36
460.21	56.17
460.39	0.00
460.57	72.56
460.76	56.17
460.94	63.19
461.12	56.17
461.31	0.00
461.49	21.06
461.67	28.09
461.85	63.19
462.04	0.00
462.22	86.60
462.40	30.43
462.59	0.00
462.77	32.77
462.95	84.26
463.13	39.79
463.32	23.41
463.50	28.09
463.68	35.11
463.86	0.00
464.05	72.56
464.23	0.00
464.41	51.49
464.59	58.51
464.78	0.00
464.96	70.22
465.14	81.92
465.32	39.79
465.50	67.88
465.69	86.60
465.87	0.00
466.05	56.17
466.23	39.79
466.41	42.13
466.60	0.00
466.78	102.98
466.96	51.49
467.14	2.34
467.32	49.15
467.51	42.13
467.69	28.09
467.87	0.00
468.05	0.00
468.23	63.19
468.41	11.70
468.60	2.34
468.78	21.06
468.96	86.60
469.14	72.56
469.32	60.85
469.50	56.17
469.69	44.47
469.87	23.41
470.05	0.00
470.23	37.45
470.41	14.04
470.59	21.06
470.77	0.00
470.95	0.00
471.14	0.00
471.32	2.34
471.50	95.96
471.68	133.41
471.86	138.09
472.04	81.92
472.22	58.51
472.40	35.11
472.58	18.72
472.77	67.88
472.95	28.09
473.13	93.62
473.31	16.38
473.49	21.06
473.67	46.81
473.85	0.00
474.03	58.51
474.21	0.00
474.39	21.06
474.57	74.90
474.75	44.47
474.93	74.90
475.12	4.68
475.30	72.56
475.48	28.09
475.66	53.83
475.84	0.00
476.02	16.38
476.20	77.24
476.38	21.06
476.56	88.94
476.74	86.60
476.92	46.81
477.10	0.00
477.28	72.56
477.46	16.38
477.64	72.56
477.82	0.00
478.00	39.79
478.18	35.11
478.36	42.13
478.54	39.79
478.72	44.47
478.90	32.77
479.08	30.43
479.26	4.68
479.44	7.02
479.62	46.81
479.80	0.00
479.98	74.90
480.16	32.77
480.34	117.03
480.52	2.34
480.70	74.90
480.88	21.06
481.06	56.17
481.24	53.83
481.41	21.06
481.59	32.77
481.77	65.54
481.95	63.19
482.13	18.72
482.31	18.72
482.49	42.13
482.67	107.66
482.85	65.54
483.03	16.38
483.21	0.00
483.39	23.41
483.57	37.45
483.74	70.22
483.92	124.05
484.10	114.69
484.28	88.94
484.46	49.15
484.64	25.75
484.82	21.06
485.00	88.94
485.18	67.88
485.35	70.22
485.53	60.85
485.71	0.00
485.89	21.06
486.07	0.00
486.25	25.75
486.43	72.56
486.61	70.22
486.78	49.15
486.96	91.28
487.14	0.00
487.32	35.11
487.50	74.90
487.68	86.60
487.85	60.85
488.03	32.77
488.21	58.51
488.39	46.81
488.57	0.00
488.75	0.00
488.92	39.79
489.10	25.75
489.28	4.68
489.46	65.54
489.64	0.00
489.81	4.68
489.99	53.83
490.17	67.88
490.35	30.43
490.53	37.45
490.70	60.85
490.88	30.43
491.06	63.19
491.24	0.00
491.41	107.66
491.59	32.77
491.77	42.13
491.95	42.13
492.13	25.75
492.30	70.22
492.48	0.00
492.66	0.00
492.84	60.85
493.01	46.81
493.19	32.77
493.37	70.22
493.54	42.13
493.72	30.43
493.90	21.06
494.08	28.09
494.25	70.22
494.43	124.05
494.61	0.00
494.79	4.68
494.96	42.13
495.14	95.96
495.32	114.69
495.49	53.83
495.67	11.70
495.85	128.73
496.02	30.43
496.20	58.51
496.38	28.09
496.55	74.90
496.73	0.00
496.91	46.81
497.09	21.06
497.26	49.15
497.44	56.17
497.62	51.49
497.79	0.00
497.97	28.09
498.14	44.47
498.32	21.06
498.50	4.68
498.67	46.81
498.85	0.00
499.03	39.79
499.20	23.41
499.38	21.06
499.56	39.79
499.73	9.36
499.91	23.41
500.08	0.00
500.26	42.13
500.44	65.54
500.61	84.26
500.79	63.19
500.97	56.17
501.14	46.81
501.32	98.30
501.49	14.04
501.67	25.75
501.84	25.75
502.02	35.11
502.20	11.70
502.37	58.51
502.55	65.54
502.72	46.81
502.90	0.00
503.07	65.54
503.25	102.98
503.43	102.98
503.60	147.45
503.78	84.26
503.95	65.54
504.13	14.04
504.30	63.19
504.48	140.43
504.65	63.19
504.83	56.17
505.01	39.79
505.18	65.54
505.36	0.00
505.53	28.09
505.71	0.00
505.88	11.70
506.06	18.72
506.23	0.00
506.41	91.28
506.58	91.28
506.76	25.75
506.93	0.00
507.11	77.24
507.28	14.04
507.46	53.83
507.63	168.52
507.81	42.13
507.98	88.94
508.16	51.49
508.33	18.72
508.50	14.04
508.68	46.81
508.85	56.17
509.03	21.06
509.20	63.19
509.38	84.26
509.55	126.39
509.73	51.49
509.90	21.06
510.08	0.00
510.25	30.43
510.42	67.88
510.60	2.34
510.77	28.09
510.95	65.54
511.12	23.41
511.30	21.06
511.47	7.02
511.64	65.54
511.82	81.92
511.99	88.94
512.17	67.88
512.34	23.41
512.51	53.83
512.69	0.00
512.86	0.00
513.04	44.47
513.21	53.83
513.38	107.66
513.56	51.49
513.73	84.26
513.90	21.06
514.08	58.51
514.25	67.88
514.43	0.00
514.60	77.24
514.77	63.19
514.95	100.64
515.12	0.00
515.29	30.43
515.47	72.56
515.64	70.22
515.81	74.90
515.99	107.66
516.16	53.83
516.33	18.72
516.51	7.02
516.68	81.92
516.85	86.60
517.03	21.06
517.20	49.15
517.37	105.32
517.54	65.54
517.72	39.79
517.89	93.62
518.06	23.41
518.24	14.04
518.41	46.81
518.58	51.49
518.75	79.58
518.93	39.79
519.10	7.02
519.27	77.24
519.45	9.36
519.62	63.19
519.79	7.02
519.96	51.49
520.14	44.47
520.31	65.54
520.48	105.32
520.65	95.96
520.83	7.02
521.00	56.17
521.17	42.13
521.34	77.24
521.52	46.81
521.69	25.75
521.86	98.30
522.03	63.19
522.20	60.85
522.38	32.77
522.55	95.96
522.72	86.60
522.89	23.41
523.07	0.00
523.24	0.00
523.41	42.13
523.58	112.35
523.75	72.56
523.92	21.06
524.10	124.05
524.27	58.51
524.44	67.88
524.61	77.24
524.78	53.83
524.96	16.38
525.13	51.49
525.30	11.70
525.47	56.17
525.64	56.17
525.81	58.51
525.98	46.81
526.16	39.79
526.33	25.75
526.50	77.24
526.67	119.37
526.84	86.60
527.01	88.94
527.18	102.98
527.36	25.75
527.53	70.22
527.70	42.13
527.87	39.79
528.04	56.17
528.21	121.71
528.38	72.56
528.55	49.15
528.72	39.79
528.89	86.60
529.07	77.24
529.24	56.17
529.41	49.15
529.58	86.60
529.75	35.11
529.92	21.06
530.09	16.38
530.26	67.88
530.43	53.83
530.60	91.28
530.77	46.81
530.94	0.00
531.11	49.15
531.28	63.19
531.46	70.22
531.63	0.00
531.80	42.13
531.97	58.51
532.14	77.24
532.31	0.00
532.48	110.01
532.65	9.36
532.82	77.24
532.99	67.88
533.16	0.00
533.33	91.28
533.50	91.28
533.67	91.28
533.84	7.02
534.01	77.24
534.18	53.83
534.35	4.68
534.52	35.11
534.69	9.36
534.86	107.66
535.03	51.49
535.20	56.17
535.37	44.47
535.54	30.43
535.71	63.19
535.88	2.34
536.05	35.11
536.22	0.00
536.38	0.00
536.55	35.11
536.72	51.49
536.89	0.00
537.06	16.38
537.23	60.85
537.40	84.26
537.57	0.00
537.74	18.72
537.91	0.00
538.08	63.19
538.25	67.88
538.42	98.30
538.59	21.06
538.75	21.06
538.92	84.26
539.09	11.70
539.26	0.00
539.43	0.00
539.60	67.88
539.77	4.68
539.94	32.77
540.11	98.30
540.28	35.11
540.44	51.49
540.61	117.03
540.78	84.26
540.95	65.54
541.12	86.60
541.29	0.00
541.46	70.22
541.62	30.43
541.79	30.43
541.96	0.00
542.13	88.94
542.30	124.05
542.47	35.11
542.63	0.00
542.80	28.09
542.97	35.11
543.14	11.70
543.31	2.34
543.48	21.06
543.64	0.00
543.81	60.85
543.98	98.30
544.15	46.81
544.32	9.36
544.48	28.09
544.65	0.00
544.82	0.00
544.99	74.90
545.16	88.94
545.32	46.81
545.49	65.54
545.66	98.30
545.83	53.83
546.00	74.90
546.16	72.56
546.33	110.01
546.50	0.00
546.67	23.41
546.83	65.54
547.00	84.26
547.17	42.13
547.34	79.58
547.50	72.56
547.67	21.06
547.84	51.49
548.00	51.49
548.17	35.11
548.34	28.09
548.51	98.30
548.67	37.45
548.84	9.36
549.01	0.00
549.18	4.68
549.34	42.13
549.51	60.85
549.68	0.00
549.84	32.77
550.01	25.75
550.18	21.06
550.34	79.58
550.51	56.17
550.68	58.51
550.84	32.77
551.01	51.49
551.18	0.00
551.34	23.41
551.51	46.81
551.68	58.51
551.84	72.56
552.01	67.88
552.18	65.54
552.34	84.26
552.51	25.75
552.68	7.02
552.84	86.60
553.01	56.17
553.18	72.56
553.34	65.54
553.51	0.00
553.67	91.28
553.84	0.00
554.01	88.94
554.17	67.88
554.34	35.11
554.51	18.72
554.67	93.62
554.84	70.22
555.00	44.47
555.17	0.00
555.33	53.83
555.50	25.75
555.67	49.15
555.83	51.49
556.00	39.79
556.16	25.75
556.33	131.07
556.50	44.47
556.66	95.96
556.83	21.06
556.99	84.26
557.16	21.06
557.32	91.28
557.49	11.70
557.65	88.94
557.82	30.43
557.98	28.09
558.15	65.54
558.32	56.17
558.48	77.24
558.65	56.17
558.81	65.54
558.98	46.81
559.14	79.58
559.31	42.13
559.47	11.70
559.64	28.09
559.80	18.72
559.97	56.17
560.13	7.02
560.30	88.94
560.46	58.51
560.63	2.34
560.79	58.51
560.96	23.41
561.12	65.54
561.29	63.19
561.45	21.06
561.61	46.81
561.78	0.00
561.94	0.00
562.11	65.54
562.27	112.35
562.44	63.19
562.60	16.38
562.77	0.00
562.93	72.56
563.10	63.19
563.26	7.02
563.42	0.00
563.59	56.17
563.75	0.00
563.92	51.49
564.08	0.00
564.24	32.77
564.41	63.19
564.57	30.43
564.74	0.00
564.90	42.13
565.07	84.26
565.23	93.62
565.39	21.06
565.56	81.92
565.72	74.90
565.88	74.90
566.05	46.81
566.21	4.68
566.38	42.13
566.54	49.15
566.70	35.11
566.87	65.54
567.03	46.81
567.19	42.13
567.36	28.09
567.52	56.17
567.68	110.01
567.85	30.43
568.01	53.83
568.17	0.00
568.34	0.00
568.50	98.30
568.66	16.38
568.83	44.47
568.99	51.49
569.15	58.51
569.32	58.51
569.48	0.00
569.64	0.00
569.81	25.75
569.97	0.00
570.13	84.26
570.30	21.06
570.46	42.13
570.62	84.26
570.78	56.17
570.95	35.11
571.11	70.22
571.27	70.22
571.43	44.47
571.60	56.17
571.76	67.88
571.92	79.58
572.09	35.11
572.25	65.54
572.41	2.34
572.57	37.45
572.74	39.79
572.90	56.17
573.06	7.02
573.22	53.83
573.38	84.26
573.55	67.88
573.71	9.36
573.87	86.60
574.03	49.15
574.20	58.51
574.36	18.72
574.52	0.00
574.68	30.43
574.84	77.24
575.01	25.75
575.17	100.64
575.33	2.34
575.49	42.13
575.65	39.79
575.82	140.43
575.98	46.81
576.14	0.00
576.30	46.81
576.46	0.00
576.62	35.11
576.79	7.02
576.95	84.26
577.11	30.43
577.27	70.22
577.43	42.13
577.59	58.51
577.75	42.13
577.92	23.41
578.08	46.81
578.24	67.88
578.40	93.62
578.56	114.69
578.72	46.81
578.88	39.79
579.04	67.88
579.21	42.13
579.37	70.22
579.53	23.41
579.69	21.06
579.85	65.54
580.01	49.15
580.17	67.88
580.33	18.72
580.49	0.00
580.65	46.81
580.82	74.90
580.98	0.00
581.14	93.62
581.30	44.47
581.46	44.47
581.62	51.49
581.78	0.00
581.94	32.77
582.10	32.77
582.26	2.34
582.42	23.41
582.58	39.79
582.74	74.90
582.90	18.72
583.06	117.03
583.22	32.77
583.38	112.35
583.54	74.90
583.70	0.00
583.86	39.79
584.02	42.13
584.18	58.51
584.34	23.41
584.50	7.02
584.66	95.96
584.82	98.30
584.98	56.17
585.14	119.37
585.30	39.79
585.46	135.75
585.62	72.56
585.78	44.47
585.94	7.02
586.10	46.81
586.26	0.00
586.42	84.26
586.58	65.54
586.74	63.19
586.90	44.47
587.06	2.34
587.22	7.02
587.38	28.09
587.54	18.72
587.70	53.83
587.86	42.13
588.02	30.43
588.18	105.32
588.34	9.36
588.49	42.13
588.65	44.47
588.81	11.70
588.97	39.79
589.13	0.00
589.29	46.81
589.45	0.00
589.61	0.00
589.77	91.28
589.93	70.22
590.08	0.00
590.24	42.13
590.40	84.26
590.56	84.26
590.72	86.60
590.88	77.24
591.04	107.66
591.20	0.00
591.35	119.37
591.51	51.49
591.67	65.54
591.83	126.39
591.99	23.41
592.15	37.45
592.31	25.75
592.46	2.34
592.62	0.00
592.78	58.51
592.94	0.00
593.10	63.19
593.26	35.11
593.41	65.54
593.57	60.85
593.73	14.04
593.89	7.02
594.05	7.02
594.20	51.49
594.36	4.68
594.52	0.00
594.68	0.00
594.84	133.41
594.99	23.41
595.15	23.41
595.31	28.09
595.47	25.75
595.62	39.79
595.78	28.09
595.94	37.45
596.10	11.70
596.25	18.72
596.41	77.24
596.57	44.47
596.73	72.56
596.88	0.00
597.04	77.24
597.20	74.90
597.36	44.47
597.51	37.45
597.67	21.06
597.83	46.81
597.99	135.75
598.14	60.85
598.30	4.68
598.46	91.28
598.61	81.92
598.77	18.72
598.93	14.04
599.09	0.00
599.24	63.19
599.40	53.83
599.56	23.41
599.71	0.00
599.87	0.00
600.03	4.68
600.18	32.77
600.34	67.88
600.50	0.00
600.65	7.02
600.81	16.38
600.97	4.68
601.12	0.00
601.28	53.83
601.44	44.47
601.59	51.49
601.75	18.72
601.91	16.38
602.06	18.72
602.22	35.11
602.37	0.00
602.53	0.00
602.69	9.36
602.84	107.66
603.00	93.62
603.16	74.90
603.31	21.06
603.47	95.96
603.62	77.24
603.78	79.58
603.94	95.96
604.09	32.77
604.25	0.00
604.40	0.00
604.56	44.47
604.71	0.00
604.87	53.83
605.03	65.54
605.18	86.60
605.34	42.13
605.49	30.43
605.65	53.83
605.80	49.15
605.96	30.43
606.12	98.30
606.27	11.70
606.43	44.47
606.58	58.51
606.74	44.47
606.89	58.51
607.05	0.00
607.20	0.00
607.36	86.60
607.51	77.24
607.67	63.19
607.82	39.79
607.98	58.51
608.13	56.17
608.29	67.88
608.44	32.77
608.60	0.00
608.75	105.32
608.91	147.45
609.06	0.00
609.22	53.83
609.37	105.32
609.53	2.34
609.68	9.36
609.84	161.50
609.99	0.00
610.15	91.28
610.30	63.19
610.46	0.00
610.61	79.58
610.76	39.79
610.92	25.75
611.07	98.30
611.23	46.81
611.38	18.72
611.54	58.51
611.69	39.79
611.84	28.09
612.00	35.11
612.15	53.83
612.31	28.09
612.46	21.06
612.62	53.83
612.77	0.00
612.92	14.04
613.08	79.58
613.23	84.26
613.39	65.54
613.54	63.19
613.69	18.72
613.85	88.94
614.00	53.83
614.15	70.22
614.31	67.88
614.46	81.92
614.62	42.13
614.77	14.04
614.92	44.47
615.08	86.60
615.23	2.34
615.38	42.13
615.54	102.98
615.69	39.79
615.84	53.83
616.00	44.47
616.15	46.81
616.30	79.58
616.46	98.30
616.61	23.41
616.76	84.26
616.92	58.51
617.07	56.17
617.22	42.13
617.37	56.17
617.53	91.28
617.68	124.05
617.83	60.85
617.99	58.51
618.14	72.56
618.29	88.94
618.45	21.06
618.60	51.49
618.75	32.77
618.90	35.11
619.06	51.49
619.21	98.30
619.36	46.81
619.51	56.17
619.67	2.34
619.82	56.17
619.97	16.38
620.12	53.83
620.28	49.15
620.43	35.11
620.58	0.00
620.73	0.00
620.89	53.83
621.04	49.15
621.19	126.39
621.34	42.13
621.49	9.36
621.65	35.11
621.80	79.58
621.95	60.85
622.10	0.00
622.25	37.45
622.41	0.00
622.56	56.17
622.71	44.47
622.86	126.39
623.01	16.38
623.16	37.45
623.32	23.41
623.47	0.00
623.62	11.70
623.77	65.54
623.92	72.56
624.07	0.00
624.23	18.72
624.38	0.00
624.53	86.60
624.68	84.26
624.83	46.81
624.98	46.81
625.13	35.11
625.29	70.22
625.44	58.51
625.59	23.41
625.74	46.81
625.89	53.83
626.04	65.54
626.19	7.02
626.34	16.38
626.49	0.00
626.65	88.94
626.80	74.90
626.95	39.79
627.10	28.09
627.25	84.26
627.40	46.81
627.55	30.43
627.70	91.28
627.85	49.15
628.00	135.75
628.15	53.83
628.30	60.85
628.45	7.02
628.60	0.00
628.76	84.26
628.91	0.00
629.06	74.90
629.21	11.70
629.36	46.81
629.51	44.47
629.66	42.13
629.81	0.00
629.96	21.06
630.11	11.70
630.26	67.88
630.41	25.75
630.56	53.83
630.71	39.79
630.86	51.49
631.01	53.83
631.16	98.30
631.31	16.38
631.46	72.56
631.61	63.19
631.76	88.94
631.91	77.24
632.06	58.51
632.21	42.13
632.36	72.56
632.51	42.13
632.66	0.00
632.81	0.00
632.96	53.83
633.10	56.17
633.25	121.71
633.40	37.45
633.55	35.11
633.70	37.45
633.85	84.26
634.00	21.06
634.15	53.83
634.30	18.72
634.45	53.83
634.60	49.15
634.75	39.79
634.90	25.75
635.05	79.58
635.19	70.22
635.34	42.13
635.49	42.13
635.64	37.45
635.79	14.04
635.94	0.00
636.09	21.06
636.24	32.77
636.39	42.13
636.53	86.60
636.68	25.75
636.83	0.00
636.98	77.24
637.13	2.34
637.28	35.11
637.43	0.00
637.57	63.19
637.72	0.00
637.87	93.62
638.02	16.38
638.17	74.90
638.32	93.62
638.46	0.00
638.61	30.43
638.76	42.13
638.91	58.51
639.06	25.75
639.20	91.28
639.35	124.05
639.50	56.17
639.65	0.00
639.80	14.04
639.94	98.30
640.09	42.13
640.24	39.79
640.39	25.75
640.54	67.88
640.68	79.58
640.83	70.22
640.98	0.00
641.13	51.49
641.27	28.09
641.42	56.17
641.57	112.35
641.72	77.24
641.86	28.09
642.01	30.43
642.16	32.77
642.31	0.00
642.45	81.92
642.60	37.45
642.75	63.19
642.90	79.58
643.04	18.72
643.19	49.15
643.34	67.88
643.48	0.00
643.63	25.75
643.78	77.24
643.93	65.54
644.07	28.09
644.22	37.45
644.37	18.72
644.51	102.98
644.66	32.77
644.81	46.81
644.95	51.49
645.10	84.26
645.25	37.45
645.39	2.34
645.54	72.56
645.69	21.06
645.83	60.85
645.98	0.00
646.13	0.00
646.27	44.47
646.42	0.00
646.57	4.68
646.71	21.06
646.86	14.04
647.00	67.88
647.15	23.41
647.30	74.90
647.44	56.17
647.59	72.56
647.74	67.88
647.88	32.77
648.03	18.72
648.17	35.11
648.32	0.00
648.47	2.34
648.61	70.22
648.76	0.00
648.90	32.77
649.05	9.36
649.20	42.13
649.34	25.75
649.49	18.72
649.63	51.49
649.78	11.70
649.92	16.38
650.07	65.54
650.21	81.92
650.36	72.56
650.51	23.41
650.65	56.17
650.80	2.34
650.94	0.00
651.09	0.00
651.23	14.04
651.38	46.81
651.52	37.45
651.67	53.83
651.81	28.09
651.96	0.00
652.10	39.79
652.25	105.32
652.39	25.75
652.54	18.72
652.68	25.75
652.83	0.00
652.97	16.38
653.12	0.00
653.26	0.00
653.41	0.00
653.55	42.13
653.70	9.36
653.84	16.38
653.99	74.90
654.13	7.02
654.27	46.81
654.42	39.79
654.56	67.88
654.71	23.41
654.85	51.49
655.00	0.00
655.14	4.68
655.29	21.06
655.43	42.13
655.57	44.47
655.72	39.79
655.86	51.49
656.01	49.15
656.15	25.75
656.30	42.13
656.44	72.56
656.58	46.81
656.73	0.00
656.87	16.38
657.01	2.34
657.16	9.36
657.30	23.41
657.45	53.83
657.59	63.19
657.73	0.00
657.88	58.51
658.02	9.36
658.16	9.36
658.31	0.00
658.45	88.94
658.60	58.51
658.74	53.83
658.88	81.92
659.03	0.00
659.17	0.00
659.31	56.17
659.46	28.09
659.60	18.72
659.74	100.64
659.89	28.09
660.03	32.77
660.17	4.68
660.32	35.11
660.46	0.00
660.60	56.17
660.74	39.79
660.89	95.96
661.03	51.49
661.17	0.00
661.32	18.72
661.46	23.41
661.60	74.90
661.74	21.06
661.89	67.88
662.03	0.00
662.17	79.58
662.31	28.09
662.46	86.60
662.60	9.36
662.74	72.56
662.88	79.58
663.03	46.81
663.17	102.98
663.31	11.70
663.45	0.00
663.60	56.17
663.74	14.04
663.88	18.72
664.02	14.04
664.17	42.13
664.31	11.70
664.45	37.45
664.59	65.54
664.73	21.06
664.88	79.58
665.02	0.00
665.16	42.13
665.30	65.54
665.44	39.79
665.59	32.77
665.73	81.92
665.87	56.17
666.01	32.77
666.15	46.81
666.29	11.70
666.44	21.06
666.58	46.81
666.72	98.30
666.86	72.56
667.00	32.77
667.14	58.51
667.28	32.77
667.43	18.72
667.57	53.83
667.71	0.00
667.85	58.51
667.99	0.00
668.13	21.06
668.27	0.00
668.41	49.15
668.56	18.72
668.70	32.77
668.84	70.22
668.98	0.00
669.12	84.26
669.26	42.13
669.40	51.49
669.54	30.43
669.68	0.00
669.82	39.79
669.96	88.94
670.10	16.38
670.25	14.04
670.39	72.56
670.53	39.79
670.67	72.56
670.81	84.26
670.95	21.06
671.09	21.06
671.23	37.45
671.37	0.00
671.51	65.54
671.65	35.11
671.79	65.54
671.93	0.00
672.07	65.54
672.21	44.47
672.35	67.88
672.49	114.69
672.63	21.06
672.77	46.81
672.91	28.09
673.05	21.06
673.19	28.09
673.33	51.49
673.47	63.19
673.61	23.41
673.75	25.75
673.89	0.00
674.03	16.38
674.17	28.09
674.31	37.45
674.45	11.70
674.59	21.06
674.73	23.41
674.87	21.06
675.01	0.00
675.15	23.41
675.29	18.72
675.43	21.06
675.56	42.13
675.70	46.81
675.84	21.06
675.98	37.45
676.12	0.00
676.26	51.49
676.40	51.49
676.54	98.30
676.68	56.17
676.82	0.00
676.96	30.43
677.10	72.56
677.23	28.09
677.37	30.43
677.51	70.22
677.65	0.00
677.79	63.19
677.93	60.85
678.07	25.75
678.21	77.24
678.34	60.85
678.48	9.36
678.62	0.00
678.76	0.00
678.90	42.13
679.04	30.43
679.18	63.19
679.31	16.38
679.45	56.17
679.59	39.79
679.73	46.81
679.87	77.24
680.00	7.02
680.14	95.96
680.28	140.43
680.42	9.36
680.56	42.13
680.70	100.64
680.83	49.15
680.97	21.06
681.11	53.83
681.25	39.79
681.39	32.77
681.52	79.58
681.66	65.54
681.80	25.75
681.94	58.51
682.07	42.13
682.21	32.77
682.35	49.15
682.49	51.49
682.62	0.00
682.76	0.00
682.90	65.54
683.04	0.00
683.17	44.47
683.31	53.83
683.45	0.00
683.59	32.77
683.72	105.32
683.86	60.85
684.00	4.68
684.13	18.72
684.27	49.15
684.41	56.17
684.55	16.38
684.68	23.41
684.82	56.17
684.96	21.06
685.09	30.43
685.23	28.09
685.37	63.19
685.50	58.51
685.64	51.49
685.78	2.34
685.91	25.75
686.05	86.60
686.19	70.22
686.32	65.54
686.46	0.00
686.60	11.70
686.73	65.54
686.87	56.17
687.01	67.88
687.14	4.68
687.28	7.02
687.42	58.51
687.55	70.22
687.69	86.60
687.82	0.00
687.96	70.22
688.10	51.49
688.23	63.19
688.37	18.72
688.50	28.09
688.64	42.13
688.78	30.43
688.91	56.17
689.05	65.54
689.18	32.77
689.32	0.00
689.46	0.00
689.59	53.83
689.73	42.13
689.86	60.85
690.00	39.79
690.13	9.36
690.27	58.51
690.41	23.41
690.54	9.36
690.68	23.41
690.81	42.13
690.95	30.43
691.08	11.70
691.22	84.26
691.35	124.05
691.49	16.38
691.62	28.09
691.76	46.81
691.89	51.49
692.03	23.41
692.16	0.00
692.30	4.68
692.43	51.49
692.57	77.24
692.70	0.00
692.84	86.60
692.97	86.60
693.11	79.58
693.24	102.98
693.38	39.79
693.51	9.36
693.65	74.90
693.78	30.43
693.92	0.00
694.05	37.45
694.19	0.00
694.32	2.34
694.45	58.51
694.59	46.81
694.72	4.68
694.86	46.81
694.99	14.04
695.13	0.00
695.26	32.77
695.39	56.17
695.53	70.22
695.66	58.51
695.80	0.00
695.93	79.58
696.07	88.94
696.20	51.49
696.33	0.00
696.47	32.77
696.60	23.41
696.73	46.81
696.87	14.04
697.00	56.17
697.14	25.75
697.27	60.85
697.40	79.58
697.54	56.17
697.67	11.70
697.80	16.38
697.94	114.69
698.07	128.73
698.21	0.00
698.34	0.00
698.47	25.75
698.61	81.92
698.74	21.06
698.87	30.43
699.01	21.06
699.14	51.49
699.27	65.54
699.40	72.56
699.54	14.04
699.67	93.62
699.80	0.00
699.94	0.00
700.07	9.36
700.20	0.00
700.34	60.85
700.47	42.13
700.60	37.45
700.73	56.17
700.87	35.11
701.00	37.45
701.13	49.15
701.26	65.54
701.40	0.00
701.53	30.43
701.66	77.24
701.79	9.36
701.93	0.00
702.06	0.00
702.19	9.36
702.32	25.75
702.46	28.09
702.59	16.38
702.72	100.64
702.85	77.24
702.99	21.06
703.12	84.26
703.25	30.43
703.38	23.41
703.51	9.36
703.65	0.00
703.78	32.77
703.91	14.04
704.04	11.70
704.17	25.75
704.31	0.00
704.44	44.47
704.57	0.00
704.70	0.00
704.83	0.00
704.96	0.00
705.10	16.38
705.23	9.36
>>>>>End Processed Spectral Data<<<<<
