SpectraSuite Data File
++++++++++++++++++++++++++++++++++++
Date: Fri Oct 04 12:13:26 GMT-05:00 2013
User: price-jones
Dark Spectrum Present: No
Reference Spectrum Present: No
Number of Sampled Component Spectra: 1
Spectrometers: USB2+H05261
Integration Time (usec): 10000 (USB2+H05261)
Spectra Averaged: 1 (USB2+H05261)
Boxcar Smoothing: 0 (USB2+H05261)
Correct for Electrical Dark: No (USB2+H05261)
Strobe/Lamp Enabled: No (USB2+H05261)
Correct for Detector Non-linearity: No (USB2+H05261)
Correct for Stray Light: No (USB2+H05261)
Number of Pixels in Processed Spectrum: 2048
>>>>>Begin Processed Spectral Data<<<<<
365.73	0.00
365.92	0.00
366.12	0.00
366.32	0.00
366.52	0.00
366.72	0.00
366.91	0.00
367.11	0.00
367.31	0.00
367.51	0.00
367.70	0.00
367.90	0.00
368.10	0.00
368.30	0.00
368.49	0.00
368.69	0.00
368.89	0.00
369.09	0.00
369.28	0.00
369.48	0.00
369.68	0.00
369.87	0.00
370.07	0.00
370.27	0.00
370.47	0.00
370.66	0.00
370.86	0.00
371.06	0.00
371.25	0.00
371.45	0.00
371.65	0.00
371.84	18.72
372.04	42.13
372.24	23.41
372.44	42.13
372.63	11.70
372.83	28.09
373.03	0.00
373.22	32.77
373.42	30.43
373.62	23.41
373.81	0.00
374.01	9.36
374.21	4.68
374.40	28.09
374.60	16.38
374.79	0.00
374.99	51.49
375.19	0.00
375.38	32.77
375.58	42.13
375.78	14.04
375.97	7.02
376.17	39.79
376.37	84.26
376.56	14.04
376.76	86.60
376.95	39.79
377.15	25.75
377.35	11.70
377.54	0.00
377.74	0.00
377.93	11.70
378.13	2.34
378.33	37.45
378.52	0.00
378.72	0.00
378.91	49.15
379.11	14.04
379.31	39.79
379.50	77.24
379.70	0.00
379.89	35.11
380.09	16.38
380.28	30.43
380.48	56.17
380.68	0.00
380.87	0.00
381.07	0.00
381.26	0.00
381.46	7.02
381.65	0.00
381.85	9.36
382.04	0.00
382.24	4.68
382.43	0.00
382.63	0.00
382.83	0.00
383.02	28.09
383.22	39.79
383.41	46.81
383.61	21.06
383.80	0.00
384.00	0.00
384.19	0.00
384.39	16.38
384.58	0.00
384.78	18.72
384.97	23.41
385.17	4.68
385.36	0.00
385.56	30.43
385.75	0.00
385.95	0.00
386.14	16.38
386.34	56.17
386.53	0.00
386.72	9.36
386.92	81.92
387.11	58.51
387.31	70.22
387.50	88.94
387.70	0.00
387.89	0.00
388.09	0.00
388.28	81.92
388.48	0.00
388.67	14.04
388.86	11.70
389.06	63.19
389.25	21.06
389.45	0.00
389.64	49.15
389.84	14.04
390.03	25.75
390.22	0.00
390.42	114.69
390.61	70.22
390.81	4.68
391.00	14.04
391.19	4.68
391.39	0.00
391.58	39.79
391.78	0.00
391.97	0.00
392.16	0.00
392.36	0.00
392.55	21.06
392.75	56.17
392.94	0.00
393.13	18.72
393.33	11.70
393.52	51.49
393.71	0.00
393.91	39.79
394.10	0.00
394.29	0.00
394.49	53.83
394.68	0.00
394.88	49.15
395.07	0.00
395.26	25.75
395.46	65.54
395.65	56.17
395.84	60.85
396.04	42.13
396.23	9.36
396.42	44.47
396.62	91.28
396.81	25.75
397.00	53.83
397.19	0.00
397.39	30.43
397.58	32.77
397.77	74.90
397.97	67.88
398.16	0.00
398.35	100.64
398.55	2.34
398.74	46.81
398.93	0.00
399.12	46.81
399.32	53.83
399.51	2.34
399.70	60.85
399.90	44.47
400.09	4.68
400.28	0.00
400.47	35.11
400.67	2.34
400.86	16.38
401.05	0.00
401.24	4.68
401.44	4.68
401.63	56.17
401.82	58.51
402.01	39.79
402.21	46.81
402.40	35.11
402.59	0.00
402.78	0.00
402.97	51.49
403.17	0.00
403.36	0.00
403.55	51.49
403.74	14.04
403.93	28.09
404.13	51.49
404.32	0.00
404.51	72.56
404.70	77.24
404.89	91.28
405.09	21.06
405.28	0.00
405.47	14.04
405.66	25.75
405.85	35.11
406.05	79.58
406.24	49.15
406.43	0.00
406.62	0.00
406.81	60.85
407.00	0.00
407.20	49.15
407.39	32.77
407.58	39.79
407.77	23.41
407.96	37.45
408.15	16.38
408.34	84.26
408.54	79.58
408.73	81.92
408.92	0.00
409.11	0.00
409.30	0.00
409.49	0.00
409.68	44.47
409.87	67.88
410.07	0.00
410.26	21.06
410.45	79.58
410.64	0.00
410.83	0.00
411.02	0.00
411.21	25.75
411.40	63.19
411.59	32.77
411.78	39.79
411.98	42.13
412.17	0.00
412.36	0.00
412.55	65.54
412.74	18.72
412.93	49.15
413.12	124.05
413.31	0.00
413.50	51.49
413.69	0.00
413.88	77.24
414.07	0.00
414.26	67.88
414.45	28.09
414.64	51.49
414.83	4.68
415.02	21.06
415.22	18.72
415.41	63.19
415.60	0.00
415.79	0.00
415.98	14.04
416.17	35.11
416.36	72.56
416.55	42.13
416.74	79.58
416.93	65.54
417.12	0.00
417.31	25.75
417.50	0.00
417.69	100.64
417.88	74.90
418.07	18.72
418.26	28.09
418.45	30.43
418.64	0.00
418.83	46.81
419.02	0.00
419.21	72.56
419.39	0.00
419.58	53.83
419.77	16.38
419.96	0.00
420.15	25.75
420.34	23.41
420.53	0.00
420.72	95.96
420.91	67.88
421.10	14.04
421.29	7.02
421.48	37.45
421.67	65.54
421.86	77.24
422.05	0.00
422.24	93.62
422.43	23.41
422.61	56.17
422.80	0.00
422.99	63.19
423.18	56.17
423.37	25.75
423.56	25.75
423.75	0.00
423.94	28.09
424.13	0.00
424.32	0.00
424.50	67.88
424.69	42.13
424.88	56.17
425.07	7.02
425.26	77.24
425.45	0.00
425.64	32.77
425.83	0.00
426.01	28.09
426.20	9.36
426.39	102.98
426.58	9.36
426.77	49.15
426.96	4.68
427.15	58.51
427.33	65.54
427.52	0.00
427.71	2.34
427.90	9.36
428.09	44.47
428.28	11.70
428.46	35.11
428.65	0.00
428.84	11.70
429.03	0.00
429.22	67.88
429.40	28.09
429.59	0.00
429.78	0.00
429.97	16.38
430.16	0.00
430.34	2.34
430.53	0.00
430.72	2.34
430.91	121.71
431.10	23.41
431.28	30.43
431.47	63.19
431.66	49.15
431.85	51.49
432.03	14.04
432.22	91.28
432.41	0.00
432.60	35.11
432.79	77.24
432.97	9.36
433.16	79.58
433.35	0.00
433.54	42.13
433.72	79.58
433.91	21.06
434.10	7.02
434.28	4.68
434.47	0.00
434.66	0.00
434.85	0.00
435.03	0.00
435.22	32.77
435.41	28.09
435.59	25.75
435.78	28.09
435.97	16.38
436.16	21.06
436.34	0.00
436.53	7.02
436.72	25.75
436.90	16.38
437.09	84.26
437.28	42.13
437.46	35.11
437.65	51.49
437.84	25.75
438.02	32.77
438.21	9.36
438.40	21.06
438.58	42.13
438.77	14.04
438.96	25.75
439.14	67.88
439.33	42.13
439.52	46.81
439.70	0.00
439.89	65.54
440.08	23.41
440.26	124.05
440.45	25.75
440.63	39.79
440.82	28.09
441.01	0.00
441.19	0.00
441.38	4.68
441.57	2.34
441.75	0.00
441.94	28.09
442.12	30.43
442.31	93.62
442.50	0.00
442.68	0.00
442.87	0.00
443.05	95.96
443.24	16.38
443.43	135.75
443.61	21.06
443.80	0.00
443.98	35.11
444.17	65.54
444.35	14.04
444.54	74.90
444.73	79.58
444.91	112.35
445.10	25.75
445.28	0.00
445.47	14.04
445.65	51.49
445.84	53.83
446.02	84.26
446.21	72.56
446.39	0.00
446.58	46.81
446.77	42.13
446.95	91.28
447.14	0.00
447.32	32.77
447.51	23.41
447.69	0.00
447.88	56.17
448.06	0.00
448.25	74.90
448.43	2.34
448.62	4.68
448.80	112.35
448.99	112.35
449.17	39.79
449.36	18.72
449.54	63.19
449.73	16.38
449.91	42.13
450.10	42.13
450.28	67.88
450.46	100.64
450.65	28.09
450.83	4.68
451.02	37.45
451.20	49.15
451.39	42.13
451.57	70.22
451.76	46.81
451.94	14.04
452.13	0.00
452.31	4.68
452.49	0.00
452.68	16.38
452.86	35.11
453.05	49.15
453.23	65.54
453.42	28.09
453.60	30.43
453.78	77.24
453.97	58.51
454.15	60.85
454.34	65.54
454.52	0.00
454.70	21.06
454.89	98.30
455.07	0.00
455.26	0.00
455.44	23.41
455.62	37.45
455.81	32.77
455.99	0.00
456.17	7.02
456.36	0.00
456.54	28.09
456.73	0.00
456.91	65.54
457.09	11.70
457.28	58.51
457.46	42.13
457.64	51.49
457.83	4.68
458.01	21.06
458.19	39.79
458.38	32.77
458.56	18.72
458.74	4.68
458.93	18.72
459.11	32.77
459.29	32.77
459.48	86.60
459.66	65.54
459.84	0.00
460.03	7.02
460.21	56.17
460.39	98.30
460.57	39.79
460.76	23.41
460.94	0.00
461.12	30.43
461.31	30.43
461.49	14.04
461.67	25.75
461.85	30.43
462.04	37.45
462.22	147.45
462.40	9.36
462.59	74.90
462.77	0.00
462.95	2.34
463.13	37.45
463.32	25.75
463.50	37.45
463.68	63.19
463.86	0.00
464.05	44.47
464.23	56.17
464.41	63.19
464.59	23.41
464.78	30.43
464.96	9.36
465.14	72.56
465.32	79.58
465.50	77.24
465.69	4.68
465.87	9.36
466.05	56.17
466.23	53.83
466.41	60.85
466.60	58.51
466.78	14.04
466.96	0.00
467.14	32.77
467.32	37.45
467.51	93.62
467.69	51.49
467.87	56.17
468.05	114.69
468.23	35.11
468.41	0.00
468.60	42.13
468.78	4.68
468.96	65.54
469.14	32.77
469.32	44.47
469.50	46.81
469.69	98.30
469.87	0.00
470.05	25.75
470.23	51.49
470.41	2.34
470.59	14.04
470.77	28.09
470.95	0.00
471.14	77.24
471.32	0.00
471.50	25.75
471.68	0.00
471.86	0.00
472.04	28.09
472.22	65.54
472.40	0.00
472.58	0.00
472.77	46.81
472.95	102.98
473.13	81.92
473.31	0.00
473.49	0.00
473.67	58.51
473.85	28.09
474.03	0.00
474.21	0.00
474.39	91.28
474.57	110.01
474.75	65.54
474.93	0.00
475.12	79.58
475.30	16.38
475.48	53.83
475.66	35.11
475.84	0.00
476.02	67.88
476.20	70.22
476.38	72.56
476.56	0.00
476.74	0.00
476.92	49.15
477.10	42.13
477.28	53.83
477.46	0.00
477.64	53.83
477.82	0.00
478.00	0.00
478.18	14.04
478.36	0.00
478.54	60.85
478.72	18.72
478.90	44.47
479.08	30.43
479.26	42.13
479.44	0.00
479.62	28.09
479.80	35.11
479.98	0.00
480.16	0.00
480.34	51.49
480.52	0.00
480.70	79.58
480.88	23.41
481.06	18.72
481.24	28.09
481.41	7.02
481.59	0.00
481.77	18.72
481.95	91.28
482.13	18.72
482.31	51.49
482.49	53.83
482.67	0.00
482.85	95.96
483.03	81.92
483.21	46.81
483.39	102.98
483.57	84.26
483.74	56.17
483.92	72.56
484.10	86.60
484.28	0.00
484.46	0.00
484.64	37.45
484.82	14.04
485.00	0.00
485.18	0.00
485.35	72.56
485.53	18.72
485.71	49.15
485.89	60.85
486.07	42.13
486.25	32.77
486.43	39.79
486.61	28.09
486.78	135.75
486.96	56.17
487.14	100.64
487.32	30.43
487.50	25.75
487.68	44.47
487.85	98.30
488.03	9.36
488.21	21.06
488.39	0.00
488.57	49.15
488.75	0.00
488.92	65.54
489.10	30.43
489.28	46.81
489.46	39.79
489.64	28.09
489.81	95.96
489.99	25.75
490.17	98.30
490.35	0.00
490.53	32.77
490.70	9.36
490.88	56.17
491.06	32.77
491.24	72.56
491.41	131.07
491.59	63.19
491.77	14.04
491.95	46.81
492.13	56.17
492.30	23.41
492.48	81.92
492.66	30.43
492.84	0.00
493.01	0.00
493.19	72.56
493.37	28.09
493.54	56.17
493.72	42.13
493.90	23.41
494.08	0.00
494.25	46.81
494.43	0.00
494.61	49.15
494.79	67.88
494.96	126.39
495.14	84.26
495.32	11.70
495.49	0.00
495.67	11.70
495.85	32.77
496.02	46.81
496.20	46.81
496.38	49.15
496.55	95.96
496.73	46.81
496.91	70.22
497.09	35.11
497.26	42.13
497.44	0.00
497.62	124.05
497.79	72.56
497.97	16.38
498.14	0.00
498.32	58.51
498.50	0.00
498.67	53.83
498.85	0.00
499.03	74.90
499.20	0.00
499.38	51.49
499.56	81.92
499.73	32.77
499.91	110.01
500.08	30.43
500.26	16.38
500.44	53.83
500.61	9.36
500.79	79.58
500.97	46.81
501.14	35.11
501.32	70.22
501.49	11.70
501.67	107.66
501.84	0.00
502.02	7.02
502.20	0.00
502.37	88.94
502.55	86.60
502.72	4.68
502.90	44.47
503.07	46.81
503.25	91.28
503.43	0.00
503.60	84.26
503.78	21.06
503.95	30.43
504.13	0.00
504.30	49.15
504.48	86.60
504.65	0.00
504.83	0.00
505.01	0.00
505.18	60.85
505.36	32.77
505.53	21.06
505.71	49.15
505.88	56.17
506.06	84.26
506.23	77.24
506.41	39.79
506.58	28.09
506.76	0.00
506.93	0.00
507.11	98.30
507.28	28.09
507.46	46.81
507.63	49.15
507.81	60.85
507.98	49.15
508.16	32.77
508.33	0.00
508.50	9.36
508.68	70.22
508.85	30.43
509.03	32.77
509.20	28.09
509.38	39.79
509.55	102.98
509.73	74.90
509.90	91.28
510.08	65.54
510.25	51.49
510.42	91.28
510.60	0.00
510.77	37.45
510.95	0.00
511.12	70.22
511.30	14.04
511.47	79.58
511.64	86.60
511.82	58.51
511.99	79.58
512.17	32.77
512.34	0.00
512.51	51.49
512.69	107.66
512.86	0.00
513.04	0.00
513.21	79.58
513.38	7.02
513.56	42.13
513.73	0.00
513.90	46.81
514.08	88.94
514.25	0.00
514.43	0.00
514.60	14.04
514.77	107.66
514.95	39.79
515.12	35.11
515.29	79.58
515.47	28.09
515.64	35.11
515.81	135.75
515.99	100.64
516.16	53.83
516.33	65.54
516.51	0.00
516.68	9.36
516.85	21.06
517.03	98.30
517.20	65.54
517.37	0.00
517.54	7.02
517.72	2.34
517.89	67.88
518.06	60.85
518.24	14.04
518.41	88.94
518.58	0.00
518.75	70.22
518.93	9.36
519.10	0.00
519.27	9.36
519.45	100.64
519.62	28.09
519.79	107.66
519.96	23.41
520.14	65.54
520.31	86.60
520.48	42.13
520.65	46.81
520.83	46.81
521.00	63.19
521.17	0.00
521.34	21.06
521.52	107.66
521.69	53.83
521.86	53.83
522.03	56.17
522.20	37.45
522.38	128.73
522.55	35.11
522.72	0.00
522.89	84.26
523.07	46.81
523.24	60.85
523.41	16.38
523.58	4.68
523.75	0.00
523.92	105.32
524.10	30.43
524.27	0.00
524.44	30.43
524.61	39.79
524.78	0.00
524.96	0.00
525.13	60.85
525.30	58.51
525.47	39.79
525.64	49.15
525.81	32.77
525.98	25.75
526.16	32.77
526.33	23.41
526.50	42.13
526.67	2.34
526.84	0.00
527.01	46.81
527.18	0.00
527.36	7.02
527.53	11.70
527.70	16.38
527.87	25.75
528.04	35.11
528.21	37.45
528.38	21.06
528.55	0.00
528.72	25.75
528.89	65.54
529.07	14.04
529.24	58.51
529.41	79.58
529.58	44.47
529.75	46.81
529.92	11.70
530.09	44.47
530.26	70.22
530.43	21.06
530.60	4.68
530.77	44.47
530.94	60.85
531.11	0.00
531.28	0.00
531.46	105.32
531.63	93.62
531.80	91.28
531.97	32.77
532.14	14.04
532.31	86.60
532.48	32.77
532.65	0.00
532.82	65.54
532.99	23.41
533.16	35.11
533.33	37.45
533.50	58.51
533.67	0.00
533.84	95.96
534.01	9.36
534.18	2.34
534.35	35.11
534.52	37.45
534.69	98.30
534.86	32.77
535.03	98.30
535.20	7.02
535.37	70.22
535.54	51.49
535.71	63.19
535.88	42.13
536.05	30.43
536.22	4.68
536.38	37.45
536.55	84.26
536.72	42.13
536.89	25.75
537.06	70.22
537.23	0.00
537.40	0.00
537.57	63.19
537.74	70.22
537.91	88.94
538.08	11.70
538.25	0.00
538.42	74.90
538.59	51.49
538.75	42.13
538.92	58.51
539.09	88.94
539.26	0.00
539.43	53.83
539.60	23.41
539.77	37.45
539.94	23.41
540.11	0.00
540.28	91.28
540.44	58.51
540.61	11.70
540.78	21.06
540.95	79.58
541.12	0.00
541.29	0.00
541.46	32.77
541.62	32.77
541.79	32.77
541.96	67.88
542.13	70.22
542.30	25.75
542.47	70.22
542.63	21.06
542.80	28.09
542.97	102.98
543.14	7.02
543.31	56.17
543.48	0.00
543.64	0.00
543.81	0.00
543.98	32.77
544.15	7.02
544.32	102.98
544.48	42.13
544.65	0.00
544.82	112.35
544.99	42.13
545.16	21.06
545.32	30.43
545.49	25.75
545.66	9.36
545.83	53.83
546.00	21.06
546.16	37.45
546.33	16.38
546.50	0.00
546.67	21.06
546.83	30.43
547.00	42.13
547.17	14.04
547.34	0.00
547.50	35.11
547.67	4.68
547.84	0.00
548.00	28.09
548.17	0.00
548.34	93.62
548.51	81.92
548.67	2.34
548.84	9.36
549.01	25.75
549.18	72.56
549.34	49.15
549.51	21.06
549.68	39.79
549.84	37.45
550.01	0.00
550.18	0.00
550.34	67.88
550.51	49.15
550.68	35.11
550.84	35.11
551.01	11.70
551.18	0.00
551.34	0.00
551.51	51.49
551.68	4.68
551.84	0.00
552.01	23.41
552.18	25.75
552.34	79.58
552.51	65.54
552.68	0.00
552.84	0.00
553.01	63.19
553.18	42.13
553.34	30.43
553.51	42.13
553.67	39.79
553.84	0.00
554.01	79.58
554.17	23.41
554.34	63.19
554.51	77.24
554.67	102.98
554.84	58.51
555.00	39.79
555.17	28.09
555.33	16.38
555.50	25.75
555.67	4.68
555.83	25.75
556.00	74.90
556.16	4.68
556.33	0.00
556.50	88.94
556.66	4.68
556.83	25.75
556.99	35.11
557.16	21.06
557.32	51.49
557.49	35.11
557.65	49.15
557.82	72.56
557.98	0.00
558.15	37.45
558.32	16.38
558.48	0.00
558.65	35.11
558.81	14.04
558.98	0.00
559.14	16.38
559.31	0.00
559.47	30.43
559.64	0.00
559.80	131.07
559.97	14.04
560.13	0.00
560.30	0.00
560.46	4.68
560.63	63.19
560.79	16.38
560.96	0.00
561.12	35.11
561.29	0.00
561.45	35.11
561.61	0.00
561.78	0.00
561.94	91.28
562.11	32.77
562.27	25.75
562.44	30.43
562.60	25.75
562.77	0.00
562.93	39.79
563.10	18.72
563.26	14.04
563.42	37.45
563.59	46.81
563.75	65.54
563.92	65.54
564.08	37.45
564.24	58.51
564.41	74.90
564.57	21.06
564.74	0.00
564.90	9.36
565.07	32.77
565.23	51.49
565.39	0.00
565.56	56.17
565.72	0.00
565.88	0.00
566.05	28.09
566.21	53.83
566.38	18.72
566.54	18.72
566.70	44.47
566.87	11.70
567.03	60.85
567.19	53.83
567.36	65.54
567.52	72.56
567.68	88.94
567.85	93.62
568.01	65.54
568.17	46.81
568.34	0.00
568.50	28.09
568.66	63.19
568.83	53.83
568.99	39.79
569.15	11.70
569.32	25.75
569.48	4.68
569.64	21.06
569.81	0.00
569.97	81.92
570.13	56.17
570.30	35.11
570.46	0.00
570.62	74.90
570.78	42.13
570.95	65.54
571.11	49.15
571.27	30.43
571.43	0.00
571.60	16.38
571.76	0.00
571.92	0.00
572.09	53.83
572.25	44.47
572.41	77.24
572.57	42.13
572.74	58.51
572.90	51.49
573.06	30.43
573.22	56.17
573.38	44.47
573.55	53.83
573.71	98.30
573.87	79.58
574.03	39.79
574.20	23.41
574.36	58.51
574.52	67.88
574.68	65.54
574.84	39.79
575.01	0.00
575.17	23.41
575.33	0.00
575.49	65.54
575.65	65.54
575.82	44.47
575.98	14.04
576.14	0.00
576.30	0.00
576.46	88.94
576.62	25.75
576.79	77.24
576.95	91.28
577.11	49.15
577.27	70.22
577.43	18.72
577.59	51.49
577.75	95.96
577.92	0.00
578.08	0.00
578.24	25.75
578.40	93.62
578.56	133.41
578.72	0.00
578.88	53.83
579.04	46.81
579.21	49.15
579.37	30.43
579.53	74.90
579.69	72.56
579.85	4.68
580.01	0.00
580.17	7.02
580.33	30.43
580.49	95.96
580.65	35.11
580.82	49.15
580.98	2.34
581.14	67.88
581.30	53.83
581.46	65.54
581.62	102.98
581.78	58.51
581.94	86.60
582.10	86.60
582.26	0.00
582.42	35.11
582.58	18.72
582.74	79.58
582.90	18.72
583.06	23.41
583.22	37.45
583.38	42.13
583.54	0.00
583.70	0.00
583.86	21.06
584.02	0.00
584.18	16.38
584.34	105.32
584.50	9.36
584.66	308.95
584.82	711.52
584.98	917.49
585.14	802.80
585.30	535.98
585.46	320.65
585.62	142.77
585.78	180.22
585.94	72.56
586.10	63.19
586.26	18.72
586.42	39.79
586.58	18.72
586.74	70.22
586.90	11.70
587.06	46.81
587.22	53.83
587.38	23.41
587.54	93.62
587.70	117.03
587.86	105.32
588.02	107.66
588.18	67.88
588.34	67.88
588.49	42.13
588.65	60.85
588.81	18.72
588.97	2.34
589.13	51.49
589.29	28.09
589.45	44.47
589.61	9.36
589.77	0.00
589.93	37.45
590.08	25.75
590.24	0.00
590.40	98.30
590.56	0.00
590.72	16.38
590.88	21.06
591.04	0.00
591.20	0.00
591.35	18.72
591.51	0.00
591.67	7.02
591.83	30.43
591.99	0.00
592.15	7.02
592.31	84.26
592.46	0.00
592.62	79.58
592.78	23.41
592.94	67.88
593.10	81.92
593.26	9.36
593.41	74.90
593.57	74.90
593.73	9.36
593.89	70.22
594.05	37.45
594.20	161.50
594.36	173.20
594.52	142.77
594.68	72.56
594.84	95.96
594.99	7.02
595.15	0.00
595.31	135.75
595.47	42.13
595.62	91.28
595.78	58.51
595.94	23.41
596.10	0.00
596.25	37.45
596.41	0.00
596.57	11.70
596.73	70.22
596.88	91.28
597.04	0.00
597.20	0.00
597.36	77.24
597.51	42.13
597.67	70.22
597.83	39.79
597.99	16.38
598.14	0.00
598.30	0.00
598.46	30.43
598.61	46.81
598.77	21.06
598.93	49.15
599.09	30.43
599.24	30.43
599.40	77.24
599.56	53.83
599.71	58.51
599.87	51.49
600.03	4.68
600.18	58.51
600.34	23.41
600.50	9.36
600.65	63.19
600.81	0.00
600.97	32.77
601.12	0.00
601.28	65.54
601.44	0.00
601.59	49.15
601.75	28.09
601.91	0.00
602.06	44.47
602.22	107.66
602.37	16.38
602.53	70.22
602.69	60.85
602.84	14.04
603.00	114.69
603.16	88.94
603.31	9.36
603.47	37.45
603.62	30.43
603.78	0.00
603.94	0.00
604.09	21.06
604.25	4.68
604.40	9.36
604.56	58.51
604.71	74.90
604.87	88.94
605.03	84.26
605.18	46.81
605.34	32.77
605.49	30.43
605.65	58.51
605.80	32.77
605.96	28.09
606.12	56.17
606.27	32.77
606.43	2.34
606.58	28.09
606.74	0.00
606.89	84.26
607.05	79.58
607.20	102.98
607.36	140.43
607.51	81.92
607.67	72.56
607.82	9.36
607.98	9.36
608.13	0.00
608.29	21.06
608.44	23.41
608.60	32.77
608.75	23.41
608.91	88.94
609.06	114.69
609.22	198.95
609.37	191.92
609.53	201.29
609.68	107.66
609.84	77.24
609.99	77.24
610.15	107.66
610.30	30.43
610.46	107.66
610.61	0.00
610.76	0.00
610.92	32.77
611.07	72.56
611.23	60.85
611.38	65.54
611.54	2.34
611.69	49.15
611.84	70.22
612.00	4.68
612.15	0.00
612.31	32.77
612.46	25.75
612.62	37.45
612.77	23.41
612.92	67.88
613.08	14.04
613.23	0.00
613.39	32.77
613.54	140.43
613.69	138.09
613.85	224.69
614.00	271.50
614.15	297.25
614.31	236.39
614.46	91.28
614.62	98.30
614.77	114.69
614.92	21.06
615.08	63.19
615.23	30.43
615.38	58.51
615.54	37.45
615.69	0.00
615.84	53.83
616.00	135.75
616.15	156.82
616.30	102.98
616.46	135.75
616.61	79.58
616.76	39.79
616.92	74.90
617.07	60.85
617.22	81.92
617.37	0.00
617.53	0.00
617.68	9.36
617.83	42.13
617.99	105.32
618.14	18.72
618.29	58.51
618.45	25.75
618.60	0.00
618.75	53.83
618.90	16.38
619.06	117.03
619.21	37.45
619.36	4.68
619.51	0.00
619.67	0.00
619.82	9.36
619.97	0.00
620.12	53.83
620.28	0.00
620.43	0.00
620.58	0.00
620.73	2.34
620.89	51.49
621.04	84.26
621.19	117.03
621.34	110.01
621.49	9.36
621.65	72.56
621.80	63.19
621.95	60.85
622.10	110.01
622.25	30.43
622.41	2.34
622.56	0.00
622.71	23.41
622.86	67.88
623.01	0.00
623.16	28.09
623.32	18.72
623.47	98.30
623.62	37.45
623.77	2.34
623.92	9.36
624.07	51.49
624.23	88.94
624.38	53.83
624.53	0.00
624.68	88.94
624.83	32.77
624.98	14.04
625.13	65.54
625.29	63.19
625.44	60.85
625.59	30.43
625.74	91.28
625.89	32.77
626.04	39.79
626.19	91.28
626.34	229.37
626.49	142.77
626.65	86.60
626.80	140.43
626.95	51.49
627.10	23.41
627.25	16.38
627.40	28.09
627.55	35.11
627.70	18.72
627.85	16.38
628.00	70.22
628.15	49.15
628.30	0.00
628.45	28.09
628.60	81.92
628.76	70.22
628.91	100.64
629.06	11.70
629.21	56.17
629.36	0.00
629.51	0.00
629.66	84.26
629.81	93.62
629.96	4.68
630.11	74.90
630.26	147.45
630.41	0.00
630.56	72.56
630.71	70.22
630.86	0.00
631.01	49.15
631.16	56.17
631.31	0.00
631.46	0.00
631.61	51.49
631.76	107.66
631.91	28.09
632.06	28.09
632.21	2.34
632.36	30.43
632.51	72.56
632.66	63.19
632.81	30.43
632.96	105.32
633.10	191.92
633.25	142.77
633.40	124.05
633.55	86.60
633.70	131.07
633.85	74.90
634.00	0.00
634.15	0.00
634.30	0.00
634.45	16.38
634.60	9.36
634.75	81.92
634.90	74.90
635.05	72.56
635.19	72.56
635.34	0.00
635.49	18.72
635.64	0.00
635.79	67.88
635.94	42.13
636.09	65.54
636.24	46.81
636.39	53.83
636.53	0.00
636.68	14.04
636.83	42.13
636.98	35.11
637.13	86.60
637.28	58.51
637.43	58.51
637.57	39.79
637.72	9.36
637.87	159.16
638.02	194.26
638.17	177.88
638.32	112.35
638.46	114.69
638.61	86.60
638.76	0.00
638.91	65.54
639.06	0.00
639.20	86.60
639.35	21.06
639.50	0.00
639.65	79.58
639.80	203.63
639.94	287.89
640.09	313.63
640.24	243.42
640.39	187.24
640.54	112.35
640.68	56.17
640.83	39.79
640.98	63.19
641.13	0.00
641.27	0.00
641.42	0.00
641.57	44.47
641.72	0.00
641.86	72.56
642.01	39.79
642.16	25.75
642.31	42.13
642.45	14.04
642.60	39.79
642.75	0.00
642.90	67.88
643.04	0.00
643.19	81.92
643.34	114.69
643.48	4.68
643.63	35.11
643.78	0.00
643.93	49.15
644.07	79.58
644.22	74.90
644.37	0.00
644.51	67.88
644.66	37.45
644.81	70.22
644.95	21.06
645.10	4.68
645.25	74.90
645.39	0.00
645.54	37.45
645.69	102.98
645.83	0.00
645.98	35.11
646.13	60.85
646.27	28.09
646.42	65.54
646.57	65.54
646.71	35.11
646.86	63.19
647.00	37.45
647.15	65.54
647.30	88.94
647.44	0.00
647.59	0.00
647.74	44.47
647.88	0.00
648.03	93.62
648.17	79.58
648.32	0.00
648.47	9.36
648.61	56.17
648.76	25.75
648.90	91.28
649.05	0.00
649.20	51.49
649.34	37.45
649.49	11.70
649.63	0.00
649.78	93.62
649.92	30.43
650.07	86.60
650.21	107.66
650.36	133.41
650.51	140.43
650.65	159.16
650.80	131.07
650.94	100.64
651.09	0.00
651.23	70.22
651.38	14.04
651.52	28.09
651.67	58.51
651.81	49.15
651.96	0.00
652.10	63.19
652.25	42.13
652.39	72.56
652.54	65.54
652.68	0.00
652.83	35.11
652.97	105.32
653.12	126.39
653.26	77.24
653.41	65.54
653.55	14.04
653.70	91.28
653.84	102.98
653.99	23.41
654.13	0.00
654.27	0.00
654.42	65.54
654.56	23.41
654.71	21.06
654.85	70.22
655.00	72.56
655.14	44.47
655.29	37.45
655.43	21.06
655.57	42.13
655.72	42.13
655.86	60.85
656.01	9.36
656.15	9.36
656.30	53.83
656.44	0.00
656.58	21.06
656.73	42.13
656.87	0.00
657.01	32.77
657.16	46.81
657.30	28.09
657.45	2.34
657.59	72.56
657.73	91.28
657.88	0.00
658.02	79.58
658.16	0.00
658.31	0.00
658.45	46.81
658.60	42.13
658.74	121.71
658.88	86.60
659.03	56.17
659.17	0.00
659.31	32.77
659.46	88.94
659.60	128.73
659.74	88.94
659.89	114.69
660.03	32.77
660.17	84.26
660.32	14.04
660.46	18.72
660.60	138.09
660.74	16.38
660.89	0.00
661.03	42.13
661.17	74.90
661.32	53.83
661.46	72.56
661.60	35.11
661.74	35.11
661.89	56.17
662.03	0.00
662.17	84.26
662.31	0.00
662.46	37.45
662.60	0.00
662.74	32.77
662.88	56.17
663.03	9.36
663.17	11.70
663.31	60.85
663.45	7.02
663.60	117.03
663.74	86.60
663.88	23.41
664.02	58.51
664.17	53.83
664.31	42.13
664.45	39.79
664.59	51.49
664.73	79.58
664.88	84.26
665.02	44.47
665.16	128.73
665.30	0.00
665.44	0.00
665.59	11.70
665.73	32.77
665.87	25.75
666.01	0.00
666.15	42.13
666.29	35.11
666.44	23.41
666.58	67.88
666.72	35.11
666.86	39.79
667.00	51.49
667.14	49.15
667.28	70.22
667.43	60.85
667.57	135.75
667.71	121.71
667.85	102.98
667.99	65.54
668.13	39.79
668.27	63.19
668.41	4.68
668.56	21.06
668.70	4.68
668.84	70.22
668.98	0.00
669.12	0.00
669.26	88.94
669.40	60.85
669.54	0.00
669.68	56.17
669.82	53.83
669.96	23.41
670.10	0.00
670.25	35.11
670.39	7.02
670.53	37.45
670.67	23.41
670.81	37.45
670.95	23.41
671.09	60.85
671.23	0.00
671.37	56.17
671.51	145.11
671.65	102.98
671.79	74.90
671.93	107.66
672.07	60.85
672.21	42.13
672.35	28.09
672.49	44.47
672.63	7.02
672.77	28.09
672.91	0.00
673.05	4.68
673.19	23.41
673.33	9.36
673.47	39.79
673.61	88.94
673.75	23.41
673.89	0.00
674.03	28.09
674.17	0.00
674.31	0.00
674.45	0.00
674.59	0.00
674.73	18.72
674.87	72.56
675.01	16.38
675.15	32.77
675.29	42.13
675.43	30.43
675.56	86.60
675.70	44.47
675.84	0.00
675.98	86.60
676.12	0.00
676.26	4.68
676.40	23.41
676.54	39.79
676.68	2.34
676.82	0.00
676.96	16.38
677.10	39.79
677.23	0.00
677.37	32.77
677.51	0.00
677.65	46.81
677.79	18.72
677.93	46.81
678.07	37.45
678.21	79.58
678.34	0.00
678.48	114.69
678.62	0.00
678.76	44.47
678.90	0.00
679.04	58.51
679.18	30.43
679.31	42.13
679.45	7.02
679.59	44.47
679.73	2.34
679.87	0.00
680.00	0.00
680.14	28.09
680.28	44.47
680.42	21.06
680.56	9.36
680.70	14.04
680.83	74.90
680.97	65.54
681.11	0.00
681.25	67.88
681.39	35.11
681.52	42.13
681.66	44.47
681.80	18.72
681.94	23.41
682.07	14.04
682.21	35.11
682.35	30.43
682.49	77.24
682.62	0.00
682.76	11.70
682.90	0.00
683.04	9.36
683.17	84.26
683.31	44.47
683.45	77.24
683.59	46.81
683.72	0.00
683.86	60.85
684.00	21.06
684.13	49.15
684.27	35.11
684.41	39.79
684.55	88.94
684.68	0.00
684.82	11.70
684.96	51.49
685.09	88.94
685.23	51.49
685.37	46.81
685.50	67.88
685.64	65.54
685.78	58.51
685.91	0.00
686.05	67.88
686.19	49.15
686.32	91.28
686.46	16.38
686.60	23.41
686.73	79.58
686.87	58.51
687.01	11.70
687.14	81.92
687.28	9.36
687.42	44.47
687.55	7.02
687.69	56.17
687.82	0.00
687.96	0.00
688.10	77.24
688.23	11.70
688.37	35.11
688.50	72.56
688.64	2.34
688.78	18.72
688.91	0.00
689.05	58.51
689.18	4.68
689.32	35.11
689.46	72.56
689.59	23.41
689.73	0.00
689.86	28.09
690.00	0.00
690.13	86.60
690.27	18.72
690.41	51.49
690.54	21.06
690.68	16.38
690.81	4.68
690.95	63.19
691.08	32.77
691.22	84.26
691.35	37.45
691.49	42.13
691.62	28.09
691.76	0.00
691.89	105.32
692.03	46.81
692.16	0.00
692.30	9.36
692.43	42.13
692.57	124.05
692.70	51.49
692.84	56.17
692.97	9.36
693.11	16.38
693.24	49.15
693.38	0.00
693.51	77.24
693.65	102.98
693.78	53.83
693.92	72.56
694.05	39.79
694.19	0.00
694.32	25.75
694.45	39.79
694.59	32.77
694.72	84.26
694.86	79.58
694.99	18.72
695.13	72.56
695.26	37.45
695.39	67.88
695.53	32.77
695.66	46.81
695.80	9.36
695.93	25.75
696.07	7.02
696.20	0.00
696.33	119.37
696.47	0.00
696.60	51.49
696.73	51.49
696.87	0.00
697.00	4.68
697.14	95.96
697.27	0.00
697.40	49.15
697.54	35.11
697.67	2.34
697.80	70.22
697.94	44.47
698.07	63.19
698.21	46.81
698.34	0.00
698.47	28.09
698.61	53.83
698.74	119.37
698.87	72.56
699.01	86.60
699.14	98.30
699.27	0.00
699.40	81.92
699.54	0.00
699.67	32.77
699.80	9.36
699.94	14.04
700.07	4.68
700.20	0.00
700.34	0.00
700.47	16.38
700.60	72.56
700.73	65.54
700.87	56.17
701.00	63.19
701.13	86.60
701.26	0.00
701.40	0.00
701.53	30.43
701.66	65.54
701.79	23.41
701.93	49.15
702.06	39.79
702.19	0.00
702.32	65.54
702.46	51.49
702.59	16.38
702.72	25.75
702.85	79.58
702.99	72.56
703.12	110.01
703.25	114.69
703.38	65.54
703.51	93.62
703.65	4.68
703.78	79.58
703.91	9.36
704.04	60.85
704.17	51.49
704.31	0.00
704.44	32.77
704.57	0.00
704.70	81.92
704.83	18.72
704.96	11.70
705.10	56.17
705.23	56.17
>>>>>End Processed Spectral Data<<<<<
