SpectraSuite Data File
++++++++++++++++++++++++++++++++++++
Date: Fri Oct 04 12:13:44 GMT-05:00 2013
User: price-jones
Dark Spectrum Present: No
Reference Spectrum Present: No
Number of Sampled Component Spectra: 1
Spectrometers: USB2+H05261
Integration Time (usec): 10000 (USB2+H05261)
Spectra Averaged: 1 (USB2+H05261)
Boxcar Smoothing: 0 (USB2+H05261)
Correct for Electrical Dark: No (USB2+H05261)
Strobe/Lamp Enabled: No (USB2+H05261)
Correct for Detector Non-linearity: No (USB2+H05261)
Correct for Stray Light: No (USB2+H05261)
Number of Pixels in Processed Spectrum: 2048
>>>>>Begin Processed Spectral Data<<<<<
365.73	0.00
365.92	0.00
366.12	0.00
366.32	0.00
366.52	0.00
366.72	0.00
366.91	0.00
367.11	0.00
367.31	0.00
367.51	0.00
367.70	0.00
367.90	0.00
368.10	0.00
368.30	0.00
368.49	0.00
368.69	0.00
368.89	0.00
369.09	0.00
369.28	0.00
369.48	0.00
369.68	0.00
369.87	0.00
370.07	0.00
370.27	0.00
370.47	0.00
370.66	0.00
370.86	0.00
371.06	21.06
371.25	25.75
371.45	0.00
371.65	0.00
371.84	72.56
372.04	0.00
372.24	44.47
372.44	0.00
372.63	0.00
372.83	74.90
373.03	35.11
373.22	35.11
373.42	0.00
373.62	18.72
373.81	58.51
374.01	0.00
374.21	28.09
374.40	0.00
374.60	16.38
374.79	23.41
374.99	49.15
375.19	51.49
375.38	0.00
375.58	9.36
375.78	110.01
375.97	28.09
376.17	98.30
376.37	0.00
376.56	0.00
376.76	0.00
376.95	25.75
377.15	18.72
377.35	44.47
377.54	88.94
377.74	0.00
377.93	23.41
378.13	42.13
378.33	67.88
378.52	0.00
378.72	0.00
378.91	4.68
379.11	37.45
379.31	46.81
379.50	35.11
379.70	42.13
379.89	25.75
380.09	0.00
380.28	37.45
380.48	0.00
380.68	37.45
380.87	0.00
381.07	0.00
381.26	32.77
381.46	58.51
381.65	11.70
381.85	53.83
382.04	2.34
382.24	9.36
382.43	25.75
382.63	32.77
382.83	0.00
383.02	0.00
383.22	0.00
383.41	32.77
383.61	53.83
383.80	7.02
384.00	28.09
384.19	0.00
384.39	21.06
384.58	0.00
384.78	0.00
384.97	0.00
385.17	0.00
385.36	0.00
385.56	14.04
385.75	58.51
385.95	63.19
386.14	0.00
386.34	32.77
386.53	2.34
386.72	63.19
386.92	58.51
387.11	35.11
387.31	0.00
387.50	0.00
387.70	0.00
387.89	25.75
388.09	44.47
388.28	0.00
388.48	21.06
388.67	39.79
388.86	7.02
389.06	51.49
389.25	53.83
389.45	0.00
389.64	35.11
389.84	2.34
390.03	63.19
390.22	91.28
390.42	25.75
390.61	23.41
390.81	37.45
391.00	21.06
391.19	74.90
391.39	0.00
391.58	44.47
391.78	28.09
391.97	49.15
392.16	77.24
392.36	18.72
392.55	60.85
392.75	51.49
392.94	49.15
393.13	46.81
393.33	0.00
393.52	16.38
393.71	84.26
393.91	7.02
394.10	11.70
394.29	49.15
394.49	53.83
394.68	9.36
394.88	18.72
395.07	0.00
395.26	37.45
395.46	0.00
395.65	49.15
395.84	37.45
396.04	7.02
396.23	0.00
396.42	67.88
396.62	0.00
396.81	46.81
397.00	44.47
397.19	14.04
397.39	35.11
397.58	35.11
397.77	23.41
397.97	0.00
398.16	53.83
398.35	53.83
398.55	53.83
398.74	0.00
398.93	14.04
399.12	81.92
399.32	39.79
399.51	0.00
399.70	14.04
399.90	88.94
400.09	79.58
400.28	0.00
400.47	0.00
400.67	0.00
400.86	14.04
401.05	25.75
401.24	74.90
401.44	0.00
401.63	2.34
401.82	16.38
402.01	58.51
402.21	32.77
402.40	25.75
402.59	88.94
402.78	124.05
402.97	65.54
403.17	0.00
403.36	44.47
403.55	37.45
403.74	51.49
403.93	49.15
404.13	25.75
404.32	0.00
404.51	79.58
404.70	2.34
404.89	0.00
405.09	49.15
405.28	0.00
405.47	25.75
405.66	49.15
405.85	98.30
406.05	39.79
406.24	18.72
406.43	42.13
406.62	0.00
406.81	39.79
407.00	72.56
407.20	0.00
407.39	11.70
407.58	0.00
407.77	0.00
407.96	110.01
408.15	51.49
408.34	0.00
408.54	25.75
408.73	65.54
408.92	53.83
409.11	74.90
409.30	53.83
409.49	37.45
409.68	0.00
409.87	30.43
410.07	28.09
410.26	0.00
410.45	42.13
410.64	21.06
410.83	49.15
411.02	72.56
411.21	30.43
411.40	9.36
411.59	100.64
411.78	74.90
411.98	77.24
412.17	46.81
412.36	14.04
412.55	53.83
412.74	58.51
412.93	25.75
413.12	25.75
413.31	11.70
413.50	23.41
413.69	18.72
413.88	42.13
414.07	37.45
414.26	2.34
414.45	63.19
414.64	16.38
414.83	0.00
415.02	21.06
415.22	35.11
415.41	4.68
415.60	0.00
415.79	98.30
415.98	0.00
416.17	9.36
416.36	58.51
416.55	0.00
416.74	0.00
416.93	4.68
417.12	2.34
417.31	0.00
417.50	74.90
417.69	35.11
417.88	58.51
418.07	0.00
418.26	7.02
418.45	28.09
418.64	0.00
418.83	46.81
419.02	65.54
419.21	11.70
419.39	70.22
419.58	95.96
419.77	39.79
419.96	79.58
420.15	65.54
420.34	91.28
420.53	0.00
420.72	102.98
420.91	46.81
421.10	84.26
421.29	91.28
421.48	9.36
421.67	102.98
421.86	95.96
422.05	46.81
422.24	32.77
422.43	72.56
422.61	0.00
422.80	16.38
422.99	58.51
423.18	2.34
423.37	86.60
423.56	70.22
423.75	35.11
423.94	107.66
424.13	77.24
424.32	98.30
424.50	18.72
424.69	0.00
424.88	91.28
425.07	16.38
425.26	74.90
425.45	14.04
425.64	0.00
425.83	2.34
426.01	2.34
426.20	0.00
426.39	32.77
426.58	30.43
426.77	0.00
426.96	44.47
427.15	37.45
427.33	0.00
427.52	0.00
427.71	0.00
427.90	4.68
428.09	93.62
428.28	58.51
428.46	2.34
428.65	88.94
428.84	0.00
429.03	2.34
429.22	60.85
429.40	0.00
429.59	49.15
429.78	28.09
429.97	105.32
430.16	77.24
430.34	0.00
430.53	25.75
430.72	60.85
430.91	7.02
431.10	30.43
431.28	53.83
431.47	21.06
431.66	0.00
431.85	102.98
432.03	70.22
432.22	0.00
432.41	37.45
432.60	65.54
432.79	2.34
432.97	4.68
433.16	7.02
433.35	79.58
433.54	0.00
433.72	28.09
433.91	91.28
434.10	72.56
434.28	0.00
434.47	16.38
434.66	0.00
434.85	70.22
435.03	93.62
435.22	0.00
435.41	74.90
435.59	58.51
435.78	0.00
435.97	18.72
436.16	0.00
436.34	30.43
436.53	32.77
436.72	0.00
436.90	58.51
437.09	46.81
437.28	30.43
437.46	0.00
437.65	42.13
437.84	46.81
438.02	11.70
438.21	35.11
438.40	63.19
438.58	37.45
438.77	67.88
438.96	4.68
439.14	30.43
439.33	70.22
439.52	51.49
439.70	14.04
439.89	51.49
440.08	72.56
440.26	9.36
440.45	0.00
440.63	0.00
440.82	44.47
441.01	23.41
441.19	39.79
441.38	18.72
441.57	0.00
441.75	77.24
441.94	114.69
442.12	70.22
442.31	0.00
442.50	70.22
442.68	81.92
442.87	84.26
443.05	110.01
443.24	9.36
443.43	51.49
443.61	7.02
443.80	37.45
443.98	37.45
444.17	25.75
444.35	79.58
444.54	102.98
444.73	58.51
444.91	46.81
445.10	7.02
445.28	42.13
445.47	74.90
445.65	49.15
445.84	39.79
446.02	0.00
446.21	16.38
446.39	37.45
446.58	60.85
446.77	37.45
446.95	56.17
447.14	0.00
447.32	67.88
447.51	44.47
447.69	98.30
447.88	0.00
448.06	0.00
448.25	60.85
448.43	0.00
448.62	84.26
448.80	0.00
448.99	51.49
449.17	0.00
449.36	138.09
449.54	84.26
449.73	46.81
449.91	93.62
450.10	42.13
450.28	56.17
450.46	51.49
450.65	25.75
450.83	30.43
451.02	74.90
451.20	58.51
451.39	58.51
451.57	11.70
451.76	9.36
451.94	58.51
452.13	74.90
452.31	28.09
452.49	32.77
452.68	56.17
452.86	95.96
453.05	23.41
453.23	53.83
453.42	16.38
453.60	46.81
453.78	74.90
453.97	0.00
454.15	11.70
454.34	32.77
454.52	35.11
454.70	58.51
454.89	84.26
455.07	49.15
455.26	0.00
455.44	56.17
455.62	39.79
455.81	0.00
455.99	0.00
456.17	4.68
456.36	51.49
456.54	39.79
456.73	23.41
456.91	72.56
457.09	49.15
457.28	44.47
457.46	79.58
457.64	11.70
457.83	60.85
458.01	0.00
458.19	51.49
458.38	49.15
458.56	119.37
458.74	58.51
458.93	77.24
459.11	0.00
459.29	58.51
459.48	14.04
459.66	79.58
459.84	53.83
460.03	42.13
460.21	58.51
460.39	21.06
460.57	65.54
460.76	32.77
460.94	93.62
461.12	0.00
461.31	131.07
461.49	28.09
461.67	14.04
461.85	0.00
462.04	46.81
462.22	56.17
462.40	0.00
462.59	32.77
462.77	110.01
462.95	74.90
463.13	51.49
463.32	102.98
463.50	9.36
463.68	44.47
463.86	0.00
464.05	0.00
464.23	63.19
464.41	11.70
464.59	39.79
464.78	42.13
464.96	86.60
465.14	7.02
465.32	53.83
465.50	25.75
465.69	100.64
465.87	72.56
466.05	86.60
466.23	14.04
466.41	70.22
466.60	18.72
466.78	14.04
466.96	65.54
467.14	42.13
467.32	35.11
467.51	159.16
467.69	86.60
467.87	100.64
468.05	35.11
468.23	105.32
468.41	32.77
468.60	14.04
468.78	72.56
468.96	126.39
469.14	30.43
469.32	63.19
469.50	14.04
469.69	30.43
469.87	0.00
470.05	25.75
470.23	58.51
470.41	72.56
470.59	51.49
470.77	16.38
470.95	23.41
471.14	46.81
471.32	42.13
471.50	81.92
471.68	79.58
471.86	63.19
472.04	25.75
472.22	117.03
472.40	72.56
472.58	63.19
472.77	46.81
472.95	67.88
473.13	72.56
473.31	0.00
473.49	58.51
473.67	7.02
473.85	49.15
474.03	39.79
474.21	9.36
474.39	58.51
474.57	4.68
474.75	51.49
474.93	0.00
475.12	42.13
475.30	23.41
475.48	51.49
475.66	0.00
475.84	72.56
476.02	44.47
476.20	18.72
476.38	70.22
476.56	37.45
476.74	25.75
476.92	53.83
477.10	49.15
477.28	9.36
477.46	95.96
477.64	58.51
477.82	39.79
478.00	86.60
478.18	67.88
478.36	81.92
478.54	0.00
478.72	84.26
478.90	49.15
479.08	32.77
479.26	32.77
479.44	58.51
479.62	0.00
479.80	2.34
479.98	65.54
480.16	0.00
480.34	25.75
480.52	49.15
480.70	0.00
480.88	93.62
481.06	25.75
481.24	74.90
481.41	23.41
481.59	46.81
481.77	53.83
481.95	28.09
482.13	28.09
482.31	32.77
482.49	86.60
482.67	44.47
482.85	58.51
483.03	32.77
483.21	88.94
483.39	2.34
483.57	0.00
483.74	32.77
483.92	81.92
484.10	63.19
484.28	0.00
484.46	95.96
484.64	25.75
484.82	56.17
485.00	147.45
485.18	70.22
485.35	0.00
485.53	46.81
485.71	98.30
485.89	35.11
486.07	56.17
486.25	18.72
486.43	77.24
486.61	79.58
486.78	95.96
486.96	70.22
487.14	28.09
487.32	37.45
487.50	81.92
487.68	32.77
487.85	0.00
488.03	51.49
488.21	86.60
488.39	112.35
488.57	0.00
488.75	70.22
488.92	93.62
489.10	107.66
489.28	0.00
489.46	25.75
489.64	0.00
489.81	107.66
489.99	0.00
490.17	25.75
490.35	60.85
490.53	23.41
490.70	25.75
490.88	98.30
491.06	79.58
491.24	81.92
491.41	65.54
491.59	79.58
491.77	28.09
491.95	46.81
492.13	42.13
492.30	56.17
492.48	93.62
492.66	37.45
492.84	65.54
493.01	67.88
493.19	39.79
493.37	28.09
493.54	42.13
493.72	16.38
493.90	14.04
494.08	49.15
494.25	42.13
494.43	44.47
494.61	86.60
494.79	58.51
494.96	74.90
495.14	30.43
495.32	58.51
495.49	84.26
495.67	58.51
495.85	81.92
496.02	126.39
496.20	28.09
496.38	23.41
496.55	124.05
496.73	74.90
496.91	0.00
497.09	65.54
497.26	112.35
497.44	60.85
497.62	86.60
497.79	79.58
497.97	18.72
498.14	60.85
498.32	58.51
498.50	65.54
498.67	30.43
498.85	91.28
499.03	4.68
499.20	105.32
499.38	140.43
499.56	53.83
499.73	39.79
499.91	37.45
500.08	42.13
500.26	114.69
500.44	88.94
500.61	112.35
500.79	126.39
500.97	95.96
501.14	86.60
501.32	72.56
501.49	60.85
501.67	100.64
501.84	95.96
502.02	119.37
502.20	124.05
502.37	14.04
502.55	46.81
502.72	65.54
502.90	72.56
503.07	23.41
503.25	105.32
503.43	16.38
503.60	65.54
503.78	28.09
503.95	35.11
504.13	42.13
504.30	100.64
504.48	53.83
504.65	25.75
504.83	67.88
505.01	114.69
505.18	4.68
505.36	112.35
505.53	110.01
505.71	93.62
505.88	88.94
506.06	2.34
506.23	88.94
506.41	30.43
506.58	56.17
506.76	77.24
506.93	77.24
507.11	63.19
507.28	105.32
507.46	42.13
507.63	44.47
507.81	93.62
507.98	107.66
508.16	124.05
508.33	35.11
508.50	30.43
508.68	28.09
508.85	65.54
509.03	72.56
509.20	37.45
509.38	51.49
509.55	74.90
509.73	30.43
509.90	46.81
510.08	44.47
510.25	30.43
510.42	93.62
510.60	42.13
510.77	44.47
510.95	88.94
511.12	56.17
511.30	0.00
511.47	84.26
511.64	0.00
511.82	74.90
511.99	128.73
512.17	32.77
512.34	28.09
512.51	72.56
512.69	51.49
512.86	0.00
513.04	72.56
513.21	72.56
513.38	81.92
513.56	72.56
513.73	100.64
513.90	42.13
514.08	28.09
514.25	44.47
514.43	74.90
514.60	70.22
514.77	84.26
514.95	37.45
515.12	23.41
515.29	58.51
515.47	154.48
515.64	95.96
515.81	105.32
515.99	77.24
516.16	72.56
516.33	86.60
516.51	30.43
516.68	79.58
516.85	39.79
517.03	21.06
517.20	18.72
517.37	35.11
517.54	110.01
517.72	156.82
517.89	72.56
518.06	14.04
518.24	9.36
518.41	102.98
518.58	60.85
518.75	25.75
518.93	46.81
519.10	65.54
519.27	39.79
519.45	70.22
519.62	0.00
519.79	95.96
519.96	16.38
520.14	79.58
520.31	112.35
520.48	79.58
520.65	91.28
520.83	72.56
521.00	65.54
521.17	9.36
521.34	0.00
521.52	14.04
521.69	53.83
521.86	156.82
522.03	0.00
522.20	88.94
522.38	16.38
522.55	67.88
522.72	79.58
522.89	58.51
523.07	51.49
523.24	147.45
523.41	0.00
523.58	35.11
523.75	60.85
523.92	28.09
524.10	81.92
524.27	81.92
524.44	39.79
524.61	0.00
524.78	58.51
524.96	60.85
525.13	0.00
525.30	60.85
525.47	37.45
525.64	0.00
525.81	58.51
525.98	35.11
526.16	53.83
526.33	60.85
526.50	56.17
526.67	77.24
526.84	142.77
527.01	79.58
527.18	44.47
527.36	72.56
527.53	32.77
527.70	77.24
527.87	121.71
528.04	74.90
528.21	16.38
528.38	0.00
528.55	105.32
528.72	91.28
528.89	81.92
529.07	74.90
529.24	0.00
529.41	93.62
529.58	30.43
529.75	93.62
529.92	93.62
530.09	0.00
530.26	21.06
530.43	9.36
530.60	30.43
530.77	30.43
530.94	91.28
531.11	112.35
531.28	84.26
531.46	49.15
531.63	98.30
531.80	107.66
531.97	46.81
532.14	86.60
532.31	46.81
532.48	4.68
532.65	32.77
532.82	124.05
532.99	30.43
533.16	81.92
533.33	39.79
533.50	77.24
533.67	0.00
533.84	32.77
534.01	131.07
534.18	0.00
534.35	30.43
534.52	51.49
534.69	53.83
534.86	42.13
535.03	63.19
535.20	77.24
535.37	49.15
535.54	70.22
535.71	18.72
535.88	0.00
536.05	46.81
536.22	25.75
536.38	88.94
536.55	11.70
536.72	44.47
536.89	56.17
537.06	53.83
537.23	72.56
537.40	131.07
537.57	74.90
537.74	135.75
537.91	91.28
538.08	18.72
538.25	102.98
538.42	65.54
538.59	0.00
538.75	63.19
538.92	11.70
539.09	30.43
539.26	39.79
539.43	44.47
539.60	81.92
539.77	0.00
539.94	63.19
540.11	81.92
540.28	102.98
540.44	70.22
540.61	0.00
540.78	72.56
540.95	44.47
541.12	18.72
541.29	44.47
541.46	35.11
541.62	70.22
541.79	37.45
541.96	140.43
542.13	58.51
542.30	84.26
542.47	53.83
542.63	35.11
542.80	16.38
542.97	25.75
543.14	74.90
543.31	37.45
543.48	35.11
543.64	140.43
543.81	7.02
543.98	0.00
544.15	60.85
544.32	14.04
544.48	124.05
544.65	4.68
544.82	60.85
544.99	88.94
545.16	86.60
545.32	86.60
545.49	84.26
545.66	58.51
545.83	30.43
546.00	53.83
546.16	32.77
546.33	25.75
546.50	9.36
546.67	32.77
546.83	42.13
547.00	77.24
547.17	60.85
547.34	49.15
547.50	56.17
547.67	0.00
547.84	23.41
548.00	70.22
548.17	56.17
548.34	63.19
548.51	46.81
548.67	91.28
548.84	88.94
549.01	107.66
549.18	0.00
549.34	107.66
549.51	131.07
549.68	72.56
549.84	49.15
550.01	44.47
550.18	51.49
550.34	49.15
550.51	44.47
550.68	60.85
550.84	30.43
551.01	21.06
551.18	88.94
551.34	18.72
551.51	58.51
551.68	37.45
551.84	102.98
552.01	121.71
552.18	49.15
552.34	63.19
552.51	28.09
552.68	128.73
552.84	53.83
553.01	46.81
553.18	16.38
553.34	63.19
553.51	28.09
553.67	0.00
553.84	16.38
554.01	100.64
554.17	88.94
554.34	70.22
554.51	56.17
554.67	16.38
554.84	0.00
555.00	98.30
555.17	32.77
555.33	23.41
555.50	63.19
555.67	23.41
555.83	117.03
556.00	65.54
556.16	86.60
556.33	0.00
556.50	9.36
556.66	107.66
556.83	0.00
556.99	112.35
557.16	9.36
557.32	0.00
557.49	117.03
557.65	77.24
557.82	110.01
557.98	63.19
558.15	42.13
558.32	77.24
558.48	84.26
558.65	84.26
558.81	72.56
558.98	44.47
559.14	67.88
559.31	110.01
559.47	112.35
559.64	21.06
559.80	86.60
559.97	49.15
560.13	72.56
560.30	42.13
560.46	67.88
560.63	42.13
560.79	49.15
560.96	70.22
561.12	16.38
561.29	25.75
561.45	9.36
561.61	23.41
561.78	72.56
561.94	67.88
562.11	112.35
562.27	51.49
562.44	63.19
562.60	60.85
562.77	42.13
562.93	98.30
563.10	95.96
563.26	93.62
563.42	18.72
563.59	32.77
563.75	30.43
563.92	0.00
564.08	58.51
564.24	37.45
564.41	39.79
564.57	63.19
564.74	9.36
564.90	0.00
565.07	65.54
565.23	70.22
565.39	53.83
565.56	77.24
565.72	11.70
565.88	95.96
566.05	70.22
566.21	74.90
566.38	79.58
566.54	102.98
566.70	65.54
566.87	42.13
567.03	44.47
567.19	14.04
567.36	79.58
567.52	124.05
567.68	81.92
567.85	7.02
568.01	35.11
568.17	16.38
568.34	44.47
568.50	91.28
568.66	46.81
568.83	35.11
568.99	37.45
569.15	74.90
569.32	63.19
569.48	0.00
569.64	51.49
569.81	42.13
569.97	0.00
570.13	44.47
570.30	16.38
570.46	0.00
570.62	18.72
570.78	84.26
570.95	58.51
571.11	53.83
571.27	46.81
571.43	105.32
571.60	84.26
571.76	46.81
571.92	7.02
572.09	84.26
572.25	9.36
572.41	98.30
572.57	46.81
572.74	42.13
572.90	30.43
573.06	56.17
573.22	30.43
573.38	102.98
573.55	0.00
573.71	0.00
573.87	7.02
574.03	42.13
574.20	84.26
574.36	95.96
574.52	58.51
574.68	74.90
574.84	81.92
575.01	110.01
575.17	65.54
575.33	81.92
575.49	35.11
575.65	51.49
575.82	46.81
575.98	37.45
576.14	39.79
576.30	51.49
576.46	63.19
576.62	119.37
576.79	18.72
576.95	74.90
577.11	16.38
577.27	72.56
577.43	14.04
577.59	93.62
577.75	39.79
577.92	72.56
578.08	0.00
578.24	161.50
578.40	42.13
578.56	100.64
578.72	74.90
578.88	79.58
579.04	67.88
579.21	56.17
579.37	88.94
579.53	53.83
579.69	110.01
579.85	56.17
580.01	67.88
580.17	58.51
580.33	30.43
580.49	74.90
580.65	86.60
580.82	9.36
580.98	18.72
581.14	140.43
581.30	0.00
581.46	81.92
581.62	70.22
581.78	7.02
581.94	7.02
582.10	44.47
582.26	93.62
582.42	98.30
582.58	84.26
582.74	37.45
582.90	110.01
583.06	145.11
583.22	56.17
583.38	56.17
583.54	72.56
583.70	93.62
583.86	44.47
584.02	0.00
584.18	128.73
584.34	110.01
584.50	0.00
584.66	91.28
584.82	46.81
584.98	49.15
585.14	128.73
585.30	0.00
585.46	72.56
585.62	0.00
585.78	0.00
585.94	14.04
586.10	0.00
586.26	42.13
586.42	102.98
586.58	28.09
586.74	74.90
586.90	51.49
587.06	65.54
587.22	30.43
587.38	18.72
587.54	56.17
587.70	51.49
587.86	70.22
588.02	44.47
588.18	0.00
588.34	11.70
588.49	0.00
588.65	65.54
588.81	44.47
588.97	16.38
589.13	37.45
589.29	53.83
589.45	105.32
589.61	46.81
589.77	0.00
589.93	70.22
590.08	18.72
590.24	42.13
590.40	21.06
590.56	53.83
590.72	0.00
590.88	37.45
591.04	53.83
591.20	88.94
591.35	0.00
591.51	72.56
591.67	35.11
591.83	0.00
591.99	100.64
592.15	70.22
592.31	79.58
592.46	63.19
592.62	58.51
592.78	28.09
592.94	39.79
593.10	0.00
593.26	23.41
593.41	74.90
593.57	74.90
593.73	18.72
593.89	25.75
594.05	42.13
594.20	32.77
594.36	46.81
594.52	88.94
594.68	102.98
594.84	117.03
594.99	46.81
595.15	42.13
595.31	49.15
595.47	121.71
595.62	0.00
595.78	0.00
595.94	46.81
596.10	4.68
596.25	28.09
596.41	74.90
596.57	37.45
596.73	0.00
596.88	42.13
597.04	60.85
597.20	56.17
597.36	23.41
597.51	100.64
597.67	107.66
597.83	93.62
597.99	65.54
598.14	35.11
598.30	37.45
598.46	0.00
598.61	81.92
598.77	46.81
598.93	60.85
599.09	65.54
599.24	56.17
599.40	93.62
599.56	110.01
599.71	28.09
599.87	98.30
600.03	56.17
600.18	42.13
600.34	0.00
600.50	28.09
600.65	35.11
600.81	7.02
600.97	30.43
601.12	0.00
601.28	60.85
601.44	32.77
601.59	58.51
601.75	18.72
601.91	44.47
602.06	32.77
602.22	114.69
602.37	4.68
602.53	51.49
602.69	72.56
602.84	25.75
603.00	46.81
603.16	0.00
603.31	46.81
603.47	0.00
603.62	23.41
603.78	70.22
603.94	121.71
604.09	86.60
604.25	44.47
604.40	0.00
604.56	35.11
604.71	0.00
604.87	81.92
605.03	112.35
605.18	35.11
605.34	107.66
605.49	79.58
605.65	81.92
605.80	126.39
605.96	79.58
606.12	28.09
606.27	63.19
606.43	0.00
606.58	0.00
606.74	79.58
606.89	53.83
607.05	65.54
607.20	28.09
607.36	0.00
607.51	0.00
607.67	84.26
607.82	100.64
607.98	32.77
608.13	51.49
608.29	51.49
608.44	65.54
608.60	65.54
608.75	56.17
608.91	14.04
609.06	84.26
609.22	81.92
609.37	30.43
609.53	65.54
609.68	74.90
609.84	119.37
609.99	44.47
610.15	58.51
610.30	23.41
610.46	44.47
610.61	77.24
610.76	74.90
610.92	49.15
611.07	84.26
611.23	72.56
611.38	56.17
611.54	81.92
611.69	88.94
611.84	46.81
612.00	65.54
612.15	91.28
612.31	0.00
612.46	51.49
612.62	9.36
612.77	100.64
612.92	28.09
613.08	88.94
613.23	51.49
613.39	23.41
613.54	39.79
613.69	0.00
613.85	11.70
614.00	35.11
614.15	56.17
614.31	138.09
614.46	60.85
614.62	18.72
614.77	0.00
614.92	23.41
615.08	39.79
615.23	56.17
615.38	53.83
615.54	14.04
615.69	9.36
615.84	65.54
616.00	37.45
616.15	32.77
616.30	56.17
616.46	28.09
616.61	67.88
616.76	67.88
616.92	39.79
617.07	4.68
617.22	0.00
617.37	56.17
617.53	95.96
617.68	32.77
617.83	46.81
617.99	11.70
618.14	81.92
618.29	51.49
618.45	49.15
618.60	49.15
618.75	74.90
618.90	35.11
619.06	4.68
619.21	32.77
619.36	79.58
619.51	70.22
619.67	42.13
619.82	7.02
619.97	114.69
620.12	14.04
620.28	112.35
620.43	84.26
620.58	44.47
620.73	67.88
620.89	67.88
621.04	100.64
621.19	42.13
621.34	46.81
621.49	35.11
621.65	2.34
621.80	110.01
621.95	133.41
622.10	102.98
622.25	91.28
622.41	9.36
622.56	53.83
622.71	18.72
622.86	35.11
623.01	49.15
623.16	18.72
623.32	23.41
623.47	44.47
623.62	70.22
623.77	112.35
623.92	84.26
624.07	81.92
624.23	37.45
624.38	100.64
624.53	100.64
624.68	56.17
624.83	70.22
624.98	0.00
625.13	42.13
625.29	112.35
625.44	16.38
625.59	4.68
625.74	16.38
625.89	0.00
626.04	14.04
626.19	98.30
626.34	49.15
626.49	11.70
626.65	53.83
626.80	35.11
626.95	21.06
627.10	79.58
627.25	79.58
627.40	77.24
627.55	74.90
627.70	56.17
627.85	44.47
628.00	67.88
628.15	60.85
628.30	46.81
628.45	102.98
628.60	37.45
628.76	14.04
628.91	51.49
629.06	25.75
629.21	0.00
629.36	58.51
629.51	95.96
629.66	88.94
629.81	37.45
629.96	58.51
630.11	39.79
630.26	16.38
630.41	35.11
630.56	49.15
630.71	4.68
630.86	77.24
631.01	67.88
631.16	42.13
631.31	32.77
631.46	46.81
631.61	124.05
631.76	58.51
631.91	42.13
632.06	60.85
632.21	72.56
632.36	67.88
632.51	0.00
632.66	67.88
632.81	65.54
632.96	25.75
633.10	86.60
633.25	107.66
633.40	70.22
633.55	70.22
633.70	18.72
633.85	37.45
634.00	53.83
634.15	39.79
634.30	63.19
634.45	56.17
634.60	11.70
634.75	7.02
634.90	79.58
635.05	35.11
635.19	0.00
635.34	46.81
635.49	44.47
635.64	63.19
635.79	4.68
635.94	84.26
636.09	21.06
636.24	65.54
636.39	145.11
636.53	98.30
636.68	67.88
636.83	0.00
636.98	4.68
637.13	7.02
637.28	4.68
637.43	0.00
637.57	16.38
637.72	58.51
637.87	23.41
638.02	9.36
638.17	63.19
638.32	18.72
638.46	58.51
638.61	39.79
638.76	110.01
638.91	7.02
639.06	39.79
639.20	0.00
639.35	56.17
639.50	131.07
639.65	35.11
639.80	35.11
639.94	107.66
640.09	35.11
640.24	56.17
640.39	84.26
640.54	110.01
640.68	74.90
640.83	53.83
640.98	0.00
641.13	56.17
641.27	0.00
641.42	0.00
641.57	9.36
641.72	86.60
641.86	93.62
642.01	95.96
642.16	100.64
642.31	32.77
642.45	51.49
642.60	79.58
642.75	14.04
642.90	0.00
643.04	14.04
643.19	25.75
643.34	11.70
643.48	95.96
643.63	79.58
643.78	112.35
643.93	0.00
644.07	79.58
644.22	0.00
644.37	35.11
644.51	0.00
644.66	14.04
644.81	0.00
644.95	37.45
645.10	51.49
645.25	42.13
645.39	0.00
645.54	51.49
645.69	4.68
645.83	7.02
645.98	84.26
646.13	0.00
646.27	67.88
646.42	49.15
646.57	30.43
646.71	70.22
646.86	98.30
647.00	0.00
647.15	28.09
647.30	32.77
647.44	30.43
647.59	37.45
647.74	28.09
647.88	32.77
648.03	105.32
648.17	102.98
648.32	84.26
648.47	51.49
648.61	79.58
648.76	86.60
648.90	56.17
649.05	65.54
649.20	74.90
649.34	0.00
649.49	56.17
649.63	30.43
649.78	21.06
649.92	30.43
650.07	72.56
650.21	0.00
650.36	0.00
650.51	0.00
650.65	72.56
650.80	74.90
650.94	65.54
651.09	0.00
651.23	79.58
651.38	79.58
651.52	30.43
651.67	11.70
651.81	7.02
651.96	58.51
652.10	35.11
652.25	58.51
652.39	32.77
652.54	23.41
652.68	0.00
652.83	11.70
652.97	21.06
653.12	81.92
653.26	39.79
653.41	49.15
653.55	14.04
653.70	39.79
653.84	0.00
653.99	7.02
654.13	0.00
654.27	28.09
654.42	77.24
654.56	100.64
654.71	18.72
654.85	16.38
655.00	21.06
655.14	30.43
655.29	0.00
655.43	112.35
655.57	102.98
655.72	0.00
655.86	67.88
656.01	84.26
656.15	105.32
656.30	46.81
656.44	18.72
656.58	4.68
656.73	32.77
656.87	65.54
657.01	23.41
657.16	4.68
657.30	53.83
657.45	4.68
657.59	67.88
657.73	4.68
657.88	16.38
658.02	25.75
658.16	0.00
658.31	56.17
658.45	14.04
658.60	49.15
658.74	37.45
658.88	21.06
659.03	39.79
659.17	42.13
659.31	0.00
659.46	0.00
659.60	84.26
659.74	37.45
659.89	72.56
660.03	21.06
660.17	32.77
660.32	79.58
660.46	51.49
660.60	60.85
660.74	2.34
660.89	86.60
661.03	63.19
661.17	0.00
661.32	4.68
661.46	32.77
661.60	21.06
661.74	63.19
661.89	42.13
662.03	35.11
662.17	35.11
662.31	91.28
662.46	42.13
662.60	37.45
662.74	102.98
662.88	65.54
663.03	63.19
663.17	32.77
663.31	25.75
663.45	16.38
663.60	32.77
663.74	0.00
663.88	65.54
664.02	46.81
664.17	0.00
664.31	0.00
664.45	39.79
664.59	63.19
664.73	0.00
664.88	63.19
665.02	0.00
665.16	105.32
665.30	65.54
665.44	35.11
665.59	16.38
665.73	16.38
665.87	107.66
666.01	77.24
666.15	4.68
666.29	23.41
666.44	9.36
666.58	11.70
666.72	46.81
666.86	32.77
667.00	70.22
667.14	53.83
667.28	35.11
667.43	44.47
667.57	0.00
667.71	0.00
667.85	79.58
667.99	110.01
668.13	91.28
668.27	21.06
668.41	63.19
668.56	0.00
668.70	58.51
668.84	21.06
668.98	0.00
669.12	39.79
669.26	128.73
669.40	112.35
669.54	39.79
669.68	23.41
669.82	77.24
669.96	60.85
670.10	11.70
670.25	0.00
670.39	7.02
670.53	0.00
670.67	81.92
670.81	11.70
670.95	72.56
671.09	32.77
671.23	88.94
671.37	72.56
671.51	46.81
671.65	28.09
671.79	67.88
671.93	25.75
672.07	28.09
672.21	60.85
672.35	86.60
672.49	72.56
672.63	46.81
672.77	30.43
672.91	70.22
673.05	58.51
673.19	51.49
673.33	0.00
673.47	49.15
673.61	11.70
673.75	72.56
673.89	0.00
674.03	0.00
674.17	84.26
674.31	30.43
674.45	39.79
674.59	39.79
674.73	16.38
674.87	18.72
675.01	65.54
675.15	63.19
675.29	18.72
675.43	21.06
675.56	0.00
675.70	58.51
675.84	21.06
675.98	88.94
676.12	126.39
676.26	81.92
676.40	11.70
676.54	39.79
676.68	81.92
676.82	63.19
676.96	44.47
677.10	53.83
677.23	39.79
677.37	95.96
677.51	14.04
677.65	72.56
677.79	23.41
677.93	44.47
678.07	35.11
678.21	46.81
678.34	79.58
678.48	44.47
678.62	65.54
678.76	18.72
678.90	32.77
679.04	98.30
679.18	49.15
679.31	60.85
679.45	81.92
679.59	25.75
679.73	95.96
679.87	0.00
680.00	35.11
680.14	65.54
680.28	0.00
680.42	16.38
680.56	32.77
680.70	102.98
680.83	14.04
680.97	0.00
681.11	0.00
681.25	35.11
681.39	72.56
681.52	21.06
681.66	14.04
681.80	0.00
681.94	67.88
682.07	25.75
682.21	30.43
682.35	72.56
682.49	39.79
682.62	56.17
682.76	21.06
682.90	28.09
683.04	21.06
683.17	0.00
683.31	25.75
683.45	53.83
683.59	112.35
683.72	0.00
683.86	46.81
684.00	16.38
684.13	0.00
684.27	67.88
684.41	56.17
684.55	28.09
684.68	39.79
684.82	100.64
684.96	0.00
685.09	35.11
685.23	4.68
685.37	0.00
685.50	49.15
685.64	16.38
685.78	88.94
685.91	72.56
686.05	72.56
686.19	7.02
686.32	11.70
686.46	70.22
686.60	60.85
686.73	60.85
686.87	65.54
687.01	9.36
687.14	79.58
687.28	49.15
687.42	0.00
687.55	56.17
687.69	14.04
687.82	0.00
687.96	21.06
688.10	70.22
688.23	49.15
688.37	30.43
688.50	21.06
688.64	42.13
688.78	56.17
688.91	39.79
689.05	0.00
689.18	32.77
689.32	4.68
689.46	18.72
689.59	42.13
689.73	67.88
689.86	65.54
690.00	81.92
690.13	51.49
690.27	74.90
690.41	23.41
690.54	30.43
690.68	23.41
690.81	35.11
690.95	0.00
691.08	72.56
691.22	63.19
691.35	0.00
691.49	98.30
691.62	35.11
691.76	28.09
691.89	95.96
692.03	30.43
692.16	0.00
692.30	93.62
692.43	21.06
692.57	25.75
692.70	60.85
692.84	65.54
692.97	60.85
693.11	0.00
693.24	70.22
693.38	0.00
693.51	14.04
693.65	35.11
693.78	56.17
693.92	53.83
694.05	74.90
694.19	14.04
694.32	51.49
694.45	14.04
694.59	60.85
694.72	0.00
694.86	39.79
694.99	32.77
695.13	91.28
695.26	46.81
695.39	23.41
695.53	65.54
695.66	18.72
695.80	72.56
695.93	0.00
696.07	67.88
696.20	11.70
696.33	9.36
696.47	32.77
696.60	23.41
696.73	23.41
696.87	65.54
697.00	23.41
697.14	0.00
697.27	18.72
697.40	30.43
697.54	102.98
697.67	58.51
697.80	58.51
697.94	21.06
698.07	21.06
698.21	30.43
698.34	9.36
698.47	30.43
698.61	102.98
698.74	18.72
698.87	107.66
699.01	86.60
699.14	49.15
699.27	81.92
699.40	60.85
699.54	14.04
699.67	100.64
699.80	4.68
699.94	42.13
700.07	86.60
700.20	147.45
700.34	4.68
700.47	53.83
700.60	14.04
700.73	2.34
700.87	37.45
701.00	37.45
701.13	0.00
701.26	35.11
701.40	77.24
701.53	30.43
701.66	0.00
701.79	93.62
701.93	25.75
702.06	4.68
702.19	42.13
702.32	23.41
702.46	42.13
702.59	0.00
702.72	0.00
702.85	0.00
702.99	2.34
703.12	79.58
703.25	56.17
703.38	18.72
703.51	58.51
703.65	70.22
703.78	44.47
703.91	51.49
704.04	117.03
704.17	98.30
704.31	0.00
704.44	14.04
704.57	23.41
704.70	44.47
704.83	56.17
704.96	21.06
705.10	93.62
705.23	67.88
>>>>>End Processed Spectral Data<<<<<
