SpectraSuite Data File
++++++++++++++++++++++++++++++++++++
Date: Fri Oct 04 12:13:25 GMT-05:00 2013
User: price-jones
Dark Spectrum Present: No
Reference Spectrum Present: No
Number of Sampled Component Spectra: 1
Spectrometers: USB2+H05261
Integration Time (usec): 10000 (USB2+H05261)
Spectra Averaged: 1 (USB2+H05261)
Boxcar Smoothing: 0 (USB2+H05261)
Correct for Electrical Dark: No (USB2+H05261)
Strobe/Lamp Enabled: No (USB2+H05261)
Correct for Detector Non-linearity: No (USB2+H05261)
Correct for Stray Light: No (USB2+H05261)
Number of Pixels in Processed Spectrum: 2048
>>>>>Begin Processed Spectral Data<<<<<
365.73	0.00
365.92	0.00
366.12	0.00
366.32	0.00
366.52	0.00
366.72	0.00
366.91	0.00
367.11	0.00
367.31	0.00
367.51	0.00
367.70	0.00
367.90	0.00
368.10	0.00
368.30	0.00
368.49	0.00
368.69	0.00
368.89	0.00
369.09	0.00
369.28	0.00
369.48	0.00
369.68	0.00
369.87	0.00
370.07	0.00
370.27	0.00
370.47	0.00
370.66	0.00
370.86	0.00
371.06	21.06
371.25	0.00
371.45	0.00
371.65	0.00
371.84	0.00
372.04	0.00
372.24	35.11
372.44	39.79
372.63	0.00
372.83	79.58
373.03	16.38
373.22	0.00
373.42	35.11
373.62	0.00
373.81	49.15
374.01	131.07
374.21	72.56
374.40	58.51
374.60	21.06
374.79	72.56
374.99	42.13
375.19	0.00
375.38	65.54
375.58	2.34
375.78	25.75
375.97	0.00
376.17	4.68
376.37	0.00
376.56	35.11
376.76	63.19
376.95	51.49
377.15	53.83
377.35	53.83
377.54	37.45
377.74	14.04
377.93	42.13
378.13	0.00
378.33	0.00
378.52	14.04
378.72	37.45
378.91	30.43
379.11	0.00
379.31	32.77
379.50	44.47
379.70	39.79
379.89	0.00
380.09	32.77
380.28	0.00
380.48	7.02
380.68	0.00
380.87	98.30
381.07	0.00
381.26	77.24
381.46	9.36
381.65	46.81
381.85	14.04
382.04	0.00
382.24	49.15
382.43	9.36
382.63	81.92
382.83	2.34
383.02	0.00
383.22	63.19
383.41	0.00
383.61	37.45
383.80	0.00
384.00	0.00
384.19	0.00
384.39	0.00
384.58	0.00
384.78	0.00
384.97	32.77
385.17	32.77
385.36	0.00
385.56	21.06
385.75	11.70
385.95	2.34
386.14	2.34
386.34	28.09
386.53	18.72
386.72	0.00
386.92	0.00
387.11	0.00
387.31	28.09
387.50	14.04
387.70	0.00
387.89	0.00
388.09	58.51
388.28	124.05
388.48	63.19
388.67	9.36
388.86	18.72
389.06	0.00
389.25	79.58
389.45	74.90
389.64	0.00
389.84	0.00
390.03	0.00
390.22	0.00
390.42	0.00
390.61	28.09
390.81	18.72
391.00	16.38
391.19	70.22
391.39	46.81
391.58	35.11
391.78	16.38
391.97	63.19
392.16	110.01
392.36	51.49
392.55	42.13
392.75	74.90
392.94	39.79
393.13	42.13
393.33	0.00
393.52	63.19
393.71	46.81
393.91	14.04
394.10	16.38
394.29	16.38
394.49	0.00
394.68	23.41
394.88	0.00
395.07	23.41
395.26	0.00
395.46	0.00
395.65	28.09
395.84	35.11
396.04	30.43
396.23	56.17
396.42	0.00
396.62	0.00
396.81	44.47
397.00	0.00
397.19	16.38
397.39	23.41
397.58	56.17
397.77	49.15
397.97	0.00
398.16	25.75
398.35	14.04
398.55	18.72
398.74	30.43
398.93	37.45
399.12	0.00
399.32	2.34
399.51	93.62
399.70	67.88
399.90	91.28
400.09	0.00
400.28	0.00
400.47	0.00
400.67	30.43
400.86	2.34
401.05	72.56
401.24	23.41
401.44	18.72
401.63	2.34
401.82	39.79
402.01	0.00
402.21	18.72
402.40	37.45
402.59	7.02
402.78	0.00
402.97	39.79
403.17	30.43
403.36	0.00
403.55	105.32
403.74	37.45
403.93	0.00
404.13	0.00
404.32	39.79
404.51	23.41
404.70	2.34
404.89	4.68
405.09	0.00
405.28	60.85
405.47	30.43
405.66	74.90
405.85	0.00
406.05	77.24
406.24	74.90
406.43	28.09
406.62	30.43
406.81	0.00
407.00	25.75
407.20	53.83
407.39	28.09
407.58	35.11
407.77	0.00
407.96	32.77
408.15	21.06
408.34	35.11
408.54	32.77
408.73	93.62
408.92	16.38
409.11	4.68
409.30	46.81
409.49	58.51
409.68	9.36
409.87	9.36
410.07	32.77
410.26	4.68
410.45	53.83
410.64	138.09
410.83	56.17
411.02	74.90
411.21	74.90
411.40	39.79
411.59	49.15
411.78	0.00
411.98	4.68
412.17	7.02
412.36	25.75
412.55	49.15
412.74	46.81
412.93	60.85
413.12	79.58
413.31	100.64
413.50	21.06
413.69	42.13
413.88	35.11
414.07	30.43
414.26	53.83
414.45	7.02
414.64	7.02
414.83	0.00
415.02	56.17
415.22	70.22
415.41	28.09
415.60	65.54
415.79	39.79
415.98	91.28
416.17	56.17
416.36	2.34
416.55	35.11
416.74	0.00
416.93	49.15
417.12	51.49
417.31	42.13
417.50	72.56
417.69	65.54
417.88	84.26
418.07	21.06
418.26	0.00
418.45	11.70
418.64	28.09
418.83	84.26
419.02	0.00
419.21	30.43
419.39	51.49
419.58	0.00
419.77	70.22
419.96	53.83
420.15	0.00
420.34	25.75
420.53	16.38
420.72	77.24
420.91	14.04
421.10	0.00
421.29	81.92
421.48	39.79
421.67	9.36
421.86	79.58
422.05	65.54
422.24	18.72
422.43	37.45
422.61	46.81
422.80	7.02
422.99	93.62
423.18	37.45
423.37	16.38
423.56	0.00
423.75	0.00
423.94	0.00
424.13	49.15
424.32	0.00
424.50	91.28
424.69	77.24
424.88	32.77
425.07	25.75
425.26	107.66
425.45	28.09
425.64	60.85
425.83	39.79
426.01	18.72
426.20	51.49
426.39	21.06
426.58	49.15
426.77	11.70
426.96	46.81
427.15	70.22
427.33	65.54
427.52	4.68
427.71	0.00
427.90	23.41
428.09	60.85
428.28	7.02
428.46	93.62
428.65	23.41
428.84	88.94
429.03	11.70
429.22	0.00
429.40	98.30
429.59	14.04
429.78	72.56
429.97	37.45
430.16	28.09
430.34	0.00
430.53	23.41
430.72	0.00
430.91	9.36
431.10	35.11
431.28	39.79
431.47	28.09
431.66	0.00
431.85	84.26
432.03	79.58
432.22	72.56
432.41	49.15
432.60	49.15
432.79	114.69
432.97	25.75
433.16	88.94
433.35	93.62
433.54	51.49
433.72	60.85
433.91	2.34
434.10	39.79
434.28	18.72
434.47	72.56
434.66	37.45
434.85	7.02
435.03	70.22
435.22	14.04
435.41	86.60
435.59	0.00
435.78	51.49
435.97	0.00
436.16	93.62
436.34	49.15
436.53	0.00
436.72	23.41
436.90	77.24
437.09	51.49
437.28	91.28
437.46	74.90
437.65	65.54
437.84	42.13
438.02	39.79
438.21	37.45
438.40	102.98
438.58	0.00
438.77	18.72
438.96	112.35
439.14	79.58
439.33	86.60
439.52	63.19
439.70	95.96
439.89	0.00
440.08	79.58
440.26	39.79
440.45	18.72
440.63	49.15
440.82	0.00
441.01	0.00
441.19	0.00
441.38	7.02
441.57	25.75
441.75	65.54
441.94	51.49
442.12	0.00
442.31	35.11
442.50	0.00
442.68	60.85
442.87	37.45
443.05	53.83
443.24	74.90
443.43	60.85
443.61	23.41
443.80	65.54
443.98	56.17
444.17	4.68
444.35	42.13
444.54	0.00
444.73	74.90
444.91	98.30
445.10	0.00
445.28	0.00
445.47	4.68
445.65	25.75
445.84	35.11
446.02	11.70
446.21	65.54
446.39	0.00
446.58	0.00
446.77	51.49
446.95	0.00
447.14	0.00
447.32	0.00
447.51	56.17
447.69	0.00
447.88	16.38
448.06	84.26
448.25	58.51
448.43	9.36
448.62	84.26
448.80	56.17
448.99	16.38
449.17	77.24
449.36	42.13
449.54	35.11
449.73	30.43
449.91	60.85
450.10	74.90
450.28	65.54
450.46	0.00
450.65	51.49
450.83	46.81
451.02	0.00
451.20	4.68
451.39	37.45
451.57	9.36
451.76	93.62
451.94	0.00
452.13	72.56
452.31	39.79
452.49	79.58
452.68	51.49
452.86	102.98
453.05	37.45
453.23	56.17
453.42	0.00
453.60	0.00
453.78	18.72
453.97	0.00
454.15	30.43
454.34	0.00
454.52	67.88
454.70	91.28
454.89	51.49
455.07	0.00
455.26	77.24
455.44	0.00
455.62	42.13
455.81	0.00
455.99	0.00
456.17	53.83
456.36	93.62
456.54	23.41
456.73	0.00
456.91	102.98
457.09	98.30
457.28	32.77
457.46	46.81
457.64	81.92
457.83	7.02
458.01	0.00
458.19	44.47
458.38	84.26
458.56	11.70
458.74	42.13
458.93	63.19
459.11	67.88
459.29	53.83
459.48	23.41
459.66	32.77
459.84	9.36
460.03	25.75
460.21	67.88
460.39	65.54
460.57	0.00
460.76	0.00
460.94	46.81
461.12	23.41
461.31	7.02
461.49	9.36
461.67	0.00
461.85	4.68
462.04	0.00
462.22	39.79
462.40	37.45
462.59	114.69
462.77	95.96
462.95	39.79
463.13	72.56
463.32	44.47
463.50	56.17
463.68	72.56
463.86	126.39
464.05	91.28
464.23	21.06
464.41	0.00
464.59	0.00
464.78	28.09
464.96	95.96
465.14	63.19
465.32	0.00
465.50	7.02
465.69	81.92
465.87	84.26
466.05	77.24
466.23	56.17
466.41	4.68
466.60	0.00
466.78	0.00
466.96	49.15
467.14	95.96
467.32	0.00
467.51	0.00
467.69	35.11
467.87	93.62
468.05	53.83
468.23	42.13
468.41	37.45
468.60	0.00
468.78	25.75
468.96	16.38
469.14	11.70
469.32	51.49
469.50	53.83
469.69	0.00
469.87	70.22
470.05	9.36
470.23	74.90
470.41	32.77
470.59	14.04
470.77	58.51
470.95	0.00
471.14	65.54
471.32	0.00
471.50	44.47
471.68	42.13
471.86	21.06
472.04	2.34
472.22	77.24
472.40	21.06
472.58	46.81
472.77	30.43
472.95	16.38
473.13	2.34
473.31	0.00
473.49	53.83
473.67	0.00
473.85	23.41
474.03	2.34
474.21	53.83
474.39	21.06
474.57	56.17
474.75	16.38
474.93	25.75
475.12	58.51
475.30	42.13
475.48	4.68
475.66	14.04
475.84	70.22
476.02	79.58
476.20	56.17
476.38	0.00
476.56	0.00
476.74	25.75
476.92	39.79
477.10	2.34
477.28	23.41
477.46	7.02
477.64	7.02
477.82	35.11
478.00	0.00
478.18	79.58
478.36	9.36
478.54	39.79
478.72	53.83
478.90	9.36
479.08	60.85
479.26	65.54
479.44	56.17
479.62	107.66
479.80	72.56
479.98	49.15
480.16	9.36
480.34	63.19
480.52	9.36
480.70	72.56
480.88	16.38
481.06	18.72
481.24	11.70
481.41	4.68
481.59	37.45
481.77	42.13
481.95	53.83
482.13	28.09
482.31	42.13
482.49	0.00
482.67	32.77
482.85	30.43
483.03	63.19
483.21	37.45
483.39	56.17
483.57	72.56
483.74	25.75
483.92	58.51
484.10	21.06
484.28	74.90
484.46	44.47
484.64	100.64
484.82	0.00
485.00	16.38
485.18	65.54
485.35	4.68
485.53	63.19
485.71	65.54
485.89	56.17
486.07	37.45
486.25	74.90
486.43	65.54
486.61	42.13
486.78	23.41
486.96	0.00
487.14	58.51
487.32	37.45
487.50	93.62
487.68	42.13
487.85	63.19
488.03	74.90
488.21	95.96
488.39	30.43
488.57	32.77
488.75	42.13
488.92	65.54
489.10	0.00
489.28	0.00
489.46	0.00
489.64	79.58
489.81	51.49
489.99	0.00
490.17	37.45
490.35	11.70
490.53	39.79
490.70	56.17
490.88	56.17
491.06	25.75
491.24	42.13
491.41	46.81
491.59	58.51
491.77	44.47
491.95	37.45
492.13	2.34
492.30	42.13
492.48	0.00
492.66	14.04
492.84	39.79
493.01	4.68
493.19	9.36
493.37	56.17
493.54	46.81
493.72	67.88
493.90	53.83
494.08	105.32
494.25	39.79
494.43	46.81
494.61	56.17
494.79	11.70
494.96	44.47
495.14	46.81
495.32	4.68
495.49	86.60
495.67	7.02
495.85	51.49
496.02	51.49
496.20	56.17
496.38	74.90
496.55	0.00
496.73	30.43
496.91	0.00
497.09	28.09
497.26	32.77
497.44	28.09
497.62	23.41
497.79	39.79
497.97	0.00
498.14	39.79
498.32	16.38
498.50	100.64
498.67	145.11
498.85	51.49
499.03	46.81
499.20	0.00
499.38	58.51
499.56	91.28
499.73	102.98
499.91	11.70
500.08	86.60
500.26	37.45
500.44	70.22
500.61	2.34
500.79	93.62
500.97	105.32
501.14	0.00
501.32	72.56
501.49	70.22
501.67	28.09
501.84	65.54
502.02	32.77
502.20	105.32
502.37	70.22
502.55	30.43
502.72	37.45
502.90	18.72
503.07	46.81
503.25	42.13
503.43	60.85
503.60	21.06
503.78	91.28
503.95	37.45
504.13	4.68
504.30	70.22
504.48	23.41
504.65	30.43
504.83	35.11
505.01	0.00
505.18	67.88
505.36	74.90
505.53	112.35
505.71	72.56
505.88	0.00
506.06	35.11
506.23	0.00
506.41	49.15
506.58	98.30
506.76	30.43
506.93	58.51
507.11	63.19
507.28	42.13
507.46	16.38
507.63	100.64
507.81	93.62
507.98	79.58
508.16	105.32
508.33	0.00
508.50	98.30
508.68	63.19
508.85	67.88
509.03	44.47
509.20	105.32
509.38	46.81
509.55	67.88
509.73	25.75
509.90	18.72
510.08	72.56
510.25	0.00
510.42	86.60
510.60	32.77
510.77	77.24
510.95	30.43
511.12	35.11
511.30	105.32
511.47	11.70
511.64	95.96
511.82	32.77
511.99	37.45
512.17	63.19
512.34	21.06
512.51	23.41
512.69	9.36
512.86	0.00
513.04	86.60
513.21	2.34
513.38	23.41
513.56	44.47
513.73	79.58
513.90	0.00
514.08	0.00
514.25	0.00
514.43	86.60
514.60	107.66
514.77	4.68
514.95	51.49
515.12	93.62
515.29	9.36
515.47	0.00
515.64	46.81
515.81	95.96
515.99	0.00
516.16	14.04
516.33	65.54
516.51	0.00
516.68	4.68
516.85	79.58
517.03	0.00
517.20	67.88
517.37	25.75
517.54	16.38
517.72	11.70
517.89	86.60
518.06	0.00
518.24	0.00
518.41	0.00
518.58	53.83
518.75	70.22
518.93	65.54
519.10	0.00
519.27	23.41
519.45	70.22
519.62	51.49
519.79	14.04
519.96	21.06
520.14	14.04
520.31	51.49
520.48	32.77
520.65	0.00
520.83	11.70
521.00	58.51
521.17	39.79
521.34	0.00
521.52	51.49
521.69	65.54
521.86	42.13
522.03	30.43
522.20	0.00
522.38	56.17
522.55	39.79
522.72	28.09
522.89	37.45
523.07	98.30
523.24	37.45
523.41	30.43
523.58	51.49
523.75	7.02
523.92	0.00
524.10	49.15
524.27	9.36
524.44	42.13
524.61	77.24
524.78	0.00
524.96	4.68
525.13	0.00
525.30	63.19
525.47	18.72
525.64	42.13
525.81	46.81
525.98	18.72
526.16	25.75
526.33	30.43
526.50	0.00
526.67	16.38
526.84	60.85
527.01	42.13
527.18	23.41
527.36	81.92
527.53	32.77
527.70	0.00
527.87	0.00
528.04	32.77
528.21	11.70
528.38	42.13
528.55	21.06
528.72	4.68
528.89	25.75
529.07	56.17
529.24	53.83
529.41	72.56
529.58	28.09
529.75	60.85
529.92	107.66
530.09	60.85
530.26	51.49
530.43	16.38
530.60	32.77
530.77	25.75
530.94	0.00
531.11	51.49
531.28	65.54
531.46	23.41
531.63	0.00
531.80	53.83
531.97	42.13
532.14	11.70
532.31	56.17
532.48	74.90
532.65	100.64
532.82	98.30
532.99	81.92
533.16	65.54
533.33	67.88
533.50	0.00
533.67	112.35
533.84	42.13
534.01	0.00
534.18	0.00
534.35	25.75
534.52	32.77
534.69	58.51
534.86	37.45
535.03	18.72
535.20	72.56
535.37	53.83
535.54	0.00
535.71	42.13
535.88	0.00
536.05	14.04
536.22	53.83
536.38	23.41
536.55	93.62
536.72	53.83
536.89	0.00
537.06	110.01
537.23	0.00
537.40	49.15
537.57	16.38
537.74	23.41
537.91	4.68
538.08	74.90
538.25	100.64
538.42	0.00
538.59	58.51
538.75	67.88
538.92	0.00
539.09	4.68
539.26	7.02
539.43	23.41
539.60	91.28
539.77	0.00
539.94	0.00
540.11	84.26
540.28	51.49
540.44	95.96
540.61	2.34
540.78	0.00
540.95	46.81
541.12	84.26
541.29	44.47
541.46	42.13
541.62	2.34
541.79	18.72
541.96	18.72
542.13	7.02
542.30	4.68
542.47	77.24
542.63	23.41
542.80	0.00
542.97	60.85
543.14	21.06
543.31	44.47
543.48	18.72
543.64	0.00
543.81	39.79
543.98	25.75
544.15	23.41
544.32	21.06
544.48	25.75
544.65	74.90
544.82	58.51
544.99	32.77
545.16	0.00
545.32	77.24
545.49	46.81
545.66	147.45
545.83	0.00
546.00	63.19
546.16	74.90
546.33	81.92
546.50	0.00
546.67	42.13
546.83	0.00
547.00	39.79
547.17	0.00
547.34	32.77
547.50	79.58
547.67	25.75
547.84	0.00
548.00	21.06
548.17	46.81
548.34	0.00
548.51	102.98
548.67	154.48
548.84	49.15
549.01	37.45
549.18	53.83
549.34	11.70
549.51	30.43
549.68	46.81
549.84	11.70
550.01	0.00
550.18	46.81
550.34	32.77
550.51	58.51
550.68	133.41
550.84	44.47
551.01	49.15
551.18	102.98
551.34	30.43
551.51	67.88
551.68	18.72
551.84	110.01
552.01	46.81
552.18	25.75
552.34	60.85
552.51	67.88
552.68	93.62
552.84	44.47
553.01	21.06
553.18	74.90
553.34	121.71
553.51	60.85
553.67	21.06
553.84	91.28
554.01	63.19
554.17	25.75
554.34	7.02
554.51	81.92
554.67	67.88
554.84	42.13
555.00	0.00
555.17	9.36
555.33	39.79
555.50	79.58
555.67	39.79
555.83	28.09
556.00	7.02
556.16	98.30
556.33	32.77
556.50	4.68
556.66	0.00
556.83	51.49
556.99	0.00
557.16	30.43
557.32	35.11
557.49	81.92
557.65	102.98
557.82	0.00
557.98	93.62
558.15	4.68
558.32	37.45
558.48	32.77
558.65	0.00
558.81	63.19
558.98	4.68
559.14	0.00
559.31	0.00
559.47	51.49
559.64	67.88
559.80	25.75
559.97	84.26
560.13	56.17
560.30	56.17
560.46	100.64
560.63	30.43
560.79	39.79
560.96	53.83
561.12	72.56
561.29	0.00
561.45	0.00
561.61	7.02
561.78	77.24
561.94	32.77
562.11	58.51
562.27	58.51
562.44	0.00
562.60	0.00
562.77	37.45
562.93	30.43
563.10	28.09
563.26	84.26
563.42	14.04
563.59	98.30
563.75	23.41
563.92	32.77
564.08	11.70
564.24	0.00
564.41	42.13
564.57	65.54
564.74	67.88
564.90	77.24
565.07	28.09
565.23	18.72
565.39	100.64
565.56	121.71
565.72	37.45
565.88	21.06
566.05	86.60
566.21	0.00
566.38	9.36
566.54	9.36
566.70	0.00
566.87	93.62
567.03	49.15
567.19	28.09
567.36	88.94
567.52	0.00
567.68	67.88
567.85	65.54
568.01	37.45
568.17	56.17
568.34	46.81
568.50	42.13
568.66	44.47
568.83	37.45
568.99	70.22
569.15	32.77
569.32	23.41
569.48	51.49
569.64	100.64
569.81	21.06
569.97	117.03
570.13	25.75
570.30	67.88
570.46	107.66
570.62	67.88
570.78	53.83
570.95	100.64
571.11	63.19
571.27	9.36
571.43	0.00
571.60	114.69
571.76	110.01
571.92	28.09
572.09	4.68
572.25	0.00
572.41	0.00
572.57	63.19
572.74	0.00
572.90	0.00
573.06	42.13
573.22	21.06
573.38	21.06
573.55	42.13
573.71	74.90
573.87	53.83
574.03	0.00
574.20	67.88
574.36	91.28
574.52	51.49
574.68	70.22
574.84	35.11
575.01	53.83
575.17	7.02
575.33	51.49
575.49	46.81
575.65	63.19
575.82	0.00
575.98	65.54
576.14	93.62
576.30	30.43
576.46	32.77
576.62	49.15
576.79	35.11
576.95	30.43
577.11	30.43
577.27	98.30
577.43	32.77
577.59	51.49
577.75	32.77
577.92	21.06
578.08	0.00
578.24	0.00
578.40	74.90
578.56	37.45
578.72	84.26
578.88	51.49
579.04	124.05
579.21	0.00
579.37	42.13
579.53	2.34
579.69	35.11
579.85	14.04
580.01	9.36
580.17	4.68
580.33	30.43
580.49	53.83
580.65	0.00
580.82	37.45
580.98	81.92
581.14	65.54
581.30	30.43
581.46	14.04
581.62	0.00
581.78	53.83
581.94	51.49
582.10	0.00
582.26	14.04
582.42	112.35
582.58	79.58
582.74	91.28
582.90	63.19
583.06	63.19
583.22	58.51
583.38	30.43
583.54	0.00
583.70	0.00
583.86	72.56
584.02	42.13
584.18	74.90
584.34	16.38
584.50	51.49
584.66	51.49
584.82	67.88
584.98	39.79
585.14	112.35
585.30	35.11
585.46	2.34
585.62	51.49
585.78	124.05
585.94	46.81
586.10	30.43
586.26	65.54
586.42	11.70
586.58	18.72
586.74	32.77
586.90	67.88
587.06	79.58
587.22	39.79
587.38	37.45
587.54	131.07
587.70	0.00
587.86	16.38
588.02	46.81
588.18	0.00
588.34	0.00
588.49	74.90
588.65	4.68
588.81	18.72
588.97	81.92
589.13	42.13
589.29	30.43
589.45	42.13
589.61	0.00
589.77	23.41
589.93	16.38
590.08	65.54
590.24	32.77
590.40	49.15
590.56	0.00
590.72	0.00
590.88	56.17
591.04	42.13
591.20	9.36
591.35	49.15
591.51	74.90
591.67	0.00
591.83	28.09
591.99	0.00
592.15	70.22
592.31	42.13
592.46	25.75
592.62	65.54
592.78	0.00
592.94	42.13
593.10	56.17
593.26	4.68
593.41	14.04
593.57	37.45
593.73	11.70
593.89	39.79
594.05	39.79
594.20	65.54
594.36	35.11
594.52	18.72
594.68	63.19
594.84	0.00
594.99	42.13
595.15	21.06
595.31	30.43
595.47	0.00
595.62	14.04
595.78	0.00
595.94	14.04
596.10	0.00
596.25	63.19
596.41	18.72
596.57	0.00
596.73	65.54
596.88	65.54
597.04	58.51
597.20	23.41
597.36	58.51
597.51	11.70
597.67	46.81
597.83	100.64
597.99	23.41
598.14	30.43
598.30	0.00
598.46	77.24
598.61	70.22
598.77	28.09
598.93	0.00
599.09	18.72
599.24	133.41
599.40	49.15
599.56	70.22
599.71	16.38
599.87	0.00
600.03	98.30
600.18	35.11
600.34	70.22
600.50	30.43
600.65	102.98
600.81	53.83
600.97	74.90
601.12	39.79
601.28	49.15
601.44	58.51
601.59	16.38
601.75	37.45
601.91	86.60
602.06	14.04
602.22	0.00
602.37	35.11
602.53	74.90
602.69	35.11
602.84	0.00
603.00	46.81
603.16	60.85
603.31	0.00
603.47	77.24
603.62	74.90
603.78	9.36
603.94	21.06
604.09	60.85
604.25	105.32
604.40	0.00
604.56	16.38
604.71	74.90
604.87	110.01
605.03	21.06
605.18	35.11
605.34	0.00
605.49	81.92
605.65	30.43
605.80	14.04
605.96	0.00
606.12	0.00
606.27	0.00
606.43	107.66
606.58	51.49
606.74	98.30
606.89	42.13
607.05	9.36
607.20	0.00
607.36	32.77
607.51	63.19
607.67	86.60
607.82	32.77
607.98	11.70
608.13	67.88
608.29	65.54
608.44	14.04
608.60	49.15
608.75	86.60
608.91	56.17
609.06	84.26
609.22	81.92
609.37	91.28
609.53	63.19
609.68	23.41
609.84	93.62
609.99	21.06
610.15	21.06
610.30	56.17
610.46	63.19
610.61	72.56
610.76	65.54
610.92	21.06
611.07	14.04
611.23	88.94
611.38	58.51
611.54	58.51
611.69	79.58
611.84	14.04
612.00	28.09
612.15	0.00
612.31	16.38
612.46	9.36
612.62	35.11
612.77	37.45
612.92	32.77
613.08	37.45
613.23	110.01
613.39	0.00
613.54	72.56
613.69	21.06
613.85	56.17
614.00	0.00
614.15	65.54
614.31	37.45
614.46	14.04
614.62	53.83
614.77	46.81
614.92	49.15
615.08	72.56
615.23	14.04
615.38	28.09
615.54	58.51
615.69	63.19
615.84	0.00
616.00	7.02
616.15	95.96
616.30	7.02
616.46	28.09
616.61	0.00
616.76	42.13
616.92	84.26
617.07	14.04
617.22	21.06
617.37	74.90
617.53	133.41
617.68	67.88
617.83	37.45
617.99	7.02
618.14	56.17
618.29	84.26
618.45	91.28
618.60	88.94
618.75	44.47
618.90	53.83
619.06	0.00
619.21	23.41
619.36	35.11
619.51	4.68
619.67	65.54
619.82	0.00
619.97	18.72
620.12	77.24
620.28	4.68
620.43	70.22
620.58	0.00
620.73	100.64
620.89	0.00
621.04	46.81
621.19	49.15
621.34	28.09
621.49	11.70
621.65	39.79
621.80	60.85
621.95	21.06
622.10	0.00
622.25	0.00
622.41	0.00
622.56	39.79
622.71	14.04
622.86	88.94
623.01	0.00
623.16	117.03
623.32	44.47
623.47	39.79
623.62	30.43
623.77	0.00
623.92	16.38
624.07	56.17
624.23	46.81
624.38	58.51
624.53	0.00
624.68	93.62
624.83	84.26
624.98	0.00
625.13	0.00
625.29	58.51
625.44	0.00
625.59	49.15
625.74	0.00
625.89	0.00
626.04	81.92
626.19	63.19
626.34	0.00
626.49	98.30
626.65	16.38
626.80	58.51
626.95	37.45
627.10	58.51
627.25	21.06
627.40	18.72
627.55	28.09
627.70	39.79
627.85	70.22
628.00	28.09
628.15	63.19
628.30	7.02
628.45	28.09
628.60	49.15
628.76	67.88
628.91	91.28
629.06	0.00
629.21	7.02
629.36	51.49
629.51	53.83
629.66	53.83
629.81	23.41
629.96	70.22
630.11	51.49
630.26	0.00
630.41	91.28
630.56	60.85
630.71	11.70
630.86	2.34
631.01	74.90
631.16	67.88
631.31	93.62
631.46	7.02
631.61	65.54
631.76	0.00
631.91	70.22
632.06	63.19
632.21	0.00
632.36	46.81
632.51	18.72
632.66	35.11
632.81	9.36
632.96	35.11
633.10	7.02
633.25	51.49
633.40	67.88
633.55	11.70
633.70	0.00
633.85	39.79
634.00	16.38
634.15	14.04
634.30	39.79
634.45	37.45
634.60	0.00
634.75	93.62
634.90	39.79
635.05	2.34
635.19	16.38
635.34	9.36
635.49	28.09
635.64	14.04
635.79	4.68
635.94	11.70
636.09	0.00
636.24	37.45
636.39	11.70
636.53	18.72
636.68	14.04
636.83	16.38
636.98	44.47
637.13	0.00
637.28	107.66
637.43	28.09
637.57	42.13
637.72	21.06
637.87	0.00
638.02	37.45
638.17	91.28
638.32	53.83
638.46	0.00
638.61	74.90
638.76	58.51
638.91	58.51
639.06	0.00
639.20	23.41
639.35	74.90
639.50	117.03
639.65	4.68
639.80	42.13
639.94	21.06
640.09	0.00
640.24	81.92
640.39	131.07
640.54	28.09
640.68	0.00
640.83	21.06
640.98	42.13
641.13	42.13
641.27	49.15
641.42	23.41
641.57	7.02
641.72	67.88
641.86	28.09
642.01	30.43
642.16	0.00
642.31	56.17
642.45	39.79
642.60	39.79
642.75	0.00
642.90	79.58
643.04	0.00
643.19	0.00
643.34	60.85
643.48	0.00
643.63	4.68
643.78	67.88
643.93	67.88
644.07	37.45
644.22	21.06
644.37	4.68
644.51	53.83
644.66	67.88
644.81	25.75
644.95	14.04
645.10	81.92
645.25	58.51
645.39	32.77
645.54	84.26
645.69	35.11
645.83	63.19
645.98	49.15
646.13	72.56
646.27	23.41
646.42	51.49
646.57	58.51
646.71	91.28
646.86	0.00
647.00	44.47
647.15	46.81
647.30	0.00
647.44	2.34
647.59	30.43
647.74	23.41
647.88	11.70
648.03	0.00
648.17	91.28
648.32	70.22
648.47	42.13
648.61	42.13
648.76	0.00
648.90	46.81
649.05	7.02
649.20	53.83
649.34	88.94
649.49	0.00
649.63	39.79
649.78	0.00
649.92	74.90
650.07	56.17
650.21	39.79
650.36	70.22
650.51	51.49
650.65	28.09
650.80	65.54
650.94	74.90
651.09	14.04
651.23	32.77
651.38	0.00
651.52	77.24
651.67	18.72
651.81	42.13
651.96	100.64
652.10	44.47
652.25	37.45
652.39	14.04
652.54	77.24
652.68	84.26
652.83	91.28
652.97	16.38
653.12	77.24
653.26	51.49
653.41	37.45
653.55	63.19
653.70	60.85
653.84	0.00
653.99	7.02
654.13	21.06
654.27	63.19
654.42	72.56
654.56	42.13
654.71	14.04
654.85	72.56
655.00	4.68
655.14	46.81
655.29	16.38
655.43	63.19
655.57	39.79
655.72	63.19
655.86	0.00
656.01	0.00
656.15	63.19
656.30	39.79
656.44	0.00
656.58	67.88
656.73	107.66
656.87	88.94
657.01	0.00
657.16	25.75
657.30	35.11
657.45	9.36
657.59	21.06
657.73	14.04
657.88	25.75
658.02	21.06
658.16	72.56
658.31	77.24
658.45	0.00
658.60	37.45
658.74	37.45
658.88	0.00
659.03	21.06
659.17	35.11
659.31	95.96
659.46	74.90
659.60	110.01
659.74	100.64
659.89	21.06
660.03	7.02
660.17	30.43
660.32	35.11
660.46	74.90
660.60	46.81
660.74	53.83
660.89	65.54
661.03	32.77
661.17	0.00
661.32	53.83
661.46	23.41
661.60	25.75
661.74	39.79
661.89	84.26
662.03	56.17
662.17	39.79
662.31	25.75
662.46	72.56
662.60	91.28
662.74	0.00
662.88	14.04
663.03	0.00
663.17	46.81
663.31	88.94
663.45	46.81
663.60	58.51
663.74	81.92
663.88	56.17
664.02	0.00
664.17	21.06
664.31	56.17
664.45	0.00
664.59	117.03
664.73	35.11
664.88	88.94
665.02	37.45
665.16	56.17
665.30	18.72
665.44	65.54
665.59	46.81
665.73	11.70
665.87	9.36
666.01	65.54
666.15	35.11
666.29	0.00
666.44	0.00
666.58	35.11
666.72	0.00
666.86	0.00
667.00	95.96
667.14	0.00
667.28	95.96
667.43	11.70
667.57	110.01
667.71	79.58
667.85	51.49
667.99	72.56
668.13	42.13
668.27	30.43
668.41	0.00
668.56	39.79
668.70	53.83
668.84	30.43
668.98	0.00
669.12	0.00
669.26	0.00
669.40	42.13
669.54	56.17
669.68	49.15
669.82	30.43
669.96	65.54
670.10	88.94
670.25	51.49
670.39	42.13
670.53	42.13
670.67	53.83
670.81	0.00
670.95	7.02
671.09	25.75
671.23	30.43
671.37	142.77
671.51	142.77
671.65	46.81
671.79	0.00
671.93	0.00
672.07	39.79
672.21	79.58
672.35	0.00
672.49	9.36
672.63	98.30
672.77	4.68
672.91	56.17
673.05	0.00
673.19	49.15
673.33	0.00
673.47	14.04
673.61	25.75
673.75	21.06
673.89	93.62
674.03	7.02
674.17	93.62
674.31	0.00
674.45	58.51
674.59	0.00
674.73	0.00
674.87	9.36
675.01	0.00
675.15	18.72
675.29	67.88
675.43	42.13
675.56	58.51
675.70	9.36
675.84	35.11
675.98	7.02
676.12	177.88
676.26	39.79
676.40	0.00
676.54	0.00
676.68	0.00
676.82	39.79
676.96	0.00
677.10	30.43
677.23	91.28
677.37	44.47
677.51	0.00
677.65	28.09
677.79	30.43
677.93	79.58
678.07	51.49
678.21	0.00
678.34	37.45
678.48	0.00
678.62	37.45
678.76	72.56
678.90	0.00
679.04	46.81
679.18	0.00
679.31	53.83
679.45	79.58
679.59	21.06
679.73	81.92
679.87	32.77
680.00	93.62
680.14	21.06
680.28	30.43
680.42	23.41
680.56	77.24
680.70	77.24
680.83	60.85
680.97	25.75
681.11	9.36
681.25	11.70
681.39	0.00
681.52	25.75
681.66	84.26
681.80	30.43
681.94	0.00
682.07	44.47
682.21	0.00
682.35	18.72
682.49	30.43
682.62	105.32
682.76	0.00
682.90	14.04
683.04	23.41
683.17	21.06
683.31	0.00
683.45	37.45
683.59	44.47
683.72	46.81
683.86	42.13
684.00	14.04
684.13	25.75
684.27	16.38
684.41	72.56
684.55	46.81
684.68	32.77
684.82	91.28
684.96	74.90
685.09	79.58
685.23	0.00
685.37	9.36
685.50	4.68
685.64	63.19
685.78	74.90
685.91	42.13
686.05	28.09
686.19	67.88
686.32	37.45
686.46	65.54
686.60	0.00
686.73	0.00
686.87	79.58
687.01	72.56
687.14	2.34
687.28	53.83
687.42	23.41
687.55	65.54
687.69	84.26
687.82	0.00
687.96	4.68
688.10	2.34
688.23	0.00
688.37	21.06
688.50	30.43
688.64	21.06
688.78	0.00
688.91	11.70
689.05	44.47
689.18	0.00
689.32	0.00
689.46	67.88
689.59	23.41
689.73	63.19
689.86	4.68
690.00	67.88
690.13	67.88
690.27	30.43
690.41	49.15
690.54	0.00
690.68	4.68
690.81	39.79
690.95	65.54
691.08	49.15
691.22	35.11
691.35	91.28
691.49	7.02
691.62	14.04
691.76	42.13
691.89	53.83
692.03	30.43
692.16	0.00
692.30	0.00
692.43	42.13
692.57	84.26
692.70	42.13
692.84	0.00
692.97	49.15
693.11	4.68
693.24	0.00
693.38	25.75
693.51	49.15
693.65	11.70
693.78	49.15
693.92	16.38
694.05	11.70
694.19	46.81
694.32	16.38
694.45	0.00
694.59	0.00
694.72	63.19
694.86	30.43
694.99	0.00
695.13	16.38
695.26	0.00
695.39	30.43
695.53	35.11
695.66	0.00
695.80	14.04
695.93	4.68
696.07	4.68
696.20	0.00
696.33	46.81
696.47	37.45
696.60	0.00
696.73	0.00
696.87	49.15
697.00	18.72
697.14	70.22
697.27	42.13
697.40	16.38
697.54	46.81
697.67	37.45
697.80	51.49
697.94	93.62
698.07	14.04
698.21	56.17
698.34	9.36
698.47	0.00
698.61	30.43
698.74	0.00
698.87	32.77
699.01	39.79
699.14	46.81
699.27	32.77
699.40	0.00
699.54	0.00
699.67	72.56
699.80	18.72
699.94	79.58
700.07	0.00
700.20	70.22
700.34	46.81
700.47	39.79
700.60	46.81
700.73	7.02
700.87	58.51
701.00	11.70
701.13	72.56
701.26	4.68
701.40	11.70
701.53	0.00
701.66	37.45
701.79	49.15
701.93	42.13
702.06	98.30
702.19	4.68
702.32	53.83
702.46	14.04
702.59	44.47
702.72	30.43
702.85	86.60
702.99	67.88
703.12	42.13
703.25	77.24
703.38	4.68
703.51	42.13
703.65	9.36
703.78	18.72
703.91	11.70
704.04	51.49
704.17	2.34
704.31	23.41
704.44	37.45
704.57	21.06
704.70	39.79
704.83	0.00
704.96	67.88
705.10	30.43
705.23	25.75
>>>>>End Processed Spectral Data<<<<<
