SpectraSuite Data File
++++++++++++++++++++++++++++++++++++
Date: Fri Oct 04 12:13:36 GMT-05:00 2013
User: price-jones
Dark Spectrum Present: No
Reference Spectrum Present: No
Number of Sampled Component Spectra: 1
Spectrometers: USB2+H05261
Integration Time (usec): 10000 (USB2+H05261)
Spectra Averaged: 1 (USB2+H05261)
Boxcar Smoothing: 0 (USB2+H05261)
Correct for Electrical Dark: No (USB2+H05261)
Strobe/Lamp Enabled: No (USB2+H05261)
Correct for Detector Non-linearity: No (USB2+H05261)
Correct for Stray Light: No (USB2+H05261)
Number of Pixels in Processed Spectrum: 2048
>>>>>Begin Processed Spectral Data<<<<<
365.73	0.00
365.92	0.00
366.12	0.00
366.32	0.00
366.52	0.00
366.72	0.00
366.91	0.00
367.11	0.00
367.31	0.00
367.51	0.00
367.70	0.00
367.90	0.00
368.10	0.00
368.30	0.00
368.49	0.00
368.69	0.00
368.89	0.00
369.09	0.00
369.28	0.00
369.48	0.00
369.68	0.00
369.87	0.00
370.07	0.00
370.27	0.00
370.47	0.00
370.66	0.00
370.86	0.00
371.06	0.00
371.25	0.00
371.45	7.02
371.65	0.00
371.84	0.00
372.04	14.04
372.24	46.81
372.44	14.04
372.63	77.24
372.83	56.17
373.03	9.36
373.22	25.75
373.42	65.54
373.62	95.96
373.81	7.02
374.01	51.49
374.21	21.06
374.40	2.34
374.60	70.22
374.79	9.36
374.99	81.92
375.19	58.51
375.38	79.58
375.58	102.98
375.78	0.00
375.97	14.04
376.17	56.17
376.37	0.00
376.56	14.04
376.76	32.77
376.95	2.34
377.15	42.13
377.35	72.56
377.54	42.13
377.74	23.41
377.93	9.36
378.13	56.17
378.33	72.56
378.52	0.00
378.72	98.30
378.91	0.00
379.11	0.00
379.31	2.34
379.50	21.06
379.70	18.72
379.89	7.02
380.09	0.00
380.28	0.00
380.48	0.00
380.68	77.24
380.87	14.04
381.07	14.04
381.26	93.62
381.46	100.64
381.65	95.96
381.85	30.43
382.04	28.09
382.24	86.60
382.43	14.04
382.63	0.00
382.83	16.38
383.02	0.00
383.22	79.58
383.41	18.72
383.61	32.77
383.80	30.43
384.00	25.75
384.19	63.19
384.39	56.17
384.58	60.85
384.78	7.02
384.97	79.58
385.17	42.13
385.36	0.00
385.56	16.38
385.75	46.81
385.95	0.00
386.14	25.75
386.34	0.00
386.53	32.77
386.72	0.00
386.92	16.38
387.11	30.43
387.31	2.34
387.50	4.68
387.70	2.34
387.89	67.88
388.09	14.04
388.28	44.47
388.48	0.00
388.67	0.00
388.86	0.00
389.06	23.41
389.25	14.04
389.45	0.00
389.64	30.43
389.84	23.41
390.03	0.00
390.22	51.49
390.42	67.88
390.61	0.00
390.81	30.43
391.00	46.81
391.19	67.88
391.39	0.00
391.58	60.85
391.78	77.24
391.97	65.54
392.16	23.41
392.36	65.54
392.55	0.00
392.75	25.75
392.94	0.00
393.13	53.83
393.33	51.49
393.52	0.00
393.71	18.72
393.91	7.02
394.10	60.85
394.29	93.62
394.49	21.06
394.68	39.79
394.88	21.06
395.07	39.79
395.26	30.43
395.46	23.41
395.65	0.00
395.84	9.36
396.04	30.43
396.23	67.88
396.42	42.13
396.62	46.81
396.81	14.04
397.00	32.77
397.19	0.00
397.39	21.06
397.58	81.92
397.77	0.00
397.97	25.75
398.16	0.00
398.35	30.43
398.55	32.77
398.74	0.00
398.93	4.68
399.12	28.09
399.32	42.13
399.51	4.68
399.70	4.68
399.90	0.00
400.09	79.58
400.28	35.11
400.47	79.58
400.67	0.00
400.86	0.00
401.05	53.83
401.24	56.17
401.44	14.04
401.63	72.56
401.82	0.00
402.01	21.06
402.21	46.81
402.40	44.47
402.59	14.04
402.78	49.15
402.97	7.02
403.17	2.34
403.36	37.45
403.55	0.00
403.74	0.00
403.93	4.68
404.13	0.00
404.32	98.30
404.51	37.45
404.70	0.00
404.89	51.49
405.09	23.41
405.28	51.49
405.47	35.11
405.66	0.00
405.85	67.88
406.05	70.22
406.24	58.51
406.43	32.77
406.62	46.81
406.81	0.00
407.00	9.36
407.20	84.26
407.39	14.04
407.58	2.34
407.77	9.36
407.96	44.47
408.15	126.39
408.34	65.54
408.54	91.28
408.73	25.75
408.92	0.00
409.11	63.19
409.30	49.15
409.49	9.36
409.68	88.94
409.87	63.19
410.07	124.05
410.26	0.00
410.45	121.71
410.64	0.00
410.83	0.00
411.02	60.85
411.21	65.54
411.40	18.72
411.59	63.19
411.78	0.00
411.98	91.28
412.17	53.83
412.36	4.68
412.55	49.15
412.74	37.45
412.93	86.60
413.12	0.00
413.31	93.62
413.50	81.92
413.69	53.83
413.88	35.11
414.07	37.45
414.26	28.09
414.45	30.43
414.64	30.43
414.83	11.70
415.02	67.88
415.22	14.04
415.41	37.45
415.60	88.94
415.79	28.09
415.98	56.17
416.17	58.51
416.36	58.51
416.55	0.00
416.74	32.77
416.93	28.09
417.12	70.22
417.31	35.11
417.50	30.43
417.69	39.79
417.88	58.51
418.07	53.83
418.26	18.72
418.45	0.00
418.64	21.06
418.83	49.15
419.02	63.19
419.21	0.00
419.39	28.09
419.58	56.17
419.77	42.13
419.96	0.00
420.15	70.22
420.34	16.38
420.53	121.71
420.72	70.22
420.91	91.28
421.10	9.36
421.29	56.17
421.48	35.11
421.67	11.70
421.86	112.35
422.05	63.19
422.24	25.75
422.43	23.41
422.61	0.00
422.80	46.81
422.99	9.36
423.18	0.00
423.37	60.85
423.56	46.81
423.75	53.83
423.94	39.79
424.13	0.00
424.32	60.85
424.50	14.04
424.69	32.77
424.88	114.69
425.07	37.45
425.26	0.00
425.45	18.72
425.64	100.64
425.83	58.51
426.01	9.36
426.20	21.06
426.39	84.26
426.58	35.11
426.77	0.00
426.96	32.77
427.15	37.45
427.33	30.43
427.52	7.02
427.71	28.09
427.90	93.62
428.09	0.00
428.28	46.81
428.46	0.00
428.65	51.49
428.84	39.79
429.03	14.04
429.22	39.79
429.40	91.28
429.59	79.58
429.78	72.56
429.97	49.15
430.16	58.51
430.34	51.49
430.53	49.15
430.72	74.90
430.91	30.43
431.10	49.15
431.28	70.22
431.47	42.13
431.66	39.79
431.85	67.88
432.03	16.38
432.22	77.24
432.41	35.11
432.60	4.68
432.79	14.04
432.97	74.90
433.16	72.56
433.35	0.00
433.54	30.43
433.72	37.45
433.91	4.68
434.10	53.83
434.28	63.19
434.47	81.92
434.66	32.77
434.85	0.00
435.03	0.00
435.22	60.85
435.41	35.11
435.59	72.56
435.78	46.81
435.97	42.13
436.16	2.34
436.34	35.11
436.53	100.64
436.72	0.00
436.90	28.09
437.09	46.81
437.28	117.03
437.46	18.72
437.65	105.32
437.84	84.26
438.02	0.00
438.21	46.81
438.40	156.82
438.58	21.06
438.77	70.22
438.96	107.66
439.14	81.92
439.33	65.54
439.52	42.13
439.70	93.62
439.89	58.51
440.08	0.00
440.26	28.09
440.45	100.64
440.63	102.98
440.82	0.00
441.01	74.90
441.19	16.38
441.38	32.77
441.57	67.88
441.75	100.64
441.94	51.49
442.12	30.43
442.31	0.00
442.50	49.15
442.68	70.22
442.87	51.49
443.05	32.77
443.24	0.00
443.43	100.64
443.61	70.22
443.80	72.56
443.98	63.19
444.17	65.54
444.35	21.06
444.54	49.15
444.73	7.02
444.91	18.72
445.10	91.28
445.28	2.34
445.47	0.00
445.65	88.94
445.84	60.85
446.02	86.60
446.21	63.19
446.39	84.26
446.58	93.62
446.77	18.72
446.95	102.98
447.14	16.38
447.32	67.88
447.51	49.15
447.69	56.17
447.88	88.94
448.06	4.68
448.25	37.45
448.43	77.24
448.62	79.58
448.80	81.92
448.99	58.51
449.17	42.13
449.36	100.64
449.54	51.49
449.73	53.83
449.91	28.09
450.10	0.00
450.28	79.58
450.46	32.77
450.65	79.58
450.83	79.58
451.02	58.51
451.20	0.00
451.39	0.00
451.57	93.62
451.76	53.83
451.94	0.00
452.13	84.26
452.31	81.92
452.49	28.09
452.68	51.49
452.86	51.49
453.05	117.03
453.23	67.88
453.42	51.49
453.60	67.88
453.78	39.79
453.97	98.30
454.15	93.62
454.34	25.75
454.52	44.47
454.70	81.92
454.89	25.75
455.07	84.26
455.26	0.00
455.44	30.43
455.62	91.28
455.81	35.11
455.99	39.79
456.17	88.94
456.36	42.13
456.54	60.85
456.73	49.15
456.91	37.45
457.09	23.41
457.28	49.15
457.46	98.30
457.64	79.58
457.83	30.43
458.01	77.24
458.19	72.56
458.38	95.96
458.56	23.41
458.74	23.41
458.93	53.83
459.11	44.47
459.29	65.54
459.48	16.38
459.66	74.90
459.84	65.54
460.03	51.49
460.21	67.88
460.39	49.15
460.57	0.00
460.76	35.11
460.94	37.45
461.12	39.79
461.31	77.24
461.49	0.00
461.67	14.04
461.85	44.47
462.04	131.07
462.22	105.32
462.40	51.49
462.59	46.81
462.77	23.41
462.95	53.83
463.13	0.00
463.32	0.00
463.50	4.68
463.68	30.43
463.86	56.17
464.05	63.19
464.23	42.13
464.41	0.00
464.59	72.56
464.78	77.24
464.96	95.96
465.14	86.60
465.32	37.45
465.50	128.73
465.69	84.26
465.87	37.45
466.05	0.00
466.23	37.45
466.41	0.00
466.60	46.81
466.78	65.54
466.96	11.70
467.14	14.04
467.32	121.71
467.51	32.77
467.69	60.85
467.87	39.79
468.05	28.09
468.23	0.00
468.41	30.43
468.60	79.58
468.78	63.19
468.96	23.41
469.14	63.19
469.32	30.43
469.50	16.38
469.69	74.90
469.87	18.72
470.05	25.75
470.23	0.00
470.41	65.54
470.59	30.43
470.77	56.17
470.95	39.79
471.14	37.45
471.32	18.72
471.50	44.47
471.68	51.49
471.86	81.92
472.04	21.06
472.22	56.17
472.40	77.24
472.58	37.45
472.77	63.19
472.95	56.17
473.13	114.69
473.31	18.72
473.49	126.39
473.67	100.64
473.85	18.72
474.03	91.28
474.21	102.98
474.39	63.19
474.57	67.88
474.75	35.11
474.93	110.01
475.12	60.85
475.30	53.83
475.48	65.54
475.66	84.26
475.84	28.09
476.02	67.88
476.20	84.26
476.38	39.79
476.56	93.62
476.74	74.90
476.92	30.43
477.10	49.15
477.28	77.24
477.46	0.00
477.64	46.81
477.82	107.66
478.00	72.56
478.18	28.09
478.36	37.45
478.54	98.30
478.72	77.24
478.90	77.24
479.08	65.54
479.26	30.43
479.44	65.54
479.62	0.00
479.80	56.17
479.98	46.81
480.16	77.24
480.34	72.56
480.52	56.17
480.70	107.66
480.88	67.88
481.06	79.58
481.24	81.92
481.41	117.03
481.59	119.37
481.77	0.00
481.95	32.77
482.13	95.96
482.31	79.58
482.49	77.24
482.67	91.28
482.85	37.45
483.03	112.35
483.21	37.45
483.39	77.24
483.57	46.81
483.74	84.26
483.92	114.69
484.10	21.06
484.28	93.62
484.46	25.75
484.64	77.24
484.82	65.54
485.00	42.13
485.18	70.22
485.35	133.41
485.53	79.58
485.71	112.35
485.89	28.09
486.07	37.45
486.25	74.90
486.43	105.32
486.61	49.15
486.78	39.79
486.96	72.56
487.14	124.05
487.32	79.58
487.50	16.38
487.68	46.81
487.85	88.94
488.03	42.13
488.21	42.13
488.39	112.35
488.57	39.79
488.75	51.49
488.92	63.19
489.10	70.22
489.28	18.72
489.46	112.35
489.64	0.00
489.81	70.22
489.99	63.19
490.17	65.54
490.35	86.60
490.53	110.01
490.70	65.54
490.88	84.26
491.06	16.38
491.24	32.77
491.41	18.72
491.59	67.88
491.77	25.75
491.95	67.88
492.13	28.09
492.30	88.94
492.48	81.92
492.66	107.66
492.84	53.83
493.01	67.88
493.19	30.43
493.37	79.58
493.54	60.85
493.72	74.90
493.90	21.06
494.08	23.41
494.25	84.26
494.43	56.17
494.61	72.56
494.79	77.24
494.96	72.56
495.14	72.56
495.32	72.56
495.49	32.77
495.67	46.81
495.85	51.49
496.02	95.96
496.20	49.15
496.38	93.62
496.55	79.58
496.73	105.32
496.91	65.54
497.09	39.79
497.26	58.51
497.44	70.22
497.62	37.45
497.79	30.43
497.97	95.96
498.14	81.92
498.32	30.43
498.50	86.60
498.67	4.68
498.85	72.56
499.03	51.49
499.20	98.30
499.38	81.92
499.56	46.81
499.73	93.62
499.91	49.15
500.08	84.26
500.26	88.94
500.44	84.26
500.61	51.49
500.79	60.85
500.97	84.26
501.14	100.64
501.32	74.90
501.49	58.51
501.67	0.00
501.84	23.41
502.02	53.83
502.20	88.94
502.37	107.66
502.55	124.05
502.72	35.11
502.90	112.35
503.07	173.20
503.25	67.88
503.43	32.77
503.60	93.62
503.78	88.94
503.95	114.69
504.13	126.39
504.30	119.37
504.48	124.05
504.65	138.09
504.83	58.51
505.01	14.04
505.18	91.28
505.36	102.98
505.53	88.94
505.71	21.06
505.88	98.30
506.06	98.30
506.23	91.28
506.41	72.56
506.58	79.58
506.76	42.13
506.93	138.09
507.11	114.69
507.28	70.22
507.46	2.34
507.63	98.30
507.81	67.88
507.98	56.17
508.16	39.79
508.33	65.54
508.50	72.56
508.68	58.51
508.85	53.83
509.03	93.62
509.20	98.30
509.38	23.41
509.55	30.43
509.73	44.47
509.90	107.66
510.08	140.43
510.25	133.41
510.42	95.96
510.60	98.30
510.77	42.13
510.95	117.03
511.12	65.54
511.30	39.79
511.47	88.94
511.64	46.81
511.82	72.56
511.99	102.98
512.17	56.17
512.34	105.32
512.51	128.73
512.69	56.17
512.86	39.79
513.04	44.47
513.21	117.03
513.38	107.66
513.56	72.56
513.73	18.72
513.90	98.30
514.08	53.83
514.25	67.88
514.43	114.69
514.60	65.54
514.77	126.39
514.95	88.94
515.12	84.26
515.29	60.85
515.47	56.17
515.64	25.75
515.81	0.00
515.99	63.19
516.16	67.88
516.33	42.13
516.51	60.85
516.68	53.83
516.85	39.79
517.03	21.06
517.20	42.13
517.37	44.47
517.54	84.26
517.72	88.94
517.89	147.45
518.06	79.58
518.24	65.54
518.41	53.83
518.58	72.56
518.75	100.64
518.93	39.79
519.10	156.82
519.27	79.58
519.45	121.71
519.62	72.56
519.79	93.62
519.96	112.35
520.14	110.01
520.31	93.62
520.48	21.06
520.65	74.90
520.83	56.17
521.00	51.49
521.17	119.37
521.34	49.15
521.52	30.43
521.69	30.43
521.86	28.09
522.03	56.17
522.20	44.47
522.38	91.28
522.55	49.15
522.72	91.28
522.89	121.71
523.07	58.51
523.24	110.01
523.41	88.94
523.58	28.09
523.75	81.92
523.92	117.03
524.10	121.71
524.27	114.69
524.44	0.00
524.61	60.85
524.78	28.09
524.96	77.24
525.13	110.01
525.30	51.49
525.47	49.15
525.64	88.94
525.81	37.45
525.98	107.66
526.16	4.68
526.33	93.62
526.50	58.51
526.67	79.58
526.84	93.62
527.01	56.17
527.18	77.24
527.36	105.32
527.53	77.24
527.70	49.15
527.87	131.07
528.04	88.94
528.21	93.62
528.38	102.98
528.55	81.92
528.72	128.73
528.89	91.28
529.07	86.60
529.24	95.96
529.41	95.96
529.58	18.72
529.75	7.02
529.92	110.01
530.09	128.73
530.26	110.01
530.43	133.41
530.60	112.35
530.77	135.75
530.94	128.73
531.11	110.01
531.28	65.54
531.46	138.09
531.63	107.66
531.80	93.62
531.97	117.03
532.14	72.56
532.31	124.05
532.48	86.60
532.65	32.77
532.82	28.09
532.99	0.00
533.16	117.03
533.33	100.64
533.50	28.09
533.67	84.26
533.84	140.43
534.01	49.15
534.18	114.69
534.35	105.32
534.52	72.56
534.69	74.90
534.86	100.64
535.03	9.36
535.20	95.96
535.37	93.62
535.54	63.19
535.71	154.48
535.88	51.49
536.05	105.32
536.22	25.75
536.38	86.60
536.55	154.48
536.72	28.09
536.89	84.26
537.06	58.51
537.23	81.92
537.40	86.60
537.57	105.32
537.74	121.71
537.91	117.03
538.08	49.15
538.25	70.22
538.42	131.07
538.59	133.41
538.75	67.88
538.92	86.60
539.09	79.58
539.26	100.64
539.43	86.60
539.60	138.09
539.77	44.47
539.94	77.24
540.11	2.34
540.28	67.88
540.44	138.09
540.61	72.56
540.78	37.45
540.95	81.92
541.12	51.49
541.29	91.28
541.46	58.51
541.62	100.64
541.79	51.49
541.96	84.26
542.13	70.22
542.30	77.24
542.47	72.56
542.63	42.13
542.80	126.39
542.97	119.37
543.14	107.66
543.31	49.15
543.48	124.05
543.64	51.49
543.81	4.68
543.98	154.48
544.15	49.15
544.32	72.56
544.48	95.96
544.65	74.90
544.82	49.15
544.99	84.26
545.16	42.13
545.32	84.26
545.49	117.03
545.66	49.15
545.83	147.45
546.00	121.71
546.16	135.75
546.33	74.90
546.50	93.62
546.67	70.22
546.83	67.88
547.00	107.66
547.17	102.98
547.34	77.24
547.50	42.13
547.67	81.92
547.84	42.13
548.00	53.83
548.17	60.85
548.34	131.07
548.51	114.69
548.67	128.73
548.84	72.56
549.01	128.73
549.18	53.83
549.34	49.15
549.51	138.09
549.68	91.28
549.84	86.60
550.01	51.49
550.18	163.84
550.34	128.73
550.51	142.77
550.68	91.28
550.84	138.09
551.01	49.15
551.18	88.94
551.34	105.32
551.51	121.71
551.68	91.28
551.84	67.88
552.01	79.58
552.18	88.94
552.34	95.96
552.51	93.62
552.68	9.36
552.84	135.75
553.01	100.64
553.18	28.09
553.34	112.35
553.51	56.17
553.67	88.94
553.84	177.88
554.01	126.39
554.17	74.90
554.34	14.04
554.51	133.41
554.67	124.05
554.84	131.07
555.00	126.39
555.17	58.51
555.33	56.17
555.50	70.22
555.67	53.83
555.83	128.73
556.00	102.98
556.16	147.45
556.33	63.19
556.50	114.69
556.66	56.17
556.83	77.24
556.99	67.88
557.16	100.64
557.32	63.19
557.49	95.96
557.65	46.81
557.82	147.45
557.98	98.30
558.15	44.47
558.32	88.94
558.48	86.60
558.65	60.85
558.81	44.47
558.98	72.56
559.14	74.90
559.31	0.00
559.47	60.85
559.64	117.03
559.80	124.05
559.97	93.62
560.13	60.85
560.30	39.79
560.46	72.56
560.63	124.05
560.79	105.32
560.96	121.71
561.12	138.09
561.29	56.17
561.45	95.96
561.61	72.56
561.78	39.79
561.94	32.77
562.11	67.88
562.27	114.69
562.44	100.64
562.60	102.98
562.77	117.03
562.93	138.09
563.10	11.70
563.26	72.56
563.42	4.68
563.59	128.73
563.75	44.47
563.92	110.01
564.08	133.41
564.24	67.88
564.41	91.28
564.57	58.51
564.74	77.24
564.90	49.15
565.07	86.60
565.23	126.39
565.39	58.51
565.56	65.54
565.72	37.45
565.88	35.11
566.05	98.30
566.21	74.90
566.38	121.71
566.54	67.88
566.70	135.75
566.87	49.15
567.03	28.09
567.19	60.85
567.36	35.11
567.52	60.85
567.68	81.92
567.85	163.84
568.01	112.35
568.17	39.79
568.34	37.45
568.50	93.62
568.66	39.79
568.83	72.56
568.99	128.73
569.15	49.15
569.32	51.49
569.48	74.90
569.64	84.26
569.81	39.79
569.97	67.88
570.13	112.35
570.30	140.43
570.46	86.60
570.62	4.68
570.78	72.56
570.95	100.64
571.11	131.07
571.27	91.28
571.43	16.38
571.60	86.60
571.76	32.77
571.92	51.49
572.09	63.19
572.25	56.17
572.41	124.05
572.57	81.92
572.74	88.94
572.90	30.43
573.06	93.62
573.22	42.13
573.38	53.83
573.55	126.39
573.71	161.50
573.87	114.69
574.03	81.92
574.20	79.58
574.36	28.09
574.52	23.41
574.68	88.94
574.84	147.45
575.01	86.60
575.17	70.22
575.33	107.66
575.49	79.58
575.65	60.85
575.82	51.49
575.98	14.04
576.14	49.15
576.30	102.98
576.46	107.66
576.62	63.19
576.79	110.01
576.95	102.98
577.11	79.58
577.27	14.04
577.43	65.54
577.59	84.26
577.75	7.02
577.92	70.22
578.08	23.41
578.24	39.79
578.40	28.09
578.56	128.73
578.72	77.24
578.88	60.85
579.04	35.11
579.21	81.92
579.37	9.36
579.53	79.58
579.69	56.17
579.85	110.01
580.01	77.24
580.17	86.60
580.33	133.41
580.49	56.17
580.65	102.98
580.82	60.85
580.98	79.58
581.14	91.28
581.30	65.54
581.46	56.17
581.62	117.03
581.78	77.24
581.94	44.47
582.10	147.45
582.26	95.96
582.42	79.58
582.58	25.75
582.74	124.05
582.90	88.94
583.06	60.85
583.22	74.90
583.38	30.43
583.54	18.72
583.70	60.85
583.86	53.83
584.02	77.24
584.18	84.26
584.34	60.85
584.50	170.86
584.66	138.09
584.82	28.09
584.98	0.00
585.14	93.62
585.30	105.32
585.46	128.73
585.62	60.85
585.78	91.28
585.94	53.83
586.10	117.03
586.26	128.73
586.42	149.79
586.58	117.03
586.74	70.22
586.90	23.41
587.06	98.30
587.22	86.60
587.38	114.69
587.54	49.15
587.70	72.56
587.86	11.70
588.02	100.64
588.18	0.00
588.34	63.19
588.49	72.56
588.65	11.70
588.81	105.32
588.97	86.60
589.13	44.47
589.29	86.60
589.45	42.13
589.61	32.77
589.77	0.00
589.93	44.47
590.08	84.26
590.24	107.66
590.40	37.45
590.56	53.83
590.72	145.11
590.88	35.11
591.04	91.28
591.20	70.22
591.35	84.26
591.51	74.90
591.67	107.66
591.83	16.38
591.99	110.01
592.15	91.28
592.31	63.19
592.46	53.83
592.62	72.56
592.78	21.06
592.94	77.24
593.10	67.88
593.26	173.20
593.41	21.06
593.57	63.19
593.73	51.49
593.89	140.43
594.05	72.56
594.20	98.30
594.36	107.66
594.52	65.54
594.68	53.83
594.84	77.24
594.99	0.00
595.15	23.41
595.31	44.47
595.47	51.49
595.62	0.00
595.78	74.90
595.94	70.22
596.10	126.39
596.25	63.19
596.41	86.60
596.57	58.51
596.73	56.17
596.88	49.15
597.04	70.22
597.20	60.85
597.36	79.58
597.51	114.69
597.67	121.71
597.83	93.62
597.99	18.72
598.14	58.51
598.30	86.60
598.46	65.54
598.61	51.49
598.77	56.17
598.93	67.88
599.09	46.81
599.24	98.30
599.40	102.98
599.56	42.13
599.71	30.43
599.87	102.98
600.03	100.64
600.18	58.51
600.34	28.09
600.50	35.11
600.65	30.43
600.81	46.81
600.97	53.83
601.12	84.26
601.28	0.00
601.44	88.94
601.59	23.41
601.75	102.98
601.91	86.60
602.06	88.94
602.22	0.00
602.37	128.73
602.53	56.17
602.69	0.00
602.84	79.58
603.00	65.54
603.16	114.69
603.31	77.24
603.47	77.24
603.62	53.83
603.78	60.85
603.94	30.43
604.09	58.51
604.25	60.85
604.40	107.66
604.56	147.45
604.71	105.32
604.87	7.02
605.03	126.39
605.18	117.03
605.34	0.00
605.49	119.37
605.65	95.96
605.80	25.75
605.96	51.49
606.12	65.54
606.27	100.64
606.43	74.90
606.58	98.30
606.74	56.17
606.89	72.56
607.05	70.22
607.20	0.00
607.36	44.47
607.51	16.38
607.67	14.04
607.82	63.19
607.98	42.13
608.13	126.39
608.29	79.58
608.44	58.51
608.60	53.83
608.75	100.64
608.91	93.62
609.06	44.47
609.22	149.79
609.37	25.75
609.53	42.13
609.68	81.92
609.84	58.51
609.99	91.28
610.15	44.47
610.30	44.47
610.46	72.56
610.61	37.45
610.76	81.92
610.92	163.84
611.07	65.54
611.23	42.13
611.38	18.72
611.54	51.49
611.69	46.81
611.84	107.66
612.00	37.45
612.15	58.51
612.31	58.51
612.46	114.69
612.62	56.17
612.77	49.15
612.92	21.06
613.08	35.11
613.23	67.88
613.39	95.96
613.54	88.94
613.69	9.36
613.85	23.41
614.00	88.94
614.15	154.48
614.31	131.07
614.46	72.56
614.62	95.96
614.77	72.56
614.92	42.13
615.08	60.85
615.23	67.88
615.38	9.36
615.54	102.98
615.69	11.70
615.84	58.51
616.00	86.60
616.15	51.49
616.30	67.88
616.46	0.00
616.61	63.19
616.76	65.54
616.92	79.58
617.07	74.90
617.22	32.77
617.37	25.75
617.53	53.83
617.68	110.01
617.83	86.60
617.99	21.06
618.14	58.51
618.29	49.15
618.45	100.64
618.60	0.00
618.75	39.79
618.90	0.00
619.06	18.72
619.21	11.70
619.36	84.26
619.51	60.85
619.67	79.58
619.82	72.56
619.97	72.56
620.12	67.88
620.28	154.48
620.43	112.35
620.58	72.56
620.73	14.04
620.89	86.60
621.04	21.06
621.19	63.19
621.34	56.17
621.49	77.24
621.65	100.64
621.80	60.85
621.95	0.00
622.10	177.88
622.25	117.03
622.41	42.13
622.56	39.79
622.71	88.94
622.86	79.58
623.01	102.98
623.16	102.98
623.32	39.79
623.47	86.60
623.62	98.30
623.77	56.17
623.92	112.35
624.07	91.28
624.23	16.38
624.38	37.45
624.53	95.96
624.68	58.51
624.83	60.85
624.98	58.51
625.13	58.51
625.29	39.79
625.44	79.58
625.59	65.54
625.74	86.60
625.89	91.28
626.04	18.72
626.19	7.02
626.34	28.09
626.49	84.26
626.65	35.11
626.80	81.92
626.95	18.72
627.10	42.13
627.25	91.28
627.40	30.43
627.55	74.90
627.70	63.19
627.85	72.56
628.00	70.22
628.15	37.45
628.30	0.00
628.45	93.62
628.60	53.83
628.76	37.45
628.91	58.51
629.06	86.60
629.21	72.56
629.36	21.06
629.51	91.28
629.66	51.49
629.81	110.01
629.96	0.00
630.11	4.68
630.26	28.09
630.41	32.77
630.56	32.77
630.71	72.56
630.86	131.07
631.01	18.72
631.16	91.28
631.31	77.24
631.46	110.01
631.61	67.88
631.76	0.00
631.91	18.72
632.06	79.58
632.21	35.11
632.36	2.34
632.51	51.49
632.66	44.47
632.81	91.28
632.96	46.81
633.10	84.26
633.25	49.15
633.40	0.00
633.55	56.17
633.70	72.56
633.85	72.56
634.00	60.85
634.15	81.92
634.30	53.83
634.45	60.85
634.60	16.38
634.75	0.00
634.90	37.45
635.05	65.54
635.19	79.58
635.34	37.45
635.49	0.00
635.64	51.49
635.79	77.24
635.94	44.47
636.09	53.83
636.24	14.04
636.39	98.30
636.53	84.26
636.68	93.62
636.83	65.54
636.98	18.72
637.13	63.19
637.28	28.09
637.43	0.00
637.57	84.26
637.72	58.51
637.87	28.09
638.02	91.28
638.17	0.00
638.32	11.70
638.46	58.51
638.61	93.62
638.76	16.38
638.91	0.00
639.06	91.28
639.20	70.22
639.35	58.51
639.50	11.70
639.65	0.00
639.80	49.15
639.94	72.56
640.09	100.64
640.24	44.47
640.39	35.11
640.54	46.81
640.68	84.26
640.83	79.58
640.98	88.94
641.13	63.19
641.27	30.43
641.42	81.92
641.57	60.85
641.72	39.79
641.86	49.15
642.01	105.32
642.16	16.38
642.31	63.19
642.45	63.19
642.60	49.15
642.75	9.36
642.90	182.56
643.04	58.51
643.19	84.26
643.34	46.81
643.48	0.00
643.63	102.98
643.78	124.05
643.93	98.30
644.07	147.45
644.22	35.11
644.37	39.79
644.51	32.77
644.66	46.81
644.81	60.85
644.95	107.66
645.10	56.17
645.25	42.13
645.39	128.73
645.54	37.45
645.69	0.00
645.83	74.90
645.98	14.04
646.13	39.79
646.27	42.13
646.42	72.56
646.57	53.83
646.71	49.15
646.86	23.41
647.00	0.00
647.15	102.98
647.30	39.79
647.44	46.81
647.59	49.15
647.74	0.00
647.88	32.77
648.03	42.13
648.17	63.19
648.32	0.00
648.47	70.22
648.61	44.47
648.76	23.41
648.90	51.49
649.05	0.00
649.20	0.00
649.34	121.71
649.49	46.81
649.63	56.17
649.78	135.75
649.92	0.00
650.07	154.48
650.21	72.56
650.36	128.73
650.51	81.92
650.65	32.77
650.80	72.56
650.94	0.00
651.09	25.75
651.23	51.49
651.38	56.17
651.52	44.47
651.67	28.09
651.81	98.30
651.96	39.79
652.10	72.56
652.25	44.47
652.39	9.36
652.54	30.43
652.68	67.88
652.83	88.94
652.97	56.17
653.12	67.88
653.26	49.15
653.41	56.17
653.55	16.38
653.70	65.54
653.84	0.00
653.99	67.88
654.13	0.00
654.27	112.35
654.42	30.43
654.56	0.00
654.71	60.85
654.85	0.00
655.00	37.45
655.14	0.00
655.29	30.43
655.43	42.13
655.57	95.96
655.72	51.49
655.86	79.58
656.01	46.81
656.15	28.09
656.30	91.28
656.44	74.90
656.58	49.15
656.73	67.88
656.87	11.70
657.01	53.83
657.16	21.06
657.30	67.88
657.45	35.11
657.59	30.43
657.73	0.00
657.88	100.64
658.02	60.85
658.16	81.92
658.31	14.04
658.45	0.00
658.60	30.43
658.74	0.00
658.88	7.02
659.03	35.11
659.17	46.81
659.31	25.75
659.46	28.09
659.60	0.00
659.74	53.83
659.89	35.11
660.03	37.45
660.17	112.35
660.32	42.13
660.46	21.06
660.60	4.68
660.74	42.13
660.89	14.04
661.03	60.85
661.17	93.62
661.32	18.72
661.46	72.56
661.60	74.90
661.74	65.54
661.89	63.19
662.03	7.02
662.17	0.00
662.31	0.00
662.46	56.17
662.60	30.43
662.74	25.75
662.88	67.88
663.03	0.00
663.17	72.56
663.31	11.70
663.45	21.06
663.60	0.00
663.74	86.60
663.88	46.81
664.02	30.43
664.17	58.51
664.31	93.62
664.45	81.92
664.59	44.47
664.73	58.51
664.88	74.90
665.02	70.22
665.16	44.47
665.30	32.77
665.44	18.72
665.59	42.13
665.73	100.64
665.87	74.90
666.01	81.92
666.15	133.41
666.29	121.71
666.44	67.88
666.58	100.64
666.72	77.24
666.86	11.70
667.00	39.79
667.14	37.45
667.28	86.60
667.43	67.88
667.57	88.94
667.71	14.04
667.85	84.26
667.99	0.00
668.13	65.54
668.27	72.56
668.41	86.60
668.56	124.05
668.70	72.56
668.84	60.85
668.98	46.81
669.12	98.30
669.26	65.54
669.40	70.22
669.54	77.24
669.68	72.56
669.82	4.68
669.96	0.00
670.10	37.45
670.25	30.43
670.39	9.36
670.53	70.22
670.67	72.56
670.81	37.45
670.95	4.68
671.09	39.79
671.23	0.00
671.37	74.90
671.51	32.77
671.65	110.01
671.79	23.41
671.93	0.00
672.07	21.06
672.21	91.28
672.35	70.22
672.49	84.26
672.63	46.81
672.77	86.60
672.91	51.49
673.05	107.66
673.19	53.83
673.33	9.36
673.47	67.88
673.61	72.56
673.75	42.13
673.89	35.11
674.03	60.85
674.17	63.19
674.31	0.00
674.45	88.94
674.59	49.15
674.73	77.24
674.87	72.56
675.01	93.62
675.15	91.28
675.29	67.88
675.43	65.54
675.56	91.28
675.70	42.13
675.84	77.24
675.98	4.68
676.12	102.98
676.26	145.11
676.40	98.30
676.54	91.28
676.68	0.00
676.82	28.09
676.96	18.72
677.10	70.22
677.23	37.45
677.37	21.06
677.51	0.00
677.65	72.56
677.79	37.45
677.93	14.04
678.07	16.38
678.21	0.00
678.34	25.75
678.48	93.62
678.62	37.45
678.76	42.13
678.90	42.13
679.04	91.28
679.18	100.64
679.31	11.70
679.45	4.68
679.59	58.51
679.73	51.49
679.87	77.24
680.00	100.64
680.14	30.43
680.28	9.36
680.42	25.75
680.56	79.58
680.70	65.54
680.83	63.19
680.97	86.60
681.11	72.56
681.25	0.00
681.39	32.77
681.52	53.83
681.66	0.00
681.80	25.75
681.94	37.45
682.07	53.83
682.21	102.98
682.35	28.09
682.49	63.19
682.62	0.00
682.76	28.09
682.90	51.49
683.04	18.72
683.17	65.54
683.31	84.26
683.45	7.02
683.59	23.41
683.72	0.00
683.86	60.85
684.00	67.88
684.13	81.92
684.27	23.41
684.41	16.38
684.55	84.26
684.68	16.38
684.82	0.00
684.96	79.58
685.09	18.72
685.23	30.43
685.37	25.75
685.50	98.30
685.64	35.11
685.78	32.77
685.91	11.70
686.05	117.03
686.19	18.72
686.32	63.19
686.46	30.43
686.60	28.09
686.73	4.68
686.87	2.34
687.01	53.83
687.14	67.88
687.28	11.70
687.42	60.85
687.55	0.00
687.69	0.00
687.82	86.60
687.96	23.41
688.10	65.54
688.23	39.79
688.37	28.09
688.50	93.62
688.64	126.39
688.78	159.16
688.91	72.56
689.05	70.22
689.18	44.47
689.32	14.04
689.46	4.68
689.59	32.77
689.73	0.00
689.86	0.00
690.00	65.54
690.13	0.00
690.27	42.13
690.41	9.36
690.54	30.43
690.68	42.13
690.81	88.94
690.95	91.28
691.08	2.34
691.22	25.75
691.35	14.04
691.49	107.66
691.62	46.81
691.76	30.43
691.89	28.09
692.03	23.41
692.16	0.00
692.30	0.00
692.43	28.09
692.57	9.36
692.70	133.41
692.84	86.60
692.97	0.00
693.11	79.58
693.24	30.43
693.38	14.04
693.51	2.34
693.65	58.51
693.78	42.13
693.92	37.45
694.05	72.56
694.19	39.79
694.32	53.83
694.45	70.22
694.59	117.03
694.72	53.83
694.86	112.35
694.99	14.04
695.13	72.56
695.26	21.06
695.39	7.02
695.53	32.77
695.66	60.85
695.80	23.41
695.93	53.83
696.07	51.49
696.20	32.77
696.33	18.72
696.47	11.70
696.60	77.24
696.73	30.43
696.87	32.77
697.00	63.19
697.14	0.00
697.27	14.04
697.40	0.00
697.54	67.88
697.67	67.88
697.80	67.88
697.94	49.15
698.07	49.15
698.21	63.19
698.34	28.09
698.47	2.34
698.61	16.38
698.74	0.00
698.87	0.00
699.01	81.92
699.14	18.72
699.27	81.92
699.40	51.49
699.54	53.83
699.67	72.56
699.80	79.58
699.94	58.51
700.07	56.17
700.20	16.38
700.34	32.77
700.47	4.68
700.60	9.36
700.73	0.00
700.87	23.41
701.00	44.47
701.13	30.43
701.26	53.83
701.40	39.79
701.53	51.49
701.66	0.00
701.79	30.43
701.93	58.51
702.06	93.62
702.19	9.36
702.32	23.41
702.46	46.81
702.59	2.34
702.72	49.15
702.85	7.02
702.99	42.13
703.12	51.49
703.25	58.51
703.38	0.00
703.51	0.00
703.65	65.54
703.78	32.77
703.91	84.26
704.04	46.81
704.17	81.92
704.31	0.00
704.44	0.00
704.57	7.02
704.70	35.11
704.83	11.70
704.96	49.15
705.10	91.28
705.23	28.09
>>>>>End Processed Spectral Data<<<<<
