SpectraSuite Data File
++++++++++++++++++++++++++++++++++++
Date: Fri Oct 04 12:13:43 GMT-05:00 2013
User: price-jones
Dark Spectrum Present: No
Reference Spectrum Present: No
Number of Sampled Component Spectra: 1
Spectrometers: USB2+H05261
Integration Time (usec): 10000 (USB2+H05261)
Spectra Averaged: 1 (USB2+H05261)
Boxcar Smoothing: 0 (USB2+H05261)
Correct for Electrical Dark: No (USB2+H05261)
Strobe/Lamp Enabled: No (USB2+H05261)
Correct for Detector Non-linearity: No (USB2+H05261)
Correct for Stray Light: No (USB2+H05261)
Number of Pixels in Processed Spectrum: 2048
>>>>>Begin Processed Spectral Data<<<<<
365.73	60.85
365.92	60.85
366.12	60.85
366.32	0.00
366.52	0.00
366.72	0.00
366.91	0.00
367.11	0.00
367.31	0.00
367.51	0.00
367.70	0.00
367.90	0.00
368.10	0.00
368.30	0.00
368.49	0.00
368.69	0.00
368.89	0.00
369.09	0.00
369.28	0.00
369.48	0.00
369.68	0.00
369.87	0.00
370.07	0.00
370.27	0.00
370.47	0.00
370.66	0.00
370.86	0.00
371.06	4.68
371.25	11.70
371.45	21.06
371.65	0.00
371.84	0.00
372.04	0.00
372.24	0.00
372.44	0.00
372.63	0.00
372.83	0.00
373.03	2.34
373.22	0.00
373.42	23.41
373.62	93.62
373.81	32.77
374.01	42.13
374.21	131.07
374.40	0.00
374.60	46.81
374.79	0.00
374.99	16.38
375.19	53.83
375.38	46.81
375.58	18.72
375.78	14.04
375.97	4.68
376.17	93.62
376.37	9.36
376.56	14.04
376.76	14.04
376.95	0.00
377.15	39.79
377.35	49.15
377.54	9.36
377.74	9.36
377.93	60.85
378.13	0.00
378.33	30.43
378.52	32.77
378.72	18.72
378.91	53.83
379.11	49.15
379.31	42.13
379.50	16.38
379.70	0.00
379.89	117.03
380.09	58.51
380.28	0.00
380.48	0.00
380.68	0.00
380.87	65.54
381.07	0.00
381.26	16.38
381.46	51.49
381.65	0.00
381.85	0.00
382.04	14.04
382.24	30.43
382.43	0.00
382.63	0.00
382.83	0.00
383.02	0.00
383.22	16.38
383.41	21.06
383.61	95.96
383.80	0.00
384.00	9.36
384.19	18.72
384.39	0.00
384.58	0.00
384.78	7.02
384.97	44.47
385.17	0.00
385.36	74.90
385.56	49.15
385.75	39.79
385.95	56.17
386.14	14.04
386.34	23.41
386.53	51.49
386.72	84.26
386.92	16.38
387.11	37.45
387.31	7.02
387.50	2.34
387.70	42.13
387.89	51.49
388.09	2.34
388.28	110.01
388.48	11.70
388.67	25.75
388.86	23.41
389.06	14.04
389.25	0.00
389.45	79.58
389.64	0.00
389.84	28.09
390.03	0.00
390.22	128.73
390.42	25.75
390.61	0.00
390.81	37.45
391.00	9.36
391.19	4.68
391.39	21.06
391.58	0.00
391.78	56.17
391.97	23.41
392.16	102.98
392.36	60.85
392.55	79.58
392.75	0.00
392.94	0.00
393.13	16.38
393.33	16.38
393.52	0.00
393.71	2.34
393.91	65.54
394.10	32.77
394.29	23.41
394.49	84.26
394.68	60.85
394.88	56.17
395.07	53.83
395.26	81.92
395.46	46.81
395.65	42.13
395.84	25.75
396.04	0.00
396.23	63.19
396.42	42.13
396.62	7.02
396.81	84.26
397.00	49.15
397.19	58.51
397.39	4.68
397.58	14.04
397.77	0.00
397.97	28.09
398.16	79.58
398.35	4.68
398.55	53.83
398.74	42.13
398.93	49.15
399.12	35.11
399.32	4.68
399.51	74.90
399.70	0.00
399.90	46.81
400.09	32.77
400.28	37.45
400.47	49.15
400.67	32.77
400.86	28.09
401.05	37.45
401.24	0.00
401.44	49.15
401.63	18.72
401.82	63.19
402.01	49.15
402.21	4.68
402.40	4.68
402.59	4.68
402.78	105.32
402.97	49.15
403.17	98.30
403.36	63.19
403.55	0.00
403.74	51.49
403.93	25.75
404.13	0.00
404.32	44.47
404.51	9.36
404.70	53.83
404.89	37.45
405.09	4.68
405.28	21.06
405.47	0.00
405.66	0.00
405.85	25.75
406.05	42.13
406.24	30.43
406.43	35.11
406.62	23.41
406.81	79.58
407.00	0.00
407.20	42.13
407.39	39.79
407.58	0.00
407.77	28.09
407.96	63.19
408.15	39.79
408.34	9.36
408.54	79.58
408.73	79.58
408.92	37.45
409.11	56.17
409.30	77.24
409.49	63.19
409.68	0.00
409.87	0.00
410.07	51.49
410.26	72.56
410.45	0.00
410.64	79.58
410.83	42.13
411.02	14.04
411.21	0.00
411.40	44.47
411.59	58.51
411.78	0.00
411.98	72.56
412.17	23.41
412.36	23.41
412.55	11.70
412.74	0.00
412.93	65.54
413.12	60.85
413.31	14.04
413.50	53.83
413.69	18.72
413.88	88.94
414.07	28.09
414.26	124.05
414.45	0.00
414.64	140.43
414.83	0.00
415.02	65.54
415.22	98.30
415.41	42.13
415.60	21.06
415.79	74.90
415.98	51.49
416.17	46.81
416.36	46.81
416.55	14.04
416.74	60.85
416.93	77.24
417.12	145.11
417.31	63.19
417.50	35.11
417.69	16.38
417.88	0.00
418.07	37.45
418.26	49.15
418.45	65.54
418.64	72.56
418.83	4.68
419.02	0.00
419.21	74.90
419.39	72.56
419.58	79.58
419.77	53.83
419.96	39.79
420.15	79.58
420.34	23.41
420.53	135.75
420.72	124.05
420.91	32.77
421.10	39.79
421.29	63.19
421.48	65.54
421.67	14.04
421.86	0.00
422.05	0.00
422.24	84.26
422.43	65.54
422.61	4.68
422.80	0.00
422.99	100.64
423.18	79.58
423.37	70.22
423.56	65.54
423.75	25.75
423.94	86.60
424.13	119.37
424.32	0.00
424.50	114.69
424.69	79.58
424.88	44.47
425.07	95.96
425.26	93.62
425.45	44.47
425.64	25.75
425.83	72.56
426.01	21.06
426.20	37.45
426.39	53.83
426.58	93.62
426.77	49.15
426.96	18.72
427.15	42.13
427.33	42.13
427.52	7.02
427.71	18.72
427.90	25.75
428.09	84.26
428.28	0.00
428.46	9.36
428.65	42.13
428.84	0.00
429.03	74.90
429.22	28.09
429.40	70.22
429.59	105.32
429.78	39.79
429.97	28.09
430.16	49.15
430.34	21.06
430.53	51.49
430.72	119.37
430.91	42.13
431.10	30.43
431.28	56.17
431.47	79.58
431.66	93.62
431.85	74.90
432.03	60.85
432.22	28.09
432.41	63.19
432.60	23.41
432.79	72.56
432.97	0.00
433.16	56.17
433.35	67.88
433.54	91.28
433.72	28.09
433.91	14.04
434.10	60.85
434.28	58.51
434.47	14.04
434.66	16.38
434.85	67.88
435.03	72.56
435.22	0.00
435.41	25.75
435.59	81.92
435.78	142.77
435.97	60.85
436.16	0.00
436.34	37.45
436.53	70.22
436.72	60.85
436.90	56.17
437.09	11.70
437.28	72.56
437.46	23.41
437.65	102.98
437.84	0.00
438.02	4.68
438.21	39.79
438.40	7.02
438.58	117.03
438.77	63.19
438.96	88.94
439.14	53.83
439.33	79.58
439.52	56.17
439.70	70.22
439.89	74.90
440.08	46.81
440.26	65.54
440.45	79.58
440.63	74.90
440.82	56.17
441.01	56.17
441.19	74.90
441.38	39.79
441.57	86.60
441.75	35.11
441.94	74.90
442.12	14.04
442.31	23.41
442.50	58.51
442.68	11.70
442.87	58.51
443.05	28.09
443.24	28.09
443.43	30.43
443.61	0.00
443.80	9.36
443.98	79.58
444.17	46.81
444.35	65.54
444.54	159.16
444.73	63.19
444.91	0.00
445.10	2.34
445.28	84.26
445.47	72.56
445.65	79.58
445.84	72.56
446.02	79.58
446.21	84.26
446.39	23.41
446.58	60.85
446.77	60.85
446.95	128.73
447.14	102.98
447.32	46.81
447.51	112.35
447.69	49.15
447.88	25.75
448.06	110.01
448.25	44.47
448.43	142.77
448.62	49.15
448.80	42.13
448.99	53.83
449.17	49.15
449.36	23.41
449.54	4.68
449.73	42.13
449.91	70.22
450.10	131.07
450.28	58.51
450.46	7.02
450.65	30.43
450.83	28.09
451.02	81.92
451.20	28.09
451.39	63.19
451.57	91.28
451.76	49.15
451.94	23.41
452.13	42.13
452.31	70.22
452.49	18.72
452.68	9.36
452.86	95.96
453.05	21.06
453.23	28.09
453.42	102.98
453.60	74.90
453.78	42.13
453.97	100.64
454.15	39.79
454.34	74.90
454.52	131.07
454.70	72.56
454.89	65.54
455.07	49.15
455.26	102.98
455.44	58.51
455.62	60.85
455.81	25.75
455.99	98.30
456.17	79.58
456.36	77.24
456.54	98.30
456.73	56.17
456.91	88.94
457.09	100.64
457.28	11.70
457.46	4.68
457.64	77.24
457.83	72.56
458.01	112.35
458.19	53.83
458.38	39.79
458.56	84.26
458.74	67.88
458.93	81.92
459.11	72.56
459.29	37.45
459.48	51.49
459.66	72.56
459.84	79.58
460.03	35.11
460.21	44.47
460.39	23.41
460.57	37.45
460.76	67.88
460.94	9.36
461.12	46.81
461.31	0.00
461.49	21.06
461.67	21.06
461.85	35.11
462.04	81.92
462.22	142.77
462.40	81.92
462.59	72.56
462.77	0.00
462.95	35.11
463.13	58.51
463.32	81.92
463.50	7.02
463.68	74.90
463.86	79.58
464.05	0.00
464.23	138.09
464.41	72.56
464.59	4.68
464.78	30.43
464.96	25.75
465.14	63.19
465.32	7.02
465.50	105.32
465.69	0.00
465.87	51.49
466.05	2.34
466.23	51.49
466.41	37.45
466.60	72.56
466.78	88.94
466.96	51.49
467.14	4.68
467.32	117.03
467.51	51.49
467.69	72.56
467.87	11.70
468.05	51.49
468.23	119.37
468.41	37.45
468.60	46.81
468.78	98.30
468.96	49.15
469.14	18.72
469.32	2.34
469.50	93.62
469.69	0.00
469.87	0.00
470.05	53.83
470.23	58.51
470.41	39.79
470.59	39.79
470.77	60.85
470.95	77.24
471.14	65.54
471.32	0.00
471.50	44.47
471.68	79.58
471.86	58.51
472.04	21.06
472.22	67.88
472.40	39.79
472.58	46.81
472.77	124.05
472.95	18.72
473.13	63.19
473.31	121.71
473.49	70.22
473.67	46.81
473.85	84.26
474.03	58.51
474.21	32.77
474.39	42.13
474.57	72.56
474.75	60.85
474.93	51.49
475.12	56.17
475.30	42.13
475.48	53.83
475.66	114.69
475.84	114.69
476.02	88.94
476.20	105.32
476.38	42.13
476.56	44.47
476.74	0.00
476.92	42.13
477.10	21.06
477.28	0.00
477.46	72.56
477.64	74.90
477.82	25.75
478.00	39.79
478.18	88.94
478.36	77.24
478.54	135.75
478.72	14.04
478.90	67.88
479.08	79.58
479.26	70.22
479.44	86.60
479.62	149.79
479.80	23.41
479.98	119.37
480.16	14.04
480.34	56.17
480.52	93.62
480.70	126.39
480.88	35.11
481.06	18.72
481.24	56.17
481.41	30.43
481.59	25.75
481.77	79.58
481.95	86.60
482.13	49.15
482.31	16.38
482.49	56.17
482.67	0.00
482.85	51.49
483.03	74.90
483.21	49.15
483.39	49.15
483.57	133.41
483.74	74.90
483.92	51.49
484.10	28.09
484.28	58.51
484.46	63.19
484.64	67.88
484.82	131.07
485.00	58.51
485.18	39.79
485.35	49.15
485.53	37.45
485.71	51.49
485.89	105.32
486.07	105.32
486.25	16.38
486.43	32.77
486.61	0.00
486.78	84.26
486.96	51.49
487.14	0.00
487.32	86.60
487.50	58.51
487.68	39.79
487.85	37.45
488.03	56.17
488.21	86.60
488.39	46.81
488.57	51.49
488.75	74.90
488.92	63.19
489.10	0.00
489.28	114.69
489.46	65.54
489.64	63.19
489.81	131.07
489.99	53.83
490.17	65.54
490.35	79.58
490.53	21.06
490.70	21.06
490.88	95.96
491.06	0.00
491.24	77.24
491.41	81.92
491.59	84.26
491.77	84.26
491.95	25.75
492.13	140.43
492.30	88.94
492.48	46.81
492.66	81.92
492.84	110.01
493.01	117.03
493.19	63.19
493.37	79.58
493.54	67.88
493.72	39.79
493.90	81.92
494.08	145.11
494.25	42.13
494.43	105.32
494.61	42.13
494.79	49.15
494.96	105.32
495.14	112.35
495.32	110.01
495.49	112.35
495.67	86.60
495.85	49.15
496.02	121.71
496.20	60.85
496.38	81.92
496.55	53.83
496.73	28.09
496.91	112.35
497.09	135.75
497.26	88.94
497.44	28.09
497.62	0.00
497.79	84.26
497.97	86.60
498.14	149.79
498.32	114.69
498.50	84.26
498.67	114.69
498.85	32.77
499.03	77.24
499.20	81.92
499.38	4.68
499.56	121.71
499.73	42.13
499.91	107.66
500.08	63.19
500.26	42.13
500.44	124.05
500.61	105.32
500.79	95.96
500.97	126.39
501.14	159.16
501.32	39.79
501.49	107.66
501.67	23.41
501.84	65.54
502.02	70.22
502.20	42.13
502.37	124.05
502.55	147.45
502.72	110.01
502.90	72.56
503.07	16.38
503.25	56.17
503.43	70.22
503.60	60.85
503.78	65.54
503.95	124.05
504.13	37.45
504.30	84.26
504.48	39.79
504.65	81.92
504.83	95.96
505.01	81.92
505.18	42.13
505.36	63.19
505.53	100.64
505.71	81.92
505.88	51.49
506.06	95.96
506.23	88.94
506.41	117.03
506.58	105.32
506.76	173.20
506.93	156.82
507.11	30.43
507.28	0.00
507.46	112.35
507.63	51.49
507.81	70.22
507.98	9.36
508.16	0.00
508.33	194.26
508.50	124.05
508.68	79.58
508.85	39.79
509.03	102.98
509.20	86.60
509.38	93.62
509.55	81.92
509.73	72.56
509.90	84.26
510.08	60.85
510.25	133.41
510.42	121.71
510.60	65.54
510.77	65.54
510.95	44.47
511.12	49.15
511.30	72.56
511.47	86.60
511.64	138.09
511.82	124.05
511.99	105.32
512.17	84.26
512.34	7.02
512.51	49.15
512.69	42.13
512.86	81.92
513.04	114.69
513.21	46.81
513.38	46.81
513.56	112.35
513.73	0.00
513.90	11.70
514.08	72.56
514.25	112.35
514.43	79.58
514.60	86.60
514.77	0.00
514.95	32.77
515.12	88.94
515.29	56.17
515.47	58.51
515.64	58.51
515.81	63.19
515.99	86.60
516.16	58.51
516.33	0.00
516.51	42.13
516.68	44.47
516.85	102.98
517.03	91.28
517.20	74.90
517.37	135.75
517.54	63.19
517.72	107.66
517.89	110.01
518.06	93.62
518.24	100.64
518.41	60.85
518.58	107.66
518.75	79.58
518.93	53.83
519.10	105.32
519.27	84.26
519.45	126.39
519.62	63.19
519.79	51.49
519.96	156.82
520.14	30.43
520.31	86.60
520.48	39.79
520.65	35.11
520.83	100.64
521.00	98.30
521.17	51.49
521.34	67.88
521.52	117.03
521.69	65.54
521.86	23.41
522.03	110.01
522.20	44.47
522.38	128.73
522.55	114.69
522.72	168.52
522.89	107.66
523.07	81.92
523.24	0.00
523.41	0.00
523.58	91.28
523.75	53.83
523.92	114.69
524.10	131.07
524.27	131.07
524.44	65.54
524.61	67.88
524.78	131.07
524.96	79.58
525.13	49.15
525.30	93.62
525.47	14.04
525.64	86.60
525.81	30.43
525.98	58.51
526.16	112.35
526.33	0.00
526.50	37.45
526.67	86.60
526.84	53.83
527.01	124.05
527.18	56.17
527.36	121.71
527.53	58.51
527.70	60.85
527.87	51.49
528.04	105.32
528.21	63.19
528.38	56.17
528.55	86.60
528.72	81.92
528.89	49.15
529.07	7.02
529.24	126.39
529.41	84.26
529.58	18.72
529.75	49.15
529.92	81.92
530.09	16.38
530.26	79.58
530.43	44.47
530.60	0.00
530.77	91.28
530.94	81.92
531.11	114.69
531.28	81.92
531.46	60.85
531.63	2.34
531.80	49.15
531.97	79.58
532.14	60.85
532.31	86.60
532.48	110.01
532.65	93.62
532.82	126.39
532.99	53.83
533.16	145.11
533.33	100.64
533.50	149.79
533.67	107.66
533.84	0.00
534.01	28.09
534.18	84.26
534.35	28.09
534.52	147.45
534.69	93.62
534.86	168.52
535.03	49.15
535.20	131.07
535.37	30.43
535.54	79.58
535.71	77.24
535.88	74.90
536.05	39.79
536.22	77.24
536.38	65.54
536.55	74.90
536.72	32.77
536.89	91.28
537.06	63.19
537.23	60.85
537.40	112.35
537.57	95.96
537.74	152.13
537.91	79.58
538.08	67.88
538.25	145.11
538.42	93.62
538.59	105.32
538.75	112.35
538.92	138.09
539.09	98.30
539.26	98.30
539.43	138.09
539.60	39.79
539.77	32.77
539.94	56.17
540.11	95.96
540.28	117.03
540.44	175.54
540.61	79.58
540.78	0.00
540.95	161.50
541.12	65.54
541.29	135.75
541.46	9.36
541.62	25.75
541.79	81.92
541.96	88.94
542.13	105.32
542.30	9.36
542.47	95.96
542.63	51.49
542.80	72.56
542.97	128.73
543.14	37.45
543.31	100.64
543.48	107.66
543.64	37.45
543.81	114.69
543.98	65.54
544.15	65.54
544.32	110.01
544.48	0.00
544.65	11.70
544.82	44.47
544.99	72.56
545.16	102.98
545.32	16.38
545.49	4.68
545.66	72.56
545.83	117.03
546.00	84.26
546.16	77.24
546.33	53.83
546.50	112.35
546.67	86.60
546.83	145.11
547.00	91.28
547.17	93.62
547.34	72.56
547.50	14.04
547.67	117.03
547.84	124.05
548.00	77.24
548.17	16.38
548.34	67.88
548.51	119.37
548.67	67.88
548.84	56.17
549.01	114.69
549.18	49.15
549.34	77.24
549.51	161.50
549.68	100.64
549.84	114.69
550.01	138.09
550.18	117.03
550.34	91.28
550.51	39.79
550.68	138.09
550.84	74.90
551.01	35.11
551.18	100.64
551.34	100.64
551.51	135.75
551.68	51.49
551.84	131.07
552.01	98.30
552.18	126.39
552.34	23.41
552.51	91.28
552.68	105.32
552.84	88.94
553.01	77.24
553.18	102.98
553.34	0.00
553.51	49.15
553.67	53.83
553.84	16.38
554.01	98.30
554.17	18.72
554.34	65.54
554.51	53.83
554.67	100.64
554.84	70.22
555.00	86.60
555.17	95.96
555.33	105.32
555.50	152.13
555.67	105.32
555.83	128.73
556.00	67.88
556.16	117.03
556.33	65.54
556.50	67.88
556.66	14.04
556.83	91.28
556.99	63.19
557.16	49.15
557.32	119.37
557.49	93.62
557.65	112.35
557.82	152.13
557.98	161.50
558.15	37.45
558.32	18.72
558.48	81.92
558.65	91.28
558.81	60.85
558.98	32.77
559.14	128.73
559.31	117.03
559.47	117.03
559.64	117.03
559.80	70.22
559.97	0.00
560.13	70.22
560.30	51.49
560.46	60.85
560.63	0.00
560.79	70.22
560.96	51.49
561.12	74.90
561.29	63.19
561.45	105.32
561.61	110.01
561.78	70.22
561.94	88.94
562.11	18.72
562.27	44.47
562.44	72.56
562.60	72.56
562.77	88.94
562.93	100.64
563.10	49.15
563.26	4.68
563.42	77.24
563.59	86.60
563.75	23.41
563.92	86.60
564.08	93.62
564.24	86.60
564.41	138.09
564.57	107.66
564.74	84.26
564.90	86.60
565.07	182.56
565.23	112.35
565.39	70.22
565.56	63.19
565.72	107.66
565.88	105.32
566.05	74.90
566.21	44.47
566.38	135.75
566.54	95.96
566.70	51.49
566.87	39.79
567.03	100.64
567.19	0.00
567.36	107.66
567.52	74.90
567.68	32.77
567.85	23.41
568.01	98.30
568.17	72.56
568.34	74.90
568.50	56.17
568.66	88.94
568.83	39.79
568.99	110.01
569.15	110.01
569.32	56.17
569.48	95.96
569.64	100.64
569.81	23.41
569.97	117.03
570.13	84.26
570.30	2.34
570.46	86.60
570.62	56.17
570.78	28.09
570.95	100.64
571.11	70.22
571.27	37.45
571.43	16.38
571.60	102.98
571.76	102.98
571.92	128.73
572.09	74.90
572.25	44.47
572.41	60.85
572.57	95.96
572.74	88.94
572.90	35.11
573.06	51.49
573.22	14.04
573.38	65.54
573.55	79.58
573.71	124.05
573.87	30.43
574.03	77.24
574.20	98.30
574.36	91.28
574.52	51.49
574.68	42.13
574.84	79.58
575.01	88.94
575.17	49.15
575.33	86.60
575.49	110.01
575.65	65.54
575.82	58.51
575.98	107.66
576.14	107.66
576.30	77.24
576.46	65.54
576.62	112.35
576.79	105.32
576.95	112.35
577.11	140.43
577.27	53.83
577.43	39.79
577.59	77.24
577.75	58.51
577.92	70.22
578.08	74.90
578.24	72.56
578.40	77.24
578.56	114.69
578.72	23.41
578.88	28.09
579.04	93.62
579.21	51.49
579.37	67.88
579.53	93.62
579.69	74.90
579.85	159.16
580.01	79.58
580.17	60.85
580.33	105.32
580.49	46.81
580.65	95.96
580.82	88.94
580.98	112.35
581.14	110.01
581.30	67.88
581.46	126.39
581.62	112.35
581.78	117.03
581.94	56.17
582.10	93.62
582.26	25.75
582.42	74.90
582.58	100.64
582.74	166.18
582.90	65.54
583.06	135.75
583.22	67.88
583.38	88.94
583.54	56.17
583.70	42.13
583.86	86.60
584.02	84.26
584.18	91.28
584.34	58.51
584.50	49.15
584.66	72.56
584.82	100.64
584.98	44.47
585.14	46.81
585.30	28.09
585.46	77.24
585.62	138.09
585.78	88.94
585.94	114.69
586.10	56.17
586.26	30.43
586.42	126.39
586.58	53.83
586.74	60.85
586.90	98.30
587.06	112.35
587.22	84.26
587.38	128.73
587.54	107.66
587.70	72.56
587.86	114.69
588.02	0.00
588.18	21.06
588.34	84.26
588.49	58.51
588.65	11.70
588.81	124.05
588.97	46.81
589.13	98.30
589.29	140.43
589.45	35.11
589.61	77.24
589.77	114.69
589.93	102.98
590.08	79.58
590.24	53.83
590.40	77.24
590.56	56.17
590.72	30.43
590.88	21.06
591.04	112.35
591.20	67.88
591.35	79.58
591.51	84.26
591.67	14.04
591.83	79.58
591.99	91.28
592.15	46.81
592.31	30.43
592.46	105.32
592.62	88.94
592.78	37.45
592.94	9.36
593.10	0.00
593.26	2.34
593.41	93.62
593.57	9.36
593.73	126.39
593.89	93.62
594.05	46.81
594.20	117.03
594.36	105.32
594.52	44.47
594.68	23.41
594.84	117.03
594.99	60.85
595.15	39.79
595.31	121.71
595.47	133.41
595.62	42.13
595.78	44.47
595.94	42.13
596.10	84.26
596.25	105.32
596.41	37.45
596.57	28.09
596.73	65.54
596.88	23.41
597.04	35.11
597.20	67.88
597.36	100.64
597.51	25.75
597.67	105.32
597.83	119.37
597.99	86.60
598.14	91.28
598.30	112.35
598.46	11.70
598.61	67.88
598.77	21.06
598.93	42.13
599.09	149.79
599.24	25.75
599.40	25.75
599.56	119.37
599.71	126.39
599.87	56.17
600.03	28.09
600.18	72.56
600.34	49.15
600.50	93.62
600.65	63.19
600.81	91.28
600.97	0.00
601.12	49.15
601.28	60.85
601.44	49.15
601.59	30.43
601.75	72.56
601.91	105.32
602.06	70.22
602.22	14.04
602.37	88.94
602.53	88.94
602.69	91.28
602.84	60.85
603.00	30.43
603.16	65.54
603.31	91.28
603.47	84.26
603.62	28.09
603.78	88.94
603.94	100.64
604.09	98.30
604.25	163.84
604.40	95.96
604.56	86.60
604.71	121.71
604.87	81.92
605.03	39.79
605.18	28.09
605.34	46.81
605.49	63.19
605.65	14.04
605.80	46.81
605.96	70.22
606.12	4.68
606.27	70.22
606.43	51.49
606.58	28.09
606.74	60.85
606.89	98.30
607.05	65.54
607.20	77.24
607.36	86.60
607.51	23.41
607.67	39.79
607.82	21.06
607.98	114.69
608.13	46.81
608.29	53.83
608.44	98.30
608.60	7.02
608.75	93.62
608.91	135.75
609.06	72.56
609.22	49.15
609.37	63.19
609.53	74.90
609.68	25.75
609.84	72.56
609.99	32.77
610.15	173.20
610.30	32.77
610.46	65.54
610.61	86.60
610.76	58.51
610.92	72.56
611.07	0.00
611.23	102.98
611.38	88.94
611.54	14.04
611.69	128.73
611.84	58.51
612.00	46.81
612.15	42.13
612.31	30.43
612.46	81.92
612.62	58.51
612.77	0.00
612.92	25.75
613.08	95.96
613.23	0.00
613.39	67.88
613.54	58.51
613.69	124.05
613.85	25.75
614.00	0.00
614.15	37.45
614.31	91.28
614.46	44.47
614.62	18.72
614.77	81.92
614.92	98.30
615.08	56.17
615.23	4.68
615.38	105.32
615.54	79.58
615.69	42.13
615.84	67.88
616.00	46.81
616.15	86.60
616.30	32.77
616.46	74.90
616.61	4.68
616.76	79.58
616.92	23.41
617.07	147.45
617.22	95.96
617.37	65.54
617.53	56.17
617.68	95.96
617.83	0.00
617.99	166.18
618.14	53.83
618.29	21.06
618.45	21.06
618.60	63.19
618.75	79.58
618.90	37.45
619.06	77.24
619.21	39.79
619.36	44.47
619.51	7.02
619.67	93.62
619.82	145.11
619.97	84.26
620.12	65.54
620.28	56.17
620.43	37.45
620.58	72.56
620.73	70.22
620.89	42.13
621.04	84.26
621.19	114.69
621.34	88.94
621.49	88.94
621.65	0.00
621.80	44.47
621.95	79.58
622.10	42.13
622.25	105.32
622.41	35.11
622.56	46.81
622.71	79.58
622.86	18.72
623.01	4.68
623.16	42.13
623.32	102.98
623.47	88.94
623.62	2.34
623.77	124.05
623.92	58.51
624.07	32.77
624.23	67.88
624.38	4.68
624.53	117.03
624.68	112.35
624.83	126.39
624.98	51.49
625.13	86.60
625.29	88.94
625.44	60.85
625.59	7.02
625.74	16.38
625.89	72.56
626.04	67.88
626.19	30.43
626.34	100.64
626.49	39.79
626.65	110.01
626.80	81.92
626.95	88.94
627.10	70.22
627.25	49.15
627.40	37.45
627.55	0.00
627.70	58.51
627.85	93.62
628.00	53.83
628.15	49.15
628.30	35.11
628.45	49.15
628.60	100.64
628.76	81.92
628.91	65.54
629.06	91.28
629.21	91.28
629.36	65.54
629.51	7.02
629.66	11.70
629.81	58.51
629.96	63.19
630.11	39.79
630.26	42.13
630.41	84.26
630.56	102.98
630.71	63.19
630.86	0.00
631.01	0.00
631.16	86.60
631.31	88.94
631.46	32.77
631.61	53.83
631.76	86.60
631.91	72.56
632.06	37.45
632.21	18.72
632.36	70.22
632.51	35.11
632.66	98.30
632.81	70.22
632.96	145.11
633.10	79.58
633.25	86.60
633.40	63.19
633.55	67.88
633.70	65.54
633.85	58.51
634.00	53.83
634.15	44.47
634.30	37.45
634.45	81.92
634.60	44.47
634.75	16.38
634.90	7.02
635.05	46.81
635.19	114.69
635.34	32.77
635.49	39.79
635.64	72.56
635.79	60.85
635.94	32.77
636.09	21.06
636.24	0.00
636.39	0.00
636.53	107.66
636.68	63.19
636.83	112.35
636.98	35.11
637.13	51.49
637.28	0.00
637.43	46.81
637.57	77.24
637.72	79.58
637.87	14.04
638.02	95.96
638.17	53.83
638.32	124.05
638.46	138.09
638.61	51.49
638.76	93.62
638.91	107.66
639.06	79.58
639.20	84.26
639.35	98.30
639.50	49.15
639.65	0.00
639.80	79.58
639.94	0.00
640.09	51.49
640.24	21.06
640.39	126.39
640.54	39.79
640.68	44.47
640.83	46.81
640.98	2.34
641.13	95.96
641.27	56.17
641.42	2.34
641.57	53.83
641.72	4.68
641.86	58.51
642.01	91.28
642.16	135.75
642.31	110.01
642.45	32.77
642.60	21.06
642.75	32.77
642.90	56.17
643.04	77.24
643.19	23.41
643.34	79.58
643.48	53.83
643.63	0.00
643.78	102.98
643.93	58.51
644.07	49.15
644.22	46.81
644.37	14.04
644.51	79.58
644.66	65.54
644.81	58.51
644.95	32.77
645.10	107.66
645.25	67.88
645.39	86.60
645.54	110.01
645.69	51.49
645.83	70.22
645.98	88.94
646.13	56.17
646.27	35.11
646.42	11.70
646.57	44.47
646.71	39.79
646.86	79.58
647.00	117.03
647.15	16.38
647.30	42.13
647.44	32.77
647.59	23.41
647.74	0.00
647.88	49.15
648.03	74.90
648.17	28.09
648.32	70.22
648.47	51.49
648.61	35.11
648.76	117.03
648.90	84.26
649.05	23.41
649.20	53.83
649.34	77.24
649.49	77.24
649.63	0.00
649.78	65.54
649.92	91.28
650.07	60.85
650.21	63.19
650.36	28.09
650.51	67.88
650.65	46.81
650.80	44.47
650.94	88.94
651.09	84.26
651.23	39.79
651.38	49.15
651.52	84.26
651.67	7.02
651.81	77.24
651.96	98.30
652.10	77.24
652.25	88.94
652.39	35.11
652.54	9.36
652.68	39.79
652.83	105.32
652.97	0.00
653.12	9.36
653.26	46.81
653.41	28.09
653.55	25.75
653.70	46.81
653.84	84.26
653.99	46.81
654.13	14.04
654.27	46.81
654.42	81.92
654.56	14.04
654.71	44.47
654.85	2.34
655.00	72.56
655.14	0.00
655.29	0.00
655.43	51.49
655.57	65.54
655.72	42.13
655.86	23.41
656.01	46.81
656.15	49.15
656.30	131.07
656.44	100.64
656.58	23.41
656.73	84.26
656.87	0.00
657.01	81.92
657.16	0.00
657.30	53.83
657.45	56.17
657.59	42.13
657.73	102.98
657.88	67.88
658.02	100.64
658.16	65.54
658.31	117.03
658.45	42.13
658.60	28.09
658.74	67.88
658.88	28.09
659.03	49.15
659.17	18.72
659.31	91.28
659.46	42.13
659.60	88.94
659.74	46.81
659.89	81.92
660.03	95.96
660.17	51.49
660.32	37.45
660.46	37.45
660.60	11.70
660.74	9.36
660.89	23.41
661.03	18.72
661.17	79.58
661.32	46.81
661.46	65.54
661.60	11.70
661.74	11.70
661.89	72.56
662.03	2.34
662.17	0.00
662.31	74.90
662.46	28.09
662.60	9.36
662.74	0.00
662.88	37.45
663.03	32.77
663.17	44.47
663.31	65.54
663.45	98.30
663.60	56.17
663.74	105.32
663.88	32.77
664.02	51.49
664.17	0.00
664.31	25.75
664.45	18.72
664.59	7.02
664.73	21.06
664.88	42.13
665.02	53.83
665.16	84.26
665.30	102.98
665.44	35.11
665.59	86.60
665.73	46.81
665.87	46.81
666.01	110.01
666.15	0.00
666.29	30.43
666.44	25.75
666.58	67.88
666.72	0.00
666.86	70.22
667.00	86.60
667.14	30.43
667.28	23.41
667.43	21.06
667.57	39.79
667.71	56.17
667.85	0.00
667.99	28.09
668.13	35.11
668.27	58.51
668.41	74.90
668.56	37.45
668.70	42.13
668.84	7.02
668.98	53.83
669.12	42.13
669.26	35.11
669.40	102.98
669.54	30.43
669.68	154.48
669.82	58.51
669.96	95.96
670.10	0.00
670.25	39.79
670.39	72.56
670.53	16.38
670.67	81.92
670.81	77.24
670.95	105.32
671.09	77.24
671.23	70.22
671.37	117.03
671.51	51.49
671.65	93.62
671.79	0.00
671.93	42.13
672.07	0.00
672.21	60.85
672.35	0.00
672.49	0.00
672.63	88.94
672.77	32.77
672.91	114.69
673.05	86.60
673.19	0.00
673.33	114.69
673.47	49.15
673.61	42.13
673.75	0.00
673.89	60.85
674.03	28.09
674.17	51.49
674.31	44.47
674.45	51.49
674.59	81.92
674.73	0.00
674.87	23.41
675.01	98.30
675.15	53.83
675.29	58.51
675.43	0.00
675.56	60.85
675.70	128.73
675.84	35.11
675.98	51.49
676.12	35.11
676.26	105.32
676.40	32.77
676.54	98.30
676.68	2.34
676.82	49.15
676.96	0.00
677.10	98.30
677.23	42.13
677.37	67.88
677.51	0.00
677.65	88.94
677.79	56.17
677.93	46.81
678.07	53.83
678.21	0.00
678.34	95.96
678.48	9.36
678.62	25.75
678.76	42.13
678.90	79.58
679.04	114.69
679.18	42.13
679.31	11.70
679.45	67.88
679.59	39.79
679.73	0.00
679.87	0.00
680.00	93.62
680.14	32.77
680.28	0.00
680.42	0.00
680.56	0.00
680.70	32.77
680.83	23.41
680.97	107.66
681.11	79.58
681.25	81.92
681.39	39.79
681.52	0.00
681.66	67.88
681.80	37.45
681.94	74.90
682.07	70.22
682.21	25.75
682.35	74.90
682.49	9.36
682.62	30.43
682.76	67.88
682.90	46.81
683.04	72.56
683.17	65.54
683.31	30.43
683.45	100.64
683.59	23.41
683.72	67.88
683.86	51.49
684.00	102.98
684.13	65.54
684.27	0.00
684.41	63.19
684.55	35.11
684.68	23.41
684.82	51.49
684.96	0.00
685.09	39.79
685.23	72.56
685.37	23.41
685.50	0.00
685.64	0.00
685.78	77.24
685.91	16.38
686.05	39.79
686.19	30.43
686.32	0.00
686.46	16.38
686.60	67.88
686.73	49.15
686.87	46.81
687.01	7.02
687.14	0.00
687.28	88.94
687.42	0.00
687.55	0.00
687.69	60.85
687.82	65.54
687.96	70.22
688.10	0.00
688.23	84.26
688.37	51.49
688.50	32.77
688.64	77.24
688.78	11.70
688.91	25.75
689.05	30.43
689.18	35.11
689.32	0.00
689.46	63.19
689.59	65.54
689.73	70.22
689.86	25.75
690.00	49.15
690.13	18.72
690.27	60.85
690.41	0.00
690.54	86.60
690.68	49.15
690.81	56.17
690.95	44.47
691.08	39.79
691.22	18.72
691.35	42.13
691.49	28.09
691.62	0.00
691.76	25.75
691.89	23.41
692.03	0.00
692.16	0.00
692.30	72.56
692.43	9.36
692.57	65.54
692.70	81.92
692.84	16.38
692.97	100.64
693.11	42.13
693.24	79.58
693.38	49.15
693.51	84.26
693.65	65.54
693.78	39.79
693.92	93.62
694.05	60.85
694.19	42.13
694.32	65.54
694.45	58.51
694.59	39.79
694.72	28.09
694.86	95.96
694.99	70.22
695.13	37.45
695.26	25.75
695.39	51.49
695.53	39.79
695.66	70.22
695.80	30.43
695.93	0.00
696.07	42.13
696.20	88.94
696.33	14.04
696.47	28.09
696.60	39.79
696.73	53.83
696.87	49.15
697.00	107.66
697.14	72.56
697.27	44.47
697.40	39.79
697.54	28.09
697.67	0.00
697.80	88.94
697.94	35.11
698.07	70.22
698.21	0.00
698.34	65.54
698.47	16.38
698.61	30.43
698.74	35.11
698.87	42.13
699.01	58.51
699.14	88.94
699.27	0.00
699.40	42.13
699.54	107.66
699.67	0.00
699.80	37.45
699.94	11.70
700.07	42.13
700.20	65.54
700.34	88.94
700.47	14.04
700.60	7.02
700.73	131.07
700.87	77.24
701.00	28.09
701.13	98.30
701.26	60.85
701.40	9.36
701.53	9.36
701.66	86.60
701.79	0.00
701.93	46.81
702.06	18.72
702.19	65.54
702.32	4.68
702.46	30.43
702.59	42.13
702.72	0.00
702.85	18.72
702.99	21.06
703.12	21.06
703.25	93.62
703.38	0.00
703.51	65.54
703.65	49.15
703.78	30.43
703.91	110.01
704.04	0.00
704.17	140.43
704.31	60.85
704.44	28.09
704.57	110.01
704.70	0.00
704.83	124.05
704.96	14.04
705.10	14.04
705.23	39.79
>>>>>End Processed Spectral Data<<<<<
