SpectraSuite Data File
++++++++++++++++++++++++++++++++++++
Date: Fri Oct 04 12:13:42 GMT-05:00 2013
User: price-jones
Dark Spectrum Present: No
Reference Spectrum Present: No
Number of Sampled Component Spectra: 1
Spectrometers: USB2+H05261
Integration Time (usec): 10000 (USB2+H05261)
Spectra Averaged: 1 (USB2+H05261)
Boxcar Smoothing: 0 (USB2+H05261)
Correct for Electrical Dark: No (USB2+H05261)
Strobe/Lamp Enabled: No (USB2+H05261)
Correct for Detector Non-linearity: No (USB2+H05261)
Correct for Stray Light: No (USB2+H05261)
Number of Pixels in Processed Spectrum: 2048
>>>>>Begin Processed Spectral Data<<<<<
365.73	16.38
365.92	16.38
366.12	16.38
366.32	0.00
366.52	0.00
366.72	0.00
366.91	0.00
367.11	0.00
367.31	0.00
367.51	0.00
367.70	0.00
367.90	0.00
368.10	0.00
368.30	0.00
368.49	0.00
368.69	0.00
368.89	0.00
369.09	0.00
369.28	0.00
369.48	0.00
369.68	0.00
369.87	0.00
370.07	0.00
370.27	0.00
370.47	0.00
370.66	0.00
370.86	0.00
371.06	0.00
371.25	7.02
371.45	4.68
371.65	0.00
371.84	32.77
372.04	0.00
372.24	11.70
372.44	35.11
372.63	14.04
372.83	16.38
373.03	0.00
373.22	35.11
373.42	28.09
373.62	63.19
373.81	58.51
374.01	30.43
374.21	30.43
374.40	56.17
374.60	0.00
374.79	79.58
374.99	0.00
375.19	77.24
375.38	11.70
375.58	46.81
375.78	0.00
375.97	0.00
376.17	21.06
376.37	0.00
376.56	21.06
376.76	28.09
376.95	39.79
377.15	28.09
377.35	37.45
377.54	56.17
377.74	72.56
377.93	39.79
378.13	105.32
378.33	25.75
378.52	11.70
378.72	0.00
378.91	77.24
379.11	32.77
379.31	0.00
379.50	4.68
379.70	28.09
379.89	0.00
380.09	32.77
380.28	44.47
380.48	0.00
380.68	0.00
380.87	58.51
381.07	0.00
381.26	0.00
381.46	4.68
381.65	11.70
381.85	28.09
382.04	28.09
382.24	32.77
382.43	63.19
382.63	0.00
382.83	28.09
383.02	126.39
383.22	9.36
383.41	0.00
383.61	42.13
383.80	0.00
384.00	77.24
384.19	35.11
384.39	79.58
384.58	0.00
384.78	0.00
384.97	2.34
385.17	0.00
385.36	0.00
385.56	23.41
385.75	0.00
385.95	25.75
386.14	18.72
386.34	60.85
386.53	84.26
386.72	60.85
386.92	86.60
387.11	16.38
387.31	44.47
387.50	18.72
387.70	11.70
387.89	49.15
388.09	0.00
388.28	42.13
388.48	7.02
388.67	37.45
388.86	0.00
389.06	49.15
389.25	74.90
389.45	32.77
389.64	2.34
389.84	0.00
390.03	51.49
390.22	0.00
390.42	16.38
390.61	79.58
390.81	42.13
391.00	0.00
391.19	49.15
391.39	0.00
391.58	93.62
391.78	0.00
391.97	58.51
392.16	0.00
392.36	9.36
392.55	0.00
392.75	84.26
392.94	58.51
393.13	0.00
393.33	0.00
393.52	11.70
393.71	30.43
393.91	37.45
394.10	0.00
394.29	107.66
394.49	0.00
394.68	21.06
394.88	77.24
395.07	2.34
395.26	16.38
395.46	79.58
395.65	4.68
395.84	2.34
396.04	46.81
396.23	37.45
396.42	25.75
396.62	39.79
396.81	0.00
397.00	0.00
397.19	65.54
397.39	0.00
397.58	35.11
397.77	0.00
397.97	67.88
398.16	65.54
398.35	30.43
398.55	32.77
398.74	65.54
398.93	16.38
399.12	0.00
399.32	0.00
399.51	2.34
399.70	98.30
399.90	65.54
400.09	25.75
400.28	77.24
400.47	4.68
400.67	39.79
400.86	74.90
401.05	35.11
401.24	79.58
401.44	0.00
401.63	28.09
401.82	67.88
402.01	35.11
402.21	16.38
402.40	0.00
402.59	86.60
402.78	67.88
402.97	135.75
403.17	39.79
403.36	35.11
403.55	32.77
403.74	21.06
403.93	0.00
404.13	4.68
404.32	0.00
404.51	46.81
404.70	44.47
404.89	44.47
405.09	46.81
405.28	25.75
405.47	0.00
405.66	98.30
405.85	58.51
406.05	53.83
406.24	63.19
406.43	88.94
406.62	9.36
406.81	35.11
407.00	0.00
407.20	21.06
407.39	35.11
407.58	4.68
407.77	28.09
407.96	30.43
408.15	14.04
408.34	35.11
408.54	0.00
408.73	72.56
408.92	0.00
409.11	0.00
409.30	0.00
409.49	4.68
409.68	23.41
409.87	0.00
410.07	0.00
410.26	77.24
410.45	51.49
410.64	0.00
410.83	42.13
411.02	49.15
411.21	39.79
411.40	81.92
411.59	18.72
411.78	39.79
411.98	16.38
412.17	7.02
412.36	79.58
412.55	100.64
412.74	51.49
412.93	16.38
413.12	0.00
413.31	56.17
413.50	0.00
413.69	79.58
413.88	14.04
414.07	16.38
414.26	49.15
414.45	42.13
414.64	30.43
414.83	0.00
415.02	51.49
415.22	58.51
415.41	51.49
415.60	58.51
415.79	46.81
415.98	88.94
416.17	0.00
416.36	44.47
416.55	32.77
416.74	95.96
416.93	100.64
417.12	4.68
417.31	53.83
417.50	25.75
417.69	42.13
417.88	37.45
418.07	28.09
418.26	95.96
418.45	46.81
418.64	67.88
418.83	35.11
419.02	0.00
419.21	44.47
419.39	4.68
419.58	0.00
419.77	51.49
419.96	63.19
420.15	25.75
420.34	0.00
420.53	84.26
420.72	65.54
420.91	25.75
421.10	0.00
421.29	74.90
421.48	67.88
421.67	35.11
421.86	74.90
422.05	14.04
422.24	53.83
422.43	37.45
422.61	35.11
422.80	0.00
422.99	44.47
423.18	23.41
423.37	56.17
423.56	53.83
423.75	0.00
423.94	65.54
424.13	14.04
424.32	18.72
424.50	0.00
424.69	23.41
424.88	23.41
425.07	46.81
425.26	42.13
425.45	0.00
425.64	32.77
425.83	39.79
426.01	88.94
426.20	28.09
426.39	44.47
426.58	30.43
426.77	28.09
426.96	11.70
427.15	46.81
427.33	28.09
427.52	25.75
427.71	4.68
427.90	25.75
428.09	74.90
428.28	23.41
428.46	65.54
428.65	65.54
428.84	39.79
429.03	9.36
429.22	7.02
429.40	9.36
429.59	32.77
429.78	37.45
429.97	102.98
430.16	18.72
430.34	60.85
430.53	65.54
430.72	0.00
430.91	4.68
431.10	28.09
431.28	46.81
431.47	84.26
431.66	98.30
431.85	0.00
432.03	51.49
432.22	74.90
432.41	0.00
432.60	51.49
432.79	58.51
432.97	21.06
433.16	0.00
433.35	25.75
433.54	23.41
433.72	23.41
433.91	53.83
434.10	7.02
434.28	79.58
434.47	7.02
434.66	23.41
434.85	46.81
435.03	0.00
435.22	67.88
435.41	58.51
435.59	7.02
435.78	72.56
435.97	60.85
436.16	42.13
436.34	35.11
436.53	74.90
436.72	23.41
436.90	53.83
437.09	86.60
437.28	58.51
437.46	0.00
437.65	0.00
437.84	30.43
438.02	0.00
438.21	65.54
438.40	21.06
438.58	0.00
438.77	91.28
438.96	65.54
439.14	91.28
439.33	91.28
439.52	14.04
439.70	44.47
439.89	11.70
440.08	35.11
440.26	107.66
440.45	51.49
440.63	44.47
440.82	23.41
441.01	70.22
441.19	46.81
441.38	14.04
441.57	88.94
441.75	39.79
441.94	79.58
442.12	91.28
442.31	32.77
442.50	77.24
442.68	72.56
442.87	133.41
443.05	67.88
443.24	74.90
443.43	46.81
443.61	131.07
443.80	0.00
443.98	37.45
444.17	0.00
444.35	16.38
444.54	9.36
444.73	44.47
444.91	44.47
445.10	93.62
445.28	4.68
445.47	49.15
445.65	107.66
445.84	74.90
446.02	74.90
446.21	53.83
446.39	56.17
446.58	91.28
446.77	37.45
446.95	84.26
447.14	86.60
447.32	79.58
447.51	11.70
447.69	0.00
447.88	114.69
448.06	0.00
448.25	56.17
448.43	42.13
448.62	77.24
448.80	74.90
448.99	18.72
449.17	42.13
449.36	28.09
449.54	2.34
449.73	63.19
449.91	51.49
450.10	91.28
450.28	35.11
450.46	58.51
450.65	11.70
450.83	37.45
451.02	4.68
451.20	25.75
451.39	35.11
451.57	49.15
451.76	112.35
451.94	81.92
452.13	81.92
452.31	51.49
452.49	16.38
452.68	49.15
452.86	39.79
453.05	51.49
453.23	65.54
453.42	95.96
453.60	114.69
453.78	30.43
453.97	42.13
454.15	51.49
454.34	39.79
454.52	4.68
454.70	91.28
454.89	4.68
455.07	74.90
455.26	28.09
455.44	25.75
455.62	58.51
455.81	28.09
455.99	70.22
456.17	30.43
456.36	51.49
456.54	67.88
456.73	161.50
456.91	112.35
457.09	72.56
457.28	72.56
457.46	102.98
457.64	30.43
457.83	11.70
458.01	14.04
458.19	42.13
458.38	60.85
458.56	60.85
458.74	53.83
458.93	93.62
459.11	37.45
459.29	133.41
459.48	25.75
459.66	102.98
459.84	60.85
460.03	100.64
460.21	42.13
460.39	126.39
460.57	60.85
460.76	84.26
460.94	42.13
461.12	49.15
461.31	126.39
461.49	42.13
461.67	42.13
461.85	0.00
462.04	135.75
462.22	133.41
462.40	67.88
462.59	49.15
462.77	65.54
462.95	32.77
463.13	72.56
463.32	74.90
463.50	0.00
463.68	56.17
463.86	4.68
464.05	49.15
464.23	93.62
464.41	91.28
464.59	30.43
464.78	35.11
464.96	7.02
465.14	74.90
465.32	63.19
465.50	72.56
465.69	0.00
465.87	9.36
466.05	21.06
466.23	84.26
466.41	51.49
466.60	107.66
466.78	91.28
466.96	95.96
467.14	117.03
467.32	49.15
467.51	32.77
467.69	102.98
467.87	98.30
468.05	84.26
468.23	70.22
468.41	107.66
468.60	39.79
468.78	88.94
468.96	117.03
469.14	11.70
469.32	65.54
469.50	0.00
469.69	63.19
469.87	86.60
470.05	35.11
470.23	70.22
470.41	72.56
470.59	91.28
470.77	86.60
470.95	42.13
471.14	42.13
471.32	39.79
471.50	37.45
471.68	56.17
471.86	42.13
472.04	95.96
472.22	4.68
472.40	49.15
472.58	32.77
472.77	28.09
472.95	56.17
473.13	77.24
473.31	56.17
473.49	30.43
473.67	81.92
473.85	88.94
474.03	91.28
474.21	46.81
474.39	72.56
474.57	4.68
474.75	42.13
474.93	42.13
475.12	124.05
475.30	65.54
475.48	0.00
475.66	81.92
475.84	86.60
476.02	21.06
476.20	14.04
476.38	46.81
476.56	119.37
476.74	88.94
476.92	67.88
477.10	37.45
477.28	126.39
477.46	51.49
477.64	35.11
477.82	91.28
478.00	0.00
478.18	105.32
478.36	70.22
478.54	72.56
478.72	60.85
478.90	77.24
479.08	42.13
479.26	39.79
479.44	42.13
479.62	63.19
479.80	77.24
479.98	88.94
480.16	95.96
480.34	23.41
480.52	91.28
480.70	56.17
480.88	53.83
481.06	39.79
481.24	79.58
481.41	30.43
481.59	56.17
481.77	16.38
481.95	65.54
482.13	63.19
482.31	74.90
482.49	60.85
482.67	86.60
482.85	79.58
483.03	49.15
483.21	91.28
483.39	67.88
483.57	51.49
483.74	88.94
483.92	18.72
484.10	91.28
484.28	79.58
484.46	0.00
484.64	91.28
484.82	117.03
485.00	56.17
485.18	74.90
485.35	93.62
485.53	39.79
485.71	46.81
485.89	35.11
486.07	77.24
486.25	35.11
486.43	121.71
486.61	84.26
486.78	105.32
486.96	49.15
487.14	46.81
487.32	60.85
487.50	98.30
487.68	42.13
487.85	84.26
488.03	16.38
488.21	88.94
488.39	142.77
488.57	65.54
488.75	60.85
488.92	0.00
489.10	53.83
489.28	102.98
489.46	16.38
489.64	39.79
489.81	74.90
489.99	35.11
490.17	79.58
490.35	133.41
490.53	67.88
490.70	39.79
490.88	81.92
491.06	53.83
491.24	74.90
491.41	98.30
491.59	39.79
491.77	37.45
491.95	107.66
492.13	37.45
492.30	28.09
492.48	98.30
492.66	102.98
492.84	23.41
493.01	110.01
493.19	60.85
493.37	105.32
493.54	37.45
493.72	74.90
493.90	119.37
494.08	114.69
494.25	119.37
494.43	44.47
494.61	79.58
494.79	46.81
494.96	39.79
495.14	7.02
495.32	65.54
495.49	100.64
495.67	56.17
495.85	56.17
496.02	107.66
496.20	156.82
496.38	88.94
496.55	93.62
496.73	98.30
496.91	42.13
497.09	49.15
497.26	98.30
497.44	7.02
497.62	51.49
497.79	88.94
497.97	77.24
498.14	95.96
498.32	100.64
498.50	0.00
498.67	77.24
498.85	100.64
499.03	49.15
499.20	84.26
499.38	93.62
499.56	98.30
499.73	63.19
499.91	126.39
500.08	175.54
500.26	100.64
500.44	117.03
500.61	21.06
500.79	32.77
500.97	121.71
501.14	46.81
501.32	100.64
501.49	42.13
501.67	84.26
501.84	32.77
502.02	0.00
502.20	35.11
502.37	25.75
502.55	70.22
502.72	84.26
502.90	51.49
503.07	105.32
503.25	93.62
503.43	102.98
503.60	133.41
503.78	79.58
503.95	128.73
504.13	93.62
504.30	79.58
504.48	140.43
504.65	119.37
504.83	100.64
505.01	74.90
505.18	102.98
505.36	0.00
505.53	95.96
505.71	88.94
505.88	72.56
506.06	81.92
506.23	86.60
506.41	72.56
506.58	67.88
506.76	121.71
506.93	149.79
507.11	9.36
507.28	93.62
507.46	95.96
507.63	46.81
507.81	114.69
507.98	154.48
508.16	65.54
508.33	49.15
508.50	28.09
508.68	44.47
508.85	79.58
509.03	58.51
509.20	53.83
509.38	63.19
509.55	117.03
509.73	60.85
509.90	119.37
510.08	65.54
510.25	4.68
510.42	46.81
510.60	131.07
510.77	140.43
510.95	154.48
511.12	86.60
511.30	49.15
511.47	98.30
511.64	53.83
511.82	102.98
511.99	28.09
512.17	114.69
512.34	98.30
512.51	86.60
512.69	32.77
512.86	14.04
513.04	25.75
513.21	14.04
513.38	77.24
513.56	117.03
513.73	135.75
513.90	133.41
514.08	74.90
514.25	77.24
514.43	51.49
514.60	37.45
514.77	81.92
514.95	98.30
515.12	4.68
515.29	110.01
515.47	49.15
515.64	133.41
515.81	107.66
515.99	93.62
516.16	53.83
516.33	95.96
516.51	67.88
516.68	84.26
516.85	79.58
517.03	81.92
517.20	102.98
517.37	91.28
517.54	67.88
517.72	102.98
517.89	53.83
518.06	95.96
518.24	84.26
518.41	58.51
518.58	79.58
518.75	39.79
518.93	102.98
519.10	149.79
519.27	23.41
519.45	112.35
519.62	128.73
519.79	173.20
519.96	133.41
520.14	119.37
520.31	152.13
520.48	114.69
520.65	124.05
520.83	65.54
521.00	49.15
521.17	95.96
521.34	0.00
521.52	88.94
521.69	100.64
521.86	51.49
522.03	77.24
522.20	91.28
522.38	23.41
522.55	46.81
522.72	0.00
522.89	105.32
523.07	88.94
523.24	107.66
523.41	112.35
523.58	91.28
523.75	72.56
523.92	124.05
524.10	63.19
524.27	74.90
524.44	9.36
524.61	25.75
524.78	133.41
524.96	53.83
525.13	46.81
525.30	58.51
525.47	98.30
525.64	84.26
525.81	98.30
525.98	67.88
526.16	81.92
526.33	121.71
526.50	98.30
526.67	102.98
526.84	72.56
527.01	105.32
527.18	133.41
527.36	74.90
527.53	72.56
527.70	86.60
527.87	88.94
528.04	37.45
528.21	74.90
528.38	142.77
528.55	42.13
528.72	74.90
528.89	114.69
529.07	18.72
529.24	79.58
529.41	67.88
529.58	88.94
529.75	91.28
529.92	77.24
530.09	86.60
530.26	56.17
530.43	121.71
530.60	60.85
530.77	198.95
530.94	140.43
531.11	133.41
531.28	70.22
531.46	39.79
531.63	124.05
531.80	107.66
531.97	105.32
532.14	119.37
532.31	51.49
532.48	95.96
532.65	102.98
532.82	72.56
532.99	39.79
533.16	63.19
533.33	84.26
533.50	77.24
533.67	67.88
533.84	39.79
534.01	77.24
534.18	100.64
534.35	44.47
534.52	140.43
534.69	131.07
534.86	133.41
535.03	124.05
535.20	11.70
535.37	93.62
535.54	95.96
535.71	72.56
535.88	93.62
536.05	72.56
536.22	4.68
536.38	58.51
536.55	124.05
536.72	117.03
536.89	124.05
537.06	65.54
537.23	93.62
537.40	37.45
537.57	44.47
537.74	70.22
537.91	63.19
538.08	93.62
538.25	4.68
538.42	72.56
538.59	117.03
538.75	77.24
538.92	58.51
539.09	84.26
539.26	35.11
539.43	180.22
539.60	91.28
539.77	135.75
539.94	25.75
540.11	70.22
540.28	84.26
540.44	11.70
540.61	60.85
540.78	28.09
540.95	133.41
541.12	149.79
541.29	79.58
541.46	117.03
541.62	60.85
541.79	119.37
541.96	37.45
542.13	93.62
542.30	112.35
542.47	25.75
542.63	65.54
542.80	53.83
542.97	112.35
543.14	37.45
543.31	32.77
543.48	51.49
543.64	102.98
543.81	86.60
543.98	88.94
544.15	42.13
544.32	124.05
544.48	117.03
544.65	149.79
544.82	79.58
544.99	84.26
545.16	107.66
545.32	9.36
545.49	72.56
545.66	105.32
545.83	65.54
546.00	25.75
546.16	81.92
546.33	86.60
546.50	51.49
546.67	77.24
546.83	102.98
547.00	67.88
547.17	30.43
547.34	65.54
547.50	53.83
547.67	98.30
547.84	0.00
548.00	7.02
548.17	100.64
548.34	93.62
548.51	91.28
548.67	84.26
548.84	88.94
549.01	88.94
549.18	100.64
549.34	74.90
549.51	88.94
549.68	51.49
549.84	86.60
550.01	44.47
550.18	119.37
550.34	105.32
550.51	51.49
550.68	161.50
550.84	16.38
551.01	67.88
551.18	98.30
551.34	142.77
551.51	65.54
551.68	65.54
551.84	65.54
552.01	156.82
552.18	102.98
552.34	91.28
552.51	44.47
552.68	51.49
552.84	60.85
553.01	65.54
553.18	93.62
553.34	79.58
553.51	102.98
553.67	0.00
553.84	107.66
554.01	58.51
554.17	74.90
554.34	72.56
554.51	107.66
554.67	154.48
554.84	112.35
555.00	107.66
555.17	126.39
555.33	93.62
555.50	63.19
555.67	119.37
555.83	70.22
556.00	65.54
556.16	98.30
556.33	91.28
556.50	39.79
556.66	102.98
556.83	21.06
556.99	35.11
557.16	112.35
557.32	74.90
557.49	70.22
557.65	126.39
557.82	79.58
557.98	56.17
558.15	30.43
558.32	72.56
558.48	58.51
558.65	79.58
558.81	88.94
558.98	95.96
559.14	65.54
559.31	124.05
559.47	39.79
559.64	91.28
559.80	128.73
559.97	84.26
560.13	119.37
560.30	84.26
560.46	86.60
560.63	114.69
560.79	70.22
560.96	100.64
561.12	95.96
561.29	86.60
561.45	114.69
561.61	39.79
561.78	114.69
561.94	23.41
562.11	53.83
562.27	100.64
562.44	70.22
562.60	67.88
562.77	81.92
562.93	93.62
563.10	93.62
563.26	37.45
563.42	126.39
563.59	102.98
563.75	79.58
563.92	112.35
564.08	37.45
564.24	81.92
564.41	112.35
564.57	49.15
564.74	2.34
564.90	49.15
565.07	91.28
565.23	98.30
565.39	77.24
565.56	112.35
565.72	0.00
565.88	44.47
566.05	81.92
566.21	93.62
566.38	84.26
566.54	88.94
566.70	70.22
566.87	65.54
567.03	91.28
567.19	46.81
567.36	124.05
567.52	126.39
567.68	67.88
567.85	60.85
568.01	74.90
568.17	79.58
568.34	0.00
568.50	37.45
568.66	37.45
568.83	72.56
568.99	39.79
569.15	124.05
569.32	95.96
569.48	149.79
569.64	105.32
569.81	77.24
569.97	70.22
570.13	46.81
570.30	25.75
570.46	114.69
570.62	58.51
570.78	0.00
570.95	95.96
571.11	39.79
571.27	58.51
571.43	112.35
571.60	46.81
571.76	60.85
571.92	67.88
572.09	84.26
572.25	95.96
572.41	63.19
572.57	79.58
572.74	70.22
572.90	46.81
573.06	42.13
573.22	107.66
573.38	86.60
573.55	37.45
573.71	72.56
573.87	138.09
574.03	119.37
574.20	95.96
574.36	93.62
574.52	124.05
574.68	0.00
574.84	35.11
575.01	60.85
575.17	39.79
575.33	81.92
575.49	98.30
575.65	117.03
575.82	39.79
575.98	128.73
576.14	84.26
576.30	102.98
576.46	72.56
576.62	81.92
576.79	107.66
576.95	121.71
577.11	56.17
577.27	60.85
577.43	67.88
577.59	72.56
577.75	30.43
577.92	56.17
578.08	126.39
578.24	105.32
578.40	84.26
578.56	149.79
578.72	18.72
578.88	110.01
579.04	32.77
579.21	93.62
579.37	124.05
579.53	67.88
579.69	128.73
579.85	58.51
580.01	51.49
580.17	126.39
580.33	0.00
580.49	0.00
580.65	28.09
580.82	49.15
580.98	0.00
581.14	44.47
581.30	93.62
581.46	60.85
581.62	98.30
581.78	119.37
581.94	142.77
582.10	67.88
582.26	95.96
582.42	70.22
582.58	107.66
582.74	67.88
582.90	81.92
583.06	79.58
583.22	110.01
583.38	110.01
583.54	119.37
583.70	39.79
583.86	102.98
584.02	77.24
584.18	107.66
584.34	32.77
584.50	95.96
584.66	119.37
584.82	32.77
584.98	86.60
585.14	56.17
585.30	91.28
585.46	86.60
585.62	114.69
585.78	67.88
585.94	0.00
586.10	72.56
586.26	107.66
586.42	72.56
586.58	77.24
586.74	140.43
586.90	0.00
587.06	77.24
587.22	58.51
587.38	65.54
587.54	58.51
587.70	119.37
587.86	81.92
588.02	18.72
588.18	105.32
588.34	67.88
588.49	9.36
588.65	91.28
588.81	107.66
588.97	91.28
589.13	23.41
589.29	84.26
589.45	79.58
589.61	0.00
589.77	74.90
589.93	49.15
590.08	107.66
590.24	70.22
590.40	79.58
590.56	107.66
590.72	74.90
590.88	0.00
591.04	81.92
591.20	46.81
591.35	72.56
591.51	95.96
591.67	37.45
591.83	23.41
591.99	67.88
592.15	95.96
592.31	131.07
592.46	39.79
592.62	88.94
592.78	110.01
592.94	51.49
593.10	35.11
593.26	37.45
593.41	121.71
593.57	35.11
593.73	28.09
593.89	102.98
594.05	0.00
594.20	60.85
594.36	135.75
594.52	138.09
594.68	81.92
594.84	121.71
594.99	117.03
595.15	88.94
595.31	112.35
595.47	81.92
595.62	88.94
595.78	39.79
595.94	86.60
596.10	51.49
596.25	102.98
596.41	74.90
596.57	88.94
596.73	2.34
596.88	88.94
597.04	105.32
597.20	84.26
597.36	4.68
597.51	88.94
597.67	124.05
597.83	46.81
597.99	23.41
598.14	0.00
598.30	0.00
598.46	88.94
598.61	79.58
598.77	39.79
598.93	140.43
599.09	117.03
599.24	135.75
599.40	131.07
599.56	58.51
599.71	79.58
599.87	72.56
600.03	117.03
600.18	67.88
600.34	93.62
600.50	44.47
600.65	72.56
600.81	56.17
600.97	30.43
601.12	114.69
601.28	67.88
601.44	46.81
601.59	84.26
601.75	28.09
601.91	74.90
602.06	74.90
602.22	86.60
602.37	51.49
602.53	18.72
602.69	4.68
602.84	0.00
603.00	135.75
603.16	93.62
603.31	102.98
603.47	65.54
603.62	110.01
603.78	56.17
603.94	67.88
604.09	126.39
604.25	63.19
604.40	133.41
604.56	95.96
604.71	95.96
604.87	16.38
605.03	23.41
605.18	63.19
605.34	56.17
605.49	77.24
605.65	88.94
605.80	16.38
605.96	79.58
606.12	58.51
606.27	42.13
606.43	79.58
606.58	77.24
606.74	107.66
606.89	65.54
607.05	112.35
607.20	49.15
607.36	37.45
607.51	95.96
607.67	60.85
607.82	117.03
607.98	93.62
608.13	81.92
608.29	74.90
608.44	84.26
608.60	46.81
608.75	32.77
608.91	67.88
609.06	42.13
609.22	23.41
609.37	67.88
609.53	67.88
609.68	91.28
609.84	65.54
609.99	138.09
610.15	79.58
610.30	49.15
610.46	84.26
610.61	28.09
610.76	9.36
610.92	42.13
611.07	28.09
611.23	79.58
611.38	49.15
611.54	14.04
611.69	35.11
611.84	30.43
612.00	119.37
612.15	72.56
612.31	70.22
612.46	102.98
612.62	39.79
612.77	86.60
612.92	63.19
613.08	9.36
613.23	58.51
613.39	63.19
613.54	128.73
613.69	72.56
613.85	0.00
614.00	72.56
614.15	65.54
614.31	42.13
614.46	53.83
614.62	102.98
614.77	39.79
614.92	110.01
615.08	84.26
615.23	65.54
615.38	58.51
615.54	60.85
615.69	67.88
615.84	72.56
616.00	30.43
616.15	35.11
616.30	126.39
616.46	2.34
616.61	100.64
616.76	18.72
616.92	37.45
617.07	35.11
617.22	2.34
617.37	65.54
617.53	21.06
617.68	140.43
617.83	58.51
617.99	95.96
618.14	93.62
618.29	53.83
618.45	84.26
618.60	42.13
618.75	51.49
618.90	37.45
619.06	81.92
619.21	156.82
619.36	11.70
619.51	84.26
619.67	81.92
619.82	98.30
619.97	49.15
620.12	0.00
620.28	11.70
620.43	25.75
620.58	77.24
620.73	81.92
620.89	16.38
621.04	53.83
621.19	44.47
621.34	18.72
621.49	30.43
621.65	135.75
621.80	44.47
621.95	112.35
622.10	42.13
622.25	140.43
622.41	95.96
622.56	49.15
622.71	42.13
622.86	67.88
623.01	65.54
623.16	72.56
623.32	16.38
623.47	0.00
623.62	63.19
623.77	117.03
623.92	30.43
624.07	0.00
624.23	51.49
624.38	46.81
624.53	0.00
624.68	84.26
624.83	81.92
624.98	72.56
625.13	49.15
625.29	74.90
625.44	0.00
625.59	44.47
625.74	131.07
625.89	98.30
626.04	0.00
626.19	65.54
626.34	42.13
626.49	65.54
626.65	93.62
626.80	67.88
626.95	74.90
627.10	58.51
627.25	11.70
627.40	107.66
627.55	37.45
627.70	88.94
627.85	110.01
628.00	86.60
628.15	28.09
628.30	23.41
628.45	0.00
628.60	67.88
628.76	60.85
628.91	70.22
629.06	23.41
629.21	107.66
629.36	63.19
629.51	98.30
629.66	42.13
629.81	56.17
629.96	107.66
630.11	91.28
630.26	72.56
630.41	77.24
630.56	102.98
630.71	39.79
630.86	81.92
631.01	46.81
631.16	124.05
631.31	72.56
631.46	105.32
631.61	110.01
631.76	51.49
631.91	28.09
632.06	39.79
632.21	0.00
632.36	133.41
632.51	18.72
632.66	42.13
632.81	51.49
632.96	65.54
633.10	159.16
633.25	39.79
633.40	98.30
633.55	2.34
633.70	95.96
633.85	91.28
634.00	25.75
634.15	81.92
634.30	9.36
634.45	14.04
634.60	28.09
634.75	110.01
634.90	14.04
635.05	84.26
635.19	102.98
635.34	0.00
635.49	58.51
635.64	72.56
635.79	37.45
635.94	42.13
636.09	105.32
636.24	98.30
636.39	72.56
636.53	105.32
636.68	58.51
636.83	35.11
636.98	9.36
637.13	49.15
637.28	79.58
637.43	121.71
637.57	14.04
637.72	65.54
637.87	32.77
638.02	65.54
638.17	0.00
638.32	23.41
638.46	95.96
638.61	175.54
638.76	107.66
638.91	51.49
639.06	86.60
639.20	112.35
639.35	28.09
639.50	70.22
639.65	60.85
639.80	11.70
639.94	49.15
640.09	58.51
640.24	35.11
640.39	93.62
640.54	39.79
640.68	65.54
640.83	79.58
640.98	23.41
641.13	23.41
641.27	0.00
641.42	0.00
641.57	25.75
641.72	98.30
641.86	79.58
642.01	0.00
642.16	117.03
642.31	30.43
642.45	32.77
642.60	53.83
642.75	60.85
642.90	16.38
643.04	77.24
643.19	124.05
643.34	23.41
643.48	23.41
643.63	46.81
643.78	49.15
643.93	77.24
644.07	95.96
644.22	65.54
644.37	0.00
644.51	9.36
644.66	11.70
644.81	32.77
644.95	0.00
645.10	4.68
645.25	49.15
645.39	16.38
645.54	28.09
645.69	44.47
645.83	21.06
645.98	0.00
646.13	35.11
646.27	28.09
646.42	49.15
646.57	0.00
646.71	110.01
646.86	63.19
647.00	44.47
647.15	35.11
647.30	74.90
647.44	37.45
647.59	30.43
647.74	46.81
647.88	93.62
648.03	152.13
648.17	86.60
648.32	58.51
648.47	72.56
648.61	65.54
648.76	74.90
648.90	79.58
649.05	0.00
649.20	58.51
649.34	44.47
649.49	25.75
649.63	70.22
649.78	0.00
649.92	77.24
650.07	56.17
650.21	60.85
650.36	42.13
650.51	32.77
650.65	46.81
650.80	98.30
650.94	88.94
651.09	72.56
651.23	0.00
651.38	28.09
651.52	72.56
651.67	16.38
651.81	100.64
651.96	100.64
652.10	107.66
652.25	18.72
652.39	60.85
652.54	56.17
652.68	11.70
652.83	35.11
652.97	79.58
653.12	84.26
653.26	53.83
653.41	49.15
653.55	60.85
653.70	60.85
653.84	65.54
653.99	88.94
654.13	98.30
654.27	25.75
654.42	63.19
654.56	74.90
654.71	77.24
654.85	121.71
655.00	110.01
655.14	32.77
655.29	0.00
655.43	56.17
655.57	46.81
655.72	58.51
655.86	51.49
656.01	16.38
656.15	37.45
656.30	53.83
656.44	63.19
656.58	79.58
656.73	9.36
656.87	14.04
657.01	117.03
657.16	16.38
657.30	35.11
657.45	102.98
657.59	44.47
657.73	84.26
657.88	0.00
658.02	49.15
658.16	0.00
658.31	14.04
658.45	72.56
658.60	30.43
658.74	42.13
658.88	23.41
659.03	70.22
659.17	81.92
659.31	42.13
659.46	46.81
659.60	9.36
659.74	30.43
659.89	84.26
660.03	35.11
660.17	23.41
660.32	95.96
660.46	11.70
660.60	79.58
660.74	81.92
660.89	81.92
661.03	65.54
661.17	72.56
661.32	14.04
661.46	88.94
661.60	84.26
661.74	60.85
661.89	28.09
662.03	32.77
662.17	30.43
662.31	32.77
662.46	0.00
662.60	51.49
662.74	32.77
662.88	0.00
663.03	30.43
663.17	56.17
663.31	110.01
663.45	91.28
663.60	0.00
663.74	18.72
663.88	107.66
664.02	53.83
664.17	56.17
664.31	105.32
664.45	91.28
664.59	46.81
664.73	37.45
664.88	37.45
665.02	39.79
665.16	21.06
665.30	65.54
665.44	84.26
665.59	51.49
665.73	86.60
665.87	42.13
666.01	98.30
666.15	56.17
666.29	58.51
666.44	81.92
666.58	39.79
666.72	44.47
666.86	74.90
667.00	86.60
667.14	28.09
667.28	0.00
667.43	42.13
667.57	49.15
667.71	95.96
667.85	72.56
667.99	28.09
668.13	77.24
668.27	105.32
668.41	95.96
668.56	14.04
668.70	32.77
668.84	16.38
668.98	63.19
669.12	70.22
669.26	65.54
669.40	77.24
669.54	128.73
669.68	65.54
669.82	16.38
669.96	51.49
670.10	32.77
670.25	30.43
670.39	72.56
670.53	72.56
670.67	53.83
670.81	39.79
670.95	67.88
671.09	18.72
671.23	86.60
671.37	42.13
671.51	105.32
671.65	65.54
671.79	93.62
671.93	18.72
672.07	60.85
672.21	4.68
672.35	35.11
672.49	11.70
672.63	53.83
672.77	0.00
672.91	0.00
673.05	51.49
673.19	28.09
673.33	35.11
673.47	152.13
673.61	44.47
673.75	60.85
673.89	105.32
674.03	93.62
674.17	42.13
674.31	0.00
674.45	0.00
674.59	23.41
674.73	91.28
674.87	39.79
675.01	0.00
675.15	67.88
675.29	91.28
675.43	30.43
675.56	81.92
675.70	67.88
675.84	49.15
675.98	77.24
676.12	58.51
676.26	72.56
676.40	79.58
676.54	58.51
676.68	46.81
676.82	0.00
676.96	42.13
677.10	30.43
677.23	39.79
677.37	18.72
677.51	63.19
677.65	35.11
677.79	0.00
677.93	21.06
678.07	63.19
678.21	23.41
678.34	11.70
678.48	30.43
678.62	21.06
678.76	0.00
678.90	35.11
679.04	37.45
679.18	0.00
679.31	107.66
679.45	86.60
679.59	72.56
679.73	58.51
679.87	35.11
680.00	44.47
680.14	42.13
680.28	21.06
680.42	0.00
680.56	42.13
680.70	7.02
680.83	95.96
680.97	18.72
681.11	23.41
681.25	79.58
681.39	53.83
681.52	30.43
681.66	51.49
681.80	86.60
681.94	2.34
682.07	0.00
682.21	30.43
682.35	74.90
682.49	114.69
682.62	105.32
682.76	0.00
682.90	0.00
683.04	11.70
683.17	79.58
683.31	105.32
683.45	77.24
683.59	112.35
683.72	145.11
683.86	51.49
684.00	14.04
684.13	14.04
684.27	0.00
684.41	25.75
684.55	100.64
684.68	58.51
684.82	67.88
684.96	0.00
685.09	58.51
685.23	0.00
685.37	42.13
685.50	0.00
685.64	35.11
685.78	95.96
685.91	39.79
686.05	53.83
686.19	4.68
686.32	0.00
686.46	11.70
686.60	14.04
686.73	35.11
686.87	51.49
687.01	16.38
687.14	30.43
687.28	79.58
687.42	0.00
687.55	58.51
687.69	37.45
687.82	2.34
687.96	58.51
688.10	37.45
688.23	49.15
688.37	25.75
688.50	77.24
688.64	74.90
688.78	35.11
688.91	56.17
689.05	0.00
689.18	42.13
689.32	67.88
689.46	0.00
689.59	0.00
689.73	16.38
689.86	42.13
690.00	107.66
690.13	0.00
690.27	53.83
690.41	0.00
690.54	86.60
690.68	11.70
690.81	23.41
690.95	81.92
691.08	72.56
691.22	63.19
691.35	28.09
691.49	18.72
691.62	9.36
691.76	0.00
691.89	42.13
692.03	25.75
692.16	51.49
692.30	49.15
692.43	28.09
692.57	25.75
692.70	18.72
692.84	35.11
692.97	51.49
693.11	0.00
693.24	44.47
693.38	11.70
693.51	28.09
693.65	18.72
693.78	79.58
693.92	7.02
694.05	0.00
694.19	84.26
694.32	30.43
694.45	32.77
694.59	0.00
694.72	112.35
694.86	95.96
694.99	16.38
695.13	44.47
695.26	42.13
695.39	37.45
695.53	25.75
695.66	79.58
695.80	18.72
695.93	0.00
696.07	11.70
696.20	37.45
696.33	18.72
696.47	60.85
696.60	86.60
696.73	70.22
696.87	51.49
697.00	51.49
697.14	4.68
697.27	9.36
697.40	86.60
697.54	53.83
697.67	44.47
697.80	0.00
697.94	25.75
698.07	37.45
698.21	65.54
698.34	32.77
698.47	0.00
698.61	0.00
698.74	93.62
698.87	2.34
699.01	18.72
699.14	21.06
699.27	49.15
699.40	49.15
699.54	46.81
699.67	37.45
699.80	56.17
699.94	84.26
700.07	18.72
700.20	14.04
700.34	37.45
700.47	0.00
700.60	35.11
700.73	84.26
700.87	0.00
701.00	91.28
701.13	0.00
701.26	117.03
701.40	11.70
701.53	46.81
701.66	14.04
701.79	56.17
701.93	0.00
702.06	84.26
702.19	18.72
702.32	60.85
702.46	67.88
702.59	30.43
702.72	72.56
702.85	28.09
702.99	0.00
703.12	35.11
703.25	4.68
703.38	35.11
703.51	58.51
703.65	0.00
703.78	72.56
703.91	91.28
704.04	0.00
704.17	23.41
704.31	23.41
704.44	0.00
704.57	2.34
704.70	72.56
704.83	51.49
704.96	0.00
705.10	77.24
705.23	51.49
>>>>>End Processed Spectral Data<<<<<
