SpectraSuite Data File
++++++++++++++++++++++++++++++++++++
Date: Fri Oct 04 12:13:36 GMT-05:00 2013
User: price-jones
Dark Spectrum Present: No
Reference Spectrum Present: No
Number of Sampled Component Spectra: 1
Spectrometers: USB2+H05261
Integration Time (usec): 10000 (USB2+H05261)
Spectra Averaged: 1 (USB2+H05261)
Boxcar Smoothing: 0 (USB2+H05261)
Correct for Electrical Dark: No (USB2+H05261)
Strobe/Lamp Enabled: No (USB2+H05261)
Correct for Detector Non-linearity: No (USB2+H05261)
Correct for Stray Light: No (USB2+H05261)
Number of Pixels in Processed Spectrum: 2048
>>>>>Begin Processed Spectral Data<<<<<
365.73	0.00
365.92	0.00
366.12	0.00
366.32	0.00
366.52	0.00
366.72	0.00
366.91	0.00
367.11	0.00
367.31	0.00
367.51	0.00
367.70	0.00
367.90	0.00
368.10	0.00
368.30	0.00
368.49	0.00
368.69	0.00
368.89	0.00
369.09	0.00
369.28	0.00
369.48	0.00
369.68	0.00
369.87	0.00
370.07	0.00
370.27	0.00
370.47	0.00
370.66	0.00
370.86	0.00
371.06	0.00
371.25	4.68
371.45	0.00
371.65	0.00
371.84	0.00
372.04	63.19
372.24	37.45
372.44	0.00
372.63	0.00
372.83	0.00
373.03	60.85
373.22	49.15
373.42	25.75
373.62	46.81
373.81	21.06
374.01	30.43
374.21	63.19
374.40	25.75
374.60	44.47
374.79	0.00
374.99	28.09
375.19	32.77
375.38	4.68
375.58	46.81
375.78	63.19
375.97	18.72
376.17	93.62
376.37	25.75
376.56	93.62
376.76	44.47
376.95	60.85
377.15	4.68
377.35	0.00
377.54	67.88
377.74	25.75
377.93	0.00
378.13	25.75
378.33	0.00
378.52	51.49
378.72	0.00
378.91	0.00
379.11	28.09
379.31	16.38
379.50	65.54
379.70	0.00
379.89	0.00
380.09	63.19
380.28	14.04
380.48	0.00
380.68	0.00
380.87	70.22
381.07	11.70
381.26	0.00
381.46	11.70
381.65	11.70
381.85	0.00
382.04	25.75
382.24	0.00
382.43	0.00
382.63	74.90
382.83	7.02
383.02	0.00
383.22	0.00
383.41	0.00
383.61	0.00
383.80	0.00
384.00	0.00
384.19	37.45
384.39	0.00
384.58	21.06
384.78	0.00
384.97	51.49
385.17	7.02
385.36	0.00
385.56	4.68
385.75	77.24
385.95	0.00
386.14	95.96
386.34	0.00
386.53	0.00
386.72	16.38
386.92	0.00
387.11	25.75
387.31	46.81
387.50	25.75
387.70	35.11
387.89	9.36
388.09	88.94
388.28	42.13
388.48	0.00
388.67	0.00
388.86	0.00
389.06	35.11
389.25	35.11
389.45	7.02
389.64	53.83
389.84	58.51
390.03	28.09
390.22	0.00
390.42	51.49
390.61	0.00
390.81	14.04
391.00	0.00
391.19	0.00
391.39	0.00
391.58	16.38
391.78	46.81
391.97	16.38
392.16	23.41
392.36	14.04
392.55	30.43
392.75	18.72
392.94	14.04
393.13	30.43
393.33	0.00
393.52	2.34
393.71	0.00
393.91	14.04
394.10	28.09
394.29	0.00
394.49	42.13
394.68	0.00
394.88	0.00
395.07	44.47
395.26	65.54
395.46	35.11
395.65	51.49
395.84	70.22
396.04	95.96
396.23	25.75
396.42	2.34
396.62	23.41
396.81	14.04
397.00	56.17
397.19	25.75
397.39	88.94
397.58	58.51
397.77	0.00
397.97	32.77
398.16	35.11
398.35	0.00
398.55	65.54
398.74	2.34
398.93	44.47
399.12	60.85
399.32	56.17
399.51	32.77
399.70	65.54
399.90	67.88
400.09	91.28
400.28	0.00
400.47	0.00
400.67	28.09
400.86	14.04
401.05	0.00
401.24	39.79
401.44	93.62
401.63	65.54
401.82	65.54
402.01	11.70
402.21	18.72
402.40	0.00
402.59	63.19
402.78	32.77
402.97	0.00
403.17	30.43
403.36	32.77
403.55	7.02
403.74	0.00
403.93	65.54
404.13	42.13
404.32	42.13
404.51	37.45
404.70	105.32
404.89	11.70
405.09	42.13
405.28	81.92
405.47	21.06
405.66	117.03
405.85	0.00
406.05	18.72
406.24	44.47
406.43	9.36
406.62	102.98
406.81	9.36
407.00	49.15
407.20	14.04
407.39	28.09
407.58	0.00
407.77	53.83
407.96	53.83
408.15	16.38
408.34	53.83
408.54	63.19
408.73	23.41
408.92	72.56
409.11	37.45
409.30	9.36
409.49	58.51
409.68	18.72
409.87	84.26
410.07	60.85
410.26	102.98
410.45	0.00
410.64	51.49
410.83	70.22
411.02	88.94
411.21	67.88
411.40	14.04
411.59	4.68
411.78	28.09
411.98	0.00
412.17	46.81
412.36	2.34
412.55	7.02
412.74	0.00
412.93	11.70
413.12	42.13
413.31	7.02
413.50	49.15
413.69	56.17
413.88	37.45
414.07	39.79
414.26	7.02
414.45	60.85
414.64	42.13
414.83	77.24
415.02	0.00
415.22	30.43
415.41	0.00
415.60	7.02
415.79	28.09
415.98	2.34
416.17	0.00
416.36	60.85
416.55	56.17
416.74	51.49
416.93	0.00
417.12	16.38
417.31	56.17
417.50	74.90
417.69	74.90
417.88	23.41
418.07	23.41
418.26	53.83
418.45	37.45
418.64	0.00
418.83	32.77
419.02	56.17
419.21	2.34
419.39	70.22
419.58	60.85
419.77	60.85
419.96	14.04
420.15	46.81
420.34	81.92
420.53	37.45
420.72	70.22
420.91	121.71
421.10	14.04
421.29	53.83
421.48	133.41
421.67	0.00
421.86	81.92
422.05	88.94
422.24	56.17
422.43	58.51
422.61	28.09
422.80	42.13
422.99	56.17
423.18	51.49
423.37	91.28
423.56	18.72
423.75	0.00
423.94	86.60
424.13	37.45
424.32	51.49
424.50	67.88
424.69	102.98
424.88	30.43
425.07	9.36
425.26	39.79
425.45	0.00
425.64	0.00
425.83	60.85
426.01	42.13
426.20	70.22
426.39	63.19
426.58	23.41
426.77	4.68
426.96	37.45
427.15	2.34
427.33	67.88
427.52	37.45
427.71	98.30
427.90	42.13
428.09	72.56
428.28	84.26
428.46	2.34
428.65	67.88
428.84	35.11
429.03	42.13
429.22	100.64
429.40	70.22
429.59	0.00
429.78	72.56
429.97	53.83
430.16	0.00
430.34	0.00
430.53	49.15
430.72	42.13
430.91	0.00
431.10	7.02
431.28	79.58
431.47	35.11
431.66	56.17
431.85	86.60
432.03	42.13
432.22	138.09
432.41	25.75
432.60	102.98
432.79	63.19
432.97	0.00
433.16	18.72
433.35	51.49
433.54	35.11
433.72	56.17
433.91	65.54
434.10	84.26
434.28	23.41
434.47	21.06
434.66	131.07
434.85	46.81
435.03	58.51
435.22	102.98
435.41	32.77
435.59	23.41
435.78	46.81
435.97	91.28
436.16	65.54
436.34	2.34
436.53	35.11
436.72	14.04
436.90	102.98
437.09	0.00
437.28	49.15
437.46	107.66
437.65	30.43
437.84	37.45
438.02	4.68
438.21	81.92
438.40	117.03
438.58	21.06
438.77	28.09
438.96	56.17
439.14	32.77
439.33	25.75
439.52	84.26
439.70	30.43
439.89	63.19
440.08	0.00
440.26	77.24
440.45	88.94
440.63	28.09
440.82	88.94
441.01	142.77
441.19	2.34
441.38	91.28
441.57	98.30
441.75	39.79
441.94	0.00
442.12	14.04
442.31	56.17
442.50	65.54
442.68	72.56
442.87	46.81
443.05	67.88
443.24	42.13
443.43	49.15
443.61	42.13
443.80	131.07
443.98	65.54
444.17	11.70
444.35	100.64
444.54	9.36
444.73	0.00
444.91	124.05
445.10	86.60
445.28	18.72
445.47	65.54
445.65	74.90
445.84	42.13
446.02	30.43
446.21	74.90
446.39	79.58
446.58	49.15
446.77	39.79
446.95	42.13
447.14	126.39
447.32	81.92
447.51	95.96
447.69	37.45
447.88	49.15
448.06	23.41
448.25	35.11
448.43	100.64
448.62	140.43
448.80	58.51
448.99	0.00
449.17	44.47
449.36	98.30
449.54	30.43
449.73	30.43
449.91	53.83
450.10	84.26
450.28	0.00
450.46	72.56
450.65	65.54
450.83	0.00
451.02	0.00
451.20	63.19
451.39	142.77
451.57	121.71
451.76	42.13
451.94	53.83
452.13	79.58
452.31	100.64
452.49	35.11
452.68	39.79
452.86	67.88
453.05	49.15
453.23	145.11
453.42	4.68
453.60	53.83
453.78	91.28
453.97	65.54
454.15	86.60
454.34	35.11
454.52	60.85
454.70	72.56
454.89	0.00
455.07	7.02
455.26	67.88
455.44	49.15
455.62	60.85
455.81	35.11
455.99	156.82
456.17	93.62
456.36	18.72
456.54	79.58
456.73	53.83
456.91	88.94
457.09	56.17
457.28	0.00
457.46	81.92
457.64	51.49
457.83	39.79
458.01	60.85
458.19	65.54
458.38	77.24
458.56	102.98
458.74	102.98
458.93	28.09
459.11	63.19
459.29	9.36
459.48	37.45
459.66	14.04
459.84	39.79
460.03	93.62
460.21	49.15
460.39	56.17
460.57	98.30
460.76	49.15
460.94	18.72
461.12	25.75
461.31	46.81
461.49	86.60
461.67	16.38
461.85	86.60
462.04	0.00
462.22	117.03
462.40	65.54
462.59	49.15
462.77	79.58
462.95	95.96
463.13	35.11
463.32	9.36
463.50	49.15
463.68	32.77
463.86	35.11
464.05	133.41
464.23	86.60
464.41	28.09
464.59	91.28
464.78	35.11
464.96	63.19
465.14	60.85
465.32	65.54
465.50	98.30
465.69	23.41
465.87	39.79
466.05	46.81
466.23	32.77
466.41	102.98
466.60	81.92
466.78	107.66
466.96	93.62
467.14	16.38
467.32	25.75
467.51	51.49
467.69	117.03
467.87	126.39
468.05	67.88
468.23	119.37
468.41	0.00
468.60	2.34
468.78	4.68
468.96	11.70
469.14	67.88
469.32	28.09
469.50	49.15
469.69	0.00
469.87	39.79
470.05	102.98
470.23	95.96
470.41	67.88
470.59	79.58
470.77	93.62
470.95	79.58
471.14	51.49
471.32	56.17
471.50	53.83
471.68	112.35
471.86	70.22
472.04	0.00
472.22	60.85
472.40	49.15
472.58	28.09
472.77	16.38
472.95	65.54
473.13	70.22
473.31	91.28
473.49	14.04
473.67	65.54
473.85	74.90
474.03	91.28
474.21	4.68
474.39	58.51
474.57	102.98
474.75	119.37
474.93	63.19
475.12	23.41
475.30	51.49
475.48	63.19
475.66	95.96
475.84	98.30
476.02	53.83
476.20	0.00
476.38	28.09
476.56	107.66
476.74	0.00
476.92	37.45
477.10	11.70
477.28	44.47
477.46	49.15
477.64	70.22
477.82	70.22
478.00	56.17
478.18	37.45
478.36	44.47
478.54	110.01
478.72	154.48
478.90	37.45
479.08	70.22
479.26	117.03
479.44	35.11
479.62	91.28
479.80	93.62
479.98	70.22
480.16	72.56
480.34	119.37
480.52	124.05
480.70	56.17
480.88	105.32
481.06	21.06
481.24	53.83
481.41	95.96
481.59	74.90
481.77	124.05
481.95	63.19
482.13	86.60
482.31	131.07
482.49	46.81
482.67	72.56
482.85	72.56
483.03	18.72
483.21	100.64
483.39	93.62
483.57	138.09
483.74	86.60
483.92	25.75
484.10	156.82
484.28	67.88
484.46	0.00
484.64	58.51
484.82	9.36
485.00	70.22
485.18	72.56
485.35	65.54
485.53	25.75
485.71	42.13
485.89	88.94
486.07	79.58
486.25	46.81
486.43	65.54
486.61	88.94
486.78	0.00
486.96	25.75
487.14	16.38
487.32	0.00
487.50	84.26
487.68	105.32
487.85	35.11
488.03	70.22
488.21	37.45
488.39	18.72
488.57	67.88
488.75	0.00
488.92	95.96
489.10	77.24
489.28	18.72
489.46	81.92
489.64	63.19
489.81	0.00
489.99	135.75
490.17	60.85
490.35	46.81
490.53	30.43
490.70	42.13
490.88	51.49
491.06	63.19
491.24	58.51
491.41	95.96
491.59	98.30
491.77	105.32
491.95	28.09
492.13	91.28
492.30	60.85
492.48	86.60
492.66	84.26
492.84	81.92
493.01	86.60
493.19	77.24
493.37	11.70
493.54	98.30
493.72	126.39
493.90	53.83
494.08	95.96
494.25	56.17
494.43	35.11
494.61	98.30
494.79	42.13
494.96	74.90
495.14	32.77
495.32	18.72
495.49	60.85
495.67	74.90
495.85	53.83
496.02	102.98
496.20	25.75
496.38	100.64
496.55	107.66
496.73	131.07
496.91	135.75
497.09	2.34
497.26	79.58
497.44	84.26
497.62	72.56
497.79	7.02
497.97	51.49
498.14	79.58
498.32	93.62
498.50	72.56
498.67	119.37
498.85	105.32
499.03	117.03
499.20	46.81
499.38	28.09
499.56	100.64
499.73	102.98
499.91	133.41
500.08	126.39
500.26	74.90
500.44	112.35
500.61	74.90
500.79	77.24
500.97	30.43
501.14	11.70
501.32	58.51
501.49	51.49
501.67	126.39
501.84	107.66
502.02	86.60
502.20	100.64
502.37	32.77
502.55	56.17
502.72	81.92
502.90	74.90
503.07	49.15
503.25	105.32
503.43	32.77
503.60	63.19
503.78	35.11
503.95	7.02
504.13	67.88
504.30	126.39
504.48	152.13
504.65	98.30
504.83	131.07
505.01	119.37
505.18	58.51
505.36	107.66
505.53	152.13
505.71	93.62
505.88	112.35
506.06	65.54
506.23	128.73
506.41	107.66
506.58	142.77
506.76	105.32
506.93	121.71
507.11	70.22
507.28	42.13
507.46	30.43
507.63	46.81
507.81	46.81
507.98	84.26
508.16	110.01
508.33	30.43
508.50	95.96
508.68	107.66
508.85	65.54
509.03	51.49
509.20	46.81
509.38	58.51
509.55	102.98
509.73	86.60
509.90	63.19
510.08	53.83
510.25	44.47
510.42	84.26
510.60	14.04
510.77	72.56
510.95	100.64
511.12	93.62
511.30	102.98
511.47	42.13
511.64	46.81
511.82	14.04
511.99	56.17
512.17	77.24
512.34	51.49
512.51	119.37
512.69	152.13
512.86	133.41
513.04	72.56
513.21	110.01
513.38	93.62
513.56	95.96
513.73	60.85
513.90	0.00
514.08	93.62
514.25	93.62
514.43	32.77
514.60	58.51
514.77	145.11
514.95	74.90
515.12	117.03
515.29	110.01
515.47	49.15
515.64	98.30
515.81	60.85
515.99	51.49
516.16	53.83
516.33	58.51
516.51	32.77
516.68	37.45
516.85	30.43
517.03	124.05
517.20	117.03
517.37	126.39
517.54	39.79
517.72	98.30
517.89	42.13
518.06	84.26
518.24	124.05
518.41	74.90
518.58	98.30
518.75	46.81
518.93	51.49
519.10	79.58
519.27	60.85
519.45	58.51
519.62	182.56
519.79	159.16
519.96	77.24
520.14	81.92
520.31	79.58
520.48	67.88
520.65	60.85
520.83	107.66
521.00	81.92
521.17	23.41
521.34	58.51
521.52	102.98
521.69	56.17
521.86	121.71
522.03	49.15
522.20	70.22
522.38	58.51
522.55	112.35
522.72	46.81
522.89	35.11
523.07	46.81
523.24	39.79
523.41	102.98
523.58	173.20
523.75	91.28
523.92	154.48
524.10	53.83
524.27	25.75
524.44	72.56
524.61	79.58
524.78	147.45
524.96	42.13
525.13	30.43
525.30	114.69
525.47	102.98
525.64	102.98
525.81	18.72
525.98	51.49
526.16	11.70
526.33	32.77
526.50	100.64
526.67	0.00
526.84	166.18
527.01	142.77
527.18	95.96
527.36	79.58
527.53	156.82
527.70	117.03
527.87	86.60
528.04	102.98
528.21	91.28
528.38	88.94
528.55	58.51
528.72	95.96
528.89	42.13
529.07	121.71
529.24	30.43
529.41	140.43
529.58	98.30
529.75	0.00
529.92	98.30
530.09	35.11
530.26	88.94
530.43	152.13
530.60	39.79
530.77	65.54
530.94	100.64
531.11	56.17
531.28	42.13
531.46	88.94
531.63	180.22
531.80	142.77
531.97	126.39
532.14	110.01
532.31	81.92
532.48	77.24
532.65	105.32
532.82	60.85
532.99	77.24
533.16	65.54
533.33	117.03
533.50	46.81
533.67	46.81
533.84	93.62
534.01	56.17
534.18	25.75
534.35	86.60
534.52	149.79
534.69	121.71
534.86	79.58
535.03	0.00
535.20	170.86
535.37	119.37
535.54	88.94
535.71	53.83
535.88	77.24
536.05	121.71
536.22	170.86
536.38	42.13
536.55	100.64
536.72	86.60
536.89	51.49
537.06	149.79
537.23	124.05
537.40	84.26
537.57	25.75
537.74	46.81
537.91	95.96
538.08	126.39
538.25	56.17
538.42	72.56
538.59	149.79
538.75	42.13
538.92	39.79
539.09	124.05
539.26	18.72
539.43	63.19
539.60	119.37
539.77	107.66
539.94	53.83
540.11	149.79
540.28	49.15
540.44	65.54
540.61	81.92
540.78	21.06
540.95	30.43
541.12	84.26
541.29	74.90
541.46	58.51
541.62	84.26
541.79	77.24
541.96	110.01
542.13	81.92
542.30	93.62
542.47	133.41
542.63	98.30
542.80	107.66
542.97	93.62
543.14	131.07
543.31	70.22
543.48	44.47
543.64	135.75
543.81	67.88
543.98	32.77
544.15	117.03
544.32	72.56
544.48	100.64
544.65	142.77
544.82	105.32
544.99	16.38
545.16	91.28
545.32	9.36
545.49	14.04
545.66	95.96
545.83	77.24
546.00	124.05
546.16	32.77
546.33	135.75
546.50	117.03
546.67	128.73
546.83	86.60
547.00	105.32
547.17	67.88
547.34	135.75
547.50	91.28
547.67	77.24
547.84	51.49
548.00	105.32
548.17	37.45
548.34	51.49
548.51	42.13
548.67	131.07
548.84	81.92
549.01	102.98
549.18	88.94
549.34	70.22
549.51	39.79
549.68	102.98
549.84	117.03
550.01	112.35
550.18	93.62
550.34	107.66
550.51	107.66
550.68	35.11
550.84	16.38
551.01	18.72
551.18	70.22
551.34	70.22
551.51	44.47
551.68	107.66
551.84	128.73
552.01	177.88
552.18	102.98
552.34	114.69
552.51	107.66
552.68	74.90
552.84	30.43
553.01	98.30
553.18	95.96
553.34	4.68
553.51	74.90
553.67	117.03
553.84	28.09
554.01	102.98
554.17	63.19
554.34	102.98
554.51	79.58
554.67	53.83
554.84	156.82
555.00	63.19
555.17	70.22
555.33	58.51
555.50	110.01
555.67	35.11
555.83	70.22
556.00	86.60
556.16	133.41
556.33	117.03
556.50	67.88
556.66	98.30
556.83	107.66
556.99	102.98
557.16	74.90
557.32	88.94
557.49	35.11
557.65	72.56
557.82	140.43
557.98	84.26
558.15	102.98
558.32	49.15
558.48	42.13
558.65	42.13
558.81	4.68
558.98	107.66
559.14	117.03
559.31	9.36
559.47	86.60
559.64	63.19
559.80	91.28
559.97	124.05
560.13	95.96
560.30	56.17
560.46	42.13
560.63	63.19
560.79	65.54
560.96	63.19
561.12	77.24
561.29	65.54
561.45	63.19
561.61	86.60
561.78	60.85
561.94	98.30
562.11	25.75
562.27	98.30
562.44	105.32
562.60	70.22
562.77	124.05
562.93	98.30
563.10	72.56
563.26	114.69
563.42	112.35
563.59	21.06
563.75	44.47
563.92	142.77
564.08	74.90
564.24	124.05
564.41	86.60
564.57	72.56
564.74	112.35
564.90	112.35
565.07	49.15
565.23	37.45
565.39	112.35
565.56	84.26
565.72	42.13
565.88	56.17
566.05	133.41
566.21	110.01
566.38	84.26
566.54	102.98
566.70	86.60
566.87	65.54
567.03	142.77
567.19	46.81
567.36	81.92
567.52	196.60
567.68	98.30
567.85	142.77
568.01	74.90
568.17	74.90
568.34	32.77
568.50	135.75
568.66	25.75
568.83	114.69
568.99	107.66
569.15	37.45
569.32	95.96
569.48	107.66
569.64	39.79
569.81	60.85
569.97	124.05
570.13	0.00
570.30	98.30
570.46	44.47
570.62	110.01
570.78	58.51
570.95	18.72
571.11	140.43
571.27	128.73
571.43	119.37
571.60	102.98
571.76	30.43
571.92	74.90
572.09	37.45
572.25	56.17
572.41	0.00
572.57	98.30
572.74	84.26
572.90	79.58
573.06	16.38
573.22	53.83
573.38	35.11
573.55	81.92
573.71	86.60
573.87	133.41
574.03	42.13
574.20	91.28
574.36	93.62
574.52	81.92
574.68	79.58
574.84	11.70
575.01	46.81
575.17	72.56
575.33	79.58
575.49	91.28
575.65	131.07
575.82	70.22
575.98	86.60
576.14	70.22
576.30	138.09
576.46	105.32
576.62	79.58
576.79	131.07
576.95	35.11
577.11	91.28
577.27	67.88
577.43	58.51
577.59	53.83
577.75	70.22
577.92	21.06
578.08	107.66
578.24	67.88
578.40	44.47
578.56	128.73
578.72	42.13
578.88	124.05
579.04	133.41
579.21	42.13
579.37	42.13
579.53	131.07
579.69	53.83
579.85	133.41
580.01	67.88
580.17	74.90
580.33	39.79
580.49	145.11
580.65	81.92
580.82	46.81
580.98	133.41
581.14	81.92
581.30	63.19
581.46	121.71
581.62	70.22
581.78	21.06
581.94	117.03
582.10	35.11
582.26	110.01
582.42	65.54
582.58	63.19
582.74	0.00
582.90	67.88
583.06	53.83
583.22	65.54
583.38	49.15
583.54	140.43
583.70	81.92
583.86	35.11
584.02	88.94
584.18	88.94
584.34	81.92
584.50	37.45
584.66	30.43
584.82	88.94
584.98	0.00
585.14	39.79
585.30	65.54
585.46	51.49
585.62	39.79
585.78	128.73
585.94	79.58
586.10	121.71
586.26	67.88
586.42	44.47
586.58	72.56
586.74	100.64
586.90	72.56
587.06	107.66
587.22	0.00
587.38	4.68
587.54	70.22
587.70	112.35
587.86	100.64
588.02	114.69
588.18	65.54
588.34	79.58
588.49	0.00
588.65	14.04
588.81	114.69
588.97	0.00
589.13	28.09
589.29	37.45
589.45	16.38
589.61	67.88
589.77	91.28
589.93	74.90
590.08	42.13
590.24	91.28
590.40	95.96
590.56	46.81
590.72	63.19
590.88	110.01
591.04	18.72
591.20	126.39
591.35	145.11
591.51	107.66
591.67	65.54
591.83	30.43
591.99	86.60
592.15	107.66
592.31	72.56
592.46	119.37
592.62	117.03
592.78	35.11
592.94	98.30
593.10	60.85
593.26	25.75
593.41	126.39
593.57	86.60
593.73	65.54
593.89	23.41
594.05	0.00
594.20	65.54
594.36	56.17
594.52	58.51
594.68	58.51
594.84	9.36
594.99	51.49
595.15	56.17
595.31	126.39
595.47	0.00
595.62	81.92
595.78	11.70
595.94	86.60
596.10	56.17
596.25	60.85
596.41	119.37
596.57	72.56
596.73	46.81
596.88	67.88
597.04	63.19
597.20	84.26
597.36	145.11
597.51	77.24
597.67	81.92
597.83	0.00
597.99	100.64
598.14	23.41
598.30	117.03
598.46	67.88
598.61	46.81
598.77	110.01
598.93	84.26
599.09	86.60
599.24	56.17
599.40	65.54
599.56	16.38
599.71	7.02
599.87	0.00
600.03	124.05
600.18	84.26
600.34	84.26
600.50	35.11
600.65	91.28
600.81	74.90
600.97	23.41
601.12	105.32
601.28	100.64
601.44	84.26
601.59	56.17
601.75	86.60
601.91	77.24
602.06	126.39
602.22	93.62
602.37	95.96
602.53	77.24
602.69	84.26
602.84	49.15
603.00	30.43
603.16	72.56
603.31	72.56
603.47	93.62
603.62	37.45
603.78	58.51
603.94	107.66
604.09	88.94
604.25	23.41
604.40	161.50
604.56	93.62
604.71	93.62
604.87	42.13
605.03	60.85
605.18	119.37
605.34	131.07
605.49	93.62
605.65	9.36
605.80	79.58
605.96	74.90
606.12	25.75
606.27	79.58
606.43	93.62
606.58	121.71
606.74	37.45
606.89	77.24
607.05	88.94
607.20	107.66
607.36	56.17
607.51	60.85
607.67	35.11
607.82	81.92
607.98	95.96
608.13	70.22
608.29	23.41
608.44	107.66
608.60	4.68
608.75	98.30
608.91	44.47
609.06	65.54
609.22	95.96
609.37	49.15
609.53	100.64
609.68	21.06
609.84	88.94
609.99	72.56
610.15	142.77
610.30	35.11
610.46	58.51
610.61	142.77
610.76	81.92
610.92	128.73
611.07	95.96
611.23	53.83
611.38	56.17
611.54	79.58
611.69	88.94
611.84	56.17
612.00	81.92
612.15	63.19
612.31	56.17
612.46	37.45
612.62	35.11
612.77	72.56
612.92	98.30
613.08	98.30
613.23	51.49
613.39	74.90
613.54	60.85
613.69	56.17
613.85	124.05
614.00	39.79
614.15	72.56
614.31	35.11
614.46	70.22
614.62	63.19
614.77	60.85
614.92	7.02
615.08	37.45
615.23	53.83
615.38	46.81
615.54	30.43
615.69	173.20
615.84	46.81
616.00	77.24
616.15	93.62
616.30	16.38
616.46	25.75
616.61	16.38
616.76	49.15
616.92	0.00
617.07	4.68
617.22	72.56
617.37	37.45
617.53	30.43
617.68	77.24
617.83	35.11
617.99	72.56
618.14	91.28
618.29	84.26
618.45	84.26
618.60	23.41
618.75	65.54
618.90	119.37
619.06	110.01
619.21	93.62
619.36	42.13
619.51	65.54
619.67	56.17
619.82	42.13
619.97	112.35
620.12	30.43
620.28	14.04
620.43	51.49
620.58	53.83
620.73	67.88
620.89	46.81
621.04	93.62
621.19	70.22
621.34	79.58
621.49	35.11
621.65	56.17
621.80	145.11
621.95	65.54
622.10	105.32
622.25	81.92
622.41	0.00
622.56	121.71
622.71	60.85
622.86	56.17
623.01	67.88
623.16	133.41
623.32	56.17
623.47	74.90
623.62	91.28
623.77	86.60
623.92	93.62
624.07	39.79
624.23	70.22
624.38	51.49
624.53	112.35
624.68	74.90
624.83	105.32
624.98	9.36
625.13	77.24
625.29	65.54
625.44	16.38
625.59	30.43
625.74	23.41
625.89	91.28
626.04	53.83
626.19	46.81
626.34	23.41
626.49	23.41
626.65	44.47
626.80	9.36
626.95	67.88
627.10	110.01
627.25	98.30
627.40	0.00
627.55	74.90
627.70	77.24
627.85	44.47
628.00	121.71
628.15	18.72
628.30	35.11
628.45	23.41
628.60	25.75
628.76	56.17
628.91	93.62
629.06	14.04
629.21	105.32
629.36	51.49
629.51	25.75
629.66	74.90
629.81	84.26
629.96	7.02
630.11	159.16
630.26	77.24
630.41	67.88
630.56	133.41
630.71	44.47
630.86	112.35
631.01	28.09
631.16	70.22
631.31	0.00
631.46	121.71
631.61	117.03
631.76	91.28
631.91	16.38
632.06	67.88
632.21	16.38
632.36	25.75
632.51	35.11
632.66	58.51
632.81	79.58
632.96	91.28
633.10	25.75
633.25	93.62
633.40	77.24
633.55	18.72
633.70	95.96
633.85	42.13
634.00	37.45
634.15	60.85
634.30	51.49
634.45	56.17
634.60	86.60
634.75	91.28
634.90	56.17
635.05	32.77
635.19	0.00
635.34	67.88
635.49	67.88
635.64	91.28
635.79	67.88
635.94	102.98
636.09	81.92
636.24	77.24
636.39	81.92
636.53	102.98
636.68	14.04
636.83	28.09
636.98	21.06
637.13	0.00
637.28	81.92
637.43	32.77
637.57	49.15
637.72	28.09
637.87	63.19
638.02	81.92
638.17	81.92
638.32	72.56
638.46	102.98
638.61	23.41
638.76	58.51
638.91	16.38
639.06	51.49
639.20	131.07
639.35	23.41
639.50	58.51
639.65	95.96
639.80	56.17
639.94	72.56
640.09	91.28
640.24	88.94
640.39	65.54
640.54	28.09
640.68	70.22
640.83	32.77
640.98	117.03
641.13	23.41
641.27	138.09
641.42	28.09
641.57	63.19
641.72	9.36
641.86	0.00
642.01	0.00
642.16	49.15
642.31	91.28
642.45	37.45
642.60	46.81
642.75	72.56
642.90	91.28
643.04	86.60
643.19	79.58
643.34	53.83
643.48	84.26
643.63	65.54
643.78	65.54
643.93	93.62
644.07	98.30
644.22	18.72
644.37	21.06
644.51	9.36
644.66	51.49
644.81	0.00
644.95	32.77
645.10	23.41
645.25	0.00
645.39	105.32
645.54	51.49
645.69	65.54
645.83	84.26
645.98	44.47
646.13	46.81
646.27	46.81
646.42	28.09
646.57	28.09
646.71	18.72
646.86	35.11
647.00	84.26
647.15	16.38
647.30	28.09
647.44	60.85
647.59	4.68
647.74	0.00
647.88	53.83
648.03	102.98
648.17	0.00
648.32	46.81
648.47	0.00
648.61	37.45
648.76	67.88
648.90	2.34
649.05	49.15
649.20	72.56
649.34	32.77
649.49	53.83
649.63	49.15
649.78	77.24
649.92	58.51
650.07	4.68
650.21	9.36
650.36	0.00
650.51	124.05
650.65	70.22
650.80	74.90
650.94	53.83
651.09	60.85
651.23	4.68
651.38	65.54
651.52	112.35
651.67	37.45
651.81	67.88
651.96	84.26
652.10	49.15
652.25	7.02
652.39	93.62
652.54	30.43
652.68	32.77
652.83	18.72
652.97	72.56
653.12	9.36
653.26	0.00
653.41	23.41
653.55	102.98
653.70	107.66
653.84	51.49
653.99	42.13
654.13	32.77
654.27	67.88
654.42	21.06
654.56	81.92
654.71	121.71
654.85	42.13
655.00	23.41
655.14	58.51
655.29	95.96
655.43	51.49
655.57	56.17
655.72	46.81
655.86	11.70
656.01	51.49
656.15	0.00
656.30	88.94
656.44	100.64
656.58	25.75
656.73	32.77
656.87	74.90
657.01	21.06
657.16	84.26
657.30	100.64
657.45	112.35
657.59	2.34
657.73	32.77
657.88	28.09
658.02	16.38
658.16	46.81
658.31	39.79
658.45	58.51
658.60	42.13
658.74	39.79
658.88	84.26
659.03	93.62
659.17	84.26
659.31	35.11
659.46	11.70
659.60	77.24
659.74	0.00
659.89	0.00
660.03	70.22
660.17	63.19
660.32	42.13
660.46	0.00
660.60	11.70
660.74	37.45
660.89	112.35
661.03	72.56
661.17	44.47
661.32	58.51
661.46	51.49
661.60	84.26
661.74	28.09
661.89	0.00
662.03	63.19
662.17	16.38
662.31	25.75
662.46	0.00
662.60	18.72
662.74	39.79
662.88	102.98
663.03	0.00
663.17	65.54
663.31	14.04
663.45	86.60
663.60	35.11
663.74	42.13
663.88	53.83
664.02	63.19
664.17	35.11
664.31	79.58
664.45	81.92
664.59	53.83
664.73	39.79
664.88	37.45
665.02	51.49
665.16	32.77
665.30	93.62
665.44	37.45
665.59	102.98
665.73	100.64
665.87	77.24
666.01	0.00
666.15	72.56
666.29	39.79
666.44	21.06
666.58	7.02
666.72	37.45
666.86	23.41
667.00	9.36
667.14	11.70
667.28	9.36
667.43	60.85
667.57	21.06
667.71	23.41
667.85	30.43
667.99	0.00
668.13	58.51
668.27	39.79
668.41	9.36
668.56	0.00
668.70	14.04
668.84	56.17
668.98	16.38
669.12	9.36
669.26	77.24
669.40	86.60
669.54	70.22
669.68	0.00
669.82	70.22
669.96	102.98
670.10	35.11
670.25	0.00
670.39	77.24
670.53	70.22
670.67	84.26
670.81	74.90
670.95	28.09
671.09	16.38
671.23	63.19
671.37	60.85
671.51	25.75
671.65	67.88
671.79	11.70
671.93	0.00
672.07	100.64
672.21	4.68
672.35	91.28
672.49	72.56
672.63	53.83
672.77	84.26
672.91	0.00
673.05	56.17
673.19	32.77
673.33	63.19
673.47	49.15
673.61	35.11
673.75	30.43
673.89	51.49
674.03	100.64
674.17	39.79
674.31	0.00
674.45	35.11
674.59	49.15
674.73	14.04
674.87	35.11
675.01	42.13
675.15	0.00
675.29	23.41
675.43	77.24
675.56	37.45
675.70	65.54
675.84	91.28
675.98	32.77
676.12	21.06
676.26	53.83
676.40	44.47
676.54	44.47
676.68	0.00
676.82	14.04
676.96	2.34
677.10	65.54
677.23	56.17
677.37	30.43
677.51	93.62
677.65	74.90
677.79	51.49
677.93	14.04
678.07	4.68
678.21	0.00
678.34	11.70
678.48	67.88
678.62	65.54
678.76	23.41
678.90	84.26
679.04	28.09
679.18	51.49
679.31	56.17
679.45	0.00
679.59	0.00
679.73	16.38
679.87	32.77
680.00	133.41
680.14	23.41
680.28	100.64
680.42	0.00
680.56	93.62
680.70	95.96
680.83	30.43
680.97	86.60
681.11	63.19
681.25	51.49
681.39	53.83
681.52	25.75
681.66	0.00
681.80	32.77
681.94	81.92
682.07	0.00
682.21	28.09
682.35	23.41
682.49	0.00
682.62	25.75
682.76	4.68
682.90	77.24
683.04	56.17
683.17	65.54
683.31	58.51
683.45	37.45
683.59	51.49
683.72	60.85
683.86	23.41
684.00	46.81
684.13	21.06
684.27	28.09
684.41	21.06
684.55	32.77
684.68	91.28
684.82	72.56
684.96	0.00
685.09	35.11
685.23	0.00
685.37	14.04
685.50	0.00
685.64	23.41
685.78	53.83
685.91	0.00
686.05	9.36
686.19	46.81
686.32	37.45
686.46	18.72
686.60	21.06
686.73	18.72
686.87	0.00
687.01	7.02
687.14	91.28
687.28	135.75
687.42	110.01
687.55	4.68
687.69	2.34
687.82	42.13
687.96	60.85
688.10	46.81
688.23	51.49
688.37	0.00
688.50	25.75
688.64	18.72
688.78	42.13
688.91	49.15
689.05	0.00
689.18	0.00
689.32	30.43
689.46	56.17
689.59	44.47
689.73	25.75
689.86	0.00
690.00	7.02
690.13	4.68
690.27	60.85
690.41	72.56
690.54	60.85
690.68	58.51
690.81	23.41
690.95	37.45
691.08	91.28
691.22	37.45
691.35	0.00
691.49	128.73
691.62	63.19
691.76	72.56
691.89	9.36
692.03	0.00
692.16	9.36
692.30	0.00
692.43	0.00
692.57	0.00
692.70	18.72
692.84	114.69
692.97	46.81
693.11	91.28
693.24	100.64
693.38	67.88
693.51	16.38
693.65	65.54
693.78	0.00
693.92	0.00
694.05	32.77
694.19	86.60
694.32	44.47
694.45	67.88
694.59	0.00
694.72	70.22
694.86	0.00
694.99	74.90
695.13	7.02
695.26	79.58
695.39	51.49
695.53	39.79
695.66	56.17
695.80	7.02
695.93	51.49
696.07	53.83
696.20	42.13
696.33	14.04
696.47	7.02
696.60	56.17
696.73	117.03
696.87	25.75
697.00	35.11
697.14	60.85
697.27	51.49
697.40	37.45
697.54	44.47
697.67	18.72
697.80	42.13
697.94	88.94
698.07	28.09
698.21	58.51
698.34	0.00
698.47	53.83
698.61	74.90
698.74	53.83
698.87	0.00
699.01	9.36
699.14	67.88
699.27	0.00
699.40	88.94
699.54	0.00
699.67	56.17
699.80	114.69
699.94	74.90
700.07	23.41
700.20	0.00
700.34	0.00
700.47	44.47
700.60	42.13
700.73	65.54
700.87	25.75
701.00	23.41
701.13	35.11
701.26	39.79
701.40	0.00
701.53	46.81
701.66	35.11
701.79	63.19
701.93	86.60
702.06	51.49
702.19	112.35
702.32	42.13
702.46	42.13
702.59	98.30
702.72	11.70
702.85	0.00
702.99	28.09
703.12	65.54
703.25	37.45
703.38	60.85
703.51	74.90
703.65	0.00
703.78	0.00
703.91	58.51
704.04	28.09
704.17	0.00
704.31	21.06
704.44	0.00
704.57	35.11
704.70	0.00
704.83	65.54
704.96	44.47
705.10	91.28
705.23	95.96
>>>>>End Processed Spectral Data<<<<<
