SpectraSuite Data File
++++++++++++++++++++++++++++++++++++
Date: Fri Oct 04 12:13:37 GMT-05:00 2013
User: price-jones
Dark Spectrum Present: No
Reference Spectrum Present: No
Number of Sampled Component Spectra: 1
Spectrometers: USB2+H05261
Integration Time (usec): 10000 (USB2+H05261)
Spectra Averaged: 1 (USB2+H05261)
Boxcar Smoothing: 0 (USB2+H05261)
Correct for Electrical Dark: No (USB2+H05261)
Strobe/Lamp Enabled: No (USB2+H05261)
Correct for Detector Non-linearity: No (USB2+H05261)
Correct for Stray Light: No (USB2+H05261)
Number of Pixels in Processed Spectrum: 2048
>>>>>Begin Processed Spectral Data<<<<<
365.73	18.72
365.92	18.72
366.12	18.72
366.32	0.00
366.52	0.00
366.72	0.00
366.91	0.00
367.11	0.00
367.31	0.00
367.51	0.00
367.70	0.00
367.90	0.00
368.10	0.00
368.30	0.00
368.49	0.00
368.69	0.00
368.89	0.00
369.09	0.00
369.28	0.00
369.48	0.00
369.68	0.00
369.87	0.00
370.07	0.00
370.27	0.00
370.47	0.00
370.66	0.00
370.86	0.00
371.06	0.00
371.25	0.00
371.45	0.00
371.65	0.00
371.84	18.72
372.04	28.09
372.24	0.00
372.44	49.15
372.63	0.00
372.83	88.94
373.03	0.00
373.22	79.58
373.42	58.51
373.62	0.00
373.81	14.04
374.01	42.13
374.21	35.11
374.40	93.62
374.60	56.17
374.79	86.60
374.99	9.36
375.19	7.02
375.38	65.54
375.58	21.06
375.78	79.58
375.97	4.68
376.17	11.70
376.37	28.09
376.56	46.81
376.76	77.24
376.95	25.75
377.15	56.17
377.35	23.41
377.54	0.00
377.74	2.34
377.93	65.54
378.13	95.96
378.33	0.00
378.52	49.15
378.72	30.43
378.91	51.49
379.11	23.41
379.31	11.70
379.50	0.00
379.70	81.92
379.89	77.24
380.09	65.54
380.28	2.34
380.48	30.43
380.68	0.00
380.87	0.00
381.07	21.06
381.26	91.28
381.46	56.17
381.65	39.79
381.85	21.06
382.04	0.00
382.24	25.75
382.43	35.11
382.63	2.34
382.83	11.70
383.02	0.00
383.22	23.41
383.41	0.00
383.61	0.00
383.80	23.41
384.00	23.41
384.19	4.68
384.39	11.70
384.58	21.06
384.78	126.39
384.97	32.77
385.17	56.17
385.36	42.13
385.56	7.02
385.75	18.72
385.95	28.09
386.14	42.13
386.34	0.00
386.53	49.15
386.72	42.13
386.92	56.17
387.11	56.17
387.31	0.00
387.50	67.88
387.70	30.43
387.89	4.68
388.09	0.00
388.28	0.00
388.48	28.09
388.67	30.43
388.86	7.02
389.06	7.02
389.25	0.00
389.45	39.79
389.64	0.00
389.84	0.00
390.03	84.26
390.22	88.94
390.42	63.19
390.61	74.90
390.81	119.37
391.00	2.34
391.19	9.36
391.39	18.72
391.58	0.00
391.78	0.00
391.97	0.00
392.16	107.66
392.36	46.81
392.55	35.11
392.75	0.00
392.94	0.00
393.13	51.49
393.33	32.77
393.52	88.94
393.71	9.36
393.91	2.34
394.10	0.00
394.29	56.17
394.49	44.47
394.68	0.00
394.88	16.38
395.07	46.81
395.26	51.49
395.46	25.75
395.65	0.00
395.84	0.00
396.04	46.81
396.23	88.94
396.42	21.06
396.62	49.15
396.81	0.00
397.00	49.15
397.19	0.00
397.39	23.41
397.58	23.41
397.77	11.70
397.97	49.15
398.16	46.81
398.35	51.49
398.55	0.00
398.74	18.72
398.93	9.36
399.12	30.43
399.32	0.00
399.51	42.13
399.70	105.32
399.90	0.00
400.09	0.00
400.28	51.49
400.47	63.19
400.67	0.00
400.86	0.00
401.05	18.72
401.24	30.43
401.44	46.81
401.63	60.85
401.82	51.49
402.01	0.00
402.21	18.72
402.40	42.13
402.59	21.06
402.78	35.11
402.97	30.43
403.17	63.19
403.36	65.54
403.55	46.81
403.74	46.81
403.93	58.51
404.13	42.13
404.32	28.09
404.51	84.26
404.70	0.00
404.89	32.77
405.09	35.11
405.28	53.83
405.47	49.15
405.66	0.00
405.85	4.68
406.05	65.54
406.24	35.11
406.43	25.75
406.62	39.79
406.81	51.49
407.00	0.00
407.20	16.38
407.39	0.00
407.58	30.43
407.77	46.81
407.96	72.56
408.15	0.00
408.34	0.00
408.54	81.92
408.73	9.36
408.92	39.79
409.11	98.30
409.30	49.15
409.49	65.54
409.68	0.00
409.87	18.72
410.07	65.54
410.26	0.00
410.45	0.00
410.64	46.81
410.83	11.70
411.02	49.15
411.21	91.28
411.40	56.17
411.59	58.51
411.78	0.00
411.98	72.56
412.17	7.02
412.36	0.00
412.55	114.69
412.74	67.88
412.93	44.47
413.12	0.00
413.31	56.17
413.50	56.17
413.69	37.45
413.88	126.39
414.07	9.36
414.26	58.51
414.45	44.47
414.64	121.71
414.83	32.77
415.02	11.70
415.22	100.64
415.41	65.54
415.60	37.45
415.79	0.00
415.98	16.38
416.17	98.30
416.36	93.62
416.55	72.56
416.74	44.47
416.93	51.49
417.12	0.00
417.31	37.45
417.50	21.06
417.69	65.54
417.88	0.00
418.07	9.36
418.26	86.60
418.45	42.13
418.64	72.56
418.83	91.28
419.02	117.03
419.21	46.81
419.39	0.00
419.58	51.49
419.77	11.70
419.96	44.47
420.15	25.75
420.34	110.01
420.53	98.30
420.72	42.13
420.91	0.00
421.10	58.51
421.29	7.02
421.48	74.90
421.67	60.85
421.86	0.00
422.05	0.00
422.24	53.83
422.43	56.17
422.61	53.83
422.80	70.22
422.99	91.28
423.18	51.49
423.37	37.45
423.56	9.36
423.75	7.02
423.94	37.45
424.13	18.72
424.32	44.47
424.50	46.81
424.69	100.64
424.88	14.04
425.07	0.00
425.26	44.47
425.45	0.00
425.64	46.81
425.83	0.00
426.01	114.69
426.20	58.51
426.39	65.54
426.58	63.19
426.77	84.26
426.96	51.49
427.15	51.49
427.33	35.11
427.52	0.00
427.71	30.43
427.90	58.51
428.09	0.00
428.28	65.54
428.46	51.49
428.65	30.43
428.84	32.77
429.03	0.00
429.22	72.56
429.40	0.00
429.59	102.98
429.78	86.60
429.97	18.72
430.16	30.43
430.34	0.00
430.53	9.36
430.72	70.22
430.91	133.41
431.10	18.72
431.28	16.38
431.47	95.96
431.66	25.75
431.85	98.30
432.03	72.56
432.22	49.15
432.41	46.81
432.60	0.00
432.79	0.00
432.97	37.45
433.16	16.38
433.35	14.04
433.54	70.22
433.72	65.54
433.91	0.00
434.10	4.68
434.28	105.32
434.47	23.41
434.66	53.83
434.85	0.00
435.03	81.92
435.22	84.26
435.41	49.15
435.59	67.88
435.78	23.41
435.97	49.15
436.16	30.43
436.34	16.38
436.53	93.62
436.72	2.34
436.90	0.00
437.09	117.03
437.28	49.15
437.46	67.88
437.65	70.22
437.84	56.17
438.02	81.92
438.21	37.45
438.40	32.77
438.58	0.00
438.77	9.36
438.96	49.15
439.14	23.41
439.33	65.54
439.52	0.00
439.70	7.02
439.89	18.72
440.08	0.00
440.26	67.88
440.45	60.85
440.63	81.92
440.82	0.00
441.01	72.56
441.19	58.51
441.38	105.32
441.57	114.69
441.75	98.30
441.94	91.28
442.12	81.92
442.31	63.19
442.50	28.09
442.68	28.09
442.87	67.88
443.05	88.94
443.24	84.26
443.43	28.09
443.61	0.00
443.80	32.77
443.98	0.00
444.17	28.09
444.35	79.58
444.54	93.62
444.73	11.70
444.91	112.35
445.10	0.00
445.28	11.70
445.47	0.00
445.65	65.54
445.84	79.58
446.02	77.24
446.21	14.04
446.39	65.54
446.58	0.00
446.77	84.26
446.95	30.43
447.14	63.19
447.32	44.47
447.51	7.02
447.69	93.62
447.88	42.13
448.06	4.68
448.25	131.07
448.43	0.00
448.62	14.04
448.80	70.22
448.99	74.90
449.17	46.81
449.36	65.54
449.54	37.45
449.73	110.01
449.91	81.92
450.10	63.19
450.28	39.79
450.46	42.13
450.65	65.54
450.83	58.51
451.02	121.71
451.20	67.88
451.39	35.11
451.57	49.15
451.76	0.00
451.94	107.66
452.13	11.70
452.31	86.60
452.49	2.34
452.68	70.22
452.86	126.39
453.05	63.19
453.23	44.47
453.42	18.72
453.60	60.85
453.78	67.88
453.97	28.09
454.15	60.85
454.34	49.15
454.52	25.75
454.70	46.81
454.89	18.72
455.07	117.03
455.26	98.30
455.44	70.22
455.62	11.70
455.81	21.06
455.99	21.06
456.17	58.51
456.36	86.60
456.54	128.73
456.73	53.83
456.91	42.13
457.09	23.41
457.28	51.49
457.46	49.15
457.64	60.85
457.83	9.36
458.01	70.22
458.19	39.79
458.38	37.45
458.56	79.58
458.74	60.85
458.93	42.13
459.11	4.68
459.29	2.34
459.48	175.54
459.66	39.79
459.84	51.49
460.03	138.09
460.21	56.17
460.39	18.72
460.57	42.13
460.76	63.19
460.94	28.09
461.12	98.30
461.31	91.28
461.49	98.30
461.67	67.88
461.85	88.94
462.04	58.51
462.22	51.49
462.40	23.41
462.59	95.96
462.77	81.92
462.95	25.75
463.13	110.01
463.32	30.43
463.50	4.68
463.68	53.83
463.86	93.62
464.05	63.19
464.23	42.13
464.41	86.60
464.59	74.90
464.78	65.54
464.96	0.00
465.14	0.00
465.32	0.00
465.50	58.51
465.69	51.49
465.87	51.49
466.05	21.06
466.23	0.00
466.41	32.77
466.60	25.75
466.78	21.06
466.96	100.64
467.14	112.35
467.32	79.58
467.51	0.00
467.69	74.90
467.87	25.75
468.05	0.00
468.23	37.45
468.41	74.90
468.60	74.90
468.78	84.26
468.96	86.60
469.14	88.94
469.32	16.38
469.50	65.54
469.69	46.81
469.87	53.83
470.05	159.16
470.23	74.90
470.41	84.26
470.59	14.04
470.77	32.77
470.95	56.17
471.14	51.49
471.32	67.88
471.50	28.09
471.68	35.11
471.86	65.54
472.04	67.88
472.22	7.02
472.40	84.26
472.58	56.17
472.77	107.66
472.95	14.04
473.13	44.47
473.31	21.06
473.49	56.17
473.67	51.49
473.85	119.37
474.03	74.90
474.21	53.83
474.39	0.00
474.57	2.34
474.75	91.28
474.93	60.85
475.12	18.72
475.30	72.56
475.48	72.56
475.66	67.88
475.84	49.15
476.02	79.58
476.20	58.51
476.38	2.34
476.56	28.09
476.74	39.79
476.92	37.45
477.10	67.88
477.28	0.00
477.46	74.90
477.64	11.70
477.82	28.09
478.00	107.66
478.18	0.00
478.36	65.54
478.54	93.62
478.72	74.90
478.90	0.00
479.08	56.17
479.26	16.38
479.44	100.64
479.62	37.45
479.80	112.35
479.98	42.13
480.16	72.56
480.34	65.54
480.52	42.13
480.70	63.19
480.88	37.45
481.06	51.49
481.24	65.54
481.41	72.56
481.59	84.26
481.77	58.51
481.95	37.45
482.13	91.28
482.31	91.28
482.49	39.79
482.67	72.56
482.85	60.85
483.03	72.56
483.21	30.43
483.39	37.45
483.57	0.00
483.74	42.13
483.92	60.85
484.10	30.43
484.28	46.81
484.46	119.37
484.64	79.58
484.82	39.79
485.00	65.54
485.18	74.90
485.35	65.54
485.53	37.45
485.71	98.30
485.89	37.45
486.07	21.06
486.25	35.11
486.43	21.06
486.61	88.94
486.78	67.88
486.96	93.62
487.14	72.56
487.32	39.79
487.50	119.37
487.68	180.22
487.85	100.64
488.03	51.49
488.21	0.00
488.39	74.90
488.57	2.34
488.75	105.32
488.92	67.88
489.10	67.88
489.28	25.75
489.46	145.11
489.64	86.60
489.81	93.62
489.99	131.07
490.17	112.35
490.35	70.22
490.53	30.43
490.70	95.96
490.88	65.54
491.06	79.58
491.24	81.92
491.41	56.17
491.59	81.92
491.77	79.58
491.95	70.22
492.13	46.81
492.30	112.35
492.48	86.60
492.66	107.66
492.84	93.62
493.01	39.79
493.19	88.94
493.37	100.64
493.54	117.03
493.72	77.24
493.90	58.51
494.08	131.07
494.25	84.26
494.43	42.13
494.61	46.81
494.79	86.60
494.96	46.81
495.14	126.39
495.32	53.83
495.49	53.83
495.67	51.49
495.85	0.00
496.02	100.64
496.20	30.43
496.38	72.56
496.55	63.19
496.73	0.00
496.91	81.92
497.09	98.30
497.26	49.15
497.44	84.26
497.62	112.35
497.79	42.13
497.97	128.73
498.14	100.64
498.32	49.15
498.50	145.11
498.67	100.64
498.85	42.13
499.03	39.79
499.20	105.32
499.38	173.20
499.56	95.96
499.73	72.56
499.91	121.71
500.08	119.37
500.26	145.11
500.44	107.66
500.61	95.96
500.79	100.64
500.97	131.07
501.14	81.92
501.32	79.58
501.49	65.54
501.67	121.71
501.84	105.32
502.02	93.62
502.20	145.11
502.37	0.00
502.55	126.39
502.72	42.13
502.90	102.98
503.07	95.96
503.25	100.64
503.43	91.28
503.60	60.85
503.78	124.05
503.95	58.51
504.13	77.24
504.30	30.43
504.48	117.03
504.65	44.47
504.83	121.71
505.01	72.56
505.18	70.22
505.36	65.54
505.53	105.32
505.71	49.15
505.88	107.66
506.06	70.22
506.23	58.51
506.41	67.88
506.58	74.90
506.76	18.72
506.93	93.62
507.11	93.62
507.28	39.79
507.46	140.43
507.63	58.51
507.81	39.79
507.98	91.28
508.16	35.11
508.33	74.90
508.50	60.85
508.68	100.64
508.85	131.07
509.03	88.94
509.20	91.28
509.38	112.35
509.55	117.03
509.73	117.03
509.90	105.32
510.08	88.94
510.25	77.24
510.42	65.54
510.60	35.11
510.77	135.75
510.95	42.13
511.12	28.09
511.30	119.37
511.47	79.58
511.64	21.06
511.82	18.72
511.99	70.22
512.17	102.98
512.34	56.17
512.51	58.51
512.69	11.70
512.86	67.88
513.04	107.66
513.21	56.17
513.38	77.24
513.56	65.54
513.73	70.22
513.90	84.26
514.08	110.01
514.25	72.56
514.43	121.71
514.60	110.01
514.77	86.60
514.95	25.75
515.12	119.37
515.29	131.07
515.47	58.51
515.64	98.30
515.81	112.35
515.99	49.15
516.16	39.79
516.33	35.11
516.51	16.38
516.68	72.56
516.85	91.28
517.03	107.66
517.20	39.79
517.37	91.28
517.54	91.28
517.72	79.58
517.89	159.16
518.06	65.54
518.24	86.60
518.41	117.03
518.58	60.85
518.75	110.01
518.93	95.96
519.10	51.49
519.27	110.01
519.45	60.85
519.62	138.09
519.79	65.54
519.96	65.54
520.14	77.24
520.31	138.09
520.48	112.35
520.65	70.22
520.83	16.38
521.00	53.83
521.17	140.43
521.34	79.58
521.52	88.94
521.69	105.32
521.86	91.28
522.03	110.01
522.20	84.26
522.38	42.13
522.55	25.75
522.72	140.43
522.89	119.37
523.07	16.38
523.24	74.90
523.41	28.09
523.58	11.70
523.75	119.37
523.92	58.51
524.10	147.45
524.27	56.17
524.44	91.28
524.61	93.62
524.78	93.62
524.96	135.75
525.13	44.47
525.30	91.28
525.47	77.24
525.64	42.13
525.81	149.79
525.98	67.88
526.16	79.58
526.33	79.58
526.50	0.00
526.67	25.75
526.84	79.58
527.01	81.92
527.18	56.17
527.36	121.71
527.53	88.94
527.70	81.92
527.87	67.88
528.04	60.85
528.21	42.13
528.38	93.62
528.55	105.32
528.72	124.05
528.89	42.13
529.07	149.79
529.24	86.60
529.41	93.62
529.58	79.58
529.75	77.24
529.92	42.13
530.09	21.06
530.26	79.58
530.43	112.35
530.60	67.88
530.77	98.30
530.94	114.69
531.11	98.30
531.28	121.71
531.46	117.03
531.63	95.96
531.80	124.05
531.97	145.11
532.14	110.01
532.31	63.19
532.48	95.96
532.65	124.05
532.82	32.77
532.99	58.51
533.16	107.66
533.33	37.45
533.50	51.49
533.67	11.70
533.84	25.75
534.01	93.62
534.18	84.26
534.35	212.99
534.52	145.11
534.69	23.41
534.86	91.28
535.03	72.56
535.20	0.00
535.37	84.26
535.54	65.54
535.71	105.32
535.88	88.94
536.05	140.43
536.22	117.03
536.38	100.64
536.55	88.94
536.72	63.19
536.89	7.02
537.06	42.13
537.23	119.37
537.40	98.30
537.57	100.64
537.74	42.13
537.91	95.96
538.08	32.77
538.25	131.07
538.42	67.88
538.59	42.13
538.75	25.75
538.92	84.26
539.09	7.02
539.26	88.94
539.43	138.09
539.60	39.79
539.77	65.54
539.94	93.62
540.11	42.13
540.28	88.94
540.44	105.32
540.61	112.35
540.78	98.30
540.95	74.90
541.12	117.03
541.29	77.24
541.46	95.96
541.62	100.64
541.79	56.17
541.96	58.51
542.13	32.77
542.30	63.19
542.47	65.54
542.63	70.22
542.80	63.19
542.97	114.69
543.14	93.62
543.31	124.05
543.48	112.35
543.64	107.66
543.81	128.73
543.98	107.66
544.15	18.72
544.32	128.73
544.48	53.83
544.65	72.56
544.82	84.26
544.99	107.66
545.16	88.94
545.32	86.60
545.49	131.07
545.66	91.28
545.83	23.41
546.00	14.04
546.16	28.09
546.33	117.03
546.50	102.98
546.67	110.01
546.83	67.88
547.00	51.49
547.17	42.13
547.34	142.77
547.50	140.43
547.67	63.19
547.84	91.28
548.00	74.90
548.17	86.60
548.34	32.77
548.51	70.22
548.67	131.07
548.84	79.58
549.01	37.45
549.18	39.79
549.34	110.01
549.51	53.83
549.68	86.60
549.84	112.35
550.01	126.39
550.18	117.03
550.34	63.19
550.51	119.37
550.68	128.73
550.84	124.05
551.01	88.94
551.18	60.85
551.34	77.24
551.51	91.28
551.68	28.09
551.84	114.69
552.01	110.01
552.18	95.96
552.34	72.56
552.51	53.83
552.68	14.04
552.84	65.54
553.01	100.64
553.18	51.49
553.34	81.92
553.51	138.09
553.67	138.09
553.84	72.56
554.01	102.98
554.17	112.35
554.34	4.68
554.51	67.88
554.67	91.28
554.84	65.54
555.00	56.17
555.17	42.13
555.33	72.56
555.50	74.90
555.67	51.49
555.83	105.32
556.00	100.64
556.16	112.35
556.33	0.00
556.50	100.64
556.66	88.94
556.83	102.98
556.99	110.01
557.16	117.03
557.32	58.51
557.49	18.72
557.65	77.24
557.82	30.43
557.98	46.81
558.15	60.85
558.32	100.64
558.48	138.09
558.65	91.28
558.81	21.06
558.98	72.56
559.14	23.41
559.31	63.19
559.47	110.01
559.64	65.54
559.80	56.17
559.97	56.17
560.13	110.01
560.30	77.24
560.46	93.62
560.63	86.60
560.79	124.05
560.96	140.43
561.12	63.19
561.29	0.00
561.45	65.54
561.61	53.83
561.78	65.54
561.94	70.22
562.11	37.45
562.27	72.56
562.44	88.94
562.60	56.17
562.77	131.07
562.93	28.09
563.10	100.64
563.26	11.70
563.42	117.03
563.59	79.58
563.75	72.56
563.92	53.83
564.08	77.24
564.24	60.85
564.41	77.24
564.57	21.06
564.74	39.79
564.90	124.05
565.07	28.09
565.23	112.35
565.39	84.26
565.56	25.75
565.72	65.54
565.88	37.45
566.05	58.51
566.21	88.94
566.38	119.37
566.54	0.00
566.70	49.15
566.87	25.75
567.03	56.17
567.19	23.41
567.36	86.60
567.52	110.01
567.68	72.56
567.85	56.17
568.01	53.83
568.17	49.15
568.34	84.26
568.50	84.26
568.66	126.39
568.83	63.19
568.99	0.00
569.15	88.94
569.32	53.83
569.48	53.83
569.64	35.11
569.81	67.88
569.97	63.19
570.13	91.28
570.30	102.98
570.46	44.47
570.62	63.19
570.78	131.07
570.95	77.24
571.11	112.35
571.27	135.75
571.43	77.24
571.60	67.88
571.76	119.37
571.92	35.11
572.09	124.05
572.25	65.54
572.41	93.62
572.57	133.41
572.74	121.71
572.90	117.03
573.06	79.58
573.22	9.36
573.38	32.77
573.55	0.00
573.71	23.41
573.87	100.64
574.03	93.62
574.20	93.62
574.36	149.79
574.52	93.62
574.68	72.56
574.84	124.05
575.01	60.85
575.17	74.90
575.33	63.19
575.49	63.19
575.65	93.62
575.82	65.54
575.98	0.00
576.14	100.64
576.30	175.54
576.46	0.00
576.62	112.35
576.79	100.64
576.95	74.90
577.11	37.45
577.27	65.54
577.43	91.28
577.59	84.26
577.75	86.60
577.92	170.86
578.08	119.37
578.24	51.49
578.40	105.32
578.56	91.28
578.72	67.88
578.88	147.45
579.04	81.92
579.21	112.35
579.37	65.54
579.53	91.28
579.69	35.11
579.85	44.47
580.01	100.64
580.17	128.73
580.33	9.36
580.49	88.94
580.65	138.09
580.82	32.77
580.98	81.92
581.14	37.45
581.30	84.26
581.46	70.22
581.62	98.30
581.78	98.30
581.94	81.92
582.10	163.84
582.26	25.75
582.42	86.60
582.58	145.11
582.74	95.96
582.90	79.58
583.06	84.26
583.22	72.56
583.38	21.06
583.54	98.30
583.70	102.98
583.86	105.32
584.02	30.43
584.18	93.62
584.34	95.96
584.50	67.88
584.66	79.58
584.82	65.54
584.98	117.03
585.14	102.98
585.30	147.45
585.46	77.24
585.62	39.79
585.78	21.06
585.94	16.38
586.10	72.56
586.26	142.77
586.42	28.09
586.58	60.85
586.74	70.22
586.90	112.35
587.06	121.71
587.22	67.88
587.38	65.54
587.54	88.94
587.70	159.16
587.86	30.43
588.02	77.24
588.18	63.19
588.34	53.83
588.49	63.19
588.65	84.26
588.81	28.09
588.97	0.00
589.13	39.79
589.29	60.85
589.45	79.58
589.61	30.43
589.77	110.01
589.93	110.01
590.08	49.15
590.24	72.56
590.40	37.45
590.56	95.96
590.72	74.90
590.88	98.30
591.04	16.38
591.20	93.62
591.35	65.54
591.51	32.77
591.67	95.96
591.83	79.58
591.99	159.16
592.15	88.94
592.31	32.77
592.46	95.96
592.62	86.60
592.78	102.98
592.94	51.49
593.10	93.62
593.26	173.20
593.41	25.75
593.57	72.56
593.73	114.69
593.89	67.88
594.05	105.32
594.20	93.62
594.36	121.71
594.52	58.51
594.68	112.35
594.84	88.94
594.99	74.90
595.15	28.09
595.31	42.13
595.47	49.15
595.62	0.00
595.78	107.66
595.94	46.81
596.10	74.90
596.25	105.32
596.41	0.00
596.57	77.24
596.73	126.39
596.88	28.09
597.04	72.56
597.20	138.09
597.36	84.26
597.51	9.36
597.67	98.30
597.83	98.30
597.99	74.90
598.14	0.00
598.30	0.00
598.46	98.30
598.61	95.96
598.77	25.75
598.93	149.79
599.09	0.00
599.24	14.04
599.40	117.03
599.56	49.15
599.71	74.90
599.87	84.26
600.03	135.75
600.18	121.71
600.34	112.35
600.50	77.24
600.65	14.04
600.81	65.54
600.97	14.04
601.12	30.43
601.28	110.01
601.44	84.26
601.59	98.30
601.75	58.51
601.91	37.45
602.06	121.71
602.22	0.00
602.37	72.56
602.53	100.64
602.69	53.83
602.84	88.94
603.00	77.24
603.16	72.56
603.31	60.85
603.47	93.62
603.62	56.17
603.78	51.49
603.94	102.98
604.09	93.62
604.25	30.43
604.40	142.77
604.56	46.81
604.71	161.50
604.87	131.07
605.03	4.68
605.18	114.69
605.34	110.01
605.49	81.92
605.65	140.43
605.80	98.30
605.96	86.60
606.12	112.35
606.27	70.22
606.43	86.60
606.58	67.88
606.74	49.15
606.89	51.49
607.05	88.94
607.20	86.60
607.36	21.06
607.51	4.68
607.67	32.77
607.82	37.45
607.98	65.54
608.13	126.39
608.29	112.35
608.44	67.88
608.60	42.13
608.75	100.64
608.91	58.51
609.06	39.79
609.22	140.43
609.37	107.66
609.53	65.54
609.68	70.22
609.84	32.77
609.99	42.13
610.15	105.32
610.30	32.77
610.46	154.48
610.61	119.37
610.76	11.70
610.92	112.35
611.07	53.83
611.23	95.96
611.38	53.83
611.54	86.60
611.69	79.58
611.84	11.70
612.00	35.11
612.15	102.98
612.31	28.09
612.46	25.75
612.62	93.62
612.77	128.73
612.92	79.58
613.08	112.35
613.23	30.43
613.39	117.03
613.54	0.00
613.69	56.17
613.85	25.75
614.00	114.69
614.15	105.32
614.31	0.00
614.46	0.00
614.62	53.83
614.77	46.81
614.92	77.24
615.08	95.96
615.23	58.51
615.38	105.32
615.54	0.00
615.69	44.47
615.84	14.04
616.00	98.30
616.15	2.34
616.30	39.79
616.46	102.98
616.61	107.66
616.76	114.69
616.92	18.72
617.07	35.11
617.22	74.90
617.37	63.19
617.53	18.72
617.68	39.79
617.83	133.41
617.99	91.28
618.14	42.13
618.29	30.43
618.45	30.43
618.60	88.94
618.75	4.68
618.90	53.83
619.06	128.73
619.21	0.00
619.36	67.88
619.51	121.71
619.67	102.98
619.82	142.77
619.97	93.62
620.12	16.38
620.28	56.17
620.43	65.54
620.58	56.17
620.73	105.32
620.89	114.69
621.04	21.06
621.19	49.15
621.34	93.62
621.49	65.54
621.65	39.79
621.80	79.58
621.95	53.83
622.10	72.56
622.25	81.92
622.41	70.22
622.56	128.73
622.71	56.17
622.86	100.64
623.01	77.24
623.16	25.75
623.32	14.04
623.47	28.09
623.62	18.72
623.77	77.24
623.92	124.05
624.07	0.00
624.23	32.77
624.38	44.47
624.53	46.81
624.68	30.43
624.83	63.19
624.98	107.66
625.13	30.43
625.29	93.62
625.44	91.28
625.59	28.09
625.74	46.81
625.89	88.94
626.04	65.54
626.19	86.60
626.34	128.73
626.49	46.81
626.65	23.41
626.80	86.60
626.95	63.19
627.10	117.03
627.25	65.54
627.40	32.77
627.55	25.75
627.70	86.60
627.85	11.70
628.00	44.47
628.15	56.17
628.30	42.13
628.45	42.13
628.60	60.85
628.76	72.56
628.91	98.30
629.06	2.34
629.21	0.00
629.36	84.26
629.51	51.49
629.66	37.45
629.81	102.98
629.96	70.22
630.11	124.05
630.26	65.54
630.41	21.06
630.56	105.32
630.71	11.70
630.86	14.04
631.01	37.45
631.16	79.58
631.31	93.62
631.46	42.13
631.61	81.92
631.76	49.15
631.91	0.00
632.06	0.00
632.21	102.98
632.36	14.04
632.51	25.75
632.66	58.51
632.81	25.75
632.96	51.49
633.10	112.35
633.25	11.70
633.40	35.11
633.55	7.02
633.70	145.11
633.85	74.90
634.00	23.41
634.15	21.06
634.30	133.41
634.45	100.64
634.60	51.49
634.75	23.41
634.90	49.15
635.05	56.17
635.19	77.24
635.34	46.81
635.49	77.24
635.64	107.66
635.79	53.83
635.94	7.02
636.09	63.19
636.24	0.00
636.39	107.66
636.53	95.96
636.68	21.06
636.83	63.19
636.98	74.90
637.13	0.00
637.28	58.51
637.43	98.30
637.57	0.00
637.72	0.00
637.87	18.72
638.02	39.79
638.17	28.09
638.32	37.45
638.46	4.68
638.61	4.68
638.76	84.26
638.91	49.15
639.06	95.96
639.20	32.77
639.35	0.00
639.50	49.15
639.65	74.90
639.80	42.13
639.94	126.39
640.09	102.98
640.24	70.22
640.39	9.36
640.54	72.56
640.68	0.00
640.83	0.00
640.98	86.60
641.13	124.05
641.27	65.54
641.42	81.92
641.57	70.22
641.72	93.62
641.86	9.36
642.01	0.00
642.16	7.02
642.31	44.47
642.45	81.92
642.60	72.56
642.75	98.30
642.90	42.13
643.04	51.49
643.19	7.02
643.34	46.81
643.48	9.36
643.63	56.17
643.78	58.51
643.93	70.22
644.07	105.32
644.22	42.13
644.37	51.49
644.51	30.43
644.66	126.39
644.81	105.32
644.95	79.58
645.10	86.60
645.25	124.05
645.39	9.36
645.54	107.66
645.69	105.32
645.83	88.94
645.98	2.34
646.13	46.81
646.27	60.85
646.42	49.15
646.57	23.41
646.71	18.72
646.86	65.54
647.00	37.45
647.15	81.92
647.30	88.94
647.44	14.04
647.59	56.17
647.74	14.04
647.88	2.34
648.03	93.62
648.17	7.02
648.32	25.75
648.47	2.34
648.61	37.45
648.76	84.26
648.90	46.81
649.05	0.00
649.20	51.49
649.34	37.45
649.49	95.96
649.63	23.41
649.78	21.06
649.92	16.38
650.07	11.70
650.21	84.26
650.36	42.13
650.51	112.35
650.65	93.62
650.80	30.43
650.94	9.36
651.09	11.70
651.23	11.70
651.38	70.22
651.52	0.00
651.67	42.13
651.81	131.07
651.96	9.36
652.10	56.17
652.25	67.88
652.39	28.09
652.54	105.32
652.68	98.30
652.83	32.77
652.97	42.13
653.12	133.41
653.26	58.51
653.41	110.01
653.55	74.90
653.70	170.86
653.84	51.49
653.99	23.41
654.13	49.15
654.27	86.60
654.42	56.17
654.56	23.41
654.71	91.28
654.85	16.38
655.00	79.58
655.14	98.30
655.29	91.28
655.43	67.88
655.57	35.11
655.72	28.09
655.86	35.11
656.01	21.06
656.15	63.19
656.30	35.11
656.44	37.45
656.58	0.00
656.73	7.02
656.87	0.00
657.01	70.22
657.16	56.17
657.30	79.58
657.45	25.75
657.59	7.02
657.73	7.02
657.88	28.09
658.02	46.81
658.16	42.13
658.31	0.00
658.45	9.36
658.60	70.22
658.74	53.83
658.88	18.72
659.03	7.02
659.17	25.75
659.31	0.00
659.46	70.22
659.60	0.00
659.74	9.36
659.89	23.41
660.03	60.85
660.17	49.15
660.32	42.13
660.46	70.22
660.60	51.49
660.74	133.41
660.89	0.00
661.03	4.68
661.17	21.06
661.32	49.15
661.46	14.04
661.60	25.75
661.74	28.09
661.89	51.49
662.03	14.04
662.17	23.41
662.31	49.15
662.46	65.54
662.60	63.19
662.74	42.13
662.88	63.19
663.03	37.45
663.17	51.49
663.31	79.58
663.45	39.79
663.60	74.90
663.74	128.73
663.88	23.41
664.02	0.00
664.17	58.51
664.31	86.60
664.45	0.00
664.59	81.92
664.73	98.30
664.88	91.28
665.02	77.24
665.16	56.17
665.30	30.43
665.44	79.58
665.59	63.19
665.73	84.26
665.87	56.17
666.01	0.00
666.15	32.77
666.29	18.72
666.44	79.58
666.58	72.56
666.72	18.72
666.86	0.00
667.00	7.02
667.14	51.49
667.28	37.45
667.43	72.56
667.57	7.02
667.71	49.15
667.85	51.49
667.99	23.41
668.13	81.92
668.27	84.26
668.41	23.41
668.56	77.24
668.70	63.19
668.84	0.00
668.98	117.03
669.12	56.17
669.26	77.24
669.40	25.75
669.54	112.35
669.68	72.56
669.82	74.90
669.96	49.15
670.10	81.92
670.25	51.49
670.39	65.54
670.53	0.00
670.67	98.30
670.81	95.96
670.95	84.26
671.09	91.28
671.23	32.77
671.37	46.81
671.51	35.11
671.65	51.49
671.79	35.11
671.93	93.62
672.07	21.06
672.21	56.17
672.35	49.15
672.49	46.81
672.63	0.00
672.77	0.00
672.91	100.64
673.05	4.68
673.19	2.34
673.33	42.13
673.47	119.37
673.61	44.47
673.75	11.70
673.89	39.79
674.03	58.51
674.17	18.72
674.31	53.83
674.45	0.00
674.59	49.15
674.73	42.13
674.87	23.41
675.01	70.22
675.15	77.24
675.29	56.17
675.43	58.51
675.56	23.41
675.70	58.51
675.84	18.72
675.98	114.69
676.12	51.49
676.26	79.58
676.40	112.35
676.54	0.00
676.68	51.49
676.82	72.56
676.96	86.60
677.10	0.00
677.23	70.22
677.37	63.19
677.51	21.06
677.65	42.13
677.79	88.94
677.93	28.09
678.07	74.90
678.21	56.17
678.34	39.79
678.48	14.04
678.62	14.04
678.76	51.49
678.90	11.70
679.04	35.11
679.18	35.11
679.31	142.77
679.45	95.96
679.59	16.38
679.73	11.70
679.87	44.47
680.00	0.00
680.14	105.32
680.28	98.30
680.42	58.51
680.56	0.00
680.70	42.13
680.83	11.70
680.97	25.75
681.11	65.54
681.25	37.45
681.39	53.83
681.52	81.92
681.66	51.49
681.80	117.03
681.94	145.11
682.07	0.00
682.21	51.49
682.35	0.00
682.49	100.64
682.62	28.09
682.76	0.00
682.90	2.34
683.04	0.00
683.17	32.77
683.31	72.56
683.45	67.88
683.59	63.19
683.72	65.54
683.86	42.13
684.00	86.60
684.13	53.83
684.27	49.15
684.41	102.98
684.55	51.49
684.68	63.19
684.82	35.11
684.96	42.13
685.09	102.98
685.23	30.43
685.37	0.00
685.50	95.96
685.64	35.11
685.78	7.02
685.91	0.00
686.05	56.17
686.19	53.83
686.32	58.51
686.46	42.13
686.60	16.38
686.73	53.83
686.87	44.47
687.01	37.45
687.14	79.58
687.28	88.94
687.42	0.00
687.55	30.43
687.69	44.47
687.82	32.77
687.96	0.00
688.10	0.00
688.23	56.17
688.37	18.72
688.50	2.34
688.64	0.00
688.78	2.34
688.91	0.00
689.05	51.49
689.18	49.15
689.32	60.85
689.46	65.54
689.59	14.04
689.73	65.54
689.86	0.00
690.00	77.24
690.13	0.00
690.27	63.19
690.41	63.19
690.54	7.02
690.68	7.02
690.81	42.13
690.95	46.81
691.08	0.00
691.22	0.00
691.35	0.00
691.49	44.47
691.62	86.60
691.76	133.41
691.89	11.70
692.03	14.04
692.16	37.45
692.30	46.81
692.43	79.58
692.57	25.75
692.70	0.00
692.84	51.49
692.97	23.41
693.11	7.02
693.24	23.41
693.38	0.00
693.51	23.41
693.65	0.00
693.78	37.45
693.92	4.68
694.05	37.45
694.19	25.75
694.32	46.81
694.45	0.00
694.59	60.85
694.72	102.98
694.86	28.09
694.99	37.45
695.13	37.45
695.26	84.26
695.39	25.75
695.53	16.38
695.66	119.37
695.80	74.90
695.93	42.13
696.07	7.02
696.20	0.00
696.33	7.02
696.47	49.15
696.60	4.68
696.73	74.90
696.87	98.30
697.00	53.83
697.14	39.79
697.27	121.71
697.40	39.79
697.54	11.70
697.67	51.49
697.80	58.51
697.94	93.62
698.07	44.47
698.21	2.34
698.34	21.06
698.47	35.11
698.61	21.06
698.74	23.41
698.87	0.00
699.01	14.04
699.14	0.00
699.27	21.06
699.40	11.70
699.54	0.00
699.67	37.45
699.80	0.00
699.94	4.68
700.07	28.09
700.20	0.00
700.34	56.17
700.47	49.15
700.60	21.06
700.73	51.49
700.87	58.51
701.00	105.32
701.13	0.00
701.26	39.79
701.40	63.19
701.53	18.72
701.66	51.49
701.79	0.00
701.93	42.13
702.06	9.36
702.19	46.81
702.32	9.36
702.46	30.43
702.59	0.00
702.72	77.24
702.85	18.72
702.99	30.43
703.12	53.83
703.25	124.05
703.38	25.75
703.51	18.72
703.65	0.00
703.78	0.00
703.91	42.13
704.04	58.51
704.17	128.73
704.31	60.85
704.44	0.00
704.57	39.79
704.70	51.49
704.83	93.62
704.96	46.81
705.10	46.81
705.23	0.00
>>>>>End Processed Spectral Data<<<<<
