SpectraSuite Data File
++++++++++++++++++++++++++++++++++++
Date: Fri Oct 04 12:13:28 GMT-05:00 2013
User: price-jones
Dark Spectrum Present: No
Reference Spectrum Present: No
Number of Sampled Component Spectra: 1
Spectrometers: USB2+H05261
Integration Time (usec): 10000 (USB2+H05261)
Spectra Averaged: 1 (USB2+H05261)
Boxcar Smoothing: 0 (USB2+H05261)
Correct for Electrical Dark: No (USB2+H05261)
Strobe/Lamp Enabled: No (USB2+H05261)
Correct for Detector Non-linearity: No (USB2+H05261)
Correct for Stray Light: No (USB2+H05261)
Number of Pixels in Processed Spectrum: 2048
>>>>>Begin Processed Spectral Data<<<<<
365.73	0.00
365.92	0.00
366.12	0.00
366.32	0.00
366.52	0.00
366.72	0.00
366.91	0.00
367.11	0.00
367.31	0.00
367.51	0.00
367.70	0.00
367.90	0.00
368.10	0.00
368.30	0.00
368.49	0.00
368.69	0.00
368.89	0.00
369.09	0.00
369.28	0.00
369.48	0.00
369.68	0.00
369.87	0.00
370.07	0.00
370.27	0.00
370.47	0.00
370.66	0.00
370.86	0.00
371.06	0.00
371.25	0.00
371.45	0.00
371.65	0.00
371.84	0.00
372.04	7.02
372.24	0.00
372.44	0.00
372.63	32.77
372.83	0.00
373.03	0.00
373.22	30.43
373.42	30.43
373.62	11.70
373.81	7.02
374.01	9.36
374.21	77.24
374.40	35.11
374.60	51.49
374.79	0.00
374.99	0.00
375.19	25.75
375.38	18.72
375.58	0.00
375.78	25.75
375.97	56.17
376.17	28.09
376.37	44.47
376.56	30.43
376.76	18.72
376.95	53.83
377.15	2.34
377.35	60.85
377.54	56.17
377.74	79.58
377.93	23.41
378.13	37.45
378.33	7.02
378.52	91.28
378.72	23.41
378.91	30.43
379.11	25.75
379.31	28.09
379.50	0.00
379.70	0.00
379.89	0.00
380.09	21.06
380.28	23.41
380.48	23.41
380.68	0.00
380.87	0.00
381.07	37.45
381.26	70.22
381.46	0.00
381.65	37.45
381.85	0.00
382.04	35.11
382.24	86.60
382.43	42.13
382.63	0.00
382.83	0.00
383.02	14.04
383.22	0.00
383.41	16.38
383.61	0.00
383.80	9.36
384.00	0.00
384.19	0.00
384.39	25.75
384.58	65.54
384.78	4.68
384.97	28.09
385.17	32.77
385.36	23.41
385.56	25.75
385.75	23.41
385.95	49.15
386.14	11.70
386.34	35.11
386.53	23.41
386.72	25.75
386.92	0.00
387.11	0.00
387.31	0.00
387.50	35.11
387.70	30.43
387.89	35.11
388.09	0.00
388.28	11.70
388.48	74.90
388.67	23.41
388.86	0.00
389.06	18.72
389.25	0.00
389.45	30.43
389.64	105.32
389.84	25.75
390.03	0.00
390.22	0.00
390.42	0.00
390.61	0.00
390.81	16.38
391.00	14.04
391.19	32.77
391.39	72.56
391.58	11.70
391.78	53.83
391.97	28.09
392.16	0.00
392.36	58.51
392.55	46.81
392.75	39.79
392.94	0.00
393.13	58.51
393.33	0.00
393.52	88.94
393.71	2.34
393.91	30.43
394.10	63.19
394.29	0.00
394.49	70.22
394.68	0.00
394.88	35.11
395.07	42.13
395.26	30.43
395.46	0.00
395.65	4.68
395.84	0.00
396.04	23.41
396.23	18.72
396.42	124.05
396.62	0.00
396.81	42.13
397.00	0.00
397.19	23.41
397.39	67.88
397.58	86.60
397.77	0.00
397.97	0.00
398.16	28.09
398.35	58.51
398.55	0.00
398.74	44.47
398.93	51.49
399.12	28.09
399.32	49.15
399.51	117.03
399.70	65.54
399.90	14.04
400.09	126.39
400.28	30.43
400.47	0.00
400.67	58.51
400.86	0.00
401.05	4.68
401.24	70.22
401.44	98.30
401.63	93.62
401.82	18.72
402.01	42.13
402.21	53.83
402.40	0.00
402.59	35.11
402.78	53.83
402.97	14.04
403.17	0.00
403.36	42.13
403.55	49.15
403.74	23.41
403.93	28.09
404.13	14.04
404.32	44.47
404.51	79.58
404.70	0.00
404.89	0.00
405.09	30.43
405.28	56.17
405.47	35.11
405.66	7.02
405.85	0.00
406.05	93.62
406.24	37.45
406.43	84.26
406.62	0.00
406.81	14.04
407.00	16.38
407.20	0.00
407.39	35.11
407.58	32.77
407.77	0.00
407.96	2.34
408.15	60.85
408.34	65.54
408.54	51.49
408.73	32.77
408.92	0.00
409.11	84.26
409.30	58.51
409.49	0.00
409.68	18.72
409.87	35.11
410.07	11.70
410.26	49.15
410.45	23.41
410.64	11.70
410.83	2.34
411.02	0.00
411.21	16.38
411.40	0.00
411.59	44.47
411.78	2.34
411.98	0.00
412.17	0.00
412.36	39.79
412.55	51.49
412.74	28.09
412.93	0.00
413.12	53.83
413.31	56.17
413.50	56.17
413.69	0.00
413.88	0.00
414.07	16.38
414.26	84.26
414.45	18.72
414.64	35.11
414.83	72.56
415.02	16.38
415.22	42.13
415.41	11.70
415.60	65.54
415.79	9.36
415.98	112.35
416.17	28.09
416.36	44.47
416.55	0.00
416.74	11.70
416.93	11.70
417.12	0.00
417.31	65.54
417.50	39.79
417.69	53.83
417.88	0.00
418.07	11.70
418.26	11.70
418.45	0.00
418.64	81.92
418.83	70.22
419.02	23.41
419.21	37.45
419.39	25.75
419.58	0.00
419.77	63.19
419.96	0.00
420.15	39.79
420.34	53.83
420.53	35.11
420.72	23.41
420.91	37.45
421.10	23.41
421.29	79.58
421.48	14.04
421.67	21.06
421.86	23.41
422.05	21.06
422.24	14.04
422.43	0.00
422.61	9.36
422.80	0.00
422.99	56.17
423.18	7.02
423.37	35.11
423.56	0.00
423.75	72.56
423.94	14.04
424.13	56.17
424.32	11.70
424.50	28.09
424.69	0.00
424.88	63.19
425.07	88.94
425.26	81.92
425.45	65.54
425.64	107.66
425.83	37.45
426.01	30.43
426.20	39.79
426.39	39.79
426.58	32.77
426.77	0.00
426.96	18.72
427.15	35.11
427.33	65.54
427.52	0.00
427.71	77.24
427.90	0.00
428.09	53.83
428.28	39.79
428.46	0.00
428.65	0.00
428.84	88.94
429.03	121.71
429.22	67.88
429.40	0.00
429.59	18.72
429.78	9.36
429.97	0.00
430.16	11.70
430.34	79.58
430.53	0.00
430.72	60.85
430.91	4.68
431.10	53.83
431.28	11.70
431.47	4.68
431.66	0.00
431.85	44.47
432.03	0.00
432.22	39.79
432.41	18.72
432.60	2.34
432.79	11.70
432.97	95.96
433.16	9.36
433.35	46.81
433.54	0.00
433.72	0.00
433.91	105.32
434.10	81.92
434.28	0.00
434.47	0.00
434.66	58.51
434.85	0.00
435.03	25.75
435.22	0.00
435.41	9.36
435.59	23.41
435.78	4.68
435.97	32.77
436.16	0.00
436.34	0.00
436.53	42.13
436.72	0.00
436.90	16.38
437.09	0.00
437.28	0.00
437.46	0.00
437.65	42.13
437.84	4.68
438.02	121.71
438.21	119.37
438.40	46.81
438.58	88.94
438.77	16.38
438.96	60.85
439.14	7.02
439.33	81.92
439.52	37.45
439.70	67.88
439.89	53.83
440.08	67.88
440.26	14.04
440.45	25.75
440.63	67.88
440.82	14.04
441.01	14.04
441.19	32.77
441.38	32.77
441.57	0.00
441.75	112.35
441.94	0.00
442.12	46.81
442.31	65.54
442.50	60.85
442.68	11.70
442.87	0.00
443.05	70.22
443.24	11.70
443.43	23.41
443.61	53.83
443.80	37.45
443.98	0.00
444.17	11.70
444.35	0.00
444.54	30.43
444.73	65.54
444.91	53.83
445.10	0.00
445.28	51.49
445.47	42.13
445.65	0.00
445.84	37.45
446.02	0.00
446.21	77.24
446.39	100.64
446.58	128.73
446.77	0.00
446.95	7.02
447.14	23.41
447.32	56.17
447.51	11.70
447.69	107.66
447.88	0.00
448.06	88.94
448.25	49.15
448.43	0.00
448.62	46.81
448.80	21.06
448.99	21.06
449.17	51.49
449.36	56.17
449.54	9.36
449.73	49.15
449.91	93.62
450.10	53.83
450.28	42.13
450.46	81.92
450.65	18.72
450.83	35.11
451.02	9.36
451.20	18.72
451.39	37.45
451.57	32.77
451.76	39.79
451.94	65.54
452.13	46.81
452.31	0.00
452.49	32.77
452.68	60.85
452.86	100.64
453.05	16.38
453.23	117.03
453.42	30.43
453.60	30.43
453.78	9.36
453.97	16.38
454.15	16.38
454.34	0.00
454.52	21.06
454.70	0.00
454.89	4.68
455.07	0.00
455.26	84.26
455.44	14.04
455.62	56.17
455.81	77.24
455.99	0.00
456.17	35.11
456.36	0.00
456.54	63.19
456.73	25.75
456.91	16.38
457.09	0.00
457.28	86.60
457.46	70.22
457.64	30.43
457.83	16.38
458.01	0.00
458.19	105.32
458.38	49.15
458.56	14.04
458.74	23.41
458.93	39.79
459.11	84.26
459.29	16.38
459.48	88.94
459.66	0.00
459.84	0.00
460.03	28.09
460.21	0.00
460.39	67.88
460.57	11.70
460.76	0.00
460.94	63.19
461.12	35.11
461.31	58.51
461.49	63.19
461.67	23.41
461.85	39.79
462.04	67.88
462.22	117.03
462.40	0.00
462.59	28.09
462.77	4.68
462.95	86.60
463.13	37.45
463.32	0.00
463.50	0.00
463.68	0.00
463.86	23.41
464.05	4.68
464.23	35.11
464.41	2.34
464.59	56.17
464.78	67.88
464.96	0.00
465.14	35.11
465.32	23.41
465.50	56.17
465.69	25.75
465.87	105.32
466.05	7.02
466.23	81.92
466.41	0.00
466.60	2.34
466.78	25.75
466.96	60.85
467.14	110.01
467.32	32.77
467.51	0.00
467.69	14.04
467.87	44.47
468.05	23.41
468.23	93.62
468.41	28.09
468.60	49.15
468.78	21.06
468.96	4.68
469.14	23.41
469.32	53.83
469.50	11.70
469.69	58.51
469.87	46.81
470.05	110.01
470.23	9.36
470.41	37.45
470.59	4.68
470.77	0.00
470.95	0.00
471.14	37.45
471.32	30.43
471.50	0.00
471.68	37.45
471.86	81.92
472.04	21.06
472.22	112.35
472.40	88.94
472.58	4.68
472.77	16.38
472.95	0.00
473.13	35.11
473.31	21.06
473.49	37.45
473.67	60.85
473.85	35.11
474.03	51.49
474.21	67.88
474.39	0.00
474.57	11.70
474.75	35.11
474.93	42.13
475.12	21.06
475.30	0.00
475.48	42.13
475.66	74.90
475.84	44.47
476.02	16.38
476.20	35.11
476.38	63.19
476.56	21.06
476.74	2.34
476.92	0.00
477.10	23.41
477.28	21.06
477.46	46.81
477.64	30.43
477.82	23.41
478.00	70.22
478.18	65.54
478.36	84.26
478.54	0.00
478.72	44.47
478.90	30.43
479.08	0.00
479.26	23.41
479.44	28.09
479.62	21.06
479.80	79.58
479.98	63.19
480.16	51.49
480.34	28.09
480.52	28.09
480.70	16.38
480.88	107.66
481.06	14.04
481.24	0.00
481.41	37.45
481.59	0.00
481.77	84.26
481.95	44.47
482.13	42.13
482.31	81.92
482.49	42.13
482.67	0.00
482.85	112.35
483.03	0.00
483.21	67.88
483.39	93.62
483.57	51.49
483.74	84.26
483.92	107.66
484.10	63.19
484.28	49.15
484.46	7.02
484.64	32.77
484.82	58.51
485.00	0.00
485.18	4.68
485.35	35.11
485.53	18.72
485.71	7.02
485.89	21.06
486.07	56.17
486.25	11.70
486.43	42.13
486.61	39.79
486.78	63.19
486.96	18.72
487.14	18.72
487.32	30.43
487.50	0.00
487.68	58.51
487.85	0.00
488.03	51.49
488.21	0.00
488.39	39.79
488.57	35.11
488.75	0.00
488.92	77.24
489.10	35.11
489.28	72.56
489.46	79.58
489.64	28.09
489.81	56.17
489.99	25.75
490.17	84.26
490.35	2.34
490.53	53.83
490.70	0.00
490.88	51.49
491.06	42.13
491.24	0.00
491.41	7.02
491.59	63.19
491.77	18.72
491.95	11.70
492.13	0.00
492.30	25.75
492.48	0.00
492.66	49.15
492.84	79.58
493.01	0.00
493.19	107.66
493.37	32.77
493.54	28.09
493.72	58.51
493.90	14.04
494.08	51.49
494.25	46.81
494.43	0.00
494.61	14.04
494.79	0.00
494.96	77.24
495.14	11.70
495.32	42.13
495.49	49.15
495.67	77.24
495.85	67.88
496.02	77.24
496.20	0.00
496.38	65.54
496.55	37.45
496.73	0.00
496.91	88.94
497.09	35.11
497.26	4.68
497.44	39.79
497.62	100.64
497.79	35.11
497.97	51.49
498.14	0.00
498.32	56.17
498.50	79.58
498.67	0.00
498.85	21.06
499.03	14.04
499.20	58.51
499.38	2.34
499.56	18.72
499.73	0.00
499.91	0.00
500.08	58.51
500.26	42.13
500.44	74.90
500.61	28.09
500.79	0.00
500.97	70.22
501.14	88.94
501.32	39.79
501.49	93.62
501.67	23.41
501.84	81.92
502.02	30.43
502.20	4.68
502.37	16.38
502.55	9.36
502.72	79.58
502.90	77.24
503.07	126.39
503.25	35.11
503.43	0.00
503.60	37.45
503.78	0.00
503.95	23.41
504.13	67.88
504.30	74.90
504.48	28.09
504.65	21.06
504.83	58.51
505.01	32.77
505.18	58.51
505.36	4.68
505.53	56.17
505.71	60.85
505.88	37.45
506.06	16.38
506.23	93.62
506.41	21.06
506.58	11.70
506.76	44.47
506.93	39.79
507.11	7.02
507.28	65.54
507.46	112.35
507.63	21.06
507.81	58.51
507.98	39.79
508.16	21.06
508.33	77.24
508.50	16.38
508.68	100.64
508.85	23.41
509.03	9.36
509.20	93.62
509.38	0.00
509.55	0.00
509.73	32.77
509.90	60.85
510.08	56.17
510.25	0.00
510.42	30.43
510.60	0.00
510.77	35.11
510.95	72.56
511.12	60.85
511.30	102.98
511.47	49.15
511.64	42.13
511.82	65.54
511.99	21.06
512.17	9.36
512.34	25.75
512.51	28.09
512.69	98.30
512.86	25.75
513.04	46.81
513.21	84.26
513.38	28.09
513.56	23.41
513.73	23.41
513.90	95.96
514.08	93.62
514.25	0.00
514.43	28.09
514.60	0.00
514.77	14.04
514.95	42.13
515.12	4.68
515.29	70.22
515.47	37.45
515.64	65.54
515.81	53.83
515.99	79.58
516.16	63.19
516.33	11.70
516.51	9.36
516.68	18.72
516.85	0.00
517.03	70.22
517.20	30.43
517.37	28.09
517.54	7.02
517.72	39.79
517.89	0.00
518.06	63.19
518.24	32.77
518.41	105.32
518.58	46.81
518.75	0.00
518.93	53.83
519.10	72.56
519.27	42.13
519.45	46.81
519.62	0.00
519.79	72.56
519.96	60.85
520.14	56.17
520.31	65.54
520.48	0.00
520.65	65.54
520.83	67.88
521.00	44.47
521.17	46.81
521.34	100.64
521.52	0.00
521.69	23.41
521.86	30.43
522.03	58.51
522.20	32.77
522.38	56.17
522.55	81.92
522.72	16.38
522.89	100.64
523.07	67.88
523.24	53.83
523.41	0.00
523.58	4.68
523.75	14.04
523.92	14.04
524.10	0.00
524.27	58.51
524.44	51.49
524.61	4.68
524.78	124.05
524.96	2.34
525.13	46.81
525.30	0.00
525.47	49.15
525.64	86.60
525.81	84.26
525.98	0.00
526.16	107.66
526.33	46.81
526.50	70.22
526.67	11.70
526.84	53.83
527.01	14.04
527.18	60.85
527.36	56.17
527.53	14.04
527.70	0.00
527.87	81.92
528.04	70.22
528.21	51.49
528.38	42.13
528.55	74.90
528.72	42.13
528.89	65.54
529.07	35.11
529.24	177.88
529.41	58.51
529.58	112.35
529.75	23.41
529.92	63.19
530.09	149.79
530.26	79.58
530.43	72.56
530.60	74.90
530.77	147.45
530.94	39.79
531.11	0.00
531.28	16.38
531.46	28.09
531.63	56.17
531.80	28.09
531.97	100.64
532.14	14.04
532.31	100.64
532.48	53.83
532.65	21.06
532.82	44.47
532.99	65.54
533.16	105.32
533.33	0.00
533.50	18.72
533.67	56.17
533.84	79.58
534.01	107.66
534.18	107.66
534.35	30.43
534.52	93.62
534.69	0.00
534.86	11.70
535.03	32.77
535.20	30.43
535.37	72.56
535.54	11.70
535.71	28.09
535.88	21.06
536.05	16.38
536.22	63.19
536.38	39.79
536.55	37.45
536.72	0.00
536.89	53.83
537.06	51.49
537.23	0.00
537.40	16.38
537.57	42.13
537.74	72.56
537.91	44.47
538.08	91.28
538.25	121.71
538.42	9.36
538.59	53.83
538.75	11.70
538.92	58.51
539.09	42.13
539.26	0.00
539.43	39.79
539.60	166.18
539.77	187.24
539.94	243.42
540.11	173.20
540.28	145.11
540.44	49.15
540.61	46.81
540.78	51.49
540.95	39.79
541.12	77.24
541.29	32.77
541.46	0.00
541.62	32.77
541.79	18.72
541.96	14.04
542.13	42.13
542.30	16.38
542.47	0.00
542.63	16.38
542.80	18.72
542.97	0.00
543.14	91.28
543.31	93.62
543.48	42.13
543.64	37.45
543.81	58.51
543.98	70.22
544.15	70.22
544.32	0.00
544.48	56.17
544.65	37.45
544.82	0.00
544.99	4.68
545.16	42.13
545.32	86.60
545.49	42.13
545.66	37.45
545.83	72.56
546.00	0.00
546.16	65.54
546.33	77.24
546.50	28.09
546.67	39.79
546.83	0.00
547.00	9.36
547.17	0.00
547.34	11.70
547.50	37.45
547.67	42.13
547.84	98.30
548.00	2.34
548.17	65.54
548.34	46.81
548.51	93.62
548.67	23.41
548.84	0.00
549.01	114.69
549.18	51.49
549.34	32.77
549.51	46.81
549.68	42.13
549.84	25.75
550.01	70.22
550.18	44.47
550.34	93.62
550.51	72.56
550.68	4.68
550.84	16.38
551.01	84.26
551.18	0.00
551.34	23.41
551.51	42.13
551.68	18.72
551.84	49.15
552.01	28.09
552.18	23.41
552.34	0.00
552.51	28.09
552.68	0.00
552.84	30.43
553.01	16.38
553.18	51.49
553.34	67.88
553.51	25.75
553.67	86.60
553.84	77.24
554.01	49.15
554.17	18.72
554.34	0.00
554.51	100.64
554.67	21.06
554.84	25.75
555.00	39.79
555.17	86.60
555.33	2.34
555.50	49.15
555.67	4.68
555.83	79.58
556.00	60.85
556.16	60.85
556.33	112.35
556.50	65.54
556.66	23.41
556.83	58.51
556.99	72.56
557.16	18.72
557.32	28.09
557.49	21.06
557.65	42.13
557.82	74.90
557.98	30.43
558.15	67.88
558.32	11.70
558.48	30.43
558.65	0.00
558.81	72.56
558.98	18.72
559.14	91.28
559.31	23.41
559.47	32.77
559.64	74.90
559.80	42.13
559.97	74.90
560.13	30.43
560.30	32.77
560.46	0.00
560.63	0.00
560.79	37.45
560.96	53.83
561.12	88.94
561.29	28.09
561.45	35.11
561.61	23.41
561.78	74.90
561.94	46.81
562.11	42.13
562.27	0.00
562.44	49.15
562.60	28.09
562.77	21.06
562.93	67.88
563.10	0.00
563.26	72.56
563.42	56.17
563.59	77.24
563.75	0.00
563.92	53.83
564.08	16.38
564.24	14.04
564.41	51.49
564.57	58.51
564.74	11.70
564.90	84.26
565.07	21.06
565.23	93.62
565.39	49.15
565.56	79.58
565.72	110.01
565.88	39.79
566.05	39.79
566.21	37.45
566.38	0.00
566.54	84.26
566.70	11.70
566.87	25.75
567.03	63.19
567.19	35.11
567.36	0.00
567.52	86.60
567.68	84.26
567.85	0.00
568.01	72.56
568.17	51.49
568.34	77.24
568.50	93.62
568.66	49.15
568.83	0.00
568.99	63.19
569.15	37.45
569.32	0.00
569.48	0.00
569.64	65.54
569.81	60.85
569.97	9.36
570.13	37.45
570.30	0.00
570.46	16.38
570.62	0.00
570.78	46.81
570.95	65.54
571.11	81.92
571.27	0.00
571.43	67.88
571.60	37.45
571.76	46.81
571.92	58.51
572.09	9.36
572.25	0.00
572.41	60.85
572.57	0.00
572.74	88.94
572.90	0.00
573.06	98.30
573.22	105.32
573.38	39.79
573.55	58.51
573.71	18.72
573.87	72.56
574.03	23.41
574.20	25.75
574.36	32.77
574.52	51.49
574.68	98.30
574.84	58.51
575.01	18.72
575.17	39.79
575.33	102.98
575.49	23.41
575.65	51.49
575.82	21.06
575.98	53.83
576.14	100.64
576.30	77.24
576.46	65.54
576.62	35.11
576.79	56.17
576.95	16.38
577.11	65.54
577.27	110.01
577.43	35.11
577.59	23.41
577.75	67.88
577.92	117.03
578.08	86.60
578.24	30.43
578.40	60.85
578.56	72.56
578.72	51.49
578.88	37.45
579.04	37.45
579.21	65.54
579.37	142.77
579.53	0.00
579.69	14.04
579.85	44.47
580.01	39.79
580.17	42.13
580.33	138.09
580.49	88.94
580.65	93.62
580.82	0.00
580.98	91.28
581.14	105.32
581.30	46.81
581.46	21.06
581.62	79.58
581.78	65.54
581.94	93.62
582.10	25.75
582.26	39.79
582.42	88.94
582.58	2.34
582.74	74.90
582.90	58.51
583.06	63.19
583.22	72.56
583.38	63.19
583.54	138.09
583.70	142.77
583.86	77.24
584.02	154.48
584.18	170.86
584.34	243.42
584.50	461.09
584.66	3370.37
584.82	8702.11
584.98	13841.93
585.14	12910.40
585.30	7845.48
585.46	4608.51
585.62	2846.09
585.78	1338.79
585.94	463.43
586.10	285.55
586.26	154.48
586.42	51.49
586.58	133.41
586.74	102.98
586.90	131.07
587.06	124.05
587.22	142.77
587.38	119.37
587.54	238.73
587.70	503.22
587.86	884.72
588.02	1029.84
588.18	779.40
588.34	428.32
588.49	337.04
588.65	224.69
588.81	107.66
588.97	88.94
589.13	86.60
589.29	39.79
589.45	70.22
589.61	65.54
589.77	67.88
589.93	77.24
590.08	74.90
590.24	117.03
590.40	60.85
590.56	37.45
590.72	67.88
590.88	65.54
591.04	98.30
591.20	95.96
591.35	0.00
591.51	2.34
591.67	53.83
591.83	98.30
591.99	39.79
592.15	49.15
592.31	51.49
592.46	107.66
592.62	98.30
592.78	49.15
592.94	0.00
593.10	25.75
593.26	30.43
593.41	28.09
593.57	58.51
593.73	194.26
593.89	468.11
594.05	1109.41
594.20	1757.74
594.36	1720.29
594.52	1088.35
594.68	779.40
594.84	402.57
594.99	198.95
595.15	161.50
595.31	102.98
595.47	84.26
595.62	39.79
595.78	35.11
595.94	58.51
596.10	70.22
596.25	74.90
596.41	23.41
596.57	49.15
596.73	28.09
596.88	121.71
597.04	175.54
597.20	355.76
597.36	458.74
597.51	313.63
597.67	184.90
597.83	170.86
597.99	180.22
598.14	133.41
598.30	105.32
598.46	25.75
598.61	77.24
598.77	95.96
598.93	100.64
599.09	49.15
599.24	58.51
599.40	46.81
599.56	16.38
599.71	65.54
599.87	37.45
600.03	107.66
600.18	30.43
600.34	14.04
600.50	46.81
600.65	23.41
600.81	21.06
600.97	77.24
601.12	0.00
601.28	77.24
601.44	91.28
601.59	117.03
601.75	72.56
601.91	42.13
602.06	35.11
602.22	63.19
602.37	95.96
602.53	285.55
602.69	390.87
602.84	425.98
603.00	400.23
603.16	273.84
603.31	236.39
603.47	180.22
603.62	30.43
603.78	28.09
603.94	74.90
604.09	21.06
604.25	14.04
604.40	42.13
604.56	32.77
604.71	35.11
604.87	65.54
605.03	42.13
605.18	72.56
605.34	58.51
605.49	0.00
605.65	100.64
605.80	98.30
605.96	107.66
606.12	70.22
606.27	4.68
606.43	30.43
606.58	86.60
606.74	159.16
606.89	524.28
607.05	994.73
607.20	1439.43
607.36	1282.61
607.51	727.91
607.67	489.17
607.82	337.04
607.98	236.39
608.13	91.28
608.29	95.96
608.44	126.39
608.60	72.56
608.75	67.88
608.91	142.77
609.06	868.34
609.22	1839.66
609.37	2532.46
609.53	2303.09
609.68	1563.48
609.84	947.92
609.99	669.39
610.15	313.63
610.30	128.73
610.46	70.22
610.61	105.32
610.76	74.90
610.92	28.09
611.07	63.19
611.23	117.03
611.38	91.28
611.54	0.00
611.69	49.15
611.84	30.43
612.00	65.54
612.15	63.19
612.31	42.13
612.46	91.28
612.62	56.17
612.77	114.69
612.92	98.30
613.08	138.09
613.23	74.90
613.39	117.03
613.54	126.39
613.69	763.01
613.85	2146.27
614.00	3566.98
614.15	3948.48
614.31	2869.50
614.46	1921.58
614.62	1336.45
614.77	807.48
614.92	362.78
615.08	166.18
615.23	126.39
615.38	67.88
615.54	70.22
615.69	128.73
615.84	456.40
616.00	812.17
616.15	1069.62
616.30	917.49
616.46	559.39
616.61	369.80
616.76	315.97
616.92	159.16
617.07	119.37
617.22	37.45
617.37	56.17
617.53	21.06
617.68	0.00
617.83	0.00
617.99	102.98
618.14	117.03
618.29	86.60
618.45	58.51
618.60	49.15
618.75	51.49
618.90	30.43
619.06	119.37
619.21	46.81
619.36	32.77
619.51	79.58
619.67	84.26
619.82	9.36
619.97	0.00
620.12	0.00
620.28	35.11
620.43	79.58
620.58	18.72
620.73	51.49
620.89	28.09
621.04	149.79
621.19	229.37
621.34	409.59
621.49	685.78
621.65	463.43
621.80	393.21
621.95	280.86
622.10	145.11
622.25	95.96
622.41	49.15
622.56	0.00
622.71	53.83
622.86	9.36
623.01	21.06
623.16	28.09
623.32	70.22
623.47	84.26
623.62	58.51
623.77	11.70
623.92	79.58
624.07	25.75
624.23	42.13
624.38	91.28
624.53	37.45
624.68	7.02
624.83	28.09
624.98	28.09
625.13	102.98
625.29	58.51
625.44	32.77
625.59	35.11
625.74	86.60
625.89	56.17
626.04	358.10
626.19	1060.26
626.34	1755.40
626.49	2129.89
626.65	1614.97
626.80	1088.35
626.95	732.59
627.10	463.43
627.25	238.73
627.40	100.64
627.55	60.85
627.70	86.60
627.85	14.04
628.00	60.85
628.15	63.19
628.30	86.60
628.45	63.19
628.60	18.72
628.76	49.15
628.91	60.85
629.06	9.36
629.21	60.85
629.36	42.13
629.51	49.15
629.66	67.88
629.81	53.83
629.96	215.33
630.11	365.12
630.26	578.11
630.41	510.24
630.56	369.80
630.71	276.18
630.86	198.95
631.01	100.64
631.16	84.26
631.31	53.83
631.46	30.43
631.61	72.56
631.76	81.92
631.91	35.11
632.06	91.28
632.21	93.62
632.36	63.19
632.51	86.60
632.66	88.94
632.81	180.22
632.96	526.62
633.10	1123.46
633.25	1479.22
633.40	1231.12
633.55	786.42
633.70	528.96
633.85	355.76
634.00	234.05
634.15	124.05
634.30	91.28
634.45	23.41
634.60	84.26
634.75	23.41
634.90	37.45
635.05	67.88
635.19	91.28
635.34	37.45
635.49	72.56
635.64	74.90
635.79	70.22
635.94	65.54
636.09	74.90
636.24	74.90
636.39	35.11
636.53	133.41
636.68	72.56
636.83	145.11
636.98	42.13
637.13	32.77
637.28	93.62
637.43	88.94
637.57	105.32
637.72	524.28
637.87	1455.81
638.02	2352.24
638.17	2808.64
638.32	2073.71
638.46	1350.49
638.61	961.96
638.76	517.26
638.91	276.18
639.06	145.11
639.20	98.30
639.35	102.98
639.50	149.79
639.65	781.74
639.80	2083.08
639.94	3461.65
640.09	4395.53
640.24	3166.74
640.39	2120.53
640.54	1411.34
640.68	891.74
640.83	451.72
640.98	198.95
641.13	100.64
641.27	100.64
641.42	39.79
641.57	168.52
641.72	37.45
641.86	67.88
642.01	53.83
642.16	0.00
642.31	18.72
642.45	28.09
642.60	147.45
642.75	9.36
642.90	32.77
643.04	91.28
643.19	23.41
643.34	9.36
643.48	0.00
643.63	56.17
643.78	131.07
643.93	18.72
644.07	32.77
644.22	0.00
644.37	35.11
644.51	70.22
644.66	14.04
644.81	81.92
644.95	21.06
645.10	91.28
645.25	65.54
645.39	128.73
645.54	21.06
645.69	72.56
645.83	32.77
645.98	70.22
646.13	16.38
646.27	65.54
646.42	32.77
646.57	11.70
646.71	60.85
646.86	16.38
647.00	0.00
647.15	0.00
647.30	0.00
647.44	35.11
647.59	74.90
647.74	0.00
647.88	23.41
648.03	49.15
648.17	30.43
648.32	65.54
648.47	39.79
648.61	44.47
648.76	63.19
648.90	56.17
649.05	9.36
649.20	0.00
649.34	25.75
649.49	58.51
649.63	25.75
649.78	77.24
649.92	53.83
650.07	238.73
650.21	980.68
650.36	1717.95
650.51	2338.20
650.65	1856.04
650.80	1289.64
650.94	858.98
651.09	543.00
651.23	252.78
651.38	147.45
651.52	117.03
651.67	39.79
651.81	16.38
651.96	21.06
652.10	49.15
652.25	4.68
652.39	18.72
652.54	117.03
652.68	102.98
652.83	266.82
652.97	517.26
653.12	760.67
653.26	734.93
653.41	493.85
653.55	346.40
653.70	231.71
653.84	184.90
653.99	65.54
654.13	35.11
654.27	2.34
654.42	0.00
654.56	58.51
654.71	23.41
654.85	23.41
655.00	14.04
655.14	42.13
655.29	81.92
655.43	18.72
655.57	91.28
655.72	2.34
655.86	49.15
656.01	95.96
656.15	0.00
656.30	37.45
656.44	81.92
656.58	124.05
656.73	14.04
656.87	0.00
657.01	63.19
657.16	42.13
657.30	37.45
657.45	11.70
657.59	70.22
657.73	0.00
657.88	42.13
658.02	7.02
658.16	0.00
658.31	2.34
658.45	117.03
658.60	4.68
658.74	0.00
658.88	18.72
659.03	30.43
659.17	42.13
659.31	70.22
659.46	358.10
659.60	816.85
659.74	992.39
659.89	961.96
660.03	702.16
660.17	500.87
660.32	257.46
660.46	100.64
660.60	156.82
660.74	53.83
660.89	91.28
661.03	30.43
661.17	7.02
661.32	63.19
661.46	9.36
661.60	16.38
661.74	0.00
661.89	93.62
662.03	53.83
662.17	81.92
662.31	0.00
662.46	0.00
662.60	0.00
662.74	91.28
662.88	21.06
663.03	21.06
663.17	74.90
663.31	88.94
663.45	44.47
663.60	0.00
663.74	60.85
663.88	37.45
664.02	117.03
664.17	21.06
664.31	32.77
664.45	16.38
664.59	7.02
664.73	0.00
664.88	0.00
665.02	39.79
665.16	86.60
665.30	21.06
665.44	21.06
665.59	91.28
665.73	0.00
665.87	16.38
666.01	0.00
666.15	30.43
666.29	11.70
666.44	42.13
666.58	0.00
666.72	86.60
666.86	44.47
667.00	110.01
667.14	0.00
667.28	243.42
667.43	816.85
667.57	1418.36
667.71	1933.28
667.85	1813.92
667.99	1226.44
668.13	833.23
668.27	407.25
668.41	262.14
668.56	107.66
668.70	81.92
668.84	51.49
668.98	79.58
669.12	105.32
669.26	112.35
669.40	0.00
669.54	23.41
669.68	93.62
669.82	56.17
669.96	53.83
670.10	67.88
670.25	0.00
670.39	60.85
670.53	25.75
670.67	49.15
670.81	0.00
670.95	0.00
671.09	128.73
671.23	304.27
671.37	676.41
671.51	1074.31
671.65	1153.88
671.79	931.53
671.93	667.05
672.07	395.55
672.21	222.35
672.35	140.43
672.49	100.64
672.63	0.00
672.77	70.22
672.91	51.49
673.05	58.51
673.19	0.00
673.33	51.49
673.47	0.00
673.61	0.00
673.75	63.19
673.89	81.92
674.03	63.19
674.17	0.00
674.31	32.77
674.45	93.62
674.59	0.00
674.73	9.36
674.87	63.19
675.01	18.72
675.15	67.88
675.29	9.36
675.43	42.13
675.56	56.17
675.70	84.26
675.84	39.79
675.98	86.60
676.12	37.45
676.26	0.00
676.40	0.00
676.54	93.62
676.68	16.38
676.82	37.45
676.96	0.00
677.10	70.22
677.23	93.62
677.37	7.02
677.51	0.00
677.65	0.00
677.79	53.83
677.93	86.60
678.07	0.00
678.21	77.24
678.34	35.11
678.48	60.85
678.62	11.70
678.76	30.43
678.90	21.06
679.04	0.00
679.18	0.00
679.31	32.77
679.45	25.75
679.59	51.49
679.73	60.85
679.87	84.26
680.00	11.70
680.14	0.00
680.28	49.15
680.42	0.00
680.56	65.54
680.70	56.17
680.83	21.06
680.97	0.00
681.11	93.62
681.25	46.81
681.39	37.45
681.52	23.41
681.66	25.75
681.80	0.00
681.94	0.00
682.07	77.24
682.21	2.34
682.35	37.45
682.49	0.00
682.62	0.00
682.76	46.81
682.90	25.75
683.04	49.15
683.17	35.11
683.31	0.00
683.45	21.06
683.59	60.85
683.72	0.00
683.86	0.00
684.00	0.00
684.13	110.01
684.27	7.02
684.41	58.51
684.55	37.45
684.68	46.81
684.82	7.02
684.96	25.75
685.09	35.11
685.23	0.00
685.37	70.22
685.50	37.45
685.64	0.00
685.78	0.00
685.91	42.13
686.05	18.72
686.19	32.77
686.32	16.38
686.46	23.41
686.60	32.77
686.73	63.19
686.87	25.75
687.01	37.45
687.14	88.94
687.28	44.47
687.42	35.11
687.55	51.49
687.69	37.45
687.82	65.54
687.96	65.54
688.10	0.00
688.23	0.00
688.37	0.00
688.50	56.17
688.64	28.09
688.78	42.13
688.91	114.69
689.05	49.15
689.18	7.02
689.32	60.85
689.46	9.36
689.59	37.45
689.73	42.13
689.86	79.58
690.00	21.06
690.13	14.04
690.27	46.81
690.41	11.70
690.54	32.77
690.68	70.22
690.81	37.45
690.95	0.00
691.08	30.43
691.22	44.47
691.35	14.04
691.49	0.00
691.62	51.49
691.76	60.85
691.89	98.30
692.03	32.77
692.16	0.00
692.30	72.56
692.43	154.48
692.57	344.06
692.70	638.97
692.84	774.72
692.97	856.64
693.11	601.52
693.24	442.36
693.38	301.93
693.51	215.33
693.65	191.92
693.78	37.45
693.92	30.43
694.05	63.19
694.19	9.36
694.32	84.26
694.45	4.68
694.59	0.00
694.72	14.04
694.86	88.94
694.99	0.00
695.13	56.17
695.26	35.11
695.39	0.00
695.53	32.77
695.66	79.58
695.80	117.03
695.93	124.05
696.07	35.11
696.20	11.70
696.33	110.01
696.47	65.54
696.60	74.90
696.73	70.22
696.87	84.26
697.00	21.06
697.14	0.00
697.27	44.47
697.40	79.58
697.54	44.47
697.67	84.26
697.80	21.06
697.94	2.34
698.07	88.94
698.21	7.02
698.34	0.00
698.47	42.13
698.61	0.00
698.74	63.19
698.87	37.45
699.01	21.06
699.14	25.75
699.27	35.11
699.40	0.00
699.54	0.00
699.67	0.00
699.80	21.06
699.94	46.81
700.07	0.00
700.20	0.00
700.34	0.00
700.47	86.60
700.60	39.79
700.73	102.98
700.87	53.83
701.00	46.81
701.13	58.51
701.26	18.72
701.40	0.00
701.53	65.54
701.66	23.41
701.79	0.00
701.93	21.06
702.06	51.49
702.19	152.13
702.32	100.64
702.46	81.92
702.59	53.83
702.72	194.26
702.85	400.23
702.99	954.94
703.12	1394.96
703.25	1619.65
703.38	1483.90
703.51	1128.14
703.65	849.61
703.78	669.39
703.91	381.51
704.04	259.80
704.17	131.07
704.31	56.17
704.44	74.90
704.57	44.47
704.70	56.17
704.83	58.51
704.96	32.77
705.10	35.11
705.23	124.05
>>>>>End Processed Spectral Data<<<<<
