SpectraSuite Data File
++++++++++++++++++++++++++++++++++++
Date: Fri Oct 04 12:13:32 GMT-05:00 2013
User: price-jones
Dark Spectrum Present: No
Reference Spectrum Present: No
Number of Sampled Component Spectra: 1
Spectrometers: USB2+H05261
Integration Time (usec): 10000 (USB2+H05261)
Spectra Averaged: 1 (USB2+H05261)
Boxcar Smoothing: 0 (USB2+H05261)
Correct for Electrical Dark: No (USB2+H05261)
Strobe/Lamp Enabled: No (USB2+H05261)
Correct for Detector Non-linearity: No (USB2+H05261)
Correct for Stray Light: No (USB2+H05261)
Number of Pixels in Processed Spectrum: 2048
>>>>>Begin Processed Spectral Data<<<<<
365.73	21.06
365.92	21.06
366.12	21.06
366.32	0.00
366.52	0.00
366.72	0.00
366.91	0.00
367.11	0.00
367.31	0.00
367.51	0.00
367.70	0.00
367.90	0.00
368.10	0.00
368.30	0.00
368.49	0.00
368.69	0.00
368.89	0.00
369.09	0.00
369.28	0.00
369.48	0.00
369.68	0.00
369.87	0.00
370.07	0.00
370.27	0.00
370.47	0.00
370.66	0.00
370.86	0.00
371.06	0.00
371.25	0.00
371.45	0.00
371.65	0.00
371.84	0.00
372.04	18.72
372.24	35.11
372.44	42.13
372.63	60.85
372.83	37.45
373.03	7.02
373.22	30.43
373.42	16.38
373.62	21.06
373.81	0.00
374.01	9.36
374.21	88.94
374.40	0.00
374.60	0.00
374.79	0.00
374.99	49.15
375.19	0.00
375.38	0.00
375.58	44.47
375.78	23.41
375.97	0.00
376.17	9.36
376.37	0.00
376.56	149.79
376.76	2.34
376.95	0.00
377.15	70.22
377.35	25.75
377.54	9.36
377.74	0.00
377.93	65.54
378.13	0.00
378.33	63.19
378.52	21.06
378.72	21.06
378.91	65.54
379.11	0.00
379.31	56.17
379.50	0.00
379.70	0.00
379.89	0.00
380.09	11.70
380.28	11.70
380.48	0.00
380.68	67.88
380.87	37.45
381.07	30.43
381.26	53.83
381.46	23.41
381.65	23.41
381.85	9.36
382.04	56.17
382.24	53.83
382.43	0.00
382.63	0.00
382.83	9.36
383.02	14.04
383.22	42.13
383.41	7.02
383.61	25.75
383.80	0.00
384.00	30.43
384.19	42.13
384.39	0.00
384.58	23.41
384.78	30.43
384.97	0.00
385.17	0.00
385.36	0.00
385.56	32.77
385.75	60.85
385.95	74.90
386.14	0.00
386.34	21.06
386.53	0.00
386.72	4.68
386.92	11.70
387.11	0.00
387.31	16.38
387.50	0.00
387.70	0.00
387.89	42.13
388.09	0.00
388.28	39.79
388.48	18.72
388.67	0.00
388.86	63.19
389.06	16.38
389.25	60.85
389.45	14.04
389.64	56.17
389.84	49.15
390.03	37.45
390.22	21.06
390.42	9.36
390.61	53.83
390.81	0.00
391.00	93.62
391.19	0.00
391.39	53.83
391.58	0.00
391.78	65.54
391.97	37.45
392.16	44.47
392.36	0.00
392.55	0.00
392.75	28.09
392.94	32.77
393.13	0.00
393.33	4.68
393.52	86.60
393.71	0.00
393.91	0.00
394.10	0.00
394.29	0.00
394.49	32.77
394.68	51.49
394.88	53.83
395.07	72.56
395.26	0.00
395.46	11.70
395.65	98.30
395.84	11.70
396.04	0.00
396.23	46.81
396.42	77.24
396.62	7.02
396.81	60.85
397.00	42.13
397.19	126.39
397.39	72.56
397.58	0.00
397.77	32.77
397.97	18.72
398.16	16.38
398.35	30.43
398.55	32.77
398.74	30.43
398.93	70.22
399.12	30.43
399.32	58.51
399.51	81.92
399.70	49.15
399.90	32.77
400.09	0.00
400.28	0.00
400.47	0.00
400.67	46.81
400.86	18.72
401.05	25.75
401.24	18.72
401.44	21.06
401.63	28.09
401.82	39.79
402.01	65.54
402.21	37.45
402.40	49.15
402.59	51.49
402.78	23.41
402.97	28.09
403.17	23.41
403.36	4.68
403.55	11.70
403.74	18.72
403.93	37.45
404.13	7.02
404.32	53.83
404.51	51.49
404.70	4.68
404.89	0.00
405.09	51.49
405.28	23.41
405.47	28.09
405.66	9.36
405.85	32.77
406.05	11.70
406.24	32.77
406.43	32.77
406.62	49.15
406.81	67.88
407.00	0.00
407.20	0.00
407.39	9.36
407.58	0.00
407.77	23.41
407.96	65.54
408.15	7.02
408.34	77.24
408.54	14.04
408.73	0.00
408.92	0.00
409.11	18.72
409.30	81.92
409.49	28.09
409.68	0.00
409.87	0.00
410.07	30.43
410.26	56.17
410.45	102.98
410.64	63.19
410.83	25.75
411.02	4.68
411.21	42.13
411.40	77.24
411.59	46.81
411.78	0.00
411.98	58.51
412.17	67.88
412.36	0.00
412.55	65.54
412.74	21.06
412.93	23.41
413.12	79.58
413.31	60.85
413.50	0.00
413.69	32.77
413.88	56.17
414.07	18.72
414.26	25.75
414.45	18.72
414.64	39.79
414.83	7.02
415.02	0.00
415.22	58.51
415.41	35.11
415.60	0.00
415.79	32.77
415.98	35.11
416.17	28.09
416.36	0.00
416.55	28.09
416.74	60.85
416.93	2.34
417.12	51.49
417.31	14.04
417.50	84.26
417.69	63.19
417.88	28.09
418.07	56.17
418.26	21.06
418.45	9.36
418.64	42.13
418.83	9.36
419.02	46.81
419.21	0.00
419.39	44.47
419.58	30.43
419.77	35.11
419.96	21.06
420.15	21.06
420.34	63.19
420.53	35.11
420.72	23.41
420.91	23.41
421.10	14.04
421.29	9.36
421.48	74.90
421.67	79.58
421.86	4.68
422.05	46.81
422.24	56.17
422.43	77.24
422.61	16.38
422.80	79.58
422.99	0.00
423.18	23.41
423.37	2.34
423.56	7.02
423.75	42.13
423.94	63.19
424.13	18.72
424.32	0.00
424.50	0.00
424.69	37.45
424.88	70.22
425.07	58.51
425.26	77.24
425.45	21.06
425.64	32.77
425.83	58.51
426.01	0.00
426.20	25.75
426.39	23.41
426.58	37.45
426.77	35.11
426.96	105.32
427.15	0.00
427.33	70.22
427.52	0.00
427.71	21.06
427.90	18.72
428.09	65.54
428.28	28.09
428.46	4.68
428.65	37.45
428.84	53.83
429.03	16.38
429.22	9.36
429.40	0.00
429.59	16.38
429.78	79.58
429.97	11.70
430.16	44.47
430.34	46.81
430.53	100.64
430.72	16.38
430.91	114.69
431.10	84.26
431.28	37.45
431.47	18.72
431.66	0.00
431.85	16.38
432.03	11.70
432.22	44.47
432.41	25.75
432.60	0.00
432.79	77.24
432.97	28.09
433.16	51.49
433.35	11.70
433.54	44.47
433.72	0.00
433.91	0.00
434.10	0.00
434.28	65.54
434.47	32.77
434.66	28.09
434.85	23.41
435.03	0.00
435.22	72.56
435.41	18.72
435.59	0.00
435.78	0.00
435.97	32.77
436.16	86.60
436.34	25.75
436.53	58.51
436.72	0.00
436.90	2.34
437.09	32.77
437.28	95.96
437.46	67.88
437.65	16.38
437.84	67.88
438.02	39.79
438.21	30.43
438.40	23.41
438.58	74.90
438.77	37.45
438.96	0.00
439.14	77.24
439.33	0.00
439.52	11.70
439.70	4.68
439.89	65.54
440.08	84.26
440.26	35.11
440.45	58.51
440.63	16.38
440.82	0.00
441.01	63.19
441.19	44.47
441.38	65.54
441.57	0.00
441.75	0.00
441.94	46.81
442.12	88.94
442.31	9.36
442.50	49.15
442.68	30.43
442.87	58.51
443.05	21.06
443.24	28.09
443.43	112.35
443.61	53.83
443.80	7.02
443.98	86.60
444.17	63.19
444.35	46.81
444.54	0.00
444.73	11.70
444.91	32.77
445.10	0.00
445.28	56.17
445.47	44.47
445.65	30.43
445.84	42.13
446.02	65.54
446.21	112.35
446.39	0.00
446.58	0.00
446.77	23.41
446.95	9.36
447.14	21.06
447.32	0.00
447.51	28.09
447.69	32.77
447.88	42.13
448.06	23.41
448.25	0.00
448.43	44.47
448.62	84.26
448.80	32.77
448.99	0.00
449.17	42.13
449.36	0.00
449.54	58.51
449.73	0.00
449.91	16.38
450.10	32.77
450.28	0.00
450.46	9.36
450.65	51.49
450.83	0.00
451.02	0.00
451.20	32.77
451.39	25.75
451.57	37.45
451.76	0.00
451.94	0.00
452.13	4.68
452.31	49.15
452.49	0.00
452.68	9.36
452.86	37.45
453.05	28.09
453.23	0.00
453.42	32.77
453.60	7.02
453.78	32.77
453.97	9.36
454.15	4.68
454.34	44.47
454.52	21.06
454.70	84.26
454.89	37.45
455.07	0.00
455.26	7.02
455.44	39.79
455.62	79.58
455.81	32.77
455.99	58.51
456.17	28.09
456.36	32.77
456.54	51.49
456.73	67.88
456.91	37.45
457.09	0.00
457.28	121.71
457.46	74.90
457.64	86.60
457.83	37.45
458.01	70.22
458.19	0.00
458.38	0.00
458.56	21.06
458.74	11.70
458.93	0.00
459.11	9.36
459.29	2.34
459.48	2.34
459.66	86.60
459.84	56.17
460.03	32.77
460.21	42.13
460.39	0.00
460.57	56.17
460.76	72.56
460.94	0.00
461.12	102.98
461.31	0.00
461.49	16.38
461.67	56.17
461.85	58.51
462.04	11.70
462.22	100.64
462.40	63.19
462.59	51.49
462.77	9.36
462.95	42.13
463.13	72.56
463.32	49.15
463.50	18.72
463.68	51.49
463.86	39.79
464.05	0.00
464.23	0.00
464.41	84.26
464.59	42.13
464.78	46.81
464.96	46.81
465.14	51.49
465.32	28.09
465.50	7.02
465.69	9.36
465.87	84.26
466.05	63.19
466.23	0.00
466.41	35.11
466.60	65.54
466.78	93.62
466.96	77.24
467.14	11.70
467.32	25.75
467.51	28.09
467.69	0.00
467.87	11.70
468.05	37.45
468.23	25.75
468.41	102.98
468.60	110.01
468.78	18.72
468.96	42.13
469.14	53.83
469.32	65.54
469.50	79.58
469.69	14.04
469.87	53.83
470.05	79.58
470.23	35.11
470.41	84.26
470.59	53.83
470.77	79.58
470.95	39.79
471.14	72.56
471.32	70.22
471.50	56.17
471.68	42.13
471.86	88.94
472.04	79.58
472.22	14.04
472.40	2.34
472.58	37.45
472.77	46.81
472.95	37.45
473.13	74.90
473.31	77.24
473.49	100.64
473.67	67.88
473.85	30.43
474.03	0.00
474.21	46.81
474.39	16.38
474.57	0.00
474.75	65.54
474.93	16.38
475.12	18.72
475.30	63.19
475.48	39.79
475.66	67.88
475.84	16.38
476.02	63.19
476.20	30.43
476.38	124.05
476.56	28.09
476.74	98.30
476.92	44.47
477.10	35.11
477.28	86.60
477.46	117.03
477.64	4.68
477.82	0.00
478.00	98.30
478.18	46.81
478.36	56.17
478.54	72.56
478.72	0.00
478.90	23.41
479.08	93.62
479.26	49.15
479.44	37.45
479.62	51.49
479.80	9.36
479.98	72.56
480.16	49.15
480.34	14.04
480.52	0.00
480.70	35.11
480.88	0.00
481.06	0.00
481.24	7.02
481.41	0.00
481.59	4.68
481.77	63.19
481.95	86.60
482.13	4.68
482.31	0.00
482.49	67.88
482.67	46.81
482.85	16.38
483.03	42.13
483.21	72.56
483.39	77.24
483.57	30.43
483.74	16.38
483.92	0.00
484.10	44.47
484.28	0.00
484.46	91.28
484.64	32.77
484.82	0.00
485.00	0.00
485.18	93.62
485.35	91.28
485.53	35.11
485.71	9.36
485.89	25.75
486.07	0.00
486.25	88.94
486.43	21.06
486.61	0.00
486.78	0.00
486.96	23.41
487.14	18.72
487.32	0.00
487.50	28.09
487.68	28.09
487.85	0.00
488.03	65.54
488.21	65.54
488.39	72.56
488.57	0.00
488.75	63.19
488.92	102.98
489.10	23.41
489.28	14.04
489.46	37.45
489.64	25.75
489.81	4.68
489.99	39.79
490.17	49.15
490.35	49.15
490.53	110.01
490.70	0.00
490.88	11.70
491.06	77.24
491.24	0.00
491.41	49.15
491.59	88.94
491.77	30.43
491.95	14.04
492.13	21.06
492.30	42.13
492.48	98.30
492.66	58.51
492.84	58.51
493.01	14.04
493.19	0.00
493.37	7.02
493.54	67.88
493.72	30.43
493.90	67.88
494.08	56.17
494.25	88.94
494.43	0.00
494.61	23.41
494.79	37.45
494.96	70.22
495.14	49.15
495.32	16.38
495.49	49.15
495.67	77.24
495.85	18.72
496.02	63.19
496.20	30.43
496.38	42.13
496.55	39.79
496.73	117.03
496.91	14.04
497.09	0.00
497.26	163.84
497.44	39.79
497.62	21.06
497.79	35.11
497.97	126.39
498.14	100.64
498.32	7.02
498.50	60.85
498.67	119.37
498.85	35.11
499.03	60.85
499.20	32.77
499.38	42.13
499.56	93.62
499.73	46.81
499.91	149.79
500.08	30.43
500.26	0.00
500.44	0.00
500.61	110.01
500.79	21.06
500.97	46.81
501.14	112.35
501.32	119.37
501.49	56.17
501.67	42.13
501.84	65.54
502.02	81.92
502.20	133.41
502.37	44.47
502.55	56.17
502.72	21.06
502.90	35.11
503.07	81.92
503.25	72.56
503.43	65.54
503.60	18.72
503.78	107.66
503.95	81.92
504.13	30.43
504.30	65.54
504.48	79.58
504.65	37.45
504.83	2.34
505.01	63.19
505.18	21.06
505.36	102.98
505.53	107.66
505.71	100.64
505.88	163.84
506.06	77.24
506.23	51.49
506.41	67.88
506.58	35.11
506.76	0.00
506.93	63.19
507.11	0.00
507.28	110.01
507.46	23.41
507.63	28.09
507.81	124.05
507.98	58.51
508.16	102.98
508.33	14.04
508.50	44.47
508.68	0.00
508.85	42.13
509.03	51.49
509.20	9.36
509.38	35.11
509.55	46.81
509.73	79.58
509.90	16.38
510.08	46.81
510.25	51.49
510.42	88.94
510.60	93.62
510.77	49.15
510.95	39.79
511.12	39.79
511.30	0.00
511.47	0.00
511.64	35.11
511.82	30.43
511.99	81.92
512.17	53.83
512.34	65.54
512.51	16.38
512.69	25.75
512.86	86.60
513.04	46.81
513.21	0.00
513.38	46.81
513.56	56.17
513.73	46.81
513.90	42.13
514.08	60.85
514.25	79.58
514.43	39.79
514.60	9.36
514.77	0.00
514.95	93.62
515.12	39.79
515.29	11.70
515.47	4.68
515.64	49.15
515.81	51.49
515.99	28.09
516.16	121.71
516.33	49.15
516.51	37.45
516.68	18.72
516.85	14.04
517.03	65.54
517.20	88.94
517.37	0.00
517.54	0.00
517.72	42.13
517.89	0.00
518.06	49.15
518.24	0.00
518.41	25.75
518.58	23.41
518.75	91.28
518.93	46.81
519.10	39.79
519.27	39.79
519.45	107.66
519.62	0.00
519.79	16.38
519.96	46.81
520.14	79.58
520.31	39.79
520.48	117.03
520.65	84.26
520.83	35.11
521.00	51.49
521.17	93.62
521.34	86.60
521.52	49.15
521.69	0.00
521.86	0.00
522.03	44.47
522.20	30.43
522.38	0.00
522.55	32.77
522.72	65.54
522.89	11.70
523.07	39.79
523.24	0.00
523.41	0.00
523.58	0.00
523.75	32.77
523.92	51.49
524.10	65.54
524.27	0.00
524.44	16.38
524.61	128.73
524.78	79.58
524.96	124.05
525.13	0.00
525.30	0.00
525.47	100.64
525.64	0.00
525.81	86.60
525.98	51.49
526.16	11.70
526.33	9.36
526.50	105.32
526.67	95.96
526.84	77.24
527.01	44.47
527.18	23.41
527.36	35.11
527.53	0.00
527.70	112.35
527.87	72.56
528.04	156.82
528.21	58.51
528.38	70.22
528.55	23.41
528.72	2.34
528.89	58.51
529.07	28.09
529.24	14.04
529.41	16.38
529.58	16.38
529.75	39.79
529.92	93.62
530.09	39.79
530.26	44.47
530.43	135.75
530.60	0.00
530.77	65.54
530.94	21.06
531.11	65.54
531.28	0.00
531.46	79.58
531.63	53.83
531.80	145.11
531.97	58.51
532.14	65.54
532.31	0.00
532.48	35.11
532.65	23.41
532.82	9.36
532.99	67.88
533.16	30.43
533.33	0.00
533.50	0.00
533.67	23.41
533.84	88.94
534.01	30.43
534.18	35.11
534.35	63.19
534.52	53.83
534.69	74.90
534.86	42.13
535.03	23.41
535.20	0.00
535.37	53.83
535.54	74.90
535.71	65.54
535.88	37.45
536.05	28.09
536.22	63.19
536.38	32.77
536.55	46.81
536.72	4.68
536.89	39.79
537.06	0.00
537.23	0.00
537.40	9.36
537.57	42.13
537.74	77.24
537.91	74.90
538.08	91.28
538.25	81.92
538.42	2.34
538.59	37.45
538.75	2.34
538.92	110.01
539.09	98.30
539.26	60.85
539.43	39.79
539.60	49.15
539.77	70.22
539.94	16.38
540.11	60.85
540.28	18.72
540.44	93.62
540.61	11.70
540.78	93.62
540.95	56.17
541.12	37.45
541.29	56.17
541.46	21.06
541.62	39.79
541.79	35.11
541.96	95.96
542.13	42.13
542.30	25.75
542.47	77.24
542.63	37.45
542.80	88.94
542.97	53.83
543.14	65.54
543.31	23.41
543.48	18.72
543.64	0.00
543.81	60.85
543.98	25.75
544.15	46.81
544.32	72.56
544.48	46.81
544.65	0.00
544.82	23.41
544.99	100.64
545.16	42.13
545.32	77.24
545.49	51.49
545.66	0.00
545.83	56.17
546.00	46.81
546.16	28.09
546.33	28.09
546.50	46.81
546.67	44.47
546.83	35.11
547.00	93.62
547.17	4.68
547.34	53.83
547.50	58.51
547.67	63.19
547.84	16.38
548.00	0.00
548.17	21.06
548.34	14.04
548.51	60.85
548.67	32.77
548.84	0.00
549.01	70.22
549.18	53.83
549.34	23.41
549.51	2.34
549.68	84.26
549.84	21.06
550.01	63.19
550.18	39.79
550.34	2.34
550.51	42.13
550.68	25.75
550.84	77.24
551.01	56.17
551.18	79.58
551.34	37.45
551.51	0.00
551.68	9.36
551.84	30.43
552.01	0.00
552.18	14.04
552.34	51.49
552.51	53.83
552.68	42.13
552.84	77.24
553.01	37.45
553.18	51.49
553.34	44.47
553.51	63.19
553.67	37.45
553.84	7.02
554.01	0.00
554.17	0.00
554.34	46.81
554.51	100.64
554.67	53.83
554.84	56.17
555.00	30.43
555.17	23.41
555.33	49.15
555.50	30.43
555.67	30.43
555.83	63.19
556.00	0.00
556.16	35.11
556.33	63.19
556.50	30.43
556.66	0.00
556.83	14.04
556.99	46.81
557.16	67.88
557.32	0.00
557.49	44.47
557.65	58.51
557.82	60.85
557.98	46.81
558.15	18.72
558.32	30.43
558.48	49.15
558.65	32.77
558.81	81.92
558.98	0.00
559.14	37.45
559.31	42.13
559.47	107.66
559.64	107.66
559.80	0.00
559.97	11.70
560.13	42.13
560.30	16.38
560.46	0.00
560.63	30.43
560.79	0.00
560.96	14.04
561.12	79.58
561.29	60.85
561.45	11.70
561.61	0.00
561.78	37.45
561.94	51.49
562.11	4.68
562.27	11.70
562.44	35.11
562.60	65.54
562.77	23.41
562.93	56.17
563.10	46.81
563.26	25.75
563.42	93.62
563.59	63.19
563.75	152.13
563.92	81.92
564.08	0.00
564.24	39.79
564.41	23.41
564.57	95.96
564.74	37.45
564.90	51.49
565.07	25.75
565.23	142.77
565.39	16.38
565.56	56.17
565.72	2.34
565.88	67.88
566.05	70.22
566.21	30.43
566.38	0.00
566.54	0.00
566.70	18.72
566.87	126.39
567.03	0.00
567.19	44.47
567.36	42.13
567.52	63.19
567.68	42.13
567.85	18.72
568.01	0.00
568.17	14.04
568.34	28.09
568.50	28.09
568.66	65.54
568.83	49.15
568.99	95.96
569.15	32.77
569.32	35.11
569.48	98.30
569.64	23.41
569.81	65.54
569.97	23.41
570.13	14.04
570.30	21.06
570.46	79.58
570.62	44.47
570.78	25.75
570.95	0.00
571.11	70.22
571.27	65.54
571.43	0.00
571.60	11.70
571.76	74.90
571.92	46.81
572.09	11.70
572.25	0.00
572.41	23.41
572.57	58.51
572.74	67.88
572.90	63.19
573.06	84.26
573.22	161.50
573.38	121.71
573.55	4.68
573.71	16.38
573.87	53.83
574.03	49.15
574.20	0.00
574.36	105.32
574.52	25.75
574.68	88.94
574.84	65.54
575.01	86.60
575.17	81.92
575.33	25.75
575.49	18.72
575.65	63.19
575.82	65.54
575.98	98.30
576.14	18.72
576.30	23.41
576.46	86.60
576.62	32.77
576.79	7.02
576.95	16.38
577.11	21.06
577.27	18.72
577.43	49.15
577.59	44.47
577.75	37.45
577.92	46.81
578.08	49.15
578.24	105.32
578.40	67.88
578.56	72.56
578.72	124.05
578.88	72.56
579.04	32.77
579.21	0.00
579.37	23.41
579.53	23.41
579.69	53.83
579.85	49.15
580.01	74.90
580.17	32.77
580.33	23.41
580.49	0.00
580.65	0.00
580.82	0.00
580.98	44.47
581.14	30.43
581.30	21.06
581.46	16.38
581.62	117.03
581.78	56.17
581.94	42.13
582.10	60.85
582.26	35.11
582.42	107.66
582.58	60.85
582.74	93.62
582.90	56.17
583.06	86.60
583.22	46.81
583.38	25.75
583.54	11.70
583.70	107.66
583.86	46.81
584.02	35.11
584.18	14.04
584.34	42.13
584.50	51.49
584.66	28.09
584.82	77.24
584.98	28.09
585.14	77.24
585.30	88.94
585.46	53.83
585.62	23.41
585.78	35.11
585.94	102.98
586.10	63.19
586.26	35.11
586.42	58.51
586.58	93.62
586.74	7.02
586.90	49.15
587.06	72.56
587.22	2.34
587.38	0.00
587.54	67.88
587.70	60.85
587.86	53.83
588.02	0.00
588.18	46.81
588.34	0.00
588.49	65.54
588.65	46.81
588.81	63.19
588.97	28.09
589.13	30.43
589.29	9.36
589.45	42.13
589.61	4.68
589.77	35.11
589.93	42.13
590.08	58.51
590.24	58.51
590.40	4.68
590.56	51.49
590.72	93.62
590.88	7.02
591.04	56.17
591.20	56.17
591.35	60.85
591.51	58.51
591.67	16.38
591.83	35.11
591.99	56.17
592.15	18.72
592.31	58.51
592.46	88.94
592.62	67.88
592.78	23.41
592.94	9.36
593.10	28.09
593.26	28.09
593.41	51.49
593.57	70.22
593.73	14.04
593.89	44.47
594.05	46.81
594.20	30.43
594.36	0.00
594.52	44.47
594.68	0.00
594.84	25.75
594.99	70.22
595.15	21.06
595.31	112.35
595.47	25.75
595.62	30.43
595.78	49.15
595.94	30.43
596.10	93.62
596.25	18.72
596.41	39.79
596.57	53.83
596.73	39.79
596.88	0.00
597.04	98.30
597.20	30.43
597.36	23.41
597.51	100.64
597.67	58.51
597.83	84.26
597.99	77.24
598.14	84.26
598.30	21.06
598.46	25.75
598.61	98.30
598.77	30.43
598.93	0.00
599.09	49.15
599.24	53.83
599.40	35.11
599.56	21.06
599.71	98.30
599.87	79.58
600.03	32.77
600.18	14.04
600.34	53.83
600.50	18.72
600.65	63.19
600.81	39.79
600.97	60.85
601.12	35.11
601.28	25.75
601.44	0.00
601.59	32.77
601.75	0.00
601.91	23.41
602.06	102.98
602.22	16.38
602.37	0.00
602.53	77.24
602.69	95.96
602.84	14.04
603.00	39.79
603.16	0.00
603.31	23.41
603.47	0.00
603.62	44.47
603.78	18.72
603.94	49.15
604.09	98.30
604.25	53.83
604.40	70.22
604.56	49.15
604.71	28.09
604.87	0.00
605.03	21.06
605.18	18.72
605.34	58.51
605.49	4.68
605.65	84.26
605.80	44.47
605.96	4.68
606.12	7.02
606.27	86.60
606.43	58.51
606.58	4.68
606.74	0.00
606.89	37.45
607.05	9.36
607.20	0.00
607.36	56.17
607.51	39.79
607.67	0.00
607.82	0.00
607.98	39.79
608.13	49.15
608.29	35.11
608.44	0.00
608.60	56.17
608.75	0.00
608.91	9.36
609.06	16.38
609.22	11.70
609.37	51.49
609.53	0.00
609.68	0.00
609.84	0.00
609.99	0.00
610.15	84.26
610.30	21.06
610.46	30.43
610.61	0.00
610.76	42.13
610.92	79.58
611.07	0.00
611.23	16.38
611.38	0.00
611.54	46.81
611.69	0.00
611.84	84.26
612.00	88.94
612.15	86.60
612.31	37.45
612.46	0.00
612.62	0.00
612.77	2.34
612.92	0.00
613.08	0.00
613.23	42.13
613.39	18.72
613.54	46.81
613.69	0.00
613.85	39.79
614.00	65.54
614.15	0.00
614.31	42.13
614.46	58.51
614.62	53.83
614.77	9.36
614.92	91.28
615.08	42.13
615.23	18.72
615.38	49.15
615.54	95.96
615.69	32.77
615.84	44.47
616.00	35.11
616.15	23.41
616.30	9.36
616.46	42.13
616.61	7.02
616.76	0.00
616.92	9.36
617.07	35.11
617.22	63.19
617.37	56.17
617.53	56.17
617.68	23.41
617.83	93.62
617.99	102.98
618.14	72.56
618.29	95.96
618.45	63.19
618.60	53.83
618.75	37.45
618.90	46.81
619.06	25.75
619.21	53.83
619.36	18.72
619.51	51.49
619.67	70.22
619.82	0.00
619.97	88.94
620.12	0.00
620.28	77.24
620.43	28.09
620.58	9.36
620.73	49.15
620.89	16.38
621.04	77.24
621.19	0.00
621.34	16.38
621.49	30.43
621.65	86.60
621.80	51.49
621.95	39.79
622.10	32.77
622.25	23.41
622.41	51.49
622.56	32.77
622.71	4.68
622.86	23.41
623.01	51.49
623.16	44.47
623.32	46.81
623.47	30.43
623.62	0.00
623.77	4.68
623.92	88.94
624.07	72.56
624.23	4.68
624.38	65.54
624.53	0.00
624.68	88.94
624.83	77.24
624.98	56.17
625.13	51.49
625.29	51.49
625.44	70.22
625.59	0.00
625.74	21.06
625.89	88.94
626.04	49.15
626.19	42.13
626.34	42.13
626.49	74.90
626.65	21.06
626.80	0.00
626.95	77.24
627.10	93.62
627.25	2.34
627.40	18.72
627.55	39.79
627.70	0.00
627.85	81.92
628.00	7.02
628.15	72.56
628.30	14.04
628.45	0.00
628.60	60.85
628.76	84.26
628.91	2.34
629.06	0.00
629.21	0.00
629.36	35.11
629.51	4.68
629.66	58.51
629.81	39.79
629.96	46.81
630.11	84.26
630.26	70.22
630.41	23.41
630.56	32.77
630.71	58.51
630.86	0.00
631.01	25.75
631.16	44.47
631.31	72.56
631.46	0.00
631.61	0.00
631.76	16.38
631.91	7.02
632.06	21.06
632.21	0.00
632.36	16.38
632.51	23.41
632.66	63.19
632.81	35.11
632.96	56.17
633.10	81.92
633.25	72.56
633.40	67.88
633.55	95.96
633.70	0.00
633.85	44.47
634.00	0.00
634.15	0.00
634.30	0.00
634.45	44.47
634.60	63.19
634.75	0.00
634.90	0.00
635.05	28.09
635.19	0.00
635.34	37.45
635.49	39.79
635.64	60.85
635.79	0.00
635.94	35.11
636.09	18.72
636.24	60.85
636.39	49.15
636.53	0.00
636.68	0.00
636.83	42.13
636.98	74.90
637.13	23.41
637.28	2.34
637.43	53.83
637.57	39.79
637.72	21.06
637.87	0.00
638.02	23.41
638.17	53.83
638.32	0.00
638.46	49.15
638.61	14.04
638.76	0.00
638.91	0.00
639.06	37.45
639.20	60.85
639.35	35.11
639.50	28.09
639.65	30.43
639.80	74.90
639.94	112.35
640.09	51.49
640.24	42.13
640.39	0.00
640.54	77.24
640.68	28.09
640.83	30.43
640.98	11.70
641.13	0.00
641.27	25.75
641.42	46.81
641.57	51.49
641.72	0.00
641.86	42.13
642.01	81.92
642.16	49.15
642.31	9.36
642.45	72.56
642.60	11.70
642.75	9.36
642.90	39.79
643.04	37.45
643.19	74.90
643.34	88.94
643.48	0.00
643.63	25.75
643.78	93.62
643.93	37.45
644.07	0.00
644.22	67.88
644.37	42.13
644.51	9.36
644.66	21.06
644.81	74.90
644.95	117.03
645.10	60.85
645.25	25.75
645.39	53.83
645.54	0.00
645.69	0.00
645.83	2.34
645.98	4.68
646.13	53.83
646.27	42.13
646.42	51.49
646.57	93.62
646.71	81.92
646.86	21.06
647.00	98.30
647.15	67.88
647.30	49.15
647.44	53.83
647.59	65.54
647.74	7.02
647.88	2.34
648.03	25.75
648.17	53.83
648.32	0.00
648.47	51.49
648.61	16.38
648.76	72.56
648.90	28.09
649.05	81.92
649.20	86.60
649.34	0.00
649.49	81.92
649.63	0.00
649.78	51.49
649.92	84.26
650.07	81.92
650.21	16.38
650.36	56.17
650.51	16.38
650.65	0.00
650.80	72.56
650.94	0.00
651.09	2.34
651.23	11.70
651.38	0.00
651.52	49.15
651.67	56.17
651.81	14.04
651.96	63.19
652.10	2.34
652.25	37.45
652.39	44.47
652.54	60.85
652.68	25.75
652.83	0.00
652.97	51.49
653.12	2.34
653.26	42.13
653.41	0.00
653.55	42.13
653.70	0.00
653.84	0.00
653.99	0.00
654.13	72.56
654.27	0.00
654.42	28.09
654.56	4.68
654.71	72.56
654.85	0.00
655.00	44.47
655.14	114.69
655.29	2.34
655.43	30.43
655.57	42.13
655.72	0.00
655.86	7.02
656.01	67.88
656.15	0.00
656.30	0.00
656.44	7.02
656.58	0.00
656.73	49.15
656.87	88.94
657.01	23.41
657.16	0.00
657.30	35.11
657.45	49.15
657.59	42.13
657.73	119.37
657.88	74.90
658.02	63.19
658.16	0.00
658.31	14.04
658.45	110.01
658.60	46.81
658.74	0.00
658.88	72.56
659.03	37.45
659.17	53.83
659.31	37.45
659.46	0.00
659.60	77.24
659.74	0.00
659.89	0.00
660.03	0.00
660.17	0.00
660.32	74.90
660.46	37.45
660.60	9.36
660.74	107.66
660.89	77.24
661.03	4.68
661.17	77.24
661.32	56.17
661.46	21.06
661.60	86.60
661.74	67.88
661.89	37.45
662.03	32.77
662.17	60.85
662.31	56.17
662.46	39.79
662.60	86.60
662.74	60.85
662.88	58.51
663.03	4.68
663.17	0.00
663.31	23.41
663.45	77.24
663.60	2.34
663.74	70.22
663.88	16.38
664.02	77.24
664.17	0.00
664.31	37.45
664.45	72.56
664.59	67.88
664.73	88.94
664.88	0.00
665.02	0.00
665.16	67.88
665.30	37.45
665.44	0.00
665.59	42.13
665.73	60.85
665.87	67.88
666.01	53.83
666.15	81.92
666.29	30.43
666.44	21.06
666.58	32.77
666.72	39.79
666.86	65.54
667.00	39.79
667.14	42.13
667.28	74.90
667.43	16.38
667.57	84.26
667.71	9.36
667.85	0.00
667.99	37.45
668.13	0.00
668.27	0.00
668.41	44.47
668.56	53.83
668.70	14.04
668.84	88.94
668.98	7.02
669.12	14.04
669.26	102.98
669.40	91.28
669.54	107.66
669.68	105.32
669.82	0.00
669.96	14.04
670.10	14.04
670.25	102.98
670.39	53.83
670.53	0.00
670.67	0.00
670.81	0.00
670.95	60.85
671.09	0.00
671.23	37.45
671.37	23.41
671.51	72.56
671.65	79.58
671.79	0.00
671.93	51.49
672.07	74.90
672.21	49.15
672.35	21.06
672.49	81.92
672.63	0.00
672.77	21.06
672.91	39.79
673.05	88.94
673.19	32.77
673.33	42.13
673.47	23.41
673.61	16.38
673.75	30.43
673.89	79.58
674.03	0.00
674.17	81.92
674.31	32.77
674.45	0.00
674.59	18.72
674.73	67.88
674.87	30.43
675.01	149.79
675.15	49.15
675.29	65.54
675.43	39.79
675.56	0.00
675.70	11.70
675.84	0.00
675.98	14.04
676.12	65.54
676.26	0.00
676.40	0.00
676.54	84.26
676.68	86.60
676.82	2.34
676.96	14.04
677.10	16.38
677.23	58.51
677.37	35.11
677.51	35.11
677.65	46.81
677.79	44.47
677.93	74.90
678.07	81.92
678.21	72.56
678.34	21.06
678.48	37.45
678.62	49.15
678.76	58.51
678.90	44.47
679.04	79.58
679.18	16.38
679.31	81.92
679.45	23.41
679.59	70.22
679.73	23.41
679.87	46.81
680.00	112.35
680.14	72.56
680.28	58.51
680.42	88.94
680.56	51.49
680.70	0.00
680.83	4.68
680.97	0.00
681.11	81.92
681.25	63.19
681.39	2.34
681.52	35.11
681.66	0.00
681.80	28.09
681.94	35.11
682.07	42.13
682.21	51.49
682.35	2.34
682.49	51.49
682.62	44.47
682.76	37.45
682.90	25.75
683.04	0.00
683.17	72.56
683.31	49.15
683.45	25.75
683.59	0.00
683.72	42.13
683.86	11.70
684.00	4.68
684.13	18.72
684.27	53.83
684.41	35.11
684.55	37.45
684.68	2.34
684.82	2.34
684.96	0.00
685.09	58.51
685.23	58.51
685.37	51.49
685.50	95.96
685.64	16.38
685.78	70.22
685.91	23.41
686.05	0.00
686.19	0.00
686.32	67.88
686.46	86.60
686.60	49.15
686.73	30.43
686.87	37.45
687.01	16.38
687.14	60.85
687.28	67.88
687.42	44.47
687.55	42.13
687.69	81.92
687.82	67.88
687.96	18.72
688.10	58.51
688.23	74.90
688.37	32.77
688.50	32.77
688.64	49.15
688.78	72.56
688.91	0.00
689.05	28.09
689.18	32.77
689.32	14.04
689.46	51.49
689.59	9.36
689.73	51.49
689.86	0.00
690.00	95.96
690.13	0.00
690.27	9.36
690.41	0.00
690.54	74.90
690.68	58.51
690.81	0.00
690.95	44.47
691.08	0.00
691.22	16.38
691.35	0.00
691.49	32.77
691.62	21.06
691.76	16.38
691.89	23.41
692.03	35.11
692.16	11.70
692.30	60.85
692.43	18.72
692.57	42.13
692.70	72.56
692.84	23.41
692.97	72.56
693.11	65.54
693.24	32.77
693.38	42.13
693.51	0.00
693.65	0.00
693.78	18.72
693.92	28.09
694.05	0.00
694.19	0.00
694.32	42.13
694.45	119.37
694.59	67.88
694.72	18.72
694.86	77.24
694.99	0.00
695.13	7.02
695.26	18.72
695.39	16.38
695.53	74.90
695.66	0.00
695.80	14.04
695.93	0.00
696.07	84.26
696.20	0.00
696.33	70.22
696.47	0.00
696.60	32.77
696.73	0.00
696.87	60.85
697.00	32.77
697.14	9.36
697.27	21.06
697.40	9.36
697.54	93.62
697.67	30.43
697.80	44.47
697.94	63.19
698.07	46.81
698.21	37.45
698.34	53.83
698.47	58.51
698.61	67.88
698.74	39.79
698.87	0.00
699.01	0.00
699.14	23.41
699.27	25.75
699.40	142.77
699.54	67.88
699.67	91.28
699.80	100.64
699.94	65.54
700.07	35.11
700.20	30.43
700.34	37.45
700.47	25.75
700.60	35.11
700.73	46.81
700.87	35.11
701.00	44.47
701.13	14.04
701.26	14.04
701.40	16.38
701.53	63.19
701.66	28.09
701.79	81.92
701.93	56.17
702.06	30.43
702.19	14.04
702.32	37.45
702.46	0.00
702.59	67.88
702.72	63.19
702.85	49.15
702.99	32.77
703.12	0.00
703.25	60.85
703.38	32.77
703.51	23.41
703.65	0.00
703.78	18.72
703.91	25.75
704.04	46.81
704.17	32.77
704.31	30.43
704.44	23.41
704.57	25.75
704.70	32.77
704.83	56.17
704.96	72.56
705.10	32.77
705.23	88.94
>>>>>End Processed Spectral Data<<<<<
