SpectraSuite Data File
++++++++++++++++++++++++++++++++++++
Date: Fri Oct 04 12:13:30 GMT-05:00 2013
User: price-jones
Dark Spectrum Present: No
Reference Spectrum Present: No
Number of Sampled Component Spectra: 1
Spectrometers: USB2+H05261
Integration Time (usec): 10000 (USB2+H05261)
Spectra Averaged: 1 (USB2+H05261)
Boxcar Smoothing: 0 (USB2+H05261)
Correct for Electrical Dark: No (USB2+H05261)
Strobe/Lamp Enabled: No (USB2+H05261)
Correct for Detector Non-linearity: No (USB2+H05261)
Correct for Stray Light: No (USB2+H05261)
Number of Pixels in Processed Spectrum: 2048
>>>>>Begin Processed Spectral Data<<<<<
365.73	7.02
365.92	7.02
366.12	7.02
366.32	0.00
366.52	0.00
366.72	0.00
366.91	0.00
367.11	0.00
367.31	0.00
367.51	0.00
367.70	0.00
367.90	0.00
368.10	0.00
368.30	0.00
368.49	0.00
368.69	0.00
368.89	0.00
369.09	0.00
369.28	0.00
369.48	0.00
369.68	0.00
369.87	0.00
370.07	0.00
370.27	0.00
370.47	0.00
370.66	0.00
370.86	0.00
371.06	0.00
371.25	0.00
371.45	0.00
371.65	0.00
371.84	0.00
372.04	11.70
372.24	35.11
372.44	58.51
372.63	16.38
372.83	37.45
373.03	0.00
373.22	46.81
373.42	42.13
373.62	28.09
373.81	28.09
374.01	72.56
374.21	9.36
374.40	11.70
374.60	42.13
374.79	0.00
374.99	0.00
375.19	0.00
375.38	11.70
375.58	46.81
375.78	25.75
375.97	11.70
376.17	25.75
376.37	44.47
376.56	58.51
376.76	32.77
376.95	9.36
377.15	72.56
377.35	58.51
377.54	11.70
377.74	0.00
377.93	44.47
378.13	102.98
378.33	0.00
378.52	39.79
378.72	25.75
378.91	37.45
379.11	77.24
379.31	30.43
379.50	0.00
379.70	46.81
379.89	28.09
380.09	32.77
380.28	0.00
380.48	28.09
380.68	28.09
380.87	65.54
381.07	23.41
381.26	0.00
381.46	21.06
381.65	18.72
381.85	0.00
382.04	67.88
382.24	25.75
382.43	70.22
382.63	42.13
382.83	65.54
383.02	4.68
383.22	21.06
383.41	32.77
383.61	11.70
383.80	49.15
384.00	117.03
384.19	39.79
384.39	11.70
384.58	0.00
384.78	32.77
384.97	0.00
385.17	51.49
385.36	0.00
385.56	16.38
385.75	44.47
385.95	0.00
386.14	0.00
386.34	16.38
386.53	11.70
386.72	42.13
386.92	0.00
387.11	11.70
387.31	0.00
387.50	46.81
387.70	35.11
387.89	23.41
388.09	39.79
388.28	23.41
388.48	4.68
388.67	25.75
388.86	7.02
389.06	44.47
389.25	56.17
389.45	56.17
389.64	30.43
389.84	44.47
390.03	4.68
390.22	21.06
390.42	14.04
390.61	0.00
390.81	46.81
391.00	0.00
391.19	0.00
391.39	0.00
391.58	39.79
391.78	46.81
391.97	30.43
392.16	25.75
392.36	30.43
392.55	16.38
392.75	28.09
392.94	88.94
393.13	11.70
393.33	58.51
393.52	9.36
393.71	9.36
393.91	21.06
394.10	51.49
394.29	0.00
394.49	56.17
394.68	0.00
394.88	23.41
395.07	0.00
395.26	0.00
395.46	14.04
395.65	0.00
395.84	2.34
396.04	35.11
396.23	0.00
396.42	0.00
396.62	110.01
396.81	32.77
397.00	21.06
397.19	51.49
397.39	2.34
397.58	39.79
397.77	37.45
397.97	25.75
398.16	79.58
398.35	0.00
398.55	91.28
398.74	25.75
398.93	39.79
399.12	4.68
399.32	56.17
399.51	107.66
399.70	11.70
399.90	72.56
400.09	0.00
400.28	35.11
400.47	4.68
400.67	0.00
400.86	88.94
401.05	70.22
401.24	0.00
401.44	42.13
401.63	72.56
401.82	0.00
402.01	42.13
402.21	25.75
402.40	0.00
402.59	49.15
402.78	18.72
402.97	28.09
403.17	4.68
403.36	0.00
403.55	0.00
403.74	39.79
403.93	21.06
404.13	0.00
404.32	0.00
404.51	72.56
404.70	28.09
404.89	65.54
405.09	49.15
405.28	0.00
405.47	39.79
405.66	44.47
405.85	11.70
406.05	98.30
406.24	49.15
406.43	0.00
406.62	0.00
406.81	0.00
407.00	63.19
407.20	30.43
407.39	35.11
407.58	23.41
407.77	79.58
407.96	67.88
408.15	16.38
408.34	77.24
408.54	25.75
408.73	0.00
408.92	65.54
409.11	53.83
409.30	23.41
409.49	0.00
409.68	9.36
409.87	0.00
410.07	0.00
410.26	37.45
410.45	67.88
410.64	60.85
410.83	58.51
411.02	0.00
411.21	0.00
411.40	60.85
411.59	0.00
411.78	28.09
411.98	16.38
412.17	16.38
412.36	0.00
412.55	21.06
412.74	58.51
412.93	70.22
413.12	7.02
413.31	0.00
413.50	49.15
413.69	0.00
413.88	28.09
414.07	30.43
414.26	28.09
414.45	18.72
414.64	0.00
414.83	0.00
415.02	23.41
415.22	32.77
415.41	39.79
415.60	23.41
415.79	7.02
415.98	72.56
416.17	84.26
416.36	86.60
416.55	44.47
416.74	0.00
416.93	53.83
417.12	0.00
417.31	110.01
417.50	42.13
417.69	0.00
417.88	16.38
418.07	23.41
418.26	23.41
418.45	44.47
418.64	102.98
418.83	18.72
419.02	44.47
419.21	39.79
419.39	4.68
419.58	39.79
419.77	14.04
419.96	58.51
420.15	0.00
420.34	0.00
420.53	32.77
420.72	35.11
420.91	37.45
421.10	2.34
421.29	14.04
421.48	9.36
421.67	0.00
421.86	0.00
422.05	0.00
422.24	4.68
422.43	42.13
422.61	46.81
422.80	0.00
422.99	0.00
423.18	53.83
423.37	16.38
423.56	70.22
423.75	100.64
423.94	0.00
424.13	0.00
424.32	0.00
424.50	121.71
424.69	0.00
424.88	56.17
425.07	0.00
425.26	51.49
425.45	42.13
425.64	14.04
425.83	67.88
426.01	2.34
426.20	63.19
426.39	53.83
426.58	11.70
426.77	0.00
426.96	0.00
427.15	93.62
427.33	32.77
427.52	58.51
427.71	0.00
427.90	2.34
428.09	91.28
428.28	60.85
428.46	74.90
428.65	35.11
428.84	56.17
429.03	51.49
429.22	37.45
429.40	0.00
429.59	0.00
429.78	44.47
429.97	7.02
430.16	28.09
430.34	53.83
430.53	46.81
430.72	14.04
430.91	28.09
431.10	0.00
431.28	42.13
431.47	95.96
431.66	18.72
431.85	7.02
432.03	0.00
432.22	49.15
432.41	84.26
432.60	0.00
432.79	30.43
432.97	56.17
433.16	81.92
433.35	25.75
433.54	0.00
433.72	37.45
433.91	98.30
434.10	88.94
434.28	72.56
434.47	25.75
434.66	44.47
434.85	30.43
435.03	79.58
435.22	16.38
435.41	0.00
435.59	35.11
435.78	0.00
435.97	0.00
436.16	58.51
436.34	49.15
436.53	21.06
436.72	65.54
436.90	28.09
437.09	4.68
437.28	51.49
437.46	32.77
437.65	0.00
437.84	0.00
438.02	0.00
438.21	0.00
438.40	0.00
438.58	0.00
438.77	0.00
438.96	72.56
439.14	18.72
439.33	65.54
439.52	14.04
439.70	0.00
439.89	46.81
440.08	30.43
440.26	4.68
440.45	0.00
440.63	7.02
440.82	81.92
441.01	79.58
441.19	63.19
441.38	0.00
441.57	4.68
441.75	0.00
441.94	53.83
442.12	0.00
442.31	16.38
442.50	46.81
442.68	28.09
442.87	60.85
443.05	16.38
443.24	81.92
443.43	0.00
443.61	4.68
443.80	46.81
443.98	46.81
444.17	0.00
444.35	0.00
444.54	49.15
444.73	84.26
444.91	35.11
445.10	14.04
445.28	11.70
445.47	65.54
445.65	49.15
445.84	35.11
446.02	2.34
446.21	88.94
446.39	18.72
446.58	58.51
446.77	9.36
446.95	7.02
447.14	4.68
447.32	0.00
447.51	81.92
447.69	0.00
447.88	0.00
448.06	72.56
448.25	91.28
448.43	67.88
448.62	49.15
448.80	131.07
448.99	0.00
449.17	58.51
449.36	70.22
449.54	0.00
449.73	58.51
449.91	39.79
450.10	0.00
450.28	23.41
450.46	0.00
450.65	58.51
450.83	0.00
451.02	0.00
451.20	25.75
451.39	0.00
451.57	65.54
451.76	44.47
451.94	23.41
452.13	0.00
452.31	60.85
452.49	65.54
452.68	0.00
452.86	0.00
453.05	98.30
453.23	23.41
453.42	0.00
453.60	18.72
453.78	63.19
453.97	28.09
454.15	4.68
454.34	58.51
454.52	0.00
454.70	86.60
454.89	112.35
455.07	72.56
455.26	16.38
455.44	0.00
455.62	35.11
455.81	21.06
455.99	0.00
456.17	65.54
456.36	110.01
456.54	0.00
456.73	7.02
456.91	53.83
457.09	51.49
457.28	32.77
457.46	0.00
457.64	63.19
457.83	0.00
458.01	23.41
458.19	0.00
458.38	119.37
458.56	88.94
458.74	0.00
458.93	30.43
459.11	44.47
459.29	11.70
459.48	39.79
459.66	0.00
459.84	86.60
460.03	32.77
460.21	28.09
460.39	42.13
460.57	16.38
460.76	11.70
460.94	53.83
461.12	16.38
461.31	70.22
461.49	4.68
461.67	0.00
461.85	30.43
462.04	2.34
462.22	107.66
462.40	88.94
462.59	42.13
462.77	37.45
462.95	30.43
463.13	37.45
463.32	9.36
463.50	35.11
463.68	16.38
463.86	79.58
464.05	58.51
464.23	4.68
464.41	35.11
464.59	0.00
464.78	74.90
464.96	39.79
465.14	63.19
465.32	18.72
465.50	23.41
465.69	49.15
465.87	23.41
466.05	9.36
466.23	0.00
466.41	2.34
466.60	74.90
466.78	93.62
466.96	0.00
467.14	0.00
467.32	70.22
467.51	23.41
467.69	23.41
467.87	25.75
468.05	28.09
468.23	53.83
468.41	16.38
468.60	18.72
468.78	0.00
468.96	51.49
469.14	51.49
469.32	0.00
469.50	72.56
469.69	0.00
469.87	0.00
470.05	60.85
470.23	0.00
470.41	0.00
470.59	53.83
470.77	32.77
470.95	2.34
471.14	49.15
471.32	25.75
471.50	51.49
471.68	0.00
471.86	42.13
472.04	46.81
472.22	7.02
472.40	4.68
472.58	37.45
472.77	23.41
472.95	23.41
473.13	21.06
473.31	53.83
473.49	35.11
473.67	25.75
473.85	28.09
474.03	46.81
474.21	74.90
474.39	49.15
474.57	44.47
474.75	32.77
474.93	23.41
475.12	46.81
475.30	72.56
475.48	0.00
475.66	37.45
475.84	39.79
476.02	70.22
476.20	88.94
476.38	2.34
476.56	2.34
476.74	0.00
476.92	37.45
477.10	112.35
477.28	35.11
477.46	70.22
477.64	124.05
477.82	30.43
478.00	53.83
478.18	0.00
478.36	81.92
478.54	112.35
478.72	7.02
478.90	4.68
479.08	58.51
479.26	63.19
479.44	49.15
479.62	56.17
479.80	9.36
479.98	32.77
480.16	49.15
480.34	56.17
480.52	0.00
480.70	86.60
480.88	35.11
481.06	0.00
481.24	0.00
481.41	49.15
481.59	79.58
481.77	49.15
481.95	44.47
482.13	39.79
482.31	124.05
482.49	58.51
482.67	77.24
482.85	37.45
483.03	56.17
483.21	32.77
483.39	49.15
483.57	0.00
483.74	4.68
483.92	0.00
484.10	56.17
484.28	60.85
484.46	65.54
484.64	46.81
484.82	46.81
485.00	28.09
485.18	35.11
485.35	21.06
485.53	35.11
485.71	51.49
485.89	0.00
486.07	53.83
486.25	18.72
486.43	39.79
486.61	53.83
486.78	2.34
486.96	72.56
487.14	28.09
487.32	39.79
487.50	58.51
487.68	65.54
487.85	0.00
488.03	25.75
488.21	72.56
488.39	74.90
488.57	53.83
488.75	25.75
488.92	65.54
489.10	77.24
489.28	102.98
489.46	7.02
489.64	84.26
489.81	0.00
489.99	65.54
490.17	44.47
490.35	67.88
490.53	56.17
490.70	0.00
490.88	65.54
491.06	88.94
491.24	0.00
491.41	46.81
491.59	39.79
491.77	46.81
491.95	0.00
492.13	88.94
492.30	70.22
492.48	86.60
492.66	46.81
492.84	63.19
493.01	95.96
493.19	77.24
493.37	121.71
493.54	49.15
493.72	30.43
493.90	4.68
494.08	65.54
494.25	23.41
494.43	79.58
494.61	42.13
494.79	39.79
494.96	11.70
495.14	77.24
495.32	60.85
495.49	30.43
495.67	11.70
495.85	93.62
496.02	25.75
496.20	16.38
496.38	23.41
496.55	18.72
496.73	39.79
496.91	14.04
497.09	102.98
497.26	39.79
497.44	77.24
497.62	37.45
497.79	79.58
497.97	72.56
498.14	28.09
498.32	0.00
498.50	91.28
498.67	14.04
498.85	49.15
499.03	30.43
499.20	63.19
499.38	0.00
499.56	0.00
499.73	79.58
499.91	37.45
500.08	18.72
500.26	81.92
500.44	49.15
500.61	79.58
500.79	0.00
500.97	53.83
501.14	67.88
501.32	53.83
501.49	18.72
501.67	28.09
501.84	0.00
502.02	74.90
502.20	81.92
502.37	77.24
502.55	9.36
502.72	70.22
502.90	65.54
503.07	9.36
503.25	53.83
503.43	56.17
503.60	131.07
503.78	23.41
503.95	107.66
504.13	79.58
504.30	0.00
504.48	46.81
504.65	67.88
504.83	21.06
505.01	2.34
505.18	28.09
505.36	70.22
505.53	152.13
505.71	63.19
505.88	53.83
506.06	53.83
506.23	11.70
506.41	0.00
506.58	70.22
506.76	63.19
506.93	84.26
507.11	37.45
507.28	25.75
507.46	0.00
507.63	110.01
507.81	30.43
507.98	30.43
508.16	0.00
508.33	86.60
508.50	74.90
508.68	81.92
508.85	42.13
509.03	102.98
509.20	49.15
509.38	0.00
509.55	0.00
509.73	0.00
509.90	44.47
510.08	88.94
510.25	23.41
510.42	74.90
510.60	30.43
510.77	65.54
510.95	88.94
511.12	121.71
511.30	0.00
511.47	70.22
511.64	23.41
511.82	16.38
511.99	74.90
512.17	53.83
512.34	0.00
512.51	25.75
512.69	11.70
512.86	0.00
513.04	46.81
513.21	44.47
513.38	74.90
513.56	81.92
513.73	0.00
513.90	79.58
514.08	0.00
514.25	37.45
514.43	37.45
514.60	93.62
514.77	35.11
514.95	198.95
515.12	0.00
515.29	23.41
515.47	0.00
515.64	42.13
515.81	0.00
515.99	93.62
516.16	0.00
516.33	79.58
516.51	0.00
516.68	37.45
516.85	21.06
517.03	0.00
517.20	77.24
517.37	30.43
517.54	70.22
517.72	0.00
517.89	107.66
518.06	65.54
518.24	42.13
518.41	44.47
518.58	0.00
518.75	46.81
518.93	7.02
519.10	74.90
519.27	0.00
519.45	114.69
519.62	60.85
519.79	32.77
519.96	84.26
520.14	37.45
520.31	0.00
520.48	63.19
520.65	117.03
520.83	18.72
521.00	0.00
521.17	42.13
521.34	14.04
521.52	0.00
521.69	28.09
521.86	56.17
522.03	70.22
522.20	16.38
522.38	11.70
522.55	65.54
522.72	0.00
522.89	105.32
523.07	60.85
523.24	42.13
523.41	28.09
523.58	0.00
523.75	100.64
523.92	37.45
524.10	30.43
524.27	23.41
524.44	37.45
524.61	72.56
524.78	102.98
524.96	70.22
525.13	23.41
525.30	67.88
525.47	30.43
525.64	14.04
525.81	42.13
525.98	30.43
526.16	18.72
526.33	70.22
526.50	74.90
526.67	28.09
526.84	32.77
527.01	46.81
527.18	91.28
527.36	42.13
527.53	9.36
527.70	35.11
527.87	9.36
528.04	16.38
528.21	18.72
528.38	18.72
528.55	98.30
528.72	0.00
528.89	9.36
529.07	98.30
529.24	81.92
529.41	0.00
529.58	14.04
529.75	56.17
529.92	30.43
530.09	60.85
530.26	9.36
530.43	9.36
530.60	44.47
530.77	44.47
530.94	35.11
531.11	56.17
531.28	77.24
531.46	14.04
531.63	98.30
531.80	70.22
531.97	91.28
532.14	98.30
532.31	49.15
532.48	28.09
532.65	51.49
532.82	25.75
532.99	74.90
533.16	65.54
533.33	65.54
533.50	0.00
533.67	51.49
533.84	51.49
534.01	70.22
534.18	0.00
534.35	86.60
534.52	95.96
534.69	58.51
534.86	44.47
535.03	102.98
535.20	37.45
535.37	30.43
535.54	28.09
535.71	0.00
535.88	63.19
536.05	100.64
536.22	0.00
536.38	23.41
536.55	30.43
536.72	30.43
536.89	21.06
537.06	0.00
537.23	124.05
537.40	67.88
537.57	2.34
537.74	81.92
537.91	2.34
538.08	18.72
538.25	9.36
538.42	23.41
538.59	28.09
538.75	88.94
538.92	44.47
539.09	32.77
539.26	100.64
539.43	39.79
539.60	65.54
539.77	53.83
539.94	93.62
540.11	70.22
540.28	100.64
540.44	51.49
540.61	86.60
540.78	58.51
540.95	98.30
541.12	147.45
541.29	25.75
541.46	53.83
541.62	42.13
541.79	65.54
541.96	9.36
542.13	28.09
542.30	105.32
542.47	58.51
542.63	93.62
542.80	114.69
542.97	49.15
543.14	23.41
543.31	74.90
543.48	51.49
543.64	39.79
543.81	65.54
543.98	42.13
544.15	35.11
544.32	23.41
544.48	37.45
544.65	51.49
544.82	32.77
544.99	107.66
545.16	56.17
545.32	0.00
545.49	84.26
545.66	142.77
545.83	51.49
546.00	107.66
546.16	49.15
546.33	77.24
546.50	0.00
546.67	28.09
546.83	46.81
547.00	67.88
547.17	32.77
547.34	53.83
547.50	95.96
547.67	53.83
547.84	0.00
548.00	25.75
548.17	30.43
548.34	60.85
548.51	25.75
548.67	0.00
548.84	60.85
549.01	49.15
549.18	100.64
549.34	56.17
549.51	42.13
549.68	60.85
549.84	0.00
550.01	49.15
550.18	102.98
550.34	30.43
550.51	21.06
550.68	39.79
550.84	117.03
551.01	9.36
551.18	74.90
551.34	65.54
551.51	42.13
551.68	9.36
551.84	67.88
552.01	81.92
552.18	49.15
552.34	11.70
552.51	42.13
552.68	23.41
552.84	35.11
553.01	56.17
553.18	77.24
553.34	39.79
553.51	60.85
553.67	56.17
553.84	44.47
554.01	117.03
554.17	93.62
554.34	0.00
554.51	63.19
554.67	42.13
554.84	14.04
555.00	91.28
555.17	51.49
555.33	28.09
555.50	0.00
555.67	0.00
555.83	25.75
556.00	18.72
556.16	133.41
556.33	25.75
556.50	0.00
556.66	0.00
556.83	81.92
556.99	11.70
557.16	65.54
557.32	44.47
557.49	7.02
557.65	32.77
557.82	81.92
557.98	0.00
558.15	70.22
558.32	67.88
558.48	93.62
558.65	88.94
558.81	60.85
558.98	28.09
559.14	37.45
559.31	18.72
559.47	37.45
559.64	44.47
559.80	0.00
559.97	72.56
560.13	51.49
560.30	25.75
560.46	37.45
560.63	9.36
560.79	37.45
560.96	58.51
561.12	86.60
561.29	0.00
561.45	30.43
561.61	39.79
561.78	74.90
561.94	0.00
562.11	14.04
562.27	32.77
562.44	105.32
562.60	60.85
562.77	37.45
562.93	56.17
563.10	67.88
563.26	32.77
563.42	14.04
563.59	9.36
563.75	2.34
563.92	23.41
564.08	11.70
564.24	37.45
564.41	25.75
564.57	0.00
564.74	35.11
564.90	126.39
565.07	39.79
565.23	42.13
565.39	35.11
565.56	74.90
565.72	0.00
565.88	23.41
566.05	0.00
566.21	91.28
566.38	28.09
566.54	77.24
566.70	63.19
566.87	100.64
567.03	58.51
567.19	39.79
567.36	51.49
567.52	79.58
567.68	35.11
567.85	35.11
568.01	63.19
568.17	44.47
568.34	51.49
568.50	53.83
568.66	93.62
568.83	79.58
568.99	56.17
569.15	77.24
569.32	4.68
569.48	25.75
569.64	0.00
569.81	21.06
569.97	70.22
570.13	16.38
570.30	107.66
570.46	114.69
570.62	88.94
570.78	77.24
570.95	58.51
571.11	0.00
571.27	88.94
571.43	51.49
571.60	0.00
571.76	49.15
571.92	21.06
572.09	39.79
572.25	70.22
572.41	14.04
572.57	21.06
572.74	72.56
572.90	46.81
573.06	72.56
573.22	65.54
573.38	60.85
573.55	9.36
573.71	42.13
573.87	51.49
574.03	28.09
574.20	51.49
574.36	32.77
574.52	93.62
574.68	11.70
574.84	7.02
575.01	16.38
575.17	0.00
575.33	0.00
575.49	21.06
575.65	67.88
575.82	9.36
575.98	70.22
576.14	4.68
576.30	63.19
576.46	23.41
576.62	0.00
576.79	32.77
576.95	0.00
577.11	98.30
577.27	14.04
577.43	51.49
577.59	149.79
577.75	0.00
577.92	110.01
578.08	0.00
578.24	44.47
578.40	63.19
578.56	21.06
578.72	39.79
578.88	28.09
579.04	35.11
579.21	0.00
579.37	25.75
579.53	23.41
579.69	105.32
579.85	16.38
580.01	77.24
580.17	25.75
580.33	32.77
580.49	21.06
580.65	37.45
580.82	79.58
580.98	16.38
581.14	23.41
581.30	49.15
581.46	93.62
581.62	135.75
581.78	79.58
581.94	74.90
582.10	0.00
582.26	21.06
582.42	79.58
582.58	0.00
582.74	44.47
582.90	81.92
583.06	63.19
583.22	65.54
583.38	32.77
583.54	42.13
583.70	0.00
583.86	9.36
584.02	25.75
584.18	93.62
584.34	18.72
584.50	58.51
584.66	152.13
584.82	461.09
584.98	678.76
585.14	662.37
585.30	411.93
585.46	264.48
585.62	229.37
585.78	86.60
585.94	63.19
586.10	84.26
586.26	25.75
586.42	28.09
586.58	60.85
586.74	37.45
586.90	39.79
587.06	0.00
587.22	70.22
587.38	56.17
587.54	37.45
587.70	84.26
587.86	51.49
588.02	37.45
588.18	67.88
588.34	138.09
588.49	72.56
588.65	110.01
588.81	42.13
588.97	140.43
589.13	30.43
589.29	67.88
589.45	0.00
589.61	51.49
589.77	32.77
589.93	7.02
590.08	0.00
590.24	63.19
590.40	56.17
590.56	0.00
590.72	0.00
590.88	74.90
591.04	16.38
591.20	91.28
591.35	98.30
591.51	2.34
591.67	35.11
591.83	0.00
591.99	0.00
592.15	0.00
592.31	25.75
592.46	42.13
592.62	0.00
592.78	44.47
592.94	30.43
593.10	60.85
593.26	84.26
593.41	46.81
593.57	77.24
593.73	37.45
593.89	81.92
594.05	88.94
594.20	140.43
594.36	93.62
594.52	114.69
594.68	16.38
594.84	16.38
594.99	44.47
595.15	56.17
595.31	18.72
595.47	14.04
595.62	72.56
595.78	58.51
595.94	81.92
596.10	18.72
596.25	72.56
596.41	30.43
596.57	4.68
596.73	32.77
596.88	30.43
597.04	25.75
597.20	14.04
597.36	0.00
597.51	56.17
597.67	21.06
597.83	25.75
597.99	72.56
598.14	105.32
598.30	79.58
598.46	30.43
598.61	86.60
598.77	74.90
598.93	63.19
599.09	65.54
599.24	35.11
599.40	58.51
599.56	0.00
599.71	107.66
599.87	18.72
600.03	77.24
600.18	67.88
600.34	60.85
600.50	91.28
600.65	39.79
600.81	28.09
600.97	0.00
601.12	63.19
601.28	42.13
601.44	133.41
601.59	86.60
601.75	44.47
601.91	53.83
602.06	70.22
602.22	51.49
602.37	95.96
602.53	0.00
602.69	0.00
602.84	98.30
603.00	18.72
603.16	128.73
603.31	30.43
603.47	9.36
603.62	21.06
603.78	95.96
603.94	65.54
604.09	0.00
604.25	0.00
604.40	77.24
604.56	42.13
604.71	114.69
604.87	49.15
605.03	0.00
605.18	14.04
605.34	112.35
605.49	72.56
605.65	35.11
605.80	81.92
605.96	42.13
606.12	46.81
606.27	93.62
606.43	58.51
606.58	63.19
606.74	140.43
606.89	114.69
607.05	51.49
607.20	56.17
607.36	184.90
607.51	126.39
607.67	124.05
607.82	93.62
607.98	18.72
608.13	72.56
608.29	14.04
608.44	23.41
608.60	72.56
608.75	0.00
608.91	56.17
609.06	70.22
609.22	133.41
609.37	131.07
609.53	145.11
609.68	79.58
609.84	51.49
609.99	35.11
610.15	63.19
610.30	18.72
610.46	35.11
610.61	0.00
610.76	67.88
610.92	105.32
611.07	35.11
611.23	32.77
611.38	9.36
611.54	79.58
611.69	0.00
611.84	7.02
612.00	23.41
612.15	28.09
612.31	7.02
612.46	0.00
612.62	67.88
612.77	70.22
612.92	79.58
613.08	14.04
613.23	63.19
613.39	67.88
613.54	25.75
613.69	53.83
613.85	182.56
614.00	222.35
614.15	198.95
614.31	194.26
614.46	100.64
614.62	145.11
614.77	70.22
614.92	25.75
615.08	32.77
615.23	23.41
615.38	28.09
615.54	11.70
615.69	86.60
615.84	28.09
616.00	131.07
616.15	93.62
616.30	81.92
616.46	84.26
616.61	107.66
616.76	100.64
616.92	30.43
617.07	51.49
617.22	70.22
617.37	16.38
617.53	46.81
617.68	72.56
617.83	9.36
617.99	133.41
618.14	77.24
618.29	4.68
618.45	95.96
618.60	0.00
618.75	81.92
618.90	51.49
619.06	81.92
619.21	91.28
619.36	46.81
619.51	72.56
619.67	21.06
619.82	37.45
619.97	42.13
620.12	25.75
620.28	105.32
620.43	58.51
620.58	39.79
620.73	37.45
620.89	2.34
621.04	51.49
621.19	105.32
621.34	42.13
621.49	49.15
621.65	39.79
621.80	11.70
621.95	58.51
622.10	53.83
622.25	39.79
622.41	0.00
622.56	16.38
622.71	18.72
622.86	142.77
623.01	0.00
623.16	2.34
623.32	0.00
623.47	37.45
623.62	21.06
623.77	79.58
623.92	0.00
624.07	30.43
624.23	42.13
624.38	14.04
624.53	0.00
624.68	0.00
624.83	81.92
624.98	72.56
625.13	35.11
625.29	25.75
625.44	25.75
625.59	4.68
625.74	65.54
625.89	91.28
626.04	49.15
626.19	88.94
626.34	102.98
626.49	168.52
626.65	81.92
626.80	81.92
626.95	28.09
627.10	0.00
627.25	30.43
627.40	0.00
627.55	53.83
627.70	0.00
627.85	30.43
628.00	65.54
628.15	70.22
628.30	25.75
628.45	51.49
628.60	21.06
628.76	37.45
628.91	53.83
629.06	14.04
629.21	25.75
629.36	25.75
629.51	72.56
629.66	42.13
629.81	0.00
629.96	4.68
630.11	28.09
630.26	77.24
630.41	84.26
630.56	0.00
630.71	74.90
630.86	0.00
631.01	53.83
631.16	28.09
631.31	14.04
631.46	72.56
631.61	58.51
631.76	32.77
631.91	102.98
632.06	21.06
632.21	9.36
632.36	58.51
632.51	37.45
632.66	39.79
632.81	51.49
632.96	16.38
633.10	44.47
633.25	100.64
633.40	154.48
633.55	110.01
633.70	65.54
633.85	72.56
634.00	25.75
634.15	0.00
634.30	56.17
634.45	67.88
634.60	16.38
634.75	21.06
634.90	16.38
635.05	37.45
635.19	4.68
635.34	30.43
635.49	58.51
635.64	58.51
635.79	14.04
635.94	14.04
636.09	37.45
636.24	81.92
636.39	53.83
636.53	16.38
636.68	53.83
636.83	39.79
636.98	42.13
637.13	72.56
637.28	74.90
637.43	16.38
637.57	21.06
637.72	46.81
637.87	124.05
638.02	105.32
638.17	159.16
638.32	156.82
638.46	161.50
638.61	142.77
638.76	9.36
638.91	0.00
639.06	39.79
639.20	110.01
639.35	9.36
639.50	58.51
639.65	91.28
639.80	131.07
639.94	236.39
640.09	238.73
640.24	217.67
640.39	135.75
640.54	42.13
640.68	173.20
640.83	53.83
640.98	30.43
641.13	126.39
641.27	53.83
641.42	35.11
641.57	93.62
641.72	84.26
641.86	49.15
642.01	0.00
642.16	32.77
642.31	49.15
642.45	84.26
642.60	58.51
642.75	11.70
642.90	7.02
643.04	86.60
643.19	77.24
643.34	58.51
643.48	49.15
643.63	63.19
643.78	35.11
643.93	42.13
644.07	39.79
644.22	25.75
644.37	7.02
644.51	37.45
644.66	63.19
644.81	53.83
644.95	21.06
645.10	51.49
645.25	44.47
645.39	58.51
645.54	0.00
645.69	0.00
645.83	2.34
645.98	65.54
646.13	39.79
646.27	0.00
646.42	4.68
646.57	14.04
646.71	0.00
646.86	2.34
647.00	0.00
647.15	53.83
647.30	30.43
647.44	0.00
647.59	60.85
647.74	23.41
647.88	51.49
648.03	35.11
648.17	35.11
648.32	21.06
648.47	53.83
648.61	0.00
648.76	23.41
648.90	0.00
649.05	42.13
649.20	88.94
649.34	44.47
649.49	11.70
649.63	72.56
649.78	21.06
649.92	60.85
650.07	49.15
650.21	131.07
650.36	70.22
650.51	124.05
650.65	79.58
650.80	138.09
650.94	44.47
651.09	44.47
651.23	4.68
651.38	42.13
651.52	70.22
651.67	0.00
651.81	28.09
651.96	56.17
652.10	53.83
652.25	4.68
652.39	39.79
652.54	60.85
652.68	107.66
652.83	39.79
652.97	23.41
653.12	49.15
653.26	60.85
653.41	77.24
653.55	84.26
653.70	86.60
653.84	23.41
653.99	0.00
654.13	11.70
654.27	46.81
654.42	32.77
654.56	0.00
654.71	7.02
654.85	58.51
655.00	0.00
655.14	65.54
655.29	0.00
655.43	4.68
655.57	0.00
655.72	0.00
655.86	21.06
656.01	58.51
656.15	18.72
656.30	28.09
656.44	56.17
656.58	0.00
656.73	9.36
656.87	0.00
657.01	2.34
657.16	79.58
657.30	14.04
657.45	0.00
657.59	0.00
657.73	0.00
657.88	0.00
658.02	56.17
658.16	0.00
658.31	7.02
658.45	4.68
658.60	65.54
658.74	49.15
658.88	23.41
659.03	0.00
659.17	98.30
659.31	51.49
659.46	0.00
659.60	60.85
659.74	189.58
659.89	46.81
660.03	42.13
660.17	91.28
660.32	65.54
660.46	79.58
660.60	11.70
660.74	0.00
660.89	18.72
661.03	70.22
661.17	32.77
661.32	18.72
661.46	98.30
661.60	0.00
661.74	25.75
661.89	77.24
662.03	23.41
662.17	42.13
662.31	25.75
662.46	74.90
662.60	30.43
662.74	98.30
662.88	84.26
663.03	23.41
663.17	23.41
663.31	28.09
663.45	88.94
663.60	63.19
663.74	42.13
663.88	2.34
664.02	60.85
664.17	46.81
664.31	46.81
664.45	9.36
664.59	0.00
664.73	63.19
664.88	60.85
665.02	23.41
665.16	49.15
665.30	28.09
665.44	0.00
665.59	138.09
665.73	39.79
665.87	0.00
666.01	2.34
666.15	21.06
666.29	0.00
666.44	95.96
666.58	0.00
666.72	0.00
666.86	0.00
667.00	110.01
667.14	46.81
667.28	84.26
667.43	124.05
667.57	98.30
667.71	107.66
667.85	65.54
667.99	102.98
668.13	44.47
668.27	72.56
668.41	114.69
668.56	128.73
668.70	60.85
668.84	79.58
668.98	81.92
669.12	44.47
669.26	58.51
669.40	63.19
669.54	81.92
669.68	81.92
669.82	7.02
669.96	86.60
670.10	16.38
670.25	18.72
670.39	72.56
670.53	0.00
670.67	2.34
670.81	30.43
670.95	37.45
671.09	28.09
671.23	77.24
671.37	117.03
671.51	84.26
671.65	133.41
671.79	56.17
671.93	142.77
672.07	72.56
672.21	93.62
672.35	74.90
672.49	0.00
672.63	44.47
672.77	65.54
672.91	42.13
673.05	51.49
673.19	51.49
673.33	0.00
673.47	65.54
673.61	51.49
673.75	49.15
673.89	95.96
674.03	42.13
674.17	0.00
674.31	46.81
674.45	2.34
674.59	4.68
674.73	0.00
674.87	4.68
675.01	28.09
675.15	11.70
675.29	100.64
675.43	88.94
675.56	30.43
675.70	56.17
675.84	14.04
675.98	0.00
676.12	0.00
676.26	53.83
676.40	28.09
676.54	0.00
676.68	30.43
676.82	60.85
676.96	35.11
677.10	102.98
677.23	98.30
677.37	25.75
677.51	18.72
677.65	44.47
677.79	0.00
677.93	7.02
678.07	0.00
678.21	9.36
678.34	56.17
678.48	58.51
678.62	25.75
678.76	0.00
678.90	28.09
679.04	23.41
679.18	28.09
679.31	51.49
679.45	0.00
679.59	70.22
679.73	35.11
679.87	42.13
680.00	25.75
680.14	74.90
680.28	0.00
680.42	0.00
680.56	30.43
680.70	58.51
680.83	21.06
680.97	0.00
681.11	0.00
681.25	39.79
681.39	11.70
681.52	25.75
681.66	11.70
681.80	16.38
681.94	63.19
682.07	51.49
682.21	0.00
682.35	51.49
682.49	60.85
682.62	53.83
682.76	4.68
682.90	25.75
683.04	0.00
683.17	0.00
683.31	0.00
683.45	18.72
683.59	0.00
683.72	67.88
683.86	0.00
684.00	39.79
684.13	0.00
684.27	0.00
684.41	23.41
684.55	39.79
684.68	25.75
684.82	18.72
684.96	70.22
685.09	44.47
685.23	74.90
685.37	0.00
685.50	56.17
685.64	4.68
685.78	18.72
685.91	98.30
686.05	14.04
686.19	58.51
686.32	25.75
686.46	46.81
686.60	0.00
686.73	23.41
686.87	49.15
687.01	0.00
687.14	72.56
687.28	30.43
687.42	0.00
687.55	131.07
687.69	88.94
687.82	56.17
687.96	93.62
688.10	11.70
688.23	95.96
688.37	11.70
688.50	0.00
688.64	0.00
688.78	0.00
688.91	0.00
689.05	39.79
689.18	23.41
689.32	93.62
689.46	67.88
689.59	18.72
689.73	126.39
689.86	51.49
690.00	0.00
690.13	0.00
690.27	49.15
690.41	14.04
690.54	39.79
690.68	49.15
690.81	11.70
690.95	0.00
691.08	0.00
691.22	14.04
691.35	42.13
691.49	0.00
691.62	21.06
691.76	67.88
691.89	84.26
692.03	65.54
692.16	91.28
692.30	0.00
692.43	67.88
692.57	72.56
692.70	21.06
692.84	112.35
692.97	182.56
693.11	81.92
693.24	0.00
693.38	51.49
693.51	0.00
693.65	56.17
693.78	0.00
693.92	35.11
694.05	11.70
694.19	39.79
694.32	39.79
694.45	0.00
694.59	0.00
694.72	0.00
694.86	18.72
694.99	110.01
695.13	9.36
695.26	65.54
695.39	65.54
695.53	21.06
695.66	67.88
695.80	30.43
695.93	0.00
696.07	44.47
696.20	102.98
696.33	49.15
696.47	126.39
696.60	2.34
696.73	79.58
696.87	72.56
697.00	72.56
697.14	7.02
697.27	56.17
697.40	0.00
697.54	0.00
697.67	16.38
697.80	23.41
697.94	0.00
698.07	0.00
698.21	0.00
698.34	70.22
698.47	56.17
698.61	25.75
698.74	46.81
698.87	11.70
699.01	79.58
699.14	0.00
699.27	56.17
699.40	49.15
699.54	23.41
699.67	23.41
699.80	16.38
699.94	93.62
700.07	81.92
700.20	37.45
700.34	0.00
700.47	0.00
700.60	11.70
700.73	0.00
700.87	0.00
701.00	0.00
701.13	133.41
701.26	49.15
701.40	0.00
701.53	0.00
701.66	53.83
701.79	42.13
701.93	0.00
702.06	0.00
702.19	4.68
702.32	51.49
702.46	11.70
702.59	35.11
702.72	23.41
702.85	110.01
702.99	112.35
703.12	88.94
703.25	166.18
703.38	53.83
703.51	112.35
703.65	21.06
703.78	30.43
703.91	49.15
704.04	4.68
704.17	30.43
704.31	21.06
704.44	0.00
704.57	23.41
704.70	51.49
704.83	0.00
704.96	46.81
705.10	0.00
705.23	63.19
>>>>>End Processed Spectral Data<<<<<
