SpectraSuite Data File
++++++++++++++++++++++++++++++++++++
Date: Fri Oct 04 12:13:26 GMT-05:00 2013
User: price-jones
Dark Spectrum Present: No
Reference Spectrum Present: No
Number of Sampled Component Spectra: 1
Spectrometers: USB2+H05261
Integration Time (usec): 10000 (USB2+H05261)
Spectra Averaged: 1 (USB2+H05261)
Boxcar Smoothing: 0 (USB2+H05261)
Correct for Electrical Dark: No (USB2+H05261)
Strobe/Lamp Enabled: No (USB2+H05261)
Correct for Detector Non-linearity: No (USB2+H05261)
Correct for Stray Light: No (USB2+H05261)
Number of Pixels in Processed Spectrum: 2048
>>>>>Begin Processed Spectral Data<<<<<
365.73	0.00
365.92	0.00
366.12	0.00
366.32	0.00
366.52	0.00
366.72	0.00
366.91	0.00
367.11	0.00
367.31	0.00
367.51	0.00
367.70	0.00
367.90	0.00
368.10	0.00
368.30	0.00
368.49	0.00
368.69	0.00
368.89	0.00
369.09	0.00
369.28	0.00
369.48	0.00
369.68	0.00
369.87	0.00
370.07	0.00
370.27	0.00
370.47	0.00
370.66	0.00
370.86	0.00
371.06	0.00
371.25	0.00
371.45	0.00
371.65	0.00
371.84	0.00
372.04	49.15
372.24	0.00
372.44	0.00
372.63	79.58
372.83	11.70
373.03	0.00
373.22	4.68
373.42	0.00
373.62	23.41
373.81	58.51
374.01	42.13
374.21	0.00
374.40	46.81
374.60	49.15
374.79	37.45
374.99	88.94
375.19	0.00
375.38	70.22
375.58	44.47
375.78	25.75
375.97	63.19
376.17	21.06
376.37	4.68
376.56	30.43
376.76	0.00
376.95	44.47
377.15	0.00
377.35	0.00
377.54	23.41
377.74	70.22
377.93	0.00
378.13	23.41
378.33	0.00
378.52	16.38
378.72	0.00
378.91	74.90
379.11	23.41
379.31	18.72
379.50	0.00
379.70	49.15
379.89	11.70
380.09	0.00
380.28	0.00
380.48	0.00
380.68	11.70
380.87	16.38
381.07	0.00
381.26	9.36
381.46	23.41
381.65	84.26
381.85	25.75
382.04	0.00
382.24	0.00
382.43	119.37
382.63	65.54
382.83	0.00
383.02	25.75
383.22	72.56
383.41	0.00
383.61	28.09
383.80	28.09
384.00	9.36
384.19	28.09
384.39	51.49
384.58	0.00
384.78	0.00
384.97	0.00
385.17	53.83
385.36	18.72
385.56	100.64
385.75	0.00
385.95	0.00
386.14	0.00
386.34	0.00
386.53	18.72
386.72	39.79
386.92	0.00
387.11	4.68
387.31	0.00
387.50	0.00
387.70	4.68
387.89	51.49
388.09	0.00
388.28	58.51
388.48	49.15
388.67	16.38
388.86	25.75
389.06	63.19
389.25	74.90
389.45	18.72
389.64	30.43
389.84	16.38
390.03	39.79
390.22	0.00
390.42	84.26
390.61	37.45
390.81	37.45
391.00	25.75
391.19	56.17
391.39	18.72
391.58	9.36
391.78	0.00
391.97	30.43
392.16	42.13
392.36	18.72
392.55	16.38
392.75	11.70
392.94	0.00
393.13	0.00
393.33	0.00
393.52	65.54
393.71	0.00
393.91	21.06
394.10	51.49
394.29	28.09
394.49	14.04
394.68	77.24
394.88	4.68
395.07	0.00
395.26	4.68
395.46	63.19
395.65	0.00
395.84	14.04
396.04	44.47
396.23	23.41
396.42	42.13
396.62	25.75
396.81	42.13
397.00	4.68
397.19	21.06
397.39	42.13
397.58	18.72
397.77	32.77
397.97	28.09
398.16	0.00
398.35	0.00
398.55	21.06
398.74	0.00
398.93	32.77
399.12	21.06
399.32	0.00
399.51	56.17
399.70	0.00
399.90	0.00
400.09	67.88
400.28	4.68
400.47	2.34
400.67	58.51
400.86	44.47
401.05	32.77
401.24	14.04
401.44	77.24
401.63	72.56
401.82	0.00
402.01	44.47
402.21	0.00
402.40	0.00
402.59	42.13
402.78	0.00
402.97	74.90
403.17	0.00
403.36	7.02
403.55	46.81
403.74	56.17
403.93	23.41
404.13	9.36
404.32	0.00
404.51	42.13
404.70	63.19
404.89	2.34
405.09	4.68
405.28	0.00
405.47	77.24
405.66	0.00
405.85	35.11
406.05	42.13
406.24	49.15
406.43	39.79
406.62	63.19
406.81	84.26
407.00	18.72
407.20	42.13
407.39	58.51
407.58	30.43
407.77	32.77
407.96	56.17
408.15	23.41
408.34	42.13
408.54	0.00
408.73	39.79
408.92	32.77
409.11	60.85
409.30	70.22
409.49	35.11
409.68	74.90
409.87	107.66
410.07	0.00
410.26	32.77
410.45	2.34
410.64	11.70
410.83	72.56
411.02	35.11
411.21	58.51
411.40	23.41
411.59	23.41
411.78	18.72
411.98	0.00
412.17	44.47
412.36	60.85
412.55	18.72
412.74	21.06
412.93	35.11
413.12	9.36
413.31	88.94
413.50	4.68
413.69	14.04
413.88	42.13
414.07	30.43
414.26	2.34
414.45	0.00
414.64	35.11
414.83	21.06
415.02	28.09
415.22	49.15
415.41	44.47
415.60	72.56
415.79	35.11
415.98	0.00
416.17	35.11
416.36	0.00
416.55	98.30
416.74	81.92
416.93	21.06
417.12	9.36
417.31	70.22
417.50	18.72
417.69	21.06
417.88	0.00
418.07	30.43
418.26	86.60
418.45	0.00
418.64	7.02
418.83	39.79
419.02	81.92
419.21	88.94
419.39	0.00
419.58	30.43
419.77	9.36
419.96	70.22
420.15	53.83
420.34	0.00
420.53	37.45
420.72	58.51
420.91	93.62
421.10	7.02
421.29	32.77
421.48	30.43
421.67	21.06
421.86	58.51
422.05	32.77
422.24	86.60
422.43	28.09
422.61	42.13
422.80	32.77
422.99	14.04
423.18	107.66
423.37	56.17
423.56	0.00
423.75	21.06
423.94	77.24
424.13	93.62
424.32	0.00
424.50	0.00
424.69	2.34
424.88	107.66
425.07	18.72
425.26	56.17
425.45	46.81
425.64	25.75
425.83	70.22
426.01	16.38
426.20	25.75
426.39	0.00
426.58	11.70
426.77	0.00
426.96	51.49
427.15	28.09
427.33	0.00
427.52	56.17
427.71	0.00
427.90	51.49
428.09	23.41
428.28	0.00
428.46	0.00
428.65	0.00
428.84	37.45
429.03	39.79
429.22	49.15
429.40	0.00
429.59	53.83
429.78	4.68
429.97	32.77
430.16	79.58
430.34	44.47
430.53	37.45
430.72	30.43
430.91	30.43
431.10	51.49
431.28	4.68
431.47	0.00
431.66	14.04
431.85	39.79
432.03	77.24
432.22	51.49
432.41	14.04
432.60	16.38
432.79	0.00
432.97	21.06
433.16	49.15
433.35	7.02
433.54	16.38
433.72	16.38
433.91	21.06
434.10	42.13
434.28	2.34
434.47	4.68
434.66	14.04
434.85	30.43
435.03	46.81
435.22	44.47
435.41	4.68
435.59	4.68
435.78	9.36
435.97	25.75
436.16	65.54
436.34	37.45
436.53	56.17
436.72	65.54
436.90	0.00
437.09	23.41
437.28	9.36
437.46	14.04
437.65	56.17
437.84	11.70
438.02	42.13
438.21	49.15
438.40	56.17
438.58	37.45
438.77	25.75
438.96	0.00
439.14	0.00
439.33	18.72
439.52	0.00
439.70	0.00
439.89	11.70
440.08	60.85
440.26	0.00
440.45	0.00
440.63	49.15
440.82	28.09
441.01	35.11
441.19	56.17
441.38	35.11
441.57	18.72
441.75	0.00
441.94	0.00
442.12	39.79
442.31	2.34
442.50	60.85
442.68	30.43
442.87	53.83
443.05	28.09
443.24	4.68
443.43	44.47
443.61	117.03
443.80	49.15
443.98	11.70
444.17	4.68
444.35	16.38
444.54	93.62
444.73	30.43
444.91	72.56
445.10	51.49
445.28	2.34
445.47	53.83
445.65	84.26
445.84	65.54
446.02	49.15
446.21	133.41
446.39	37.45
446.58	72.56
446.77	32.77
446.95	4.68
447.14	16.38
447.32	0.00
447.51	51.49
447.69	70.22
447.88	46.81
448.06	51.49
448.25	39.79
448.43	42.13
448.62	0.00
448.80	0.00
448.99	0.00
449.17	0.00
449.36	63.19
449.54	60.85
449.73	53.83
449.91	88.94
450.10	30.43
450.28	28.09
450.46	102.98
450.65	37.45
450.83	2.34
451.02	4.68
451.20	28.09
451.39	0.00
451.57	51.49
451.76	0.00
451.94	0.00
452.13	60.85
452.31	16.38
452.49	44.47
452.68	23.41
452.86	0.00
453.05	0.00
453.23	0.00
453.42	67.88
453.60	18.72
453.78	0.00
453.97	42.13
454.15	0.00
454.34	0.00
454.52	37.45
454.70	51.49
454.89	60.85
455.07	56.17
455.26	0.00
455.44	28.09
455.62	35.11
455.81	67.88
455.99	88.94
456.17	32.77
456.36	0.00
456.54	0.00
456.73	11.70
456.91	77.24
457.09	30.43
457.28	81.92
457.46	0.00
457.64	0.00
457.83	44.47
458.01	2.34
458.19	60.85
458.38	16.38
458.56	30.43
458.74	56.17
458.93	21.06
459.11	9.36
459.29	25.75
459.48	49.15
459.66	0.00
459.84	0.00
460.03	51.49
460.21	65.54
460.39	4.68
460.57	70.22
460.76	70.22
460.94	72.56
461.12	84.26
461.31	0.00
461.49	2.34
461.67	0.00
461.85	7.02
462.04	77.24
462.22	105.32
462.40	53.83
462.59	4.68
462.77	67.88
462.95	70.22
463.13	21.06
463.32	35.11
463.50	25.75
463.68	51.49
463.86	18.72
464.05	32.77
464.23	51.49
464.41	114.69
464.59	30.43
464.78	98.30
464.96	74.90
465.14	119.37
465.32	35.11
465.50	37.45
465.69	35.11
465.87	0.00
466.05	32.77
466.23	23.41
466.41	65.54
466.60	4.68
466.78	93.62
466.96	67.88
467.14	21.06
467.32	21.06
467.51	0.00
467.69	0.00
467.87	81.92
468.05	18.72
468.23	0.00
468.41	0.00
468.60	79.58
468.78	88.94
468.96	32.77
469.14	124.05
469.32	0.00
469.50	0.00
469.69	0.00
469.87	21.06
470.05	0.00
470.23	32.77
470.41	65.54
470.59	100.64
470.77	23.41
470.95	2.34
471.14	4.68
471.32	51.49
471.50	25.75
471.68	0.00
471.86	30.43
472.04	39.79
472.22	63.19
472.40	32.77
472.58	49.15
472.77	16.38
472.95	86.60
473.13	0.00
473.31	53.83
473.49	0.00
473.67	7.02
473.85	28.09
474.03	37.45
474.21	9.36
474.39	0.00
474.57	72.56
474.75	0.00
474.93	63.19
475.12	7.02
475.30	81.92
475.48	37.45
475.66	95.96
475.84	53.83
476.02	56.17
476.20	67.88
476.38	2.34
476.56	30.43
476.74	65.54
476.92	46.81
477.10	58.51
477.28	14.04
477.46	28.09
477.64	56.17
477.82	21.06
478.00	11.70
478.18	51.49
478.36	74.90
478.54	65.54
478.72	51.49
478.90	9.36
479.08	49.15
479.26	18.72
479.44	0.00
479.62	9.36
479.80	65.54
479.98	39.79
480.16	100.64
480.34	60.85
480.52	23.41
480.70	0.00
480.88	18.72
481.06	46.81
481.24	70.22
481.41	42.13
481.59	93.62
481.77	37.45
481.95	72.56
482.13	60.85
482.31	44.47
482.49	51.49
482.67	51.49
482.85	51.49
483.03	39.79
483.21	25.75
483.39	51.49
483.57	91.28
483.74	42.13
483.92	79.58
484.10	60.85
484.28	67.88
484.46	4.68
484.64	0.00
484.82	0.00
485.00	53.83
485.18	0.00
485.35	0.00
485.53	25.75
485.71	21.06
485.89	2.34
486.07	81.92
486.25	2.34
486.43	23.41
486.61	39.79
486.78	49.15
486.96	32.77
487.14	28.09
487.32	0.00
487.50	0.00
487.68	7.02
487.85	9.36
488.03	72.56
488.21	4.68
488.39	28.09
488.57	35.11
488.75	0.00
488.92	86.60
489.10	16.38
489.28	117.03
489.46	0.00
489.64	107.66
489.81	65.54
489.99	100.64
490.17	0.00
490.35	67.88
490.53	16.38
490.70	67.88
490.88	65.54
491.06	91.28
491.24	56.17
491.41	39.79
491.59	79.58
491.77	7.02
491.95	32.77
492.13	46.81
492.30	126.39
492.48	0.00
492.66	42.13
492.84	79.58
493.01	4.68
493.19	77.24
493.37	81.92
493.54	2.34
493.72	93.62
493.90	42.13
494.08	88.94
494.25	0.00
494.43	16.38
494.61	30.43
494.79	21.06
494.96	126.39
495.14	0.00
495.32	23.41
495.49	2.34
495.67	0.00
495.85	2.34
496.02	0.00
496.20	44.47
496.38	46.81
496.55	60.85
496.73	63.19
496.91	63.19
497.09	25.75
497.26	0.00
497.44	46.81
497.62	9.36
497.79	28.09
497.97	60.85
498.14	58.51
498.32	42.13
498.50	0.00
498.67	46.81
498.85	39.79
499.03	11.70
499.20	107.66
499.38	0.00
499.56	0.00
499.73	65.54
499.91	0.00
500.08	0.00
500.26	28.09
500.44	95.96
500.61	49.15
500.79	51.49
500.97	58.51
501.14	124.05
501.32	93.62
501.49	0.00
501.67	0.00
501.84	98.30
502.02	72.56
502.20	51.49
502.37	39.79
502.55	42.13
502.72	4.68
502.90	0.00
503.07	65.54
503.25	91.28
503.43	60.85
503.60	53.83
503.78	32.77
503.95	95.96
504.13	23.41
504.30	86.60
504.48	93.62
504.65	32.77
504.83	0.00
505.01	46.81
505.18	0.00
505.36	51.49
505.53	11.70
505.71	0.00
505.88	81.92
506.06	44.47
506.23	0.00
506.41	0.00
506.58	102.98
506.76	70.22
506.93	37.45
507.11	2.34
507.28	0.00
507.46	0.00
507.63	11.70
507.81	77.24
507.98	21.06
508.16	93.62
508.33	74.90
508.50	51.49
508.68	0.00
508.85	70.22
509.03	4.68
509.20	32.77
509.38	105.32
509.55	56.17
509.73	0.00
509.90	53.83
510.08	39.79
510.25	72.56
510.42	70.22
510.60	74.90
510.77	70.22
510.95	105.32
511.12	37.45
511.30	25.75
511.47	30.43
511.64	65.54
511.82	79.58
511.99	39.79
512.17	98.30
512.34	60.85
512.51	0.00
512.69	4.68
512.86	30.43
513.04	88.94
513.21	65.54
513.38	56.17
513.56	70.22
513.73	11.70
513.90	49.15
514.08	37.45
514.25	51.49
514.43	65.54
514.60	53.83
514.77	37.45
514.95	42.13
515.12	0.00
515.29	88.94
515.47	56.17
515.64	21.06
515.81	0.00
515.99	81.92
516.16	4.68
516.33	37.45
516.51	0.00
516.68	77.24
516.85	60.85
517.03	81.92
517.20	49.15
517.37	16.38
517.54	86.60
517.72	58.51
517.89	0.00
518.06	35.11
518.24	30.43
518.41	14.04
518.58	56.17
518.75	74.90
518.93	9.36
519.10	30.43
519.27	21.06
519.45	18.72
519.62	46.81
519.79	32.77
519.96	112.35
520.14	60.85
520.31	0.00
520.48	56.17
520.65	81.92
520.83	46.81
521.00	4.68
521.17	77.24
521.34	79.58
521.52	51.49
521.69	49.15
521.86	11.70
522.03	39.79
522.20	46.81
522.38	9.36
522.55	56.17
522.72	46.81
522.89	44.47
523.07	110.01
523.24	65.54
523.41	77.24
523.58	4.68
523.75	0.00
523.92	81.92
524.10	0.00
524.27	53.83
524.44	88.94
524.61	7.02
524.78	56.17
524.96	39.79
525.13	67.88
525.30	93.62
525.47	88.94
525.64	39.79
525.81	56.17
525.98	81.92
526.16	4.68
526.33	44.47
526.50	58.51
526.67	18.72
526.84	23.41
527.01	51.49
527.18	93.62
527.36	30.43
527.53	25.75
527.70	37.45
527.87	91.28
528.04	28.09
528.21	63.19
528.38	14.04
528.55	0.00
528.72	88.94
528.89	72.56
529.07	119.37
529.24	56.17
529.41	42.13
529.58	70.22
529.75	28.09
529.92	39.79
530.09	79.58
530.26	72.56
530.43	49.15
530.60	0.00
530.77	2.34
530.94	51.49
531.11	72.56
531.28	93.62
531.46	70.22
531.63	0.00
531.80	70.22
531.97	51.49
532.14	44.47
532.31	63.19
532.48	30.43
532.65	11.70
532.82	51.49
532.99	25.75
533.16	67.88
533.33	39.79
533.50	131.07
533.67	86.60
533.84	28.09
534.01	0.00
534.18	0.00
534.35	23.41
534.52	0.00
534.69	16.38
534.86	25.75
535.03	74.90
535.20	0.00
535.37	84.26
535.54	145.11
535.71	91.28
535.88	63.19
536.05	7.02
536.22	84.26
536.38	84.26
536.55	81.92
536.72	74.90
536.89	95.96
537.06	16.38
537.23	32.77
537.40	0.00
537.57	21.06
537.74	65.54
537.91	98.30
538.08	58.51
538.25	58.51
538.42	93.62
538.59	16.38
538.75	110.01
538.92	81.92
539.09	16.38
539.26	60.85
539.43	70.22
539.60	63.19
539.77	28.09
539.94	30.43
540.11	0.00
540.28	53.83
540.44	21.06
540.61	84.26
540.78	23.41
540.95	16.38
541.12	14.04
541.29	79.58
541.46	56.17
541.62	72.56
541.79	74.90
541.96	18.72
542.13	91.28
542.30	53.83
542.47	14.04
542.63	98.30
542.80	32.77
542.97	9.36
543.14	18.72
543.31	9.36
543.48	9.36
543.64	70.22
543.81	67.88
543.98	60.85
544.15	102.98
544.32	84.26
544.48	124.05
544.65	39.79
544.82	51.49
544.99	98.30
545.16	58.51
545.32	58.51
545.49	0.00
545.66	37.45
545.83	49.15
546.00	28.09
546.16	16.38
546.33	0.00
546.50	18.72
546.67	0.00
546.83	2.34
547.00	93.62
547.17	32.77
547.34	67.88
547.50	35.11
547.67	56.17
547.84	9.36
548.00	21.06
548.17	74.90
548.34	0.00
548.51	60.85
548.67	4.68
548.84	0.00
549.01	46.81
549.18	4.68
549.34	102.98
549.51	42.13
549.68	37.45
549.84	0.00
550.01	110.01
550.18	74.90
550.34	149.79
550.51	56.17
550.68	53.83
550.84	4.68
551.01	30.43
551.18	63.19
551.34	93.62
551.51	70.22
551.68	46.81
551.84	53.83
552.01	25.75
552.18	58.51
552.34	21.06
552.51	67.88
552.68	86.60
552.84	37.45
553.01	25.75
553.18	65.54
553.34	67.88
553.51	56.17
553.67	30.43
553.84	39.79
554.01	51.49
554.17	7.02
554.34	51.49
554.51	0.00
554.67	21.06
554.84	2.34
555.00	117.03
555.17	11.70
555.33	42.13
555.50	39.79
555.67	0.00
555.83	79.58
556.00	51.49
556.16	0.00
556.33	63.19
556.50	88.94
556.66	30.43
556.83	39.79
556.99	25.75
557.16	23.41
557.32	0.00
557.49	14.04
557.65	0.00
557.82	2.34
557.98	37.45
558.15	0.00
558.32	56.17
558.48	42.13
558.65	67.88
558.81	0.00
558.98	63.19
559.14	14.04
559.31	0.00
559.47	74.90
559.64	30.43
559.80	35.11
559.97	49.15
560.13	88.94
560.30	18.72
560.46	14.04
560.63	7.02
560.79	25.75
560.96	35.11
561.12	35.11
561.29	0.00
561.45	46.81
561.61	21.06
561.78	0.00
561.94	0.00
562.11	46.81
562.27	65.54
562.44	16.38
562.60	4.68
562.77	16.38
562.93	98.30
563.10	14.04
563.26	0.00
563.42	67.88
563.59	88.94
563.75	30.43
563.92	0.00
564.08	0.00
564.24	2.34
564.41	39.79
564.57	42.13
564.74	0.00
564.90	4.68
565.07	28.09
565.23	14.04
565.39	0.00
565.56	49.15
565.72	9.36
565.88	7.02
566.05	18.72
566.21	7.02
566.38	53.83
566.54	63.19
566.70	30.43
566.87	21.06
567.03	53.83
567.19	0.00
567.36	51.49
567.52	70.22
567.68	67.88
567.85	49.15
568.01	39.79
568.17	65.54
568.34	4.68
568.50	53.83
568.66	79.58
568.83	91.28
568.99	56.17
569.15	67.88
569.32	44.47
569.48	128.73
569.64	35.11
569.81	37.45
569.97	7.02
570.13	39.79
570.30	28.09
570.46	21.06
570.62	23.41
570.78	58.51
570.95	39.79
571.11	16.38
571.27	140.43
571.43	0.00
571.60	58.51
571.76	21.06
571.92	0.00
572.09	18.72
572.25	56.17
572.41	46.81
572.57	88.94
572.74	0.00
572.90	39.79
573.06	14.04
573.22	79.58
573.38	60.85
573.55	74.90
573.71	51.49
573.87	91.28
574.03	9.36
574.20	74.90
574.36	16.38
574.52	32.77
574.68	102.98
574.84	21.06
575.01	0.00
575.17	37.45
575.33	42.13
575.49	0.00
575.65	44.47
575.82	49.15
575.98	107.66
576.14	7.02
576.30	37.45
576.46	28.09
576.62	65.54
576.79	77.24
576.95	0.00
577.11	67.88
577.27	32.77
577.43	16.38
577.59	21.06
577.75	0.00
577.92	63.19
578.08	0.00
578.24	7.02
578.40	0.00
578.56	21.06
578.72	4.68
578.88	0.00
579.04	14.04
579.21	60.85
579.37	14.04
579.53	2.34
579.69	37.45
579.85	49.15
580.01	21.06
580.17	7.02
580.33	7.02
580.49	72.56
580.65	117.03
580.82	84.26
580.98	74.90
581.14	77.24
581.30	0.00
581.46	42.13
581.62	35.11
581.78	65.54
581.94	9.36
582.10	58.51
582.26	60.85
582.42	53.83
582.58	74.90
582.74	65.54
582.90	79.58
583.06	35.11
583.22	16.38
583.38	46.81
583.54	67.88
583.70	95.96
583.86	121.71
584.02	98.30
584.18	44.47
584.34	14.04
584.50	58.51
584.66	121.71
584.82	301.93
584.98	395.55
585.14	236.39
585.30	224.69
585.46	175.54
585.62	86.60
585.78	100.64
585.94	39.79
586.10	44.47
586.26	56.17
586.42	84.26
586.58	91.28
586.74	93.62
586.90	44.47
587.06	21.06
587.22	77.24
587.38	0.00
587.54	18.72
587.70	28.09
587.86	37.45
588.02	0.00
588.18	18.72
588.34	0.00
588.49	98.30
588.65	67.88
588.81	72.56
588.97	16.38
589.13	18.72
589.29	0.00
589.45	0.00
589.61	0.00
589.77	49.15
589.93	65.54
590.08	0.00
590.24	39.79
590.40	56.17
590.56	0.00
590.72	42.13
590.88	70.22
591.04	35.11
591.20	53.83
591.35	56.17
591.51	63.19
591.67	65.54
591.83	0.00
591.99	32.77
592.15	0.00
592.31	0.00
592.46	70.22
592.62	0.00
592.78	0.00
592.94	25.75
593.10	51.49
593.26	0.00
593.41	0.00
593.57	16.38
593.73	0.00
593.89	2.34
594.05	28.09
594.20	65.54
594.36	102.98
594.52	4.68
594.68	42.13
594.84	23.41
594.99	84.26
595.15	14.04
595.31	44.47
595.47	0.00
595.62	32.77
595.78	131.07
595.94	14.04
596.10	46.81
596.25	0.00
596.41	46.81
596.57	25.75
596.73	16.38
596.88	84.26
597.04	84.26
597.20	4.68
597.36	28.09
597.51	77.24
597.67	39.79
597.83	0.00
597.99	37.45
598.14	44.47
598.30	51.49
598.46	81.92
598.61	37.45
598.77	0.00
598.93	14.04
599.09	46.81
599.24	0.00
599.40	63.19
599.56	49.15
599.71	42.13
599.87	32.77
600.03	28.09
600.18	95.96
600.34	0.00
600.50	121.71
600.65	37.45
600.81	58.51
600.97	0.00
601.12	79.58
601.28	28.09
601.44	0.00
601.59	0.00
601.75	25.75
601.91	14.04
602.06	4.68
602.22	51.49
602.37	0.00
602.53	46.81
602.69	9.36
602.84	18.72
603.00	28.09
603.16	72.56
603.31	0.00
603.47	0.00
603.62	35.11
603.78	56.17
603.94	67.88
604.09	11.70
604.25	67.88
604.40	18.72
604.56	39.79
604.71	11.70
604.87	37.45
605.03	81.92
605.18	11.70
605.34	91.28
605.49	70.22
605.65	37.45
605.80	93.62
605.96	56.17
606.12	28.09
606.27	56.17
606.43	53.83
606.58	0.00
606.74	53.83
606.89	46.81
607.05	81.92
607.20	91.28
607.36	100.64
607.51	74.90
607.67	9.36
607.82	30.43
607.98	42.13
608.13	51.49
608.29	32.77
608.44	81.92
608.60	37.45
608.75	0.00
608.91	37.45
609.06	35.11
609.22	126.39
609.37	114.69
609.53	53.83
609.68	156.82
609.84	138.09
609.99	25.75
610.15	39.79
610.30	56.17
610.46	9.36
610.61	51.49
610.76	46.81
610.92	0.00
611.07	86.60
611.23	42.13
611.38	74.90
611.54	86.60
611.69	35.11
611.84	112.35
612.00	4.68
612.15	11.70
612.31	56.17
612.46	58.51
612.62	0.00
612.77	0.00
612.92	63.19
613.08	58.51
613.23	11.70
613.39	11.70
613.54	60.85
613.69	95.96
613.85	114.69
614.00	161.50
614.15	95.96
614.31	77.24
614.46	114.69
614.62	70.22
614.77	114.69
614.92	42.13
615.08	18.72
615.23	51.49
615.38	56.17
615.54	53.83
615.69	0.00
615.84	0.00
616.00	72.56
616.15	88.94
616.30	21.06
616.46	121.71
616.61	105.32
616.76	46.81
616.92	0.00
617.07	21.06
617.22	0.00
617.37	126.39
617.53	30.43
617.68	9.36
617.83	7.02
617.99	81.92
618.14	63.19
618.29	128.73
618.45	65.54
618.60	58.51
618.75	93.62
618.90	2.34
619.06	0.00
619.21	119.37
619.36	70.22
619.51	44.47
619.67	44.47
619.82	0.00
619.97	86.60
620.12	42.13
620.28	60.85
620.43	0.00
620.58	0.00
620.73	44.47
620.89	49.15
621.04	91.28
621.19	23.41
621.34	98.30
621.49	37.45
621.65	100.64
621.80	18.72
621.95	9.36
622.10	53.83
622.25	102.98
622.41	67.88
622.56	32.77
622.71	79.58
622.86	74.90
623.01	16.38
623.16	42.13
623.32	35.11
623.47	56.17
623.62	25.75
623.77	42.13
623.92	0.00
624.07	2.34
624.23	72.56
624.38	0.00
624.53	0.00
624.68	28.09
624.83	95.96
624.98	28.09
625.13	30.43
625.29	42.13
625.44	98.30
625.59	84.26
625.74	32.77
625.89	44.47
626.04	140.43
626.19	21.06
626.34	138.09
626.49	67.88
626.65	42.13
626.80	35.11
626.95	46.81
627.10	44.47
627.25	79.58
627.40	65.54
627.55	21.06
627.70	0.00
627.85	72.56
628.00	25.75
628.15	28.09
628.30	9.36
628.45	84.26
628.60	28.09
628.76	0.00
628.91	67.88
629.06	46.81
629.21	67.88
629.36	46.81
629.51	53.83
629.66	156.82
629.81	58.51
629.96	4.68
630.11	0.00
630.26	126.39
630.41	51.49
630.56	11.70
630.71	138.09
630.86	51.49
631.01	35.11
631.16	81.92
631.31	7.02
631.46	35.11
631.61	42.13
631.76	35.11
631.91	21.06
632.06	74.90
632.21	49.15
632.36	74.90
632.51	30.43
632.66	7.02
632.81	0.00
632.96	102.98
633.10	74.90
633.25	84.26
633.40	102.98
633.55	51.49
633.70	0.00
633.85	23.41
634.00	81.92
634.15	4.68
634.30	58.51
634.45	74.90
634.60	25.75
634.75	0.00
634.90	21.06
635.05	0.00
635.19	0.00
635.34	46.81
635.49	32.77
635.64	39.79
635.79	30.43
635.94	32.77
636.09	0.00
636.24	60.85
636.39	63.19
636.53	14.04
636.68	2.34
636.83	0.00
636.98	46.81
637.13	63.19
637.28	0.00
637.43	46.81
637.57	49.15
637.72	0.00
637.87	88.94
638.02	58.51
638.17	145.11
638.32	119.37
638.46	23.41
638.61	107.66
638.76	0.00
638.91	44.47
639.06	79.58
639.20	79.58
639.35	49.15
639.50	0.00
639.65	72.56
639.80	46.81
639.94	110.01
640.09	159.16
640.24	102.98
640.39	135.75
640.54	128.73
640.68	67.88
640.83	0.00
640.98	39.79
641.13	60.85
641.27	32.77
641.42	44.47
641.57	65.54
641.72	70.22
641.86	30.43
642.01	0.00
642.16	42.13
642.31	74.90
642.45	72.56
642.60	39.79
642.75	51.49
642.90	25.75
643.04	67.88
643.19	46.81
643.34	35.11
643.48	32.77
643.63	60.85
643.78	110.01
643.93	39.79
644.07	0.00
644.22	25.75
644.37	0.00
644.51	0.00
644.66	49.15
644.81	2.34
644.95	81.92
645.10	18.72
645.25	14.04
645.39	25.75
645.54	21.06
645.69	2.34
645.83	105.32
645.98	58.51
646.13	28.09
646.27	25.75
646.42	4.68
646.57	95.96
646.71	0.00
646.86	30.43
647.00	46.81
647.15	0.00
647.30	53.83
647.44	112.35
647.59	105.32
647.74	0.00
647.88	58.51
648.03	77.24
648.17	9.36
648.32	42.13
648.47	4.68
648.61	11.70
648.76	37.45
648.90	88.94
649.05	23.41
649.20	67.88
649.34	105.32
649.49	67.88
649.63	0.00
649.78	37.45
649.92	86.60
650.07	53.83
650.21	11.70
650.36	112.35
650.51	91.28
650.65	46.81
650.80	74.90
650.94	67.88
651.09	30.43
651.23	51.49
651.38	0.00
651.52	74.90
651.67	0.00
651.81	14.04
651.96	44.47
652.10	0.00
652.25	23.41
652.39	100.64
652.54	39.79
652.68	93.62
652.83	0.00
652.97	37.45
653.12	14.04
653.26	28.09
653.41	70.22
653.55	0.00
653.70	42.13
653.84	9.36
653.99	23.41
654.13	84.26
654.27	2.34
654.42	0.00
654.56	0.00
654.71	70.22
654.85	0.00
655.00	91.28
655.14	86.60
655.29	23.41
655.43	56.17
655.57	121.71
655.72	49.15
655.86	77.24
656.01	25.75
656.15	16.38
656.30	67.88
656.44	114.69
656.58	67.88
656.73	67.88
656.87	37.45
657.01	25.75
657.16	126.39
657.30	72.56
657.45	39.79
657.59	39.79
657.73	4.68
657.88	79.58
658.02	91.28
658.16	117.03
658.31	11.70
658.45	84.26
658.60	39.79
658.74	70.22
658.88	44.47
659.03	51.49
659.17	77.24
659.31	0.00
659.46	25.75
659.60	72.56
659.74	4.68
659.89	25.75
660.03	77.24
660.17	44.47
660.32	28.09
660.46	7.02
660.60	74.90
660.74	7.02
660.89	4.68
661.03	0.00
661.17	37.45
661.32	58.51
661.46	0.00
661.60	0.00
661.74	0.00
661.89	0.00
662.03	63.19
662.17	30.43
662.31	32.77
662.46	79.58
662.60	28.09
662.74	37.45
662.88	0.00
663.03	0.00
663.17	7.02
663.31	9.36
663.45	37.45
663.60	0.00
663.74	32.77
663.88	79.58
664.02	56.17
664.17	42.13
664.31	77.24
664.45	35.11
664.59	51.49
664.73	56.17
664.88	14.04
665.02	30.43
665.16	23.41
665.30	23.41
665.44	2.34
665.59	42.13
665.73	70.22
665.87	98.30
666.01	37.45
666.15	25.75
666.29	84.26
666.44	88.94
666.58	98.30
666.72	79.58
666.86	51.49
667.00	28.09
667.14	42.13
667.28	0.00
667.43	16.38
667.57	93.62
667.71	88.94
667.85	189.58
667.99	60.85
668.13	7.02
668.27	51.49
668.41	7.02
668.56	14.04
668.70	25.75
668.84	67.88
668.98	0.00
669.12	23.41
669.26	60.85
669.40	51.49
669.54	9.36
669.68	28.09
669.82	14.04
669.96	0.00
670.10	37.45
670.25	37.45
670.39	2.34
670.53	0.00
670.67	9.36
670.81	0.00
670.95	30.43
671.09	58.51
671.23	46.81
671.37	67.88
671.51	42.13
671.65	18.72
671.79	72.56
671.93	86.60
672.07	0.00
672.21	91.28
672.35	23.41
672.49	95.96
672.63	77.24
672.77	28.09
672.91	63.19
673.05	0.00
673.19	60.85
673.33	91.28
673.47	0.00
673.61	30.43
673.75	58.51
673.89	86.60
674.03	42.13
674.17	0.00
674.31	16.38
674.45	46.81
674.59	14.04
674.73	39.79
674.87	42.13
675.01	0.00
675.15	0.00
675.29	0.00
675.43	21.06
675.56	0.00
675.70	28.09
675.84	58.51
675.98	88.94
676.12	49.15
676.26	70.22
676.40	35.11
676.54	21.06
676.68	114.69
676.82	11.70
676.96	88.94
677.10	0.00
677.23	0.00
677.37	35.11
677.51	49.15
677.65	65.54
677.79	60.85
677.93	49.15
678.07	0.00
678.21	30.43
678.34	42.13
678.48	53.83
678.62	107.66
678.76	65.54
678.90	14.04
679.04	23.41
679.18	23.41
679.31	72.56
679.45	0.00
679.59	0.00
679.73	0.00
679.87	39.79
680.00	9.36
680.14	28.09
680.28	81.92
680.42	35.11
680.56	60.85
680.70	0.00
680.83	72.56
680.97	0.00
681.11	11.70
681.25	46.81
681.39	0.00
681.52	35.11
681.66	0.00
681.80	0.00
681.94	16.38
682.07	0.00
682.21	11.70
682.35	7.02
682.49	0.00
682.62	49.15
682.76	37.45
682.90	46.81
683.04	28.09
683.17	74.90
683.31	128.73
683.45	65.54
683.59	37.45
683.72	0.00
683.86	9.36
684.00	30.43
684.13	74.90
684.27	70.22
684.41	0.00
684.55	58.51
684.68	95.96
684.82	9.36
684.96	32.77
685.09	2.34
685.23	7.02
685.37	28.09
685.50	56.17
685.64	63.19
685.78	35.11
685.91	70.22
686.05	35.11
686.19	32.77
686.32	60.85
686.46	0.00
686.60	0.00
686.73	14.04
686.87	28.09
687.01	60.85
687.14	35.11
687.28	0.00
687.42	35.11
687.55	11.70
687.69	42.13
687.82	0.00
687.96	53.83
688.10	30.43
688.23	86.60
688.37	32.77
688.50	9.36
688.64	18.72
688.78	0.00
688.91	16.38
689.05	0.00
689.18	16.38
689.32	0.00
689.46	70.22
689.59	37.45
689.73	35.11
689.86	0.00
690.00	39.79
690.13	4.68
690.27	4.68
690.41	7.02
690.54	0.00
690.68	0.00
690.81	14.04
690.95	0.00
691.08	0.00
691.22	11.70
691.35	14.04
691.49	37.45
691.62	112.35
691.76	98.30
691.89	30.43
692.03	60.85
692.16	81.92
692.30	49.15
692.43	60.85
692.57	0.00
692.70	18.72
692.84	81.92
692.97	81.92
693.11	72.56
693.24	74.90
693.38	21.06
693.51	14.04
693.65	49.15
693.78	74.90
693.92	0.00
694.05	93.62
694.19	0.00
694.32	65.54
694.45	67.88
694.59	86.60
694.72	37.45
694.86	65.54
694.99	9.36
695.13	53.83
695.26	0.00
695.39	0.00
695.53	56.17
695.66	30.43
695.80	25.75
695.93	16.38
696.07	70.22
696.20	91.28
696.33	2.34
696.47	30.43
696.60	11.70
696.73	0.00
696.87	0.00
697.00	56.17
697.14	18.72
697.27	9.36
697.40	53.83
697.54	53.83
697.67	0.00
697.80	70.22
697.94	65.54
698.07	51.49
698.21	2.34
698.34	0.00
698.47	77.24
698.61	30.43
698.74	0.00
698.87	11.70
699.01	0.00
699.14	46.81
699.27	49.15
699.40	0.00
699.54	51.49
699.67	21.06
699.80	21.06
699.94	91.28
700.07	0.00
700.20	0.00
700.34	16.38
700.47	44.47
700.60	0.00
700.73	65.54
700.87	67.88
701.00	0.00
701.13	0.00
701.26	0.00
701.40	7.02
701.53	0.00
701.66	0.00
701.79	23.41
701.93	37.45
702.06	14.04
702.19	42.13
702.32	102.98
702.46	53.83
702.59	67.88
702.72	0.00
702.85	58.51
702.99	42.13
703.12	79.58
703.25	86.60
703.38	42.13
703.51	88.94
703.65	100.64
703.78	63.19
703.91	2.34
704.04	32.77
704.17	9.36
704.31	4.68
704.44	88.94
704.57	0.00
704.70	88.94
704.83	16.38
704.96	0.00
705.10	21.06
705.23	93.62
>>>>>End Processed Spectral Data<<<<<
