SpectraSuite Data File
++++++++++++++++++++++++++++++++++++
Date: Fri Oct 04 12:13:32 GMT-05:00 2013
User: price-jones
Dark Spectrum Present: No
Reference Spectrum Present: No
Number of Sampled Component Spectra: 1
Spectrometers: USB2+H05261
Integration Time (usec): 10000 (USB2+H05261)
Spectra Averaged: 1 (USB2+H05261)
Boxcar Smoothing: 0 (USB2+H05261)
Correct for Electrical Dark: No (USB2+H05261)
Strobe/Lamp Enabled: No (USB2+H05261)
Correct for Detector Non-linearity: No (USB2+H05261)
Correct for Stray Light: No (USB2+H05261)
Number of Pixels in Processed Spectrum: 2048
>>>>>Begin Processed Spectral Data<<<<<
365.73	37.45
365.92	37.45
366.12	37.45
366.32	0.00
366.52	0.00
366.72	0.00
366.91	0.00
367.11	0.00
367.31	0.00
367.51	0.00
367.70	0.00
367.90	0.00
368.10	0.00
368.30	0.00
368.49	0.00
368.69	0.00
368.89	0.00
369.09	0.00
369.28	0.00
369.48	0.00
369.68	0.00
369.87	0.00
370.07	0.00
370.27	0.00
370.47	0.00
370.66	0.00
370.86	0.00
371.06	0.00
371.25	0.00
371.45	28.09
371.65	0.00
371.84	30.43
372.04	0.00
372.24	0.00
372.44	0.00
372.63	0.00
372.83	0.00
373.03	53.83
373.22	0.00
373.42	49.15
373.62	58.51
373.81	28.09
374.01	0.00
374.21	32.77
374.40	49.15
374.60	46.81
374.79	44.47
374.99	72.56
375.19	51.49
375.38	0.00
375.58	42.13
375.78	0.00
375.97	0.00
376.17	25.75
376.37	49.15
376.56	44.47
376.76	107.66
376.95	18.72
377.15	77.24
377.35	21.06
377.54	23.41
377.74	0.00
377.93	91.28
378.13	0.00
378.33	51.49
378.52	74.90
378.72	72.56
378.91	0.00
379.11	49.15
379.31	79.58
379.50	60.85
379.70	51.49
379.89	49.15
380.09	60.85
380.28	0.00
380.48	35.11
380.68	72.56
380.87	18.72
381.07	0.00
381.26	39.79
381.46	0.00
381.65	18.72
381.85	0.00
382.04	9.36
382.24	74.90
382.43	0.00
382.63	0.00
382.83	42.13
383.02	53.83
383.22	56.17
383.41	25.75
383.61	9.36
383.80	11.70
384.00	0.00
384.19	44.47
384.39	30.43
384.58	0.00
384.78	53.83
384.97	0.00
385.17	23.41
385.36	58.51
385.56	0.00
385.75	53.83
385.95	9.36
386.14	39.79
386.34	56.17
386.53	0.00
386.72	0.00
386.92	58.51
387.11	53.83
387.31	2.34
387.50	0.00
387.70	53.83
387.89	32.77
388.09	67.88
388.28	42.13
388.48	30.43
388.67	30.43
388.86	7.02
389.06	51.49
389.25	70.22
389.45	95.96
389.64	11.70
389.84	0.00
390.03	7.02
390.22	7.02
390.42	37.45
390.61	0.00
390.81	16.38
391.00	0.00
391.19	0.00
391.39	21.06
391.58	4.68
391.78	0.00
391.97	0.00
392.16	11.70
392.36	0.00
392.55	44.47
392.75	0.00
392.94	16.38
393.13	0.00
393.33	58.51
393.52	21.06
393.71	9.36
393.91	30.43
394.10	37.45
394.29	100.64
394.49	0.00
394.68	0.00
394.88	7.02
395.07	0.00
395.26	7.02
395.46	95.96
395.65	0.00
395.84	107.66
396.04	0.00
396.23	88.94
396.42	0.00
396.62	11.70
396.81	65.54
397.00	16.38
397.19	0.00
397.39	0.00
397.58	56.17
397.77	0.00
397.97	0.00
398.16	0.00
398.35	42.13
398.55	0.00
398.74	32.77
398.93	35.11
399.12	14.04
399.32	0.00
399.51	44.47
399.70	0.00
399.90	2.34
400.09	23.41
400.28	32.77
400.47	0.00
400.67	21.06
400.86	25.75
401.05	0.00
401.24	0.00
401.44	35.11
401.63	16.38
401.82	0.00
402.01	7.02
402.21	0.00
402.40	25.75
402.59	0.00
402.78	56.17
402.97	98.30
403.17	0.00
403.36	60.85
403.55	0.00
403.74	32.77
403.93	14.04
404.13	51.49
404.32	0.00
404.51	42.13
404.70	107.66
404.89	84.26
405.09	0.00
405.28	0.00
405.47	0.00
405.66	0.00
405.85	28.09
406.05	18.72
406.24	0.00
406.43	72.56
406.62	25.75
406.81	35.11
407.00	18.72
407.20	23.41
407.39	67.88
407.58	60.85
407.77	0.00
407.96	14.04
408.15	51.49
408.34	23.41
408.54	0.00
408.73	56.17
408.92	0.00
409.11	0.00
409.30	39.79
409.49	11.70
409.68	51.49
409.87	84.26
410.07	86.60
410.26	35.11
410.45	0.00
410.64	58.51
410.83	11.70
411.02	4.68
411.21	32.77
411.40	138.09
411.59	14.04
411.78	77.24
411.98	49.15
412.17	7.02
412.36	46.81
412.55	0.00
412.74	63.19
412.93	56.17
413.12	39.79
413.31	0.00
413.50	0.00
413.69	0.00
413.88	9.36
414.07	28.09
414.26	2.34
414.45	21.06
414.64	32.77
414.83	46.81
415.02	42.13
415.22	51.49
415.41	49.15
415.60	51.49
415.79	51.49
415.98	18.72
416.17	42.13
416.36	0.00
416.55	0.00
416.74	46.81
416.93	7.02
417.12	37.45
417.31	51.49
417.50	51.49
417.69	0.00
417.88	0.00
418.07	0.00
418.26	37.45
418.45	2.34
418.64	0.00
418.83	11.70
419.02	25.75
419.21	0.00
419.39	60.85
419.58	0.00
419.77	65.54
419.96	0.00
420.15	0.00
420.34	58.51
420.53	25.75
420.72	56.17
420.91	30.43
421.10	53.83
421.29	32.77
421.48	51.49
421.67	2.34
421.86	0.00
422.05	58.51
422.24	0.00
422.43	44.47
422.61	60.85
422.80	42.13
422.99	35.11
423.18	0.00
423.37	72.56
423.56	0.00
423.75	105.32
423.94	0.00
424.13	16.38
424.32	63.19
424.50	0.00
424.69	0.00
424.88	56.17
425.07	72.56
425.26	72.56
425.45	39.79
425.64	74.90
425.83	86.60
426.01	65.54
426.20	86.60
426.39	60.85
426.58	117.03
426.77	14.04
426.96	0.00
427.15	77.24
427.33	63.19
427.52	9.36
427.71	112.35
427.90	44.47
428.09	7.02
428.28	9.36
428.46	95.96
428.65	63.19
428.84	14.04
429.03	30.43
429.22	4.68
429.40	42.13
429.59	0.00
429.78	74.90
429.97	88.94
430.16	39.79
430.34	16.38
430.53	4.68
430.72	4.68
430.91	14.04
431.10	0.00
431.28	46.81
431.47	0.00
431.66	0.00
431.85	58.51
432.03	0.00
432.22	60.85
432.41	81.92
432.60	53.83
432.79	49.15
432.97	0.00
433.16	37.45
433.35	93.62
433.54	16.38
433.72	0.00
433.91	14.04
434.10	42.13
434.28	37.45
434.47	28.09
434.66	25.75
434.85	0.00
435.03	51.49
435.22	58.51
435.41	95.96
435.59	46.81
435.78	100.64
435.97	25.75
436.16	72.56
436.34	9.36
436.53	7.02
436.72	0.00
436.90	46.81
437.09	0.00
437.28	46.81
437.46	65.54
437.65	7.02
437.84	0.00
438.02	0.00
438.21	60.85
438.40	49.15
438.58	53.83
438.77	9.36
438.96	37.45
439.14	42.13
439.33	63.19
439.52	86.60
439.70	56.17
439.89	44.47
440.08	0.00
440.26	0.00
440.45	51.49
440.63	25.75
440.82	74.90
441.01	56.17
441.19	7.02
441.38	0.00
441.57	0.00
441.75	65.54
441.94	14.04
442.12	105.32
442.31	28.09
442.50	79.58
442.68	0.00
442.87	32.77
443.05	67.88
443.24	14.04
443.43	39.79
443.61	30.43
443.80	14.04
443.98	9.36
444.17	21.06
444.35	0.00
444.54	0.00
444.73	28.09
444.91	86.60
445.10	0.00
445.28	16.38
445.47	145.11
445.65	18.72
445.84	32.77
446.02	51.49
446.21	28.09
446.39	25.75
446.58	0.00
446.77	88.94
446.95	21.06
447.14	0.00
447.32	21.06
447.51	0.00
447.69	81.92
447.88	112.35
448.06	0.00
448.25	49.15
448.43	60.85
448.62	0.00
448.80	46.81
448.99	32.77
449.17	32.77
449.36	53.83
449.54	79.58
449.73	14.04
449.91	11.70
450.10	0.00
450.28	60.85
450.46	23.41
450.65	23.41
450.83	32.77
451.02	0.00
451.20	0.00
451.39	0.00
451.57	86.60
451.76	25.75
451.94	0.00
452.13	32.77
452.31	0.00
452.49	67.88
452.68	4.68
452.86	70.22
453.05	93.62
453.23	63.19
453.42	93.62
453.60	44.47
453.78	53.83
453.97	23.41
454.15	30.43
454.34	9.36
454.52	65.54
454.70	21.06
454.89	119.37
455.07	0.00
455.26	0.00
455.44	100.64
455.62	63.19
455.81	23.41
455.99	107.66
456.17	65.54
456.36	51.49
456.54	56.17
456.73	51.49
456.91	28.09
457.09	37.45
457.28	84.26
457.46	0.00
457.64	0.00
457.83	44.47
458.01	39.79
458.19	0.00
458.38	14.04
458.56	63.19
458.74	77.24
458.93	72.56
459.11	0.00
459.29	86.60
459.48	11.70
459.66	0.00
459.84	16.38
460.03	49.15
460.21	0.00
460.39	0.00
460.57	30.43
460.76	23.41
460.94	0.00
461.12	72.56
461.31	65.54
461.49	0.00
461.67	0.00
461.85	30.43
462.04	11.70
462.22	152.13
462.40	18.72
462.59	88.94
462.77	0.00
462.95	84.26
463.13	44.47
463.32	84.26
463.50	4.68
463.68	56.17
463.86	56.17
464.05	2.34
464.23	39.79
464.41	35.11
464.59	53.83
464.78	35.11
464.96	21.06
465.14	0.00
465.32	37.45
465.50	28.09
465.69	46.81
465.87	9.36
466.05	44.47
466.23	0.00
466.41	0.00
466.60	93.62
466.78	60.85
466.96	53.83
467.14	9.36
467.32	51.49
467.51	0.00
467.69	37.45
467.87	107.66
468.05	56.17
468.23	0.00
468.41	79.58
468.60	35.11
468.78	91.28
468.96	21.06
469.14	44.47
469.32	35.11
469.50	0.00
469.69	0.00
469.87	0.00
470.05	30.43
470.23	84.26
470.41	21.06
470.59	0.00
470.77	72.56
470.95	32.77
471.14	88.94
471.32	25.75
471.50	14.04
471.68	0.00
471.86	39.79
472.04	16.38
472.22	30.43
472.40	0.00
472.58	56.17
472.77	4.68
472.95	18.72
473.13	65.54
473.31	28.09
473.49	16.38
473.67	2.34
473.85	37.45
474.03	35.11
474.21	0.00
474.39	79.58
474.57	53.83
474.75	0.00
474.93	35.11
475.12	23.41
475.30	39.79
475.48	51.49
475.66	37.45
475.84	79.58
476.02	0.00
476.20	16.38
476.38	2.34
476.56	0.00
476.74	37.45
476.92	79.58
477.10	7.02
477.28	0.00
477.46	32.77
477.64	86.60
477.82	70.22
478.00	0.00
478.18	56.17
478.36	49.15
478.54	35.11
478.72	35.11
478.90	18.72
479.08	67.88
479.26	58.51
479.44	102.98
479.62	46.81
479.80	44.47
479.98	14.04
480.16	37.45
480.34	28.09
480.52	72.56
480.70	91.28
480.88	32.77
481.06	0.00
481.24	37.45
481.41	11.70
481.59	9.36
481.77	49.15
481.95	77.24
482.13	11.70
482.31	67.88
482.49	49.15
482.67	65.54
482.85	51.49
483.03	102.98
483.21	63.19
483.39	51.49
483.57	42.13
483.74	53.83
483.92	88.94
484.10	16.38
484.28	44.47
484.46	11.70
484.64	51.49
484.82	44.47
485.00	0.00
485.18	0.00
485.35	2.34
485.53	35.11
485.71	42.13
485.89	14.04
486.07	7.02
486.25	16.38
486.43	98.30
486.61	58.51
486.78	81.92
486.96	9.36
487.14	0.00
487.32	9.36
487.50	0.00
487.68	30.43
487.85	39.79
488.03	42.13
488.21	105.32
488.39	72.56
488.57	93.62
488.75	51.49
488.92	28.09
489.10	93.62
489.28	32.77
489.46	0.00
489.64	0.00
489.81	46.81
489.99	21.06
490.17	58.51
490.35	79.58
490.53	16.38
490.70	0.00
490.88	49.15
491.06	35.11
491.24	105.32
491.41	37.45
491.59	21.06
491.77	16.38
491.95	77.24
492.13	74.90
492.30	37.45
492.48	0.00
492.66	23.41
492.84	0.00
493.01	0.00
493.19	51.49
493.37	53.83
493.54	102.98
493.72	25.75
493.90	32.77
494.08	98.30
494.25	102.98
494.43	7.02
494.61	49.15
494.79	98.30
494.96	0.00
495.14	11.70
495.32	46.81
495.49	21.06
495.67	86.60
495.85	88.94
496.02	2.34
496.20	63.19
496.38	65.54
496.55	0.00
496.73	11.70
496.91	35.11
497.09	74.90
497.26	84.26
497.44	51.49
497.62	25.75
497.79	32.77
497.97	70.22
498.14	7.02
498.32	0.00
498.50	58.51
498.67	86.60
498.85	100.64
499.03	65.54
499.20	51.49
499.38	0.00
499.56	32.77
499.73	67.88
499.91	0.00
500.08	51.49
500.26	100.64
500.44	128.73
500.61	37.45
500.79	42.13
500.97	95.96
501.14	28.09
501.32	65.54
501.49	95.96
501.67	49.15
501.84	46.81
502.02	91.28
502.20	114.69
502.37	77.24
502.55	46.81
502.72	93.62
502.90	0.00
503.07	0.00
503.25	81.92
503.43	23.41
503.60	37.45
503.78	0.00
503.95	65.54
504.13	56.17
504.30	53.83
504.48	35.11
504.65	9.36
504.83	32.77
505.01	93.62
505.18	42.13
505.36	30.43
505.53	0.00
505.71	42.13
505.88	32.77
506.06	84.26
506.23	0.00
506.41	0.00
506.58	44.47
506.76	65.54
506.93	91.28
507.11	95.96
507.28	7.02
507.46	70.22
507.63	0.00
507.81	56.17
507.98	70.22
508.16	18.72
508.33	88.94
508.50	39.79
508.68	51.49
508.85	102.98
509.03	46.81
509.20	0.00
509.38	4.68
509.55	100.64
509.73	49.15
509.90	21.06
510.08	14.04
510.25	110.01
510.42	42.13
510.60	84.26
510.77	0.00
510.95	46.81
511.12	70.22
511.30	56.17
511.47	30.43
511.64	0.00
511.82	100.64
511.99	51.49
512.17	16.38
512.34	30.43
512.51	28.09
512.69	37.45
512.86	77.24
513.04	25.75
513.21	65.54
513.38	58.51
513.56	28.09
513.73	37.45
513.90	30.43
514.08	16.38
514.25	79.58
514.43	77.24
514.60	58.51
514.77	28.09
514.95	18.72
515.12	131.07
515.29	7.02
515.47	11.70
515.64	49.15
515.81	86.60
515.99	42.13
516.16	46.81
516.33	30.43
516.51	44.47
516.68	14.04
516.85	53.83
517.03	81.92
517.20	39.79
517.37	14.04
517.54	30.43
517.72	7.02
517.89	63.19
518.06	65.54
518.24	74.90
518.41	42.13
518.58	25.75
518.75	67.88
518.93	0.00
519.10	28.09
519.27	42.13
519.45	102.98
519.62	0.00
519.79	42.13
519.96	63.19
520.14	86.60
520.31	0.00
520.48	35.11
520.65	63.19
520.83	46.81
521.00	30.43
521.17	86.60
521.34	0.00
521.52	37.45
521.69	37.45
521.86	53.83
522.03	53.83
522.20	0.00
522.38	28.09
522.55	4.68
522.72	4.68
522.89	0.00
523.07	88.94
523.24	86.60
523.41	28.09
523.58	65.54
523.75	110.01
523.92	51.49
524.10	49.15
524.27	0.00
524.44	77.24
524.61	9.36
524.78	49.15
524.96	86.60
525.13	65.54
525.30	25.75
525.47	98.30
525.64	95.96
525.81	35.11
525.98	30.43
526.16	37.45
526.33	0.00
526.50	4.68
526.67	131.07
526.84	25.75
527.01	42.13
527.18	51.49
527.36	0.00
527.53	86.60
527.70	77.24
527.87	0.00
528.04	112.35
528.21	18.72
528.38	0.00
528.55	51.49
528.72	32.77
528.89	44.47
529.07	0.00
529.24	46.81
529.41	60.85
529.58	0.00
529.75	18.72
529.92	0.00
530.09	0.00
530.26	60.85
530.43	56.17
530.60	51.49
530.77	0.00
530.94	35.11
531.11	32.77
531.28	65.54
531.46	23.41
531.63	60.85
531.80	88.94
531.97	25.75
532.14	65.54
532.31	11.70
532.48	18.72
532.65	60.85
532.82	70.22
532.99	79.58
533.16	49.15
533.33	39.79
533.50	23.41
533.67	58.51
533.84	16.38
534.01	60.85
534.18	100.64
534.35	42.13
534.52	42.13
534.69	53.83
534.86	0.00
535.03	0.00
535.20	81.92
535.37	32.77
535.54	30.43
535.71	25.75
535.88	46.81
536.05	39.79
536.22	28.09
536.38	11.70
536.55	2.34
536.72	0.00
536.89	0.00
537.06	0.00
537.23	14.04
537.40	51.49
537.57	79.58
537.74	65.54
537.91	4.68
538.08	58.51
538.25	39.79
538.42	100.64
538.59	58.51
538.75	0.00
538.92	70.22
539.09	18.72
539.26	0.00
539.43	110.01
539.60	100.64
539.77	35.11
539.94	86.60
540.11	30.43
540.28	0.00
540.44	49.15
540.61	42.13
540.78	93.62
540.95	32.77
541.12	86.60
541.29	77.24
541.46	91.28
541.62	39.79
541.79	0.00
541.96	60.85
542.13	39.79
542.30	107.66
542.47	117.03
542.63	30.43
542.80	67.88
542.97	70.22
543.14	0.00
543.31	65.54
543.48	114.69
543.64	32.77
543.81	39.79
543.98	0.00
544.15	42.13
544.32	23.41
544.48	79.58
544.65	35.11
544.82	51.49
544.99	53.83
545.16	37.45
545.32	84.26
545.49	98.30
545.66	0.00
545.83	49.15
546.00	0.00
546.16	60.85
546.33	51.49
546.50	11.70
546.67	39.79
546.83	0.00
547.00	16.38
547.17	72.56
547.34	65.54
547.50	21.06
547.67	100.64
547.84	37.45
548.00	56.17
548.17	25.75
548.34	23.41
548.51	53.83
548.67	0.00
548.84	25.75
549.01	58.51
549.18	77.24
549.34	30.43
549.51	56.17
549.68	32.77
549.84	0.00
550.01	18.72
550.18	98.30
550.34	51.49
550.51	0.00
550.68	42.13
550.84	86.60
551.01	0.00
551.18	0.00
551.34	42.13
551.51	9.36
551.68	81.92
551.84	0.00
552.01	25.75
552.18	51.49
552.34	42.13
552.51	119.37
552.68	32.77
552.84	0.00
553.01	46.81
553.18	51.49
553.34	56.17
553.51	18.72
553.67	2.34
553.84	39.79
554.01	53.83
554.17	0.00
554.34	23.41
554.51	58.51
554.67	39.79
554.84	16.38
555.00	2.34
555.17	11.70
555.33	65.54
555.50	58.51
555.67	74.90
555.83	98.30
556.00	58.51
556.16	112.35
556.33	37.45
556.50	98.30
556.66	4.68
556.83	18.72
556.99	37.45
557.16	67.88
557.32	53.83
557.49	16.38
557.65	98.30
557.82	86.60
557.98	105.32
558.15	74.90
558.32	0.00
558.48	46.81
558.65	53.83
558.81	72.56
558.98	30.43
559.14	25.75
559.31	0.00
559.47	35.11
559.64	35.11
559.80	49.15
559.97	67.88
560.13	7.02
560.30	0.00
560.46	77.24
560.63	0.00
560.79	60.85
560.96	25.75
561.12	46.81
561.29	32.77
561.45	74.90
561.61	79.58
561.78	0.00
561.94	11.70
562.11	49.15
562.27	7.02
562.44	39.79
562.60	53.83
562.77	21.06
562.93	28.09
563.10	30.43
563.26	35.11
563.42	0.00
563.59	21.06
563.75	42.13
563.92	65.54
564.08	18.72
564.24	93.62
564.41	53.83
564.57	4.68
564.74	0.00
564.90	2.34
565.07	37.45
565.23	72.56
565.39	65.54
565.56	67.88
565.72	35.11
565.88	105.32
566.05	2.34
566.21	46.81
566.38	84.26
566.54	53.83
566.70	0.00
566.87	65.54
567.03	0.00
567.19	79.58
567.36	32.77
567.52	58.51
567.68	79.58
567.85	4.68
568.01	4.68
568.17	74.90
568.34	81.92
568.50	49.15
568.66	72.56
568.83	35.11
568.99	35.11
569.15	100.64
569.32	72.56
569.48	14.04
569.64	84.26
569.81	91.28
569.97	25.75
570.13	18.72
570.30	60.85
570.46	65.54
570.62	0.00
570.78	0.00
570.95	77.24
571.11	95.96
571.27	0.00
571.43	25.75
571.60	21.06
571.76	11.70
571.92	7.02
572.09	53.83
572.25	53.83
572.41	44.47
572.57	0.00
572.74	46.81
572.90	77.24
573.06	28.09
573.22	35.11
573.38	4.68
573.55	46.81
573.71	72.56
573.87	42.13
574.03	51.49
574.20	16.38
574.36	58.51
574.52	0.00
574.68	2.34
574.84	0.00
575.01	0.00
575.17	70.22
575.33	46.81
575.49	0.00
575.65	21.06
575.82	58.51
575.98	25.75
576.14	32.77
576.30	7.02
576.46	72.56
576.62	51.49
576.79	28.09
576.95	100.64
577.11	0.00
577.27	37.45
577.43	53.83
577.59	2.34
577.75	0.00
577.92	21.06
578.08	23.41
578.24	7.02
578.40	39.79
578.56	37.45
578.72	44.47
578.88	81.92
579.04	11.70
579.21	93.62
579.37	60.85
579.53	23.41
579.69	4.68
579.85	2.34
580.01	70.22
580.17	51.49
580.33	30.43
580.49	70.22
580.65	30.43
580.82	0.00
580.98	60.85
581.14	14.04
581.30	56.17
581.46	16.38
581.62	0.00
581.78	0.00
581.94	56.17
582.10	30.43
582.26	42.13
582.42	25.75
582.58	44.47
582.74	16.38
582.90	58.51
583.06	53.83
583.22	0.00
583.38	23.41
583.54	35.11
583.70	60.85
583.86	0.00
584.02	72.56
584.18	60.85
584.34	11.70
584.50	21.06
584.66	72.56
584.82	79.58
584.98	11.70
585.14	42.13
585.30	72.56
585.46	77.24
585.62	46.81
585.78	65.54
585.94	63.19
586.10	0.00
586.26	21.06
586.42	70.22
586.58	4.68
586.74	42.13
586.90	0.00
587.06	51.49
587.22	0.00
587.38	23.41
587.54	117.03
587.70	39.79
587.86	56.17
588.02	65.54
588.18	84.26
588.34	102.98
588.49	65.54
588.65	56.17
588.81	0.00
588.97	72.56
589.13	32.77
589.29	18.72
589.45	67.88
589.61	37.45
589.77	0.00
589.93	7.02
590.08	0.00
590.24	63.19
590.40	60.85
590.56	9.36
590.72	53.83
590.88	30.43
591.04	117.03
591.20	81.92
591.35	63.19
591.51	9.36
591.67	88.94
591.83	25.75
591.99	0.00
592.15	32.77
592.31	77.24
592.46	51.49
592.62	32.77
592.78	7.02
592.94	51.49
593.10	72.56
593.26	32.77
593.41	100.64
593.57	30.43
593.73	79.58
593.89	58.51
594.05	91.28
594.20	46.81
594.36	37.45
594.52	60.85
594.68	4.68
594.84	0.00
594.99	49.15
595.15	11.70
595.31	56.17
595.47	37.45
595.62	0.00
595.78	4.68
595.94	39.79
596.10	63.19
596.25	42.13
596.41	0.00
596.57	88.94
596.73	18.72
596.88	32.77
597.04	30.43
597.20	74.90
597.36	81.92
597.51	0.00
597.67	14.04
597.83	67.88
597.99	93.62
598.14	35.11
598.30	0.00
598.46	7.02
598.61	0.00
598.77	79.58
598.93	42.13
599.09	67.88
599.24	72.56
599.40	46.81
599.56	9.36
599.71	51.49
599.87	86.60
600.03	4.68
600.18	0.00
600.34	35.11
600.50	60.85
600.65	30.43
600.81	23.41
600.97	7.02
601.12	86.60
601.28	117.03
601.44	53.83
601.59	105.32
601.75	21.06
601.91	37.45
602.06	46.81
602.22	58.51
602.37	88.94
602.53	32.77
602.69	21.06
602.84	14.04
603.00	7.02
603.16	0.00
603.31	42.13
603.47	42.13
603.62	0.00
603.78	53.83
603.94	30.43
604.09	0.00
604.25	11.70
604.40	117.03
604.56	44.47
604.71	60.85
604.87	30.43
605.03	9.36
605.18	58.51
605.34	0.00
605.49	81.92
605.65	42.13
605.80	84.26
605.96	95.96
606.12	32.77
606.27	81.92
606.43	28.09
606.58	32.77
606.74	67.88
606.89	16.38
607.05	56.17
607.20	14.04
607.36	77.24
607.51	84.26
607.67	0.00
607.82	28.09
607.98	0.00
608.13	117.03
608.29	119.37
608.44	0.00
608.60	67.88
608.75	39.79
608.91	0.00
609.06	56.17
609.22	11.70
609.37	0.00
609.53	0.00
609.68	56.17
609.84	63.19
609.99	51.49
610.15	32.77
610.30	74.90
610.46	65.54
610.61	0.00
610.76	7.02
610.92	88.94
611.07	16.38
611.23	7.02
611.38	37.45
611.54	98.30
611.69	84.26
611.84	4.68
612.00	72.56
612.15	46.81
612.31	32.77
612.46	63.19
612.62	56.17
612.77	28.09
612.92	25.75
613.08	60.85
613.23	58.51
613.39	14.04
613.54	0.00
613.69	0.00
613.85	56.17
614.00	42.13
614.15	100.64
614.31	53.83
614.46	7.02
614.62	63.19
614.77	72.56
614.92	93.62
615.08	2.34
615.23	16.38
615.38	35.11
615.54	44.47
615.69	56.17
615.84	7.02
616.00	9.36
616.15	77.24
616.30	58.51
616.46	37.45
616.61	2.34
616.76	107.66
616.92	53.83
617.07	37.45
617.22	32.77
617.37	51.49
617.53	39.79
617.68	63.19
617.83	56.17
617.99	58.51
618.14	39.79
618.29	16.38
618.45	46.81
618.60	63.19
618.75	51.49
618.90	112.35
619.06	88.94
619.21	65.54
619.36	0.00
619.51	28.09
619.67	49.15
619.82	14.04
619.97	51.49
620.12	25.75
620.28	79.58
620.43	112.35
620.58	53.83
620.73	119.37
620.89	56.17
621.04	65.54
621.19	32.77
621.34	4.68
621.49	0.00
621.65	21.06
621.80	0.00
621.95	0.00
622.10	46.81
622.25	4.68
622.41	46.81
622.56	14.04
622.71	16.38
622.86	81.92
623.01	7.02
623.16	9.36
623.32	23.41
623.47	11.70
623.62	65.54
623.77	0.00
623.92	67.88
624.07	0.00
624.23	0.00
624.38	110.01
624.53	91.28
624.68	44.47
624.83	25.75
624.98	51.49
625.13	95.96
625.29	25.75
625.44	0.00
625.59	4.68
625.74	65.54
625.89	0.00
626.04	84.26
626.19	4.68
626.34	91.28
626.49	23.41
626.65	63.19
626.80	112.35
626.95	60.85
627.10	88.94
627.25	0.00
627.40	51.49
627.55	14.04
627.70	70.22
627.85	35.11
628.00	67.88
628.15	42.13
628.30	35.11
628.45	30.43
628.60	0.00
628.76	46.81
628.91	30.43
629.06	32.77
629.21	23.41
629.36	91.28
629.51	25.75
629.66	63.19
629.81	0.00
629.96	16.38
630.11	63.19
630.26	0.00
630.41	88.94
630.56	18.72
630.71	0.00
630.86	0.00
631.01	95.96
631.16	2.34
631.31	4.68
631.46	58.51
631.61	58.51
631.76	49.15
631.91	53.83
632.06	0.00
632.21	88.94
632.36	65.54
632.51	46.81
632.66	28.09
632.81	28.09
632.96	84.26
633.10	4.68
633.25	37.45
633.40	58.51
633.55	42.13
633.70	7.02
633.85	35.11
634.00	35.11
634.15	46.81
634.30	77.24
634.45	58.51
634.60	28.09
634.75	51.49
634.90	49.15
635.05	95.96
635.19	51.49
635.34	39.79
635.49	79.58
635.64	74.90
635.79	0.00
635.94	2.34
636.09	0.00
636.24	0.00
636.39	86.60
636.53	42.13
636.68	0.00
636.83	46.81
636.98	25.75
637.13	32.77
637.28	0.00
637.43	0.00
637.57	30.43
637.72	25.75
637.87	0.00
638.02	0.00
638.17	49.15
638.32	70.22
638.46	42.13
638.61	65.54
638.76	117.03
638.91	46.81
639.06	39.79
639.20	77.24
639.35	21.06
639.50	28.09
639.65	77.24
639.80	58.51
639.94	0.00
640.09	42.13
640.24	0.00
640.39	28.09
640.54	23.41
640.68	63.19
640.83	58.51
640.98	72.56
641.13	0.00
641.27	53.83
641.42	32.77
641.57	0.00
641.72	63.19
641.86	70.22
642.01	21.06
642.16	0.00
642.31	30.43
642.45	21.06
642.60	0.00
642.75	2.34
642.90	25.75
643.04	0.00
643.19	0.00
643.34	0.00
643.48	25.75
643.63	51.49
643.78	0.00
643.93	70.22
644.07	95.96
644.22	35.11
644.37	49.15
644.51	77.24
644.66	95.96
644.81	7.02
644.95	11.70
645.10	67.88
645.25	0.00
645.39	28.09
645.54	28.09
645.69	105.32
645.83	51.49
645.98	42.13
646.13	58.51
646.27	9.36
646.42	9.36
646.57	30.43
646.71	30.43
646.86	46.81
647.00	0.00
647.15	21.06
647.30	72.56
647.44	32.77
647.59	0.00
647.74	74.90
647.88	53.83
648.03	56.17
648.17	23.41
648.32	39.79
648.47	23.41
648.61	117.03
648.76	65.54
648.90	0.00
649.05	74.90
649.20	23.41
649.34	42.13
649.49	0.00
649.63	72.56
649.78	0.00
649.92	58.51
650.07	0.00
650.21	39.79
650.36	39.79
650.51	21.06
650.65	44.47
650.80	0.00
650.94	74.90
651.09	0.00
651.23	35.11
651.38	37.45
651.52	67.88
651.67	0.00
651.81	14.04
651.96	74.90
652.10	65.54
652.25	32.77
652.39	4.68
652.54	58.51
652.68	0.00
652.83	7.02
652.97	0.00
653.12	4.68
653.26	18.72
653.41	81.92
653.55	42.13
653.70	2.34
653.84	79.58
653.99	42.13
654.13	14.04
654.27	42.13
654.42	0.00
654.56	46.81
654.71	0.00
654.85	0.00
655.00	30.43
655.14	28.09
655.29	93.62
655.43	100.64
655.57	23.41
655.72	67.88
655.86	21.06
656.01	14.04
656.15	0.00
656.30	4.68
656.44	30.43
656.58	0.00
656.73	18.72
656.87	9.36
657.01	44.47
657.16	35.11
657.30	88.94
657.45	28.09
657.59	37.45
657.73	72.56
657.88	70.22
658.02	35.11
658.16	0.00
658.31	58.51
658.45	35.11
658.60	0.00
658.74	51.49
658.88	11.70
659.03	56.17
659.17	11.70
659.31	46.81
659.46	65.54
659.60	70.22
659.74	0.00
659.89	44.47
660.03	56.17
660.17	18.72
660.32	72.56
660.46	65.54
660.60	0.00
660.74	0.00
660.89	77.24
661.03	102.98
661.17	28.09
661.32	0.00
661.46	14.04
661.60	7.02
661.74	16.38
661.89	56.17
662.03	9.36
662.17	37.45
662.31	35.11
662.46	51.49
662.60	9.36
662.74	14.04
662.88	0.00
663.03	39.79
663.17	0.00
663.31	53.83
663.45	56.17
663.60	16.38
663.74	32.77
663.88	42.13
664.02	63.19
664.17	30.43
664.31	0.00
664.45	77.24
664.59	53.83
664.73	60.85
664.88	0.00
665.02	46.81
665.16	51.49
665.30	28.09
665.44	86.60
665.59	0.00
665.73	81.92
665.87	81.92
666.01	0.00
666.15	35.11
666.29	23.41
666.44	18.72
666.58	18.72
666.72	84.26
666.86	44.47
667.00	0.00
667.14	2.34
667.28	42.13
667.43	25.75
667.57	35.11
667.71	14.04
667.85	25.75
667.99	32.77
668.13	0.00
668.27	35.11
668.41	23.41
668.56	23.41
668.70	58.51
668.84	0.00
668.98	49.15
669.12	117.03
669.26	18.72
669.40	72.56
669.54	117.03
669.68	37.45
669.82	77.24
669.96	16.38
670.10	74.90
670.25	74.90
670.39	16.38
670.53	25.75
670.67	51.49
670.81	2.34
670.95	4.68
671.09	72.56
671.23	77.24
671.37	9.36
671.51	79.58
671.65	37.45
671.79	35.11
671.93	67.88
672.07	0.00
672.21	30.43
672.35	23.41
672.49	74.90
672.63	46.81
672.77	44.47
672.91	0.00
673.05	32.77
673.19	23.41
673.33	21.06
673.47	30.43
673.61	11.70
673.75	18.72
673.89	35.11
674.03	86.60
674.17	0.00
674.31	0.00
674.45	37.45
674.59	58.51
674.73	0.00
674.87	14.04
675.01	2.34
675.15	42.13
675.29	32.77
675.43	0.00
675.56	72.56
675.70	37.45
675.84	42.13
675.98	21.06
676.12	4.68
676.26	23.41
676.40	46.81
676.54	65.54
676.68	9.36
676.82	0.00
676.96	21.06
677.10	37.45
677.23	35.11
677.37	11.70
677.51	9.36
677.65	93.62
677.79	42.13
677.93	0.00
678.07	67.88
678.21	28.09
678.34	46.81
678.48	0.00
678.62	105.32
678.76	67.88
678.90	0.00
679.04	39.79
679.18	14.04
679.31	58.51
679.45	133.41
679.59	60.85
679.73	72.56
679.87	0.00
680.00	18.72
680.14	46.81
680.28	60.85
680.42	9.36
680.56	51.49
680.70	37.45
680.83	21.06
680.97	44.47
681.11	51.49
681.25	77.24
681.39	91.28
681.52	72.56
681.66	91.28
681.80	128.73
681.94	0.00
682.07	28.09
682.21	0.00
682.35	63.19
682.49	37.45
682.62	25.75
682.76	44.47
682.90	25.75
683.04	4.68
683.17	18.72
683.31	37.45
683.45	53.83
683.59	60.85
683.72	95.96
683.86	9.36
684.00	2.34
684.13	16.38
684.27	2.34
684.41	37.45
684.55	56.17
684.68	77.24
684.82	0.00
684.96	56.17
685.09	37.45
685.23	51.49
685.37	0.00
685.50	100.64
685.64	81.92
685.78	0.00
685.91	35.11
686.05	18.72
686.19	37.45
686.32	7.02
686.46	0.00
686.60	60.85
686.73	67.88
686.87	0.00
687.01	0.00
687.14	25.75
687.28	18.72
687.42	56.17
687.55	28.09
687.69	2.34
687.82	0.00
687.96	0.00
688.10	9.36
688.23	0.00
688.37	67.88
688.50	58.51
688.64	4.68
688.78	25.75
688.91	67.88
689.05	39.79
689.18	58.51
689.32	30.43
689.46	35.11
689.59	16.38
689.73	25.75
689.86	16.38
690.00	11.70
690.13	0.00
690.27	23.41
690.41	0.00
690.54	56.17
690.68	42.13
690.81	39.79
690.95	0.00
691.08	77.24
691.22	0.00
691.35	30.43
691.49	46.81
691.62	35.11
691.76	49.15
691.89	18.72
692.03	53.83
692.16	35.11
692.30	16.38
692.43	35.11
692.57	23.41
692.70	37.45
692.84	67.88
692.97	9.36
693.11	42.13
693.24	81.92
693.38	32.77
693.51	63.19
693.65	42.13
693.78	14.04
693.92	4.68
694.05	0.00
694.19	65.54
694.32	9.36
694.45	25.75
694.59	51.49
694.72	46.81
694.86	74.90
694.99	51.49
695.13	39.79
695.26	11.70
695.39	37.45
695.53	0.00
695.66	95.96
695.80	84.26
695.93	112.35
696.07	28.09
696.20	0.00
696.33	0.00
696.47	0.00
696.60	105.32
696.73	88.94
696.87	25.75
697.00	81.92
697.14	0.00
697.27	65.54
697.40	95.96
697.54	86.60
697.67	0.00
697.80	11.70
697.94	60.85
698.07	44.47
698.21	39.79
698.34	0.00
698.47	0.00
698.61	98.30
698.74	32.77
698.87	131.07
699.01	23.41
699.14	14.04
699.27	63.19
699.40	0.00
699.54	39.79
699.67	0.00
699.80	23.41
699.94	25.75
700.07	46.81
700.20	7.02
700.34	37.45
700.47	77.24
700.60	46.81
700.73	0.00
700.87	7.02
701.00	42.13
701.13	60.85
701.26	2.34
701.40	18.72
701.53	81.92
701.66	67.88
701.79	65.54
701.93	37.45
702.06	56.17
702.19	58.51
702.32	30.43
702.46	42.13
702.59	0.00
702.72	0.00
702.85	46.81
702.99	0.00
703.12	0.00
703.25	77.24
703.38	25.75
703.51	128.73
703.65	0.00
703.78	44.47
703.91	0.00
704.04	28.09
704.17	0.00
704.31	0.00
704.44	9.36
704.57	35.11
704.70	0.00
704.83	28.09
704.96	53.83
705.10	65.54
705.23	0.00
>>>>>End Processed Spectral Data<<<<<
