SpectraSuite Data File
++++++++++++++++++++++++++++++++++++
Date: Fri Oct 04 12:13:45 GMT-05:00 2013
User: price-jones
Dark Spectrum Present: No
Reference Spectrum Present: No
Number of Sampled Component Spectra: 1
Spectrometers: USB2+H05261
Integration Time (usec): 10000 (USB2+H05261)
Spectra Averaged: 1 (USB2+H05261)
Boxcar Smoothing: 0 (USB2+H05261)
Correct for Electrical Dark: No (USB2+H05261)
Strobe/Lamp Enabled: No (USB2+H05261)
Correct for Detector Non-linearity: No (USB2+H05261)
Correct for Stray Light: No (USB2+H05261)
Number of Pixels in Processed Spectrum: 2048
>>>>>Begin Processed Spectral Data<<<<<
365.73	0.00
365.92	0.00
366.12	0.00
366.32	0.00
366.52	0.00
366.72	0.00
366.91	0.00
367.11	0.00
367.31	0.00
367.51	0.00
367.70	0.00
367.90	0.00
368.10	0.00
368.30	0.00
368.49	0.00
368.69	0.00
368.89	0.00
369.09	0.00
369.28	0.00
369.48	0.00
369.68	0.00
369.87	0.00
370.07	0.00
370.27	0.00
370.47	0.00
370.66	0.00
370.86	4.68
371.06	0.00
371.25	0.00
371.45	0.00
371.65	0.00
371.84	0.00
372.04	42.13
372.24	0.00
372.44	0.00
372.63	4.68
372.83	0.00
373.03	63.19
373.22	42.13
373.42	0.00
373.62	18.72
373.81	98.30
374.01	9.36
374.21	0.00
374.40	77.24
374.60	84.26
374.79	46.81
374.99	79.58
375.19	16.38
375.38	86.60
375.58	23.41
375.78	0.00
375.97	100.64
376.17	72.56
376.37	74.90
376.56	7.02
376.76	4.68
376.95	0.00
377.15	30.43
377.35	0.00
377.54	28.09
377.74	51.49
377.93	11.70
378.13	21.06
378.33	81.92
378.52	0.00
378.72	84.26
378.91	0.00
379.11	23.41
379.31	84.26
379.50	49.15
379.70	0.00
379.89	65.54
380.09	25.75
380.28	0.00
380.48	0.00
380.68	0.00
380.87	21.06
381.07	65.54
381.26	46.81
381.46	4.68
381.65	37.45
381.85	28.09
382.04	0.00
382.24	23.41
382.43	0.00
382.63	53.83
382.83	35.11
383.02	0.00
383.22	0.00
383.41	0.00
383.61	65.54
383.80	63.19
384.00	51.49
384.19	37.45
384.39	58.51
384.58	0.00
384.78	93.62
384.97	18.72
385.17	51.49
385.36	16.38
385.56	35.11
385.75	30.43
385.95	0.00
386.14	0.00
386.34	37.45
386.53	42.13
386.72	56.17
386.92	63.19
387.11	14.04
387.31	0.00
387.50	46.81
387.70	0.00
387.89	18.72
388.09	39.79
388.28	0.00
388.48	0.00
388.67	42.13
388.86	25.75
389.06	0.00
389.25	63.19
389.45	51.49
389.64	0.00
389.84	44.47
390.03	60.85
390.22	21.06
390.42	23.41
390.61	4.68
390.81	63.19
391.00	0.00
391.19	67.88
391.39	30.43
391.58	4.68
391.78	4.68
391.97	0.00
392.16	0.00
392.36	56.17
392.55	0.00
392.75	0.00
392.94	58.51
393.13	2.34
393.33	23.41
393.52	53.83
393.71	23.41
393.91	0.00
394.10	4.68
394.29	0.00
394.49	0.00
394.68	37.45
394.88	0.00
395.07	28.09
395.26	0.00
395.46	23.41
395.65	0.00
395.84	74.90
396.04	18.72
396.23	35.11
396.42	30.43
396.62	72.56
396.81	72.56
397.00	37.45
397.19	53.83
397.39	0.00
397.58	0.00
397.77	0.00
397.97	23.41
398.16	56.17
398.35	0.00
398.55	2.34
398.74	0.00
398.93	51.49
399.12	0.00
399.32	37.45
399.51	72.56
399.70	11.70
399.90	32.77
400.09	30.43
400.28	28.09
400.47	84.26
400.67	0.00
400.86	0.00
401.05	0.00
401.24	11.70
401.44	49.15
401.63	21.06
401.82	11.70
402.01	0.00
402.21	16.38
402.40	46.81
402.59	14.04
402.78	21.06
402.97	0.00
403.17	0.00
403.36	49.15
403.55	23.41
403.74	37.45
403.93	74.90
404.13	84.26
404.32	46.81
404.51	37.45
404.70	18.72
404.89	0.00
405.09	0.00
405.28	0.00
405.47	0.00
405.66	32.77
405.85	58.51
406.05	37.45
406.24	9.36
406.43	32.77
406.62	46.81
406.81	0.00
407.00	21.06
407.20	0.00
407.39	0.00
407.58	42.13
407.77	91.28
407.96	84.26
408.15	46.81
408.34	21.06
408.54	32.77
408.73	65.54
408.92	18.72
409.11	88.94
409.30	42.13
409.49	0.00
409.68	0.00
409.87	30.43
410.07	25.75
410.26	18.72
410.45	18.72
410.64	39.79
410.83	39.79
411.02	46.81
411.21	44.47
411.40	23.41
411.59	0.00
411.78	0.00
411.98	4.68
412.17	46.81
412.36	0.00
412.55	107.66
412.74	51.49
412.93	14.04
413.12	56.17
413.31	0.00
413.50	30.43
413.69	0.00
413.88	25.75
414.07	35.11
414.26	44.47
414.45	0.00
414.64	4.68
414.83	30.43
415.02	0.00
415.22	88.94
415.41	0.00
415.60	30.43
415.79	51.49
415.98	67.88
416.17	74.90
416.36	0.00
416.55	0.00
416.74	0.00
416.93	0.00
417.12	49.15
417.31	58.51
417.50	14.04
417.69	56.17
417.88	28.09
418.07	0.00
418.26	58.51
418.45	0.00
418.64	14.04
418.83	46.81
419.02	11.70
419.21	70.22
419.39	7.02
419.58	79.58
419.77	72.56
419.96	49.15
420.15	16.38
420.34	0.00
420.53	0.00
420.72	30.43
420.91	21.06
421.10	112.35
421.29	0.00
421.48	70.22
421.67	35.11
421.86	46.81
422.05	25.75
422.24	0.00
422.43	95.96
422.61	28.09
422.80	63.19
422.99	14.04
423.18	65.54
423.37	0.00
423.56	30.43
423.75	72.56
423.94	0.00
424.13	60.85
424.32	65.54
424.50	53.83
424.69	28.09
424.88	0.00
425.07	95.96
425.26	0.00
425.45	37.45
425.64	42.13
425.83	0.00
426.01	77.24
426.20	18.72
426.39	65.54
426.58	121.71
426.77	4.68
426.96	91.28
427.15	77.24
427.33	11.70
427.52	37.45
427.71	0.00
427.90	0.00
428.09	9.36
428.28	28.09
428.46	56.17
428.65	60.85
428.84	39.79
429.03	28.09
429.22	56.17
429.40	0.00
429.59	72.56
429.78	0.00
429.97	72.56
430.16	42.13
430.34	42.13
430.53	28.09
430.72	0.00
430.91	91.28
431.10	46.81
431.28	49.15
431.47	0.00
431.66	81.92
431.85	32.77
432.03	0.00
432.22	0.00
432.41	37.45
432.60	53.83
432.79	0.00
432.97	32.77
433.16	23.41
433.35	65.54
433.54	4.68
433.72	53.83
433.91	21.06
434.10	0.00
434.28	16.38
434.47	0.00
434.66	60.85
434.85	0.00
435.03	44.47
435.22	0.00
435.41	0.00
435.59	56.17
435.78	67.88
435.97	37.45
436.16	14.04
436.34	9.36
436.53	42.13
436.72	0.00
436.90	60.85
437.09	18.72
437.28	28.09
437.46	0.00
437.65	72.56
437.84	7.02
438.02	0.00
438.21	67.88
438.40	37.45
438.58	11.70
438.77	0.00
438.96	23.41
439.14	2.34
439.33	0.00
439.52	18.72
439.70	56.17
439.89	63.19
440.08	0.00
440.26	0.00
440.45	49.15
440.63	53.83
440.82	88.94
441.01	74.90
441.19	16.38
441.38	44.47
441.57	23.41
441.75	46.81
441.94	28.09
442.12	39.79
442.31	23.41
442.50	0.00
442.68	93.62
442.87	49.15
443.05	30.43
443.24	23.41
443.43	2.34
443.61	35.11
443.80	0.00
443.98	2.34
444.17	18.72
444.35	30.43
444.54	37.45
444.73	25.75
444.91	0.00
445.10	65.54
445.28	23.41
445.47	42.13
445.65	0.00
445.84	56.17
446.02	7.02
446.21	32.77
446.39	42.13
446.58	51.49
446.77	79.58
446.95	23.41
447.14	131.07
447.32	46.81
447.51	0.00
447.69	25.75
447.88	65.54
448.06	23.41
448.25	70.22
448.43	14.04
448.62	9.36
448.80	58.51
448.99	11.70
449.17	0.00
449.36	70.22
449.54	0.00
449.73	30.43
449.91	0.00
450.10	14.04
450.28	46.81
450.46	58.51
450.65	93.62
450.83	0.00
451.02	37.45
451.20	60.85
451.39	56.17
451.57	81.92
451.76	39.79
451.94	32.77
452.13	30.43
452.31	63.19
452.49	39.79
452.68	46.81
452.86	42.13
453.05	42.13
453.23	0.00
453.42	7.02
453.60	44.47
453.78	0.00
453.97	105.32
454.15	0.00
454.34	16.38
454.52	9.36
454.70	18.72
454.89	0.00
455.07	0.00
455.26	14.04
455.44	35.11
455.62	39.79
455.81	44.47
455.99	21.06
456.17	56.17
456.36	70.22
456.54	4.68
456.73	0.00
456.91	32.77
457.09	32.77
457.28	9.36
457.46	32.77
457.64	30.43
457.83	112.35
458.01	95.96
458.19	21.06
458.38	18.72
458.56	0.00
458.74	77.24
458.93	0.00
459.11	56.17
459.29	37.45
459.48	23.41
459.66	56.17
459.84	0.00
460.03	110.01
460.21	65.54
460.39	81.92
460.57	77.24
460.76	21.06
460.94	23.41
461.12	42.13
461.31	42.13
461.49	21.06
461.67	42.13
461.85	0.00
462.04	0.00
462.22	88.94
462.40	72.56
462.59	44.47
462.77	42.13
462.95	23.41
463.13	32.77
463.32	39.79
463.50	37.45
463.68	60.85
463.86	0.00
464.05	65.54
464.23	107.66
464.41	30.43
464.59	79.58
464.78	100.64
464.96	67.88
465.14	0.00
465.32	86.60
465.50	49.15
465.69	32.77
465.87	37.45
466.05	2.34
466.23	86.60
466.41	121.71
466.60	0.00
466.78	58.51
466.96	32.77
467.14	77.24
467.32	70.22
467.51	58.51
467.69	110.01
467.87	30.43
468.05	21.06
468.23	67.88
468.41	0.00
468.60	0.00
468.78	30.43
468.96	0.00
469.14	4.68
469.32	51.49
469.50	84.26
469.69	65.54
469.87	16.38
470.05	35.11
470.23	11.70
470.41	70.22
470.59	60.85
470.77	32.77
470.95	18.72
471.14	0.00
471.32	63.19
471.50	28.09
471.68	72.56
471.86	0.00
472.04	21.06
472.22	32.77
472.40	30.43
472.58	0.00
472.77	42.13
472.95	0.00
473.13	65.54
473.31	72.56
473.49	30.43
473.67	23.41
473.85	21.06
474.03	60.85
474.21	0.00
474.39	46.81
474.57	9.36
474.75	44.47
474.93	30.43
475.12	32.77
475.30	23.41
475.48	0.00
475.66	37.45
475.84	60.85
476.02	105.32
476.20	166.18
476.38	44.47
476.56	0.00
476.74	91.28
476.92	0.00
477.10	42.13
477.28	44.47
477.46	81.92
477.64	117.03
477.82	0.00
478.00	32.77
478.18	0.00
478.36	42.13
478.54	67.88
478.72	0.00
478.90	35.11
479.08	18.72
479.26	72.56
479.44	72.56
479.62	0.00
479.80	18.72
479.98	0.00
480.16	4.68
480.34	81.92
480.52	42.13
480.70	84.26
480.88	30.43
481.06	53.83
481.24	49.15
481.41	35.11
481.59	37.45
481.77	72.56
481.95	39.79
482.13	53.83
482.31	53.83
482.49	32.77
482.67	88.94
482.85	0.00
483.03	21.06
483.21	0.00
483.39	42.13
483.57	65.54
483.74	53.83
483.92	7.02
484.10	46.81
484.28	0.00
484.46	77.24
484.64	14.04
484.82	53.83
485.00	51.49
485.18	81.92
485.35	35.11
485.53	0.00
485.71	44.47
485.89	35.11
486.07	58.51
486.25	100.64
486.43	9.36
486.61	84.26
486.78	0.00
486.96	42.13
487.14	0.00
487.32	4.68
487.50	65.54
487.68	65.54
487.85	16.38
488.03	74.90
488.21	95.96
488.39	72.56
488.57	84.26
488.75	35.11
488.92	74.90
489.10	28.09
489.28	65.54
489.46	65.54
489.64	56.17
489.81	30.43
489.99	46.81
490.17	30.43
490.35	51.49
490.53	42.13
490.70	0.00
490.88	44.47
491.06	72.56
491.24	7.02
491.41	60.85
491.59	91.28
491.77	30.43
491.95	86.60
492.13	28.09
492.30	49.15
492.48	77.24
492.66	56.17
492.84	32.77
493.01	9.36
493.19	14.04
493.37	14.04
493.54	124.05
493.72	53.83
493.90	25.75
494.08	0.00
494.25	18.72
494.43	100.64
494.61	88.94
494.79	91.28
494.96	63.19
495.14	4.68
495.32	0.00
495.49	9.36
495.67	16.38
495.85	25.75
496.02	100.64
496.20	56.17
496.38	37.45
496.55	0.00
496.73	88.94
496.91	37.45
497.09	25.75
497.26	9.36
497.44	39.79
497.62	0.00
497.79	60.85
497.97	56.17
498.14	131.07
498.32	32.77
498.50	77.24
498.67	58.51
498.85	0.00
499.03	79.58
499.20	23.41
499.38	51.49
499.56	51.49
499.73	112.35
499.91	25.75
500.08	77.24
500.26	56.17
500.44	0.00
500.61	0.00
500.79	39.79
500.97	30.43
501.14	23.41
501.32	39.79
501.49	18.72
501.67	0.00
501.84	56.17
502.02	88.94
502.20	0.00
502.37	65.54
502.55	135.75
502.72	0.00
502.90	37.45
503.07	51.49
503.25	39.79
503.43	46.81
503.60	74.90
503.78	49.15
503.95	0.00
504.13	67.88
504.30	100.64
504.48	77.24
504.65	53.83
504.83	44.47
505.01	42.13
505.18	74.90
505.36	16.38
505.53	0.00
505.71	21.06
505.88	42.13
506.06	91.28
506.23	65.54
506.41	0.00
506.58	39.79
506.76	39.79
506.93	88.94
507.11	11.70
507.28	42.13
507.46	25.75
507.63	32.77
507.81	28.09
507.98	56.17
508.16	67.88
508.33	44.47
508.50	9.36
508.68	114.69
508.85	37.45
509.03	46.81
509.20	18.72
509.38	7.02
509.55	46.81
509.73	28.09
509.90	98.30
510.08	65.54
510.25	119.37
510.42	51.49
510.60	46.81
510.77	11.70
510.95	37.45
511.12	67.88
511.30	81.92
511.47	0.00
511.64	105.32
511.82	119.37
511.99	37.45
512.17	0.00
512.34	74.90
512.51	0.00
512.69	21.06
512.86	28.09
513.04	63.19
513.21	74.90
513.38	25.75
513.56	51.49
513.73	65.54
513.90	95.96
514.08	44.47
514.25	39.79
514.43	39.79
514.60	28.09
514.77	58.51
514.95	70.22
515.12	126.39
515.29	46.81
515.47	60.85
515.64	74.90
515.81	70.22
515.99	51.49
516.16	53.83
516.33	49.15
516.51	65.54
516.68	107.66
516.85	23.41
517.03	79.58
517.20	49.15
517.37	46.81
517.54	32.77
517.72	23.41
517.89	0.00
518.06	2.34
518.24	100.64
518.41	25.75
518.58	30.43
518.75	79.58
518.93	37.45
519.10	49.15
519.27	98.30
519.45	65.54
519.62	74.90
519.79	35.11
519.96	30.43
520.14	0.00
520.31	11.70
520.48	60.85
520.65	0.00
520.83	51.49
521.00	51.49
521.17	30.43
521.34	23.41
521.52	77.24
521.69	84.26
521.86	0.00
522.03	35.11
522.20	93.62
522.38	4.68
522.55	28.09
522.72	0.00
522.89	25.75
523.07	70.22
523.24	77.24
523.41	35.11
523.58	23.41
523.75	7.02
523.92	105.32
524.10	77.24
524.27	53.83
524.44	7.02
524.61	70.22
524.78	35.11
524.96	49.15
525.13	37.45
525.30	42.13
525.47	11.70
525.64	114.69
525.81	51.49
525.98	107.66
526.16	51.49
526.33	11.70
526.50	32.77
526.67	93.62
526.84	135.75
527.01	79.58
527.18	0.00
527.36	39.79
527.53	0.00
527.70	49.15
527.87	49.15
528.04	98.30
528.21	74.90
528.38	56.17
528.55	30.43
528.72	81.92
528.89	46.81
529.07	58.51
529.24	67.88
529.41	79.58
529.58	21.06
529.75	16.38
529.92	67.88
530.09	72.56
530.26	91.28
530.43	35.11
530.60	9.36
530.77	63.19
530.94	44.47
531.11	0.00
531.28	18.72
531.46	0.00
531.63	32.77
531.80	51.49
531.97	32.77
532.14	35.11
532.31	100.64
532.48	74.90
532.65	86.60
532.82	56.17
532.99	107.66
533.16	67.88
533.33	67.88
533.50	60.85
533.67	28.09
533.84	46.81
534.01	81.92
534.18	93.62
534.35	0.00
534.52	11.70
534.69	28.09
534.86	39.79
535.03	74.90
535.20	0.00
535.37	65.54
535.54	4.68
535.71	95.96
535.88	39.79
536.05	91.28
536.22	21.06
536.38	84.26
536.55	51.49
536.72	60.85
536.89	79.58
537.06	7.02
537.23	32.77
537.40	159.16
537.57	46.81
537.74	28.09
537.91	21.06
538.08	0.00
538.25	67.88
538.42	67.88
538.59	63.19
538.75	77.24
538.92	67.88
539.09	117.03
539.26	56.17
539.43	18.72
539.60	37.45
539.77	53.83
539.94	93.62
540.11	0.00
540.28	35.11
540.44	16.38
540.61	51.49
540.78	56.17
540.95	65.54
541.12	60.85
541.29	53.83
541.46	23.41
541.62	93.62
541.79	51.49
541.96	51.49
542.13	112.35
542.30	39.79
542.47	30.43
542.63	56.17
542.80	138.09
542.97	100.64
543.14	0.00
543.31	114.69
543.48	2.34
543.64	58.51
543.81	88.94
543.98	30.43
544.15	39.79
544.32	79.58
544.48	23.41
544.65	88.94
544.82	56.17
544.99	23.41
545.16	81.92
545.32	23.41
545.49	25.75
545.66	72.56
545.83	70.22
546.00	81.92
546.16	39.79
546.33	30.43
546.50	112.35
546.67	88.94
546.83	67.88
547.00	119.37
547.17	49.15
547.34	2.34
547.50	86.60
547.67	44.47
547.84	0.00
548.00	4.68
548.17	102.98
548.34	16.38
548.51	65.54
548.67	11.70
548.84	53.83
549.01	51.49
549.18	4.68
549.34	4.68
549.51	35.11
549.68	44.47
549.84	14.04
550.01	0.00
550.18	44.47
550.34	74.90
550.51	0.00
550.68	56.17
550.84	37.45
551.01	46.81
551.18	28.09
551.34	79.58
551.51	35.11
551.68	28.09
551.84	51.49
552.01	74.90
552.18	0.00
552.34	0.00
552.51	0.00
552.68	14.04
552.84	149.79
553.01	14.04
553.18	42.13
553.34	39.79
553.51	23.41
553.67	42.13
553.84	18.72
554.01	91.28
554.17	0.00
554.34	32.77
554.51	74.90
554.67	39.79
554.84	9.36
555.00	112.35
555.17	60.85
555.33	32.77
555.50	46.81
555.67	16.38
555.83	4.68
556.00	91.28
556.16	79.58
556.33	4.68
556.50	16.38
556.66	60.85
556.83	21.06
556.99	117.03
557.16	107.66
557.32	11.70
557.49	70.22
557.65	79.58
557.82	77.24
557.98	58.51
558.15	7.02
558.32	49.15
558.48	49.15
558.65	70.22
558.81	16.38
558.98	74.90
559.14	86.60
559.31	18.72
559.47	70.22
559.64	37.45
559.80	49.15
559.97	70.22
560.13	37.45
560.30	53.83
560.46	30.43
560.63	46.81
560.79	145.11
560.96	77.24
561.12	25.75
561.29	39.79
561.45	88.94
561.61	81.92
561.78	56.17
561.94	16.38
562.11	0.00
562.27	11.70
562.44	14.04
562.60	0.00
562.77	2.34
562.93	37.45
563.10	70.22
563.26	0.00
563.42	86.60
563.59	39.79
563.75	77.24
563.92	53.83
564.08	70.22
564.24	46.81
564.41	60.85
564.57	0.00
564.74	81.92
564.90	28.09
565.07	44.47
565.23	21.06
565.39	0.00
565.56	46.81
565.72	14.04
565.88	86.60
566.05	79.58
566.21	0.00
566.38	14.04
566.54	0.00
566.70	81.92
566.87	46.81
567.03	42.13
567.19	51.49
567.36	18.72
567.52	51.49
567.68	37.45
567.85	7.02
568.01	63.19
568.17	4.68
568.34	74.90
568.50	16.38
568.66	25.75
568.83	98.30
568.99	0.00
569.15	65.54
569.32	25.75
569.48	102.98
569.64	49.15
569.81	53.83
569.97	51.49
570.13	72.56
570.30	84.26
570.46	37.45
570.62	86.60
570.78	0.00
570.95	23.41
571.11	53.83
571.27	37.45
571.43	18.72
571.60	49.15
571.76	56.17
571.92	32.77
572.09	14.04
572.25	14.04
572.41	16.38
572.57	42.13
572.74	0.00
572.90	77.24
573.06	110.01
573.22	79.58
573.38	74.90
573.55	25.75
573.71	18.72
573.87	14.04
574.03	23.41
574.20	93.62
574.36	39.79
574.52	53.83
574.68	46.81
574.84	35.11
575.01	0.00
575.17	0.00
575.33	51.49
575.49	28.09
575.65	0.00
575.82	0.00
575.98	93.62
576.14	46.81
576.30	58.51
576.46	51.49
576.62	65.54
576.79	46.81
576.95	9.36
577.11	46.81
577.27	58.51
577.43	23.41
577.59	46.81
577.75	53.83
577.92	4.68
578.08	16.38
578.24	51.49
578.40	37.45
578.56	18.72
578.72	67.88
578.88	7.02
579.04	86.60
579.21	28.09
579.37	53.83
579.53	81.92
579.69	70.22
579.85	14.04
580.01	84.26
580.17	63.19
580.33	46.81
580.49	23.41
580.65	7.02
580.82	2.34
580.98	4.68
581.14	2.34
581.30	46.81
581.46	23.41
581.62	23.41
581.78	117.03
581.94	0.00
582.10	65.54
582.26	18.72
582.42	88.94
582.58	46.81
582.74	102.98
582.90	77.24
583.06	0.00
583.22	51.49
583.38	63.19
583.54	91.28
583.70	51.49
583.86	0.00
584.02	39.79
584.18	37.45
584.34	28.09
584.50	21.06
584.66	18.72
584.82	35.11
584.98	0.00
585.14	32.77
585.30	37.45
585.46	60.85
585.62	9.36
585.78	105.32
585.94	84.26
586.10	21.06
586.26	28.09
586.42	49.15
586.58	32.77
586.74	58.51
586.90	18.72
587.06	46.81
587.22	30.43
587.38	0.00
587.54	35.11
587.70	2.34
587.86	28.09
588.02	25.75
588.18	9.36
588.34	28.09
588.49	98.30
588.65	28.09
588.81	9.36
588.97	105.32
589.13	112.35
589.29	60.85
589.45	37.45
589.61	58.51
589.77	67.88
589.93	30.43
590.08	77.24
590.24	28.09
590.40	32.77
590.56	0.00
590.72	51.49
590.88	51.49
591.04	11.70
591.20	44.47
591.35	46.81
591.51	0.00
591.67	0.00
591.83	25.75
591.99	28.09
592.15	84.26
592.31	14.04
592.46	74.90
592.62	2.34
592.78	18.72
592.94	35.11
593.10	39.79
593.26	81.92
593.41	65.54
593.57	117.03
593.73	25.75
593.89	0.00
594.05	49.15
594.20	39.79
594.36	23.41
594.52	25.75
594.68	84.26
594.84	74.90
594.99	14.04
595.15	11.70
595.31	74.90
595.47	9.36
595.62	21.06
595.78	32.77
595.94	67.88
596.10	0.00
596.25	84.26
596.41	77.24
596.57	58.51
596.73	70.22
596.88	117.03
597.04	79.58
597.20	63.19
597.36	0.00
597.51	49.15
597.67	11.70
597.83	14.04
597.99	11.70
598.14	67.88
598.30	67.88
598.46	56.17
598.61	44.47
598.77	100.64
598.93	21.06
599.09	46.81
599.24	0.00
599.40	39.79
599.56	35.11
599.71	107.66
599.87	11.70
600.03	28.09
600.18	67.88
600.34	70.22
600.50	37.45
600.65	105.32
600.81	128.73
600.97	56.17
601.12	28.09
601.28	14.04
601.44	77.24
601.59	23.41
601.75	44.47
601.91	35.11
602.06	0.00
602.22	56.17
602.37	77.24
602.53	100.64
602.69	84.26
602.84	30.43
603.00	39.79
603.16	58.51
603.31	9.36
603.47	0.00
603.62	28.09
603.78	84.26
603.94	81.92
604.09	60.85
604.25	93.62
604.40	28.09
604.56	74.90
604.71	74.90
604.87	72.56
605.03	67.88
605.18	0.00
605.34	42.13
605.49	28.09
605.65	56.17
605.80	21.06
605.96	35.11
606.12	70.22
606.27	112.35
606.43	2.34
606.58	81.92
606.74	35.11
606.89	7.02
607.05	124.05
607.20	88.94
607.36	30.43
607.51	95.96
607.67	46.81
607.82	21.06
607.98	32.77
608.13	11.70
608.29	121.71
608.44	86.60
608.60	46.81
608.75	0.00
608.91	67.88
609.06	4.68
609.22	114.69
609.37	23.41
609.53	72.56
609.68	65.54
609.84	0.00
609.99	21.06
610.15	25.75
610.30	0.00
610.46	58.51
610.61	23.41
610.76	18.72
610.92	70.22
611.07	32.77
611.23	60.85
611.38	11.70
611.54	72.56
611.69	0.00
611.84	49.15
612.00	0.00
612.15	30.43
612.31	16.38
612.46	0.00
612.62	11.70
612.77	21.06
612.92	16.38
613.08	51.49
613.23	0.00
613.39	0.00
613.54	60.85
613.69	37.45
613.85	49.15
614.00	7.02
614.15	25.75
614.31	114.69
614.46	65.54
614.62	95.96
614.77	7.02
614.92	67.88
615.08	0.00
615.23	37.45
615.38	0.00
615.54	0.00
615.69	11.70
615.84	7.02
616.00	63.19
616.15	0.00
616.30	63.19
616.46	42.13
616.61	16.38
616.76	44.47
616.92	72.56
617.07	11.70
617.22	51.49
617.37	42.13
617.53	142.77
617.68	44.47
617.83	65.54
617.99	25.75
618.14	0.00
618.29	95.96
618.45	100.64
618.60	86.60
618.75	30.43
618.90	11.70
619.06	63.19
619.21	32.77
619.36	49.15
619.51	114.69
619.67	4.68
619.82	58.51
619.97	0.00
620.12	60.85
620.28	35.11
620.43	37.45
620.58	95.96
620.73	105.32
620.89	37.45
621.04	81.92
621.19	77.24
621.34	72.56
621.49	0.00
621.65	30.43
621.80	60.85
621.95	0.00
622.10	37.45
622.25	9.36
622.41	72.56
622.56	11.70
622.71	63.19
622.86	0.00
623.01	91.28
623.16	49.15
623.32	16.38
623.47	74.90
623.62	25.75
623.77	95.96
623.92	70.22
624.07	0.00
624.23	102.98
624.38	0.00
624.53	63.19
624.68	23.41
624.83	30.43
624.98	63.19
625.13	63.19
625.29	21.06
625.44	91.28
625.59	30.43
625.74	37.45
625.89	112.35
626.04	30.43
626.19	67.88
626.34	0.00
626.49	16.38
626.65	23.41
626.80	32.77
626.95	140.43
627.10	11.70
627.25	14.04
627.40	0.00
627.55	72.56
627.70	60.85
627.85	67.88
628.00	74.90
628.15	98.30
628.30	107.66
628.45	154.48
628.60	56.17
628.76	18.72
628.91	21.06
629.06	86.60
629.21	23.41
629.36	21.06
629.51	44.47
629.66	7.02
629.81	46.81
629.96	53.83
630.11	53.83
630.26	37.45
630.41	42.13
630.56	65.54
630.71	16.38
630.86	0.00
631.01	30.43
631.16	0.00
631.31	4.68
631.46	35.11
631.61	51.49
631.76	51.49
631.91	37.45
632.06	65.54
632.21	35.11
632.36	0.00
632.51	37.45
632.66	0.00
632.81	91.28
632.96	39.79
633.10	35.11
633.25	39.79
633.40	72.56
633.55	0.00
633.70	53.83
633.85	46.81
634.00	77.24
634.15	77.24
634.30	79.58
634.45	30.43
634.60	35.11
634.75	119.37
634.90	60.85
635.05	67.88
635.19	44.47
635.34	32.77
635.49	0.00
635.64	30.43
635.79	0.00
635.94	93.62
636.09	4.68
636.24	56.17
636.39	93.62
636.53	11.70
636.68	100.64
636.83	51.49
636.98	44.47
637.13	0.00
637.28	65.54
637.43	79.58
637.57	32.77
637.72	58.51
637.87	9.36
638.02	49.15
638.17	32.77
638.32	0.00
638.46	25.75
638.61	16.38
638.76	65.54
638.91	9.36
639.06	46.81
639.20	79.58
639.35	49.15
639.50	98.30
639.65	35.11
639.80	0.00
639.94	30.43
640.09	93.62
640.24	37.45
640.39	21.06
640.54	0.00
640.68	67.88
640.83	107.66
640.98	30.43
641.13	77.24
641.27	0.00
641.42	112.35
641.57	44.47
641.72	18.72
641.86	32.77
642.01	46.81
642.16	93.62
642.31	42.13
642.45	67.88
642.60	35.11
642.75	84.26
642.90	67.88
643.04	60.85
643.19	46.81
643.34	25.75
643.48	0.00
643.63	60.85
643.78	100.64
643.93	39.79
644.07	21.06
644.22	2.34
644.37	18.72
644.51	0.00
644.66	79.58
644.81	16.38
644.95	0.00
645.10	35.11
645.25	9.36
645.39	21.06
645.54	7.02
645.69	44.47
645.83	81.92
645.98	51.49
646.13	21.06
646.27	114.69
646.42	0.00
646.57	7.02
646.71	39.79
646.86	9.36
647.00	63.19
647.15	114.69
647.30	121.71
647.44	74.90
647.59	21.06
647.74	67.88
647.88	32.77
648.03	42.13
648.17	131.07
648.32	72.56
648.47	67.88
648.61	35.11
648.76	30.43
648.90	53.83
649.05	7.02
649.20	58.51
649.34	72.56
649.49	0.00
649.63	93.62
649.78	51.49
649.92	58.51
650.07	0.00
650.21	0.00
650.36	28.09
650.51	35.11
650.65	28.09
650.80	0.00
650.94	0.00
651.09	0.00
651.23	25.75
651.38	46.81
651.52	49.15
651.67	58.51
651.81	23.41
651.96	25.75
652.10	53.83
652.25	147.45
652.39	0.00
652.54	9.36
652.68	67.88
652.83	0.00
652.97	0.00
653.12	21.06
653.26	0.00
653.41	84.26
653.55	9.36
653.70	37.45
653.84	35.11
653.99	0.00
654.13	4.68
654.27	0.00
654.42	53.83
654.56	35.11
654.71	0.00
654.85	23.41
655.00	0.00
655.14	14.04
655.29	58.51
655.43	44.47
655.57	28.09
655.72	7.02
655.86	21.06
656.01	37.45
656.15	77.24
656.30	28.09
656.44	4.68
656.58	77.24
656.73	0.00
656.87	4.68
657.01	0.00
657.16	46.81
657.30	65.54
657.45	93.62
657.59	0.00
657.73	16.38
657.88	7.02
658.02	67.88
658.16	0.00
658.31	124.05
658.45	35.11
658.60	30.43
658.74	77.24
658.88	56.17
659.03	51.49
659.17	0.00
659.31	0.00
659.46	0.00
659.60	0.00
659.74	86.60
659.89	0.00
660.03	84.26
660.17	77.24
660.32	18.72
660.46	77.24
660.60	70.22
660.74	0.00
660.89	16.38
661.03	14.04
661.17	0.00
661.32	4.68
661.46	0.00
661.60	0.00
661.74	0.00
661.89	0.00
662.03	60.85
662.17	0.00
662.31	11.70
662.46	9.36
662.60	37.45
662.74	9.36
662.88	72.56
663.03	30.43
663.17	42.13
663.31	0.00
663.45	14.04
663.60	81.92
663.74	32.77
663.88	46.81
664.02	39.79
664.17	56.17
664.31	0.00
664.45	9.36
664.59	42.13
664.73	39.79
664.88	79.58
665.02	51.49
665.16	72.56
665.30	9.36
665.44	44.47
665.59	30.43
665.73	91.28
665.87	2.34
666.01	63.19
666.15	23.41
666.29	72.56
666.44	51.49
666.58	105.32
666.72	0.00
666.86	56.17
667.00	23.41
667.14	74.90
667.28	51.49
667.43	39.79
667.57	30.43
667.71	0.00
667.85	42.13
667.99	65.54
668.13	0.00
668.27	23.41
668.41	56.17
668.56	49.15
668.70	0.00
668.84	18.72
668.98	95.96
669.12	9.36
669.26	93.62
669.40	67.88
669.54	86.60
669.68	65.54
669.82	11.70
669.96	0.00
670.10	14.04
670.25	32.77
670.39	74.90
670.53	23.41
670.67	110.01
670.81	53.83
670.95	9.36
671.09	0.00
671.23	63.19
671.37	14.04
671.51	14.04
671.65	107.66
671.79	11.70
671.93	39.79
672.07	37.45
672.21	46.81
672.35	67.88
672.49	56.17
672.63	0.00
672.77	60.85
672.91	67.88
673.05	30.43
673.19	25.75
673.33	18.72
673.47	84.26
673.61	32.77
673.75	35.11
673.89	25.75
674.03	30.43
674.17	67.88
674.31	140.43
674.45	49.15
674.59	56.17
674.73	0.00
674.87	42.13
675.01	0.00
675.15	0.00
675.29	70.22
675.43	51.49
675.56	58.51
675.70	35.11
675.84	23.41
675.98	74.90
676.12	0.00
676.26	0.00
676.40	77.24
676.54	51.49
676.68	142.77
676.82	51.49
676.96	0.00
677.10	32.77
677.23	51.49
677.37	0.00
677.51	42.13
677.65	35.11
677.79	56.17
677.93	14.04
678.07	21.06
678.21	0.00
678.34	56.17
678.48	32.77
678.62	30.43
678.76	37.45
678.90	0.00
679.04	0.00
679.18	16.38
679.31	25.75
679.45	149.79
679.59	23.41
679.73	65.54
679.87	46.81
680.00	131.07
680.14	21.06
680.28	11.70
680.42	65.54
680.56	18.72
680.70	35.11
680.83	2.34
680.97	63.19
681.11	0.00
681.25	0.00
681.39	18.72
681.52	46.81
681.66	0.00
681.80	98.30
681.94	63.19
682.07	84.26
682.21	0.00
682.35	4.68
682.49	0.00
682.62	58.51
682.76	21.06
682.90	0.00
683.04	7.02
683.17	4.68
683.31	84.26
683.45	58.51
683.59	121.71
683.72	74.90
683.86	21.06
684.00	30.43
684.13	0.00
684.27	105.32
684.41	0.00
684.55	51.49
684.68	37.45
684.82	39.79
684.96	42.13
685.09	0.00
685.23	25.75
685.37	44.47
685.50	88.94
685.64	23.41
685.78	46.81
685.91	39.79
686.05	56.17
686.19	32.77
686.32	42.13
686.46	9.36
686.60	0.00
686.73	37.45
686.87	44.47
687.01	14.04
687.14	0.00
687.28	0.00
687.42	39.79
687.55	37.45
687.69	9.36
687.82	2.34
687.96	0.00
688.10	28.09
688.23	56.17
688.37	74.90
688.50	0.00
688.64	44.47
688.78	32.77
688.91	0.00
689.05	0.00
689.18	53.83
689.32	0.00
689.46	18.72
689.59	42.13
689.73	77.24
689.86	39.79
690.00	0.00
690.13	65.54
690.27	37.45
690.41	0.00
690.54	51.49
690.68	23.41
690.81	65.54
690.95	88.94
691.08	53.83
691.22	49.15
691.35	39.79
691.49	39.79
691.62	0.00
691.76	117.03
691.89	30.43
692.03	18.72
692.16	0.00
692.30	88.94
692.43	35.11
692.57	53.83
692.70	46.81
692.84	77.24
692.97	39.79
693.11	42.13
693.24	32.77
693.38	35.11
693.51	25.75
693.65	53.83
693.78	72.56
693.92	9.36
694.05	0.00
694.19	21.06
694.32	0.00
694.45	53.83
694.59	23.41
694.72	77.24
694.86	7.02
694.99	81.92
695.13	0.00
695.26	30.43
695.39	28.09
695.53	21.06
695.66	42.13
695.80	23.41
695.93	49.15
696.07	42.13
696.20	91.28
696.33	46.81
696.47	18.72
696.60	63.19
696.73	72.56
696.87	18.72
697.00	46.81
697.14	77.24
697.27	0.00
697.40	81.92
697.54	0.00
697.67	70.22
697.80	44.47
697.94	16.38
698.07	0.00
698.21	37.45
698.34	53.83
698.47	65.54
698.61	53.83
698.74	51.49
698.87	51.49
699.01	0.00
699.14	28.09
699.27	95.96
699.40	21.06
699.54	56.17
699.67	39.79
699.80	37.45
699.94	46.81
700.07	0.00
700.20	35.11
700.34	23.41
700.47	70.22
700.60	0.00
700.73	65.54
700.87	37.45
701.00	0.00
701.13	35.11
701.26	79.58
701.40	37.45
701.53	58.51
701.66	0.00
701.79	63.19
701.93	0.00
702.06	0.00
702.19	58.51
702.32	58.51
702.46	58.51
702.59	110.01
702.72	88.94
702.85	21.06
702.99	18.72
703.12	11.70
703.25	39.79
703.38	0.00
703.51	67.88
703.65	21.06
703.78	63.19
703.91	21.06
704.04	35.11
704.17	0.00
704.31	0.00
704.44	42.13
704.57	0.00
704.70	16.38
704.83	58.51
704.96	18.72
705.10	18.72
705.23	30.43
>>>>>End Processed Spectral Data<<<<<
