SpectraSuite Data File
++++++++++++++++++++++++++++++++++++
Date: Fri Oct 04 12:13:43 GMT-05:00 2013
User: price-jones
Dark Spectrum Present: No
Reference Spectrum Present: No
Number of Sampled Component Spectra: 1
Spectrometers: USB2+H05261
Integration Time (usec): 10000 (USB2+H05261)
Spectra Averaged: 1 (USB2+H05261)
Boxcar Smoothing: 0 (USB2+H05261)
Correct for Electrical Dark: No (USB2+H05261)
Strobe/Lamp Enabled: No (USB2+H05261)
Correct for Detector Non-linearity: No (USB2+H05261)
Correct for Stray Light: No (USB2+H05261)
Number of Pixels in Processed Spectrum: 2048
>>>>>Begin Processed Spectral Data<<<<<
365.73	0.00
365.92	0.00
366.12	0.00
366.32	0.00
366.52	0.00
366.72	0.00
366.91	0.00
367.11	0.00
367.31	0.00
367.51	0.00
367.70	0.00
367.90	0.00
368.10	0.00
368.30	0.00
368.49	0.00
368.69	0.00
368.89	0.00
369.09	0.00
369.28	0.00
369.48	0.00
369.68	0.00
369.87	0.00
370.07	0.00
370.27	0.00
370.47	0.00
370.66	0.00
370.86	0.00
371.06	0.00
371.25	0.00
371.45	0.00
371.65	0.00
371.84	0.00
372.04	9.36
372.24	0.00
372.44	0.00
372.63	0.00
372.83	0.00
373.03	14.04
373.22	44.47
373.42	0.00
373.62	7.02
373.81	0.00
374.01	98.30
374.21	42.13
374.40	23.41
374.60	70.22
374.79	37.45
374.99	4.68
375.19	60.85
375.38	42.13
375.58	14.04
375.78	98.30
375.97	23.41
376.17	46.81
376.37	9.36
376.56	49.15
376.76	0.00
376.95	58.51
377.15	0.00
377.35	32.77
377.54	0.00
377.74	65.54
377.93	0.00
378.13	14.04
378.33	0.00
378.52	11.70
378.72	60.85
378.91	30.43
379.11	51.49
379.31	18.72
379.50	63.19
379.70	0.00
379.89	42.13
380.09	46.81
380.28	44.47
380.48	107.66
380.68	37.45
380.87	28.09
381.07	25.75
381.26	9.36
381.46	42.13
381.65	0.00
381.85	30.43
382.04	23.41
382.24	9.36
382.43	98.30
382.63	49.15
382.83	53.83
383.02	0.00
383.22	0.00
383.41	0.00
383.61	0.00
383.80	0.00
384.00	88.94
384.19	18.72
384.39	39.79
384.58	2.34
384.78	0.00
384.97	46.81
385.17	65.54
385.36	0.00
385.56	46.81
385.75	14.04
385.95	0.00
386.14	7.02
386.34	21.06
386.53	72.56
386.72	9.36
386.92	84.26
387.11	0.00
387.31	67.88
387.50	23.41
387.70	0.00
387.89	18.72
388.09	0.00
388.28	58.51
388.48	25.75
388.67	0.00
388.86	65.54
389.06	37.45
389.25	21.06
389.45	0.00
389.64	49.15
389.84	81.92
390.03	42.13
390.22	39.79
390.42	39.79
390.61	51.49
390.81	0.00
391.00	32.77
391.19	51.49
391.39	14.04
391.58	28.09
391.78	0.00
391.97	9.36
392.16	46.81
392.36	67.88
392.55	0.00
392.75	37.45
392.94	39.79
393.13	44.47
393.33	9.36
393.52	70.22
393.71	21.06
393.91	16.38
394.10	117.03
394.29	7.02
394.49	30.43
394.68	30.43
394.88	18.72
395.07	46.81
395.26	30.43
395.46	37.45
395.65	0.00
395.84	9.36
396.04	0.00
396.23	9.36
396.42	72.56
396.62	56.17
396.81	60.85
397.00	67.88
397.19	7.02
397.39	0.00
397.58	44.47
397.77	67.88
397.97	56.17
398.16	0.00
398.35	0.00
398.55	74.90
398.74	100.64
398.93	91.28
399.12	35.11
399.32	93.62
399.51	11.70
399.70	32.77
399.90	28.09
400.09	37.45
400.28	74.90
400.47	39.79
400.67	0.00
400.86	35.11
401.05	79.58
401.24	25.75
401.44	65.54
401.63	65.54
401.82	23.41
402.01	11.70
402.21	0.00
402.40	16.38
402.59	60.85
402.78	18.72
402.97	53.83
403.17	9.36
403.36	63.19
403.55	0.00
403.74	56.17
403.93	0.00
404.13	7.02
404.32	63.19
404.51	107.66
404.70	0.00
404.89	0.00
405.09	53.83
405.28	0.00
405.47	0.00
405.66	16.38
405.85	107.66
406.05	35.11
406.24	21.06
406.43	0.00
406.62	16.38
406.81	67.88
407.00	77.24
407.20	84.26
407.39	58.51
407.58	16.38
407.77	37.45
407.96	100.64
408.15	0.00
408.34	23.41
408.54	25.75
408.73	9.36
408.92	28.09
409.11	30.43
409.30	0.00
409.49	4.68
409.68	0.00
409.87	77.24
410.07	30.43
410.26	0.00
410.45	7.02
410.64	4.68
410.83	51.49
411.02	14.04
411.21	44.47
411.40	88.94
411.59	46.81
411.78	0.00
411.98	53.83
412.17	53.83
412.36	30.43
412.55	51.49
412.74	93.62
412.93	86.60
413.12	100.64
413.31	60.85
413.50	63.19
413.69	98.30
413.88	0.00
414.07	0.00
414.26	44.47
414.45	2.34
414.64	39.79
414.83	0.00
415.02	149.79
415.22	23.41
415.41	128.73
415.60	60.85
415.79	14.04
415.98	67.88
416.17	0.00
416.36	65.54
416.55	16.38
416.74	124.05
416.93	30.43
417.12	63.19
417.31	42.13
417.50	32.77
417.69	25.75
417.88	30.43
418.07	39.79
418.26	51.49
418.45	21.06
418.64	72.56
418.83	67.88
419.02	84.26
419.21	65.54
419.39	56.17
419.58	37.45
419.77	81.92
419.96	60.85
420.15	88.94
420.34	21.06
420.53	0.00
420.72	65.54
420.91	60.85
421.10	44.47
421.29	37.45
421.48	39.79
421.67	100.64
421.86	16.38
422.05	42.13
422.24	49.15
422.43	37.45
422.61	4.68
422.80	18.72
422.99	95.96
423.18	35.11
423.37	18.72
423.56	32.77
423.75	4.68
423.94	39.79
424.13	53.83
424.32	84.26
424.50	0.00
424.69	0.00
424.88	119.37
425.07	4.68
425.26	18.72
425.45	35.11
425.64	16.38
425.83	0.00
426.01	100.64
426.20	0.00
426.39	51.49
426.58	35.11
426.77	79.58
426.96	91.28
427.15	0.00
427.33	4.68
427.52	60.85
427.71	0.00
427.90	110.01
428.09	21.06
428.28	0.00
428.46	56.17
428.65	30.43
428.84	58.51
429.03	77.24
429.22	0.00
429.40	42.13
429.59	84.26
429.78	60.85
429.97	81.92
430.16	58.51
430.34	28.09
430.53	0.00
430.72	77.24
430.91	95.96
431.10	67.88
431.28	91.28
431.47	7.02
431.66	79.58
431.85	72.56
432.03	37.45
432.22	93.62
432.41	0.00
432.60	49.15
432.79	84.26
432.97	117.03
433.16	0.00
433.35	0.00
433.54	65.54
433.72	16.38
433.91	133.41
434.10	51.49
434.28	39.79
434.47	67.88
434.66	53.83
434.85	37.45
435.03	93.62
435.22	18.72
435.41	93.62
435.59	88.94
435.78	88.94
435.97	84.26
436.16	0.00
436.34	91.28
436.53	0.00
436.72	44.47
436.90	88.94
437.09	42.13
437.28	77.24
437.46	93.62
437.65	49.15
437.84	88.94
438.02	25.75
438.21	25.75
438.40	2.34
438.58	77.24
438.77	112.35
438.96	42.13
439.14	23.41
439.33	49.15
439.52	88.94
439.70	0.00
439.89	49.15
440.08	72.56
440.26	42.13
440.45	35.11
440.63	21.06
440.82	39.79
441.01	70.22
441.19	46.81
441.38	0.00
441.57	23.41
441.75	42.13
441.94	25.75
442.12	51.49
442.31	49.15
442.50	0.00
442.68	11.70
442.87	67.88
443.05	0.00
443.24	60.85
443.43	63.19
443.61	42.13
443.80	32.77
443.98	91.28
444.17	58.51
444.35	84.26
444.54	51.49
444.73	28.09
444.91	53.83
445.10	81.92
445.28	110.01
445.47	70.22
445.65	37.45
445.84	67.88
446.02	14.04
446.21	131.07
446.39	60.85
446.58	14.04
446.77	70.22
446.95	14.04
447.14	42.13
447.32	133.41
447.51	28.09
447.69	53.83
447.88	28.09
448.06	9.36
448.25	49.15
448.43	63.19
448.62	37.45
448.80	65.54
448.99	124.05
449.17	60.85
449.36	65.54
449.54	39.79
449.73	67.88
449.91	60.85
450.10	65.54
450.28	30.43
450.46	81.92
450.65	18.72
450.83	32.77
451.02	81.92
451.20	100.64
451.39	56.17
451.57	65.54
451.76	18.72
451.94	84.26
452.13	81.92
452.31	70.22
452.49	44.47
452.68	131.07
452.86	98.30
453.05	14.04
453.23	79.58
453.42	65.54
453.60	79.58
453.78	81.92
453.97	84.26
454.15	42.13
454.34	21.06
454.52	23.41
454.70	44.47
454.89	58.51
455.07	58.51
455.26	100.64
455.44	98.30
455.62	77.24
455.81	114.69
455.99	112.35
456.17	156.82
456.36	56.17
456.54	72.56
456.73	46.81
456.91	170.86
457.09	49.15
457.28	39.79
457.46	18.72
457.64	11.70
457.83	88.94
458.01	21.06
458.19	65.54
458.38	25.75
458.56	72.56
458.74	30.43
458.93	25.75
459.11	110.01
459.29	74.90
459.48	0.00
459.66	18.72
459.84	49.15
460.03	86.60
460.21	84.26
460.39	25.75
460.57	81.92
460.76	105.32
460.94	173.20
461.12	42.13
461.31	86.60
461.49	35.11
461.67	79.58
461.85	25.75
462.04	4.68
462.22	88.94
462.40	110.01
462.59	42.13
462.77	70.22
462.95	53.83
463.13	51.49
463.32	58.51
463.50	0.00
463.68	72.56
463.86	16.38
464.05	0.00
464.23	21.06
464.41	32.77
464.59	39.79
464.78	25.75
464.96	44.47
465.14	44.47
465.32	114.69
465.50	49.15
465.69	25.75
465.87	84.26
466.05	98.30
466.23	0.00
466.41	0.00
466.60	60.85
466.78	23.41
466.96	39.79
467.14	74.90
467.32	30.43
467.51	72.56
467.69	42.13
467.87	67.88
468.05	30.43
468.23	42.13
468.41	25.75
468.60	110.01
468.78	84.26
468.96	98.30
469.14	67.88
469.32	79.58
469.50	53.83
469.69	88.94
469.87	81.92
470.05	46.81
470.23	95.96
470.41	0.00
470.59	110.01
470.77	98.30
470.95	30.43
471.14	65.54
471.32	30.43
471.50	32.77
471.68	32.77
471.86	63.19
472.04	51.49
472.22	65.54
472.40	18.72
472.58	105.32
472.77	9.36
472.95	46.81
473.13	37.45
473.31	86.60
473.49	49.15
473.67	65.54
473.85	37.45
474.03	77.24
474.21	74.90
474.39	77.24
474.57	0.00
474.75	114.69
474.93	56.17
475.12	37.45
475.30	0.00
475.48	58.51
475.66	49.15
475.84	95.96
476.02	138.09
476.20	81.92
476.38	37.45
476.56	100.64
476.74	112.35
476.92	65.54
477.10	58.51
477.28	49.15
477.46	25.75
477.64	28.09
477.82	0.00
478.00	67.88
478.18	60.85
478.36	37.45
478.54	58.51
478.72	70.22
478.90	70.22
479.08	86.60
479.26	74.90
479.44	175.54
479.62	9.36
479.80	39.79
479.98	51.49
480.16	9.36
480.34	81.92
480.52	37.45
480.70	67.88
480.88	98.30
481.06	63.19
481.24	110.01
481.41	63.19
481.59	28.09
481.77	25.75
481.95	44.47
482.13	46.81
482.31	32.77
482.49	51.49
482.67	21.06
482.85	112.35
483.03	65.54
483.21	142.77
483.39	140.43
483.57	98.30
483.74	124.05
483.92	49.15
484.10	67.88
484.28	95.96
484.46	105.32
484.64	58.51
484.82	0.00
485.00	112.35
485.18	110.01
485.35	30.43
485.53	35.11
485.71	121.71
485.89	100.64
486.07	65.54
486.25	126.39
486.43	9.36
486.61	39.79
486.78	119.37
486.96	98.30
487.14	128.73
487.32	63.19
487.50	56.17
487.68	23.41
487.85	86.60
488.03	124.05
488.21	72.56
488.39	46.81
488.57	84.26
488.75	93.62
488.92	124.05
489.10	49.15
489.28	126.39
489.46	84.26
489.64	60.85
489.81	74.90
489.99	81.92
490.17	74.90
490.35	124.05
490.53	159.16
490.70	128.73
490.88	86.60
491.06	51.49
491.24	74.90
491.41	74.90
491.59	100.64
491.77	25.75
491.95	32.77
492.13	100.64
492.30	58.51
492.48	0.00
492.66	70.22
492.84	72.56
493.01	121.71
493.19	67.88
493.37	88.94
493.54	107.66
493.72	51.49
493.90	88.94
494.08	135.75
494.25	72.56
494.43	65.54
494.61	56.17
494.79	81.92
494.96	88.94
495.14	124.05
495.32	53.83
495.49	18.72
495.67	35.11
495.85	74.90
496.02	102.98
496.20	44.47
496.38	133.41
496.55	102.98
496.73	56.17
496.91	35.11
497.09	9.36
497.26	11.70
497.44	79.58
497.62	110.01
497.79	81.92
497.97	77.24
498.14	77.24
498.32	4.68
498.50	25.75
498.67	77.24
498.85	107.66
499.03	16.38
499.20	107.66
499.38	93.62
499.56	21.06
499.73	79.58
499.91	88.94
500.08	93.62
500.26	138.09
500.44	72.56
500.61	100.64
500.79	105.32
500.97	30.43
501.14	119.37
501.32	105.32
501.49	60.85
501.67	35.11
501.84	49.15
502.02	60.85
502.20	91.28
502.37	30.43
502.55	0.00
502.72	72.56
502.90	105.32
503.07	86.60
503.25	117.03
503.43	42.13
503.60	37.45
503.78	79.58
503.95	0.00
504.13	32.77
504.30	79.58
504.48	53.83
504.65	124.05
504.83	131.07
505.01	100.64
505.18	93.62
505.36	131.07
505.53	91.28
505.71	49.15
505.88	145.11
506.06	114.69
506.23	88.94
506.41	56.17
506.58	161.50
506.76	79.58
506.93	65.54
507.11	107.66
507.28	105.32
507.46	60.85
507.63	128.73
507.81	44.47
507.98	124.05
508.16	0.00
508.33	86.60
508.50	128.73
508.68	37.45
508.85	91.28
509.03	67.88
509.20	173.20
509.38	84.26
509.55	51.49
509.73	86.60
509.90	46.81
510.08	44.47
510.25	119.37
510.42	58.51
510.60	56.17
510.77	100.64
510.95	65.54
511.12	126.39
511.30	107.66
511.47	65.54
511.64	72.56
511.82	107.66
511.99	70.22
512.17	58.51
512.34	51.49
512.51	49.15
512.69	72.56
512.86	105.32
513.04	112.35
513.21	114.69
513.38	107.66
513.56	95.96
513.73	166.18
513.90	86.60
514.08	70.22
514.25	53.83
514.43	42.13
514.60	72.56
514.77	84.26
514.95	140.43
515.12	112.35
515.29	65.54
515.47	152.13
515.64	95.96
515.81	74.90
515.99	107.66
516.16	112.35
516.33	74.90
516.51	86.60
516.68	95.96
516.85	128.73
517.03	117.03
517.20	70.22
517.37	124.05
517.54	102.98
517.72	28.09
517.89	135.75
518.06	105.32
518.24	102.98
518.41	102.98
518.58	77.24
518.75	114.69
518.93	79.58
519.10	53.83
519.27	63.19
519.45	147.45
519.62	170.86
519.79	72.56
519.96	98.30
520.14	65.54
520.31	88.94
520.48	156.82
520.65	21.06
520.83	177.88
521.00	124.05
521.17	65.54
521.34	156.82
521.52	65.54
521.69	86.60
521.86	194.26
522.03	145.11
522.20	131.07
522.38	93.62
522.55	114.69
522.72	67.88
522.89	100.64
523.07	84.26
523.24	74.90
523.41	74.90
523.58	42.13
523.75	91.28
523.92	77.24
524.10	81.92
524.27	84.26
524.44	102.98
524.61	107.66
524.78	35.11
524.96	84.26
525.13	42.13
525.30	74.90
525.47	95.96
525.64	35.11
525.81	117.03
525.98	93.62
526.16	65.54
526.33	28.09
526.50	112.35
526.67	79.58
526.84	107.66
527.01	117.03
527.18	23.41
527.36	126.39
527.53	91.28
527.70	105.32
527.87	124.05
528.04	145.11
528.21	98.30
528.38	91.28
528.55	145.11
528.72	107.66
528.89	107.66
529.07	74.90
529.24	107.66
529.41	95.96
529.58	28.09
529.75	77.24
529.92	14.04
530.09	88.94
530.26	63.19
530.43	107.66
530.60	119.37
530.77	77.24
530.94	117.03
531.11	93.62
531.28	79.58
531.46	203.63
531.63	112.35
531.80	124.05
531.97	98.30
532.14	88.94
532.31	79.58
532.48	16.38
532.65	63.19
532.82	58.51
532.99	74.90
533.16	81.92
533.33	112.35
533.50	93.62
533.67	84.26
533.84	74.90
534.01	53.83
534.18	112.35
534.35	79.58
534.52	93.62
534.69	124.05
534.86	168.52
535.03	91.28
535.20	110.01
535.37	107.66
535.54	152.13
535.71	74.90
535.88	126.39
536.05	102.98
536.22	74.90
536.38	126.39
536.55	88.94
536.72	84.26
536.89	81.92
537.06	117.03
537.23	133.41
537.40	203.63
537.57	110.01
537.74	140.43
537.91	154.48
538.08	32.77
538.25	95.96
538.42	93.62
538.59	152.13
538.75	58.51
538.92	35.11
539.09	133.41
539.26	42.13
539.43	114.69
539.60	105.32
539.77	105.32
539.94	72.56
540.11	84.26
540.28	107.66
540.44	49.15
540.61	72.56
540.78	131.07
540.95	95.96
541.12	25.75
541.29	72.56
541.46	74.90
541.62	86.60
541.79	56.17
541.96	72.56
542.13	154.48
542.30	65.54
542.47	91.28
542.63	0.00
542.80	44.47
542.97	42.13
543.14	42.13
543.31	74.90
543.48	105.32
543.64	112.35
543.81	7.02
543.98	107.66
544.15	70.22
544.32	135.75
544.48	107.66
544.65	117.03
544.82	100.64
544.99	51.49
545.16	124.05
545.32	79.58
545.49	9.36
545.66	105.32
545.83	44.47
546.00	105.32
546.16	93.62
546.33	84.26
546.50	105.32
546.67	93.62
546.83	112.35
547.00	100.64
547.17	128.73
547.34	84.26
547.50	121.71
547.67	4.68
547.84	110.01
548.00	117.03
548.17	102.98
548.34	86.60
548.51	49.15
548.67	53.83
548.84	77.24
549.01	74.90
549.18	117.03
549.34	117.03
549.51	88.94
549.68	198.95
549.84	42.13
550.01	56.17
550.18	81.92
550.34	95.96
550.51	9.36
550.68	114.69
550.84	107.66
551.01	95.96
551.18	53.83
551.34	98.30
551.51	30.43
551.68	60.85
551.84	63.19
552.01	93.62
552.18	70.22
552.34	88.94
552.51	98.30
552.68	100.64
552.84	93.62
553.01	140.43
553.18	119.37
553.34	46.81
553.51	91.28
553.67	72.56
553.84	145.11
554.01	46.81
554.17	119.37
554.34	53.83
554.51	98.30
554.67	145.11
554.84	126.39
555.00	79.58
555.17	107.66
555.33	201.29
555.50	119.37
555.67	145.11
555.83	91.28
556.00	60.85
556.16	154.48
556.33	16.38
556.50	107.66
556.66	98.30
556.83	60.85
556.99	70.22
557.16	63.19
557.32	42.13
557.49	112.35
557.65	77.24
557.82	56.17
557.98	110.01
558.15	79.58
558.32	110.01
558.48	145.11
558.65	135.75
558.81	0.00
558.98	25.75
559.14	79.58
559.31	88.94
559.47	72.56
559.64	93.62
559.80	112.35
559.97	63.19
560.13	70.22
560.30	91.28
560.46	135.75
560.63	58.51
560.79	88.94
560.96	84.26
561.12	67.88
561.29	93.62
561.45	63.19
561.61	98.30
561.78	53.83
561.94	126.39
562.11	67.88
562.27	74.90
562.44	14.04
562.60	58.51
562.77	35.11
562.93	79.58
563.10	72.56
563.26	25.75
563.42	102.98
563.59	100.64
563.75	88.94
563.92	168.52
564.08	51.49
564.24	81.92
564.41	128.73
564.57	60.85
564.74	84.26
564.90	25.75
565.07	93.62
565.23	140.43
565.39	37.45
565.56	100.64
565.72	138.09
565.88	65.54
566.05	42.13
566.21	105.32
566.38	60.85
566.54	42.13
566.70	67.88
566.87	86.60
567.03	98.30
567.19	49.15
567.36	102.98
567.52	88.94
567.68	117.03
567.85	81.92
568.01	49.15
568.17	21.06
568.34	58.51
568.50	56.17
568.66	23.41
568.83	42.13
568.99	53.83
569.15	100.64
569.32	133.41
569.48	145.11
569.64	44.47
569.81	84.26
569.97	81.92
570.13	133.41
570.30	124.05
570.46	39.79
570.62	149.79
570.78	135.75
570.95	46.81
571.11	107.66
571.27	86.60
571.43	95.96
571.60	81.92
571.76	58.51
571.92	35.11
572.09	60.85
572.25	88.94
572.41	65.54
572.57	81.92
572.74	56.17
572.90	67.88
573.06	44.47
573.22	135.75
573.38	121.71
573.55	37.45
573.71	91.28
573.87	81.92
574.03	44.47
574.20	145.11
574.36	72.56
574.52	124.05
574.68	58.51
574.84	39.79
575.01	95.96
575.17	58.51
575.33	56.17
575.49	84.26
575.65	42.13
575.82	81.92
575.98	67.88
576.14	86.60
576.30	98.30
576.46	9.36
576.62	128.73
576.79	107.66
576.95	7.02
577.11	39.79
577.27	93.62
577.43	25.75
577.59	51.49
577.75	77.24
577.92	110.01
578.08	131.07
578.24	46.81
578.40	95.96
578.56	63.19
578.72	37.45
578.88	126.39
579.04	53.83
579.21	142.77
579.37	79.58
579.53	124.05
579.69	124.05
579.85	93.62
580.01	86.60
580.17	35.11
580.33	81.92
580.49	121.71
580.65	102.98
580.82	56.17
580.98	91.28
581.14	100.64
581.30	142.77
581.46	7.02
581.62	93.62
581.78	145.11
581.94	46.81
582.10	102.98
582.26	72.56
582.42	110.01
582.58	51.49
582.74	42.13
582.90	93.62
583.06	65.54
583.22	126.39
583.38	168.52
583.54	124.05
583.70	119.37
583.86	98.30
584.02	42.13
584.18	70.22
584.34	70.22
584.50	72.56
584.66	60.85
584.82	37.45
584.98	65.54
585.14	39.79
585.30	44.47
585.46	49.15
585.62	86.60
585.78	88.94
585.94	91.28
586.10	121.71
586.26	88.94
586.42	105.32
586.58	105.32
586.74	65.54
586.90	79.58
587.06	77.24
587.22	9.36
587.38	7.02
587.54	37.45
587.70	4.68
587.86	28.09
588.02	14.04
588.18	44.47
588.34	65.54
588.49	30.43
588.65	51.49
588.81	23.41
588.97	65.54
589.13	65.54
589.29	44.47
589.45	117.03
589.61	58.51
589.77	51.49
589.93	100.64
590.08	58.51
590.24	42.13
590.40	105.32
590.56	51.49
590.72	77.24
590.88	35.11
591.04	119.37
591.20	77.24
591.35	131.07
591.51	100.64
591.67	53.83
591.83	72.56
591.99	77.24
592.15	72.56
592.31	86.60
592.46	56.17
592.62	74.90
592.78	46.81
592.94	63.19
593.10	58.51
593.26	72.56
593.41	88.94
593.57	117.03
593.73	152.13
593.89	102.98
594.05	119.37
594.20	67.88
594.36	95.96
594.52	28.09
594.68	65.54
594.84	53.83
594.99	128.73
595.15	2.34
595.31	93.62
595.47	23.41
595.62	65.54
595.78	51.49
595.94	81.92
596.10	37.45
596.25	79.58
596.41	91.28
596.57	119.37
596.73	84.26
596.88	105.32
597.04	72.56
597.20	98.30
597.36	67.88
597.51	35.11
597.67	98.30
597.83	67.88
597.99	51.49
598.14	95.96
598.30	11.70
598.46	58.51
598.61	98.30
598.77	81.92
598.93	21.06
599.09	135.75
599.24	46.81
599.40	100.64
599.56	74.90
599.71	95.96
599.87	98.30
600.03	135.75
600.18	88.94
600.34	84.26
600.50	133.41
600.65	74.90
600.81	74.90
600.97	44.47
601.12	121.71
601.28	95.96
601.44	42.13
601.59	77.24
601.75	93.62
601.91	98.30
602.06	35.11
602.22	77.24
602.37	91.28
602.53	37.45
602.69	79.58
602.84	147.45
603.00	102.98
603.16	117.03
603.31	159.16
603.47	46.81
603.62	25.75
603.78	39.79
603.94	147.45
604.09	131.07
604.25	67.88
604.40	77.24
604.56	44.47
604.71	72.56
604.87	35.11
605.03	131.07
605.18	60.85
605.34	42.13
605.49	81.92
605.65	53.83
605.80	88.94
605.96	93.62
606.12	114.69
606.27	65.54
606.43	112.35
606.58	74.90
606.74	28.09
606.89	128.73
607.05	88.94
607.20	77.24
607.36	152.13
607.51	131.07
607.67	46.81
607.82	152.13
607.98	77.24
608.13	100.64
608.29	21.06
608.44	74.90
608.60	86.60
608.75	114.69
608.91	102.98
609.06	51.49
609.22	81.92
609.37	93.62
609.53	67.88
609.68	91.28
609.84	112.35
609.99	42.13
610.15	86.60
610.30	95.96
610.46	23.41
610.61	39.79
610.76	163.84
610.92	100.64
611.07	51.49
611.23	102.98
611.38	49.15
611.54	53.83
611.69	0.00
611.84	60.85
612.00	28.09
612.15	16.38
612.31	91.28
612.46	7.02
612.62	49.15
612.77	51.49
612.92	60.85
613.08	93.62
613.23	37.45
613.39	0.00
613.54	145.11
613.69	44.47
613.85	14.04
614.00	28.09
614.15	105.32
614.31	58.51
614.46	81.92
614.62	112.35
614.77	67.88
614.92	77.24
615.08	42.13
615.23	110.01
615.38	72.56
615.54	46.81
615.69	14.04
615.84	100.64
616.00	35.11
616.15	30.43
616.30	126.39
616.46	131.07
616.61	131.07
616.76	81.92
616.92	63.19
617.07	88.94
617.22	110.01
617.37	114.69
617.53	9.36
617.68	46.81
617.83	46.81
617.99	49.15
618.14	133.41
618.29	67.88
618.45	100.64
618.60	23.41
618.75	117.03
618.90	21.06
619.06	86.60
619.21	39.79
619.36	74.90
619.51	86.60
619.67	93.62
619.82	0.00
619.97	91.28
620.12	28.09
620.28	30.43
620.43	39.79
620.58	128.73
620.73	35.11
620.89	63.19
621.04	112.35
621.19	145.11
621.34	67.88
621.49	56.17
621.65	2.34
621.80	44.47
621.95	67.88
622.10	49.15
622.25	30.43
622.41	49.15
622.56	56.17
622.71	65.54
622.86	28.09
623.01	102.98
623.16	58.51
623.32	58.51
623.47	110.01
623.62	58.51
623.77	0.00
623.92	79.58
624.07	4.68
624.23	86.60
624.38	67.88
624.53	30.43
624.68	37.45
624.83	53.83
624.98	53.83
625.13	65.54
625.29	77.24
625.44	110.01
625.59	49.15
625.74	95.96
625.89	0.00
626.04	0.00
626.19	77.24
626.34	28.09
626.49	79.58
626.65	28.09
626.80	86.60
626.95	114.69
627.10	16.38
627.25	63.19
627.40	70.22
627.55	79.58
627.70	70.22
627.85	46.81
628.00	65.54
628.15	77.24
628.30	46.81
628.45	124.05
628.60	60.85
628.76	79.58
628.91	46.81
629.06	77.24
629.21	156.82
629.36	133.41
629.51	51.49
629.66	60.85
629.81	7.02
629.96	88.94
630.11	56.17
630.26	128.73
630.41	117.03
630.56	114.69
630.71	53.83
630.86	67.88
631.01	42.13
631.16	93.62
631.31	30.43
631.46	74.90
631.61	9.36
631.76	49.15
631.91	21.06
632.06	77.24
632.21	102.98
632.36	23.41
632.51	86.60
632.66	135.75
632.81	58.51
632.96	58.51
633.10	0.00
633.25	112.35
633.40	42.13
633.55	51.49
633.70	56.17
633.85	49.15
634.00	72.56
634.15	0.00
634.30	18.72
634.45	100.64
634.60	105.32
634.75	100.64
634.90	110.01
635.05	42.13
635.19	49.15
635.34	56.17
635.49	63.19
635.64	67.88
635.79	58.51
635.94	42.13
636.09	65.54
636.24	117.03
636.39	58.51
636.53	81.92
636.68	35.11
636.83	0.00
636.98	72.56
637.13	67.88
637.28	11.70
637.43	110.01
637.57	60.85
637.72	93.62
637.87	93.62
638.02	63.19
638.17	32.77
638.32	46.81
638.46	95.96
638.61	77.24
638.76	25.75
638.91	25.75
639.06	70.22
639.20	72.56
639.35	102.98
639.50	126.39
639.65	74.90
639.80	86.60
639.94	72.56
640.09	39.79
640.24	107.66
640.39	60.85
640.54	0.00
640.68	77.24
640.83	32.77
640.98	32.77
641.13	9.36
641.27	23.41
641.42	25.75
641.57	121.71
641.72	95.96
641.86	23.41
642.01	74.90
642.16	77.24
642.31	23.41
642.45	44.47
642.60	93.62
642.75	77.24
642.90	0.00
643.04	39.79
643.19	126.39
643.34	77.24
643.48	53.83
643.63	44.47
643.78	107.66
643.93	93.62
644.07	53.83
644.22	70.22
644.37	74.90
644.51	124.05
644.66	93.62
644.81	77.24
644.95	98.30
645.10	79.58
645.25	56.17
645.39	49.15
645.54	81.92
645.69	56.17
645.83	86.60
645.98	107.66
646.13	107.66
646.27	105.32
646.42	44.47
646.57	30.43
646.71	58.51
646.86	37.45
647.00	25.75
647.15	53.83
647.30	63.19
647.44	60.85
647.59	16.38
647.74	77.24
647.88	0.00
648.03	18.72
648.17	42.13
648.32	56.17
648.47	79.58
648.61	18.72
648.76	53.83
648.90	0.00
649.05	25.75
649.20	98.30
649.34	21.06
649.49	65.54
649.63	7.02
649.78	74.90
649.92	37.45
650.07	21.06
650.21	65.54
650.36	49.15
650.51	63.19
650.65	93.62
650.80	60.85
650.94	0.00
651.09	51.49
651.23	88.94
651.38	91.28
651.52	70.22
651.67	30.43
651.81	98.30
651.96	49.15
652.10	77.24
652.25	28.09
652.39	37.45
652.54	37.45
652.68	32.77
652.83	37.45
652.97	39.79
653.12	56.17
653.26	30.43
653.41	25.75
653.55	74.90
653.70	42.13
653.84	49.15
653.99	16.38
654.13	91.28
654.27	25.75
654.42	91.28
654.56	53.83
654.71	79.58
654.85	37.45
655.00	28.09
655.14	37.45
655.29	95.96
655.43	79.58
655.57	32.77
655.72	25.75
655.86	67.88
656.01	70.22
656.15	58.51
656.30	30.43
656.44	79.58
656.58	0.00
656.73	0.00
656.87	25.75
657.01	42.13
657.16	65.54
657.30	9.36
657.45	39.79
657.59	14.04
657.73	49.15
657.88	91.28
658.02	65.54
658.16	91.28
658.31	117.03
658.45	0.00
658.60	32.77
658.74	4.68
658.88	98.30
659.03	79.58
659.17	65.54
659.31	121.71
659.46	102.98
659.60	37.45
659.74	9.36
659.89	131.07
660.03	98.30
660.17	91.28
660.32	39.79
660.46	0.00
660.60	9.36
660.74	16.38
660.89	63.19
661.03	42.13
661.17	21.06
661.32	51.49
661.46	0.00
661.60	14.04
661.74	23.41
661.89	42.13
662.03	11.70
662.17	32.77
662.31	18.72
662.46	88.94
662.60	32.77
662.74	46.81
662.88	23.41
663.03	49.15
663.17	51.49
663.31	77.24
663.45	28.09
663.60	70.22
663.74	53.83
663.88	32.77
664.02	110.01
664.17	117.03
664.31	46.81
664.45	81.92
664.59	56.17
664.73	93.62
664.88	16.38
665.02	84.26
665.16	14.04
665.30	112.35
665.44	30.43
665.59	67.88
665.73	28.09
665.87	53.83
666.01	77.24
666.15	63.19
666.29	49.15
666.44	37.45
666.58	0.00
666.72	42.13
666.86	56.17
667.00	63.19
667.14	110.01
667.28	74.90
667.43	44.47
667.57	72.56
667.71	81.92
667.85	23.41
667.99	30.43
668.13	25.75
668.27	46.81
668.41	77.24
668.56	100.64
668.70	79.58
668.84	67.88
668.98	95.96
669.12	28.09
669.26	32.77
669.40	86.60
669.54	72.56
669.68	79.58
669.82	32.77
669.96	0.00
670.10	60.85
670.25	49.15
670.39	65.54
670.53	72.56
670.67	0.00
670.81	28.09
670.95	74.90
671.09	28.09
671.23	42.13
671.37	37.45
671.51	42.13
671.65	84.26
671.79	95.96
671.93	67.88
672.07	60.85
672.21	112.35
672.35	65.54
672.49	74.90
672.63	14.04
672.77	58.51
672.91	0.00
673.05	102.98
673.19	35.11
673.33	98.30
673.47	16.38
673.61	60.85
673.75	32.77
673.89	65.54
674.03	2.34
674.17	37.45
674.31	44.47
674.45	32.77
674.59	60.85
674.73	49.15
674.87	11.70
675.01	30.43
675.15	49.15
675.29	14.04
675.43	30.43
675.56	63.19
675.70	30.43
675.84	44.47
675.98	4.68
676.12	0.00
676.26	133.41
676.40	74.90
676.54	37.45
676.68	84.26
676.82	32.77
676.96	46.81
677.10	65.54
677.23	25.75
677.37	88.94
677.51	46.81
677.65	51.49
677.79	63.19
677.93	112.35
678.07	37.45
678.21	84.26
678.34	117.03
678.48	112.35
678.62	37.45
678.76	100.64
678.90	65.54
679.04	58.51
679.18	77.24
679.31	0.00
679.45	32.77
679.59	84.26
679.73	7.02
679.87	65.54
680.00	35.11
680.14	14.04
680.28	42.13
680.42	0.00
680.56	58.51
680.70	93.62
680.83	32.77
680.97	32.77
681.11	102.98
681.25	0.00
681.39	53.83
681.52	28.09
681.66	84.26
681.80	74.90
681.94	4.68
682.07	124.05
682.21	65.54
682.35	37.45
682.49	25.75
682.62	112.35
682.76	100.64
682.90	46.81
683.04	79.58
683.17	0.00
683.31	44.47
683.45	49.15
683.59	124.05
683.72	58.51
683.86	44.47
684.00	60.85
684.13	30.43
684.27	53.83
684.41	23.41
684.55	49.15
684.68	30.43
684.82	46.81
684.96	37.45
685.09	16.38
685.23	35.11
685.37	79.58
685.50	72.56
685.64	0.00
685.78	51.49
685.91	79.58
686.05	98.30
686.19	28.09
686.32	11.70
686.46	35.11
686.60	70.22
686.73	58.51
686.87	84.26
687.01	79.58
687.14	0.00
687.28	81.92
687.42	77.24
687.55	0.00
687.69	16.38
687.82	140.43
687.96	25.75
688.10	16.38
688.23	81.92
688.37	67.88
688.50	9.36
688.64	86.60
688.78	28.09
688.91	81.92
689.05	67.88
689.18	53.83
689.32	65.54
689.46	63.19
689.59	58.51
689.73	14.04
689.86	119.37
690.00	53.83
690.13	63.19
690.27	23.41
690.41	0.00
690.54	30.43
690.68	93.62
690.81	14.04
690.95	91.28
691.08	39.79
691.22	32.77
691.35	133.41
691.49	77.24
691.62	56.17
691.76	4.68
691.89	37.45
692.03	51.49
692.16	140.43
692.30	42.13
692.43	0.00
692.57	30.43
692.70	67.88
692.84	0.00
692.97	0.00
693.11	60.85
693.24	77.24
693.38	35.11
693.51	53.83
693.65	105.32
693.78	30.43
693.92	79.58
694.05	0.00
694.19	0.00
694.32	49.15
694.45	32.77
694.59	60.85
694.72	39.79
694.86	0.00
694.99	39.79
695.13	77.24
695.26	65.54
695.39	30.43
695.53	39.79
695.66	35.11
695.80	77.24
695.93	79.58
696.07	42.13
696.20	56.17
696.33	28.09
696.47	37.45
696.60	56.17
696.73	39.79
696.87	65.54
697.00	44.47
697.14	65.54
697.27	126.39
697.40	18.72
697.54	86.60
697.67	131.07
697.80	63.19
697.94	35.11
698.07	63.19
698.21	11.70
698.34	35.11
698.47	42.13
698.61	74.90
698.74	100.64
698.87	2.34
699.01	30.43
699.14	49.15
699.27	21.06
699.40	91.28
699.54	102.98
699.67	0.00
699.80	0.00
699.94	0.00
700.07	16.38
700.20	25.75
700.34	42.13
700.47	30.43
700.60	46.81
700.73	91.28
700.87	95.96
701.00	117.03
701.13	72.56
701.26	28.09
701.40	91.28
701.53	11.70
701.66	56.17
701.79	93.62
701.93	67.88
702.06	25.75
702.19	56.17
702.32	0.00
702.46	0.00
702.59	60.85
702.72	35.11
702.85	86.60
702.99	44.47
703.12	39.79
703.25	56.17
703.38	67.88
703.51	39.79
703.65	42.13
703.78	37.45
703.91	58.51
704.04	0.00
704.17	63.19
704.31	16.38
704.44	21.06
704.57	67.88
704.70	49.15
704.83	49.15
704.96	23.41
705.10	44.47
705.23	0.00
>>>>>End Processed Spectral Data<<<<<
