SpectraSuite Data File
++++++++++++++++++++++++++++++++++++
Date: Fri Oct 04 12:13:27 GMT-05:00 2013
User: price-jones
Dark Spectrum Present: No
Reference Spectrum Present: No
Number of Sampled Component Spectra: 1
Spectrometers: USB2+H05261
Integration Time (usec): 10000 (USB2+H05261)
Spectra Averaged: 1 (USB2+H05261)
Boxcar Smoothing: 0 (USB2+H05261)
Correct for Electrical Dark: No (USB2+H05261)
Strobe/Lamp Enabled: No (USB2+H05261)
Correct for Detector Non-linearity: No (USB2+H05261)
Correct for Stray Light: No (USB2+H05261)
Number of Pixels in Processed Spectrum: 2048
>>>>>Begin Processed Spectral Data<<<<<
365.73	49.15
365.92	49.15
366.12	49.15
366.32	0.00
366.52	0.00
366.72	0.00
366.91	0.00
367.11	0.00
367.31	0.00
367.51	0.00
367.70	0.00
367.90	0.00
368.10	0.00
368.30	0.00
368.49	0.00
368.69	0.00
368.89	0.00
369.09	0.00
369.28	0.00
369.48	0.00
369.68	0.00
369.87	0.00
370.07	0.00
370.27	28.09
370.47	0.00
370.66	0.00
370.86	0.00
371.06	0.00
371.25	0.00
371.45	0.00
371.65	7.02
371.84	0.00
372.04	58.51
372.24	42.13
372.44	0.00
372.63	102.98
372.83	0.00
373.03	93.62
373.22	84.26
373.42	37.45
373.62	42.13
373.81	32.77
374.01	46.81
374.21	37.45
374.40	39.79
374.60	114.69
374.79	65.54
374.99	32.77
375.19	74.90
375.38	42.13
375.58	84.26
375.78	4.68
375.97	2.34
376.17	2.34
376.37	21.06
376.56	60.85
376.76	44.47
376.95	86.60
377.15	72.56
377.35	0.00
377.54	49.15
377.74	63.19
377.93	53.83
378.13	30.43
378.33	42.13
378.52	79.58
378.72	4.68
378.91	4.68
379.11	0.00
379.31	98.30
379.50	0.00
379.70	0.00
379.89	37.45
380.09	14.04
380.28	0.00
380.48	18.72
380.68	2.34
380.87	16.38
381.07	7.02
381.26	0.00
381.46	0.00
381.65	0.00
381.85	70.22
382.04	86.60
382.24	77.24
382.43	7.02
382.63	0.00
382.83	60.85
383.02	16.38
383.22	32.77
383.41	49.15
383.61	9.36
383.80	49.15
384.00	44.47
384.19	23.41
384.39	0.00
384.58	18.72
384.78	0.00
384.97	14.04
385.17	0.00
385.36	30.43
385.56	0.00
385.75	0.00
385.95	21.06
386.14	9.36
386.34	4.68
386.53	0.00
386.72	44.47
386.92	37.45
387.11	42.13
387.31	30.43
387.50	0.00
387.70	39.79
387.89	7.02
388.09	60.85
388.28	23.41
388.48	0.00
388.67	2.34
388.86	25.75
389.06	25.75
389.25	42.13
389.45	46.81
389.64	23.41
389.84	37.45
390.03	35.11
390.22	86.60
390.42	23.41
390.61	0.00
390.81	117.03
391.00	23.41
391.19	30.43
391.39	30.43
391.58	7.02
391.78	32.77
391.97	0.00
392.16	28.09
392.36	65.54
392.55	84.26
392.75	49.15
392.94	23.41
393.13	42.13
393.33	21.06
393.52	58.51
393.71	28.09
393.91	37.45
394.10	67.88
394.29	67.88
394.49	28.09
394.68	46.81
394.88	77.24
395.07	7.02
395.26	46.81
395.46	0.00
395.65	21.06
395.84	49.15
396.04	49.15
396.23	0.00
396.42	65.54
396.62	0.00
396.81	0.00
397.00	7.02
397.19	0.00
397.39	0.00
397.58	77.24
397.77	0.00
397.97	25.75
398.16	25.75
398.35	0.00
398.55	102.98
398.74	72.56
398.93	37.45
399.12	84.26
399.32	49.15
399.51	63.19
399.70	0.00
399.90	32.77
400.09	60.85
400.28	9.36
400.47	46.81
400.67	70.22
400.86	63.19
401.05	70.22
401.24	25.75
401.44	37.45
401.63	49.15
401.82	4.68
402.01	46.81
402.21	7.02
402.40	14.04
402.59	35.11
402.78	25.75
402.97	23.41
403.17	56.17
403.36	25.75
403.55	37.45
403.74	42.13
403.93	86.60
404.13	21.06
404.32	4.68
404.51	56.17
404.70	4.68
404.89	58.51
405.09	28.09
405.28	0.00
405.47	23.41
405.66	28.09
405.85	25.75
406.05	0.00
406.24	18.72
406.43	0.00
406.62	44.47
406.81	53.83
407.00	37.45
407.20	0.00
407.39	58.51
407.58	77.24
407.77	91.28
407.96	0.00
408.15	49.15
408.34	0.00
408.54	63.19
408.73	4.68
408.92	79.58
409.11	18.72
409.30	60.85
409.49	11.70
409.68	0.00
409.87	53.83
410.07	100.64
410.26	4.68
410.45	2.34
410.64	0.00
410.83	16.38
411.02	39.79
411.21	30.43
411.40	0.00
411.59	44.47
411.78	60.85
411.98	14.04
412.17	25.75
412.36	37.45
412.55	32.77
412.74	0.00
412.93	37.45
413.12	0.00
413.31	79.58
413.50	42.13
413.69	14.04
413.88	58.51
414.07	93.62
414.26	135.75
414.45	60.85
414.64	42.13
414.83	11.70
415.02	32.77
415.22	4.68
415.41	32.77
415.60	21.06
415.79	42.13
415.98	70.22
416.17	67.88
416.36	30.43
416.55	39.79
416.74	16.38
416.93	0.00
417.12	51.49
417.31	0.00
417.50	35.11
417.69	14.04
417.88	21.06
418.07	30.43
418.26	49.15
418.45	28.09
418.64	0.00
418.83	23.41
419.02	7.02
419.21	32.77
419.39	16.38
419.58	53.83
419.77	11.70
419.96	42.13
420.15	51.49
420.34	0.00
420.53	107.66
420.72	91.28
420.91	56.17
421.10	51.49
421.29	28.09
421.48	32.77
421.67	18.72
421.86	11.70
422.05	0.00
422.24	7.02
422.43	42.13
422.61	0.00
422.80	4.68
422.99	32.77
423.18	60.85
423.37	46.81
423.56	124.05
423.75	70.22
423.94	72.56
424.13	25.75
424.32	56.17
424.50	0.00
424.69	56.17
424.88	74.90
425.07	60.85
425.26	37.45
425.45	7.02
425.64	56.17
425.83	9.36
426.01	154.48
426.20	39.79
426.39	0.00
426.58	35.11
426.77	11.70
426.96	16.38
427.15	0.00
427.33	0.00
427.52	44.47
427.71	18.72
427.90	28.09
428.09	124.05
428.28	30.43
428.46	44.47
428.65	37.45
428.84	49.15
429.03	7.02
429.22	37.45
429.40	79.58
429.59	0.00
429.78	51.49
429.97	37.45
430.16	46.81
430.34	58.51
430.53	4.68
430.72	49.15
430.91	63.19
431.10	18.72
431.28	88.94
431.47	0.00
431.66	65.54
431.85	14.04
432.03	49.15
432.22	63.19
432.41	70.22
432.60	44.47
432.79	23.41
432.97	28.09
433.16	35.11
433.35	49.15
433.54	56.17
433.72	65.54
433.91	46.81
434.10	35.11
434.28	74.90
434.47	0.00
434.66	0.00
434.85	42.13
435.03	63.19
435.22	32.77
435.41	77.24
435.59	77.24
435.78	18.72
435.97	65.54
436.16	28.09
436.34	28.09
436.53	95.96
436.72	0.00
436.90	42.13
437.09	42.13
437.28	79.58
437.46	4.68
437.65	30.43
437.84	0.00
438.02	7.02
438.21	60.85
438.40	0.00
438.58	9.36
438.77	37.45
438.96	46.81
439.14	23.41
439.33	0.00
439.52	70.22
439.70	30.43
439.89	65.54
440.08	42.13
440.26	9.36
440.45	30.43
440.63	70.22
440.82	49.15
441.01	74.90
441.19	4.68
441.38	14.04
441.57	44.47
441.75	7.02
441.94	37.45
442.12	65.54
442.31	44.47
442.50	60.85
442.68	23.41
442.87	0.00
443.05	7.02
443.24	51.49
443.43	60.85
443.61	37.45
443.80	0.00
443.98	30.43
444.17	18.72
444.35	0.00
444.54	21.06
444.73	0.00
444.91	7.02
445.10	0.00
445.28	23.41
445.47	72.56
445.65	28.09
445.84	0.00
446.02	16.38
446.21	74.90
446.39	49.15
446.58	28.09
446.77	65.54
446.95	100.64
447.14	23.41
447.32	0.00
447.51	14.04
447.69	117.03
447.88	51.49
448.06	46.81
448.25	0.00
448.43	0.00
448.62	32.77
448.80	32.77
448.99	0.00
449.17	9.36
449.36	37.45
449.54	0.00
449.73	79.58
449.91	0.00
450.10	25.75
450.28	0.00
450.46	0.00
450.65	67.88
450.83	16.38
451.02	0.00
451.20	23.41
451.39	0.00
451.57	21.06
451.76	37.45
451.94	79.58
452.13	51.49
452.31	77.24
452.49	91.28
452.68	0.00
452.86	0.00
453.05	39.79
453.23	63.19
453.42	0.00
453.60	9.36
453.78	30.43
453.97	67.88
454.15	42.13
454.34	25.75
454.52	51.49
454.70	21.06
454.89	102.98
455.07	32.77
455.26	44.47
455.44	0.00
455.62	21.06
455.81	4.68
455.99	0.00
456.17	11.70
456.36	67.88
456.54	49.15
456.73	18.72
456.91	0.00
457.09	0.00
457.28	49.15
457.46	37.45
457.64	44.47
457.83	0.00
458.01	21.06
458.19	23.41
458.38	32.77
458.56	81.92
458.74	30.43
458.93	9.36
459.11	25.75
459.29	95.96
459.48	32.77
459.66	23.41
459.84	23.41
460.03	81.92
460.21	0.00
460.39	25.75
460.57	121.71
460.76	0.00
460.94	30.43
461.12	51.49
461.31	39.79
461.49	0.00
461.67	77.24
461.85	86.60
462.04	7.02
462.22	84.26
462.40	30.43
462.59	67.88
462.77	67.88
462.95	0.00
463.13	72.56
463.32	44.47
463.50	53.83
463.68	46.81
463.86	0.00
464.05	0.00
464.23	32.77
464.41	81.92
464.59	30.43
464.78	16.38
464.96	42.13
465.14	23.41
465.32	0.00
465.50	25.75
465.69	4.68
465.87	4.68
466.05	25.75
466.23	25.75
466.41	23.41
466.60	74.90
466.78	44.47
466.96	0.00
467.14	11.70
467.32	0.00
467.51	67.88
467.69	58.51
467.87	39.79
468.05	0.00
468.23	4.68
468.41	28.09
468.60	18.72
468.78	81.92
468.96	42.13
469.14	32.77
469.32	39.79
469.50	0.00
469.69	0.00
469.87	107.66
470.05	0.00
470.23	25.75
470.41	0.00
470.59	18.72
470.77	2.34
470.95	84.26
471.14	0.00
471.32	0.00
471.50	9.36
471.68	60.85
471.86	88.94
472.04	93.62
472.22	37.45
472.40	9.36
472.58	37.45
472.77	84.26
472.95	18.72
473.13	44.47
473.31	46.81
473.49	4.68
473.67	0.00
473.85	25.75
474.03	70.22
474.21	7.02
474.39	77.24
474.57	67.88
474.75	23.41
474.93	128.73
475.12	23.41
475.30	0.00
475.48	0.00
475.66	0.00
475.84	0.00
476.02	23.41
476.20	0.00
476.38	32.77
476.56	16.38
476.74	88.94
476.92	28.09
477.10	65.54
477.28	44.47
477.46	56.17
477.64	49.15
477.82	42.13
478.00	84.26
478.18	18.72
478.36	25.75
478.54	51.49
478.72	0.00
478.90	67.88
479.08	25.75
479.26	0.00
479.44	0.00
479.62	56.17
479.80	35.11
479.98	28.09
480.16	16.38
480.34	56.17
480.52	42.13
480.70	0.00
480.88	84.26
481.06	79.58
481.24	46.81
481.41	11.70
481.59	58.51
481.77	21.06
481.95	60.85
482.13	105.32
482.31	25.75
482.49	88.94
482.67	11.70
482.85	0.00
483.03	93.62
483.21	81.92
483.39	44.47
483.57	0.00
483.74	28.09
483.92	7.02
484.10	7.02
484.28	60.85
484.46	60.85
484.64	63.19
484.82	86.60
485.00	4.68
485.18	0.00
485.35	93.62
485.53	65.54
485.71	25.75
485.89	35.11
486.07	0.00
486.25	65.54
486.43	84.26
486.61	44.47
486.78	37.45
486.96	32.77
487.14	42.13
487.32	117.03
487.50	51.49
487.68	56.17
487.85	79.58
488.03	112.35
488.21	0.00
488.39	32.77
488.57	30.43
488.75	35.11
488.92	74.90
489.10	28.09
489.28	74.90
489.46	0.00
489.64	21.06
489.81	58.51
489.99	65.54
490.17	16.38
490.35	39.79
490.53	39.79
490.70	2.34
490.88	70.22
491.06	0.00
491.24	0.00
491.41	0.00
491.59	46.81
491.77	86.60
491.95	42.13
492.13	70.22
492.30	2.34
492.48	49.15
492.66	121.71
492.84	0.00
493.01	67.88
493.19	39.79
493.37	4.68
493.54	67.88
493.72	58.51
493.90	46.81
494.08	93.62
494.25	46.81
494.43	0.00
494.61	60.85
494.79	37.45
494.96	2.34
495.14	46.81
495.32	35.11
495.49	65.54
495.67	44.47
495.85	51.49
496.02	79.58
496.20	16.38
496.38	110.01
496.55	70.22
496.73	0.00
496.91	84.26
497.09	0.00
497.26	0.00
497.44	42.13
497.62	11.70
497.79	65.54
497.97	7.02
498.14	32.77
498.32	49.15
498.50	4.68
498.67	0.00
498.85	4.68
499.03	23.41
499.20	16.38
499.38	37.45
499.56	0.00
499.73	0.00
499.91	56.17
500.08	67.88
500.26	23.41
500.44	95.96
500.61	88.94
500.79	14.04
500.97	0.00
501.14	42.13
501.32	42.13
501.49	70.22
501.67	0.00
501.84	28.09
502.02	84.26
502.20	107.66
502.37	74.90
502.55	79.58
502.72	72.56
502.90	46.81
503.07	0.00
503.25	30.43
503.43	86.60
503.60	16.38
503.78	4.68
503.95	0.00
504.13	0.00
504.30	4.68
504.48	91.28
504.65	32.77
504.83	53.83
505.01	0.00
505.18	74.90
505.36	84.26
505.53	23.41
505.71	7.02
505.88	88.94
506.06	84.26
506.23	88.94
506.41	102.98
506.58	0.00
506.76	135.75
506.93	102.98
507.11	21.06
507.28	98.30
507.46	28.09
507.63	37.45
507.81	14.04
507.98	16.38
508.16	4.68
508.33	21.06
508.50	21.06
508.68	81.92
508.85	53.83
509.03	42.13
509.20	88.94
509.38	74.90
509.55	0.00
509.73	4.68
509.90	49.15
510.08	74.90
510.25	60.85
510.42	28.09
510.60	32.77
510.77	88.94
510.95	56.17
511.12	70.22
511.30	67.88
511.47	16.38
511.64	74.90
511.82	14.04
511.99	4.68
512.17	23.41
512.34	23.41
512.51	21.06
512.69	35.11
512.86	9.36
513.04	51.49
513.21	88.94
513.38	81.92
513.56	9.36
513.73	93.62
513.90	93.62
514.08	0.00
514.25	77.24
514.43	0.00
514.60	0.00
514.77	30.43
514.95	25.75
515.12	18.72
515.29	72.56
515.47	23.41
515.64	14.04
515.81	81.92
515.99	28.09
516.16	65.54
516.33	21.06
516.51	25.75
516.68	51.49
516.85	7.02
517.03	18.72
517.20	18.72
517.37	77.24
517.54	86.60
517.72	0.00
517.89	21.06
518.06	28.09
518.24	0.00
518.41	49.15
518.58	46.81
518.75	60.85
518.93	67.88
519.10	18.72
519.27	28.09
519.45	72.56
519.62	37.45
519.79	86.60
519.96	86.60
520.14	91.28
520.31	51.49
520.48	39.79
520.65	42.13
520.83	0.00
521.00	37.45
521.17	58.51
521.34	51.49
521.52	46.81
521.69	131.07
521.86	53.83
522.03	0.00
522.20	0.00
522.38	4.68
522.55	98.30
522.72	51.49
522.89	88.94
523.07	77.24
523.24	56.17
523.41	42.13
523.58	14.04
523.75	53.83
523.92	93.62
524.10	0.00
524.27	102.98
524.44	88.94
524.61	42.13
524.78	9.36
524.96	84.26
525.13	98.30
525.30	2.34
525.47	0.00
525.64	37.45
525.81	0.00
525.98	56.17
526.16	2.34
526.33	72.56
526.50	51.49
526.67	0.00
526.84	32.77
527.01	37.45
527.18	58.51
527.36	32.77
527.53	0.00
527.70	74.90
527.87	9.36
528.04	88.94
528.21	0.00
528.38	44.47
528.55	9.36
528.72	112.35
528.89	30.43
529.07	0.00
529.24	53.83
529.41	28.09
529.58	16.38
529.75	30.43
529.92	79.58
530.09	9.36
530.26	23.41
530.43	14.04
530.60	65.54
530.77	0.00
530.94	140.43
531.11	79.58
531.28	53.83
531.46	0.00
531.63	37.45
531.80	60.85
531.97	0.00
532.14	98.30
532.31	39.79
532.48	42.13
532.65	0.00
532.82	25.75
532.99	81.92
533.16	67.88
533.33	37.45
533.50	0.00
533.67	0.00
533.84	51.49
534.01	39.79
534.18	0.00
534.35	44.47
534.52	25.75
534.69	16.38
534.86	18.72
535.03	60.85
535.20	51.49
535.37	23.41
535.54	7.02
535.71	53.83
535.88	35.11
536.05	46.81
536.22	49.15
536.38	84.26
536.55	72.56
536.72	46.81
536.89	28.09
537.06	56.17
537.23	93.62
537.40	42.13
537.57	21.06
537.74	0.00
537.91	28.09
538.08	37.45
538.25	0.00
538.42	117.03
538.59	23.41
538.75	79.58
538.92	39.79
539.09	124.05
539.26	46.81
539.43	119.37
539.60	159.16
539.77	163.84
539.94	187.24
540.11	142.77
540.28	95.96
540.44	77.24
540.61	51.49
540.78	46.81
540.95	4.68
541.12	32.77
541.29	30.43
541.46	7.02
541.62	21.06
541.79	53.83
541.96	0.00
542.13	25.75
542.30	2.34
542.47	88.94
542.63	11.70
542.80	72.56
542.97	0.00
543.14	60.85
543.31	18.72
543.48	58.51
543.64	49.15
543.81	51.49
543.98	60.85
544.15	39.79
544.32	37.45
544.48	39.79
544.65	63.19
544.82	72.56
544.99	79.58
545.16	35.11
545.32	0.00
545.49	60.85
545.66	81.92
545.83	72.56
546.00	42.13
546.16	51.49
546.33	14.04
546.50	0.00
546.67	37.45
546.83	0.00
547.00	25.75
547.17	23.41
547.34	7.02
547.50	39.79
547.67	63.19
547.84	11.70
548.00	79.58
548.17	42.13
548.34	32.77
548.51	18.72
548.67	28.09
548.84	25.75
549.01	65.54
549.18	0.00
549.34	0.00
549.51	4.68
549.68	23.41
549.84	2.34
550.01	102.98
550.18	60.85
550.34	0.00
550.51	0.00
550.68	53.83
550.84	0.00
551.01	4.68
551.18	37.45
551.34	42.13
551.51	46.81
551.68	21.06
551.84	60.85
552.01	32.77
552.18	67.88
552.34	42.13
552.51	65.54
552.68	39.79
552.84	2.34
553.01	0.00
553.18	0.00
553.34	46.81
553.51	32.77
553.67	49.15
553.84	70.22
554.01	46.81
554.17	42.13
554.34	0.00
554.51	42.13
554.67	39.79
554.84	32.77
555.00	65.54
555.17	67.88
555.33	91.28
555.50	37.45
555.67	53.83
555.83	23.41
556.00	21.06
556.16	88.94
556.33	9.36
556.50	63.19
556.66	84.26
556.83	72.56
556.99	35.11
557.16	74.90
557.32	58.51
557.49	65.54
557.65	23.41
557.82	53.83
557.98	65.54
558.15	44.47
558.32	42.13
558.48	25.75
558.65	0.00
558.81	21.06
558.98	44.47
559.14	63.19
559.31	18.72
559.47	44.47
559.64	23.41
559.80	37.45
559.97	18.72
560.13	0.00
560.30	58.51
560.46	28.09
560.63	159.16
560.79	7.02
560.96	0.00
561.12	28.09
561.29	81.92
561.45	16.38
561.61	77.24
561.78	18.72
561.94	9.36
562.11	0.00
562.27	2.34
562.44	32.77
562.60	49.15
562.77	79.58
562.93	60.85
563.10	0.00
563.26	46.81
563.42	79.58
563.59	60.85
563.75	0.00
563.92	2.34
564.08	42.13
564.24	93.62
564.41	67.88
564.57	60.85
564.74	91.28
564.90	35.11
565.07	84.26
565.23	65.54
565.39	0.00
565.56	93.62
565.72	0.00
565.88	98.30
566.05	65.54
566.21	0.00
566.38	142.77
566.54	74.90
566.70	102.98
566.87	56.17
567.03	30.43
567.19	37.45
567.36	0.00
567.52	63.19
567.68	51.49
567.85	23.41
568.01	0.00
568.17	11.70
568.34	30.43
568.50	56.17
568.66	21.06
568.83	0.00
568.99	84.26
569.15	72.56
569.32	105.32
569.48	86.60
569.64	16.38
569.81	56.17
569.97	65.54
570.13	70.22
570.30	77.24
570.46	9.36
570.62	0.00
570.78	0.00
570.95	25.75
571.11	114.69
571.27	79.58
571.43	0.00
571.60	56.17
571.76	32.77
571.92	9.36
572.09	79.58
572.25	53.83
572.41	32.77
572.57	70.22
572.74	56.17
572.90	0.00
573.06	28.09
573.22	60.85
573.38	0.00
573.55	0.00
573.71	7.02
573.87	56.17
574.03	70.22
574.20	44.47
574.36	93.62
574.52	58.51
574.68	39.79
574.84	100.64
575.01	112.35
575.17	44.47
575.33	88.94
575.49	131.07
575.65	63.19
575.82	44.47
575.98	72.56
576.14	121.71
576.30	140.43
576.46	44.47
576.62	74.90
576.79	21.06
576.95	65.54
577.11	102.98
577.27	98.30
577.43	84.26
577.59	56.17
577.75	74.90
577.92	0.00
578.08	0.00
578.24	56.17
578.40	102.98
578.56	42.13
578.72	93.62
578.88	0.00
579.04	4.68
579.21	65.54
579.37	65.54
579.53	42.13
579.69	16.38
579.85	67.88
580.01	18.72
580.17	32.77
580.33	42.13
580.49	51.49
580.65	51.49
580.82	0.00
580.98	46.81
581.14	79.58
581.30	18.72
581.46	60.85
581.62	46.81
581.78	98.30
581.94	95.96
582.10	56.17
582.26	131.07
582.42	117.03
582.58	16.38
582.74	98.30
582.90	81.92
583.06	98.30
583.22	100.64
583.38	58.51
583.54	86.60
583.70	119.37
583.86	159.16
584.02	95.96
584.18	184.90
584.34	180.22
584.50	472.79
584.66	3435.91
584.82	8734.88
584.98	12608.47
585.14	11309.47
585.30	6984.16
585.46	4189.56
585.62	2726.72
585.78	1212.40
585.94	582.79
586.10	205.97
586.26	220.01
586.42	74.90
586.58	79.58
586.74	135.75
586.90	93.62
587.06	175.54
587.22	79.58
587.38	121.71
587.54	182.56
587.70	533.64
587.86	826.21
588.02	1041.54
588.18	622.58
588.34	423.64
588.49	315.97
588.65	142.77
588.81	93.62
588.97	14.04
589.13	131.07
589.29	74.90
589.45	84.26
589.61	79.58
589.77	56.17
589.93	53.83
590.08	180.22
590.24	56.17
590.40	135.75
590.56	79.58
590.72	37.45
590.88	84.26
591.04	32.77
591.20	81.92
591.35	95.96
591.51	81.92
591.67	107.66
591.83	107.66
591.99	35.11
592.15	70.22
592.31	84.26
592.46	77.24
592.62	60.85
592.78	65.54
592.94	39.79
593.10	51.49
593.26	28.09
593.41	53.83
593.57	46.81
593.73	147.45
593.89	472.79
594.05	1128.14
594.20	1582.20
594.36	1530.71
594.52	999.41
594.68	676.41
594.84	449.38
594.99	224.69
595.15	98.30
595.31	51.49
595.47	124.05
595.62	63.19
595.78	32.77
595.94	77.24
596.10	51.49
596.25	84.26
596.41	105.32
596.57	74.90
596.73	56.17
596.88	198.95
597.04	196.60
597.20	311.29
597.36	449.38
597.51	280.86
597.67	287.89
597.83	163.84
597.99	131.07
598.14	100.64
598.30	74.90
598.46	161.50
598.61	100.64
598.77	84.26
598.93	16.38
599.09	51.49
599.24	16.38
599.40	49.15
599.56	25.75
599.71	56.17
599.87	95.96
600.03	0.00
600.18	44.47
600.34	30.43
600.50	0.00
600.65	16.38
600.81	63.19
600.97	98.30
601.12	14.04
601.28	37.45
601.44	51.49
601.59	0.00
601.75	67.88
601.91	65.54
602.06	18.72
602.22	72.56
602.37	74.90
602.53	222.35
602.69	418.96
602.84	421.30
603.00	341.72
603.16	203.63
603.31	227.03
603.47	112.35
603.62	67.88
603.78	67.88
603.94	53.83
604.09	7.02
604.25	44.47
604.40	77.24
604.56	35.11
604.71	42.13
604.87	18.72
605.03	49.15
605.18	21.06
605.34	4.68
605.49	32.77
605.65	28.09
605.80	32.77
605.96	42.13
606.12	7.02
606.27	0.00
606.43	79.58
606.58	173.20
606.74	110.01
606.89	521.94
607.05	1107.07
607.20	1348.15
607.36	1102.39
607.51	856.64
607.67	486.83
607.82	332.36
607.98	201.29
608.13	72.56
608.29	53.83
608.44	91.28
608.60	84.26
608.75	79.58
608.91	182.56
609.06	828.55
609.22	1727.32
609.37	2389.69
609.53	2026.90
609.68	1444.11
609.84	901.11
609.99	627.26
610.15	315.97
610.30	170.86
610.46	107.66
610.61	95.96
610.76	95.96
610.92	51.49
611.07	81.92
611.23	58.51
611.38	56.17
611.54	35.11
611.69	28.09
611.84	60.85
612.00	72.56
612.15	9.36
612.31	95.96
612.46	128.73
612.62	126.39
612.77	67.88
612.92	133.41
613.08	105.32
613.23	133.41
613.39	74.90
613.54	187.24
613.69	828.55
613.85	2169.68
614.00	3365.69
614.15	3684.00
614.31	2593.31
614.46	1743.70
614.62	1172.61
614.77	631.94
614.92	322.99
615.08	257.46
615.23	84.26
615.38	56.17
615.54	65.54
615.69	142.77
615.84	433.00
616.00	837.91
616.15	973.66
616.30	866.00
616.46	458.74
616.61	383.85
616.76	262.14
616.92	95.96
617.07	51.49
617.22	84.26
617.37	4.68
617.53	39.79
617.68	28.09
617.83	39.79
617.99	44.47
618.14	39.79
618.29	107.66
618.45	7.02
618.60	0.00
618.75	63.19
618.90	84.26
619.06	65.54
619.21	51.49
619.36	114.69
619.51	0.00
619.67	86.60
619.82	56.17
619.97	42.13
620.12	88.94
620.28	67.88
620.43	0.00
620.58	70.22
620.73	81.92
620.89	28.09
621.04	102.98
621.19	201.29
621.34	428.32
621.49	610.88
621.65	507.90
621.80	411.93
621.95	241.08
622.10	128.73
622.25	98.30
622.41	110.01
622.56	81.92
622.71	70.22
622.86	65.54
623.01	0.00
623.16	84.26
623.32	30.43
623.47	110.01
623.62	49.15
623.77	2.34
623.92	30.43
624.07	65.54
624.23	53.83
624.38	63.19
624.53	0.00
624.68	91.28
624.83	79.58
624.98	81.92
625.13	42.13
625.29	21.06
625.44	56.17
625.59	86.60
625.74	74.90
625.89	79.58
626.04	386.19
626.19	1043.88
626.34	1661.78
626.49	2003.50
626.65	1416.02
626.80	938.55
626.95	741.95
627.10	486.83
627.25	264.48
627.40	93.62
627.55	135.75
627.70	65.54
627.85	124.05
628.00	86.60
628.15	56.17
628.30	0.00
628.45	56.17
628.60	25.75
628.76	86.60
628.91	56.17
629.06	49.15
629.21	72.56
629.36	60.85
629.51	7.02
629.66	46.81
629.81	63.19
629.96	208.31
630.11	440.02
630.26	561.73
630.41	456.40
630.56	290.23
630.71	224.69
630.86	159.16
631.01	173.20
631.16	7.02
631.31	105.32
631.46	49.15
631.61	86.60
631.76	18.72
631.91	65.54
632.06	44.47
632.21	65.54
632.36	0.00
632.51	67.88
632.66	131.07
632.81	203.63
632.96	589.82
633.10	1076.65
633.25	1324.74
633.40	1144.52
633.55	746.63
633.70	564.07
633.85	379.17
634.00	187.24
634.15	81.92
634.30	30.43
634.45	0.00
634.60	39.79
634.75	32.77
634.90	88.94
635.05	42.13
635.19	0.00
635.34	74.90
635.49	16.38
635.64	49.15
635.79	30.43
635.94	56.17
636.09	79.58
636.24	88.94
636.39	16.38
636.53	42.13
636.68	32.77
636.83	46.81
636.98	77.24
637.13	105.32
637.28	51.49
637.43	88.94
637.57	152.13
637.72	585.13
637.87	1451.13
638.02	2214.15
638.17	2569.91
638.32	1799.87
638.46	1378.58
638.61	931.53
638.76	578.11
638.91	290.23
639.06	180.22
639.20	152.13
639.35	107.66
639.50	191.92
639.65	795.78
639.80	2143.93
639.94	3393.78
640.09	3817.41
640.24	2953.76
640.39	2050.31
640.54	1331.76
640.68	837.91
640.83	470.45
640.98	234.05
641.13	56.17
641.27	124.05
641.42	100.64
641.57	102.98
641.72	105.32
641.86	4.68
642.01	51.49
642.16	119.37
642.31	58.51
642.45	79.58
642.60	84.26
642.75	58.51
642.90	63.19
643.04	51.49
643.19	95.96
643.34	0.00
643.48	32.77
643.63	74.90
643.78	23.41
643.93	140.43
644.07	65.54
644.22	25.75
644.37	77.24
644.51	58.51
644.66	112.35
644.81	18.72
644.95	0.00
645.10	0.00
645.25	44.47
645.39	107.66
645.54	0.00
645.69	30.43
645.83	32.77
645.98	81.92
646.13	0.00
646.27	0.00
646.42	74.90
646.57	44.47
646.71	9.36
646.86	0.00
647.00	86.60
647.15	0.00
647.30	18.72
647.44	74.90
647.59	30.43
647.74	0.00
647.88	32.77
648.03	49.15
648.17	72.56
648.32	142.77
648.47	0.00
648.61	14.04
648.76	14.04
648.90	79.58
649.05	0.00
649.20	93.62
649.34	37.45
649.49	63.19
649.63	140.43
649.78	0.00
649.92	117.03
650.07	397.89
650.21	898.77
650.36	1692.21
650.51	2019.88
650.65	1776.47
650.80	1205.38
650.94	805.14
651.09	493.85
651.23	259.80
651.38	191.92
651.52	81.92
651.67	93.62
651.81	53.83
651.96	30.43
652.10	95.96
652.25	0.00
652.39	28.09
652.54	72.56
652.68	170.86
652.83	313.63
652.97	524.28
653.12	788.76
653.26	685.78
653.41	486.83
653.55	320.65
653.70	212.99
653.84	135.75
653.99	88.94
654.13	4.68
654.27	23.41
654.42	4.68
654.56	0.00
654.71	46.81
654.85	37.45
655.00	65.54
655.14	11.70
655.29	25.75
655.43	46.81
655.57	0.00
655.72	4.68
655.86	23.41
656.01	9.36
656.15	84.26
656.30	0.00
656.44	0.00
656.58	21.06
656.73	37.45
656.87	70.22
657.01	67.88
657.16	35.11
657.30	18.72
657.45	28.09
657.59	60.85
657.73	0.00
657.88	16.38
658.02	98.30
658.16	4.68
658.31	0.00
658.45	58.51
658.60	0.00
658.74	37.45
658.88	28.09
659.03	32.77
659.17	51.49
659.31	65.54
659.46	351.08
659.60	809.83
659.74	1172.61
659.89	961.96
660.03	676.41
660.17	493.85
660.32	285.55
660.46	180.22
660.60	154.48
660.74	74.90
660.89	46.81
661.03	67.88
661.17	25.75
661.32	65.54
661.46	53.83
661.60	0.00
661.74	9.36
661.89	51.49
662.03	60.85
662.17	0.00
662.31	0.00
662.46	23.41
662.60	32.77
662.74	28.09
662.88	74.90
663.03	91.28
663.17	9.36
663.31	0.00
663.45	74.90
663.60	32.77
663.74	30.43
663.88	42.13
664.02	88.94
664.17	56.17
664.31	0.00
664.45	23.41
664.59	67.88
664.73	0.00
664.88	21.06
665.02	65.54
665.16	60.85
665.30	46.81
665.44	0.00
665.59	0.00
665.73	72.56
665.87	0.00
666.01	0.00
666.15	23.41
666.29	35.11
666.44	0.00
666.58	53.83
666.72	35.11
666.86	0.00
667.00	0.00
667.14	39.79
667.28	231.71
667.43	835.57
667.57	1359.85
667.71	1713.27
667.85	1451.13
667.99	1116.44
668.13	678.76
668.27	416.62
668.41	220.01
668.56	142.77
668.70	110.01
668.84	23.41
668.98	81.92
669.12	72.56
669.26	11.70
669.40	102.98
669.54	23.41
669.68	21.06
669.82	98.30
669.96	81.92
670.10	100.64
670.25	37.45
670.39	28.09
670.53	0.00
670.67	7.02
670.81	51.49
670.95	4.68
671.09	102.98
671.23	280.86
671.37	702.16
671.51	999.41
671.65	1132.82
671.79	823.87
671.93	660.03
672.07	416.62
672.21	269.16
672.35	102.98
672.49	4.68
672.63	74.90
672.77	14.04
672.91	72.56
673.05	0.00
673.19	21.06
673.33	0.00
673.47	0.00
673.61	0.00
673.75	51.49
673.89	7.02
674.03	11.70
674.17	0.00
674.31	53.83
674.45	42.13
674.59	51.49
674.73	44.47
674.87	56.17
675.01	74.90
675.15	58.51
675.29	56.17
675.43	0.00
675.56	131.07
675.70	30.43
675.84	88.94
675.98	0.00
676.12	46.81
676.26	0.00
676.40	0.00
676.54	25.75
676.68	23.41
676.82	0.00
676.96	0.00
677.10	35.11
677.23	21.06
677.37	42.13
677.51	39.79
677.65	86.60
677.79	63.19
677.93	44.47
678.07	9.36
678.21	25.75
678.34	32.77
678.48	77.24
678.62	0.00
678.76	37.45
678.90	0.00
679.04	32.77
679.18	51.49
679.31	51.49
679.45	0.00
679.59	42.13
679.73	0.00
679.87	0.00
680.00	0.00
680.14	39.79
680.28	49.15
680.42	23.41
680.56	46.81
680.70	91.28
680.83	88.94
680.97	42.13
681.11	0.00
681.25	58.51
681.39	72.56
681.52	51.49
681.66	46.81
681.80	65.54
681.94	0.00
682.07	28.09
682.21	4.68
682.35	30.43
682.49	46.81
682.62	35.11
682.76	7.02
682.90	0.00
683.04	70.22
683.17	63.19
683.31	0.00
683.45	0.00
683.59	49.15
683.72	32.77
683.86	0.00
684.00	4.68
684.13	18.72
684.27	32.77
684.41	23.41
684.55	74.90
684.68	77.24
684.82	98.30
684.96	16.38
685.09	4.68
685.23	9.36
685.37	77.24
685.50	74.90
685.64	37.45
685.78	79.58
685.91	0.00
686.05	46.81
686.19	0.00
686.32	4.68
686.46	23.41
686.60	28.09
686.73	11.70
686.87	32.77
687.01	79.58
687.14	0.00
687.28	60.85
687.42	44.47
687.55	65.54
687.69	42.13
687.82	98.30
687.96	72.56
688.10	0.00
688.23	67.88
688.37	51.49
688.50	53.83
688.64	30.43
688.78	32.77
688.91	18.72
689.05	23.41
689.18	7.02
689.32	25.75
689.46	30.43
689.59	77.24
689.73	0.00
689.86	37.45
690.00	56.17
690.13	16.38
690.27	30.43
690.41	42.13
690.54	9.36
690.68	39.79
690.81	58.51
690.95	65.54
691.08	16.38
691.22	70.22
691.35	102.98
691.49	37.45
691.62	4.68
691.76	14.04
691.89	0.00
692.03	35.11
692.16	49.15
692.30	51.49
692.43	124.05
692.57	348.74
692.70	617.90
692.84	781.74
692.97	709.18
693.11	526.62
693.24	397.89
693.38	287.89
693.51	114.69
693.65	95.96
693.78	32.77
693.92	119.37
694.05	56.17
694.19	112.35
694.32	0.00
694.45	60.85
694.59	56.17
694.72	79.58
694.86	0.00
694.99	124.05
695.13	49.15
695.26	60.85
695.39	53.83
695.53	72.56
695.66	28.09
695.80	28.09
695.93	0.00
696.07	67.88
696.20	70.22
696.33	44.47
696.47	110.01
696.60	37.45
696.73	84.26
696.87	23.41
697.00	9.36
697.14	0.00
697.27	35.11
697.40	32.77
697.54	49.15
697.67	72.56
697.80	42.13
697.94	0.00
698.07	4.68
698.21	23.41
698.34	63.19
698.47	23.41
698.61	70.22
698.74	25.75
698.87	2.34
699.01	0.00
699.14	0.00
699.27	70.22
699.40	58.51
699.54	32.77
699.67	35.11
699.80	49.15
699.94	32.77
700.07	30.43
700.20	0.00
700.34	0.00
700.47	81.92
700.60	0.00
700.73	39.79
700.87	74.90
701.00	60.85
701.13	53.83
701.26	35.11
701.40	25.75
701.53	32.77
701.66	28.09
701.79	49.15
701.93	88.94
702.06	9.36
702.19	74.90
702.32	88.94
702.46	51.49
702.59	105.32
702.72	84.26
702.85	390.87
702.99	961.96
703.12	1320.06
703.25	1533.05
703.38	1228.78
703.51	1039.20
703.65	788.76
703.78	610.88
703.91	430.66
704.04	257.46
704.17	152.13
704.31	105.32
704.44	91.28
704.57	105.32
704.70	42.13
704.83	35.11
704.96	25.75
705.10	70.22
705.23	81.92
>>>>>End Processed Spectral Data<<<<<
