SpectraSuite Data File
++++++++++++++++++++++++++++++++++++
Date: Fri Oct 04 12:13:35 GMT-05:00 2013
User: price-jones
Dark Spectrum Present: No
Reference Spectrum Present: No
Number of Sampled Component Spectra: 1
Spectrometers: USB2+H05261
Integration Time (usec): 10000 (USB2+H05261)
Spectra Averaged: 1 (USB2+H05261)
Boxcar Smoothing: 0 (USB2+H05261)
Correct for Electrical Dark: No (USB2+H05261)
Strobe/Lamp Enabled: No (USB2+H05261)
Correct for Detector Non-linearity: No (USB2+H05261)
Correct for Stray Light: No (USB2+H05261)
Number of Pixels in Processed Spectrum: 2048
>>>>>Begin Processed Spectral Data<<<<<
365.73	0.00
365.92	0.00
366.12	0.00
366.32	0.00
366.52	0.00
366.72	0.00
366.91	0.00
367.11	0.00
367.31	0.00
367.51	0.00
367.70	0.00
367.90	0.00
368.10	0.00
368.30	0.00
368.49	0.00
368.69	0.00
368.89	0.00
369.09	0.00
369.28	0.00
369.48	0.00
369.68	0.00
369.87	0.00
370.07	0.00
370.27	0.00
370.47	0.00
370.66	0.00
370.86	0.00
371.06	0.00
371.25	0.00
371.45	0.00
371.65	0.00
371.84	0.00
372.04	0.00
372.24	0.00
372.44	11.70
372.63	9.36
372.83	0.00
373.03	11.70
373.22	67.88
373.42	51.49
373.62	49.15
373.81	30.43
374.01	32.77
374.21	0.00
374.40	21.06
374.60	49.15
374.79	23.41
374.99	0.00
375.19	0.00
375.38	0.00
375.58	0.00
375.78	53.83
375.97	44.47
376.17	44.47
376.37	39.79
376.56	70.22
376.76	0.00
376.95	0.00
377.15	0.00
377.35	0.00
377.54	0.00
377.74	53.83
377.93	14.04
378.13	18.72
378.33	49.15
378.52	53.83
378.72	0.00
378.91	51.49
379.11	0.00
379.31	0.00
379.50	28.09
379.70	28.09
379.89	32.77
380.09	23.41
380.28	49.15
380.48	0.00
380.68	98.30
380.87	0.00
381.07	0.00
381.26	14.04
381.46	65.54
381.65	21.06
381.85	14.04
382.04	58.51
382.24	81.92
382.43	25.75
382.63	25.75
382.83	53.83
383.02	70.22
383.22	58.51
383.41	23.41
383.61	58.51
383.80	23.41
384.00	0.00
384.19	25.75
384.39	25.75
384.58	0.00
384.78	0.00
384.97	32.77
385.17	0.00
385.36	0.00
385.56	91.28
385.75	46.81
385.95	42.13
386.14	51.49
386.34	9.36
386.53	2.34
386.72	16.38
386.92	0.00
387.11	53.83
387.31	23.41
387.50	23.41
387.70	117.03
387.89	28.09
388.09	37.45
388.28	0.00
388.48	49.15
388.67	0.00
388.86	53.83
389.06	44.47
389.25	35.11
389.45	0.00
389.64	2.34
389.84	84.26
390.03	0.00
390.22	9.36
390.42	0.00
390.61	0.00
390.81	0.00
391.00	18.72
391.19	9.36
391.39	0.00
391.58	21.06
391.78	72.56
391.97	18.72
392.16	0.00
392.36	0.00
392.55	9.36
392.75	14.04
392.94	32.77
393.13	67.88
393.33	0.00
393.52	25.75
393.71	4.68
393.91	0.00
394.10	0.00
394.29	0.00
394.49	0.00
394.68	0.00
394.88	42.13
395.07	56.17
395.26	51.49
395.46	7.02
395.65	0.00
395.84	56.17
396.04	0.00
396.23	37.45
396.42	0.00
396.62	30.43
396.81	0.00
397.00	35.11
397.19	23.41
397.39	0.00
397.58	67.88
397.77	23.41
397.97	14.04
398.16	28.09
398.35	28.09
398.55	44.47
398.74	0.00
398.93	30.43
399.12	72.56
399.32	84.26
399.51	37.45
399.70	49.15
399.90	7.02
400.09	67.88
400.28	81.92
400.47	9.36
400.67	0.00
400.86	32.77
401.05	11.70
401.24	18.72
401.44	67.88
401.63	0.00
401.82	30.43
402.01	21.06
402.21	84.26
402.40	70.22
402.59	46.81
402.78	0.00
402.97	112.35
403.17	72.56
403.36	9.36
403.55	0.00
403.74	72.56
403.93	65.54
404.13	39.79
404.32	70.22
404.51	60.85
404.70	0.00
404.89	42.13
405.09	0.00
405.28	42.13
405.47	37.45
405.66	37.45
405.85	37.45
406.05	51.49
406.24	67.88
406.43	16.38
406.62	0.00
406.81	42.13
407.00	25.75
407.20	63.19
407.39	35.11
407.58	23.41
407.77	30.43
407.96	0.00
408.15	53.83
408.34	28.09
408.54	37.45
408.73	49.15
408.92	58.51
409.11	7.02
409.30	0.00
409.49	56.17
409.68	11.70
409.87	53.83
410.07	2.34
410.26	119.37
410.45	37.45
410.64	95.96
410.83	0.00
411.02	21.06
411.21	49.15
411.40	74.90
411.59	23.41
411.78	18.72
411.98	30.43
412.17	0.00
412.36	28.09
412.55	0.00
412.74	32.77
412.93	11.70
413.12	114.69
413.31	110.01
413.50	23.41
413.69	63.19
413.88	56.17
414.07	4.68
414.26	67.88
414.45	21.06
414.64	44.47
414.83	79.58
415.02	7.02
415.22	95.96
415.41	74.90
415.60	21.06
415.79	93.62
415.98	30.43
416.17	14.04
416.36	25.75
416.55	25.75
416.74	53.83
416.93	51.49
417.12	56.17
417.31	42.13
417.50	0.00
417.69	79.58
417.88	114.69
418.07	37.45
418.26	70.22
418.45	93.62
418.64	46.81
418.83	44.47
419.02	18.72
419.21	25.75
419.39	37.45
419.58	58.51
419.77	7.02
419.96	81.92
420.15	72.56
420.34	91.28
420.53	35.11
420.72	51.49
420.91	28.09
421.10	25.75
421.29	63.19
421.48	0.00
421.67	0.00
421.86	14.04
422.05	4.68
422.24	11.70
422.43	58.51
422.61	7.02
422.80	114.69
422.99	0.00
423.18	53.83
423.37	91.28
423.56	28.09
423.75	65.54
423.94	74.90
424.13	42.13
424.32	35.11
424.50	112.35
424.69	37.45
424.88	93.62
425.07	67.88
425.26	0.00
425.45	95.96
425.64	65.54
425.83	121.71
426.01	67.88
426.20	65.54
426.39	72.56
426.58	11.70
426.77	72.56
426.96	65.54
427.15	32.77
427.33	58.51
427.52	56.17
427.71	18.72
427.90	30.43
428.09	0.00
428.28	0.00
428.46	21.06
428.65	23.41
428.84	0.00
429.03	77.24
429.22	0.00
429.40	79.58
429.59	28.09
429.78	25.75
429.97	72.56
430.16	51.49
430.34	51.49
430.53	86.60
430.72	11.70
430.91	9.36
431.10	46.81
431.28	84.26
431.47	51.49
431.66	32.77
431.85	79.58
432.03	70.22
432.22	23.41
432.41	88.94
432.60	119.37
432.79	0.00
432.97	102.98
433.16	56.17
433.35	23.41
433.54	39.79
433.72	23.41
433.91	39.79
434.10	14.04
434.28	53.83
434.47	14.04
434.66	35.11
434.85	28.09
435.03	72.56
435.22	42.13
435.41	65.54
435.59	16.38
435.78	23.41
435.97	93.62
436.16	53.83
436.34	79.58
436.53	0.00
436.72	7.02
436.90	49.15
437.09	11.70
437.28	60.85
437.46	60.85
437.65	100.64
437.84	35.11
438.02	42.13
438.21	65.54
438.40	63.19
438.58	95.96
438.77	37.45
438.96	51.49
439.14	91.28
439.33	91.28
439.52	114.69
439.70	117.03
439.89	77.24
440.08	35.11
440.26	107.66
440.45	142.77
440.63	70.22
440.82	128.73
441.01	56.17
441.19	77.24
441.38	72.56
441.57	117.03
441.75	4.68
441.94	58.51
442.12	58.51
442.31	60.85
442.50	35.11
442.68	74.90
442.87	37.45
443.05	79.58
443.24	74.90
443.43	25.75
443.61	0.00
443.80	95.96
443.98	28.09
444.17	0.00
444.35	46.81
444.54	67.88
444.73	72.56
444.91	7.02
445.10	28.09
445.28	11.70
445.47	39.79
445.65	91.28
445.84	63.19
446.02	63.19
446.21	0.00
446.39	14.04
446.58	91.28
446.77	7.02
446.95	70.22
447.14	46.81
447.32	112.35
447.51	102.98
447.69	46.81
447.88	46.81
448.06	49.15
448.25	63.19
448.43	28.09
448.62	49.15
448.80	14.04
448.99	37.45
449.17	32.77
449.36	0.00
449.54	133.41
449.73	67.88
449.91	98.30
450.10	86.60
450.28	124.05
450.46	133.41
450.65	42.13
450.83	60.85
451.02	79.58
451.20	86.60
451.39	79.58
451.57	49.15
451.76	114.69
451.94	133.41
452.13	58.51
452.31	0.00
452.49	49.15
452.68	0.00
452.86	121.71
453.05	49.15
453.23	16.38
453.42	77.24
453.60	74.90
453.78	30.43
453.97	39.79
454.15	7.02
454.34	86.60
454.52	9.36
454.70	28.09
454.89	30.43
455.07	0.00
455.26	0.00
455.44	25.75
455.62	30.43
455.81	30.43
455.99	58.51
456.17	77.24
456.36	7.02
456.54	0.00
456.73	2.34
456.91	42.13
457.09	60.85
457.28	42.13
457.46	110.01
457.64	63.19
457.83	100.64
458.01	44.47
458.19	93.62
458.38	67.88
458.56	95.96
458.74	67.88
458.93	100.64
459.11	152.13
459.29	11.70
459.48	65.54
459.66	91.28
459.84	65.54
460.03	91.28
460.21	124.05
460.39	39.79
460.57	86.60
460.76	32.77
460.94	81.92
461.12	105.32
461.31	63.19
461.49	49.15
461.67	14.04
461.85	35.11
462.04	35.11
462.22	67.88
462.40	72.56
462.59	25.75
462.77	72.56
462.95	133.41
463.13	25.75
463.32	63.19
463.50	0.00
463.68	121.71
463.86	63.19
464.05	46.81
464.23	0.00
464.41	21.06
464.59	35.11
464.78	58.51
464.96	100.64
465.14	84.26
465.32	51.49
465.50	56.17
465.69	152.13
465.87	79.58
466.05	23.41
466.23	67.88
466.41	51.49
466.60	58.51
466.78	163.84
466.96	0.00
467.14	84.26
467.32	91.28
467.51	105.32
467.69	60.85
467.87	100.64
468.05	46.81
468.23	49.15
468.41	65.54
468.60	98.30
468.78	46.81
468.96	117.03
469.14	56.17
469.32	121.71
469.50	88.94
469.69	56.17
469.87	84.26
470.05	84.26
470.23	35.11
470.41	30.43
470.59	9.36
470.77	53.83
470.95	88.94
471.14	100.64
471.32	25.75
471.50	51.49
471.68	77.24
471.86	28.09
472.04	95.96
472.22	53.83
472.40	88.94
472.58	2.34
472.77	98.30
472.95	30.43
473.13	35.11
473.31	30.43
473.49	23.41
473.67	110.01
473.85	77.24
474.03	114.69
474.21	56.17
474.39	51.49
474.57	60.85
474.75	53.83
474.93	84.26
475.12	84.26
475.30	95.96
475.48	138.09
475.66	37.45
475.84	49.15
476.02	79.58
476.20	23.41
476.38	49.15
476.56	37.45
476.74	37.45
476.92	84.26
477.10	56.17
477.28	56.17
477.46	56.17
477.64	121.71
477.82	37.45
478.00	93.62
478.18	105.32
478.36	49.15
478.54	100.64
478.72	56.17
478.90	53.83
479.08	72.56
479.26	42.13
479.44	84.26
479.62	79.58
479.80	98.30
479.98	79.58
480.16	37.45
480.34	70.22
480.52	28.09
480.70	70.22
480.88	21.06
481.06	91.28
481.24	79.58
481.41	63.19
481.59	65.54
481.77	32.77
481.95	65.54
482.13	63.19
482.31	91.28
482.49	14.04
482.67	70.22
482.85	65.54
483.03	32.77
483.21	11.70
483.39	42.13
483.57	49.15
483.74	51.49
483.92	67.88
484.10	18.72
484.28	70.22
484.46	95.96
484.64	91.28
484.82	84.26
485.00	28.09
485.18	135.75
485.35	63.19
485.53	0.00
485.71	72.56
485.89	81.92
486.07	117.03
486.25	117.03
486.43	102.98
486.61	25.75
486.78	91.28
486.96	0.00
487.14	93.62
487.32	65.54
487.50	37.45
487.68	91.28
487.85	95.96
488.03	65.54
488.21	102.98
488.39	9.36
488.57	133.41
488.75	28.09
488.92	79.58
489.10	79.58
489.28	42.13
489.46	95.96
489.64	102.98
489.81	77.24
489.99	119.37
490.17	70.22
490.35	49.15
490.53	126.39
490.70	51.49
490.88	58.51
491.06	124.05
491.24	18.72
491.41	72.56
491.59	65.54
491.77	44.47
491.95	14.04
492.13	107.66
492.30	93.62
492.48	112.35
492.66	77.24
492.84	121.71
493.01	117.03
493.19	74.90
493.37	107.66
493.54	119.37
493.72	63.19
493.90	98.30
494.08	72.56
494.25	9.36
494.43	49.15
494.61	81.92
494.79	67.88
494.96	56.17
495.14	63.19
495.32	32.77
495.49	23.41
495.67	107.66
495.85	42.13
496.02	88.94
496.20	95.96
496.38	154.48
496.55	84.26
496.73	124.05
496.91	60.85
497.09	91.28
497.26	86.60
497.44	107.66
497.62	25.75
497.79	114.69
497.97	77.24
498.14	91.28
498.32	67.88
498.50	133.41
498.67	110.01
498.85	18.72
499.03	131.07
499.20	131.07
499.38	102.98
499.56	98.30
499.73	65.54
499.91	25.75
500.08	105.32
500.26	159.16
500.44	67.88
500.61	42.13
500.79	107.66
500.97	91.28
501.14	56.17
501.32	100.64
501.49	105.32
501.67	16.38
501.84	51.49
502.02	131.07
502.20	11.70
502.37	65.54
502.55	70.22
502.72	79.58
502.90	49.15
503.07	37.45
503.25	77.24
503.43	39.79
503.60	114.69
503.78	105.32
503.95	95.96
504.13	128.73
504.30	70.22
504.48	44.47
504.65	42.13
504.83	191.92
505.01	37.45
505.18	51.49
505.36	42.13
505.53	42.13
505.71	107.66
505.88	84.26
506.06	79.58
506.23	140.43
506.41	39.79
506.58	81.92
506.76	138.09
506.93	77.24
507.11	93.62
507.28	46.81
507.46	65.54
507.63	84.26
507.81	88.94
507.98	44.47
508.16	58.51
508.33	117.03
508.50	91.28
508.68	93.62
508.85	105.32
509.03	91.28
509.20	110.01
509.38	79.58
509.55	147.45
509.73	77.24
509.90	110.01
510.08	44.47
510.25	65.54
510.42	70.22
510.60	105.32
510.77	117.03
510.95	49.15
511.12	133.41
511.30	63.19
511.47	91.28
511.64	58.51
511.82	117.03
511.99	16.38
512.17	86.60
512.34	84.26
512.51	98.30
512.69	70.22
512.86	65.54
513.04	56.17
513.21	124.05
513.38	51.49
513.56	124.05
513.73	21.06
513.90	77.24
514.08	0.00
514.25	100.64
514.43	53.83
514.60	0.00
514.77	56.17
514.95	9.36
515.12	91.28
515.29	131.07
515.47	142.77
515.64	88.94
515.81	39.79
515.99	65.54
516.16	98.30
516.33	58.51
516.51	67.88
516.68	119.37
516.85	63.19
517.03	93.62
517.20	161.50
517.37	100.64
517.54	145.11
517.72	37.45
517.89	142.77
518.06	74.90
518.24	70.22
518.41	124.05
518.58	56.17
518.75	84.26
518.93	23.41
519.10	49.15
519.27	72.56
519.45	7.02
519.62	72.56
519.79	25.75
519.96	170.86
520.14	91.28
520.31	131.07
520.48	88.94
520.65	28.09
520.83	95.96
521.00	100.64
521.17	74.90
521.34	170.86
521.52	117.03
521.69	112.35
521.86	102.98
522.03	70.22
522.20	88.94
522.38	128.73
522.55	91.28
522.72	112.35
522.89	93.62
523.07	70.22
523.24	95.96
523.41	107.66
523.58	126.39
523.75	56.17
523.92	93.62
524.10	138.09
524.27	119.37
524.44	51.49
524.61	88.94
524.78	112.35
524.96	11.70
525.13	74.90
525.30	117.03
525.47	42.13
525.64	63.19
525.81	112.35
525.98	37.45
526.16	74.90
526.33	42.13
526.50	81.92
526.67	91.28
526.84	131.07
527.01	86.60
527.18	79.58
527.36	60.85
527.53	114.69
527.70	65.54
527.87	70.22
528.04	88.94
528.21	117.03
528.38	91.28
528.55	142.77
528.72	107.66
528.89	128.73
529.07	77.24
529.24	95.96
529.41	39.79
529.58	46.81
529.75	0.00
529.92	112.35
530.09	133.41
530.26	88.94
530.43	81.92
530.60	51.49
530.77	46.81
530.94	107.66
531.11	44.47
531.28	63.19
531.46	25.75
531.63	102.98
531.80	77.24
531.97	49.15
532.14	102.98
532.31	114.69
532.48	114.69
532.65	25.75
532.82	30.43
532.99	77.24
533.16	86.60
533.33	67.88
533.50	84.26
533.67	65.54
533.84	112.35
534.01	140.43
534.18	35.11
534.35	100.64
534.52	42.13
534.69	79.58
534.86	135.75
535.03	91.28
535.20	102.98
535.37	107.66
535.54	117.03
535.71	117.03
535.88	117.03
536.05	39.79
536.22	159.16
536.38	86.60
536.55	84.26
536.72	133.41
536.89	149.79
537.06	84.26
537.23	142.77
537.40	91.28
537.57	95.96
537.74	23.41
537.91	81.92
538.08	114.69
538.25	119.37
538.42	110.01
538.59	72.56
538.75	79.58
538.92	98.30
539.09	140.43
539.26	93.62
539.43	95.96
539.60	35.11
539.77	25.75
539.94	88.94
540.11	67.88
540.28	117.03
540.44	159.16
540.61	119.37
540.78	100.64
540.95	46.81
541.12	11.70
541.29	107.66
541.46	21.06
541.62	58.51
541.79	88.94
541.96	0.00
542.13	86.60
542.30	46.81
542.47	81.92
542.63	67.88
542.80	9.36
542.97	93.62
543.14	23.41
543.31	112.35
543.48	77.24
543.64	135.75
543.81	7.02
543.98	4.68
544.15	39.79
544.32	86.60
544.48	91.28
544.65	114.69
544.82	126.39
544.99	79.58
545.16	11.70
545.32	93.62
545.49	65.54
545.66	91.28
545.83	65.54
546.00	107.66
546.16	28.09
546.33	72.56
546.50	114.69
546.67	51.49
546.83	131.07
547.00	161.50
547.17	121.71
547.34	93.62
547.50	65.54
547.67	140.43
547.84	74.90
548.00	42.13
548.17	65.54
548.34	105.32
548.51	84.26
548.67	84.26
548.84	70.22
549.01	77.24
549.18	149.79
549.34	170.86
549.51	110.01
549.68	93.62
549.84	128.73
550.01	102.98
550.18	110.01
550.34	102.98
550.51	86.60
550.68	95.96
550.84	100.64
551.01	84.26
551.18	39.79
551.34	25.75
551.51	128.73
551.68	100.64
551.84	100.64
552.01	46.81
552.18	121.71
552.34	119.37
552.51	79.58
552.68	112.35
552.84	60.85
553.01	77.24
553.18	135.75
553.34	147.45
553.51	163.84
553.67	28.09
553.84	121.71
554.01	35.11
554.17	77.24
554.34	67.88
554.51	74.90
554.67	114.69
554.84	105.32
555.00	119.37
555.17	30.43
555.33	117.03
555.50	70.22
555.67	133.41
555.83	105.32
556.00	166.18
556.16	100.64
556.33	77.24
556.50	95.96
556.66	74.90
556.83	28.09
556.99	173.20
557.16	70.22
557.32	53.83
557.49	95.96
557.65	93.62
557.82	119.37
557.98	77.24
558.15	53.83
558.32	44.47
558.48	65.54
558.65	88.94
558.81	126.39
558.98	0.00
559.14	37.45
559.31	166.18
559.47	128.73
559.64	44.47
559.80	95.96
559.97	86.60
560.13	2.34
560.30	42.13
560.46	117.03
560.63	105.32
560.79	51.49
560.96	105.32
561.12	51.49
561.29	138.09
561.45	18.72
561.61	25.75
561.78	110.01
561.94	107.66
562.11	88.94
562.27	30.43
562.44	81.92
562.60	65.54
562.77	168.52
562.93	166.18
563.10	77.24
563.26	98.30
563.42	53.83
563.59	60.85
563.75	102.98
563.92	51.49
564.08	32.77
564.24	112.35
564.41	88.94
564.57	51.49
564.74	88.94
564.90	105.32
565.07	23.41
565.23	46.81
565.39	95.96
565.56	72.56
565.72	35.11
565.88	44.47
566.05	98.30
566.21	25.75
566.38	32.77
566.54	2.34
566.70	86.60
566.87	11.70
567.03	49.15
567.19	0.00
567.36	98.30
567.52	46.81
567.68	79.58
567.85	53.83
568.01	74.90
568.17	46.81
568.34	147.45
568.50	117.03
568.66	107.66
568.83	11.70
568.99	86.60
569.15	121.71
569.32	133.41
569.48	0.00
569.64	65.54
569.81	100.64
569.97	21.06
570.13	23.41
570.30	51.49
570.46	63.19
570.62	74.90
570.78	79.58
570.95	44.47
571.11	112.35
571.27	46.81
571.43	2.34
571.60	37.45
571.76	84.26
571.92	77.24
572.09	86.60
572.25	72.56
572.41	91.28
572.57	16.38
572.74	63.19
572.90	114.69
573.06	63.19
573.22	93.62
573.38	135.75
573.55	119.37
573.71	117.03
573.87	51.49
574.03	145.11
574.20	0.00
574.36	81.92
574.52	74.90
574.68	93.62
574.84	98.30
575.01	166.18
575.17	86.60
575.33	67.88
575.49	95.96
575.65	77.24
575.82	0.00
575.98	14.04
576.14	42.13
576.30	51.49
576.46	81.92
576.62	93.62
576.79	44.47
576.95	110.01
577.11	77.24
577.27	110.01
577.43	100.64
577.59	35.11
577.75	56.17
577.92	112.35
578.08	88.94
578.24	23.41
578.40	39.79
578.56	42.13
578.72	58.51
578.88	79.58
579.04	46.81
579.21	91.28
579.37	67.88
579.53	112.35
579.69	30.43
579.85	0.00
580.01	7.02
580.17	65.54
580.33	79.58
580.49	88.94
580.65	79.58
580.82	88.94
580.98	102.98
581.14	11.70
581.30	58.51
581.46	93.62
581.62	114.69
581.78	86.60
581.94	77.24
582.10	77.24
582.26	93.62
582.42	121.71
582.58	77.24
582.74	35.11
582.90	53.83
583.06	23.41
583.22	86.60
583.38	77.24
583.54	37.45
583.70	86.60
583.86	95.96
584.02	58.51
584.18	70.22
584.34	25.75
584.50	100.64
584.66	131.07
584.82	60.85
584.98	184.90
585.14	126.39
585.30	65.54
585.46	98.30
585.62	35.11
585.78	86.60
585.94	86.60
586.10	39.79
586.26	93.62
586.42	70.22
586.58	74.90
586.74	65.54
586.90	0.00
587.06	110.01
587.22	81.92
587.38	0.00
587.54	98.30
587.70	119.37
587.86	84.26
588.02	49.15
588.18	95.96
588.34	95.96
588.49	119.37
588.65	105.32
588.81	81.92
588.97	58.51
589.13	53.83
589.29	72.56
589.45	18.72
589.61	86.60
589.77	105.32
589.93	30.43
590.08	56.17
590.24	46.81
590.40	77.24
590.56	121.71
590.72	70.22
590.88	32.77
591.04	135.75
591.20	72.56
591.35	93.62
591.51	49.15
591.67	65.54
591.83	42.13
591.99	91.28
592.15	74.90
592.31	110.01
592.46	56.17
592.62	46.81
592.78	114.69
592.94	4.68
593.10	100.64
593.26	124.05
593.41	58.51
593.57	65.54
593.73	16.38
593.89	84.26
594.05	60.85
594.20	46.81
594.36	0.00
594.52	98.30
594.68	7.02
594.84	53.83
594.99	107.66
595.15	119.37
595.31	65.54
595.47	35.11
595.62	56.17
595.78	53.83
595.94	11.70
596.10	44.47
596.25	77.24
596.41	46.81
596.57	58.51
596.73	28.09
596.88	28.09
597.04	67.88
597.20	114.69
597.36	60.85
597.51	25.75
597.67	23.41
597.83	60.85
597.99	60.85
598.14	79.58
598.30	65.54
598.46	102.98
598.61	77.24
598.77	32.77
598.93	84.26
599.09	70.22
599.24	72.56
599.40	53.83
599.56	63.19
599.71	23.41
599.87	39.79
600.03	74.90
600.18	49.15
600.34	56.17
600.50	72.56
600.65	79.58
600.81	37.45
600.97	21.06
601.12	140.43
601.28	98.30
601.44	98.30
601.59	51.49
601.75	58.51
601.91	105.32
602.06	28.09
602.22	74.90
602.37	53.83
602.53	81.92
602.69	98.30
602.84	32.77
603.00	0.00
603.16	58.51
603.31	42.13
603.47	30.43
603.62	70.22
603.78	105.32
603.94	9.36
604.09	74.90
604.25	44.47
604.40	72.56
604.56	81.92
604.71	63.19
604.87	77.24
605.03	35.11
605.18	67.88
605.34	65.54
605.49	124.05
605.65	105.32
605.80	91.28
605.96	102.98
606.12	100.64
606.27	133.41
606.43	44.47
606.58	102.98
606.74	21.06
606.89	58.51
607.05	100.64
607.20	60.85
607.36	58.51
607.51	93.62
607.67	142.77
607.82	58.51
607.98	51.49
608.13	79.58
608.29	126.39
608.44	65.54
608.60	79.58
608.75	88.94
608.91	98.30
609.06	11.70
609.22	70.22
609.37	30.43
609.53	14.04
609.68	60.85
609.84	98.30
609.99	138.09
610.15	30.43
610.30	86.60
610.46	28.09
610.61	37.45
610.76	0.00
610.92	28.09
611.07	110.01
611.23	28.09
611.38	107.66
611.54	56.17
611.69	79.58
611.84	35.11
612.00	44.47
612.15	28.09
612.31	77.24
612.46	16.38
612.62	77.24
612.77	44.47
612.92	58.51
613.08	60.85
613.23	86.60
613.39	91.28
613.54	35.11
613.69	0.00
613.85	60.85
614.00	84.26
614.15	0.00
614.31	53.83
614.46	39.79
614.62	0.00
614.77	28.09
614.92	95.96
615.08	67.88
615.23	30.43
615.38	51.49
615.54	74.90
615.69	7.02
615.84	46.81
616.00	105.32
616.15	60.85
616.30	56.17
616.46	74.90
616.61	53.83
616.76	79.58
616.92	35.11
617.07	91.28
617.22	102.98
617.37	79.58
617.53	44.47
617.68	79.58
617.83	84.26
617.99	100.64
618.14	39.79
618.29	0.00
618.45	128.73
618.60	119.37
618.75	88.94
618.90	135.75
619.06	117.03
619.21	72.56
619.36	28.09
619.51	84.26
619.67	110.01
619.82	70.22
619.97	112.35
620.12	23.41
620.28	177.88
620.43	16.38
620.58	91.28
620.73	110.01
620.89	53.83
621.04	39.79
621.19	0.00
621.34	0.00
621.49	16.38
621.65	121.71
621.80	44.47
621.95	30.43
622.10	37.45
622.25	28.09
622.41	124.05
622.56	63.19
622.71	18.72
622.86	79.58
623.01	98.30
623.16	110.01
623.32	25.75
623.47	46.81
623.62	77.24
623.77	25.75
623.92	60.85
624.07	100.64
624.23	58.51
624.38	86.60
624.53	65.54
624.68	100.64
624.83	56.17
624.98	7.02
625.13	86.60
625.29	42.13
625.44	58.51
625.59	74.90
625.74	95.96
625.89	107.66
626.04	28.09
626.19	112.35
626.34	9.36
626.49	56.17
626.65	51.49
626.80	37.45
626.95	63.19
627.10	93.62
627.25	163.84
627.40	81.92
627.55	4.68
627.70	0.00
627.85	51.49
628.00	25.75
628.15	56.17
628.30	86.60
628.45	35.11
628.60	49.15
628.76	14.04
628.91	4.68
629.06	16.38
629.21	0.00
629.36	65.54
629.51	77.24
629.66	63.19
629.81	35.11
629.96	42.13
630.11	28.09
630.26	74.90
630.41	112.35
630.56	84.26
630.71	0.00
630.86	14.04
631.01	51.49
631.16	156.82
631.31	79.58
631.46	60.85
631.61	175.54
631.76	32.77
631.91	7.02
632.06	72.56
632.21	102.98
632.36	14.04
632.51	51.49
632.66	53.83
632.81	58.51
632.96	35.11
633.10	110.01
633.25	72.56
633.40	65.54
633.55	100.64
633.70	107.66
633.85	58.51
634.00	2.34
634.15	102.98
634.30	46.81
634.45	28.09
634.60	74.90
634.75	30.43
634.90	79.58
635.05	154.48
635.19	95.96
635.34	46.81
635.49	100.64
635.64	74.90
635.79	0.00
635.94	0.00
636.09	63.19
636.24	23.41
636.39	11.70
636.53	56.17
636.68	46.81
636.83	28.09
636.98	79.58
637.13	0.00
637.28	95.96
637.43	46.81
637.57	49.15
637.72	16.38
637.87	102.98
638.02	65.54
638.17	37.45
638.32	117.03
638.46	100.64
638.61	74.90
638.76	81.92
638.91	16.38
639.06	86.60
639.20	93.62
639.35	51.49
639.50	0.00
639.65	95.96
639.80	72.56
639.94	84.26
640.09	0.00
640.24	30.43
640.39	70.22
640.54	81.92
640.68	46.81
640.83	23.41
640.98	77.24
641.13	74.90
641.27	67.88
641.42	67.88
641.57	74.90
641.72	117.03
641.86	46.81
642.01	0.00
642.16	11.70
642.31	119.37
642.45	65.54
642.60	39.79
642.75	67.88
642.90	60.85
643.04	37.45
643.19	95.96
643.34	58.51
643.48	72.56
643.63	42.13
643.78	91.28
643.93	72.56
644.07	14.04
644.22	2.34
644.37	11.70
644.51	53.83
644.66	37.45
644.81	51.49
644.95	16.38
645.10	63.19
645.25	98.30
645.39	44.47
645.54	121.71
645.69	0.00
645.83	30.43
645.98	23.41
646.13	60.85
646.27	39.79
646.42	67.88
646.57	32.77
646.71	70.22
646.86	42.13
647.00	21.06
647.15	74.90
647.30	0.00
647.44	88.94
647.59	74.90
647.74	11.70
647.88	32.77
648.03	21.06
648.17	23.41
648.32	39.79
648.47	39.79
648.61	49.15
648.76	58.51
648.90	0.00
649.05	30.43
649.20	95.96
649.34	93.62
649.49	32.77
649.63	30.43
649.78	39.79
649.92	37.45
650.07	0.00
650.21	23.41
650.36	0.00
650.51	131.07
650.65	70.22
650.80	93.62
650.94	72.56
651.09	46.81
651.23	60.85
651.38	21.06
651.52	0.00
651.67	7.02
651.81	14.04
651.96	51.49
652.10	35.11
652.25	91.28
652.39	21.06
652.54	9.36
652.68	44.47
652.83	58.51
652.97	56.17
653.12	39.79
653.26	131.07
653.41	42.13
653.55	25.75
653.70	110.01
653.84	72.56
653.99	98.30
654.13	35.11
654.27	28.09
654.42	46.81
654.56	58.51
654.71	60.85
654.85	42.13
655.00	81.92
655.14	37.45
655.29	100.64
655.43	95.96
655.57	0.00
655.72	42.13
655.86	42.13
656.01	114.69
656.15	65.54
656.30	117.03
656.44	110.01
656.58	2.34
656.73	0.00
656.87	86.60
657.01	0.00
657.16	46.81
657.30	37.45
657.45	9.36
657.59	42.13
657.73	79.58
657.88	63.19
658.02	77.24
658.16	0.00
658.31	93.62
658.45	140.43
658.60	28.09
658.74	133.41
658.88	91.28
659.03	32.77
659.17	35.11
659.31	37.45
659.46	0.00
659.60	0.00
659.74	28.09
659.89	121.71
660.03	21.06
660.17	56.17
660.32	37.45
660.46	4.68
660.60	63.19
660.74	91.28
660.89	152.13
661.03	140.43
661.17	67.88
661.32	67.88
661.46	81.92
661.60	0.00
661.74	35.11
661.89	16.38
662.03	56.17
662.17	46.81
662.31	44.47
662.46	51.49
662.60	65.54
662.74	98.30
662.88	4.68
663.03	0.00
663.17	37.45
663.31	37.45
663.45	25.75
663.60	11.70
663.74	39.79
663.88	35.11
664.02	56.17
664.17	79.58
664.31	77.24
664.45	25.75
664.59	63.19
664.73	42.13
664.88	72.56
665.02	100.64
665.16	16.38
665.30	67.88
665.44	21.06
665.59	46.81
665.73	56.17
665.87	56.17
666.01	46.81
666.15	0.00
666.29	25.75
666.44	51.49
666.58	7.02
666.72	51.49
666.86	25.75
667.00	23.41
667.14	100.64
667.28	81.92
667.43	81.92
667.57	70.22
667.71	23.41
667.85	49.15
667.99	37.45
668.13	63.19
668.27	67.88
668.41	145.11
668.56	86.60
668.70	0.00
668.84	60.85
668.98	32.77
669.12	23.41
669.26	65.54
669.40	51.49
669.54	49.15
669.68	65.54
669.82	58.51
669.96	16.38
670.10	39.79
670.25	65.54
670.39	102.98
670.53	37.45
670.67	93.62
670.81	23.41
670.95	18.72
671.09	35.11
671.23	60.85
671.37	42.13
671.51	72.56
671.65	72.56
671.79	63.19
671.93	32.77
672.07	37.45
672.21	0.00
672.35	49.15
672.49	7.02
672.63	95.96
672.77	58.51
672.91	16.38
673.05	14.04
673.19	28.09
673.33	44.47
673.47	84.26
673.61	0.00
673.75	35.11
673.89	49.15
674.03	44.47
674.17	93.62
674.31	121.71
674.45	46.81
674.59	37.45
674.73	58.51
674.87	37.45
675.01	98.30
675.15	0.00
675.29	77.24
675.43	60.85
675.56	56.17
675.70	93.62
675.84	23.41
675.98	100.64
676.12	32.77
676.26	0.00
676.40	0.00
676.54	121.71
676.68	65.54
676.82	86.60
676.96	23.41
677.10	81.92
677.23	44.47
677.37	21.06
677.51	58.51
677.65	74.90
677.79	0.00
677.93	32.77
678.07	28.09
678.21	65.54
678.34	42.13
678.48	32.77
678.62	0.00
678.76	9.36
678.90	46.81
679.04	84.26
679.18	2.34
679.31	67.88
679.45	79.58
679.59	44.47
679.73	0.00
679.87	67.88
680.00	65.54
680.14	0.00
680.28	30.43
680.42	28.09
680.56	37.45
680.70	56.17
680.83	67.88
680.97	49.15
681.11	56.17
681.25	91.28
681.39	67.88
681.52	30.43
681.66	39.79
681.80	63.19
681.94	67.88
682.07	84.26
682.21	42.13
682.35	51.49
682.49	42.13
682.62	65.54
682.76	114.69
682.90	93.62
683.04	88.94
683.17	65.54
683.31	21.06
683.45	0.00
683.59	72.56
683.72	0.00
683.86	67.88
684.00	46.81
684.13	0.00
684.27	56.17
684.41	67.88
684.55	9.36
684.68	28.09
684.82	70.22
684.96	98.30
685.09	4.68
685.23	0.00
685.37	88.94
685.50	0.00
685.64	46.81
685.78	51.49
685.91	2.34
686.05	79.58
686.19	30.43
686.32	72.56
686.46	9.36
686.60	42.13
686.73	70.22
686.87	37.45
687.01	0.00
687.14	70.22
687.28	7.02
687.42	0.00
687.55	35.11
687.69	39.79
687.82	21.06
687.96	0.00
688.10	88.94
688.23	0.00
688.37	79.58
688.50	60.85
688.64	32.77
688.78	77.24
688.91	23.41
689.05	42.13
689.18	58.51
689.32	0.00
689.46	0.00
689.59	42.13
689.73	67.88
689.86	23.41
690.00	11.70
690.13	81.92
690.27	23.41
690.41	0.00
690.54	53.83
690.68	49.15
690.81	0.00
690.95	70.22
691.08	21.06
691.22	0.00
691.35	65.54
691.49	23.41
691.62	51.49
691.76	77.24
691.89	0.00
692.03	14.04
692.16	77.24
692.30	72.56
692.43	74.90
692.57	56.17
692.70	0.00
692.84	44.47
692.97	0.00
693.11	4.68
693.24	79.58
693.38	32.77
693.51	0.00
693.65	67.88
693.78	0.00
693.92	0.00
694.05	77.24
694.19	2.34
694.32	42.13
694.45	16.38
694.59	4.68
694.72	0.00
694.86	25.75
694.99	28.09
695.13	42.13
695.26	0.00
695.39	86.60
695.53	0.00
695.66	91.28
695.80	91.28
695.93	32.77
696.07	63.19
696.20	11.70
696.33	39.79
696.47	0.00
696.60	2.34
696.73	58.51
696.87	91.28
697.00	16.38
697.14	44.47
697.27	0.00
697.40	110.01
697.54	67.88
697.67	93.62
697.80	7.02
697.94	53.83
698.07	88.94
698.21	23.41
698.34	39.79
698.47	67.88
698.61	4.68
698.74	88.94
698.87	65.54
699.01	58.51
699.14	60.85
699.27	0.00
699.40	51.49
699.54	0.00
699.67	39.79
699.80	0.00
699.94	63.19
700.07	58.51
700.20	0.00
700.34	58.51
700.47	14.04
700.60	2.34
700.73	91.28
700.87	56.17
701.00	9.36
701.13	44.47
701.26	4.68
701.40	58.51
701.53	7.02
701.66	60.85
701.79	0.00
701.93	42.13
702.06	86.60
702.19	42.13
702.32	49.15
702.46	23.41
702.59	63.19
702.72	37.45
702.85	4.68
702.99	0.00
703.12	32.77
703.25	98.30
703.38	70.22
703.51	39.79
703.65	70.22
703.78	72.56
703.91	30.43
704.04	53.83
704.17	0.00
704.31	67.88
704.44	58.51
704.57	25.75
704.70	56.17
704.83	16.38
704.96	2.34
705.10	46.81
705.23	46.81
>>>>>End Processed Spectral Data<<<<<
