SpectraSuite Data File
++++++++++++++++++++++++++++++++++++
Date: Fri Oct 04 12:13:32 GMT-05:00 2013
User: price-jones
Dark Spectrum Present: No
Reference Spectrum Present: No
Number of Sampled Component Spectra: 1
Spectrometers: USB2+H05261
Integration Time (usec): 10000 (USB2+H05261)
Spectra Averaged: 1 (USB2+H05261)
Boxcar Smoothing: 0 (USB2+H05261)
Correct for Electrical Dark: No (USB2+H05261)
Strobe/Lamp Enabled: No (USB2+H05261)
Correct for Detector Non-linearity: No (USB2+H05261)
Correct for Stray Light: No (USB2+H05261)
Number of Pixels in Processed Spectrum: 2048
>>>>>Begin Processed Spectral Data<<<<<
365.73	9.36
365.92	9.36
366.12	9.36
366.32	0.00
366.52	0.00
366.72	0.00
366.91	0.00
367.11	0.00
367.31	0.00
367.51	0.00
367.70	0.00
367.90	0.00
368.10	0.00
368.30	0.00
368.49	0.00
368.69	0.00
368.89	0.00
369.09	0.00
369.28	0.00
369.48	0.00
369.68	0.00
369.87	0.00
370.07	0.00
370.27	0.00
370.47	0.00
370.66	0.00
370.86	0.00
371.06	0.00
371.25	9.36
371.45	0.00
371.65	16.38
371.84	0.00
372.04	0.00
372.24	0.00
372.44	0.00
372.63	56.17
372.83	25.75
373.03	88.94
373.22	23.41
373.42	28.09
373.62	28.09
373.81	0.00
374.01	0.00
374.21	30.43
374.40	28.09
374.60	53.83
374.79	51.49
374.99	51.49
375.19	46.81
375.38	0.00
375.58	0.00
375.78	0.00
375.97	32.77
376.17	35.11
376.37	0.00
376.56	0.00
376.76	39.79
376.95	25.75
377.15	0.00
377.35	32.77
377.54	9.36
377.74	81.92
377.93	21.06
378.13	16.38
378.33	9.36
378.52	11.70
378.72	77.24
378.91	0.00
379.11	0.00
379.31	11.70
379.50	0.00
379.70	18.72
379.89	39.79
380.09	11.70
380.28	119.37
380.48	0.00
380.68	53.83
380.87	77.24
381.07	0.00
381.26	21.06
381.46	0.00
381.65	16.38
381.85	21.06
382.04	14.04
382.24	63.19
382.43	0.00
382.63	28.09
382.83	32.77
383.02	56.17
383.22	37.45
383.41	7.02
383.61	39.79
383.80	7.02
384.00	86.60
384.19	84.26
384.39	21.06
384.58	7.02
384.78	0.00
384.97	53.83
385.17	23.41
385.36	37.45
385.56	30.43
385.75	18.72
385.95	65.54
386.14	0.00
386.34	74.90
386.53	9.36
386.72	0.00
386.92	14.04
387.11	14.04
387.31	32.77
387.50	0.00
387.70	0.00
387.89	42.13
388.09	4.68
388.28	9.36
388.48	53.83
388.67	0.00
388.86	72.56
389.06	0.00
389.25	35.11
389.45	42.13
389.64	91.28
389.84	4.68
390.03	39.79
390.22	49.15
390.42	2.34
390.61	7.02
390.81	117.03
391.00	53.83
391.19	0.00
391.39	67.88
391.58	0.00
391.78	16.38
391.97	63.19
392.16	0.00
392.36	98.30
392.55	23.41
392.75	28.09
392.94	0.00
393.13	51.49
393.33	18.72
393.52	30.43
393.71	0.00
393.91	70.22
394.10	42.13
394.29	11.70
394.49	58.51
394.68	63.19
394.88	91.28
395.07	0.00
395.26	51.49
395.46	18.72
395.65	44.47
395.84	70.22
396.04	4.68
396.23	11.70
396.42	9.36
396.62	44.47
396.81	42.13
397.00	4.68
397.19	32.77
397.39	0.00
397.58	56.17
397.77	35.11
397.97	25.75
398.16	35.11
398.35	42.13
398.55	0.00
398.74	0.00
398.93	0.00
399.12	72.56
399.32	53.83
399.51	49.15
399.70	84.26
399.90	37.45
400.09	102.98
400.28	77.24
400.47	14.04
400.67	0.00
400.86	32.77
401.05	44.47
401.24	44.47
401.44	53.83
401.63	21.06
401.82	35.11
402.01	44.47
402.21	44.47
402.40	0.00
402.59	35.11
402.78	53.83
402.97	16.38
403.17	0.00
403.36	86.60
403.55	37.45
403.74	25.75
403.93	51.49
404.13	0.00
404.32	46.81
404.51	60.85
404.70	0.00
404.89	110.01
405.09	30.43
405.28	23.41
405.47	2.34
405.66	0.00
405.85	16.38
406.05	18.72
406.24	46.81
406.43	35.11
406.62	102.98
406.81	51.49
407.00	0.00
407.20	65.54
407.39	2.34
407.58	0.00
407.77	0.00
407.96	23.41
408.15	0.00
408.34	67.88
408.54	14.04
408.73	65.54
408.92	21.06
409.11	21.06
409.30	44.47
409.49	18.72
409.68	0.00
409.87	74.90
410.07	0.00
410.26	51.49
410.45	77.24
410.64	11.70
410.83	18.72
411.02	74.90
411.21	56.17
411.40	46.81
411.59	0.00
411.78	79.58
411.98	9.36
412.17	0.00
412.36	0.00
412.55	0.00
412.74	0.00
412.93	0.00
413.12	0.00
413.31	77.24
413.50	23.41
413.69	79.58
413.88	35.11
414.07	35.11
414.26	53.83
414.45	65.54
414.64	39.79
414.83	37.45
415.02	0.00
415.22	37.45
415.41	0.00
415.60	56.17
415.79	4.68
415.98	0.00
416.17	0.00
416.36	30.43
416.55	0.00
416.74	51.49
416.93	4.68
417.12	28.09
417.31	0.00
417.50	58.51
417.69	74.90
417.88	65.54
418.07	56.17
418.26	56.17
418.45	16.38
418.64	0.00
418.83	2.34
419.02	0.00
419.21	0.00
419.39	0.00
419.58	93.62
419.77	42.13
419.96	0.00
420.15	46.81
420.34	56.17
420.53	0.00
420.72	30.43
420.91	0.00
421.10	0.00
421.29	25.75
421.48	44.47
421.67	39.79
421.86	23.41
422.05	91.28
422.24	32.77
422.43	0.00
422.61	0.00
422.80	95.96
422.99	74.90
423.18	25.75
423.37	18.72
423.56	0.00
423.75	67.88
423.94	30.43
424.13	23.41
424.32	60.85
424.50	46.81
424.69	0.00
424.88	0.00
425.07	25.75
425.26	77.24
425.45	11.70
425.64	0.00
425.83	30.43
426.01	0.00
426.20	0.00
426.39	39.79
426.58	0.00
426.77	39.79
426.96	35.11
427.15	39.79
427.33	46.81
427.52	0.00
427.71	124.05
427.90	44.47
428.09	21.06
428.28	37.45
428.46	72.56
428.65	67.88
428.84	93.62
429.03	0.00
429.22	0.00
429.40	0.00
429.59	4.68
429.78	49.15
429.97	30.43
430.16	67.88
430.34	28.09
430.53	46.81
430.72	60.85
430.91	39.79
431.10	0.00
431.28	77.24
431.47	0.00
431.66	0.00
431.85	60.85
432.03	0.00
432.22	49.15
432.41	95.96
432.60	39.79
432.79	18.72
432.97	0.00
433.16	35.11
433.35	0.00
433.54	25.75
433.72	37.45
433.91	51.49
434.10	11.70
434.28	74.90
434.47	0.00
434.66	58.51
434.85	63.19
435.03	39.79
435.22	21.06
435.41	9.36
435.59	32.77
435.78	16.38
435.97	32.77
436.16	0.00
436.34	84.26
436.53	0.00
436.72	14.04
436.90	11.70
437.09	2.34
437.28	0.00
437.46	58.51
437.65	37.45
437.84	4.68
438.02	25.75
438.21	39.79
438.40	16.38
438.58	0.00
438.77	16.38
438.96	35.11
439.14	9.36
439.33	65.54
439.52	0.00
439.70	79.58
439.89	35.11
440.08	124.05
440.26	0.00
440.45	0.00
440.63	44.47
440.82	72.56
441.01	88.94
441.19	35.11
441.38	100.64
441.57	35.11
441.75	2.34
441.94	14.04
442.12	2.34
442.31	9.36
442.50	0.00
442.68	16.38
442.87	37.45
443.05	72.56
443.24	102.98
443.43	0.00
443.61	28.09
443.80	39.79
443.98	39.79
444.17	18.72
444.35	56.17
444.54	23.41
444.73	28.09
444.91	44.47
445.10	65.54
445.28	102.98
445.47	39.79
445.65	30.43
445.84	39.79
446.02	0.00
446.21	72.56
446.39	53.83
446.58	70.22
446.77	51.49
446.95	0.00
447.14	4.68
447.32	25.75
447.51	14.04
447.69	49.15
447.88	60.85
448.06	77.24
448.25	25.75
448.43	58.51
448.62	44.47
448.80	21.06
448.99	4.68
449.17	37.45
449.36	81.92
449.54	35.11
449.73	7.02
449.91	81.92
450.10	46.81
450.28	18.72
450.46	35.11
450.65	35.11
450.83	39.79
451.02	0.00
451.20	0.00
451.39	98.30
451.57	23.41
451.76	0.00
451.94	0.00
452.13	114.69
452.31	23.41
452.49	0.00
452.68	44.47
452.86	28.09
453.05	51.49
453.23	9.36
453.42	91.28
453.60	56.17
453.78	72.56
453.97	60.85
454.15	74.90
454.34	44.47
454.52	74.90
454.70	0.00
454.89	63.19
455.07	21.06
455.26	9.36
455.44	49.15
455.62	0.00
455.81	0.00
455.99	74.90
456.17	37.45
456.36	0.00
456.54	44.47
456.73	37.45
456.91	0.00
457.09	37.45
457.28	2.34
457.46	70.22
457.64	28.09
457.83	21.06
458.01	49.15
458.19	0.00
458.38	35.11
458.56	9.36
458.74	7.02
458.93	9.36
459.11	32.77
459.29	23.41
459.48	79.58
459.66	21.06
459.84	112.35
460.03	63.19
460.21	21.06
460.39	11.70
460.57	58.51
460.76	46.81
460.94	56.17
461.12	67.88
461.31	44.47
461.49	95.96
461.67	44.47
461.85	49.15
462.04	16.38
462.22	131.07
462.40	0.00
462.59	56.17
462.77	70.22
462.95	2.34
463.13	11.70
463.32	23.41
463.50	0.00
463.68	42.13
463.86	39.79
464.05	4.68
464.23	60.85
464.41	67.88
464.59	70.22
464.78	28.09
464.96	35.11
465.14	0.00
465.32	0.00
465.50	0.00
465.69	98.30
465.87	11.70
466.05	35.11
466.23	53.83
466.41	35.11
466.60	63.19
466.78	35.11
466.96	0.00
467.14	51.49
467.32	86.60
467.51	67.88
467.69	32.77
467.87	44.47
468.05	56.17
468.23	72.56
468.41	58.51
468.60	0.00
468.78	67.88
468.96	49.15
469.14	18.72
469.32	53.83
469.50	0.00
469.69	2.34
469.87	79.58
470.05	65.54
470.23	30.43
470.41	2.34
470.59	53.83
470.77	65.54
470.95	28.09
471.14	30.43
471.32	25.75
471.50	23.41
471.68	51.49
471.86	74.90
472.04	16.38
472.22	37.45
472.40	105.32
472.58	9.36
472.77	0.00
472.95	9.36
473.13	102.98
473.31	25.75
473.49	18.72
473.67	79.58
473.85	7.02
474.03	56.17
474.21	112.35
474.39	49.15
474.57	21.06
474.75	28.09
474.93	46.81
475.12	88.94
475.30	60.85
475.48	35.11
475.66	28.09
475.84	35.11
476.02	21.06
476.20	32.77
476.38	37.45
476.56	42.13
476.74	95.96
476.92	30.43
477.10	35.11
477.28	65.54
477.46	25.75
477.64	16.38
477.82	28.09
478.00	39.79
478.18	65.54
478.36	53.83
478.54	37.45
478.72	42.13
478.90	72.56
479.08	39.79
479.26	93.62
479.44	39.79
479.62	53.83
479.80	70.22
479.98	128.73
480.16	56.17
480.34	0.00
480.52	65.54
480.70	56.17
480.88	23.41
481.06	98.30
481.24	67.88
481.41	56.17
481.59	39.79
481.77	154.48
481.95	79.58
482.13	39.79
482.31	11.70
482.49	0.00
482.67	0.00
482.85	53.83
483.03	11.70
483.21	49.15
483.39	0.00
483.57	25.75
483.74	86.60
483.92	126.39
484.10	51.49
484.28	95.96
484.46	32.77
484.64	53.83
484.82	44.47
485.00	21.06
485.18	37.45
485.35	102.98
485.53	51.49
485.71	0.00
485.89	35.11
486.07	0.00
486.25	9.36
486.43	14.04
486.61	79.58
486.78	39.79
486.96	4.68
487.14	32.77
487.32	53.83
487.50	60.85
487.68	93.62
487.85	63.19
488.03	60.85
488.21	28.09
488.39	60.85
488.57	35.11
488.75	95.96
488.92	46.81
489.10	79.58
489.28	0.00
489.46	35.11
489.64	67.88
489.81	74.90
489.99	28.09
490.17	124.05
490.35	56.17
490.53	72.56
490.70	44.47
490.88	37.45
491.06	21.06
491.24	79.58
491.41	60.85
491.59	60.85
491.77	28.09
491.95	0.00
492.13	58.51
492.30	77.24
492.48	16.38
492.66	79.58
492.84	28.09
493.01	88.94
493.19	51.49
493.37	9.36
493.54	42.13
493.72	102.98
493.90	25.75
494.08	56.17
494.25	51.49
494.43	0.00
494.61	0.00
494.79	79.58
494.96	138.09
495.14	0.00
495.32	74.90
495.49	21.06
495.67	37.45
495.85	65.54
496.02	23.41
496.20	16.38
496.38	65.54
496.55	37.45
496.73	63.19
496.91	25.75
497.09	14.04
497.26	23.41
497.44	37.45
497.62	93.62
497.79	60.85
497.97	49.15
498.14	39.79
498.32	32.77
498.50	128.73
498.67	32.77
498.85	72.56
499.03	58.51
499.20	11.70
499.38	42.13
499.56	74.90
499.73	51.49
499.91	74.90
500.08	79.58
500.26	49.15
500.44	63.19
500.61	14.04
500.79	56.17
500.97	63.19
501.14	35.11
501.32	28.09
501.49	0.00
501.67	51.49
501.84	32.77
502.02	60.85
502.20	135.75
502.37	72.56
502.55	42.13
502.72	100.64
502.90	77.24
503.07	102.98
503.25	121.71
503.43	4.68
503.60	0.00
503.78	46.81
503.95	98.30
504.13	119.37
504.30	30.43
504.48	28.09
504.65	49.15
504.83	70.22
505.01	0.00
505.18	0.00
505.36	49.15
505.53	63.19
505.71	79.58
505.88	86.60
506.06	9.36
506.23	60.85
506.41	42.13
506.58	2.34
506.76	37.45
506.93	32.77
507.11	133.41
507.28	18.72
507.46	0.00
507.63	84.26
507.81	51.49
507.98	124.05
508.16	84.26
508.33	74.90
508.50	18.72
508.68	100.64
508.85	81.92
509.03	60.85
509.20	42.13
509.38	72.56
509.55	42.13
509.73	74.90
509.90	0.00
510.08	46.81
510.25	74.90
510.42	46.81
510.60	49.15
510.77	86.60
510.95	88.94
511.12	16.38
511.30	84.26
511.47	93.62
511.64	74.90
511.82	28.09
511.99	25.75
512.17	49.15
512.34	37.45
512.51	44.47
512.69	88.94
512.86	60.85
513.04	28.09
513.21	0.00
513.38	65.54
513.56	51.49
513.73	126.39
513.90	21.06
514.08	93.62
514.25	51.49
514.43	114.69
514.60	37.45
514.77	0.00
514.95	84.26
515.12	65.54
515.29	39.79
515.47	42.13
515.64	30.43
515.81	0.00
515.99	49.15
516.16	18.72
516.33	105.32
516.51	84.26
516.68	0.00
516.85	0.00
517.03	14.04
517.20	4.68
517.37	86.60
517.54	77.24
517.72	46.81
517.89	145.11
518.06	28.09
518.24	60.85
518.41	86.60
518.58	63.19
518.75	98.30
518.93	46.81
519.10	86.60
519.27	100.64
519.45	67.88
519.62	135.75
519.79	42.13
519.96	2.34
520.14	30.43
520.31	37.45
520.48	37.45
520.65	0.00
520.83	74.90
521.00	58.51
521.17	39.79
521.34	65.54
521.52	84.26
521.69	37.45
521.86	18.72
522.03	77.24
522.20	14.04
522.38	23.41
522.55	84.26
522.72	51.49
522.89	0.00
523.07	4.68
523.24	86.60
523.41	51.49
523.58	46.81
523.75	32.77
523.92	49.15
524.10	98.30
524.27	0.00
524.44	77.24
524.61	95.96
524.78	0.00
524.96	46.81
525.13	67.88
525.30	51.49
525.47	18.72
525.64	49.15
525.81	23.41
525.98	67.88
526.16	67.88
526.33	126.39
526.50	81.92
526.67	0.00
526.84	112.35
527.01	18.72
527.18	67.88
527.36	0.00
527.53	72.56
527.70	58.51
527.87	81.92
528.04	25.75
528.21	67.88
528.38	77.24
528.55	86.60
528.72	74.90
528.89	65.54
529.07	16.38
529.24	95.96
529.41	0.00
529.58	65.54
529.75	7.02
529.92	56.17
530.09	86.60
530.26	25.75
530.43	42.13
530.60	30.43
530.77	67.88
530.94	110.01
531.11	60.85
531.28	0.00
531.46	49.15
531.63	91.28
531.80	63.19
531.97	28.09
532.14	114.69
532.31	56.17
532.48	79.58
532.65	23.41
532.82	2.34
532.99	91.28
533.16	60.85
533.33	81.92
533.50	0.00
533.67	72.56
533.84	46.81
534.01	102.98
534.18	28.09
534.35	35.11
534.52	77.24
534.69	21.06
534.86	74.90
535.03	21.06
535.20	63.19
535.37	42.13
535.54	98.30
535.71	117.03
535.88	37.45
536.05	63.19
536.22	7.02
536.38	117.03
536.55	65.54
536.72	98.30
536.89	60.85
537.06	98.30
537.23	46.81
537.40	2.34
537.57	46.81
537.74	14.04
537.91	53.83
538.08	91.28
538.25	67.88
538.42	23.41
538.59	56.17
538.75	0.00
538.92	9.36
539.09	46.81
539.26	39.79
539.43	32.77
539.60	21.06
539.77	88.94
539.94	53.83
540.11	95.96
540.28	25.75
540.44	63.19
540.61	49.15
540.78	30.43
540.95	86.60
541.12	58.51
541.29	35.11
541.46	117.03
541.62	56.17
541.79	9.36
541.96	112.35
542.13	42.13
542.30	25.75
542.47	93.62
542.63	37.45
542.80	39.79
542.97	7.02
543.14	53.83
543.31	49.15
543.48	0.00
543.64	46.81
543.81	23.41
543.98	81.92
544.15	67.88
544.32	46.81
544.48	79.58
544.65	72.56
544.82	63.19
544.99	0.00
545.16	28.09
545.32	86.60
545.49	124.05
545.66	51.49
545.83	0.00
546.00	0.00
546.16	0.00
546.33	39.79
546.50	21.06
546.67	35.11
546.83	107.66
547.00	28.09
547.17	0.00
547.34	56.17
547.50	119.37
547.67	53.83
547.84	114.69
548.00	7.02
548.17	131.07
548.34	0.00
548.51	98.30
548.67	0.00
548.84	95.96
549.01	77.24
549.18	107.66
549.34	107.66
549.51	79.58
549.68	86.60
549.84	7.02
550.01	0.00
550.18	46.81
550.34	84.26
550.51	53.83
550.68	58.51
550.84	58.51
551.01	56.17
551.18	112.35
551.34	56.17
551.51	0.00
551.68	44.47
551.84	86.60
552.01	67.88
552.18	44.47
552.34	98.30
552.51	42.13
552.68	58.51
552.84	44.47
553.01	0.00
553.18	16.38
553.34	49.15
553.51	56.17
553.67	51.49
553.84	72.56
554.01	81.92
554.17	4.68
554.34	56.17
554.51	23.41
554.67	46.81
554.84	77.24
555.00	110.01
555.17	37.45
555.33	79.58
555.50	46.81
555.67	58.51
555.83	74.90
556.00	37.45
556.16	46.81
556.33	28.09
556.50	49.15
556.66	102.98
556.83	44.47
556.99	30.43
557.16	84.26
557.32	126.39
557.49	102.98
557.65	105.32
557.82	56.17
557.98	0.00
558.15	16.38
558.32	0.00
558.48	49.15
558.65	42.13
558.81	21.06
558.98	0.00
559.14	91.28
559.31	30.43
559.47	0.00
559.64	0.00
559.80	0.00
559.97	65.54
560.13	42.13
560.30	44.47
560.46	0.00
560.63	72.56
560.79	74.90
560.96	74.90
561.12	72.56
561.29	114.69
561.45	70.22
561.61	0.00
561.78	86.60
561.94	49.15
562.11	65.54
562.27	25.75
562.44	30.43
562.60	44.47
562.77	49.15
562.93	91.28
563.10	11.70
563.26	46.81
563.42	70.22
563.59	28.09
563.75	72.56
563.92	39.79
564.08	72.56
564.24	44.47
564.41	42.13
564.57	67.88
564.74	0.00
564.90	65.54
565.07	32.77
565.23	67.88
565.39	70.22
565.56	44.47
565.72	70.22
565.88	14.04
566.05	46.81
566.21	131.07
566.38	2.34
566.54	124.05
566.70	65.54
566.87	58.51
567.03	79.58
567.19	9.36
567.36	16.38
567.52	58.51
567.68	11.70
567.85	42.13
568.01	37.45
568.17	21.06
568.34	65.54
568.50	25.75
568.66	0.00
568.83	0.00
568.99	35.11
569.15	46.81
569.32	53.83
569.48	51.49
569.64	72.56
569.81	42.13
569.97	51.49
570.13	110.01
570.30	77.24
570.46	46.81
570.62	44.47
570.78	60.85
570.95	63.19
571.11	60.85
571.27	28.09
571.43	4.68
571.60	16.38
571.76	72.56
571.92	102.98
572.09	14.04
572.25	23.41
572.41	25.75
572.57	72.56
572.74	58.51
572.90	84.26
573.06	58.51
573.22	0.00
573.38	0.00
573.55	23.41
573.71	9.36
573.87	74.90
574.03	46.81
574.20	42.13
574.36	95.96
574.52	0.00
574.68	0.00
574.84	65.54
575.01	18.72
575.17	98.30
575.33	0.00
575.49	44.47
575.65	16.38
575.82	18.72
575.98	44.47
576.14	53.83
576.30	23.41
576.46	4.68
576.62	58.51
576.79	0.00
576.95	0.00
577.11	39.79
577.27	72.56
577.43	67.88
577.59	56.17
577.75	72.56
577.92	53.83
578.08	110.01
578.24	67.88
578.40	67.88
578.56	77.24
578.72	72.56
578.88	70.22
579.04	25.75
579.21	79.58
579.37	9.36
579.53	0.00
579.69	42.13
579.85	95.96
580.01	86.60
580.17	35.11
580.33	0.00
580.49	58.51
580.65	51.49
580.82	84.26
580.98	42.13
581.14	63.19
581.30	46.81
581.46	4.68
581.62	0.00
581.78	16.38
581.94	65.54
582.10	112.35
582.26	42.13
582.42	60.85
582.58	63.19
582.74	88.94
582.90	9.36
583.06	53.83
583.22	0.00
583.38	25.75
583.54	72.56
583.70	9.36
583.86	23.41
584.02	46.81
584.18	14.04
584.34	86.60
584.50	39.79
584.66	44.47
584.82	0.00
584.98	63.19
585.14	149.79
585.30	79.58
585.46	0.00
585.62	32.77
585.78	49.15
585.94	42.13
586.10	49.15
586.26	28.09
586.42	58.51
586.58	133.41
586.74	79.58
586.90	86.60
587.06	0.00
587.22	77.24
587.38	70.22
587.54	16.38
587.70	77.24
587.86	35.11
588.02	30.43
588.18	140.43
588.34	107.66
588.49	67.88
588.65	14.04
588.81	100.64
588.97	65.54
589.13	39.79
589.29	30.43
589.45	30.43
589.61	21.06
589.77	46.81
589.93	60.85
590.08	95.96
590.24	7.02
590.40	0.00
590.56	7.02
590.72	0.00
590.88	25.75
591.04	79.58
591.20	46.81
591.35	0.00
591.51	46.81
591.67	11.70
591.83	0.00
591.99	95.96
592.15	44.47
592.31	49.15
592.46	67.88
592.62	60.85
592.78	32.77
592.94	67.88
593.10	35.11
593.26	0.00
593.41	53.83
593.57	63.19
593.73	14.04
593.89	21.06
594.05	93.62
594.20	16.38
594.36	35.11
594.52	21.06
594.68	32.77
594.84	65.54
594.99	0.00
595.15	32.77
595.31	37.45
595.47	28.09
595.62	2.34
595.78	18.72
595.94	11.70
596.10	81.92
596.25	98.30
596.41	79.58
596.57	32.77
596.73	58.51
596.88	42.13
597.04	7.02
597.20	25.75
597.36	37.45
597.51	84.26
597.67	58.51
597.83	23.41
597.99	32.77
598.14	7.02
598.30	56.17
598.46	37.45
598.61	46.81
598.77	77.24
598.93	9.36
599.09	93.62
599.24	67.88
599.40	60.85
599.56	70.22
599.71	49.15
599.87	0.00
600.03	0.00
600.18	112.35
600.34	25.75
600.50	0.00
600.65	49.15
600.81	63.19
600.97	44.47
601.12	46.81
601.28	0.00
601.44	7.02
601.59	0.00
601.75	72.56
601.91	79.58
602.06	16.38
602.22	37.45
602.37	0.00
602.53	23.41
602.69	67.88
602.84	32.77
603.00	81.92
603.16	23.41
603.31	16.38
603.47	25.75
603.62	79.58
603.78	105.32
603.94	51.49
604.09	100.64
604.25	44.47
604.40	63.19
604.56	14.04
604.71	49.15
604.87	35.11
605.03	4.68
605.18	60.85
605.34	79.58
605.49	28.09
605.65	0.00
605.80	35.11
605.96	84.26
606.12	18.72
606.27	72.56
606.43	46.81
606.58	18.72
606.74	32.77
606.89	32.77
607.05	53.83
607.20	60.85
607.36	18.72
607.51	53.83
607.67	0.00
607.82	63.19
607.98	7.02
608.13	37.45
608.29	11.70
608.44	30.43
608.60	0.00
608.75	30.43
608.91	11.70
609.06	4.68
609.22	72.56
609.37	105.32
609.53	49.15
609.68	9.36
609.84	2.34
609.99	131.07
610.15	0.00
610.30	49.15
610.46	30.43
610.61	0.00
610.76	0.00
610.92	11.70
611.07	44.47
611.23	74.90
611.38	84.26
611.54	46.81
611.69	51.49
611.84	81.92
612.00	28.09
612.15	0.00
612.31	58.51
612.46	65.54
612.62	14.04
612.77	14.04
612.92	81.92
613.08	14.04
613.23	46.81
613.39	28.09
613.54	0.00
613.69	49.15
613.85	49.15
614.00	25.75
614.15	70.22
614.31	60.85
614.46	28.09
614.62	53.83
614.77	18.72
614.92	100.64
615.08	21.06
615.23	84.26
615.38	46.81
615.54	0.00
615.69	74.90
615.84	30.43
616.00	86.60
616.15	0.00
616.30	0.00
616.46	49.15
616.61	60.85
616.76	65.54
616.92	51.49
617.07	81.92
617.22	84.26
617.37	0.00
617.53	0.00
617.68	65.54
617.83	28.09
617.99	79.58
618.14	170.86
618.29	84.26
618.45	0.00
618.60	91.28
618.75	72.56
618.90	35.11
619.06	102.98
619.21	16.38
619.36	65.54
619.51	23.41
619.67	4.68
619.82	32.77
619.97	105.32
620.12	58.51
620.28	67.88
620.43	81.92
620.58	51.49
620.73	14.04
620.89	42.13
621.04	35.11
621.19	18.72
621.34	37.45
621.49	91.28
621.65	0.00
621.80	81.92
621.95	112.35
622.10	0.00
622.25	16.38
622.41	23.41
622.56	0.00
622.71	53.83
622.86	37.45
623.01	37.45
623.16	11.70
623.32	110.01
623.47	46.81
623.62	0.00
623.77	0.00
623.92	58.51
624.07	56.17
624.23	0.00
624.38	18.72
624.53	102.98
624.68	65.54
624.83	42.13
624.98	23.41
625.13	114.69
625.29	49.15
625.44	18.72
625.59	30.43
625.74	0.00
625.89	18.72
626.04	0.00
626.19	18.72
626.34	114.69
626.49	2.34
626.65	37.45
626.80	77.24
626.95	0.00
627.10	49.15
627.25	30.43
627.40	79.58
627.55	21.06
627.70	81.92
627.85	53.83
628.00	42.13
628.15	21.06
628.30	46.81
628.45	84.26
628.60	42.13
628.76	88.94
628.91	23.41
629.06	63.19
629.21	44.47
629.36	84.26
629.51	98.30
629.66	0.00
629.81	42.13
629.96	58.51
630.11	98.30
630.26	51.49
630.41	98.30
630.56	11.70
630.71	81.92
630.86	93.62
631.01	42.13
631.16	51.49
631.31	28.09
631.46	81.92
631.61	84.26
631.76	30.43
631.91	77.24
632.06	30.43
632.21	0.00
632.36	46.81
632.51	25.75
632.66	0.00
632.81	93.62
632.96	84.26
633.10	30.43
633.25	53.83
633.40	51.49
633.55	16.38
633.70	23.41
633.85	23.41
634.00	44.47
634.15	91.28
634.30	140.43
634.45	51.49
634.60	0.00
634.75	0.00
634.90	117.03
635.05	0.00
635.19	32.77
635.34	25.75
635.49	60.85
635.64	37.45
635.79	9.36
635.94	21.06
636.09	107.66
636.24	51.49
636.39	21.06
636.53	32.77
636.68	30.43
636.83	0.00
636.98	72.56
637.13	42.13
637.28	46.81
637.43	35.11
637.57	0.00
637.72	67.88
637.87	53.83
638.02	77.24
638.17	23.41
638.32	67.88
638.46	51.49
638.61	32.77
638.76	0.00
638.91	128.73
639.06	63.19
639.20	91.28
639.35	32.77
639.50	30.43
639.65	105.32
639.80	79.58
639.94	49.15
640.09	74.90
640.24	18.72
640.39	91.28
640.54	67.88
640.68	21.06
640.83	23.41
640.98	0.00
641.13	46.81
641.27	0.00
641.42	56.17
641.57	53.83
641.72	9.36
641.86	11.70
642.01	98.30
642.16	56.17
642.31	0.00
642.45	32.77
642.60	35.11
642.75	0.00
642.90	14.04
643.04	70.22
643.19	32.77
643.34	74.90
643.48	88.94
643.63	86.60
643.78	18.72
643.93	51.49
644.07	72.56
644.22	112.35
644.37	79.58
644.51	67.88
644.66	70.22
644.81	32.77
644.95	44.47
645.10	9.36
645.25	51.49
645.39	42.13
645.54	28.09
645.69	35.11
645.83	14.04
645.98	2.34
646.13	44.47
646.27	70.22
646.42	124.05
646.57	37.45
646.71	100.64
646.86	9.36
647.00	63.19
647.15	93.62
647.30	14.04
647.44	16.38
647.59	9.36
647.74	107.66
647.88	58.51
648.03	28.09
648.17	35.11
648.32	51.49
648.47	25.75
648.61	37.45
648.76	25.75
648.90	42.13
649.05	18.72
649.20	44.47
649.34	74.90
649.49	51.49
649.63	58.51
649.78	65.54
649.92	42.13
650.07	112.35
650.21	67.88
650.36	9.36
650.51	0.00
650.65	28.09
650.80	79.58
650.94	51.49
651.09	21.06
651.23	39.79
651.38	0.00
651.52	0.00
651.67	0.00
651.81	95.96
651.96	79.58
652.10	84.26
652.25	119.37
652.39	65.54
652.54	79.58
652.68	32.77
652.83	30.43
652.97	30.43
653.12	53.83
653.26	53.83
653.41	77.24
653.55	93.62
653.70	53.83
653.84	53.83
653.99	88.94
654.13	37.45
654.27	58.51
654.42	44.47
654.56	72.56
654.71	49.15
654.85	39.79
655.00	16.38
655.14	0.00
655.29	42.13
655.43	39.79
655.57	58.51
655.72	0.00
655.86	42.13
656.01	81.92
656.15	86.60
656.30	9.36
656.44	2.34
656.58	30.43
656.73	79.58
656.87	98.30
657.01	37.45
657.16	58.51
657.30	44.47
657.45	0.00
657.59	21.06
657.73	18.72
657.88	53.83
658.02	23.41
658.16	0.00
658.31	95.96
658.45	58.51
658.60	0.00
658.74	63.19
658.88	0.00
659.03	42.13
659.17	4.68
659.31	35.11
659.46	53.83
659.60	30.43
659.74	7.02
659.89	0.00
660.03	21.06
660.17	70.22
660.32	32.77
660.46	46.81
660.60	32.77
660.74	9.36
660.89	0.00
661.03	32.77
661.17	16.38
661.32	30.43
661.46	60.85
661.60	95.96
661.74	112.35
661.89	11.70
662.03	51.49
662.17	74.90
662.31	70.22
662.46	18.72
662.60	18.72
662.74	81.92
662.88	39.79
663.03	0.00
663.17	44.47
663.31	58.51
663.45	60.85
663.60	0.00
663.74	72.56
663.88	42.13
664.02	30.43
664.17	77.24
664.31	51.49
664.45	60.85
664.59	42.13
664.73	53.83
664.88	23.41
665.02	0.00
665.16	91.28
665.30	39.79
665.44	46.81
665.59	0.00
665.73	88.94
665.87	51.49
666.01	84.26
666.15	35.11
666.29	35.11
666.44	14.04
666.58	0.00
666.72	9.36
666.86	0.00
667.00	0.00
667.14	51.49
667.28	49.15
667.43	56.17
667.57	46.81
667.71	77.24
667.85	39.79
667.99	56.17
668.13	25.75
668.27	72.56
668.41	102.98
668.56	72.56
668.70	11.70
668.84	0.00
668.98	0.00
669.12	18.72
669.26	117.03
669.40	30.43
669.54	35.11
669.68	37.45
669.82	72.56
669.96	16.38
670.10	11.70
670.25	56.17
670.39	0.00
670.53	95.96
670.67	37.45
670.81	0.00
670.95	84.26
671.09	124.05
671.23	114.69
671.37	58.51
671.51	39.79
671.65	23.41
671.79	74.90
671.93	7.02
672.07	84.26
672.21	16.38
672.35	49.15
672.49	67.88
672.63	58.51
672.77	37.45
672.91	0.00
673.05	32.77
673.19	86.60
673.33	30.43
673.47	49.15
673.61	102.98
673.75	126.39
673.89	28.09
674.03	63.19
674.17	0.00
674.31	98.30
674.45	42.13
674.59	117.03
674.73	98.30
674.87	23.41
675.01	0.00
675.15	0.00
675.29	0.00
675.43	4.68
675.56	0.00
675.70	23.41
675.84	63.19
675.98	42.13
676.12	28.09
676.26	32.77
676.40	65.54
676.54	11.70
676.68	35.11
676.82	51.49
676.96	0.00
677.10	23.41
677.23	77.24
677.37	65.54
677.51	88.94
677.65	30.43
677.79	4.68
677.93	58.51
678.07	18.72
678.21	42.13
678.34	95.96
678.48	70.22
678.62	25.75
678.76	0.00
678.90	21.06
679.04	56.17
679.18	30.43
679.31	21.06
679.45	63.19
679.59	53.83
679.73	39.79
679.87	32.77
680.00	39.79
680.14	18.72
680.28	60.85
680.42	7.02
680.56	28.09
680.70	93.62
680.83	11.70
680.97	37.45
681.11	39.79
681.25	32.77
681.39	44.47
681.52	114.69
681.66	56.17
681.80	7.02
681.94	81.92
682.07	18.72
682.21	88.94
682.35	0.00
682.49	37.45
682.62	21.06
682.76	0.00
682.90	37.45
683.04	37.45
683.17	49.15
683.31	0.00
683.45	0.00
683.59	0.00
683.72	30.43
683.86	65.54
684.00	9.36
684.13	56.17
684.27	46.81
684.41	86.60
684.55	95.96
684.68	72.56
684.82	7.02
684.96	25.75
685.09	28.09
685.23	51.49
685.37	14.04
685.50	95.96
685.64	25.75
685.78	49.15
685.91	44.47
686.05	16.38
686.19	42.13
686.32	21.06
686.46	49.15
686.60	0.00
686.73	37.45
686.87	7.02
687.01	44.47
687.14	0.00
687.28	79.58
687.42	65.54
687.55	28.09
687.69	88.94
687.82	93.62
687.96	81.92
688.10	77.24
688.23	11.70
688.37	4.68
688.50	0.00
688.64	95.96
688.78	23.41
688.91	67.88
689.05	32.77
689.18	42.13
689.32	28.09
689.46	53.83
689.59	72.56
689.73	25.75
689.86	14.04
690.00	23.41
690.13	18.72
690.27	0.00
690.41	0.00
690.54	0.00
690.68	0.00
690.81	23.41
690.95	0.00
691.08	37.45
691.22	0.00
691.35	56.17
691.49	2.34
691.62	77.24
691.76	0.00
691.89	35.11
692.03	37.45
692.16	30.43
692.30	32.77
692.43	21.06
692.57	37.45
692.70	0.00
692.84	39.79
692.97	58.51
693.11	77.24
693.24	30.43
693.38	51.49
693.51	53.83
693.65	18.72
693.78	56.17
693.92	14.04
694.05	30.43
694.19	21.06
694.32	28.09
694.45	18.72
694.59	0.00
694.72	11.70
694.86	37.45
694.99	28.09
695.13	79.58
695.26	35.11
695.39	0.00
695.53	56.17
695.66	37.45
695.80	23.41
695.93	67.88
696.07	0.00
696.20	65.54
696.33	14.04
696.47	63.19
696.60	0.00
696.73	60.85
696.87	0.00
697.00	74.90
697.14	51.49
697.27	0.00
697.40	39.79
697.54	56.17
697.67	53.83
697.80	37.45
697.94	0.00
698.07	44.47
698.21	14.04
698.34	14.04
698.47	30.43
698.61	25.75
698.74	56.17
698.87	16.38
699.01	11.70
699.14	23.41
699.27	86.60
699.40	93.62
699.54	18.72
699.67	39.79
699.80	67.88
699.94	88.94
700.07	53.83
700.20	0.00
700.34	0.00
700.47	0.00
700.60	32.77
700.73	46.81
700.87	49.15
701.00	0.00
701.13	72.56
701.26	63.19
701.40	65.54
701.53	42.13
701.66	39.79
701.79	28.09
701.93	56.17
702.06	56.17
702.19	53.83
702.32	77.24
702.46	2.34
702.59	9.36
702.72	25.75
702.85	0.00
702.99	44.47
703.12	81.92
703.25	32.77
703.38	67.88
703.51	28.09
703.65	0.00
703.78	49.15
703.91	42.13
704.04	37.45
704.17	0.00
704.31	0.00
704.44	0.00
704.57	0.00
704.70	0.00
704.83	28.09
704.96	93.62
705.10	39.79
705.23	95.96
>>>>>End Processed Spectral Data<<<<<
