SpectraSuite Data File
++++++++++++++++++++++++++++++++++++
Date: Fri Oct 04 12:13:30 GMT-05:00 2013
User: price-jones
Dark Spectrum Present: No
Reference Spectrum Present: No
Number of Sampled Component Spectra: 1
Spectrometers: USB2+H05261
Integration Time (usec): 10000 (USB2+H05261)
Spectra Averaged: 1 (USB2+H05261)
Boxcar Smoothing: 0 (USB2+H05261)
Correct for Electrical Dark: No (USB2+H05261)
Strobe/Lamp Enabled: No (USB2+H05261)
Correct for Detector Non-linearity: No (USB2+H05261)
Correct for Stray Light: No (USB2+H05261)
Number of Pixels in Processed Spectrum: 2048
>>>>>Begin Processed Spectral Data<<<<<
365.73	0.00
365.92	0.00
366.12	0.00
366.32	0.00
366.52	0.00
366.72	0.00
366.91	0.00
367.11	0.00
367.31	0.00
367.51	0.00
367.70	0.00
367.90	0.00
368.10	0.00
368.30	0.00
368.49	0.00
368.69	0.00
368.89	0.00
369.09	0.00
369.28	0.00
369.48	0.00
369.68	0.00
369.87	0.00
370.07	0.00
370.27	0.00
370.47	0.00
370.66	0.00
370.86	0.00
371.06	0.00
371.25	0.00
371.45	0.00
371.65	0.00
371.84	0.00
372.04	0.00
372.24	18.72
372.44	0.00
372.63	0.00
372.83	21.06
373.03	23.41
373.22	32.77
373.42	32.77
373.62	67.88
373.81	9.36
374.01	86.60
374.21	35.11
374.40	46.81
374.60	0.00
374.79	21.06
374.99	56.17
375.19	135.75
375.38	35.11
375.58	4.68
375.78	16.38
375.97	18.72
376.17	9.36
376.37	0.00
376.56	23.41
376.76	18.72
376.95	53.83
377.15	49.15
377.35	16.38
377.54	0.00
377.74	32.77
377.93	44.47
378.13	0.00
378.33	18.72
378.52	9.36
378.72	16.38
378.91	32.77
379.11	42.13
379.31	0.00
379.50	74.90
379.70	91.28
379.89	86.60
380.09	2.34
380.28	0.00
380.48	25.75
380.68	28.09
380.87	0.00
381.07	74.90
381.26	60.85
381.46	0.00
381.65	21.06
381.85	53.83
382.04	44.47
382.24	16.38
382.43	0.00
382.63	0.00
382.83	63.19
383.02	0.00
383.22	0.00
383.41	51.49
383.61	0.00
383.80	9.36
384.00	0.00
384.19	65.54
384.39	0.00
384.58	51.49
384.78	11.70
384.97	95.96
385.17	0.00
385.36	51.49
385.56	23.41
385.75	56.17
385.95	32.77
386.14	46.81
386.34	35.11
386.53	35.11
386.72	2.34
386.92	0.00
387.11	44.47
387.31	0.00
387.50	0.00
387.70	0.00
387.89	11.70
388.09	0.00
388.28	46.81
388.48	0.00
388.67	39.79
388.86	14.04
389.06	42.13
389.25	0.00
389.45	0.00
389.64	0.00
389.84	32.77
390.03	0.00
390.22	18.72
390.42	93.62
390.61	0.00
390.81	2.34
391.00	28.09
391.19	32.77
391.39	42.13
391.58	53.83
391.78	60.85
391.97	0.00
392.16	28.09
392.36	39.79
392.55	28.09
392.75	23.41
392.94	70.22
393.13	65.54
393.33	0.00
393.52	65.54
393.71	49.15
393.91	0.00
394.10	37.45
394.29	42.13
394.49	7.02
394.68	51.49
394.88	9.36
395.07	0.00
395.26	0.00
395.46	0.00
395.65	11.70
395.84	77.24
396.04	0.00
396.23	0.00
396.42	58.51
396.62	93.62
396.81	35.11
397.00	60.85
397.19	11.70
397.39	0.00
397.58	58.51
397.77	0.00
397.97	16.38
398.16	0.00
398.35	11.70
398.55	23.41
398.74	2.34
398.93	42.13
399.12	30.43
399.32	0.00
399.51	0.00
399.70	49.15
399.90	53.83
400.09	0.00
400.28	35.11
400.47	81.92
400.67	51.49
400.86	46.81
401.05	0.00
401.24	65.54
401.44	121.71
401.63	0.00
401.82	56.17
402.01	39.79
402.21	0.00
402.40	0.00
402.59	0.00
402.78	16.38
402.97	0.00
403.17	0.00
403.36	39.79
403.55	74.90
403.74	70.22
403.93	28.09
404.13	86.60
404.32	18.72
404.51	25.75
404.70	11.70
404.89	0.00
405.09	0.00
405.28	51.49
405.47	0.00
405.66	74.90
405.85	16.38
406.05	0.00
406.24	30.43
406.43	21.06
406.62	51.49
406.81	16.38
407.00	58.51
407.20	16.38
407.39	16.38
407.58	70.22
407.77	14.04
407.96	102.98
408.15	39.79
408.34	51.49
408.54	0.00
408.73	23.41
408.92	53.83
409.11	21.06
409.30	30.43
409.49	28.09
409.68	16.38
409.87	0.00
410.07	0.00
410.26	51.49
410.45	49.15
410.64	23.41
410.83	0.00
411.02	4.68
411.21	18.72
411.40	37.45
411.59	98.30
411.78	16.38
411.98	0.00
412.17	11.70
412.36	35.11
412.55	0.00
412.74	37.45
412.93	121.71
413.12	9.36
413.31	49.15
413.50	2.34
413.69	7.02
413.88	0.00
414.07	37.45
414.26	21.06
414.45	18.72
414.64	7.02
414.83	44.47
415.02	79.58
415.22	18.72
415.41	142.77
415.60	53.83
415.79	0.00
415.98	21.06
416.17	0.00
416.36	0.00
416.55	0.00
416.74	4.68
416.93	14.04
417.12	0.00
417.31	0.00
417.50	9.36
417.69	42.13
417.88	9.36
418.07	44.47
418.26	28.09
418.45	0.00
418.64	14.04
418.83	11.70
419.02	11.70
419.21	65.54
419.39	49.15
419.58	0.00
419.77	4.68
419.96	51.49
420.15	49.15
420.34	16.38
420.53	51.49
420.72	56.17
420.91	28.09
421.10	0.00
421.29	32.77
421.48	0.00
421.67	49.15
421.86	51.49
422.05	0.00
422.24	28.09
422.43	35.11
422.61	60.85
422.80	0.00
422.99	23.41
423.18	14.04
423.37	23.41
423.56	0.00
423.75	0.00
423.94	0.00
424.13	39.79
424.32	42.13
424.50	28.09
424.69	0.00
424.88	42.13
425.07	4.68
425.26	0.00
425.45	0.00
425.64	39.79
425.83	74.90
426.01	42.13
426.20	58.51
426.39	0.00
426.58	0.00
426.77	11.70
426.96	0.00
427.15	51.49
427.33	4.68
427.52	18.72
427.71	0.00
427.90	0.00
428.09	0.00
428.28	46.81
428.46	84.26
428.65	32.77
428.84	44.47
429.03	14.04
429.22	35.11
429.40	25.75
429.59	0.00
429.78	0.00
429.97	0.00
430.16	72.56
430.34	39.79
430.53	91.28
430.72	30.43
430.91	30.43
431.10	35.11
431.28	0.00
431.47	63.19
431.66	102.98
431.85	21.06
432.03	65.54
432.22	2.34
432.41	58.51
432.60	18.72
432.79	107.66
432.97	65.54
433.16	32.77
433.35	42.13
433.54	93.62
433.72	84.26
433.91	39.79
434.10	23.41
434.28	0.00
434.47	39.79
434.66	21.06
434.85	44.47
435.03	0.00
435.22	16.38
435.41	60.85
435.59	74.90
435.78	65.54
435.97	51.49
436.16	70.22
436.34	11.70
436.53	86.60
436.72	4.68
436.90	2.34
437.09	35.11
437.28	9.36
437.46	0.00
437.65	14.04
437.84	0.00
438.02	37.45
438.21	4.68
438.40	23.41
438.58	35.11
438.77	93.62
438.96	0.00
439.14	23.41
439.33	60.85
439.52	42.13
439.70	0.00
439.89	9.36
440.08	0.00
440.26	0.00
440.45	67.88
440.63	18.72
440.82	42.13
441.01	42.13
441.19	14.04
441.38	58.51
441.57	18.72
441.75	51.49
441.94	46.81
442.12	77.24
442.31	51.49
442.50	30.43
442.68	58.51
442.87	67.88
443.05	30.43
443.24	93.62
443.43	9.36
443.61	0.00
443.80	53.83
443.98	35.11
444.17	9.36
444.35	23.41
444.54	0.00
444.73	0.00
444.91	46.81
445.10	63.19
445.28	65.54
445.47	44.47
445.65	51.49
445.84	21.06
446.02	0.00
446.21	32.77
446.39	0.00
446.58	65.54
446.77	42.13
446.95	63.19
447.14	14.04
447.32	0.00
447.51	21.06
447.69	9.36
447.88	11.70
448.06	7.02
448.25	84.26
448.43	2.34
448.62	0.00
448.80	70.22
448.99	0.00
449.17	0.00
449.36	53.83
449.54	39.79
449.73	32.77
449.91	7.02
450.10	32.77
450.28	35.11
450.46	7.02
450.65	14.04
450.83	0.00
451.02	72.56
451.20	77.24
451.39	35.11
451.57	0.00
451.76	65.54
451.94	88.94
452.13	32.77
452.31	2.34
452.49	49.15
452.68	67.88
452.86	35.11
453.05	39.79
453.23	70.22
453.42	0.00
453.60	37.45
453.78	0.00
453.97	18.72
454.15	35.11
454.34	72.56
454.52	46.81
454.70	65.54
454.89	32.77
455.07	42.13
455.26	65.54
455.44	4.68
455.62	0.00
455.81	35.11
455.99	25.75
456.17	39.79
456.36	42.13
456.54	39.79
456.73	21.06
456.91	14.04
457.09	77.24
457.28	35.11
457.46	0.00
457.64	0.00
457.83	18.72
458.01	46.81
458.19	53.83
458.38	4.68
458.56	0.00
458.74	0.00
458.93	35.11
459.11	18.72
459.29	102.98
459.48	0.00
459.66	14.04
459.84	14.04
460.03	32.77
460.21	88.94
460.39	0.00
460.57	56.17
460.76	77.24
460.94	0.00
461.12	25.75
461.31	58.51
461.49	0.00
461.67	88.94
461.85	16.38
462.04	0.00
462.22	46.81
462.40	46.81
462.59	44.47
462.77	11.70
462.95	0.00
463.13	7.02
463.32	58.51
463.50	30.43
463.68	25.75
463.86	37.45
464.05	119.37
464.23	39.79
464.41	9.36
464.59	49.15
464.78	18.72
464.96	30.43
465.14	56.17
465.32	9.36
465.50	37.45
465.69	25.75
465.87	18.72
466.05	72.56
466.23	0.00
466.41	23.41
466.60	16.38
466.78	42.13
466.96	46.81
467.14	9.36
467.32	7.02
467.51	37.45
467.69	107.66
467.87	2.34
468.05	53.83
468.23	117.03
468.41	65.54
468.60	0.00
468.78	37.45
468.96	0.00
469.14	30.43
469.32	21.06
469.50	0.00
469.69	77.24
469.87	0.00
470.05	0.00
470.23	37.45
470.41	0.00
470.59	35.11
470.77	72.56
470.95	28.09
471.14	95.96
471.32	37.45
471.50	74.90
471.68	39.79
471.86	0.00
472.04	0.00
472.22	4.68
472.40	7.02
472.58	44.47
472.77	0.00
472.95	0.00
473.13	56.17
473.31	65.54
473.49	119.37
473.67	28.09
473.85	37.45
474.03	51.49
474.21	14.04
474.39	67.88
474.57	30.43
474.75	70.22
474.93	72.56
475.12	60.85
475.30	0.00
475.48	51.49
475.66	102.98
475.84	51.49
476.02	0.00
476.20	51.49
476.38	35.11
476.56	93.62
476.74	42.13
476.92	35.11
477.10	23.41
477.28	14.04
477.46	11.70
477.64	14.04
477.82	0.00
478.00	21.06
478.18	0.00
478.36	42.13
478.54	58.51
478.72	112.35
478.90	74.90
479.08	107.66
479.26	84.26
479.44	9.36
479.62	42.13
479.80	70.22
479.98	30.43
480.16	35.11
480.34	63.19
480.52	58.51
480.70	67.88
480.88	98.30
481.06	23.41
481.24	30.43
481.41	14.04
481.59	84.26
481.77	39.79
481.95	114.69
482.13	102.98
482.31	91.28
482.49	49.15
482.67	30.43
482.85	100.64
483.03	53.83
483.21	117.03
483.39	42.13
483.57	0.00
483.74	44.47
483.92	67.88
484.10	16.38
484.28	0.00
484.46	0.00
484.64	74.90
484.82	32.77
485.00	60.85
485.18	74.90
485.35	46.81
485.53	25.75
485.71	23.41
485.89	30.43
486.07	86.60
486.25	65.54
486.43	28.09
486.61	11.70
486.78	77.24
486.96	0.00
487.14	51.49
487.32	32.77
487.50	16.38
487.68	86.60
487.85	56.17
488.03	46.81
488.21	79.58
488.39	30.43
488.57	0.00
488.75	46.81
488.92	18.72
489.10	18.72
489.28	0.00
489.46	18.72
489.64	0.00
489.81	0.00
489.99	9.36
490.17	32.77
490.35	74.90
490.53	58.51
490.70	0.00
490.88	21.06
491.06	42.13
491.24	84.26
491.41	14.04
491.59	56.17
491.77	0.00
491.95	46.81
492.13	0.00
492.30	39.79
492.48	0.00
492.66	16.38
492.84	32.77
493.01	63.19
493.19	70.22
493.37	51.49
493.54	28.09
493.72	39.79
493.90	72.56
494.08	42.13
494.25	21.06
494.43	32.77
494.61	72.56
494.79	0.00
494.96	63.19
495.14	30.43
495.32	88.94
495.49	28.09
495.67	88.94
495.85	56.17
496.02	58.51
496.20	102.98
496.38	49.15
496.55	0.00
496.73	98.30
496.91	77.24
497.09	63.19
497.26	0.00
497.44	37.45
497.62	72.56
497.79	49.15
497.97	0.00
498.14	53.83
498.32	56.17
498.50	28.09
498.67	7.02
498.85	51.49
499.03	44.47
499.20	0.00
499.38	28.09
499.56	70.22
499.73	79.58
499.91	53.83
500.08	0.00
500.26	4.68
500.44	51.49
500.61	56.17
500.79	30.43
500.97	58.51
501.14	46.81
501.32	30.43
501.49	42.13
501.67	32.77
501.84	131.07
502.02	0.00
502.20	42.13
502.37	18.72
502.55	28.09
502.72	112.35
502.90	0.00
503.07	0.00
503.25	46.81
503.43	74.90
503.60	95.96
503.78	16.38
503.95	11.70
504.13	0.00
504.30	18.72
504.48	105.32
504.65	63.19
504.83	81.92
505.01	65.54
505.18	65.54
505.36	51.49
505.53	135.75
505.71	14.04
505.88	51.49
506.06	4.68
506.23	51.49
506.41	88.94
506.58	46.81
506.76	93.62
506.93	0.00
507.11	53.83
507.28	28.09
507.46	98.30
507.63	84.26
507.81	0.00
507.98	0.00
508.16	18.72
508.33	0.00
508.50	18.72
508.68	121.71
508.85	46.81
509.03	44.47
509.20	35.11
509.38	23.41
509.55	9.36
509.73	14.04
509.90	98.30
510.08	16.38
510.25	42.13
510.42	93.62
510.60	60.85
510.77	23.41
510.95	42.13
511.12	0.00
511.30	14.04
511.47	9.36
511.64	51.49
511.82	23.41
511.99	67.88
512.17	0.00
512.34	28.09
512.51	14.04
512.69	56.17
512.86	28.09
513.04	0.00
513.21	0.00
513.38	53.83
513.56	39.79
513.73	32.77
513.90	42.13
514.08	60.85
514.25	30.43
514.43	53.83
514.60	11.70
514.77	14.04
514.95	4.68
515.12	21.06
515.29	46.81
515.47	51.49
515.64	32.77
515.81	44.47
515.99	84.26
516.16	46.81
516.33	42.13
516.51	0.00
516.68	98.30
516.85	0.00
517.03	102.98
517.20	7.02
517.37	28.09
517.54	35.11
517.72	18.72
517.89	58.51
518.06	65.54
518.24	0.00
518.41	65.54
518.58	4.68
518.75	110.01
518.93	37.45
519.10	93.62
519.27	79.58
519.45	0.00
519.62	138.09
519.79	0.00
519.96	65.54
520.14	28.09
520.31	0.00
520.48	32.77
520.65	126.39
520.83	53.83
521.00	79.58
521.17	58.51
521.34	44.47
521.52	81.92
521.69	95.96
521.86	4.68
522.03	0.00
522.20	4.68
522.38	9.36
522.55	58.51
522.72	60.85
522.89	44.47
523.07	21.06
523.24	25.75
523.41	14.04
523.58	4.68
523.75	60.85
523.92	65.54
524.10	0.00
524.27	16.38
524.44	74.90
524.61	9.36
524.78	0.00
524.96	39.79
525.13	65.54
525.30	60.85
525.47	25.75
525.64	0.00
525.81	30.43
525.98	79.58
526.16	39.79
526.33	4.68
526.50	39.79
526.67	9.36
526.84	46.81
527.01	0.00
527.18	0.00
527.36	93.62
527.53	81.92
527.70	23.41
527.87	11.70
528.04	56.17
528.21	32.77
528.38	53.83
528.55	51.49
528.72	30.43
528.89	63.19
529.07	70.22
529.24	140.43
529.41	4.68
529.58	9.36
529.75	107.66
529.92	39.79
530.09	93.62
530.26	25.75
530.43	58.51
530.60	18.72
530.77	72.56
530.94	79.58
531.11	91.28
531.28	93.62
531.46	56.17
531.63	9.36
531.80	46.81
531.97	60.85
532.14	142.77
532.31	25.75
532.48	86.60
532.65	86.60
532.82	0.00
532.99	28.09
533.16	0.00
533.33	51.49
533.50	23.41
533.67	74.90
533.84	77.24
534.01	46.81
534.18	114.69
534.35	93.62
534.52	72.56
534.69	0.00
534.86	58.51
535.03	25.75
535.20	65.54
535.37	65.54
535.54	58.51
535.71	81.92
535.88	77.24
536.05	2.34
536.22	4.68
536.38	21.06
536.55	18.72
536.72	46.81
536.89	142.77
537.06	11.70
537.23	58.51
537.40	49.15
537.57	0.00
537.74	0.00
537.91	0.00
538.08	7.02
538.25	21.06
538.42	72.56
538.59	74.90
538.75	0.00
538.92	35.11
539.09	32.77
539.26	0.00
539.43	126.39
539.60	32.77
539.77	95.96
539.94	124.05
540.11	70.22
540.28	0.00
540.44	21.06
540.61	98.30
540.78	0.00
540.95	46.81
541.12	93.62
541.29	67.88
541.46	79.58
541.62	46.81
541.79	7.02
541.96	70.22
542.13	37.45
542.30	2.34
542.47	93.62
542.63	16.38
542.80	46.81
542.97	65.54
543.14	14.04
543.31	4.68
543.48	32.77
543.64	72.56
543.81	28.09
543.98	2.34
544.15	131.07
544.32	100.64
544.48	42.13
544.65	0.00
544.82	21.06
544.99	0.00
545.16	98.30
545.32	56.17
545.49	86.60
545.66	60.85
545.83	0.00
546.00	65.54
546.16	18.72
546.33	0.00
546.50	0.00
546.67	77.24
546.83	65.54
547.00	30.43
547.17	37.45
547.34	16.38
547.50	72.56
547.67	98.30
547.84	0.00
548.00	60.85
548.17	0.00
548.34	14.04
548.51	9.36
548.67	72.56
548.84	14.04
549.01	56.17
549.18	0.00
549.34	53.83
549.51	56.17
549.68	49.15
549.84	56.17
550.01	53.83
550.18	49.15
550.34	0.00
550.51	0.00
550.68	65.54
550.84	28.09
551.01	7.02
551.18	65.54
551.34	7.02
551.51	93.62
551.68	110.01
551.84	30.43
552.01	58.51
552.18	18.72
552.34	0.00
552.51	63.19
552.68	32.77
552.84	28.09
553.01	65.54
553.18	60.85
553.34	14.04
553.51	23.41
553.67	0.00
553.84	32.77
554.01	77.24
554.17	58.51
554.34	121.71
554.51	46.81
554.67	51.49
554.84	25.75
555.00	49.15
555.17	86.60
555.33	42.13
555.50	2.34
555.67	51.49
555.83	91.28
556.00	46.81
556.16	100.64
556.33	100.64
556.50	98.30
556.66	23.41
556.83	2.34
556.99	30.43
557.16	0.00
557.32	72.56
557.49	63.19
557.65	56.17
557.82	58.51
557.98	70.22
558.15	74.90
558.32	0.00
558.48	53.83
558.65	79.58
558.81	46.81
558.98	18.72
559.14	23.41
559.31	100.64
559.47	37.45
559.64	0.00
559.80	28.09
559.97	67.88
560.13	35.11
560.30	42.13
560.46	39.79
560.63	28.09
560.79	84.26
560.96	51.49
561.12	49.15
561.29	0.00
561.45	25.75
561.61	65.54
561.78	39.79
561.94	11.70
562.11	60.85
562.27	46.81
562.44	16.38
562.60	72.56
562.77	0.00
562.93	46.81
563.10	28.09
563.26	46.81
563.42	37.45
563.59	58.51
563.75	30.43
563.92	53.83
564.08	93.62
564.24	23.41
564.41	0.00
564.57	0.00
564.74	49.15
564.90	9.36
565.07	25.75
565.23	0.00
565.39	18.72
565.56	105.32
565.72	91.28
565.88	18.72
566.05	25.75
566.21	21.06
566.38	4.68
566.54	4.68
566.70	0.00
566.87	21.06
567.03	25.75
567.19	28.09
567.36	58.51
567.52	65.54
567.68	91.28
567.85	53.83
568.01	70.22
568.17	0.00
568.34	4.68
568.50	93.62
568.66	30.43
568.83	28.09
568.99	37.45
569.15	2.34
569.32	39.79
569.48	0.00
569.64	0.00
569.81	70.22
569.97	28.09
570.13	4.68
570.30	56.17
570.46	37.45
570.62	74.90
570.78	42.13
570.95	0.00
571.11	46.81
571.27	39.79
571.43	81.92
571.60	49.15
571.76	145.11
571.92	14.04
572.09	37.45
572.25	0.00
572.41	35.11
572.57	112.35
572.74	11.70
572.90	93.62
573.06	35.11
573.22	0.00
573.38	2.34
573.55	32.77
573.71	32.77
573.87	46.81
574.03	84.26
574.20	35.11
574.36	16.38
574.52	53.83
574.68	23.41
574.84	51.49
575.01	0.00
575.17	112.35
575.33	86.60
575.49	0.00
575.65	79.58
575.82	0.00
575.98	18.72
576.14	51.49
576.30	14.04
576.46	30.43
576.62	67.88
576.79	72.56
576.95	84.26
577.11	77.24
577.27	72.56
577.43	28.09
577.59	133.41
577.75	105.32
577.92	0.00
578.08	67.88
578.24	49.15
578.40	0.00
578.56	77.24
578.72	53.83
578.88	98.30
579.04	44.47
579.21	56.17
579.37	42.13
579.53	91.28
579.69	23.41
579.85	37.45
580.01	53.83
580.17	18.72
580.33	142.77
580.49	110.01
580.65	4.68
580.82	72.56
580.98	4.68
581.14	32.77
581.30	0.00
581.46	149.79
581.62	58.51
581.78	93.62
581.94	16.38
582.10	93.62
582.26	25.75
582.42	77.24
582.58	0.00
582.74	32.77
582.90	28.09
583.06	117.03
583.22	35.11
583.38	100.64
583.54	39.79
583.70	53.83
583.86	86.60
584.02	60.85
584.18	100.64
584.34	53.83
584.50	205.97
584.66	898.77
584.82	1966.05
584.98	2572.25
585.14	2244.57
585.30	1425.39
585.46	835.57
585.62	531.30
585.78	231.71
585.94	121.71
586.10	112.35
586.26	25.75
586.42	56.17
586.58	0.00
586.74	110.01
586.90	63.19
587.06	28.09
587.22	79.58
587.38	4.68
587.54	117.03
587.70	161.50
587.86	210.65
588.02	238.73
588.18	196.60
588.34	56.17
588.49	119.37
588.65	88.94
588.81	9.36
588.97	93.62
589.13	95.96
589.29	4.68
589.45	0.00
589.61	14.04
589.77	39.79
589.93	32.77
590.08	30.43
590.24	86.60
590.40	23.41
590.56	0.00
590.72	35.11
590.88	100.64
591.04	56.17
591.20	0.00
591.35	70.22
591.51	0.00
591.67	86.60
591.83	0.00
591.99	70.22
592.15	56.17
592.31	0.00
592.46	7.02
592.62	65.54
592.78	21.06
592.94	49.15
593.10	49.15
593.26	65.54
593.41	35.11
593.57	2.34
593.73	51.49
593.89	161.50
594.05	313.63
594.20	386.19
594.36	346.40
594.52	297.25
594.68	65.54
594.84	147.45
594.99	79.58
595.15	53.83
595.31	72.56
595.47	28.09
595.62	67.88
595.78	114.69
595.94	28.09
596.10	46.81
596.25	49.15
596.41	42.13
596.57	18.72
596.73	0.00
596.88	65.54
597.04	100.64
597.20	93.62
597.36	152.13
597.51	124.05
597.67	56.17
597.83	74.90
597.99	77.24
598.14	70.22
598.30	60.85
598.46	107.66
598.61	65.54
598.77	67.88
598.93	30.43
599.09	2.34
599.24	0.00
599.40	42.13
599.56	46.81
599.71	25.75
599.87	39.79
600.03	25.75
600.18	23.41
600.34	0.00
600.50	28.09
600.65	44.47
600.81	0.00
600.97	88.94
601.12	37.45
601.28	100.64
601.44	2.34
601.59	28.09
601.75	21.06
601.91	18.72
602.06	42.13
602.22	65.54
602.37	11.70
602.53	70.22
602.69	107.66
602.84	117.03
603.00	119.37
603.16	35.11
603.31	100.64
603.47	32.77
603.62	0.00
603.78	0.00
603.94	44.47
604.09	65.54
604.25	0.00
604.40	9.36
604.56	60.85
604.71	35.11
604.87	23.41
605.03	11.70
605.18	86.60
605.34	100.64
605.49	4.68
605.65	11.70
605.80	72.56
605.96	56.17
606.12	30.43
606.27	77.24
606.43	126.39
606.58	63.19
606.74	93.62
606.89	184.90
607.05	227.03
607.20	271.50
607.36	320.65
607.51	168.52
607.67	145.11
607.82	159.16
607.98	100.64
608.13	30.43
608.29	39.79
608.44	28.09
608.60	124.05
608.75	77.24
608.91	102.98
609.06	287.89
609.22	418.96
609.37	477.47
609.53	395.55
609.68	348.74
609.84	250.44
609.99	159.16
610.15	86.60
610.30	56.17
610.46	140.43
610.61	60.85
610.76	30.43
610.92	35.11
611.07	0.00
611.23	60.85
611.38	63.19
611.54	28.09
611.69	60.85
611.84	0.00
612.00	63.19
612.15	35.11
612.31	51.49
612.46	32.77
612.62	53.83
612.77	28.09
612.92	65.54
613.08	30.43
613.23	49.15
613.39	0.00
613.54	0.00
613.69	264.48
613.85	552.37
614.00	716.20
614.15	786.42
614.31	528.96
614.46	379.17
614.62	224.69
614.77	131.07
614.92	121.71
615.08	49.15
615.23	93.62
615.38	37.45
615.54	0.00
615.69	110.01
615.84	161.50
616.00	194.26
616.15	189.58
616.30	201.29
616.46	133.41
616.61	79.58
616.76	142.77
616.92	0.00
617.07	16.38
617.22	21.06
617.37	21.06
617.53	86.60
617.68	93.62
617.83	56.17
617.99	23.41
618.14	58.51
618.29	39.79
618.45	44.47
618.60	18.72
618.75	4.68
618.90	53.83
619.06	72.56
619.21	53.83
619.36	51.49
619.51	32.77
619.67	93.62
619.82	39.79
619.97	65.54
620.12	35.11
620.28	25.75
620.43	37.45
620.58	102.98
620.73	58.51
620.89	58.51
621.04	39.79
621.19	124.05
621.34	100.64
621.49	152.13
621.65	145.11
621.80	46.81
621.95	25.75
622.10	7.02
622.25	9.36
622.41	67.88
622.56	4.68
622.71	44.47
622.86	25.75
623.01	0.00
623.16	44.47
623.32	44.47
623.47	51.49
623.62	88.94
623.77	46.81
623.92	42.13
624.07	72.56
624.23	51.49
624.38	79.58
624.53	0.00
624.68	0.00
624.83	0.00
624.98	16.38
625.13	35.11
625.29	67.88
625.44	102.98
625.59	46.81
625.74	44.47
625.89	18.72
626.04	88.94
626.19	222.35
626.34	397.89
626.49	397.89
626.65	280.86
626.80	236.39
626.95	203.63
627.10	79.58
627.25	46.81
627.40	9.36
627.55	93.62
627.70	4.68
627.85	18.72
628.00	77.24
628.15	11.70
628.30	91.28
628.45	79.58
628.60	74.90
628.76	0.00
628.91	16.38
629.06	14.04
629.21	51.49
629.36	28.09
629.51	2.34
629.66	56.17
629.81	56.17
629.96	88.94
630.11	39.79
630.26	142.77
630.41	117.03
630.56	128.73
630.71	67.88
630.86	102.98
631.01	37.45
631.16	46.81
631.31	39.79
631.46	107.66
631.61	133.41
631.76	0.00
631.91	95.96
632.06	95.96
632.21	79.58
632.36	42.13
632.51	14.04
632.66	77.24
632.81	124.05
632.96	222.35
633.10	245.76
633.25	330.02
633.40	182.56
633.55	210.65
633.70	142.77
633.85	107.66
634.00	9.36
634.15	35.11
634.30	81.92
634.45	46.81
634.60	28.09
634.75	30.43
634.90	51.49
635.05	72.56
635.19	25.75
635.34	53.83
635.49	110.01
635.64	53.83
635.79	0.00
635.94	37.45
636.09	84.26
636.24	0.00
636.39	2.34
636.53	37.45
636.68	79.58
636.83	32.77
636.98	65.54
637.13	81.92
637.28	9.36
637.43	30.43
637.57	88.94
637.72	177.88
637.87	414.27
638.02	479.81
638.17	564.07
638.32	369.80
638.46	308.95
638.61	180.22
638.76	110.01
638.91	93.62
639.06	60.85
639.20	44.47
639.35	65.54
639.50	53.83
639.65	175.54
639.80	566.41
639.94	767.70
640.09	844.93
640.24	559.39
640.39	416.62
640.54	191.92
640.68	152.13
640.83	138.09
640.98	35.11
641.13	21.06
641.27	51.49
641.42	39.79
641.57	77.24
641.72	30.43
641.86	9.36
642.01	0.00
642.16	105.32
642.31	107.66
642.45	51.49
642.60	42.13
642.75	0.00
642.90	49.15
643.04	0.00
643.19	117.03
643.34	67.88
643.48	77.24
643.63	0.00
643.78	30.43
643.93	37.45
644.07	21.06
644.22	25.75
644.37	63.19
644.51	42.13
644.66	0.00
644.81	21.06
644.95	37.45
645.10	9.36
645.25	30.43
645.39	39.79
645.54	70.22
645.69	49.15
645.83	35.11
645.98	28.09
646.13	0.00
646.27	35.11
646.42	49.15
646.57	21.06
646.71	70.22
646.86	0.00
647.00	0.00
647.15	65.54
647.30	0.00
647.44	0.00
647.59	14.04
647.74	65.54
647.88	0.00
648.03	35.11
648.17	14.04
648.32	32.77
648.47	32.77
648.61	0.00
648.76	0.00
648.90	79.58
649.05	58.51
649.20	39.79
649.34	23.41
649.49	0.00
649.63	131.07
649.78	53.83
649.92	16.38
650.07	131.07
650.21	205.97
650.36	409.59
650.51	472.79
650.65	353.42
650.80	243.42
650.94	131.07
651.09	128.73
651.23	63.19
651.38	72.56
651.52	79.58
651.67	51.49
651.81	28.09
651.96	21.06
652.10	58.51
652.25	0.00
652.39	58.51
652.54	0.00
652.68	37.45
652.83	100.64
652.97	128.73
653.12	175.54
653.26	173.20
653.41	112.35
653.55	95.96
653.70	25.75
653.84	72.56
653.99	53.83
654.13	0.00
654.27	32.77
654.42	0.00
654.56	37.45
654.71	53.83
654.85	28.09
655.00	0.00
655.14	0.00
655.29	4.68
655.43	28.09
655.57	39.79
655.72	0.00
655.86	79.58
656.01	58.51
656.15	0.00
656.30	102.98
656.44	51.49
656.58	0.00
656.73	42.13
656.87	86.60
657.01	4.68
657.16	53.83
657.30	18.72
657.45	14.04
657.59	0.00
657.73	70.22
657.88	65.54
658.02	77.24
658.16	28.09
658.31	42.13
658.45	25.75
658.60	0.00
658.74	2.34
658.88	18.72
659.03	77.24
659.17	35.11
659.31	74.90
659.46	105.32
659.60	128.73
659.74	266.82
659.89	208.31
660.03	98.30
660.17	86.60
660.32	110.01
660.46	93.62
660.60	88.94
660.74	30.43
660.89	16.38
661.03	79.58
661.17	79.58
661.32	30.43
661.46	49.15
661.60	53.83
661.74	42.13
661.89	49.15
662.03	0.00
662.17	0.00
662.31	32.77
662.46	0.00
662.60	14.04
662.74	4.68
662.88	0.00
663.03	84.26
663.17	37.45
663.31	23.41
663.45	23.41
663.60	16.38
663.74	7.02
663.88	39.79
664.02	91.28
664.17	58.51
664.31	23.41
664.45	51.49
664.59	14.04
664.73	0.00
664.88	63.19
665.02	21.06
665.16	44.47
665.30	28.09
665.44	14.04
665.59	25.75
665.73	0.00
665.87	51.49
666.01	11.70
666.15	51.49
666.29	49.15
666.44	60.85
666.58	0.00
666.72	25.75
666.86	56.17
667.00	79.58
667.14	42.13
667.28	105.32
667.43	161.50
667.57	344.06
667.71	437.68
667.85	313.63
667.99	208.31
668.13	224.69
668.27	72.56
668.41	93.62
668.56	63.19
668.70	86.60
668.84	21.06
668.98	63.19
669.12	0.00
669.26	49.15
669.40	0.00
669.54	4.68
669.68	2.34
669.82	51.49
669.96	0.00
670.10	2.34
670.25	70.22
670.39	14.04
670.53	28.09
670.67	28.09
670.81	91.28
670.95	128.73
671.09	32.77
671.23	11.70
671.37	215.33
671.51	196.60
671.65	245.76
671.79	184.90
671.93	140.43
672.07	51.49
672.21	23.41
672.35	37.45
672.49	21.06
672.63	30.43
672.77	37.45
672.91	79.58
673.05	53.83
673.19	70.22
673.33	53.83
673.47	91.28
673.61	39.79
673.75	18.72
673.89	0.00
674.03	0.00
674.17	9.36
674.31	49.15
674.45	0.00
674.59	0.00
674.73	39.79
674.87	0.00
675.01	35.11
675.15	39.79
675.29	0.00
675.43	14.04
675.56	53.83
675.70	95.96
675.84	0.00
675.98	56.17
676.12	58.51
676.26	30.43
676.40	30.43
676.54	28.09
676.68	4.68
676.82	51.49
676.96	53.83
677.10	60.85
677.23	0.00
677.37	32.77
677.51	4.68
677.65	0.00
677.79	0.00
677.93	93.62
678.07	11.70
678.21	16.38
678.34	58.51
678.48	51.49
678.62	0.00
678.76	0.00
678.90	65.54
679.04	81.92
679.18	23.41
679.31	0.00
679.45	0.00
679.59	44.47
679.73	51.49
679.87	0.00
680.00	58.51
680.14	14.04
680.28	11.70
680.42	0.00
680.56	60.85
680.70	58.51
680.83	14.04
680.97	7.02
681.11	0.00
681.25	9.36
681.39	9.36
681.52	39.79
681.66	32.77
681.80	51.49
681.94	56.17
682.07	58.51
682.21	25.75
682.35	86.60
682.49	23.41
682.62	16.38
682.76	25.75
682.90	23.41
683.04	28.09
683.17	110.01
683.31	37.45
683.45	30.43
683.59	51.49
683.72	65.54
683.86	0.00
684.00	4.68
684.13	14.04
684.27	11.70
684.41	7.02
684.55	32.77
684.68	81.92
684.82	30.43
684.96	65.54
685.09	14.04
685.23	0.00
685.37	14.04
685.50	4.68
685.64	9.36
685.78	11.70
685.91	23.41
686.05	72.56
686.19	0.00
686.32	65.54
686.46	9.36
686.60	51.49
686.73	35.11
686.87	28.09
687.01	46.81
687.14	63.19
687.28	0.00
687.42	2.34
687.55	49.15
687.69	95.96
687.82	102.98
687.96	77.24
688.10	49.15
688.23	0.00
688.37	51.49
688.50	35.11
688.64	39.79
688.78	0.00
688.91	39.79
689.05	32.77
689.18	56.17
689.32	25.75
689.46	0.00
689.59	0.00
689.73	16.38
689.86	53.83
690.00	16.38
690.13	4.68
690.27	35.11
690.41	42.13
690.54	58.51
690.68	4.68
690.81	16.38
690.95	39.79
691.08	4.68
691.22	14.04
691.35	42.13
691.49	9.36
691.62	9.36
691.76	28.09
691.89	60.85
692.03	42.13
692.16	51.49
692.30	16.38
692.43	46.81
692.57	100.64
692.70	184.90
692.84	112.35
692.97	177.88
693.11	126.39
693.24	128.73
693.38	65.54
693.51	53.83
693.65	117.03
693.78	44.47
693.92	39.79
694.05	0.00
694.19	37.45
694.32	49.15
694.45	88.94
694.59	32.77
694.72	32.77
694.86	9.36
694.99	44.47
695.13	16.38
695.26	39.79
695.39	56.17
695.53	60.85
695.66	23.41
695.80	58.51
695.93	105.32
696.07	56.17
696.20	63.19
696.33	98.30
696.47	67.88
696.60	60.85
696.73	39.79
696.87	37.45
697.00	0.00
697.14	0.00
697.27	7.02
697.40	16.38
697.54	23.41
697.67	0.00
697.80	86.60
697.94	32.77
698.07	25.75
698.21	114.69
698.34	74.90
698.47	16.38
698.61	70.22
698.74	2.34
698.87	35.11
699.01	0.00
699.14	58.51
699.27	74.90
699.40	44.47
699.54	0.00
699.67	2.34
699.80	23.41
699.94	11.70
700.07	35.11
700.20	28.09
700.34	28.09
700.47	0.00
700.60	25.75
700.73	0.00
700.87	53.83
701.00	0.00
701.13	21.06
701.26	93.62
701.40	11.70
701.53	0.00
701.66	46.81
701.79	7.02
701.93	51.49
702.06	49.15
702.19	14.04
702.32	51.49
702.46	18.72
702.59	39.79
702.72	70.22
702.85	119.37
702.99	304.27
703.12	290.23
703.25	266.82
703.38	252.78
703.51	238.73
703.65	159.16
703.78	215.33
703.91	56.17
704.04	110.01
704.17	88.94
704.31	42.13
704.44	72.56
704.57	0.00
704.70	0.00
704.83	65.54
704.96	11.70
705.10	110.01
705.23	39.79
>>>>>End Processed Spectral Data<<<<<
