SpectraSuite Data File
++++++++++++++++++++++++++++++++++++
Date: Fri Oct 04 12:13:29 GMT-05:00 2013
User: price-jones
Dark Spectrum Present: No
Reference Spectrum Present: No
Number of Sampled Component Spectra: 1
Spectrometers: USB2+H05261
Integration Time (usec): 10000 (USB2+H05261)
Spectra Averaged: 1 (USB2+H05261)
Boxcar Smoothing: 0 (USB2+H05261)
Correct for Electrical Dark: No (USB2+H05261)
Strobe/Lamp Enabled: No (USB2+H05261)
Correct for Detector Non-linearity: No (USB2+H05261)
Correct for Stray Light: No (USB2+H05261)
Number of Pixels in Processed Spectrum: 2048
>>>>>Begin Processed Spectral Data<<<<<
365.73	0.00
365.92	0.00
366.12	0.00
366.32	0.00
366.52	0.00
366.72	0.00
366.91	0.00
367.11	0.00
367.31	0.00
367.51	0.00
367.70	0.00
367.90	0.00
368.10	0.00
368.30	0.00
368.49	0.00
368.69	0.00
368.89	0.00
369.09	0.00
369.28	0.00
369.48	0.00
369.68	0.00
369.87	0.00
370.07	0.00
370.27	0.00
370.47	0.00
370.66	0.00
370.86	0.00
371.06	0.00
371.25	18.72
371.45	9.36
371.65	0.00
371.84	23.41
372.04	4.68
372.24	18.72
372.44	14.04
372.63	0.00
372.83	58.51
373.03	30.43
373.22	0.00
373.42	30.43
373.62	32.77
373.81	7.02
374.01	23.41
374.21	18.72
374.40	30.43
374.60	0.00
374.79	21.06
374.99	28.09
375.19	60.85
375.38	25.75
375.58	16.38
375.78	56.17
375.97	44.47
376.17	58.51
376.37	21.06
376.56	37.45
376.76	0.00
376.95	58.51
377.15	32.77
377.35	58.51
377.54	35.11
377.74	110.01
377.93	28.09
378.13	0.00
378.33	14.04
378.52	0.00
378.72	0.00
378.91	14.04
379.11	32.77
379.31	32.77
379.50	0.00
379.70	32.77
379.89	60.85
380.09	49.15
380.28	0.00
380.48	2.34
380.68	30.43
380.87	0.00
381.07	16.38
381.26	86.60
381.46	9.36
381.65	0.00
381.85	7.02
382.04	51.49
382.24	0.00
382.43	42.13
382.63	9.36
382.83	63.19
383.02	0.00
383.22	37.45
383.41	0.00
383.61	4.68
383.80	42.13
384.00	49.15
384.19	51.49
384.39	0.00
384.58	7.02
384.78	14.04
384.97	0.00
385.17	0.00
385.36	39.79
385.56	72.56
385.75	0.00
385.95	0.00
386.14	53.83
386.34	65.54
386.53	65.54
386.72	58.51
386.92	0.00
387.11	4.68
387.31	46.81
387.50	18.72
387.70	79.58
387.89	35.11
388.09	0.00
388.28	16.38
388.48	11.70
388.67	77.24
388.86	44.47
389.06	0.00
389.25	0.00
389.45	44.47
389.64	0.00
389.84	0.00
390.03	35.11
390.22	0.00
390.42	28.09
390.61	0.00
390.81	74.90
391.00	14.04
391.19	0.00
391.39	11.70
391.58	0.00
391.78	0.00
391.97	60.85
392.16	0.00
392.36	0.00
392.55	72.56
392.75	56.17
392.94	21.06
393.13	63.19
393.33	77.24
393.52	4.68
393.71	0.00
393.91	0.00
394.10	39.79
394.29	44.47
394.49	23.41
394.68	0.00
394.88	51.49
395.07	65.54
395.26	21.06
395.46	0.00
395.65	9.36
395.84	0.00
396.04	0.00
396.23	2.34
396.42	14.04
396.62	0.00
396.81	9.36
397.00	0.00
397.19	42.13
397.39	0.00
397.58	11.70
397.77	0.00
397.97	58.51
398.16	18.72
398.35	18.72
398.55	21.06
398.74	0.00
398.93	2.34
399.12	0.00
399.32	98.30
399.51	37.45
399.70	0.00
399.90	0.00
400.09	49.15
400.28	0.00
400.47	9.36
400.67	0.00
400.86	14.04
401.05	21.06
401.24	35.11
401.44	0.00
401.63	49.15
401.82	0.00
402.01	30.43
402.21	39.79
402.40	32.77
402.59	53.83
402.78	86.60
402.97	74.90
403.17	79.58
403.36	37.45
403.55	14.04
403.74	70.22
403.93	32.77
404.13	0.00
404.32	84.26
404.51	23.41
404.70	46.81
404.89	84.26
405.09	28.09
405.28	35.11
405.47	21.06
405.66	51.49
405.85	0.00
406.05	42.13
406.24	0.00
406.43	63.19
406.62	53.83
406.81	28.09
407.00	16.38
407.20	25.75
407.39	0.00
407.58	53.83
407.77	0.00
407.96	7.02
408.15	9.36
408.34	16.38
408.54	0.00
408.73	93.62
408.92	86.60
409.11	25.75
409.30	42.13
409.49	51.49
409.68	30.43
409.87	67.88
410.07	42.13
410.26	51.49
410.45	0.00
410.64	56.17
410.83	14.04
411.02	0.00
411.21	0.00
411.40	18.72
411.59	23.41
411.78	14.04
411.98	37.45
412.17	0.00
412.36	18.72
412.55	42.13
412.74	16.38
412.93	65.54
413.12	11.70
413.31	72.56
413.50	56.17
413.69	37.45
413.88	100.64
414.07	42.13
414.26	0.00
414.45	0.00
414.64	65.54
414.83	49.15
415.02	4.68
415.22	37.45
415.41	0.00
415.60	37.45
415.79	44.47
415.98	0.00
416.17	81.92
416.36	0.00
416.55	0.00
416.74	84.26
416.93	0.00
417.12	4.68
417.31	30.43
417.50	25.75
417.69	79.58
417.88	0.00
418.07	0.00
418.26	0.00
418.45	42.13
418.64	107.66
418.83	30.43
419.02	0.00
419.21	39.79
419.39	46.81
419.58	7.02
419.77	2.34
419.96	74.90
420.15	70.22
420.34	18.72
420.53	0.00
420.72	0.00
420.91	37.45
421.10	18.72
421.29	37.45
421.48	23.41
421.67	0.00
421.86	0.00
422.05	42.13
422.24	0.00
422.43	39.79
422.61	14.04
422.80	0.00
422.99	32.77
423.18	0.00
423.37	32.77
423.56	16.38
423.75	9.36
423.94	4.68
424.13	9.36
424.32	0.00
424.50	4.68
424.69	30.43
424.88	35.11
425.07	0.00
425.26	53.83
425.45	117.03
425.64	18.72
425.83	74.90
426.01	0.00
426.20	81.92
426.39	100.64
426.58	37.45
426.77	42.13
426.96	46.81
427.15	0.00
427.33	49.15
427.52	23.41
427.71	37.45
427.90	39.79
428.09	21.06
428.28	23.41
428.46	23.41
428.65	149.79
428.84	18.72
429.03	0.00
429.22	63.19
429.40	28.09
429.59	0.00
429.78	16.38
429.97	32.77
430.16	70.22
430.34	140.43
430.53	58.51
430.72	9.36
430.91	84.26
431.10	86.60
431.28	2.34
431.47	0.00
431.66	9.36
431.85	25.75
432.03	91.28
432.22	23.41
432.41	32.77
432.60	32.77
432.79	84.26
432.97	30.43
433.16	0.00
433.35	32.77
433.54	0.00
433.72	0.00
433.91	51.49
434.10	63.19
434.28	37.45
434.47	0.00
434.66	60.85
434.85	0.00
435.03	42.13
435.22	91.28
435.41	37.45
435.59	56.17
435.78	81.92
435.97	60.85
436.16	93.62
436.34	72.56
436.53	30.43
436.72	21.06
436.90	79.58
437.09	42.13
437.28	0.00
437.46	25.75
437.65	70.22
437.84	0.00
438.02	35.11
438.21	32.77
438.40	49.15
438.58	58.51
438.77	28.09
438.96	16.38
439.14	51.49
439.33	49.15
439.52	0.00
439.70	0.00
439.89	0.00
440.08	35.11
440.26	70.22
440.45	14.04
440.63	25.75
440.82	25.75
441.01	18.72
441.19	35.11
441.38	49.15
441.57	2.34
441.75	0.00
441.94	70.22
442.12	46.81
442.31	39.79
442.50	18.72
442.68	4.68
442.87	32.77
443.05	21.06
443.24	7.02
443.43	23.41
443.61	0.00
443.80	51.49
443.98	0.00
444.17	79.58
444.35	0.00
444.54	128.73
444.73	42.13
444.91	0.00
445.10	25.75
445.28	67.88
445.47	74.90
445.65	0.00
445.84	46.81
446.02	0.00
446.21	32.77
446.39	88.94
446.58	44.47
446.77	35.11
446.95	0.00
447.14	9.36
447.32	7.02
447.51	32.77
447.69	0.00
447.88	14.04
448.06	14.04
448.25	0.00
448.43	11.70
448.62	32.77
448.80	21.06
448.99	39.79
449.17	53.83
449.36	14.04
449.54	14.04
449.73	28.09
449.91	2.34
450.10	42.13
450.28	0.00
450.46	56.17
450.65	65.54
450.83	0.00
451.02	114.69
451.20	30.43
451.39	23.41
451.57	37.45
451.76	53.83
451.94	16.38
452.13	35.11
452.31	60.85
452.49	60.85
452.68	114.69
452.86	72.56
453.05	42.13
453.23	56.17
453.42	49.15
453.60	56.17
453.78	30.43
453.97	0.00
454.15	7.02
454.34	60.85
454.52	30.43
454.70	95.96
454.89	37.45
455.07	39.79
455.26	79.58
455.44	0.00
455.62	51.49
455.81	37.45
455.99	0.00
456.17	0.00
456.36	102.98
456.54	63.19
456.73	25.75
456.91	0.00
457.09	37.45
457.28	37.45
457.46	42.13
457.64	39.79
457.83	88.94
458.01	46.81
458.19	4.68
458.38	0.00
458.56	18.72
458.74	39.79
458.93	0.00
459.11	72.56
459.29	32.77
459.48	35.11
459.66	23.41
459.84	49.15
460.03	53.83
460.21	39.79
460.39	74.90
460.57	67.88
460.76	37.45
460.94	32.77
461.12	72.56
461.31	58.51
461.49	37.45
461.67	88.94
461.85	4.68
462.04	0.00
462.22	107.66
462.40	67.88
462.59	72.56
462.77	42.13
462.95	0.00
463.13	46.81
463.32	9.36
463.50	0.00
463.68	0.00
463.86	0.00
464.05	0.00
464.23	91.28
464.41	32.77
464.59	74.90
464.78	0.00
464.96	23.41
465.14	107.66
465.32	32.77
465.50	44.47
465.69	46.81
465.87	30.43
466.05	0.00
466.23	7.02
466.41	39.79
466.60	11.70
466.78	79.58
466.96	9.36
467.14	93.62
467.32	16.38
467.51	0.00
467.69	49.15
467.87	7.02
468.05	0.00
468.23	42.13
468.41	0.00
468.60	81.92
468.78	30.43
468.96	30.43
469.14	0.00
469.32	0.00
469.50	0.00
469.69	23.41
469.87	70.22
470.05	21.06
470.23	37.45
470.41	51.49
470.59	0.00
470.77	28.09
470.95	0.00
471.14	7.02
471.32	95.96
471.50	44.47
471.68	9.36
471.86	2.34
472.04	0.00
472.22	0.00
472.40	63.19
472.58	0.00
472.77	37.45
472.95	0.00
473.13	25.75
473.31	30.43
473.49	0.00
473.67	32.77
473.85	51.49
474.03	72.56
474.21	2.34
474.39	49.15
474.57	30.43
474.75	51.49
474.93	14.04
475.12	121.71
475.30	18.72
475.48	0.00
475.66	0.00
475.84	23.41
476.02	4.68
476.20	49.15
476.38	14.04
476.56	53.83
476.74	0.00
476.92	23.41
477.10	18.72
477.28	0.00
477.46	23.41
477.64	14.04
477.82	0.00
478.00	16.38
478.18	0.00
478.36	18.72
478.54	0.00
478.72	28.09
478.90	21.06
479.08	112.35
479.26	67.88
479.44	49.15
479.62	32.77
479.80	23.41
479.98	46.81
480.16	25.75
480.34	18.72
480.52	51.49
480.70	49.15
480.88	32.77
481.06	0.00
481.24	0.00
481.41	23.41
481.59	65.54
481.77	39.79
481.95	18.72
482.13	28.09
482.31	46.81
482.49	114.69
482.67	4.68
482.85	77.24
483.03	14.04
483.21	0.00
483.39	70.22
483.57	98.30
483.74	56.17
483.92	44.47
484.10	107.66
484.28	0.00
484.46	25.75
484.64	21.06
484.82	53.83
485.00	65.54
485.18	2.34
485.35	0.00
485.53	25.75
485.71	53.83
485.89	7.02
486.07	0.00
486.25	105.32
486.43	39.79
486.61	0.00
486.78	0.00
486.96	51.49
487.14	0.00
487.32	102.98
487.50	114.69
487.68	30.43
487.85	49.15
488.03	14.04
488.21	11.70
488.39	102.98
488.57	16.38
488.75	46.81
488.92	84.26
489.10	0.00
489.28	0.00
489.46	0.00
489.64	84.26
489.81	23.41
489.99	21.06
490.17	4.68
490.35	0.00
490.53	7.02
490.70	74.90
490.88	46.81
491.06	98.30
491.24	93.62
491.41	102.98
491.59	37.45
491.77	30.43
491.95	0.00
492.13	77.24
492.30	14.04
492.48	46.81
492.66	51.49
492.84	0.00
493.01	23.41
493.19	39.79
493.37	28.09
493.54	53.83
493.72	56.17
493.90	49.15
494.08	37.45
494.25	32.77
494.43	32.77
494.61	23.41
494.79	42.13
494.96	91.28
495.14	72.56
495.32	49.15
495.49	30.43
495.67	0.00
495.85	0.00
496.02	28.09
496.20	44.47
496.38	51.49
496.55	0.00
496.73	63.19
496.91	42.13
497.09	95.96
497.26	100.64
497.44	77.24
497.62	16.38
497.79	110.01
497.97	81.92
498.14	0.00
498.32	79.58
498.50	86.60
498.67	0.00
498.85	35.11
499.03	46.81
499.20	56.17
499.38	63.19
499.56	63.19
499.73	23.41
499.91	56.17
500.08	88.94
500.26	37.45
500.44	42.13
500.61	9.36
500.79	0.00
500.97	39.79
501.14	46.81
501.32	63.19
501.49	65.54
501.67	32.77
501.84	53.83
502.02	18.72
502.20	28.09
502.37	53.83
502.55	9.36
502.72	49.15
502.90	95.96
503.07	14.04
503.25	53.83
503.43	63.19
503.60	21.06
503.78	0.00
503.95	14.04
504.13	65.54
504.30	46.81
504.48	60.85
504.65	53.83
504.83	46.81
505.01	46.81
505.18	58.51
505.36	16.38
505.53	30.43
505.71	37.45
505.88	42.13
506.06	53.83
506.23	11.70
506.41	0.00
506.58	32.77
506.76	56.17
506.93	32.77
507.11	11.70
507.28	65.54
507.46	60.85
507.63	60.85
507.81	39.79
507.98	58.51
508.16	0.00
508.33	18.72
508.50	93.62
508.68	32.77
508.85	0.00
509.03	18.72
509.20	58.51
509.38	77.24
509.55	18.72
509.73	9.36
509.90	32.77
510.08	0.00
510.25	88.94
510.42	37.45
510.60	74.90
510.77	67.88
510.95	49.15
511.12	51.49
511.30	65.54
511.47	63.19
511.64	88.94
511.82	117.03
511.99	60.85
512.17	110.01
512.34	37.45
512.51	23.41
512.69	67.88
512.86	0.00
513.04	37.45
513.21	18.72
513.38	72.56
513.56	63.19
513.73	67.88
513.90	79.58
514.08	72.56
514.25	67.88
514.43	86.60
514.60	0.00
514.77	0.00
514.95	121.71
515.12	79.58
515.29	37.45
515.47	93.62
515.64	32.77
515.81	0.00
515.99	25.75
516.16	16.38
516.33	60.85
516.51	58.51
516.68	0.00
516.85	42.13
517.03	0.00
517.20	44.47
517.37	65.54
517.54	102.98
517.72	70.22
517.89	119.37
518.06	0.00
518.24	63.19
518.41	37.45
518.58	7.02
518.75	100.64
518.93	7.02
519.10	2.34
519.27	63.19
519.45	32.77
519.62	11.70
519.79	53.83
519.96	0.00
520.14	49.15
520.31	28.09
520.48	42.13
520.65	30.43
520.83	81.92
521.00	107.66
521.17	56.17
521.34	65.54
521.52	0.00
521.69	56.17
521.86	37.45
522.03	53.83
522.20	84.26
522.38	39.79
522.55	119.37
522.72	0.00
522.89	60.85
523.07	60.85
523.24	56.17
523.41	18.72
523.58	63.19
523.75	0.00
523.92	58.51
524.10	117.03
524.27	95.96
524.44	37.45
524.61	0.00
524.78	0.00
524.96	37.45
525.13	81.92
525.30	9.36
525.47	49.15
525.64	4.68
525.81	121.71
525.98	72.56
526.16	51.49
526.33	67.88
526.50	16.38
526.67	28.09
526.84	84.26
527.01	60.85
527.18	81.92
527.36	112.35
527.53	79.58
527.70	65.54
527.87	0.00
528.04	86.60
528.21	0.00
528.38	11.70
528.55	60.85
528.72	28.09
528.89	9.36
529.07	0.00
529.24	72.56
529.41	21.06
529.58	70.22
529.75	58.51
529.92	93.62
530.09	35.11
530.26	105.32
530.43	91.28
530.60	21.06
530.77	39.79
530.94	60.85
531.11	42.13
531.28	100.64
531.46	100.64
531.63	51.49
531.80	18.72
531.97	42.13
532.14	18.72
532.31	93.62
532.48	72.56
532.65	9.36
532.82	81.92
532.99	114.69
533.16	0.00
533.33	81.92
533.50	81.92
533.67	72.56
533.84	81.92
534.01	53.83
534.18	39.79
534.35	11.70
534.52	60.85
534.69	32.77
534.86	18.72
535.03	39.79
535.20	91.28
535.37	58.51
535.54	77.24
535.71	16.38
535.88	53.83
536.05	42.13
536.22	23.41
536.38	37.45
536.55	119.37
536.72	0.00
536.89	0.00
537.06	72.56
537.23	84.26
537.40	0.00
537.57	35.11
537.74	0.00
537.91	74.90
538.08	70.22
538.25	39.79
538.42	67.88
538.59	67.88
538.75	70.22
538.92	11.70
539.09	53.83
539.26	37.45
539.43	65.54
539.60	131.07
539.77	210.65
539.94	187.24
540.11	184.90
540.28	191.92
540.44	72.56
540.61	74.90
540.78	81.92
540.95	51.49
541.12	0.00
541.29	30.43
541.46	0.00
541.62	98.30
541.79	21.06
541.96	21.06
542.13	23.41
542.30	70.22
542.47	18.72
542.63	65.54
542.80	42.13
542.97	79.58
543.14	81.92
543.31	18.72
543.48	32.77
543.64	70.22
543.81	133.41
543.98	102.98
544.15	30.43
544.32	60.85
544.48	67.88
544.65	37.45
544.82	32.77
544.99	0.00
545.16	39.79
545.32	25.75
545.49	72.56
545.66	140.43
545.83	46.81
546.00	30.43
546.16	49.15
546.33	49.15
546.50	23.41
546.67	124.05
546.83	107.66
547.00	0.00
547.17	28.09
547.34	114.69
547.50	81.92
547.67	0.00
547.84	23.41
548.00	56.17
548.17	49.15
548.34	39.79
548.51	0.00
548.67	7.02
548.84	2.34
549.01	4.68
549.18	0.00
549.34	7.02
549.51	35.11
549.68	42.13
549.84	63.19
550.01	23.41
550.18	77.24
550.34	98.30
550.51	30.43
550.68	60.85
550.84	88.94
551.01	23.41
551.18	65.54
551.34	7.02
551.51	140.43
551.68	35.11
551.84	23.41
552.01	18.72
552.18	77.24
552.34	51.49
552.51	0.00
552.68	42.13
552.84	4.68
553.01	28.09
553.18	21.06
553.34	25.75
553.51	4.68
553.67	51.49
553.84	60.85
554.01	67.88
554.17	0.00
554.34	72.56
554.51	0.00
554.67	0.00
554.84	0.00
555.00	53.83
555.17	23.41
555.33	9.36
555.50	91.28
555.67	60.85
555.83	14.04
556.00	25.75
556.16	25.75
556.33	70.22
556.50	25.75
556.66	0.00
556.83	44.47
556.99	7.02
557.16	0.00
557.32	91.28
557.49	35.11
557.65	0.00
557.82	110.01
557.98	58.51
558.15	86.60
558.32	18.72
558.48	9.36
558.65	0.00
558.81	112.35
558.98	72.56
559.14	112.35
559.31	84.26
559.47	65.54
559.64	60.85
559.80	81.92
559.97	46.81
560.13	77.24
560.30	14.04
560.46	4.68
560.63	72.56
560.79	28.09
560.96	18.72
561.12	16.38
561.29	0.00
561.45	65.54
561.61	0.00
561.78	32.77
561.94	18.72
562.11	37.45
562.27	56.17
562.44	79.58
562.60	79.58
562.77	0.00
562.93	28.09
563.10	0.00
563.26	42.13
563.42	51.49
563.59	0.00
563.75	32.77
563.92	37.45
564.08	67.88
564.24	60.85
564.41	42.13
564.57	32.77
564.74	32.77
564.90	0.00
565.07	32.77
565.23	42.13
565.39	30.43
565.56	58.51
565.72	51.49
565.88	49.15
566.05	93.62
566.21	58.51
566.38	9.36
566.54	49.15
566.70	58.51
566.87	0.00
567.03	65.54
567.19	30.43
567.36	0.00
567.52	23.41
567.68	105.32
567.85	30.43
568.01	0.00
568.17	46.81
568.34	65.54
568.50	65.54
568.66	74.90
568.83	9.36
568.99	39.79
569.15	42.13
569.32	56.17
569.48	56.17
569.64	79.58
569.81	14.04
569.97	46.81
570.13	46.81
570.30	0.00
570.46	102.98
570.62	46.81
570.78	84.26
570.95	70.22
571.11	72.56
571.27	30.43
571.43	42.13
571.60	86.60
571.76	42.13
571.92	21.06
572.09	65.54
572.25	42.13
572.41	65.54
572.57	0.00
572.74	37.45
572.90	0.00
573.06	72.56
573.22	46.81
573.38	81.92
573.55	35.11
573.71	9.36
573.87	81.92
574.03	37.45
574.20	77.24
574.36	100.64
574.52	42.13
574.68	32.77
574.84	77.24
575.01	42.13
575.17	79.58
575.33	23.41
575.49	44.47
575.65	53.83
575.82	70.22
575.98	84.26
576.14	95.96
576.30	121.71
576.46	117.03
576.62	53.83
576.79	42.13
576.95	25.75
577.11	65.54
577.27	91.28
577.43	79.58
577.59	56.17
577.75	65.54
577.92	58.51
578.08	0.00
578.24	93.62
578.40	79.58
578.56	32.77
578.72	70.22
578.88	23.41
579.04	105.32
579.21	72.56
579.37	149.79
579.53	98.30
579.69	11.70
579.85	131.07
580.01	131.07
580.17	28.09
580.33	51.49
580.49	58.51
580.65	60.85
580.82	98.30
580.98	37.45
581.14	105.32
581.30	58.51
581.46	77.24
581.62	56.17
581.78	23.41
581.94	39.79
582.10	32.77
582.26	72.56
582.42	88.94
582.58	60.85
582.74	86.60
582.90	46.81
583.06	79.58
583.22	95.96
583.38	126.39
583.54	88.94
583.70	32.77
583.86	119.37
584.02	161.50
584.18	98.30
584.34	126.39
584.50	409.59
584.66	3009.93
584.82	7843.14
584.98	11559.91
585.14	10298.36
585.30	6415.41
585.46	3831.46
585.62	2415.43
585.78	1172.61
585.94	433.00
586.10	220.01
586.26	105.32
586.42	114.69
586.58	168.52
586.74	110.01
586.90	100.64
587.06	177.88
587.22	93.62
587.38	44.47
587.54	196.60
587.70	477.47
587.86	727.91
588.02	978.34
588.18	671.73
588.34	444.70
588.49	320.65
588.65	135.75
588.81	107.66
588.97	100.64
589.13	49.15
589.29	23.41
589.45	44.47
589.61	77.24
589.77	95.96
589.93	28.09
590.08	58.51
590.24	81.92
590.40	84.26
590.56	18.72
590.72	16.38
590.88	25.75
591.04	35.11
591.20	35.11
591.35	58.51
591.51	46.81
591.67	63.19
591.83	77.24
591.99	77.24
592.15	95.96
592.31	70.22
592.46	18.72
592.62	77.24
592.78	0.00
592.94	63.19
593.10	91.28
593.26	60.85
593.41	0.00
593.57	51.49
593.73	114.69
593.89	449.38
594.05	940.90
594.20	1519.01
594.36	1291.98
594.52	887.06
594.68	585.13
594.84	411.93
594.99	243.42
595.15	114.69
595.31	93.62
595.47	30.43
595.62	0.00
595.78	95.96
595.94	119.37
596.10	121.71
596.25	21.06
596.41	100.64
596.57	63.19
596.73	72.56
596.88	44.47
597.04	187.24
597.20	337.04
597.36	320.65
597.51	304.27
597.67	212.99
597.83	126.39
597.99	65.54
598.14	107.66
598.30	9.36
598.46	0.00
598.61	44.47
598.77	65.54
598.93	46.81
599.09	105.32
599.24	67.88
599.40	56.17
599.56	46.81
599.71	7.02
599.87	67.88
600.03	63.19
600.18	30.43
600.34	79.58
600.50	14.04
600.65	23.41
600.81	67.88
600.97	49.15
601.12	95.96
601.28	25.75
601.44	67.88
601.59	39.79
601.75	100.64
601.91	39.79
602.06	133.41
602.22	210.65
602.37	72.56
602.53	262.14
602.69	290.23
602.84	379.17
603.00	280.86
603.16	154.48
603.31	229.37
603.47	124.05
603.62	32.77
603.78	51.49
603.94	121.71
604.09	63.19
604.25	23.41
604.40	0.00
604.56	42.13
604.71	67.88
604.87	49.15
605.03	81.92
605.18	30.43
605.34	88.94
605.49	65.54
605.65	30.43
605.80	46.81
605.96	0.00
606.12	142.77
606.27	63.19
606.43	79.58
606.58	72.56
606.74	126.39
606.89	543.00
607.05	945.58
607.20	1238.14
607.36	1111.75
607.51	753.65
607.67	421.30
607.82	313.63
607.98	182.56
608.13	65.54
608.29	37.45
608.44	119.37
608.60	77.24
608.75	58.51
608.91	182.56
609.06	809.83
609.22	1556.46
609.37	2214.15
609.53	1865.41
609.68	1296.66
609.84	854.30
609.99	573.43
610.15	175.54
610.30	60.85
610.46	30.43
610.61	23.41
610.76	49.15
610.92	7.02
611.07	60.85
611.23	77.24
611.38	110.01
611.54	98.30
611.69	46.81
611.84	56.17
612.00	81.92
612.15	63.19
612.31	124.05
612.46	117.03
612.62	88.94
612.77	112.35
612.92	44.47
613.08	86.60
613.23	2.34
613.39	163.84
613.54	65.54
613.69	704.50
613.85	1921.58
614.00	3143.34
614.15	3426.54
614.31	2516.08
614.46	1514.33
614.62	1015.79
614.77	648.33
614.92	285.55
615.08	142.77
615.23	88.94
615.38	79.58
615.54	58.51
615.69	205.97
615.84	318.31
616.00	755.99
616.15	917.49
616.30	739.61
616.46	428.32
616.61	315.97
616.76	245.76
616.92	114.69
617.07	65.54
617.22	49.15
617.37	16.38
617.53	30.43
617.68	46.81
617.83	21.06
617.99	0.00
618.14	112.35
618.29	107.66
618.45	77.24
618.60	53.83
618.75	79.58
618.90	112.35
619.06	84.26
619.21	9.36
619.36	58.51
619.51	0.00
619.67	25.75
619.82	93.62
619.97	72.56
620.12	0.00
620.28	88.94
620.43	30.43
620.58	0.00
620.73	44.47
620.89	56.17
621.04	100.64
621.19	217.67
621.34	463.43
621.49	543.00
621.65	477.47
621.80	285.55
621.95	252.78
622.10	140.43
622.25	154.48
622.41	56.17
622.56	110.01
622.71	0.00
622.86	0.00
623.01	25.75
623.16	0.00
623.32	51.49
623.47	0.00
623.62	53.83
623.77	39.79
623.92	37.45
624.07	63.19
624.23	46.81
624.38	74.90
624.53	117.03
624.68	46.81
624.83	72.56
624.98	46.81
625.13	37.45
625.29	53.83
625.44	65.54
625.59	30.43
625.74	53.83
625.89	102.98
626.04	351.08
626.19	966.64
626.34	1598.59
626.49	1746.04
626.65	1472.20
626.80	1022.81
626.95	631.94
627.10	334.70
627.25	191.92
627.40	119.37
627.55	65.54
627.70	16.38
627.85	84.26
628.00	0.00
628.15	77.24
628.30	7.02
628.45	93.62
628.60	11.70
628.76	7.02
628.91	70.22
629.06	32.77
629.21	37.45
629.36	0.00
629.51	28.09
629.66	0.00
629.81	161.50
629.96	166.18
630.11	418.96
630.26	381.51
630.41	407.25
630.56	294.91
630.71	215.33
630.86	147.45
631.01	184.90
631.16	65.54
631.31	56.17
631.46	0.00
631.61	42.13
631.76	9.36
631.91	32.77
632.06	46.81
632.21	49.15
632.36	14.04
632.51	7.02
632.66	107.66
632.81	236.39
632.96	589.82
633.10	912.81
633.25	1198.35
633.40	1114.10
633.55	784.08
633.70	479.81
633.85	283.20
634.00	222.35
634.15	177.88
634.30	4.68
634.45	86.60
634.60	14.04
634.75	16.38
634.90	0.00
635.05	60.85
635.19	46.81
635.34	46.81
635.49	53.83
635.64	51.49
635.79	30.43
635.94	7.02
636.09	25.75
636.24	100.64
636.39	49.15
636.53	100.64
636.68	56.17
636.83	46.81
636.98	0.00
637.13	70.22
637.28	46.81
637.43	42.13
637.57	77.24
637.72	493.85
637.87	1259.21
638.02	1949.67
638.17	2249.25
638.32	1715.61
638.46	1170.27
638.61	711.52
638.76	517.26
638.91	269.16
639.06	119.37
639.20	135.75
639.35	77.24
639.50	147.45
639.65	716.20
639.80	2033.93
639.94	3316.54
640.09	3613.79
640.24	2640.12
640.39	1816.26
640.54	1240.48
640.68	739.61
640.83	330.02
640.98	201.29
641.13	145.11
641.27	86.60
641.42	65.54
641.57	84.26
641.72	67.88
641.86	2.34
642.01	14.04
642.16	18.72
642.31	74.90
642.45	56.17
642.60	72.56
642.75	0.00
642.90	14.04
643.04	39.79
643.19	53.83
643.34	35.11
643.48	72.56
643.63	11.70
643.78	81.92
643.93	65.54
644.07	51.49
644.22	65.54
644.37	11.70
644.51	23.41
644.66	53.83
644.81	58.51
644.95	117.03
645.10	72.56
645.25	42.13
645.39	7.02
645.54	65.54
645.69	21.06
645.83	53.83
645.98	0.00
646.13	67.88
646.27	35.11
646.42	42.13
646.57	23.41
646.71	21.06
646.86	58.51
647.00	32.77
647.15	4.68
647.30	28.09
647.44	0.00
647.59	0.00
647.74	0.00
647.88	102.98
648.03	53.83
648.17	30.43
648.32	11.70
648.47	110.01
648.61	2.34
648.76	49.15
648.90	51.49
649.05	4.68
649.20	91.28
649.34	0.00
649.49	0.00
649.63	35.11
649.78	21.06
649.92	95.96
650.07	313.63
650.21	844.93
650.36	1584.54
650.51	1804.55
650.65	1465.18
650.80	1125.80
650.94	767.70
651.09	386.19
651.23	215.33
651.38	145.11
651.52	124.05
651.67	86.60
651.81	79.58
651.96	72.56
652.10	4.68
652.25	21.06
652.39	44.47
652.54	58.51
652.68	79.58
652.83	264.48
652.97	491.51
653.12	629.60
653.26	671.73
653.41	395.55
653.55	379.17
653.70	194.26
653.84	100.64
653.99	58.51
654.13	105.32
654.27	135.75
654.42	0.00
654.56	70.22
654.71	121.71
654.85	14.04
655.00	0.00
655.14	95.96
655.29	0.00
655.43	21.06
655.57	0.00
655.72	91.28
655.86	28.09
656.01	81.92
656.15	18.72
656.30	4.68
656.44	81.92
656.58	16.38
656.73	81.92
656.87	51.49
657.01	14.04
657.16	79.58
657.30	35.11
657.45	70.22
657.59	44.47
657.73	37.45
657.88	7.02
658.02	56.17
658.16	46.81
658.31	23.41
658.45	63.19
658.60	30.43
658.74	95.96
658.88	42.13
659.03	93.62
659.17	4.68
659.31	215.33
659.46	367.46
659.60	758.33
659.74	968.98
659.89	873.02
660.03	603.86
660.17	425.98
660.32	276.18
660.46	203.63
660.60	39.79
660.74	16.38
660.89	88.94
661.03	37.45
661.17	110.01
661.32	0.00
661.46	84.26
661.60	0.00
661.74	0.00
661.89	49.15
662.03	70.22
662.17	88.94
662.31	2.34
662.46	23.41
662.60	98.30
662.74	51.49
662.88	0.00
663.03	2.34
663.17	91.28
663.31	23.41
663.45	35.11
663.60	0.00
663.74	0.00
663.88	0.00
664.02	0.00
664.17	51.49
664.31	0.00
664.45	81.92
664.59	18.72
664.73	14.04
664.88	60.85
665.02	49.15
665.16	72.56
665.30	46.81
665.44	72.56
665.59	67.88
665.73	74.90
665.87	0.00
666.01	2.34
666.15	67.88
666.29	44.47
666.44	105.32
666.58	9.36
666.72	14.04
666.86	95.96
667.00	0.00
667.14	58.51
667.28	222.35
667.43	716.20
667.57	1275.59
667.71	1727.32
667.85	1427.73
667.99	992.39
668.13	599.18
668.27	395.55
668.41	238.73
668.56	156.82
668.70	51.49
668.84	91.28
668.98	0.00
669.12	53.83
669.26	28.09
669.40	107.66
669.54	0.00
669.68	0.00
669.82	0.00
669.96	70.22
670.10	23.41
670.25	42.13
670.39	53.83
670.53	18.72
670.67	58.51
670.81	65.54
670.95	37.45
671.09	126.39
671.23	299.59
671.37	638.97
671.51	973.66
671.65	1008.77
671.79	711.52
671.93	566.41
672.07	325.33
672.21	163.84
672.35	138.09
672.49	79.58
672.63	81.92
672.77	60.85
672.91	0.00
673.05	51.49
673.19	18.72
673.33	30.43
673.47	23.41
673.61	58.51
673.75	0.00
673.89	49.15
674.03	21.06
674.17	44.47
674.31	35.11
674.45	7.02
674.59	0.00
674.73	0.00
674.87	42.13
675.01	32.77
675.15	18.72
675.29	74.90
675.43	46.81
675.56	131.07
675.70	44.47
675.84	28.09
675.98	18.72
676.12	16.38
676.26	49.15
676.40	46.81
676.54	72.56
676.68	93.62
676.82	25.75
676.96	63.19
677.10	81.92
677.23	28.09
677.37	0.00
677.51	60.85
677.65	56.17
677.79	0.00
677.93	0.00
678.07	14.04
678.21	32.77
678.34	28.09
678.48	74.90
678.62	91.28
678.76	67.88
678.90	67.88
679.04	44.47
679.18	37.45
679.31	0.00
679.45	7.02
679.59	53.83
679.73	51.49
679.87	0.00
680.00	21.06
680.14	72.56
680.28	0.00
680.42	18.72
680.56	70.22
680.70	0.00
680.83	51.49
680.97	35.11
681.11	0.00
681.25	74.90
681.39	18.72
681.52	21.06
681.66	16.38
681.80	9.36
681.94	37.45
682.07	11.70
682.21	39.79
682.35	0.00
682.49	0.00
682.62	44.47
682.76	37.45
682.90	42.13
683.04	102.98
683.17	0.00
683.31	32.77
683.45	51.49
683.59	28.09
683.72	32.77
683.86	9.36
684.00	65.54
684.13	56.17
684.27	4.68
684.41	28.09
684.55	23.41
684.68	0.00
684.82	84.26
684.96	0.00
685.09	39.79
685.23	37.45
685.37	60.85
685.50	28.09
685.64	28.09
685.78	2.34
685.91	0.00
686.05	0.00
686.19	93.62
686.32	51.49
686.46	42.13
686.60	21.06
686.73	51.49
686.87	0.00
687.01	0.00
687.14	44.47
687.28	86.60
687.42	46.81
687.55	23.41
687.69	0.00
687.82	49.15
687.96	46.81
688.10	44.47
688.23	72.56
688.37	81.92
688.50	70.22
688.64	70.22
688.78	53.83
688.91	65.54
689.05	46.81
689.18	0.00
689.32	28.09
689.46	0.00
689.59	0.00
689.73	37.45
689.86	0.00
690.00	56.17
690.13	0.00
690.27	46.81
690.41	51.49
690.54	100.64
690.68	42.13
690.81	37.45
690.95	0.00
691.08	56.17
691.22	0.00
691.35	23.41
691.49	25.75
691.62	0.00
691.76	70.22
691.89	70.22
692.03	81.92
692.16	18.72
692.30	119.37
692.43	110.01
692.57	299.59
692.70	505.56
692.84	741.95
692.97	734.93
693.11	575.77
693.24	339.38
693.38	271.50
693.51	152.13
693.65	84.26
693.78	53.83
693.92	102.98
694.05	72.56
694.19	0.00
694.32	21.06
694.45	25.75
694.59	93.62
694.72	44.47
694.86	74.90
694.99	63.19
695.13	7.02
695.26	63.19
695.39	0.00
695.53	23.41
695.66	39.79
695.80	79.58
695.93	0.00
696.07	0.00
696.20	91.28
696.33	102.98
696.47	65.54
696.60	107.66
696.73	65.54
696.87	107.66
697.00	65.54
697.14	16.38
697.27	2.34
697.40	0.00
697.54	23.41
697.67	11.70
697.80	0.00
697.94	100.64
698.07	25.75
698.21	60.85
698.34	25.75
698.47	72.56
698.61	46.81
698.74	11.70
698.87	2.34
699.01	30.43
699.14	2.34
699.27	100.64
699.40	49.15
699.54	74.90
699.67	16.38
699.80	107.66
699.94	16.38
700.07	112.35
700.20	72.56
700.34	32.77
700.47	14.04
700.60	39.79
700.73	23.41
700.87	32.77
701.00	0.00
701.13	65.54
701.26	0.00
701.40	0.00
701.53	51.49
701.66	74.90
701.79	28.09
701.93	100.64
702.06	77.24
702.19	25.75
702.32	102.98
702.46	53.83
702.59	77.24
702.72	128.73
702.85	330.02
702.99	875.36
703.12	1224.10
703.25	1441.77
703.38	1121.12
703.51	945.58
703.65	744.29
703.78	554.71
703.91	322.99
704.04	224.69
704.17	107.66
704.31	77.24
704.44	39.79
704.57	37.45
704.70	86.60
704.83	0.00
704.96	30.43
705.10	39.79
705.23	56.17
>>>>>End Processed Spectral Data<<<<<
