SpectraSuite Data File
++++++++++++++++++++++++++++++++++++
Date: Fri Oct 04 12:13:31 GMT-05:00 2013
User: price-jones
Dark Spectrum Present: No
Reference Spectrum Present: No
Number of Sampled Component Spectra: 1
Spectrometers: USB2+H05261
Integration Time (usec): 10000 (USB2+H05261)
Spectra Averaged: 1 (USB2+H05261)
Boxcar Smoothing: 0 (USB2+H05261)
Correct for Electrical Dark: No (USB2+H05261)
Strobe/Lamp Enabled: No (USB2+H05261)
Correct for Detector Non-linearity: No (USB2+H05261)
Correct for Stray Light: No (USB2+H05261)
Number of Pixels in Processed Spectrum: 2048
>>>>>Begin Processed Spectral Data<<<<<
365.73	0.00
365.92	0.00
366.12	0.00
366.32	0.00
366.52	0.00
366.72	0.00
366.91	0.00
367.11	0.00
367.31	0.00
367.51	0.00
367.70	0.00
367.90	0.00
368.10	0.00
368.30	0.00
368.49	0.00
368.69	0.00
368.89	0.00
369.09	0.00
369.28	0.00
369.48	0.00
369.68	0.00
369.87	0.00
370.07	0.00
370.27	0.00
370.47	0.00
370.66	0.00
370.86	0.00
371.06	30.43
371.25	0.00
371.45	0.00
371.65	0.00
371.84	0.00
372.04	51.49
372.24	0.00
372.44	35.11
372.63	72.56
372.83	32.77
373.03	21.06
373.22	0.00
373.42	0.00
373.62	60.85
373.81	46.81
374.01	0.00
374.21	56.17
374.40	60.85
374.60	25.75
374.79	44.47
374.99	21.06
375.19	0.00
375.38	98.30
375.58	46.81
375.78	35.11
375.97	0.00
376.17	37.45
376.37	11.70
376.56	4.68
376.76	23.41
376.95	65.54
377.15	49.15
377.35	0.00
377.54	7.02
377.74	0.00
377.93	30.43
378.13	30.43
378.33	51.49
378.52	46.81
378.72	0.00
378.91	65.54
379.11	0.00
379.31	16.38
379.50	14.04
379.70	23.41
379.89	51.49
380.09	4.68
380.28	4.68
380.48	53.83
380.68	0.00
380.87	9.36
381.07	0.00
381.26	0.00
381.46	18.72
381.65	0.00
381.85	0.00
382.04	0.00
382.24	39.79
382.43	0.00
382.63	0.00
382.83	18.72
383.02	95.96
383.22	11.70
383.41	35.11
383.61	39.79
383.80	0.00
384.00	0.00
384.19	14.04
384.39	79.58
384.58	0.00
384.78	42.13
384.97	79.58
385.17	23.41
385.36	0.00
385.56	23.41
385.75	14.04
385.95	0.00
386.14	0.00
386.34	39.79
386.53	77.24
386.72	0.00
386.92	0.00
387.11	11.70
387.31	63.19
387.50	23.41
387.70	23.41
387.89	72.56
388.09	84.26
388.28	9.36
388.48	0.00
388.67	44.47
388.86	74.90
389.06	37.45
389.25	46.81
389.45	21.06
389.64	0.00
389.84	46.81
390.03	0.00
390.22	16.38
390.42	4.68
390.61	18.72
390.81	0.00
391.00	23.41
391.19	0.00
391.39	0.00
391.58	0.00
391.78	2.34
391.97	56.17
392.16	18.72
392.36	23.41
392.55	21.06
392.75	0.00
392.94	58.51
393.13	11.70
393.33	16.38
393.52	0.00
393.71	18.72
393.91	0.00
394.10	14.04
394.29	56.17
394.49	16.38
394.68	49.15
394.88	44.47
395.07	9.36
395.26	49.15
395.46	60.85
395.65	42.13
395.84	0.00
396.04	23.41
396.23	35.11
396.42	51.49
396.62	79.58
396.81	21.06
397.00	0.00
397.19	58.51
397.39	25.75
397.58	14.04
397.77	0.00
397.97	42.13
398.16	79.58
398.35	9.36
398.55	81.92
398.74	2.34
398.93	25.75
399.12	0.00
399.32	0.00
399.51	16.38
399.70	0.00
399.90	23.41
400.09	0.00
400.28	0.00
400.47	28.09
400.67	32.77
400.86	4.68
401.05	0.00
401.24	0.00
401.44	51.49
401.63	9.36
401.82	23.41
402.01	0.00
402.21	63.19
402.40	0.00
402.59	16.38
402.78	7.02
402.97	0.00
403.17	37.45
403.36	74.90
403.55	11.70
403.74	4.68
403.93	37.45
404.13	49.15
404.32	0.00
404.51	37.45
404.70	81.92
404.89	70.22
405.09	49.15
405.28	7.02
405.47	58.51
405.66	0.00
405.85	0.00
406.05	67.88
406.24	37.45
406.43	25.75
406.62	53.83
406.81	0.00
407.00	60.85
407.20	74.90
407.39	0.00
407.58	25.75
407.77	39.79
407.96	37.45
408.15	32.77
408.34	30.43
408.54	39.79
408.73	23.41
408.92	93.62
409.11	39.79
409.30	11.70
409.49	18.72
409.68	18.72
409.87	18.72
410.07	74.90
410.26	0.00
410.45	72.56
410.64	49.15
410.83	28.09
411.02	0.00
411.21	30.43
411.40	100.64
411.59	86.60
411.78	37.45
411.98	49.15
412.17	0.00
412.36	35.11
412.55	4.68
412.74	25.75
412.93	147.45
413.12	0.00
413.31	39.79
413.50	44.47
413.69	42.13
413.88	37.45
414.07	42.13
414.26	0.00
414.45	4.68
414.64	0.00
414.83	4.68
415.02	0.00
415.22	0.00
415.41	23.41
415.60	25.75
415.79	0.00
415.98	53.83
416.17	95.96
416.36	77.24
416.55	11.70
416.74	58.51
416.93	35.11
417.12	0.00
417.31	0.00
417.50	93.62
417.69	30.43
417.88	28.09
418.07	23.41
418.26	0.00
418.45	39.79
418.64	18.72
418.83	67.88
419.02	49.15
419.21	39.79
419.39	0.00
419.58	53.83
419.77	49.15
419.96	105.32
420.15	7.02
420.34	0.00
420.53	84.26
420.72	0.00
420.91	32.77
421.10	14.04
421.29	0.00
421.48	65.54
421.67	58.51
421.86	56.17
422.05	37.45
422.24	9.36
422.43	60.85
422.61	93.62
422.80	42.13
422.99	110.01
423.18	0.00
423.37	58.51
423.56	7.02
423.75	67.88
423.94	0.00
424.13	30.43
424.32	28.09
424.50	0.00
424.69	23.41
424.88	63.19
425.07	60.85
425.26	67.88
425.45	0.00
425.64	72.56
425.83	11.70
426.01	16.38
426.20	11.70
426.39	88.94
426.58	0.00
426.77	46.81
426.96	84.26
427.15	11.70
427.33	0.00
427.52	30.43
427.71	70.22
427.90	11.70
428.09	25.75
428.28	37.45
428.46	53.83
428.65	72.56
428.84	7.02
429.03	74.90
429.22	51.49
429.40	2.34
429.59	0.00
429.78	0.00
429.97	58.51
430.16	2.34
430.34	0.00
430.53	7.02
430.72	84.26
430.91	9.36
431.10	58.51
431.28	11.70
431.47	11.70
431.66	56.17
431.85	9.36
432.03	0.00
432.22	79.58
432.41	0.00
432.60	23.41
432.79	74.90
432.97	51.49
433.16	0.00
433.35	67.88
433.54	21.06
433.72	28.09
433.91	0.00
434.10	72.56
434.28	42.13
434.47	39.79
434.66	0.00
434.85	70.22
435.03	28.09
435.22	49.15
435.41	18.72
435.59	16.38
435.78	37.45
435.97	23.41
436.16	28.09
436.34	42.13
436.53	51.49
436.72	28.09
436.90	23.41
437.09	0.00
437.28	74.90
437.46	25.75
437.65	72.56
437.84	0.00
438.02	84.26
438.21	0.00
438.40	0.00
438.58	0.00
438.77	0.00
438.96	23.41
439.14	49.15
439.33	0.00
439.52	117.03
439.70	49.15
439.89	79.58
440.08	32.77
440.26	72.56
440.45	86.60
440.63	37.45
440.82	7.02
441.01	0.00
441.19	42.13
441.38	0.00
441.57	42.13
441.75	0.00
441.94	84.26
442.12	72.56
442.31	63.19
442.50	28.09
442.68	70.22
442.87	0.00
443.05	84.26
443.24	18.72
443.43	53.83
443.61	44.47
443.80	4.68
443.98	44.47
444.17	60.85
444.35	2.34
444.54	84.26
444.73	46.81
444.91	46.81
445.10	39.79
445.28	84.26
445.47	67.88
445.65	84.26
445.84	0.00
446.02	37.45
446.21	23.41
446.39	18.72
446.58	46.81
446.77	14.04
446.95	60.85
447.14	9.36
447.32	0.00
447.51	7.02
447.69	79.58
447.88	9.36
448.06	0.00
448.25	32.77
448.43	51.49
448.62	0.00
448.80	105.32
448.99	21.06
449.17	37.45
449.36	28.09
449.54	16.38
449.73	51.49
449.91	21.06
450.10	7.02
450.28	39.79
450.46	32.77
450.65	51.49
450.83	88.94
451.02	7.02
451.20	72.56
451.39	21.06
451.57	67.88
451.76	25.75
451.94	37.45
452.13	9.36
452.31	0.00
452.49	56.17
452.68	42.13
452.86	32.77
453.05	30.43
453.23	86.60
453.42	44.47
453.60	0.00
453.78	100.64
453.97	65.54
454.15	81.92
454.34	86.60
454.52	25.75
454.70	28.09
454.89	39.79
455.07	7.02
455.26	74.90
455.44	49.15
455.62	7.02
455.81	39.79
455.99	0.00
456.17	16.38
456.36	0.00
456.54	51.49
456.73	18.72
456.91	37.45
457.09	0.00
457.28	44.47
457.46	35.11
457.64	53.83
457.83	16.38
458.01	25.75
458.19	58.51
458.38	0.00
458.56	32.77
458.74	30.43
458.93	60.85
459.11	4.68
459.29	102.98
459.48	77.24
459.66	0.00
459.84	46.81
460.03	14.04
460.21	4.68
460.39	28.09
460.57	0.00
460.76	0.00
460.94	63.19
461.12	0.00
461.31	4.68
461.49	23.41
461.67	11.70
461.85	39.79
462.04	93.62
462.22	32.77
462.40	56.17
462.59	32.77
462.77	0.00
462.95	72.56
463.13	37.45
463.32	46.81
463.50	39.79
463.68	35.11
463.86	23.41
464.05	0.00
464.23	0.00
464.41	42.13
464.59	84.26
464.78	0.00
464.96	63.19
465.14	51.49
465.32	77.24
465.50	53.83
465.69	9.36
465.87	18.72
466.05	88.94
466.23	46.81
466.41	74.90
466.60	0.00
466.78	18.72
466.96	46.81
467.14	0.00
467.32	35.11
467.51	7.02
467.69	25.75
467.87	67.88
468.05	58.51
468.23	0.00
468.41	0.00
468.60	70.22
468.78	30.43
468.96	37.45
469.14	91.28
469.32	72.56
469.50	74.90
469.69	56.17
469.87	37.45
470.05	53.83
470.23	84.26
470.41	32.77
470.59	32.77
470.77	0.00
470.95	0.00
471.14	0.00
471.32	56.17
471.50	39.79
471.68	77.24
471.86	7.02
472.04	0.00
472.22	0.00
472.40	93.62
472.58	0.00
472.77	4.68
472.95	25.75
473.13	21.06
473.31	86.60
473.49	16.38
473.67	32.77
473.85	77.24
474.03	11.70
474.21	88.94
474.39	23.41
474.57	28.09
474.75	51.49
474.93	70.22
475.12	0.00
475.30	23.41
475.48	53.83
475.66	30.43
475.84	18.72
476.02	60.85
476.20	0.00
476.38	0.00
476.56	35.11
476.74	63.19
476.92	30.43
477.10	42.13
477.28	49.15
477.46	14.04
477.64	65.54
477.82	53.83
478.00	95.96
478.18	35.11
478.36	53.83
478.54	0.00
478.72	16.38
478.90	4.68
479.08	35.11
479.26	0.00
479.44	65.54
479.62	60.85
479.80	11.70
479.98	81.92
480.16	14.04
480.34	0.00
480.52	46.81
480.70	60.85
480.88	37.45
481.06	98.30
481.24	21.06
481.41	37.45
481.59	0.00
481.77	42.13
481.95	46.81
482.13	56.17
482.31	28.09
482.49	84.26
482.67	35.11
482.85	72.56
483.03	25.75
483.21	100.64
483.39	65.54
483.57	86.60
483.74	77.24
483.92	93.62
484.10	0.00
484.28	53.83
484.46	51.49
484.64	119.37
484.82	35.11
485.00	72.56
485.18	84.26
485.35	0.00
485.53	39.79
485.71	0.00
485.89	28.09
486.07	60.85
486.25	42.13
486.43	30.43
486.61	67.88
486.78	28.09
486.96	0.00
487.14	100.64
487.32	23.41
487.50	11.70
487.68	56.17
487.85	44.47
488.03	0.00
488.21	72.56
488.39	2.34
488.57	56.17
488.75	30.43
488.92	42.13
489.10	0.00
489.28	107.66
489.46	53.83
489.64	16.38
489.81	70.22
489.99	63.19
490.17	23.41
490.35	30.43
490.53	49.15
490.70	21.06
490.88	2.34
491.06	0.00
491.24	128.73
491.41	79.58
491.59	70.22
491.77	51.49
491.95	72.56
492.13	23.41
492.30	84.26
492.48	7.02
492.66	60.85
492.84	72.56
493.01	21.06
493.19	95.96
493.37	51.49
493.54	65.54
493.72	0.00
493.90	9.36
494.08	4.68
494.25	67.88
494.43	58.51
494.61	39.79
494.79	0.00
494.96	46.81
495.14	0.00
495.32	0.00
495.49	46.81
495.67	18.72
495.85	0.00
496.02	7.02
496.20	44.47
496.38	98.30
496.55	60.85
496.73	105.32
496.91	32.77
497.09	102.98
497.26	70.22
497.44	14.04
497.62	53.83
497.79	49.15
497.97	51.49
498.14	11.70
498.32	25.75
498.50	63.19
498.67	51.49
498.85	84.26
499.03	25.75
499.20	18.72
499.38	0.00
499.56	58.51
499.73	44.47
499.91	91.28
500.08	21.06
500.26	114.69
500.44	67.88
500.61	63.19
500.79	2.34
500.97	79.58
501.14	121.71
501.32	60.85
501.49	35.11
501.67	65.54
501.84	63.19
502.02	4.68
502.20	32.77
502.37	16.38
502.55	25.75
502.72	0.00
502.90	16.38
503.07	0.00
503.25	107.66
503.43	21.06
503.60	37.45
503.78	21.06
503.95	0.00
504.13	65.54
504.30	100.64
504.48	39.79
504.65	0.00
504.83	18.72
505.01	46.81
505.18	77.24
505.36	98.30
505.53	53.83
505.71	0.00
505.88	28.09
506.06	51.49
506.23	65.54
506.41	4.68
506.58	49.15
506.76	77.24
506.93	14.04
507.11	56.17
507.28	79.58
507.46	56.17
507.63	60.85
507.81	74.90
507.98	23.41
508.16	30.43
508.33	0.00
508.50	74.90
508.68	0.00
508.85	39.79
509.03	74.90
509.20	46.81
509.38	77.24
509.55	32.77
509.73	28.09
509.90	56.17
510.08	72.56
510.25	37.45
510.42	51.49
510.60	60.85
510.77	86.60
510.95	0.00
511.12	74.90
511.30	49.15
511.47	93.62
511.64	86.60
511.82	30.43
511.99	53.83
512.17	74.90
512.34	0.00
512.51	70.22
512.69	65.54
512.86	0.00
513.04	25.75
513.21	60.85
513.38	9.36
513.56	16.38
513.73	0.00
513.90	21.06
514.08	0.00
514.25	53.83
514.43	44.47
514.60	9.36
514.77	44.47
514.95	11.70
515.12	53.83
515.29	4.68
515.47	60.85
515.64	42.13
515.81	60.85
515.99	37.45
516.16	30.43
516.33	46.81
516.51	49.15
516.68	53.83
516.85	56.17
517.03	72.56
517.20	0.00
517.37	0.00
517.54	53.83
517.72	58.51
517.89	70.22
518.06	44.47
518.24	0.00
518.41	37.45
518.58	35.11
518.75	35.11
518.93	65.54
519.10	0.00
519.27	18.72
519.45	72.56
519.62	81.92
519.79	0.00
519.96	102.98
520.14	0.00
520.31	72.56
520.48	105.32
520.65	91.28
520.83	2.34
521.00	84.26
521.17	30.43
521.34	0.00
521.52	72.56
521.69	67.88
521.86	25.75
522.03	67.88
522.20	16.38
522.38	4.68
522.55	58.51
522.72	39.79
522.89	56.17
523.07	0.00
523.24	86.60
523.41	35.11
523.58	95.96
523.75	0.00
523.92	63.19
524.10	46.81
524.27	56.17
524.44	23.41
524.61	67.88
524.78	74.90
524.96	72.56
525.13	86.60
525.30	65.54
525.47	30.43
525.64	35.11
525.81	28.09
525.98	77.24
526.16	100.64
526.33	0.00
526.50	95.96
526.67	16.38
526.84	100.64
527.01	65.54
527.18	77.24
527.36	0.00
527.53	28.09
527.70	79.58
527.87	65.54
528.04	95.96
528.21	39.79
528.38	25.75
528.55	4.68
528.72	81.92
528.89	93.62
529.07	9.36
529.24	51.49
529.41	0.00
529.58	49.15
529.75	65.54
529.92	51.49
530.09	18.72
530.26	46.81
530.43	28.09
530.60	51.49
530.77	84.26
530.94	4.68
531.11	0.00
531.28	46.81
531.46	72.56
531.63	30.43
531.80	25.75
531.97	95.96
532.14	95.96
532.31	0.00
532.48	16.38
532.65	30.43
532.82	42.13
532.99	39.79
533.16	74.90
533.33	11.70
533.50	67.88
533.67	0.00
533.84	56.17
534.01	72.56
534.18	49.15
534.35	16.38
534.52	0.00
534.69	63.19
534.86	51.49
535.03	30.43
535.20	32.77
535.37	18.72
535.54	23.41
535.71	0.00
535.88	79.58
536.05	58.51
536.22	72.56
536.38	79.58
536.55	42.13
536.72	63.19
536.89	32.77
537.06	32.77
537.23	9.36
537.40	98.30
537.57	58.51
537.74	53.83
537.91	16.38
538.08	30.43
538.25	37.45
538.42	84.26
538.59	25.75
538.75	35.11
538.92	35.11
539.09	28.09
539.26	86.60
539.43	74.90
539.60	98.30
539.77	105.32
539.94	107.66
540.11	131.07
540.28	2.34
540.44	14.04
540.61	81.92
540.78	79.58
540.95	60.85
541.12	51.49
541.29	37.45
541.46	2.34
541.62	72.56
541.79	2.34
541.96	21.06
542.13	25.75
542.30	51.49
542.47	39.79
542.63	56.17
542.80	18.72
542.97	102.98
543.14	37.45
543.31	21.06
543.48	84.26
543.64	95.96
543.81	4.68
543.98	9.36
544.15	14.04
544.32	0.00
544.48	53.83
544.65	23.41
544.82	60.85
544.99	25.75
545.16	53.83
545.32	39.79
545.49	53.83
545.66	0.00
545.83	0.00
546.00	56.17
546.16	44.47
546.33	0.00
546.50	35.11
546.67	63.19
546.83	42.13
547.00	84.26
547.17	67.88
547.34	86.60
547.50	14.04
547.67	46.81
547.84	9.36
548.00	100.64
548.17	32.77
548.34	53.83
548.51	117.03
548.67	0.00
548.84	0.00
549.01	51.49
549.18	63.19
549.34	16.38
549.51	72.56
549.68	25.75
549.84	42.13
550.01	58.51
550.18	84.26
550.34	0.00
550.51	0.00
550.68	93.62
550.84	25.75
551.01	98.30
551.18	30.43
551.34	91.28
551.51	37.45
551.68	0.00
551.84	63.19
552.01	72.56
552.18	0.00
552.34	88.94
552.51	53.83
552.68	46.81
552.84	72.56
553.01	56.17
553.18	39.79
553.34	84.26
553.51	51.49
553.67	39.79
553.84	53.83
554.01	0.00
554.17	0.00
554.34	42.13
554.51	44.47
554.67	21.06
554.84	0.00
555.00	18.72
555.17	35.11
555.33	35.11
555.50	65.54
555.67	44.47
555.83	81.92
556.00	49.15
556.16	60.85
556.33	58.51
556.50	63.19
556.66	14.04
556.83	0.00
556.99	23.41
557.16	72.56
557.32	9.36
557.49	49.15
557.65	0.00
557.82	14.04
557.98	25.75
558.15	4.68
558.32	11.70
558.48	51.49
558.65	0.00
558.81	49.15
558.98	58.51
559.14	2.34
559.31	51.49
559.47	14.04
559.64	70.22
559.80	102.98
559.97	37.45
560.13	14.04
560.30	72.56
560.46	39.79
560.63	0.00
560.79	35.11
560.96	25.75
561.12	23.41
561.29	100.64
561.45	46.81
561.61	79.58
561.78	70.22
561.94	11.70
562.11	60.85
562.27	0.00
562.44	0.00
562.60	0.00
562.77	81.92
562.93	65.54
563.10	79.58
563.26	25.75
563.42	49.15
563.59	16.38
563.75	30.43
563.92	70.22
564.08	60.85
564.24	4.68
564.41	51.49
564.57	53.83
564.74	74.90
564.90	46.81
565.07	58.51
565.23	28.09
565.39	37.45
565.56	58.51
565.72	102.98
565.88	35.11
566.05	28.09
566.21	16.38
566.38	70.22
566.54	53.83
566.70	70.22
566.87	74.90
567.03	70.22
567.19	7.02
567.36	0.00
567.52	131.07
567.68	37.45
567.85	2.34
568.01	77.24
568.17	65.54
568.34	4.68
568.50	56.17
568.66	28.09
568.83	35.11
568.99	30.43
569.15	102.98
569.32	46.81
569.48	4.68
569.64	100.64
569.81	93.62
569.97	39.79
570.13	70.22
570.30	35.11
570.46	0.00
570.62	110.01
570.78	25.75
570.95	32.77
571.11	7.02
571.27	81.92
571.43	4.68
571.60	81.92
571.76	11.70
571.92	30.43
572.09	84.26
572.25	84.26
572.41	35.11
572.57	25.75
572.74	39.79
572.90	84.26
573.06	102.98
573.22	16.38
573.38	44.47
573.55	88.94
573.71	105.32
573.87	53.83
574.03	53.83
574.20	30.43
574.36	11.70
574.52	91.28
574.68	60.85
574.84	79.58
575.01	84.26
575.17	49.15
575.33	65.54
575.49	63.19
575.65	9.36
575.82	56.17
575.98	128.73
576.14	32.77
576.30	0.00
576.46	28.09
576.62	70.22
576.79	70.22
576.95	102.98
577.11	0.00
577.27	0.00
577.43	23.41
577.59	16.38
577.75	77.24
577.92	86.60
578.08	23.41
578.24	0.00
578.40	72.56
578.56	37.45
578.72	14.04
578.88	0.00
579.04	39.79
579.21	98.30
579.37	0.00
579.53	67.88
579.69	23.41
579.85	16.38
580.01	70.22
580.17	37.45
580.33	63.19
580.49	42.13
580.65	37.45
580.82	117.03
580.98	77.24
581.14	86.60
581.30	35.11
581.46	95.96
581.62	67.88
581.78	100.64
581.94	18.72
582.10	81.92
582.26	65.54
582.42	81.92
582.58	72.56
582.74	9.36
582.90	14.04
583.06	42.13
583.22	32.77
583.38	56.17
583.54	32.77
583.70	74.90
583.86	35.11
584.02	53.83
584.18	74.90
584.34	100.64
584.50	250.44
584.66	1537.73
584.82	3475.70
584.98	4613.20
585.14	3896.99
585.30	2619.06
585.46	1612.63
585.62	983.02
585.78	564.07
585.94	231.71
586.10	102.98
586.26	7.02
586.42	42.13
586.58	49.15
586.74	74.90
586.90	74.90
587.06	51.49
587.22	70.22
587.38	28.09
587.54	121.71
587.70	264.48
587.86	311.29
588.02	388.53
588.18	341.72
588.34	234.05
588.49	100.64
588.65	84.26
588.81	35.11
588.97	91.28
589.13	2.34
589.29	7.02
589.45	63.19
589.61	53.83
589.77	58.51
589.93	9.36
590.08	35.11
590.24	46.81
590.40	0.00
590.56	70.22
590.72	86.60
590.88	0.00
591.04	23.41
591.20	51.49
591.35	42.13
591.51	88.94
591.67	86.60
591.83	0.00
591.99	105.32
592.15	7.02
592.31	84.26
592.46	67.88
592.62	51.49
592.78	46.81
592.94	0.00
593.10	18.72
593.26	65.54
593.41	105.32
593.57	56.17
593.73	93.62
593.89	170.86
594.05	503.22
594.20	528.96
594.36	594.50
594.52	397.89
594.68	304.27
594.84	217.67
594.99	65.54
595.15	44.47
595.31	37.45
595.47	49.15
595.62	70.22
595.78	0.00
595.94	70.22
596.10	14.04
596.25	46.81
596.41	58.51
596.57	39.79
596.73	56.17
596.88	35.11
597.04	128.73
597.20	140.43
597.36	264.48
597.51	152.13
597.67	63.19
597.83	0.00
597.99	138.09
598.14	72.56
598.30	42.13
598.46	0.00
598.61	7.02
598.77	51.49
598.93	42.13
599.09	25.75
599.24	58.51
599.40	25.75
599.56	65.54
599.71	0.00
599.87	67.88
600.03	88.94
600.18	0.00
600.34	79.58
600.50	46.81
600.65	84.26
600.81	0.00
600.97	0.00
601.12	56.17
601.28	53.83
601.44	25.75
601.59	42.13
601.75	37.45
601.91	49.15
602.06	51.49
602.22	91.28
602.37	35.11
602.53	140.43
602.69	138.09
602.84	187.24
603.00	205.97
603.16	72.56
603.31	77.24
603.47	58.51
603.62	0.00
603.78	72.56
603.94	35.11
604.09	28.09
604.25	0.00
604.40	42.13
604.56	42.13
604.71	0.00
604.87	28.09
605.03	16.38
605.18	93.62
605.34	4.68
605.49	0.00
605.65	0.00
605.80	77.24
605.96	0.00
606.12	37.45
606.27	16.38
606.43	102.98
606.58	42.13
606.74	28.09
606.89	255.12
607.05	449.38
607.20	514.92
607.36	416.62
607.51	245.76
607.67	170.86
607.82	180.22
607.98	84.26
608.13	37.45
608.29	0.00
608.44	21.06
608.60	58.51
608.75	37.45
608.91	117.03
609.06	365.12
609.22	671.73
609.37	889.40
609.53	788.76
609.68	479.81
609.84	421.30
609.99	184.90
610.15	131.07
610.30	51.49
610.46	86.60
610.61	51.49
610.76	65.54
610.92	56.17
611.07	18.72
611.23	39.79
611.38	79.58
611.54	88.94
611.69	16.38
611.84	93.62
612.00	28.09
612.15	72.56
612.31	67.88
612.46	46.81
612.62	86.60
612.77	72.56
612.92	67.88
613.08	86.60
613.23	91.28
613.39	30.43
613.54	79.58
613.69	376.83
613.85	891.74
614.00	1303.68
614.15	1287.29
614.31	997.07
614.46	706.84
614.62	425.98
614.77	292.57
614.92	102.98
615.08	74.90
615.23	98.30
615.38	21.06
615.54	46.81
615.69	28.09
615.84	229.37
616.00	320.65
616.15	374.49
616.30	376.83
616.46	294.91
616.61	196.60
616.76	161.50
616.92	95.96
617.07	35.11
617.22	0.00
617.37	49.15
617.53	70.22
617.68	0.00
617.83	95.96
617.99	81.92
618.14	32.77
618.29	51.49
618.45	0.00
618.60	21.06
618.75	32.77
618.90	35.11
619.06	14.04
619.21	9.36
619.36	72.56
619.51	39.79
619.67	30.43
619.82	124.05
619.97	98.30
620.12	18.72
620.28	0.00
620.43	39.79
620.58	37.45
620.73	81.92
620.89	105.32
621.04	117.03
621.19	126.39
621.34	236.39
621.49	341.72
621.65	220.01
621.80	173.20
621.95	88.94
622.10	84.26
622.25	60.85
622.41	21.06
622.56	49.15
622.71	37.45
622.86	88.94
623.01	37.45
623.16	42.13
623.32	30.43
623.47	51.49
623.62	72.56
623.77	110.01
623.92	42.13
624.07	77.24
624.23	16.38
624.38	56.17
624.53	32.77
624.68	23.41
624.83	16.38
624.98	32.77
625.13	21.06
625.29	25.75
625.44	0.00
625.59	23.41
625.74	58.51
625.89	49.15
626.04	168.52
626.19	430.66
626.34	709.18
626.49	765.36
626.65	580.45
626.80	461.09
626.95	278.52
627.10	107.66
627.25	124.05
627.40	117.03
627.55	98.30
627.70	32.77
627.85	0.00
628.00	39.79
628.15	53.83
628.30	74.90
628.45	11.70
628.60	44.47
628.76	67.88
628.91	72.56
629.06	81.92
629.21	9.36
629.36	46.81
629.51	81.92
629.66	16.38
629.81	49.15
629.96	91.28
630.11	201.29
630.26	217.67
630.41	205.97
630.56	184.90
630.71	60.85
630.86	49.15
631.01	25.75
631.16	72.56
631.31	88.94
631.46	9.36
631.61	46.81
631.76	35.11
631.91	58.51
632.06	56.17
632.21	35.11
632.36	7.02
632.51	23.41
632.66	74.90
632.81	126.39
632.96	252.78
633.10	390.87
633.25	505.56
633.40	500.87
633.55	299.59
633.70	196.60
633.85	180.22
634.00	138.09
634.15	93.62
634.30	102.98
634.45	42.13
634.60	9.36
634.75	0.00
634.90	81.92
635.05	77.24
635.19	32.77
635.34	39.79
635.49	105.32
635.64	11.70
635.79	2.34
635.94	70.22
636.09	23.41
636.24	53.83
636.39	60.85
636.53	9.36
636.68	70.22
636.83	37.45
636.98	51.49
637.13	0.00
637.28	46.81
637.43	95.96
637.57	79.58
637.72	255.12
637.87	519.60
638.02	800.46
638.17	943.24
638.32	718.54
638.46	484.49
638.61	313.63
638.76	264.48
638.91	161.50
639.06	121.71
639.20	0.00
639.35	112.35
639.50	135.75
639.65	358.10
639.80	856.64
639.94	1399.64
640.09	1509.65
640.24	1071.97
640.39	784.08
640.54	519.60
640.68	322.99
640.83	189.58
640.98	112.35
641.13	25.75
641.27	0.00
641.42	32.77
641.57	107.66
641.72	112.35
641.86	72.56
642.01	7.02
642.16	46.81
642.31	58.51
642.45	44.47
642.60	35.11
642.75	0.00
642.90	65.54
643.04	0.00
643.19	18.72
643.34	42.13
643.48	0.00
643.63	58.51
643.78	72.56
643.93	44.47
644.07	56.17
644.22	58.51
644.37	21.06
644.51	0.00
644.66	67.88
644.81	0.00
644.95	0.00
645.10	14.04
645.25	4.68
645.39	53.83
645.54	60.85
645.69	105.32
645.83	0.00
645.98	11.70
646.13	28.09
646.27	21.06
646.42	37.45
646.57	44.47
646.71	14.04
646.86	11.70
647.00	0.00
647.15	70.22
647.30	86.60
647.44	49.15
647.59	0.00
647.74	56.17
647.88	32.77
648.03	35.11
648.17	44.47
648.32	2.34
648.47	51.49
648.61	58.51
648.76	16.38
648.90	56.17
649.05	28.09
649.20	18.72
649.34	46.81
649.49	0.00
649.63	16.38
649.78	51.49
649.92	42.13
650.07	182.56
650.21	472.79
650.36	681.10
650.51	793.44
650.65	645.99
650.80	500.87
650.94	344.06
651.09	201.29
651.23	198.95
651.38	32.77
651.52	44.47
651.67	0.00
651.81	0.00
651.96	51.49
652.10	35.11
652.25	28.09
652.39	77.24
652.54	49.15
652.68	51.49
652.83	177.88
652.97	159.16
653.12	264.48
653.26	257.46
653.41	208.31
653.55	180.22
653.70	11.70
653.84	77.24
653.99	53.83
654.13	7.02
654.27	0.00
654.42	35.11
654.56	0.00
654.71	14.04
654.85	46.81
655.00	70.22
655.14	44.47
655.29	9.36
655.43	35.11
655.57	28.09
655.72	18.72
655.86	53.83
656.01	16.38
656.15	70.22
656.30	81.92
656.44	14.04
656.58	0.00
656.73	21.06
656.87	0.00
657.01	51.49
657.16	0.00
657.30	11.70
657.45	0.00
657.59	81.92
657.73	70.22
657.88	65.54
658.02	18.72
658.16	37.45
658.31	63.19
658.45	49.15
658.60	23.41
658.74	56.17
658.88	16.38
659.03	7.02
659.17	18.72
659.31	81.92
659.46	217.67
659.60	351.08
659.74	430.66
659.89	346.40
660.03	264.48
660.17	147.45
660.32	133.41
660.46	30.43
660.60	91.28
660.74	53.83
660.89	67.88
661.03	56.17
661.17	81.92
661.32	0.00
661.46	0.00
661.60	49.15
661.74	95.96
661.89	70.22
662.03	42.13
662.17	46.81
662.31	72.56
662.46	23.41
662.60	35.11
662.74	0.00
662.88	65.54
663.03	9.36
663.17	86.60
663.31	42.13
663.45	18.72
663.60	28.09
663.74	28.09
663.88	42.13
664.02	21.06
664.17	14.04
664.31	0.00
664.45	25.75
664.59	0.00
664.73	7.02
664.88	86.60
665.02	49.15
665.16	9.36
665.30	0.00
665.44	0.00
665.59	32.77
665.73	35.11
665.87	84.26
666.01	67.88
666.15	0.00
666.29	46.81
666.44	79.58
666.58	32.77
666.72	51.49
666.86	42.13
667.00	81.92
667.14	0.00
667.28	191.92
667.43	365.12
667.57	500.87
667.71	613.22
667.85	575.77
667.99	393.21
668.13	208.31
668.27	180.22
668.41	117.03
668.56	110.01
668.70	58.51
668.84	0.00
668.98	0.00
669.12	16.38
669.26	4.68
669.40	9.36
669.54	21.06
669.68	21.06
669.82	44.47
669.96	81.92
670.10	124.05
670.25	0.00
670.39	21.06
670.53	21.06
670.67	0.00
670.81	49.15
670.95	30.43
671.09	74.90
671.23	166.18
671.37	243.42
671.51	355.76
671.65	458.74
671.79	358.10
671.93	287.89
672.07	149.79
672.21	84.26
672.35	39.79
672.49	70.22
672.63	51.49
672.77	0.00
672.91	65.54
673.05	56.17
673.19	0.00
673.33	32.77
673.47	0.00
673.61	0.00
673.75	16.38
673.89	70.22
674.03	0.00
674.17	0.00
674.31	91.28
674.45	0.00
674.59	42.13
674.73	11.70
674.87	51.49
675.01	100.64
675.15	86.60
675.29	23.41
675.43	32.77
675.56	0.00
675.70	79.58
675.84	0.00
675.98	0.00
676.12	79.58
676.26	93.62
676.40	0.00
676.54	4.68
676.68	0.00
676.82	100.64
676.96	32.77
677.10	32.77
677.23	18.72
677.37	0.00
677.51	42.13
677.65	23.41
677.79	0.00
677.93	21.06
678.07	70.22
678.21	35.11
678.34	32.77
678.48	18.72
678.62	9.36
678.76	2.34
678.90	28.09
679.04	39.79
679.18	16.38
679.31	0.00
679.45	42.13
679.59	93.62
679.73	18.72
679.87	9.36
680.00	28.09
680.14	14.04
680.28	14.04
680.42	18.72
680.56	72.56
680.70	2.34
680.83	0.00
680.97	63.19
681.11	88.94
681.25	0.00
681.39	30.43
681.52	0.00
681.66	63.19
681.80	9.36
681.94	7.02
682.07	74.90
682.21	58.51
682.35	88.94
682.49	0.00
682.62	51.49
682.76	28.09
682.90	0.00
683.04	0.00
683.17	37.45
683.31	7.02
683.45	39.79
683.59	63.19
683.72	86.60
683.86	0.00
684.00	11.70
684.13	84.26
684.27	51.49
684.41	72.56
684.55	25.75
684.68	23.41
684.82	25.75
684.96	58.51
685.09	98.30
685.23	11.70
685.37	0.00
685.50	0.00
685.64	79.58
685.78	74.90
685.91	56.17
686.05	49.15
686.19	0.00
686.32	37.45
686.46	2.34
686.60	0.00
686.73	46.81
686.87	180.22
687.01	63.19
687.14	51.49
687.28	28.09
687.42	25.75
687.55	70.22
687.69	65.54
687.82	0.00
687.96	100.64
688.10	74.90
688.23	14.04
688.37	11.70
688.50	11.70
688.64	11.70
688.78	0.00
688.91	4.68
689.05	9.36
689.18	32.77
689.32	0.00
689.46	0.00
689.59	93.62
689.73	0.00
689.86	56.17
690.00	0.00
690.13	107.66
690.27	56.17
690.41	23.41
690.54	37.45
690.68	16.38
690.81	0.00
690.95	42.13
691.08	30.43
691.22	11.70
691.35	0.00
691.49	7.02
691.62	18.72
691.76	79.58
691.89	81.92
692.03	95.96
692.16	0.00
692.30	16.38
692.43	84.26
692.57	173.20
692.70	191.92
692.84	318.31
692.97	259.80
693.11	248.10
693.24	201.29
693.38	98.30
693.51	7.02
693.65	42.13
693.78	58.51
693.92	51.49
694.05	58.51
694.19	0.00
694.32	128.73
694.45	9.36
694.59	65.54
694.72	93.62
694.86	60.85
694.99	60.85
695.13	23.41
695.26	18.72
695.39	72.56
695.53	2.34
695.66	0.00
695.80	49.15
695.93	0.00
696.07	0.00
696.20	18.72
696.33	2.34
696.47	105.32
696.60	72.56
696.73	14.04
696.87	114.69
697.00	28.09
697.14	28.09
697.27	44.47
697.40	32.77
697.54	53.83
697.67	39.79
697.80	0.00
697.94	51.49
698.07	53.83
698.21	51.49
698.34	0.00
698.47	0.00
698.61	51.49
698.74	35.11
698.87	44.47
699.01	39.79
699.14	21.06
699.27	28.09
699.40	39.79
699.54	65.54
699.67	72.56
699.80	32.77
699.94	53.83
700.07	0.00
700.20	4.68
700.34	0.00
700.47	0.00
700.60	14.04
700.73	81.92
700.87	0.00
701.00	56.17
701.13	46.81
701.26	95.96
701.40	0.00
701.53	0.00
701.66	0.00
701.79	32.77
701.93	79.58
702.06	9.36
702.19	114.69
702.32	21.06
702.46	0.00
702.59	37.45
702.72	65.54
702.85	191.92
702.99	407.25
703.12	468.11
703.25	613.22
703.38	505.56
703.51	362.78
703.65	299.59
703.78	173.20
703.91	98.30
704.04	32.77
704.17	39.79
704.31	105.32
704.44	0.00
704.57	37.45
704.70	51.49
704.83	65.54
704.96	11.70
705.10	72.56
705.23	93.62
>>>>>End Processed Spectral Data<<<<<
