SpectraSuite Data File
++++++++++++++++++++++++++++++++++++
Date: Fri Oct 04 12:13:36 GMT-05:00 2013
User: price-jones
Dark Spectrum Present: No
Reference Spectrum Present: No
Number of Sampled Component Spectra: 1
Spectrometers: USB2+H05261
Integration Time (usec): 10000 (USB2+H05261)
Spectra Averaged: 1 (USB2+H05261)
Boxcar Smoothing: 0 (USB2+H05261)
Correct for Electrical Dark: No (USB2+H05261)
Strobe/Lamp Enabled: No (USB2+H05261)
Correct for Detector Non-linearity: No (USB2+H05261)
Correct for Stray Light: No (USB2+H05261)
Number of Pixels in Processed Spectrum: 2048
>>>>>Begin Processed Spectral Data<<<<<
365.73	28.09
365.92	28.09
366.12	28.09
366.32	0.00
366.52	0.00
366.72	0.00
366.91	0.00
367.11	0.00
367.31	0.00
367.51	0.00
367.70	0.00
367.90	0.00
368.10	0.00
368.30	0.00
368.49	0.00
368.69	0.00
368.89	0.00
369.09	0.00
369.28	0.00
369.48	0.00
369.68	0.00
369.87	0.00
370.07	0.00
370.27	0.00
370.47	0.00
370.66	0.00
370.86	0.00
371.06	0.00
371.25	16.38
371.45	0.00
371.65	4.68
371.84	9.36
372.04	0.00
372.24	0.00
372.44	9.36
372.63	32.77
372.83	0.00
373.03	58.51
373.22	84.26
373.42	65.54
373.62	0.00
373.81	0.00
374.01	0.00
374.21	28.09
374.40	0.00
374.60	53.83
374.79	28.09
374.99	0.00
375.19	28.09
375.38	74.90
375.58	0.00
375.78	35.11
375.97	0.00
376.17	0.00
376.37	56.17
376.56	81.92
376.76	53.83
376.95	0.00
377.15	88.94
377.35	39.79
377.54	28.09
377.74	35.11
377.93	11.70
378.13	0.00
378.33	0.00
378.52	0.00
378.72	30.43
378.91	0.00
379.11	4.68
379.31	0.00
379.50	46.81
379.70	21.06
379.89	18.72
380.09	35.11
380.28	11.70
380.48	46.81
380.68	84.26
380.87	0.00
381.07	28.09
381.26	42.13
381.46	0.00
381.65	51.49
381.85	0.00
382.04	0.00
382.24	2.34
382.43	74.90
382.63	0.00
382.83	4.68
383.02	0.00
383.22	11.70
383.41	0.00
383.61	0.00
383.80	0.00
384.00	32.77
384.19	65.54
384.39	63.19
384.58	0.00
384.78	0.00
384.97	0.00
385.17	67.88
385.36	0.00
385.56	0.00
385.75	0.00
385.95	0.00
386.14	70.22
386.34	28.09
386.53	0.00
386.72	9.36
386.92	30.43
387.11	110.01
387.31	60.85
387.50	30.43
387.70	0.00
387.89	0.00
388.09	0.00
388.28	0.00
388.48	32.77
388.67	2.34
388.86	0.00
389.06	58.51
389.25	9.36
389.45	18.72
389.64	0.00
389.84	91.28
390.03	0.00
390.22	0.00
390.42	9.36
390.61	0.00
390.81	25.75
391.00	4.68
391.19	30.43
391.39	77.24
391.58	2.34
391.78	14.04
391.97	0.00
392.16	25.75
392.36	4.68
392.55	81.92
392.75	21.06
392.94	32.77
393.13	23.41
393.33	0.00
393.52	0.00
393.71	4.68
393.91	30.43
394.10	0.00
394.29	7.02
394.49	18.72
394.68	110.01
394.88	0.00
395.07	21.06
395.26	0.00
395.46	0.00
395.65	93.62
395.84	49.15
396.04	60.85
396.23	67.88
396.42	0.00
396.62	0.00
396.81	0.00
397.00	44.47
397.19	44.47
397.39	46.81
397.58	39.79
397.77	0.00
397.97	79.58
398.16	91.28
398.35	56.17
398.55	7.02
398.74	28.09
398.93	2.34
399.12	39.79
399.32	0.00
399.51	11.70
399.70	28.09
399.90	39.79
400.09	0.00
400.28	77.24
400.47	4.68
400.67	0.00
400.86	44.47
401.05	67.88
401.24	18.72
401.44	0.00
401.63	0.00
401.82	0.00
402.01	67.88
402.21	9.36
402.40	30.43
402.59	0.00
402.78	46.81
402.97	35.11
403.17	23.41
403.36	21.06
403.55	11.70
403.74	42.13
403.93	37.45
404.13	46.81
404.32	18.72
404.51	23.41
404.70	63.19
404.89	100.64
405.09	126.39
405.28	37.45
405.47	23.41
405.66	0.00
405.85	84.26
406.05	44.47
406.24	84.26
406.43	58.51
406.62	58.51
406.81	18.72
407.00	44.47
407.20	37.45
407.39	14.04
407.58	86.60
407.77	65.54
407.96	0.00
408.15	44.47
408.34	0.00
408.54	23.41
408.73	56.17
408.92	128.73
409.11	117.03
409.30	93.62
409.49	0.00
409.68	32.77
409.87	30.43
410.07	9.36
410.26	0.00
410.45	51.49
410.64	32.77
410.83	63.19
411.02	0.00
411.21	49.15
411.40	60.85
411.59	18.72
411.78	49.15
411.98	16.38
412.17	37.45
412.36	28.09
412.55	72.56
412.74	60.85
412.93	46.81
413.12	4.68
413.31	0.00
413.50	18.72
413.69	37.45
413.88	0.00
414.07	0.00
414.26	67.88
414.45	32.77
414.64	46.81
414.83	0.00
415.02	23.41
415.22	42.13
415.41	0.00
415.60	30.43
415.79	131.07
415.98	56.17
416.17	114.69
416.36	60.85
416.55	81.92
416.74	0.00
416.93	11.70
417.12	32.77
417.31	0.00
417.50	23.41
417.69	18.72
417.88	46.81
418.07	39.79
418.26	4.68
418.45	98.30
418.64	67.88
418.83	0.00
419.02	16.38
419.21	35.11
419.39	23.41
419.58	37.45
419.77	0.00
419.96	72.56
420.15	86.60
420.34	0.00
420.53	44.47
420.72	72.56
420.91	0.00
421.10	91.28
421.29	0.00
421.48	9.36
421.67	28.09
421.86	46.81
422.05	44.47
422.24	60.85
422.43	133.41
422.61	4.68
422.80	117.03
422.99	46.81
423.18	7.02
423.37	28.09
423.56	28.09
423.75	79.58
423.94	163.84
424.13	67.88
424.32	46.81
424.50	18.72
424.69	56.17
424.88	30.43
425.07	7.02
425.26	58.51
425.45	0.00
425.64	21.06
425.83	42.13
426.01	42.13
426.20	74.90
426.39	9.36
426.58	21.06
426.77	37.45
426.96	53.83
427.15	2.34
427.33	35.11
427.52	42.13
427.71	84.26
427.90	163.84
428.09	63.19
428.28	58.51
428.46	138.09
428.65	86.60
428.84	14.04
429.03	67.88
429.22	32.77
429.40	23.41
429.59	37.45
429.78	32.77
429.97	44.47
430.16	21.06
430.34	49.15
430.53	14.04
430.72	35.11
430.91	4.68
431.10	39.79
431.28	0.00
431.47	0.00
431.66	4.68
431.85	4.68
432.03	77.24
432.22	84.26
432.41	46.81
432.60	9.36
432.79	49.15
432.97	0.00
433.16	77.24
433.35	37.45
433.54	53.83
433.72	0.00
433.91	72.56
434.10	42.13
434.28	28.09
434.47	42.13
434.66	42.13
434.85	95.96
435.03	74.90
435.22	88.94
435.41	60.85
435.59	7.02
435.78	95.96
435.97	117.03
436.16	2.34
436.34	0.00
436.53	2.34
436.72	74.90
436.90	53.83
437.09	60.85
437.28	46.81
437.46	147.45
437.65	0.00
437.84	23.41
438.02	102.98
438.21	51.49
438.40	107.66
438.58	4.68
438.77	39.79
438.96	49.15
439.14	18.72
439.33	63.19
439.52	58.51
439.70	79.58
439.89	7.02
440.08	95.96
440.26	110.01
440.45	105.32
440.63	23.41
440.82	51.49
441.01	58.51
441.19	9.36
441.38	42.13
441.57	23.41
441.75	84.26
441.94	112.35
442.12	70.22
442.31	30.43
442.50	0.00
442.68	0.00
442.87	14.04
443.05	0.00
443.24	0.00
443.43	23.41
443.61	23.41
443.80	53.83
443.98	28.09
444.17	28.09
444.35	133.41
444.54	16.38
444.73	7.02
444.91	63.19
445.10	46.81
445.28	86.60
445.47	11.70
445.65	95.96
445.84	0.00
446.02	65.54
446.21	79.58
446.39	60.85
446.58	79.58
446.77	102.98
446.95	67.88
447.14	46.81
447.32	53.83
447.51	105.32
447.69	56.17
447.88	42.13
448.06	51.49
448.25	102.98
448.43	21.06
448.62	88.94
448.80	105.32
448.99	60.85
449.17	51.49
449.36	35.11
449.54	88.94
449.73	4.68
449.91	60.85
450.10	21.06
450.28	49.15
450.46	44.47
450.65	88.94
450.83	72.56
451.02	23.41
451.20	67.88
451.39	0.00
451.57	67.88
451.76	16.38
451.94	95.96
452.13	30.43
452.31	65.54
452.49	51.49
452.68	58.51
452.86	0.00
453.05	28.09
453.23	51.49
453.42	42.13
453.60	30.43
453.78	18.72
453.97	98.30
454.15	102.98
454.34	63.19
454.52	65.54
454.70	53.83
454.89	58.51
455.07	74.90
455.26	58.51
455.44	16.38
455.62	77.24
455.81	117.03
455.99	70.22
456.17	63.19
456.36	23.41
456.54	16.38
456.73	56.17
456.91	56.17
457.09	114.69
457.28	25.75
457.46	0.00
457.64	79.58
457.83	98.30
458.01	16.38
458.19	100.64
458.38	77.24
458.56	37.45
458.74	39.79
458.93	23.41
459.11	32.77
459.29	60.85
459.48	37.45
459.66	39.79
459.84	46.81
460.03	4.68
460.21	37.45
460.39	23.41
460.57	70.22
460.76	32.77
460.94	0.00
461.12	14.04
461.31	44.47
461.49	16.38
461.67	14.04
461.85	121.71
462.04	70.22
462.22	147.45
462.40	149.79
462.59	93.62
462.77	79.58
462.95	53.83
463.13	51.49
463.32	7.02
463.50	126.39
463.68	102.98
463.86	138.09
464.05	37.45
464.23	0.00
464.41	37.45
464.59	58.51
464.78	86.60
464.96	84.26
465.14	72.56
465.32	77.24
465.50	74.90
465.69	79.58
465.87	21.06
466.05	65.54
466.23	56.17
466.41	112.35
466.60	102.98
466.78	51.49
466.96	102.98
467.14	18.72
467.32	70.22
467.51	37.45
467.69	72.56
467.87	65.54
468.05	23.41
468.23	18.72
468.41	72.56
468.60	0.00
468.78	0.00
468.96	49.15
469.14	46.81
469.32	0.00
469.50	100.64
469.69	42.13
469.87	11.70
470.05	56.17
470.23	25.75
470.41	35.11
470.59	84.26
470.77	100.64
470.95	25.75
471.14	18.72
471.32	0.00
471.50	37.45
471.68	114.69
471.86	0.00
472.04	2.34
472.22	35.11
472.40	0.00
472.58	16.38
472.77	0.00
472.95	58.51
473.13	81.92
473.31	46.81
473.49	39.79
473.67	58.51
473.85	11.70
474.03	0.00
474.21	70.22
474.39	53.83
474.57	84.26
474.75	93.62
474.93	35.11
475.12	28.09
475.30	23.41
475.48	58.51
475.66	46.81
475.84	44.47
476.02	53.83
476.20	131.07
476.38	100.64
476.56	49.15
476.74	65.54
476.92	93.62
477.10	35.11
477.28	44.47
477.46	81.92
477.64	93.62
477.82	112.35
478.00	88.94
478.18	51.49
478.36	56.17
478.54	145.11
478.72	100.64
478.90	105.32
479.08	56.17
479.26	35.11
479.44	79.58
479.62	81.92
479.80	0.00
479.98	105.32
480.16	51.49
480.34	32.77
480.52	147.45
480.70	63.19
480.88	81.92
481.06	46.81
481.24	23.41
481.41	65.54
481.59	60.85
481.77	105.32
481.95	72.56
482.13	56.17
482.31	53.83
482.49	105.32
482.67	95.96
482.85	0.00
483.03	51.49
483.21	63.19
483.39	72.56
483.57	70.22
483.74	63.19
483.92	0.00
484.10	23.41
484.28	28.09
484.46	0.00
484.64	35.11
484.82	11.70
485.00	49.15
485.18	30.43
485.35	77.24
485.53	14.04
485.71	70.22
485.89	32.77
486.07	30.43
486.25	70.22
486.43	121.71
486.61	35.11
486.78	77.24
486.96	49.15
487.14	102.98
487.32	60.85
487.50	156.82
487.68	46.81
487.85	98.30
488.03	60.85
488.21	149.79
488.39	53.83
488.57	39.79
488.75	63.19
488.92	138.09
489.10	0.00
489.28	124.05
489.46	105.32
489.64	65.54
489.81	81.92
489.99	0.00
490.17	121.71
490.35	133.41
490.53	88.94
490.70	81.92
490.88	35.11
491.06	46.81
491.24	56.17
491.41	32.77
491.59	37.45
491.77	37.45
491.95	53.83
492.13	21.06
492.30	154.48
492.48	16.38
492.66	86.60
492.84	63.19
493.01	63.19
493.19	42.13
493.37	28.09
493.54	37.45
493.72	28.09
493.90	37.45
494.08	67.88
494.25	77.24
494.43	46.81
494.61	91.28
494.79	88.94
494.96	11.70
495.14	105.32
495.32	28.09
495.49	72.56
495.67	70.22
495.85	147.45
496.02	30.43
496.20	60.85
496.38	44.47
496.55	114.69
496.73	84.26
496.91	95.96
497.09	95.96
497.26	46.81
497.44	4.68
497.62	42.13
497.79	121.71
497.97	81.92
498.14	102.98
498.32	114.69
498.50	93.62
498.67	189.58
498.85	152.13
499.03	56.17
499.20	21.06
499.38	35.11
499.56	63.19
499.73	77.24
499.91	77.24
500.08	16.38
500.26	168.52
500.44	46.81
500.61	51.49
500.79	119.37
500.97	32.77
501.14	84.26
501.32	140.43
501.49	110.01
501.67	9.36
501.84	133.41
502.02	42.13
502.20	72.56
502.37	67.88
502.55	56.17
502.72	0.00
502.90	58.51
503.07	140.43
503.25	98.30
503.43	37.45
503.60	86.60
503.78	91.28
503.95	0.00
504.13	37.45
504.30	58.51
504.48	77.24
504.65	126.39
504.83	28.09
505.01	98.30
505.18	77.24
505.36	49.15
505.53	105.32
505.71	86.60
505.88	39.79
506.06	60.85
506.23	84.26
506.41	166.18
506.58	135.75
506.76	60.85
506.93	56.17
507.11	105.32
507.28	145.11
507.46	72.56
507.63	51.49
507.81	77.24
507.98	124.05
508.16	107.66
508.33	86.60
508.50	72.56
508.68	117.03
508.85	105.32
509.03	100.64
509.20	114.69
509.38	86.60
509.55	98.30
509.73	98.30
509.90	84.26
510.08	149.79
510.25	35.11
510.42	46.81
510.60	110.01
510.77	49.15
510.95	39.79
511.12	49.15
511.30	79.58
511.47	84.26
511.64	126.39
511.82	107.66
511.99	100.64
512.17	30.43
512.34	135.75
512.51	107.66
512.69	93.62
512.86	4.68
513.04	51.49
513.21	77.24
513.38	142.77
513.56	88.94
513.73	91.28
513.90	79.58
514.08	145.11
514.25	88.94
514.43	91.28
514.60	56.17
514.77	0.00
514.95	159.16
515.12	60.85
515.29	72.56
515.47	112.35
515.64	60.85
515.81	98.30
515.99	84.26
516.16	72.56
516.33	14.04
516.51	67.88
516.68	110.01
516.85	88.94
517.03	51.49
517.20	67.88
517.37	46.81
517.54	119.37
517.72	35.11
517.89	46.81
518.06	58.51
518.24	9.36
518.41	49.15
518.58	107.66
518.75	37.45
518.93	56.17
519.10	51.49
519.27	28.09
519.45	63.19
519.62	163.84
519.79	67.88
519.96	42.13
520.14	84.26
520.31	16.38
520.48	58.51
520.65	65.54
520.83	32.77
521.00	86.60
521.17	112.35
521.34	46.81
521.52	72.56
521.69	74.90
521.86	79.58
522.03	86.60
522.20	98.30
522.38	30.43
522.55	42.13
522.72	72.56
522.89	60.85
523.07	32.77
523.24	126.39
523.41	88.94
523.58	0.00
523.75	93.62
523.92	147.45
524.10	128.73
524.27	114.69
524.44	91.28
524.61	60.85
524.78	14.04
524.96	117.03
525.13	81.92
525.30	51.49
525.47	49.15
525.64	88.94
525.81	84.26
525.98	84.26
526.16	11.70
526.33	131.07
526.50	105.32
526.67	107.66
526.84	25.75
527.01	110.01
527.18	67.88
527.36	102.98
527.53	135.75
527.70	126.39
527.87	63.19
528.04	37.45
528.21	117.03
528.38	46.81
528.55	100.64
528.72	67.88
528.89	63.19
529.07	119.37
529.24	63.19
529.41	100.64
529.58	53.83
529.75	112.35
529.92	49.15
530.09	126.39
530.26	133.41
530.43	140.43
530.60	98.30
530.77	135.75
530.94	91.28
531.11	81.92
531.28	142.77
531.46	121.71
531.63	21.06
531.80	124.05
531.97	100.64
532.14	56.17
532.31	95.96
532.48	63.19
532.65	84.26
532.82	133.41
532.99	72.56
533.16	51.49
533.33	77.24
533.50	79.58
533.67	63.19
533.84	65.54
534.01	84.26
534.18	81.92
534.35	81.92
534.52	110.01
534.69	51.49
534.86	112.35
535.03	37.45
535.20	49.15
535.37	95.96
535.54	79.58
535.71	63.19
535.88	84.26
536.05	58.51
536.22	67.88
536.38	32.77
536.55	74.90
536.72	39.79
536.89	114.69
537.06	42.13
537.23	25.75
537.40	81.92
537.57	84.26
537.74	63.19
537.91	88.94
538.08	18.72
538.25	81.92
538.42	84.26
538.59	86.60
538.75	51.49
538.92	117.03
539.09	79.58
539.26	72.56
539.43	93.62
539.60	86.60
539.77	81.92
539.94	93.62
540.11	112.35
540.28	112.35
540.44	86.60
540.61	100.64
540.78	0.00
540.95	86.60
541.12	81.92
541.29	65.54
541.46	126.39
541.62	102.98
541.79	119.37
541.96	152.13
542.13	63.19
542.30	32.77
542.47	124.05
542.63	49.15
542.80	65.54
542.97	65.54
543.14	28.09
543.31	28.09
543.48	67.88
543.64	79.58
543.81	79.58
543.98	100.64
544.15	51.49
544.32	86.60
544.48	95.96
544.65	79.58
544.82	77.24
544.99	93.62
545.16	138.09
545.32	98.30
545.49	135.75
545.66	133.41
545.83	110.01
546.00	9.36
546.16	86.60
546.33	25.75
546.50	65.54
546.67	86.60
546.83	4.68
547.00	32.77
547.17	81.92
547.34	18.72
547.50	91.28
547.67	14.04
547.84	121.71
548.00	110.01
548.17	51.49
548.34	126.39
548.51	44.47
548.67	60.85
548.84	14.04
549.01	91.28
549.18	91.28
549.34	58.51
549.51	133.41
549.68	65.54
549.84	65.54
550.01	112.35
550.18	140.43
550.34	147.45
550.51	67.88
550.68	88.94
550.84	56.17
551.01	98.30
551.18	117.03
551.34	0.00
551.51	86.60
551.68	133.41
551.84	37.45
552.01	95.96
552.18	114.69
552.34	117.03
552.51	0.00
552.68	121.71
552.84	93.62
553.01	79.58
553.18	124.05
553.34	35.11
553.51	102.98
553.67	63.19
553.84	70.22
554.01	53.83
554.17	152.13
554.34	35.11
554.51	56.17
554.67	0.00
554.84	81.92
555.00	142.77
555.17	0.00
555.33	46.81
555.50	28.09
555.67	102.98
555.83	135.75
556.00	79.58
556.16	51.49
556.33	100.64
556.50	65.54
556.66	86.60
556.83	60.85
556.99	93.62
557.16	88.94
557.32	95.96
557.49	163.84
557.65	91.28
557.82	133.41
557.98	46.81
558.15	93.62
558.32	28.09
558.48	95.96
558.65	91.28
558.81	93.62
558.98	18.72
559.14	51.49
559.31	37.45
559.47	4.68
559.64	105.32
559.80	86.60
559.97	14.04
560.13	77.24
560.30	11.70
560.46	105.32
560.63	95.96
560.79	32.77
560.96	4.68
561.12	72.56
561.29	65.54
561.45	110.01
561.61	126.39
561.78	110.01
561.94	70.22
562.11	84.26
562.27	37.45
562.44	105.32
562.60	70.22
562.77	60.85
562.93	35.11
563.10	23.41
563.26	58.51
563.42	91.28
563.59	39.79
563.75	128.73
563.92	84.26
564.08	14.04
564.24	79.58
564.41	135.75
564.57	70.22
564.74	30.43
564.90	72.56
565.07	67.88
565.23	70.22
565.39	93.62
565.56	65.54
565.72	56.17
565.88	4.68
566.05	74.90
566.21	84.26
566.38	30.43
566.54	107.66
566.70	88.94
566.87	56.17
567.03	72.56
567.19	67.88
567.36	77.24
567.52	28.09
567.68	112.35
567.85	23.41
568.01	117.03
568.17	35.11
568.34	35.11
568.50	70.22
568.66	72.56
568.83	107.66
568.99	58.51
569.15	79.58
569.32	102.98
569.48	60.85
569.64	95.96
569.81	35.11
569.97	65.54
570.13	86.60
570.30	67.88
570.46	30.43
570.62	84.26
570.78	60.85
570.95	86.60
571.11	126.39
571.27	86.60
571.43	53.83
571.60	124.05
571.76	105.32
571.92	44.47
572.09	35.11
572.25	37.45
572.41	102.98
572.57	93.62
572.74	124.05
572.90	86.60
573.06	74.90
573.22	98.30
573.38	100.64
573.55	32.77
573.71	81.92
573.87	51.49
574.03	88.94
574.20	124.05
574.36	138.09
574.52	16.38
574.68	46.81
574.84	39.79
575.01	107.66
575.17	37.45
575.33	51.49
575.49	91.28
575.65	56.17
575.82	0.00
575.98	60.85
576.14	81.92
576.30	133.41
576.46	77.24
576.62	49.15
576.79	72.56
576.95	131.07
577.11	58.51
577.27	67.88
577.43	77.24
577.59	81.92
577.75	100.64
577.92	49.15
578.08	93.62
578.24	98.30
578.40	93.62
578.56	110.01
578.72	107.66
578.88	135.75
579.04	56.17
579.21	110.01
579.37	46.81
579.53	121.71
579.69	70.22
579.85	63.19
580.01	100.64
580.17	86.60
580.33	58.51
580.49	44.47
580.65	133.41
580.82	4.68
580.98	156.82
581.14	72.56
581.30	37.45
581.46	18.72
581.62	102.98
581.78	86.60
581.94	93.62
582.10	74.90
582.26	74.90
582.42	105.32
582.58	49.15
582.74	79.58
582.90	140.43
583.06	63.19
583.22	35.11
583.38	112.35
583.54	98.30
583.70	93.62
583.86	56.17
584.02	79.58
584.18	112.35
584.34	42.13
584.50	100.64
584.66	65.54
584.82	117.03
584.98	100.64
585.14	65.54
585.30	84.26
585.46	37.45
585.62	51.49
585.78	0.00
585.94	93.62
586.10	63.19
586.26	72.56
586.42	60.85
586.58	128.73
586.74	32.77
586.90	98.30
587.06	84.26
587.22	67.88
587.38	133.41
587.54	77.24
587.70	32.77
587.86	28.09
588.02	0.00
588.18	0.00
588.34	63.19
588.49	14.04
588.65	84.26
588.81	14.04
588.97	9.36
589.13	14.04
589.29	107.66
589.45	56.17
589.61	72.56
589.77	49.15
589.93	7.02
590.08	119.37
590.24	77.24
590.40	44.47
590.56	63.19
590.72	23.41
590.88	170.86
591.04	114.69
591.20	86.60
591.35	86.60
591.51	72.56
591.67	133.41
591.83	67.88
591.99	72.56
592.15	88.94
592.31	16.38
592.46	81.92
592.62	44.47
592.78	93.62
592.94	91.28
593.10	35.11
593.26	4.68
593.41	119.37
593.57	44.47
593.73	84.26
593.89	70.22
594.05	93.62
594.20	70.22
594.36	0.00
594.52	0.00
594.68	72.56
594.84	4.68
594.99	65.54
595.15	81.92
595.31	126.39
595.47	91.28
595.62	88.94
595.78	56.17
595.94	14.04
596.10	4.68
596.25	65.54
596.41	2.34
596.57	42.13
596.73	65.54
596.88	0.00
597.04	98.30
597.20	44.47
597.36	9.36
597.51	39.79
597.67	81.92
597.83	88.94
597.99	37.45
598.14	124.05
598.30	32.77
598.46	28.09
598.61	28.09
598.77	128.73
598.93	23.41
599.09	25.75
599.24	32.77
599.40	81.92
599.56	11.70
599.71	81.92
599.87	70.22
600.03	117.03
600.18	28.09
600.34	105.32
600.50	46.81
600.65	79.58
600.81	88.94
600.97	91.28
601.12	156.82
601.28	58.51
601.44	32.77
601.59	30.43
601.75	53.83
601.91	124.05
602.06	93.62
602.22	58.51
602.37	14.04
602.53	84.26
602.69	70.22
602.84	65.54
603.00	51.49
603.16	58.51
603.31	11.70
603.47	88.94
603.62	56.17
603.78	88.94
603.94	114.69
604.09	0.00
604.25	58.51
604.40	107.66
604.56	84.26
604.71	88.94
604.87	44.47
605.03	30.43
605.18	86.60
605.34	110.01
605.49	35.11
605.65	14.04
605.80	81.92
605.96	32.77
606.12	84.26
606.27	95.96
606.43	56.17
606.58	67.88
606.74	77.24
606.89	46.81
607.05	72.56
607.20	147.45
607.36	37.45
607.51	32.77
607.67	60.85
607.82	72.56
607.98	72.56
608.13	53.83
608.29	14.04
608.44	70.22
608.60	79.58
608.75	72.56
608.91	114.69
609.06	32.77
609.22	35.11
609.37	70.22
609.53	35.11
609.68	39.79
609.84	98.30
609.99	0.00
610.15	117.03
610.30	35.11
610.46	88.94
610.61	88.94
610.76	37.45
610.92	63.19
611.07	21.06
611.23	72.56
611.38	100.64
611.54	0.00
611.69	63.19
611.84	72.56
612.00	74.90
612.15	74.90
612.31	37.45
612.46	51.49
612.62	63.19
612.77	67.88
612.92	140.43
613.08	18.72
613.23	110.01
613.39	53.83
613.54	86.60
613.69	74.90
613.85	56.17
614.00	23.41
614.15	63.19
614.31	110.01
614.46	119.37
614.62	81.92
614.77	79.58
614.92	0.00
615.08	86.60
615.23	100.64
615.38	58.51
615.54	0.00
615.69	11.70
615.84	88.94
616.00	77.24
616.15	65.54
616.30	98.30
616.46	16.38
616.61	53.83
616.76	2.34
616.92	81.92
617.07	51.49
617.22	37.45
617.37	14.04
617.53	67.88
617.68	81.92
617.83	117.03
617.99	77.24
618.14	60.85
618.29	88.94
618.45	58.51
618.60	25.75
618.75	110.01
618.90	0.00
619.06	23.41
619.21	56.17
619.36	51.49
619.51	117.03
619.67	39.79
619.82	30.43
619.97	49.15
620.12	86.60
620.28	11.70
620.43	4.68
620.58	39.79
620.73	51.49
620.89	51.49
621.04	86.60
621.19	95.96
621.34	11.70
621.49	4.68
621.65	77.24
621.80	14.04
621.95	93.62
622.10	72.56
622.25	32.77
622.41	0.00
622.56	35.11
622.71	65.54
622.86	72.56
623.01	60.85
623.16	21.06
623.32	60.85
623.47	60.85
623.62	56.17
623.77	81.92
623.92	81.92
624.07	28.09
624.23	42.13
624.38	53.83
624.53	67.88
624.68	65.54
624.83	110.01
624.98	58.51
625.13	37.45
625.29	46.81
625.44	25.75
625.59	58.51
625.74	131.07
625.89	67.88
626.04	77.24
626.19	79.58
626.34	60.85
626.49	119.37
626.65	37.45
626.80	60.85
626.95	81.92
627.10	51.49
627.25	105.32
627.40	23.41
627.55	49.15
627.70	98.30
627.85	39.79
628.00	21.06
628.15	126.39
628.30	107.66
628.45	56.17
628.60	42.13
628.76	28.09
628.91	0.00
629.06	117.03
629.21	67.88
629.36	107.66
629.51	53.83
629.66	9.36
629.81	0.00
629.96	67.88
630.11	81.92
630.26	37.45
630.41	37.45
630.56	70.22
630.71	9.36
630.86	100.64
631.01	124.05
631.16	39.79
631.31	67.88
631.46	30.43
631.61	0.00
631.76	53.83
631.91	44.47
632.06	77.24
632.21	56.17
632.36	79.58
632.51	77.24
632.66	35.11
632.81	58.51
632.96	44.47
633.10	37.45
633.25	100.64
633.40	39.79
633.55	30.43
633.70	23.41
633.85	70.22
634.00	128.73
634.15	14.04
634.30	84.26
634.45	9.36
634.60	35.11
634.75	98.30
634.90	56.17
635.05	18.72
635.19	93.62
635.34	18.72
635.49	32.77
635.64	98.30
635.79	58.51
635.94	42.13
636.09	95.96
636.24	79.58
636.39	46.81
636.53	60.85
636.68	42.13
636.83	84.26
636.98	60.85
637.13	63.19
637.28	65.54
637.43	39.79
637.57	126.39
637.72	60.85
637.87	53.83
638.02	18.72
638.17	23.41
638.32	84.26
638.46	9.36
638.61	135.75
638.76	65.54
638.91	95.96
639.06	51.49
639.20	14.04
639.35	70.22
639.50	63.19
639.65	11.70
639.80	74.90
639.94	74.90
640.09	67.88
640.24	105.32
640.39	39.79
640.54	0.00
640.68	4.68
640.83	25.75
640.98	53.83
641.13	95.96
641.27	28.09
641.42	42.13
641.57	63.19
641.72	93.62
641.86	74.90
642.01	121.71
642.16	35.11
642.31	79.58
642.45	135.75
642.60	23.41
642.75	23.41
642.90	67.88
643.04	138.09
643.19	0.00
643.34	21.06
643.48	46.81
643.63	65.54
643.78	25.75
643.93	0.00
644.07	102.98
644.22	93.62
644.37	79.58
644.51	56.17
644.66	51.49
644.81	67.88
644.95	95.96
645.10	77.24
645.25	37.45
645.39	117.03
645.54	46.81
645.69	21.06
645.83	23.41
645.98	0.00
646.13	46.81
646.27	23.41
646.42	53.83
646.57	46.81
646.71	9.36
646.86	72.56
647.00	7.02
647.15	46.81
647.30	32.77
647.44	60.85
647.59	60.85
647.74	32.77
647.88	72.56
648.03	46.81
648.17	84.26
648.32	21.06
648.47	16.38
648.61	60.85
648.76	81.92
648.90	30.43
649.05	95.96
649.20	58.51
649.34	25.75
649.49	67.88
649.63	72.56
649.78	0.00
649.92	0.00
650.07	63.19
650.21	9.36
650.36	100.64
650.51	63.19
650.65	88.94
650.80	77.24
650.94	32.77
651.09	74.90
651.23	16.38
651.38	35.11
651.52	21.06
651.67	70.22
651.81	42.13
651.96	114.69
652.10	107.66
652.25	53.83
652.39	58.51
652.54	63.19
652.68	56.17
652.83	44.47
652.97	16.38
653.12	63.19
653.26	56.17
653.41	51.49
653.55	84.26
653.70	86.60
653.84	72.56
653.99	77.24
654.13	39.79
654.27	67.88
654.42	14.04
654.56	86.60
654.71	100.64
654.85	25.75
655.00	77.24
655.14	56.17
655.29	56.17
655.43	84.26
655.57	46.81
655.72	14.04
655.86	0.00
656.01	121.71
656.15	79.58
656.30	39.79
656.44	65.54
656.58	32.77
656.73	49.15
656.87	100.64
657.01	53.83
657.16	74.90
657.30	46.81
657.45	53.83
657.59	95.96
657.73	67.88
657.88	53.83
658.02	2.34
658.16	44.47
658.31	72.56
658.45	91.28
658.60	0.00
658.74	84.26
658.88	30.43
659.03	42.13
659.17	37.45
659.31	0.00
659.46	11.70
659.60	46.81
659.74	88.94
659.89	60.85
660.03	114.69
660.17	51.49
660.32	32.77
660.46	81.92
660.60	32.77
660.74	23.41
660.89	49.15
661.03	32.77
661.17	100.64
661.32	25.75
661.46	74.90
661.60	84.26
661.74	84.26
661.89	0.00
662.03	81.92
662.17	14.04
662.31	63.19
662.46	56.17
662.60	39.79
662.74	95.96
662.88	16.38
663.03	72.56
663.17	49.15
663.31	18.72
663.45	46.81
663.60	72.56
663.74	67.88
663.88	65.54
664.02	23.41
664.17	105.32
664.31	46.81
664.45	39.79
664.59	105.32
664.73	110.01
664.88	11.70
665.02	49.15
665.16	67.88
665.30	53.83
665.44	4.68
665.59	11.70
665.73	42.13
665.87	58.51
666.01	0.00
666.15	28.09
666.29	46.81
666.44	77.24
666.58	30.43
666.72	95.96
666.86	77.24
667.00	0.00
667.14	11.70
667.28	70.22
667.43	23.41
667.57	0.00
667.71	14.04
667.85	21.06
667.99	2.34
668.13	44.47
668.27	28.09
668.41	58.51
668.56	74.90
668.70	32.77
668.84	67.88
668.98	39.79
669.12	18.72
669.26	100.64
669.40	7.02
669.54	4.68
669.68	46.81
669.82	100.64
669.96	18.72
670.10	95.96
670.25	70.22
670.39	63.19
670.53	21.06
670.67	28.09
670.81	114.69
670.95	35.11
671.09	77.24
671.23	49.15
671.37	39.79
671.51	35.11
671.65	63.19
671.79	67.88
671.93	60.85
672.07	35.11
672.21	0.00
672.35	44.47
672.49	91.28
672.63	84.26
672.77	91.28
672.91	74.90
673.05	58.51
673.19	0.00
673.33	79.58
673.47	4.68
673.61	128.73
673.75	16.38
673.89	77.24
674.03	112.35
674.17	25.75
674.31	18.72
674.45	88.94
674.59	102.98
674.73	56.17
674.87	49.15
675.01	88.94
675.15	117.03
675.29	30.43
675.43	32.77
675.56	84.26
675.70	65.54
675.84	56.17
675.98	51.49
676.12	28.09
676.26	56.17
676.40	60.85
676.54	9.36
676.68	0.00
676.82	77.24
676.96	37.45
677.10	60.85
677.23	86.60
677.37	0.00
677.51	16.38
677.65	145.11
677.79	21.06
677.93	32.77
678.07	70.22
678.21	77.24
678.34	84.26
678.48	46.81
678.62	21.06
678.76	4.68
678.90	0.00
679.04	21.06
679.18	46.81
679.31	37.45
679.45	0.00
679.59	28.09
679.73	53.83
679.87	81.92
680.00	25.75
680.14	39.79
680.28	0.00
680.42	4.68
680.56	95.96
680.70	56.17
680.83	21.06
680.97	114.69
681.11	25.75
681.25	42.13
681.39	63.19
681.52	49.15
681.66	81.92
681.80	23.41
681.94	53.83
682.07	30.43
682.21	11.70
682.35	70.22
682.49	88.94
682.62	28.09
682.76	9.36
682.90	51.49
683.04	2.34
683.17	77.24
683.31	32.77
683.45	30.43
683.59	42.13
683.72	128.73
683.86	0.00
684.00	121.71
684.13	0.00
684.27	35.11
684.41	18.72
684.55	0.00
684.68	53.83
684.82	86.60
684.96	128.73
685.09	74.90
685.23	81.92
685.37	9.36
685.50	65.54
685.64	49.15
685.78	23.41
685.91	88.94
686.05	100.64
686.19	46.81
686.32	42.13
686.46	70.22
686.60	70.22
686.73	4.68
686.87	98.30
687.01	35.11
687.14	32.77
687.28	0.00
687.42	28.09
687.55	4.68
687.69	42.13
687.82	23.41
687.96	51.49
688.10	0.00
688.23	39.79
688.37	77.24
688.50	74.90
688.64	30.43
688.78	60.85
688.91	4.68
689.05	60.85
689.18	23.41
689.32	28.09
689.46	46.81
689.59	65.54
689.73	65.54
689.86	18.72
690.00	72.56
690.13	21.06
690.27	30.43
690.41	74.90
690.54	37.45
690.68	42.13
690.81	56.17
690.95	37.45
691.08	60.85
691.22	23.41
691.35	65.54
691.49	70.22
691.62	18.72
691.76	35.11
691.89	86.60
692.03	0.00
692.16	105.32
692.30	53.83
692.43	0.00
692.57	100.64
692.70	74.90
692.84	0.00
692.97	37.45
693.11	0.00
693.24	63.19
693.38	121.71
693.51	37.45
693.65	58.51
693.78	79.58
693.92	0.00
694.05	11.70
694.19	0.00
694.32	2.34
694.45	42.13
694.59	58.51
694.72	63.19
694.86	0.00
694.99	0.00
695.13	65.54
695.26	102.98
695.39	28.09
695.53	0.00
695.66	51.49
695.80	0.00
695.93	30.43
696.07	25.75
696.20	56.17
696.33	37.45
696.47	9.36
696.60	60.85
696.73	42.13
696.87	32.77
697.00	21.06
697.14	63.19
697.27	18.72
697.40	91.28
697.54	37.45
697.67	32.77
697.80	30.43
697.94	9.36
698.07	7.02
698.21	86.60
698.34	0.00
698.47	23.41
698.61	51.49
698.74	56.17
698.87	35.11
699.01	86.60
699.14	25.75
699.27	0.00
699.40	58.51
699.54	0.00
699.67	53.83
699.80	56.17
699.94	9.36
700.07	32.77
700.20	35.11
700.34	21.06
700.47	28.09
700.60	67.88
700.73	51.49
700.87	72.56
701.00	0.00
701.13	72.56
701.26	60.85
701.40	0.00
701.53	81.92
701.66	0.00
701.79	9.36
701.93	9.36
702.06	39.79
702.19	11.70
702.32	23.41
702.46	37.45
702.59	28.09
702.72	35.11
702.85	39.79
702.99	49.15
703.12	58.51
703.25	30.43
703.38	28.09
703.51	74.90
703.65	37.45
703.78	65.54
703.91	91.28
704.04	56.17
704.17	0.00
704.31	16.38
704.44	56.17
704.57	49.15
704.70	0.00
704.83	11.70
704.96	0.00
705.10	0.00
705.23	37.45
>>>>>End Processed Spectral Data<<<<<
