SpectraSuite Data File
++++++++++++++++++++++++++++++++++++
Date: Fri Oct 04 12:13:32 GMT-05:00 2013
User: price-jones
Dark Spectrum Present: No
Reference Spectrum Present: No
Number of Sampled Component Spectra: 1
Spectrometers: USB2+H05261
Integration Time (usec): 10000 (USB2+H05261)
Spectra Averaged: 1 (USB2+H05261)
Boxcar Smoothing: 0 (USB2+H05261)
Correct for Electrical Dark: No (USB2+H05261)
Strobe/Lamp Enabled: No (USB2+H05261)
Correct for Detector Non-linearity: No (USB2+H05261)
Correct for Stray Light: No (USB2+H05261)
Number of Pixels in Processed Spectrum: 2048
>>>>>Begin Processed Spectral Data<<<<<
365.73	0.00
365.92	0.00
366.12	0.00
366.32	0.00
366.52	0.00
366.72	0.00
366.91	0.00
367.11	0.00
367.31	0.00
367.51	0.00
367.70	0.00
367.90	0.00
368.10	0.00
368.30	0.00
368.49	0.00
368.69	0.00
368.89	0.00
369.09	0.00
369.28	0.00
369.48	0.00
369.68	0.00
369.87	0.00
370.07	0.00
370.27	0.00
370.47	0.00
370.66	0.00
370.86	0.00
371.06	0.00
371.25	0.00
371.45	0.00
371.65	0.00
371.84	7.02
372.04	0.00
372.24	0.00
372.44	23.41
372.63	46.81
372.83	42.13
373.03	70.22
373.22	23.41
373.42	0.00
373.62	9.36
373.81	95.96
374.01	79.58
374.21	14.04
374.40	37.45
374.60	51.49
374.79	0.00
374.99	67.88
375.19	4.68
375.38	0.00
375.58	51.49
375.78	35.11
375.97	95.96
376.17	2.34
376.37	0.00
376.56	18.72
376.76	49.15
376.95	25.75
377.15	77.24
377.35	35.11
377.54	0.00
377.74	14.04
377.93	0.00
378.13	70.22
378.33	0.00
378.52	0.00
378.72	30.43
378.91	9.36
379.11	65.54
379.31	25.75
379.50	9.36
379.70	0.00
379.89	30.43
380.09	30.43
380.28	18.72
380.48	7.02
380.68	0.00
380.87	49.15
381.07	56.17
381.26	0.00
381.46	72.56
381.65	107.66
381.85	11.70
382.04	0.00
382.24	0.00
382.43	16.38
382.63	0.00
382.83	18.72
383.02	58.51
383.22	28.09
383.41	42.13
383.61	14.04
383.80	65.54
384.00	0.00
384.19	18.72
384.39	32.77
384.58	58.51
384.78	32.77
384.97	42.13
385.17	42.13
385.36	0.00
385.56	0.00
385.75	21.06
385.95	9.36
386.14	0.00
386.34	0.00
386.53	16.38
386.72	65.54
386.92	0.00
387.11	9.36
387.31	21.06
387.50	9.36
387.70	18.72
387.89	0.00
388.09	0.00
388.28	0.00
388.48	35.11
388.67	49.15
388.86	63.19
389.06	0.00
389.25	25.75
389.45	0.00
389.64	0.00
389.84	53.83
390.03	56.17
390.22	42.13
390.42	121.71
390.61	21.06
390.81	0.00
391.00	98.30
391.19	23.41
391.39	0.00
391.58	58.51
391.78	23.41
391.97	60.85
392.16	9.36
392.36	81.92
392.55	166.18
392.75	0.00
392.94	37.45
393.13	46.81
393.33	46.81
393.52	16.38
393.71	25.75
393.91	35.11
394.10	18.72
394.29	0.00
394.49	25.75
394.68	0.00
394.88	53.83
395.07	117.03
395.26	25.75
395.46	60.85
395.65	42.13
395.84	9.36
396.04	28.09
396.23	46.81
396.42	2.34
396.62	79.58
396.81	7.02
397.00	0.00
397.19	81.92
397.39	21.06
397.58	44.47
397.77	0.00
397.97	30.43
398.16	46.81
398.35	30.43
398.55	9.36
398.74	79.58
398.93	0.00
399.12	23.41
399.32	32.77
399.51	0.00
399.70	42.13
399.90	0.00
400.09	46.81
400.28	42.13
400.47	44.47
400.67	42.13
400.86	39.79
401.05	28.09
401.24	77.24
401.44	21.06
401.63	9.36
401.82	95.96
402.01	0.00
402.21	42.13
402.40	7.02
402.59	0.00
402.78	0.00
402.97	21.06
403.17	39.79
403.36	23.41
403.55	49.15
403.74	0.00
403.93	0.00
404.13	58.51
404.32	0.00
404.51	28.09
404.70	0.00
404.89	46.81
405.09	0.00
405.28	14.04
405.47	49.15
405.66	28.09
405.85	39.79
406.05	4.68
406.24	25.75
406.43	0.00
406.62	11.70
406.81	58.51
407.00	16.38
407.20	51.49
407.39	0.00
407.58	98.30
407.77	44.47
407.96	0.00
408.15	39.79
408.34	28.09
408.54	72.56
408.73	14.04
408.92	14.04
409.11	9.36
409.30	28.09
409.49	0.00
409.68	56.17
409.87	37.45
410.07	74.90
410.26	39.79
410.45	30.43
410.64	7.02
410.83	39.79
411.02	53.83
411.21	63.19
411.40	21.06
411.59	35.11
411.78	25.75
411.98	7.02
412.17	44.47
412.36	58.51
412.55	35.11
412.74	25.75
412.93	0.00
413.12	56.17
413.31	65.54
413.50	30.43
413.69	72.56
413.88	42.13
414.07	0.00
414.26	58.51
414.45	23.41
414.64	84.26
414.83	72.56
415.02	7.02
415.22	0.00
415.41	53.83
415.60	0.00
415.79	0.00
415.98	46.81
416.17	74.90
416.36	0.00
416.55	21.06
416.74	2.34
416.93	67.88
417.12	133.41
417.31	58.51
417.50	67.88
417.69	35.11
417.88	110.01
418.07	18.72
418.26	0.00
418.45	63.19
418.64	18.72
418.83	23.41
419.02	39.79
419.21	0.00
419.39	0.00
419.58	53.83
419.77	2.34
419.96	0.00
420.15	11.70
420.34	53.83
420.53	42.13
420.72	44.47
420.91	21.06
421.10	0.00
421.29	81.92
421.48	18.72
421.67	21.06
421.86	18.72
422.05	51.49
422.24	0.00
422.43	60.85
422.61	9.36
422.80	58.51
422.99	98.30
423.18	14.04
423.37	51.49
423.56	39.79
423.75	16.38
423.94	7.02
424.13	25.75
424.32	30.43
424.50	65.54
424.69	35.11
424.88	0.00
425.07	91.28
425.26	112.35
425.45	0.00
425.64	28.09
425.83	98.30
426.01	37.45
426.20	32.77
426.39	58.51
426.58	28.09
426.77	72.56
426.96	30.43
427.15	86.60
427.33	79.58
427.52	2.34
427.71	39.79
427.90	44.47
428.09	0.00
428.28	11.70
428.46	42.13
428.65	95.96
428.84	0.00
429.03	14.04
429.22	0.00
429.40	25.75
429.59	79.58
429.78	7.02
429.97	63.19
430.16	0.00
430.34	42.13
430.53	56.17
430.72	0.00
430.91	46.81
431.10	0.00
431.28	0.00
431.47	0.00
431.66	0.00
431.85	60.85
432.03	56.17
432.22	95.96
432.41	30.43
432.60	14.04
432.79	0.00
432.97	49.15
433.16	0.00
433.35	102.98
433.54	30.43
433.72	77.24
433.91	63.19
434.10	14.04
434.28	119.37
434.47	4.68
434.66	0.00
434.85	4.68
435.03	37.45
435.22	18.72
435.41	49.15
435.59	46.81
435.78	0.00
435.97	79.58
436.16	32.77
436.34	102.98
436.53	23.41
436.72	30.43
436.90	21.06
437.09	9.36
437.28	2.34
437.46	53.83
437.65	28.09
437.84	2.34
438.02	21.06
438.21	0.00
438.40	60.85
438.58	25.75
438.77	42.13
438.96	138.09
439.14	86.60
439.33	28.09
439.52	81.92
439.70	51.49
439.89	0.00
440.08	4.68
440.26	18.72
440.45	60.85
440.63	23.41
440.82	30.43
441.01	51.49
441.19	46.81
441.38	35.11
441.57	60.85
441.75	102.98
441.94	70.22
442.12	74.90
442.31	44.47
442.50	53.83
442.68	42.13
442.87	30.43
443.05	51.49
443.24	30.43
443.43	30.43
443.61	14.04
443.80	14.04
443.98	0.00
444.17	58.51
444.35	30.43
444.54	30.43
444.73	16.38
444.91	88.94
445.10	58.51
445.28	37.45
445.47	44.47
445.65	21.06
445.84	46.81
446.02	0.00
446.21	65.54
446.39	7.02
446.58	0.00
446.77	53.83
446.95	18.72
447.14	23.41
447.32	32.77
447.51	56.17
447.69	44.47
447.88	16.38
448.06	0.00
448.25	63.19
448.43	9.36
448.62	0.00
448.80	133.41
448.99	65.54
449.17	131.07
449.36	16.38
449.54	37.45
449.73	102.98
449.91	53.83
450.10	37.45
450.28	63.19
450.46	14.04
450.65	14.04
450.83	2.34
451.02	74.90
451.20	56.17
451.39	2.34
451.57	0.00
451.76	91.28
451.94	39.79
452.13	79.58
452.31	39.79
452.49	28.09
452.68	93.62
452.86	0.00
453.05	56.17
453.23	81.92
453.42	84.26
453.60	0.00
453.78	65.54
453.97	4.68
454.15	0.00
454.34	88.94
454.52	2.34
454.70	14.04
454.89	63.19
455.07	30.43
455.26	0.00
455.44	7.02
455.62	9.36
455.81	95.96
455.99	60.85
456.17	25.75
456.36	77.24
456.54	72.56
456.73	37.45
456.91	4.68
457.09	11.70
457.28	58.51
457.46	0.00
457.64	81.92
457.83	53.83
458.01	65.54
458.19	63.19
458.38	21.06
458.56	0.00
458.74	0.00
458.93	0.00
459.11	60.85
459.29	42.13
459.48	0.00
459.66	0.00
459.84	81.92
460.03	0.00
460.21	100.64
460.39	11.70
460.57	53.83
460.76	63.19
460.94	18.72
461.12	107.66
461.31	0.00
461.49	0.00
461.67	0.00
461.85	42.13
462.04	102.98
462.22	46.81
462.40	135.75
462.59	0.00
462.77	70.22
462.95	28.09
463.13	46.81
463.32	86.60
463.50	46.81
463.68	86.60
463.86	58.51
464.05	0.00
464.23	28.09
464.41	11.70
464.59	88.94
464.78	30.43
464.96	0.00
465.14	0.00
465.32	67.88
465.50	21.06
465.69	35.11
465.87	79.58
466.05	30.43
466.23	14.04
466.41	121.71
466.60	35.11
466.78	63.19
466.96	0.00
467.14	39.79
467.32	51.49
467.51	72.56
467.69	51.49
467.87	77.24
468.05	95.96
468.23	25.75
468.41	58.51
468.60	9.36
468.78	16.38
468.96	37.45
469.14	7.02
469.32	63.19
469.50	0.00
469.69	0.00
469.87	25.75
470.05	11.70
470.23	39.79
470.41	0.00
470.59	74.90
470.77	81.92
470.95	79.58
471.14	39.79
471.32	46.81
471.50	11.70
471.68	0.00
471.86	84.26
472.04	37.45
472.22	46.81
472.40	35.11
472.58	0.00
472.77	42.13
472.95	9.36
473.13	14.04
473.31	39.79
473.49	11.70
473.67	16.38
473.85	18.72
474.03	2.34
474.21	58.51
474.39	98.30
474.57	107.66
474.75	46.81
474.93	0.00
475.12	58.51
475.30	98.30
475.48	9.36
475.66	2.34
475.84	23.41
476.02	21.06
476.20	58.51
476.38	56.17
476.56	44.47
476.74	11.70
476.92	49.15
477.10	81.92
477.28	84.26
477.46	23.41
477.64	35.11
477.82	46.81
478.00	49.15
478.18	67.88
478.36	56.17
478.54	14.04
478.72	0.00
478.90	49.15
479.08	9.36
479.26	9.36
479.44	37.45
479.62	56.17
479.80	0.00
479.98	74.90
480.16	0.00
480.34	53.83
480.52	0.00
480.70	42.13
480.88	23.41
481.06	128.73
481.24	65.54
481.41	0.00
481.59	16.38
481.77	0.00
481.95	91.28
482.13	56.17
482.31	100.64
482.49	30.43
482.67	58.51
482.85	77.24
483.03	37.45
483.21	72.56
483.39	98.30
483.57	32.77
483.74	51.49
483.92	37.45
484.10	0.00
484.28	81.92
484.46	86.60
484.64	28.09
484.82	39.79
485.00	0.00
485.18	30.43
485.35	65.54
485.53	79.58
485.71	37.45
485.89	77.24
486.07	30.43
486.25	30.43
486.43	60.85
486.61	37.45
486.78	28.09
486.96	9.36
487.14	16.38
487.32	0.00
487.50	32.77
487.68	63.19
487.85	0.00
488.03	42.13
488.21	67.88
488.39	18.72
488.57	0.00
488.75	37.45
488.92	84.26
489.10	117.03
489.28	74.90
489.46	51.49
489.64	53.83
489.81	121.71
489.99	32.77
490.17	0.00
490.35	79.58
490.53	79.58
490.70	9.36
490.88	0.00
491.06	25.75
491.24	0.00
491.41	74.90
491.59	51.49
491.77	46.81
491.95	18.72
492.13	25.75
492.30	0.00
492.48	0.00
492.66	0.00
492.84	30.43
493.01	37.45
493.19	44.47
493.37	9.36
493.54	39.79
493.72	100.64
493.90	67.88
494.08	23.41
494.25	60.85
494.43	28.09
494.61	0.00
494.79	37.45
494.96	11.70
495.14	21.06
495.32	124.05
495.49	14.04
495.67	77.24
495.85	70.22
496.02	65.54
496.20	7.02
496.38	0.00
496.55	56.17
496.73	65.54
496.91	2.34
497.09	30.43
497.26	23.41
497.44	23.41
497.62	53.83
497.79	35.11
497.97	0.00
498.14	9.36
498.32	39.79
498.50	74.90
498.67	77.24
498.85	4.68
499.03	53.83
499.20	28.09
499.38	70.22
499.56	14.04
499.73	37.45
499.91	25.75
500.08	60.85
500.26	30.43
500.44	56.17
500.61	0.00
500.79	0.00
500.97	63.19
501.14	58.51
501.32	32.77
501.49	32.77
501.67	46.81
501.84	63.19
502.02	4.68
502.20	58.51
502.37	77.24
502.55	77.24
502.72	30.43
502.90	72.56
503.07	9.36
503.25	51.49
503.43	9.36
503.60	53.83
503.78	35.11
503.95	23.41
504.13	39.79
504.30	65.54
504.48	11.70
504.65	32.77
504.83	23.41
505.01	9.36
505.18	67.88
505.36	37.45
505.53	70.22
505.71	98.30
505.88	81.92
506.06	14.04
506.23	16.38
506.41	86.60
506.58	30.43
506.76	21.06
506.93	18.72
507.11	4.68
507.28	4.68
507.46	42.13
507.63	51.49
507.81	53.83
507.98	23.41
508.16	0.00
508.33	23.41
508.50	49.15
508.68	25.75
508.85	28.09
509.03	140.43
509.20	16.38
509.38	81.92
509.55	86.60
509.73	56.17
509.90	16.38
510.08	42.13
510.25	37.45
510.42	0.00
510.60	79.58
510.77	30.43
510.95	72.56
511.12	35.11
511.30	74.90
511.47	49.15
511.64	81.92
511.82	42.13
511.99	30.43
512.17	0.00
512.34	79.58
512.51	63.19
512.69	35.11
512.86	42.13
513.04	0.00
513.21	37.45
513.38	58.51
513.56	0.00
513.73	0.00
513.90	58.51
514.08	0.00
514.25	23.41
514.43	58.51
514.60	2.34
514.77	67.88
514.95	37.45
515.12	0.00
515.29	4.68
515.47	39.79
515.64	112.35
515.81	44.47
515.99	11.70
516.16	25.75
516.33	142.77
516.51	128.73
516.68	25.75
516.85	77.24
517.03	53.83
517.20	0.00
517.37	79.58
517.54	67.88
517.72	39.79
517.89	91.28
518.06	11.70
518.24	37.45
518.41	42.13
518.58	126.39
518.75	86.60
518.93	4.68
519.10	65.54
519.27	0.00
519.45	0.00
519.62	18.72
519.79	23.41
519.96	91.28
520.14	14.04
520.31	7.02
520.48	0.00
520.65	81.92
520.83	21.06
521.00	117.03
521.17	37.45
521.34	37.45
521.52	32.77
521.69	23.41
521.86	39.79
522.03	51.49
522.20	84.26
522.38	74.90
522.55	0.00
522.72	93.62
522.89	30.43
523.07	56.17
523.24	72.56
523.41	32.77
523.58	25.75
523.75	77.24
523.92	0.00
524.10	2.34
524.27	63.19
524.44	35.11
524.61	44.47
524.78	70.22
524.96	14.04
525.13	21.06
525.30	42.13
525.47	77.24
525.64	23.41
525.81	46.81
525.98	30.43
526.16	86.60
526.33	49.15
526.50	14.04
526.67	63.19
526.84	46.81
527.01	65.54
527.18	63.19
527.36	77.24
527.53	28.09
527.70	42.13
527.87	23.41
528.04	93.62
528.21	28.09
528.38	51.49
528.55	56.17
528.72	81.92
528.89	51.49
529.07	49.15
529.24	14.04
529.41	72.56
529.58	67.88
529.75	88.94
529.92	56.17
530.09	86.60
530.26	93.62
530.43	77.24
530.60	4.68
530.77	30.43
530.94	35.11
531.11	74.90
531.28	77.24
531.46	44.47
531.63	53.83
531.80	39.79
531.97	86.60
532.14	42.13
532.31	0.00
532.48	30.43
532.65	9.36
532.82	46.81
532.99	126.39
533.16	107.66
533.33	53.83
533.50	79.58
533.67	86.60
533.84	60.85
534.01	0.00
534.18	0.00
534.35	0.00
534.52	70.22
534.69	39.79
534.86	37.45
535.03	0.00
535.20	35.11
535.37	46.81
535.54	63.19
535.71	37.45
535.88	114.69
536.05	72.56
536.22	51.49
536.38	11.70
536.55	32.77
536.72	0.00
536.89	30.43
537.06	65.54
537.23	91.28
537.40	93.62
537.57	79.58
537.74	88.94
537.91	98.30
538.08	70.22
538.25	58.51
538.42	39.79
538.59	67.88
538.75	60.85
538.92	56.17
539.09	58.51
539.26	63.19
539.43	88.94
539.60	32.77
539.77	39.79
539.94	84.26
540.11	0.00
540.28	32.77
540.44	107.66
540.61	30.43
540.78	0.00
540.95	0.00
541.12	88.94
541.29	25.75
541.46	35.11
541.62	56.17
541.79	16.38
541.96	72.56
542.13	51.49
542.30	98.30
542.47	23.41
542.63	37.45
542.80	65.54
542.97	72.56
543.14	0.00
543.31	67.88
543.48	32.77
543.64	35.11
543.81	32.77
543.98	30.43
544.15	72.56
544.32	0.00
544.48	35.11
544.65	7.02
544.82	65.54
544.99	53.83
545.16	51.49
545.32	107.66
545.49	37.45
545.66	72.56
545.83	14.04
546.00	77.24
546.16	0.00
546.33	37.45
546.50	84.26
546.67	37.45
546.83	39.79
547.00	53.83
547.17	21.06
547.34	35.11
547.50	56.17
547.67	74.90
547.84	35.11
548.00	32.77
548.17	0.00
548.34	91.28
548.51	0.00
548.67	53.83
548.84	56.17
549.01	7.02
549.18	95.96
549.34	72.56
549.51	18.72
549.68	93.62
549.84	95.96
550.01	23.41
550.18	56.17
550.34	51.49
550.51	72.56
550.68	65.54
550.84	30.43
551.01	79.58
551.18	0.00
551.34	56.17
551.51	51.49
551.68	49.15
551.84	42.13
552.01	14.04
552.18	25.75
552.34	42.13
552.51	79.58
552.68	112.35
552.84	0.00
553.01	25.75
553.18	60.85
553.34	9.36
553.51	67.88
553.67	11.70
553.84	0.00
554.01	93.62
554.17	84.26
554.34	21.06
554.51	0.00
554.67	21.06
554.84	2.34
555.00	67.88
555.17	11.70
555.33	14.04
555.50	11.70
555.67	42.13
555.83	0.00
556.00	88.94
556.16	42.13
556.33	67.88
556.50	2.34
556.66	84.26
556.83	18.72
556.99	44.47
557.16	63.19
557.32	32.77
557.49	4.68
557.65	21.06
557.82	32.77
557.98	51.49
558.15	0.00
558.32	42.13
558.48	28.09
558.65	18.72
558.81	23.41
558.98	9.36
559.14	44.47
559.31	0.00
559.47	2.34
559.64	72.56
559.80	39.79
559.97	23.41
560.13	28.09
560.30	44.47
560.46	25.75
560.63	70.22
560.79	21.06
560.96	4.68
561.12	0.00
561.29	0.00
561.45	0.00
561.61	0.00
561.78	37.45
561.94	70.22
562.11	84.26
562.27	25.75
562.44	0.00
562.60	32.77
562.77	46.81
562.93	56.17
563.10	0.00
563.26	77.24
563.42	70.22
563.59	63.19
563.75	67.88
563.92	79.58
564.08	32.77
564.24	63.19
564.41	42.13
564.57	25.75
564.74	46.81
564.90	7.02
565.07	53.83
565.23	23.41
565.39	4.68
565.56	65.54
565.72	7.02
565.88	37.45
566.05	0.00
566.21	32.77
566.38	56.17
566.54	42.13
566.70	18.72
566.87	23.41
567.03	11.70
567.19	53.83
567.36	0.00
567.52	51.49
567.68	65.54
567.85	60.85
568.01	0.00
568.17	0.00
568.34	88.94
568.50	86.60
568.66	28.09
568.83	28.09
568.99	23.41
569.15	25.75
569.32	44.47
569.48	30.43
569.64	58.51
569.81	60.85
569.97	58.51
570.13	63.19
570.30	53.83
570.46	25.75
570.62	53.83
570.78	25.75
570.95	0.00
571.11	16.38
571.27	37.45
571.43	44.47
571.60	51.49
571.76	79.58
571.92	0.00
572.09	30.43
572.25	0.00
572.41	100.64
572.57	53.83
572.74	0.00
572.90	23.41
573.06	46.81
573.22	51.49
573.38	23.41
573.55	74.90
573.71	67.88
573.87	35.11
574.03	14.04
574.20	11.70
574.36	58.51
574.52	0.00
574.68	0.00
574.84	91.28
575.01	9.36
575.17	23.41
575.33	145.11
575.49	86.60
575.65	49.15
575.82	63.19
575.98	0.00
576.14	67.88
576.30	51.49
576.46	28.09
576.62	44.47
576.79	0.00
576.95	4.68
577.11	46.81
577.27	16.38
577.43	67.88
577.59	37.45
577.75	0.00
577.92	67.88
578.08	25.75
578.24	60.85
578.40	60.85
578.56	105.32
578.72	107.66
578.88	4.68
579.04	0.00
579.21	18.72
579.37	70.22
579.53	21.06
579.69	63.19
579.85	74.90
580.01	65.54
580.17	9.36
580.33	58.51
580.49	32.77
580.65	0.00
580.82	18.72
580.98	72.56
581.14	32.77
581.30	32.77
581.46	0.00
581.62	16.38
581.78	9.36
581.94	60.85
582.10	58.51
582.26	58.51
582.42	44.47
582.58	88.94
582.74	112.35
582.90	42.13
583.06	7.02
583.22	51.49
583.38	74.90
583.54	42.13
583.70	65.54
583.86	30.43
584.02	56.17
584.18	65.54
584.34	0.00
584.50	49.15
584.66	107.66
584.82	0.00
584.98	30.43
585.14	53.83
585.30	39.79
585.46	32.77
585.62	0.00
585.78	42.13
585.94	39.79
586.10	0.00
586.26	79.58
586.42	37.45
586.58	72.56
586.74	7.02
586.90	74.90
587.06	51.49
587.22	70.22
587.38	25.75
587.54	23.41
587.70	51.49
587.86	60.85
588.02	0.00
588.18	14.04
588.34	14.04
588.49	23.41
588.65	0.00
588.81	32.77
588.97	4.68
589.13	0.00
589.29	56.17
589.45	39.79
589.61	117.03
589.77	60.85
589.93	100.64
590.08	86.60
590.24	72.56
590.40	21.06
590.56	67.88
590.72	32.77
590.88	93.62
591.04	0.00
591.20	4.68
591.35	65.54
591.51	65.54
591.67	63.19
591.83	32.77
591.99	84.26
592.15	46.81
592.31	0.00
592.46	30.43
592.62	0.00
592.78	0.00
592.94	102.98
593.10	25.75
593.26	67.88
593.41	102.98
593.57	60.85
593.73	63.19
593.89	0.00
594.05	107.66
594.20	4.68
594.36	105.32
594.52	65.54
594.68	49.15
594.84	18.72
594.99	0.00
595.15	37.45
595.31	70.22
595.47	60.85
595.62	11.70
595.78	46.81
595.94	4.68
596.10	37.45
596.25	0.00
596.41	77.24
596.57	25.75
596.73	0.00
596.88	0.00
597.04	102.98
597.20	28.09
597.36	63.19
597.51	67.88
597.67	93.62
597.83	58.51
597.99	0.00
598.14	0.00
598.30	114.69
598.46	74.90
598.61	0.00
598.77	11.70
598.93	35.11
599.09	60.85
599.24	35.11
599.40	117.03
599.56	44.47
599.71	77.24
599.87	84.26
600.03	58.51
600.18	39.79
600.34	51.49
600.50	74.90
600.65	21.06
600.81	56.17
600.97	56.17
601.12	105.32
601.28	112.35
601.44	65.54
601.59	67.88
601.75	2.34
601.91	30.43
602.06	107.66
602.22	16.38
602.37	93.62
602.53	42.13
602.69	77.24
602.84	21.06
603.00	28.09
603.16	7.02
603.31	0.00
603.47	30.43
603.62	42.13
603.78	32.77
603.94	110.01
604.09	49.15
604.25	79.58
604.40	0.00
604.56	67.88
604.71	0.00
604.87	49.15
605.03	84.26
605.18	42.13
605.34	60.85
605.49	35.11
605.65	0.00
605.80	95.96
605.96	0.00
606.12	30.43
606.27	63.19
606.43	16.38
606.58	53.83
606.74	79.58
606.89	21.06
607.05	56.17
607.20	14.04
607.36	11.70
607.51	25.75
607.67	0.00
607.82	91.28
607.98	39.79
608.13	56.17
608.29	46.81
608.44	39.79
608.60	95.96
608.75	37.45
608.91	60.85
609.06	21.06
609.22	72.56
609.37	35.11
609.53	32.77
609.68	2.34
609.84	37.45
609.99	25.75
610.15	0.00
610.30	0.00
610.46	32.77
610.61	0.00
610.76	74.90
610.92	72.56
611.07	44.47
611.23	9.36
611.38	21.06
611.54	4.68
611.69	11.70
611.84	65.54
612.00	49.15
612.15	42.13
612.31	49.15
612.46	88.94
612.62	0.00
612.77	51.49
612.92	44.47
613.08	105.32
613.23	37.45
613.39	2.34
613.54	4.68
613.69	44.47
613.85	0.00
614.00	0.00
614.15	32.77
614.31	0.00
614.46	65.54
614.62	0.00
614.77	84.26
614.92	35.11
615.08	81.92
615.23	14.04
615.38	39.79
615.54	0.00
615.69	65.54
615.84	46.81
616.00	58.51
616.15	39.79
616.30	7.02
616.46	58.51
616.61	18.72
616.76	39.79
616.92	11.70
617.07	0.00
617.22	16.38
617.37	81.92
617.53	42.13
617.68	46.81
617.83	49.15
617.99	18.72
618.14	77.24
618.29	0.00
618.45	37.45
618.60	39.79
618.75	35.11
618.90	88.94
619.06	9.36
619.21	0.00
619.36	44.47
619.51	0.00
619.67	70.22
619.82	0.00
619.97	95.96
620.12	58.51
620.28	42.13
620.43	0.00
620.58	0.00
620.73	46.81
620.89	63.19
621.04	67.88
621.19	95.96
621.34	21.06
621.49	30.43
621.65	0.00
621.80	65.54
621.95	65.54
622.10	135.75
622.25	39.79
622.41	2.34
622.56	58.51
622.71	63.19
622.86	23.41
623.01	2.34
623.16	37.45
623.32	35.11
623.47	110.01
623.62	7.02
623.77	56.17
623.92	23.41
624.07	53.83
624.23	16.38
624.38	32.77
624.53	35.11
624.68	53.83
624.83	4.68
624.98	39.79
625.13	37.45
625.29	46.81
625.44	70.22
625.59	16.38
625.74	46.81
625.89	0.00
626.04	0.00
626.19	95.96
626.34	42.13
626.49	53.83
626.65	86.60
626.80	23.41
626.95	67.88
627.10	65.54
627.25	51.49
627.40	16.38
627.55	79.58
627.70	49.15
627.85	0.00
628.00	23.41
628.15	77.24
628.30	32.77
628.45	102.98
628.60	18.72
628.76	37.45
628.91	91.28
629.06	28.09
629.21	18.72
629.36	0.00
629.51	14.04
629.66	11.70
629.81	0.00
629.96	7.02
630.11	44.47
630.26	117.03
630.41	39.79
630.56	0.00
630.71	74.90
630.86	11.70
631.01	42.13
631.16	49.15
631.31	39.79
631.46	77.24
631.61	0.00
631.76	74.90
631.91	65.54
632.06	28.09
632.21	67.88
632.36	44.47
632.51	0.00
632.66	81.92
632.81	4.68
632.96	21.06
633.10	56.17
633.25	81.92
633.40	23.41
633.55	32.77
633.70	145.11
633.85	70.22
634.00	37.45
634.15	16.38
634.30	28.09
634.45	58.51
634.60	98.30
634.75	16.38
634.90	58.51
635.05	58.51
635.19	72.56
635.34	18.72
635.49	23.41
635.64	37.45
635.79	7.02
635.94	18.72
636.09	58.51
636.24	70.22
636.39	67.88
636.53	56.17
636.68	0.00
636.83	23.41
636.98	42.13
637.13	53.83
637.28	65.54
637.43	0.00
637.57	37.45
637.72	37.45
637.87	42.13
638.02	39.79
638.17	14.04
638.32	81.92
638.46	56.17
638.61	70.22
638.76	63.19
638.91	49.15
639.06	37.45
639.20	28.09
639.35	0.00
639.50	37.45
639.65	37.45
639.80	21.06
639.94	39.79
640.09	70.22
640.24	65.54
640.39	25.75
640.54	105.32
640.68	0.00
640.83	53.83
640.98	35.11
641.13	0.00
641.27	0.00
641.42	21.06
641.57	0.00
641.72	51.49
641.86	9.36
642.01	0.00
642.16	63.19
642.31	25.75
642.45	23.41
642.60	60.85
642.75	84.26
642.90	46.81
643.04	0.00
643.19	0.00
643.34	35.11
643.48	39.79
643.63	0.00
643.78	117.03
643.93	14.04
644.07	28.09
644.22	51.49
644.37	0.00
644.51	98.30
644.66	51.49
644.81	4.68
644.95	105.32
645.10	32.77
645.25	21.06
645.39	14.04
645.54	11.70
645.69	4.68
645.83	21.06
645.98	49.15
646.13	60.85
646.27	23.41
646.42	25.75
646.57	79.58
646.71	60.85
646.86	0.00
647.00	91.28
647.15	46.81
647.30	0.00
647.44	95.96
647.59	0.00
647.74	46.81
647.88	16.38
648.03	0.00
648.17	56.17
648.32	18.72
648.47	0.00
648.61	11.70
648.76	86.60
648.90	53.83
649.05	53.83
649.20	0.00
649.34	23.41
649.49	49.15
649.63	0.00
649.78	23.41
649.92	11.70
650.07	39.79
650.21	0.00
650.36	63.19
650.51	70.22
650.65	18.72
650.80	49.15
650.94	32.77
651.09	0.00
651.23	4.68
651.38	23.41
651.52	63.19
651.67	51.49
651.81	107.66
651.96	49.15
652.10	23.41
652.25	65.54
652.39	0.00
652.54	2.34
652.68	25.75
652.83	2.34
652.97	0.00
653.12	37.45
653.26	7.02
653.41	16.38
653.55	42.13
653.70	32.77
653.84	53.83
653.99	51.49
654.13	16.38
654.27	0.00
654.42	100.64
654.56	21.06
654.71	18.72
654.85	60.85
655.00	7.02
655.14	0.00
655.29	53.83
655.43	53.83
655.57	0.00
655.72	35.11
655.86	35.11
656.01	32.77
656.15	35.11
656.30	32.77
656.44	46.81
656.58	23.41
656.73	0.00
656.87	0.00
657.01	30.43
657.16	81.92
657.30	63.19
657.45	91.28
657.59	49.15
657.73	4.68
657.88	0.00
658.02	67.88
658.16	2.34
658.31	30.43
658.45	35.11
658.60	44.47
658.74	4.68
658.88	0.00
659.03	60.85
659.17	25.75
659.31	11.70
659.46	30.43
659.60	0.00
659.74	7.02
659.89	16.38
660.03	18.72
660.17	53.83
660.32	0.00
660.46	42.13
660.60	0.00
660.74	0.00
660.89	37.45
661.03	25.75
661.17	11.70
661.32	23.41
661.46	42.13
661.60	21.06
661.74	21.06
661.89	74.90
662.03	0.00
662.17	37.45
662.31	102.98
662.46	49.15
662.60	37.45
662.74	0.00
662.88	7.02
663.03	28.09
663.17	60.85
663.31	37.45
663.45	98.30
663.60	0.00
663.74	0.00
663.88	81.92
664.02	21.06
664.17	18.72
664.31	37.45
664.45	35.11
664.59	63.19
664.73	135.75
664.88	0.00
665.02	25.75
665.16	117.03
665.30	100.64
665.44	81.92
665.59	91.28
665.73	49.15
665.87	0.00
666.01	0.00
666.15	14.04
666.29	7.02
666.44	70.22
666.58	93.62
666.72	11.70
666.86	79.58
667.00	72.56
667.14	32.77
667.28	16.38
667.43	0.00
667.57	0.00
667.71	44.47
667.85	0.00
667.99	4.68
668.13	100.64
668.27	112.35
668.41	88.94
668.56	0.00
668.70	51.49
668.84	0.00
668.98	0.00
669.12	0.00
669.26	51.49
669.40	44.47
669.54	2.34
669.68	0.00
669.82	42.13
669.96	70.22
670.10	0.00
670.25	0.00
670.39	74.90
670.53	46.81
670.67	121.71
670.81	0.00
670.95	100.64
671.09	58.51
671.23	63.19
671.37	44.47
671.51	72.56
671.65	0.00
671.79	0.00
671.93	42.13
672.07	51.49
672.21	0.00
672.35	21.06
672.49	37.45
672.63	0.00
672.77	53.83
672.91	93.62
673.05	30.43
673.19	0.00
673.33	63.19
673.47	74.90
673.61	42.13
673.75	0.00
673.89	49.15
674.03	16.38
674.17	67.88
674.31	56.17
674.45	72.56
674.59	0.00
674.73	93.62
674.87	0.00
675.01	79.58
675.15	51.49
675.29	51.49
675.43	53.83
675.56	0.00
675.70	65.54
675.84	7.02
675.98	25.75
676.12	30.43
676.26	56.17
676.40	0.00
676.54	11.70
676.68	72.56
676.82	79.58
676.96	49.15
677.10	11.70
677.23	0.00
677.37	49.15
677.51	18.72
677.65	0.00
677.79	28.09
677.93	95.96
678.07	35.11
678.21	58.51
678.34	23.41
678.48	9.36
678.62	32.77
678.76	0.00
678.90	58.51
679.04	84.26
679.18	30.43
679.31	9.36
679.45	72.56
679.59	86.60
679.73	63.19
679.87	2.34
680.00	11.70
680.14	4.68
680.28	0.00
680.42	44.47
680.56	79.58
680.70	98.30
680.83	42.13
680.97	18.72
681.11	30.43
681.25	0.00
681.39	0.00
681.52	14.04
681.66	63.19
681.80	49.15
681.94	0.00
682.07	35.11
682.21	77.24
682.35	46.81
682.49	39.79
682.62	74.90
682.76	37.45
682.90	79.58
683.04	37.45
683.17	16.38
683.31	9.36
683.45	0.00
683.59	37.45
683.72	37.45
683.86	4.68
684.00	0.00
684.13	0.00
684.27	2.34
684.41	72.56
684.55	25.75
684.68	58.51
684.82	9.36
684.96	9.36
685.09	0.00
685.23	25.75
685.37	44.47
685.50	88.94
685.64	0.00
685.78	37.45
685.91	4.68
686.05	70.22
686.19	35.11
686.32	23.41
686.46	11.70
686.60	0.00
686.73	35.11
686.87	0.00
687.01	25.75
687.14	0.00
687.28	0.00
687.42	56.17
687.55	74.90
687.69	37.45
687.82	79.58
687.96	51.49
688.10	35.11
688.23	39.79
688.37	28.09
688.50	107.66
688.64	42.13
688.78	44.47
688.91	0.00
689.05	0.00
689.18	65.54
689.32	42.13
689.46	0.00
689.59	0.00
689.73	70.22
689.86	46.81
690.00	56.17
690.13	107.66
690.27	4.68
690.41	105.32
690.54	39.79
690.68	7.02
690.81	32.77
690.95	65.54
691.08	4.68
691.22	0.00
691.35	18.72
691.49	7.02
691.62	18.72
691.76	0.00
691.89	93.62
692.03	21.06
692.16	2.34
692.30	0.00
692.43	56.17
692.57	0.00
692.70	0.00
692.84	25.75
692.97	56.17
693.11	56.17
693.24	77.24
693.38	25.75
693.51	93.62
693.65	93.62
693.78	56.17
693.92	44.47
694.05	65.54
694.19	86.60
694.32	0.00
694.45	37.45
694.59	21.06
694.72	14.04
694.86	46.81
694.99	32.77
695.13	14.04
695.26	63.19
695.39	14.04
695.53	0.00
695.66	81.92
695.80	0.00
695.93	39.79
696.07	77.24
696.20	126.39
696.33	9.36
696.47	0.00
696.60	74.90
696.73	0.00
696.87	74.90
697.00	117.03
697.14	81.92
697.27	88.94
697.40	28.09
697.54	100.64
697.67	0.00
697.80	58.51
697.94	35.11
698.07	35.11
698.21	126.39
698.34	46.81
698.47	56.17
698.61	42.13
698.74	53.83
698.87	58.51
699.01	0.00
699.14	0.00
699.27	23.41
699.40	72.56
699.54	28.09
699.67	35.11
699.80	49.15
699.94	7.02
700.07	0.00
700.20	2.34
700.34	0.00
700.47	7.02
700.60	81.92
700.73	46.81
700.87	72.56
701.00	7.02
701.13	65.54
701.26	9.36
701.40	51.49
701.53	107.66
701.66	18.72
701.79	2.34
701.93	39.79
702.06	11.70
702.19	46.81
702.32	53.83
702.46	11.70
702.59	79.58
702.72	21.06
702.85	88.94
702.99	0.00
703.12	32.77
703.25	0.00
703.38	35.11
703.51	37.45
703.65	30.43
703.78	21.06
703.91	46.81
704.04	4.68
704.17	44.47
704.31	74.90
704.44	44.47
704.57	7.02
704.70	0.00
704.83	70.22
704.96	14.04
705.10	53.83
705.23	0.00
>>>>>End Processed Spectral Data<<<<<
