SpectraSuite Data File
++++++++++++++++++++++++++++++++++++
Date: Fri Oct 04 12:13:26 GMT-05:00 2013
User: price-jones
Dark Spectrum Present: No
Reference Spectrum Present: No
Number of Sampled Component Spectra: 1
Spectrometers: USB2+H05261
Integration Time (usec): 10000 (USB2+H05261)
Spectra Averaged: 1 (USB2+H05261)
Boxcar Smoothing: 0 (USB2+H05261)
Correct for Electrical Dark: No (USB2+H05261)
Strobe/Lamp Enabled: No (USB2+H05261)
Correct for Detector Non-linearity: No (USB2+H05261)
Correct for Stray Light: No (USB2+H05261)
Number of Pixels in Processed Spectrum: 2048
>>>>>Begin Processed Spectral Data<<<<<
365.73	0.00
365.92	0.00
366.12	0.00
366.32	0.00
366.52	0.00
366.72	0.00
366.91	0.00
367.11	0.00
367.31	0.00
367.51	0.00
367.70	0.00
367.90	0.00
368.10	0.00
368.30	0.00
368.49	0.00
368.69	0.00
368.89	0.00
369.09	0.00
369.28	0.00
369.48	0.00
369.68	0.00
369.87	0.00
370.07	0.00
370.27	0.00
370.47	0.00
370.66	0.00
370.86	0.00
371.06	0.00
371.25	0.00
371.45	14.04
371.65	16.38
371.84	0.00
372.04	0.00
372.24	0.00
372.44	67.88
372.63	23.41
372.83	42.13
373.03	21.06
373.22	30.43
373.42	0.00
373.62	37.45
373.81	74.90
374.01	25.75
374.21	9.36
374.40	65.54
374.60	39.79
374.79	9.36
374.99	63.19
375.19	98.30
375.38	86.60
375.58	23.41
375.78	79.58
375.97	4.68
376.17	93.62
376.37	30.43
376.56	86.60
376.76	7.02
376.95	16.38
377.15	35.11
377.35	0.00
377.54	0.00
377.74	16.38
377.93	0.00
378.13	18.72
378.33	0.00
378.52	0.00
378.72	30.43
378.91	32.77
379.11	77.24
379.31	11.70
379.50	81.92
379.70	46.81
379.89	0.00
380.09	25.75
380.28	14.04
380.48	49.15
380.68	23.41
380.87	16.38
381.07	0.00
381.26	25.75
381.46	0.00
381.65	11.70
381.85	32.77
382.04	0.00
382.24	0.00
382.43	53.83
382.63	46.81
382.83	0.00
383.02	0.00
383.22	0.00
383.41	39.79
383.61	16.38
383.80	0.00
384.00	0.00
384.19	4.68
384.39	42.13
384.58	0.00
384.78	60.85
384.97	0.00
385.17	37.45
385.36	0.00
385.56	42.13
385.75	0.00
385.95	53.83
386.14	18.72
386.34	0.00
386.53	0.00
386.72	25.75
386.92	37.45
387.11	21.06
387.31	0.00
387.50	42.13
387.70	63.19
387.89	4.68
388.09	28.09
388.28	2.34
388.48	0.00
388.67	0.00
388.86	11.70
389.06	42.13
389.25	30.43
389.45	42.13
389.64	14.04
389.84	74.90
390.03	25.75
390.22	25.75
390.42	0.00
390.61	0.00
390.81	0.00
391.00	105.32
391.19	77.24
391.39	0.00
391.58	0.00
391.78	32.77
391.97	46.81
392.16	70.22
392.36	56.17
392.55	58.51
392.75	86.60
392.94	86.60
393.13	11.70
393.33	0.00
393.52	0.00
393.71	21.06
393.91	0.00
394.10	0.00
394.29	21.06
394.49	21.06
394.68	23.41
394.88	56.17
395.07	53.83
395.26	18.72
395.46	9.36
395.65	18.72
395.84	7.02
396.04	0.00
396.23	46.81
396.42	14.04
396.62	9.36
396.81	0.00
397.00	53.83
397.19	32.77
397.39	0.00
397.58	0.00
397.77	58.51
397.97	53.83
398.16	0.00
398.35	9.36
398.55	60.85
398.74	65.54
398.93	0.00
399.12	11.70
399.32	60.85
399.51	77.24
399.70	53.83
399.90	65.54
400.09	81.92
400.28	0.00
400.47	23.41
400.67	30.43
400.86	18.72
401.05	65.54
401.24	58.51
401.44	42.13
401.63	25.75
401.82	30.43
402.01	16.38
402.21	4.68
402.40	51.49
402.59	11.70
402.78	25.75
402.97	0.00
403.17	7.02
403.36	0.00
403.55	56.17
403.74	70.22
403.93	98.30
404.13	77.24
404.32	32.77
404.51	88.94
404.70	30.43
404.89	49.15
405.09	44.47
405.28	46.81
405.47	49.15
405.66	0.00
405.85	7.02
406.05	53.83
406.24	91.28
406.43	2.34
406.62	9.36
406.81	35.11
407.00	88.94
407.20	88.94
407.39	9.36
407.58	46.81
407.77	25.75
407.96	60.85
408.15	0.00
408.34	0.00
408.54	53.83
408.73	60.85
408.92	25.75
409.11	72.56
409.30	25.75
409.49	14.04
409.68	0.00
409.87	0.00
410.07	21.06
410.26	44.47
410.45	0.00
410.64	49.15
410.83	42.13
411.02	32.77
411.21	37.45
411.40	0.00
411.59	16.38
411.78	21.06
411.98	0.00
412.17	9.36
412.36	39.79
412.55	0.00
412.74	14.04
412.93	37.45
413.12	30.43
413.31	56.17
413.50	28.09
413.69	0.00
413.88	56.17
414.07	0.00
414.26	51.49
414.45	53.83
414.64	56.17
414.83	0.00
415.02	11.70
415.22	84.26
415.41	46.81
415.60	44.47
415.79	0.00
415.98	18.72
416.17	37.45
416.36	0.00
416.55	105.32
416.74	42.13
416.93	86.60
417.12	2.34
417.31	25.75
417.50	30.43
417.69	70.22
417.88	0.00
418.07	65.54
418.26	46.81
418.45	42.13
418.64	0.00
418.83	0.00
419.02	30.43
419.21	18.72
419.39	44.47
419.58	0.00
419.77	37.45
419.96	44.47
420.15	35.11
420.34	67.88
420.53	65.54
420.72	46.81
420.91	0.00
421.10	63.19
421.29	39.79
421.48	81.92
421.67	86.60
421.86	84.26
422.05	44.47
422.24	95.96
422.43	60.85
422.61	95.96
422.80	0.00
422.99	0.00
423.18	11.70
423.37	49.15
423.56	0.00
423.75	28.09
423.94	25.75
424.13	4.68
424.32	0.00
424.50	0.00
424.69	9.36
424.88	25.75
425.07	32.77
425.26	0.00
425.45	53.83
425.64	37.45
425.83	0.00
426.01	30.43
426.20	84.26
426.39	0.00
426.58	63.19
426.77	0.00
426.96	0.00
427.15	107.66
427.33	0.00
427.52	4.68
427.71	23.41
427.90	56.17
428.09	100.64
428.28	37.45
428.46	0.00
428.65	102.98
428.84	37.45
429.03	0.00
429.22	23.41
429.40	35.11
429.59	86.60
429.78	0.00
429.97	0.00
430.16	7.02
430.34	63.19
430.53	35.11
430.72	0.00
430.91	42.13
431.10	107.66
431.28	37.45
431.47	28.09
431.66	58.51
431.85	28.09
432.03	7.02
432.22	53.83
432.41	0.00
432.60	46.81
432.79	77.24
432.97	39.79
433.16	0.00
433.35	67.88
433.54	14.04
433.72	79.58
433.91	53.83
434.10	70.22
434.28	53.83
434.47	126.39
434.66	44.47
434.85	60.85
435.03	39.79
435.22	0.00
435.41	16.38
435.59	30.43
435.78	0.00
435.97	16.38
436.16	21.06
436.34	74.90
436.53	0.00
436.72	0.00
436.90	0.00
437.09	81.92
437.28	25.75
437.46	0.00
437.65	86.60
437.84	35.11
438.02	60.85
438.21	14.04
438.40	121.71
438.58	0.00
438.77	4.68
438.96	9.36
439.14	42.13
439.33	39.79
439.52	53.83
439.70	65.54
439.89	25.75
440.08	14.04
440.26	0.00
440.45	105.32
440.63	4.68
440.82	14.04
441.01	53.83
441.19	7.02
441.38	0.00
441.57	0.00
441.75	0.00
441.94	18.72
442.12	28.09
442.31	11.70
442.50	81.92
442.68	30.43
442.87	70.22
443.05	14.04
443.24	53.83
443.43	49.15
443.61	28.09
443.80	0.00
443.98	25.75
444.17	84.26
444.35	32.77
444.54	84.26
444.73	21.06
444.91	4.68
445.10	23.41
445.28	0.00
445.47	9.36
445.65	67.88
445.84	53.83
446.02	0.00
446.21	23.41
446.39	49.15
446.58	16.38
446.77	44.47
446.95	63.19
447.14	135.75
447.32	18.72
447.51	0.00
447.69	35.11
447.88	79.58
448.06	56.17
448.25	35.11
448.43	11.70
448.62	72.56
448.80	16.38
448.99	39.79
449.17	124.05
449.36	0.00
449.54	28.09
449.73	28.09
449.91	0.00
450.10	65.54
450.28	0.00
450.46	65.54
450.65	0.00
450.83	60.85
451.02	56.17
451.20	18.72
451.39	72.56
451.57	63.19
451.76	79.58
451.94	0.00
452.13	67.88
452.31	93.62
452.49	7.02
452.68	16.38
452.86	0.00
453.05	18.72
453.23	39.79
453.42	84.26
453.60	51.49
453.78	18.72
453.97	0.00
454.15	18.72
454.34	2.34
454.52	79.58
454.70	67.88
454.89	46.81
455.07	4.68
455.26	72.56
455.44	49.15
455.62	72.56
455.81	0.00
455.99	7.02
456.17	0.00
456.36	28.09
456.54	9.36
456.73	0.00
456.91	63.19
457.09	0.00
457.28	84.26
457.46	0.00
457.64	35.11
457.83	7.02
458.01	112.35
458.19	0.00
458.38	14.04
458.56	98.30
458.74	35.11
458.93	53.83
459.11	28.09
459.29	0.00
459.48	25.75
459.66	2.34
459.84	49.15
460.03	72.56
460.21	65.54
460.39	58.51
460.57	98.30
460.76	84.26
460.94	51.49
461.12	39.79
461.31	46.81
461.49	42.13
461.67	0.00
461.85	0.00
462.04	11.70
462.22	77.24
462.40	39.79
462.59	46.81
462.77	4.68
462.95	35.11
463.13	58.51
463.32	88.94
463.50	32.77
463.68	25.75
463.86	0.00
464.05	51.49
464.23	100.64
464.41	0.00
464.59	37.45
464.78	4.68
464.96	72.56
465.14	14.04
465.32	56.17
465.50	9.36
465.69	44.47
465.87	74.90
466.05	70.22
466.23	16.38
466.41	11.70
466.60	49.15
466.78	86.60
466.96	30.43
467.14	0.00
467.32	49.15
467.51	7.02
467.69	32.77
467.87	14.04
468.05	53.83
468.23	49.15
468.41	60.85
468.60	0.00
468.78	72.56
468.96	84.26
469.14	23.41
469.32	58.51
469.50	49.15
469.69	11.70
469.87	98.30
470.05	56.17
470.23	0.00
470.41	14.04
470.59	44.47
470.77	11.70
470.95	67.88
471.14	37.45
471.32	0.00
471.50	21.06
471.68	51.49
471.86	0.00
472.04	117.03
472.22	44.47
472.40	77.24
472.58	0.00
472.77	21.06
472.95	79.58
473.13	42.13
473.31	21.06
473.49	0.00
473.67	4.68
473.85	0.00
474.03	30.43
474.21	0.00
474.39	100.64
474.57	65.54
474.75	0.00
474.93	28.09
475.12	53.83
475.30	0.00
475.48	51.49
475.66	0.00
475.84	58.51
476.02	65.54
476.20	70.22
476.38	46.81
476.56	11.70
476.74	14.04
476.92	0.00
477.10	135.75
477.28	0.00
477.46	30.43
477.64	39.79
477.82	65.54
478.00	0.00
478.18	16.38
478.36	102.98
478.54	39.79
478.72	74.90
478.90	21.06
479.08	0.00
479.26	65.54
479.44	51.49
479.62	16.38
479.80	102.98
479.98	0.00
480.16	11.70
480.34	65.54
480.52	14.04
480.70	28.09
480.88	0.00
481.06	49.15
481.24	0.00
481.41	51.49
481.59	39.79
481.77	98.30
481.95	37.45
482.13	28.09
482.31	14.04
482.49	21.06
482.67	98.30
482.85	37.45
483.03	56.17
483.21	51.49
483.39	18.72
483.57	60.85
483.74	0.00
483.92	16.38
484.10	28.09
484.28	18.72
484.46	42.13
484.64	70.22
484.82	0.00
485.00	58.51
485.18	14.04
485.35	37.45
485.53	91.28
485.71	44.47
485.89	46.81
486.07	9.36
486.25	0.00
486.43	39.79
486.61	0.00
486.78	16.38
486.96	53.83
487.14	60.85
487.32	0.00
487.50	18.72
487.68	56.17
487.85	95.96
488.03	37.45
488.21	67.88
488.39	0.00
488.57	28.09
488.75	18.72
488.92	44.47
489.10	46.81
489.28	49.15
489.46	32.77
489.64	11.70
489.81	42.13
489.99	39.79
490.17	51.49
490.35	105.32
490.53	39.79
490.70	42.13
490.88	7.02
491.06	35.11
491.24	18.72
491.41	88.94
491.59	25.75
491.77	18.72
491.95	0.00
492.13	72.56
492.30	60.85
492.48	18.72
492.66	14.04
492.84	72.56
493.01	0.00
493.19	42.13
493.37	58.51
493.54	49.15
493.72	44.47
493.90	9.36
494.08	2.34
494.25	44.47
494.43	2.34
494.61	63.19
494.79	0.00
494.96	7.02
495.14	74.90
495.32	56.17
495.49	25.75
495.67	0.00
495.85	44.47
496.02	2.34
496.20	18.72
496.38	79.58
496.55	9.36
496.73	0.00
496.91	56.17
497.09	49.15
497.26	46.81
497.44	25.75
497.62	32.77
497.79	63.19
497.97	58.51
498.14	39.79
498.32	67.88
498.50	63.19
498.67	95.96
498.85	49.15
499.03	46.81
499.20	0.00
499.38	42.13
499.56	39.79
499.73	9.36
499.91	37.45
500.08	72.56
500.26	42.13
500.44	53.83
500.61	42.13
500.79	56.17
500.97	28.09
501.14	53.83
501.32	23.41
501.49	23.41
501.67	32.77
501.84	30.43
502.02	35.11
502.20	32.77
502.37	4.68
502.55	0.00
502.72	63.19
502.90	0.00
503.07	23.41
503.25	91.28
503.43	32.77
503.60	65.54
503.78	44.47
503.95	84.26
504.13	21.06
504.30	44.47
504.48	18.72
504.65	30.43
504.83	79.58
505.01	138.09
505.18	70.22
505.36	23.41
505.53	49.15
505.71	107.66
505.88	30.43
506.06	0.00
506.23	25.75
506.41	46.81
506.58	0.00
506.76	60.85
506.93	11.70
507.11	2.34
507.28	0.00
507.46	65.54
507.63	0.00
507.81	95.96
507.98	86.60
508.16	4.68
508.33	0.00
508.50	60.85
508.68	60.85
508.85	28.09
509.03	42.13
509.20	39.79
509.38	2.34
509.55	84.26
509.73	65.54
509.90	32.77
510.08	16.38
510.25	2.34
510.42	35.11
510.60	105.32
510.77	91.28
510.95	58.51
511.12	21.06
511.30	16.38
511.47	93.62
511.64	37.45
511.82	9.36
511.99	0.00
512.17	60.85
512.34	11.70
512.51	7.02
512.69	37.45
512.86	46.81
513.04	133.41
513.21	138.09
513.38	58.51
513.56	0.00
513.73	0.00
513.90	74.90
514.08	23.41
514.25	16.38
514.43	25.75
514.60	30.43
514.77	84.26
514.95	56.17
515.12	79.58
515.29	39.79
515.47	42.13
515.64	7.02
515.81	30.43
515.99	79.58
516.16	11.70
516.33	65.54
516.51	11.70
516.68	35.11
516.85	53.83
517.03	46.81
517.20	56.17
517.37	39.79
517.54	72.56
517.72	72.56
517.89	67.88
518.06	60.85
518.24	42.13
518.41	44.47
518.58	60.85
518.75	16.38
518.93	44.47
519.10	67.88
519.27	77.24
519.45	39.79
519.62	53.83
519.79	81.92
519.96	21.06
520.14	39.79
520.31	100.64
520.48	42.13
520.65	14.04
520.83	65.54
521.00	58.51
521.17	102.98
521.34	46.81
521.52	32.77
521.69	0.00
521.86	4.68
522.03	84.26
522.20	72.56
522.38	44.47
522.55	25.75
522.72	102.98
522.89	16.38
523.07	32.77
523.24	60.85
523.41	46.81
523.58	51.49
523.75	0.00
523.92	81.92
524.10	14.04
524.27	74.90
524.44	58.51
524.61	39.79
524.78	0.00
524.96	93.62
525.13	49.15
525.30	42.13
525.47	102.98
525.64	88.94
525.81	23.41
525.98	18.72
526.16	2.34
526.33	0.00
526.50	93.62
526.67	88.94
526.84	60.85
527.01	86.60
527.18	60.85
527.36	7.02
527.53	7.02
527.70	67.88
527.87	0.00
528.04	88.94
528.21	79.58
528.38	56.17
528.55	37.45
528.72	0.00
528.89	18.72
529.07	30.43
529.24	88.94
529.41	32.77
529.58	14.04
529.75	4.68
529.92	65.54
530.09	32.77
530.26	51.49
530.43	74.90
530.60	4.68
530.77	98.30
530.94	58.51
531.11	0.00
531.28	0.00
531.46	63.19
531.63	53.83
531.80	70.22
531.97	9.36
532.14	81.92
532.31	0.00
532.48	0.00
532.65	18.72
532.82	86.60
532.99	0.00
533.16	53.83
533.33	107.66
533.50	39.79
533.67	28.09
533.84	39.79
534.01	102.98
534.18	30.43
534.35	0.00
534.52	0.00
534.69	0.00
534.86	21.06
535.03	65.54
535.20	0.00
535.37	88.94
535.54	0.00
535.71	0.00
535.88	39.79
536.05	0.00
536.22	14.04
536.38	124.05
536.55	23.41
536.72	39.79
536.89	46.81
537.06	44.47
537.23	51.49
537.40	32.77
537.57	11.70
537.74	98.30
537.91	25.75
538.08	7.02
538.25	11.70
538.42	88.94
538.59	53.83
538.75	49.15
538.92	79.58
539.09	56.17
539.26	60.85
539.43	119.37
539.60	112.35
539.77	0.00
539.94	79.58
540.11	0.00
540.28	14.04
540.44	35.11
540.61	42.13
540.78	51.49
540.95	145.11
541.12	14.04
541.29	42.13
541.46	32.77
541.62	0.00
541.79	86.60
541.96	53.83
542.13	4.68
542.30	0.00
542.47	0.00
542.63	14.04
542.80	56.17
542.97	42.13
543.14	88.94
543.31	25.75
543.48	14.04
543.64	46.81
543.81	0.00
543.98	93.62
544.15	35.11
544.32	0.00
544.48	39.79
544.65	84.26
544.82	0.00
544.99	30.43
545.16	0.00
545.32	0.00
545.49	58.51
545.66	81.92
545.83	56.17
546.00	53.83
546.16	35.11
546.33	35.11
546.50	142.77
546.67	39.79
546.83	60.85
547.00	86.60
547.17	0.00
547.34	0.00
547.50	16.38
547.67	0.00
547.84	58.51
548.00	58.51
548.17	46.81
548.34	56.17
548.51	86.60
548.67	16.38
548.84	16.38
549.01	86.60
549.18	2.34
549.34	32.77
549.51	44.47
549.68	18.72
549.84	72.56
550.01	28.09
550.18	70.22
550.34	0.00
550.51	0.00
550.68	46.81
550.84	21.06
551.01	81.92
551.18	51.49
551.34	60.85
551.51	107.66
551.68	0.00
551.84	39.79
552.01	7.02
552.18	46.81
552.34	0.00
552.51	16.38
552.68	79.58
552.84	7.02
553.01	46.81
553.18	30.43
553.34	67.88
553.51	51.49
553.67	42.13
553.84	98.30
554.01	77.24
554.17	159.16
554.34	23.41
554.51	0.00
554.67	18.72
554.84	63.19
555.00	0.00
555.17	7.02
555.33	9.36
555.50	60.85
555.67	39.79
555.83	56.17
556.00	0.00
556.16	0.00
556.33	77.24
556.50	37.45
556.66	67.88
556.83	60.85
556.99	42.13
557.16	39.79
557.32	63.19
557.49	0.00
557.65	11.70
557.82	39.79
557.98	32.77
558.15	32.77
558.32	32.77
558.48	2.34
558.65	70.22
558.81	25.75
558.98	0.00
559.14	7.02
559.31	2.34
559.47	0.00
559.64	0.00
559.80	84.26
559.97	56.17
560.13	32.77
560.30	63.19
560.46	46.81
560.63	18.72
560.79	21.06
560.96	0.00
561.12	0.00
561.29	46.81
561.45	39.79
561.61	72.56
561.78	21.06
561.94	9.36
562.11	51.49
562.27	35.11
562.44	14.04
562.60	42.13
562.77	0.00
562.93	49.15
563.10	56.17
563.26	0.00
563.42	88.94
563.59	4.68
563.75	58.51
563.92	51.49
564.08	58.51
564.24	18.72
564.41	60.85
564.57	84.26
564.74	30.43
564.90	100.64
565.07	63.19
565.23	77.24
565.39	16.38
565.56	114.69
565.72	142.77
565.88	93.62
566.05	39.79
566.21	60.85
566.38	35.11
566.54	46.81
566.70	0.00
566.87	42.13
567.03	0.00
567.19	4.68
567.36	72.56
567.52	72.56
567.68	44.47
567.85	46.81
568.01	21.06
568.17	93.62
568.34	9.36
568.50	86.60
568.66	56.17
568.83	0.00
568.99	0.00
569.15	53.83
569.32	53.83
569.48	35.11
569.64	0.00
569.81	25.75
569.97	86.60
570.13	18.72
570.30	72.56
570.46	21.06
570.62	14.04
570.78	21.06
570.95	30.43
571.11	77.24
571.27	56.17
571.43	16.38
571.60	53.83
571.76	0.00
571.92	18.72
572.09	91.28
572.25	21.06
572.41	56.17
572.57	124.05
572.74	81.92
572.90	18.72
573.06	100.64
573.22	46.81
573.38	0.00
573.55	32.77
573.71	46.81
573.87	0.00
574.03	9.36
574.20	53.83
574.36	98.30
574.52	46.81
574.68	65.54
574.84	72.56
575.01	74.90
575.17	23.41
575.33	49.15
575.49	102.98
575.65	0.00
575.82	77.24
575.98	18.72
576.14	42.13
576.30	67.88
576.46	35.11
576.62	63.19
576.79	58.51
576.95	37.45
577.11	81.92
577.27	102.98
577.43	100.64
577.59	53.83
577.75	56.17
577.92	35.11
578.08	138.09
578.24	0.00
578.40	0.00
578.56	88.94
578.72	70.22
578.88	9.36
579.04	0.00
579.21	86.60
579.37	32.77
579.53	4.68
579.69	0.00
579.85	39.79
580.01	67.88
580.17	37.45
580.33	60.85
580.49	37.45
580.65	56.17
580.82	18.72
580.98	0.00
581.14	0.00
581.30	23.41
581.46	0.00
581.62	84.26
581.78	84.26
581.94	65.54
582.10	46.81
582.26	56.17
582.42	0.00
582.58	58.51
582.74	35.11
582.90	28.09
583.06	72.56
583.22	39.79
583.38	39.79
583.54	0.00
583.70	35.11
583.86	58.51
584.02	65.54
584.18	65.54
584.34	46.81
584.50	112.35
584.66	294.91
584.82	667.05
584.98	959.62
585.14	725.57
585.30	454.06
585.46	337.04
585.62	245.76
585.78	131.07
585.94	49.15
586.10	124.05
586.26	37.45
586.42	2.34
586.58	23.41
586.74	58.51
586.90	102.98
587.06	0.00
587.22	58.51
587.38	0.00
587.54	28.09
587.70	74.90
587.86	84.26
588.02	112.35
588.18	77.24
588.34	42.13
588.49	140.43
588.65	105.32
588.81	91.28
588.97	42.13
589.13	81.92
589.29	30.43
589.45	60.85
589.61	0.00
589.77	35.11
589.93	4.68
590.08	49.15
590.24	37.45
590.40	65.54
590.56	0.00
590.72	35.11
590.88	0.00
591.04	23.41
591.20	100.64
591.35	28.09
591.51	46.81
591.67	4.68
591.83	25.75
591.99	0.00
592.15	0.00
592.31	30.43
592.46	35.11
592.62	9.36
592.78	0.00
592.94	58.51
593.10	28.09
593.26	119.37
593.41	65.54
593.57	0.00
593.73	0.00
593.89	51.49
594.05	140.43
594.20	147.45
594.36	133.41
594.52	84.26
594.68	56.17
594.84	58.51
594.99	21.06
595.15	7.02
595.31	16.38
595.47	0.00
595.62	102.98
595.78	28.09
595.94	21.06
596.10	100.64
596.25	25.75
596.41	81.92
596.57	0.00
596.73	56.17
596.88	58.51
597.04	114.69
597.20	37.45
597.36	37.45
597.51	98.30
597.67	51.49
597.83	44.47
597.99	79.58
598.14	74.90
598.30	56.17
598.46	0.00
598.61	49.15
598.77	65.54
598.93	79.58
599.09	56.17
599.24	49.15
599.40	35.11
599.56	0.00
599.71	0.00
599.87	16.38
600.03	93.62
600.18	70.22
600.34	39.79
600.50	81.92
600.65	81.92
600.81	42.13
600.97	44.47
601.12	46.81
601.28	21.06
601.44	56.17
601.59	79.58
601.75	81.92
601.91	58.51
602.06	16.38
602.22	102.98
602.37	0.00
602.53	16.38
602.69	86.60
602.84	32.77
603.00	42.13
603.16	37.45
603.31	11.70
603.47	72.56
603.62	135.75
603.78	23.41
603.94	4.68
604.09	0.00
604.25	9.36
604.40	67.88
604.56	23.41
604.71	114.69
604.87	44.47
605.03	114.69
605.18	0.00
605.34	21.06
605.49	67.88
605.65	56.17
605.80	60.85
605.96	53.83
606.12	0.00
606.27	46.81
606.43	28.09
606.58	0.00
606.74	0.00
606.89	60.85
607.05	135.75
607.20	140.43
607.36	81.92
607.51	30.43
607.67	23.41
607.82	56.17
607.98	42.13
608.13	53.83
608.29	98.30
608.44	63.19
608.60	42.13
608.75	46.81
608.91	46.81
609.06	81.92
609.22	180.22
609.37	234.05
609.53	177.88
609.68	203.63
609.84	95.96
609.99	53.83
610.15	18.72
610.30	65.54
610.46	70.22
610.61	67.88
610.76	58.51
610.92	79.58
611.07	93.62
611.23	117.03
611.38	84.26
611.54	35.11
611.69	58.51
611.84	72.56
612.00	88.94
612.15	53.83
612.31	42.13
612.46	42.13
612.62	23.41
612.77	60.85
612.92	58.51
613.08	23.41
613.23	42.13
613.39	39.79
613.54	53.83
613.69	159.16
613.85	114.69
614.00	271.50
614.15	269.16
614.31	140.43
614.46	102.98
614.62	98.30
614.77	86.60
614.92	30.43
615.08	79.58
615.23	21.06
615.38	42.13
615.54	58.51
615.69	53.83
615.84	100.64
616.00	49.15
616.15	81.92
616.30	84.26
616.46	49.15
616.61	0.00
616.76	74.90
616.92	28.09
617.07	49.15
617.22	51.49
617.37	0.00
617.53	70.22
617.68	60.85
617.83	107.66
617.99	65.54
618.14	105.32
618.29	77.24
618.45	28.09
618.60	114.69
618.75	11.70
618.90	0.00
619.06	63.19
619.21	63.19
619.36	0.00
619.51	11.70
619.67	58.51
619.82	11.70
619.97	44.47
620.12	51.49
620.28	18.72
620.43	0.00
620.58	42.13
620.73	11.70
620.89	49.15
621.04	7.02
621.19	72.56
621.34	56.17
621.49	112.35
621.65	65.54
621.80	79.58
621.95	79.58
622.10	79.58
622.25	30.43
622.41	35.11
622.56	0.00
622.71	42.13
622.86	58.51
623.01	0.00
623.16	95.96
623.32	39.79
623.47	114.69
623.62	42.13
623.77	67.88
623.92	100.64
624.07	0.00
624.23	18.72
624.38	0.00
624.53	0.00
624.68	74.90
624.83	16.38
624.98	14.04
625.13	0.00
625.29	14.04
625.44	32.77
625.59	53.83
625.74	46.81
625.89	72.56
626.04	70.22
626.19	117.03
626.34	168.52
626.49	180.22
626.65	170.86
626.80	149.79
626.95	124.05
627.10	35.11
627.25	25.75
627.40	60.85
627.55	46.81
627.70	0.00
627.85	81.92
628.00	25.75
628.15	0.00
628.30	16.38
628.45	112.35
628.60	79.58
628.76	46.81
628.91	35.11
629.06	37.45
629.21	28.09
629.36	2.34
629.51	63.19
629.66	46.81
629.81	35.11
629.96	0.00
630.11	119.37
630.26	46.81
630.41	51.49
630.56	23.41
630.71	23.41
630.86	7.02
631.01	67.88
631.16	44.47
631.31	2.34
631.46	0.00
631.61	63.19
631.76	63.19
631.91	37.45
632.06	44.47
632.21	0.00
632.36	93.62
632.51	53.83
632.66	0.00
632.81	56.17
632.96	67.88
633.10	65.54
633.25	145.11
633.40	110.01
633.55	107.66
633.70	56.17
633.85	51.49
634.00	35.11
634.15	0.00
634.30	30.43
634.45	0.00
634.60	44.47
634.75	35.11
634.90	0.00
635.05	7.02
635.19	60.85
635.34	91.28
635.49	32.77
635.64	0.00
635.79	11.70
635.94	77.24
636.09	65.54
636.24	37.45
636.39	56.17
636.53	0.00
636.68	0.00
636.83	0.00
636.98	30.43
637.13	0.00
637.28	0.00
637.43	42.13
637.57	44.47
637.72	51.49
637.87	131.07
638.02	159.16
638.17	177.88
638.32	138.09
638.46	112.35
638.61	98.30
638.76	23.41
638.91	58.51
639.06	44.47
639.20	9.36
639.35	18.72
639.50	46.81
639.65	100.64
639.80	245.76
639.94	241.08
640.09	337.04
640.24	259.80
640.39	142.77
640.54	102.98
640.68	88.94
640.83	84.26
640.98	56.17
641.13	0.00
641.27	93.62
641.42	35.11
641.57	58.51
641.72	84.26
641.86	42.13
642.01	58.51
642.16	0.00
642.31	32.77
642.45	0.00
642.60	0.00
642.75	0.00
642.90	32.77
643.04	25.75
643.19	0.00
643.34	9.36
643.48	86.60
643.63	63.19
643.78	21.06
643.93	11.70
644.07	53.83
644.22	0.00
644.37	39.79
644.51	7.02
644.66	86.60
644.81	49.15
644.95	16.38
645.10	49.15
645.25	28.09
645.39	84.26
645.54	23.41
645.69	30.43
645.83	0.00
645.98	16.38
646.13	46.81
646.27	14.04
646.42	9.36
646.57	16.38
646.71	44.47
646.86	49.15
647.00	42.13
647.15	0.00
647.30	7.02
647.44	23.41
647.59	16.38
647.74	32.77
647.88	81.92
648.03	81.92
648.17	49.15
648.32	39.79
648.47	39.79
648.61	46.81
648.76	0.00
648.90	28.09
649.05	81.92
649.20	63.19
649.34	4.68
649.49	21.06
649.63	14.04
649.78	0.00
649.92	58.51
650.07	0.00
650.21	114.69
650.36	170.86
650.51	177.88
650.65	149.79
650.80	65.54
650.94	46.81
651.09	70.22
651.23	74.90
651.38	37.45
651.52	49.15
651.67	70.22
651.81	39.79
651.96	49.15
652.10	0.00
652.25	53.83
652.39	4.68
652.54	7.02
652.68	21.06
652.83	74.90
652.97	100.64
653.12	77.24
653.26	0.00
653.41	124.05
653.55	16.38
653.70	7.02
653.84	11.70
653.99	9.36
654.13	51.49
654.27	39.79
654.42	51.49
654.56	98.30
654.71	79.58
654.85	21.06
655.00	14.04
655.14	11.70
655.29	0.00
655.43	32.77
655.57	0.00
655.72	18.72
655.86	28.09
656.01	46.81
656.15	9.36
656.30	39.79
656.44	35.11
656.58	18.72
656.73	67.88
656.87	0.00
657.01	37.45
657.16	18.72
657.30	86.60
657.45	117.03
657.59	53.83
657.73	86.60
657.88	67.88
658.02	14.04
658.16	37.45
658.31	9.36
658.45	49.15
658.60	65.54
658.74	4.68
658.88	14.04
659.03	4.68
659.17	23.41
659.31	86.60
659.46	42.13
659.60	100.64
659.74	133.41
659.89	79.58
660.03	81.92
660.17	23.41
660.32	32.77
660.46	16.38
660.60	81.92
660.74	67.88
660.89	60.85
661.03	28.09
661.17	30.43
661.32	91.28
661.46	0.00
661.60	14.04
661.74	32.77
661.89	0.00
662.03	56.17
662.17	0.00
662.31	79.58
662.46	60.85
662.60	35.11
662.74	58.51
662.88	0.00
663.03	46.81
663.17	117.03
663.31	65.54
663.45	70.22
663.60	42.13
663.74	30.43
663.88	18.72
664.02	9.36
664.17	4.68
664.31	32.77
664.45	42.13
664.59	7.02
664.73	9.36
664.88	9.36
665.02	70.22
665.16	18.72
665.30	0.00
665.44	53.83
665.59	0.00
665.73	7.02
665.87	91.28
666.01	60.85
666.15	58.51
666.29	0.00
666.44	81.92
666.58	0.00
666.72	0.00
666.86	42.13
667.00	44.47
667.14	77.24
667.28	7.02
667.43	138.09
667.57	147.45
667.71	138.09
667.85	112.35
667.99	65.54
668.13	81.92
668.27	35.11
668.41	74.90
668.56	0.00
668.70	49.15
668.84	0.00
668.98	51.49
669.12	16.38
669.26	39.79
669.40	112.35
669.54	21.06
669.68	42.13
669.82	49.15
669.96	51.49
670.10	28.09
670.25	0.00
670.39	9.36
670.53	35.11
670.67	56.17
670.81	60.85
670.95	30.43
671.09	49.15
671.23	0.00
671.37	105.32
671.51	114.69
671.65	112.35
671.79	117.03
671.93	86.60
672.07	112.35
672.21	18.72
672.35	100.64
672.49	51.49
672.63	105.32
672.77	0.00
672.91	0.00
673.05	0.00
673.19	25.75
673.33	0.00
673.47	0.00
673.61	14.04
673.75	51.49
673.89	53.83
674.03	58.51
674.17	0.00
674.31	0.00
674.45	37.45
674.59	79.58
674.73	21.06
674.87	60.85
675.01	0.00
675.15	44.47
675.29	91.28
675.43	58.51
675.56	28.09
675.70	0.00
675.84	32.77
675.98	30.43
676.12	49.15
676.26	70.22
676.40	131.07
676.54	30.43
676.68	79.58
676.82	77.24
676.96	32.77
677.10	49.15
677.23	35.11
677.37	60.85
677.51	98.30
677.65	42.13
677.79	58.51
677.93	58.51
678.07	21.06
678.21	67.88
678.34	23.41
678.48	0.00
678.62	60.85
678.76	14.04
678.90	56.17
679.04	18.72
679.18	37.45
679.31	53.83
679.45	0.00
679.59	0.00
679.73	0.00
679.87	46.81
680.00	14.04
680.14	0.00
680.28	21.06
680.42	37.45
680.56	84.26
680.70	9.36
680.83	7.02
680.97	2.34
681.11	60.85
681.25	11.70
681.39	0.00
681.52	42.13
681.66	74.90
681.80	49.15
681.94	21.06
682.07	74.90
682.21	70.22
682.35	93.62
682.49	28.09
682.62	0.00
682.76	119.37
682.90	23.41
683.04	49.15
683.17	79.58
683.31	65.54
683.45	21.06
683.59	0.00
683.72	0.00
683.86	16.38
684.00	88.94
684.13	0.00
684.27	0.00
684.41	9.36
684.55	46.81
684.68	16.38
684.82	49.15
684.96	70.22
685.09	23.41
685.23	0.00
685.37	9.36
685.50	30.43
685.64	35.11
685.78	23.41
685.91	60.85
686.05	25.75
686.19	37.45
686.32	56.17
686.46	0.00
686.60	42.13
686.73	56.17
686.87	67.88
687.01	46.81
687.14	28.09
687.28	14.04
687.42	42.13
687.55	32.77
687.69	46.81
687.82	9.36
687.96	18.72
688.10	0.00
688.23	9.36
688.37	30.43
688.50	74.90
688.64	14.04
688.78	0.00
688.91	84.26
689.05	35.11
689.18	72.56
689.32	0.00
689.46	56.17
689.59	72.56
689.73	14.04
689.86	0.00
690.00	0.00
690.13	72.56
690.27	0.00
690.41	46.81
690.54	46.81
690.68	28.09
690.81	49.15
690.95	70.22
691.08	91.28
691.22	56.17
691.35	25.75
691.49	21.06
691.62	7.02
691.76	77.24
691.89	25.75
692.03	21.06
692.16	74.90
692.30	0.00
692.43	0.00
692.57	35.11
692.70	110.01
692.84	74.90
692.97	65.54
693.11	58.51
693.24	0.00
693.38	84.26
693.51	18.72
693.65	39.79
693.78	0.00
693.92	0.00
694.05	58.51
694.19	0.00
694.32	28.09
694.45	51.49
694.59	39.79
694.72	72.56
694.86	86.60
694.99	28.09
695.13	0.00
695.26	0.00
695.39	30.43
695.53	39.79
695.66	4.68
695.80	72.56
695.93	49.15
696.07	0.00
696.20	2.34
696.33	7.02
696.47	81.92
696.60	37.45
696.73	56.17
696.87	28.09
697.00	86.60
697.14	67.88
697.27	49.15
697.40	0.00
697.54	0.00
697.67	67.88
697.80	42.13
697.94	0.00
698.07	0.00
698.21	21.06
698.34	100.64
698.47	11.70
698.61	14.04
698.74	86.60
698.87	0.00
699.01	2.34
699.14	32.77
699.27	81.92
699.40	32.77
699.54	35.11
699.67	14.04
699.80	44.47
699.94	51.49
700.07	28.09
700.20	53.83
700.34	0.00
700.47	32.77
700.60	0.00
700.73	56.17
700.87	18.72
701.00	30.43
701.13	4.68
701.26	11.70
701.40	25.75
701.53	37.45
701.66	42.13
701.79	95.96
701.93	0.00
702.06	53.83
702.19	70.22
702.32	84.26
702.46	14.04
702.59	30.43
702.72	42.13
702.85	32.77
702.99	117.03
703.12	126.39
703.25	105.32
703.38	126.39
703.51	168.52
703.65	105.32
703.78	67.88
703.91	88.94
704.04	32.77
704.17	39.79
704.31	0.00
704.44	51.49
704.57	0.00
704.70	98.30
704.83	9.36
704.96	0.00
705.10	4.68
705.23	138.09
>>>>>End Processed Spectral Data<<<<<
