SpectraSuite Data File
++++++++++++++++++++++++++++++++++++
Date: Fri Oct 04 12:13:37 GMT-05:00 2013
User: price-jones
Dark Spectrum Present: No
Reference Spectrum Present: No
Number of Sampled Component Spectra: 1
Spectrometers: USB2+H05261
Integration Time (usec): 10000 (USB2+H05261)
Spectra Averaged: 1 (USB2+H05261)
Boxcar Smoothing: 0 (USB2+H05261)
Correct for Electrical Dark: No (USB2+H05261)
Strobe/Lamp Enabled: No (USB2+H05261)
Correct for Detector Non-linearity: No (USB2+H05261)
Correct for Stray Light: No (USB2+H05261)
Number of Pixels in Processed Spectrum: 2048
>>>>>Begin Processed Spectral Data<<<<<
365.73	49.15
365.92	49.15
366.12	49.15
366.32	0.00
366.52	0.00
366.72	0.00
366.91	0.00
367.11	0.00
367.31	0.00
367.51	0.00
367.70	0.00
367.90	0.00
368.10	0.00
368.30	0.00
368.49	0.00
368.69	0.00
368.89	0.00
369.09	0.00
369.28	0.00
369.48	0.00
369.68	0.00
369.87	0.00
370.07	0.00
370.27	0.00
370.47	0.00
370.66	0.00
370.86	0.00
371.06	0.00
371.25	0.00
371.45	46.81
371.65	0.00
371.84	0.00
372.04	0.00
372.24	84.26
372.44	0.00
372.63	0.00
372.83	35.11
373.03	2.34
373.22	44.47
373.42	110.01
373.62	32.77
373.81	25.75
374.01	49.15
374.21	49.15
374.40	100.64
374.60	11.70
374.79	37.45
374.99	74.90
375.19	77.24
375.38	0.00
375.58	0.00
375.78	46.81
375.97	53.83
376.17	44.47
376.37	7.02
376.56	32.77
376.76	100.64
376.95	0.00
377.15	4.68
377.35	60.85
377.54	42.13
377.74	16.38
377.93	37.45
378.13	21.06
378.33	74.90
378.52	2.34
378.72	9.36
378.91	0.00
379.11	0.00
379.31	0.00
379.50	21.06
379.70	32.77
379.89	0.00
380.09	39.79
380.28	0.00
380.48	0.00
380.68	14.04
380.87	0.00
381.07	14.04
381.26	0.00
381.46	42.13
381.65	70.22
381.85	11.70
382.04	0.00
382.24	25.75
382.43	44.47
382.63	63.19
382.83	42.13
383.02	84.26
383.22	70.22
383.41	21.06
383.61	28.09
383.80	84.26
384.00	21.06
384.19	74.90
384.39	0.00
384.58	7.02
384.78	0.00
384.97	25.75
385.17	0.00
385.36	21.06
385.56	44.47
385.75	46.81
385.95	37.45
386.14	0.00
386.34	0.00
386.53	0.00
386.72	14.04
386.92	65.54
387.11	42.13
387.31	0.00
387.50	14.04
387.70	23.41
387.89	35.11
388.09	91.28
388.28	11.70
388.48	25.75
388.67	79.58
388.86	0.00
389.06	7.02
389.25	0.00
389.45	2.34
389.64	9.36
389.84	49.15
390.03	67.88
390.22	0.00
390.42	0.00
390.61	0.00
390.81	7.02
391.00	0.00
391.19	9.36
391.39	46.81
391.58	0.00
391.78	51.49
391.97	58.51
392.16	28.09
392.36	0.00
392.55	4.68
392.75	16.38
392.94	95.96
393.13	74.90
393.33	0.00
393.52	0.00
393.71	0.00
393.91	63.19
394.10	7.02
394.29	11.70
394.49	0.00
394.68	0.00
394.88	56.17
395.07	35.11
395.26	0.00
395.46	18.72
395.65	49.15
395.84	39.79
396.04	0.00
396.23	77.24
396.42	16.38
396.62	9.36
396.81	0.00
397.00	0.00
397.19	11.70
397.39	0.00
397.58	16.38
397.77	70.22
397.97	11.70
398.16	14.04
398.35	16.38
398.55	23.41
398.74	0.00
398.93	0.00
399.12	0.00
399.32	42.13
399.51	53.83
399.70	0.00
399.90	74.90
400.09	16.38
400.28	30.43
400.47	49.15
400.67	53.83
400.86	0.00
401.05	49.15
401.24	67.88
401.44	39.79
401.63	49.15
401.82	25.75
402.01	0.00
402.21	0.00
402.40	0.00
402.59	60.85
402.78	9.36
402.97	16.38
403.17	81.92
403.36	67.88
403.55	51.49
403.74	58.51
403.93	32.77
404.13	37.45
404.32	37.45
404.51	65.54
404.70	7.02
404.89	86.60
405.09	21.06
405.28	0.00
405.47	95.96
405.66	53.83
405.85	0.00
406.05	81.92
406.24	49.15
406.43	79.58
406.62	16.38
406.81	21.06
407.00	70.22
407.20	39.79
407.39	0.00
407.58	16.38
407.77	0.00
407.96	32.77
408.15	0.00
408.34	7.02
408.54	42.13
408.73	0.00
408.92	23.41
409.11	140.43
409.30	18.72
409.49	67.88
409.68	84.26
409.87	18.72
410.07	11.70
410.26	0.00
410.45	0.00
410.64	28.09
410.83	0.00
411.02	46.81
411.21	35.11
411.40	30.43
411.59	70.22
411.78	23.41
411.98	58.51
412.17	7.02
412.36	0.00
412.55	0.00
412.74	23.41
412.93	65.54
413.12	42.13
413.31	21.06
413.50	37.45
413.69	79.58
413.88	9.36
414.07	49.15
414.26	0.00
414.45	81.92
414.64	74.90
414.83	42.13
415.02	49.15
415.22	39.79
415.41	58.51
415.60	9.36
415.79	93.62
415.98	84.26
416.17	39.79
416.36	56.17
416.55	74.90
416.74	39.79
416.93	107.66
417.12	72.56
417.31	28.09
417.50	74.90
417.69	30.43
417.88	51.49
418.07	23.41
418.26	49.15
418.45	39.79
418.64	23.41
418.83	42.13
419.02	67.88
419.21	84.26
419.39	0.00
419.58	88.94
419.77	112.35
419.96	46.81
420.15	18.72
420.34	39.79
420.53	21.06
420.72	35.11
420.91	0.00
421.10	0.00
421.29	67.88
421.48	7.02
421.67	53.83
421.86	14.04
422.05	0.00
422.24	58.51
422.43	72.56
422.61	49.15
422.80	4.68
422.99	23.41
423.18	2.34
423.37	42.13
423.56	91.28
423.75	51.49
423.94	65.54
424.13	56.17
424.32	21.06
424.50	32.77
424.69	4.68
424.88	63.19
425.07	100.64
425.26	42.13
425.45	30.43
425.64	58.51
425.83	53.83
426.01	93.62
426.20	88.94
426.39	53.83
426.58	51.49
426.77	95.96
426.96	37.45
427.15	70.22
427.33	0.00
427.52	77.24
427.71	42.13
427.90	9.36
428.09	98.30
428.28	60.85
428.46	51.49
428.65	67.88
428.84	67.88
429.03	11.70
429.22	2.34
429.40	56.17
429.59	14.04
429.78	60.85
429.97	0.00
430.16	32.77
430.34	2.34
430.53	23.41
430.72	42.13
430.91	72.56
431.10	42.13
431.28	4.68
431.47	37.45
431.66	74.90
431.85	53.83
432.03	0.00
432.22	0.00
432.41	32.77
432.60	0.00
432.79	138.09
432.97	81.92
433.16	42.13
433.35	51.49
433.54	84.26
433.72	25.75
433.91	2.34
434.10	79.58
434.28	18.72
434.47	14.04
434.66	81.92
434.85	39.79
435.03	102.98
435.22	79.58
435.41	0.00
435.59	9.36
435.78	88.94
435.97	67.88
436.16	21.06
436.34	74.90
436.53	28.09
436.72	93.62
436.90	79.58
437.09	70.22
437.28	51.49
437.46	18.72
437.65	0.00
437.84	46.81
438.02	91.28
438.21	14.04
438.40	128.73
438.58	39.79
438.77	53.83
438.96	51.49
439.14	35.11
439.33	72.56
439.52	14.04
439.70	21.06
439.89	23.41
440.08	81.92
440.26	9.36
440.45	16.38
440.63	98.30
440.82	60.85
441.01	95.96
441.19	121.71
441.38	23.41
441.57	9.36
441.75	0.00
441.94	16.38
442.12	42.13
442.31	81.92
442.50	67.88
442.68	37.45
442.87	56.17
443.05	11.70
443.24	77.24
443.43	135.75
443.61	51.49
443.80	72.56
443.98	9.36
444.17	84.26
444.35	44.47
444.54	98.30
444.73	88.94
444.91	63.19
445.10	7.02
445.28	79.58
445.47	37.45
445.65	72.56
445.84	88.94
446.02	7.02
446.21	65.54
446.39	39.79
446.58	37.45
446.77	95.96
446.95	86.60
447.14	60.85
447.32	65.54
447.51	88.94
447.69	39.79
447.88	95.96
448.06	100.64
448.25	0.00
448.43	74.90
448.62	72.56
448.80	126.39
448.99	98.30
449.17	60.85
449.36	74.90
449.54	46.81
449.73	25.75
449.91	93.62
450.10	46.81
450.28	79.58
450.46	65.54
450.65	72.56
450.83	23.41
451.02	23.41
451.20	32.77
451.39	18.72
451.57	18.72
451.76	56.17
451.94	72.56
452.13	133.41
452.31	81.92
452.49	91.28
452.68	25.75
452.86	84.26
453.05	49.15
453.23	124.05
453.42	128.73
453.60	84.26
453.78	21.06
453.97	0.00
454.15	23.41
454.34	37.45
454.52	95.96
454.70	79.58
454.89	44.47
455.07	63.19
455.26	14.04
455.44	135.75
455.62	91.28
455.81	93.62
455.99	67.88
456.17	70.22
456.36	0.00
456.54	42.13
456.73	32.77
456.91	49.15
457.09	67.88
457.28	93.62
457.46	77.24
457.64	49.15
457.83	35.11
458.01	124.05
458.19	79.58
458.38	128.73
458.56	56.17
458.74	0.00
458.93	117.03
459.11	21.06
459.29	77.24
459.48	42.13
459.66	4.68
459.84	39.79
460.03	74.90
460.21	84.26
460.39	77.24
460.57	42.13
460.76	0.00
460.94	7.02
461.12	56.17
461.31	2.34
461.49	79.58
461.67	124.05
461.85	91.28
462.04	74.90
462.22	124.05
462.40	79.58
462.59	53.83
462.77	35.11
462.95	0.00
463.13	44.47
463.32	56.17
463.50	53.83
463.68	67.88
463.86	93.62
464.05	65.54
464.23	81.92
464.41	86.60
464.59	14.04
464.78	56.17
464.96	102.98
465.14	81.92
465.32	60.85
465.50	42.13
465.69	44.47
465.87	46.81
466.05	49.15
466.23	0.00
466.41	42.13
466.60	91.28
466.78	65.54
466.96	56.17
467.14	79.58
467.32	105.32
467.51	14.04
467.69	60.85
467.87	30.43
468.05	0.00
468.23	84.26
468.41	4.68
468.60	39.79
468.78	98.30
468.96	30.43
469.14	2.34
469.32	32.77
469.50	60.85
469.69	65.54
469.87	98.30
470.05	84.26
470.23	53.83
470.41	7.02
470.59	53.83
470.77	58.51
470.95	39.79
471.14	67.88
471.32	56.17
471.50	60.85
471.68	16.38
471.86	42.13
472.04	51.49
472.22	65.54
472.40	86.60
472.58	70.22
472.77	25.75
472.95	0.00
473.13	42.13
473.31	110.01
473.49	32.77
473.67	44.47
473.85	95.96
474.03	51.49
474.21	100.64
474.39	135.75
474.57	60.85
474.75	7.02
474.93	72.56
475.12	93.62
475.30	58.51
475.48	67.88
475.66	23.41
475.84	30.43
476.02	25.75
476.20	149.79
476.38	32.77
476.56	65.54
476.74	72.56
476.92	91.28
477.10	9.36
477.28	18.72
477.46	39.79
477.64	93.62
477.82	9.36
478.00	46.81
478.18	58.51
478.36	2.34
478.54	11.70
478.72	81.92
478.90	91.28
479.08	39.79
479.26	86.60
479.44	84.26
479.62	46.81
479.80	18.72
479.98	117.03
480.16	112.35
480.34	0.00
480.52	39.79
480.70	30.43
480.88	79.58
481.06	72.56
481.24	49.15
481.41	51.49
481.59	81.92
481.77	37.45
481.95	58.51
482.13	72.56
482.31	23.41
482.49	124.05
482.67	100.64
482.85	149.79
483.03	117.03
483.21	44.47
483.39	107.66
483.57	121.71
483.74	11.70
483.92	35.11
484.10	37.45
484.28	74.90
484.46	88.94
484.64	42.13
484.82	0.00
485.00	53.83
485.18	58.51
485.35	16.38
485.53	65.54
485.71	98.30
485.89	18.72
486.07	32.77
486.25	37.45
486.43	81.92
486.61	131.07
486.78	102.98
486.96	84.26
487.14	4.68
487.32	86.60
487.50	51.49
487.68	18.72
487.85	100.64
488.03	44.47
488.21	77.24
488.39	110.01
488.57	173.20
488.75	2.34
488.92	114.69
489.10	65.54
489.28	67.88
489.46	102.98
489.64	105.32
489.81	72.56
489.99	53.83
490.17	70.22
490.35	7.02
490.53	58.51
490.70	65.54
490.88	86.60
491.06	74.90
491.24	110.01
491.41	112.35
491.59	51.49
491.77	86.60
491.95	56.17
492.13	102.98
492.30	30.43
492.48	121.71
492.66	95.96
492.84	56.17
493.01	37.45
493.19	102.98
493.37	128.73
493.54	42.13
493.72	100.64
493.90	72.56
494.08	37.45
494.25	46.81
494.43	102.98
494.61	88.94
494.79	114.69
494.96	77.24
495.14	42.13
495.32	56.17
495.49	35.11
495.67	84.26
495.85	65.54
496.02	67.88
496.20	93.62
496.38	49.15
496.55	58.51
496.73	86.60
496.91	81.92
497.09	145.11
497.26	100.64
497.44	11.70
497.62	65.54
497.79	110.01
497.97	46.81
498.14	102.98
498.32	124.05
498.50	39.79
498.67	70.22
498.85	117.03
499.03	70.22
499.20	126.39
499.38	67.88
499.56	117.03
499.73	32.77
499.91	86.60
500.08	88.94
500.26	112.35
500.44	98.30
500.61	56.17
500.79	16.38
500.97	30.43
501.14	91.28
501.32	117.03
501.49	128.73
501.67	102.98
501.84	88.94
502.02	102.98
502.20	119.37
502.37	102.98
502.55	70.22
502.72	49.15
502.90	126.39
503.07	35.11
503.25	37.45
503.43	28.09
503.60	0.00
503.78	74.90
503.95	65.54
504.13	0.00
504.30	70.22
504.48	74.90
504.65	72.56
504.83	0.00
505.01	58.51
505.18	51.49
505.36	91.28
505.53	112.35
505.71	60.85
505.88	79.58
506.06	98.30
506.23	142.77
506.41	30.43
506.58	79.58
506.76	16.38
506.93	138.09
507.11	74.90
507.28	18.72
507.46	60.85
507.63	74.90
507.81	147.45
507.98	2.34
508.16	51.49
508.33	105.32
508.50	28.09
508.68	72.56
508.85	88.94
509.03	81.92
509.20	60.85
509.38	63.19
509.55	70.22
509.73	0.00
509.90	112.35
510.08	119.37
510.25	0.00
510.42	7.02
510.60	53.83
510.77	72.56
510.95	84.26
511.12	110.01
511.30	72.56
511.47	121.71
511.64	63.19
511.82	121.71
511.99	117.03
512.17	51.49
512.34	51.49
512.51	88.94
512.69	81.92
512.86	42.13
513.04	46.81
513.21	138.09
513.38	77.24
513.56	105.32
513.73	102.98
513.90	187.24
514.08	46.81
514.25	56.17
514.43	102.98
514.60	56.17
514.77	88.94
514.95	86.60
515.12	46.81
515.29	128.73
515.47	46.81
515.64	84.26
515.81	156.82
515.99	95.96
516.16	79.58
516.33	63.19
516.51	65.54
516.68	67.88
516.85	28.09
517.03	18.72
517.20	25.75
517.37	93.62
517.54	65.54
517.72	177.88
517.89	88.94
518.06	67.88
518.24	70.22
518.41	110.01
518.58	46.81
518.75	84.26
518.93	114.69
519.10	102.98
519.27	86.60
519.45	98.30
519.62	56.17
519.79	74.90
519.96	72.56
520.14	105.32
520.31	53.83
520.48	39.79
520.65	135.75
520.83	91.28
521.00	100.64
521.17	91.28
521.34	60.85
521.52	74.90
521.69	51.49
521.86	131.07
522.03	84.26
522.20	63.19
522.38	102.98
522.55	93.62
522.72	72.56
522.89	51.49
523.07	100.64
523.24	86.60
523.41	58.51
523.58	86.60
523.75	86.60
523.92	11.70
524.10	196.60
524.27	63.19
524.44	114.69
524.61	77.24
524.78	110.01
524.96	14.04
525.13	107.66
525.30	32.77
525.47	28.09
525.64	18.72
525.81	77.24
525.98	60.85
526.16	102.98
526.33	105.32
526.50	35.11
526.67	77.24
526.84	117.03
527.01	100.64
527.18	18.72
527.36	121.71
527.53	42.13
527.70	182.56
527.87	44.47
528.04	107.66
528.21	14.04
528.38	32.77
528.55	74.90
528.72	93.62
528.89	4.68
529.07	161.50
529.24	138.09
529.41	84.26
529.58	95.96
529.75	93.62
529.92	100.64
530.09	65.54
530.26	117.03
530.43	84.26
530.60	107.66
530.77	91.28
530.94	81.92
531.11	105.32
531.28	112.35
531.46	67.88
531.63	56.17
531.80	44.47
531.97	49.15
532.14	105.32
532.31	88.94
532.48	105.32
532.65	140.43
532.82	18.72
532.99	72.56
533.16	51.49
533.33	100.64
533.50	0.00
533.67	65.54
533.84	77.24
534.01	58.51
534.18	107.66
534.35	93.62
534.52	163.84
534.69	154.48
534.86	65.54
535.03	51.49
535.20	117.03
535.37	98.30
535.54	58.51
535.71	70.22
535.88	60.85
536.05	128.73
536.22	93.62
536.38	58.51
536.55	56.17
536.72	67.88
536.89	124.05
537.06	70.22
537.23	81.92
537.40	49.15
537.57	53.83
537.74	107.66
537.91	86.60
538.08	110.01
538.25	18.72
538.42	16.38
538.59	110.01
538.75	60.85
538.92	107.66
539.09	56.17
539.26	163.84
539.43	102.98
539.60	88.94
539.77	53.83
539.94	91.28
540.11	107.66
540.28	35.11
540.44	81.92
540.61	152.13
540.78	91.28
540.95	98.30
541.12	0.00
541.29	28.09
541.46	140.43
541.62	98.30
541.79	44.47
541.96	44.47
542.13	121.71
542.30	21.06
542.47	39.79
542.63	93.62
542.80	35.11
542.97	163.84
543.14	93.62
543.31	84.26
543.48	126.39
543.64	117.03
543.81	84.26
543.98	110.01
544.15	67.88
544.32	131.07
544.48	81.92
544.65	98.30
544.82	126.39
544.99	107.66
545.16	124.05
545.32	44.47
545.49	39.79
545.66	119.37
545.83	163.84
546.00	37.45
546.16	93.62
546.33	98.30
546.50	112.35
546.67	124.05
546.83	67.88
547.00	65.54
547.17	107.66
547.34	42.13
547.50	56.17
547.67	32.77
547.84	44.47
548.00	112.35
548.17	102.98
548.34	140.43
548.51	135.75
548.67	53.83
548.84	110.01
549.01	98.30
549.18	79.58
549.34	121.71
549.51	112.35
549.68	81.92
549.84	49.15
550.01	44.47
550.18	107.66
550.34	105.32
550.51	46.81
550.68	37.45
550.84	102.98
551.01	91.28
551.18	63.19
551.34	39.79
551.51	119.37
551.68	0.00
551.84	84.26
552.01	14.04
552.18	102.98
552.34	74.90
552.51	39.79
552.68	102.98
552.84	79.58
553.01	98.30
553.18	135.75
553.34	63.19
553.51	0.00
553.67	95.96
553.84	39.79
554.01	51.49
554.17	67.88
554.34	117.03
554.51	77.24
554.67	32.77
554.84	35.11
555.00	142.77
555.17	131.07
555.33	105.32
555.50	81.92
555.67	65.54
555.83	126.39
556.00	65.54
556.16	114.69
556.33	77.24
556.50	140.43
556.66	63.19
556.83	60.85
556.99	81.92
557.16	149.79
557.32	93.62
557.49	0.00
557.65	86.60
557.82	63.19
557.98	49.15
558.15	35.11
558.32	124.05
558.48	74.90
558.65	98.30
558.81	114.69
558.98	95.96
559.14	102.98
559.31	95.96
559.47	58.51
559.64	32.77
559.80	42.13
559.97	98.30
560.13	32.77
560.30	110.01
560.46	189.58
560.63	51.49
560.79	67.88
560.96	51.49
561.12	112.35
561.29	152.13
561.45	65.54
561.61	126.39
561.78	100.64
561.94	14.04
562.11	14.04
562.27	72.56
562.44	98.30
562.60	105.32
562.77	124.05
562.93	135.75
563.10	51.49
563.26	126.39
563.42	142.77
563.59	63.19
563.75	91.28
563.92	131.07
564.08	117.03
564.24	63.19
564.41	86.60
564.57	53.83
564.74	58.51
564.90	58.51
565.07	81.92
565.23	107.66
565.39	145.11
565.56	0.00
565.72	95.96
565.88	46.81
566.05	119.37
566.21	2.34
566.38	105.32
566.54	105.32
566.70	72.56
566.87	67.88
567.03	95.96
567.19	161.50
567.36	91.28
567.52	67.88
567.68	84.26
567.85	84.26
568.01	77.24
568.17	112.35
568.34	98.30
568.50	42.13
568.66	46.81
568.83	102.98
568.99	86.60
569.15	58.51
569.32	102.98
569.48	105.32
569.64	63.19
569.81	84.26
569.97	25.75
570.13	77.24
570.30	49.15
570.46	119.37
570.62	86.60
570.78	21.06
570.95	53.83
571.11	86.60
571.27	79.58
571.43	79.58
571.60	128.73
571.76	46.81
571.92	42.13
572.09	67.88
572.25	77.24
572.41	37.45
572.57	65.54
572.74	98.30
572.90	67.88
573.06	74.90
573.22	63.19
573.38	0.00
573.55	18.72
573.71	88.94
573.87	102.98
574.03	110.01
574.20	49.15
574.36	128.73
574.52	0.00
574.68	107.66
574.84	53.83
575.01	81.92
575.17	46.81
575.33	70.22
575.49	100.64
575.65	70.22
575.82	133.41
575.98	63.19
576.14	42.13
576.30	56.17
576.46	95.96
576.62	91.28
576.79	95.96
576.95	86.60
577.11	39.79
577.27	95.96
577.43	105.32
577.59	93.62
577.75	112.35
577.92	88.94
578.08	46.81
578.24	39.79
578.40	18.72
578.56	0.00
578.72	30.43
578.88	142.77
579.04	49.15
579.21	23.41
579.37	86.60
579.53	79.58
579.69	95.96
579.85	86.60
580.01	100.64
580.17	56.17
580.33	95.96
580.49	110.01
580.65	32.77
580.82	79.58
580.98	117.03
581.14	93.62
581.30	93.62
581.46	112.35
581.62	70.22
581.78	86.60
581.94	23.41
582.10	60.85
582.26	110.01
582.42	32.77
582.58	81.92
582.74	60.85
582.90	72.56
583.06	0.00
583.22	107.66
583.38	121.71
583.54	44.47
583.70	37.45
583.86	21.06
584.02	84.26
584.18	100.64
584.34	63.19
584.50	70.22
584.66	25.75
584.82	126.39
584.98	107.66
585.14	105.32
585.30	105.32
585.46	37.45
585.62	95.96
585.78	98.30
585.94	53.83
586.10	126.39
586.26	84.26
586.42	79.58
586.58	84.26
586.74	35.11
586.90	60.85
587.06	77.24
587.22	77.24
587.38	119.37
587.54	133.41
587.70	84.26
587.86	119.37
588.02	28.09
588.18	70.22
588.34	30.43
588.49	35.11
588.65	23.41
588.81	67.88
588.97	67.88
589.13	44.47
589.29	98.30
589.45	46.81
589.61	32.77
589.77	112.35
589.93	77.24
590.08	42.13
590.24	37.45
590.40	119.37
590.56	65.54
590.72	72.56
590.88	46.81
591.04	53.83
591.20	53.83
591.35	67.88
591.51	56.17
591.67	58.51
591.83	65.54
591.99	72.56
592.15	65.54
592.31	81.92
592.46	37.45
592.62	149.79
592.78	95.96
592.94	110.01
593.10	105.32
593.26	88.94
593.41	49.15
593.57	170.86
593.73	70.22
593.89	51.49
594.05	67.88
594.20	70.22
594.36	131.07
594.52	18.72
594.68	46.81
594.84	58.51
594.99	107.66
595.15	105.32
595.31	91.28
595.47	102.98
595.62	114.69
595.78	77.24
595.94	39.79
596.10	65.54
596.25	56.17
596.41	58.51
596.57	42.13
596.73	84.26
596.88	72.56
597.04	121.71
597.20	81.92
597.36	93.62
597.51	84.26
597.67	56.17
597.83	42.13
597.99	93.62
598.14	128.73
598.30	0.00
598.46	37.45
598.61	70.22
598.77	95.96
598.93	84.26
599.09	0.00
599.24	107.66
599.40	79.58
599.56	65.54
599.71	65.54
599.87	53.83
600.03	30.43
600.18	56.17
600.34	63.19
600.50	79.58
600.65	53.83
600.81	124.05
600.97	49.15
601.12	51.49
601.28	95.96
601.44	95.96
601.59	56.17
601.75	93.62
601.91	56.17
602.06	100.64
602.22	93.62
602.37	28.09
602.53	21.06
602.69	114.69
602.84	63.19
603.00	35.11
603.16	79.58
603.31	138.09
603.47	121.71
603.62	53.83
603.78	128.73
603.94	91.28
604.09	110.01
604.25	0.00
604.40	65.54
604.56	74.90
604.71	49.15
604.87	70.22
605.03	79.58
605.18	77.24
605.34	100.64
605.49	88.94
605.65	74.90
605.80	46.81
605.96	28.09
606.12	51.49
606.27	51.49
606.43	131.07
606.58	60.85
606.74	74.90
606.89	131.07
607.05	67.88
607.20	147.45
607.36	60.85
607.51	25.75
607.67	98.30
607.82	58.51
607.98	117.03
608.13	42.13
608.29	21.06
608.44	53.83
608.60	102.98
608.75	100.64
608.91	84.26
609.06	60.85
609.22	98.30
609.37	98.30
609.53	11.70
609.68	67.88
609.84	117.03
609.99	42.13
610.15	79.58
610.30	84.26
610.46	67.88
610.61	60.85
610.76	128.73
610.92	65.54
611.07	84.26
611.23	86.60
611.38	114.69
611.54	28.09
611.69	9.36
611.84	23.41
612.00	2.34
612.15	58.51
612.31	25.75
612.46	44.47
612.62	14.04
612.77	4.68
612.92	88.94
613.08	58.51
613.23	42.13
613.39	53.83
613.54	93.62
613.69	51.49
613.85	114.69
614.00	58.51
614.15	105.32
614.31	42.13
614.46	79.58
614.62	131.07
614.77	105.32
614.92	86.60
615.08	67.88
615.23	35.11
615.38	16.38
615.54	51.49
615.69	102.98
615.84	60.85
616.00	0.00
616.15	28.09
616.30	0.00
616.46	51.49
616.61	25.75
616.76	81.92
616.92	98.30
617.07	65.54
617.22	51.49
617.37	124.05
617.53	79.58
617.68	72.56
617.83	142.77
617.99	84.26
618.14	65.54
618.29	63.19
618.45	84.26
618.60	0.00
618.75	79.58
618.90	16.38
619.06	133.41
619.21	152.13
619.36	56.17
619.51	56.17
619.67	53.83
619.82	30.43
619.97	100.64
620.12	110.01
620.28	81.92
620.43	46.81
620.58	63.19
620.73	79.58
620.89	117.03
621.04	18.72
621.19	65.54
621.34	53.83
621.49	91.28
621.65	102.98
621.80	39.79
621.95	63.19
622.10	70.22
622.25	142.77
622.41	56.17
622.56	44.47
622.71	95.96
622.86	32.77
623.01	86.60
623.16	51.49
623.32	37.45
623.47	0.00
623.62	91.28
623.77	81.92
623.92	65.54
624.07	18.72
624.23	21.06
624.38	37.45
624.53	88.94
624.68	35.11
624.83	7.02
624.98	72.56
625.13	110.01
625.29	91.28
625.44	0.00
625.59	39.79
625.74	110.01
625.89	95.96
626.04	60.85
626.19	74.90
626.34	63.19
626.49	58.51
626.65	46.81
626.80	0.00
626.95	74.90
627.10	58.51
627.25	23.41
627.40	100.64
627.55	77.24
627.70	100.64
627.85	58.51
628.00	16.38
628.15	0.00
628.30	18.72
628.45	110.01
628.60	88.94
628.76	21.06
628.91	70.22
629.06	100.64
629.21	93.62
629.36	95.96
629.51	32.77
629.66	100.64
629.81	2.34
629.96	88.94
630.11	60.85
630.26	114.69
630.41	53.83
630.56	67.88
630.71	42.13
630.86	93.62
631.01	37.45
631.16	102.98
631.31	67.88
631.46	114.69
631.61	44.47
631.76	114.69
631.91	95.96
632.06	107.66
632.21	70.22
632.36	18.72
632.51	21.06
632.66	2.34
632.81	84.26
632.96	72.56
633.10	7.02
633.25	84.26
633.40	60.85
633.55	18.72
633.70	77.24
633.85	70.22
634.00	53.83
634.15	32.77
634.30	63.19
634.45	98.30
634.60	84.26
634.75	37.45
634.90	4.68
635.05	49.15
635.19	67.88
635.34	25.75
635.49	9.36
635.64	107.66
635.79	60.85
635.94	110.01
636.09	98.30
636.24	84.26
636.39	46.81
636.53	77.24
636.68	53.83
636.83	53.83
636.98	37.45
637.13	88.94
637.28	58.51
637.43	140.43
637.57	67.88
637.72	7.02
637.87	72.56
638.02	44.47
638.17	28.09
638.32	37.45
638.46	0.00
638.61	18.72
638.76	81.92
638.91	81.92
639.06	72.56
639.20	152.13
639.35	56.17
639.50	65.54
639.65	105.32
639.80	84.26
639.94	28.09
640.09	60.85
640.24	131.07
640.39	112.35
640.54	102.98
640.68	72.56
640.83	95.96
640.98	110.01
641.13	44.47
641.27	30.43
641.42	4.68
641.57	14.04
641.72	105.32
641.86	93.62
642.01	102.98
642.16	53.83
642.31	39.79
642.45	58.51
642.60	121.71
642.75	2.34
642.90	79.58
643.04	23.41
643.19	37.45
643.34	77.24
643.48	23.41
643.63	30.43
643.78	0.00
643.93	67.88
644.07	84.26
644.22	14.04
644.37	98.30
644.51	28.09
644.66	79.58
644.81	28.09
644.95	16.38
645.10	70.22
645.25	11.70
645.39	0.00
645.54	79.58
645.69	65.54
645.83	46.81
645.98	18.72
646.13	107.66
646.27	98.30
646.42	84.26
646.57	42.13
646.71	51.49
646.86	72.56
647.00	46.81
647.15	0.00
647.30	56.17
647.44	51.49
647.59	30.43
647.74	105.32
647.88	77.24
648.03	51.49
648.17	25.75
648.32	74.90
648.47	32.77
648.61	107.66
648.76	21.06
648.90	56.17
649.05	0.00
649.20	79.58
649.34	67.88
649.49	86.60
649.63	117.03
649.78	102.98
649.92	114.69
650.07	0.00
650.21	39.79
650.36	0.00
650.51	30.43
650.65	84.26
650.80	56.17
650.94	25.75
651.09	0.00
651.23	42.13
651.38	117.03
651.52	39.79
651.67	112.35
651.81	107.66
651.96	65.54
652.10	30.43
652.25	74.90
652.39	175.54
652.54	91.28
652.68	37.45
652.83	58.51
652.97	4.68
653.12	67.88
653.26	49.15
653.41	95.96
653.55	72.56
653.70	53.83
653.84	58.51
653.99	44.47
654.13	9.36
654.27	65.54
654.42	58.51
654.56	65.54
654.71	58.51
654.85	79.58
655.00	25.75
655.14	49.15
655.29	7.02
655.43	21.06
655.57	0.00
655.72	74.90
655.86	70.22
656.01	91.28
656.15	39.79
656.30	98.30
656.44	102.98
656.58	56.17
656.73	65.54
656.87	91.28
657.01	9.36
657.16	131.07
657.30	44.47
657.45	98.30
657.59	18.72
657.73	23.41
657.88	44.47
658.02	100.64
658.16	42.13
658.31	107.66
658.45	135.75
658.60	51.49
658.74	32.77
658.88	70.22
659.03	72.56
659.17	25.75
659.31	67.88
659.46	35.11
659.60	88.94
659.74	56.17
659.89	65.54
660.03	67.88
660.17	32.77
660.32	42.13
660.46	91.28
660.60	25.75
660.74	95.96
660.89	46.81
661.03	39.79
661.17	51.49
661.32	72.56
661.46	63.19
661.60	46.81
661.74	0.00
661.89	46.81
662.03	126.39
662.17	63.19
662.31	63.19
662.46	44.47
662.60	77.24
662.74	46.81
662.88	56.17
663.03	81.92
663.17	46.81
663.31	0.00
663.45	53.83
663.60	44.47
663.74	81.92
663.88	65.54
664.02	30.43
664.17	30.43
664.31	74.90
664.45	60.85
664.59	32.77
664.73	39.79
664.88	173.20
665.02	58.51
665.16	46.81
665.30	23.41
665.44	58.51
665.59	44.47
665.73	46.81
665.87	77.24
666.01	56.17
666.15	11.70
666.29	53.83
666.44	18.72
666.58	110.01
666.72	0.00
666.86	53.83
667.00	46.81
667.14	25.75
667.28	0.00
667.43	7.02
667.57	58.51
667.71	58.51
667.85	46.81
667.99	49.15
668.13	2.34
668.27	114.69
668.41	25.75
668.56	9.36
668.70	35.11
668.84	35.11
668.98	0.00
669.12	77.24
669.26	39.79
669.40	56.17
669.54	39.79
669.68	23.41
669.82	44.47
669.96	2.34
670.10	32.77
670.25	77.24
670.39	110.01
670.53	0.00
670.67	11.70
670.81	0.00
670.95	42.13
671.09	42.13
671.23	46.81
671.37	39.79
671.51	53.83
671.65	21.06
671.79	135.75
671.93	11.70
672.07	114.69
672.21	0.00
672.35	2.34
672.49	63.19
672.63	77.24
672.77	11.70
672.91	37.45
673.05	25.75
673.19	88.94
673.33	53.83
673.47	117.03
673.61	110.01
673.75	140.43
673.89	77.24
674.03	138.09
674.17	32.77
674.31	28.09
674.45	37.45
674.59	72.56
674.73	35.11
674.87	110.01
675.01	84.26
675.15	35.11
675.29	21.06
675.43	58.51
675.56	60.85
675.70	84.26
675.84	65.54
675.98	30.43
676.12	11.70
676.26	49.15
676.40	35.11
676.54	0.00
676.68	100.64
676.82	77.24
676.96	67.88
677.10	63.19
677.23	145.11
677.37	42.13
677.51	86.60
677.65	140.43
677.79	32.77
677.93	0.00
678.07	88.94
678.21	46.81
678.34	0.00
678.48	65.54
678.62	42.13
678.76	18.72
678.90	49.15
679.04	98.30
679.18	14.04
679.31	44.47
679.45	65.54
679.59	32.77
679.73	74.90
679.87	25.75
680.00	0.00
680.14	107.66
680.28	105.32
680.42	23.41
680.56	39.79
680.70	65.54
680.83	105.32
680.97	163.84
681.11	72.56
681.25	117.03
681.39	0.00
681.52	67.88
681.66	49.15
681.80	11.70
681.94	81.92
682.07	102.98
682.21	86.60
682.35	93.62
682.49	25.75
682.62	84.26
682.76	30.43
682.90	56.17
683.04	7.02
683.17	51.49
683.31	23.41
683.45	32.77
683.59	39.79
683.72	63.19
683.86	63.19
684.00	0.00
684.13	77.24
684.27	32.77
684.41	65.54
684.55	14.04
684.68	53.83
684.82	100.64
684.96	56.17
685.09	21.06
685.23	58.51
685.37	37.45
685.50	37.45
685.64	51.49
685.78	7.02
685.91	16.38
686.05	49.15
686.19	16.38
686.32	44.47
686.46	7.02
686.60	28.09
686.73	30.43
686.87	25.75
687.01	0.00
687.14	0.00
687.28	11.70
687.42	65.54
687.55	84.26
687.69	9.36
687.82	39.79
687.96	44.47
688.10	74.90
688.23	0.00
688.37	0.00
688.50	0.00
688.64	35.11
688.78	79.58
688.91	46.81
689.05	0.00
689.18	100.64
689.32	46.81
689.46	16.38
689.59	21.06
689.73	39.79
689.86	0.00
690.00	23.41
690.13	28.09
690.27	77.24
690.41	35.11
690.54	39.79
690.68	0.00
690.81	32.77
690.95	49.15
691.08	74.90
691.22	9.36
691.35	51.49
691.49	67.88
691.62	32.77
691.76	72.56
691.89	9.36
692.03	67.88
692.16	81.92
692.30	28.09
692.43	16.38
692.57	16.38
692.70	70.22
692.84	0.00
692.97	98.30
693.11	39.79
693.24	51.49
693.38	44.47
693.51	65.54
693.65	0.00
693.78	63.19
693.92	74.90
694.05	42.13
694.19	0.00
694.32	58.51
694.45	21.06
694.59	65.54
694.72	51.49
694.86	72.56
694.99	28.09
695.13	23.41
695.26	0.00
695.39	60.85
695.53	60.85
695.66	25.75
695.80	60.85
695.93	60.85
696.07	0.00
696.20	9.36
696.33	0.00
696.47	65.54
696.60	21.06
696.73	7.02
696.87	63.19
697.00	39.79
697.14	14.04
697.27	0.00
697.40	18.72
697.54	4.68
697.67	56.17
697.80	58.51
697.94	37.45
698.07	86.60
698.21	91.28
698.34	39.79
698.47	14.04
698.61	60.85
698.74	42.13
698.87	77.24
699.01	0.00
699.14	0.00
699.27	37.45
699.40	0.00
699.54	18.72
699.67	0.00
699.80	2.34
699.94	70.22
700.07	0.00
700.20	65.54
700.34	18.72
700.47	32.77
700.60	0.00
700.73	51.49
700.87	0.00
701.00	79.58
701.13	42.13
701.26	25.75
701.40	107.66
701.53	49.15
701.66	21.06
701.79	0.00
701.93	23.41
702.06	102.98
702.19	7.02
702.32	79.58
702.46	16.38
702.59	0.00
702.72	70.22
702.85	51.49
702.99	21.06
703.12	30.43
703.25	42.13
703.38	30.43
703.51	0.00
703.65	0.00
703.78	60.85
703.91	2.34
704.04	37.45
704.17	44.47
704.31	0.00
704.44	51.49
704.57	46.81
704.70	53.83
704.83	86.60
704.96	49.15
705.10	46.81
705.23	51.49
>>>>>End Processed Spectral Data<<<<<
