SpectraSuite Data File
++++++++++++++++++++++++++++++++++++
Date: Fri Oct 04 12:13:43 GMT-05:00 2013
User: price-jones
Dark Spectrum Present: No
Reference Spectrum Present: No
Number of Sampled Component Spectra: 1
Spectrometers: USB2+H05261
Integration Time (usec): 10000 (USB2+H05261)
Spectra Averaged: 1 (USB2+H05261)
Boxcar Smoothing: 0 (USB2+H05261)
Correct for Electrical Dark: No (USB2+H05261)
Strobe/Lamp Enabled: No (USB2+H05261)
Correct for Detector Non-linearity: No (USB2+H05261)
Correct for Stray Light: No (USB2+H05261)
Number of Pixels in Processed Spectrum: 2048
>>>>>Begin Processed Spectral Data<<<<<
365.73	4.68
365.92	4.68
366.12	4.68
366.32	0.00
366.52	0.00
366.72	0.00
366.91	0.00
367.11	0.00
367.31	0.00
367.51	0.00
367.70	0.00
367.90	0.00
368.10	0.00
368.30	0.00
368.49	0.00
368.69	0.00
368.89	0.00
369.09	0.00
369.28	0.00
369.48	0.00
369.68	0.00
369.87	0.00
370.07	0.00
370.27	0.00
370.47	0.00
370.66	0.00
370.86	0.00
371.06	0.00
371.25	16.38
371.45	0.00
371.65	0.00
371.84	0.00
372.04	0.00
372.24	0.00
372.44	0.00
372.63	0.00
372.83	0.00
373.03	42.13
373.22	4.68
373.42	30.43
373.62	0.00
373.81	70.22
374.01	23.41
374.21	9.36
374.40	4.68
374.60	35.11
374.79	60.85
374.99	16.38
375.19	30.43
375.38	39.79
375.58	28.09
375.78	0.00
375.97	98.30
376.17	72.56
376.37	84.26
376.56	91.28
376.76	72.56
376.95	0.00
377.15	0.00
377.35	67.88
377.54	86.60
377.74	0.00
377.93	39.79
378.13	51.49
378.33	16.38
378.52	0.00
378.72	0.00
378.91	11.70
379.11	46.81
379.31	88.94
379.50	0.00
379.70	49.15
379.89	28.09
380.09	0.00
380.28	11.70
380.48	32.77
380.68	77.24
380.87	117.03
381.07	11.70
381.26	23.41
381.46	0.00
381.65	0.00
381.85	79.58
382.04	0.00
382.24	35.11
382.43	0.00
382.63	70.22
382.83	0.00
383.02	37.45
383.22	72.56
383.41	0.00
383.61	42.13
383.80	46.81
384.00	65.54
384.19	25.75
384.39	72.56
384.58	4.68
384.78	37.45
384.97	0.00
385.17	0.00
385.36	0.00
385.56	67.88
385.75	51.49
385.95	42.13
386.14	42.13
386.34	0.00
386.53	58.51
386.72	72.56
386.92	88.94
387.11	0.00
387.31	0.00
387.50	65.54
387.70	21.06
387.89	56.17
388.09	37.45
388.28	21.06
388.48	11.70
388.67	14.04
388.86	4.68
389.06	0.00
389.25	16.38
389.45	65.54
389.64	0.00
389.84	0.00
390.03	2.34
390.22	4.68
390.42	72.56
390.61	110.01
390.81	42.13
391.00	0.00
391.19	0.00
391.39	14.04
391.58	86.60
391.78	0.00
391.97	58.51
392.16	70.22
392.36	4.68
392.55	53.83
392.75	32.77
392.94	0.00
393.13	0.00
393.33	23.41
393.52	81.92
393.71	46.81
393.91	21.06
394.10	0.00
394.29	65.54
394.49	16.38
394.68	37.45
394.88	46.81
395.07	39.79
395.26	30.43
395.46	0.00
395.65	44.47
395.84	28.09
396.04	56.17
396.23	23.41
396.42	28.09
396.62	100.64
396.81	18.72
397.00	11.70
397.19	65.54
397.39	74.90
397.58	39.79
397.77	7.02
397.97	18.72
398.16	100.64
398.35	18.72
398.55	0.00
398.74	14.04
398.93	58.51
399.12	42.13
399.32	32.77
399.51	42.13
399.70	18.72
399.90	42.13
400.09	0.00
400.28	14.04
400.47	14.04
400.67	0.00
400.86	4.68
401.05	105.32
401.24	4.68
401.44	32.77
401.63	42.13
401.82	0.00
402.01	4.68
402.21	23.41
402.40	7.02
402.59	63.19
402.78	32.77
402.97	58.51
403.17	93.62
403.36	4.68
403.55	0.00
403.74	53.83
403.93	9.36
404.13	65.54
404.32	86.60
404.51	46.81
404.70	0.00
404.89	58.51
405.09	30.43
405.28	4.68
405.47	46.81
405.66	63.19
405.85	58.51
406.05	49.15
406.24	0.00
406.43	44.47
406.62	86.60
406.81	42.13
407.00	74.90
407.20	77.24
407.39	44.47
407.58	63.19
407.77	93.62
407.96	30.43
408.15	0.00
408.34	21.06
408.54	46.81
408.73	74.90
408.92	121.71
409.11	51.49
409.30	32.77
409.49	9.36
409.68	21.06
409.87	23.41
410.07	105.32
410.26	25.75
410.45	0.00
410.64	79.58
410.83	4.68
411.02	0.00
411.21	25.75
411.40	37.45
411.59	14.04
411.78	49.15
411.98	28.09
412.17	46.81
412.36	51.49
412.55	16.38
412.74	4.68
412.93	35.11
413.12	11.70
413.31	11.70
413.50	86.60
413.69	42.13
413.88	79.58
414.07	65.54
414.26	4.68
414.45	9.36
414.64	42.13
414.83	46.81
415.02	2.34
415.22	49.15
415.41	138.09
415.60	4.68
415.79	0.00
415.98	42.13
416.17	23.41
416.36	0.00
416.55	46.81
416.74	25.75
416.93	0.00
417.12	28.09
417.31	51.49
417.50	0.00
417.69	18.72
417.88	11.70
418.07	58.51
418.26	37.45
418.45	53.83
418.64	7.02
418.83	16.38
419.02	28.09
419.21	30.43
419.39	119.37
419.58	49.15
419.77	0.00
419.96	95.96
420.15	39.79
420.34	0.00
420.53	0.00
420.72	58.51
420.91	39.79
421.10	23.41
421.29	56.17
421.48	79.58
421.67	42.13
421.86	0.00
422.05	25.75
422.24	0.00
422.43	25.75
422.61	100.64
422.80	49.15
422.99	23.41
423.18	81.92
423.37	107.66
423.56	18.72
423.75	7.02
423.94	0.00
424.13	74.90
424.32	28.09
424.50	4.68
424.69	9.36
424.88	44.47
425.07	53.83
425.26	44.47
425.45	72.56
425.64	42.13
425.83	37.45
426.01	93.62
426.20	63.19
426.39	77.24
426.58	4.68
426.77	23.41
426.96	74.90
427.15	65.54
427.33	72.56
427.52	42.13
427.71	0.00
427.90	42.13
428.09	60.85
428.28	60.85
428.46	42.13
428.65	86.60
428.84	42.13
429.03	23.41
429.22	67.88
429.40	0.00
429.59	0.00
429.78	81.92
429.97	11.70
430.16	25.75
430.34	46.81
430.53	32.77
430.72	23.41
430.91	95.96
431.10	51.49
431.28	39.79
431.47	0.00
431.66	44.47
431.85	91.28
432.03	25.75
432.22	58.51
432.41	0.00
432.60	0.00
432.79	65.54
432.97	23.41
433.16	0.00
433.35	0.00
433.54	72.56
433.72	77.24
433.91	98.30
434.10	65.54
434.28	58.51
434.47	25.75
434.66	74.90
434.85	0.00
435.03	49.15
435.22	0.00
435.41	60.85
435.59	0.00
435.78	93.62
435.97	2.34
436.16	0.00
436.34	0.00
436.53	0.00
436.72	30.43
436.90	30.43
437.09	105.32
437.28	56.17
437.46	18.72
437.65	39.79
437.84	72.56
438.02	91.28
438.21	25.75
438.40	63.19
438.58	42.13
438.77	168.52
438.96	37.45
439.14	51.49
439.33	58.51
439.52	32.77
439.70	9.36
439.89	0.00
440.08	16.38
440.26	42.13
440.45	46.81
440.63	0.00
440.82	11.70
441.01	32.77
441.19	95.96
441.38	79.58
441.57	93.62
441.75	60.85
441.94	11.70
442.12	70.22
442.31	56.17
442.50	39.79
442.68	37.45
442.87	46.81
443.05	67.88
443.24	11.70
443.43	86.60
443.61	65.54
443.80	0.00
443.98	79.58
444.17	46.81
444.35	0.00
444.54	79.58
444.73	0.00
444.91	152.13
445.10	23.41
445.28	0.00
445.47	0.00
445.65	70.22
445.84	114.69
446.02	102.98
446.21	53.83
446.39	63.19
446.58	37.45
446.77	102.98
446.95	35.11
447.14	63.19
447.32	56.17
447.51	21.06
447.69	25.75
447.88	32.77
448.06	39.79
448.25	14.04
448.43	77.24
448.62	0.00
448.80	0.00
448.99	42.13
449.17	7.02
449.36	32.77
449.54	0.00
449.73	39.79
449.91	42.13
450.10	133.41
450.28	65.54
450.46	32.77
450.65	58.51
450.83	35.11
451.02	49.15
451.20	58.51
451.39	30.43
451.57	51.49
451.76	49.15
451.94	14.04
452.13	44.47
452.31	53.83
452.49	32.77
452.68	39.79
452.86	56.17
453.05	56.17
453.23	70.22
453.42	30.43
453.60	72.56
453.78	105.32
453.97	72.56
454.15	140.43
454.34	114.69
454.52	131.07
454.70	0.00
454.89	18.72
455.07	28.09
455.26	35.11
455.44	79.58
455.62	102.98
455.81	42.13
455.99	88.94
456.17	21.06
456.36	28.09
456.54	53.83
456.73	49.15
456.91	84.26
457.09	11.70
457.28	28.09
457.46	42.13
457.64	77.24
457.83	74.90
458.01	28.09
458.19	30.43
458.38	58.51
458.56	23.41
458.74	4.68
458.93	74.90
459.11	44.47
459.29	53.83
459.48	65.54
459.66	37.45
459.84	121.71
460.03	30.43
460.21	53.83
460.39	51.49
460.57	112.35
460.76	44.47
460.94	58.51
461.12	65.54
461.31	79.58
461.49	124.05
461.67	23.41
461.85	56.17
462.04	4.68
462.22	100.64
462.40	18.72
462.59	0.00
462.77	16.38
462.95	91.28
463.13	46.81
463.32	23.41
463.50	28.09
463.68	39.79
463.86	98.30
464.05	67.88
464.23	126.39
464.41	0.00
464.59	88.94
464.78	4.68
464.96	84.26
465.14	46.81
465.32	67.88
465.50	25.75
465.69	77.24
465.87	77.24
466.05	32.77
466.23	42.13
466.41	32.77
466.60	105.32
466.78	72.56
466.96	23.41
467.14	105.32
467.32	4.68
467.51	86.60
467.69	11.70
467.87	74.90
468.05	32.77
468.23	53.83
468.41	23.41
468.60	88.94
468.78	70.22
468.96	70.22
469.14	51.49
469.32	56.17
469.50	65.54
469.69	7.02
469.87	72.56
470.05	37.45
470.23	98.30
470.41	65.54
470.59	16.38
470.77	56.17
470.95	35.11
471.14	60.85
471.32	93.62
471.50	161.50
471.68	0.00
471.86	114.69
472.04	72.56
472.22	21.06
472.40	70.22
472.58	98.30
472.77	9.36
472.95	46.81
473.13	91.28
473.31	4.68
473.49	44.47
473.67	32.77
473.85	65.54
474.03	0.00
474.21	32.77
474.39	86.60
474.57	35.11
474.75	77.24
474.93	30.43
475.12	60.85
475.30	67.88
475.48	124.05
475.66	95.96
475.84	28.09
476.02	51.49
476.20	35.11
476.38	70.22
476.56	88.94
476.74	9.36
476.92	46.81
477.10	63.19
477.28	37.45
477.46	7.02
477.64	60.85
477.82	93.62
478.00	53.83
478.18	126.39
478.36	67.88
478.54	9.36
478.72	51.49
478.90	56.17
479.08	30.43
479.26	51.49
479.44	51.49
479.62	72.56
479.80	102.98
479.98	18.72
480.16	117.03
480.34	81.92
480.52	126.39
480.70	81.92
480.88	107.66
481.06	77.24
481.24	32.77
481.41	133.41
481.59	39.79
481.77	65.54
481.95	63.19
482.13	102.98
482.31	42.13
482.49	32.77
482.67	42.13
482.85	39.79
483.03	28.09
483.21	67.88
483.39	65.54
483.57	126.39
483.74	84.26
483.92	30.43
484.10	0.00
484.28	88.94
484.46	72.56
484.64	74.90
484.82	142.77
485.00	67.88
485.18	72.56
485.35	102.98
485.53	72.56
485.71	0.00
485.89	11.70
486.07	37.45
486.25	95.96
486.43	51.49
486.61	72.56
486.78	58.51
486.96	147.45
487.14	102.98
487.32	105.32
487.50	46.81
487.68	49.15
487.85	35.11
488.03	39.79
488.21	77.24
488.39	112.35
488.57	98.30
488.75	124.05
488.92	107.66
489.10	105.32
489.28	72.56
489.46	142.77
489.64	81.92
489.81	154.48
489.99	39.79
490.17	46.81
490.35	86.60
490.53	56.17
490.70	126.39
490.88	105.32
491.06	39.79
491.24	86.60
491.41	86.60
491.59	51.49
491.77	86.60
491.95	79.58
492.13	124.05
492.30	74.90
492.48	131.07
492.66	70.22
492.84	98.30
493.01	42.13
493.19	84.26
493.37	98.30
493.54	65.54
493.72	49.15
493.90	93.62
494.08	35.11
494.25	51.49
494.43	65.54
494.61	56.17
494.79	93.62
494.96	74.90
495.14	37.45
495.32	56.17
495.49	60.85
495.67	18.72
495.85	114.69
496.02	30.43
496.20	133.41
496.38	88.94
496.55	32.77
496.73	28.09
496.91	124.05
497.09	98.30
497.26	124.05
497.44	145.11
497.62	30.43
497.79	67.88
497.97	91.28
498.14	67.88
498.32	84.26
498.50	28.09
498.67	60.85
498.85	107.66
499.03	114.69
499.20	102.98
499.38	0.00
499.56	91.28
499.73	128.73
499.91	86.60
500.08	86.60
500.26	63.19
500.44	65.54
500.61	138.09
500.79	77.24
500.97	173.20
501.14	112.35
501.32	77.24
501.49	84.26
501.67	72.56
501.84	86.60
502.02	44.47
502.20	81.92
502.37	70.22
502.55	121.71
502.72	149.79
502.90	124.05
503.07	81.92
503.25	126.39
503.43	110.01
503.60	117.03
503.78	110.01
503.95	107.66
504.13	42.13
504.30	25.75
504.48	44.47
504.65	152.13
504.83	56.17
505.01	65.54
505.18	67.88
505.36	58.51
505.53	79.58
505.71	142.77
505.88	42.13
506.06	102.98
506.23	46.81
506.41	58.51
506.58	135.75
506.76	70.22
506.93	32.77
507.11	37.45
507.28	18.72
507.46	77.24
507.63	131.07
507.81	135.75
507.98	140.43
508.16	79.58
508.33	100.64
508.50	100.64
508.68	30.43
508.85	28.09
509.03	74.90
509.20	11.70
509.38	114.69
509.55	46.81
509.73	107.66
509.90	84.26
510.08	107.66
510.25	140.43
510.42	175.54
510.60	124.05
510.77	30.43
510.95	126.39
511.12	65.54
511.30	93.62
511.47	119.37
511.64	63.19
511.82	56.17
511.99	79.58
512.17	163.84
512.34	107.66
512.51	145.11
512.69	86.60
512.86	102.98
513.04	49.15
513.21	117.03
513.38	191.92
513.56	131.07
513.73	128.73
513.90	46.81
514.08	156.82
514.25	23.41
514.43	102.98
514.60	110.01
514.77	49.15
514.95	42.13
515.12	84.26
515.29	98.30
515.47	95.96
515.64	124.05
515.81	58.51
515.99	53.83
516.16	93.62
516.33	124.05
516.51	86.60
516.68	168.52
516.85	35.11
517.03	112.35
517.20	84.26
517.37	21.06
517.54	93.62
517.72	72.56
517.89	93.62
518.06	46.81
518.24	135.75
518.41	67.88
518.58	56.17
518.75	110.01
518.93	121.71
519.10	95.96
519.27	105.32
519.45	91.28
519.62	93.62
519.79	91.28
519.96	56.17
520.14	86.60
520.31	74.90
520.48	42.13
520.65	114.69
520.83	65.54
521.00	77.24
521.17	46.81
521.34	63.19
521.52	88.94
521.69	46.81
521.86	95.96
522.03	119.37
522.20	58.51
522.38	110.01
522.55	56.17
522.72	121.71
522.89	23.41
523.07	74.90
523.24	93.62
523.41	51.49
523.58	79.58
523.75	58.51
523.92	88.94
524.10	28.09
524.27	86.60
524.44	67.88
524.61	81.92
524.78	14.04
524.96	56.17
525.13	100.64
525.30	70.22
525.47	79.58
525.64	21.06
525.81	86.60
525.98	88.94
526.16	39.79
526.33	30.43
526.50	86.60
526.67	102.98
526.84	53.83
527.01	46.81
527.18	114.69
527.36	100.64
527.53	72.56
527.70	91.28
527.87	60.85
528.04	121.71
528.21	88.94
528.38	131.07
528.55	102.98
528.72	84.26
528.89	63.19
529.07	21.06
529.24	117.03
529.41	91.28
529.58	105.32
529.75	91.28
529.92	98.30
530.09	93.62
530.26	79.58
530.43	18.72
530.60	88.94
530.77	119.37
530.94	126.39
531.11	77.24
531.28	63.19
531.46	121.71
531.63	107.66
531.80	58.51
531.97	105.32
532.14	46.81
532.31	37.45
532.48	77.24
532.65	70.22
532.82	107.66
532.99	112.35
533.16	46.81
533.33	93.62
533.50	58.51
533.67	46.81
533.84	121.71
534.01	51.49
534.18	70.22
534.35	42.13
534.52	46.81
534.69	60.85
534.86	28.09
535.03	93.62
535.20	88.94
535.37	0.00
535.54	77.24
535.71	88.94
535.88	72.56
536.05	65.54
536.22	84.26
536.38	100.64
536.55	159.16
536.72	49.15
536.89	105.32
537.06	70.22
537.23	114.69
537.40	77.24
537.57	4.68
537.74	79.58
537.91	112.35
538.08	128.73
538.25	152.13
538.42	105.32
538.59	119.37
538.75	117.03
538.92	81.92
539.09	60.85
539.26	107.66
539.43	46.81
539.60	28.09
539.77	112.35
539.94	32.77
540.11	74.90
540.28	112.35
540.44	110.01
540.61	131.07
540.78	63.19
540.95	91.28
541.12	140.43
541.29	138.09
541.46	74.90
541.62	145.11
541.79	149.79
541.96	65.54
542.13	98.30
542.30	88.94
542.47	0.00
542.63	67.88
542.80	140.43
542.97	142.77
543.14	110.01
543.31	133.41
543.48	133.41
543.64	58.51
543.81	86.60
543.98	42.13
544.15	32.77
544.32	49.15
544.48	70.22
544.65	70.22
544.82	25.75
544.99	56.17
545.16	107.66
545.32	53.83
545.49	46.81
545.66	93.62
545.83	72.56
546.00	65.54
546.16	88.94
546.33	107.66
546.50	102.98
546.67	152.13
546.83	149.79
547.00	121.71
547.17	81.92
547.34	70.22
547.50	56.17
547.67	84.26
547.84	42.13
548.00	84.26
548.17	98.30
548.34	67.88
548.51	79.58
548.67	102.98
548.84	42.13
549.01	16.38
549.18	32.77
549.34	53.83
549.51	117.03
549.68	110.01
549.84	114.69
550.01	67.88
550.18	84.26
550.34	72.56
550.51	91.28
550.68	102.98
550.84	98.30
551.01	25.75
551.18	117.03
551.34	37.45
551.51	53.83
551.68	112.35
551.84	84.26
552.01	105.32
552.18	67.88
552.34	98.30
552.51	39.79
552.68	60.85
552.84	86.60
553.01	74.90
553.18	119.37
553.34	98.30
553.51	84.26
553.67	131.07
553.84	74.90
554.01	21.06
554.17	49.15
554.34	112.35
554.51	145.11
554.67	86.60
554.84	84.26
555.00	23.41
555.17	74.90
555.33	156.82
555.50	84.26
555.67	0.00
555.83	74.90
556.00	67.88
556.16	91.28
556.33	86.60
556.50	23.41
556.66	44.47
556.83	58.51
556.99	14.04
557.16	84.26
557.32	81.92
557.49	72.56
557.65	91.28
557.82	32.77
557.98	98.30
558.15	65.54
558.32	53.83
558.48	149.79
558.65	53.83
558.81	65.54
558.98	107.66
559.14	100.64
559.31	74.90
559.47	0.00
559.64	53.83
559.80	126.39
559.97	60.85
560.13	72.56
560.30	56.17
560.46	105.32
560.63	93.62
560.79	49.15
560.96	131.07
561.12	46.81
561.29	93.62
561.45	46.81
561.61	86.60
561.78	117.03
561.94	112.35
562.11	114.69
562.27	110.01
562.44	49.15
562.60	114.69
562.77	110.01
562.93	133.41
563.10	70.22
563.26	81.92
563.42	60.85
563.59	72.56
563.75	95.96
563.92	91.28
564.08	77.24
564.24	114.69
564.41	177.88
564.57	84.26
564.74	126.39
564.90	86.60
565.07	67.88
565.23	161.50
565.39	77.24
565.56	191.92
565.72	58.51
565.88	56.17
566.05	53.83
566.21	100.64
566.38	133.41
566.54	72.56
566.70	63.19
566.87	58.51
567.03	102.98
567.19	117.03
567.36	180.22
567.52	67.88
567.68	84.26
567.85	102.98
568.01	0.00
568.17	14.04
568.34	81.92
568.50	16.38
568.66	79.58
568.83	86.60
568.99	81.92
569.15	70.22
569.32	110.01
569.48	112.35
569.64	114.69
569.81	65.54
569.97	53.83
570.13	70.22
570.30	67.88
570.46	23.41
570.62	63.19
570.78	44.47
570.95	23.41
571.11	114.69
571.27	56.17
571.43	28.09
571.60	88.94
571.76	84.26
571.92	58.51
572.09	60.85
572.25	93.62
572.41	121.71
572.57	53.83
572.74	65.54
572.90	11.70
573.06	0.00
573.22	67.88
573.38	110.01
573.55	51.49
573.71	142.77
573.87	25.75
574.03	32.77
574.20	117.03
574.36	117.03
574.52	53.83
574.68	72.56
574.84	21.06
575.01	16.38
575.17	84.26
575.33	84.26
575.49	74.90
575.65	107.66
575.82	51.49
575.98	51.49
576.14	84.26
576.30	117.03
576.46	93.62
576.62	44.47
576.79	121.71
576.95	93.62
577.11	51.49
577.27	133.41
577.43	138.09
577.59	105.32
577.75	65.54
577.92	63.19
578.08	100.64
578.24	131.07
578.40	93.62
578.56	49.15
578.72	84.26
578.88	25.75
579.04	32.77
579.21	60.85
579.37	88.94
579.53	58.51
579.69	42.13
579.85	25.75
580.01	74.90
580.17	70.22
580.33	77.24
580.49	44.47
580.65	49.15
580.82	81.92
580.98	102.98
581.14	156.82
581.30	58.51
581.46	53.83
581.62	72.56
581.78	100.64
581.94	84.26
582.10	107.66
582.26	124.05
582.42	100.64
582.58	37.45
582.74	60.85
582.90	84.26
583.06	81.92
583.22	30.43
583.38	152.13
583.54	114.69
583.70	51.49
583.86	180.22
584.02	77.24
584.18	117.03
584.34	98.30
584.50	117.03
584.66	114.69
584.82	93.62
584.98	32.77
585.14	56.17
585.30	91.28
585.46	60.85
585.62	4.68
585.78	74.90
585.94	124.05
586.10	49.15
586.26	39.79
586.42	126.39
586.58	105.32
586.74	63.19
586.90	72.56
587.06	93.62
587.22	56.17
587.38	88.94
587.54	60.85
587.70	70.22
587.86	63.19
588.02	51.49
588.18	88.94
588.34	49.15
588.49	102.98
588.65	0.00
588.81	37.45
588.97	93.62
589.13	98.30
589.29	91.28
589.45	53.83
589.61	51.49
589.77	60.85
589.93	21.06
590.08	74.90
590.24	51.49
590.40	93.62
590.56	93.62
590.72	84.26
590.88	72.56
591.04	37.45
591.20	28.09
591.35	53.83
591.51	53.83
591.67	60.85
591.83	67.88
591.99	79.58
592.15	65.54
592.31	0.00
592.46	72.56
592.62	9.36
592.78	100.64
592.94	95.96
593.10	72.56
593.26	51.49
593.41	98.30
593.57	154.48
593.73	93.62
593.89	77.24
594.05	79.58
594.20	110.01
594.36	107.66
594.52	58.51
594.68	67.88
594.84	84.26
594.99	119.37
595.15	39.79
595.31	37.45
595.47	86.60
595.62	18.72
595.78	95.96
595.94	65.54
596.10	35.11
596.25	35.11
596.41	25.75
596.57	112.35
596.73	102.98
596.88	93.62
597.04	11.70
597.20	60.85
597.36	21.06
597.51	86.60
597.67	79.58
597.83	95.96
597.99	126.39
598.14	51.49
598.30	72.56
598.46	0.00
598.61	30.43
598.77	53.83
598.93	35.11
599.09	81.92
599.24	32.77
599.40	60.85
599.56	56.17
599.71	81.92
599.87	126.39
600.03	58.51
600.18	63.19
600.34	67.88
600.50	77.24
600.65	102.98
600.81	74.90
600.97	16.38
601.12	131.07
601.28	84.26
601.44	138.09
601.59	16.38
601.75	117.03
601.91	44.47
602.06	42.13
602.22	81.92
602.37	67.88
602.53	42.13
602.69	124.05
602.84	105.32
603.00	86.60
603.16	63.19
603.31	46.81
603.47	121.71
603.62	119.37
603.78	117.03
603.94	30.43
604.09	93.62
604.25	105.32
604.40	95.96
604.56	39.79
604.71	46.81
604.87	72.56
605.03	88.94
605.18	88.94
605.34	63.19
605.49	93.62
605.65	2.34
605.80	72.56
605.96	16.38
606.12	105.32
606.27	88.94
606.43	86.60
606.58	37.45
606.74	98.30
606.89	56.17
607.05	56.17
607.20	74.90
607.36	60.85
607.51	56.17
607.67	30.43
607.82	44.47
607.98	28.09
608.13	58.51
608.29	18.72
608.44	58.51
608.60	32.77
608.75	93.62
608.91	121.71
609.06	0.00
609.22	60.85
609.37	117.03
609.53	107.66
609.68	4.68
609.84	100.64
609.99	67.88
610.15	25.75
610.30	18.72
610.46	138.09
610.61	18.72
610.76	35.11
610.92	88.94
611.07	4.68
611.23	98.30
611.38	77.24
611.54	60.85
611.69	56.17
611.84	126.39
612.00	126.39
612.15	25.75
612.31	53.83
612.46	79.58
612.62	100.64
612.77	159.16
612.92	77.24
613.08	58.51
613.23	60.85
613.39	91.28
613.54	121.71
613.69	65.54
613.85	100.64
614.00	60.85
614.15	102.98
614.31	37.45
614.46	2.34
614.62	79.58
614.77	49.15
614.92	100.64
615.08	84.26
615.23	37.45
615.38	74.90
615.54	67.88
615.69	46.81
615.84	74.90
616.00	74.90
616.15	51.49
616.30	86.60
616.46	88.94
616.61	74.90
616.76	0.00
616.92	18.72
617.07	58.51
617.22	65.54
617.37	56.17
617.53	86.60
617.68	51.49
617.83	70.22
617.99	44.47
618.14	88.94
618.29	67.88
618.45	14.04
618.60	32.77
618.75	0.00
618.90	67.88
619.06	25.75
619.21	91.28
619.36	121.71
619.51	39.79
619.67	79.58
619.82	51.49
619.97	65.54
620.12	2.34
620.28	44.47
620.43	79.58
620.58	79.58
620.73	0.00
620.89	53.83
621.04	49.15
621.19	0.00
621.34	42.13
621.49	70.22
621.65	72.56
621.80	44.47
621.95	60.85
622.10	32.77
622.25	147.45
622.41	35.11
622.56	93.62
622.71	110.01
622.86	60.85
623.01	77.24
623.16	51.49
623.32	46.81
623.47	60.85
623.62	117.03
623.77	0.00
623.92	30.43
624.07	70.22
624.23	72.56
624.38	30.43
624.53	28.09
624.68	11.70
624.83	67.88
624.98	91.28
625.13	67.88
625.29	88.94
625.44	67.88
625.59	46.81
625.74	0.00
625.89	14.04
626.04	79.58
626.19	49.15
626.34	95.96
626.49	112.35
626.65	156.82
626.80	49.15
626.95	114.69
627.10	88.94
627.25	56.17
627.40	42.13
627.55	21.06
627.70	86.60
627.85	56.17
628.00	25.75
628.15	74.90
628.30	56.17
628.45	32.77
628.60	35.11
628.76	70.22
628.91	60.85
629.06	58.51
629.21	46.81
629.36	39.79
629.51	58.51
629.66	56.17
629.81	9.36
629.96	9.36
630.11	67.88
630.26	46.81
630.41	60.85
630.56	77.24
630.71	28.09
630.86	18.72
631.01	18.72
631.16	21.06
631.31	63.19
631.46	81.92
631.61	23.41
631.76	91.28
631.91	98.30
632.06	39.79
632.21	60.85
632.36	0.00
632.51	124.05
632.66	84.26
632.81	67.88
632.96	16.38
633.10	58.51
633.25	98.30
633.40	0.00
633.55	42.13
633.70	70.22
633.85	21.06
634.00	53.83
634.15	0.00
634.30	102.98
634.45	39.79
634.60	0.00
634.75	53.83
634.90	14.04
635.05	51.49
635.19	84.26
635.34	86.60
635.49	46.81
635.64	2.34
635.79	86.60
635.94	58.51
636.09	56.17
636.24	0.00
636.39	9.36
636.53	7.02
636.68	51.49
636.83	51.49
636.98	107.66
637.13	58.51
637.28	79.58
637.43	18.72
637.57	0.00
637.72	74.90
637.87	39.79
638.02	14.04
638.17	86.60
638.32	35.11
638.46	67.88
638.61	16.38
638.76	95.96
638.91	53.83
639.06	60.85
639.20	88.94
639.35	91.28
639.50	84.26
639.65	46.81
639.80	65.54
639.94	60.85
640.09	65.54
640.24	9.36
640.39	58.51
640.54	60.85
640.68	28.09
640.83	65.54
640.98	128.73
641.13	49.15
641.27	110.01
641.42	44.47
641.57	14.04
641.72	9.36
641.86	49.15
642.01	35.11
642.16	51.49
642.31	16.38
642.45	63.19
642.60	72.56
642.75	93.62
642.90	67.88
643.04	93.62
643.19	23.41
643.34	2.34
643.48	86.60
643.63	30.43
643.78	72.56
643.93	42.13
644.07	81.92
644.22	74.90
644.37	23.41
644.51	102.98
644.66	16.38
644.81	93.62
644.95	84.26
645.10	51.49
645.25	25.75
645.39	72.56
645.54	102.98
645.69	95.96
645.83	110.01
645.98	67.88
646.13	79.58
646.27	49.15
646.42	35.11
646.57	70.22
646.71	98.30
646.86	37.45
647.00	56.17
647.15	0.00
647.30	72.56
647.44	86.60
647.59	25.75
647.74	77.24
647.88	21.06
648.03	25.75
648.17	35.11
648.32	42.13
648.47	65.54
648.61	0.00
648.76	44.47
648.90	14.04
649.05	23.41
649.20	30.43
649.34	18.72
649.49	51.49
649.63	23.41
649.78	72.56
649.92	74.90
650.07	93.62
650.21	84.26
650.36	9.36
650.51	18.72
650.65	53.83
650.80	46.81
650.94	42.13
651.09	11.70
651.23	25.75
651.38	37.45
651.52	56.17
651.67	35.11
651.81	65.54
651.96	0.00
652.10	16.38
652.25	72.56
652.39	39.79
652.54	18.72
652.68	51.49
652.83	25.75
652.97	0.00
653.12	39.79
653.26	91.28
653.41	28.09
653.55	0.00
653.70	86.60
653.84	72.56
653.99	30.43
654.13	49.15
654.27	65.54
654.42	30.43
654.56	4.68
654.71	11.70
654.85	86.60
655.00	37.45
655.14	0.00
655.29	44.47
655.43	7.02
655.57	0.00
655.72	0.00
655.86	2.34
656.01	60.85
656.15	11.70
656.30	0.00
656.44	35.11
656.58	42.13
656.73	30.43
656.87	95.96
657.01	4.68
657.16	2.34
657.30	39.79
657.45	0.00
657.59	53.83
657.73	0.00
657.88	72.56
658.02	25.75
658.16	21.06
658.31	44.47
658.45	58.51
658.60	23.41
658.74	37.45
658.88	67.88
659.03	58.51
659.17	0.00
659.31	35.11
659.46	58.51
659.60	88.94
659.74	37.45
659.89	23.41
660.03	93.62
660.17	16.38
660.32	51.49
660.46	0.00
660.60	23.41
660.74	49.15
660.89	4.68
661.03	42.13
661.17	53.83
661.32	77.24
661.46	86.60
661.60	53.83
661.74	135.75
661.89	46.81
662.03	53.83
662.17	11.70
662.31	39.79
662.46	0.00
662.60	60.85
662.74	49.15
662.88	84.26
663.03	9.36
663.17	28.09
663.31	53.83
663.45	84.26
663.60	30.43
663.74	79.58
663.88	14.04
664.02	63.19
664.17	51.49
664.31	60.85
664.45	51.49
664.59	35.11
664.73	53.83
664.88	86.60
665.02	67.88
665.16	84.26
665.30	46.81
665.44	91.28
665.59	100.64
665.73	72.56
665.87	77.24
666.01	60.85
666.15	44.47
666.29	25.75
666.44	51.49
666.58	58.51
666.72	18.72
666.86	51.49
667.00	0.00
667.14	74.90
667.28	28.09
667.43	81.92
667.57	105.32
667.71	77.24
667.85	112.35
667.99	79.58
668.13	88.94
668.27	32.77
668.41	28.09
668.56	86.60
668.70	91.28
668.84	23.41
668.98	51.49
669.12	32.77
669.26	0.00
669.40	39.79
669.54	44.47
669.68	56.17
669.82	110.01
669.96	46.81
670.10	77.24
670.25	25.75
670.39	0.00
670.53	88.94
670.67	100.64
670.81	74.90
670.95	107.66
671.09	93.62
671.23	93.62
671.37	2.34
671.51	35.11
671.65	0.00
671.79	56.17
671.93	37.45
672.07	0.00
672.21	18.72
672.35	21.06
672.49	0.00
672.63	114.69
672.77	44.47
672.91	0.00
673.05	0.00
673.19	18.72
673.33	95.96
673.47	46.81
673.61	16.38
673.75	0.00
673.89	2.34
674.03	56.17
674.17	42.13
674.31	56.17
674.45	65.54
674.59	60.85
674.73	23.41
674.87	79.58
675.01	105.32
675.15	117.03
675.29	56.17
675.43	58.51
675.56	79.58
675.70	25.75
675.84	35.11
675.98	0.00
676.12	30.43
676.26	60.85
676.40	18.72
676.54	46.81
676.68	25.75
676.82	35.11
676.96	70.22
677.10	0.00
677.23	86.60
677.37	95.96
677.51	86.60
677.65	65.54
677.79	16.38
677.93	63.19
678.07	93.62
678.21	67.88
678.34	84.26
678.48	14.04
678.62	46.81
678.76	63.19
678.90	67.88
679.04	74.90
679.18	28.09
679.31	79.58
679.45	32.77
679.59	42.13
679.73	44.47
679.87	23.41
680.00	81.92
680.14	30.43
680.28	63.19
680.42	105.32
680.56	60.85
680.70	58.51
680.83	107.66
680.97	105.32
681.11	44.47
681.25	49.15
681.39	18.72
681.52	60.85
681.66	58.51
681.80	107.66
681.94	112.35
682.07	30.43
682.21	16.38
682.35	117.03
682.49	7.02
682.62	70.22
682.76	30.43
682.90	37.45
683.04	72.56
683.17	42.13
683.31	32.77
683.45	65.54
683.59	81.92
683.72	4.68
683.86	112.35
684.00	0.00
684.13	95.96
684.27	0.00
684.41	32.77
684.55	16.38
684.68	37.45
684.82	0.00
684.96	42.13
685.09	70.22
685.23	44.47
685.37	18.72
685.50	0.00
685.64	44.47
685.78	51.49
685.91	4.68
686.05	18.72
686.19	121.71
686.32	14.04
686.46	4.68
686.60	21.06
686.73	102.98
686.87	58.51
687.01	21.06
687.14	11.70
687.28	0.00
687.42	7.02
687.55	37.45
687.69	58.51
687.82	25.75
687.96	23.41
688.10	0.00
688.23	39.79
688.37	23.41
688.50	42.13
688.64	79.58
688.78	25.75
688.91	0.00
689.05	2.34
689.18	51.49
689.32	16.38
689.46	25.75
689.59	42.13
689.73	7.02
689.86	35.11
690.00	107.66
690.13	72.56
690.27	51.49
690.41	72.56
690.54	65.54
690.68	51.49
690.81	56.17
690.95	53.83
691.08	14.04
691.22	11.70
691.35	81.92
691.49	72.56
691.62	42.13
691.76	72.56
691.89	0.00
692.03	65.54
692.16	25.75
692.30	14.04
692.43	67.88
692.57	124.05
692.70	0.00
692.84	105.32
692.97	0.00
693.11	35.11
693.24	39.79
693.38	32.77
693.51	25.75
693.65	28.09
693.78	0.00
693.92	81.92
694.05	42.13
694.19	53.83
694.32	35.11
694.45	30.43
694.59	53.83
694.72	0.00
694.86	72.56
694.99	30.43
695.13	11.70
695.26	23.41
695.39	9.36
695.53	4.68
695.66	49.15
695.80	39.79
695.93	100.64
696.07	58.51
696.20	18.72
696.33	88.94
696.47	4.68
696.60	0.00
696.73	39.79
696.87	11.70
697.00	60.85
697.14	0.00
697.27	18.72
697.40	79.58
697.54	0.00
697.67	110.01
697.80	9.36
697.94	0.00
698.07	18.72
698.21	51.49
698.34	124.05
698.47	79.58
698.61	23.41
698.74	0.00
698.87	7.02
699.01	42.13
699.14	28.09
699.27	35.11
699.40	58.51
699.54	28.09
699.67	35.11
699.80	77.24
699.94	2.34
700.07	39.79
700.20	25.75
700.34	4.68
700.47	39.79
700.60	53.83
700.73	100.64
700.87	56.17
701.00	131.07
701.13	2.34
701.26	9.36
701.40	74.90
701.53	7.02
701.66	14.04
701.79	28.09
701.93	58.51
702.06	11.70
702.19	28.09
702.32	0.00
702.46	46.81
702.59	74.90
702.72	21.06
702.85	46.81
702.99	110.01
703.12	25.75
703.25	4.68
703.38	46.81
703.51	0.00
703.65	42.13
703.78	0.00
703.91	156.82
704.04	84.26
704.17	0.00
704.31	39.79
704.44	86.60
704.57	91.28
704.70	72.56
704.83	16.38
704.96	44.47
705.10	0.00
705.23	0.00
>>>>>End Processed Spectral Data<<<<<
