SpectraSuite Data File
++++++++++++++++++++++++++++++++++++
Date: Fri Oct 04 12:13:37 GMT-05:00 2013
User: price-jones
Dark Spectrum Present: No
Reference Spectrum Present: No
Number of Sampled Component Spectra: 1
Spectrometers: USB2+H05261
Integration Time (usec): 10000 (USB2+H05261)
Spectra Averaged: 1 (USB2+H05261)
Boxcar Smoothing: 0 (USB2+H05261)
Correct for Electrical Dark: No (USB2+H05261)
Strobe/Lamp Enabled: No (USB2+H05261)
Correct for Detector Non-linearity: No (USB2+H05261)
Correct for Stray Light: No (USB2+H05261)
Number of Pixels in Processed Spectrum: 2048
>>>>>Begin Processed Spectral Data<<<<<
365.73	25.75
365.92	25.75
366.12	25.75
366.32	0.00
366.52	0.00
366.72	0.00
366.91	0.00
367.11	0.00
367.31	0.00
367.51	0.00
367.70	0.00
367.90	0.00
368.10	0.00
368.30	0.00
368.49	0.00
368.69	0.00
368.89	0.00
369.09	0.00
369.28	0.00
369.48	0.00
369.68	0.00
369.87	0.00
370.07	0.00
370.27	0.00
370.47	0.00
370.66	0.00
370.86	16.38
371.06	0.00
371.25	0.00
371.45	0.00
371.65	0.00
371.84	0.00
372.04	18.72
372.24	0.00
372.44	0.00
372.63	0.00
372.83	0.00
373.03	14.04
373.22	0.00
373.42	35.11
373.62	60.85
373.81	0.00
374.01	16.38
374.21	16.38
374.40	0.00
374.60	44.47
374.79	63.19
374.99	0.00
375.19	58.51
375.38	60.85
375.58	86.60
375.78	42.13
375.97	67.88
376.17	44.47
376.37	16.38
376.56	21.06
376.76	23.41
376.95	0.00
377.15	28.09
377.35	28.09
377.54	11.70
377.74	0.00
377.93	53.83
378.13	4.68
378.33	23.41
378.52	65.54
378.72	98.30
378.91	112.35
379.11	58.51
379.31	0.00
379.50	9.36
379.70	0.00
379.89	28.09
380.09	0.00
380.28	49.15
380.48	0.00
380.68	0.00
380.87	0.00
381.07	42.13
381.26	0.00
381.46	0.00
381.65	0.00
381.85	14.04
382.04	18.72
382.24	25.75
382.43	74.90
382.63	0.00
382.83	18.72
383.02	2.34
383.22	0.00
383.41	0.00
383.61	0.00
383.80	0.00
384.00	21.06
384.19	21.06
384.39	56.17
384.58	77.24
384.78	4.68
384.97	39.79
385.17	11.70
385.36	23.41
385.56	28.09
385.75	16.38
385.95	74.90
386.14	25.75
386.34	65.54
386.53	0.00
386.72	0.00
386.92	4.68
387.11	0.00
387.31	30.43
387.50	0.00
387.70	28.09
387.89	63.19
388.09	4.68
388.28	18.72
388.48	0.00
388.67	0.00
388.86	0.00
389.06	28.09
389.25	0.00
389.45	60.85
389.64	9.36
389.84	65.54
390.03	0.00
390.22	18.72
390.42	16.38
390.61	49.15
390.81	32.77
391.00	0.00
391.19	0.00
391.39	11.70
391.58	18.72
391.78	86.60
391.97	0.00
392.16	18.72
392.36	110.01
392.55	30.43
392.75	63.19
392.94	0.00
393.13	79.58
393.33	72.56
393.52	74.90
393.71	0.00
393.91	0.00
394.10	4.68
394.29	28.09
394.49	0.00
394.68	4.68
394.88	0.00
395.07	28.09
395.26	77.24
395.46	56.17
395.65	37.45
395.84	0.00
396.04	0.00
396.23	70.22
396.42	46.81
396.62	35.11
396.81	0.00
397.00	0.00
397.19	0.00
397.39	0.00
397.58	67.88
397.77	46.81
397.97	0.00
398.16	0.00
398.35	21.06
398.55	56.17
398.74	32.77
398.93	117.03
399.12	9.36
399.32	0.00
399.51	37.45
399.70	0.00
399.90	42.13
400.09	0.00
400.28	7.02
400.47	9.36
400.67	0.00
400.86	2.34
401.05	84.26
401.24	4.68
401.44	23.41
401.63	11.70
401.82	9.36
402.01	58.51
402.21	35.11
402.40	60.85
402.59	72.56
402.78	25.75
402.97	110.01
403.17	4.68
403.36	2.34
403.55	51.49
403.74	58.51
403.93	0.00
404.13	2.34
404.32	7.02
404.51	0.00
404.70	23.41
404.89	81.92
405.09	67.88
405.28	58.51
405.47	4.68
405.66	119.37
405.85	39.79
406.05	70.22
406.24	110.01
406.43	0.00
406.62	65.54
406.81	56.17
407.00	23.41
407.20	37.45
407.39	0.00
407.58	9.36
407.77	70.22
407.96	0.00
408.15	35.11
408.34	11.70
408.54	0.00
408.73	0.00
408.92	91.28
409.11	105.32
409.30	81.92
409.49	23.41
409.68	49.15
409.87	18.72
410.07	32.77
410.26	39.79
410.45	28.09
410.64	0.00
410.83	67.88
411.02	154.48
411.21	0.00
411.40	0.00
411.59	9.36
411.78	7.02
411.98	25.75
412.17	14.04
412.36	30.43
412.55	77.24
412.74	95.96
412.93	11.70
413.12	51.49
413.31	16.38
413.50	28.09
413.69	32.77
413.88	42.13
414.07	18.72
414.26	32.77
414.45	35.11
414.64	7.02
414.83	49.15
415.02	37.45
415.22	39.79
415.41	35.11
415.60	7.02
415.79	51.49
415.98	0.00
416.17	107.66
416.36	37.45
416.55	74.90
416.74	39.79
416.93	154.48
417.12	2.34
417.31	74.90
417.50	16.38
417.69	16.38
417.88	23.41
418.07	23.41
418.26	46.81
418.45	39.79
418.64	49.15
418.83	0.00
419.02	30.43
419.21	37.45
419.39	14.04
419.58	72.56
419.77	0.00
419.96	32.77
420.15	98.30
420.34	39.79
420.53	0.00
420.72	25.75
420.91	16.38
421.10	102.98
421.29	84.26
421.48	86.60
421.67	14.04
421.86	60.85
422.05	9.36
422.24	4.68
422.43	35.11
422.61	65.54
422.80	35.11
422.99	65.54
423.18	72.56
423.37	65.54
423.56	9.36
423.75	21.06
423.94	35.11
424.13	74.90
424.32	88.94
424.50	37.45
424.69	32.77
424.88	114.69
425.07	70.22
425.26	131.07
425.45	25.75
425.64	28.09
425.83	46.81
426.01	11.70
426.20	0.00
426.39	44.47
426.58	74.90
426.77	58.51
426.96	28.09
427.15	49.15
427.33	44.47
427.52	119.37
427.71	72.56
427.90	35.11
428.09	77.24
428.28	42.13
428.46	21.06
428.65	9.36
428.84	56.17
429.03	0.00
429.22	46.81
429.40	0.00
429.59	65.54
429.78	100.64
429.97	37.45
430.16	145.11
430.34	28.09
430.53	56.17
430.72	9.36
430.91	23.41
431.10	0.00
431.28	63.19
431.47	0.00
431.66	65.54
431.85	51.49
432.03	0.00
432.22	77.24
432.41	42.13
432.60	0.00
432.79	86.60
432.97	25.75
433.16	98.30
433.35	0.00
433.54	0.00
433.72	35.11
433.91	91.28
434.10	65.54
434.28	84.26
434.47	49.15
434.66	51.49
434.85	58.51
435.03	51.49
435.22	42.13
435.41	79.58
435.59	11.70
435.78	42.13
435.97	56.17
436.16	18.72
436.34	77.24
436.53	95.96
436.72	49.15
436.90	0.00
437.09	81.92
437.28	93.62
437.46	0.00
437.65	93.62
437.84	65.54
438.02	56.17
438.21	39.79
438.40	0.00
438.58	14.04
438.77	79.58
438.96	39.79
439.14	77.24
439.33	30.43
439.52	88.94
439.70	35.11
439.89	32.77
440.08	7.02
440.26	70.22
440.45	112.35
440.63	42.13
440.82	81.92
441.01	98.30
441.19	70.22
441.38	0.00
441.57	100.64
441.75	56.17
441.94	30.43
442.12	46.81
442.31	88.94
442.50	86.60
442.68	65.54
442.87	70.22
443.05	77.24
443.24	28.09
443.43	100.64
443.61	60.85
443.80	67.88
443.98	35.11
444.17	91.28
444.35	70.22
444.54	39.79
444.73	114.69
444.91	88.94
445.10	65.54
445.28	95.96
445.47	65.54
445.65	23.41
445.84	49.15
446.02	58.51
446.21	0.00
446.39	16.38
446.58	67.88
446.77	42.13
446.95	23.41
447.14	46.81
447.32	14.04
447.51	0.00
447.69	60.85
447.88	114.69
448.06	14.04
448.25	53.83
448.43	107.66
448.62	121.71
448.80	67.88
448.99	46.81
449.17	53.83
449.36	63.19
449.54	53.83
449.73	56.17
449.91	18.72
450.10	11.70
450.28	35.11
450.46	79.58
450.65	124.05
450.83	23.41
451.02	35.11
451.20	16.38
451.39	65.54
451.57	110.01
451.76	4.68
451.94	56.17
452.13	23.41
452.31	0.00
452.49	23.41
452.68	58.51
452.86	0.00
453.05	46.81
453.23	124.05
453.42	42.13
453.60	18.72
453.78	72.56
453.97	39.79
454.15	70.22
454.34	0.00
454.52	11.70
454.70	23.41
454.89	18.72
455.07	37.45
455.26	35.11
455.44	0.00
455.62	107.66
455.81	35.11
455.99	11.70
456.17	60.85
456.36	67.88
456.54	67.88
456.73	58.51
456.91	14.04
457.09	53.83
457.28	70.22
457.46	119.37
457.64	42.13
457.83	74.90
458.01	105.32
458.19	91.28
458.38	53.83
458.56	0.00
458.74	49.15
458.93	21.06
459.11	86.60
459.29	53.83
459.48	65.54
459.66	7.02
459.84	0.00
460.03	2.34
460.21	112.35
460.39	67.88
460.57	72.56
460.76	81.92
460.94	81.92
461.12	30.43
461.31	86.60
461.49	77.24
461.67	4.68
461.85	14.04
462.04	39.79
462.22	133.41
462.40	4.68
462.59	65.54
462.77	21.06
462.95	23.41
463.13	35.11
463.32	46.81
463.50	21.06
463.68	58.51
463.86	42.13
464.05	65.54
464.23	140.43
464.41	58.51
464.59	49.15
464.78	0.00
464.96	9.36
465.14	18.72
465.32	28.09
465.50	65.54
465.69	28.09
465.87	53.83
466.05	56.17
466.23	7.02
466.41	84.26
466.60	25.75
466.78	0.00
466.96	86.60
467.14	58.51
467.32	63.19
467.51	18.72
467.69	39.79
467.87	100.64
468.05	35.11
468.23	100.64
468.41	39.79
468.60	63.19
468.78	72.56
468.96	102.98
469.14	72.56
469.32	91.28
469.50	25.75
469.69	105.32
469.87	131.07
470.05	37.45
470.23	70.22
470.41	0.00
470.59	147.45
470.77	119.37
470.95	67.88
471.14	18.72
471.32	42.13
471.50	100.64
471.68	32.77
471.86	84.26
472.04	4.68
472.22	21.06
472.40	105.32
472.58	56.17
472.77	70.22
472.95	51.49
473.13	25.75
473.31	117.03
473.49	39.79
473.67	0.00
473.85	58.51
474.03	16.38
474.21	102.98
474.39	23.41
474.57	117.03
474.75	9.36
474.93	7.02
475.12	51.49
475.30	63.19
475.48	16.38
475.66	72.56
475.84	46.81
476.02	65.54
476.20	0.00
476.38	70.22
476.56	58.51
476.74	131.07
476.92	117.03
477.10	46.81
477.28	28.09
477.46	18.72
477.64	70.22
477.82	21.06
478.00	58.51
478.18	18.72
478.36	95.96
478.54	81.92
478.72	126.39
478.90	42.13
479.08	42.13
479.26	95.96
479.44	46.81
479.62	124.05
479.80	147.45
479.98	74.90
480.16	23.41
480.34	23.41
480.52	49.15
480.70	56.17
480.88	74.90
481.06	95.96
481.24	131.07
481.41	9.36
481.59	74.90
481.77	46.81
481.95	46.81
482.13	105.32
482.31	11.70
482.49	16.38
482.67	44.47
482.85	142.77
483.03	21.06
483.21	84.26
483.39	56.17
483.57	86.60
483.74	72.56
483.92	95.96
484.10	60.85
484.28	161.50
484.46	35.11
484.64	114.69
484.82	84.26
485.00	51.49
485.18	86.60
485.35	0.00
485.53	93.62
485.71	51.49
485.89	4.68
486.07	0.00
486.25	93.62
486.43	72.56
486.61	51.49
486.78	65.54
486.96	95.96
487.14	77.24
487.32	98.30
487.50	86.60
487.68	58.51
487.85	46.81
488.03	0.00
488.21	135.75
488.39	0.00
488.57	126.39
488.75	4.68
488.92	84.26
489.10	58.51
489.28	70.22
489.46	84.26
489.64	51.49
489.81	105.32
489.99	60.85
490.17	0.00
490.35	56.17
490.53	16.38
490.70	39.79
490.88	58.51
491.06	100.64
491.24	84.26
491.41	119.37
491.59	114.69
491.77	39.79
491.95	84.26
492.13	131.07
492.30	39.79
492.48	21.06
492.66	63.19
492.84	51.49
493.01	30.43
493.19	98.30
493.37	133.41
493.54	107.66
493.72	166.18
493.90	39.79
494.08	91.28
494.25	53.83
494.43	107.66
494.61	72.56
494.79	117.03
494.96	95.96
495.14	30.43
495.32	28.09
495.49	81.92
495.67	74.90
495.85	77.24
496.02	70.22
496.20	95.96
496.38	65.54
496.55	131.07
496.73	14.04
496.91	95.96
497.09	65.54
497.26	88.94
497.44	37.45
497.62	65.54
497.79	112.35
497.97	98.30
498.14	58.51
498.32	140.43
498.50	58.51
498.67	124.05
498.85	28.09
499.03	77.24
499.20	100.64
499.38	93.62
499.56	126.39
499.73	23.41
499.91	0.00
500.08	46.81
500.26	42.13
500.44	84.26
500.61	60.85
500.79	16.38
500.97	86.60
501.14	28.09
501.32	100.64
501.49	63.19
501.67	81.92
501.84	112.35
502.02	102.98
502.20	72.56
502.37	74.90
502.55	30.43
502.72	102.98
502.90	98.30
503.07	58.51
503.25	44.47
503.43	42.13
503.60	39.79
503.78	58.51
503.95	65.54
504.13	135.75
504.30	77.24
504.48	72.56
504.65	65.54
504.83	65.54
505.01	119.37
505.18	131.07
505.36	51.49
505.53	67.88
505.71	112.35
505.88	72.56
506.06	72.56
506.23	114.69
506.41	51.49
506.58	133.41
506.76	53.83
506.93	124.05
507.11	32.77
507.28	135.75
507.46	131.07
507.63	28.09
507.81	77.24
507.98	102.98
508.16	42.13
508.33	63.19
508.50	88.94
508.68	39.79
508.85	11.70
509.03	46.81
509.20	86.60
509.38	86.60
509.55	0.00
509.73	72.56
509.90	56.17
510.08	65.54
510.25	21.06
510.42	67.88
510.60	119.37
510.77	79.58
510.95	0.00
511.12	79.58
511.30	84.26
511.47	77.24
511.64	35.11
511.82	49.15
511.99	58.51
512.17	93.62
512.34	60.85
512.51	124.05
512.69	63.19
512.86	91.28
513.04	93.62
513.21	131.07
513.38	63.19
513.56	81.92
513.73	102.98
513.90	156.82
514.08	138.09
514.25	58.51
514.43	79.58
514.60	39.79
514.77	56.17
514.95	86.60
515.12	42.13
515.29	0.00
515.47	86.60
515.64	74.90
515.81	84.26
515.99	58.51
516.16	88.94
516.33	53.83
516.51	60.85
516.68	49.15
516.85	81.92
517.03	0.00
517.20	70.22
517.37	100.64
517.54	77.24
517.72	102.98
517.89	0.00
518.06	30.43
518.24	18.72
518.41	131.07
518.58	39.79
518.75	56.17
518.93	81.92
519.10	110.01
519.27	102.98
519.45	42.13
519.62	81.92
519.79	86.60
519.96	93.62
520.14	112.35
520.31	119.37
520.48	142.77
520.65	98.30
520.83	63.19
521.00	46.81
521.17	126.39
521.34	95.96
521.52	105.32
521.69	166.18
521.86	56.17
522.03	23.41
522.20	133.41
522.38	16.38
522.55	16.38
522.72	145.11
522.89	81.92
523.07	63.19
523.24	117.03
523.41	70.22
523.58	58.51
523.75	46.81
523.92	72.56
524.10	112.35
524.27	161.50
524.44	86.60
524.61	63.19
524.78	21.06
524.96	81.92
525.13	11.70
525.30	37.45
525.47	74.90
525.64	105.32
525.81	138.09
525.98	102.98
526.16	72.56
526.33	51.49
526.50	79.58
526.67	67.88
526.84	110.01
527.01	46.81
527.18	23.41
527.36	84.26
527.53	25.75
527.70	0.00
527.87	14.04
528.04	93.62
528.21	35.11
528.38	67.88
528.55	119.37
528.72	77.24
528.89	70.22
529.07	124.05
529.24	0.00
529.41	117.03
529.58	60.85
529.75	23.41
529.92	65.54
530.09	65.54
530.26	152.13
530.43	112.35
530.60	128.73
530.77	112.35
530.94	18.72
531.11	88.94
531.28	81.92
531.46	105.32
531.63	0.00
531.80	72.56
531.97	72.56
532.14	35.11
532.31	112.35
532.48	37.45
532.65	0.00
532.82	4.68
532.99	21.06
533.16	133.41
533.33	121.71
533.50	140.43
533.67	140.43
533.84	88.94
534.01	25.75
534.18	74.90
534.35	51.49
534.52	107.66
534.69	72.56
534.86	81.92
535.03	149.79
535.20	88.94
535.37	159.16
535.54	74.90
535.71	88.94
535.88	102.98
536.05	39.79
536.22	86.60
536.38	93.62
536.55	100.64
536.72	135.75
536.89	35.11
537.06	156.82
537.23	74.90
537.40	79.58
537.57	131.07
537.74	21.06
537.91	112.35
538.08	114.69
538.25	14.04
538.42	28.09
538.59	81.92
538.75	124.05
538.92	28.09
539.09	23.41
539.26	110.01
539.43	133.41
539.60	49.15
539.77	0.00
539.94	0.00
540.11	58.51
540.28	91.28
540.44	100.64
540.61	107.66
540.78	105.32
540.95	88.94
541.12	72.56
541.29	100.64
541.46	81.92
541.62	110.01
541.79	112.35
541.96	58.51
542.13	84.26
542.30	91.28
542.47	124.05
542.63	49.15
542.80	105.32
542.97	105.32
543.14	124.05
543.31	37.45
543.48	124.05
543.64	58.51
543.81	65.54
543.98	56.17
544.15	74.90
544.32	44.47
544.48	91.28
544.65	105.32
544.82	105.32
544.99	72.56
545.16	21.06
545.32	110.01
545.49	77.24
545.66	102.98
545.83	98.30
546.00	102.98
546.16	114.69
546.33	131.07
546.50	126.39
546.67	74.90
546.83	39.79
547.00	126.39
547.17	65.54
547.34	100.64
547.50	95.96
547.67	53.83
547.84	77.24
548.00	79.58
548.17	102.98
548.34	37.45
548.51	138.09
548.67	98.30
548.84	163.84
549.01	140.43
549.18	112.35
549.34	110.01
549.51	63.19
549.68	44.47
549.84	124.05
550.01	102.98
550.18	37.45
550.34	93.62
550.51	119.37
550.68	91.28
550.84	77.24
551.01	65.54
551.18	60.85
551.34	79.58
551.51	145.11
551.68	88.94
551.84	86.60
552.01	79.58
552.18	180.22
552.34	14.04
552.51	121.71
552.68	72.56
552.84	0.00
553.01	95.96
553.18	84.26
553.34	105.32
553.51	138.09
553.67	170.86
553.84	70.22
554.01	51.49
554.17	100.64
554.34	63.19
554.51	51.49
554.67	16.38
554.84	93.62
555.00	0.00
555.17	105.32
555.33	53.83
555.50	95.96
555.67	124.05
555.83	93.62
556.00	98.30
556.16	102.98
556.33	84.26
556.50	35.11
556.66	58.51
556.83	145.11
556.99	77.24
557.16	117.03
557.32	105.32
557.49	102.98
557.65	107.66
557.82	28.09
557.98	100.64
558.15	67.88
558.32	51.49
558.48	117.03
558.65	53.83
558.81	173.20
558.98	70.22
559.14	72.56
559.31	117.03
559.47	91.28
559.64	74.90
559.80	95.96
559.97	88.94
560.13	117.03
560.30	44.47
560.46	58.51
560.63	77.24
560.79	81.92
560.96	18.72
561.12	37.45
561.29	28.09
561.45	81.92
561.61	98.30
561.78	42.13
561.94	18.72
562.11	32.77
562.27	42.13
562.44	147.45
562.60	93.62
562.77	100.64
562.93	168.52
563.10	95.96
563.26	49.15
563.42	63.19
563.59	102.98
563.75	86.60
563.92	105.32
564.08	88.94
564.24	124.05
564.41	112.35
564.57	77.24
564.74	63.19
564.90	98.30
565.07	98.30
565.23	156.82
565.39	81.92
565.56	154.48
565.72	84.26
565.88	72.56
566.05	67.88
566.21	35.11
566.38	124.05
566.54	53.83
566.70	112.35
566.87	88.94
567.03	51.49
567.19	91.28
567.36	98.30
567.52	46.81
567.68	88.94
567.85	128.73
568.01	98.30
568.17	37.45
568.34	105.32
568.50	70.22
568.66	37.45
568.83	70.22
568.99	67.88
569.15	67.88
569.32	74.90
569.48	51.49
569.64	131.07
569.81	107.66
569.97	63.19
570.13	145.11
570.30	30.43
570.46	91.28
570.62	74.90
570.78	81.92
570.95	65.54
571.11	81.92
571.27	56.17
571.43	100.64
571.60	88.94
571.76	77.24
571.92	72.56
572.09	124.05
572.25	110.01
572.41	53.83
572.57	124.05
572.74	98.30
572.90	25.75
573.06	74.90
573.22	65.54
573.38	86.60
573.55	149.79
573.71	72.56
573.87	63.19
574.03	145.11
574.20	91.28
574.36	74.90
574.52	11.70
574.68	81.92
574.84	112.35
575.01	11.70
575.17	65.54
575.33	100.64
575.49	93.62
575.65	79.58
575.82	65.54
575.98	25.75
576.14	105.32
576.30	51.49
576.46	100.64
576.62	88.94
576.79	65.54
576.95	0.00
577.11	30.43
577.27	46.81
577.43	79.58
577.59	49.15
577.75	7.02
577.92	72.56
578.08	23.41
578.24	56.17
578.40	86.60
578.56	42.13
578.72	65.54
578.88	84.26
579.04	0.00
579.21	16.38
579.37	112.35
579.53	121.71
579.69	81.92
579.85	161.50
580.01	63.19
580.17	0.00
580.33	37.45
580.49	21.06
580.65	37.45
580.82	0.00
580.98	60.85
581.14	107.66
581.30	58.51
581.46	23.41
581.62	25.75
581.78	30.43
581.94	93.62
582.10	81.92
582.26	145.11
582.42	67.88
582.58	63.19
582.74	56.17
582.90	91.28
583.06	72.56
583.22	114.69
583.38	124.05
583.54	67.88
583.70	0.00
583.86	7.02
584.02	74.90
584.18	67.88
584.34	0.00
584.50	102.98
584.66	70.22
584.82	110.01
584.98	65.54
585.14	72.56
585.30	72.56
585.46	88.94
585.62	74.90
585.78	81.92
585.94	53.83
586.10	117.03
586.26	91.28
586.42	84.26
586.58	49.15
586.74	14.04
586.90	63.19
587.06	51.49
587.22	91.28
587.38	79.58
587.54	0.00
587.70	46.81
587.86	35.11
588.02	74.90
588.18	35.11
588.34	95.96
588.49	91.28
588.65	63.19
588.81	119.37
588.97	65.54
589.13	53.83
589.29	16.38
589.45	70.22
589.61	74.90
589.77	7.02
589.93	56.17
590.08	9.36
590.24	60.85
590.40	79.58
590.56	102.98
590.72	84.26
590.88	28.09
591.04	53.83
591.20	95.96
591.35	95.96
591.51	39.79
591.67	105.32
591.83	70.22
591.99	0.00
592.15	46.81
592.31	18.72
592.46	70.22
592.62	107.66
592.78	4.68
592.94	95.96
593.10	145.11
593.26	21.06
593.41	100.64
593.57	88.94
593.73	114.69
593.89	28.09
594.05	46.81
594.20	72.56
594.36	72.56
594.52	166.18
594.68	39.79
594.84	44.47
594.99	28.09
595.15	98.30
595.31	93.62
595.47	133.41
595.62	114.69
595.78	46.81
595.94	58.51
596.10	124.05
596.25	86.60
596.41	86.60
596.57	2.34
596.73	72.56
596.88	105.32
597.04	84.26
597.20	173.20
597.36	112.35
597.51	39.79
597.67	84.26
597.83	128.73
597.99	42.13
598.14	114.69
598.30	51.49
598.46	72.56
598.61	112.35
598.77	42.13
598.93	46.81
599.09	102.98
599.24	117.03
599.40	16.38
599.56	44.47
599.71	63.19
599.87	42.13
600.03	81.92
600.18	46.81
600.34	63.19
600.50	79.58
600.65	56.17
600.81	88.94
600.97	84.26
601.12	32.77
601.28	95.96
601.44	25.75
601.59	35.11
601.75	67.88
601.91	44.47
602.06	112.35
602.22	72.56
602.37	49.15
602.53	124.05
602.69	79.58
602.84	72.56
603.00	133.41
603.16	56.17
603.31	44.47
603.47	126.39
603.62	84.26
603.78	42.13
603.94	37.45
604.09	70.22
604.25	0.00
604.40	32.77
604.56	74.90
604.71	67.88
604.87	100.64
605.03	74.90
605.18	39.79
605.34	58.51
605.49	42.13
605.65	46.81
605.80	63.19
605.96	81.92
606.12	37.45
606.27	0.00
606.43	51.49
606.58	2.34
606.74	58.51
606.89	37.45
607.05	79.58
607.20	60.85
607.36	0.00
607.51	102.98
607.67	42.13
607.82	86.60
607.98	53.83
608.13	23.41
608.29	60.85
608.44	177.88
608.60	9.36
608.75	28.09
608.91	49.15
609.06	4.68
609.22	189.58
609.37	77.24
609.53	72.56
609.68	105.32
609.84	131.07
609.99	0.00
610.15	46.81
610.30	39.79
610.46	72.56
610.61	53.83
610.76	49.15
610.92	70.22
611.07	21.06
611.23	149.79
611.38	84.26
611.54	86.60
611.69	16.38
611.84	93.62
612.00	77.24
612.15	98.30
612.31	58.51
612.46	65.54
612.62	32.77
612.77	72.56
612.92	86.60
613.08	30.43
613.23	37.45
613.39	114.69
613.54	37.45
613.69	49.15
613.85	46.81
614.00	102.98
614.15	39.79
614.31	56.17
614.46	119.37
614.62	16.38
614.77	81.92
614.92	138.09
615.08	30.43
615.23	63.19
615.38	46.81
615.54	86.60
615.69	86.60
615.84	35.11
616.00	42.13
616.15	56.17
616.30	72.56
616.46	72.56
616.61	53.83
616.76	98.30
616.92	30.43
617.07	9.36
617.22	35.11
617.37	9.36
617.53	21.06
617.68	102.98
617.83	60.85
617.99	53.83
618.14	81.92
618.29	39.79
618.45	21.06
618.60	14.04
618.75	51.49
618.90	49.15
619.06	18.72
619.21	25.75
619.36	0.00
619.51	28.09
619.67	88.94
619.82	46.81
619.97	2.34
620.12	0.00
620.28	56.17
620.43	32.77
620.58	88.94
620.73	44.47
620.89	112.35
621.04	35.11
621.19	60.85
621.34	25.75
621.49	0.00
621.65	18.72
621.80	124.05
621.95	49.15
622.10	49.15
622.25	74.90
622.41	91.28
622.56	56.17
622.71	95.96
622.86	124.05
623.01	95.96
623.16	56.17
623.32	77.24
623.47	126.39
623.62	95.96
623.77	124.05
623.92	86.60
624.07	46.81
624.23	138.09
624.38	81.92
624.53	23.41
624.68	93.62
624.83	77.24
624.98	70.22
625.13	105.32
625.29	72.56
625.44	77.24
625.59	30.43
625.74	11.70
625.89	86.60
626.04	30.43
626.19	37.45
626.34	95.96
626.49	140.43
626.65	124.05
626.80	9.36
626.95	91.28
627.10	67.88
627.25	42.13
627.40	67.88
627.55	2.34
627.70	65.54
627.85	133.41
628.00	53.83
628.15	32.77
628.30	44.47
628.45	79.58
628.60	53.83
628.76	102.98
628.91	0.00
629.06	60.85
629.21	49.15
629.36	119.37
629.51	37.45
629.66	44.47
629.81	51.49
629.96	0.00
630.11	25.75
630.26	53.83
630.41	102.98
630.56	9.36
630.71	114.69
630.86	121.71
631.01	100.64
631.16	56.17
631.31	86.60
631.46	86.60
631.61	0.00
631.76	81.92
631.91	37.45
632.06	56.17
632.21	11.70
632.36	28.09
632.51	44.47
632.66	58.51
632.81	23.41
632.96	121.71
633.10	117.03
633.25	23.41
633.40	53.83
633.55	86.60
633.70	32.77
633.85	7.02
634.00	42.13
634.15	65.54
634.30	74.90
634.45	53.83
634.60	72.56
634.75	0.00
634.90	58.51
635.05	35.11
635.19	58.51
635.34	16.38
635.49	49.15
635.64	0.00
635.79	35.11
635.94	88.94
636.09	79.58
636.24	21.06
636.39	114.69
636.53	65.54
636.68	67.88
636.83	95.96
636.98	131.07
637.13	11.70
637.28	0.00
637.43	79.58
637.57	37.45
637.72	74.90
637.87	74.90
638.02	86.60
638.17	7.02
638.32	102.98
638.46	0.00
638.61	105.32
638.76	86.60
638.91	131.07
639.06	79.58
639.20	95.96
639.35	74.90
639.50	81.92
639.65	0.00
639.80	56.17
639.94	35.11
640.09	86.60
640.24	65.54
640.39	81.92
640.54	0.00
640.68	16.38
640.83	49.15
640.98	30.43
641.13	16.38
641.27	49.15
641.42	39.79
641.57	140.43
641.72	70.22
641.86	21.06
642.01	4.68
642.16	114.69
642.31	63.19
642.45	65.54
642.60	86.60
642.75	77.24
642.90	51.49
643.04	53.83
643.19	63.19
643.34	21.06
643.48	0.00
643.63	63.19
643.78	70.22
643.93	7.02
644.07	0.00
644.22	16.38
644.37	91.28
644.51	0.00
644.66	72.56
644.81	84.26
644.95	93.62
645.10	49.15
645.25	51.49
645.39	25.75
645.54	9.36
645.69	79.58
645.83	9.36
645.98	95.96
646.13	16.38
646.27	11.70
646.42	18.72
646.57	39.79
646.71	37.45
646.86	49.15
647.00	44.47
647.15	67.88
647.30	140.43
647.44	53.83
647.59	105.32
647.74	67.88
647.88	72.56
648.03	21.06
648.17	72.56
648.32	58.51
648.47	126.39
648.61	42.13
648.76	39.79
648.90	65.54
649.05	74.90
649.20	0.00
649.34	44.47
649.49	110.01
649.63	0.00
649.78	88.94
649.92	21.06
650.07	42.13
650.21	37.45
650.36	0.00
650.51	63.19
650.65	46.81
650.80	86.60
650.94	0.00
651.09	81.92
651.23	0.00
651.38	133.41
651.52	56.17
651.67	67.88
651.81	110.01
651.96	72.56
652.10	32.77
652.25	60.85
652.39	46.81
652.54	60.85
652.68	72.56
652.83	84.26
652.97	28.09
653.12	7.02
653.26	60.85
653.41	88.94
653.55	42.13
653.70	9.36
653.84	128.73
653.99	91.28
654.13	74.90
654.27	65.54
654.42	65.54
654.56	37.45
654.71	110.01
654.85	0.00
655.00	32.77
655.14	14.04
655.29	63.19
655.43	30.43
655.57	51.49
655.72	58.51
655.86	9.36
656.01	0.00
656.15	77.24
656.30	102.98
656.44	77.24
656.58	28.09
656.73	110.01
656.87	112.35
657.01	114.69
657.16	25.75
657.30	35.11
657.45	0.00
657.59	28.09
657.73	11.70
657.88	67.88
658.02	0.00
658.16	14.04
658.31	0.00
658.45	18.72
658.60	39.79
658.74	51.49
658.88	79.58
659.03	119.37
659.17	23.41
659.31	110.01
659.46	91.28
659.60	74.90
659.74	0.00
659.89	53.83
660.03	49.15
660.17	56.17
660.32	51.49
660.46	102.98
660.60	60.85
660.74	51.49
660.89	81.92
661.03	49.15
661.17	60.85
661.32	39.79
661.46	16.38
661.60	74.90
661.74	60.85
661.89	23.41
662.03	74.90
662.17	63.19
662.31	42.13
662.46	65.54
662.60	44.47
662.74	42.13
662.88	88.94
663.03	79.58
663.17	107.66
663.31	67.88
663.45	28.09
663.60	79.58
663.74	117.03
663.88	21.06
664.02	46.81
664.17	49.15
664.31	86.60
664.45	39.79
664.59	79.58
664.73	0.00
664.88	4.68
665.02	14.04
665.16	30.43
665.30	58.51
665.44	119.37
665.59	60.85
665.73	25.75
665.87	77.24
666.01	58.51
666.15	142.77
666.29	98.30
666.44	91.28
666.58	74.90
666.72	39.79
666.86	84.26
667.00	58.51
667.14	81.92
667.28	0.00
667.43	18.72
667.57	37.45
667.71	25.75
667.85	0.00
667.99	23.41
668.13	72.56
668.27	37.45
668.41	74.90
668.56	0.00
668.70	135.75
668.84	21.06
668.98	58.51
669.12	63.19
669.26	46.81
669.40	56.17
669.54	25.75
669.68	114.69
669.82	0.00
669.96	70.22
670.10	100.64
670.25	135.75
670.39	37.45
670.53	39.79
670.67	67.88
670.81	44.47
670.95	42.13
671.09	11.70
671.23	79.58
671.37	72.56
671.51	21.06
671.65	42.13
671.79	21.06
671.93	74.90
672.07	2.34
672.21	30.43
672.35	49.15
672.49	63.19
672.63	35.11
672.77	9.36
672.91	2.34
673.05	0.00
673.19	37.45
673.33	135.75
673.47	67.88
673.61	18.72
673.75	11.70
673.89	0.00
674.03	42.13
674.17	42.13
674.31	63.19
674.45	0.00
674.59	0.00
674.73	30.43
674.87	67.88
675.01	35.11
675.15	14.04
675.29	30.43
675.43	23.41
675.56	4.68
675.70	117.03
675.84	63.19
675.98	60.85
676.12	11.70
676.26	32.77
676.40	0.00
676.54	7.02
676.68	72.56
676.82	72.56
676.96	67.88
677.10	72.56
677.23	49.15
677.37	35.11
677.51	0.00
677.65	0.00
677.79	49.15
677.93	32.77
678.07	65.54
678.21	98.30
678.34	0.00
678.48	119.37
678.62	28.09
678.76	23.41
678.90	60.85
679.04	67.88
679.18	39.79
679.31	0.00
679.45	16.38
679.59	58.51
679.73	65.54
679.87	58.51
680.00	88.94
680.14	74.90
680.28	0.00
680.42	18.72
680.56	16.38
680.70	14.04
680.83	42.13
680.97	93.62
681.11	65.54
681.25	84.26
681.39	0.00
681.52	105.32
681.66	35.11
681.80	9.36
681.94	98.30
682.07	0.00
682.21	14.04
682.35	0.00
682.49	56.17
682.62	0.00
682.76	11.70
682.90	0.00
683.04	95.96
683.17	51.49
683.31	16.38
683.45	14.04
683.59	56.17
683.72	60.85
683.86	74.90
684.00	25.75
684.13	70.22
684.27	53.83
684.41	72.56
684.55	18.72
684.68	46.81
684.82	32.77
684.96	81.92
685.09	0.00
685.23	25.75
685.37	107.66
685.50	91.28
685.64	70.22
685.78	39.79
685.91	44.47
686.05	25.75
686.19	60.85
686.32	51.49
686.46	88.94
686.60	35.11
686.73	7.02
686.87	21.06
687.01	32.77
687.14	65.54
687.28	0.00
687.42	39.79
687.55	23.41
687.69	0.00
687.82	25.75
687.96	58.51
688.10	173.20
688.23	60.85
688.37	60.85
688.50	135.75
688.64	2.34
688.78	21.06
688.91	58.51
689.05	72.56
689.18	44.47
689.32	0.00
689.46	86.60
689.59	11.70
689.73	72.56
689.86	11.70
690.00	18.72
690.13	91.28
690.27	18.72
690.41	0.00
690.54	25.75
690.68	42.13
690.81	16.38
690.95	7.02
691.08	21.06
691.22	53.83
691.35	0.00
691.49	49.15
691.62	79.58
691.76	105.32
691.89	0.00
692.03	37.45
692.16	39.79
692.30	100.64
692.43	49.15
692.57	39.79
692.70	95.96
692.84	35.11
692.97	18.72
693.11	44.47
693.24	37.45
693.38	81.92
693.51	91.28
693.65	18.72
693.78	0.00
693.92	105.32
694.05	9.36
694.19	35.11
694.32	81.92
694.45	9.36
694.59	0.00
694.72	0.00
694.86	91.28
694.99	53.83
695.13	86.60
695.26	49.15
695.39	16.38
695.53	100.64
695.66	37.45
695.80	53.83
695.93	56.17
696.07	0.00
696.20	60.85
696.33	0.00
696.47	72.56
696.60	51.49
696.73	67.88
696.87	7.02
697.00	44.47
697.14	74.90
697.27	124.05
697.40	16.38
697.54	25.75
697.67	2.34
697.80	77.24
697.94	63.19
698.07	0.00
698.21	42.13
698.34	70.22
698.47	25.75
698.61	53.83
698.74	25.75
698.87	60.85
699.01	32.77
699.14	49.15
699.27	65.54
699.40	0.00
699.54	0.00
699.67	16.38
699.80	102.98
699.94	46.81
700.07	21.06
700.20	4.68
700.34	93.62
700.47	0.00
700.60	84.26
700.73	56.17
700.87	81.92
701.00	39.79
701.13	23.41
701.26	51.49
701.40	28.09
701.53	74.90
701.66	72.56
701.79	58.51
701.93	67.88
702.06	44.47
702.19	21.06
702.32	56.17
702.46	63.19
702.59	74.90
702.72	49.15
702.85	74.90
702.99	53.83
703.12	9.36
703.25	18.72
703.38	65.54
703.51	67.88
703.65	32.77
703.78	0.00
703.91	53.83
704.04	79.58
704.17	63.19
704.31	65.54
704.44	98.30
704.57	46.81
704.70	39.79
704.83	0.00
704.96	65.54
705.10	0.00
705.23	35.11
>>>>>End Processed Spectral Data<<<<<
