SpectraSuite Data File
++++++++++++++++++++++++++++++++++++
Date: Fri Oct 04 12:13:28 GMT-05:00 2013
User: price-jones
Dark Spectrum Present: No
Reference Spectrum Present: No
Number of Sampled Component Spectra: 1
Spectrometers: USB2+H05261
Integration Time (usec): 10000 (USB2+H05261)
Spectra Averaged: 1 (USB2+H05261)
Boxcar Smoothing: 0 (USB2+H05261)
Correct for Electrical Dark: No (USB2+H05261)
Strobe/Lamp Enabled: No (USB2+H05261)
Correct for Detector Non-linearity: No (USB2+H05261)
Correct for Stray Light: No (USB2+H05261)
Number of Pixels in Processed Spectrum: 2048
>>>>>Begin Processed Spectral Data<<<<<
365.73	0.00
365.92	0.00
366.12	0.00
366.32	0.00
366.52	0.00
366.72	0.00
366.91	0.00
367.11	0.00
367.31	0.00
367.51	0.00
367.70	0.00
367.90	0.00
368.10	0.00
368.30	0.00
368.49	0.00
368.69	0.00
368.89	0.00
369.09	0.00
369.28	0.00
369.48	0.00
369.68	0.00
369.87	0.00
370.07	0.00
370.27	0.00
370.47	0.00
370.66	0.00
370.86	0.00
371.06	0.00
371.25	0.00
371.45	0.00
371.65	0.00
371.84	0.00
372.04	0.00
372.24	0.00
372.44	0.00
372.63	65.54
372.83	25.75
373.03	0.00
373.22	2.34
373.42	51.49
373.62	0.00
373.81	18.72
374.01	70.22
374.21	81.92
374.40	70.22
374.60	0.00
374.79	98.30
374.99	35.11
375.19	58.51
375.38	98.30
375.58	65.54
375.78	65.54
375.97	65.54
376.17	23.41
376.37	74.90
376.56	23.41
376.76	25.75
376.95	35.11
377.15	86.60
377.35	32.77
377.54	42.13
377.74	98.30
377.93	44.47
378.13	0.00
378.33	16.38
378.52	67.88
378.72	0.00
378.91	49.15
379.11	0.00
379.31	0.00
379.50	0.00
379.70	0.00
379.89	0.00
380.09	0.00
380.28	0.00
380.48	11.70
380.68	0.00
380.87	0.00
381.07	25.75
381.26	14.04
381.46	37.45
381.65	42.13
381.85	37.45
382.04	21.06
382.24	16.38
382.43	117.03
382.63	23.41
382.83	14.04
383.02	58.51
383.22	0.00
383.41	42.13
383.61	0.00
383.80	49.15
384.00	0.00
384.19	56.17
384.39	35.11
384.58	16.38
384.78	0.00
384.97	35.11
385.17	0.00
385.36	25.75
385.56	7.02
385.75	23.41
385.95	0.00
386.14	0.00
386.34	18.72
386.53	39.79
386.72	23.41
386.92	14.04
387.11	72.56
387.31	0.00
387.50	35.11
387.70	0.00
387.89	4.68
388.09	39.79
388.28	39.79
388.48	25.75
388.67	14.04
388.86	44.47
389.06	4.68
389.25	30.43
389.45	25.75
389.64	0.00
389.84	0.00
390.03	67.88
390.22	7.02
390.42	53.83
390.61	11.70
390.81	0.00
391.00	44.47
391.19	67.88
391.39	42.13
391.58	2.34
391.78	0.00
391.97	0.00
392.16	0.00
392.36	4.68
392.55	0.00
392.75	49.15
392.94	44.47
393.13	14.04
393.33	16.38
393.52	0.00
393.71	2.34
393.91	0.00
394.10	4.68
394.29	46.81
394.49	51.49
394.68	23.41
394.88	0.00
395.07	63.19
395.26	51.49
395.46	23.41
395.65	39.79
395.84	18.72
396.04	14.04
396.23	0.00
396.42	0.00
396.62	30.43
396.81	23.41
397.00	46.81
397.19	0.00
397.39	0.00
397.58	0.00
397.77	0.00
397.97	11.70
398.16	39.79
398.35	0.00
398.55	0.00
398.74	9.36
398.93	0.00
399.12	4.68
399.32	81.92
399.51	7.02
399.70	0.00
399.90	23.41
400.09	53.83
400.28	37.45
400.47	25.75
400.67	49.15
400.86	9.36
401.05	0.00
401.24	9.36
401.44	37.45
401.63	0.00
401.82	18.72
402.01	42.13
402.21	0.00
402.40	60.85
402.59	0.00
402.78	56.17
402.97	0.00
403.17	44.47
403.36	0.00
403.55	100.64
403.74	0.00
403.93	0.00
404.13	0.00
404.32	4.68
404.51	18.72
404.70	49.15
404.89	72.56
405.09	0.00
405.28	7.02
405.47	39.79
405.66	9.36
405.85	28.09
406.05	46.81
406.24	9.36
406.43	16.38
406.62	81.92
406.81	35.11
407.00	4.68
407.20	91.28
407.39	16.38
407.58	0.00
407.77	2.34
407.96	16.38
408.15	53.83
408.34	16.38
408.54	0.00
408.73	81.92
408.92	0.00
409.11	35.11
409.30	42.13
409.49	11.70
409.68	21.06
409.87	18.72
410.07	95.96
410.26	23.41
410.45	23.41
410.64	74.90
410.83	23.41
411.02	0.00
411.21	32.77
411.40	46.81
411.59	23.41
411.78	0.00
411.98	58.51
412.17	0.00
412.36	14.04
412.55	0.00
412.74	0.00
412.93	79.58
413.12	14.04
413.31	49.15
413.50	30.43
413.69	63.19
413.88	7.02
414.07	28.09
414.26	93.62
414.45	44.47
414.64	51.49
414.83	56.17
415.02	51.49
415.22	32.77
415.41	46.81
415.60	0.00
415.79	0.00
415.98	60.85
416.17	88.94
416.36	0.00
416.55	0.00
416.74	21.06
416.93	0.00
417.12	0.00
417.31	0.00
417.50	72.56
417.69	25.75
417.88	100.64
418.07	53.83
418.26	14.04
418.45	51.49
418.64	63.19
418.83	88.94
419.02	30.43
419.21	63.19
419.39	67.88
419.58	51.49
419.77	7.02
419.96	0.00
420.15	28.09
420.34	16.38
420.53	91.28
420.72	86.60
420.91	98.30
421.10	53.83
421.29	21.06
421.48	46.81
421.67	138.09
421.86	56.17
422.05	37.45
422.24	51.49
422.43	65.54
422.61	0.00
422.80	0.00
422.99	7.02
423.18	28.09
423.37	51.49
423.56	0.00
423.75	18.72
423.94	0.00
424.13	79.58
424.32	93.62
424.50	30.43
424.69	0.00
424.88	65.54
425.07	9.36
425.26	46.81
425.45	95.96
425.64	4.68
425.83	23.41
426.01	65.54
426.20	37.45
426.39	65.54
426.58	4.68
426.77	32.77
426.96	7.02
427.15	105.32
427.33	51.49
427.52	25.75
427.71	21.06
427.90	0.00
428.09	25.75
428.28	9.36
428.46	16.38
428.65	74.90
428.84	51.49
429.03	18.72
429.22	0.00
429.40	39.79
429.59	35.11
429.78	2.34
429.97	25.75
430.16	35.11
430.34	67.88
430.53	23.41
430.72	65.54
430.91	51.49
431.10	46.81
431.28	21.06
431.47	11.70
431.66	30.43
431.85	21.06
432.03	56.17
432.22	35.11
432.41	53.83
432.60	138.09
432.79	23.41
432.97	7.02
433.16	70.22
433.35	49.15
433.54	63.19
433.72	49.15
433.91	18.72
434.10	0.00
434.28	28.09
434.47	95.96
434.66	46.81
434.85	0.00
435.03	93.62
435.22	46.81
435.41	105.32
435.59	35.11
435.78	0.00
435.97	105.32
436.16	53.83
436.34	0.00
436.53	44.47
436.72	42.13
436.90	9.36
437.09	0.00
437.28	2.34
437.46	0.00
437.65	37.45
437.84	88.94
438.02	0.00
438.21	25.75
438.40	2.34
438.58	46.81
438.77	74.90
438.96	44.47
439.14	72.56
439.33	18.72
439.52	7.02
439.70	18.72
439.89	7.02
440.08	72.56
440.26	0.00
440.45	79.58
440.63	18.72
440.82	72.56
441.01	18.72
441.19	49.15
441.38	28.09
441.57	0.00
441.75	0.00
441.94	11.70
442.12	4.68
442.31	53.83
442.50	23.41
442.68	37.45
442.87	72.56
443.05	2.34
443.24	0.00
443.43	28.09
443.61	35.11
443.80	0.00
443.98	44.47
444.17	58.51
444.35	91.28
444.54	0.00
444.73	0.00
444.91	28.09
445.10	35.11
445.28	100.64
445.47	42.13
445.65	49.15
445.84	0.00
446.02	11.70
446.21	0.00
446.39	0.00
446.58	37.45
446.77	58.51
446.95	25.75
447.14	18.72
447.32	28.09
447.51	0.00
447.69	0.00
447.88	0.00
448.06	0.00
448.25	23.41
448.43	0.00
448.62	46.81
448.80	0.00
448.99	16.38
449.17	39.79
449.36	4.68
449.54	9.36
449.73	0.00
449.91	56.17
450.10	37.45
450.28	0.00
450.46	37.45
450.65	105.32
450.83	112.35
451.02	0.00
451.20	0.00
451.39	18.72
451.57	65.54
451.76	114.69
451.94	0.00
452.13	11.70
452.31	30.43
452.49	0.00
452.68	16.38
452.86	21.06
453.05	147.45
453.23	7.02
453.42	16.38
453.60	25.75
453.78	37.45
453.97	60.85
454.15	44.47
454.34	37.45
454.52	63.19
454.70	16.38
454.89	0.00
455.07	39.79
455.26	37.45
455.44	35.11
455.62	39.79
455.81	65.54
455.99	42.13
456.17	0.00
456.36	77.24
456.54	0.00
456.73	42.13
456.91	28.09
457.09	72.56
457.28	18.72
457.46	32.77
457.64	28.09
457.83	30.43
458.01	63.19
458.19	0.00
458.38	30.43
458.56	65.54
458.74	128.73
458.93	30.43
459.11	18.72
459.29	0.00
459.48	32.77
459.66	63.19
459.84	18.72
460.03	44.47
460.21	0.00
460.39	0.00
460.57	65.54
460.76	9.36
460.94	32.77
461.12	70.22
461.31	53.83
461.49	65.54
461.67	14.04
461.85	53.83
462.04	35.11
462.22	79.58
462.40	35.11
462.59	28.09
462.77	58.51
462.95	42.13
463.13	79.58
463.32	53.83
463.50	21.06
463.68	21.06
463.86	42.13
464.05	0.00
464.23	49.15
464.41	4.68
464.59	46.81
464.78	70.22
464.96	0.00
465.14	72.56
465.32	35.11
465.50	37.45
465.69	44.47
465.87	44.47
466.05	46.81
466.23	63.19
466.41	65.54
466.60	56.17
466.78	16.38
466.96	42.13
467.14	37.45
467.32	39.79
467.51	2.34
467.69	51.49
467.87	72.56
468.05	0.00
468.23	30.43
468.41	0.00
468.60	16.38
468.78	39.79
468.96	0.00
469.14	79.58
469.32	0.00
469.50	16.38
469.69	37.45
469.87	35.11
470.05	28.09
470.23	7.02
470.41	60.85
470.59	23.41
470.77	77.24
470.95	37.45
471.14	42.13
471.32	39.79
471.50	0.00
471.68	91.28
471.86	95.96
472.04	4.68
472.22	0.00
472.40	46.81
472.58	14.04
472.77	39.79
472.95	25.75
473.13	14.04
473.31	0.00
473.49	44.47
473.67	65.54
473.85	0.00
474.03	28.09
474.21	58.51
474.39	81.92
474.57	37.45
474.75	70.22
474.93	16.38
475.12	37.45
475.30	21.06
475.48	16.38
475.66	44.47
475.84	0.00
476.02	16.38
476.20	0.00
476.38	46.81
476.56	21.06
476.74	56.17
476.92	91.28
477.10	98.30
477.28	0.00
477.46	0.00
477.64	0.00
477.82	23.41
478.00	56.17
478.18	14.04
478.36	81.92
478.54	53.83
478.72	77.24
478.90	56.17
479.08	102.98
479.26	32.77
479.44	93.62
479.62	51.49
479.80	30.43
479.98	58.51
480.16	124.05
480.34	35.11
480.52	60.85
480.70	4.68
480.88	60.85
481.06	91.28
481.24	9.36
481.41	30.43
481.59	58.51
481.77	49.15
481.95	74.90
482.13	0.00
482.31	0.00
482.49	35.11
482.67	44.47
482.85	7.02
483.03	60.85
483.21	79.58
483.39	35.11
483.57	60.85
483.74	2.34
483.92	4.68
484.10	37.45
484.28	86.60
484.46	35.11
484.64	0.00
484.82	4.68
485.00	7.02
485.18	28.09
485.35	35.11
485.53	0.00
485.71	58.51
485.89	0.00
486.07	70.22
486.25	23.41
486.43	49.15
486.61	25.75
486.78	0.00
486.96	0.00
487.14	60.85
487.32	9.36
487.50	46.81
487.68	95.96
487.85	0.00
488.03	9.36
488.21	28.09
488.39	0.00
488.57	39.79
488.75	7.02
488.92	79.58
489.10	39.79
489.28	37.45
489.46	42.13
489.64	30.43
489.81	77.24
489.99	4.68
490.17	56.17
490.35	0.00
490.53	0.00
490.70	11.70
490.88	0.00
491.06	81.92
491.24	16.38
491.41	70.22
491.59	84.26
491.77	53.83
491.95	0.00
492.13	117.03
492.30	0.00
492.48	88.94
492.66	107.66
492.84	74.90
493.01	28.09
493.19	30.43
493.37	53.83
493.54	72.56
493.72	0.00
493.90	51.49
494.08	7.02
494.25	67.88
494.43	49.15
494.61	23.41
494.79	0.00
494.96	46.81
495.14	0.00
495.32	0.00
495.49	0.00
495.67	58.51
495.85	81.92
496.02	56.17
496.20	60.85
496.38	23.41
496.55	21.06
496.73	23.41
496.91	35.11
497.09	84.26
497.26	70.22
497.44	49.15
497.62	2.34
497.79	56.17
497.97	63.19
498.14	0.00
498.32	2.34
498.50	18.72
498.67	86.60
498.85	79.58
499.03	0.00
499.20	32.77
499.38	7.02
499.56	0.00
499.73	0.00
499.91	49.15
500.08	4.68
500.26	32.77
500.44	0.00
500.61	30.43
500.79	16.38
500.97	37.45
501.14	30.43
501.32	28.09
501.49	63.19
501.67	93.62
501.84	79.58
502.02	0.00
502.20	32.77
502.37	51.49
502.55	98.30
502.72	49.15
502.90	46.81
503.07	86.60
503.25	0.00
503.43	35.11
503.60	49.15
503.78	65.54
503.95	53.83
504.13	21.06
504.30	74.90
504.48	18.72
504.65	21.06
504.83	30.43
505.01	11.70
505.18	0.00
505.36	81.92
505.53	0.00
505.71	0.00
505.88	60.85
506.06	11.70
506.23	35.11
506.41	11.70
506.58	23.41
506.76	9.36
506.93	0.00
507.11	91.28
507.28	21.06
507.46	0.00
507.63	53.83
507.81	0.00
507.98	2.34
508.16	32.77
508.33	25.75
508.50	16.38
508.68	105.32
508.85	44.47
509.03	84.26
509.20	67.88
509.38	81.92
509.55	23.41
509.73	2.34
509.90	9.36
510.08	67.88
510.25	107.66
510.42	58.51
510.60	28.09
510.77	63.19
510.95	88.94
511.12	0.00
511.30	84.26
511.47	53.83
511.64	0.00
511.82	11.70
511.99	84.26
512.17	72.56
512.34	0.00
512.51	11.70
512.69	65.54
512.86	4.68
513.04	0.00
513.21	0.00
513.38	100.64
513.56	4.68
513.73	30.43
513.90	51.49
514.08	56.17
514.25	32.77
514.43	84.26
514.60	37.45
514.77	56.17
514.95	9.36
515.12	16.38
515.29	112.35
515.47	16.38
515.64	0.00
515.81	9.36
515.99	166.18
516.16	0.00
516.33	74.90
516.51	107.66
516.68	86.60
516.85	46.81
517.03	0.00
517.20	9.36
517.37	16.38
517.54	63.19
517.72	42.13
517.89	72.56
518.06	25.75
518.24	42.13
518.41	0.00
518.58	21.06
518.75	65.54
518.93	46.81
519.10	32.77
519.27	25.75
519.45	35.11
519.62	23.41
519.79	0.00
519.96	37.45
520.14	0.00
520.31	58.51
520.48	42.13
520.65	88.94
520.83	42.13
521.00	37.45
521.17	11.70
521.34	0.00
521.52	79.58
521.69	32.77
521.86	0.00
522.03	44.47
522.20	91.28
522.38	39.79
522.55	7.02
522.72	72.56
522.89	44.47
523.07	79.58
523.24	51.49
523.41	70.22
523.58	39.79
523.75	4.68
523.92	11.70
524.10	28.09
524.27	51.49
524.44	37.45
524.61	32.77
524.78	67.88
524.96	49.15
525.13	0.00
525.30	72.56
525.47	30.43
525.64	51.49
525.81	65.54
525.98	49.15
526.16	81.92
526.33	21.06
526.50	0.00
526.67	25.75
526.84	49.15
527.01	25.75
527.18	42.13
527.36	51.49
527.53	42.13
527.70	0.00
527.87	67.88
528.04	112.35
528.21	49.15
528.38	32.77
528.55	0.00
528.72	32.77
528.89	56.17
529.07	51.49
529.24	16.38
529.41	53.83
529.58	58.51
529.75	37.45
529.92	44.47
530.09	25.75
530.26	74.90
530.43	18.72
530.60	77.24
530.77	14.04
530.94	112.35
531.11	7.02
531.28	60.85
531.46	60.85
531.63	37.45
531.80	91.28
531.97	11.70
532.14	0.00
532.31	16.38
532.48	0.00
532.65	107.66
532.82	63.19
532.99	16.38
533.16	0.00
533.33	42.13
533.50	0.00
533.67	28.09
533.84	2.34
534.01	81.92
534.18	2.34
534.35	32.77
534.52	56.17
534.69	102.98
534.86	23.41
535.03	0.00
535.20	77.24
535.37	14.04
535.54	86.60
535.71	23.41
535.88	88.94
536.05	56.17
536.22	32.77
536.38	67.88
536.55	16.38
536.72	49.15
536.89	44.47
537.06	86.60
537.23	18.72
537.40	16.38
537.57	100.64
537.74	2.34
537.91	9.36
538.08	14.04
538.25	32.77
538.42	0.00
538.59	51.49
538.75	9.36
538.92	79.58
539.09	72.56
539.26	58.51
539.43	11.70
539.60	168.52
539.77	252.78
539.94	271.50
540.11	184.90
540.28	220.01
540.44	74.90
540.61	44.47
540.78	67.88
540.95	49.15
541.12	84.26
541.29	18.72
541.46	23.41
541.62	35.11
541.79	46.81
541.96	0.00
542.13	35.11
542.30	25.75
542.47	2.34
542.63	88.94
542.80	74.90
542.97	49.15
543.14	93.62
543.31	42.13
543.48	30.43
543.64	67.88
543.81	0.00
543.98	30.43
544.15	37.45
544.32	0.00
544.48	51.49
544.65	37.45
544.82	28.09
544.99	67.88
545.16	102.98
545.32	51.49
545.49	28.09
545.66	0.00
545.83	51.49
546.00	0.00
546.16	11.70
546.33	18.72
546.50	49.15
546.67	0.00
546.83	67.88
547.00	49.15
547.17	7.02
547.34	35.11
547.50	23.41
547.67	60.85
547.84	142.77
548.00	124.05
548.17	88.94
548.34	70.22
548.51	49.15
548.67	70.22
548.84	39.79
549.01	2.34
549.18	0.00
549.34	0.00
549.51	79.58
549.68	93.62
549.84	0.00
550.01	37.45
550.18	117.03
550.34	28.09
550.51	0.00
550.68	14.04
550.84	9.36
551.01	30.43
551.18	81.92
551.34	25.75
551.51	25.75
551.68	0.00
551.84	46.81
552.01	35.11
552.18	44.47
552.34	67.88
552.51	28.09
552.68	30.43
552.84	0.00
553.01	56.17
553.18	21.06
553.34	44.47
553.51	79.58
553.67	14.04
553.84	0.00
554.01	110.01
554.17	86.60
554.34	0.00
554.51	25.75
554.67	39.79
554.84	7.02
555.00	4.68
555.17	0.00
555.33	74.90
555.50	35.11
555.67	74.90
555.83	23.41
556.00	0.00
556.16	56.17
556.33	0.00
556.50	56.17
556.66	93.62
556.83	23.41
556.99	28.09
557.16	84.26
557.32	67.88
557.49	39.79
557.65	25.75
557.82	100.64
557.98	44.47
558.15	4.68
558.32	9.36
558.48	84.26
558.65	14.04
558.81	11.70
558.98	37.45
559.14	32.77
559.31	102.98
559.47	32.77
559.64	0.00
559.80	49.15
559.97	0.00
560.13	14.04
560.30	46.81
560.46	0.00
560.63	65.54
560.79	102.98
560.96	42.13
561.12	53.83
561.29	0.00
561.45	126.39
561.61	67.88
561.78	65.54
561.94	21.06
562.11	11.70
562.27	74.90
562.44	2.34
562.60	51.49
562.77	2.34
562.93	30.43
563.10	65.54
563.26	44.47
563.42	72.56
563.59	32.77
563.75	72.56
563.92	93.62
564.08	35.11
564.24	35.11
564.41	0.00
564.57	88.94
564.74	0.00
564.90	79.58
565.07	30.43
565.23	74.90
565.39	32.77
565.56	25.75
565.72	70.22
565.88	105.32
566.05	74.90
566.21	149.79
566.38	60.85
566.54	49.15
566.70	4.68
566.87	79.58
567.03	70.22
567.19	65.54
567.36	9.36
567.52	25.75
567.68	49.15
567.85	60.85
568.01	74.90
568.17	32.77
568.34	0.00
568.50	28.09
568.66	100.64
568.83	72.56
568.99	51.49
569.15	9.36
569.32	74.90
569.48	102.98
569.64	14.04
569.81	2.34
569.97	72.56
570.13	4.68
570.30	11.70
570.46	0.00
570.62	32.77
570.78	32.77
570.95	51.49
571.11	30.43
571.27	39.79
571.43	65.54
571.60	23.41
571.76	56.17
571.92	0.00
572.09	56.17
572.25	23.41
572.41	0.00
572.57	0.00
572.74	58.51
572.90	32.77
573.06	65.54
573.22	53.83
573.38	16.38
573.55	67.88
573.71	67.88
573.87	23.41
574.03	70.22
574.20	51.49
574.36	46.81
574.52	18.72
574.68	56.17
574.84	14.04
575.01	42.13
575.17	49.15
575.33	74.90
575.49	32.77
575.65	39.79
575.82	67.88
575.98	105.32
576.14	126.39
576.30	234.05
576.46	93.62
576.62	56.17
576.79	56.17
576.95	88.94
577.11	51.49
577.27	0.00
577.43	0.00
577.59	67.88
577.75	37.45
577.92	11.70
578.08	49.15
578.24	44.47
578.40	63.19
578.56	32.77
578.72	46.81
578.88	9.36
579.04	0.00
579.21	107.66
579.37	37.45
579.53	35.11
579.69	18.72
579.85	88.94
580.01	67.88
580.17	135.75
580.33	35.11
580.49	25.75
580.65	35.11
580.82	44.47
580.98	0.00
581.14	0.00
581.30	58.51
581.46	100.64
581.62	95.96
581.78	131.07
581.94	91.28
582.10	23.41
582.26	51.49
582.42	37.45
582.58	91.28
582.74	28.09
582.90	65.54
583.06	79.58
583.22	117.03
583.38	110.01
583.54	121.71
583.70	77.24
583.86	138.09
584.02	166.18
584.18	294.91
584.34	245.76
584.50	631.94
584.66	4283.18
584.82	11234.57
584.98	17128.04
585.14	15126.88
585.30	9020.42
585.46	5696.86
585.62	3562.30
585.78	1647.74
585.94	671.73
586.10	264.48
586.26	184.90
586.42	191.92
586.58	154.48
586.74	107.66
586.90	74.90
587.06	93.62
587.22	149.79
587.38	81.92
587.54	208.31
587.70	699.82
587.86	1027.50
588.02	1174.95
588.18	880.04
588.34	582.79
588.49	322.99
588.65	175.54
588.81	72.56
588.97	84.26
589.13	112.35
589.29	72.56
589.45	58.51
589.61	119.37
589.77	37.45
589.93	63.19
590.08	159.16
590.24	30.43
590.40	110.01
590.56	121.71
590.72	98.30
590.88	53.83
591.04	91.28
591.20	0.00
591.35	58.51
591.51	32.77
591.67	58.51
591.83	0.00
591.99	79.58
592.15	86.60
592.31	25.75
592.46	49.15
592.62	4.68
592.78	77.24
592.94	147.45
593.10	156.82
593.26	91.28
593.41	18.72
593.57	100.64
593.73	114.69
593.89	540.66
594.05	1420.71
594.20	1959.03
594.36	2057.33
594.52	1310.70
594.68	760.67
594.84	617.90
594.99	278.52
595.15	138.09
595.31	149.79
595.47	86.60
595.62	58.51
595.78	0.00
595.94	42.13
596.10	51.49
596.25	81.92
596.41	74.90
596.57	39.79
596.73	51.49
596.88	56.17
597.04	280.86
597.20	470.45
597.36	533.64
597.51	390.87
597.67	231.71
597.83	163.84
597.99	81.92
598.14	88.94
598.30	88.94
598.46	18.72
598.61	79.58
598.77	49.15
598.93	88.94
599.09	63.19
599.24	42.13
599.40	32.77
599.56	67.88
599.71	77.24
599.87	44.47
600.03	42.13
600.18	21.06
600.34	39.79
600.50	0.00
600.65	72.56
600.81	16.38
600.97	51.49
601.12	84.26
601.28	4.68
601.44	100.64
601.59	124.05
601.75	58.51
601.91	21.06
602.06	74.90
602.22	23.41
602.37	67.88
602.53	330.02
602.69	500.87
602.84	620.24
603.00	409.59
603.16	332.36
603.31	201.29
603.47	117.03
603.62	56.17
603.78	49.15
603.94	32.77
604.09	28.09
604.25	42.13
604.40	81.92
604.56	93.62
604.71	0.00
604.87	35.11
605.03	81.92
605.18	9.36
605.34	84.26
605.49	88.94
605.65	0.00
605.80	23.41
605.96	107.66
606.12	74.90
606.27	72.56
606.43	37.45
606.58	18.72
606.74	175.54
606.89	664.71
607.05	1263.89
607.20	1767.10
607.36	1462.83
607.51	980.68
607.67	617.90
607.82	381.51
607.98	215.33
608.13	60.85
608.29	74.90
608.44	140.43
608.60	79.58
608.75	70.22
608.91	236.39
609.06	1050.90
609.22	2066.69
609.37	3038.02
609.53	2740.77
609.68	1769.44
609.84	1172.61
609.99	772.38
610.15	411.93
610.30	262.14
610.46	74.90
610.61	124.05
610.76	152.13
610.92	84.26
611.07	72.56
611.23	86.60
611.38	39.79
611.54	67.88
611.69	79.58
611.84	44.47
612.00	81.92
612.15	21.06
612.31	58.51
612.46	117.03
612.62	102.98
612.77	114.69
612.92	117.03
613.08	81.92
613.23	81.92
613.39	32.77
613.54	245.76
613.69	915.15
613.85	2724.38
614.00	4402.55
614.15	4856.61
614.31	3410.16
614.46	2209.47
614.62	1526.03
614.77	954.94
614.92	451.72
615.08	180.22
615.23	23.41
615.38	72.56
615.54	140.43
615.69	163.84
615.84	557.05
616.00	980.68
616.15	1289.64
616.30	1069.62
616.46	732.59
616.61	507.90
616.76	327.68
616.92	196.60
617.07	105.32
617.22	102.98
617.37	117.03
617.53	25.75
617.68	70.22
617.83	23.41
617.99	0.00
618.14	39.79
618.29	114.69
618.45	79.58
618.60	23.41
618.75	98.30
618.90	72.56
619.06	81.92
619.21	37.45
619.36	44.47
619.51	124.05
619.67	0.00
619.82	51.49
619.97	30.43
620.12	124.05
620.28	67.88
620.43	4.68
620.58	32.77
620.73	7.02
620.89	11.70
621.04	93.62
621.19	308.95
621.34	526.62
621.49	725.57
621.65	704.50
621.80	418.96
621.95	231.71
622.10	224.69
622.25	168.52
622.41	117.03
622.56	28.09
622.71	39.79
622.86	93.62
623.01	42.13
623.16	21.06
623.32	11.70
623.47	58.51
623.62	77.24
623.77	63.19
623.92	32.77
624.07	56.17
624.23	114.69
624.38	23.41
624.53	0.00
624.68	28.09
624.83	86.60
624.98	70.22
625.13	44.47
625.29	51.49
625.44	98.30
625.59	114.69
625.74	77.24
625.89	39.79
626.04	355.76
626.19	1331.76
626.34	2127.55
626.49	2483.31
626.65	1942.64
626.80	1282.61
626.95	826.21
627.10	528.96
627.25	320.65
627.40	91.28
627.55	79.58
627.70	46.81
627.85	7.02
628.00	0.00
628.15	7.02
628.30	77.24
628.45	86.60
628.60	65.54
628.76	30.43
628.91	7.02
629.06	79.58
629.21	46.81
629.36	105.32
629.51	18.72
629.66	0.00
629.81	124.05
629.96	266.82
630.11	477.47
630.26	627.26
630.41	585.13
630.56	393.21
630.71	360.44
630.86	229.37
631.01	72.56
631.16	74.90
631.31	77.24
631.46	91.28
631.61	51.49
631.76	37.45
631.91	44.47
632.06	0.00
632.21	51.49
632.36	30.43
632.51	74.90
632.66	42.13
632.81	250.44
632.96	751.31
633.10	1425.39
633.25	1746.04
633.40	1430.07
633.55	961.96
633.70	631.94
633.85	463.43
634.00	234.05
634.15	95.96
634.30	67.88
634.45	98.30
634.60	0.00
634.75	58.51
634.90	0.00
635.05	65.54
635.19	81.92
635.34	126.39
635.49	14.04
635.64	65.54
635.79	105.32
635.94	117.03
636.09	63.19
636.24	53.83
636.39	58.51
636.53	42.13
636.68	11.70
636.83	102.98
636.98	70.22
637.13	121.71
637.28	37.45
637.43	91.28
637.57	63.19
637.72	613.22
637.87	1703.91
638.02	2745.45
638.17	3405.48
638.32	2424.80
638.46	1673.48
638.61	1093.03
638.76	638.97
638.91	332.36
639.06	194.26
639.20	58.51
639.35	110.01
639.50	283.20
639.65	961.96
639.80	2729.06
639.94	4432.97
640.09	4971.30
640.24	3772.94
640.39	2539.48
640.54	1694.55
640.68	1060.26
640.83	564.07
640.98	205.97
641.13	102.98
641.27	154.48
641.42	168.52
641.57	53.83
641.72	65.54
641.86	25.75
642.01	67.88
642.16	23.41
642.31	16.38
642.45	23.41
642.60	95.96
642.75	37.45
642.90	98.30
643.04	39.79
643.19	49.15
643.34	86.60
643.48	88.94
643.63	60.85
643.78	93.62
643.93	2.34
644.07	14.04
644.22	39.79
644.37	0.00
644.51	39.79
644.66	37.45
644.81	88.94
644.95	56.17
645.10	60.85
645.25	35.11
645.39	65.54
645.54	53.83
645.69	32.77
645.83	88.94
645.98	63.19
646.13	58.51
646.27	88.94
646.42	11.70
646.57	70.22
646.71	2.34
646.86	14.04
647.00	49.15
647.15	79.58
647.30	74.90
647.44	84.26
647.59	30.43
647.74	72.56
647.88	105.32
648.03	39.79
648.17	42.13
648.32	63.19
648.47	28.09
648.61	30.43
648.76	46.81
648.90	79.58
649.05	35.11
649.20	46.81
649.34	65.54
649.49	72.56
649.63	32.77
649.78	77.24
649.92	98.30
650.07	463.43
650.21	1268.57
650.36	2101.80
650.51	2616.72
650.65	2228.19
650.80	1549.43
650.94	1001.75
651.09	655.35
651.23	374.49
651.38	191.92
651.52	126.39
651.67	49.15
651.81	42.13
651.96	30.43
652.10	53.83
652.25	58.51
652.39	77.24
652.54	0.00
652.68	135.75
652.83	379.17
652.97	667.05
653.12	959.62
653.26	896.43
653.41	510.24
653.55	437.68
653.70	236.39
653.84	220.01
653.99	107.66
654.13	65.54
654.27	46.81
654.42	46.81
654.56	0.00
654.71	0.00
654.85	18.72
655.00	74.90
655.14	0.00
655.29	53.83
655.43	49.15
655.57	67.88
655.72	0.00
655.86	67.88
656.01	65.54
656.15	84.26
656.30	28.09
656.44	110.01
656.58	93.62
656.73	14.04
656.87	70.22
657.01	21.06
657.16	77.24
657.30	25.75
657.45	58.51
657.59	32.77
657.73	32.77
657.88	39.79
658.02	32.77
658.16	60.85
658.31	23.41
658.45	7.02
658.60	7.02
658.74	84.26
658.88	0.00
659.03	46.81
659.17	63.19
659.31	189.58
659.46	613.22
659.60	978.34
659.74	1277.93
659.89	1130.48
660.03	873.02
660.17	617.90
660.32	353.42
660.46	189.58
660.60	163.84
660.74	28.09
660.89	42.13
661.03	25.75
661.17	81.92
661.32	51.49
661.46	0.00
661.60	53.83
661.74	81.92
661.89	21.06
662.03	74.90
662.17	91.28
662.31	0.00
662.46	11.70
662.60	0.00
662.74	0.00
662.88	11.70
663.03	79.58
663.17	23.41
663.31	70.22
663.45	4.68
663.60	72.56
663.74	18.72
663.88	23.41
664.02	0.00
664.17	86.60
664.31	32.77
664.45	77.24
664.59	0.00
664.73	25.75
664.88	18.72
665.02	25.75
665.16	81.92
665.30	39.79
665.44	16.38
665.59	70.22
665.73	117.03
665.87	0.00
666.01	18.72
666.15	100.64
666.29	60.85
666.44	46.81
666.58	21.06
666.72	72.56
666.86	74.90
667.00	7.02
667.14	124.05
667.28	332.36
667.43	985.37
667.57	1851.36
667.71	2197.76
667.85	1968.39
667.99	1481.56
668.13	903.45
668.27	514.92
668.41	337.04
668.56	250.44
668.70	86.60
668.84	65.54
668.98	133.41
669.12	51.49
669.26	121.71
669.40	79.58
669.54	84.26
669.68	0.00
669.82	98.30
669.96	21.06
670.10	49.15
670.25	0.00
670.39	86.60
670.53	84.26
670.67	46.81
670.81	84.26
670.95	30.43
671.09	147.45
671.23	388.53
671.37	833.23
671.51	1308.36
671.65	1432.41
671.79	1114.10
671.93	777.06
672.07	472.79
672.21	304.27
672.35	126.39
672.49	102.98
672.63	42.13
672.77	60.85
672.91	65.54
673.05	91.28
673.19	63.19
673.33	35.11
673.47	37.45
673.61	0.00
673.75	39.79
673.89	16.38
674.03	70.22
674.17	84.26
674.31	0.00
674.45	74.90
674.59	44.47
674.73	0.00
674.87	7.02
675.01	39.79
675.15	79.58
675.29	39.79
675.43	46.81
675.56	44.47
675.70	0.00
675.84	0.00
675.98	7.02
676.12	14.04
676.26	0.00
676.40	14.04
676.54	0.00
676.68	0.00
676.82	7.02
676.96	23.41
677.10	4.68
677.23	0.00
677.37	9.36
677.51	0.00
677.65	53.83
677.79	0.00
677.93	65.54
678.07	42.13
678.21	67.88
678.34	30.43
678.48	51.49
678.62	30.43
678.76	72.56
678.90	56.17
679.04	0.00
679.18	74.90
679.31	16.38
679.45	35.11
679.59	39.79
679.73	42.13
679.87	46.81
680.00	0.00
680.14	28.09
680.28	70.22
680.42	114.69
680.56	140.43
680.70	35.11
680.83	0.00
680.97	23.41
681.11	77.24
681.25	39.79
681.39	37.45
681.52	23.41
681.66	35.11
681.80	79.58
681.94	58.51
682.07	0.00
682.21	16.38
682.35	16.38
682.49	35.11
682.62	35.11
682.76	65.54
682.90	23.41
683.04	53.83
683.17	65.54
683.31	0.00
683.45	60.85
683.59	30.43
683.72	2.34
683.86	16.38
684.00	21.06
684.13	0.00
684.27	102.98
684.41	0.00
684.55	0.00
684.68	0.00
684.82	18.72
684.96	14.04
685.09	56.17
685.23	14.04
685.37	56.17
685.50	0.00
685.64	0.00
685.78	44.47
685.91	9.36
686.05	9.36
686.19	39.79
686.32	32.77
686.46	0.00
686.60	42.13
686.73	42.13
686.87	4.68
687.01	42.13
687.14	100.64
687.28	11.70
687.42	25.75
687.55	46.81
687.69	4.68
687.82	9.36
687.96	21.06
688.10	32.77
688.23	49.15
688.37	67.88
688.50	18.72
688.64	86.60
688.78	25.75
688.91	86.60
689.05	65.54
689.18	32.77
689.32	35.11
689.46	23.41
689.59	58.51
689.73	0.00
689.86	0.00
690.00	39.79
690.13	44.47
690.27	42.13
690.41	16.38
690.54	37.45
690.68	0.00
690.81	7.02
690.95	65.54
691.08	0.00
691.22	70.22
691.35	0.00
691.49	35.11
691.62	49.15
691.76	30.43
691.89	72.56
692.03	0.00
692.16	23.41
692.30	42.13
692.43	161.50
692.57	351.08
692.70	704.50
692.84	971.32
692.97	922.17
693.11	692.80
693.24	533.64
693.38	313.63
693.51	203.63
693.65	220.01
693.78	51.49
693.92	42.13
694.05	70.22
694.19	42.13
694.32	39.79
694.45	0.00
694.59	30.43
694.72	30.43
694.86	98.30
694.99	0.00
695.13	56.17
695.26	2.34
695.39	30.43
695.53	95.96
695.66	42.13
695.80	21.06
695.93	84.26
696.07	100.64
696.20	60.85
696.33	58.51
696.47	175.54
696.60	51.49
696.73	53.83
696.87	102.98
697.00	44.47
697.14	39.79
697.27	11.70
697.40	0.00
697.54	16.38
697.67	110.01
697.80	42.13
697.94	9.36
698.07	74.90
698.21	35.11
698.34	56.17
698.47	39.79
698.61	25.75
698.74	11.70
698.87	65.54
699.01	0.00
699.14	0.00
699.27	93.62
699.40	35.11
699.54	35.11
699.67	0.00
699.80	28.09
699.94	44.47
700.07	44.47
700.20	0.00
700.34	14.04
700.47	0.00
700.60	18.72
700.73	30.43
700.87	23.41
701.00	7.02
701.13	0.00
701.26	25.75
701.40	0.00
701.53	2.34
701.66	42.13
701.79	42.13
701.93	35.11
702.06	46.81
702.19	154.48
702.32	72.56
702.46	128.73
702.59	49.15
702.72	191.92
702.85	557.05
702.99	1130.48
703.12	1701.57
703.25	1956.69
703.38	1823.28
703.51	1343.47
703.65	1053.24
703.78	683.44
703.91	456.40
704.04	294.91
704.17	191.92
704.31	124.05
704.44	163.84
704.57	84.26
704.70	56.17
704.83	93.62
704.96	58.51
705.10	25.75
705.23	58.51
>>>>>End Processed Spectral Data<<<<<
