SpectraSuite Data File
++++++++++++++++++++++++++++++++++++
Date: Fri Oct 04 12:13:36 GMT-05:00 2013
User: price-jones
Dark Spectrum Present: No
Reference Spectrum Present: No
Number of Sampled Component Spectra: 1
Spectrometers: USB2+H05261
Integration Time (usec): 10000 (USB2+H05261)
Spectra Averaged: 1 (USB2+H05261)
Boxcar Smoothing: 0 (USB2+H05261)
Correct for Electrical Dark: No (USB2+H05261)
Strobe/Lamp Enabled: No (USB2+H05261)
Correct for Detector Non-linearity: No (USB2+H05261)
Correct for Stray Light: No (USB2+H05261)
Number of Pixels in Processed Spectrum: 2048
>>>>>Begin Processed Spectral Data<<<<<
365.73	7.02
365.92	7.02
366.12	7.02
366.32	0.00
366.52	0.00
366.72	0.00
366.91	0.00
367.11	0.00
367.31	0.00
367.51	0.00
367.70	0.00
367.90	0.00
368.10	0.00
368.30	0.00
368.49	0.00
368.69	0.00
368.89	0.00
369.09	0.00
369.28	0.00
369.48	0.00
369.68	0.00
369.87	0.00
370.07	0.00
370.27	0.00
370.47	0.00
370.66	0.00
370.86	0.00
371.06	0.00
371.25	0.00
371.45	9.36
371.65	0.00
371.84	0.00
372.04	0.00
372.24	0.00
372.44	0.00
372.63	4.68
372.83	53.83
373.03	105.32
373.22	49.15
373.42	0.00
373.62	65.54
373.81	63.19
374.01	32.77
374.21	14.04
374.40	28.09
374.60	0.00
374.79	46.81
374.99	28.09
375.19	79.58
375.38	95.96
375.58	23.41
375.78	72.56
375.97	44.47
376.17	0.00
376.37	18.72
376.56	32.77
376.76	46.81
376.95	70.22
377.15	117.03
377.35	84.26
377.54	0.00
377.74	16.38
377.93	95.96
378.13	0.00
378.33	4.68
378.52	14.04
378.72	44.47
378.91	0.00
379.11	44.47
379.31	0.00
379.50	0.00
379.70	60.85
379.89	35.11
380.09	44.47
380.28	42.13
380.48	0.00
380.68	0.00
380.87	72.56
381.07	32.77
381.26	72.56
381.46	37.45
381.65	7.02
381.85	16.38
382.04	0.00
382.24	65.54
382.43	49.15
382.63	56.17
382.83	60.85
383.02	49.15
383.22	60.85
383.41	11.70
383.61	28.09
383.80	9.36
384.00	14.04
384.19	0.00
384.39	77.24
384.58	49.15
384.78	16.38
384.97	37.45
385.17	32.77
385.36	0.00
385.56	0.00
385.75	46.81
385.95	25.75
386.14	0.00
386.34	18.72
386.53	21.06
386.72	4.68
386.92	11.70
387.11	0.00
387.31	2.34
387.50	23.41
387.70	105.32
387.89	112.35
388.09	70.22
388.28	0.00
388.48	67.88
388.67	107.66
388.86	0.00
389.06	46.81
389.25	0.00
389.45	58.51
389.64	25.75
389.84	37.45
390.03	0.00
390.22	0.00
390.42	0.00
390.61	11.70
390.81	53.83
391.00	0.00
391.19	44.47
391.39	0.00
391.58	0.00
391.78	79.58
391.97	74.90
392.16	28.09
392.36	58.51
392.55	2.34
392.75	49.15
392.94	65.54
393.13	39.79
393.33	67.88
393.52	28.09
393.71	30.43
393.91	84.26
394.10	46.81
394.29	70.22
394.49	25.75
394.68	18.72
394.88	49.15
395.07	42.13
395.26	0.00
395.46	4.68
395.65	0.00
395.84	35.11
396.04	0.00
396.23	0.00
396.42	39.79
396.62	58.51
396.81	42.13
397.00	14.04
397.19	42.13
397.39	7.02
397.58	16.38
397.77	0.00
397.97	28.09
398.16	0.00
398.35	30.43
398.55	0.00
398.74	4.68
398.93	9.36
399.12	18.72
399.32	23.41
399.51	79.58
399.70	23.41
399.90	25.75
400.09	0.00
400.28	49.15
400.47	32.77
400.67	65.54
400.86	0.00
401.05	0.00
401.24	44.47
401.44	84.26
401.63	0.00
401.82	28.09
402.01	25.75
402.21	23.41
402.40	0.00
402.59	7.02
402.78	30.43
402.97	42.13
403.17	44.47
403.36	0.00
403.55	56.17
403.74	18.72
403.93	44.47
404.13	0.00
404.32	0.00
404.51	0.00
404.70	39.79
404.89	0.00
405.09	16.38
405.28	60.85
405.47	56.17
405.66	79.58
405.85	35.11
406.05	21.06
406.24	0.00
406.43	72.56
406.62	60.85
406.81	30.43
407.00	4.68
407.20	18.72
407.39	49.15
407.58	65.54
407.77	88.94
407.96	74.90
408.15	0.00
408.34	21.06
408.54	28.09
408.73	105.32
408.92	67.88
409.11	35.11
409.30	21.06
409.49	25.75
409.68	67.88
409.87	14.04
410.07	0.00
410.26	32.77
410.45	23.41
410.64	60.85
410.83	42.13
411.02	0.00
411.21	88.94
411.40	56.17
411.59	53.83
411.78	14.04
411.98	32.77
412.17	56.17
412.36	58.51
412.55	93.62
412.74	2.34
412.93	46.81
413.12	0.00
413.31	39.79
413.50	23.41
413.69	42.13
413.88	79.58
414.07	0.00
414.26	18.72
414.45	84.26
414.64	42.13
414.83	30.43
415.02	67.88
415.22	30.43
415.41	11.70
415.60	0.00
415.79	39.79
415.98	0.00
416.17	95.96
416.36	9.36
416.55	28.09
416.74	67.88
416.93	53.83
417.12	7.02
417.31	39.79
417.50	56.17
417.69	74.90
417.88	23.41
418.07	107.66
418.26	46.81
418.45	0.00
418.64	60.85
418.83	11.70
419.02	79.58
419.21	18.72
419.39	14.04
419.58	23.41
419.77	39.79
419.96	70.22
420.15	56.17
420.34	21.06
420.53	56.17
420.72	42.13
420.91	84.26
421.10	93.62
421.29	91.28
421.48	58.51
421.67	18.72
421.86	0.00
422.05	39.79
422.24	100.64
422.43	11.70
422.61	0.00
422.80	81.92
422.99	58.51
423.18	117.03
423.37	18.72
423.56	32.77
423.75	100.64
423.94	42.13
424.13	44.47
424.32	30.43
424.50	0.00
424.69	91.28
424.88	25.75
425.07	0.00
425.26	35.11
425.45	32.77
425.64	72.56
425.83	25.75
426.01	65.54
426.20	112.35
426.39	28.09
426.58	74.90
426.77	46.81
426.96	74.90
427.15	37.45
427.33	46.81
427.52	65.54
427.71	18.72
427.90	42.13
428.09	56.17
428.28	21.06
428.46	16.38
428.65	74.90
428.84	37.45
429.03	37.45
429.22	37.45
429.40	11.70
429.59	49.15
429.78	58.51
429.97	0.00
430.16	42.13
430.34	14.04
430.53	7.02
430.72	37.45
430.91	44.47
431.10	23.41
431.28	44.47
431.47	9.36
431.66	39.79
431.85	53.83
432.03	63.19
432.22	21.06
432.41	53.83
432.60	58.51
432.79	51.49
432.97	39.79
433.16	70.22
433.35	28.09
433.54	0.00
433.72	32.77
433.91	44.47
434.10	63.19
434.28	25.75
434.47	18.72
434.66	21.06
434.85	0.00
435.03	56.17
435.22	9.36
435.41	60.85
435.59	46.81
435.78	133.41
435.97	74.90
436.16	119.37
436.34	9.36
436.53	67.88
436.72	0.00
436.90	0.00
437.09	53.83
437.28	100.64
437.46	35.11
437.65	23.41
437.84	81.92
438.02	79.58
438.21	74.90
438.40	100.64
438.58	63.19
438.77	42.13
438.96	0.00
439.14	56.17
439.33	28.09
439.52	11.70
439.70	65.54
439.89	79.58
440.08	37.45
440.26	51.49
440.45	81.92
440.63	25.75
440.82	14.04
441.01	56.17
441.19	30.43
441.38	72.56
441.57	0.00
441.75	0.00
441.94	42.13
442.12	77.24
442.31	0.00
442.50	39.79
442.68	60.85
442.87	21.06
443.05	131.07
443.24	100.64
443.43	2.34
443.61	23.41
443.80	65.54
443.98	58.51
444.17	42.13
444.35	60.85
444.54	91.28
444.73	60.85
444.91	72.56
445.10	84.26
445.28	37.45
445.47	72.56
445.65	102.98
445.84	9.36
446.02	37.45
446.21	81.92
446.39	0.00
446.58	88.94
446.77	44.47
446.95	51.49
447.14	77.24
447.32	46.81
447.51	67.88
447.69	84.26
447.88	46.81
448.06	0.00
448.25	60.85
448.43	60.85
448.62	4.68
448.80	119.37
448.99	0.00
449.17	30.43
449.36	51.49
449.54	79.58
449.73	77.24
449.91	63.19
450.10	93.62
450.28	67.88
450.46	93.62
450.65	39.79
450.83	44.47
451.02	42.13
451.20	0.00
451.39	39.79
451.57	63.19
451.76	91.28
451.94	60.85
452.13	14.04
452.31	58.51
452.49	0.00
452.68	56.17
452.86	65.54
453.05	126.39
453.23	23.41
453.42	56.17
453.60	46.81
453.78	44.47
453.97	65.54
454.15	0.00
454.34	37.45
454.52	67.88
454.70	39.79
454.89	72.56
455.07	35.11
455.26	0.00
455.44	98.30
455.62	28.09
455.81	14.04
455.99	117.03
456.17	88.94
456.36	30.43
456.54	35.11
456.73	11.70
456.91	56.17
457.09	107.66
457.28	14.04
457.46	4.68
457.64	7.02
457.83	88.94
458.01	65.54
458.19	0.00
458.38	81.92
458.56	105.32
458.74	46.81
458.93	44.47
459.11	28.09
459.29	77.24
459.48	49.15
459.66	42.13
459.84	105.32
460.03	4.68
460.21	60.85
460.39	102.98
460.57	72.56
460.76	28.09
460.94	86.60
461.12	35.11
461.31	102.98
461.49	46.81
461.67	2.34
461.85	4.68
462.04	7.02
462.22	77.24
462.40	67.88
462.59	35.11
462.77	77.24
462.95	147.45
463.13	0.00
463.32	0.00
463.50	25.75
463.68	117.03
463.86	56.17
464.05	100.64
464.23	93.62
464.41	74.90
464.59	32.77
464.78	25.75
464.96	107.66
465.14	18.72
465.32	18.72
465.50	23.41
465.69	11.70
465.87	84.26
466.05	0.00
466.23	91.28
466.41	51.49
466.60	56.17
466.78	67.88
466.96	102.98
467.14	93.62
467.32	49.15
467.51	51.49
467.69	49.15
467.87	70.22
468.05	51.49
468.23	67.88
468.41	81.92
468.60	32.77
468.78	37.45
468.96	25.75
469.14	49.15
469.32	30.43
469.50	60.85
469.69	102.98
469.87	81.92
470.05	35.11
470.23	53.83
470.41	44.47
470.59	39.79
470.77	70.22
470.95	39.79
471.14	93.62
471.32	28.09
471.50	88.94
471.68	56.17
471.86	21.06
472.04	70.22
472.22	37.45
472.40	32.77
472.58	65.54
472.77	53.83
472.95	35.11
473.13	91.28
473.31	39.79
473.49	74.90
473.67	56.17
473.85	107.66
474.03	14.04
474.21	93.62
474.39	86.60
474.57	131.07
474.75	84.26
474.93	60.85
475.12	102.98
475.30	72.56
475.48	0.00
475.66	63.19
475.84	124.05
476.02	0.00
476.20	0.00
476.38	18.72
476.56	95.96
476.74	95.96
476.92	81.92
477.10	44.47
477.28	39.79
477.46	65.54
477.64	65.54
477.82	95.96
478.00	23.41
478.18	51.49
478.36	63.19
478.54	46.81
478.72	28.09
478.90	21.06
479.08	63.19
479.26	51.49
479.44	95.96
479.62	46.81
479.80	86.60
479.98	28.09
480.16	42.13
480.34	51.49
480.52	44.47
480.70	16.38
480.88	35.11
481.06	100.64
481.24	100.64
481.41	107.66
481.59	112.35
481.77	95.96
481.95	63.19
482.13	126.39
482.31	102.98
482.49	39.79
482.67	49.15
482.85	63.19
483.03	58.51
483.21	114.69
483.39	63.19
483.57	74.90
483.74	56.17
483.92	140.43
484.10	53.83
484.28	56.17
484.46	65.54
484.64	91.28
484.82	86.60
485.00	25.75
485.18	37.45
485.35	77.24
485.53	161.50
485.71	28.09
485.89	110.01
486.07	105.32
486.25	63.19
486.43	77.24
486.61	105.32
486.78	98.30
486.96	100.64
487.14	14.04
487.32	49.15
487.50	100.64
487.68	42.13
487.85	53.83
488.03	105.32
488.21	91.28
488.39	39.79
488.57	58.51
488.75	70.22
488.92	84.26
489.10	0.00
489.28	93.62
489.46	53.83
489.64	112.35
489.81	88.94
489.99	4.68
490.17	53.83
490.35	14.04
490.53	119.37
490.70	86.60
490.88	51.49
491.06	88.94
491.24	124.05
491.41	65.54
491.59	67.88
491.77	67.88
491.95	88.94
492.13	58.51
492.30	37.45
492.48	67.88
492.66	81.92
492.84	49.15
493.01	77.24
493.19	84.26
493.37	110.01
493.54	124.05
493.72	67.88
493.90	95.96
494.08	67.88
494.25	56.17
494.43	49.15
494.61	102.98
494.79	102.98
494.96	37.45
495.14	23.41
495.32	112.35
495.49	95.96
495.67	79.58
495.85	140.43
496.02	84.26
496.20	93.62
496.38	105.32
496.55	72.56
496.73	30.43
496.91	102.98
497.09	42.13
497.26	72.56
497.44	51.49
497.62	58.51
497.79	79.58
497.97	65.54
498.14	72.56
498.32	18.72
498.50	56.17
498.67	93.62
498.85	147.45
499.03	63.19
499.20	81.92
499.38	30.43
499.56	70.22
499.73	37.45
499.91	74.90
500.08	81.92
500.26	128.73
500.44	126.39
500.61	81.92
500.79	117.03
500.97	67.88
501.14	30.43
501.32	86.60
501.49	95.96
501.67	0.00
501.84	74.90
502.02	46.81
502.20	67.88
502.37	140.43
502.55	156.82
502.72	23.41
502.90	91.28
503.07	84.26
503.25	91.28
503.43	70.22
503.60	37.45
503.78	145.11
503.95	51.49
504.13	121.71
504.30	44.47
504.48	28.09
504.65	4.68
504.83	107.66
505.01	161.50
505.18	67.88
505.36	74.90
505.53	114.69
505.71	46.81
505.88	35.11
506.06	84.26
506.23	128.73
506.41	58.51
506.58	39.79
506.76	112.35
506.93	79.58
507.11	70.22
507.28	138.09
507.46	63.19
507.63	88.94
507.81	124.05
507.98	32.77
508.16	124.05
508.33	37.45
508.50	51.49
508.68	100.64
508.85	98.30
509.03	180.22
509.20	4.68
509.38	79.58
509.55	77.24
509.73	79.58
509.90	0.00
510.08	46.81
510.25	30.43
510.42	98.30
510.60	77.24
510.77	46.81
510.95	110.01
511.12	95.96
511.30	39.79
511.47	107.66
511.64	147.45
511.82	131.07
511.99	84.26
512.17	77.24
512.34	32.77
512.51	131.07
512.69	53.83
512.86	84.26
513.04	119.37
513.21	44.47
513.38	44.47
513.56	14.04
513.73	46.81
513.90	74.90
514.08	77.24
514.25	98.30
514.43	88.94
514.60	166.18
514.77	166.18
514.95	147.45
515.12	2.34
515.29	21.06
515.47	77.24
515.64	131.07
515.81	154.48
515.99	142.77
516.16	65.54
516.33	84.26
516.51	98.30
516.68	65.54
516.85	2.34
517.03	4.68
517.20	44.47
517.37	81.92
517.54	39.79
517.72	65.54
517.89	133.41
518.06	138.09
518.24	128.73
518.41	32.77
518.58	124.05
518.75	105.32
518.93	107.66
519.10	163.84
519.27	105.32
519.45	86.60
519.62	74.90
519.79	56.17
519.96	114.69
520.14	7.02
520.31	74.90
520.48	60.85
520.65	154.48
520.83	124.05
521.00	91.28
521.17	93.62
521.34	51.49
521.52	117.03
521.69	63.19
521.86	95.96
522.03	91.28
522.20	79.58
522.38	46.81
522.55	88.94
522.72	93.62
522.89	128.73
523.07	63.19
523.24	81.92
523.41	49.15
523.58	32.77
523.75	110.01
523.92	119.37
524.10	49.15
524.27	0.00
524.44	121.71
524.61	74.90
524.78	74.90
524.96	63.19
525.13	98.30
525.30	74.90
525.47	67.88
525.64	117.03
525.81	67.88
525.98	105.32
526.16	42.13
526.33	86.60
526.50	114.69
526.67	112.35
526.84	93.62
527.01	30.43
527.18	112.35
527.36	46.81
527.53	100.64
527.70	102.98
527.87	84.26
528.04	110.01
528.21	84.26
528.38	72.56
528.55	72.56
528.72	110.01
528.89	81.92
529.07	149.79
529.24	98.30
529.41	70.22
529.58	95.96
529.75	81.92
529.92	138.09
530.09	95.96
530.26	114.69
530.43	107.66
530.60	30.43
530.77	77.24
530.94	95.96
531.11	142.77
531.28	60.85
531.46	91.28
531.63	86.60
531.80	53.83
531.97	81.92
532.14	74.90
532.31	93.62
532.48	42.13
532.65	51.49
532.82	91.28
532.99	86.60
533.16	77.24
533.33	86.60
533.50	32.77
533.67	28.09
533.84	51.49
534.01	102.98
534.18	81.92
534.35	77.24
534.52	147.45
534.69	2.34
534.86	28.09
535.03	46.81
535.20	56.17
535.37	77.24
535.54	159.16
535.71	114.69
535.88	9.36
536.05	107.66
536.22	110.01
536.38	140.43
536.55	91.28
536.72	42.13
536.89	100.64
537.06	18.72
537.23	56.17
537.40	42.13
537.57	98.30
537.74	102.98
537.91	84.26
538.08	173.20
538.25	65.54
538.42	81.92
538.59	110.01
538.75	105.32
538.92	95.96
539.09	28.09
539.26	23.41
539.43	112.35
539.60	67.88
539.77	42.13
539.94	77.24
540.11	105.32
540.28	51.49
540.44	100.64
540.61	65.54
540.78	39.79
540.95	51.49
541.12	16.38
541.29	0.00
541.46	81.92
541.62	95.96
541.79	107.66
541.96	105.32
542.13	131.07
542.30	121.71
542.47	105.32
542.63	117.03
542.80	124.05
542.97	51.49
543.14	110.01
543.31	53.83
543.48	63.19
543.64	98.30
543.81	79.58
543.98	98.30
544.15	70.22
544.32	67.88
544.48	56.17
544.65	72.56
544.82	77.24
544.99	7.02
545.16	102.98
545.32	107.66
545.49	91.28
545.66	95.96
545.83	135.75
546.00	56.17
546.16	65.54
546.33	102.98
546.50	102.98
546.67	67.88
546.83	70.22
547.00	95.96
547.17	86.60
547.34	42.13
547.50	88.94
547.67	44.47
547.84	107.66
548.00	91.28
548.17	100.64
548.34	72.56
548.51	79.58
548.67	105.32
548.84	86.60
549.01	53.83
549.18	138.09
549.34	149.79
549.51	84.26
549.68	39.79
549.84	46.81
550.01	86.60
550.18	100.64
550.34	67.88
550.51	39.79
550.68	63.19
550.84	44.47
551.01	119.37
551.18	60.85
551.34	114.69
551.51	65.54
551.68	98.30
551.84	124.05
552.01	79.58
552.18	46.81
552.34	119.37
552.51	93.62
552.68	49.15
552.84	100.64
553.01	25.75
553.18	86.60
553.34	88.94
553.51	114.69
553.67	95.96
553.84	81.92
554.01	110.01
554.17	84.26
554.34	37.45
554.51	74.90
554.67	93.62
554.84	84.26
555.00	177.88
555.17	124.05
555.33	124.05
555.50	100.64
555.67	60.85
555.83	145.11
556.00	98.30
556.16	189.58
556.33	131.07
556.50	67.88
556.66	70.22
556.83	65.54
556.99	114.69
557.16	72.56
557.32	35.11
557.49	72.56
557.65	107.66
557.82	88.94
557.98	159.16
558.15	67.88
558.32	121.71
558.48	86.60
558.65	100.64
558.81	28.09
558.98	93.62
559.14	0.00
559.31	35.11
559.47	107.66
559.64	58.51
559.80	67.88
559.97	105.32
560.13	81.92
560.30	124.05
560.46	63.19
560.63	110.01
560.79	131.07
560.96	58.51
561.12	79.58
561.29	102.98
561.45	63.19
561.61	39.79
561.78	86.60
561.94	100.64
562.11	124.05
562.27	126.39
562.44	39.79
562.60	67.88
562.77	42.13
562.93	93.62
563.10	67.88
563.26	65.54
563.42	93.62
563.59	107.66
563.75	67.88
563.92	56.17
564.08	170.86
564.24	84.26
564.41	100.64
564.57	58.51
564.74	112.35
564.90	102.98
565.07	44.47
565.23	102.98
565.39	72.56
565.56	93.62
565.72	49.15
565.88	105.32
566.05	105.32
566.21	159.16
566.38	77.24
566.54	100.64
566.70	58.51
566.87	53.83
567.03	117.03
567.19	67.88
567.36	70.22
567.52	91.28
567.68	88.94
567.85	100.64
568.01	58.51
568.17	105.32
568.34	42.13
568.50	21.06
568.66	25.75
568.83	0.00
568.99	74.90
569.15	110.01
569.32	63.19
569.48	95.96
569.64	53.83
569.81	35.11
569.97	53.83
570.13	98.30
570.30	53.83
570.46	105.32
570.62	102.98
570.78	7.02
570.95	51.49
571.11	58.51
571.27	142.77
571.43	152.13
571.60	67.88
571.76	51.49
571.92	72.56
572.09	74.90
572.25	46.81
572.41	102.98
572.57	112.35
572.74	84.26
572.90	74.90
573.06	156.82
573.22	102.98
573.38	25.75
573.55	128.73
573.71	88.94
573.87	107.66
574.03	154.48
574.20	79.58
574.36	60.85
574.52	44.47
574.68	124.05
574.84	88.94
575.01	46.81
575.17	23.41
575.33	21.06
575.49	39.79
575.65	65.54
575.82	49.15
575.98	21.06
576.14	149.79
576.30	56.17
576.46	51.49
576.62	53.83
576.79	49.15
576.95	107.66
577.11	91.28
577.27	46.81
577.43	65.54
577.59	53.83
577.75	84.26
577.92	51.49
578.08	112.35
578.24	107.66
578.40	88.94
578.56	9.36
578.72	79.58
578.88	21.06
579.04	46.81
579.21	32.77
579.37	63.19
579.53	77.24
579.69	81.92
579.85	98.30
580.01	44.47
580.17	98.30
580.33	18.72
580.49	60.85
580.65	74.90
580.82	65.54
580.98	102.98
581.14	100.64
581.30	46.81
581.46	79.58
581.62	28.09
581.78	84.26
581.94	53.83
582.10	128.73
582.26	44.47
582.42	37.45
582.58	84.26
582.74	53.83
582.90	105.32
583.06	117.03
583.22	72.56
583.38	32.77
583.54	154.48
583.70	72.56
583.86	53.83
584.02	53.83
584.18	114.69
584.34	100.64
584.50	91.28
584.66	72.56
584.82	140.43
584.98	100.64
585.14	117.03
585.30	93.62
585.46	42.13
585.62	93.62
585.78	105.32
585.94	84.26
586.10	91.28
586.26	18.72
586.42	0.00
586.58	100.64
586.74	49.15
586.90	14.04
587.06	95.96
587.22	63.19
587.38	152.13
587.54	63.19
587.70	0.00
587.86	28.09
588.02	107.66
588.18	53.83
588.34	95.96
588.49	77.24
588.65	77.24
588.81	39.79
588.97	9.36
589.13	95.96
589.29	11.70
589.45	67.88
589.61	79.58
589.77	56.17
589.93	138.09
590.08	77.24
590.24	117.03
590.40	56.17
590.56	0.00
590.72	37.45
590.88	70.22
591.04	60.85
591.20	74.90
591.35	60.85
591.51	44.47
591.67	119.37
591.83	63.19
591.99	25.75
592.15	184.90
592.31	84.26
592.46	60.85
592.62	4.68
592.78	84.26
592.94	65.54
593.10	86.60
593.26	53.83
593.41	72.56
593.57	60.85
593.73	128.73
593.89	91.28
594.05	25.75
594.20	46.81
594.36	32.77
594.52	63.19
594.68	121.71
594.84	56.17
594.99	86.60
595.15	79.58
595.31	63.19
595.47	86.60
595.62	79.58
595.78	98.30
595.94	42.13
596.10	23.41
596.25	51.49
596.41	46.81
596.57	32.77
596.73	0.00
596.88	102.98
597.04	23.41
597.20	14.04
597.36	84.26
597.51	98.30
597.67	58.51
597.83	86.60
597.99	77.24
598.14	72.56
598.30	14.04
598.46	107.66
598.61	37.45
598.77	9.36
598.93	112.35
599.09	39.79
599.24	98.30
599.40	0.00
599.56	84.26
599.71	49.15
599.87	102.98
600.03	81.92
600.18	72.56
600.34	42.13
600.50	18.72
600.65	124.05
600.81	46.81
600.97	84.26
601.12	44.47
601.28	63.19
601.44	28.09
601.59	117.03
601.75	30.43
601.91	18.72
602.06	95.96
602.22	67.88
602.37	7.02
602.53	56.17
602.69	88.94
602.84	107.66
603.00	42.13
603.16	21.06
603.31	46.81
603.47	42.13
603.62	53.83
603.78	53.83
603.94	107.66
604.09	112.35
604.25	138.09
604.40	18.72
604.56	21.06
604.71	93.62
604.87	86.60
605.03	67.88
605.18	98.30
605.34	142.77
605.49	51.49
605.65	60.85
605.80	58.51
605.96	58.51
606.12	93.62
606.27	114.69
606.43	32.77
606.58	74.90
606.74	98.30
606.89	86.60
607.05	49.15
607.20	42.13
607.36	105.32
607.51	81.92
607.67	39.79
607.82	46.81
607.98	117.03
608.13	72.56
608.29	18.72
608.44	0.00
608.60	74.90
608.75	30.43
608.91	42.13
609.06	46.81
609.22	98.30
609.37	42.13
609.53	67.88
609.68	0.00
609.84	51.49
609.99	25.75
610.15	72.56
610.30	128.73
610.46	93.62
610.61	0.00
610.76	9.36
610.92	131.07
611.07	114.69
611.23	140.43
611.38	51.49
611.54	46.81
611.69	77.24
611.84	72.56
612.00	105.32
612.15	37.45
612.31	16.38
612.46	88.94
612.62	0.00
612.77	105.32
612.92	42.13
613.08	72.56
613.23	88.94
613.39	25.75
613.54	100.64
613.69	142.77
613.85	42.13
614.00	60.85
614.15	32.77
614.31	88.94
614.46	16.38
614.62	21.06
614.77	0.00
614.92	138.09
615.08	63.19
615.23	70.22
615.38	67.88
615.54	58.51
615.69	119.37
615.84	42.13
616.00	70.22
616.15	100.64
616.30	0.00
616.46	84.26
616.61	84.26
616.76	0.00
616.92	53.83
617.07	46.81
617.22	67.88
617.37	39.79
617.53	39.79
617.68	28.09
617.83	84.26
617.99	4.68
618.14	81.92
618.29	58.51
618.45	102.98
618.60	110.01
618.75	44.47
618.90	131.07
619.06	126.39
619.21	39.79
619.36	60.85
619.51	60.85
619.67	126.39
619.82	42.13
619.97	119.37
620.12	0.00
620.28	28.09
620.43	86.60
620.58	35.11
620.73	63.19
620.89	93.62
621.04	18.72
621.19	32.77
621.34	77.24
621.49	25.75
621.65	37.45
621.80	79.58
621.95	72.56
622.10	67.88
622.25	18.72
622.41	60.85
622.56	72.56
622.71	95.96
622.86	14.04
623.01	32.77
623.16	98.30
623.32	23.41
623.47	98.30
623.62	46.81
623.77	77.24
623.92	117.03
624.07	21.06
624.23	35.11
624.38	28.09
624.53	30.43
624.68	77.24
624.83	77.24
624.98	79.58
625.13	35.11
625.29	51.49
625.44	9.36
625.59	46.81
625.74	102.98
625.89	84.26
626.04	53.83
626.19	70.22
626.34	0.00
626.49	67.88
626.65	0.00
626.80	0.00
626.95	18.72
627.10	88.94
627.25	35.11
627.40	0.00
627.55	65.54
627.70	65.54
627.85	51.49
628.00	107.66
628.15	93.62
628.30	70.22
628.45	100.64
628.60	53.83
628.76	91.28
628.91	63.19
629.06	65.54
629.21	91.28
629.36	107.66
629.51	100.64
629.66	46.81
629.81	16.38
629.96	72.56
630.11	60.85
630.26	56.17
630.41	124.05
630.56	107.66
630.71	44.47
630.86	16.38
631.01	91.28
631.16	35.11
631.31	23.41
631.46	9.36
631.61	44.47
631.76	114.69
631.91	23.41
632.06	18.72
632.21	84.26
632.36	42.13
632.51	0.00
632.66	0.00
632.81	7.02
632.96	65.54
633.10	30.43
633.25	39.79
633.40	0.00
633.55	21.06
633.70	23.41
633.85	42.13
634.00	53.83
634.15	67.88
634.30	110.01
634.45	44.47
634.60	58.51
634.75	119.37
634.90	105.32
635.05	46.81
635.19	42.13
635.34	60.85
635.49	25.75
635.64	58.51
635.79	7.02
635.94	25.75
636.09	117.03
636.24	81.92
636.39	67.88
636.53	56.17
636.68	114.69
636.83	74.90
636.98	112.35
637.13	28.09
637.28	56.17
637.43	72.56
637.57	30.43
637.72	70.22
637.87	0.00
638.02	37.45
638.17	79.58
638.32	112.35
638.46	35.11
638.61	0.00
638.76	2.34
638.91	0.00
639.06	81.92
639.20	7.02
639.35	37.45
639.50	84.26
639.65	74.90
639.80	105.32
639.94	35.11
640.09	67.88
640.24	25.75
640.39	11.70
640.54	88.94
640.68	0.00
640.83	44.47
640.98	65.54
641.13	74.90
641.27	58.51
641.42	0.00
641.57	107.66
641.72	117.03
641.86	23.41
642.01	46.81
642.16	0.00
642.31	35.11
642.45	74.90
642.60	119.37
642.75	86.60
642.90	9.36
643.04	124.05
643.19	0.00
643.34	110.01
643.48	67.88
643.63	42.13
643.78	0.00
643.93	58.51
644.07	42.13
644.22	60.85
644.37	67.88
644.51	58.51
644.66	46.81
644.81	18.72
644.95	0.00
645.10	60.85
645.25	88.94
645.39	0.00
645.54	142.77
645.69	131.07
645.83	93.62
645.98	28.09
646.13	60.85
646.27	4.68
646.42	81.92
646.57	39.79
646.71	98.30
646.86	0.00
647.00	58.51
647.15	86.60
647.30	0.00
647.44	72.56
647.59	46.81
647.74	37.45
647.88	7.02
648.03	0.00
648.17	53.83
648.32	72.56
648.47	77.24
648.61	7.02
648.76	2.34
648.90	0.00
649.05	16.38
649.20	86.60
649.34	46.81
649.49	77.24
649.63	30.43
649.78	84.26
649.92	65.54
650.07	11.70
650.21	77.24
650.36	79.58
650.51	46.81
650.65	81.92
650.80	35.11
650.94	65.54
651.09	56.17
651.23	0.00
651.38	4.68
651.52	84.26
651.67	39.79
651.81	70.22
651.96	65.54
652.10	44.47
652.25	37.45
652.39	23.41
652.54	49.15
652.68	53.83
652.83	81.92
652.97	0.00
653.12	42.13
653.26	93.62
653.41	56.17
653.55	0.00
653.70	32.77
653.84	0.00
653.99	0.00
654.13	16.38
654.27	11.70
654.42	42.13
654.56	128.73
654.71	9.36
654.85	91.28
655.00	35.11
655.14	88.94
655.29	93.62
655.43	46.81
655.57	0.00
655.72	14.04
655.86	72.56
656.01	84.26
656.15	81.92
656.30	14.04
656.44	35.11
656.58	23.41
656.73	67.88
656.87	77.24
657.01	0.00
657.16	56.17
657.30	102.98
657.45	81.92
657.59	119.37
657.73	9.36
657.88	63.19
658.02	42.13
658.16	46.81
658.31	63.19
658.45	112.35
658.60	51.49
658.74	72.56
658.88	58.51
659.03	16.38
659.17	14.04
659.31	37.45
659.46	39.79
659.60	0.00
659.74	0.00
659.89	11.70
660.03	65.54
660.17	25.75
660.32	163.84
660.46	72.56
660.60	14.04
660.74	0.00
660.89	84.26
661.03	56.17
661.17	25.75
661.32	95.96
661.46	100.64
661.60	105.32
661.74	72.56
661.89	30.43
662.03	74.90
662.17	28.09
662.31	4.68
662.46	70.22
662.60	65.54
662.74	105.32
662.88	67.88
663.03	63.19
663.17	93.62
663.31	88.94
663.45	72.56
663.60	49.15
663.74	60.85
663.88	72.56
664.02	53.83
664.17	14.04
664.31	117.03
664.45	49.15
664.59	37.45
664.73	0.00
664.88	42.13
665.02	98.30
665.16	42.13
665.30	88.94
665.44	79.58
665.59	56.17
665.73	18.72
665.87	81.92
666.01	4.68
666.15	14.04
666.29	51.49
666.44	107.66
666.58	95.96
666.72	70.22
666.86	30.43
667.00	58.51
667.14	46.81
667.28	56.17
667.43	86.60
667.57	105.32
667.71	67.88
667.85	18.72
667.99	2.34
668.13	65.54
668.27	58.51
668.41	42.13
668.56	16.38
668.70	60.85
668.84	14.04
668.98	114.69
669.12	42.13
669.26	84.26
669.40	79.58
669.54	86.60
669.68	0.00
669.82	0.00
669.96	14.04
670.10	95.96
670.25	91.28
670.39	58.51
670.53	88.94
670.67	161.50
670.81	60.85
670.95	4.68
671.09	18.72
671.23	51.49
671.37	86.60
671.51	70.22
671.65	70.22
671.79	35.11
671.93	77.24
672.07	56.17
672.21	67.88
672.35	35.11
672.49	0.00
672.63	28.09
672.77	79.58
672.91	91.28
673.05	98.30
673.19	46.81
673.33	51.49
673.47	25.75
673.61	0.00
673.75	25.75
673.89	28.09
674.03	51.49
674.17	2.34
674.31	84.26
674.45	28.09
674.59	84.26
674.73	0.00
674.87	0.00
675.01	9.36
675.15	72.56
675.29	21.06
675.43	77.24
675.56	44.47
675.70	67.88
675.84	91.28
675.98	58.51
676.12	72.56
676.26	0.00
676.40	32.77
676.54	70.22
676.68	35.11
676.82	32.77
676.96	72.56
677.10	56.17
677.23	23.41
677.37	51.49
677.51	70.22
677.65	77.24
677.79	56.17
677.93	49.15
678.07	37.45
678.21	81.92
678.34	102.98
678.48	63.19
678.62	74.90
678.76	32.77
678.90	86.60
679.04	0.00
679.18	56.17
679.31	0.00
679.45	100.64
679.59	93.62
679.73	25.75
679.87	74.90
680.00	42.13
680.14	58.51
680.28	56.17
680.42	32.77
680.56	2.34
680.70	44.47
680.83	105.32
680.97	14.04
681.11	0.00
681.25	65.54
681.39	49.15
681.52	18.72
681.66	37.45
681.80	88.94
681.94	107.66
682.07	88.94
682.21	53.83
682.35	46.81
682.49	46.81
682.62	114.69
682.76	86.60
682.90	14.04
683.04	98.30
683.17	58.51
683.31	18.72
683.45	51.49
683.59	84.26
683.72	39.79
683.86	70.22
684.00	56.17
684.13	72.56
684.27	0.00
684.41	77.24
684.55	60.85
684.68	63.19
684.82	77.24
684.96	51.49
685.09	81.92
685.23	46.81
685.37	53.83
685.50	86.60
685.64	51.49
685.78	0.00
685.91	77.24
686.05	51.49
686.19	0.00
686.32	25.75
686.46	98.30
686.60	95.96
686.73	4.68
686.87	25.75
687.01	23.41
687.14	0.00
687.28	0.00
687.42	30.43
687.55	56.17
687.69	16.38
687.82	0.00
687.96	84.26
688.10	32.77
688.23	28.09
688.37	60.85
688.50	53.83
688.64	46.81
688.78	2.34
688.91	21.06
689.05	0.00
689.18	63.19
689.32	16.38
689.46	112.35
689.59	70.22
689.73	56.17
689.86	32.77
690.00	0.00
690.13	42.13
690.27	53.83
690.41	49.15
690.54	0.00
690.68	0.00
690.81	60.85
690.95	112.35
691.08	49.15
691.22	32.77
691.35	4.68
691.49	28.09
691.62	93.62
691.76	37.45
691.89	0.00
692.03	32.77
692.16	51.49
692.30	4.68
692.43	14.04
692.57	65.54
692.70	9.36
692.84	84.26
692.97	14.04
693.11	105.32
693.24	110.01
693.38	84.26
693.51	30.43
693.65	42.13
693.78	0.00
693.92	0.00
694.05	21.06
694.19	0.00
694.32	9.36
694.45	37.45
694.59	37.45
694.72	53.83
694.86	93.62
694.99	74.90
695.13	35.11
695.26	18.72
695.39	0.00
695.53	126.39
695.66	0.00
695.80	32.77
695.93	84.26
696.07	25.75
696.20	77.24
696.33	0.00
696.47	39.79
696.60	28.09
696.73	0.00
696.87	46.81
697.00	32.77
697.14	42.13
697.27	21.06
697.40	72.56
697.54	35.11
697.67	58.51
697.80	86.60
697.94	0.00
698.07	37.45
698.21	49.15
698.34	14.04
698.47	25.75
698.61	84.26
698.74	0.00
698.87	0.00
699.01	51.49
699.14	53.83
699.27	0.00
699.40	51.49
699.54	9.36
699.67	7.02
699.80	53.83
699.94	18.72
700.07	0.00
700.20	58.51
700.34	0.00
700.47	18.72
700.60	11.70
700.73	56.17
700.87	28.09
701.00	11.70
701.13	14.04
701.26	53.83
701.40	0.00
701.53	30.43
701.66	42.13
701.79	11.70
701.93	0.00
702.06	102.98
702.19	21.06
702.32	18.72
702.46	0.00
702.59	42.13
702.72	49.15
702.85	53.83
702.99	0.00
703.12	70.22
703.25	4.68
703.38	88.94
703.51	0.00
703.65	0.00
703.78	18.72
703.91	42.13
704.04	46.81
704.17	86.60
704.31	58.51
704.44	4.68
704.57	51.49
704.70	46.81
704.83	28.09
704.96	53.83
705.10	39.79
705.23	28.09
>>>>>End Processed Spectral Data<<<<<
