SpectraSuite Data File
++++++++++++++++++++++++++++++++++++
Date: Fri Oct 04 12:13:34 GMT-05:00 2013
User: price-jones
Dark Spectrum Present: No
Reference Spectrum Present: No
Number of Sampled Component Spectra: 1
Spectrometers: USB2+H05261
Integration Time (usec): 10000 (USB2+H05261)
Spectra Averaged: 1 (USB2+H05261)
Boxcar Smoothing: 0 (USB2+H05261)
Correct for Electrical Dark: No (USB2+H05261)
Strobe/Lamp Enabled: No (USB2+H05261)
Correct for Detector Non-linearity: No (USB2+H05261)
Correct for Stray Light: No (USB2+H05261)
Number of Pixels in Processed Spectrum: 2048
>>>>>Begin Processed Spectral Data<<<<<
365.73	60.85
365.92	60.85
366.12	60.85
366.32	0.00
366.52	0.00
366.72	0.00
366.91	0.00
367.11	0.00
367.31	0.00
367.51	0.00
367.70	0.00
367.90	0.00
368.10	0.00
368.30	0.00
368.49	0.00
368.69	0.00
368.89	0.00
369.09	0.00
369.28	0.00
369.48	0.00
369.68	0.00
369.87	0.00
370.07	0.00
370.27	0.00
370.47	9.36
370.66	0.00
370.86	0.00
371.06	0.00
371.25	0.00
371.45	0.00
371.65	14.04
371.84	0.00
372.04	9.36
372.24	37.45
372.44	16.38
372.63	0.00
372.83	25.75
373.03	0.00
373.22	0.00
373.42	39.79
373.62	51.49
373.81	0.00
374.01	46.81
374.21	4.68
374.40	67.88
374.60	32.77
374.79	7.02
374.99	30.43
375.19	42.13
375.38	0.00
375.58	11.70
375.78	30.43
375.97	16.38
376.17	23.41
376.37	28.09
376.56	28.09
376.76	32.77
376.95	42.13
377.15	46.81
377.35	35.11
377.54	39.79
377.74	0.00
377.93	67.88
378.13	0.00
378.33	0.00
378.52	46.81
378.72	35.11
378.91	0.00
379.11	18.72
379.31	25.75
379.50	2.34
379.70	37.45
379.89	39.79
380.09	0.00
380.28	9.36
380.48	16.38
380.68	100.64
380.87	0.00
381.07	46.81
381.26	56.17
381.46	0.00
381.65	16.38
381.85	0.00
382.04	39.79
382.24	91.28
382.43	49.15
382.63	0.00
382.83	0.00
383.02	60.85
383.22	0.00
383.41	23.41
383.61	42.13
383.80	74.90
384.00	44.47
384.19	28.09
384.39	0.00
384.58	9.36
384.78	0.00
384.97	0.00
385.17	7.02
385.36	42.13
385.56	88.94
385.75	56.17
385.95	67.88
386.14	0.00
386.34	0.00
386.53	60.85
386.72	0.00
386.92	44.47
387.11	32.77
387.31	0.00
387.50	0.00
387.70	0.00
387.89	4.68
388.09	35.11
388.28	72.56
388.48	0.00
388.67	7.02
388.86	35.11
389.06	74.90
389.25	63.19
389.45	0.00
389.64	25.75
389.84	102.98
390.03	37.45
390.22	23.41
390.42	42.13
390.61	16.38
390.81	2.34
391.00	0.00
391.19	63.19
391.39	56.17
391.58	14.04
391.78	39.79
391.97	0.00
392.16	0.00
392.36	0.00
392.55	4.68
392.75	60.85
392.94	42.13
393.13	51.49
393.33	51.49
393.52	18.72
393.71	79.58
393.91	42.13
394.10	70.22
394.29	124.05
394.49	77.24
394.68	84.26
394.88	16.38
395.07	37.45
395.26	7.02
395.46	0.00
395.65	0.00
395.84	25.75
396.04	79.58
396.23	74.90
396.42	86.60
396.62	21.06
396.81	58.51
397.00	70.22
397.19	0.00
397.39	21.06
397.58	74.90
397.77	0.00
397.97	11.70
398.16	67.88
398.35	28.09
398.55	28.09
398.74	18.72
398.93	53.83
399.12	114.69
399.32	0.00
399.51	23.41
399.70	74.90
399.90	51.49
400.09	35.11
400.28	30.43
400.47	53.83
400.67	72.56
400.86	23.41
401.05	93.62
401.24	119.37
401.44	60.85
401.63	93.62
401.82	44.47
402.01	32.77
402.21	30.43
402.40	16.38
402.59	0.00
402.78	32.77
402.97	46.81
403.17	32.77
403.36	60.85
403.55	18.72
403.74	107.66
403.93	11.70
404.13	25.75
404.32	0.00
404.51	0.00
404.70	44.47
404.89	7.02
405.09	58.51
405.28	35.11
405.47	0.00
405.66	58.51
405.85	0.00
406.05	0.00
406.24	63.19
406.43	98.30
406.62	49.15
406.81	9.36
407.00	25.75
407.20	37.45
407.39	0.00
407.58	2.34
407.77	117.03
407.96	44.47
408.15	18.72
408.34	65.54
408.54	21.06
408.73	51.49
408.92	30.43
409.11	56.17
409.30	58.51
409.49	51.49
409.68	65.54
409.87	25.75
410.07	11.70
410.26	0.00
410.45	67.88
410.64	42.13
410.83	11.70
411.02	93.62
411.21	14.04
411.40	58.51
411.59	35.11
411.78	0.00
411.98	72.56
412.17	0.00
412.36	4.68
412.55	28.09
412.74	30.43
412.93	56.17
413.12	23.41
413.31	4.68
413.50	11.70
413.69	39.79
413.88	25.75
414.07	14.04
414.26	0.00
414.45	9.36
414.64	65.54
414.83	35.11
415.02	7.02
415.22	21.06
415.41	14.04
415.60	9.36
415.79	28.09
415.98	58.51
416.17	0.00
416.36	14.04
416.55	0.00
416.74	77.24
416.93	74.90
417.12	18.72
417.31	18.72
417.50	28.09
417.69	0.00
417.88	16.38
418.07	67.88
418.26	0.00
418.45	18.72
418.64	25.75
418.83	86.60
419.02	126.39
419.21	60.85
419.39	44.47
419.58	25.75
419.77	0.00
419.96	100.64
420.15	60.85
420.34	84.26
420.53	16.38
420.72	51.49
420.91	32.77
421.10	28.09
421.29	102.98
421.48	32.77
421.67	11.70
421.86	79.58
422.05	35.11
422.24	18.72
422.43	70.22
422.61	0.00
422.80	51.49
422.99	39.79
423.18	46.81
423.37	42.13
423.56	102.98
423.75	25.75
423.94	60.85
424.13	51.49
424.32	67.88
424.50	7.02
424.69	44.47
424.88	49.15
425.07	93.62
425.26	0.00
425.45	39.79
425.64	0.00
425.83	67.88
426.01	16.38
426.20	0.00
426.39	32.77
426.58	32.77
426.77	37.45
426.96	0.00
427.15	56.17
427.33	44.47
427.52	77.24
427.71	9.36
427.90	28.09
428.09	18.72
428.28	74.90
428.46	74.90
428.65	14.04
428.84	0.00
429.03	30.43
429.22	60.85
429.40	35.11
429.59	0.00
429.78	30.43
429.97	25.75
430.16	42.13
430.34	9.36
430.53	25.75
430.72	114.69
430.91	95.96
431.10	51.49
431.28	44.47
431.47	98.30
431.66	72.56
431.85	18.72
432.03	84.26
432.22	25.75
432.41	23.41
432.60	65.54
432.79	0.00
432.97	0.00
433.16	14.04
433.35	7.02
433.54	49.15
433.72	4.68
433.91	7.02
434.10	72.56
434.28	0.00
434.47	42.13
434.66	42.13
434.85	117.03
435.03	121.71
435.22	140.43
435.41	0.00
435.59	30.43
435.78	72.56
435.97	16.38
436.16	70.22
436.34	84.26
436.53	23.41
436.72	21.06
436.90	74.90
437.09	58.51
437.28	133.41
437.46	4.68
437.65	7.02
437.84	18.72
438.02	77.24
438.21	72.56
438.40	0.00
438.58	0.00
438.77	11.70
438.96	9.36
439.14	4.68
439.33	0.00
439.52	11.70
439.70	88.94
439.89	65.54
440.08	44.47
440.26	60.85
440.45	32.77
440.63	46.81
440.82	21.06
441.01	86.60
441.19	98.30
441.38	25.75
441.57	91.28
441.75	9.36
441.94	39.79
442.12	124.05
442.31	86.60
442.50	39.79
442.68	100.64
442.87	91.28
443.05	21.06
443.24	7.02
443.43	42.13
443.61	95.96
443.80	0.00
443.98	65.54
444.17	67.88
444.35	39.79
444.54	70.22
444.73	65.54
444.91	0.00
445.10	81.92
445.28	0.00
445.47	42.13
445.65	0.00
445.84	0.00
446.02	0.00
446.21	102.98
446.39	56.17
446.58	110.01
446.77	32.77
446.95	0.00
447.14	93.62
447.32	65.54
447.51	46.81
447.69	53.83
447.88	72.56
448.06	30.43
448.25	114.69
448.43	21.06
448.62	30.43
448.80	72.56
448.99	65.54
449.17	79.58
449.36	72.56
449.54	37.45
449.73	98.30
449.91	60.85
450.10	23.41
450.28	7.02
450.46	159.16
450.65	65.54
450.83	0.00
451.02	65.54
451.20	67.88
451.39	25.75
451.57	65.54
451.76	0.00
451.94	65.54
452.13	39.79
452.31	67.88
452.49	70.22
452.68	56.17
452.86	2.34
453.05	93.62
453.23	32.77
453.42	0.00
453.60	88.94
453.78	102.98
453.97	35.11
454.15	84.26
454.34	39.79
454.52	14.04
454.70	30.43
454.89	32.77
455.07	77.24
455.26	42.13
455.44	49.15
455.62	46.81
455.81	65.54
455.99	0.00
456.17	60.85
456.36	30.43
456.54	81.92
456.73	39.79
456.91	117.03
457.09	16.38
457.28	0.00
457.46	117.03
457.64	25.75
457.83	105.32
458.01	0.00
458.19	51.49
458.38	70.22
458.56	35.11
458.74	49.15
458.93	56.17
459.11	0.00
459.29	35.11
459.48	77.24
459.66	30.43
459.84	39.79
460.03	77.24
460.21	51.49
460.39	74.90
460.57	18.72
460.76	25.75
460.94	35.11
461.12	49.15
461.31	91.28
461.49	74.90
461.67	56.17
461.85	74.90
462.04	46.81
462.22	117.03
462.40	32.77
462.59	91.28
462.77	79.58
462.95	28.09
463.13	88.94
463.32	98.30
463.50	21.06
463.68	39.79
463.86	79.58
464.05	81.92
464.23	112.35
464.41	35.11
464.59	74.90
464.78	102.98
464.96	88.94
465.14	30.43
465.32	49.15
465.50	60.85
465.69	16.38
465.87	16.38
466.05	30.43
466.23	117.03
466.41	21.06
466.60	32.77
466.78	56.17
466.96	42.13
467.14	14.04
467.32	67.88
467.51	23.41
467.69	53.83
467.87	70.22
468.05	60.85
468.23	93.62
468.41	56.17
468.60	28.09
468.78	0.00
468.96	117.03
469.14	25.75
469.32	74.90
469.50	18.72
469.69	30.43
469.87	18.72
470.05	53.83
470.23	25.75
470.41	46.81
470.59	105.32
470.77	44.47
470.95	14.04
471.14	67.88
471.32	60.85
471.50	28.09
471.68	70.22
471.86	72.56
472.04	88.94
472.22	30.43
472.40	35.11
472.58	7.02
472.77	2.34
472.95	16.38
473.13	91.28
473.31	86.60
473.49	56.17
473.67	21.06
473.85	2.34
474.03	0.00
474.21	0.00
474.39	67.88
474.57	46.81
474.75	18.72
474.93	32.77
475.12	11.70
475.30	16.38
475.48	46.81
475.66	110.01
475.84	21.06
476.02	14.04
476.20	72.56
476.38	49.15
476.56	11.70
476.74	28.09
476.92	0.00
477.10	74.90
477.28	2.34
477.46	42.13
477.64	63.19
477.82	4.68
478.00	56.17
478.18	86.60
478.36	23.41
478.54	91.28
478.72	79.58
478.90	107.66
479.08	51.49
479.26	51.49
479.44	16.38
479.62	124.05
479.80	67.88
479.98	67.88
480.16	93.62
480.34	51.49
480.52	7.02
480.70	0.00
480.88	0.00
481.06	44.47
481.24	35.11
481.41	60.85
481.59	133.41
481.77	72.56
481.95	65.54
482.13	95.96
482.31	58.51
482.49	72.56
482.67	84.26
482.85	58.51
483.03	53.83
483.21	63.19
483.39	39.79
483.57	4.68
483.74	81.92
483.92	51.49
484.10	23.41
484.28	74.90
484.46	98.30
484.64	145.11
484.82	72.56
485.00	63.19
485.18	77.24
485.35	0.00
485.53	42.13
485.71	2.34
485.89	51.49
486.07	100.64
486.25	91.28
486.43	49.15
486.61	0.00
486.78	79.58
486.96	84.26
487.14	39.79
487.32	37.45
487.50	9.36
487.68	67.88
487.85	37.45
488.03	18.72
488.21	60.85
488.39	93.62
488.57	21.06
488.75	110.01
488.92	124.05
489.10	42.13
489.28	88.94
489.46	32.77
489.64	23.41
489.81	110.01
489.99	84.26
490.17	93.62
490.35	74.90
490.53	9.36
490.70	79.58
490.88	67.88
491.06	14.04
491.24	95.96
491.41	49.15
491.59	56.17
491.77	86.60
491.95	70.22
492.13	4.68
492.30	74.90
492.48	95.96
492.66	28.09
492.84	18.72
493.01	65.54
493.19	58.51
493.37	91.28
493.54	21.06
493.72	49.15
493.90	4.68
494.08	100.64
494.25	91.28
494.43	119.37
494.61	81.92
494.79	30.43
494.96	37.45
495.14	65.54
495.32	117.03
495.49	74.90
495.67	0.00
495.85	72.56
496.02	74.90
496.20	86.60
496.38	49.15
496.55	79.58
496.73	35.11
496.91	133.41
497.09	81.92
497.26	74.90
497.44	58.51
497.62	98.30
497.79	51.49
497.97	72.56
498.14	4.68
498.32	133.41
498.50	77.24
498.67	60.85
498.85	0.00
499.03	119.37
499.20	70.22
499.38	25.75
499.56	51.49
499.73	51.49
499.91	124.05
500.08	65.54
500.26	105.32
500.44	16.38
500.61	98.30
500.79	65.54
500.97	149.79
501.14	84.26
501.32	32.77
501.49	88.94
501.67	65.54
501.84	72.56
502.02	95.96
502.20	77.24
502.37	72.56
502.55	49.15
502.72	44.47
502.90	56.17
503.07	14.04
503.25	88.94
503.43	100.64
503.60	51.49
503.78	84.26
503.95	35.11
504.13	51.49
504.30	46.81
504.48	49.15
504.65	100.64
504.83	91.28
505.01	70.22
505.18	79.58
505.36	51.49
505.53	42.13
505.71	60.85
505.88	128.73
506.06	79.58
506.23	70.22
506.41	93.62
506.58	72.56
506.76	65.54
506.93	44.47
507.11	70.22
507.28	107.66
507.46	95.96
507.63	102.98
507.81	56.17
507.98	84.26
508.16	98.30
508.33	70.22
508.50	88.94
508.68	58.51
508.85	51.49
509.03	86.60
509.20	37.45
509.38	84.26
509.55	74.90
509.73	93.62
509.90	81.92
510.08	51.49
510.25	53.83
510.42	46.81
510.60	42.13
510.77	86.60
510.95	98.30
511.12	65.54
511.30	44.47
511.47	114.69
511.64	91.28
511.82	77.24
511.99	98.30
512.17	63.19
512.34	128.73
512.51	107.66
512.69	79.58
512.86	86.60
513.04	98.30
513.21	105.32
513.38	42.13
513.56	46.81
513.73	77.24
513.90	105.32
514.08	65.54
514.25	88.94
514.43	58.51
514.60	100.64
514.77	93.62
514.95	100.64
515.12	117.03
515.29	124.05
515.47	133.41
515.64	77.24
515.81	79.58
515.99	91.28
516.16	39.79
516.33	81.92
516.51	74.90
516.68	102.98
516.85	0.00
517.03	58.51
517.20	21.06
517.37	81.92
517.54	107.66
517.72	93.62
517.89	70.22
518.06	112.35
518.24	107.66
518.41	107.66
518.58	149.79
518.75	77.24
518.93	49.15
519.10	60.85
519.27	95.96
519.45	51.49
519.62	46.81
519.79	112.35
519.96	93.62
520.14	74.90
520.31	102.98
520.48	102.98
520.65	131.07
520.83	107.66
521.00	39.79
521.17	53.83
521.34	135.75
521.52	67.88
521.69	93.62
521.86	60.85
522.03	107.66
522.20	63.19
522.38	110.01
522.55	67.88
522.72	100.64
522.89	112.35
523.07	70.22
523.24	77.24
523.41	53.83
523.58	86.60
523.75	110.01
523.92	60.85
524.10	117.03
524.27	88.94
524.44	170.86
524.61	112.35
524.78	30.43
524.96	39.79
525.13	98.30
525.30	121.71
525.47	91.28
525.64	93.62
525.81	58.51
525.98	74.90
526.16	53.83
526.33	74.90
526.50	154.48
526.67	25.75
526.84	0.00
527.01	91.28
527.18	79.58
527.36	28.09
527.53	119.37
527.70	128.73
527.87	131.07
528.04	121.71
528.21	117.03
528.38	114.69
528.55	110.01
528.72	42.13
528.89	191.92
529.07	88.94
529.24	98.30
529.41	81.92
529.58	107.66
529.75	88.94
529.92	42.13
530.09	65.54
530.26	102.98
530.43	42.13
530.60	100.64
530.77	86.60
530.94	91.28
531.11	114.69
531.28	81.92
531.46	114.69
531.63	25.75
531.80	16.38
531.97	138.09
532.14	51.49
532.31	65.54
532.48	107.66
532.65	56.17
532.82	0.00
532.99	35.11
533.16	58.51
533.33	86.60
533.50	58.51
533.67	23.41
533.84	100.64
534.01	44.47
534.18	128.73
534.35	79.58
534.52	74.90
534.69	77.24
534.86	149.79
535.03	124.05
535.20	35.11
535.37	91.28
535.54	79.58
535.71	25.75
535.88	72.56
536.05	95.96
536.22	105.32
536.38	147.45
536.55	84.26
536.72	79.58
536.89	67.88
537.06	39.79
537.23	46.81
537.40	74.90
537.57	28.09
537.74	95.96
537.91	98.30
538.08	35.11
538.25	49.15
538.42	110.01
538.59	131.07
538.75	23.41
538.92	16.38
539.09	126.39
539.26	65.54
539.43	86.60
539.60	105.32
539.77	42.13
539.94	44.47
540.11	79.58
540.28	0.00
540.44	95.96
540.61	63.19
540.78	84.26
540.95	72.56
541.12	154.48
541.29	84.26
541.46	32.77
541.62	114.69
541.79	95.96
541.96	95.96
542.13	110.01
542.30	2.34
542.47	145.11
542.63	140.43
542.80	142.77
542.97	53.83
543.14	35.11
543.31	72.56
543.48	128.73
543.64	63.19
543.81	88.94
543.98	44.47
544.15	81.92
544.32	107.66
544.48	93.62
544.65	138.09
544.82	39.79
544.99	128.73
545.16	7.02
545.32	37.45
545.49	72.56
545.66	149.79
545.83	79.58
546.00	53.83
546.16	28.09
546.33	39.79
546.50	56.17
546.67	58.51
546.83	105.32
547.00	91.28
547.17	56.17
547.34	88.94
547.50	152.13
547.67	51.49
547.84	114.69
548.00	138.09
548.17	88.94
548.34	88.94
548.51	65.54
548.67	91.28
548.84	88.94
549.01	79.58
549.18	170.86
549.34	60.85
549.51	107.66
549.68	51.49
549.84	79.58
550.01	88.94
550.18	72.56
550.34	140.43
550.51	84.26
550.68	25.75
550.84	18.72
551.01	84.26
551.18	133.41
551.34	95.96
551.51	70.22
551.68	98.30
551.84	77.24
552.01	93.62
552.18	95.96
552.34	72.56
552.51	110.01
552.68	63.19
552.84	86.60
553.01	65.54
553.18	65.54
553.34	107.66
553.51	105.32
553.67	37.45
553.84	95.96
554.01	86.60
554.17	86.60
554.34	128.73
554.51	91.28
554.67	72.56
554.84	124.05
555.00	112.35
555.17	110.01
555.33	159.16
555.50	72.56
555.67	72.56
555.83	88.94
556.00	154.48
556.16	107.66
556.33	114.69
556.50	124.05
556.66	0.00
556.83	93.62
556.99	93.62
557.16	126.39
557.32	119.37
557.49	81.92
557.65	25.75
557.82	95.96
557.98	177.88
558.15	79.58
558.32	86.60
558.48	117.03
558.65	102.98
558.81	70.22
558.98	131.07
559.14	0.00
559.31	51.49
559.47	88.94
559.64	67.88
559.80	51.49
559.97	58.51
560.13	74.90
560.30	84.26
560.46	147.45
560.63	84.26
560.79	93.62
560.96	79.58
561.12	0.00
561.29	84.26
561.45	49.15
561.61	70.22
561.78	77.24
561.94	53.83
562.11	131.07
562.27	84.26
562.44	16.38
562.60	37.45
562.77	102.98
562.93	53.83
563.10	110.01
563.26	81.92
563.42	67.88
563.59	86.60
563.75	124.05
563.92	161.50
564.08	88.94
564.24	93.62
564.41	81.92
564.57	105.32
564.74	105.32
564.90	152.13
565.07	74.90
565.23	63.19
565.39	65.54
565.56	112.35
565.72	0.00
565.88	58.51
566.05	70.22
566.21	124.05
566.38	70.22
566.54	91.28
566.70	60.85
566.87	91.28
567.03	67.88
567.19	133.41
567.36	91.28
567.52	42.13
567.68	70.22
567.85	74.90
568.01	93.62
568.17	65.54
568.34	0.00
568.50	140.43
568.66	81.92
568.83	91.28
568.99	49.15
569.15	60.85
569.32	39.79
569.48	95.96
569.64	121.71
569.81	49.15
569.97	11.70
570.13	93.62
570.30	37.45
570.46	117.03
570.62	9.36
570.78	93.62
570.95	56.17
571.11	91.28
571.27	91.28
571.43	114.69
571.60	42.13
571.76	35.11
571.92	44.47
572.09	81.92
572.25	93.62
572.41	49.15
572.57	126.39
572.74	74.90
572.90	81.92
573.06	100.64
573.22	56.17
573.38	72.56
573.55	51.49
573.71	0.00
573.87	133.41
574.03	56.17
574.20	65.54
574.36	56.17
574.52	98.30
574.68	63.19
574.84	65.54
575.01	131.07
575.17	46.81
575.33	77.24
575.49	133.41
575.65	98.30
575.82	91.28
575.98	124.05
576.14	65.54
576.30	98.30
576.46	100.64
576.62	72.56
576.79	107.66
576.95	138.09
577.11	28.09
577.27	84.26
577.43	100.64
577.59	88.94
577.75	39.79
577.92	86.60
578.08	84.26
578.24	63.19
578.40	63.19
578.56	42.13
578.72	117.03
578.88	133.41
579.04	196.60
579.21	114.69
579.37	58.51
579.53	72.56
579.69	77.24
579.85	110.01
580.01	140.43
580.17	65.54
580.33	9.36
580.49	28.09
580.65	74.90
580.82	21.06
580.98	56.17
581.14	81.92
581.30	135.75
581.46	46.81
581.62	49.15
581.78	51.49
581.94	86.60
582.10	28.09
582.26	16.38
582.42	4.68
582.58	30.43
582.74	56.17
582.90	23.41
583.06	105.32
583.22	51.49
583.38	65.54
583.54	98.30
583.70	84.26
583.86	112.35
584.02	88.94
584.18	93.62
584.34	88.94
584.50	147.45
584.66	72.56
584.82	88.94
584.98	77.24
585.14	74.90
585.30	91.28
585.46	98.30
585.62	44.47
585.78	98.30
585.94	88.94
586.10	72.56
586.26	72.56
586.42	56.17
586.58	154.48
586.74	84.26
586.90	44.47
587.06	114.69
587.22	159.16
587.38	70.22
587.54	67.88
587.70	0.00
587.86	124.05
588.02	131.07
588.18	32.77
588.34	16.38
588.49	77.24
588.65	53.83
588.81	0.00
588.97	37.45
589.13	105.32
589.29	93.62
589.45	39.79
589.61	53.83
589.77	98.30
589.93	88.94
590.08	23.41
590.24	28.09
590.40	18.72
590.56	84.26
590.72	98.30
590.88	11.70
591.04	74.90
591.20	0.00
591.35	77.24
591.51	42.13
591.67	37.45
591.83	72.56
591.99	112.35
592.15	79.58
592.31	121.71
592.46	93.62
592.62	56.17
592.78	58.51
592.94	114.69
593.10	70.22
593.26	44.47
593.41	74.90
593.57	35.11
593.73	74.90
593.89	46.81
594.05	95.96
594.20	124.05
594.36	44.47
594.52	58.51
594.68	112.35
594.84	49.15
594.99	117.03
595.15	32.77
595.31	114.69
595.47	28.09
595.62	25.75
595.78	39.79
595.94	67.88
596.10	119.37
596.25	60.85
596.41	37.45
596.57	46.81
596.73	100.64
596.88	60.85
597.04	63.19
597.20	133.41
597.36	39.79
597.51	79.58
597.67	74.90
597.83	114.69
597.99	119.37
598.14	86.60
598.30	37.45
598.46	56.17
598.61	39.79
598.77	102.98
598.93	74.90
599.09	95.96
599.24	84.26
599.40	114.69
599.56	114.69
599.71	18.72
599.87	42.13
600.03	67.88
600.18	107.66
600.34	107.66
600.50	32.77
600.65	86.60
600.81	18.72
600.97	110.01
601.12	102.98
601.28	18.72
601.44	58.51
601.59	0.00
601.75	91.28
601.91	4.68
602.06	2.34
602.22	7.02
602.37	81.92
602.53	124.05
602.69	67.88
602.84	39.79
603.00	93.62
603.16	58.51
603.31	74.90
603.47	81.92
603.62	81.92
603.78	35.11
603.94	105.32
604.09	117.03
604.25	77.24
604.40	142.77
604.56	58.51
604.71	72.56
604.87	79.58
605.03	37.45
605.18	37.45
605.34	70.22
605.49	70.22
605.65	72.56
605.80	67.88
605.96	28.09
606.12	84.26
606.27	37.45
606.43	91.28
606.58	67.88
606.74	25.75
606.89	56.17
607.05	100.64
607.20	53.83
607.36	14.04
607.51	74.90
607.67	140.43
607.82	51.49
607.98	84.26
608.13	74.90
608.29	0.00
608.44	105.32
608.60	25.75
608.75	72.56
608.91	0.00
609.06	161.50
609.22	39.79
609.37	100.64
609.53	65.54
609.68	63.19
609.84	42.13
609.99	35.11
610.15	70.22
610.30	91.28
610.46	156.82
610.61	93.62
610.76	58.51
610.92	126.39
611.07	93.62
611.23	91.28
611.38	56.17
611.54	51.49
611.69	102.98
611.84	124.05
612.00	46.81
612.15	117.03
612.31	56.17
612.46	84.26
612.62	7.02
612.77	58.51
612.92	7.02
613.08	51.49
613.23	100.64
613.39	77.24
613.54	95.96
613.69	65.54
613.85	105.32
614.00	65.54
614.15	117.03
614.31	81.92
614.46	77.24
614.62	93.62
614.77	35.11
614.92	84.26
615.08	102.98
615.23	46.81
615.38	79.58
615.54	93.62
615.69	23.41
615.84	175.54
616.00	95.96
616.15	49.15
616.30	23.41
616.46	30.43
616.61	0.00
616.76	44.47
616.92	79.58
617.07	79.58
617.22	65.54
617.37	56.17
617.53	84.26
617.68	95.96
617.83	74.90
617.99	4.68
618.14	107.66
618.29	100.64
618.45	88.94
618.60	91.28
618.75	18.72
618.90	37.45
619.06	51.49
619.21	117.03
619.36	81.92
619.51	37.45
619.67	72.56
619.82	93.62
619.97	70.22
620.12	65.54
620.28	0.00
620.43	65.54
620.58	84.26
620.73	37.45
620.89	39.79
621.04	30.43
621.19	23.41
621.34	124.05
621.49	51.49
621.65	39.79
621.80	74.90
621.95	95.96
622.10	37.45
622.25	114.69
622.41	39.79
622.56	65.54
622.71	93.62
622.86	44.47
623.01	72.56
623.16	105.32
623.32	42.13
623.47	25.75
623.62	23.41
623.77	60.85
623.92	51.49
624.07	63.19
624.23	51.49
624.38	51.49
624.53	65.54
624.68	91.28
624.83	79.58
624.98	21.06
625.13	98.30
625.29	86.60
625.44	81.92
625.59	91.28
625.74	84.26
625.89	67.88
626.04	65.54
626.19	49.15
626.34	91.28
626.49	11.70
626.65	46.81
626.80	121.71
626.95	119.37
627.10	28.09
627.25	46.81
627.40	28.09
627.55	51.49
627.70	25.75
627.85	16.38
628.00	21.06
628.15	51.49
628.30	53.83
628.45	91.28
628.60	53.83
628.76	18.72
628.91	58.51
629.06	142.77
629.21	56.17
629.36	86.60
629.51	84.26
629.66	0.00
629.81	65.54
629.96	60.85
630.11	79.58
630.26	58.51
630.41	14.04
630.56	93.62
630.71	49.15
630.86	46.81
631.01	51.49
631.16	37.45
631.31	91.28
631.46	16.38
631.61	32.77
631.76	138.09
631.91	100.64
632.06	107.66
632.21	46.81
632.36	91.28
632.51	100.64
632.66	30.43
632.81	84.26
632.96	53.83
633.10	32.77
633.25	65.54
633.40	44.47
633.55	39.79
633.70	16.38
633.85	133.41
634.00	105.32
634.15	74.90
634.30	84.26
634.45	28.09
634.60	18.72
634.75	84.26
634.90	28.09
635.05	86.60
635.19	84.26
635.34	39.79
635.49	77.24
635.64	51.49
635.79	37.45
635.94	149.79
636.09	58.51
636.24	18.72
636.39	81.92
636.53	145.11
636.68	42.13
636.83	21.06
636.98	74.90
637.13	88.94
637.28	88.94
637.43	88.94
637.57	30.43
637.72	11.70
637.87	30.43
638.02	42.13
638.17	28.09
638.32	65.54
638.46	37.45
638.61	21.06
638.76	56.17
638.91	37.45
639.06	77.24
639.20	70.22
639.35	81.92
639.50	70.22
639.65	18.72
639.80	32.77
639.94	77.24
640.09	56.17
640.24	119.37
640.39	30.43
640.54	51.49
640.68	88.94
640.83	84.26
640.98	95.96
641.13	51.49
641.27	53.83
641.42	49.15
641.57	37.45
641.72	65.54
641.86	107.66
642.01	7.02
642.16	35.11
642.31	18.72
642.45	86.60
642.60	18.72
642.75	42.13
642.90	0.00
643.04	98.30
643.19	91.28
643.34	119.37
643.48	86.60
643.63	107.66
643.78	23.41
643.93	102.98
644.07	2.34
644.22	0.00
644.37	32.77
644.51	37.45
644.66	67.88
644.81	32.77
644.95	0.00
645.10	95.96
645.25	23.41
645.39	63.19
645.54	49.15
645.69	93.62
645.83	0.00
645.98	84.26
646.13	39.79
646.27	44.47
646.42	65.54
646.57	56.17
646.71	110.01
646.86	63.19
647.00	35.11
647.15	74.90
647.30	2.34
647.44	74.90
647.59	131.07
647.74	63.19
647.88	42.13
648.03	18.72
648.17	70.22
648.32	46.81
648.47	23.41
648.61	18.72
648.76	39.79
648.90	46.81
649.05	18.72
649.20	23.41
649.34	49.15
649.49	23.41
649.63	0.00
649.78	67.88
649.92	56.17
650.07	0.00
650.21	16.38
650.36	9.36
650.51	91.28
650.65	121.71
650.80	95.96
650.94	72.56
651.09	42.13
651.23	14.04
651.38	42.13
651.52	46.81
651.67	98.30
651.81	23.41
651.96	53.83
652.10	51.49
652.25	72.56
652.39	81.92
652.54	0.00
652.68	37.45
652.83	63.19
652.97	46.81
653.12	35.11
653.26	23.41
653.41	42.13
653.55	79.58
653.70	72.56
653.84	21.06
653.99	65.54
654.13	67.88
654.27	63.19
654.42	28.09
654.56	35.11
654.71	23.41
654.85	25.75
655.00	60.85
655.14	56.17
655.29	88.94
655.43	93.62
655.57	28.09
655.72	44.47
655.86	53.83
656.01	39.79
656.15	25.75
656.30	74.90
656.44	30.43
656.58	63.19
656.73	42.13
656.87	37.45
657.01	72.56
657.16	126.39
657.30	46.81
657.45	30.43
657.59	42.13
657.73	91.28
657.88	53.83
658.02	95.96
658.16	0.00
658.31	67.88
658.45	39.79
658.60	37.45
658.74	91.28
658.88	88.94
659.03	4.68
659.17	105.32
659.31	9.36
659.46	67.88
659.60	84.26
659.74	58.51
659.89	14.04
660.03	117.03
660.17	51.49
660.32	4.68
660.46	98.30
660.60	30.43
660.74	51.49
660.89	49.15
661.03	0.00
661.17	2.34
661.32	46.81
661.46	60.85
661.60	70.22
661.74	25.75
661.89	11.70
662.03	42.13
662.17	32.77
662.31	0.00
662.46	46.81
662.60	67.88
662.74	53.83
662.88	49.15
663.03	14.04
663.17	72.56
663.31	0.00
663.45	107.66
663.60	63.19
663.74	0.00
663.88	46.81
664.02	4.68
664.17	98.30
664.31	39.79
664.45	37.45
664.59	9.36
664.73	23.41
664.88	14.04
665.02	42.13
665.16	11.70
665.30	53.83
665.44	0.00
665.59	131.07
665.73	37.45
665.87	49.15
666.01	60.85
666.15	53.83
666.29	0.00
666.44	58.51
666.58	51.49
666.72	28.09
666.86	60.85
667.00	21.06
667.14	46.81
667.28	9.36
667.43	79.58
667.57	2.34
667.71	67.88
667.85	35.11
667.99	93.62
668.13	98.30
668.27	9.36
668.41	21.06
668.56	93.62
668.70	7.02
668.84	51.49
668.98	18.72
669.12	93.62
669.26	28.09
669.40	51.49
669.54	16.38
669.68	65.54
669.82	84.26
669.96	58.51
670.10	21.06
670.25	16.38
670.39	42.13
670.53	126.39
670.67	35.11
670.81	39.79
670.95	60.85
671.09	81.92
671.23	53.83
671.37	117.03
671.51	147.45
671.65	18.72
671.79	0.00
671.93	70.22
672.07	128.73
672.21	32.77
672.35	77.24
672.49	72.56
672.63	23.41
672.77	119.37
672.91	84.26
673.05	0.00
673.19	100.64
673.33	77.24
673.47	28.09
673.61	74.90
673.75	88.94
673.89	16.38
674.03	0.00
674.17	65.54
674.31	84.26
674.45	0.00
674.59	0.00
674.73	32.77
674.87	37.45
675.01	49.15
675.15	67.88
675.29	84.26
675.43	37.45
675.56	56.17
675.70	91.28
675.84	67.88
675.98	11.70
676.12	46.81
676.26	32.77
676.40	0.00
676.54	0.00
676.68	32.77
676.82	138.09
676.96	30.43
677.10	11.70
677.23	65.54
677.37	51.49
677.51	4.68
677.65	53.83
677.79	79.58
677.93	42.13
678.07	0.00
678.21	53.83
678.34	14.04
678.48	53.83
678.62	67.88
678.76	49.15
678.90	11.70
679.04	49.15
679.18	46.81
679.31	32.77
679.45	11.70
679.59	58.51
679.73	0.00
679.87	49.15
680.00	42.13
680.14	81.92
680.28	65.54
680.42	37.45
680.56	60.85
680.70	11.70
680.83	35.11
680.97	32.77
681.11	93.62
681.25	39.79
681.39	91.28
681.52	37.45
681.66	18.72
681.80	14.04
681.94	86.60
682.07	0.00
682.21	46.81
682.35	18.72
682.49	67.88
682.62	77.24
682.76	18.72
682.90	16.38
683.04	102.98
683.17	53.83
683.31	35.11
683.45	65.54
683.59	100.64
683.72	77.24
683.86	9.36
684.00	23.41
684.13	51.49
684.27	30.43
684.41	4.68
684.55	4.68
684.68	18.72
684.82	37.45
684.96	39.79
685.09	18.72
685.23	0.00
685.37	67.88
685.50	63.19
685.64	16.38
685.78	16.38
685.91	0.00
686.05	105.32
686.19	95.96
686.32	0.00
686.46	28.09
686.60	49.15
686.73	0.00
686.87	32.77
687.01	18.72
687.14	65.54
687.28	39.79
687.42	42.13
687.55	0.00
687.69	9.36
687.82	56.17
687.96	72.56
688.10	0.00
688.23	51.49
688.37	65.54
688.50	72.56
688.64	86.60
688.78	74.90
688.91	2.34
689.05	0.00
689.18	23.41
689.32	72.56
689.46	0.00
689.59	100.64
689.73	72.56
689.86	25.75
690.00	70.22
690.13	0.00
690.27	14.04
690.41	23.41
690.54	11.70
690.68	65.54
690.81	133.41
690.95	51.49
691.08	16.38
691.22	2.34
691.35	53.83
691.49	84.26
691.62	0.00
691.76	37.45
691.89	56.17
692.03	18.72
692.16	56.17
692.30	44.47
692.43	84.26
692.57	11.70
692.70	16.38
692.84	7.02
692.97	81.92
693.11	39.79
693.24	32.77
693.38	102.98
693.51	46.81
693.65	44.47
693.78	74.90
693.92	117.03
694.05	18.72
694.19	28.09
694.32	42.13
694.45	77.24
694.59	65.54
694.72	23.41
694.86	18.72
694.99	98.30
695.13	7.02
695.26	51.49
695.39	14.04
695.53	51.49
695.66	9.36
695.80	25.75
695.93	21.06
696.07	42.13
696.20	0.00
696.33	0.00
696.47	0.00
696.60	163.84
696.73	23.41
696.87	0.00
697.00	16.38
697.14	35.11
697.27	37.45
697.40	32.77
697.54	79.58
697.67	67.88
697.80	32.77
697.94	30.43
698.07	23.41
698.21	49.15
698.34	0.00
698.47	28.09
698.61	0.00
698.74	28.09
698.87	30.43
699.01	105.32
699.14	93.62
699.27	30.43
699.40	9.36
699.54	44.47
699.67	0.00
699.80	107.66
699.94	0.00
700.07	0.00
700.20	46.81
700.34	63.19
700.47	25.75
700.60	49.15
700.73	58.51
700.87	0.00
701.00	18.72
701.13	0.00
701.26	11.70
701.40	35.11
701.53	18.72
701.66	58.51
701.79	74.90
701.93	37.45
702.06	0.00
702.19	0.00
702.32	32.77
702.46	56.17
702.59	70.22
702.72	23.41
702.85	42.13
702.99	4.68
703.12	0.00
703.25	0.00
703.38	0.00
703.51	0.00
703.65	0.00
703.78	79.58
703.91	112.35
704.04	18.72
704.17	0.00
704.31	0.00
704.44	11.70
704.57	25.75
704.70	23.41
704.83	105.32
704.96	65.54
705.10	7.02
705.23	32.77
>>>>>End Processed Spectral Data<<<<<
