SpectraSuite Data File
++++++++++++++++++++++++++++++++++++
Date: Fri Oct 04 12:13:32 GMT-05:00 2013
User: price-jones
Dark Spectrum Present: No
Reference Spectrum Present: No
Number of Sampled Component Spectra: 1
Spectrometers: USB2+H05261
Integration Time (usec): 10000 (USB2+H05261)
Spectra Averaged: 1 (USB2+H05261)
Boxcar Smoothing: 0 (USB2+H05261)
Correct for Electrical Dark: No (USB2+H05261)
Strobe/Lamp Enabled: No (USB2+H05261)
Correct for Detector Non-linearity: No (USB2+H05261)
Correct for Stray Light: No (USB2+H05261)
Number of Pixels in Processed Spectrum: 2048
>>>>>Begin Processed Spectral Data<<<<<
365.73	0.00
365.92	0.00
366.12	0.00
366.32	0.00
366.52	0.00
366.72	0.00
366.91	0.00
367.11	0.00
367.31	0.00
367.51	0.00
367.70	0.00
367.90	0.00
368.10	0.00
368.30	0.00
368.49	0.00
368.69	0.00
368.89	0.00
369.09	0.00
369.28	0.00
369.48	0.00
369.68	0.00
369.87	0.00
370.07	0.00
370.27	0.00
370.47	0.00
370.66	0.00
370.86	0.00
371.06	0.00
371.25	0.00
371.45	0.00
371.65	0.00
371.84	0.00
372.04	0.00
372.24	0.00
372.44	0.00
372.63	42.13
372.83	37.45
373.03	44.47
373.22	18.72
373.42	21.06
373.62	21.06
373.81	25.75
374.01	0.00
374.21	14.04
374.40	95.96
374.60	46.81
374.79	2.34
374.99	37.45
375.19	16.38
375.38	23.41
375.58	18.72
375.78	37.45
375.97	84.26
376.17	11.70
376.37	79.58
376.56	2.34
376.76	77.24
376.95	30.43
377.15	77.24
377.35	11.70
377.54	0.00
377.74	65.54
377.93	58.51
378.13	72.56
378.33	0.00
378.52	28.09
378.72	46.81
378.91	42.13
379.11	0.00
379.31	4.68
379.50	46.81
379.70	0.00
379.89	0.00
380.09	58.51
380.28	14.04
380.48	16.38
380.68	0.00
380.87	23.41
381.07	0.00
381.26	42.13
381.46	0.00
381.65	14.04
381.85	0.00
382.04	0.00
382.24	18.72
382.43	2.34
382.63	42.13
382.83	56.17
383.02	9.36
383.22	0.00
383.41	0.00
383.61	9.36
383.80	65.54
384.00	65.54
384.19	7.02
384.39	9.36
384.58	42.13
384.78	0.00
384.97	51.49
385.17	18.72
385.36	0.00
385.56	18.72
385.75	56.17
385.95	2.34
386.14	0.00
386.34	65.54
386.53	0.00
386.72	35.11
386.92	51.49
387.11	9.36
387.31	0.00
387.50	2.34
387.70	4.68
387.89	70.22
388.09	14.04
388.28	0.00
388.48	42.13
388.67	46.81
388.86	51.49
389.06	0.00
389.25	44.47
389.45	25.75
389.64	0.00
389.84	14.04
390.03	51.49
390.22	14.04
390.42	23.41
390.61	53.83
390.81	23.41
391.00	30.43
391.19	49.15
391.39	0.00
391.58	23.41
391.78	18.72
391.97	18.72
392.16	49.15
392.36	39.79
392.55	0.00
392.75	53.83
392.94	0.00
393.13	58.51
393.33	35.11
393.52	21.06
393.71	0.00
393.91	0.00
394.10	4.68
394.29	37.45
394.49	2.34
394.68	4.68
394.88	0.00
395.07	21.06
395.26	25.75
395.46	46.81
395.65	42.13
395.84	32.77
396.04	70.22
396.23	44.47
396.42	28.09
396.62	28.09
396.81	25.75
397.00	77.24
397.19	63.19
397.39	44.47
397.58	46.81
397.77	0.00
397.97	32.77
398.16	60.85
398.35	58.51
398.55	58.51
398.74	51.49
398.93	14.04
399.12	32.77
399.32	18.72
399.51	0.00
399.70	7.02
399.90	0.00
400.09	49.15
400.28	16.38
400.47	67.88
400.67	0.00
400.86	30.43
401.05	18.72
401.24	11.70
401.44	0.00
401.63	0.00
401.82	0.00
402.01	0.00
402.21	0.00
402.40	21.06
402.59	0.00
402.78	25.75
402.97	0.00
403.17	30.43
403.36	25.75
403.55	0.00
403.74	46.81
403.93	14.04
404.13	0.00
404.32	11.70
404.51	51.49
404.70	112.35
404.89	0.00
405.09	0.00
405.28	30.43
405.47	42.13
405.66	23.41
405.85	49.15
406.05	0.00
406.24	0.00
406.43	18.72
406.62	0.00
406.81	74.90
407.00	39.79
407.20	0.00
407.39	58.51
407.58	9.36
407.77	39.79
407.96	0.00
408.15	63.19
408.34	25.75
408.54	0.00
408.73	14.04
408.92	0.00
409.11	56.17
409.30	0.00
409.49	23.41
409.68	32.77
409.87	37.45
410.07	77.24
410.26	51.49
410.45	0.00
410.64	46.81
410.83	9.36
411.02	0.00
411.21	18.72
411.40	4.68
411.59	77.24
411.78	37.45
411.98	46.81
412.17	65.54
412.36	46.81
412.55	39.79
412.74	23.41
412.93	21.06
413.12	39.79
413.31	0.00
413.50	0.00
413.69	30.43
413.88	0.00
414.07	53.83
414.26	21.06
414.45	72.56
414.64	7.02
414.83	30.43
415.02	9.36
415.22	53.83
415.41	0.00
415.60	49.15
415.79	0.00
415.98	0.00
416.17	63.19
416.36	14.04
416.55	49.15
416.74	0.00
416.93	72.56
417.12	49.15
417.31	30.43
417.50	32.77
417.69	0.00
417.88	28.09
418.07	18.72
418.26	79.58
418.45	42.13
418.64	18.72
418.83	0.00
419.02	4.68
419.21	32.77
419.39	46.81
419.58	21.06
419.77	49.15
419.96	79.58
420.15	44.47
420.34	0.00
420.53	11.70
420.72	51.49
420.91	95.96
421.10	88.94
421.29	65.54
421.48	0.00
421.67	0.00
421.86	0.00
422.05	72.56
422.24	30.43
422.43	53.83
422.61	25.75
422.80	18.72
422.99	70.22
423.18	74.90
423.37	11.70
423.56	21.06
423.75	105.32
423.94	79.58
424.13	60.85
424.32	0.00
424.50	4.68
424.69	72.56
424.88	0.00
425.07	0.00
425.26	0.00
425.45	16.38
425.64	28.09
425.83	0.00
426.01	93.62
426.20	56.17
426.39	14.04
426.58	23.41
426.77	2.34
426.96	46.81
427.15	46.81
427.33	16.38
427.52	28.09
427.71	0.00
427.90	0.00
428.09	4.68
428.28	74.90
428.46	30.43
428.65	42.13
428.84	25.75
429.03	0.00
429.22	28.09
429.40	14.04
429.59	60.85
429.78	23.41
429.97	0.00
430.16	21.06
430.34	0.00
430.53	0.00
430.72	9.36
430.91	9.36
431.10	51.49
431.28	23.41
431.47	0.00
431.66	65.54
431.85	28.09
432.03	0.00
432.22	14.04
432.41	0.00
432.60	28.09
432.79	37.45
432.97	0.00
433.16	0.00
433.35	65.54
433.54	21.06
433.72	2.34
433.91	35.11
434.10	28.09
434.28	32.77
434.47	21.06
434.66	74.90
434.85	74.90
435.03	44.47
435.22	23.41
435.41	21.06
435.59	32.77
435.78	28.09
435.97	18.72
436.16	35.11
436.34	18.72
436.53	4.68
436.72	14.04
436.90	30.43
437.09	30.43
437.28	35.11
437.46	88.94
437.65	42.13
437.84	0.00
438.02	0.00
438.21	0.00
438.40	11.70
438.58	25.75
438.77	4.68
438.96	51.49
439.14	49.15
439.33	65.54
439.52	0.00
439.70	51.49
439.89	11.70
440.08	0.00
440.26	7.02
440.45	84.26
440.63	81.92
440.82	46.81
441.01	51.49
441.19	0.00
441.38	70.22
441.57	0.00
441.75	0.00
441.94	84.26
442.12	0.00
442.31	72.56
442.50	74.90
442.68	49.15
442.87	51.49
443.05	16.38
443.24	65.54
443.43	9.36
443.61	60.85
443.80	9.36
443.98	44.47
444.17	0.00
444.35	0.00
444.54	4.68
444.73	0.00
444.91	100.64
445.10	93.62
445.28	60.85
445.47	14.04
445.65	44.47
445.84	35.11
446.02	44.47
446.21	37.45
446.39	0.00
446.58	37.45
446.77	18.72
446.95	21.06
447.14	42.13
447.32	46.81
447.51	39.79
447.69	107.66
447.88	23.41
448.06	16.38
448.25	9.36
448.43	7.02
448.62	0.00
448.80	42.13
448.99	49.15
449.17	25.75
449.36	2.34
449.54	14.04
449.73	67.88
449.91	67.88
450.10	46.81
450.28	51.49
450.46	49.15
450.65	32.77
450.83	32.77
451.02	30.43
451.20	35.11
451.39	14.04
451.57	9.36
451.76	30.43
451.94	51.49
452.13	39.79
452.31	14.04
452.49	49.15
452.68	2.34
452.86	30.43
453.05	107.66
453.23	0.00
453.42	14.04
453.60	25.75
453.78	67.88
453.97	23.41
454.15	58.51
454.34	49.15
454.52	119.37
454.70	72.56
454.89	58.51
455.07	32.77
455.26	63.19
455.44	91.28
455.62	53.83
455.81	53.83
455.99	25.75
456.17	0.00
456.36	18.72
456.54	9.36
456.73	0.00
456.91	4.68
457.09	30.43
457.28	25.75
457.46	32.77
457.64	46.81
457.83	0.00
458.01	91.28
458.19	28.09
458.38	25.75
458.56	0.00
458.74	7.02
458.93	58.51
459.11	0.00
459.29	9.36
459.48	100.64
459.66	56.17
459.84	25.75
460.03	42.13
460.21	0.00
460.39	112.35
460.57	23.41
460.76	9.36
460.94	65.54
461.12	63.19
461.31	37.45
461.49	114.69
461.67	35.11
461.85	18.72
462.04	35.11
462.22	135.75
462.40	0.00
462.59	88.94
462.77	84.26
462.95	32.77
463.13	65.54
463.32	46.81
463.50	0.00
463.68	42.13
463.86	37.45
464.05	16.38
464.23	0.00
464.41	42.13
464.59	44.47
464.78	16.38
464.96	0.00
465.14	23.41
465.32	32.77
465.50	0.00
465.69	46.81
465.87	23.41
466.05	28.09
466.23	0.00
466.41	51.49
466.60	18.72
466.78	37.45
466.96	9.36
467.14	25.75
467.32	67.88
467.51	102.98
467.69	39.79
467.87	39.79
468.05	49.15
468.23	79.58
468.41	0.00
468.60	25.75
468.78	30.43
468.96	65.54
469.14	9.36
469.32	35.11
469.50	44.47
469.69	74.90
469.87	91.28
470.05	0.00
470.23	49.15
470.41	42.13
470.59	2.34
470.77	56.17
470.95	0.00
471.14	28.09
471.32	18.72
471.50	0.00
471.68	44.47
471.86	2.34
472.04	0.00
472.22	0.00
472.40	77.24
472.58	117.03
472.77	42.13
472.95	72.56
473.13	7.02
473.31	7.02
473.49	7.02
473.67	44.47
473.85	0.00
474.03	42.13
474.21	60.85
474.39	67.88
474.57	74.90
474.75	0.00
474.93	4.68
475.12	4.68
475.30	14.04
475.48	0.00
475.66	42.13
475.84	0.00
476.02	49.15
476.20	60.85
476.38	25.75
476.56	63.19
476.74	32.77
476.92	25.75
477.10	49.15
477.28	56.17
477.46	88.94
477.64	53.83
477.82	56.17
478.00	0.00
478.18	0.00
478.36	58.51
478.54	0.00
478.72	18.72
478.90	42.13
479.08	0.00
479.26	0.00
479.44	28.09
479.62	16.38
479.80	0.00
479.98	0.00
480.16	70.22
480.34	0.00
480.52	11.70
480.70	72.56
480.88	107.66
481.06	53.83
481.24	51.49
481.41	0.00
481.59	77.24
481.77	28.09
481.95	30.43
482.13	72.56
482.31	65.54
482.49	51.49
482.67	56.17
482.85	0.00
483.03	65.54
483.21	37.45
483.39	30.43
483.57	49.15
483.74	0.00
483.92	11.70
484.10	63.19
484.28	42.13
484.46	0.00
484.64	42.13
484.82	16.38
485.00	37.45
485.18	0.00
485.35	0.00
485.53	0.00
485.71	39.79
485.89	37.45
486.07	9.36
486.25	32.77
486.43	81.92
486.61	58.51
486.78	0.00
486.96	35.11
487.14	32.77
487.32	11.70
487.50	74.90
487.68	46.81
487.85	51.49
488.03	23.41
488.21	23.41
488.39	79.58
488.57	25.75
488.75	51.49
488.92	88.94
489.10	0.00
489.28	0.00
489.46	42.13
489.64	138.09
489.81	0.00
489.99	23.41
490.17	79.58
490.35	63.19
490.53	42.13
490.70	11.70
490.88	44.47
491.06	63.19
491.24	98.30
491.41	63.19
491.59	79.58
491.77	65.54
491.95	0.00
492.13	37.45
492.30	9.36
492.48	23.41
492.66	65.54
492.84	0.00
493.01	0.00
493.19	30.43
493.37	37.45
493.54	14.04
493.72	46.81
493.90	67.88
494.08	30.43
494.25	30.43
494.43	63.19
494.61	0.00
494.79	46.81
494.96	65.54
495.14	42.13
495.32	44.47
495.49	88.94
495.67	46.81
495.85	42.13
496.02	0.00
496.20	98.30
496.38	53.83
496.55	112.35
496.73	28.09
496.91	98.30
497.09	11.70
497.26	56.17
497.44	91.28
497.62	70.22
497.79	9.36
497.97	112.35
498.14	0.00
498.32	65.54
498.50	60.85
498.67	28.09
498.85	95.96
499.03	9.36
499.20	0.00
499.38	32.77
499.56	79.58
499.73	0.00
499.91	23.41
500.08	0.00
500.26	51.49
500.44	88.94
500.61	44.47
500.79	35.11
500.97	23.41
501.14	37.45
501.32	70.22
501.49	25.75
501.67	0.00
501.84	42.13
502.02	102.98
502.20	35.11
502.37	67.88
502.55	72.56
502.72	95.96
502.90	0.00
503.07	25.75
503.25	49.15
503.43	35.11
503.60	0.00
503.78	0.00
503.95	14.04
504.13	60.85
504.30	60.85
504.48	32.77
504.65	93.62
504.83	44.47
505.01	11.70
505.18	16.38
505.36	18.72
505.53	58.51
505.71	14.04
505.88	37.45
506.06	88.94
506.23	51.49
506.41	0.00
506.58	9.36
506.76	37.45
506.93	23.41
507.11	25.75
507.28	25.75
507.46	16.38
507.63	51.49
507.81	18.72
507.98	21.06
508.16	79.58
508.33	58.51
508.50	81.92
508.68	35.11
508.85	0.00
509.03	51.49
509.20	16.38
509.38	88.94
509.55	39.79
509.73	32.77
509.90	11.70
510.08	114.69
510.25	42.13
510.42	74.90
510.60	0.00
510.77	81.92
510.95	0.00
511.12	56.17
511.30	21.06
511.47	70.22
511.64	74.90
511.82	93.62
511.99	86.60
512.17	67.88
512.34	18.72
512.51	35.11
512.69	110.01
512.86	14.04
513.04	77.24
513.21	42.13
513.38	11.70
513.56	51.49
513.73	0.00
513.90	0.00
514.08	0.00
514.25	51.49
514.43	42.13
514.60	32.77
514.77	9.36
514.95	42.13
515.12	0.00
515.29	119.37
515.47	37.45
515.64	84.26
515.81	21.06
515.99	37.45
516.16	88.94
516.33	42.13
516.51	44.47
516.68	0.00
516.85	7.02
517.03	67.88
517.20	39.79
517.37	44.47
517.54	42.13
517.72	11.70
517.89	65.54
518.06	9.36
518.24	0.00
518.41	93.62
518.58	102.98
518.75	16.38
518.93	98.30
519.10	28.09
519.27	0.00
519.45	44.47
519.62	81.92
519.79	49.15
519.96	0.00
520.14	32.77
520.31	9.36
520.48	100.64
520.65	77.24
520.83	93.62
521.00	7.02
521.17	42.13
521.34	18.72
521.52	42.13
521.69	58.51
521.86	0.00
522.03	37.45
522.20	23.41
522.38	0.00
522.55	60.85
522.72	18.72
522.89	95.96
523.07	74.90
523.24	95.96
523.41	49.15
523.58	84.26
523.75	0.00
523.92	32.77
524.10	58.51
524.27	63.19
524.44	81.92
524.61	84.26
524.78	0.00
524.96	46.81
525.13	35.11
525.30	86.60
525.47	39.79
525.64	25.75
525.81	37.45
525.98	74.90
526.16	65.54
526.33	65.54
526.50	44.47
526.67	14.04
526.84	46.81
527.01	46.81
527.18	81.92
527.36	35.11
527.53	70.22
527.70	35.11
527.87	114.69
528.04	7.02
528.21	23.41
528.38	70.22
528.55	14.04
528.72	58.51
528.89	0.00
529.07	18.72
529.24	65.54
529.41	51.49
529.58	49.15
529.75	65.54
529.92	35.11
530.09	56.17
530.26	18.72
530.43	91.28
530.60	51.49
530.77	67.88
530.94	72.56
531.11	91.28
531.28	79.58
531.46	107.66
531.63	102.98
531.80	51.49
531.97	105.32
532.14	25.75
532.31	56.17
532.48	28.09
532.65	49.15
532.82	0.00
532.99	84.26
533.16	44.47
533.33	32.77
533.50	0.00
533.67	72.56
533.84	81.92
534.01	0.00
534.18	42.13
534.35	11.70
534.52	53.83
534.69	65.54
534.86	16.38
535.03	42.13
535.20	0.00
535.37	37.45
535.54	72.56
535.71	0.00
535.88	0.00
536.05	0.00
536.22	30.43
536.38	81.92
536.55	28.09
536.72	21.06
536.89	0.00
537.06	77.24
537.23	23.41
537.40	4.68
537.57	11.70
537.74	51.49
537.91	37.45
538.08	11.70
538.25	39.79
538.42	79.58
538.59	14.04
538.75	0.00
538.92	35.11
539.09	23.41
539.26	39.79
539.43	91.28
539.60	58.51
539.77	37.45
539.94	74.90
540.11	84.26
540.28	56.17
540.44	0.00
540.61	16.38
540.78	63.19
540.95	112.35
541.12	67.88
541.29	30.43
541.46	37.45
541.62	86.60
541.79	0.00
541.96	30.43
542.13	56.17
542.30	11.70
542.47	56.17
542.63	91.28
542.80	63.19
542.97	74.90
543.14	0.00
543.31	16.38
543.48	0.00
543.64	58.51
543.81	84.26
543.98	0.00
544.15	30.43
544.32	81.92
544.48	35.11
544.65	32.77
544.82	0.00
544.99	23.41
545.16	142.77
545.32	0.00
545.49	49.15
545.66	74.90
545.83	74.90
546.00	46.81
546.16	42.13
546.33	0.00
546.50	7.02
546.67	14.04
546.83	44.47
547.00	65.54
547.17	25.75
547.34	81.92
547.50	0.00
547.67	105.32
547.84	0.00
548.00	0.00
548.17	9.36
548.34	0.00
548.51	44.47
548.67	124.05
548.84	0.00
549.01	86.60
549.18	44.47
549.34	9.36
549.51	81.92
549.68	7.02
549.84	2.34
550.01	131.07
550.18	65.54
550.34	0.00
550.51	0.00
550.68	98.30
550.84	81.92
551.01	63.19
551.18	32.77
551.34	30.43
551.51	30.43
551.68	35.11
551.84	0.00
552.01	0.00
552.18	100.64
552.34	56.17
552.51	0.00
552.68	84.26
552.84	0.00
553.01	88.94
553.18	42.13
553.34	51.49
553.51	2.34
553.67	32.77
553.84	51.49
554.01	49.15
554.17	21.06
554.34	21.06
554.51	49.15
554.67	70.22
554.84	67.88
555.00	0.00
555.17	32.77
555.33	18.72
555.50	60.85
555.67	18.72
555.83	98.30
556.00	35.11
556.16	65.54
556.33	100.64
556.50	16.38
556.66	49.15
556.83	56.17
556.99	0.00
557.16	9.36
557.32	44.47
557.49	35.11
557.65	0.00
557.82	16.38
557.98	72.56
558.15	0.00
558.32	4.68
558.48	81.92
558.65	18.72
558.81	39.79
558.98	72.56
559.14	25.75
559.31	77.24
559.47	28.09
559.64	37.45
559.80	42.13
559.97	60.85
560.13	0.00
560.30	42.13
560.46	30.43
560.63	0.00
560.79	95.96
560.96	35.11
561.12	88.94
561.29	28.09
561.45	0.00
561.61	0.00
561.78	25.75
561.94	51.49
562.11	79.58
562.27	0.00
562.44	79.58
562.60	35.11
562.77	16.38
562.93	9.36
563.10	0.00
563.26	25.75
563.42	65.54
563.59	46.81
563.75	74.90
563.92	2.34
564.08	110.01
564.24	131.07
564.41	72.56
564.57	0.00
564.74	0.00
564.90	39.79
565.07	32.77
565.23	14.04
565.39	53.83
565.56	79.58
565.72	107.66
565.88	58.51
566.05	9.36
566.21	9.36
566.38	84.26
566.54	0.00
566.70	16.38
566.87	95.96
567.03	44.47
567.19	102.98
567.36	37.45
567.52	28.09
567.68	74.90
567.85	79.58
568.01	0.00
568.17	86.60
568.34	23.41
568.50	37.45
568.66	126.39
568.83	77.24
568.99	30.43
569.15	42.13
569.32	126.39
569.48	74.90
569.64	63.19
569.81	70.22
569.97	42.13
570.13	95.96
570.30	49.15
570.46	65.54
570.62	30.43
570.78	65.54
570.95	9.36
571.11	7.02
571.27	67.88
571.43	21.06
571.60	58.51
571.76	42.13
571.92	65.54
572.09	35.11
572.25	77.24
572.41	37.45
572.57	37.45
572.74	42.13
572.90	9.36
573.06	32.77
573.22	74.90
573.38	0.00
573.55	37.45
573.71	79.58
573.87	0.00
574.03	65.54
574.20	0.00
574.36	81.92
574.52	46.81
574.68	28.09
574.84	39.79
575.01	51.49
575.17	79.58
575.33	18.72
575.49	0.00
575.65	44.47
575.82	98.30
575.98	28.09
576.14	42.13
576.30	39.79
576.46	84.26
576.62	72.56
576.79	84.26
576.95	42.13
577.11	32.77
577.27	60.85
577.43	98.30
577.59	42.13
577.75	51.49
577.92	39.79
578.08	37.45
578.24	91.28
578.40	67.88
578.56	72.56
578.72	18.72
578.88	32.77
579.04	0.00
579.21	44.47
579.37	56.17
579.53	23.41
579.69	16.38
579.85	0.00
580.01	0.00
580.17	56.17
580.33	0.00
580.49	95.96
580.65	14.04
580.82	49.15
580.98	0.00
581.14	11.70
581.30	74.90
581.46	14.04
581.62	0.00
581.78	70.22
581.94	21.06
582.10	37.45
582.26	51.49
582.42	70.22
582.58	14.04
582.74	39.79
582.90	2.34
583.06	14.04
583.22	0.00
583.38	0.00
583.54	16.38
583.70	42.13
583.86	37.45
584.02	0.00
584.18	21.06
584.34	67.88
584.50	49.15
584.66	9.36
584.82	11.70
584.98	11.70
585.14	0.00
585.30	56.17
585.46	114.69
585.62	32.77
585.78	67.88
585.94	42.13
586.10	65.54
586.26	42.13
586.42	86.60
586.58	91.28
586.74	0.00
586.90	0.00
587.06	67.88
587.22	86.60
587.38	49.15
587.54	49.15
587.70	81.92
587.86	65.54
588.02	2.34
588.18	0.00
588.34	16.38
588.49	9.36
588.65	79.58
588.81	102.98
588.97	0.00
589.13	0.00
589.29	0.00
589.45	0.00
589.61	0.00
589.77	95.96
589.93	16.38
590.08	56.17
590.24	0.00
590.40	18.72
590.56	86.60
590.72	2.34
590.88	16.38
591.04	72.56
591.20	28.09
591.35	0.00
591.51	25.75
591.67	46.81
591.83	21.06
591.99	23.41
592.15	14.04
592.31	77.24
592.46	72.56
592.62	30.43
592.78	84.26
592.94	0.00
593.10	0.00
593.26	93.62
593.41	35.11
593.57	2.34
593.73	23.41
593.89	14.04
594.05	14.04
594.20	35.11
594.36	39.79
594.52	14.04
594.68	28.09
594.84	42.13
594.99	70.22
595.15	35.11
595.31	11.70
595.47	35.11
595.62	25.75
595.78	25.75
595.94	102.98
596.10	23.41
596.25	7.02
596.41	14.04
596.57	37.45
596.73	21.06
596.88	0.00
597.04	79.58
597.20	37.45
597.36	74.90
597.51	21.06
597.67	42.13
597.83	9.36
597.99	32.77
598.14	21.06
598.30	32.77
598.46	88.94
598.61	49.15
598.77	21.06
598.93	63.19
599.09	32.77
599.24	81.92
599.40	60.85
599.56	51.49
599.71	37.45
599.87	0.00
600.03	37.45
600.18	70.22
600.34	44.47
600.50	23.41
600.65	44.47
600.81	37.45
600.97	56.17
601.12	28.09
601.28	14.04
601.44	28.09
601.59	37.45
601.75	60.85
601.91	23.41
602.06	44.47
602.22	2.34
602.37	37.45
602.53	0.00
602.69	60.85
602.84	72.56
603.00	72.56
603.16	9.36
603.31	0.00
603.47	30.43
603.62	9.36
603.78	0.00
603.94	98.30
604.09	0.00
604.25	0.00
604.40	100.64
604.56	79.58
604.71	0.00
604.87	121.71
605.03	14.04
605.18	67.88
605.34	32.77
605.49	11.70
605.65	58.51
605.80	65.54
605.96	23.41
606.12	72.56
606.27	0.00
606.43	39.79
606.58	46.81
606.74	72.56
606.89	67.88
607.05	63.19
607.20	79.58
607.36	30.43
607.51	53.83
607.67	140.43
607.82	51.49
607.98	56.17
608.13	37.45
608.29	0.00
608.44	14.04
608.60	0.00
608.75	42.13
608.91	74.90
609.06	81.92
609.22	98.30
609.37	14.04
609.53	93.62
609.68	2.34
609.84	21.06
609.99	30.43
610.15	0.00
610.30	0.00
610.46	65.54
610.61	30.43
610.76	51.49
610.92	25.75
611.07	30.43
611.23	51.49
611.38	0.00
611.54	14.04
611.69	30.43
611.84	37.45
612.00	77.24
612.15	37.45
612.31	44.47
612.46	44.47
612.62	81.92
612.77	39.79
612.92	72.56
613.08	65.54
613.23	79.58
613.39	16.38
613.54	30.43
613.69	44.47
613.85	46.81
614.00	65.54
614.15	70.22
614.31	81.92
614.46	58.51
614.62	77.24
614.77	39.79
614.92	0.00
615.08	98.30
615.23	9.36
615.38	14.04
615.54	18.72
615.69	14.04
615.84	46.81
616.00	23.41
616.15	0.00
616.30	84.26
616.46	0.00
616.61	14.04
616.76	37.45
616.92	35.11
617.07	49.15
617.22	0.00
617.37	84.26
617.53	93.62
617.68	49.15
617.83	25.75
617.99	46.81
618.14	32.77
618.29	58.51
618.45	67.88
618.60	32.77
618.75	7.02
618.90	39.79
619.06	14.04
619.21	16.38
619.36	4.68
619.51	0.00
619.67	72.56
619.82	138.09
619.97	9.36
620.12	18.72
620.28	46.81
620.43	0.00
620.58	4.68
620.73	2.34
620.89	0.00
621.04	35.11
621.19	163.84
621.34	7.02
621.49	60.85
621.65	4.68
621.80	46.81
621.95	14.04
622.10	58.51
622.25	9.36
622.41	56.17
622.56	23.41
622.71	30.43
622.86	46.81
623.01	30.43
623.16	86.60
623.32	51.49
623.47	98.30
623.62	60.85
623.77	2.34
623.92	23.41
624.07	84.26
624.23	100.64
624.38	135.75
624.53	105.32
624.68	0.00
624.83	67.88
624.98	105.32
625.13	74.90
625.29	91.28
625.44	39.79
625.59	65.54
625.74	37.45
625.89	46.81
626.04	21.06
626.19	0.00
626.34	105.32
626.49	35.11
626.65	0.00
626.80	53.83
626.95	79.58
627.10	53.83
627.25	32.77
627.40	0.00
627.55	23.41
627.70	7.02
627.85	42.13
628.00	65.54
628.15	98.30
628.30	42.13
628.45	0.00
628.60	79.58
628.76	56.17
628.91	51.49
629.06	35.11
629.21	46.81
629.36	74.90
629.51	84.26
629.66	4.68
629.81	0.00
629.96	72.56
630.11	23.41
630.26	70.22
630.41	37.45
630.56	63.19
630.71	46.81
630.86	37.45
631.01	37.45
631.16	32.77
631.31	25.75
631.46	72.56
631.61	58.51
631.76	100.64
631.91	0.00
632.06	58.51
632.21	72.56
632.36	0.00
632.51	44.47
632.66	98.30
632.81	67.88
632.96	28.09
633.10	21.06
633.25	28.09
633.40	39.79
633.55	23.41
633.70	107.66
633.85	86.60
634.00	28.09
634.15	35.11
634.30	49.15
634.45	65.54
634.60	11.70
634.75	0.00
634.90	30.43
635.05	102.98
635.19	25.75
635.34	7.02
635.49	0.00
635.64	30.43
635.79	39.79
635.94	63.19
636.09	0.00
636.24	63.19
636.39	0.00
636.53	63.19
636.68	25.75
636.83	56.17
636.98	72.56
637.13	2.34
637.28	39.79
637.43	91.28
637.57	102.98
637.72	23.41
637.87	21.06
638.02	21.06
638.17	0.00
638.32	53.83
638.46	37.45
638.61	32.77
638.76	28.09
638.91	0.00
639.06	0.00
639.20	44.47
639.35	51.49
639.50	11.70
639.65	46.81
639.80	16.38
639.94	42.13
640.09	49.15
640.24	28.09
640.39	88.94
640.54	56.17
640.68	44.47
640.83	67.88
640.98	79.58
641.13	30.43
641.27	51.49
641.42	0.00
641.57	0.00
641.72	0.00
641.86	65.54
642.01	53.83
642.16	0.00
642.31	53.83
642.45	0.00
642.60	37.45
642.75	84.26
642.90	0.00
643.04	107.66
643.19	53.83
643.34	0.00
643.48	58.51
643.63	39.79
643.78	58.51
643.93	67.88
644.07	91.28
644.22	0.00
644.37	28.09
644.51	65.54
644.66	23.41
644.81	16.38
644.95	18.72
645.10	84.26
645.25	39.79
645.39	42.13
645.54	14.04
645.69	119.37
645.83	37.45
645.98	51.49
646.13	11.70
646.27	7.02
646.42	0.00
646.57	53.83
646.71	9.36
646.86	58.51
647.00	25.75
647.15	30.43
647.30	4.68
647.44	46.81
647.59	11.70
647.74	4.68
647.88	35.11
648.03	0.00
648.17	25.75
648.32	14.04
648.47	14.04
648.61	0.00
648.76	0.00
648.90	25.75
649.05	91.28
649.20	63.19
649.34	72.56
649.49	14.04
649.63	39.79
649.78	0.00
649.92	95.96
650.07	21.06
650.21	37.45
650.36	51.49
650.51	30.43
650.65	37.45
650.80	35.11
650.94	32.77
651.09	0.00
651.23	119.37
651.38	81.92
651.52	0.00
651.67	4.68
651.81	0.00
651.96	49.15
652.10	16.38
652.25	0.00
652.39	25.75
652.54	65.54
652.68	44.47
652.83	51.49
652.97	37.45
653.12	51.49
653.26	58.51
653.41	81.92
653.55	56.17
653.70	7.02
653.84	42.13
653.99	7.02
654.13	0.00
654.27	18.72
654.42	11.70
654.56	65.54
654.71	0.00
654.85	0.00
655.00	56.17
655.14	44.47
655.29	2.34
655.43	72.56
655.57	56.17
655.72	39.79
655.86	0.00
656.01	18.72
656.15	0.00
656.30	63.19
656.44	14.04
656.58	23.41
656.73	37.45
656.87	65.54
657.01	0.00
657.16	37.45
657.30	28.09
657.45	35.11
657.59	30.43
657.73	37.45
657.88	30.43
658.02	16.38
658.16	60.85
658.31	14.04
658.45	37.45
658.60	18.72
658.74	60.85
658.88	14.04
659.03	58.51
659.17	11.70
659.31	4.68
659.46	60.85
659.60	35.11
659.74	67.88
659.89	2.34
660.03	28.09
660.17	30.43
660.32	21.06
660.46	0.00
660.60	58.51
660.74	35.11
660.89	95.96
661.03	46.81
661.17	58.51
661.32	67.88
661.46	60.85
661.60	65.54
661.74	2.34
661.89	0.00
662.03	4.68
662.17	0.00
662.31	56.17
662.46	42.13
662.60	0.00
662.74	0.00
662.88	44.47
663.03	56.17
663.17	46.81
663.31	37.45
663.45	21.06
663.60	14.04
663.74	95.96
663.88	25.75
664.02	0.00
664.17	0.00
664.31	56.17
664.45	16.38
664.59	18.72
664.73	44.47
664.88	0.00
665.02	4.68
665.16	18.72
665.30	14.04
665.44	56.17
665.59	0.00
665.73	49.15
665.87	81.92
666.01	7.02
666.15	51.49
666.29	65.54
666.44	51.49
666.58	18.72
666.72	44.47
666.86	0.00
667.00	23.41
667.14	9.36
667.28	14.04
667.43	53.83
667.57	58.51
667.71	14.04
667.85	65.54
667.99	16.38
668.13	74.90
668.27	70.22
668.41	7.02
668.56	11.70
668.70	110.01
668.84	51.49
668.98	133.41
669.12	117.03
669.26	25.75
669.40	9.36
669.54	65.54
669.68	23.41
669.82	0.00
669.96	53.83
670.10	67.88
670.25	23.41
670.39	35.11
670.53	16.38
670.67	0.00
670.81	7.02
670.95	32.77
671.09	42.13
671.23	67.88
671.37	53.83
671.51	11.70
671.65	86.60
671.79	18.72
671.93	60.85
672.07	56.17
672.21	16.38
672.35	60.85
672.49	2.34
672.63	65.54
672.77	93.62
672.91	23.41
673.05	28.09
673.19	91.28
673.33	60.85
673.47	98.30
673.61	79.58
673.75	21.06
673.89	39.79
674.03	4.68
674.17	0.00
674.31	11.70
674.45	35.11
674.59	21.06
674.73	56.17
674.87	35.11
675.01	9.36
675.15	60.85
675.29	35.11
675.43	37.45
675.56	21.06
675.70	67.88
675.84	21.06
675.98	86.60
676.12	44.47
676.26	60.85
676.40	2.34
676.54	86.60
676.68	0.00
676.82	84.26
676.96	0.00
677.10	35.11
677.23	35.11
677.37	28.09
677.51	107.66
677.65	30.43
677.79	65.54
677.93	32.77
678.07	0.00
678.21	30.43
678.34	0.00
678.48	58.51
678.62	30.43
678.76	77.24
678.90	11.70
679.04	2.34
679.18	28.09
679.31	0.00
679.45	0.00
679.59	39.79
679.73	79.58
679.87	11.70
680.00	0.00
680.14	9.36
680.28	28.09
680.42	30.43
680.56	11.70
680.70	0.00
680.83	0.00
680.97	21.06
681.11	56.17
681.25	0.00
681.39	102.98
681.52	42.13
681.66	9.36
681.80	74.90
681.94	84.26
682.07	0.00
682.21	30.43
682.35	11.70
682.49	35.11
682.62	56.17
682.76	0.00
682.90	51.49
683.04	16.38
683.17	91.28
683.31	91.28
683.45	65.54
683.59	42.13
683.72	93.62
683.86	65.54
684.00	21.06
684.13	25.75
684.27	21.06
684.41	58.51
684.55	2.34
684.68	11.70
684.82	102.98
684.96	11.70
685.09	88.94
685.23	0.00
685.37	67.88
685.50	23.41
685.64	35.11
685.78	60.85
685.91	25.75
686.05	0.00
686.19	0.00
686.32	0.00
686.46	51.49
686.60	0.00
686.73	44.47
686.87	9.36
687.01	39.79
687.14	0.00
687.28	35.11
687.42	0.00
687.55	49.15
687.69	44.47
687.82	0.00
687.96	11.70
688.10	25.75
688.23	11.70
688.37	60.85
688.50	51.49
688.64	77.24
688.78	56.17
688.91	35.11
689.05	63.19
689.18	37.45
689.32	7.02
689.46	49.15
689.59	0.00
689.73	11.70
689.86	56.17
690.00	23.41
690.13	11.70
690.27	25.75
690.41	14.04
690.54	60.85
690.68	0.00
690.81	35.11
690.95	21.06
691.08	77.24
691.22	46.81
691.35	0.00
691.49	0.00
691.62	0.00
691.76	9.36
691.89	77.24
692.03	0.00
692.16	79.58
692.30	30.43
692.43	35.11
692.57	0.00
692.70	0.00
692.84	0.00
692.97	46.81
693.11	98.30
693.24	32.77
693.38	72.56
693.51	44.47
693.65	65.54
693.78	51.49
693.92	23.41
694.05	42.13
694.19	9.36
694.32	70.22
694.45	4.68
694.59	21.06
694.72	0.00
694.86	0.00
694.99	0.00
695.13	11.70
695.26	53.83
695.39	0.00
695.53	74.90
695.66	28.09
695.80	58.51
695.93	35.11
696.07	0.00
696.20	95.96
696.33	0.00
696.47	72.56
696.60	49.15
696.73	77.24
696.87	72.56
697.00	0.00
697.14	44.47
697.27	0.00
697.40	65.54
697.54	2.34
697.67	0.00
697.80	110.01
697.94	14.04
698.07	28.09
698.21	49.15
698.34	70.22
698.47	79.58
698.61	0.00
698.74	46.81
698.87	21.06
699.01	44.47
699.14	0.00
699.27	28.09
699.40	23.41
699.54	28.09
699.67	35.11
699.80	79.58
699.94	11.70
700.07	77.24
700.20	21.06
700.34	72.56
700.47	65.54
700.60	0.00
700.73	18.72
700.87	70.22
701.00	0.00
701.13	72.56
701.26	51.49
701.40	46.81
701.53	0.00
701.66	0.00
701.79	0.00
701.93	0.00
702.06	46.81
702.19	18.72
702.32	93.62
702.46	77.24
702.59	0.00
702.72	0.00
702.85	30.43
702.99	63.19
703.12	32.77
703.25	74.90
703.38	74.90
703.51	0.00
703.65	39.79
703.78	63.19
703.91	0.00
704.04	58.51
704.17	9.36
704.31	58.51
704.44	53.83
704.57	67.88
704.70	56.17
704.83	0.00
704.96	0.00
705.10	0.00
705.23	0.00
>>>>>End Processed Spectral Data<<<<<
