SpectraSuite Data File
++++++++++++++++++++++++++++++++++++
Date: Fri Oct 04 12:13:38 GMT-05:00 2013
User: price-jones
Dark Spectrum Present: No
Reference Spectrum Present: No
Number of Sampled Component Spectra: 1
Spectrometers: USB2+H05261
Integration Time (usec): 10000 (USB2+H05261)
Spectra Averaged: 1 (USB2+H05261)
Boxcar Smoothing: 0 (USB2+H05261)
Correct for Electrical Dark: No (USB2+H05261)
Strobe/Lamp Enabled: No (USB2+H05261)
Correct for Detector Non-linearity: No (USB2+H05261)
Correct for Stray Light: No (USB2+H05261)
Number of Pixels in Processed Spectrum: 2048
>>>>>Begin Processed Spectral Data<<<<<
365.73	67.88
365.92	67.88
366.12	67.88
366.32	0.00
366.52	0.00
366.72	0.00
366.91	0.00
367.11	0.00
367.31	0.00
367.51	0.00
367.70	0.00
367.90	0.00
368.10	0.00
368.30	0.00
368.49	0.00
368.69	0.00
368.89	0.00
369.09	0.00
369.28	0.00
369.48	0.00
369.68	0.00
369.87	0.00
370.07	0.00
370.27	0.00
370.47	0.00
370.66	0.00
370.86	0.00
371.06	0.00
371.25	0.00
371.45	0.00
371.65	0.00
371.84	0.00
372.04	0.00
372.24	0.00
372.44	32.77
372.63	0.00
372.83	0.00
373.03	60.85
373.22	0.00
373.42	0.00
373.62	0.00
373.81	4.68
374.01	46.81
374.21	16.38
374.40	0.00
374.60	63.19
374.79	72.56
374.99	84.26
375.19	14.04
375.38	39.79
375.58	67.88
375.78	51.49
375.97	63.19
376.17	18.72
376.37	23.41
376.56	25.75
376.76	16.38
376.95	46.81
377.15	0.00
377.35	46.81
377.54	42.13
377.74	0.00
377.93	77.24
378.13	42.13
378.33	84.26
378.52	0.00
378.72	14.04
378.91	95.96
379.11	0.00
379.31	0.00
379.50	28.09
379.70	46.81
379.89	37.45
380.09	72.56
380.28	7.02
380.48	0.00
380.68	46.81
380.87	4.68
381.07	0.00
381.26	11.70
381.46	53.83
381.65	21.06
381.85	37.45
382.04	42.13
382.24	4.68
382.43	0.00
382.63	9.36
382.83	25.75
383.02	0.00
383.22	65.54
383.41	0.00
383.61	28.09
383.80	0.00
384.00	0.00
384.19	0.00
384.39	0.00
384.58	49.15
384.78	25.75
384.97	11.70
385.17	14.04
385.36	0.00
385.56	25.75
385.75	32.77
385.95	7.02
386.14	70.22
386.34	35.11
386.53	21.06
386.72	91.28
386.92	77.24
387.11	11.70
387.31	0.00
387.50	21.06
387.70	30.43
387.89	0.00
388.09	0.00
388.28	4.68
388.48	2.34
388.67	14.04
388.86	0.00
389.06	16.38
389.25	32.77
389.45	0.00
389.64	0.00
389.84	0.00
390.03	21.06
390.22	0.00
390.42	21.06
390.61	0.00
390.81	30.43
391.00	0.00
391.19	0.00
391.39	42.13
391.58	7.02
391.78	0.00
391.97	70.22
392.16	16.38
392.36	0.00
392.55	49.15
392.75	72.56
392.94	0.00
393.13	67.88
393.33	30.43
393.52	0.00
393.71	0.00
393.91	35.11
394.10	16.38
394.29	32.77
394.49	0.00
394.68	28.09
394.88	81.92
395.07	11.70
395.26	39.79
395.46	39.79
395.65	35.11
395.84	0.00
396.04	0.00
396.23	28.09
396.42	58.51
396.62	14.04
396.81	0.00
397.00	32.77
397.19	53.83
397.39	0.00
397.58	0.00
397.77	44.47
397.97	72.56
398.16	81.92
398.35	56.17
398.55	72.56
398.74	0.00
398.93	128.73
399.12	51.49
399.32	9.36
399.51	37.45
399.70	56.17
399.90	70.22
400.09	42.13
400.28	100.64
400.47	21.06
400.67	18.72
400.86	18.72
401.05	93.62
401.24	0.00
401.44	18.72
401.63	0.00
401.82	37.45
402.01	133.41
402.21	0.00
402.40	102.98
402.59	46.81
402.78	53.83
402.97	72.56
403.17	53.83
403.36	56.17
403.55	28.09
403.74	0.00
403.93	74.90
404.13	14.04
404.32	67.88
404.51	0.00
404.70	0.00
404.89	32.77
405.09	28.09
405.28	14.04
405.47	0.00
405.66	23.41
405.85	37.45
406.05	14.04
406.24	14.04
406.43	53.83
406.62	86.60
406.81	28.09
407.00	28.09
407.20	4.68
407.39	23.41
407.58	23.41
407.77	72.56
407.96	14.04
408.15	93.62
408.34	0.00
408.54	2.34
408.73	86.60
408.92	53.83
409.11	11.70
409.30	46.81
409.49	0.00
409.68	0.00
409.87	74.90
410.07	37.45
410.26	58.51
410.45	39.79
410.64	25.75
410.83	105.32
411.02	86.60
411.21	11.70
411.40	23.41
411.59	37.45
411.78	0.00
411.98	30.43
412.17	21.06
412.36	46.81
412.55	39.79
412.74	11.70
412.93	77.24
413.12	51.49
413.31	23.41
413.50	0.00
413.69	0.00
413.88	67.88
414.07	28.09
414.26	11.70
414.45	49.15
414.64	30.43
414.83	81.92
415.02	28.09
415.22	46.81
415.41	84.26
415.60	77.24
415.79	28.09
415.98	51.49
416.17	51.49
416.36	100.64
416.55	30.43
416.74	86.60
416.93	60.85
417.12	32.77
417.31	4.68
417.50	79.58
417.69	67.88
417.88	49.15
418.07	30.43
418.26	65.54
418.45	37.45
418.64	0.00
418.83	88.94
419.02	51.49
419.21	32.77
419.39	18.72
419.58	46.81
419.77	70.22
419.96	60.85
420.15	77.24
420.34	0.00
420.53	84.26
420.72	0.00
420.91	0.00
421.10	39.79
421.29	28.09
421.48	70.22
421.67	98.30
421.86	16.38
422.05	16.38
422.24	39.79
422.43	98.30
422.61	44.47
422.80	95.96
422.99	46.81
423.18	32.77
423.37	25.75
423.56	32.77
423.75	88.94
423.94	0.00
424.13	53.83
424.32	58.51
424.50	95.96
424.69	28.09
424.88	88.94
425.07	4.68
425.26	49.15
425.45	7.02
425.64	0.00
425.83	58.51
426.01	23.41
426.20	84.26
426.39	67.88
426.58	23.41
426.77	0.00
426.96	32.77
427.15	42.13
427.33	32.77
427.52	14.04
427.71	2.34
427.90	91.28
428.09	4.68
428.28	4.68
428.46	35.11
428.65	9.36
428.84	32.77
429.03	16.38
429.22	95.96
429.40	58.51
429.59	11.70
429.78	51.49
429.97	0.00
430.16	46.81
430.34	28.09
430.53	60.85
430.72	7.02
430.91	56.17
431.10	112.35
431.28	0.00
431.47	9.36
431.66	56.17
431.85	0.00
432.03	2.34
432.22	95.96
432.41	65.54
432.60	35.11
432.79	28.09
432.97	35.11
433.16	56.17
433.35	18.72
433.54	0.00
433.72	35.11
433.91	4.68
434.10	49.15
434.28	39.79
434.47	107.66
434.66	46.81
434.85	56.17
435.03	53.83
435.22	124.05
435.41	88.94
435.59	88.94
435.78	42.13
435.97	30.43
436.16	63.19
436.34	49.15
436.53	95.96
436.72	25.75
436.90	65.54
437.09	63.19
437.28	44.47
437.46	9.36
437.65	21.06
437.84	74.90
438.02	102.98
438.21	21.06
438.40	37.45
438.58	4.68
438.77	105.32
438.96	28.09
439.14	7.02
439.33	35.11
439.52	72.56
439.70	53.83
439.89	18.72
440.08	56.17
440.26	30.43
440.45	4.68
440.63	131.07
440.82	39.79
441.01	49.15
441.19	98.30
441.38	86.60
441.57	0.00
441.75	65.54
441.94	74.90
442.12	49.15
442.31	72.56
442.50	58.51
442.68	91.28
442.87	60.85
443.05	25.75
443.24	28.09
443.43	51.49
443.61	16.38
443.80	35.11
443.98	51.49
444.17	107.66
444.35	42.13
444.54	77.24
444.73	37.45
444.91	100.64
445.10	0.00
445.28	60.85
445.47	51.49
445.65	49.15
445.84	72.56
446.02	23.41
446.21	42.13
446.39	0.00
446.58	53.83
446.77	53.83
446.95	0.00
447.14	49.15
447.32	79.58
447.51	16.38
447.69	32.77
447.88	58.51
448.06	44.47
448.25	28.09
448.43	63.19
448.62	119.37
448.80	117.03
448.99	53.83
449.17	46.81
449.36	128.73
449.54	32.77
449.73	65.54
449.91	16.38
450.10	37.45
450.28	46.81
450.46	0.00
450.65	23.41
450.83	58.51
451.02	72.56
451.20	4.68
451.39	49.15
451.57	72.56
451.76	138.09
451.94	112.35
452.13	98.30
452.31	42.13
452.49	23.41
452.68	91.28
452.86	0.00
453.05	84.26
453.23	65.54
453.42	42.13
453.60	81.92
453.78	39.79
453.97	39.79
454.15	46.81
454.34	42.13
454.52	46.81
454.70	39.79
454.89	60.85
455.07	0.00
455.26	25.75
455.44	63.19
455.62	0.00
455.81	77.24
455.99	49.15
456.17	44.47
456.36	88.94
456.54	0.00
456.73	51.49
456.91	35.11
457.09	63.19
457.28	37.45
457.46	35.11
457.64	44.47
457.83	21.06
458.01	110.01
458.19	131.07
458.38	56.17
458.56	133.41
458.74	53.83
458.93	0.00
459.11	91.28
459.29	65.54
459.48	110.01
459.66	32.77
459.84	58.51
460.03	25.75
460.21	7.02
460.39	46.81
460.57	72.56
460.76	58.51
460.94	4.68
461.12	72.56
461.31	65.54
461.49	44.47
461.67	65.54
461.85	0.00
462.04	46.81
462.22	142.77
462.40	49.15
462.59	60.85
462.77	72.56
462.95	25.75
463.13	42.13
463.32	18.72
463.50	142.77
463.68	53.83
463.86	65.54
464.05	100.64
464.23	65.54
464.41	25.75
464.59	0.00
464.78	67.88
464.96	35.11
465.14	0.00
465.32	112.35
465.50	25.75
465.69	14.04
465.87	32.77
466.05	121.71
466.23	63.19
466.41	53.83
466.60	67.88
466.78	110.01
466.96	100.64
467.14	0.00
467.32	72.56
467.51	49.15
467.69	56.17
467.87	0.00
468.05	86.60
468.23	23.41
468.41	11.70
468.60	93.62
468.78	56.17
468.96	56.17
469.14	58.51
469.32	44.47
469.50	72.56
469.69	98.30
469.87	42.13
470.05	60.85
470.23	81.92
470.41	88.94
470.59	79.58
470.77	91.28
470.95	63.19
471.14	21.06
471.32	25.75
471.50	51.49
471.68	25.75
471.86	72.56
472.04	112.35
472.22	53.83
472.40	60.85
472.58	84.26
472.77	44.47
472.95	65.54
473.13	102.98
473.31	67.88
473.49	49.15
473.67	2.34
473.85	0.00
474.03	0.00
474.21	0.00
474.39	74.90
474.57	100.64
474.75	42.13
474.93	0.00
475.12	81.92
475.30	16.38
475.48	46.81
475.66	77.24
475.84	112.35
476.02	46.81
476.20	100.64
476.38	53.83
476.56	91.28
476.74	0.00
476.92	0.00
477.10	67.88
477.28	77.24
477.46	74.90
477.64	84.26
477.82	149.79
478.00	23.41
478.18	32.77
478.36	70.22
478.54	67.88
478.72	105.32
478.90	32.77
479.08	32.77
479.26	25.75
479.44	9.36
479.62	9.36
479.80	53.83
479.98	60.85
480.16	65.54
480.34	51.49
480.52	65.54
480.70	154.48
480.88	53.83
481.06	100.64
481.24	81.92
481.41	21.06
481.59	175.54
481.77	14.04
481.95	63.19
482.13	65.54
482.31	53.83
482.49	72.56
482.67	53.83
482.85	42.13
483.03	81.92
483.21	86.60
483.39	98.30
483.57	74.90
483.74	95.96
483.92	133.41
484.10	53.83
484.28	98.30
484.46	154.48
484.64	49.15
484.82	114.69
485.00	58.51
485.18	77.24
485.35	44.47
485.53	51.49
485.71	65.54
485.89	44.47
486.07	93.62
486.25	30.43
486.43	105.32
486.61	77.24
486.78	77.24
486.96	56.17
487.14	86.60
487.32	30.43
487.50	74.90
487.68	49.15
487.85	107.66
488.03	30.43
488.21	65.54
488.39	56.17
488.57	53.83
488.75	72.56
488.92	112.35
489.10	56.17
489.28	67.88
489.46	91.28
489.64	102.98
489.81	84.26
489.99	23.41
490.17	28.09
490.35	32.77
490.53	51.49
490.70	23.41
490.88	147.45
491.06	100.64
491.24	21.06
491.41	39.79
491.59	105.32
491.77	53.83
491.95	21.06
492.13	112.35
492.30	93.62
492.48	39.79
492.66	11.70
492.84	56.17
493.01	39.79
493.19	4.68
493.37	18.72
493.54	67.88
493.72	67.88
493.90	53.83
494.08	56.17
494.25	133.41
494.43	0.00
494.61	72.56
494.79	86.60
494.96	88.94
495.14	60.85
495.32	4.68
495.49	133.41
495.67	72.56
495.85	91.28
496.02	42.13
496.20	86.60
496.38	88.94
496.55	159.16
496.73	107.66
496.91	131.07
497.09	98.30
497.26	105.32
497.44	88.94
497.62	56.17
497.79	0.00
497.97	39.79
498.14	79.58
498.32	18.72
498.50	74.90
498.67	9.36
498.85	74.90
499.03	91.28
499.20	46.81
499.38	70.22
499.56	79.58
499.73	37.45
499.91	44.47
500.08	88.94
500.26	131.07
500.44	110.01
500.61	74.90
500.79	95.96
500.97	107.66
501.14	39.79
501.32	0.00
501.49	30.43
501.67	49.15
501.84	51.49
502.02	39.79
502.20	88.94
502.37	74.90
502.55	0.00
502.72	107.66
502.90	86.60
503.07	46.81
503.25	81.92
503.43	86.60
503.60	81.92
503.78	2.34
503.95	105.32
504.13	88.94
504.30	93.62
504.48	7.02
504.65	46.81
504.83	63.19
505.01	74.90
505.18	0.00
505.36	74.90
505.53	135.75
505.71	67.88
505.88	112.35
506.06	67.88
506.23	93.62
506.41	58.51
506.58	35.11
506.76	35.11
506.93	42.13
507.11	121.71
507.28	72.56
507.46	44.47
507.63	35.11
507.81	126.39
507.98	74.90
508.16	65.54
508.33	67.88
508.50	98.30
508.68	44.47
508.85	119.37
509.03	112.35
509.20	67.88
509.38	79.58
509.55	35.11
509.73	21.06
509.90	21.06
510.08	79.58
510.25	105.32
510.42	23.41
510.60	91.28
510.77	84.26
510.95	133.41
511.12	56.17
511.30	145.11
511.47	65.54
511.64	56.17
511.82	124.05
511.99	91.28
512.17	16.38
512.34	37.45
512.51	133.41
512.69	11.70
512.86	74.90
513.04	100.64
513.21	112.35
513.38	133.41
513.56	72.56
513.73	70.22
513.90	53.83
514.08	53.83
514.25	51.49
514.43	114.69
514.60	140.43
514.77	53.83
514.95	135.75
515.12	53.83
515.29	65.54
515.47	18.72
515.64	81.92
515.81	91.28
515.99	88.94
516.16	105.32
516.33	81.92
516.51	67.88
516.68	114.69
516.85	63.19
517.03	138.09
517.20	91.28
517.37	98.30
517.54	121.71
517.72	51.49
517.89	98.30
518.06	98.30
518.24	37.45
518.41	112.35
518.58	42.13
518.75	44.47
518.93	105.32
519.10	86.60
519.27	112.35
519.45	70.22
519.62	95.96
519.79	84.26
519.96	117.03
520.14	100.64
520.31	70.22
520.48	67.88
520.65	142.77
520.83	133.41
521.00	91.28
521.17	105.32
521.34	23.41
521.52	46.81
521.69	70.22
521.86	65.54
522.03	119.37
522.20	124.05
522.38	107.66
522.55	135.75
522.72	91.28
522.89	72.56
523.07	14.04
523.24	95.96
523.41	84.26
523.58	60.85
523.75	88.94
523.92	37.45
524.10	58.51
524.27	53.83
524.44	95.96
524.61	30.43
524.78	53.83
524.96	88.94
525.13	51.49
525.30	81.92
525.47	25.75
525.64	95.96
525.81	105.32
525.98	25.75
526.16	140.43
526.33	119.37
526.50	21.06
526.67	53.83
526.84	91.28
527.01	65.54
527.18	37.45
527.36	63.19
527.53	44.47
527.70	58.51
527.87	145.11
528.04	128.73
528.21	117.03
528.38	124.05
528.55	124.05
528.72	58.51
528.89	128.73
529.07	117.03
529.24	23.41
529.41	39.79
529.58	28.09
529.75	88.94
529.92	53.83
530.09	93.62
530.26	23.41
530.43	140.43
530.60	95.96
530.77	95.96
530.94	35.11
531.11	86.60
531.28	102.98
531.46	105.32
531.63	95.96
531.80	152.13
531.97	117.03
532.14	25.75
532.31	0.00
532.48	42.13
532.65	98.30
532.82	110.01
532.99	121.71
533.16	145.11
533.33	152.13
533.50	107.66
533.67	93.62
533.84	74.90
534.01	133.41
534.18	117.03
534.35	70.22
534.52	67.88
534.69	60.85
534.86	79.58
535.03	175.54
535.20	49.15
535.37	105.32
535.54	135.75
535.71	138.09
535.88	79.58
536.05	152.13
536.22	145.11
536.38	86.60
536.55	79.58
536.72	74.90
536.89	39.79
537.06	81.92
537.23	28.09
537.40	53.83
537.57	81.92
537.74	88.94
537.91	11.70
538.08	42.13
538.25	91.28
538.42	65.54
538.59	105.32
538.75	88.94
538.92	0.00
539.09	4.68
539.26	79.58
539.43	91.28
539.60	194.26
539.77	161.50
539.94	46.81
540.11	44.47
540.28	121.71
540.44	30.43
540.61	84.26
540.78	95.96
540.95	98.30
541.12	187.24
541.29	51.49
541.46	95.96
541.62	74.90
541.79	51.49
541.96	56.17
542.13	30.43
542.30	117.03
542.47	163.84
542.63	91.28
542.80	7.02
542.97	77.24
543.14	140.43
543.31	53.83
543.48	81.92
543.64	142.77
543.81	119.37
543.98	110.01
544.15	112.35
544.32	32.77
544.48	93.62
544.65	98.30
544.82	42.13
544.99	67.88
545.16	58.51
545.32	32.77
545.49	23.41
545.66	11.70
545.83	81.92
546.00	107.66
546.16	112.35
546.33	37.45
546.50	42.13
546.67	138.09
546.83	49.15
547.00	95.96
547.17	114.69
547.34	86.60
547.50	91.28
547.67	70.22
547.84	25.75
548.00	74.90
548.17	72.56
548.34	110.01
548.51	56.17
548.67	79.58
548.84	16.38
549.01	95.96
549.18	95.96
549.34	65.54
549.51	133.41
549.68	72.56
549.84	72.56
550.01	74.90
550.18	81.92
550.34	79.58
550.51	124.05
550.68	121.71
550.84	95.96
551.01	117.03
551.18	140.43
551.34	117.03
551.51	86.60
551.68	77.24
551.84	135.75
552.01	56.17
552.18	32.77
552.34	65.54
552.51	79.58
552.68	110.01
552.84	23.41
553.01	67.88
553.18	88.94
553.34	112.35
553.51	140.43
553.67	81.92
553.84	49.15
554.01	133.41
554.17	184.90
554.34	18.72
554.51	88.94
554.67	72.56
554.84	74.90
555.00	128.73
555.17	65.54
555.33	98.30
555.50	51.49
555.67	110.01
555.83	131.07
556.00	63.19
556.16	11.70
556.33	124.05
556.50	60.85
556.66	79.58
556.83	44.47
556.99	28.09
557.16	156.82
557.32	110.01
557.49	46.81
557.65	63.19
557.82	142.77
557.98	124.05
558.15	63.19
558.32	88.94
558.48	112.35
558.65	95.96
558.81	102.98
558.98	112.35
559.14	51.49
559.31	39.79
559.47	145.11
559.64	16.38
559.80	112.35
559.97	23.41
560.13	145.11
560.30	95.96
560.46	142.77
560.63	107.66
560.79	119.37
560.96	140.43
561.12	131.07
561.29	95.96
561.45	63.19
561.61	72.56
561.78	58.51
561.94	133.41
562.11	84.26
562.27	105.32
562.44	72.56
562.60	86.60
562.77	72.56
562.93	4.68
563.10	84.26
563.26	81.92
563.42	23.41
563.59	49.15
563.75	65.54
563.92	65.54
564.08	138.09
564.24	81.92
564.41	72.56
564.57	51.49
564.74	121.71
564.90	81.92
565.07	119.37
565.23	70.22
565.39	81.92
565.56	39.79
565.72	39.79
565.88	74.90
566.05	100.64
566.21	105.32
566.38	77.24
566.54	65.54
566.70	119.37
566.87	79.58
567.03	124.05
567.19	74.90
567.36	56.17
567.52	95.96
567.68	180.22
567.85	110.01
568.01	60.85
568.17	30.43
568.34	11.70
568.50	112.35
568.66	46.81
568.83	100.64
568.99	91.28
569.15	77.24
569.32	0.00
569.48	23.41
569.64	93.62
569.81	95.96
569.97	21.06
570.13	0.00
570.30	35.11
570.46	74.90
570.62	126.39
570.78	93.62
570.95	154.48
571.11	95.96
571.27	110.01
571.43	91.28
571.60	86.60
571.76	18.72
571.92	51.49
572.09	81.92
572.25	100.64
572.41	121.71
572.57	63.19
572.74	11.70
572.90	39.79
573.06	42.13
573.22	51.49
573.38	124.05
573.55	28.09
573.71	107.66
573.87	67.88
574.03	84.26
574.20	147.45
574.36	30.43
574.52	88.94
574.68	81.92
574.84	44.47
575.01	46.81
575.17	88.94
575.33	77.24
575.49	91.28
575.65	0.00
575.82	11.70
575.98	42.13
576.14	84.26
576.30	107.66
576.46	70.22
576.62	102.98
576.79	84.26
576.95	117.03
577.11	77.24
577.27	67.88
577.43	124.05
577.59	100.64
577.75	49.15
577.92	84.26
578.08	93.62
578.24	37.45
578.40	79.58
578.56	91.28
578.72	32.77
578.88	42.13
579.04	135.75
579.21	56.17
579.37	63.19
579.53	72.56
579.69	63.19
579.85	114.69
580.01	49.15
580.17	51.49
580.33	60.85
580.49	49.15
580.65	91.28
580.82	114.69
580.98	102.98
581.14	95.96
581.30	86.60
581.46	53.83
581.62	74.90
581.78	180.22
581.94	30.43
582.10	25.75
582.26	121.71
582.42	98.30
582.58	124.05
582.74	56.17
582.90	88.94
583.06	159.16
583.22	35.11
583.38	23.41
583.54	44.47
583.70	105.32
583.86	37.45
584.02	56.17
584.18	107.66
584.34	72.56
584.50	58.51
584.66	114.69
584.82	32.77
584.98	77.24
585.14	93.62
585.30	114.69
585.46	63.19
585.62	84.26
585.78	93.62
585.94	105.32
586.10	32.77
586.26	56.17
586.42	119.37
586.58	35.11
586.74	11.70
586.90	32.77
587.06	67.88
587.22	107.66
587.38	121.71
587.54	65.54
587.70	56.17
587.86	2.34
588.02	18.72
588.18	74.90
588.34	81.92
588.49	46.81
588.65	107.66
588.81	0.00
588.97	98.30
589.13	93.62
589.29	53.83
589.45	107.66
589.61	81.92
589.77	49.15
589.93	126.39
590.08	46.81
590.24	81.92
590.40	56.17
590.56	51.49
590.72	72.56
590.88	49.15
591.04	0.00
591.20	107.66
591.35	107.66
591.51	23.41
591.67	16.38
591.83	0.00
591.99	39.79
592.15	110.01
592.31	65.54
592.46	60.85
592.62	102.98
592.78	105.32
592.94	114.69
593.10	79.58
593.26	60.85
593.41	102.98
593.57	35.11
593.73	37.45
593.89	46.81
594.05	37.45
594.20	91.28
594.36	67.88
594.52	53.83
594.68	72.56
594.84	16.38
594.99	58.51
595.15	88.94
595.31	30.43
595.47	72.56
595.62	0.00
595.78	86.60
595.94	84.26
596.10	98.30
596.25	121.71
596.41	84.26
596.57	79.58
596.73	9.36
596.88	30.43
597.04	93.62
597.20	0.00
597.36	58.51
597.51	16.38
597.67	121.71
597.83	23.41
597.99	56.17
598.14	11.70
598.30	102.98
598.46	67.88
598.61	102.98
598.77	105.32
598.93	86.60
599.09	133.41
599.24	79.58
599.40	91.28
599.56	56.17
599.71	23.41
599.87	63.19
600.03	72.56
600.18	37.45
600.34	9.36
600.50	84.26
600.65	60.85
600.81	56.17
600.97	42.13
601.12	46.81
601.28	117.03
601.44	42.13
601.59	72.56
601.75	53.83
601.91	74.90
602.06	81.92
602.22	81.92
602.37	32.77
602.53	117.03
602.69	95.96
602.84	93.62
603.00	35.11
603.16	0.00
603.31	25.75
603.47	53.83
603.62	51.49
603.78	46.81
603.94	182.56
604.09	67.88
604.25	53.83
604.40	35.11
604.56	81.92
604.71	37.45
604.87	100.64
605.03	72.56
605.18	56.17
605.34	58.51
605.49	18.72
605.65	30.43
605.80	2.34
605.96	70.22
606.12	14.04
606.27	65.54
606.43	42.13
606.58	37.45
606.74	49.15
606.89	56.17
607.05	56.17
607.20	105.32
607.36	74.90
607.51	35.11
607.67	16.38
607.82	91.28
607.98	110.01
608.13	60.85
608.29	44.47
608.44	9.36
608.60	32.77
608.75	49.15
608.91	98.30
609.06	93.62
609.22	9.36
609.37	105.32
609.53	37.45
609.68	44.47
609.84	60.85
609.99	46.81
610.15	23.41
610.30	23.41
610.46	37.45
610.61	58.51
610.76	53.83
610.92	60.85
611.07	112.35
611.23	149.79
611.38	46.81
611.54	114.69
611.69	88.94
611.84	112.35
612.00	119.37
612.15	65.54
612.31	84.26
612.46	63.19
612.62	39.79
612.77	63.19
612.92	51.49
613.08	84.26
613.23	114.69
613.39	4.68
613.54	14.04
613.69	79.58
613.85	67.88
614.00	81.92
614.15	32.77
614.31	95.96
614.46	67.88
614.62	28.09
614.77	95.96
614.92	98.30
615.08	88.94
615.23	117.03
615.38	110.01
615.54	79.58
615.69	74.90
615.84	98.30
616.00	117.03
616.15	91.28
616.30	72.56
616.46	98.30
616.61	105.32
616.76	9.36
616.92	77.24
617.07	0.00
617.22	23.41
617.37	81.92
617.53	70.22
617.68	42.13
617.83	81.92
617.99	112.35
618.14	39.79
618.29	46.81
618.45	152.13
618.60	14.04
618.75	53.83
618.90	67.88
619.06	53.83
619.21	81.92
619.36	53.83
619.51	131.07
619.67	135.75
619.82	91.28
619.97	72.56
620.12	60.85
620.28	53.83
620.43	44.47
620.58	86.60
620.73	93.62
620.89	77.24
621.04	42.13
621.19	84.26
621.34	46.81
621.49	60.85
621.65	37.45
621.80	63.19
621.95	21.06
622.10	63.19
622.25	0.00
622.41	0.00
622.56	70.22
622.71	58.51
622.86	72.56
623.01	28.09
623.16	37.45
623.32	46.81
623.47	95.96
623.62	133.41
623.77	51.49
623.92	37.45
624.07	11.70
624.23	11.70
624.38	23.41
624.53	65.54
624.68	81.92
624.83	65.54
624.98	53.83
625.13	63.19
625.29	72.56
625.44	72.56
625.59	39.79
625.74	18.72
625.89	100.64
626.04	63.19
626.19	88.94
626.34	100.64
626.49	79.58
626.65	49.15
626.80	65.54
626.95	95.96
627.10	0.00
627.25	112.35
627.40	25.75
627.55	37.45
627.70	60.85
627.85	138.09
628.00	74.90
628.15	9.36
628.30	42.13
628.45	7.02
628.60	14.04
628.76	67.88
628.91	49.15
629.06	84.26
629.21	65.54
629.36	42.13
629.51	9.36
629.66	60.85
629.81	100.64
629.96	95.96
630.11	121.71
630.26	110.01
630.41	117.03
630.56	95.96
630.71	44.47
630.86	70.22
631.01	30.43
631.16	44.47
631.31	95.96
631.46	67.88
631.61	67.88
631.76	110.01
631.91	60.85
632.06	39.79
632.21	42.13
632.36	86.60
632.51	32.77
632.66	11.70
632.81	63.19
632.96	86.60
633.10	32.77
633.25	14.04
633.40	0.00
633.55	0.00
633.70	86.60
633.85	37.45
634.00	0.00
634.15	32.77
634.30	67.88
634.45	4.68
634.60	60.85
634.75	119.37
634.90	93.62
635.05	88.94
635.19	86.60
635.34	39.79
635.49	35.11
635.64	88.94
635.79	58.51
635.94	88.94
636.09	30.43
636.24	58.51
636.39	49.15
636.53	88.94
636.68	9.36
636.83	84.26
636.98	86.60
637.13	32.77
637.28	0.00
637.43	79.58
637.57	79.58
637.72	93.62
637.87	124.05
638.02	79.58
638.17	16.38
638.32	147.45
638.46	72.56
638.61	140.43
638.76	46.81
638.91	77.24
639.06	86.60
639.20	77.24
639.35	51.49
639.50	107.66
639.65	58.51
639.80	35.11
639.94	102.98
640.09	74.90
640.24	25.75
640.39	145.11
640.54	16.38
640.68	0.00
640.83	0.00
640.98	28.09
641.13	58.51
641.27	98.30
641.42	23.41
641.57	39.79
641.72	126.39
641.86	4.68
642.01	30.43
642.16	46.81
642.31	4.68
642.45	44.47
642.60	49.15
642.75	65.54
642.90	63.19
643.04	114.69
643.19	18.72
643.34	72.56
643.48	88.94
643.63	0.00
643.78	98.30
643.93	28.09
644.07	51.49
644.22	39.79
644.37	37.45
644.51	67.88
644.66	42.13
644.81	51.49
644.95	28.09
645.10	25.75
645.25	53.83
645.39	4.68
645.54	21.06
645.69	53.83
645.83	126.39
645.98	88.94
646.13	51.49
646.27	16.38
646.42	0.00
646.57	11.70
646.71	95.96
646.86	23.41
647.00	46.81
647.15	28.09
647.30	25.75
647.44	86.60
647.59	9.36
647.74	77.24
647.88	0.00
648.03	25.75
648.17	14.04
648.32	4.68
648.47	0.00
648.61	30.43
648.76	35.11
648.90	145.11
649.05	42.13
649.20	86.60
649.34	18.72
649.49	49.15
649.63	49.15
649.78	91.28
649.92	126.39
650.07	35.11
650.21	32.77
650.36	126.39
650.51	124.05
650.65	49.15
650.80	79.58
650.94	37.45
651.09	30.43
651.23	0.00
651.38	11.70
651.52	77.24
651.67	70.22
651.81	114.69
651.96	42.13
652.10	67.88
652.25	30.43
652.39	32.77
652.54	63.19
652.68	77.24
652.83	0.00
652.97	91.28
653.12	25.75
653.26	72.56
653.41	7.02
653.55	9.36
653.70	23.41
653.84	0.00
653.99	72.56
654.13	58.51
654.27	28.09
654.42	53.83
654.56	60.85
654.71	18.72
654.85	25.75
655.00	74.90
655.14	35.11
655.29	11.70
655.43	72.56
655.57	56.17
655.72	77.24
655.86	0.00
656.01	0.00
656.15	32.77
656.30	67.88
656.44	58.51
656.58	79.58
656.73	56.17
656.87	70.22
657.01	30.43
657.16	28.09
657.30	95.96
657.45	11.70
657.59	28.09
657.73	105.32
657.88	100.64
658.02	42.13
658.16	102.98
658.31	60.85
658.45	0.00
658.60	0.00
658.74	46.81
658.88	86.60
659.03	16.38
659.17	21.06
659.31	72.56
659.46	74.90
659.60	65.54
659.74	28.09
659.89	0.00
660.03	60.85
660.17	46.81
660.32	56.17
660.46	58.51
660.60	0.00
660.74	46.81
660.89	42.13
661.03	70.22
661.17	9.36
661.32	49.15
661.46	14.04
661.60	37.45
661.74	98.30
661.89	37.45
662.03	0.00
662.17	79.58
662.31	32.77
662.46	53.83
662.60	86.60
662.74	93.62
662.88	65.54
663.03	51.49
663.17	25.75
663.31	110.01
663.45	67.88
663.60	44.47
663.74	46.81
663.88	25.75
664.02	9.36
664.17	79.58
664.31	67.88
664.45	35.11
664.59	51.49
664.73	7.02
664.88	4.68
665.02	60.85
665.16	0.00
665.30	42.13
665.44	84.26
665.59	53.83
665.73	88.94
665.87	65.54
666.01	0.00
666.15	16.38
666.29	0.00
666.44	95.96
666.58	65.54
666.72	35.11
666.86	65.54
667.00	37.45
667.14	88.94
667.28	14.04
667.43	32.77
667.57	9.36
667.71	28.09
667.85	56.17
667.99	18.72
668.13	21.06
668.27	58.51
668.41	63.19
668.56	11.70
668.70	37.45
668.84	98.30
668.98	46.81
669.12	58.51
669.26	30.43
669.40	65.54
669.54	79.58
669.68	23.41
669.82	117.03
669.96	70.22
670.10	42.13
670.25	70.22
670.39	49.15
670.53	79.58
670.67	53.83
670.81	110.01
670.95	65.54
671.09	2.34
671.23	35.11
671.37	51.49
671.51	0.00
671.65	37.45
671.79	67.88
671.93	53.83
672.07	46.81
672.21	16.38
672.35	98.30
672.49	70.22
672.63	56.17
672.77	70.22
672.91	105.32
673.05	39.79
673.19	53.83
673.33	114.69
673.47	72.56
673.61	39.79
673.75	30.43
673.89	53.83
674.03	49.15
674.17	58.51
674.31	0.00
674.45	53.83
674.59	60.85
674.73	98.30
674.87	11.70
675.01	56.17
675.15	84.26
675.29	72.56
675.43	32.77
675.56	56.17
675.70	63.19
675.84	0.00
675.98	46.81
676.12	0.00
676.26	42.13
676.40	131.07
676.54	39.79
676.68	56.17
676.82	60.85
676.96	117.03
677.10	25.75
677.23	0.00
677.37	21.06
677.51	0.00
677.65	149.79
677.79	79.58
677.93	2.34
678.07	81.92
678.21	70.22
678.34	0.00
678.48	21.06
678.62	0.00
678.76	65.54
678.90	0.00
679.04	124.05
679.18	58.51
679.31	9.36
679.45	72.56
679.59	44.47
679.73	147.45
679.87	16.38
680.00	86.60
680.14	37.45
680.28	0.00
680.42	0.00
680.56	0.00
680.70	21.06
680.83	2.34
680.97	16.38
681.11	72.56
681.25	16.38
681.39	28.09
681.52	110.01
681.66	110.01
681.80	25.75
681.94	14.04
682.07	39.79
682.21	21.06
682.35	9.36
682.49	51.49
682.62	0.00
682.76	35.11
682.90	42.13
683.04	32.77
683.17	53.83
683.31	72.56
683.45	100.64
683.59	121.71
683.72	0.00
683.86	28.09
684.00	112.35
684.13	37.45
684.27	0.00
684.41	67.88
684.55	81.92
684.68	49.15
684.82	37.45
684.96	0.00
685.09	35.11
685.23	53.83
685.37	58.51
685.50	42.13
685.64	56.17
685.78	77.24
685.91	60.85
686.05	18.72
686.19	56.17
686.32	56.17
686.46	21.06
686.60	46.81
686.73	44.47
686.87	2.34
687.01	25.75
687.14	37.45
687.28	39.79
687.42	65.54
687.55	0.00
687.69	74.90
687.82	4.68
687.96	70.22
688.10	14.04
688.23	44.47
688.37	7.02
688.50	39.79
688.64	0.00
688.78	32.77
688.91	63.19
689.05	112.35
689.18	32.77
689.32	86.60
689.46	44.47
689.59	46.81
689.73	44.47
689.86	84.26
690.00	2.34
690.13	7.02
690.27	44.47
690.41	7.02
690.54	35.11
690.68	72.56
690.81	72.56
690.95	7.02
691.08	30.43
691.22	65.54
691.35	81.92
691.49	72.56
691.62	65.54
691.76	0.00
691.89	53.83
692.03	44.47
692.16	53.83
692.30	0.00
692.43	4.68
692.57	0.00
692.70	35.11
692.84	25.75
692.97	0.00
693.11	110.01
693.24	46.81
693.38	49.15
693.51	21.06
693.65	32.77
693.78	35.11
693.92	0.00
694.05	0.00
694.19	63.19
694.32	30.43
694.45	18.72
694.59	51.49
694.72	30.43
694.86	25.75
694.99	9.36
695.13	91.28
695.26	32.77
695.39	4.68
695.53	0.00
695.66	37.45
695.80	81.92
695.93	32.77
696.07	23.41
696.20	0.00
696.33	46.81
696.47	53.83
696.60	14.04
696.73	32.77
696.87	88.94
697.00	35.11
697.14	95.96
697.27	0.00
697.40	0.00
697.54	0.00
697.67	18.72
697.80	53.83
697.94	51.49
698.07	42.13
698.21	102.98
698.34	23.41
698.47	0.00
698.61	84.26
698.74	77.24
698.87	51.49
699.01	28.09
699.14	16.38
699.27	0.00
699.40	49.15
699.54	4.68
699.67	16.38
699.80	0.00
699.94	44.47
700.07	63.19
700.20	23.41
700.34	0.00
700.47	100.64
700.60	67.88
700.73	9.36
700.87	0.00
701.00	4.68
701.13	46.81
701.26	74.90
701.40	88.94
701.53	84.26
701.66	37.45
701.79	100.64
701.93	32.77
702.06	18.72
702.19	161.50
702.32	0.00
702.46	30.43
702.59	91.28
702.72	42.13
702.85	18.72
702.99	60.85
703.12	0.00
703.25	65.54
703.38	0.00
703.51	74.90
703.65	21.06
703.78	25.75
703.91	44.47
704.04	14.04
704.17	77.24
704.31	9.36
704.44	7.02
704.57	95.96
704.70	21.06
704.83	0.00
704.96	37.45
705.10	7.02
705.23	0.00
>>>>>End Processed Spectral Data<<<<<
