SpectraSuite Data File
++++++++++++++++++++++++++++++++++++
Date: Fri Oct 04 12:13:35 GMT-05:00 2013
User: price-jones
Dark Spectrum Present: No
Reference Spectrum Present: No
Number of Sampled Component Spectra: 1
Spectrometers: USB2+H05261
Integration Time (usec): 10000 (USB2+H05261)
Spectra Averaged: 1 (USB2+H05261)
Boxcar Smoothing: 0 (USB2+H05261)
Correct for Electrical Dark: No (USB2+H05261)
Strobe/Lamp Enabled: No (USB2+H05261)
Correct for Detector Non-linearity: No (USB2+H05261)
Correct for Stray Light: No (USB2+H05261)
Number of Pixels in Processed Spectrum: 2048
>>>>>Begin Processed Spectral Data<<<<<
365.73	0.00
365.92	0.00
366.12	0.00
366.32	0.00
366.52	0.00
366.72	0.00
366.91	0.00
367.11	0.00
367.31	0.00
367.51	0.00
367.70	0.00
367.90	0.00
368.10	0.00
368.30	0.00
368.49	0.00
368.69	0.00
368.89	0.00
369.09	0.00
369.28	0.00
369.48	0.00
369.68	0.00
369.87	0.00
370.07	0.00
370.27	0.00
370.47	0.00
370.66	0.00
370.86	0.00
371.06	0.00
371.25	0.00
371.45	42.13
371.65	0.00
371.84	42.13
372.04	0.00
372.24	11.70
372.44	18.72
372.63	28.09
372.83	11.70
373.03	39.79
373.22	51.49
373.42	0.00
373.62	0.00
373.81	37.45
374.01	0.00
374.21	0.00
374.40	39.79
374.60	86.60
374.79	67.88
374.99	21.06
375.19	0.00
375.38	0.00
375.58	28.09
375.78	37.45
375.97	4.68
376.17	53.83
376.37	0.00
376.56	16.38
376.76	35.11
376.95	2.34
377.15	23.41
377.35	23.41
377.54	58.51
377.74	2.34
377.93	21.06
378.13	63.19
378.33	35.11
378.52	23.41
378.72	4.68
378.91	84.26
379.11	67.88
379.31	42.13
379.50	0.00
379.70	95.96
379.89	25.75
380.09	35.11
380.28	2.34
380.48	18.72
380.68	0.00
380.87	14.04
381.07	0.00
381.26	0.00
381.46	39.79
381.65	65.54
381.85	0.00
382.04	0.00
382.24	0.00
382.43	39.79
382.63	77.24
382.83	11.70
383.02	28.09
383.22	0.00
383.41	0.00
383.61	0.00
383.80	0.00
384.00	14.04
384.19	42.13
384.39	58.51
384.58	0.00
384.78	0.00
384.97	18.72
385.17	63.19
385.36	2.34
385.56	0.00
385.75	0.00
385.95	98.30
386.14	0.00
386.34	0.00
386.53	4.68
386.72	0.00
386.92	23.41
387.11	0.00
387.31	35.11
387.50	63.19
387.70	16.38
387.89	65.54
388.09	28.09
388.28	70.22
388.48	39.79
388.67	23.41
388.86	7.02
389.06	23.41
389.25	79.58
389.45	107.66
389.64	49.15
389.84	4.68
390.03	0.00
390.22	65.54
390.42	0.00
390.61	35.11
390.81	35.11
391.00	30.43
391.19	0.00
391.39	0.00
391.58	70.22
391.78	0.00
391.97	51.49
392.16	51.49
392.36	51.49
392.55	0.00
392.75	72.56
392.94	18.72
393.13	18.72
393.33	7.02
393.52	133.41
393.71	37.45
393.91	35.11
394.10	60.85
394.29	7.02
394.49	0.00
394.68	44.47
394.88	67.88
395.07	0.00
395.26	21.06
395.46	0.00
395.65	46.81
395.84	51.49
396.04	0.00
396.23	11.70
396.42	0.00
396.62	0.00
396.81	30.43
397.00	53.83
397.19	9.36
397.39	23.41
397.58	28.09
397.77	60.85
397.97	44.47
398.16	16.38
398.35	42.13
398.55	0.00
398.74	53.83
398.93	77.24
399.12	98.30
399.32	77.24
399.51	14.04
399.70	32.77
399.90	53.83
400.09	56.17
400.28	72.56
400.47	16.38
400.67	39.79
400.86	77.24
401.05	35.11
401.24	30.43
401.44	0.00
401.63	105.32
401.82	35.11
402.01	18.72
402.21	79.58
402.40	0.00
402.59	7.02
402.78	56.17
402.97	32.77
403.17	77.24
403.36	51.49
403.55	30.43
403.74	56.17
403.93	18.72
404.13	39.79
404.32	14.04
404.51	95.96
404.70	30.43
404.89	32.77
405.09	30.43
405.28	86.60
405.47	32.77
405.66	0.00
405.85	23.41
406.05	0.00
406.24	0.00
406.43	32.77
406.62	102.98
406.81	112.35
407.00	0.00
407.20	0.00
407.39	28.09
407.58	37.45
407.77	79.58
407.96	30.43
408.15	4.68
408.34	23.41
408.54	21.06
408.73	0.00
408.92	0.00
409.11	0.00
409.30	25.75
409.49	117.03
409.68	56.17
409.87	25.75
410.07	0.00
410.26	0.00
410.45	0.00
410.64	65.54
410.83	0.00
411.02	37.45
411.21	2.34
411.40	0.00
411.59	7.02
411.78	0.00
411.98	2.34
412.17	23.41
412.36	86.60
412.55	42.13
412.74	88.94
412.93	0.00
413.12	105.32
413.31	0.00
413.50	119.37
413.69	53.83
413.88	84.26
414.07	86.60
414.26	2.34
414.45	0.00
414.64	35.11
414.83	18.72
415.02	74.90
415.22	2.34
415.41	81.92
415.60	14.04
415.79	63.19
415.98	30.43
416.17	42.13
416.36	18.72
416.55	0.00
416.74	18.72
416.93	86.60
417.12	44.47
417.31	35.11
417.50	14.04
417.69	107.66
417.88	35.11
418.07	28.09
418.26	65.54
418.45	84.26
418.64	63.19
418.83	23.41
419.02	128.73
419.21	16.38
419.39	14.04
419.58	11.70
419.77	4.68
419.96	53.83
420.15	23.41
420.34	46.81
420.53	51.49
420.72	0.00
420.91	81.92
421.10	23.41
421.29	0.00
421.48	70.22
421.67	23.41
421.86	0.00
422.05	79.58
422.24	42.13
422.43	37.45
422.61	0.00
422.80	30.43
422.99	53.83
423.18	37.45
423.37	58.51
423.56	44.47
423.75	0.00
423.94	7.02
424.13	93.62
424.32	44.47
424.50	56.17
424.69	28.09
424.88	0.00
425.07	39.79
425.26	49.15
425.45	28.09
425.64	65.54
425.83	0.00
426.01	32.77
426.20	46.81
426.39	60.85
426.58	49.15
426.77	37.45
426.96	4.68
427.15	77.24
427.33	51.49
427.52	30.43
427.71	70.22
427.90	35.11
428.09	100.64
428.28	37.45
428.46	53.83
428.65	51.49
428.84	39.79
429.03	39.79
429.22	18.72
429.40	86.60
429.59	0.00
429.78	0.00
429.97	0.00
430.16	18.72
430.34	79.58
430.53	0.00
430.72	11.70
430.91	35.11
431.10	23.41
431.28	4.68
431.47	14.04
431.66	32.77
431.85	18.72
432.03	18.72
432.22	35.11
432.41	11.70
432.60	11.70
432.79	2.34
432.97	74.90
433.16	42.13
433.35	46.81
433.54	32.77
433.72	2.34
433.91	63.19
434.10	28.09
434.28	18.72
434.47	65.54
434.66	28.09
434.85	21.06
435.03	42.13
435.22	42.13
435.41	30.43
435.59	95.96
435.78	91.28
435.97	21.06
436.16	93.62
436.34	56.17
436.53	86.60
436.72	42.13
436.90	65.54
437.09	79.58
437.28	102.98
437.46	23.41
437.65	37.45
437.84	44.47
438.02	30.43
438.21	70.22
438.40	93.62
438.58	0.00
438.77	46.81
438.96	60.85
439.14	21.06
439.33	114.69
439.52	44.47
439.70	16.38
439.89	0.00
440.08	37.45
440.26	110.01
440.45	79.58
440.63	98.30
440.82	140.43
441.01	39.79
441.19	51.49
441.38	58.51
441.57	32.77
441.75	28.09
441.94	65.54
442.12	14.04
442.31	39.79
442.50	0.00
442.68	67.88
442.87	65.54
443.05	51.49
443.24	51.49
443.43	65.54
443.61	131.07
443.80	28.09
443.98	39.79
444.17	32.77
444.35	58.51
444.54	70.22
444.73	46.81
444.91	53.83
445.10	51.49
445.28	46.81
445.47	32.77
445.65	63.19
445.84	0.00
446.02	51.49
446.21	81.92
446.39	95.96
446.58	79.58
446.77	74.90
446.95	49.15
447.14	0.00
447.32	37.45
447.51	14.04
447.69	32.77
447.88	42.13
448.06	42.13
448.25	77.24
448.43	60.85
448.62	98.30
448.80	25.75
448.99	93.62
449.17	9.36
449.36	93.62
449.54	93.62
449.73	4.68
449.91	35.11
450.10	35.11
450.28	4.68
450.46	16.38
450.65	30.43
450.83	84.26
451.02	46.81
451.20	39.79
451.39	91.28
451.57	44.47
451.76	70.22
451.94	117.03
452.13	32.77
452.31	79.58
452.49	37.45
452.68	46.81
452.86	11.70
453.05	28.09
453.23	79.58
453.42	63.19
453.60	32.77
453.78	51.49
453.97	49.15
454.15	70.22
454.34	81.92
454.52	91.28
454.70	70.22
454.89	37.45
455.07	37.45
455.26	56.17
455.44	23.41
455.62	21.06
455.81	7.02
455.99	30.43
456.17	110.01
456.36	39.79
456.54	60.85
456.73	39.79
456.91	119.37
457.09	46.81
457.28	98.30
457.46	95.96
457.64	60.85
457.83	72.56
458.01	86.60
458.19	49.15
458.38	23.41
458.56	9.36
458.74	95.96
458.93	93.62
459.11	7.02
459.29	30.43
459.48	44.47
459.66	0.00
459.84	11.70
460.03	39.79
460.21	23.41
460.39	77.24
460.57	25.75
460.76	37.45
460.94	70.22
461.12	81.92
461.31	67.88
461.49	0.00
461.67	105.32
461.85	79.58
462.04	25.75
462.22	107.66
462.40	0.00
462.59	95.96
462.77	0.00
462.95	81.92
463.13	25.75
463.32	117.03
463.50	145.11
463.68	14.04
463.86	77.24
464.05	0.00
464.23	112.35
464.41	60.85
464.59	86.60
464.78	25.75
464.96	126.39
465.14	0.00
465.32	28.09
465.50	42.13
465.69	65.54
465.87	67.88
466.05	39.79
466.23	35.11
466.41	135.75
466.60	86.60
466.78	79.58
466.96	30.43
467.14	32.77
467.32	121.71
467.51	133.41
467.69	93.62
467.87	95.96
468.05	0.00
468.23	51.49
468.41	18.72
468.60	0.00
468.78	63.19
468.96	0.00
469.14	105.32
469.32	56.17
469.50	0.00
469.69	53.83
469.87	32.77
470.05	25.75
470.23	77.24
470.41	114.69
470.59	100.64
470.77	98.30
470.95	128.73
471.14	18.72
471.32	21.06
471.50	44.47
471.68	46.81
471.86	105.32
472.04	107.66
472.22	18.72
472.40	60.85
472.58	18.72
472.77	63.19
472.95	70.22
473.13	72.56
473.31	110.01
473.49	56.17
473.67	39.79
473.85	121.71
474.03	77.24
474.21	42.13
474.39	79.58
474.57	72.56
474.75	0.00
474.93	140.43
475.12	58.51
475.30	86.60
475.48	65.54
475.66	58.51
475.84	119.37
476.02	37.45
476.20	138.09
476.38	74.90
476.56	30.43
476.74	140.43
476.92	67.88
477.10	77.24
477.28	63.19
477.46	49.15
477.64	110.01
477.82	131.07
478.00	0.00
478.18	21.06
478.36	9.36
478.54	77.24
478.72	53.83
478.90	23.41
479.08	46.81
479.26	98.30
479.44	163.84
479.62	72.56
479.80	100.64
479.98	67.88
480.16	37.45
480.34	95.96
480.52	32.77
480.70	81.92
480.88	4.68
481.06	32.77
481.24	102.98
481.41	119.37
481.59	121.71
481.77	166.18
481.95	107.66
482.13	117.03
482.31	88.94
482.49	95.96
482.67	25.75
482.85	63.19
483.03	51.49
483.21	74.90
483.39	79.58
483.57	14.04
483.74	56.17
483.92	93.62
484.10	74.90
484.28	11.70
484.46	112.35
484.64	98.30
484.82	145.11
485.00	44.47
485.18	49.15
485.35	53.83
485.53	23.41
485.71	72.56
485.89	53.83
486.07	53.83
486.25	32.77
486.43	98.30
486.61	44.47
486.78	0.00
486.96	79.58
487.14	35.11
487.32	72.56
487.50	37.45
487.68	28.09
487.85	23.41
488.03	23.41
488.21	70.22
488.39	112.35
488.57	98.30
488.75	23.41
488.92	84.26
489.10	51.49
489.28	77.24
489.46	0.00
489.64	98.30
489.81	56.17
489.99	39.79
490.17	70.22
490.35	72.56
490.53	110.01
490.70	23.41
490.88	81.92
491.06	37.45
491.24	65.54
491.41	65.54
491.59	56.17
491.77	135.75
491.95	72.56
492.13	42.13
492.30	56.17
492.48	65.54
492.66	37.45
492.84	117.03
493.01	135.75
493.19	53.83
493.37	30.43
493.54	46.81
493.72	25.75
493.90	37.45
494.08	131.07
494.25	63.19
494.43	126.39
494.61	142.77
494.79	128.73
494.96	30.43
495.14	46.81
495.32	16.38
495.49	42.13
495.67	93.62
495.85	86.60
496.02	53.83
496.20	86.60
496.38	170.86
496.55	79.58
496.73	114.69
496.91	98.30
497.09	91.28
497.26	126.39
497.44	72.56
497.62	65.54
497.79	0.00
497.97	105.32
498.14	98.30
498.32	46.81
498.50	60.85
498.67	65.54
498.85	77.24
499.03	84.26
499.20	0.00
499.38	65.54
499.56	126.39
499.73	117.03
499.91	79.58
500.08	42.13
500.26	102.98
500.44	100.64
500.61	72.56
500.79	70.22
500.97	95.96
501.14	14.04
501.32	91.28
501.49	65.54
501.67	79.58
501.84	100.64
502.02	37.45
502.20	56.17
502.37	77.24
502.55	88.94
502.72	58.51
502.90	95.96
503.07	53.83
503.25	170.86
503.43	72.56
503.60	98.30
503.78	65.54
503.95	86.60
504.13	0.00
504.30	93.62
504.48	84.26
504.65	110.01
504.83	77.24
505.01	84.26
505.18	86.60
505.36	56.17
505.53	79.58
505.71	84.26
505.88	93.62
506.06	35.11
506.23	105.32
506.41	95.96
506.58	70.22
506.76	88.94
506.93	88.94
507.11	95.96
507.28	42.13
507.46	124.05
507.63	91.28
507.81	126.39
507.98	42.13
508.16	0.00
508.33	121.71
508.50	163.84
508.68	110.01
508.85	67.88
509.03	67.88
509.20	105.32
509.38	142.77
509.55	42.13
509.73	72.56
509.90	126.39
510.08	100.64
510.25	88.94
510.42	147.45
510.60	117.03
510.77	53.83
510.95	95.96
511.12	112.35
511.30	56.17
511.47	65.54
511.64	98.30
511.82	114.69
511.99	79.58
512.17	60.85
512.34	39.79
512.51	95.96
512.69	100.64
512.86	72.56
513.04	35.11
513.21	77.24
513.38	35.11
513.56	9.36
513.73	60.85
513.90	133.41
514.08	107.66
514.25	51.49
514.43	147.45
514.60	42.13
514.77	86.60
514.95	81.92
515.12	117.03
515.29	126.39
515.47	51.49
515.64	72.56
515.81	79.58
515.99	70.22
516.16	58.51
516.33	14.04
516.51	44.47
516.68	58.51
516.85	16.38
517.03	37.45
517.20	53.83
517.37	39.79
517.54	0.00
517.72	51.49
517.89	126.39
518.06	114.69
518.24	42.13
518.41	86.60
518.58	72.56
518.75	74.90
518.93	60.85
519.10	65.54
519.27	98.30
519.45	35.11
519.62	32.77
519.79	65.54
519.96	42.13
520.14	149.79
520.31	79.58
520.48	23.41
520.65	51.49
520.83	121.71
521.00	105.32
521.17	110.01
521.34	93.62
521.52	74.90
521.69	110.01
521.86	124.05
522.03	124.05
522.20	77.24
522.38	86.60
522.55	74.90
522.72	86.60
522.89	105.32
523.07	65.54
523.24	126.39
523.41	28.09
523.58	77.24
523.75	102.98
523.92	110.01
524.10	119.37
524.27	79.58
524.44	65.54
524.61	35.11
524.78	135.75
524.96	124.05
525.13	11.70
525.30	35.11
525.47	105.32
525.64	86.60
525.81	74.90
525.98	93.62
526.16	93.62
526.33	11.70
526.50	67.88
526.67	32.77
526.84	28.09
527.01	79.58
527.18	81.92
527.36	74.90
527.53	163.84
527.70	32.77
527.87	133.41
528.04	121.71
528.21	60.85
528.38	11.70
528.55	58.51
528.72	102.98
528.89	28.09
529.07	58.51
529.24	112.35
529.41	95.96
529.58	168.52
529.75	107.66
529.92	102.98
530.09	119.37
530.26	98.30
530.43	88.94
530.60	100.64
530.77	72.56
530.94	58.51
531.11	58.51
531.28	42.13
531.46	142.77
531.63	39.79
531.80	18.72
531.97	63.19
532.14	128.73
532.31	126.39
532.48	21.06
532.65	58.51
532.82	149.79
532.99	56.17
533.16	49.15
533.33	39.79
533.50	126.39
533.67	100.64
533.84	63.19
534.01	65.54
534.18	53.83
534.35	46.81
534.52	121.71
534.69	152.13
534.86	37.45
535.03	133.41
535.20	46.81
535.37	25.75
535.54	51.49
535.71	100.64
535.88	18.72
536.05	100.64
536.22	128.73
536.38	107.66
536.55	46.81
536.72	42.13
536.89	88.94
537.06	9.36
537.23	51.49
537.40	110.01
537.57	170.86
537.74	74.90
537.91	39.79
538.08	88.94
538.25	30.43
538.42	114.69
538.59	44.47
538.75	102.98
538.92	49.15
539.09	30.43
539.26	77.24
539.43	51.49
539.60	81.92
539.77	140.43
539.94	79.58
540.11	14.04
540.28	58.51
540.44	88.94
540.61	42.13
540.78	77.24
540.95	84.26
541.12	56.17
541.29	70.22
541.46	51.49
541.62	53.83
541.79	7.02
541.96	44.47
542.13	128.73
542.30	67.88
542.47	63.19
542.63	42.13
542.80	74.90
542.97	46.81
543.14	28.09
543.31	95.96
543.48	124.05
543.64	88.94
543.81	86.60
543.98	86.60
544.15	63.19
544.32	91.28
544.48	49.15
544.65	74.90
544.82	81.92
544.99	100.64
545.16	131.07
545.32	79.58
545.49	124.05
545.66	114.69
545.83	9.36
546.00	112.35
546.16	124.05
546.33	60.85
546.50	53.83
546.67	67.88
546.83	53.83
547.00	44.47
547.17	51.49
547.34	18.72
547.50	39.79
547.67	32.77
547.84	133.41
548.00	58.51
548.17	42.13
548.34	86.60
548.51	91.28
548.67	152.13
548.84	88.94
549.01	70.22
549.18	53.83
549.34	187.24
549.51	56.17
549.68	65.54
549.84	67.88
550.01	9.36
550.18	51.49
550.34	131.07
550.51	112.35
550.68	98.30
550.84	70.22
551.01	84.26
551.18	44.47
551.34	131.07
551.51	46.81
551.68	86.60
551.84	0.00
552.01	95.96
552.18	70.22
552.34	37.45
552.51	102.98
552.68	91.28
552.84	74.90
553.01	142.77
553.18	28.09
553.34	81.92
553.51	2.34
553.67	53.83
553.84	140.43
554.01	128.73
554.17	84.26
554.34	86.60
554.51	81.92
554.67	98.30
554.84	105.32
555.00	60.85
555.17	72.56
555.33	117.03
555.50	84.26
555.67	110.01
555.83	88.94
556.00	74.90
556.16	102.98
556.33	128.73
556.50	112.35
556.66	133.41
556.83	93.62
556.99	91.28
557.16	88.94
557.32	119.37
557.49	110.01
557.65	112.35
557.82	63.19
557.98	79.58
558.15	112.35
558.32	145.11
558.48	44.47
558.65	84.26
558.81	133.41
558.98	63.19
559.14	42.13
559.31	0.00
559.47	93.62
559.64	28.09
559.80	46.81
559.97	95.96
560.13	112.35
560.30	112.35
560.46	95.96
560.63	53.83
560.79	126.39
560.96	60.85
561.12	28.09
561.29	42.13
561.45	0.00
561.61	91.28
561.78	79.58
561.94	7.02
562.11	65.54
562.27	58.51
562.44	107.66
562.60	117.03
562.77	166.18
562.93	112.35
563.10	51.49
563.26	131.07
563.42	119.37
563.59	149.79
563.75	119.37
563.92	98.30
564.08	28.09
564.24	117.03
564.41	0.00
564.57	147.45
564.74	168.52
564.90	25.75
565.07	65.54
565.23	51.49
565.39	114.69
565.56	70.22
565.72	79.58
565.88	81.92
566.05	98.30
566.21	67.88
566.38	105.32
566.54	105.32
566.70	72.56
566.87	79.58
567.03	126.39
567.19	72.56
567.36	46.81
567.52	53.83
567.68	25.75
567.85	39.79
568.01	126.39
568.17	79.58
568.34	77.24
568.50	58.51
568.66	93.62
568.83	88.94
568.99	95.96
569.15	110.01
569.32	56.17
569.48	63.19
569.64	21.06
569.81	84.26
569.97	77.24
570.13	37.45
570.30	91.28
570.46	28.09
570.62	51.49
570.78	74.90
570.95	88.94
571.11	72.56
571.27	98.30
571.43	56.17
571.60	93.62
571.76	51.49
571.92	35.11
572.09	133.41
572.25	88.94
572.41	37.45
572.57	86.60
572.74	133.41
572.90	114.69
573.06	131.07
573.22	107.66
573.38	91.28
573.55	49.15
573.71	102.98
573.87	79.58
574.03	100.64
574.20	102.98
574.36	100.64
574.52	124.05
574.68	28.09
574.84	32.77
575.01	42.13
575.17	126.39
575.33	67.88
575.49	88.94
575.65	72.56
575.82	37.45
575.98	67.88
576.14	35.11
576.30	58.51
576.46	77.24
576.62	53.83
576.79	84.26
576.95	74.90
577.11	49.15
577.27	23.41
577.43	81.92
577.59	63.19
577.75	30.43
577.92	98.30
578.08	86.60
578.24	30.43
578.40	131.07
578.56	74.90
578.72	145.11
578.88	70.22
579.04	49.15
579.21	86.60
579.37	51.49
579.53	49.15
579.69	124.05
579.85	77.24
580.01	58.51
580.17	42.13
580.33	98.30
580.49	0.00
580.65	74.90
580.82	0.00
580.98	39.79
581.14	88.94
581.30	37.45
581.46	105.32
581.62	42.13
581.78	105.32
581.94	93.62
582.10	37.45
582.26	74.90
582.42	72.56
582.58	154.48
582.74	100.64
582.90	44.47
583.06	74.90
583.22	30.43
583.38	65.54
583.54	53.83
583.70	138.09
583.86	124.05
584.02	107.66
584.18	95.96
584.34	93.62
584.50	63.19
584.66	49.15
584.82	114.69
584.98	4.68
585.14	42.13
585.30	42.13
585.46	60.85
585.62	81.92
585.78	124.05
585.94	56.17
586.10	84.26
586.26	112.35
586.42	56.17
586.58	119.37
586.74	131.07
586.90	119.37
587.06	79.58
587.22	49.15
587.38	37.45
587.54	100.64
587.70	84.26
587.86	44.47
588.02	98.30
588.18	91.28
588.34	65.54
588.49	84.26
588.65	67.88
588.81	63.19
588.97	60.85
589.13	60.85
589.29	21.06
589.45	180.22
589.61	65.54
589.77	7.02
589.93	46.81
590.08	25.75
590.24	21.06
590.40	42.13
590.56	0.00
590.72	110.01
590.88	23.41
591.04	46.81
591.20	58.51
591.35	77.24
591.51	119.37
591.67	58.51
591.83	126.39
591.99	28.09
592.15	7.02
592.31	117.03
592.46	93.62
592.62	74.90
592.78	0.00
592.94	35.11
593.10	110.01
593.26	88.94
593.41	74.90
593.57	35.11
593.73	49.15
593.89	128.73
594.05	60.85
594.20	32.77
594.36	86.60
594.52	105.32
594.68	135.75
594.84	105.32
594.99	102.98
595.15	86.60
595.31	56.17
595.47	81.92
595.62	72.56
595.78	72.56
595.94	49.15
596.10	98.30
596.25	93.62
596.41	11.70
596.57	93.62
596.73	152.13
596.88	72.56
597.04	0.00
597.20	32.77
597.36	88.94
597.51	74.90
597.67	32.77
597.83	112.35
597.99	70.22
598.14	93.62
598.30	126.39
598.46	72.56
598.61	0.00
598.77	70.22
598.93	51.49
599.09	60.85
599.24	84.26
599.40	53.83
599.56	112.35
599.71	121.71
599.87	65.54
600.03	117.03
600.18	37.45
600.34	63.19
600.50	60.85
600.65	102.98
600.81	58.51
600.97	100.64
601.12	114.69
601.28	42.13
601.44	79.58
601.59	84.26
601.75	77.24
601.91	46.81
602.06	93.62
602.22	84.26
602.37	65.54
602.53	81.92
602.69	65.54
602.84	0.00
603.00	63.19
603.16	56.17
603.31	98.30
603.47	21.06
603.62	91.28
603.78	63.19
603.94	44.47
604.09	72.56
604.25	84.26
604.40	126.39
604.56	63.19
604.71	93.62
604.87	100.64
605.03	51.49
605.18	77.24
605.34	84.26
605.49	51.49
605.65	56.17
605.80	131.07
605.96	56.17
606.12	79.58
606.27	65.54
606.43	159.16
606.58	173.20
606.74	58.51
606.89	51.49
607.05	37.45
607.20	93.62
607.36	58.51
607.51	65.54
607.67	112.35
607.82	53.83
607.98	23.41
608.13	56.17
608.29	67.88
608.44	16.38
608.60	79.58
608.75	84.26
608.91	121.71
609.06	51.49
609.22	65.54
609.37	56.17
609.53	42.13
609.68	28.09
609.84	49.15
609.99	60.85
610.15	77.24
610.30	44.47
610.46	100.64
610.61	51.49
610.76	0.00
610.92	58.51
611.07	9.36
611.23	58.51
611.38	84.26
611.54	44.47
611.69	9.36
611.84	49.15
612.00	91.28
612.15	105.32
612.31	121.71
612.46	0.00
612.62	49.15
612.77	133.41
612.92	56.17
613.08	39.79
613.23	16.38
613.39	28.09
613.54	128.73
613.69	100.64
613.85	74.90
614.00	28.09
614.15	84.26
614.31	110.01
614.46	25.75
614.62	44.47
614.77	14.04
614.92	81.92
615.08	9.36
615.23	60.85
615.38	21.06
615.54	105.32
615.69	98.30
615.84	105.32
616.00	114.69
616.15	86.60
616.30	124.05
616.46	65.54
616.61	51.49
616.76	84.26
616.92	58.51
617.07	46.81
617.22	35.11
617.37	39.79
617.53	67.88
617.68	0.00
617.83	65.54
617.99	77.24
618.14	0.00
618.29	42.13
618.45	0.00
618.60	72.56
618.75	65.54
618.90	124.05
619.06	39.79
619.21	56.17
619.36	39.79
619.51	51.49
619.67	81.92
619.82	58.51
619.97	72.56
620.12	95.96
620.28	39.79
620.43	72.56
620.58	131.07
620.73	63.19
620.89	128.73
621.04	140.43
621.19	91.28
621.34	18.72
621.49	79.58
621.65	44.47
621.80	56.17
621.95	0.00
622.10	84.26
622.25	60.85
622.41	30.43
622.56	53.83
622.71	14.04
622.86	110.01
623.01	72.56
623.16	105.32
623.32	79.58
623.47	112.35
623.62	98.30
623.77	11.70
623.92	67.88
624.07	84.26
624.23	81.92
624.38	28.09
624.53	30.43
624.68	128.73
624.83	56.17
624.98	81.92
625.13	0.00
625.29	0.00
625.44	0.00
625.59	30.43
625.74	65.54
625.89	131.07
626.04	102.98
626.19	81.92
626.34	100.64
626.49	39.79
626.65	16.38
626.80	18.72
626.95	21.06
627.10	60.85
627.25	53.83
627.40	44.47
627.55	46.81
627.70	23.41
627.85	18.72
628.00	88.94
628.15	81.92
628.30	14.04
628.45	117.03
628.60	74.90
628.76	23.41
628.91	49.15
629.06	0.00
629.21	84.26
629.36	72.56
629.51	98.30
629.66	58.51
629.81	44.47
629.96	53.83
630.11	42.13
630.26	81.92
630.41	112.35
630.56	70.22
630.71	18.72
630.86	77.24
631.01	46.81
631.16	70.22
631.31	88.94
631.46	114.69
631.61	0.00
631.76	0.00
631.91	30.43
632.06	88.94
632.21	21.06
632.36	14.04
632.51	95.96
632.66	145.11
632.81	37.45
632.96	58.51
633.10	21.06
633.25	72.56
633.40	49.15
633.55	67.88
633.70	65.54
633.85	25.75
634.00	114.69
634.15	53.83
634.30	65.54
634.45	60.85
634.60	28.09
634.75	79.58
634.90	72.56
635.05	102.98
635.19	86.60
635.34	14.04
635.49	56.17
635.64	65.54
635.79	79.58
635.94	166.18
636.09	16.38
636.24	7.02
636.39	100.64
636.53	72.56
636.68	53.83
636.83	63.19
636.98	46.81
637.13	35.11
637.28	23.41
637.43	86.60
637.57	60.85
637.72	35.11
637.87	93.62
638.02	46.81
638.17	46.81
638.32	37.45
638.46	67.88
638.61	35.11
638.76	58.51
638.91	49.15
639.06	79.58
639.20	11.70
639.35	32.77
639.50	39.79
639.65	121.71
639.80	32.77
639.94	42.13
640.09	159.16
640.24	88.94
640.39	56.17
640.54	42.13
640.68	65.54
640.83	140.43
640.98	51.49
641.13	39.79
641.27	119.37
641.42	152.13
641.57	37.45
641.72	79.58
641.86	131.07
642.01	128.73
642.16	42.13
642.31	60.85
642.45	91.28
642.60	58.51
642.75	51.49
642.90	35.11
643.04	72.56
643.19	60.85
643.34	44.47
643.48	58.51
643.63	105.32
643.78	72.56
643.93	77.24
644.07	16.38
644.22	63.19
644.37	58.51
644.51	102.98
644.66	81.92
644.81	114.69
644.95	23.41
645.10	100.64
645.25	51.49
645.39	56.17
645.54	46.81
645.69	51.49
645.83	53.83
645.98	140.43
646.13	4.68
646.27	14.04
646.42	51.49
646.57	63.19
646.71	11.70
646.86	0.00
647.00	53.83
647.15	51.49
647.30	51.49
647.44	72.56
647.59	58.51
647.74	93.62
647.88	39.79
648.03	65.54
648.17	70.22
648.32	58.51
648.47	58.51
648.61	74.90
648.76	37.45
648.90	0.00
649.05	77.24
649.20	28.09
649.34	28.09
649.49	42.13
649.63	11.70
649.78	74.90
649.92	21.06
650.07	133.41
650.21	39.79
650.36	145.11
650.51	72.56
650.65	44.47
650.80	72.56
650.94	25.75
651.09	84.26
651.23	67.88
651.38	58.51
651.52	0.00
651.67	44.47
651.81	79.58
651.96	100.64
652.10	60.85
652.25	140.43
652.39	51.49
652.54	58.51
652.68	110.01
652.83	63.19
652.97	25.75
653.12	0.00
653.26	0.00
653.41	35.11
653.55	65.54
653.70	32.77
653.84	84.26
653.99	124.05
654.13	93.62
654.27	56.17
654.42	154.48
654.56	60.85
654.71	114.69
654.85	72.56
655.00	23.41
655.14	74.90
655.29	0.00
655.43	128.73
655.57	86.60
655.72	110.01
655.86	86.60
656.01	37.45
656.15	93.62
656.30	91.28
656.44	79.58
656.58	56.17
656.73	79.58
656.87	25.75
657.01	79.58
657.16	98.30
657.30	23.41
657.45	35.11
657.59	30.43
657.73	0.00
657.88	86.60
658.02	56.17
658.16	44.47
658.31	42.13
658.45	7.02
658.60	28.09
658.74	23.41
658.88	42.13
659.03	98.30
659.17	74.90
659.31	9.36
659.46	16.38
659.60	25.75
659.74	44.47
659.89	49.15
660.03	86.60
660.17	77.24
660.32	74.90
660.46	128.73
660.60	65.54
660.74	77.24
660.89	42.13
661.03	32.77
661.17	58.51
661.32	42.13
661.46	4.68
661.60	77.24
661.74	58.51
661.89	32.77
662.03	16.38
662.17	67.88
662.31	91.28
662.46	28.09
662.60	7.02
662.74	56.17
662.88	49.15
663.03	84.26
663.17	35.11
663.31	44.47
663.45	25.75
663.60	35.11
663.74	0.00
663.88	42.13
664.02	7.02
664.17	14.04
664.31	0.00
664.45	63.19
664.59	42.13
664.73	74.90
664.88	46.81
665.02	53.83
665.16	7.02
665.30	147.45
665.44	51.49
665.59	105.32
665.73	46.81
665.87	53.83
666.01	56.17
666.15	28.09
666.29	28.09
666.44	56.17
666.58	2.34
666.72	56.17
666.86	72.56
667.00	60.85
667.14	56.17
667.28	37.45
667.43	0.00
667.57	72.56
667.71	95.96
667.85	18.72
667.99	58.51
668.13	16.38
668.27	11.70
668.41	53.83
668.56	86.60
668.70	32.77
668.84	44.47
668.98	56.17
669.12	84.26
669.26	67.88
669.40	28.09
669.54	23.41
669.68	86.60
669.82	39.79
669.96	60.85
670.10	100.64
670.25	9.36
670.39	28.09
670.53	44.47
670.67	30.43
670.81	63.19
670.95	74.90
671.09	44.47
671.23	91.28
671.37	56.17
671.51	51.49
671.65	84.26
671.79	2.34
671.93	11.70
672.07	2.34
672.21	84.26
672.35	79.58
672.49	93.62
672.63	35.11
672.77	124.05
672.91	0.00
673.05	56.17
673.19	56.17
673.33	53.83
673.47	14.04
673.61	67.88
673.75	65.54
673.89	25.75
674.03	65.54
674.17	25.75
674.31	16.38
674.45	49.15
674.59	42.13
674.73	11.70
674.87	46.81
675.01	0.00
675.15	67.88
675.29	81.92
675.43	0.00
675.56	0.00
675.70	16.38
675.84	21.06
675.98	23.41
676.12	23.41
676.26	18.72
676.40	14.04
676.54	25.75
676.68	32.77
676.82	0.00
676.96	114.69
677.10	11.70
677.23	18.72
677.37	0.00
677.51	77.24
677.65	107.66
677.79	2.34
677.93	0.00
678.07	74.90
678.21	100.64
678.34	63.19
678.48	42.13
678.62	49.15
678.76	46.81
678.90	0.00
679.04	4.68
679.18	0.00
679.31	77.24
679.45	65.54
679.59	84.26
679.73	9.36
679.87	133.41
680.00	16.38
680.14	77.24
680.28	100.64
680.42	35.11
680.56	42.13
680.70	84.26
680.83	46.81
680.97	56.17
681.11	65.54
681.25	63.19
681.39	131.07
681.52	11.70
681.66	56.17
681.80	4.68
681.94	30.43
682.07	100.64
682.21	23.41
682.35	65.54
682.49	46.81
682.62	126.39
682.76	0.00
682.90	0.00
683.04	65.54
683.17	42.13
683.31	72.56
683.45	32.77
683.59	21.06
683.72	0.00
683.86	84.26
684.00	2.34
684.13	0.00
684.27	77.24
684.41	51.49
684.55	72.56
684.68	0.00
684.82	16.38
684.96	30.43
685.09	25.75
685.23	18.72
685.37	67.88
685.50	58.51
685.64	42.13
685.78	70.22
685.91	70.22
686.05	4.68
686.19	37.45
686.32	70.22
686.46	53.83
686.60	44.47
686.73	67.88
686.87	0.00
687.01	42.13
687.14	37.45
687.28	49.15
687.42	79.58
687.55	65.54
687.69	56.17
687.82	74.90
687.96	53.83
688.10	53.83
688.23	46.81
688.37	28.09
688.50	0.00
688.64	79.58
688.78	105.32
688.91	0.00
689.05	16.38
689.18	77.24
689.32	16.38
689.46	58.51
689.59	46.81
689.73	30.43
689.86	79.58
690.00	18.72
690.13	14.04
690.27	42.13
690.41	51.49
690.54	30.43
690.68	0.00
690.81	70.22
690.95	102.98
691.08	70.22
691.22	72.56
691.35	39.79
691.49	0.00
691.62	42.13
691.76	21.06
691.89	67.88
692.03	95.96
692.16	0.00
692.30	63.19
692.43	37.45
692.57	25.75
692.70	2.34
692.84	11.70
692.97	37.45
693.11	107.66
693.24	35.11
693.38	44.47
693.51	30.43
693.65	58.51
693.78	11.70
693.92	53.83
694.05	18.72
694.19	32.77
694.32	16.38
694.45	0.00
694.59	32.77
694.72	95.96
694.86	23.41
694.99	93.62
695.13	117.03
695.26	21.06
695.39	39.79
695.53	88.94
695.66	60.85
695.80	72.56
695.93	46.81
696.07	110.01
696.20	49.15
696.33	51.49
696.47	18.72
696.60	88.94
696.73	2.34
696.87	74.90
697.00	58.51
697.14	0.00
697.27	74.90
697.40	35.11
697.54	42.13
697.67	53.83
697.80	23.41
697.94	0.00
698.07	25.75
698.21	79.58
698.34	42.13
698.47	42.13
698.61	4.68
698.74	51.49
698.87	112.35
699.01	21.06
699.14	58.51
699.27	28.09
699.40	39.79
699.54	11.70
699.67	100.64
699.80	37.45
699.94	23.41
700.07	51.49
700.20	0.00
700.34	39.79
700.47	86.60
700.60	0.00
700.73	102.98
700.87	0.00
701.00	0.00
701.13	28.09
701.26	0.00
701.40	72.56
701.53	72.56
701.66	107.66
701.79	0.00
701.93	16.38
702.06	58.51
702.19	81.92
702.32	60.85
702.46	46.81
702.59	14.04
702.72	14.04
702.85	18.72
702.99	30.43
703.12	42.13
703.25	35.11
703.38	51.49
703.51	53.83
703.65	25.75
703.78	18.72
703.91	63.19
704.04	44.47
704.17	0.00
704.31	9.36
704.44	7.02
704.57	60.85
704.70	32.77
704.83	39.79
704.96	100.64
705.10	28.09
705.23	23.41
>>>>>End Processed Spectral Data<<<<<
