SpectraSuite Data File
++++++++++++++++++++++++++++++++++++
Date: Fri Oct 04 12:13:29 GMT-05:00 2013
User: price-jones
Dark Spectrum Present: No
Reference Spectrum Present: No
Number of Sampled Component Spectra: 1
Spectrometers: USB2+H05261
Integration Time (usec): 10000 (USB2+H05261)
Spectra Averaged: 1 (USB2+H05261)
Boxcar Smoothing: 0 (USB2+H05261)
Correct for Electrical Dark: No (USB2+H05261)
Strobe/Lamp Enabled: No (USB2+H05261)
Correct for Detector Non-linearity: No (USB2+H05261)
Correct for Stray Light: No (USB2+H05261)
Number of Pixels in Processed Spectrum: 2048
>>>>>Begin Processed Spectral Data<<<<<
365.73	0.00
365.92	0.00
366.12	0.00
366.32	0.00
366.52	0.00
366.72	0.00
366.91	0.00
367.11	0.00
367.31	0.00
367.51	0.00
367.70	0.00
367.90	0.00
368.10	0.00
368.30	0.00
368.49	0.00
368.69	0.00
368.89	0.00
369.09	0.00
369.28	0.00
369.48	0.00
369.68	0.00
369.87	0.00
370.07	0.00
370.27	0.00
370.47	0.00
370.66	0.00
370.86	0.00
371.06	0.00
371.25	0.00
371.45	0.00
371.65	9.36
371.84	0.00
372.04	0.00
372.24	0.00
372.44	0.00
372.63	37.45
372.83	74.90
373.03	11.70
373.22	32.77
373.42	77.24
373.62	105.32
373.81	25.75
374.01	53.83
374.21	0.00
374.40	77.24
374.60	35.11
374.79	9.36
374.99	16.38
375.19	0.00
375.38	39.79
375.58	14.04
375.78	51.49
375.97	23.41
376.17	84.26
376.37	117.03
376.56	0.00
376.76	23.41
376.95	72.56
377.15	14.04
377.35	0.00
377.54	16.38
377.74	49.15
377.93	16.38
378.13	0.00
378.33	9.36
378.52	0.00
378.72	0.00
378.91	4.68
379.11	16.38
379.31	42.13
379.50	0.00
379.70	30.43
379.89	67.88
380.09	53.83
380.28	23.41
380.48	0.00
380.68	11.70
380.87	18.72
381.07	0.00
381.26	0.00
381.46	0.00
381.65	86.60
381.85	35.11
382.04	4.68
382.24	2.34
382.43	18.72
382.63	39.79
382.83	0.00
383.02	23.41
383.22	44.47
383.41	7.02
383.61	18.72
383.80	0.00
384.00	77.24
384.19	0.00
384.39	0.00
384.58	0.00
384.78	0.00
384.97	0.00
385.17	7.02
385.36	63.19
385.56	0.00
385.75	4.68
385.95	0.00
386.14	16.38
386.34	63.19
386.53	4.68
386.72	105.32
386.92	9.36
387.11	70.22
387.31	28.09
387.50	0.00
387.70	46.81
387.89	67.88
388.09	0.00
388.28	25.75
388.48	28.09
388.67	23.41
388.86	16.38
389.06	11.70
389.25	0.00
389.45	7.02
389.64	0.00
389.84	53.83
390.03	0.00
390.22	0.00
390.42	7.02
390.61	11.70
390.81	18.72
391.00	0.00
391.19	60.85
391.39	58.51
391.58	53.83
391.78	77.24
391.97	0.00
392.16	28.09
392.36	21.06
392.55	0.00
392.75	32.77
392.94	28.09
393.13	32.77
393.33	74.90
393.52	37.45
393.71	11.70
393.91	65.54
394.10	42.13
394.29	46.81
394.49	16.38
394.68	9.36
394.88	0.00
395.07	0.00
395.26	0.00
395.46	0.00
395.65	23.41
395.84	35.11
396.04	0.00
396.23	70.22
396.42	0.00
396.62	0.00
396.81	110.01
397.00	53.83
397.19	23.41
397.39	0.00
397.58	0.00
397.77	0.00
397.97	35.11
398.16	21.06
398.35	11.70
398.55	51.49
398.74	0.00
398.93	30.43
399.12	16.38
399.32	0.00
399.51	0.00
399.70	28.09
399.90	100.64
400.09	0.00
400.28	0.00
400.47	0.00
400.67	44.47
400.86	4.68
401.05	0.00
401.24	0.00
401.44	37.45
401.63	46.81
401.82	35.11
402.01	4.68
402.21	0.00
402.40	44.47
402.59	46.81
402.78	0.00
402.97	42.13
403.17	32.77
403.36	53.83
403.55	65.54
403.74	0.00
403.93	4.68
404.13	0.00
404.32	7.02
404.51	81.92
404.70	81.92
404.89	44.47
405.09	0.00
405.28	58.51
405.47	25.75
405.66	67.88
405.85	0.00
406.05	44.47
406.24	81.92
406.43	11.70
406.62	51.49
406.81	0.00
407.00	124.05
407.20	60.85
407.39	2.34
407.58	105.32
407.77	7.02
407.96	0.00
408.15	0.00
408.34	67.88
408.54	4.68
408.73	4.68
408.92	91.28
409.11	67.88
409.30	0.00
409.49	42.13
409.68	9.36
409.87	0.00
410.07	0.00
410.26	0.00
410.45	14.04
410.64	56.17
410.83	16.38
411.02	0.00
411.21	0.00
411.40	7.02
411.59	0.00
411.78	39.79
411.98	0.00
412.17	67.88
412.36	63.19
412.55	28.09
412.74	72.56
412.93	51.49
413.12	65.54
413.31	37.45
413.50	35.11
413.69	42.13
413.88	0.00
414.07	46.81
414.26	4.68
414.45	35.11
414.64	25.75
414.83	7.02
415.02	39.79
415.22	0.00
415.41	0.00
415.60	0.00
415.79	44.47
415.98	37.45
416.17	88.94
416.36	53.83
416.55	67.88
416.74	30.43
416.93	39.79
417.12	23.41
417.31	0.00
417.50	51.49
417.69	39.79
417.88	110.01
418.07	0.00
418.26	74.90
418.45	16.38
418.64	37.45
418.83	16.38
419.02	0.00
419.21	51.49
419.39	49.15
419.58	46.81
419.77	37.45
419.96	23.41
420.15	32.77
420.34	14.04
420.53	0.00
420.72	14.04
420.91	23.41
421.10	42.13
421.29	0.00
421.48	11.70
421.67	16.38
421.86	9.36
422.05	49.15
422.24	37.45
422.43	18.72
422.61	32.77
422.80	23.41
422.99	65.54
423.18	23.41
423.37	2.34
423.56	0.00
423.75	32.77
423.94	46.81
424.13	0.00
424.32	0.00
424.50	44.47
424.69	81.92
424.88	95.96
425.07	56.17
425.26	32.77
425.45	0.00
425.64	9.36
425.83	16.38
426.01	0.00
426.20	70.22
426.39	28.09
426.58	9.36
426.77	0.00
426.96	0.00
427.15	0.00
427.33	14.04
427.52	7.02
427.71	44.47
427.90	37.45
428.09	42.13
428.28	58.51
428.46	16.38
428.65	51.49
428.84	0.00
429.03	0.00
429.22	0.00
429.40	30.43
429.59	30.43
429.78	105.32
429.97	0.00
430.16	46.81
430.34	0.00
430.53	0.00
430.72	60.85
430.91	63.19
431.10	4.68
431.28	0.00
431.47	65.54
431.66	0.00
431.85	46.81
432.03	0.00
432.22	46.81
432.41	67.88
432.60	37.45
432.79	58.51
432.97	112.35
433.16	0.00
433.35	63.19
433.54	79.58
433.72	44.47
433.91	49.15
434.10	49.15
434.28	21.06
434.47	63.19
434.66	44.47
434.85	11.70
435.03	110.01
435.22	42.13
435.41	9.36
435.59	0.00
435.78	21.06
435.97	72.56
436.16	25.75
436.34	39.79
436.53	16.38
436.72	84.26
436.90	9.36
437.09	0.00
437.28	0.00
437.46	9.36
437.65	86.60
437.84	60.85
438.02	30.43
438.21	58.51
438.40	21.06
438.58	65.54
438.77	0.00
438.96	0.00
439.14	0.00
439.33	0.00
439.52	30.43
439.70	21.06
439.89	117.03
440.08	49.15
440.26	30.43
440.45	81.92
440.63	4.68
440.82	49.15
441.01	9.36
441.19	0.00
441.38	56.17
441.57	35.11
441.75	0.00
441.94	4.68
442.12	0.00
442.31	25.75
442.50	0.00
442.68	0.00
442.87	0.00
443.05	35.11
443.24	14.04
443.43	21.06
443.61	60.85
443.80	25.75
443.98	2.34
444.17	7.02
444.35	58.51
444.54	32.77
444.73	0.00
444.91	63.19
445.10	0.00
445.28	56.17
445.47	14.04
445.65	65.54
445.84	67.88
446.02	42.13
446.21	37.45
446.39	42.13
446.58	30.43
446.77	58.51
446.95	37.45
447.14	0.00
447.32	35.11
447.51	28.09
447.69	42.13
447.88	23.41
448.06	35.11
448.25	0.00
448.43	21.06
448.62	9.36
448.80	0.00
448.99	79.58
449.17	32.77
449.36	98.30
449.54	7.02
449.73	18.72
449.91	72.56
450.10	11.70
450.28	51.49
450.46	30.43
450.65	0.00
450.83	74.90
451.02	2.34
451.20	0.00
451.39	2.34
451.57	0.00
451.76	0.00
451.94	0.00
452.13	23.41
452.31	0.00
452.49	11.70
452.68	25.75
452.86	0.00
453.05	42.13
453.23	65.54
453.42	53.83
453.60	72.56
453.78	67.88
453.97	0.00
454.15	0.00
454.34	51.49
454.52	65.54
454.70	18.72
454.89	30.43
455.07	11.70
455.26	74.90
455.44	70.22
455.62	51.49
455.81	0.00
455.99	49.15
456.17	44.47
456.36	37.45
456.54	63.19
456.73	18.72
456.91	145.11
457.09	60.85
457.28	44.47
457.46	58.51
457.64	72.56
457.83	4.68
458.01	21.06
458.19	35.11
458.38	0.00
458.56	23.41
458.74	11.70
458.93	39.79
459.11	0.00
459.29	84.26
459.48	44.47
459.66	70.22
459.84	39.79
460.03	37.45
460.21	42.13
460.39	49.15
460.57	0.00
460.76	58.51
460.94	32.77
461.12	56.17
461.31	30.43
461.49	105.32
461.67	60.85
461.85	28.09
462.04	51.49
462.22	23.41
462.40	58.51
462.59	81.92
462.77	2.34
462.95	23.41
463.13	32.77
463.32	60.85
463.50	79.58
463.68	100.64
463.86	0.00
464.05	67.88
464.23	0.00
464.41	49.15
464.59	21.06
464.78	72.56
464.96	21.06
465.14	37.45
465.32	16.38
465.50	0.00
465.69	46.81
465.87	70.22
466.05	58.51
466.23	18.72
466.41	74.90
466.60	21.06
466.78	44.47
466.96	149.79
467.14	70.22
467.32	25.75
467.51	70.22
467.69	63.19
467.87	58.51
468.05	9.36
468.23	42.13
468.41	46.81
468.60	37.45
468.78	51.49
468.96	23.41
469.14	0.00
469.32	16.38
469.50	0.00
469.69	74.90
469.87	21.06
470.05	0.00
470.23	0.00
470.41	16.38
470.59	2.34
470.77	32.77
470.95	70.22
471.14	0.00
471.32	86.60
471.50	28.09
471.68	56.17
471.86	46.81
472.04	28.09
472.22	2.34
472.40	0.00
472.58	0.00
472.77	11.70
472.95	42.13
473.13	9.36
473.31	23.41
473.49	58.51
473.67	11.70
473.85	91.28
474.03	72.56
474.21	0.00
474.39	25.75
474.57	91.28
474.75	0.00
474.93	28.09
475.12	58.51
475.30	9.36
475.48	0.00
475.66	11.70
475.84	42.13
476.02	84.26
476.20	23.41
476.38	0.00
476.56	58.51
476.74	51.49
476.92	70.22
477.10	72.56
477.28	32.77
477.46	23.41
477.64	14.04
477.82	67.88
478.00	14.04
478.18	32.77
478.36	0.00
478.54	49.15
478.72	11.70
478.90	60.85
479.08	11.70
479.26	0.00
479.44	51.49
479.62	60.85
479.80	21.06
479.98	88.94
480.16	0.00
480.34	16.38
480.52	35.11
480.70	42.13
480.88	95.96
481.06	0.00
481.24	11.70
481.41	0.00
481.59	4.68
481.77	0.00
481.95	0.00
482.13	79.58
482.31	35.11
482.49	0.00
482.67	7.02
482.85	11.70
483.03	0.00
483.21	56.17
483.39	51.49
483.57	4.68
483.74	58.51
483.92	133.41
484.10	35.11
484.28	14.04
484.46	86.60
484.64	51.49
484.82	72.56
485.00	44.47
485.18	30.43
485.35	67.88
485.53	44.47
485.71	51.49
485.89	0.00
486.07	0.00
486.25	72.56
486.43	0.00
486.61	2.34
486.78	56.17
486.96	0.00
487.14	67.88
487.32	60.85
487.50	0.00
487.68	42.13
487.85	88.94
488.03	63.19
488.21	105.32
488.39	35.11
488.57	51.49
488.75	32.77
488.92	95.96
489.10	32.77
489.28	14.04
489.46	65.54
489.64	81.92
489.81	0.00
489.99	21.06
490.17	16.38
490.35	114.69
490.53	42.13
490.70	86.60
490.88	28.09
491.06	35.11
491.24	4.68
491.41	46.81
491.59	25.75
491.77	110.01
491.95	70.22
492.13	51.49
492.30	0.00
492.48	67.88
492.66	21.06
492.84	84.26
493.01	46.81
493.19	35.11
493.37	35.11
493.54	0.00
493.72	56.17
493.90	16.38
494.08	0.00
494.25	77.24
494.43	86.60
494.61	81.92
494.79	14.04
494.96	28.09
495.14	0.00
495.32	46.81
495.49	0.00
495.67	25.75
495.85	46.81
496.02	7.02
496.20	2.34
496.38	72.56
496.55	4.68
496.73	42.13
496.91	65.54
497.09	35.11
497.26	81.92
497.44	35.11
497.62	53.83
497.79	44.47
497.97	16.38
498.14	39.79
498.32	0.00
498.50	67.88
498.67	58.51
498.85	44.47
499.03	39.79
499.20	0.00
499.38	65.54
499.56	44.47
499.73	51.49
499.91	60.85
500.08	117.03
500.26	14.04
500.44	70.22
500.61	35.11
500.79	18.72
500.97	70.22
501.14	147.45
501.32	39.79
501.49	124.05
501.67	53.83
501.84	102.98
502.02	79.58
502.20	37.45
502.37	16.38
502.55	105.32
502.72	102.98
502.90	65.54
503.07	32.77
503.25	65.54
503.43	14.04
503.60	67.88
503.78	9.36
503.95	32.77
504.13	9.36
504.30	14.04
504.48	0.00
504.65	39.79
504.83	49.15
505.01	30.43
505.18	79.58
505.36	2.34
505.53	58.51
505.71	16.38
505.88	2.34
506.06	53.83
506.23	67.88
506.41	9.36
506.58	25.75
506.76	32.77
506.93	65.54
507.11	0.00
507.28	39.79
507.46	18.72
507.63	9.36
507.81	4.68
507.98	0.00
508.16	114.69
508.33	72.56
508.50	81.92
508.68	58.51
508.85	74.90
509.03	9.36
509.20	0.00
509.38	7.02
509.55	37.45
509.73	77.24
509.90	65.54
510.08	0.00
510.25	79.58
510.42	0.00
510.60	128.73
510.77	39.79
510.95	21.06
511.12	9.36
511.30	77.24
511.47	49.15
511.64	86.60
511.82	51.49
511.99	25.75
512.17	72.56
512.34	77.24
512.51	18.72
512.69	51.49
512.86	39.79
513.04	44.47
513.21	74.90
513.38	0.00
513.56	23.41
513.73	0.00
513.90	138.09
514.08	107.66
514.25	9.36
514.43	56.17
514.60	46.81
514.77	58.51
514.95	0.00
515.12	44.47
515.29	107.66
515.47	39.79
515.64	42.13
515.81	67.88
515.99	84.26
516.16	39.79
516.33	81.92
516.51	56.17
516.68	46.81
516.85	60.85
517.03	30.43
517.20	0.00
517.37	63.19
517.54	0.00
517.72	37.45
517.89	0.00
518.06	65.54
518.24	28.09
518.41	0.00
518.58	32.77
518.75	67.88
518.93	14.04
519.10	16.38
519.27	60.85
519.45	95.96
519.62	28.09
519.79	93.62
519.96	32.77
520.14	9.36
520.31	42.13
520.48	18.72
520.65	42.13
520.83	72.56
521.00	53.83
521.17	70.22
521.34	102.98
521.52	51.49
521.69	74.90
521.86	74.90
522.03	37.45
522.20	32.77
522.38	0.00
522.55	32.77
522.72	63.19
522.89	58.51
523.07	88.94
523.24	0.00
523.41	25.75
523.58	25.75
523.75	49.15
523.92	0.00
524.10	105.32
524.27	79.58
524.44	51.49
524.61	67.88
524.78	44.47
524.96	30.43
525.13	98.30
525.30	23.41
525.47	142.77
525.64	51.49
525.81	0.00
525.98	42.13
526.16	0.00
526.33	0.00
526.50	37.45
526.67	23.41
526.84	53.83
527.01	16.38
527.18	0.00
527.36	0.00
527.53	84.26
527.70	51.49
527.87	88.94
528.04	51.49
528.21	53.83
528.38	35.11
528.55	42.13
528.72	46.81
528.89	11.70
529.07	44.47
529.24	25.75
529.41	0.00
529.58	7.02
529.75	30.43
529.92	81.92
530.09	49.15
530.26	46.81
530.43	51.49
530.60	28.09
530.77	0.00
530.94	25.75
531.11	0.00
531.28	70.22
531.46	44.47
531.63	21.06
531.80	98.30
531.97	67.88
532.14	14.04
532.31	4.68
532.48	0.00
532.65	77.24
532.82	135.75
532.99	0.00
533.16	4.68
533.33	77.24
533.50	25.75
533.67	9.36
533.84	58.51
534.01	84.26
534.18	16.38
534.35	25.75
534.52	98.30
534.69	102.98
534.86	18.72
535.03	46.81
535.20	91.28
535.37	11.70
535.54	18.72
535.71	88.94
535.88	23.41
536.05	58.51
536.22	46.81
536.38	0.00
536.55	117.03
536.72	98.30
536.89	25.75
537.06	74.90
537.23	53.83
537.40	0.00
537.57	0.00
537.74	77.24
537.91	4.68
538.08	56.17
538.25	37.45
538.42	7.02
538.59	39.79
538.75	37.45
538.92	18.72
539.09	0.00
539.26	0.00
539.43	86.60
539.60	88.94
539.77	138.09
539.94	37.45
540.11	46.81
540.28	49.15
540.44	121.71
540.61	37.45
540.78	0.00
540.95	81.92
541.12	0.00
541.29	49.15
541.46	9.36
541.62	60.85
541.79	9.36
541.96	0.00
542.13	30.43
542.30	74.90
542.47	14.04
542.63	44.47
542.80	44.47
542.97	102.98
543.14	9.36
543.31	28.09
543.48	67.88
543.64	49.15
543.81	60.85
543.98	95.96
544.15	0.00
544.32	58.51
544.48	72.56
544.65	46.81
544.82	70.22
544.99	39.79
545.16	42.13
545.32	77.24
545.49	18.72
545.66	0.00
545.83	11.70
546.00	102.98
546.16	0.00
546.33	121.71
546.50	95.96
546.67	0.00
546.83	114.69
547.00	98.30
547.17	51.49
547.34	60.85
547.50	63.19
547.67	42.13
547.84	42.13
548.00	39.79
548.17	42.13
548.34	60.85
548.51	53.83
548.67	91.28
548.84	42.13
549.01	21.06
549.18	72.56
549.34	0.00
549.51	49.15
549.68	23.41
549.84	0.00
550.01	7.02
550.18	88.94
550.34	81.92
550.51	37.45
550.68	81.92
550.84	28.09
551.01	35.11
551.18	63.19
551.34	79.58
551.51	0.00
551.68	44.47
551.84	9.36
552.01	72.56
552.18	49.15
552.34	44.47
552.51	46.81
552.68	18.72
552.84	0.00
553.01	49.15
553.18	79.58
553.34	72.56
553.51	0.00
553.67	56.17
553.84	58.51
554.01	84.26
554.17	7.02
554.34	28.09
554.51	51.49
554.67	14.04
554.84	9.36
555.00	32.77
555.17	35.11
555.33	100.64
555.50	63.19
555.67	72.56
555.83	28.09
556.00	39.79
556.16	51.49
556.33	16.38
556.50	37.45
556.66	0.00
556.83	79.58
556.99	77.24
557.16	46.81
557.32	0.00
557.49	0.00
557.65	32.77
557.82	37.45
557.98	18.72
558.15	42.13
558.32	51.49
558.48	2.34
558.65	74.90
558.81	112.35
558.98	30.43
559.14	18.72
559.31	56.17
559.47	74.90
559.64	21.06
559.80	25.75
559.97	11.70
560.13	32.77
560.30	44.47
560.46	14.04
560.63	7.02
560.79	65.54
560.96	58.51
561.12	91.28
561.29	49.15
561.45	0.00
561.61	0.00
561.78	67.88
561.94	44.47
562.11	0.00
562.27	0.00
562.44	0.00
562.60	35.11
562.77	0.00
562.93	46.81
563.10	9.36
563.26	88.94
563.42	49.15
563.59	0.00
563.75	51.49
563.92	39.79
564.08	0.00
564.24	74.90
564.41	49.15
564.57	30.43
564.74	0.00
564.90	98.30
565.07	86.60
565.23	74.90
565.39	46.81
565.56	18.72
565.72	25.75
565.88	49.15
566.05	28.09
566.21	39.79
566.38	0.00
566.54	32.77
566.70	37.45
566.87	0.00
567.03	67.88
567.19	30.43
567.36	74.90
567.52	11.70
567.68	51.49
567.85	9.36
568.01	98.30
568.17	117.03
568.34	63.19
568.50	0.00
568.66	4.68
568.83	133.41
568.99	105.32
569.15	9.36
569.32	72.56
569.48	70.22
569.64	0.00
569.81	0.00
569.97	2.34
570.13	58.51
570.30	0.00
570.46	42.13
570.62	35.11
570.78	25.75
570.95	72.56
571.11	56.17
571.27	44.47
571.43	79.58
571.60	60.85
571.76	44.47
571.92	39.79
572.09	63.19
572.25	65.54
572.41	32.77
572.57	18.72
572.74	30.43
572.90	114.69
573.06	51.49
573.22	63.19
573.38	0.00
573.55	58.51
573.71	30.43
573.87	44.47
574.03	44.47
574.20	77.24
574.36	42.13
574.52	100.64
574.68	51.49
574.84	67.88
575.01	102.98
575.17	0.00
575.33	11.70
575.49	72.56
575.65	58.51
575.82	46.81
575.98	65.54
576.14	37.45
576.30	18.72
576.46	42.13
576.62	79.58
576.79	84.26
576.95	67.88
577.11	65.54
577.27	79.58
577.43	81.92
577.59	51.49
577.75	49.15
577.92	65.54
578.08	98.30
578.24	0.00
578.40	7.02
578.56	60.85
578.72	32.77
578.88	21.06
579.04	35.11
579.21	4.68
579.37	14.04
579.53	65.54
579.69	53.83
579.85	60.85
580.01	147.45
580.17	98.30
580.33	95.96
580.49	84.26
580.65	84.26
580.82	32.77
580.98	0.00
581.14	67.88
581.30	63.19
581.46	28.09
581.62	35.11
581.78	18.72
581.94	117.03
582.10	28.09
582.26	23.41
582.42	91.28
582.58	65.54
582.74	117.03
582.90	4.68
583.06	42.13
583.22	145.11
583.38	58.51
583.54	0.00
583.70	72.56
583.86	44.47
584.02	58.51
584.18	65.54
584.34	142.77
584.50	259.80
584.66	2129.89
584.82	5069.60
584.98	6878.83
585.14	5870.06
585.30	3758.90
585.46	2459.90
585.62	1486.24
585.78	608.54
585.94	280.86
586.10	173.20
586.26	79.58
586.42	105.32
586.58	79.58
586.74	56.17
586.90	46.81
587.06	81.92
587.22	51.49
587.38	100.64
587.54	168.52
587.70	386.19
587.86	592.16
588.02	514.92
588.18	372.15
588.34	358.10
588.49	88.94
588.65	63.19
588.81	79.58
588.97	44.47
589.13	37.45
589.29	100.64
589.45	74.90
589.61	4.68
589.77	18.72
589.93	39.79
590.08	42.13
590.24	39.79
590.40	46.81
590.56	70.22
590.72	42.13
590.88	30.43
591.04	72.56
591.20	77.24
591.35	23.41
591.51	67.88
591.67	4.68
591.83	79.58
591.99	67.88
592.15	74.90
592.31	56.17
592.46	23.41
592.62	79.58
592.78	53.83
592.94	0.00
593.10	0.00
593.26	35.11
593.41	86.60
593.57	30.43
593.73	60.85
593.89	339.38
594.05	685.78
594.20	945.58
594.36	809.83
594.52	634.29
594.68	355.76
594.84	231.71
594.99	168.52
595.15	128.73
595.31	91.28
595.47	18.72
595.62	2.34
595.78	88.94
595.94	84.26
596.10	0.00
596.25	72.56
596.41	44.47
596.57	49.15
596.73	72.56
596.88	77.24
597.04	215.33
597.20	215.33
597.36	250.44
597.51	163.84
597.67	154.48
597.83	65.54
597.99	30.43
598.14	107.66
598.30	39.79
598.46	32.77
598.61	67.88
598.77	88.94
598.93	56.17
599.09	56.17
599.24	30.43
599.40	95.96
599.56	9.36
599.71	49.15
599.87	7.02
600.03	30.43
600.18	56.17
600.34	51.49
600.50	23.41
600.65	0.00
600.81	79.58
600.97	25.75
601.12	44.47
601.28	65.54
601.44	105.32
601.59	0.00
601.75	84.26
601.91	37.45
602.06	0.00
602.22	60.85
602.37	105.32
602.53	173.20
602.69	238.73
602.84	231.71
603.00	241.08
603.16	114.69
603.31	79.58
603.47	91.28
603.62	23.41
603.78	77.24
603.94	65.54
604.09	25.75
604.25	39.79
604.40	0.00
604.56	53.83
604.71	56.17
604.87	30.43
605.03	0.00
605.18	37.45
605.34	60.85
605.49	0.00
605.65	39.79
605.80	30.43
605.96	53.83
606.12	11.70
606.27	44.47
606.43	37.45
606.58	60.85
606.74	114.69
606.89	294.91
607.05	631.94
607.20	784.08
607.36	592.16
607.51	404.91
607.67	269.16
607.82	196.60
607.98	79.58
608.13	0.00
608.29	88.94
608.44	23.41
608.60	56.17
608.75	63.19
608.91	105.32
609.06	484.49
609.22	1041.54
609.37	1327.08
609.53	1174.95
609.68	774.72
609.84	533.64
609.99	355.76
610.15	234.05
610.30	77.24
610.46	39.79
610.61	32.77
610.76	117.03
610.92	11.70
611.07	35.11
611.23	56.17
611.38	56.17
611.54	35.11
611.69	70.22
611.84	32.77
612.00	49.15
612.15	46.81
612.31	39.79
612.46	100.64
612.62	63.19
612.77	58.51
612.92	112.35
613.08	42.13
613.23	37.45
613.39	110.01
613.54	81.92
613.69	425.98
613.85	1296.66
614.00	1909.88
614.15	1998.82
614.31	1409.00
614.46	1006.43
614.62	617.90
614.77	402.57
614.92	194.26
615.08	86.60
615.23	84.26
615.38	67.88
615.54	86.60
615.69	152.13
615.84	266.82
616.00	365.12
616.15	550.03
616.30	498.53
616.46	334.70
616.61	212.99
616.76	189.58
616.92	102.98
617.07	53.83
617.22	11.70
617.37	37.45
617.53	0.00
617.68	51.49
617.83	32.77
617.99	72.56
618.14	58.51
618.29	25.75
618.45	56.17
618.60	93.62
618.75	67.88
618.90	0.00
619.06	100.64
619.21	35.11
619.36	72.56
619.51	11.70
619.67	63.19
619.82	60.85
619.97	42.13
620.12	72.56
620.28	25.75
620.43	77.24
620.58	0.00
620.73	14.04
620.89	60.85
621.04	39.79
621.19	170.86
621.34	238.73
621.49	386.19
621.65	222.35
621.80	222.35
621.95	135.75
622.10	88.94
622.25	88.94
622.41	81.92
622.56	37.45
622.71	0.00
622.86	63.19
623.01	0.00
623.16	7.02
623.32	58.51
623.47	23.41
623.62	74.90
623.77	46.81
623.92	30.43
624.07	28.09
624.23	0.00
624.38	0.00
624.53	60.85
624.68	11.70
624.83	0.00
624.98	72.56
625.13	58.51
625.29	53.83
625.44	7.02
625.59	88.94
625.74	23.41
625.89	67.88
626.04	313.63
626.19	669.39
626.34	997.07
626.49	985.37
626.65	795.78
626.80	580.45
626.95	376.83
627.10	224.69
627.25	175.54
627.40	93.62
627.55	117.03
627.70	23.41
627.85	16.38
628.00	102.98
628.15	79.58
628.30	49.15
628.45	16.38
628.60	51.49
628.76	32.77
628.91	93.62
629.06	0.00
629.21	14.04
629.36	37.45
629.51	58.51
629.66	60.85
629.81	81.92
629.96	170.86
630.11	241.08
630.26	266.82
630.41	334.70
630.56	210.65
630.71	196.60
630.86	84.26
631.01	67.88
631.16	133.41
631.31	60.85
631.46	16.38
631.61	18.72
631.76	0.00
631.91	44.47
632.06	23.41
632.21	102.98
632.36	126.39
632.51	60.85
632.66	63.19
632.81	119.37
632.96	308.95
633.10	627.26
633.25	737.27
633.40	678.76
633.55	465.77
633.70	203.63
633.85	142.77
634.00	117.03
634.15	42.13
634.30	16.38
634.45	65.54
634.60	21.06
634.75	39.79
634.90	37.45
635.05	7.02
635.19	25.75
635.34	18.72
635.49	46.81
635.64	70.22
635.79	30.43
635.94	117.03
636.09	0.00
636.24	0.00
636.39	23.41
636.53	11.70
636.68	0.00
636.83	46.81
636.98	49.15
637.13	44.47
637.28	30.43
637.43	67.88
637.57	42.13
637.72	320.65
637.87	828.55
638.02	1217.08
638.17	1380.92
638.32	926.85
638.46	706.84
638.61	535.98
638.76	262.14
638.91	175.54
639.06	131.07
639.20	110.01
639.35	77.24
639.50	163.84
639.65	465.77
639.80	1228.78
639.94	1940.30
640.09	2064.35
640.24	1614.97
640.39	1146.86
640.54	671.73
640.68	421.30
640.83	259.80
640.98	91.28
641.13	42.13
641.27	11.70
641.42	0.00
641.57	65.54
641.72	0.00
641.86	81.92
642.01	0.00
642.16	4.68
642.31	49.15
642.45	67.88
642.60	14.04
642.75	16.38
642.90	51.49
643.04	53.83
643.19	0.00
643.34	25.75
643.48	44.47
643.63	44.47
643.78	84.26
643.93	44.47
644.07	25.75
644.22	91.28
644.37	0.00
644.51	23.41
644.66	0.00
644.81	112.35
644.95	21.06
645.10	58.51
645.25	70.22
645.39	0.00
645.54	32.77
645.69	0.00
645.83	49.15
645.98	44.47
646.13	44.47
646.27	14.04
646.42	37.45
646.57	9.36
646.71	4.68
646.86	0.00
647.00	18.72
647.15	42.13
647.30	9.36
647.44	9.36
647.59	0.00
647.74	133.41
647.88	42.13
648.03	74.90
648.17	93.62
648.32	56.17
648.47	37.45
648.61	30.43
648.76	81.92
648.90	0.00
649.05	0.00
649.20	37.45
649.34	23.41
649.49	53.83
649.63	35.11
649.78	11.70
649.92	58.51
650.07	177.88
650.21	566.41
650.36	889.40
650.51	1025.15
650.65	896.43
650.80	657.69
650.94	353.42
651.09	337.04
651.23	149.79
651.38	105.32
651.52	74.90
651.67	67.88
651.81	100.64
651.96	53.83
652.10	28.09
652.25	39.79
652.39	28.09
652.54	67.88
652.68	105.32
652.83	194.26
652.97	362.78
653.12	402.57
653.26	315.97
653.41	222.35
653.55	191.92
653.70	79.58
653.84	67.88
653.99	133.41
654.13	7.02
654.27	65.54
654.42	25.75
654.56	0.00
654.71	0.00
654.85	16.38
655.00	84.26
655.14	30.43
655.29	67.88
655.43	67.88
655.57	42.13
655.72	65.54
655.86	23.41
656.01	42.13
656.15	81.92
656.30	0.00
656.44	51.49
656.58	0.00
656.73	56.17
656.87	23.41
657.01	2.34
657.16	30.43
657.30	25.75
657.45	0.00
657.59	65.54
657.73	46.81
657.88	4.68
658.02	56.17
658.16	0.00
658.31	30.43
658.45	0.00
658.60	0.00
658.74	0.00
658.88	37.45
659.03	0.00
659.17	23.41
659.31	112.35
659.46	252.78
659.60	418.96
659.74	617.90
659.89	486.83
660.03	409.59
660.17	276.18
660.32	159.16
660.46	84.26
660.60	53.83
660.74	86.60
660.89	58.51
661.03	79.58
661.17	7.02
661.32	39.79
661.46	42.13
661.60	53.83
661.74	102.98
661.89	23.41
662.03	39.79
662.17	63.19
662.31	28.09
662.46	16.38
662.60	60.85
662.74	46.81
662.88	42.13
663.03	9.36
663.17	51.49
663.31	32.77
663.45	37.45
663.60	18.72
663.74	23.41
663.88	21.06
664.02	81.92
664.17	72.56
664.31	42.13
664.45	32.77
664.59	46.81
664.73	28.09
664.88	53.83
665.02	0.00
665.16	0.00
665.30	7.02
665.44	60.85
665.59	65.54
665.73	30.43
665.87	0.00
666.01	84.26
666.15	0.00
666.29	32.77
666.44	86.60
666.58	4.68
666.72	0.00
666.86	0.00
667.00	44.47
667.14	100.64
667.28	142.77
667.43	442.36
667.57	770.04
667.71	1036.86
667.85	823.87
667.99	622.58
668.13	365.12
668.27	285.55
668.41	168.52
668.56	53.83
668.70	119.37
668.84	28.09
668.98	77.24
669.12	0.00
669.26	30.43
669.40	93.62
669.54	49.15
669.68	44.47
669.82	53.83
669.96	25.75
670.10	84.26
670.25	0.00
670.39	16.38
670.53	9.36
670.67	0.00
670.81	63.19
670.95	84.26
671.09	77.24
671.23	215.33
671.37	390.87
671.51	613.22
671.65	580.45
671.79	437.68
671.93	315.97
672.07	184.90
672.21	91.28
672.35	142.77
672.49	21.06
672.63	16.38
672.77	72.56
672.91	42.13
673.05	0.00
673.19	42.13
673.33	35.11
673.47	56.17
673.61	65.54
673.75	63.19
673.89	79.58
674.03	23.41
674.17	84.26
674.31	49.15
674.45	58.51
674.59	37.45
674.73	102.98
674.87	35.11
675.01	0.00
675.15	0.00
675.29	42.13
675.43	0.00
675.56	28.09
675.70	0.00
675.84	0.00
675.98	44.47
676.12	39.79
676.26	0.00
676.40	32.77
676.54	65.54
676.68	11.70
676.82	77.24
676.96	67.88
677.10	51.49
677.23	0.00
677.37	0.00
677.51	51.49
677.65	32.77
677.79	23.41
677.93	65.54
678.07	0.00
678.21	0.00
678.34	49.15
678.48	0.00
678.62	0.00
678.76	9.36
678.90	32.77
679.04	79.58
679.18	107.66
679.31	49.15
679.45	65.54
679.59	16.38
679.73	51.49
679.87	44.47
680.00	0.00
680.14	23.41
680.28	0.00
680.42	39.79
680.56	14.04
680.70	84.26
680.83	39.79
680.97	30.43
681.11	51.49
681.25	32.77
681.39	51.49
681.52	58.51
681.66	56.17
681.80	35.11
681.94	46.81
682.07	39.79
682.21	21.06
682.35	65.54
682.49	25.75
682.62	28.09
682.76	70.22
682.90	0.00
683.04	51.49
683.17	39.79
683.31	11.70
683.45	0.00
683.59	25.75
683.72	11.70
683.86	49.15
684.00	0.00
684.13	63.19
684.27	77.24
684.41	37.45
684.55	18.72
684.68	63.19
684.82	9.36
684.96	84.26
685.09	28.09
685.23	0.00
685.37	63.19
685.50	37.45
685.64	11.70
685.78	28.09
685.91	16.38
686.05	2.34
686.19	63.19
686.32	72.56
686.46	37.45
686.60	0.00
686.73	67.88
686.87	88.94
687.01	16.38
687.14	42.13
687.28	0.00
687.42	72.56
687.55	0.00
687.69	32.77
687.82	44.47
687.96	0.00
688.10	39.79
688.23	42.13
688.37	0.00
688.50	28.09
688.64	14.04
688.78	9.36
688.91	37.45
689.05	42.13
689.18	42.13
689.32	58.51
689.46	35.11
689.59	0.00
689.73	0.00
689.86	0.00
690.00	25.75
690.13	0.00
690.27	46.81
690.41	0.00
690.54	11.70
690.68	88.94
690.81	23.41
690.95	37.45
691.08	0.00
691.22	0.00
691.35	70.22
691.49	0.00
691.62	77.24
691.76	39.79
691.89	42.13
692.03	0.00
692.16	58.51
692.30	65.54
692.43	81.92
692.57	257.46
692.70	353.42
692.84	416.62
692.97	449.38
693.11	341.72
693.24	210.65
693.38	105.32
693.51	100.64
693.65	30.43
693.78	44.47
693.92	117.03
694.05	28.09
694.19	23.41
694.32	51.49
694.45	77.24
694.59	53.83
694.72	0.00
694.86	56.17
694.99	30.43
695.13	98.30
695.26	42.13
695.39	53.83
695.53	42.13
695.66	70.22
695.80	58.51
695.93	74.90
696.07	93.62
696.20	117.03
696.33	53.83
696.47	58.51
696.60	56.17
696.73	39.79
696.87	37.45
697.00	9.36
697.14	23.41
697.27	0.00
697.40	74.90
697.54	84.26
697.67	74.90
697.80	18.72
697.94	2.34
698.07	0.00
698.21	23.41
698.34	86.60
698.47	4.68
698.61	56.17
698.74	84.26
698.87	42.13
699.01	11.70
699.14	7.02
699.27	14.04
699.40	49.15
699.54	2.34
699.67	37.45
699.80	7.02
699.94	70.22
700.07	81.92
700.20	44.47
700.34	0.00
700.47	98.30
700.60	0.00
700.73	51.49
700.87	16.38
701.00	91.28
701.13	58.51
701.26	70.22
701.40	79.58
701.53	58.51
701.66	110.01
701.79	67.88
701.93	32.77
702.06	42.13
702.19	79.58
702.32	65.54
702.46	32.77
702.59	51.49
702.72	147.45
702.85	271.50
702.99	547.69
703.12	706.84
703.25	800.46
703.38	758.33
703.51	592.16
703.65	449.38
703.78	337.04
703.91	208.31
704.04	142.77
704.17	117.03
704.31	86.60
704.44	88.94
704.57	39.79
704.70	11.70
704.83	49.15
704.96	46.81
705.10	25.75
705.23	28.09
>>>>>End Processed Spectral Data<<<<<
