SpectraSuite Data File
++++++++++++++++++++++++++++++++++++
Date: Fri Oct 04 12:13:29 GMT-05:00 2013
User: price-jones
Dark Spectrum Present: No
Reference Spectrum Present: No
Number of Sampled Component Spectra: 1
Spectrometers: USB2+H05261
Integration Time (usec): 10000 (USB2+H05261)
Spectra Averaged: 1 (USB2+H05261)
Boxcar Smoothing: 0 (USB2+H05261)
Correct for Electrical Dark: No (USB2+H05261)
Strobe/Lamp Enabled: No (USB2+H05261)
Correct for Detector Non-linearity: No (USB2+H05261)
Correct for Stray Light: No (USB2+H05261)
Number of Pixels in Processed Spectrum: 2048
>>>>>Begin Processed Spectral Data<<<<<
365.73	11.70
365.92	11.70
366.12	11.70
366.32	0.00
366.52	0.00
366.72	0.00
366.91	0.00
367.11	0.00
367.31	0.00
367.51	0.00
367.70	0.00
367.90	0.00
368.10	0.00
368.30	0.00
368.49	0.00
368.69	0.00
368.89	0.00
369.09	0.00
369.28	0.00
369.48	0.00
369.68	0.00
369.87	0.00
370.07	0.00
370.27	0.00
370.47	0.00
370.66	0.00
370.86	0.00
371.06	0.00
371.25	0.00
371.45	0.00
371.65	0.00
371.84	0.00
372.04	0.00
372.24	0.00
372.44	0.00
372.63	46.81
372.83	0.00
373.03	0.00
373.22	18.72
373.42	49.15
373.62	51.49
373.81	28.09
374.01	37.45
374.21	67.88
374.40	49.15
374.60	32.77
374.79	70.22
374.99	25.75
375.19	0.00
375.38	25.75
375.58	67.88
375.78	0.00
375.97	93.62
376.17	81.92
376.37	44.47
376.56	18.72
376.76	16.38
376.95	0.00
377.15	0.00
377.35	32.77
377.54	79.58
377.74	53.83
377.93	23.41
378.13	46.81
378.33	147.45
378.52	9.36
378.72	0.00
378.91	0.00
379.11	0.00
379.31	9.36
379.50	74.90
379.70	56.17
379.89	58.51
380.09	74.90
380.28	7.02
380.48	14.04
380.68	30.43
380.87	79.58
381.07	14.04
381.26	30.43
381.46	21.06
381.65	0.00
381.85	7.02
382.04	56.17
382.24	9.36
382.43	0.00
382.63	35.11
382.83	53.83
383.02	56.17
383.22	30.43
383.41	46.81
383.61	18.72
383.80	0.00
384.00	0.00
384.19	51.49
384.39	11.70
384.58	60.85
384.78	46.81
384.97	30.43
385.17	18.72
385.36	39.79
385.56	28.09
385.75	81.92
385.95	39.79
386.14	28.09
386.34	9.36
386.53	46.81
386.72	49.15
386.92	11.70
387.11	18.72
387.31	121.71
387.50	65.54
387.70	84.26
387.89	74.90
388.09	0.00
388.28	23.41
388.48	0.00
388.67	0.00
388.86	30.43
389.06	46.81
389.25	60.85
389.45	37.45
389.64	28.09
389.84	0.00
390.03	0.00
390.22	0.00
390.42	0.00
390.61	0.00
390.81	0.00
391.00	32.77
391.19	11.70
391.39	2.34
391.58	49.15
391.78	9.36
391.97	21.06
392.16	42.13
392.36	86.60
392.55	81.92
392.75	0.00
392.94	0.00
393.13	65.54
393.33	0.00
393.52	0.00
393.71	65.54
393.91	18.72
394.10	11.70
394.29	0.00
394.49	65.54
394.68	49.15
394.88	7.02
395.07	0.00
395.26	0.00
395.46	28.09
395.65	60.85
395.84	4.68
396.04	25.75
396.23	65.54
396.42	23.41
396.62	0.00
396.81	39.79
397.00	77.24
397.19	0.00
397.39	0.00
397.58	28.09
397.77	37.45
397.97	49.15
398.16	14.04
398.35	25.75
398.55	67.88
398.74	58.51
398.93	88.94
399.12	67.88
399.32	77.24
399.51	0.00
399.70	0.00
399.90	0.00
400.09	53.83
400.28	81.92
400.47	51.49
400.67	60.85
400.86	0.00
401.05	9.36
401.24	2.34
401.44	56.17
401.63	72.56
401.82	79.58
402.01	0.00
402.21	0.00
402.40	25.75
402.59	23.41
402.78	72.56
402.97	53.83
403.17	0.00
403.36	7.02
403.55	0.00
403.74	51.49
403.93	16.38
404.13	2.34
404.32	0.00
404.51	18.72
404.70	72.56
404.89	70.22
405.09	74.90
405.28	2.34
405.47	0.00
405.66	18.72
405.85	9.36
406.05	46.81
406.24	39.79
406.43	0.00
406.62	0.00
406.81	7.02
407.00	0.00
407.20	77.24
407.39	37.45
407.58	0.00
407.77	42.13
407.96	46.81
408.15	60.85
408.34	30.43
408.54	44.47
408.73	11.70
408.92	0.00
409.11	56.17
409.30	72.56
409.49	105.32
409.68	21.06
409.87	63.19
410.07	49.15
410.26	2.34
410.45	60.85
410.64	28.09
410.83	28.09
411.02	58.51
411.21	51.49
411.40	35.11
411.59	0.00
411.78	81.92
411.98	30.43
412.17	0.00
412.36	35.11
412.55	86.60
412.74	70.22
412.93	86.60
413.12	9.36
413.31	44.47
413.50	23.41
413.69	0.00
413.88	51.49
414.07	0.00
414.26	42.13
414.45	0.00
414.64	72.56
414.83	84.26
415.02	63.19
415.22	32.77
415.41	65.54
415.60	107.66
415.79	65.54
415.98	56.17
416.17	18.72
416.36	65.54
416.55	100.64
416.74	74.90
416.93	46.81
417.12	21.06
417.31	0.00
417.50	30.43
417.69	18.72
417.88	35.11
418.07	0.00
418.26	32.77
418.45	30.43
418.64	72.56
418.83	16.38
419.02	65.54
419.21	0.00
419.39	53.83
419.58	28.09
419.77	14.04
419.96	84.26
420.15	14.04
420.34	0.00
420.53	42.13
420.72	46.81
420.91	51.49
421.10	0.00
421.29	4.68
421.48	0.00
421.67	0.00
421.86	28.09
422.05	16.38
422.24	84.26
422.43	9.36
422.61	84.26
422.80	28.09
422.99	95.96
423.18	2.34
423.37	67.88
423.56	0.00
423.75	39.79
423.94	0.00
424.13	0.00
424.32	77.24
424.50	37.45
424.69	77.24
424.88	25.75
425.07	32.77
425.26	0.00
425.45	53.83
425.64	42.13
425.83	9.36
426.01	42.13
426.20	11.70
426.39	25.75
426.58	42.13
426.77	56.17
426.96	63.19
427.15	42.13
427.33	37.45
427.52	44.47
427.71	0.00
427.90	23.41
428.09	7.02
428.28	28.09
428.46	86.60
428.65	0.00
428.84	4.68
429.03	60.85
429.22	0.00
429.40	42.13
429.59	14.04
429.78	72.56
429.97	32.77
430.16	0.00
430.34	0.00
430.53	39.79
430.72	51.49
430.91	56.17
431.10	28.09
431.28	11.70
431.47	7.02
431.66	63.19
431.85	23.41
432.03	44.47
432.22	42.13
432.41	16.38
432.60	65.54
432.79	63.19
432.97	67.88
433.16	42.13
433.35	25.75
433.54	28.09
433.72	23.41
433.91	30.43
434.10	7.02
434.28	9.36
434.47	65.54
434.66	0.00
434.85	79.58
435.03	0.00
435.22	0.00
435.41	0.00
435.59	0.00
435.78	4.68
435.97	35.11
436.16	44.47
436.34	91.28
436.53	0.00
436.72	35.11
436.90	39.79
437.09	65.54
437.28	128.73
437.46	0.00
437.65	7.02
437.84	30.43
438.02	0.00
438.21	7.02
438.40	23.41
438.58	0.00
438.77	37.45
438.96	28.09
439.14	79.58
439.33	0.00
439.52	9.36
439.70	0.00
439.89	16.38
440.08	74.90
440.26	65.54
440.45	21.06
440.63	0.00
440.82	7.02
441.01	0.00
441.19	0.00
441.38	39.79
441.57	37.45
441.75	98.30
441.94	56.17
442.12	102.98
442.31	60.85
442.50	0.00
442.68	98.30
442.87	18.72
443.05	28.09
443.24	60.85
443.43	110.01
443.61	21.06
443.80	67.88
443.98	23.41
444.17	0.00
444.35	70.22
444.54	56.17
444.73	0.00
444.91	42.13
445.10	60.85
445.28	23.41
445.47	86.60
445.65	25.75
445.84	56.17
446.02	72.56
446.21	84.26
446.39	21.06
446.58	37.45
446.77	88.94
446.95	9.36
447.14	58.51
447.32	28.09
447.51	39.79
447.69	60.85
447.88	58.51
448.06	58.51
448.25	35.11
448.43	0.00
448.62	98.30
448.80	23.41
448.99	86.60
449.17	88.94
449.36	14.04
449.54	0.00
449.73	7.02
449.91	39.79
450.10	42.13
450.28	0.00
450.46	49.15
450.65	60.85
450.83	32.77
451.02	37.45
451.20	28.09
451.39	44.47
451.57	135.75
451.76	102.98
451.94	0.00
452.13	46.81
452.31	46.81
452.49	30.43
452.68	60.85
452.86	11.70
453.05	114.69
453.23	0.00
453.42	51.49
453.60	0.00
453.78	53.83
453.97	86.60
454.15	112.35
454.34	81.92
454.52	0.00
454.70	16.38
454.89	74.90
455.07	7.02
455.26	84.26
455.44	16.38
455.62	88.94
455.81	0.00
455.99	11.70
456.17	28.09
456.36	9.36
456.54	46.81
456.73	42.13
456.91	23.41
457.09	16.38
457.28	84.26
457.46	67.88
457.64	77.24
457.83	0.00
458.01	65.54
458.19	100.64
458.38	72.56
458.56	49.15
458.74	0.00
458.93	11.70
459.11	30.43
459.29	0.00
459.48	30.43
459.66	86.60
459.84	16.38
460.03	0.00
460.21	16.38
460.39	84.26
460.57	51.49
460.76	21.06
460.94	11.70
461.12	56.17
461.31	7.02
461.49	7.02
461.67	14.04
461.85	2.34
462.04	16.38
462.22	91.28
462.40	67.88
462.59	0.00
462.77	72.56
462.95	23.41
463.13	0.00
463.32	53.83
463.50	0.00
463.68	138.09
463.86	84.26
464.05	35.11
464.23	0.00
464.41	30.43
464.59	0.00
464.78	28.09
464.96	32.77
465.14	28.09
465.32	0.00
465.50	0.00
465.69	4.68
465.87	65.54
466.05	28.09
466.23	46.81
466.41	35.11
466.60	105.32
466.78	91.28
466.96	25.75
467.14	70.22
467.32	49.15
467.51	100.64
467.69	44.47
467.87	11.70
468.05	2.34
468.23	23.41
468.41	18.72
468.60	72.56
468.78	91.28
468.96	0.00
469.14	11.70
469.32	77.24
469.50	51.49
469.69	128.73
469.87	0.00
470.05	39.79
470.23	42.13
470.41	67.88
470.59	28.09
470.77	42.13
470.95	53.83
471.14	25.75
471.32	9.36
471.50	2.34
471.68	0.00
471.86	37.45
472.04	18.72
472.22	53.83
472.40	102.98
472.58	42.13
472.77	77.24
472.95	0.00
473.13	39.79
473.31	37.45
473.49	53.83
473.67	0.00
473.85	126.39
474.03	100.64
474.21	0.00
474.39	0.00
474.57	42.13
474.75	39.79
474.93	63.19
475.12	39.79
475.30	46.81
475.48	35.11
475.66	0.00
475.84	7.02
476.02	0.00
476.20	39.79
476.38	107.66
476.56	105.32
476.74	70.22
476.92	23.41
477.10	112.35
477.28	0.00
477.46	95.96
477.64	0.00
477.82	93.62
478.00	39.79
478.18	0.00
478.36	0.00
478.54	9.36
478.72	9.36
478.90	114.69
479.08	14.04
479.26	4.68
479.44	30.43
479.62	35.11
479.80	70.22
479.98	53.83
480.16	4.68
480.34	23.41
480.52	0.00
480.70	0.00
480.88	18.72
481.06	88.94
481.24	4.68
481.41	16.38
481.59	98.30
481.77	14.04
481.95	126.39
482.13	9.36
482.31	37.45
482.49	77.24
482.67	98.30
482.85	51.49
483.03	124.05
483.21	32.77
483.39	16.38
483.57	14.04
483.74	2.34
483.92	51.49
484.10	0.00
484.28	35.11
484.46	16.38
484.64	0.00
484.82	0.00
485.00	39.79
485.18	11.70
485.35	63.19
485.53	70.22
485.71	4.68
485.89	4.68
486.07	4.68
486.25	25.75
486.43	0.00
486.61	0.00
486.78	112.35
486.96	28.09
487.14	88.94
487.32	56.17
487.50	60.85
487.68	77.24
487.85	53.83
488.03	2.34
488.21	0.00
488.39	56.17
488.57	0.00
488.75	4.68
488.92	0.00
489.10	0.00
489.28	65.54
489.46	100.64
489.64	79.58
489.81	60.85
489.99	102.98
490.17	35.11
490.35	35.11
490.53	0.00
490.70	37.45
490.88	86.60
491.06	77.24
491.24	81.92
491.41	49.15
491.59	105.32
491.77	72.56
491.95	37.45
492.13	25.75
492.30	14.04
492.48	28.09
492.66	79.58
492.84	65.54
493.01	39.79
493.19	39.79
493.37	21.06
493.54	44.47
493.72	4.68
493.90	25.75
494.08	56.17
494.25	81.92
494.43	60.85
494.61	60.85
494.79	25.75
494.96	18.72
495.14	39.79
495.32	30.43
495.49	37.45
495.67	32.77
495.85	21.06
496.02	18.72
496.20	0.00
496.38	7.02
496.55	21.06
496.73	25.75
496.91	23.41
497.09	49.15
497.26	30.43
497.44	72.56
497.62	91.28
497.79	46.81
497.97	32.77
498.14	2.34
498.32	72.56
498.50	51.49
498.67	37.45
498.85	102.98
499.03	0.00
499.20	0.00
499.38	9.36
499.56	0.00
499.73	67.88
499.91	21.06
500.08	51.49
500.26	14.04
500.44	35.11
500.61	0.00
500.79	23.41
500.97	37.45
501.14	112.35
501.32	86.60
501.49	72.56
501.67	37.45
501.84	60.85
502.02	37.45
502.20	4.68
502.37	0.00
502.55	11.70
502.72	25.75
502.90	79.58
503.07	23.41
503.25	14.04
503.43	11.70
503.60	51.49
503.78	0.00
503.95	28.09
504.13	0.00
504.30	14.04
504.48	18.72
504.65	56.17
504.83	0.00
505.01	121.71
505.18	23.41
505.36	70.22
505.53	0.00
505.71	39.79
505.88	70.22
506.06	65.54
506.23	21.06
506.41	49.15
506.58	53.83
506.76	2.34
506.93	0.00
507.11	60.85
507.28	18.72
507.46	37.45
507.63	30.43
507.81	42.13
507.98	16.38
508.16	37.45
508.33	74.90
508.50	112.35
508.68	44.47
508.85	0.00
509.03	35.11
509.20	42.13
509.38	16.38
509.55	0.00
509.73	37.45
509.90	9.36
510.08	16.38
510.25	46.81
510.42	58.51
510.60	30.43
510.77	98.30
510.95	53.83
511.12	0.00
511.30	35.11
511.47	39.79
511.64	63.19
511.82	30.43
511.99	0.00
512.17	53.83
512.34	37.45
512.51	124.05
512.69	4.68
512.86	88.94
513.04	4.68
513.21	9.36
513.38	18.72
513.56	60.85
513.73	74.90
513.90	9.36
514.08	21.06
514.25	49.15
514.43	0.00
514.60	0.00
514.77	30.43
514.95	42.13
515.12	81.92
515.29	98.30
515.47	28.09
515.64	58.51
515.81	7.02
515.99	16.38
516.16	58.51
516.33	63.19
516.51	63.19
516.68	93.62
516.85	18.72
517.03	11.70
517.20	51.49
517.37	25.75
517.54	32.77
517.72	7.02
517.89	67.88
518.06	30.43
518.24	32.77
518.41	65.54
518.58	2.34
518.75	49.15
518.93	0.00
519.10	42.13
519.27	25.75
519.45	60.85
519.62	42.13
519.79	35.11
519.96	18.72
520.14	86.60
520.31	37.45
520.48	30.43
520.65	11.70
520.83	65.54
521.00	32.77
521.17	74.90
521.34	28.09
521.52	21.06
521.69	88.94
521.86	46.81
522.03	74.90
522.20	0.00
522.38	0.00
522.55	4.68
522.72	74.90
522.89	124.05
523.07	42.13
523.24	63.19
523.41	84.26
523.58	79.58
523.75	91.28
523.92	23.41
524.10	74.90
524.27	0.00
524.44	65.54
524.61	65.54
524.78	23.41
524.96	44.47
525.13	14.04
525.30	0.00
525.47	93.62
525.64	63.19
525.81	60.85
525.98	60.85
526.16	14.04
526.33	39.79
526.50	79.58
526.67	88.94
526.84	0.00
527.01	53.83
527.18	0.00
527.36	14.04
527.53	30.43
527.70	0.00
527.87	35.11
528.04	100.64
528.21	88.94
528.38	0.00
528.55	51.49
528.72	51.49
528.89	42.13
529.07	16.38
529.24	16.38
529.41	7.02
529.58	11.70
529.75	23.41
529.92	74.90
530.09	56.17
530.26	114.69
530.43	88.94
530.60	28.09
530.77	70.22
530.94	28.09
531.11	46.81
531.28	44.47
531.46	53.83
531.63	138.09
531.80	14.04
531.97	32.77
532.14	9.36
532.31	37.45
532.48	32.77
532.65	16.38
532.82	0.00
532.99	51.49
533.16	77.24
533.33	49.15
533.50	65.54
533.67	58.51
533.84	14.04
534.01	25.75
534.18	0.00
534.35	7.02
534.52	37.45
534.69	60.85
534.86	65.54
535.03	65.54
535.20	102.98
535.37	18.72
535.54	86.60
535.71	42.13
535.88	53.83
536.05	60.85
536.22	56.17
536.38	49.15
536.55	102.98
536.72	21.06
536.89	0.00
537.06	56.17
537.23	84.26
537.40	7.02
537.57	100.64
537.74	0.00
537.91	0.00
538.08	42.13
538.25	30.43
538.42	51.49
538.59	30.43
538.75	42.13
538.92	39.79
539.09	42.13
539.26	0.00
539.43	39.79
539.60	56.17
539.77	88.94
539.94	114.69
540.11	35.11
540.28	81.92
540.44	88.94
540.61	102.98
540.78	44.47
540.95	46.81
541.12	107.66
541.29	86.60
541.46	7.02
541.62	0.00
541.79	65.54
541.96	18.72
542.13	51.49
542.30	35.11
542.47	11.70
542.63	21.06
542.80	42.13
542.97	74.90
543.14	56.17
543.31	67.88
543.48	0.00
543.64	0.00
543.81	67.88
543.98	16.38
544.15	102.98
544.32	60.85
544.48	58.51
544.65	65.54
544.82	49.15
544.99	0.00
545.16	30.43
545.32	9.36
545.49	14.04
545.66	88.94
545.83	42.13
546.00	28.09
546.16	56.17
546.33	0.00
546.50	30.43
546.67	51.49
546.83	32.77
547.00	58.51
547.17	35.11
547.34	65.54
547.50	32.77
547.67	44.47
547.84	86.60
548.00	67.88
548.17	16.38
548.34	79.58
548.51	56.17
548.67	18.72
548.84	53.83
549.01	56.17
549.18	77.24
549.34	11.70
549.51	32.77
549.68	37.45
549.84	42.13
550.01	37.45
550.18	65.54
550.34	93.62
550.51	37.45
550.68	42.13
550.84	32.77
551.01	9.36
551.18	21.06
551.34	0.00
551.51	11.70
551.68	56.17
551.84	56.17
552.01	0.00
552.18	39.79
552.34	51.49
552.51	51.49
552.68	0.00
552.84	42.13
553.01	60.85
553.18	107.66
553.34	70.22
553.51	84.26
553.67	32.77
553.84	86.60
554.01	53.83
554.17	63.19
554.34	0.00
554.51	11.70
554.67	0.00
554.84	72.56
555.00	56.17
555.17	30.43
555.33	4.68
555.50	35.11
555.67	58.51
555.83	63.19
556.00	53.83
556.16	14.04
556.33	60.85
556.50	46.81
556.66	9.36
556.83	23.41
556.99	35.11
557.16	23.41
557.32	23.41
557.49	131.07
557.65	135.75
557.82	39.79
557.98	44.47
558.15	37.45
558.32	46.81
558.48	30.43
558.65	72.56
558.81	21.06
558.98	124.05
559.14	93.62
559.31	0.00
559.47	32.77
559.64	70.22
559.80	14.04
559.97	0.00
560.13	60.85
560.30	70.22
560.46	30.43
560.63	7.02
560.79	14.04
560.96	63.19
561.12	4.68
561.29	21.06
561.45	9.36
561.61	72.56
561.78	51.49
561.94	70.22
562.11	60.85
562.27	21.06
562.44	67.88
562.60	65.54
562.77	67.88
562.93	0.00
563.10	0.00
563.26	77.24
563.42	7.02
563.59	0.00
563.75	28.09
563.92	39.79
564.08	117.03
564.24	60.85
564.41	44.47
564.57	0.00
564.74	0.00
564.90	93.62
565.07	7.02
565.23	18.72
565.39	44.47
565.56	14.04
565.72	14.04
565.88	46.81
566.05	0.00
566.21	0.00
566.38	70.22
566.54	0.00
566.70	56.17
566.87	70.22
567.03	0.00
567.19	56.17
567.36	42.13
567.52	39.79
567.68	74.90
567.85	51.49
568.01	9.36
568.17	9.36
568.34	51.49
568.50	72.56
568.66	32.77
568.83	84.26
568.99	18.72
569.15	46.81
569.32	49.15
569.48	42.13
569.64	67.88
569.81	65.54
569.97	39.79
570.13	0.00
570.30	21.06
570.46	2.34
570.62	18.72
570.78	14.04
570.95	30.43
571.11	9.36
571.27	81.92
571.43	77.24
571.60	30.43
571.76	51.49
571.92	30.43
572.09	32.77
572.25	35.11
572.41	49.15
572.57	2.34
572.74	95.96
572.90	65.54
573.06	60.85
573.22	93.62
573.38	32.77
573.55	9.36
573.71	0.00
573.87	46.81
574.03	23.41
574.20	88.94
574.36	16.38
574.52	49.15
574.68	0.00
574.84	16.38
575.01	0.00
575.17	147.45
575.33	58.51
575.49	11.70
575.65	70.22
575.82	37.45
575.98	32.77
576.14	63.19
576.30	49.15
576.46	65.54
576.62	11.70
576.79	25.75
576.95	51.49
577.11	128.73
577.27	28.09
577.43	0.00
577.59	0.00
577.75	88.94
577.92	88.94
578.08	60.85
578.24	49.15
578.40	84.26
578.56	56.17
578.72	35.11
578.88	11.70
579.04	60.85
579.21	7.02
579.37	46.81
579.53	16.38
579.69	56.17
579.85	46.81
580.01	28.09
580.17	39.79
580.33	49.15
580.49	37.45
580.65	9.36
580.82	84.26
580.98	0.00
581.14	37.45
581.30	30.43
581.46	72.56
581.62	65.54
581.78	72.56
581.94	0.00
582.10	21.06
582.26	44.47
582.42	74.90
582.58	46.81
582.74	60.85
582.90	0.00
583.06	39.79
583.22	0.00
583.38	72.56
583.54	74.90
583.70	44.47
583.86	18.72
584.02	51.49
584.18	30.43
584.34	28.09
584.50	145.11
584.66	777.06
584.82	1703.91
584.98	2335.85
585.14	2062.01
585.30	1242.82
585.46	842.59
585.62	552.37
585.78	292.57
585.94	145.11
586.10	70.22
586.26	84.26
586.42	67.88
586.58	95.96
586.74	4.68
586.90	58.51
587.06	53.83
587.22	77.24
587.38	35.11
587.54	91.28
587.70	154.48
587.86	163.84
588.02	208.31
588.18	152.13
588.34	173.20
588.49	39.79
588.65	102.98
588.81	72.56
588.97	35.11
589.13	7.02
589.29	39.79
589.45	84.26
589.61	100.64
589.77	23.41
589.93	56.17
590.08	84.26
590.24	67.88
590.40	65.54
590.56	16.38
590.72	37.45
590.88	0.00
591.04	0.00
591.20	18.72
591.35	51.49
591.51	42.13
591.67	0.00
591.83	67.88
591.99	28.09
592.15	14.04
592.31	88.94
592.46	126.39
592.62	37.45
592.78	42.13
592.94	2.34
593.10	0.00
593.26	42.13
593.41	28.09
593.57	35.11
593.73	46.81
593.89	142.77
594.05	201.29
594.20	395.55
594.36	290.23
594.52	177.88
594.68	201.29
594.84	140.43
594.99	79.58
595.15	77.24
595.31	0.00
595.47	60.85
595.62	28.09
595.78	42.13
595.94	67.88
596.10	49.15
596.25	0.00
596.41	74.90
596.57	14.04
596.73	0.00
596.88	91.28
597.04	67.88
597.20	81.92
597.36	51.49
597.51	124.05
597.67	0.00
597.83	86.60
597.99	46.81
598.14	72.56
598.30	53.83
598.46	9.36
598.61	18.72
598.77	35.11
598.93	114.69
599.09	117.03
599.24	51.49
599.40	84.26
599.56	18.72
599.71	0.00
599.87	81.92
600.03	35.11
600.18	0.00
600.34	93.62
600.50	44.47
600.65	58.51
600.81	28.09
600.97	65.54
601.12	74.90
601.28	44.47
601.44	0.00
601.59	14.04
601.75	9.36
601.91	0.00
602.06	44.47
602.22	28.09
602.37	23.41
602.53	102.98
602.69	145.11
602.84	86.60
603.00	49.15
603.16	107.66
603.31	44.47
603.47	53.83
603.62	7.02
603.78	0.00
603.94	84.26
604.09	30.43
604.25	0.00
604.40	28.09
604.56	79.58
604.71	35.11
604.87	0.00
605.03	30.43
605.18	25.75
605.34	0.00
605.49	53.83
605.65	46.81
605.80	79.58
605.96	0.00
606.12	42.13
606.27	56.17
606.43	60.85
606.58	0.00
606.74	77.24
606.89	142.77
607.05	231.71
607.20	262.14
607.36	238.73
607.51	227.03
607.67	180.22
607.82	91.28
607.98	88.94
608.13	2.34
608.29	79.58
608.44	32.77
608.60	42.13
608.75	7.02
608.91	95.96
609.06	203.63
609.22	365.12
609.37	454.06
609.53	390.87
609.68	379.17
609.84	222.35
609.99	84.26
610.15	173.20
610.30	95.96
610.46	0.00
610.61	9.36
610.76	65.54
610.92	42.13
611.07	0.00
611.23	72.56
611.38	4.68
611.54	88.94
611.69	77.24
611.84	63.19
612.00	67.88
612.15	0.00
612.31	58.51
612.46	46.81
612.62	25.75
612.77	2.34
612.92	28.09
613.08	0.00
613.23	32.77
613.39	77.24
613.54	60.85
613.69	161.50
613.85	423.64
614.00	615.56
614.15	734.93
614.31	503.22
614.46	407.25
614.62	234.05
614.77	114.69
614.92	121.71
615.08	72.56
615.23	49.15
615.38	72.56
615.54	16.38
615.69	84.26
615.84	135.75
616.00	205.97
616.15	184.90
616.30	248.10
616.46	184.90
616.61	95.96
616.76	46.81
616.92	74.90
617.07	42.13
617.22	0.00
617.37	42.13
617.53	79.58
617.68	16.38
617.83	79.58
617.99	77.24
618.14	9.36
618.29	16.38
618.45	46.81
618.60	25.75
618.75	35.11
618.90	30.43
619.06	63.19
619.21	16.38
619.36	25.75
619.51	56.17
619.67	44.47
619.82	42.13
619.97	79.58
620.12	0.00
620.28	72.56
620.43	42.13
620.58	39.79
620.73	25.75
620.89	74.90
621.04	72.56
621.19	42.13
621.34	95.96
621.49	198.95
621.65	152.13
621.80	117.03
621.95	110.01
622.10	39.79
622.25	0.00
622.41	0.00
622.56	11.70
622.71	0.00
622.86	39.79
623.01	25.75
623.16	35.11
623.32	28.09
623.47	9.36
623.62	72.56
623.77	39.79
623.92	37.45
624.07	110.01
624.23	32.77
624.38	81.92
624.53	7.02
624.68	2.34
624.83	102.98
624.98	86.60
625.13	53.83
625.29	53.83
625.44	28.09
625.59	0.00
625.74	7.02
625.89	0.00
626.04	142.77
626.19	170.86
626.34	358.10
626.49	341.72
626.65	325.33
626.80	262.14
626.95	28.09
627.10	133.41
627.25	0.00
627.40	21.06
627.55	23.41
627.70	39.79
627.85	58.51
628.00	18.72
628.15	0.00
628.30	58.51
628.45	18.72
628.60	0.00
628.76	72.56
628.91	0.00
629.06	21.06
629.21	25.75
629.36	30.43
629.51	32.77
629.66	53.83
629.81	91.28
629.96	63.19
630.11	135.75
630.26	110.01
630.41	18.72
630.56	79.58
630.71	79.58
630.86	18.72
631.01	0.00
631.16	58.51
631.31	11.70
631.46	0.00
631.61	14.04
631.76	25.75
631.91	77.24
632.06	117.03
632.21	35.11
632.36	28.09
632.51	9.36
632.66	67.88
632.81	72.56
632.96	149.79
633.10	257.46
633.25	255.12
633.40	135.75
633.55	229.37
633.70	196.60
633.85	93.62
634.00	63.19
634.15	91.28
634.30	11.70
634.45	30.43
634.60	30.43
634.75	37.45
634.90	121.71
635.05	46.81
635.19	74.90
635.34	0.00
635.49	0.00
635.64	84.26
635.79	58.51
635.94	67.88
636.09	42.13
636.24	65.54
636.39	79.58
636.53	14.04
636.68	23.41
636.83	56.17
636.98	46.81
637.13	72.56
637.28	95.96
637.43	124.05
637.57	49.15
637.72	142.77
637.87	353.42
638.02	440.02
638.17	470.45
638.32	402.57
638.46	208.31
638.61	294.91
638.76	119.37
638.91	72.56
639.06	35.11
639.20	70.22
639.35	53.83
639.50	53.83
639.65	156.82
639.80	456.40
639.94	606.20
640.09	760.67
640.24	550.03
640.39	330.02
640.54	285.55
640.68	170.86
640.83	81.92
640.98	11.70
641.13	39.79
641.27	51.49
641.42	9.36
641.57	51.49
641.72	81.92
641.86	0.00
642.01	23.41
642.16	0.00
642.31	0.00
642.45	0.00
642.60	86.60
642.75	56.17
642.90	65.54
643.04	100.64
643.19	46.81
643.34	7.02
643.48	86.60
643.63	11.70
643.78	74.90
643.93	39.79
644.07	4.68
644.22	0.00
644.37	65.54
644.51	81.92
644.66	0.00
644.81	23.41
644.95	63.19
645.10	7.02
645.25	4.68
645.39	0.00
645.54	100.64
645.69	9.36
645.83	77.24
645.98	30.43
646.13	84.26
646.27	107.66
646.42	88.94
646.57	16.38
646.71	23.41
646.86	84.26
647.00	79.58
647.15	0.00
647.30	4.68
647.44	0.00
647.59	42.13
647.74	0.00
647.88	49.15
648.03	21.06
648.17	30.43
648.32	0.00
648.47	98.30
648.61	77.24
648.76	49.15
648.90	25.75
649.05	65.54
649.20	0.00
649.34	56.17
649.49	37.45
649.63	51.49
649.78	86.60
649.92	0.00
650.07	105.32
650.21	215.33
650.36	339.38
650.51	372.15
650.65	390.87
650.80	278.52
650.94	170.86
651.09	145.11
651.23	145.11
651.38	81.92
651.52	51.49
651.67	28.09
651.81	37.45
651.96	2.34
652.10	9.36
652.25	56.17
652.39	77.24
652.54	53.83
652.68	0.00
652.83	91.28
652.97	131.07
653.12	110.01
653.26	91.28
653.41	156.82
653.55	86.60
653.70	58.51
653.84	0.00
653.99	51.49
654.13	65.54
654.27	88.94
654.42	46.81
654.56	0.00
654.71	49.15
654.85	16.38
655.00	79.58
655.14	0.00
655.29	18.72
655.43	35.11
655.57	0.00
655.72	0.00
655.86	18.72
656.01	39.79
656.15	56.17
656.30	23.41
656.44	18.72
656.58	67.88
656.73	28.09
656.87	14.04
657.01	0.00
657.16	9.36
657.30	9.36
657.45	16.38
657.59	93.62
657.73	56.17
657.88	46.81
658.02	9.36
658.16	0.00
658.31	42.13
658.45	16.38
658.60	25.75
658.74	28.09
658.88	21.06
659.03	39.79
659.17	107.66
659.31	44.47
659.46	107.66
659.60	187.24
659.74	248.10
659.89	201.29
660.03	145.11
660.17	79.58
660.32	46.81
660.46	95.96
660.60	2.34
660.74	44.47
660.89	56.17
661.03	44.47
661.17	37.45
661.32	74.90
661.46	53.83
661.60	4.68
661.74	28.09
661.89	0.00
662.03	0.00
662.17	0.00
662.31	70.22
662.46	42.13
662.60	28.09
662.74	23.41
662.88	0.00
663.03	0.00
663.17	56.17
663.31	0.00
663.45	70.22
663.60	100.64
663.74	0.00
663.88	63.19
664.02	39.79
664.17	37.45
664.31	30.43
664.45	42.13
664.59	0.00
664.73	18.72
664.88	4.68
665.02	0.00
665.16	42.13
665.30	35.11
665.44	0.00
665.59	56.17
665.73	70.22
665.87	70.22
666.01	0.00
666.15	0.00
666.29	110.01
666.44	30.43
666.58	35.11
666.72	4.68
666.86	49.15
667.00	58.51
667.14	86.60
667.28	102.98
667.43	217.67
667.57	318.31
667.71	327.68
667.85	339.38
667.99	196.60
668.13	124.05
668.27	152.13
668.41	51.49
668.56	88.94
668.70	0.00
668.84	49.15
668.98	91.28
669.12	16.38
669.26	23.41
669.40	0.00
669.54	0.00
669.68	0.00
669.82	18.72
669.96	100.64
670.10	23.41
670.25	42.13
670.39	88.94
670.53	32.77
670.67	42.13
670.81	0.00
670.95	44.47
671.09	53.83
671.23	107.66
671.37	142.77
671.51	189.58
671.65	313.63
671.79	208.31
671.93	138.09
672.07	105.32
672.21	77.24
672.35	46.81
672.49	35.11
672.63	44.47
672.77	23.41
672.91	30.43
673.05	51.49
673.19	0.00
673.33	0.00
673.47	28.09
673.61	79.58
673.75	30.43
673.89	70.22
674.03	51.49
674.17	0.00
674.31	37.45
674.45	11.70
674.59	65.54
674.73	0.00
674.87	4.68
675.01	44.47
675.15	51.49
675.29	72.56
675.43	0.00
675.56	42.13
675.70	28.09
675.84	0.00
675.98	0.00
676.12	49.15
676.26	25.75
676.40	28.09
676.54	0.00
676.68	0.00
676.82	53.83
676.96	2.34
677.10	14.04
677.23	21.06
677.37	46.81
677.51	0.00
677.65	21.06
677.79	65.54
677.93	39.79
678.07	30.43
678.21	0.00
678.34	72.56
678.48	0.00
678.62	14.04
678.76	0.00
678.90	21.06
679.04	0.00
679.18	23.41
679.31	67.88
679.45	0.00
679.59	39.79
679.73	58.51
679.87	0.00
680.00	42.13
680.14	0.00
680.28	56.17
680.42	42.13
680.56	60.85
680.70	37.45
680.83	32.77
680.97	0.00
681.11	0.00
681.25	102.98
681.39	67.88
681.52	98.30
681.66	91.28
681.80	23.41
681.94	30.43
682.07	28.09
682.21	56.17
682.35	63.19
682.49	65.54
682.62	53.83
682.76	51.49
682.90	35.11
683.04	46.81
683.17	35.11
683.31	18.72
683.45	58.51
683.59	23.41
683.72	37.45
683.86	46.81
684.00	72.56
684.13	0.00
684.27	86.60
684.41	0.00
684.55	58.51
684.68	14.04
684.82	56.17
684.96	51.49
685.09	2.34
685.23	25.75
685.37	21.06
685.50	23.41
685.64	4.68
685.78	32.77
685.91	91.28
686.05	77.24
686.19	7.02
686.32	72.56
686.46	21.06
686.60	35.11
686.73	14.04
686.87	16.38
687.01	25.75
687.14	25.75
687.28	110.01
687.42	0.00
687.55	0.00
687.69	98.30
687.82	28.09
687.96	65.54
688.10	44.47
688.23	0.00
688.37	56.17
688.50	51.49
688.64	39.79
688.78	14.04
688.91	84.26
689.05	4.68
689.18	14.04
689.32	0.00
689.46	53.83
689.59	18.72
689.73	4.68
689.86	0.00
690.00	18.72
690.13	60.85
690.27	65.54
690.41	42.13
690.54	53.83
690.68	58.51
690.81	0.00
690.95	0.00
691.08	0.00
691.22	60.85
691.35	11.70
691.49	0.00
691.62	0.00
691.76	37.45
691.89	0.00
692.03	2.34
692.16	28.09
692.30	58.51
692.43	16.38
692.57	37.45
692.70	147.45
692.84	168.52
692.97	203.63
693.11	147.45
693.24	72.56
693.38	128.73
693.51	81.92
693.65	58.51
693.78	21.06
693.92	58.51
694.05	63.19
694.19	28.09
694.32	49.15
694.45	0.00
694.59	7.02
694.72	23.41
694.86	51.49
694.99	65.54
695.13	51.49
695.26	53.83
695.39	30.43
695.53	46.81
695.66	16.38
695.80	11.70
695.93	81.92
696.07	119.37
696.20	121.71
696.33	93.62
696.47	51.49
696.60	56.17
696.73	25.75
696.87	98.30
697.00	0.00
697.14	51.49
697.27	0.00
697.40	9.36
697.54	53.83
697.67	2.34
697.80	25.75
697.94	11.70
698.07	58.51
698.21	30.43
698.34	35.11
698.47	16.38
698.61	39.79
698.74	14.04
698.87	37.45
699.01	60.85
699.14	74.90
699.27	11.70
699.40	7.02
699.54	37.45
699.67	11.70
699.80	42.13
699.94	65.54
700.07	23.41
700.20	44.47
700.34	77.24
700.47	46.81
700.60	28.09
700.73	88.94
700.87	30.43
701.00	58.51
701.13	7.02
701.26	37.45
701.40	37.45
701.53	14.04
701.66	14.04
701.79	9.36
701.93	9.36
702.06	53.83
702.19	56.17
702.32	0.00
702.46	51.49
702.59	56.17
702.72	2.34
702.85	46.81
702.99	196.60
703.12	220.01
703.25	259.80
703.38	301.93
703.51	212.99
703.65	205.97
703.78	170.86
703.91	149.79
704.04	175.54
704.17	81.92
704.31	39.79
704.44	35.11
704.57	65.54
704.70	14.04
704.83	11.70
704.96	72.56
705.10	30.43
705.23	46.81
>>>>>End Processed Spectral Data<<<<<
