SpectraSuite Data File
++++++++++++++++++++++++++++++++++++
Date: Fri Oct 04 12:13:44 GMT-05:00 2013
User: price-jones
Dark Spectrum Present: No
Reference Spectrum Present: No
Number of Sampled Component Spectra: 1
Spectrometers: USB2+H05261
Integration Time (usec): 10000 (USB2+H05261)
Spectra Averaged: 1 (USB2+H05261)
Boxcar Smoothing: 0 (USB2+H05261)
Correct for Electrical Dark: No (USB2+H05261)
Strobe/Lamp Enabled: No (USB2+H05261)
Correct for Detector Non-linearity: No (USB2+H05261)
Correct for Stray Light: No (USB2+H05261)
Number of Pixels in Processed Spectrum: 2048
>>>>>Begin Processed Spectral Data<<<<<
365.73	0.00
365.92	0.00
366.12	0.00
366.32	0.00
366.52	0.00
366.72	0.00
366.91	0.00
367.11	0.00
367.31	0.00
367.51	0.00
367.70	0.00
367.90	0.00
368.10	0.00
368.30	0.00
368.49	0.00
368.69	0.00
368.89	0.00
369.09	0.00
369.28	0.00
369.48	0.00
369.68	0.00
369.87	0.00
370.07	0.00
370.27	0.00
370.47	0.00
370.66	0.00
370.86	0.00
371.06	0.00
371.25	0.00
371.45	58.51
371.65	0.00
371.84	0.00
372.04	0.00
372.24	16.38
372.44	0.00
372.63	42.13
372.83	18.72
373.03	0.00
373.22	11.70
373.42	46.81
373.62	84.26
373.81	14.04
374.01	0.00
374.21	49.15
374.40	79.58
374.60	9.36
374.79	65.54
374.99	0.00
375.19	37.45
375.38	0.00
375.58	21.06
375.78	4.68
375.97	14.04
376.17	7.02
376.37	0.00
376.56	44.47
376.76	53.83
376.95	14.04
377.15	21.06
377.35	0.00
377.54	35.11
377.74	32.77
377.93	81.92
378.13	11.70
378.33	0.00
378.52	51.49
378.72	63.19
378.91	0.00
379.11	95.96
379.31	63.19
379.50	14.04
379.70	72.56
379.89	25.75
380.09	53.83
380.28	7.02
380.48	0.00
380.68	14.04
380.87	11.70
381.07	23.41
381.26	0.00
381.46	0.00
381.65	14.04
381.85	0.00
382.04	28.09
382.24	44.47
382.43	35.11
382.63	86.60
382.83	30.43
383.02	9.36
383.22	0.00
383.41	18.72
383.61	28.09
383.80	44.47
384.00	0.00
384.19	46.81
384.39	0.00
384.58	0.00
384.78	67.88
384.97	21.06
385.17	35.11
385.36	65.54
385.56	32.77
385.75	28.09
385.95	0.00
386.14	23.41
386.34	9.36
386.53	44.47
386.72	91.28
386.92	30.43
387.11	9.36
387.31	16.38
387.50	21.06
387.70	28.09
387.89	0.00
388.09	28.09
388.28	86.60
388.48	4.68
388.67	14.04
388.86	46.81
389.06	25.75
389.25	28.09
389.45	46.81
389.64	0.00
389.84	44.47
390.03	4.68
390.22	11.70
390.42	44.47
390.61	2.34
390.81	49.15
391.00	42.13
391.19	70.22
391.39	0.00
391.58	46.81
391.78	44.47
391.97	51.49
392.16	0.00
392.36	0.00
392.55	44.47
392.75	0.00
392.94	4.68
393.13	9.36
393.33	35.11
393.52	46.81
393.71	49.15
393.91	112.35
394.10	30.43
394.29	37.45
394.49	44.47
394.68	16.38
394.88	39.79
395.07	56.17
395.26	56.17
395.46	0.00
395.65	60.85
395.84	4.68
396.04	63.19
396.23	35.11
396.42	0.00
396.62	0.00
396.81	14.04
397.00	0.00
397.19	7.02
397.39	0.00
397.58	0.00
397.77	18.72
397.97	39.79
398.16	0.00
398.35	0.00
398.55	51.49
398.74	23.41
398.93	0.00
399.12	30.43
399.32	70.22
399.51	0.00
399.70	0.00
399.90	49.15
400.09	28.09
400.28	25.75
400.47	9.36
400.67	39.79
400.86	77.24
401.05	32.77
401.24	18.72
401.44	30.43
401.63	0.00
401.82	93.62
402.01	32.77
402.21	0.00
402.40	58.51
402.59	4.68
402.78	16.38
402.97	32.77
403.17	0.00
403.36	32.77
403.55	67.88
403.74	0.00
403.93	28.09
404.13	0.00
404.32	0.00
404.51	46.81
404.70	0.00
404.89	9.36
405.09	56.17
405.28	49.15
405.47	9.36
405.66	0.00
405.85	0.00
406.05	0.00
406.24	2.34
406.43	28.09
406.62	0.00
406.81	77.24
407.00	49.15
407.20	18.72
407.39	4.68
407.58	70.22
407.77	28.09
407.96	23.41
408.15	0.00
408.34	51.49
408.54	0.00
408.73	4.68
408.92	65.54
409.11	37.45
409.30	11.70
409.49	42.13
409.68	0.00
409.87	0.00
410.07	11.70
410.26	65.54
410.45	46.81
410.64	0.00
410.83	9.36
411.02	0.00
411.21	60.85
411.40	0.00
411.59	16.38
411.78	39.79
411.98	32.77
412.17	0.00
412.36	0.00
412.55	23.41
412.74	25.75
412.93	0.00
413.12	0.00
413.31	30.43
413.50	0.00
413.69	4.68
413.88	63.19
414.07	35.11
414.26	65.54
414.45	30.43
414.64	14.04
414.83	110.01
415.02	25.75
415.22	0.00
415.41	7.02
415.60	37.45
415.79	91.28
415.98	32.77
416.17	0.00
416.36	37.45
416.55	0.00
416.74	0.00
416.93	0.00
417.12	0.00
417.31	18.72
417.50	74.90
417.69	11.70
417.88	51.49
418.07	0.00
418.26	21.06
418.45	35.11
418.64	77.24
418.83	18.72
419.02	46.81
419.21	60.85
419.39	14.04
419.58	11.70
419.77	65.54
419.96	53.83
420.15	0.00
420.34	37.45
420.53	58.51
420.72	79.58
420.91	9.36
421.10	11.70
421.29	65.54
421.48	28.09
421.67	74.90
421.86	0.00
422.05	42.13
422.24	28.09
422.43	32.77
422.61	9.36
422.80	11.70
422.99	7.02
423.18	2.34
423.37	42.13
423.56	44.47
423.75	35.11
423.94	56.17
424.13	18.72
424.32	44.47
424.50	28.09
424.69	0.00
424.88	0.00
425.07	2.34
425.26	4.68
425.45	60.85
425.64	37.45
425.83	60.85
426.01	95.96
426.20	16.38
426.39	39.79
426.58	79.58
426.77	65.54
426.96	65.54
427.15	53.83
427.33	77.24
427.52	21.06
427.71	2.34
427.90	56.17
428.09	53.83
428.28	23.41
428.46	30.43
428.65	39.79
428.84	51.49
429.03	49.15
429.22	9.36
429.40	35.11
429.59	79.58
429.78	114.69
429.97	84.26
430.16	84.26
430.34	58.51
430.53	0.00
430.72	77.24
430.91	32.77
431.10	110.01
431.28	79.58
431.47	23.41
431.66	88.94
431.85	18.72
432.03	51.49
432.22	35.11
432.41	28.09
432.60	0.00
432.79	39.79
432.97	107.66
433.16	0.00
433.35	4.68
433.54	0.00
433.72	0.00
433.91	93.62
434.10	39.79
434.28	98.30
434.47	51.49
434.66	0.00
434.85	60.85
435.03	77.24
435.22	18.72
435.41	30.43
435.59	0.00
435.78	21.06
435.97	30.43
436.16	35.11
436.34	0.00
436.53	18.72
436.72	60.85
436.90	65.54
437.09	42.13
437.28	21.06
437.46	0.00
437.65	0.00
437.84	28.09
438.02	35.11
438.21	14.04
438.40	9.36
438.58	30.43
438.77	0.00
438.96	16.38
439.14	0.00
439.33	72.56
439.52	0.00
439.70	0.00
439.89	81.92
440.08	37.45
440.26	44.47
440.45	16.38
440.63	0.00
440.82	74.90
441.01	70.22
441.19	0.00
441.38	63.19
441.57	32.77
441.75	18.72
441.94	4.68
442.12	44.47
442.31	28.09
442.50	0.00
442.68	51.49
442.87	30.43
443.05	32.77
443.24	30.43
443.43	7.02
443.61	0.00
443.80	0.00
443.98	35.11
444.17	0.00
444.35	35.11
444.54	65.54
444.73	35.11
444.91	23.41
445.10	51.49
445.28	42.13
445.47	91.28
445.65	0.00
445.84	11.70
446.02	35.11
446.21	35.11
446.39	140.43
446.58	23.41
446.77	56.17
446.95	16.38
447.14	35.11
447.32	44.47
447.51	18.72
447.69	65.54
447.88	0.00
448.06	25.75
448.25	91.28
448.43	7.02
448.62	0.00
448.80	0.00
448.99	25.75
449.17	0.00
449.36	88.94
449.54	25.75
449.73	44.47
449.91	98.30
450.10	49.15
450.28	98.30
450.46	58.51
450.65	18.72
450.83	79.58
451.02	0.00
451.20	0.00
451.39	0.00
451.57	0.00
451.76	0.00
451.94	0.00
452.13	9.36
452.31	56.17
452.49	23.41
452.68	56.17
452.86	42.13
453.05	0.00
453.23	30.43
453.42	42.13
453.60	44.47
453.78	110.01
453.97	9.36
454.15	42.13
454.34	105.32
454.52	35.11
454.70	16.38
454.89	51.49
455.07	42.13
455.26	51.49
455.44	88.94
455.62	49.15
455.81	53.83
455.99	7.02
456.17	65.54
456.36	4.68
456.54	51.49
456.73	110.01
456.91	114.69
457.09	21.06
457.28	11.70
457.46	18.72
457.64	79.58
457.83	39.79
458.01	21.06
458.19	0.00
458.38	70.22
458.56	46.81
458.74	70.22
458.93	107.66
459.11	58.51
459.29	51.49
459.48	79.58
459.66	18.72
459.84	51.49
460.03	4.68
460.21	7.02
460.39	0.00
460.57	21.06
460.76	14.04
460.94	0.00
461.12	0.00
461.31	46.81
461.49	117.03
461.67	77.24
461.85	23.41
462.04	30.43
462.22	63.19
462.40	86.60
462.59	4.68
462.77	0.00
462.95	0.00
463.13	44.47
463.32	46.81
463.50	44.47
463.68	2.34
463.86	102.98
464.05	0.00
464.23	39.79
464.41	51.49
464.59	67.88
464.78	32.77
464.96	35.11
465.14	74.90
465.32	100.64
465.50	23.41
465.69	37.45
465.87	25.75
466.05	4.68
466.23	25.75
466.41	25.75
466.60	0.00
466.78	28.09
466.96	65.54
467.14	63.19
467.32	35.11
467.51	42.13
467.69	7.02
467.87	46.81
468.05	25.75
468.23	46.81
468.41	28.09
468.60	30.43
468.78	67.88
468.96	35.11
469.14	32.77
469.32	0.00
469.50	0.00
469.69	42.13
469.87	21.06
470.05	51.49
470.23	56.17
470.41	60.85
470.59	53.83
470.77	44.47
470.95	2.34
471.14	42.13
471.32	14.04
471.50	84.26
471.68	39.79
471.86	63.19
472.04	0.00
472.22	16.38
472.40	7.02
472.58	56.17
472.77	128.73
472.95	42.13
473.13	42.13
473.31	28.09
473.49	23.41
473.67	9.36
473.85	98.30
474.03	67.88
474.21	0.00
474.39	60.85
474.57	79.58
474.75	110.01
474.93	37.45
475.12	23.41
475.30	46.81
475.48	14.04
475.66	32.77
475.84	0.00
476.02	42.13
476.20	51.49
476.38	0.00
476.56	7.02
476.74	28.09
476.92	2.34
477.10	81.92
477.28	72.56
477.46	70.22
477.64	60.85
477.82	21.06
478.00	79.58
478.18	60.85
478.36	4.68
478.54	98.30
478.72	23.41
478.90	37.45
479.08	44.47
479.26	21.06
479.44	16.38
479.62	46.81
479.80	18.72
479.98	51.49
480.16	39.79
480.34	0.00
480.52	91.28
480.70	121.71
480.88	23.41
481.06	65.54
481.24	60.85
481.41	14.04
481.59	100.64
481.77	42.13
481.95	28.09
482.13	9.36
482.31	135.75
482.49	84.26
482.67	72.56
482.85	114.69
483.03	23.41
483.21	46.81
483.39	81.92
483.57	84.26
483.74	28.09
483.92	2.34
484.10	21.06
484.28	0.00
484.46	49.15
484.64	42.13
484.82	9.36
485.00	79.58
485.18	65.54
485.35	32.77
485.53	105.32
485.71	72.56
485.89	0.00
486.07	9.36
486.25	74.90
486.43	46.81
486.61	49.15
486.78	0.00
486.96	42.13
487.14	124.05
487.32	16.38
487.50	65.54
487.68	0.00
487.85	9.36
488.03	25.75
488.21	7.02
488.39	0.00
488.57	100.64
488.75	102.98
488.92	67.88
489.10	28.09
489.28	2.34
489.46	16.38
489.64	35.11
489.81	18.72
489.99	93.62
490.17	42.13
490.35	95.96
490.53	107.66
490.70	53.83
490.88	46.81
491.06	79.58
491.24	4.68
491.41	70.22
491.59	2.34
491.77	14.04
491.95	18.72
492.13	44.47
492.30	9.36
492.48	105.32
492.66	107.66
492.84	88.94
493.01	9.36
493.19	16.38
493.37	25.75
493.54	56.17
493.72	102.98
493.90	0.00
494.08	51.49
494.25	0.00
494.43	21.06
494.61	11.70
494.79	0.00
494.96	56.17
495.14	63.19
495.32	46.81
495.49	60.85
495.67	0.00
495.85	44.47
496.02	0.00
496.20	112.35
496.38	53.83
496.55	39.79
496.73	23.41
496.91	74.90
497.09	56.17
497.26	0.00
497.44	49.15
497.62	4.68
497.79	72.56
497.97	93.62
498.14	7.02
498.32	114.69
498.50	11.70
498.67	42.13
498.85	126.39
499.03	39.79
499.20	63.19
499.38	0.00
499.56	74.90
499.73	56.17
499.91	32.77
500.08	30.43
500.26	84.26
500.44	100.64
500.61	67.88
500.79	58.51
500.97	67.88
501.14	37.45
501.32	9.36
501.49	60.85
501.67	70.22
501.84	18.72
502.02	4.68
502.20	77.24
502.37	70.22
502.55	77.24
502.72	46.81
502.90	25.75
503.07	56.17
503.25	58.51
503.43	163.84
503.60	102.98
503.78	39.79
503.95	72.56
504.13	23.41
504.30	11.70
504.48	77.24
504.65	0.00
504.83	18.72
505.01	58.51
505.18	51.49
505.36	67.88
505.53	95.96
505.71	58.51
505.88	30.43
506.06	18.72
506.23	46.81
506.41	70.22
506.58	23.41
506.76	0.00
506.93	67.88
507.11	0.00
507.28	128.73
507.46	42.13
507.63	0.00
507.81	84.26
507.98	46.81
508.16	133.41
508.33	44.47
508.50	51.49
508.68	42.13
508.85	84.26
509.03	0.00
509.20	0.00
509.38	16.38
509.55	23.41
509.73	37.45
509.90	32.77
510.08	0.00
510.25	51.49
510.42	23.41
510.60	42.13
510.77	23.41
510.95	0.00
511.12	0.00
511.30	44.47
511.47	16.38
511.64	32.77
511.82	37.45
511.99	42.13
512.17	16.38
512.34	11.70
512.51	56.17
512.69	53.83
512.86	4.68
513.04	114.69
513.21	42.13
513.38	58.51
513.56	65.54
513.73	39.79
513.90	42.13
514.08	81.92
514.25	7.02
514.43	58.51
514.60	37.45
514.77	21.06
514.95	98.30
515.12	35.11
515.29	0.00
515.47	7.02
515.64	32.77
515.81	25.75
515.99	18.72
516.16	65.54
516.33	25.75
516.51	51.49
516.68	88.94
516.85	51.49
517.03	58.51
517.20	14.04
517.37	51.49
517.54	0.00
517.72	14.04
517.89	95.96
518.06	42.13
518.24	86.60
518.41	0.00
518.58	112.35
518.75	37.45
518.93	77.24
519.10	100.64
519.27	79.58
519.45	44.47
519.62	145.11
519.79	88.94
519.96	74.90
520.14	93.62
520.31	16.38
520.48	119.37
520.65	35.11
520.83	9.36
521.00	65.54
521.17	2.34
521.34	46.81
521.52	65.54
521.69	49.15
521.86	16.38
522.03	35.11
522.20	46.81
522.38	32.77
522.55	16.38
522.72	42.13
522.89	110.01
523.07	72.56
523.24	70.22
523.41	37.45
523.58	0.00
523.75	39.79
523.92	72.56
524.10	77.24
524.27	58.51
524.44	46.81
524.61	126.39
524.78	28.09
524.96	7.02
525.13	42.13
525.30	0.00
525.47	60.85
525.64	65.54
525.81	145.11
525.98	107.66
526.16	14.04
526.33	0.00
526.50	46.81
526.67	0.00
526.84	11.70
527.01	4.68
527.18	112.35
527.36	58.51
527.53	56.17
527.70	58.51
527.87	18.72
528.04	32.77
528.21	44.47
528.38	0.00
528.55	7.02
528.72	121.71
528.89	67.88
529.07	91.28
529.24	91.28
529.41	56.17
529.58	37.45
529.75	0.00
529.92	37.45
530.09	37.45
530.26	67.88
530.43	32.77
530.60	0.00
530.77	0.00
530.94	46.81
531.11	46.81
531.28	105.32
531.46	135.75
531.63	58.51
531.80	25.75
531.97	21.06
532.14	42.13
532.31	51.49
532.48	98.30
532.65	42.13
532.82	28.09
532.99	37.45
533.16	42.13
533.33	49.15
533.50	16.38
533.67	39.79
533.84	67.88
534.01	93.62
534.18	77.24
534.35	49.15
534.52	49.15
534.69	23.41
534.86	56.17
535.03	11.70
535.20	51.49
535.37	60.85
535.54	21.06
535.71	65.54
535.88	84.26
536.05	23.41
536.22	98.30
536.38	79.58
536.55	74.90
536.72	37.45
536.89	77.24
537.06	21.06
537.23	60.85
537.40	79.58
537.57	49.15
537.74	98.30
537.91	110.01
538.08	79.58
538.25	72.56
538.42	0.00
538.59	72.56
538.75	14.04
538.92	72.56
539.09	79.58
539.26	46.81
539.43	133.41
539.60	44.47
539.77	28.09
539.94	100.64
540.11	28.09
540.28	18.72
540.44	4.68
540.61	39.79
540.78	79.58
540.95	74.90
541.12	46.81
541.29	46.81
541.46	49.15
541.62	77.24
541.79	4.68
541.96	0.00
542.13	98.30
542.30	72.56
542.47	42.13
542.63	35.11
542.80	67.88
542.97	32.77
543.14	53.83
543.31	16.38
543.48	32.77
543.64	95.96
543.81	126.39
543.98	18.72
544.15	49.15
544.32	60.85
544.48	23.41
544.65	0.00
544.82	0.00
544.99	91.28
545.16	28.09
545.32	42.13
545.49	93.62
545.66	56.17
545.83	39.79
546.00	79.58
546.16	0.00
546.33	67.88
546.50	77.24
546.67	42.13
546.83	56.17
547.00	142.77
547.17	77.24
547.34	23.41
547.50	0.00
547.67	60.85
547.84	0.00
548.00	28.09
548.17	11.70
548.34	23.41
548.51	63.19
548.67	79.58
548.84	49.15
549.01	0.00
549.18	56.17
549.34	81.92
549.51	102.98
549.68	88.94
549.84	28.09
550.01	121.71
550.18	63.19
550.34	53.83
550.51	32.77
550.68	88.94
550.84	51.49
551.01	0.00
551.18	0.00
551.34	37.45
551.51	67.88
551.68	35.11
551.84	46.81
552.01	95.96
552.18	30.43
552.34	42.13
552.51	0.00
552.68	77.24
552.84	11.70
553.01	56.17
553.18	14.04
553.34	74.90
553.51	46.81
553.67	72.56
553.84	93.62
554.01	86.60
554.17	32.77
554.34	0.00
554.51	21.06
554.67	95.96
554.84	88.94
555.00	0.00
555.17	37.45
555.33	0.00
555.50	46.81
555.67	0.00
555.83	79.58
556.00	114.69
556.16	70.22
556.33	42.13
556.50	95.96
556.66	107.66
556.83	0.00
556.99	51.49
557.16	49.15
557.32	37.45
557.49	42.13
557.65	65.54
557.82	0.00
557.98	25.75
558.15	88.94
558.32	110.01
558.48	58.51
558.65	37.45
558.81	32.77
558.98	56.17
559.14	102.98
559.31	58.51
559.47	46.81
559.64	0.00
559.80	98.30
559.97	60.85
560.13	7.02
560.30	0.00
560.46	25.75
560.63	112.35
560.79	93.62
560.96	18.72
561.12	35.11
561.29	42.13
561.45	30.43
561.61	51.49
561.78	21.06
561.94	0.00
562.11	35.11
562.27	39.79
562.44	67.88
562.60	51.49
562.77	79.58
562.93	44.47
563.10	65.54
563.26	16.38
563.42	74.90
563.59	11.70
563.75	18.72
563.92	74.90
564.08	28.09
564.24	2.34
564.41	25.75
564.57	58.51
564.74	0.00
564.90	72.56
565.07	16.38
565.23	72.56
565.39	60.85
565.56	0.00
565.72	0.00
565.88	0.00
566.05	74.90
566.21	44.47
566.38	70.22
566.54	100.64
566.70	58.51
566.87	23.41
567.03	46.81
567.19	53.83
567.36	46.81
567.52	0.00
567.68	23.41
567.85	81.92
568.01	67.88
568.17	86.60
568.34	18.72
568.50	32.77
568.66	0.00
568.83	51.49
568.99	0.00
569.15	21.06
569.32	25.75
569.48	49.15
569.64	70.22
569.81	18.72
569.97	58.51
570.13	58.51
570.30	44.47
570.46	0.00
570.62	60.85
570.78	86.60
570.95	25.75
571.11	4.68
571.27	0.00
571.43	0.00
571.60	51.49
571.76	0.00
571.92	112.35
572.09	35.11
572.25	28.09
572.41	37.45
572.57	67.88
572.74	88.94
572.90	98.30
573.06	53.83
573.22	18.72
573.38	88.94
573.55	128.73
573.71	0.00
573.87	93.62
574.03	114.69
574.20	0.00
574.36	0.00
574.52	0.00
574.68	32.77
574.84	49.15
575.01	93.62
575.17	102.98
575.33	65.54
575.49	0.00
575.65	11.70
575.82	0.00
575.98	88.94
576.14	65.54
576.30	63.19
576.46	0.00
576.62	42.13
576.79	70.22
576.95	102.98
577.11	81.92
577.27	0.00
577.43	79.58
577.59	84.26
577.75	91.28
577.92	32.77
578.08	65.54
578.24	51.49
578.40	9.36
578.56	51.49
578.72	23.41
578.88	9.36
579.04	51.49
579.21	49.15
579.37	60.85
579.53	18.72
579.69	63.19
579.85	70.22
580.01	51.49
580.17	18.72
580.33	32.77
580.49	53.83
580.65	93.62
580.82	102.98
580.98	72.56
581.14	23.41
581.30	23.41
581.46	11.70
581.62	44.47
581.78	102.98
581.94	35.11
582.10	37.45
582.26	72.56
582.42	56.17
582.58	30.43
582.74	49.15
582.90	84.26
583.06	35.11
583.22	23.41
583.38	51.49
583.54	28.09
583.70	138.09
583.86	77.24
584.02	0.00
584.18	0.00
584.34	0.00
584.50	58.51
584.66	60.85
584.82	53.83
584.98	25.75
585.14	16.38
585.30	30.43
585.46	32.77
585.62	0.00
585.78	98.30
585.94	7.02
586.10	0.00
586.26	35.11
586.42	84.26
586.58	37.45
586.74	0.00
586.90	28.09
587.06	49.15
587.22	65.54
587.38	46.81
587.54	86.60
587.70	112.35
587.86	28.09
588.02	9.36
588.18	7.02
588.34	65.54
588.49	39.79
588.65	53.83
588.81	42.13
588.97	105.32
589.13	79.58
589.29	72.56
589.45	98.30
589.61	32.77
589.77	0.00
589.93	0.00
590.08	0.00
590.24	65.54
590.40	37.45
590.56	44.47
590.72	51.49
590.88	7.02
591.04	60.85
591.20	46.81
591.35	42.13
591.51	18.72
591.67	4.68
591.83	53.83
591.99	0.00
592.15	18.72
592.31	0.00
592.46	14.04
592.62	74.90
592.78	63.19
592.94	0.00
593.10	60.85
593.26	0.00
593.41	42.13
593.57	0.00
593.73	46.81
593.89	28.09
594.05	35.11
594.20	65.54
594.36	44.47
594.52	51.49
594.68	67.88
594.84	32.77
594.99	11.70
595.15	93.62
595.31	65.54
595.47	63.19
595.62	74.90
595.78	49.15
595.94	56.17
596.10	77.24
596.25	4.68
596.41	18.72
596.57	7.02
596.73	4.68
596.88	35.11
597.04	30.43
597.20	42.13
597.36	65.54
597.51	37.45
597.67	0.00
597.83	14.04
597.99	0.00
598.14	79.58
598.30	95.96
598.46	65.54
598.61	86.60
598.77	100.64
598.93	74.90
599.09	0.00
599.24	0.00
599.40	0.00
599.56	39.79
599.71	51.49
599.87	39.79
600.03	53.83
600.18	28.09
600.34	32.77
600.50	25.75
600.65	105.32
600.81	37.45
600.97	28.09
601.12	72.56
601.28	93.62
601.44	70.22
601.59	60.85
601.75	105.32
601.91	105.32
602.06	81.92
602.22	74.90
602.37	0.00
602.53	63.19
602.69	11.70
602.84	0.00
603.00	70.22
603.16	58.51
603.31	37.45
603.47	44.47
603.62	86.60
603.78	39.79
603.94	58.51
604.09	0.00
604.25	4.68
604.40	65.54
604.56	23.41
604.71	39.79
604.87	37.45
605.03	39.79
605.18	81.92
605.34	2.34
605.49	35.11
605.65	63.19
605.80	28.09
605.96	93.62
606.12	0.00
606.27	102.98
606.43	28.09
606.58	0.00
606.74	9.36
606.89	65.54
607.05	0.00
607.20	53.83
607.36	0.00
607.51	28.09
607.67	44.47
607.82	35.11
607.98	2.34
608.13	51.49
608.29	0.00
608.44	46.81
608.60	28.09
608.75	0.00
608.91	70.22
609.06	67.88
609.22	0.00
609.37	86.60
609.53	67.88
609.68	25.75
609.84	128.73
609.99	21.06
610.15	44.47
610.30	46.81
610.46	44.47
610.61	0.00
610.76	28.09
610.92	63.19
611.07	53.83
611.23	93.62
611.38	124.05
611.54	11.70
611.69	42.13
611.84	88.94
612.00	72.56
612.15	98.30
612.31	0.00
612.46	0.00
612.62	72.56
612.77	65.54
612.92	0.00
613.08	9.36
613.23	53.83
613.39	39.79
613.54	0.00
613.69	32.77
613.85	95.96
614.00	105.32
614.15	63.19
614.31	46.81
614.46	53.83
614.62	42.13
614.77	14.04
614.92	60.85
615.08	28.09
615.23	88.94
615.38	65.54
615.54	39.79
615.69	37.45
615.84	70.22
616.00	14.04
616.15	37.45
616.30	18.72
616.46	23.41
616.61	42.13
616.76	0.00
616.92	56.17
617.07	72.56
617.22	46.81
617.37	138.09
617.53	77.24
617.68	63.19
617.83	60.85
617.99	0.00
618.14	0.00
618.29	23.41
618.45	60.85
618.60	30.43
618.75	53.83
618.90	23.41
619.06	63.19
619.21	9.36
619.36	51.49
619.51	53.83
619.67	0.00
619.82	74.90
619.97	11.70
620.12	18.72
620.28	37.45
620.43	58.51
620.58	72.56
620.73	79.58
620.89	110.01
621.04	58.51
621.19	119.37
621.34	23.41
621.49	14.04
621.65	0.00
621.80	30.43
621.95	23.41
622.10	16.38
622.25	0.00
622.41	0.00
622.56	39.79
622.71	0.00
622.86	86.60
623.01	84.26
623.16	46.81
623.32	0.00
623.47	53.83
623.62	0.00
623.77	65.54
623.92	105.32
624.07	4.68
624.23	112.35
624.38	95.96
624.53	49.15
624.68	105.32
624.83	44.47
624.98	77.24
625.13	39.79
625.29	72.56
625.44	63.19
625.59	46.81
625.74	28.09
625.89	0.00
626.04	0.00
626.19	4.68
626.34	32.77
626.49	51.49
626.65	0.00
626.80	7.02
626.95	0.00
627.10	35.11
627.25	32.77
627.40	42.13
627.55	0.00
627.70	67.88
627.85	77.24
628.00	0.00
628.15	0.00
628.30	0.00
628.45	93.62
628.60	67.88
628.76	28.09
628.91	0.00
629.06	37.45
629.21	63.19
629.36	11.70
629.51	46.81
629.66	88.94
629.81	30.43
629.96	51.49
630.11	23.41
630.26	53.83
630.41	105.32
630.56	39.79
630.71	37.45
630.86	39.79
631.01	49.15
631.16	16.38
631.31	23.41
631.46	110.01
631.61	95.96
631.76	100.64
631.91	7.02
632.06	79.58
632.21	49.15
632.36	42.13
632.51	65.54
632.66	14.04
632.81	0.00
632.96	2.34
633.10	28.09
633.25	0.00
633.40	9.36
633.55	44.47
633.70	58.51
633.85	9.36
634.00	0.00
634.15	72.56
634.30	79.58
634.45	23.41
634.60	46.81
634.75	32.77
634.90	14.04
635.05	4.68
635.19	39.79
635.34	98.30
635.49	77.24
635.64	60.85
635.79	0.00
635.94	56.17
636.09	42.13
636.24	44.47
636.39	133.41
636.53	145.11
636.68	81.92
636.83	25.75
636.98	0.00
637.13	0.00
637.28	11.70
637.43	37.45
637.57	44.47
637.72	88.94
637.87	95.96
638.02	14.04
638.17	0.00
638.32	23.41
638.46	39.79
638.61	46.81
638.76	0.00
638.91	4.68
639.06	74.90
639.20	88.94
639.35	63.19
639.50	84.26
639.65	16.38
639.80	63.19
639.94	65.54
640.09	72.56
640.24	46.81
640.39	46.81
640.54	35.11
640.68	72.56
640.83	23.41
640.98	74.90
641.13	49.15
641.27	28.09
641.42	16.38
641.57	32.77
641.72	25.75
641.86	30.43
642.01	39.79
642.16	70.22
642.31	30.43
642.45	32.77
642.60	9.36
642.75	28.09
642.90	72.56
643.04	16.38
643.19	25.75
643.34	30.43
643.48	98.30
643.63	74.90
643.78	81.92
643.93	0.00
644.07	18.72
644.22	37.45
644.37	21.06
644.51	7.02
644.66	49.15
644.81	9.36
644.95	93.62
645.10	53.83
645.25	81.92
645.39	67.88
645.54	28.09
645.69	23.41
645.83	0.00
645.98	93.62
646.13	14.04
646.27	102.98
646.42	9.36
646.57	37.45
646.71	37.45
646.86	70.22
647.00	88.94
647.15	133.41
647.30	23.41
647.44	86.60
647.59	23.41
647.74	39.79
647.88	95.96
648.03	25.75
648.17	14.04
648.32	81.92
648.47	0.00
648.61	7.02
648.76	9.36
648.90	49.15
649.05	65.54
649.20	65.54
649.34	51.49
649.49	74.90
649.63	7.02
649.78	42.13
649.92	37.45
650.07	18.72
650.21	0.00
650.36	4.68
650.51	42.13
650.65	21.06
650.80	32.77
650.94	25.75
651.09	7.02
651.23	28.09
651.38	58.51
651.52	32.77
651.67	46.81
651.81	25.75
651.96	53.83
652.10	0.00
652.25	0.00
652.39	0.00
652.54	51.49
652.68	67.88
652.83	56.17
652.97	67.88
653.12	51.49
653.26	46.81
653.41	39.79
653.55	42.13
653.70	4.68
653.84	0.00
653.99	67.88
654.13	16.38
654.27	56.17
654.42	84.26
654.56	32.77
654.71	58.51
654.85	53.83
655.00	25.75
655.14	81.92
655.29	88.94
655.43	32.77
655.57	23.41
655.72	51.49
655.86	2.34
656.01	35.11
656.15	7.02
656.30	11.70
656.44	100.64
656.58	107.66
656.73	30.43
656.87	35.11
657.01	74.90
657.16	65.54
657.30	42.13
657.45	25.75
657.59	37.45
657.73	21.06
657.88	63.19
658.02	95.96
658.16	142.77
658.31	0.00
658.45	56.17
658.60	11.70
658.74	28.09
658.88	67.88
659.03	42.13
659.17	16.38
659.31	0.00
659.46	21.06
659.60	0.00
659.74	32.77
659.89	77.24
660.03	88.94
660.17	9.36
660.32	30.43
660.46	67.88
660.60	4.68
660.74	46.81
660.89	0.00
661.03	58.51
661.17	9.36
661.32	0.00
661.46	77.24
661.60	0.00
661.74	100.64
661.89	86.60
662.03	35.11
662.17	74.90
662.31	77.24
662.46	56.17
662.60	32.77
662.74	18.72
662.88	49.15
663.03	67.88
663.17	37.45
663.31	9.36
663.45	32.77
663.60	23.41
663.74	46.81
663.88	67.88
664.02	42.13
664.17	28.09
664.31	11.70
664.45	74.90
664.59	25.75
664.73	0.00
664.88	30.43
665.02	0.00
665.16	91.28
665.30	23.41
665.44	37.45
665.59	21.06
665.73	0.00
665.87	86.60
666.01	102.98
666.15	18.72
666.29	60.85
666.44	0.00
666.58	63.19
666.72	70.22
666.86	65.54
667.00	70.22
667.14	70.22
667.28	21.06
667.43	28.09
667.57	25.75
667.71	0.00
667.85	0.00
667.99	39.79
668.13	37.45
668.27	0.00
668.41	37.45
668.56	74.90
668.70	32.77
668.84	72.56
668.98	126.39
669.12	39.79
669.26	42.13
669.40	77.24
669.54	39.79
669.68	0.00
669.82	35.11
669.96	7.02
670.10	39.79
670.25	63.19
670.39	14.04
670.53	23.41
670.67	9.36
670.81	16.38
670.95	39.79
671.09	63.19
671.23	0.00
671.37	56.17
671.51	60.85
671.65	2.34
671.79	9.36
671.93	30.43
672.07	30.43
672.21	60.85
672.35	14.04
672.49	93.62
672.63	28.09
672.77	9.36
672.91	9.36
673.05	51.49
673.19	124.05
673.33	0.00
673.47	70.22
673.61	0.00
673.75	0.00
673.89	42.13
674.03	49.15
674.17	0.00
674.31	23.41
674.45	79.58
674.59	77.24
674.73	16.38
674.87	44.47
675.01	23.41
675.15	28.09
675.29	0.00
675.43	79.58
675.56	23.41
675.70	2.34
675.84	23.41
675.98	0.00
676.12	30.43
676.26	7.02
676.40	35.11
676.54	16.38
676.68	14.04
676.82	14.04
676.96	72.56
677.10	51.49
677.23	14.04
677.37	0.00
677.51	77.24
677.65	30.43
677.79	53.83
677.93	0.00
678.07	63.19
678.21	0.00
678.34	51.49
678.48	72.56
678.62	25.75
678.76	28.09
678.90	53.83
679.04	44.47
679.18	51.49
679.31	0.00
679.45	30.43
679.59	46.81
679.73	58.51
679.87	14.04
680.00	11.70
680.14	79.58
680.28	84.26
680.42	21.06
680.56	88.94
680.70	32.77
680.83	84.26
680.97	21.06
681.11	23.41
681.25	0.00
681.39	37.45
681.52	44.47
681.66	0.00
681.80	86.60
681.94	102.98
682.07	25.75
682.21	0.00
682.35	18.72
682.49	32.77
682.62	23.41
682.76	46.81
682.90	0.00
683.04	44.47
683.17	60.85
683.31	100.64
683.45	86.60
683.59	60.85
683.72	0.00
683.86	7.02
684.00	2.34
684.13	25.75
684.27	42.13
684.41	32.77
684.55	21.06
684.68	100.64
684.82	4.68
684.96	23.41
685.09	46.81
685.23	0.00
685.37	14.04
685.50	93.62
685.64	0.00
685.78	25.75
685.91	0.00
686.05	23.41
686.19	32.77
686.32	0.00
686.46	0.00
686.60	28.09
686.73	0.00
686.87	84.26
687.01	74.90
687.14	11.70
687.28	0.00
687.42	46.81
687.55	72.56
687.69	9.36
687.82	14.04
687.96	79.58
688.10	0.00
688.23	81.92
688.37	56.17
688.50	84.26
688.64	81.92
688.78	37.45
688.91	39.79
689.05	42.13
689.18	30.43
689.32	0.00
689.46	56.17
689.59	49.15
689.73	0.00
689.86	42.13
690.00	77.24
690.13	74.90
690.27	56.17
690.41	0.00
690.54	16.38
690.68	39.79
690.81	81.92
690.95	2.34
691.08	28.09
691.22	117.03
691.35	4.68
691.49	77.24
691.62	18.72
691.76	0.00
691.89	25.75
692.03	44.47
692.16	23.41
692.30	30.43
692.43	0.00
692.57	30.43
692.70	42.13
692.84	110.01
692.97	0.00
693.11	37.45
693.24	0.00
693.38	16.38
693.51	0.00
693.65	0.00
693.78	39.79
693.92	37.45
694.05	39.79
694.19	0.00
694.32	16.38
694.45	46.81
694.59	37.45
694.72	4.68
694.86	88.94
694.99	0.00
695.13	42.13
695.26	14.04
695.39	51.49
695.53	0.00
695.66	91.28
695.80	4.68
695.93	53.83
696.07	56.17
696.20	72.56
696.33	0.00
696.47	0.00
696.60	39.79
696.73	32.77
696.87	65.54
697.00	53.83
697.14	53.83
697.27	21.06
697.40	65.54
697.54	77.24
697.67	0.00
697.80	0.00
697.94	2.34
698.07	65.54
698.21	32.77
698.34	32.77
698.47	23.41
698.61	21.06
698.74	0.00
698.87	11.70
699.01	39.79
699.14	56.17
699.27	11.70
699.40	44.47
699.54	74.90
699.67	98.30
699.80	11.70
699.94	18.72
700.07	39.79
700.20	0.00
700.34	0.00
700.47	72.56
700.60	74.90
700.73	65.54
700.87	39.79
701.00	35.11
701.13	35.11
701.26	0.00
701.40	18.72
701.53	56.17
701.66	0.00
701.79	21.06
701.93	35.11
702.06	60.85
702.19	30.43
702.32	11.70
702.46	18.72
702.59	21.06
702.72	0.00
702.85	74.90
702.99	67.88
703.12	46.81
703.25	70.22
703.38	72.56
703.51	46.81
703.65	37.45
703.78	4.68
703.91	46.81
704.04	0.00
704.17	53.83
704.31	0.00
704.44	23.41
704.57	32.77
704.70	9.36
704.83	44.47
704.96	23.41
705.10	44.47
705.23	0.00
>>>>>End Processed Spectral Data<<<<<
