SpectraSuite Data File
++++++++++++++++++++++++++++++++++++
Date: Fri Oct 04 12:13:33 GMT-05:00 2013
User: price-jones
Dark Spectrum Present: No
Reference Spectrum Present: No
Number of Sampled Component Spectra: 1
Spectrometers: USB2+H05261
Integration Time (usec): 10000 (USB2+H05261)
Spectra Averaged: 1 (USB2+H05261)
Boxcar Smoothing: 0 (USB2+H05261)
Correct for Electrical Dark: No (USB2+H05261)
Strobe/Lamp Enabled: No (USB2+H05261)
Correct for Detector Non-linearity: No (USB2+H05261)
Correct for Stray Light: No (USB2+H05261)
Number of Pixels in Processed Spectrum: 2048
>>>>>Begin Processed Spectral Data<<<<<
365.73	9.36
365.92	9.36
366.12	9.36
366.32	0.00
366.52	0.00
366.72	0.00
366.91	0.00
367.11	0.00
367.31	0.00
367.51	0.00
367.70	0.00
367.90	0.00
368.10	0.00
368.30	0.00
368.49	0.00
368.69	0.00
368.89	0.00
369.09	0.00
369.28	0.00
369.48	0.00
369.68	0.00
369.87	0.00
370.07	0.00
370.27	0.00
370.47	0.00
370.66	0.00
370.86	0.00
371.06	0.00
371.25	21.06
371.45	51.49
371.65	0.00
371.84	25.75
372.04	0.00
372.24	72.56
372.44	21.06
372.63	0.00
372.83	0.00
373.03	35.11
373.22	35.11
373.42	7.02
373.62	86.60
373.81	84.26
374.01	70.22
374.21	77.24
374.40	7.02
374.60	0.00
374.79	18.72
374.99	16.38
375.19	25.75
375.38	4.68
375.58	98.30
375.78	18.72
375.97	32.77
376.17	0.00
376.37	77.24
376.56	67.88
376.76	88.94
376.95	51.49
377.15	9.36
377.35	37.45
377.54	7.02
377.74	37.45
377.93	0.00
378.13	67.88
378.33	14.04
378.52	0.00
378.72	30.43
378.91	65.54
379.11	49.15
379.31	25.75
379.50	0.00
379.70	30.43
379.89	0.00
380.09	28.09
380.28	21.06
380.48	23.41
380.68	49.15
380.87	0.00
381.07	37.45
381.26	37.45
381.46	11.70
381.65	39.79
381.85	23.41
382.04	60.85
382.24	44.47
382.43	28.09
382.63	4.68
382.83	0.00
383.02	0.00
383.22	42.13
383.41	0.00
383.61	0.00
383.80	0.00
384.00	30.43
384.19	37.45
384.39	32.77
384.58	7.02
384.78	0.00
384.97	21.06
385.17	0.00
385.36	0.00
385.56	0.00
385.75	32.77
385.95	0.00
386.14	0.00
386.34	0.00
386.53	53.83
386.72	67.88
386.92	91.28
387.11	16.38
387.31	77.24
387.50	18.72
387.70	0.00
387.89	79.58
388.09	56.17
388.28	46.81
388.48	0.00
388.67	93.62
388.86	0.00
389.06	65.54
389.25	77.24
389.45	2.34
389.64	51.49
389.84	35.11
390.03	16.38
390.22	18.72
390.42	60.85
390.61	39.79
390.81	7.02
391.00	0.00
391.19	25.75
391.39	60.85
391.58	32.77
391.78	0.00
391.97	0.00
392.16	37.45
392.36	0.00
392.55	81.92
392.75	84.26
392.94	51.49
393.13	46.81
393.33	30.43
393.52	86.60
393.71	14.04
393.91	30.43
394.10	28.09
394.29	86.60
394.49	42.13
394.68	0.00
394.88	18.72
395.07	21.06
395.26	51.49
395.46	46.81
395.65	35.11
395.84	0.00
396.04	0.00
396.23	0.00
396.42	77.24
396.62	25.75
396.81	28.09
397.00	11.70
397.19	53.83
397.39	0.00
397.58	0.00
397.77	0.00
397.97	0.00
398.16	53.83
398.35	110.01
398.55	14.04
398.74	21.06
398.93	65.54
399.12	58.51
399.32	60.85
399.51	30.43
399.70	51.49
399.90	56.17
400.09	0.00
400.28	37.45
400.47	74.90
400.67	39.79
400.86	58.51
401.05	0.00
401.24	21.06
401.44	39.79
401.63	30.43
401.82	28.09
402.01	56.17
402.21	23.41
402.40	42.13
402.59	51.49
402.78	4.68
402.97	16.38
403.17	0.00
403.36	49.15
403.55	37.45
403.74	100.64
403.93	42.13
404.13	4.68
404.32	0.00
404.51	110.01
404.70	7.02
404.89	39.79
405.09	0.00
405.28	74.90
405.47	0.00
405.66	81.92
405.85	0.00
406.05	84.26
406.24	11.70
406.43	11.70
406.62	100.64
406.81	74.90
407.00	117.03
407.20	65.54
407.39	67.88
407.58	16.38
407.77	56.17
407.96	28.09
408.15	28.09
408.34	39.79
408.54	4.68
408.73	0.00
408.92	7.02
409.11	63.19
409.30	58.51
409.49	0.00
409.68	98.30
409.87	2.34
410.07	79.58
410.26	67.88
410.45	21.06
410.64	32.77
410.83	14.04
411.02	46.81
411.21	77.24
411.40	0.00
411.59	0.00
411.78	23.41
411.98	74.90
412.17	81.92
412.36	0.00
412.55	44.47
412.74	65.54
412.93	0.00
413.12	0.00
413.31	39.79
413.50	39.79
413.69	0.00
413.88	93.62
414.07	0.00
414.26	0.00
414.45	0.00
414.64	0.00
414.83	39.79
415.02	32.77
415.22	0.00
415.41	37.45
415.60	53.83
415.79	4.68
415.98	53.83
416.17	107.66
416.36	44.47
416.55	18.72
416.74	0.00
416.93	28.09
417.12	65.54
417.31	21.06
417.50	11.70
417.69	44.47
417.88	53.83
418.07	28.09
418.26	0.00
418.45	88.94
418.64	0.00
418.83	0.00
419.02	46.81
419.21	11.70
419.39	21.06
419.58	32.77
419.77	84.26
419.96	74.90
420.15	35.11
420.34	79.58
420.53	0.00
420.72	67.88
420.91	84.26
421.10	70.22
421.29	4.68
421.48	35.11
421.67	53.83
421.86	32.77
422.05	0.00
422.24	49.15
422.43	21.06
422.61	14.04
422.80	0.00
422.99	0.00
423.18	37.45
423.37	0.00
423.56	51.49
423.75	42.13
423.94	53.83
424.13	32.77
424.32	46.81
424.50	14.04
424.69	23.41
424.88	18.72
425.07	0.00
425.26	7.02
425.45	25.75
425.64	105.32
425.83	37.45
426.01	37.45
426.20	0.00
426.39	0.00
426.58	42.13
426.77	28.09
426.96	42.13
427.15	7.02
427.33	23.41
427.52	2.34
427.71	65.54
427.90	0.00
428.09	32.77
428.28	37.45
428.46	63.19
428.65	60.85
428.84	49.15
429.03	9.36
429.22	23.41
429.40	37.45
429.59	0.00
429.78	58.51
429.97	44.47
430.16	0.00
430.34	42.13
430.53	53.83
430.72	4.68
430.91	32.77
431.10	0.00
431.28	0.00
431.47	0.00
431.66	14.04
431.85	32.77
432.03	70.22
432.22	28.09
432.41	42.13
432.60	11.70
432.79	42.13
432.97	35.11
433.16	56.17
433.35	42.13
433.54	51.49
433.72	0.00
433.91	0.00
434.10	0.00
434.28	44.47
434.47	0.00
434.66	0.00
434.85	14.04
435.03	9.36
435.22	30.43
435.41	18.72
435.59	30.43
435.78	14.04
435.97	0.00
436.16	0.00
436.34	84.26
436.53	72.56
436.72	11.70
436.90	74.90
437.09	18.72
437.28	98.30
437.46	0.00
437.65	18.72
437.84	63.19
438.02	32.77
438.21	110.01
438.40	112.35
438.58	88.94
438.77	0.00
438.96	23.41
439.14	84.26
439.33	0.00
439.52	0.00
439.70	53.83
439.89	53.83
440.08	46.81
440.26	63.19
440.45	25.75
440.63	63.19
440.82	30.43
441.01	0.00
441.19	51.49
441.38	56.17
441.57	44.47
441.75	46.81
441.94	51.49
442.12	14.04
442.31	42.13
442.50	44.47
442.68	0.00
442.87	0.00
443.05	9.36
443.24	0.00
443.43	102.98
443.61	28.09
443.80	23.41
443.98	63.19
444.17	84.26
444.35	39.79
444.54	21.06
444.73	30.43
444.91	4.68
445.10	91.28
445.28	74.90
445.47	0.00
445.65	51.49
445.84	23.41
446.02	39.79
446.21	2.34
446.39	117.03
446.58	44.47
446.77	16.38
446.95	60.85
447.14	4.68
447.32	46.81
447.51	21.06
447.69	65.54
447.88	74.90
448.06	11.70
448.25	51.49
448.43	56.17
448.62	0.00
448.80	0.00
448.99	23.41
449.17	53.83
449.36	28.09
449.54	0.00
449.73	23.41
449.91	11.70
450.10	0.00
450.28	53.83
450.46	74.90
450.65	28.09
450.83	0.00
451.02	79.58
451.20	58.51
451.39	28.09
451.57	46.81
451.76	100.64
451.94	63.19
452.13	0.00
452.31	0.00
452.49	21.06
452.68	0.00
452.86	91.28
453.05	39.79
453.23	63.19
453.42	105.32
453.60	77.24
453.78	74.90
453.97	42.13
454.15	9.36
454.34	112.35
454.52	142.77
454.70	4.68
454.89	0.00
455.07	0.00
455.26	28.09
455.44	16.38
455.62	0.00
455.81	93.62
455.99	21.06
456.17	70.22
456.36	0.00
456.54	49.15
456.73	86.60
456.91	23.41
457.09	86.60
457.28	70.22
457.46	42.13
457.64	53.83
457.83	0.00
458.01	0.00
458.19	4.68
458.38	23.41
458.56	72.56
458.74	11.70
458.93	42.13
459.11	77.24
459.29	51.49
459.48	14.04
459.66	79.58
459.84	0.00
460.03	77.24
460.21	86.60
460.39	53.83
460.57	91.28
460.76	77.24
460.94	77.24
461.12	49.15
461.31	11.70
461.49	74.90
461.67	2.34
461.85	23.41
462.04	35.11
462.22	119.37
462.40	42.13
462.59	0.00
462.77	2.34
462.95	0.00
463.13	11.70
463.32	0.00
463.50	70.22
463.68	4.68
463.86	81.92
464.05	63.19
464.23	39.79
464.41	56.17
464.59	0.00
464.78	74.90
464.96	25.75
465.14	9.36
465.32	74.90
465.50	23.41
465.69	65.54
465.87	86.60
466.05	53.83
466.23	18.72
466.41	42.13
466.60	95.96
466.78	53.83
466.96	86.60
467.14	133.41
467.32	39.79
467.51	18.72
467.69	39.79
467.87	95.96
468.05	0.00
468.23	37.45
468.41	35.11
468.60	9.36
468.78	0.00
468.96	81.92
469.14	0.00
469.32	53.83
469.50	16.38
469.69	42.13
469.87	35.11
470.05	37.45
470.23	37.45
470.41	23.41
470.59	70.22
470.77	74.90
470.95	32.77
471.14	95.96
471.32	0.00
471.50	39.79
471.68	44.47
471.86	25.75
472.04	84.26
472.22	4.68
472.40	30.43
472.58	105.32
472.77	0.00
472.95	46.81
473.13	28.09
473.31	53.83
473.49	0.00
473.67	39.79
473.85	37.45
474.03	37.45
474.21	39.79
474.39	121.71
474.57	0.00
474.75	60.85
474.93	0.00
475.12	63.19
475.30	0.00
475.48	30.43
475.66	98.30
475.84	0.00
476.02	0.00
476.20	112.35
476.38	84.26
476.56	63.19
476.74	56.17
476.92	81.92
477.10	63.19
477.28	63.19
477.46	42.13
477.64	65.54
477.82	0.00
478.00	128.73
478.18	86.60
478.36	35.11
478.54	14.04
478.72	0.00
478.90	16.38
479.08	21.06
479.26	98.30
479.44	21.06
479.62	72.56
479.80	11.70
479.98	21.06
480.16	63.19
480.34	84.26
480.52	16.38
480.70	98.30
480.88	98.30
481.06	70.22
481.24	16.38
481.41	37.45
481.59	39.79
481.77	0.00
481.95	56.17
482.13	0.00
482.31	32.77
482.49	30.43
482.67	110.01
482.85	51.49
483.03	93.62
483.21	84.26
483.39	25.75
483.57	0.00
483.74	30.43
483.92	60.85
484.10	46.81
484.28	2.34
484.46	84.26
484.64	49.15
484.82	128.73
485.00	51.49
485.18	14.04
485.35	84.26
485.53	21.06
485.71	53.83
485.89	44.47
486.07	28.09
486.25	18.72
486.43	28.09
486.61	0.00
486.78	32.77
486.96	37.45
487.14	58.51
487.32	44.47
487.50	105.32
487.68	44.47
487.85	2.34
488.03	46.81
488.21	49.15
488.39	95.96
488.57	107.66
488.75	100.64
488.92	18.72
489.10	65.54
489.28	72.56
489.46	56.17
489.64	56.17
489.81	25.75
489.99	7.02
490.17	81.92
490.35	0.00
490.53	56.17
490.70	42.13
490.88	39.79
491.06	4.68
491.24	95.96
491.41	0.00
491.59	56.17
491.77	65.54
491.95	88.94
492.13	9.36
492.30	65.54
492.48	16.38
492.66	65.54
492.84	18.72
493.01	53.83
493.19	72.56
493.37	0.00
493.54	65.54
493.72	49.15
493.90	42.13
494.08	84.26
494.25	56.17
494.43	39.79
494.61	135.75
494.79	37.45
494.96	0.00
495.14	32.77
495.32	0.00
495.49	74.90
495.67	44.47
495.85	91.28
496.02	79.58
496.20	0.00
496.38	65.54
496.55	16.38
496.73	25.75
496.91	7.02
497.09	0.00
497.26	9.36
497.44	65.54
497.62	77.24
497.79	114.69
497.97	44.47
498.14	35.11
498.32	51.49
498.50	128.73
498.67	46.81
498.85	67.88
499.03	23.41
499.20	98.30
499.38	72.56
499.56	14.04
499.73	100.64
499.91	79.58
500.08	51.49
500.26	39.79
500.44	88.94
500.61	23.41
500.79	42.13
500.97	49.15
501.14	16.38
501.32	51.49
501.49	74.90
501.67	28.09
501.84	11.70
502.02	21.06
502.20	84.26
502.37	46.81
502.55	0.00
502.72	35.11
502.90	37.45
503.07	105.32
503.25	86.60
503.43	42.13
503.60	21.06
503.78	0.00
503.95	0.00
504.13	37.45
504.30	30.43
504.48	30.43
504.65	70.22
504.83	23.41
505.01	0.00
505.18	46.81
505.36	46.81
505.53	44.47
505.71	49.15
505.88	21.06
506.06	53.83
506.23	53.83
506.41	77.24
506.58	30.43
506.76	23.41
506.93	114.69
507.11	67.88
507.28	58.51
507.46	28.09
507.63	77.24
507.81	46.81
507.98	126.39
508.16	32.77
508.33	49.15
508.50	32.77
508.68	23.41
508.85	16.38
509.03	65.54
509.20	35.11
509.38	44.47
509.55	84.26
509.73	100.64
509.90	74.90
510.08	25.75
510.25	58.51
510.42	72.56
510.60	56.17
510.77	37.45
510.95	88.94
511.12	14.04
511.30	0.00
511.47	32.77
511.64	72.56
511.82	2.34
511.99	0.00
512.17	74.90
512.34	110.01
512.51	21.06
512.69	53.83
512.86	65.54
513.04	18.72
513.21	44.47
513.38	23.41
513.56	49.15
513.73	16.38
513.90	51.49
514.08	67.88
514.25	37.45
514.43	51.49
514.60	28.09
514.77	14.04
514.95	37.45
515.12	42.13
515.29	67.88
515.47	18.72
515.64	49.15
515.81	107.66
515.99	37.45
516.16	16.38
516.33	105.32
516.51	0.00
516.68	18.72
516.85	49.15
517.03	11.70
517.20	70.22
517.37	74.90
517.54	63.19
517.72	9.36
517.89	86.60
518.06	42.13
518.24	95.96
518.41	0.00
518.58	128.73
518.75	65.54
518.93	53.83
519.10	25.75
519.27	0.00
519.45	14.04
519.62	86.60
519.79	117.03
519.96	39.79
520.14	67.88
520.31	0.00
520.48	0.00
520.65	49.15
520.83	30.43
521.00	86.60
521.17	70.22
521.34	37.45
521.52	124.05
521.69	0.00
521.86	7.02
522.03	9.36
522.20	60.85
522.38	49.15
522.55	74.90
522.72	37.45
522.89	86.60
523.07	72.56
523.24	0.00
523.41	81.92
523.58	58.51
523.75	11.70
523.92	0.00
524.10	14.04
524.27	63.19
524.44	88.94
524.61	39.79
524.78	16.38
524.96	84.26
525.13	74.90
525.30	21.06
525.47	16.38
525.64	70.22
525.81	14.04
525.98	16.38
526.16	105.32
526.33	16.38
526.50	7.02
526.67	51.49
526.84	18.72
527.01	0.00
527.18	32.77
527.36	42.13
527.53	32.77
527.70	74.90
527.87	0.00
528.04	107.66
528.21	65.54
528.38	98.30
528.55	77.24
528.72	102.98
528.89	21.06
529.07	9.36
529.24	72.56
529.41	114.69
529.58	60.85
529.75	60.85
529.92	0.00
530.09	0.00
530.26	32.77
530.43	16.38
530.60	0.00
530.77	105.32
530.94	35.11
531.11	14.04
531.28	21.06
531.46	30.43
531.63	0.00
531.80	74.90
531.97	107.66
532.14	53.83
532.31	60.85
532.48	4.68
532.65	135.75
532.82	67.88
532.99	0.00
533.16	35.11
533.33	93.62
533.50	72.56
533.67	49.15
533.84	77.24
534.01	70.22
534.18	105.32
534.35	44.47
534.52	145.11
534.69	56.17
534.86	46.81
535.03	16.38
535.20	145.11
535.37	35.11
535.54	81.92
535.71	72.56
535.88	56.17
536.05	102.98
536.22	14.04
536.38	0.00
536.55	119.37
536.72	44.47
536.89	23.41
537.06	0.00
537.23	0.00
537.40	74.90
537.57	110.01
537.74	39.79
537.91	60.85
538.08	32.77
538.25	42.13
538.42	30.43
538.59	30.43
538.75	16.38
538.92	51.49
539.09	28.09
539.26	32.77
539.43	84.26
539.60	28.09
539.77	58.51
539.94	107.66
540.11	77.24
540.28	70.22
540.44	0.00
540.61	21.06
540.78	23.41
540.95	81.92
541.12	35.11
541.29	16.38
541.46	32.77
541.62	37.45
541.79	25.75
541.96	79.58
542.13	72.56
542.30	39.79
542.47	93.62
542.63	51.49
542.80	81.92
542.97	51.49
543.14	0.00
543.31	53.83
543.48	49.15
543.64	28.09
543.81	30.43
543.98	32.77
544.15	65.54
544.32	39.79
544.48	63.19
544.65	18.72
544.82	18.72
544.99	11.70
545.16	0.00
545.32	0.00
545.49	81.92
545.66	63.19
545.83	28.09
546.00	46.81
546.16	60.85
546.33	65.54
546.50	63.19
546.67	25.75
546.83	46.81
547.00	51.49
547.17	23.41
547.34	14.04
547.50	93.62
547.67	4.68
547.84	0.00
548.00	0.00
548.17	60.85
548.34	102.98
548.51	37.45
548.67	23.41
548.84	37.45
549.01	79.58
549.18	0.00
549.34	63.19
549.51	0.00
549.68	81.92
549.84	32.77
550.01	16.38
550.18	23.41
550.34	0.00
550.51	0.00
550.68	35.11
550.84	42.13
551.01	58.51
551.18	112.35
551.34	16.38
551.51	72.56
551.68	4.68
551.84	84.26
552.01	53.83
552.18	14.04
552.34	86.60
552.51	30.43
552.68	9.36
552.84	9.36
553.01	84.26
553.18	9.36
553.34	23.41
553.51	84.26
553.67	0.00
553.84	93.62
554.01	84.26
554.17	39.79
554.34	46.81
554.51	81.92
554.67	9.36
554.84	4.68
555.00	2.34
555.17	44.47
555.33	7.02
555.50	0.00
555.67	0.00
555.83	39.79
556.00	0.00
556.16	58.51
556.33	4.68
556.50	32.77
556.66	0.00
556.83	74.90
556.99	74.90
557.16	77.24
557.32	135.75
557.49	0.00
557.65	4.68
557.82	67.88
557.98	46.81
558.15	133.41
558.32	37.45
558.48	95.96
558.65	70.22
558.81	49.15
558.98	81.92
559.14	56.17
559.31	39.79
559.47	0.00
559.64	86.60
559.80	25.75
559.97	18.72
560.13	93.62
560.30	84.26
560.46	46.81
560.63	0.00
560.79	58.51
560.96	56.17
561.12	32.77
561.29	0.00
561.45	28.09
561.61	0.00
561.78	72.56
561.94	86.60
562.11	42.13
562.27	72.56
562.44	14.04
562.60	56.17
562.77	128.73
562.93	14.04
563.10	0.00
563.26	67.88
563.42	18.72
563.59	23.41
563.75	79.58
563.92	32.77
564.08	37.45
564.24	30.43
564.41	0.00
564.57	11.70
564.74	25.75
564.90	32.77
565.07	105.32
565.23	39.79
565.39	30.43
565.56	37.45
565.72	86.60
565.88	0.00
566.05	60.85
566.21	86.60
566.38	58.51
566.54	53.83
566.70	110.01
566.87	35.11
567.03	0.00
567.19	44.47
567.36	0.00
567.52	51.49
567.68	56.17
567.85	107.66
568.01	49.15
568.17	39.79
568.34	81.92
568.50	0.00
568.66	60.85
568.83	56.17
568.99	110.01
569.15	60.85
569.32	60.85
569.48	0.00
569.64	14.04
569.81	11.70
569.97	28.09
570.13	23.41
570.30	65.54
570.46	2.34
570.62	39.79
570.78	58.51
570.95	56.17
571.11	107.66
571.27	100.64
571.43	35.11
571.60	60.85
571.76	0.00
571.92	46.81
572.09	70.22
572.25	70.22
572.41	9.36
572.57	72.56
572.74	88.94
572.90	0.00
573.06	42.13
573.22	0.00
573.38	11.70
573.55	100.64
573.71	0.00
573.87	23.41
574.03	14.04
574.20	25.75
574.36	72.56
574.52	53.83
574.68	46.81
574.84	28.09
575.01	25.75
575.17	0.00
575.33	102.98
575.49	37.45
575.65	72.56
575.82	72.56
575.98	35.11
576.14	105.32
576.30	63.19
576.46	149.79
576.62	14.04
576.79	2.34
576.95	56.17
577.11	74.90
577.27	51.49
577.43	32.77
577.59	0.00
577.75	51.49
577.92	91.28
578.08	79.58
578.24	79.58
578.40	42.13
578.56	35.11
578.72	107.66
578.88	49.15
579.04	79.58
579.21	74.90
579.37	39.79
579.53	65.54
579.69	14.04
579.85	35.11
580.01	21.06
580.17	11.70
580.33	0.00
580.49	42.13
580.65	42.13
580.82	39.79
580.98	65.54
581.14	93.62
581.30	9.36
581.46	28.09
581.62	56.17
581.78	81.92
581.94	2.34
582.10	21.06
582.26	7.02
582.42	32.77
582.58	23.41
582.74	49.15
582.90	37.45
583.06	65.54
583.22	11.70
583.38	30.43
583.54	110.01
583.70	16.38
583.86	18.72
584.02	138.09
584.18	0.00
584.34	30.43
584.50	0.00
584.66	67.88
584.82	88.94
584.98	74.90
585.14	53.83
585.30	23.41
585.46	7.02
585.62	70.22
585.78	46.81
585.94	23.41
586.10	46.81
586.26	18.72
586.42	21.06
586.58	14.04
586.74	7.02
586.90	0.00
587.06	0.00
587.22	39.79
587.38	42.13
587.54	35.11
587.70	65.54
587.86	84.26
588.02	70.22
588.18	25.75
588.34	46.81
588.49	30.43
588.65	21.06
588.81	0.00
588.97	70.22
589.13	0.00
589.29	28.09
589.45	98.30
589.61	0.00
589.77	56.17
589.93	0.00
590.08	49.15
590.24	65.54
590.40	28.09
590.56	58.51
590.72	35.11
590.88	30.43
591.04	98.30
591.20	23.41
591.35	53.83
591.51	18.72
591.67	25.75
591.83	0.00
591.99	42.13
592.15	65.54
592.31	18.72
592.46	18.72
592.62	67.88
592.78	56.17
592.94	21.06
593.10	100.64
593.26	16.38
593.41	39.79
593.57	44.47
593.73	53.83
593.89	25.75
594.05	0.00
594.20	9.36
594.36	81.92
594.52	56.17
594.68	0.00
594.84	35.11
594.99	25.75
595.15	44.47
595.31	30.43
595.47	42.13
595.62	51.49
595.78	28.09
595.94	74.90
596.10	7.02
596.25	9.36
596.41	42.13
596.57	60.85
596.73	14.04
596.88	72.56
597.04	56.17
597.20	11.70
597.36	42.13
597.51	18.72
597.67	42.13
597.83	30.43
597.99	100.64
598.14	0.00
598.30	84.26
598.46	72.56
598.61	0.00
598.77	42.13
598.93	74.90
599.09	18.72
599.24	51.49
599.40	28.09
599.56	56.17
599.71	56.17
599.87	74.90
600.03	67.88
600.18	100.64
600.34	65.54
600.50	95.96
600.65	25.75
600.81	25.75
600.97	65.54
601.12	11.70
601.28	0.00
601.44	23.41
601.59	79.58
601.75	65.54
601.91	46.81
602.06	74.90
602.22	126.39
602.37	49.15
602.53	0.00
602.69	77.24
602.84	35.11
603.00	70.22
603.16	65.54
603.31	0.00
603.47	65.54
603.62	37.45
603.78	18.72
603.94	0.00
604.09	65.54
604.25	133.41
604.40	131.07
604.56	74.90
604.71	0.00
604.87	9.36
605.03	42.13
605.18	11.70
605.34	0.00
605.49	16.38
605.65	2.34
605.80	23.41
605.96	4.68
606.12	32.77
606.27	110.01
606.43	56.17
606.58	11.70
606.74	9.36
606.89	28.09
607.05	65.54
607.20	4.68
607.36	16.38
607.51	14.04
607.67	56.17
607.82	72.56
607.98	65.54
608.13	93.62
608.29	0.00
608.44	79.58
608.60	28.09
608.75	0.00
608.91	18.72
609.06	49.15
609.22	25.75
609.37	0.00
609.53	32.77
609.68	0.00
609.84	42.13
609.99	58.51
610.15	4.68
610.30	70.22
610.46	117.03
610.61	23.41
610.76	105.32
610.92	51.49
611.07	0.00
611.23	30.43
611.38	0.00
611.54	0.00
611.69	0.00
611.84	49.15
612.00	65.54
612.15	14.04
612.31	9.36
612.46	51.49
612.62	7.02
612.77	16.38
612.92	91.28
613.08	56.17
613.23	37.45
613.39	16.38
613.54	67.88
613.69	60.85
613.85	32.77
614.00	42.13
614.15	53.83
614.31	70.22
614.46	39.79
614.62	102.98
614.77	30.43
614.92	72.56
615.08	51.49
615.23	67.88
615.38	0.00
615.54	39.79
615.69	88.94
615.84	16.38
616.00	81.92
616.15	49.15
616.30	105.32
616.46	46.81
616.61	16.38
616.76	0.00
616.92	4.68
617.07	70.22
617.22	79.58
617.37	28.09
617.53	30.43
617.68	46.81
617.83	51.49
617.99	56.17
618.14	65.54
618.29	25.75
618.45	98.30
618.60	63.19
618.75	18.72
618.90	0.00
619.06	9.36
619.21	46.81
619.36	28.09
619.51	58.51
619.67	25.75
619.82	32.77
619.97	56.17
620.12	58.51
620.28	98.30
620.43	32.77
620.58	79.58
620.73	18.72
620.89	65.54
621.04	95.96
621.19	46.81
621.34	46.81
621.49	30.43
621.65	79.58
621.80	42.13
621.95	0.00
622.10	39.79
622.25	11.70
622.41	44.47
622.56	0.00
622.71	23.41
622.86	14.04
623.01	7.02
623.16	30.43
623.32	7.02
623.47	37.45
623.62	49.15
623.77	7.02
623.92	81.92
624.07	30.43
624.23	102.98
624.38	110.01
624.53	63.19
624.68	53.83
624.83	58.51
624.98	35.11
625.13	0.00
625.29	4.68
625.44	42.13
625.59	28.09
625.74	0.00
625.89	23.41
626.04	0.00
626.19	42.13
626.34	74.90
626.49	56.17
626.65	98.30
626.80	58.51
626.95	65.54
627.10	63.19
627.25	74.90
627.40	46.81
627.55	25.75
627.70	39.79
627.85	67.88
628.00	18.72
628.15	0.00
628.30	16.38
628.45	51.49
628.60	18.72
628.76	42.13
628.91	18.72
629.06	121.71
629.21	0.00
629.36	37.45
629.51	86.60
629.66	39.79
629.81	0.00
629.96	11.70
630.11	65.54
630.26	70.22
630.41	74.90
630.56	79.58
630.71	86.60
630.86	105.32
631.01	91.28
631.16	21.06
631.31	42.13
631.46	0.00
631.61	7.02
631.76	2.34
631.91	30.43
632.06	28.09
632.21	42.13
632.36	74.90
632.51	46.81
632.66	16.38
632.81	60.85
632.96	0.00
633.10	25.75
633.25	32.77
633.40	0.00
633.55	37.45
633.70	114.69
633.85	0.00
634.00	72.56
634.15	25.75
634.30	107.66
634.45	0.00
634.60	117.03
634.75	25.75
634.90	79.58
635.05	74.90
635.19	16.38
635.34	23.41
635.49	21.06
635.64	35.11
635.79	105.32
635.94	42.13
636.09	107.66
636.24	16.38
636.39	110.01
636.53	56.17
636.68	7.02
636.83	18.72
636.98	67.88
637.13	46.81
637.28	63.19
637.43	0.00
637.57	32.77
637.72	51.49
637.87	39.79
638.02	37.45
638.17	28.09
638.32	63.19
638.46	0.00
638.61	18.72
638.76	0.00
638.91	35.11
639.06	21.06
639.20	0.00
639.35	49.15
639.50	60.85
639.65	72.56
639.80	72.56
639.94	0.00
640.09	21.06
640.24	28.09
640.39	0.00
640.54	39.79
640.68	56.17
640.83	21.06
640.98	70.22
641.13	25.75
641.27	0.00
641.42	0.00
641.57	135.75
641.72	60.85
641.86	63.19
642.01	0.00
642.16	114.69
642.31	0.00
642.45	42.13
642.60	32.77
642.75	11.70
642.90	14.04
643.04	63.19
643.19	42.13
643.34	25.75
643.48	0.00
643.63	56.17
643.78	65.54
643.93	39.79
644.07	70.22
644.22	30.43
644.37	86.60
644.51	91.28
644.66	70.22
644.81	110.01
644.95	14.04
645.10	51.49
645.25	16.38
645.39	32.77
645.54	16.38
645.69	37.45
645.83	65.54
645.98	51.49
646.13	7.02
646.27	42.13
646.42	70.22
646.57	121.71
646.71	0.00
646.86	53.83
647.00	0.00
647.15	0.00
647.30	39.79
647.44	44.47
647.59	67.88
647.74	4.68
647.88	7.02
648.03	32.77
648.17	0.00
648.32	30.43
648.47	25.75
648.61	39.79
648.76	32.77
648.90	39.79
649.05	74.90
649.20	30.43
649.34	0.00
649.49	4.68
649.63	25.75
649.78	0.00
649.92	53.83
650.07	0.00
650.21	65.54
650.36	4.68
650.51	93.62
650.65	4.68
650.80	16.38
650.94	0.00
651.09	51.49
651.23	72.56
651.38	131.07
651.52	0.00
651.67	0.00
651.81	0.00
651.96	2.34
652.10	46.81
652.25	0.00
652.39	77.24
652.54	93.62
652.68	30.43
652.83	23.41
652.97	0.00
653.12	0.00
653.26	0.00
653.41	56.17
653.55	70.22
653.70	0.00
653.84	49.15
653.99	7.02
654.13	84.26
654.27	0.00
654.42	60.85
654.56	88.94
654.71	77.24
654.85	0.00
655.00	46.81
655.14	67.88
655.29	0.00
655.43	0.00
655.57	70.22
655.72	21.06
655.86	11.70
656.01	9.36
656.15	65.54
656.30	23.41
656.44	65.54
656.58	39.79
656.73	0.00
656.87	11.70
657.01	0.00
657.16	23.41
657.30	28.09
657.45	32.77
657.59	0.00
657.73	0.00
657.88	35.11
658.02	0.00
658.16	4.68
658.31	65.54
658.45	16.38
658.60	0.00
658.74	0.00
658.88	63.19
659.03	37.45
659.17	117.03
659.31	0.00
659.46	58.51
659.60	11.70
659.74	46.81
659.89	7.02
660.03	25.75
660.17	30.43
660.32	95.96
660.46	37.45
660.60	77.24
660.74	63.19
660.89	100.64
661.03	28.09
661.17	77.24
661.32	70.22
661.46	42.13
661.60	126.39
661.74	23.41
661.89	37.45
662.03	44.47
662.17	18.72
662.31	0.00
662.46	67.88
662.60	93.62
662.74	91.28
662.88	37.45
663.03	0.00
663.17	4.68
663.31	44.47
663.45	4.68
663.60	39.79
663.74	0.00
663.88	44.47
664.02	0.00
664.17	121.71
664.31	30.43
664.45	67.88
664.59	42.13
664.73	77.24
664.88	21.06
665.02	65.54
665.16	93.62
665.30	77.24
665.44	25.75
665.59	58.51
665.73	23.41
665.87	65.54
666.01	56.17
666.15	28.09
666.29	18.72
666.44	58.51
666.58	25.75
666.72	42.13
666.86	0.00
667.00	95.96
667.14	28.09
667.28	81.92
667.43	39.79
667.57	46.81
667.71	0.00
667.85	37.45
667.99	30.43
668.13	16.38
668.27	44.47
668.41	91.28
668.56	70.22
668.70	0.00
668.84	39.79
668.98	58.51
669.12	25.75
669.26	42.13
669.40	51.49
669.54	0.00
669.68	56.17
669.82	9.36
669.96	25.75
670.10	0.00
670.25	72.56
670.39	86.60
670.53	42.13
670.67	25.75
670.81	0.00
670.95	49.15
671.09	42.13
671.23	74.90
671.37	0.00
671.51	30.43
671.65	25.75
671.79	16.38
671.93	4.68
672.07	0.00
672.21	9.36
672.35	77.24
672.49	18.72
672.63	49.15
672.77	0.00
672.91	67.88
673.05	23.41
673.19	0.00
673.33	0.00
673.47	2.34
673.61	56.17
673.75	81.92
673.89	0.00
674.03	39.79
674.17	42.13
674.31	37.45
674.45	70.22
674.59	35.11
674.73	16.38
674.87	11.70
675.01	70.22
675.15	72.56
675.29	23.41
675.43	58.51
675.56	44.47
675.70	70.22
675.84	0.00
675.98	77.24
676.12	14.04
676.26	58.51
676.40	7.02
676.54	2.34
676.68	98.30
676.82	23.41
676.96	0.00
677.10	18.72
677.23	39.79
677.37	56.17
677.51	84.26
677.65	67.88
677.79	79.58
677.93	44.47
678.07	21.06
678.21	81.92
678.34	28.09
678.48	67.88
678.62	42.13
678.76	58.51
678.90	39.79
679.04	11.70
679.18	42.13
679.31	91.28
679.45	0.00
679.59	4.68
679.73	35.11
679.87	44.47
680.00	0.00
680.14	107.66
680.28	11.70
680.42	4.68
680.56	0.00
680.70	67.88
680.83	0.00
680.97	0.00
681.11	58.51
681.25	72.56
681.39	18.72
681.52	28.09
681.66	63.19
681.80	88.94
681.94	39.79
682.07	86.60
682.21	0.00
682.35	25.75
682.49	58.51
682.62	81.92
682.76	0.00
682.90	28.09
683.04	58.51
683.17	16.38
683.31	14.04
683.45	56.17
683.59	11.70
683.72	67.88
683.86	28.09
684.00	23.41
684.13	58.51
684.27	28.09
684.41	25.75
684.55	42.13
684.68	86.60
684.82	42.13
684.96	21.06
685.09	35.11
685.23	0.00
685.37	46.81
685.50	65.54
685.64	51.49
685.78	16.38
685.91	51.49
686.05	0.00
686.19	23.41
686.32	0.00
686.46	46.81
686.60	86.60
686.73	51.49
686.87	51.49
687.01	49.15
687.14	4.68
687.28	60.85
687.42	0.00
687.55	4.68
687.69	74.90
687.82	9.36
687.96	0.00
688.10	21.06
688.23	53.83
688.37	23.41
688.50	18.72
688.64	60.85
688.78	74.90
688.91	65.54
689.05	63.19
689.18	0.00
689.32	79.58
689.46	23.41
689.59	18.72
689.73	0.00
689.86	56.17
690.00	37.45
690.13	65.54
690.27	51.49
690.41	16.38
690.54	14.04
690.68	72.56
690.81	0.00
690.95	46.81
691.08	74.90
691.22	37.45
691.35	46.81
691.49	28.09
691.62	42.13
691.76	32.77
691.89	37.45
692.03	23.41
692.16	30.43
692.30	32.77
692.43	0.00
692.57	16.38
692.70	30.43
692.84	42.13
692.97	35.11
693.11	51.49
693.24	0.00
693.38	0.00
693.51	0.00
693.65	37.45
693.78	63.19
693.92	0.00
694.05	63.19
694.19	16.38
694.32	37.45
694.45	25.75
694.59	67.88
694.72	0.00
694.86	0.00
694.99	0.00
695.13	56.17
695.26	28.09
695.39	28.09
695.53	35.11
695.66	39.79
695.80	30.43
695.93	18.72
696.07	79.58
696.20	58.51
696.33	7.02
696.47	21.06
696.60	0.00
696.73	23.41
696.87	0.00
697.00	0.00
697.14	58.51
697.27	49.15
697.40	107.66
697.54	70.22
697.67	0.00
697.80	44.47
697.94	0.00
698.07	0.00
698.21	0.00
698.34	21.06
698.47	4.68
698.61	56.17
698.74	63.19
698.87	65.54
699.01	32.77
699.14	53.83
699.27	37.45
699.40	65.54
699.54	14.04
699.67	53.83
699.80	21.06
699.94	30.43
700.07	49.15
700.20	37.45
700.34	58.51
700.47	72.56
700.60	21.06
700.73	46.81
700.87	56.17
701.00	0.00
701.13	58.51
701.26	70.22
701.40	0.00
701.53	0.00
701.66	0.00
701.79	0.00
701.93	0.00
702.06	35.11
702.19	0.00
702.32	58.51
702.46	70.22
702.59	44.47
702.72	81.92
702.85	0.00
702.99	0.00
703.12	56.17
703.25	35.11
703.38	32.77
703.51	77.24
703.65	30.43
703.78	0.00
703.91	9.36
704.04	0.00
704.17	35.11
704.31	25.75
704.44	0.00
704.57	9.36
704.70	37.45
704.83	30.43
704.96	0.00
705.10	0.00
705.23	39.79
>>>>>End Processed Spectral Data<<<<<
