SpectraSuite Data File
++++++++++++++++++++++++++++++++++++
Date: Fri Oct 04 12:13:45 GMT-05:00 2013
User: price-jones
Dark Spectrum Present: No
Reference Spectrum Present: No
Number of Sampled Component Spectra: 1
Spectrometers: USB2+H05261
Integration Time (usec): 10000 (USB2+H05261)
Spectra Averaged: 1 (USB2+H05261)
Boxcar Smoothing: 0 (USB2+H05261)
Correct for Electrical Dark: No (USB2+H05261)
Strobe/Lamp Enabled: No (USB2+H05261)
Correct for Detector Non-linearity: No (USB2+H05261)
Correct for Stray Light: No (USB2+H05261)
Number of Pixels in Processed Spectrum: 2048
>>>>>Begin Processed Spectral Data<<<<<
365.73	0.00
365.92	0.00
366.12	0.00
366.32	0.00
366.52	0.00
366.72	0.00
366.91	0.00
367.11	0.00
367.31	0.00
367.51	0.00
367.70	0.00
367.90	0.00
368.10	0.00
368.30	0.00
368.49	0.00
368.69	0.00
368.89	0.00
369.09	0.00
369.28	0.00
369.48	0.00
369.68	0.00
369.87	0.00
370.07	0.00
370.27	0.00
370.47	0.00
370.66	0.00
370.86	37.45
371.06	0.00
371.25	0.00
371.45	0.00
371.65	18.72
371.84	9.36
372.04	0.00
372.24	14.04
372.44	9.36
372.63	79.58
372.83	0.00
373.03	9.36
373.22	0.00
373.42	7.02
373.62	4.68
373.81	0.00
374.01	39.79
374.21	2.34
374.40	35.11
374.60	0.00
374.79	21.06
374.99	39.79
375.19	0.00
375.38	0.00
375.58	37.45
375.78	84.26
375.97	0.00
376.17	0.00
376.37	0.00
376.56	0.00
376.76	28.09
376.95	4.68
377.15	0.00
377.35	28.09
377.54	0.00
377.74	46.81
377.93	14.04
378.13	70.22
378.33	51.49
378.52	32.77
378.72	2.34
378.91	0.00
379.11	0.00
379.31	44.47
379.50	0.00
379.70	100.64
379.89	0.00
380.09	0.00
380.28	58.51
380.48	25.75
380.68	0.00
380.87	49.15
381.07	88.94
381.26	42.13
381.46	67.88
381.65	9.36
381.85	0.00
382.04	0.00
382.24	49.15
382.43	28.09
382.63	0.00
382.83	23.41
383.02	28.09
383.22	0.00
383.41	0.00
383.61	2.34
383.80	0.00
384.00	0.00
384.19	60.85
384.39	0.00
384.58	21.06
384.78	14.04
384.97	56.17
385.17	39.79
385.36	0.00
385.56	0.00
385.75	56.17
385.95	7.02
386.14	32.77
386.34	0.00
386.53	32.77
386.72	28.09
386.92	4.68
387.11	58.51
387.31	9.36
387.50	0.00
387.70	25.75
387.89	35.11
388.09	0.00
388.28	0.00
388.48	0.00
388.67	35.11
388.86	74.90
389.06	46.81
389.25	72.56
389.45	0.00
389.64	0.00
389.84	35.11
390.03	39.79
390.22	14.04
390.42	35.11
390.61	0.00
390.81	11.70
391.00	0.00
391.19	0.00
391.39	65.54
391.58	4.68
391.78	0.00
391.97	18.72
392.16	14.04
392.36	0.00
392.55	0.00
392.75	70.22
392.94	128.73
393.13	16.38
393.33	0.00
393.52	0.00
393.71	117.03
393.91	49.15
394.10	0.00
394.29	65.54
394.49	11.70
394.68	35.11
394.88	30.43
395.07	79.58
395.26	79.58
395.46	65.54
395.65	70.22
395.84	21.06
396.04	63.19
396.23	2.34
396.42	14.04
396.62	49.15
396.81	65.54
397.00	67.88
397.19	63.19
397.39	44.47
397.58	63.19
397.77	0.00
397.97	28.09
398.16	14.04
398.35	79.58
398.55	56.17
398.74	7.02
398.93	25.75
399.12	51.49
399.32	35.11
399.51	0.00
399.70	98.30
399.90	67.88
400.09	0.00
400.28	2.34
400.47	0.00
400.67	0.00
400.86	42.13
401.05	0.00
401.24	93.62
401.44	37.45
401.63	37.45
401.82	44.47
402.01	32.77
402.21	0.00
402.40	37.45
402.59	49.15
402.78	2.34
402.97	0.00
403.17	37.45
403.36	0.00
403.55	79.58
403.74	37.45
403.93	0.00
404.13	23.41
404.32	0.00
404.51	23.41
404.70	0.00
404.89	32.77
405.09	44.47
405.28	88.94
405.47	44.47
405.66	0.00
405.85	53.83
406.05	9.36
406.24	35.11
406.43	37.45
406.62	100.64
406.81	18.72
407.00	21.06
407.20	0.00
407.39	7.02
407.58	58.51
407.77	42.13
407.96	77.24
408.15	37.45
408.34	84.26
408.54	25.75
408.73	0.00
408.92	28.09
409.11	9.36
409.30	44.47
409.49	42.13
409.68	56.17
409.87	49.15
410.07	32.77
410.26	14.04
410.45	37.45
410.64	42.13
410.83	53.83
411.02	44.47
411.21	77.24
411.40	63.19
411.59	21.06
411.78	23.41
411.98	37.45
412.17	4.68
412.36	44.47
412.55	4.68
412.74	21.06
412.93	0.00
413.12	0.00
413.31	0.00
413.50	44.47
413.69	11.70
413.88	88.94
414.07	7.02
414.26	44.47
414.45	9.36
414.64	0.00
414.83	21.06
415.02	23.41
415.22	53.83
415.41	11.70
415.60	0.00
415.79	0.00
415.98	107.66
416.17	53.83
416.36	23.41
416.55	46.81
416.74	16.38
416.93	0.00
417.12	86.60
417.31	21.06
417.50	11.70
417.69	30.43
417.88	0.00
418.07	46.81
418.26	0.00
418.45	35.11
418.64	60.85
418.83	9.36
419.02	4.68
419.21	2.34
419.39	53.83
419.58	7.02
419.77	30.43
419.96	0.00
420.15	67.88
420.34	30.43
420.53	44.47
420.72	0.00
420.91	37.45
421.10	18.72
421.29	107.66
421.48	51.49
421.67	0.00
421.86	23.41
422.05	4.68
422.24	88.94
422.43	49.15
422.61	30.43
422.80	42.13
422.99	23.41
423.18	102.98
423.37	35.11
423.56	42.13
423.75	0.00
423.94	0.00
424.13	18.72
424.32	49.15
424.50	98.30
424.69	51.49
424.88	56.17
425.07	44.47
425.26	28.09
425.45	0.00
425.64	51.49
425.83	0.00
426.01	67.88
426.20	0.00
426.39	4.68
426.58	14.04
426.77	32.77
426.96	9.36
427.15	0.00
427.33	9.36
427.52	32.77
427.71	14.04
427.90	51.49
428.09	32.77
428.28	23.41
428.46	35.11
428.65	0.00
428.84	32.77
429.03	32.77
429.22	0.00
429.40	58.51
429.59	0.00
429.78	0.00
429.97	2.34
430.16	67.88
430.34	0.00
430.53	2.34
430.72	0.00
430.91	86.60
431.10	46.81
431.28	2.34
431.47	51.49
431.66	63.19
431.85	25.75
432.03	0.00
432.22	0.00
432.41	58.51
432.60	30.43
432.79	58.51
432.97	37.45
433.16	23.41
433.35	44.47
433.54	0.00
433.72	81.92
433.91	11.70
434.10	67.88
434.28	0.00
434.47	0.00
434.66	0.00
434.85	65.54
435.03	28.09
435.22	2.34
435.41	60.85
435.59	32.77
435.78	30.43
435.97	44.47
436.16	37.45
436.34	0.00
436.53	2.34
436.72	7.02
436.90	0.00
437.09	79.58
437.28	14.04
437.46	84.26
437.65	23.41
437.84	21.06
438.02	25.75
438.21	16.38
438.40	102.98
438.58	25.75
438.77	0.00
438.96	0.00
439.14	42.13
439.33	32.77
439.52	0.00
439.70	0.00
439.89	70.22
440.08	0.00
440.26	39.79
440.45	74.90
440.63	72.56
440.82	4.68
441.01	35.11
441.19	0.00
441.38	4.68
441.57	0.00
441.75	0.00
441.94	37.45
442.12	84.26
442.31	67.88
442.50	2.34
442.68	32.77
442.87	4.68
443.05	0.00
443.24	21.06
443.43	2.34
443.61	0.00
443.80	84.26
443.98	53.83
444.17	46.81
444.35	2.34
444.54	39.79
444.73	35.11
444.91	18.72
445.10	28.09
445.28	60.85
445.47	4.68
445.65	46.81
445.84	46.81
446.02	63.19
446.21	0.00
446.39	70.22
446.58	58.51
446.77	0.00
446.95	28.09
447.14	0.00
447.32	14.04
447.51	16.38
447.69	16.38
447.88	9.36
448.06	28.09
448.25	88.94
448.43	4.68
448.62	35.11
448.80	56.17
448.99	0.00
449.17	0.00
449.36	53.83
449.54	32.77
449.73	86.60
449.91	35.11
450.10	81.92
450.28	9.36
450.46	42.13
450.65	121.71
450.83	98.30
451.02	14.04
451.20	9.36
451.39	79.58
451.57	67.88
451.76	51.49
451.94	46.81
452.13	65.54
452.31	100.64
452.49	74.90
452.68	14.04
452.86	46.81
453.05	25.75
453.23	63.19
453.42	21.06
453.60	21.06
453.78	21.06
453.97	37.45
454.15	74.90
454.34	51.49
454.52	30.43
454.70	56.17
454.89	46.81
455.07	70.22
455.26	56.17
455.44	11.70
455.62	21.06
455.81	70.22
455.99	21.06
456.17	0.00
456.36	35.11
456.54	0.00
456.73	21.06
456.91	65.54
457.09	81.92
457.28	0.00
457.46	0.00
457.64	32.77
457.83	0.00
458.01	9.36
458.19	11.70
458.38	86.60
458.56	0.00
458.74	44.47
458.93	67.88
459.11	42.13
459.29	39.79
459.48	39.79
459.66	14.04
459.84	56.17
460.03	21.06
460.21	4.68
460.39	0.00
460.57	63.19
460.76	0.00
460.94	30.43
461.12	0.00
461.31	39.79
461.49	21.06
461.67	28.09
461.85	7.02
462.04	0.00
462.22	91.28
462.40	51.49
462.59	39.79
462.77	7.02
462.95	70.22
463.13	46.81
463.32	25.75
463.50	0.00
463.68	0.00
463.86	63.19
464.05	23.41
464.23	42.13
464.41	28.09
464.59	0.00
464.78	2.34
464.96	42.13
465.14	35.11
465.32	35.11
465.50	46.81
465.69	53.83
465.87	70.22
466.05	42.13
466.23	16.38
466.41	46.81
466.60	91.28
466.78	25.75
466.96	39.79
467.14	0.00
467.32	51.49
467.51	23.41
467.69	4.68
467.87	91.28
468.05	70.22
468.23	77.24
468.41	72.56
468.60	25.75
468.78	37.45
468.96	0.00
469.14	14.04
469.32	28.09
469.50	16.38
469.69	60.85
469.87	23.41
470.05	28.09
470.23	86.60
470.41	23.41
470.59	56.17
470.77	53.83
470.95	60.85
471.14	49.15
471.32	0.00
471.50	30.43
471.68	30.43
471.86	16.38
472.04	7.02
472.22	60.85
472.40	0.00
472.58	14.04
472.77	0.00
472.95	18.72
473.13	28.09
473.31	21.06
473.49	21.06
473.67	88.94
473.85	14.04
474.03	0.00
474.21	70.22
474.39	46.81
474.57	60.85
474.75	16.38
474.93	0.00
475.12	2.34
475.30	42.13
475.48	98.30
475.66	28.09
475.84	35.11
476.02	37.45
476.20	18.72
476.38	0.00
476.56	65.54
476.74	23.41
476.92	35.11
477.10	0.00
477.28	65.54
477.46	35.11
477.64	44.47
477.82	46.81
478.00	49.15
478.18	9.36
478.36	16.38
478.54	21.06
478.72	7.02
478.90	14.04
479.08	9.36
479.26	30.43
479.44	102.98
479.62	0.00
479.80	21.06
479.98	35.11
480.16	16.38
480.34	0.00
480.52	37.45
480.70	51.49
480.88	79.58
481.06	25.75
481.24	0.00
481.41	98.30
481.59	0.00
481.77	86.60
481.95	44.47
482.13	100.64
482.31	32.77
482.49	51.49
482.67	39.79
482.85	77.24
483.03	0.00
483.21	63.19
483.39	114.69
483.57	32.77
483.74	100.64
483.92	70.22
484.10	0.00
484.28	98.30
484.46	95.96
484.64	0.00
484.82	30.43
485.00	0.00
485.18	11.70
485.35	37.45
485.53	56.17
485.71	37.45
485.89	4.68
486.07	58.51
486.25	32.77
486.43	21.06
486.61	23.41
486.78	110.01
486.96	37.45
487.14	56.17
487.32	105.32
487.50	14.04
487.68	16.38
487.85	14.04
488.03	56.17
488.21	9.36
488.39	79.58
488.57	28.09
488.75	39.79
488.92	11.70
489.10	23.41
489.28	0.00
489.46	74.90
489.64	60.85
489.81	67.88
489.99	119.37
490.17	0.00
490.35	0.00
490.53	21.06
490.70	67.88
490.88	21.06
491.06	98.30
491.24	114.69
491.41	28.09
491.59	35.11
491.77	58.51
491.95	25.75
492.13	58.51
492.30	58.51
492.48	0.00
492.66	0.00
492.84	30.43
493.01	30.43
493.19	60.85
493.37	56.17
493.54	49.15
493.72	18.72
493.90	107.66
494.08	23.41
494.25	21.06
494.43	100.64
494.61	9.36
494.79	0.00
494.96	63.19
495.14	18.72
495.32	21.06
495.49	42.13
495.67	58.51
495.85	37.45
496.02	56.17
496.20	51.49
496.38	9.36
496.55	23.41
496.73	60.85
496.91	81.92
497.09	35.11
497.26	86.60
497.44	53.83
497.62	72.56
497.79	65.54
497.97	0.00
498.14	42.13
498.32	53.83
498.50	0.00
498.67	0.00
498.85	60.85
499.03	70.22
499.20	53.83
499.38	112.35
499.56	98.30
499.73	105.32
499.91	25.75
500.08	18.72
500.26	0.00
500.44	46.81
500.61	63.19
500.79	25.75
500.97	30.43
501.14	58.51
501.32	4.68
501.49	49.15
501.67	14.04
501.84	46.81
502.02	0.00
502.20	46.81
502.37	37.45
502.55	23.41
502.72	60.85
502.90	30.43
503.07	84.26
503.25	145.11
503.43	49.15
503.60	16.38
503.78	30.43
503.95	65.54
504.13	63.19
504.30	39.79
504.48	2.34
504.65	35.11
504.83	56.17
505.01	53.83
505.18	56.17
505.36	56.17
505.53	51.49
505.71	30.43
505.88	56.17
506.06	44.47
506.23	53.83
506.41	42.13
506.58	67.88
506.76	32.77
506.93	23.41
507.11	53.83
507.28	23.41
507.46	56.17
507.63	18.72
507.81	77.24
507.98	0.00
508.16	28.09
508.33	9.36
508.50	77.24
508.68	119.37
508.85	133.41
509.03	67.88
509.20	30.43
509.38	28.09
509.55	58.51
509.73	9.36
509.90	18.72
510.08	60.85
510.25	63.19
510.42	51.49
510.60	51.49
510.77	98.30
510.95	44.47
511.12	63.19
511.30	84.26
511.47	49.15
511.64	56.17
511.82	44.47
511.99	11.70
512.17	37.45
512.34	79.58
512.51	58.51
512.69	60.85
512.86	9.36
513.04	42.13
513.21	46.81
513.38	105.32
513.56	72.56
513.73	91.28
513.90	25.75
514.08	32.77
514.25	44.47
514.43	16.38
514.60	46.81
514.77	51.49
514.95	32.77
515.12	46.81
515.29	11.70
515.47	14.04
515.64	2.34
515.81	44.47
515.99	0.00
516.16	81.92
516.33	70.22
516.51	21.06
516.68	11.70
516.85	39.79
517.03	0.00
517.20	18.72
517.37	0.00
517.54	18.72
517.72	14.04
517.89	44.47
518.06	91.28
518.24	46.81
518.41	0.00
518.58	44.47
518.75	18.72
518.93	4.68
519.10	44.47
519.27	70.22
519.45	79.58
519.62	53.83
519.79	39.79
519.96	35.11
520.14	67.88
520.31	23.41
520.48	53.83
520.65	42.13
520.83	65.54
521.00	39.79
521.17	21.06
521.34	88.94
521.52	0.00
521.69	0.00
521.86	67.88
522.03	0.00
522.20	77.24
522.38	86.60
522.55	51.49
522.72	18.72
522.89	42.13
523.07	39.79
523.24	100.64
523.41	56.17
523.58	35.11
523.75	0.00
523.92	53.83
524.10	14.04
524.27	49.15
524.44	102.98
524.61	79.58
524.78	95.96
524.96	58.51
525.13	49.15
525.30	21.06
525.47	46.81
525.64	0.00
525.81	42.13
525.98	77.24
526.16	30.43
526.33	58.51
526.50	0.00
526.67	95.96
526.84	14.04
527.01	42.13
527.18	100.64
527.36	14.04
527.53	84.26
527.70	51.49
527.87	28.09
528.04	56.17
528.21	84.26
528.38	11.70
528.55	42.13
528.72	56.17
528.89	32.77
529.07	46.81
529.24	0.00
529.41	42.13
529.58	51.49
529.75	28.09
529.92	28.09
530.09	53.83
530.26	18.72
530.43	11.70
530.60	35.11
530.77	0.00
530.94	25.75
531.11	58.51
531.28	84.26
531.46	0.00
531.63	0.00
531.80	49.15
531.97	28.09
532.14	93.62
532.31	0.00
532.48	32.77
532.65	18.72
532.82	46.81
532.99	49.15
533.16	37.45
533.33	0.00
533.50	28.09
533.67	35.11
533.84	18.72
534.01	0.00
534.18	0.00
534.35	67.88
534.52	60.85
534.69	46.81
534.86	30.43
535.03	9.36
535.20	91.28
535.37	9.36
535.54	86.60
535.71	9.36
535.88	23.41
536.05	81.92
536.22	63.19
536.38	0.00
536.55	107.66
536.72	39.79
536.89	35.11
537.06	70.22
537.23	110.01
537.40	2.34
537.57	23.41
537.74	67.88
537.91	91.28
538.08	44.47
538.25	32.77
538.42	28.09
538.59	86.60
538.75	49.15
538.92	110.01
539.09	0.00
539.26	0.00
539.43	30.43
539.60	65.54
539.77	9.36
539.94	7.02
540.11	16.38
540.28	81.92
540.44	4.68
540.61	21.06
540.78	53.83
540.95	81.92
541.12	18.72
541.29	74.90
541.46	25.75
541.62	51.49
541.79	49.15
541.96	37.45
542.13	42.13
542.30	0.00
542.47	25.75
542.63	88.94
542.80	37.45
542.97	53.83
543.14	35.11
543.31	21.06
543.48	7.02
543.64	67.88
543.81	37.45
543.98	70.22
544.15	91.28
544.32	11.70
544.48	0.00
544.65	14.04
544.82	65.54
544.99	23.41
545.16	7.02
545.32	93.62
545.49	60.85
545.66	91.28
545.83	0.00
546.00	119.37
546.16	28.09
546.33	65.54
546.50	37.45
546.67	98.30
546.83	25.75
547.00	14.04
547.17	53.83
547.34	0.00
547.50	39.79
547.67	32.77
547.84	0.00
548.00	32.77
548.17	114.69
548.34	72.56
548.51	0.00
548.67	32.77
548.84	53.83
549.01	25.75
549.18	79.58
549.34	74.90
549.51	67.88
549.68	95.96
549.84	0.00
550.01	79.58
550.18	72.56
550.34	53.83
550.51	23.41
550.68	49.15
550.84	16.38
551.01	30.43
551.18	39.79
551.34	37.45
551.51	72.56
551.68	93.62
551.84	58.51
552.01	105.32
552.18	39.79
552.34	44.47
552.51	49.15
552.68	77.24
552.84	100.64
553.01	28.09
553.18	74.90
553.34	56.17
553.51	0.00
553.67	67.88
553.84	28.09
554.01	30.43
554.17	72.56
554.34	98.30
554.51	121.71
554.67	110.01
554.84	11.70
555.00	81.92
555.17	49.15
555.33	35.11
555.50	77.24
555.67	70.22
555.83	117.03
556.00	67.88
556.16	107.66
556.33	56.17
556.50	4.68
556.66	35.11
556.83	102.98
556.99	60.85
557.16	58.51
557.32	63.19
557.49	91.28
557.65	93.62
557.82	74.90
557.98	46.81
558.15	30.43
558.32	30.43
558.48	46.81
558.65	0.00
558.81	37.45
558.98	93.62
559.14	46.81
559.31	25.75
559.47	30.43
559.64	86.60
559.80	37.45
559.97	149.79
560.13	21.06
560.30	110.01
560.46	44.47
560.63	0.00
560.79	42.13
560.96	95.96
561.12	18.72
561.29	84.26
561.45	70.22
561.61	70.22
561.78	49.15
561.94	114.69
562.11	21.06
562.27	39.79
562.44	23.41
562.60	35.11
562.77	16.38
562.93	35.11
563.10	77.24
563.26	51.49
563.42	67.88
563.59	77.24
563.75	67.88
563.92	42.13
564.08	35.11
564.24	49.15
564.41	0.00
564.57	46.81
564.74	56.17
564.90	28.09
565.07	37.45
565.23	53.83
565.39	102.98
565.56	63.19
565.72	53.83
565.88	28.09
566.05	9.36
566.21	56.17
566.38	0.00
566.54	53.83
566.70	14.04
566.87	77.24
567.03	112.35
567.19	42.13
567.36	39.79
567.52	39.79
567.68	81.92
567.85	74.90
568.01	25.75
568.17	56.17
568.34	28.09
568.50	93.62
568.66	65.54
568.83	23.41
568.99	56.17
569.15	119.37
569.32	0.00
569.48	32.77
569.64	0.00
569.81	42.13
569.97	124.05
570.13	98.30
570.30	53.83
570.46	56.17
570.62	18.72
570.78	86.60
570.95	60.85
571.11	79.58
571.27	56.17
571.43	81.92
571.60	100.64
571.76	42.13
571.92	84.26
572.09	0.00
572.25	32.77
572.41	46.81
572.57	11.70
572.74	18.72
572.90	0.00
573.06	14.04
573.22	88.94
573.38	21.06
573.55	0.00
573.71	56.17
573.87	46.81
574.03	42.13
574.20	88.94
574.36	23.41
574.52	7.02
574.68	124.05
574.84	79.58
575.01	98.30
575.17	9.36
575.33	121.71
575.49	21.06
575.65	42.13
575.82	28.09
575.98	28.09
576.14	46.81
576.30	16.38
576.46	25.75
576.62	58.51
576.79	56.17
576.95	0.00
577.11	37.45
577.27	51.49
577.43	0.00
577.59	11.70
577.75	63.19
577.92	25.75
578.08	51.49
578.24	67.88
578.40	32.77
578.56	67.88
578.72	72.56
578.88	58.51
579.04	0.00
579.21	51.49
579.37	81.92
579.53	9.36
579.69	56.17
579.85	81.92
580.01	67.88
580.17	72.56
580.33	72.56
580.49	21.06
580.65	42.13
580.82	23.41
580.98	79.58
581.14	0.00
581.30	44.47
581.46	49.15
581.62	18.72
581.78	0.00
581.94	9.36
582.10	28.09
582.26	0.00
582.42	25.75
582.58	42.13
582.74	0.00
582.90	74.90
583.06	37.45
583.22	44.47
583.38	0.00
583.54	9.36
583.70	25.75
583.86	28.09
584.02	0.00
584.18	110.01
584.34	49.15
584.50	11.70
584.66	65.54
584.82	30.43
584.98	0.00
585.14	7.02
585.30	28.09
585.46	79.58
585.62	11.70
585.78	65.54
585.94	35.11
586.10	0.00
586.26	46.81
586.42	35.11
586.58	81.92
586.74	117.03
586.90	11.70
587.06	77.24
587.22	70.22
587.38	18.72
587.54	88.94
587.70	51.49
587.86	44.47
588.02	56.17
588.18	58.51
588.34	23.41
588.49	9.36
588.65	23.41
588.81	93.62
588.97	7.02
589.13	0.00
589.29	39.79
589.45	56.17
589.61	9.36
589.77	84.26
589.93	72.56
590.08	42.13
590.24	16.38
590.40	46.81
590.56	65.54
590.72	35.11
590.88	49.15
591.04	88.94
591.20	74.90
591.35	0.00
591.51	46.81
591.67	4.68
591.83	0.00
591.99	18.72
592.15	9.36
592.31	18.72
592.46	0.00
592.62	23.41
592.78	7.02
592.94	79.58
593.10	4.68
593.26	93.62
593.41	0.00
593.57	28.09
593.73	63.19
593.89	0.00
594.05	112.35
594.20	16.38
594.36	70.22
594.52	0.00
594.68	117.03
594.84	37.45
594.99	2.34
595.15	0.00
595.31	0.00
595.47	56.17
595.62	65.54
595.78	70.22
595.94	67.88
596.10	79.58
596.25	16.38
596.41	56.17
596.57	16.38
596.73	60.85
596.88	102.98
597.04	77.24
597.20	25.75
597.36	35.11
597.51	14.04
597.67	51.49
597.83	79.58
597.99	67.88
598.14	56.17
598.30	14.04
598.46	51.49
598.61	60.85
598.77	11.70
598.93	0.00
599.09	0.00
599.24	60.85
599.40	16.38
599.56	0.00
599.71	37.45
599.87	23.41
600.03	63.19
600.18	28.09
600.34	65.54
600.50	28.09
600.65	11.70
600.81	49.15
600.97	28.09
601.12	95.96
601.28	46.81
601.44	77.24
601.59	67.88
601.75	0.00
601.91	16.38
602.06	21.06
602.22	0.00
602.37	56.17
602.53	128.73
602.69	79.58
602.84	124.05
603.00	81.92
603.16	30.43
603.31	14.04
603.47	0.00
603.62	21.06
603.78	28.09
603.94	67.88
604.09	44.47
604.25	23.41
604.40	0.00
604.56	0.00
604.71	49.15
604.87	39.79
605.03	0.00
605.18	2.34
605.34	0.00
605.49	60.85
605.65	30.43
605.80	37.45
605.96	39.79
606.12	42.13
606.27	44.47
606.43	77.24
606.58	58.51
606.74	112.35
606.89	0.00
607.05	112.35
607.20	7.02
607.36	11.70
607.51	39.79
607.67	93.62
607.82	0.00
607.98	37.45
608.13	4.68
608.29	7.02
608.44	39.79
608.60	63.19
608.75	42.13
608.91	53.83
609.06	60.85
609.22	70.22
609.37	25.75
609.53	56.17
609.68	58.51
609.84	49.15
609.99	65.54
610.15	28.09
610.30	28.09
610.46	72.56
610.61	84.26
610.76	60.85
610.92	42.13
611.07	46.81
611.23	110.01
611.38	30.43
611.54	11.70
611.69	56.17
611.84	25.75
612.00	67.88
612.15	74.90
612.31	152.13
612.46	25.75
612.62	39.79
612.77	23.41
612.92	18.72
613.08	65.54
613.23	25.75
613.39	72.56
613.54	0.00
613.69	70.22
613.85	63.19
614.00	102.98
614.15	32.77
614.31	25.75
614.46	21.06
614.62	58.51
614.77	72.56
614.92	39.79
615.08	25.75
615.23	23.41
615.38	72.56
615.54	35.11
615.69	4.68
615.84	77.24
616.00	0.00
616.15	37.45
616.30	25.75
616.46	0.00
616.61	14.04
616.76	0.00
616.92	77.24
617.07	53.83
617.22	0.00
617.37	0.00
617.53	18.72
617.68	77.24
617.83	0.00
617.99	37.45
618.14	74.90
618.29	0.00
618.45	16.38
618.60	44.47
618.75	42.13
618.90	14.04
619.06	0.00
619.21	110.01
619.36	65.54
619.51	4.68
619.67	0.00
619.82	37.45
619.97	11.70
620.12	53.83
620.28	0.00
620.43	37.45
620.58	81.92
620.73	0.00
620.89	35.11
621.04	95.96
621.19	51.49
621.34	2.34
621.49	67.88
621.65	0.00
621.80	49.15
621.95	74.90
622.10	49.15
622.25	0.00
622.41	42.13
622.56	0.00
622.71	0.00
622.86	65.54
623.01	119.37
623.16	67.88
623.32	49.15
623.47	21.06
623.62	0.00
623.77	63.19
623.92	105.32
624.07	32.77
624.23	39.79
624.38	35.11
624.53	28.09
624.68	7.02
624.83	53.83
624.98	60.85
625.13	93.62
625.29	25.75
625.44	0.00
625.59	0.00
625.74	7.02
625.89	35.11
626.04	102.98
626.19	30.43
626.34	14.04
626.49	42.13
626.65	2.34
626.80	86.60
626.95	16.38
627.10	18.72
627.25	16.38
627.40	25.75
627.55	0.00
627.70	79.58
627.85	72.56
628.00	65.54
628.15	25.75
628.30	72.56
628.45	56.17
628.60	51.49
628.76	91.28
628.91	21.06
629.06	21.06
629.21	63.19
629.36	44.47
629.51	0.00
629.66	0.00
629.81	72.56
629.96	65.54
630.11	35.11
630.26	35.11
630.41	51.49
630.56	9.36
630.71	18.72
630.86	42.13
631.01	7.02
631.16	0.00
631.31	0.00
631.46	14.04
631.61	0.00
631.76	65.54
631.91	63.19
632.06	39.79
632.21	21.06
632.36	72.56
632.51	28.09
632.66	18.72
632.81	46.81
632.96	79.58
633.10	67.88
633.25	46.81
633.40	14.04
633.55	46.81
633.70	18.72
633.85	53.83
634.00	166.18
634.15	0.00
634.30	32.77
634.45	0.00
634.60	42.13
634.75	0.00
634.90	100.64
635.05	2.34
635.19	0.00
635.34	21.06
635.49	56.17
635.64	77.24
635.79	0.00
635.94	44.47
636.09	0.00
636.24	56.17
636.39	84.26
636.53	28.09
636.68	0.00
636.83	95.96
636.98	65.54
637.13	65.54
637.28	35.11
637.43	79.58
637.57	72.56
637.72	53.83
637.87	100.64
638.02	21.06
638.17	53.83
638.32	18.72
638.46	95.96
638.61	11.70
638.76	0.00
638.91	60.85
639.06	0.00
639.20	21.06
639.35	60.85
639.50	98.30
639.65	102.98
639.80	32.77
639.94	21.06
640.09	0.00
640.24	0.00
640.39	25.75
640.54	42.13
640.68	72.56
640.83	32.77
640.98	65.54
641.13	79.58
641.27	51.49
641.42	0.00
641.57	23.41
641.72	42.13
641.86	16.38
642.01	0.00
642.16	42.13
642.31	0.00
642.45	35.11
642.60	79.58
642.75	0.00
642.90	0.00
643.04	7.02
643.19	74.90
643.34	37.45
643.48	70.22
643.63	53.83
643.78	91.28
643.93	0.00
644.07	18.72
644.22	65.54
644.37	0.00
644.51	0.00
644.66	114.69
644.81	32.77
644.95	49.15
645.10	11.70
645.25	44.47
645.39	84.26
645.54	30.43
645.69	37.45
645.83	21.06
645.98	42.13
646.13	18.72
646.27	42.13
646.42	32.77
646.57	102.98
646.71	32.77
646.86	30.43
647.00	46.81
647.15	4.68
647.30	11.70
647.44	58.51
647.59	0.00
647.74	42.13
647.88	44.47
648.03	60.85
648.17	70.22
648.32	23.41
648.47	11.70
648.61	49.15
648.76	79.58
648.90	44.47
649.05	0.00
649.20	14.04
649.34	0.00
649.49	0.00
649.63	93.62
649.78	63.19
649.92	11.70
650.07	14.04
650.21	77.24
650.36	70.22
650.51	35.11
650.65	25.75
650.80	28.09
650.94	51.49
651.09	0.00
651.23	32.77
651.38	0.00
651.52	0.00
651.67	42.13
651.81	81.92
651.96	7.02
652.10	14.04
652.25	77.24
652.39	16.38
652.54	42.13
652.68	128.73
652.83	86.60
652.97	44.47
653.12	35.11
653.26	21.06
653.41	7.02
653.55	25.75
653.70	0.00
653.84	0.00
653.99	0.00
654.13	44.47
654.27	30.43
654.42	56.17
654.56	49.15
654.71	65.54
654.85	32.77
655.00	58.51
655.14	39.79
655.29	84.26
655.43	46.81
655.57	0.00
655.72	117.03
655.86	46.81
656.01	35.11
656.15	77.24
656.30	98.30
656.44	79.58
656.58	23.41
656.73	35.11
656.87	0.00
657.01	74.90
657.16	135.75
657.30	65.54
657.45	7.02
657.59	21.06
657.73	4.68
657.88	23.41
658.02	23.41
658.16	44.47
658.31	58.51
658.45	16.38
658.60	25.75
658.74	56.17
658.88	7.02
659.03	28.09
659.17	72.56
659.31	84.26
659.46	4.68
659.60	0.00
659.74	25.75
659.89	2.34
660.03	37.45
660.17	23.41
660.32	21.06
660.46	0.00
660.60	95.96
660.74	63.19
660.89	49.15
661.03	0.00
661.17	56.17
661.32	100.64
661.46	11.70
661.60	65.54
661.74	56.17
661.89	100.64
662.03	79.58
662.17	51.49
662.31	0.00
662.46	16.38
662.60	42.13
662.74	51.49
662.88	72.56
663.03	7.02
663.17	32.77
663.31	25.75
663.45	28.09
663.60	0.00
663.74	0.00
663.88	44.47
664.02	0.00
664.17	0.00
664.31	23.41
664.45	35.11
664.59	0.00
664.73	0.00
664.88	14.04
665.02	35.11
665.16	58.51
665.30	51.49
665.44	0.00
665.59	7.02
665.73	32.77
665.87	88.94
666.01	28.09
666.15	58.51
666.29	18.72
666.44	37.45
666.58	9.36
666.72	79.58
666.86	28.09
667.00	74.90
667.14	77.24
667.28	23.41
667.43	16.38
667.57	21.06
667.71	14.04
667.85	30.43
667.99	60.85
668.13	25.75
668.27	30.43
668.41	60.85
668.56	4.68
668.70	88.94
668.84	2.34
668.98	107.66
669.12	67.88
669.26	60.85
669.40	0.00
669.54	84.26
669.68	0.00
669.82	0.00
669.96	53.83
670.10	88.94
670.25	32.77
670.39	32.77
670.53	0.00
670.67	23.41
670.81	37.45
670.95	44.47
671.09	88.94
671.23	51.49
671.37	39.79
671.51	39.79
671.65	11.70
671.79	0.00
671.93	95.96
672.07	72.56
672.21	28.09
672.35	37.45
672.49	0.00
672.63	107.66
672.77	0.00
672.91	37.45
673.05	65.54
673.19	60.85
673.33	0.00
673.47	23.41
673.61	58.51
673.75	65.54
673.89	42.13
674.03	42.13
674.17	81.92
674.31	0.00
674.45	11.70
674.59	25.75
674.73	28.09
674.87	11.70
675.01	37.45
675.15	0.00
675.29	0.00
675.43	88.94
675.56	91.28
675.70	74.90
675.84	0.00
675.98	21.06
676.12	0.00
676.26	30.43
676.40	0.00
676.54	30.43
676.68	42.13
676.82	0.00
676.96	11.70
677.10	44.47
677.23	0.00
677.37	9.36
677.51	0.00
677.65	42.13
677.79	53.83
677.93	60.85
678.07	25.75
678.21	18.72
678.34	0.00
678.48	0.00
678.62	21.06
678.76	2.34
678.90	30.43
679.04	49.15
679.18	0.00
679.31	30.43
679.45	18.72
679.59	25.75
679.73	0.00
679.87	37.45
680.00	67.88
680.14	0.00
680.28	63.19
680.42	79.58
680.56	32.77
680.70	42.13
680.83	25.75
680.97	74.90
681.11	0.00
681.25	0.00
681.39	16.38
681.52	74.90
681.66	0.00
681.80	18.72
681.94	23.41
682.07	28.09
682.21	11.70
682.35	39.79
682.49	65.54
682.62	25.75
682.76	9.36
682.90	16.38
683.04	37.45
683.17	51.49
683.31	51.49
683.45	100.64
683.59	74.90
683.72	16.38
683.86	0.00
684.00	4.68
684.13	0.00
684.27	0.00
684.41	124.05
684.55	30.43
684.68	88.94
684.82	79.58
684.96	63.19
685.09	65.54
685.23	0.00
685.37	18.72
685.50	25.75
685.64	30.43
685.78	0.00
685.91	7.02
686.05	28.09
686.19	44.47
686.32	18.72
686.46	98.30
686.60	0.00
686.73	30.43
686.87	0.00
687.01	9.36
687.14	30.43
687.28	37.45
687.42	11.70
687.55	0.00
687.69	65.54
687.82	42.13
687.96	44.47
688.10	60.85
688.23	11.70
688.37	23.41
688.50	0.00
688.64	0.00
688.78	14.04
688.91	0.00
689.05	0.00
689.18	9.36
689.32	0.00
689.46	56.17
689.59	32.77
689.73	0.00
689.86	0.00
690.00	77.24
690.13	0.00
690.27	7.02
690.41	37.45
690.54	14.04
690.68	77.24
690.81	39.79
690.95	0.00
691.08	128.73
691.22	14.04
691.35	95.96
691.49	4.68
691.62	63.19
691.76	63.19
691.89	84.26
692.03	51.49
692.16	4.68
692.30	37.45
692.43	16.38
692.57	0.00
692.70	25.75
692.84	49.15
692.97	110.01
693.11	0.00
693.24	0.00
693.38	2.34
693.51	23.41
693.65	128.73
693.78	0.00
693.92	42.13
694.05	30.43
694.19	21.06
694.32	28.09
694.45	11.70
694.59	70.22
694.72	53.83
694.86	30.43
694.99	23.41
695.13	100.64
695.26	0.00
695.39	0.00
695.53	32.77
695.66	23.41
695.80	70.22
695.93	25.75
696.07	98.30
696.20	0.00
696.33	0.00
696.47	42.13
696.60	95.96
696.73	30.43
696.87	35.11
697.00	4.68
697.14	37.45
697.27	28.09
697.40	0.00
697.54	93.62
697.67	119.37
697.80	79.58
697.94	14.04
698.07	0.00
698.21	51.49
698.34	98.30
698.47	65.54
698.61	0.00
698.74	0.00
698.87	91.28
699.01	91.28
699.14	4.68
699.27	44.47
699.40	95.96
699.54	88.94
699.67	63.19
699.80	21.06
699.94	35.11
700.07	0.00
700.20	18.72
700.34	51.49
700.47	2.34
700.60	11.70
700.73	32.77
700.87	112.35
701.00	46.81
701.13	0.00
701.26	56.17
701.40	25.75
701.53	39.79
701.66	14.04
701.79	114.69
701.93	0.00
702.06	23.41
702.19	0.00
702.32	0.00
702.46	18.72
702.59	46.81
702.72	56.17
702.85	7.02
702.99	0.00
703.12	67.88
703.25	0.00
703.38	21.06
703.51	0.00
703.65	0.00
703.78	0.00
703.91	0.00
704.04	0.00
704.17	79.58
704.31	16.38
704.44	60.85
704.57	0.00
704.70	0.00
704.83	18.72
704.96	77.24
705.10	30.43
705.23	124.05
>>>>>End Processed Spectral Data<<<<<
