SpectraSuite Data File
++++++++++++++++++++++++++++++++++++
Date: Fri Oct 04 12:13:34 GMT-05:00 2013
User: price-jones
Dark Spectrum Present: No
Reference Spectrum Present: No
Number of Sampled Component Spectra: 1
Spectrometers: USB2+H05261
Integration Time (usec): 10000 (USB2+H05261)
Spectra Averaged: 1 (USB2+H05261)
Boxcar Smoothing: 0 (USB2+H05261)
Correct for Electrical Dark: No (USB2+H05261)
Strobe/Lamp Enabled: No (USB2+H05261)
Correct for Detector Non-linearity: No (USB2+H05261)
Correct for Stray Light: No (USB2+H05261)
Number of Pixels in Processed Spectrum: 2048
>>>>>Begin Processed Spectral Data<<<<<
365.73	0.00
365.92	0.00
366.12	0.00
366.32	0.00
366.52	0.00
366.72	0.00
366.91	0.00
367.11	0.00
367.31	0.00
367.51	0.00
367.70	0.00
367.90	0.00
368.10	0.00
368.30	0.00
368.49	0.00
368.69	0.00
368.89	0.00
369.09	0.00
369.28	0.00
369.48	0.00
369.68	0.00
369.87	0.00
370.07	0.00
370.27	0.00
370.47	0.00
370.66	0.00
370.86	0.00
371.06	0.00
371.25	0.00
371.45	0.00
371.65	0.00
371.84	0.00
372.04	0.00
372.24	9.36
372.44	44.47
372.63	18.72
372.83	46.81
373.03	42.13
373.22	30.43
373.42	0.00
373.62	60.85
373.81	79.58
374.01	0.00
374.21	11.70
374.40	63.19
374.60	0.00
374.79	51.49
374.99	46.81
375.19	0.00
375.38	0.00
375.58	32.77
375.78	18.72
375.97	23.41
376.17	107.66
376.37	63.19
376.56	51.49
376.76	9.36
376.95	18.72
377.15	23.41
377.35	81.92
377.54	16.38
377.74	58.51
377.93	0.00
378.13	32.77
378.33	77.24
378.52	42.13
378.72	0.00
378.91	56.17
379.11	7.02
379.31	74.90
379.50	14.04
379.70	81.92
379.89	16.38
380.09	0.00
380.28	30.43
380.48	0.00
380.68	16.38
380.87	9.36
381.07	42.13
381.26	51.49
381.46	32.77
381.65	42.13
381.85	0.00
382.04	21.06
382.24	0.00
382.43	32.77
382.63	58.51
382.83	23.41
383.02	0.00
383.22	4.68
383.41	30.43
383.61	0.00
383.80	0.00
384.00	72.56
384.19	9.36
384.39	65.54
384.58	46.81
384.78	72.56
384.97	0.00
385.17	42.13
385.36	21.06
385.56	28.09
385.75	44.47
385.95	35.11
386.14	21.06
386.34	0.00
386.53	0.00
386.72	2.34
386.92	0.00
387.11	93.62
387.31	72.56
387.50	49.15
387.70	18.72
387.89	0.00
388.09	21.06
388.28	16.38
388.48	39.79
388.67	4.68
388.86	4.68
389.06	93.62
389.25	21.06
389.45	0.00
389.64	0.00
389.84	9.36
390.03	65.54
390.22	14.04
390.42	39.79
390.61	37.45
390.81	37.45
391.00	30.43
391.19	51.49
391.39	14.04
391.58	72.56
391.78	39.79
391.97	23.41
392.16	42.13
392.36	2.34
392.55	0.00
392.75	77.24
392.94	23.41
393.13	4.68
393.33	49.15
393.52	74.90
393.71	53.83
393.91	0.00
394.10	28.09
394.29	58.51
394.49	72.56
394.68	0.00
394.88	51.49
395.07	23.41
395.26	0.00
395.46	88.94
395.65	46.81
395.84	91.28
396.04	63.19
396.23	11.70
396.42	30.43
396.62	4.68
396.81	56.17
397.00	7.02
397.19	2.34
397.39	44.47
397.58	60.85
397.77	51.49
397.97	0.00
398.16	25.75
398.35	58.51
398.55	0.00
398.74	56.17
398.93	35.11
399.12	35.11
399.32	18.72
399.51	9.36
399.70	14.04
399.90	37.45
400.09	0.00
400.28	65.54
400.47	23.41
400.67	0.00
400.86	58.51
401.05	11.70
401.24	4.68
401.44	56.17
401.63	63.19
401.82	77.24
402.01	23.41
402.21	25.75
402.40	0.00
402.59	2.34
402.78	25.75
402.97	39.79
403.17	0.00
403.36	37.45
403.55	28.09
403.74	49.15
403.93	0.00
404.13	28.09
404.32	93.62
404.51	42.13
404.70	35.11
404.89	25.75
405.09	51.49
405.28	51.49
405.47	32.77
405.66	4.68
405.85	4.68
406.05	70.22
406.24	11.70
406.43	11.70
406.62	35.11
406.81	53.83
407.00	4.68
407.20	30.43
407.39	0.00
407.58	72.56
407.77	23.41
407.96	74.90
408.15	30.43
408.34	2.34
408.54	70.22
408.73	0.00
408.92	0.00
409.11	25.75
409.30	51.49
409.49	23.41
409.68	77.24
409.87	25.75
410.07	21.06
410.26	0.00
410.45	7.02
410.64	0.00
410.83	51.49
411.02	30.43
411.21	58.51
411.40	30.43
411.59	46.81
411.78	0.00
411.98	0.00
412.17	0.00
412.36	0.00
412.55	28.09
412.74	39.79
412.93	70.22
413.12	18.72
413.31	60.85
413.50	16.38
413.69	91.28
413.88	7.02
414.07	44.47
414.26	9.36
414.45	39.79
414.64	65.54
414.83	18.72
415.02	28.09
415.22	0.00
415.41	42.13
415.60	0.00
415.79	72.56
415.98	21.06
416.17	81.92
416.36	32.77
416.55	16.38
416.74	25.75
416.93	32.77
417.12	21.06
417.31	30.43
417.50	25.75
417.69	32.77
417.88	95.96
418.07	70.22
418.26	21.06
418.45	9.36
418.64	30.43
418.83	2.34
419.02	49.15
419.21	16.38
419.39	72.56
419.58	58.51
419.77	39.79
419.96	42.13
420.15	49.15
420.34	21.06
420.53	0.00
420.72	37.45
420.91	42.13
421.10	53.83
421.29	49.15
421.48	79.58
421.67	88.94
421.86	107.66
422.05	0.00
422.24	39.79
422.43	70.22
422.61	23.41
422.80	37.45
422.99	65.54
423.18	0.00
423.37	102.98
423.56	0.00
423.75	23.41
423.94	35.11
424.13	98.30
424.32	39.79
424.50	70.22
424.69	86.60
424.88	49.15
425.07	35.11
425.26	49.15
425.45	70.22
425.64	0.00
425.83	53.83
426.01	0.00
426.20	42.13
426.39	53.83
426.58	42.13
426.77	37.45
426.96	70.22
427.15	102.98
427.33	53.83
427.52	81.92
427.71	0.00
427.90	44.47
428.09	51.49
428.28	42.13
428.46	84.26
428.65	51.49
428.84	0.00
429.03	95.96
429.22	9.36
429.40	39.79
429.59	51.49
429.78	30.43
429.97	102.98
430.16	65.54
430.34	4.68
430.53	7.02
430.72	37.45
430.91	16.38
431.10	88.94
431.28	84.26
431.47	0.00
431.66	0.00
431.85	56.17
432.03	42.13
432.22	63.19
432.41	0.00
432.60	0.00
432.79	58.51
432.97	84.26
433.16	56.17
433.35	0.00
433.54	81.92
433.72	140.43
433.91	65.54
434.10	0.00
434.28	37.45
434.47	0.00
434.66	18.72
434.85	30.43
435.03	0.00
435.22	107.66
435.41	16.38
435.59	77.24
435.78	58.51
435.97	46.81
436.16	100.64
436.34	53.83
436.53	11.70
436.72	60.85
436.90	51.49
437.09	56.17
437.28	0.00
437.46	0.00
437.65	0.00
437.84	53.83
438.02	0.00
438.21	4.68
438.40	51.49
438.58	0.00
438.77	11.70
438.96	72.56
439.14	93.62
439.33	86.60
439.52	28.09
439.70	67.88
439.89	70.22
440.08	0.00
440.26	23.41
440.45	117.03
440.63	0.00
440.82	21.06
441.01	25.75
441.19	58.51
441.38	72.56
441.57	7.02
441.75	56.17
441.94	56.17
442.12	107.66
442.31	35.11
442.50	77.24
442.68	100.64
442.87	46.81
443.05	53.83
443.24	119.37
443.43	25.75
443.61	105.32
443.80	86.60
443.98	39.79
444.17	32.77
444.35	0.00
444.54	39.79
444.73	51.49
444.91	11.70
445.10	9.36
445.28	0.00
445.47	49.15
445.65	0.00
445.84	0.00
446.02	16.38
446.21	0.00
446.39	11.70
446.58	42.13
446.77	35.11
446.95	51.49
447.14	42.13
447.32	114.69
447.51	60.85
447.69	11.70
447.88	39.79
448.06	63.19
448.25	56.17
448.43	60.85
448.62	0.00
448.80	0.00
448.99	14.04
449.17	11.70
449.36	49.15
449.54	32.77
449.73	51.49
449.91	25.75
450.10	72.56
450.28	81.92
450.46	14.04
450.65	88.94
450.83	98.30
451.02	30.43
451.20	0.00
451.39	72.56
451.57	14.04
451.76	56.17
451.94	60.85
452.13	35.11
452.31	25.75
452.49	32.77
452.68	0.00
452.86	21.06
453.05	79.58
453.23	58.51
453.42	63.19
453.60	42.13
453.78	110.01
453.97	0.00
454.15	79.58
454.34	58.51
454.52	39.79
454.70	32.77
454.89	56.17
455.07	70.22
455.26	135.75
455.44	7.02
455.62	4.68
455.81	46.81
455.99	131.07
456.17	88.94
456.36	72.56
456.54	49.15
456.73	133.41
456.91	49.15
457.09	42.13
457.28	0.00
457.46	37.45
457.64	23.41
457.83	110.01
458.01	21.06
458.19	0.00
458.38	39.79
458.56	105.32
458.74	60.85
458.93	84.26
459.11	60.85
459.29	51.49
459.48	0.00
459.66	112.35
459.84	28.09
460.03	79.58
460.21	18.72
460.39	67.88
460.57	133.41
460.76	112.35
460.94	23.41
461.12	58.51
461.31	0.00
461.49	65.54
461.67	16.38
461.85	112.35
462.04	0.00
462.22	152.13
462.40	63.19
462.59	49.15
462.77	74.90
462.95	93.62
463.13	74.90
463.32	46.81
463.50	63.19
463.68	37.45
463.86	32.77
464.05	84.26
464.23	154.48
464.41	84.26
464.59	70.22
464.78	35.11
464.96	16.38
465.14	60.85
465.32	65.54
465.50	37.45
465.69	4.68
465.87	25.75
466.05	18.72
466.23	72.56
466.41	2.34
466.60	35.11
466.78	65.54
466.96	77.24
467.14	21.06
467.32	91.28
467.51	84.26
467.69	0.00
467.87	58.51
468.05	86.60
468.23	56.17
468.41	67.88
468.60	0.00
468.78	32.77
468.96	46.81
469.14	117.03
469.32	124.05
469.50	53.83
469.69	2.34
469.87	42.13
470.05	46.81
470.23	70.22
470.41	46.81
470.59	70.22
470.77	49.15
470.95	30.43
471.14	88.94
471.32	53.83
471.50	30.43
471.68	84.26
471.86	93.62
472.04	7.02
472.22	42.13
472.40	53.83
472.58	98.30
472.77	11.70
472.95	81.92
473.13	60.85
473.31	25.75
473.49	9.36
473.67	70.22
473.85	16.38
474.03	88.94
474.21	117.03
474.39	107.66
474.57	63.19
474.75	18.72
474.93	74.90
475.12	56.17
475.30	63.19
475.48	102.98
475.66	0.00
475.84	93.62
476.02	126.39
476.20	145.11
476.38	63.19
476.56	163.84
476.74	128.73
476.92	100.64
477.10	79.58
477.28	93.62
477.46	49.15
477.64	58.51
477.82	63.19
478.00	81.92
478.18	81.92
478.36	32.77
478.54	74.90
478.72	126.39
478.90	72.56
479.08	95.96
479.26	56.17
479.44	93.62
479.62	42.13
479.80	49.15
479.98	67.88
480.16	56.17
480.34	30.43
480.52	7.02
480.70	30.43
480.88	4.68
481.06	124.05
481.24	0.00
481.41	102.98
481.59	77.24
481.77	65.54
481.95	39.79
482.13	44.47
482.31	117.03
482.49	117.03
482.67	35.11
482.85	23.41
483.03	84.26
483.21	100.64
483.39	65.54
483.57	77.24
483.74	72.56
483.92	147.45
484.10	72.56
484.28	23.41
484.46	98.30
484.64	65.54
484.82	2.34
485.00	37.45
485.18	35.11
485.35	53.83
485.53	2.34
485.71	72.56
485.89	72.56
486.07	63.19
486.25	74.90
486.43	98.30
486.61	60.85
486.78	49.15
486.96	39.79
487.14	77.24
487.32	112.35
487.50	95.96
487.68	53.83
487.85	93.62
488.03	124.05
488.21	16.38
488.39	79.58
488.57	25.75
488.75	70.22
488.92	74.90
489.10	70.22
489.28	95.96
489.46	53.83
489.64	91.28
489.81	56.17
489.99	0.00
490.17	42.13
490.35	72.56
490.53	53.83
490.70	42.13
490.88	21.06
491.06	65.54
491.24	77.24
491.41	93.62
491.59	63.19
491.77	42.13
491.95	63.19
492.13	84.26
492.30	0.00
492.48	86.60
492.66	95.96
492.84	77.24
493.01	39.79
493.19	145.11
493.37	65.54
493.54	121.71
493.72	51.49
493.90	91.28
494.08	28.09
494.25	81.92
494.43	140.43
494.61	88.94
494.79	102.98
494.96	63.19
495.14	117.03
495.32	79.58
495.49	51.49
495.67	100.64
495.85	114.69
496.02	98.30
496.20	70.22
496.38	95.96
496.55	46.81
496.73	93.62
496.91	133.41
497.09	105.32
497.26	79.58
497.44	119.37
497.62	119.37
497.79	117.03
497.97	51.49
498.14	84.26
498.32	42.13
498.50	0.00
498.67	18.72
498.85	119.37
499.03	53.83
499.20	30.43
499.38	63.19
499.56	79.58
499.73	79.58
499.91	25.75
500.08	138.09
500.26	124.05
500.44	42.13
500.61	32.77
500.79	131.07
500.97	60.85
501.14	23.41
501.32	0.00
501.49	93.62
501.67	18.72
501.84	98.30
502.02	98.30
502.20	28.09
502.37	110.01
502.55	84.26
502.72	91.28
502.90	131.07
503.07	102.98
503.25	49.15
503.43	100.64
503.60	67.88
503.78	60.85
503.95	51.49
504.13	42.13
504.30	86.60
504.48	65.54
504.65	154.48
504.83	25.75
505.01	79.58
505.18	70.22
505.36	56.17
505.53	128.73
505.71	102.98
505.88	51.49
506.06	60.85
506.23	63.19
506.41	84.26
506.58	9.36
506.76	84.26
506.93	53.83
507.11	35.11
507.28	105.32
507.46	30.43
507.63	32.77
507.81	91.28
507.98	95.96
508.16	74.90
508.33	93.62
508.50	70.22
508.68	159.16
508.85	119.37
509.03	91.28
509.20	74.90
509.38	95.96
509.55	32.77
509.73	46.81
509.90	77.24
510.08	86.60
510.25	86.60
510.42	98.30
510.60	65.54
510.77	138.09
510.95	126.39
511.12	100.64
511.30	126.39
511.47	91.28
511.64	117.03
511.82	74.90
511.99	121.71
512.17	140.43
512.34	49.15
512.51	117.03
512.69	112.35
512.86	72.56
513.04	124.05
513.21	32.77
513.38	21.06
513.56	121.71
513.73	18.72
513.90	67.88
514.08	107.66
514.25	30.43
514.43	44.47
514.60	30.43
514.77	93.62
514.95	121.71
515.12	74.90
515.29	58.51
515.47	51.49
515.64	100.64
515.81	28.09
515.99	60.85
516.16	46.81
516.33	74.90
516.51	53.83
516.68	91.28
516.85	86.60
517.03	161.50
517.20	86.60
517.37	53.83
517.54	142.77
517.72	191.92
517.89	9.36
518.06	51.49
518.24	79.58
518.41	86.60
518.58	63.19
518.75	60.85
518.93	16.38
519.10	84.26
519.27	42.13
519.45	88.94
519.62	88.94
519.79	95.96
519.96	63.19
520.14	138.09
520.31	88.94
520.48	72.56
520.65	93.62
520.83	67.88
521.00	37.45
521.17	131.07
521.34	166.18
521.52	117.03
521.69	98.30
521.86	16.38
522.03	53.83
522.20	100.64
522.38	49.15
522.55	91.28
522.72	140.43
522.89	95.96
523.07	126.39
523.24	93.62
523.41	18.72
523.58	100.64
523.75	81.92
523.92	117.03
524.10	93.62
524.27	107.66
524.44	77.24
524.61	81.92
524.78	102.98
524.96	77.24
525.13	88.94
525.30	72.56
525.47	100.64
525.64	102.98
525.81	121.71
525.98	84.26
526.16	74.90
526.33	72.56
526.50	112.35
526.67	81.92
526.84	100.64
527.01	4.68
527.18	72.56
527.36	58.51
527.53	95.96
527.70	53.83
527.87	107.66
528.04	131.07
528.21	21.06
528.38	70.22
528.55	0.00
528.72	119.37
528.89	88.94
529.07	98.30
529.24	63.19
529.41	86.60
529.58	60.85
529.75	100.64
529.92	117.03
530.09	21.06
530.26	117.03
530.43	126.39
530.60	72.56
530.77	70.22
530.94	65.54
531.11	70.22
531.28	102.98
531.46	105.32
531.63	72.56
531.80	60.85
531.97	18.72
532.14	70.22
532.31	117.03
532.48	84.26
532.65	107.66
532.82	98.30
532.99	67.88
533.16	140.43
533.33	91.28
533.50	11.70
533.67	63.19
533.84	124.05
534.01	131.07
534.18	100.64
534.35	102.98
534.52	140.43
534.69	93.62
534.86	126.39
535.03	63.19
535.20	67.88
535.37	119.37
535.54	84.26
535.71	11.70
535.88	100.64
536.05	67.88
536.22	56.17
536.38	102.98
536.55	51.49
536.72	88.94
536.89	102.98
537.06	140.43
537.23	86.60
537.40	102.98
537.57	65.54
537.74	56.17
537.91	145.11
538.08	79.58
538.25	39.79
538.42	121.71
538.59	53.83
538.75	98.30
538.92	95.96
539.09	91.28
539.26	110.01
539.43	88.94
539.60	124.05
539.77	39.79
539.94	44.47
540.11	51.49
540.28	70.22
540.44	93.62
540.61	70.22
540.78	131.07
540.95	107.66
541.12	86.60
541.29	93.62
541.46	0.00
541.62	63.19
541.79	119.37
541.96	152.13
542.13	25.75
542.30	60.85
542.47	42.13
542.63	149.79
542.80	112.35
542.97	107.66
543.14	84.26
543.31	133.41
543.48	133.41
543.64	65.54
543.81	147.45
543.98	105.32
544.15	65.54
544.32	95.96
544.48	42.13
544.65	135.75
544.82	79.58
544.99	114.69
545.16	86.60
545.32	58.51
545.49	58.51
545.66	107.66
545.83	51.49
546.00	67.88
546.16	84.26
546.33	114.69
546.50	74.90
546.67	128.73
546.83	77.24
547.00	128.73
547.17	79.58
547.34	60.85
547.50	39.79
547.67	63.19
547.84	67.88
548.00	74.90
548.17	63.19
548.34	117.03
548.51	25.75
548.67	79.58
548.84	67.88
549.01	51.49
549.18	70.22
549.34	119.37
549.51	65.54
549.68	60.85
549.84	32.77
550.01	21.06
550.18	98.30
550.34	21.06
550.51	152.13
550.68	51.49
550.84	121.71
551.01	37.45
551.18	107.66
551.34	60.85
551.51	42.13
551.68	163.84
551.84	32.77
552.01	67.88
552.18	86.60
552.34	159.16
552.51	81.92
552.68	74.90
552.84	53.83
553.01	72.56
553.18	88.94
553.34	152.13
553.51	53.83
553.67	37.45
553.84	79.58
554.01	124.05
554.17	138.09
554.34	53.83
554.51	79.58
554.67	51.49
554.84	119.37
555.00	88.94
555.17	86.60
555.33	67.88
555.50	124.05
555.67	187.24
555.83	77.24
556.00	95.96
556.16	168.52
556.33	117.03
556.50	91.28
556.66	72.56
556.83	133.41
556.99	70.22
557.16	114.69
557.32	0.00
557.49	42.13
557.65	128.73
557.82	91.28
557.98	32.77
558.15	60.85
558.32	145.11
558.48	93.62
558.65	77.24
558.81	77.24
558.98	107.66
559.14	128.73
559.31	70.22
559.47	49.15
559.64	107.66
559.80	72.56
559.97	58.51
560.13	63.19
560.30	56.17
560.46	138.09
560.63	147.45
560.79	79.58
560.96	79.58
561.12	124.05
561.29	77.24
561.45	39.79
561.61	133.41
561.78	46.81
561.94	9.36
562.11	105.32
562.27	117.03
562.44	44.47
562.60	60.85
562.77	63.19
562.93	88.94
563.10	32.77
563.26	72.56
563.42	128.73
563.59	119.37
563.75	117.03
563.92	93.62
564.08	49.15
564.24	128.73
564.41	60.85
564.57	30.43
564.74	53.83
564.90	77.24
565.07	84.26
565.23	135.75
565.39	91.28
565.56	138.09
565.72	81.92
565.88	53.83
566.05	70.22
566.21	88.94
566.38	126.39
566.54	16.38
566.70	0.00
566.87	58.51
567.03	107.66
567.19	117.03
567.36	51.49
567.52	81.92
567.68	91.28
567.85	49.15
568.01	53.83
568.17	117.03
568.34	70.22
568.50	46.81
568.66	105.32
568.83	84.26
568.99	42.13
569.15	77.24
569.32	107.66
569.48	105.32
569.64	159.16
569.81	124.05
569.97	46.81
570.13	67.88
570.30	81.92
570.46	81.92
570.62	58.51
570.78	44.47
570.95	44.47
571.11	18.72
571.27	102.98
571.43	128.73
571.60	74.90
571.76	91.28
571.92	74.90
572.09	42.13
572.25	138.09
572.41	74.90
572.57	98.30
572.74	124.05
572.90	49.15
573.06	39.79
573.22	67.88
573.38	145.11
573.55	84.26
573.71	102.98
573.87	67.88
574.03	51.49
574.20	70.22
574.36	79.58
574.52	28.09
574.68	74.90
574.84	100.64
575.01	28.09
575.17	72.56
575.33	147.45
575.49	67.88
575.65	70.22
575.82	32.77
575.98	102.98
576.14	86.60
576.30	102.98
576.46	39.79
576.62	86.60
576.79	44.47
576.95	100.64
577.11	93.62
577.27	0.00
577.43	117.03
577.59	39.79
577.75	74.90
577.92	84.26
578.08	107.66
578.24	44.47
578.40	100.64
578.56	86.60
578.72	44.47
578.88	30.43
579.04	77.24
579.21	49.15
579.37	37.45
579.53	110.01
579.69	65.54
579.85	93.62
580.01	16.38
580.17	63.19
580.33	25.75
580.49	95.96
580.65	65.54
580.82	77.24
580.98	67.88
581.14	79.58
581.30	131.07
581.46	105.32
581.62	84.26
581.78	98.30
581.94	56.17
582.10	23.41
582.26	117.03
582.42	91.28
582.58	112.35
582.74	114.69
582.90	105.32
583.06	93.62
583.22	107.66
583.38	100.64
583.54	95.96
583.70	110.01
583.86	72.56
584.02	74.90
584.18	4.68
584.34	102.98
584.50	88.94
584.66	42.13
584.82	23.41
584.98	91.28
585.14	46.81
585.30	35.11
585.46	21.06
585.62	110.01
585.78	0.00
585.94	72.56
586.10	11.70
586.26	102.98
586.42	149.79
586.58	86.60
586.74	77.24
586.90	46.81
587.06	95.96
587.22	46.81
587.38	53.83
587.54	72.56
587.70	0.00
587.86	28.09
588.02	49.15
588.18	56.17
588.34	53.83
588.49	95.96
588.65	30.43
588.81	131.07
588.97	88.94
589.13	39.79
589.29	28.09
589.45	67.88
589.61	107.66
589.77	95.96
589.93	95.96
590.08	51.49
590.24	81.92
590.40	72.56
590.56	51.49
590.72	98.30
590.88	102.98
591.04	0.00
591.20	65.54
591.35	72.56
591.51	58.51
591.67	81.92
591.83	93.62
591.99	35.11
592.15	37.45
592.31	0.00
592.46	95.96
592.62	44.47
592.78	46.81
592.94	88.94
593.10	98.30
593.26	2.34
593.41	124.05
593.57	100.64
593.73	67.88
593.89	39.79
594.05	77.24
594.20	121.71
594.36	88.94
594.52	58.51
594.68	98.30
594.84	65.54
594.99	100.64
595.15	128.73
595.31	154.48
595.47	119.37
595.62	84.26
595.78	0.00
595.94	77.24
596.10	63.19
596.25	58.51
596.41	28.09
596.57	119.37
596.73	72.56
596.88	63.19
597.04	14.04
597.20	102.98
597.36	16.38
597.51	131.07
597.67	51.49
597.83	138.09
597.99	18.72
598.14	124.05
598.30	0.00
598.46	18.72
598.61	67.88
598.77	56.17
598.93	0.00
599.09	117.03
599.24	102.98
599.40	107.66
599.56	107.66
599.71	86.60
599.87	9.36
600.03	72.56
600.18	114.69
600.34	138.09
600.50	70.22
600.65	53.83
600.81	107.66
600.97	100.64
601.12	56.17
601.28	86.60
601.44	56.17
601.59	79.58
601.75	51.49
601.91	58.51
602.06	86.60
602.22	67.88
602.37	95.96
602.53	16.38
602.69	81.92
602.84	88.94
603.00	93.62
603.16	98.30
603.31	117.03
603.47	86.60
603.62	84.26
603.78	72.56
603.94	102.98
604.09	53.83
604.25	133.41
604.40	60.85
604.56	53.83
604.71	84.26
604.87	63.19
605.03	44.47
605.18	32.77
605.34	95.96
605.49	91.28
605.65	37.45
605.80	77.24
605.96	77.24
606.12	11.70
606.27	86.60
606.43	0.00
606.58	91.28
606.74	35.11
606.89	67.88
607.05	35.11
607.20	81.92
607.36	30.43
607.51	98.30
607.67	79.58
607.82	117.03
607.98	102.98
608.13	65.54
608.29	121.71
608.44	84.26
608.60	107.66
608.75	63.19
608.91	117.03
609.06	98.30
609.22	128.73
609.37	65.54
609.53	105.32
609.68	114.69
609.84	145.11
609.99	88.94
610.15	51.49
610.30	46.81
610.46	95.96
610.61	63.19
610.76	70.22
610.92	65.54
611.07	135.75
611.23	39.79
611.38	58.51
611.54	180.22
611.69	25.75
611.84	72.56
612.00	35.11
612.15	81.92
612.31	91.28
612.46	7.02
612.62	91.28
612.77	81.92
612.92	72.56
613.08	46.81
613.23	18.72
613.39	25.75
613.54	51.49
613.69	58.51
613.85	79.58
614.00	32.77
614.15	100.64
614.31	79.58
614.46	58.51
614.62	70.22
614.77	84.26
614.92	81.92
615.08	0.00
615.23	88.94
615.38	42.13
615.54	147.45
615.69	25.75
615.84	67.88
616.00	114.69
616.15	79.58
616.30	105.32
616.46	21.06
616.61	84.26
616.76	112.35
616.92	16.38
617.07	0.00
617.22	42.13
617.37	86.60
617.53	0.00
617.68	39.79
617.83	67.88
617.99	56.17
618.14	7.02
618.29	35.11
618.45	51.49
618.60	63.19
618.75	100.64
618.90	21.06
619.06	65.54
619.21	77.24
619.36	51.49
619.51	142.77
619.67	77.24
619.82	14.04
619.97	14.04
620.12	70.22
620.28	98.30
620.43	72.56
620.58	77.24
620.73	63.19
620.89	74.90
621.04	32.77
621.19	135.75
621.34	0.00
621.49	77.24
621.65	39.79
621.80	56.17
621.95	60.85
622.10	60.85
622.25	39.79
622.41	110.01
622.56	58.51
622.71	56.17
622.86	77.24
623.01	49.15
623.16	91.28
623.32	70.22
623.47	93.62
623.62	100.64
623.77	39.79
623.92	163.84
624.07	0.00
624.23	102.98
624.38	100.64
624.53	42.13
624.68	65.54
624.83	79.58
624.98	81.92
625.13	77.24
625.29	39.79
625.44	112.35
625.59	42.13
625.74	58.51
625.89	37.45
626.04	9.36
626.19	56.17
626.34	110.01
626.49	21.06
626.65	121.71
626.80	88.94
626.95	21.06
627.10	9.36
627.25	0.00
627.40	23.41
627.55	72.56
627.70	28.09
627.85	53.83
628.00	32.77
628.15	70.22
628.30	51.49
628.45	65.54
628.60	93.62
628.76	117.03
628.91	133.41
629.06	25.75
629.21	51.49
629.36	2.34
629.51	25.75
629.66	74.90
629.81	49.15
629.96	0.00
630.11	63.19
630.26	18.72
630.41	74.90
630.56	67.88
630.71	37.45
630.86	30.43
631.01	53.83
631.16	42.13
631.31	110.01
631.46	56.17
631.61	39.79
631.76	51.49
631.91	42.13
632.06	28.09
632.21	88.94
632.36	0.00
632.51	35.11
632.66	25.75
632.81	107.66
632.96	25.75
633.10	44.47
633.25	42.13
633.40	18.72
633.55	72.56
633.70	46.81
633.85	72.56
634.00	77.24
634.15	81.92
634.30	110.01
634.45	133.41
634.60	7.02
634.75	114.69
634.90	63.19
635.05	67.88
635.19	37.45
635.34	74.90
635.49	0.00
635.64	0.00
635.79	58.51
635.94	72.56
636.09	46.81
636.24	4.68
636.39	124.05
636.53	84.26
636.68	98.30
636.83	30.43
636.98	35.11
637.13	67.88
637.28	135.75
637.43	93.62
637.57	35.11
637.72	56.17
637.87	145.11
638.02	39.79
638.17	25.75
638.32	37.45
638.46	0.00
638.61	72.56
638.76	21.06
638.91	98.30
639.06	65.54
639.20	4.68
639.35	28.09
639.50	121.71
639.65	0.00
639.80	74.90
639.94	11.70
640.09	77.24
640.24	100.64
640.39	32.77
640.54	58.51
640.68	91.28
640.83	88.94
640.98	42.13
641.13	63.19
641.27	42.13
641.42	23.41
641.57	74.90
641.72	79.58
641.86	42.13
642.01	145.11
642.16	18.72
642.31	14.04
642.45	79.58
642.60	91.28
642.75	65.54
642.90	60.85
643.04	102.98
643.19	42.13
643.34	88.94
643.48	63.19
643.63	63.19
643.78	46.81
643.93	95.96
644.07	32.77
644.22	37.45
644.37	124.05
644.51	18.72
644.66	95.96
644.81	110.01
644.95	114.69
645.10	28.09
645.25	0.00
645.39	21.06
645.54	63.19
645.69	35.11
645.83	32.77
645.98	196.60
646.13	67.88
646.27	32.77
646.42	0.00
646.57	107.66
646.71	74.90
646.86	28.09
647.00	39.79
647.15	25.75
647.30	46.81
647.44	58.51
647.59	0.00
647.74	81.92
647.88	88.94
648.03	28.09
648.17	9.36
648.32	81.92
648.47	9.36
648.61	0.00
648.76	46.81
648.90	2.34
649.05	65.54
649.20	119.37
649.34	32.77
649.49	91.28
649.63	65.54
649.78	56.17
649.92	28.09
650.07	37.45
650.21	70.22
650.36	107.66
650.51	79.58
650.65	79.58
650.80	4.68
650.94	126.39
651.09	16.38
651.23	32.77
651.38	67.88
651.52	70.22
651.67	51.49
651.81	53.83
651.96	79.58
652.10	79.58
652.25	84.26
652.39	60.85
652.54	0.00
652.68	67.88
652.83	35.11
652.97	0.00
653.12	100.64
653.26	28.09
653.41	51.49
653.55	88.94
653.70	77.24
653.84	23.41
653.99	42.13
654.13	56.17
654.27	2.34
654.42	44.47
654.56	56.17
654.71	60.85
654.85	21.06
655.00	11.70
655.14	105.32
655.29	70.22
655.43	42.13
655.57	58.51
655.72	0.00
655.86	49.15
656.01	51.49
656.15	0.00
656.30	16.38
656.44	46.81
656.58	74.90
656.73	72.56
656.87	0.00
657.01	67.88
657.16	46.81
657.30	65.54
657.45	32.77
657.59	58.51
657.73	0.00
657.88	67.88
658.02	77.24
658.16	93.62
658.31	112.35
658.45	0.00
658.60	37.45
658.74	21.06
658.88	23.41
659.03	74.90
659.17	35.11
659.31	79.58
659.46	58.51
659.60	0.00
659.74	128.73
659.89	58.51
660.03	138.09
660.17	14.04
660.32	46.81
660.46	2.34
660.60	53.83
660.74	39.79
660.89	51.49
661.03	42.13
661.17	35.11
661.32	117.03
661.46	56.17
661.60	100.64
661.74	86.60
661.89	65.54
662.03	32.77
662.17	21.06
662.31	23.41
662.46	0.00
662.60	70.22
662.74	53.83
662.88	100.64
663.03	39.79
663.17	98.30
663.31	86.60
663.45	140.43
663.60	30.43
663.74	67.88
663.88	0.00
664.02	28.09
664.17	16.38
664.31	51.49
664.45	63.19
664.59	91.28
664.73	53.83
664.88	30.43
665.02	72.56
665.16	21.06
665.30	44.47
665.44	51.49
665.59	159.16
665.73	105.32
665.87	67.88
666.01	60.85
666.15	4.68
666.29	46.81
666.44	21.06
666.58	98.30
666.72	56.17
666.86	14.04
667.00	23.41
667.14	93.62
667.28	70.22
667.43	0.00
667.57	77.24
667.71	110.01
667.85	49.15
667.99	60.85
668.13	77.24
668.27	0.00
668.41	23.41
668.56	46.81
668.70	67.88
668.84	11.70
668.98	126.39
669.12	23.41
669.26	49.15
669.40	79.58
669.54	100.64
669.68	25.75
669.82	58.51
669.96	28.09
670.10	70.22
670.25	51.49
670.39	58.51
670.53	37.45
670.67	49.15
670.81	46.81
670.95	49.15
671.09	93.62
671.23	35.11
671.37	81.92
671.51	44.47
671.65	49.15
671.79	39.79
671.93	23.41
672.07	0.00
672.21	0.00
672.35	0.00
672.49	42.13
672.63	23.41
672.77	0.00
672.91	28.09
673.05	72.56
673.19	105.32
673.33	100.64
673.47	53.83
673.61	14.04
673.75	79.58
673.89	35.11
674.03	100.64
674.17	30.43
674.31	30.43
674.45	0.00
674.59	51.49
674.73	60.85
674.87	119.37
675.01	35.11
675.15	0.00
675.29	35.11
675.43	37.45
675.56	37.45
675.70	67.88
675.84	37.45
675.98	88.94
676.12	0.00
676.26	0.00
676.40	18.72
676.54	25.75
676.68	95.96
676.82	0.00
676.96	60.85
677.10	0.00
677.23	0.00
677.37	28.09
677.51	46.81
677.65	58.51
677.79	0.00
677.93	63.19
678.07	56.17
678.21	16.38
678.34	44.47
678.48	18.72
678.62	56.17
678.76	0.00
678.90	4.68
679.04	60.85
679.18	28.09
679.31	98.30
679.45	32.77
679.59	35.11
679.73	14.04
679.87	65.54
680.00	46.81
680.14	86.60
680.28	0.00
680.42	11.70
680.56	98.30
680.70	21.06
680.83	0.00
680.97	46.81
681.11	28.09
681.25	91.28
681.39	49.15
681.52	2.34
681.66	0.00
681.80	72.56
681.94	0.00
682.07	0.00
682.21	88.94
682.35	46.81
682.49	37.45
682.62	42.13
682.76	49.15
682.90	23.41
683.04	18.72
683.17	0.00
683.31	53.83
683.45	9.36
683.59	37.45
683.72	77.24
683.86	63.19
684.00	0.00
684.13	58.51
684.27	46.81
684.41	2.34
684.55	98.30
684.68	58.51
684.82	23.41
684.96	70.22
685.09	88.94
685.23	102.98
685.37	23.41
685.50	79.58
685.64	91.28
685.78	70.22
685.91	4.68
686.05	72.56
686.19	14.04
686.32	0.00
686.46	65.54
686.60	37.45
686.73	98.30
686.87	56.17
687.01	0.00
687.14	60.85
687.28	35.11
687.42	18.72
687.55	46.81
687.69	0.00
687.82	9.36
687.96	56.17
688.10	0.00
688.23	49.15
688.37	60.85
688.50	53.83
688.64	58.51
688.78	18.72
688.91	107.66
689.05	70.22
689.18	105.32
689.32	0.00
689.46	2.34
689.59	14.04
689.73	14.04
689.86	93.62
690.00	84.26
690.13	98.30
690.27	84.26
690.41	63.19
690.54	91.28
690.68	25.75
690.81	70.22
690.95	128.73
691.08	56.17
691.22	74.90
691.35	28.09
691.49	74.90
691.62	42.13
691.76	98.30
691.89	77.24
692.03	88.94
692.16	32.77
692.30	14.04
692.43	0.00
692.57	0.00
692.70	25.75
692.84	4.68
692.97	23.41
693.11	23.41
693.24	4.68
693.38	7.02
693.51	9.36
693.65	9.36
693.78	4.68
693.92	14.04
694.05	58.51
694.19	18.72
694.32	4.68
694.45	128.73
694.59	28.09
694.72	11.70
694.86	37.45
694.99	58.51
695.13	30.43
695.26	9.36
695.39	117.03
695.53	16.38
695.66	25.75
695.80	9.36
695.93	18.72
696.07	72.56
696.20	58.51
696.33	9.36
696.47	72.56
696.60	60.85
696.73	42.13
696.87	0.00
697.00	16.38
697.14	72.56
697.27	56.17
697.40	77.24
697.54	0.00
697.67	84.26
697.80	4.68
697.94	0.00
698.07	0.00
698.21	58.51
698.34	53.83
698.47	42.13
698.61	35.11
698.74	30.43
698.87	51.49
699.01	0.00
699.14	77.24
699.27	131.07
699.40	35.11
699.54	2.34
699.67	46.81
699.80	77.24
699.94	65.54
700.07	9.36
700.20	0.00
700.34	21.06
700.47	32.77
700.60	49.15
700.73	37.45
700.87	37.45
701.00	0.00
701.13	37.45
701.26	32.77
701.40	0.00
701.53	9.36
701.66	0.00
701.79	77.24
701.93	0.00
702.06	23.41
702.19	11.70
702.32	42.13
702.46	30.43
702.59	0.00
702.72	42.13
702.85	46.81
702.99	102.98
703.12	16.38
703.25	7.02
703.38	7.02
703.51	0.00
703.65	58.51
703.78	30.43
703.91	16.38
704.04	39.79
704.17	14.04
704.31	0.00
704.44	42.13
704.57	0.00
704.70	0.00
704.83	0.00
704.96	18.72
705.10	0.00
705.23	49.15
>>>>>End Processed Spectral Data<<<<<
