SpectraSuite Data File
++++++++++++++++++++++++++++++++++++
Date: Fri Oct 04 12:13:37 GMT-05:00 2013
User: price-jones
Dark Spectrum Present: No
Reference Spectrum Present: No
Number of Sampled Component Spectra: 1
Spectrometers: USB2+H05261
Integration Time (usec): 10000 (USB2+H05261)
Spectra Averaged: 1 (USB2+H05261)
Boxcar Smoothing: 0 (USB2+H05261)
Correct for Electrical Dark: No (USB2+H05261)
Strobe/Lamp Enabled: No (USB2+H05261)
Correct for Detector Non-linearity: No (USB2+H05261)
Correct for Stray Light: No (USB2+H05261)
Number of Pixels in Processed Spectrum: 2048
>>>>>Begin Processed Spectral Data<<<<<
365.73	49.15
365.92	49.15
366.12	49.15
366.32	0.00
366.52	0.00
366.72	0.00
366.91	0.00
367.11	0.00
367.31	0.00
367.51	0.00
367.70	0.00
367.90	0.00
368.10	0.00
368.30	0.00
368.49	0.00
368.69	0.00
368.89	0.00
369.09	0.00
369.28	0.00
369.48	0.00
369.68	0.00
369.87	0.00
370.07	0.00
370.27	0.00
370.47	0.00
370.66	0.00
370.86	18.72
371.06	0.00
371.25	0.00
371.45	16.38
371.65	0.00
371.84	2.34
372.04	16.38
372.24	0.00
372.44	0.00
372.63	0.00
372.83	0.00
373.03	0.00
373.22	39.79
373.42	0.00
373.62	18.72
373.81	72.56
374.01	4.68
374.21	0.00
374.40	49.15
374.60	79.58
374.79	0.00
374.99	56.17
375.19	18.72
375.38	53.83
375.58	46.81
375.78	51.49
375.97	51.49
376.17	60.85
376.37	23.41
376.56	88.94
376.76	0.00
376.95	2.34
377.15	9.36
377.35	46.81
377.54	0.00
377.74	30.43
377.93	30.43
378.13	14.04
378.33	7.02
378.52	91.28
378.72	0.00
378.91	0.00
379.11	21.06
379.31	21.06
379.50	16.38
379.70	0.00
379.89	0.00
380.09	16.38
380.28	0.00
380.48	7.02
380.68	95.96
380.87	11.70
381.07	0.00
381.26	18.72
381.46	0.00
381.65	63.19
381.85	14.04
382.04	105.32
382.24	0.00
382.43	0.00
382.63	4.68
382.83	0.00
383.02	0.00
383.22	0.00
383.41	14.04
383.61	72.56
383.80	9.36
384.00	0.00
384.19	42.13
384.39	14.04
384.58	102.98
384.78	0.00
384.97	0.00
385.17	9.36
385.36	18.72
385.56	44.47
385.75	4.68
385.95	0.00
386.14	110.01
386.34	25.75
386.53	0.00
386.72	11.70
386.92	4.68
387.11	25.75
387.31	21.06
387.50	0.00
387.70	70.22
387.89	0.00
388.09	0.00
388.28	39.79
388.48	53.83
388.67	0.00
388.86	37.45
389.06	4.68
389.25	21.06
389.45	0.00
389.64	0.00
389.84	53.83
390.03	58.51
390.22	37.45
390.42	0.00
390.61	0.00
390.81	37.45
391.00	53.83
391.19	37.45
391.39	18.72
391.58	25.75
391.78	28.09
391.97	56.17
392.16	46.81
392.36	0.00
392.55	46.81
392.75	0.00
392.94	0.00
393.13	0.00
393.33	23.41
393.52	81.92
393.71	23.41
393.91	93.62
394.10	44.47
394.29	39.79
394.49	0.00
394.68	49.15
394.88	53.83
395.07	2.34
395.26	0.00
395.46	0.00
395.65	49.15
395.84	28.09
396.04	44.47
396.23	25.75
396.42	23.41
396.62	95.96
396.81	0.00
397.00	39.79
397.19	9.36
397.39	44.47
397.58	9.36
397.77	37.45
397.97	98.30
398.16	9.36
398.35	49.15
398.55	0.00
398.74	21.06
398.93	51.49
399.12	44.47
399.32	21.06
399.51	0.00
399.70	30.43
399.90	11.70
400.09	32.77
400.28	70.22
400.47	0.00
400.67	0.00
400.86	16.38
401.05	51.49
401.24	0.00
401.44	0.00
401.63	98.30
401.82	49.15
402.01	25.75
402.21	39.79
402.40	9.36
402.59	9.36
402.78	60.85
402.97	0.00
403.17	0.00
403.36	30.43
403.55	23.41
403.74	0.00
403.93	2.34
404.13	18.72
404.32	0.00
404.51	18.72
404.70	53.83
404.89	60.85
405.09	39.79
405.28	70.22
405.47	23.41
405.66	35.11
405.85	49.15
406.05	0.00
406.24	9.36
406.43	0.00
406.62	51.49
406.81	4.68
407.00	0.00
407.20	11.70
407.39	44.47
407.58	67.88
407.77	7.02
407.96	28.09
408.15	44.47
408.34	79.58
408.54	0.00
408.73	0.00
408.92	35.11
409.11	105.32
409.30	25.75
409.49	32.77
409.68	81.92
409.87	0.00
410.07	58.51
410.26	74.90
410.45	0.00
410.64	23.41
410.83	0.00
411.02	0.00
411.21	32.77
411.40	4.68
411.59	60.85
411.78	46.81
411.98	4.68
412.17	77.24
412.36	9.36
412.55	32.77
412.74	72.56
412.93	58.51
413.12	91.28
413.31	28.09
413.50	39.79
413.69	65.54
413.88	23.41
414.07	25.75
414.26	18.72
414.45	16.38
414.64	126.39
414.83	11.70
415.02	0.00
415.22	0.00
415.41	58.51
415.60	9.36
415.79	16.38
415.98	23.41
416.17	44.47
416.36	11.70
416.55	18.72
416.74	28.09
416.93	25.75
417.12	4.68
417.31	42.13
417.50	37.45
417.69	46.81
417.88	60.85
418.07	42.13
418.26	0.00
418.45	16.38
418.64	63.19
418.83	72.56
419.02	25.75
419.21	37.45
419.39	65.54
419.58	53.83
419.77	37.45
419.96	128.73
420.15	0.00
420.34	25.75
420.53	16.38
420.72	124.05
420.91	18.72
421.10	58.51
421.29	46.81
421.48	0.00
421.67	39.79
421.86	37.45
422.05	77.24
422.24	70.22
422.43	0.00
422.61	11.70
422.80	51.49
422.99	98.30
423.18	9.36
423.37	35.11
423.56	0.00
423.75	0.00
423.94	95.96
424.13	21.06
424.32	4.68
424.50	88.94
424.69	74.90
424.88	42.13
425.07	35.11
425.26	53.83
425.45	35.11
425.64	0.00
425.83	60.85
426.01	37.45
426.20	102.98
426.39	0.00
426.58	28.09
426.77	51.49
426.96	49.15
427.15	0.00
427.33	86.60
427.52	35.11
427.71	23.41
427.90	39.79
428.09	2.34
428.28	60.85
428.46	53.83
428.65	0.00
428.84	25.75
429.03	37.45
429.22	65.54
429.40	65.54
429.59	72.56
429.78	28.09
429.97	30.43
430.16	14.04
430.34	0.00
430.53	74.90
430.72	93.62
430.91	37.45
431.10	51.49
431.28	72.56
431.47	58.51
431.66	53.83
431.85	51.49
432.03	0.00
432.22	44.47
432.41	77.24
432.60	0.00
432.79	14.04
432.97	11.70
433.16	30.43
433.35	98.30
433.54	0.00
433.72	35.11
433.91	37.45
434.10	7.02
434.28	56.17
434.47	23.41
434.66	88.94
434.85	42.13
435.03	42.13
435.22	138.09
435.41	7.02
435.59	60.85
435.78	28.09
435.97	7.02
436.16	81.92
436.34	56.17
436.53	93.62
436.72	49.15
436.90	35.11
437.09	16.38
437.28	63.19
437.46	58.51
437.65	37.45
437.84	18.72
438.02	35.11
438.21	100.64
438.40	53.83
438.58	18.72
438.77	37.45
438.96	63.19
439.14	51.49
439.33	14.04
439.52	30.43
439.70	53.83
439.89	88.94
440.08	56.17
440.26	4.68
440.45	0.00
440.63	98.30
440.82	0.00
441.01	16.38
441.19	30.43
441.38	0.00
441.57	60.85
441.75	0.00
441.94	60.85
442.12	102.98
442.31	110.01
442.50	65.54
442.68	21.06
442.87	88.94
443.05	32.77
443.24	100.64
443.43	93.62
443.61	81.92
443.80	18.72
443.98	14.04
444.17	28.09
444.35	0.00
444.54	46.81
444.73	44.47
444.91	21.06
445.10	0.00
445.28	51.49
445.47	2.34
445.65	72.56
445.84	100.64
446.02	119.37
446.21	67.88
446.39	105.32
446.58	72.56
446.77	42.13
446.95	65.54
447.14	56.17
447.32	16.38
447.51	28.09
447.69	39.79
447.88	72.56
448.06	51.49
448.25	74.90
448.43	112.35
448.62	91.28
448.80	98.30
448.99	49.15
449.17	67.88
449.36	44.47
449.54	30.43
449.73	44.47
449.91	0.00
450.10	65.54
450.28	131.07
450.46	93.62
450.65	28.09
450.83	72.56
451.02	16.38
451.20	65.54
451.39	35.11
451.57	72.56
451.76	67.88
451.94	7.02
452.13	60.85
452.31	32.77
452.49	60.85
452.68	58.51
452.86	121.71
453.05	23.41
453.23	67.88
453.42	21.06
453.60	0.00
453.78	74.90
453.97	42.13
454.15	30.43
454.34	67.88
454.52	42.13
454.70	0.00
454.89	42.13
455.07	51.49
455.26	37.45
455.44	23.41
455.62	21.06
455.81	11.70
455.99	14.04
456.17	65.54
456.36	37.45
456.54	44.47
456.73	100.64
456.91	60.85
457.09	37.45
457.28	0.00
457.46	16.38
457.64	4.68
457.83	39.79
458.01	65.54
458.19	121.71
458.38	0.00
458.56	39.79
458.74	74.90
458.93	161.50
459.11	0.00
459.29	81.92
459.48	42.13
459.66	0.00
459.84	72.56
460.03	49.15
460.21	105.32
460.39	46.81
460.57	16.38
460.76	81.92
460.94	37.45
461.12	65.54
461.31	126.39
461.49	86.60
461.67	7.02
461.85	60.85
462.04	53.83
462.22	93.62
462.40	28.09
462.59	138.09
462.77	49.15
462.95	67.88
463.13	67.88
463.32	72.56
463.50	0.00
463.68	56.17
463.86	49.15
464.05	28.09
464.23	70.22
464.41	114.69
464.59	58.51
464.78	72.56
464.96	35.11
465.14	88.94
465.32	110.01
465.50	98.30
465.69	30.43
465.87	86.60
466.05	25.75
466.23	72.56
466.41	46.81
466.60	46.81
466.78	18.72
466.96	0.00
467.14	0.00
467.32	51.49
467.51	0.00
467.69	63.19
467.87	79.58
468.05	81.92
468.23	173.20
468.41	7.02
468.60	42.13
468.78	32.77
468.96	60.85
469.14	79.58
469.32	0.00
469.50	39.79
469.69	117.03
469.87	105.32
470.05	0.00
470.23	32.77
470.41	0.00
470.59	42.13
470.77	37.45
470.95	105.32
471.14	100.64
471.32	23.41
471.50	65.54
471.68	42.13
471.86	51.49
472.04	53.83
472.22	16.38
472.40	60.85
472.58	51.49
472.77	60.85
472.95	65.54
473.13	67.88
473.31	135.75
473.49	119.37
473.67	32.77
473.85	2.34
474.03	145.11
474.21	77.24
474.39	58.51
474.57	79.58
474.75	37.45
474.93	70.22
475.12	74.90
475.30	28.09
475.48	58.51
475.66	46.81
475.84	32.77
476.02	72.56
476.20	51.49
476.38	86.60
476.56	16.38
476.74	46.81
476.92	7.02
477.10	67.88
477.28	16.38
477.46	70.22
477.64	44.47
477.82	77.24
478.00	18.72
478.18	95.96
478.36	53.83
478.54	58.51
478.72	32.77
478.90	79.58
479.08	93.62
479.26	0.00
479.44	4.68
479.62	107.66
479.80	67.88
479.98	65.54
480.16	53.83
480.34	100.64
480.52	63.19
480.70	65.54
480.88	39.79
481.06	79.58
481.24	65.54
481.41	86.60
481.59	58.51
481.77	42.13
481.95	65.54
482.13	44.47
482.31	79.58
482.49	72.56
482.67	119.37
482.85	60.85
483.03	74.90
483.21	7.02
483.39	42.13
483.57	72.56
483.74	35.11
483.92	42.13
484.10	79.58
484.28	0.00
484.46	128.73
484.64	56.17
484.82	37.45
485.00	86.60
485.18	131.07
485.35	35.11
485.53	98.30
485.71	21.06
485.89	21.06
486.07	140.43
486.25	32.77
486.43	93.62
486.61	107.66
486.78	70.22
486.96	65.54
487.14	42.13
487.32	30.43
487.50	102.98
487.68	81.92
487.85	112.35
488.03	23.41
488.21	72.56
488.39	58.51
488.57	49.15
488.75	72.56
488.92	39.79
489.10	77.24
489.28	86.60
489.46	91.28
489.64	102.98
489.81	0.00
489.99	14.04
490.17	175.54
490.35	100.64
490.53	53.83
490.70	84.26
490.88	84.26
491.06	67.88
491.24	126.39
491.41	107.66
491.59	42.13
491.77	46.81
491.95	0.00
492.13	0.00
492.30	65.54
492.48	81.92
492.66	23.41
492.84	91.28
493.01	102.98
493.19	72.56
493.37	74.90
493.54	28.09
493.72	84.26
493.90	63.19
494.08	70.22
494.25	72.56
494.43	100.64
494.61	110.01
494.79	35.11
494.96	65.54
495.14	105.32
495.32	105.32
495.49	72.56
495.67	107.66
495.85	70.22
496.02	30.43
496.20	44.47
496.38	32.77
496.55	74.90
496.73	112.35
496.91	58.51
497.09	91.28
497.26	72.56
497.44	4.68
497.62	77.24
497.79	84.26
497.97	86.60
498.14	91.28
498.32	110.01
498.50	14.04
498.67	121.71
498.85	58.51
499.03	79.58
499.20	51.49
499.38	77.24
499.56	121.71
499.73	67.88
499.91	39.79
500.08	95.96
500.26	98.30
500.44	72.56
500.61	67.88
500.79	53.83
500.97	119.37
501.14	110.01
501.32	91.28
501.49	86.60
501.67	56.17
501.84	37.45
502.02	0.00
502.20	42.13
502.37	18.72
502.55	65.54
502.72	56.17
502.90	60.85
503.07	16.38
503.25	72.56
503.43	124.05
503.60	60.85
503.78	110.01
503.95	51.49
504.13	37.45
504.30	53.83
504.48	135.75
504.65	93.62
504.83	37.45
505.01	39.79
505.18	152.13
505.36	102.98
505.53	145.11
505.71	58.51
505.88	70.22
506.06	70.22
506.23	135.75
506.41	124.05
506.58	77.24
506.76	63.19
506.93	42.13
507.11	100.64
507.28	110.01
507.46	58.51
507.63	88.94
507.81	39.79
507.98	9.36
508.16	119.37
508.33	72.56
508.50	138.09
508.68	145.11
508.85	67.88
509.03	98.30
509.20	39.79
509.38	86.60
509.55	105.32
509.73	114.69
509.90	16.38
510.08	44.47
510.25	100.64
510.42	110.01
510.60	39.79
510.77	23.41
510.95	49.15
511.12	74.90
511.30	14.04
511.47	67.88
511.64	91.28
511.82	88.94
511.99	37.45
512.17	84.26
512.34	98.30
512.51	91.28
512.69	14.04
512.86	23.41
513.04	86.60
513.21	95.96
513.38	110.01
513.56	39.79
513.73	112.35
513.90	39.79
514.08	67.88
514.25	88.94
514.43	25.75
514.60	42.13
514.77	70.22
514.95	110.01
515.12	77.24
515.29	100.64
515.47	53.83
515.64	74.90
515.81	110.01
515.99	86.60
516.16	51.49
516.33	138.09
516.51	37.45
516.68	77.24
516.85	11.70
517.03	88.94
517.20	0.00
517.37	100.64
517.54	86.60
517.72	81.92
517.89	98.30
518.06	28.09
518.24	135.75
518.41	154.48
518.58	110.01
518.75	79.58
518.93	44.47
519.10	198.95
519.27	56.17
519.45	60.85
519.62	114.69
519.79	121.71
519.96	135.75
520.14	0.00
520.31	117.03
520.48	105.32
520.65	93.62
520.83	23.41
521.00	124.05
521.17	77.24
521.34	65.54
521.52	95.96
521.69	107.66
521.86	53.83
522.03	121.71
522.20	126.39
522.38	63.19
522.55	63.19
522.72	107.66
522.89	124.05
523.07	74.90
523.24	140.43
523.41	79.58
523.58	86.60
523.75	79.58
523.92	49.15
524.10	74.90
524.27	51.49
524.44	65.54
524.61	88.94
524.78	65.54
524.96	140.43
525.13	88.94
525.30	114.69
525.47	18.72
525.64	25.75
525.81	30.43
525.98	53.83
526.16	42.13
526.33	86.60
526.50	138.09
526.67	14.04
526.84	60.85
527.01	79.58
527.18	95.96
527.36	81.92
527.53	156.82
527.70	18.72
527.87	126.39
528.04	198.95
528.21	140.43
528.38	4.68
528.55	117.03
528.72	25.75
528.89	128.73
529.07	124.05
529.24	110.01
529.41	70.22
529.58	88.94
529.75	42.13
529.92	107.66
530.09	72.56
530.26	114.69
530.43	138.09
530.60	63.19
530.77	152.13
530.94	93.62
531.11	149.79
531.28	11.70
531.46	152.13
531.63	9.36
531.80	79.58
531.97	56.17
532.14	53.83
532.31	25.75
532.48	70.22
532.65	142.77
532.82	117.03
532.99	102.98
533.16	117.03
533.33	86.60
533.50	117.03
533.67	28.09
533.84	32.77
534.01	21.06
534.18	60.85
534.35	81.92
534.52	79.58
534.69	112.35
534.86	58.51
535.03	84.26
535.20	72.56
535.37	88.94
535.54	58.51
535.71	56.17
535.88	117.03
536.05	147.45
536.22	95.96
536.38	110.01
536.55	37.45
536.72	138.09
536.89	67.88
537.06	65.54
537.23	121.71
537.40	126.39
537.57	56.17
537.74	84.26
537.91	105.32
538.08	70.22
538.25	63.19
538.42	44.47
538.59	161.50
538.75	142.77
538.92	65.54
539.09	0.00
539.26	112.35
539.43	128.73
539.60	79.58
539.77	88.94
539.94	32.77
540.11	126.39
540.28	91.28
540.44	23.41
540.61	110.01
540.78	152.13
540.95	60.85
541.12	32.77
541.29	42.13
541.46	77.24
541.62	133.41
541.79	88.94
541.96	107.66
542.13	128.73
542.30	93.62
542.47	0.00
542.63	32.77
542.80	39.79
542.97	60.85
543.14	18.72
543.31	84.26
543.48	70.22
543.64	37.45
543.81	110.01
543.98	145.11
544.15	28.09
544.32	124.05
544.48	46.81
544.65	65.54
544.82	70.22
544.99	152.13
545.16	126.39
545.32	93.62
545.49	86.60
545.66	102.98
545.83	100.64
546.00	2.34
546.16	86.60
546.33	65.54
546.50	86.60
546.67	124.05
546.83	86.60
547.00	74.90
547.17	63.19
547.34	95.96
547.50	70.22
547.67	51.49
547.84	39.79
548.00	37.45
548.17	105.32
548.34	42.13
548.51	156.82
548.67	117.03
548.84	84.26
549.01	67.88
549.18	72.56
549.34	93.62
549.51	60.85
549.68	63.19
549.84	51.49
550.01	100.64
550.18	100.64
550.34	91.28
550.51	112.35
550.68	124.05
550.84	145.11
551.01	51.49
551.18	72.56
551.34	102.98
551.51	77.24
551.68	58.51
551.84	65.54
552.01	49.15
552.18	98.30
552.34	70.22
552.51	63.19
552.68	51.49
552.84	25.75
553.01	7.02
553.18	72.56
553.34	58.51
553.51	126.39
553.67	128.73
553.84	95.96
554.01	105.32
554.17	147.45
554.34	79.58
554.51	154.48
554.67	56.17
554.84	51.49
555.00	88.94
555.17	95.96
555.33	77.24
555.50	117.03
555.67	51.49
555.83	63.19
556.00	121.71
556.16	56.17
556.33	159.16
556.50	95.96
556.66	93.62
556.83	46.81
556.99	72.56
557.16	37.45
557.32	131.07
557.49	98.30
557.65	21.06
557.82	23.41
557.98	58.51
558.15	133.41
558.32	88.94
558.48	37.45
558.65	72.56
558.81	37.45
558.98	39.79
559.14	39.79
559.31	93.62
559.47	91.28
559.64	42.13
559.80	102.98
559.97	95.96
560.13	65.54
560.30	81.92
560.46	128.73
560.63	91.28
560.79	93.62
560.96	112.35
561.12	0.00
561.29	35.11
561.45	37.45
561.61	91.28
561.78	147.45
561.94	32.77
562.11	65.54
562.27	28.09
562.44	77.24
562.60	140.43
562.77	32.77
562.93	95.96
563.10	124.05
563.26	74.90
563.42	39.79
563.59	56.17
563.75	84.26
563.92	112.35
564.08	56.17
564.24	107.66
564.41	42.13
564.57	112.35
564.74	98.30
564.90	88.94
565.07	60.85
565.23	56.17
565.39	58.51
565.56	72.56
565.72	189.58
565.88	70.22
566.05	74.90
566.21	112.35
566.38	128.73
566.54	44.47
566.70	67.88
566.87	105.32
567.03	145.11
567.19	11.70
567.36	88.94
567.52	70.22
567.68	142.77
567.85	124.05
568.01	21.06
568.17	93.62
568.34	72.56
568.50	88.94
568.66	135.75
568.83	7.02
568.99	14.04
569.15	93.62
569.32	74.90
569.48	93.62
569.64	30.43
569.81	37.45
569.97	91.28
570.13	102.98
570.30	152.13
570.46	81.92
570.62	9.36
570.78	77.24
570.95	70.22
571.11	67.88
571.27	102.98
571.43	81.92
571.60	28.09
571.76	114.69
571.92	131.07
572.09	100.64
572.25	72.56
572.41	70.22
572.57	124.05
572.74	105.32
572.90	105.32
573.06	81.92
573.22	86.60
573.38	105.32
573.55	70.22
573.71	65.54
573.87	42.13
574.03	42.13
574.20	77.24
574.36	37.45
574.52	56.17
574.68	133.41
574.84	121.71
575.01	63.19
575.17	77.24
575.33	65.54
575.49	63.19
575.65	72.56
575.82	91.28
575.98	79.58
576.14	60.85
576.30	39.79
576.46	74.90
576.62	77.24
576.79	102.98
576.95	110.01
577.11	98.30
577.27	56.17
577.43	49.15
577.59	107.66
577.75	65.54
577.92	16.38
578.08	112.35
578.24	79.58
578.40	7.02
578.56	53.83
578.72	84.26
578.88	44.47
579.04	53.83
579.21	112.35
579.37	102.98
579.53	58.51
579.69	16.38
579.85	58.51
580.01	154.48
580.17	117.03
580.33	23.41
580.49	117.03
580.65	77.24
580.82	65.54
580.98	112.35
581.14	18.72
581.30	74.90
581.46	98.30
581.62	91.28
581.78	112.35
581.94	9.36
582.10	70.22
582.26	35.11
582.42	42.13
582.58	105.32
582.74	119.37
582.90	100.64
583.06	77.24
583.22	88.94
583.38	42.13
583.54	56.17
583.70	100.64
583.86	100.64
584.02	100.64
584.18	91.28
584.34	138.09
584.50	39.79
584.66	65.54
584.82	86.60
584.98	124.05
585.14	72.56
585.30	114.69
585.46	56.17
585.62	28.09
585.78	11.70
585.94	51.49
586.10	72.56
586.26	42.13
586.42	53.83
586.58	28.09
586.74	86.60
586.90	112.35
587.06	110.01
587.22	42.13
587.38	147.45
587.54	63.19
587.70	138.09
587.86	53.83
588.02	42.13
588.18	67.88
588.34	53.83
588.49	32.77
588.65	60.85
588.81	93.62
588.97	88.94
589.13	81.92
589.29	79.58
589.45	88.94
589.61	0.00
589.77	74.90
589.93	93.62
590.08	86.60
590.24	32.77
590.40	79.58
590.56	51.49
590.72	18.72
590.88	42.13
591.04	84.26
591.20	0.00
591.35	105.32
591.51	51.49
591.67	102.98
591.83	16.38
591.99	56.17
592.15	110.01
592.31	124.05
592.46	91.28
592.62	60.85
592.78	105.32
592.94	4.68
593.10	60.85
593.26	53.83
593.41	149.79
593.57	102.98
593.73	63.19
593.89	86.60
594.05	98.30
594.20	0.00
594.36	84.26
594.52	42.13
594.68	58.51
594.84	93.62
594.99	128.73
595.15	58.51
595.31	65.54
595.47	42.13
595.62	4.68
595.78	49.15
595.94	95.96
596.10	81.92
596.25	49.15
596.41	72.56
596.57	91.28
596.73	100.64
596.88	84.26
597.04	70.22
597.20	65.54
597.36	0.00
597.51	51.49
597.67	114.69
597.83	25.75
597.99	67.88
598.14	21.06
598.30	74.90
598.46	86.60
598.61	79.58
598.77	65.54
598.93	63.19
599.09	46.81
599.24	70.22
599.40	60.85
599.56	74.90
599.71	53.83
599.87	100.64
600.03	49.15
600.18	95.96
600.34	58.51
600.50	51.49
600.65	30.43
600.81	79.58
600.97	18.72
601.12	117.03
601.28	93.62
601.44	4.68
601.59	65.54
601.75	65.54
601.91	70.22
602.06	0.00
602.22	9.36
602.37	60.85
602.53	100.64
602.69	37.45
602.84	30.43
603.00	7.02
603.16	119.37
603.31	28.09
603.47	95.96
603.62	70.22
603.78	58.51
603.94	81.92
604.09	79.58
604.25	42.13
604.40	32.77
604.56	0.00
604.71	81.92
604.87	60.85
605.03	117.03
605.18	93.62
605.34	51.49
605.49	63.19
605.65	51.49
605.80	46.81
605.96	70.22
606.12	84.26
606.27	49.15
606.43	100.64
606.58	18.72
606.74	32.77
606.89	2.34
607.05	56.17
607.20	30.43
607.36	30.43
607.51	126.39
607.67	98.30
607.82	72.56
607.98	44.47
608.13	53.83
608.29	98.30
608.44	112.35
608.60	119.37
608.75	63.19
608.91	72.56
609.06	60.85
609.22	60.85
609.37	67.88
609.53	114.69
609.68	39.79
609.84	91.28
609.99	32.77
610.15	58.51
610.30	138.09
610.46	56.17
610.61	67.88
610.76	102.98
610.92	23.41
611.07	88.94
611.23	100.64
611.38	14.04
611.54	56.17
611.69	84.26
611.84	49.15
612.00	84.26
612.15	81.92
612.31	88.94
612.46	51.49
612.62	0.00
612.77	37.45
612.92	37.45
613.08	32.77
613.23	60.85
613.39	93.62
613.54	58.51
613.69	60.85
613.85	70.22
614.00	28.09
614.15	93.62
614.31	112.35
614.46	2.34
614.62	53.83
614.77	0.00
614.92	70.22
615.08	95.96
615.23	0.00
615.38	88.94
615.54	91.28
615.69	28.09
615.84	14.04
616.00	7.02
616.15	44.47
616.30	124.05
616.46	140.43
616.61	105.32
616.76	65.54
616.92	86.60
617.07	79.58
617.22	77.24
617.37	86.60
617.53	65.54
617.68	98.30
617.83	7.02
617.99	98.30
618.14	112.35
618.29	98.30
618.45	35.11
618.60	142.77
618.75	77.24
618.90	56.17
619.06	67.88
619.21	72.56
619.36	95.96
619.51	79.58
619.67	32.77
619.82	56.17
619.97	88.94
620.12	63.19
620.28	86.60
620.43	46.81
620.58	72.56
620.73	21.06
620.89	25.75
621.04	145.11
621.19	110.01
621.34	65.54
621.49	32.77
621.65	58.51
621.80	58.51
621.95	44.47
622.10	110.01
622.25	11.70
622.41	74.90
622.56	67.88
622.71	0.00
622.86	32.77
623.01	9.36
623.16	58.51
623.32	70.22
623.47	51.49
623.62	74.90
623.77	42.13
623.92	105.32
624.07	18.72
624.23	0.00
624.38	65.54
624.53	100.64
624.68	53.83
624.83	11.70
624.98	23.41
625.13	28.09
625.29	46.81
625.44	88.94
625.59	46.81
625.74	4.68
625.89	67.88
626.04	110.01
626.19	28.09
626.34	53.83
626.49	28.09
626.65	35.11
626.80	60.85
626.95	60.85
627.10	100.64
627.25	56.17
627.40	39.79
627.55	18.72
627.70	63.19
627.85	93.62
628.00	18.72
628.15	67.88
628.30	46.81
628.45	74.90
628.60	72.56
628.76	72.56
628.91	102.98
629.06	53.83
629.21	11.70
629.36	65.54
629.51	37.45
629.66	112.35
629.81	140.43
629.96	107.66
630.11	67.88
630.26	44.47
630.41	100.64
630.56	154.48
630.71	65.54
630.86	105.32
631.01	81.92
631.16	102.98
631.31	65.54
631.46	126.39
631.61	112.35
631.76	91.28
631.91	67.88
632.06	77.24
632.21	98.30
632.36	102.98
632.51	35.11
632.66	37.45
632.81	86.60
632.96	0.00
633.10	37.45
633.25	37.45
633.40	77.24
633.55	42.13
633.70	56.17
633.85	39.79
634.00	49.15
634.15	79.58
634.30	107.66
634.45	63.19
634.60	37.45
634.75	39.79
634.90	91.28
635.05	16.38
635.19	79.58
635.34	49.15
635.49	131.07
635.64	0.00
635.79	121.71
635.94	0.00
636.09	0.00
636.24	21.06
636.39	0.00
636.53	81.92
636.68	35.11
636.83	63.19
636.98	88.94
637.13	138.09
637.28	46.81
637.43	32.77
637.57	14.04
637.72	60.85
637.87	49.15
638.02	23.41
638.17	23.41
638.32	72.56
638.46	39.79
638.61	46.81
638.76	46.81
638.91	25.75
639.06	110.01
639.20	67.88
639.35	51.49
639.50	0.00
639.65	79.58
639.80	58.51
639.94	51.49
640.09	107.66
640.24	53.83
640.39	37.45
640.54	63.19
640.68	39.79
640.83	72.56
640.98	128.73
641.13	124.05
641.27	86.60
641.42	21.06
641.57	0.00
641.72	35.11
641.86	35.11
642.01	21.06
642.16	70.22
642.31	88.94
642.45	72.56
642.60	81.92
642.75	107.66
642.90	79.58
643.04	81.92
643.19	44.47
643.34	30.43
643.48	63.19
643.63	100.64
643.78	81.92
643.93	84.26
644.07	56.17
644.22	105.32
644.37	65.54
644.51	135.75
644.66	70.22
644.81	63.19
644.95	42.13
645.10	93.62
645.25	152.13
645.39	42.13
645.54	16.38
645.69	60.85
645.83	0.00
645.98	25.75
646.13	35.11
646.27	67.88
646.42	37.45
646.57	102.98
646.71	53.83
646.86	28.09
647.00	95.96
647.15	49.15
647.30	112.35
647.44	77.24
647.59	42.13
647.74	0.00
647.88	51.49
648.03	32.77
648.17	60.85
648.32	65.54
648.47	65.54
648.61	74.90
648.76	70.22
648.90	4.68
649.05	81.92
649.20	44.47
649.34	30.43
649.49	51.49
649.63	74.90
649.78	60.85
649.92	35.11
650.07	84.26
650.21	0.00
650.36	102.98
650.51	65.54
650.65	77.24
650.80	9.36
650.94	42.13
651.09	16.38
651.23	28.09
651.38	7.02
651.52	2.34
651.67	51.49
651.81	51.49
651.96	93.62
652.10	9.36
652.25	9.36
652.39	86.60
652.54	60.85
652.68	110.01
652.83	0.00
652.97	77.24
653.12	81.92
653.26	30.43
653.41	159.16
653.55	65.54
653.70	56.17
653.84	79.58
653.99	65.54
654.13	39.79
654.27	93.62
654.42	16.38
654.56	105.32
654.71	39.79
654.85	67.88
655.00	0.00
655.14	16.38
655.29	88.94
655.43	114.69
655.57	7.02
655.72	0.00
655.86	65.54
656.01	44.47
656.15	2.34
656.30	21.06
656.44	65.54
656.58	67.88
656.73	42.13
656.87	53.83
657.01	49.15
657.16	18.72
657.30	35.11
657.45	23.41
657.59	95.96
657.73	39.79
657.88	72.56
658.02	25.75
658.16	56.17
658.31	70.22
658.45	81.92
658.60	77.24
658.74	119.37
658.88	63.19
659.03	16.38
659.17	9.36
659.31	14.04
659.46	0.00
659.60	56.17
659.74	37.45
659.89	0.00
660.03	93.62
660.17	63.19
660.32	25.75
660.46	23.41
660.60	53.83
660.74	91.28
660.89	131.07
661.03	32.77
661.17	102.98
661.32	88.94
661.46	4.68
661.60	63.19
661.74	95.96
661.89	86.60
662.03	100.64
662.17	37.45
662.31	86.60
662.46	46.81
662.60	77.24
662.74	56.17
662.88	72.56
663.03	16.38
663.17	23.41
663.31	98.30
663.45	74.90
663.60	114.69
663.74	44.47
663.88	0.00
664.02	0.00
664.17	70.22
664.31	32.77
664.45	4.68
664.59	35.11
664.73	70.22
664.88	2.34
665.02	67.88
665.16	0.00
665.30	58.51
665.44	63.19
665.59	102.98
665.73	42.13
665.87	81.92
666.01	60.85
666.15	0.00
666.29	102.98
666.44	32.77
666.58	30.43
666.72	49.15
666.86	65.54
667.00	32.77
667.14	0.00
667.28	25.75
667.43	84.26
667.57	25.75
667.71	70.22
667.85	107.66
667.99	46.81
668.13	58.51
668.27	18.72
668.41	86.60
668.56	60.85
668.70	74.90
668.84	46.81
668.98	46.81
669.12	28.09
669.26	91.28
669.40	63.19
669.54	77.24
669.68	39.79
669.82	60.85
669.96	14.04
670.10	88.94
670.25	30.43
670.39	0.00
670.53	67.88
670.67	95.96
670.81	58.51
670.95	77.24
671.09	4.68
671.23	0.00
671.37	18.72
671.51	98.30
671.65	74.90
671.79	30.43
671.93	65.54
672.07	9.36
672.21	4.68
672.35	58.51
672.49	79.58
672.63	79.58
672.77	91.28
672.91	21.06
673.05	63.19
673.19	39.79
673.33	2.34
673.47	58.51
673.61	51.49
673.75	14.04
673.89	170.86
674.03	84.26
674.17	79.58
674.31	102.98
674.45	98.30
674.59	42.13
674.73	28.09
674.87	95.96
675.01	2.34
675.15	58.51
675.29	0.00
675.43	37.45
675.56	39.79
675.70	42.13
675.84	112.35
675.98	30.43
676.12	58.51
676.26	32.77
676.40	14.04
676.54	88.94
676.68	117.03
676.82	30.43
676.96	65.54
677.10	21.06
677.23	107.66
677.37	81.92
677.51	77.24
677.65	39.79
677.79	39.79
677.93	4.68
678.07	23.41
678.21	77.24
678.34	74.90
678.48	114.69
678.62	98.30
678.76	51.49
678.90	39.79
679.04	100.64
679.18	7.02
679.31	37.45
679.45	0.00
679.59	77.24
679.73	100.64
679.87	86.60
680.00	39.79
680.14	72.56
680.28	9.36
680.42	91.28
680.56	72.56
680.70	86.60
680.83	0.00
680.97	72.56
681.11	70.22
681.25	63.19
681.39	23.41
681.52	23.41
681.66	77.24
681.80	60.85
681.94	133.41
682.07	25.75
682.21	0.00
682.35	9.36
682.49	74.90
682.62	21.06
682.76	60.85
682.90	77.24
683.04	0.00
683.17	121.71
683.31	37.45
683.45	81.92
683.59	0.00
683.72	56.17
683.86	0.00
684.00	107.66
684.13	18.72
684.27	53.83
684.41	102.98
684.55	23.41
684.68	72.56
684.82	46.81
684.96	74.90
685.09	39.79
685.23	84.26
685.37	88.94
685.50	35.11
685.64	86.60
685.78	56.17
685.91	51.49
686.05	56.17
686.19	0.00
686.32	60.85
686.46	88.94
686.60	88.94
686.73	7.02
686.87	42.13
687.01	11.70
687.14	0.00
687.28	74.90
687.42	21.06
687.55	44.47
687.69	39.79
687.82	53.83
687.96	0.00
688.10	0.00
688.23	51.49
688.37	0.00
688.50	100.64
688.64	79.58
688.78	0.00
688.91	77.24
689.05	93.62
689.18	42.13
689.32	0.00
689.46	56.17
689.59	98.30
689.73	98.30
689.86	16.38
690.00	18.72
690.13	23.41
690.27	0.00
690.41	72.56
690.54	2.34
690.68	79.58
690.81	39.79
690.95	67.88
691.08	30.43
691.22	49.15
691.35	39.79
691.49	7.02
691.62	32.77
691.76	133.41
691.89	79.58
692.03	32.77
692.16	67.88
692.30	2.34
692.43	77.24
692.57	42.13
692.70	65.54
692.84	2.34
692.97	63.19
693.11	53.83
693.24	25.75
693.38	56.17
693.51	0.00
693.65	28.09
693.78	0.00
693.92	14.04
694.05	0.00
694.19	0.00
694.32	35.11
694.45	11.70
694.59	37.45
694.72	32.77
694.86	65.54
694.99	2.34
695.13	56.17
695.26	4.68
695.39	14.04
695.53	11.70
695.66	0.00
695.80	30.43
695.93	7.02
696.07	11.70
696.20	39.79
696.33	0.00
696.47	35.11
696.60	0.00
696.73	112.35
696.87	16.38
697.00	0.00
697.14	0.00
697.27	32.77
697.40	35.11
697.54	18.72
697.67	56.17
697.80	46.81
697.94	56.17
698.07	49.15
698.21	46.81
698.34	135.75
698.47	30.43
698.61	7.02
698.74	53.83
698.87	51.49
699.01	58.51
699.14	0.00
699.27	32.77
699.40	2.34
699.54	58.51
699.67	74.90
699.80	51.49
699.94	65.54
700.07	7.02
700.20	14.04
700.34	81.92
700.47	107.66
700.60	0.00
700.73	2.34
700.87	0.00
701.00	14.04
701.13	30.43
701.26	32.77
701.40	0.00
701.53	4.68
701.66	18.72
701.79	0.00
701.93	23.41
702.06	51.49
702.19	32.77
702.32	81.92
702.46	14.04
702.59	32.77
702.72	32.77
702.85	0.00
702.99	35.11
703.12	117.03
703.25	72.56
703.38	18.72
703.51	46.81
703.65	37.45
703.78	91.28
703.91	16.38
704.04	51.49
704.17	39.79
704.31	7.02
704.44	7.02
704.57	60.85
704.70	14.04
704.83	0.00
704.96	86.60
705.10	0.00
705.23	49.15
>>>>>End Processed Spectral Data<<<<<
