SpectraSuite Data File
++++++++++++++++++++++++++++++++++++
Date: Fri Oct 04 12:13:26 GMT-05:00 2013
User: price-jones
Dark Spectrum Present: No
Reference Spectrum Present: No
Number of Sampled Component Spectra: 1
Spectrometers: USB2+H05261
Integration Time (usec): 10000 (USB2+H05261)
Spectra Averaged: 1 (USB2+H05261)
Boxcar Smoothing: 0 (USB2+H05261)
Correct for Electrical Dark: No (USB2+H05261)
Strobe/Lamp Enabled: No (USB2+H05261)
Correct for Detector Non-linearity: No (USB2+H05261)
Correct for Stray Light: No (USB2+H05261)
Number of Pixels in Processed Spectrum: 2048
>>>>>Begin Processed Spectral Data<<<<<
365.73	49.15
365.92	49.15
366.12	49.15
366.32	0.00
366.52	0.00
366.72	0.00
366.91	0.00
367.11	0.00
367.31	0.00
367.51	0.00
367.70	0.00
367.90	0.00
368.10	0.00
368.30	0.00
368.49	0.00
368.69	0.00
368.89	0.00
369.09	0.00
369.28	0.00
369.48	0.00
369.68	0.00
369.87	0.00
370.07	0.00
370.27	0.00
370.47	0.00
370.66	0.00
370.86	0.00
371.06	0.00
371.25	9.36
371.45	0.00
371.65	28.09
371.84	0.00
372.04	18.72
372.24	14.04
372.44	18.72
372.63	56.17
372.83	18.72
373.03	53.83
373.22	0.00
373.42	53.83
373.62	9.36
373.81	102.98
374.01	0.00
374.21	16.38
374.40	65.54
374.60	9.36
374.79	95.96
374.99	42.13
375.19	56.17
375.38	2.34
375.58	30.43
375.78	30.43
375.97	56.17
376.17	16.38
376.37	81.92
376.56	18.72
376.76	35.11
376.95	0.00
377.15	9.36
377.35	4.68
377.54	16.38
377.74	42.13
377.93	0.00
378.13	21.06
378.33	14.04
378.52	49.15
378.72	65.54
378.91	25.75
379.11	35.11
379.31	42.13
379.50	35.11
379.70	23.41
379.89	0.00
380.09	4.68
380.28	0.00
380.48	37.45
380.68	49.15
380.87	0.00
381.07	0.00
381.26	65.54
381.46	51.49
381.65	60.85
381.85	25.75
382.04	72.56
382.24	70.22
382.43	14.04
382.63	16.38
382.83	49.15
383.02	79.58
383.22	28.09
383.41	18.72
383.61	0.00
383.80	0.00
384.00	0.00
384.19	0.00
384.39	49.15
384.58	37.45
384.78	63.19
384.97	0.00
385.17	25.75
385.36	23.41
385.56	0.00
385.75	0.00
385.95	30.43
386.14	0.00
386.34	0.00
386.53	63.19
386.72	46.81
386.92	53.83
387.11	14.04
387.31	44.47
387.50	18.72
387.70	18.72
387.89	0.00
388.09	0.00
388.28	84.26
388.48	74.90
388.67	0.00
388.86	11.70
389.06	0.00
389.25	0.00
389.45	0.00
389.64	49.15
389.84	11.70
390.03	0.00
390.22	0.00
390.42	42.13
390.61	88.94
390.81	0.00
391.00	0.00
391.19	0.00
391.39	0.00
391.58	28.09
391.78	0.00
391.97	65.54
392.16	23.41
392.36	72.56
392.55	0.00
392.75	0.00
392.94	4.68
393.13	37.45
393.33	0.00
393.52	11.70
393.71	44.47
393.91	0.00
394.10	4.68
394.29	0.00
394.49	53.83
394.68	0.00
394.88	51.49
395.07	42.13
395.26	0.00
395.46	58.51
395.65	7.02
395.84	0.00
396.04	32.77
396.23	42.13
396.42	42.13
396.62	0.00
396.81	18.72
397.00	35.11
397.19	21.06
397.39	0.00
397.58	25.75
397.77	2.34
397.97	23.41
398.16	28.09
398.35	0.00
398.55	30.43
398.74	9.36
398.93	23.41
399.12	63.19
399.32	49.15
399.51	70.22
399.70	35.11
399.90	60.85
400.09	60.85
400.28	70.22
400.47	18.72
400.67	42.13
400.86	49.15
401.05	0.00
401.24	25.75
401.44	42.13
401.63	7.02
401.82	39.79
402.01	42.13
402.21	56.17
402.40	0.00
402.59	0.00
402.78	11.70
402.97	21.06
403.17	0.00
403.36	0.00
403.55	0.00
403.74	42.13
403.93	30.43
404.13	0.00
404.32	70.22
404.51	23.41
404.70	56.17
404.89	49.15
405.09	25.75
405.28	39.79
405.47	100.64
405.66	70.22
405.85	58.51
406.05	0.00
406.24	46.81
406.43	46.81
406.62	37.45
406.81	35.11
407.00	18.72
407.20	39.79
407.39	21.06
407.58	0.00
407.77	23.41
407.96	60.85
408.15	51.49
408.34	0.00
408.54	37.45
408.73	35.11
408.92	2.34
409.11	46.81
409.30	114.69
409.49	2.34
409.68	70.22
409.87	0.00
410.07	23.41
410.26	21.06
410.45	0.00
410.64	42.13
410.83	0.00
411.02	0.00
411.21	53.83
411.40	46.81
411.59	88.94
411.78	21.06
411.98	32.77
412.17	4.68
412.36	18.72
412.55	0.00
412.74	16.38
412.93	32.77
413.12	42.13
413.31	18.72
413.50	49.15
413.69	67.88
413.88	51.49
414.07	21.06
414.26	72.56
414.45	0.00
414.64	7.02
414.83	77.24
415.02	0.00
415.22	0.00
415.41	14.04
415.60	72.56
415.79	0.00
415.98	0.00
416.17	16.38
416.36	42.13
416.55	30.43
416.74	42.13
416.93	44.47
417.12	63.19
417.31	42.13
417.50	95.96
417.69	88.94
417.88	74.90
418.07	0.00
418.26	0.00
418.45	0.00
418.64	93.62
418.83	35.11
419.02	14.04
419.21	42.13
419.39	0.00
419.58	51.49
419.77	2.34
419.96	119.37
420.15	0.00
420.34	0.00
420.53	37.45
420.72	9.36
420.91	74.90
421.10	72.56
421.29	16.38
421.48	95.96
421.67	37.45
421.86	74.90
422.05	35.11
422.24	42.13
422.43	65.54
422.61	2.34
422.80	105.32
422.99	37.45
423.18	32.77
423.37	14.04
423.56	0.00
423.75	0.00
423.94	0.00
424.13	25.75
424.32	51.49
424.50	42.13
424.69	0.00
424.88	0.00
425.07	16.38
425.26	63.19
425.45	11.70
425.64	14.04
425.83	0.00
426.01	9.36
426.20	28.09
426.39	72.56
426.58	72.56
426.77	72.56
426.96	0.00
427.15	35.11
427.33	35.11
427.52	0.00
427.71	0.00
427.90	14.04
428.09	0.00
428.28	23.41
428.46	0.00
428.65	0.00
428.84	56.17
429.03	0.00
429.22	37.45
429.40	0.00
429.59	14.04
429.78	0.00
429.97	23.41
430.16	35.11
430.34	102.98
430.53	0.00
430.72	14.04
430.91	51.49
431.10	77.24
431.28	16.38
431.47	74.90
431.66	32.77
431.85	0.00
432.03	63.19
432.22	2.34
432.41	56.17
432.60	25.75
432.79	2.34
432.97	46.81
433.16	100.64
433.35	49.15
433.54	98.30
433.72	0.00
433.91	0.00
434.10	81.92
434.28	46.81
434.47	7.02
434.66	79.58
434.85	0.00
435.03	23.41
435.22	37.45
435.41	25.75
435.59	23.41
435.78	0.00
435.97	9.36
436.16	4.68
436.34	93.62
436.53	0.00
436.72	67.88
436.90	51.49
437.09	0.00
437.28	46.81
437.46	23.41
437.65	23.41
437.84	0.00
438.02	39.79
438.21	46.81
438.40	23.41
438.58	0.00
438.77	39.79
438.96	0.00
439.14	0.00
439.33	9.36
439.52	25.75
439.70	70.22
439.89	9.36
440.08	0.00
440.26	102.98
440.45	63.19
440.63	42.13
440.82	51.49
441.01	58.51
441.19	11.70
441.38	39.79
441.57	18.72
441.75	0.00
441.94	9.36
442.12	35.11
442.31	25.75
442.50	4.68
442.68	11.70
442.87	18.72
443.05	65.54
443.24	65.54
443.43	72.56
443.61	0.00
443.80	44.47
443.98	0.00
444.17	4.68
444.35	35.11
444.54	25.75
444.73	0.00
444.91	21.06
445.10	44.47
445.28	37.45
445.47	0.00
445.65	58.51
445.84	0.00
446.02	0.00
446.21	58.51
446.39	35.11
446.58	42.13
446.77	14.04
446.95	18.72
447.14	18.72
447.32	23.41
447.51	53.83
447.69	4.68
447.88	11.70
448.06	23.41
448.25	63.19
448.43	0.00
448.62	39.79
448.80	46.81
448.99	7.02
449.17	0.00
449.36	35.11
449.54	70.22
449.73	44.47
449.91	67.88
450.10	49.15
450.28	0.00
450.46	0.00
450.65	39.79
450.83	0.00
451.02	21.06
451.20	0.00
451.39	0.00
451.57	0.00
451.76	72.56
451.94	74.90
452.13	53.83
452.31	72.56
452.49	56.17
452.68	7.02
452.86	0.00
453.05	49.15
453.23	4.68
453.42	0.00
453.60	0.00
453.78	0.00
453.97	11.70
454.15	21.06
454.34	46.81
454.52	0.00
454.70	28.09
454.89	32.77
455.07	91.28
455.26	0.00
455.44	0.00
455.62	39.79
455.81	44.47
455.99	23.41
456.17	81.92
456.36	16.38
456.54	65.54
456.73	42.13
456.91	37.45
457.09	42.13
457.28	46.81
457.46	42.13
457.64	44.47
457.83	42.13
458.01	39.79
458.19	0.00
458.38	0.00
458.56	49.15
458.74	0.00
458.93	63.19
459.11	0.00
459.29	42.13
459.48	142.77
459.66	39.79
459.84	7.02
460.03	147.45
460.21	32.77
460.39	7.02
460.57	35.11
460.76	16.38
460.94	79.58
461.12	39.79
461.31	49.15
461.49	51.49
461.67	7.02
461.85	25.75
462.04	21.06
462.22	51.49
462.40	23.41
462.59	32.77
462.77	70.22
462.95	14.04
463.13	4.68
463.32	7.02
463.50	0.00
463.68	65.54
463.86	110.01
464.05	18.72
464.23	4.68
464.41	58.51
464.59	30.43
464.78	18.72
464.96	149.79
465.14	51.49
465.32	0.00
465.50	42.13
465.69	4.68
465.87	4.68
466.05	9.36
466.23	4.68
466.41	0.00
466.60	63.19
466.78	44.47
466.96	58.51
467.14	37.45
467.32	2.34
467.51	86.60
467.69	23.41
467.87	4.68
468.05	23.41
468.23	0.00
468.41	37.45
468.60	0.00
468.78	0.00
468.96	44.47
469.14	56.17
469.32	37.45
469.50	51.49
469.69	98.30
469.87	65.54
470.05	0.00
470.23	25.75
470.41	37.45
470.59	56.17
470.77	37.45
470.95	44.47
471.14	44.47
471.32	46.81
471.50	9.36
471.68	58.51
471.86	60.85
472.04	51.49
472.22	25.75
472.40	72.56
472.58	7.02
472.77	39.79
472.95	14.04
473.13	25.75
473.31	46.81
473.49	0.00
473.67	49.15
473.85	91.28
474.03	0.00
474.21	98.30
474.39	39.79
474.57	37.45
474.75	7.02
474.93	0.00
475.12	21.06
475.30	0.00
475.48	65.54
475.66	4.68
475.84	81.92
476.02	0.00
476.20	0.00
476.38	14.04
476.56	23.41
476.74	53.83
476.92	23.41
477.10	0.00
477.28	53.83
477.46	7.02
477.64	58.51
477.82	81.92
478.00	25.75
478.18	56.17
478.36	0.00
478.54	0.00
478.72	63.19
478.90	18.72
479.08	60.85
479.26	7.02
479.44	9.36
479.62	14.04
479.80	25.75
479.98	49.15
480.16	65.54
480.34	58.51
480.52	72.56
480.70	4.68
480.88	0.00
481.06	4.68
481.24	88.94
481.41	0.00
481.59	67.88
481.77	25.75
481.95	42.13
482.13	14.04
482.31	25.75
482.49	46.81
482.67	0.00
482.85	81.92
483.03	49.15
483.21	16.38
483.39	0.00
483.57	0.00
483.74	9.36
483.92	0.00
484.10	53.83
484.28	46.81
484.46	37.45
484.64	86.60
484.82	46.81
485.00	74.90
485.18	51.49
485.35	79.58
485.53	35.11
485.71	18.72
485.89	35.11
486.07	0.00
486.25	0.00
486.43	23.41
486.61	72.56
486.78	25.75
486.96	93.62
487.14	21.06
487.32	11.70
487.50	11.70
487.68	0.00
487.85	51.49
488.03	28.09
488.21	63.19
488.39	21.06
488.57	23.41
488.75	42.13
488.92	46.81
489.10	16.38
489.28	131.07
489.46	0.00
489.64	0.00
489.81	60.85
489.99	56.17
490.17	35.11
490.35	0.00
490.53	42.13
490.70	16.38
490.88	0.00
491.06	119.37
491.24	53.83
491.41	0.00
491.59	67.88
491.77	2.34
491.95	0.00
492.13	51.49
492.30	93.62
492.48	0.00
492.66	14.04
492.84	84.26
493.01	16.38
493.19	0.00
493.37	9.36
493.54	60.85
493.72	42.13
493.90	0.00
494.08	67.88
494.25	18.72
494.43	25.75
494.61	72.56
494.79	51.49
494.96	25.75
495.14	98.30
495.32	37.45
495.49	135.75
495.67	18.72
495.85	39.79
496.02	39.79
496.20	39.79
496.38	11.70
496.55	65.54
496.73	0.00
496.91	46.81
497.09	60.85
497.26	46.81
497.44	49.15
497.62	49.15
497.79	65.54
497.97	11.70
498.14	2.34
498.32	28.09
498.50	39.79
498.67	53.83
498.85	25.75
499.03	107.66
499.20	63.19
499.38	23.41
499.56	49.15
499.73	30.43
499.91	0.00
500.08	56.17
500.26	42.13
500.44	14.04
500.61	32.77
500.79	21.06
500.97	0.00
501.14	65.54
501.32	30.43
501.49	25.75
501.67	74.90
501.84	49.15
502.02	14.04
502.20	49.15
502.37	67.88
502.55	70.22
502.72	0.00
502.90	35.11
503.07	70.22
503.25	35.11
503.43	37.45
503.60	0.00
503.78	42.13
503.95	42.13
504.13	28.09
504.30	39.79
504.48	86.60
504.65	126.39
504.83	35.11
505.01	51.49
505.18	0.00
505.36	63.19
505.53	86.60
505.71	23.41
505.88	32.77
506.06	0.00
506.23	42.13
506.41	0.00
506.58	79.58
506.76	72.56
506.93	25.75
507.11	21.06
507.28	14.04
507.46	49.15
507.63	32.77
507.81	100.64
507.98	72.56
508.16	49.15
508.33	72.56
508.50	86.60
508.68	79.58
508.85	0.00
509.03	79.58
509.20	88.94
509.38	53.83
509.55	37.45
509.73	16.38
509.90	32.77
510.08	2.34
510.25	18.72
510.42	0.00
510.60	100.64
510.77	63.19
510.95	51.49
511.12	21.06
511.30	14.04
511.47	11.70
511.64	74.90
511.82	0.00
511.99	0.00
512.17	0.00
512.34	63.19
512.51	88.94
512.69	9.36
512.86	30.43
513.04	49.15
513.21	112.35
513.38	39.79
513.56	18.72
513.73	0.00
513.90	18.72
514.08	0.00
514.25	58.51
514.43	74.90
514.60	65.54
514.77	0.00
514.95	21.06
515.12	72.56
515.29	70.22
515.47	0.00
515.64	51.49
515.81	49.15
515.99	2.34
516.16	39.79
516.33	86.60
516.51	77.24
516.68	4.68
516.85	7.02
517.03	32.77
517.20	46.81
517.37	0.00
517.54	14.04
517.72	7.02
517.89	110.01
518.06	74.90
518.24	105.32
518.41	0.00
518.58	74.90
518.75	67.88
518.93	53.83
519.10	88.94
519.27	16.38
519.45	28.09
519.62	44.47
519.79	86.60
519.96	0.00
520.14	39.79
520.31	18.72
520.48	119.37
520.65	56.17
520.83	0.00
521.00	37.45
521.17	16.38
521.34	72.56
521.52	91.28
521.69	67.88
521.86	2.34
522.03	39.79
522.20	74.90
522.38	98.30
522.55	14.04
522.72	39.79
522.89	65.54
523.07	107.66
523.24	0.00
523.41	32.77
523.58	16.38
523.75	0.00
523.92	0.00
524.10	49.15
524.27	74.90
524.44	60.85
524.61	9.36
524.78	46.81
524.96	81.92
525.13	77.24
525.30	95.96
525.47	18.72
525.64	0.00
525.81	35.11
525.98	23.41
526.16	56.17
526.33	0.00
526.50	60.85
526.67	14.04
526.84	30.43
527.01	37.45
527.18	56.17
527.36	46.81
527.53	11.70
527.70	28.09
527.87	72.56
528.04	11.70
528.21	77.24
528.38	81.92
528.55	107.66
528.72	37.45
528.89	70.22
529.07	49.15
529.24	0.00
529.41	23.41
529.58	60.85
529.75	44.47
529.92	126.39
530.09	25.75
530.26	46.81
530.43	37.45
530.60	0.00
530.77	9.36
530.94	35.11
531.11	39.79
531.28	63.19
531.46	63.19
531.63	91.28
531.80	9.36
531.97	117.03
532.14	133.41
532.31	46.81
532.48	30.43
532.65	72.56
532.82	81.92
532.99	25.75
533.16	46.81
533.33	58.51
533.50	37.45
533.67	91.28
533.84	95.96
534.01	21.06
534.18	0.00
534.35	53.83
534.52	49.15
534.69	18.72
534.86	79.58
535.03	95.96
535.20	126.39
535.37	0.00
535.54	2.34
535.71	67.88
535.88	4.68
536.05	79.58
536.22	42.13
536.38	110.01
536.55	16.38
536.72	0.00
536.89	93.62
537.06	37.45
537.23	74.90
537.40	110.01
537.57	58.51
537.74	0.00
537.91	81.92
538.08	56.17
538.25	2.34
538.42	95.96
538.59	37.45
538.75	44.47
538.92	81.92
539.09	2.34
539.26	46.81
539.43	49.15
539.60	110.01
539.77	133.41
539.94	126.39
540.11	112.35
540.28	112.35
540.44	9.36
540.61	67.88
540.78	117.03
540.95	84.26
541.12	18.72
541.29	44.47
541.46	14.04
541.62	25.75
541.79	0.00
541.96	65.54
542.13	14.04
542.30	23.41
542.47	25.75
542.63	16.38
542.80	25.75
542.97	16.38
543.14	28.09
543.31	0.00
543.48	0.00
543.64	0.00
543.81	23.41
543.98	23.41
544.15	0.00
544.32	119.37
544.48	37.45
544.65	65.54
544.82	70.22
544.99	65.54
545.16	11.70
545.32	0.00
545.49	9.36
545.66	25.75
545.83	30.43
546.00	23.41
546.16	49.15
546.33	0.00
546.50	32.77
546.67	28.09
546.83	119.37
547.00	58.51
547.17	0.00
547.34	95.96
547.50	105.32
547.67	133.41
547.84	18.72
548.00	11.70
548.17	14.04
548.34	37.45
548.51	93.62
548.67	32.77
548.84	72.56
549.01	77.24
549.18	11.70
549.34	30.43
549.51	42.13
549.68	42.13
549.84	9.36
550.01	56.17
550.18	58.51
550.34	7.02
550.51	37.45
550.68	74.90
550.84	91.28
551.01	32.77
551.18	2.34
551.34	11.70
551.51	21.06
551.68	72.56
551.84	65.54
552.01	93.62
552.18	49.15
552.34	21.06
552.51	7.02
552.68	70.22
552.84	79.58
553.01	42.13
553.18	77.24
553.34	49.15
553.51	28.09
553.67	74.90
553.84	37.45
554.01	102.98
554.17	25.75
554.34	16.38
554.51	0.00
554.67	11.70
554.84	35.11
555.00	32.77
555.17	18.72
555.33	30.43
555.50	23.41
555.67	14.04
555.83	51.49
556.00	56.17
556.16	93.62
556.33	35.11
556.50	95.96
556.66	67.88
556.83	53.83
556.99	11.70
557.16	102.98
557.32	51.49
557.49	114.69
557.65	16.38
557.82	44.47
557.98	44.47
558.15	58.51
558.32	46.81
558.48	74.90
558.65	21.06
558.81	25.75
558.98	70.22
559.14	56.17
559.31	65.54
559.47	0.00
559.64	30.43
559.80	9.36
559.97	0.00
560.13	18.72
560.30	0.00
560.46	30.43
560.63	39.79
560.79	0.00
560.96	14.04
561.12	37.45
561.29	0.00
561.45	79.58
561.61	9.36
561.78	126.39
561.94	18.72
562.11	0.00
562.27	51.49
562.44	37.45
562.60	88.94
562.77	0.00
562.93	74.90
563.10	21.06
563.26	0.00
563.42	70.22
563.59	30.43
563.75	4.68
563.92	16.38
564.08	42.13
564.24	16.38
564.41	60.85
564.57	0.00
564.74	9.36
564.90	65.54
565.07	35.11
565.23	0.00
565.39	93.62
565.56	0.00
565.72	74.90
565.88	4.68
566.05	58.51
566.21	67.88
566.38	53.83
566.54	60.85
566.70	79.58
566.87	9.36
567.03	30.43
567.19	77.24
567.36	72.56
567.52	9.36
567.68	121.71
567.85	46.81
568.01	0.00
568.17	0.00
568.34	74.90
568.50	128.73
568.66	72.56
568.83	0.00
568.99	30.43
569.15	100.64
569.32	88.94
569.48	53.83
569.64	46.81
569.81	0.00
569.97	84.26
570.13	51.49
570.30	18.72
570.46	0.00
570.62	16.38
570.78	51.49
570.95	0.00
571.11	7.02
571.27	25.75
571.43	28.09
571.60	0.00
571.76	67.88
571.92	56.17
572.09	46.81
572.25	88.94
572.41	70.22
572.57	0.00
572.74	42.13
572.90	51.49
573.06	105.32
573.22	28.09
573.38	56.17
573.55	30.43
573.71	56.17
573.87	0.00
574.03	60.85
574.20	42.13
574.36	81.92
574.52	110.01
574.68	60.85
574.84	77.24
575.01	7.02
575.17	114.69
575.33	79.58
575.49	51.49
575.65	44.47
575.82	117.03
575.98	126.39
576.14	81.92
576.30	110.01
576.46	67.88
576.62	56.17
576.79	79.58
576.95	51.49
577.11	37.45
577.27	86.60
577.43	84.26
577.59	4.68
577.75	0.00
577.92	4.68
578.08	124.05
578.24	0.00
578.40	51.49
578.56	58.51
578.72	105.32
578.88	21.06
579.04	49.15
579.21	25.75
579.37	18.72
579.53	72.56
579.69	49.15
579.85	142.77
580.01	0.00
580.17	7.02
580.33	30.43
580.49	42.13
580.65	51.49
580.82	105.32
580.98	135.75
581.14	95.96
581.30	32.77
581.46	16.38
581.62	16.38
581.78	102.98
581.94	70.22
582.10	2.34
582.26	44.47
582.42	18.72
582.58	70.22
582.74	51.49
582.90	51.49
583.06	84.26
583.22	0.00
583.38	72.56
583.54	32.77
583.70	46.81
583.86	0.00
584.02	79.58
584.18	98.30
584.34	100.64
584.50	257.46
584.66	1687.53
584.82	3957.85
584.98	5905.17
585.14	5156.20
585.30	3248.66
585.46	2059.67
585.62	1259.21
585.78	645.99
585.94	285.55
586.10	168.52
586.26	117.03
586.42	149.79
586.58	42.13
586.74	114.69
586.90	100.64
587.06	95.96
587.22	28.09
587.38	0.00
587.54	112.35
587.70	308.95
587.86	327.68
588.02	435.34
588.18	318.31
588.34	184.90
588.49	121.71
588.65	117.03
588.81	44.47
588.97	37.45
589.13	56.17
589.29	70.22
589.45	30.43
589.61	93.62
589.77	110.01
589.93	18.72
590.08	32.77
590.24	53.83
590.40	84.26
590.56	84.26
590.72	65.54
590.88	56.17
591.04	100.64
591.20	39.79
591.35	88.94
591.51	0.00
591.67	9.36
591.83	100.64
591.99	37.45
592.15	91.28
592.31	70.22
592.46	86.60
592.62	42.13
592.78	46.81
592.94	60.85
593.10	79.58
593.26	58.51
593.41	14.04
593.57	21.06
593.73	56.17
593.89	238.73
594.05	486.83
594.20	805.14
594.36	734.93
594.52	430.66
594.68	318.31
594.84	229.37
594.99	124.05
595.15	140.43
595.31	42.13
595.47	95.96
595.62	0.00
595.78	30.43
595.94	0.00
596.10	11.70
596.25	18.72
596.41	46.81
596.57	32.77
596.73	32.77
596.88	42.13
597.04	91.28
597.20	210.65
597.36	145.11
597.51	147.45
597.67	145.11
597.83	119.37
597.99	35.11
598.14	9.36
598.30	0.00
598.46	28.09
598.61	39.79
598.77	56.17
598.93	39.79
599.09	53.83
599.24	70.22
599.40	91.28
599.56	77.24
599.71	98.30
599.87	30.43
600.03	42.13
600.18	35.11
600.34	88.94
600.50	0.00
600.65	53.83
600.81	51.49
600.97	42.13
601.12	39.79
601.28	35.11
601.44	60.85
601.59	9.36
601.75	2.34
601.91	25.75
602.06	37.45
602.22	32.77
602.37	9.36
602.53	84.26
602.69	149.79
602.84	271.50
603.00	168.52
603.16	81.92
603.31	107.66
603.47	112.35
603.62	7.02
603.78	0.00
603.94	65.54
604.09	79.58
604.25	84.26
604.40	74.90
604.56	18.72
604.71	28.09
604.87	58.51
605.03	9.36
605.18	58.51
605.34	102.98
605.49	56.17
605.65	86.60
605.80	63.19
605.96	58.51
606.12	0.00
606.27	93.62
606.43	30.43
606.58	18.72
606.74	84.26
606.89	299.59
607.05	521.94
607.20	671.73
607.36	587.47
607.51	381.51
607.67	304.27
607.82	145.11
607.98	42.13
608.13	0.00
608.29	32.77
608.44	51.49
608.60	72.56
608.75	102.98
608.91	124.05
609.06	416.62
609.22	847.27
609.37	1132.82
609.53	1029.84
609.68	655.35
609.84	447.04
609.99	327.68
610.15	149.79
610.30	58.51
610.46	60.85
610.61	30.43
610.76	58.51
610.92	91.28
611.07	44.47
611.23	79.58
611.38	65.54
611.54	30.43
611.69	16.38
611.84	35.11
612.00	51.49
612.15	84.26
612.31	72.56
612.46	25.75
612.62	23.41
612.77	53.83
612.92	16.38
613.08	53.83
613.23	0.00
613.39	77.24
613.54	105.32
613.69	365.12
613.85	973.66
614.00	1619.65
614.15	1631.35
614.31	1315.38
614.46	805.14
614.62	517.26
614.77	327.68
614.92	126.39
615.08	112.35
615.23	25.75
615.38	44.47
615.54	81.92
615.69	70.22
615.84	248.10
616.00	409.59
616.15	468.11
616.30	386.19
616.46	224.69
616.61	124.05
616.76	102.98
616.92	110.01
617.07	25.75
617.22	0.00
617.37	37.45
617.53	28.09
617.68	63.19
617.83	42.13
617.99	77.24
618.14	11.70
618.29	30.43
618.45	0.00
618.60	14.04
618.75	86.60
618.90	105.32
619.06	0.00
619.21	23.41
619.36	18.72
619.51	53.83
619.67	65.54
619.82	77.24
619.97	51.49
620.12	58.51
620.28	0.00
620.43	74.90
620.58	114.69
620.73	79.58
620.89	168.52
621.04	11.70
621.19	110.01
621.34	236.39
621.49	332.36
621.65	252.78
621.80	187.24
621.95	70.22
622.10	79.58
622.25	30.43
622.41	91.28
622.56	39.79
622.71	11.70
622.86	58.51
623.01	65.54
623.16	86.60
623.32	0.00
623.47	9.36
623.62	51.49
623.77	23.41
623.92	16.38
624.07	121.71
624.23	14.04
624.38	4.68
624.53	44.47
624.68	51.49
624.83	46.81
624.98	95.96
625.13	56.17
625.29	93.62
625.44	51.49
625.59	35.11
625.74	60.85
625.89	51.49
626.04	177.88
626.19	554.71
626.34	802.80
626.49	950.26
626.65	697.48
626.80	463.43
626.95	308.95
627.10	273.84
627.25	133.41
627.40	112.35
627.55	51.49
627.70	93.62
627.85	0.00
628.00	4.68
628.15	0.00
628.30	28.09
628.45	74.90
628.60	51.49
628.76	53.83
628.91	30.43
629.06	9.36
629.21	35.11
629.36	0.00
629.51	0.00
629.66	124.05
629.81	56.17
629.96	2.34
630.11	224.69
630.26	301.93
630.41	245.76
630.56	224.69
630.71	77.24
630.86	72.56
631.01	72.56
631.16	53.83
631.31	67.88
631.46	154.48
631.61	0.00
631.76	46.81
631.91	81.92
632.06	72.56
632.21	7.02
632.36	53.83
632.51	70.22
632.66	77.24
632.81	42.13
632.96	278.52
633.10	517.26
633.25	669.39
633.40	493.85
633.55	376.83
633.70	231.71
633.85	145.11
634.00	86.60
634.15	93.62
634.30	166.18
634.45	30.43
634.60	0.00
634.75	42.13
634.90	30.43
635.05	100.64
635.19	28.09
635.34	28.09
635.49	49.15
635.64	7.02
635.79	77.24
635.94	79.58
636.09	81.92
636.24	4.68
636.39	88.94
636.53	11.70
636.68	46.81
636.83	23.41
636.98	49.15
637.13	107.66
637.28	67.88
637.43	46.81
637.57	112.35
637.72	297.25
637.87	669.39
638.02	1144.52
638.17	1188.99
638.32	917.49
638.46	615.56
638.61	374.49
638.76	259.80
638.91	124.05
639.06	133.41
639.20	117.03
639.35	86.60
639.50	159.16
639.65	379.17
639.80	1125.80
639.94	1621.99
640.09	1842.00
640.24	1308.36
640.39	866.00
640.54	606.20
640.68	397.89
640.83	287.89
640.98	124.05
641.13	11.70
641.27	88.94
641.42	46.81
641.57	95.96
641.72	100.64
641.86	100.64
642.01	28.09
642.16	0.00
642.31	4.68
642.45	72.56
642.60	58.51
642.75	58.51
642.90	60.85
643.04	53.83
643.19	14.04
643.34	14.04
643.48	4.68
643.63	95.96
643.78	124.05
643.93	14.04
644.07	65.54
644.22	79.58
644.37	18.72
644.51	0.00
644.66	67.88
644.81	65.54
644.95	21.06
645.10	60.85
645.25	46.81
645.39	67.88
645.54	16.38
645.69	65.54
645.83	0.00
645.98	9.36
646.13	28.09
646.27	11.70
646.42	23.41
646.57	0.00
646.71	51.49
646.86	18.72
647.00	7.02
647.15	35.11
647.30	84.26
647.44	32.77
647.59	11.70
647.74	0.00
647.88	65.54
648.03	110.01
648.17	18.72
648.32	0.00
648.47	72.56
648.61	39.79
648.76	4.68
648.90	44.47
649.05	32.77
649.20	60.85
649.34	0.00
649.49	0.00
649.63	53.83
649.78	0.00
649.92	77.24
650.07	170.86
650.21	496.19
650.36	795.78
650.51	966.64
650.65	802.80
650.80	561.73
650.94	308.95
651.09	292.57
651.23	142.77
651.38	56.17
651.52	86.60
651.67	79.58
651.81	114.69
651.96	32.77
652.10	9.36
652.25	70.22
652.39	63.19
652.54	21.06
652.68	0.00
652.83	156.82
652.97	273.84
653.12	325.33
653.26	365.12
653.41	227.03
653.55	124.05
653.70	121.71
653.84	79.58
653.99	63.19
654.13	0.00
654.27	9.36
654.42	39.79
654.56	77.24
654.71	53.83
654.85	0.00
655.00	0.00
655.14	0.00
655.29	67.88
655.43	112.35
655.57	39.79
655.72	18.72
655.86	28.09
656.01	30.43
656.15	32.77
656.30	60.85
656.44	67.88
656.58	18.72
656.73	0.00
656.87	88.94
657.01	0.00
657.16	18.72
657.30	0.00
657.45	0.00
657.59	84.26
657.73	0.00
657.88	60.85
658.02	35.11
658.16	65.54
658.31	11.70
658.45	0.00
658.60	35.11
658.74	60.85
658.88	53.83
659.03	0.00
659.17	60.85
659.31	39.79
659.46	187.24
659.60	390.87
659.74	526.62
659.89	470.45
660.03	395.55
660.17	241.08
660.32	117.03
660.46	105.32
660.60	117.03
660.74	14.04
660.89	42.13
661.03	0.00
661.17	39.79
661.32	72.56
661.46	0.00
661.60	60.85
661.74	21.06
661.89	53.83
662.03	30.43
662.17	37.45
662.31	23.41
662.46	58.51
662.60	9.36
662.74	4.68
662.88	14.04
663.03	30.43
663.17	0.00
663.31	16.38
663.45	0.00
663.60	11.70
663.74	16.38
663.88	67.88
664.02	0.00
664.17	74.90
664.31	7.02
664.45	0.00
664.59	0.00
664.73	0.00
664.88	67.88
665.02	74.90
665.16	56.17
665.30	79.58
665.44	2.34
665.59	23.41
665.73	37.45
665.87	107.66
666.01	2.34
666.15	39.79
666.29	65.54
666.44	4.68
666.58	51.49
666.72	56.17
666.86	0.00
667.00	79.58
667.14	53.83
667.28	138.09
667.43	339.38
667.57	667.05
667.71	816.85
667.85	711.52
667.99	472.79
668.13	355.76
668.27	234.05
668.41	147.45
668.56	63.19
668.70	79.58
668.84	81.92
668.98	60.85
669.12	51.49
669.26	28.09
669.40	56.17
669.54	60.85
669.68	49.15
669.82	2.34
669.96	72.56
670.10	77.24
670.25	42.13
670.39	0.00
670.53	21.06
670.67	37.45
670.81	28.09
670.95	32.77
671.09	86.60
671.23	95.96
671.37	255.12
671.51	440.02
671.65	507.90
671.79	514.92
671.93	308.95
672.07	231.71
672.21	39.79
672.35	95.96
672.49	112.35
672.63	67.88
672.77	30.43
672.91	28.09
673.05	77.24
673.19	88.94
673.33	16.38
673.47	72.56
673.61	16.38
673.75	25.75
673.89	95.96
674.03	0.00
674.17	9.36
674.31	42.13
674.45	0.00
674.59	46.81
674.73	23.41
674.87	114.69
675.01	0.00
675.15	23.41
675.29	9.36
675.43	107.66
675.56	32.77
675.70	39.79
675.84	0.00
675.98	25.75
676.12	23.41
676.26	58.51
676.40	0.00
676.54	35.11
676.68	35.11
676.82	35.11
676.96	49.15
677.10	35.11
677.23	9.36
677.37	21.06
677.51	65.54
677.65	0.00
677.79	0.00
677.93	32.77
678.07	70.22
678.21	0.00
678.34	0.00
678.48	0.00
678.62	67.88
678.76	4.68
678.90	42.13
679.04	4.68
679.18	16.38
679.31	0.00
679.45	0.00
679.59	21.06
679.73	0.00
679.87	46.81
680.00	93.62
680.14	0.00
680.28	42.13
680.42	28.09
680.56	25.75
680.70	56.17
680.83	18.72
680.97	63.19
681.11	79.58
681.25	105.32
681.39	28.09
681.52	56.17
681.66	30.43
681.80	79.58
681.94	39.79
682.07	30.43
682.21	0.00
682.35	86.60
682.49	51.49
682.62	0.00
682.76	39.79
682.90	0.00
683.04	37.45
683.17	107.66
683.31	117.03
683.45	84.26
683.59	23.41
683.72	39.79
683.86	0.00
684.00	0.00
684.13	0.00
684.27	44.47
684.41	39.79
684.55	32.77
684.68	74.90
684.82	51.49
684.96	25.75
685.09	30.43
685.23	0.00
685.37	14.04
685.50	44.47
685.64	93.62
685.78	65.54
685.91	46.81
686.05	37.45
686.19	11.70
686.32	58.51
686.46	4.68
686.60	0.00
686.73	93.62
686.87	35.11
687.01	60.85
687.14	46.81
687.28	91.28
687.42	42.13
687.55	91.28
687.69	4.68
687.82	51.49
687.96	93.62
688.10	60.85
688.23	23.41
688.37	28.09
688.50	42.13
688.64	25.75
688.78	11.70
688.91	28.09
689.05	72.56
689.18	25.75
689.32	105.32
689.46	67.88
689.59	81.92
689.73	0.00
689.86	56.17
690.00	30.43
690.13	0.00
690.27	21.06
690.41	4.68
690.54	37.45
690.68	35.11
690.81	60.85
690.95	138.09
691.08	37.45
691.22	25.75
691.35	49.15
691.49	0.00
691.62	18.72
691.76	49.15
691.89	35.11
692.03	18.72
692.16	60.85
692.30	0.00
692.43	86.60
692.57	184.90
692.70	297.25
692.84	472.79
692.97	341.72
693.11	306.61
693.24	184.90
693.38	112.35
693.51	102.98
693.65	91.28
693.78	49.15
693.92	77.24
694.05	28.09
694.19	39.79
694.32	37.45
694.45	2.34
694.59	11.70
694.72	95.96
694.86	23.41
694.99	49.15
695.13	14.04
695.26	25.75
695.39	0.00
695.53	42.13
695.66	79.58
695.80	67.88
695.93	0.00
696.07	70.22
696.20	35.11
696.33	0.00
696.47	60.85
696.60	51.49
696.73	63.19
696.87	53.83
697.00	14.04
697.14	32.77
697.27	0.00
697.40	0.00
697.54	32.77
697.67	77.24
697.80	0.00
697.94	88.94
698.07	0.00
698.21	30.43
698.34	65.54
698.47	56.17
698.61	42.13
698.74	46.81
698.87	0.00
699.01	16.38
699.14	79.58
699.27	81.92
699.40	119.37
699.54	0.00
699.67	0.00
699.80	0.00
699.94	0.00
700.07	0.00
700.20	100.64
700.34	44.47
700.47	18.72
700.60	42.13
700.73	2.34
700.87	28.09
701.00	32.77
701.13	0.00
701.26	46.81
701.40	32.77
701.53	4.68
701.66	14.04
701.79	39.79
701.93	32.77
702.06	142.77
702.19	58.51
702.32	42.13
702.46	16.38
702.59	9.36
702.72	93.62
702.85	182.56
702.99	531.30
703.12	739.61
703.25	727.91
703.38	643.65
703.51	575.77
703.65	428.32
703.78	278.52
703.91	205.97
704.04	128.73
704.17	88.94
704.31	51.49
704.44	16.38
704.57	65.54
704.70	9.36
704.83	53.83
704.96	93.62
705.10	21.06
705.23	42.13
>>>>>End Processed Spectral Data<<<<<
