SpectraSuite Data File
++++++++++++++++++++++++++++++++++++
Date: Fri Oct 04 12:13:43 GMT-05:00 2013
User: price-jones
Dark Spectrum Present: No
Reference Spectrum Present: No
Number of Sampled Component Spectra: 1
Spectrometers: USB2+H05261
Integration Time (usec): 10000 (USB2+H05261)
Spectra Averaged: 1 (USB2+H05261)
Boxcar Smoothing: 0 (USB2+H05261)
Correct for Electrical Dark: No (USB2+H05261)
Strobe/Lamp Enabled: No (USB2+H05261)
Correct for Detector Non-linearity: No (USB2+H05261)
Correct for Stray Light: No (USB2+H05261)
Number of Pixels in Processed Spectrum: 2048
>>>>>Begin Processed Spectral Data<<<<<
365.73	0.00
365.92	0.00
366.12	0.00
366.32	0.00
366.52	0.00
366.72	0.00
366.91	0.00
367.11	0.00
367.31	0.00
367.51	18.72
367.70	0.00
367.90	0.00
368.10	0.00
368.30	0.00
368.49	0.00
368.69	0.00
368.89	0.00
369.09	0.00
369.28	0.00
369.48	0.00
369.68	0.00
369.87	0.00
370.07	0.00
370.27	0.00
370.47	0.00
370.66	0.00
370.86	0.00
371.06	0.00
371.25	0.00
371.45	0.00
371.65	0.00
371.84	0.00
372.04	14.04
372.24	7.02
372.44	7.02
372.63	0.00
372.83	42.13
373.03	30.43
373.22	28.09
373.42	44.47
373.62	32.77
373.81	37.45
374.01	37.45
374.21	0.00
374.40	77.24
374.60	95.96
374.79	58.51
374.99	9.36
375.19	72.56
375.38	107.66
375.58	0.00
375.78	23.41
375.97	53.83
376.17	0.00
376.37	49.15
376.56	30.43
376.76	28.09
376.95	0.00
377.15	0.00
377.35	28.09
377.54	0.00
377.74	11.70
377.93	49.15
378.13	0.00
378.33	44.47
378.52	49.15
378.72	0.00
378.91	21.06
379.11	14.04
379.31	30.43
379.50	0.00
379.70	0.00
379.89	23.41
380.09	7.02
380.28	14.04
380.48	4.68
380.68	0.00
380.87	9.36
381.07	0.00
381.26	0.00
381.46	58.51
381.65	67.88
381.85	44.47
382.04	16.38
382.24	16.38
382.43	14.04
382.63	0.00
382.83	0.00
383.02	0.00
383.22	63.19
383.41	95.96
383.61	0.00
383.80	16.38
384.00	0.00
384.19	72.56
384.39	58.51
384.58	53.83
384.78	35.11
384.97	0.00
385.17	21.06
385.36	23.41
385.56	0.00
385.75	28.09
385.95	0.00
386.14	51.49
386.34	72.56
386.53	63.19
386.72	58.51
386.92	46.81
387.11	51.49
387.31	112.35
387.50	32.77
387.70	0.00
387.89	23.41
388.09	0.00
388.28	77.24
388.48	32.77
388.67	67.88
388.86	0.00
389.06	0.00
389.25	28.09
389.45	0.00
389.64	102.98
389.84	77.24
390.03	0.00
390.22	32.77
390.42	0.00
390.61	21.06
390.81	16.38
391.00	25.75
391.19	14.04
391.39	44.47
391.58	42.13
391.78	0.00
391.97	93.62
392.16	77.24
392.36	0.00
392.55	79.58
392.75	7.02
392.94	2.34
393.13	11.70
393.33	46.81
393.52	21.06
393.71	81.92
393.91	0.00
394.10	21.06
394.29	0.00
394.49	56.17
394.68	4.68
394.88	65.54
395.07	51.49
395.26	9.36
395.46	58.51
395.65	23.41
395.84	46.81
396.04	79.58
396.23	32.77
396.42	58.51
396.62	0.00
396.81	32.77
397.00	18.72
397.19	0.00
397.39	39.79
397.58	32.77
397.77	42.13
397.97	0.00
398.16	49.15
398.35	14.04
398.55	63.19
398.74	35.11
398.93	18.72
399.12	98.30
399.32	30.43
399.51	72.56
399.70	25.75
399.90	0.00
400.09	7.02
400.28	79.58
400.47	84.26
400.67	0.00
400.86	44.47
401.05	86.60
401.24	37.45
401.44	58.51
401.63	23.41
401.82	0.00
402.01	39.79
402.21	49.15
402.40	74.90
402.59	81.92
402.78	25.75
402.97	0.00
403.17	49.15
403.36	84.26
403.55	25.75
403.74	18.72
403.93	37.45
404.13	9.36
404.32	58.51
404.51	0.00
404.70	0.00
404.89	23.41
405.09	42.13
405.28	0.00
405.47	58.51
405.66	4.68
405.85	0.00
406.05	84.26
406.24	56.17
406.43	0.00
406.62	0.00
406.81	44.47
407.00	49.15
407.20	37.45
407.39	0.00
407.58	21.06
407.77	0.00
407.96	0.00
408.15	32.77
408.34	95.96
408.54	60.85
408.73	105.32
408.92	72.56
409.11	77.24
409.30	0.00
409.49	63.19
409.68	0.00
409.87	67.88
410.07	4.68
410.26	58.51
410.45	53.83
410.64	32.77
410.83	79.58
411.02	51.49
411.21	84.26
411.40	91.28
411.59	63.19
411.78	0.00
411.98	60.85
412.17	30.43
412.36	51.49
412.55	0.00
412.74	0.00
412.93	30.43
413.12	49.15
413.31	28.09
413.50	95.96
413.69	86.60
413.88	18.72
414.07	37.45
414.26	7.02
414.45	7.02
414.64	14.04
414.83	0.00
415.02	16.38
415.22	56.17
415.41	86.60
415.60	18.72
415.79	112.35
415.98	2.34
416.17	128.73
416.36	42.13
416.55	14.04
416.74	28.09
416.93	35.11
417.12	39.79
417.31	0.00
417.50	30.43
417.69	0.00
417.88	30.43
418.07	67.88
418.26	70.22
418.45	18.72
418.64	32.77
418.83	0.00
419.02	23.41
419.21	0.00
419.39	23.41
419.58	67.88
419.77	23.41
419.96	49.15
420.15	0.00
420.34	105.32
420.53	4.68
420.72	70.22
420.91	28.09
421.10	11.70
421.29	51.49
421.48	30.43
421.67	16.38
421.86	18.72
422.05	9.36
422.24	65.54
422.43	7.02
422.61	42.13
422.80	0.00
422.99	23.41
423.18	98.30
423.37	84.26
423.56	60.85
423.75	44.47
423.94	0.00
424.13	74.90
424.32	84.26
424.50	81.92
424.69	18.72
424.88	140.43
425.07	16.38
425.26	51.49
425.45	18.72
425.64	88.94
425.83	37.45
426.01	28.09
426.20	56.17
426.39	67.88
426.58	0.00
426.77	42.13
426.96	56.17
427.15	0.00
427.33	0.00
427.52	0.00
427.71	42.13
427.90	86.60
428.09	81.92
428.28	49.15
428.46	0.00
428.65	35.11
428.84	70.22
429.03	67.88
429.22	42.13
429.40	14.04
429.59	84.26
429.78	56.17
429.97	49.15
430.16	74.90
430.34	72.56
430.53	4.68
430.72	0.00
430.91	74.90
431.10	53.83
431.28	37.45
431.47	0.00
431.66	74.90
431.85	93.62
432.03	44.47
432.22	39.79
432.41	39.79
432.60	30.43
432.79	46.81
432.97	0.00
433.16	44.47
433.35	117.03
433.54	46.81
433.72	98.30
433.91	39.79
434.10	63.19
434.28	84.26
434.47	46.81
434.66	11.70
434.85	51.49
435.03	105.32
435.22	18.72
435.41	98.30
435.59	74.90
435.78	11.70
435.97	0.00
436.16	0.00
436.34	0.00
436.53	70.22
436.72	32.77
436.90	70.22
437.09	72.56
437.28	65.54
437.46	0.00
437.65	23.41
437.84	56.17
438.02	121.71
438.21	65.54
438.40	0.00
438.58	81.92
438.77	117.03
438.96	42.13
439.14	58.51
439.33	70.22
439.52	60.85
439.70	0.00
439.89	0.00
440.08	30.43
440.26	51.49
440.45	95.96
440.63	70.22
440.82	9.36
441.01	0.00
441.19	9.36
441.38	65.54
441.57	4.68
441.75	65.54
441.94	32.77
442.12	28.09
442.31	131.07
442.50	63.19
442.68	42.13
442.87	140.43
443.05	72.56
443.24	44.47
443.43	70.22
443.61	46.81
443.80	58.51
443.98	70.22
444.17	88.94
444.35	49.15
444.54	60.85
444.73	91.28
444.91	35.11
445.10	2.34
445.28	93.62
445.47	30.43
445.65	11.70
445.84	84.26
446.02	39.79
446.21	28.09
446.39	81.92
446.58	107.66
446.77	72.56
446.95	88.94
447.14	53.83
447.32	84.26
447.51	91.28
447.69	18.72
447.88	56.17
448.06	25.75
448.25	37.45
448.43	100.64
448.62	81.92
448.80	25.75
448.99	42.13
449.17	28.09
449.36	58.51
449.54	18.72
449.73	124.05
449.91	84.26
450.10	63.19
450.28	67.88
450.46	91.28
450.65	39.79
450.83	77.24
451.02	65.54
451.20	37.45
451.39	23.41
451.57	53.83
451.76	53.83
451.94	51.49
452.13	30.43
452.31	25.75
452.49	81.92
452.68	21.06
452.86	23.41
453.05	9.36
453.23	77.24
453.42	60.85
453.60	14.04
453.78	32.77
453.97	0.00
454.15	42.13
454.34	81.92
454.52	65.54
454.70	95.96
454.89	7.02
455.07	70.22
455.26	14.04
455.44	74.90
455.62	79.58
455.81	0.00
455.99	0.00
456.17	67.88
456.36	21.06
456.54	93.62
456.73	49.15
456.91	11.70
457.09	9.36
457.28	7.02
457.46	88.94
457.64	102.98
457.83	70.22
458.01	21.06
458.19	65.54
458.38	77.24
458.56	28.09
458.74	81.92
458.93	21.06
459.11	42.13
459.29	42.13
459.48	95.96
459.66	14.04
459.84	28.09
460.03	49.15
460.21	159.16
460.39	133.41
460.57	51.49
460.76	95.96
460.94	58.51
461.12	32.77
461.31	58.51
461.49	49.15
461.67	46.81
461.85	72.56
462.04	28.09
462.22	72.56
462.40	72.56
462.59	14.04
462.77	86.60
462.95	0.00
463.13	18.72
463.32	44.47
463.50	74.90
463.68	128.73
463.86	49.15
464.05	32.77
464.23	49.15
464.41	65.54
464.59	16.38
464.78	46.81
464.96	14.04
465.14	11.70
465.32	42.13
465.50	44.47
465.69	91.28
465.87	44.47
466.05	91.28
466.23	72.56
466.41	98.30
466.60	65.54
466.78	0.00
466.96	0.00
467.14	81.92
467.32	21.06
467.51	0.00
467.69	84.26
467.87	110.01
468.05	63.19
468.23	28.09
468.41	77.24
468.60	7.02
468.78	105.32
468.96	51.49
469.14	14.04
469.32	86.60
469.50	11.70
469.69	51.49
469.87	16.38
470.05	42.13
470.23	0.00
470.41	114.69
470.59	72.56
470.77	102.98
470.95	140.43
471.14	0.00
471.32	23.41
471.50	77.24
471.68	98.30
471.86	70.22
472.04	98.30
472.22	112.35
472.40	23.41
472.58	49.15
472.77	46.81
472.95	77.24
473.13	74.90
473.31	60.85
473.49	30.43
473.67	42.13
473.85	18.72
474.03	37.45
474.21	88.94
474.39	63.19
474.57	88.94
474.75	4.68
474.93	121.71
475.12	51.49
475.30	93.62
475.48	42.13
475.66	51.49
475.84	32.77
476.02	28.09
476.20	58.51
476.38	28.09
476.56	79.58
476.74	128.73
476.92	65.54
477.10	42.13
477.28	133.41
477.46	30.43
477.64	32.77
477.82	60.85
478.00	39.79
478.18	42.13
478.36	46.81
478.54	0.00
478.72	46.81
478.90	93.62
479.08	65.54
479.26	58.51
479.44	65.54
479.62	28.09
479.80	53.83
479.98	28.09
480.16	4.68
480.34	0.00
480.52	102.98
480.70	16.38
480.88	81.92
481.06	93.62
481.24	42.13
481.41	16.38
481.59	72.56
481.77	4.68
481.95	105.32
482.13	67.88
482.31	91.28
482.49	30.43
482.67	25.75
482.85	119.37
483.03	135.75
483.21	100.64
483.39	58.51
483.57	37.45
483.74	28.09
483.92	53.83
484.10	32.77
484.28	88.94
484.46	105.32
484.64	79.58
484.82	58.51
485.00	35.11
485.18	98.30
485.35	11.70
485.53	65.54
485.71	30.43
485.89	53.83
486.07	39.79
486.25	131.07
486.43	60.85
486.61	58.51
486.78	37.45
486.96	30.43
487.14	23.41
487.32	25.75
487.50	124.05
487.68	95.96
487.85	88.94
488.03	98.30
488.21	145.11
488.39	58.51
488.57	63.19
488.75	91.28
488.92	142.77
489.10	102.98
489.28	0.00
489.46	102.98
489.64	93.62
489.81	102.98
489.99	72.56
490.17	79.58
490.35	74.90
490.53	93.62
490.70	93.62
490.88	102.98
491.06	107.66
491.24	58.51
491.41	72.56
491.59	74.90
491.77	72.56
491.95	0.00
492.13	30.43
492.30	44.47
492.48	72.56
492.66	100.64
492.84	2.34
493.01	79.58
493.19	39.79
493.37	77.24
493.54	81.92
493.72	0.00
493.90	58.51
494.08	119.37
494.25	84.26
494.43	51.49
494.61	86.60
494.79	21.06
494.96	84.26
495.14	117.03
495.32	63.19
495.49	84.26
495.67	88.94
495.85	49.15
496.02	28.09
496.20	93.62
496.38	16.38
496.55	100.64
496.73	32.77
496.91	49.15
497.09	23.41
497.26	102.98
497.44	152.13
497.62	65.54
497.79	159.16
497.97	138.09
498.14	102.98
498.32	56.17
498.50	128.73
498.67	72.56
498.85	84.26
499.03	70.22
499.20	107.66
499.38	159.16
499.56	100.64
499.73	46.81
499.91	67.88
500.08	56.17
500.26	84.26
500.44	112.35
500.61	128.73
500.79	140.43
500.97	98.30
501.14	74.90
501.32	86.60
501.49	35.11
501.67	163.84
501.84	28.09
502.02	35.11
502.20	74.90
502.37	79.58
502.55	88.94
502.72	81.92
502.90	133.41
503.07	126.39
503.25	98.30
503.43	77.24
503.60	65.54
503.78	37.45
503.95	51.49
504.13	42.13
504.30	63.19
504.48	35.11
504.65	25.75
504.83	11.70
505.01	121.71
505.18	44.47
505.36	102.98
505.53	77.24
505.71	39.79
505.88	77.24
506.06	70.22
506.23	95.96
506.41	110.01
506.58	72.56
506.76	58.51
506.93	65.54
507.11	56.17
507.28	93.62
507.46	86.60
507.63	126.39
507.81	58.51
507.98	140.43
508.16	114.69
508.33	81.92
508.50	60.85
508.68	0.00
508.85	63.19
509.03	93.62
509.20	95.96
509.38	72.56
509.55	37.45
509.73	88.94
509.90	46.81
510.08	74.90
510.25	142.77
510.42	77.24
510.60	30.43
510.77	133.41
510.95	145.11
511.12	56.17
511.30	0.00
511.47	81.92
511.64	74.90
511.82	81.92
511.99	95.96
512.17	63.19
512.34	142.77
512.51	124.05
512.69	126.39
512.86	72.56
513.04	65.54
513.21	23.41
513.38	77.24
513.56	35.11
513.73	42.13
513.90	112.35
514.08	25.75
514.25	77.24
514.43	100.64
514.60	84.26
514.77	74.90
514.95	131.07
515.12	107.66
515.29	79.58
515.47	46.81
515.64	100.64
515.81	88.94
515.99	74.90
516.16	121.71
516.33	74.90
516.51	56.17
516.68	16.38
516.85	117.03
517.03	0.00
517.20	46.81
517.37	58.51
517.54	67.88
517.72	58.51
517.89	74.90
518.06	37.45
518.24	77.24
518.41	79.58
518.58	86.60
518.75	81.92
518.93	21.06
519.10	35.11
519.27	121.71
519.45	86.60
519.62	63.19
519.79	110.01
519.96	121.71
520.14	145.11
520.31	110.01
520.48	0.00
520.65	74.90
520.83	39.79
521.00	105.32
521.17	88.94
521.34	58.51
521.52	72.56
521.69	93.62
521.86	42.13
522.03	156.82
522.20	84.26
522.38	72.56
522.55	37.45
522.72	88.94
522.89	161.50
523.07	100.64
523.24	93.62
523.41	72.56
523.58	70.22
523.75	7.02
523.92	67.88
524.10	51.49
524.27	77.24
524.44	65.54
524.61	81.92
524.78	102.98
524.96	100.64
525.13	53.83
525.30	98.30
525.47	102.98
525.64	86.60
525.81	182.56
525.98	131.07
526.16	44.47
526.33	0.00
526.50	135.75
526.67	70.22
526.84	98.30
527.01	81.92
527.18	95.96
527.36	88.94
527.53	72.56
527.70	152.13
527.87	161.50
528.04	39.79
528.21	60.85
528.38	102.98
528.55	65.54
528.72	152.13
528.89	110.01
529.07	114.69
529.24	112.35
529.41	32.77
529.58	135.75
529.75	117.03
529.92	142.77
530.09	77.24
530.26	44.47
530.43	93.62
530.60	156.82
530.77	39.79
530.94	51.49
531.11	161.50
531.28	56.17
531.46	88.94
531.63	72.56
531.80	102.98
531.97	39.79
532.14	112.35
532.31	88.94
532.48	42.13
532.65	133.41
532.82	126.39
532.99	107.66
533.16	88.94
533.33	88.94
533.50	152.13
533.67	117.03
533.84	88.94
534.01	88.94
534.18	110.01
534.35	74.90
534.52	65.54
534.69	114.69
534.86	133.41
535.03	11.70
535.20	140.43
535.37	95.96
535.54	74.90
535.71	121.71
535.88	117.03
536.05	91.28
536.22	60.85
536.38	156.82
536.55	91.28
536.72	63.19
536.89	39.79
537.06	44.47
537.23	70.22
537.40	16.38
537.57	65.54
537.74	56.17
537.91	107.66
538.08	35.11
538.25	51.49
538.42	152.13
538.59	95.96
538.75	93.62
538.92	98.30
539.09	95.96
539.26	180.22
539.43	58.51
539.60	56.17
539.77	119.37
539.94	16.38
540.11	95.96
540.28	67.88
540.44	65.54
540.61	9.36
540.78	9.36
540.95	88.94
541.12	56.17
541.29	16.38
541.46	21.06
541.62	121.71
541.79	49.15
541.96	35.11
542.13	58.51
542.30	175.54
542.47	81.92
542.63	177.88
542.80	35.11
542.97	46.81
543.14	25.75
543.31	63.19
543.48	86.60
543.64	114.69
543.81	110.01
543.98	65.54
544.15	60.85
544.32	81.92
544.48	135.75
544.65	49.15
544.82	79.58
544.99	63.19
545.16	79.58
545.32	114.69
545.49	79.58
545.66	39.79
545.83	161.50
546.00	126.39
546.16	23.41
546.33	93.62
546.50	56.17
546.67	86.60
546.83	124.05
547.00	107.66
547.17	100.64
547.34	84.26
547.50	56.17
547.67	77.24
547.84	81.92
548.00	44.47
548.17	28.09
548.34	131.07
548.51	88.94
548.67	56.17
548.84	91.28
549.01	77.24
549.18	67.88
549.34	32.77
549.51	98.30
549.68	124.05
549.84	67.88
550.01	88.94
550.18	81.92
550.34	117.03
550.51	159.16
550.68	102.98
550.84	117.03
551.01	77.24
551.18	119.37
551.34	102.98
551.51	112.35
551.68	0.00
551.84	107.66
552.01	88.94
552.18	142.77
552.34	117.03
552.51	107.66
552.68	168.52
552.84	124.05
553.01	84.26
553.18	154.48
553.34	135.75
553.51	0.00
553.67	100.64
553.84	112.35
554.01	140.43
554.17	126.39
554.34	63.19
554.51	39.79
554.67	9.36
554.84	126.39
555.00	86.60
555.17	110.01
555.33	72.56
555.50	65.54
555.67	81.92
555.83	56.17
556.00	7.02
556.16	149.79
556.33	119.37
556.50	119.37
556.66	102.98
556.83	84.26
556.99	117.03
557.16	121.71
557.32	98.30
557.49	60.85
557.65	74.90
557.82	23.41
557.98	67.88
558.15	98.30
558.32	91.28
558.48	117.03
558.65	46.81
558.81	32.77
558.98	88.94
559.14	84.26
559.31	84.26
559.47	51.49
559.64	0.00
559.80	79.58
559.97	102.98
560.13	117.03
560.30	77.24
560.46	49.15
560.63	60.85
560.79	177.88
560.96	124.05
561.12	110.01
561.29	77.24
561.45	63.19
561.61	98.30
561.78	84.26
561.94	140.43
562.11	133.41
562.27	86.60
562.44	88.94
562.60	102.98
562.77	110.01
562.93	124.05
563.10	67.88
563.26	37.45
563.42	53.83
563.59	72.56
563.75	102.98
563.92	65.54
564.08	159.16
564.24	95.96
564.41	124.05
564.57	65.54
564.74	100.64
564.90	86.60
565.07	79.58
565.23	58.51
565.39	117.03
565.56	49.15
565.72	135.75
565.88	49.15
566.05	84.26
566.21	81.92
566.38	102.98
566.54	37.45
566.70	77.24
566.87	100.64
567.03	46.81
567.19	44.47
567.36	72.56
567.52	86.60
567.68	53.83
567.85	100.64
568.01	58.51
568.17	86.60
568.34	107.66
568.50	112.35
568.66	88.94
568.83	149.79
568.99	30.43
569.15	114.69
569.32	105.32
569.48	77.24
569.64	119.37
569.81	95.96
569.97	35.11
570.13	88.94
570.30	39.79
570.46	81.92
570.62	100.64
570.78	81.92
570.95	119.37
571.11	51.49
571.27	131.07
571.43	79.58
571.60	159.16
571.76	91.28
571.92	21.06
572.09	79.58
572.25	16.38
572.41	107.66
572.57	53.83
572.74	121.71
572.90	65.54
573.06	53.83
573.22	77.24
573.38	79.58
573.55	14.04
573.71	84.26
573.87	117.03
574.03	107.66
574.20	84.26
574.36	170.86
574.52	37.45
574.68	30.43
574.84	138.09
575.01	135.75
575.17	117.03
575.33	159.16
575.49	107.66
575.65	67.88
575.82	138.09
575.98	91.28
576.14	91.28
576.30	72.56
576.46	44.47
576.62	93.62
576.79	42.13
576.95	145.11
577.11	2.34
577.27	63.19
577.43	102.98
577.59	70.22
577.75	131.07
577.92	86.60
578.08	0.00
578.24	105.32
578.40	70.22
578.56	105.32
578.72	28.09
578.88	102.98
579.04	117.03
579.21	67.88
579.37	67.88
579.53	14.04
579.69	105.32
579.85	86.60
580.01	133.41
580.17	91.28
580.33	119.37
580.49	117.03
580.65	74.90
580.82	84.26
580.98	81.92
581.14	98.30
581.30	93.62
581.46	128.73
581.62	128.73
581.78	67.88
581.94	88.94
582.10	4.68
582.26	46.81
582.42	58.51
582.58	42.13
582.74	161.50
582.90	79.58
583.06	128.73
583.22	58.51
583.38	98.30
583.54	105.32
583.70	42.13
583.86	93.62
584.02	81.92
584.18	23.41
584.34	9.36
584.50	81.92
584.66	39.79
584.82	84.26
584.98	28.09
585.14	135.75
585.30	105.32
585.46	84.26
585.62	119.37
585.78	119.37
585.94	105.32
586.10	46.81
586.26	65.54
586.42	117.03
586.58	121.71
586.74	53.83
586.90	25.75
587.06	56.17
587.22	124.05
587.38	49.15
587.54	107.66
587.70	93.62
587.86	0.00
588.02	9.36
588.18	67.88
588.34	84.26
588.49	93.62
588.65	93.62
588.81	84.26
588.97	23.41
589.13	23.41
589.29	14.04
589.45	51.49
589.61	119.37
589.77	0.00
589.93	46.81
590.08	14.04
590.24	102.98
590.40	65.54
590.56	105.32
590.72	56.17
590.88	60.85
591.04	65.54
591.20	0.00
591.35	46.81
591.51	56.17
591.67	126.39
591.83	49.15
591.99	63.19
592.15	11.70
592.31	72.56
592.46	74.90
592.62	117.03
592.78	93.62
592.94	88.94
593.10	46.81
593.26	107.66
593.41	44.47
593.57	70.22
593.73	42.13
593.89	37.45
594.05	35.11
594.20	32.77
594.36	23.41
594.52	58.51
594.68	79.58
594.84	51.49
594.99	119.37
595.15	72.56
595.31	79.58
595.47	140.43
595.62	63.19
595.78	35.11
595.94	0.00
596.10	88.94
596.25	53.83
596.41	46.81
596.57	70.22
596.73	65.54
596.88	84.26
597.04	65.54
597.20	67.88
597.36	7.02
597.51	84.26
597.67	70.22
597.83	67.88
597.99	0.00
598.14	79.58
598.30	35.11
598.46	77.24
598.61	77.24
598.77	14.04
598.93	0.00
599.09	126.39
599.24	95.96
599.40	77.24
599.56	79.58
599.71	16.38
599.87	79.58
600.03	7.02
600.18	42.13
600.34	28.09
600.50	49.15
600.65	44.47
600.81	131.07
600.97	39.79
601.12	70.22
601.28	102.98
601.44	67.88
601.59	51.49
601.75	65.54
601.91	88.94
602.06	84.26
602.22	98.30
602.37	93.62
602.53	100.64
602.69	42.13
602.84	117.03
603.00	74.90
603.16	60.85
603.31	42.13
603.47	42.13
603.62	142.77
603.78	126.39
603.94	102.98
604.09	63.19
604.25	18.72
604.40	18.72
604.56	2.34
604.71	84.26
604.87	23.41
605.03	110.01
605.18	60.85
605.34	110.01
605.49	133.41
605.65	25.75
605.80	32.77
605.96	74.90
606.12	98.30
606.27	42.13
606.43	107.66
606.58	46.81
606.74	79.58
606.89	133.41
607.05	39.79
607.20	58.51
607.36	53.83
607.51	95.96
607.67	84.26
607.82	7.02
607.98	114.69
608.13	124.05
608.29	95.96
608.44	42.13
608.60	131.07
608.75	84.26
608.91	110.01
609.06	53.83
609.22	58.51
609.37	79.58
609.53	114.69
609.68	114.69
609.84	67.88
609.99	107.66
610.15	100.64
610.30	63.19
610.46	93.62
610.61	56.17
610.76	79.58
610.92	53.83
611.07	49.15
611.23	65.54
611.38	117.03
611.54	72.56
611.69	51.49
611.84	42.13
612.00	58.51
612.15	74.90
612.31	60.85
612.46	117.03
612.62	98.30
612.77	67.88
612.92	11.70
613.08	81.92
613.23	138.09
613.39	35.11
613.54	56.17
613.69	63.19
613.85	72.56
614.00	77.24
614.15	102.98
614.31	84.26
614.46	74.90
614.62	67.88
614.77	65.54
614.92	86.60
615.08	7.02
615.23	58.51
615.38	49.15
615.54	117.03
615.69	72.56
615.84	46.81
616.00	67.88
616.15	142.77
616.30	0.00
616.46	37.45
616.61	95.96
616.76	35.11
616.92	0.00
617.07	37.45
617.22	53.83
617.37	58.51
617.53	63.19
617.68	95.96
617.83	53.83
617.99	56.17
618.14	173.20
618.29	140.43
618.45	0.00
618.60	91.28
618.75	100.64
618.90	35.11
619.06	0.00
619.21	46.81
619.36	79.58
619.51	65.54
619.67	100.64
619.82	79.58
619.97	81.92
620.12	74.90
620.28	65.54
620.43	79.58
620.58	72.56
620.73	56.17
620.89	35.11
621.04	107.66
621.19	70.22
621.34	46.81
621.49	121.71
621.65	81.92
621.80	121.71
621.95	53.83
622.10	67.88
622.25	37.45
622.41	25.75
622.56	42.13
622.71	51.49
622.86	0.00
623.01	63.19
623.16	88.94
623.32	51.49
623.47	121.71
623.62	86.60
623.77	23.41
623.92	21.06
624.07	35.11
624.23	65.54
624.38	37.45
624.53	51.49
624.68	53.83
624.83	86.60
624.98	72.56
625.13	102.98
625.29	58.51
625.44	63.19
625.59	14.04
625.74	65.54
625.89	58.51
626.04	0.00
626.19	32.77
626.34	56.17
626.49	86.60
626.65	79.58
626.80	16.38
626.95	74.90
627.10	18.72
627.25	81.92
627.40	60.85
627.55	7.02
627.70	46.81
627.85	63.19
628.00	2.34
628.15	49.15
628.30	53.83
628.45	65.54
628.60	88.94
628.76	16.38
628.91	79.58
629.06	65.54
629.21	42.13
629.36	79.58
629.51	117.03
629.66	51.49
629.81	56.17
629.96	95.96
630.11	0.00
630.26	112.35
630.41	74.90
630.56	21.06
630.71	32.77
630.86	42.13
631.01	70.22
631.16	30.43
631.31	25.75
631.46	67.88
631.61	46.81
631.76	58.51
631.91	0.00
632.06	72.56
632.21	42.13
632.36	77.24
632.51	74.90
632.66	79.58
632.81	70.22
632.96	81.92
633.10	46.81
633.25	44.47
633.40	63.19
633.55	102.98
633.70	37.45
633.85	98.30
634.00	42.13
634.15	46.81
634.30	7.02
634.45	121.71
634.60	77.24
634.75	112.35
634.90	93.62
635.05	49.15
635.19	58.51
635.34	37.45
635.49	0.00
635.64	39.79
635.79	110.01
635.94	67.88
636.09	42.13
636.24	117.03
636.39	79.58
636.53	58.51
636.68	102.98
636.83	79.58
636.98	11.70
637.13	9.36
637.28	18.72
637.43	0.00
637.57	25.75
637.72	56.17
637.87	39.79
638.02	25.75
638.17	107.66
638.32	32.77
638.46	25.75
638.61	152.13
638.76	67.88
638.91	84.26
639.06	128.73
639.20	74.90
639.35	42.13
639.50	49.15
639.65	72.56
639.80	18.72
639.94	112.35
640.09	65.54
640.24	2.34
640.39	35.11
640.54	70.22
640.68	7.02
640.83	9.36
640.98	56.17
641.13	88.94
641.27	23.41
641.42	51.49
641.57	39.79
641.72	86.60
641.86	77.24
642.01	81.92
642.16	72.56
642.31	9.36
642.45	42.13
642.60	93.62
642.75	67.88
642.90	49.15
643.04	70.22
643.19	81.92
643.34	107.66
643.48	4.68
643.63	0.00
643.78	65.54
643.93	30.43
644.07	102.98
644.22	11.70
644.37	77.24
644.51	49.15
644.66	95.96
644.81	72.56
644.95	28.09
645.10	14.04
645.25	98.30
645.39	0.00
645.54	0.00
645.69	9.36
645.83	65.54
645.98	81.92
646.13	114.69
646.27	30.43
646.42	72.56
646.57	145.11
646.71	46.81
646.86	95.96
647.00	11.70
647.15	56.17
647.30	105.32
647.44	100.64
647.59	65.54
647.74	35.11
647.88	30.43
648.03	0.00
648.17	14.04
648.32	63.19
648.47	35.11
648.61	37.45
648.76	98.30
648.90	98.30
649.05	23.41
649.20	105.32
649.34	25.75
649.49	56.17
649.63	23.41
649.78	70.22
649.92	23.41
650.07	72.56
650.21	51.49
650.36	60.85
650.51	0.00
650.65	39.79
650.80	84.26
650.94	35.11
651.09	14.04
651.23	23.41
651.38	53.83
651.52	42.13
651.67	39.79
651.81	35.11
651.96	88.94
652.10	84.26
652.25	131.07
652.39	114.69
652.54	51.49
652.68	124.05
652.83	28.09
652.97	67.88
653.12	42.13
653.26	81.92
653.41	4.68
653.55	77.24
653.70	67.88
653.84	16.38
653.99	28.09
654.13	79.58
654.27	79.58
654.42	77.24
654.56	30.43
654.71	16.38
654.85	60.85
655.00	25.75
655.14	0.00
655.29	142.77
655.43	93.62
655.57	58.51
655.72	49.15
655.86	72.56
656.01	49.15
656.15	39.79
656.30	23.41
656.44	42.13
656.58	21.06
656.73	21.06
656.87	0.00
657.01	42.13
657.16	114.69
657.30	35.11
657.45	63.19
657.59	37.45
657.73	46.81
657.88	135.75
658.02	84.26
658.16	88.94
658.31	37.45
658.45	63.19
658.60	67.88
658.74	28.09
658.88	63.19
659.03	49.15
659.17	100.64
659.31	70.22
659.46	49.15
659.60	21.06
659.74	60.85
659.89	58.51
660.03	39.79
660.17	63.19
660.32	79.58
660.46	88.94
660.60	107.66
660.74	0.00
660.89	42.13
661.03	44.47
661.17	37.45
661.32	18.72
661.46	67.88
661.60	23.41
661.74	112.35
661.89	81.92
662.03	145.11
662.17	23.41
662.31	67.88
662.46	25.75
662.60	0.00
662.74	91.28
662.88	0.00
663.03	2.34
663.17	49.15
663.31	86.60
663.45	37.45
663.60	88.94
663.74	32.77
663.88	63.19
664.02	72.56
664.17	46.81
664.31	98.30
664.45	28.09
664.59	100.64
664.73	91.28
664.88	11.70
665.02	81.92
665.16	63.19
665.30	51.49
665.44	56.17
665.59	124.05
665.73	77.24
665.87	0.00
666.01	30.43
666.15	21.06
666.29	0.00
666.44	49.15
666.58	84.26
666.72	39.79
666.86	81.92
667.00	56.17
667.14	53.83
667.28	25.75
667.43	0.00
667.57	23.41
667.71	56.17
667.85	35.11
667.99	37.45
668.13	42.13
668.27	7.02
668.41	49.15
668.56	142.77
668.70	39.79
668.84	18.72
668.98	53.83
669.12	0.00
669.26	53.83
669.40	81.92
669.54	105.32
669.68	107.66
669.82	32.77
669.96	18.72
670.10	30.43
670.25	98.30
670.39	16.38
670.53	119.37
670.67	112.35
670.81	0.00
670.95	88.94
671.09	32.77
671.23	0.00
671.37	86.60
671.51	11.70
671.65	28.09
671.79	65.54
671.93	39.79
672.07	49.15
672.21	37.45
672.35	25.75
672.49	84.26
672.63	95.96
672.77	117.03
672.91	30.43
673.05	37.45
673.19	74.90
673.33	112.35
673.47	105.32
673.61	32.77
673.75	74.90
673.89	0.00
674.03	107.66
674.17	0.00
674.31	39.79
674.45	18.72
674.59	0.00
674.73	16.38
674.87	72.56
675.01	16.38
675.15	0.00
675.29	37.45
675.43	121.71
675.56	14.04
675.70	0.00
675.84	35.11
675.98	79.58
676.12	84.26
676.26	9.36
676.40	58.51
676.54	58.51
676.68	72.56
676.82	84.26
676.96	28.09
677.10	23.41
677.23	37.45
677.37	0.00
677.51	145.11
677.65	9.36
677.79	58.51
677.93	0.00
678.07	28.09
678.21	32.77
678.34	84.26
678.48	14.04
678.62	49.15
678.76	124.05
678.90	11.70
679.04	0.00
679.18	56.17
679.31	0.00
679.45	32.77
679.59	60.85
679.73	51.49
679.87	28.09
680.00	49.15
680.14	18.72
680.28	119.37
680.42	81.92
680.56	79.58
680.70	42.13
680.83	42.13
680.97	42.13
681.11	98.30
681.25	32.77
681.39	46.81
681.52	0.00
681.66	7.02
681.80	81.92
681.94	46.81
682.07	67.88
682.21	49.15
682.35	16.38
682.49	0.00
682.62	49.15
682.76	79.58
682.90	32.77
683.04	131.07
683.17	56.17
683.31	67.88
683.45	72.56
683.59	0.00
683.72	84.26
683.86	0.00
684.00	51.49
684.13	7.02
684.27	86.60
684.41	58.51
684.55	23.41
684.68	81.92
684.82	65.54
684.96	77.24
685.09	95.96
685.23	49.15
685.37	0.00
685.50	91.28
685.64	18.72
685.78	51.49
685.91	114.69
686.05	51.49
686.19	58.51
686.32	39.79
686.46	23.41
686.60	37.45
686.73	60.85
686.87	37.45
687.01	28.09
687.14	51.49
687.28	18.72
687.42	32.77
687.55	84.26
687.69	74.90
687.82	70.22
687.96	0.00
688.10	63.19
688.23	67.88
688.37	21.06
688.50	91.28
688.64	0.00
688.78	60.85
688.91	65.54
689.05	35.11
689.18	49.15
689.32	88.94
689.46	74.90
689.59	51.49
689.73	23.41
689.86	72.56
690.00	67.88
690.13	86.60
690.27	46.81
690.41	21.06
690.54	28.09
690.68	0.00
690.81	35.11
690.95	46.81
691.08	105.32
691.22	39.79
691.35	56.17
691.49	35.11
691.62	42.13
691.76	18.72
691.89	21.06
692.03	7.02
692.16	51.49
692.30	0.00
692.43	70.22
692.57	16.38
692.70	95.96
692.84	39.79
692.97	21.06
693.11	70.22
693.24	98.30
693.38	46.81
693.51	53.83
693.65	35.11
693.78	0.00
693.92	53.83
694.05	18.72
694.19	14.04
694.32	35.11
694.45	56.17
694.59	51.49
694.72	51.49
694.86	91.28
694.99	72.56
695.13	42.13
695.26	51.49
695.39	81.92
695.53	44.47
695.66	93.62
695.80	67.88
695.93	25.75
696.07	67.88
696.20	30.43
696.33	16.38
696.47	60.85
696.60	70.22
696.73	14.04
696.87	25.75
697.00	56.17
697.14	25.75
697.27	53.83
697.40	35.11
697.54	0.00
697.67	67.88
697.80	79.58
697.94	81.92
698.07	44.47
698.21	42.13
698.34	32.77
698.47	63.19
698.61	2.34
698.74	0.00
698.87	58.51
699.01	2.34
699.14	58.51
699.27	56.17
699.40	56.17
699.54	25.75
699.67	46.81
699.80	30.43
699.94	42.13
700.07	0.00
700.20	32.77
700.34	84.26
700.47	4.68
700.60	32.77
700.73	23.41
700.87	44.47
701.00	2.34
701.13	49.15
701.26	0.00
701.40	30.43
701.53	60.85
701.66	23.41
701.79	16.38
701.93	124.05
702.06	39.79
702.19	65.54
702.32	51.49
702.46	105.32
702.59	86.60
702.72	0.00
702.85	25.75
702.99	14.04
703.12	25.75
703.25	37.45
703.38	0.00
703.51	70.22
703.65	91.28
703.78	25.75
703.91	65.54
704.04	44.47
704.17	112.35
704.31	0.00
704.44	60.85
704.57	0.00
704.70	35.11
704.83	28.09
704.96	37.45
705.10	11.70
705.23	37.45
>>>>>End Processed Spectral Data<<<<<
