SpectraSuite Data File
++++++++++++++++++++++++++++++++++++
Date: Fri Oct 04 12:13:37 GMT-05:00 2013
User: price-jones
Dark Spectrum Present: No
Reference Spectrum Present: No
Number of Sampled Component Spectra: 1
Spectrometers: USB2+H05261
Integration Time (usec): 10000 (USB2+H05261)
Spectra Averaged: 1 (USB2+H05261)
Boxcar Smoothing: 0 (USB2+H05261)
Correct for Electrical Dark: No (USB2+H05261)
Strobe/Lamp Enabled: No (USB2+H05261)
Correct for Detector Non-linearity: No (USB2+H05261)
Correct for Stray Light: No (USB2+H05261)
Number of Pixels in Processed Spectrum: 2048
>>>>>Begin Processed Spectral Data<<<<<
365.73	0.00
365.92	0.00
366.12	0.00
366.32	0.00
366.52	0.00
366.72	0.00
366.91	0.00
367.11	0.00
367.31	0.00
367.51	0.00
367.70	0.00
367.90	0.00
368.10	0.00
368.30	0.00
368.49	0.00
368.69	0.00
368.89	0.00
369.09	0.00
369.28	0.00
369.48	0.00
369.68	0.00
369.87	0.00
370.07	0.00
370.27	0.00
370.47	0.00
370.66	0.00
370.86	0.00
371.06	0.00
371.25	0.00
371.45	0.00
371.65	0.00
371.84	0.00
372.04	0.00
372.24	4.68
372.44	0.00
372.63	0.00
372.83	0.00
373.03	0.00
373.22	0.00
373.42	0.00
373.62	88.94
373.81	86.60
374.01	0.00
374.21	37.45
374.40	77.24
374.60	72.56
374.79	86.60
374.99	0.00
375.19	0.00
375.38	42.13
375.58	37.45
375.78	49.15
375.97	60.85
376.17	32.77
376.37	110.01
376.56	93.62
376.76	63.19
376.95	0.00
377.15	0.00
377.35	58.51
377.54	23.41
377.74	0.00
377.93	0.00
378.13	9.36
378.33	60.85
378.52	0.00
378.72	7.02
378.91	4.68
379.11	0.00
379.31	63.19
379.50	2.34
379.70	0.00
379.89	49.15
380.09	0.00
380.28	95.96
380.48	84.26
380.68	39.79
380.87	2.34
381.07	0.00
381.26	32.77
381.46	0.00
381.65	9.36
381.85	42.13
382.04	23.41
382.24	35.11
382.43	7.02
382.63	0.00
382.83	46.81
383.02	44.47
383.22	77.24
383.41	88.94
383.61	0.00
383.80	0.00
384.00	93.62
384.19	18.72
384.39	2.34
384.58	0.00
384.78	49.15
384.97	65.54
385.17	91.28
385.36	60.85
385.56	0.00
385.75	67.88
385.95	63.19
386.14	63.19
386.34	0.00
386.53	18.72
386.72	58.51
386.92	56.17
387.11	58.51
387.31	21.06
387.50	7.02
387.70	37.45
387.89	74.90
388.09	44.47
388.28	18.72
388.48	37.45
388.67	0.00
388.86	2.34
389.06	0.00
389.25	23.41
389.45	0.00
389.64	0.00
389.84	39.79
390.03	65.54
390.22	46.81
390.42	63.19
390.61	18.72
390.81	4.68
391.00	7.02
391.19	42.13
391.39	0.00
391.58	11.70
391.78	0.00
391.97	0.00
392.16	21.06
392.36	0.00
392.55	72.56
392.75	25.75
392.94	0.00
393.13	25.75
393.33	18.72
393.52	0.00
393.71	81.92
393.91	35.11
394.10	9.36
394.29	7.02
394.49	0.00
394.68	11.70
394.88	53.83
395.07	49.15
395.26	112.35
395.46	0.00
395.65	30.43
395.84	30.43
396.04	0.00
396.23	32.77
396.42	0.00
396.62	9.36
396.81	9.36
397.00	0.00
397.19	0.00
397.39	72.56
397.58	60.85
397.77	51.49
397.97	0.00
398.16	23.41
398.35	37.45
398.55	79.58
398.74	18.72
398.93	7.02
399.12	9.36
399.32	0.00
399.51	39.79
399.70	0.00
399.90	51.49
400.09	25.75
400.28	21.06
400.47	28.09
400.67	49.15
400.86	32.77
401.05	0.00
401.24	9.36
401.44	0.00
401.63	58.51
401.82	44.47
402.01	37.45
402.21	16.38
402.40	51.49
402.59	117.03
402.78	30.43
402.97	0.00
403.17	4.68
403.36	9.36
403.55	21.06
403.74	2.34
403.93	0.00
404.13	28.09
404.32	0.00
404.51	0.00
404.70	53.83
404.89	11.70
405.09	91.28
405.28	0.00
405.47	84.26
405.66	30.43
405.85	91.28
406.05	72.56
406.24	37.45
406.43	0.00
406.62	0.00
406.81	28.09
407.00	18.72
407.20	9.36
407.39	49.15
407.58	58.51
407.77	21.06
407.96	35.11
408.15	14.04
408.34	58.51
408.54	39.79
408.73	72.56
408.92	0.00
409.11	49.15
409.30	7.02
409.49	72.56
409.68	63.19
409.87	60.85
410.07	35.11
410.26	35.11
410.45	30.43
410.64	0.00
410.83	49.15
411.02	142.77
411.21	39.79
411.40	0.00
411.59	63.19
411.78	56.17
411.98	65.54
412.17	102.98
412.36	42.13
412.55	77.24
412.74	35.11
412.93	74.90
413.12	70.22
413.31	60.85
413.50	46.81
413.69	58.51
413.88	0.00
414.07	161.50
414.26	100.64
414.45	28.09
414.64	16.38
414.83	44.47
415.02	0.00
415.22	44.47
415.41	44.47
415.60	81.92
415.79	91.28
415.98	63.19
416.17	7.02
416.36	60.85
416.55	44.47
416.74	14.04
416.93	131.07
417.12	28.09
417.31	23.41
417.50	95.96
417.69	77.24
417.88	0.00
418.07	42.13
418.26	86.60
418.45	39.79
418.64	86.60
418.83	86.60
419.02	58.51
419.21	42.13
419.39	0.00
419.58	18.72
419.77	49.15
419.96	28.09
420.15	56.17
420.34	0.00
420.53	117.03
420.72	28.09
420.91	0.00
421.10	25.75
421.29	37.45
421.48	51.49
421.67	23.41
421.86	51.49
422.05	0.00
422.24	58.51
422.43	0.00
422.61	18.72
422.80	21.06
422.99	42.13
423.18	30.43
423.37	42.13
423.56	98.30
423.75	46.81
423.94	18.72
424.13	46.81
424.32	72.56
424.50	9.36
424.69	35.11
424.88	0.00
425.07	2.34
425.26	79.58
425.45	4.68
425.64	16.38
425.83	58.51
426.01	63.19
426.20	28.09
426.39	0.00
426.58	9.36
426.77	77.24
426.96	51.49
427.15	0.00
427.33	0.00
427.52	79.58
427.71	74.90
427.90	51.49
428.09	0.00
428.28	67.88
428.46	39.79
428.65	32.77
428.84	32.77
429.03	37.45
429.22	74.90
429.40	21.06
429.59	105.32
429.78	93.62
429.97	0.00
430.16	131.07
430.34	0.00
430.53	16.38
430.72	7.02
430.91	28.09
431.10	16.38
431.28	91.28
431.47	70.22
431.66	32.77
431.85	49.15
432.03	2.34
432.22	72.56
432.41	77.24
432.60	110.01
432.79	81.92
432.97	53.83
433.16	0.00
433.35	23.41
433.54	44.47
433.72	72.56
433.91	0.00
434.10	49.15
434.28	88.94
434.47	35.11
434.66	28.09
434.85	44.47
435.03	67.88
435.22	53.83
435.41	0.00
435.59	58.51
435.78	4.68
435.97	0.00
436.16	67.88
436.34	100.64
436.53	63.19
436.72	58.51
436.90	25.75
437.09	70.22
437.28	58.51
437.46	63.19
437.65	21.06
437.84	9.36
438.02	81.92
438.21	0.00
438.40	121.71
438.58	70.22
438.77	16.38
438.96	0.00
439.14	16.38
439.33	23.41
439.52	28.09
439.70	32.77
439.89	65.54
440.08	0.00
440.26	44.47
440.45	49.15
440.63	9.36
440.82	0.00
441.01	25.75
441.19	39.79
441.38	60.85
441.57	121.71
441.75	28.09
441.94	35.11
442.12	7.02
442.31	28.09
442.50	100.64
442.68	0.00
442.87	91.28
443.05	93.62
443.24	58.51
443.43	79.58
443.61	93.62
443.80	67.88
443.98	0.00
444.17	58.51
444.35	18.72
444.54	58.51
444.73	77.24
444.91	0.00
445.10	107.66
445.28	46.81
445.47	49.15
445.65	44.47
445.84	39.79
446.02	0.00
446.21	28.09
446.39	16.38
446.58	91.28
446.77	18.72
446.95	67.88
447.14	39.79
447.32	88.94
447.51	0.00
447.69	16.38
447.88	84.26
448.06	77.24
448.25	65.54
448.43	88.94
448.62	44.47
448.80	58.51
448.99	25.75
449.17	70.22
449.36	70.22
449.54	133.41
449.73	0.00
449.91	28.09
450.10	58.51
450.28	14.04
450.46	25.75
450.65	67.88
450.83	126.39
451.02	46.81
451.20	42.13
451.39	65.54
451.57	102.98
451.76	121.71
451.94	91.28
452.13	39.79
452.31	11.70
452.49	11.70
452.68	51.49
452.86	25.75
453.05	23.41
453.23	53.83
453.42	86.60
453.60	46.81
453.78	86.60
453.97	21.06
454.15	77.24
454.34	53.83
454.52	74.90
454.70	51.49
454.89	39.79
455.07	53.83
455.26	86.60
455.44	53.83
455.62	42.13
455.81	149.79
455.99	70.22
456.17	112.35
456.36	32.77
456.54	23.41
456.73	102.98
456.91	51.49
457.09	14.04
457.28	100.64
457.46	0.00
457.64	39.79
457.83	49.15
458.01	0.00
458.19	35.11
458.38	30.43
458.56	46.81
458.74	18.72
458.93	67.88
459.11	131.07
459.29	93.62
459.48	72.56
459.66	49.15
459.84	23.41
460.03	25.75
460.21	7.02
460.39	88.94
460.57	63.19
460.76	42.13
460.94	65.54
461.12	28.09
461.31	67.88
461.49	86.60
461.67	84.26
461.85	35.11
462.04	0.00
462.22	149.79
462.40	138.09
462.59	77.24
462.77	16.38
462.95	112.35
463.13	72.56
463.32	21.06
463.50	39.79
463.68	51.49
463.86	0.00
464.05	28.09
464.23	72.56
464.41	65.54
464.59	63.19
464.78	18.72
464.96	44.47
465.14	46.81
465.32	18.72
465.50	72.56
465.69	23.41
465.87	107.66
466.05	79.58
466.23	0.00
466.41	16.38
466.60	32.77
466.78	46.81
466.96	9.36
467.14	16.38
467.32	0.00
467.51	105.32
467.69	70.22
467.87	0.00
468.05	100.64
468.23	58.51
468.41	124.05
468.60	21.06
468.78	25.75
468.96	30.43
469.14	11.70
469.32	23.41
469.50	49.15
469.69	0.00
469.87	49.15
470.05	0.00
470.23	4.68
470.41	56.17
470.59	37.45
470.77	119.37
470.95	0.00
471.14	79.58
471.32	105.32
471.50	39.79
471.68	14.04
471.86	42.13
472.04	0.00
472.22	56.17
472.40	84.26
472.58	0.00
472.77	9.36
472.95	74.90
473.13	105.32
473.31	53.83
473.49	30.43
473.67	16.38
473.85	35.11
474.03	46.81
474.21	23.41
474.39	77.24
474.57	79.58
474.75	49.15
474.93	79.58
475.12	60.85
475.30	9.36
475.48	98.30
475.66	60.85
475.84	44.47
476.02	60.85
476.20	51.49
476.38	98.30
476.56	60.85
476.74	56.17
476.92	74.90
477.10	4.68
477.28	35.11
477.46	88.94
477.64	51.49
477.82	86.60
478.00	63.19
478.18	110.01
478.36	42.13
478.54	63.19
478.72	72.56
478.90	84.26
479.08	56.17
479.26	56.17
479.44	53.83
479.62	18.72
479.80	70.22
479.98	79.58
480.16	128.73
480.34	49.15
480.52	39.79
480.70	39.79
480.88	53.83
481.06	88.94
481.24	98.30
481.41	28.09
481.59	67.88
481.77	112.35
481.95	72.56
482.13	42.13
482.31	114.69
482.49	79.58
482.67	23.41
482.85	56.17
483.03	16.38
483.21	191.92
483.39	60.85
483.57	28.09
483.74	25.75
483.92	77.24
484.10	107.66
484.28	79.58
484.46	46.81
484.64	11.70
484.82	51.49
485.00	49.15
485.18	70.22
485.35	14.04
485.53	42.13
485.71	119.37
485.89	37.45
486.07	102.98
486.25	21.06
486.43	56.17
486.61	105.32
486.78	25.75
486.96	42.13
487.14	72.56
487.32	46.81
487.50	79.58
487.68	58.51
487.85	65.54
488.03	37.45
488.21	142.77
488.39	110.01
488.57	65.54
488.75	77.24
488.92	63.19
489.10	28.09
489.28	53.83
489.46	4.68
489.64	142.77
489.81	21.06
489.99	135.75
490.17	0.00
490.35	53.83
490.53	84.26
490.70	70.22
490.88	124.05
491.06	70.22
491.24	72.56
491.41	70.22
491.59	95.96
491.77	77.24
491.95	65.54
492.13	56.17
492.30	49.15
492.48	28.09
492.66	84.26
492.84	63.19
493.01	63.19
493.19	93.62
493.37	98.30
493.54	65.54
493.72	39.79
493.90	124.05
494.08	53.83
494.25	100.64
494.43	140.43
494.61	79.58
494.79	74.90
494.96	140.43
495.14	159.16
495.32	0.00
495.49	93.62
495.67	67.88
495.85	42.13
496.02	145.11
496.20	42.13
496.38	105.32
496.55	88.94
496.73	77.24
496.91	107.66
497.09	58.51
497.26	0.00
497.44	56.17
497.62	100.64
497.79	77.24
497.97	63.19
498.14	107.66
498.32	81.92
498.50	60.85
498.67	39.79
498.85	63.19
499.03	133.41
499.20	93.62
499.38	74.90
499.56	121.71
499.73	81.92
499.91	107.66
500.08	49.15
500.26	56.17
500.44	23.41
500.61	65.54
500.79	9.36
500.97	35.11
501.14	51.49
501.32	23.41
501.49	133.41
501.67	0.00
501.84	65.54
502.02	77.24
502.20	63.19
502.37	51.49
502.55	53.83
502.72	79.58
502.90	131.07
503.07	102.98
503.25	0.00
503.43	74.90
503.60	70.22
503.78	142.77
503.95	65.54
504.13	32.77
504.30	88.94
504.48	0.00
504.65	102.98
504.83	121.71
505.01	93.62
505.18	51.49
505.36	79.58
505.53	46.81
505.71	28.09
505.88	81.92
506.06	35.11
506.23	21.06
506.41	149.79
506.58	67.88
506.76	42.13
506.93	77.24
507.11	93.62
507.28	18.72
507.46	60.85
507.63	18.72
507.81	84.26
507.98	70.22
508.16	51.49
508.33	23.41
508.50	77.24
508.68	79.58
508.85	114.69
509.03	49.15
509.20	72.56
509.38	30.43
509.55	84.26
509.73	93.62
509.90	105.32
510.08	70.22
510.25	102.98
510.42	28.09
510.60	30.43
510.77	124.05
510.95	86.60
511.12	0.00
511.30	53.83
511.47	124.05
511.64	110.01
511.82	102.98
511.99	67.88
512.17	119.37
512.34	39.79
512.51	72.56
512.69	35.11
512.86	88.94
513.04	81.92
513.21	70.22
513.38	77.24
513.56	39.79
513.73	95.96
513.90	18.72
514.08	126.39
514.25	98.30
514.43	126.39
514.60	107.66
514.77	23.41
514.95	65.54
515.12	91.28
515.29	95.96
515.47	51.49
515.64	65.54
515.81	56.17
515.99	25.75
516.16	102.98
516.33	98.30
516.51	35.11
516.68	44.47
516.85	65.54
517.03	79.58
517.20	51.49
517.37	102.98
517.54	81.92
517.72	128.73
517.89	147.45
518.06	114.69
518.24	79.58
518.41	102.98
518.58	42.13
518.75	51.49
518.93	14.04
519.10	95.96
519.27	124.05
519.45	91.28
519.62	46.81
519.79	140.43
519.96	138.09
520.14	98.30
520.31	114.69
520.48	133.41
520.65	79.58
520.83	72.56
521.00	70.22
521.17	81.92
521.34	51.49
521.52	39.79
521.69	112.35
521.86	102.98
522.03	126.39
522.20	65.54
522.38	145.11
522.55	156.82
522.72	98.30
522.89	142.77
523.07	105.32
523.24	51.49
523.41	67.88
523.58	133.41
523.75	105.32
523.92	37.45
524.10	152.13
524.27	32.77
524.44	114.69
524.61	128.73
524.78	28.09
524.96	30.43
525.13	81.92
525.30	35.11
525.47	25.75
525.64	56.17
525.81	70.22
525.98	51.49
526.16	138.09
526.33	77.24
526.50	0.00
526.67	121.71
526.84	119.37
527.01	35.11
527.18	84.26
527.36	72.56
527.53	25.75
527.70	65.54
527.87	86.60
528.04	128.73
528.21	51.49
528.38	131.07
528.55	63.19
528.72	70.22
528.89	63.19
529.07	100.64
529.24	98.30
529.41	9.36
529.58	128.73
529.75	60.85
529.92	110.01
530.09	56.17
530.26	142.77
530.43	65.54
530.60	70.22
530.77	81.92
530.94	112.35
531.11	88.94
531.28	49.15
531.46	77.24
531.63	44.47
531.80	86.60
531.97	128.73
532.14	110.01
532.31	84.26
532.48	114.69
532.65	77.24
532.82	84.26
532.99	140.43
533.16	95.96
533.33	86.60
533.50	81.92
533.67	105.32
533.84	60.85
534.01	28.09
534.18	105.32
534.35	114.69
534.52	131.07
534.69	30.43
534.86	112.35
535.03	86.60
535.20	39.79
535.37	105.32
535.54	102.98
535.71	70.22
535.88	18.72
536.05	98.30
536.22	117.03
536.38	93.62
536.55	128.73
536.72	60.85
536.89	74.90
537.06	161.50
537.23	74.90
537.40	9.36
537.57	105.32
537.74	149.79
537.91	145.11
538.08	98.30
538.25	95.96
538.42	88.94
538.59	93.62
538.75	180.22
538.92	28.09
539.09	65.54
539.26	93.62
539.43	140.43
539.60	114.69
539.77	95.96
539.94	46.81
540.11	70.22
540.28	110.01
540.44	74.90
540.61	35.11
540.78	16.38
540.95	49.15
541.12	138.09
541.29	147.45
541.46	114.69
541.62	98.30
541.79	84.26
541.96	72.56
542.13	60.85
542.30	21.06
542.47	32.77
542.63	0.00
542.80	77.24
542.97	88.94
543.14	49.15
543.31	65.54
543.48	51.49
543.64	28.09
543.81	74.90
543.98	95.96
544.15	100.64
544.32	49.15
544.48	117.03
544.65	63.19
544.82	74.90
544.99	46.81
545.16	112.35
545.32	145.11
545.49	135.75
545.66	44.47
545.83	102.98
546.00	42.13
546.16	14.04
546.33	154.48
546.50	91.28
546.67	121.71
546.83	88.94
547.00	114.69
547.17	84.26
547.34	184.90
547.50	18.72
547.67	18.72
547.84	107.66
548.00	100.64
548.17	114.69
548.34	49.15
548.51	88.94
548.67	91.28
548.84	60.85
549.01	0.00
549.18	95.96
549.34	56.17
549.51	114.69
549.68	77.24
549.84	154.48
550.01	67.88
550.18	124.05
550.34	98.30
550.51	16.38
550.68	119.37
550.84	49.15
551.01	117.03
551.18	7.02
551.34	173.20
551.51	93.62
551.68	35.11
551.84	74.90
552.01	114.69
552.18	114.69
552.34	72.56
552.51	25.75
552.68	46.81
552.84	39.79
553.01	72.56
553.18	98.30
553.34	30.43
553.51	46.81
553.67	126.39
553.84	102.98
554.01	74.90
554.17	37.45
554.34	74.90
554.51	72.56
554.67	18.72
554.84	98.30
555.00	58.51
555.17	93.62
555.33	140.43
555.50	91.28
555.67	74.90
555.83	60.85
556.00	124.05
556.16	65.54
556.33	77.24
556.50	149.79
556.66	11.70
556.83	133.41
556.99	88.94
557.16	86.60
557.32	21.06
557.49	37.45
557.65	95.96
557.82	14.04
557.98	124.05
558.15	98.30
558.32	91.28
558.48	56.17
558.65	112.35
558.81	112.35
558.98	60.85
559.14	161.50
559.31	84.26
559.47	88.94
559.64	72.56
559.80	56.17
559.97	65.54
560.13	67.88
560.30	67.88
560.46	70.22
560.63	72.56
560.79	74.90
560.96	107.66
561.12	140.43
561.29	107.66
561.45	7.02
561.61	88.94
561.78	131.07
561.94	131.07
562.11	74.90
562.27	91.28
562.44	110.01
562.60	49.15
562.77	100.64
562.93	0.00
563.10	60.85
563.26	121.71
563.42	53.83
563.59	42.13
563.75	9.36
563.92	128.73
564.08	102.98
564.24	14.04
564.41	51.49
564.57	25.75
564.74	49.15
564.90	35.11
565.07	67.88
565.23	128.73
565.39	107.66
565.56	49.15
565.72	91.28
565.88	102.98
566.05	117.03
566.21	77.24
566.38	32.77
566.54	121.71
566.70	39.79
566.87	100.64
567.03	126.39
567.19	117.03
567.36	32.77
567.52	65.54
567.68	161.50
567.85	124.05
568.01	121.71
568.17	65.54
568.34	70.22
568.50	49.15
568.66	105.32
568.83	18.72
568.99	65.54
569.15	93.62
569.32	49.15
569.48	49.15
569.64	114.69
569.81	72.56
569.97	39.79
570.13	119.37
570.30	14.04
570.46	100.64
570.62	156.82
570.78	126.39
570.95	140.43
571.11	0.00
571.27	74.90
571.43	63.19
571.60	100.64
571.76	30.43
571.92	18.72
572.09	81.92
572.25	140.43
572.41	100.64
572.57	60.85
572.74	112.35
572.90	11.70
573.06	65.54
573.22	93.62
573.38	117.03
573.55	16.38
573.71	88.94
573.87	88.94
574.03	131.07
574.20	72.56
574.36	161.50
574.52	79.58
574.68	126.39
574.84	44.47
575.01	58.51
575.17	84.26
575.33	63.19
575.49	42.13
575.65	9.36
575.82	37.45
575.98	98.30
576.14	88.94
576.30	42.13
576.46	102.98
576.62	102.98
576.79	79.58
576.95	95.96
577.11	35.11
577.27	63.19
577.43	112.35
577.59	63.19
577.75	53.83
577.92	100.64
578.08	46.81
578.24	88.94
578.40	37.45
578.56	88.94
578.72	53.83
578.88	128.73
579.04	86.60
579.21	112.35
579.37	42.13
579.53	16.38
579.69	100.64
579.85	70.22
580.01	84.26
580.17	86.60
580.33	114.69
580.49	74.90
580.65	121.71
580.82	95.96
580.98	79.58
581.14	14.04
581.30	51.49
581.46	51.49
581.62	119.37
581.78	9.36
581.94	112.35
582.10	74.90
582.26	112.35
582.42	79.58
582.58	110.01
582.74	117.03
582.90	74.90
583.06	58.51
583.22	107.66
583.38	159.16
583.54	72.56
583.70	35.11
583.86	88.94
584.02	49.15
584.18	110.01
584.34	91.28
584.50	56.17
584.66	88.94
584.82	140.43
584.98	128.73
585.14	88.94
585.30	65.54
585.46	81.92
585.62	93.62
585.78	77.24
585.94	84.26
586.10	84.26
586.26	110.01
586.42	37.45
586.58	98.30
586.74	95.96
586.90	0.00
587.06	100.64
587.22	53.83
587.38	53.83
587.54	67.88
587.70	121.71
587.86	7.02
588.02	9.36
588.18	88.94
588.34	110.01
588.49	18.72
588.65	56.17
588.81	25.75
588.97	0.00
589.13	46.81
589.29	63.19
589.45	9.36
589.61	70.22
589.77	56.17
589.93	60.85
590.08	98.30
590.24	46.81
590.40	105.32
590.56	63.19
590.72	77.24
590.88	110.01
591.04	88.94
591.20	133.41
591.35	117.03
591.51	88.94
591.67	7.02
591.83	39.79
591.99	91.28
592.15	53.83
592.31	95.96
592.46	79.58
592.62	70.22
592.78	84.26
592.94	84.26
593.10	37.45
593.26	84.26
593.41	2.34
593.57	84.26
593.73	70.22
593.89	28.09
594.05	0.00
594.20	42.13
594.36	0.00
594.52	70.22
594.68	114.69
594.84	72.56
594.99	105.32
595.15	44.47
595.31	72.56
595.47	91.28
595.62	98.30
595.78	119.37
595.94	60.85
596.10	93.62
596.25	60.85
596.41	37.45
596.57	84.26
596.73	114.69
596.88	63.19
597.04	102.98
597.20	46.81
597.36	56.17
597.51	86.60
597.67	21.06
597.83	79.58
597.99	42.13
598.14	77.24
598.30	65.54
598.46	46.81
598.61	140.43
598.77	39.79
598.93	84.26
599.09	74.90
599.24	0.00
599.40	102.98
599.56	107.66
599.71	60.85
599.87	25.75
600.03	46.81
600.18	28.09
600.34	49.15
600.50	79.58
600.65	28.09
600.81	72.56
600.97	84.26
601.12	25.75
601.28	72.56
601.44	74.90
601.59	63.19
601.75	133.41
601.91	91.28
602.06	7.02
602.22	93.62
602.37	95.96
602.53	44.47
602.69	53.83
602.84	44.47
603.00	16.38
603.16	46.81
603.31	65.54
603.47	65.54
603.62	14.04
603.78	32.77
603.94	23.41
604.09	102.98
604.25	128.73
604.40	16.38
604.56	28.09
604.71	18.72
604.87	63.19
605.03	56.17
605.18	117.03
605.34	86.60
605.49	37.45
605.65	63.19
605.80	32.77
605.96	117.03
606.12	91.28
606.27	91.28
606.43	88.94
606.58	56.17
606.74	88.94
606.89	49.15
607.05	74.90
607.20	128.73
607.36	88.94
607.51	56.17
607.67	67.88
607.82	110.01
607.98	95.96
608.13	77.24
608.29	102.98
608.44	23.41
608.60	63.19
608.75	30.43
608.91	98.30
609.06	86.60
609.22	42.13
609.37	95.96
609.53	25.75
609.68	0.00
609.84	4.68
609.99	65.54
610.15	72.56
610.30	0.00
610.46	100.64
610.61	65.54
610.76	88.94
610.92	72.56
611.07	58.51
611.23	51.49
611.38	72.56
611.54	32.77
611.69	72.56
611.84	51.49
612.00	21.06
612.15	84.26
612.31	49.15
612.46	95.96
612.62	28.09
612.77	16.38
612.92	58.51
613.08	84.26
613.23	81.92
613.39	51.49
613.54	84.26
613.69	95.96
613.85	114.69
614.00	67.88
614.15	74.90
614.31	51.49
614.46	65.54
614.62	65.54
614.77	70.22
614.92	65.54
615.08	18.72
615.23	42.13
615.38	86.60
615.54	53.83
615.69	35.11
615.84	65.54
616.00	0.00
616.15	107.66
616.30	23.41
616.46	131.07
616.61	72.56
616.76	100.64
616.92	44.47
617.07	117.03
617.22	93.62
617.37	67.88
617.53	32.77
617.68	63.19
617.83	70.22
617.99	84.26
618.14	77.24
618.29	98.30
618.45	67.88
618.60	81.92
618.75	32.77
618.90	112.35
619.06	67.88
619.21	86.60
619.36	81.92
619.51	53.83
619.67	93.62
619.82	121.71
619.97	25.75
620.12	25.75
620.28	56.17
620.43	88.94
620.58	91.28
620.73	0.00
620.89	39.79
621.04	63.19
621.19	163.84
621.34	117.03
621.49	93.62
621.65	114.69
621.80	98.30
621.95	7.02
622.10	93.62
622.25	105.32
622.41	39.79
622.56	51.49
622.71	110.01
622.86	149.79
623.01	72.56
623.16	32.77
623.32	0.00
623.47	58.51
623.62	84.26
623.77	145.11
623.92	2.34
624.07	23.41
624.23	7.02
624.38	0.00
624.53	28.09
624.68	51.49
624.83	14.04
624.98	67.88
625.13	84.26
625.29	79.58
625.44	51.49
625.59	112.35
625.74	86.60
625.89	60.85
626.04	42.13
626.19	77.24
626.34	81.92
626.49	119.37
626.65	28.09
626.80	95.96
626.95	49.15
627.10	56.17
627.25	21.06
627.40	11.70
627.55	16.38
627.70	79.58
627.85	37.45
628.00	0.00
628.15	46.81
628.30	63.19
628.45	0.00
628.60	28.09
628.76	107.66
628.91	32.77
629.06	51.49
629.21	81.92
629.36	39.79
629.51	49.15
629.66	74.90
629.81	14.04
629.96	67.88
630.11	102.98
630.26	70.22
630.41	65.54
630.56	37.45
630.71	53.83
630.86	4.68
631.01	2.34
631.16	32.77
631.31	88.94
631.46	56.17
631.61	53.83
631.76	93.62
631.91	138.09
632.06	56.17
632.21	46.81
632.36	131.07
632.51	100.64
632.66	14.04
632.81	0.00
632.96	0.00
633.10	60.85
633.25	65.54
633.40	7.02
633.55	46.81
633.70	60.85
633.85	86.60
634.00	28.09
634.15	14.04
634.30	39.79
634.45	63.19
634.60	91.28
634.75	35.11
634.90	98.30
635.05	35.11
635.19	21.06
635.34	53.83
635.49	88.94
635.64	77.24
635.79	0.00
635.94	32.77
636.09	60.85
636.24	70.22
636.39	53.83
636.53	70.22
636.68	77.24
636.83	44.47
636.98	37.45
637.13	161.50
637.28	56.17
637.43	9.36
637.57	39.79
637.72	51.49
637.87	100.64
638.02	37.45
638.17	51.49
638.32	102.98
638.46	110.01
638.61	60.85
638.76	112.35
638.91	32.77
639.06	91.28
639.20	46.81
639.35	60.85
639.50	63.19
639.65	102.98
639.80	119.37
639.94	93.62
640.09	2.34
640.24	84.26
640.39	51.49
640.54	58.51
640.68	4.68
640.83	77.24
640.98	105.32
641.13	32.77
641.27	91.28
641.42	44.47
641.57	72.56
641.72	70.22
641.86	60.85
642.01	37.45
642.16	91.28
642.31	67.88
642.45	63.19
642.60	53.83
642.75	65.54
642.90	117.03
643.04	56.17
643.19	21.06
643.34	30.43
643.48	98.30
643.63	21.06
643.78	28.09
643.93	7.02
644.07	100.64
644.22	39.79
644.37	23.41
644.51	84.26
644.66	105.32
644.81	44.47
644.95	124.05
645.10	11.70
645.25	70.22
645.39	23.41
645.54	30.43
645.69	14.04
645.83	25.75
645.98	42.13
646.13	21.06
646.27	100.64
646.42	65.54
646.57	0.00
646.71	21.06
646.86	63.19
647.00	0.00
647.15	28.09
647.30	60.85
647.44	58.51
647.59	46.81
647.74	7.02
647.88	72.56
648.03	46.81
648.17	16.38
648.32	0.00
648.47	46.81
648.61	46.81
648.76	93.62
648.90	44.47
649.05	110.01
649.20	21.06
649.34	105.32
649.49	0.00
649.63	2.34
649.78	4.68
649.92	51.49
650.07	145.11
650.21	74.90
650.36	42.13
650.51	32.77
650.65	86.60
650.80	0.00
650.94	86.60
651.09	16.38
651.23	30.43
651.38	49.15
651.52	39.79
651.67	0.00
651.81	63.19
651.96	60.85
652.10	39.79
652.25	42.13
652.39	65.54
652.54	91.28
652.68	53.83
652.83	77.24
652.97	18.72
653.12	46.81
653.26	124.05
653.41	60.85
653.55	25.75
653.70	81.92
653.84	79.58
653.99	88.94
654.13	121.71
654.27	63.19
654.42	88.94
654.56	32.77
654.71	53.83
654.85	14.04
655.00	72.56
655.14	72.56
655.29	21.06
655.43	4.68
655.57	39.79
655.72	37.45
655.86	0.00
656.01	9.36
656.15	30.43
656.30	77.24
656.44	11.70
656.58	88.94
656.73	44.47
656.87	21.06
657.01	4.68
657.16	46.81
657.30	46.81
657.45	37.45
657.59	25.75
657.73	16.38
657.88	105.32
658.02	37.45
658.16	72.56
658.31	49.15
658.45	56.17
658.60	42.13
658.74	77.24
658.88	11.70
659.03	14.04
659.17	51.49
659.31	60.85
659.46	16.38
659.60	37.45
659.74	91.28
659.89	102.98
660.03	88.94
660.17	117.03
660.32	25.75
660.46	56.17
660.60	81.92
660.74	77.24
660.89	30.43
661.03	56.17
661.17	67.88
661.32	0.00
661.46	9.36
661.60	32.77
661.74	117.03
661.89	32.77
662.03	7.02
662.17	65.54
662.31	0.00
662.46	0.00
662.60	21.06
662.74	39.79
662.88	44.47
663.03	0.00
663.17	88.94
663.31	72.56
663.45	32.77
663.60	9.36
663.74	21.06
663.88	81.92
664.02	21.06
664.17	35.11
664.31	65.54
664.45	0.00
664.59	72.56
664.73	25.75
664.88	93.62
665.02	0.00
665.16	70.22
665.30	93.62
665.44	39.79
665.59	67.88
665.73	51.49
665.87	4.68
666.01	77.24
666.15	42.13
666.29	11.70
666.44	28.09
666.58	18.72
666.72	58.51
666.86	0.00
667.00	37.45
667.14	77.24
667.28	11.70
667.43	30.43
667.57	32.77
667.71	30.43
667.85	58.51
667.99	93.62
668.13	67.88
668.27	79.58
668.41	63.19
668.56	46.81
668.70	74.90
668.84	72.56
668.98	81.92
669.12	11.70
669.26	25.75
669.40	107.66
669.54	9.36
669.68	23.41
669.82	9.36
669.96	37.45
670.10	72.56
670.25	0.00
670.39	60.85
670.53	0.00
670.67	60.85
670.81	2.34
670.95	81.92
671.09	105.32
671.23	110.01
671.37	63.19
671.51	42.13
671.65	51.49
671.79	49.15
671.93	2.34
672.07	56.17
672.21	51.49
672.35	74.90
672.49	102.98
672.63	0.00
672.77	35.11
672.91	11.70
673.05	37.45
673.19	23.41
673.33	74.90
673.47	16.38
673.61	86.60
673.75	70.22
673.89	0.00
674.03	46.81
674.17	49.15
674.31	14.04
674.45	2.34
674.59	37.45
674.73	42.13
674.87	0.00
675.01	46.81
675.15	91.28
675.29	51.49
675.43	9.36
675.56	39.79
675.70	110.01
675.84	60.85
675.98	0.00
676.12	72.56
676.26	72.56
676.40	79.58
676.54	58.51
676.68	60.85
676.82	49.15
676.96	51.49
677.10	56.17
677.23	0.00
677.37	11.70
677.51	65.54
677.65	70.22
677.79	112.35
677.93	142.77
678.07	65.54
678.21	4.68
678.34	0.00
678.48	35.11
678.62	67.88
678.76	86.60
678.90	37.45
679.04	100.64
679.18	100.64
679.31	46.81
679.45	9.36
679.59	77.24
679.73	81.92
679.87	91.28
680.00	49.15
680.14	84.26
680.28	86.60
680.42	39.79
680.56	0.00
680.70	11.70
680.83	63.19
680.97	0.00
681.11	67.88
681.25	44.47
681.39	16.38
681.52	49.15
681.66	16.38
681.80	28.09
681.94	25.75
682.07	30.43
682.21	37.45
682.35	35.11
682.49	23.41
682.62	21.06
682.76	77.24
682.90	0.00
683.04	37.45
683.17	91.28
683.31	2.34
683.45	60.85
683.59	46.81
683.72	9.36
683.86	42.13
684.00	0.00
684.13	93.62
684.27	51.49
684.41	42.13
684.55	0.00
684.68	37.45
684.82	63.19
684.96	79.58
685.09	49.15
685.23	81.92
685.37	53.83
685.50	23.41
685.64	159.16
685.78	0.00
685.91	0.00
686.05	35.11
686.19	0.00
686.32	70.22
686.46	126.39
686.60	81.92
686.73	56.17
686.87	70.22
687.01	67.88
687.14	84.26
687.28	25.75
687.42	0.00
687.55	25.75
687.69	25.75
687.82	28.09
687.96	30.43
688.10	44.47
688.23	4.68
688.37	53.83
688.50	44.47
688.64	67.88
688.78	88.94
688.91	81.92
689.05	25.75
689.18	60.85
689.32	0.00
689.46	0.00
689.59	16.38
689.73	28.09
689.86	39.79
690.00	58.51
690.13	2.34
690.27	56.17
690.41	0.00
690.54	51.49
690.68	42.13
690.81	23.41
690.95	0.00
691.08	28.09
691.22	56.17
691.35	65.54
691.49	0.00
691.62	74.90
691.76	44.47
691.89	58.51
692.03	28.09
692.16	63.19
692.30	4.68
692.43	60.85
692.57	105.32
692.70	0.00
692.84	77.24
692.97	0.00
693.11	39.79
693.24	60.85
693.38	51.49
693.51	79.58
693.65	70.22
693.78	4.68
693.92	46.81
694.05	91.28
694.19	11.70
694.32	0.00
694.45	28.09
694.59	30.43
694.72	11.70
694.86	56.17
694.99	28.09
695.13	60.85
695.26	21.06
695.39	77.24
695.53	39.79
695.66	88.94
695.80	72.56
695.93	72.56
696.07	46.81
696.20	2.34
696.33	53.83
696.47	0.00
696.60	30.43
696.73	21.06
696.87	0.00
697.00	91.28
697.14	86.60
697.27	79.58
697.40	102.98
697.54	9.36
697.67	145.11
697.80	74.90
697.94	35.11
698.07	138.09
698.21	56.17
698.34	35.11
698.47	86.60
698.61	39.79
698.74	39.79
698.87	7.02
699.01	0.00
699.14	39.79
699.27	67.88
699.40	46.81
699.54	7.02
699.67	25.75
699.80	0.00
699.94	49.15
700.07	0.00
700.20	51.49
700.34	23.41
700.47	14.04
700.60	74.90
700.73	28.09
700.87	100.64
701.00	14.04
701.13	25.75
701.26	0.00
701.40	2.34
701.53	44.47
701.66	58.51
701.79	35.11
701.93	60.85
702.06	74.90
702.19	9.36
702.32	49.15
702.46	58.51
702.59	0.00
702.72	46.81
702.85	100.64
702.99	67.88
703.12	65.54
703.25	7.02
703.38	35.11
703.51	35.11
703.65	30.43
703.78	0.00
703.91	39.79
704.04	0.00
704.17	74.90
704.31	0.00
704.44	4.68
704.57	32.77
704.70	28.09
704.83	11.70
704.96	42.13
705.10	93.62
705.23	46.81
>>>>>End Processed Spectral Data<<<<<
