SpectraSuite Data File
++++++++++++++++++++++++++++++++++++
Date: Fri Oct 04 12:13:45 GMT-05:00 2013
User: price-jones
Dark Spectrum Present: No
Reference Spectrum Present: No
Number of Sampled Component Spectra: 1
Spectrometers: USB2+H05261
Integration Time (usec): 10000 (USB2+H05261)
Spectra Averaged: 1 (USB2+H05261)
Boxcar Smoothing: 0 (USB2+H05261)
Correct for Electrical Dark: No (USB2+H05261)
Strobe/Lamp Enabled: No (USB2+H05261)
Correct for Detector Non-linearity: No (USB2+H05261)
Correct for Stray Light: No (USB2+H05261)
Number of Pixels in Processed Spectrum: 2048
>>>>>Begin Processed Spectral Data<<<<<
365.73	0.00
365.92	0.00
366.12	0.00
366.32	0.00
366.52	0.00
366.72	0.00
366.91	0.00
367.11	0.00
367.31	0.00
367.51	0.00
367.70	0.00
367.90	0.00
368.10	0.00
368.30	0.00
368.49	0.00
368.69	0.00
368.89	0.00
369.09	0.00
369.28	0.00
369.48	0.00
369.68	0.00
369.87	0.00
370.07	0.00
370.27	0.00
370.47	0.00
370.66	0.00
370.86	0.00
371.06	0.00
371.25	7.02
371.45	0.00
371.65	37.45
371.84	0.00
372.04	0.00
372.24	0.00
372.44	0.00
372.63	100.64
372.83	46.81
373.03	32.77
373.22	0.00
373.42	11.70
373.62	70.22
373.81	28.09
374.01	9.36
374.21	37.45
374.40	110.01
374.60	0.00
374.79	60.85
374.99	9.36
375.19	0.00
375.38	133.41
375.58	37.45
375.78	25.75
375.97	23.41
376.17	2.34
376.37	112.35
376.56	30.43
376.76	58.51
376.95	58.51
377.15	16.38
377.35	102.98
377.54	23.41
377.74	2.34
377.93	53.83
378.13	2.34
378.33	0.00
378.52	0.00
378.72	46.81
378.91	0.00
379.11	35.11
379.31	9.36
379.50	0.00
379.70	65.54
379.89	0.00
380.09	39.79
380.28	18.72
380.48	63.19
380.68	95.96
380.87	2.34
381.07	35.11
381.26	0.00
381.46	7.02
381.65	86.60
381.85	0.00
382.04	9.36
382.24	28.09
382.43	0.00
382.63	21.06
382.83	23.41
383.02	0.00
383.22	32.77
383.41	70.22
383.61	0.00
383.80	102.98
384.00	30.43
384.19	63.19
384.39	0.00
384.58	11.70
384.78	2.34
384.97	0.00
385.17	28.09
385.36	16.38
385.56	23.41
385.75	60.85
385.95	9.36
386.14	11.70
386.34	98.30
386.53	72.56
386.72	25.75
386.92	4.68
387.11	0.00
387.31	63.19
387.50	105.32
387.70	77.24
387.89	37.45
388.09	46.81
388.28	60.85
388.48	23.41
388.67	0.00
388.86	16.38
389.06	0.00
389.25	25.75
389.45	46.81
389.64	18.72
389.84	0.00
390.03	53.83
390.22	21.06
390.42	84.26
390.61	0.00
390.81	63.19
391.00	0.00
391.19	0.00
391.39	0.00
391.58	37.45
391.78	7.02
391.97	28.09
392.16	53.83
392.36	25.75
392.55	35.11
392.75	37.45
392.94	79.58
393.13	0.00
393.33	0.00
393.52	35.11
393.71	51.49
393.91	0.00
394.10	25.75
394.29	49.15
394.49	14.04
394.68	95.96
394.88	0.00
395.07	0.00
395.26	112.35
395.46	25.75
395.65	18.72
395.84	28.09
396.04	98.30
396.23	0.00
396.42	35.11
396.62	23.41
396.81	70.22
397.00	4.68
397.19	39.79
397.39	39.79
397.58	70.22
397.77	2.34
397.97	74.90
398.16	18.72
398.35	2.34
398.55	51.49
398.74	32.77
398.93	35.11
399.12	0.00
399.32	63.19
399.51	53.83
399.70	91.28
399.90	0.00
400.09	35.11
400.28	0.00
400.47	0.00
400.67	11.70
400.86	53.83
401.05	25.75
401.24	2.34
401.44	25.75
401.63	0.00
401.82	56.17
402.01	53.83
402.21	28.09
402.40	28.09
402.59	58.51
402.78	0.00
402.97	39.79
403.17	21.06
403.36	28.09
403.55	42.13
403.74	21.06
403.93	81.92
404.13	0.00
404.32	7.02
404.51	70.22
404.70	74.90
404.89	42.13
405.09	86.60
405.28	30.43
405.47	0.00
405.66	0.00
405.85	0.00
406.05	58.51
406.24	0.00
406.43	0.00
406.62	0.00
406.81	0.00
407.00	53.83
407.20	0.00
407.39	28.09
407.58	0.00
407.77	0.00
407.96	7.02
408.15	0.00
408.34	46.81
408.54	65.54
408.73	84.26
408.92	110.01
409.11	0.00
409.30	65.54
409.49	0.00
409.68	0.00
409.87	0.00
410.07	0.00
410.26	35.11
410.45	77.24
410.64	65.54
410.83	2.34
411.02	35.11
411.21	9.36
411.40	102.98
411.59	25.75
411.78	88.94
411.98	37.45
412.17	35.11
412.36	44.47
412.55	67.88
412.74	95.96
412.93	18.72
413.12	7.02
413.31	25.75
413.50	9.36
413.69	37.45
413.88	79.58
414.07	42.13
414.26	18.72
414.45	60.85
414.64	30.43
414.83	44.47
415.02	0.00
415.22	110.01
415.41	46.81
415.60	42.13
415.79	16.38
415.98	49.15
416.17	37.45
416.36	0.00
416.55	30.43
416.74	74.90
416.93	0.00
417.12	28.09
417.31	7.02
417.50	51.49
417.69	23.41
417.88	28.09
418.07	0.00
418.26	42.13
418.45	0.00
418.64	2.34
418.83	0.00
419.02	0.00
419.21	14.04
419.39	0.00
419.58	11.70
419.77	0.00
419.96	28.09
420.15	0.00
420.34	14.04
420.53	72.56
420.72	0.00
420.91	30.43
421.10	0.00
421.29	28.09
421.48	39.79
421.67	7.02
421.86	0.00
422.05	14.04
422.24	11.70
422.43	56.17
422.61	0.00
422.80	30.43
422.99	18.72
423.18	0.00
423.37	46.81
423.56	28.09
423.75	21.06
423.94	70.22
424.13	32.77
424.32	91.28
424.50	79.58
424.69	49.15
424.88	0.00
425.07	23.41
425.26	4.68
425.45	0.00
425.64	42.13
425.83	65.54
426.01	60.85
426.20	60.85
426.39	39.79
426.58	18.72
426.77	65.54
426.96	44.47
427.15	0.00
427.33	70.22
427.52	0.00
427.71	0.00
427.90	14.04
428.09	0.00
428.28	25.75
428.46	46.81
428.65	25.75
428.84	58.51
429.03	72.56
429.22	0.00
429.40	11.70
429.59	74.90
429.78	51.49
429.97	0.00
430.16	30.43
430.34	79.58
430.53	112.35
430.72	0.00
430.91	53.83
431.10	77.24
431.28	86.60
431.47	63.19
431.66	70.22
431.85	16.38
432.03	98.30
432.22	37.45
432.41	58.51
432.60	14.04
432.79	107.66
432.97	30.43
433.16	32.77
433.35	98.30
433.54	0.00
433.72	30.43
433.91	0.00
434.10	23.41
434.28	72.56
434.47	65.54
434.66	14.04
434.85	95.96
435.03	88.94
435.22	70.22
435.41	37.45
435.59	11.70
435.78	112.35
435.97	60.85
436.16	37.45
436.34	91.28
436.53	35.11
436.72	11.70
436.90	18.72
437.09	9.36
437.28	32.77
437.46	0.00
437.65	60.85
437.84	42.13
438.02	51.49
438.21	86.60
438.40	28.09
438.58	98.30
438.77	21.06
438.96	25.75
439.14	42.13
439.33	58.51
439.52	0.00
439.70	7.02
439.89	0.00
440.08	35.11
440.26	14.04
440.45	74.90
440.63	11.70
440.82	42.13
441.01	63.19
441.19	77.24
441.38	28.09
441.57	21.06
441.75	39.79
441.94	11.70
442.12	0.00
442.31	23.41
442.50	23.41
442.68	93.62
442.87	60.85
443.05	58.51
443.24	74.90
443.43	74.90
443.61	49.15
443.80	60.85
443.98	39.79
444.17	37.45
444.35	0.00
444.54	25.75
444.73	39.79
444.91	37.45
445.10	28.09
445.28	39.79
445.47	30.43
445.65	0.00
445.84	0.00
446.02	121.71
446.21	18.72
446.39	84.26
446.58	0.00
446.77	84.26
446.95	70.22
447.14	70.22
447.32	53.83
447.51	23.41
447.69	58.51
447.88	9.36
448.06	4.68
448.25	0.00
448.43	58.51
448.62	42.13
448.80	0.00
448.99	74.90
449.17	0.00
449.36	0.00
449.54	9.36
449.73	58.51
449.91	53.83
450.10	110.01
450.28	32.77
450.46	49.15
450.65	84.26
450.83	88.94
451.02	53.83
451.20	35.11
451.39	0.00
451.57	0.00
451.76	63.19
451.94	21.06
452.13	79.58
452.31	0.00
452.49	37.45
452.68	42.13
452.86	28.09
453.05	42.13
453.23	98.30
453.42	7.02
453.60	7.02
453.78	14.04
453.97	42.13
454.15	4.68
454.34	72.56
454.52	56.17
454.70	42.13
454.89	56.17
455.07	46.81
455.26	0.00
455.44	0.00
455.62	46.81
455.81	0.00
455.99	23.41
456.17	30.43
456.36	42.13
456.54	18.72
456.73	51.49
456.91	35.11
457.09	46.81
457.28	0.00
457.46	11.70
457.64	23.41
457.83	44.47
458.01	21.06
458.19	37.45
458.38	25.75
458.56	0.00
458.74	35.11
458.93	49.15
459.11	93.62
459.29	0.00
459.48	42.13
459.66	63.19
459.84	42.13
460.03	25.75
460.21	86.60
460.39	46.81
460.57	4.68
460.76	4.68
460.94	49.15
461.12	98.30
461.31	53.83
461.49	46.81
461.67	86.60
461.85	91.28
462.04	63.19
462.22	58.51
462.40	86.60
462.59	2.34
462.77	2.34
462.95	77.24
463.13	46.81
463.32	67.88
463.50	35.11
463.68	30.43
463.86	0.00
464.05	119.37
464.23	65.54
464.41	11.70
464.59	35.11
464.78	28.09
464.96	32.77
465.14	138.09
465.32	53.83
465.50	37.45
465.69	0.00
465.87	0.00
466.05	25.75
466.23	25.75
466.41	37.45
466.60	23.41
466.78	102.98
466.96	0.00
467.14	14.04
467.32	42.13
467.51	0.00
467.69	42.13
467.87	49.15
468.05	30.43
468.23	30.43
468.41	39.79
468.60	7.02
468.78	32.77
468.96	14.04
469.14	63.19
469.32	49.15
469.50	42.13
469.69	0.00
469.87	44.47
470.05	46.81
470.23	0.00
470.41	9.36
470.59	58.51
470.77	53.83
470.95	65.54
471.14	56.17
471.32	49.15
471.50	60.85
471.68	72.56
471.86	56.17
472.04	0.00
472.22	37.45
472.40	0.00
472.58	39.79
472.77	0.00
472.95	11.70
473.13	44.47
473.31	84.26
473.49	51.49
473.67	16.38
473.85	42.13
474.03	42.13
474.21	0.00
474.39	63.19
474.57	18.72
474.75	70.22
474.93	0.00
475.12	11.70
475.30	35.11
475.48	49.15
475.66	117.03
475.84	77.24
476.02	23.41
476.20	114.69
476.38	63.19
476.56	67.88
476.74	77.24
476.92	30.43
477.10	65.54
477.28	39.79
477.46	0.00
477.64	58.51
477.82	46.81
478.00	32.77
478.18	77.24
478.36	51.49
478.54	70.22
478.72	60.85
478.90	0.00
479.08	95.96
479.26	60.85
479.44	11.70
479.62	49.15
479.80	0.00
479.98	9.36
480.16	28.09
480.34	163.84
480.52	114.69
480.70	0.00
480.88	25.75
481.06	156.82
481.24	84.26
481.41	46.81
481.59	46.81
481.77	30.43
481.95	39.79
482.13	28.09
482.31	9.36
482.49	65.54
482.67	0.00
482.85	4.68
483.03	56.17
483.21	0.00
483.39	0.00
483.57	28.09
483.74	11.70
483.92	51.49
484.10	9.36
484.28	35.11
484.46	56.17
484.64	60.85
484.82	32.77
485.00	44.47
485.18	140.43
485.35	30.43
485.53	0.00
485.71	42.13
485.89	77.24
486.07	0.00
486.25	102.98
486.43	9.36
486.61	0.00
486.78	49.15
486.96	0.00
487.14	70.22
487.32	70.22
487.50	63.19
487.68	28.09
487.85	72.56
488.03	0.00
488.21	114.69
488.39	128.73
488.57	37.45
488.75	14.04
488.92	28.09
489.10	88.94
489.28	107.66
489.46	11.70
489.64	30.43
489.81	11.70
489.99	30.43
490.17	107.66
490.35	32.77
490.53	32.77
490.70	39.79
490.88	42.13
491.06	0.00
491.24	56.17
491.41	14.04
491.59	23.41
491.77	35.11
491.95	9.36
492.13	0.00
492.30	7.02
492.48	28.09
492.66	56.17
492.84	0.00
493.01	91.28
493.19	100.64
493.37	49.15
493.54	81.92
493.72	23.41
493.90	77.24
494.08	18.72
494.25	65.54
494.43	84.26
494.61	46.81
494.79	16.38
494.96	56.17
495.14	74.90
495.32	63.19
495.49	30.43
495.67	86.60
495.85	35.11
496.02	0.00
496.20	65.54
496.38	81.92
496.55	161.50
496.73	91.28
496.91	84.26
497.09	28.09
497.26	56.17
497.44	37.45
497.62	51.49
497.79	16.38
497.97	49.15
498.14	72.56
498.32	30.43
498.50	46.81
498.67	9.36
498.85	28.09
499.03	14.04
499.20	49.15
499.38	95.96
499.56	42.13
499.73	102.98
499.91	32.77
500.08	65.54
500.26	56.17
500.44	21.06
500.61	4.68
500.79	46.81
500.97	93.62
501.14	105.32
501.32	53.83
501.49	2.34
501.67	72.56
501.84	23.41
502.02	58.51
502.20	98.30
502.37	37.45
502.55	35.11
502.72	0.00
502.90	0.00
503.07	53.83
503.25	0.00
503.43	14.04
503.60	21.06
503.78	0.00
503.95	42.13
504.13	42.13
504.30	72.56
504.48	23.41
504.65	95.96
504.83	51.49
505.01	39.79
505.18	42.13
505.36	30.43
505.53	0.00
505.71	100.64
505.88	112.35
506.06	42.13
506.23	79.58
506.41	14.04
506.58	32.77
506.76	86.60
506.93	35.11
507.11	39.79
507.28	95.96
507.46	0.00
507.63	30.43
507.81	14.04
507.98	44.47
508.16	18.72
508.33	37.45
508.50	65.54
508.68	63.19
508.85	35.11
509.03	51.49
509.20	25.75
509.38	72.56
509.55	79.58
509.73	88.94
509.90	0.00
510.08	35.11
510.25	21.06
510.42	58.51
510.60	39.79
510.77	72.56
510.95	53.83
511.12	102.98
511.30	46.81
511.47	49.15
511.64	79.58
511.82	35.11
511.99	28.09
512.17	9.36
512.34	88.94
512.51	79.58
512.69	51.49
512.86	86.60
513.04	42.13
513.21	0.00
513.38	14.04
513.56	44.47
513.73	0.00
513.90	107.66
514.08	60.85
514.25	74.90
514.43	53.83
514.60	49.15
514.77	86.60
514.95	42.13
515.12	95.96
515.29	63.19
515.47	49.15
515.64	49.15
515.81	28.09
515.99	100.64
516.16	53.83
516.33	18.72
516.51	77.24
516.68	60.85
516.85	49.15
517.03	46.81
517.20	21.06
517.37	67.88
517.54	58.51
517.72	21.06
517.89	56.17
518.06	51.49
518.24	0.00
518.41	67.88
518.58	44.47
518.75	18.72
518.93	0.00
519.10	44.47
519.27	74.90
519.45	0.00
519.62	91.28
519.79	39.79
519.96	65.54
520.14	37.45
520.31	51.49
520.48	0.00
520.65	0.00
520.83	49.15
521.00	14.04
521.17	25.75
521.34	72.56
521.52	88.94
521.69	60.85
521.86	28.09
522.03	46.81
522.20	77.24
522.38	74.90
522.55	39.79
522.72	56.17
522.89	0.00
523.07	70.22
523.24	51.49
523.41	7.02
523.58	23.41
523.75	7.02
523.92	56.17
524.10	14.04
524.27	110.01
524.44	39.79
524.61	0.00
524.78	51.49
524.96	117.03
525.13	53.83
525.30	32.77
525.47	0.00
525.64	42.13
525.81	0.00
525.98	79.58
526.16	63.19
526.33	0.00
526.50	0.00
526.67	35.11
526.84	30.43
527.01	72.56
527.18	46.81
527.36	93.62
527.53	56.17
527.70	37.45
527.87	0.00
528.04	67.88
528.21	0.00
528.38	84.26
528.55	114.69
528.72	63.19
528.89	60.85
529.07	81.92
529.24	46.81
529.41	110.01
529.58	107.66
529.75	49.15
529.92	88.94
530.09	63.19
530.26	16.38
530.43	39.79
530.60	25.75
530.77	0.00
530.94	30.43
531.11	51.49
531.28	53.83
531.46	91.28
531.63	72.56
531.80	86.60
531.97	60.85
532.14	60.85
532.31	142.77
532.48	95.96
532.65	11.70
532.82	0.00
532.99	23.41
533.16	0.00
533.33	44.47
533.50	37.45
533.67	18.72
533.84	138.09
534.01	39.79
534.18	39.79
534.35	9.36
534.52	0.00
534.69	46.81
534.86	98.30
535.03	51.49
535.20	0.00
535.37	77.24
535.54	53.83
535.71	95.96
535.88	93.62
536.05	0.00
536.22	35.11
536.38	0.00
536.55	37.45
536.72	63.19
536.89	25.75
537.06	51.49
537.23	88.94
537.40	23.41
537.57	18.72
537.74	18.72
537.91	30.43
538.08	70.22
538.25	126.39
538.42	74.90
538.59	51.49
538.75	67.88
538.92	16.38
539.09	42.13
539.26	30.43
539.43	14.04
539.60	4.68
539.77	7.02
539.94	51.49
540.11	16.38
540.28	14.04
540.44	53.83
540.61	0.00
540.78	35.11
540.95	28.09
541.12	44.47
541.29	72.56
541.46	14.04
541.62	0.00
541.79	37.45
541.96	100.64
542.13	86.60
542.30	4.68
542.47	16.38
542.63	49.15
542.80	39.79
542.97	63.19
543.14	0.00
543.31	30.43
543.48	0.00
543.64	9.36
543.81	93.62
543.98	42.13
544.15	14.04
544.32	107.66
544.48	30.43
544.65	28.09
544.82	56.17
544.99	0.00
545.16	95.96
545.32	117.03
545.49	72.56
545.66	0.00
545.83	4.68
546.00	58.51
546.16	95.96
546.33	14.04
546.50	63.19
546.67	32.77
546.83	60.85
547.00	124.05
547.17	14.04
547.34	4.68
547.50	65.54
547.67	91.28
547.84	65.54
548.00	72.56
548.17	28.09
548.34	67.88
548.51	135.75
548.67	23.41
548.84	53.83
549.01	42.13
549.18	0.00
549.34	42.13
549.51	44.47
549.68	28.09
549.84	72.56
550.01	0.00
550.18	37.45
550.34	72.56
550.51	74.90
550.68	0.00
550.84	46.81
551.01	39.79
551.18	91.28
551.34	37.45
551.51	58.51
551.68	42.13
551.84	49.15
552.01	93.62
552.18	28.09
552.34	70.22
552.51	77.24
552.68	49.15
552.84	0.00
553.01	70.22
553.18	0.00
553.34	86.60
553.51	2.34
553.67	37.45
553.84	67.88
554.01	70.22
554.17	56.17
554.34	49.15
554.51	25.75
554.67	30.43
554.84	32.77
555.00	39.79
555.17	28.09
555.33	145.11
555.50	46.81
555.67	72.56
555.83	0.00
556.00	72.56
556.16	2.34
556.33	56.17
556.50	32.77
556.66	60.85
556.83	49.15
556.99	2.34
557.16	131.07
557.32	0.00
557.49	74.90
557.65	37.45
557.82	77.24
557.98	11.70
558.15	86.60
558.32	72.56
558.48	63.19
558.65	53.83
558.81	42.13
558.98	46.81
559.14	72.56
559.31	86.60
559.47	88.94
559.64	86.60
559.80	37.45
559.97	60.85
560.13	56.17
560.30	0.00
560.46	14.04
560.63	25.75
560.79	35.11
560.96	110.01
561.12	53.83
561.29	65.54
561.45	65.54
561.61	58.51
561.78	46.81
561.94	0.00
562.11	0.00
562.27	35.11
562.44	0.00
562.60	30.43
562.77	16.38
562.93	42.13
563.10	126.39
563.26	70.22
563.42	0.00
563.59	25.75
563.75	74.90
563.92	37.45
564.08	44.47
564.24	107.66
564.41	9.36
564.57	0.00
564.74	16.38
564.90	53.83
565.07	4.68
565.23	110.01
565.39	37.45
565.56	72.56
565.72	32.77
565.88	67.88
566.05	2.34
566.21	46.81
566.38	51.49
566.54	39.79
566.70	58.51
566.87	39.79
567.03	114.69
567.19	21.06
567.36	65.54
567.52	63.19
567.68	119.37
567.85	93.62
568.01	4.68
568.17	51.49
568.34	86.60
568.50	95.96
568.66	56.17
568.83	65.54
568.99	91.28
569.15	42.13
569.32	42.13
569.48	74.90
569.64	0.00
569.81	42.13
569.97	16.38
570.13	72.56
570.30	81.92
570.46	11.70
570.62	74.90
570.78	23.41
570.95	49.15
571.11	46.81
571.27	16.38
571.43	14.04
571.60	95.96
571.76	67.88
571.92	53.83
572.09	86.60
572.25	65.54
572.41	58.51
572.57	72.56
572.74	95.96
572.90	58.51
573.06	11.70
573.22	23.41
573.38	11.70
573.55	88.94
573.71	72.56
573.87	121.71
574.03	28.09
574.20	25.75
574.36	70.22
574.52	0.00
574.68	4.68
574.84	70.22
575.01	0.00
575.17	53.83
575.33	65.54
575.49	4.68
575.65	105.32
575.82	23.41
575.98	91.28
576.14	79.58
576.30	88.94
576.46	2.34
576.62	35.11
576.79	44.47
576.95	35.11
577.11	30.43
577.27	65.54
577.43	79.58
577.59	119.37
577.75	9.36
577.92	7.02
578.08	39.79
578.24	0.00
578.40	70.22
578.56	98.30
578.72	42.13
578.88	42.13
579.04	44.47
579.21	117.03
579.37	51.49
579.53	42.13
579.69	0.00
579.85	39.79
580.01	28.09
580.17	39.79
580.33	49.15
580.49	0.00
580.65	119.37
580.82	0.00
580.98	11.70
581.14	9.36
581.30	51.49
581.46	25.75
581.62	35.11
581.78	74.90
581.94	0.00
582.10	81.92
582.26	53.83
582.42	18.72
582.58	37.45
582.74	37.45
582.90	74.90
583.06	16.38
583.22	84.26
583.38	21.06
583.54	56.17
583.70	53.83
583.86	18.72
584.02	88.94
584.18	25.75
584.34	65.54
584.50	28.09
584.66	0.00
584.82	70.22
584.98	11.70
585.14	23.41
585.30	37.45
585.46	16.38
585.62	114.69
585.78	0.00
585.94	81.92
586.10	51.49
586.26	53.83
586.42	35.11
586.58	16.38
586.74	74.90
586.90	91.28
587.06	39.79
587.22	42.13
587.38	53.83
587.54	46.81
587.70	39.79
587.86	72.56
588.02	51.49
588.18	37.45
588.34	63.19
588.49	30.43
588.65	30.43
588.81	65.54
588.97	93.62
589.13	81.92
589.29	35.11
589.45	35.11
589.61	16.38
589.77	91.28
589.93	53.83
590.08	70.22
590.24	42.13
590.40	60.85
590.56	72.56
590.72	16.38
590.88	35.11
591.04	63.19
591.20	0.00
591.35	16.38
591.51	32.77
591.67	35.11
591.83	56.17
591.99	88.94
592.15	25.75
592.31	84.26
592.46	74.90
592.62	51.49
592.78	39.79
592.94	0.00
593.10	58.51
593.26	0.00
593.41	49.15
593.57	32.77
593.73	53.83
593.89	77.24
594.05	44.47
594.20	95.96
594.36	63.19
594.52	23.41
594.68	18.72
594.84	51.49
594.99	0.00
595.15	91.28
595.31	98.30
595.47	77.24
595.62	16.38
595.78	0.00
595.94	49.15
596.10	35.11
596.25	88.94
596.41	51.49
596.57	7.02
596.73	124.05
596.88	0.00
597.04	35.11
597.20	16.38
597.36	25.75
597.51	0.00
597.67	30.43
597.83	0.00
597.99	0.00
598.14	37.45
598.30	46.81
598.46	65.54
598.61	37.45
598.77	81.92
598.93	44.47
599.09	53.83
599.24	49.15
599.40	46.81
599.56	23.41
599.71	105.32
599.87	14.04
600.03	105.32
600.18	42.13
600.34	72.56
600.50	44.47
600.65	32.77
600.81	110.01
600.97	110.01
601.12	72.56
601.28	173.20
601.44	107.66
601.59	42.13
601.75	4.68
601.91	25.75
602.06	44.47
602.22	79.58
602.37	16.38
602.53	42.13
602.69	30.43
602.84	16.38
603.00	107.66
603.16	35.11
603.31	18.72
603.47	93.62
603.62	18.72
603.78	86.60
603.94	56.17
604.09	0.00
604.25	39.79
604.40	44.47
604.56	114.69
604.71	39.79
604.87	81.92
605.03	23.41
605.18	0.00
605.34	32.77
605.49	65.54
605.65	4.68
605.80	56.17
605.96	0.00
606.12	49.15
606.27	0.00
606.43	0.00
606.58	0.00
606.74	32.77
606.89	77.24
607.05	49.15
607.20	28.09
607.36	32.77
607.51	35.11
607.67	72.56
607.82	23.41
607.98	88.94
608.13	58.51
608.29	74.90
608.44	44.47
608.60	18.72
608.75	30.43
608.91	53.83
609.06	95.96
609.22	70.22
609.37	23.41
609.53	42.13
609.68	9.36
609.84	32.77
609.99	25.75
610.15	74.90
610.30	51.49
610.46	9.36
610.61	30.43
610.76	9.36
610.92	0.00
611.07	0.00
611.23	110.01
611.38	88.94
611.54	77.24
611.69	23.41
611.84	77.24
612.00	11.70
612.15	11.70
612.31	63.19
612.46	42.13
612.62	0.00
612.77	46.81
612.92	32.77
613.08	37.45
613.23	23.41
613.39	4.68
613.54	51.49
613.69	53.83
613.85	51.49
614.00	0.00
614.15	72.56
614.31	70.22
614.46	0.00
614.62	72.56
614.77	21.06
614.92	18.72
615.08	65.54
615.23	11.70
615.38	0.00
615.54	53.83
615.69	28.09
615.84	0.00
616.00	77.24
616.15	28.09
616.30	81.92
616.46	28.09
616.61	32.77
616.76	25.75
616.92	9.36
617.07	0.00
617.22	18.72
617.37	74.90
617.53	49.15
617.68	35.11
617.83	28.09
617.99	18.72
618.14	46.81
618.29	0.00
618.45	77.24
618.60	105.32
618.75	51.49
618.90	11.70
619.06	81.92
619.21	0.00
619.36	32.77
619.51	16.38
619.67	42.13
619.82	77.24
619.97	53.83
620.12	0.00
620.28	32.77
620.43	2.34
620.58	21.06
620.73	0.00
620.89	121.71
621.04	53.83
621.19	37.45
621.34	18.72
621.49	42.13
621.65	86.60
621.80	25.75
621.95	91.28
622.10	72.56
622.25	77.24
622.41	23.41
622.56	84.26
622.71	67.88
622.86	88.94
623.01	37.45
623.16	46.81
623.32	32.77
623.47	7.02
623.62	4.68
623.77	28.09
623.92	91.28
624.07	53.83
624.23	84.26
624.38	49.15
624.53	67.88
624.68	0.00
624.83	11.70
624.98	0.00
625.13	32.77
625.29	67.88
625.44	51.49
625.59	35.11
625.74	49.15
625.89	56.17
626.04	0.00
626.19	37.45
626.34	0.00
626.49	86.60
626.65	49.15
626.80	0.00
626.95	46.81
627.10	95.96
627.25	32.77
627.40	0.00
627.55	21.06
627.70	65.54
627.85	65.54
628.00	18.72
628.15	32.77
628.30	91.28
628.45	0.00
628.60	25.75
628.76	72.56
628.91	9.36
629.06	84.26
629.21	56.17
629.36	95.96
629.51	2.34
629.66	65.54
629.81	46.81
629.96	35.11
630.11	58.51
630.26	63.19
630.41	42.13
630.56	53.83
630.71	53.83
630.86	37.45
631.01	0.00
631.16	0.00
631.31	16.38
631.46	84.26
631.61	91.28
631.76	46.81
631.91	60.85
632.06	95.96
632.21	32.77
632.36	105.32
632.51	28.09
632.66	0.00
632.81	9.36
632.96	23.41
633.10	93.62
633.25	23.41
633.40	74.90
633.55	0.00
633.70	53.83
633.85	74.90
634.00	51.49
634.15	46.81
634.30	53.83
634.45	93.62
634.60	23.41
634.75	0.00
634.90	21.06
635.05	0.00
635.19	9.36
635.34	32.77
635.49	95.96
635.64	91.28
635.79	9.36
635.94	11.70
636.09	9.36
636.24	28.09
636.39	28.09
636.53	4.68
636.68	70.22
636.83	32.77
636.98	30.43
637.13	67.88
637.28	63.19
637.43	25.75
637.57	112.35
637.72	67.88
637.87	86.60
638.02	46.81
638.17	9.36
638.32	102.98
638.46	16.38
638.61	39.79
638.76	28.09
638.91	0.00
639.06	0.00
639.20	124.05
639.35	14.04
639.50	0.00
639.65	16.38
639.80	18.72
639.94	70.22
640.09	58.51
640.24	72.56
640.39	39.79
640.54	88.94
640.68	30.43
640.83	70.22
640.98	110.01
641.13	7.02
641.27	18.72
641.42	58.51
641.57	30.43
641.72	42.13
641.86	46.81
642.01	25.75
642.16	0.00
642.31	88.94
642.45	0.00
642.60	0.00
642.75	42.13
642.90	0.00
643.04	117.03
643.19	7.02
643.34	51.49
643.48	42.13
643.63	39.79
643.78	81.92
643.93	149.79
644.07	51.49
644.22	79.58
644.37	65.54
644.51	42.13
644.66	0.00
644.81	0.00
644.95	2.34
645.10	0.00
645.25	28.09
645.39	44.47
645.54	18.72
645.69	72.56
645.83	0.00
645.98	0.00
646.13	0.00
646.27	39.79
646.42	2.34
646.57	74.90
646.71	46.81
646.86	4.68
647.00	0.00
647.15	67.88
647.30	51.49
647.44	65.54
647.59	21.06
647.74	7.02
647.88	0.00
648.03	37.45
648.17	7.02
648.32	72.56
648.47	126.39
648.61	0.00
648.76	98.30
648.90	51.49
649.05	0.00
649.20	25.75
649.34	0.00
649.49	65.54
649.63	114.69
649.78	63.19
649.92	25.75
650.07	53.83
650.21	0.00
650.36	25.75
650.51	0.00
650.65	44.47
650.80	23.41
650.94	30.43
651.09	14.04
651.23	70.22
651.38	88.94
651.52	35.11
651.67	56.17
651.81	0.00
651.96	7.02
652.10	56.17
652.25	0.00
652.39	2.34
652.54	0.00
652.68	7.02
652.83	2.34
652.97	0.00
653.12	35.11
653.26	84.26
653.41	77.24
653.55	39.79
653.70	102.98
653.84	0.00
653.99	0.00
654.13	44.47
654.27	11.70
654.42	49.15
654.56	2.34
654.71	67.88
654.85	42.13
655.00	93.62
655.14	72.56
655.29	51.49
655.43	51.49
655.57	44.47
655.72	63.19
655.86	14.04
656.01	56.17
656.15	7.02
656.30	107.66
656.44	46.81
656.58	72.56
656.73	60.85
656.87	44.47
657.01	30.43
657.16	74.90
657.30	30.43
657.45	0.00
657.59	0.00
657.73	0.00
657.88	0.00
658.02	91.28
658.16	28.09
658.31	77.24
658.45	21.06
658.60	119.37
658.74	9.36
658.88	100.64
659.03	35.11
659.17	86.60
659.31	49.15
659.46	0.00
659.60	25.75
659.74	23.41
659.89	11.70
660.03	11.70
660.17	93.62
660.32	35.11
660.46	53.83
660.60	37.45
660.74	49.15
660.89	46.81
661.03	100.64
661.17	58.51
661.32	124.05
661.46	14.04
661.60	56.17
661.74	77.24
661.89	105.32
662.03	11.70
662.17	44.47
662.31	14.04
662.46	65.54
662.60	11.70
662.74	112.35
662.88	102.98
663.03	51.49
663.17	4.68
663.31	70.22
663.45	88.94
663.60	0.00
663.74	9.36
663.88	77.24
664.02	84.26
664.17	53.83
664.31	53.83
664.45	53.83
664.59	9.36
664.73	35.11
664.88	23.41
665.02	32.77
665.16	102.98
665.30	42.13
665.44	42.13
665.59	60.85
665.73	16.38
665.87	4.68
666.01	56.17
666.15	16.38
666.29	0.00
666.44	37.45
666.58	93.62
666.72	11.70
666.86	77.24
667.00	0.00
667.14	72.56
667.28	0.00
667.43	37.45
667.57	9.36
667.71	65.54
667.85	51.49
667.99	56.17
668.13	0.00
668.27	51.49
668.41	53.83
668.56	72.56
668.70	0.00
668.84	58.51
668.98	79.58
669.12	53.83
669.26	9.36
669.40	39.79
669.54	88.94
669.68	0.00
669.82	28.09
669.96	49.15
670.10	39.79
670.25	77.24
670.39	42.13
670.53	42.13
670.67	0.00
670.81	18.72
670.95	25.75
671.09	0.00
671.23	49.15
671.37	49.15
671.51	2.34
671.65	18.72
671.79	37.45
671.93	16.38
672.07	60.85
672.21	77.24
672.35	4.68
672.49	9.36
672.63	42.13
672.77	2.34
672.91	63.19
673.05	4.68
673.19	30.43
673.33	65.54
673.47	11.70
673.61	42.13
673.75	0.00
673.89	0.00
674.03	44.47
674.17	58.51
674.31	0.00
674.45	25.75
674.59	44.47
674.73	18.72
674.87	0.00
675.01	0.00
675.15	112.35
675.29	53.83
675.43	107.66
675.56	152.13
675.70	70.22
675.84	28.09
675.98	72.56
676.12	39.79
676.26	65.54
676.40	2.34
676.54	16.38
676.68	35.11
676.82	0.00
676.96	21.06
677.10	51.49
677.23	46.81
677.37	9.36
677.51	0.00
677.65	0.00
677.79	7.02
677.93	56.17
678.07	70.22
678.21	56.17
678.34	42.13
678.48	65.54
678.62	53.83
678.76	14.04
678.90	9.36
679.04	28.09
679.18	35.11
679.31	0.00
679.45	79.58
679.59	65.54
679.73	74.90
679.87	95.96
680.00	42.13
680.14	67.88
680.28	81.92
680.42	0.00
680.56	72.56
680.70	51.49
680.83	0.00
680.97	70.22
681.11	117.03
681.25	0.00
681.39	58.51
681.52	9.36
681.66	60.85
681.80	44.47
681.94	2.34
682.07	0.00
682.21	121.71
682.35	63.19
682.49	74.90
682.62	0.00
682.76	0.00
682.90	56.17
683.04	46.81
683.17	28.09
683.31	0.00
683.45	23.41
683.59	70.22
683.72	23.41
683.86	35.11
684.00	44.47
684.13	23.41
684.27	107.66
684.41	37.45
684.55	7.02
684.68	0.00
684.82	67.88
684.96	0.00
685.09	77.24
685.23	18.72
685.37	72.56
685.50	60.85
685.64	11.70
685.78	79.58
685.91	95.96
686.05	0.00
686.19	39.79
686.32	23.41
686.46	23.41
686.60	35.11
686.73	79.58
686.87	84.26
687.01	46.81
687.14	2.34
687.28	23.41
687.42	0.00
687.55	56.17
687.69	84.26
687.82	32.77
687.96	23.41
688.10	42.13
688.23	93.62
688.37	16.38
688.50	51.49
688.64	28.09
688.78	21.06
688.91	39.79
689.05	0.00
689.18	0.00
689.32	39.79
689.46	110.01
689.59	56.17
689.73	30.43
689.86	70.22
690.00	0.00
690.13	28.09
690.27	25.75
690.41	28.09
690.54	18.72
690.68	11.70
690.81	21.06
690.95	0.00
691.08	77.24
691.22	44.47
691.35	16.38
691.49	42.13
691.62	98.30
691.76	88.94
691.89	81.92
692.03	0.00
692.16	30.43
692.30	46.81
692.43	23.41
692.57	28.09
692.70	112.35
692.84	51.49
692.97	25.75
693.11	23.41
693.24	37.45
693.38	49.15
693.51	67.88
693.65	18.72
693.78	32.77
693.92	53.83
694.05	70.22
694.19	0.00
694.32	53.83
694.45	39.79
694.59	32.77
694.72	93.62
694.86	58.51
694.99	11.70
695.13	42.13
695.26	105.32
695.39	30.43
695.53	42.13
695.66	4.68
695.80	7.02
695.93	67.88
696.07	11.70
696.20	93.62
696.33	0.00
696.47	0.00
696.60	51.49
696.73	25.75
696.87	0.00
697.00	18.72
697.14	93.62
697.27	30.43
697.40	0.00
697.54	37.45
697.67	65.54
697.80	30.43
697.94	0.00
698.07	44.47
698.21	0.00
698.34	0.00
698.47	91.28
698.61	0.00
698.74	65.54
698.87	7.02
699.01	0.00
699.14	58.51
699.27	16.38
699.40	56.17
699.54	18.72
699.67	119.37
699.80	2.34
699.94	0.00
700.07	67.88
700.20	39.79
700.34	63.19
700.47	2.34
700.60	0.00
700.73	7.02
700.87	39.79
701.00	30.43
701.13	0.00
701.26	16.38
701.40	46.81
701.53	23.41
701.66	0.00
701.79	72.56
701.93	0.00
702.06	0.00
702.19	0.00
702.32	23.41
702.46	28.09
702.59	25.75
702.72	30.43
702.85	140.43
702.99	0.00
703.12	9.36
703.25	39.79
703.38	23.41
703.51	60.85
703.65	56.17
703.78	16.38
703.91	95.96
704.04	72.56
704.17	60.85
704.31	72.56
704.44	53.83
704.57	70.22
704.70	67.88
704.83	65.54
704.96	39.79
705.10	0.00
705.23	65.54
>>>>>End Processed Spectral Data<<<<<
