SpectraSuite Data File
++++++++++++++++++++++++++++++++++++
Date: Fri Oct 04 12:13:45 GMT-05:00 2013
User: price-jones
Dark Spectrum Present: No
Reference Spectrum Present: No
Number of Sampled Component Spectra: 1
Spectrometers: USB2+H05261
Integration Time (usec): 10000 (USB2+H05261)
Spectra Averaged: 1 (USB2+H05261)
Boxcar Smoothing: 0 (USB2+H05261)
Correct for Electrical Dark: No (USB2+H05261)
Strobe/Lamp Enabled: No (USB2+H05261)
Correct for Detector Non-linearity: No (USB2+H05261)
Correct for Stray Light: No (USB2+H05261)
Number of Pixels in Processed Spectrum: 2048
>>>>>Begin Processed Spectral Data<<<<<
365.73	0.00
365.92	0.00
366.12	0.00
366.32	0.00
366.52	0.00
366.72	0.00
366.91	0.00
367.11	0.00
367.31	0.00
367.51	0.00
367.70	0.00
367.90	0.00
368.10	0.00
368.30	0.00
368.49	0.00
368.69	0.00
368.89	0.00
369.09	0.00
369.28	0.00
369.48	0.00
369.68	0.00
369.87	0.00
370.07	0.00
370.27	0.00
370.47	0.00
370.66	0.00
370.86	0.00
371.06	0.00
371.25	0.00
371.45	37.45
371.65	0.00
371.84	0.00
372.04	0.00
372.24	0.00
372.44	2.34
372.63	0.00
372.83	56.17
373.03	0.00
373.22	25.75
373.42	0.00
373.62	117.03
373.81	0.00
374.01	56.17
374.21	0.00
374.40	98.30
374.60	65.54
374.79	84.26
374.99	30.43
375.19	0.00
375.38	18.72
375.58	51.49
375.78	65.54
375.97	51.49
376.17	72.56
376.37	44.47
376.56	67.88
376.76	0.00
376.95	53.83
377.15	0.00
377.35	53.83
377.54	39.79
377.74	37.45
377.93	42.13
378.13	30.43
378.33	11.70
378.52	72.56
378.72	0.00
378.91	0.00
379.11	9.36
379.31	4.68
379.50	51.49
379.70	4.68
379.89	42.13
380.09	58.51
380.28	0.00
380.48	25.75
380.68	0.00
380.87	0.00
381.07	53.83
381.26	93.62
381.46	9.36
381.65	25.75
381.85	0.00
382.04	0.00
382.24	58.51
382.43	0.00
382.63	0.00
382.83	79.58
383.02	0.00
383.22	0.00
383.41	16.38
383.61	39.79
383.80	67.88
384.00	0.00
384.19	0.00
384.39	18.72
384.58	37.45
384.78	4.68
384.97	9.36
385.17	49.15
385.36	51.49
385.56	0.00
385.75	0.00
385.95	0.00
386.14	11.70
386.34	11.70
386.53	65.54
386.72	2.34
386.92	51.49
387.11	42.13
387.31	35.11
387.50	77.24
387.70	0.00
387.89	0.00
388.09	30.43
388.28	56.17
388.48	7.02
388.67	81.92
388.86	30.43
389.06	0.00
389.25	28.09
389.45	60.85
389.64	72.56
389.84	28.09
390.03	21.06
390.22	39.79
390.42	44.47
390.61	86.60
390.81	30.43
391.00	25.75
391.19	0.00
391.39	0.00
391.58	7.02
391.78	102.98
391.97	30.43
392.16	4.68
392.36	18.72
392.55	46.81
392.75	49.15
392.94	14.04
393.13	60.85
393.33	9.36
393.52	30.43
393.71	53.83
393.91	0.00
394.10	35.11
394.29	0.00
394.49	49.15
394.68	0.00
394.88	0.00
395.07	42.13
395.26	110.01
395.46	35.11
395.65	0.00
395.84	32.77
396.04	39.79
396.23	56.17
396.42	25.75
396.62	28.09
396.81	42.13
397.00	86.60
397.19	0.00
397.39	39.79
397.58	7.02
397.77	49.15
397.97	86.60
398.16	0.00
398.35	18.72
398.55	30.43
398.74	0.00
398.93	0.00
399.12	7.02
399.32	65.54
399.51	0.00
399.70	0.00
399.90	0.00
400.09	51.49
400.28	65.54
400.47	35.11
400.67	30.43
400.86	0.00
401.05	70.22
401.24	63.19
401.44	9.36
401.63	112.35
401.82	84.26
402.01	18.72
402.21	93.62
402.40	9.36
402.59	53.83
402.78	0.00
402.97	28.09
403.17	11.70
403.36	28.09
403.55	70.22
403.74	16.38
403.93	0.00
404.13	28.09
404.32	4.68
404.51	74.90
404.70	11.70
404.89	2.34
405.09	14.04
405.28	51.49
405.47	28.09
405.66	46.81
405.85	74.90
406.05	51.49
406.24	0.00
406.43	70.22
406.62	0.00
406.81	46.81
407.00	0.00
407.20	9.36
407.39	0.00
407.58	74.90
407.77	58.51
407.96	11.70
408.15	49.15
408.34	44.47
408.54	23.41
408.73	9.36
408.92	0.00
409.11	65.54
409.30	4.68
409.49	63.19
409.68	9.36
409.87	18.72
410.07	14.04
410.26	74.90
410.45	32.77
410.64	4.68
410.83	86.60
411.02	21.06
411.21	14.04
411.40	9.36
411.59	0.00
411.78	37.45
411.98	9.36
412.17	56.17
412.36	0.00
412.55	7.02
412.74	0.00
412.93	0.00
413.12	7.02
413.31	0.00
413.50	28.09
413.69	70.22
413.88	39.79
414.07	37.45
414.26	0.00
414.45	65.54
414.64	67.88
414.83	84.26
415.02	18.72
415.22	0.00
415.41	30.43
415.60	25.75
415.79	11.70
415.98	65.54
416.17	93.62
416.36	28.09
416.55	44.47
416.74	42.13
416.93	58.51
417.12	65.54
417.31	88.94
417.50	0.00
417.69	72.56
417.88	37.45
418.07	72.56
418.26	0.00
418.45	67.88
418.64	58.51
418.83	0.00
419.02	23.41
419.21	32.77
419.39	0.00
419.58	56.17
419.77	23.41
419.96	21.06
420.15	58.51
420.34	30.43
420.53	0.00
420.72	7.02
420.91	32.77
421.10	0.00
421.29	0.00
421.48	28.09
421.67	154.48
421.86	21.06
422.05	16.38
422.24	23.41
422.43	0.00
422.61	0.00
422.80	51.49
422.99	93.62
423.18	42.13
423.37	16.38
423.56	0.00
423.75	18.72
423.94	14.04
424.13	37.45
424.32	60.85
424.50	21.06
424.69	63.19
424.88	39.79
425.07	0.00
425.26	126.39
425.45	9.36
425.64	18.72
425.83	53.83
426.01	7.02
426.20	14.04
426.39	91.28
426.58	72.56
426.77	25.75
426.96	30.43
427.15	0.00
427.33	0.00
427.52	0.00
427.71	63.19
427.90	11.70
428.09	0.00
428.28	72.56
428.46	7.02
428.65	21.06
428.84	14.04
429.03	25.75
429.22	0.00
429.40	53.83
429.59	25.75
429.78	65.54
429.97	42.13
430.16	53.83
430.34	0.00
430.53	21.06
430.72	39.79
430.91	0.00
431.10	16.38
431.28	14.04
431.47	42.13
431.66	119.37
431.85	58.51
432.03	25.75
432.22	39.79
432.41	4.68
432.60	0.00
432.79	0.00
432.97	49.15
433.16	65.54
433.35	23.41
433.54	14.04
433.72	44.47
433.91	11.70
434.10	42.13
434.28	44.47
434.47	98.30
434.66	0.00
434.85	51.49
435.03	4.68
435.22	0.00
435.41	0.00
435.59	88.94
435.78	77.24
435.97	39.79
436.16	0.00
436.34	98.30
436.53	102.98
436.72	79.58
436.90	53.83
437.09	88.94
437.28	21.06
437.46	65.54
437.65	58.51
437.84	46.81
438.02	35.11
438.21	86.60
438.40	39.79
438.58	37.45
438.77	39.79
438.96	4.68
439.14	23.41
439.33	4.68
439.52	51.49
439.70	4.68
439.89	51.49
440.08	0.00
440.26	30.43
440.45	9.36
440.63	81.92
440.82	9.36
441.01	46.81
441.19	9.36
441.38	51.49
441.57	44.47
441.75	23.41
441.94	0.00
442.12	79.58
442.31	23.41
442.50	84.26
442.68	9.36
442.87	0.00
443.05	32.77
443.24	11.70
443.43	7.02
443.61	23.41
443.80	39.79
443.98	56.17
444.17	77.24
444.35	42.13
444.54	37.45
444.73	84.26
444.91	21.06
445.10	0.00
445.28	9.36
445.47	42.13
445.65	0.00
445.84	32.77
446.02	23.41
446.21	21.06
446.39	0.00
446.58	42.13
446.77	37.45
446.95	46.81
447.14	46.81
447.32	0.00
447.51	93.62
447.69	35.11
447.88	0.00
448.06	86.60
448.25	18.72
448.43	18.72
448.62	98.30
448.80	0.00
448.99	32.77
449.17	18.72
449.36	37.45
449.54	28.09
449.73	14.04
449.91	119.37
450.10	37.45
450.28	0.00
450.46	0.00
450.65	44.47
450.83	0.00
451.02	88.94
451.20	30.43
451.39	56.17
451.57	25.75
451.76	21.06
451.94	70.22
452.13	63.19
452.31	107.66
452.49	39.79
452.68	0.00
452.86	74.90
453.05	67.88
453.23	77.24
453.42	110.01
453.60	112.35
453.78	70.22
453.97	21.06
454.15	14.04
454.34	0.00
454.52	98.30
454.70	11.70
454.89	35.11
455.07	0.00
455.26	0.00
455.44	0.00
455.62	58.51
455.81	74.90
455.99	58.51
456.17	65.54
456.36	21.06
456.54	18.72
456.73	23.41
456.91	65.54
457.09	2.34
457.28	112.35
457.46	32.77
457.64	161.50
457.83	44.47
458.01	74.90
458.19	91.28
458.38	63.19
458.56	46.81
458.74	0.00
458.93	63.19
459.11	53.83
459.29	4.68
459.48	0.00
459.66	119.37
459.84	53.83
460.03	60.85
460.21	93.62
460.39	91.28
460.57	53.83
460.76	86.60
460.94	51.49
461.12	156.82
461.31	77.24
461.49	14.04
461.67	63.19
461.85	42.13
462.04	126.39
462.22	65.54
462.40	35.11
462.59	60.85
462.77	28.09
462.95	95.96
463.13	65.54
463.32	74.90
463.50	32.77
463.68	35.11
463.86	0.00
464.05	46.81
464.23	11.70
464.41	63.19
464.59	0.00
464.78	18.72
464.96	25.75
465.14	0.00
465.32	72.56
465.50	21.06
465.69	46.81
465.87	9.36
466.05	32.77
466.23	25.75
466.41	107.66
466.60	58.51
466.78	11.70
466.96	63.19
467.14	95.96
467.32	51.49
467.51	0.00
467.69	0.00
467.87	25.75
468.05	44.47
468.23	63.19
468.41	21.06
468.60	37.45
468.78	51.49
468.96	0.00
469.14	0.00
469.32	37.45
469.50	98.30
469.69	0.00
469.87	39.79
470.05	0.00
470.23	4.68
470.41	0.00
470.59	135.75
470.77	128.73
470.95	91.28
471.14	37.45
471.32	0.00
471.50	0.00
471.68	2.34
471.86	84.26
472.04	56.17
472.22	49.15
472.40	93.62
472.58	72.56
472.77	35.11
472.95	65.54
473.13	81.92
473.31	46.81
473.49	30.43
473.67	42.13
473.85	37.45
474.03	32.77
474.21	25.75
474.39	63.19
474.57	25.75
474.75	63.19
474.93	39.79
475.12	25.75
475.30	16.38
475.48	53.83
475.66	0.00
475.84	37.45
476.02	0.00
476.20	0.00
476.38	25.75
476.56	9.36
476.74	4.68
476.92	0.00
477.10	44.47
477.28	56.17
477.46	32.77
477.64	72.56
477.82	4.68
478.00	7.02
478.18	58.51
478.36	51.49
478.54	77.24
478.72	32.77
478.90	58.51
479.08	0.00
479.26	74.90
479.44	23.41
479.62	11.70
479.80	14.04
479.98	65.54
480.16	14.04
480.34	32.77
480.52	93.62
480.70	39.79
480.88	35.11
481.06	23.41
481.24	37.45
481.41	9.36
481.59	9.36
481.77	0.00
481.95	60.85
482.13	74.90
482.31	14.04
482.49	74.90
482.67	102.98
482.85	74.90
483.03	53.83
483.21	14.04
483.39	46.81
483.57	60.85
483.74	0.00
483.92	98.30
484.10	0.00
484.28	23.41
484.46	53.83
484.64	0.00
484.82	65.54
485.00	58.51
485.18	0.00
485.35	39.79
485.53	0.00
485.71	0.00
485.89	0.00
486.07	0.00
486.25	110.01
486.43	67.88
486.61	128.73
486.78	0.00
486.96	72.56
487.14	60.85
487.32	51.49
487.50	58.51
487.68	39.79
487.85	49.15
488.03	32.77
488.21	70.22
488.39	81.92
488.57	30.43
488.75	21.06
488.92	102.98
489.10	95.96
489.28	53.83
489.46	0.00
489.64	44.47
489.81	30.43
489.99	30.43
490.17	0.00
490.35	30.43
490.53	88.94
490.70	74.90
490.88	67.88
491.06	65.54
491.24	0.00
491.41	42.13
491.59	53.83
491.77	0.00
491.95	53.83
492.13	9.36
492.30	100.64
492.48	23.41
492.66	63.19
492.84	0.00
493.01	91.28
493.19	44.47
493.37	44.47
493.54	42.13
493.72	81.92
493.90	84.26
494.08	58.51
494.25	28.09
494.43	93.62
494.61	0.00
494.79	84.26
494.96	65.54
495.14	21.06
495.32	0.00
495.49	39.79
495.67	30.43
495.85	25.75
496.02	65.54
496.20	70.22
496.38	72.56
496.55	60.85
496.73	37.45
496.91	11.70
497.09	30.43
497.26	51.49
497.44	21.06
497.62	21.06
497.79	105.32
497.97	32.77
498.14	28.09
498.32	37.45
498.50	51.49
498.67	42.13
498.85	70.22
499.03	51.49
499.20	23.41
499.38	25.75
499.56	0.00
499.73	60.85
499.91	0.00
500.08	72.56
500.26	53.83
500.44	25.75
500.61	30.43
500.79	70.22
500.97	39.79
501.14	51.49
501.32	35.11
501.49	70.22
501.67	30.43
501.84	58.51
502.02	53.83
502.20	74.90
502.37	25.75
502.55	60.85
502.72	46.81
502.90	0.00
503.07	138.09
503.25	86.60
503.43	7.02
503.60	28.09
503.78	70.22
503.95	42.13
504.13	44.47
504.30	100.64
504.48	49.15
504.65	0.00
504.83	60.85
505.01	46.81
505.18	0.00
505.36	53.83
505.53	58.51
505.71	135.75
505.88	37.45
506.06	0.00
506.23	21.06
506.41	30.43
506.58	49.15
506.76	37.45
506.93	16.38
507.11	93.62
507.28	16.38
507.46	14.04
507.63	79.58
507.81	9.36
507.98	128.73
508.16	72.56
508.33	28.09
508.50	32.77
508.68	25.75
508.85	0.00
509.03	56.17
509.20	49.15
509.38	11.70
509.55	86.60
509.73	0.00
509.90	0.00
510.08	91.28
510.25	74.90
510.42	77.24
510.60	16.38
510.77	131.07
510.95	16.38
511.12	0.00
511.30	0.00
511.47	0.00
511.64	60.85
511.82	117.03
511.99	95.96
512.17	0.00
512.34	58.51
512.51	4.68
512.69	53.83
512.86	4.68
513.04	23.41
513.21	65.54
513.38	110.01
513.56	23.41
513.73	0.00
513.90	2.34
514.08	49.15
514.25	91.28
514.43	25.75
514.60	9.36
514.77	58.51
514.95	0.00
515.12	9.36
515.29	56.17
515.47	102.98
515.64	39.79
515.81	63.19
515.99	102.98
516.16	18.72
516.33	56.17
516.51	81.92
516.68	44.47
516.85	0.00
517.03	81.92
517.20	67.88
517.37	51.49
517.54	2.34
517.72	65.54
517.89	16.38
518.06	42.13
518.24	28.09
518.41	84.26
518.58	32.77
518.75	39.79
518.93	21.06
519.10	67.88
519.27	65.54
519.45	131.07
519.62	0.00
519.79	25.75
519.96	72.56
520.14	35.11
520.31	49.15
520.48	65.54
520.65	42.13
520.83	35.11
521.00	72.56
521.17	72.56
521.34	18.72
521.52	51.49
521.69	18.72
521.86	7.02
522.03	72.56
522.20	60.85
522.38	28.09
522.55	0.00
522.72	121.71
522.89	131.07
523.07	0.00
523.24	30.43
523.41	0.00
523.58	56.17
523.75	112.35
523.92	67.88
524.10	25.75
524.27	81.92
524.44	128.73
524.61	14.04
524.78	98.30
524.96	21.06
525.13	30.43
525.30	0.00
525.47	37.45
525.64	9.36
525.81	98.30
525.98	81.92
526.16	7.02
526.33	21.06
526.50	21.06
526.67	35.11
526.84	16.38
527.01	53.83
527.18	93.62
527.36	35.11
527.53	56.17
527.70	0.00
527.87	84.26
528.04	16.38
528.21	23.41
528.38	60.85
528.55	95.96
528.72	9.36
528.89	23.41
529.07	11.70
529.24	88.94
529.41	88.94
529.58	28.09
529.75	0.00
529.92	35.11
530.09	86.60
530.26	79.58
530.43	37.45
530.60	63.19
530.77	79.58
530.94	70.22
531.11	39.79
531.28	53.83
531.46	91.28
531.63	74.90
531.80	16.38
531.97	35.11
532.14	49.15
532.31	32.77
532.48	95.96
532.65	93.62
532.82	58.51
532.99	0.00
533.16	67.88
533.33	70.22
533.50	18.72
533.67	16.38
533.84	0.00
534.01	63.19
534.18	0.00
534.35	84.26
534.52	51.49
534.69	39.79
534.86	58.51
535.03	49.15
535.20	42.13
535.37	37.45
535.54	0.00
535.71	58.51
535.88	2.34
536.05	39.79
536.22	49.15
536.38	35.11
536.55	58.51
536.72	98.30
536.89	70.22
537.06	46.81
537.23	0.00
537.40	53.83
537.57	63.19
537.74	30.43
537.91	74.90
538.08	70.22
538.25	42.13
538.42	42.13
538.59	51.49
538.75	58.51
538.92	4.68
539.09	14.04
539.26	88.94
539.43	42.13
539.60	51.49
539.77	32.77
539.94	42.13
540.11	14.04
540.28	30.43
540.44	35.11
540.61	58.51
540.78	79.58
540.95	21.06
541.12	70.22
541.29	100.64
541.46	0.00
541.62	39.79
541.79	4.68
541.96	53.83
542.13	18.72
542.30	23.41
542.47	30.43
542.63	0.00
542.80	21.06
542.97	9.36
543.14	49.15
543.31	9.36
543.48	72.56
543.64	0.00
543.81	60.85
543.98	2.34
544.15	11.70
544.32	0.00
544.48	56.17
544.65	35.11
544.82	67.88
544.99	49.15
545.16	56.17
545.32	63.19
545.49	25.75
545.66	81.92
545.83	32.77
546.00	0.00
546.16	0.00
546.33	30.43
546.50	9.36
546.67	18.72
546.83	39.79
547.00	53.83
547.17	18.72
547.34	56.17
547.50	72.56
547.67	149.79
547.84	72.56
548.00	0.00
548.17	77.24
548.34	35.11
548.51	0.00
548.67	23.41
548.84	16.38
549.01	58.51
549.18	21.06
549.34	53.83
549.51	25.75
549.68	138.09
549.84	0.00
550.01	0.00
550.18	60.85
550.34	32.77
550.51	14.04
550.68	42.13
550.84	72.56
551.01	51.49
551.18	0.00
551.34	105.32
551.51	53.83
551.68	67.88
551.84	84.26
552.01	4.68
552.18	67.88
552.34	39.79
552.51	39.79
552.68	95.96
552.84	58.51
553.01	100.64
553.18	4.68
553.34	49.15
553.51	7.02
553.67	102.98
553.84	0.00
554.01	112.35
554.17	23.41
554.34	56.17
554.51	0.00
554.67	70.22
554.84	58.51
555.00	0.00
555.17	0.00
555.33	35.11
555.50	93.62
555.67	42.13
555.83	51.49
556.00	39.79
556.16	46.81
556.33	46.81
556.50	0.00
556.66	60.85
556.83	173.20
556.99	21.06
557.16	9.36
557.32	9.36
557.49	25.75
557.65	67.88
557.82	4.68
557.98	147.45
558.15	0.00
558.32	100.64
558.48	32.77
558.65	0.00
558.81	67.88
558.98	30.43
559.14	88.94
559.31	67.88
559.47	84.26
559.64	0.00
559.80	72.56
559.97	53.83
560.13	58.51
560.30	21.06
560.46	0.00
560.63	105.32
560.79	16.38
560.96	32.77
561.12	51.49
561.29	105.32
561.45	14.04
561.61	23.41
561.78	28.09
561.94	67.88
562.11	70.22
562.27	44.47
562.44	42.13
562.60	30.43
562.77	49.15
562.93	77.24
563.10	67.88
563.26	0.00
563.42	114.69
563.59	18.72
563.75	72.56
563.92	21.06
564.08	100.64
564.24	67.88
564.41	39.79
564.57	30.43
564.74	84.26
564.90	37.45
565.07	88.94
565.23	25.75
565.39	46.81
565.56	67.88
565.72	58.51
565.88	18.72
566.05	0.00
566.21	46.81
566.38	16.38
566.54	51.49
566.70	32.77
566.87	39.79
567.03	37.45
567.19	56.17
567.36	30.43
567.52	65.54
567.68	32.77
567.85	0.00
568.01	49.15
568.17	51.49
568.34	42.13
568.50	28.09
568.66	63.19
568.83	107.66
568.99	39.79
569.15	23.41
569.32	2.34
569.48	131.07
569.64	21.06
569.81	18.72
569.97	67.88
570.13	35.11
570.30	63.19
570.46	53.83
570.62	60.85
570.78	93.62
570.95	44.47
571.11	16.38
571.27	98.30
571.43	72.56
571.60	49.15
571.76	44.47
571.92	30.43
572.09	51.49
572.25	16.38
572.41	53.83
572.57	37.45
572.74	25.75
572.90	86.60
573.06	23.41
573.22	84.26
573.38	138.09
573.55	63.19
573.71	98.30
573.87	37.45
574.03	37.45
574.20	32.77
574.36	37.45
574.52	0.00
574.68	100.64
574.84	110.01
575.01	21.06
575.17	9.36
575.33	67.88
575.49	93.62
575.65	70.22
575.82	0.00
575.98	16.38
576.14	32.77
576.30	58.51
576.46	30.43
576.62	107.66
576.79	0.00
576.95	72.56
577.11	18.72
577.27	21.06
577.43	9.36
577.59	35.11
577.75	42.13
577.92	9.36
578.08	95.96
578.24	9.36
578.40	11.70
578.56	35.11
578.72	119.37
578.88	63.19
579.04	0.00
579.21	93.62
579.37	18.72
579.53	63.19
579.69	77.24
579.85	18.72
580.01	60.85
580.17	51.49
580.33	18.72
580.49	0.00
580.65	49.15
580.82	63.19
580.98	70.22
581.14	28.09
581.30	35.11
581.46	67.88
581.62	81.92
581.78	63.19
581.94	46.81
582.10	63.19
582.26	39.79
582.42	0.00
582.58	60.85
582.74	0.00
582.90	51.49
583.06	0.00
583.22	60.85
583.38	51.49
583.54	9.36
583.70	67.88
583.86	2.34
584.02	16.38
584.18	72.56
584.34	65.54
584.50	88.94
584.66	70.22
584.82	0.00
584.98	98.30
585.14	133.41
585.30	88.94
585.46	51.49
585.62	0.00
585.78	51.49
585.94	114.69
586.10	30.43
586.26	39.79
586.42	30.43
586.58	65.54
586.74	65.54
586.90	0.00
587.06	2.34
587.22	88.94
587.38	72.56
587.54	25.75
587.70	86.60
587.86	102.98
588.02	32.77
588.18	121.71
588.34	28.09
588.49	46.81
588.65	49.15
588.81	39.79
588.97	0.00
589.13	46.81
589.29	37.45
589.45	42.13
589.61	42.13
589.77	60.85
589.93	2.34
590.08	102.98
590.24	44.47
590.40	65.54
590.56	49.15
590.72	0.00
590.88	60.85
591.04	42.13
591.20	0.00
591.35	14.04
591.51	42.13
591.67	9.36
591.83	0.00
591.99	35.11
592.15	44.47
592.31	9.36
592.46	2.34
592.62	25.75
592.78	16.38
592.94	4.68
593.10	81.92
593.26	74.90
593.41	37.45
593.57	21.06
593.73	86.60
593.89	91.28
594.05	25.75
594.20	21.06
594.36	114.69
594.52	0.00
594.68	53.83
594.84	53.83
594.99	49.15
595.15	2.34
595.31	56.17
595.47	0.00
595.62	79.58
595.78	42.13
595.94	46.81
596.10	7.02
596.25	60.85
596.41	100.64
596.57	4.68
596.73	67.88
596.88	39.79
597.04	0.00
597.20	0.00
597.36	133.41
597.51	35.11
597.67	0.00
597.83	25.75
597.99	46.81
598.14	32.77
598.30	23.41
598.46	25.75
598.61	0.00
598.77	9.36
598.93	91.28
599.09	53.83
599.24	0.00
599.40	46.81
599.56	28.09
599.71	60.85
599.87	65.54
600.03	32.77
600.18	53.83
600.34	18.72
600.50	81.92
600.65	35.11
600.81	53.83
600.97	70.22
601.12	72.56
601.28	56.17
601.44	121.71
601.59	0.00
601.75	0.00
601.91	46.81
602.06	126.39
602.22	74.90
602.37	42.13
602.53	53.83
602.69	63.19
602.84	51.49
603.00	44.47
603.16	16.38
603.31	42.13
603.47	102.98
603.62	152.13
603.78	18.72
603.94	86.60
604.09	74.90
604.25	86.60
604.40	74.90
604.56	25.75
604.71	93.62
604.87	0.00
605.03	79.58
605.18	93.62
605.34	102.98
605.49	11.70
605.65	2.34
605.80	105.32
605.96	35.11
606.12	28.09
606.27	95.96
606.43	65.54
606.58	0.00
606.74	21.06
606.89	0.00
607.05	32.77
607.20	23.41
607.36	0.00
607.51	30.43
607.67	23.41
607.82	53.83
607.98	16.38
608.13	60.85
608.29	67.88
608.44	9.36
608.60	93.62
608.75	79.58
608.91	72.56
609.06	65.54
609.22	67.88
609.37	58.51
609.53	114.69
609.68	100.64
609.84	88.94
609.99	30.43
610.15	42.13
610.30	112.35
610.46	51.49
610.61	86.60
610.76	58.51
610.92	37.45
611.07	42.13
611.23	25.75
611.38	30.43
611.54	46.81
611.69	39.79
611.84	25.75
612.00	49.15
612.15	0.00
612.31	14.04
612.46	32.77
612.62	67.88
612.77	9.36
612.92	60.85
613.08	58.51
613.23	0.00
613.39	0.00
613.54	49.15
613.69	65.54
613.85	14.04
614.00	32.77
614.15	14.04
614.31	0.00
614.46	21.06
614.62	23.41
614.77	18.72
614.92	56.17
615.08	37.45
615.23	84.26
615.38	28.09
615.54	84.26
615.69	0.00
615.84	0.00
616.00	28.09
616.15	53.83
616.30	0.00
616.46	74.90
616.61	70.22
616.76	49.15
616.92	0.00
617.07	32.77
617.22	16.38
617.37	0.00
617.53	18.72
617.68	46.81
617.83	46.81
617.99	7.02
618.14	0.00
618.29	65.54
618.45	16.38
618.60	105.32
618.75	7.02
618.90	42.13
619.06	39.79
619.21	65.54
619.36	117.03
619.51	46.81
619.67	0.00
619.82	25.75
619.97	53.83
620.12	0.00
620.28	42.13
620.43	21.06
620.58	30.43
620.73	70.22
620.89	51.49
621.04	0.00
621.19	30.43
621.34	110.01
621.49	2.34
621.65	65.54
621.80	0.00
621.95	32.77
622.10	32.77
622.25	86.60
622.41	86.60
622.56	11.70
622.71	16.38
622.86	63.19
623.01	0.00
623.16	37.45
623.32	7.02
623.47	0.00
623.62	42.13
623.77	70.22
623.92	102.98
624.07	0.00
624.23	51.49
624.38	37.45
624.53	81.92
624.68	32.77
624.83	51.49
624.98	49.15
625.13	16.38
625.29	60.85
625.44	0.00
625.59	21.06
625.74	58.51
625.89	2.34
626.04	88.94
626.19	63.19
626.34	117.03
626.49	49.15
626.65	44.47
626.80	25.75
626.95	25.75
627.10	28.09
627.25	21.06
627.40	60.85
627.55	7.02
627.70	18.72
627.85	9.36
628.00	63.19
628.15	86.60
628.30	25.75
628.45	25.75
628.60	14.04
628.76	9.36
628.91	32.77
629.06	117.03
629.21	86.60
629.36	14.04
629.51	23.41
629.66	37.45
629.81	21.06
629.96	32.77
630.11	0.00
630.26	0.00
630.41	0.00
630.56	42.13
630.71	53.83
630.86	25.75
631.01	79.58
631.16	126.39
631.31	79.58
631.46	81.92
631.61	30.43
631.76	63.19
631.91	42.13
632.06	4.68
632.21	28.09
632.36	46.81
632.51	53.83
632.66	0.00
632.81	37.45
632.96	65.54
633.10	86.60
633.25	18.72
633.40	63.19
633.55	67.88
633.70	32.77
633.85	39.79
634.00	42.13
634.15	49.15
634.30	0.00
634.45	88.94
634.60	102.98
634.75	0.00
634.90	30.43
635.05	53.83
635.19	30.43
635.34	21.06
635.49	23.41
635.64	42.13
635.79	14.04
635.94	88.94
636.09	102.98
636.24	65.54
636.39	65.54
636.53	0.00
636.68	0.00
636.83	11.70
636.98	32.77
637.13	37.45
637.28	74.90
637.43	81.92
637.57	4.68
637.72	44.47
637.87	4.68
638.02	0.00
638.17	11.70
638.32	32.77
638.46	16.38
638.61	0.00
638.76	11.70
638.91	51.49
639.06	84.26
639.20	51.49
639.35	37.45
639.50	32.77
639.65	67.88
639.80	18.72
639.94	102.98
640.09	0.00
640.24	32.77
640.39	74.90
640.54	102.98
640.68	60.85
640.83	81.92
640.98	18.72
641.13	121.71
641.27	30.43
641.42	81.92
641.57	81.92
641.72	0.00
641.86	23.41
642.01	63.19
642.16	77.24
642.31	42.13
642.45	4.68
642.60	2.34
642.75	42.13
642.90	35.11
643.04	25.75
643.19	0.00
643.34	95.96
643.48	46.81
643.63	84.26
643.78	0.00
643.93	84.26
644.07	95.96
644.22	32.77
644.37	37.45
644.51	51.49
644.66	0.00
644.81	114.69
644.95	23.41
645.10	0.00
645.25	65.54
645.39	60.85
645.54	60.85
645.69	46.81
645.83	53.83
645.98	46.81
646.13	65.54
646.27	86.60
646.42	35.11
646.57	39.79
646.71	74.90
646.86	9.36
647.00	60.85
647.15	30.43
647.30	0.00
647.44	18.72
647.59	14.04
647.74	0.00
647.88	56.17
648.03	0.00
648.17	37.45
648.32	18.72
648.47	37.45
648.61	98.30
648.76	74.90
648.90	46.81
649.05	0.00
649.20	58.51
649.34	25.75
649.49	121.71
649.63	18.72
649.78	42.13
649.92	0.00
650.07	51.49
650.21	0.00
650.36	0.00
650.51	44.47
650.65	28.09
650.80	42.13
650.94	23.41
651.09	18.72
651.23	0.00
651.38	0.00
651.52	32.77
651.67	9.36
651.81	32.77
651.96	91.28
652.10	65.54
652.25	0.00
652.39	60.85
652.54	81.92
652.68	88.94
652.83	0.00
652.97	126.39
653.12	25.75
653.26	86.60
653.41	93.62
653.55	86.60
653.70	63.19
653.84	0.00
653.99	7.02
654.13	77.24
654.27	0.00
654.42	25.75
654.56	16.38
654.71	65.54
654.85	65.54
655.00	4.68
655.14	0.00
655.29	0.00
655.43	0.00
655.57	46.81
655.72	11.70
655.86	0.00
656.01	9.36
656.15	4.68
656.30	0.00
656.44	21.06
656.58	88.94
656.73	72.56
656.87	53.83
657.01	0.00
657.16	23.41
657.30	25.75
657.45	0.00
657.59	0.00
657.73	28.09
657.88	58.51
658.02	124.05
658.16	0.00
658.31	11.70
658.45	25.75
658.60	18.72
658.74	0.00
658.88	18.72
659.03	0.00
659.17	28.09
659.31	67.88
659.46	42.13
659.60	0.00
659.74	25.75
659.89	0.00
660.03	11.70
660.17	65.54
660.32	67.88
660.46	21.06
660.60	42.13
660.74	28.09
660.89	51.49
661.03	21.06
661.17	18.72
661.32	21.06
661.46	51.49
661.60	67.88
661.74	46.81
661.89	119.37
662.03	4.68
662.17	9.36
662.31	30.43
662.46	0.00
662.60	14.04
662.74	32.77
662.88	37.45
663.03	0.00
663.17	65.54
663.31	14.04
663.45	14.04
663.60	18.72
663.74	39.79
663.88	88.94
664.02	0.00
664.17	107.66
664.31	51.49
664.45	42.13
664.59	46.81
664.73	18.72
664.88	0.00
665.02	44.47
665.16	11.70
665.30	4.68
665.44	149.79
665.59	95.96
665.73	93.62
665.87	37.45
666.01	0.00
666.15	28.09
666.29	35.11
666.44	0.00
666.58	32.77
666.72	124.05
666.86	18.72
667.00	30.43
667.14	30.43
667.28	128.73
667.43	81.92
667.57	39.79
667.71	0.00
667.85	11.70
667.99	23.41
668.13	23.41
668.27	2.34
668.41	23.41
668.56	53.83
668.70	60.85
668.84	86.60
668.98	60.85
669.12	30.43
669.26	65.54
669.40	107.66
669.54	79.58
669.68	9.36
669.82	114.69
669.96	30.43
670.10	0.00
670.25	49.15
670.39	131.07
670.53	37.45
670.67	18.72
670.81	14.04
670.95	25.75
671.09	58.51
671.23	67.88
671.37	74.90
671.51	51.49
671.65	7.02
671.79	21.06
671.93	37.45
672.07	28.09
672.21	37.45
672.35	23.41
672.49	63.19
672.63	42.13
672.77	72.56
672.91	16.38
673.05	77.24
673.19	23.41
673.33	9.36
673.47	37.45
673.61	98.30
673.75	0.00
673.89	74.90
674.03	114.69
674.17	18.72
674.31	0.00
674.45	11.70
674.59	4.68
674.73	0.00
674.87	0.00
675.01	39.79
675.15	32.77
675.29	37.45
675.43	67.88
675.56	117.03
675.70	46.81
675.84	0.00
675.98	0.00
676.12	37.45
676.26	7.02
676.40	74.90
676.54	65.54
676.68	63.19
676.82	35.11
676.96	88.94
677.10	0.00
677.23	37.45
677.37	23.41
677.51	93.62
677.65	23.41
677.79	53.83
677.93	86.60
678.07	0.00
678.21	0.00
678.34	32.77
678.48	9.36
678.62	35.11
678.76	0.00
678.90	0.00
679.04	11.70
679.18	77.24
679.31	51.49
679.45	51.49
679.59	18.72
679.73	44.47
679.87	16.38
680.00	2.34
680.14	77.24
680.28	110.01
680.42	72.56
680.56	0.00
680.70	9.36
680.83	44.47
680.97	0.00
681.11	74.90
681.25	0.00
681.39	0.00
681.52	72.56
681.66	65.54
681.80	25.75
681.94	14.04
682.07	0.00
682.21	25.75
682.35	4.68
682.49	44.47
682.62	51.49
682.76	11.70
682.90	21.06
683.04	67.88
683.17	0.00
683.31	28.09
683.45	124.05
683.59	46.81
683.72	49.15
683.86	28.09
684.00	72.56
684.13	30.43
684.27	0.00
684.41	21.06
684.55	0.00
684.68	4.68
684.82	0.00
684.96	32.77
685.09	72.56
685.23	0.00
685.37	23.41
685.50	9.36
685.64	23.41
685.78	0.00
685.91	53.83
686.05	0.00
686.19	25.75
686.32	58.51
686.46	51.49
686.60	37.45
686.73	35.11
686.87	51.49
687.01	102.98
687.14	77.24
687.28	51.49
687.42	14.04
687.55	35.11
687.69	2.34
687.82	23.41
687.96	44.47
688.10	44.47
688.23	74.90
688.37	23.41
688.50	56.17
688.64	39.79
688.78	42.13
688.91	0.00
689.05	23.41
689.18	23.41
689.32	53.83
689.46	77.24
689.59	93.62
689.73	9.36
689.86	25.75
690.00	0.00
690.13	35.11
690.27	0.00
690.41	42.13
690.54	9.36
690.68	16.38
690.81	86.60
690.95	0.00
691.08	124.05
691.22	4.68
691.35	0.00
691.49	51.49
691.62	0.00
691.76	63.19
691.89	91.28
692.03	11.70
692.16	53.83
692.30	42.13
692.43	35.11
692.57	46.81
692.70	46.81
692.84	65.54
692.97	81.92
693.11	0.00
693.24	84.26
693.38	72.56
693.51	100.64
693.65	65.54
693.78	0.00
693.92	0.00
694.05	95.96
694.19	49.15
694.32	53.83
694.45	0.00
694.59	18.72
694.72	21.06
694.86	16.38
694.99	37.45
695.13	0.00
695.26	0.00
695.39	0.00
695.53	11.70
695.66	56.17
695.80	0.00
695.93	86.60
696.07	37.45
696.20	14.04
696.33	58.51
696.47	21.06
696.60	18.72
696.73	0.00
696.87	84.26
697.00	56.17
697.14	0.00
697.27	67.88
697.40	44.47
697.54	16.38
697.67	51.49
697.80	11.70
697.94	0.00
698.07	0.00
698.21	0.00
698.34	53.83
698.47	16.38
698.61	0.00
698.74	7.02
698.87	42.13
699.01	7.02
699.14	51.49
699.27	0.00
699.40	70.22
699.54	14.04
699.67	60.85
699.80	32.77
699.94	23.41
700.07	21.06
700.20	56.17
700.34	65.54
700.47	0.00
700.60	77.24
700.73	30.43
700.87	9.36
701.00	25.75
701.13	39.79
701.26	79.58
701.40	21.06
701.53	7.02
701.66	112.35
701.79	0.00
701.93	21.06
702.06	46.81
702.19	44.47
702.32	0.00
702.46	49.15
702.59	0.00
702.72	18.72
702.85	42.13
702.99	35.11
703.12	51.49
703.25	0.00
703.38	72.56
703.51	23.41
703.65	4.68
703.78	9.36
703.91	21.06
704.04	14.04
704.17	0.00
704.31	18.72
704.44	21.06
704.57	23.41
704.70	30.43
704.83	58.51
704.96	16.38
705.10	0.00
705.23	86.60
>>>>>End Processed Spectral Data<<<<<
