SpectraSuite Data File
++++++++++++++++++++++++++++++++++++
Date: Fri Oct 04 12:13:40 GMT-05:00 2013
User: price-jones
Dark Spectrum Present: No
Reference Spectrum Present: No
Number of Sampled Component Spectra: 1
Spectrometers: USB2+H05261
Integration Time (usec): 10000 (USB2+H05261)
Spectra Averaged: 1 (USB2+H05261)
Boxcar Smoothing: 0 (USB2+H05261)
Correct for Electrical Dark: No (USB2+H05261)
Strobe/Lamp Enabled: No (USB2+H05261)
Correct for Detector Non-linearity: No (USB2+H05261)
Correct for Stray Light: No (USB2+H05261)
Number of Pixels in Processed Spectrum: 2048
>>>>>Begin Processed Spectral Data<<<<<
365.73	0.00
365.92	0.00
366.12	0.00
366.32	0.00
366.52	0.00
366.72	0.00
366.91	0.00
367.11	0.00
367.31	0.00
367.51	0.00
367.70	0.00
367.90	0.00
368.10	0.00
368.30	0.00
368.49	0.00
368.69	0.00
368.89	0.00
369.09	0.00
369.28	0.00
369.48	0.00
369.68	0.00
369.87	0.00
370.07	0.00
370.27	0.00
370.47	0.00
370.66	0.00
370.86	0.00
371.06	0.00
371.25	0.00
371.45	4.68
371.65	0.00
371.84	42.13
372.04	46.81
372.24	0.00
372.44	0.00
372.63	0.00
372.83	9.36
373.03	25.75
373.22	39.79
373.42	7.02
373.62	60.85
373.81	0.00
374.01	95.96
374.21	14.04
374.40	9.36
374.60	93.62
374.79	58.51
374.99	32.77
375.19	112.35
375.38	63.19
375.58	44.47
375.78	14.04
375.97	28.09
376.17	44.47
376.37	16.38
376.56	0.00
376.76	35.11
376.95	7.02
377.15	67.88
377.35	72.56
377.54	28.09
377.74	0.00
377.93	53.83
378.13	53.83
378.33	30.43
378.52	72.56
378.72	21.06
378.91	0.00
379.11	0.00
379.31	30.43
379.50	65.54
379.70	4.68
379.89	0.00
380.09	0.00
380.28	0.00
380.48	14.04
380.68	60.85
380.87	25.75
381.07	37.45
381.26	0.00
381.46	44.47
381.65	21.06
381.85	9.36
382.04	86.60
382.24	4.68
382.43	21.06
382.63	39.79
382.83	0.00
383.02	0.00
383.22	42.13
383.41	60.85
383.61	30.43
383.80	0.00
384.00	39.79
384.19	46.81
384.39	35.11
384.58	42.13
384.78	35.11
384.97	11.70
385.17	0.00
385.36	0.00
385.56	93.62
385.75	53.83
385.95	49.15
386.14	16.38
386.34	30.43
386.53	44.47
386.72	46.81
386.92	53.83
387.11	14.04
387.31	16.38
387.50	56.17
387.70	30.43
387.89	74.90
388.09	46.81
388.28	35.11
388.48	42.13
388.67	0.00
388.86	0.00
389.06	44.47
389.25	0.00
389.45	44.47
389.64	77.24
389.84	28.09
390.03	7.02
390.22	0.00
390.42	65.54
390.61	14.04
390.81	0.00
391.00	37.45
391.19	112.35
391.39	9.36
391.58	0.00
391.78	25.75
391.97	70.22
392.16	9.36
392.36	7.02
392.55	0.00
392.75	18.72
392.94	58.51
393.13	46.81
393.33	32.77
393.52	0.00
393.71	7.02
393.91	42.13
394.10	0.00
394.29	0.00
394.49	14.04
394.68	0.00
394.88	81.92
395.07	0.00
395.26	60.85
395.46	9.36
395.65	42.13
395.84	39.79
396.04	0.00
396.23	0.00
396.42	4.68
396.62	18.72
396.81	0.00
397.00	0.00
397.19	0.00
397.39	44.47
397.58	18.72
397.77	0.00
397.97	23.41
398.16	39.79
398.35	0.00
398.55	117.03
398.74	0.00
398.93	25.75
399.12	18.72
399.32	72.56
399.51	4.68
399.70	60.85
399.90	74.90
400.09	0.00
400.28	51.49
400.47	135.75
400.67	42.13
400.86	28.09
401.05	70.22
401.24	60.85
401.44	14.04
401.63	18.72
401.82	44.47
402.01	44.47
402.21	23.41
402.40	100.64
402.59	11.70
402.78	0.00
402.97	49.15
403.17	93.62
403.36	32.77
403.55	46.81
403.74	21.06
403.93	16.38
404.13	25.75
404.32	14.04
404.51	18.72
404.70	84.26
404.89	58.51
405.09	88.94
405.28	14.04
405.47	0.00
405.66	37.45
405.85	49.15
406.05	0.00
406.24	49.15
406.43	51.49
406.62	0.00
406.81	39.79
407.00	0.00
407.20	79.58
407.39	32.77
407.58	51.49
407.77	14.04
407.96	46.81
408.15	86.60
408.34	67.88
408.54	18.72
408.73	60.85
408.92	49.15
409.11	9.36
409.30	93.62
409.49	67.88
409.68	14.04
409.87	91.28
410.07	81.92
410.26	72.56
410.45	131.07
410.64	28.09
410.83	58.51
411.02	107.66
411.21	72.56
411.40	0.00
411.59	0.00
411.78	18.72
411.98	35.11
412.17	7.02
412.36	11.70
412.55	39.79
412.74	25.75
412.93	14.04
413.12	0.00
413.31	51.49
413.50	58.51
413.69	0.00
413.88	21.06
414.07	9.36
414.26	49.15
414.45	72.56
414.64	4.68
414.83	81.92
415.02	58.51
415.22	70.22
415.41	67.88
415.60	86.60
415.79	84.26
415.98	44.47
416.17	0.00
416.36	16.38
416.55	16.38
416.74	0.00
416.93	37.45
417.12	28.09
417.31	77.24
417.50	74.90
417.69	49.15
417.88	53.83
418.07	18.72
418.26	28.09
418.45	14.04
418.64	11.70
418.83	81.92
419.02	35.11
419.21	30.43
419.39	11.70
419.58	25.75
419.77	0.00
419.96	81.92
420.15	77.24
420.34	86.60
420.53	7.02
420.72	51.49
420.91	95.96
421.10	35.11
421.29	65.54
421.48	23.41
421.67	21.06
421.86	9.36
422.05	79.58
422.24	37.45
422.43	121.71
422.61	91.28
422.80	114.69
422.99	21.06
423.18	95.96
423.37	39.79
423.56	11.70
423.75	11.70
423.94	16.38
424.13	98.30
424.32	42.13
424.50	21.06
424.69	63.19
424.88	32.77
425.07	60.85
425.26	46.81
425.45	140.43
425.64	98.30
425.83	0.00
426.01	70.22
426.20	74.90
426.39	58.51
426.58	0.00
426.77	9.36
426.96	0.00
427.15	46.81
427.33	0.00
427.52	30.43
427.71	51.49
427.90	44.47
428.09	81.92
428.28	58.51
428.46	35.11
428.65	30.43
428.84	81.92
429.03	53.83
429.22	44.47
429.40	67.88
429.59	0.00
429.78	58.51
429.97	74.90
430.16	51.49
430.34	42.13
430.53	51.49
430.72	79.58
430.91	14.04
431.10	95.96
431.28	14.04
431.47	16.38
431.66	14.04
431.85	14.04
432.03	46.81
432.22	49.15
432.41	0.00
432.60	35.11
432.79	60.85
432.97	11.70
433.16	56.17
433.35	0.00
433.54	0.00
433.72	51.49
433.91	42.13
434.10	77.24
434.28	0.00
434.47	60.85
434.66	100.64
434.85	56.17
435.03	49.15
435.22	58.51
435.41	51.49
435.59	60.85
435.78	44.47
435.97	58.51
436.16	23.41
436.34	32.77
436.53	42.13
436.72	32.77
436.90	93.62
437.09	51.49
437.28	25.75
437.46	46.81
437.65	49.15
437.84	65.54
438.02	18.72
438.21	53.83
438.40	28.09
438.58	63.19
438.77	0.00
438.96	44.47
439.14	28.09
439.33	56.17
439.52	58.51
439.70	37.45
439.89	25.75
440.08	39.79
440.26	84.26
440.45	51.49
440.63	65.54
440.82	98.30
441.01	100.64
441.19	65.54
441.38	42.13
441.57	70.22
441.75	56.17
441.94	65.54
442.12	65.54
442.31	56.17
442.50	98.30
442.68	49.15
442.87	74.90
443.05	23.41
443.24	0.00
443.43	0.00
443.61	114.69
443.80	84.26
443.98	98.30
444.17	42.13
444.35	39.79
444.54	21.06
444.73	16.38
444.91	117.03
445.10	23.41
445.28	102.98
445.47	39.79
445.65	102.98
445.84	114.69
446.02	7.02
446.21	77.24
446.39	65.54
446.58	72.56
446.77	56.17
446.95	105.32
447.14	107.66
447.32	98.30
447.51	0.00
447.69	67.88
447.88	51.49
448.06	35.11
448.25	14.04
448.43	110.01
448.62	11.70
448.80	77.24
448.99	114.69
449.17	65.54
449.36	65.54
449.54	37.45
449.73	30.43
449.91	0.00
450.10	67.88
450.28	60.85
450.46	98.30
450.65	0.00
450.83	0.00
451.02	121.71
451.20	42.13
451.39	51.49
451.57	18.72
451.76	0.00
451.94	60.85
452.13	117.03
452.31	39.79
452.49	117.03
452.68	124.05
452.86	0.00
453.05	44.47
453.23	39.79
453.42	86.60
453.60	30.43
453.78	2.34
453.97	35.11
454.15	21.06
454.34	0.00
454.52	25.75
454.70	74.90
454.89	65.54
455.07	4.68
455.26	140.43
455.44	0.00
455.62	65.54
455.81	0.00
455.99	51.49
456.17	105.32
456.36	65.54
456.54	9.36
456.73	28.09
456.91	79.58
457.09	86.60
457.28	35.11
457.46	0.00
457.64	86.60
457.83	86.60
458.01	0.00
458.19	18.72
458.38	74.90
458.56	93.62
458.74	35.11
458.93	39.79
459.11	46.81
459.29	65.54
459.48	0.00
459.66	138.09
459.84	65.54
460.03	28.09
460.21	39.79
460.39	114.69
460.57	77.24
460.76	16.38
460.94	0.00
461.12	95.96
461.31	84.26
461.49	133.41
461.67	63.19
461.85	7.02
462.04	72.56
462.22	117.03
462.40	0.00
462.59	72.56
462.77	42.13
462.95	56.17
463.13	46.81
463.32	0.00
463.50	23.41
463.68	56.17
463.86	81.92
464.05	39.79
464.23	88.94
464.41	65.54
464.59	53.83
464.78	105.32
464.96	84.26
465.14	107.66
465.32	42.13
465.50	11.70
465.69	2.34
465.87	63.19
466.05	46.81
466.23	25.75
466.41	112.35
466.60	7.02
466.78	84.26
466.96	84.26
467.14	60.85
467.32	154.48
467.51	128.73
467.69	72.56
467.87	95.96
468.05	37.45
468.23	44.47
468.41	91.28
468.60	25.75
468.78	0.00
468.96	44.47
469.14	46.81
469.32	79.58
469.50	100.64
469.69	91.28
469.87	28.09
470.05	100.64
470.23	100.64
470.41	70.22
470.59	93.62
470.77	84.26
470.95	14.04
471.14	58.51
471.32	81.92
471.50	0.00
471.68	53.83
471.86	102.98
472.04	95.96
472.22	0.00
472.40	98.30
472.58	39.79
472.77	74.90
472.95	42.13
473.13	60.85
473.31	74.90
473.49	42.13
473.67	46.81
473.85	77.24
474.03	58.51
474.21	60.85
474.39	84.26
474.57	63.19
474.75	0.00
474.93	56.17
475.12	91.28
475.30	37.45
475.48	42.13
475.66	70.22
475.84	86.60
476.02	74.90
476.20	72.56
476.38	39.79
476.56	4.68
476.74	51.49
476.92	65.54
477.10	79.58
477.28	67.88
477.46	51.49
477.64	49.15
477.82	95.96
478.00	44.47
478.18	74.90
478.36	23.41
478.54	56.17
478.72	114.69
478.90	16.38
479.08	119.37
479.26	65.54
479.44	102.98
479.62	30.43
479.80	117.03
479.98	0.00
480.16	9.36
480.34	88.94
480.52	58.51
480.70	49.15
480.88	39.79
481.06	21.06
481.24	0.00
481.41	46.81
481.59	117.03
481.77	79.58
481.95	30.43
482.13	32.77
482.31	65.54
482.49	100.64
482.67	53.83
482.85	117.03
483.03	63.19
483.21	67.88
483.39	37.45
483.57	42.13
483.74	46.81
483.92	16.38
484.10	42.13
484.28	35.11
484.46	65.54
484.64	107.66
484.82	65.54
485.00	0.00
485.18	25.75
485.35	88.94
485.53	79.58
485.71	60.85
485.89	63.19
486.07	11.70
486.25	93.62
486.43	95.96
486.61	53.83
486.78	79.58
486.96	147.45
487.14	74.90
487.32	110.01
487.50	46.81
487.68	4.68
487.85	112.35
488.03	23.41
488.21	79.58
488.39	98.30
488.57	35.11
488.75	28.09
488.92	74.90
489.10	46.81
489.28	114.69
489.46	93.62
489.64	51.49
489.81	9.36
489.99	107.66
490.17	51.49
490.35	49.15
490.53	77.24
490.70	63.19
490.88	86.60
491.06	58.51
491.24	65.54
491.41	30.43
491.59	72.56
491.77	56.17
491.95	60.85
492.13	72.56
492.30	65.54
492.48	145.11
492.66	91.28
492.84	35.11
493.01	102.98
493.19	39.79
493.37	65.54
493.54	88.94
493.72	93.62
493.90	65.54
494.08	86.60
494.25	60.85
494.43	100.64
494.61	77.24
494.79	60.85
494.96	58.51
495.14	0.00
495.32	79.58
495.49	88.94
495.67	138.09
495.85	119.37
496.02	74.90
496.20	93.62
496.38	39.79
496.55	46.81
496.73	32.77
496.91	63.19
497.09	51.49
497.26	100.64
497.44	98.30
497.62	93.62
497.79	63.19
497.97	105.32
498.14	138.09
498.32	95.96
498.50	81.92
498.67	74.90
498.85	46.81
499.03	60.85
499.20	56.17
499.38	51.49
499.56	53.83
499.73	84.26
499.91	51.49
500.08	46.81
500.26	32.77
500.44	21.06
500.61	23.41
500.79	53.83
500.97	72.56
501.14	140.43
501.32	110.01
501.49	58.51
501.67	70.22
501.84	84.26
502.02	105.32
502.20	84.26
502.37	53.83
502.55	107.66
502.72	58.51
502.90	88.94
503.07	91.28
503.25	65.54
503.43	91.28
503.60	39.79
503.78	44.47
503.95	53.83
504.13	77.24
504.30	44.47
504.48	110.01
504.65	117.03
504.83	131.07
505.01	42.13
505.18	110.01
505.36	107.66
505.53	65.54
505.71	37.45
505.88	102.98
506.06	93.62
506.23	152.13
506.41	60.85
506.58	98.30
506.76	91.28
506.93	112.35
507.11	86.60
507.28	100.64
507.46	93.62
507.63	81.92
507.81	65.54
507.98	117.03
508.16	77.24
508.33	100.64
508.50	14.04
508.68	121.71
508.85	49.15
509.03	72.56
509.20	95.96
509.38	91.28
509.55	81.92
509.73	105.32
509.90	102.98
510.08	138.09
510.25	53.83
510.42	70.22
510.60	25.75
510.77	58.51
510.95	81.92
511.12	117.03
511.30	84.26
511.47	58.51
511.64	23.41
511.82	128.73
511.99	100.64
512.17	88.94
512.34	60.85
512.51	0.00
512.69	32.77
512.86	110.01
513.04	154.48
513.21	88.94
513.38	53.83
513.56	98.30
513.73	88.94
513.90	72.56
514.08	119.37
514.25	119.37
514.43	117.03
514.60	91.28
514.77	86.60
514.95	79.58
515.12	11.70
515.29	77.24
515.47	67.88
515.64	56.17
515.81	149.79
515.99	70.22
516.16	42.13
516.33	74.90
516.51	93.62
516.68	86.60
516.85	65.54
517.03	46.81
517.20	65.54
517.37	44.47
517.54	91.28
517.72	74.90
517.89	28.09
518.06	32.77
518.24	124.05
518.41	117.03
518.58	93.62
518.75	67.88
518.93	25.75
519.10	65.54
519.27	28.09
519.45	110.01
519.62	70.22
519.79	74.90
519.96	35.11
520.14	117.03
520.31	110.01
520.48	56.17
520.65	138.09
520.83	72.56
521.00	110.01
521.17	126.39
521.34	18.72
521.52	39.79
521.69	133.41
521.86	91.28
522.03	112.35
522.20	131.07
522.38	100.64
522.55	30.43
522.72	28.09
522.89	39.79
523.07	44.47
523.24	74.90
523.41	159.16
523.58	44.47
523.75	86.60
523.92	107.66
524.10	135.75
524.27	81.92
524.44	100.64
524.61	9.36
524.78	93.62
524.96	138.09
525.13	60.85
525.30	60.85
525.47	84.26
525.64	44.47
525.81	77.24
525.98	135.75
526.16	105.32
526.33	56.17
526.50	11.70
526.67	60.85
526.84	74.90
527.01	56.17
527.18	58.51
527.36	72.56
527.53	7.02
527.70	16.38
527.87	58.51
528.04	107.66
528.21	32.77
528.38	65.54
528.55	77.24
528.72	67.88
528.89	98.30
529.07	91.28
529.24	147.45
529.41	102.98
529.58	107.66
529.75	84.26
529.92	117.03
530.09	121.71
530.26	191.92
530.43	74.90
530.60	112.35
530.77	133.41
530.94	9.36
531.11	142.77
531.28	91.28
531.46	105.32
531.63	86.60
531.80	67.88
531.97	128.73
532.14	84.26
532.31	142.77
532.48	156.82
532.65	81.92
532.82	0.00
532.99	147.45
533.16	53.83
533.33	95.96
533.50	60.85
533.67	131.07
533.84	4.68
534.01	60.85
534.18	49.15
534.35	121.71
534.52	105.32
534.69	72.56
534.86	112.35
535.03	110.01
535.20	0.00
535.37	72.56
535.54	70.22
535.71	194.26
535.88	114.69
536.05	196.60
536.22	74.90
536.38	117.03
536.55	46.81
536.72	51.49
536.89	112.35
537.06	102.98
537.23	102.98
537.40	105.32
537.57	100.64
537.74	32.77
537.91	84.26
538.08	67.88
538.25	63.19
538.42	39.79
538.59	147.45
538.75	114.69
538.92	70.22
539.09	51.49
539.26	58.51
539.43	56.17
539.60	126.39
539.77	117.03
539.94	88.94
540.11	63.19
540.28	39.79
540.44	25.75
540.61	77.24
540.78	93.62
540.95	149.79
541.12	147.45
541.29	100.64
541.46	98.30
541.62	67.88
541.79	84.26
541.96	79.58
542.13	124.05
542.30	131.07
542.47	112.35
542.63	46.81
542.80	138.09
542.97	72.56
543.14	14.04
543.31	138.09
543.48	117.03
543.64	107.66
543.81	79.58
543.98	84.26
544.15	58.51
544.32	102.98
544.48	77.24
544.65	100.64
544.82	74.90
544.99	74.90
545.16	63.19
545.32	70.22
545.49	32.77
545.66	21.06
545.83	91.28
546.00	60.85
546.16	168.52
546.33	124.05
546.50	0.00
546.67	86.60
546.83	81.92
547.00	107.66
547.17	161.50
547.34	93.62
547.50	180.22
547.67	102.98
547.84	65.54
548.00	91.28
548.17	95.96
548.34	44.47
548.51	23.41
548.67	74.90
548.84	7.02
549.01	156.82
549.18	142.77
549.34	56.17
549.51	128.73
549.68	56.17
549.84	42.13
550.01	126.39
550.18	117.03
550.34	159.16
550.51	21.06
550.68	84.26
550.84	81.92
551.01	25.75
551.18	46.81
551.34	4.68
551.51	147.45
551.68	112.35
551.84	105.32
552.01	81.92
552.18	145.11
552.34	112.35
552.51	30.43
552.68	51.49
552.84	28.09
553.01	23.41
553.18	114.69
553.34	84.26
553.51	81.92
553.67	81.92
553.84	86.60
554.01	117.03
554.17	119.37
554.34	81.92
554.51	102.98
554.67	112.35
554.84	114.69
555.00	117.03
555.17	77.24
555.33	49.15
555.50	0.00
555.67	72.56
555.83	84.26
556.00	95.96
556.16	161.50
556.33	88.94
556.50	131.07
556.66	114.69
556.83	105.32
556.99	42.13
557.16	23.41
557.32	102.98
557.49	79.58
557.65	124.05
557.82	9.36
557.98	110.01
558.15	72.56
558.32	65.54
558.48	39.79
558.65	98.30
558.81	65.54
558.98	35.11
559.14	60.85
559.31	72.56
559.47	91.28
559.64	128.73
559.80	88.94
559.97	105.32
560.13	37.45
560.30	4.68
560.46	84.26
560.63	100.64
560.79	84.26
560.96	86.60
561.12	135.75
561.29	67.88
561.45	91.28
561.61	102.98
561.78	100.64
561.94	81.92
562.11	30.43
562.27	72.56
562.44	159.16
562.60	63.19
562.77	79.58
562.93	44.47
563.10	117.03
563.26	105.32
563.42	0.00
563.59	39.79
563.75	81.92
563.92	51.49
564.08	21.06
564.24	86.60
564.41	88.94
564.57	114.69
564.74	110.01
564.90	86.60
565.07	37.45
565.23	166.18
565.39	84.26
565.56	138.09
565.72	156.82
565.88	117.03
566.05	91.28
566.21	35.11
566.38	37.45
566.54	95.96
566.70	21.06
566.87	65.54
567.03	2.34
567.19	93.62
567.36	119.37
567.52	117.03
567.68	56.17
567.85	138.09
568.01	128.73
568.17	91.28
568.34	102.98
568.50	51.49
568.66	126.39
568.83	86.60
568.99	128.73
569.15	49.15
569.32	84.26
569.48	88.94
569.64	112.35
569.81	128.73
569.97	93.62
570.13	105.32
570.30	30.43
570.46	42.13
570.62	72.56
570.78	23.41
570.95	138.09
571.11	110.01
571.27	135.75
571.43	79.58
571.60	72.56
571.76	126.39
571.92	16.38
572.09	30.43
572.25	42.13
572.41	39.79
572.57	98.30
572.74	51.49
572.90	86.60
573.06	23.41
573.22	124.05
573.38	51.49
573.55	74.90
573.71	98.30
573.87	72.56
574.03	32.77
574.20	91.28
574.36	51.49
574.52	70.22
574.68	147.45
574.84	56.17
575.01	81.92
575.17	46.81
575.33	114.69
575.49	23.41
575.65	98.30
575.82	93.62
575.98	74.90
576.14	133.41
576.30	131.07
576.46	86.60
576.62	95.96
576.79	49.15
576.95	28.09
577.11	35.11
577.27	7.02
577.43	114.69
577.59	147.45
577.75	23.41
577.92	86.60
578.08	110.01
578.24	79.58
578.40	95.96
578.56	84.26
578.72	28.09
578.88	112.35
579.04	49.15
579.21	65.54
579.37	51.49
579.53	0.00
579.69	131.07
579.85	30.43
580.01	95.96
580.17	51.49
580.33	25.75
580.49	81.92
580.65	0.00
580.82	112.35
580.98	70.22
581.14	53.83
581.30	102.98
581.46	14.04
581.62	119.37
581.78	67.88
581.94	81.92
582.10	0.00
582.26	72.56
582.42	72.56
582.58	119.37
582.74	145.11
582.90	86.60
583.06	98.30
583.22	98.30
583.38	51.49
583.54	58.51
583.70	112.35
583.86	32.77
584.02	58.51
584.18	121.71
584.34	119.37
584.50	14.04
584.66	81.92
584.82	46.81
584.98	135.75
585.14	98.30
585.30	0.00
585.46	86.60
585.62	25.75
585.78	60.85
585.94	84.26
586.10	110.01
586.26	25.75
586.42	72.56
586.58	91.28
586.74	18.72
586.90	126.39
587.06	91.28
587.22	16.38
587.38	72.56
587.54	35.11
587.70	67.88
587.86	128.73
588.02	138.09
588.18	77.24
588.34	102.98
588.49	79.58
588.65	100.64
588.81	39.79
588.97	98.30
589.13	93.62
589.29	110.01
589.45	49.15
589.61	42.13
589.77	44.47
589.93	93.62
590.08	51.49
590.24	91.28
590.40	119.37
590.56	42.13
590.72	88.94
590.88	56.17
591.04	65.54
591.20	46.81
591.35	114.69
591.51	32.77
591.67	32.77
591.83	0.00
591.99	72.56
592.15	56.17
592.31	102.98
592.46	79.58
592.62	70.22
592.78	95.96
592.94	65.54
593.10	18.72
593.26	114.69
593.41	70.22
593.57	9.36
593.73	21.06
593.89	102.98
594.05	53.83
594.20	44.47
594.36	11.70
594.52	98.30
594.68	72.56
594.84	67.88
594.99	74.90
595.15	53.83
595.31	124.05
595.47	65.54
595.62	98.30
595.78	58.51
595.94	91.28
596.10	0.00
596.25	84.26
596.41	74.90
596.57	81.92
596.73	58.51
596.88	126.39
597.04	145.11
597.20	58.51
597.36	95.96
597.51	65.54
597.67	39.79
597.83	105.32
597.99	112.35
598.14	138.09
598.30	42.13
598.46	79.58
598.61	25.75
598.77	107.66
598.93	44.47
599.09	135.75
599.24	72.56
599.40	131.07
599.56	86.60
599.71	56.17
599.87	51.49
600.03	70.22
600.18	28.09
600.34	77.24
600.50	37.45
600.65	133.41
600.81	107.66
600.97	63.19
601.12	65.54
601.28	56.17
601.44	93.62
601.59	44.47
601.75	49.15
601.91	60.85
602.06	121.71
602.22	161.50
602.37	81.92
602.53	117.03
602.69	72.56
602.84	56.17
603.00	95.96
603.16	72.56
603.31	81.92
603.47	72.56
603.62	95.96
603.78	152.13
603.94	25.75
604.09	74.90
604.25	161.50
604.40	9.36
604.56	117.03
604.71	30.43
604.87	46.81
605.03	105.32
605.18	46.81
605.34	53.83
605.49	39.79
605.65	37.45
605.80	84.26
605.96	70.22
606.12	93.62
606.27	67.88
606.43	35.11
606.58	44.47
606.74	107.66
606.89	0.00
607.05	44.47
607.20	39.79
607.36	4.68
607.51	0.00
607.67	35.11
607.82	39.79
607.98	58.51
608.13	25.75
608.29	56.17
608.44	39.79
608.60	60.85
608.75	42.13
608.91	51.49
609.06	65.54
609.22	63.19
609.37	14.04
609.53	30.43
609.68	77.24
609.84	0.00
609.99	77.24
610.15	58.51
610.30	88.94
610.46	79.58
610.61	21.06
610.76	70.22
610.92	63.19
611.07	110.01
611.23	95.96
611.38	98.30
611.54	72.56
611.69	53.83
611.84	42.13
612.00	58.51
612.15	25.75
612.31	74.90
612.46	25.75
612.62	86.60
612.77	88.94
612.92	72.56
613.08	37.45
613.23	119.37
613.39	16.38
613.54	88.94
613.69	110.01
613.85	65.54
614.00	7.02
614.15	79.58
614.31	77.24
614.46	93.62
614.62	124.05
614.77	102.98
614.92	98.30
615.08	86.60
615.23	67.88
615.38	79.58
615.54	0.00
615.69	70.22
615.84	53.83
616.00	46.81
616.15	79.58
616.30	72.56
616.46	91.28
616.61	37.45
616.76	110.01
616.92	58.51
617.07	91.28
617.22	117.03
617.37	140.43
617.53	84.26
617.68	35.11
617.83	0.00
617.99	70.22
618.14	126.39
618.29	107.66
618.45	58.51
618.60	53.83
618.75	56.17
618.90	79.58
619.06	49.15
619.21	51.49
619.36	53.83
619.51	32.77
619.67	25.75
619.82	63.19
619.97	35.11
620.12	49.15
620.28	117.03
620.43	72.56
620.58	30.43
620.73	114.69
620.89	46.81
621.04	81.92
621.19	133.41
621.34	30.43
621.49	56.17
621.65	46.81
621.80	72.56
621.95	56.17
622.10	30.43
622.25	70.22
622.41	35.11
622.56	72.56
622.71	91.28
622.86	119.37
623.01	110.01
623.16	53.83
623.32	67.88
623.47	37.45
623.62	84.26
623.77	70.22
623.92	65.54
624.07	131.07
624.23	95.96
624.38	44.47
624.53	84.26
624.68	56.17
624.83	2.34
624.98	0.00
625.13	25.75
625.29	84.26
625.44	81.92
625.59	44.47
625.74	44.47
625.89	74.90
626.04	32.77
626.19	44.47
626.34	7.02
626.49	49.15
626.65	51.49
626.80	35.11
626.95	7.02
627.10	70.22
627.25	135.75
627.40	21.06
627.55	0.00
627.70	53.83
627.85	119.37
628.00	49.15
628.15	91.28
628.30	32.77
628.45	98.30
628.60	131.07
628.76	166.18
628.91	107.66
629.06	44.47
629.21	60.85
629.36	67.88
629.51	53.83
629.66	0.00
629.81	42.13
629.96	49.15
630.11	114.69
630.26	126.39
630.41	0.00
630.56	53.83
630.71	105.32
630.86	9.36
631.01	105.32
631.16	86.60
631.31	84.26
631.46	84.26
631.61	14.04
631.76	88.94
631.91	0.00
632.06	58.51
632.21	121.71
632.36	49.15
632.51	65.54
632.66	133.41
632.81	63.19
632.96	49.15
633.10	7.02
633.25	102.98
633.40	110.01
633.55	91.28
633.70	16.38
633.85	30.43
634.00	16.38
634.15	25.75
634.30	39.79
634.45	23.41
634.60	79.58
634.75	110.01
634.90	44.47
635.05	110.01
635.19	46.81
635.34	42.13
635.49	30.43
635.64	0.00
635.79	58.51
635.94	88.94
636.09	81.92
636.24	28.09
636.39	30.43
636.53	81.92
636.68	4.68
636.83	32.77
636.98	86.60
637.13	86.60
637.28	18.72
637.43	107.66
637.57	44.47
637.72	28.09
637.87	42.13
638.02	32.77
638.17	14.04
638.32	72.56
638.46	77.24
638.61	102.98
638.76	44.47
638.91	67.88
639.06	58.51
639.20	44.47
639.35	81.92
639.50	58.51
639.65	88.94
639.80	88.94
639.94	84.26
640.09	112.35
640.24	163.84
640.39	105.32
640.54	95.96
640.68	63.19
640.83	67.88
640.98	107.66
641.13	51.49
641.27	70.22
641.42	86.60
641.57	18.72
641.72	93.62
641.86	166.18
642.01	93.62
642.16	30.43
642.31	67.88
642.45	102.98
642.60	32.77
642.75	46.81
642.90	121.71
643.04	70.22
643.19	53.83
643.34	65.54
643.48	49.15
643.63	67.88
643.78	46.81
643.93	0.00
644.07	88.94
644.22	44.47
644.37	63.19
644.51	0.00
644.66	18.72
644.81	100.64
644.95	49.15
645.10	35.11
645.25	72.56
645.39	58.51
645.54	21.06
645.69	14.04
645.83	58.51
645.98	124.05
646.13	21.06
646.27	0.00
646.42	77.24
646.57	70.22
646.71	72.56
646.86	88.94
647.00	53.83
647.15	28.09
647.30	46.81
647.44	56.17
647.59	79.58
647.74	0.00
647.88	121.71
648.03	21.06
648.17	25.75
648.32	11.70
648.47	149.79
648.61	30.43
648.76	100.64
648.90	42.13
649.05	39.79
649.20	100.64
649.34	100.64
649.49	58.51
649.63	49.15
649.78	14.04
649.92	37.45
650.07	58.51
650.21	7.02
650.36	0.00
650.51	114.69
650.65	86.60
650.80	65.54
650.94	0.00
651.09	98.30
651.23	11.70
651.38	98.30
651.52	30.43
651.67	32.77
651.81	84.26
651.96	124.05
652.10	84.26
652.25	74.90
652.39	86.60
652.54	0.00
652.68	60.85
652.83	84.26
652.97	0.00
653.12	86.60
653.26	138.09
653.41	37.45
653.55	39.79
653.70	117.03
653.84	16.38
653.99	60.85
654.13	74.90
654.27	117.03
654.42	58.51
654.56	70.22
654.71	70.22
654.85	42.13
655.00	0.00
655.14	39.79
655.29	14.04
655.43	46.81
655.57	4.68
655.72	25.75
655.86	44.47
656.01	102.98
656.15	60.85
656.30	16.38
656.44	56.17
656.58	93.62
656.73	88.94
656.87	58.51
657.01	95.96
657.16	86.60
657.30	67.88
657.45	46.81
657.59	51.49
657.73	28.09
657.88	30.43
658.02	0.00
658.16	30.43
658.31	0.00
658.45	28.09
658.60	46.81
658.74	21.06
658.88	21.06
659.03	0.00
659.17	72.56
659.31	49.15
659.46	56.17
659.60	46.81
659.74	112.35
659.89	49.15
660.03	72.56
660.17	46.81
660.32	23.41
660.46	9.36
660.60	25.75
660.74	119.37
660.89	25.75
661.03	46.81
661.17	84.26
661.32	32.77
661.46	51.49
661.60	44.47
661.74	30.43
661.89	79.58
662.03	25.75
662.17	88.94
662.31	88.94
662.46	42.13
662.60	60.85
662.74	0.00
662.88	0.00
663.03	91.28
663.17	74.90
663.31	88.94
663.45	32.77
663.60	100.64
663.74	65.54
663.88	21.06
664.02	7.02
664.17	23.41
664.31	9.36
664.45	4.68
664.59	84.26
664.73	37.45
664.88	58.51
665.02	0.00
665.16	11.70
665.30	65.54
665.44	44.47
665.59	100.64
665.73	72.56
665.87	53.83
666.01	81.92
666.15	81.92
666.29	0.00
666.44	49.15
666.58	51.49
666.72	53.83
666.86	65.54
667.00	56.17
667.14	9.36
667.28	44.47
667.43	32.77
667.57	30.43
667.71	142.77
667.85	28.09
667.99	98.30
668.13	49.15
668.27	14.04
668.41	67.88
668.56	60.85
668.70	18.72
668.84	14.04
668.98	79.58
669.12	114.69
669.26	105.32
669.40	51.49
669.54	58.51
669.68	72.56
669.82	4.68
669.96	110.01
670.10	84.26
670.25	51.49
670.39	51.49
670.53	21.06
670.67	23.41
670.81	77.24
670.95	124.05
671.09	35.11
671.23	39.79
671.37	42.13
671.51	72.56
671.65	39.79
671.79	70.22
671.93	0.00
672.07	74.90
672.21	28.09
672.35	7.02
672.49	7.02
672.63	44.47
672.77	121.71
672.91	53.83
673.05	65.54
673.19	0.00
673.33	0.00
673.47	98.30
673.61	23.41
673.75	63.19
673.89	0.00
674.03	93.62
674.17	79.58
674.31	2.34
674.45	117.03
674.59	79.58
674.73	77.24
674.87	4.68
675.01	53.83
675.15	35.11
675.29	44.47
675.43	70.22
675.56	42.13
675.70	35.11
675.84	9.36
675.98	77.24
676.12	86.60
676.26	63.19
676.40	0.00
676.54	77.24
676.68	72.56
676.82	23.41
676.96	53.83
677.10	18.72
677.23	46.81
677.37	0.00
677.51	28.09
677.65	98.30
677.79	28.09
677.93	14.04
678.07	4.68
678.21	37.45
678.34	39.79
678.48	23.41
678.62	102.98
678.76	58.51
678.90	18.72
679.04	102.98
679.18	51.49
679.31	0.00
679.45	0.00
679.59	18.72
679.73	18.72
679.87	0.00
680.00	32.77
680.14	7.02
680.28	35.11
680.42	25.75
680.56	25.75
680.70	72.56
680.83	67.88
680.97	32.77
681.11	21.06
681.25	88.94
681.39	25.75
681.52	11.70
681.66	42.13
681.80	67.88
681.94	35.11
682.07	46.81
682.21	63.19
682.35	56.17
682.49	39.79
682.62	18.72
682.76	28.09
682.90	70.22
683.04	67.88
683.17	58.51
683.31	25.75
683.45	32.77
683.59	88.94
683.72	2.34
683.86	63.19
684.00	37.45
684.13	39.79
684.27	51.49
684.41	14.04
684.55	0.00
684.68	9.36
684.82	72.56
684.96	30.43
685.09	28.09
685.23	77.24
685.37	9.36
685.50	49.15
685.64	60.85
685.78	0.00
685.91	39.79
686.05	74.90
686.19	60.85
686.32	124.05
686.46	4.68
686.60	0.00
686.73	56.17
686.87	60.85
687.01	58.51
687.14	23.41
687.28	16.38
687.42	53.83
687.55	0.00
687.69	14.04
687.82	4.68
687.96	42.13
688.10	46.81
688.23	35.11
688.37	67.88
688.50	58.51
688.64	49.15
688.78	86.60
688.91	56.17
689.05	51.49
689.18	51.49
689.32	67.88
689.46	39.79
689.59	0.00
689.73	4.68
689.86	0.00
690.00	39.79
690.13	37.45
690.27	65.54
690.41	56.17
690.54	44.47
690.68	79.58
690.81	51.49
690.95	35.11
691.08	7.02
691.22	58.51
691.35	18.72
691.49	53.83
691.62	7.02
691.76	0.00
691.89	32.77
692.03	7.02
692.16	2.34
692.30	63.19
692.43	77.24
692.57	28.09
692.70	105.32
692.84	0.00
692.97	37.45
693.11	42.13
693.24	4.68
693.38	9.36
693.51	70.22
693.65	44.47
693.78	0.00
693.92	65.54
694.05	70.22
694.19	42.13
694.32	56.17
694.45	0.00
694.59	67.88
694.72	0.00
694.86	0.00
694.99	0.00
695.13	60.85
695.26	42.13
695.39	46.81
695.53	84.26
695.66	14.04
695.80	9.36
695.93	11.70
696.07	79.58
696.20	42.13
696.33	0.00
696.47	53.83
696.60	25.75
696.73	18.72
696.87	0.00
697.00	107.66
697.14	0.00
697.27	70.22
697.40	60.85
697.54	84.26
697.67	53.83
697.80	51.49
697.94	0.00
698.07	37.45
698.21	14.04
698.34	0.00
698.47	2.34
698.61	100.64
698.74	11.70
698.87	81.92
699.01	30.43
699.14	42.13
699.27	0.00
699.40	63.19
699.54	0.00
699.67	9.36
699.80	18.72
699.94	2.34
700.07	16.38
700.20	0.00
700.34	70.22
700.47	46.81
700.60	49.15
700.73	0.00
700.87	18.72
701.00	77.24
701.13	49.15
701.26	35.11
701.40	44.47
701.53	74.90
701.66	25.75
701.79	70.22
701.93	63.19
702.06	95.96
702.19	56.17
702.32	60.85
702.46	25.75
702.59	42.13
702.72	25.75
702.85	25.75
702.99	44.47
703.12	28.09
703.25	0.00
703.38	0.00
703.51	0.00
703.65	16.38
703.78	67.88
703.91	23.41
704.04	91.28
704.17	72.56
704.31	7.02
704.44	114.69
704.57	63.19
704.70	21.06
704.83	0.00
704.96	42.13
705.10	53.83
705.23	49.15
>>>>>End Processed Spectral Data<<<<<
