SpectraSuite Data File
++++++++++++++++++++++++++++++++++++
Date: Fri Oct 04 12:13:32 GMT-05:00 2013
User: price-jones
Dark Spectrum Present: No
Reference Spectrum Present: No
Number of Sampled Component Spectra: 1
Spectrometers: USB2+H05261
Integration Time (usec): 10000 (USB2+H05261)
Spectra Averaged: 1 (USB2+H05261)
Boxcar Smoothing: 0 (USB2+H05261)
Correct for Electrical Dark: No (USB2+H05261)
Strobe/Lamp Enabled: No (USB2+H05261)
Correct for Detector Non-linearity: No (USB2+H05261)
Correct for Stray Light: No (USB2+H05261)
Number of Pixels in Processed Spectrum: 2048
>>>>>Begin Processed Spectral Data<<<<<
365.73	56.17
365.92	56.17
366.12	56.17
366.32	0.00
366.52	0.00
366.72	0.00
366.91	0.00
367.11	0.00
367.31	0.00
367.51	0.00
367.70	0.00
367.90	0.00
368.10	0.00
368.30	0.00
368.49	0.00
368.69	0.00
368.89	0.00
369.09	0.00
369.28	0.00
369.48	0.00
369.68	0.00
369.87	0.00
370.07	0.00
370.27	0.00
370.47	0.00
370.66	0.00
370.86	0.00
371.06	0.00
371.25	0.00
371.45	9.36
371.65	9.36
371.84	58.51
372.04	0.00
372.24	0.00
372.44	4.68
372.63	0.00
372.83	30.43
373.03	0.00
373.22	0.00
373.42	70.22
373.62	44.47
373.81	9.36
374.01	25.75
374.21	0.00
374.40	35.11
374.60	25.75
374.79	14.04
374.99	58.51
375.19	9.36
375.38	0.00
375.58	0.00
375.78	53.83
375.97	63.19
376.17	28.09
376.37	2.34
376.56	0.00
376.76	72.56
376.95	46.81
377.15	14.04
377.35	4.68
377.54	58.51
377.74	42.13
377.93	79.58
378.13	56.17
378.33	0.00
378.52	11.70
378.72	32.77
378.91	21.06
379.11	58.51
379.31	91.28
379.50	21.06
379.70	0.00
379.89	39.79
380.09	49.15
380.28	0.00
380.48	119.37
380.68	46.81
380.87	0.00
381.07	32.77
381.26	14.04
381.46	28.09
381.65	18.72
381.85	14.04
382.04	0.00
382.24	44.47
382.43	0.00
382.63	0.00
382.83	9.36
383.02	65.54
383.22	86.60
383.41	11.70
383.61	25.75
383.80	28.09
384.00	39.79
384.19	0.00
384.39	84.26
384.58	100.64
384.78	9.36
384.97	16.38
385.17	25.75
385.36	0.00
385.56	18.72
385.75	9.36
385.95	9.36
386.14	11.70
386.34	65.54
386.53	25.75
386.72	0.00
386.92	39.79
387.11	0.00
387.31	0.00
387.50	0.00
387.70	44.47
387.89	88.94
388.09	39.79
388.28	2.34
388.48	7.02
388.67	25.75
388.86	0.00
389.06	49.15
389.25	39.79
389.45	30.43
389.64	35.11
389.84	16.38
390.03	51.49
390.22	9.36
390.42	11.70
390.61	0.00
390.81	4.68
391.00	42.13
391.19	7.02
391.39	0.00
391.58	2.34
391.78	32.77
391.97	0.00
392.16	0.00
392.36	21.06
392.55	58.51
392.75	18.72
392.94	0.00
393.13	0.00
393.33	0.00
393.52	0.00
393.71	88.94
393.91	0.00
394.10	46.81
394.29	11.70
394.49	0.00
394.68	35.11
394.88	32.77
395.07	46.81
395.26	18.72
395.46	49.15
395.65	21.06
395.84	37.45
396.04	65.54
396.23	23.41
396.42	58.51
396.62	30.43
396.81	23.41
397.00	0.00
397.19	0.00
397.39	28.09
397.58	53.83
397.77	14.04
397.97	2.34
398.16	0.00
398.35	44.47
398.55	0.00
398.74	0.00
398.93	39.79
399.12	4.68
399.32	14.04
399.51	30.43
399.70	60.85
399.90	14.04
400.09	21.06
400.28	74.90
400.47	14.04
400.67	72.56
400.86	16.38
401.05	0.00
401.24	0.00
401.44	65.54
401.63	51.49
401.82	81.92
402.01	2.34
402.21	0.00
402.40	0.00
402.59	37.45
402.78	0.00
402.97	74.90
403.17	65.54
403.36	0.00
403.55	58.51
403.74	84.26
403.93	58.51
404.13	25.75
404.32	0.00
404.51	0.00
404.70	0.00
404.89	14.04
405.09	44.47
405.28	21.06
405.47	0.00
405.66	30.43
405.85	0.00
406.05	0.00
406.24	63.19
406.43	67.88
406.62	21.06
406.81	21.06
407.00	7.02
407.20	0.00
407.39	102.98
407.58	37.45
407.77	74.90
407.96	18.72
408.15	65.54
408.34	44.47
408.54	0.00
408.73	0.00
408.92	37.45
409.11	30.43
409.30	0.00
409.49	84.26
409.68	2.34
409.87	46.81
410.07	0.00
410.26	4.68
410.45	25.75
410.64	0.00
410.83	2.34
411.02	0.00
411.21	18.72
411.40	0.00
411.59	16.38
411.78	60.85
411.98	0.00
412.17	128.73
412.36	46.81
412.55	119.37
412.74	30.43
412.93	0.00
413.12	72.56
413.31	16.38
413.50	28.09
413.69	0.00
413.88	30.43
414.07	79.58
414.26	18.72
414.45	0.00
414.64	32.77
414.83	25.75
415.02	56.17
415.22	16.38
415.41	0.00
415.60	14.04
415.79	35.11
415.98	65.54
416.17	16.38
416.36	14.04
416.55	0.00
416.74	79.58
416.93	60.85
417.12	0.00
417.31	14.04
417.50	53.83
417.69	67.88
417.88	98.30
418.07	53.83
418.26	35.11
418.45	114.69
418.64	0.00
418.83	0.00
419.02	21.06
419.21	46.81
419.39	0.00
419.58	42.13
419.77	30.43
419.96	56.17
420.15	0.00
420.34	21.06
420.53	14.04
420.72	0.00
420.91	39.79
421.10	21.06
421.29	0.00
421.48	60.85
421.67	37.45
421.86	77.24
422.05	112.35
422.24	37.45
422.43	63.19
422.61	32.77
422.80	30.43
422.99	0.00
423.18	46.81
423.37	67.88
423.56	0.00
423.75	0.00
423.94	28.09
424.13	4.68
424.32	121.71
424.50	23.41
424.69	7.02
424.88	0.00
425.07	23.41
425.26	88.94
425.45	0.00
425.64	16.38
425.83	4.68
426.01	21.06
426.20	0.00
426.39	74.90
426.58	7.02
426.77	18.72
426.96	14.04
427.15	25.75
427.33	65.54
427.52	81.92
427.71	67.88
427.90	95.96
428.09	67.88
428.28	7.02
428.46	53.83
428.65	49.15
428.84	35.11
429.03	51.49
429.22	28.09
429.40	21.06
429.59	84.26
429.78	44.47
429.97	0.00
430.16	0.00
430.34	28.09
430.53	0.00
430.72	23.41
430.91	84.26
431.10	42.13
431.28	0.00
431.47	72.56
431.66	67.88
431.85	0.00
432.03	0.00
432.22	67.88
432.41	51.49
432.60	56.17
432.79	77.24
432.97	0.00
433.16	16.38
433.35	39.79
433.54	63.19
433.72	95.96
433.91	86.60
434.10	16.38
434.28	63.19
434.47	0.00
434.66	39.79
434.85	42.13
435.03	72.56
435.22	37.45
435.41	4.68
435.59	49.15
435.78	44.47
435.97	7.02
436.16	49.15
436.34	16.38
436.53	37.45
436.72	0.00
436.90	74.90
437.09	102.98
437.28	16.38
437.46	49.15
437.65	7.02
437.84	67.88
438.02	0.00
438.21	28.09
438.40	35.11
438.58	46.81
438.77	39.79
438.96	49.15
439.14	84.26
439.33	0.00
439.52	100.64
439.70	72.56
439.89	25.75
440.08	56.17
440.26	70.22
440.45	2.34
440.63	4.68
440.82	74.90
441.01	28.09
441.19	46.81
441.38	32.77
441.57	72.56
441.75	72.56
441.94	0.00
442.12	23.41
442.31	18.72
442.50	0.00
442.68	70.22
442.87	58.51
443.05	37.45
443.24	0.00
443.43	65.54
443.61	39.79
443.80	77.24
443.98	60.85
444.17	53.83
444.35	79.58
444.54	65.54
444.73	37.45
444.91	14.04
445.10	0.00
445.28	0.00
445.47	14.04
445.65	16.38
445.84	0.00
446.02	21.06
446.21	32.77
446.39	2.34
446.58	58.51
446.77	14.04
446.95	0.00
447.14	86.60
447.32	84.26
447.51	65.54
447.69	100.64
447.88	18.72
448.06	0.00
448.25	79.58
448.43	0.00
448.62	0.00
448.80	63.19
448.99	0.00
449.17	93.62
449.36	65.54
449.54	91.28
449.73	102.98
449.91	58.51
450.10	14.04
450.28	2.34
450.46	46.81
450.65	98.30
450.83	65.54
451.02	0.00
451.20	37.45
451.39	0.00
451.57	0.00
451.76	32.77
451.94	0.00
452.13	2.34
452.31	18.72
452.49	37.45
452.68	42.13
452.86	23.41
453.05	21.06
453.23	2.34
453.42	105.32
453.60	0.00
453.78	0.00
453.97	100.64
454.15	42.13
454.34	49.15
454.52	37.45
454.70	65.54
454.89	0.00
455.07	46.81
455.26	0.00
455.44	0.00
455.62	14.04
455.81	37.45
455.99	49.15
456.17	56.17
456.36	70.22
456.54	14.04
456.73	114.69
456.91	53.83
457.09	21.06
457.28	74.90
457.46	25.75
457.64	56.17
457.83	58.51
458.01	53.83
458.19	79.58
458.38	37.45
458.56	32.77
458.74	58.51
458.93	39.79
459.11	67.88
459.29	23.41
459.48	25.75
459.66	14.04
459.84	7.02
460.03	49.15
460.21	98.30
460.39	0.00
460.57	70.22
460.76	0.00
460.94	0.00
461.12	37.45
461.31	9.36
461.49	18.72
461.67	14.04
461.85	0.00
462.04	11.70
462.22	189.58
462.40	11.70
462.59	37.45
462.77	0.00
462.95	0.00
463.13	21.06
463.32	67.88
463.50	56.17
463.68	7.02
463.86	32.77
464.05	0.00
464.23	39.79
464.41	0.00
464.59	0.00
464.78	72.56
464.96	0.00
465.14	98.30
465.32	23.41
465.50	7.02
465.69	56.17
465.87	16.38
466.05	21.06
466.23	0.00
466.41	21.06
466.60	37.45
466.78	7.02
466.96	39.79
467.14	9.36
467.32	46.81
467.51	0.00
467.69	51.49
467.87	2.34
468.05	77.24
468.23	14.04
468.41	0.00
468.60	21.06
468.78	35.11
468.96	35.11
469.14	4.68
469.32	42.13
469.50	21.06
469.69	70.22
469.87	0.00
470.05	0.00
470.23	35.11
470.41	0.00
470.59	56.17
470.77	32.77
470.95	21.06
471.14	63.19
471.32	21.06
471.50	86.60
471.68	60.85
471.86	2.34
472.04	79.58
472.22	51.49
472.40	0.00
472.58	16.38
472.77	53.83
472.95	0.00
473.13	42.13
473.31	25.75
473.49	74.90
473.67	72.56
473.85	44.47
474.03	23.41
474.21	30.43
474.39	58.51
474.57	9.36
474.75	107.66
474.93	35.11
475.12	0.00
475.30	58.51
475.48	0.00
475.66	21.06
475.84	0.00
476.02	67.88
476.20	0.00
476.38	25.75
476.56	88.94
476.74	60.85
476.92	0.00
477.10	37.45
477.28	44.47
477.46	95.96
477.64	53.83
477.82	0.00
478.00	0.00
478.18	2.34
478.36	0.00
478.54	16.38
478.72	30.43
478.90	9.36
479.08	0.00
479.26	11.70
479.44	46.81
479.62	42.13
479.80	49.15
479.98	58.51
480.16	51.49
480.34	0.00
480.52	0.00
480.70	30.43
480.88	30.43
481.06	18.72
481.24	0.00
481.41	0.00
481.59	2.34
481.77	42.13
481.95	93.62
482.13	119.37
482.31	53.83
482.49	65.54
482.67	11.70
482.85	49.15
483.03	88.94
483.21	53.83
483.39	39.79
483.57	100.64
483.74	28.09
483.92	77.24
484.10	0.00
484.28	79.58
484.46	16.38
484.64	0.00
484.82	93.62
485.00	9.36
485.18	63.19
485.35	70.22
485.53	11.70
485.71	30.43
485.89	91.28
486.07	25.75
486.25	67.88
486.43	46.81
486.61	77.24
486.78	37.45
486.96	0.00
487.14	49.15
487.32	0.00
487.50	32.77
487.68	42.13
487.85	25.75
488.03	72.56
488.21	0.00
488.39	9.36
488.57	18.72
488.75	46.81
488.92	60.85
489.10	18.72
489.28	65.54
489.46	0.00
489.64	0.00
489.81	42.13
489.99	84.26
490.17	0.00
490.35	63.19
490.53	0.00
490.70	18.72
490.88	11.70
491.06	23.41
491.24	81.92
491.41	0.00
491.59	70.22
491.77	98.30
491.95	32.77
492.13	4.68
492.30	86.60
492.48	53.83
492.66	86.60
492.84	0.00
493.01	23.41
493.19	42.13
493.37	18.72
493.54	0.00
493.72	30.43
493.90	51.49
494.08	37.45
494.25	72.56
494.43	84.26
494.61	7.02
494.79	74.90
494.96	79.58
495.14	72.56
495.32	0.00
495.49	131.07
495.67	37.45
495.85	9.36
496.02	39.79
496.20	58.51
496.38	77.24
496.55	18.72
496.73	100.64
496.91	65.54
497.09	147.45
497.26	46.81
497.44	0.00
497.62	46.81
497.79	32.77
497.97	30.43
498.14	0.00
498.32	124.05
498.50	30.43
498.67	2.34
498.85	30.43
499.03	56.17
499.20	35.11
499.38	65.54
499.56	0.00
499.73	81.92
499.91	7.02
500.08	42.13
500.26	35.11
500.44	25.75
500.61	4.68
500.79	0.00
500.97	14.04
501.14	65.54
501.32	79.58
501.49	25.75
501.67	114.69
501.84	95.96
502.02	124.05
502.20	35.11
502.37	72.56
502.55	28.09
502.72	16.38
502.90	93.62
503.07	14.04
503.25	0.00
503.43	16.38
503.60	32.77
503.78	2.34
503.95	42.13
504.13	46.81
504.30	84.26
504.48	56.17
504.65	7.02
504.83	79.58
505.01	46.81
505.18	42.13
505.36	14.04
505.53	72.56
505.71	46.81
505.88	72.56
506.06	65.54
506.23	42.13
506.41	72.56
506.58	0.00
506.76	63.19
506.93	105.32
507.11	0.00
507.28	98.30
507.46	0.00
507.63	98.30
507.81	42.13
507.98	60.85
508.16	0.00
508.33	53.83
508.50	35.11
508.68	86.60
508.85	77.24
509.03	14.04
509.20	0.00
509.38	28.09
509.55	30.43
509.73	58.51
509.90	98.30
510.08	77.24
510.25	0.00
510.42	30.43
510.60	0.00
510.77	65.54
510.95	0.00
511.12	93.62
511.30	2.34
511.47	37.45
511.64	28.09
511.82	60.85
511.99	56.17
512.17	0.00
512.34	28.09
512.51	0.00
512.69	37.45
512.86	84.26
513.04	124.05
513.21	56.17
513.38	86.60
513.56	16.38
513.73	28.09
513.90	18.72
514.08	44.47
514.25	112.35
514.43	138.09
514.60	0.00
514.77	81.92
514.95	63.19
515.12	121.71
515.29	23.41
515.47	56.17
515.64	16.38
515.81	133.41
515.99	70.22
516.16	0.00
516.33	86.60
516.51	0.00
516.68	35.11
516.85	0.00
517.03	79.58
517.20	25.75
517.37	0.00
517.54	35.11
517.72	49.15
517.89	30.43
518.06	51.49
518.24	42.13
518.41	56.17
518.58	32.77
518.75	35.11
518.93	53.83
519.10	135.75
519.27	95.96
519.45	77.24
519.62	46.81
519.79	93.62
519.96	28.09
520.14	9.36
520.31	42.13
520.48	72.56
520.65	37.45
520.83	88.94
521.00	0.00
521.17	46.81
521.34	18.72
521.52	32.77
521.69	49.15
521.86	28.09
522.03	30.43
522.20	16.38
522.38	37.45
522.55	39.79
522.72	37.45
522.89	42.13
523.07	42.13
523.24	102.98
523.41	95.96
523.58	74.90
523.75	0.00
523.92	72.56
524.10	58.51
524.27	0.00
524.44	51.49
524.61	46.81
524.78	37.45
524.96	63.19
525.13	49.15
525.30	9.36
525.47	0.00
525.64	9.36
525.81	51.49
525.98	81.92
526.16	42.13
526.33	35.11
526.50	0.00
526.67	79.58
526.84	2.34
527.01	0.00
527.18	0.00
527.36	30.43
527.53	18.72
527.70	46.81
527.87	23.41
528.04	39.79
528.21	4.68
528.38	70.22
528.55	37.45
528.72	60.85
528.89	0.00
529.07	53.83
529.24	4.68
529.41	60.85
529.58	28.09
529.75	39.79
529.92	58.51
530.09	0.00
530.26	51.49
530.43	74.90
530.60	32.77
530.77	23.41
530.94	4.68
531.11	0.00
531.28	102.98
531.46	28.09
531.63	58.51
531.80	46.81
531.97	39.79
532.14	2.34
532.31	0.00
532.48	51.49
532.65	58.51
532.82	53.83
532.99	81.92
533.16	51.49
533.33	58.51
533.50	16.38
533.67	21.06
533.84	58.51
534.01	42.13
534.18	49.15
534.35	30.43
534.52	65.54
534.69	37.45
534.86	95.96
535.03	18.72
535.20	37.45
535.37	74.90
535.54	84.26
535.71	11.70
535.88	0.00
536.05	63.19
536.22	9.36
536.38	77.24
536.55	0.00
536.72	32.77
536.89	84.26
537.06	98.30
537.23	0.00
537.40	23.41
537.57	0.00
537.74	23.41
537.91	4.68
538.08	91.28
538.25	30.43
538.42	0.00
538.59	105.32
538.75	16.38
538.92	18.72
539.09	93.62
539.26	7.02
539.43	88.94
539.60	86.60
539.77	23.41
539.94	60.85
540.11	56.17
540.28	46.81
540.44	30.43
540.61	79.58
540.78	95.96
540.95	70.22
541.12	100.64
541.29	16.38
541.46	25.75
541.62	0.00
541.79	2.34
541.96	9.36
542.13	67.88
542.30	37.45
542.47	0.00
542.63	28.09
542.80	21.06
542.97	35.11
543.14	4.68
543.31	51.49
543.48	25.75
543.64	0.00
543.81	56.17
543.98	7.02
544.15	37.45
544.32	2.34
544.48	14.04
544.65	60.85
544.82	72.56
544.99	21.06
545.16	32.77
545.32	0.00
545.49	65.54
545.66	4.68
545.83	35.11
546.00	65.54
546.16	0.00
546.33	0.00
546.50	88.94
546.67	0.00
546.83	107.66
547.00	16.38
547.17	84.26
547.34	65.54
547.50	0.00
547.67	39.79
547.84	37.45
548.00	102.98
548.17	0.00
548.34	14.04
548.51	91.28
548.67	32.77
548.84	16.38
549.01	32.77
549.18	63.19
549.34	0.00
549.51	42.13
549.68	14.04
549.84	70.22
550.01	7.02
550.18	21.06
550.34	58.51
550.51	14.04
550.68	44.47
550.84	4.68
551.01	53.83
551.18	0.00
551.34	79.58
551.51	0.00
551.68	21.06
551.84	49.15
552.01	56.17
552.18	93.62
552.34	44.47
552.51	70.22
552.68	0.00
552.84	21.06
553.01	0.00
553.18	93.62
553.34	35.11
553.51	18.72
553.67	93.62
553.84	63.19
554.01	128.73
554.17	11.70
554.34	37.45
554.51	124.05
554.67	51.49
554.84	67.88
555.00	11.70
555.17	11.70
555.33	100.64
555.50	37.45
555.67	70.22
555.83	9.36
556.00	14.04
556.16	79.58
556.33	91.28
556.50	46.81
556.66	23.41
556.83	124.05
556.99	9.36
557.16	18.72
557.32	84.26
557.49	81.92
557.65	0.00
557.82	0.00
557.98	77.24
558.15	91.28
558.32	16.38
558.48	11.70
558.65	35.11
558.81	88.94
558.98	60.85
559.14	93.62
559.31	131.07
559.47	11.70
559.64	77.24
559.80	46.81
559.97	53.83
560.13	2.34
560.30	42.13
560.46	42.13
560.63	72.56
560.79	0.00
560.96	49.15
561.12	21.06
561.29	39.79
561.45	42.13
561.61	126.39
561.78	42.13
561.94	4.68
562.11	30.43
562.27	0.00
562.44	112.35
562.60	7.02
562.77	7.02
562.93	7.02
563.10	72.56
563.26	51.49
563.42	46.81
563.59	25.75
563.75	0.00
563.92	91.28
564.08	39.79
564.24	44.47
564.41	9.36
564.57	23.41
564.74	117.03
564.90	93.62
565.07	9.36
565.23	44.47
565.39	0.00
565.56	93.62
565.72	42.13
565.88	25.75
566.05	39.79
566.21	11.70
566.38	25.75
566.54	58.51
566.70	18.72
566.87	35.11
567.03	81.92
567.19	39.79
567.36	84.26
567.52	77.24
567.68	14.04
567.85	56.17
568.01	4.68
568.17	0.00
568.34	42.13
568.50	65.54
568.66	63.19
568.83	18.72
568.99	46.81
569.15	114.69
569.32	98.30
569.48	117.03
569.64	39.79
569.81	30.43
569.97	0.00
570.13	14.04
570.30	28.09
570.46	0.00
570.62	18.72
570.78	30.43
570.95	4.68
571.11	51.49
571.27	25.75
571.43	56.17
571.60	79.58
571.76	112.35
571.92	25.75
572.09	51.49
572.25	0.00
572.41	88.94
572.57	35.11
572.74	86.60
572.90	28.09
573.06	72.56
573.22	32.77
573.38	0.00
573.55	28.09
573.71	28.09
573.87	7.02
574.03	53.83
574.20	100.64
574.36	86.60
574.52	70.22
574.68	0.00
574.84	2.34
575.01	56.17
575.17	23.41
575.33	0.00
575.49	88.94
575.65	91.28
575.82	102.98
575.98	81.92
576.14	39.79
576.30	32.77
576.46	72.56
576.62	70.22
576.79	63.19
576.95	18.72
577.11	91.28
577.27	39.79
577.43	100.64
577.59	14.04
577.75	74.90
577.92	63.19
578.08	0.00
578.24	0.00
578.40	0.00
578.56	7.02
578.72	39.79
578.88	4.68
579.04	60.85
579.21	72.56
579.37	46.81
579.53	0.00
579.69	49.15
579.85	39.79
580.01	0.00
580.17	0.00
580.33	53.83
580.49	28.09
580.65	21.06
580.82	42.13
580.98	0.00
581.14	58.51
581.30	28.09
581.46	0.00
581.62	56.17
581.78	42.13
581.94	7.02
582.10	53.83
582.26	51.49
582.42	0.00
582.58	23.41
582.74	28.09
582.90	0.00
583.06	81.92
583.22	0.00
583.38	39.79
583.54	81.92
583.70	21.06
583.86	46.81
584.02	0.00
584.18	84.26
584.34	86.60
584.50	74.90
584.66	334.70
584.82	685.78
584.98	985.37
585.14	868.34
585.30	543.00
585.46	259.80
585.62	255.12
585.78	142.77
585.94	121.71
586.10	60.85
586.26	70.22
586.42	60.85
586.58	0.00
586.74	46.81
586.90	63.19
587.06	74.90
587.22	102.98
587.38	74.90
587.54	77.24
587.70	74.90
587.86	124.05
588.02	121.71
588.18	86.60
588.34	39.79
588.49	93.62
588.65	56.17
588.81	49.15
588.97	81.92
589.13	35.11
589.29	42.13
589.45	35.11
589.61	11.70
589.77	39.79
589.93	79.58
590.08	53.83
590.24	35.11
590.40	60.85
590.56	39.79
590.72	0.00
590.88	121.71
591.04	0.00
591.20	44.47
591.35	23.41
591.51	25.75
591.67	21.06
591.83	42.13
591.99	53.83
592.15	35.11
592.31	79.58
592.46	16.38
592.62	60.85
592.78	133.41
592.94	0.00
593.10	4.68
593.26	79.58
593.41	37.45
593.57	0.00
593.73	65.54
593.89	117.03
594.05	107.66
594.20	201.29
594.36	180.22
594.52	161.50
594.68	74.90
594.84	105.32
594.99	126.39
595.15	95.96
595.31	49.15
595.47	9.36
595.62	39.79
595.78	9.36
595.94	21.06
596.10	58.51
596.25	46.81
596.41	51.49
596.57	28.09
596.73	0.00
596.88	65.54
597.04	46.81
597.20	0.00
597.36	49.15
597.51	30.43
597.67	0.00
597.83	51.49
597.99	32.77
598.14	67.88
598.30	11.70
598.46	74.90
598.61	63.19
598.77	0.00
598.93	44.47
599.09	0.00
599.24	77.24
599.40	9.36
599.56	9.36
599.71	56.17
599.87	23.41
600.03	2.34
600.18	42.13
600.34	32.77
600.50	23.41
600.65	32.77
600.81	11.70
600.97	28.09
601.12	14.04
601.28	18.72
601.44	9.36
601.59	32.77
601.75	84.26
601.91	79.58
602.06	0.00
602.22	105.32
602.37	16.38
602.53	39.79
602.69	14.04
602.84	56.17
603.00	81.92
603.16	35.11
603.31	23.41
603.47	30.43
603.62	16.38
603.78	49.15
603.94	105.32
604.09	63.19
604.25	72.56
604.40	46.81
604.56	0.00
604.71	53.83
604.87	28.09
605.03	100.64
605.18	114.69
605.34	14.04
605.49	51.49
605.65	14.04
605.80	44.47
605.96	0.00
606.12	51.49
606.27	60.85
606.43	16.38
606.58	16.38
606.74	0.00
606.89	107.66
607.05	152.13
607.20	140.43
607.36	191.92
607.51	51.49
607.67	51.49
607.82	63.19
607.98	42.13
608.13	18.72
608.29	0.00
608.44	70.22
608.60	107.66
608.75	81.92
608.91	51.49
609.06	93.62
609.22	182.56
609.37	217.67
609.53	180.22
609.68	154.48
609.84	95.96
609.99	72.56
610.15	70.22
610.30	46.81
610.46	18.72
610.61	53.83
610.76	91.28
610.92	14.04
611.07	0.00
611.23	0.00
611.38	53.83
611.54	32.77
611.69	77.24
611.84	28.09
612.00	37.45
612.15	18.72
612.31	42.13
612.46	49.15
612.62	0.00
612.77	4.68
612.92	60.85
613.08	70.22
613.23	53.83
613.39	46.81
613.54	35.11
613.69	98.30
613.85	229.37
614.00	332.36
614.15	315.97
614.31	276.18
614.46	236.39
614.62	203.63
614.77	58.51
614.92	86.60
615.08	30.43
615.23	0.00
615.38	102.98
615.54	53.83
615.69	32.77
615.84	51.49
616.00	81.92
616.15	133.41
616.30	173.20
616.46	18.72
616.61	39.79
616.76	63.19
616.92	72.56
617.07	21.06
617.22	25.75
617.37	7.02
617.53	102.98
617.68	9.36
617.83	39.79
617.99	88.94
618.14	53.83
618.29	46.81
618.45	0.00
618.60	0.00
618.75	51.49
618.90	110.01
619.06	100.64
619.21	65.54
619.36	100.64
619.51	0.00
619.67	11.70
619.82	46.81
619.97	37.45
620.12	60.85
620.28	0.00
620.43	60.85
620.58	0.00
620.73	77.24
620.89	0.00
621.04	49.15
621.19	105.32
621.34	16.38
621.49	56.17
621.65	32.77
621.80	128.73
621.95	133.41
622.10	72.56
622.25	88.94
622.41	42.13
622.56	58.51
622.71	56.17
622.86	49.15
623.01	42.13
623.16	0.00
623.32	30.43
623.47	21.06
623.62	39.79
623.77	14.04
623.92	23.41
624.07	14.04
624.23	0.00
624.38	51.49
624.53	2.34
624.68	16.38
624.83	49.15
624.98	121.71
625.13	60.85
625.29	0.00
625.44	9.36
625.59	0.00
625.74	56.17
625.89	67.88
626.04	0.00
626.19	77.24
626.34	121.71
626.49	168.52
626.65	173.20
626.80	114.69
626.95	0.00
627.10	39.79
627.25	128.73
627.40	18.72
627.55	79.58
627.70	14.04
627.85	21.06
628.00	44.47
628.15	93.62
628.30	14.04
628.45	53.83
628.60	119.37
628.76	86.60
628.91	0.00
629.06	0.00
629.21	7.02
629.36	58.51
629.51	95.96
629.66	51.49
629.81	0.00
629.96	91.28
630.11	49.15
630.26	74.90
630.41	53.83
630.56	28.09
630.71	44.47
630.86	77.24
631.01	25.75
631.16	53.83
631.31	11.70
631.46	18.72
631.61	9.36
631.76	72.56
631.91	0.00
632.06	11.70
632.21	49.15
632.36	114.69
632.51	124.05
632.66	11.70
632.81	88.94
632.96	30.43
633.10	147.45
633.25	110.01
633.40	156.82
633.55	72.56
633.70	84.26
633.85	37.45
634.00	39.79
634.15	51.49
634.30	14.04
634.45	37.45
634.60	18.72
634.75	44.47
634.90	81.92
635.05	23.41
635.19	65.54
635.34	4.68
635.49	63.19
635.64	0.00
635.79	53.83
635.94	95.96
636.09	11.70
636.24	84.26
636.39	72.56
636.53	86.60
636.68	65.54
636.83	84.26
636.98	21.06
637.13	9.36
637.28	0.00
637.43	30.43
637.57	16.38
637.72	93.62
637.87	128.73
638.02	145.11
638.17	203.63
638.32	107.66
638.46	107.66
638.61	88.94
638.76	140.43
638.91	105.32
639.06	28.09
639.20	74.90
639.35	42.13
639.50	102.98
639.65	147.45
639.80	212.99
639.94	215.33
640.09	367.46
640.24	224.69
640.39	170.86
640.54	114.69
640.68	86.60
640.83	7.02
640.98	14.04
641.13	51.49
641.27	95.96
641.42	42.13
641.57	0.00
641.72	0.00
641.86	35.11
642.01	56.17
642.16	30.43
642.31	14.04
642.45	44.47
642.60	70.22
642.75	21.06
642.90	56.17
643.04	0.00
643.19	72.56
643.34	51.49
643.48	0.00
643.63	28.09
643.78	67.88
643.93	44.47
644.07	84.26
644.22	23.41
644.37	60.85
644.51	81.92
644.66	0.00
644.81	72.56
644.95	21.06
645.10	0.00
645.25	16.38
645.39	63.19
645.54	84.26
645.69	84.26
645.83	18.72
645.98	35.11
646.13	0.00
646.27	51.49
646.42	35.11
646.57	0.00
646.71	28.09
646.86	51.49
647.00	0.00
647.15	70.22
647.30	9.36
647.44	58.51
647.59	49.15
647.74	65.54
647.88	37.45
648.03	14.04
648.17	18.72
648.32	30.43
648.47	0.00
648.61	65.54
648.76	46.81
648.90	91.28
649.05	30.43
649.20	128.73
649.34	74.90
649.49	28.09
649.63	0.00
649.78	119.37
649.92	0.00
650.07	93.62
650.21	74.90
650.36	187.24
650.51	220.01
650.65	173.20
650.80	159.16
650.94	81.92
651.09	102.98
651.23	32.77
651.38	18.72
651.52	21.06
651.67	46.81
651.81	0.00
651.96	100.64
652.10	74.90
652.25	77.24
652.39	93.62
652.54	37.45
652.68	60.85
652.83	51.49
652.97	51.49
653.12	145.11
653.26	44.47
653.41	95.96
653.55	65.54
653.70	16.38
653.84	74.90
653.99	53.83
654.13	58.51
654.27	11.70
654.42	0.00
654.56	0.00
654.71	35.11
654.85	81.92
655.00	42.13
655.14	72.56
655.29	28.09
655.43	79.58
655.57	51.49
655.72	23.41
655.86	16.38
656.01	4.68
656.15	0.00
656.30	30.43
656.44	14.04
656.58	98.30
656.73	53.83
656.87	0.00
657.01	56.17
657.16	7.02
657.30	35.11
657.45	14.04
657.59	18.72
657.73	9.36
657.88	30.43
658.02	53.83
658.16	32.77
658.31	28.09
658.45	14.04
658.60	42.13
658.74	9.36
658.88	25.75
659.03	44.47
659.17	56.17
659.31	30.43
659.46	21.06
659.60	14.04
659.74	107.66
659.89	182.56
660.03	126.39
660.17	121.71
660.32	2.34
660.46	0.00
660.60	53.83
660.74	0.00
660.89	46.81
661.03	18.72
661.17	56.17
661.32	56.17
661.46	9.36
661.60	0.00
661.74	25.75
661.89	0.00
662.03	16.38
662.17	46.81
662.31	30.43
662.46	0.00
662.60	21.06
662.74	0.00
662.88	0.00
663.03	28.09
663.17	2.34
663.31	67.88
663.45	2.34
663.60	14.04
663.74	60.85
663.88	28.09
664.02	32.77
664.17	46.81
664.31	56.17
664.45	56.17
664.59	65.54
664.73	102.98
664.88	23.41
665.02	58.51
665.16	51.49
665.30	121.71
665.44	32.77
665.59	28.09
665.73	25.75
665.87	39.79
666.01	16.38
666.15	63.19
666.29	0.00
666.44	105.32
666.58	46.81
666.72	63.19
666.86	53.83
667.00	39.79
667.14	102.98
667.28	100.64
667.43	126.39
667.57	112.35
667.71	159.16
667.85	163.84
667.99	114.69
668.13	49.15
668.27	39.79
668.41	112.35
668.56	23.41
668.70	0.00
668.84	7.02
668.98	42.13
669.12	0.00
669.26	35.11
669.40	37.45
669.54	16.38
669.68	21.06
669.82	2.34
669.96	53.83
670.10	28.09
670.25	37.45
670.39	53.83
670.53	0.00
670.67	42.13
670.81	11.70
670.95	0.00
671.09	51.49
671.23	86.60
671.37	93.62
671.51	39.79
671.65	77.24
671.79	126.39
671.93	39.79
672.07	42.13
672.21	30.43
672.35	30.43
672.49	81.92
672.63	11.70
672.77	4.68
672.91	81.92
673.05	56.17
673.19	79.58
673.33	0.00
673.47	35.11
673.61	67.88
673.75	0.00
673.89	35.11
674.03	53.83
674.17	0.00
674.31	58.51
674.45	0.00
674.59	0.00
674.73	25.75
674.87	25.75
675.01	49.15
675.15	21.06
675.29	49.15
675.43	0.00
675.56	0.00
675.70	35.11
675.84	42.13
675.98	42.13
676.12	21.06
676.26	0.00
676.40	0.00
676.54	49.15
676.68	32.77
676.82	46.81
676.96	70.22
677.10	65.54
677.23	21.06
677.37	0.00
677.51	60.85
677.65	77.24
677.79	4.68
677.93	51.49
678.07	32.77
678.21	0.00
678.34	4.68
678.48	21.06
678.62	60.85
678.76	16.38
678.90	44.47
679.04	42.13
679.18	21.06
679.31	42.13
679.45	51.49
679.59	39.79
679.73	11.70
679.87	35.11
680.00	28.09
680.14	84.26
680.28	14.04
680.42	86.60
680.56	58.51
680.70	0.00
680.83	70.22
680.97	4.68
681.11	28.09
681.25	32.77
681.39	42.13
681.52	0.00
681.66	49.15
681.80	37.45
681.94	35.11
682.07	9.36
682.21	37.45
682.35	56.17
682.49	4.68
682.62	37.45
682.76	0.00
682.90	0.00
683.04	0.00
683.17	88.94
683.31	60.85
683.45	70.22
683.59	0.00
683.72	7.02
683.86	88.94
684.00	30.43
684.13	23.41
684.27	0.00
684.41	46.81
684.55	7.02
684.68	23.41
684.82	18.72
684.96	9.36
685.09	18.72
685.23	0.00
685.37	16.38
685.50	67.88
685.64	102.98
685.78	49.15
685.91	28.09
686.05	95.96
686.19	44.47
686.32	0.00
686.46	16.38
686.60	4.68
686.73	0.00
686.87	72.56
687.01	23.41
687.14	0.00
687.28	25.75
687.42	0.00
687.55	35.11
687.69	4.68
687.82	0.00
687.96	53.83
688.10	39.79
688.23	0.00
688.37	0.00
688.50	0.00
688.64	23.41
688.78	0.00
688.91	9.36
689.05	7.02
689.18	4.68
689.32	39.79
689.46	72.56
689.59	46.81
689.73	0.00
689.86	39.79
690.00	35.11
690.13	0.00
690.27	18.72
690.41	42.13
690.54	37.45
690.68	14.04
690.81	63.19
690.95	53.83
691.08	14.04
691.22	35.11
691.35	14.04
691.49	0.00
691.62	0.00
691.76	23.41
691.89	0.00
692.03	0.00
692.16	0.00
692.30	72.56
692.43	58.51
692.57	67.88
692.70	152.13
692.84	72.56
692.97	91.28
693.11	70.22
693.24	30.43
693.38	77.24
693.51	0.00
693.65	11.70
693.78	18.72
693.92	95.96
694.05	0.00
694.19	42.13
694.32	81.92
694.45	95.96
694.59	65.54
694.72	0.00
694.86	0.00
694.99	16.38
695.13	98.30
695.26	0.00
695.39	51.49
695.53	11.70
695.66	18.72
695.80	21.06
695.93	114.69
696.07	11.70
696.20	79.58
696.33	25.75
696.47	37.45
696.60	67.88
696.73	23.41
696.87	0.00
697.00	0.00
697.14	7.02
697.27	81.92
697.40	51.49
697.54	42.13
697.67	0.00
697.80	51.49
697.94	74.90
698.07	0.00
698.21	0.00
698.34	11.70
698.47	9.36
698.61	35.11
698.74	28.09
698.87	44.47
699.01	79.58
699.14	35.11
699.27	0.00
699.40	0.00
699.54	0.00
699.67	4.68
699.80	25.75
699.94	49.15
700.07	46.81
700.20	0.00
700.34	16.38
700.47	46.81
700.60	70.22
700.73	67.88
700.87	4.68
701.00	0.00
701.13	23.41
701.26	77.24
701.40	2.34
701.53	72.56
701.66	60.85
701.79	81.92
701.93	39.79
702.06	79.58
702.19	72.56
702.32	39.79
702.46	39.79
702.59	9.36
702.72	9.36
702.85	84.26
702.99	152.13
703.12	138.09
703.25	135.75
703.38	72.56
703.51	128.73
703.65	63.19
703.78	119.37
703.91	58.51
704.04	32.77
704.17	0.00
704.31	0.00
704.44	39.79
704.57	35.11
704.70	14.04
704.83	28.09
704.96	23.41
705.10	11.70
705.23	30.43
>>>>>End Processed Spectral Data<<<<<
