SpectraSuite Data File
++++++++++++++++++++++++++++++++++++
Date: Fri Oct 04 12:13:25 GMT-05:00 2013
User: price-jones
Dark Spectrum Present: No
Reference Spectrum Present: No
Number of Sampled Component Spectra: 1
Spectrometers: USB2+H05261
Integration Time (usec): 10000 (USB2+H05261)
Spectra Averaged: 1 (USB2+H05261)
Boxcar Smoothing: 0 (USB2+H05261)
Correct for Electrical Dark: No (USB2+H05261)
Strobe/Lamp Enabled: No (USB2+H05261)
Correct for Detector Non-linearity: No (USB2+H05261)
Correct for Stray Light: No (USB2+H05261)
Number of Pixels in Processed Spectrum: 2048
>>>>>Begin Processed Spectral Data<<<<<
365.73	0.00
365.92	0.00
366.12	0.00
366.32	0.00
366.52	0.00
366.72	0.00
366.91	0.00
367.11	0.00
367.31	0.00
367.51	0.00
367.70	0.00
367.90	0.00
368.10	0.00
368.30	0.00
368.49	0.00
368.69	0.00
368.89	0.00
369.09	0.00
369.28	0.00
369.48	0.00
369.68	0.00
369.87	0.00
370.07	0.00
370.27	0.00
370.47	0.00
370.66	0.00
370.86	0.00
371.06	0.00
371.25	0.00
371.45	0.00
371.65	44.47
371.84	42.13
372.04	0.00
372.24	0.00
372.44	49.15
372.63	74.90
372.83	28.09
373.03	95.96
373.22	30.43
373.42	14.04
373.62	0.00
373.81	74.90
374.01	102.98
374.21	51.49
374.40	18.72
374.60	72.56
374.79	0.00
374.99	32.77
375.19	53.83
375.38	25.75
375.58	49.15
375.78	9.36
375.97	53.83
376.17	0.00
376.37	0.00
376.56	0.00
376.76	18.72
376.95	0.00
377.15	16.38
377.35	9.36
377.54	25.75
377.74	60.85
377.93	44.47
378.13	0.00
378.33	2.34
378.52	0.00
378.72	18.72
378.91	51.49
379.11	16.38
379.31	0.00
379.50	9.36
379.70	65.54
379.89	0.00
380.09	0.00
380.28	25.75
380.48	37.45
380.68	0.00
380.87	23.41
381.07	37.45
381.26	7.02
381.46	0.00
381.65	35.11
381.85	53.83
382.04	49.15
382.24	2.34
382.43	0.00
382.63	0.00
382.83	46.81
383.02	0.00
383.22	0.00
383.41	0.00
383.61	0.00
383.80	39.79
384.00	60.85
384.19	0.00
384.39	0.00
384.58	0.00
384.78	4.68
384.97	18.72
385.17	44.47
385.36	53.83
385.56	28.09
385.75	58.51
385.95	11.70
386.14	37.45
386.34	4.68
386.53	32.77
386.72	18.72
386.92	46.81
387.11	0.00
387.31	42.13
387.50	84.26
387.70	9.36
387.89	42.13
388.09	0.00
388.28	0.00
388.48	4.68
388.67	0.00
388.86	30.43
389.06	53.83
389.25	0.00
389.45	0.00
389.64	0.00
389.84	35.11
390.03	42.13
390.22	58.51
390.42	0.00
390.61	0.00
390.81	0.00
391.00	67.88
391.19	58.51
391.39	0.00
391.58	14.04
391.78	0.00
391.97	21.06
392.16	46.81
392.36	49.15
392.55	18.72
392.75	49.15
392.94	56.17
393.13	14.04
393.33	0.00
393.52	14.04
393.71	18.72
393.91	0.00
394.10	0.00
394.29	51.49
394.49	4.68
394.68	51.49
394.88	0.00
395.07	51.49
395.26	9.36
395.46	51.49
395.65	98.30
395.84	117.03
396.04	110.01
396.23	56.17
396.42	25.75
396.62	37.45
396.81	42.13
397.00	0.00
397.19	0.00
397.39	63.19
397.58	18.72
397.77	9.36
397.97	39.79
398.16	0.00
398.35	32.77
398.55	16.38
398.74	35.11
398.93	0.00
399.12	18.72
399.32	16.38
399.51	0.00
399.70	14.04
399.90	14.04
400.09	46.81
400.28	30.43
400.47	145.11
400.67	32.77
400.86	42.13
401.05	72.56
401.24	0.00
401.44	0.00
401.63	56.17
401.82	0.00
402.01	0.00
402.21	58.51
402.40	42.13
402.59	0.00
402.78	35.11
402.97	32.77
403.17	23.41
403.36	56.17
403.55	0.00
403.74	63.19
403.93	2.34
404.13	7.02
404.32	42.13
404.51	53.83
404.70	63.19
404.89	18.72
405.09	105.32
405.28	18.72
405.47	84.26
405.66	0.00
405.85	42.13
406.05	25.75
406.24	21.06
406.43	0.00
406.62	16.38
406.81	21.06
407.00	18.72
407.20	0.00
407.39	67.88
407.58	30.43
407.77	60.85
407.96	58.51
408.15	0.00
408.34	18.72
408.54	0.00
408.73	16.38
408.92	16.38
409.11	72.56
409.30	39.79
409.49	0.00
409.68	11.70
409.87	21.06
410.07	0.00
410.26	0.00
410.45	11.70
410.64	67.88
410.83	0.00
411.02	0.00
411.21	0.00
411.40	4.68
411.59	0.00
411.78	25.75
411.98	53.83
412.17	51.49
412.36	0.00
412.55	25.75
412.74	0.00
412.93	37.45
413.12	28.09
413.31	56.17
413.50	0.00
413.69	53.83
413.88	30.43
414.07	0.00
414.26	4.68
414.45	35.11
414.64	93.62
414.83	0.00
415.02	72.56
415.22	110.01
415.41	51.49
415.60	42.13
415.79	32.77
415.98	0.00
416.17	138.09
416.36	2.34
416.55	7.02
416.74	131.07
416.93	117.03
417.12	102.98
417.31	21.06
417.50	117.03
417.69	37.45
417.88	0.00
418.07	0.00
418.26	0.00
418.45	42.13
418.64	9.36
418.83	49.15
419.02	86.60
419.21	60.85
419.39	51.49
419.58	32.77
419.77	60.85
419.96	0.00
420.15	0.00
420.34	58.51
420.53	65.54
420.72	2.34
420.91	0.00
421.10	0.00
421.29	0.00
421.48	0.00
421.67	0.00
421.86	35.11
422.05	0.00
422.24	0.00
422.43	63.19
422.61	0.00
422.80	74.90
422.99	0.00
423.18	0.00
423.37	0.00
423.56	21.06
423.75	44.47
423.94	0.00
424.13	16.38
424.32	0.00
424.50	0.00
424.69	72.56
424.88	79.58
425.07	2.34
425.26	91.28
425.45	39.79
425.64	49.15
425.83	0.00
426.01	4.68
426.20	39.79
426.39	0.00
426.58	0.00
426.77	30.43
426.96	0.00
427.15	0.00
427.33	35.11
427.52	7.02
427.71	58.51
427.90	2.34
428.09	42.13
428.28	84.26
428.46	88.94
428.65	0.00
428.84	79.58
429.03	0.00
429.22	77.24
429.40	2.34
429.59	21.06
429.78	32.77
429.97	84.26
430.16	14.04
430.34	56.17
430.53	63.19
430.72	84.26
430.91	35.11
431.10	53.83
431.28	72.56
431.47	4.68
431.66	18.72
431.85	56.17
432.03	53.83
432.22	74.90
432.41	21.06
432.60	4.68
432.79	0.00
432.97	0.00
433.16	4.68
433.35	46.81
433.54	67.88
433.72	42.13
433.91	0.00
434.10	44.47
434.28	56.17
434.47	145.11
434.66	21.06
434.85	0.00
435.03	84.26
435.22	0.00
435.41	56.17
435.59	46.81
435.78	23.41
435.97	0.00
436.16	35.11
436.34	35.11
436.53	0.00
436.72	60.85
436.90	46.81
437.09	0.00
437.28	0.00
437.46	35.11
437.65	0.00
437.84	0.00
438.02	42.13
438.21	53.83
438.40	18.72
438.58	25.75
438.77	37.45
438.96	58.51
439.14	60.85
439.33	9.36
439.52	11.70
439.70	21.06
439.89	0.00
440.08	46.81
440.26	0.00
440.45	63.19
440.63	9.36
440.82	23.41
441.01	95.96
441.19	91.28
441.38	16.38
441.57	11.70
441.75	0.00
441.94	46.81
442.12	77.24
442.31	0.00
442.50	35.11
442.68	0.00
442.87	9.36
443.05	44.47
443.24	0.00
443.43	49.15
443.61	56.17
443.80	14.04
443.98	0.00
444.17	0.00
444.35	37.45
444.54	84.26
444.73	9.36
444.91	67.88
445.10	23.41
445.28	77.24
445.47	49.15
445.65	0.00
445.84	46.81
446.02	74.90
446.21	0.00
446.39	0.00
446.58	72.56
446.77	0.00
446.95	112.35
447.14	14.04
447.32	18.72
447.51	0.00
447.69	0.00
447.88	81.92
448.06	51.49
448.25	18.72
448.43	0.00
448.62	14.04
448.80	70.22
448.99	88.94
449.17	56.17
449.36	42.13
449.54	81.92
449.73	46.81
449.91	51.49
450.10	0.00
450.28	21.06
450.46	0.00
450.65	72.56
450.83	9.36
451.02	18.72
451.20	0.00
451.39	28.09
451.57	77.24
451.76	56.17
451.94	74.90
452.13	2.34
452.31	0.00
452.49	86.60
452.68	7.02
452.86	46.81
453.05	44.47
453.23	11.70
453.42	86.60
453.60	32.77
453.78	0.00
453.97	0.00
454.15	0.00
454.34	0.00
454.52	0.00
454.70	28.09
454.89	9.36
455.07	28.09
455.26	32.77
455.44	42.13
455.62	88.94
455.81	18.72
455.99	39.79
456.17	53.83
456.36	0.00
456.54	51.49
456.73	30.43
456.91	79.58
457.09	65.54
457.28	0.00
457.46	67.88
457.64	0.00
457.83	56.17
458.01	28.09
458.19	84.26
458.38	86.60
458.56	46.81
458.74	16.38
458.93	53.83
459.11	63.19
459.29	51.49
459.48	0.00
459.66	0.00
459.84	0.00
460.03	18.72
460.21	53.83
460.39	4.68
460.57	79.58
460.76	35.11
460.94	0.00
461.12	51.49
461.31	93.62
461.49	37.45
461.67	18.72
461.85	84.26
462.04	49.15
462.22	117.03
462.40	56.17
462.59	28.09
462.77	81.92
462.95	72.56
463.13	2.34
463.32	30.43
463.50	79.58
463.68	58.51
463.86	74.90
464.05	44.47
464.23	93.62
464.41	39.79
464.59	0.00
464.78	42.13
464.96	14.04
465.14	0.00
465.32	32.77
465.50	25.75
465.69	81.92
465.87	53.83
466.05	0.00
466.23	0.00
466.41	117.03
466.60	53.83
466.78	35.11
466.96	21.06
467.14	32.77
467.32	112.35
467.51	49.15
467.69	95.96
467.87	32.77
468.05	32.77
468.23	46.81
468.41	72.56
468.60	14.04
468.78	0.00
468.96	39.79
469.14	28.09
469.32	11.70
469.50	81.92
469.69	42.13
469.87	9.36
470.05	0.00
470.23	93.62
470.41	42.13
470.59	93.62
470.77	44.47
470.95	70.22
471.14	95.96
471.32	28.09
471.50	21.06
471.68	30.43
471.86	32.77
472.04	91.28
472.22	53.83
472.40	0.00
472.58	2.34
472.77	46.81
472.95	49.15
473.13	44.47
473.31	63.19
473.49	7.02
473.67	46.81
473.85	70.22
474.03	4.68
474.21	23.41
474.39	58.51
474.57	51.49
474.75	67.88
474.93	81.92
475.12	0.00
475.30	23.41
475.48	32.77
475.66	81.92
475.84	0.00
476.02	93.62
476.20	107.66
476.38	81.92
476.56	65.54
476.74	72.56
476.92	16.38
477.10	0.00
477.28	35.11
477.46	77.24
477.64	98.30
477.82	37.45
478.00	30.43
478.18	14.04
478.36	0.00
478.54	49.15
478.72	49.15
478.90	58.51
479.08	74.90
479.26	21.06
479.44	100.64
479.62	42.13
479.80	35.11
479.98	0.00
480.16	39.79
480.34	95.96
480.52	4.68
480.70	72.56
480.88	44.47
481.06	2.34
481.24	14.04
481.41	18.72
481.59	79.58
481.77	100.64
481.95	39.79
482.13	0.00
482.31	49.15
482.49	93.62
482.67	84.26
482.85	79.58
483.03	42.13
483.21	95.96
483.39	81.92
483.57	114.69
483.74	0.00
483.92	49.15
484.10	0.00
484.28	7.02
484.46	9.36
484.64	60.85
484.82	21.06
485.00	67.88
485.18	30.43
485.35	28.09
485.53	42.13
485.71	7.02
485.89	0.00
486.07	4.68
486.25	0.00
486.43	44.47
486.61	65.54
486.78	4.68
486.96	37.45
487.14	16.38
487.32	32.77
487.50	46.81
487.68	14.04
487.85	37.45
488.03	35.11
488.21	0.00
488.39	23.41
488.57	58.51
488.75	11.70
488.92	16.38
489.10	0.00
489.28	7.02
489.46	21.06
489.64	4.68
489.81	53.83
489.99	88.94
490.17	0.00
490.35	84.26
490.53	32.77
490.70	53.83
490.88	91.28
491.06	14.04
491.24	117.03
491.41	0.00
491.59	42.13
491.77	30.43
491.95	0.00
492.13	91.28
492.30	21.06
492.48	119.37
492.66	35.11
492.84	98.30
493.01	42.13
493.19	21.06
493.37	16.38
493.54	0.00
493.72	35.11
493.90	88.94
494.08	102.98
494.25	32.77
494.43	25.75
494.61	51.49
494.79	11.70
494.96	51.49
495.14	32.77
495.32	32.77
495.49	84.26
495.67	42.13
495.85	63.19
496.02	14.04
496.20	49.15
496.38	79.58
496.55	49.15
496.73	11.70
496.91	35.11
497.09	18.72
497.26	65.54
497.44	28.09
497.62	72.56
497.79	9.36
497.97	28.09
498.14	28.09
498.32	0.00
498.50	86.60
498.67	51.49
498.85	58.51
499.03	18.72
499.20	74.90
499.38	49.15
499.56	30.43
499.73	84.26
499.91	53.83
500.08	79.58
500.26	46.81
500.44	42.13
500.61	30.43
500.79	70.22
500.97	37.45
501.14	77.24
501.32	56.17
501.49	65.54
501.67	74.90
501.84	58.51
502.02	0.00
502.20	44.47
502.37	0.00
502.55	93.62
502.72	28.09
502.90	49.15
503.07	79.58
503.25	95.96
503.43	28.09
503.60	0.00
503.78	37.45
503.95	35.11
504.13	2.34
504.30	51.49
504.48	44.47
504.65	56.17
504.83	23.41
505.01	7.02
505.18	32.77
505.36	16.38
505.53	49.15
505.71	77.24
505.88	58.51
506.06	32.77
506.23	0.00
506.41	14.04
506.58	72.56
506.76	4.68
506.93	16.38
507.11	63.19
507.28	9.36
507.46	56.17
507.63	28.09
507.81	0.00
507.98	42.13
508.16	67.88
508.33	56.17
508.50	0.00
508.68	28.09
508.85	67.88
509.03	67.88
509.20	49.15
509.38	28.09
509.55	0.00
509.73	23.41
509.90	65.54
510.08	25.75
510.25	23.41
510.42	32.77
510.60	51.49
510.77	0.00
510.95	0.00
511.12	0.00
511.30	79.58
511.47	51.49
511.64	37.45
511.82	58.51
511.99	112.35
512.17	65.54
512.34	0.00
512.51	23.41
512.69	58.51
512.86	95.96
513.04	63.19
513.21	39.79
513.38	37.45
513.56	30.43
513.73	0.00
513.90	42.13
514.08	21.06
514.25	79.58
514.43	60.85
514.60	35.11
514.77	100.64
514.95	32.77
515.12	9.36
515.29	0.00
515.47	0.00
515.64	35.11
515.81	23.41
515.99	53.83
516.16	0.00
516.33	67.88
516.51	0.00
516.68	46.81
516.85	63.19
517.03	88.94
517.20	0.00
517.37	84.26
517.54	149.79
517.72	49.15
517.89	28.09
518.06	79.58
518.24	114.69
518.41	32.77
518.58	37.45
518.75	28.09
518.93	0.00
519.10	67.88
519.27	37.45
519.45	86.60
519.62	23.41
519.79	58.51
519.96	28.09
520.14	0.00
520.31	32.77
520.48	93.62
520.65	9.36
520.83	56.17
521.00	51.49
521.17	77.24
521.34	79.58
521.52	39.79
521.69	0.00
521.86	77.24
522.03	35.11
522.20	58.51
522.38	0.00
522.55	44.47
522.72	51.49
522.89	95.96
523.07	70.22
523.24	35.11
523.41	114.69
523.58	0.00
523.75	11.70
523.92	14.04
524.10	30.43
524.27	98.30
524.44	56.17
524.61	37.45
524.78	32.77
524.96	114.69
525.13	46.81
525.30	63.19
525.47	25.75
525.64	79.58
525.81	0.00
525.98	0.00
526.16	0.00
526.33	0.00
526.50	0.00
526.67	28.09
526.84	0.00
527.01	65.54
527.18	28.09
527.36	35.11
527.53	39.79
527.70	35.11
527.87	23.41
528.04	51.49
528.21	105.32
528.38	16.38
528.55	91.28
528.72	86.60
528.89	49.15
529.07	2.34
529.24	0.00
529.41	102.98
529.58	44.47
529.75	56.17
529.92	60.85
530.09	77.24
530.26	63.19
530.43	60.85
530.60	7.02
530.77	0.00
530.94	42.13
531.11	25.75
531.28	74.90
531.46	56.17
531.63	81.92
531.80	0.00
531.97	0.00
532.14	37.45
532.31	74.90
532.48	42.13
532.65	70.22
532.82	23.41
532.99	35.11
533.16	46.81
533.33	51.49
533.50	9.36
533.67	93.62
533.84	88.94
534.01	2.34
534.18	72.56
534.35	16.38
534.52	23.41
534.69	2.34
534.86	70.22
535.03	110.01
535.20	72.56
535.37	18.72
535.54	42.13
535.71	11.70
535.88	81.92
536.05	4.68
536.22	67.88
536.38	32.77
536.55	74.90
536.72	18.72
536.89	46.81
537.06	70.22
537.23	105.32
537.40	0.00
537.57	60.85
537.74	53.83
537.91	0.00
538.08	30.43
538.25	65.54
538.42	126.39
538.59	16.38
538.75	2.34
538.92	49.15
539.09	32.77
539.26	0.00
539.43	51.49
539.60	107.66
539.77	63.19
539.94	0.00
540.11	65.54
540.28	37.45
540.44	2.34
540.61	21.06
540.78	0.00
540.95	114.69
541.12	25.75
541.29	56.17
541.46	60.85
541.62	18.72
541.79	0.00
541.96	0.00
542.13	18.72
542.30	32.77
542.47	63.19
542.63	39.79
542.80	0.00
542.97	0.00
543.14	65.54
543.31	77.24
543.48	133.41
543.64	81.92
543.81	77.24
543.98	18.72
544.15	0.00
544.32	0.00
544.48	53.83
544.65	14.04
544.82	37.45
544.99	142.77
545.16	46.81
545.32	0.00
545.49	28.09
545.66	37.45
545.83	79.58
546.00	0.00
546.16	25.75
546.33	25.75
546.50	4.68
546.67	44.47
546.83	9.36
547.00	25.75
547.17	72.56
547.34	53.83
547.50	0.00
547.67	70.22
547.84	35.11
548.00	81.92
548.17	98.30
548.34	42.13
548.51	0.00
548.67	0.00
548.84	58.51
549.01	70.22
549.18	67.88
549.34	72.56
549.51	44.47
549.68	32.77
549.84	42.13
550.01	37.45
550.18	86.60
550.34	81.92
550.51	42.13
550.68	72.56
550.84	42.13
551.01	32.77
551.18	0.00
551.34	58.51
551.51	4.68
551.68	60.85
551.84	25.75
552.01	7.02
552.18	0.00
552.34	0.00
552.51	60.85
552.68	0.00
552.84	11.70
553.01	21.06
553.18	30.43
553.34	28.09
553.51	35.11
553.67	128.73
553.84	65.54
554.01	65.54
554.17	0.00
554.34	124.05
554.51	51.49
554.67	65.54
554.84	46.81
555.00	70.22
555.17	126.39
555.33	9.36
555.50	49.15
555.67	56.17
555.83	124.05
556.00	72.56
556.16	49.15
556.33	37.45
556.50	65.54
556.66	21.06
556.83	11.70
556.99	42.13
557.16	58.51
557.32	7.02
557.49	23.41
557.65	56.17
557.82	42.13
557.98	51.49
558.15	0.00
558.32	49.15
558.48	0.00
558.65	46.81
558.81	65.54
558.98	28.09
559.14	11.70
559.31	105.32
559.47	56.17
559.64	23.41
559.80	77.24
559.97	53.83
560.13	119.37
560.30	65.54
560.46	53.83
560.63	74.90
560.79	23.41
560.96	30.43
561.12	67.88
561.29	60.85
561.45	21.06
561.61	100.64
561.78	95.96
561.94	46.81
562.11	51.49
562.27	35.11
562.44	84.26
562.60	60.85
562.77	86.60
562.93	21.06
563.10	63.19
563.26	60.85
563.42	0.00
563.59	35.11
563.75	100.64
563.92	65.54
564.08	53.83
564.24	49.15
564.41	28.09
564.57	84.26
564.74	25.75
564.90	131.07
565.07	35.11
565.23	67.88
565.39	58.51
565.56	56.17
565.72	77.24
565.88	107.66
566.05	81.92
566.21	44.47
566.38	23.41
566.54	74.90
566.70	30.43
566.87	7.02
567.03	105.32
567.19	4.68
567.36	72.56
567.52	30.43
567.68	60.85
567.85	46.81
568.01	53.83
568.17	42.13
568.34	56.17
568.50	0.00
568.66	112.35
568.83	81.92
568.99	91.28
569.15	112.35
569.32	65.54
569.48	0.00
569.64	60.85
569.81	0.00
569.97	23.41
570.13	0.00
570.30	37.45
570.46	49.15
570.62	0.00
570.78	49.15
570.95	0.00
571.11	14.04
571.27	77.24
571.43	65.54
571.60	110.01
571.76	65.54
571.92	14.04
572.09	72.56
572.25	11.70
572.41	23.41
572.57	37.45
572.74	44.47
572.90	9.36
573.06	91.28
573.22	93.62
573.38	0.00
573.55	0.00
573.71	107.66
573.87	84.26
574.03	58.51
574.20	53.83
574.36	53.83
574.52	35.11
574.68	25.75
574.84	23.41
575.01	72.56
575.17	4.68
575.33	51.49
575.49	46.81
575.65	9.36
575.82	46.81
575.98	4.68
576.14	58.51
576.30	65.54
576.46	72.56
576.62	58.51
576.79	84.26
576.95	46.81
577.11	39.79
577.27	18.72
577.43	0.00
577.59	9.36
577.75	25.75
577.92	23.41
578.08	21.06
578.24	72.56
578.40	49.15
578.56	65.54
578.72	81.92
578.88	79.58
579.04	21.06
579.21	16.38
579.37	32.77
579.53	86.60
579.69	0.00
579.85	46.81
580.01	44.47
580.17	44.47
580.33	0.00
580.49	86.60
580.65	11.70
580.82	67.88
580.98	44.47
581.14	30.43
581.30	63.19
581.46	95.96
581.62	88.94
581.78	56.17
581.94	102.98
582.10	11.70
582.26	58.51
582.42	74.90
582.58	58.51
582.74	46.81
582.90	60.85
583.06	0.00
583.22	0.00
583.38	37.45
583.54	0.00
583.70	11.70
583.86	79.58
584.02	84.26
584.18	25.75
584.34	63.19
584.50	23.41
584.66	0.00
584.82	60.85
584.98	112.35
585.14	145.11
585.30	0.00
585.46	60.85
585.62	81.92
585.78	81.92
585.94	149.79
586.10	100.64
586.26	30.43
586.42	110.01
586.58	28.09
586.74	11.70
586.90	102.98
587.06	16.38
587.22	65.54
587.38	49.15
587.54	35.11
587.70	53.83
587.86	77.24
588.02	18.72
588.18	117.03
588.34	86.60
588.49	124.05
588.65	46.81
588.81	39.79
588.97	53.83
589.13	0.00
589.29	14.04
589.45	18.72
589.61	51.49
589.77	49.15
589.93	46.81
590.08	86.60
590.24	42.13
590.40	32.77
590.56	49.15
590.72	37.45
590.88	35.11
591.04	0.00
591.20	7.02
591.35	46.81
591.51	7.02
591.67	30.43
591.83	58.51
591.99	49.15
592.15	60.85
592.31	0.00
592.46	11.70
592.62	32.77
592.78	0.00
592.94	58.51
593.10	58.51
593.26	16.38
593.41	81.92
593.57	56.17
593.73	23.41
593.89	56.17
594.05	21.06
594.20	11.70
594.36	0.00
594.52	28.09
594.68	65.54
594.84	42.13
594.99	65.54
595.15	21.06
595.31	44.47
595.47	100.64
595.62	7.02
595.78	0.00
595.94	44.47
596.10	88.94
596.25	0.00
596.41	23.41
596.57	91.28
596.73	39.79
596.88	51.49
597.04	7.02
597.20	53.83
597.36	60.85
597.51	56.17
597.67	28.09
597.83	81.92
597.99	21.06
598.14	21.06
598.30	65.54
598.46	58.51
598.61	39.79
598.77	0.00
598.93	77.24
599.09	18.72
599.24	0.00
599.40	91.28
599.56	37.45
599.71	0.00
599.87	28.09
600.03	21.06
600.18	107.66
600.34	0.00
600.50	60.85
600.65	9.36
600.81	60.85
600.97	0.00
601.12	65.54
601.28	28.09
601.44	0.00
601.59	30.43
601.75	42.13
601.91	21.06
602.06	39.79
602.22	46.81
602.37	46.81
602.53	7.02
602.69	0.00
602.84	119.37
603.00	100.64
603.16	32.77
603.31	102.98
603.47	60.85
603.62	11.70
603.78	60.85
603.94	84.26
604.09	72.56
604.25	35.11
604.40	0.00
604.56	56.17
604.71	35.11
604.87	21.06
605.03	25.75
605.18	98.30
605.34	72.56
605.49	42.13
605.65	58.51
605.80	44.47
605.96	32.77
606.12	42.13
606.27	0.00
606.43	0.00
606.58	58.51
606.74	58.51
606.89	0.00
607.05	128.73
607.20	32.77
607.36	11.70
607.51	35.11
607.67	70.22
607.82	0.00
607.98	84.26
608.13	91.28
608.29	0.00
608.44	0.00
608.60	42.13
608.75	63.19
608.91	30.43
609.06	39.79
609.22	70.22
609.37	35.11
609.53	14.04
609.68	0.00
609.84	0.00
609.99	39.79
610.15	81.92
610.30	35.11
610.46	58.51
610.61	95.96
610.76	21.06
610.92	0.00
611.07	79.58
611.23	149.79
611.38	42.13
611.54	63.19
611.69	58.51
611.84	39.79
612.00	88.94
612.15	53.83
612.31	51.49
612.46	23.41
612.62	44.47
612.77	60.85
612.92	32.77
613.08	37.45
613.23	14.04
613.39	14.04
613.54	0.00
613.69	53.83
613.85	53.83
614.00	51.49
614.15	93.62
614.31	91.28
614.46	53.83
614.62	7.02
614.77	51.49
614.92	60.85
615.08	98.30
615.23	0.00
615.38	16.38
615.54	4.68
615.69	28.09
615.84	32.77
616.00	4.68
616.15	14.04
616.30	18.72
616.46	32.77
616.61	4.68
616.76	4.68
616.92	0.00
617.07	14.04
617.22	0.00
617.37	65.54
617.53	51.49
617.68	32.77
617.83	70.22
617.99	23.41
618.14	35.11
618.29	7.02
618.45	0.00
618.60	32.77
618.75	18.72
618.90	58.51
619.06	35.11
619.21	0.00
619.36	0.00
619.51	35.11
619.67	18.72
619.82	37.45
619.97	88.94
620.12	79.58
620.28	81.92
620.43	58.51
620.58	46.81
620.73	53.83
620.89	32.77
621.04	51.49
621.19	70.22
621.34	46.81
621.49	4.68
621.65	0.00
621.80	49.15
621.95	81.92
622.10	0.00
622.25	39.79
622.41	0.00
622.56	11.70
622.71	56.17
622.86	30.43
623.01	46.81
623.16	42.13
623.32	28.09
623.47	42.13
623.62	0.00
623.77	51.49
623.92	28.09
624.07	140.43
624.23	65.54
624.38	60.85
624.53	0.00
624.68	0.00
624.83	2.34
624.98	65.54
625.13	0.00
625.29	21.06
625.44	110.01
625.59	2.34
625.74	77.24
625.89	56.17
626.04	28.09
626.19	114.69
626.34	30.43
626.49	35.11
626.65	4.68
626.80	46.81
626.95	30.43
627.10	86.60
627.25	0.00
627.40	14.04
627.55	4.68
627.70	28.09
627.85	46.81
628.00	30.43
628.15	39.79
628.30	28.09
628.45	39.79
628.60	53.83
628.76	65.54
628.91	42.13
629.06	56.17
629.21	51.49
629.36	81.92
629.51	14.04
629.66	11.70
629.81	35.11
629.96	37.45
630.11	56.17
630.26	49.15
630.41	51.49
630.56	46.81
630.71	9.36
630.86	74.90
631.01	72.56
631.16	11.70
631.31	35.11
631.46	0.00
631.61	0.00
631.76	63.19
631.91	18.72
632.06	37.45
632.21	49.15
632.36	70.22
632.51	44.47
632.66	77.24
632.81	58.51
632.96	7.02
633.10	42.13
633.25	42.13
633.40	56.17
633.55	23.41
633.70	49.15
633.85	0.00
634.00	9.36
634.15	4.68
634.30	84.26
634.45	65.54
634.60	0.00
634.75	18.72
634.90	0.00
635.05	58.51
635.19	7.02
635.34	0.00
635.49	58.51
635.64	56.17
635.79	42.13
635.94	46.81
636.09	0.00
636.24	56.17
636.39	60.85
636.53	42.13
636.68	39.79
636.83	72.56
636.98	60.85
637.13	46.81
637.28	0.00
637.43	74.90
637.57	72.56
637.72	37.45
637.87	0.00
638.02	77.24
638.17	56.17
638.32	0.00
638.46	39.79
638.61	35.11
638.76	44.47
638.91	98.30
639.06	16.38
639.20	56.17
639.35	4.68
639.50	30.43
639.65	39.79
639.80	84.26
639.94	147.45
640.09	25.75
640.24	4.68
640.39	39.79
640.54	105.32
640.68	0.00
640.83	84.26
640.98	56.17
641.13	49.15
641.27	0.00
641.42	0.00
641.57	100.64
641.72	65.54
641.86	23.41
642.01	51.49
642.16	0.00
642.31	93.62
642.45	11.70
642.60	30.43
642.75	18.72
642.90	21.06
643.04	25.75
643.19	88.94
643.34	25.75
643.48	39.79
643.63	49.15
643.78	30.43
643.93	65.54
644.07	60.85
644.22	25.75
644.37	16.38
644.51	9.36
644.66	16.38
644.81	0.00
644.95	51.49
645.10	105.32
645.25	32.77
645.39	74.90
645.54	49.15
645.69	7.02
645.83	46.81
645.98	67.88
646.13	35.11
646.27	0.00
646.42	28.09
646.57	0.00
646.71	63.19
646.86	16.38
647.00	51.49
647.15	0.00
647.30	49.15
647.44	46.81
647.59	14.04
647.74	49.15
647.88	0.00
648.03	46.81
648.17	35.11
648.32	0.00
648.47	42.13
648.61	58.51
648.76	23.41
648.90	67.88
649.05	0.00
649.20	42.13
649.34	53.83
649.49	70.22
649.63	32.77
649.78	77.24
649.92	58.51
650.07	74.90
650.21	67.88
650.36	4.68
650.51	44.47
650.65	25.75
650.80	30.43
650.94	30.43
651.09	0.00
651.23	0.00
651.38	44.47
651.52	37.45
651.67	81.92
651.81	42.13
651.96	119.37
652.10	0.00
652.25	0.00
652.39	53.83
652.54	39.79
652.68	7.02
652.83	0.00
652.97	11.70
653.12	51.49
653.26	67.88
653.41	126.39
653.55	102.98
653.70	79.58
653.84	51.49
653.99	25.75
654.13	67.88
654.27	7.02
654.42	0.00
654.56	42.13
654.71	16.38
654.85	25.75
655.00	0.00
655.14	58.51
655.29	39.79
655.43	21.06
655.57	0.00
655.72	7.02
655.86	60.85
656.01	0.00
656.15	4.68
656.30	100.64
656.44	35.11
656.58	86.60
656.73	0.00
656.87	0.00
657.01	0.00
657.16	25.75
657.30	0.00
657.45	16.38
657.59	77.24
657.73	0.00
657.88	53.83
658.02	110.01
658.16	28.09
658.31	42.13
658.45	16.38
658.60	18.72
658.74	23.41
658.88	0.00
659.03	39.79
659.17	91.28
659.31	42.13
659.46	0.00
659.60	0.00
659.74	0.00
659.89	37.45
660.03	9.36
660.17	44.47
660.32	4.68
660.46	21.06
660.60	11.70
660.74	58.51
660.89	0.00
661.03	11.70
661.17	23.41
661.32	0.00
661.46	51.49
661.60	16.38
661.74	18.72
661.89	14.04
662.03	11.70
662.17	37.45
662.31	44.47
662.46	4.68
662.60	28.09
662.74	25.75
662.88	18.72
663.03	49.15
663.17	14.04
663.31	49.15
663.45	23.41
663.60	23.41
663.74	46.81
663.88	35.11
664.02	37.45
664.17	11.70
664.31	51.49
664.45	35.11
664.59	0.00
664.73	58.51
664.88	72.56
665.02	42.13
665.16	44.47
665.30	0.00
665.44	42.13
665.59	44.47
665.73	63.19
665.87	0.00
666.01	0.00
666.15	0.00
666.29	42.13
666.44	0.00
666.58	18.72
666.72	16.38
666.86	70.22
667.00	0.00
667.14	0.00
667.28	35.11
667.43	28.09
667.57	0.00
667.71	60.85
667.85	51.49
667.99	95.96
668.13	0.00
668.27	128.73
668.41	30.43
668.56	44.47
668.70	25.75
668.84	51.49
668.98	53.83
669.12	0.00
669.26	0.00
669.40	95.96
669.54	53.83
669.68	65.54
669.82	53.83
669.96	9.36
670.10	0.00
670.25	21.06
670.39	70.22
670.53	0.00
670.67	42.13
670.81	51.49
670.95	0.00
671.09	30.43
671.23	51.49
671.37	72.56
671.51	0.00
671.65	91.28
671.79	9.36
671.93	9.36
672.07	51.49
672.21	39.79
672.35	0.00
672.49	2.34
672.63	86.60
672.77	21.06
672.91	28.09
673.05	77.24
673.19	0.00
673.33	42.13
673.47	35.11
673.61	14.04
673.75	0.00
673.89	42.13
674.03	86.60
674.17	42.13
674.31	16.38
674.45	30.43
674.59	44.47
674.73	44.47
674.87	121.71
675.01	60.85
675.15	18.72
675.29	72.56
675.43	16.38
675.56	0.00
675.70	0.00
675.84	0.00
675.98	0.00
676.12	102.98
676.26	0.00
676.40	11.70
676.54	79.58
676.68	30.43
676.82	9.36
676.96	32.77
677.10	0.00
677.23	7.02
677.37	14.04
677.51	0.00
677.65	11.70
677.79	65.54
677.93	23.41
678.07	18.72
678.21	107.66
678.34	77.24
678.48	0.00
678.62	91.28
678.76	0.00
678.90	44.47
679.04	60.85
679.18	39.79
679.31	9.36
679.45	70.22
679.59	0.00
679.73	44.47
679.87	44.47
680.00	74.90
680.14	14.04
680.28	119.37
680.42	9.36
680.56	39.79
680.70	0.00
680.83	28.09
680.97	0.00
681.11	0.00
681.25	7.02
681.39	0.00
681.52	49.15
681.66	21.06
681.80	0.00
681.94	53.83
682.07	0.00
682.21	11.70
682.35	84.26
682.49	0.00
682.62	14.04
682.76	124.05
682.90	0.00
683.04	0.00
683.17	42.13
683.31	32.77
683.45	100.64
683.59	7.02
683.72	14.04
683.86	28.09
684.00	105.32
684.13	58.51
684.27	72.56
684.41	42.13
684.55	28.09
684.68	23.41
684.82	0.00
684.96	25.75
685.09	44.47
685.23	21.06
685.37	0.00
685.50	65.54
685.64	49.15
685.78	39.79
685.91	95.96
686.05	32.77
686.19	51.49
686.32	0.00
686.46	7.02
686.60	0.00
686.73	0.00
686.87	86.60
687.01	63.19
687.14	7.02
687.28	0.00
687.42	74.90
687.55	70.22
687.69	0.00
687.82	0.00
687.96	28.09
688.10	70.22
688.23	81.92
688.37	39.79
688.50	53.83
688.64	32.77
688.78	14.04
688.91	4.68
689.05	21.06
689.18	0.00
689.32	11.70
689.46	0.00
689.59	0.00
689.73	53.83
689.86	28.09
690.00	37.45
690.13	0.00
690.27	7.02
690.41	25.75
690.54	0.00
690.68	37.45
690.81	65.54
690.95	7.02
691.08	46.81
691.22	72.56
691.35	37.45
691.49	60.85
691.62	60.85
691.76	35.11
691.89	25.75
692.03	63.19
692.16	0.00
692.30	44.47
692.43	0.00
692.57	7.02
692.70	0.00
692.84	30.43
692.97	0.00
693.11	46.81
693.24	37.45
693.38	11.70
693.51	21.06
693.65	49.15
693.78	0.00
693.92	110.01
694.05	0.00
694.19	9.36
694.32	0.00
694.45	60.85
694.59	67.88
694.72	65.54
694.86	0.00
694.99	28.09
695.13	0.00
695.26	32.77
695.39	23.41
695.53	9.36
695.66	35.11
695.80	30.43
695.93	53.83
696.07	63.19
696.20	14.04
696.33	32.77
696.47	32.77
696.60	56.17
696.73	138.09
696.87	67.88
697.00	18.72
697.14	0.00
697.27	58.51
697.40	18.72
697.54	11.70
697.67	0.00
697.80	53.83
697.94	56.17
698.07	56.17
698.21	7.02
698.34	63.19
698.47	18.72
698.61	28.09
698.74	0.00
698.87	2.34
699.01	86.60
699.14	86.60
699.27	16.38
699.40	25.75
699.54	28.09
699.67	0.00
699.80	21.06
699.94	35.11
700.07	30.43
700.20	14.04
700.34	70.22
700.47	58.51
700.60	56.17
700.73	44.47
700.87	0.00
701.00	30.43
701.13	0.00
701.26	58.51
701.40	9.36
701.53	53.83
701.66	28.09
701.79	58.51
701.93	0.00
702.06	42.13
702.19	44.47
702.32	70.22
702.46	11.70
702.59	51.49
702.72	30.43
702.85	0.00
702.99	25.75
703.12	74.90
703.25	14.04
703.38	14.04
703.51	0.00
703.65	0.00
703.78	18.72
703.91	60.85
704.04	35.11
704.17	0.00
704.31	11.70
704.44	0.00
704.57	23.41
704.70	114.69
704.83	0.00
704.96	32.77
705.10	35.11
705.23	42.13
>>>>>End Processed Spectral Data<<<<<
