SpectraSuite Data File
++++++++++++++++++++++++++++++++++++
Date: Fri Oct 04 12:13:38 GMT-05:00 2013
User: price-jones
Dark Spectrum Present: No
Reference Spectrum Present: No
Number of Sampled Component Spectra: 1
Spectrometers: USB2+H05261
Integration Time (usec): 10000 (USB2+H05261)
Spectra Averaged: 1 (USB2+H05261)
Boxcar Smoothing: 0 (USB2+H05261)
Correct for Electrical Dark: No (USB2+H05261)
Strobe/Lamp Enabled: No (USB2+H05261)
Correct for Detector Non-linearity: No (USB2+H05261)
Correct for Stray Light: No (USB2+H05261)
Number of Pixels in Processed Spectrum: 2048
>>>>>Begin Processed Spectral Data<<<<<
365.73	39.79
365.92	39.79
366.12	39.79
366.32	0.00
366.52	0.00
366.72	0.00
366.91	0.00
367.11	0.00
367.31	0.00
367.51	0.00
367.70	0.00
367.90	0.00
368.10	0.00
368.30	0.00
368.49	0.00
368.69	0.00
368.89	0.00
369.09	0.00
369.28	0.00
369.48	0.00
369.68	0.00
369.87	0.00
370.07	0.00
370.27	0.00
370.47	0.00
370.66	0.00
370.86	0.00
371.06	0.00
371.25	0.00
371.45	0.00
371.65	0.00
371.84	0.00
372.04	0.00
372.24	0.00
372.44	110.01
372.63	0.00
372.83	28.09
373.03	7.02
373.22	42.13
373.42	30.43
373.62	58.51
373.81	0.00
374.01	0.00
374.21	23.41
374.40	14.04
374.60	93.62
374.79	44.47
374.99	51.49
375.19	16.38
375.38	44.47
375.58	0.00
375.78	0.00
375.97	91.28
376.17	35.11
376.37	23.41
376.56	21.06
376.76	28.09
376.95	0.00
377.15	0.00
377.35	46.81
377.54	35.11
377.74	39.79
377.93	49.15
378.13	2.34
378.33	7.02
378.52	28.09
378.72	11.70
378.91	2.34
379.11	0.00
379.31	0.00
379.50	0.00
379.70	30.43
379.89	46.81
380.09	51.49
380.28	37.45
380.48	67.88
380.68	105.32
380.87	0.00
381.07	28.09
381.26	0.00
381.46	0.00
381.65	93.62
381.85	21.06
382.04	35.11
382.24	28.09
382.43	14.04
382.63	53.83
382.83	28.09
383.02	74.90
383.22	44.47
383.41	100.64
383.61	7.02
383.80	42.13
384.00	60.85
384.19	7.02
384.39	4.68
384.58	93.62
384.78	0.00
384.97	28.09
385.17	65.54
385.36	0.00
385.56	42.13
385.75	11.70
385.95	53.83
386.14	4.68
386.34	28.09
386.53	0.00
386.72	0.00
386.92	46.81
387.11	21.06
387.31	53.83
387.50	39.79
387.70	0.00
387.89	4.68
388.09	0.00
388.28	18.72
388.48	35.11
388.67	53.83
388.86	0.00
389.06	39.79
389.25	42.13
389.45	51.49
389.64	0.00
389.84	0.00
390.03	44.47
390.22	32.77
390.42	0.00
390.61	11.70
390.81	35.11
391.00	42.13
391.19	0.00
391.39	44.47
391.58	7.02
391.78	56.17
391.97	28.09
392.16	60.85
392.36	58.51
392.55	0.00
392.75	14.04
392.94	86.60
393.13	91.28
393.33	0.00
393.52	11.70
393.71	0.00
393.91	72.56
394.10	53.83
394.29	0.00
394.49	18.72
394.68	0.00
394.88	39.79
395.07	46.81
395.26	88.94
395.46	53.83
395.65	35.11
395.84	42.13
396.04	91.28
396.23	4.68
396.42	37.45
396.62	74.90
396.81	30.43
397.00	39.79
397.19	2.34
397.39	53.83
397.58	67.88
397.77	7.02
397.97	0.00
398.16	0.00
398.35	0.00
398.55	79.58
398.74	42.13
398.93	53.83
399.12	37.45
399.32	35.11
399.51	56.17
399.70	67.88
399.90	23.41
400.09	11.70
400.28	67.88
400.47	100.64
400.67	44.47
400.86	4.68
401.05	114.69
401.24	49.15
401.44	25.75
401.63	30.43
401.82	42.13
402.01	21.06
402.21	56.17
402.40	60.85
402.59	42.13
402.78	23.41
402.97	112.35
403.17	86.60
403.36	42.13
403.55	28.09
403.74	42.13
403.93	124.05
404.13	58.51
404.32	0.00
404.51	0.00
404.70	70.22
404.89	51.49
405.09	28.09
405.28	0.00
405.47	56.17
405.66	11.70
405.85	28.09
406.05	32.77
406.24	18.72
406.43	35.11
406.62	74.90
406.81	91.28
407.00	67.88
407.20	46.81
407.39	56.17
407.58	35.11
407.77	60.85
407.96	25.75
408.15	16.38
408.34	79.58
408.54	0.00
408.73	11.70
408.92	0.00
409.11	100.64
409.30	42.13
409.49	56.17
409.68	21.06
409.87	0.00
410.07	105.32
410.26	51.49
410.45	0.00
410.64	72.56
410.83	81.92
411.02	30.43
411.21	0.00
411.40	7.02
411.59	21.06
411.78	0.00
411.98	2.34
412.17	32.77
412.36	79.58
412.55	28.09
412.74	35.11
412.93	0.00
413.12	0.00
413.31	77.24
413.50	28.09
413.69	23.41
413.88	35.11
414.07	11.70
414.26	0.00
414.45	53.83
414.64	21.06
414.83	39.79
415.02	81.92
415.22	18.72
415.41	65.54
415.60	30.43
415.79	21.06
415.98	0.00
416.17	49.15
416.36	46.81
416.55	86.60
416.74	37.45
416.93	74.90
417.12	28.09
417.31	51.49
417.50	14.04
417.69	0.00
417.88	25.75
418.07	84.26
418.26	37.45
418.45	21.06
418.64	7.02
418.83	58.51
419.02	56.17
419.21	49.15
419.39	35.11
419.58	18.72
419.77	63.19
419.96	0.00
420.15	74.90
420.34	32.77
420.53	2.34
420.72	28.09
420.91	46.81
421.10	91.28
421.29	79.58
421.48	18.72
421.67	114.69
421.86	56.17
422.05	46.81
422.24	56.17
422.43	51.49
422.61	105.32
422.80	53.83
422.99	0.00
423.18	91.28
423.37	63.19
423.56	70.22
423.75	46.81
423.94	100.64
424.13	51.49
424.32	0.00
424.50	53.83
424.69	0.00
424.88	37.45
425.07	72.56
425.26	58.51
425.45	53.83
425.64	81.92
425.83	70.22
426.01	46.81
426.20	42.13
426.39	9.36
426.58	30.43
426.77	0.00
426.96	49.15
427.15	58.51
427.33	0.00
427.52	18.72
427.71	0.00
427.90	49.15
428.09	84.26
428.28	0.00
428.46	56.17
428.65	0.00
428.84	35.11
429.03	49.15
429.22	28.09
429.40	0.00
429.59	88.94
429.78	58.51
429.97	110.01
430.16	9.36
430.34	2.34
430.53	84.26
430.72	37.45
430.91	93.62
431.10	77.24
431.28	149.79
431.47	84.26
431.66	79.58
431.85	74.90
432.03	53.83
432.22	7.02
432.41	23.41
432.60	0.00
432.79	67.88
432.97	51.49
433.16	60.85
433.35	58.51
433.54	74.90
433.72	56.17
433.91	88.94
434.10	60.85
434.28	44.47
434.47	0.00
434.66	74.90
434.85	79.58
435.03	53.83
435.22	58.51
435.41	81.92
435.59	88.94
435.78	100.64
435.97	88.94
436.16	105.32
436.34	14.04
436.53	70.22
436.72	30.43
436.90	0.00
437.09	60.85
437.28	63.19
437.46	63.19
437.65	72.56
437.84	93.62
438.02	53.83
438.21	42.13
438.40	74.90
438.58	4.68
438.77	42.13
438.96	114.69
439.14	37.45
439.33	28.09
439.52	30.43
439.70	2.34
439.89	86.60
440.08	11.70
440.26	79.58
440.45	70.22
440.63	0.00
440.82	0.00
441.01	28.09
441.19	16.38
441.38	0.00
441.57	35.11
441.75	9.36
441.94	65.54
442.12	121.71
442.31	21.06
442.50	35.11
442.68	30.43
442.87	14.04
443.05	16.38
443.24	98.30
443.43	25.75
443.61	79.58
443.80	25.75
443.98	42.13
444.17	60.85
444.35	112.35
444.54	44.47
444.73	9.36
444.91	0.00
445.10	74.90
445.28	67.88
445.47	51.49
445.65	44.47
445.84	72.56
446.02	49.15
446.21	60.85
446.39	11.70
446.58	93.62
446.77	4.68
446.95	7.02
447.14	107.66
447.32	32.77
447.51	102.98
447.69	81.92
447.88	42.13
448.06	51.49
448.25	32.77
448.43	11.70
448.62	88.94
448.80	53.83
448.99	70.22
449.17	93.62
449.36	23.41
449.54	119.37
449.73	65.54
449.91	65.54
450.10	14.04
450.28	0.00
450.46	46.81
450.65	105.32
450.83	49.15
451.02	42.13
451.20	86.60
451.39	0.00
451.57	140.43
451.76	102.98
451.94	88.94
452.13	42.13
452.31	37.45
452.49	28.09
452.68	70.22
452.86	0.00
453.05	124.05
453.23	25.75
453.42	67.88
453.60	117.03
453.78	58.51
453.97	46.81
454.15	63.19
454.34	56.17
454.52	74.90
454.70	95.96
454.89	25.75
455.07	14.04
455.26	81.92
455.44	84.26
455.62	32.77
455.81	60.85
455.99	46.81
456.17	25.75
456.36	60.85
456.54	133.41
456.73	65.54
456.91	65.54
457.09	42.13
457.28	86.60
457.46	2.34
457.64	44.47
457.83	124.05
458.01	56.17
458.19	86.60
458.38	35.11
458.56	98.30
458.74	114.69
458.93	4.68
459.11	53.83
459.29	42.13
459.48	25.75
459.66	77.24
459.84	42.13
460.03	95.96
460.21	49.15
460.39	46.81
460.57	14.04
460.76	86.60
460.94	35.11
461.12	49.15
461.31	0.00
461.49	51.49
461.67	63.19
461.85	102.98
462.04	11.70
462.22	86.60
462.40	11.70
462.59	0.00
462.77	28.09
462.95	173.20
463.13	74.90
463.32	70.22
463.50	11.70
463.68	53.83
463.86	51.49
464.05	0.00
464.23	91.28
464.41	23.41
464.59	30.43
464.78	100.64
464.96	72.56
465.14	60.85
465.32	42.13
465.50	86.60
465.69	25.75
465.87	91.28
466.05	0.00
466.23	56.17
466.41	98.30
466.60	4.68
466.78	46.81
466.96	37.45
467.14	0.00
467.32	65.54
467.51	93.62
467.69	0.00
467.87	42.13
468.05	84.26
468.23	58.51
468.41	121.71
468.60	58.51
468.78	42.13
468.96	105.32
469.14	39.79
469.32	102.98
469.50	60.85
469.69	11.70
469.87	49.15
470.05	28.09
470.23	35.11
470.41	63.19
470.59	2.34
470.77	74.90
470.95	58.51
471.14	84.26
471.32	58.51
471.50	0.00
471.68	51.49
471.86	79.58
472.04	93.62
472.22	72.56
472.40	46.81
472.58	23.41
472.77	72.56
472.95	77.24
473.13	124.05
473.31	25.75
473.49	49.15
473.67	58.51
473.85	107.66
474.03	39.79
474.21	88.94
474.39	23.41
474.57	119.37
474.75	39.79
474.93	9.36
475.12	39.79
475.30	88.94
475.48	95.96
475.66	0.00
475.84	25.75
476.02	86.60
476.20	4.68
476.38	51.49
476.56	86.60
476.74	16.38
476.92	126.39
477.10	77.24
477.28	65.54
477.46	21.06
477.64	58.51
477.82	25.75
478.00	39.79
478.18	32.77
478.36	100.64
478.54	95.96
478.72	11.70
478.90	112.35
479.08	79.58
479.26	100.64
479.44	84.26
479.62	42.13
479.80	84.26
479.98	49.15
480.16	110.01
480.34	102.98
480.52	145.11
480.70	51.49
480.88	81.92
481.06	112.35
481.24	37.45
481.41	105.32
481.59	95.96
481.77	77.24
481.95	72.56
482.13	67.88
482.31	46.81
482.49	51.49
482.67	53.83
482.85	81.92
483.03	79.58
483.21	23.41
483.39	23.41
483.57	142.77
483.74	72.56
483.92	18.72
484.10	142.77
484.28	105.32
484.46	25.75
484.64	14.04
484.82	56.17
485.00	44.47
485.18	51.49
485.35	79.58
485.53	39.79
485.71	56.17
485.89	72.56
486.07	63.19
486.25	84.26
486.43	0.00
486.61	102.98
486.78	37.45
486.96	9.36
487.14	86.60
487.32	0.00
487.50	117.03
487.68	95.96
487.85	30.43
488.03	18.72
488.21	84.26
488.39	16.38
488.57	133.41
488.75	51.49
488.92	14.04
489.10	51.49
489.28	70.22
489.46	79.58
489.64	124.05
489.81	81.92
489.99	9.36
490.17	58.51
490.35	56.17
490.53	100.64
490.70	77.24
490.88	88.94
491.06	84.26
491.24	72.56
491.41	56.17
491.59	56.17
491.77	0.00
491.95	72.56
492.13	112.35
492.30	91.28
492.48	128.73
492.66	121.71
492.84	81.92
493.01	110.01
493.19	51.49
493.37	114.69
493.54	4.68
493.72	84.26
493.90	51.49
494.08	119.37
494.25	70.22
494.43	110.01
494.61	72.56
494.79	107.66
494.96	140.43
495.14	142.77
495.32	77.24
495.49	98.30
495.67	105.32
495.85	93.62
496.02	35.11
496.20	114.69
496.38	58.51
496.55	72.56
496.73	74.90
496.91	42.13
497.09	98.30
497.26	0.00
497.44	39.79
497.62	46.81
497.79	49.15
497.97	102.98
498.14	56.17
498.32	60.85
498.50	138.09
498.67	131.07
498.85	81.92
499.03	93.62
499.20	53.83
499.38	74.90
499.56	100.64
499.73	74.90
499.91	60.85
500.08	156.82
500.26	93.62
500.44	112.35
500.61	114.69
500.79	91.28
500.97	65.54
501.14	16.38
501.32	135.75
501.49	81.92
501.67	142.77
501.84	65.54
502.02	98.30
502.20	100.64
502.37	88.94
502.55	93.62
502.72	107.66
502.90	42.13
503.07	105.32
503.25	93.62
503.43	74.90
503.60	114.69
503.78	91.28
503.95	95.96
504.13	86.60
504.30	46.81
504.48	102.98
504.65	37.45
504.83	46.81
505.01	58.51
505.18	72.56
505.36	44.47
505.53	16.38
505.71	77.24
505.88	51.49
506.06	67.88
506.23	112.35
506.41	138.09
506.58	100.64
506.76	56.17
506.93	53.83
507.11	133.41
507.28	63.19
507.46	126.39
507.63	65.54
507.81	56.17
507.98	0.00
508.16	60.85
508.33	105.32
508.50	88.94
508.68	65.54
508.85	60.85
509.03	63.19
509.20	84.26
509.38	156.82
509.55	58.51
509.73	163.84
509.90	0.00
510.08	58.51
510.25	18.72
510.42	98.30
510.60	100.64
510.77	88.94
510.95	32.77
511.12	114.69
511.30	107.66
511.47	72.56
511.64	49.15
511.82	65.54
511.99	88.94
512.17	142.77
512.34	46.81
512.51	81.92
512.69	74.90
512.86	77.24
513.04	56.17
513.21	124.05
513.38	72.56
513.56	28.09
513.73	39.79
513.90	135.75
514.08	53.83
514.25	72.56
514.43	74.90
514.60	74.90
514.77	138.09
514.95	102.98
515.12	35.11
515.29	42.13
515.47	102.98
515.64	110.01
515.81	91.28
515.99	105.32
516.16	107.66
516.33	133.41
516.51	70.22
516.68	14.04
516.85	51.49
517.03	79.58
517.20	93.62
517.37	107.66
517.54	166.18
517.72	112.35
517.89	77.24
518.06	98.30
518.24	98.30
518.41	37.45
518.58	81.92
518.75	138.09
518.93	39.79
519.10	77.24
519.27	67.88
519.45	72.56
519.62	70.22
519.79	42.13
519.96	53.83
520.14	79.58
520.31	86.60
520.48	16.38
520.65	91.28
520.83	124.05
521.00	56.17
521.17	70.22
521.34	14.04
521.52	121.71
521.69	140.43
521.86	58.51
522.03	72.56
522.20	93.62
522.38	60.85
522.55	95.96
522.72	32.77
522.89	70.22
523.07	138.09
523.24	154.48
523.41	88.94
523.58	95.96
523.75	74.90
523.92	149.79
524.10	58.51
524.27	44.47
524.44	124.05
524.61	77.24
524.78	100.64
524.96	98.30
525.13	112.35
525.30	79.58
525.47	107.66
525.64	79.58
525.81	86.60
525.98	74.90
526.16	51.49
526.33	105.32
526.50	39.79
526.67	25.75
526.84	84.26
527.01	93.62
527.18	133.41
527.36	91.28
527.53	46.81
527.70	117.03
527.87	74.90
528.04	105.32
528.21	25.75
528.38	79.58
528.55	56.17
528.72	49.15
528.89	140.43
529.07	168.52
529.24	65.54
529.41	65.54
529.58	37.45
529.75	56.17
529.92	81.92
530.09	110.01
530.26	114.69
530.43	42.13
530.60	88.94
530.77	114.69
530.94	128.73
531.11	156.82
531.28	100.64
531.46	56.17
531.63	119.37
531.80	124.05
531.97	79.58
532.14	74.90
532.31	93.62
532.48	0.00
532.65	100.64
532.82	42.13
532.99	88.94
533.16	102.98
533.33	145.11
533.50	60.85
533.67	79.58
533.84	105.32
534.01	77.24
534.18	126.39
534.35	42.13
534.52	95.96
534.69	28.09
534.86	93.62
535.03	114.69
535.20	114.69
535.37	86.60
535.54	53.83
535.71	135.75
535.88	58.51
536.05	51.49
536.22	149.79
536.38	77.24
536.55	156.82
536.72	102.98
536.89	58.51
537.06	72.56
537.23	163.84
537.40	107.66
537.57	84.26
537.74	56.17
537.91	124.05
538.08	56.17
538.25	35.11
538.42	112.35
538.59	70.22
538.75	72.56
538.92	145.11
539.09	138.09
539.26	37.45
539.43	84.26
539.60	100.64
539.77	86.60
539.94	138.09
540.11	93.62
540.28	72.56
540.44	102.98
540.61	128.73
540.78	46.81
540.95	110.01
541.12	70.22
541.29	0.00
541.46	70.22
541.62	98.30
541.79	30.43
541.96	67.88
542.13	84.26
542.30	86.60
542.47	154.48
542.63	58.51
542.80	37.45
542.97	86.60
543.14	53.83
543.31	9.36
543.48	63.19
543.64	131.07
543.81	107.66
543.98	117.03
544.15	60.85
544.32	53.83
544.48	95.96
544.65	93.62
544.82	91.28
544.99	93.62
545.16	100.64
545.32	105.32
545.49	39.79
545.66	30.43
545.83	74.90
546.00	105.32
546.16	88.94
546.33	105.32
546.50	112.35
546.67	56.17
546.83	63.19
547.00	77.24
547.17	81.92
547.34	42.13
547.50	74.90
547.67	49.15
547.84	79.58
548.00	112.35
548.17	51.49
548.34	128.73
548.51	74.90
548.67	51.49
548.84	168.52
549.01	88.94
549.18	70.22
549.34	77.24
549.51	114.69
549.68	105.32
549.84	121.71
550.01	102.98
550.18	102.98
550.34	86.60
550.51	79.58
550.68	100.64
550.84	56.17
551.01	91.28
551.18	35.11
551.34	147.45
551.51	81.92
551.68	121.71
551.84	77.24
552.01	145.11
552.18	79.58
552.34	100.64
552.51	93.62
552.68	72.56
552.84	72.56
553.01	0.00
553.18	114.69
553.34	124.05
553.51	100.64
553.67	98.30
553.84	128.73
554.01	95.96
554.17	79.58
554.34	107.66
554.51	60.85
554.67	100.64
554.84	49.15
555.00	91.28
555.17	173.20
555.33	72.56
555.50	79.58
555.67	112.35
555.83	93.62
556.00	65.54
556.16	79.58
556.33	121.71
556.50	88.94
556.66	81.92
556.83	44.47
556.99	11.70
557.16	58.51
557.32	88.94
557.49	93.62
557.65	81.92
557.82	91.28
557.98	173.20
558.15	95.96
558.32	102.98
558.48	93.62
558.65	91.28
558.81	23.41
558.98	95.96
559.14	131.07
559.31	60.85
559.47	114.69
559.64	37.45
559.80	79.58
559.97	63.19
560.13	126.39
560.30	135.75
560.46	79.58
560.63	77.24
560.79	93.62
560.96	105.32
561.12	86.60
561.29	63.19
561.45	84.26
561.61	65.54
561.78	58.51
561.94	140.43
562.11	145.11
562.27	117.03
562.44	70.22
562.60	74.90
562.77	107.66
562.93	65.54
563.10	88.94
563.26	100.64
563.42	112.35
563.59	79.58
563.75	105.32
563.92	60.85
564.08	88.94
564.24	72.56
564.41	84.26
564.57	117.03
564.74	58.51
564.90	67.88
565.07	79.58
565.23	58.51
565.39	74.90
565.56	39.79
565.72	102.98
565.88	117.03
566.05	119.37
566.21	84.26
566.38	126.39
566.54	58.51
566.70	93.62
566.87	0.00
567.03	42.13
567.19	159.16
567.36	91.28
567.52	152.13
567.68	147.45
567.85	65.54
568.01	79.58
568.17	23.41
568.34	74.90
568.50	74.90
568.66	65.54
568.83	117.03
568.99	70.22
569.15	170.86
569.32	128.73
569.48	93.62
569.64	81.92
569.81	32.77
569.97	67.88
570.13	28.09
570.30	163.84
570.46	124.05
570.62	77.24
570.78	110.01
570.95	124.05
571.11	98.30
571.27	84.26
571.43	98.30
571.60	4.68
571.76	49.15
571.92	18.72
572.09	81.92
572.25	91.28
572.41	98.30
572.57	14.04
572.74	63.19
572.90	91.28
573.06	95.96
573.22	58.51
573.38	56.17
573.55	16.38
573.71	102.98
573.87	70.22
574.03	107.66
574.20	102.98
574.36	156.82
574.52	72.56
574.68	65.54
574.84	32.77
575.01	67.88
575.17	107.66
575.33	4.68
575.49	105.32
575.65	42.13
575.82	93.62
575.98	39.79
576.14	112.35
576.30	91.28
576.46	79.58
576.62	86.60
576.79	46.81
576.95	100.64
577.11	67.88
577.27	58.51
577.43	25.75
577.59	105.32
577.75	88.94
577.92	79.58
578.08	133.41
578.24	95.96
578.40	149.79
578.56	117.03
578.72	79.58
578.88	63.19
579.04	98.30
579.21	161.50
579.37	32.77
579.53	72.56
579.69	117.03
579.85	86.60
580.01	102.98
580.17	95.96
580.33	95.96
580.49	117.03
580.65	170.86
580.82	86.60
580.98	21.06
581.14	95.96
581.30	102.98
581.46	58.51
581.62	42.13
581.78	28.09
581.94	42.13
582.10	0.00
582.26	145.11
582.42	81.92
582.58	65.54
582.74	128.73
582.90	63.19
583.06	105.32
583.22	74.90
583.38	4.68
583.54	39.79
583.70	21.06
583.86	142.77
584.02	98.30
584.18	74.90
584.34	79.58
584.50	53.83
584.66	102.98
584.82	107.66
584.98	16.38
585.14	25.75
585.30	51.49
585.46	23.41
585.62	63.19
585.78	67.88
585.94	138.09
586.10	126.39
586.26	42.13
586.42	84.26
586.58	119.37
586.74	79.58
586.90	46.81
587.06	14.04
587.22	60.85
587.38	51.49
587.54	14.04
587.70	67.88
587.86	91.28
588.02	53.83
588.18	72.56
588.34	53.83
588.49	112.35
588.65	63.19
588.81	51.49
588.97	11.70
589.13	72.56
589.29	21.06
589.45	7.02
589.61	70.22
589.77	117.03
589.93	107.66
590.08	60.85
590.24	95.96
590.40	7.02
590.56	102.98
590.72	102.98
590.88	51.49
591.04	128.73
591.20	67.88
591.35	91.28
591.51	112.35
591.67	37.45
591.83	88.94
591.99	79.58
592.15	112.35
592.31	2.34
592.46	49.15
592.62	117.03
592.78	84.26
592.94	72.56
593.10	100.64
593.26	74.90
593.41	135.75
593.57	0.00
593.73	42.13
593.89	60.85
594.05	84.26
594.20	107.66
594.36	14.04
594.52	79.58
594.68	84.26
594.84	42.13
594.99	98.30
595.15	0.00
595.31	86.60
595.47	49.15
595.62	88.94
595.78	0.00
595.94	72.56
596.10	39.79
596.25	60.85
596.41	112.35
596.57	46.81
596.73	35.11
596.88	0.00
597.04	46.81
597.20	0.00
597.36	114.69
597.51	74.90
597.67	119.37
597.83	70.22
597.99	46.81
598.14	98.30
598.30	84.26
598.46	35.11
598.61	105.32
598.77	93.62
598.93	53.83
599.09	72.56
599.24	14.04
599.40	46.81
599.56	25.75
599.71	84.26
599.87	67.88
600.03	25.75
600.18	93.62
600.34	98.30
600.50	91.28
600.65	56.17
600.81	93.62
600.97	81.92
601.12	51.49
601.28	51.49
601.44	79.58
601.59	58.51
601.75	105.32
601.91	184.90
602.06	37.45
602.22	37.45
602.37	79.58
602.53	131.07
602.69	65.54
602.84	121.71
603.00	46.81
603.16	124.05
603.31	110.01
603.47	124.05
603.62	70.22
603.78	58.51
603.94	105.32
604.09	42.13
604.25	81.92
604.40	2.34
604.56	95.96
604.71	63.19
604.87	88.94
605.03	67.88
605.18	91.28
605.34	58.51
605.49	88.94
605.65	53.83
605.80	23.41
605.96	70.22
606.12	11.70
606.27	110.01
606.43	25.75
606.58	53.83
606.74	0.00
606.89	42.13
607.05	102.98
607.20	98.30
607.36	149.79
607.51	70.22
607.67	98.30
607.82	74.90
607.98	18.72
608.13	32.77
608.29	63.19
608.44	14.04
608.60	98.30
608.75	107.66
608.91	81.92
609.06	100.64
609.22	18.72
609.37	91.28
609.53	63.19
609.68	91.28
609.84	95.96
609.99	112.35
610.15	110.01
610.30	98.30
610.46	72.56
610.61	70.22
610.76	67.88
610.92	58.51
611.07	70.22
611.23	84.26
611.38	81.92
611.54	86.60
611.69	86.60
611.84	67.88
612.00	67.88
612.15	53.83
612.31	23.41
612.46	28.09
612.62	60.85
612.77	72.56
612.92	51.49
613.08	95.96
613.23	23.41
613.39	60.85
613.54	49.15
613.69	25.75
613.85	86.60
614.00	128.73
614.15	16.38
614.31	67.88
614.46	39.79
614.62	119.37
614.77	72.56
614.92	11.70
615.08	46.81
615.23	114.69
615.38	112.35
615.54	0.00
615.69	100.64
615.84	86.60
616.00	25.75
616.15	25.75
616.30	30.43
616.46	0.00
616.61	58.51
616.76	98.30
616.92	63.19
617.07	37.45
617.22	21.06
617.37	88.94
617.53	121.71
617.68	77.24
617.83	0.00
617.99	79.58
618.14	42.13
618.29	0.00
618.45	44.47
618.60	23.41
618.75	4.68
618.90	28.09
619.06	53.83
619.21	51.49
619.36	79.58
619.51	70.22
619.67	0.00
619.82	95.96
619.97	44.47
620.12	72.56
620.28	93.62
620.43	77.24
620.58	44.47
620.73	0.00
620.89	32.77
621.04	39.79
621.19	72.56
621.34	67.88
621.49	142.77
621.65	91.28
621.80	28.09
621.95	84.26
622.10	105.32
622.25	138.09
622.41	32.77
622.56	39.79
622.71	95.96
622.86	67.88
623.01	100.64
623.16	81.92
623.32	30.43
623.47	93.62
623.62	51.49
623.77	39.79
623.92	35.11
624.07	39.79
624.23	84.26
624.38	4.68
624.53	49.15
624.68	67.88
624.83	7.02
624.98	60.85
625.13	21.06
625.29	4.68
625.44	58.51
625.59	88.94
625.74	91.28
625.89	18.72
626.04	95.96
626.19	23.41
626.34	74.90
626.49	65.54
626.65	42.13
626.80	0.00
626.95	100.64
627.10	42.13
627.25	11.70
627.40	65.54
627.55	107.66
627.70	79.58
627.85	131.07
628.00	46.81
628.15	37.45
628.30	74.90
628.45	60.85
628.60	140.43
628.76	105.32
628.91	93.62
629.06	46.81
629.21	32.77
629.36	0.00
629.51	32.77
629.66	14.04
629.81	79.58
629.96	58.51
630.11	119.37
630.26	110.01
630.41	23.41
630.56	84.26
630.71	91.28
630.86	63.19
631.01	23.41
631.16	86.60
631.31	112.35
631.46	35.11
631.61	35.11
631.76	16.38
631.91	0.00
632.06	58.51
632.21	74.90
632.36	95.96
632.51	79.58
632.66	18.72
632.81	35.11
632.96	21.06
633.10	9.36
633.25	114.69
633.40	0.00
633.55	30.43
633.70	86.60
633.85	105.32
634.00	18.72
634.15	51.49
634.30	28.09
634.45	49.15
634.60	126.39
634.75	63.19
634.90	2.34
635.05	77.24
635.19	88.94
635.34	98.30
635.49	93.62
635.64	126.39
635.79	16.38
635.94	35.11
636.09	110.01
636.24	4.68
636.39	98.30
636.53	107.66
636.68	60.85
636.83	37.45
636.98	126.39
637.13	46.81
637.28	98.30
637.43	56.17
637.57	119.37
637.72	0.00
637.87	102.98
638.02	79.58
638.17	105.32
638.32	72.56
638.46	35.11
638.61	42.13
638.76	21.06
638.91	0.00
639.06	88.94
639.20	107.66
639.35	58.51
639.50	46.81
639.65	18.72
639.80	70.22
639.94	60.85
640.09	44.47
640.24	9.36
640.39	67.88
640.54	102.98
640.68	84.26
640.83	74.90
640.98	23.41
641.13	70.22
641.27	16.38
641.42	135.75
641.57	0.00
641.72	91.28
641.86	53.83
642.01	84.26
642.16	49.15
642.31	51.49
642.45	65.54
642.60	77.24
642.75	91.28
642.90	93.62
643.04	18.72
643.19	35.11
643.34	72.56
643.48	18.72
643.63	46.81
643.78	2.34
643.93	18.72
644.07	0.00
644.22	74.90
644.37	138.09
644.51	72.56
644.66	0.00
644.81	9.36
644.95	60.85
645.10	63.19
645.25	133.41
645.39	28.09
645.54	93.62
645.69	88.94
645.83	124.05
645.98	81.92
646.13	58.51
646.27	93.62
646.42	49.15
646.57	16.38
646.71	81.92
646.86	63.19
647.00	46.81
647.15	72.56
647.30	72.56
647.44	49.15
647.59	28.09
647.74	28.09
647.88	105.32
648.03	84.26
648.17	44.47
648.32	32.77
648.47	74.90
648.61	53.83
648.76	39.79
648.90	0.00
649.05	65.54
649.20	46.81
649.34	0.00
649.49	86.60
649.63	0.00
649.78	42.13
649.92	0.00
650.07	9.36
650.21	39.79
650.36	25.75
650.51	86.60
650.65	39.79
650.80	72.56
650.94	39.79
651.09	7.02
651.23	79.58
651.38	60.85
651.52	107.66
651.67	60.85
651.81	53.83
651.96	51.49
652.10	28.09
652.25	30.43
652.39	28.09
652.54	77.24
652.68	110.01
652.83	0.00
652.97	102.98
653.12	35.11
653.26	70.22
653.41	74.90
653.55	37.45
653.70	46.81
653.84	63.19
653.99	112.35
654.13	23.41
654.27	91.28
654.42	100.64
654.56	65.54
654.71	88.94
654.85	0.00
655.00	2.34
655.14	16.38
655.29	65.54
655.43	84.26
655.57	0.00
655.72	35.11
655.86	44.47
656.01	4.68
656.15	23.41
656.30	37.45
656.44	121.71
656.58	100.64
656.73	0.00
656.87	42.13
657.01	28.09
657.16	72.56
657.30	128.73
657.45	35.11
657.59	23.41
657.73	49.15
657.88	32.77
658.02	30.43
658.16	42.13
658.31	30.43
658.45	81.92
658.60	70.22
658.74	58.51
658.88	53.83
659.03	9.36
659.17	53.83
659.31	14.04
659.46	95.96
659.60	67.88
659.74	21.06
659.89	11.70
660.03	100.64
660.17	81.92
660.32	60.85
660.46	70.22
660.60	140.43
660.74	4.68
660.89	79.58
661.03	0.00
661.17	0.00
661.32	60.85
661.46	21.06
661.60	16.38
661.74	14.04
661.89	65.54
662.03	56.17
662.17	95.96
662.31	81.92
662.46	88.94
662.60	42.13
662.74	44.47
662.88	70.22
663.03	72.56
663.17	0.00
663.31	0.00
663.45	60.85
663.60	49.15
663.74	0.00
663.88	4.68
664.02	131.07
664.17	86.60
664.31	37.45
664.45	30.43
664.59	42.13
664.73	65.54
664.88	28.09
665.02	11.70
665.16	16.38
665.30	49.15
665.44	44.47
665.59	46.81
665.73	0.00
665.87	77.24
666.01	67.88
666.15	72.56
666.29	93.62
666.44	56.17
666.58	79.58
666.72	65.54
666.86	44.47
667.00	88.94
667.14	0.00
667.28	0.00
667.43	0.00
667.57	81.92
667.71	16.38
667.85	4.68
667.99	84.26
668.13	56.17
668.27	84.26
668.41	39.79
668.56	58.51
668.70	53.83
668.84	25.75
668.98	44.47
669.12	39.79
669.26	112.35
669.40	91.28
669.54	91.28
669.68	70.22
669.82	79.58
669.96	79.58
670.10	81.92
670.25	51.49
670.39	86.60
670.53	49.15
670.67	51.49
670.81	25.75
670.95	74.90
671.09	126.39
671.23	21.06
671.37	58.51
671.51	56.17
671.65	72.56
671.79	2.34
671.93	93.62
672.07	35.11
672.21	35.11
672.35	0.00
672.49	18.72
672.63	51.49
672.77	79.58
672.91	93.62
673.05	37.45
673.19	4.68
673.33	84.26
673.47	112.35
673.61	16.38
673.75	53.83
673.89	79.58
674.03	35.11
674.17	39.79
674.31	70.22
674.45	51.49
674.59	121.71
674.73	70.22
674.87	79.58
675.01	51.49
675.15	32.77
675.29	58.51
675.43	79.58
675.56	60.85
675.70	0.00
675.84	46.81
675.98	28.09
676.12	46.81
676.26	21.06
676.40	67.88
676.54	7.02
676.68	53.83
676.82	4.68
676.96	93.62
677.10	0.00
677.23	84.26
677.37	60.85
677.51	93.62
677.65	51.49
677.79	0.00
677.93	53.83
678.07	32.77
678.21	91.28
678.34	53.83
678.48	67.88
678.62	9.36
678.76	60.85
678.90	7.02
679.04	0.00
679.18	42.13
679.31	30.43
679.45	58.51
679.59	46.81
679.73	9.36
679.87	112.35
680.00	86.60
680.14	56.17
680.28	18.72
680.42	60.85
680.56	95.96
680.70	42.13
680.83	16.38
680.97	44.47
681.11	2.34
681.25	58.51
681.39	63.19
681.52	93.62
681.66	16.38
681.80	30.43
681.94	7.02
682.07	102.98
682.21	51.49
682.35	25.75
682.49	60.85
682.62	98.30
682.76	46.81
682.90	11.70
683.04	0.00
683.17	28.09
683.31	0.00
683.45	25.75
683.59	46.81
683.72	42.13
683.86	72.56
684.00	86.60
684.13	60.85
684.27	112.35
684.41	14.04
684.55	93.62
684.68	0.00
684.82	51.49
684.96	7.02
685.09	42.13
685.23	14.04
685.37	100.64
685.50	105.32
685.64	117.03
685.78	53.83
685.91	74.90
686.05	14.04
686.19	46.81
686.32	110.01
686.46	25.75
686.60	58.51
686.73	4.68
686.87	67.88
687.01	35.11
687.14	42.13
687.28	7.02
687.42	14.04
687.55	77.24
687.69	86.60
687.82	81.92
687.96	0.00
688.10	105.32
688.23	105.32
688.37	51.49
688.50	74.90
688.64	65.54
688.78	0.00
688.91	98.30
689.05	65.54
689.18	42.13
689.32	18.72
689.46	0.00
689.59	39.79
689.73	44.47
689.86	0.00
690.00	0.00
690.13	30.43
690.27	4.68
690.41	51.49
690.54	51.49
690.68	0.00
690.81	0.00
690.95	0.00
691.08	16.38
691.22	42.13
691.35	46.81
691.49	77.24
691.62	93.62
691.76	49.15
691.89	4.68
692.03	0.00
692.16	32.77
692.30	72.56
692.43	74.90
692.57	35.11
692.70	49.15
692.84	77.24
692.97	81.92
693.11	46.81
693.24	67.88
693.38	0.00
693.51	42.13
693.65	35.11
693.78	9.36
693.92	86.60
694.05	7.02
694.19	37.45
694.32	65.54
694.45	79.58
694.59	100.64
694.72	9.36
694.86	126.39
694.99	11.70
695.13	35.11
695.26	112.35
695.39	14.04
695.53	7.02
695.66	37.45
695.80	63.19
695.93	56.17
696.07	77.24
696.20	2.34
696.33	86.60
696.47	91.28
696.60	51.49
696.73	0.00
696.87	86.60
697.00	77.24
697.14	9.36
697.27	65.54
697.40	81.92
697.54	70.22
697.67	51.49
697.80	32.77
697.94	49.15
698.07	30.43
698.21	35.11
698.34	11.70
698.47	4.68
698.61	28.09
698.74	7.02
698.87	0.00
699.01	60.85
699.14	65.54
699.27	65.54
699.40	53.83
699.54	0.00
699.67	105.32
699.80	30.43
699.94	37.45
700.07	100.64
700.20	2.34
700.34	18.72
700.47	42.13
700.60	81.92
700.73	93.62
700.87	0.00
701.00	121.71
701.13	39.79
701.26	21.06
701.40	0.00
701.53	53.83
701.66	74.90
701.79	28.09
701.93	44.47
702.06	56.17
702.19	4.68
702.32	63.19
702.46	0.00
702.59	7.02
702.72	51.49
702.85	0.00
702.99	70.22
703.12	11.70
703.25	4.68
703.38	86.60
703.51	21.06
703.65	0.00
703.78	21.06
703.91	65.54
704.04	9.36
704.17	23.41
704.31	39.79
704.44	30.43
704.57	95.96
704.70	44.47
704.83	65.54
704.96	37.45
705.10	0.00
705.23	67.88
>>>>>End Processed Spectral Data<<<<<
