SpectraSuite Data File
++++++++++++++++++++++++++++++++++++
Date: Fri Oct 04 12:13:28 GMT-05:00 2013
User: price-jones
Dark Spectrum Present: No
Reference Spectrum Present: No
Number of Sampled Component Spectra: 1
Spectrometers: USB2+H05261
Integration Time (usec): 10000 (USB2+H05261)
Spectra Averaged: 1 (USB2+H05261)
Boxcar Smoothing: 0 (USB2+H05261)
Correct for Electrical Dark: No (USB2+H05261)
Strobe/Lamp Enabled: No (USB2+H05261)
Correct for Detector Non-linearity: No (USB2+H05261)
Correct for Stray Light: No (USB2+H05261)
Number of Pixels in Processed Spectrum: 2048
>>>>>Begin Processed Spectral Data<<<<<
365.73	0.00
365.92	0.00
366.12	0.00
366.32	0.00
366.52	0.00
366.72	0.00
366.91	0.00
367.11	0.00
367.31	0.00
367.51	0.00
367.70	0.00
367.90	0.00
368.10	0.00
368.30	0.00
368.49	0.00
368.69	0.00
368.89	0.00
369.09	0.00
369.28	0.00
369.48	0.00
369.68	0.00
369.87	0.00
370.07	0.00
370.27	0.00
370.47	0.00
370.66	0.00
370.86	0.00
371.06	0.00
371.25	0.00
371.45	0.00
371.65	0.00
371.84	0.00
372.04	9.36
372.24	18.72
372.44	0.00
372.63	39.79
372.83	0.00
373.03	0.00
373.22	65.54
373.42	0.00
373.62	0.00
373.81	56.17
374.01	39.79
374.21	60.85
374.40	14.04
374.60	2.34
374.79	0.00
374.99	25.75
375.19	79.58
375.38	0.00
375.58	114.69
375.78	16.38
375.97	81.92
376.17	39.79
376.37	65.54
376.56	28.09
376.76	0.00
376.95	0.00
377.15	9.36
377.35	44.47
377.54	23.41
377.74	28.09
377.93	0.00
378.13	0.00
378.33	0.00
378.52	42.13
378.72	0.00
378.91	0.00
379.11	0.00
379.31	37.45
379.50	32.77
379.70	9.36
379.89	67.88
380.09	28.09
380.28	44.47
380.48	0.00
380.68	86.60
380.87	0.00
381.07	0.00
381.26	18.72
381.46	0.00
381.65	65.54
381.85	81.92
382.04	0.00
382.24	14.04
382.43	16.38
382.63	77.24
382.83	39.79
383.02	60.85
383.22	72.56
383.41	0.00
383.61	14.04
383.80	0.00
384.00	53.83
384.19	37.45
384.39	35.11
384.58	0.00
384.78	0.00
384.97	44.47
385.17	35.11
385.36	0.00
385.56	0.00
385.75	4.68
385.95	0.00
386.14	74.90
386.34	0.00
386.53	35.11
386.72	23.41
386.92	28.09
387.11	14.04
387.31	79.58
387.50	60.85
387.70	44.47
387.89	4.68
388.09	25.75
388.28	32.77
388.48	18.72
388.67	91.28
388.86	56.17
389.06	58.51
389.25	0.00
389.45	0.00
389.64	35.11
389.84	58.51
390.03	30.43
390.22	0.00
390.42	7.02
390.61	32.77
390.81	28.09
391.00	39.79
391.19	30.43
391.39	0.00
391.58	46.81
391.78	102.98
391.97	7.02
392.16	35.11
392.36	0.00
392.55	0.00
392.75	53.83
392.94	32.77
393.13	102.98
393.33	58.51
393.52	37.45
393.71	37.45
393.91	32.77
394.10	9.36
394.29	7.02
394.49	0.00
394.68	0.00
394.88	0.00
395.07	0.00
395.26	63.19
395.46	11.70
395.65	37.45
395.84	2.34
396.04	74.90
396.23	9.36
396.42	0.00
396.62	79.58
396.81	23.41
397.00	9.36
397.19	18.72
397.39	23.41
397.58	42.13
397.77	0.00
397.97	91.28
398.16	7.02
398.35	65.54
398.55	39.79
398.74	0.00
398.93	0.00
399.12	0.00
399.32	42.13
399.51	0.00
399.70	0.00
399.90	18.72
400.09	32.77
400.28	53.83
400.47	126.39
400.67	88.94
400.86	77.24
401.05	98.30
401.24	23.41
401.44	56.17
401.63	0.00
401.82	0.00
402.01	51.49
402.21	25.75
402.40	51.49
402.59	0.00
402.78	65.54
402.97	88.94
403.17	11.70
403.36	28.09
403.55	0.00
403.74	0.00
403.93	7.02
404.13	25.75
404.32	65.54
404.51	7.02
404.70	72.56
404.89	81.92
405.09	77.24
405.28	0.00
405.47	32.77
405.66	9.36
405.85	25.75
406.05	16.38
406.24	0.00
406.43	0.00
406.62	37.45
406.81	2.34
407.00	65.54
407.20	11.70
407.39	30.43
407.58	28.09
407.77	28.09
407.96	37.45
408.15	28.09
408.34	0.00
408.54	77.24
408.73	98.30
408.92	0.00
409.11	18.72
409.30	0.00
409.49	32.77
409.68	30.43
409.87	23.41
410.07	39.79
410.26	0.00
410.45	81.92
410.64	30.43
410.83	32.77
411.02	0.00
411.21	0.00
411.40	0.00
411.59	0.00
411.78	28.09
411.98	0.00
412.17	58.51
412.36	44.47
412.55	23.41
412.74	0.00
412.93	25.75
413.12	7.02
413.31	4.68
413.50	0.00
413.69	7.02
413.88	0.00
414.07	0.00
414.26	60.85
414.45	18.72
414.64	72.56
414.83	58.51
415.02	37.45
415.22	9.36
415.41	60.85
415.60	0.00
415.79	91.28
415.98	32.77
416.17	0.00
416.36	0.00
416.55	18.72
416.74	18.72
416.93	58.51
417.12	18.72
417.31	0.00
417.50	14.04
417.69	49.15
417.88	56.17
418.07	35.11
418.26	28.09
418.45	4.68
418.64	16.38
418.83	14.04
419.02	9.36
419.21	16.38
419.39	100.64
419.58	0.00
419.77	56.17
419.96	93.62
420.15	11.70
420.34	0.00
420.53	0.00
420.72	30.43
420.91	9.36
421.10	25.75
421.29	84.26
421.48	2.34
421.67	0.00
421.86	16.38
422.05	124.05
422.24	16.38
422.43	4.68
422.61	32.77
422.80	0.00
422.99	14.04
423.18	28.09
423.37	32.77
423.56	67.88
423.75	56.17
423.94	46.81
424.13	51.49
424.32	21.06
424.50	0.00
424.69	9.36
424.88	79.58
425.07	7.02
425.26	0.00
425.45	21.06
425.64	2.34
425.83	0.00
426.01	30.43
426.20	46.81
426.39	44.47
426.58	46.81
426.77	32.77
426.96	30.43
427.15	51.49
427.33	21.06
427.52	4.68
427.71	74.90
427.90	81.92
428.09	58.51
428.28	0.00
428.46	44.47
428.65	0.00
428.84	37.45
429.03	93.62
429.22	56.17
429.40	0.00
429.59	30.43
429.78	16.38
429.97	63.19
430.16	65.54
430.34	0.00
430.53	32.77
430.72	0.00
430.91	30.43
431.10	63.19
431.28	0.00
431.47	23.41
431.66	0.00
431.85	88.94
432.03	105.32
432.22	23.41
432.41	16.38
432.60	0.00
432.79	58.51
432.97	11.70
433.16	0.00
433.35	121.71
433.54	0.00
433.72	0.00
433.91	93.62
434.10	74.90
434.28	37.45
434.47	42.13
434.66	67.88
434.85	4.68
435.03	0.00
435.22	16.38
435.41	0.00
435.59	11.70
435.78	21.06
435.97	51.49
436.16	39.79
436.34	0.00
436.53	18.72
436.72	51.49
436.90	35.11
437.09	0.00
437.28	35.11
437.46	0.00
437.65	21.06
437.84	23.41
438.02	77.24
438.21	39.79
438.40	21.06
438.58	0.00
438.77	72.56
438.96	0.00
439.14	63.19
439.33	0.00
439.52	0.00
439.70	65.54
439.89	60.85
440.08	18.72
440.26	60.85
440.45	25.75
440.63	56.17
440.82	77.24
441.01	11.70
441.19	56.17
441.38	23.41
441.57	14.04
441.75	65.54
441.94	32.77
442.12	0.00
442.31	9.36
442.50	35.11
442.68	28.09
442.87	35.11
443.05	0.00
443.24	56.17
443.43	65.54
443.61	46.81
443.80	79.58
443.98	42.13
444.17	42.13
444.35	9.36
444.54	23.41
444.73	16.38
444.91	0.00
445.10	16.38
445.28	100.64
445.47	9.36
445.65	95.96
445.84	25.75
446.02	21.06
446.21	131.07
446.39	46.81
446.58	9.36
446.77	67.88
446.95	0.00
447.14	37.45
447.32	30.43
447.51	0.00
447.69	0.00
447.88	18.72
448.06	60.85
448.25	60.85
448.43	53.83
448.62	0.00
448.80	105.32
448.99	88.94
449.17	4.68
449.36	67.88
449.54	63.19
449.73	7.02
449.91	42.13
450.10	0.00
450.28	0.00
450.46	28.09
450.65	44.47
450.83	0.00
451.02	0.00
451.20	28.09
451.39	0.00
451.57	46.81
451.76	0.00
451.94	37.45
452.13	65.54
452.31	0.00
452.49	11.70
452.68	0.00
452.86	124.05
453.05	77.24
453.23	0.00
453.42	25.75
453.60	53.83
453.78	0.00
453.97	23.41
454.15	42.13
454.34	37.45
454.52	95.96
454.70	84.26
454.89	21.06
455.07	2.34
455.26	0.00
455.44	0.00
455.62	42.13
455.81	58.51
455.99	0.00
456.17	58.51
456.36	0.00
456.54	0.00
456.73	0.00
456.91	0.00
457.09	0.00
457.28	30.43
457.46	18.72
457.64	0.00
457.83	58.51
458.01	95.96
458.19	39.79
458.38	128.73
458.56	7.02
458.74	37.45
458.93	0.00
459.11	0.00
459.29	30.43
459.48	0.00
459.66	11.70
459.84	58.51
460.03	2.34
460.21	0.00
460.39	0.00
460.57	14.04
460.76	25.75
460.94	67.88
461.12	70.22
461.31	0.00
461.49	28.09
461.67	25.75
461.85	35.11
462.04	18.72
462.22	124.05
462.40	0.00
462.59	63.19
462.77	23.41
462.95	58.51
463.13	42.13
463.32	84.26
463.50	0.00
463.68	51.49
463.86	56.17
464.05	0.00
464.23	37.45
464.41	119.37
464.59	23.41
464.78	53.83
464.96	0.00
465.14	84.26
465.32	60.85
465.50	74.90
465.69	4.68
465.87	0.00
466.05	30.43
466.23	2.34
466.41	0.00
466.60	39.79
466.78	49.15
466.96	44.47
467.14	107.66
467.32	0.00
467.51	63.19
467.69	21.06
467.87	0.00
468.05	91.28
468.23	4.68
468.41	7.02
468.60	56.17
468.78	14.04
468.96	49.15
469.14	72.56
469.32	0.00
469.50	77.24
469.69	18.72
469.87	9.36
470.05	0.00
470.23	53.83
470.41	0.00
470.59	4.68
470.77	37.45
470.95	0.00
471.14	39.79
471.32	23.41
471.50	0.00
471.68	65.54
471.86	56.17
472.04	7.02
472.22	0.00
472.40	0.00
472.58	112.35
472.77	60.85
472.95	63.19
473.13	30.43
473.31	14.04
473.49	32.77
473.67	2.34
473.85	70.22
474.03	77.24
474.21	11.70
474.39	28.09
474.57	11.70
474.75	37.45
474.93	0.00
475.12	51.49
475.30	72.56
475.48	67.88
475.66	91.28
475.84	53.83
476.02	102.98
476.20	49.15
476.38	30.43
476.56	23.41
476.74	23.41
476.92	42.13
477.10	0.00
477.28	74.90
477.46	56.17
477.64	0.00
477.82	0.00
478.00	77.24
478.18	60.85
478.36	74.90
478.54	21.06
478.72	28.09
478.90	53.83
479.08	30.43
479.26	32.77
479.44	39.79
479.62	0.00
479.80	4.68
479.98	21.06
480.16	0.00
480.34	21.06
480.52	37.45
480.70	100.64
480.88	42.13
481.06	0.00
481.24	63.19
481.41	39.79
481.59	11.70
481.77	39.79
481.95	102.98
482.13	4.68
482.31	4.68
482.49	72.56
482.67	86.60
482.85	42.13
483.03	119.37
483.21	49.15
483.39	81.92
483.57	0.00
483.74	63.19
483.92	46.81
484.10	11.70
484.28	74.90
484.46	51.49
484.64	84.26
484.82	11.70
485.00	21.06
485.18	72.56
485.35	0.00
485.53	0.00
485.71	0.00
485.89	53.83
486.07	53.83
486.25	56.17
486.43	23.41
486.61	25.75
486.78	44.47
486.96	14.04
487.14	39.79
487.32	51.49
487.50	51.49
487.68	0.00
487.85	7.02
488.03	72.56
488.21	18.72
488.39	4.68
488.57	35.11
488.75	0.00
488.92	117.03
489.10	25.75
489.28	0.00
489.46	79.58
489.64	39.79
489.81	0.00
489.99	79.58
490.17	0.00
490.35	32.77
490.53	0.00
490.70	117.03
490.88	72.56
491.06	49.15
491.24	44.47
491.41	32.77
491.59	44.47
491.77	25.75
491.95	0.00
492.13	16.38
492.30	11.70
492.48	0.00
492.66	2.34
492.84	135.75
493.01	79.58
493.19	56.17
493.37	30.43
493.54	91.28
493.72	0.00
493.90	100.64
494.08	39.79
494.25	86.60
494.43	49.15
494.61	58.51
494.79	23.41
494.96	49.15
495.14	11.70
495.32	18.72
495.49	105.32
495.67	37.45
495.85	2.34
496.02	37.45
496.20	60.85
496.38	49.15
496.55	49.15
496.73	0.00
496.91	0.00
497.09	67.88
497.26	0.00
497.44	32.77
497.62	25.75
497.79	42.13
497.97	67.88
498.14	100.64
498.32	58.51
498.50	51.49
498.67	0.00
498.85	56.17
499.03	84.26
499.20	72.56
499.38	81.92
499.56	16.38
499.73	0.00
499.91	42.13
500.08	49.15
500.26	23.41
500.44	25.75
500.61	63.19
500.79	110.01
500.97	65.54
501.14	7.02
501.32	65.54
501.49	4.68
501.67	25.75
501.84	7.02
502.02	23.41
502.20	30.43
502.37	35.11
502.55	9.36
502.72	16.38
502.90	86.60
503.07	65.54
503.25	21.06
503.43	30.43
503.60	53.83
503.78	49.15
503.95	0.00
504.13	28.09
504.30	14.04
504.48	88.94
504.65	39.79
504.83	70.22
505.01	9.36
505.18	67.88
505.36	0.00
505.53	32.77
505.71	25.75
505.88	32.77
506.06	32.77
506.23	46.81
506.41	67.88
506.58	28.09
506.76	42.13
506.93	39.79
507.11	28.09
507.28	88.94
507.46	0.00
507.63	9.36
507.81	81.92
507.98	25.75
508.16	37.45
508.33	91.28
508.50	56.17
508.68	37.45
508.85	25.75
509.03	42.13
509.20	65.54
509.38	72.56
509.55	25.75
509.73	0.00
509.90	37.45
510.08	70.22
510.25	21.06
510.42	58.51
510.60	44.47
510.77	93.62
510.95	21.06
511.12	56.17
511.30	58.51
511.47	49.15
511.64	65.54
511.82	56.17
511.99	0.00
512.17	58.51
512.34	16.38
512.51	35.11
512.69	107.66
512.86	35.11
513.04	32.77
513.21	72.56
513.38	63.19
513.56	65.54
513.73	0.00
513.90	4.68
514.08	63.19
514.25	0.00
514.43	53.83
514.60	35.11
514.77	7.02
514.95	72.56
515.12	77.24
515.29	72.56
515.47	77.24
515.64	0.00
515.81	65.54
515.99	65.54
516.16	39.79
516.33	44.47
516.51	42.13
516.68	58.51
516.85	16.38
517.03	21.06
517.20	0.00
517.37	18.72
517.54	67.88
517.72	42.13
517.89	0.00
518.06	46.81
518.24	42.13
518.41	91.28
518.58	46.81
518.75	53.83
518.93	0.00
519.10	110.01
519.27	0.00
519.45	35.11
519.62	30.43
519.79	112.35
519.96	0.00
520.14	98.30
520.31	46.81
520.48	32.77
520.65	25.75
520.83	60.85
521.00	32.77
521.17	0.00
521.34	72.56
521.52	74.90
521.69	42.13
521.86	14.04
522.03	51.49
522.20	0.00
522.38	42.13
522.55	79.58
522.72	53.83
522.89	30.43
523.07	0.00
523.24	42.13
523.41	100.64
523.58	60.85
523.75	39.79
523.92	14.04
524.10	0.00
524.27	30.43
524.44	25.75
524.61	35.11
524.78	44.47
524.96	4.68
525.13	0.00
525.30	35.11
525.47	81.92
525.64	51.49
525.81	18.72
525.98	0.00
526.16	65.54
526.33	107.66
526.50	7.02
526.67	30.43
526.84	42.13
527.01	58.51
527.18	16.38
527.36	42.13
527.53	9.36
527.70	0.00
527.87	32.77
528.04	72.56
528.21	53.83
528.38	35.11
528.55	28.09
528.72	0.00
528.89	72.56
529.07	74.90
529.24	58.51
529.41	37.45
529.58	0.00
529.75	84.26
529.92	53.83
530.09	32.77
530.26	21.06
530.43	23.41
530.60	93.62
530.77	16.38
530.94	81.92
531.11	124.05
531.28	9.36
531.46	0.00
531.63	44.47
531.80	49.15
531.97	93.62
532.14	49.15
532.31	32.77
532.48	25.75
532.65	93.62
532.82	35.11
532.99	74.90
533.16	42.13
533.33	0.00
533.50	30.43
533.67	0.00
533.84	44.47
534.01	56.17
534.18	49.15
534.35	70.22
534.52	56.17
534.69	14.04
534.86	93.62
535.03	2.34
535.20	65.54
535.37	30.43
535.54	35.11
535.71	23.41
535.88	60.85
536.05	56.17
536.22	128.73
536.38	35.11
536.55	88.94
536.72	39.79
536.89	60.85
537.06	58.51
537.23	46.81
537.40	44.47
537.57	32.77
537.74	98.30
537.91	60.85
538.08	98.30
538.25	0.00
538.42	30.43
538.59	51.49
538.75	79.58
538.92	77.24
539.09	42.13
539.26	9.36
539.43	102.98
539.60	215.33
539.77	259.80
539.94	145.11
540.11	156.82
540.28	98.30
540.44	53.83
540.61	42.13
540.78	72.56
540.95	77.24
541.12	58.51
541.29	65.54
541.46	91.28
541.62	51.49
541.79	46.81
541.96	58.51
542.13	86.60
542.30	98.30
542.47	67.88
542.63	0.00
542.80	110.01
542.97	7.02
543.14	0.00
543.31	0.00
543.48	37.45
543.64	0.00
543.81	2.34
543.98	42.13
544.15	0.00
544.32	0.00
544.48	30.43
544.65	9.36
544.82	53.83
544.99	49.15
545.16	56.17
545.32	86.60
545.49	28.09
545.66	28.09
545.83	35.11
546.00	37.45
546.16	35.11
546.33	63.19
546.50	58.51
546.67	74.90
546.83	4.68
547.00	46.81
547.17	44.47
547.34	46.81
547.50	28.09
547.67	51.49
547.84	0.00
548.00	49.15
548.17	0.00
548.34	0.00
548.51	25.75
548.67	53.83
548.84	25.75
549.01	2.34
549.18	4.68
549.34	84.26
549.51	0.00
549.68	0.00
549.84	65.54
550.01	86.60
550.18	79.58
550.34	81.92
550.51	84.26
550.68	37.45
550.84	107.66
551.01	100.64
551.18	95.96
551.34	63.19
551.51	2.34
551.68	28.09
551.84	65.54
552.01	72.56
552.18	37.45
552.34	91.28
552.51	30.43
552.68	79.58
552.84	91.28
553.01	112.35
553.18	67.88
553.34	0.00
553.51	42.13
553.67	0.00
553.84	93.62
554.01	21.06
554.17	98.30
554.34	84.26
554.51	51.49
554.67	49.15
554.84	102.98
555.00	32.77
555.17	44.47
555.33	46.81
555.50	35.11
555.67	35.11
555.83	2.34
556.00	0.00
556.16	74.90
556.33	4.68
556.50	0.00
556.66	53.83
556.83	51.49
556.99	35.11
557.16	56.17
557.32	58.51
557.49	72.56
557.65	105.32
557.82	35.11
557.98	70.22
558.15	77.24
558.32	0.00
558.48	39.79
558.65	0.00
558.81	98.30
558.98	67.88
559.14	42.13
559.31	63.19
559.47	28.09
559.64	0.00
559.80	107.66
559.97	32.77
560.13	72.56
560.30	42.13
560.46	0.00
560.63	81.92
560.79	39.79
560.96	53.83
561.12	0.00
561.29	35.11
561.45	44.47
561.61	21.06
561.78	60.85
561.94	0.00
562.11	0.00
562.27	14.04
562.44	0.00
562.60	28.09
562.77	126.39
562.93	95.96
563.10	0.00
563.26	91.28
563.42	16.38
563.59	42.13
563.75	63.19
563.92	0.00
564.08	37.45
564.24	70.22
564.41	28.09
564.57	7.02
564.74	91.28
564.90	28.09
565.07	42.13
565.23	98.30
565.39	84.26
565.56	0.00
565.72	0.00
565.88	42.13
566.05	72.56
566.21	0.00
566.38	44.47
566.54	0.00
566.70	56.17
566.87	28.09
567.03	4.68
567.19	95.96
567.36	39.79
567.52	124.05
567.68	32.77
567.85	9.36
568.01	2.34
568.17	65.54
568.34	46.81
568.50	30.43
568.66	28.09
568.83	63.19
568.99	0.00
569.15	9.36
569.32	67.88
569.48	77.24
569.64	126.39
569.81	39.79
569.97	21.06
570.13	124.05
570.30	74.90
570.46	70.22
570.62	0.00
570.78	11.70
570.95	7.02
571.11	46.81
571.27	4.68
571.43	11.70
571.60	70.22
571.76	81.92
571.92	0.00
572.09	58.51
572.25	16.38
572.41	42.13
572.57	16.38
572.74	21.06
572.90	0.00
573.06	56.17
573.22	67.88
573.38	11.70
573.55	65.54
573.71	56.17
573.87	77.24
574.03	79.58
574.20	39.79
574.36	93.62
574.52	86.60
574.68	70.22
574.84	67.88
575.01	58.51
575.17	14.04
575.33	70.22
575.49	28.09
575.65	98.30
575.82	95.96
575.98	119.37
576.14	98.30
576.30	84.26
576.46	112.35
576.62	67.88
576.79	42.13
576.95	7.02
577.11	32.77
577.27	91.28
577.43	0.00
577.59	35.11
577.75	44.47
577.92	58.51
578.08	39.79
578.24	70.22
578.40	0.00
578.56	0.00
578.72	25.75
578.88	42.13
579.04	74.90
579.21	56.17
579.37	53.83
579.53	86.60
579.69	81.92
579.85	117.03
580.01	44.47
580.17	39.79
580.33	4.68
580.49	51.49
580.65	0.00
580.82	53.83
580.98	81.92
581.14	51.49
581.30	56.17
581.46	74.90
581.62	112.35
581.78	53.83
581.94	30.43
582.10	0.00
582.26	74.90
582.42	145.11
582.58	46.81
582.74	60.85
582.90	49.15
583.06	67.88
583.22	28.09
583.38	72.56
583.54	60.85
583.70	32.77
583.86	161.50
584.02	154.48
584.18	51.49
584.34	189.58
584.50	404.91
584.66	2885.88
584.82	7094.16
584.98	10321.76
585.14	9097.66
585.30	5722.61
585.46	3452.29
585.62	2113.50
585.78	999.41
585.94	330.02
586.10	201.29
586.26	140.43
586.42	105.32
586.58	79.58
586.74	88.94
586.90	147.45
587.06	180.22
587.22	77.24
587.38	110.01
587.54	220.01
587.70	451.72
587.86	688.12
588.02	866.00
588.18	580.45
588.34	306.61
588.49	227.03
588.65	135.75
588.81	100.64
588.97	84.26
589.13	88.94
589.29	58.51
589.45	44.47
589.61	77.24
589.77	67.88
589.93	2.34
590.08	28.09
590.24	18.72
590.40	74.90
590.56	112.35
590.72	138.09
590.88	0.00
591.04	32.77
591.20	49.15
591.35	102.98
591.51	72.56
591.67	95.96
591.83	49.15
591.99	18.72
592.15	32.77
592.31	79.58
592.46	79.58
592.62	70.22
592.78	60.85
592.94	74.90
593.10	37.45
593.26	44.47
593.41	49.15
593.57	53.83
593.73	79.58
593.89	400.23
594.05	863.66
594.20	1289.64
594.36	1231.12
594.52	992.39
594.68	505.56
594.84	255.12
594.99	194.26
595.15	98.30
595.31	117.03
595.47	18.72
595.62	67.88
595.78	0.00
595.94	9.36
596.10	23.41
596.25	56.17
596.41	32.77
596.57	46.81
596.73	72.56
596.88	100.64
597.04	236.39
597.20	355.76
597.36	325.33
597.51	229.37
597.67	198.95
597.83	124.05
597.99	126.39
598.14	51.49
598.30	39.79
598.46	65.54
598.61	65.54
598.77	56.17
598.93	28.09
599.09	0.00
599.24	0.00
599.40	63.19
599.56	11.70
599.71	72.56
599.87	46.81
600.03	32.77
600.18	35.11
600.34	58.51
600.50	30.43
600.65	42.13
600.81	72.56
600.97	72.56
601.12	126.39
601.28	72.56
601.44	23.41
601.59	14.04
601.75	0.00
601.91	23.41
602.06	42.13
602.22	49.15
602.37	194.26
602.53	227.03
602.69	386.19
602.84	341.72
603.00	262.14
603.16	166.18
603.31	227.03
603.47	210.65
603.62	102.98
603.78	46.81
603.94	117.03
604.09	46.81
604.25	32.77
604.40	91.28
604.56	110.01
604.71	53.83
604.87	91.28
605.03	0.00
605.18	51.49
605.34	72.56
605.49	39.79
605.65	35.11
605.80	49.15
605.96	0.00
606.12	88.94
606.27	42.13
606.43	67.88
606.58	37.45
606.74	133.41
606.89	484.49
607.05	861.32
607.20	1186.65
607.36	966.64
607.51	638.97
607.67	472.79
607.82	341.72
607.98	215.33
608.13	49.15
608.29	86.60
608.44	39.79
608.60	16.38
608.75	128.73
608.91	161.50
609.06	711.52
609.22	1469.86
609.37	1863.07
609.53	1699.23
609.68	1107.07
609.84	699.82
609.99	435.34
610.15	374.49
610.30	180.22
610.46	53.83
610.61	95.96
610.76	102.98
610.92	0.00
611.07	79.58
611.23	58.51
611.38	35.11
611.54	44.47
611.69	32.77
611.84	28.09
612.00	67.88
612.15	39.79
612.31	23.41
612.46	77.24
612.62	74.90
612.77	100.64
612.92	60.85
613.08	25.75
613.23	119.37
613.39	117.03
613.54	135.75
613.69	653.01
613.85	1699.23
614.00	2750.13
614.15	2899.92
614.31	2157.97
614.46	1362.19
614.62	901.11
614.77	592.16
614.92	250.44
615.08	138.09
615.23	56.17
615.38	28.09
615.54	133.41
615.69	147.45
615.84	355.76
616.00	660.03
616.15	840.25
616.30	711.52
616.46	461.09
616.61	332.36
616.76	168.52
616.92	168.52
617.07	9.36
617.22	39.79
617.37	42.13
617.53	39.79
617.68	0.00
617.83	88.94
617.99	72.56
618.14	37.45
618.29	42.13
618.45	4.68
618.60	21.06
618.75	0.00
618.90	28.09
619.06	67.88
619.21	65.54
619.36	88.94
619.51	11.70
619.67	44.47
619.82	46.81
619.97	98.30
620.12	0.00
620.28	53.83
620.43	84.26
620.58	81.92
620.73	49.15
620.89	11.70
621.04	63.19
621.19	187.24
621.34	372.15
621.49	472.79
621.65	447.04
621.80	273.84
621.95	170.86
622.10	147.45
622.25	140.43
622.41	14.04
622.56	44.47
622.71	74.90
622.86	44.47
623.01	9.36
623.16	42.13
623.32	0.00
623.47	72.56
623.62	32.77
623.77	0.00
623.92	16.38
624.07	91.28
624.23	65.54
624.38	28.09
624.53	39.79
624.68	16.38
624.83	35.11
624.98	91.28
625.13	28.09
625.29	58.51
625.44	39.79
625.59	95.96
625.74	67.88
625.89	14.04
626.04	311.29
626.19	814.51
626.34	1418.36
626.49	1650.08
626.65	1238.14
626.80	828.55
626.95	585.13
627.10	351.08
627.25	215.33
627.40	107.66
627.55	49.15
627.70	70.22
627.85	4.68
628.00	74.90
628.15	58.51
628.30	0.00
628.45	77.24
628.60	42.13
628.76	0.00
628.91	133.41
629.06	39.79
629.21	74.90
629.36	98.30
629.51	28.09
629.66	107.66
629.81	128.73
629.96	138.09
630.11	287.89
630.26	400.23
630.41	332.36
630.56	255.12
630.71	161.50
630.86	100.64
631.01	147.45
631.16	79.58
631.31	35.11
631.46	30.43
631.61	60.85
631.76	28.09
631.91	37.45
632.06	32.77
632.21	30.43
632.36	88.94
632.51	77.24
632.66	30.43
632.81	177.88
632.96	505.56
633.10	863.66
633.25	1071.97
633.40	903.45
633.55	671.73
633.70	449.38
633.85	301.93
634.00	175.54
634.15	88.94
634.30	60.85
634.45	88.94
634.60	63.19
634.75	7.02
634.90	95.96
635.05	44.47
635.19	0.00
635.34	14.04
635.49	63.19
635.64	2.34
635.79	9.36
635.94	21.06
636.09	53.83
636.24	14.04
636.39	74.90
636.53	72.56
636.68	44.47
636.83	100.64
636.98	74.90
637.13	51.49
637.28	23.41
637.43	18.72
637.57	107.66
637.72	365.12
637.87	1205.38
638.02	1825.62
638.17	2118.18
638.32	1645.40
638.46	1086.01
638.61	779.40
638.76	493.85
638.91	220.01
639.06	131.07
639.20	56.17
639.35	28.09
639.50	102.98
639.65	702.16
639.80	1755.40
639.94	2853.11
640.09	3323.56
640.24	2232.87
640.39	1591.56
640.54	1102.39
640.68	713.86
640.83	344.06
640.98	184.90
641.13	102.98
641.27	60.85
641.42	28.09
641.57	18.72
641.72	39.79
641.86	18.72
642.01	37.45
642.16	79.58
642.31	18.72
642.45	0.00
642.60	39.79
642.75	79.58
642.90	42.13
643.04	16.38
643.19	18.72
643.34	14.04
643.48	58.51
643.63	100.64
643.78	114.69
643.93	0.00
644.07	91.28
644.22	91.28
644.37	53.83
644.51	44.47
644.66	56.17
644.81	65.54
644.95	0.00
645.10	70.22
645.25	77.24
645.39	32.77
645.54	0.00
645.69	18.72
645.83	88.94
645.98	0.00
646.13	0.00
646.27	63.19
646.42	0.00
646.57	86.60
646.71	93.62
646.86	4.68
647.00	11.70
647.15	0.00
647.30	60.85
647.44	21.06
647.59	32.77
647.74	53.83
647.88	0.00
648.03	25.75
648.17	60.85
648.32	21.06
648.47	67.88
648.61	0.00
648.76	107.66
648.90	37.45
649.05	51.49
649.20	58.51
649.34	102.98
649.49	100.64
649.63	39.79
649.78	44.47
649.92	56.17
650.07	271.50
650.21	837.91
650.36	1320.06
650.51	1607.95
650.65	1423.05
650.80	1036.86
650.94	610.88
651.09	381.51
651.23	163.84
651.38	110.01
651.52	105.32
651.67	51.49
651.81	39.79
651.96	0.00
652.10	44.47
652.25	56.17
652.39	42.13
652.54	35.11
652.68	23.41
652.83	231.71
652.97	482.15
653.12	653.01
653.26	535.98
653.41	365.12
653.55	241.08
653.70	217.67
653.84	39.79
653.99	112.35
654.13	0.00
654.27	49.15
654.42	91.28
654.56	86.60
654.71	0.00
654.85	14.04
655.00	70.22
655.14	7.02
655.29	0.00
655.43	77.24
655.57	0.00
655.72	21.06
655.86	67.88
656.01	74.90
656.15	35.11
656.30	58.51
656.44	37.45
656.58	0.00
656.73	70.22
656.87	0.00
657.01	32.77
657.16	81.92
657.30	63.19
657.45	77.24
657.59	28.09
657.73	93.62
657.88	4.68
658.02	77.24
658.16	60.85
658.31	84.26
658.45	0.00
658.60	14.04
658.74	0.00
658.88	46.81
659.03	37.45
659.17	124.05
659.31	105.32
659.46	393.21
659.60	638.97
659.74	795.78
659.89	802.80
660.03	578.11
660.17	369.80
660.32	241.08
660.46	100.64
660.60	67.88
660.74	49.15
660.89	0.00
661.03	49.15
661.17	86.60
661.32	0.00
661.46	119.37
661.60	21.06
661.74	0.00
661.89	23.41
662.03	30.43
662.17	4.68
662.31	0.00
662.46	60.85
662.60	32.77
662.74	102.98
662.88	37.45
663.03	86.60
663.17	42.13
663.31	0.00
663.45	39.79
663.60	21.06
663.74	86.60
663.88	14.04
664.02	58.51
664.17	35.11
664.31	28.09
664.45	0.00
664.59	44.47
664.73	25.75
664.88	58.51
665.02	74.90
665.16	37.45
665.30	30.43
665.44	0.00
665.59	0.00
665.73	28.09
665.87	14.04
666.01	0.00
666.15	0.00
666.29	14.04
666.44	25.75
666.58	44.47
666.72	117.03
666.86	93.62
667.00	77.24
667.14	21.06
667.28	224.69
667.43	669.39
667.57	1163.25
667.71	1441.77
667.85	1177.29
667.99	924.51
668.13	566.41
668.27	355.76
668.41	222.35
668.56	126.39
668.70	93.62
668.84	117.03
668.98	63.19
669.12	93.62
669.26	84.26
669.40	46.81
669.54	0.00
669.68	98.30
669.82	23.41
669.96	95.96
670.10	98.30
670.25	0.00
670.39	0.00
670.53	30.43
670.67	51.49
670.81	7.02
670.95	25.75
671.09	58.51
671.23	201.29
671.37	486.83
671.51	802.80
671.65	891.74
671.79	758.33
671.93	507.90
672.07	348.74
672.21	159.16
672.35	88.94
672.49	117.03
672.63	79.58
672.77	63.19
672.91	63.19
673.05	23.41
673.19	7.02
673.33	65.54
673.47	39.79
673.61	56.17
673.75	37.45
673.89	4.68
674.03	70.22
674.17	74.90
674.31	30.43
674.45	0.00
674.59	28.09
674.73	60.85
674.87	0.00
675.01	58.51
675.15	0.00
675.29	9.36
675.43	30.43
675.56	49.15
675.70	16.38
675.84	86.60
675.98	49.15
676.12	81.92
676.26	72.56
676.40	4.68
676.54	117.03
676.68	9.36
676.82	74.90
676.96	9.36
677.10	32.77
677.23	0.00
677.37	28.09
677.51	0.00
677.65	0.00
677.79	58.51
677.93	2.34
678.07	32.77
678.21	74.90
678.34	0.00
678.48	16.38
678.62	0.00
678.76	46.81
678.90	35.11
679.04	25.75
679.18	56.17
679.31	60.85
679.45	11.70
679.59	53.83
679.73	4.68
679.87	79.58
680.00	25.75
680.14	37.45
680.28	53.83
680.42	2.34
680.56	16.38
680.70	42.13
680.83	42.13
680.97	0.00
681.11	53.83
681.25	0.00
681.39	0.00
681.52	0.00
681.66	16.38
681.80	28.09
681.94	35.11
682.07	58.51
682.21	9.36
682.35	65.54
682.49	49.15
682.62	49.15
682.76	21.06
682.90	30.43
683.04	58.51
683.17	16.38
683.31	21.06
683.45	79.58
683.59	28.09
683.72	35.11
683.86	0.00
684.00	51.49
684.13	98.30
684.27	37.45
684.41	44.47
684.55	25.75
684.68	0.00
684.82	16.38
684.96	46.81
685.09	0.00
685.23	0.00
685.37	25.75
685.50	44.47
685.64	35.11
685.78	0.00
685.91	0.00
686.05	0.00
686.19	0.00
686.32	18.72
686.46	0.00
686.60	0.00
686.73	16.38
686.87	98.30
687.01	49.15
687.14	42.13
687.28	67.88
687.42	74.90
687.55	39.79
687.69	51.49
687.82	23.41
687.96	23.41
688.10	23.41
688.23	49.15
688.37	18.72
688.50	77.24
688.64	49.15
688.78	39.79
688.91	14.04
689.05	0.00
689.18	110.01
689.32	16.38
689.46	65.54
689.59	0.00
689.73	44.47
689.86	21.06
690.00	0.00
690.13	53.83
690.27	11.70
690.41	23.41
690.54	32.77
690.68	0.00
690.81	28.09
690.95	0.00
691.08	56.17
691.22	9.36
691.35	25.75
691.49	25.75
691.62	53.83
691.76	0.00
691.89	25.75
692.03	23.41
692.16	0.00
692.30	37.45
692.43	121.71
692.57	276.18
692.70	519.60
692.84	676.41
692.97	629.60
693.11	477.47
693.24	292.57
693.38	262.14
693.51	154.48
693.65	154.48
693.78	159.16
693.92	102.98
694.05	79.58
694.19	42.13
694.32	0.00
694.45	0.00
694.59	74.90
694.72	32.77
694.86	0.00
694.99	39.79
695.13	23.41
695.26	0.00
695.39	91.28
695.53	42.13
695.66	88.94
695.80	0.00
695.93	35.11
696.07	63.19
696.20	53.83
696.33	81.92
696.47	25.75
696.60	74.90
696.73	81.92
696.87	30.43
697.00	2.34
697.14	32.77
697.27	44.47
697.40	60.85
697.54	37.45
697.67	0.00
697.80	2.34
697.94	46.81
698.07	72.56
698.21	39.79
698.34	0.00
698.47	0.00
698.61	32.77
698.74	4.68
698.87	53.83
699.01	32.77
699.14	30.43
699.27	0.00
699.40	88.94
699.54	53.83
699.67	0.00
699.80	51.49
699.94	63.19
700.07	7.02
700.20	0.00
700.34	0.00
700.47	37.45
700.60	63.19
700.73	0.00
700.87	35.11
701.00	16.38
701.13	2.34
701.26	42.13
701.40	18.72
701.53	7.02
701.66	7.02
701.79	25.75
701.93	39.79
702.06	77.24
702.19	11.70
702.32	105.32
702.46	147.45
702.59	14.04
702.72	98.30
702.85	369.80
702.99	657.69
703.12	1111.75
703.25	1179.63
703.38	957.28
703.51	844.93
703.65	695.14
703.78	390.87
703.91	304.27
704.04	163.84
704.17	77.24
704.31	32.77
704.44	119.37
704.57	112.35
704.70	23.41
704.83	79.58
704.96	28.09
705.10	23.41
705.23	42.13
>>>>>End Processed Spectral Data<<<<<
