SpectraSuite Data File
++++++++++++++++++++++++++++++++++++
Date: Fri Oct 04 12:13:25 GMT-05:00 2013
User: price-jones
Dark Spectrum Present: No
Reference Spectrum Present: No
Number of Sampled Component Spectra: 1
Spectrometers: USB2+H05261
Integration Time (usec): 10000 (USB2+H05261)
Spectra Averaged: 1 (USB2+H05261)
Boxcar Smoothing: 0 (USB2+H05261)
Correct for Electrical Dark: No (USB2+H05261)
Strobe/Lamp Enabled: No (USB2+H05261)
Correct for Detector Non-linearity: No (USB2+H05261)
Correct for Stray Light: No (USB2+H05261)
Number of Pixels in Processed Spectrum: 2048
>>>>>Begin Processed Spectral Data<<<<<
365.73	2.34
365.92	2.34
366.12	2.34
366.32	0.00
366.52	0.00
366.72	0.00
366.91	0.00
367.11	0.00
367.31	0.00
367.51	0.00
367.70	0.00
367.90	0.00
368.10	0.00
368.30	0.00
368.49	0.00
368.69	0.00
368.89	0.00
369.09	0.00
369.28	0.00
369.48	0.00
369.68	0.00
369.87	0.00
370.07	0.00
370.27	0.00
370.47	0.00
370.66	0.00
370.86	0.00
371.06	0.00
371.25	0.00
371.45	0.00
371.65	0.00
371.84	16.38
372.04	0.00
372.24	65.54
372.44	23.41
372.63	53.83
372.83	0.00
373.03	0.00
373.22	23.41
373.42	0.00
373.62	70.22
373.81	65.54
374.01	37.45
374.21	32.77
374.40	117.03
374.60	56.17
374.79	46.81
374.99	14.04
375.19	51.49
375.38	0.00
375.58	46.81
375.78	60.85
375.97	9.36
376.17	32.77
376.37	23.41
376.56	28.09
376.76	0.00
376.95	58.51
377.15	0.00
377.35	4.68
377.54	72.56
377.74	0.00
377.93	65.54
378.13	11.70
378.33	11.70
378.52	25.75
378.72	35.11
378.91	14.04
379.11	0.00
379.31	14.04
379.50	14.04
379.70	0.00
379.89	18.72
380.09	88.94
380.28	37.45
380.48	0.00
380.68	0.00
380.87	0.00
381.07	9.36
381.26	21.06
381.46	7.02
381.65	86.60
381.85	44.47
382.04	88.94
382.24	60.85
382.43	63.19
382.63	35.11
382.83	0.00
383.02	35.11
383.22	32.77
383.41	0.00
383.61	4.68
383.80	53.83
384.00	0.00
384.19	0.00
384.39	0.00
384.58	51.49
384.78	30.43
384.97	0.00
385.17	18.72
385.36	44.47
385.56	63.19
385.75	81.92
385.95	0.00
386.14	0.00
386.34	0.00
386.53	0.00
386.72	39.79
386.92	49.15
387.11	42.13
387.31	0.00
387.50	11.70
387.70	11.70
387.89	0.00
388.09	32.77
388.28	7.02
388.48	16.38
388.67	79.58
388.86	91.28
389.06	72.56
389.25	0.00
389.45	51.49
389.64	95.96
389.84	28.09
390.03	63.19
390.22	44.47
390.42	42.13
390.61	30.43
390.81	32.77
391.00	14.04
391.19	4.68
391.39	0.00
391.58	51.49
391.78	0.00
391.97	16.38
392.16	56.17
392.36	58.51
392.55	0.00
392.75	0.00
392.94	11.70
393.13	0.00
393.33	16.38
393.52	32.77
393.71	0.00
393.91	0.00
394.10	9.36
394.29	23.41
394.49	7.02
394.68	60.85
394.88	0.00
395.07	49.15
395.26	67.88
395.46	0.00
395.65	0.00
395.84	44.47
396.04	121.71
396.23	51.49
396.42	0.00
396.62	0.00
396.81	74.90
397.00	58.51
397.19	77.24
397.39	100.64
397.58	18.72
397.77	25.75
397.97	86.60
398.16	46.81
398.35	0.00
398.55	23.41
398.74	88.94
398.93	0.00
399.12	72.56
399.32	51.49
399.51	46.81
399.70	16.38
399.90	67.88
400.09	51.49
400.28	39.79
400.47	0.00
400.67	14.04
400.86	28.09
401.05	49.15
401.24	91.28
401.44	0.00
401.63	35.11
401.82	9.36
402.01	9.36
402.21	0.00
402.40	44.47
402.59	0.00
402.78	0.00
402.97	0.00
403.17	63.19
403.36	77.24
403.55	18.72
403.74	18.72
403.93	49.15
404.13	88.94
404.32	2.34
404.51	37.45
404.70	21.06
404.89	37.45
405.09	35.11
405.28	0.00
405.47	0.00
405.66	100.64
405.85	28.09
406.05	14.04
406.24	81.92
406.43	60.85
406.62	25.75
406.81	74.90
407.00	42.13
407.20	30.43
407.39	46.81
407.58	25.75
407.77	30.43
407.96	21.06
408.15	39.79
408.34	67.88
408.54	46.81
408.73	65.54
408.92	0.00
409.11	2.34
409.30	0.00
409.49	102.98
409.68	39.79
409.87	7.02
410.07	110.01
410.26	16.38
410.45	18.72
410.64	74.90
410.83	39.79
411.02	60.85
411.21	77.24
411.40	77.24
411.59	35.11
411.78	77.24
411.98	63.19
412.17	37.45
412.36	37.45
412.55	88.94
412.74	32.77
412.93	79.58
413.12	30.43
413.31	0.00
413.50	9.36
413.69	0.00
413.88	70.22
414.07	44.47
414.26	49.15
414.45	32.77
414.64	0.00
414.83	0.00
415.02	2.34
415.22	49.15
415.41	0.00
415.60	0.00
415.79	28.09
415.98	0.00
416.17	25.75
416.36	35.11
416.55	0.00
416.74	23.41
416.93	2.34
417.12	56.17
417.31	32.77
417.50	23.41
417.69	0.00
417.88	0.00
418.07	0.00
418.26	63.19
418.45	25.75
418.64	0.00
418.83	114.69
419.02	0.00
419.21	46.81
419.39	28.09
419.58	25.75
419.77	2.34
419.96	0.00
420.15	18.72
420.34	44.47
420.53	0.00
420.72	0.00
420.91	0.00
421.10	0.00
421.29	37.45
421.48	4.68
421.67	63.19
421.86	42.13
422.05	11.70
422.24	60.85
422.43	9.36
422.61	0.00
422.80	0.00
422.99	58.51
423.18	0.00
423.37	23.41
423.56	56.17
423.75	58.51
423.94	42.13
424.13	2.34
424.32	65.54
424.50	0.00
424.69	0.00
424.88	72.56
425.07	0.00
425.26	0.00
425.45	74.90
425.64	28.09
425.83	0.00
426.01	0.00
426.20	0.00
426.39	18.72
426.58	32.77
426.77	28.09
426.96	0.00
427.15	35.11
427.33	70.22
427.52	21.06
427.71	16.38
427.90	46.81
428.09	28.09
428.28	16.38
428.46	0.00
428.65	0.00
428.84	4.68
429.03	28.09
429.22	23.41
429.40	18.72
429.59	9.36
429.78	0.00
429.97	25.75
430.16	30.43
430.34	18.72
430.53	0.00
430.72	30.43
430.91	49.15
431.10	88.94
431.28	25.75
431.47	7.02
431.66	35.11
431.85	37.45
432.03	14.04
432.22	117.03
432.41	14.04
432.60	9.36
432.79	0.00
432.97	0.00
433.16	37.45
433.35	65.54
433.54	23.41
433.72	9.36
433.91	100.64
434.10	46.81
434.28	65.54
434.47	56.17
434.66	0.00
434.85	32.77
435.03	88.94
435.22	28.09
435.41	39.79
435.59	9.36
435.78	35.11
435.97	25.75
436.16	0.00
436.34	39.79
436.53	42.13
436.72	70.22
436.90	11.70
437.09	35.11
437.28	0.00
437.46	7.02
437.65	0.00
437.84	0.00
438.02	0.00
438.21	4.68
438.40	30.43
438.58	0.00
438.77	98.30
438.96	44.47
439.14	0.00
439.33	79.58
439.52	0.00
439.70	67.88
439.89	7.02
440.08	0.00
440.26	91.28
440.45	21.06
440.63	35.11
440.82	39.79
441.01	58.51
441.19	60.85
441.38	91.28
441.57	84.26
441.75	30.43
441.94	0.00
442.12	23.41
442.31	42.13
442.50	18.72
442.68	18.72
442.87	25.75
443.05	21.06
443.24	9.36
443.43	21.06
443.61	30.43
443.80	9.36
443.98	0.00
444.17	21.06
444.35	81.92
444.54	100.64
444.73	11.70
444.91	23.41
445.10	9.36
445.28	0.00
445.47	100.64
445.65	65.54
445.84	100.64
446.02	44.47
446.21	37.45
446.39	18.72
446.58	95.96
446.77	2.34
446.95	58.51
447.14	0.00
447.32	81.92
447.51	25.75
447.69	72.56
447.88	28.09
448.06	28.09
448.25	65.54
448.43	58.51
448.62	72.56
448.80	79.58
448.99	77.24
449.17	42.13
449.36	30.43
449.54	23.41
449.73	65.54
449.91	49.15
450.10	25.75
450.28	35.11
450.46	60.85
450.65	44.47
450.83	42.13
451.02	58.51
451.20	32.77
451.39	51.49
451.57	51.49
451.76	74.90
451.94	67.88
452.13	70.22
452.31	60.85
452.49	63.19
452.68	70.22
452.86	30.43
453.05	23.41
453.23	72.56
453.42	30.43
453.60	32.77
453.78	0.00
453.97	0.00
454.15	23.41
454.34	53.83
454.52	0.00
454.70	98.30
454.89	63.19
455.07	14.04
455.26	0.00
455.44	65.54
455.62	0.00
455.81	4.68
455.99	70.22
456.17	0.00
456.36	18.72
456.54	16.38
456.73	37.45
456.91	0.00
457.09	4.68
457.28	28.09
457.46	2.34
457.64	2.34
457.83	9.36
458.01	0.00
458.19	88.94
458.38	0.00
458.56	23.41
458.74	32.77
458.93	23.41
459.11	39.79
459.29	32.77
459.48	110.01
459.66	25.75
459.84	39.79
460.03	65.54
460.21	49.15
460.39	121.71
460.57	30.43
460.76	100.64
460.94	25.75
461.12	30.43
461.31	37.45
461.49	18.72
461.67	37.45
461.85	67.88
462.04	9.36
462.22	58.51
462.40	110.01
462.59	100.64
462.77	58.51
462.95	0.00
463.13	42.13
463.32	16.38
463.50	53.83
463.68	93.62
463.86	9.36
464.05	16.38
464.23	70.22
464.41	28.09
464.59	21.06
464.78	77.24
464.96	53.83
465.14	93.62
465.32	21.06
465.50	30.43
465.69	16.38
465.87	37.45
466.05	79.58
466.23	60.85
466.41	86.60
466.60	56.17
466.78	58.51
466.96	23.41
467.14	7.02
467.32	39.79
467.51	81.92
467.69	23.41
467.87	56.17
468.05	65.54
468.23	25.75
468.41	39.79
468.60	0.00
468.78	9.36
468.96	53.83
469.14	18.72
469.32	4.68
469.50	0.00
469.69	58.51
469.87	39.79
470.05	37.45
470.23	46.81
470.41	60.85
470.59	0.00
470.77	53.83
470.95	32.77
471.14	135.75
471.32	37.45
471.50	112.35
471.68	86.60
471.86	79.58
472.04	74.90
472.22	39.79
472.40	25.75
472.58	18.72
472.77	67.88
472.95	102.98
473.13	65.54
473.31	0.00
473.49	30.43
473.67	0.00
473.85	4.68
474.03	21.06
474.21	46.81
474.39	51.49
474.57	93.62
474.75	18.72
474.93	23.41
475.12	14.04
475.30	23.41
475.48	46.81
475.66	44.47
475.84	37.45
476.02	23.41
476.20	25.75
476.38	35.11
476.56	0.00
476.74	35.11
476.92	56.17
477.10	32.77
477.28	0.00
477.46	0.00
477.64	65.54
477.82	9.36
478.00	88.94
478.18	9.36
478.36	63.19
478.54	0.00
478.72	0.00
478.90	2.34
479.08	58.51
479.26	70.22
479.44	44.47
479.62	0.00
479.80	46.81
479.98	16.38
480.16	0.00
480.34	0.00
480.52	60.85
480.70	18.72
480.88	49.15
481.06	88.94
481.24	35.11
481.41	67.88
481.59	67.88
481.77	11.70
481.95	0.00
482.13	0.00
482.31	39.79
482.49	65.54
482.67	18.72
482.85	32.77
483.03	32.77
483.21	56.17
483.39	49.15
483.57	58.51
483.74	95.96
483.92	63.19
484.10	42.13
484.28	16.38
484.46	65.54
484.64	39.79
484.82	77.24
485.00	95.96
485.18	7.02
485.35	25.75
485.53	0.00
485.71	23.41
485.89	0.00
486.07	0.00
486.25	32.77
486.43	60.85
486.61	60.85
486.78	0.00
486.96	0.00
487.14	100.64
487.32	77.24
487.50	0.00
487.68	65.54
487.85	18.72
488.03	100.64
488.21	18.72
488.39	0.00
488.57	98.30
488.75	21.06
488.92	30.43
489.10	23.41
489.28	42.13
489.46	32.77
489.64	56.17
489.81	0.00
489.99	14.04
490.17	37.45
490.35	51.49
490.53	2.34
490.70	44.47
490.88	11.70
491.06	65.54
491.24	110.01
491.41	0.00
491.59	65.54
491.77	14.04
491.95	30.43
492.13	23.41
492.30	79.58
492.48	0.00
492.66	0.00
492.84	119.37
493.01	86.60
493.19	51.49
493.37	28.09
493.54	0.00
493.72	63.19
493.90	21.06
494.08	0.00
494.25	91.28
494.43	58.51
494.61	30.43
494.79	14.04
494.96	37.45
495.14	53.83
495.32	0.00
495.49	128.73
495.67	67.88
495.85	39.79
496.02	23.41
496.20	65.54
496.38	25.75
496.55	51.49
496.73	70.22
496.91	0.00
497.09	53.83
497.26	16.38
497.44	0.00
497.62	46.81
497.79	16.38
497.97	25.75
498.14	30.43
498.32	42.13
498.50	88.94
498.67	0.00
498.85	37.45
499.03	18.72
499.20	65.54
499.38	70.22
499.56	21.06
499.73	30.43
499.91	91.28
500.08	70.22
500.26	49.15
500.44	7.02
500.61	102.98
500.79	0.00
500.97	32.77
501.14	51.49
501.32	18.72
501.49	95.96
501.67	95.96
501.84	44.47
502.02	53.83
502.20	30.43
502.37	21.06
502.55	98.30
502.72	42.13
502.90	25.75
503.07	81.92
503.25	0.00
503.43	14.04
503.60	0.00
503.78	88.94
503.95	39.79
504.13	18.72
504.30	91.28
504.48	100.64
504.65	128.73
504.83	30.43
505.01	0.00
505.18	28.09
505.36	42.13
505.53	74.90
505.71	65.54
505.88	70.22
506.06	0.00
506.23	88.94
506.41	0.00
506.58	30.43
506.76	112.35
506.93	18.72
507.11	58.51
507.28	46.81
507.46	0.00
507.63	0.00
507.81	37.45
507.98	77.24
508.16	37.45
508.33	39.79
508.50	56.17
508.68	135.75
508.85	16.38
509.03	86.60
509.20	0.00
509.38	30.43
509.55	56.17
509.73	65.54
509.90	23.41
510.08	72.56
510.25	42.13
510.42	58.51
510.60	95.96
510.77	39.79
510.95	21.06
511.12	9.36
511.30	70.22
511.47	56.17
511.64	14.04
511.82	0.00
511.99	4.68
512.17	60.85
512.34	28.09
512.51	60.85
512.69	16.38
512.86	30.43
513.04	77.24
513.21	35.11
513.38	16.38
513.56	25.75
513.73	18.72
513.90	42.13
514.08	4.68
514.25	30.43
514.43	58.51
514.60	88.94
514.77	93.62
514.95	58.51
515.12	0.00
515.29	79.58
515.47	0.00
515.64	49.15
515.81	9.36
515.99	0.00
516.16	60.85
516.33	0.00
516.51	32.77
516.68	0.00
516.85	28.09
517.03	58.51
517.20	9.36
517.37	44.47
517.54	35.11
517.72	44.47
517.89	51.49
518.06	39.79
518.24	32.77
518.41	79.58
518.58	72.56
518.75	72.56
518.93	131.07
519.10	53.83
519.27	0.00
519.45	60.85
519.62	11.70
519.79	0.00
519.96	63.19
520.14	42.13
520.31	70.22
520.48	28.09
520.65	18.72
520.83	28.09
521.00	23.41
521.17	72.56
521.34	0.00
521.52	65.54
521.69	53.83
521.86	133.41
522.03	25.75
522.20	25.75
522.38	58.51
522.55	23.41
522.72	91.28
522.89	46.81
523.07	44.47
523.24	72.56
523.41	63.19
523.58	28.09
523.75	0.00
523.92	44.47
524.10	53.83
524.27	14.04
524.44	58.51
524.61	7.02
524.78	51.49
524.96	0.00
525.13	14.04
525.30	39.79
525.47	65.54
525.64	35.11
525.81	7.02
525.98	58.51
526.16	74.90
526.33	32.77
526.50	7.02
526.67	0.00
526.84	0.00
527.01	42.13
527.18	25.75
527.36	0.00
527.53	7.02
527.70	42.13
527.87	37.45
528.04	65.54
528.21	23.41
528.38	28.09
528.55	25.75
528.72	42.13
528.89	46.81
529.07	0.00
529.24	37.45
529.41	72.56
529.58	79.58
529.75	30.43
529.92	46.81
530.09	30.43
530.26	28.09
530.43	0.00
530.60	86.60
530.77	0.00
530.94	51.49
531.11	65.54
531.28	46.81
531.46	0.00
531.63	0.00
531.80	14.04
531.97	35.11
532.14	2.34
532.31	16.38
532.48	44.47
532.65	35.11
532.82	18.72
532.99	7.02
533.16	2.34
533.33	35.11
533.50	60.85
533.67	14.04
533.84	72.56
534.01	49.15
534.18	21.06
534.35	37.45
534.52	81.92
534.69	60.85
534.86	0.00
535.03	56.17
535.20	56.17
535.37	81.92
535.54	67.88
535.71	0.00
535.88	7.02
536.05	70.22
536.22	63.19
536.38	88.94
536.55	72.56
536.72	70.22
536.89	0.00
537.06	84.26
537.23	84.26
537.40	14.04
537.57	65.54
537.74	0.00
537.91	21.06
538.08	16.38
538.25	18.72
538.42	37.45
538.59	39.79
538.75	95.96
538.92	37.45
539.09	65.54
539.26	60.85
539.43	0.00
539.60	0.00
539.77	65.54
539.94	58.51
540.11	58.51
540.28	0.00
540.44	0.00
540.61	53.83
540.78	23.41
540.95	0.00
541.12	16.38
541.29	32.77
541.46	18.72
541.62	67.88
541.79	49.15
541.96	49.15
542.13	60.85
542.30	28.09
542.47	86.60
542.63	53.83
542.80	16.38
542.97	11.70
543.14	21.06
543.31	23.41
543.48	37.45
543.64	35.11
543.81	39.79
543.98	102.98
544.15	4.68
544.32	0.00
544.48	142.77
544.65	70.22
544.82	42.13
544.99	23.41
545.16	9.36
545.32	18.72
545.49	0.00
545.66	28.09
545.83	23.41
546.00	65.54
546.16	39.79
546.33	74.90
546.50	7.02
546.67	72.56
546.83	0.00
547.00	14.04
547.17	79.58
547.34	77.24
547.50	2.34
547.67	58.51
547.84	42.13
548.00	67.88
548.17	77.24
548.34	23.41
548.51	0.00
548.67	72.56
548.84	4.68
549.01	42.13
549.18	0.00
549.34	58.51
549.51	72.56
549.68	4.68
549.84	112.35
550.01	46.81
550.18	32.77
550.34	0.00
550.51	65.54
550.68	18.72
550.84	49.15
551.01	114.69
551.18	23.41
551.34	23.41
551.51	72.56
551.68	51.49
551.84	0.00
552.01	14.04
552.18	46.81
552.34	25.75
552.51	32.77
552.68	131.07
552.84	91.28
553.01	60.85
553.18	23.41
553.34	0.00
553.51	88.94
553.67	119.37
553.84	49.15
554.01	23.41
554.17	0.00
554.34	46.81
554.51	37.45
554.67	2.34
554.84	42.13
555.00	56.17
555.17	32.77
555.33	88.94
555.50	72.56
555.67	39.79
555.83	16.38
556.00	18.72
556.16	86.60
556.33	44.47
556.50	0.00
556.66	0.00
556.83	49.15
556.99	56.17
557.16	74.90
557.32	32.77
557.49	39.79
557.65	28.09
557.82	0.00
557.98	77.24
558.15	74.90
558.32	9.36
558.48	88.94
558.65	49.15
558.81	0.00
558.98	23.41
559.14	0.00
559.31	0.00
559.47	84.26
559.64	37.45
559.80	53.83
559.97	63.19
560.13	37.45
560.30	4.68
560.46	25.75
560.63	84.26
560.79	42.13
560.96	51.49
561.12	51.49
561.29	42.13
561.45	35.11
561.61	51.49
561.78	88.94
561.94	63.19
562.11	0.00
562.27	44.47
562.44	74.90
562.60	56.17
562.77	98.30
562.93	11.70
563.10	51.49
563.26	114.69
563.42	0.00
563.59	51.49
563.75	14.04
563.92	32.77
564.08	0.00
564.24	25.75
564.41	72.56
564.57	60.85
564.74	9.36
564.90	28.09
565.07	14.04
565.23	28.09
565.39	0.00
565.56	77.24
565.72	39.79
565.88	32.77
566.05	32.77
566.21	28.09
566.38	21.06
566.54	0.00
566.70	51.49
566.87	65.54
567.03	98.30
567.19	53.83
567.36	0.00
567.52	105.32
567.68	0.00
567.85	0.00
568.01	53.83
568.17	86.60
568.34	42.13
568.50	60.85
568.66	65.54
568.83	28.09
568.99	0.00
569.15	65.54
569.32	0.00
569.48	39.79
569.64	7.02
569.81	28.09
569.97	35.11
570.13	30.43
570.30	81.92
570.46	21.06
570.62	0.00
570.78	93.62
570.95	0.00
571.11	60.85
571.27	14.04
571.43	49.15
571.60	30.43
571.76	84.26
571.92	30.43
572.09	51.49
572.25	63.19
572.41	0.00
572.57	65.54
572.74	0.00
572.90	7.02
573.06	49.15
573.22	0.00
573.38	7.02
573.55	86.60
573.71	0.00
573.87	16.38
574.03	95.96
574.20	88.94
574.36	32.77
574.52	63.19
574.68	53.83
574.84	44.47
575.01	21.06
575.17	44.47
575.33	0.00
575.49	0.00
575.65	0.00
575.82	30.43
575.98	72.56
576.14	72.56
576.30	16.38
576.46	23.41
576.62	53.83
576.79	0.00
576.95	21.06
577.11	25.75
577.27	56.17
577.43	0.00
577.59	56.17
577.75	0.00
577.92	86.60
578.08	23.41
578.24	32.77
578.40	25.75
578.56	0.00
578.72	9.36
578.88	86.60
579.04	30.43
579.21	0.00
579.37	42.13
579.53	63.19
579.69	63.19
579.85	98.30
580.01	44.47
580.17	0.00
580.33	63.19
580.49	63.19
580.65	0.00
580.82	0.00
580.98	49.15
581.14	0.00
581.30	49.15
581.46	0.00
581.62	25.75
581.78	98.30
581.94	11.70
582.10	44.47
582.26	74.90
582.42	4.68
582.58	14.04
582.74	0.00
582.90	0.00
583.06	14.04
583.22	119.37
583.38	0.00
583.54	35.11
583.70	65.54
583.86	65.54
584.02	21.06
584.18	42.13
584.34	35.11
584.50	67.88
584.66	56.17
584.82	58.51
584.98	65.54
585.14	63.19
585.30	21.06
585.46	81.92
585.62	70.22
585.78	81.92
585.94	77.24
586.10	21.06
586.26	35.11
586.42	51.49
586.58	49.15
586.74	0.00
586.90	23.41
587.06	9.36
587.22	9.36
587.38	35.11
587.54	0.00
587.70	51.49
587.86	51.49
588.02	21.06
588.18	74.90
588.34	72.56
588.49	37.45
588.65	67.88
588.81	53.83
588.97	32.77
589.13	0.00
589.29	60.85
589.45	25.75
589.61	14.04
589.77	60.85
589.93	0.00
590.08	18.72
590.24	44.47
590.40	84.26
590.56	65.54
590.72	30.43
590.88	32.77
591.04	9.36
591.20	0.00
591.35	65.54
591.51	60.85
591.67	70.22
591.83	23.41
591.99	93.62
592.15	67.88
592.31	28.09
592.46	74.90
592.62	16.38
592.78	23.41
592.94	98.30
593.10	131.07
593.26	95.96
593.41	0.00
593.57	67.88
593.73	0.00
593.89	28.09
594.05	70.22
594.20	18.72
594.36	67.88
594.52	23.41
594.68	0.00
594.84	9.36
594.99	7.02
595.15	49.15
595.31	112.35
595.47	72.56
595.62	63.19
595.78	147.45
595.94	56.17
596.10	0.00
596.25	35.11
596.41	44.47
596.57	72.56
596.73	4.68
596.88	0.00
597.04	56.17
597.20	0.00
597.36	0.00
597.51	98.30
597.67	28.09
597.83	9.36
597.99	67.88
598.14	30.43
598.30	63.19
598.46	28.09
598.61	49.15
598.77	67.88
598.93	51.49
599.09	39.79
599.24	7.02
599.40	32.77
599.56	49.15
599.71	0.00
599.87	72.56
600.03	86.60
600.18	98.30
600.34	60.85
600.50	0.00
600.65	0.00
600.81	21.06
600.97	35.11
601.12	65.54
601.28	23.41
601.44	28.09
601.59	49.15
601.75	0.00
601.91	21.06
602.06	14.04
602.22	65.54
602.37	56.17
602.53	7.02
602.69	37.45
602.84	88.94
603.00	88.94
603.16	16.38
603.31	35.11
603.47	25.75
603.62	67.88
603.78	72.56
603.94	65.54
604.09	35.11
604.25	0.00
604.40	18.72
604.56	0.00
604.71	112.35
604.87	44.47
605.03	2.34
605.18	0.00
605.34	58.51
605.49	37.45
605.65	60.85
605.80	35.11
605.96	32.77
606.12	37.45
606.27	77.24
606.43	72.56
606.58	49.15
606.74	0.00
606.89	46.81
607.05	7.02
607.20	28.09
607.36	86.60
607.51	7.02
607.67	60.85
607.82	37.45
607.98	117.03
608.13	77.24
608.29	67.88
608.44	58.51
608.60	9.36
608.75	46.81
608.91	39.79
609.06	39.79
609.22	23.41
609.37	0.00
609.53	28.09
609.68	100.64
609.84	18.72
609.99	9.36
610.15	72.56
610.30	30.43
610.46	49.15
610.61	35.11
610.76	44.47
610.92	0.00
611.07	0.00
611.23	53.83
611.38	84.26
611.54	21.06
611.69	30.43
611.84	88.94
612.00	72.56
612.15	84.26
612.31	11.70
612.46	30.43
612.62	30.43
612.77	0.00
612.92	63.19
613.08	107.66
613.23	67.88
613.39	93.62
613.54	32.77
613.69	21.06
613.85	35.11
614.00	51.49
614.15	0.00
614.31	84.26
614.46	0.00
614.62	4.68
614.77	32.77
614.92	46.81
615.08	2.34
615.23	28.09
615.38	0.00
615.54	56.17
615.69	4.68
615.84	23.41
616.00	28.09
616.15	9.36
616.30	79.58
616.46	79.58
616.61	7.02
616.76	39.79
616.92	42.13
617.07	72.56
617.22	56.17
617.37	4.68
617.53	0.00
617.68	11.70
617.83	18.72
617.99	58.51
618.14	0.00
618.29	56.17
618.45	53.83
618.60	28.09
618.75	98.30
618.90	0.00
619.06	18.72
619.21	0.00
619.36	58.51
619.51	65.54
619.67	39.79
619.82	49.15
619.97	28.09
620.12	65.54
620.28	0.00
620.43	32.77
620.58	42.13
620.73	98.30
620.89	18.72
621.04	28.09
621.19	0.00
621.34	0.00
621.49	42.13
621.65	86.60
621.80	14.04
621.95	2.34
622.10	58.51
622.25	63.19
622.41	98.30
622.56	100.64
622.71	30.43
622.86	60.85
623.01	0.00
623.16	53.83
623.32	0.00
623.47	0.00
623.62	49.15
623.77	0.00
623.92	0.00
624.07	23.41
624.23	44.47
624.38	35.11
624.53	65.54
624.68	30.43
624.83	21.06
624.98	51.49
625.13	0.00
625.29	21.06
625.44	67.88
625.59	18.72
625.74	60.85
625.89	105.32
626.04	0.00
626.19	42.13
626.34	44.47
626.49	74.90
626.65	67.88
626.80	9.36
626.95	30.43
627.10	0.00
627.25	56.17
627.40	23.41
627.55	0.00
627.70	4.68
627.85	4.68
628.00	0.00
628.15	4.68
628.30	0.00
628.45	72.56
628.60	14.04
628.76	0.00
628.91	95.96
629.06	67.88
629.21	25.75
629.36	25.75
629.51	0.00
629.66	56.17
629.81	42.13
629.96	35.11
630.11	51.49
630.26	11.70
630.41	58.51
630.56	37.45
630.71	95.96
630.86	7.02
631.01	49.15
631.16	0.00
631.31	79.58
631.46	0.00
631.61	67.88
631.76	0.00
631.91	11.70
632.06	0.00
632.21	44.47
632.36	7.02
632.51	35.11
632.66	4.68
632.81	0.00
632.96	74.90
633.10	53.83
633.25	28.09
633.40	14.04
633.55	0.00
633.70	0.00
633.85	56.17
634.00	0.00
634.15	44.47
634.30	2.34
634.45	72.56
634.60	93.62
634.75	0.00
634.90	0.00
635.05	37.45
635.19	65.54
635.34	2.34
635.49	0.00
635.64	23.41
635.79	84.26
635.94	35.11
636.09	35.11
636.24	11.70
636.39	14.04
636.53	16.38
636.68	11.70
636.83	0.00
636.98	0.00
637.13	0.00
637.28	0.00
637.43	4.68
637.57	60.85
637.72	32.77
637.87	77.24
638.02	58.51
638.17	9.36
638.32	0.00
638.46	0.00
638.61	0.00
638.76	21.06
638.91	9.36
639.06	39.79
639.20	23.41
639.35	46.81
639.50	51.49
639.65	39.79
639.80	42.13
639.94	93.62
640.09	0.00
640.24	28.09
640.39	37.45
640.54	42.13
640.68	102.98
640.83	0.00
640.98	46.81
641.13	0.00
641.27	25.75
641.42	9.36
641.57	28.09
641.72	0.00
641.86	30.43
642.01	44.47
642.16	0.00
642.31	2.34
642.45	42.13
642.60	25.75
642.75	72.56
642.90	93.62
643.04	0.00
643.19	0.00
643.34	65.54
643.48	37.45
643.63	32.77
643.78	18.72
643.93	4.68
644.07	0.00
644.22	32.77
644.37	9.36
644.51	72.56
644.66	23.41
644.81	56.17
644.95	23.41
645.10	0.00
645.25	35.11
645.39	9.36
645.54	0.00
645.69	0.00
645.83	0.00
645.98	0.00
646.13	32.77
646.27	65.54
646.42	46.81
646.57	72.56
646.71	72.56
646.86	84.26
647.00	25.75
647.15	44.47
647.30	51.49
647.44	7.02
647.59	0.00
647.74	53.83
647.88	2.34
648.03	28.09
648.17	81.92
648.32	37.45
648.47	0.00
648.61	32.77
648.76	42.13
648.90	35.11
649.05	42.13
649.20	0.00
649.34	60.85
649.49	49.15
649.63	2.34
649.78	35.11
649.92	42.13
650.07	39.79
650.21	65.54
650.36	0.00
650.51	21.06
650.65	23.41
650.80	117.03
650.94	44.47
651.09	37.45
651.23	32.77
651.38	79.58
651.52	37.45
651.67	23.41
651.81	35.11
651.96	23.41
652.10	0.00
652.25	95.96
652.39	2.34
652.54	16.38
652.68	21.06
652.83	25.75
652.97	25.75
653.12	30.43
653.26	53.83
653.41	18.72
653.55	79.58
653.70	39.79
653.84	0.00
653.99	28.09
654.13	0.00
654.27	14.04
654.42	30.43
654.56	0.00
654.71	39.79
654.85	39.79
655.00	98.30
655.14	30.43
655.29	58.51
655.43	2.34
655.57	58.51
655.72	51.49
655.86	70.22
656.01	0.00
656.15	84.26
656.30	23.41
656.44	65.54
656.58	102.98
656.73	32.77
656.87	0.00
657.01	14.04
657.16	23.41
657.30	42.13
657.45	60.85
657.59	63.19
657.73	39.79
657.88	65.54
658.02	93.62
658.16	30.43
658.31	65.54
658.45	28.09
658.60	51.49
658.74	14.04
658.88	49.15
659.03	28.09
659.17	16.38
659.31	0.00
659.46	74.90
659.60	63.19
659.74	67.88
659.89	32.77
660.03	35.11
660.17	11.70
660.32	58.51
660.46	53.83
660.60	25.75
660.74	86.60
660.89	65.54
661.03	0.00
661.17	0.00
661.32	0.00
661.46	14.04
661.60	72.56
661.74	25.75
661.89	79.58
662.03	21.06
662.17	2.34
662.31	56.17
662.46	42.13
662.60	77.24
662.74	44.47
662.88	0.00
663.03	9.36
663.17	21.06
663.31	44.47
663.45	0.00
663.60	0.00
663.74	0.00
663.88	4.68
664.02	35.11
664.17	0.00
664.31	110.01
664.45	37.45
664.59	4.68
664.73	65.54
664.88	44.47
665.02	30.43
665.16	79.58
665.30	131.07
665.44	42.13
665.59	67.88
665.73	81.92
665.87	30.43
666.01	21.06
666.15	0.00
666.29	28.09
666.44	39.79
666.58	39.79
666.72	14.04
666.86	16.38
667.00	25.75
667.14	28.09
667.28	58.51
667.43	44.47
667.57	65.54
667.71	30.43
667.85	0.00
667.99	23.41
668.13	117.03
668.27	67.88
668.41	11.70
668.56	0.00
668.70	42.13
668.84	114.69
668.98	49.15
669.12	46.81
669.26	63.19
669.40	44.47
669.54	23.41
669.68	67.88
669.82	72.56
669.96	63.19
670.10	58.51
670.25	11.70
670.39	30.43
670.53	32.77
670.67	39.79
670.81	25.75
670.95	30.43
671.09	21.06
671.23	7.02
671.37	0.00
671.51	42.13
671.65	2.34
671.79	0.00
671.93	0.00
672.07	7.02
672.21	35.11
672.35	11.70
672.49	49.15
672.63	7.02
672.77	4.68
672.91	9.36
673.05	37.45
673.19	9.36
673.33	79.58
673.47	49.15
673.61	51.49
673.75	28.09
673.89	112.35
674.03	7.02
674.17	53.83
674.31	0.00
674.45	11.70
674.59	72.56
674.73	2.34
674.87	56.17
675.01	53.83
675.15	74.90
675.29	51.49
675.43	0.00
675.56	0.00
675.70	7.02
675.84	0.00
675.98	0.00
676.12	30.43
676.26	32.77
676.40	2.34
676.54	0.00
676.68	51.49
676.82	0.00
676.96	0.00
677.10	37.45
677.23	21.06
677.37	77.24
677.51	0.00
677.65	46.81
677.79	2.34
677.93	49.15
678.07	16.38
678.21	65.54
678.34	0.00
678.48	4.68
678.62	0.00
678.76	0.00
678.90	0.00
679.04	53.83
679.18	44.47
679.31	4.68
679.45	21.06
679.59	30.43
679.73	0.00
679.87	63.19
680.00	0.00
680.14	0.00
680.28	14.04
680.42	91.28
680.56	16.38
680.70	0.00
680.83	18.72
680.97	28.09
681.11	0.00
681.25	114.69
681.39	105.32
681.52	44.47
681.66	58.51
681.80	51.49
681.94	23.41
682.07	0.00
682.21	37.45
682.35	0.00
682.49	58.51
682.62	18.72
682.76	46.81
682.90	105.32
683.04	4.68
683.17	46.81
683.31	30.43
683.45	9.36
683.59	35.11
683.72	37.45
683.86	46.81
684.00	67.88
684.13	51.49
684.27	51.49
684.41	114.69
684.55	7.02
684.68	25.75
684.82	46.81
684.96	98.30
685.09	37.45
685.23	32.77
685.37	53.83
685.50	37.45
685.64	9.36
685.78	16.38
685.91	28.09
686.05	21.06
686.19	65.54
686.32	32.77
686.46	28.09
686.60	42.13
686.73	23.41
686.87	9.36
687.01	0.00
687.14	72.56
687.28	25.75
687.42	7.02
687.55	60.85
687.69	39.79
687.82	16.38
687.96	28.09
688.10	0.00
688.23	23.41
688.37	25.75
688.50	46.81
688.64	23.41
688.78	46.81
688.91	9.36
689.05	79.58
689.18	21.06
689.32	53.83
689.46	30.43
689.59	0.00
689.73	18.72
689.86	16.38
690.00	56.17
690.13	60.85
690.27	39.79
690.41	84.26
690.54	30.43
690.68	51.49
690.81	119.37
690.95	56.17
691.08	53.83
691.22	4.68
691.35	14.04
691.49	0.00
691.62	65.54
691.76	65.54
691.89	18.72
692.03	25.75
692.16	18.72
692.30	0.00
692.43	7.02
692.57	0.00
692.70	35.11
692.84	0.00
692.97	0.00
693.11	4.68
693.24	58.51
693.38	0.00
693.51	9.36
693.65	0.00
693.78	0.00
693.92	56.17
694.05	18.72
694.19	91.28
694.32	30.43
694.45	56.17
694.59	28.09
694.72	0.00
694.86	0.00
694.99	2.34
695.13	0.00
695.26	0.00
695.39	37.45
695.53	51.49
695.66	0.00
695.80	100.64
695.93	65.54
696.07	0.00
696.20	102.98
696.33	28.09
696.47	42.13
696.60	49.15
696.73	126.39
696.87	25.75
697.00	11.70
697.14	30.43
697.27	0.00
697.40	0.00
697.54	42.13
697.67	28.09
697.80	35.11
697.94	11.70
698.07	0.00
698.21	0.00
698.34	25.75
698.47	65.54
698.61	21.06
698.74	112.35
698.87	49.15
699.01	81.92
699.14	35.11
699.27	16.38
699.40	0.00
699.54	117.03
699.67	88.94
699.80	30.43
699.94	0.00
700.07	4.68
700.20	2.34
700.34	16.38
700.47	46.81
700.60	79.58
700.73	7.02
700.87	28.09
701.00	39.79
701.13	110.01
701.26	70.22
701.40	11.70
701.53	21.06
701.66	39.79
701.79	0.00
701.93	23.41
702.06	60.85
702.19	25.75
702.32	63.19
702.46	7.02
702.59	0.00
702.72	51.49
702.85	46.81
702.99	0.00
703.12	60.85
703.25	0.00
703.38	84.26
703.51	23.41
703.65	58.51
703.78	0.00
703.91	58.51
704.04	4.68
704.17	51.49
704.31	56.17
704.44	4.68
704.57	53.83
704.70	30.43
704.83	84.26
704.96	23.41
705.10	0.00
705.23	65.54
>>>>>End Processed Spectral Data<<<<<
