SpectraSuite Data File
++++++++++++++++++++++++++++++++++++
Date: Fri Oct 04 12:13:24 GMT-05:00 2013
User: price-jones
Dark Spectrum Present: No
Reference Spectrum Present: No
Number of Sampled Component Spectra: 1
Spectrometers: USB2+H05261
Integration Time (usec): 10000 (USB2+H05261)
Spectra Averaged: 1 (USB2+H05261)
Boxcar Smoothing: 0 (USB2+H05261)
Correct for Electrical Dark: No (USB2+H05261)
Strobe/Lamp Enabled: No (USB2+H05261)
Correct for Detector Non-linearity: No (USB2+H05261)
Correct for Stray Light: No (USB2+H05261)
Number of Pixels in Processed Spectrum: 2048
>>>>>Begin Processed Spectral Data<<<<<
365.73	0.00
365.92	0.00
366.12	0.00
366.32	0.00
366.52	0.00
366.72	0.00
366.91	0.00
367.11	0.00
367.31	0.00
367.51	0.00
367.70	0.00
367.90	0.00
368.10	0.00
368.30	0.00
368.49	0.00
368.69	0.00
368.89	0.00
369.09	0.00
369.28	0.00
369.48	0.00
369.68	0.00
369.87	0.00
370.07	0.00
370.27	0.00
370.47	0.00
370.66	0.00
370.86	0.00
371.06	0.00
371.25	0.00
371.45	0.00
371.65	0.00
371.84	11.70
372.04	30.43
372.24	0.00
372.44	51.49
372.63	0.00
372.83	0.00
373.03	0.00
373.22	4.68
373.42	39.79
373.62	37.45
373.81	18.72
374.01	11.70
374.21	0.00
374.40	18.72
374.60	18.72
374.79	46.81
374.99	65.54
375.19	2.34
375.38	0.00
375.58	65.54
375.78	25.75
375.97	91.28
376.17	0.00
376.37	0.00
376.56	60.85
376.76	0.00
376.95	72.56
377.15	46.81
377.35	2.34
377.54	56.17
377.74	28.09
377.93	0.00
378.13	0.00
378.33	14.04
378.52	32.77
378.72	2.34
378.91	7.02
379.11	39.79
379.31	58.51
379.50	9.36
379.70	56.17
379.89	23.41
380.09	14.04
380.28	9.36
380.48	49.15
380.68	44.47
380.87	0.00
381.07	98.30
381.26	9.36
381.46	67.88
381.65	16.38
381.85	0.00
382.04	2.34
382.24	7.02
382.43	37.45
382.63	4.68
382.83	53.83
383.02	0.00
383.22	44.47
383.41	0.00
383.61	86.60
383.80	32.77
384.00	0.00
384.19	84.26
384.39	0.00
384.58	88.94
384.78	37.45
384.97	0.00
385.17	0.00
385.36	11.70
385.56	11.70
385.75	39.79
385.95	11.70
386.14	67.88
386.34	63.19
386.53	0.00
386.72	4.68
386.92	21.06
387.11	58.51
387.31	0.00
387.50	0.00
387.70	0.00
387.89	0.00
388.09	28.09
388.28	0.00
388.48	14.04
388.67	28.09
388.86	18.72
389.06	44.47
389.25	0.00
389.45	0.00
389.64	16.38
389.84	72.56
390.03	0.00
390.22	21.06
390.42	37.45
390.61	21.06
390.81	4.68
391.00	60.85
391.19	4.68
391.39	0.00
391.58	11.70
391.78	35.11
391.97	0.00
392.16	9.36
392.36	53.83
392.55	49.15
392.75	14.04
392.94	18.72
393.13	0.00
393.33	93.62
393.52	46.81
393.71	0.00
393.91	0.00
394.10	44.47
394.29	16.38
394.49	84.26
394.68	32.77
394.88	14.04
395.07	14.04
395.26	67.88
395.46	0.00
395.65	25.75
395.84	4.68
396.04	72.56
396.23	14.04
396.42	16.38
396.62	42.13
396.81	56.17
397.00	0.00
397.19	25.75
397.39	9.36
397.58	0.00
397.77	21.06
397.97	16.38
398.16	60.85
398.35	53.83
398.55	67.88
398.74	7.02
398.93	49.15
399.12	25.75
399.32	91.28
399.51	0.00
399.70	77.24
399.90	56.17
400.09	23.41
400.28	65.54
400.47	35.11
400.67	9.36
400.86	4.68
401.05	9.36
401.24	0.00
401.44	60.85
401.63	46.81
401.82	67.88
402.01	0.00
402.21	93.62
402.40	21.06
402.59	0.00
402.78	28.09
402.97	32.77
403.17	58.51
403.36	0.00
403.55	0.00
403.74	51.49
403.93	16.38
404.13	0.00
404.32	44.47
404.51	49.15
404.70	21.06
404.89	51.49
405.09	23.41
405.28	18.72
405.47	44.47
405.66	0.00
405.85	14.04
406.05	16.38
406.24	0.00
406.43	11.70
406.62	25.75
406.81	21.06
407.00	0.00
407.20	0.00
407.39	0.00
407.58	42.13
407.77	39.79
407.96	44.47
408.15	0.00
408.34	0.00
408.54	16.38
408.73	0.00
408.92	102.98
409.11	67.88
409.30	44.47
409.49	51.49
409.68	14.04
409.87	35.11
410.07	0.00
410.26	0.00
410.45	14.04
410.64	2.34
410.83	25.75
411.02	28.09
411.21	37.45
411.40	79.58
411.59	2.34
411.78	93.62
411.98	0.00
412.17	86.60
412.36	11.70
412.55	44.47
412.74	16.38
412.93	28.09
413.12	95.96
413.31	2.34
413.50	53.83
413.69	77.24
413.88	14.04
414.07	18.72
414.26	0.00
414.45	58.51
414.64	58.51
414.83	0.00
415.02	0.00
415.22	0.00
415.41	25.75
415.60	2.34
415.79	25.75
415.98	0.00
416.17	9.36
416.36	30.43
416.55	30.43
416.74	77.24
416.93	11.70
417.12	0.00
417.31	72.56
417.50	0.00
417.69	0.00
417.88	98.30
418.07	110.01
418.26	21.06
418.45	4.68
418.64	25.75
418.83	58.51
419.02	37.45
419.21	46.81
419.39	0.00
419.58	84.26
419.77	74.90
419.96	110.01
420.15	0.00
420.34	32.77
420.53	53.83
420.72	79.58
420.91	58.51
421.10	16.38
421.29	4.68
421.48	23.41
421.67	35.11
421.86	35.11
422.05	0.00
422.24	74.90
422.43	70.22
422.61	0.00
422.80	4.68
422.99	37.45
423.18	23.41
423.37	0.00
423.56	35.11
423.75	37.45
423.94	67.88
424.13	81.92
424.32	32.77
424.50	65.54
424.69	0.00
424.88	0.00
425.07	44.47
425.26	32.77
425.45	0.00
425.64	0.00
425.83	0.00
426.01	53.83
426.20	30.43
426.39	56.17
426.58	37.45
426.77	0.00
426.96	0.00
427.15	42.13
427.33	28.09
427.52	11.70
427.71	51.49
427.90	72.56
428.09	25.75
428.28	39.79
428.46	0.00
428.65	77.24
428.84	0.00
429.03	0.00
429.22	0.00
429.40	28.09
429.59	30.43
429.78	72.56
429.97	0.00
430.16	16.38
430.34	28.09
430.53	21.06
430.72	30.43
430.91	7.02
431.10	39.79
431.28	60.85
431.47	105.32
431.66	14.04
431.85	21.06
432.03	65.54
432.22	67.88
432.41	9.36
432.60	21.06
432.79	0.00
432.97	53.83
433.16	51.49
433.35	72.56
433.54	32.77
433.72	0.00
433.91	0.00
434.10	4.68
434.28	37.45
434.47	0.00
434.66	0.00
434.85	0.00
435.03	0.00
435.22	46.81
435.41	58.51
435.59	30.43
435.78	2.34
435.97	39.79
436.16	0.00
436.34	44.47
436.53	23.41
436.72	86.60
436.90	37.45
437.09	65.54
437.28	21.06
437.46	7.02
437.65	28.09
437.84	0.00
438.02	44.47
438.21	0.00
438.40	0.00
438.58	37.45
438.77	0.00
438.96	58.51
439.14	46.81
439.33	88.94
439.52	25.75
439.70	65.54
439.89	79.58
440.08	58.51
440.26	35.11
440.45	4.68
440.63	30.43
440.82	58.51
441.01	16.38
441.19	44.47
441.38	42.13
441.57	77.24
441.75	11.70
441.94	0.00
442.12	0.00
442.31	0.00
442.50	0.00
442.68	42.13
442.87	16.38
443.05	32.77
443.24	56.17
443.43	77.24
443.61	0.00
443.80	74.90
443.98	37.45
444.17	21.06
444.35	67.88
444.54	56.17
444.73	2.34
444.91	42.13
445.10	65.54
445.28	39.79
445.47	21.06
445.65	37.45
445.84	44.47
446.02	30.43
446.21	65.54
446.39	0.00
446.58	35.11
446.77	30.43
446.95	0.00
447.14	42.13
447.32	42.13
447.51	0.00
447.69	60.85
447.88	112.35
448.06	86.60
448.25	0.00
448.43	81.92
448.62	0.00
448.80	0.00
448.99	11.70
449.17	77.24
449.36	23.41
449.54	23.41
449.73	46.81
449.91	86.60
450.10	32.77
450.28	2.34
450.46	72.56
450.65	79.58
450.83	79.58
451.02	53.83
451.20	21.06
451.39	35.11
451.57	0.00
451.76	0.00
451.94	0.00
452.13	0.00
452.31	46.81
452.49	28.09
452.68	0.00
452.86	53.83
453.05	58.51
453.23	53.83
453.42	91.28
453.60	79.58
453.78	51.49
453.97	72.56
454.15	56.17
454.34	23.41
454.52	16.38
454.70	0.00
454.89	4.68
455.07	39.79
455.26	49.15
455.44	51.49
455.62	124.05
455.81	0.00
455.99	32.77
456.17	60.85
456.36	49.15
456.54	44.47
456.73	51.49
456.91	35.11
457.09	77.24
457.28	21.06
457.46	7.02
457.64	0.00
457.83	58.51
458.01	42.13
458.19	0.00
458.38	0.00
458.56	9.36
458.74	9.36
458.93	42.13
459.11	42.13
459.29	56.17
459.48	16.38
459.66	79.58
459.84	32.77
460.03	14.04
460.21	39.79
460.39	37.45
460.57	42.13
460.76	51.49
460.94	0.00
461.12	53.83
461.31	88.94
461.49	28.09
461.67	74.90
461.85	65.54
462.04	21.06
462.22	25.75
462.40	21.06
462.59	53.83
462.77	32.77
462.95	28.09
463.13	18.72
463.32	16.38
463.50	9.36
463.68	65.54
463.86	23.41
464.05	42.13
464.23	0.00
464.41	46.81
464.59	32.77
464.78	32.77
464.96	11.70
465.14	9.36
465.32	74.90
465.50	56.17
465.69	0.00
465.87	72.56
466.05	49.15
466.23	11.70
466.41	67.88
466.60	63.19
466.78	35.11
466.96	74.90
467.14	42.13
467.32	4.68
467.51	37.45
467.69	56.17
467.87	65.54
468.05	9.36
468.23	2.34
468.41	39.79
468.60	81.92
468.78	0.00
468.96	9.36
469.14	0.00
469.32	44.47
469.50	0.00
469.69	67.88
469.87	95.96
470.05	56.17
470.23	0.00
470.41	56.17
470.59	0.00
470.77	18.72
470.95	56.17
471.14	135.75
471.32	11.70
471.50	0.00
471.68	95.96
471.86	53.83
472.04	39.79
472.22	46.81
472.40	11.70
472.58	35.11
472.77	44.47
472.95	0.00
473.13	7.02
473.31	2.34
473.49	46.81
473.67	16.38
473.85	35.11
474.03	0.00
474.21	0.00
474.39	44.47
474.57	51.49
474.75	0.00
474.93	0.00
475.12	18.72
475.30	44.47
475.48	0.00
475.66	58.51
475.84	0.00
476.02	0.00
476.20	35.11
476.38	86.60
476.56	42.13
476.74	0.00
476.92	79.58
477.10	44.47
477.28	32.77
477.46	53.83
477.64	79.58
477.82	49.15
478.00	0.00
478.18	77.24
478.36	58.51
478.54	23.41
478.72	74.90
478.90	18.72
479.08	0.00
479.26	21.06
479.44	35.11
479.62	46.81
479.80	32.77
479.98	11.70
480.16	58.51
480.34	30.43
480.52	0.00
480.70	51.49
480.88	16.38
481.06	23.41
481.24	65.54
481.41	42.13
481.59	30.43
481.77	7.02
481.95	0.00
482.13	30.43
482.31	46.81
482.49	35.11
482.67	53.83
482.85	0.00
483.03	25.75
483.21	39.79
483.39	0.00
483.57	0.00
483.74	35.11
483.92	67.88
484.10	42.13
484.28	0.00
484.46	110.01
484.64	100.64
484.82	0.00
485.00	0.00
485.18	37.45
485.35	53.83
485.53	79.58
485.71	42.13
485.89	58.51
486.07	67.88
486.25	0.00
486.43	4.68
486.61	30.43
486.78	0.00
486.96	0.00
487.14	95.96
487.32	95.96
487.50	2.34
487.68	60.85
487.85	35.11
488.03	65.54
488.21	0.00
488.39	25.75
488.57	0.00
488.75	0.00
488.92	51.49
489.10	42.13
489.28	46.81
489.46	35.11
489.64	79.58
489.81	119.37
489.99	107.66
490.17	53.83
490.35	51.49
490.53	0.00
490.70	32.77
490.88	7.02
491.06	0.00
491.24	117.03
491.41	14.04
491.59	0.00
491.77	30.43
491.95	44.47
492.13	0.00
492.30	98.30
492.48	107.66
492.66	28.09
492.84	79.58
493.01	81.92
493.19	51.49
493.37	30.43
493.54	131.07
493.72	0.00
493.90	28.09
494.08	0.00
494.25	28.09
494.43	88.94
494.61	39.79
494.79	46.81
494.96	51.49
495.14	7.02
495.32	2.34
495.49	0.00
495.67	44.47
495.85	77.24
496.02	77.24
496.20	100.64
496.38	0.00
496.55	67.88
496.73	77.24
496.91	0.00
497.09	0.00
497.26	35.11
497.44	0.00
497.62	14.04
497.79	0.00
497.97	63.19
498.14	28.09
498.32	25.75
498.50	56.17
498.67	42.13
498.85	53.83
499.03	81.92
499.20	51.49
499.38	2.34
499.56	79.58
499.73	30.43
499.91	46.81
500.08	21.06
500.26	23.41
500.44	70.22
500.61	21.06
500.79	53.83
500.97	86.60
501.14	51.49
501.32	70.22
501.49	32.77
501.67	44.47
501.84	7.02
502.02	51.49
502.20	51.49
502.37	65.54
502.55	65.54
502.72	63.19
502.90	117.03
503.07	14.04
503.25	23.41
503.43	51.49
503.60	35.11
503.78	53.83
503.95	119.37
504.13	0.00
504.30	74.90
504.48	37.45
504.65	86.60
504.83	81.92
505.01	0.00
505.18	77.24
505.36	9.36
505.53	37.45
505.71	0.00
505.88	86.60
506.06	63.19
506.23	67.88
506.41	70.22
506.58	56.17
506.76	0.00
506.93	98.30
507.11	53.83
507.28	60.85
507.46	93.62
507.63	32.77
507.81	11.70
507.98	28.09
508.16	37.45
508.33	84.26
508.50	37.45
508.68	88.94
508.85	49.15
509.03	0.00
509.20	60.85
509.38	56.17
509.55	32.77
509.73	39.79
509.90	51.49
510.08	63.19
510.25	81.92
510.42	37.45
510.60	21.06
510.77	65.54
510.95	2.34
511.12	18.72
511.30	51.49
511.47	35.11
511.64	112.35
511.82	77.24
511.99	0.00
512.17	56.17
512.34	16.38
512.51	56.17
512.69	4.68
512.86	35.11
513.04	4.68
513.21	0.00
513.38	28.09
513.56	35.11
513.73	7.02
513.90	42.13
514.08	100.64
514.25	51.49
514.43	14.04
514.60	56.17
514.77	0.00
514.95	0.00
515.12	0.00
515.29	42.13
515.47	28.09
515.64	37.45
515.81	9.36
515.99	0.00
516.16	60.85
516.33	93.62
516.51	0.00
516.68	53.83
516.85	35.11
517.03	86.60
517.20	0.00
517.37	16.38
517.54	4.68
517.72	37.45
517.89	56.17
518.06	70.22
518.24	49.15
518.41	79.58
518.58	72.56
518.75	51.49
518.93	72.56
519.10	0.00
519.27	32.77
519.45	14.04
519.62	53.83
519.79	53.83
519.96	46.81
520.14	0.00
520.31	32.77
520.48	46.81
520.65	124.05
520.83	0.00
521.00	0.00
521.17	46.81
521.34	49.15
521.52	0.00
521.69	72.56
521.86	0.00
522.03	0.00
522.20	16.38
522.38	0.00
522.55	39.79
522.72	107.66
522.89	46.81
523.07	49.15
523.24	30.43
523.41	51.49
523.58	67.88
523.75	18.72
523.92	32.77
524.10	37.45
524.27	11.70
524.44	91.28
524.61	79.58
524.78	88.94
524.96	37.45
525.13	0.00
525.30	0.00
525.47	0.00
525.64	39.79
525.81	86.60
525.98	32.77
526.16	100.64
526.33	28.09
526.50	86.60
526.67	37.45
526.84	0.00
527.01	86.60
527.18	67.88
527.36	0.00
527.53	0.00
527.70	88.94
527.87	77.24
528.04	49.15
528.21	70.22
528.38	0.00
528.55	23.41
528.72	7.02
528.89	86.60
529.07	67.88
529.24	21.06
529.41	74.90
529.58	70.22
529.75	53.83
529.92	23.41
530.09	39.79
530.26	58.51
530.43	23.41
530.60	46.81
530.77	77.24
530.94	102.98
531.11	0.00
531.28	0.00
531.46	35.11
531.63	42.13
531.80	91.28
531.97	16.38
532.14	0.00
532.31	0.00
532.48	42.13
532.65	39.79
532.82	4.68
532.99	37.45
533.16	4.68
533.33	46.81
533.50	30.43
533.67	25.75
533.84	11.70
534.01	32.77
534.18	0.00
534.35	58.51
534.52	0.00
534.69	81.92
534.86	0.00
535.03	14.04
535.20	95.96
535.37	4.68
535.54	65.54
535.71	37.45
535.88	67.88
536.05	58.51
536.22	28.09
536.38	0.00
536.55	49.15
536.72	51.49
536.89	81.92
537.06	32.77
537.23	0.00
537.40	25.75
537.57	88.94
537.74	65.54
537.91	42.13
538.08	21.06
538.25	9.36
538.42	0.00
538.59	53.83
538.75	58.51
538.92	37.45
539.09	25.75
539.26	114.69
539.43	53.83
539.60	88.94
539.77	23.41
539.94	21.06
540.11	0.00
540.28	88.94
540.44	0.00
540.61	65.54
540.78	39.79
540.95	7.02
541.12	53.83
541.29	0.00
541.46	107.66
541.62	18.72
541.79	51.49
541.96	0.00
542.13	0.00
542.30	37.45
542.47	93.62
542.63	16.38
542.80	25.75
542.97	4.68
543.14	18.72
543.31	18.72
543.48	0.00
543.64	0.00
543.81	37.45
543.98	23.41
544.15	0.00
544.32	56.17
544.48	37.45
544.65	53.83
544.82	49.15
544.99	4.68
545.16	23.41
545.32	58.51
545.49	16.38
545.66	0.00
545.83	39.79
546.00	0.00
546.16	0.00
546.33	74.90
546.50	32.77
546.67	35.11
546.83	0.00
547.00	0.00
547.17	51.49
547.34	58.51
547.50	70.22
547.67	58.51
547.84	28.09
548.00	30.43
548.17	56.17
548.34	110.01
548.51	23.41
548.67	11.70
548.84	102.98
549.01	56.17
549.18	51.49
549.34	21.06
549.51	11.70
549.68	0.00
549.84	37.45
550.01	23.41
550.18	102.98
550.34	56.17
550.51	11.70
550.68	72.56
550.84	32.77
551.01	56.17
551.18	49.15
551.34	56.17
551.51	74.90
551.68	98.30
551.84	46.81
552.01	88.94
552.18	58.51
552.34	0.00
552.51	28.09
552.68	35.11
552.84	14.04
553.01	51.49
553.18	42.13
553.34	9.36
553.51	0.00
553.67	9.36
553.84	114.69
554.01	9.36
554.17	112.35
554.34	72.56
554.51	110.01
554.67	53.83
554.84	25.75
555.00	49.15
555.17	35.11
555.33	42.13
555.50	39.79
555.67	53.83
555.83	51.49
556.00	0.00
556.16	74.90
556.33	56.17
556.50	65.54
556.66	77.24
556.83	42.13
556.99	63.19
557.16	60.85
557.32	39.79
557.49	25.75
557.65	0.00
557.82	32.77
557.98	32.77
558.15	32.77
558.32	25.75
558.48	9.36
558.65	0.00
558.81	35.11
558.98	18.72
559.14	0.00
559.31	63.19
559.47	49.15
559.64	35.11
559.80	67.88
559.97	95.96
560.13	42.13
560.30	60.85
560.46	35.11
560.63	35.11
560.79	67.88
560.96	53.83
561.12	30.43
561.29	30.43
561.45	0.00
561.61	56.17
561.78	91.28
561.94	107.66
562.11	18.72
562.27	21.06
562.44	35.11
562.60	63.19
562.77	112.35
562.93	23.41
563.10	81.92
563.26	23.41
563.42	95.96
563.59	65.54
563.75	65.54
563.92	0.00
564.08	32.77
564.24	30.43
564.41	35.11
564.57	74.90
564.74	0.00
564.90	11.70
565.07	65.54
565.23	23.41
565.39	0.00
565.56	56.17
565.72	16.38
565.88	23.41
566.05	74.90
566.21	46.81
566.38	0.00
566.54	56.17
566.70	30.43
566.87	51.49
567.03	65.54
567.19	0.00
567.36	51.49
567.52	9.36
567.68	0.00
567.85	35.11
568.01	79.58
568.17	32.77
568.34	65.54
568.50	7.02
568.66	51.49
568.83	79.58
568.99	0.00
569.15	67.88
569.32	56.17
569.48	46.81
569.64	112.35
569.81	84.26
569.97	32.77
570.13	51.49
570.30	56.17
570.46	88.94
570.62	91.28
570.78	14.04
570.95	0.00
571.11	0.00
571.27	58.51
571.43	9.36
571.60	58.51
571.76	67.88
571.92	67.88
572.09	105.32
572.25	49.15
572.41	23.41
572.57	114.69
572.74	28.09
572.90	0.00
573.06	93.62
573.22	93.62
573.38	102.98
573.55	14.04
573.71	51.49
573.87	58.51
574.03	39.79
574.20	49.15
574.36	46.81
574.52	67.88
574.68	95.96
574.84	60.85
575.01	23.41
575.17	37.45
575.33	60.85
575.49	65.54
575.65	23.41
575.82	124.05
575.98	7.02
576.14	0.00
576.30	60.85
576.46	65.54
576.62	49.15
576.79	56.17
576.95	53.83
577.11	49.15
577.27	0.00
577.43	65.54
577.59	53.83
577.75	0.00
577.92	18.72
578.08	37.45
578.24	0.00
578.40	16.38
578.56	53.83
578.72	39.79
578.88	32.77
579.04	49.15
579.21	107.66
579.37	72.56
579.53	0.00
579.69	74.90
579.85	88.94
580.01	37.45
580.17	16.38
580.33	58.51
580.49	35.11
580.65	0.00
580.82	0.00
580.98	0.00
581.14	39.79
581.30	65.54
581.46	7.02
581.62	72.56
581.78	9.36
581.94	14.04
582.10	35.11
582.26	84.26
582.42	0.00
582.58	23.41
582.74	63.19
582.90	42.13
583.06	84.26
583.22	91.28
583.38	0.00
583.54	0.00
583.70	0.00
583.86	30.43
584.02	16.38
584.18	37.45
584.34	0.00
584.50	65.54
584.66	37.45
584.82	2.34
584.98	28.09
585.14	51.49
585.30	35.11
585.46	7.02
585.62	21.06
585.78	102.98
585.94	58.51
586.10	53.83
586.26	16.38
586.42	51.49
586.58	21.06
586.74	46.81
586.90	37.45
587.06	37.45
587.22	16.38
587.38	11.70
587.54	60.85
587.70	2.34
587.86	58.51
588.02	81.92
588.18	107.66
588.34	25.75
588.49	133.41
588.65	21.06
588.81	9.36
588.97	63.19
589.13	77.24
589.29	39.79
589.45	95.96
589.61	72.56
589.77	28.09
589.93	30.43
590.08	60.85
590.24	23.41
590.40	28.09
590.56	0.00
590.72	0.00
590.88	9.36
591.04	56.17
591.20	74.90
591.35	14.04
591.51	0.00
591.67	49.15
591.83	102.98
591.99	0.00
592.15	14.04
592.31	100.64
592.46	0.00
592.62	51.49
592.78	46.81
592.94	60.85
593.10	58.51
593.26	37.45
593.41	67.88
593.57	4.68
593.73	81.92
593.89	44.47
594.05	23.41
594.20	28.09
594.36	39.79
594.52	65.54
594.68	0.00
594.84	30.43
594.99	135.75
595.15	74.90
595.31	46.81
595.47	9.36
595.62	0.00
595.78	86.60
595.94	124.05
596.10	84.26
596.25	44.47
596.41	7.02
596.57	67.88
596.73	0.00
596.88	0.00
597.04	39.79
597.20	7.02
597.36	0.00
597.51	25.75
597.67	44.47
597.83	58.51
597.99	65.54
598.14	56.17
598.30	65.54
598.46	0.00
598.61	4.68
598.77	39.79
598.93	72.56
599.09	51.49
599.24	0.00
599.40	0.00
599.56	25.75
599.71	51.49
599.87	0.00
600.03	46.81
600.18	0.00
600.34	105.32
600.50	58.51
600.65	67.88
600.81	0.00
600.97	0.00
601.12	23.41
601.28	74.90
601.44	58.51
601.59	32.77
601.75	16.38
601.91	77.24
602.06	114.69
602.22	14.04
602.37	0.00
602.53	67.88
602.69	18.72
602.84	35.11
603.00	70.22
603.16	60.85
603.31	37.45
603.47	42.13
603.62	56.17
603.78	102.98
603.94	63.19
604.09	28.09
604.25	74.90
604.40	58.51
604.56	46.81
604.71	28.09
604.87	46.81
605.03	37.45
605.18	0.00
605.34	72.56
605.49	4.68
605.65	58.51
605.80	37.45
605.96	9.36
606.12	65.54
606.27	23.41
606.43	65.54
606.58	37.45
606.74	30.43
606.89	2.34
607.05	23.41
607.20	39.79
607.36	0.00
607.51	32.77
607.67	0.00
607.82	18.72
607.98	114.69
608.13	35.11
608.29	72.56
608.44	0.00
608.60	72.56
608.75	18.72
608.91	39.79
609.06	25.75
609.22	18.72
609.37	0.00
609.53	51.49
609.68	95.96
609.84	0.00
609.99	102.98
610.15	74.90
610.30	65.54
610.46	44.47
610.61	44.47
610.76	30.43
610.92	46.81
611.07	39.79
611.23	63.19
611.38	25.75
611.54	86.60
611.69	72.56
611.84	35.11
612.00	7.02
612.15	42.13
612.31	53.83
612.46	9.36
612.62	0.00
612.77	7.02
612.92	18.72
613.08	56.17
613.23	0.00
613.39	117.03
613.54	95.96
613.69	60.85
613.85	35.11
614.00	18.72
614.15	56.17
614.31	72.56
614.46	25.75
614.62	58.51
614.77	28.09
614.92	44.47
615.08	51.49
615.23	25.75
615.38	35.11
615.54	28.09
615.69	81.92
615.84	0.00
616.00	49.15
616.15	86.60
616.30	14.04
616.46	72.56
616.61	58.51
616.76	0.00
616.92	53.83
617.07	16.38
617.22	72.56
617.37	39.79
617.53	0.00
617.68	18.72
617.83	70.22
617.99	79.58
618.14	18.72
618.29	21.06
618.45	42.13
618.60	58.51
618.75	42.13
618.90	0.00
619.06	67.88
619.21	0.00
619.36	14.04
619.51	81.92
619.67	112.35
619.82	39.79
619.97	46.81
620.12	51.49
620.28	23.41
620.43	56.17
620.58	49.15
620.73	11.70
620.89	56.17
621.04	0.00
621.19	9.36
621.34	0.00
621.49	42.13
621.65	91.28
621.80	51.49
621.95	58.51
622.10	28.09
622.25	49.15
622.41	42.13
622.56	102.98
622.71	4.68
622.86	11.70
623.01	65.54
623.16	65.54
623.32	72.56
623.47	4.68
623.62	58.51
623.77	60.85
623.92	81.92
624.07	0.00
624.23	9.36
624.38	51.49
624.53	2.34
624.68	0.00
624.83	102.98
624.98	37.45
625.13	0.00
625.29	81.92
625.44	32.77
625.59	23.41
625.74	32.77
625.89	9.36
626.04	79.58
626.19	114.69
626.34	0.00
626.49	30.43
626.65	65.54
626.80	51.49
626.95	60.85
627.10	25.75
627.25	21.06
627.40	79.58
627.55	11.70
627.70	21.06
627.85	32.77
628.00	60.85
628.15	77.24
628.30	21.06
628.45	0.00
628.60	25.75
628.76	58.51
628.91	77.24
629.06	70.22
629.21	0.00
629.36	7.02
629.51	4.68
629.66	51.49
629.81	67.88
629.96	4.68
630.11	70.22
630.26	53.83
630.41	0.00
630.56	49.15
630.71	0.00
630.86	0.00
631.01	72.56
631.16	0.00
631.31	72.56
631.46	112.35
631.61	46.81
631.76	9.36
631.91	51.49
632.06	46.81
632.21	14.04
632.36	0.00
632.51	9.36
632.66	65.54
632.81	11.70
632.96	42.13
633.10	21.06
633.25	65.54
633.40	58.51
633.55	46.81
633.70	28.09
633.85	25.75
634.00	46.81
634.15	56.17
634.30	18.72
634.45	39.79
634.60	0.00
634.75	0.00
634.90	0.00
635.05	44.47
635.19	79.58
635.34	98.30
635.49	35.11
635.64	2.34
635.79	67.88
635.94	30.43
636.09	18.72
636.24	79.58
636.39	16.38
636.53	35.11
636.68	7.02
636.83	44.47
636.98	84.26
637.13	35.11
637.28	16.38
637.43	60.85
637.57	0.00
637.72	0.00
637.87	37.45
638.02	0.00
638.17	42.13
638.32	51.49
638.46	0.00
638.61	49.15
638.76	18.72
638.91	0.00
639.06	42.13
639.20	42.13
639.35	39.79
639.50	42.13
639.65	58.51
639.80	42.13
639.94	42.13
640.09	117.03
640.24	28.09
640.39	28.09
640.54	138.09
640.68	39.79
640.83	117.03
640.98	35.11
641.13	16.38
641.27	56.17
641.42	14.04
641.57	30.43
641.72	23.41
641.86	65.54
642.01	117.03
642.16	23.41
642.31	74.90
642.45	60.85
642.60	35.11
642.75	37.45
642.90	23.41
643.04	44.47
643.19	84.26
643.34	30.43
643.48	56.17
643.63	25.75
643.78	72.56
643.93	37.45
644.07	23.41
644.22	7.02
644.37	67.88
644.51	16.38
644.66	0.00
644.81	21.06
644.95	37.45
645.10	56.17
645.25	32.77
645.39	63.19
645.54	16.38
645.69	0.00
645.83	72.56
645.98	46.81
646.13	65.54
646.27	70.22
646.42	0.00
646.57	30.43
646.71	9.36
646.86	9.36
647.00	16.38
647.15	63.19
647.30	35.11
647.44	60.85
647.59	53.83
647.74	32.77
647.88	0.00
648.03	11.70
648.17	67.88
648.32	42.13
648.47	74.90
648.61	65.54
648.76	56.17
648.90	79.58
649.05	0.00
649.20	58.51
649.34	21.06
649.49	4.68
649.63	44.47
649.78	88.94
649.92	46.81
650.07	46.81
650.21	23.41
650.36	56.17
650.51	16.38
650.65	30.43
650.80	37.45
650.94	60.85
651.09	95.96
651.23	0.00
651.38	0.00
651.52	74.90
651.67	0.00
651.81	16.38
651.96	18.72
652.10	0.00
652.25	0.00
652.39	0.00
652.54	37.45
652.68	18.72
652.83	0.00
652.97	35.11
653.12	63.19
653.26	0.00
653.41	11.70
653.55	77.24
653.70	0.00
653.84	23.41
653.99	9.36
654.13	32.77
654.27	0.00
654.42	44.47
654.56	0.00
654.71	67.88
654.85	25.75
655.00	77.24
655.14	58.51
655.29	58.51
655.43	14.04
655.57	42.13
655.72	98.30
655.86	42.13
656.01	56.17
656.15	21.06
656.30	0.00
656.44	7.02
656.58	49.15
656.73	63.19
656.87	37.45
657.01	51.49
657.16	14.04
657.30	21.06
657.45	44.47
657.59	32.77
657.73	21.06
657.88	107.66
658.02	77.24
658.16	35.11
658.31	98.30
658.45	4.68
658.60	0.00
658.74	9.36
658.88	53.83
659.03	16.38
659.17	35.11
659.31	42.13
659.46	49.15
659.60	53.83
659.74	0.00
659.89	0.00
660.03	100.64
660.17	4.68
660.32	11.70
660.46	0.00
660.60	16.38
660.74	35.11
660.89	23.41
661.03	95.96
661.17	0.00
661.32	0.00
661.46	23.41
661.60	0.00
661.74	49.15
661.89	0.00
662.03	100.64
662.17	46.81
662.31	30.43
662.46	88.94
662.60	56.17
662.74	37.45
662.88	42.13
663.03	7.02
663.17	37.45
663.31	72.56
663.45	37.45
663.60	39.79
663.74	65.54
663.88	35.11
664.02	42.13
664.17	0.00
664.31	63.19
664.45	53.83
664.59	46.81
664.73	0.00
664.88	107.66
665.02	28.09
665.16	14.04
665.30	46.81
665.44	23.41
665.59	44.47
665.73	7.02
665.87	28.09
666.01	60.85
666.15	70.22
666.29	58.51
666.44	4.68
666.58	42.13
666.72	70.22
666.86	28.09
667.00	28.09
667.14	63.19
667.28	95.96
667.43	102.98
667.57	110.01
667.71	42.13
667.85	21.06
667.99	0.00
668.13	60.85
668.27	44.47
668.41	16.38
668.56	18.72
668.70	30.43
668.84	28.09
668.98	32.77
669.12	35.11
669.26	16.38
669.40	9.36
669.54	86.60
669.68	37.45
669.82	91.28
669.96	39.79
670.10	77.24
670.25	86.60
670.39	30.43
670.53	53.83
670.67	67.88
670.81	30.43
670.95	16.38
671.09	56.17
671.23	4.68
671.37	0.00
671.51	0.00
671.65	39.79
671.79	91.28
671.93	91.28
672.07	25.75
672.21	53.83
672.35	65.54
672.49	0.00
672.63	79.58
672.77	23.41
672.91	72.56
673.05	14.04
673.19	0.00
673.33	32.77
673.47	9.36
673.61	25.75
673.75	7.02
673.89	25.75
674.03	56.17
674.17	58.51
674.31	14.04
674.45	4.68
674.59	42.13
674.73	21.06
674.87	0.00
675.01	63.19
675.15	65.54
675.29	16.38
675.43	23.41
675.56	65.54
675.70	72.56
675.84	25.75
675.98	39.79
676.12	0.00
676.26	4.68
676.40	35.11
676.54	23.41
676.68	21.06
676.82	30.43
676.96	37.45
677.10	84.26
677.23	0.00
677.37	88.94
677.51	11.70
677.65	0.00
677.79	58.51
677.93	74.90
678.07	25.75
678.21	0.00
678.34	84.26
678.48	51.49
678.62	65.54
678.76	14.04
678.90	67.88
679.04	0.00
679.18	9.36
679.31	51.49
679.45	4.68
679.59	0.00
679.73	46.81
679.87	30.43
680.00	44.47
680.14	74.90
680.28	100.64
680.42	7.02
680.56	84.26
680.70	23.41
680.83	51.49
680.97	0.00
681.11	0.00
681.25	79.58
681.39	72.56
681.52	77.24
681.66	74.90
681.80	51.49
681.94	0.00
682.07	0.00
682.21	0.00
682.35	9.36
682.49	23.41
682.62	49.15
682.76	0.00
682.90	65.54
683.04	35.11
683.17	37.45
683.31	65.54
683.45	70.22
683.59	7.02
683.72	0.00
683.86	39.79
684.00	0.00
684.13	16.38
684.27	46.81
684.41	56.17
684.55	23.41
684.68	23.41
684.82	21.06
684.96	58.51
685.09	2.34
685.23	25.75
685.37	70.22
685.50	35.11
685.64	102.98
685.78	23.41
685.91	112.35
686.05	44.47
686.19	0.00
686.32	93.62
686.46	30.43
686.60	67.88
686.73	72.56
686.87	95.96
687.01	23.41
687.14	51.49
687.28	25.75
687.42	21.06
687.55	16.38
687.69	53.83
687.82	18.72
687.96	67.88
688.10	51.49
688.23	0.00
688.37	51.49
688.50	74.90
688.64	93.62
688.78	18.72
688.91	0.00
689.05	98.30
689.18	0.00
689.32	14.04
689.46	0.00
689.59	65.54
689.73	9.36
689.86	16.38
690.00	16.38
690.13	0.00
690.27	79.58
690.41	35.11
690.54	0.00
690.68	23.41
690.81	67.88
690.95	53.83
691.08	58.51
691.22	7.02
691.35	56.17
691.49	56.17
691.62	63.19
691.76	9.36
691.89	51.49
692.03	32.77
692.16	0.00
692.30	28.09
692.43	9.36
692.57	21.06
692.70	0.00
692.84	72.56
692.97	32.77
693.11	60.85
693.24	65.54
693.38	84.26
693.51	63.19
693.65	56.17
693.78	65.54
693.92	84.26
694.05	0.00
694.19	58.51
694.32	35.11
694.45	42.13
694.59	0.00
694.72	74.90
694.86	0.00
694.99	14.04
695.13	2.34
695.26	88.94
695.39	65.54
695.53	0.00
695.66	0.00
695.80	0.00
695.93	9.36
696.07	18.72
696.20	42.13
696.33	39.79
696.47	42.13
696.60	0.00
696.73	0.00
696.87	4.68
697.00	60.85
697.14	98.30
697.27	0.00
697.40	32.77
697.54	2.34
697.67	46.81
697.80	51.49
697.94	23.41
698.07	46.81
698.21	84.26
698.34	58.51
698.47	44.47
698.61	23.41
698.74	100.64
698.87	39.79
699.01	79.58
699.14	2.34
699.27	30.43
699.40	72.56
699.54	65.54
699.67	56.17
699.80	16.38
699.94	42.13
700.07	0.00
700.20	51.49
700.34	18.72
700.47	11.70
700.60	0.00
700.73	79.58
700.87	28.09
701.00	35.11
701.13	60.85
701.26	65.54
701.40	128.73
701.53	44.47
701.66	44.47
701.79	42.13
701.93	9.36
702.06	46.81
702.19	65.54
702.32	11.70
702.46	25.75
702.59	9.36
702.72	42.13
702.85	2.34
702.99	0.00
703.12	18.72
703.25	63.19
703.38	0.00
703.51	32.77
703.65	25.75
703.78	42.13
703.91	63.19
704.04	0.00
704.17	0.00
704.31	67.88
704.44	56.17
704.57	32.77
704.70	21.06
704.83	0.00
704.96	0.00
705.10	44.47
705.23	72.56
>>>>>End Processed Spectral Data<<<<<
