SpectraSuite Data File
++++++++++++++++++++++++++++++++++++
Date: Fri Oct 04 12:13:37 GMT-05:00 2013
User: price-jones
Dark Spectrum Present: No
Reference Spectrum Present: No
Number of Sampled Component Spectra: 1
Spectrometers: USB2+H05261
Integration Time (usec): 10000 (USB2+H05261)
Spectra Averaged: 1 (USB2+H05261)
Boxcar Smoothing: 0 (USB2+H05261)
Correct for Electrical Dark: No (USB2+H05261)
Strobe/Lamp Enabled: No (USB2+H05261)
Correct for Detector Non-linearity: No (USB2+H05261)
Correct for Stray Light: No (USB2+H05261)
Number of Pixels in Processed Spectrum: 2048
>>>>>Begin Processed Spectral Data<<<<<
365.73	0.00
365.92	0.00
366.12	0.00
366.32	0.00
366.52	0.00
366.72	0.00
366.91	0.00
367.11	0.00
367.31	0.00
367.51	0.00
367.70	0.00
367.90	0.00
368.10	0.00
368.30	0.00
368.49	0.00
368.69	0.00
368.89	0.00
369.09	0.00
369.28	0.00
369.48	0.00
369.68	0.00
369.87	0.00
370.07	0.00
370.27	0.00
370.47	0.00
370.66	0.00
370.86	0.00
371.06	0.00
371.25	0.00
371.45	0.00
371.65	0.00
371.84	0.00
372.04	0.00
372.24	0.00
372.44	0.00
372.63	0.00
372.83	0.00
373.03	0.00
373.22	126.39
373.42	0.00
373.62	7.02
373.81	23.41
374.01	0.00
374.21	39.79
374.40	98.30
374.60	30.43
374.79	32.77
374.99	49.15
375.19	0.00
375.38	60.85
375.58	105.32
375.78	138.09
375.97	49.15
376.17	51.49
376.37	0.00
376.56	74.90
376.76	0.00
376.95	84.26
377.15	60.85
377.35	0.00
377.54	56.17
377.74	23.41
377.93	30.43
378.13	0.00
378.33	32.77
378.52	23.41
378.72	72.56
378.91	25.75
379.11	0.00
379.31	4.68
379.50	0.00
379.70	51.49
379.89	46.81
380.09	0.00
380.28	16.38
380.48	18.72
380.68	23.41
380.87	32.77
381.07	0.00
381.26	0.00
381.46	18.72
381.65	67.88
381.85	70.22
382.04	0.00
382.24	44.47
382.43	74.90
382.63	23.41
382.83	9.36
383.02	0.00
383.22	53.83
383.41	79.58
383.61	28.09
383.80	0.00
384.00	0.00
384.19	0.00
384.39	25.75
384.58	58.51
384.78	42.13
384.97	0.00
385.17	2.34
385.36	32.77
385.56	0.00
385.75	2.34
385.95	53.83
386.14	18.72
386.34	42.13
386.53	91.28
386.72	0.00
386.92	0.00
387.11	0.00
387.31	0.00
387.50	0.00
387.70	0.00
387.89	0.00
388.09	0.00
388.28	0.00
388.48	14.04
388.67	32.77
388.86	0.00
389.06	4.68
389.25	0.00
389.45	39.79
389.64	0.00
389.84	46.81
390.03	88.94
390.22	51.49
390.42	56.17
390.61	56.17
390.81	25.75
391.00	67.88
391.19	30.43
391.39	86.60
391.58	0.00
391.78	53.83
391.97	0.00
392.16	0.00
392.36	0.00
392.55	0.00
392.75	0.00
392.94	0.00
393.13	25.75
393.33	16.38
393.52	49.15
393.71	42.13
393.91	16.38
394.10	37.45
394.29	28.09
394.49	107.66
394.68	9.36
394.88	63.19
395.07	28.09
395.26	35.11
395.46	51.49
395.65	7.02
395.84	25.75
396.04	11.70
396.23	58.51
396.42	4.68
396.62	74.90
396.81	0.00
397.00	0.00
397.19	30.43
397.39	81.92
397.58	35.11
397.77	0.00
397.97	30.43
398.16	65.54
398.35	35.11
398.55	0.00
398.74	23.41
398.93	51.49
399.12	49.15
399.32	63.19
399.51	35.11
399.70	67.88
399.90	74.90
400.09	0.00
400.28	60.85
400.47	0.00
400.67	39.79
400.86	28.09
401.05	0.00
401.24	42.13
401.44	21.06
401.63	21.06
401.82	53.83
402.01	95.96
402.21	60.85
402.40	107.66
402.59	30.43
402.78	46.81
402.97	0.00
403.17	0.00
403.36	16.38
403.55	51.49
403.74	42.13
403.93	16.38
404.13	4.68
404.32	0.00
404.51	79.58
404.70	79.58
404.89	28.09
405.09	32.77
405.28	0.00
405.47	53.83
405.66	0.00
405.85	58.51
406.05	25.75
406.24	0.00
406.43	46.81
406.62	30.43
406.81	110.01
407.00	9.36
407.20	32.77
407.39	21.06
407.58	84.26
407.77	37.45
407.96	44.47
408.15	23.41
408.34	60.85
408.54	2.34
408.73	105.32
408.92	16.38
409.11	42.13
409.30	0.00
409.49	0.00
409.68	0.00
409.87	58.51
410.07	95.96
410.26	91.28
410.45	21.06
410.64	58.51
410.83	23.41
411.02	0.00
411.21	56.17
411.40	58.51
411.59	65.54
411.78	30.43
411.98	79.58
412.17	60.85
412.36	32.77
412.55	14.04
412.74	65.54
412.93	9.36
413.12	49.15
413.31	58.51
413.50	9.36
413.69	0.00
413.88	21.06
414.07	65.54
414.26	70.22
414.45	114.69
414.64	9.36
414.83	77.24
415.02	37.45
415.22	16.38
415.41	0.00
415.60	0.00
415.79	98.30
415.98	9.36
416.17	11.70
416.36	30.43
416.55	32.77
416.74	44.47
416.93	67.88
417.12	65.54
417.31	23.41
417.50	74.90
417.69	86.60
417.88	7.02
418.07	51.49
418.26	65.54
418.45	0.00
418.64	49.15
418.83	58.51
419.02	0.00
419.21	42.13
419.39	56.17
419.58	72.56
419.77	91.28
419.96	39.79
420.15	35.11
420.34	0.00
420.53	42.13
420.72	39.79
420.91	16.38
421.10	28.09
421.29	44.47
421.48	9.36
421.67	0.00
421.86	49.15
422.05	53.83
422.24	9.36
422.43	39.79
422.61	70.22
422.80	53.83
422.99	23.41
423.18	124.05
423.37	46.81
423.56	49.15
423.75	67.88
423.94	46.81
424.13	72.56
424.32	51.49
424.50	0.00
424.69	30.43
424.88	37.45
425.07	147.45
425.26	16.38
425.45	79.58
425.64	23.41
425.83	42.13
426.01	25.75
426.20	9.36
426.39	11.70
426.58	2.34
426.77	2.34
426.96	7.02
427.15	77.24
427.33	49.15
427.52	37.45
427.71	51.49
427.90	67.88
428.09	0.00
428.28	79.58
428.46	49.15
428.65	49.15
428.84	42.13
429.03	74.90
429.22	126.39
429.40	51.49
429.59	53.83
429.78	18.72
429.97	2.34
430.16	0.00
430.34	7.02
430.53	0.00
430.72	39.79
430.91	63.19
431.10	65.54
431.28	42.13
431.47	7.02
431.66	121.71
431.85	37.45
432.03	44.47
432.22	58.51
432.41	63.19
432.60	86.60
432.79	18.72
432.97	30.43
433.16	42.13
433.35	30.43
433.54	25.75
433.72	49.15
433.91	30.43
434.10	49.15
434.28	149.79
434.47	0.00
434.66	42.13
434.85	56.17
435.03	72.56
435.22	30.43
435.41	32.77
435.59	49.15
435.78	67.88
435.97	30.43
436.16	84.26
436.34	37.45
436.53	42.13
436.72	0.00
436.90	81.92
437.09	25.75
437.28	74.90
437.46	11.70
437.65	46.81
437.84	21.06
438.02	72.56
438.21	88.94
438.40	16.38
438.58	79.58
438.77	39.79
438.96	91.28
439.14	74.90
439.33	72.56
439.52	9.36
439.70	98.30
439.89	86.60
440.08	81.92
440.26	102.98
440.45	49.15
440.63	2.34
440.82	51.49
441.01	49.15
441.19	100.64
441.38	2.34
441.57	86.60
441.75	60.85
441.94	9.36
442.12	32.77
442.31	58.51
442.50	37.45
442.68	70.22
442.87	39.79
443.05	28.09
443.24	51.49
443.43	39.79
443.61	30.43
443.80	79.58
443.98	88.94
444.17	81.92
444.35	2.34
444.54	63.19
444.73	0.00
444.91	107.66
445.10	98.30
445.28	37.45
445.47	65.54
445.65	58.51
445.84	18.72
446.02	11.70
446.21	100.64
446.39	77.24
446.58	25.75
446.77	74.90
446.95	98.30
447.14	117.03
447.32	74.90
447.51	84.26
447.69	11.70
447.88	2.34
448.06	0.00
448.25	74.90
448.43	77.24
448.62	49.15
448.80	32.77
448.99	65.54
449.17	63.19
449.36	72.56
449.54	56.17
449.73	51.49
449.91	18.72
450.10	0.00
450.28	63.19
450.46	117.03
450.65	79.58
450.83	60.85
451.02	84.26
451.20	86.60
451.39	70.22
451.57	30.43
451.76	0.00
451.94	70.22
452.13	14.04
452.31	110.01
452.49	102.98
452.68	0.00
452.86	49.15
453.05	14.04
453.23	35.11
453.42	0.00
453.60	56.17
453.78	37.45
453.97	81.92
454.15	53.83
454.34	44.47
454.52	88.94
454.70	84.26
454.89	86.60
455.07	14.04
455.26	32.77
455.44	0.00
455.62	37.45
455.81	49.15
455.99	70.22
456.17	0.00
456.36	21.06
456.54	107.66
456.73	37.45
456.91	25.75
457.09	84.26
457.28	0.00
457.46	53.83
457.64	44.47
457.83	14.04
458.01	46.81
458.19	56.17
458.38	4.68
458.56	39.79
458.74	51.49
458.93	25.75
459.11	51.49
459.29	35.11
459.48	16.38
459.66	35.11
459.84	86.60
460.03	28.09
460.21	46.81
460.39	30.43
460.57	58.51
460.76	131.07
460.94	35.11
461.12	67.88
461.31	100.64
461.49	49.15
461.67	88.94
461.85	60.85
462.04	84.26
462.22	156.82
462.40	107.66
462.59	35.11
462.77	72.56
462.95	67.88
463.13	21.06
463.32	105.32
463.50	67.88
463.68	86.60
463.86	32.77
464.05	84.26
464.23	30.43
464.41	25.75
464.59	25.75
464.78	51.49
464.96	0.00
465.14	58.51
465.32	32.77
465.50	35.11
465.69	63.19
465.87	72.56
466.05	98.30
466.23	18.72
466.41	102.98
466.60	79.58
466.78	25.75
466.96	91.28
467.14	46.81
467.32	79.58
467.51	56.17
467.69	44.47
467.87	124.05
468.05	105.32
468.23	91.28
468.41	37.45
468.60	30.43
468.78	93.62
468.96	18.72
469.14	91.28
469.32	23.41
469.50	0.00
469.69	35.11
469.87	84.26
470.05	65.54
470.23	23.41
470.41	56.17
470.59	58.51
470.77	121.71
470.95	0.00
471.14	4.68
471.32	0.00
471.50	0.00
471.68	67.88
471.86	42.13
472.04	65.54
472.22	60.85
472.40	65.54
472.58	70.22
472.77	46.81
472.95	74.90
473.13	126.39
473.31	14.04
473.49	9.36
473.67	58.51
473.85	58.51
474.03	95.96
474.21	131.07
474.39	93.62
474.57	0.00
474.75	0.00
474.93	51.49
475.12	21.06
475.30	88.94
475.48	67.88
475.66	114.69
475.84	0.00
476.02	49.15
476.20	110.01
476.38	58.51
476.56	56.17
476.74	74.90
476.92	2.34
477.10	91.28
477.28	0.00
477.46	0.00
477.64	0.00
477.82	25.75
478.00	25.75
478.18	77.24
478.36	117.03
478.54	51.49
478.72	65.54
478.90	84.26
479.08	23.41
479.26	18.72
479.44	39.79
479.62	107.66
479.80	35.11
479.98	14.04
480.16	44.47
480.34	77.24
480.52	88.94
480.70	74.90
480.88	28.09
481.06	58.51
481.24	102.98
481.41	49.15
481.59	60.85
481.77	42.13
481.95	81.92
482.13	4.68
482.31	51.49
482.49	77.24
482.67	79.58
482.85	0.00
483.03	32.77
483.21	0.00
483.39	95.96
483.57	140.43
483.74	53.83
483.92	84.26
484.10	107.66
484.28	60.85
484.46	56.17
484.64	81.92
484.82	60.85
485.00	42.13
485.18	110.01
485.35	72.56
485.53	32.77
485.71	56.17
485.89	4.68
486.07	51.49
486.25	21.06
486.43	49.15
486.61	119.37
486.78	49.15
486.96	88.94
487.14	18.72
487.32	35.11
487.50	39.79
487.68	121.71
487.85	131.07
488.03	51.49
488.21	110.01
488.39	112.35
488.57	133.41
488.75	117.03
488.92	63.19
489.10	46.81
489.28	121.71
489.46	110.01
489.64	7.02
489.81	72.56
489.99	0.00
490.17	74.90
490.35	53.83
490.53	84.26
490.70	117.03
490.88	100.64
491.06	86.60
491.24	0.00
491.41	37.45
491.59	91.28
491.77	51.49
491.95	30.43
492.13	60.85
492.30	100.64
492.48	65.54
492.66	51.49
492.84	102.98
493.01	72.56
493.19	46.81
493.37	11.70
493.54	0.00
493.72	35.11
493.90	46.81
494.08	42.13
494.25	86.60
494.43	147.45
494.61	88.94
494.79	70.22
494.96	7.02
495.14	124.05
495.32	65.54
495.49	58.51
495.67	112.35
495.85	72.56
496.02	58.51
496.20	49.15
496.38	119.37
496.55	77.24
496.73	63.19
496.91	46.81
497.09	7.02
497.26	91.28
497.44	0.00
497.62	56.17
497.79	81.92
497.97	0.00
498.14	77.24
498.32	84.26
498.50	39.79
498.67	105.32
498.85	53.83
499.03	102.98
499.20	131.07
499.38	63.19
499.56	117.03
499.73	112.35
499.91	63.19
500.08	0.00
500.26	74.90
500.44	56.17
500.61	25.75
500.79	60.85
500.97	119.37
501.14	63.19
501.32	86.60
501.49	107.66
501.67	77.24
501.84	74.90
502.02	37.45
502.20	4.68
502.37	7.02
502.55	79.58
502.72	114.69
502.90	44.47
503.07	79.58
503.25	98.30
503.43	32.77
503.60	74.90
503.78	60.85
503.95	79.58
504.13	0.00
504.30	138.09
504.48	124.05
504.65	161.50
504.83	81.92
505.01	112.35
505.18	65.54
505.36	21.06
505.53	81.92
505.71	74.90
505.88	95.96
506.06	79.58
506.23	112.35
506.41	60.85
506.58	107.66
506.76	79.58
506.93	110.01
507.11	63.19
507.28	117.03
507.46	138.09
507.63	58.51
507.81	70.22
507.98	117.03
508.16	58.51
508.33	11.70
508.50	74.90
508.68	42.13
508.85	81.92
509.03	112.35
509.20	117.03
509.38	51.49
509.55	128.73
509.73	98.30
509.90	91.28
510.08	74.90
510.25	60.85
510.42	79.58
510.60	170.86
510.77	58.51
510.95	147.45
511.12	67.88
511.30	63.19
511.47	72.56
511.64	77.24
511.82	72.56
511.99	102.98
512.17	95.96
512.34	46.81
512.51	70.22
512.69	110.01
512.86	67.88
513.04	21.06
513.21	72.56
513.38	74.90
513.56	88.94
513.73	105.32
513.90	100.64
514.08	0.00
514.25	53.83
514.43	35.11
514.60	11.70
514.77	81.92
514.95	142.77
515.12	88.94
515.29	79.58
515.47	74.90
515.64	100.64
515.81	100.64
515.99	98.30
516.16	112.35
516.33	51.49
516.51	142.77
516.68	60.85
516.85	67.88
517.03	98.30
517.20	58.51
517.37	107.66
517.54	133.41
517.72	117.03
517.89	72.56
518.06	154.48
518.24	35.11
518.41	51.49
518.58	0.00
518.75	25.75
518.93	98.30
519.10	84.26
519.27	93.62
519.45	77.24
519.62	114.69
519.79	81.92
519.96	105.32
520.14	37.45
520.31	105.32
520.48	53.83
520.65	81.92
520.83	114.69
521.00	105.32
521.17	135.75
521.34	91.28
521.52	88.94
521.69	72.56
521.86	28.09
522.03	121.71
522.20	93.62
522.38	63.19
522.55	32.77
522.72	65.54
522.89	4.68
523.07	74.90
523.24	49.15
523.41	16.38
523.58	42.13
523.75	16.38
523.92	63.19
524.10	79.58
524.27	163.84
524.44	93.62
524.61	74.90
524.78	58.51
524.96	91.28
525.13	117.03
525.30	74.90
525.47	124.05
525.64	30.43
525.81	102.98
525.98	98.30
526.16	35.11
526.33	110.01
526.50	81.92
526.67	37.45
526.84	107.66
527.01	72.56
527.18	14.04
527.36	21.06
527.53	86.60
527.70	49.15
527.87	98.30
528.04	110.01
528.21	53.83
528.38	63.19
528.55	72.56
528.72	100.64
528.89	46.81
529.07	93.62
529.24	77.24
529.41	58.51
529.58	53.83
529.75	70.22
529.92	70.22
530.09	84.26
530.26	44.47
530.43	65.54
530.60	79.58
530.77	67.88
530.94	81.92
531.11	70.22
531.28	58.51
531.46	39.79
531.63	42.13
531.80	21.06
531.97	51.49
532.14	49.15
532.31	65.54
532.48	131.07
532.65	114.69
532.82	147.45
532.99	86.60
533.16	51.49
533.33	32.77
533.50	93.62
533.67	63.19
533.84	44.47
534.01	110.01
534.18	135.75
534.35	25.75
534.52	51.49
534.69	149.79
534.86	63.19
535.03	81.92
535.20	91.28
535.37	42.13
535.54	100.64
535.71	35.11
535.88	124.05
536.05	35.11
536.22	117.03
536.38	44.47
536.55	138.09
536.72	102.98
536.89	121.71
537.06	88.94
537.23	49.15
537.40	86.60
537.57	74.90
537.74	77.24
537.91	60.85
538.08	112.35
538.25	53.83
538.42	0.00
538.59	63.19
538.75	110.01
538.92	107.66
539.09	110.01
539.26	53.83
539.43	56.17
539.60	46.81
539.77	25.75
539.94	65.54
540.11	79.58
540.28	110.01
540.44	81.92
540.61	81.92
540.78	84.26
540.95	0.00
541.12	42.13
541.29	135.75
541.46	145.11
541.62	110.01
541.79	133.41
541.96	49.15
542.13	107.66
542.30	86.60
542.47	77.24
542.63	154.48
542.80	58.51
542.97	100.64
543.14	79.58
543.31	105.32
543.48	14.04
543.64	88.94
543.81	121.71
543.98	84.26
544.15	98.30
544.32	114.69
544.48	93.62
544.65	117.03
544.82	88.94
544.99	119.37
545.16	74.90
545.32	117.03
545.49	133.41
545.66	74.90
545.83	65.54
546.00	100.64
546.16	102.98
546.33	39.79
546.50	2.34
546.67	105.32
546.83	74.90
547.00	128.73
547.17	100.64
547.34	74.90
547.50	110.01
547.67	60.85
547.84	100.64
548.00	117.03
548.17	88.94
548.34	100.64
548.51	0.00
548.67	79.58
548.84	49.15
549.01	63.19
549.18	161.50
549.34	72.56
549.51	152.13
549.68	98.30
549.84	91.28
550.01	79.58
550.18	42.13
550.34	91.28
550.51	56.17
550.68	70.22
550.84	126.39
551.01	124.05
551.18	112.35
551.34	58.51
551.51	135.75
551.68	60.85
551.84	84.26
552.01	58.51
552.18	44.47
552.34	117.03
552.51	2.34
552.68	49.15
552.84	79.58
553.01	131.07
553.18	30.43
553.34	117.03
553.51	32.77
553.67	46.81
553.84	63.19
554.01	28.09
554.17	77.24
554.34	9.36
554.51	37.45
554.67	84.26
554.84	67.88
555.00	37.45
555.17	0.00
555.33	124.05
555.50	72.56
555.67	70.22
555.83	51.49
556.00	88.94
556.16	0.00
556.33	117.03
556.50	77.24
556.66	133.41
556.83	56.17
556.99	44.47
557.16	23.41
557.32	49.15
557.49	112.35
557.65	105.32
557.82	128.73
557.98	142.77
558.15	117.03
558.32	105.32
558.48	9.36
558.65	46.81
558.81	23.41
558.98	77.24
559.14	84.26
559.31	42.13
559.47	60.85
559.64	39.79
559.80	131.07
559.97	117.03
560.13	35.11
560.30	159.16
560.46	131.07
560.63	72.56
560.79	53.83
560.96	49.15
561.12	84.26
561.29	60.85
561.45	51.49
561.61	79.58
561.78	117.03
561.94	63.19
562.11	46.81
562.27	159.16
562.44	100.64
562.60	159.16
562.77	39.79
562.93	105.32
563.10	147.45
563.26	67.88
563.42	0.00
563.59	112.35
563.75	56.17
563.92	74.90
564.08	84.26
564.24	86.60
564.41	110.01
564.57	112.35
564.74	91.28
564.90	110.01
565.07	98.30
565.23	46.81
565.39	84.26
565.56	86.60
565.72	21.06
565.88	81.92
566.05	49.15
566.21	131.07
566.38	21.06
566.54	124.05
566.70	110.01
566.87	70.22
567.03	100.64
567.19	77.24
567.36	154.48
567.52	149.79
567.68	14.04
567.85	79.58
568.01	107.66
568.17	28.09
568.34	21.06
568.50	88.94
568.66	58.51
568.83	117.03
568.99	128.73
569.15	100.64
569.32	42.13
569.48	67.88
569.64	100.64
569.81	44.47
569.97	65.54
570.13	9.36
570.30	114.69
570.46	112.35
570.62	46.81
570.78	102.98
570.95	53.83
571.11	93.62
571.27	86.60
571.43	84.26
571.60	58.51
571.76	98.30
571.92	67.88
572.09	91.28
572.25	9.36
572.41	44.47
572.57	51.49
572.74	53.83
572.90	91.28
573.06	93.62
573.22	93.62
573.38	28.09
573.55	149.79
573.71	95.96
573.87	37.45
574.03	51.49
574.20	79.58
574.36	56.17
574.52	105.32
574.68	58.51
574.84	119.37
575.01	98.30
575.17	138.09
575.33	56.17
575.49	126.39
575.65	14.04
575.82	70.22
575.98	86.60
576.14	93.62
576.30	91.28
576.46	110.01
576.62	37.45
576.79	98.30
576.95	67.88
577.11	23.41
577.27	2.34
577.43	114.69
577.59	11.70
577.75	100.64
577.92	110.01
578.08	65.54
578.24	131.07
578.40	77.24
578.56	145.11
578.72	39.79
578.88	35.11
579.04	93.62
579.21	32.77
579.37	42.13
579.53	117.03
579.69	35.11
579.85	53.83
580.01	110.01
580.17	60.85
580.33	65.54
580.49	93.62
580.65	135.75
580.82	0.00
580.98	53.83
581.14	121.71
581.30	44.47
581.46	98.30
581.62	49.15
581.78	100.64
581.94	44.47
582.10	60.85
582.26	128.73
582.42	98.30
582.58	107.66
582.74	102.98
582.90	91.28
583.06	11.70
583.22	42.13
583.38	7.02
583.54	35.11
583.70	32.77
583.86	149.79
584.02	119.37
584.18	32.77
584.34	77.24
584.50	67.88
584.66	112.35
584.82	154.48
584.98	133.41
585.14	110.01
585.30	138.09
585.46	65.54
585.62	51.49
585.78	107.66
585.94	88.94
586.10	74.90
586.26	88.94
586.42	42.13
586.58	93.62
586.74	74.90
586.90	63.19
587.06	42.13
587.22	44.47
587.38	67.88
587.54	91.28
587.70	60.85
587.86	53.83
588.02	95.96
588.18	74.90
588.34	110.01
588.49	105.32
588.65	42.13
588.81	117.03
588.97	25.75
589.13	49.15
589.29	86.60
589.45	70.22
589.61	79.58
589.77	63.19
589.93	42.13
590.08	84.26
590.24	58.51
590.40	30.43
590.56	30.43
590.72	25.75
590.88	53.83
591.04	86.60
591.20	23.41
591.35	79.58
591.51	39.79
591.67	72.56
591.83	102.98
591.99	49.15
592.15	16.38
592.31	88.94
592.46	117.03
592.62	91.28
592.78	124.05
592.94	37.45
593.10	60.85
593.26	128.73
593.41	119.37
593.57	102.98
593.73	23.41
593.89	98.30
594.05	14.04
594.20	72.56
594.36	65.54
594.52	0.00
594.68	131.07
594.84	39.79
594.99	0.00
595.15	53.83
595.31	128.73
595.47	72.56
595.62	0.00
595.78	18.72
595.94	0.00
596.10	18.72
596.25	105.32
596.41	117.03
596.57	18.72
596.73	72.56
596.88	70.22
597.04	67.88
597.20	28.09
597.36	49.15
597.51	74.90
597.67	100.64
597.83	49.15
597.99	0.00
598.14	46.81
598.30	79.58
598.46	102.98
598.61	30.43
598.77	67.88
598.93	84.26
599.09	0.00
599.24	21.06
599.40	58.51
599.56	32.77
599.71	124.05
599.87	39.79
600.03	44.47
600.18	72.56
600.34	81.92
600.50	63.19
600.65	79.58
600.81	32.77
600.97	16.38
601.12	79.58
601.28	74.90
601.44	53.83
601.59	110.01
601.75	16.38
601.91	0.00
602.06	28.09
602.22	67.88
602.37	91.28
602.53	30.43
602.69	88.94
602.84	128.73
603.00	30.43
603.16	51.49
603.31	105.32
603.47	67.88
603.62	25.75
603.78	63.19
603.94	102.98
604.09	70.22
604.25	60.85
604.40	131.07
604.56	49.15
604.71	16.38
604.87	91.28
605.03	77.24
605.18	126.39
605.34	70.22
605.49	11.70
605.65	91.28
605.80	53.83
605.96	72.56
606.12	70.22
606.27	0.00
606.43	44.47
606.58	60.85
606.74	98.30
606.89	131.07
607.05	110.01
607.20	58.51
607.36	37.45
607.51	74.90
607.67	74.90
607.82	70.22
607.98	88.94
608.13	67.88
608.29	91.28
608.44	88.94
608.60	65.54
608.75	49.15
608.91	42.13
609.06	79.58
609.22	74.90
609.37	0.00
609.53	0.00
609.68	44.47
609.84	121.71
609.99	74.90
610.15	95.96
610.30	77.24
610.46	28.09
610.61	107.66
610.76	128.73
610.92	56.17
611.07	77.24
611.23	81.92
611.38	32.77
611.54	72.56
611.69	91.28
611.84	126.39
612.00	105.32
612.15	81.92
612.31	32.77
612.46	81.92
612.62	0.00
612.77	77.24
612.92	28.09
613.08	65.54
613.23	51.49
613.39	56.17
613.54	119.37
613.69	37.45
613.85	63.19
614.00	39.79
614.15	86.60
614.31	23.41
614.46	53.83
614.62	79.58
614.77	42.13
614.92	93.62
615.08	56.17
615.23	74.90
615.38	112.35
615.54	107.66
615.69	70.22
615.84	72.56
616.00	37.45
616.15	0.00
616.30	84.26
616.46	32.77
616.61	28.09
616.76	4.68
616.92	98.30
617.07	63.19
617.22	44.47
617.37	70.22
617.53	128.73
617.68	133.41
617.83	72.56
617.99	16.38
618.14	91.28
618.29	4.68
618.45	88.94
618.60	18.72
618.75	81.92
618.90	60.85
619.06	0.00
619.21	100.64
619.36	74.90
619.51	58.51
619.67	18.72
619.82	70.22
619.97	91.28
620.12	77.24
620.28	110.01
620.43	14.04
620.58	60.85
620.73	88.94
620.89	105.32
621.04	100.64
621.19	49.15
621.34	21.06
621.49	74.90
621.65	58.51
621.80	93.62
621.95	44.47
622.10	53.83
622.25	0.00
622.41	0.00
622.56	74.90
622.71	32.77
622.86	42.13
623.01	77.24
623.16	114.69
623.32	93.62
623.47	0.00
623.62	70.22
623.77	44.47
623.92	42.13
624.07	23.41
624.23	138.09
624.38	49.15
624.53	23.41
624.68	51.49
624.83	65.54
624.98	42.13
625.13	0.00
625.29	35.11
625.44	88.94
625.59	93.62
625.74	100.64
625.89	58.51
626.04	117.03
626.19	74.90
626.34	70.22
626.49	131.07
626.65	105.32
626.80	46.81
626.95	28.09
627.10	102.98
627.25	39.79
627.40	37.45
627.55	18.72
627.70	91.28
627.85	93.62
628.00	51.49
628.15	126.39
628.30	70.22
628.45	56.17
628.60	88.94
628.76	86.60
628.91	44.47
629.06	65.54
629.21	51.49
629.36	16.38
629.51	93.62
629.66	81.92
629.81	60.85
629.96	30.43
630.11	32.77
630.26	4.68
630.41	72.56
630.56	21.06
630.71	91.28
630.86	30.43
631.01	0.00
631.16	16.38
631.31	135.75
631.46	37.45
631.61	74.90
631.76	102.98
631.91	105.32
632.06	65.54
632.21	11.70
632.36	133.41
632.51	0.00
632.66	16.38
632.81	46.81
632.96	44.47
633.10	28.09
633.25	159.16
633.40	32.77
633.55	32.77
633.70	0.00
633.85	32.77
634.00	21.06
634.15	70.22
634.30	84.26
634.45	51.49
634.60	2.34
634.75	126.39
634.90	105.32
635.05	105.32
635.19	86.60
635.34	105.32
635.49	72.56
635.64	110.01
635.79	67.88
635.94	51.49
636.09	88.94
636.24	42.13
636.39	102.98
636.53	49.15
636.68	77.24
636.83	63.19
636.98	84.26
637.13	46.81
637.28	30.43
637.43	72.56
637.57	77.24
637.72	105.32
637.87	79.58
638.02	37.45
638.17	72.56
638.32	77.24
638.46	102.98
638.61	46.81
638.76	53.83
638.91	93.62
639.06	11.70
639.20	86.60
639.35	4.68
639.50	56.17
639.65	86.60
639.80	74.90
639.94	107.66
640.09	77.24
640.24	32.77
640.39	60.85
640.54	67.88
640.68	60.85
640.83	32.77
640.98	37.45
641.13	39.79
641.27	100.64
641.42	30.43
641.57	46.81
641.72	46.81
641.86	98.30
642.01	46.81
642.16	70.22
642.31	23.41
642.45	46.81
642.60	121.71
642.75	88.94
642.90	39.79
643.04	23.41
643.19	128.73
643.34	114.69
643.48	65.54
643.63	0.00
643.78	18.72
643.93	98.30
644.07	119.37
644.22	84.26
644.37	0.00
644.51	30.43
644.66	149.79
644.81	58.51
644.95	39.79
645.10	70.22
645.25	2.34
645.39	39.79
645.54	37.45
645.69	67.88
645.83	0.00
645.98	28.09
646.13	35.11
646.27	32.77
646.42	93.62
646.57	49.15
646.71	84.26
646.86	65.54
647.00	79.58
647.15	98.30
647.30	91.28
647.44	86.60
647.59	86.60
647.74	58.51
647.88	65.54
648.03	58.51
648.17	25.75
648.32	23.41
648.47	35.11
648.61	84.26
648.76	72.56
648.90	86.60
649.05	77.24
649.20	16.38
649.34	25.75
649.49	58.51
649.63	72.56
649.78	77.24
649.92	7.02
650.07	25.75
650.21	23.41
650.36	86.60
650.51	81.92
650.65	72.56
650.80	84.26
650.94	32.77
651.09	49.15
651.23	16.38
651.38	49.15
651.52	46.81
651.67	32.77
651.81	35.11
651.96	56.17
652.10	7.02
652.25	9.36
652.39	126.39
652.54	95.96
652.68	25.75
652.83	44.47
652.97	126.39
653.12	23.41
653.26	81.92
653.41	2.34
653.55	0.00
653.70	0.00
653.84	53.83
653.99	70.22
654.13	39.79
654.27	51.49
654.42	18.72
654.56	49.15
654.71	7.02
654.85	58.51
655.00	32.77
655.14	117.03
655.29	63.19
655.43	32.77
655.57	11.70
655.72	128.73
655.86	56.17
656.01	37.45
656.15	65.54
656.30	42.13
656.44	65.54
656.58	95.96
656.73	4.68
656.87	128.73
657.01	28.09
657.16	32.77
657.30	140.43
657.45	46.81
657.59	86.60
657.73	0.00
657.88	30.43
658.02	91.28
658.16	110.01
658.31	86.60
658.45	133.41
658.60	119.37
658.74	39.79
658.88	28.09
659.03	72.56
659.17	0.00
659.31	16.38
659.46	79.58
659.60	32.77
659.74	44.47
659.89	42.13
660.03	95.96
660.17	86.60
660.32	63.19
660.46	28.09
660.60	4.68
660.74	25.75
660.89	60.85
661.03	91.28
661.17	0.00
661.32	9.36
661.46	74.90
661.60	70.22
661.74	39.79
661.89	30.43
662.03	49.15
662.17	21.06
662.31	18.72
662.46	84.26
662.60	51.49
662.74	152.13
662.88	0.00
663.03	37.45
663.17	0.00
663.31	35.11
663.45	110.01
663.60	114.69
663.74	107.66
663.88	28.09
664.02	37.45
664.17	16.38
664.31	77.24
664.45	63.19
664.59	63.19
664.73	18.72
664.88	72.56
665.02	39.79
665.16	86.60
665.30	49.15
665.44	67.88
665.59	81.92
665.73	2.34
665.87	0.00
666.01	49.15
666.15	0.00
666.29	70.22
666.44	63.19
666.58	74.90
666.72	93.62
666.86	23.41
667.00	53.83
667.14	28.09
667.28	18.72
667.43	7.02
667.57	4.68
667.71	60.85
667.85	28.09
667.99	46.81
668.13	60.85
668.27	49.15
668.41	88.94
668.56	0.00
668.70	65.54
668.84	56.17
668.98	65.54
669.12	65.54
669.26	102.98
669.40	60.85
669.54	0.00
669.68	25.75
669.82	51.49
669.96	42.13
670.10	18.72
670.25	63.19
670.39	72.56
670.53	42.13
670.67	37.45
670.81	0.00
670.95	46.81
671.09	105.32
671.23	100.64
671.37	81.92
671.51	58.51
671.65	39.79
671.79	84.26
671.93	32.77
672.07	16.38
672.21	0.00
672.35	67.88
672.49	7.02
672.63	44.47
672.77	58.51
672.91	32.77
673.05	79.58
673.19	42.13
673.33	39.79
673.47	56.17
673.61	39.79
673.75	58.51
673.89	28.09
674.03	0.00
674.17	0.00
674.31	65.54
674.45	86.60
674.59	32.77
674.73	30.43
674.87	49.15
675.01	107.66
675.15	37.45
675.29	7.02
675.43	23.41
675.56	44.47
675.70	42.13
675.84	67.88
675.98	9.36
676.12	56.17
676.26	0.00
676.40	49.15
676.54	81.92
676.68	37.45
676.82	0.00
676.96	28.09
677.10	39.79
677.23	0.00
677.37	77.24
677.51	0.00
677.65	53.83
677.79	28.09
677.93	77.24
678.07	32.77
678.21	32.77
678.34	56.17
678.48	0.00
678.62	81.92
678.76	56.17
678.90	53.83
679.04	138.09
679.18	16.38
679.31	11.70
679.45	67.88
679.59	0.00
679.73	70.22
679.87	4.68
680.00	0.00
680.14	86.60
680.28	65.54
680.42	7.02
680.56	93.62
680.70	23.41
680.83	56.17
680.97	91.28
681.11	23.41
681.25	77.24
681.39	0.00
681.52	124.05
681.66	32.77
681.80	23.41
681.94	25.75
682.07	35.11
682.21	44.47
682.35	74.90
682.49	77.24
682.62	28.09
682.76	32.77
682.90	49.15
683.04	42.13
683.17	0.00
683.31	28.09
683.45	16.38
683.59	39.79
683.72	49.15
683.86	37.45
684.00	67.88
684.13	11.70
684.27	58.51
684.41	30.43
684.55	84.26
684.68	72.56
684.82	25.75
684.96	0.00
685.09	86.60
685.23	81.92
685.37	51.49
685.50	42.13
685.64	7.02
685.78	65.54
685.91	0.00
686.05	63.19
686.19	25.75
686.32	25.75
686.46	0.00
686.60	11.70
686.73	65.54
686.87	25.75
687.01	53.83
687.14	14.04
687.28	51.49
687.42	0.00
687.55	37.45
687.69	0.00
687.82	114.69
687.96	81.92
688.10	44.47
688.23	21.06
688.37	14.04
688.50	58.51
688.64	0.00
688.78	74.90
688.91	79.58
689.05	46.81
689.18	65.54
689.32	42.13
689.46	95.96
689.59	0.00
689.73	42.13
689.86	0.00
690.00	39.79
690.13	44.47
690.27	39.79
690.41	46.81
690.54	2.34
690.68	4.68
690.81	39.79
690.95	56.17
691.08	4.68
691.22	0.00
691.35	32.77
691.49	30.43
691.62	32.77
691.76	9.36
691.89	21.06
692.03	58.51
692.16	91.28
692.30	72.56
692.43	77.24
692.57	9.36
692.70	44.47
692.84	37.45
692.97	77.24
693.11	67.88
693.24	21.06
693.38	114.69
693.51	53.83
693.65	77.24
693.78	18.72
693.92	30.43
694.05	0.00
694.19	72.56
694.32	56.17
694.45	37.45
694.59	0.00
694.72	77.24
694.86	30.43
694.99	0.00
695.13	72.56
695.26	53.83
695.39	32.77
695.53	32.77
695.66	0.00
695.80	128.73
695.93	107.66
696.07	28.09
696.20	98.30
696.33	84.26
696.47	21.06
696.60	56.17
696.73	49.15
696.87	37.45
697.00	58.51
697.14	112.35
697.27	4.68
697.40	63.19
697.54	67.88
697.67	0.00
697.80	46.81
697.94	58.51
698.07	16.38
698.21	23.41
698.34	21.06
698.47	9.36
698.61	18.72
698.74	65.54
698.87	49.15
699.01	23.41
699.14	67.88
699.27	35.11
699.40	70.22
699.54	21.06
699.67	37.45
699.80	46.81
699.94	44.47
700.07	0.00
700.20	0.00
700.34	0.00
700.47	9.36
700.60	35.11
700.73	25.75
700.87	70.22
701.00	60.85
701.13	14.04
701.26	70.22
701.40	100.64
701.53	14.04
701.66	7.02
701.79	23.41
701.93	23.41
702.06	72.56
702.19	67.88
702.32	58.51
702.46	7.02
702.59	2.34
702.72	7.02
702.85	70.22
702.99	0.00
703.12	18.72
703.25	0.00
703.38	25.75
703.51	16.38
703.65	14.04
703.78	0.00
703.91	58.51
704.04	84.26
704.17	102.98
704.31	0.00
704.44	28.09
704.57	14.04
704.70	53.83
704.83	0.00
704.96	25.75
705.10	42.13
705.23	28.09
>>>>>End Processed Spectral Data<<<<<
