SpectraSuite Data File
++++++++++++++++++++++++++++++++++++
Date: Fri Oct 04 12:13:24 GMT-05:00 2013
User: price-jones
Dark Spectrum Present: No
Reference Spectrum Present: No
Number of Sampled Component Spectra: 1
Spectrometers: USB2+H05261
Integration Time (usec): 10000 (USB2+H05261)
Spectra Averaged: 1 (USB2+H05261)
Boxcar Smoothing: 0 (USB2+H05261)
Correct for Electrical Dark: No (USB2+H05261)
Strobe/Lamp Enabled: No (USB2+H05261)
Correct for Detector Non-linearity: No (USB2+H05261)
Correct for Stray Light: No (USB2+H05261)
Number of Pixels in Processed Spectrum: 2048
>>>>>Begin Processed Spectral Data<<<<<
365.73	49.15
365.92	49.15
366.12	49.15
366.32	0.00
366.52	0.00
366.72	0.00
366.91	0.00
367.11	0.00
367.31	0.00
367.51	0.00
367.70	0.00
367.90	0.00
368.10	0.00
368.30	0.00
368.49	0.00
368.69	0.00
368.89	0.00
369.09	0.00
369.28	0.00
369.48	0.00
369.68	0.00
369.87	0.00
370.07	0.00
370.27	0.00
370.47	0.00
370.66	0.00
370.86	0.00
371.06	0.00
371.25	0.00
371.45	0.00
371.65	16.38
371.84	60.85
372.04	0.00
372.24	0.00
372.44	0.00
372.63	35.11
372.83	30.43
373.03	0.00
373.22	25.75
373.42	28.09
373.62	0.00
373.81	0.00
374.01	60.85
374.21	23.41
374.40	93.62
374.60	7.02
374.79	95.96
374.99	0.00
375.19	0.00
375.38	28.09
375.58	2.34
375.78	58.51
375.97	42.13
376.17	28.09
376.37	23.41
376.56	37.45
376.76	51.49
376.95	49.15
377.15	9.36
377.35	0.00
377.54	0.00
377.74	53.83
377.93	0.00
378.13	42.13
378.33	30.43
378.52	37.45
378.72	0.00
378.91	35.11
379.11	9.36
379.31	107.66
379.50	0.00
379.70	32.77
379.89	60.85
380.09	72.56
380.28	51.49
380.48	53.83
380.68	37.45
380.87	14.04
381.07	9.36
381.26	39.79
381.46	0.00
381.65	4.68
381.85	0.00
382.04	42.13
382.24	32.77
382.43	74.90
382.63	9.36
382.83	23.41
383.02	23.41
383.22	39.79
383.41	0.00
383.61	11.70
383.80	65.54
384.00	0.00
384.19	0.00
384.39	30.43
384.58	18.72
384.78	2.34
384.97	0.00
385.17	72.56
385.36	67.88
385.56	0.00
385.75	0.00
385.95	0.00
386.14	74.90
386.34	0.00
386.53	7.02
386.72	0.00
386.92	25.75
387.11	46.81
387.31	2.34
387.50	0.00
387.70	32.77
387.89	0.00
388.09	81.92
388.28	0.00
388.48	60.85
388.67	65.54
388.86	9.36
389.06	0.00
389.25	32.77
389.45	49.15
389.64	95.96
389.84	16.38
390.03	18.72
390.22	28.09
390.42	7.02
390.61	2.34
390.81	56.17
391.00	72.56
391.19	2.34
391.39	42.13
391.58	63.19
391.78	42.13
391.97	0.00
392.16	44.47
392.36	0.00
392.55	0.00
392.75	4.68
392.94	2.34
393.13	14.04
393.33	0.00
393.52	30.43
393.71	67.88
393.91	0.00
394.10	0.00
394.29	0.00
394.49	0.00
394.68	14.04
394.88	51.49
395.07	60.85
395.26	11.70
395.46	28.09
395.65	28.09
395.84	51.49
396.04	23.41
396.23	0.00
396.42	7.02
396.62	112.35
396.81	49.15
397.00	4.68
397.19	51.49
397.39	39.79
397.58	16.38
397.77	39.79
397.97	46.81
398.16	0.00
398.35	35.11
398.55	0.00
398.74	44.47
398.93	49.15
399.12	0.00
399.32	51.49
399.51	70.22
399.70	0.00
399.90	42.13
400.09	0.00
400.28	16.38
400.47	58.51
400.67	0.00
400.86	53.83
401.05	0.00
401.24	0.00
401.44	18.72
401.63	21.06
401.82	84.26
402.01	30.43
402.21	42.13
402.40	9.36
402.59	44.47
402.78	9.36
402.97	30.43
403.17	0.00
403.36	9.36
403.55	25.75
403.74	0.00
403.93	51.49
404.13	14.04
404.32	67.88
404.51	77.24
404.70	46.81
404.89	4.68
405.09	30.43
405.28	56.17
405.47	16.38
405.66	60.85
405.85	42.13
406.05	2.34
406.24	100.64
406.43	0.00
406.62	16.38
406.81	0.00
407.00	0.00
407.20	21.06
407.39	0.00
407.58	35.11
407.77	51.49
407.96	37.45
408.15	0.00
408.34	42.13
408.54	39.79
408.73	0.00
408.92	84.26
409.11	102.98
409.30	0.00
409.49	56.17
409.68	25.75
409.87	39.79
410.07	35.11
410.26	25.75
410.45	105.32
410.64	0.00
410.83	0.00
411.02	88.94
411.21	0.00
411.40	74.90
411.59	0.00
411.78	77.24
411.98	49.15
412.17	4.68
412.36	112.35
412.55	9.36
412.74	51.49
412.93	49.15
413.12	28.09
413.31	42.13
413.50	46.81
413.69	39.79
413.88	49.15
414.07	0.00
414.26	46.81
414.45	51.49
414.64	0.00
414.83	67.88
415.02	72.56
415.22	42.13
415.41	0.00
415.60	105.32
415.79	67.88
415.98	49.15
416.17	56.17
416.36	4.68
416.55	2.34
416.74	35.11
416.93	2.34
417.12	25.75
417.31	16.38
417.50	23.41
417.69	51.49
417.88	39.79
418.07	0.00
418.26	70.22
418.45	60.85
418.64	28.09
418.83	46.81
419.02	0.00
419.21	0.00
419.39	0.00
419.58	35.11
419.77	0.00
419.96	53.83
420.15	14.04
420.34	21.06
420.53	0.00
420.72	0.00
420.91	0.00
421.10	0.00
421.29	28.09
421.48	4.68
421.67	4.68
421.86	51.49
422.05	49.15
422.24	0.00
422.43	0.00
422.61	0.00
422.80	51.49
422.99	58.51
423.18	74.90
423.37	63.19
423.56	56.17
423.75	102.98
423.94	35.11
424.13	79.58
424.32	60.85
424.50	35.11
424.69	63.19
424.88	37.45
425.07	28.09
425.26	30.43
425.45	56.17
425.64	35.11
425.83	58.51
426.01	0.00
426.20	46.81
426.39	0.00
426.58	25.75
426.77	63.19
426.96	0.00
427.15	16.38
427.33	70.22
427.52	37.45
427.71	30.43
427.90	0.00
428.09	70.22
428.28	16.38
428.46	0.00
428.65	37.45
428.84	0.00
429.03	74.90
429.22	0.00
429.40	2.34
429.59	0.00
429.78	30.43
429.97	0.00
430.16	35.11
430.34	2.34
430.53	23.41
430.72	63.19
430.91	0.00
431.10	49.15
431.28	93.62
431.47	9.36
431.66	72.56
431.85	95.96
432.03	110.01
432.22	117.03
432.41	37.45
432.60	0.00
432.79	0.00
432.97	11.70
433.16	119.37
433.35	70.22
433.54	98.30
433.72	93.62
433.91	0.00
434.10	25.75
434.28	9.36
434.47	56.17
434.66	53.83
434.85	28.09
435.03	0.00
435.22	16.38
435.41	0.00
435.59	9.36
435.78	81.92
435.97	25.75
436.16	37.45
436.34	44.47
436.53	53.83
436.72	0.00
436.90	11.70
437.09	84.26
437.28	98.30
437.46	28.09
437.65	2.34
437.84	30.43
438.02	44.47
438.21	9.36
438.40	72.56
438.58	58.51
438.77	18.72
438.96	9.36
439.14	32.77
439.33	4.68
439.52	0.00
439.70	0.00
439.89	0.00
440.08	2.34
440.26	49.15
440.45	74.90
440.63	0.00
440.82	39.79
441.01	56.17
441.19	28.09
441.38	35.11
441.57	16.38
441.75	42.13
441.94	46.81
442.12	42.13
442.31	2.34
442.50	0.00
442.68	32.77
442.87	56.17
443.05	28.09
443.24	0.00
443.43	79.58
443.61	0.00
443.80	56.17
443.98	0.00
444.17	9.36
444.35	0.00
444.54	0.00
444.73	28.09
444.91	39.79
445.10	39.79
445.28	0.00
445.47	18.72
445.65	39.79
445.84	7.02
446.02	9.36
446.21	0.00
446.39	42.13
446.58	35.11
446.77	58.51
446.95	0.00
447.14	0.00
447.32	67.88
447.51	0.00
447.69	51.49
447.88	51.49
448.06	60.85
448.25	105.32
448.43	30.43
448.62	42.13
448.80	86.60
448.99	77.24
449.17	30.43
449.36	121.71
449.54	0.00
449.73	56.17
449.91	98.30
450.10	11.70
450.28	51.49
450.46	14.04
450.65	0.00
450.83	9.36
451.02	39.79
451.20	77.24
451.39	110.01
451.57	42.13
451.76	14.04
451.94	18.72
452.13	88.94
452.31	23.41
452.49	37.45
452.68	16.38
452.86	86.60
453.05	0.00
453.23	14.04
453.42	32.77
453.60	88.94
453.78	63.19
453.97	0.00
454.15	30.43
454.34	100.64
454.52	42.13
454.70	25.75
454.89	0.00
455.07	37.45
455.26	53.83
455.44	32.77
455.62	0.00
455.81	23.41
455.99	0.00
456.17	0.00
456.36	51.49
456.54	32.77
456.73	0.00
456.91	128.73
457.09	58.51
457.28	23.41
457.46	9.36
457.64	56.17
457.83	88.94
458.01	0.00
458.19	21.06
458.38	25.75
458.56	42.13
458.74	79.58
458.93	2.34
459.11	70.22
459.29	32.77
459.48	42.13
459.66	4.68
459.84	74.90
460.03	16.38
460.21	93.62
460.39	56.17
460.57	91.28
460.76	56.17
460.94	32.77
461.12	63.19
461.31	79.58
461.49	67.88
461.67	98.30
461.85	65.54
462.04	16.38
462.22	107.66
462.40	4.68
462.59	79.58
462.77	42.13
462.95	98.30
463.13	0.00
463.32	16.38
463.50	44.47
463.68	14.04
463.86	0.00
464.05	63.19
464.23	67.88
464.41	18.72
464.59	23.41
464.78	67.88
464.96	84.26
465.14	84.26
465.32	7.02
465.50	65.54
465.69	30.43
465.87	93.62
466.05	18.72
466.23	53.83
466.41	0.00
466.60	56.17
466.78	30.43
466.96	42.13
467.14	30.43
467.32	49.15
467.51	32.77
467.69	28.09
467.87	4.68
468.05	37.45
468.23	0.00
468.41	0.00
468.60	46.81
468.78	63.19
468.96	46.81
469.14	46.81
469.32	7.02
469.50	0.00
469.69	37.45
469.87	21.06
470.05	0.00
470.23	53.83
470.41	77.24
470.59	32.77
470.77	2.34
470.95	0.00
471.14	0.00
471.32	23.41
471.50	63.19
471.68	93.62
471.86	49.15
472.04	44.47
472.22	46.81
472.40	0.00
472.58	18.72
472.77	21.06
472.95	16.38
473.13	65.54
473.31	60.85
473.49	7.02
473.67	51.49
473.85	9.36
474.03	39.79
474.21	32.77
474.39	35.11
474.57	77.24
474.75	0.00
474.93	63.19
475.12	65.54
475.30	16.38
475.48	9.36
475.66	37.45
475.84	117.03
476.02	0.00
476.20	56.17
476.38	44.47
476.56	46.81
476.74	63.19
476.92	44.47
477.10	70.22
477.28	16.38
477.46	0.00
477.64	56.17
477.82	2.34
478.00	56.17
478.18	2.34
478.36	0.00
478.54	84.26
478.72	0.00
478.90	56.17
479.08	49.15
479.26	30.43
479.44	11.70
479.62	0.00
479.80	0.00
479.98	16.38
480.16	11.70
480.34	49.15
480.52	84.26
480.70	32.77
480.88	9.36
481.06	0.00
481.24	46.81
481.41	133.41
481.59	121.71
481.77	21.06
481.95	63.19
482.13	23.41
482.31	21.06
482.49	72.56
482.67	67.88
482.85	77.24
483.03	63.19
483.21	88.94
483.39	44.47
483.57	67.88
483.74	56.17
483.92	95.96
484.10	0.00
484.28	28.09
484.46	18.72
484.64	14.04
484.82	21.06
485.00	65.54
485.18	35.11
485.35	112.35
485.53	0.00
485.71	79.58
485.89	0.00
486.07	4.68
486.25	95.96
486.43	79.58
486.61	4.68
486.78	65.54
486.96	0.00
487.14	35.11
487.32	0.00
487.50	67.88
487.68	23.41
487.85	63.19
488.03	72.56
488.21	51.49
488.39	7.02
488.57	98.30
488.75	0.00
488.92	65.54
489.10	37.45
489.28	2.34
489.46	42.13
489.64	51.49
489.81	0.00
489.99	9.36
490.17	110.01
490.35	9.36
490.53	0.00
490.70	35.11
490.88	49.15
491.06	79.58
491.24	37.45
491.41	25.75
491.59	9.36
491.77	88.94
491.95	18.72
492.13	51.49
492.30	28.09
492.48	110.01
492.66	9.36
492.84	44.47
493.01	28.09
493.19	32.77
493.37	77.24
493.54	39.79
493.72	0.00
493.90	7.02
494.08	32.77
494.25	53.83
494.43	74.90
494.61	30.43
494.79	30.43
494.96	0.00
495.14	77.24
495.32	30.43
495.49	56.17
495.67	100.64
495.85	79.58
496.02	28.09
496.20	23.41
496.38	79.58
496.55	79.58
496.73	9.36
496.91	51.49
497.09	51.49
497.26	42.13
497.44	14.04
497.62	65.54
497.79	0.00
497.97	23.41
498.14	16.38
498.32	53.83
498.50	95.96
498.67	14.04
498.85	67.88
499.03	11.70
499.20	39.79
499.38	56.17
499.56	0.00
499.73	56.17
499.91	0.00
500.08	117.03
500.26	42.13
500.44	0.00
500.61	79.58
500.79	63.19
500.97	0.00
501.14	74.90
501.32	117.03
501.49	32.77
501.67	79.58
501.84	58.51
502.02	0.00
502.20	77.24
502.37	100.64
502.55	23.41
502.72	53.83
502.90	84.26
503.07	0.00
503.25	28.09
503.43	65.54
503.60	74.90
503.78	65.54
503.95	56.17
504.13	58.51
504.30	53.83
504.48	0.00
504.65	60.85
504.83	0.00
505.01	91.28
505.18	44.47
505.36	51.49
505.53	84.26
505.71	4.68
505.88	72.56
506.06	42.13
506.23	35.11
506.41	49.15
506.58	30.43
506.76	28.09
506.93	14.04
507.11	9.36
507.28	58.51
507.46	60.85
507.63	65.54
507.81	39.79
507.98	16.38
508.16	35.11
508.33	56.17
508.50	0.00
508.68	18.72
508.85	39.79
509.03	58.51
509.20	39.79
509.38	72.56
509.55	32.77
509.73	14.04
509.90	35.11
510.08	91.28
510.25	56.17
510.42	37.45
510.60	58.51
510.77	98.30
510.95	49.15
511.12	60.85
511.30	37.45
511.47	35.11
511.64	53.83
511.82	0.00
511.99	37.45
512.17	72.56
512.34	81.92
512.51	7.02
512.69	39.79
512.86	11.70
513.04	18.72
513.21	74.90
513.38	25.75
513.56	0.00
513.73	37.45
513.90	0.00
514.08	42.13
514.25	102.98
514.43	70.22
514.60	56.17
514.77	25.75
514.95	23.41
515.12	2.34
515.29	53.83
515.47	79.58
515.64	126.39
515.81	102.98
515.99	58.51
516.16	11.70
516.33	86.60
516.51	95.96
516.68	56.17
516.85	28.09
517.03	0.00
517.20	51.49
517.37	4.68
517.54	114.69
517.72	9.36
517.89	4.68
518.06	0.00
518.24	0.00
518.41	72.56
518.58	84.26
518.75	49.15
518.93	79.58
519.10	21.06
519.27	56.17
519.45	60.85
519.62	70.22
519.79	58.51
519.96	65.54
520.14	37.45
520.31	51.49
520.48	23.41
520.65	30.43
520.83	63.19
521.00	142.77
521.17	30.43
521.34	88.94
521.52	32.77
521.69	91.28
521.86	53.83
522.03	35.11
522.20	37.45
522.38	0.00
522.55	53.83
522.72	88.94
522.89	56.17
523.07	30.43
523.24	70.22
523.41	28.09
523.58	9.36
523.75	102.98
523.92	39.79
524.10	37.45
524.27	2.34
524.44	95.96
524.61	105.32
524.78	25.75
524.96	70.22
525.13	39.79
525.30	37.45
525.47	23.41
525.64	49.15
525.81	67.88
525.98	60.85
526.16	30.43
526.33	0.00
526.50	37.45
526.67	65.54
526.84	77.24
527.01	37.45
527.18	23.41
527.36	23.41
527.53	121.71
527.70	28.09
527.87	65.54
528.04	112.35
528.21	0.00
528.38	93.62
528.55	30.43
528.72	98.30
528.89	84.26
529.07	9.36
529.24	0.00
529.41	39.79
529.58	44.47
529.75	25.75
529.92	70.22
530.09	65.54
530.26	86.60
530.43	4.68
530.60	77.24
530.77	0.00
530.94	0.00
531.11	0.00
531.28	63.19
531.46	35.11
531.63	4.68
531.80	4.68
531.97	14.04
532.14	110.01
532.31	0.00
532.48	53.83
532.65	4.68
532.82	4.68
532.99	0.00
533.16	0.00
533.33	98.30
533.50	72.56
533.67	0.00
533.84	28.09
534.01	0.00
534.18	133.41
534.35	0.00
534.52	23.41
534.69	60.85
534.86	28.09
535.03	11.70
535.20	25.75
535.37	70.22
535.54	9.36
535.71	60.85
535.88	14.04
536.05	14.04
536.22	0.00
536.38	60.85
536.55	81.92
536.72	72.56
536.89	0.00
537.06	72.56
537.23	77.24
537.40	60.85
537.57	0.00
537.74	138.09
537.91	51.49
538.08	18.72
538.25	63.19
538.42	18.72
538.59	0.00
538.75	0.00
538.92	67.88
539.09	0.00
539.26	25.75
539.43	28.09
539.60	49.15
539.77	53.83
539.94	0.00
540.11	0.00
540.28	110.01
540.44	14.04
540.61	65.54
540.78	49.15
540.95	70.22
541.12	79.58
541.29	53.83
541.46	46.81
541.62	67.88
541.79	0.00
541.96	49.15
542.13	60.85
542.30	100.64
542.47	2.34
542.63	35.11
542.80	67.88
542.97	16.38
543.14	0.00
543.31	25.75
543.48	42.13
543.64	0.00
543.81	0.00
543.98	0.00
544.15	95.96
544.32	44.47
544.48	49.15
544.65	0.00
544.82	77.24
544.99	77.24
545.16	14.04
545.32	79.58
545.49	58.51
545.66	105.32
545.83	28.09
546.00	74.90
546.16	88.94
546.33	35.11
546.50	56.17
546.67	67.88
546.83	23.41
547.00	72.56
547.17	53.83
547.34	30.43
547.50	44.47
547.67	35.11
547.84	98.30
548.00	0.00
548.17	70.22
548.34	95.96
548.51	58.51
548.67	0.00
548.84	0.00
549.01	42.13
549.18	49.15
549.34	21.06
549.51	65.54
549.68	74.90
549.84	0.00
550.01	86.60
550.18	37.45
550.34	105.32
550.51	77.24
550.68	58.51
550.84	79.58
551.01	9.36
551.18	32.77
551.34	32.77
551.51	60.85
551.68	107.66
551.84	14.04
552.01	23.41
552.18	46.81
552.34	60.85
552.51	79.58
552.68	0.00
552.84	32.77
553.01	0.00
553.18	86.60
553.34	74.90
553.51	39.79
553.67	21.06
553.84	98.30
554.01	23.41
554.17	16.38
554.34	58.51
554.51	110.01
554.67	51.49
554.84	95.96
555.00	0.00
555.17	37.45
555.33	35.11
555.50	140.43
555.67	95.96
555.83	60.85
556.00	0.00
556.16	18.72
556.33	16.38
556.50	9.36
556.66	95.96
556.83	37.45
556.99	21.06
557.16	21.06
557.32	0.00
557.49	67.88
557.65	28.09
557.82	39.79
557.98	18.72
558.15	35.11
558.32	35.11
558.48	11.70
558.65	7.02
558.81	11.70
558.98	28.09
559.14	107.66
559.31	30.43
559.47	86.60
559.64	4.68
559.80	53.83
559.97	44.47
560.13	0.00
560.30	23.41
560.46	53.83
560.63	30.43
560.79	21.06
560.96	98.30
561.12	44.47
561.29	37.45
561.45	39.79
561.61	49.15
561.78	91.28
561.94	56.17
562.11	0.00
562.27	63.19
562.44	79.58
562.60	30.43
562.77	35.11
562.93	77.24
563.10	84.26
563.26	11.70
563.42	72.56
563.59	23.41
563.75	49.15
563.92	16.38
564.08	67.88
564.24	74.90
564.41	88.94
564.57	28.09
564.74	0.00
564.90	56.17
565.07	42.13
565.23	42.13
565.39	81.92
565.56	2.34
565.72	42.13
565.88	67.88
566.05	102.98
566.21	100.64
566.38	51.49
566.54	65.54
566.70	74.90
566.87	42.13
567.03	65.54
567.19	0.00
567.36	21.06
567.52	14.04
567.68	42.13
567.85	37.45
568.01	86.60
568.17	56.17
568.34	56.17
568.50	46.81
568.66	0.00
568.83	58.51
568.99	56.17
569.15	30.43
569.32	7.02
569.48	18.72
569.64	18.72
569.81	35.11
569.97	0.00
570.13	44.47
570.30	9.36
570.46	117.03
570.62	32.77
570.78	0.00
570.95	32.77
571.11	18.72
571.27	49.15
571.43	39.79
571.60	0.00
571.76	44.47
571.92	37.45
572.09	79.58
572.25	56.17
572.41	65.54
572.57	30.43
572.74	44.47
572.90	81.92
573.06	0.00
573.22	42.13
573.38	0.00
573.55	21.06
573.71	81.92
573.87	21.06
574.03	49.15
574.20	32.77
574.36	32.77
574.52	16.38
574.68	49.15
574.84	39.79
575.01	86.60
575.17	86.60
575.33	11.70
575.49	37.45
575.65	65.54
575.82	28.09
575.98	18.72
576.14	63.19
576.30	35.11
576.46	49.15
576.62	86.60
576.79	53.83
576.95	23.41
577.11	39.79
577.27	14.04
577.43	39.79
577.59	42.13
577.75	126.39
577.92	58.51
578.08	84.26
578.24	60.85
578.40	39.79
578.56	56.17
578.72	124.05
578.88	56.17
579.04	37.45
579.21	25.75
579.37	46.81
579.53	65.54
579.69	18.72
579.85	37.45
580.01	105.32
580.17	110.01
580.33	42.13
580.49	49.15
580.65	79.58
580.82	72.56
580.98	51.49
581.14	42.13
581.30	49.15
581.46	37.45
581.62	0.00
581.78	11.70
581.94	86.60
582.10	7.02
582.26	39.79
582.42	0.00
582.58	93.62
582.74	44.47
582.90	18.72
583.06	4.68
583.22	42.13
583.38	140.43
583.54	51.49
583.70	18.72
583.86	65.54
584.02	9.36
584.18	14.04
584.34	63.19
584.50	110.01
584.66	42.13
584.82	56.17
584.98	32.77
585.14	9.36
585.30	46.81
585.46	46.81
585.62	56.17
585.78	16.38
585.94	67.88
586.10	39.79
586.26	49.15
586.42	35.11
586.58	72.56
586.74	30.43
586.90	16.38
587.06	44.47
587.22	56.17
587.38	0.00
587.54	51.49
587.70	0.00
587.86	18.72
588.02	18.72
588.18	60.85
588.34	88.94
588.49	35.11
588.65	53.83
588.81	93.62
588.97	0.00
589.13	18.72
589.29	53.83
589.45	86.60
589.61	18.72
589.77	14.04
589.93	60.85
590.08	112.35
590.24	25.75
590.40	16.38
590.56	0.00
590.72	21.06
590.88	23.41
591.04	126.39
591.20	102.98
591.35	25.75
591.51	0.00
591.67	63.19
591.83	107.66
591.99	56.17
592.15	72.56
592.31	93.62
592.46	28.09
592.62	72.56
592.78	67.88
592.94	30.43
593.10	46.81
593.26	32.77
593.41	58.51
593.57	88.94
593.73	0.00
593.89	79.58
594.05	42.13
594.20	16.38
594.36	16.38
594.52	49.15
594.68	56.17
594.84	35.11
594.99	60.85
595.15	81.92
595.31	56.17
595.47	91.28
595.62	0.00
595.78	60.85
595.94	0.00
596.10	46.81
596.25	16.38
596.41	0.00
596.57	2.34
596.73	44.47
596.88	84.26
597.04	74.90
597.20	42.13
597.36	16.38
597.51	0.00
597.67	91.28
597.83	56.17
597.99	63.19
598.14	7.02
598.30	100.64
598.46	49.15
598.61	65.54
598.77	91.28
598.93	60.85
599.09	9.36
599.24	95.96
599.40	117.03
599.56	14.04
599.71	44.47
599.87	39.79
600.03	67.88
600.18	18.72
600.34	14.04
600.50	0.00
600.65	79.58
600.81	95.96
600.97	9.36
601.12	4.68
601.28	60.85
601.44	46.81
601.59	14.04
601.75	35.11
601.91	2.34
602.06	77.24
602.22	65.54
602.37	67.88
602.53	21.06
602.69	105.32
602.84	4.68
603.00	53.83
603.16	42.13
603.31	65.54
603.47	84.26
603.62	60.85
603.78	58.51
603.94	0.00
604.09	21.06
604.25	56.17
604.40	21.06
604.56	63.19
604.71	18.72
604.87	16.38
605.03	44.47
605.18	21.06
605.34	93.62
605.49	49.15
605.65	39.79
605.80	63.19
605.96	35.11
606.12	67.88
606.27	46.81
606.43	30.43
606.58	67.88
606.74	30.43
606.89	53.83
607.05	11.70
607.20	32.77
607.36	28.09
607.51	63.19
607.67	70.22
607.82	16.38
607.98	7.02
608.13	0.00
608.29	0.00
608.44	35.11
608.60	58.51
608.75	67.88
608.91	18.72
609.06	70.22
609.22	0.00
609.37	7.02
609.53	65.54
609.68	65.54
609.84	0.00
609.99	25.75
610.15	135.75
610.30	0.00
610.46	44.47
610.61	53.83
610.76	39.79
610.92	79.58
611.07	21.06
611.23	32.77
611.38	39.79
611.54	100.64
611.69	32.77
611.84	53.83
612.00	65.54
612.15	7.02
612.31	84.26
612.46	30.43
612.62	72.56
612.77	9.36
612.92	70.22
613.08	98.30
613.23	39.79
613.39	0.00
613.54	0.00
613.69	28.09
613.85	46.81
614.00	0.00
614.15	49.15
614.31	93.62
614.46	35.11
614.62	30.43
614.77	49.15
614.92	74.90
615.08	51.49
615.23	18.72
615.38	0.00
615.54	30.43
615.69	39.79
615.84	42.13
616.00	39.79
616.15	0.00
616.30	7.02
616.46	0.00
616.61	60.85
616.76	56.17
616.92	77.24
617.07	18.72
617.22	0.00
617.37	0.00
617.53	114.69
617.68	42.13
617.83	58.51
617.99	0.00
618.14	25.75
618.29	23.41
618.45	56.17
618.60	0.00
618.75	9.36
618.90	0.00
619.06	67.88
619.21	88.94
619.36	30.43
619.51	30.43
619.67	16.38
619.82	100.64
619.97	84.26
620.12	0.00
620.28	63.19
620.43	67.88
620.58	121.71
620.73	42.13
620.89	128.73
621.04	79.58
621.19	37.45
621.34	44.47
621.49	0.00
621.65	7.02
621.80	60.85
621.95	32.77
622.10	70.22
622.25	37.45
622.41	74.90
622.56	105.32
622.71	79.58
622.86	0.00
623.01	49.15
623.16	46.81
623.32	0.00
623.47	53.83
623.62	32.77
623.77	16.38
623.92	32.77
624.07	0.00
624.23	32.77
624.38	39.79
624.53	28.09
624.68	16.38
624.83	9.36
624.98	65.54
625.13	30.43
625.29	30.43
625.44	0.00
625.59	0.00
625.74	53.83
625.89	95.96
626.04	91.28
626.19	77.24
626.34	65.54
626.49	0.00
626.65	21.06
626.80	9.36
626.95	56.17
627.10	23.41
627.25	46.81
627.40	65.54
627.55	42.13
627.70	72.56
627.85	53.83
628.00	16.38
628.15	0.00
628.30	28.09
628.45	4.68
628.60	16.38
628.76	67.88
628.91	58.51
629.06	46.81
629.21	77.24
629.36	37.45
629.51	23.41
629.66	37.45
629.81	37.45
629.96	4.68
630.11	30.43
630.26	49.15
630.41	67.88
630.56	0.00
630.71	98.30
630.86	7.02
631.01	63.19
631.16	16.38
631.31	11.70
631.46	30.43
631.61	18.72
631.76	35.11
631.91	32.77
632.06	84.26
632.21	23.41
632.36	11.70
632.51	46.81
632.66	37.45
632.81	70.22
632.96	67.88
633.10	23.41
633.25	21.06
633.40	63.19
633.55	16.38
633.70	9.36
633.85	21.06
634.00	0.00
634.15	91.28
634.30	23.41
634.45	58.51
634.60	32.77
634.75	32.77
634.90	77.24
635.05	30.43
635.19	0.00
635.34	0.00
635.49	11.70
635.64	65.54
635.79	0.00
635.94	84.26
636.09	42.13
636.24	42.13
636.39	4.68
636.53	9.36
636.68	51.49
636.83	58.51
636.98	72.56
637.13	25.75
637.28	0.00
637.43	81.92
637.57	0.00
637.72	32.77
637.87	32.77
638.02	0.00
638.17	63.19
638.32	25.75
638.46	51.49
638.61	14.04
638.76	65.54
638.91	65.54
639.06	95.96
639.20	23.41
639.35	2.34
639.50	107.66
639.65	44.47
639.80	7.02
639.94	14.04
640.09	70.22
640.24	88.94
640.39	30.43
640.54	0.00
640.68	18.72
640.83	7.02
640.98	30.43
641.13	30.43
641.27	32.77
641.42	46.81
641.57	25.75
641.72	30.43
641.86	16.38
642.01	121.71
642.16	0.00
642.31	0.00
642.45	100.64
642.60	63.19
642.75	56.17
642.90	16.38
643.04	0.00
643.19	79.58
643.34	70.22
643.48	51.49
643.63	0.00
643.78	14.04
643.93	63.19
644.07	44.47
644.22	28.09
644.37	35.11
644.51	0.00
644.66	51.49
644.81	166.18
644.95	30.43
645.10	37.45
645.25	72.56
645.39	0.00
645.54	14.04
645.69	23.41
645.83	0.00
645.98	74.90
646.13	53.83
646.27	0.00
646.42	28.09
646.57	0.00
646.71	91.28
646.86	9.36
647.00	7.02
647.15	0.00
647.30	84.26
647.44	114.69
647.59	0.00
647.74	0.00
647.88	30.43
648.03	18.72
648.17	0.00
648.32	0.00
648.47	16.38
648.61	79.58
648.76	131.07
648.90	0.00
649.05	67.88
649.20	56.17
649.34	77.24
649.49	0.00
649.63	11.70
649.78	77.24
649.92	56.17
650.07	32.77
650.21	0.00
650.36	9.36
650.51	28.09
650.65	44.47
650.80	88.94
650.94	58.51
651.09	49.15
651.23	35.11
651.38	58.51
651.52	39.79
651.67	0.00
651.81	14.04
651.96	88.94
652.10	42.13
652.25	14.04
652.39	0.00
652.54	53.83
652.68	9.36
652.83	37.45
652.97	32.77
653.12	46.81
653.26	39.79
653.41	72.56
653.55	30.43
653.70	51.49
653.84	70.22
653.99	53.83
654.13	32.77
654.27	58.51
654.42	67.88
654.56	51.49
654.71	88.94
654.85	0.00
655.00	11.70
655.14	35.11
655.29	63.19
655.43	98.30
655.57	0.00
655.72	46.81
655.86	7.02
656.01	46.81
656.15	79.58
656.30	49.15
656.44	23.41
656.58	21.06
656.73	18.72
656.87	9.36
657.01	95.96
657.16	65.54
657.30	0.00
657.45	58.51
657.59	77.24
657.73	25.75
657.88	14.04
658.02	0.00
658.16	51.49
658.31	0.00
658.45	63.19
658.60	30.43
658.74	11.70
658.88	25.75
659.03	65.54
659.17	135.75
659.31	32.77
659.46	0.00
659.60	0.00
659.74	32.77
659.89	49.15
660.03	14.04
660.17	18.72
660.32	56.17
660.46	23.41
660.60	0.00
660.74	0.00
660.89	56.17
661.03	0.00
661.17	74.90
661.32	37.45
661.46	0.00
661.60	37.45
661.74	30.43
661.89	53.83
662.03	44.47
662.17	11.70
662.31	37.45
662.46	44.47
662.60	25.75
662.74	53.83
662.88	51.49
663.03	7.02
663.17	16.38
663.31	0.00
663.45	0.00
663.60	86.60
663.74	0.00
663.88	16.38
664.02	14.04
664.17	37.45
664.31	37.45
664.45	49.15
664.59	11.70
664.73	65.54
664.88	23.41
665.02	0.00
665.16	56.17
665.30	39.79
665.44	0.00
665.59	65.54
665.73	7.02
665.87	25.75
666.01	35.11
666.15	0.00
666.29	46.81
666.44	0.00
666.58	16.38
666.72	44.47
666.86	25.75
667.00	63.19
667.14	21.06
667.28	53.83
667.43	0.00
667.57	25.75
667.71	46.81
667.85	11.70
667.99	110.01
668.13	0.00
668.27	11.70
668.41	35.11
668.56	51.49
668.70	21.06
668.84	67.88
668.98	63.19
669.12	74.90
669.26	51.49
669.40	65.54
669.54	11.70
669.68	30.43
669.82	9.36
669.96	39.79
670.10	81.92
670.25	84.26
670.39	37.45
670.53	84.26
670.67	51.49
670.81	0.00
670.95	44.47
671.09	14.04
671.23	9.36
671.37	9.36
671.51	84.26
671.65	23.41
671.79	39.79
671.93	46.81
672.07	35.11
672.21	98.30
672.35	9.36
672.49	63.19
672.63	65.54
672.77	14.04
672.91	14.04
673.05	16.38
673.19	74.90
673.33	0.00
673.47	74.90
673.61	4.68
673.75	60.85
673.89	25.75
674.03	0.00
674.17	42.13
674.31	0.00
674.45	4.68
674.59	37.45
674.73	72.56
674.87	28.09
675.01	30.43
675.15	39.79
675.29	102.98
675.43	114.69
675.56	35.11
675.70	49.15
675.84	77.24
675.98	37.45
676.12	0.00
676.26	30.43
676.40	0.00
676.54	7.02
676.68	28.09
676.82	35.11
676.96	95.96
677.10	67.88
677.23	0.00
677.37	39.79
677.51	44.47
677.65	18.72
677.79	46.81
677.93	9.36
678.07	0.00
678.21	23.41
678.34	18.72
678.48	0.00
678.62	0.00
678.76	110.01
678.90	0.00
679.04	51.49
679.18	0.00
679.31	2.34
679.45	93.62
679.59	79.58
679.73	9.36
679.87	18.72
680.00	95.96
680.14	56.17
680.28	91.28
680.42	0.00
680.56	0.00
680.70	28.09
680.83	70.22
680.97	25.75
681.11	0.00
681.25	51.49
681.39	37.45
681.52	65.54
681.66	37.45
681.80	30.43
681.94	0.00
682.07	11.70
682.21	42.13
682.35	0.00
682.49	2.34
682.62	11.70
682.76	77.24
682.90	72.56
683.04	51.49
683.17	39.79
683.31	0.00
683.45	39.79
683.59	70.22
683.72	30.43
683.86	46.81
684.00	4.68
684.13	49.15
684.27	21.06
684.41	11.70
684.55	0.00
684.68	0.00
684.82	32.77
684.96	121.71
685.09	0.00
685.23	0.00
685.37	0.00
685.50	11.70
685.64	77.24
685.78	72.56
685.91	77.24
686.05	44.47
686.19	0.00
686.32	60.85
686.46	77.24
686.60	4.68
686.73	21.06
686.87	0.00
687.01	23.41
687.14	42.13
687.28	0.00
687.42	0.00
687.55	0.00
687.69	84.26
687.82	67.88
687.96	49.15
688.10	53.83
688.23	0.00
688.37	37.45
688.50	32.77
688.64	7.02
688.78	35.11
688.91	28.09
689.05	58.51
689.18	74.90
689.32	0.00
689.46	67.88
689.59	0.00
689.73	0.00
689.86	77.24
690.00	14.04
690.13	46.81
690.27	25.75
690.41	16.38
690.54	0.00
690.68	95.96
690.81	58.51
690.95	32.77
691.08	0.00
691.22	0.00
691.35	4.68
691.49	16.38
691.62	74.90
691.76	0.00
691.89	74.90
692.03	0.00
692.16	30.43
692.30	21.06
692.43	44.47
692.57	21.06
692.70	32.77
692.84	46.81
692.97	74.90
693.11	7.02
693.24	9.36
693.38	70.22
693.51	79.58
693.65	14.04
693.78	16.38
693.92	74.90
694.05	18.72
694.19	37.45
694.32	51.49
694.45	42.13
694.59	0.00
694.72	60.85
694.86	88.94
694.99	4.68
695.13	74.90
695.26	30.43
695.39	56.17
695.53	28.09
695.66	37.45
695.80	42.13
695.93	51.49
696.07	16.38
696.20	37.45
696.33	18.72
696.47	23.41
696.60	60.85
696.73	0.00
696.87	51.49
697.00	7.02
697.14	49.15
697.27	18.72
697.40	14.04
697.54	53.83
697.67	77.24
697.80	4.68
697.94	37.45
698.07	14.04
698.21	56.17
698.34	58.51
698.47	77.24
698.61	67.88
698.74	21.06
698.87	51.49
699.01	0.00
699.14	39.79
699.27	0.00
699.40	67.88
699.54	0.00
699.67	0.00
699.80	0.00
699.94	35.11
700.07	18.72
700.20	30.43
700.34	32.77
700.47	18.72
700.60	18.72
700.73	0.00
700.87	49.15
701.00	46.81
701.13	0.00
701.26	32.77
701.40	58.51
701.53	4.68
701.66	7.02
701.79	16.38
701.93	25.75
702.06	81.92
702.19	67.88
702.32	28.09
702.46	11.70
702.59	4.68
702.72	9.36
702.85	63.19
702.99	9.36
703.12	51.49
703.25	70.22
703.38	35.11
703.51	37.45
703.65	30.43
703.78	37.45
703.91	67.88
704.04	23.41
704.17	65.54
704.31	91.28
704.44	98.30
704.57	0.00
704.70	0.00
704.83	53.83
704.96	56.17
705.10	91.28
705.23	60.85
>>>>>End Processed Spectral Data<<<<<
