SpectraSuite Data File
++++++++++++++++++++++++++++++++++++
Date: Fri Oct 04 12:13:33 GMT-05:00 2013
User: price-jones
Dark Spectrum Present: No
Reference Spectrum Present: No
Number of Sampled Component Spectra: 1
Spectrometers: USB2+H05261
Integration Time (usec): 10000 (USB2+H05261)
Spectra Averaged: 1 (USB2+H05261)
Boxcar Smoothing: 0 (USB2+H05261)
Correct for Electrical Dark: No (USB2+H05261)
Strobe/Lamp Enabled: No (USB2+H05261)
Correct for Detector Non-linearity: No (USB2+H05261)
Correct for Stray Light: No (USB2+H05261)
Number of Pixels in Processed Spectrum: 2048
>>>>>Begin Processed Spectral Data<<<<<
365.73	65.54
365.92	65.54
366.12	65.54
366.32	0.00
366.52	0.00
366.72	0.00
366.91	0.00
367.11	0.00
367.31	0.00
367.51	0.00
367.70	0.00
367.90	0.00
368.10	0.00
368.30	0.00
368.49	0.00
368.69	0.00
368.89	0.00
369.09	0.00
369.28	0.00
369.48	0.00
369.68	0.00
369.87	0.00
370.07	0.00
370.27	0.00
370.47	0.00
370.66	0.00
370.86	0.00
371.06	0.00
371.25	0.00
371.45	0.00
371.65	0.00
371.84	0.00
372.04	0.00
372.24	0.00
372.44	0.00
372.63	21.06
372.83	65.54
373.03	0.00
373.22	53.83
373.42	30.43
373.62	56.17
373.81	0.00
374.01	9.36
374.21	37.45
374.40	0.00
374.60	44.47
374.79	0.00
374.99	51.49
375.19	11.70
375.38	32.77
375.58	14.04
375.78	18.72
375.97	77.24
376.17	23.41
376.37	0.00
376.56	28.09
376.76	23.41
376.95	0.00
377.15	0.00
377.35	37.45
377.54	0.00
377.74	46.81
377.93	0.00
378.13	14.04
378.33	79.58
378.52	16.38
378.72	37.45
378.91	25.75
379.11	18.72
379.31	0.00
379.50	72.56
379.70	39.79
379.89	32.77
380.09	72.56
380.28	0.00
380.48	81.92
380.68	56.17
380.87	0.00
381.07	0.00
381.26	35.11
381.46	23.41
381.65	0.00
381.85	58.51
382.04	4.68
382.24	11.70
382.43	70.22
382.63	0.00
382.83	51.49
383.02	0.00
383.22	0.00
383.41	30.43
383.61	0.00
383.80	60.85
384.00	70.22
384.19	9.36
384.39	0.00
384.58	74.90
384.78	0.00
384.97	0.00
385.17	65.54
385.36	0.00
385.56	0.00
385.75	0.00
385.95	65.54
386.14	0.00
386.34	30.43
386.53	18.72
386.72	18.72
386.92	0.00
387.11	4.68
387.31	32.77
387.50	2.34
387.70	28.09
387.89	30.43
388.09	0.00
388.28	65.54
388.48	16.38
388.67	18.72
388.86	23.41
389.06	18.72
389.25	51.49
389.45	0.00
389.64	28.09
389.84	35.11
390.03	11.70
390.22	0.00
390.42	9.36
390.61	37.45
390.81	46.81
391.00	42.13
391.19	16.38
391.39	0.00
391.58	49.15
391.78	9.36
391.97	42.13
392.16	42.13
392.36	0.00
392.55	102.98
392.75	11.70
392.94	16.38
393.13	23.41
393.33	0.00
393.52	0.00
393.71	65.54
393.91	0.00
394.10	0.00
394.29	0.00
394.49	16.38
394.68	0.00
394.88	0.00
395.07	51.49
395.26	53.83
395.46	0.00
395.65	4.68
395.84	0.00
396.04	0.00
396.23	30.43
396.42	88.94
396.62	0.00
396.81	0.00
397.00	0.00
397.19	0.00
397.39	81.92
397.58	14.04
397.77	0.00
397.97	42.13
398.16	0.00
398.35	93.62
398.55	0.00
398.74	46.81
398.93	42.13
399.12	7.02
399.32	58.51
399.51	37.45
399.70	0.00
399.90	44.47
400.09	44.47
400.28	39.79
400.47	67.88
400.67	0.00
400.86	0.00
401.05	44.47
401.24	0.00
401.44	42.13
401.63	0.00
401.82	30.43
402.01	0.00
402.21	39.79
402.40	28.09
402.59	0.00
402.78	25.75
402.97	0.00
403.17	72.56
403.36	0.00
403.55	0.00
403.74	4.68
403.93	42.13
404.13	77.24
404.32	63.19
404.51	0.00
404.70	0.00
404.89	72.56
405.09	11.70
405.28	7.02
405.47	0.00
405.66	67.88
405.85	28.09
406.05	0.00
406.24	2.34
406.43	21.06
406.62	39.79
406.81	14.04
407.00	0.00
407.20	0.00
407.39	42.13
407.58	0.00
407.77	9.36
407.96	0.00
408.15	0.00
408.34	56.17
408.54	2.34
408.73	0.00
408.92	37.45
409.11	0.00
409.30	18.72
409.49	30.43
409.68	0.00
409.87	32.77
410.07	0.00
410.26	0.00
410.45	0.00
410.64	16.38
410.83	0.00
411.02	0.00
411.21	46.81
411.40	9.36
411.59	25.75
411.78	21.06
411.98	0.00
412.17	53.83
412.36	49.15
412.55	30.43
412.74	98.30
412.93	0.00
413.12	18.72
413.31	53.83
413.50	11.70
413.69	60.85
413.88	0.00
414.07	0.00
414.26	2.34
414.45	9.36
414.64	4.68
414.83	14.04
415.02	30.43
415.22	30.43
415.41	0.00
415.60	58.51
415.79	18.72
415.98	0.00
416.17	44.47
416.36	65.54
416.55	11.70
416.74	23.41
416.93	18.72
417.12	56.17
417.31	60.85
417.50	49.15
417.69	49.15
417.88	32.77
418.07	0.00
418.26	0.00
418.45	0.00
418.64	18.72
418.83	102.98
419.02	58.51
419.21	79.58
419.39	16.38
419.58	44.47
419.77	14.04
419.96	65.54
420.15	25.75
420.34	35.11
420.53	35.11
420.72	0.00
420.91	63.19
421.10	16.38
421.29	0.00
421.48	74.90
421.67	49.15
421.86	39.79
422.05	51.49
422.24	72.56
422.43	46.81
422.61	25.75
422.80	93.62
422.99	11.70
423.18	105.32
423.37	0.00
423.56	14.04
423.75	4.68
423.94	28.09
424.13	42.13
424.32	14.04
424.50	0.00
424.69	51.49
424.88	14.04
425.07	23.41
425.26	4.68
425.45	0.00
425.64	4.68
425.83	49.15
426.01	74.90
426.20	28.09
426.39	9.36
426.58	51.49
426.77	11.70
426.96	0.00
427.15	42.13
427.33	0.00
427.52	25.75
427.71	18.72
427.90	37.45
428.09	14.04
428.28	44.47
428.46	42.13
428.65	16.38
428.84	0.00
429.03	70.22
429.22	110.01
429.40	0.00
429.59	9.36
429.78	58.51
429.97	56.17
430.16	0.00
430.34	58.51
430.53	0.00
430.72	42.13
430.91	30.43
431.10	18.72
431.28	67.88
431.47	9.36
431.66	39.79
431.85	98.30
432.03	18.72
432.22	91.28
432.41	0.00
432.60	72.56
432.79	9.36
432.97	25.75
433.16	0.00
433.35	14.04
433.54	4.68
433.72	86.60
433.91	51.49
434.10	60.85
434.28	74.90
434.47	42.13
434.66	0.00
434.85	32.77
435.03	0.00
435.22	79.58
435.41	25.75
435.59	37.45
435.78	60.85
435.97	0.00
436.16	2.34
436.34	42.13
436.53	0.00
436.72	0.00
436.90	0.00
437.09	86.60
437.28	14.04
437.46	70.22
437.65	35.11
437.84	32.77
438.02	51.49
438.21	93.62
438.40	0.00
438.58	42.13
438.77	0.00
438.96	60.85
439.14	28.09
439.33	14.04
439.52	11.70
439.70	0.00
439.89	32.77
440.08	0.00
440.26	30.43
440.45	112.35
440.63	25.75
440.82	44.47
441.01	11.70
441.19	16.38
441.38	0.00
441.57	21.06
441.75	42.13
441.94	63.19
442.12	0.00
442.31	49.15
442.50	77.24
442.68	44.47
442.87	4.68
443.05	56.17
443.24	0.00
443.43	81.92
443.61	14.04
443.80	25.75
443.98	74.90
444.17	49.15
444.35	114.69
444.54	35.11
444.73	21.06
444.91	23.41
445.10	30.43
445.28	14.04
445.47	63.19
445.65	18.72
445.84	25.75
446.02	91.28
446.21	53.83
446.39	56.17
446.58	9.36
446.77	72.56
446.95	74.90
447.14	32.77
447.32	86.60
447.51	0.00
447.69	14.04
447.88	44.47
448.06	32.77
448.25	0.00
448.43	56.17
448.62	91.28
448.80	84.26
448.99	0.00
449.17	0.00
449.36	11.70
449.54	77.24
449.73	0.00
449.91	11.70
450.10	14.04
450.28	58.51
450.46	70.22
450.65	60.85
450.83	42.13
451.02	46.81
451.20	56.17
451.39	67.88
451.57	37.45
451.76	11.70
451.94	16.38
452.13	102.98
452.31	9.36
452.49	49.15
452.68	67.88
452.86	32.77
453.05	18.72
453.23	35.11
453.42	35.11
453.60	58.51
453.78	25.75
453.97	74.90
454.15	51.49
454.34	25.75
454.52	72.56
454.70	51.49
454.89	46.81
455.07	0.00
455.26	0.00
455.44	25.75
455.62	35.11
455.81	0.00
455.99	30.43
456.17	0.00
456.36	0.00
456.54	0.00
456.73	60.85
456.91	0.00
457.09	44.47
457.28	53.83
457.46	25.75
457.64	28.09
457.83	0.00
458.01	28.09
458.19	49.15
458.38	0.00
458.56	0.00
458.74	70.22
458.93	21.06
459.11	65.54
459.29	0.00
459.48	18.72
459.66	44.47
459.84	70.22
460.03	0.00
460.21	23.41
460.39	60.85
460.57	70.22
460.76	58.51
460.94	32.77
461.12	4.68
461.31	23.41
461.49	18.72
461.67	0.00
461.85	0.00
462.04	0.00
462.22	119.37
462.40	23.41
462.59	67.88
462.77	81.92
462.95	98.30
463.13	0.00
463.32	0.00
463.50	32.77
463.68	18.72
463.86	0.00
464.05	11.70
464.23	23.41
464.41	46.81
464.59	14.04
464.78	14.04
464.96	100.64
465.14	23.41
465.32	35.11
465.50	0.00
465.69	0.00
465.87	0.00
466.05	0.00
466.23	16.38
466.41	56.17
466.60	39.79
466.78	0.00
466.96	9.36
467.14	53.83
467.32	16.38
467.51	28.09
467.69	81.92
467.87	23.41
468.05	37.45
468.23	0.00
468.41	67.88
468.60	60.85
468.78	7.02
468.96	53.83
469.14	135.75
469.32	16.38
469.50	74.90
469.69	0.00
469.87	51.49
470.05	0.00
470.23	56.17
470.41	2.34
470.59	0.00
470.77	39.79
470.95	16.38
471.14	0.00
471.32	72.56
471.50	0.00
471.68	28.09
471.86	77.24
472.04	14.04
472.22	49.15
472.40	30.43
472.58	44.47
472.77	4.68
472.95	0.00
473.13	44.47
473.31	44.47
473.49	2.34
473.67	32.77
473.85	51.49
474.03	0.00
474.21	81.92
474.39	67.88
474.57	79.58
474.75	98.30
474.93	25.75
475.12	95.96
475.30	32.77
475.48	42.13
475.66	56.17
475.84	56.17
476.02	16.38
476.20	39.79
476.38	0.00
476.56	18.72
476.74	30.43
476.92	9.36
477.10	51.49
477.28	0.00
477.46	51.49
477.64	46.81
477.82	70.22
478.00	0.00
478.18	0.00
478.36	18.72
478.54	11.70
478.72	121.71
478.90	49.15
479.08	49.15
479.26	0.00
479.44	93.62
479.62	72.56
479.80	42.13
479.98	72.56
480.16	32.77
480.34	42.13
480.52	63.19
480.70	32.77
480.88	102.98
481.06	107.66
481.24	37.45
481.41	70.22
481.59	30.43
481.77	63.19
481.95	53.83
482.13	39.79
482.31	145.11
482.49	0.00
482.67	81.92
482.85	0.00
483.03	77.24
483.21	67.88
483.39	0.00
483.57	14.04
483.74	0.00
483.92	70.22
484.10	44.47
484.28	0.00
484.46	86.60
484.64	65.54
484.82	53.83
485.00	0.00
485.18	4.68
485.35	0.00
485.53	0.00
485.71	39.79
485.89	0.00
486.07	56.17
486.25	39.79
486.43	23.41
486.61	42.13
486.78	0.00
486.96	58.51
487.14	25.75
487.32	58.51
487.50	86.60
487.68	35.11
487.85	35.11
488.03	81.92
488.21	0.00
488.39	0.00
488.57	0.00
488.75	44.47
488.92	112.35
489.10	79.58
489.28	72.56
489.46	100.64
489.64	7.02
489.81	51.49
489.99	46.81
490.17	98.30
490.35	0.00
490.53	0.00
490.70	84.26
490.88	51.49
491.06	9.36
491.24	133.41
491.41	60.85
491.59	112.35
491.77	107.66
491.95	58.51
492.13	93.62
492.30	0.00
492.48	11.70
492.66	93.62
492.84	124.05
493.01	98.30
493.19	91.28
493.37	28.09
493.54	16.38
493.72	51.49
493.90	65.54
494.08	0.00
494.25	51.49
494.43	0.00
494.61	28.09
494.79	16.38
494.96	67.88
495.14	21.06
495.32	44.47
495.49	42.13
495.67	110.01
495.85	88.94
496.02	102.98
496.20	9.36
496.38	11.70
496.55	51.49
496.73	51.49
496.91	37.45
497.09	42.13
497.26	39.79
497.44	37.45
497.62	46.81
497.79	21.06
497.97	23.41
498.14	23.41
498.32	44.47
498.50	84.26
498.67	0.00
498.85	79.58
499.03	32.77
499.20	39.79
499.38	0.00
499.56	16.38
499.73	131.07
499.91	65.54
500.08	74.90
500.26	65.54
500.44	4.68
500.61	0.00
500.79	53.83
500.97	77.24
501.14	21.06
501.32	58.51
501.49	86.60
501.67	25.75
501.84	39.79
502.02	74.90
502.20	110.01
502.37	0.00
502.55	63.19
502.72	63.19
502.90	58.51
503.07	30.43
503.25	79.58
503.43	0.00
503.60	0.00
503.78	110.01
503.95	25.75
504.13	35.11
504.30	0.00
504.48	126.39
504.65	16.38
504.83	63.19
505.01	105.32
505.18	84.26
505.36	39.79
505.53	95.96
505.71	37.45
505.88	58.51
506.06	84.26
506.23	63.19
506.41	14.04
506.58	4.68
506.76	0.00
506.93	88.94
507.11	7.02
507.28	46.81
507.46	84.26
507.63	77.24
507.81	63.19
507.98	63.19
508.16	39.79
508.33	58.51
508.50	77.24
508.68	65.54
508.85	84.26
509.03	46.81
509.20	56.17
509.38	56.17
509.55	25.75
509.73	7.02
509.90	14.04
510.08	39.79
510.25	70.22
510.42	4.68
510.60	9.36
510.77	11.70
510.95	60.85
511.12	77.24
511.30	112.35
511.47	23.41
511.64	23.41
511.82	9.36
511.99	79.58
512.17	79.58
512.34	18.72
512.51	14.04
512.69	28.09
512.86	30.43
513.04	0.00
513.21	0.00
513.38	133.41
513.56	51.49
513.73	23.41
513.90	53.83
514.08	0.00
514.25	88.94
514.43	37.45
514.60	37.45
514.77	67.88
514.95	0.00
515.12	32.77
515.29	63.19
515.47	4.68
515.64	65.54
515.81	100.64
515.99	60.85
516.16	56.17
516.33	0.00
516.51	49.15
516.68	46.81
516.85	81.92
517.03	112.35
517.20	67.88
517.37	9.36
517.54	49.15
517.72	23.41
517.89	77.24
518.06	28.09
518.24	102.98
518.41	42.13
518.58	23.41
518.75	42.13
518.93	9.36
519.10	0.00
519.27	28.09
519.45	107.66
519.62	39.79
519.79	39.79
519.96	0.00
520.14	117.03
520.31	67.88
520.48	30.43
520.65	0.00
520.83	28.09
521.00	88.94
521.17	21.06
521.34	131.07
521.52	14.04
521.69	21.06
521.86	7.02
522.03	51.49
522.20	37.45
522.38	86.60
522.55	14.04
522.72	81.92
522.89	56.17
523.07	84.26
523.24	44.47
523.41	86.60
523.58	51.49
523.75	30.43
523.92	79.58
524.10	81.92
524.27	74.90
524.44	51.49
524.61	0.00
524.78	51.49
524.96	65.54
525.13	58.51
525.30	110.01
525.47	2.34
525.64	60.85
525.81	0.00
525.98	72.56
526.16	65.54
526.33	95.96
526.50	28.09
526.67	58.51
526.84	0.00
527.01	39.79
527.18	39.79
527.36	46.81
527.53	67.88
527.70	44.47
527.87	53.83
528.04	72.56
528.21	88.94
528.38	11.70
528.55	77.24
528.72	9.36
528.89	23.41
529.07	14.04
529.24	7.02
529.41	51.49
529.58	53.83
529.75	70.22
529.92	84.26
530.09	91.28
530.26	37.45
530.43	67.88
530.60	0.00
530.77	37.45
530.94	32.77
531.11	88.94
531.28	72.56
531.46	0.00
531.63	86.60
531.80	98.30
531.97	124.05
532.14	77.24
532.31	65.54
532.48	58.51
532.65	56.17
532.82	11.70
532.99	126.39
533.16	49.15
533.33	79.58
533.50	110.01
533.67	72.56
533.84	14.04
534.01	30.43
534.18	0.00
534.35	53.83
534.52	72.56
534.69	44.47
534.86	84.26
535.03	114.69
535.20	93.62
535.37	58.51
535.54	56.17
535.71	79.58
535.88	0.00
536.05	46.81
536.22	2.34
536.38	100.64
536.55	14.04
536.72	77.24
536.89	79.58
537.06	98.30
537.23	81.92
537.40	63.19
537.57	79.58
537.74	39.79
537.91	107.66
538.08	42.13
538.25	18.72
538.42	18.72
538.59	35.11
538.75	91.28
538.92	0.00
539.09	28.09
539.26	98.30
539.43	81.92
539.60	44.47
539.77	88.94
539.94	63.19
540.11	28.09
540.28	49.15
540.44	74.90
540.61	35.11
540.78	35.11
540.95	0.00
541.12	2.34
541.29	21.06
541.46	88.94
541.62	67.88
541.79	0.00
541.96	81.92
542.13	65.54
542.30	65.54
542.47	91.28
542.63	72.56
542.80	95.96
542.97	53.83
543.14	72.56
543.31	51.49
543.48	81.92
543.64	0.00
543.81	58.51
543.98	49.15
544.15	0.00
544.32	74.90
544.48	98.30
544.65	49.15
544.82	79.58
544.99	65.54
545.16	49.15
545.32	91.28
545.49	21.06
545.66	53.83
545.83	86.60
546.00	81.92
546.16	86.60
546.33	51.49
546.50	39.79
546.67	0.00
546.83	37.45
547.00	138.09
547.17	16.38
547.34	30.43
547.50	93.62
547.67	44.47
547.84	58.51
548.00	0.00
548.17	44.47
548.34	60.85
548.51	11.70
548.67	95.96
548.84	110.01
549.01	112.35
549.18	32.77
549.34	81.92
549.51	102.98
549.68	4.68
549.84	77.24
550.01	37.45
550.18	7.02
550.34	0.00
550.51	65.54
550.68	91.28
550.84	51.49
551.01	0.00
551.18	84.26
551.34	105.32
551.51	21.06
551.68	30.43
551.84	35.11
552.01	63.19
552.18	39.79
552.34	49.15
552.51	28.09
552.68	56.17
552.84	86.60
553.01	9.36
553.18	107.66
553.34	28.09
553.51	9.36
553.67	39.79
553.84	0.00
554.01	44.47
554.17	9.36
554.34	53.83
554.51	39.79
554.67	131.07
554.84	86.60
555.00	100.64
555.17	93.62
555.33	30.43
555.50	60.85
555.67	37.45
555.83	60.85
556.00	0.00
556.16	107.66
556.33	16.38
556.50	32.77
556.66	81.92
556.83	58.51
556.99	81.92
557.16	100.64
557.32	72.56
557.49	86.60
557.65	98.30
557.82	77.24
557.98	35.11
558.15	65.54
558.32	42.13
558.48	72.56
558.65	86.60
558.81	4.68
558.98	56.17
559.14	35.11
559.31	53.83
559.47	4.68
559.64	0.00
559.80	70.22
559.97	18.72
560.13	23.41
560.30	81.92
560.46	53.83
560.63	112.35
560.79	93.62
560.96	25.75
561.12	11.70
561.29	2.34
561.45	86.60
561.61	53.83
561.78	23.41
561.94	30.43
562.11	65.54
562.27	98.30
562.44	39.79
562.60	65.54
562.77	133.41
562.93	138.09
563.10	60.85
563.26	112.35
563.42	117.03
563.59	0.00
563.75	28.09
563.92	32.77
564.08	7.02
564.24	14.04
564.41	58.51
564.57	46.81
564.74	49.15
564.90	124.05
565.07	65.54
565.23	95.96
565.39	18.72
565.56	53.83
565.72	70.22
565.88	0.00
566.05	65.54
566.21	46.81
566.38	117.03
566.54	58.51
566.70	60.85
566.87	14.04
567.03	0.00
567.19	84.26
567.36	65.54
567.52	77.24
567.68	39.79
567.85	140.43
568.01	84.26
568.17	58.51
568.34	4.68
568.50	44.47
568.66	53.83
568.83	0.00
568.99	51.49
569.15	16.38
569.32	44.47
569.48	14.04
569.64	56.17
569.81	86.60
569.97	35.11
570.13	25.75
570.30	60.85
570.46	0.00
570.62	84.26
570.78	21.06
570.95	30.43
571.11	156.82
571.27	81.92
571.43	154.48
571.60	28.09
571.76	30.43
571.92	37.45
572.09	0.00
572.25	25.75
572.41	56.17
572.57	7.02
572.74	44.47
572.90	37.45
573.06	70.22
573.22	107.66
573.38	77.24
573.55	88.94
573.71	65.54
573.87	42.13
574.03	44.47
574.20	35.11
574.36	35.11
574.52	102.98
574.68	56.17
574.84	39.79
575.01	0.00
575.17	28.09
575.33	14.04
575.49	23.41
575.65	0.00
575.82	88.94
575.98	88.94
576.14	63.19
576.30	81.92
576.46	11.70
576.62	14.04
576.79	18.72
576.95	16.38
577.11	51.49
577.27	84.26
577.43	63.19
577.59	51.49
577.75	39.79
577.92	37.45
578.08	30.43
578.24	14.04
578.40	39.79
578.56	72.56
578.72	44.47
578.88	35.11
579.04	11.70
579.21	4.68
579.37	49.15
579.53	46.81
579.69	4.68
579.85	119.37
580.01	9.36
580.17	4.68
580.33	0.00
580.49	51.49
580.65	0.00
580.82	81.92
580.98	46.81
581.14	51.49
581.30	30.43
581.46	14.04
581.62	0.00
581.78	81.92
581.94	70.22
582.10	74.90
582.26	11.70
582.42	56.17
582.58	30.43
582.74	0.00
582.90	46.81
583.06	35.11
583.22	72.56
583.38	131.07
583.54	0.00
583.70	93.62
583.86	77.24
584.02	67.88
584.18	14.04
584.34	0.00
584.50	77.24
584.66	0.00
584.82	124.05
584.98	39.79
585.14	77.24
585.30	58.51
585.46	0.00
585.62	72.56
585.78	72.56
585.94	74.90
586.10	14.04
586.26	60.85
586.42	88.94
586.58	63.19
586.74	49.15
586.90	63.19
587.06	138.09
587.22	128.73
587.38	53.83
587.54	0.00
587.70	0.00
587.86	44.47
588.02	0.00
588.18	32.77
588.34	37.45
588.49	100.64
588.65	93.62
588.81	65.54
588.97	14.04
589.13	95.96
589.29	11.70
589.45	84.26
589.61	63.19
589.77	25.75
589.93	16.38
590.08	46.81
590.24	21.06
590.40	77.24
590.56	0.00
590.72	98.30
590.88	93.62
591.04	70.22
591.20	39.79
591.35	28.09
591.51	63.19
591.67	65.54
591.83	28.09
591.99	32.77
592.15	7.02
592.31	0.00
592.46	0.00
592.62	9.36
592.78	44.47
592.94	98.30
593.10	0.00
593.26	18.72
593.41	58.51
593.57	77.24
593.73	51.49
593.89	93.62
594.05	37.45
594.20	39.79
594.36	2.34
594.52	0.00
594.68	63.19
594.84	32.77
594.99	21.06
595.15	49.15
595.31	18.72
595.47	77.24
595.62	16.38
595.78	0.00
595.94	65.54
596.10	46.81
596.25	7.02
596.41	28.09
596.57	23.41
596.73	39.79
596.88	56.17
597.04	25.75
597.20	11.70
597.36	51.49
597.51	77.24
597.67	56.17
597.83	58.51
597.99	7.02
598.14	32.77
598.30	44.47
598.46	74.90
598.61	30.43
598.77	28.09
598.93	72.56
599.09	56.17
599.24	53.83
599.40	72.56
599.56	0.00
599.71	77.24
599.87	77.24
600.03	14.04
600.18	42.13
600.34	102.98
600.50	102.98
600.65	77.24
600.81	9.36
600.97	152.13
601.12	14.04
601.28	23.41
601.44	2.34
601.59	0.00
601.75	77.24
601.91	53.83
602.06	100.64
602.22	16.38
602.37	81.92
602.53	53.83
602.69	28.09
602.84	51.49
603.00	56.17
603.16	28.09
603.31	53.83
603.47	65.54
603.62	105.32
603.78	93.62
603.94	98.30
604.09	0.00
604.25	0.00
604.40	88.94
604.56	4.68
604.71	7.02
604.87	72.56
605.03	28.09
605.18	119.37
605.34	30.43
605.49	53.83
605.65	53.83
605.80	18.72
605.96	18.72
606.12	42.13
606.27	25.75
606.43	46.81
606.58	30.43
606.74	0.00
606.89	65.54
607.05	0.00
607.20	11.70
607.36	65.54
607.51	67.88
607.67	23.41
607.82	39.79
607.98	93.62
608.13	100.64
608.29	37.45
608.44	28.09
608.60	44.47
608.75	44.47
608.91	110.01
609.06	28.09
609.22	18.72
609.37	0.00
609.53	67.88
609.68	77.24
609.84	84.26
609.99	60.85
610.15	107.66
610.30	2.34
610.46	93.62
610.61	32.77
610.76	4.68
610.92	56.17
611.07	46.81
611.23	53.83
611.38	74.90
611.54	67.88
611.69	18.72
611.84	14.04
612.00	53.83
612.15	37.45
612.31	86.60
612.46	67.88
612.62	18.72
612.77	0.00
612.92	32.77
613.08	58.51
613.23	30.43
613.39	105.32
613.54	32.77
613.69	37.45
613.85	2.34
614.00	53.83
614.15	98.30
614.31	51.49
614.46	51.49
614.62	28.09
614.77	107.66
614.92	0.00
615.08	51.49
615.23	53.83
615.38	0.00
615.54	37.45
615.69	65.54
615.84	119.37
616.00	72.56
616.15	30.43
616.30	46.81
616.46	39.79
616.61	58.51
616.76	11.70
616.92	11.70
617.07	42.13
617.22	0.00
617.37	49.15
617.53	74.90
617.68	16.38
617.83	23.41
617.99	16.38
618.14	35.11
618.29	4.68
618.45	74.90
618.60	74.90
618.75	0.00
618.90	0.00
619.06	0.00
619.21	84.26
619.36	35.11
619.51	56.17
619.67	95.96
619.82	42.13
619.97	53.83
620.12	0.00
620.28	35.11
620.43	39.79
620.58	88.94
620.73	72.56
620.89	70.22
621.04	11.70
621.19	23.41
621.34	110.01
621.49	72.56
621.65	60.85
621.80	21.06
621.95	42.13
622.10	32.77
622.25	51.49
622.41	0.00
622.56	65.54
622.71	7.02
622.86	16.38
623.01	56.17
623.16	21.06
623.32	58.51
623.47	67.88
623.62	0.00
623.77	21.06
623.92	72.56
624.07	21.06
624.23	0.00
624.38	37.45
624.53	30.43
624.68	44.47
624.83	0.00
624.98	58.51
625.13	16.38
625.29	7.02
625.44	4.68
625.59	32.77
625.74	60.85
625.89	53.83
626.04	63.19
626.19	23.41
626.34	56.17
626.49	32.77
626.65	93.62
626.80	42.13
626.95	37.45
627.10	14.04
627.25	32.77
627.40	39.79
627.55	11.70
627.70	60.85
627.85	11.70
628.00	49.15
628.15	70.22
628.30	88.94
628.45	49.15
628.60	51.49
628.76	63.19
628.91	56.17
629.06	0.00
629.21	51.49
629.36	16.38
629.51	0.00
629.66	117.03
629.81	67.88
629.96	79.58
630.11	79.58
630.26	0.00
630.41	21.06
630.56	60.85
630.71	2.34
630.86	39.79
631.01	60.85
631.16	65.54
631.31	63.19
631.46	131.07
631.61	0.00
631.76	32.77
631.91	51.49
632.06	7.02
632.21	42.13
632.36	4.68
632.51	88.94
632.66	9.36
632.81	112.35
632.96	14.04
633.10	35.11
633.25	0.00
633.40	51.49
633.55	58.51
633.70	7.02
633.85	56.17
634.00	42.13
634.15	11.70
634.30	4.68
634.45	23.41
634.60	46.81
634.75	28.09
634.90	46.81
635.05	74.90
635.19	39.79
635.34	0.00
635.49	42.13
635.64	23.41
635.79	46.81
635.94	112.35
636.09	58.51
636.24	140.43
636.39	110.01
636.53	4.68
636.68	32.77
636.83	60.85
636.98	70.22
637.13	23.41
637.28	28.09
637.43	0.00
637.57	42.13
637.72	84.26
637.87	32.77
638.02	0.00
638.17	42.13
638.32	42.13
638.46	70.22
638.61	88.94
638.76	93.62
638.91	58.51
639.06	14.04
639.20	65.54
639.35	126.39
639.50	74.90
639.65	35.11
639.80	14.04
639.94	112.35
640.09	100.64
640.24	110.01
640.39	23.41
640.54	126.39
640.68	53.83
640.83	63.19
640.98	105.32
641.13	95.96
641.27	4.68
641.42	53.83
641.57	60.85
641.72	39.79
641.86	0.00
642.01	44.47
642.16	28.09
642.31	46.81
642.45	7.02
642.60	0.00
642.75	28.09
642.90	46.81
643.04	42.13
643.19	25.75
643.34	0.00
643.48	0.00
643.63	32.77
643.78	11.70
643.93	74.90
644.07	25.75
644.22	60.85
644.37	46.81
644.51	23.41
644.66	7.02
644.81	25.75
644.95	28.09
645.10	25.75
645.25	4.68
645.39	0.00
645.54	42.13
645.69	58.51
645.83	42.13
645.98	88.94
646.13	56.17
646.27	46.81
646.42	4.68
646.57	70.22
646.71	65.54
646.86	79.58
647.00	11.70
647.15	32.77
647.30	0.00
647.44	67.88
647.59	67.88
647.74	0.00
647.88	102.98
648.03	21.06
648.17	0.00
648.32	16.38
648.47	0.00
648.61	65.54
648.76	0.00
648.90	2.34
649.05	11.70
649.20	44.47
649.34	46.81
649.49	72.56
649.63	65.54
649.78	0.00
649.92	2.34
650.07	42.13
650.21	84.26
650.36	0.00
650.51	44.47
650.65	2.34
650.80	93.62
650.94	11.70
651.09	16.38
651.23	42.13
651.38	30.43
651.52	18.72
651.67	58.51
651.81	42.13
651.96	67.88
652.10	42.13
652.25	28.09
652.39	60.85
652.54	63.19
652.68	35.11
652.83	72.56
652.97	25.75
653.12	110.01
653.26	7.02
653.41	58.51
653.55	60.85
653.70	0.00
653.84	60.85
653.99	30.43
654.13	35.11
654.27	56.17
654.42	100.64
654.56	65.54
654.71	0.00
654.85	0.00
655.00	0.00
655.14	16.38
655.29	60.85
655.43	4.68
655.57	7.02
655.72	11.70
655.86	14.04
656.01	46.81
656.15	60.85
656.30	58.51
656.44	14.04
656.58	14.04
656.73	114.69
656.87	42.13
657.01	32.77
657.16	39.79
657.30	9.36
657.45	42.13
657.59	30.43
657.73	9.36
657.88	72.56
658.02	2.34
658.16	60.85
658.31	14.04
658.45	4.68
658.60	0.00
658.74	58.51
658.88	28.09
659.03	0.00
659.17	105.32
659.31	70.22
659.46	25.75
659.60	42.13
659.74	0.00
659.89	74.90
660.03	44.47
660.17	60.85
660.32	72.56
660.46	79.58
660.60	30.43
660.74	58.51
660.89	35.11
661.03	49.15
661.17	0.00
661.32	56.17
661.46	16.38
661.60	30.43
661.74	0.00
661.89	44.47
662.03	2.34
662.17	16.38
662.31	9.36
662.46	95.96
662.60	51.49
662.74	67.88
662.88	14.04
663.03	21.06
663.17	79.58
663.31	25.75
663.45	107.66
663.60	21.06
663.74	0.00
663.88	53.83
664.02	28.09
664.17	0.00
664.31	37.45
664.45	56.17
664.59	4.68
664.73	65.54
664.88	84.26
665.02	56.17
665.16	28.09
665.30	37.45
665.44	46.81
665.59	91.28
665.73	70.22
665.87	2.34
666.01	81.92
666.15	30.43
666.29	0.00
666.44	0.00
666.58	37.45
666.72	21.06
666.86	14.04
667.00	14.04
667.14	72.56
667.28	114.69
667.43	4.68
667.57	11.70
667.71	102.98
667.85	58.51
667.99	58.51
668.13	49.15
668.27	14.04
668.41	32.77
668.56	44.47
668.70	65.54
668.84	28.09
668.98	37.45
669.12	86.60
669.26	0.00
669.40	42.13
669.54	105.32
669.68	88.94
669.82	21.06
669.96	4.68
670.10	0.00
670.25	25.75
670.39	67.88
670.53	84.26
670.67	65.54
670.81	110.01
670.95	100.64
671.09	0.00
671.23	25.75
671.37	0.00
671.51	0.00
671.65	32.77
671.79	4.68
671.93	58.51
672.07	44.47
672.21	58.51
672.35	0.00
672.49	56.17
672.63	21.06
672.77	30.43
672.91	28.09
673.05	77.24
673.19	58.51
673.33	25.75
673.47	95.96
673.61	39.79
673.75	32.77
673.89	30.43
674.03	16.38
674.17	4.68
674.31	0.00
674.45	35.11
674.59	58.51
674.73	16.38
674.87	32.77
675.01	93.62
675.15	23.41
675.29	67.88
675.43	119.37
675.56	0.00
675.70	37.45
675.84	35.11
675.98	32.77
676.12	37.45
676.26	0.00
676.40	51.49
676.54	0.00
676.68	0.00
676.82	4.68
676.96	91.28
677.10	9.36
677.23	0.00
677.37	53.83
677.51	14.04
677.65	0.00
677.79	74.90
677.93	32.77
678.07	51.49
678.21	0.00
678.34	49.15
678.48	18.72
678.62	39.79
678.76	16.38
678.90	14.04
679.04	23.41
679.18	53.83
679.31	88.94
679.45	74.90
679.59	0.00
679.73	18.72
679.87	49.15
680.00	30.43
680.14	28.09
680.28	37.45
680.42	93.62
680.56	37.45
680.70	56.17
680.83	56.17
680.97	0.00
681.11	35.11
681.25	0.00
681.39	53.83
681.52	32.77
681.66	74.90
681.80	98.30
681.94	0.00
682.07	0.00
682.21	112.35
682.35	23.41
682.49	67.88
682.62	102.98
682.76	98.30
682.90	4.68
683.04	56.17
683.17	35.11
683.31	46.81
683.45	7.02
683.59	23.41
683.72	51.49
683.86	9.36
684.00	105.32
684.13	0.00
684.27	14.04
684.41	86.60
684.55	51.49
684.68	79.58
684.82	86.60
684.96	14.04
685.09	35.11
685.23	37.45
685.37	37.45
685.50	25.75
685.64	44.47
685.78	86.60
685.91	11.70
686.05	58.51
686.19	77.24
686.32	23.41
686.46	72.56
686.60	51.49
686.73	0.00
686.87	39.79
687.01	0.00
687.14	23.41
687.28	2.34
687.42	9.36
687.55	37.45
687.69	28.09
687.82	0.00
687.96	0.00
688.10	72.56
688.23	16.38
688.37	142.77
688.50	0.00
688.64	7.02
688.78	42.13
688.91	30.43
689.05	65.54
689.18	0.00
689.32	0.00
689.46	63.19
689.59	42.13
689.73	0.00
689.86	11.70
690.00	67.88
690.13	42.13
690.27	16.38
690.41	67.88
690.54	9.36
690.68	79.58
690.81	0.00
690.95	23.41
691.08	53.83
691.22	0.00
691.35	37.45
691.49	0.00
691.62	67.88
691.76	91.28
691.89	0.00
692.03	0.00
692.16	42.13
692.30	51.49
692.43	42.13
692.57	16.38
692.70	28.09
692.84	44.47
692.97	28.09
693.11	39.79
693.24	65.54
693.38	44.47
693.51	14.04
693.65	58.51
693.78	0.00
693.92	46.81
694.05	79.58
694.19	0.00
694.32	74.90
694.45	72.56
694.59	39.79
694.72	46.81
694.86	86.60
694.99	37.45
695.13	25.75
695.26	39.79
695.39	46.81
695.53	30.43
695.66	0.00
695.80	84.26
695.93	63.19
696.07	88.94
696.20	72.56
696.33	70.22
696.47	79.58
696.60	0.00
696.73	25.75
696.87	0.00
697.00	42.13
697.14	79.58
697.27	51.49
697.40	53.83
697.54	63.19
697.67	93.62
697.80	135.75
697.94	9.36
698.07	42.13
698.21	35.11
698.34	67.88
698.47	2.34
698.61	35.11
698.74	30.43
698.87	67.88
699.01	23.41
699.14	23.41
699.27	25.75
699.40	0.00
699.54	79.58
699.67	9.36
699.80	53.83
699.94	74.90
700.07	0.00
700.20	0.00
700.34	74.90
700.47	11.70
700.60	53.83
700.73	44.47
700.87	21.06
701.00	0.00
701.13	0.00
701.26	88.94
701.40	0.00
701.53	30.43
701.66	11.70
701.79	35.11
701.93	37.45
702.06	18.72
702.19	32.77
702.32	21.06
702.46	16.38
702.59	14.04
702.72	4.68
702.85	39.79
702.99	37.45
703.12	51.49
703.25	37.45
703.38	46.81
703.51	14.04
703.65	86.60
703.78	30.43
703.91	88.94
704.04	9.36
704.17	72.56
704.31	56.17
704.44	98.30
704.57	0.00
704.70	65.54
704.83	9.36
704.96	2.34
705.10	35.11
705.23	25.75
>>>>>End Processed Spectral Data<<<<<
