SpectraSuite Data File
++++++++++++++++++++++++++++++++++++
Date: Fri Oct 04 12:13:28 GMT-05:00 2013
User: price-jones
Dark Spectrum Present: No
Reference Spectrum Present: No
Number of Sampled Component Spectra: 1
Spectrometers: USB2+H05261
Integration Time (usec): 10000 (USB2+H05261)
Spectra Averaged: 1 (USB2+H05261)
Boxcar Smoothing: 0 (USB2+H05261)
Correct for Electrical Dark: No (USB2+H05261)
Strobe/Lamp Enabled: No (USB2+H05261)
Correct for Detector Non-linearity: No (USB2+H05261)
Correct for Stray Light: No (USB2+H05261)
Number of Pixels in Processed Spectrum: 2048
>>>>>Begin Processed Spectral Data<<<<<
365.73	30.43
365.92	30.43
366.12	30.43
366.32	0.00
366.52	0.00
366.72	0.00
366.91	0.00
367.11	0.00
367.31	0.00
367.51	0.00
367.70	0.00
367.90	0.00
368.10	0.00
368.30	0.00
368.49	0.00
368.69	0.00
368.89	0.00
369.09	0.00
369.28	0.00
369.48	0.00
369.68	0.00
369.87	0.00
370.07	0.00
370.27	0.00
370.47	0.00
370.66	0.00
370.86	0.00
371.06	16.38
371.25	0.00
371.45	0.00
371.65	9.36
371.84	0.00
372.04	0.00
372.24	53.83
372.44	9.36
372.63	46.81
372.83	0.00
373.03	25.75
373.22	0.00
373.42	0.00
373.62	39.79
373.81	105.32
374.01	70.22
374.21	42.13
374.40	32.77
374.60	39.79
374.79	28.09
374.99	25.75
375.19	37.45
375.38	39.79
375.58	0.00
375.78	14.04
375.97	81.92
376.17	67.88
376.37	4.68
376.56	70.22
376.76	4.68
376.95	37.45
377.15	21.06
377.35	0.00
377.54	0.00
377.74	0.00
377.93	16.38
378.13	9.36
378.33	0.00
378.52	23.41
378.72	114.69
378.91	0.00
379.11	0.00
379.31	9.36
379.50	0.00
379.70	25.75
379.89	0.00
380.09	0.00
380.28	0.00
380.48	37.45
380.68	32.77
380.87	60.85
381.07	0.00
381.26	30.43
381.46	0.00
381.65	44.47
381.85	112.35
382.04	0.00
382.24	14.04
382.43	88.94
382.63	79.58
382.83	0.00
383.02	0.00
383.22	0.00
383.41	72.56
383.61	30.43
383.80	42.13
384.00	49.15
384.19	0.00
384.39	30.43
384.58	28.09
384.78	46.81
384.97	0.00
385.17	25.75
385.36	28.09
385.56	9.36
385.75	7.02
385.95	28.09
386.14	0.00
386.34	28.09
386.53	28.09
386.72	18.72
386.92	46.81
387.11	0.00
387.31	35.11
387.50	0.00
387.70	0.00
387.89	0.00
388.09	95.96
388.28	39.79
388.48	42.13
388.67	70.22
388.86	51.49
389.06	42.13
389.25	14.04
389.45	56.17
389.64	0.00
389.84	0.00
390.03	0.00
390.22	37.45
390.42	18.72
390.61	35.11
390.81	0.00
391.00	9.36
391.19	51.49
391.39	49.15
391.58	28.09
391.78	60.85
391.97	21.06
392.16	0.00
392.36	0.00
392.55	0.00
392.75	0.00
392.94	21.06
393.13	14.04
393.33	0.00
393.52	32.77
393.71	14.04
393.91	9.36
394.10	11.70
394.29	35.11
394.49	21.06
394.68	2.34
394.88	0.00
395.07	11.70
395.26	9.36
395.46	4.68
395.65	42.13
395.84	7.02
396.04	0.00
396.23	42.13
396.42	14.04
396.62	30.43
396.81	0.00
397.00	44.47
397.19	46.81
397.39	0.00
397.58	32.77
397.77	63.19
397.97	0.00
398.16	67.88
398.35	70.22
398.55	25.75
398.74	18.72
398.93	21.06
399.12	4.68
399.32	44.47
399.51	42.13
399.70	0.00
399.90	60.85
400.09	79.58
400.28	88.94
400.47	0.00
400.67	16.38
400.86	2.34
401.05	0.00
401.24	0.00
401.44	0.00
401.63	9.36
401.82	37.45
402.01	98.30
402.21	56.17
402.40	0.00
402.59	0.00
402.78	0.00
402.97	70.22
403.17	25.75
403.36	39.79
403.55	4.68
403.74	30.43
403.93	72.56
404.13	18.72
404.32	35.11
404.51	0.00
404.70	0.00
404.89	0.00
405.09	53.83
405.28	0.00
405.47	35.11
405.66	4.68
405.85	0.00
406.05	46.81
406.24	0.00
406.43	23.41
406.62	4.68
406.81	32.77
407.00	86.60
407.20	30.43
407.39	0.00
407.58	0.00
407.77	11.70
407.96	23.41
408.15	21.06
408.34	11.70
408.54	0.00
408.73	46.81
408.92	0.00
409.11	65.54
409.30	28.09
409.49	46.81
409.68	74.90
409.87	60.85
410.07	32.77
410.26	14.04
410.45	23.41
410.64	9.36
410.83	14.04
411.02	79.58
411.21	0.00
411.40	9.36
411.59	37.45
411.78	0.00
411.98	32.77
412.17	0.00
412.36	102.98
412.55	93.62
412.74	70.22
412.93	46.81
413.12	0.00
413.31	30.43
413.50	9.36
413.69	44.47
413.88	23.41
414.07	2.34
414.26	0.00
414.45	11.70
414.64	42.13
414.83	4.68
415.02	56.17
415.22	0.00
415.41	0.00
415.60	91.28
415.79	0.00
415.98	25.75
416.17	53.83
416.36	11.70
416.55	7.02
416.74	49.15
416.93	35.11
417.12	0.00
417.31	28.09
417.50	95.96
417.69	49.15
417.88	16.38
418.07	18.72
418.26	56.17
418.45	44.47
418.64	74.90
418.83	35.11
419.02	0.00
419.21	53.83
419.39	60.85
419.58	79.58
419.77	72.56
419.96	84.26
420.15	16.38
420.34	51.49
420.53	46.81
420.72	60.85
420.91	28.09
421.10	14.04
421.29	0.00
421.48	60.85
421.67	63.19
421.86	4.68
422.05	28.09
422.24	0.00
422.43	65.54
422.61	25.75
422.80	14.04
422.99	42.13
423.18	0.00
423.37	18.72
423.56	4.68
423.75	9.36
423.94	65.54
424.13	25.75
424.32	11.70
424.50	28.09
424.69	79.58
424.88	4.68
425.07	44.47
425.26	0.00
425.45	28.09
425.64	37.45
425.83	58.51
426.01	11.70
426.20	44.47
426.39	77.24
426.58	84.26
426.77	72.56
426.96	53.83
427.15	46.81
427.33	23.41
427.52	39.79
427.71	21.06
427.90	14.04
428.09	16.38
428.28	95.96
428.46	14.04
428.65	51.49
428.84	11.70
429.03	42.13
429.22	9.36
429.40	91.28
429.59	11.70
429.78	56.17
429.97	14.04
430.16	58.51
430.34	0.00
430.53	35.11
430.72	0.00
430.91	0.00
431.10	58.51
431.28	16.38
431.47	44.47
431.66	28.09
431.85	14.04
432.03	30.43
432.22	7.02
432.41	25.75
432.60	49.15
432.79	9.36
432.97	4.68
433.16	65.54
433.35	11.70
433.54	114.69
433.72	42.13
433.91	0.00
434.10	79.58
434.28	117.03
434.47	112.35
434.66	23.41
434.85	67.88
435.03	0.00
435.22	49.15
435.41	86.60
435.59	25.75
435.78	60.85
435.97	49.15
436.16	32.77
436.34	49.15
436.53	0.00
436.72	39.79
436.90	74.90
437.09	95.96
437.28	4.68
437.46	0.00
437.65	74.90
437.84	51.49
438.02	53.83
438.21	7.02
438.40	88.94
438.58	4.68
438.77	0.00
438.96	0.00
439.14	35.11
439.33	72.56
439.52	16.38
439.70	60.85
439.89	107.66
440.08	79.58
440.26	114.69
440.45	21.06
440.63	32.77
440.82	70.22
441.01	39.79
441.19	7.02
441.38	74.90
441.57	16.38
441.75	0.00
441.94	63.19
442.12	53.83
442.31	16.38
442.50	58.51
442.68	53.83
442.87	9.36
443.05	11.70
443.24	0.00
443.43	18.72
443.61	49.15
443.80	37.45
443.98	51.49
444.17	0.00
444.35	0.00
444.54	37.45
444.73	77.24
444.91	58.51
445.10	16.38
445.28	14.04
445.47	88.94
445.65	63.19
445.84	70.22
446.02	58.51
446.21	35.11
446.39	107.66
446.58	35.11
446.77	9.36
446.95	14.04
447.14	37.45
447.32	0.00
447.51	65.54
447.69	0.00
447.88	32.77
448.06	2.34
448.25	23.41
448.43	63.19
448.62	107.66
448.80	0.00
448.99	25.75
449.17	49.15
449.36	0.00
449.54	70.22
449.73	32.77
449.91	42.13
450.10	0.00
450.28	0.00
450.46	25.75
450.65	44.47
450.83	49.15
451.02	58.51
451.20	32.77
451.39	53.83
451.57	0.00
451.76	39.79
451.94	84.26
452.13	58.51
452.31	58.51
452.49	51.49
452.68	4.68
452.86	0.00
453.05	16.38
453.23	4.68
453.42	93.62
453.60	56.17
453.78	16.38
453.97	53.83
454.15	18.72
454.34	32.77
454.52	60.85
454.70	72.56
454.89	37.45
455.07	4.68
455.26	51.49
455.44	95.96
455.62	37.45
455.81	32.77
455.99	35.11
456.17	42.13
456.36	18.72
456.54	51.49
456.73	23.41
456.91	0.00
457.09	39.79
457.28	0.00
457.46	32.77
457.64	74.90
457.83	7.02
458.01	49.15
458.19	46.81
458.38	58.51
458.56	58.51
458.74	65.54
458.93	65.54
459.11	72.56
459.29	37.45
459.48	0.00
459.66	9.36
459.84	16.38
460.03	88.94
460.21	63.19
460.39	39.79
460.57	46.81
460.76	60.85
460.94	63.19
461.12	70.22
461.31	84.26
461.49	23.41
461.67	25.75
461.85	60.85
462.04	32.77
462.22	70.22
462.40	0.00
462.59	37.45
462.77	79.58
462.95	39.79
463.13	0.00
463.32	30.43
463.50	30.43
463.68	58.51
463.86	23.41
464.05	117.03
464.23	18.72
464.41	70.22
464.59	67.88
464.78	84.26
464.96	32.77
465.14	0.00
465.32	32.77
465.50	35.11
465.69	25.75
465.87	72.56
466.05	39.79
466.23	67.88
466.41	28.09
466.60	53.83
466.78	72.56
466.96	16.38
467.14	2.34
467.32	74.90
467.51	84.26
467.69	23.41
467.87	58.51
468.05	39.79
468.23	39.79
468.41	70.22
468.60	0.00
468.78	79.58
468.96	21.06
469.14	56.17
469.32	93.62
469.50	53.83
469.69	53.83
469.87	63.19
470.05	79.58
470.23	0.00
470.41	0.00
470.59	35.11
470.77	0.00
470.95	77.24
471.14	46.81
471.32	9.36
471.50	25.75
471.68	0.00
471.86	74.90
472.04	0.00
472.22	63.19
472.40	30.43
472.58	70.22
472.77	46.81
472.95	77.24
473.13	37.45
473.31	21.06
473.49	0.00
473.67	98.30
473.85	30.43
474.03	93.62
474.21	0.00
474.39	21.06
474.57	23.41
474.75	49.15
474.93	49.15
475.12	44.47
475.30	0.00
475.48	74.90
475.66	23.41
475.84	7.02
476.02	95.96
476.20	46.81
476.38	14.04
476.56	81.92
476.74	86.60
476.92	79.58
477.10	14.04
477.28	58.51
477.46	0.00
477.64	28.09
477.82	114.69
478.00	67.88
478.18	81.92
478.36	65.54
478.54	2.34
478.72	42.13
478.90	60.85
479.08	119.37
479.26	37.45
479.44	0.00
479.62	56.17
479.80	0.00
479.98	49.15
480.16	18.72
480.34	46.81
480.52	58.51
480.70	11.70
480.88	100.64
481.06	46.81
481.24	60.85
481.41	63.19
481.59	0.00
481.77	0.00
481.95	56.17
482.13	60.85
482.31	51.49
482.49	58.51
482.67	91.28
482.85	98.30
483.03	98.30
483.21	37.45
483.39	60.85
483.57	74.90
483.74	51.49
483.92	70.22
484.10	0.00
484.28	0.00
484.46	60.85
484.64	105.32
484.82	30.43
485.00	65.54
485.18	4.68
485.35	16.38
485.53	70.22
485.71	0.00
485.89	0.00
486.07	0.00
486.25	0.00
486.43	117.03
486.61	14.04
486.78	42.13
486.96	25.75
487.14	28.09
487.32	46.81
487.50	25.75
487.68	56.17
487.85	44.47
488.03	25.75
488.21	51.49
488.39	30.43
488.57	18.72
488.75	30.43
488.92	42.13
489.10	0.00
489.28	60.85
489.46	28.09
489.64	4.68
489.81	42.13
489.99	2.34
490.17	39.79
490.35	0.00
490.53	35.11
490.70	28.09
490.88	18.72
491.06	0.00
491.24	46.81
491.41	86.60
491.59	105.32
491.77	39.79
491.95	0.00
492.13	86.60
492.30	84.26
492.48	39.79
492.66	58.51
492.84	114.69
493.01	91.28
493.19	67.88
493.37	28.09
493.54	46.81
493.72	0.00
493.90	32.77
494.08	102.98
494.25	58.51
494.43	35.11
494.61	0.00
494.79	0.00
494.96	25.75
495.14	28.09
495.32	4.68
495.49	28.09
495.67	18.72
495.85	42.13
496.02	37.45
496.20	46.81
496.38	49.15
496.55	35.11
496.73	39.79
496.91	37.45
497.09	51.49
497.26	18.72
497.44	23.41
497.62	44.47
497.79	25.75
497.97	88.94
498.14	42.13
498.32	70.22
498.50	28.09
498.67	93.62
498.85	79.58
499.03	53.83
499.20	2.34
499.38	53.83
499.56	35.11
499.73	0.00
499.91	39.79
500.08	51.49
500.26	117.03
500.44	100.64
500.61	77.24
500.79	18.72
500.97	0.00
501.14	7.02
501.32	18.72
501.49	105.32
501.67	72.56
501.84	21.06
502.02	42.13
502.20	60.85
502.37	0.00
502.55	21.06
502.72	23.41
502.90	0.00
503.07	0.00
503.25	0.00
503.43	9.36
503.60	0.00
503.78	44.47
503.95	58.51
504.13	21.06
504.30	23.41
504.48	81.92
504.65	42.13
504.83	79.58
505.01	53.83
505.18	32.77
505.36	39.79
505.53	0.00
505.71	56.17
505.88	0.00
506.06	91.28
506.23	37.45
506.41	7.02
506.58	9.36
506.76	58.51
506.93	88.94
507.11	7.02
507.28	74.90
507.46	95.96
507.63	126.39
507.81	65.54
507.98	93.62
508.16	56.17
508.33	11.70
508.50	21.06
508.68	0.00
508.85	70.22
509.03	65.54
509.20	98.30
509.38	0.00
509.55	11.70
509.73	25.75
509.90	28.09
510.08	23.41
510.25	79.58
510.42	23.41
510.60	2.34
510.77	128.73
510.95	25.75
511.12	21.06
511.30	91.28
511.47	65.54
511.64	32.77
511.82	39.79
511.99	46.81
512.17	51.49
512.34	9.36
512.51	32.77
512.69	0.00
512.86	142.77
513.04	30.43
513.21	39.79
513.38	53.83
513.56	35.11
513.73	72.56
513.90	51.49
514.08	58.51
514.25	44.47
514.43	70.22
514.60	65.54
514.77	25.75
514.95	14.04
515.12	37.45
515.29	53.83
515.47	32.77
515.64	86.60
515.81	35.11
515.99	58.51
516.16	42.13
516.33	30.43
516.51	9.36
516.68	70.22
516.85	46.81
517.03	21.06
517.20	77.24
517.37	37.45
517.54	11.70
517.72	138.09
517.89	81.92
518.06	63.19
518.24	11.70
518.41	39.79
518.58	4.68
518.75	32.77
518.93	44.47
519.10	58.51
519.27	28.09
519.45	0.00
519.62	74.90
519.79	63.19
519.96	51.49
520.14	0.00
520.31	112.35
520.48	81.92
520.65	42.13
520.83	14.04
521.00	30.43
521.17	100.64
521.34	14.04
521.52	28.09
521.69	98.30
521.86	56.17
522.03	44.47
522.20	72.56
522.38	14.04
522.55	0.00
522.72	79.58
522.89	65.54
523.07	49.15
523.24	46.81
523.41	0.00
523.58	21.06
523.75	53.83
523.92	0.00
524.10	0.00
524.27	44.47
524.44	30.43
524.61	49.15
524.78	0.00
524.96	32.77
525.13	0.00
525.30	46.81
525.47	37.45
525.64	60.85
525.81	0.00
525.98	0.00
526.16	18.72
526.33	0.00
526.50	117.03
526.67	37.45
526.84	149.79
527.01	51.49
527.18	58.51
527.36	25.75
527.53	112.35
527.70	9.36
527.87	0.00
528.04	105.32
528.21	63.19
528.38	67.88
528.55	60.85
528.72	25.75
528.89	7.02
529.07	58.51
529.24	25.75
529.41	74.90
529.58	135.75
529.75	86.60
529.92	37.45
530.09	105.32
530.26	2.34
530.43	42.13
530.60	28.09
530.77	51.49
530.94	23.41
531.11	42.13
531.28	42.13
531.46	32.77
531.63	117.03
531.80	60.85
531.97	42.13
532.14	0.00
532.31	102.98
532.48	21.06
532.65	28.09
532.82	49.15
532.99	98.30
533.16	25.75
533.33	30.43
533.50	0.00
533.67	0.00
533.84	74.90
534.01	119.37
534.18	7.02
534.35	0.00
534.52	0.00
534.69	11.70
534.86	46.81
535.03	32.77
535.20	70.22
535.37	67.88
535.54	100.64
535.71	0.00
535.88	25.75
536.05	35.11
536.22	67.88
536.38	42.13
536.55	30.43
536.72	16.38
536.89	7.02
537.06	28.09
537.23	37.45
537.40	30.43
537.57	72.56
537.74	44.47
537.91	65.54
538.08	2.34
538.25	25.75
538.42	56.17
538.59	100.64
538.75	63.19
538.92	9.36
539.09	30.43
539.26	37.45
539.43	105.32
539.60	72.56
539.77	220.01
539.94	187.24
540.11	173.20
540.28	105.32
540.44	65.54
540.61	65.54
540.78	11.70
540.95	51.49
541.12	67.88
541.29	77.24
541.46	11.70
541.62	16.38
541.79	84.26
541.96	70.22
542.13	0.00
542.30	42.13
542.47	32.77
542.63	37.45
542.80	79.58
542.97	88.94
543.14	51.49
543.31	72.56
543.48	21.06
543.64	81.92
543.81	67.88
543.98	42.13
544.15	67.88
544.32	0.00
544.48	53.83
544.65	49.15
544.82	16.38
544.99	53.83
545.16	11.70
545.32	4.68
545.49	21.06
545.66	70.22
545.83	11.70
546.00	0.00
546.16	51.49
546.33	28.09
546.50	53.83
546.67	86.60
546.83	60.85
547.00	0.00
547.17	49.15
547.34	4.68
547.50	79.58
547.67	30.43
547.84	32.77
548.00	9.36
548.17	70.22
548.34	2.34
548.51	86.60
548.67	2.34
548.84	28.09
549.01	14.04
549.18	21.06
549.34	18.72
549.51	93.62
549.68	0.00
549.84	79.58
550.01	72.56
550.18	84.26
550.34	102.98
550.51	39.79
550.68	0.00
550.84	72.56
551.01	30.43
551.18	14.04
551.34	0.00
551.51	70.22
551.68	63.19
551.84	107.66
552.01	0.00
552.18	18.72
552.34	37.45
552.51	53.83
552.68	53.83
552.84	37.45
553.01	25.75
553.18	67.88
553.34	72.56
553.51	42.13
553.67	21.06
553.84	65.54
554.01	79.58
554.17	49.15
554.34	74.90
554.51	23.41
554.67	42.13
554.84	7.02
555.00	35.11
555.17	4.68
555.33	93.62
555.50	46.81
555.67	0.00
555.83	79.58
556.00	9.36
556.16	72.56
556.33	88.94
556.50	4.68
556.66	0.00
556.83	65.54
556.99	121.71
557.16	30.43
557.32	39.79
557.49	32.77
557.65	0.00
557.82	9.36
557.98	7.02
558.15	25.75
558.32	4.68
558.48	0.00
558.65	18.72
558.81	0.00
558.98	14.04
559.14	0.00
559.31	2.34
559.47	44.47
559.64	77.24
559.80	74.90
559.97	0.00
560.13	72.56
560.30	67.88
560.46	25.75
560.63	37.45
560.79	0.00
560.96	21.06
561.12	14.04
561.29	11.70
561.45	25.75
561.61	21.06
561.78	53.83
561.94	79.58
562.11	0.00
562.27	74.90
562.44	21.06
562.60	65.54
562.77	46.81
562.93	70.22
563.10	110.01
563.26	16.38
563.42	77.24
563.59	37.45
563.75	21.06
563.92	51.49
564.08	32.77
564.24	88.94
564.41	53.83
564.57	77.24
564.74	46.81
564.90	88.94
565.07	72.56
565.23	28.09
565.39	0.00
565.56	88.94
565.72	37.45
565.88	42.13
566.05	7.02
566.21	9.36
566.38	4.68
566.54	65.54
566.70	21.06
566.87	0.00
567.03	46.81
567.19	49.15
567.36	67.88
567.52	2.34
567.68	32.77
567.85	30.43
568.01	58.51
568.17	65.54
568.34	18.72
568.50	14.04
568.66	21.06
568.83	9.36
568.99	14.04
569.15	25.75
569.32	56.17
569.48	51.49
569.64	86.60
569.81	23.41
569.97	70.22
570.13	58.51
570.30	0.00
570.46	138.09
570.62	46.81
570.78	95.96
570.95	0.00
571.11	18.72
571.27	39.79
571.43	32.77
571.60	46.81
571.76	81.92
571.92	35.11
572.09	7.02
572.25	56.17
572.41	81.92
572.57	42.13
572.74	7.02
572.90	0.00
573.06	25.75
573.22	70.22
573.38	11.70
573.55	56.17
573.71	58.51
573.87	0.00
574.03	39.79
574.20	0.00
574.36	37.45
574.52	0.00
574.68	56.17
574.84	91.28
575.01	44.47
575.17	56.17
575.33	53.83
575.49	30.43
575.65	86.60
575.82	119.37
575.98	105.32
576.14	189.58
576.30	88.94
576.46	70.22
576.62	49.15
576.79	0.00
576.95	35.11
577.11	0.00
577.27	53.83
577.43	110.01
577.59	70.22
577.75	37.45
577.92	0.00
578.08	28.09
578.24	0.00
578.40	14.04
578.56	14.04
578.72	37.45
578.88	60.85
579.04	81.92
579.21	67.88
579.37	0.00
579.53	14.04
579.69	95.96
579.85	77.24
580.01	23.41
580.17	86.60
580.33	81.92
580.49	49.15
580.65	65.54
580.82	65.54
580.98	35.11
581.14	14.04
581.30	35.11
581.46	110.01
581.62	102.98
581.78	70.22
581.94	102.98
582.10	100.64
582.26	30.43
582.42	25.75
582.58	88.94
582.74	81.92
582.90	53.83
583.06	91.28
583.22	84.26
583.38	65.54
583.54	112.35
583.70	142.77
583.86	79.58
584.02	182.56
584.18	156.82
584.34	210.65
584.50	526.62
584.66	3321.22
584.82	8950.21
584.98	13839.59
585.14	12428.24
585.30	7573.97
585.46	4524.26
585.62	2935.03
585.78	1289.64
585.94	472.79
586.10	259.80
586.26	163.84
586.42	121.71
586.58	142.77
586.74	98.30
586.90	175.54
587.06	180.22
587.22	70.22
587.38	156.82
587.54	222.35
587.70	528.96
587.86	866.00
588.02	1025.15
588.18	669.39
588.34	468.11
588.49	313.63
588.65	175.54
588.81	95.96
588.97	86.60
589.13	4.68
589.29	28.09
589.45	81.92
589.61	35.11
589.77	23.41
589.93	77.24
590.08	60.85
590.24	152.13
590.40	77.24
590.56	32.77
590.72	25.75
590.88	100.64
591.04	65.54
591.20	25.75
591.35	2.34
591.51	25.75
591.67	56.17
591.83	49.15
591.99	135.75
592.15	58.51
592.31	53.83
592.46	39.79
592.62	28.09
592.78	88.94
592.94	58.51
593.10	0.00
593.26	74.90
593.41	32.77
593.57	49.15
593.73	168.52
593.89	414.27
594.05	1156.22
594.20	1680.50
594.36	1678.16
594.52	1102.39
594.68	674.07
594.84	404.91
594.99	283.20
595.15	60.85
595.31	107.66
595.47	65.54
595.62	67.88
595.78	28.09
595.94	74.90
596.10	32.77
596.25	93.62
596.41	51.49
596.57	7.02
596.73	51.49
596.88	84.26
597.04	203.63
597.20	320.65
597.36	425.98
597.51	390.87
597.67	337.04
597.83	112.35
597.99	159.16
598.14	114.69
598.30	105.32
598.46	72.56
598.61	84.26
598.77	152.13
598.93	18.72
599.09	135.75
599.24	14.04
599.40	84.26
599.56	56.17
599.71	0.00
599.87	21.06
600.03	56.17
600.18	32.77
600.34	53.83
600.50	0.00
600.65	77.24
600.81	60.85
600.97	11.70
601.12	32.77
601.28	9.36
601.44	102.98
601.59	65.54
601.75	46.81
601.91	60.85
602.06	67.88
602.22	28.09
602.37	110.01
602.53	285.55
602.69	322.99
602.84	465.77
603.00	290.23
603.16	243.42
603.31	196.60
603.47	56.17
603.62	42.13
603.78	44.47
603.94	9.36
604.09	42.13
604.25	84.26
604.40	49.15
604.56	21.06
604.71	42.13
604.87	74.90
605.03	56.17
605.18	49.15
605.34	81.92
605.49	2.34
605.65	60.85
605.80	23.41
605.96	72.56
606.12	93.62
606.27	65.54
606.43	77.24
606.58	93.62
606.74	154.48
606.89	585.13
607.05	1125.80
607.20	1462.83
607.36	1310.70
607.51	919.83
607.67	561.73
607.82	409.59
607.98	259.80
608.13	114.69
608.29	0.00
608.44	53.83
608.60	128.73
608.75	70.22
608.91	191.92
609.06	828.55
609.22	1790.51
609.37	2483.31
609.53	2176.70
609.68	1362.19
609.84	954.94
609.99	692.80
610.15	339.38
610.30	161.50
610.46	53.83
610.61	56.17
610.76	49.15
610.92	86.60
611.07	72.56
611.23	74.90
611.38	140.43
611.54	58.51
611.69	16.38
611.84	46.81
612.00	100.64
612.15	23.41
612.31	93.62
612.46	149.79
612.62	91.28
612.77	168.52
612.92	95.96
613.08	79.58
613.23	88.94
613.39	79.58
613.54	133.41
613.69	828.55
613.85	2174.36
614.00	3700.39
614.15	4117.00
614.31	2841.41
614.46	1888.81
614.62	1240.48
614.77	695.14
614.92	346.40
615.08	117.03
615.23	100.64
615.38	84.26
615.54	81.92
615.69	135.75
615.84	454.06
616.00	875.36
616.15	1013.45
616.30	770.04
616.46	638.97
616.61	402.57
616.76	252.78
616.92	271.50
617.07	88.94
617.22	39.79
617.37	79.58
617.53	65.54
617.68	46.81
617.83	32.77
617.99	86.60
618.14	30.43
618.29	56.17
618.45	0.00
618.60	23.41
618.75	88.94
618.90	70.22
619.06	23.41
619.21	53.83
619.36	53.83
619.51	32.77
619.67	39.79
619.82	49.15
619.97	14.04
620.12	0.00
620.28	14.04
620.43	119.37
620.58	88.94
620.73	39.79
620.89	53.83
621.04	95.96
621.19	311.29
621.34	533.64
621.49	641.31
621.65	538.32
621.80	402.57
621.95	308.95
622.10	201.29
622.25	67.88
622.41	81.92
622.56	18.72
622.71	44.47
622.86	63.19
623.01	51.49
623.16	117.03
623.32	42.13
623.47	0.00
623.62	84.26
623.77	70.22
623.92	77.24
624.07	56.17
624.23	70.22
624.38	32.77
624.53	51.49
624.68	105.32
624.83	32.77
624.98	0.00
625.13	0.00
625.29	84.26
625.44	39.79
625.59	65.54
625.74	0.00
625.89	105.32
626.04	409.59
626.19	1165.59
626.34	1898.17
626.49	2211.81
626.65	1603.27
626.80	1172.61
626.95	699.82
627.10	489.17
627.25	231.71
627.40	208.31
627.55	135.75
627.70	93.62
627.85	53.83
628.00	9.36
628.15	53.83
628.30	32.77
628.45	56.17
628.60	30.43
628.76	14.04
628.91	30.43
629.06	77.24
629.21	0.00
629.36	114.69
629.51	0.00
629.66	63.19
629.81	110.01
629.96	161.50
630.11	425.98
630.26	528.96
630.41	526.62
630.56	395.55
630.71	250.44
630.86	177.88
631.01	74.90
631.16	11.70
631.31	84.26
631.46	93.62
631.61	70.22
631.76	49.15
631.91	88.94
632.06	42.13
632.21	102.98
632.36	28.09
632.51	72.56
632.66	63.19
632.81	250.44
632.96	638.97
633.10	1142.18
633.25	1397.30
633.40	1212.40
633.55	833.23
633.70	582.79
633.85	351.08
634.00	217.67
634.15	170.86
634.30	91.28
634.45	121.71
634.60	0.00
634.75	39.79
634.90	63.19
635.05	121.71
635.19	63.19
635.34	88.94
635.49	88.94
635.64	79.58
635.79	25.75
635.94	0.00
636.09	51.49
636.24	58.51
636.39	58.51
636.53	9.36
636.68	131.07
636.83	21.06
636.98	53.83
637.13	72.56
637.28	91.28
637.43	128.73
637.57	117.03
637.72	507.90
637.87	1455.81
638.02	2375.64
638.17	2649.49
638.32	2097.12
638.46	1366.87
638.61	968.98
638.76	650.67
638.91	285.55
639.06	154.48
639.20	135.75
639.35	126.39
639.50	149.79
639.65	849.61
639.80	2129.89
639.94	3648.90
640.09	4222.33
640.24	3110.57
640.39	2139.25
640.54	1469.86
640.68	877.70
640.83	435.34
640.98	187.24
641.13	170.86
641.27	74.90
641.42	133.41
641.57	77.24
641.72	11.70
641.86	35.11
642.01	16.38
642.16	93.62
642.31	79.58
642.45	84.26
642.60	0.00
642.75	21.06
642.90	105.32
643.04	21.06
643.19	58.51
643.34	32.77
643.48	21.06
643.63	86.60
643.78	23.41
643.93	60.85
644.07	35.11
644.22	28.09
644.37	67.88
644.51	56.17
644.66	112.35
644.81	44.47
644.95	30.43
645.10	91.28
645.25	37.45
645.39	11.70
645.54	51.49
645.69	0.00
645.83	37.45
645.98	16.38
646.13	95.96
646.27	63.19
646.42	88.94
646.57	51.49
646.71	7.02
646.86	60.85
647.00	23.41
647.15	56.17
647.30	37.45
647.44	0.00
647.59	35.11
647.74	114.69
647.88	4.68
648.03	0.00
648.17	2.34
648.32	72.56
648.47	49.15
648.61	95.96
648.76	39.79
648.90	49.15
649.05	49.15
649.20	72.56
649.34	91.28
649.49	98.30
649.63	56.17
649.78	65.54
649.92	100.64
650.07	297.25
650.21	1020.47
650.36	1842.00
650.51	2235.21
650.65	1830.30
650.80	1203.04
650.94	816.85
651.09	540.66
651.23	234.05
651.38	147.45
651.52	131.07
651.67	0.00
651.81	16.38
651.96	11.70
652.10	102.98
652.25	100.64
652.39	74.90
652.54	30.43
652.68	102.98
652.83	332.36
652.97	493.85
653.12	821.53
653.26	720.88
653.41	449.38
653.55	400.23
653.70	231.71
653.84	142.77
653.99	72.56
654.13	60.85
654.27	46.81
654.42	100.64
654.56	72.56
654.71	16.38
654.85	14.04
655.00	93.62
655.14	0.00
655.29	21.06
655.43	11.70
655.57	65.54
655.72	102.98
655.86	11.70
656.01	28.09
656.15	25.75
656.30	0.00
656.44	0.00
656.58	0.00
656.73	0.00
656.87	46.81
657.01	112.35
657.16	65.54
657.30	53.83
657.45	49.15
657.59	28.09
657.73	49.15
657.88	28.09
658.02	0.00
658.16	28.09
658.31	39.79
658.45	124.05
658.60	67.88
658.74	56.17
658.88	58.51
659.03	126.39
659.17	107.66
659.31	107.66
659.46	496.19
659.60	870.68
659.74	1114.10
659.89	976.00
660.03	798.12
660.17	493.85
660.32	358.10
660.46	201.29
660.60	140.43
660.74	39.79
660.89	49.15
661.03	51.49
661.17	58.51
661.32	37.45
661.46	58.51
661.60	42.13
661.74	98.30
661.89	28.09
662.03	70.22
662.17	88.94
662.31	51.49
662.46	107.66
662.60	21.06
662.74	25.75
662.88	0.00
663.03	67.88
663.17	81.92
663.31	42.13
663.45	53.83
663.60	77.24
663.74	84.26
663.88	4.68
664.02	58.51
664.17	65.54
664.31	86.60
664.45	105.32
664.59	42.13
664.73	42.13
664.88	77.24
665.02	18.72
665.16	35.11
665.30	46.81
665.44	0.00
665.59	88.94
665.73	35.11
665.87	84.26
666.01	49.15
666.15	4.68
666.29	0.00
666.44	60.85
666.58	42.13
666.72	84.26
666.86	42.13
667.00	44.47
667.14	98.30
667.28	304.27
667.43	800.46
667.57	1373.89
667.71	1919.24
667.85	1610.29
667.99	1184.31
668.13	753.65
668.27	437.68
668.41	262.14
668.56	119.37
668.70	74.90
668.84	60.85
668.98	65.54
669.12	49.15
669.26	37.45
669.40	95.96
669.54	35.11
669.68	72.56
669.82	37.45
669.96	7.02
670.10	4.68
670.25	74.90
670.39	93.62
670.53	35.11
670.67	49.15
670.81	58.51
670.95	0.00
671.09	28.09
671.23	369.80
671.37	723.23
671.51	1069.62
671.65	1235.80
671.79	940.90
671.93	615.56
672.07	395.55
672.21	287.89
672.35	128.73
672.49	70.22
672.63	58.51
672.77	84.26
672.91	0.00
673.05	0.00
673.19	28.09
673.33	0.00
673.47	25.75
673.61	86.60
673.75	23.41
673.89	95.96
674.03	65.54
674.17	4.68
674.31	44.47
674.45	70.22
674.59	21.06
674.73	100.64
674.87	112.35
675.01	2.34
675.15	30.43
675.29	60.85
675.43	0.00
675.56	25.75
675.70	21.06
675.84	42.13
675.98	105.32
676.12	16.38
676.26	2.34
676.40	58.51
676.54	0.00
676.68	51.49
676.82	44.47
676.96	11.70
677.10	35.11
677.23	23.41
677.37	44.47
677.51	11.70
677.65	16.38
677.79	79.58
677.93	98.30
678.07	0.00
678.21	79.58
678.34	0.00
678.48	23.41
678.62	105.32
678.76	35.11
678.90	100.64
679.04	0.00
679.18	77.24
679.31	63.19
679.45	0.00
679.59	0.00
679.73	7.02
679.87	0.00
680.00	0.00
680.14	46.81
680.28	7.02
680.42	60.85
680.56	63.19
680.70	0.00
680.83	35.11
680.97	39.79
681.11	56.17
681.25	56.17
681.39	0.00
681.52	110.01
681.66	67.88
681.80	0.00
681.94	42.13
682.07	42.13
682.21	56.17
682.35	49.15
682.49	58.51
682.62	0.00
682.76	0.00
682.90	86.60
683.04	77.24
683.17	93.62
683.31	88.94
683.45	0.00
683.59	21.06
683.72	93.62
683.86	100.64
684.00	14.04
684.13	14.04
684.27	53.83
684.41	35.11
684.55	0.00
684.68	0.00
684.82	39.79
684.96	60.85
685.09	63.19
685.23	86.60
685.37	117.03
685.50	21.06
685.64	37.45
685.78	67.88
685.91	46.81
686.05	39.79
686.19	4.68
686.32	42.13
686.46	46.81
686.60	23.41
686.73	16.38
686.87	84.26
687.01	131.07
687.14	81.92
687.28	63.19
687.42	58.51
687.55	72.56
687.69	18.72
687.82	0.00
687.96	58.51
688.10	32.77
688.23	65.54
688.37	102.98
688.50	16.38
688.64	4.68
688.78	14.04
688.91	23.41
689.05	35.11
689.18	0.00
689.32	0.00
689.46	23.41
689.59	0.00
689.73	0.00
689.86	79.58
690.00	65.54
690.13	18.72
690.27	18.72
690.41	21.06
690.54	0.00
690.68	44.47
690.81	16.38
690.95	86.60
691.08	0.00
691.22	9.36
691.35	28.09
691.49	28.09
691.62	63.19
691.76	98.30
691.89	42.13
692.03	44.47
692.16	39.79
692.30	18.72
692.43	128.73
692.57	301.93
692.70	589.82
692.84	809.83
692.97	770.04
693.11	653.01
693.24	465.77
693.38	259.80
693.51	173.20
693.65	156.82
693.78	135.75
693.92	131.07
694.05	105.32
694.19	39.79
694.32	72.56
694.45	9.36
694.59	0.00
694.72	0.00
694.86	74.90
694.99	86.60
695.13	53.83
695.26	51.49
695.39	21.06
695.53	46.81
695.66	23.41
695.80	25.75
695.93	35.11
696.07	58.51
696.20	67.88
696.33	60.85
696.47	70.22
696.60	180.22
696.73	58.51
696.87	72.56
697.00	42.13
697.14	56.17
697.27	46.81
697.40	93.62
697.54	30.43
697.67	0.00
697.80	4.68
697.94	0.00
698.07	0.00
698.21	56.17
698.34	37.45
698.47	53.83
698.61	0.00
698.74	25.75
698.87	28.09
699.01	53.83
699.14	46.81
699.27	70.22
699.40	60.85
699.54	56.17
699.67	114.69
699.80	23.41
699.94	30.43
700.07	23.41
700.20	39.79
700.34	16.38
700.47	86.60
700.60	74.90
700.73	51.49
700.87	18.72
701.00	70.22
701.13	74.90
701.26	32.77
701.40	42.13
701.53	102.98
701.66	46.81
701.79	53.83
701.93	119.37
702.06	58.51
702.19	114.69
702.32	121.71
702.46	95.96
702.59	166.18
702.72	191.92
702.85	414.27
702.99	999.41
703.12	1481.56
703.25	1458.15
703.38	1380.92
703.51	1018.13
703.65	786.42
703.78	599.18
703.91	409.59
704.04	273.84
704.17	110.01
704.31	49.15
704.44	0.00
704.57	39.79
704.70	60.85
704.83	14.04
704.96	107.66
705.10	95.96
705.23	44.47
>>>>>End Processed Spectral Data<<<<<
