SpectraSuite Data File
++++++++++++++++++++++++++++++++++++
Date: Fri Oct 04 12:13:37 GMT-05:00 2013
User: price-jones
Dark Spectrum Present: No
Reference Spectrum Present: No
Number of Sampled Component Spectra: 1
Spectrometers: USB2+H05261
Integration Time (usec): 10000 (USB2+H05261)
Spectra Averaged: 1 (USB2+H05261)
Boxcar Smoothing: 0 (USB2+H05261)
Correct for Electrical Dark: No (USB2+H05261)
Strobe/Lamp Enabled: No (USB2+H05261)
Correct for Detector Non-linearity: No (USB2+H05261)
Correct for Stray Light: No (USB2+H05261)
Number of Pixels in Processed Spectrum: 2048
>>>>>Begin Processed Spectral Data<<<<<
365.73	0.00
365.92	0.00
366.12	0.00
366.32	0.00
366.52	0.00
366.72	0.00
366.91	0.00
367.11	0.00
367.31	0.00
367.51	0.00
367.70	0.00
367.90	0.00
368.10	0.00
368.30	0.00
368.49	0.00
368.69	0.00
368.89	0.00
369.09	0.00
369.28	0.00
369.48	0.00
369.68	0.00
369.87	0.00
370.07	0.00
370.27	0.00
370.47	0.00
370.66	0.00
370.86	0.00
371.06	0.00
371.25	0.00
371.45	0.00
371.65	0.00
371.84	0.00
372.04	18.72
372.24	18.72
372.44	77.24
372.63	23.41
372.83	60.85
373.03	21.06
373.22	72.56
373.42	98.30
373.62	67.88
373.81	0.00
374.01	23.41
374.21	16.38
374.40	88.94
374.60	107.66
374.79	72.56
374.99	16.38
375.19	0.00
375.38	44.47
375.58	32.77
375.78	28.09
375.97	0.00
376.17	51.49
376.37	28.09
376.56	51.49
376.76	39.79
376.95	0.00
377.15	35.11
377.35	63.19
377.54	0.00
377.74	49.15
377.93	88.94
378.13	117.03
378.33	37.45
378.52	23.41
378.72	23.41
378.91	0.00
379.11	39.79
379.31	30.43
379.50	0.00
379.70	0.00
379.89	53.83
380.09	44.47
380.28	30.43
380.48	67.88
380.68	72.56
380.87	14.04
381.07	0.00
381.26	25.75
381.46	65.54
381.65	51.49
381.85	2.34
382.04	0.00
382.24	88.94
382.43	0.00
382.63	0.00
382.83	0.00
383.02	0.00
383.22	46.81
383.41	0.00
383.61	84.26
383.80	14.04
384.00	0.00
384.19	7.02
384.39	28.09
384.58	0.00
384.78	0.00
384.97	39.79
385.17	35.11
385.36	4.68
385.56	0.00
385.75	18.72
385.95	60.85
386.14	0.00
386.34	30.43
386.53	70.22
386.72	65.54
386.92	0.00
387.11	28.09
387.31	46.81
387.50	0.00
387.70	0.00
387.89	42.13
388.09	51.49
388.28	0.00
388.48	0.00
388.67	16.38
388.86	46.81
389.06	9.36
389.25	14.04
389.45	0.00
389.64	46.81
389.84	4.68
390.03	44.47
390.22	46.81
390.42	11.70
390.61	2.34
390.81	44.47
391.00	0.00
391.19	37.45
391.39	53.83
391.58	0.00
391.78	0.00
391.97	2.34
392.16	21.06
392.36	49.15
392.55	0.00
392.75	11.70
392.94	51.49
393.13	100.64
393.33	49.15
393.52	60.85
393.71	49.15
393.91	0.00
394.10	42.13
394.29	0.00
394.49	0.00
394.68	0.00
394.88	4.68
395.07	23.41
395.26	28.09
395.46	58.51
395.65	44.47
395.84	84.26
396.04	93.62
396.23	88.94
396.42	56.17
396.62	67.88
396.81	9.36
397.00	0.00
397.19	11.70
397.39	11.70
397.58	60.85
397.77	60.85
397.97	46.81
398.16	2.34
398.35	72.56
398.55	23.41
398.74	16.38
398.93	42.13
399.12	67.88
399.32	105.32
399.51	58.51
399.70	53.83
399.90	0.00
400.09	0.00
400.28	70.22
400.47	30.43
400.67	0.00
400.86	56.17
401.05	53.83
401.24	28.09
401.44	0.00
401.63	121.71
401.82	95.96
402.01	28.09
402.21	58.51
402.40	16.38
402.59	32.77
402.78	84.26
402.97	51.49
403.17	0.00
403.36	51.49
403.55	30.43
403.74	74.90
403.93	30.43
404.13	30.43
404.32	0.00
404.51	79.58
404.70	65.54
404.89	4.68
405.09	23.41
405.28	0.00
405.47	0.00
405.66	37.45
405.85	91.28
406.05	0.00
406.24	0.00
406.43	0.00
406.62	88.94
406.81	51.49
407.00	79.58
407.20	35.11
407.39	4.68
407.58	72.56
407.77	46.81
407.96	18.72
408.15	23.41
408.34	18.72
408.54	30.43
408.73	124.05
408.92	63.19
409.11	16.38
409.30	16.38
409.49	51.49
409.68	0.00
409.87	51.49
410.07	58.51
410.26	60.85
410.45	14.04
410.64	0.00
410.83	86.60
411.02	65.54
411.21	7.02
411.40	42.13
411.59	0.00
411.78	35.11
411.98	67.88
412.17	11.70
412.36	107.66
412.55	23.41
412.74	0.00
412.93	49.15
413.12	46.81
413.31	95.96
413.50	58.51
413.69	65.54
413.88	0.00
414.07	37.45
414.26	0.00
414.45	46.81
414.64	74.90
414.83	72.56
415.02	14.04
415.22	42.13
415.41	95.96
415.60	93.62
415.79	0.00
415.98	23.41
416.17	0.00
416.36	23.41
416.55	0.00
416.74	25.75
416.93	112.35
417.12	63.19
417.31	107.66
417.50	16.38
417.69	16.38
417.88	23.41
418.07	14.04
418.26	37.45
418.45	56.17
418.64	28.09
418.83	84.26
419.02	37.45
419.21	16.38
419.39	117.03
419.58	0.00
419.77	0.00
419.96	65.54
420.15	53.83
420.34	28.09
420.53	58.51
420.72	126.39
420.91	74.90
421.10	154.48
421.29	0.00
421.48	60.85
421.67	77.24
421.86	0.00
422.05	28.09
422.24	102.98
422.43	53.83
422.61	58.51
422.80	67.88
422.99	58.51
423.18	74.90
423.37	107.66
423.56	74.90
423.75	119.37
423.94	114.69
424.13	32.77
424.32	30.43
424.50	49.15
424.69	93.62
424.88	18.72
425.07	42.13
425.26	49.15
425.45	72.56
425.64	107.66
425.83	21.06
426.01	67.88
426.20	81.92
426.39	53.83
426.58	72.56
426.77	49.15
426.96	37.45
427.15	100.64
427.33	0.00
427.52	37.45
427.71	51.49
427.90	49.15
428.09	37.45
428.28	23.41
428.46	49.15
428.65	70.22
428.84	16.38
429.03	28.09
429.22	0.00
429.40	58.51
429.59	21.06
429.78	37.45
429.97	42.13
430.16	0.00
430.34	86.60
430.53	53.83
430.72	0.00
430.91	72.56
431.10	74.90
431.28	110.01
431.47	95.96
431.66	100.64
431.85	107.66
432.03	32.77
432.22	53.83
432.41	42.13
432.60	32.77
432.79	72.56
432.97	14.04
433.16	51.49
433.35	39.79
433.54	32.77
433.72	0.00
433.91	58.51
434.10	81.92
434.28	51.49
434.47	11.70
434.66	14.04
434.85	18.72
435.03	35.11
435.22	65.54
435.41	81.92
435.59	86.60
435.78	37.45
435.97	44.47
436.16	65.54
436.34	2.34
436.53	39.79
436.72	67.88
436.90	81.92
437.09	44.47
437.28	56.17
437.46	7.02
437.65	60.85
437.84	88.94
438.02	56.17
438.21	28.09
438.40	91.28
438.58	28.09
438.77	67.88
438.96	42.13
439.14	84.26
439.33	65.54
439.52	70.22
439.70	65.54
439.89	77.24
440.08	56.17
440.26	98.30
440.45	0.00
440.63	67.88
440.82	30.43
441.01	14.04
441.19	16.38
441.38	0.00
441.57	0.00
441.75	60.85
441.94	23.41
442.12	46.81
442.31	23.41
442.50	30.43
442.68	91.28
442.87	39.79
443.05	37.45
443.24	67.88
443.43	0.00
443.61	30.43
443.80	86.60
443.98	56.17
444.17	81.92
444.35	51.49
444.54	23.41
444.73	128.73
444.91	86.60
445.10	107.66
445.28	79.58
445.47	0.00
445.65	91.28
445.84	72.56
446.02	79.58
446.21	53.83
446.39	35.11
446.58	9.36
446.77	79.58
446.95	39.79
447.14	16.38
447.32	0.00
447.51	100.64
447.69	51.49
447.88	49.15
448.06	95.96
448.25	14.04
448.43	74.90
448.62	72.56
448.80	114.69
448.99	16.38
449.17	128.73
449.36	35.11
449.54	37.45
449.73	53.83
449.91	84.26
450.10	0.00
450.28	0.00
450.46	175.54
450.65	63.19
450.83	9.36
451.02	0.00
451.20	56.17
451.39	0.00
451.57	51.49
451.76	56.17
451.94	30.43
452.13	32.77
452.31	46.81
452.49	9.36
452.68	0.00
452.86	32.77
453.05	93.62
453.23	0.00
453.42	0.00
453.60	0.00
453.78	46.81
453.97	14.04
454.15	39.79
454.34	86.60
454.52	128.73
454.70	112.35
454.89	49.15
455.07	39.79
455.26	18.72
455.44	100.64
455.62	39.79
455.81	74.90
455.99	58.51
456.17	58.51
456.36	60.85
456.54	74.90
456.73	72.56
456.91	74.90
457.09	79.58
457.28	63.19
457.46	102.98
457.64	117.03
457.83	84.26
458.01	46.81
458.19	63.19
458.38	44.47
458.56	44.47
458.74	58.51
458.93	77.24
459.11	65.54
459.29	2.34
459.48	56.17
459.66	67.88
459.84	67.88
460.03	46.81
460.21	46.81
460.39	21.06
460.57	98.30
460.76	18.72
460.94	11.70
461.12	2.34
461.31	88.94
461.49	117.03
461.67	84.26
461.85	63.19
462.04	53.83
462.22	140.43
462.40	72.56
462.59	0.00
462.77	98.30
462.95	46.81
463.13	86.60
463.32	121.71
463.50	60.85
463.68	70.22
463.86	0.00
464.05	11.70
464.23	91.28
464.41	30.43
464.59	28.09
464.78	67.88
464.96	58.51
465.14	42.13
465.32	60.85
465.50	63.19
465.69	44.47
465.87	58.51
466.05	0.00
466.23	63.19
466.41	44.47
466.60	0.00
466.78	58.51
466.96	21.06
467.14	0.00
467.32	58.51
467.51	46.81
467.69	86.60
467.87	114.69
468.05	133.41
468.23	86.60
468.41	32.77
468.60	84.26
468.78	93.62
468.96	117.03
469.14	58.51
469.32	0.00
469.50	102.98
469.69	110.01
469.87	95.96
470.05	42.13
470.23	86.60
470.41	0.00
470.59	110.01
470.77	39.79
470.95	105.32
471.14	49.15
471.32	28.09
471.50	53.83
471.68	60.85
471.86	65.54
472.04	35.11
472.22	51.49
472.40	88.94
472.58	0.00
472.77	7.02
472.95	0.00
473.13	0.00
473.31	0.00
473.49	131.07
473.67	56.17
473.85	79.58
474.03	98.30
474.21	98.30
474.39	63.19
474.57	77.24
474.75	42.13
474.93	74.90
475.12	149.79
475.30	70.22
475.48	112.35
475.66	91.28
475.84	28.09
476.02	65.54
476.20	117.03
476.38	79.58
476.56	124.05
476.74	65.54
476.92	49.15
477.10	18.72
477.28	16.38
477.46	107.66
477.64	53.83
477.82	100.64
478.00	35.11
478.18	44.47
478.36	135.75
478.54	107.66
478.72	53.83
478.90	60.85
479.08	46.81
479.26	0.00
479.44	81.92
479.62	152.13
479.80	25.75
479.98	60.85
480.16	135.75
480.34	70.22
480.52	35.11
480.70	4.68
480.88	35.11
481.06	21.06
481.24	60.85
481.41	53.83
481.59	46.81
481.77	86.60
481.95	74.90
482.13	74.90
482.31	53.83
482.49	23.41
482.67	25.75
482.85	152.13
483.03	42.13
483.21	63.19
483.39	56.17
483.57	117.03
483.74	91.28
483.92	177.88
484.10	35.11
484.28	119.37
484.46	131.07
484.64	42.13
484.82	93.62
485.00	67.88
485.18	72.56
485.35	91.28
485.53	16.38
485.71	18.72
485.89	65.54
486.07	63.19
486.25	35.11
486.43	0.00
486.61	46.81
486.78	70.22
486.96	88.94
487.14	93.62
487.32	11.70
487.50	25.75
487.68	126.39
487.85	42.13
488.03	95.96
488.21	35.11
488.39	124.05
488.57	70.22
488.75	70.22
488.92	126.39
489.10	11.70
489.28	51.49
489.46	21.06
489.64	114.69
489.81	53.83
489.99	98.30
490.17	77.24
490.35	58.51
490.53	86.60
490.70	93.62
490.88	65.54
491.06	72.56
491.24	79.58
491.41	39.79
491.59	49.15
491.77	42.13
491.95	28.09
492.13	56.17
492.30	72.56
492.48	35.11
492.66	70.22
492.84	35.11
493.01	65.54
493.19	124.05
493.37	131.07
493.54	107.66
493.72	39.79
493.90	93.62
494.08	65.54
494.25	110.01
494.43	74.90
494.61	110.01
494.79	93.62
494.96	84.26
495.14	175.54
495.32	0.00
495.49	58.51
495.67	124.05
495.85	77.24
496.02	88.94
496.20	119.37
496.38	18.72
496.55	21.06
496.73	60.85
496.91	88.94
497.09	46.81
497.26	65.54
497.44	112.35
497.62	110.01
497.79	63.19
497.97	77.24
498.14	21.06
498.32	44.47
498.50	93.62
498.67	58.51
498.85	81.92
499.03	21.06
499.20	95.96
499.38	81.92
499.56	56.17
499.73	140.43
499.91	88.94
500.08	98.30
500.26	0.00
500.44	65.54
500.61	79.58
500.79	65.54
500.97	65.54
501.14	67.88
501.32	98.30
501.49	72.56
501.67	65.54
501.84	81.92
502.02	23.41
502.20	105.32
502.37	107.66
502.55	100.64
502.72	93.62
502.90	79.58
503.07	63.19
503.25	74.90
503.43	86.60
503.60	149.79
503.78	63.19
503.95	60.85
504.13	37.45
504.30	70.22
504.48	72.56
504.65	56.17
504.83	44.47
505.01	63.19
505.18	135.75
505.36	117.03
505.53	117.03
505.71	84.26
505.88	67.88
506.06	79.58
506.23	140.43
506.41	79.58
506.58	81.92
506.76	114.69
506.93	14.04
507.11	70.22
507.28	110.01
507.46	53.83
507.63	63.19
507.81	56.17
507.98	67.88
508.16	25.75
508.33	121.71
508.50	53.83
508.68	114.69
508.85	53.83
509.03	110.01
509.20	124.05
509.38	53.83
509.55	51.49
509.73	81.92
509.90	93.62
510.08	77.24
510.25	79.58
510.42	42.13
510.60	93.62
510.77	81.92
510.95	72.56
511.12	39.79
511.30	105.32
511.47	2.34
511.64	79.58
511.82	98.30
511.99	23.41
512.17	119.37
512.34	86.60
512.51	74.90
512.69	65.54
512.86	131.07
513.04	67.88
513.21	107.66
513.38	7.02
513.56	60.85
513.73	32.77
513.90	63.19
514.08	86.60
514.25	107.66
514.43	51.49
514.60	93.62
514.77	84.26
514.95	39.79
515.12	91.28
515.29	112.35
515.47	35.11
515.64	102.98
515.81	77.24
515.99	86.60
516.16	46.81
516.33	105.32
516.51	72.56
516.68	49.15
516.85	7.02
517.03	126.39
517.20	72.56
517.37	63.19
517.54	72.56
517.72	58.51
517.89	42.13
518.06	63.19
518.24	107.66
518.41	53.83
518.58	63.19
518.75	128.73
518.93	98.30
519.10	117.03
519.27	60.85
519.45	35.11
519.62	56.17
519.79	56.17
519.96	63.19
520.14	79.58
520.31	53.83
520.48	67.88
520.65	16.38
520.83	49.15
521.00	74.90
521.17	105.32
521.34	112.35
521.52	102.98
521.69	91.28
521.86	58.51
522.03	98.30
522.20	60.85
522.38	107.66
522.55	91.28
522.72	105.32
522.89	84.26
523.07	49.15
523.24	60.85
523.41	72.56
523.58	126.39
523.75	102.98
523.92	63.19
524.10	93.62
524.27	56.17
524.44	44.47
524.61	11.70
524.78	46.81
524.96	70.22
525.13	86.60
525.30	81.92
525.47	107.66
525.64	42.13
525.81	95.96
525.98	35.11
526.16	25.75
526.33	98.30
526.50	30.43
526.67	74.90
526.84	56.17
527.01	58.51
527.18	117.03
527.36	53.83
527.53	91.28
527.70	138.09
527.87	124.05
528.04	100.64
528.21	95.96
528.38	128.73
528.55	63.19
528.72	107.66
528.89	67.88
529.07	65.54
529.24	102.98
529.41	60.85
529.58	79.58
529.75	102.98
529.92	72.56
530.09	126.39
530.26	110.01
530.43	93.62
530.60	95.96
530.77	60.85
530.94	107.66
531.11	74.90
531.28	18.72
531.46	35.11
531.63	110.01
531.80	95.96
531.97	95.96
532.14	77.24
532.31	142.77
532.48	114.69
532.65	53.83
532.82	112.35
532.99	102.98
533.16	95.96
533.33	138.09
533.50	105.32
533.67	65.54
533.84	77.24
534.01	37.45
534.18	0.00
534.35	102.98
534.52	156.82
534.69	105.32
534.86	39.79
535.03	49.15
535.20	88.94
535.37	9.36
535.54	74.90
535.71	49.15
535.88	77.24
536.05	88.94
536.22	77.24
536.38	95.96
536.55	110.01
536.72	72.56
536.89	67.88
537.06	81.92
537.23	63.19
537.40	67.88
537.57	140.43
537.74	102.98
537.91	67.88
538.08	46.81
538.25	53.83
538.42	79.58
538.59	39.79
538.75	114.69
538.92	37.45
539.09	93.62
539.26	121.71
539.43	88.94
539.60	58.51
539.77	163.84
539.94	37.45
540.11	135.75
540.28	110.01
540.44	114.69
540.61	0.00
540.78	18.72
540.95	23.41
541.12	98.30
541.29	112.35
541.46	107.66
541.62	119.37
541.79	114.69
541.96	145.11
542.13	67.88
542.30	117.03
542.47	74.90
542.63	138.09
542.80	145.11
542.97	74.90
543.14	102.98
543.31	0.00
543.48	30.43
543.64	39.79
543.81	112.35
543.98	56.17
544.15	14.04
544.32	70.22
544.48	56.17
544.65	44.47
544.82	49.15
544.99	77.24
545.16	93.62
545.32	91.28
545.49	74.90
545.66	168.52
545.83	117.03
546.00	70.22
546.16	4.68
546.33	100.64
546.50	72.56
546.67	72.56
546.83	72.56
547.00	60.85
547.17	95.96
547.34	77.24
547.50	93.62
547.67	44.47
547.84	102.98
548.00	112.35
548.17	133.41
548.34	142.77
548.51	72.56
548.67	56.17
548.84	91.28
549.01	0.00
549.18	70.22
549.34	65.54
549.51	93.62
549.68	110.01
549.84	65.54
550.01	46.81
550.18	154.48
550.34	149.79
550.51	74.90
550.68	84.26
550.84	93.62
551.01	128.73
551.18	110.01
551.34	102.98
551.51	102.98
551.68	77.24
551.84	74.90
552.01	121.71
552.18	98.30
552.34	93.62
552.51	84.26
552.68	53.83
552.84	65.54
553.01	28.09
553.18	9.36
553.34	84.26
553.51	86.60
553.67	60.85
553.84	77.24
554.01	124.05
554.17	70.22
554.34	88.94
554.51	126.39
554.67	65.54
554.84	39.79
555.00	88.94
555.17	98.30
555.33	88.94
555.50	53.83
555.67	32.77
555.83	95.96
556.00	42.13
556.16	154.48
556.33	46.81
556.50	81.92
556.66	0.00
556.83	67.88
556.99	51.49
557.16	77.24
557.32	166.18
557.49	9.36
557.65	128.73
557.82	119.37
557.98	77.24
558.15	37.45
558.32	37.45
558.48	93.62
558.65	70.22
558.81	93.62
558.98	98.30
559.14	0.00
559.31	102.98
559.47	67.88
559.64	79.58
559.80	84.26
559.97	117.03
560.13	65.54
560.30	49.15
560.46	124.05
560.63	124.05
560.79	51.49
560.96	79.58
561.12	77.24
561.29	30.43
561.45	51.49
561.61	32.77
561.78	100.64
561.94	53.83
562.11	166.18
562.27	93.62
562.44	93.62
562.60	49.15
562.77	53.83
562.93	74.90
563.10	51.49
563.26	119.37
563.42	44.47
563.59	46.81
563.75	77.24
563.92	72.56
564.08	51.49
564.24	46.81
564.41	65.54
564.57	98.30
564.74	63.19
564.90	105.32
565.07	105.32
565.23	140.43
565.39	100.64
565.56	168.52
565.72	60.85
565.88	81.92
566.05	42.13
566.21	110.01
566.38	93.62
566.54	84.26
566.70	58.51
566.87	145.11
567.03	119.37
567.19	56.17
567.36	105.32
567.52	100.64
567.68	128.73
567.85	91.28
568.01	46.81
568.17	67.88
568.34	77.24
568.50	107.66
568.66	39.79
568.83	98.30
568.99	142.77
569.15	67.88
569.32	4.68
569.48	60.85
569.64	70.22
569.81	35.11
569.97	93.62
570.13	53.83
570.30	46.81
570.46	135.75
570.62	18.72
570.78	44.47
570.95	102.98
571.11	30.43
571.27	0.00
571.43	67.88
571.60	93.62
571.76	32.77
571.92	79.58
572.09	107.66
572.25	121.71
572.41	28.09
572.57	112.35
572.74	18.72
572.90	107.66
573.06	46.81
573.22	95.96
573.38	51.49
573.55	126.39
573.71	98.30
573.87	95.96
574.03	81.92
574.20	23.41
574.36	91.28
574.52	93.62
574.68	70.22
574.84	161.50
575.01	100.64
575.17	21.06
575.33	112.35
575.49	119.37
575.65	105.32
575.82	112.35
575.98	4.68
576.14	105.32
576.30	98.30
576.46	51.49
576.62	42.13
576.79	84.26
576.95	35.11
577.11	117.03
577.27	84.26
577.43	0.00
577.59	88.94
577.75	28.09
577.92	100.64
578.08	112.35
578.24	53.83
578.40	11.70
578.56	154.48
578.72	30.43
578.88	105.32
579.04	173.20
579.21	110.01
579.37	88.94
579.53	53.83
579.69	173.20
579.85	126.39
580.01	77.24
580.17	140.43
580.33	60.85
580.49	53.83
580.65	126.39
580.82	84.26
580.98	74.90
581.14	25.75
581.30	100.64
581.46	124.05
581.62	51.49
581.78	102.98
581.94	65.54
582.10	16.38
582.26	53.83
582.42	107.66
582.58	58.51
582.74	35.11
582.90	102.98
583.06	56.17
583.22	63.19
583.38	2.34
583.54	98.30
583.70	121.71
583.86	107.66
584.02	58.51
584.18	23.41
584.34	25.75
584.50	0.00
584.66	81.92
584.82	81.92
584.98	51.49
585.14	23.41
585.30	37.45
585.46	147.45
585.62	95.96
585.78	70.22
585.94	95.96
586.10	105.32
586.26	100.64
586.42	86.60
586.58	28.09
586.74	121.71
586.90	65.54
587.06	110.01
587.22	67.88
587.38	58.51
587.54	72.56
587.70	11.70
587.86	70.22
588.02	56.17
588.18	70.22
588.34	58.51
588.49	56.17
588.65	140.43
588.81	42.13
588.97	98.30
589.13	63.19
589.29	11.70
589.45	63.19
589.61	98.30
589.77	39.79
589.93	46.81
590.08	7.02
590.24	35.11
590.40	21.06
590.56	49.15
590.72	98.30
590.88	23.41
591.04	56.17
591.20	79.58
591.35	63.19
591.51	49.15
591.67	100.64
591.83	60.85
591.99	14.04
592.15	81.92
592.31	124.05
592.46	0.00
592.62	81.92
592.78	30.43
592.94	51.49
593.10	81.92
593.26	37.45
593.41	77.24
593.57	63.19
593.73	14.04
593.89	49.15
594.05	86.60
594.20	44.47
594.36	51.49
594.52	91.28
594.68	18.72
594.84	79.58
594.99	105.32
595.15	102.98
595.31	56.17
595.47	100.64
595.62	37.45
595.78	67.88
595.94	72.56
596.10	56.17
596.25	95.96
596.41	105.32
596.57	53.83
596.73	70.22
596.88	23.41
597.04	35.11
597.20	65.54
597.36	51.49
597.51	105.32
597.67	70.22
597.83	32.77
597.99	35.11
598.14	86.60
598.30	100.64
598.46	39.79
598.61	30.43
598.77	35.11
598.93	98.30
599.09	39.79
599.24	102.98
599.40	79.58
599.56	91.28
599.71	100.64
599.87	70.22
600.03	124.05
600.18	53.83
600.34	128.73
600.50	98.30
600.65	63.19
600.81	37.45
600.97	67.88
601.12	117.03
601.28	65.54
601.44	74.90
601.59	28.09
601.75	56.17
601.91	98.30
602.06	58.51
602.22	28.09
602.37	138.09
602.53	4.68
602.69	72.56
602.84	100.64
603.00	86.60
603.16	84.26
603.31	23.41
603.47	126.39
603.62	100.64
603.78	133.41
603.94	102.98
604.09	58.51
604.25	14.04
604.40	65.54
604.56	74.90
604.71	49.15
604.87	58.51
605.03	140.43
605.18	124.05
605.34	72.56
605.49	65.54
605.65	88.94
605.80	121.71
605.96	42.13
606.12	77.24
606.27	46.81
606.43	4.68
606.58	58.51
606.74	46.81
606.89	86.60
607.05	91.28
607.20	44.47
607.36	117.03
607.51	135.75
607.67	44.47
607.82	117.03
607.98	74.90
608.13	60.85
608.29	65.54
608.44	163.84
608.60	107.66
608.75	44.47
608.91	42.13
609.06	67.88
609.22	100.64
609.37	0.00
609.53	49.15
609.68	56.17
609.84	67.88
609.99	21.06
610.15	60.85
610.30	79.58
610.46	0.00
610.61	88.94
610.76	37.45
610.92	37.45
611.07	63.19
611.23	135.75
611.38	117.03
611.54	77.24
611.69	112.35
611.84	77.24
612.00	58.51
612.15	63.19
612.31	91.28
612.46	51.49
612.62	56.17
612.77	86.60
612.92	0.00
613.08	81.92
613.23	114.69
613.39	58.51
613.54	79.58
613.69	4.68
613.85	65.54
614.00	72.56
614.15	60.85
614.31	21.06
614.46	86.60
614.62	14.04
614.77	79.58
614.92	81.92
615.08	51.49
615.23	60.85
615.38	81.92
615.54	16.38
615.69	70.22
615.84	35.11
616.00	67.88
616.15	44.47
616.30	32.77
616.46	74.90
616.61	70.22
616.76	70.22
616.92	25.75
617.07	46.81
617.22	88.94
617.37	86.60
617.53	32.77
617.68	30.43
617.83	46.81
617.99	39.79
618.14	42.13
618.29	0.00
618.45	51.49
618.60	102.98
618.75	65.54
618.90	93.62
619.06	2.34
619.21	25.75
619.36	74.90
619.51	114.69
619.67	65.54
619.82	147.45
619.97	51.49
620.12	60.85
620.28	51.49
620.43	65.54
620.58	42.13
620.73	126.39
620.89	25.75
621.04	86.60
621.19	91.28
621.34	16.38
621.49	100.64
621.65	175.54
621.80	93.62
621.95	35.11
622.10	46.81
622.25	63.19
622.41	51.49
622.56	88.94
622.71	14.04
622.86	53.83
623.01	42.13
623.16	72.56
623.32	72.56
623.47	37.45
623.62	102.98
623.77	46.81
623.92	32.77
624.07	105.32
624.23	58.51
624.38	88.94
624.53	88.94
624.68	65.54
624.83	60.85
624.98	58.51
625.13	79.58
625.29	88.94
625.44	11.70
625.59	56.17
625.74	112.35
625.89	81.92
626.04	42.13
626.19	81.92
626.34	142.77
626.49	58.51
626.65	93.62
626.80	42.13
626.95	107.66
627.10	37.45
627.25	35.11
627.40	25.75
627.55	63.19
627.70	0.00
627.85	77.24
628.00	95.96
628.15	51.49
628.30	88.94
628.45	49.15
628.60	107.66
628.76	67.88
628.91	35.11
629.06	63.19
629.21	88.94
629.36	30.43
629.51	44.47
629.66	79.58
629.81	53.83
629.96	30.43
630.11	84.26
630.26	74.90
630.41	21.06
630.56	140.43
630.71	51.49
630.86	30.43
631.01	67.88
631.16	32.77
631.31	56.17
631.46	49.15
631.61	46.81
631.76	70.22
631.91	35.11
632.06	72.56
632.21	77.24
632.36	4.68
632.51	131.07
632.66	53.83
632.81	77.24
632.96	49.15
633.10	98.30
633.25	95.96
633.40	74.90
633.55	93.62
633.70	7.02
633.85	84.26
634.00	74.90
634.15	39.79
634.30	21.06
634.45	53.83
634.60	114.69
634.75	44.47
634.90	86.60
635.05	35.11
635.19	77.24
635.34	110.01
635.49	84.26
635.64	70.22
635.79	32.77
635.94	95.96
636.09	79.58
636.24	105.32
636.39	95.96
636.53	18.72
636.68	81.92
636.83	7.02
636.98	0.00
637.13	7.02
637.28	11.70
637.43	91.28
637.57	74.90
637.72	44.47
637.87	81.92
638.02	32.77
638.17	88.94
638.32	37.45
638.46	51.49
638.61	14.04
638.76	0.00
638.91	79.58
639.06	4.68
639.20	72.56
639.35	23.41
639.50	131.07
639.65	14.04
639.80	107.66
639.94	67.88
640.09	58.51
640.24	46.81
640.39	28.09
640.54	98.30
640.68	74.90
640.83	23.41
640.98	93.62
641.13	67.88
641.27	84.26
641.42	70.22
641.57	110.01
641.72	0.00
641.86	42.13
642.01	98.30
642.16	0.00
642.31	74.90
642.45	42.13
642.60	100.64
642.75	51.49
642.90	60.85
643.04	56.17
643.19	35.11
643.34	21.06
643.48	81.92
643.63	107.66
643.78	84.26
643.93	16.38
644.07	67.88
644.22	39.79
644.37	67.88
644.51	91.28
644.66	0.00
644.81	46.81
644.95	0.00
645.10	51.49
645.25	28.09
645.39	60.85
645.54	46.81
645.69	18.72
645.83	98.30
645.98	70.22
646.13	70.22
646.27	91.28
646.42	0.00
646.57	0.00
646.71	60.85
646.86	51.49
647.00	49.15
647.15	102.98
647.30	58.51
647.44	112.35
647.59	0.00
647.74	21.06
647.88	65.54
648.03	56.17
648.17	49.15
648.32	77.24
648.47	98.30
648.61	60.85
648.76	131.07
648.90	91.28
649.05	110.01
649.20	105.32
649.34	42.13
649.49	42.13
649.63	44.47
649.78	91.28
649.92	60.85
650.07	58.51
650.21	65.54
650.36	81.92
650.51	95.96
650.65	39.79
650.80	28.09
650.94	0.00
651.09	25.75
651.23	60.85
651.38	100.64
651.52	35.11
651.67	51.49
651.81	60.85
651.96	95.96
652.10	39.79
652.25	25.75
652.39	0.00
652.54	58.51
652.68	74.90
652.83	37.45
652.97	28.09
653.12	77.24
653.26	98.30
653.41	124.05
653.55	42.13
653.70	81.92
653.84	21.06
653.99	58.51
654.13	65.54
654.27	107.66
654.42	28.09
654.56	65.54
654.71	56.17
654.85	35.11
655.00	72.56
655.14	0.00
655.29	42.13
655.43	23.41
655.57	0.00
655.72	4.68
655.86	102.98
656.01	21.06
656.15	60.85
656.30	0.00
656.44	0.00
656.58	46.81
656.73	37.45
656.87	53.83
657.01	0.00
657.16	0.00
657.30	0.00
657.45	0.00
657.59	93.62
657.73	81.92
657.88	95.96
658.02	142.77
658.16	114.69
658.31	0.00
658.45	107.66
658.60	42.13
658.74	60.85
658.88	23.41
659.03	42.13
659.17	0.00
659.31	30.43
659.46	79.58
659.60	23.41
659.74	0.00
659.89	105.32
660.03	58.51
660.17	49.15
660.32	72.56
660.46	39.79
660.60	37.45
660.74	58.51
660.89	107.66
661.03	126.39
661.17	56.17
661.32	0.00
661.46	88.94
661.60	70.22
661.74	133.41
661.89	79.58
662.03	0.00
662.17	30.43
662.31	72.56
662.46	11.70
662.60	67.88
662.74	74.90
662.88	63.19
663.03	63.19
663.17	70.22
663.31	88.94
663.45	72.56
663.60	9.36
663.74	60.85
663.88	58.51
664.02	23.41
664.17	91.28
664.31	37.45
664.45	98.30
664.59	39.79
664.73	0.00
664.88	0.00
665.02	21.06
665.16	46.81
665.30	32.77
665.44	28.09
665.59	37.45
665.73	79.58
665.87	37.45
666.01	102.98
666.15	98.30
666.29	7.02
666.44	70.22
666.58	95.96
666.72	21.06
666.86	63.19
667.00	32.77
667.14	49.15
667.28	95.96
667.43	51.49
667.57	67.88
667.71	0.00
667.85	28.09
667.99	77.24
668.13	42.13
668.27	60.85
668.41	98.30
668.56	117.03
668.70	84.26
668.84	21.06
668.98	67.88
669.12	56.17
669.26	39.79
669.40	25.75
669.54	67.88
669.68	60.85
669.82	81.92
669.96	86.60
670.10	9.36
670.25	25.75
670.39	28.09
670.53	4.68
670.67	60.85
670.81	67.88
670.95	77.24
671.09	4.68
671.23	86.60
671.37	9.36
671.51	35.11
671.65	49.15
671.79	21.06
671.93	93.62
672.07	11.70
672.21	0.00
672.35	159.16
672.49	0.00
672.63	67.88
672.77	7.02
672.91	79.58
673.05	25.75
673.19	32.77
673.33	0.00
673.47	53.83
673.61	42.13
673.75	46.81
673.89	95.96
674.03	7.02
674.17	65.54
674.31	0.00
674.45	63.19
674.59	37.45
674.73	98.30
674.87	44.47
675.01	51.49
675.15	60.85
675.29	14.04
675.43	100.64
675.56	79.58
675.70	79.58
675.84	56.17
675.98	44.47
676.12	32.77
676.26	86.60
676.40	53.83
676.54	7.02
676.68	30.43
676.82	117.03
676.96	124.05
677.10	60.85
677.23	84.26
677.37	37.45
677.51	0.00
677.65	135.75
677.79	93.62
677.93	39.79
678.07	9.36
678.21	0.00
678.34	9.36
678.48	0.00
678.62	46.81
678.76	72.56
678.90	42.13
679.04	35.11
679.18	56.17
679.31	18.72
679.45	0.00
679.59	0.00
679.73	49.15
679.87	28.09
680.00	53.83
680.14	81.92
680.28	88.94
680.42	32.77
680.56	39.79
680.70	42.13
680.83	35.11
680.97	16.38
681.11	67.88
681.25	126.39
681.39	23.41
681.52	0.00
681.66	51.49
681.80	7.02
681.94	4.68
682.07	21.06
682.21	58.51
682.35	117.03
682.49	53.83
682.62	56.17
682.76	16.38
682.90	44.47
683.04	28.09
683.17	25.75
683.31	25.75
683.45	28.09
683.59	72.56
683.72	28.09
683.86	93.62
684.00	56.17
684.13	0.00
684.27	63.19
684.41	49.15
684.55	77.24
684.68	58.51
684.82	65.54
684.96	84.26
685.09	112.35
685.23	18.72
685.37	4.68
685.50	74.90
685.64	37.45
685.78	49.15
685.91	18.72
686.05	70.22
686.19	70.22
686.32	70.22
686.46	14.04
686.60	117.03
686.73	84.26
686.87	35.11
687.01	88.94
687.14	65.54
687.28	0.00
687.42	56.17
687.55	112.35
687.69	35.11
687.82	0.00
687.96	0.00
688.10	11.70
688.23	23.41
688.37	11.70
688.50	16.38
688.64	91.28
688.78	138.09
688.91	42.13
689.05	102.98
689.18	11.70
689.32	21.06
689.46	100.64
689.59	25.75
689.73	67.88
689.86	65.54
690.00	18.72
690.13	0.00
690.27	4.68
690.41	70.22
690.54	74.90
690.68	18.72
690.81	49.15
690.95	11.70
691.08	0.00
691.22	0.00
691.35	110.01
691.49	28.09
691.62	30.43
691.76	42.13
691.89	28.09
692.03	39.79
692.16	81.92
692.30	16.38
692.43	70.22
692.57	46.81
692.70	2.34
692.84	30.43
692.97	0.00
693.11	58.51
693.24	14.04
693.38	0.00
693.51	0.00
693.65	0.00
693.78	4.68
693.92	37.45
694.05	72.56
694.19	60.85
694.32	16.38
694.45	7.02
694.59	14.04
694.72	84.26
694.86	88.94
694.99	0.00
695.13	51.49
695.26	30.43
695.39	74.90
695.53	91.28
695.66	23.41
695.80	58.51
695.93	37.45
696.07	65.54
696.20	18.72
696.33	72.56
696.47	0.00
696.60	74.90
696.73	25.75
696.87	0.00
697.00	126.39
697.14	100.64
697.27	79.58
697.40	124.05
697.54	44.47
697.67	39.79
697.80	4.68
697.94	88.94
698.07	60.85
698.21	30.43
698.34	44.47
698.47	0.00
698.61	0.00
698.74	2.34
698.87	0.00
699.01	39.79
699.14	60.85
699.27	0.00
699.40	39.79
699.54	14.04
699.67	53.83
699.80	138.09
699.94	0.00
700.07	63.19
700.20	32.77
700.34	98.30
700.47	81.92
700.60	9.36
700.73	56.17
700.87	72.56
701.00	0.00
701.13	65.54
701.26	49.15
701.40	58.51
701.53	0.00
701.66	37.45
701.79	72.56
701.93	14.04
702.06	7.02
702.19	7.02
702.32	74.90
702.46	9.36
702.59	39.79
702.72	32.77
702.85	23.41
702.99	0.00
703.12	51.49
703.25	44.47
703.38	56.17
703.51	23.41
703.65	102.98
703.78	32.77
703.91	7.02
704.04	60.85
704.17	35.11
704.31	79.58
704.44	49.15
704.57	14.04
704.70	91.28
704.83	4.68
704.96	77.24
705.10	49.15
705.23	2.34
>>>>>End Processed Spectral Data<<<<<
