SpectraSuite Data File
++++++++++++++++++++++++++++++++++++
Date: Fri Oct 04 12:13:33 GMT-05:00 2013
User: price-jones
Dark Spectrum Present: No
Reference Spectrum Present: No
Number of Sampled Component Spectra: 1
Spectrometers: USB2+H05261
Integration Time (usec): 10000 (USB2+H05261)
Spectra Averaged: 1 (USB2+H05261)
Boxcar Smoothing: 0 (USB2+H05261)
Correct for Electrical Dark: No (USB2+H05261)
Strobe/Lamp Enabled: No (USB2+H05261)
Correct for Detector Non-linearity: No (USB2+H05261)
Correct for Stray Light: No (USB2+H05261)
Number of Pixels in Processed Spectrum: 2048
>>>>>Begin Processed Spectral Data<<<<<
365.73	79.58
365.92	79.58
366.12	79.58
366.32	0.00
366.52	0.00
366.72	0.00
366.91	0.00
367.11	0.00
367.31	0.00
367.51	0.00
367.70	0.00
367.90	0.00
368.10	0.00
368.30	0.00
368.49	0.00
368.69	0.00
368.89	0.00
369.09	0.00
369.28	0.00
369.48	0.00
369.68	0.00
369.87	0.00
370.07	0.00
370.27	0.00
370.47	0.00
370.66	0.00
370.86	0.00
371.06	0.00
371.25	0.00
371.45	4.68
371.65	0.00
371.84	0.00
372.04	28.09
372.24	32.77
372.44	11.70
372.63	0.00
372.83	32.77
373.03	53.83
373.22	21.06
373.42	84.26
373.62	28.09
373.81	9.36
374.01	7.02
374.21	0.00
374.40	84.26
374.60	56.17
374.79	0.00
374.99	67.88
375.19	74.90
375.38	0.00
375.58	51.49
375.78	86.60
375.97	46.81
376.17	70.22
376.37	0.00
376.56	21.06
376.76	30.43
376.95	11.70
377.15	32.77
377.35	0.00
377.54	49.15
377.74	51.49
377.93	32.77
378.13	67.88
378.33	9.36
378.52	9.36
378.72	0.00
378.91	46.81
379.11	88.94
379.31	0.00
379.50	30.43
379.70	18.72
379.89	21.06
380.09	14.04
380.28	32.77
380.48	7.02
380.68	28.09
380.87	7.02
381.07	4.68
381.26	28.09
381.46	0.00
381.65	18.72
381.85	16.38
382.04	21.06
382.24	51.49
382.43	0.00
382.63	58.51
382.83	4.68
383.02	107.66
383.22	70.22
383.41	46.81
383.61	7.02
383.80	0.00
384.00	0.00
384.19	53.83
384.39	21.06
384.58	37.45
384.78	30.43
384.97	0.00
385.17	0.00
385.36	16.38
385.56	16.38
385.75	0.00
385.95	0.00
386.14	42.13
386.34	0.00
386.53	25.75
386.72	65.54
386.92	23.41
387.11	32.77
387.31	53.83
387.50	37.45
387.70	44.47
387.89	0.00
388.09	0.00
388.28	65.54
388.48	25.75
388.67	18.72
388.86	0.00
389.06	44.47
389.25	51.49
389.45	0.00
389.64	72.56
389.84	9.36
390.03	0.00
390.22	0.00
390.42	74.90
390.61	0.00
390.81	0.00
391.00	0.00
391.19	0.00
391.39	0.00
391.58	60.85
391.78	9.36
391.97	56.17
392.16	37.45
392.36	0.00
392.55	88.94
392.75	39.79
392.94	86.60
393.13	21.06
393.33	63.19
393.52	28.09
393.71	9.36
393.91	91.28
394.10	49.15
394.29	51.49
394.49	7.02
394.68	28.09
394.88	56.17
395.07	11.70
395.26	42.13
395.46	0.00
395.65	67.88
395.84	0.00
396.04	0.00
396.23	2.34
396.42	74.90
396.62	0.00
396.81	44.47
397.00	0.00
397.19	21.06
397.39	44.47
397.58	4.68
397.77	7.02
397.97	9.36
398.16	65.54
398.35	49.15
398.55	32.77
398.74	77.24
398.93	56.17
399.12	14.04
399.32	18.72
399.51	58.51
399.70	51.49
399.90	0.00
400.09	32.77
400.28	25.75
400.47	74.90
400.67	74.90
400.86	16.38
401.05	35.11
401.24	2.34
401.44	0.00
401.63	14.04
401.82	0.00
402.01	32.77
402.21	16.38
402.40	0.00
402.59	0.00
402.78	0.00
402.97	28.09
403.17	58.51
403.36	21.06
403.55	0.00
403.74	2.34
403.93	0.00
404.13	11.70
404.32	32.77
404.51	32.77
404.70	46.81
404.89	49.15
405.09	84.26
405.28	23.41
405.47	51.49
405.66	0.00
405.85	84.26
406.05	0.00
406.24	0.00
406.43	49.15
406.62	0.00
406.81	63.19
407.00	0.00
407.20	39.79
407.39	65.54
407.58	56.17
407.77	4.68
407.96	0.00
408.15	84.26
408.34	0.00
408.54	23.41
408.73	21.06
408.92	30.43
409.11	23.41
409.30	0.00
409.49	81.92
409.68	42.13
409.87	28.09
410.07	16.38
410.26	23.41
410.45	14.04
410.64	81.92
410.83	0.00
411.02	11.70
411.21	70.22
411.40	0.00
411.59	2.34
411.78	51.49
411.98	23.41
412.17	25.75
412.36	51.49
412.55	0.00
412.74	0.00
412.93	18.72
413.12	14.04
413.31	2.34
413.50	0.00
413.69	2.34
413.88	0.00
414.07	0.00
414.26	28.09
414.45	30.43
414.64	88.94
414.83	30.43
415.02	39.79
415.22	21.06
415.41	37.45
415.60	79.58
415.79	39.79
415.98	32.77
416.17	0.00
416.36	23.41
416.55	0.00
416.74	0.00
416.93	7.02
417.12	16.38
417.31	0.00
417.50	44.47
417.69	39.79
417.88	46.81
418.07	53.83
418.26	0.00
418.45	0.00
418.64	35.11
418.83	35.11
419.02	56.17
419.21	44.47
419.39	77.24
419.58	14.04
419.77	72.56
419.96	39.79
420.15	2.34
420.34	28.09
420.53	28.09
420.72	4.68
420.91	0.00
421.10	18.72
421.29	9.36
421.48	23.41
421.67	37.45
421.86	58.51
422.05	0.00
422.24	60.85
422.43	79.58
422.61	14.04
422.80	44.47
422.99	14.04
423.18	18.72
423.37	35.11
423.56	74.90
423.75	0.00
423.94	23.41
424.13	23.41
424.32	28.09
424.50	77.24
424.69	63.19
424.88	9.36
425.07	84.26
425.26	51.49
425.45	0.00
425.64	63.19
425.83	46.81
426.01	0.00
426.20	35.11
426.39	28.09
426.58	2.34
426.77	23.41
426.96	0.00
427.15	53.83
427.33	112.35
427.52	30.43
427.71	65.54
427.90	21.06
428.09	77.24
428.28	46.81
428.46	0.00
428.65	79.58
428.84	21.06
429.03	2.34
429.22	16.38
429.40	67.88
429.59	0.00
429.78	95.96
429.97	56.17
430.16	0.00
430.34	58.51
430.53	67.88
430.72	18.72
430.91	16.38
431.10	23.41
431.28	21.06
431.47	63.19
431.66	28.09
431.85	70.22
432.03	0.00
432.22	18.72
432.41	14.04
432.60	65.54
432.79	0.00
432.97	0.00
433.16	58.51
433.35	18.72
433.54	4.68
433.72	14.04
433.91	77.24
434.10	0.00
434.28	74.90
434.47	70.22
434.66	18.72
434.85	0.00
435.03	16.38
435.22	98.30
435.41	4.68
435.59	35.11
435.78	0.00
435.97	84.26
436.16	65.54
436.34	63.19
436.53	0.00
436.72	9.36
436.90	37.45
437.09	7.02
437.28	9.36
437.46	0.00
437.65	28.09
437.84	35.11
438.02	42.13
438.21	0.00
438.40	70.22
438.58	0.00
438.77	37.45
438.96	44.47
439.14	46.81
439.33	18.72
439.52	30.43
439.70	18.72
439.89	0.00
440.08	2.34
440.26	56.17
440.45	0.00
440.63	25.75
440.82	14.04
441.01	63.19
441.19	79.58
441.38	100.64
441.57	4.68
441.75	28.09
441.94	11.70
442.12	46.81
442.31	14.04
442.50	14.04
442.68	37.45
442.87	65.54
443.05	46.81
443.24	0.00
443.43	46.81
443.61	91.28
443.80	65.54
443.98	63.19
444.17	79.58
444.35	51.49
444.54	16.38
444.73	42.13
444.91	30.43
445.10	51.49
445.28	44.47
445.47	60.85
445.65	0.00
445.84	39.79
446.02	35.11
446.21	28.09
446.39	35.11
446.58	16.38
446.77	25.75
446.95	51.49
447.14	105.32
447.32	0.00
447.51	0.00
447.69	44.47
447.88	84.26
448.06	91.28
448.25	9.36
448.43	0.00
448.62	0.00
448.80	0.00
448.99	0.00
449.17	91.28
449.36	72.56
449.54	4.68
449.73	53.83
449.91	16.38
450.10	9.36
450.28	0.00
450.46	39.79
450.65	63.19
450.83	100.64
451.02	0.00
451.20	9.36
451.39	42.13
451.57	74.90
451.76	0.00
451.94	11.70
452.13	14.04
452.31	91.28
452.49	107.66
452.68	49.15
452.86	9.36
453.05	63.19
453.23	9.36
453.42	28.09
453.60	32.77
453.78	84.26
453.97	79.58
454.15	0.00
454.34	72.56
454.52	7.02
454.70	32.77
454.89	25.75
455.07	51.49
455.26	28.09
455.44	42.13
455.62	4.68
455.81	28.09
455.99	0.00
456.17	35.11
456.36	21.06
456.54	63.19
456.73	65.54
456.91	23.41
457.09	65.54
457.28	25.75
457.46	16.38
457.64	23.41
457.83	105.32
458.01	4.68
458.19	100.64
458.38	0.00
458.56	32.77
458.74	0.00
458.93	7.02
459.11	53.83
459.29	63.19
459.48	74.90
459.66	77.24
459.84	0.00
460.03	18.72
460.21	124.05
460.39	23.41
460.57	100.64
460.76	18.72
460.94	81.92
461.12	79.58
461.31	0.00
461.49	0.00
461.67	18.72
461.85	35.11
462.04	39.79
462.22	42.13
462.40	81.92
462.59	60.85
462.77	23.41
462.95	51.49
463.13	60.85
463.32	53.83
463.50	28.09
463.68	53.83
463.86	51.49
464.05	46.81
464.23	53.83
464.41	28.09
464.59	88.94
464.78	42.13
464.96	91.28
465.14	84.26
465.32	70.22
465.50	11.70
465.69	14.04
465.87	11.70
466.05	63.19
466.23	42.13
466.41	7.02
466.60	42.13
466.78	95.96
466.96	28.09
467.14	0.00
467.32	79.58
467.51	18.72
467.69	2.34
467.87	35.11
468.05	63.19
468.23	51.49
468.41	74.90
468.60	91.28
468.78	16.38
468.96	0.00
469.14	7.02
469.32	39.79
469.50	30.43
469.69	56.17
469.87	37.45
470.05	0.00
470.23	58.51
470.41	100.64
470.59	0.00
470.77	74.90
470.95	63.19
471.14	0.00
471.32	18.72
471.50	81.92
471.68	28.09
471.86	93.62
472.04	16.38
472.22	84.26
472.40	32.77
472.58	32.77
472.77	79.58
472.95	37.45
473.13	16.38
473.31	0.00
473.49	0.00
473.67	21.06
473.85	0.00
474.03	37.45
474.21	0.00
474.39	77.24
474.57	56.17
474.75	81.92
474.93	0.00
475.12	72.56
475.30	32.77
475.48	0.00
475.66	58.51
475.84	79.58
476.02	14.04
476.20	58.51
476.38	25.75
476.56	77.24
476.74	11.70
476.92	74.90
477.10	39.79
477.28	46.81
477.46	0.00
477.64	46.81
477.82	70.22
478.00	23.41
478.18	18.72
478.36	51.49
478.54	79.58
478.72	16.38
478.90	28.09
479.08	81.92
479.26	131.07
479.44	25.75
479.62	72.56
479.80	42.13
479.98	25.75
480.16	46.81
480.34	0.00
480.52	23.41
480.70	0.00
480.88	46.81
481.06	91.28
481.24	58.51
481.41	11.70
481.59	21.06
481.77	14.04
481.95	0.00
482.13	84.26
482.31	0.00
482.49	67.88
482.67	91.28
482.85	121.71
483.03	37.45
483.21	63.19
483.39	14.04
483.57	28.09
483.74	42.13
483.92	32.77
484.10	35.11
484.28	51.49
484.46	58.51
484.64	67.88
484.82	91.28
485.00	0.00
485.18	121.71
485.35	30.43
485.53	42.13
485.71	23.41
485.89	23.41
486.07	25.75
486.25	0.00
486.43	79.58
486.61	32.77
486.78	56.17
486.96	46.81
487.14	0.00
487.32	0.00
487.50	42.13
487.68	91.28
487.85	105.32
488.03	60.85
488.21	93.62
488.39	0.00
488.57	0.00
488.75	56.17
488.92	110.01
489.10	21.06
489.28	84.26
489.46	98.30
489.64	4.68
489.81	95.96
489.99	0.00
490.17	37.45
490.35	114.69
490.53	112.35
490.70	18.72
490.88	0.00
491.06	126.39
491.24	63.19
491.41	102.98
491.59	0.00
491.77	72.56
491.95	74.90
492.13	163.84
492.30	65.54
492.48	0.00
492.66	0.00
492.84	110.01
493.01	49.15
493.19	65.54
493.37	98.30
493.54	4.68
493.72	14.04
493.90	9.36
494.08	67.88
494.25	0.00
494.43	56.17
494.61	42.13
494.79	53.83
494.96	0.00
495.14	84.26
495.32	72.56
495.49	39.79
495.67	21.06
495.85	74.90
496.02	0.00
496.20	91.28
496.38	46.81
496.55	74.90
496.73	56.17
496.91	70.22
497.09	32.77
497.26	98.30
497.44	93.62
497.62	0.00
497.79	51.49
497.97	0.00
498.14	0.00
498.32	60.85
498.50	79.58
498.67	86.60
498.85	0.00
499.03	46.81
499.20	86.60
499.38	14.04
499.56	4.68
499.73	25.75
499.91	0.00
500.08	93.62
500.26	51.49
500.44	23.41
500.61	70.22
500.79	23.41
500.97	84.26
501.14	35.11
501.32	88.94
501.49	0.00
501.67	93.62
501.84	46.81
502.02	49.15
502.20	81.92
502.37	0.00
502.55	60.85
502.72	84.26
502.90	0.00
503.07	98.30
503.25	39.79
503.43	11.70
503.60	53.83
503.78	23.41
503.95	77.24
504.13	46.81
504.30	84.26
504.48	77.24
504.65	79.58
504.83	44.47
505.01	56.17
505.18	79.58
505.36	72.56
505.53	56.17
505.71	72.56
505.88	32.77
506.06	0.00
506.23	11.70
506.41	63.19
506.58	21.06
506.76	58.51
506.93	0.00
507.11	58.51
507.28	65.54
507.46	51.49
507.63	30.43
507.81	42.13
507.98	16.38
508.16	39.79
508.33	42.13
508.50	117.03
508.68	28.09
508.85	0.00
509.03	51.49
509.20	28.09
509.38	65.54
509.55	49.15
509.73	67.88
509.90	44.47
510.08	37.45
510.25	60.85
510.42	30.43
510.60	39.79
510.77	81.92
510.95	53.83
511.12	77.24
511.30	21.06
511.47	77.24
511.64	63.19
511.82	131.07
511.99	74.90
512.17	56.17
512.34	65.54
512.51	0.00
512.69	93.62
512.86	39.79
513.04	18.72
513.21	39.79
513.38	49.15
513.56	21.06
513.73	49.15
513.90	74.90
514.08	0.00
514.25	0.00
514.43	0.00
514.60	168.52
514.77	84.26
514.95	77.24
515.12	65.54
515.29	0.00
515.47	51.49
515.64	70.22
515.81	0.00
515.99	65.54
516.16	117.03
516.33	84.26
516.51	49.15
516.68	88.94
516.85	70.22
517.03	35.11
517.20	0.00
517.37	138.09
517.54	18.72
517.72	110.01
517.89	51.49
518.06	4.68
518.24	79.58
518.41	37.45
518.58	58.51
518.75	93.62
518.93	18.72
519.10	9.36
519.27	72.56
519.45	67.88
519.62	49.15
519.79	0.00
519.96	58.51
520.14	53.83
520.31	35.11
520.48	107.66
520.65	49.15
520.83	98.30
521.00	35.11
521.17	21.06
521.34	77.24
521.52	60.85
521.69	18.72
521.86	56.17
522.03	88.94
522.20	0.00
522.38	110.01
522.55	0.00
522.72	70.22
522.89	67.88
523.07	42.13
523.24	23.41
523.41	98.30
523.58	77.24
523.75	91.28
523.92	32.77
524.10	46.81
524.27	4.68
524.44	21.06
524.61	51.49
524.78	93.62
524.96	91.28
525.13	16.38
525.30	60.85
525.47	60.85
525.64	140.43
525.81	7.02
525.98	128.73
526.16	142.77
526.33	21.06
526.50	67.88
526.67	58.51
526.84	56.17
527.01	81.92
527.18	21.06
527.36	44.47
527.53	32.77
527.70	65.54
527.87	0.00
528.04	95.96
528.21	63.19
528.38	102.98
528.55	37.45
528.72	84.26
528.89	23.41
529.07	16.38
529.24	0.00
529.41	14.04
529.58	107.66
529.75	56.17
529.92	88.94
530.09	21.06
530.26	60.85
530.43	70.22
530.60	112.35
530.77	25.75
530.94	77.24
531.11	81.92
531.28	51.49
531.46	49.15
531.63	0.00
531.80	91.28
531.97	18.72
532.14	74.90
532.31	42.13
532.48	74.90
532.65	91.28
532.82	0.00
532.99	30.43
533.16	53.83
533.33	0.00
533.50	18.72
533.67	7.02
533.84	46.81
534.01	0.00
534.18	16.38
534.35	74.90
534.52	102.98
534.69	121.71
534.86	84.26
535.03	105.32
535.20	67.88
535.37	0.00
535.54	102.98
535.71	60.85
535.88	65.54
536.05	79.58
536.22	0.00
536.38	0.00
536.55	44.47
536.72	4.68
536.89	32.77
537.06	21.06
537.23	77.24
537.40	37.45
537.57	46.81
537.74	25.75
537.91	53.83
538.08	51.49
538.25	58.51
538.42	23.41
538.59	142.77
538.75	58.51
538.92	28.09
539.09	35.11
539.26	32.77
539.43	21.06
539.60	21.06
539.77	53.83
539.94	51.49
540.11	77.24
540.28	30.43
540.44	0.00
540.61	7.02
540.78	51.49
540.95	30.43
541.12	0.00
541.29	32.77
541.46	11.70
541.62	0.00
541.79	0.00
541.96	42.13
542.13	91.28
542.30	0.00
542.47	95.96
542.63	32.77
542.80	70.22
542.97	93.62
543.14	100.64
543.31	39.79
543.48	0.00
543.64	0.00
543.81	49.15
543.98	16.38
544.15	58.51
544.32	0.00
544.48	67.88
544.65	14.04
544.82	23.41
544.99	63.19
545.16	30.43
545.32	14.04
545.49	63.19
545.66	58.51
545.83	121.71
546.00	63.19
546.16	39.79
546.33	67.88
546.50	30.43
546.67	74.90
546.83	72.56
547.00	0.00
547.17	39.79
547.34	138.09
547.50	98.30
547.67	53.83
547.84	93.62
548.00	58.51
548.17	60.85
548.34	14.04
548.51	56.17
548.67	65.54
548.84	46.81
549.01	0.00
549.18	28.09
549.34	37.45
549.51	42.13
549.68	30.43
549.84	58.51
550.01	58.51
550.18	53.83
550.34	74.90
550.51	74.90
550.68	9.36
550.84	95.96
551.01	63.19
551.18	0.00
551.34	4.68
551.51	72.56
551.68	56.17
551.84	23.41
552.01	28.09
552.18	51.49
552.34	37.45
552.51	110.01
552.68	18.72
552.84	18.72
553.01	105.32
553.18	14.04
553.34	91.28
553.51	63.19
553.67	35.11
553.84	119.37
554.01	49.15
554.17	51.49
554.34	30.43
554.51	49.15
554.67	77.24
554.84	32.77
555.00	98.30
555.17	93.62
555.33	67.88
555.50	67.88
555.67	88.94
555.83	117.03
556.00	0.00
556.16	37.45
556.33	39.79
556.50	0.00
556.66	7.02
556.83	42.13
556.99	23.41
557.16	67.88
557.32	11.70
557.49	11.70
557.65	79.58
557.82	42.13
557.98	35.11
558.15	88.94
558.32	72.56
558.48	100.64
558.65	74.90
558.81	81.92
558.98	65.54
559.14	93.62
559.31	42.13
559.47	93.62
559.64	74.90
559.80	53.83
559.97	25.75
560.13	39.79
560.30	11.70
560.46	135.75
560.63	30.43
560.79	51.49
560.96	53.83
561.12	72.56
561.29	0.00
561.45	112.35
561.61	4.68
561.78	63.19
561.94	65.54
562.11	7.02
562.27	16.38
562.44	60.85
562.60	23.41
562.77	0.00
562.93	14.04
563.10	0.00
563.26	84.26
563.42	65.54
563.59	25.75
563.75	70.22
563.92	49.15
564.08	88.94
564.24	49.15
564.41	53.83
564.57	60.85
564.74	98.30
564.90	42.13
565.07	51.49
565.23	25.75
565.39	0.00
565.56	74.90
565.72	7.02
565.88	23.41
566.05	42.13
566.21	51.49
566.38	32.77
566.54	46.81
566.70	112.35
566.87	0.00
567.03	51.49
567.19	63.19
567.36	25.75
567.52	30.43
567.68	37.45
567.85	2.34
568.01	23.41
568.17	107.66
568.34	0.00
568.50	53.83
568.66	100.64
568.83	98.30
568.99	49.15
569.15	58.51
569.32	35.11
569.48	88.94
569.64	23.41
569.81	0.00
569.97	0.00
570.13	51.49
570.30	0.00
570.46	0.00
570.62	0.00
570.78	9.36
570.95	42.13
571.11	44.47
571.27	107.66
571.43	32.77
571.60	39.79
571.76	46.81
571.92	79.58
572.09	74.90
572.25	79.58
572.41	98.30
572.57	93.62
572.74	93.62
572.90	60.85
573.06	16.38
573.22	49.15
573.38	110.01
573.55	86.60
573.71	44.47
573.87	28.09
574.03	63.19
574.20	72.56
574.36	70.22
574.52	0.00
574.68	65.54
574.84	72.56
575.01	30.43
575.17	44.47
575.33	0.00
575.49	107.66
575.65	44.47
575.82	77.24
575.98	91.28
576.14	42.13
576.30	44.47
576.46	35.11
576.62	91.28
576.79	16.38
576.95	67.88
577.11	0.00
577.27	119.37
577.43	81.92
577.59	25.75
577.75	60.85
577.92	42.13
578.08	9.36
578.24	0.00
578.40	21.06
578.56	25.75
578.72	25.75
578.88	102.98
579.04	4.68
579.21	49.15
579.37	35.11
579.53	46.81
579.69	32.77
579.85	51.49
580.01	63.19
580.17	4.68
580.33	81.92
580.49	23.41
580.65	7.02
580.82	16.38
580.98	63.19
581.14	7.02
581.30	63.19
581.46	0.00
581.62	100.64
581.78	53.83
581.94	86.60
582.10	9.36
582.26	0.00
582.42	23.41
582.58	56.17
582.74	42.13
582.90	23.41
583.06	23.41
583.22	49.15
583.38	53.83
583.54	72.56
583.70	53.83
583.86	35.11
584.02	9.36
584.18	51.49
584.34	2.34
584.50	25.75
584.66	74.90
584.82	37.45
584.98	35.11
585.14	23.41
585.30	46.81
585.46	0.00
585.62	32.77
585.78	39.79
585.94	18.72
586.10	0.00
586.26	32.77
586.42	81.92
586.58	121.71
586.74	18.72
586.90	49.15
587.06	2.34
587.22	0.00
587.38	46.81
587.54	0.00
587.70	0.00
587.86	56.17
588.02	44.47
588.18	16.38
588.34	0.00
588.49	142.77
588.65	88.94
588.81	60.85
588.97	0.00
589.13	11.70
589.29	42.13
589.45	30.43
589.61	16.38
589.77	84.26
589.93	112.35
590.08	2.34
590.24	67.88
590.40	0.00
590.56	70.22
590.72	49.15
590.88	44.47
591.04	11.70
591.20	49.15
591.35	39.79
591.51	91.28
591.67	95.96
591.83	9.36
591.99	21.06
592.15	28.09
592.31	70.22
592.46	0.00
592.62	35.11
592.78	25.75
592.94	46.81
593.10	145.11
593.26	100.64
593.41	0.00
593.57	0.00
593.73	112.35
593.89	18.72
594.05	65.54
594.20	70.22
594.36	25.75
594.52	16.38
594.68	49.15
594.84	67.88
594.99	110.01
595.15	21.06
595.31	35.11
595.47	18.72
595.62	84.26
595.78	56.17
595.94	37.45
596.10	46.81
596.25	35.11
596.41	51.49
596.57	21.06
596.73	65.54
596.88	46.81
597.04	44.47
597.20	9.36
597.36	46.81
597.51	46.81
597.67	2.34
597.83	25.75
597.99	0.00
598.14	35.11
598.30	93.62
598.46	28.09
598.61	28.09
598.77	14.04
598.93	16.38
599.09	44.47
599.24	21.06
599.40	42.13
599.56	30.43
599.71	58.51
599.87	18.72
600.03	25.75
600.18	46.81
600.34	4.68
600.50	2.34
600.65	88.94
600.81	32.77
600.97	74.90
601.12	16.38
601.28	56.17
601.44	56.17
601.59	16.38
601.75	79.58
601.91	9.36
602.06	25.75
602.22	65.54
602.37	44.47
602.53	51.49
602.69	0.00
602.84	53.83
603.00	88.94
603.16	28.09
603.31	58.51
603.47	35.11
603.62	30.43
603.78	7.02
603.94	49.15
604.09	7.02
604.25	21.06
604.40	0.00
604.56	84.26
604.71	44.47
604.87	37.45
605.03	46.81
605.18	79.58
605.34	63.19
605.49	28.09
605.65	18.72
605.80	42.13
605.96	0.00
606.12	79.58
606.27	0.00
606.43	77.24
606.58	67.88
606.74	81.92
606.89	60.85
607.05	77.24
607.20	0.00
607.36	14.04
607.51	21.06
607.67	11.70
607.82	0.00
607.98	16.38
608.13	63.19
608.29	53.83
608.44	84.26
608.60	70.22
608.75	98.30
608.91	105.32
609.06	86.60
609.22	67.88
609.37	77.24
609.53	93.62
609.68	2.34
609.84	4.68
609.99	74.90
610.15	30.43
610.30	39.79
610.46	56.17
610.61	11.70
610.76	28.09
610.92	32.77
611.07	102.98
611.23	42.13
611.38	30.43
611.54	84.26
611.69	16.38
611.84	7.02
612.00	14.04
612.15	25.75
612.31	28.09
612.46	56.17
612.62	0.00
612.77	0.00
612.92	14.04
613.08	16.38
613.23	4.68
613.39	0.00
613.54	0.00
613.69	67.88
613.85	32.77
614.00	81.92
614.15	79.58
614.31	11.70
614.46	46.81
614.62	39.79
614.77	37.45
614.92	28.09
615.08	35.11
615.23	30.43
615.38	74.90
615.54	0.00
615.69	0.00
615.84	98.30
616.00	0.00
616.15	25.75
616.30	107.66
616.46	21.06
616.61	16.38
616.76	21.06
616.92	100.64
617.07	0.00
617.22	4.68
617.37	0.00
617.53	16.38
617.68	72.56
617.83	56.17
617.99	23.41
618.14	0.00
618.29	39.79
618.45	100.64
618.60	58.51
618.75	84.26
618.90	65.54
619.06	9.36
619.21	44.47
619.36	102.98
619.51	63.19
619.67	39.79
619.82	14.04
619.97	0.00
620.12	28.09
620.28	0.00
620.43	42.13
620.58	95.96
620.73	46.81
620.89	42.13
621.04	42.13
621.19	105.32
621.34	95.96
621.49	42.13
621.65	65.54
621.80	4.68
621.95	51.49
622.10	32.77
622.25	0.00
622.41	72.56
622.56	58.51
622.71	0.00
622.86	0.00
623.01	28.09
623.16	46.81
623.32	2.34
623.47	4.68
623.62	51.49
623.77	39.79
623.92	18.72
624.07	81.92
624.23	51.49
624.38	18.72
624.53	84.26
624.68	44.47
624.83	86.60
624.98	53.83
625.13	0.00
625.29	77.24
625.44	53.83
625.59	91.28
625.74	16.38
625.89	44.47
626.04	51.49
626.19	53.83
626.34	65.54
626.49	30.43
626.65	42.13
626.80	0.00
626.95	32.77
627.10	117.03
627.25	88.94
627.40	9.36
627.55	42.13
627.70	70.22
627.85	67.88
628.00	14.04
628.15	49.15
628.30	79.58
628.45	0.00
628.60	0.00
628.76	81.92
628.91	100.64
629.06	46.81
629.21	11.70
629.36	58.51
629.51	21.06
629.66	16.38
629.81	117.03
629.96	4.68
630.11	84.26
630.26	30.43
630.41	16.38
630.56	35.11
630.71	51.49
630.86	37.45
631.01	0.00
631.16	7.02
631.31	42.13
631.46	56.17
631.61	2.34
631.76	14.04
631.91	42.13
632.06	105.32
632.21	25.75
632.36	46.81
632.51	0.00
632.66	56.17
632.81	0.00
632.96	107.66
633.10	65.54
633.25	32.77
633.40	91.28
633.55	0.00
633.70	39.79
633.85	102.98
634.00	0.00
634.15	81.92
634.30	21.06
634.45	74.90
634.60	0.00
634.75	14.04
634.90	11.70
635.05	42.13
635.19	28.09
635.34	65.54
635.49	25.75
635.64	95.96
635.79	0.00
635.94	72.56
636.09	23.41
636.24	9.36
636.39	4.68
636.53	16.38
636.68	0.00
636.83	7.02
636.98	39.79
637.13	14.04
637.28	39.79
637.43	0.00
637.57	39.79
637.72	0.00
637.87	16.38
638.02	0.00
638.17	100.64
638.32	30.43
638.46	18.72
638.61	53.83
638.76	28.09
638.91	21.06
639.06	72.56
639.20	11.70
639.35	0.00
639.50	46.81
639.65	56.17
639.80	56.17
639.94	16.38
640.09	72.56
640.24	84.26
640.39	74.90
640.54	105.32
640.68	49.15
640.83	44.47
640.98	0.00
641.13	72.56
641.27	32.77
641.42	60.85
641.57	126.39
641.72	67.88
641.86	0.00
642.01	0.00
642.16	0.00
642.31	25.75
642.45	0.00
642.60	81.92
642.75	7.02
642.90	93.62
643.04	42.13
643.19	42.13
643.34	110.01
643.48	14.04
643.63	95.96
643.78	53.83
643.93	60.85
644.07	60.85
644.22	65.54
644.37	46.81
644.51	84.26
644.66	30.43
644.81	37.45
644.95	37.45
645.10	65.54
645.25	0.00
645.39	42.13
645.54	84.26
645.69	44.47
645.83	9.36
645.98	70.22
646.13	23.41
646.27	42.13
646.42	0.00
646.57	77.24
646.71	28.09
646.86	63.19
647.00	0.00
647.15	0.00
647.30	0.00
647.44	9.36
647.59	0.00
647.74	14.04
647.88	23.41
648.03	30.43
648.17	42.13
648.32	30.43
648.47	53.83
648.61	9.36
648.76	4.68
648.90	49.15
649.05	70.22
649.20	28.09
649.34	72.56
649.49	35.11
649.63	67.88
649.78	14.04
649.92	86.60
650.07	0.00
650.21	72.56
650.36	0.00
650.51	0.00
650.65	86.60
650.80	105.32
650.94	49.15
651.09	4.68
651.23	0.00
651.38	0.00
651.52	72.56
651.67	0.00
651.81	28.09
651.96	32.77
652.10	74.90
652.25	9.36
652.39	93.62
652.54	35.11
652.68	35.11
652.83	0.00
652.97	30.43
653.12	77.24
653.26	2.34
653.41	0.00
653.55	0.00
653.70	65.54
653.84	44.47
653.99	0.00
654.13	39.79
654.27	23.41
654.42	0.00
654.56	25.75
654.71	21.06
654.85	4.68
655.00	0.00
655.14	4.68
655.29	65.54
655.43	39.79
655.57	46.81
655.72	72.56
655.86	4.68
656.01	4.68
656.15	53.83
656.30	30.43
656.44	63.19
656.58	126.39
656.73	91.28
656.87	0.00
657.01	32.77
657.16	81.92
657.30	72.56
657.45	0.00
657.59	37.45
657.73	0.00
657.88	23.41
658.02	56.17
658.16	67.88
658.31	39.79
658.45	35.11
658.60	0.00
658.74	63.19
658.88	0.00
659.03	32.77
659.17	7.02
659.31	63.19
659.46	32.77
659.60	91.28
659.74	35.11
659.89	32.77
660.03	72.56
660.17	53.83
660.32	49.15
660.46	4.68
660.60	98.30
660.74	93.62
660.89	63.19
661.03	0.00
661.17	23.41
661.32	65.54
661.46	23.41
661.60	93.62
661.74	63.19
661.89	102.98
662.03	30.43
662.17	42.13
662.31	0.00
662.46	0.00
662.60	81.92
662.74	88.94
662.88	105.32
663.03	135.75
663.17	58.51
663.31	100.64
663.45	0.00
663.60	4.68
663.74	11.70
663.88	0.00
664.02	37.45
664.17	128.73
664.31	56.17
664.45	35.11
664.59	35.11
664.73	0.00
664.88	0.00
665.02	23.41
665.16	0.00
665.30	70.22
665.44	30.43
665.59	30.43
665.73	0.00
665.87	65.54
666.01	49.15
666.15	37.45
666.29	60.85
666.44	84.26
666.58	60.85
666.72	112.35
666.86	95.96
667.00	28.09
667.14	0.00
667.28	79.58
667.43	70.22
667.57	49.15
667.71	14.04
667.85	0.00
667.99	74.90
668.13	21.06
668.27	32.77
668.41	9.36
668.56	77.24
668.70	21.06
668.84	18.72
668.98	46.81
669.12	53.83
669.26	2.34
669.40	21.06
669.54	126.39
669.68	32.77
669.82	60.85
669.96	32.77
670.10	16.38
670.25	32.77
670.39	51.49
670.53	88.94
670.67	23.41
670.81	39.79
670.95	0.00
671.09	93.62
671.23	72.56
671.37	79.58
671.51	84.26
671.65	53.83
671.79	44.47
671.93	77.24
672.07	28.09
672.21	51.49
672.35	58.51
672.49	42.13
672.63	44.47
672.77	42.13
672.91	46.81
673.05	0.00
673.19	30.43
673.33	0.00
673.47	14.04
673.61	51.49
673.75	65.54
673.89	21.06
674.03	51.49
674.17	49.15
674.31	60.85
674.45	0.00
674.59	65.54
674.73	0.00
674.87	18.72
675.01	0.00
675.15	25.75
675.29	67.88
675.43	58.51
675.56	63.19
675.70	65.54
675.84	49.15
675.98	51.49
676.12	51.49
676.26	23.41
676.40	28.09
676.54	51.49
676.68	46.81
676.82	39.79
676.96	81.92
677.10	0.00
677.23	44.47
677.37	37.45
677.51	0.00
677.65	42.13
677.79	74.90
677.93	77.24
678.07	42.13
678.21	18.72
678.34	0.00
678.48	2.34
678.62	28.09
678.76	0.00
678.90	0.00
679.04	49.15
679.18	112.35
679.31	16.38
679.45	86.60
679.59	86.60
679.73	44.47
679.87	28.09
680.00	0.00
680.14	16.38
680.28	63.19
680.42	0.00
680.56	0.00
680.70	58.51
680.83	11.70
680.97	84.26
681.11	0.00
681.25	95.96
681.39	37.45
681.52	0.00
681.66	32.77
681.80	23.41
681.94	95.96
682.07	60.85
682.21	30.43
682.35	0.00
682.49	0.00
682.62	23.41
682.76	0.00
682.90	58.51
683.04	25.75
683.17	0.00
683.31	7.02
683.45	30.43
683.59	84.26
683.72	46.81
683.86	46.81
684.00	0.00
684.13	21.06
684.27	88.94
684.41	23.41
684.55	51.49
684.68	0.00
684.82	7.02
684.96	65.54
685.09	25.75
685.23	14.04
685.37	0.00
685.50	102.98
685.64	0.00
685.78	0.00
685.91	60.85
686.05	4.68
686.19	35.11
686.32	25.75
686.46	53.83
686.60	86.60
686.73	53.83
686.87	74.90
687.01	0.00
687.14	30.43
687.28	9.36
687.42	0.00
687.55	81.92
687.69	32.77
687.82	35.11
687.96	32.77
688.10	53.83
688.23	16.38
688.37	16.38
688.50	30.43
688.64	37.45
688.78	35.11
688.91	0.00
689.05	0.00
689.18	0.00
689.32	70.22
689.46	2.34
689.59	67.88
689.73	14.04
689.86	0.00
690.00	0.00
690.13	0.00
690.27	0.00
690.41	49.15
690.54	67.88
690.68	4.68
690.81	28.09
690.95	23.41
691.08	32.77
691.22	74.90
691.35	42.13
691.49	0.00
691.62	65.54
691.76	35.11
691.89	25.75
692.03	67.88
692.16	0.00
692.30	4.68
692.43	49.15
692.57	84.26
692.70	0.00
692.84	14.04
692.97	60.85
693.11	77.24
693.24	9.36
693.38	42.13
693.51	110.01
693.65	70.22
693.78	63.19
693.92	35.11
694.05	49.15
694.19	23.41
694.32	25.75
694.45	14.04
694.59	65.54
694.72	0.00
694.86	72.56
694.99	25.75
695.13	88.94
695.26	32.77
695.39	121.71
695.53	0.00
695.66	91.28
695.80	107.66
695.93	0.00
696.07	0.00
696.20	0.00
696.33	0.00
696.47	46.81
696.60	67.88
696.73	128.73
696.87	53.83
697.00	11.70
697.14	44.47
697.27	0.00
697.40	53.83
697.54	0.00
697.67	32.77
697.80	32.77
697.94	100.64
698.07	14.04
698.21	0.00
698.34	14.04
698.47	0.00
698.61	0.00
698.74	0.00
698.87	0.00
699.01	0.00
699.14	35.11
699.27	0.00
699.40	53.83
699.54	7.02
699.67	23.41
699.80	32.77
699.94	9.36
700.07	18.72
700.20	70.22
700.34	30.43
700.47	42.13
700.60	2.34
700.73	14.04
700.87	23.41
701.00	9.36
701.13	42.13
701.26	88.94
701.40	21.06
701.53	53.83
701.66	16.38
701.79	51.49
701.93	0.00
702.06	46.81
702.19	56.17
702.32	117.03
702.46	42.13
702.59	0.00
702.72	84.26
702.85	67.88
702.99	88.94
703.12	0.00
703.25	58.51
703.38	0.00
703.51	86.60
703.65	0.00
703.78	35.11
703.91	37.45
704.04	32.77
704.17	21.06
704.31	0.00
704.44	49.15
704.57	0.00
704.70	0.00
704.83	4.68
704.96	0.00
705.10	58.51
705.23	53.83
>>>>>End Processed Spectral Data<<<<<
