SpectraSuite Data File
++++++++++++++++++++++++++++++++++++
Date: Fri Oct 04 12:13:37 GMT-05:00 2013
User: price-jones
Dark Spectrum Present: No
Reference Spectrum Present: No
Number of Sampled Component Spectra: 1
Spectrometers: USB2+H05261
Integration Time (usec): 10000 (USB2+H05261)
Spectra Averaged: 1 (USB2+H05261)
Boxcar Smoothing: 0 (USB2+H05261)
Correct for Electrical Dark: No (USB2+H05261)
Strobe/Lamp Enabled: No (USB2+H05261)
Correct for Detector Non-linearity: No (USB2+H05261)
Correct for Stray Light: No (USB2+H05261)
Number of Pixels in Processed Spectrum: 2048
>>>>>Begin Processed Spectral Data<<<<<
365.73	44.47
365.92	44.47
366.12	44.47
366.32	0.00
366.52	0.00
366.72	0.00
366.91	0.00
367.11	0.00
367.31	0.00
367.51	0.00
367.70	0.00
367.90	0.00
368.10	0.00
368.30	0.00
368.49	0.00
368.69	0.00
368.89	0.00
369.09	0.00
369.28	0.00
369.48	0.00
369.68	0.00
369.87	0.00
370.07	0.00
370.27	0.00
370.47	0.00
370.66	0.00
370.86	0.00
371.06	0.00
371.25	0.00
371.45	18.72
371.65	0.00
371.84	0.00
372.04	39.79
372.24	0.00
372.44	0.00
372.63	0.00
372.83	16.38
373.03	58.51
373.22	58.51
373.42	44.47
373.62	23.41
373.81	0.00
374.01	0.00
374.21	44.47
374.40	77.24
374.60	0.00
374.79	51.49
374.99	44.47
375.19	2.34
375.38	72.56
375.58	0.00
375.78	0.00
375.97	42.13
376.17	49.15
376.37	18.72
376.56	0.00
376.76	56.17
376.95	53.83
377.15	37.45
377.35	0.00
377.54	0.00
377.74	35.11
377.93	42.13
378.13	58.51
378.33	14.04
378.52	11.70
378.72	25.75
378.91	56.17
379.11	0.00
379.31	44.47
379.50	0.00
379.70	0.00
379.89	11.70
380.09	7.02
380.28	37.45
380.48	0.00
380.68	9.36
380.87	0.00
381.07	4.68
381.26	0.00
381.46	30.43
381.65	51.49
381.85	18.72
382.04	60.85
382.24	72.56
382.43	21.06
382.63	0.00
382.83	32.77
383.02	95.96
383.22	0.00
383.41	0.00
383.61	32.77
383.80	18.72
384.00	49.15
384.19	60.85
384.39	0.00
384.58	46.81
384.78	0.00
384.97	4.68
385.17	51.49
385.36	18.72
385.56	0.00
385.75	0.00
385.95	0.00
386.14	0.00
386.34	0.00
386.53	58.51
386.72	2.34
386.92	53.83
387.11	23.41
387.31	16.38
387.50	30.43
387.70	0.00
387.89	42.13
388.09	65.54
388.28	30.43
388.48	39.79
388.67	32.77
388.86	23.41
389.06	28.09
389.25	56.17
389.45	133.41
389.64	21.06
389.84	30.43
390.03	9.36
390.22	42.13
390.42	46.81
390.61	28.09
390.81	0.00
391.00	58.51
391.19	56.17
391.39	42.13
391.58	0.00
391.78	4.68
391.97	44.47
392.16	0.00
392.36	35.11
392.55	32.77
392.75	7.02
392.94	0.00
393.13	91.28
393.33	9.36
393.52	2.34
393.71	0.00
393.91	0.00
394.10	0.00
394.29	32.77
394.49	21.06
394.68	67.88
394.88	46.81
395.07	70.22
395.26	67.88
395.46	0.00
395.65	0.00
395.84	16.38
396.04	42.13
396.23	32.77
396.42	88.94
396.62	9.36
396.81	0.00
397.00	0.00
397.19	14.04
397.39	28.09
397.58	23.41
397.77	25.75
397.97	0.00
398.16	56.17
398.35	0.00
398.55	0.00
398.74	0.00
398.93	7.02
399.12	0.00
399.32	32.77
399.51	18.72
399.70	58.51
399.90	63.19
400.09	44.47
400.28	21.06
400.47	37.45
400.67	0.00
400.86	11.70
401.05	28.09
401.24	0.00
401.44	0.00
401.63	0.00
401.82	28.09
402.01	35.11
402.21	30.43
402.40	67.88
402.59	18.72
402.78	30.43
402.97	102.98
403.17	30.43
403.36	14.04
403.55	25.75
403.74	0.00
403.93	14.04
404.13	51.49
404.32	84.26
404.51	35.11
404.70	0.00
404.89	0.00
405.09	0.00
405.28	2.34
405.47	91.28
405.66	95.96
405.85	81.92
406.05	11.70
406.24	119.37
406.43	98.30
406.62	42.13
406.81	0.00
407.00	4.68
407.20	9.36
407.39	11.70
407.58	67.88
407.77	60.85
407.96	0.00
408.15	46.81
408.34	86.60
408.54	63.19
408.73	93.62
408.92	42.13
409.11	42.13
409.30	49.15
409.49	39.79
409.68	49.15
409.87	46.81
410.07	32.77
410.26	51.49
410.45	0.00
410.64	32.77
410.83	86.60
411.02	0.00
411.21	70.22
411.40	63.19
411.59	0.00
411.78	0.00
411.98	35.11
412.17	117.03
412.36	49.15
412.55	74.90
412.74	0.00
412.93	14.04
413.12	58.51
413.31	35.11
413.50	14.04
413.69	91.28
413.88	72.56
414.07	21.06
414.26	23.41
414.45	0.00
414.64	7.02
414.83	102.98
415.02	86.60
415.22	58.51
415.41	98.30
415.60	18.72
415.79	0.00
415.98	30.43
416.17	100.64
416.36	49.15
416.55	91.28
416.74	56.17
416.93	32.77
417.12	67.88
417.31	39.79
417.50	117.03
417.69	46.81
417.88	14.04
418.07	46.81
418.26	81.92
418.45	51.49
418.64	70.22
418.83	42.13
419.02	100.64
419.21	46.81
419.39	18.72
419.58	39.79
419.77	81.92
419.96	119.37
420.15	100.64
420.34	46.81
420.53	30.43
420.72	0.00
420.91	70.22
421.10	77.24
421.29	30.43
421.48	0.00
421.67	98.30
421.86	35.11
422.05	0.00
422.24	67.88
422.43	32.77
422.61	30.43
422.80	35.11
422.99	30.43
423.18	49.15
423.37	51.49
423.56	9.36
423.75	11.70
423.94	11.70
424.13	65.54
424.32	16.38
424.50	44.47
424.69	0.00
424.88	77.24
425.07	56.17
425.26	32.77
425.45	11.70
425.64	30.43
425.83	18.72
426.01	49.15
426.20	11.70
426.39	4.68
426.58	37.45
426.77	53.83
426.96	0.00
427.15	30.43
427.33	37.45
427.52	51.49
427.71	65.54
427.90	0.00
428.09	49.15
428.28	25.75
428.46	4.68
428.65	86.60
428.84	91.28
429.03	77.24
429.22	46.81
429.40	51.49
429.59	0.00
429.78	46.81
429.97	42.13
430.16	37.45
430.34	72.56
430.53	46.81
430.72	0.00
430.91	74.90
431.10	32.77
431.28	2.34
431.47	0.00
431.66	42.13
431.85	0.00
432.03	72.56
432.22	42.13
432.41	51.49
432.60	56.17
432.79	86.60
432.97	0.00
433.16	18.72
433.35	72.56
433.54	81.92
433.72	72.56
433.91	18.72
434.10	77.24
434.28	56.17
434.47	79.58
434.66	67.88
434.85	35.11
435.03	11.70
435.22	84.26
435.41	28.09
435.59	56.17
435.78	86.60
435.97	110.01
436.16	98.30
436.34	98.30
436.53	95.96
436.72	25.75
436.90	65.54
437.09	0.00
437.28	93.62
437.46	53.83
437.65	147.45
437.84	4.68
438.02	67.88
438.21	0.00
438.40	42.13
438.58	14.04
438.77	11.70
438.96	49.15
439.14	42.13
439.33	0.00
439.52	0.00
439.70	70.22
439.89	0.00
440.08	37.45
440.26	9.36
440.45	60.85
440.63	25.75
440.82	37.45
441.01	44.47
441.19	58.51
441.38	39.79
441.57	70.22
441.75	39.79
441.94	14.04
442.12	21.06
442.31	0.00
442.50	72.56
442.68	102.98
442.87	49.15
443.05	81.92
443.24	0.00
443.43	65.54
443.61	49.15
443.80	49.15
443.98	91.28
444.17	16.38
444.35	46.81
444.54	65.54
444.73	63.19
444.91	0.00
445.10	77.24
445.28	42.13
445.47	79.58
445.65	60.85
445.84	42.13
446.02	65.54
446.21	72.56
446.39	72.56
446.58	81.92
446.77	18.72
446.95	0.00
447.14	0.00
447.32	51.49
447.51	18.72
447.69	37.45
447.88	91.28
448.06	23.41
448.25	37.45
448.43	91.28
448.62	114.69
448.80	4.68
448.99	0.00
449.17	39.79
449.36	51.49
449.54	58.51
449.73	49.15
449.91	28.09
450.10	21.06
450.28	56.17
450.46	0.00
450.65	4.68
450.83	67.88
451.02	51.49
451.20	84.26
451.39	39.79
451.57	51.49
451.76	0.00
451.94	63.19
452.13	70.22
452.31	70.22
452.49	16.38
452.68	70.22
452.86	49.15
453.05	72.56
453.23	35.11
453.42	39.79
453.60	28.09
453.78	138.09
453.97	67.88
454.15	39.79
454.34	60.85
454.52	63.19
454.70	77.24
454.89	0.00
455.07	67.88
455.26	86.60
455.44	42.13
455.62	0.00
455.81	58.51
455.99	60.85
456.17	67.88
456.36	35.11
456.54	35.11
456.73	0.00
456.91	49.15
457.09	0.00
457.28	63.19
457.46	35.11
457.64	23.41
457.83	42.13
458.01	0.00
458.19	77.24
458.38	81.92
458.56	84.26
458.74	67.88
458.93	58.51
459.11	28.09
459.29	100.64
459.48	2.34
459.66	39.79
459.84	32.77
460.03	84.26
460.21	63.19
460.39	0.00
460.57	100.64
460.76	65.54
460.94	95.96
461.12	9.36
461.31	49.15
461.49	154.48
461.67	11.70
461.85	2.34
462.04	79.58
462.22	77.24
462.40	117.03
462.59	79.58
462.77	72.56
462.95	28.09
463.13	0.00
463.32	23.41
463.50	70.22
463.68	63.19
463.86	135.75
464.05	114.69
464.23	30.43
464.41	0.00
464.59	65.54
464.78	21.06
464.96	4.68
465.14	77.24
465.32	0.00
465.50	56.17
465.69	128.73
465.87	65.54
466.05	28.09
466.23	30.43
466.41	58.51
466.60	0.00
466.78	30.43
466.96	74.90
467.14	51.49
467.32	70.22
467.51	18.72
467.69	39.79
467.87	74.90
468.05	51.49
468.23	0.00
468.41	114.69
468.60	46.81
468.78	32.77
468.96	4.68
469.14	100.64
469.32	44.47
469.50	28.09
469.69	84.26
469.87	65.54
470.05	79.58
470.23	86.60
470.41	4.68
470.59	88.94
470.77	9.36
470.95	49.15
471.14	100.64
471.32	23.41
471.50	84.26
471.68	93.62
471.86	42.13
472.04	145.11
472.22	39.79
472.40	39.79
472.58	67.88
472.77	67.88
472.95	105.32
473.13	46.81
473.31	100.64
473.49	42.13
473.67	0.00
473.85	4.68
474.03	102.98
474.21	114.69
474.39	145.11
474.57	65.54
474.75	0.00
474.93	0.00
475.12	46.81
475.30	121.71
475.48	23.41
475.66	11.70
475.84	107.66
476.02	81.92
476.20	63.19
476.38	81.92
476.56	51.49
476.74	46.81
476.92	0.00
477.10	32.77
477.28	84.26
477.46	110.01
477.64	42.13
477.82	32.77
478.00	14.04
478.18	72.56
478.36	86.60
478.54	81.92
478.72	86.60
478.90	18.72
479.08	63.19
479.26	74.90
479.44	23.41
479.62	28.09
479.80	30.43
479.98	60.85
480.16	0.00
480.34	65.54
480.52	63.19
480.70	65.54
480.88	49.15
481.06	58.51
481.24	95.96
481.41	56.17
481.59	74.90
481.77	121.71
481.95	91.28
482.13	67.88
482.31	49.15
482.49	98.30
482.67	79.58
482.85	9.36
483.03	93.62
483.21	95.96
483.39	84.26
483.57	21.06
483.74	37.45
483.92	121.71
484.10	30.43
484.28	25.75
484.46	126.39
484.64	42.13
484.82	133.41
485.00	131.07
485.18	102.98
485.35	0.00
485.53	25.75
485.71	35.11
485.89	91.28
486.07	49.15
486.25	74.90
486.43	42.13
486.61	93.62
486.78	107.66
486.96	74.90
487.14	37.45
487.32	25.75
487.50	98.30
487.68	46.81
487.85	119.37
488.03	72.56
488.21	84.26
488.39	35.11
488.57	56.17
488.75	9.36
488.92	112.35
489.10	60.85
489.28	81.92
489.46	114.69
489.64	72.56
489.81	9.36
489.99	86.60
490.17	74.90
490.35	28.09
490.53	32.77
490.70	58.51
490.88	93.62
491.06	81.92
491.24	74.90
491.41	21.06
491.59	16.38
491.77	112.35
491.95	119.37
492.13	25.75
492.30	88.94
492.48	74.90
492.66	53.83
492.84	51.49
493.01	81.92
493.19	63.19
493.37	88.94
493.54	86.60
493.72	88.94
493.90	0.00
494.08	58.51
494.25	163.84
494.43	56.17
494.61	16.38
494.79	56.17
494.96	65.54
495.14	49.15
495.32	93.62
495.49	93.62
495.67	86.60
495.85	23.41
496.02	35.11
496.20	74.90
496.38	81.92
496.55	102.98
496.73	145.11
496.91	84.26
497.09	119.37
497.26	182.56
497.44	79.58
497.62	35.11
497.79	93.62
497.97	86.60
498.14	35.11
498.32	74.90
498.50	30.43
498.67	65.54
498.85	95.96
499.03	77.24
499.20	140.43
499.38	16.38
499.56	67.88
499.73	67.88
499.91	102.98
500.08	70.22
500.26	42.13
500.44	74.90
500.61	63.19
500.79	117.03
500.97	60.85
501.14	86.60
501.32	53.83
501.49	51.49
501.67	126.39
501.84	28.09
502.02	25.75
502.20	124.05
502.37	56.17
502.55	42.13
502.72	180.22
502.90	163.84
503.07	39.79
503.25	53.83
503.43	126.39
503.60	9.36
503.78	63.19
503.95	88.94
504.13	126.39
504.30	112.35
504.48	60.85
504.65	114.69
504.83	124.05
505.01	72.56
505.18	67.88
505.36	88.94
505.53	30.43
505.71	112.35
505.88	2.34
506.06	86.60
506.23	107.66
506.41	84.26
506.58	86.60
506.76	14.04
506.93	70.22
507.11	133.41
507.28	77.24
507.46	23.41
507.63	32.77
507.81	0.00
507.98	72.56
508.16	14.04
508.33	88.94
508.50	107.66
508.68	30.43
508.85	93.62
509.03	98.30
509.20	0.00
509.38	131.07
509.55	72.56
509.73	105.32
509.90	86.60
510.08	70.22
510.25	42.13
510.42	67.88
510.60	124.05
510.77	25.75
510.95	51.49
511.12	98.30
511.30	88.94
511.47	102.98
511.64	119.37
511.82	126.39
511.99	102.98
512.17	51.49
512.34	60.85
512.51	112.35
512.69	49.15
512.86	32.77
513.04	72.56
513.21	0.00
513.38	117.03
513.56	46.81
513.73	72.56
513.90	65.54
514.08	131.07
514.25	46.81
514.43	102.98
514.60	105.32
514.77	77.24
514.95	88.94
515.12	156.82
515.29	65.54
515.47	124.05
515.64	49.15
515.81	72.56
515.99	86.60
516.16	91.28
516.33	119.37
516.51	84.26
516.68	0.00
516.85	70.22
517.03	84.26
517.20	91.28
517.37	46.81
517.54	110.01
517.72	117.03
517.89	74.90
518.06	74.90
518.24	135.75
518.41	74.90
518.58	67.88
518.75	124.05
518.93	77.24
519.10	21.06
519.27	124.05
519.45	107.66
519.62	28.09
519.79	84.26
519.96	138.09
520.14	58.51
520.31	91.28
520.48	128.73
520.65	147.45
520.83	72.56
521.00	93.62
521.17	138.09
521.34	95.96
521.52	46.81
521.69	35.11
521.86	16.38
522.03	84.26
522.20	16.38
522.38	86.60
522.55	74.90
522.72	107.66
522.89	25.75
523.07	60.85
523.24	70.22
523.41	23.41
523.58	30.43
523.75	58.51
523.92	93.62
524.10	112.35
524.27	72.56
524.44	93.62
524.61	28.09
524.78	65.54
524.96	102.98
525.13	39.79
525.30	88.94
525.47	0.00
525.64	46.81
525.81	105.32
525.98	93.62
526.16	102.98
526.33	95.96
526.50	91.28
526.67	51.49
526.84	58.51
527.01	42.13
527.18	88.94
527.36	30.43
527.53	60.85
527.70	77.24
527.87	51.49
528.04	53.83
528.21	114.69
528.38	67.88
528.55	91.28
528.72	28.09
528.89	18.72
529.07	81.92
529.24	91.28
529.41	53.83
529.58	39.79
529.75	93.62
529.92	56.17
530.09	93.62
530.26	119.37
530.43	128.73
530.60	28.09
530.77	63.19
530.94	72.56
531.11	112.35
531.28	84.26
531.46	100.64
531.63	95.96
531.80	46.81
531.97	79.58
532.14	79.58
532.31	72.56
532.48	91.28
532.65	138.09
532.82	58.51
532.99	126.39
533.16	100.64
533.33	32.77
533.50	58.51
533.67	65.54
533.84	21.06
534.01	77.24
534.18	60.85
534.35	63.19
534.52	128.73
534.69	145.11
534.86	131.07
535.03	58.51
535.20	56.17
535.37	56.17
535.54	126.39
535.71	11.70
535.88	110.01
536.05	152.13
536.22	70.22
536.38	140.43
536.55	98.30
536.72	74.90
536.89	70.22
537.06	16.38
537.23	37.45
537.40	124.05
537.57	95.96
537.74	21.06
537.91	74.90
538.08	56.17
538.25	65.54
538.42	63.19
538.59	53.83
538.75	46.81
538.92	37.45
539.09	147.45
539.26	86.60
539.43	74.90
539.60	133.41
539.77	95.96
539.94	84.26
540.11	0.00
540.28	56.17
540.44	114.69
540.61	102.98
540.78	184.90
540.95	86.60
541.12	72.56
541.29	91.28
541.46	81.92
541.62	79.58
541.79	107.66
541.96	39.79
542.13	81.92
542.30	72.56
542.47	77.24
542.63	114.69
542.80	112.35
542.97	95.96
543.14	51.49
543.31	37.45
543.48	98.30
543.64	18.72
543.81	58.51
543.98	86.60
544.15	70.22
544.32	30.43
544.48	102.98
544.65	72.56
544.82	133.41
544.99	126.39
545.16	60.85
545.32	131.07
545.49	93.62
545.66	126.39
545.83	102.98
546.00	72.56
546.16	0.00
546.33	56.17
546.50	98.30
546.67	100.64
546.83	86.60
547.00	21.06
547.17	95.96
547.34	32.77
547.50	37.45
547.67	32.77
547.84	70.22
548.00	133.41
548.17	95.96
548.34	112.35
548.51	14.04
548.67	65.54
548.84	81.92
549.01	25.75
549.18	88.94
549.34	72.56
549.51	152.13
549.68	18.72
549.84	28.09
550.01	58.51
550.18	21.06
550.34	98.30
550.51	74.90
550.68	84.26
550.84	79.58
551.01	28.09
551.18	142.77
551.34	35.11
551.51	56.17
551.68	74.90
551.84	117.03
552.01	138.09
552.18	72.56
552.34	124.05
552.51	63.19
552.68	79.58
552.84	37.45
553.01	23.41
553.18	84.26
553.34	126.39
553.51	63.19
553.67	60.85
553.84	72.56
554.01	110.01
554.17	138.09
554.34	77.24
554.51	110.01
554.67	91.28
554.84	70.22
555.00	112.35
555.17	126.39
555.33	60.85
555.50	46.81
555.67	60.85
555.83	37.45
556.00	56.17
556.16	191.92
556.33	63.19
556.50	86.60
556.66	117.03
556.83	84.26
556.99	63.19
557.16	49.15
557.32	121.71
557.49	110.01
557.65	128.73
557.82	110.01
557.98	95.96
558.15	117.03
558.32	84.26
558.48	140.43
558.65	91.28
558.81	117.03
558.98	93.62
559.14	81.92
559.31	60.85
559.47	28.09
559.64	4.68
559.80	105.32
559.97	121.71
560.13	9.36
560.30	51.49
560.46	100.64
560.63	65.54
560.79	63.19
560.96	88.94
561.12	46.81
561.29	124.05
561.45	98.30
561.61	70.22
561.78	67.88
561.94	60.85
562.11	70.22
562.27	70.22
562.44	121.71
562.60	86.60
562.77	63.19
562.93	102.98
563.10	124.05
563.26	95.96
563.42	65.54
563.59	58.51
563.75	133.41
563.92	201.29
564.08	70.22
564.24	60.85
564.41	84.26
564.57	58.51
564.74	58.51
564.90	128.73
565.07	72.56
565.23	100.64
565.39	114.69
565.56	105.32
565.72	84.26
565.88	98.30
566.05	119.37
566.21	60.85
566.38	135.75
566.54	149.79
566.70	46.81
566.87	121.71
567.03	53.83
567.19	102.98
567.36	63.19
567.52	93.62
567.68	77.24
567.85	133.41
568.01	51.49
568.17	18.72
568.34	95.96
568.50	79.58
568.66	58.51
568.83	70.22
568.99	74.90
569.15	74.90
569.32	51.49
569.48	46.81
569.64	98.30
569.81	81.92
569.97	51.49
570.13	9.36
570.30	110.01
570.46	72.56
570.62	81.92
570.78	72.56
570.95	51.49
571.11	44.47
571.27	110.01
571.43	77.24
571.60	110.01
571.76	72.56
571.92	138.09
572.09	0.00
572.25	74.90
572.41	140.43
572.57	65.54
572.74	46.81
572.90	18.72
573.06	93.62
573.22	56.17
573.38	37.45
573.55	100.64
573.71	95.96
573.87	42.13
574.03	63.19
574.20	88.94
574.36	86.60
574.52	88.94
574.68	102.98
574.84	112.35
575.01	28.09
575.17	72.56
575.33	53.83
575.49	91.28
575.65	119.37
575.82	74.90
575.98	39.79
576.14	28.09
576.30	102.98
576.46	114.69
576.62	124.05
576.79	81.92
576.95	18.72
577.11	88.94
577.27	42.13
577.43	93.62
577.59	100.64
577.75	135.75
577.92	44.47
578.08	77.24
578.24	84.26
578.40	72.56
578.56	81.92
578.72	128.73
578.88	98.30
579.04	100.64
579.21	102.98
579.37	11.70
579.53	91.28
579.69	152.13
579.85	53.83
580.01	49.15
580.17	81.92
580.33	100.64
580.49	88.94
580.65	4.68
580.82	140.43
580.98	126.39
581.14	49.15
581.30	16.38
581.46	74.90
581.62	100.64
581.78	32.77
581.94	0.00
582.10	147.45
582.26	100.64
582.42	152.13
582.58	53.83
582.74	51.49
582.90	65.54
583.06	100.64
583.22	58.51
583.38	100.64
583.54	44.47
583.70	23.41
583.86	105.32
584.02	79.58
584.18	67.88
584.34	102.98
584.50	39.79
584.66	95.96
584.82	95.96
584.98	58.51
585.14	58.51
585.30	102.98
585.46	63.19
585.62	67.88
585.78	58.51
585.94	135.75
586.10	100.64
586.26	49.15
586.42	67.88
586.58	37.45
586.74	98.30
586.90	67.88
587.06	74.90
587.22	107.66
587.38	95.96
587.54	72.56
587.70	114.69
587.86	46.81
588.02	39.79
588.18	25.75
588.34	46.81
588.49	63.19
588.65	60.85
588.81	16.38
588.97	32.77
589.13	67.88
589.29	79.58
589.45	102.98
589.61	70.22
589.77	93.62
589.93	81.92
590.08	60.85
590.24	14.04
590.40	81.92
590.56	58.51
590.72	110.01
590.88	77.24
591.04	72.56
591.20	39.79
591.35	107.66
591.51	65.54
591.67	95.96
591.83	46.81
591.99	21.06
592.15	35.11
592.31	49.15
592.46	25.75
592.62	74.90
592.78	44.47
592.94	51.49
593.10	4.68
593.26	18.72
593.41	16.38
593.57	32.77
593.73	112.35
593.89	98.30
594.05	77.24
594.20	84.26
594.36	91.28
594.52	98.30
594.68	65.54
594.84	124.05
594.99	60.85
595.15	21.06
595.31	4.68
595.47	21.06
595.62	32.77
595.78	58.51
595.94	70.22
596.10	145.11
596.25	121.71
596.41	39.79
596.57	114.69
596.73	51.49
596.88	77.24
597.04	70.22
597.20	65.54
597.36	53.83
597.51	30.43
597.67	53.83
597.83	21.06
597.99	56.17
598.14	32.77
598.30	58.51
598.46	37.45
598.61	21.06
598.77	86.60
598.93	58.51
599.09	142.77
599.24	4.68
599.40	49.15
599.56	63.19
599.71	0.00
599.87	56.17
600.03	51.49
600.18	107.66
600.34	88.94
600.50	131.07
600.65	28.09
600.81	32.77
600.97	28.09
601.12	42.13
601.28	30.43
601.44	95.96
601.59	84.26
601.75	131.07
601.91	84.26
602.06	124.05
602.22	91.28
602.37	25.75
602.53	81.92
602.69	88.94
602.84	88.94
603.00	93.62
603.16	70.22
603.31	65.54
603.47	105.32
603.62	124.05
603.78	42.13
603.94	84.26
604.09	79.58
604.25	86.60
604.40	16.38
604.56	32.77
604.71	102.98
604.87	117.03
605.03	44.47
605.18	88.94
605.34	77.24
605.49	102.98
605.65	39.79
605.80	35.11
605.96	100.64
606.12	114.69
606.27	126.39
606.43	67.88
606.58	51.49
606.74	98.30
606.89	107.66
607.05	60.85
607.20	63.19
607.36	154.48
607.51	56.17
607.67	32.77
607.82	84.26
607.98	110.01
608.13	135.75
608.29	110.01
608.44	77.24
608.60	4.68
608.75	95.96
608.91	112.35
609.06	28.09
609.22	16.38
609.37	32.77
609.53	39.79
609.68	4.68
609.84	0.00
609.99	65.54
610.15	42.13
610.30	93.62
610.46	14.04
610.61	35.11
610.76	138.09
610.92	63.19
611.07	9.36
611.23	79.58
611.38	81.92
611.54	110.01
611.69	84.26
611.84	49.15
612.00	53.83
612.15	79.58
612.31	65.54
612.46	95.96
612.62	72.56
612.77	56.17
612.92	77.24
613.08	86.60
613.23	25.75
613.39	98.30
613.54	42.13
613.69	70.22
613.85	88.94
614.00	161.50
614.15	46.81
614.31	84.26
614.46	4.68
614.62	93.62
614.77	81.92
614.92	51.49
615.08	63.19
615.23	53.83
615.38	121.71
615.54	42.13
615.69	7.02
615.84	30.43
616.00	16.38
616.15	0.00
616.30	74.90
616.46	56.17
616.61	32.77
616.76	16.38
616.92	56.17
617.07	42.13
617.22	0.00
617.37	81.92
617.53	18.72
617.68	93.62
617.83	46.81
617.99	70.22
618.14	11.70
618.29	88.94
618.45	49.15
618.60	79.58
618.75	81.92
618.90	56.17
619.06	65.54
619.21	35.11
619.36	74.90
619.51	0.00
619.67	42.13
619.82	121.71
619.97	86.60
620.12	88.94
620.28	107.66
620.43	79.58
620.58	60.85
620.73	16.38
620.89	63.19
621.04	93.62
621.19	63.19
621.34	18.72
621.49	44.47
621.65	124.05
621.80	30.43
621.95	53.83
622.10	53.83
622.25	56.17
622.41	44.47
622.56	91.28
622.71	23.41
622.86	74.90
623.01	16.38
623.16	86.60
623.32	70.22
623.47	63.19
623.62	60.85
623.77	86.60
623.92	63.19
624.07	60.85
624.23	23.41
624.38	124.05
624.53	142.77
624.68	100.64
624.83	84.26
624.98	65.54
625.13	60.85
625.29	32.77
625.44	67.88
625.59	74.90
625.74	91.28
625.89	88.94
626.04	119.37
626.19	74.90
626.34	49.15
626.49	63.19
626.65	23.41
626.80	42.13
626.95	39.79
627.10	81.92
627.25	60.85
627.40	0.00
627.55	51.49
627.70	56.17
627.85	88.94
628.00	126.39
628.15	18.72
628.30	28.09
628.45	84.26
628.60	72.56
628.76	25.75
628.91	65.54
629.06	79.58
629.21	37.45
629.36	81.92
629.51	0.00
629.66	60.85
629.81	119.37
629.96	51.49
630.11	53.83
630.26	53.83
630.41	110.01
630.56	46.81
630.71	79.58
630.86	30.43
631.01	88.94
631.16	42.13
631.31	112.35
631.46	32.77
631.61	16.38
631.76	67.88
631.91	154.48
632.06	81.92
632.21	88.94
632.36	98.30
632.51	107.66
632.66	35.11
632.81	105.32
632.96	16.38
633.10	23.41
633.25	30.43
633.40	44.47
633.55	100.64
633.70	0.00
633.85	30.43
634.00	39.79
634.15	21.06
634.30	7.02
634.45	46.81
634.60	42.13
634.75	105.32
634.90	63.19
635.05	110.01
635.19	67.88
635.34	56.17
635.49	60.85
635.64	63.19
635.79	0.00
635.94	9.36
636.09	79.58
636.24	63.19
636.39	51.49
636.53	110.01
636.68	18.72
636.83	60.85
636.98	100.64
637.13	46.81
637.28	25.75
637.43	121.71
637.57	84.26
637.72	4.68
637.87	16.38
638.02	84.26
638.17	128.73
638.32	37.45
638.46	30.43
638.61	67.88
638.76	37.45
638.91	16.38
639.06	11.70
639.20	42.13
639.35	58.51
639.50	39.79
639.65	37.45
639.80	128.73
639.94	95.96
640.09	56.17
640.24	135.75
640.39	51.49
640.54	140.43
640.68	117.03
640.83	173.20
640.98	53.83
641.13	51.49
641.27	0.00
641.42	14.04
641.57	86.60
641.72	56.17
641.86	63.19
642.01	77.24
642.16	135.75
642.31	32.77
642.45	25.75
642.60	0.00
642.75	42.13
642.90	35.11
643.04	102.98
643.19	91.28
643.34	60.85
643.48	60.85
643.63	21.06
643.78	46.81
643.93	30.43
644.07	9.36
644.22	79.58
644.37	91.28
644.51	60.85
644.66	53.83
644.81	77.24
644.95	84.26
645.10	70.22
645.25	0.00
645.39	37.45
645.54	53.83
645.69	42.13
645.83	25.75
645.98	88.94
646.13	93.62
646.27	14.04
646.42	60.85
646.57	63.19
646.71	58.51
646.86	44.47
647.00	25.75
647.15	30.43
647.30	14.04
647.44	39.79
647.59	23.41
647.74	51.49
647.88	11.70
648.03	35.11
648.17	9.36
648.32	11.70
648.47	81.92
648.61	65.54
648.76	84.26
648.90	74.90
649.05	16.38
649.20	23.41
649.34	4.68
649.49	70.22
649.63	18.72
649.78	0.00
649.92	28.09
650.07	79.58
650.21	126.39
650.36	14.04
650.51	42.13
650.65	72.56
650.80	91.28
650.94	102.98
651.09	16.38
651.23	110.01
651.38	91.28
651.52	21.06
651.67	18.72
651.81	14.04
651.96	53.83
652.10	30.43
652.25	16.38
652.39	51.49
652.54	32.77
652.68	9.36
652.83	35.11
652.97	2.34
653.12	0.00
653.26	42.13
653.41	0.00
653.55	86.60
653.70	53.83
653.84	51.49
653.99	28.09
654.13	77.24
654.27	60.85
654.42	16.38
654.56	32.77
654.71	28.09
654.85	56.17
655.00	18.72
655.14	81.92
655.29	0.00
655.43	95.96
655.57	44.47
655.72	74.90
655.86	67.88
656.01	67.88
656.15	53.83
656.30	21.06
656.44	35.11
656.58	84.26
656.73	49.15
656.87	42.13
657.01	11.70
657.16	58.51
657.30	0.00
657.45	11.70
657.59	60.85
657.73	72.56
657.88	39.79
658.02	88.94
658.16	39.79
658.31	30.43
658.45	0.00
658.60	4.68
658.74	107.66
658.88	117.03
659.03	16.38
659.17	30.43
659.31	79.58
659.46	84.26
659.60	91.28
659.74	98.30
659.89	16.38
660.03	53.83
660.17	70.22
660.32	23.41
660.46	49.15
660.60	7.02
660.74	58.51
660.89	51.49
661.03	46.81
661.17	9.36
661.32	42.13
661.46	23.41
661.60	11.70
661.74	32.77
661.89	0.00
662.03	60.85
662.17	39.79
662.31	67.88
662.46	86.60
662.60	11.70
662.74	74.90
662.88	28.09
663.03	0.00
663.17	117.03
663.31	2.34
663.45	30.43
663.60	72.56
663.74	93.62
663.88	67.88
664.02	28.09
664.17	0.00
664.31	39.79
664.45	0.00
664.59	124.05
664.73	39.79
664.88	58.51
665.02	91.28
665.16	42.13
665.30	114.69
665.44	46.81
665.59	21.06
665.73	42.13
665.87	56.17
666.01	42.13
666.15	0.00
666.29	23.41
666.44	161.50
666.58	56.17
666.72	152.13
666.86	79.58
667.00	72.56
667.14	56.17
667.28	18.72
667.43	86.60
667.57	88.94
667.71	53.83
667.85	63.19
667.99	79.58
668.13	117.03
668.27	14.04
668.41	42.13
668.56	86.60
668.70	74.90
668.84	77.24
668.98	30.43
669.12	44.47
669.26	81.92
669.40	42.13
669.54	21.06
669.68	63.19
669.82	32.77
669.96	56.17
670.10	39.79
670.25	9.36
670.39	0.00
670.53	16.38
670.67	2.34
670.81	72.56
670.95	70.22
671.09	65.54
671.23	147.45
671.37	21.06
671.51	49.15
671.65	56.17
671.79	44.47
671.93	67.88
672.07	21.06
672.21	70.22
672.35	79.58
672.49	60.85
672.63	79.58
672.77	30.43
672.91	44.47
673.05	91.28
673.19	58.51
673.33	18.72
673.47	70.22
673.61	16.38
673.75	95.96
673.89	91.28
674.03	32.77
674.17	46.81
674.31	44.47
674.45	18.72
674.59	70.22
674.73	0.00
674.87	42.13
675.01	60.85
675.15	39.79
675.29	112.35
675.43	18.72
675.56	37.45
675.70	21.06
675.84	65.54
675.98	21.06
676.12	42.13
676.26	32.77
676.40	0.00
676.54	105.32
676.68	51.49
676.82	28.09
676.96	35.11
677.10	60.85
677.23	81.92
677.37	46.81
677.51	100.64
677.65	25.75
677.79	51.49
677.93	70.22
678.07	51.49
678.21	77.24
678.34	35.11
678.48	0.00
678.62	58.51
678.76	67.88
678.90	0.00
679.04	65.54
679.18	46.81
679.31	28.09
679.45	46.81
679.59	49.15
679.73	32.77
679.87	0.00
680.00	105.32
680.14	46.81
680.28	84.26
680.42	37.45
680.56	0.00
680.70	23.41
680.83	32.77
680.97	18.72
681.11	39.79
681.25	37.45
681.39	0.00
681.52	23.41
681.66	9.36
681.80	21.06
681.94	65.54
682.07	28.09
682.21	44.47
682.35	86.60
682.49	102.98
682.62	28.09
682.76	100.64
682.90	81.92
683.04	98.30
683.17	63.19
683.31	58.51
683.45	28.09
683.59	81.92
683.72	42.13
683.86	9.36
684.00	0.00
684.13	0.00
684.27	23.41
684.41	81.92
684.55	35.11
684.68	49.15
684.82	0.00
684.96	44.47
685.09	0.00
685.23	21.06
685.37	0.00
685.50	39.79
685.64	72.56
685.78	56.17
685.91	11.70
686.05	65.54
686.19	84.26
686.32	49.15
686.46	0.00
686.60	49.15
686.73	42.13
686.87	53.83
687.01	23.41
687.14	18.72
687.28	72.56
687.42	0.00
687.55	0.00
687.69	63.19
687.82	0.00
687.96	32.77
688.10	37.45
688.23	93.62
688.37	51.49
688.50	42.13
688.64	74.90
688.78	65.54
688.91	16.38
689.05	67.88
689.18	107.66
689.32	9.36
689.46	42.13
689.59	0.00
689.73	42.13
689.86	4.68
690.00	42.13
690.13	60.85
690.27	0.00
690.41	53.83
690.54	37.45
690.68	79.58
690.81	65.54
690.95	23.41
691.08	25.75
691.22	56.17
691.35	84.26
691.49	53.83
691.62	63.19
691.76	79.58
691.89	37.45
692.03	18.72
692.16	56.17
692.30	124.05
692.43	44.47
692.57	21.06
692.70	128.73
692.84	51.49
692.97	28.09
693.11	65.54
693.24	77.24
693.38	0.00
693.51	28.09
693.65	84.26
693.78	0.00
693.92	9.36
694.05	51.49
694.19	0.00
694.32	0.00
694.45	49.15
694.59	35.11
694.72	49.15
694.86	0.00
694.99	32.77
695.13	39.79
695.26	65.54
695.39	138.09
695.53	35.11
695.66	56.17
695.80	0.00
695.93	28.09
696.07	28.09
696.20	0.00
696.33	0.00
696.47	18.72
696.60	56.17
696.73	0.00
696.87	0.00
697.00	0.00
697.14	74.90
697.27	72.56
697.40	14.04
697.54	56.17
697.67	74.90
697.80	70.22
697.94	39.79
698.07	51.49
698.21	37.45
698.34	0.00
698.47	18.72
698.61	9.36
698.74	98.30
698.87	49.15
699.01	79.58
699.14	0.00
699.27	46.81
699.40	98.30
699.54	58.51
699.67	91.28
699.80	42.13
699.94	14.04
700.07	60.85
700.20	84.26
700.34	35.11
700.47	28.09
700.60	0.00
700.73	0.00
700.87	70.22
701.00	51.49
701.13	65.54
701.26	72.56
701.40	0.00
701.53	121.71
701.66	70.22
701.79	21.06
701.93	72.56
702.06	114.69
702.19	0.00
702.32	14.04
702.46	53.83
702.59	46.81
702.72	0.00
702.85	63.19
702.99	72.56
703.12	46.81
703.25	58.51
703.38	51.49
703.51	0.00
703.65	93.62
703.78	0.00
703.91	21.06
704.04	0.00
704.17	53.83
704.31	63.19
704.44	35.11
704.57	14.04
704.70	0.00
704.83	72.56
704.96	100.64
705.10	63.19
705.23	110.01
>>>>>End Processed Spectral Data<<<<<
