SpectraSuite Data File
++++++++++++++++++++++++++++++++++++
Date: Fri Oct 04 12:13:43 GMT-05:00 2013
User: price-jones
Dark Spectrum Present: No
Reference Spectrum Present: No
Number of Sampled Component Spectra: 1
Spectrometers: USB2+H05261
Integration Time (usec): 10000 (USB2+H05261)
Spectra Averaged: 1 (USB2+H05261)
Boxcar Smoothing: 0 (USB2+H05261)
Correct for Electrical Dark: No (USB2+H05261)
Strobe/Lamp Enabled: No (USB2+H05261)
Correct for Detector Non-linearity: No (USB2+H05261)
Correct for Stray Light: No (USB2+H05261)
Number of Pixels in Processed Spectrum: 2048
>>>>>Begin Processed Spectral Data<<<<<
365.73	0.00
365.92	0.00
366.12	0.00
366.32	0.00
366.52	0.00
366.72	0.00
366.91	0.00
367.11	0.00
367.31	0.00
367.51	0.00
367.70	0.00
367.90	0.00
368.10	0.00
368.30	0.00
368.49	0.00
368.69	0.00
368.89	0.00
369.09	0.00
369.28	0.00
369.48	0.00
369.68	0.00
369.87	0.00
370.07	0.00
370.27	0.00
370.47	0.00
370.66	0.00
370.86	4.68
371.06	0.00
371.25	0.00
371.45	0.00
371.65	4.68
371.84	0.00
372.04	0.00
372.24	0.00
372.44	11.70
372.63	0.00
372.83	0.00
373.03	0.00
373.22	28.09
373.42	23.41
373.62	23.41
373.81	63.19
374.01	60.85
374.21	0.00
374.40	7.02
374.60	28.09
374.79	0.00
374.99	98.30
375.19	58.51
375.38	0.00
375.58	9.36
375.78	58.51
375.97	35.11
376.17	51.49
376.37	16.38
376.56	0.00
376.76	23.41
376.95	30.43
377.15	0.00
377.35	7.02
377.54	0.00
377.74	0.00
377.93	44.47
378.13	14.04
378.33	58.51
378.52	0.00
378.72	7.02
378.91	18.72
379.11	67.88
379.31	60.85
379.50	0.00
379.70	0.00
379.89	70.22
380.09	32.77
380.28	58.51
380.48	0.00
380.68	95.96
380.87	79.58
381.07	0.00
381.26	16.38
381.46	39.79
381.65	63.19
381.85	44.47
382.04	53.83
382.24	79.58
382.43	0.00
382.63	0.00
382.83	28.09
383.02	44.47
383.22	0.00
383.41	49.15
383.61	0.00
383.80	25.75
384.00	0.00
384.19	0.00
384.39	25.75
384.58	11.70
384.78	25.75
384.97	14.04
385.17	18.72
385.36	16.38
385.56	60.85
385.75	7.02
385.95	0.00
386.14	0.00
386.34	49.15
386.53	0.00
386.72	0.00
386.92	0.00
387.11	0.00
387.31	0.00
387.50	53.83
387.70	18.72
387.89	11.70
388.09	16.38
388.28	86.60
388.48	0.00
388.67	25.75
388.86	0.00
389.06	0.00
389.25	35.11
389.45	46.81
389.64	21.06
389.84	39.79
390.03	0.00
390.22	0.00
390.42	0.00
390.61	30.43
390.81	23.41
391.00	0.00
391.19	7.02
391.39	23.41
391.58	95.96
391.78	37.45
391.97	23.41
392.16	21.06
392.36	0.00
392.55	0.00
392.75	44.47
392.94	65.54
393.13	56.17
393.33	18.72
393.52	0.00
393.71	56.17
393.91	0.00
394.10	25.75
394.29	0.00
394.49	25.75
394.68	28.09
394.88	0.00
395.07	49.15
395.26	35.11
395.46	23.41
395.65	18.72
395.84	2.34
396.04	107.66
396.23	18.72
396.42	56.17
396.62	65.54
396.81	51.49
397.00	28.09
397.19	18.72
397.39	70.22
397.58	2.34
397.77	107.66
397.97	102.98
398.16	0.00
398.35	0.00
398.55	91.28
398.74	70.22
398.93	28.09
399.12	35.11
399.32	9.36
399.51	0.00
399.70	0.00
399.90	2.34
400.09	2.34
400.28	79.58
400.47	7.02
400.67	91.28
400.86	88.94
401.05	16.38
401.24	0.00
401.44	0.00
401.63	60.85
401.82	58.51
402.01	11.70
402.21	72.56
402.40	84.26
402.59	21.06
402.78	2.34
402.97	0.00
403.17	0.00
403.36	65.54
403.55	23.41
403.74	0.00
403.93	16.38
404.13	9.36
404.32	42.13
404.51	9.36
404.70	25.75
404.89	9.36
405.09	32.77
405.28	79.58
405.47	56.17
405.66	133.41
405.85	46.81
406.05	46.81
406.24	30.43
406.43	114.69
406.62	138.09
406.81	0.00
407.00	0.00
407.20	93.62
407.39	28.09
407.58	0.00
407.77	44.47
407.96	100.64
408.15	32.77
408.34	23.41
408.54	25.75
408.73	0.00
408.92	37.45
409.11	25.75
409.30	46.81
409.49	58.51
409.68	0.00
409.87	0.00
410.07	46.81
410.26	37.45
410.45	0.00
410.64	63.19
410.83	49.15
411.02	16.38
411.21	56.17
411.40	67.88
411.59	21.06
411.78	65.54
411.98	0.00
412.17	49.15
412.36	35.11
412.55	49.15
412.74	84.26
412.93	46.81
413.12	37.45
413.31	9.36
413.50	0.00
413.69	42.13
413.88	35.11
414.07	4.68
414.26	53.83
414.45	7.02
414.64	53.83
414.83	46.81
415.02	35.11
415.22	72.56
415.41	65.54
415.60	37.45
415.79	70.22
415.98	46.81
416.17	23.41
416.36	32.77
416.55	35.11
416.74	16.38
416.93	0.00
417.12	9.36
417.31	72.56
417.50	81.92
417.69	49.15
417.88	23.41
418.07	0.00
418.26	2.34
418.45	2.34
418.64	0.00
418.83	49.15
419.02	37.45
419.21	0.00
419.39	28.09
419.58	18.72
419.77	28.09
419.96	72.56
420.15	79.58
420.34	56.17
420.53	67.88
420.72	28.09
420.91	63.19
421.10	25.75
421.29	21.06
421.48	4.68
421.67	9.36
421.86	72.56
422.05	7.02
422.24	0.00
422.43	58.51
422.61	14.04
422.80	63.19
422.99	9.36
423.18	63.19
423.37	49.15
423.56	0.00
423.75	63.19
423.94	23.41
424.13	14.04
424.32	95.96
424.50	51.49
424.69	79.58
424.88	51.49
425.07	112.35
425.26	16.38
425.45	23.41
425.64	2.34
425.83	0.00
426.01	46.81
426.20	14.04
426.39	86.60
426.58	67.88
426.77	44.47
426.96	37.45
427.15	0.00
427.33	58.51
427.52	0.00
427.71	49.15
427.90	39.79
428.09	4.68
428.28	35.11
428.46	25.75
428.65	0.00
428.84	21.06
429.03	56.17
429.22	0.00
429.40	102.98
429.59	74.90
429.78	14.04
429.97	0.00
430.16	7.02
430.34	60.85
430.53	42.13
430.72	53.83
430.91	67.88
431.10	32.77
431.28	21.06
431.47	42.13
431.66	9.36
431.85	18.72
432.03	9.36
432.22	102.98
432.41	58.51
432.60	91.28
432.79	95.96
432.97	51.49
433.16	35.11
433.35	16.38
433.54	0.00
433.72	58.51
433.91	18.72
434.10	0.00
434.28	56.17
434.47	30.43
434.66	37.45
434.85	16.38
435.03	0.00
435.22	67.88
435.41	67.88
435.59	4.68
435.78	88.94
435.97	11.70
436.16	0.00
436.34	67.88
436.53	65.54
436.72	58.51
436.90	72.56
437.09	4.68
437.28	51.49
437.46	0.00
437.65	30.43
437.84	9.36
438.02	63.19
438.21	42.13
438.40	81.92
438.58	67.88
438.77	25.75
438.96	0.00
439.14	42.13
439.33	21.06
439.52	53.83
439.70	0.00
439.89	28.09
440.08	46.81
440.26	18.72
440.45	70.22
440.63	67.88
440.82	46.81
441.01	11.70
441.19	42.13
441.38	44.47
441.57	0.00
441.75	16.38
441.94	74.90
442.12	44.47
442.31	81.92
442.50	16.38
442.68	25.75
442.87	65.54
443.05	42.13
443.24	102.98
443.43	86.60
443.61	0.00
443.80	67.88
443.98	0.00
444.17	14.04
444.35	95.96
444.54	0.00
444.73	84.26
444.91	42.13
445.10	44.47
445.28	35.11
445.47	98.30
445.65	86.60
445.84	60.85
446.02	100.64
446.21	65.54
446.39	49.15
446.58	77.24
446.77	110.01
446.95	56.17
447.14	30.43
447.32	58.51
447.51	70.22
447.69	81.92
447.88	67.88
448.06	9.36
448.25	9.36
448.43	37.45
448.62	37.45
448.80	0.00
448.99	95.96
449.17	37.45
449.36	42.13
449.54	53.83
449.73	107.66
449.91	16.38
450.10	0.00
450.28	84.26
450.46	63.19
450.65	30.43
450.83	72.56
451.02	44.47
451.20	42.13
451.39	14.04
451.57	0.00
451.76	51.49
451.94	0.00
452.13	16.38
452.31	56.17
452.49	0.00
452.68	53.83
452.86	39.79
453.05	25.75
453.23	25.75
453.42	93.62
453.60	0.00
453.78	44.47
453.97	18.72
454.15	117.03
454.34	56.17
454.52	63.19
454.70	51.49
454.89	121.71
455.07	46.81
455.26	100.64
455.44	156.82
455.62	105.32
455.81	0.00
455.99	70.22
456.17	11.70
456.36	114.69
456.54	65.54
456.73	166.18
456.91	9.36
457.09	58.51
457.28	91.28
457.46	39.79
457.64	23.41
457.83	46.81
458.01	39.79
458.19	74.90
458.38	0.00
458.56	70.22
458.74	0.00
458.93	30.43
459.11	0.00
459.29	58.51
459.48	86.60
459.66	37.45
459.84	102.98
460.03	46.81
460.21	7.02
460.39	7.02
460.57	0.00
460.76	0.00
460.94	53.83
461.12	16.38
461.31	88.94
461.49	37.45
461.67	95.96
461.85	88.94
462.04	25.75
462.22	131.07
462.40	32.77
462.59	88.94
462.77	135.75
462.95	30.43
463.13	77.24
463.32	23.41
463.50	56.17
463.68	67.88
463.86	39.79
464.05	107.66
464.23	42.13
464.41	37.45
464.59	35.11
464.78	60.85
464.96	0.00
465.14	30.43
465.32	23.41
465.50	37.45
465.69	0.00
465.87	32.77
466.05	4.68
466.23	65.54
466.41	2.34
466.60	163.84
466.78	63.19
466.96	65.54
467.14	46.81
467.32	0.00
467.51	0.00
467.69	32.77
467.87	46.81
468.05	79.58
468.23	28.09
468.41	0.00
468.60	70.22
468.78	77.24
468.96	35.11
469.14	39.79
469.32	16.38
469.50	4.68
469.69	53.83
469.87	39.79
470.05	49.15
470.23	53.83
470.41	28.09
470.59	9.36
470.77	37.45
470.95	53.83
471.14	23.41
471.32	98.30
471.50	63.19
471.68	7.02
471.86	58.51
472.04	4.68
472.22	74.90
472.40	70.22
472.58	63.19
472.77	0.00
472.95	25.75
473.13	93.62
473.31	23.41
473.49	30.43
473.67	42.13
473.85	56.17
474.03	18.72
474.21	0.00
474.39	98.30
474.57	32.77
474.75	35.11
474.93	0.00
475.12	23.41
475.30	39.79
475.48	37.45
475.66	2.34
475.84	0.00
476.02	7.02
476.20	0.00
476.38	49.15
476.56	65.54
476.74	35.11
476.92	56.17
477.10	2.34
477.28	35.11
477.46	18.72
477.64	53.83
477.82	51.49
478.00	56.17
478.18	28.09
478.36	42.13
478.54	28.09
478.72	53.83
478.90	9.36
479.08	63.19
479.26	28.09
479.44	30.43
479.62	72.56
479.80	25.75
479.98	77.24
480.16	107.66
480.34	79.58
480.52	0.00
480.70	63.19
480.88	114.69
481.06	0.00
481.24	51.49
481.41	30.43
481.59	16.38
481.77	74.90
481.95	42.13
482.13	58.51
482.31	142.77
482.49	145.11
482.67	14.04
482.85	44.47
483.03	21.06
483.21	16.38
483.39	46.81
483.57	95.96
483.74	88.94
483.92	42.13
484.10	65.54
484.28	18.72
484.46	18.72
484.64	65.54
484.82	100.64
485.00	60.85
485.18	21.06
485.35	30.43
485.53	0.00
485.71	9.36
485.89	107.66
486.07	32.77
486.25	88.94
486.43	53.83
486.61	0.00
486.78	56.17
486.96	79.58
487.14	112.35
487.32	46.81
487.50	42.13
487.68	72.56
487.85	0.00
488.03	0.00
488.21	30.43
488.39	63.19
488.57	63.19
488.75	37.45
488.92	72.56
489.10	65.54
489.28	51.49
489.46	46.81
489.64	35.11
489.81	30.43
489.99	32.77
490.17	14.04
490.35	18.72
490.53	49.15
490.70	46.81
490.88	70.22
491.06	56.17
491.24	63.19
491.41	135.75
491.59	49.15
491.77	56.17
491.95	63.19
492.13	30.43
492.30	51.49
492.48	81.92
492.66	79.58
492.84	58.51
493.01	56.17
493.19	81.92
493.37	0.00
493.54	63.19
493.72	60.85
493.90	110.01
494.08	124.05
494.25	0.00
494.43	37.45
494.61	56.17
494.79	53.83
494.96	46.81
495.14	51.49
495.32	124.05
495.49	42.13
495.67	16.38
495.85	56.17
496.02	0.00
496.20	42.13
496.38	70.22
496.55	56.17
496.73	58.51
496.91	30.43
497.09	18.72
497.26	63.19
497.44	37.45
497.62	0.00
497.79	81.92
497.97	14.04
498.14	46.81
498.32	79.58
498.50	51.49
498.67	37.45
498.85	42.13
499.03	4.68
499.20	98.30
499.38	16.38
499.56	72.56
499.73	0.00
499.91	39.79
500.08	39.79
500.26	0.00
500.44	35.11
500.61	65.54
500.79	42.13
500.97	37.45
501.14	121.71
501.32	86.60
501.49	0.00
501.67	18.72
501.84	74.90
502.02	65.54
502.20	72.56
502.37	39.79
502.55	65.54
502.72	18.72
502.90	124.05
503.07	60.85
503.25	74.90
503.43	42.13
503.60	65.54
503.78	63.19
503.95	65.54
504.13	49.15
504.30	0.00
504.48	79.58
504.65	70.22
504.83	42.13
505.01	0.00
505.18	7.02
505.36	44.47
505.53	60.85
505.71	100.64
505.88	84.26
506.06	18.72
506.23	42.13
506.41	0.00
506.58	79.58
506.76	107.66
506.93	56.17
507.11	37.45
507.28	42.13
507.46	42.13
507.63	7.02
507.81	37.45
507.98	42.13
508.16	65.54
508.33	18.72
508.50	18.72
508.68	21.06
508.85	30.43
509.03	11.70
509.20	35.11
509.38	0.00
509.55	39.79
509.73	37.45
509.90	91.28
510.08	0.00
510.25	67.88
510.42	112.35
510.60	98.30
510.77	37.45
510.95	63.19
511.12	112.35
511.30	35.11
511.47	72.56
511.64	9.36
511.82	21.06
511.99	56.17
512.17	28.09
512.34	65.54
512.51	11.70
512.69	53.83
512.86	42.13
513.04	93.62
513.21	70.22
513.38	53.83
513.56	39.79
513.73	42.13
513.90	46.81
514.08	107.66
514.25	30.43
514.43	88.94
514.60	107.66
514.77	81.92
514.95	131.07
515.12	51.49
515.29	32.77
515.47	56.17
515.64	65.54
515.81	53.83
515.99	42.13
516.16	65.54
516.33	30.43
516.51	102.98
516.68	58.51
516.85	28.09
517.03	39.79
517.20	0.00
517.37	112.35
517.54	2.34
517.72	70.22
517.89	72.56
518.06	30.43
518.24	72.56
518.41	77.24
518.58	21.06
518.75	23.41
518.93	2.34
519.10	79.58
519.27	0.00
519.45	35.11
519.62	28.09
519.79	0.00
519.96	46.81
520.14	121.71
520.31	84.26
520.48	46.81
520.65	51.49
520.83	60.85
521.00	0.00
521.17	70.22
521.34	0.00
521.52	49.15
521.69	30.43
521.86	21.06
522.03	0.00
522.20	72.56
522.38	53.83
522.55	37.45
522.72	79.58
522.89	100.64
523.07	102.98
523.24	79.58
523.41	0.00
523.58	2.34
523.75	102.98
523.92	72.56
524.10	105.32
524.27	70.22
524.44	51.49
524.61	0.00
524.78	53.83
524.96	21.06
525.13	88.94
525.30	77.24
525.47	93.62
525.64	91.28
525.81	16.38
525.98	30.43
526.16	53.83
526.33	100.64
526.50	88.94
526.67	16.38
526.84	56.17
527.01	7.02
527.18	11.70
527.36	145.11
527.53	46.81
527.70	28.09
527.87	84.26
528.04	77.24
528.21	25.75
528.38	105.32
528.55	46.81
528.72	65.54
528.89	72.56
529.07	39.79
529.24	67.88
529.41	58.51
529.58	79.58
529.75	4.68
529.92	51.49
530.09	58.51
530.26	63.19
530.43	51.49
530.60	0.00
530.77	126.39
530.94	0.00
531.11	42.13
531.28	100.64
531.46	53.83
531.63	56.17
531.80	23.41
531.97	93.62
532.14	140.43
532.31	86.60
532.48	128.73
532.65	74.90
532.82	112.35
532.99	58.51
533.16	35.11
533.33	28.09
533.50	25.75
533.67	86.60
533.84	0.00
534.01	28.09
534.18	67.88
534.35	16.38
534.52	56.17
534.69	100.64
534.86	117.03
535.03	74.90
535.20	46.81
535.37	56.17
535.54	0.00
535.71	70.22
535.88	88.94
536.05	21.06
536.22	51.49
536.38	42.13
536.55	67.88
536.72	16.38
536.89	93.62
537.06	56.17
537.23	126.39
537.40	2.34
537.57	37.45
537.74	70.22
537.91	18.72
538.08	84.26
538.25	105.32
538.42	93.62
538.59	84.26
538.75	18.72
538.92	9.36
539.09	2.34
539.26	9.36
539.43	60.85
539.60	58.51
539.77	56.17
539.94	65.54
540.11	37.45
540.28	42.13
540.44	81.92
540.61	65.54
540.78	16.38
540.95	84.26
541.12	84.26
541.29	86.60
541.46	11.70
541.62	4.68
541.79	11.70
541.96	72.56
542.13	28.09
542.30	72.56
542.47	93.62
542.63	67.88
542.80	60.85
542.97	74.90
543.14	91.28
543.31	60.85
543.48	0.00
543.64	58.51
543.81	49.15
543.98	28.09
544.15	93.62
544.32	11.70
544.48	70.22
544.65	30.43
544.82	23.41
544.99	98.30
545.16	60.85
545.32	21.06
545.49	77.24
545.66	0.00
545.83	32.77
546.00	0.00
546.16	77.24
546.33	28.09
546.50	56.17
546.67	65.54
546.83	91.28
547.00	105.32
547.17	79.58
547.34	32.77
547.50	88.94
547.67	0.00
547.84	60.85
548.00	63.19
548.17	102.98
548.34	93.62
548.51	21.06
548.67	60.85
548.84	46.81
549.01	77.24
549.18	53.83
549.34	4.68
549.51	44.47
549.68	51.49
549.84	9.36
550.01	0.00
550.18	58.51
550.34	25.75
550.51	81.92
550.68	72.56
550.84	67.88
551.01	56.17
551.18	65.54
551.34	25.75
551.51	0.00
551.68	88.94
551.84	60.85
552.01	74.90
552.18	16.38
552.34	37.45
552.51	102.98
552.68	28.09
552.84	74.90
553.01	46.81
553.18	152.13
553.34	88.94
553.51	18.72
553.67	39.79
553.84	95.96
554.01	56.17
554.17	53.83
554.34	65.54
554.51	77.24
554.67	14.04
554.84	49.15
555.00	133.41
555.17	91.28
555.33	74.90
555.50	58.51
555.67	79.58
555.83	16.38
556.00	56.17
556.16	0.00
556.33	7.02
556.50	58.51
556.66	44.47
556.83	98.30
556.99	102.98
557.16	58.51
557.32	2.34
557.49	70.22
557.65	86.60
557.82	100.64
557.98	84.26
558.15	0.00
558.32	39.79
558.48	0.00
558.65	37.45
558.81	21.06
558.98	81.92
559.14	58.51
559.31	65.54
559.47	44.47
559.64	81.92
559.80	107.66
559.97	46.81
560.13	16.38
560.30	70.22
560.46	74.90
560.63	98.30
560.79	0.00
560.96	18.72
561.12	9.36
561.29	37.45
561.45	70.22
561.61	60.85
561.78	37.45
561.94	81.92
562.11	77.24
562.27	30.43
562.44	77.24
562.60	58.51
562.77	74.90
562.93	37.45
563.10	7.02
563.26	72.56
563.42	67.88
563.59	32.77
563.75	56.17
563.92	42.13
564.08	32.77
564.24	35.11
564.41	65.54
564.57	58.51
564.74	53.83
564.90	18.72
565.07	18.72
565.23	67.88
565.39	152.13
565.56	30.43
565.72	86.60
565.88	46.81
566.05	86.60
566.21	28.09
566.38	18.72
566.54	81.92
566.70	42.13
566.87	9.36
567.03	39.79
567.19	0.00
567.36	93.62
567.52	65.54
567.68	124.05
567.85	70.22
568.01	102.98
568.17	42.13
568.34	79.58
568.50	88.94
568.66	51.49
568.83	35.11
568.99	30.43
569.15	4.68
569.32	65.54
569.48	65.54
569.64	14.04
569.81	63.19
569.97	49.15
570.13	58.51
570.30	135.75
570.46	102.98
570.62	35.11
570.78	79.58
570.95	0.00
571.11	63.19
571.27	0.00
571.43	0.00
571.60	0.00
571.76	42.13
571.92	72.56
572.09	93.62
572.25	84.26
572.41	42.13
572.57	110.01
572.74	100.64
572.90	23.41
573.06	60.85
573.22	63.19
573.38	93.62
573.55	88.94
573.71	86.60
573.87	30.43
574.03	145.11
574.20	44.47
574.36	51.49
574.52	51.49
574.68	0.00
574.84	42.13
575.01	21.06
575.17	65.54
575.33	100.64
575.49	58.51
575.65	0.00
575.82	110.01
575.98	58.51
576.14	21.06
576.30	30.43
576.46	32.77
576.62	0.00
576.79	95.96
576.95	126.39
577.11	44.47
577.27	53.83
577.43	105.32
577.59	63.19
577.75	37.45
577.92	35.11
578.08	21.06
578.24	81.92
578.40	44.47
578.56	95.96
578.72	39.79
578.88	79.58
579.04	159.16
579.21	11.70
579.37	72.56
579.53	42.13
579.69	72.56
579.85	72.56
580.01	102.98
580.17	63.19
580.33	28.09
580.49	44.47
580.65	35.11
580.82	9.36
580.98	60.85
581.14	65.54
581.30	0.00
581.46	124.05
581.62	91.28
581.78	44.47
581.94	30.43
582.10	102.98
582.26	30.43
582.42	0.00
582.58	39.79
582.74	93.62
582.90	51.49
583.06	42.13
583.22	37.45
583.38	0.00
583.54	14.04
583.70	51.49
583.86	37.45
584.02	128.73
584.18	91.28
584.34	53.83
584.50	72.56
584.66	18.72
584.82	51.49
584.98	28.09
585.14	72.56
585.30	91.28
585.46	53.83
585.62	0.00
585.78	91.28
585.94	0.00
586.10	46.81
586.26	23.41
586.42	4.68
586.58	4.68
586.74	11.70
586.90	74.90
587.06	60.85
587.22	74.90
587.38	63.19
587.54	44.47
587.70	0.00
587.86	86.60
588.02	117.03
588.18	46.81
588.34	70.22
588.49	84.26
588.65	88.94
588.81	53.83
588.97	0.00
589.13	42.13
589.29	79.58
589.45	18.72
589.61	42.13
589.77	0.00
589.93	35.11
590.08	7.02
590.24	107.66
590.40	77.24
590.56	102.98
590.72	65.54
590.88	58.51
591.04	28.09
591.20	0.00
591.35	88.94
591.51	42.13
591.67	46.81
591.83	88.94
591.99	0.00
592.15	44.47
592.31	0.00
592.46	49.15
592.62	65.54
592.78	14.04
592.94	42.13
593.10	65.54
593.26	65.54
593.41	51.49
593.57	79.58
593.73	46.81
593.89	72.56
594.05	107.66
594.20	70.22
594.36	93.62
594.52	42.13
594.68	42.13
594.84	72.56
594.99	56.17
595.15	28.09
595.31	105.32
595.47	79.58
595.62	11.70
595.78	39.79
595.94	93.62
596.10	84.26
596.25	53.83
596.41	107.66
596.57	32.77
596.73	95.96
596.88	60.85
597.04	81.92
597.20	14.04
597.36	46.81
597.51	91.28
597.67	28.09
597.83	0.00
597.99	67.88
598.14	39.79
598.30	88.94
598.46	84.26
598.61	72.56
598.77	140.43
598.93	86.60
599.09	9.36
599.24	63.19
599.40	25.75
599.56	63.19
599.71	60.85
599.87	65.54
600.03	98.30
600.18	88.94
600.34	25.75
600.50	21.06
600.65	60.85
600.81	39.79
600.97	112.35
601.12	102.98
601.28	49.15
601.44	35.11
601.59	60.85
601.75	37.45
601.91	81.92
602.06	56.17
602.22	51.49
602.37	53.83
602.53	28.09
602.69	23.41
602.84	79.58
603.00	77.24
603.16	42.13
603.31	16.38
603.47	32.77
603.62	32.77
603.78	49.15
603.94	65.54
604.09	72.56
604.25	35.11
604.40	53.83
604.56	30.43
604.71	23.41
604.87	67.88
605.03	28.09
605.18	28.09
605.34	74.90
605.49	58.51
605.65	63.19
605.80	131.07
605.96	39.79
606.12	56.17
606.27	86.60
606.43	11.70
606.58	37.45
606.74	32.77
606.89	25.75
607.05	37.45
607.20	18.72
607.36	16.38
607.51	79.58
607.67	23.41
607.82	42.13
607.98	0.00
608.13	32.77
608.29	30.43
608.44	28.09
608.60	0.00
608.75	32.77
608.91	72.56
609.06	37.45
609.22	49.15
609.37	74.90
609.53	49.15
609.68	95.96
609.84	107.66
609.99	28.09
610.15	14.04
610.30	70.22
610.46	25.75
610.61	67.88
610.76	140.43
610.92	51.49
611.07	58.51
611.23	112.35
611.38	74.90
611.54	25.75
611.69	0.00
611.84	18.72
612.00	79.58
612.15	0.00
612.31	37.45
612.46	0.00
612.62	53.83
612.77	42.13
612.92	81.92
613.08	58.51
613.23	28.09
613.39	72.56
613.54	121.71
613.69	74.90
613.85	11.70
614.00	14.04
614.15	0.00
614.31	67.88
614.46	16.38
614.62	39.79
614.77	77.24
614.92	84.26
615.08	42.13
615.23	67.88
615.38	18.72
615.54	70.22
615.69	11.70
615.84	46.81
616.00	49.15
616.15	0.00
616.30	107.66
616.46	70.22
616.61	21.06
616.76	102.98
616.92	28.09
617.07	44.47
617.22	32.77
617.37	84.26
617.53	0.00
617.68	56.17
617.83	0.00
617.99	23.41
618.14	65.54
618.29	16.38
618.45	70.22
618.60	0.00
618.75	110.01
618.90	56.17
619.06	37.45
619.21	63.19
619.36	140.43
619.51	32.77
619.67	51.49
619.82	25.75
619.97	0.00
620.12	79.58
620.28	53.83
620.43	0.00
620.58	88.94
620.73	0.00
620.89	51.49
621.04	37.45
621.19	51.49
621.34	23.41
621.49	72.56
621.65	77.24
621.80	23.41
621.95	42.13
622.10	39.79
622.25	11.70
622.41	7.02
622.56	7.02
622.71	72.56
622.86	98.30
623.01	79.58
623.16	42.13
623.32	51.49
623.47	51.49
623.62	77.24
623.77	21.06
623.92	0.00
624.07	16.38
624.23	102.98
624.38	77.24
624.53	60.85
624.68	46.81
624.83	86.60
624.98	51.49
625.13	21.06
625.29	11.70
625.44	0.00
625.59	0.00
625.74	63.19
625.89	86.60
626.04	39.79
626.19	25.75
626.34	39.79
626.49	58.51
626.65	67.88
626.80	98.30
626.95	28.09
627.10	77.24
627.25	58.51
627.40	93.62
627.55	32.77
627.70	30.43
627.85	74.90
628.00	58.51
628.15	39.79
628.30	86.60
628.45	51.49
628.60	21.06
628.76	46.81
628.91	23.41
629.06	77.24
629.21	0.00
629.36	11.70
629.51	46.81
629.66	74.90
629.81	35.11
629.96	51.49
630.11	35.11
630.26	37.45
630.41	28.09
630.56	100.64
630.71	9.36
630.86	49.15
631.01	117.03
631.16	74.90
631.31	67.88
631.46	14.04
631.61	0.00
631.76	56.17
631.91	51.49
632.06	32.77
632.21	0.00
632.36	0.00
632.51	91.28
632.66	39.79
632.81	93.62
632.96	0.00
633.10	49.15
633.25	63.19
633.40	107.66
633.55	65.54
633.70	11.70
633.85	0.00
634.00	2.34
634.15	58.51
634.30	86.60
634.45	30.43
634.60	77.24
634.75	44.47
634.90	88.94
635.05	124.05
635.19	60.85
635.34	128.73
635.49	37.45
635.64	49.15
635.79	53.83
635.94	51.49
636.09	63.19
636.24	74.90
636.39	74.90
636.53	35.11
636.68	81.92
636.83	0.00
636.98	0.00
637.13	0.00
637.28	79.58
637.43	32.77
637.57	88.94
637.72	7.02
637.87	42.13
638.02	128.73
638.17	0.00
638.32	53.83
638.46	2.34
638.61	16.38
638.76	0.00
638.91	44.47
639.06	91.28
639.20	79.58
639.35	30.43
639.50	93.62
639.65	0.00
639.80	39.79
639.94	65.54
640.09	0.00
640.24	35.11
640.39	51.49
640.54	49.15
640.68	100.64
640.83	91.28
640.98	0.00
641.13	0.00
641.27	16.38
641.42	98.30
641.57	23.41
641.72	49.15
641.86	72.56
642.01	67.88
642.16	0.00
642.31	81.92
642.45	93.62
642.60	70.22
642.75	23.41
642.90	0.00
643.04	28.09
643.19	28.09
643.34	35.11
643.48	0.00
643.63	91.28
643.78	72.56
643.93	46.81
644.07	9.36
644.22	49.15
644.37	49.15
644.51	39.79
644.66	51.49
644.81	46.81
644.95	0.00
645.10	7.02
645.25	53.83
645.39	53.83
645.54	21.06
645.69	53.83
645.83	105.32
645.98	79.58
646.13	0.00
646.27	49.15
646.42	58.51
646.57	84.26
646.71	86.60
646.86	0.00
647.00	65.54
647.15	0.00
647.30	16.38
647.44	0.00
647.59	65.54
647.74	32.77
647.88	0.00
648.03	46.81
648.17	37.45
648.32	30.43
648.47	56.17
648.61	30.43
648.76	4.68
648.90	23.41
649.05	63.19
649.20	23.41
649.34	42.13
649.49	37.45
649.63	9.36
649.78	86.60
649.92	51.49
650.07	9.36
650.21	0.00
650.36	9.36
650.51	14.04
650.65	46.81
650.80	11.70
650.94	93.62
651.09	53.83
651.23	56.17
651.38	25.75
651.52	21.06
651.67	9.36
651.81	32.77
651.96	25.75
652.10	0.00
652.25	11.70
652.39	74.90
652.54	102.98
652.68	72.56
652.83	9.36
652.97	0.00
653.12	88.94
653.26	58.51
653.41	25.75
653.55	44.47
653.70	60.85
653.84	49.15
653.99	0.00
654.13	93.62
654.27	46.81
654.42	67.88
654.56	65.54
654.71	46.81
654.85	21.06
655.00	7.02
655.14	77.24
655.29	28.09
655.43	39.79
655.57	0.00
655.72	4.68
655.86	28.09
656.01	21.06
656.15	37.45
656.30	30.43
656.44	60.85
656.58	44.47
656.73	110.01
656.87	0.00
657.01	102.98
657.16	42.13
657.30	74.90
657.45	95.96
657.59	2.34
657.73	49.15
657.88	0.00
658.02	70.22
658.16	63.19
658.31	23.41
658.45	0.00
658.60	112.35
658.74	126.39
658.88	4.68
659.03	56.17
659.17	114.69
659.31	49.15
659.46	30.43
659.60	42.13
659.74	4.68
659.89	44.47
660.03	51.49
660.17	79.58
660.32	35.11
660.46	37.45
660.60	51.49
660.74	0.00
660.89	18.72
661.03	79.58
661.17	49.15
661.32	0.00
661.46	0.00
661.60	124.05
661.74	81.92
661.89	44.47
662.03	53.83
662.17	51.49
662.31	25.75
662.46	25.75
662.60	49.15
662.74	23.41
662.88	42.13
663.03	32.77
663.17	105.32
663.31	30.43
663.45	44.47
663.60	42.13
663.74	72.56
663.88	7.02
664.02	67.88
664.17	39.79
664.31	74.90
664.45	49.15
664.59	0.00
664.73	35.11
664.88	16.38
665.02	25.75
665.16	39.79
665.30	25.75
665.44	0.00
665.59	51.49
665.73	35.11
665.87	46.81
666.01	0.00
666.15	16.38
666.29	51.49
666.44	86.60
666.58	37.45
666.72	58.51
666.86	67.88
667.00	63.19
667.14	74.90
667.28	9.36
667.43	56.17
667.57	18.72
667.71	32.77
667.85	0.00
667.99	60.85
668.13	0.00
668.27	0.00
668.41	11.70
668.56	46.81
668.70	23.41
668.84	91.28
668.98	0.00
669.12	28.09
669.26	81.92
669.40	4.68
669.54	23.41
669.68	7.02
669.82	32.77
669.96	0.00
670.10	49.15
670.25	60.85
670.39	30.43
670.53	44.47
670.67	77.24
670.81	42.13
670.95	39.79
671.09	88.94
671.23	0.00
671.37	70.22
671.51	88.94
671.65	28.09
671.79	28.09
671.93	18.72
672.07	42.13
672.21	63.19
672.35	105.32
672.49	84.26
672.63	35.11
672.77	46.81
672.91	4.68
673.05	0.00
673.19	32.77
673.33	0.00
673.47	9.36
673.61	60.85
673.75	77.24
673.89	51.49
674.03	35.11
674.17	30.43
674.31	0.00
674.45	79.58
674.59	18.72
674.73	0.00
674.87	49.15
675.01	0.00
675.15	70.22
675.29	7.02
675.43	60.85
675.56	16.38
675.70	39.79
675.84	18.72
675.98	35.11
676.12	39.79
676.26	53.83
676.40	11.70
676.54	28.09
676.68	65.54
676.82	0.00
676.96	23.41
677.10	93.62
677.23	0.00
677.37	53.83
677.51	93.62
677.65	49.15
677.79	28.09
677.93	84.26
678.07	88.94
678.21	65.54
678.34	23.41
678.48	28.09
678.62	28.09
678.76	65.54
678.90	44.47
679.04	14.04
679.18	70.22
679.31	46.81
679.45	0.00
679.59	81.92
679.73	42.13
679.87	37.45
680.00	53.83
680.14	46.81
680.28	63.19
680.42	0.00
680.56	49.15
680.70	0.00
680.83	2.34
680.97	0.00
681.11	28.09
681.25	79.58
681.39	11.70
681.52	30.43
681.66	30.43
681.80	91.28
681.94	14.04
682.07	53.83
682.21	60.85
682.35	84.26
682.49	32.77
682.62	16.38
682.76	0.00
682.90	58.51
683.04	0.00
683.17	51.49
683.31	102.98
683.45	18.72
683.59	67.88
683.72	14.04
683.86	28.09
684.00	0.00
684.13	67.88
684.27	0.00
684.41	2.34
684.55	37.45
684.68	86.60
684.82	9.36
684.96	30.43
685.09	21.06
685.23	2.34
685.37	37.45
685.50	7.02
685.64	60.85
685.78	23.41
685.91	72.56
686.05	25.75
686.19	14.04
686.32	49.15
686.46	0.00
686.60	65.54
686.73	51.49
686.87	70.22
687.01	14.04
687.14	2.34
687.28	0.00
687.42	70.22
687.55	4.68
687.69	11.70
687.82	49.15
687.96	86.60
688.10	0.00
688.23	102.98
688.37	23.41
688.50	0.00
688.64	11.70
688.78	28.09
688.91	37.45
689.05	56.17
689.18	0.00
689.32	93.62
689.46	49.15
689.59	65.54
689.73	0.00
689.86	42.13
690.00	81.92
690.13	7.02
690.27	0.00
690.41	74.90
690.54	67.88
690.68	60.85
690.81	79.58
690.95	44.47
691.08	72.56
691.22	42.13
691.35	0.00
691.49	67.88
691.62	58.51
691.76	32.77
691.89	0.00
692.03	0.00
692.16	67.88
692.30	30.43
692.43	28.09
692.57	23.41
692.70	60.85
692.84	58.51
692.97	65.54
693.11	0.00
693.24	30.43
693.38	91.28
693.51	0.00
693.65	9.36
693.78	14.04
693.92	16.38
694.05	28.09
694.19	32.77
694.32	79.58
694.45	65.54
694.59	32.77
694.72	74.90
694.86	53.83
694.99	93.62
695.13	46.81
695.26	0.00
695.39	70.22
695.53	63.19
695.66	49.15
695.80	0.00
695.93	0.00
696.07	0.00
696.20	14.04
696.33	23.41
696.47	4.68
696.60	11.70
696.73	39.79
696.87	0.00
697.00	112.35
697.14	117.03
697.27	63.19
697.40	46.81
697.54	67.88
697.67	0.00
697.80	72.56
697.94	39.79
698.07	37.45
698.21	117.03
698.34	46.81
698.47	9.36
698.61	0.00
698.74	63.19
698.87	0.00
699.01	16.38
699.14	7.02
699.27	77.24
699.40	35.11
699.54	0.00
699.67	100.64
699.80	0.00
699.94	51.49
700.07	7.02
700.20	49.15
700.34	4.68
700.47	63.19
700.60	0.00
700.73	0.00
700.87	98.30
701.00	9.36
701.13	35.11
701.26	18.72
701.40	35.11
701.53	42.13
701.66	16.38
701.79	102.98
701.93	63.19
702.06	91.28
702.19	18.72
702.32	18.72
702.46	0.00
702.59	23.41
702.72	72.56
702.85	35.11
702.99	58.51
703.12	9.36
703.25	14.04
703.38	11.70
703.51	39.79
703.65	14.04
703.78	11.70
703.91	42.13
704.04	39.79
704.17	74.90
704.31	65.54
704.44	11.70
704.57	39.79
704.70	49.15
704.83	65.54
704.96	53.83
705.10	21.06
705.23	72.56
>>>>>End Processed Spectral Data<<<<<
