SpectraSuite Data File
++++++++++++++++++++++++++++++++++++
Date: Fri Oct 04 12:13:37 GMT-05:00 2013
User: price-jones
Dark Spectrum Present: No
Reference Spectrum Present: No
Number of Sampled Component Spectra: 1
Spectrometers: USB2+H05261
Integration Time (usec): 10000 (USB2+H05261)
Spectra Averaged: 1 (USB2+H05261)
Boxcar Smoothing: 0 (USB2+H05261)
Correct for Electrical Dark: No (USB2+H05261)
Strobe/Lamp Enabled: No (USB2+H05261)
Correct for Detector Non-linearity: No (USB2+H05261)
Correct for Stray Light: No (USB2+H05261)
Number of Pixels in Processed Spectrum: 2048
>>>>>Begin Processed Spectral Data<<<<<
365.73	0.00
365.92	0.00
366.12	0.00
366.32	0.00
366.52	0.00
366.72	0.00
366.91	0.00
367.11	0.00
367.31	0.00
367.51	0.00
367.70	0.00
367.90	0.00
368.10	0.00
368.30	0.00
368.49	0.00
368.69	0.00
368.89	0.00
369.09	0.00
369.28	0.00
369.48	0.00
369.68	0.00
369.87	0.00
370.07	0.00
370.27	0.00
370.47	0.00
370.66	0.00
370.86	0.00
371.06	46.81
371.25	56.17
371.45	0.00
371.65	0.00
371.84	0.00
372.04	0.00
372.24	46.81
372.44	0.00
372.63	18.72
372.83	23.41
373.03	0.00
373.22	9.36
373.42	0.00
373.62	0.00
373.81	2.34
374.01	28.09
374.21	53.83
374.40	21.06
374.60	32.77
374.79	0.00
374.99	0.00
375.19	35.11
375.38	58.51
375.58	70.22
375.78	46.81
375.97	4.68
376.17	9.36
376.37	9.36
376.56	51.49
376.76	37.45
376.95	60.85
377.15	16.38
377.35	2.34
377.54	28.09
377.74	0.00
377.93	32.77
378.13	18.72
378.33	35.11
378.52	9.36
378.72	11.70
378.91	102.98
379.11	32.77
379.31	25.75
379.50	0.00
379.70	60.85
379.89	114.69
380.09	16.38
380.28	39.79
380.48	23.41
380.68	58.51
380.87	0.00
381.07	0.00
381.26	37.45
381.46	39.79
381.65	16.38
381.85	44.47
382.04	0.00
382.24	25.75
382.43	30.43
382.63	7.02
382.83	58.51
383.02	67.88
383.22	58.51
383.41	11.70
383.61	102.98
383.80	11.70
384.00	0.00
384.19	18.72
384.39	14.04
384.58	2.34
384.78	77.24
384.97	14.04
385.17	30.43
385.36	37.45
385.56	0.00
385.75	4.68
385.95	0.00
386.14	56.17
386.34	0.00
386.53	21.06
386.72	63.19
386.92	70.22
387.11	28.09
387.31	72.56
387.50	14.04
387.70	0.00
387.89	53.83
388.09	65.54
388.28	32.77
388.48	0.00
388.67	46.81
388.86	39.79
389.06	37.45
389.25	18.72
389.45	18.72
389.64	25.75
389.84	18.72
390.03	37.45
390.22	0.00
390.42	0.00
390.61	65.54
390.81	0.00
391.00	51.49
391.19	42.13
391.39	60.85
391.58	11.70
391.78	30.43
391.97	16.38
392.16	35.11
392.36	102.98
392.55	53.83
392.75	39.79
392.94	42.13
393.13	105.32
393.33	0.00
393.52	0.00
393.71	30.43
393.91	0.00
394.10	0.00
394.29	16.38
394.49	56.17
394.68	39.79
394.88	93.62
395.07	18.72
395.26	7.02
395.46	25.75
395.65	65.54
395.84	30.43
396.04	14.04
396.23	0.00
396.42	35.11
396.62	28.09
396.81	7.02
397.00	0.00
397.19	0.00
397.39	58.51
397.58	74.90
397.77	67.88
397.97	0.00
398.16	44.47
398.35	30.43
398.55	0.00
398.74	0.00
398.93	23.41
399.12	46.81
399.32	0.00
399.51	56.17
399.70	2.34
399.90	21.06
400.09	0.00
400.28	42.13
400.47	51.49
400.67	56.17
400.86	67.88
401.05	7.02
401.24	49.15
401.44	16.38
401.63	46.81
401.82	67.88
402.01	70.22
402.21	58.51
402.40	11.70
402.59	53.83
402.78	39.79
402.97	32.77
403.17	0.00
403.36	37.45
403.55	0.00
403.74	0.00
403.93	84.26
404.13	0.00
404.32	16.38
404.51	14.04
404.70	65.54
404.89	21.06
405.09	93.62
405.28	14.04
405.47	25.75
405.66	46.81
405.85	100.64
406.05	9.36
406.24	25.75
406.43	70.22
406.62	39.79
406.81	42.13
407.00	0.00
407.20	23.41
407.39	11.70
407.58	42.13
407.77	0.00
407.96	77.24
408.15	35.11
408.34	7.02
408.54	39.79
408.73	46.81
408.92	49.15
409.11	46.81
409.30	28.09
409.49	65.54
409.68	49.15
409.87	9.36
410.07	18.72
410.26	0.00
410.45	35.11
410.64	121.71
410.83	44.47
411.02	0.00
411.21	23.41
411.40	0.00
411.59	86.60
411.78	84.26
411.98	42.13
412.17	0.00
412.36	14.04
412.55	74.90
412.74	79.58
412.93	25.75
413.12	25.75
413.31	42.13
413.50	32.77
413.69	0.00
413.88	49.15
414.07	67.88
414.26	0.00
414.45	60.85
414.64	4.68
414.83	37.45
415.02	23.41
415.22	37.45
415.41	51.49
415.60	51.49
415.79	0.00
415.98	39.79
416.17	0.00
416.36	2.34
416.55	42.13
416.74	121.71
416.93	77.24
417.12	65.54
417.31	46.81
417.50	25.75
417.69	11.70
417.88	7.02
418.07	72.56
418.26	81.92
418.45	131.07
418.64	35.11
418.83	56.17
419.02	63.19
419.21	72.56
419.39	44.47
419.58	9.36
419.77	32.77
419.96	91.28
420.15	7.02
420.34	0.00
420.53	42.13
420.72	70.22
420.91	21.06
421.10	105.32
421.29	58.51
421.48	30.43
421.67	25.75
421.86	49.15
422.05	81.92
422.24	21.06
422.43	28.09
422.61	21.06
422.80	37.45
422.99	0.00
423.18	0.00
423.37	0.00
423.56	65.54
423.75	35.11
423.94	102.98
424.13	23.41
424.32	100.64
424.50	39.79
424.69	93.62
424.88	49.15
425.07	0.00
425.26	53.83
425.45	37.45
425.64	72.56
425.83	0.00
426.01	67.88
426.20	32.77
426.39	14.04
426.58	0.00
426.77	0.00
426.96	60.85
427.15	124.05
427.33	91.28
427.52	0.00
427.71	81.92
427.90	133.41
428.09	77.24
428.28	44.47
428.46	79.58
428.65	42.13
428.84	72.56
429.03	51.49
429.22	44.47
429.40	21.06
429.59	72.56
429.78	39.79
429.97	72.56
430.16	11.70
430.34	93.62
430.53	42.13
430.72	65.54
430.91	0.00
431.10	58.51
431.28	0.00
431.47	0.00
431.66	30.43
431.85	84.26
432.03	23.41
432.22	9.36
432.41	32.77
432.60	0.00
432.79	37.45
432.97	0.00
433.16	9.36
433.35	21.06
433.54	0.00
433.72	79.58
433.91	11.70
434.10	0.00
434.28	110.01
434.47	74.90
434.66	39.79
434.85	42.13
435.03	65.54
435.22	65.54
435.41	14.04
435.59	23.41
435.78	0.00
435.97	42.13
436.16	86.60
436.34	16.38
436.53	9.36
436.72	0.00
436.90	49.15
437.09	0.00
437.28	39.79
437.46	56.17
437.65	70.22
437.84	7.02
438.02	42.13
438.21	63.19
438.40	53.83
438.58	0.00
438.77	102.98
438.96	30.43
439.14	74.90
439.33	86.60
439.52	0.00
439.70	14.04
439.89	32.77
440.08	88.94
440.26	0.00
440.45	28.09
440.63	133.41
440.82	79.58
441.01	18.72
441.19	84.26
441.38	98.30
441.57	51.49
441.75	128.73
441.94	46.81
442.12	44.47
442.31	53.83
442.50	16.38
442.68	79.58
442.87	67.88
443.05	63.19
443.24	7.02
443.43	23.41
443.61	21.06
443.80	51.49
443.98	93.62
444.17	23.41
444.35	32.77
444.54	77.24
444.73	49.15
444.91	46.81
445.10	23.41
445.28	51.49
445.47	0.00
445.65	105.32
445.84	49.15
446.02	37.45
446.21	0.00
446.39	0.00
446.58	91.28
446.77	67.88
446.95	58.51
447.14	84.26
447.32	74.90
447.51	114.69
447.69	25.75
447.88	79.58
448.06	65.54
448.25	56.17
448.43	56.17
448.62	23.41
448.80	0.00
448.99	30.43
449.17	11.70
449.36	72.56
449.54	60.85
449.73	42.13
449.91	44.47
450.10	95.96
450.28	18.72
450.46	79.58
450.65	88.94
450.83	72.56
451.02	84.26
451.20	56.17
451.39	18.72
451.57	35.11
451.76	16.38
451.94	49.15
452.13	21.06
452.31	14.04
452.49	110.01
452.68	72.56
452.86	70.22
453.05	88.94
453.23	81.92
453.42	98.30
453.60	84.26
453.78	100.64
453.97	2.34
454.15	37.45
454.34	53.83
454.52	0.00
454.70	18.72
454.89	44.47
455.07	0.00
455.26	32.77
455.44	67.88
455.62	49.15
455.81	53.83
455.99	46.81
456.17	4.68
456.36	126.39
456.54	46.81
456.73	88.94
456.91	9.36
457.09	105.32
457.28	112.35
457.46	39.79
457.64	149.79
457.83	49.15
458.01	72.56
458.19	28.09
458.38	21.06
458.56	9.36
458.74	21.06
458.93	16.38
459.11	28.09
459.29	100.64
459.48	107.66
459.66	63.19
459.84	60.85
460.03	121.71
460.21	56.17
460.39	18.72
460.57	67.88
460.76	53.83
460.94	56.17
461.12	30.43
461.31	65.54
461.49	67.88
461.67	49.15
461.85	72.56
462.04	58.51
462.22	110.01
462.40	79.58
462.59	0.00
462.77	140.43
462.95	105.32
463.13	32.77
463.32	44.47
463.50	67.88
463.68	93.62
463.86	67.88
464.05	128.73
464.23	44.47
464.41	18.72
464.59	56.17
464.78	56.17
464.96	23.41
465.14	140.43
465.32	21.06
465.50	23.41
465.69	105.32
465.87	112.35
466.05	53.83
466.23	84.26
466.41	49.15
466.60	0.00
466.78	0.00
466.96	74.90
467.14	91.28
467.32	107.66
467.51	86.60
467.69	81.92
467.87	95.96
468.05	7.02
468.23	100.64
468.41	53.83
468.60	51.49
468.78	18.72
468.96	121.71
469.14	77.24
469.32	74.90
469.50	58.51
469.69	74.90
469.87	65.54
470.05	65.54
470.23	53.83
470.41	81.92
470.59	63.19
470.77	0.00
470.95	35.11
471.14	25.75
471.32	0.00
471.50	117.03
471.68	21.06
471.86	25.75
472.04	74.90
472.22	67.88
472.40	100.64
472.58	140.43
472.77	51.49
472.95	53.83
473.13	25.75
473.31	124.05
473.49	107.66
473.67	0.00
473.85	4.68
474.03	114.69
474.21	53.83
474.39	39.79
474.57	9.36
474.75	74.90
474.93	84.26
475.12	37.45
475.30	39.79
475.48	114.69
475.66	56.17
475.84	44.47
476.02	49.15
476.20	0.00
476.38	0.00
476.56	88.94
476.74	93.62
476.92	23.41
477.10	58.51
477.28	93.62
477.46	35.11
477.64	11.70
477.82	67.88
478.00	91.28
478.18	51.49
478.36	25.75
478.54	60.85
478.72	112.35
478.90	58.51
479.08	88.94
479.26	42.13
479.44	63.19
479.62	60.85
479.80	28.09
479.98	93.62
480.16	14.04
480.34	39.79
480.52	98.30
480.70	63.19
480.88	51.49
481.06	88.94
481.24	51.49
481.41	72.56
481.59	51.49
481.77	49.15
481.95	30.43
482.13	28.09
482.31	39.79
482.49	46.81
482.67	58.51
482.85	100.64
483.03	98.30
483.21	58.51
483.39	39.79
483.57	102.98
483.74	23.41
483.92	110.01
484.10	88.94
484.28	110.01
484.46	95.96
484.64	65.54
484.82	44.47
485.00	77.24
485.18	32.77
485.35	72.56
485.53	56.17
485.71	107.66
485.89	72.56
486.07	86.60
486.25	138.09
486.43	30.43
486.61	65.54
486.78	30.43
486.96	124.05
487.14	93.62
487.32	51.49
487.50	16.38
487.68	23.41
487.85	51.49
488.03	131.07
488.21	100.64
488.39	119.37
488.57	21.06
488.75	81.92
488.92	135.75
489.10	39.79
489.28	49.15
489.46	56.17
489.64	126.39
489.81	112.35
489.99	63.19
490.17	102.98
490.35	105.32
490.53	110.01
490.70	67.88
490.88	74.90
491.06	110.01
491.24	0.00
491.41	70.22
491.59	58.51
491.77	49.15
491.95	65.54
492.13	39.79
492.30	56.17
492.48	98.30
492.66	81.92
492.84	81.92
493.01	67.88
493.19	114.69
493.37	0.00
493.54	95.96
493.72	25.75
493.90	110.01
494.08	133.41
494.25	100.64
494.43	65.54
494.61	32.77
494.79	0.00
494.96	9.36
495.14	138.09
495.32	58.51
495.49	28.09
495.67	32.77
495.85	128.73
496.02	0.00
496.20	32.77
496.38	42.13
496.55	79.58
496.73	11.70
496.91	67.88
497.09	105.32
497.26	114.69
497.44	67.88
497.62	135.75
497.79	117.03
497.97	93.62
498.14	53.83
498.32	91.28
498.50	95.96
498.67	42.13
498.85	51.49
499.03	18.72
499.20	72.56
499.38	117.03
499.56	91.28
499.73	46.81
499.91	117.03
500.08	117.03
500.26	25.75
500.44	91.28
500.61	81.92
500.79	112.35
500.97	112.35
501.14	84.26
501.32	86.60
501.49	84.26
501.67	131.07
501.84	49.15
502.02	65.54
502.20	126.39
502.37	128.73
502.55	142.77
502.72	79.58
502.90	88.94
503.07	98.30
503.25	72.56
503.43	105.32
503.60	49.15
503.78	74.90
503.95	93.62
504.13	107.66
504.30	135.75
504.48	110.01
504.65	100.64
504.83	56.17
505.01	100.64
505.18	107.66
505.36	102.98
505.53	91.28
505.71	72.56
505.88	46.81
506.06	0.00
506.23	84.26
506.41	119.37
506.58	93.62
506.76	0.00
506.93	46.81
507.11	86.60
507.28	72.56
507.46	35.11
507.63	86.60
507.81	0.00
507.98	126.39
508.16	79.58
508.33	170.86
508.50	32.77
508.68	42.13
508.85	114.69
509.03	44.47
509.20	58.51
509.38	42.13
509.55	128.73
509.73	30.43
509.90	67.88
510.08	100.64
510.25	121.71
510.42	49.15
510.60	140.43
510.77	121.71
510.95	70.22
511.12	18.72
511.30	98.30
511.47	28.09
511.64	81.92
511.82	98.30
511.99	119.37
512.17	56.17
512.34	98.30
512.51	51.49
512.69	58.51
512.86	112.35
513.04	70.22
513.21	107.66
513.38	88.94
513.56	21.06
513.73	37.45
513.90	32.77
514.08	0.00
514.25	112.35
514.43	72.56
514.60	107.66
514.77	56.17
514.95	124.05
515.12	44.47
515.29	95.96
515.47	98.30
515.64	93.62
515.81	37.45
515.99	72.56
516.16	105.32
516.33	70.22
516.51	70.22
516.68	67.88
516.85	114.69
517.03	49.15
517.20	77.24
517.37	81.92
517.54	81.92
517.72	0.00
517.89	84.26
518.06	131.07
518.24	35.11
518.41	79.58
518.58	60.85
518.75	142.77
518.93	124.05
519.10	84.26
519.27	30.43
519.45	65.54
519.62	126.39
519.79	110.01
519.96	102.98
520.14	63.19
520.31	77.24
520.48	0.00
520.65	126.39
520.83	74.90
521.00	142.77
521.17	131.07
521.34	4.68
521.52	60.85
521.69	37.45
521.86	93.62
522.03	128.73
522.20	131.07
522.38	51.49
522.55	58.51
522.72	163.84
522.89	119.37
523.07	142.77
523.24	145.11
523.41	25.75
523.58	102.98
523.75	95.96
523.92	58.51
524.10	65.54
524.27	49.15
524.44	32.77
524.61	46.81
524.78	112.35
524.96	107.66
525.13	39.79
525.30	49.15
525.47	44.47
525.64	107.66
525.81	46.81
525.98	93.62
526.16	65.54
526.33	84.26
526.50	67.88
526.67	49.15
526.84	49.15
527.01	28.09
527.18	53.83
527.36	114.69
527.53	100.64
527.70	154.48
527.87	0.00
528.04	93.62
528.21	95.96
528.38	114.69
528.55	107.66
528.72	133.41
528.89	21.06
529.07	51.49
529.24	70.22
529.41	112.35
529.58	112.35
529.75	77.24
529.92	72.56
530.09	37.45
530.26	49.15
530.43	131.07
530.60	93.62
530.77	28.09
530.94	74.90
531.11	32.77
531.28	112.35
531.46	88.94
531.63	105.32
531.80	11.70
531.97	53.83
532.14	145.11
532.31	117.03
532.48	81.92
532.65	107.66
532.82	23.41
532.99	168.52
533.16	30.43
533.33	81.92
533.50	93.62
533.67	81.92
533.84	114.69
534.01	79.58
534.18	46.81
534.35	138.09
534.52	30.43
534.69	32.77
534.86	23.41
535.03	88.94
535.20	65.54
535.37	110.01
535.54	98.30
535.71	91.28
535.88	149.79
536.05	84.26
536.22	145.11
536.38	117.03
536.55	42.13
536.72	93.62
536.89	86.60
537.06	138.09
537.23	114.69
537.40	58.51
537.57	133.41
537.74	93.62
537.91	124.05
538.08	51.49
538.25	67.88
538.42	100.64
538.59	74.90
538.75	95.96
538.92	74.90
539.09	30.43
539.26	119.37
539.43	138.09
539.60	79.58
539.77	102.98
539.94	39.79
540.11	107.66
540.28	35.11
540.44	152.13
540.61	91.28
540.78	112.35
540.95	4.68
541.12	70.22
541.29	161.50
541.46	44.47
541.62	72.56
541.79	100.64
541.96	77.24
542.13	67.88
542.30	58.51
542.47	105.32
542.63	53.83
542.80	74.90
542.97	2.34
543.14	124.05
543.31	60.85
543.48	56.17
543.64	58.51
543.81	88.94
543.98	133.41
544.15	65.54
544.32	147.45
544.48	37.45
544.65	112.35
544.82	110.01
544.99	142.77
545.16	70.22
545.32	67.88
545.49	58.51
545.66	72.56
545.83	138.09
546.00	95.96
546.16	131.07
546.33	100.64
546.50	21.06
546.67	140.43
546.83	117.03
547.00	53.83
547.17	107.66
547.34	124.05
547.50	60.85
547.67	133.41
547.84	98.30
548.00	100.64
548.17	44.47
548.34	173.20
548.51	37.45
548.67	67.88
548.84	168.52
549.01	138.09
549.18	63.19
549.34	102.98
549.51	124.05
549.68	51.49
549.84	166.18
550.01	98.30
550.18	51.49
550.34	72.56
550.51	110.01
550.68	112.35
550.84	161.50
551.01	128.73
551.18	110.01
551.34	77.24
551.51	77.24
551.68	72.56
551.84	35.11
552.01	119.37
552.18	67.88
552.34	107.66
552.51	86.60
552.68	23.41
552.84	88.94
553.01	74.90
553.18	84.26
553.34	121.71
553.51	63.19
553.67	32.77
553.84	58.51
554.01	131.07
554.17	126.39
554.34	98.30
554.51	81.92
554.67	100.64
554.84	93.62
555.00	138.09
555.17	88.94
555.33	124.05
555.50	91.28
555.67	138.09
555.83	81.92
556.00	79.58
556.16	84.26
556.33	53.83
556.50	63.19
556.66	131.07
556.83	114.69
556.99	91.28
557.16	46.81
557.32	102.98
557.49	112.35
557.65	91.28
557.82	107.66
557.98	102.98
558.15	100.64
558.32	93.62
558.48	86.60
558.65	119.37
558.81	105.32
558.98	117.03
559.14	49.15
559.31	16.38
559.47	88.94
559.64	72.56
559.80	159.16
559.97	95.96
560.13	63.19
560.30	53.83
560.46	72.56
560.63	152.13
560.79	156.82
560.96	77.24
561.12	114.69
561.29	74.90
561.45	60.85
561.61	117.03
561.78	114.69
561.94	84.26
562.11	114.69
562.27	98.30
562.44	72.56
562.60	117.03
562.77	133.41
562.93	168.52
563.10	46.81
563.26	110.01
563.42	102.98
563.59	166.18
563.75	131.07
563.92	98.30
564.08	98.30
564.24	117.03
564.41	70.22
564.57	114.69
564.74	93.62
564.90	74.90
565.07	119.37
565.23	32.77
565.39	107.66
565.56	72.56
565.72	0.00
565.88	77.24
566.05	114.69
566.21	98.30
566.38	91.28
566.54	53.83
566.70	74.90
566.87	93.62
567.03	91.28
567.19	53.83
567.36	147.45
567.52	65.54
567.68	53.83
567.85	95.96
568.01	107.66
568.17	39.79
568.34	44.47
568.50	124.05
568.66	58.51
568.83	49.15
568.99	81.92
569.15	51.49
569.32	77.24
569.48	114.69
569.64	42.13
569.81	77.24
569.97	107.66
570.13	79.58
570.30	60.85
570.46	74.90
570.62	114.69
570.78	42.13
570.95	56.17
571.11	100.64
571.27	189.58
571.43	72.56
571.60	37.45
571.76	67.88
571.92	98.30
572.09	58.51
572.25	16.38
572.41	0.00
572.57	58.51
572.74	77.24
572.90	70.22
573.06	53.83
573.22	56.17
573.38	60.85
573.55	44.47
573.71	58.51
573.87	121.71
574.03	100.64
574.20	147.45
574.36	58.51
574.52	53.83
574.68	112.35
574.84	128.73
575.01	56.17
575.17	72.56
575.33	67.88
575.49	0.00
575.65	18.72
575.82	102.98
575.98	44.47
576.14	121.71
576.30	56.17
576.46	28.09
576.62	58.51
576.79	86.60
576.95	100.64
577.11	91.28
577.27	93.62
577.43	138.09
577.59	124.05
577.75	53.83
577.92	117.03
578.08	79.58
578.24	60.85
578.40	16.38
578.56	72.56
578.72	9.36
578.88	25.75
579.04	110.01
579.21	56.17
579.37	74.90
579.53	91.28
579.69	159.16
579.85	81.92
580.01	95.96
580.17	30.43
580.33	53.83
580.49	159.16
580.65	95.96
580.82	74.90
580.98	49.15
581.14	117.03
581.30	58.51
581.46	35.11
581.62	81.92
581.78	37.45
581.94	60.85
582.10	81.92
582.26	128.73
582.42	142.77
582.58	56.17
582.74	56.17
582.90	93.62
583.06	95.96
583.22	79.58
583.38	91.28
583.54	0.00
583.70	74.90
583.86	39.79
584.02	112.35
584.18	126.39
584.34	100.64
584.50	98.30
584.66	56.17
584.82	56.17
584.98	100.64
585.14	126.39
585.30	44.47
585.46	74.90
585.62	70.22
585.78	110.01
585.94	44.47
586.10	91.28
586.26	58.51
586.42	28.09
586.58	81.92
586.74	105.32
586.90	79.58
587.06	100.64
587.22	21.06
587.38	60.85
587.54	98.30
587.70	58.51
587.86	49.15
588.02	49.15
588.18	98.30
588.34	86.60
588.49	117.03
588.65	74.90
588.81	63.19
588.97	30.43
589.13	72.56
589.29	65.54
589.45	131.07
589.61	98.30
589.77	21.06
589.93	67.88
590.08	0.00
590.24	0.00
590.40	58.51
590.56	46.81
590.72	44.47
590.88	39.79
591.04	72.56
591.20	0.00
591.35	63.19
591.51	98.30
591.67	88.94
591.83	56.17
591.99	63.19
592.15	128.73
592.31	105.32
592.46	88.94
592.62	58.51
592.78	119.37
592.94	58.51
593.10	58.51
593.26	0.00
593.41	14.04
593.57	28.09
593.73	25.75
593.89	28.09
594.05	25.75
594.20	67.88
594.36	49.15
594.52	86.60
594.68	93.62
594.84	131.07
594.99	49.15
595.15	91.28
595.31	102.98
595.47	46.81
595.62	147.45
595.78	72.56
595.94	72.56
596.10	56.17
596.25	58.51
596.41	147.45
596.57	7.02
596.73	72.56
596.88	63.19
597.04	147.45
597.20	53.83
597.36	98.30
597.51	67.88
597.67	44.47
597.83	70.22
597.99	51.49
598.14	53.83
598.30	65.54
598.46	16.38
598.61	121.71
598.77	121.71
598.93	46.81
599.09	56.17
599.24	53.83
599.40	16.38
599.56	100.64
599.71	58.51
599.87	102.98
600.03	77.24
600.18	95.96
600.34	56.17
600.50	44.47
600.65	84.26
600.81	95.96
600.97	39.79
601.12	39.79
601.28	128.73
601.44	77.24
601.59	105.32
601.75	70.22
601.91	65.54
602.06	72.56
602.22	84.26
602.37	168.52
602.53	58.51
602.69	100.64
602.84	95.96
603.00	25.75
603.16	93.62
603.31	81.92
603.47	79.58
603.62	74.90
603.78	60.85
603.94	147.45
604.09	88.94
604.25	81.92
604.40	93.62
604.56	56.17
604.71	117.03
604.87	81.92
605.03	72.56
605.18	25.75
605.34	88.94
605.49	114.69
605.65	110.01
605.80	42.13
605.96	102.98
606.12	93.62
606.27	51.49
606.43	95.96
606.58	56.17
606.74	51.49
606.89	114.69
607.05	63.19
607.20	42.13
607.36	86.60
607.51	58.51
607.67	25.75
607.82	21.06
607.98	42.13
608.13	18.72
608.29	46.81
608.44	0.00
608.60	42.13
608.75	0.00
608.91	93.62
609.06	72.56
609.22	102.98
609.37	72.56
609.53	53.83
609.68	105.32
609.84	39.79
609.99	86.60
610.15	51.49
610.30	53.83
610.46	100.64
610.61	46.81
610.76	35.11
610.92	84.26
611.07	23.41
611.23	53.83
611.38	51.49
611.54	51.49
611.69	121.71
611.84	28.09
612.00	72.56
612.15	46.81
612.31	42.13
612.46	35.11
612.62	119.37
612.77	53.83
612.92	56.17
613.08	37.45
613.23	98.30
613.39	84.26
613.54	0.00
613.69	70.22
613.85	133.41
614.00	0.00
614.15	95.96
614.31	67.88
614.46	23.41
614.62	91.28
614.77	133.41
614.92	98.30
615.08	67.88
615.23	84.26
615.38	81.92
615.54	60.85
615.69	46.81
615.84	58.51
616.00	100.64
616.15	56.17
616.30	79.58
616.46	74.90
616.61	72.56
616.76	110.01
616.92	107.66
617.07	79.58
617.22	2.34
617.37	11.70
617.53	2.34
617.68	46.81
617.83	37.45
617.99	126.39
618.14	0.00
618.29	51.49
618.45	21.06
618.60	81.92
618.75	28.09
618.90	44.47
619.06	81.92
619.21	72.56
619.36	35.11
619.51	51.49
619.67	35.11
619.82	58.51
619.97	117.03
620.12	67.88
620.28	117.03
620.43	60.85
620.58	42.13
620.73	58.51
620.89	49.15
621.04	119.37
621.19	131.07
621.34	42.13
621.49	56.17
621.65	95.96
621.80	56.17
621.95	95.96
622.10	98.30
622.25	102.98
622.41	138.09
622.56	121.71
622.71	77.24
622.86	51.49
623.01	138.09
623.16	102.98
623.32	98.30
623.47	46.81
623.62	28.09
623.77	72.56
623.92	114.69
624.07	74.90
624.23	70.22
624.38	46.81
624.53	51.49
624.68	42.13
624.83	84.26
624.98	124.05
625.13	0.00
625.29	39.79
625.44	131.07
625.59	37.45
625.74	56.17
625.89	72.56
626.04	98.30
626.19	44.47
626.34	63.19
626.49	93.62
626.65	98.30
626.80	30.43
626.95	138.09
627.10	32.77
627.25	42.13
627.40	56.17
627.55	77.24
627.70	65.54
627.85	51.49
628.00	49.15
628.15	16.38
628.30	51.49
628.45	63.19
628.60	98.30
628.76	37.45
628.91	37.45
629.06	131.07
629.21	21.06
629.36	91.28
629.51	56.17
629.66	84.26
629.81	39.79
629.96	67.88
630.11	119.37
630.26	37.45
630.41	39.79
630.56	72.56
630.71	39.79
630.86	18.72
631.01	147.45
631.16	9.36
631.31	30.43
631.46	32.77
631.61	77.24
631.76	81.92
631.91	58.51
632.06	88.94
632.21	32.77
632.36	18.72
632.51	107.66
632.66	63.19
632.81	18.72
632.96	42.13
633.10	105.32
633.25	39.79
633.40	56.17
633.55	67.88
633.70	32.77
633.85	77.24
634.00	84.26
634.15	60.85
634.30	21.06
634.45	2.34
634.60	25.75
634.75	46.81
634.90	53.83
635.05	51.49
635.19	124.05
635.34	0.00
635.49	49.15
635.64	0.00
635.79	46.81
635.94	86.60
636.09	60.85
636.24	98.30
636.39	0.00
636.53	100.64
636.68	49.15
636.83	0.00
636.98	60.85
637.13	77.24
637.28	42.13
637.43	81.92
637.57	0.00
637.72	100.64
637.87	88.94
638.02	53.83
638.17	32.77
638.32	58.51
638.46	72.56
638.61	18.72
638.76	18.72
638.91	14.04
639.06	56.17
639.20	86.60
639.35	39.79
639.50	28.09
639.65	86.60
639.80	98.30
639.94	16.38
640.09	72.56
640.24	67.88
640.39	0.00
640.54	74.90
640.68	0.00
640.83	18.72
640.98	46.81
641.13	21.06
641.27	77.24
641.42	9.36
641.57	30.43
641.72	79.58
641.86	53.83
642.01	84.26
642.16	98.30
642.31	93.62
642.45	93.62
642.60	56.17
642.75	4.68
642.90	74.90
643.04	58.51
643.19	21.06
643.34	0.00
643.48	58.51
643.63	105.32
643.78	0.00
643.93	81.92
644.07	95.96
644.22	37.45
644.37	23.41
644.51	126.39
644.66	56.17
644.81	100.64
644.95	37.45
645.10	81.92
645.25	81.92
645.39	37.45
645.54	14.04
645.69	21.06
645.83	60.85
645.98	35.11
646.13	23.41
646.27	58.51
646.42	74.90
646.57	74.90
646.71	60.85
646.86	98.30
647.00	51.49
647.15	100.64
647.30	93.62
647.44	133.41
647.59	84.26
647.74	95.96
647.88	23.41
648.03	51.49
648.17	46.81
648.32	65.54
648.47	79.58
648.61	23.41
648.76	77.24
648.90	56.17
649.05	81.92
649.20	39.79
649.34	44.47
649.49	51.49
649.63	7.02
649.78	98.30
649.92	14.04
650.07	42.13
650.21	32.77
650.36	37.45
650.51	135.75
650.65	74.90
650.80	88.94
650.94	65.54
651.09	0.00
651.23	79.58
651.38	16.38
651.52	0.00
651.67	30.43
651.81	44.47
651.96	110.01
652.10	86.60
652.25	72.56
652.39	0.00
652.54	51.49
652.68	102.98
652.83	131.07
652.97	7.02
653.12	72.56
653.26	0.00
653.41	0.00
653.55	11.70
653.70	53.83
653.84	21.06
653.99	67.88
654.13	88.94
654.27	79.58
654.42	133.41
654.56	35.11
654.71	16.38
654.85	65.54
655.00	60.85
655.14	51.49
655.29	72.56
655.43	21.06
655.57	4.68
655.72	58.51
655.86	32.77
656.01	60.85
656.15	44.47
656.30	37.45
656.44	0.00
656.58	23.41
656.73	117.03
656.87	110.01
657.01	114.69
657.16	23.41
657.30	102.98
657.45	25.75
657.59	42.13
657.73	77.24
657.88	53.83
658.02	39.79
658.16	39.79
658.31	74.90
658.45	28.09
658.60	133.41
658.74	84.26
658.88	28.09
659.03	44.47
659.17	51.49
659.31	93.62
659.46	32.77
659.60	133.41
659.74	156.82
659.89	0.00
660.03	72.56
660.17	77.24
660.32	131.07
660.46	0.00
660.60	21.06
660.74	39.79
660.89	114.69
661.03	0.00
661.17	51.49
661.32	72.56
661.46	23.41
661.60	32.77
661.74	56.17
661.89	58.51
662.03	32.77
662.17	72.56
662.31	91.28
662.46	72.56
662.60	4.68
662.74	65.54
662.88	39.79
663.03	37.45
663.17	0.00
663.31	114.69
663.45	86.60
663.60	11.70
663.74	32.77
663.88	56.17
664.02	0.00
664.17	81.92
664.31	2.34
664.45	84.26
664.59	74.90
664.73	67.88
664.88	70.22
665.02	30.43
665.16	93.62
665.30	131.07
665.44	51.49
665.59	37.45
665.73	88.94
665.87	65.54
666.01	4.68
666.15	0.00
666.29	79.58
666.44	65.54
666.58	93.62
666.72	25.75
666.86	0.00
667.00	2.34
667.14	49.15
667.28	60.85
667.43	100.64
667.57	110.01
667.71	60.85
667.85	110.01
667.99	105.32
668.13	37.45
668.27	16.38
668.41	79.58
668.56	51.49
668.70	65.54
668.84	72.56
668.98	93.62
669.12	60.85
669.26	0.00
669.40	60.85
669.54	95.96
669.68	77.24
669.82	63.19
669.96	16.38
670.10	86.60
670.25	117.03
670.39	16.38
670.53	30.43
670.67	49.15
670.81	67.88
670.95	25.75
671.09	25.75
671.23	93.62
671.37	72.56
671.51	0.00
671.65	63.19
671.79	37.45
671.93	72.56
672.07	18.72
672.21	28.09
672.35	70.22
672.49	0.00
672.63	105.32
672.77	7.02
672.91	18.72
673.05	86.60
673.19	147.45
673.33	86.60
673.47	7.02
673.61	126.39
673.75	77.24
673.89	7.02
674.03	81.92
674.17	4.68
674.31	0.00
674.45	77.24
674.59	107.66
674.73	39.79
674.87	7.02
675.01	63.19
675.15	0.00
675.29	0.00
675.43	84.26
675.56	32.77
675.70	84.26
675.84	93.62
675.98	18.72
676.12	107.66
676.26	51.49
676.40	84.26
676.54	58.51
676.68	84.26
676.82	88.94
676.96	93.62
677.10	21.06
677.23	79.58
677.37	0.00
677.51	91.28
677.65	72.56
677.79	84.26
677.93	0.00
678.07	46.81
678.21	110.01
678.34	44.47
678.48	18.72
678.62	35.11
678.76	32.77
678.90	67.88
679.04	65.54
679.18	0.00
679.31	18.72
679.45	23.41
679.59	53.83
679.73	60.85
679.87	0.00
680.00	39.79
680.14	51.49
680.28	0.00
680.42	72.56
680.56	74.90
680.70	72.56
680.83	65.54
680.97	0.00
681.11	81.92
681.25	58.51
681.39	79.58
681.52	67.88
681.66	93.62
681.80	0.00
681.94	0.00
682.07	39.79
682.21	107.66
682.35	102.98
682.49	56.17
682.62	0.00
682.76	79.58
682.90	35.11
683.04	53.83
683.17	46.81
683.31	28.09
683.45	21.06
683.59	42.13
683.72	72.56
683.86	46.81
684.00	128.73
684.13	9.36
684.27	0.00
684.41	65.54
684.55	51.49
684.68	42.13
684.82	39.79
684.96	25.75
685.09	0.00
685.23	0.00
685.37	28.09
685.50	42.13
685.64	21.06
685.78	86.60
685.91	25.75
686.05	9.36
686.19	79.58
686.32	14.04
686.46	25.75
686.60	25.75
686.73	51.49
686.87	9.36
687.01	30.43
687.14	44.47
687.28	60.85
687.42	49.15
687.55	21.06
687.69	0.00
687.82	56.17
687.96	42.13
688.10	67.88
688.23	32.77
688.37	0.00
688.50	2.34
688.64	74.90
688.78	112.35
688.91	18.72
689.05	49.15
689.18	88.94
689.32	21.06
689.46	18.72
689.59	42.13
689.73	53.83
689.86	79.58
690.00	0.00
690.13	18.72
690.27	93.62
690.41	28.09
690.54	28.09
690.68	72.56
690.81	32.77
690.95	51.49
691.08	53.83
691.22	72.56
691.35	60.85
691.49	112.35
691.62	81.92
691.76	0.00
691.89	53.83
692.03	9.36
692.16	18.72
692.30	0.00
692.43	98.30
692.57	39.79
692.70	39.79
692.84	18.72
692.97	65.54
693.11	0.00
693.24	25.75
693.38	60.85
693.51	63.19
693.65	107.66
693.78	23.41
693.92	32.77
694.05	0.00
694.19	88.94
694.32	63.19
694.45	11.70
694.59	16.38
694.72	4.68
694.86	67.88
694.99	16.38
695.13	70.22
695.26	77.24
695.39	0.00
695.53	44.47
695.66	0.00
695.80	39.79
695.93	35.11
696.07	63.19
696.20	0.00
696.33	23.41
696.47	23.41
696.60	58.51
696.73	35.11
696.87	0.00
697.00	28.09
697.14	58.51
697.27	32.77
697.40	84.26
697.54	9.36
697.67	91.28
697.80	70.22
697.94	53.83
698.07	79.58
698.21	72.56
698.34	42.13
698.47	67.88
698.61	46.81
698.74	79.58
698.87	18.72
699.01	0.00
699.14	23.41
699.27	65.54
699.40	23.41
699.54	44.47
699.67	4.68
699.80	51.49
699.94	42.13
700.07	28.09
700.20	30.43
700.34	7.02
700.47	23.41
700.60	23.41
700.73	9.36
700.87	63.19
701.00	7.02
701.13	51.49
701.26	88.94
701.40	18.72
701.53	98.30
701.66	44.47
701.79	51.49
701.93	81.92
702.06	28.09
702.19	30.43
702.32	88.94
702.46	25.75
702.59	0.00
702.72	37.45
702.85	44.47
702.99	7.02
703.12	0.00
703.25	70.22
703.38	65.54
703.51	23.41
703.65	65.54
703.78	2.34
703.91	18.72
704.04	37.45
704.17	63.19
704.31	0.00
704.44	49.15
704.57	16.38
704.70	25.75
704.83	95.96
704.96	37.45
705.10	18.72
705.23	32.77
>>>>>End Processed Spectral Data<<<<<
