SpectraSuite Data File
++++++++++++++++++++++++++++++++++++
Date: Fri Oct 04 12:13:41 GMT-05:00 2013
User: price-jones
Dark Spectrum Present: No
Reference Spectrum Present: No
Number of Sampled Component Spectra: 1
Spectrometers: USB2+H05261
Integration Time (usec): 10000 (USB2+H05261)
Spectra Averaged: 1 (USB2+H05261)
Boxcar Smoothing: 0 (USB2+H05261)
Correct for Electrical Dark: No (USB2+H05261)
Strobe/Lamp Enabled: No (USB2+H05261)
Correct for Detector Non-linearity: No (USB2+H05261)
Correct for Stray Light: No (USB2+H05261)
Number of Pixels in Processed Spectrum: 2048
>>>>>Begin Processed Spectral Data<<<<<
365.73	32.77
365.92	32.77
366.12	32.77
366.32	0.00
366.52	0.00
366.72	0.00
366.91	0.00
367.11	0.00
367.31	0.00
367.51	0.00
367.70	0.00
367.90	0.00
368.10	0.00
368.30	0.00
368.49	0.00
368.69	0.00
368.89	0.00
369.09	0.00
369.28	0.00
369.48	0.00
369.68	0.00
369.87	0.00
370.07	0.00
370.27	0.00
370.47	0.00
370.66	0.00
370.86	0.00
371.06	0.00
371.25	0.00
371.45	14.04
371.65	58.51
371.84	39.79
372.04	23.41
372.24	14.04
372.44	21.06
372.63	2.34
372.83	0.00
373.03	53.83
373.22	37.45
373.42	32.77
373.62	0.00
373.81	49.15
374.01	0.00
374.21	0.00
374.40	56.17
374.60	46.81
374.79	0.00
374.99	37.45
375.19	37.45
375.38	30.43
375.58	35.11
375.78	0.00
375.97	0.00
376.17	84.26
376.37	28.09
376.56	74.90
376.76	65.54
376.95	11.70
377.15	35.11
377.35	0.00
377.54	0.00
377.74	0.00
377.93	14.04
378.13	0.00
378.33	0.00
378.52	0.00
378.72	21.06
378.91	0.00
379.11	72.56
379.31	0.00
379.50	49.15
379.70	35.11
379.89	37.45
380.09	4.68
380.28	14.04
380.48	37.45
380.68	98.30
380.87	0.00
381.07	18.72
381.26	0.00
381.46	16.38
381.65	0.00
381.85	79.58
382.04	74.90
382.24	14.04
382.43	37.45
382.63	4.68
382.83	7.02
383.02	18.72
383.22	74.90
383.41	4.68
383.61	23.41
383.80	9.36
384.00	16.38
384.19	0.00
384.39	0.00
384.58	0.00
384.78	49.15
384.97	2.34
385.17	67.88
385.36	0.00
385.56	4.68
385.75	46.81
385.95	44.47
386.14	119.37
386.34	49.15
386.53	21.06
386.72	58.51
386.92	60.85
387.11	42.13
387.31	0.00
387.50	2.34
387.70	0.00
387.89	79.58
388.09	60.85
388.28	39.79
388.48	72.56
388.67	23.41
388.86	14.04
389.06	4.68
389.25	63.19
389.45	0.00
389.64	18.72
389.84	100.64
390.03	0.00
390.22	16.38
390.42	53.83
390.61	81.92
390.81	107.66
391.00	23.41
391.19	23.41
391.39	114.69
391.58	42.13
391.78	0.00
391.97	39.79
392.16	58.51
392.36	0.00
392.55	0.00
392.75	0.00
392.94	74.90
393.13	72.56
393.33	56.17
393.52	23.41
393.71	46.81
393.91	60.85
394.10	30.43
394.29	28.09
394.49	28.09
394.68	53.83
394.88	7.02
395.07	100.64
395.26	0.00
395.46	63.19
395.65	67.88
395.84	25.75
396.04	67.88
396.23	39.79
396.42	95.96
396.62	7.02
396.81	9.36
397.00	7.02
397.19	25.75
397.39	2.34
397.58	0.00
397.77	67.88
397.97	0.00
398.16	7.02
398.35	126.39
398.55	56.17
398.74	39.79
398.93	84.26
399.12	84.26
399.32	65.54
399.51	74.90
399.70	28.09
399.90	67.88
400.09	23.41
400.28	60.85
400.47	44.47
400.67	58.51
400.86	60.85
401.05	0.00
401.24	0.00
401.44	0.00
401.63	60.85
401.82	39.79
402.01	16.38
402.21	23.41
402.40	7.02
402.59	56.17
402.78	7.02
402.97	21.06
403.17	86.60
403.36	56.17
403.55	49.15
403.74	35.11
403.93	11.70
404.13	32.77
404.32	53.83
404.51	0.00
404.70	46.81
404.89	0.00
405.09	37.45
405.28	7.02
405.47	67.88
405.66	81.92
405.85	44.47
406.05	51.49
406.24	18.72
406.43	70.22
406.62	18.72
406.81	42.13
407.00	58.51
407.20	84.26
407.39	0.00
407.58	0.00
407.77	72.56
407.96	60.85
408.15	49.15
408.34	56.17
408.54	58.51
408.73	67.88
408.92	39.79
409.11	28.09
409.30	65.54
409.49	25.75
409.68	46.81
409.87	18.72
410.07	4.68
410.26	25.75
410.45	7.02
410.64	30.43
410.83	74.90
411.02	14.04
411.21	91.28
411.40	23.41
411.59	63.19
411.78	30.43
411.98	53.83
412.17	49.15
412.36	37.45
412.55	35.11
412.74	93.62
412.93	46.81
413.12	28.09
413.31	0.00
413.50	53.83
413.69	70.22
413.88	0.00
414.07	53.83
414.26	0.00
414.45	58.51
414.64	84.26
414.83	18.72
415.02	35.11
415.22	18.72
415.41	28.09
415.60	124.05
415.79	79.58
415.98	44.47
416.17	37.45
416.36	44.47
416.55	42.13
416.74	49.15
416.93	60.85
417.12	0.00
417.31	67.88
417.50	56.17
417.69	0.00
417.88	70.22
418.07	65.54
418.26	79.58
418.45	25.75
418.64	21.06
418.83	42.13
419.02	63.19
419.21	30.43
419.39	46.81
419.58	42.13
419.77	32.77
419.96	65.54
420.15	86.60
420.34	86.60
420.53	65.54
420.72	79.58
420.91	70.22
421.10	42.13
421.29	42.13
421.48	58.51
421.67	81.92
421.86	93.62
422.05	46.81
422.24	42.13
422.43	0.00
422.61	28.09
422.80	79.58
422.99	18.72
423.18	46.81
423.37	0.00
423.56	37.45
423.75	0.00
423.94	93.62
424.13	44.47
424.32	81.92
424.50	105.32
424.69	46.81
424.88	72.56
425.07	23.41
425.26	70.22
425.45	88.94
425.64	11.70
425.83	0.00
426.01	117.03
426.20	7.02
426.39	100.64
426.58	95.96
426.77	81.92
426.96	0.00
427.15	42.13
427.33	35.11
427.52	72.56
427.71	23.41
427.90	49.15
428.09	74.90
428.28	0.00
428.46	21.06
428.65	98.30
428.84	37.45
429.03	58.51
429.22	32.77
429.40	67.88
429.59	44.47
429.78	42.13
429.97	81.92
430.16	95.96
430.34	65.54
430.53	119.37
430.72	119.37
430.91	42.13
431.10	67.88
431.28	117.03
431.47	9.36
431.66	28.09
431.85	25.75
432.03	0.00
432.22	65.54
432.41	63.19
432.60	65.54
432.79	46.81
432.97	42.13
433.16	53.83
433.35	126.39
433.54	44.47
433.72	2.34
433.91	100.64
434.10	95.96
434.28	30.43
434.47	35.11
434.66	63.19
434.85	91.28
435.03	7.02
435.22	124.05
435.41	60.85
435.59	25.75
435.78	11.70
435.97	46.81
436.16	95.96
436.34	2.34
436.53	44.47
436.72	114.69
436.90	0.00
437.09	51.49
437.28	2.34
437.46	86.60
437.65	30.43
437.84	72.56
438.02	0.00
438.21	126.39
438.40	65.54
438.58	81.92
438.77	161.50
438.96	28.09
439.14	98.30
439.33	37.45
439.52	0.00
439.70	93.62
439.89	110.01
440.08	16.38
440.26	0.00
440.45	0.00
440.63	88.94
440.82	30.43
441.01	32.77
441.19	88.94
441.38	67.88
441.57	74.90
441.75	53.83
441.94	28.09
442.12	11.70
442.31	49.15
442.50	81.92
442.68	7.02
442.87	42.13
443.05	114.69
443.24	84.26
443.43	4.68
443.61	98.30
443.80	88.94
443.98	28.09
444.17	25.75
444.35	18.72
444.54	91.28
444.73	63.19
444.91	4.68
445.10	51.49
445.28	0.00
445.47	79.58
445.65	7.02
445.84	58.51
446.02	35.11
446.21	37.45
446.39	37.45
446.58	42.13
446.77	32.77
446.95	30.43
447.14	63.19
447.32	119.37
447.51	58.51
447.69	42.13
447.88	25.75
448.06	11.70
448.25	49.15
448.43	58.51
448.62	44.47
448.80	30.43
448.99	126.39
449.17	102.98
449.36	86.60
449.54	100.64
449.73	28.09
449.91	79.58
450.10	72.56
450.28	91.28
450.46	53.83
450.65	100.64
450.83	9.36
451.02	49.15
451.20	0.00
451.39	88.94
451.57	39.79
451.76	39.79
451.94	0.00
452.13	2.34
452.31	30.43
452.49	63.19
452.68	25.75
452.86	84.26
453.05	133.41
453.23	58.51
453.42	0.00
453.60	67.88
453.78	18.72
453.97	28.09
454.15	7.02
454.34	98.30
454.52	0.00
454.70	23.41
454.89	0.00
455.07	95.96
455.26	49.15
455.44	37.45
455.62	37.45
455.81	81.92
455.99	51.49
456.17	39.79
456.36	0.00
456.54	84.26
456.73	126.39
456.91	98.30
457.09	9.36
457.28	44.47
457.46	28.09
457.64	79.58
457.83	32.77
458.01	32.77
458.19	32.77
458.38	67.88
458.56	37.45
458.74	32.77
458.93	86.60
459.11	16.38
459.29	91.28
459.48	88.94
459.66	21.06
459.84	95.96
460.03	128.73
460.21	14.04
460.39	0.00
460.57	107.66
460.76	21.06
460.94	65.54
461.12	65.54
461.31	63.19
461.49	28.09
461.67	58.51
461.85	60.85
462.04	72.56
462.22	100.64
462.40	67.88
462.59	53.83
462.77	65.54
462.95	63.19
463.13	42.13
463.32	81.92
463.50	16.38
463.68	88.94
463.86	49.15
464.05	37.45
464.23	74.90
464.41	46.81
464.59	9.36
464.78	67.88
464.96	53.83
465.14	18.72
465.32	67.88
465.50	79.58
465.69	117.03
465.87	49.15
466.05	37.45
466.23	25.75
466.41	11.70
466.60	65.54
466.78	65.54
466.96	81.92
467.14	9.36
467.32	98.30
467.51	37.45
467.69	56.17
467.87	51.49
468.05	70.22
468.23	23.41
468.41	91.28
468.60	63.19
468.78	53.83
468.96	56.17
469.14	131.07
469.32	91.28
469.50	56.17
469.69	86.60
469.87	91.28
470.05	105.32
470.23	0.00
470.41	0.00
470.59	70.22
470.77	63.19
470.95	28.09
471.14	25.75
471.32	49.15
471.50	65.54
471.68	84.26
471.86	39.79
472.04	0.00
472.22	65.54
472.40	35.11
472.58	0.00
472.77	0.00
472.95	0.00
473.13	39.79
473.31	0.00
473.49	65.54
473.67	81.92
473.85	51.49
474.03	58.51
474.21	49.15
474.39	32.77
474.57	102.98
474.75	46.81
474.93	44.47
475.12	79.58
475.30	49.15
475.48	49.15
475.66	16.38
475.84	35.11
476.02	72.56
476.20	77.24
476.38	77.24
476.56	53.83
476.74	65.54
476.92	126.39
477.10	53.83
477.28	121.71
477.46	65.54
477.64	79.58
477.82	0.00
478.00	72.56
478.18	37.45
478.36	28.09
478.54	0.00
478.72	100.64
478.90	25.75
479.08	86.60
479.26	37.45
479.44	84.26
479.62	98.30
479.80	51.49
479.98	0.00
480.16	79.58
480.34	159.16
480.52	53.83
480.70	79.58
480.88	16.38
481.06	28.09
481.24	53.83
481.41	79.58
481.59	39.79
481.77	49.15
481.95	135.75
482.13	88.94
482.31	58.51
482.49	9.36
482.67	88.94
482.85	58.51
483.03	11.70
483.21	70.22
483.39	110.01
483.57	53.83
483.74	81.92
483.92	79.58
484.10	58.51
484.28	114.69
484.46	58.51
484.64	46.81
484.82	56.17
485.00	86.60
485.18	16.38
485.35	67.88
485.53	28.09
485.71	28.09
485.89	77.24
486.07	4.68
486.25	105.32
486.43	119.37
486.61	79.58
486.78	86.60
486.96	32.77
487.14	72.56
487.32	145.11
487.50	32.77
487.68	49.15
487.85	58.51
488.03	65.54
488.21	51.49
488.39	56.17
488.57	124.05
488.75	79.58
488.92	117.03
489.10	117.03
489.28	79.58
489.46	0.00
489.64	77.24
489.81	65.54
489.99	65.54
490.17	70.22
490.35	74.90
490.53	126.39
490.70	170.86
490.88	77.24
491.06	65.54
491.24	100.64
491.41	46.81
491.59	44.47
491.77	102.98
491.95	56.17
492.13	114.69
492.30	93.62
492.48	65.54
492.66	79.58
492.84	0.00
493.01	140.43
493.19	107.66
493.37	98.30
493.54	119.37
493.72	77.24
493.90	30.43
494.08	39.79
494.25	102.98
494.43	91.28
494.61	124.05
494.79	0.00
494.96	107.66
495.14	135.75
495.32	7.02
495.49	91.28
495.67	98.30
495.85	91.28
496.02	21.06
496.20	112.35
496.38	79.58
496.55	124.05
496.73	119.37
496.91	65.54
497.09	46.81
497.26	98.30
497.44	107.66
497.62	0.00
497.79	11.70
497.97	58.51
498.14	23.41
498.32	98.30
498.50	175.54
498.67	84.26
498.85	79.58
499.03	117.03
499.20	51.49
499.38	88.94
499.56	49.15
499.73	117.03
499.91	60.85
500.08	67.88
500.26	58.51
500.44	51.49
500.61	37.45
500.79	70.22
500.97	98.30
501.14	112.35
501.32	121.71
501.49	121.71
501.67	91.28
501.84	7.02
502.02	133.41
502.20	91.28
502.37	74.90
502.55	86.60
502.72	114.69
502.90	86.60
503.07	124.05
503.25	70.22
503.43	51.49
503.60	32.77
503.78	84.26
503.95	119.37
504.13	77.24
504.30	91.28
504.48	91.28
504.65	140.43
504.83	77.24
505.01	98.30
505.18	39.79
505.36	91.28
505.53	51.49
505.71	67.88
505.88	28.09
506.06	128.73
506.23	72.56
506.41	119.37
506.58	86.60
506.76	72.56
506.93	77.24
507.11	88.94
507.28	14.04
507.46	72.56
507.63	35.11
507.81	107.66
507.98	102.98
508.16	9.36
508.33	159.16
508.50	107.66
508.68	133.41
508.85	70.22
509.03	102.98
509.20	138.09
509.38	65.54
509.55	168.52
509.73	79.58
509.90	79.58
510.08	58.51
510.25	91.28
510.42	102.98
510.60	58.51
510.77	72.56
510.95	39.79
511.12	79.58
511.30	93.62
511.47	159.16
511.64	65.54
511.82	145.11
511.99	65.54
512.17	60.85
512.34	65.54
512.51	138.09
512.69	79.58
512.86	100.64
513.04	98.30
513.21	93.62
513.38	32.77
513.56	74.90
513.73	88.94
513.90	44.47
514.08	95.96
514.25	86.60
514.43	91.28
514.60	35.11
514.77	110.01
514.95	98.30
515.12	121.71
515.29	86.60
515.47	56.17
515.64	49.15
515.81	30.43
515.99	42.13
516.16	95.96
516.33	63.19
516.51	28.09
516.68	93.62
516.85	67.88
517.03	79.58
517.20	58.51
517.37	105.32
517.54	88.94
517.72	81.92
517.89	49.15
518.06	84.26
518.24	98.30
518.41	117.03
518.58	67.88
518.75	93.62
518.93	16.38
519.10	70.22
519.27	30.43
519.45	28.09
519.62	93.62
519.79	79.58
519.96	44.47
520.14	77.24
520.31	112.35
520.48	84.26
520.65	84.26
520.83	95.96
521.00	35.11
521.17	25.75
521.34	58.51
521.52	84.26
521.69	161.50
521.86	65.54
522.03	102.98
522.20	42.13
522.38	72.56
522.55	95.96
522.72	77.24
522.89	112.35
523.07	74.90
523.24	37.45
523.41	126.39
523.58	102.98
523.75	72.56
523.92	46.81
524.10	65.54
524.27	77.24
524.44	142.77
524.61	91.28
524.78	39.79
524.96	88.94
525.13	60.85
525.30	21.06
525.47	138.09
525.64	126.39
525.81	58.51
525.98	58.51
526.16	51.49
526.33	91.28
526.50	81.92
526.67	135.75
526.84	56.17
527.01	93.62
527.18	42.13
527.36	49.15
527.53	95.96
527.70	88.94
527.87	67.88
528.04	86.60
528.21	44.47
528.38	91.28
528.55	114.69
528.72	28.09
528.89	67.88
529.07	173.20
529.24	166.18
529.41	107.66
529.58	74.90
529.75	107.66
529.92	168.52
530.09	77.24
530.26	145.11
530.43	46.81
530.60	93.62
530.77	11.70
530.94	81.92
531.11	74.90
531.28	7.02
531.46	30.43
531.63	88.94
531.80	65.54
531.97	74.90
532.14	28.09
532.31	16.38
532.48	91.28
532.65	4.68
532.82	0.00
532.99	84.26
533.16	77.24
533.33	11.70
533.50	39.79
533.67	114.69
533.84	21.06
534.01	46.81
534.18	77.24
534.35	105.32
534.52	53.83
534.69	95.96
534.86	88.94
535.03	70.22
535.20	0.00
535.37	98.30
535.54	102.98
535.71	65.54
535.88	124.05
536.05	53.83
536.22	119.37
536.38	86.60
536.55	88.94
536.72	88.94
536.89	140.43
537.06	86.60
537.23	91.28
537.40	107.66
537.57	70.22
537.74	32.77
537.91	98.30
538.08	117.03
538.25	140.43
538.42	126.39
538.59	46.81
538.75	0.00
538.92	72.56
539.09	198.95
539.26	77.24
539.43	56.17
539.60	100.64
539.77	56.17
539.94	72.56
540.11	70.22
540.28	72.56
540.44	100.64
540.61	42.13
540.78	119.37
540.95	128.73
541.12	9.36
541.29	119.37
541.46	51.49
541.62	98.30
541.79	81.92
541.96	138.09
542.13	37.45
542.30	98.30
542.47	44.47
542.63	42.13
542.80	98.30
542.97	42.13
543.14	44.47
543.31	86.60
543.48	53.83
543.64	86.60
543.81	86.60
543.98	154.48
544.15	107.66
544.32	86.60
544.48	23.41
544.65	117.03
544.82	60.85
544.99	88.94
545.16	95.96
545.32	70.22
545.49	72.56
545.66	84.26
545.83	100.64
546.00	79.58
546.16	65.54
546.33	0.00
546.50	56.17
546.67	28.09
546.83	81.92
547.00	102.98
547.17	56.17
547.34	88.94
547.50	107.66
547.67	63.19
547.84	49.15
548.00	46.81
548.17	58.51
548.34	93.62
548.51	0.00
548.67	100.64
548.84	51.49
549.01	117.03
549.18	58.51
549.34	56.17
549.51	25.75
549.68	105.32
549.84	84.26
550.01	100.64
550.18	168.52
550.34	63.19
550.51	0.00
550.68	105.32
550.84	91.28
551.01	53.83
551.18	91.28
551.34	98.30
551.51	39.79
551.68	84.26
551.84	84.26
552.01	93.62
552.18	105.32
552.34	161.50
552.51	91.28
552.68	105.32
552.84	67.88
553.01	140.43
553.18	74.90
553.34	88.94
553.51	91.28
553.67	74.90
553.84	56.17
554.01	128.73
554.17	49.15
554.34	95.96
554.51	173.20
554.67	37.45
554.84	86.60
555.00	37.45
555.17	117.03
555.33	58.51
555.50	42.13
555.67	84.26
555.83	112.35
556.00	133.41
556.16	100.64
556.33	105.32
556.50	107.66
556.66	72.56
556.83	81.92
556.99	154.48
557.16	98.30
557.32	72.56
557.49	44.47
557.65	0.00
557.82	25.75
557.98	102.98
558.15	32.77
558.32	93.62
558.48	105.32
558.65	79.58
558.81	102.98
558.98	112.35
559.14	32.77
559.31	63.19
559.47	42.13
559.64	77.24
559.80	88.94
559.97	21.06
560.13	114.69
560.30	154.48
560.46	46.81
560.63	81.92
560.79	114.69
560.96	138.09
561.12	21.06
561.29	142.77
561.45	77.24
561.61	39.79
561.78	88.94
561.94	98.30
562.11	126.39
562.27	77.24
562.44	74.90
562.60	58.51
562.77	140.43
562.93	70.22
563.10	84.26
563.26	147.45
563.42	112.35
563.59	138.09
563.75	44.47
563.92	147.45
564.08	112.35
564.24	117.03
564.41	88.94
564.57	93.62
564.74	88.94
564.90	114.69
565.07	131.07
565.23	81.92
565.39	21.06
565.56	93.62
565.72	117.03
565.88	28.09
566.05	147.45
566.21	133.41
566.38	72.56
566.54	95.96
566.70	56.17
566.87	93.62
567.03	74.90
567.19	105.32
567.36	74.90
567.52	102.98
567.68	88.94
567.85	117.03
568.01	138.09
568.17	91.28
568.34	114.69
568.50	107.66
568.66	72.56
568.83	4.68
568.99	70.22
569.15	65.54
569.32	100.64
569.48	93.62
569.64	126.39
569.81	93.62
569.97	93.62
570.13	42.13
570.30	79.58
570.46	11.70
570.62	7.02
570.78	0.00
570.95	60.85
571.11	107.66
571.27	60.85
571.43	28.09
571.60	133.41
571.76	32.77
571.92	110.01
572.09	42.13
572.25	81.92
572.41	86.60
572.57	56.17
572.74	72.56
572.90	37.45
573.06	86.60
573.22	35.11
573.38	58.51
573.55	88.94
573.71	74.90
573.87	18.72
574.03	7.02
574.20	67.88
574.36	58.51
574.52	65.54
574.68	100.64
574.84	152.13
575.01	117.03
575.17	100.64
575.33	77.24
575.49	126.39
575.65	81.92
575.82	77.24
575.98	88.94
576.14	37.45
576.30	93.62
576.46	100.64
576.62	121.71
576.79	72.56
576.95	32.77
577.11	77.24
577.27	65.54
577.43	117.03
577.59	102.98
577.75	110.01
577.92	84.26
578.08	142.77
578.24	67.88
578.40	72.56
578.56	0.00
578.72	107.66
578.88	88.94
579.04	107.66
579.21	81.92
579.37	79.58
579.53	32.77
579.69	93.62
579.85	145.11
580.01	53.83
580.17	39.79
580.33	44.47
580.49	46.81
580.65	102.98
580.82	93.62
580.98	63.19
581.14	79.58
581.30	95.96
581.46	93.62
581.62	11.70
581.78	30.43
581.94	72.56
582.10	37.45
582.26	63.19
582.42	88.94
582.58	72.56
582.74	88.94
582.90	135.75
583.06	105.32
583.22	51.49
583.38	56.17
583.54	88.94
583.70	121.71
583.86	112.35
584.02	35.11
584.18	105.32
584.34	128.73
584.50	98.30
584.66	95.96
584.82	9.36
584.98	18.72
585.14	107.66
585.30	88.94
585.46	21.06
585.62	88.94
585.78	133.41
585.94	88.94
586.10	7.02
586.26	51.49
586.42	65.54
586.58	72.56
586.74	88.94
586.90	7.02
587.06	93.62
587.22	51.49
587.38	21.06
587.54	0.00
587.70	32.77
587.86	67.88
588.02	49.15
588.18	86.60
588.34	58.51
588.49	93.62
588.65	81.92
588.81	72.56
588.97	18.72
589.13	58.51
589.29	46.81
589.45	121.71
589.61	42.13
589.77	9.36
589.93	4.68
590.08	88.94
590.24	98.30
590.40	49.15
590.56	74.90
590.72	18.72
590.88	88.94
591.04	67.88
591.20	72.56
591.35	46.81
591.51	0.00
591.67	70.22
591.83	39.79
591.99	18.72
592.15	79.58
592.31	72.56
592.46	77.24
592.62	14.04
592.78	25.75
592.94	93.62
593.10	84.26
593.26	65.54
593.41	35.11
593.57	79.58
593.73	84.26
593.89	49.15
594.05	51.49
594.20	63.19
594.36	16.38
594.52	7.02
594.68	110.01
594.84	53.83
594.99	18.72
595.15	7.02
595.31	107.66
595.47	72.56
595.62	138.09
595.78	44.47
595.94	16.38
596.10	117.03
596.25	39.79
596.41	51.49
596.57	74.90
596.73	86.60
596.88	58.51
597.04	88.94
597.20	56.17
597.36	37.45
597.51	56.17
597.67	30.43
597.83	65.54
597.99	65.54
598.14	74.90
598.30	51.49
598.46	32.77
598.61	0.00
598.77	65.54
598.93	42.13
599.09	102.98
599.24	51.49
599.40	63.19
599.56	0.00
599.71	79.58
599.87	65.54
600.03	11.70
600.18	67.88
600.34	77.24
600.50	63.19
600.65	0.00
600.81	77.24
600.97	107.66
601.12	14.04
601.28	35.11
601.44	72.56
601.59	79.58
601.75	86.60
601.91	28.09
602.06	46.81
602.22	70.22
602.37	58.51
602.53	49.15
602.69	11.70
602.84	77.24
603.00	70.22
603.16	93.62
603.31	114.69
603.47	74.90
603.62	70.22
603.78	119.37
603.94	30.43
604.09	124.05
604.25	95.96
604.40	23.41
604.56	88.94
604.71	53.83
604.87	65.54
605.03	35.11
605.18	84.26
605.34	91.28
605.49	67.88
605.65	63.19
605.80	58.51
605.96	58.51
606.12	51.49
606.27	72.56
606.43	35.11
606.58	119.37
606.74	114.69
606.89	51.49
607.05	100.64
607.20	140.43
607.36	49.15
607.51	23.41
607.67	70.22
607.82	7.02
607.98	23.41
608.13	112.35
608.29	81.92
608.44	100.64
608.60	37.45
608.75	77.24
608.91	102.98
609.06	0.00
609.22	16.38
609.37	46.81
609.53	98.30
609.68	117.03
609.84	63.19
609.99	84.26
610.15	102.98
610.30	110.01
610.46	56.17
610.61	86.60
610.76	110.01
610.92	60.85
611.07	121.71
611.23	51.49
611.38	58.51
611.54	88.94
611.69	88.94
611.84	39.79
612.00	44.47
612.15	49.15
612.31	63.19
612.46	128.73
612.62	88.94
612.77	25.75
612.92	95.96
613.08	39.79
613.23	149.79
613.39	37.45
613.54	79.58
613.69	56.17
613.85	128.73
614.00	124.05
614.15	79.58
614.31	81.92
614.46	91.28
614.62	70.22
614.77	77.24
614.92	67.88
615.08	74.90
615.23	107.66
615.38	79.58
615.54	72.56
615.69	53.83
615.84	98.30
616.00	37.45
616.15	128.73
616.30	84.26
616.46	79.58
616.61	72.56
616.76	81.92
616.92	98.30
617.07	77.24
617.22	79.58
617.37	32.77
617.53	88.94
617.68	16.38
617.83	77.24
617.99	42.13
618.14	81.92
618.29	79.58
618.45	0.00
618.60	93.62
618.75	65.54
618.90	56.17
619.06	30.43
619.21	21.06
619.36	86.60
619.51	86.60
619.67	28.09
619.82	58.51
619.97	53.83
620.12	44.47
620.28	37.45
620.43	58.51
620.58	35.11
620.73	56.17
620.89	44.47
621.04	0.00
621.19	56.17
621.34	32.77
621.49	42.13
621.65	77.24
621.80	23.41
621.95	32.77
622.10	79.58
622.25	77.24
622.41	53.83
622.56	107.66
622.71	121.71
622.86	81.92
623.01	95.96
623.16	91.28
623.32	35.11
623.47	46.81
623.62	100.64
623.77	42.13
623.92	67.88
624.07	88.94
624.23	58.51
624.38	46.81
624.53	44.47
624.68	110.01
624.83	51.49
624.98	25.75
625.13	46.81
625.29	63.19
625.44	11.70
625.59	110.01
625.74	81.92
625.89	128.73
626.04	0.00
626.19	72.56
626.34	23.41
626.49	77.24
626.65	86.60
626.80	42.13
626.95	79.58
627.10	100.64
627.25	58.51
627.40	35.11
627.55	2.34
627.70	37.45
627.85	117.03
628.00	95.96
628.15	56.17
628.30	58.51
628.45	11.70
628.60	28.09
628.76	42.13
628.91	60.85
629.06	4.68
629.21	32.77
629.36	77.24
629.51	112.35
629.66	74.90
629.81	9.36
629.96	44.47
630.11	105.32
630.26	79.58
630.41	91.28
630.56	86.60
630.71	65.54
630.86	28.09
631.01	70.22
631.16	37.45
631.31	0.00
631.46	119.37
631.61	65.54
631.76	11.70
631.91	46.81
632.06	70.22
632.21	18.72
632.36	39.79
632.51	37.45
632.66	84.26
632.81	60.85
632.96	30.43
633.10	51.49
633.25	30.43
633.40	56.17
633.55	58.51
633.70	58.51
633.85	18.72
634.00	81.92
634.15	126.39
634.30	79.58
634.45	56.17
634.60	65.54
634.75	121.71
634.90	117.03
635.05	56.17
635.19	53.83
635.34	81.92
635.49	39.79
635.64	7.02
635.79	32.77
635.94	35.11
636.09	77.24
636.24	93.62
636.39	70.22
636.53	0.00
636.68	88.94
636.83	51.49
636.98	79.58
637.13	77.24
637.28	88.94
637.43	81.92
637.57	14.04
637.72	93.62
637.87	18.72
638.02	79.58
638.17	124.05
638.32	91.28
638.46	35.11
638.61	110.01
638.76	91.28
638.91	138.09
639.06	72.56
639.20	14.04
639.35	67.88
639.50	140.43
639.65	65.54
639.80	58.51
639.94	81.92
640.09	124.05
640.24	84.26
640.39	98.30
640.54	39.79
640.68	49.15
640.83	88.94
640.98	110.01
641.13	112.35
641.27	98.30
641.42	28.09
641.57	63.19
641.72	119.37
641.86	9.36
642.01	58.51
642.16	4.68
642.31	21.06
642.45	46.81
642.60	49.15
642.75	60.85
642.90	88.94
643.04	91.28
643.19	35.11
643.34	51.49
643.48	88.94
643.63	86.60
643.78	107.66
643.93	60.85
644.07	4.68
644.22	86.60
644.37	140.43
644.51	42.13
644.66	105.32
644.81	70.22
644.95	60.85
645.10	156.82
645.25	84.26
645.39	114.69
645.54	159.16
645.69	32.77
645.83	95.96
645.98	23.41
646.13	112.35
646.27	93.62
646.42	70.22
646.57	9.36
646.71	72.56
646.86	86.60
647.00	91.28
647.15	58.51
647.30	63.19
647.44	65.54
647.59	49.15
647.74	0.00
647.88	88.94
648.03	105.32
648.17	56.17
648.32	124.05
648.47	49.15
648.61	63.19
648.76	25.75
648.90	25.75
649.05	23.41
649.20	9.36
649.34	51.49
649.49	91.28
649.63	56.17
649.78	16.38
649.92	56.17
650.07	74.90
650.21	117.03
650.36	88.94
650.51	4.68
650.65	72.56
650.80	60.85
650.94	37.45
651.09	32.77
651.23	32.77
651.38	91.28
651.52	56.17
651.67	84.26
651.81	147.45
651.96	39.79
652.10	44.47
652.25	32.77
652.39	23.41
652.54	53.83
652.68	60.85
652.83	124.05
652.97	95.96
653.12	81.92
653.26	37.45
653.41	51.49
653.55	88.94
653.70	32.77
653.84	98.30
653.99	84.26
654.13	0.00
654.27	121.71
654.42	67.88
654.56	39.79
654.71	11.70
654.85	28.09
655.00	63.19
655.14	84.26
655.29	95.96
655.43	91.28
655.57	9.36
655.72	0.00
655.86	14.04
656.01	79.58
656.15	51.49
656.30	0.00
656.44	2.34
656.58	2.34
656.73	60.85
656.87	60.85
657.01	7.02
657.16	23.41
657.30	79.58
657.45	51.49
657.59	67.88
657.73	0.00
657.88	58.51
658.02	63.19
658.16	63.19
658.31	70.22
658.45	14.04
658.60	42.13
658.74	44.47
658.88	84.26
659.03	25.75
659.17	23.41
659.31	100.64
659.46	58.51
659.60	91.28
659.74	58.51
659.89	0.00
660.03	25.75
660.17	86.60
660.32	100.64
660.46	58.51
660.60	0.00
660.74	25.75
660.89	14.04
661.03	63.19
661.17	42.13
661.32	131.07
661.46	14.04
661.60	28.09
661.74	0.00
661.89	74.90
662.03	7.02
662.17	60.85
662.31	32.77
662.46	53.83
662.60	84.26
662.74	67.88
662.88	60.85
663.03	133.41
663.17	91.28
663.31	81.92
663.45	49.15
663.60	65.54
663.74	93.62
663.88	67.88
664.02	105.32
664.17	63.19
664.31	63.19
664.45	56.17
664.59	77.24
664.73	84.26
664.88	84.26
665.02	91.28
665.16	44.47
665.30	32.77
665.44	58.51
665.59	98.30
665.73	0.00
665.87	51.49
666.01	14.04
666.15	58.51
666.29	30.43
666.44	0.00
666.58	105.32
666.72	7.02
666.86	107.66
667.00	23.41
667.14	58.51
667.28	4.68
667.43	67.88
667.57	46.81
667.71	0.00
667.85	49.15
667.99	86.60
668.13	49.15
668.27	63.19
668.41	23.41
668.56	25.75
668.70	63.19
668.84	72.56
668.98	14.04
669.12	16.38
669.26	23.41
669.40	44.47
669.54	32.77
669.68	30.43
669.82	46.81
669.96	63.19
670.10	56.17
670.25	42.13
670.39	0.00
670.53	53.83
670.67	0.00
670.81	25.75
670.95	74.90
671.09	79.58
671.23	93.62
671.37	30.43
671.51	0.00
671.65	100.64
671.79	46.81
671.93	46.81
672.07	35.11
672.21	35.11
672.35	0.00
672.49	39.79
672.63	117.03
672.77	98.30
672.91	4.68
673.05	39.79
673.19	0.00
673.33	53.83
673.47	53.83
673.61	25.75
673.75	56.17
673.89	53.83
674.03	25.75
674.17	39.79
674.31	56.17
674.45	39.79
674.59	95.96
674.73	49.15
674.87	88.94
675.01	138.09
675.15	95.96
675.29	25.75
675.43	74.90
675.56	37.45
675.70	63.19
675.84	91.28
675.98	51.49
676.12	70.22
676.26	51.49
676.40	7.02
676.54	35.11
676.68	46.81
676.82	81.92
676.96	7.02
677.10	117.03
677.23	11.70
677.37	67.88
677.51	56.17
677.65	95.96
677.79	44.47
677.93	39.79
678.07	25.75
678.21	16.38
678.34	77.24
678.48	131.07
678.62	95.96
678.76	2.34
678.90	37.45
679.04	46.81
679.18	91.28
679.31	86.60
679.45	32.77
679.59	67.88
679.73	70.22
679.87	60.85
680.00	56.17
680.14	30.43
680.28	0.00
680.42	51.49
680.56	53.83
680.70	39.79
680.83	88.94
680.97	32.77
681.11	16.38
681.25	28.09
681.39	58.51
681.52	39.79
681.66	79.58
681.80	53.83
681.94	84.26
682.07	39.79
682.21	117.03
682.35	65.54
682.49	58.51
682.62	16.38
682.76	67.88
682.90	35.11
683.04	23.41
683.17	0.00
683.31	0.00
683.45	0.00
683.59	91.28
683.72	74.90
683.86	21.06
684.00	65.54
684.13	28.09
684.27	74.90
684.41	0.00
684.55	95.96
684.68	93.62
684.82	74.90
684.96	100.64
685.09	32.77
685.23	110.01
685.37	0.00
685.50	0.00
685.64	21.06
685.78	74.90
685.91	16.38
686.05	95.96
686.19	0.00
686.32	0.00
686.46	42.13
686.60	7.02
686.73	0.00
686.87	4.68
687.01	84.26
687.14	16.38
687.28	56.17
687.42	49.15
687.55	72.56
687.69	25.75
687.82	18.72
687.96	23.41
688.10	14.04
688.23	0.00
688.37	42.13
688.50	114.69
688.64	42.13
688.78	0.00
688.91	2.34
689.05	0.00
689.18	28.09
689.32	74.90
689.46	0.00
689.59	44.47
689.73	18.72
689.86	0.00
690.00	25.75
690.13	2.34
690.27	32.77
690.41	60.85
690.54	21.06
690.68	0.00
690.81	42.13
690.95	11.70
691.08	0.00
691.22	63.19
691.35	0.00
691.49	67.88
691.62	53.83
691.76	37.45
691.89	32.77
692.03	79.58
692.16	100.64
692.30	21.06
692.43	74.90
692.57	0.00
692.70	0.00
692.84	0.00
692.97	7.02
693.11	4.68
693.24	42.13
693.38	0.00
693.51	28.09
693.65	32.77
693.78	77.24
693.92	60.85
694.05	98.30
694.19	0.00
694.32	16.38
694.45	88.94
694.59	42.13
694.72	63.19
694.86	77.24
694.99	84.26
695.13	25.75
695.26	14.04
695.39	28.09
695.53	16.38
695.66	23.41
695.80	0.00
695.93	23.41
696.07	95.96
696.20	0.00
696.33	0.00
696.47	79.58
696.60	9.36
696.73	0.00
696.87	0.00
697.00	121.71
697.14	0.00
697.27	53.83
697.40	72.56
697.54	65.54
697.67	25.75
697.80	79.58
697.94	37.45
698.07	0.00
698.21	77.24
698.34	28.09
698.47	4.68
698.61	0.00
698.74	0.00
698.87	58.51
699.01	25.75
699.14	0.00
699.27	0.00
699.40	0.00
699.54	4.68
699.67	74.90
699.80	25.75
699.94	39.79
700.07	81.92
700.20	9.36
700.34	65.54
700.47	53.83
700.60	126.39
700.73	39.79
700.87	60.85
701.00	11.70
701.13	100.64
701.26	44.47
701.40	18.72
701.53	79.58
701.66	42.13
701.79	44.47
701.93	30.43
702.06	46.81
702.19	21.06
702.32	25.75
702.46	84.26
702.59	0.00
702.72	44.47
702.85	37.45
702.99	0.00
703.12	70.22
703.25	16.38
703.38	0.00
703.51	0.00
703.65	16.38
703.78	0.00
703.91	63.19
704.04	65.54
704.17	65.54
704.31	4.68
704.44	88.94
704.57	53.83
704.70	0.00
704.83	81.92
704.96	56.17
705.10	63.19
705.23	0.00
>>>>>End Processed Spectral Data<<<<<
