SpectraSuite Data File
++++++++++++++++++++++++++++++++++++
Date: Fri Oct 04 12:13:41 GMT-05:00 2013
User: price-jones
Dark Spectrum Present: No
Reference Spectrum Present: No
Number of Sampled Component Spectra: 1
Spectrometers: USB2+H05261
Integration Time (usec): 10000 (USB2+H05261)
Spectra Averaged: 1 (USB2+H05261)
Boxcar Smoothing: 0 (USB2+H05261)
Correct for Electrical Dark: No (USB2+H05261)
Strobe/Lamp Enabled: No (USB2+H05261)
Correct for Detector Non-linearity: No (USB2+H05261)
Correct for Stray Light: No (USB2+H05261)
Number of Pixels in Processed Spectrum: 2048
>>>>>Begin Processed Spectral Data<<<<<
365.73	2.34
365.92	2.34
366.12	2.34
366.32	0.00
366.52	0.00
366.72	0.00
366.91	0.00
367.11	0.00
367.31	0.00
367.51	0.00
367.70	0.00
367.90	0.00
368.10	0.00
368.30	0.00
368.49	0.00
368.69	0.00
368.89	0.00
369.09	0.00
369.28	0.00
369.48	0.00
369.68	0.00
369.87	0.00
370.07	0.00
370.27	0.00
370.47	0.00
370.66	0.00
370.86	0.00
371.06	7.02
371.25	11.70
371.45	0.00
371.65	0.00
371.84	0.00
372.04	0.00
372.24	32.77
372.44	0.00
372.63	0.00
372.83	16.38
373.03	4.68
373.22	0.00
373.42	0.00
373.62	9.36
373.81	0.00
374.01	70.22
374.21	11.70
374.40	46.81
374.60	28.09
374.79	2.34
374.99	74.90
375.19	11.70
375.38	44.47
375.58	128.73
375.78	2.34
375.97	107.66
376.17	63.19
376.37	51.49
376.56	0.00
376.76	81.92
376.95	2.34
377.15	0.00
377.35	0.00
377.54	72.56
377.74	11.70
377.93	4.68
378.13	60.85
378.33	58.51
378.52	11.70
378.72	14.04
378.91	65.54
379.11	32.77
379.31	0.00
379.50	32.77
379.70	11.70
379.89	7.02
380.09	28.09
380.28	4.68
380.48	0.00
380.68	0.00
380.87	7.02
381.07	77.24
381.26	30.43
381.46	11.70
381.65	37.45
381.85	23.41
382.04	91.28
382.24	67.88
382.43	51.49
382.63	44.47
382.83	0.00
383.02	7.02
383.22	0.00
383.41	14.04
383.61	30.43
383.80	56.17
384.00	37.45
384.19	0.00
384.39	0.00
384.58	0.00
384.78	32.77
384.97	67.88
385.17	2.34
385.36	23.41
385.56	0.00
385.75	21.06
385.95	9.36
386.14	9.36
386.34	21.06
386.53	0.00
386.72	0.00
386.92	2.34
387.11	0.00
387.31	0.00
387.50	37.45
387.70	23.41
387.89	0.00
388.09	0.00
388.28	4.68
388.48	11.70
388.67	0.00
388.86	0.00
389.06	46.81
389.25	16.38
389.45	46.81
389.64	35.11
389.84	2.34
390.03	102.98
390.22	0.00
390.42	102.98
390.61	11.70
390.81	23.41
391.00	37.45
391.19	35.11
391.39	0.00
391.58	25.75
391.78	0.00
391.97	35.11
392.16	39.79
392.36	39.79
392.55	0.00
392.75	58.51
392.94	51.49
393.13	37.45
393.33	77.24
393.52	60.85
393.71	14.04
393.91	49.15
394.10	74.90
394.29	0.00
394.49	0.00
394.68	14.04
394.88	46.81
395.07	35.11
395.26	44.47
395.46	49.15
395.65	28.09
395.84	42.13
396.04	0.00
396.23	72.56
396.42	14.04
396.62	0.00
396.81	21.06
397.00	0.00
397.19	46.81
397.39	32.77
397.58	0.00
397.77	0.00
397.97	0.00
398.16	32.77
398.35	84.26
398.55	0.00
398.74	0.00
398.93	0.00
399.12	46.81
399.32	0.00
399.51	11.70
399.70	42.13
399.90	0.00
400.09	0.00
400.28	0.00
400.47	0.00
400.67	28.09
400.86	49.15
401.05	42.13
401.24	14.04
401.44	65.54
401.63	14.04
401.82	18.72
402.01	63.19
402.21	42.13
402.40	86.60
402.59	2.34
402.78	9.36
402.97	32.77
403.17	56.17
403.36	0.00
403.55	0.00
403.74	42.13
403.93	16.38
404.13	53.83
404.32	18.72
404.51	18.72
404.70	65.54
404.89	35.11
405.09	65.54
405.28	35.11
405.47	0.00
405.66	16.38
405.85	0.00
406.05	0.00
406.24	0.00
406.43	30.43
406.62	25.75
406.81	32.77
407.00	35.11
407.20	4.68
407.39	86.60
407.58	44.47
407.77	30.43
407.96	0.00
408.15	0.00
408.34	0.00
408.54	25.75
408.73	0.00
408.92	56.17
409.11	0.00
409.30	79.58
409.49	46.81
409.68	105.32
409.87	9.36
410.07	0.00
410.26	77.24
410.45	0.00
410.64	4.68
410.83	18.72
411.02	11.70
411.21	81.92
411.40	7.02
411.59	46.81
411.78	16.38
411.98	77.24
412.17	86.60
412.36	7.02
412.55	121.71
412.74	0.00
412.93	37.45
413.12	39.79
413.31	18.72
413.50	7.02
413.69	70.22
413.88	42.13
414.07	0.00
414.26	102.98
414.45	42.13
414.64	60.85
414.83	0.00
415.02	42.13
415.22	56.17
415.41	58.51
415.60	21.06
415.79	44.47
415.98	58.51
416.17	4.68
416.36	14.04
416.55	0.00
416.74	28.09
416.93	44.47
417.12	0.00
417.31	0.00
417.50	28.09
417.69	0.00
417.88	37.45
418.07	67.88
418.26	0.00
418.45	56.17
418.64	21.06
418.83	0.00
419.02	0.00
419.21	28.09
419.39	0.00
419.58	4.68
419.77	32.77
419.96	51.49
420.15	44.47
420.34	42.13
420.53	28.09
420.72	77.24
420.91	77.24
421.10	0.00
421.29	121.71
421.48	105.32
421.67	56.17
421.86	51.49
422.05	51.49
422.24	56.17
422.43	14.04
422.61	56.17
422.80	53.83
422.99	30.43
423.18	72.56
423.37	44.47
423.56	9.36
423.75	0.00
423.94	65.54
424.13	39.79
424.32	32.77
424.50	23.41
424.69	74.90
424.88	65.54
425.07	60.85
425.26	0.00
425.45	14.04
425.64	25.75
425.83	21.06
426.01	21.06
426.20	11.70
426.39	18.72
426.58	0.00
426.77	51.49
426.96	79.58
427.15	51.49
427.33	18.72
427.52	58.51
427.71	35.11
427.90	23.41
428.09	67.88
428.28	2.34
428.46	30.43
428.65	77.24
428.84	4.68
429.03	14.04
429.22	42.13
429.40	35.11
429.59	0.00
429.78	0.00
429.97	65.54
430.16	0.00
430.34	65.54
430.53	35.11
430.72	2.34
430.91	0.00
431.10	14.04
431.28	93.62
431.47	14.04
431.66	77.24
431.85	23.41
432.03	56.17
432.22	58.51
432.41	81.92
432.60	95.96
432.79	56.17
432.97	4.68
433.16	0.00
433.35	0.00
433.54	46.81
433.72	65.54
433.91	79.58
434.10	70.22
434.28	84.26
434.47	60.85
434.66	18.72
434.85	28.09
435.03	39.79
435.22	84.26
435.41	37.45
435.59	53.83
435.78	93.62
435.97	0.00
436.16	0.00
436.34	51.49
436.53	14.04
436.72	46.81
436.90	25.75
437.09	58.51
437.28	67.88
437.46	95.96
437.65	14.04
437.84	93.62
438.02	39.79
438.21	7.02
438.40	93.62
438.58	49.15
438.77	77.24
438.96	0.00
439.14	100.64
439.33	60.85
439.52	49.15
439.70	44.47
439.89	74.90
440.08	4.68
440.26	49.15
440.45	42.13
440.63	77.24
440.82	81.92
441.01	53.83
441.19	187.24
441.38	32.77
441.57	21.06
441.75	25.75
441.94	58.51
442.12	77.24
442.31	60.85
442.50	4.68
442.68	11.70
442.87	35.11
443.05	0.00
443.24	102.98
443.43	58.51
443.61	56.17
443.80	65.54
443.98	77.24
444.17	9.36
444.35	0.00
444.54	67.88
444.73	21.06
444.91	30.43
445.10	77.24
445.28	58.51
445.47	84.26
445.65	51.49
445.84	91.28
446.02	0.00
446.21	30.43
446.39	84.26
446.58	70.22
446.77	81.92
446.95	65.54
447.14	39.79
447.32	74.90
447.51	58.51
447.69	30.43
447.88	72.56
448.06	63.19
448.25	28.09
448.43	74.90
448.62	49.15
448.80	30.43
448.99	77.24
449.17	0.00
449.36	86.60
449.54	86.60
449.73	11.70
449.91	0.00
450.10	25.75
450.28	60.85
450.46	98.30
450.65	81.92
450.83	25.75
451.02	0.00
451.20	0.00
451.39	0.00
451.57	58.51
451.76	18.72
451.94	37.45
452.13	30.43
452.31	88.94
452.49	16.38
452.68	60.85
452.86	14.04
453.05	86.60
453.23	98.30
453.42	81.92
453.60	49.15
453.78	39.79
453.97	44.47
454.15	95.96
454.34	25.75
454.52	4.68
454.70	95.96
454.89	93.62
455.07	77.24
455.26	9.36
455.44	32.77
455.62	124.05
455.81	93.62
455.99	56.17
456.17	60.85
456.36	70.22
456.54	44.47
456.73	51.49
456.91	49.15
457.09	77.24
457.28	98.30
457.46	23.41
457.64	58.51
457.83	81.92
458.01	0.00
458.19	65.54
458.38	46.81
458.56	25.75
458.74	56.17
458.93	32.77
459.11	25.75
459.29	53.83
459.48	105.32
459.66	51.49
459.84	81.92
460.03	112.35
460.21	35.11
460.39	81.92
460.57	51.49
460.76	23.41
460.94	124.05
461.12	77.24
461.31	56.17
461.49	60.85
461.67	37.45
461.85	30.43
462.04	84.26
462.22	100.64
462.40	0.00
462.59	51.49
462.77	93.62
462.95	32.77
463.13	0.00
463.32	98.30
463.50	9.36
463.68	56.17
463.86	51.49
464.05	0.00
464.23	4.68
464.41	2.34
464.59	30.43
464.78	60.85
464.96	79.58
465.14	18.72
465.32	67.88
465.50	105.32
465.69	51.49
465.87	131.07
466.05	74.90
466.23	100.64
466.41	35.11
466.60	72.56
466.78	49.15
466.96	39.79
467.14	95.96
467.32	79.58
467.51	119.37
467.69	42.13
467.87	39.79
468.05	67.88
468.23	53.83
468.41	60.85
468.60	110.01
468.78	32.77
468.96	51.49
469.14	88.94
469.32	56.17
469.50	98.30
469.69	79.58
469.87	63.19
470.05	63.19
470.23	46.81
470.41	84.26
470.59	28.09
470.77	42.13
470.95	18.72
471.14	37.45
471.32	58.51
471.50	84.26
471.68	28.09
471.86	74.90
472.04	42.13
472.22	37.45
472.40	42.13
472.58	49.15
472.77	65.54
472.95	9.36
473.13	53.83
473.31	7.02
473.49	42.13
473.67	56.17
473.85	0.00
474.03	56.17
474.21	58.51
474.39	93.62
474.57	37.45
474.75	32.77
474.93	0.00
475.12	58.51
475.30	0.00
475.48	39.79
475.66	58.51
475.84	119.37
476.02	25.75
476.20	42.13
476.38	46.81
476.56	79.58
476.74	53.83
476.92	107.66
477.10	88.94
477.28	28.09
477.46	128.73
477.64	0.00
477.82	30.43
478.00	42.13
478.18	49.15
478.36	65.54
478.54	74.90
478.72	91.28
478.90	23.41
479.08	58.51
479.26	4.68
479.44	126.39
479.62	35.11
479.80	35.11
479.98	37.45
480.16	0.00
480.34	81.92
480.52	0.00
480.70	42.13
480.88	72.56
481.06	18.72
481.24	56.17
481.41	28.09
481.59	49.15
481.77	0.00
481.95	95.96
482.13	0.00
482.31	133.41
482.49	39.79
482.67	58.51
482.85	35.11
483.03	70.22
483.21	28.09
483.39	56.17
483.57	30.43
483.74	107.66
483.92	2.34
484.10	91.28
484.28	79.58
484.46	63.19
484.64	28.09
484.82	9.36
485.00	70.22
485.18	23.41
485.35	21.06
485.53	63.19
485.71	77.24
485.89	74.90
486.07	32.77
486.25	35.11
486.43	25.75
486.61	28.09
486.78	56.17
486.96	98.30
487.14	51.49
487.32	107.66
487.50	35.11
487.68	11.70
487.85	63.19
488.03	18.72
488.21	32.77
488.39	16.38
488.57	121.71
488.75	86.60
488.92	44.47
489.10	102.98
489.28	126.39
489.46	25.75
489.64	79.58
489.81	131.07
489.99	84.26
490.17	30.43
490.35	77.24
490.53	100.64
490.70	58.51
490.88	91.28
491.06	23.41
491.24	86.60
491.41	88.94
491.59	53.83
491.77	79.58
491.95	86.60
492.13	131.07
492.30	44.47
492.48	98.30
492.66	84.26
492.84	77.24
493.01	126.39
493.19	32.77
493.37	56.17
493.54	42.13
493.72	74.90
493.90	88.94
494.08	124.05
494.25	79.58
494.43	84.26
494.61	154.48
494.79	133.41
494.96	95.96
495.14	32.77
495.32	23.41
495.49	63.19
495.67	117.03
495.85	23.41
496.02	63.19
496.20	51.49
496.38	124.05
496.55	21.06
496.73	70.22
496.91	81.92
497.09	117.03
497.26	128.73
497.44	32.77
497.62	18.72
497.79	91.28
497.97	93.62
498.14	35.11
498.32	77.24
498.50	126.39
498.67	7.02
498.85	0.00
499.03	21.06
499.20	28.09
499.38	98.30
499.56	70.22
499.73	51.49
499.91	39.79
500.08	88.94
500.26	72.56
500.44	107.66
500.61	63.19
500.79	58.51
500.97	95.96
501.14	67.88
501.32	154.48
501.49	56.17
501.67	39.79
501.84	88.94
502.02	72.56
502.20	51.49
502.37	74.90
502.55	114.69
502.72	0.00
502.90	86.60
503.07	88.94
503.25	112.35
503.43	28.09
503.60	14.04
503.78	23.41
503.95	56.17
504.13	72.56
504.30	70.22
504.48	142.77
504.65	133.41
504.83	110.01
505.01	44.47
505.18	53.83
505.36	30.43
505.53	21.06
505.71	84.26
505.88	0.00
506.06	60.85
506.23	35.11
506.41	28.09
506.58	56.17
506.76	14.04
506.93	42.13
507.11	110.01
507.28	37.45
507.46	39.79
507.63	98.30
507.81	44.47
507.98	86.60
508.16	49.15
508.33	147.45
508.50	72.56
508.68	126.39
508.85	74.90
509.03	98.30
509.20	23.41
509.38	133.41
509.55	149.79
509.73	58.51
509.90	88.94
510.08	100.64
510.25	67.88
510.42	60.85
510.60	56.17
510.77	100.64
510.95	28.09
511.12	117.03
511.30	114.69
511.47	140.43
511.64	105.32
511.82	84.26
511.99	98.30
512.17	51.49
512.34	95.96
512.51	74.90
512.69	28.09
512.86	147.45
513.04	23.41
513.21	39.79
513.38	102.98
513.56	180.22
513.73	63.19
513.90	95.96
514.08	133.41
514.25	56.17
514.43	84.26
514.60	114.69
514.77	114.69
514.95	98.30
515.12	88.94
515.29	88.94
515.47	53.83
515.64	56.17
515.81	107.66
515.99	56.17
516.16	67.88
516.33	70.22
516.51	133.41
516.68	53.83
516.85	112.35
517.03	119.37
517.20	70.22
517.37	191.92
517.54	53.83
517.72	23.41
517.89	86.60
518.06	84.26
518.24	93.62
518.41	46.81
518.58	44.47
518.75	37.45
518.93	65.54
519.10	32.77
519.27	86.60
519.45	117.03
519.62	93.62
519.79	74.90
519.96	72.56
520.14	42.13
520.31	149.79
520.48	100.64
520.65	28.09
520.83	91.28
521.00	114.69
521.17	67.88
521.34	72.56
521.52	147.45
521.69	117.03
521.86	67.88
522.03	91.28
522.20	107.66
522.38	100.64
522.55	84.26
522.72	98.30
522.89	110.01
523.07	112.35
523.24	98.30
523.41	23.41
523.58	72.56
523.75	74.90
523.92	145.11
524.10	121.71
524.27	77.24
524.44	184.90
524.61	93.62
524.78	124.05
524.96	51.49
525.13	100.64
525.30	79.58
525.47	16.38
525.64	53.83
525.81	128.73
525.98	107.66
526.16	4.68
526.33	124.05
526.50	131.07
526.67	114.69
526.84	114.69
527.01	88.94
527.18	142.77
527.36	42.13
527.53	86.60
527.70	81.92
527.87	119.37
528.04	58.51
528.21	112.35
528.38	102.98
528.55	93.62
528.72	135.75
528.89	72.56
529.07	0.00
529.24	93.62
529.41	100.64
529.58	88.94
529.75	70.22
529.92	23.41
530.09	0.00
530.26	145.11
530.43	72.56
530.60	44.47
530.77	112.35
530.94	77.24
531.11	21.06
531.28	102.98
531.46	91.28
531.63	58.51
531.80	56.17
531.97	60.85
532.14	65.54
532.31	124.05
532.48	74.90
532.65	60.85
532.82	84.26
532.99	74.90
533.16	105.32
533.33	102.98
533.50	114.69
533.67	133.41
533.84	93.62
534.01	126.39
534.18	138.09
534.35	100.64
534.52	58.51
534.69	117.03
534.86	4.68
535.03	42.13
535.20	81.92
535.37	145.11
535.54	67.88
535.71	58.51
535.88	81.92
536.05	93.62
536.22	77.24
536.38	74.90
536.55	51.49
536.72	84.26
536.89	135.75
537.06	79.58
537.23	126.39
537.40	0.00
537.57	14.04
537.74	107.66
537.91	14.04
538.08	30.43
538.25	93.62
538.42	0.00
538.59	0.00
538.75	98.30
538.92	112.35
539.09	35.11
539.26	112.35
539.43	112.35
539.60	9.36
539.77	37.45
539.94	77.24
540.11	70.22
540.28	98.30
540.44	138.09
540.61	128.73
540.78	93.62
540.95	86.60
541.12	84.26
541.29	140.43
541.46	117.03
541.62	21.06
541.79	67.88
541.96	112.35
542.13	18.72
542.30	79.58
542.47	114.69
542.63	51.49
542.80	128.73
542.97	51.49
543.14	112.35
543.31	49.15
543.48	32.77
543.64	112.35
543.81	117.03
543.98	100.64
544.15	88.94
544.32	86.60
544.48	88.94
544.65	156.82
544.82	128.73
544.99	95.96
545.16	128.73
545.32	88.94
545.49	117.03
545.66	107.66
545.83	74.90
546.00	67.88
546.16	0.00
546.33	60.85
546.50	63.19
546.67	58.51
546.83	110.01
547.00	65.54
547.17	77.24
547.34	84.26
547.50	102.98
547.67	79.58
547.84	84.26
548.00	91.28
548.17	128.73
548.34	37.45
548.51	114.69
548.67	0.00
548.84	25.75
549.01	67.88
549.18	138.09
549.34	91.28
549.51	119.37
549.68	98.30
549.84	84.26
550.01	84.26
550.18	67.88
550.34	53.83
550.51	112.35
550.68	77.24
550.84	86.60
551.01	60.85
551.18	88.94
551.34	98.30
551.51	42.13
551.68	124.05
551.84	114.69
552.01	107.66
552.18	51.49
552.34	21.06
552.51	63.19
552.68	42.13
552.84	53.83
553.01	93.62
553.18	91.28
553.34	86.60
553.51	65.54
553.67	98.30
553.84	100.64
554.01	112.35
554.17	37.45
554.34	81.92
554.51	142.77
554.67	124.05
554.84	124.05
555.00	74.90
555.17	77.24
555.33	93.62
555.50	77.24
555.67	67.88
555.83	35.11
556.00	93.62
556.16	154.48
556.33	23.41
556.50	126.39
556.66	60.85
556.83	53.83
556.99	56.17
557.16	107.66
557.32	95.96
557.49	100.64
557.65	23.41
557.82	93.62
557.98	65.54
558.15	107.66
558.32	135.75
558.48	112.35
558.65	7.02
558.81	46.81
558.98	49.15
559.14	142.77
559.31	51.49
559.47	128.73
559.64	56.17
559.80	16.38
559.97	142.77
560.13	117.03
560.30	51.49
560.46	56.17
560.63	72.56
560.79	77.24
560.96	131.07
561.12	49.15
561.29	72.56
561.45	81.92
561.61	77.24
561.78	126.39
561.94	110.01
562.11	67.88
562.27	95.96
562.44	60.85
562.60	86.60
562.77	128.73
562.93	32.77
563.10	86.60
563.26	49.15
563.42	131.07
563.59	107.66
563.75	53.83
563.92	102.98
564.08	79.58
564.24	88.94
564.41	149.79
564.57	95.96
564.74	102.98
564.90	4.68
565.07	51.49
565.23	51.49
565.39	81.92
565.56	70.22
565.72	93.62
565.88	81.92
566.05	140.43
566.21	91.28
566.38	0.00
566.54	42.13
566.70	51.49
566.87	140.43
567.03	7.02
567.19	84.26
567.36	51.49
567.52	58.51
567.68	63.19
567.85	74.90
568.01	93.62
568.17	79.58
568.34	128.73
568.50	56.17
568.66	14.04
568.83	35.11
568.99	65.54
569.15	56.17
569.32	56.17
569.48	86.60
569.64	126.39
569.81	65.54
569.97	32.77
570.13	72.56
570.30	77.24
570.46	114.69
570.62	25.75
570.78	79.58
570.95	11.70
571.11	18.72
571.27	110.01
571.43	93.62
571.60	74.90
571.76	114.69
571.92	70.22
572.09	32.77
572.25	44.47
572.41	74.90
572.57	102.98
572.74	102.98
572.90	70.22
573.06	98.30
573.22	102.98
573.38	63.19
573.55	58.51
573.71	77.24
573.87	63.19
574.03	126.39
574.20	79.58
574.36	95.96
574.52	32.77
574.68	84.26
574.84	126.39
575.01	93.62
575.17	49.15
575.33	93.62
575.49	102.98
575.65	72.56
575.82	14.04
575.98	42.13
576.14	72.56
576.30	114.69
576.46	56.17
576.62	25.75
576.79	74.90
576.95	135.75
577.11	56.17
577.27	74.90
577.43	46.81
577.59	100.64
577.75	79.58
577.92	124.05
578.08	79.58
578.24	74.90
578.40	65.54
578.56	51.49
578.72	93.62
578.88	67.88
579.04	28.09
579.21	67.88
579.37	105.32
579.53	105.32
579.69	37.45
579.85	65.54
580.01	121.71
580.17	86.60
580.33	119.37
580.49	53.83
580.65	42.13
580.82	0.00
580.98	30.43
581.14	112.35
581.30	77.24
581.46	60.85
581.62	110.01
581.78	72.56
581.94	65.54
582.10	77.24
582.26	72.56
582.42	25.75
582.58	67.88
582.74	86.60
582.90	74.90
583.06	100.64
583.22	102.98
583.38	128.73
583.54	117.03
583.70	91.28
583.86	126.39
584.02	72.56
584.18	70.22
584.34	140.43
584.50	44.47
584.66	67.88
584.82	95.96
584.98	72.56
585.14	39.79
585.30	88.94
585.46	42.13
585.62	124.05
585.78	133.41
585.94	121.71
586.10	119.37
586.26	145.11
586.42	39.79
586.58	53.83
586.74	67.88
586.90	81.92
587.06	91.28
587.22	4.68
587.38	163.84
587.54	39.79
587.70	107.66
587.86	88.94
588.02	79.58
588.18	117.03
588.34	2.34
588.49	102.98
588.65	119.37
588.81	91.28
588.97	124.05
589.13	63.19
589.29	0.00
589.45	9.36
589.61	117.03
589.77	16.38
589.93	25.75
590.08	102.98
590.24	58.51
590.40	37.45
590.56	81.92
590.72	91.28
590.88	67.88
591.04	51.49
591.20	131.07
591.35	74.90
591.51	23.41
591.67	86.60
591.83	23.41
591.99	77.24
592.15	65.54
592.31	70.22
592.46	30.43
592.62	126.39
592.78	105.32
592.94	140.43
593.10	110.01
593.26	39.79
593.41	16.38
593.57	88.94
593.73	23.41
593.89	100.64
594.05	0.00
594.20	11.70
594.36	133.41
594.52	100.64
594.68	79.58
594.84	56.17
594.99	107.66
595.15	4.68
595.31	77.24
595.47	88.94
595.62	112.35
595.78	39.79
595.94	49.15
596.10	86.60
596.25	95.96
596.41	67.88
596.57	74.90
596.73	105.32
596.88	86.60
597.04	18.72
597.20	133.41
597.36	53.83
597.51	74.90
597.67	86.60
597.83	39.79
597.99	44.47
598.14	70.22
598.30	91.28
598.46	88.94
598.61	112.35
598.77	77.24
598.93	21.06
599.09	37.45
599.24	58.51
599.40	63.19
599.56	46.81
599.71	0.00
599.87	72.56
600.03	46.81
600.18	46.81
600.34	79.58
600.50	56.17
600.65	100.64
600.81	147.45
600.97	70.22
601.12	39.79
601.28	51.49
601.44	81.92
601.59	86.60
601.75	91.28
601.91	39.79
602.06	91.28
602.22	81.92
602.37	84.26
602.53	35.11
602.69	74.90
602.84	2.34
603.00	93.62
603.16	74.90
603.31	79.58
603.47	93.62
603.62	138.09
603.78	0.00
603.94	28.09
604.09	70.22
604.25	53.83
604.40	81.92
604.56	67.88
604.71	56.17
604.87	77.24
605.03	91.28
605.18	53.83
605.34	177.88
605.49	44.47
605.65	84.26
605.80	100.64
605.96	63.19
606.12	91.28
606.27	105.32
606.43	49.15
606.58	114.69
606.74	56.17
606.89	56.17
607.05	46.81
607.20	70.22
607.36	72.56
607.51	79.58
607.67	42.13
607.82	39.79
607.98	58.51
608.13	95.96
608.29	28.09
608.44	49.15
608.60	53.83
608.75	77.24
608.91	93.62
609.06	98.30
609.22	121.71
609.37	72.56
609.53	49.15
609.68	35.11
609.84	37.45
609.99	42.13
610.15	37.45
610.30	14.04
610.46	28.09
610.61	102.98
610.76	42.13
610.92	0.00
611.07	63.19
611.23	46.81
611.38	70.22
611.54	70.22
611.69	18.72
611.84	74.90
612.00	9.36
612.15	72.56
612.31	30.43
612.46	0.00
612.62	77.24
612.77	110.01
612.92	110.01
613.08	14.04
613.23	42.13
613.39	14.04
613.54	53.83
613.69	49.15
613.85	74.90
614.00	95.96
614.15	67.88
614.31	65.54
614.46	42.13
614.62	140.43
614.77	105.32
614.92	56.17
615.08	67.88
615.23	16.38
615.38	32.77
615.54	112.35
615.69	44.47
615.84	102.98
616.00	79.58
616.15	2.34
616.30	0.00
616.46	30.43
616.61	56.17
616.76	70.22
616.92	72.56
617.07	102.98
617.22	39.79
617.37	51.49
617.53	49.15
617.68	124.05
617.83	100.64
617.99	138.09
618.14	0.00
618.29	72.56
618.45	42.13
618.60	70.22
618.75	56.17
618.90	39.79
619.06	58.51
619.21	81.92
619.36	88.94
619.51	35.11
619.67	51.49
619.82	60.85
619.97	95.96
620.12	72.56
620.28	0.00
620.43	42.13
620.58	100.64
620.73	67.88
620.89	9.36
621.04	56.17
621.19	32.77
621.34	56.17
621.49	140.43
621.65	138.09
621.80	86.60
621.95	56.17
622.10	28.09
622.25	46.81
622.41	114.69
622.56	88.94
622.71	84.26
622.86	84.26
623.01	98.30
623.16	53.83
623.32	44.47
623.47	77.24
623.62	81.92
623.77	67.88
623.92	49.15
624.07	37.45
624.23	53.83
624.38	44.47
624.53	117.03
624.68	91.28
624.83	70.22
624.98	18.72
625.13	37.45
625.29	121.71
625.44	56.17
625.59	84.26
625.74	86.60
625.89	70.22
626.04	28.09
626.19	72.56
626.34	37.45
626.49	98.30
626.65	51.49
626.80	0.00
626.95	7.02
627.10	65.54
627.25	32.77
627.40	14.04
627.55	72.56
627.70	44.47
627.85	88.94
628.00	72.56
628.15	46.81
628.30	112.35
628.45	28.09
628.60	60.85
628.76	60.85
628.91	72.56
629.06	49.15
629.21	79.58
629.36	23.41
629.51	37.45
629.66	119.37
629.81	23.41
629.96	2.34
630.11	39.79
630.26	18.72
630.41	58.51
630.56	67.88
630.71	35.11
630.86	63.19
631.01	30.43
631.16	18.72
631.31	91.28
631.46	63.19
631.61	37.45
631.76	63.19
631.91	135.75
632.06	16.38
632.21	102.98
632.36	23.41
632.51	72.56
632.66	42.13
632.81	60.85
632.96	16.38
633.10	28.09
633.25	49.15
633.40	79.58
633.55	11.70
633.70	39.79
633.85	79.58
634.00	77.24
634.15	133.41
634.30	42.13
634.45	79.58
634.60	23.41
634.75	49.15
634.90	51.49
635.05	110.01
635.19	98.30
635.34	140.43
635.49	88.94
635.64	100.64
635.79	102.98
635.94	93.62
636.09	147.45
636.24	0.00
636.39	9.36
636.53	42.13
636.68	35.11
636.83	60.85
636.98	30.43
637.13	93.62
637.28	79.58
637.43	79.58
637.57	14.04
637.72	58.51
637.87	0.00
638.02	131.07
638.17	74.90
638.32	128.73
638.46	86.60
638.61	35.11
638.76	23.41
638.91	25.75
639.06	30.43
639.20	107.66
639.35	135.75
639.50	18.72
639.65	14.04
639.80	21.06
639.94	14.04
640.09	114.69
640.24	0.00
640.39	65.54
640.54	63.19
640.68	81.92
640.83	56.17
640.98	35.11
641.13	35.11
641.27	56.17
641.42	100.64
641.57	56.17
641.72	14.04
641.86	53.83
642.01	44.47
642.16	93.62
642.31	63.19
642.45	25.75
642.60	30.43
642.75	23.41
642.90	81.92
643.04	53.83
643.19	21.06
643.34	46.81
643.48	46.81
643.63	65.54
643.78	51.49
643.93	79.58
644.07	46.81
644.22	44.47
644.37	86.60
644.51	56.17
644.66	44.47
644.81	42.13
644.95	70.22
645.10	18.72
645.25	16.38
645.39	42.13
645.54	60.85
645.69	77.24
645.83	74.90
645.98	77.24
646.13	35.11
646.27	84.26
646.42	28.09
646.57	131.07
646.71	42.13
646.86	18.72
647.00	35.11
647.15	0.00
647.30	49.15
647.44	56.17
647.59	70.22
647.74	100.64
647.88	21.06
648.03	63.19
648.17	67.88
648.32	37.45
648.47	112.35
648.61	30.43
648.76	46.81
648.90	49.15
649.05	56.17
649.20	49.15
649.34	44.47
649.49	124.05
649.63	60.85
649.78	65.54
649.92	142.77
650.07	46.81
650.21	32.77
650.36	84.26
650.51	2.34
650.65	46.81
650.80	70.22
650.94	42.13
651.09	14.04
651.23	35.11
651.38	93.62
651.52	42.13
651.67	67.88
651.81	124.05
651.96	16.38
652.10	39.79
652.25	28.09
652.39	63.19
652.54	39.79
652.68	0.00
652.83	2.34
652.97	4.68
653.12	16.38
653.26	30.43
653.41	67.88
653.55	0.00
653.70	37.45
653.84	77.24
653.99	0.00
654.13	9.36
654.27	4.68
654.42	46.81
654.56	2.34
654.71	0.00
654.85	28.09
655.00	58.51
655.14	107.66
655.29	72.56
655.43	44.47
655.57	65.54
655.72	9.36
655.86	81.92
656.01	28.09
656.15	44.47
656.30	84.26
656.44	35.11
656.58	51.49
656.73	42.13
656.87	42.13
657.01	79.58
657.16	14.04
657.30	110.01
657.45	0.00
657.59	14.04
657.73	51.49
657.88	79.58
658.02	51.49
658.16	0.00
658.31	21.06
658.45	51.49
658.60	0.00
658.74	0.00
658.88	28.09
659.03	79.58
659.17	60.85
659.31	44.47
659.46	49.15
659.60	30.43
659.74	49.15
659.89	63.19
660.03	81.92
660.17	86.60
660.32	49.15
660.46	35.11
660.60	30.43
660.74	65.54
660.89	79.58
661.03	42.13
661.17	35.11
661.32	35.11
661.46	0.00
661.60	11.70
661.74	32.77
661.89	51.49
662.03	42.13
662.17	67.88
662.31	30.43
662.46	84.26
662.60	65.54
662.74	95.96
662.88	0.00
663.03	46.81
663.17	72.56
663.31	74.90
663.45	74.90
663.60	65.54
663.74	25.75
663.88	37.45
664.02	0.00
664.17	0.00
664.31	70.22
664.45	14.04
664.59	9.36
664.73	74.90
664.88	4.68
665.02	91.28
665.16	72.56
665.30	84.26
665.44	58.51
665.59	51.49
665.73	74.90
665.87	67.88
666.01	107.66
666.15	37.45
666.29	100.64
666.44	126.39
666.58	11.70
666.72	32.77
666.86	53.83
667.00	46.81
667.14	56.17
667.28	0.00
667.43	65.54
667.57	121.71
667.71	60.85
667.85	67.88
667.99	93.62
668.13	46.81
668.27	49.15
668.41	0.00
668.56	77.24
668.70	4.68
668.84	28.09
668.98	7.02
669.12	30.43
669.26	0.00
669.40	60.85
669.54	49.15
669.68	56.17
669.82	65.54
669.96	42.13
670.10	32.77
670.25	32.77
670.39	58.51
670.53	2.34
670.67	44.47
670.81	37.45
670.95	25.75
671.09	14.04
671.23	11.70
671.37	49.15
671.51	46.81
671.65	44.47
671.79	58.51
671.93	30.43
672.07	2.34
672.21	100.64
672.35	18.72
672.49	14.04
672.63	105.32
672.77	60.85
672.91	0.00
673.05	88.94
673.19	2.34
673.33	16.38
673.47	56.17
673.61	4.68
673.75	60.85
673.89	44.47
674.03	0.00
674.17	81.92
674.31	0.00
674.45	28.09
674.59	53.83
674.73	51.49
674.87	37.45
675.01	7.02
675.15	7.02
675.29	28.09
675.43	56.17
675.56	72.56
675.70	39.79
675.84	44.47
675.98	28.09
676.12	21.06
676.26	70.22
676.40	84.26
676.54	56.17
676.68	16.38
676.82	46.81
676.96	16.38
677.10	37.45
677.23	0.00
677.37	23.41
677.51	9.36
677.65	53.83
677.79	16.38
677.93	23.41
678.07	0.00
678.21	77.24
678.34	2.34
678.48	88.94
678.62	46.81
678.76	53.83
678.90	84.26
679.04	18.72
679.18	98.30
679.31	18.72
679.45	25.75
679.59	7.02
679.73	105.32
679.87	63.19
680.00	60.85
680.14	84.26
680.28	51.49
680.42	93.62
680.56	77.24
680.70	49.15
680.83	49.15
680.97	65.54
681.11	86.60
681.25	42.13
681.39	74.90
681.52	133.41
681.66	0.00
681.80	21.06
681.94	46.81
682.07	18.72
682.21	9.36
682.35	86.60
682.49	53.83
682.62	23.41
682.76	86.60
682.90	28.09
683.04	74.90
683.17	72.56
683.31	37.45
683.45	39.79
683.59	11.70
683.72	28.09
683.86	7.02
684.00	39.79
684.13	16.38
684.27	0.00
684.41	56.17
684.55	25.75
684.68	0.00
684.82	0.00
684.96	51.49
685.09	58.51
685.23	30.43
685.37	9.36
685.50	70.22
685.64	9.36
685.78	46.81
685.91	98.30
686.05	32.77
686.19	44.47
686.32	0.00
686.46	2.34
686.60	11.70
686.73	65.54
686.87	25.75
687.01	35.11
687.14	28.09
687.28	28.09
687.42	67.88
687.55	138.09
687.69	32.77
687.82	51.49
687.96	16.38
688.10	117.03
688.23	42.13
688.37	63.19
688.50	0.00
688.64	46.81
688.78	4.68
688.91	2.34
689.05	84.26
689.18	70.22
689.32	74.90
689.46	110.01
689.59	39.79
689.73	46.81
689.86	58.51
690.00	39.79
690.13	72.56
690.27	32.77
690.41	7.02
690.54	49.15
690.68	67.88
690.81	65.54
690.95	58.51
691.08	25.75
691.22	0.00
691.35	0.00
691.49	63.19
691.62	102.98
691.76	39.79
691.89	0.00
692.03	0.00
692.16	18.72
692.30	44.47
692.43	72.56
692.57	9.36
692.70	56.17
692.84	93.62
692.97	53.83
693.11	110.01
693.24	14.04
693.38	11.70
693.51	9.36
693.65	51.49
693.78	39.79
693.92	51.49
694.05	63.19
694.19	72.56
694.32	37.45
694.45	84.26
694.59	35.11
694.72	77.24
694.86	35.11
694.99	0.00
695.13	39.79
695.26	0.00
695.39	95.96
695.53	39.79
695.66	88.94
695.80	11.70
695.93	93.62
696.07	95.96
696.20	56.17
696.33	11.70
696.47	4.68
696.60	0.00
696.73	126.39
696.87	0.00
697.00	117.03
697.14	37.45
697.27	18.72
697.40	53.83
697.54	0.00
697.67	37.45
697.80	0.00
697.94	0.00
698.07	32.77
698.21	70.22
698.34	28.09
698.47	0.00
698.61	23.41
698.74	42.13
698.87	44.47
699.01	42.13
699.14	18.72
699.27	91.28
699.40	70.22
699.54	16.38
699.67	0.00
699.80	58.51
699.94	49.15
700.07	14.04
700.20	44.47
700.34	16.38
700.47	23.41
700.60	37.45
700.73	0.00
700.87	58.51
701.00	56.17
701.13	72.56
701.26	98.30
701.40	0.00
701.53	107.66
701.66	4.68
701.79	11.70
701.93	23.41
702.06	16.38
702.19	18.72
702.32	65.54
702.46	65.54
702.59	21.06
702.72	32.77
702.85	0.00
702.99	72.56
703.12	49.15
703.25	70.22
703.38	95.96
703.51	35.11
703.65	72.56
703.78	72.56
703.91	81.92
704.04	42.13
704.17	0.00
704.31	49.15
704.44	0.00
704.57	11.70
704.70	63.19
704.83	32.77
704.96	42.13
705.10	32.77
705.23	25.75
>>>>>End Processed Spectral Data<<<<<
