SpectraSuite Data File
++++++++++++++++++++++++++++++++++++
Date: Fri Oct 04 12:13:33 GMT-05:00 2013
User: price-jones
Dark Spectrum Present: No
Reference Spectrum Present: No
Number of Sampled Component Spectra: 1
Spectrometers: USB2+H05261
Integration Time (usec): 10000 (USB2+H05261)
Spectra Averaged: 1 (USB2+H05261)
Boxcar Smoothing: 0 (USB2+H05261)
Correct for Electrical Dark: No (USB2+H05261)
Strobe/Lamp Enabled: No (USB2+H05261)
Correct for Detector Non-linearity: No (USB2+H05261)
Correct for Stray Light: No (USB2+H05261)
Number of Pixels in Processed Spectrum: 2048
>>>>>Begin Processed Spectral Data<<<<<
365.73	18.72
365.92	18.72
366.12	18.72
366.32	0.00
366.52	0.00
366.72	0.00
366.91	0.00
367.11	0.00
367.31	0.00
367.51	0.00
367.70	0.00
367.90	0.00
368.10	0.00
368.30	0.00
368.49	0.00
368.69	0.00
368.89	0.00
369.09	0.00
369.28	0.00
369.48	0.00
369.68	0.00
369.87	0.00
370.07	0.00
370.27	0.00
370.47	0.00
370.66	0.00
370.86	0.00
371.06	0.00
371.25	9.36
371.45	0.00
371.65	0.00
371.84	18.72
372.04	16.38
372.24	0.00
372.44	21.06
372.63	11.70
372.83	53.83
373.03	9.36
373.22	72.56
373.42	44.47
373.62	42.13
373.81	51.49
374.01	51.49
374.21	28.09
374.40	60.85
374.60	18.72
374.79	0.00
374.99	44.47
375.19	65.54
375.38	53.83
375.58	44.47
375.78	81.92
375.97	0.00
376.17	0.00
376.37	25.75
376.56	0.00
376.76	65.54
376.95	60.85
377.15	0.00
377.35	30.43
377.54	11.70
377.74	42.13
377.93	0.00
378.13	37.45
378.33	91.28
378.52	121.71
378.72	79.58
378.91	102.98
379.11	37.45
379.31	0.00
379.50	0.00
379.70	4.68
379.89	16.38
380.09	11.70
380.28	56.17
380.48	0.00
380.68	0.00
380.87	65.54
381.07	14.04
381.26	14.04
381.46	49.15
381.65	0.00
381.85	0.00
382.04	42.13
382.24	32.77
382.43	0.00
382.63	79.58
382.83	11.70
383.02	4.68
383.22	0.00
383.41	51.49
383.61	14.04
383.80	25.75
384.00	107.66
384.19	63.19
384.39	39.79
384.58	98.30
384.78	32.77
384.97	65.54
385.17	14.04
385.36	7.02
385.56	21.06
385.75	77.24
385.95	81.92
386.14	0.00
386.34	32.77
386.53	0.00
386.72	23.41
386.92	9.36
387.11	28.09
387.31	0.00
387.50	11.70
387.70	7.02
387.89	49.15
388.09	2.34
388.28	21.06
388.48	0.00
388.67	53.83
388.86	56.17
389.06	67.88
389.25	0.00
389.45	49.15
389.64	0.00
389.84	25.75
390.03	58.51
390.22	37.45
390.42	16.38
390.61	39.79
390.81	30.43
391.00	0.00
391.19	21.06
391.39	21.06
391.58	95.96
391.78	107.66
391.97	86.60
392.16	70.22
392.36	0.00
392.55	0.00
392.75	0.00
392.94	67.88
393.13	37.45
393.33	18.72
393.52	28.09
393.71	70.22
393.91	2.34
394.10	18.72
394.29	2.34
394.49	86.60
394.68	23.41
394.88	39.79
395.07	49.15
395.26	51.49
395.46	0.00
395.65	35.11
395.84	32.77
396.04	84.26
396.23	0.00
396.42	9.36
396.62	93.62
396.81	53.83
397.00	44.47
397.19	0.00
397.39	0.00
397.58	51.49
397.77	0.00
397.97	58.51
398.16	16.38
398.35	35.11
398.55	4.68
398.74	0.00
398.93	117.03
399.12	44.47
399.32	30.43
399.51	0.00
399.70	46.81
399.90	58.51
400.09	0.00
400.28	0.00
400.47	88.94
400.67	46.81
400.86	63.19
401.05	30.43
401.24	0.00
401.44	30.43
401.63	30.43
401.82	0.00
402.01	74.90
402.21	67.88
402.40	18.72
402.59	35.11
402.78	44.47
402.97	53.83
403.17	28.09
403.36	16.38
403.55	28.09
403.74	28.09
403.93	67.88
404.13	53.83
404.32	56.17
404.51	42.13
404.70	30.43
404.89	58.51
405.09	37.45
405.28	16.38
405.47	7.02
405.66	86.60
405.85	51.49
406.05	0.00
406.24	0.00
406.43	74.90
406.62	42.13
406.81	0.00
407.00	4.68
407.20	21.06
407.39	51.49
407.58	53.83
407.77	51.49
407.96	39.79
408.15	28.09
408.34	0.00
408.54	25.75
408.73	0.00
408.92	37.45
409.11	16.38
409.30	46.81
409.49	74.90
409.68	9.36
409.87	7.02
410.07	0.00
410.26	124.05
410.45	14.04
410.64	14.04
410.83	0.00
411.02	9.36
411.21	37.45
411.40	114.69
411.59	42.13
411.78	35.11
411.98	30.43
412.17	77.24
412.36	14.04
412.55	39.79
412.74	18.72
412.93	51.49
413.12	23.41
413.31	72.56
413.50	25.75
413.69	93.62
413.88	65.54
414.07	0.00
414.26	0.00
414.45	35.11
414.64	11.70
414.83	25.75
415.02	70.22
415.22	28.09
415.41	65.54
415.60	0.00
415.79	16.38
415.98	74.90
416.17	0.00
416.36	25.75
416.55	18.72
416.74	25.75
416.93	16.38
417.12	21.06
417.31	32.77
417.50	16.38
417.69	0.00
417.88	72.56
418.07	7.02
418.26	42.13
418.45	35.11
418.64	70.22
418.83	58.51
419.02	49.15
419.21	51.49
419.39	53.83
419.58	44.47
419.77	0.00
419.96	56.17
420.15	39.79
420.34	7.02
420.53	4.68
420.72	0.00
420.91	21.06
421.10	39.79
421.29	70.22
421.48	30.43
421.67	0.00
421.86	4.68
422.05	18.72
422.24	23.41
422.43	60.85
422.61	25.75
422.80	63.19
422.99	0.00
423.18	2.34
423.37	0.00
423.56	46.81
423.75	25.75
423.94	46.81
424.13	0.00
424.32	72.56
424.50	72.56
424.69	32.77
424.88	53.83
425.07	138.09
425.26	37.45
425.45	44.47
425.64	14.04
425.83	11.70
426.01	2.34
426.20	23.41
426.39	0.00
426.58	28.09
426.77	42.13
426.96	0.00
427.15	46.81
427.33	39.79
427.52	88.94
427.71	49.15
427.90	18.72
428.09	0.00
428.28	11.70
428.46	0.00
428.65	9.36
428.84	91.28
429.03	51.49
429.22	84.26
429.40	30.43
429.59	0.00
429.78	25.75
429.97	23.41
430.16	42.13
430.34	0.00
430.53	28.09
430.72	0.00
430.91	4.68
431.10	7.02
431.28	46.81
431.47	58.51
431.66	88.94
431.85	16.38
432.03	44.47
432.22	65.54
432.41	7.02
432.60	95.96
432.79	21.06
432.97	18.72
433.16	88.94
433.35	0.00
433.54	0.00
433.72	7.02
433.91	28.09
434.10	25.75
434.28	60.85
434.47	0.00
434.66	23.41
434.85	7.02
435.03	0.00
435.22	9.36
435.41	0.00
435.59	37.45
435.78	0.00
435.97	65.54
436.16	86.60
436.34	51.49
436.53	23.41
436.72	14.04
436.90	72.56
437.09	0.00
437.28	11.70
437.46	98.30
437.65	21.06
437.84	49.15
438.02	32.77
438.21	16.38
438.40	39.79
438.58	37.45
438.77	11.70
438.96	9.36
439.14	9.36
439.33	65.54
439.52	21.06
439.70	16.38
439.89	77.24
440.08	91.28
440.26	60.85
440.45	42.13
440.63	7.02
440.82	72.56
441.01	25.75
441.19	18.72
441.38	0.00
441.57	67.88
441.75	23.41
441.94	0.00
442.12	56.17
442.31	30.43
442.50	114.69
442.68	65.54
442.87	56.17
443.05	63.19
443.24	102.98
443.43	56.17
443.61	49.15
443.80	14.04
443.98	44.47
444.17	37.45
444.35	42.13
444.54	63.19
444.73	11.70
444.91	11.70
445.10	14.04
445.28	25.75
445.47	44.47
445.65	74.90
445.84	14.04
446.02	60.85
446.21	23.41
446.39	4.68
446.58	74.90
446.77	65.54
446.95	11.70
447.14	39.79
447.32	58.51
447.51	0.00
447.69	60.85
447.88	74.90
448.06	60.85
448.25	23.41
448.43	23.41
448.62	0.00
448.80	51.49
448.99	0.00
449.17	0.00
449.36	0.00
449.54	58.51
449.73	74.90
449.91	93.62
450.10	74.90
450.28	0.00
450.46	0.00
450.65	93.62
450.83	46.81
451.02	65.54
451.20	42.13
451.39	72.56
451.57	18.72
451.76	63.19
451.94	23.41
452.13	16.38
452.31	46.81
452.49	56.17
452.68	0.00
452.86	65.54
453.05	42.13
453.23	30.43
453.42	25.75
453.60	18.72
453.78	11.70
453.97	18.72
454.15	0.00
454.34	0.00
454.52	44.47
454.70	72.56
454.89	0.00
455.07	30.43
455.26	16.38
455.44	28.09
455.62	14.04
455.81	42.13
455.99	42.13
456.17	2.34
456.36	0.00
456.54	39.79
456.73	21.06
456.91	74.90
457.09	65.54
457.28	39.79
457.46	0.00
457.64	0.00
457.83	46.81
458.01	49.15
458.19	58.51
458.38	16.38
458.56	53.83
458.74	25.75
458.93	30.43
459.11	7.02
459.29	16.38
459.48	65.54
459.66	72.56
459.84	74.90
460.03	74.90
460.21	58.51
460.39	16.38
460.57	14.04
460.76	42.13
460.94	67.88
461.12	14.04
461.31	51.49
461.49	39.79
461.67	42.13
461.85	0.00
462.04	37.45
462.22	49.15
462.40	0.00
462.59	16.38
462.77	72.56
462.95	37.45
463.13	23.41
463.32	95.96
463.50	18.72
463.68	46.81
463.86	58.51
464.05	84.26
464.23	16.38
464.41	2.34
464.59	114.69
464.78	35.11
464.96	74.90
465.14	42.13
465.32	0.00
465.50	11.70
465.69	25.75
465.87	84.26
466.05	30.43
466.23	56.17
466.41	14.04
466.60	63.19
466.78	0.00
466.96	53.83
467.14	4.68
467.32	32.77
467.51	32.77
467.69	0.00
467.87	30.43
468.05	18.72
468.23	65.54
468.41	0.00
468.60	81.92
468.78	58.51
468.96	0.00
469.14	51.49
469.32	46.81
469.50	60.85
469.69	14.04
469.87	63.19
470.05	14.04
470.23	11.70
470.41	0.00
470.59	28.09
470.77	0.00
470.95	0.00
471.14	28.09
471.32	37.45
471.50	84.26
471.68	49.15
471.86	81.92
472.04	11.70
472.22	0.00
472.40	46.81
472.58	32.77
472.77	35.11
472.95	30.43
473.13	18.72
473.31	79.58
473.49	4.68
473.67	60.85
473.85	53.83
474.03	70.22
474.21	37.45
474.39	39.79
474.57	18.72
474.75	21.06
474.93	91.28
475.12	42.13
475.30	18.72
475.48	7.02
475.66	58.51
475.84	0.00
476.02	39.79
476.20	23.41
476.38	0.00
476.56	100.64
476.74	98.30
476.92	21.06
477.10	70.22
477.28	39.79
477.46	72.56
477.64	30.43
477.82	25.75
478.00	67.88
478.18	0.00
478.36	58.51
478.54	58.51
478.72	39.79
478.90	70.22
479.08	53.83
479.26	7.02
479.44	100.64
479.62	35.11
479.80	70.22
479.98	35.11
480.16	30.43
480.34	56.17
480.52	21.06
480.70	0.00
480.88	63.19
481.06	23.41
481.24	46.81
481.41	56.17
481.59	102.98
481.77	53.83
481.95	37.45
482.13	18.72
482.31	35.11
482.49	65.54
482.67	121.71
482.85	0.00
483.03	37.45
483.21	32.77
483.39	21.06
483.57	25.75
483.74	65.54
483.92	25.75
484.10	0.00
484.28	65.54
484.46	21.06
484.64	42.13
484.82	65.54
485.00	42.13
485.18	91.28
485.35	91.28
485.53	9.36
485.71	51.49
485.89	35.11
486.07	0.00
486.25	25.75
486.43	0.00
486.61	114.69
486.78	65.54
486.96	63.19
487.14	37.45
487.32	16.38
487.50	110.01
487.68	11.70
487.85	35.11
488.03	28.09
488.21	0.00
488.39	16.38
488.57	49.15
488.75	0.00
488.92	65.54
489.10	25.75
489.28	9.36
489.46	49.15
489.64	21.06
489.81	107.66
489.99	35.11
490.17	56.17
490.35	81.92
490.53	25.75
490.70	9.36
490.88	70.22
491.06	39.79
491.24	9.36
491.41	37.45
491.59	28.09
491.77	42.13
491.95	60.85
492.13	53.83
492.30	7.02
492.48	7.02
492.66	49.15
492.84	9.36
493.01	0.00
493.19	25.75
493.37	84.26
493.54	102.98
493.72	0.00
493.90	18.72
494.08	0.00
494.25	81.92
494.43	91.28
494.61	30.43
494.79	107.66
494.96	44.47
495.14	0.00
495.32	30.43
495.49	4.68
495.67	46.81
495.85	30.43
496.02	42.13
496.20	23.41
496.38	58.51
496.55	168.52
496.73	30.43
496.91	9.36
497.09	58.51
497.26	53.83
497.44	91.28
497.62	18.72
497.79	35.11
497.97	56.17
498.14	42.13
498.32	56.17
498.50	2.34
498.67	16.38
498.85	28.09
499.03	0.00
499.20	30.43
499.38	60.85
499.56	39.79
499.73	91.28
499.91	16.38
500.08	32.77
500.26	35.11
500.44	21.06
500.61	23.41
500.79	84.26
500.97	44.47
501.14	81.92
501.32	42.13
501.49	100.64
501.67	81.92
501.84	60.85
502.02	63.19
502.20	0.00
502.37	72.56
502.55	65.54
502.72	0.00
502.90	14.04
503.07	30.43
503.25	2.34
503.43	88.94
503.60	23.41
503.78	0.00
503.95	4.68
504.13	25.75
504.30	0.00
504.48	65.54
504.65	49.15
504.83	74.90
505.01	35.11
505.18	0.00
505.36	58.51
505.53	32.77
505.71	79.58
505.88	49.15
506.06	53.83
506.23	72.56
506.41	72.56
506.58	79.58
506.76	74.90
506.93	95.96
507.11	79.58
507.28	60.85
507.46	98.30
507.63	16.38
507.81	70.22
507.98	37.45
508.16	44.47
508.33	112.35
508.50	65.54
508.68	56.17
508.85	84.26
509.03	18.72
509.20	14.04
509.38	100.64
509.55	16.38
509.73	0.00
509.90	4.68
510.08	0.00
510.25	72.56
510.42	98.30
510.60	51.49
510.77	51.49
510.95	30.43
511.12	93.62
511.30	117.03
511.47	35.11
511.64	44.47
511.82	0.00
511.99	65.54
512.17	2.34
512.34	121.71
512.51	0.00
512.69	46.81
512.86	46.81
513.04	58.51
513.21	53.83
513.38	7.02
513.56	88.94
513.73	4.68
513.90	67.88
514.08	88.94
514.25	39.79
514.43	51.49
514.60	0.00
514.77	28.09
514.95	70.22
515.12	7.02
515.29	74.90
515.47	70.22
515.64	86.60
515.81	18.72
515.99	102.98
516.16	35.11
516.33	23.41
516.51	46.81
516.68	42.13
516.85	67.88
517.03	98.30
517.20	28.09
517.37	98.30
517.54	86.60
517.72	0.00
517.89	72.56
518.06	88.94
518.24	37.45
518.41	70.22
518.58	65.54
518.75	72.56
518.93	0.00
519.10	21.06
519.27	70.22
519.45	51.49
519.62	23.41
519.79	14.04
519.96	25.75
520.14	0.00
520.31	100.64
520.48	30.43
520.65	84.26
520.83	65.54
521.00	39.79
521.17	63.19
521.34	0.00
521.52	72.56
521.69	9.36
521.86	35.11
522.03	49.15
522.20	44.47
522.38	100.64
522.55	39.79
522.72	63.19
522.89	28.09
523.07	46.81
523.24	70.22
523.41	37.45
523.58	32.77
523.75	81.92
523.92	49.15
524.10	0.00
524.27	25.75
524.44	53.83
524.61	56.17
524.78	81.92
524.96	18.72
525.13	58.51
525.30	93.62
525.47	28.09
525.64	46.81
525.81	9.36
525.98	70.22
526.16	25.75
526.33	30.43
526.50	98.30
526.67	65.54
526.84	25.75
527.01	42.13
527.18	63.19
527.36	16.38
527.53	14.04
527.70	32.77
527.87	86.60
528.04	39.79
528.21	30.43
528.38	88.94
528.55	58.51
528.72	81.92
528.89	7.02
529.07	58.51
529.24	112.35
529.41	42.13
529.58	39.79
529.75	70.22
529.92	70.22
530.09	35.11
530.26	21.06
530.43	0.00
530.60	58.51
530.77	14.04
530.94	100.64
531.11	117.03
531.28	44.47
531.46	79.58
531.63	18.72
531.80	0.00
531.97	44.47
532.14	84.26
532.31	56.17
532.48	42.13
532.65	39.79
532.82	42.13
532.99	79.58
533.16	32.77
533.33	67.88
533.50	46.81
533.67	79.58
533.84	107.66
534.01	105.32
534.18	7.02
534.35	28.09
534.52	4.68
534.69	28.09
534.86	14.04
535.03	88.94
535.20	81.92
535.37	56.17
535.54	112.35
535.71	42.13
535.88	121.71
536.05	100.64
536.22	126.39
536.38	56.17
536.55	32.77
536.72	67.88
536.89	93.62
537.06	0.00
537.23	51.49
537.40	56.17
537.57	119.37
537.74	65.54
537.91	124.05
538.08	14.04
538.25	84.26
538.42	53.83
538.59	32.77
538.75	114.69
538.92	102.98
539.09	42.13
539.26	44.47
539.43	0.00
539.60	0.00
539.77	23.41
539.94	149.79
540.11	67.88
540.28	72.56
540.44	18.72
540.61	79.58
540.78	67.88
540.95	28.09
541.12	16.38
541.29	25.75
541.46	74.90
541.62	46.81
541.79	51.49
541.96	21.06
542.13	0.00
542.30	32.77
542.47	35.11
542.63	58.51
542.80	0.00
542.97	126.39
543.14	121.71
543.31	32.77
543.48	105.32
543.64	56.17
543.81	18.72
543.98	93.62
544.15	49.15
544.32	30.43
544.48	32.77
544.65	51.49
544.82	0.00
544.99	4.68
545.16	70.22
545.32	30.43
545.49	2.34
545.66	65.54
545.83	0.00
546.00	0.00
546.16	0.00
546.33	112.35
546.50	30.43
546.67	58.51
546.83	51.49
547.00	11.70
547.17	72.56
547.34	49.15
547.50	84.26
547.67	30.43
547.84	16.38
548.00	30.43
548.17	84.26
548.34	16.38
548.51	9.36
548.67	51.49
548.84	91.28
549.01	16.38
549.18	25.75
549.34	32.77
549.51	30.43
549.68	35.11
549.84	58.51
550.01	51.49
550.18	77.24
550.34	32.77
550.51	77.24
550.68	30.43
550.84	46.81
551.01	58.51
551.18	9.36
551.34	46.81
551.51	74.90
551.68	0.00
551.84	9.36
552.01	58.51
552.18	105.32
552.34	67.88
552.51	74.90
552.68	67.88
552.84	128.73
553.01	63.19
553.18	21.06
553.34	25.75
553.51	95.96
553.67	72.56
553.84	30.43
554.01	0.00
554.17	81.92
554.34	93.62
554.51	53.83
554.67	53.83
554.84	0.00
555.00	18.72
555.17	4.68
555.33	86.60
555.50	51.49
555.67	56.17
555.83	4.68
556.00	60.85
556.16	112.35
556.33	53.83
556.50	65.54
556.66	49.15
556.83	46.81
556.99	30.43
557.16	72.56
557.32	14.04
557.49	84.26
557.65	0.00
557.82	0.00
557.98	88.94
558.15	98.30
558.32	107.66
558.48	60.85
558.65	100.64
558.81	91.28
558.98	35.11
559.14	51.49
559.31	0.00
559.47	44.47
559.64	46.81
559.80	56.17
559.97	107.66
560.13	39.79
560.30	84.26
560.46	28.09
560.63	58.51
560.79	77.24
560.96	16.38
561.12	74.90
561.29	95.96
561.45	7.02
561.61	46.81
561.78	93.62
561.94	46.81
562.11	100.64
562.27	117.03
562.44	49.15
562.60	23.41
562.77	25.75
562.93	117.03
563.10	114.69
563.26	110.01
563.42	74.90
563.59	53.83
563.75	86.60
563.92	74.90
564.08	42.13
564.24	4.68
564.41	88.94
564.57	2.34
564.74	46.81
564.90	28.09
565.07	30.43
565.23	11.70
565.39	112.35
565.56	23.41
565.72	0.00
565.88	79.58
566.05	95.96
566.21	60.85
566.38	53.83
566.54	37.45
566.70	44.47
566.87	65.54
567.03	98.30
567.19	49.15
567.36	74.90
567.52	37.45
567.68	79.58
567.85	21.06
568.01	23.41
568.17	95.96
568.34	42.13
568.50	163.84
568.66	37.45
568.83	56.17
568.99	65.54
569.15	74.90
569.32	74.90
569.48	37.45
569.64	44.47
569.81	44.47
569.97	74.90
570.13	42.13
570.30	23.41
570.46	65.54
570.62	53.83
570.78	16.38
570.95	25.75
571.11	32.77
571.27	65.54
571.43	51.49
571.60	37.45
571.76	42.13
571.92	81.92
572.09	70.22
572.25	7.02
572.41	44.47
572.57	135.75
572.74	46.81
572.90	63.19
573.06	67.88
573.22	84.26
573.38	30.43
573.55	30.43
573.71	0.00
573.87	60.85
574.03	56.17
574.20	58.51
574.36	77.24
574.52	95.96
574.68	0.00
574.84	0.00
575.01	46.81
575.17	81.92
575.33	35.11
575.49	53.83
575.65	81.92
575.82	53.83
575.98	81.92
576.14	72.56
576.30	86.60
576.46	53.83
576.62	39.79
576.79	58.51
576.95	65.54
577.11	67.88
577.27	30.43
577.43	9.36
577.59	35.11
577.75	56.17
577.92	11.70
578.08	53.83
578.24	4.68
578.40	98.30
578.56	7.02
578.72	37.45
578.88	32.77
579.04	37.45
579.21	44.47
579.37	91.28
579.53	74.90
579.69	32.77
579.85	23.41
580.01	81.92
580.17	63.19
580.33	53.83
580.49	37.45
580.65	51.49
580.82	58.51
580.98	32.77
581.14	0.00
581.30	25.75
581.46	74.90
581.62	16.38
581.78	56.17
581.94	25.75
582.10	37.45
582.26	63.19
582.42	37.45
582.58	100.64
582.74	0.00
582.90	65.54
583.06	70.22
583.22	72.56
583.38	84.26
583.54	70.22
583.70	30.43
583.86	110.01
584.02	88.94
584.18	18.72
584.34	0.00
584.50	9.36
584.66	35.11
584.82	0.00
584.98	65.54
585.14	32.77
585.30	0.00
585.46	58.51
585.62	70.22
585.78	49.15
585.94	56.17
586.10	81.92
586.26	121.71
586.42	0.00
586.58	0.00
586.74	32.77
586.90	28.09
587.06	88.94
587.22	0.00
587.38	95.96
587.54	0.00
587.70	168.52
587.86	42.13
588.02	74.90
588.18	77.24
588.34	65.54
588.49	51.49
588.65	2.34
588.81	28.09
588.97	100.64
589.13	0.00
589.29	70.22
589.45	51.49
589.61	56.17
589.77	0.00
589.93	7.02
590.08	42.13
590.24	112.35
590.40	91.28
590.56	9.36
590.72	37.45
590.88	0.00
591.04	42.13
591.20	63.19
591.35	65.54
591.51	32.77
591.67	86.60
591.83	88.94
591.99	60.85
592.15	63.19
592.31	67.88
592.46	65.54
592.62	49.15
592.78	0.00
592.94	53.83
593.10	0.00
593.26	14.04
593.41	105.32
593.57	21.06
593.73	58.51
593.89	16.38
594.05	51.49
594.20	39.79
594.36	23.41
594.52	74.90
594.68	37.45
594.84	32.77
594.99	0.00
595.15	88.94
595.31	100.64
595.47	88.94
595.62	9.36
595.78	21.06
595.94	74.90
596.10	18.72
596.25	46.81
596.41	98.30
596.57	44.47
596.73	119.37
596.88	32.77
597.04	74.90
597.20	9.36
597.36	0.00
597.51	112.35
597.67	23.41
597.83	84.26
597.99	11.70
598.14	117.03
598.30	42.13
598.46	58.51
598.61	18.72
598.77	0.00
598.93	9.36
599.09	56.17
599.24	11.70
599.40	30.43
599.56	60.85
599.71	51.49
599.87	11.70
600.03	49.15
600.18	65.54
600.34	49.15
600.50	37.45
600.65	42.13
600.81	37.45
600.97	124.05
601.12	14.04
601.28	56.17
601.44	42.13
601.59	53.83
601.75	81.92
601.91	107.66
602.06	44.47
602.22	14.04
602.37	58.51
602.53	37.45
602.69	67.88
602.84	25.75
603.00	30.43
603.16	44.47
603.31	81.92
603.47	23.41
603.62	25.75
603.78	44.47
603.94	37.45
604.09	67.88
604.25	56.17
604.40	65.54
604.56	11.70
604.71	4.68
604.87	0.00
605.03	18.72
605.18	0.00
605.34	49.15
605.49	67.88
605.65	72.56
605.80	105.32
605.96	51.49
606.12	32.77
606.27	86.60
606.43	21.06
606.58	30.43
606.74	0.00
606.89	18.72
607.05	42.13
607.20	4.68
607.36	102.98
607.51	65.54
607.67	63.19
607.82	51.49
607.98	21.06
608.13	32.77
608.29	42.13
608.44	0.00
608.60	16.38
608.75	28.09
608.91	21.06
609.06	117.03
609.22	63.19
609.37	11.70
609.53	77.24
609.68	138.09
609.84	51.49
609.99	77.24
610.15	35.11
610.30	28.09
610.46	37.45
610.61	67.88
610.76	53.83
610.92	70.22
611.07	0.00
611.23	74.90
611.38	51.49
611.54	65.54
611.69	107.66
611.84	39.79
612.00	7.02
612.15	58.51
612.31	86.60
612.46	60.85
612.62	112.35
612.77	117.03
612.92	39.79
613.08	86.60
613.23	25.75
613.39	114.69
613.54	46.81
613.69	81.92
613.85	0.00
614.00	32.77
614.15	46.81
614.31	49.15
614.46	77.24
614.62	53.83
614.77	121.71
614.92	84.26
615.08	44.47
615.23	46.81
615.38	9.36
615.54	88.94
615.69	70.22
615.84	98.30
616.00	60.85
616.15	72.56
616.30	2.34
616.46	0.00
616.61	67.88
616.76	30.43
616.92	11.70
617.07	35.11
617.22	81.92
617.37	51.49
617.53	16.38
617.68	72.56
617.83	32.77
617.99	46.81
618.14	58.51
618.29	79.58
618.45	105.32
618.60	0.00
618.75	112.35
618.90	74.90
619.06	44.47
619.21	79.58
619.36	16.38
619.51	65.54
619.67	86.60
619.82	16.38
619.97	21.06
620.12	0.00
620.28	60.85
620.43	102.98
620.58	11.70
620.73	49.15
620.89	18.72
621.04	46.81
621.19	39.79
621.34	28.09
621.49	51.49
621.65	67.88
621.80	0.00
621.95	0.00
622.10	30.43
622.25	37.45
622.41	0.00
622.56	0.00
622.71	53.83
622.86	35.11
623.01	65.54
623.16	46.81
623.32	65.54
623.47	72.56
623.62	58.51
623.77	65.54
623.92	4.68
624.07	2.34
624.23	84.26
624.38	51.49
624.53	4.68
624.68	28.09
624.83	32.77
624.98	46.81
625.13	84.26
625.29	9.36
625.44	124.05
625.59	16.38
625.74	0.00
625.89	30.43
626.04	16.38
626.19	88.94
626.34	58.51
626.49	0.00
626.65	21.06
626.80	0.00
626.95	72.56
627.10	60.85
627.25	84.26
627.40	58.51
627.55	39.79
627.70	30.43
627.85	95.96
628.00	79.58
628.15	63.19
628.30	4.68
628.45	2.34
628.60	70.22
628.76	39.79
628.91	65.54
629.06	25.75
629.21	9.36
629.36	0.00
629.51	56.17
629.66	70.22
629.81	32.77
629.96	72.56
630.11	93.62
630.26	95.96
630.41	30.43
630.56	100.64
630.71	100.64
630.86	70.22
631.01	105.32
631.16	46.81
631.31	7.02
631.46	44.47
631.61	0.00
631.76	105.32
631.91	53.83
632.06	35.11
632.21	0.00
632.36	46.81
632.51	81.92
632.66	0.00
632.81	51.49
632.96	91.28
633.10	2.34
633.25	9.36
633.40	14.04
633.55	42.13
633.70	65.54
633.85	25.75
634.00	23.41
634.15	56.17
634.30	28.09
634.45	51.49
634.60	32.77
634.75	65.54
634.90	56.17
635.05	58.51
635.19	88.94
635.34	16.38
635.49	0.00
635.64	0.00
635.79	84.26
635.94	112.35
636.09	77.24
636.24	138.09
636.39	9.36
636.53	42.13
636.68	0.00
636.83	65.54
636.98	84.26
637.13	56.17
637.28	42.13
637.43	9.36
637.57	65.54
637.72	2.34
637.87	23.41
638.02	42.13
638.17	44.47
638.32	105.32
638.46	67.88
638.61	0.00
638.76	44.47
638.91	65.54
639.06	0.00
639.20	21.06
639.35	18.72
639.50	53.83
639.65	9.36
639.80	46.81
639.94	35.11
640.09	88.94
640.24	56.17
640.39	49.15
640.54	21.06
640.68	23.41
640.83	14.04
640.98	2.34
641.13	0.00
641.27	30.43
641.42	67.88
641.57	49.15
641.72	28.09
641.86	18.72
642.01	72.56
642.16	37.45
642.31	56.17
642.45	138.09
642.60	102.98
642.75	35.11
642.90	0.00
643.04	0.00
643.19	46.81
643.34	32.77
643.48	60.85
643.63	46.81
643.78	28.09
643.93	49.15
644.07	74.90
644.22	46.81
644.37	60.85
644.51	124.05
644.66	58.51
644.81	72.56
644.95	0.00
645.10	37.45
645.25	51.49
645.39	11.70
645.54	32.77
645.69	79.58
645.83	32.77
645.98	63.19
646.13	93.62
646.27	105.32
646.42	46.81
646.57	42.13
646.71	112.35
646.86	81.92
647.00	88.94
647.15	49.15
647.30	14.04
647.44	119.37
647.59	4.68
647.74	35.11
647.88	32.77
648.03	0.00
648.17	81.92
648.32	21.06
648.47	32.77
648.61	60.85
648.76	9.36
648.90	30.43
649.05	53.83
649.20	35.11
649.34	32.77
649.49	2.34
649.63	93.62
649.78	42.13
649.92	32.77
650.07	119.37
650.21	98.30
650.36	32.77
650.51	49.15
650.65	105.32
650.80	2.34
650.94	0.00
651.09	51.49
651.23	9.36
651.38	39.79
651.52	60.85
651.67	4.68
651.81	7.02
651.96	16.38
652.10	65.54
652.25	49.15
652.39	49.15
652.54	0.00
652.68	0.00
652.83	30.43
652.97	0.00
653.12	49.15
653.26	56.17
653.41	4.68
653.55	0.00
653.70	9.36
653.84	18.72
653.99	0.00
654.13	25.75
654.27	70.22
654.42	32.77
654.56	0.00
654.71	67.88
654.85	88.94
655.00	46.81
655.14	63.19
655.29	23.41
655.43	30.43
655.57	53.83
655.72	49.15
655.86	21.06
656.01	28.09
656.15	23.41
656.30	44.47
656.44	28.09
656.58	37.45
656.73	95.96
656.87	60.85
657.01	28.09
657.16	28.09
657.30	37.45
657.45	39.79
657.59	23.41
657.73	23.41
657.88	14.04
658.02	37.45
658.16	58.51
658.31	51.49
658.45	126.39
658.60	49.15
658.74	44.47
658.88	0.00
659.03	88.94
659.17	63.19
659.31	0.00
659.46	7.02
659.60	88.94
659.74	112.35
659.89	79.58
660.03	2.34
660.17	39.79
660.32	86.60
660.46	65.54
660.60	25.75
660.74	42.13
660.89	93.62
661.03	53.83
661.17	28.09
661.32	23.41
661.46	56.17
661.60	72.56
661.74	49.15
661.89	0.00
662.03	74.90
662.17	35.11
662.31	32.77
662.46	4.68
662.60	53.83
662.74	67.88
662.88	74.90
663.03	25.75
663.17	0.00
663.31	44.47
663.45	98.30
663.60	65.54
663.74	39.79
663.88	100.64
664.02	74.90
664.17	0.00
664.31	42.13
664.45	53.83
664.59	51.49
664.73	0.00
664.88	7.02
665.02	0.00
665.16	18.72
665.30	114.69
665.44	44.47
665.59	2.34
665.73	4.68
665.87	0.00
666.01	25.75
666.15	21.06
666.29	2.34
666.44	44.47
666.58	77.24
666.72	0.00
666.86	86.60
667.00	0.00
667.14	53.83
667.28	58.51
667.43	65.54
667.57	110.01
667.71	25.75
667.85	28.09
667.99	100.64
668.13	44.47
668.27	11.70
668.41	86.60
668.56	60.85
668.70	37.45
668.84	35.11
668.98	30.43
669.12	28.09
669.26	46.81
669.40	0.00
669.54	65.54
669.68	0.00
669.82	51.49
669.96	56.17
670.10	32.77
670.25	58.51
670.39	23.41
670.53	74.90
670.67	70.22
670.81	107.66
670.95	4.68
671.09	67.88
671.23	25.75
671.37	46.81
671.51	35.11
671.65	56.17
671.79	53.83
671.93	42.13
672.07	105.32
672.21	46.81
672.35	37.45
672.49	44.47
672.63	0.00
672.77	4.68
672.91	23.41
673.05	35.11
673.19	46.81
673.33	58.51
673.47	0.00
673.61	58.51
673.75	28.09
673.89	51.49
674.03	53.83
674.17	4.68
674.31	7.02
674.45	0.00
674.59	70.22
674.73	9.36
674.87	49.15
675.01	35.11
675.15	32.77
675.29	28.09
675.43	0.00
675.56	58.51
675.70	84.26
675.84	81.92
675.98	0.00
676.12	39.79
676.26	77.24
676.40	35.11
676.54	4.68
676.68	51.49
676.82	88.94
676.96	72.56
677.10	9.36
677.23	65.54
677.37	32.77
677.51	11.70
677.65	30.43
677.79	44.47
677.93	79.58
678.07	49.15
678.21	51.49
678.34	88.94
678.48	56.17
678.62	81.92
678.76	49.15
678.90	0.00
679.04	56.17
679.18	0.00
679.31	0.00
679.45	102.98
679.59	37.45
679.73	53.83
679.87	37.45
680.00	0.00
680.14	100.64
680.28	58.51
680.42	0.00
680.56	56.17
680.70	28.09
680.83	14.04
680.97	0.00
681.11	16.38
681.25	32.77
681.39	11.70
681.52	4.68
681.66	37.45
681.80	114.69
681.94	28.09
682.07	0.00
682.21	0.00
682.35	30.43
682.49	53.83
682.62	65.54
682.76	16.38
682.90	84.26
683.04	30.43
683.17	56.17
683.31	35.11
683.45	79.58
683.59	91.28
683.72	32.77
683.86	51.49
684.00	53.83
684.13	51.49
684.27	98.30
684.41	58.51
684.55	0.00
684.68	44.47
684.82	74.90
684.96	0.00
685.09	37.45
685.23	0.00
685.37	70.22
685.50	93.62
685.64	30.43
685.78	77.24
685.91	28.09
686.05	107.66
686.19	25.75
686.32	98.30
686.46	0.00
686.60	21.06
686.73	79.58
686.87	0.00
687.01	2.34
687.14	0.00
687.28	0.00
687.42	51.49
687.55	77.24
687.69	77.24
687.82	0.00
687.96	39.79
688.10	0.00
688.23	7.02
688.37	95.96
688.50	28.09
688.64	32.77
688.78	86.60
688.91	102.98
689.05	30.43
689.18	58.51
689.32	65.54
689.46	28.09
689.59	9.36
689.73	25.75
689.86	53.83
690.00	60.85
690.13	18.72
690.27	60.85
690.41	91.28
690.54	74.90
690.68	35.11
690.81	44.47
690.95	25.75
691.08	0.00
691.22	93.62
691.35	72.56
691.49	44.47
691.62	0.00
691.76	0.00
691.89	0.00
692.03	0.00
692.16	56.17
692.30	0.00
692.43	0.00
692.57	2.34
692.70	72.56
692.84	0.00
692.97	16.38
693.11	44.47
693.24	32.77
693.38	0.00
693.51	37.45
693.65	37.45
693.78	7.02
693.92	70.22
694.05	0.00
694.19	44.47
694.32	11.70
694.45	32.77
694.59	46.81
694.72	56.17
694.86	25.75
694.99	28.09
695.13	72.56
695.26	28.09
695.39	114.69
695.53	0.00
695.66	2.34
695.80	30.43
695.93	60.85
696.07	81.92
696.20	0.00
696.33	67.88
696.47	72.56
696.60	65.54
696.73	142.77
696.87	51.49
697.00	70.22
697.14	0.00
697.27	39.79
697.40	30.43
697.54	0.00
697.67	0.00
697.80	58.51
697.94	56.17
698.07	23.41
698.21	42.13
698.34	9.36
698.47	11.70
698.61	30.43
698.74	77.24
698.87	65.54
699.01	18.72
699.14	0.00
699.27	2.34
699.40	72.56
699.54	42.13
699.67	32.77
699.80	67.88
699.94	16.38
700.07	42.13
700.20	81.92
700.34	0.00
700.47	30.43
700.60	0.00
700.73	60.85
700.87	98.30
701.00	46.81
701.13	0.00
701.26	46.81
701.40	37.45
701.53	63.19
701.66	0.00
701.79	16.38
701.93	28.09
702.06	0.00
702.19	35.11
702.32	25.75
702.46	67.88
702.59	46.81
702.72	44.47
702.85	0.00
702.99	30.43
703.12	88.94
703.25	0.00
703.38	44.47
703.51	14.04
703.65	107.66
703.78	0.00
703.91	72.56
704.04	49.15
704.17	11.70
704.31	81.92
704.44	0.00
704.57	0.00
704.70	46.81
704.83	23.41
704.96	53.83
705.10	102.98
705.23	42.13
>>>>>End Processed Spectral Data<<<<<
