SpectraSuite Data File
++++++++++++++++++++++++++++++++++++
Date: Fri Oct 04 12:13:42 GMT-05:00 2013
User: price-jones
Dark Spectrum Present: No
Reference Spectrum Present: No
Number of Sampled Component Spectra: 1
Spectrometers: USB2+H05261
Integration Time (usec): 10000 (USB2+H05261)
Spectra Averaged: 1 (USB2+H05261)
Boxcar Smoothing: 0 (USB2+H05261)
Correct for Electrical Dark: No (USB2+H05261)
Strobe/Lamp Enabled: No (USB2+H05261)
Correct for Detector Non-linearity: No (USB2+H05261)
Correct for Stray Light: No (USB2+H05261)
Number of Pixels in Processed Spectrum: 2048
>>>>>Begin Processed Spectral Data<<<<<
365.73	0.00
365.92	0.00
366.12	0.00
366.32	0.00
366.52	0.00
366.72	0.00
366.91	0.00
367.11	0.00
367.31	0.00
367.51	0.00
367.70	0.00
367.90	0.00
368.10	0.00
368.30	0.00
368.49	0.00
368.69	0.00
368.89	0.00
369.09	0.00
369.28	0.00
369.48	0.00
369.68	0.00
369.87	0.00
370.07	0.00
370.27	0.00
370.47	0.00
370.66	0.00
370.86	0.00
371.06	0.00
371.25	18.72
371.45	0.00
371.65	0.00
371.84	28.09
372.04	0.00
372.24	9.36
372.44	0.00
372.63	9.36
372.83	32.77
373.03	58.51
373.22	0.00
373.42	11.70
373.62	11.70
373.81	84.26
374.01	0.00
374.21	46.81
374.40	0.00
374.60	23.41
374.79	107.66
374.99	65.54
375.19	49.15
375.38	0.00
375.58	0.00
375.78	42.13
375.97	32.77
376.17	102.98
376.37	28.09
376.56	0.00
376.76	84.26
376.95	56.17
377.15	30.43
377.35	65.54
377.54	63.19
377.74	23.41
377.93	37.45
378.13	60.85
378.33	39.79
378.52	21.06
378.72	0.00
378.91	46.81
379.11	0.00
379.31	39.79
379.50	25.75
379.70	0.00
379.89	16.38
380.09	74.90
380.28	23.41
380.48	0.00
380.68	0.00
380.87	0.00
381.07	53.83
381.26	0.00
381.46	9.36
381.65	100.64
381.85	0.00
382.04	0.00
382.24	0.00
382.43	25.75
382.63	58.51
382.83	28.09
383.02	16.38
383.22	58.51
383.41	0.00
383.61	84.26
383.80	25.75
384.00	14.04
384.19	4.68
384.39	0.00
384.58	0.00
384.78	25.75
384.97	0.00
385.17	32.77
385.36	42.13
385.56	51.49
385.75	0.00
385.95	0.00
386.14	0.00
386.34	0.00
386.53	95.96
386.72	2.34
386.92	32.77
387.11	35.11
387.31	21.06
387.50	16.38
387.70	30.43
387.89	21.06
388.09	23.41
388.28	0.00
388.48	28.09
388.67	9.36
388.86	32.77
389.06	18.72
389.25	79.58
389.45	11.70
389.64	0.00
389.84	44.47
390.03	35.11
390.22	11.70
390.42	84.26
390.61	0.00
390.81	0.00
391.00	37.45
391.19	65.54
391.39	0.00
391.58	98.30
391.78	32.77
391.97	0.00
392.16	23.41
392.36	88.94
392.55	70.22
392.75	7.02
392.94	84.26
393.13	0.00
393.33	51.49
393.52	25.75
393.71	35.11
393.91	0.00
394.10	42.13
394.29	37.45
394.49	49.15
394.68	0.00
394.88	0.00
395.07	14.04
395.26	58.51
395.46	0.00
395.65	9.36
395.84	0.00
396.04	0.00
396.23	32.77
396.42	0.00
396.62	0.00
396.81	30.43
397.00	42.13
397.19	74.90
397.39	4.68
397.58	0.00
397.77	32.77
397.97	39.79
398.16	42.13
398.35	23.41
398.55	0.00
398.74	0.00
398.93	42.13
399.12	51.49
399.32	58.51
399.51	49.15
399.70	58.51
399.90	77.24
400.09	42.13
400.28	81.92
400.47	25.75
400.67	67.88
400.86	79.58
401.05	11.70
401.24	18.72
401.44	56.17
401.63	21.06
401.82	46.81
402.01	14.04
402.21	65.54
402.40	70.22
402.59	93.62
402.78	93.62
402.97	0.00
403.17	0.00
403.36	4.68
403.55	72.56
403.74	86.60
403.93	28.09
404.13	7.02
404.32	51.49
404.51	51.49
404.70	0.00
404.89	0.00
405.09	35.11
405.28	0.00
405.47	0.00
405.66	0.00
405.85	21.06
406.05	0.00
406.24	16.38
406.43	77.24
406.62	23.41
406.81	28.09
407.00	4.68
407.20	39.79
407.39	65.54
407.58	56.17
407.77	56.17
407.96	2.34
408.15	4.68
408.34	18.72
408.54	60.85
408.73	67.88
408.92	110.01
409.11	2.34
409.30	0.00
409.49	2.34
409.68	14.04
409.87	0.00
410.07	18.72
410.26	14.04
410.45	56.17
410.64	39.79
410.83	0.00
411.02	2.34
411.21	9.36
411.40	49.15
411.59	58.51
411.78	0.00
411.98	65.54
412.17	49.15
412.36	21.06
412.55	37.45
412.74	30.43
412.93	56.17
413.12	51.49
413.31	67.88
413.50	25.75
413.69	37.45
413.88	79.58
414.07	7.02
414.26	18.72
414.45	9.36
414.64	67.88
414.83	4.68
415.02	121.71
415.22	14.04
415.41	0.00
415.60	0.00
415.79	91.28
415.98	30.43
416.17	46.81
416.36	63.19
416.55	53.83
416.74	72.56
416.93	16.38
417.12	14.04
417.31	0.00
417.50	51.49
417.69	91.28
417.88	0.00
418.07	21.06
418.26	58.51
418.45	44.47
418.64	93.62
418.83	28.09
419.02	0.00
419.21	14.04
419.39	84.26
419.58	86.60
419.77	51.49
419.96	35.11
420.15	110.01
420.34	65.54
420.53	0.00
420.72	58.51
420.91	81.92
421.10	65.54
421.29	0.00
421.48	72.56
421.67	67.88
421.86	46.81
422.05	77.24
422.24	0.00
422.43	39.79
422.61	51.49
422.80	51.49
422.99	23.41
423.18	14.04
423.37	23.41
423.56	35.11
423.75	37.45
423.94	42.13
424.13	58.51
424.32	0.00
424.50	81.92
424.69	0.00
424.88	18.72
425.07	77.24
425.26	0.00
425.45	53.83
425.64	42.13
425.83	70.22
426.01	0.00
426.20	100.64
426.39	74.90
426.58	0.00
426.77	32.77
426.96	0.00
427.15	23.41
427.33	53.83
427.52	14.04
427.71	58.51
427.90	39.79
428.09	16.38
428.28	74.90
428.46	14.04
428.65	0.00
428.84	35.11
429.03	67.88
429.22	63.19
429.40	21.06
429.59	51.49
429.78	25.75
429.97	37.45
430.16	95.96
430.34	25.75
430.53	95.96
430.72	28.09
430.91	37.45
431.10	0.00
431.28	0.00
431.47	77.24
431.66	49.15
431.85	4.68
432.03	14.04
432.22	42.13
432.41	86.60
432.60	53.83
432.79	42.13
432.97	0.00
433.16	16.38
433.35	95.96
433.54	30.43
433.72	74.90
433.91	91.28
434.10	37.45
434.28	28.09
434.47	28.09
434.66	9.36
434.85	74.90
435.03	7.02
435.22	9.36
435.41	32.77
435.59	23.41
435.78	9.36
435.97	37.45
436.16	30.43
436.34	42.13
436.53	74.90
436.72	77.24
436.90	0.00
437.09	65.54
437.28	42.13
437.46	35.11
437.65	0.00
437.84	23.41
438.02	4.68
438.21	95.96
438.40	7.02
438.58	63.19
438.77	30.43
438.96	70.22
439.14	88.94
439.33	65.54
439.52	0.00
439.70	4.68
439.89	0.00
440.08	56.17
440.26	102.98
440.45	93.62
440.63	42.13
440.82	72.56
441.01	86.60
441.19	21.06
441.38	32.77
441.57	65.54
441.75	91.28
441.94	0.00
442.12	46.81
442.31	56.17
442.50	44.47
442.68	138.09
442.87	93.62
443.05	67.88
443.24	46.81
443.43	23.41
443.61	49.15
443.80	2.34
443.98	65.54
444.17	9.36
444.35	42.13
444.54	98.30
444.73	23.41
444.91	14.04
445.10	79.58
445.28	21.06
445.47	0.00
445.65	42.13
445.84	74.90
446.02	53.83
446.21	84.26
446.39	77.24
446.58	18.72
446.77	32.77
446.95	37.45
447.14	44.47
447.32	49.15
447.51	39.79
447.69	32.77
447.88	0.00
448.06	44.47
448.25	79.58
448.43	28.09
448.62	100.64
448.80	39.79
448.99	58.51
449.17	117.03
449.36	46.81
449.54	70.22
449.73	42.13
449.91	46.81
450.10	65.54
450.28	42.13
450.46	18.72
450.65	49.15
450.83	72.56
451.02	25.75
451.20	16.38
451.39	32.77
451.57	74.90
451.76	18.72
451.94	110.01
452.13	0.00
452.31	42.13
452.49	49.15
452.68	0.00
452.86	0.00
453.05	44.47
453.23	102.98
453.42	35.11
453.60	91.28
453.78	81.92
453.97	81.92
454.15	4.68
454.34	42.13
454.52	30.43
454.70	0.00
454.89	46.81
455.07	46.81
455.26	18.72
455.44	112.35
455.62	49.15
455.81	14.04
455.99	51.49
456.17	0.00
456.36	100.64
456.54	9.36
456.73	81.92
456.91	42.13
457.09	37.45
457.28	102.98
457.46	74.90
457.64	0.00
457.83	44.47
458.01	16.38
458.19	32.77
458.38	88.94
458.56	14.04
458.74	25.75
458.93	98.30
459.11	93.62
459.29	107.66
459.48	81.92
459.66	131.07
459.84	21.06
460.03	98.30
460.21	30.43
460.39	46.81
460.57	112.35
460.76	107.66
460.94	4.68
461.12	58.51
461.31	37.45
461.49	51.49
461.67	60.85
461.85	42.13
462.04	91.28
462.22	102.98
462.40	77.24
462.59	112.35
462.77	77.24
462.95	28.09
463.13	74.90
463.32	100.64
463.50	102.98
463.68	58.51
463.86	107.66
464.05	37.45
464.23	95.96
464.41	23.41
464.59	149.79
464.78	0.00
464.96	46.81
465.14	2.34
465.32	39.79
465.50	131.07
465.69	135.75
465.87	65.54
466.05	67.88
466.23	2.34
466.41	51.49
466.60	46.81
466.78	0.00
466.96	30.43
467.14	37.45
467.32	2.34
467.51	81.92
467.69	0.00
467.87	119.37
468.05	102.98
468.23	133.41
468.41	30.43
468.60	65.54
468.78	86.60
468.96	37.45
469.14	42.13
469.32	95.96
469.50	51.49
469.69	72.56
469.87	39.79
470.05	0.00
470.23	51.49
470.41	77.24
470.59	100.64
470.77	65.54
470.95	49.15
471.14	72.56
471.32	42.13
471.50	81.92
471.68	79.58
471.86	128.73
472.04	114.69
472.22	7.02
472.40	28.09
472.58	35.11
472.77	84.26
472.95	98.30
473.13	44.47
473.31	44.47
473.49	35.11
473.67	0.00
473.85	23.41
474.03	117.03
474.21	95.96
474.39	86.60
474.57	51.49
474.75	77.24
474.93	58.51
475.12	25.75
475.30	79.58
475.48	74.90
475.66	63.19
475.84	114.69
476.02	16.38
476.20	131.07
476.38	65.54
476.56	0.00
476.74	46.81
476.92	58.51
477.10	28.09
477.28	72.56
477.46	86.60
477.64	51.49
477.82	72.56
478.00	39.79
478.18	37.45
478.36	4.68
478.54	28.09
478.72	128.73
478.90	28.09
479.08	30.43
479.26	39.79
479.44	84.26
479.62	93.62
479.80	65.54
479.98	18.72
480.16	37.45
480.34	56.17
480.52	114.69
480.70	56.17
480.88	0.00
481.06	119.37
481.24	18.72
481.41	0.00
481.59	63.19
481.77	42.13
481.95	16.38
482.13	77.24
482.31	35.11
482.49	51.49
482.67	72.56
482.85	126.39
483.03	23.41
483.21	74.90
483.39	124.05
483.57	86.60
483.74	72.56
483.92	2.34
484.10	86.60
484.28	131.07
484.46	84.26
484.64	74.90
484.82	42.13
485.00	39.79
485.18	58.51
485.35	46.81
485.53	39.79
485.71	63.19
485.89	14.04
486.07	63.19
486.25	91.28
486.43	51.49
486.61	67.88
486.78	110.01
486.96	0.00
487.14	84.26
487.32	14.04
487.50	42.13
487.68	79.58
487.85	60.85
488.03	105.32
488.21	77.24
488.39	114.69
488.57	67.88
488.75	81.92
488.92	98.30
489.10	84.26
489.28	18.72
489.46	58.51
489.64	79.58
489.81	46.81
489.99	56.17
490.17	9.36
490.35	42.13
490.53	72.56
490.70	56.17
490.88	18.72
491.06	102.98
491.24	63.19
491.41	117.03
491.59	32.77
491.77	91.28
491.95	0.00
492.13	2.34
492.30	131.07
492.48	114.69
492.66	147.45
492.84	88.94
493.01	131.07
493.19	58.51
493.37	0.00
493.54	42.13
493.72	0.00
493.90	117.03
494.08	117.03
494.25	25.75
494.43	53.83
494.61	67.88
494.79	126.39
494.96	112.35
495.14	58.51
495.32	72.56
495.49	79.58
495.67	98.30
495.85	88.94
496.02	32.77
496.20	128.73
496.38	67.88
496.55	124.05
496.73	100.64
496.91	21.06
497.09	84.26
497.26	46.81
497.44	98.30
497.62	42.13
497.79	11.70
497.97	93.62
498.14	0.00
498.32	100.64
498.50	32.77
498.67	49.15
498.85	88.94
499.03	93.62
499.20	0.00
499.38	112.35
499.56	58.51
499.73	128.73
499.91	46.81
500.08	86.60
500.26	4.68
500.44	60.85
500.61	98.30
500.79	91.28
500.97	91.28
501.14	56.17
501.32	35.11
501.49	72.56
501.67	100.64
501.84	110.01
502.02	79.58
502.20	107.66
502.37	65.54
502.55	56.17
502.72	39.79
502.90	91.28
503.07	14.04
503.25	51.49
503.43	77.24
503.60	126.39
503.78	86.60
503.95	32.77
504.13	79.58
504.30	51.49
504.48	107.66
504.65	63.19
504.83	25.75
505.01	74.90
505.18	133.41
505.36	102.98
505.53	105.32
505.71	84.26
505.88	98.30
506.06	100.64
506.23	70.22
506.41	126.39
506.58	91.28
506.76	42.13
506.93	91.28
507.11	30.43
507.28	46.81
507.46	91.28
507.63	35.11
507.81	49.15
507.98	95.96
508.16	91.28
508.33	112.35
508.50	88.94
508.68	145.11
508.85	100.64
509.03	70.22
509.20	67.88
509.38	39.79
509.55	86.60
509.73	44.47
509.90	28.09
510.08	70.22
510.25	77.24
510.42	126.39
510.60	53.83
510.77	70.22
510.95	72.56
511.12	74.90
511.30	114.69
511.47	39.79
511.64	37.45
511.82	98.30
511.99	84.26
512.17	154.48
512.34	95.96
512.51	79.58
512.69	114.69
512.86	102.98
513.04	9.36
513.21	39.79
513.38	46.81
513.56	23.41
513.73	63.19
513.90	81.92
514.08	107.66
514.25	128.73
514.43	119.37
514.60	72.56
514.77	84.26
514.95	60.85
515.12	72.56
515.29	70.22
515.47	74.90
515.64	114.69
515.81	110.01
515.99	32.77
516.16	21.06
516.33	81.92
516.51	7.02
516.68	117.03
516.85	142.77
517.03	84.26
517.20	0.00
517.37	56.17
517.54	131.07
517.72	114.69
517.89	2.34
518.06	95.96
518.24	175.54
518.41	74.90
518.58	100.64
518.75	39.79
518.93	107.66
519.10	100.64
519.27	25.75
519.45	124.05
519.62	110.01
519.79	107.66
519.96	58.51
520.14	65.54
520.31	51.49
520.48	102.98
520.65	124.05
520.83	156.82
521.00	63.19
521.17	114.69
521.34	72.56
521.52	152.13
521.69	91.28
521.86	88.94
522.03	138.09
522.20	60.85
522.38	81.92
522.55	95.96
522.72	35.11
522.89	11.70
523.07	81.92
523.24	95.96
523.41	95.96
523.58	119.37
523.75	86.60
523.92	60.85
524.10	39.79
524.27	14.04
524.44	135.75
524.61	105.32
524.78	46.81
524.96	102.98
525.13	79.58
525.30	37.45
525.47	81.92
525.64	56.17
525.81	149.79
525.98	88.94
526.16	72.56
526.33	91.28
526.50	60.85
526.67	114.69
526.84	86.60
527.01	67.88
527.18	42.13
527.36	100.64
527.53	81.92
527.70	74.90
527.87	124.05
528.04	124.05
528.21	121.71
528.38	133.41
528.55	49.15
528.72	102.98
528.89	147.45
529.07	133.41
529.24	117.03
529.41	86.60
529.58	102.98
529.75	63.19
529.92	159.16
530.09	39.79
530.26	58.51
530.43	140.43
530.60	110.01
530.77	105.32
530.94	25.75
531.11	58.51
531.28	79.58
531.46	112.35
531.63	84.26
531.80	102.98
531.97	81.92
532.14	95.96
532.31	65.54
532.48	131.07
532.65	51.49
532.82	100.64
532.99	93.62
533.16	77.24
533.33	93.62
533.50	98.30
533.67	67.88
533.84	72.56
534.01	95.96
534.18	86.60
534.35	100.64
534.52	49.15
534.69	112.35
534.86	98.30
535.03	49.15
535.20	100.64
535.37	81.92
535.54	58.51
535.71	121.71
535.88	95.96
536.05	63.19
536.22	152.13
536.38	107.66
536.55	112.35
536.72	107.66
536.89	114.69
537.06	39.79
537.23	60.85
537.40	58.51
537.57	79.58
537.74	72.56
537.91	124.05
538.08	107.66
538.25	91.28
538.42	147.45
538.59	72.56
538.75	95.96
538.92	93.62
539.09	102.98
539.26	102.98
539.43	81.92
539.60	70.22
539.77	67.88
539.94	95.96
540.11	74.90
540.28	60.85
540.44	119.37
540.61	126.39
540.78	65.54
540.95	65.54
541.12	142.77
541.29	53.83
541.46	117.03
541.62	72.56
541.79	74.90
541.96	126.39
542.13	112.35
542.30	56.17
542.47	44.47
542.63	18.72
542.80	42.13
542.97	138.09
543.14	110.01
543.31	98.30
543.48	58.51
543.64	32.77
543.81	86.60
543.98	60.85
544.15	49.15
544.32	81.92
544.48	98.30
544.65	86.60
544.82	133.41
544.99	42.13
545.16	88.94
545.32	98.30
545.49	79.58
545.66	67.88
545.83	35.11
546.00	46.81
546.16	39.79
546.33	88.94
546.50	77.24
546.67	28.09
546.83	145.11
547.00	102.98
547.17	105.32
547.34	105.32
547.50	63.19
547.67	81.92
547.84	74.90
548.00	105.32
548.17	70.22
548.34	140.43
548.51	70.22
548.67	98.30
548.84	18.72
549.01	79.58
549.18	84.26
549.34	25.75
549.51	86.60
549.68	35.11
549.84	0.00
550.01	0.00
550.18	140.43
550.34	152.13
550.51	72.56
550.68	100.64
550.84	46.81
551.01	107.66
551.18	147.45
551.34	133.41
551.51	74.90
551.68	84.26
551.84	124.05
552.01	138.09
552.18	49.15
552.34	58.51
552.51	28.09
552.68	72.56
552.84	81.92
553.01	142.77
553.18	49.15
553.34	105.32
553.51	142.77
553.67	91.28
553.84	51.49
554.01	107.66
554.17	44.47
554.34	16.38
554.51	145.11
554.67	184.90
554.84	170.86
555.00	37.45
555.17	114.69
555.33	138.09
555.50	53.83
555.67	53.83
555.83	105.32
556.00	39.79
556.16	142.77
556.33	110.01
556.50	107.66
556.66	112.35
556.83	84.26
556.99	21.06
557.16	152.13
557.32	79.58
557.49	95.96
557.65	100.64
557.82	93.62
557.98	70.22
558.15	100.64
558.32	128.73
558.48	65.54
558.65	98.30
558.81	98.30
558.98	46.81
559.14	37.45
559.31	107.66
559.47	110.01
559.64	81.92
559.80	74.90
559.97	119.37
560.13	77.24
560.30	67.88
560.46	74.90
560.63	58.51
560.79	49.15
560.96	110.01
561.12	25.75
561.29	114.69
561.45	86.60
561.61	35.11
561.78	72.56
561.94	77.24
562.11	149.79
562.27	147.45
562.44	32.77
562.60	98.30
562.77	98.30
562.93	81.92
563.10	81.92
563.26	88.94
563.42	114.69
563.59	65.54
563.75	93.62
563.92	51.49
564.08	110.01
564.24	16.38
564.41	23.41
564.57	128.73
564.74	147.45
564.90	81.92
565.07	0.00
565.23	145.11
565.39	77.24
565.56	35.11
565.72	72.56
565.88	46.81
566.05	133.41
566.21	39.79
566.38	112.35
566.54	35.11
566.70	53.83
566.87	135.75
567.03	65.54
567.19	86.60
567.36	30.43
567.52	93.62
567.68	98.30
567.85	18.72
568.01	121.71
568.17	117.03
568.34	100.64
568.50	58.51
568.66	42.13
568.83	63.19
568.99	81.92
569.15	135.75
569.32	131.07
569.48	88.94
569.64	107.66
569.81	28.09
569.97	23.41
570.13	56.17
570.30	114.69
570.46	56.17
570.62	98.30
570.78	110.01
570.95	133.41
571.11	84.26
571.27	65.54
571.43	98.30
571.60	72.56
571.76	28.09
571.92	18.72
572.09	117.03
572.25	110.01
572.41	28.09
572.57	0.00
572.74	51.49
572.90	163.84
573.06	121.71
573.22	168.52
573.38	170.86
573.55	9.36
573.71	77.24
573.87	51.49
574.03	74.90
574.20	53.83
574.36	112.35
574.52	98.30
574.68	112.35
574.84	39.79
575.01	65.54
575.17	42.13
575.33	70.22
575.49	107.66
575.65	95.96
575.82	67.88
575.98	16.38
576.14	95.96
576.30	0.00
576.46	100.64
576.62	86.60
576.79	100.64
576.95	28.09
577.11	98.30
577.27	63.19
577.43	128.73
577.59	58.51
577.75	100.64
577.92	121.71
578.08	51.49
578.24	121.71
578.40	102.98
578.56	112.35
578.72	74.90
578.88	88.94
579.04	74.90
579.21	121.71
579.37	121.71
579.53	14.04
579.69	100.64
579.85	39.79
580.01	133.41
580.17	156.82
580.33	112.35
580.49	86.60
580.65	72.56
580.82	70.22
580.98	28.09
581.14	51.49
581.30	138.09
581.46	100.64
581.62	35.11
581.78	44.47
581.94	58.51
582.10	88.94
582.26	117.03
582.42	100.64
582.58	112.35
582.74	72.56
582.90	86.60
583.06	30.43
583.22	30.43
583.38	51.49
583.54	65.54
583.70	39.79
583.86	98.30
584.02	49.15
584.18	91.28
584.34	23.41
584.50	81.92
584.66	100.64
584.82	131.07
584.98	84.26
585.14	37.45
585.30	37.45
585.46	46.81
585.62	63.19
585.78	100.64
585.94	81.92
586.10	93.62
586.26	67.88
586.42	110.01
586.58	77.24
586.74	0.00
586.90	72.56
587.06	91.28
587.22	46.81
587.38	25.75
587.54	39.79
587.70	100.64
587.86	93.62
588.02	112.35
588.18	95.96
588.34	37.45
588.49	91.28
588.65	60.85
588.81	81.92
588.97	21.06
589.13	72.56
589.29	30.43
589.45	60.85
589.61	100.64
589.77	126.39
589.93	39.79
590.08	79.58
590.24	72.56
590.40	46.81
590.56	25.75
590.72	58.51
590.88	98.30
591.04	79.58
591.20	121.71
591.35	74.90
591.51	67.88
591.67	67.88
591.83	37.45
591.99	67.88
592.15	35.11
592.31	56.17
592.46	53.83
592.62	4.68
592.78	32.77
592.94	119.37
593.10	60.85
593.26	60.85
593.41	119.37
593.57	105.32
593.73	46.81
593.89	63.19
594.05	110.01
594.20	16.38
594.36	100.64
594.52	37.45
594.68	102.98
594.84	81.92
594.99	60.85
595.15	60.85
595.31	0.00
595.47	25.75
595.62	84.26
595.78	42.13
595.94	18.72
596.10	35.11
596.25	28.09
596.41	35.11
596.57	88.94
596.73	72.56
596.88	121.71
597.04	25.75
597.20	44.47
597.36	86.60
597.51	67.88
597.67	0.00
597.83	126.39
597.99	37.45
598.14	100.64
598.30	56.17
598.46	28.09
598.61	60.85
598.77	128.73
598.93	56.17
599.09	117.03
599.24	0.00
599.40	93.62
599.56	81.92
599.71	91.28
599.87	53.83
600.03	37.45
600.18	110.01
600.34	60.85
600.50	18.72
600.65	159.16
600.81	0.00
600.97	70.22
601.12	107.66
601.28	42.13
601.44	7.02
601.59	49.15
601.75	112.35
601.91	56.17
602.06	63.19
602.22	0.00
602.37	60.85
602.53	60.85
602.69	107.66
602.84	91.28
603.00	81.92
603.16	131.07
603.31	98.30
603.47	63.19
603.62	70.22
603.78	51.49
603.94	60.85
604.09	51.49
604.25	70.22
604.40	102.98
604.56	117.03
604.71	0.00
604.87	81.92
605.03	60.85
605.18	166.18
605.34	63.19
605.49	65.54
605.65	39.79
605.80	44.47
605.96	126.39
606.12	14.04
606.27	70.22
606.43	67.88
606.58	77.24
606.74	63.19
606.89	53.83
607.05	100.64
607.20	35.11
607.36	42.13
607.51	102.98
607.67	182.56
607.82	25.75
607.98	93.62
608.13	35.11
608.29	95.96
608.44	105.32
608.60	107.66
608.75	131.07
608.91	51.49
609.06	42.13
609.22	58.51
609.37	51.49
609.53	23.41
609.68	119.37
609.84	51.49
609.99	51.49
610.15	16.38
610.30	30.43
610.46	98.30
610.61	159.16
610.76	65.54
610.92	163.84
611.07	2.34
611.23	56.17
611.38	86.60
611.54	110.01
611.69	114.69
611.84	7.02
612.00	51.49
612.15	37.45
612.31	91.28
612.46	84.26
612.62	70.22
612.77	107.66
612.92	65.54
613.08	0.00
613.23	37.45
613.39	37.45
613.54	70.22
613.69	107.66
613.85	102.98
614.00	65.54
614.15	88.94
614.31	51.49
614.46	49.15
614.62	84.26
614.77	70.22
614.92	0.00
615.08	46.81
615.23	72.56
615.38	18.72
615.54	84.26
615.69	49.15
615.84	67.88
616.00	30.43
616.15	124.05
616.30	79.58
616.46	72.56
616.61	46.81
616.76	88.94
616.92	0.00
617.07	35.11
617.22	44.47
617.37	79.58
617.53	28.09
617.68	72.56
617.83	77.24
617.99	105.32
618.14	21.06
618.29	98.30
618.45	81.92
618.60	60.85
618.75	81.92
618.90	46.81
619.06	79.58
619.21	16.38
619.36	0.00
619.51	46.81
619.67	161.50
619.82	88.94
619.97	37.45
620.12	105.32
620.28	81.92
620.43	81.92
620.58	93.62
620.73	9.36
620.89	18.72
621.04	114.69
621.19	44.47
621.34	100.64
621.49	74.90
621.65	84.26
621.80	81.92
621.95	117.03
622.10	74.90
622.25	42.13
622.41	84.26
622.56	39.79
622.71	105.32
622.86	65.54
623.01	114.69
623.16	110.01
623.32	102.98
623.47	72.56
623.62	25.75
623.77	81.92
623.92	30.43
624.07	138.09
624.23	9.36
624.38	30.43
624.53	0.00
624.68	91.28
624.83	32.77
624.98	46.81
625.13	14.04
625.29	93.62
625.44	4.68
625.59	93.62
625.74	91.28
625.89	18.72
626.04	67.88
626.19	56.17
626.34	84.26
626.49	56.17
626.65	65.54
626.80	88.94
626.95	46.81
627.10	65.54
627.25	58.51
627.40	126.39
627.55	56.17
627.70	77.24
627.85	56.17
628.00	23.41
628.15	0.00
628.30	32.77
628.45	72.56
628.60	23.41
628.76	18.72
628.91	35.11
629.06	16.38
629.21	98.30
629.36	7.02
629.51	53.83
629.66	93.62
629.81	60.85
629.96	100.64
630.11	28.09
630.26	110.01
630.41	67.88
630.56	42.13
630.71	72.56
630.86	159.16
631.01	30.43
631.16	56.17
631.31	88.94
631.46	126.39
631.61	74.90
631.76	11.70
631.91	53.83
632.06	56.17
632.21	72.56
632.36	79.58
632.51	51.49
632.66	58.51
632.81	42.13
632.96	74.90
633.10	74.90
633.25	98.30
633.40	56.17
633.55	149.79
633.70	53.83
633.85	0.00
634.00	39.79
634.15	23.41
634.30	88.94
634.45	23.41
634.60	105.32
634.75	51.49
634.90	9.36
635.05	95.96
635.19	49.15
635.34	46.81
635.49	95.96
635.64	88.94
635.79	70.22
635.94	56.17
636.09	42.13
636.24	0.00
636.39	91.28
636.53	51.49
636.68	100.64
636.83	67.88
636.98	84.26
637.13	42.13
637.28	49.15
637.43	67.88
637.57	37.45
637.72	74.90
637.87	60.85
638.02	65.54
638.17	56.17
638.32	142.77
638.46	23.41
638.61	65.54
638.76	44.47
638.91	119.37
639.06	93.62
639.20	0.00
639.35	39.79
639.50	88.94
639.65	79.58
639.80	65.54
639.94	51.49
640.09	23.41
640.24	81.92
640.39	60.85
640.54	37.45
640.68	117.03
640.83	11.70
640.98	79.58
641.13	65.54
641.27	21.06
641.42	30.43
641.57	135.75
641.72	37.45
641.86	9.36
642.01	44.47
642.16	42.13
642.31	42.13
642.45	70.22
642.60	53.83
642.75	107.66
642.90	32.77
643.04	35.11
643.19	53.83
643.34	30.43
643.48	81.92
643.63	81.92
643.78	56.17
643.93	16.38
644.07	70.22
644.22	51.49
644.37	0.00
644.51	93.62
644.66	79.58
644.81	91.28
644.95	49.15
645.10	7.02
645.25	14.04
645.39	84.26
645.54	102.98
645.69	67.88
645.83	65.54
645.98	86.60
646.13	18.72
646.27	128.73
646.42	77.24
646.57	32.77
646.71	117.03
646.86	86.60
647.00	25.75
647.15	44.47
647.30	56.17
647.44	58.51
647.59	98.30
647.74	2.34
647.88	72.56
648.03	42.13
648.17	60.85
648.32	53.83
648.47	23.41
648.61	11.70
648.76	2.34
648.90	9.36
649.05	77.24
649.20	0.00
649.34	77.24
649.49	72.56
649.63	42.13
649.78	46.81
649.92	63.19
650.07	28.09
650.21	74.90
650.36	114.69
650.51	67.88
650.65	39.79
650.80	79.58
650.94	88.94
651.09	114.69
651.23	77.24
651.38	0.00
651.52	60.85
651.67	91.28
651.81	56.17
651.96	102.98
652.10	105.32
652.25	182.56
652.39	53.83
652.54	39.79
652.68	18.72
652.83	114.69
652.97	51.49
653.12	100.64
653.26	107.66
653.41	77.24
653.55	84.26
653.70	44.47
653.84	63.19
653.99	53.83
654.13	79.58
654.27	124.05
654.42	4.68
654.56	91.28
654.71	131.07
654.85	28.09
655.00	14.04
655.14	32.77
655.29	138.09
655.43	30.43
655.57	9.36
655.72	77.24
655.86	37.45
656.01	16.38
656.15	65.54
656.30	100.64
656.44	30.43
656.58	74.90
656.73	0.00
656.87	37.45
657.01	35.11
657.16	4.68
657.30	81.92
657.45	0.00
657.59	51.49
657.73	49.15
657.88	0.00
658.02	53.83
658.16	98.30
658.31	2.34
658.45	95.96
658.60	16.38
658.74	100.64
658.88	16.38
659.03	42.13
659.17	93.62
659.31	67.88
659.46	25.75
659.60	7.02
659.74	11.70
659.89	72.56
660.03	100.64
660.17	53.83
660.32	7.02
660.46	37.45
660.60	58.51
660.74	53.83
660.89	56.17
661.03	0.00
661.17	0.00
661.32	30.43
661.46	32.77
661.60	23.41
661.74	35.11
661.89	39.79
662.03	88.94
662.17	18.72
662.31	0.00
662.46	72.56
662.60	0.00
662.74	49.15
662.88	79.58
663.03	30.43
663.17	2.34
663.31	56.17
663.45	95.96
663.60	119.37
663.74	39.79
663.88	79.58
664.02	35.11
664.17	28.09
664.31	32.77
664.45	140.43
664.59	42.13
664.73	74.90
664.88	63.19
665.02	56.17
665.16	0.00
665.30	79.58
665.44	110.01
665.59	79.58
665.73	65.54
665.87	0.00
666.01	79.58
666.15	35.11
666.29	37.45
666.44	86.60
666.58	98.30
666.72	49.15
666.86	60.85
667.00	88.94
667.14	95.96
667.28	18.72
667.43	98.30
667.57	74.90
667.71	91.28
667.85	7.02
667.99	67.88
668.13	44.47
668.27	70.22
668.41	21.06
668.56	2.34
668.70	95.96
668.84	39.79
668.98	72.56
669.12	0.00
669.26	32.77
669.40	65.54
669.54	21.06
669.68	112.35
669.82	0.00
669.96	63.19
670.10	119.37
670.25	128.73
670.39	110.01
670.53	70.22
670.67	28.09
670.81	37.45
670.95	65.54
671.09	37.45
671.23	49.15
671.37	79.58
671.51	51.49
671.65	100.64
671.79	100.64
671.93	16.38
672.07	145.11
672.21	0.00
672.35	119.37
672.49	91.28
672.63	16.38
672.77	86.60
672.91	7.02
673.05	42.13
673.19	25.75
673.33	105.32
673.47	35.11
673.61	9.36
673.75	72.56
673.89	23.41
674.03	37.45
674.17	60.85
674.31	30.43
674.45	95.96
674.59	56.17
674.73	28.09
674.87	42.13
675.01	42.13
675.15	0.00
675.29	56.17
675.43	58.51
675.56	112.35
675.70	131.07
675.84	65.54
675.98	98.30
676.12	49.15
676.26	32.77
676.40	63.19
676.54	126.39
676.68	126.39
676.82	63.19
676.96	98.30
677.10	110.01
677.23	65.54
677.37	112.35
677.51	18.72
677.65	84.26
677.79	65.54
677.93	30.43
678.07	44.47
678.21	117.03
678.34	2.34
678.48	63.19
678.62	67.88
678.76	88.94
678.90	21.06
679.04	51.49
679.18	91.28
679.31	53.83
679.45	88.94
679.59	0.00
679.73	72.56
679.87	70.22
680.00	51.49
680.14	23.41
680.28	39.79
680.42	77.24
680.56	56.17
680.70	46.81
680.83	53.83
680.97	77.24
681.11	67.88
681.25	4.68
681.39	142.77
681.52	58.51
681.66	18.72
681.80	110.01
681.94	23.41
682.07	72.56
682.21	100.64
682.35	60.85
682.49	0.00
682.62	11.70
682.76	77.24
682.90	60.85
683.04	79.58
683.17	44.47
683.31	65.54
683.45	16.38
683.59	35.11
683.72	39.79
683.86	72.56
684.00	30.43
684.13	60.85
684.27	16.38
684.41	0.00
684.55	4.68
684.68	84.26
684.82	37.45
684.96	0.00
685.09	44.47
685.23	39.79
685.37	49.15
685.50	51.49
685.64	0.00
685.78	63.19
685.91	65.54
686.05	7.02
686.19	0.00
686.32	0.00
686.46	60.85
686.60	16.38
686.73	4.68
686.87	60.85
687.01	72.56
687.14	18.72
687.28	28.09
687.42	58.51
687.55	95.96
687.69	35.11
687.82	42.13
687.96	23.41
688.10	39.79
688.23	0.00
688.37	100.64
688.50	93.62
688.64	28.09
688.78	23.41
688.91	42.13
689.05	32.77
689.18	28.09
689.32	4.68
689.46	91.28
689.59	49.15
689.73	23.41
689.86	11.70
690.00	35.11
690.13	0.00
690.27	65.54
690.41	0.00
690.54	0.00
690.68	56.17
690.81	56.17
690.95	9.36
691.08	51.49
691.22	28.09
691.35	21.06
691.49	32.77
691.62	49.15
691.76	46.81
691.89	28.09
692.03	58.51
692.16	117.03
692.30	0.00
692.43	63.19
692.57	0.00
692.70	56.17
692.84	53.83
692.97	60.85
693.11	23.41
693.24	72.56
693.38	70.22
693.51	0.00
693.65	21.06
693.78	2.34
693.92	44.47
694.05	18.72
694.19	23.41
694.32	58.51
694.45	0.00
694.59	0.00
694.72	72.56
694.86	4.68
694.99	117.03
695.13	63.19
695.26	58.51
695.39	51.49
695.53	67.88
695.66	126.39
695.80	81.92
695.93	39.79
696.07	30.43
696.20	0.00
696.33	166.18
696.47	44.47
696.60	51.49
696.73	0.00
696.87	67.88
697.00	9.36
697.14	18.72
697.27	60.85
697.40	39.79
697.54	65.54
697.67	30.43
697.80	74.90
697.94	49.15
698.07	42.13
698.21	53.83
698.34	11.70
698.47	0.00
698.61	42.13
698.74	49.15
698.87	35.11
699.01	28.09
699.14	35.11
699.27	18.72
699.40	79.58
699.54	100.64
699.67	0.00
699.80	0.00
699.94	0.00
700.07	81.92
700.20	0.00
700.34	51.49
700.47	0.00
700.60	0.00
700.73	77.24
700.87	9.36
701.00	119.37
701.13	18.72
701.26	84.26
701.40	46.81
701.53	35.11
701.66	11.70
701.79	79.58
701.93	25.75
702.06	93.62
702.19	70.22
702.32	4.68
702.46	23.41
702.59	44.47
702.72	0.00
702.85	2.34
702.99	53.83
703.12	0.00
703.25	25.75
703.38	18.72
703.51	147.45
703.65	86.60
703.78	37.45
703.91	63.19
704.04	32.77
704.17	67.88
704.31	0.00
704.44	14.04
704.57	0.00
704.70	0.00
704.83	79.58
704.96	86.60
705.10	21.06
705.23	42.13
>>>>>End Processed Spectral Data<<<<<
