SpectraSuite Data File
++++++++++++++++++++++++++++++++++++
Date: Fri Oct 04 12:13:33 GMT-05:00 2013
User: price-jones
Dark Spectrum Present: No
Reference Spectrum Present: No
Number of Sampled Component Spectra: 1
Spectrometers: USB2+H05261
Integration Time (usec): 10000 (USB2+H05261)
Spectra Averaged: 1 (USB2+H05261)
Boxcar Smoothing: 0 (USB2+H05261)
Correct for Electrical Dark: No (USB2+H05261)
Strobe/Lamp Enabled: No (USB2+H05261)
Correct for Detector Non-linearity: No (USB2+H05261)
Correct for Stray Light: No (USB2+H05261)
Number of Pixels in Processed Spectrum: 2048
>>>>>Begin Processed Spectral Data<<<<<
365.73	0.00
365.92	0.00
366.12	0.00
366.32	0.00
366.52	0.00
366.72	0.00
366.91	0.00
367.11	0.00
367.31	0.00
367.51	0.00
367.70	0.00
367.90	0.00
368.10	0.00
368.30	0.00
368.49	0.00
368.69	0.00
368.89	0.00
369.09	0.00
369.28	0.00
369.48	0.00
369.68	0.00
369.87	0.00
370.07	0.00
370.27	0.00
370.47	0.00
370.66	0.00
370.86	0.00
371.06	0.00
371.25	0.00
371.45	0.00
371.65	0.00
371.84	0.00
372.04	0.00
372.24	0.00
372.44	0.00
372.63	0.00
372.83	9.36
373.03	39.79
373.22	119.37
373.42	9.36
373.62	0.00
373.81	56.17
374.01	14.04
374.21	0.00
374.40	0.00
374.60	49.15
374.79	0.00
374.99	110.01
375.19	53.83
375.38	21.06
375.58	32.77
375.78	0.00
375.97	4.68
376.17	53.83
376.37	28.09
376.56	37.45
376.76	30.43
376.95	0.00
377.15	60.85
377.35	42.13
377.54	37.45
377.74	18.72
377.93	18.72
378.13	0.00
378.33	0.00
378.52	25.75
378.72	86.60
378.91	51.49
379.11	0.00
379.31	0.00
379.50	53.83
379.70	42.13
379.89	70.22
380.09	63.19
380.28	51.49
380.48	39.79
380.68	0.00
380.87	0.00
381.07	95.96
381.26	88.94
381.46	72.56
381.65	0.00
381.85	30.43
382.04	53.83
382.24	0.00
382.43	28.09
382.63	0.00
382.83	0.00
383.02	0.00
383.22	0.00
383.41	0.00
383.61	28.09
383.80	65.54
384.00	0.00
384.19	0.00
384.39	23.41
384.58	7.02
384.78	18.72
384.97	0.00
385.17	0.00
385.36	0.00
385.56	14.04
385.75	53.83
385.95	0.00
386.14	0.00
386.34	0.00
386.53	67.88
386.72	9.36
386.92	0.00
387.11	0.00
387.31	37.45
387.50	0.00
387.70	0.00
387.89	2.34
388.09	0.00
388.28	0.00
388.48	0.00
388.67	46.81
388.86	79.58
389.06	25.75
389.25	0.00
389.45	14.04
389.64	39.79
389.84	0.00
390.03	51.49
390.22	39.79
390.42	0.00
390.61	0.00
390.81	0.00
391.00	0.00
391.19	0.00
391.39	35.11
391.58	0.00
391.78	0.00
391.97	25.75
392.16	14.04
392.36	0.00
392.55	0.00
392.75	0.00
392.94	49.15
393.13	49.15
393.33	60.85
393.52	44.47
393.71	42.13
393.91	32.77
394.10	32.77
394.29	32.77
394.49	37.45
394.68	21.06
394.88	0.00
395.07	0.00
395.26	18.72
395.46	0.00
395.65	4.68
395.84	21.06
396.04	28.09
396.23	93.62
396.42	91.28
396.62	0.00
396.81	37.45
397.00	14.04
397.19	74.90
397.39	56.17
397.58	37.45
397.77	0.00
397.97	72.56
398.16	39.79
398.35	7.02
398.55	11.70
398.74	14.04
398.93	25.75
399.12	0.00
399.32	14.04
399.51	35.11
399.70	32.77
399.90	51.49
400.09	37.45
400.28	0.00
400.47	56.17
400.67	28.09
400.86	51.49
401.05	39.79
401.24	9.36
401.44	0.00
401.63	0.00
401.82	7.02
402.01	23.41
402.21	28.09
402.40	28.09
402.59	65.54
402.78	16.38
402.97	0.00
403.17	44.47
403.36	21.06
403.55	7.02
403.74	2.34
403.93	0.00
404.13	0.00
404.32	60.85
404.51	21.06
404.70	2.34
404.89	32.77
405.09	9.36
405.28	42.13
405.47	32.77
405.66	7.02
405.85	30.43
406.05	23.41
406.24	70.22
406.43	46.81
406.62	18.72
406.81	9.36
407.00	30.43
407.20	30.43
407.39	37.45
407.58	25.75
407.77	4.68
407.96	2.34
408.15	0.00
408.34	23.41
408.54	51.49
408.73	0.00
408.92	0.00
409.11	70.22
409.30	60.85
409.49	56.17
409.68	0.00
409.87	0.00
410.07	77.24
410.26	56.17
410.45	4.68
410.64	4.68
410.83	0.00
411.02	98.30
411.21	0.00
411.40	53.83
411.59	42.13
411.78	0.00
411.98	0.00
412.17	0.00
412.36	60.85
412.55	65.54
412.74	63.19
412.93	11.70
413.12	21.06
413.31	0.00
413.50	23.41
413.69	30.43
413.88	0.00
414.07	18.72
414.26	30.43
414.45	63.19
414.64	0.00
414.83	35.11
415.02	7.02
415.22	58.51
415.41	0.00
415.60	56.17
415.79	0.00
415.98	37.45
416.17	25.75
416.36	9.36
416.55	53.83
416.74	0.00
416.93	0.00
417.12	32.77
417.31	0.00
417.50	14.04
417.69	0.00
417.88	0.00
418.07	0.00
418.26	95.96
418.45	9.36
418.64	86.60
418.83	23.41
419.02	53.83
419.21	56.17
419.39	37.45
419.58	7.02
419.77	30.43
419.96	65.54
420.15	0.00
420.34	11.70
420.53	30.43
420.72	23.41
420.91	0.00
421.10	49.15
421.29	0.00
421.48	35.11
421.67	23.41
421.86	9.36
422.05	35.11
422.24	21.06
422.43	81.92
422.61	18.72
422.80	0.00
422.99	0.00
423.18	63.19
423.37	0.00
423.56	32.77
423.75	58.51
423.94	0.00
424.13	28.09
424.32	23.41
424.50	0.00
424.69	0.00
424.88	0.00
425.07	0.00
425.26	0.00
425.45	18.72
425.64	53.83
425.83	21.06
426.01	110.01
426.20	23.41
426.39	86.60
426.58	16.38
426.77	35.11
426.96	16.38
427.15	44.47
427.33	0.00
427.52	7.02
427.71	37.45
427.90	2.34
428.09	30.43
428.28	0.00
428.46	32.77
428.65	42.13
428.84	11.70
429.03	79.58
429.22	42.13
429.40	9.36
429.59	86.60
429.78	114.69
429.97	0.00
430.16	0.00
430.34	23.41
430.53	7.02
430.72	16.38
430.91	0.00
431.10	23.41
431.28	7.02
431.47	7.02
431.66	44.47
431.85	58.51
432.03	16.38
432.22	23.41
432.41	86.60
432.60	42.13
432.79	128.73
432.97	49.15
433.16	42.13
433.35	44.47
433.54	39.79
433.72	65.54
433.91	18.72
434.10	0.00
434.28	67.88
434.47	37.45
434.66	35.11
434.85	67.88
435.03	0.00
435.22	39.79
435.41	0.00
435.59	44.47
435.78	60.85
435.97	21.06
436.16	11.70
436.34	35.11
436.53	56.17
436.72	53.83
436.90	74.90
437.09	30.43
437.28	53.83
437.46	35.11
437.65	14.04
437.84	60.85
438.02	4.68
438.21	84.26
438.40	0.00
438.58	4.68
438.77	32.77
438.96	0.00
439.14	0.00
439.33	39.79
439.52	14.04
439.70	77.24
439.89	53.83
440.08	0.00
440.26	39.79
440.45	0.00
440.63	0.00
440.82	98.30
441.01	81.92
441.19	25.75
441.38	49.15
441.57	70.22
441.75	0.00
441.94	49.15
442.12	72.56
442.31	18.72
442.50	23.41
442.68	14.04
442.87	77.24
443.05	28.09
443.24	4.68
443.43	53.83
443.61	0.00
443.80	70.22
443.98	0.00
444.17	0.00
444.35	81.92
444.54	16.38
444.73	77.24
444.91	18.72
445.10	0.00
445.28	16.38
445.47	0.00
445.65	21.06
445.84	72.56
446.02	49.15
446.21	0.00
446.39	0.00
446.58	32.77
446.77	102.98
446.95	39.79
447.14	16.38
447.32	44.47
447.51	0.00
447.69	9.36
447.88	0.00
448.06	44.47
448.25	49.15
448.43	0.00
448.62	32.77
448.80	25.75
448.99	23.41
449.17	39.79
449.36	2.34
449.54	32.77
449.73	79.58
449.91	74.90
450.10	25.75
450.28	39.79
450.46	86.60
450.65	51.49
450.83	46.81
451.02	9.36
451.20	67.88
451.39	11.70
451.57	0.00
451.76	35.11
451.94	72.56
452.13	23.41
452.31	60.85
452.49	9.36
452.68	18.72
452.86	0.00
453.05	65.54
453.23	0.00
453.42	35.11
453.60	60.85
453.78	4.68
453.97	0.00
454.15	58.51
454.34	9.36
454.52	0.00
454.70	46.81
454.89	39.79
455.07	117.03
455.26	0.00
455.44	39.79
455.62	70.22
455.81	0.00
455.99	32.77
456.17	112.35
456.36	60.85
456.54	9.36
456.73	42.13
456.91	11.70
457.09	30.43
457.28	7.02
457.46	4.68
457.64	84.26
457.83	46.81
458.01	35.11
458.19	70.22
458.38	0.00
458.56	18.72
458.74	70.22
458.93	14.04
459.11	91.28
459.29	0.00
459.48	95.96
459.66	14.04
459.84	53.83
460.03	23.41
460.21	32.77
460.39	93.62
460.57	58.51
460.76	70.22
460.94	0.00
461.12	84.26
461.31	72.56
461.49	88.94
461.67	0.00
461.85	16.38
462.04	51.49
462.22	79.58
462.40	86.60
462.59	42.13
462.77	65.54
462.95	105.32
463.13	58.51
463.32	67.88
463.50	86.60
463.68	7.02
463.86	0.00
464.05	0.00
464.23	4.68
464.41	0.00
464.59	0.00
464.78	56.17
464.96	39.79
465.14	16.38
465.32	0.00
465.50	51.49
465.69	35.11
465.87	21.06
466.05	74.90
466.23	16.38
466.41	0.00
466.60	79.58
466.78	60.85
466.96	0.00
467.14	44.47
467.32	58.51
467.51	102.98
467.69	42.13
467.87	56.17
468.05	7.02
468.23	21.06
468.41	37.45
468.60	28.09
468.78	51.49
468.96	70.22
469.14	0.00
469.32	2.34
469.50	0.00
469.69	16.38
469.87	30.43
470.05	0.00
470.23	0.00
470.41	35.11
470.59	0.00
470.77	4.68
470.95	11.70
471.14	18.72
471.32	0.00
471.50	32.77
471.68	14.04
471.86	28.09
472.04	39.79
472.22	39.79
472.40	70.22
472.58	119.37
472.77	49.15
472.95	49.15
473.13	0.00
473.31	0.00
473.49	0.00
473.67	58.51
473.85	0.00
474.03	4.68
474.21	67.88
474.39	58.51
474.57	91.28
474.75	51.49
474.93	25.75
475.12	0.00
475.30	4.68
475.48	49.15
475.66	74.90
475.84	77.24
476.02	135.75
476.20	11.70
476.38	28.09
476.56	119.37
476.74	4.68
476.92	70.22
477.10	16.38
477.28	79.58
477.46	67.88
477.64	14.04
477.82	49.15
478.00	37.45
478.18	21.06
478.36	0.00
478.54	0.00
478.72	0.00
478.90	25.75
479.08	23.41
479.26	72.56
479.44	25.75
479.62	46.81
479.80	72.56
479.98	46.81
480.16	93.62
480.34	65.54
480.52	42.13
480.70	88.94
480.88	0.00
481.06	0.00
481.24	70.22
481.41	56.17
481.59	42.13
481.77	16.38
481.95	14.04
482.13	37.45
482.31	46.81
482.49	79.58
482.67	42.13
482.85	46.81
483.03	42.13
483.21	9.36
483.39	23.41
483.57	98.30
483.74	37.45
483.92	112.35
484.10	28.09
484.28	7.02
484.46	51.49
484.64	72.56
484.82	28.09
485.00	37.45
485.18	58.51
485.35	25.75
485.53	11.70
485.71	0.00
485.89	63.19
486.07	9.36
486.25	74.90
486.43	0.00
486.61	53.83
486.78	25.75
486.96	56.17
487.14	56.17
487.32	72.56
487.50	35.11
487.68	39.79
487.85	65.54
488.03	58.51
488.21	0.00
488.39	42.13
488.57	72.56
488.75	14.04
488.92	28.09
489.10	44.47
489.28	107.66
489.46	81.92
489.64	23.41
489.81	49.15
489.99	4.68
490.17	44.47
490.35	74.90
490.53	42.13
490.70	0.00
490.88	25.75
491.06	0.00
491.24	86.60
491.41	65.54
491.59	77.24
491.77	63.19
491.95	49.15
492.13	79.58
492.30	58.51
492.48	65.54
492.66	98.30
492.84	21.06
493.01	42.13
493.19	0.00
493.37	0.00
493.54	18.72
493.72	53.83
493.90	72.56
494.08	77.24
494.25	56.17
494.43	67.88
494.61	0.00
494.79	102.98
494.96	16.38
495.14	0.00
495.32	21.06
495.49	39.79
495.67	95.96
495.85	11.70
496.02	53.83
496.20	37.45
496.38	4.68
496.55	2.34
496.73	9.36
496.91	72.56
497.09	72.56
497.26	37.45
497.44	35.11
497.62	7.02
497.79	56.17
497.97	4.68
498.14	21.06
498.32	0.00
498.50	14.04
498.67	100.64
498.85	58.51
499.03	0.00
499.20	58.51
499.38	0.00
499.56	58.51
499.73	60.85
499.91	35.11
500.08	7.02
500.26	117.03
500.44	79.58
500.61	86.60
500.79	0.00
500.97	30.43
501.14	53.83
501.32	154.48
501.49	0.00
501.67	72.56
501.84	63.19
502.02	91.28
502.20	18.72
502.37	60.85
502.55	44.47
502.72	86.60
502.90	53.83
503.07	112.35
503.25	0.00
503.43	44.47
503.60	95.96
503.78	79.58
503.95	53.83
504.13	65.54
504.30	2.34
504.48	16.38
504.65	51.49
504.83	0.00
505.01	91.28
505.18	39.79
505.36	81.92
505.53	0.00
505.71	88.94
505.88	81.92
506.06	67.88
506.23	74.90
506.41	0.00
506.58	112.35
506.76	63.19
506.93	81.92
507.11	58.51
507.28	11.70
507.46	44.47
507.63	79.58
507.81	110.01
507.98	126.39
508.16	23.41
508.33	53.83
508.50	39.79
508.68	112.35
508.85	112.35
509.03	53.83
509.20	32.77
509.38	35.11
509.55	16.38
509.73	102.98
509.90	28.09
510.08	42.13
510.25	72.56
510.42	14.04
510.60	72.56
510.77	112.35
510.95	11.70
511.12	124.05
511.30	53.83
511.47	67.88
511.64	58.51
511.82	4.68
511.99	0.00
512.17	70.22
512.34	35.11
512.51	58.51
512.69	72.56
512.86	23.41
513.04	74.90
513.21	58.51
513.38	58.51
513.56	65.54
513.73	16.38
513.90	117.03
514.08	100.64
514.25	21.06
514.43	88.94
514.60	60.85
514.77	60.85
514.95	93.62
515.12	39.79
515.29	60.85
515.47	74.90
515.64	105.32
515.81	30.43
515.99	51.49
516.16	51.49
516.33	72.56
516.51	39.79
516.68	14.04
516.85	63.19
517.03	32.77
517.20	30.43
517.37	56.17
517.54	74.90
517.72	102.98
517.89	65.54
518.06	16.38
518.24	114.69
518.41	72.56
518.58	88.94
518.75	53.83
518.93	30.43
519.10	58.51
519.27	11.70
519.45	42.13
519.62	72.56
519.79	70.22
519.96	60.85
520.14	4.68
520.31	11.70
520.48	0.00
520.65	4.68
520.83	23.41
521.00	9.36
521.17	16.38
521.34	0.00
521.52	46.81
521.69	60.85
521.86	65.54
522.03	84.26
522.20	56.17
522.38	107.66
522.55	79.58
522.72	86.60
522.89	37.45
523.07	72.56
523.24	91.28
523.41	0.00
523.58	21.06
523.75	86.60
523.92	49.15
524.10	74.90
524.27	110.01
524.44	32.77
524.61	124.05
524.78	21.06
524.96	86.60
525.13	2.34
525.30	42.13
525.47	21.06
525.64	7.02
525.81	79.58
525.98	0.00
526.16	72.56
526.33	77.24
526.50	35.11
526.67	74.90
526.84	49.15
527.01	49.15
527.18	93.62
527.36	81.92
527.53	70.22
527.70	32.77
527.87	79.58
528.04	74.90
528.21	23.41
528.38	44.47
528.55	131.07
528.72	124.05
528.89	72.56
529.07	14.04
529.24	0.00
529.41	28.09
529.58	93.62
529.75	23.41
529.92	63.19
530.09	2.34
530.26	32.77
530.43	18.72
530.60	56.17
530.77	51.49
530.94	63.19
531.11	37.45
531.28	21.06
531.46	25.75
531.63	88.94
531.80	28.09
531.97	70.22
532.14	84.26
532.31	37.45
532.48	30.43
532.65	63.19
532.82	42.13
532.99	14.04
533.16	63.19
533.33	30.43
533.50	86.60
533.67	9.36
533.84	37.45
534.01	79.58
534.18	105.32
534.35	65.54
534.52	51.49
534.69	56.17
534.86	35.11
535.03	145.11
535.20	25.75
535.37	0.00
535.54	16.38
535.71	74.90
535.88	105.32
536.05	60.85
536.22	140.43
536.38	95.96
536.55	102.98
536.72	135.75
536.89	14.04
537.06	28.09
537.23	0.00
537.40	0.00
537.57	121.71
537.74	95.96
537.91	4.68
538.08	0.00
538.25	28.09
538.42	79.58
538.59	39.79
538.75	0.00
538.92	35.11
539.09	0.00
539.26	98.30
539.43	121.71
539.60	65.54
539.77	63.19
539.94	70.22
540.11	32.77
540.28	51.49
540.44	81.92
540.61	49.15
540.78	9.36
540.95	58.51
541.12	0.00
541.29	65.54
541.46	88.94
541.62	131.07
541.79	79.58
541.96	18.72
542.13	56.17
542.30	46.81
542.47	72.56
542.63	93.62
542.80	0.00
542.97	49.15
543.14	25.75
543.31	49.15
543.48	44.47
543.64	0.00
543.81	81.92
543.98	49.15
544.15	35.11
544.32	30.43
544.48	100.64
544.65	32.77
544.82	63.19
544.99	53.83
545.16	35.11
545.32	53.83
545.49	25.75
545.66	4.68
545.83	11.70
546.00	81.92
546.16	67.88
546.33	37.45
546.50	9.36
546.67	2.34
546.83	32.77
547.00	93.62
547.17	84.26
547.34	93.62
547.50	74.90
547.67	18.72
547.84	28.09
548.00	105.32
548.17	65.54
548.34	65.54
548.51	51.49
548.67	79.58
548.84	0.00
549.01	56.17
549.18	138.09
549.34	46.81
549.51	49.15
549.68	4.68
549.84	0.00
550.01	60.85
550.18	135.75
550.34	98.30
550.51	30.43
550.68	98.30
550.84	21.06
551.01	58.51
551.18	16.38
551.34	79.58
551.51	21.06
551.68	11.70
551.84	18.72
552.01	51.49
552.18	0.00
552.34	16.38
552.51	0.00
552.68	77.24
552.84	84.26
553.01	79.58
553.18	67.88
553.34	39.79
553.51	30.43
553.67	91.28
553.84	42.13
554.01	70.22
554.17	51.49
554.34	53.83
554.51	0.00
554.67	23.41
554.84	72.56
555.00	95.96
555.17	2.34
555.33	7.02
555.50	121.71
555.67	60.85
555.83	53.83
556.00	32.77
556.16	23.41
556.33	0.00
556.50	0.00
556.66	72.56
556.83	51.49
556.99	88.94
557.16	53.83
557.32	44.47
557.49	28.09
557.65	98.30
557.82	60.85
557.98	98.30
558.15	0.00
558.32	46.81
558.48	0.00
558.65	79.58
558.81	91.28
558.98	37.45
559.14	32.77
559.31	72.56
559.47	42.13
559.64	95.96
559.80	63.19
559.97	9.36
560.13	74.90
560.30	0.00
560.46	14.04
560.63	18.72
560.79	79.58
560.96	0.00
561.12	16.38
561.29	93.62
561.45	81.92
561.61	21.06
561.78	0.00
561.94	58.51
562.11	28.09
562.27	67.88
562.44	65.54
562.60	23.41
562.77	0.00
562.93	30.43
563.10	53.83
563.26	53.83
563.42	35.11
563.59	65.54
563.75	42.13
563.92	53.83
564.08	105.32
564.24	56.17
564.41	11.70
564.57	117.03
564.74	79.58
564.90	93.62
565.07	46.81
565.23	14.04
565.39	16.38
565.56	0.00
565.72	84.26
565.88	46.81
566.05	23.41
566.21	25.75
566.38	0.00
566.54	95.96
566.70	39.79
566.87	44.47
567.03	28.09
567.19	70.22
567.36	42.13
567.52	16.38
567.68	25.75
567.85	70.22
568.01	63.19
568.17	72.56
568.34	107.66
568.50	0.00
568.66	0.00
568.83	53.83
568.99	9.36
569.15	74.90
569.32	14.04
569.48	21.06
569.64	30.43
569.81	88.94
569.97	14.04
570.13	9.36
570.30	35.11
570.46	117.03
570.62	39.79
570.78	14.04
570.95	0.00
571.11	39.79
571.27	72.56
571.43	65.54
571.60	39.79
571.76	72.56
571.92	46.81
572.09	25.75
572.25	0.00
572.41	44.47
572.57	58.51
572.74	91.28
572.90	124.05
573.06	32.77
573.22	74.90
573.38	56.17
573.55	53.83
573.71	77.24
573.87	56.17
574.03	67.88
574.20	30.43
574.36	86.60
574.52	63.19
574.68	77.24
574.84	25.75
575.01	81.92
575.17	79.58
575.33	0.00
575.49	49.15
575.65	32.77
575.82	42.13
575.98	2.34
576.14	65.54
576.30	39.79
576.46	0.00
576.62	42.13
576.79	16.38
576.95	56.17
577.11	79.58
577.27	84.26
577.43	0.00
577.59	0.00
577.75	0.00
577.92	0.00
578.08	72.56
578.24	60.85
578.40	70.22
578.56	56.17
578.72	23.41
578.88	67.88
579.04	63.19
579.21	42.13
579.37	53.83
579.53	119.37
579.69	91.28
579.85	93.62
580.01	102.98
580.17	25.75
580.33	86.60
580.49	88.94
580.65	49.15
580.82	53.83
580.98	93.62
581.14	21.06
581.30	0.00
581.46	37.45
581.62	72.56
581.78	53.83
581.94	53.83
582.10	30.43
582.26	28.09
582.42	72.56
582.58	102.98
582.74	42.13
582.90	56.17
583.06	42.13
583.22	88.94
583.38	93.62
583.54	32.77
583.70	84.26
583.86	102.98
584.02	98.30
584.18	21.06
584.34	53.83
584.50	58.51
584.66	53.83
584.82	44.47
584.98	56.17
585.14	9.36
585.30	11.70
585.46	58.51
585.62	74.90
585.78	18.72
585.94	0.00
586.10	0.00
586.26	0.00
586.42	46.81
586.58	63.19
586.74	60.85
586.90	51.49
587.06	84.26
587.22	93.62
587.38	51.49
587.54	42.13
587.70	114.69
587.86	7.02
588.02	42.13
588.18	32.77
588.34	28.09
588.49	32.77
588.65	0.00
588.81	4.68
588.97	49.15
589.13	58.51
589.29	88.94
589.45	0.00
589.61	0.00
589.77	79.58
589.93	9.36
590.08	86.60
590.24	58.51
590.40	35.11
590.56	28.09
590.72	37.45
590.88	107.66
591.04	32.77
591.20	0.00
591.35	30.43
591.51	14.04
591.67	91.28
591.83	65.54
591.99	53.83
592.15	37.45
592.31	25.75
592.46	23.41
592.62	0.00
592.78	70.22
592.94	23.41
593.10	51.49
593.26	60.85
593.41	121.71
593.57	11.70
593.73	0.00
593.89	49.15
594.05	72.56
594.20	11.70
594.36	18.72
594.52	28.09
594.68	51.49
594.84	81.92
594.99	0.00
595.15	32.77
595.31	35.11
595.47	70.22
595.62	58.51
595.78	39.79
595.94	100.64
596.10	30.43
596.25	25.75
596.41	60.85
596.57	14.04
596.73	60.85
596.88	51.49
597.04	0.00
597.20	4.68
597.36	11.70
597.51	14.04
597.67	0.00
597.83	53.83
597.99	72.56
598.14	88.94
598.30	4.68
598.46	37.45
598.61	88.94
598.77	16.38
598.93	0.00
599.09	58.51
599.24	9.36
599.40	46.81
599.56	100.64
599.71	65.54
599.87	14.04
600.03	4.68
600.18	53.83
600.34	58.51
600.50	16.38
600.65	30.43
600.81	93.62
600.97	51.49
601.12	74.90
601.28	63.19
601.44	0.00
601.59	0.00
601.75	25.75
601.91	77.24
602.06	117.03
602.22	74.90
602.37	81.92
602.53	63.19
602.69	91.28
602.84	7.02
603.00	0.00
603.16	84.26
603.31	37.45
603.47	21.06
603.62	21.06
603.78	77.24
603.94	37.45
604.09	98.30
604.25	2.34
604.40	77.24
604.56	7.02
604.71	23.41
604.87	63.19
605.03	35.11
605.18	105.32
605.34	51.49
605.49	35.11
605.65	44.47
605.80	84.26
605.96	51.49
606.12	23.41
606.27	37.45
606.43	107.66
606.58	44.47
606.74	4.68
606.89	25.75
607.05	0.00
607.20	37.45
607.36	0.00
607.51	9.36
607.67	44.47
607.82	65.54
607.98	56.17
608.13	0.00
608.29	138.09
608.44	25.75
608.60	56.17
608.75	53.83
608.91	0.00
609.06	74.90
609.22	124.05
609.37	135.75
609.53	56.17
609.68	0.00
609.84	65.54
609.99	32.77
610.15	28.09
610.30	18.72
610.46	135.75
610.61	0.00
610.76	74.90
610.92	0.00
611.07	4.68
611.23	37.45
611.38	0.00
611.54	86.60
611.69	63.19
611.84	37.45
612.00	117.03
612.15	124.05
612.31	91.28
612.46	84.26
612.62	98.30
612.77	70.22
612.92	37.45
613.08	30.43
613.23	21.06
613.39	16.38
613.54	74.90
613.69	58.51
613.85	30.43
614.00	0.00
614.15	63.19
614.31	46.81
614.46	53.83
614.62	25.75
614.77	70.22
614.92	23.41
615.08	0.00
615.23	7.02
615.38	0.00
615.54	67.88
615.69	37.45
615.84	67.88
616.00	39.79
616.15	9.36
616.30	0.00
616.46	60.85
616.61	0.00
616.76	4.68
616.92	16.38
617.07	25.75
617.22	16.38
617.37	11.70
617.53	35.11
617.68	7.02
617.83	16.38
617.99	117.03
618.14	147.45
618.29	14.04
618.45	9.36
618.60	0.00
618.75	100.64
618.90	0.00
619.06	58.51
619.21	0.00
619.36	37.45
619.51	72.56
619.67	81.92
619.82	11.70
619.97	18.72
620.12	58.51
620.28	102.98
620.43	39.79
620.58	0.00
620.73	28.09
620.89	21.06
621.04	74.90
621.19	86.60
621.34	30.43
621.49	70.22
621.65	53.83
621.80	4.68
621.95	7.02
622.10	30.43
622.25	42.13
622.41	21.06
622.56	0.00
622.71	32.77
622.86	88.94
623.01	18.72
623.16	81.92
623.32	56.17
623.47	0.00
623.62	42.13
623.77	46.81
623.92	84.26
624.07	67.88
624.23	21.06
624.38	14.04
624.53	51.49
624.68	25.75
624.83	30.43
624.98	81.92
625.13	18.72
625.29	84.26
625.44	25.75
625.59	65.54
625.74	81.92
625.89	70.22
626.04	110.01
626.19	60.85
626.34	42.13
626.49	0.00
626.65	98.30
626.80	35.11
626.95	79.58
627.10	16.38
627.25	42.13
627.40	79.58
627.55	23.41
627.70	42.13
627.85	56.17
628.00	49.15
628.15	16.38
628.30	0.00
628.45	102.98
628.60	0.00
628.76	0.00
628.91	4.68
629.06	0.00
629.21	51.49
629.36	0.00
629.51	56.17
629.66	32.77
629.81	0.00
629.96	56.17
630.11	28.09
630.26	77.24
630.41	0.00
630.56	9.36
630.71	9.36
630.86	7.02
631.01	28.09
631.16	11.70
631.31	0.00
631.46	7.02
631.61	9.36
631.76	39.79
631.91	30.43
632.06	23.41
632.21	0.00
632.36	46.81
632.51	60.85
632.66	100.64
632.81	28.09
632.96	58.51
633.10	67.88
633.25	46.81
633.40	16.38
633.55	74.90
633.70	0.00
633.85	25.75
634.00	70.22
634.15	91.28
634.30	98.30
634.45	37.45
634.60	70.22
634.75	49.15
634.90	79.58
635.05	53.83
635.19	4.68
635.34	11.70
635.49	114.69
635.64	28.09
635.79	23.41
635.94	0.00
636.09	65.54
636.24	70.22
636.39	91.28
636.53	65.54
636.68	46.81
636.83	46.81
636.98	0.00
637.13	7.02
637.28	72.56
637.43	140.43
637.57	16.38
637.72	121.71
637.87	56.17
638.02	0.00
638.17	37.45
638.32	14.04
638.46	49.15
638.61	102.98
638.76	35.11
638.91	4.68
639.06	14.04
639.20	0.00
639.35	84.26
639.50	93.62
639.65	74.90
639.80	18.72
639.94	126.39
640.09	42.13
640.24	58.51
640.39	74.90
640.54	46.81
640.68	77.24
640.83	70.22
640.98	53.83
641.13	4.68
641.27	84.26
641.42	86.60
641.57	49.15
641.72	16.38
641.86	0.00
642.01	0.00
642.16	93.62
642.31	37.45
642.45	32.77
642.60	42.13
642.75	51.49
642.90	51.49
643.04	39.79
643.19	117.03
643.34	14.04
643.48	0.00
643.63	7.02
643.78	51.49
643.93	102.98
644.07	49.15
644.22	49.15
644.37	4.68
644.51	37.45
644.66	98.30
644.81	102.98
644.95	46.81
645.10	0.00
645.25	30.43
645.39	145.11
645.54	46.81
645.69	9.36
645.83	70.22
645.98	46.81
646.13	67.88
646.27	107.66
646.42	23.41
646.57	25.75
646.71	21.06
646.86	44.47
647.00	51.49
647.15	77.24
647.30	63.19
647.44	11.70
647.59	98.30
647.74	93.62
647.88	25.75
648.03	46.81
648.17	107.66
648.32	53.83
648.47	28.09
648.61	23.41
648.76	25.75
648.90	56.17
649.05	11.70
649.20	35.11
649.34	70.22
649.49	67.88
649.63	28.09
649.78	21.06
649.92	86.60
650.07	98.30
650.21	56.17
650.36	0.00
650.51	74.90
650.65	60.85
650.80	51.49
650.94	30.43
651.09	42.13
651.23	72.56
651.38	14.04
651.52	14.04
651.67	9.36
651.81	21.06
651.96	37.45
652.10	84.26
652.25	0.00
652.39	0.00
652.54	60.85
652.68	25.75
652.83	0.00
652.97	49.15
653.12	0.00
653.26	65.54
653.41	0.00
653.55	18.72
653.70	7.02
653.84	32.77
653.99	102.98
654.13	58.51
654.27	121.71
654.42	37.45
654.56	84.26
654.71	46.81
654.85	49.15
655.00	88.94
655.14	32.77
655.29	56.17
655.43	79.58
655.57	65.54
655.72	42.13
655.86	60.85
656.01	0.00
656.15	16.38
656.30	2.34
656.44	23.41
656.58	21.06
656.73	49.15
656.87	37.45
657.01	70.22
657.16	23.41
657.30	0.00
657.45	98.30
657.59	9.36
657.73	98.30
657.88	21.06
658.02	35.11
658.16	0.00
658.31	2.34
658.45	18.72
658.60	11.70
658.74	23.41
658.88	56.17
659.03	30.43
659.17	63.19
659.31	28.09
659.46	49.15
659.60	100.64
659.74	98.30
659.89	100.64
660.03	0.00
660.17	7.02
660.32	37.45
660.46	51.49
660.60	56.17
660.74	0.00
660.89	23.41
661.03	138.09
661.17	30.43
661.32	0.00
661.46	117.03
661.60	102.98
661.74	46.81
661.89	65.54
662.03	39.79
662.17	70.22
662.31	0.00
662.46	95.96
662.60	28.09
662.74	35.11
662.88	0.00
663.03	9.36
663.17	21.06
663.31	0.00
663.45	42.13
663.60	74.90
663.74	0.00
663.88	100.64
664.02	25.75
664.17	0.00
664.31	119.37
664.45	39.79
664.59	32.77
664.73	63.19
664.88	67.88
665.02	51.49
665.16	30.43
665.30	42.13
665.44	9.36
665.59	44.47
665.73	32.77
665.87	7.02
666.01	14.04
666.15	30.43
666.29	91.28
666.44	0.00
666.58	44.47
666.72	63.19
666.86	16.38
667.00	44.47
667.14	32.77
667.28	0.00
667.43	88.94
667.57	0.00
667.71	39.79
667.85	60.85
667.99	0.00
668.13	39.79
668.27	95.96
668.41	23.41
668.56	0.00
668.70	11.70
668.84	0.00
668.98	37.45
669.12	72.56
669.26	70.22
669.40	11.70
669.54	95.96
669.68	49.15
669.82	79.58
669.96	81.92
670.10	58.51
670.25	28.09
670.39	21.06
670.53	7.02
670.67	37.45
670.81	53.83
670.95	23.41
671.09	86.60
671.23	39.79
671.37	102.98
671.51	86.60
671.65	0.00
671.79	53.83
671.93	105.32
672.07	70.22
672.21	58.51
672.35	42.13
672.49	0.00
672.63	51.49
672.77	28.09
672.91	0.00
673.05	42.13
673.19	133.41
673.33	163.84
673.47	7.02
673.61	39.79
673.75	60.85
673.89	2.34
674.03	65.54
674.17	0.00
674.31	112.35
674.45	32.77
674.59	21.06
674.73	0.00
674.87	16.38
675.01	49.15
675.15	77.24
675.29	56.17
675.43	35.11
675.56	39.79
675.70	0.00
675.84	23.41
675.98	77.24
676.12	2.34
676.26	0.00
676.40	56.17
676.54	105.32
676.68	23.41
676.82	86.60
676.96	0.00
677.10	46.81
677.23	16.38
677.37	42.13
677.51	2.34
677.65	77.24
677.79	44.47
677.93	0.00
678.07	42.13
678.21	0.00
678.34	2.34
678.48	0.00
678.62	58.51
678.76	84.26
678.90	18.72
679.04	23.41
679.18	0.00
679.31	56.17
679.45	84.26
679.59	35.11
679.73	0.00
679.87	7.02
680.00	42.13
680.14	70.22
680.28	21.06
680.42	0.00
680.56	84.26
680.70	86.60
680.83	0.00
680.97	28.09
681.11	30.43
681.25	0.00
681.39	56.17
681.52	16.38
681.66	58.51
681.80	7.02
681.94	4.68
682.07	0.00
682.21	28.09
682.35	79.58
682.49	0.00
682.62	46.81
682.76	86.60
682.90	53.83
683.04	4.68
683.17	63.19
683.31	11.70
683.45	14.04
683.59	37.45
683.72	88.94
683.86	67.88
684.00	23.41
684.13	77.24
684.27	32.77
684.41	21.06
684.55	79.58
684.68	35.11
684.82	105.32
684.96	0.00
685.09	16.38
685.23	51.49
685.37	28.09
685.50	44.47
685.64	0.00
685.78	39.79
685.91	0.00
686.05	0.00
686.19	25.75
686.32	77.24
686.46	25.75
686.60	56.17
686.73	51.49
686.87	16.38
687.01	0.00
687.14	72.56
687.28	35.11
687.42	9.36
687.55	0.00
687.69	30.43
687.82	72.56
687.96	60.85
688.10	77.24
688.23	0.00
688.37	79.58
688.50	23.41
688.64	35.11
688.78	42.13
688.91	0.00
689.05	51.49
689.18	2.34
689.32	70.22
689.46	65.54
689.59	0.00
689.73	2.34
689.86	9.36
690.00	84.26
690.13	65.54
690.27	7.02
690.41	0.00
690.54	16.38
690.68	23.41
690.81	39.79
690.95	81.92
691.08	51.49
691.22	18.72
691.35	95.96
691.49	0.00
691.62	0.00
691.76	28.09
691.89	16.38
692.03	67.88
692.16	0.00
692.30	25.75
692.43	23.41
692.57	84.26
692.70	0.00
692.84	14.04
692.97	28.09
693.11	37.45
693.24	84.26
693.38	0.00
693.51	23.41
693.65	11.70
693.78	49.15
693.92	49.15
694.05	21.06
694.19	32.77
694.32	0.00
694.45	2.34
694.59	138.09
694.72	42.13
694.86	72.56
694.99	0.00
695.13	70.22
695.26	65.54
695.39	58.51
695.53	70.22
695.66	37.45
695.80	39.79
695.93	39.79
696.07	44.47
696.20	28.09
696.33	91.28
696.47	39.79
696.60	46.81
696.73	30.43
696.87	70.22
697.00	0.00
697.14	0.00
697.27	81.92
697.40	42.13
697.54	51.49
697.67	98.30
697.80	16.38
697.94	95.96
698.07	42.13
698.21	0.00
698.34	35.11
698.47	0.00
698.61	16.38
698.74	18.72
698.87	0.00
699.01	28.09
699.14	18.72
699.27	11.70
699.40	102.98
699.54	56.17
699.67	42.13
699.80	18.72
699.94	42.13
700.07	4.68
700.20	63.19
700.34	44.47
700.47	0.00
700.60	2.34
700.73	0.00
700.87	21.06
701.00	0.00
701.13	70.22
701.26	74.90
701.40	0.00
701.53	42.13
701.66	37.45
701.79	0.00
701.93	86.60
702.06	9.36
702.19	9.36
702.32	67.88
702.46	42.13
702.59	2.34
702.72	58.51
702.85	39.79
702.99	23.41
703.12	39.79
703.25	126.39
703.38	51.49
703.51	0.00
703.65	46.81
703.78	67.88
703.91	81.92
704.04	0.00
704.17	39.79
704.31	74.90
704.44	2.34
704.57	79.58
704.70	60.85
704.83	21.06
704.96	88.94
705.10	16.38
705.23	14.04
>>>>>End Processed Spectral Data<<<<<
