SpectraSuite Data File
++++++++++++++++++++++++++++++++++++
Date: Fri Oct 04 12:13:38 GMT-05:00 2013
User: price-jones
Dark Spectrum Present: No
Reference Spectrum Present: No
Number of Sampled Component Spectra: 1
Spectrometers: USB2+H05261
Integration Time (usec): 10000 (USB2+H05261)
Spectra Averaged: 1 (USB2+H05261)
Boxcar Smoothing: 0 (USB2+H05261)
Correct for Electrical Dark: No (USB2+H05261)
Strobe/Lamp Enabled: No (USB2+H05261)
Correct for Detector Non-linearity: No (USB2+H05261)
Correct for Stray Light: No (USB2+H05261)
Number of Pixels in Processed Spectrum: 2048
>>>>>Begin Processed Spectral Data<<<<<
365.73	51.49
365.92	51.49
366.12	51.49
366.32	0.00
366.52	0.00
366.72	0.00
366.91	0.00
367.11	0.00
367.31	0.00
367.51	0.00
367.70	0.00
367.90	0.00
368.10	0.00
368.30	0.00
368.49	0.00
368.69	0.00
368.89	0.00
369.09	0.00
369.28	0.00
369.48	0.00
369.68	0.00
369.87	0.00
370.07	0.00
370.27	0.00
370.47	0.00
370.66	23.41
370.86	0.00
371.06	0.00
371.25	0.00
371.45	0.00
371.65	0.00
371.84	0.00
372.04	0.00
372.24	0.00
372.44	0.00
372.63	35.11
372.83	53.83
373.03	23.41
373.22	67.88
373.42	0.00
373.62	4.68
373.81	49.15
374.01	0.00
374.21	0.00
374.40	0.00
374.60	0.00
374.79	0.00
374.99	18.72
375.19	32.77
375.38	46.81
375.58	49.15
375.78	91.28
375.97	51.49
376.17	58.51
376.37	58.51
376.56	9.36
376.76	0.00
376.95	51.49
377.15	72.56
377.35	0.00
377.54	0.00
377.74	49.15
377.93	81.92
378.13	49.15
378.33	81.92
378.52	42.13
378.72	4.68
378.91	23.41
379.11	0.00
379.31	0.00
379.50	0.00
379.70	2.34
379.89	0.00
380.09	18.72
380.28	23.41
380.48	70.22
380.68	70.22
380.87	11.70
381.07	70.22
381.26	32.77
381.46	0.00
381.65	18.72
381.85	35.11
382.04	16.38
382.24	56.17
382.43	0.00
382.63	0.00
382.83	32.77
383.02	25.75
383.22	60.85
383.41	23.41
383.61	39.79
383.80	0.00
384.00	42.13
384.19	14.04
384.39	0.00
384.58	23.41
384.78	72.56
384.97	0.00
385.17	0.00
385.36	0.00
385.56	28.09
385.75	65.54
385.95	2.34
386.14	42.13
386.34	58.51
386.53	0.00
386.72	0.00
386.92	14.04
387.11	0.00
387.31	2.34
387.50	14.04
387.70	0.00
387.89	42.13
388.09	0.00
388.28	32.77
388.48	49.15
388.67	0.00
388.86	53.83
389.06	107.66
389.25	0.00
389.45	0.00
389.64	128.73
389.84	7.02
390.03	0.00
390.22	35.11
390.42	0.00
390.61	0.00
390.81	16.38
391.00	0.00
391.19	42.13
391.39	7.02
391.58	51.49
391.78	0.00
391.97	18.72
392.16	42.13
392.36	44.47
392.55	25.75
392.75	63.19
392.94	0.00
393.13	39.79
393.33	32.77
393.52	14.04
393.71	4.68
393.91	0.00
394.10	14.04
394.29	11.70
394.49	35.11
394.68	37.45
394.88	56.17
395.07	53.83
395.26	32.77
395.46	9.36
395.65	35.11
395.84	9.36
396.04	102.98
396.23	88.94
396.42	49.15
396.62	30.43
396.81	9.36
397.00	2.34
397.19	0.00
397.39	67.88
397.58	46.81
397.77	67.88
397.97	0.00
398.16	0.00
398.35	0.00
398.55	60.85
398.74	28.09
398.93	30.43
399.12	58.51
399.32	7.02
399.51	21.06
399.70	72.56
399.90	46.81
400.09	32.77
400.28	100.64
400.47	35.11
400.67	49.15
400.86	9.36
401.05	42.13
401.24	72.56
401.44	37.45
401.63	0.00
401.82	0.00
402.01	39.79
402.21	0.00
402.40	56.17
402.59	114.69
402.78	0.00
402.97	0.00
403.17	21.06
403.36	42.13
403.55	72.56
403.74	46.81
403.93	32.77
404.13	39.79
404.32	65.54
404.51	39.79
404.70	18.72
404.89	56.17
405.09	46.81
405.28	44.47
405.47	9.36
405.66	58.51
405.85	37.45
406.05	0.00
406.24	37.45
406.43	0.00
406.62	110.01
406.81	16.38
407.00	95.96
407.20	37.45
407.39	14.04
407.58	25.75
407.77	63.19
407.96	0.00
408.15	56.17
408.34	60.85
408.54	39.79
408.73	0.00
408.92	60.85
409.11	49.15
409.30	39.79
409.49	0.00
409.68	72.56
409.87	28.09
410.07	39.79
410.26	11.70
410.45	11.70
410.64	28.09
410.83	9.36
411.02	14.04
411.21	93.62
411.40	58.51
411.59	23.41
411.78	44.47
411.98	37.45
412.17	30.43
412.36	70.22
412.55	70.22
412.74	67.88
412.93	4.68
413.12	37.45
413.31	51.49
413.50	21.06
413.69	42.13
413.88	53.83
414.07	7.02
414.26	0.00
414.45	4.68
414.64	0.00
414.83	23.41
415.02	28.09
415.22	9.36
415.41	42.13
415.60	51.49
415.79	98.30
415.98	63.19
416.17	32.77
416.36	42.13
416.55	35.11
416.74	117.03
416.93	74.90
417.12	44.47
417.31	119.37
417.50	0.00
417.69	142.77
417.88	16.38
418.07	23.41
418.26	0.00
418.45	35.11
418.64	58.51
418.83	9.36
419.02	32.77
419.21	9.36
419.39	88.94
419.58	18.72
419.77	98.30
419.96	79.58
420.15	81.92
420.34	25.75
420.53	21.06
420.72	65.54
420.91	0.00
421.10	30.43
421.29	51.49
421.48	28.09
421.67	25.75
421.86	84.26
422.05	39.79
422.24	77.24
422.43	30.43
422.61	65.54
422.80	56.17
422.99	51.49
423.18	0.00
423.37	37.45
423.56	98.30
423.75	37.45
423.94	0.00
424.13	93.62
424.32	70.22
424.50	18.72
424.69	16.38
424.88	28.09
425.07	46.81
425.26	14.04
425.45	32.77
425.64	0.00
425.83	77.24
426.01	86.60
426.20	72.56
426.39	42.13
426.58	60.85
426.77	44.47
426.96	65.54
427.15	49.15
427.33	70.22
427.52	72.56
427.71	0.00
427.90	65.54
428.09	74.90
428.28	49.15
428.46	67.88
428.65	102.98
428.84	95.96
429.03	60.85
429.22	4.68
429.40	58.51
429.59	65.54
429.78	60.85
429.97	23.41
430.16	65.54
430.34	98.30
430.53	0.00
430.72	32.77
430.91	35.11
431.10	35.11
431.28	121.71
431.47	0.00
431.66	23.41
431.85	28.09
432.03	65.54
432.22	0.00
432.41	16.38
432.60	18.72
432.79	30.43
432.97	63.19
433.16	42.13
433.35	102.98
433.54	28.09
433.72	51.49
433.91	7.02
434.10	32.77
434.28	18.72
434.47	88.94
434.66	107.66
434.85	86.60
435.03	16.38
435.22	65.54
435.41	42.13
435.59	30.43
435.78	65.54
435.97	42.13
436.16	0.00
436.34	53.83
436.53	37.45
436.72	42.13
436.90	32.77
437.09	39.79
437.28	56.17
437.46	18.72
437.65	105.32
437.84	23.41
438.02	28.09
438.21	23.41
438.40	32.77
438.58	60.85
438.77	100.64
438.96	77.24
439.14	56.17
439.33	37.45
439.52	7.02
439.70	86.60
439.89	46.81
440.08	77.24
440.26	60.85
440.45	0.00
440.63	53.83
440.82	112.35
441.01	28.09
441.19	0.00
441.38	72.56
441.57	0.00
441.75	72.56
441.94	14.04
442.12	0.00
442.31	95.96
442.50	100.64
442.68	44.47
442.87	30.43
443.05	63.19
443.24	35.11
443.43	110.01
443.61	72.56
443.80	112.35
443.98	60.85
444.17	21.06
444.35	0.00
444.54	86.60
444.73	72.56
444.91	63.19
445.10	88.94
445.28	0.00
445.47	11.70
445.65	30.43
445.84	37.45
446.02	60.85
446.21	107.66
446.39	72.56
446.58	72.56
446.77	177.88
446.95	56.17
447.14	77.24
447.32	65.54
447.51	14.04
447.69	42.13
447.88	51.49
448.06	42.13
448.25	46.81
448.43	32.77
448.62	35.11
448.80	0.00
448.99	95.96
449.17	58.51
449.36	60.85
449.54	79.58
449.73	72.56
449.91	16.38
450.10	16.38
450.28	74.90
450.46	110.01
450.65	42.13
450.83	86.60
451.02	79.58
451.20	11.70
451.39	63.19
451.57	60.85
451.76	44.47
451.94	67.88
452.13	58.51
452.31	77.24
452.49	35.11
452.68	28.09
452.86	9.36
453.05	46.81
453.23	112.35
453.42	30.43
453.60	70.22
453.78	16.38
453.97	121.71
454.15	102.98
454.34	65.54
454.52	95.96
454.70	114.69
454.89	112.35
455.07	102.98
455.26	23.41
455.44	7.02
455.62	35.11
455.81	124.05
455.99	49.15
456.17	88.94
456.36	86.60
456.54	74.90
456.73	84.26
456.91	65.54
457.09	18.72
457.28	67.88
457.46	14.04
457.64	117.03
457.83	58.51
458.01	145.11
458.19	56.17
458.38	58.51
458.56	7.02
458.74	88.94
458.93	49.15
459.11	16.38
459.29	0.00
459.48	67.88
459.66	84.26
459.84	56.17
460.03	0.00
460.21	110.01
460.39	60.85
460.57	93.62
460.76	110.01
460.94	56.17
461.12	37.45
461.31	63.19
461.49	53.83
461.67	49.15
461.85	32.77
462.04	60.85
462.22	88.94
462.40	107.66
462.59	21.06
462.77	4.68
462.95	37.45
463.13	58.51
463.32	84.26
463.50	77.24
463.68	86.60
463.86	11.70
464.05	56.17
464.23	126.39
464.41	53.83
464.59	63.19
464.78	39.79
464.96	110.01
465.14	81.92
465.32	56.17
465.50	32.77
465.69	84.26
465.87	0.00
466.05	100.64
466.23	102.98
466.41	49.15
466.60	77.24
466.78	60.85
466.96	121.71
467.14	21.06
467.32	44.47
467.51	42.13
467.69	60.85
467.87	67.88
468.05	44.47
468.23	25.75
468.41	79.58
468.60	0.00
468.78	25.75
468.96	25.75
469.14	65.54
469.32	63.19
469.50	16.38
469.69	16.38
469.87	112.35
470.05	37.45
470.23	32.77
470.41	42.13
470.59	112.35
470.77	0.00
470.95	0.00
471.14	72.56
471.32	42.13
471.50	7.02
471.68	70.22
471.86	49.15
472.04	79.58
472.22	32.77
472.40	28.09
472.58	63.19
472.77	84.26
472.95	21.06
473.13	58.51
473.31	60.85
473.49	0.00
473.67	0.00
473.85	30.43
474.03	65.54
474.21	86.60
474.39	0.00
474.57	23.41
474.75	95.96
474.93	95.96
475.12	0.00
475.30	56.17
475.48	112.35
475.66	42.13
475.84	119.37
476.02	0.00
476.20	88.94
476.38	37.45
476.56	86.60
476.74	112.35
476.92	131.07
477.10	140.43
477.28	14.04
477.46	70.22
477.64	60.85
477.82	79.58
478.00	74.90
478.18	11.70
478.36	53.83
478.54	84.26
478.72	93.62
478.90	49.15
479.08	53.83
479.26	121.71
479.44	7.02
479.62	79.58
479.80	53.83
479.98	56.17
480.16	74.90
480.34	46.81
480.52	88.94
480.70	128.73
480.88	58.51
481.06	74.90
481.24	39.79
481.41	39.79
481.59	135.75
481.77	51.49
481.95	77.24
482.13	86.60
482.31	42.13
482.49	105.32
482.67	14.04
482.85	110.01
483.03	184.90
483.21	16.38
483.39	35.11
483.57	72.56
483.74	2.34
483.92	58.51
484.10	46.81
484.28	63.19
484.46	60.85
484.64	28.09
484.82	37.45
485.00	91.28
485.18	65.54
485.35	28.09
485.53	72.56
485.71	81.92
485.89	63.19
486.07	0.00
486.25	46.81
486.43	72.56
486.61	98.30
486.78	65.54
486.96	98.30
487.14	100.64
487.32	88.94
487.50	60.85
487.68	140.43
487.85	102.98
488.03	56.17
488.21	49.15
488.39	56.17
488.57	0.00
488.75	91.28
488.92	67.88
489.10	16.38
489.28	35.11
489.46	72.56
489.64	79.58
489.81	79.58
489.99	25.75
490.17	105.32
490.35	81.92
490.53	93.62
490.70	70.22
490.88	102.98
491.06	84.26
491.24	91.28
491.41	138.09
491.59	145.11
491.77	25.75
491.95	95.96
492.13	39.79
492.30	154.48
492.48	81.92
492.66	51.49
492.84	63.19
493.01	93.62
493.19	30.43
493.37	88.94
493.54	110.01
493.72	51.49
493.90	16.38
494.08	72.56
494.25	98.30
494.43	84.26
494.61	9.36
494.79	53.83
494.96	65.54
495.14	114.69
495.32	145.11
495.49	51.49
495.67	140.43
495.85	65.54
496.02	105.32
496.20	72.56
496.38	53.83
496.55	46.81
496.73	63.19
496.91	88.94
497.09	58.51
497.26	65.54
497.44	74.90
497.62	30.43
497.79	51.49
497.97	32.77
498.14	84.26
498.32	100.64
498.50	67.88
498.67	77.24
498.85	88.94
499.03	21.06
499.20	133.41
499.38	72.56
499.56	98.30
499.73	81.92
499.91	30.43
500.08	67.88
500.26	63.19
500.44	42.13
500.61	79.58
500.79	65.54
500.97	39.79
501.14	77.24
501.32	131.07
501.49	138.09
501.67	177.88
501.84	107.66
502.02	37.45
502.20	30.43
502.37	23.41
502.55	37.45
502.72	84.26
502.90	58.51
503.07	23.41
503.25	107.66
503.43	60.85
503.60	63.19
503.78	86.60
503.95	95.96
504.13	93.62
504.30	58.51
504.48	30.43
504.65	0.00
504.83	117.03
505.01	102.98
505.18	81.92
505.36	39.79
505.53	65.54
505.71	32.77
505.88	74.90
506.06	65.54
506.23	177.88
506.41	60.85
506.58	131.07
506.76	21.06
506.93	32.77
507.11	53.83
507.28	72.56
507.46	0.00
507.63	9.36
507.81	70.22
507.98	107.66
508.16	112.35
508.33	84.26
508.50	23.41
508.68	147.45
508.85	131.07
509.03	128.73
509.20	56.17
509.38	65.54
509.55	107.66
509.73	93.62
509.90	2.34
510.08	53.83
510.25	102.98
510.42	91.28
510.60	91.28
510.77	110.01
510.95	121.71
511.12	70.22
511.30	105.32
511.47	79.58
511.64	58.51
511.82	88.94
511.99	95.96
512.17	58.51
512.34	86.60
512.51	21.06
512.69	102.98
512.86	32.77
513.04	163.84
513.21	35.11
513.38	72.56
513.56	124.05
513.73	131.07
513.90	11.70
514.08	88.94
514.25	39.79
514.43	100.64
514.60	117.03
514.77	7.02
514.95	60.85
515.12	77.24
515.29	110.01
515.47	65.54
515.64	56.17
515.81	53.83
515.99	63.19
516.16	91.28
516.33	23.41
516.51	44.47
516.68	72.56
516.85	37.45
517.03	119.37
517.20	35.11
517.37	86.60
517.54	126.39
517.72	32.77
517.89	53.83
518.06	135.75
518.24	35.11
518.41	84.26
518.58	56.17
518.75	102.98
518.93	124.05
519.10	156.82
519.27	58.51
519.45	93.62
519.62	100.64
519.79	126.39
519.96	110.01
520.14	46.81
520.31	91.28
520.48	72.56
520.65	81.92
520.83	88.94
521.00	84.26
521.17	124.05
521.34	117.03
521.52	147.45
521.69	79.58
521.86	35.11
522.03	21.06
522.20	63.19
522.38	77.24
522.55	35.11
522.72	72.56
522.89	77.24
523.07	117.03
523.24	102.98
523.41	128.73
523.58	114.69
523.75	86.60
523.92	23.41
524.10	11.70
524.27	58.51
524.44	88.94
524.61	133.41
524.78	117.03
524.96	107.66
525.13	138.09
525.30	91.28
525.47	81.92
525.64	156.82
525.81	72.56
525.98	30.43
526.16	30.43
526.33	37.45
526.50	91.28
526.67	67.88
526.84	21.06
527.01	100.64
527.18	74.90
527.36	133.41
527.53	72.56
527.70	93.62
527.87	72.56
528.04	56.17
528.21	77.24
528.38	91.28
528.55	79.58
528.72	107.66
528.89	86.60
529.07	77.24
529.24	135.75
529.41	102.98
529.58	98.30
529.75	117.03
529.92	114.69
530.09	0.00
530.26	67.88
530.43	131.07
530.60	121.71
530.77	156.82
530.94	93.62
531.11	63.19
531.28	105.32
531.46	98.30
531.63	60.85
531.80	100.64
531.97	105.32
532.14	79.58
532.31	98.30
532.48	100.64
532.65	119.37
532.82	140.43
532.99	65.54
533.16	53.83
533.33	60.85
533.50	112.35
533.67	124.05
533.84	110.01
534.01	81.92
534.18	51.49
534.35	93.62
534.52	210.65
534.69	14.04
534.86	126.39
535.03	86.60
535.20	88.94
535.37	84.26
535.54	44.47
535.71	72.56
535.88	133.41
536.05	117.03
536.22	133.41
536.38	86.60
536.55	121.71
536.72	121.71
536.89	63.19
537.06	70.22
537.23	93.62
537.40	32.77
537.57	65.54
537.74	112.35
537.91	70.22
538.08	86.60
538.25	102.98
538.42	42.13
538.59	163.84
538.75	105.32
538.92	224.69
539.09	39.79
539.26	93.62
539.43	105.32
539.60	84.26
539.77	114.69
539.94	35.11
540.11	79.58
540.28	49.15
540.44	102.98
540.61	14.04
540.78	65.54
540.95	14.04
541.12	93.62
541.29	114.69
541.46	95.96
541.62	42.13
541.79	25.75
541.96	18.72
542.13	88.94
542.30	9.36
542.47	161.50
542.63	72.56
542.80	4.68
542.97	67.88
543.14	124.05
543.31	107.66
543.48	84.26
543.64	161.50
543.81	98.30
543.98	112.35
544.15	65.54
544.32	77.24
544.48	145.11
544.65	21.06
544.82	93.62
544.99	63.19
545.16	110.01
545.32	147.45
545.49	44.47
545.66	70.22
545.83	51.49
546.00	124.05
546.16	98.30
546.33	138.09
546.50	84.26
546.67	102.98
546.83	142.77
547.00	67.88
547.17	88.94
547.34	49.15
547.50	56.17
547.67	60.85
547.84	39.79
548.00	105.32
548.17	93.62
548.34	58.51
548.51	67.88
548.67	56.17
548.84	126.39
549.01	51.49
549.18	70.22
549.34	145.11
549.51	63.19
549.68	93.62
549.84	121.71
550.01	42.13
550.18	114.69
550.34	105.32
550.51	39.79
550.68	131.07
550.84	102.98
551.01	107.66
551.18	84.26
551.34	51.49
551.51	58.51
551.68	44.47
551.84	88.94
552.01	70.22
552.18	70.22
552.34	100.64
552.51	70.22
552.68	49.15
552.84	124.05
553.01	72.56
553.18	86.60
553.34	86.60
553.51	79.58
553.67	177.88
553.84	124.05
554.01	107.66
554.17	60.85
554.34	88.94
554.51	145.11
554.67	63.19
554.84	74.90
555.00	35.11
555.17	131.07
555.33	84.26
555.50	128.73
555.67	131.07
555.83	72.56
556.00	86.60
556.16	187.24
556.33	161.50
556.50	58.51
556.66	140.43
556.83	60.85
556.99	154.48
557.16	112.35
557.32	84.26
557.49	98.30
557.65	58.51
557.82	98.30
557.98	93.62
558.15	102.98
558.32	60.85
558.48	98.30
558.65	173.20
558.81	121.71
558.98	175.54
559.14	93.62
559.31	163.84
559.47	98.30
559.64	72.56
559.80	112.35
559.97	119.37
560.13	117.03
560.30	58.51
560.46	49.15
560.63	117.03
560.79	102.98
560.96	98.30
561.12	74.90
561.29	28.09
561.45	74.90
561.61	84.26
561.78	56.17
561.94	44.47
562.11	65.54
562.27	63.19
562.44	53.83
562.60	51.49
562.77	79.58
562.93	49.15
563.10	65.54
563.26	205.97
563.42	28.09
563.59	42.13
563.75	28.09
563.92	7.02
564.08	86.60
564.24	77.24
564.41	70.22
564.57	138.09
564.74	88.94
564.90	77.24
565.07	93.62
565.23	140.43
565.39	79.58
565.56	154.48
565.72	58.51
565.88	53.83
566.05	121.71
566.21	25.75
566.38	112.35
566.54	60.85
566.70	46.81
566.87	44.47
567.03	32.77
567.19	67.88
567.36	163.84
567.52	135.75
567.68	86.60
567.85	70.22
568.01	0.00
568.17	65.54
568.34	39.79
568.50	51.49
568.66	32.77
568.83	46.81
568.99	65.54
569.15	79.58
569.32	110.01
569.48	81.92
569.64	81.92
569.81	53.83
569.97	72.56
570.13	133.41
570.30	37.45
570.46	124.05
570.62	100.64
570.78	25.75
570.95	67.88
571.11	14.04
571.27	91.28
571.43	81.92
571.60	46.81
571.76	102.98
571.92	142.77
572.09	72.56
572.25	154.48
572.41	110.01
572.57	84.26
572.74	2.34
572.90	86.60
573.06	77.24
573.22	121.71
573.38	84.26
573.55	46.81
573.71	51.49
573.87	105.32
574.03	112.35
574.20	102.98
574.36	93.62
574.52	9.36
574.68	44.47
574.84	77.24
575.01	95.96
575.17	21.06
575.33	105.32
575.49	60.85
575.65	163.84
575.82	121.71
575.98	56.17
576.14	0.00
576.30	77.24
576.46	60.85
576.62	84.26
576.79	88.94
576.95	161.50
577.11	86.60
577.27	105.32
577.43	81.92
577.59	9.36
577.75	84.26
577.92	51.49
578.08	79.58
578.24	163.84
578.40	58.51
578.56	145.11
578.72	95.96
578.88	110.01
579.04	32.77
579.21	42.13
579.37	107.66
579.53	131.07
579.69	28.09
579.85	42.13
580.01	119.37
580.17	9.36
580.33	117.03
580.49	44.47
580.65	107.66
580.82	42.13
580.98	100.64
581.14	95.96
581.30	42.13
581.46	67.88
581.62	168.52
581.78	70.22
581.94	70.22
582.10	63.19
582.26	51.49
582.42	98.30
582.58	53.83
582.74	63.19
582.90	70.22
583.06	63.19
583.22	56.17
583.38	60.85
583.54	35.11
583.70	32.77
583.86	42.13
584.02	93.62
584.18	105.32
584.34	91.28
584.50	37.45
584.66	72.56
584.82	42.13
584.98	102.98
585.14	63.19
585.30	35.11
585.46	65.54
585.62	84.26
585.78	63.19
585.94	124.05
586.10	100.64
586.26	60.85
586.42	173.20
586.58	72.56
586.74	37.45
586.90	14.04
587.06	46.81
587.22	49.15
587.38	49.15
587.54	74.90
587.70	63.19
587.86	70.22
588.02	91.28
588.18	63.19
588.34	107.66
588.49	72.56
588.65	37.45
588.81	112.35
588.97	77.24
589.13	32.77
589.29	98.30
589.45	86.60
589.61	65.54
589.77	74.90
589.93	0.00
590.08	72.56
590.24	79.58
590.40	77.24
590.56	51.49
590.72	0.00
590.88	81.92
591.04	74.90
591.20	44.47
591.35	79.58
591.51	77.24
591.67	95.96
591.83	46.81
591.99	35.11
592.15	102.98
592.31	84.26
592.46	95.96
592.62	60.85
592.78	102.98
592.94	117.03
593.10	77.24
593.26	142.77
593.41	0.00
593.57	100.64
593.73	100.64
593.89	95.96
594.05	140.43
594.20	42.13
594.36	39.79
594.52	77.24
594.68	84.26
594.84	105.32
594.99	142.77
595.15	35.11
595.31	77.24
595.47	39.79
595.62	91.28
595.78	74.90
595.94	35.11
596.10	86.60
596.25	0.00
596.41	86.60
596.57	70.22
596.73	79.58
596.88	11.70
597.04	72.56
597.20	102.98
597.36	112.35
597.51	77.24
597.67	42.13
597.83	46.81
597.99	93.62
598.14	23.41
598.30	93.62
598.46	91.28
598.61	84.26
598.77	88.94
598.93	74.90
599.09	63.19
599.24	58.51
599.40	39.79
599.56	117.03
599.71	58.51
599.87	84.26
600.03	46.81
600.18	74.90
600.34	44.47
600.50	67.88
600.65	72.56
600.81	63.19
600.97	63.19
601.12	84.26
601.28	65.54
601.44	42.13
601.59	60.85
601.75	84.26
601.91	56.17
602.06	65.54
602.22	51.49
602.37	44.47
602.53	32.77
602.69	65.54
602.84	72.56
603.00	93.62
603.16	128.73
603.31	39.79
603.47	100.64
603.62	95.96
603.78	131.07
603.94	114.69
604.09	53.83
604.25	67.88
604.40	77.24
604.56	81.92
604.71	117.03
604.87	67.88
605.03	49.15
605.18	98.30
605.34	46.81
605.49	63.19
605.65	105.32
605.80	88.94
605.96	70.22
606.12	51.49
606.27	51.49
606.43	81.92
606.58	91.28
606.74	65.54
606.89	70.22
607.05	72.56
607.20	39.79
607.36	21.06
607.51	126.39
607.67	65.54
607.82	74.90
607.98	84.26
608.13	51.49
608.29	7.02
608.44	0.00
608.60	74.90
608.75	63.19
608.91	7.02
609.06	65.54
609.22	23.41
609.37	44.47
609.53	84.26
609.68	21.06
609.84	0.00
609.99	88.94
610.15	58.51
610.30	0.00
610.46	32.77
610.61	37.45
610.76	70.22
610.92	161.50
611.07	49.15
611.23	67.88
611.38	14.04
611.54	60.85
611.69	23.41
611.84	53.83
612.00	56.17
612.15	0.00
612.31	63.19
612.46	145.11
612.62	51.49
612.77	86.60
612.92	105.32
613.08	18.72
613.23	14.04
613.39	86.60
613.54	65.54
613.69	51.49
613.85	142.77
614.00	51.49
614.15	30.43
614.31	102.98
614.46	81.92
614.62	56.17
614.77	11.70
614.92	42.13
615.08	93.62
615.23	37.45
615.38	67.88
615.54	37.45
615.69	44.47
615.84	58.51
616.00	0.00
616.15	72.56
616.30	0.00
616.46	37.45
616.61	37.45
616.76	119.37
616.92	42.13
617.07	81.92
617.22	4.68
617.37	114.69
617.53	100.64
617.68	112.35
617.83	119.37
617.99	79.58
618.14	60.85
618.29	49.15
618.45	21.06
618.60	53.83
618.75	107.66
618.90	14.04
619.06	95.96
619.21	140.43
619.36	135.75
619.51	25.75
619.67	49.15
619.82	84.26
619.97	39.79
620.12	53.83
620.28	21.06
620.43	49.15
620.58	98.30
620.73	102.98
620.89	39.79
621.04	46.81
621.19	44.47
621.34	79.58
621.49	79.58
621.65	110.01
621.80	32.77
621.95	100.64
622.10	140.43
622.25	53.83
622.41	28.09
622.56	72.56
622.71	51.49
622.86	51.49
623.01	35.11
623.16	32.77
623.32	74.90
623.47	49.15
623.62	58.51
623.77	0.00
623.92	37.45
624.07	110.01
624.23	84.26
624.38	28.09
624.53	39.79
624.68	25.75
624.83	49.15
624.98	126.39
625.13	77.24
625.29	16.38
625.44	18.72
625.59	67.88
625.74	145.11
625.89	65.54
626.04	51.49
626.19	86.60
626.34	18.72
626.49	51.49
626.65	16.38
626.80	114.69
626.95	110.01
627.10	21.06
627.25	91.28
627.40	51.49
627.55	88.94
627.70	105.32
627.85	91.28
628.00	77.24
628.15	91.28
628.30	107.66
628.45	39.79
628.60	28.09
628.76	18.72
628.91	65.54
629.06	51.49
629.21	95.96
629.36	93.62
629.51	74.90
629.66	112.35
629.81	159.16
629.96	102.98
630.11	39.79
630.26	0.00
630.41	79.58
630.56	77.24
630.71	70.22
630.86	56.17
631.01	67.88
631.16	72.56
631.31	42.13
631.46	32.77
631.61	44.47
631.76	42.13
631.91	88.94
632.06	70.22
632.21	140.43
632.36	79.58
632.51	42.13
632.66	100.64
632.81	65.54
632.96	25.75
633.10	30.43
633.25	0.00
633.40	44.47
633.55	74.90
633.70	142.77
633.85	0.00
634.00	30.43
634.15	95.96
634.30	51.49
634.45	84.26
634.60	28.09
634.75	60.85
634.90	63.19
635.05	56.17
635.19	39.79
635.34	56.17
635.49	39.79
635.64	74.90
635.79	39.79
635.94	4.68
636.09	9.36
636.24	60.85
636.39	86.60
636.53	58.51
636.68	35.11
636.83	49.15
636.98	39.79
637.13	60.85
637.28	46.81
637.43	135.75
637.57	72.56
637.72	86.60
637.87	39.79
638.02	65.54
638.17	0.00
638.32	51.49
638.46	37.45
638.61	86.60
638.76	32.77
638.91	49.15
639.06	65.54
639.20	149.79
639.35	74.90
639.50	25.75
639.65	65.54
639.80	79.58
639.94	86.60
640.09	142.77
640.24	58.51
640.39	30.43
640.54	86.60
640.68	100.64
640.83	102.98
640.98	0.00
641.13	88.94
641.27	30.43
641.42	18.72
641.57	128.73
641.72	0.00
641.86	138.09
642.01	107.66
642.16	0.00
642.31	70.22
642.45	72.56
642.60	39.79
642.75	30.43
642.90	102.98
643.04	110.01
643.19	56.17
643.34	72.56
643.48	14.04
643.63	58.51
643.78	121.71
643.93	0.00
644.07	44.47
644.22	14.04
644.37	0.00
644.51	128.73
644.66	0.00
644.81	121.71
644.95	65.54
645.10	46.81
645.25	102.98
645.39	30.43
645.54	98.30
645.69	88.94
645.83	0.00
645.98	51.49
646.13	37.45
646.27	74.90
646.42	7.02
646.57	74.90
646.71	0.00
646.86	46.81
647.00	114.69
647.15	30.43
647.30	67.88
647.44	51.49
647.59	49.15
647.74	37.45
647.88	70.22
648.03	95.96
648.17	25.75
648.32	0.00
648.47	67.88
648.61	28.09
648.76	65.54
648.90	60.85
649.05	49.15
649.20	11.70
649.34	14.04
649.49	9.36
649.63	16.38
649.78	30.43
649.92	23.41
650.07	81.92
650.21	107.66
650.36	58.51
650.51	56.17
650.65	0.00
650.80	107.66
650.94	7.02
651.09	4.68
651.23	51.49
651.38	51.49
651.52	28.09
651.67	0.00
651.81	65.54
651.96	37.45
652.10	32.77
652.25	32.77
652.39	95.96
652.54	72.56
652.68	77.24
652.83	42.13
652.97	39.79
653.12	56.17
653.26	0.00
653.41	30.43
653.55	30.43
653.70	105.32
653.84	79.58
653.99	42.13
654.13	58.51
654.27	121.71
654.42	100.64
654.56	0.00
654.71	51.49
654.85	53.83
655.00	84.26
655.14	49.15
655.29	121.71
655.43	35.11
655.57	67.88
655.72	39.79
655.86	16.38
656.01	51.49
656.15	0.00
656.30	23.41
656.44	60.85
656.58	60.85
656.73	30.43
656.87	39.79
657.01	79.58
657.16	37.45
657.30	32.77
657.45	95.96
657.59	102.98
657.73	42.13
657.88	74.90
658.02	88.94
658.16	49.15
658.31	135.75
658.45	46.81
658.60	11.70
658.74	65.54
658.88	25.75
659.03	0.00
659.17	0.00
659.31	72.56
659.46	102.98
659.60	35.11
659.74	14.04
659.89	79.58
660.03	107.66
660.17	42.13
660.32	39.79
660.46	65.54
660.60	102.98
660.74	56.17
660.89	112.35
661.03	56.17
661.17	63.19
661.32	77.24
661.46	98.30
661.60	102.98
661.74	86.60
661.89	32.77
662.03	42.13
662.17	42.13
662.31	72.56
662.46	37.45
662.60	42.13
662.74	51.49
662.88	77.24
663.03	21.06
663.17	46.81
663.31	102.98
663.45	21.06
663.60	25.75
663.74	39.79
663.88	39.79
664.02	49.15
664.17	35.11
664.31	42.13
664.45	100.64
664.59	72.56
664.73	70.22
664.88	65.54
665.02	77.24
665.16	0.00
665.30	30.43
665.44	32.77
665.59	67.88
665.73	37.45
665.87	63.19
666.01	0.00
666.15	84.26
666.29	18.72
666.44	142.77
666.58	51.49
666.72	93.62
666.86	63.19
667.00	39.79
667.14	0.00
667.28	0.00
667.43	74.90
667.57	11.70
667.71	72.56
667.85	117.03
667.99	112.35
668.13	11.70
668.27	32.77
668.41	114.69
668.56	49.15
668.70	91.28
668.84	84.26
668.98	105.32
669.12	7.02
669.26	88.94
669.40	51.49
669.54	86.60
669.68	0.00
669.82	42.13
669.96	84.26
670.10	58.51
670.25	0.00
670.39	28.09
670.53	35.11
670.67	135.75
670.81	77.24
670.95	98.30
671.09	58.51
671.23	39.79
671.37	25.75
671.51	46.81
671.65	4.68
671.79	107.66
671.93	37.45
672.07	35.11
672.21	42.13
672.35	18.72
672.49	63.19
672.63	42.13
672.77	86.60
672.91	117.03
673.05	0.00
673.19	16.38
673.33	119.37
673.47	56.17
673.61	84.26
673.75	56.17
673.89	0.00
674.03	56.17
674.17	49.15
674.31	14.04
674.45	18.72
674.59	93.62
674.73	58.51
674.87	0.00
675.01	72.56
675.15	107.66
675.29	0.00
675.43	67.88
675.56	58.51
675.70	7.02
675.84	84.26
675.98	25.75
676.12	37.45
676.26	74.90
676.40	77.24
676.54	63.19
676.68	65.54
676.82	42.13
676.96	117.03
677.10	0.00
677.23	4.68
677.37	63.19
677.51	7.02
677.65	23.41
677.79	35.11
677.93	7.02
678.07	70.22
678.21	28.09
678.34	121.71
678.48	32.77
678.62	0.00
678.76	72.56
678.90	65.54
679.04	18.72
679.18	0.00
679.31	30.43
679.45	32.77
679.59	42.13
679.73	53.83
679.87	88.94
680.00	93.62
680.14	98.30
680.28	81.92
680.42	9.36
680.56	9.36
680.70	51.49
680.83	32.77
680.97	65.54
681.11	16.38
681.25	81.92
681.39	14.04
681.52	4.68
681.66	154.48
681.80	88.94
681.94	42.13
682.07	95.96
682.21	9.36
682.35	42.13
682.49	88.94
682.62	37.45
682.76	0.00
682.90	0.00
683.04	4.68
683.17	0.00
683.31	9.36
683.45	35.11
683.59	72.56
683.72	37.45
683.86	72.56
684.00	46.81
684.13	70.22
684.27	0.00
684.41	0.00
684.55	25.75
684.68	51.49
684.82	67.88
684.96	135.75
685.09	32.77
685.23	0.00
685.37	56.17
685.50	0.00
685.64	0.00
685.78	35.11
685.91	21.06
686.05	28.09
686.19	0.00
686.32	56.17
686.46	46.81
686.60	46.81
686.73	56.17
686.87	9.36
687.01	42.13
687.14	0.00
687.28	16.38
687.42	93.62
687.55	46.81
687.69	63.19
687.82	0.00
687.96	84.26
688.10	51.49
688.23	46.81
688.37	77.24
688.50	56.17
688.64	30.43
688.78	77.24
688.91	0.00
689.05	56.17
689.18	30.43
689.32	65.54
689.46	4.68
689.59	0.00
689.73	119.37
689.86	70.22
690.00	53.83
690.13	84.26
690.27	74.90
690.41	67.88
690.54	72.56
690.68	72.56
690.81	0.00
690.95	49.15
691.08	42.13
691.22	100.64
691.35	23.41
691.49	39.79
691.62	0.00
691.76	0.00
691.89	9.36
692.03	77.24
692.16	156.82
692.30	72.56
692.43	0.00
692.57	46.81
692.70	56.17
692.84	60.85
692.97	0.00
693.11	30.43
693.24	53.83
693.38	37.45
693.51	16.38
693.65	25.75
693.78	51.49
693.92	9.36
694.05	32.77
694.19	42.13
694.32	49.15
694.45	44.47
694.59	0.00
694.72	60.85
694.86	32.77
694.99	51.49
695.13	74.90
695.26	0.00
695.39	70.22
695.53	0.00
695.66	9.36
695.80	60.85
695.93	58.51
696.07	70.22
696.20	58.51
696.33	60.85
696.47	0.00
696.60	11.70
696.73	7.02
696.87	84.26
697.00	30.43
697.14	117.03
697.27	42.13
697.40	53.83
697.54	32.77
697.67	51.49
697.80	21.06
697.94	0.00
698.07	58.51
698.21	0.00
698.34	23.41
698.47	49.15
698.61	79.58
698.74	72.56
698.87	51.49
699.01	102.98
699.14	32.77
699.27	58.51
699.40	70.22
699.54	11.70
699.67	0.00
699.80	30.43
699.94	16.38
700.07	21.06
700.20	18.72
700.34	32.77
700.47	98.30
700.60	0.00
700.73	42.13
700.87	0.00
701.00	0.00
701.13	2.34
701.26	60.85
701.40	25.75
701.53	21.06
701.66	18.72
701.79	30.43
701.93	9.36
702.06	23.41
702.19	0.00
702.32	32.77
702.46	2.34
702.59	42.13
702.72	16.38
702.85	60.85
702.99	7.02
703.12	0.00
703.25	0.00
703.38	25.75
703.51	23.41
703.65	0.00
703.78	30.43
703.91	25.75
704.04	0.00
704.17	4.68
704.31	79.58
704.44	23.41
704.57	128.73
704.70	28.09
704.83	0.00
704.96	0.00
705.10	25.75
705.23	7.02
>>>>>End Processed Spectral Data<<<<<
