SpectraSuite Data File
++++++++++++++++++++++++++++++++++++
Date: Fri Oct 04 12:13:45 GMT-05:00 2013
User: price-jones
Dark Spectrum Present: No
Reference Spectrum Present: No
Number of Sampled Component Spectra: 1
Spectrometers: USB2+H05261
Integration Time (usec): 10000 (USB2+H05261)
Spectra Averaged: 1 (USB2+H05261)
Boxcar Smoothing: 0 (USB2+H05261)
Correct for Electrical Dark: No (USB2+H05261)
Strobe/Lamp Enabled: No (USB2+H05261)
Correct for Detector Non-linearity: No (USB2+H05261)
Correct for Stray Light: No (USB2+H05261)
Number of Pixels in Processed Spectrum: 2048
>>>>>Begin Processed Spectral Data<<<<<
365.73	0.00
365.92	0.00
366.12	0.00
366.32	0.00
366.52	0.00
366.72	0.00
366.91	0.00
367.11	0.00
367.31	0.00
367.51	0.00
367.70	0.00
367.90	0.00
368.10	0.00
368.30	0.00
368.49	0.00
368.69	0.00
368.89	0.00
369.09	0.00
369.28	0.00
369.48	0.00
369.68	0.00
369.87	0.00
370.07	0.00
370.27	0.00
370.47	0.00
370.66	0.00
370.86	0.00
371.06	11.70
371.25	0.00
371.45	0.00
371.65	0.00
371.84	0.00
372.04	0.00
372.24	2.34
372.44	0.00
372.63	0.00
372.83	35.11
373.03	16.38
373.22	49.15
373.42	25.75
373.62	60.85
373.81	35.11
374.01	121.71
374.21	2.34
374.40	70.22
374.60	11.70
374.79	58.51
374.99	35.11
375.19	42.13
375.38	77.24
375.58	9.36
375.78	21.06
375.97	77.24
376.17	46.81
376.37	60.85
376.56	88.94
376.76	14.04
376.95	0.00
377.15	37.45
377.35	0.00
377.54	65.54
377.74	25.75
377.93	51.49
378.13	60.85
378.33	37.45
378.52	46.81
378.72	95.96
378.91	0.00
379.11	30.43
379.31	65.54
379.50	72.56
379.70	25.75
379.89	14.04
380.09	32.77
380.28	0.00
380.48	25.75
380.68	0.00
380.87	0.00
381.07	72.56
381.26	16.38
381.46	51.49
381.65	0.00
381.85	60.85
382.04	28.09
382.24	74.90
382.43	16.38
382.63	16.38
382.83	53.83
383.02	18.72
383.22	42.13
383.41	51.49
383.61	0.00
383.80	0.00
384.00	44.47
384.19	0.00
384.39	18.72
384.58	56.17
384.78	70.22
384.97	18.72
385.17	16.38
385.36	60.85
385.56	58.51
385.75	117.03
385.95	0.00
386.14	0.00
386.34	0.00
386.53	37.45
386.72	0.00
386.92	0.00
387.11	0.00
387.31	18.72
387.50	0.00
387.70	0.00
387.89	51.49
388.09	0.00
388.28	16.38
388.48	0.00
388.67	7.02
388.86	0.00
389.06	44.47
389.25	77.24
389.45	0.00
389.64	21.06
389.84	58.51
390.03	16.38
390.22	23.41
390.42	77.24
390.61	44.47
390.81	14.04
391.00	14.04
391.19	44.47
391.39	42.13
391.58	0.00
391.78	7.02
391.97	0.00
392.16	7.02
392.36	72.56
392.55	0.00
392.75	4.68
392.94	28.09
393.13	84.26
393.33	0.00
393.52	44.47
393.71	18.72
393.91	9.36
394.10	4.68
394.29	44.47
394.49	0.00
394.68	0.00
394.88	51.49
395.07	0.00
395.26	23.41
395.46	30.43
395.65	98.30
395.84	9.36
396.04	93.62
396.23	72.56
396.42	14.04
396.62	0.00
396.81	7.02
397.00	30.43
397.19	28.09
397.39	0.00
397.58	28.09
397.77	14.04
397.97	21.06
398.16	0.00
398.35	28.09
398.55	25.75
398.74	4.68
398.93	14.04
399.12	0.00
399.32	4.68
399.51	4.68
399.70	0.00
399.90	46.81
400.09	4.68
400.28	42.13
400.47	9.36
400.67	51.49
400.86	0.00
401.05	53.83
401.24	16.38
401.44	39.79
401.63	0.00
401.82	28.09
402.01	39.79
402.21	0.00
402.40	60.85
402.59	70.22
402.78	46.81
402.97	32.77
403.17	53.83
403.36	0.00
403.55	0.00
403.74	39.79
403.93	0.00
404.13	28.09
404.32	32.77
404.51	72.56
404.70	0.00
404.89	0.00
405.09	42.13
405.28	28.09
405.47	77.24
405.66	9.36
405.85	11.70
406.05	53.83
406.24	0.00
406.43	0.00
406.62	105.32
406.81	98.30
407.00	23.41
407.20	65.54
407.39	21.06
407.58	84.26
407.77	14.04
407.96	56.17
408.15	4.68
408.34	37.45
408.54	46.81
408.73	14.04
408.92	0.00
409.11	0.00
409.30	16.38
409.49	4.68
409.68	51.49
409.87	74.90
410.07	0.00
410.26	49.15
410.45	9.36
410.64	46.81
410.83	0.00
411.02	7.02
411.21	23.41
411.40	63.19
411.59	0.00
411.78	9.36
411.98	0.00
412.17	0.00
412.36	23.41
412.55	0.00
412.74	51.49
412.93	0.00
413.12	70.22
413.31	56.17
413.50	4.68
413.69	25.75
413.88	0.00
414.07	0.00
414.26	0.00
414.45	98.30
414.64	0.00
414.83	18.72
415.02	49.15
415.22	0.00
415.41	35.11
415.60	0.00
415.79	37.45
415.98	18.72
416.17	28.09
416.36	0.00
416.55	39.79
416.74	14.04
416.93	124.05
417.12	63.19
417.31	35.11
417.50	0.00
417.69	44.47
417.88	0.00
418.07	4.68
418.26	65.54
418.45	65.54
418.64	39.79
418.83	0.00
419.02	0.00
419.21	0.00
419.39	53.83
419.58	0.00
419.77	56.17
419.96	23.41
420.15	60.85
420.34	44.47
420.53	14.04
420.72	0.00
420.91	28.09
421.10	49.15
421.29	25.75
421.48	16.38
421.67	21.06
421.86	74.90
422.05	14.04
422.24	0.00
422.43	42.13
422.61	23.41
422.80	28.09
422.99	25.75
423.18	49.15
423.37	37.45
423.56	30.43
423.75	114.69
423.94	0.00
424.13	39.79
424.32	42.13
424.50	72.56
424.69	21.06
424.88	67.88
425.07	88.94
425.26	18.72
425.45	0.00
425.64	9.36
425.83	0.00
426.01	53.83
426.20	30.43
426.39	58.51
426.58	37.45
426.77	18.72
426.96	2.34
427.15	58.51
427.33	86.60
427.52	0.00
427.71	60.85
427.90	46.81
428.09	51.49
428.28	42.13
428.46	4.68
428.65	25.75
428.84	49.15
429.03	14.04
429.22	39.79
429.40	0.00
429.59	0.00
429.78	0.00
429.97	42.13
430.16	0.00
430.34	18.72
430.53	16.38
430.72	58.51
430.91	2.34
431.10	30.43
431.28	0.00
431.47	67.88
431.66	0.00
431.85	51.49
432.03	9.36
432.22	42.13
432.41	145.11
432.60	46.81
432.79	74.90
432.97	11.70
433.16	0.00
433.35	0.00
433.54	56.17
433.72	37.45
433.91	44.47
434.10	35.11
434.28	147.45
434.47	0.00
434.66	0.00
434.85	46.81
435.03	166.18
435.22	67.88
435.41	0.00
435.59	53.83
435.78	60.85
435.97	14.04
436.16	100.64
436.34	32.77
436.53	23.41
436.72	51.49
436.90	42.13
437.09	30.43
437.28	25.75
437.46	46.81
437.65	30.43
437.84	100.64
438.02	77.24
438.21	44.47
438.40	21.06
438.58	53.83
438.77	42.13
438.96	84.26
439.14	39.79
439.33	28.09
439.52	32.77
439.70	42.13
439.89	63.19
440.08	14.04
440.26	114.69
440.45	14.04
440.63	32.77
440.82	11.70
441.01	0.00
441.19	0.00
441.38	18.72
441.57	16.38
441.75	30.43
441.94	65.54
442.12	23.41
442.31	11.70
442.50	14.04
442.68	72.56
442.87	30.43
443.05	63.19
443.24	91.28
443.43	0.00
443.61	25.75
443.80	70.22
443.98	100.64
444.17	72.56
444.35	18.72
444.54	100.64
444.73	18.72
444.91	100.64
445.10	63.19
445.28	0.00
445.47	30.43
445.65	0.00
445.84	37.45
446.02	100.64
446.21	14.04
446.39	32.77
446.58	42.13
446.77	114.69
446.95	35.11
447.14	65.54
447.32	14.04
447.51	39.79
447.69	0.00
447.88	35.11
448.06	2.34
448.25	28.09
448.43	42.13
448.62	28.09
448.80	30.43
448.99	0.00
449.17	84.26
449.36	42.13
449.54	25.75
449.73	74.90
449.91	53.83
450.10	18.72
450.28	0.00
450.46	0.00
450.65	18.72
450.83	9.36
451.02	37.45
451.20	102.98
451.39	28.09
451.57	79.58
451.76	88.94
451.94	0.00
452.13	46.81
452.31	30.43
452.49	30.43
452.68	35.11
452.86	23.41
453.05	11.70
453.23	49.15
453.42	14.04
453.60	79.58
453.78	86.60
453.97	23.41
454.15	51.49
454.34	0.00
454.52	37.45
454.70	0.00
454.89	51.49
455.07	11.70
455.26	100.64
455.44	105.32
455.62	58.51
455.81	32.77
455.99	28.09
456.17	51.49
456.36	0.00
456.54	100.64
456.73	25.75
456.91	0.00
457.09	58.51
457.28	28.09
457.46	46.81
457.64	0.00
457.83	39.79
458.01	18.72
458.19	21.06
458.38	23.41
458.56	0.00
458.74	56.17
458.93	30.43
459.11	37.45
459.29	0.00
459.48	18.72
459.66	124.05
459.84	88.94
460.03	65.54
460.21	11.70
460.39	86.60
460.57	0.00
460.76	0.00
460.94	7.02
461.12	63.19
461.31	42.13
461.49	60.85
461.67	18.72
461.85	93.62
462.04	25.75
462.22	114.69
462.40	16.38
462.59	0.00
462.77	95.96
462.95	0.00
463.13	16.38
463.32	65.54
463.50	0.00
463.68	46.81
463.86	72.56
464.05	44.47
464.23	39.79
464.41	0.00
464.59	18.72
464.78	44.47
464.96	32.77
465.14	0.00
465.32	88.94
465.50	0.00
465.69	9.36
465.87	0.00
466.05	0.00
466.23	44.47
466.41	0.00
466.60	67.88
466.78	0.00
466.96	100.64
467.14	44.47
467.32	28.09
467.51	0.00
467.69	9.36
467.87	0.00
468.05	84.26
468.23	0.00
468.41	11.70
468.60	42.13
468.78	56.17
468.96	42.13
469.14	16.38
469.32	0.00
469.50	30.43
469.69	18.72
469.87	11.70
470.05	44.47
470.23	16.38
470.41	25.75
470.59	42.13
470.77	81.92
470.95	0.00
471.14	4.68
471.32	100.64
471.50	74.90
471.68	88.94
471.86	42.13
472.04	67.88
472.22	39.79
472.40	86.60
472.58	35.11
472.77	7.02
472.95	0.00
473.13	30.43
473.31	119.37
473.49	88.94
473.67	35.11
473.85	32.77
474.03	49.15
474.21	16.38
474.39	37.45
474.57	42.13
474.75	0.00
474.93	58.51
475.12	86.60
475.30	105.32
475.48	72.56
475.66	63.19
475.84	30.43
476.02	25.75
476.20	0.00
476.38	42.13
476.56	4.68
476.74	9.36
476.92	0.00
477.10	32.77
477.28	28.09
477.46	81.92
477.64	53.83
477.82	37.45
478.00	119.37
478.18	0.00
478.36	30.43
478.54	11.70
478.72	56.17
478.90	28.09
479.08	42.13
479.26	65.54
479.44	30.43
479.62	0.00
479.80	56.17
479.98	16.38
480.16	11.70
480.34	58.51
480.52	51.49
480.70	23.41
480.88	25.75
481.06	79.58
481.24	58.51
481.41	105.32
481.59	56.17
481.77	0.00
481.95	14.04
482.13	2.34
482.31	84.26
482.49	63.19
482.67	110.01
482.85	25.75
483.03	0.00
483.21	86.60
483.39	28.09
483.57	37.45
483.74	107.66
483.92	79.58
484.10	67.88
484.28	25.75
484.46	65.54
484.64	114.69
484.82	0.00
485.00	79.58
485.18	126.39
485.35	0.00
485.53	25.75
485.71	30.43
485.89	65.54
486.07	67.88
486.25	30.43
486.43	65.54
486.61	23.41
486.78	32.77
486.96	7.02
487.14	32.77
487.32	112.35
487.50	67.88
487.68	84.26
487.85	32.77
488.03	100.64
488.21	23.41
488.39	121.71
488.57	32.77
488.75	0.00
488.92	25.75
489.10	32.77
489.28	23.41
489.46	100.64
489.64	49.15
489.81	32.77
489.99	117.03
490.17	30.43
490.35	56.17
490.53	53.83
490.70	53.83
490.88	28.09
491.06	46.81
491.24	58.51
491.41	9.36
491.59	53.83
491.77	30.43
491.95	60.85
492.13	51.49
492.30	67.88
492.48	70.22
492.66	0.00
492.84	70.22
493.01	23.41
493.19	119.37
493.37	39.79
493.54	0.00
493.72	35.11
493.90	46.81
494.08	28.09
494.25	4.68
494.43	51.49
494.61	56.17
494.79	91.28
494.96	2.34
495.14	11.70
495.32	4.68
495.49	88.94
495.67	46.81
495.85	0.00
496.02	67.88
496.20	63.19
496.38	0.00
496.55	70.22
496.73	93.62
496.91	95.96
497.09	44.47
497.26	107.66
497.44	42.13
497.62	65.54
497.79	70.22
497.97	23.41
498.14	39.79
498.32	14.04
498.50	65.54
498.67	32.77
498.85	9.36
499.03	18.72
499.20	72.56
499.38	56.17
499.56	18.72
499.73	70.22
499.91	67.88
500.08	86.60
500.26	84.26
500.44	16.38
500.61	72.56
500.79	14.04
500.97	114.69
501.14	60.85
501.32	67.88
501.49	0.00
501.67	39.79
501.84	79.58
502.02	2.34
502.20	39.79
502.37	49.15
502.55	14.04
502.72	0.00
502.90	0.00
503.07	2.34
503.25	95.96
503.43	0.00
503.60	0.00
503.78	65.54
503.95	81.92
504.13	49.15
504.30	72.56
504.48	16.38
504.65	86.60
504.83	0.00
505.01	0.00
505.18	21.06
505.36	0.00
505.53	51.49
505.71	0.00
505.88	16.38
506.06	49.15
506.23	84.26
506.41	35.11
506.58	88.94
506.76	56.17
506.93	2.34
507.11	11.70
507.28	67.88
507.46	0.00
507.63	42.13
507.81	23.41
507.98	0.00
508.16	67.88
508.33	0.00
508.50	23.41
508.68	51.49
508.85	65.54
509.03	16.38
509.20	84.26
509.38	91.28
509.55	0.00
509.73	84.26
509.90	53.83
510.08	4.68
510.25	65.54
510.42	72.56
510.60	44.47
510.77	42.13
510.95	16.38
511.12	56.17
511.30	16.38
511.47	112.35
511.64	49.15
511.82	37.45
511.99	28.09
512.17	25.75
512.34	53.83
512.51	0.00
512.69	37.45
512.86	35.11
513.04	60.85
513.21	0.00
513.38	28.09
513.56	35.11
513.73	72.56
513.90	37.45
514.08	37.45
514.25	56.17
514.43	56.17
514.60	30.43
514.77	0.00
514.95	37.45
515.12	0.00
515.29	51.49
515.47	112.35
515.64	56.17
515.81	91.28
515.99	44.47
516.16	25.75
516.33	63.19
516.51	63.19
516.68	0.00
516.85	0.00
517.03	49.15
517.20	60.85
517.37	35.11
517.54	32.77
517.72	42.13
517.89	18.72
518.06	65.54
518.24	79.58
518.41	0.00
518.58	35.11
518.75	30.43
518.93	39.79
519.10	16.38
519.27	46.81
519.45	0.00
519.62	53.83
519.79	74.90
519.96	46.81
520.14	84.26
520.31	37.45
520.48	44.47
520.65	35.11
520.83	60.85
521.00	39.79
521.17	86.60
521.34	100.64
521.52	88.94
521.69	51.49
521.86	58.51
522.03	100.64
522.20	79.58
522.38	91.28
522.55	140.43
522.72	88.94
522.89	42.13
523.07	0.00
523.24	44.47
523.41	25.75
523.58	49.15
523.75	0.00
523.92	79.58
524.10	32.77
524.27	42.13
524.44	39.79
524.61	81.92
524.78	9.36
524.96	39.79
525.13	79.58
525.30	0.00
525.47	60.85
525.64	126.39
525.81	14.04
525.98	0.00
526.16	16.38
526.33	58.51
526.50	42.13
526.67	56.17
526.84	44.47
527.01	35.11
527.18	42.13
527.36	93.62
527.53	72.56
527.70	39.79
527.87	58.51
528.04	60.85
528.21	51.49
528.38	18.72
528.55	0.00
528.72	14.04
528.89	154.48
529.07	79.58
529.24	30.43
529.41	11.70
529.58	9.36
529.75	84.26
529.92	28.09
530.09	11.70
530.26	18.72
530.43	65.54
530.60	0.00
530.77	67.88
530.94	56.17
531.11	35.11
531.28	44.47
531.46	23.41
531.63	65.54
531.80	37.45
531.97	95.96
532.14	9.36
532.31	67.88
532.48	21.06
532.65	60.85
532.82	30.43
532.99	77.24
533.16	37.45
533.33	37.45
533.50	32.77
533.67	35.11
533.84	67.88
534.01	0.00
534.18	18.72
534.35	72.56
534.52	35.11
534.69	70.22
534.86	35.11
535.03	79.58
535.20	58.51
535.37	74.90
535.54	21.06
535.71	58.51
535.88	0.00
536.05	70.22
536.22	70.22
536.38	16.38
536.55	46.81
536.72	56.17
536.89	70.22
537.06	58.51
537.23	11.70
537.40	79.58
537.57	0.00
537.74	42.13
537.91	32.77
538.08	93.62
538.25	84.26
538.42	65.54
538.59	39.79
538.75	100.64
538.92	112.35
539.09	79.58
539.26	65.54
539.43	60.85
539.60	11.70
539.77	39.79
539.94	16.38
540.11	67.88
540.28	42.13
540.44	30.43
540.61	65.54
540.78	0.00
540.95	84.26
541.12	21.06
541.29	79.58
541.46	93.62
541.62	51.49
541.79	67.88
541.96	84.26
542.13	44.47
542.30	117.03
542.47	46.81
542.63	0.00
542.80	56.17
542.97	0.00
543.14	98.30
543.31	67.88
543.48	58.51
543.64	18.72
543.81	30.43
543.98	79.58
544.15	72.56
544.32	42.13
544.48	4.68
544.65	37.45
544.82	53.83
544.99	44.47
545.16	2.34
545.32	39.79
545.49	58.51
545.66	35.11
545.83	72.56
546.00	46.81
546.16	88.94
546.33	70.22
546.50	11.70
546.67	100.64
546.83	0.00
547.00	35.11
547.17	79.58
547.34	74.90
547.50	81.92
547.67	58.51
547.84	51.49
548.00	0.00
548.17	18.72
548.34	107.66
548.51	49.15
548.67	0.00
548.84	84.26
549.01	0.00
549.18	9.36
549.34	95.96
549.51	58.51
549.68	91.28
549.84	77.24
550.01	65.54
550.18	49.15
550.34	72.56
550.51	46.81
550.68	35.11
550.84	91.28
551.01	81.92
551.18	42.13
551.34	42.13
551.51	74.90
551.68	63.19
551.84	0.00
552.01	0.00
552.18	112.35
552.34	21.06
552.51	0.00
552.68	0.00
552.84	70.22
553.01	49.15
553.18	65.54
553.34	28.09
553.51	53.83
553.67	32.77
553.84	60.85
554.01	51.49
554.17	44.47
554.34	81.92
554.51	0.00
554.67	49.15
554.84	44.47
555.00	42.13
555.17	53.83
555.33	35.11
555.50	4.68
555.67	49.15
555.83	91.28
556.00	46.81
556.16	14.04
556.33	79.58
556.50	93.62
556.66	49.15
556.83	72.56
556.99	0.00
557.16	23.41
557.32	30.43
557.49	35.11
557.65	25.75
557.82	46.81
557.98	114.69
558.15	126.39
558.32	28.09
558.48	60.85
558.65	56.17
558.81	42.13
558.98	117.03
559.14	110.01
559.31	145.11
559.47	35.11
559.64	0.00
559.80	0.00
559.97	39.79
560.13	23.41
560.30	9.36
560.46	9.36
560.63	30.43
560.79	100.64
560.96	39.79
561.12	0.00
561.29	56.17
561.45	7.02
561.61	77.24
561.78	95.96
561.94	74.90
562.11	74.90
562.27	46.81
562.44	0.00
562.60	0.00
562.77	9.36
562.93	74.90
563.10	0.00
563.26	0.00
563.42	60.85
563.59	14.04
563.75	32.77
563.92	14.04
564.08	0.00
564.24	79.58
564.41	49.15
564.57	0.00
564.74	53.83
564.90	35.11
565.07	14.04
565.23	18.72
565.39	0.00
565.56	53.83
565.72	44.47
565.88	14.04
566.05	126.39
566.21	23.41
566.38	65.54
566.54	0.00
566.70	70.22
566.87	2.34
567.03	0.00
567.19	58.51
567.36	77.24
567.52	77.24
567.68	0.00
567.85	30.43
568.01	60.85
568.17	46.81
568.34	30.43
568.50	53.83
568.66	107.66
568.83	77.24
568.99	56.17
569.15	49.15
569.32	28.09
569.48	56.17
569.64	65.54
569.81	35.11
569.97	53.83
570.13	74.90
570.30	7.02
570.46	56.17
570.62	0.00
570.78	124.05
570.95	70.22
571.11	77.24
571.27	46.81
571.43	63.19
571.60	81.92
571.76	0.00
571.92	86.60
572.09	32.77
572.25	70.22
572.41	32.77
572.57	84.26
572.74	0.00
572.90	58.51
573.06	23.41
573.22	86.60
573.38	25.75
573.55	58.51
573.71	149.79
573.87	81.92
574.03	35.11
574.20	53.83
574.36	35.11
574.52	21.06
574.68	14.04
574.84	67.88
575.01	58.51
575.17	81.92
575.33	65.54
575.49	28.09
575.65	42.13
575.82	60.85
575.98	51.49
576.14	86.60
576.30	91.28
576.46	81.92
576.62	93.62
576.79	7.02
576.95	58.51
577.11	11.70
577.27	0.00
577.43	86.60
577.59	79.58
577.75	37.45
577.92	102.98
578.08	28.09
578.24	81.92
578.40	51.49
578.56	74.90
578.72	77.24
578.88	0.00
579.04	65.54
579.21	11.70
579.37	49.15
579.53	100.64
579.69	60.85
579.85	88.94
580.01	7.02
580.17	0.00
580.33	37.45
580.49	72.56
580.65	21.06
580.82	67.88
580.98	49.15
581.14	42.13
581.30	23.41
581.46	18.72
581.62	39.79
581.78	107.66
581.94	39.79
582.10	0.00
582.26	0.00
582.42	63.19
582.58	79.58
582.74	2.34
582.90	35.11
583.06	53.83
583.22	63.19
583.38	74.90
583.54	100.64
583.70	16.38
583.86	0.00
584.02	67.88
584.18	53.83
584.34	51.49
584.50	84.26
584.66	2.34
584.82	14.04
584.98	0.00
585.14	0.00
585.30	65.54
585.46	74.90
585.62	37.45
585.78	4.68
585.94	56.17
586.10	53.83
586.26	42.13
586.42	58.51
586.58	81.92
586.74	14.04
586.90	0.00
587.06	0.00
587.22	25.75
587.38	0.00
587.54	112.35
587.70	77.24
587.86	37.45
588.02	77.24
588.18	28.09
588.34	14.04
588.49	18.72
588.65	2.34
588.81	49.15
588.97	86.60
589.13	49.15
589.29	28.09
589.45	102.98
589.61	0.00
589.77	32.77
589.93	51.49
590.08	30.43
590.24	0.00
590.40	0.00
590.56	16.38
590.72	74.90
590.88	0.00
591.04	70.22
591.20	21.06
591.35	49.15
591.51	58.51
591.67	95.96
591.83	0.00
591.99	42.13
592.15	84.26
592.31	58.51
592.46	0.00
592.62	74.90
592.78	39.79
592.94	11.70
593.10	53.83
593.26	14.04
593.41	18.72
593.57	37.45
593.73	32.77
593.89	84.26
594.05	42.13
594.20	56.17
594.36	72.56
594.52	46.81
594.68	0.00
594.84	67.88
594.99	18.72
595.15	35.11
595.31	0.00
595.47	65.54
595.62	93.62
595.78	0.00
595.94	0.00
596.10	30.43
596.25	93.62
596.41	44.47
596.57	32.77
596.73	0.00
596.88	110.01
597.04	0.00
597.20	14.04
597.36	18.72
597.51	93.62
597.67	60.85
597.83	28.09
597.99	28.09
598.14	81.92
598.30	0.00
598.46	119.37
598.61	58.51
598.77	67.88
598.93	107.66
599.09	35.11
599.24	35.11
599.40	0.00
599.56	37.45
599.71	46.81
599.87	0.00
600.03	28.09
600.18	63.19
600.34	21.06
600.50	32.77
600.65	46.81
600.81	77.24
600.97	28.09
601.12	63.19
601.28	16.38
601.44	60.85
601.59	0.00
601.75	105.32
601.91	0.00
602.06	56.17
602.22	95.96
602.37	107.66
602.53	98.30
602.69	28.09
602.84	0.00
603.00	46.81
603.16	67.88
603.31	11.70
603.47	23.41
603.62	37.45
603.78	11.70
603.94	131.07
604.09	86.60
604.25	30.43
604.40	46.81
604.56	60.85
604.71	51.49
604.87	4.68
605.03	9.36
605.18	4.68
605.34	0.00
605.49	49.15
605.65	42.13
605.80	37.45
605.96	0.00
606.12	51.49
606.27	100.64
606.43	30.43
606.58	72.56
606.74	56.17
606.89	0.00
607.05	35.11
607.20	114.69
607.36	65.54
607.51	49.15
607.67	9.36
607.82	70.22
607.98	39.79
608.13	0.00
608.29	30.43
608.44	65.54
608.60	23.41
608.75	65.54
608.91	107.66
609.06	11.70
609.22	0.00
609.37	42.13
609.53	102.98
609.68	77.24
609.84	39.79
609.99	9.36
610.15	35.11
610.30	18.72
610.46	102.98
610.61	58.51
610.76	51.49
610.92	39.79
611.07	25.75
611.23	51.49
611.38	35.11
611.54	107.66
611.69	0.00
611.84	46.81
612.00	32.77
612.15	65.54
612.31	84.26
612.46	21.06
612.62	105.32
612.77	72.56
612.92	58.51
613.08	95.96
613.23	0.00
613.39	51.49
613.54	51.49
613.69	39.79
613.85	23.41
614.00	63.19
614.15	32.77
614.31	16.38
614.46	79.58
614.62	0.00
614.77	0.00
614.92	58.51
615.08	9.36
615.23	30.43
615.38	16.38
615.54	51.49
615.69	0.00
615.84	35.11
616.00	93.62
616.15	37.45
616.30	32.77
616.46	44.47
616.61	49.15
616.76	7.02
616.92	35.11
617.07	0.00
617.22	7.02
617.37	37.45
617.53	0.00
617.68	49.15
617.83	37.45
617.99	46.81
618.14	37.45
618.29	7.02
618.45	0.00
618.60	35.11
618.75	2.34
618.90	84.26
619.06	23.41
619.21	0.00
619.36	51.49
619.51	51.49
619.67	105.32
619.82	44.47
619.97	0.00
620.12	53.83
620.28	16.38
620.43	23.41
620.58	39.79
620.73	9.36
620.89	0.00
621.04	39.79
621.19	65.54
621.34	74.90
621.49	23.41
621.65	63.19
621.80	16.38
621.95	9.36
622.10	0.00
622.25	51.49
622.41	72.56
622.56	0.00
622.71	65.54
622.86	18.72
623.01	0.00
623.16	7.02
623.32	4.68
623.47	18.72
623.62	63.19
623.77	16.38
623.92	72.56
624.07	0.00
624.23	25.75
624.38	0.00
624.53	46.81
624.68	74.90
624.83	128.73
624.98	0.00
625.13	23.41
625.29	74.90
625.44	95.96
625.59	7.02
625.74	21.06
625.89	49.15
626.04	65.54
626.19	60.85
626.34	42.13
626.49	30.43
626.65	56.17
626.80	60.85
626.95	49.15
627.10	0.00
627.25	65.54
627.40	30.43
627.55	9.36
627.70	0.00
627.85	53.83
628.00	37.45
628.15	88.94
628.30	56.17
628.45	86.60
628.60	46.81
628.76	0.00
628.91	53.83
629.06	117.03
629.21	74.90
629.36	0.00
629.51	28.09
629.66	44.47
629.81	25.75
629.96	0.00
630.11	0.00
630.26	2.34
630.41	0.00
630.56	0.00
630.71	65.54
630.86	72.56
631.01	56.17
631.16	11.70
631.31	9.36
631.46	30.43
631.61	51.49
631.76	63.19
631.91	7.02
632.06	44.47
632.21	25.75
632.36	14.04
632.51	2.34
632.66	4.68
632.81	35.11
632.96	74.90
633.10	9.36
633.25	70.22
633.40	28.09
633.55	51.49
633.70	84.26
633.85	14.04
634.00	84.26
634.15	0.00
634.30	28.09
634.45	0.00
634.60	72.56
634.75	0.00
634.90	2.34
635.05	25.75
635.19	25.75
635.34	53.83
635.49	121.71
635.64	30.43
635.79	77.24
635.94	44.47
636.09	35.11
636.24	0.00
636.39	95.96
636.53	0.00
636.68	11.70
636.83	39.79
636.98	28.09
637.13	37.45
637.28	56.17
637.43	56.17
637.57	25.75
637.72	30.43
637.87	72.56
638.02	42.13
638.17	0.00
638.32	53.83
638.46	35.11
638.61	77.24
638.76	77.24
638.91	0.00
639.06	0.00
639.20	7.02
639.35	42.13
639.50	28.09
639.65	30.43
639.80	93.62
639.94	42.13
640.09	46.81
640.24	86.60
640.39	25.75
640.54	25.75
640.68	56.17
640.83	2.34
640.98	46.81
641.13	49.15
641.27	100.64
641.42	60.85
641.57	67.88
641.72	46.81
641.86	72.56
642.01	131.07
642.16	70.22
642.31	0.00
642.45	65.54
642.60	0.00
642.75	25.75
642.90	32.77
643.04	0.00
643.19	77.24
643.34	0.00
643.48	49.15
643.63	51.49
643.78	53.83
643.93	81.92
644.07	7.02
644.22	0.00
644.37	28.09
644.51	0.00
644.66	25.75
644.81	60.85
644.95	2.34
645.10	42.13
645.25	21.06
645.39	2.34
645.54	30.43
645.69	79.58
645.83	88.94
645.98	70.22
646.13	42.13
646.27	9.36
646.42	67.88
646.57	18.72
646.71	39.79
646.86	28.09
647.00	100.64
647.15	23.41
647.30	23.41
647.44	60.85
647.59	4.68
647.74	14.04
647.88	65.54
648.03	16.38
648.17	0.00
648.32	72.56
648.47	14.04
648.61	0.00
648.76	7.02
648.90	0.00
649.05	46.81
649.20	67.88
649.34	0.00
649.49	0.00
649.63	2.34
649.78	114.69
649.92	32.77
650.07	67.88
650.21	32.77
650.36	0.00
650.51	60.85
650.65	42.13
650.80	56.17
650.94	37.45
651.09	42.13
651.23	39.79
651.38	30.43
651.52	0.00
651.67	60.85
651.81	30.43
651.96	39.79
652.10	11.70
652.25	18.72
652.39	0.00
652.54	100.64
652.68	44.47
652.83	51.49
652.97	32.77
653.12	0.00
653.26	25.75
653.41	74.90
653.55	23.41
653.70	4.68
653.84	58.51
653.99	53.83
654.13	37.45
654.27	46.81
654.42	46.81
654.56	2.34
654.71	0.00
654.85	65.54
655.00	58.51
655.14	0.00
655.29	0.00
655.43	0.00
655.57	74.90
655.72	35.11
655.86	11.70
656.01	42.13
656.15	25.75
656.30	0.00
656.44	46.81
656.58	112.35
656.73	18.72
656.87	25.75
657.01	16.38
657.16	100.64
657.30	81.92
657.45	58.51
657.59	95.96
657.73	0.00
657.88	56.17
658.02	0.00
658.16	11.70
658.31	0.00
658.45	23.41
658.60	51.49
658.74	79.58
658.88	72.56
659.03	21.06
659.17	28.09
659.31	0.00
659.46	56.17
659.60	91.28
659.74	70.22
659.89	51.49
660.03	86.60
660.17	25.75
660.32	98.30
660.46	77.24
660.60	21.06
660.74	23.41
660.89	51.49
661.03	32.77
661.17	18.72
661.32	23.41
661.46	14.04
661.60	84.26
661.74	70.22
661.89	28.09
662.03	44.47
662.17	72.56
662.31	105.32
662.46	37.45
662.60	28.09
662.74	42.13
662.88	0.00
663.03	110.01
663.17	37.45
663.31	16.38
663.45	39.79
663.60	35.11
663.74	98.30
663.88	74.90
664.02	70.22
664.17	42.13
664.31	0.00
664.45	21.06
664.59	72.56
664.73	0.00
664.88	84.26
665.02	9.36
665.16	46.81
665.30	42.13
665.44	9.36
665.59	9.36
665.73	7.02
665.87	9.36
666.01	0.00
666.15	21.06
666.29	0.00
666.44	0.00
666.58	37.45
666.72	51.49
666.86	21.06
667.00	11.70
667.14	7.02
667.28	11.70
667.43	21.06
667.57	28.09
667.71	49.15
667.85	65.54
667.99	0.00
668.13	28.09
668.27	0.00
668.41	35.11
668.56	42.13
668.70	65.54
668.84	25.75
668.98	0.00
669.12	135.75
669.26	21.06
669.40	81.92
669.54	0.00
669.68	0.00
669.82	16.38
669.96	81.92
670.10	37.45
670.25	0.00
670.39	79.58
670.53	0.00
670.67	0.00
670.81	65.54
670.95	98.30
671.09	0.00
671.23	0.00
671.37	56.17
671.51	0.00
671.65	159.16
671.79	51.49
671.93	18.72
672.07	107.66
672.21	7.02
672.35	0.00
672.49	0.00
672.63	77.24
672.77	56.17
672.91	23.41
673.05	0.00
673.19	0.00
673.33	65.54
673.47	16.38
673.61	2.34
673.75	44.47
673.89	35.11
674.03	0.00
674.17	72.56
674.31	0.00
674.45	35.11
674.59	72.56
674.73	46.81
674.87	65.54
675.01	18.72
675.15	102.98
675.29	56.17
675.43	39.79
675.56	0.00
675.70	39.79
675.84	79.58
675.98	0.00
676.12	44.47
676.26	72.56
676.40	39.79
676.54	51.49
676.68	0.00
676.82	60.85
676.96	63.19
677.10	70.22
677.23	25.75
677.37	0.00
677.51	128.73
677.65	60.85
677.79	84.26
677.93	117.03
678.07	72.56
678.21	9.36
678.34	21.06
678.48	67.88
678.62	32.77
678.76	58.51
678.90	23.41
679.04	0.00
679.18	67.88
679.31	37.45
679.45	23.41
679.59	46.81
679.73	63.19
679.87	37.45
680.00	0.00
680.14	56.17
680.28	9.36
680.42	0.00
680.56	84.26
680.70	37.45
680.83	11.70
680.97	39.79
681.11	0.00
681.25	0.00
681.39	0.00
681.52	9.36
681.66	37.45
681.80	53.83
681.94	14.04
682.07	0.00
682.21	0.00
682.35	21.06
682.49	0.00
682.62	44.47
682.76	63.19
682.90	60.85
683.04	0.00
683.17	72.56
683.31	7.02
683.45	63.19
683.59	23.41
683.72	77.24
683.86	4.68
684.00	16.38
684.13	25.75
684.27	72.56
684.41	0.00
684.55	2.34
684.68	7.02
684.82	70.22
684.96	16.38
685.09	119.37
685.23	4.68
685.37	105.32
685.50	74.90
685.64	0.00
685.78	46.81
685.91	7.02
686.05	88.94
686.19	79.58
686.32	42.13
686.46	67.88
686.60	18.72
686.73	18.72
686.87	70.22
687.01	0.00
687.14	0.00
687.28	0.00
687.42	56.17
687.55	7.02
687.69	32.77
687.82	35.11
687.96	72.56
688.10	37.45
688.23	18.72
688.37	84.26
688.50	35.11
688.64	49.15
688.78	53.83
688.91	0.00
689.05	37.45
689.18	23.41
689.32	42.13
689.46	44.47
689.59	9.36
689.73	49.15
689.86	35.11
690.00	42.13
690.13	32.77
690.27	0.00
690.41	39.79
690.54	0.00
690.68	23.41
690.81	0.00
690.95	51.49
691.08	86.60
691.22	25.75
691.35	0.00
691.49	14.04
691.62	4.68
691.76	81.92
691.89	14.04
692.03	4.68
692.16	60.85
692.30	65.54
692.43	0.00
692.57	18.72
692.70	53.83
692.84	74.90
692.97	49.15
693.11	2.34
693.24	63.19
693.38	0.00
693.51	0.00
693.65	67.88
693.78	51.49
693.92	46.81
694.05	42.13
694.19	0.00
694.32	39.79
694.45	42.13
694.59	0.00
694.72	105.32
694.86	35.11
694.99	65.54
695.13	0.00
695.26	60.85
695.39	53.83
695.53	2.34
695.66	11.70
695.80	53.83
695.93	46.81
696.07	0.00
696.20	72.56
696.33	4.68
696.47	42.13
696.60	0.00
696.73	9.36
696.87	49.15
697.00	74.90
697.14	37.45
697.27	53.83
697.40	0.00
697.54	25.75
697.67	11.70
697.80	77.24
697.94	63.19
698.07	28.09
698.21	4.68
698.34	53.83
698.47	16.38
698.61	65.54
698.74	0.00
698.87	51.49
699.01	0.00
699.14	0.00
699.27	0.00
699.40	86.60
699.54	28.09
699.67	81.92
699.80	49.15
699.94	0.00
700.07	65.54
700.20	46.81
700.34	21.06
700.47	21.06
700.60	25.75
700.73	0.00
700.87	93.62
701.00	39.79
701.13	53.83
701.26	0.00
701.40	56.17
701.53	70.22
701.66	35.11
701.79	25.75
701.93	30.43
702.06	0.00
702.19	9.36
702.32	0.00
702.46	77.24
702.59	44.47
702.72	0.00
702.85	42.13
702.99	65.54
703.12	0.00
703.25	21.06
703.38	32.77
703.51	21.06
703.65	110.01
703.78	77.24
703.91	37.45
704.04	11.70
704.17	39.79
704.31	53.83
704.44	25.75
704.57	44.47
704.70	21.06
704.83	46.81
704.96	25.75
705.10	35.11
705.23	86.60
>>>>>End Processed Spectral Data<<<<<
