SpectraSuite Data File
++++++++++++++++++++++++++++++++++++
Date: Fri Oct 04 12:13:35 GMT-05:00 2013
User: price-jones
Dark Spectrum Present: No
Reference Spectrum Present: No
Number of Sampled Component Spectra: 1
Spectrometers: USB2+H05261
Integration Time (usec): 10000 (USB2+H05261)
Spectra Averaged: 1 (USB2+H05261)
Boxcar Smoothing: 0 (USB2+H05261)
Correct for Electrical Dark: No (USB2+H05261)
Strobe/Lamp Enabled: No (USB2+H05261)
Correct for Detector Non-linearity: No (USB2+H05261)
Correct for Stray Light: No (USB2+H05261)
Number of Pixels in Processed Spectrum: 2048
>>>>>Begin Processed Spectral Data<<<<<
365.73	0.00
365.92	0.00
366.12	0.00
366.32	0.00
366.52	0.00
366.72	0.00
366.91	0.00
367.11	0.00
367.31	0.00
367.51	0.00
367.70	0.00
367.90	0.00
368.10	0.00
368.30	0.00
368.49	0.00
368.69	0.00
368.89	0.00
369.09	0.00
369.28	0.00
369.48	0.00
369.68	0.00
369.87	0.00
370.07	0.00
370.27	0.00
370.47	0.00
370.66	0.00
370.86	0.00
371.06	16.38
371.25	0.00
371.45	0.00
371.65	0.00
371.84	0.00
372.04	0.00
372.24	16.38
372.44	0.00
372.63	35.11
372.83	16.38
373.03	7.02
373.22	0.00
373.42	0.00
373.62	4.68
373.81	0.00
374.01	14.04
374.21	56.17
374.40	21.06
374.60	14.04
374.79	7.02
374.99	49.15
375.19	39.79
375.38	4.68
375.58	84.26
375.78	86.60
375.97	77.24
376.17	37.45
376.37	35.11
376.56	16.38
376.76	49.15
376.95	14.04
377.15	0.00
377.35	0.00
377.54	7.02
377.74	25.75
377.93	58.51
378.13	79.58
378.33	16.38
378.52	0.00
378.72	42.13
378.91	53.83
379.11	0.00
379.31	44.47
379.50	49.15
379.70	35.11
379.89	51.49
380.09	23.41
380.28	39.79
380.48	16.38
380.68	0.00
380.87	16.38
381.07	28.09
381.26	60.85
381.46	0.00
381.65	0.00
381.85	42.13
382.04	4.68
382.24	0.00
382.43	65.54
382.63	28.09
382.83	9.36
383.02	39.79
383.22	0.00
383.41	0.00
383.61	35.11
383.80	0.00
384.00	0.00
384.19	0.00
384.39	79.58
384.58	18.72
384.78	9.36
384.97	0.00
385.17	4.68
385.36	0.00
385.56	30.43
385.75	4.68
385.95	51.49
386.14	49.15
386.34	21.06
386.53	23.41
386.72	9.36
386.92	51.49
387.11	2.34
387.31	0.00
387.50	86.60
387.70	42.13
387.89	0.00
388.09	63.19
388.28	16.38
388.48	0.00
388.67	46.81
388.86	74.90
389.06	0.00
389.25	81.92
389.45	18.72
389.64	7.02
389.84	0.00
390.03	35.11
390.22	18.72
390.42	93.62
390.61	0.00
390.81	88.94
391.00	21.06
391.19	23.41
391.39	46.81
391.58	18.72
391.78	9.36
391.97	0.00
392.16	11.70
392.36	49.15
392.55	107.66
392.75	25.75
392.94	42.13
393.13	37.45
393.33	25.75
393.52	11.70
393.71	4.68
393.91	56.17
394.10	100.64
394.29	4.68
394.49	42.13
394.68	81.92
394.88	81.92
395.07	0.00
395.26	37.45
395.46	18.72
395.65	21.06
395.84	0.00
396.04	58.51
396.23	91.28
396.42	44.47
396.62	2.34
396.81	86.60
397.00	0.00
397.19	0.00
397.39	58.51
397.58	14.04
397.77	49.15
397.97	74.90
398.16	39.79
398.35	0.00
398.55	14.04
398.74	84.26
398.93	35.11
399.12	25.75
399.32	0.00
399.51	42.13
399.70	0.00
399.90	14.04
400.09	93.62
400.28	16.38
400.47	0.00
400.67	2.34
400.86	18.72
401.05	9.36
401.24	42.13
401.44	77.24
401.63	107.66
401.82	16.38
402.01	28.09
402.21	39.79
402.40	30.43
402.59	0.00
402.78	32.77
402.97	35.11
403.17	0.00
403.36	0.00
403.55	77.24
403.74	32.77
403.93	14.04
404.13	0.00
404.32	0.00
404.51	0.00
404.70	0.00
404.89	28.09
405.09	88.94
405.28	102.98
405.47	30.43
405.66	63.19
405.85	0.00
406.05	56.17
406.24	28.09
406.43	0.00
406.62	44.47
406.81	39.79
407.00	30.43
407.20	46.81
407.39	74.90
407.58	0.00
407.77	67.88
407.96	37.45
408.15	49.15
408.34	67.88
408.54	88.94
408.73	23.41
408.92	37.45
409.11	56.17
409.30	51.49
409.49	0.00
409.68	0.00
409.87	65.54
410.07	119.37
410.26	0.00
410.45	39.79
410.64	60.85
410.83	32.77
411.02	18.72
411.21	0.00
411.40	28.09
411.59	37.45
411.78	65.54
411.98	88.94
412.17	21.06
412.36	0.00
412.55	0.00
412.74	93.62
412.93	49.15
413.12	63.19
413.31	58.51
413.50	11.70
413.69	16.38
413.88	60.85
414.07	9.36
414.26	30.43
414.45	0.00
414.64	56.17
414.83	0.00
415.02	49.15
415.22	67.88
415.41	23.41
415.60	16.38
415.79	53.83
415.98	14.04
416.17	18.72
416.36	18.72
416.55	58.51
416.74	21.06
416.93	35.11
417.12	46.81
417.31	51.49
417.50	56.17
417.69	53.83
417.88	0.00
418.07	53.83
418.26	46.81
418.45	16.38
418.64	65.54
418.83	102.98
419.02	11.70
419.21	46.81
419.39	30.43
419.58	0.00
419.77	32.77
419.96	74.90
420.15	21.06
420.34	0.00
420.53	23.41
420.72	0.00
420.91	42.13
421.10	110.01
421.29	0.00
421.48	53.83
421.67	0.00
421.86	0.00
422.05	77.24
422.24	28.09
422.43	0.00
422.61	74.90
422.80	0.00
422.99	23.41
423.18	72.56
423.37	44.47
423.56	93.62
423.75	11.70
423.94	56.17
424.13	28.09
424.32	28.09
424.50	110.01
424.69	0.00
424.88	51.49
425.07	28.09
425.26	30.43
425.45	72.56
425.64	21.06
425.83	46.81
426.01	30.43
426.20	49.15
426.39	51.49
426.58	35.11
426.77	0.00
426.96	60.85
427.15	46.81
427.33	46.81
427.52	81.92
427.71	95.96
427.90	0.00
428.09	37.45
428.28	0.00
428.46	74.90
428.65	0.00
428.84	0.00
429.03	49.15
429.22	23.41
429.40	49.15
429.59	28.09
429.78	32.77
429.97	0.00
430.16	28.09
430.34	0.00
430.53	42.13
430.72	72.56
430.91	23.41
431.10	39.79
431.28	2.34
431.47	39.79
431.66	93.62
431.85	23.41
432.03	39.79
432.22	88.94
432.41	0.00
432.60	86.60
432.79	7.02
432.97	112.35
433.16	0.00
433.35	35.11
433.54	44.47
433.72	25.75
433.91	58.51
434.10	9.36
434.28	105.32
434.47	35.11
434.66	65.54
434.85	114.69
435.03	56.17
435.22	67.88
435.41	70.22
435.59	32.77
435.78	21.06
435.97	0.00
436.16	67.88
436.34	39.79
436.53	91.28
436.72	49.15
436.90	46.81
437.09	53.83
437.28	102.98
437.46	58.51
437.65	98.30
437.84	28.09
438.02	72.56
438.21	16.38
438.40	39.79
438.58	58.51
438.77	110.01
438.96	49.15
439.14	25.75
439.33	51.49
439.52	0.00
439.70	0.00
439.89	56.17
440.08	60.85
440.26	100.64
440.45	14.04
440.63	72.56
440.82	91.28
441.01	65.54
441.19	14.04
441.38	42.13
441.57	56.17
441.75	135.75
441.94	88.94
442.12	81.92
442.31	49.15
442.50	119.37
442.68	67.88
442.87	65.54
443.05	56.17
443.24	0.00
443.43	37.45
443.61	91.28
443.80	84.26
443.98	81.92
444.17	42.13
444.35	84.26
444.54	70.22
444.73	30.43
444.91	28.09
445.10	65.54
445.28	39.79
445.47	46.81
445.65	11.70
445.84	74.90
446.02	14.04
446.21	60.85
446.39	133.41
446.58	32.77
446.77	77.24
446.95	32.77
447.14	53.83
447.32	30.43
447.51	0.00
447.69	58.51
447.88	4.68
448.06	72.56
448.25	42.13
448.43	4.68
448.62	53.83
448.80	53.83
448.99	77.24
449.17	74.90
449.36	95.96
449.54	39.79
449.73	121.71
449.91	28.09
450.10	53.83
450.28	44.47
450.46	46.81
450.65	79.58
450.83	60.85
451.02	35.11
451.20	126.39
451.39	67.88
451.57	23.41
451.76	23.41
451.94	35.11
452.13	53.83
452.31	32.77
452.49	39.79
452.68	93.62
452.86	9.36
453.05	58.51
453.23	37.45
453.42	35.11
453.60	81.92
453.78	0.00
453.97	81.92
454.15	145.11
454.34	4.68
454.52	0.00
454.70	77.24
454.89	63.19
455.07	53.83
455.26	0.00
455.44	23.41
455.62	49.15
455.81	51.49
455.99	74.90
456.17	37.45
456.36	39.79
456.54	56.17
456.73	58.51
456.91	23.41
457.09	0.00
457.28	95.96
457.46	30.43
457.64	32.77
457.83	58.51
458.01	0.00
458.19	18.72
458.38	63.19
458.56	0.00
458.74	63.19
458.93	28.09
459.11	63.19
459.29	7.02
459.48	58.51
459.66	60.85
459.84	70.22
460.03	18.72
460.21	4.68
460.39	98.30
460.57	60.85
460.76	35.11
460.94	102.98
461.12	44.47
461.31	30.43
461.49	72.56
461.67	28.09
461.85	98.30
462.04	37.45
462.22	126.39
462.40	84.26
462.59	49.15
462.77	65.54
462.95	110.01
463.13	86.60
463.32	23.41
463.50	93.62
463.68	86.60
463.86	114.69
464.05	91.28
464.23	0.00
464.41	60.85
464.59	25.75
464.78	51.49
464.96	46.81
465.14	60.85
465.32	46.81
465.50	63.19
465.69	51.49
465.87	70.22
466.05	35.11
466.23	28.09
466.41	93.62
466.60	28.09
466.78	107.66
466.96	77.24
467.14	56.17
467.32	46.81
467.51	105.32
467.69	51.49
467.87	0.00
468.05	32.77
468.23	0.00
468.41	18.72
468.60	23.41
468.78	70.22
468.96	88.94
469.14	119.37
469.32	86.60
469.50	16.38
469.69	42.13
469.87	79.58
470.05	0.00
470.23	42.13
470.41	30.43
470.59	72.56
470.77	77.24
470.95	168.52
471.14	84.26
471.32	93.62
471.50	84.26
471.68	102.98
471.86	67.88
472.04	25.75
472.22	142.77
472.40	4.68
472.58	65.54
472.77	58.51
472.95	95.96
473.13	60.85
473.31	79.58
473.49	53.83
473.67	65.54
473.85	81.92
474.03	60.85
474.21	46.81
474.39	51.49
474.57	58.51
474.75	23.41
474.93	70.22
475.12	25.75
475.30	58.51
475.48	21.06
475.66	65.54
475.84	84.26
476.02	2.34
476.20	51.49
476.38	39.79
476.56	93.62
476.74	140.43
476.92	63.19
477.10	28.09
477.28	77.24
477.46	149.79
477.64	11.70
477.82	112.35
478.00	53.83
478.18	0.00
478.36	56.17
478.54	63.19
478.72	0.00
478.90	35.11
479.08	2.34
479.26	105.32
479.44	70.22
479.62	42.13
479.80	49.15
479.98	88.94
480.16	84.26
480.34	81.92
480.52	56.17
480.70	0.00
480.88	0.00
481.06	114.69
481.24	124.05
481.41	37.45
481.59	65.54
481.77	56.17
481.95	0.00
482.13	28.09
482.31	67.88
482.49	51.49
482.67	65.54
482.85	161.50
483.03	79.58
483.21	119.37
483.39	81.92
483.57	44.47
483.74	81.92
483.92	84.26
484.10	98.30
484.28	81.92
484.46	42.13
484.64	11.70
484.82	42.13
485.00	44.47
485.18	102.98
485.35	60.85
485.53	56.17
485.71	0.00
485.89	102.98
486.07	60.85
486.25	0.00
486.43	51.49
486.61	77.24
486.78	121.71
486.96	0.00
487.14	77.24
487.32	32.77
487.50	105.32
487.68	30.43
487.85	88.94
488.03	133.41
488.21	53.83
488.39	107.66
488.57	79.58
488.75	145.11
488.92	65.54
489.10	84.26
489.28	126.39
489.46	121.71
489.64	51.49
489.81	74.90
489.99	88.94
490.17	21.06
490.35	11.70
490.53	37.45
490.70	37.45
490.88	105.32
491.06	23.41
491.24	95.96
491.41	37.45
491.59	119.37
491.77	60.85
491.95	105.32
492.13	117.03
492.30	4.68
492.48	18.72
492.66	110.01
492.84	46.81
493.01	18.72
493.19	81.92
493.37	159.16
493.54	98.30
493.72	2.34
493.90	0.00
494.08	121.71
494.25	107.66
494.43	42.13
494.61	124.05
494.79	53.83
494.96	28.09
495.14	107.66
495.32	46.81
495.49	93.62
495.67	30.43
495.85	154.48
496.02	126.39
496.20	56.17
496.38	67.88
496.55	95.96
496.73	74.90
496.91	30.43
497.09	30.43
497.26	30.43
497.44	65.54
497.62	100.64
497.79	25.75
497.97	25.75
498.14	100.64
498.32	114.69
498.50	88.94
498.67	70.22
498.85	81.92
499.03	49.15
499.20	98.30
499.38	93.62
499.56	126.39
499.73	117.03
499.91	121.71
500.08	117.03
500.26	84.26
500.44	77.24
500.61	14.04
500.79	105.32
500.97	74.90
501.14	11.70
501.32	140.43
501.49	98.30
501.67	44.47
501.84	140.43
502.02	117.03
502.20	70.22
502.37	51.49
502.55	107.66
502.72	14.04
502.90	56.17
503.07	107.66
503.25	74.90
503.43	46.81
503.60	35.11
503.78	72.56
503.95	114.69
504.13	56.17
504.30	93.62
504.48	9.36
504.65	84.26
504.83	84.26
505.01	67.88
505.18	67.88
505.36	37.45
505.53	110.01
505.71	81.92
505.88	39.79
506.06	107.66
506.23	42.13
506.41	119.37
506.58	84.26
506.76	0.00
506.93	79.58
507.11	81.92
507.28	105.32
507.46	110.01
507.63	39.79
507.81	18.72
507.98	105.32
508.16	107.66
508.33	124.05
508.50	30.43
508.68	39.79
508.85	51.49
509.03	35.11
509.20	67.88
509.38	65.54
509.55	65.54
509.73	145.11
509.90	84.26
510.08	42.13
510.25	70.22
510.42	84.26
510.60	102.98
510.77	88.94
510.95	93.62
511.12	91.28
511.30	119.37
511.47	53.83
511.64	79.58
511.82	28.09
511.99	46.81
512.17	128.73
512.34	42.13
512.51	21.06
512.69	74.90
512.86	140.43
513.04	63.19
513.21	95.96
513.38	86.60
513.56	0.00
513.73	44.47
513.90	100.64
514.08	25.75
514.25	67.88
514.43	81.92
514.60	145.11
514.77	4.68
514.95	102.98
515.12	77.24
515.29	102.98
515.47	119.37
515.64	98.30
515.81	110.01
515.99	53.83
516.16	114.69
516.33	145.11
516.51	79.58
516.68	16.38
516.85	98.30
517.03	86.60
517.20	95.96
517.37	95.96
517.54	95.96
517.72	77.24
517.89	102.98
518.06	79.58
518.24	114.69
518.41	77.24
518.58	60.85
518.75	102.98
518.93	88.94
519.10	114.69
519.27	72.56
519.45	105.32
519.62	124.05
519.79	37.45
519.96	107.66
520.14	70.22
520.31	81.92
520.48	156.82
520.65	84.26
520.83	37.45
521.00	88.94
521.17	95.96
521.34	46.81
521.52	72.56
521.69	93.62
521.86	70.22
522.03	35.11
522.20	93.62
522.38	37.45
522.55	98.30
522.72	79.58
522.89	154.48
523.07	107.66
523.24	51.49
523.41	133.41
523.58	119.37
523.75	72.56
523.92	105.32
524.10	0.00
524.27	77.24
524.44	67.88
524.61	107.66
524.78	119.37
524.96	100.64
525.13	18.72
525.30	105.32
525.47	107.66
525.64	112.35
525.81	124.05
525.98	21.06
526.16	133.41
526.33	16.38
526.50	81.92
526.67	74.90
526.84	88.94
527.01	72.56
527.18	114.69
527.36	91.28
527.53	88.94
527.70	70.22
527.87	72.56
528.04	53.83
528.21	4.68
528.38	44.47
528.55	49.15
528.72	142.77
528.89	117.03
529.07	93.62
529.24	138.09
529.41	117.03
529.58	114.69
529.75	140.43
529.92	121.71
530.09	74.90
530.26	140.43
530.43	126.39
530.60	152.13
530.77	138.09
530.94	152.13
531.11	44.47
531.28	63.19
531.46	133.41
531.63	88.94
531.80	126.39
531.97	72.56
532.14	51.49
532.31	70.22
532.48	25.75
532.65	114.69
532.82	100.64
532.99	114.69
533.16	56.17
533.33	58.51
533.50	105.32
533.67	86.60
533.84	117.03
534.01	100.64
534.18	63.19
534.35	67.88
534.52	114.69
534.69	126.39
534.86	70.22
535.03	63.19
535.20	114.69
535.37	79.58
535.54	53.83
535.71	72.56
535.88	128.73
536.05	117.03
536.22	74.90
536.38	77.24
536.55	102.98
536.72	42.13
536.89	91.28
537.06	91.28
537.23	126.39
537.40	56.17
537.57	0.00
537.74	72.56
537.91	93.62
538.08	138.09
538.25	91.28
538.42	53.83
538.59	25.75
538.75	102.98
538.92	63.19
539.09	60.85
539.26	114.69
539.43	84.26
539.60	65.54
539.77	74.90
539.94	67.88
540.11	70.22
540.28	25.75
540.44	56.17
540.61	37.45
540.78	51.49
540.95	91.28
541.12	86.60
541.29	30.43
541.46	53.83
541.62	105.32
541.79	98.30
541.96	81.92
542.13	72.56
542.30	93.62
542.47	102.98
542.63	79.58
542.80	86.60
542.97	126.39
543.14	88.94
543.31	74.90
543.48	84.26
543.64	56.17
543.81	63.19
543.98	30.43
544.15	126.39
544.32	105.32
544.48	67.88
544.65	110.01
544.82	74.90
544.99	11.70
545.16	81.92
545.32	79.58
545.49	67.88
545.66	100.64
545.83	112.35
546.00	79.58
546.16	102.98
546.33	74.90
546.50	42.13
546.67	112.35
546.83	0.00
547.00	91.28
547.17	84.26
547.34	25.75
547.50	63.19
547.67	77.24
547.84	35.11
548.00	131.07
548.17	77.24
548.34	86.60
548.51	79.58
548.67	107.66
548.84	88.94
549.01	100.64
549.18	117.03
549.34	107.66
549.51	67.88
549.68	35.11
549.84	49.15
550.01	67.88
550.18	0.00
550.34	91.28
550.51	23.41
550.68	114.69
550.84	119.37
551.01	58.51
551.18	154.48
551.34	100.64
551.51	117.03
551.68	138.09
551.84	49.15
552.01	65.54
552.18	88.94
552.34	53.83
552.51	72.56
552.68	81.92
552.84	84.26
553.01	60.85
553.18	124.05
553.34	88.94
553.51	32.77
553.67	65.54
553.84	121.71
554.01	133.41
554.17	60.85
554.34	56.17
554.51	72.56
554.67	93.62
554.84	77.24
555.00	7.02
555.17	91.28
555.33	91.28
555.50	107.66
555.67	128.73
555.83	147.45
556.00	177.88
556.16	140.43
556.33	117.03
556.50	74.90
556.66	107.66
556.83	124.05
556.99	91.28
557.16	46.81
557.32	98.30
557.49	112.35
557.65	107.66
557.82	56.17
557.98	131.07
558.15	18.72
558.32	7.02
558.48	79.58
558.65	100.64
558.81	56.17
558.98	72.56
559.14	2.34
559.31	77.24
559.47	56.17
559.64	135.75
559.80	93.62
559.97	23.41
560.13	70.22
560.30	74.90
560.46	84.26
560.63	91.28
560.79	119.37
560.96	110.01
561.12	159.16
561.29	147.45
561.45	51.49
561.61	100.64
561.78	81.92
561.94	42.13
562.11	88.94
562.27	79.58
562.44	60.85
562.60	110.01
562.77	117.03
562.93	72.56
563.10	168.52
563.26	98.30
563.42	95.96
563.59	46.81
563.75	65.54
563.92	95.96
564.08	86.60
564.24	51.49
564.41	88.94
564.57	79.58
564.74	149.79
564.90	70.22
565.07	63.19
565.23	91.28
565.39	49.15
565.56	121.71
565.72	100.64
565.88	42.13
566.05	93.62
566.21	63.19
566.38	159.16
566.54	107.66
566.70	128.73
566.87	142.77
567.03	49.15
567.19	77.24
567.36	56.17
567.52	56.17
567.68	30.43
567.85	53.83
568.01	21.06
568.17	58.51
568.34	63.19
568.50	74.90
568.66	0.00
568.83	37.45
568.99	133.41
569.15	110.01
569.32	2.34
569.48	117.03
569.64	74.90
569.81	81.92
569.97	77.24
570.13	23.41
570.30	49.15
570.46	63.19
570.62	70.22
570.78	74.90
570.95	81.92
571.11	67.88
571.27	79.58
571.43	84.26
571.60	117.03
571.76	100.64
571.92	91.28
572.09	117.03
572.25	79.58
572.41	112.35
572.57	72.56
572.74	121.71
572.90	51.49
573.06	39.79
573.22	124.05
573.38	79.58
573.55	0.00
573.71	112.35
573.87	84.26
574.03	79.58
574.20	72.56
574.36	42.13
574.52	63.19
574.68	86.60
574.84	102.98
575.01	49.15
575.17	93.62
575.33	74.90
575.49	77.24
575.65	79.58
575.82	93.62
575.98	21.06
576.14	46.81
576.30	46.81
576.46	86.60
576.62	98.30
576.79	0.00
576.95	98.30
577.11	81.92
577.27	107.66
577.43	77.24
577.59	81.92
577.75	84.26
577.92	2.34
578.08	140.43
578.24	100.64
578.40	42.13
578.56	70.22
578.72	117.03
578.88	79.58
579.04	67.88
579.21	110.01
579.37	79.58
579.53	63.19
579.69	14.04
579.85	51.49
580.01	39.79
580.17	105.32
580.33	112.35
580.49	72.56
580.65	93.62
580.82	91.28
580.98	86.60
581.14	126.39
581.30	124.05
581.46	65.54
581.62	42.13
581.78	58.51
581.94	77.24
582.10	11.70
582.26	77.24
582.42	58.51
582.58	102.98
582.74	98.30
582.90	77.24
583.06	114.69
583.22	18.72
583.38	39.79
583.54	60.85
583.70	86.60
583.86	86.60
584.02	135.75
584.18	110.01
584.34	105.32
584.50	32.77
584.66	65.54
584.82	21.06
584.98	110.01
585.14	112.35
585.30	44.47
585.46	65.54
585.62	2.34
585.78	110.01
585.94	32.77
586.10	86.60
586.26	42.13
586.42	93.62
586.58	112.35
586.74	72.56
586.90	32.77
587.06	11.70
587.22	56.17
587.38	65.54
587.54	100.64
587.70	79.58
587.86	39.79
588.02	39.79
588.18	72.56
588.34	60.85
588.49	21.06
588.65	105.32
588.81	72.56
588.97	86.60
589.13	42.13
589.29	81.92
589.45	112.35
589.61	107.66
589.77	0.00
589.93	84.26
590.08	56.17
590.24	21.06
590.40	79.58
590.56	98.30
590.72	84.26
590.88	35.11
591.04	142.77
591.20	51.49
591.35	56.17
591.51	65.54
591.67	72.56
591.83	63.19
591.99	25.75
592.15	74.90
592.31	124.05
592.46	0.00
592.62	79.58
592.78	86.60
592.94	95.96
593.10	93.62
593.26	37.45
593.41	14.04
593.57	110.01
593.73	46.81
593.89	72.56
594.05	37.45
594.20	81.92
594.36	93.62
594.52	110.01
594.68	37.45
594.84	81.92
594.99	112.35
595.15	77.24
595.31	98.30
595.47	56.17
595.62	30.43
595.78	16.38
595.94	53.83
596.10	79.58
596.25	95.96
596.41	9.36
596.57	2.34
596.73	37.45
596.88	74.90
597.04	74.90
597.20	72.56
597.36	145.11
597.51	56.17
597.67	81.92
597.83	35.11
597.99	67.88
598.14	135.75
598.30	163.84
598.46	107.66
598.61	44.47
598.77	56.17
598.93	84.26
599.09	58.51
599.24	60.85
599.40	102.98
599.56	88.94
599.71	58.51
599.87	110.01
600.03	70.22
600.18	98.30
600.34	28.09
600.50	88.94
600.65	37.45
600.81	128.73
600.97	44.47
601.12	65.54
601.28	105.32
601.44	46.81
601.59	58.51
601.75	79.58
601.91	95.96
602.06	0.00
602.22	39.79
602.37	70.22
602.53	9.36
602.69	65.54
602.84	58.51
603.00	77.24
603.16	32.77
603.31	56.17
603.47	70.22
603.62	53.83
603.78	95.96
603.94	74.90
604.09	0.00
604.25	51.49
604.40	107.66
604.56	84.26
604.71	77.24
604.87	72.56
605.03	0.00
605.18	37.45
605.34	119.37
605.49	0.00
605.65	110.01
605.80	21.06
605.96	67.88
606.12	46.81
606.27	63.19
606.43	65.54
606.58	0.00
606.74	63.19
606.89	28.09
607.05	81.92
607.20	67.88
607.36	16.38
607.51	25.75
607.67	39.79
607.82	147.45
607.98	88.94
608.13	145.11
608.29	72.56
608.44	102.98
608.60	70.22
608.75	53.83
608.91	42.13
609.06	77.24
609.22	79.58
609.37	58.51
609.53	65.54
609.68	49.15
609.84	135.75
609.99	0.00
610.15	32.77
610.30	42.13
610.46	95.96
610.61	58.51
610.76	56.17
610.92	77.24
611.07	107.66
611.23	42.13
611.38	79.58
611.54	110.01
611.69	51.49
611.84	121.71
612.00	39.79
612.15	74.90
612.31	79.58
612.46	114.69
612.62	107.66
612.77	67.88
612.92	74.90
613.08	79.58
613.23	51.49
613.39	100.64
613.54	53.83
613.69	65.54
613.85	93.62
614.00	168.52
614.15	102.98
614.31	42.13
614.46	88.94
614.62	88.94
614.77	72.56
614.92	37.45
615.08	28.09
615.23	81.92
615.38	42.13
615.54	4.68
615.69	98.30
615.84	100.64
616.00	98.30
616.15	0.00
616.30	67.88
616.46	51.49
616.61	67.88
616.76	56.17
616.92	0.00
617.07	21.06
617.22	11.70
617.37	93.62
617.53	58.51
617.68	56.17
617.83	117.03
617.99	95.96
618.14	39.79
618.29	39.79
618.45	163.84
618.60	25.75
618.75	60.85
618.90	60.85
619.06	81.92
619.21	72.56
619.36	9.36
619.51	138.09
619.67	72.56
619.82	0.00
619.97	39.79
620.12	91.28
620.28	49.15
620.43	77.24
620.58	32.77
620.73	35.11
620.89	16.38
621.04	133.41
621.19	105.32
621.34	39.79
621.49	77.24
621.65	4.68
621.80	51.49
621.95	156.82
622.10	102.98
622.25	51.49
622.41	35.11
622.56	107.66
622.71	95.96
622.86	53.83
623.01	114.69
623.16	74.90
623.32	86.60
623.47	60.85
623.62	35.11
623.77	147.45
623.92	79.58
624.07	46.81
624.23	100.64
624.38	30.43
624.53	72.56
624.68	16.38
624.83	35.11
624.98	65.54
625.13	70.22
625.29	53.83
625.44	117.03
625.59	63.19
625.74	63.19
625.89	67.88
626.04	114.69
626.19	65.54
626.34	51.49
626.49	56.17
626.65	0.00
626.80	53.83
626.95	110.01
627.10	23.41
627.25	28.09
627.40	81.92
627.55	32.77
627.70	58.51
627.85	0.00
628.00	95.96
628.15	49.15
628.30	93.62
628.45	18.72
628.60	65.54
628.76	0.00
628.91	35.11
629.06	67.88
629.21	39.79
629.36	18.72
629.51	63.19
629.66	93.62
629.81	39.79
629.96	9.36
630.11	107.66
630.26	60.85
630.41	44.47
630.56	65.54
630.71	84.26
630.86	58.51
631.01	21.06
631.16	63.19
631.31	67.88
631.46	95.96
631.61	30.43
631.76	49.15
631.91	51.49
632.06	91.28
632.21	70.22
632.36	79.58
632.51	16.38
632.66	72.56
632.81	37.45
632.96	98.30
633.10	46.81
633.25	39.79
633.40	42.13
633.55	42.13
633.70	63.19
633.85	88.94
634.00	58.51
634.15	21.06
634.30	110.01
634.45	25.75
634.60	91.28
634.75	42.13
634.90	21.06
635.05	46.81
635.19	81.92
635.34	0.00
635.49	9.36
635.64	35.11
635.79	70.22
635.94	4.68
636.09	42.13
636.24	77.24
636.39	72.56
636.53	0.00
636.68	35.11
636.83	0.00
636.98	70.22
637.13	67.88
637.28	63.19
637.43	46.81
637.57	98.30
637.72	42.13
637.87	70.22
638.02	63.19
638.17	56.17
638.32	51.49
638.46	63.19
638.61	39.79
638.76	74.90
638.91	39.79
639.06	60.85
639.20	53.83
639.35	4.68
639.50	81.92
639.65	121.71
639.80	60.85
639.94	9.36
640.09	35.11
640.24	49.15
640.39	161.50
640.54	35.11
640.68	39.79
640.83	70.22
640.98	25.75
641.13	60.85
641.27	39.79
641.42	46.81
641.57	65.54
641.72	32.77
641.86	81.92
642.01	95.96
642.16	4.68
642.31	23.41
642.45	93.62
642.60	7.02
642.75	77.24
642.90	0.00
643.04	91.28
643.19	23.41
643.34	7.02
643.48	32.77
643.63	0.00
643.78	107.66
643.93	65.54
644.07	39.79
644.22	16.38
644.37	60.85
644.51	28.09
644.66	131.07
644.81	0.00
644.95	72.56
645.10	70.22
645.25	112.35
645.39	51.49
645.54	35.11
645.69	56.17
645.83	42.13
645.98	32.77
646.13	105.32
646.27	21.06
646.42	16.38
646.57	51.49
646.71	81.92
646.86	30.43
647.00	0.00
647.15	11.70
647.30	63.19
647.44	93.62
647.59	0.00
647.74	72.56
647.88	72.56
648.03	70.22
648.17	0.00
648.32	126.39
648.47	0.00
648.61	35.11
648.76	25.75
648.90	39.79
649.05	74.90
649.20	53.83
649.34	0.00
649.49	0.00
649.63	32.77
649.78	49.15
649.92	21.06
650.07	102.98
650.21	67.88
650.36	44.47
650.51	42.13
650.65	30.43
650.80	81.92
650.94	133.41
651.09	86.60
651.23	91.28
651.38	86.60
651.52	2.34
651.67	18.72
651.81	0.00
651.96	28.09
652.10	11.70
652.25	42.13
652.39	105.32
652.54	28.09
652.68	56.17
652.83	77.24
652.97	42.13
653.12	112.35
653.26	117.03
653.41	72.56
653.55	100.64
653.70	37.45
653.84	11.70
653.99	25.75
654.13	58.51
654.27	84.26
654.42	63.19
654.56	88.94
654.71	25.75
654.85	21.06
655.00	98.30
655.14	117.03
655.29	18.72
655.43	49.15
655.57	32.77
655.72	63.19
655.86	53.83
656.01	49.15
656.15	0.00
656.30	0.00
656.44	21.06
656.58	0.00
656.73	0.00
656.87	0.00
657.01	2.34
657.16	37.45
657.30	23.41
657.45	37.45
657.59	39.79
657.73	0.00
657.88	86.60
658.02	170.86
658.16	53.83
658.31	105.32
658.45	39.79
658.60	65.54
658.74	51.49
658.88	16.38
659.03	51.49
659.17	67.88
659.31	16.38
659.46	0.00
659.60	91.28
659.74	16.38
659.89	35.11
660.03	0.00
660.17	23.41
660.32	28.09
660.46	65.54
660.60	56.17
660.74	63.19
660.89	21.06
661.03	58.51
661.17	30.43
661.32	21.06
661.46	128.73
661.60	63.19
661.74	42.13
661.89	14.04
662.03	28.09
662.17	65.54
662.31	63.19
662.46	107.66
662.60	37.45
662.74	117.03
662.88	65.54
663.03	39.79
663.17	67.88
663.31	81.92
663.45	16.38
663.60	18.72
663.74	56.17
663.88	145.11
664.02	37.45
664.17	77.24
664.31	67.88
664.45	110.01
664.59	70.22
664.73	77.24
664.88	14.04
665.02	107.66
665.16	58.51
665.30	58.51
665.44	32.77
665.59	67.88
665.73	124.05
665.87	0.00
666.01	9.36
666.15	63.19
666.29	32.77
666.44	28.09
666.58	60.85
666.72	28.09
666.86	42.13
667.00	70.22
667.14	0.00
667.28	58.51
667.43	93.62
667.57	28.09
667.71	0.00
667.85	37.45
667.99	0.00
668.13	18.72
668.27	28.09
668.41	4.68
668.56	124.05
668.70	46.81
668.84	56.17
668.98	88.94
669.12	63.19
669.26	77.24
669.40	0.00
669.54	32.77
669.68	25.75
669.82	81.92
669.96	53.83
670.10	51.49
670.25	88.94
670.39	56.17
670.53	16.38
670.67	84.26
670.81	51.49
670.95	58.51
671.09	35.11
671.23	46.81
671.37	86.60
671.51	42.13
671.65	23.41
671.79	114.69
671.93	0.00
672.07	81.92
672.21	0.00
672.35	60.85
672.49	74.90
672.63	18.72
672.77	0.00
672.91	32.77
673.05	9.36
673.19	70.22
673.33	0.00
673.47	53.83
673.61	0.00
673.75	21.06
673.89	91.28
674.03	14.04
674.17	18.72
674.31	37.45
674.45	72.56
674.59	100.64
674.73	0.00
674.87	58.51
675.01	84.26
675.15	60.85
675.29	49.15
675.43	37.45
675.56	46.81
675.70	63.19
675.84	18.72
675.98	35.11
676.12	39.79
676.26	98.30
676.40	23.41
676.54	72.56
676.68	86.60
676.82	63.19
676.96	4.68
677.10	23.41
677.23	44.47
677.37	28.09
677.51	84.26
677.65	11.70
677.79	30.43
677.93	42.13
678.07	18.72
678.21	74.90
678.34	28.09
678.48	74.90
678.62	95.96
678.76	60.85
678.90	63.19
679.04	14.04
679.18	0.00
679.31	65.54
679.45	49.15
679.59	51.49
679.73	0.00
679.87	46.81
680.00	46.81
680.14	63.19
680.28	95.96
680.42	42.13
680.56	4.68
680.70	65.54
680.83	11.70
680.97	25.75
681.11	44.47
681.25	56.17
681.39	4.68
681.52	37.45
681.66	23.41
681.80	44.47
681.94	53.83
682.07	58.51
682.21	30.43
682.35	0.00
682.49	95.96
682.62	23.41
682.76	53.83
682.90	65.54
683.04	72.56
683.17	84.26
683.31	16.38
683.45	0.00
683.59	91.28
683.72	72.56
683.86	53.83
684.00	0.00
684.13	14.04
684.27	0.00
684.41	72.56
684.55	7.02
684.68	21.06
684.82	0.00
684.96	72.56
685.09	0.00
685.23	79.58
685.37	56.17
685.50	88.94
685.64	0.00
685.78	0.00
685.91	0.00
686.05	72.56
686.19	0.00
686.32	39.79
686.46	105.32
686.60	32.77
686.73	46.81
686.87	37.45
687.01	28.09
687.14	11.70
687.28	49.15
687.42	0.00
687.55	11.70
687.69	46.81
687.82	28.09
687.96	58.51
688.10	0.00
688.23	60.85
688.37	46.81
688.50	42.13
688.64	100.64
688.78	42.13
688.91	81.92
689.05	140.43
689.18	0.00
689.32	0.00
689.46	0.00
689.59	112.35
689.73	21.06
689.86	16.38
690.00	77.24
690.13	79.58
690.27	39.79
690.41	105.32
690.54	46.81
690.68	32.77
690.81	25.75
690.95	63.19
691.08	0.00
691.22	49.15
691.35	77.24
691.49	0.00
691.62	84.26
691.76	35.11
691.89	0.00
692.03	46.81
692.16	23.41
692.30	53.83
692.43	23.41
692.57	84.26
692.70	53.83
692.84	0.00
692.97	9.36
693.11	25.75
693.24	7.02
693.38	44.47
693.51	51.49
693.65	37.45
693.78	56.17
693.92	53.83
694.05	63.19
694.19	49.15
694.32	7.02
694.45	28.09
694.59	32.77
694.72	63.19
694.86	86.60
694.99	46.81
695.13	56.17
695.26	32.77
695.39	63.19
695.53	0.00
695.66	25.75
695.80	81.92
695.93	112.35
696.07	0.00
696.20	114.69
696.33	23.41
696.47	0.00
696.60	0.00
696.73	65.54
696.87	51.49
697.00	37.45
697.14	7.02
697.27	42.13
697.40	114.69
697.54	63.19
697.67	53.83
697.80	63.19
697.94	46.81
698.07	105.32
698.21	7.02
698.34	0.00
698.47	0.00
698.61	88.94
698.74	46.81
698.87	0.00
699.01	14.04
699.14	35.11
699.27	21.06
699.40	7.02
699.54	56.17
699.67	0.00
699.80	37.45
699.94	37.45
700.07	51.49
700.20	2.34
700.34	86.60
700.47	16.38
700.60	28.09
700.73	56.17
700.87	58.51
701.00	88.94
701.13	0.00
701.26	16.38
701.40	58.51
701.53	39.79
701.66	46.81
701.79	42.13
701.93	58.51
702.06	65.54
702.19	2.34
702.32	0.00
702.46	7.02
702.59	58.51
702.72	51.49
702.85	14.04
702.99	23.41
703.12	63.19
703.25	23.41
703.38	28.09
703.51	58.51
703.65	16.38
703.78	77.24
703.91	114.69
704.04	49.15
704.17	37.45
704.31	0.00
704.44	49.15
704.57	67.88
704.70	81.92
704.83	0.00
704.96	35.11
705.10	39.79
705.23	30.43
>>>>>End Processed Spectral Data<<<<<
