SpectraSuite Data File
++++++++++++++++++++++++++++++++++++
Date: Fri Oct 04 12:13:27 GMT-05:00 2013
User: price-jones
Dark Spectrum Present: No
Reference Spectrum Present: No
Number of Sampled Component Spectra: 1
Spectrometers: USB2+H05261
Integration Time (usec): 10000 (USB2+H05261)
Spectra Averaged: 1 (USB2+H05261)
Boxcar Smoothing: 0 (USB2+H05261)
Correct for Electrical Dark: No (USB2+H05261)
Strobe/Lamp Enabled: No (USB2+H05261)
Correct for Detector Non-linearity: No (USB2+H05261)
Correct for Stray Light: No (USB2+H05261)
Number of Pixels in Processed Spectrum: 2048
>>>>>Begin Processed Spectral Data<<<<<
365.73	16.38
365.92	16.38
366.12	16.38
366.32	0.00
366.52	0.00
366.72	0.00
366.91	0.00
367.11	0.00
367.31	0.00
367.51	0.00
367.70	0.00
367.90	0.00
368.10	0.00
368.30	0.00
368.49	0.00
368.69	0.00
368.89	0.00
369.09	0.00
369.28	0.00
369.48	0.00
369.68	0.00
369.87	0.00
370.07	0.00
370.27	0.00
370.47	0.00
370.66	0.00
370.86	0.00
371.06	0.00
371.25	25.75
371.45	0.00
371.65	0.00
371.84	0.00
372.04	0.00
372.24	0.00
372.44	0.00
372.63	18.72
372.83	32.77
373.03	58.51
373.22	2.34
373.42	46.81
373.62	0.00
373.81	42.13
374.01	74.90
374.21	67.88
374.40	7.02
374.60	81.92
374.79	79.58
374.99	58.51
375.19	0.00
375.38	0.00
375.58	0.00
375.78	65.54
375.97	28.09
376.17	0.00
376.37	25.75
376.56	28.09
376.76	37.45
376.95	32.77
377.15	11.70
377.35	124.05
377.54	0.00
377.74	23.41
377.93	39.79
378.13	0.00
378.33	18.72
378.52	16.38
378.72	28.09
378.91	0.00
379.11	21.06
379.31	0.00
379.50	35.11
379.70	51.49
379.89	42.13
380.09	42.13
380.28	0.00
380.48	0.00
380.68	37.45
380.87	28.09
381.07	0.00
381.26	0.00
381.46	114.69
381.65	4.68
381.85	32.77
382.04	16.38
382.24	0.00
382.43	0.00
382.63	0.00
382.83	0.00
383.02	9.36
383.22	16.38
383.41	7.02
383.61	65.54
383.80	44.47
384.00	0.00
384.19	0.00
384.39	65.54
384.58	16.38
384.78	11.70
384.97	65.54
385.17	49.15
385.36	0.00
385.56	0.00
385.75	28.09
385.95	46.81
386.14	0.00
386.34	0.00
386.53	0.00
386.72	98.30
386.92	28.09
387.11	46.81
387.31	37.45
387.50	0.00
387.70	0.00
387.89	0.00
388.09	42.13
388.28	0.00
388.48	25.75
388.67	42.13
388.86	14.04
389.06	32.77
389.25	49.15
389.45	0.00
389.64	11.70
389.84	135.75
390.03	49.15
390.22	9.36
390.42	21.06
390.61	0.00
390.81	9.36
391.00	79.58
391.19	25.75
391.39	72.56
391.58	23.41
391.78	44.47
391.97	0.00
392.16	0.00
392.36	16.38
392.55	0.00
392.75	9.36
392.94	105.32
393.13	0.00
393.33	37.45
393.52	9.36
393.71	74.90
393.91	9.36
394.10	0.00
394.29	0.00
394.49	0.00
394.68	93.62
394.88	0.00
395.07	14.04
395.26	0.00
395.46	53.83
395.65	56.17
395.84	58.51
396.04	56.17
396.23	2.34
396.42	7.02
396.62	23.41
396.81	42.13
397.00	81.92
397.19	0.00
397.39	42.13
397.58	9.36
397.77	0.00
397.97	0.00
398.16	14.04
398.35	44.47
398.55	53.83
398.74	58.51
398.93	32.77
399.12	0.00
399.32	0.00
399.51	9.36
399.70	28.09
399.90	67.88
400.09	30.43
400.28	21.06
400.47	14.04
400.67	28.09
400.86	42.13
401.05	14.04
401.24	63.19
401.44	0.00
401.63	14.04
401.82	0.00
402.01	30.43
402.21	72.56
402.40	35.11
402.59	0.00
402.78	0.00
402.97	30.43
403.17	9.36
403.36	23.41
403.55	56.17
403.74	0.00
403.93	0.00
404.13	0.00
404.32	0.00
404.51	0.00
404.70	0.00
404.89	0.00
405.09	84.26
405.28	14.04
405.47	49.15
405.66	49.15
405.85	67.88
406.05	0.00
406.24	0.00
406.43	107.66
406.62	21.06
406.81	0.00
407.00	49.15
407.20	25.75
407.39	0.00
407.58	70.22
407.77	72.56
407.96	35.11
408.15	28.09
408.34	105.32
408.54	9.36
408.73	0.00
408.92	0.00
409.11	102.98
409.30	124.05
409.49	100.64
409.68	0.00
409.87	74.90
410.07	72.56
410.26	63.19
410.45	25.75
410.64	35.11
410.83	30.43
411.02	117.03
411.21	23.41
411.40	21.06
411.59	0.00
411.78	0.00
411.98	23.41
412.17	23.41
412.36	0.00
412.55	18.72
412.74	32.77
412.93	60.85
413.12	0.00
413.31	25.75
413.50	60.85
413.69	0.00
413.88	25.75
414.07	11.70
414.26	0.00
414.45	0.00
414.64	25.75
414.83	2.34
415.02	0.00
415.22	53.83
415.41	65.54
415.60	9.36
415.79	51.49
415.98	65.54
416.17	4.68
416.36	65.54
416.55	37.45
416.74	88.94
416.93	32.77
417.12	63.19
417.31	0.00
417.50	0.00
417.69	35.11
417.88	42.13
418.07	18.72
418.26	7.02
418.45	39.79
418.64	60.85
418.83	0.00
419.02	42.13
419.21	72.56
419.39	14.04
419.58	65.54
419.77	25.75
419.96	0.00
420.15	0.00
420.34	25.75
420.53	65.54
420.72	60.85
420.91	93.62
421.10	35.11
421.29	23.41
421.48	0.00
421.67	44.47
421.86	14.04
422.05	7.02
422.24	0.00
422.43	0.00
422.61	63.19
422.80	70.22
422.99	49.15
423.18	0.00
423.37	4.68
423.56	81.92
423.75	14.04
423.94	81.92
424.13	84.26
424.32	37.45
424.50	0.00
424.69	37.45
424.88	88.94
425.07	23.41
425.26	23.41
425.45	79.58
425.64	39.79
425.83	18.72
426.01	46.81
426.20	30.43
426.39	0.00
426.58	28.09
426.77	0.00
426.96	21.06
427.15	37.45
427.33	72.56
427.52	46.81
427.71	46.81
427.90	60.85
428.09	46.81
428.28	65.54
428.46	32.77
428.65	56.17
428.84	21.06
429.03	28.09
429.22	0.00
429.40	65.54
429.59	46.81
429.78	37.45
429.97	14.04
430.16	51.49
430.34	21.06
430.53	39.79
430.72	74.90
430.91	93.62
431.10	72.56
431.28	72.56
431.47	28.09
431.66	39.79
431.85	39.79
432.03	53.83
432.22	77.24
432.41	16.38
432.60	49.15
432.79	46.81
432.97	140.43
433.16	2.34
433.35	65.54
433.54	0.00
433.72	39.79
433.91	44.47
434.10	32.77
434.28	49.15
434.47	42.13
434.66	44.47
434.85	0.00
435.03	32.77
435.22	28.09
435.41	63.19
435.59	86.60
435.78	28.09
435.97	7.02
436.16	53.83
436.34	74.90
436.53	0.00
436.72	107.66
436.90	16.38
437.09	93.62
437.28	25.75
437.46	0.00
437.65	21.06
437.84	0.00
438.02	9.36
438.21	30.43
438.40	35.11
438.58	53.83
438.77	53.83
438.96	32.77
439.14	37.45
439.33	9.36
439.52	0.00
439.70	37.45
439.89	4.68
440.08	35.11
440.26	0.00
440.45	21.06
440.63	16.38
440.82	58.51
441.01	0.00
441.19	46.81
441.38	67.88
441.57	39.79
441.75	21.06
441.94	63.19
442.12	0.00
442.31	0.00
442.50	0.00
442.68	18.72
442.87	30.43
443.05	49.15
443.24	42.13
443.43	70.22
443.61	72.56
443.80	42.13
443.98	65.54
444.17	11.70
444.35	105.32
444.54	2.34
444.73	74.90
444.91	18.72
445.10	32.77
445.28	25.75
445.47	7.02
445.65	72.56
445.84	0.00
446.02	16.38
446.21	14.04
446.39	2.34
446.58	39.79
446.77	53.83
446.95	0.00
447.14	67.88
447.32	32.77
447.51	39.79
447.69	79.58
447.88	7.02
448.06	51.49
448.25	72.56
448.43	0.00
448.62	0.00
448.80	35.11
448.99	32.77
449.17	56.17
449.36	0.00
449.54	23.41
449.73	77.24
449.91	28.09
450.10	28.09
450.28	72.56
450.46	67.88
450.65	18.72
450.83	0.00
451.02	65.54
451.20	51.49
451.39	28.09
451.57	46.81
451.76	58.51
451.94	23.41
452.13	28.09
452.31	0.00
452.49	63.19
452.68	9.36
452.86	0.00
453.05	56.17
453.23	30.43
453.42	44.47
453.60	56.17
453.78	63.19
453.97	0.00
454.15	18.72
454.34	72.56
454.52	0.00
454.70	58.51
454.89	0.00
455.07	44.47
455.26	53.83
455.44	0.00
455.62	49.15
455.81	0.00
455.99	0.00
456.17	32.77
456.36	0.00
456.54	32.77
456.73	0.00
456.91	58.51
457.09	0.00
457.28	53.83
457.46	0.00
457.64	60.85
457.83	0.00
458.01	65.54
458.19	14.04
458.38	0.00
458.56	9.36
458.74	23.41
458.93	21.06
459.11	119.37
459.29	86.60
459.48	102.98
459.66	65.54
459.84	70.22
460.03	51.49
460.21	58.51
460.39	46.81
460.57	102.98
460.76	84.26
460.94	9.36
461.12	60.85
461.31	100.64
461.49	124.05
461.67	0.00
461.85	42.13
462.04	16.38
462.22	159.16
462.40	11.70
462.59	88.94
462.77	91.28
462.95	23.41
463.13	0.00
463.32	0.00
463.50	0.00
463.68	25.75
463.86	0.00
464.05	58.51
464.23	42.13
464.41	42.13
464.59	0.00
464.78	114.69
464.96	23.41
465.14	2.34
465.32	28.09
465.50	32.77
465.69	70.22
465.87	16.38
466.05	44.47
466.23	0.00
466.41	32.77
466.60	4.68
466.78	37.45
466.96	0.00
467.14	23.41
467.32	53.83
467.51	56.17
467.69	128.73
467.87	51.49
468.05	74.90
468.23	65.54
468.41	53.83
468.60	81.92
468.78	0.00
468.96	49.15
469.14	56.17
469.32	23.41
469.50	0.00
469.69	49.15
469.87	60.85
470.05	0.00
470.23	70.22
470.41	0.00
470.59	49.15
470.77	0.00
470.95	0.00
471.14	74.90
471.32	44.47
471.50	39.79
471.68	88.94
471.86	4.68
472.04	7.02
472.22	70.22
472.40	42.13
472.58	21.06
472.77	77.24
472.95	35.11
473.13	0.00
473.31	0.00
473.49	42.13
473.67	9.36
473.85	46.81
474.03	0.00
474.21	70.22
474.39	32.77
474.57	49.15
474.75	0.00
474.93	84.26
475.12	74.90
475.30	21.06
475.48	28.09
475.66	53.83
475.84	30.43
476.02	53.83
476.20	72.56
476.38	0.00
476.56	35.11
476.74	16.38
476.92	25.75
477.10	65.54
477.28	25.75
477.46	65.54
477.64	88.94
477.82	0.00
478.00	37.45
478.18	35.11
478.36	0.00
478.54	58.51
478.72	37.45
478.90	23.41
479.08	0.00
479.26	56.17
479.44	51.49
479.62	0.00
479.80	79.58
479.98	65.54
480.16	0.00
480.34	46.81
480.52	56.17
480.70	70.22
480.88	35.11
481.06	49.15
481.24	25.75
481.41	0.00
481.59	9.36
481.77	9.36
481.95	93.62
482.13	30.43
482.31	18.72
482.49	60.85
482.67	0.00
482.85	77.24
483.03	35.11
483.21	0.00
483.39	0.00
483.57	0.00
483.74	11.70
483.92	14.04
484.10	0.00
484.28	91.28
484.46	23.41
484.64	117.03
484.82	77.24
485.00	2.34
485.18	0.00
485.35	51.49
485.53	0.00
485.71	2.34
485.89	0.00
486.07	0.00
486.25	60.85
486.43	63.19
486.61	7.02
486.78	11.70
486.96	2.34
487.14	25.75
487.32	28.09
487.50	28.09
487.68	81.92
487.85	32.77
488.03	67.88
488.21	53.83
488.39	37.45
488.57	0.00
488.75	0.00
488.92	67.88
489.10	107.66
489.28	44.47
489.46	18.72
489.64	28.09
489.81	23.41
489.99	23.41
490.17	39.79
490.35	74.90
490.53	35.11
490.70	0.00
490.88	30.43
491.06	67.88
491.24	0.00
491.41	88.94
491.59	65.54
491.77	79.58
491.95	74.90
492.13	0.00
492.30	39.79
492.48	117.03
492.66	86.60
492.84	60.85
493.01	11.70
493.19	0.00
493.37	0.00
493.54	25.75
493.72	28.09
493.90	0.00
494.08	32.77
494.25	63.19
494.43	14.04
494.61	4.68
494.79	0.00
494.96	32.77
495.14	72.56
495.32	4.68
495.49	46.81
495.67	84.26
495.85	16.38
496.02	37.45
496.20	14.04
496.38	28.09
496.55	70.22
496.73	53.83
496.91	37.45
497.09	11.70
497.26	23.41
497.44	0.00
497.62	98.30
497.79	88.94
497.97	49.15
498.14	79.58
498.32	25.75
498.50	23.41
498.67	11.70
498.85	74.90
499.03	117.03
499.20	37.45
499.38	84.26
499.56	42.13
499.73	74.90
499.91	100.64
500.08	46.81
500.26	56.17
500.44	32.77
500.61	110.01
500.79	9.36
500.97	37.45
501.14	4.68
501.32	53.83
501.49	23.41
501.67	100.64
501.84	95.96
502.02	2.34
502.20	16.38
502.37	72.56
502.55	23.41
502.72	49.15
502.90	84.26
503.07	70.22
503.25	21.06
503.43	42.13
503.60	51.49
503.78	0.00
503.95	0.00
504.13	0.00
504.30	9.36
504.48	126.39
504.65	23.41
504.83	14.04
505.01	60.85
505.18	2.34
505.36	65.54
505.53	0.00
505.71	39.79
505.88	121.71
506.06	107.66
506.23	86.60
506.41	119.37
506.58	35.11
506.76	51.49
506.93	93.62
507.11	72.56
507.28	7.02
507.46	9.36
507.63	93.62
507.81	0.00
507.98	0.00
508.16	79.58
508.33	30.43
508.50	42.13
508.68	110.01
508.85	91.28
509.03	2.34
509.20	107.66
509.38	74.90
509.55	0.00
509.73	37.45
509.90	163.84
510.08	30.43
510.25	14.04
510.42	77.24
510.60	30.43
510.77	58.51
510.95	56.17
511.12	0.00
511.30	84.26
511.47	30.43
511.64	0.00
511.82	60.85
511.99	18.72
512.17	86.60
512.34	105.32
512.51	110.01
512.69	72.56
512.86	4.68
513.04	23.41
513.21	112.35
513.38	49.15
513.56	0.00
513.73	18.72
513.90	67.88
514.08	11.70
514.25	44.47
514.43	58.51
514.60	14.04
514.77	0.00
514.95	18.72
515.12	51.49
515.29	28.09
515.47	39.79
515.64	79.58
515.81	42.13
515.99	95.96
516.16	37.45
516.33	32.77
516.51	7.02
516.68	58.51
516.85	67.88
517.03	28.09
517.20	49.15
517.37	35.11
517.54	84.26
517.72	58.51
517.89	30.43
518.06	4.68
518.24	44.47
518.41	42.13
518.58	28.09
518.75	58.51
518.93	84.26
519.10	42.13
519.27	21.06
519.45	0.00
519.62	30.43
519.79	0.00
519.96	60.85
520.14	58.51
520.31	0.00
520.48	4.68
520.65	53.83
520.83	42.13
521.00	98.30
521.17	4.68
521.34	18.72
521.52	67.88
521.69	60.85
521.86	42.13
522.03	0.00
522.20	0.00
522.38	25.75
522.55	9.36
522.72	81.92
522.89	42.13
523.07	77.24
523.24	35.11
523.41	37.45
523.58	0.00
523.75	51.49
523.92	91.28
524.10	58.51
524.27	0.00
524.44	81.92
524.61	58.51
524.78	84.26
524.96	25.75
525.13	23.41
525.30	39.79
525.47	35.11
525.64	0.00
525.81	79.58
525.98	30.43
526.16	44.47
526.33	14.04
526.50	7.02
526.67	0.00
526.84	14.04
527.01	21.06
527.18	42.13
527.36	25.75
527.53	9.36
527.70	32.77
527.87	77.24
528.04	79.58
528.21	0.00
528.38	0.00
528.55	49.15
528.72	0.00
528.89	4.68
529.07	2.34
529.24	37.45
529.41	18.72
529.58	56.17
529.75	9.36
529.92	58.51
530.09	0.00
530.26	16.38
530.43	0.00
530.60	79.58
530.77	79.58
530.94	2.34
531.11	14.04
531.28	16.38
531.46	60.85
531.63	102.98
531.80	67.88
531.97	37.45
532.14	60.85
532.31	49.15
532.48	18.72
532.65	44.47
532.82	84.26
532.99	74.90
533.16	18.72
533.33	114.69
533.50	28.09
533.67	63.19
533.84	37.45
534.01	42.13
534.18	145.11
534.35	44.47
534.52	77.24
534.69	67.88
534.86	102.98
535.03	16.38
535.20	37.45
535.37	39.79
535.54	65.54
535.71	44.47
535.88	14.04
536.05	16.38
536.22	14.04
536.38	35.11
536.55	0.00
536.72	51.49
536.89	37.45
537.06	86.60
537.23	86.60
537.40	58.51
537.57	60.85
537.74	65.54
537.91	39.79
538.08	42.13
538.25	21.06
538.42	9.36
538.59	4.68
538.75	39.79
538.92	0.00
539.09	0.00
539.26	18.72
539.43	53.83
539.60	128.73
539.77	142.77
539.94	203.63
540.11	93.62
540.28	88.94
540.44	100.64
540.61	84.26
540.78	32.77
540.95	28.09
541.12	44.47
541.29	0.00
541.46	7.02
541.62	58.51
541.79	0.00
541.96	65.54
542.13	79.58
542.30	58.51
542.47	46.81
542.63	30.43
542.80	58.51
542.97	81.92
543.14	28.09
543.31	2.34
543.48	49.15
543.64	77.24
543.81	58.51
543.98	16.38
544.15	14.04
544.32	0.00
544.48	58.51
544.65	93.62
544.82	14.04
544.99	46.81
545.16	84.26
545.32	7.02
545.49	56.17
545.66	93.62
545.83	58.51
546.00	30.43
546.16	86.60
546.33	63.19
546.50	74.90
546.67	49.15
546.83	56.17
547.00	25.75
547.17	74.90
547.34	4.68
547.50	81.92
547.67	14.04
547.84	2.34
548.00	39.79
548.17	84.26
548.34	58.51
548.51	105.32
548.67	91.28
548.84	74.90
549.01	0.00
549.18	23.41
549.34	56.17
549.51	14.04
549.68	0.00
549.84	30.43
550.01	53.83
550.18	56.17
550.34	49.15
550.51	0.00
550.68	42.13
550.84	56.17
551.01	58.51
551.18	100.64
551.34	91.28
551.51	74.90
551.68	37.45
551.84	65.54
552.01	4.68
552.18	60.85
552.34	58.51
552.51	44.47
552.68	49.15
552.84	16.38
553.01	0.00
553.18	53.83
553.34	11.70
553.51	0.00
553.67	14.04
553.84	51.49
554.01	14.04
554.17	53.83
554.34	32.77
554.51	51.49
554.67	88.94
554.84	42.13
555.00	39.79
555.17	60.85
555.33	70.22
555.50	7.02
555.67	58.51
555.83	84.26
556.00	51.49
556.16	70.22
556.33	77.24
556.50	58.51
556.66	44.47
556.83	74.90
556.99	0.00
557.16	0.00
557.32	65.54
557.49	0.00
557.65	9.36
557.82	11.70
557.98	51.49
558.15	23.41
558.32	51.49
558.48	0.00
558.65	0.00
558.81	49.15
558.98	49.15
559.14	124.05
559.31	37.45
559.47	0.00
559.64	77.24
559.80	72.56
559.97	81.92
560.13	107.66
560.30	28.09
560.46	28.09
560.63	21.06
560.79	0.00
560.96	35.11
561.12	49.15
561.29	56.17
561.45	58.51
561.61	100.64
561.78	42.13
561.94	35.11
562.11	28.09
562.27	25.75
562.44	0.00
562.60	0.00
562.77	23.41
562.93	16.38
563.10	74.90
563.26	74.90
563.42	42.13
563.59	112.35
563.75	0.00
563.92	30.43
564.08	51.49
564.24	86.60
564.41	46.81
564.57	14.04
564.74	79.58
564.90	7.02
565.07	95.96
565.23	77.24
565.39	51.49
565.56	11.70
565.72	21.06
565.88	53.83
566.05	60.85
566.21	14.04
566.38	35.11
566.54	53.83
566.70	53.83
566.87	58.51
567.03	58.51
567.19	4.68
567.36	11.70
567.52	81.92
567.68	21.06
567.85	35.11
568.01	81.92
568.17	37.45
568.34	100.64
568.50	70.22
568.66	107.66
568.83	23.41
568.99	0.00
569.15	110.01
569.32	63.19
569.48	51.49
569.64	14.04
569.81	121.71
569.97	91.28
570.13	44.47
570.30	86.60
570.46	0.00
570.62	23.41
570.78	72.56
570.95	84.26
571.11	42.13
571.27	23.41
571.43	0.00
571.60	42.13
571.76	72.56
571.92	25.75
572.09	0.00
572.25	49.15
572.41	16.38
572.57	46.81
572.74	0.00
572.90	53.83
573.06	93.62
573.22	28.09
573.38	30.43
573.55	35.11
573.71	18.72
573.87	46.81
574.03	100.64
574.20	70.22
574.36	51.49
574.52	0.00
574.68	42.13
574.84	84.26
575.01	105.32
575.17	79.58
575.33	39.79
575.49	23.41
575.65	4.68
575.82	44.47
575.98	88.94
576.14	177.88
576.30	67.88
576.46	65.54
576.62	72.56
576.79	74.90
576.95	0.00
577.11	18.72
577.27	37.45
577.43	114.69
577.59	7.02
577.75	0.00
577.92	21.06
578.08	14.04
578.24	42.13
578.40	23.41
578.56	37.45
578.72	23.41
578.88	30.43
579.04	7.02
579.21	42.13
579.37	74.90
579.53	72.56
579.69	32.77
579.85	32.77
580.01	23.41
580.17	28.09
580.33	46.81
580.49	159.16
580.65	0.00
580.82	112.35
580.98	56.17
581.14	77.24
581.30	32.77
581.46	72.56
581.62	7.02
581.78	138.09
581.94	98.30
582.10	0.00
582.26	70.22
582.42	2.34
582.58	56.17
582.74	42.13
582.90	56.17
583.06	98.30
583.22	95.96
583.38	58.51
583.54	173.20
583.70	53.83
583.86	84.26
584.02	107.66
584.18	133.41
584.34	128.73
584.50	383.85
584.66	2331.17
584.82	6038.58
584.98	9692.16
585.14	9088.30
585.30	5472.17
585.46	3227.60
585.62	2057.33
585.78	1015.79
585.94	348.74
586.10	224.69
586.26	175.54
586.42	56.17
586.58	86.60
586.74	60.85
586.90	14.04
587.06	105.32
587.22	98.30
587.38	135.75
587.54	140.43
587.70	306.61
587.86	667.05
588.02	779.40
588.18	606.20
588.34	308.95
588.49	205.97
588.65	126.39
588.81	100.64
588.97	86.60
589.13	44.47
589.29	77.24
589.45	98.30
589.61	79.58
589.77	88.94
589.93	98.30
590.08	16.38
590.24	124.05
590.40	77.24
590.56	98.30
590.72	51.49
590.88	81.92
591.04	23.41
591.20	51.49
591.35	35.11
591.51	46.81
591.67	53.83
591.83	53.83
591.99	30.43
592.15	37.45
592.31	56.17
592.46	51.49
592.62	42.13
592.78	114.69
592.94	53.83
593.10	79.58
593.26	28.09
593.41	77.24
593.57	65.54
593.73	86.60
593.89	334.70
594.05	800.46
594.20	1259.21
594.36	1259.21
594.52	833.23
594.68	482.15
594.84	308.95
594.99	121.71
595.15	81.92
595.31	30.43
595.47	49.15
595.62	30.43
595.78	21.06
595.94	2.34
596.10	44.47
596.25	4.68
596.41	91.28
596.57	28.09
596.73	74.90
596.88	46.81
597.04	107.66
597.20	250.44
597.36	379.17
597.51	285.55
597.67	102.98
597.83	124.05
597.99	140.43
598.14	9.36
598.30	0.00
598.46	16.38
598.61	88.94
598.77	51.49
598.93	81.92
599.09	0.00
599.24	84.26
599.40	0.00
599.56	21.06
599.71	23.41
599.87	60.85
600.03	95.96
600.18	35.11
600.34	84.26
600.50	53.83
600.65	0.00
600.81	107.66
600.97	16.38
601.12	0.00
601.28	9.36
601.44	70.22
601.59	42.13
601.75	102.98
601.91	0.00
602.06	88.94
602.22	28.09
602.37	46.81
602.53	161.50
602.69	348.74
602.84	402.57
603.00	299.59
603.16	107.66
603.31	117.03
603.47	110.01
603.62	56.17
603.78	91.28
603.94	72.56
604.09	51.49
604.25	37.45
604.40	42.13
604.56	65.54
604.71	4.68
604.87	0.00
605.03	11.70
605.18	0.00
605.34	126.39
605.49	56.17
605.65	30.43
605.80	70.22
605.96	25.75
606.12	30.43
606.27	56.17
606.43	23.41
606.58	93.62
606.74	84.26
606.89	367.46
607.05	730.25
607.20	1090.69
607.36	943.24
607.51	624.92
607.67	393.21
607.82	367.46
607.98	196.60
608.13	152.13
608.29	170.86
608.44	42.13
608.60	18.72
608.75	110.01
608.91	163.84
609.06	636.63
609.22	1207.72
609.37	1743.70
609.53	1640.72
609.68	1186.65
609.84	636.63
609.99	442.36
610.15	248.10
610.30	142.77
610.46	0.00
610.61	44.47
610.76	37.45
610.92	44.47
611.07	70.22
611.23	74.90
611.38	18.72
611.54	119.37
611.69	28.09
611.84	98.30
612.00	86.60
612.15	16.38
612.31	25.75
612.46	138.09
612.62	28.09
612.77	63.19
612.92	119.37
613.08	91.28
613.23	11.70
613.39	63.19
613.54	102.98
613.69	540.66
613.85	1579.86
614.00	2633.10
614.15	2935.03
614.31	2134.57
614.46	1390.28
614.62	887.06
614.77	571.09
614.92	283.20
615.08	170.86
615.23	114.69
615.38	23.41
615.54	79.58
615.69	128.73
615.84	320.65
616.00	568.75
616.15	763.01
616.30	643.65
616.46	521.94
616.61	287.89
616.76	208.31
616.92	56.17
617.07	93.62
617.22	53.83
617.37	51.49
617.53	32.77
617.68	32.77
617.83	39.79
617.99	126.39
618.14	133.41
618.29	14.04
618.45	23.41
618.60	42.13
618.75	72.56
618.90	9.36
619.06	25.75
619.21	91.28
619.36	46.81
619.51	0.00
619.67	70.22
619.82	21.06
619.97	21.06
620.12	53.83
620.28	72.56
620.43	35.11
620.58	46.81
620.73	53.83
620.89	84.26
621.04	86.60
621.19	229.37
621.34	348.74
621.49	463.43
621.65	531.30
621.80	346.40
621.95	234.05
622.10	212.99
622.25	119.37
622.41	60.85
622.56	28.09
622.71	32.77
622.86	0.00
623.01	23.41
623.16	44.47
623.32	67.88
623.47	67.88
623.62	0.00
623.77	0.00
623.92	0.00
624.07	37.45
624.23	32.77
624.38	49.15
624.53	0.00
624.68	53.83
624.83	0.00
624.98	65.54
625.13	23.41
625.29	63.19
625.44	81.92
625.59	23.41
625.74	93.62
625.89	147.45
626.04	234.05
626.19	779.40
626.34	1329.42
626.49	1483.90
626.65	1132.82
626.80	798.12
626.95	517.26
627.10	386.19
627.25	156.82
627.40	95.96
627.55	74.90
627.70	70.22
627.85	11.70
628.00	0.00
628.15	18.72
628.30	93.62
628.45	9.36
628.60	28.09
628.76	95.96
628.91	65.54
629.06	0.00
629.21	74.90
629.36	46.81
629.51	32.77
629.66	56.17
629.81	0.00
629.96	152.13
630.11	318.31
630.26	465.77
630.41	393.21
630.56	220.01
630.71	266.82
630.86	161.50
631.01	98.30
631.16	23.41
631.31	105.32
631.46	63.19
631.61	25.75
631.76	0.00
631.91	60.85
632.06	37.45
632.21	0.00
632.36	0.00
632.51	117.03
632.66	44.47
632.81	142.77
632.96	402.57
633.10	823.87
633.25	1181.97
633.40	945.58
633.55	638.97
633.70	451.72
633.85	292.57
634.00	112.35
634.15	63.19
634.30	84.26
634.45	30.43
634.60	74.90
634.75	84.26
634.90	79.58
635.05	21.06
635.19	91.28
635.34	51.49
635.49	88.94
635.64	88.94
635.79	49.15
635.94	0.00
636.09	0.00
636.24	11.70
636.39	60.85
636.53	72.56
636.68	0.00
636.83	110.01
636.98	98.30
637.13	77.24
637.28	63.19
637.43	53.83
637.57	35.11
637.72	355.76
637.87	933.87
638.02	1783.49
638.17	2024.56
638.32	1483.90
638.46	1043.88
638.61	653.01
638.76	379.17
638.91	177.88
639.06	128.73
639.20	121.71
639.35	102.98
639.50	105.32
639.65	585.13
639.80	1540.07
639.94	2630.76
640.09	3023.97
640.24	2359.26
640.39	1603.27
640.54	1104.73
640.68	669.39
640.83	276.18
640.98	128.73
641.13	142.77
641.27	65.54
641.42	98.30
641.57	77.24
641.72	16.38
641.86	4.68
642.01	42.13
642.16	16.38
642.31	46.81
642.45	112.35
642.60	95.96
642.75	49.15
642.90	0.00
643.04	11.70
643.19	37.45
643.34	42.13
643.48	110.01
643.63	21.06
643.78	86.60
643.93	18.72
644.07	2.34
644.22	18.72
644.37	70.22
644.51	0.00
644.66	67.88
644.81	30.43
644.95	51.49
645.10	28.09
645.25	30.43
645.39	100.64
645.54	79.58
645.69	149.79
645.83	42.13
645.98	0.00
646.13	18.72
646.27	77.24
646.42	77.24
646.57	14.04
646.71	51.49
646.86	16.38
647.00	51.49
647.15	81.92
647.30	16.38
647.44	23.41
647.59	56.17
647.74	0.00
647.88	0.00
648.03	9.36
648.17	14.04
648.32	28.09
648.47	4.68
648.61	65.54
648.76	21.06
648.90	42.13
649.05	0.00
649.20	65.54
649.34	44.47
649.49	58.51
649.63	53.83
649.78	95.96
649.92	51.49
650.07	231.71
650.21	702.16
650.36	1259.21
650.51	1561.14
650.65	1380.92
650.80	851.96
650.94	641.31
651.09	444.70
651.23	287.89
651.38	124.05
651.52	88.94
651.67	67.88
651.81	51.49
651.96	49.15
652.10	25.75
652.25	37.45
652.39	107.66
652.54	65.54
652.68	86.60
652.83	222.35
652.97	444.70
653.12	613.22
653.26	561.73
653.41	400.23
653.55	217.67
653.70	145.11
653.84	65.54
653.99	102.98
654.13	93.62
654.27	49.15
654.42	65.54
654.56	16.38
654.71	86.60
654.85	0.00
655.00	51.49
655.14	0.00
655.29	37.45
655.43	9.36
655.57	44.47
655.72	21.06
655.86	65.54
656.01	56.17
656.15	32.77
656.30	0.00
656.44	11.70
656.58	65.54
656.73	84.26
656.87	21.06
657.01	0.00
657.16	28.09
657.30	100.64
657.45	86.60
657.59	30.43
657.73	23.41
657.88	16.38
658.02	28.09
658.16	51.49
658.31	0.00
658.45	53.83
658.60	28.09
658.74	0.00
658.88	23.41
659.03	0.00
659.17	72.56
659.31	72.56
659.46	318.31
659.60	524.28
659.74	835.57
659.89	758.33
660.03	531.30
660.17	404.91
660.32	170.86
660.46	147.45
660.60	93.62
660.74	67.88
660.89	72.56
661.03	46.81
661.17	51.49
661.32	0.00
661.46	0.00
661.60	0.00
661.74	23.41
661.89	91.28
662.03	77.24
662.17	70.22
662.31	28.09
662.46	37.45
662.60	74.90
662.74	49.15
662.88	65.54
663.03	65.54
663.17	35.11
663.31	35.11
663.45	51.49
663.60	67.88
663.74	37.45
663.88	42.13
664.02	51.49
664.17	56.17
664.31	63.19
664.45	42.13
664.59	42.13
664.73	77.24
664.88	60.85
665.02	28.09
665.16	21.06
665.30	21.06
665.44	74.90
665.59	81.92
665.73	74.90
665.87	63.19
666.01	16.38
666.15	14.04
666.29	0.00
666.44	49.15
666.58	28.09
666.72	0.00
666.86	37.45
667.00	86.60
667.14	72.56
667.28	126.39
667.43	571.09
667.57	1043.88
667.71	1294.32
667.85	1235.80
667.99	835.57
668.13	540.66
668.27	390.87
668.41	229.37
668.56	121.71
668.70	102.98
668.84	49.15
668.98	25.75
669.12	133.41
669.26	39.79
669.40	39.79
669.54	28.09
669.68	0.00
669.82	56.17
669.96	60.85
670.10	39.79
670.25	93.62
670.39	84.26
670.53	30.43
670.67	58.51
670.81	18.72
670.95	77.24
671.09	72.56
671.23	255.12
671.37	510.24
671.51	800.46
671.65	784.08
671.79	634.29
671.93	491.51
672.07	243.42
672.21	248.10
672.35	107.66
672.49	39.79
672.63	51.49
672.77	23.41
672.91	51.49
673.05	0.00
673.19	60.85
673.33	65.54
673.47	56.17
673.61	4.68
673.75	63.19
673.89	0.00
674.03	23.41
674.17	121.71
674.31	23.41
674.45	2.34
674.59	0.00
674.73	14.04
674.87	0.00
675.01	86.60
675.15	63.19
675.29	110.01
675.43	30.43
675.56	56.17
675.70	53.83
675.84	25.75
675.98	23.41
676.12	37.45
676.26	56.17
676.40	23.41
676.54	23.41
676.68	2.34
676.82	4.68
676.96	32.77
677.10	77.24
677.23	21.06
677.37	4.68
677.51	56.17
677.65	53.83
677.79	0.00
677.93	30.43
678.07	39.79
678.21	18.72
678.34	21.06
678.48	4.68
678.62	74.90
678.76	0.00
678.90	86.60
679.04	18.72
679.18	49.15
679.31	65.54
679.45	56.17
679.59	0.00
679.73	131.07
679.87	70.22
680.00	37.45
680.14	11.70
680.28	72.56
680.42	42.13
680.56	42.13
680.70	49.15
680.83	18.72
680.97	39.79
681.11	0.00
681.25	0.00
681.39	0.00
681.52	14.04
681.66	7.02
681.80	4.68
681.94	44.47
682.07	51.49
682.21	25.75
682.35	35.11
682.49	58.51
682.62	79.58
682.76	56.17
682.90	37.45
683.04	70.22
683.17	51.49
683.31	0.00
683.45	4.68
683.59	2.34
683.72	91.28
683.86	46.81
684.00	37.45
684.13	51.49
684.27	95.96
684.41	74.90
684.55	7.02
684.68	14.04
684.82	35.11
684.96	16.38
685.09	2.34
685.23	0.00
685.37	0.00
685.50	23.41
685.64	30.43
685.78	60.85
685.91	72.56
686.05	0.00
686.19	23.41
686.32	37.45
686.46	28.09
686.60	63.19
686.73	51.49
686.87	60.85
687.01	2.34
687.14	9.36
687.28	14.04
687.42	25.75
687.55	2.34
687.69	42.13
687.82	67.88
687.96	28.09
688.10	49.15
688.23	0.00
688.37	23.41
688.50	53.83
688.64	18.72
688.78	7.02
688.91	21.06
689.05	9.36
689.18	0.00
689.32	0.00
689.46	77.24
689.59	49.15
689.73	46.81
689.86	39.79
690.00	25.75
690.13	56.17
690.27	131.07
690.41	58.51
690.54	0.00
690.68	98.30
690.81	58.51
690.95	35.11
691.08	0.00
691.22	0.00
691.35	42.13
691.49	2.34
691.62	0.00
691.76	25.75
691.89	60.85
692.03	51.49
692.16	0.00
692.30	0.00
692.43	149.79
692.57	259.80
692.70	409.59
692.84	601.52
692.97	641.31
693.11	402.57
693.24	299.59
693.38	252.78
693.51	81.92
693.65	145.11
693.78	67.88
693.92	72.56
694.05	35.11
694.19	0.00
694.32	56.17
694.45	7.02
694.59	44.47
694.72	95.96
694.86	58.51
694.99	30.43
695.13	37.45
695.26	0.00
695.39	65.54
695.53	32.77
695.66	2.34
695.80	67.88
695.93	18.72
696.07	42.13
696.20	44.47
696.33	0.00
696.47	77.24
696.60	30.43
696.73	79.58
696.87	28.09
697.00	65.54
697.14	4.68
697.27	28.09
697.40	0.00
697.54	44.47
697.67	21.06
697.80	0.00
697.94	63.19
698.07	30.43
698.21	0.00
698.34	30.43
698.47	58.51
698.61	51.49
698.74	37.45
698.87	35.11
699.01	21.06
699.14	2.34
699.27	63.19
699.40	77.24
699.54	98.30
699.67	32.77
699.80	32.77
699.94	44.47
700.07	0.00
700.20	9.36
700.34	4.68
700.47	11.70
700.60	28.09
700.73	7.02
700.87	0.00
701.00	58.51
701.13	42.13
701.26	39.79
701.40	46.81
701.53	21.06
701.66	42.13
701.79	49.15
701.93	51.49
702.06	35.11
702.19	42.13
702.32	88.94
702.46	95.96
702.59	70.22
702.72	81.92
702.85	355.76
702.99	676.41
703.12	1006.43
703.25	1207.72
703.38	1018.13
703.51	863.66
703.65	645.99
703.78	463.43
703.91	311.29
704.04	229.37
704.17	147.45
704.31	117.03
704.44	32.77
704.57	35.11
704.70	105.32
704.83	21.06
704.96	49.15
705.10	4.68
705.23	4.68
>>>>>End Processed Spectral Data<<<<<
