SpectraSuite Data File
++++++++++++++++++++++++++++++++++++
Date: Fri Oct 04 12:13:34 GMT-05:00 2013
User: price-jones
Dark Spectrum Present: No
Reference Spectrum Present: No
Number of Sampled Component Spectra: 1
Spectrometers: USB2+H05261
Integration Time (usec): 10000 (USB2+H05261)
Spectra Averaged: 1 (USB2+H05261)
Boxcar Smoothing: 0 (USB2+H05261)
Correct for Electrical Dark: No (USB2+H05261)
Strobe/Lamp Enabled: No (USB2+H05261)
Correct for Detector Non-linearity: No (USB2+H05261)
Correct for Stray Light: No (USB2+H05261)
Number of Pixels in Processed Spectrum: 2048
>>>>>Begin Processed Spectral Data<<<<<
365.73	0.00
365.92	0.00
366.12	0.00
366.32	0.00
366.52	0.00
366.72	0.00
366.91	0.00
367.11	0.00
367.31	0.00
367.51	0.00
367.70	0.00
367.90	0.00
368.10	0.00
368.30	0.00
368.49	0.00
368.69	0.00
368.89	0.00
369.09	0.00
369.28	0.00
369.48	0.00
369.68	0.00
369.87	0.00
370.07	0.00
370.27	0.00
370.47	0.00
370.66	0.00
370.86	0.00
371.06	0.00
371.25	0.00
371.45	4.68
371.65	7.02
371.84	0.00
372.04	0.00
372.24	0.00
372.44	0.00
372.63	0.00
372.83	35.11
373.03	105.32
373.22	0.00
373.42	25.75
373.62	60.85
373.81	0.00
374.01	28.09
374.21	70.22
374.40	7.02
374.60	0.00
374.79	28.09
374.99	102.98
375.19	84.26
375.38	23.41
375.58	0.00
375.78	11.70
375.97	44.47
376.17	0.00
376.37	0.00
376.56	100.64
376.76	0.00
376.95	63.19
377.15	67.88
377.35	42.13
377.54	21.06
377.74	2.34
377.93	119.37
378.13	18.72
378.33	14.04
378.52	98.30
378.72	32.77
378.91	0.00
379.11	18.72
379.31	112.35
379.50	23.41
379.70	65.54
379.89	0.00
380.09	21.06
380.28	4.68
380.48	0.00
380.68	0.00
380.87	35.11
381.07	18.72
381.26	0.00
381.46	0.00
381.65	60.85
381.85	37.45
382.04	0.00
382.24	14.04
382.43	112.35
382.63	11.70
382.83	0.00
383.02	110.01
383.22	39.79
383.41	39.79
383.61	14.04
383.80	25.75
384.00	0.00
384.19	0.00
384.39	21.06
384.58	9.36
384.78	0.00
384.97	4.68
385.17	46.81
385.36	11.70
385.56	4.68
385.75	32.77
385.95	9.36
386.14	0.00
386.34	25.75
386.53	0.00
386.72	4.68
386.92	0.00
387.11	95.96
387.31	0.00
387.50	65.54
387.70	37.45
387.89	0.00
388.09	35.11
388.28	0.00
388.48	0.00
388.67	0.00
388.86	0.00
389.06	2.34
389.25	44.47
389.45	51.49
389.64	0.00
389.84	72.56
390.03	30.43
390.22	88.94
390.42	39.79
390.61	86.60
390.81	58.51
391.00	67.88
391.19	0.00
391.39	0.00
391.58	30.43
391.78	51.49
391.97	67.88
392.16	30.43
392.36	18.72
392.55	16.38
392.75	0.00
392.94	67.88
393.13	65.54
393.33	23.41
393.52	56.17
393.71	0.00
393.91	44.47
394.10	84.26
394.29	53.83
394.49	4.68
394.68	18.72
394.88	30.43
395.07	21.06
395.26	0.00
395.46	0.00
395.65	0.00
395.84	0.00
396.04	14.04
396.23	0.00
396.42	0.00
396.62	9.36
396.81	14.04
397.00	7.02
397.19	56.17
397.39	0.00
397.58	28.09
397.77	102.98
397.97	44.47
398.16	0.00
398.35	44.47
398.55	0.00
398.74	58.51
398.93	58.51
399.12	0.00
399.32	63.19
399.51	0.00
399.70	0.00
399.90	37.45
400.09	4.68
400.28	51.49
400.47	0.00
400.67	51.49
400.86	60.85
401.05	32.77
401.24	53.83
401.44	28.09
401.63	60.85
401.82	37.45
402.01	2.34
402.21	16.38
402.40	77.24
402.59	42.13
402.78	30.43
402.97	0.00
403.17	28.09
403.36	30.43
403.55	77.24
403.74	25.75
403.93	77.24
404.13	0.00
404.32	32.77
404.51	21.06
404.70	138.09
404.89	14.04
405.09	14.04
405.28	0.00
405.47	30.43
405.66	63.19
405.85	72.56
406.05	65.54
406.24	84.26
406.43	23.41
406.62	0.00
406.81	44.47
407.00	95.96
407.20	0.00
407.39	0.00
407.58	18.72
407.77	42.13
407.96	86.60
408.15	65.54
408.34	14.04
408.54	44.47
408.73	4.68
408.92	11.70
409.11	102.98
409.30	53.83
409.49	32.77
409.68	21.06
409.87	7.02
410.07	14.04
410.26	86.60
410.45	0.00
410.64	77.24
410.83	0.00
411.02	23.41
411.21	74.90
411.40	16.38
411.59	0.00
411.78	2.34
411.98	16.38
412.17	49.15
412.36	35.11
412.55	25.75
412.74	42.13
412.93	98.30
413.12	105.32
413.31	46.81
413.50	77.24
413.69	58.51
413.88	81.92
414.07	32.77
414.26	67.88
414.45	84.26
414.64	28.09
414.83	102.98
415.02	42.13
415.22	42.13
415.41	60.85
415.60	65.54
415.79	39.79
415.98	46.81
416.17	0.00
416.36	114.69
416.55	28.09
416.74	0.00
416.93	60.85
417.12	70.22
417.31	23.41
417.50	124.05
417.69	35.11
417.88	30.43
418.07	0.00
418.26	2.34
418.45	81.92
418.64	28.09
418.83	63.19
419.02	9.36
419.21	81.92
419.39	42.13
419.58	35.11
419.77	14.04
419.96	74.90
420.15	60.85
420.34	67.88
420.53	32.77
420.72	46.81
420.91	102.98
421.10	51.49
421.29	58.51
421.48	88.94
421.67	60.85
421.86	65.54
422.05	46.81
422.24	0.00
422.43	51.49
422.61	51.49
422.80	56.17
422.99	18.72
423.18	121.71
423.37	91.28
423.56	65.54
423.75	46.81
423.94	74.90
424.13	77.24
424.32	18.72
424.50	11.70
424.69	58.51
424.88	30.43
425.07	46.81
425.26	0.00
425.45	65.54
425.64	53.83
425.83	28.09
426.01	81.92
426.20	21.06
426.39	35.11
426.58	81.92
426.77	58.51
426.96	88.94
427.15	7.02
427.33	81.92
427.52	46.81
427.71	18.72
427.90	35.11
428.09	84.26
428.28	102.98
428.46	11.70
428.65	37.45
428.84	58.51
429.03	98.30
429.22	39.79
429.40	60.85
429.59	0.00
429.78	63.19
429.97	42.13
430.16	37.45
430.34	30.43
430.53	35.11
430.72	16.38
430.91	98.30
431.10	65.54
431.28	49.15
431.47	28.09
431.66	0.00
431.85	32.77
432.03	18.72
432.22	23.41
432.41	2.34
432.60	65.54
432.79	42.13
432.97	0.00
433.16	37.45
433.35	0.00
433.54	53.83
433.72	44.47
433.91	53.83
434.10	0.00
434.28	0.00
434.47	51.49
434.66	0.00
434.85	114.69
435.03	100.64
435.22	88.94
435.41	2.34
435.59	67.88
435.78	0.00
435.97	100.64
436.16	0.00
436.34	32.77
436.53	70.22
436.72	0.00
436.90	2.34
437.09	2.34
437.28	79.58
437.46	0.00
437.65	58.51
437.84	0.00
438.02	35.11
438.21	56.17
438.40	77.24
438.58	93.62
438.77	14.04
438.96	58.51
439.14	18.72
439.33	21.06
439.52	107.66
439.70	84.26
439.89	65.54
440.08	70.22
440.26	37.45
440.45	42.13
440.63	14.04
440.82	28.09
441.01	42.13
441.19	60.85
441.38	72.56
441.57	46.81
441.75	70.22
441.94	32.77
442.12	93.62
442.31	28.09
442.50	107.66
442.68	63.19
442.87	142.77
443.05	9.36
443.24	67.88
443.43	100.64
443.61	39.79
443.80	28.09
443.98	79.58
444.17	51.49
444.35	105.32
444.54	0.00
444.73	49.15
444.91	44.47
445.10	81.92
445.28	32.77
445.47	102.98
445.65	74.90
445.84	56.17
446.02	16.38
446.21	35.11
446.39	16.38
446.58	35.11
446.77	44.47
446.95	105.32
447.14	84.26
447.32	18.72
447.51	25.75
447.69	23.41
447.88	67.88
448.06	117.03
448.25	25.75
448.43	74.90
448.62	65.54
448.80	9.36
448.99	0.00
449.17	30.43
449.36	44.47
449.54	133.41
449.73	30.43
449.91	30.43
450.10	14.04
450.28	72.56
450.46	0.00
450.65	77.24
450.83	91.28
451.02	53.83
451.20	0.00
451.39	77.24
451.57	88.94
451.76	112.35
451.94	44.47
452.13	44.47
452.31	0.00
452.49	30.43
452.68	0.00
452.86	65.54
453.05	42.13
453.23	37.45
453.42	72.56
453.60	58.51
453.78	32.77
453.97	58.51
454.15	74.90
454.34	65.54
454.52	58.51
454.70	25.75
454.89	93.62
455.07	53.83
455.26	65.54
455.44	16.38
455.62	4.68
455.81	11.70
455.99	39.79
456.17	100.64
456.36	0.00
456.54	49.15
456.73	84.26
456.91	30.43
457.09	98.30
457.28	51.49
457.46	124.05
457.64	0.00
457.83	25.75
458.01	124.05
458.19	0.00
458.38	42.13
458.56	2.34
458.74	91.28
458.93	98.30
459.11	0.00
459.29	72.56
459.48	25.75
459.66	32.77
459.84	46.81
460.03	2.34
460.21	102.98
460.39	58.51
460.57	63.19
460.76	18.72
460.94	0.00
461.12	79.58
461.31	88.94
461.49	39.79
461.67	23.41
461.85	79.58
462.04	102.98
462.22	77.24
462.40	86.60
462.59	37.45
462.77	49.15
462.95	35.11
463.13	2.34
463.32	102.98
463.50	28.09
463.68	84.26
463.86	0.00
464.05	42.13
464.23	46.81
464.41	79.58
464.59	0.00
464.78	42.13
464.96	86.60
465.14	110.01
465.32	91.28
465.50	9.36
465.69	74.90
465.87	72.56
466.05	60.85
466.23	0.00
466.41	63.19
466.60	35.11
466.78	16.38
466.96	44.47
467.14	126.39
467.32	56.17
467.51	93.62
467.69	21.06
467.87	11.70
468.05	65.54
468.23	0.00
468.41	102.98
468.60	0.00
468.78	93.62
468.96	133.41
469.14	30.43
469.32	51.49
469.50	39.79
469.69	39.79
469.87	70.22
470.05	81.92
470.23	65.54
470.41	63.19
470.59	51.49
470.77	35.11
470.95	81.92
471.14	0.00
471.32	91.28
471.50	0.00
471.68	0.00
471.86	53.83
472.04	46.81
472.22	67.88
472.40	100.64
472.58	14.04
472.77	102.98
472.95	46.81
473.13	49.15
473.31	23.41
473.49	58.51
473.67	100.64
473.85	70.22
474.03	63.19
474.21	88.94
474.39	67.88
474.57	53.83
474.75	105.32
474.93	0.00
475.12	79.58
475.30	49.15
475.48	67.88
475.66	0.00
475.84	35.11
476.02	44.47
476.20	58.51
476.38	9.36
476.56	65.54
476.74	72.56
476.92	65.54
477.10	0.00
477.28	88.94
477.46	23.41
477.64	128.73
477.82	16.38
478.00	131.07
478.18	28.09
478.36	4.68
478.54	70.22
478.72	88.94
478.90	4.68
479.08	30.43
479.26	23.41
479.44	51.49
479.62	95.96
479.80	58.51
479.98	9.36
480.16	65.54
480.34	117.03
480.52	93.62
480.70	124.05
480.88	86.60
481.06	32.77
481.24	112.35
481.41	67.88
481.59	91.28
481.77	14.04
481.95	39.79
482.13	126.39
482.31	0.00
482.49	121.71
482.67	58.51
482.85	32.77
483.03	74.90
483.21	70.22
483.39	79.58
483.57	46.81
483.74	42.13
483.92	9.36
484.10	67.88
484.28	84.26
484.46	133.41
484.64	56.17
484.82	81.92
485.00	11.70
485.18	32.77
485.35	0.00
485.53	2.34
485.71	88.94
485.89	23.41
486.07	79.58
486.25	105.32
486.43	79.58
486.61	18.72
486.78	51.49
486.96	93.62
487.14	23.41
487.32	42.13
487.50	46.81
487.68	67.88
487.85	102.98
488.03	77.24
488.21	49.15
488.39	74.90
488.57	63.19
488.75	100.64
488.92	79.58
489.10	49.15
489.28	42.13
489.46	0.00
489.64	53.83
489.81	51.49
489.99	67.88
490.17	39.79
490.35	28.09
490.53	18.72
490.70	72.56
490.88	37.45
491.06	37.45
491.24	81.92
491.41	32.77
491.59	63.19
491.77	86.60
491.95	70.22
492.13	117.03
492.30	93.62
492.48	14.04
492.66	79.58
492.84	79.58
493.01	86.60
493.19	107.66
493.37	98.30
493.54	72.56
493.72	56.17
493.90	91.28
494.08	67.88
494.25	88.94
494.43	72.56
494.61	91.28
494.79	49.15
494.96	114.69
495.14	110.01
495.32	72.56
495.49	86.60
495.67	114.69
495.85	91.28
496.02	58.51
496.20	23.41
496.38	100.64
496.55	56.17
496.73	126.39
496.91	140.43
497.09	88.94
497.26	67.88
497.44	102.98
497.62	63.19
497.79	81.92
497.97	42.13
498.14	100.64
498.32	72.56
498.50	112.35
498.67	114.69
498.85	93.62
499.03	53.83
499.20	145.11
499.38	93.62
499.56	79.58
499.73	60.85
499.91	114.69
500.08	58.51
500.26	102.98
500.44	95.96
500.61	39.79
500.79	107.66
500.97	9.36
501.14	128.73
501.32	30.43
501.49	84.26
501.67	60.85
501.84	63.19
502.02	28.09
502.20	93.62
502.37	46.81
502.55	28.09
502.72	58.51
502.90	98.30
503.07	58.51
503.25	60.85
503.43	7.02
503.60	77.24
503.78	39.79
503.95	84.26
504.13	18.72
504.30	35.11
504.48	93.62
504.65	42.13
504.83	49.15
505.01	70.22
505.18	93.62
505.36	86.60
505.53	67.88
505.71	70.22
505.88	72.56
506.06	49.15
506.23	102.98
506.41	51.49
506.58	32.77
506.76	93.62
506.93	35.11
507.11	79.58
507.28	56.17
507.46	58.51
507.63	67.88
507.81	79.58
507.98	88.94
508.16	81.92
508.33	102.98
508.50	126.39
508.68	46.81
508.85	51.49
509.03	56.17
509.20	56.17
509.38	79.58
509.55	112.35
509.73	102.98
509.90	110.01
510.08	126.39
510.25	44.47
510.42	44.47
510.60	60.85
510.77	140.43
510.95	105.32
511.12	65.54
511.30	138.09
511.47	100.64
511.64	60.85
511.82	18.72
511.99	88.94
512.17	46.81
512.34	98.30
512.51	72.56
512.69	42.13
512.86	16.38
513.04	105.32
513.21	140.43
513.38	91.28
513.56	100.64
513.73	138.09
513.90	86.60
514.08	102.98
514.25	53.83
514.43	60.85
514.60	51.49
514.77	74.90
514.95	93.62
515.12	60.85
515.29	72.56
515.47	124.05
515.64	77.24
515.81	60.85
515.99	65.54
516.16	98.30
516.33	56.17
516.51	98.30
516.68	0.00
516.85	56.17
517.03	79.58
517.20	110.01
517.37	126.39
517.54	23.41
517.72	72.56
517.89	112.35
518.06	79.58
518.24	102.98
518.41	168.52
518.58	84.26
518.75	39.79
518.93	70.22
519.10	58.51
519.27	112.35
519.45	74.90
519.62	58.51
519.79	49.15
519.96	67.88
520.14	51.49
520.31	133.41
520.48	79.58
520.65	93.62
520.83	119.37
521.00	81.92
521.17	63.19
521.34	65.54
521.52	63.19
521.69	117.03
521.86	11.70
522.03	42.13
522.20	77.24
522.38	133.41
522.55	107.66
522.72	95.96
522.89	98.30
523.07	39.79
523.24	147.45
523.41	161.50
523.58	49.15
523.75	84.26
523.92	117.03
524.10	105.32
524.27	107.66
524.44	60.85
524.61	0.00
524.78	100.64
524.96	112.35
525.13	72.56
525.30	102.98
525.47	93.62
525.64	72.56
525.81	86.60
525.98	60.85
526.16	105.32
526.33	88.94
526.50	86.60
526.67	16.38
526.84	53.83
527.01	49.15
527.18	102.98
527.36	177.88
527.53	91.28
527.70	102.98
527.87	58.51
528.04	107.66
528.21	107.66
528.38	39.79
528.55	154.48
528.72	135.75
528.89	135.75
529.07	161.50
529.24	72.56
529.41	117.03
529.58	126.39
529.75	67.88
529.92	149.79
530.09	107.66
530.26	65.54
530.43	110.01
530.60	98.30
530.77	84.26
530.94	133.41
531.11	49.15
531.28	98.30
531.46	133.41
531.63	88.94
531.80	39.79
531.97	74.90
532.14	105.32
532.31	67.88
532.48	100.64
532.65	84.26
532.82	121.71
532.99	53.83
533.16	35.11
533.33	49.15
533.50	95.96
533.67	79.58
533.84	91.28
534.01	121.71
534.18	203.63
534.35	0.00
534.52	81.92
534.69	74.90
534.86	67.88
535.03	51.49
535.20	81.92
535.37	142.77
535.54	152.13
535.71	28.09
535.88	124.05
536.05	42.13
536.22	60.85
536.38	70.22
536.55	98.30
536.72	145.11
536.89	42.13
537.06	84.26
537.23	53.83
537.40	91.28
537.57	79.58
537.74	70.22
537.91	98.30
538.08	81.92
538.25	93.62
538.42	84.26
538.59	105.32
538.75	91.28
538.92	105.32
539.09	102.98
539.26	70.22
539.43	65.54
539.60	65.54
539.77	60.85
539.94	124.05
540.11	107.66
540.28	154.48
540.44	131.07
540.61	110.01
540.78	133.41
540.95	100.64
541.12	163.84
541.29	65.54
541.46	0.00
541.62	23.41
541.79	81.92
541.96	135.75
542.13	18.72
542.30	95.96
542.47	128.73
542.63	93.62
542.80	51.49
542.97	9.36
543.14	74.90
543.31	67.88
543.48	72.56
543.64	124.05
543.81	63.19
543.98	25.75
544.15	133.41
544.32	135.75
544.48	70.22
544.65	11.70
544.82	67.88
544.99	46.81
545.16	107.66
545.32	135.75
545.49	131.07
545.66	95.96
545.83	72.56
546.00	67.88
546.16	77.24
546.33	77.24
546.50	135.75
546.67	110.01
546.83	74.90
547.00	23.41
547.17	79.58
547.34	65.54
547.50	105.32
547.67	81.92
547.84	79.58
548.00	95.96
548.17	2.34
548.34	86.60
548.51	49.15
548.67	72.56
548.84	135.75
549.01	46.81
549.18	67.88
549.34	56.17
549.51	14.04
549.68	98.30
549.84	112.35
550.01	23.41
550.18	42.13
550.34	65.54
550.51	138.09
550.68	105.32
550.84	49.15
551.01	107.66
551.18	95.96
551.34	100.64
551.51	102.98
551.68	112.35
551.84	110.01
552.01	30.43
552.18	105.32
552.34	72.56
552.51	53.83
552.68	98.30
552.84	21.06
553.01	93.62
553.18	119.37
553.34	100.64
553.51	60.85
553.67	93.62
553.84	46.81
554.01	42.13
554.17	46.81
554.34	91.28
554.51	173.20
554.67	84.26
554.84	93.62
555.00	124.05
555.17	56.17
555.33	63.19
555.50	16.38
555.67	95.96
555.83	131.07
556.00	46.81
556.16	124.05
556.33	142.77
556.50	53.83
556.66	81.92
556.83	107.66
556.99	88.94
557.16	84.26
557.32	79.58
557.49	98.30
557.65	18.72
557.82	93.62
557.98	72.56
558.15	91.28
558.32	124.05
558.48	124.05
558.65	67.88
558.81	72.56
558.98	72.56
559.14	65.54
559.31	88.94
559.47	49.15
559.64	117.03
559.80	56.17
559.97	102.98
560.13	84.26
560.30	58.51
560.46	56.17
560.63	100.64
560.79	39.79
560.96	32.77
561.12	49.15
561.29	56.17
561.45	74.90
561.61	131.07
561.78	119.37
561.94	56.17
562.11	60.85
562.27	16.38
562.44	58.51
562.60	117.03
562.77	32.77
562.93	142.77
563.10	126.39
563.26	79.58
563.42	77.24
563.59	105.32
563.75	63.19
563.92	39.79
564.08	65.54
564.24	119.37
564.41	126.39
564.57	112.35
564.74	77.24
564.90	77.24
565.07	105.32
565.23	100.64
565.39	70.22
565.56	91.28
565.72	65.54
565.88	23.41
566.05	65.54
566.21	65.54
566.38	67.88
566.54	86.60
566.70	60.85
566.87	70.22
567.03	63.19
567.19	74.90
567.36	117.03
567.52	126.39
567.68	63.19
567.85	142.77
568.01	42.13
568.17	74.90
568.34	51.49
568.50	154.48
568.66	117.03
568.83	124.05
568.99	117.03
569.15	86.60
569.32	51.49
569.48	0.00
569.64	42.13
569.81	84.26
569.97	72.56
570.13	93.62
570.30	102.98
570.46	56.17
570.62	100.64
570.78	105.32
570.95	93.62
571.11	42.13
571.27	100.64
571.43	93.62
571.60	51.49
571.76	107.66
571.92	86.60
572.09	51.49
572.25	44.47
572.41	91.28
572.57	4.68
572.74	2.34
572.90	135.75
573.06	84.26
573.22	46.81
573.38	72.56
573.55	30.43
573.71	95.96
573.87	30.43
574.03	56.17
574.20	72.56
574.36	37.45
574.52	60.85
574.68	131.07
574.84	126.39
575.01	44.47
575.17	32.77
575.33	74.90
575.49	126.39
575.65	114.69
575.82	105.32
575.98	84.26
576.14	98.30
576.30	60.85
576.46	112.35
576.62	0.00
576.79	0.00
576.95	9.36
577.11	105.32
577.27	112.35
577.43	70.22
577.59	91.28
577.75	70.22
577.92	107.66
578.08	135.75
578.24	0.00
578.40	140.43
578.56	53.83
578.72	114.69
578.88	81.92
579.04	56.17
579.21	9.36
579.37	124.05
579.53	56.17
579.69	86.60
579.85	42.13
580.01	37.45
580.17	72.56
580.33	93.62
580.49	147.45
580.65	121.71
580.82	63.19
580.98	49.15
581.14	93.62
581.30	84.26
581.46	51.49
581.62	72.56
581.78	25.75
581.94	32.77
582.10	98.30
582.26	39.79
582.42	28.09
582.58	107.66
582.74	95.96
582.90	79.58
583.06	23.41
583.22	16.38
583.38	145.11
583.54	128.73
583.70	131.07
583.86	53.83
584.02	88.94
584.18	81.92
584.34	105.32
584.50	49.15
584.66	18.72
584.82	74.90
584.98	63.19
585.14	51.49
585.30	0.00
585.46	49.15
585.62	93.62
585.78	35.11
585.94	51.49
586.10	102.98
586.26	124.05
586.42	154.48
586.58	100.64
586.74	100.64
586.90	65.54
587.06	117.03
587.22	51.49
587.38	58.51
587.54	149.79
587.70	25.75
587.86	126.39
588.02	30.43
588.18	28.09
588.34	102.98
588.49	44.47
588.65	42.13
588.81	105.32
588.97	88.94
589.13	46.81
589.29	72.56
589.45	124.05
589.61	53.83
589.77	100.64
589.93	81.92
590.08	86.60
590.24	65.54
590.40	60.85
590.56	86.60
590.72	18.72
590.88	79.58
591.04	28.09
591.20	126.39
591.35	30.43
591.51	67.88
591.67	86.60
591.83	58.51
591.99	88.94
592.15	63.19
592.31	7.02
592.46	25.75
592.62	28.09
592.78	86.60
592.94	105.32
593.10	18.72
593.26	105.32
593.41	58.51
593.57	149.79
593.73	100.64
593.89	81.92
594.05	124.05
594.20	46.81
594.36	70.22
594.52	112.35
594.68	65.54
594.84	51.49
594.99	70.22
595.15	44.47
595.31	100.64
595.47	67.88
595.62	140.43
595.78	9.36
595.94	28.09
596.10	105.32
596.25	124.05
596.41	60.85
596.57	60.85
596.73	84.26
596.88	102.98
597.04	98.30
597.20	140.43
597.36	105.32
597.51	46.81
597.67	112.35
597.83	67.88
597.99	81.92
598.14	63.19
598.30	70.22
598.46	46.81
598.61	0.00
598.77	88.94
598.93	28.09
599.09	126.39
599.24	60.85
599.40	102.98
599.56	100.64
599.71	84.26
599.87	70.22
600.03	74.90
600.18	35.11
600.34	9.36
600.50	53.83
600.65	60.85
600.81	70.22
600.97	32.77
601.12	86.60
601.28	112.35
601.44	44.47
601.59	60.85
601.75	35.11
601.91	74.90
602.06	32.77
602.22	65.54
602.37	79.58
602.53	37.45
602.69	102.98
602.84	135.75
603.00	93.62
603.16	25.75
603.31	121.71
603.47	107.66
603.62	14.04
603.78	37.45
603.94	67.88
604.09	70.22
604.25	81.92
604.40	23.41
604.56	98.30
604.71	86.60
604.87	107.66
605.03	16.38
605.18	65.54
605.34	114.69
605.49	98.30
605.65	21.06
605.80	14.04
605.96	63.19
606.12	53.83
606.27	98.30
606.43	70.22
606.58	37.45
606.74	81.92
606.89	95.96
607.05	16.38
607.20	18.72
607.36	25.75
607.51	4.68
607.67	51.49
607.82	105.32
607.98	37.45
608.13	51.49
608.29	98.30
608.44	53.83
608.60	72.56
608.75	107.66
608.91	32.77
609.06	79.58
609.22	46.81
609.37	98.30
609.53	72.56
609.68	121.71
609.84	88.94
609.99	58.51
610.15	49.15
610.30	28.09
610.46	23.41
610.61	23.41
610.76	4.68
610.92	79.58
611.07	46.81
611.23	93.62
611.38	14.04
611.54	58.51
611.69	46.81
611.84	79.58
612.00	84.26
612.15	70.22
612.31	110.01
612.46	79.58
612.62	105.32
612.77	56.17
612.92	63.19
613.08	67.88
613.23	128.73
613.39	44.47
613.54	81.92
613.69	49.15
613.85	39.79
614.00	56.17
614.15	30.43
614.31	44.47
614.46	117.03
614.62	70.22
614.77	65.54
614.92	37.45
615.08	91.28
615.23	49.15
615.38	39.79
615.54	74.90
615.69	79.58
615.84	112.35
616.00	28.09
616.15	42.13
616.30	86.60
616.46	138.09
616.61	72.56
616.76	0.00
616.92	56.17
617.07	51.49
617.22	91.28
617.37	100.64
617.53	53.83
617.68	114.69
617.83	37.45
617.99	102.98
618.14	49.15
618.29	84.26
618.45	77.24
618.60	16.38
618.75	60.85
618.90	49.15
619.06	32.77
619.21	88.94
619.36	60.85
619.51	65.54
619.67	25.75
619.82	77.24
619.97	28.09
620.12	63.19
620.28	86.60
620.43	170.86
620.58	91.28
620.73	110.01
620.89	49.15
621.04	93.62
621.19	49.15
621.34	110.01
621.49	46.81
621.65	98.30
621.80	107.66
621.95	46.81
622.10	39.79
622.25	53.83
622.41	11.70
622.56	67.88
622.71	30.43
622.86	67.88
623.01	32.77
623.16	39.79
623.32	95.96
623.47	72.56
623.62	112.35
623.77	77.24
623.92	37.45
624.07	95.96
624.23	39.79
624.38	39.79
624.53	46.81
624.68	166.18
624.83	39.79
624.98	42.13
625.13	46.81
625.29	70.22
625.44	79.58
625.59	0.00
625.74	81.92
625.89	46.81
626.04	79.58
626.19	44.47
626.34	60.85
626.49	39.79
626.65	112.35
626.80	112.35
626.95	30.43
627.10	23.41
627.25	72.56
627.40	32.77
627.55	4.68
627.70	16.38
627.85	42.13
628.00	35.11
628.15	77.24
628.30	112.35
628.45	51.49
628.60	0.00
628.76	124.05
628.91	28.09
629.06	53.83
629.21	70.22
629.36	14.04
629.51	53.83
629.66	0.00
629.81	138.09
629.96	107.66
630.11	100.64
630.26	11.70
630.41	93.62
630.56	107.66
630.71	60.85
630.86	53.83
631.01	79.58
631.16	44.47
631.31	58.51
631.46	128.73
631.61	72.56
631.76	100.64
631.91	14.04
632.06	4.68
632.21	4.68
632.36	0.00
632.51	0.00
632.66	91.28
632.81	16.38
632.96	88.94
633.10	60.85
633.25	14.04
633.40	35.11
633.55	25.75
633.70	58.51
633.85	32.77
634.00	84.26
634.15	79.58
634.30	72.56
634.45	2.34
634.60	77.24
634.75	81.92
634.90	56.17
635.05	56.17
635.19	121.71
635.34	0.00
635.49	56.17
635.64	49.15
635.79	32.77
635.94	77.24
636.09	102.98
636.24	39.79
636.39	121.71
636.53	49.15
636.68	72.56
636.83	35.11
636.98	72.56
637.13	18.72
637.28	140.43
637.43	91.28
637.57	65.54
637.72	11.70
637.87	49.15
638.02	126.39
638.17	25.75
638.32	23.41
638.46	93.62
638.61	91.28
638.76	63.19
638.91	37.45
639.06	100.64
639.20	95.96
639.35	7.02
639.50	32.77
639.65	39.79
639.80	84.26
639.94	35.11
640.09	77.24
640.24	46.81
640.39	67.88
640.54	70.22
640.68	35.11
640.83	81.92
640.98	67.88
641.13	128.73
641.27	28.09
641.42	88.94
641.57	74.90
641.72	114.69
641.86	105.32
642.01	37.45
642.16	46.81
642.31	53.83
642.45	81.92
642.60	91.28
642.75	21.06
642.90	18.72
643.04	67.88
643.19	77.24
643.34	0.00
643.48	70.22
643.63	0.00
643.78	0.00
643.93	65.54
644.07	16.38
644.22	84.26
644.37	63.19
644.51	124.05
644.66	74.90
644.81	84.26
644.95	0.00
645.10	63.19
645.25	46.81
645.39	124.05
645.54	60.85
645.69	7.02
645.83	67.88
645.98	93.62
646.13	51.49
646.27	0.00
646.42	159.16
646.57	100.64
646.71	102.98
646.86	42.13
647.00	0.00
647.15	23.41
647.30	30.43
647.44	126.39
647.59	51.49
647.74	93.62
647.88	65.54
648.03	21.06
648.17	7.02
648.32	95.96
648.47	98.30
648.61	44.47
648.76	46.81
648.90	0.00
649.05	49.15
649.20	46.81
649.34	0.00
649.49	95.96
649.63	44.47
649.78	46.81
649.92	42.13
650.07	56.17
650.21	0.00
650.36	49.15
650.51	65.54
650.65	81.92
650.80	35.11
650.94	25.75
651.09	100.64
651.23	42.13
651.38	9.36
651.52	49.15
651.67	60.85
651.81	49.15
651.96	65.54
652.10	39.79
652.25	49.15
652.39	102.98
652.54	88.94
652.68	112.35
652.83	32.77
652.97	46.81
653.12	95.96
653.26	72.56
653.41	44.47
653.55	60.85
653.70	46.81
653.84	117.03
653.99	86.60
654.13	21.06
654.27	112.35
654.42	124.05
654.56	81.92
654.71	74.90
654.85	11.70
655.00	39.79
655.14	35.11
655.29	44.47
655.43	18.72
655.57	60.85
655.72	63.19
655.86	4.68
656.01	30.43
656.15	81.92
656.30	30.43
656.44	32.77
656.58	42.13
656.73	44.47
656.87	74.90
657.01	74.90
657.16	58.51
657.30	58.51
657.45	70.22
657.59	37.45
657.73	72.56
657.88	114.69
658.02	51.49
658.16	65.54
658.31	0.00
658.45	72.56
658.60	74.90
658.74	72.56
658.88	58.51
659.03	131.07
659.17	67.88
659.31	51.49
659.46	30.43
659.60	93.62
659.74	44.47
659.89	37.45
660.03	63.19
660.17	25.75
660.32	0.00
660.46	67.88
660.60	23.41
660.74	67.88
660.89	77.24
661.03	84.26
661.17	42.13
661.32	0.00
661.46	67.88
661.60	30.43
661.74	51.49
661.89	65.54
662.03	46.81
662.17	102.98
662.31	7.02
662.46	42.13
662.60	37.45
662.74	117.03
662.88	21.06
663.03	60.85
663.17	0.00
663.31	0.00
663.45	93.62
663.60	60.85
663.74	28.09
663.88	9.36
664.02	56.17
664.17	0.00
664.31	88.94
664.45	9.36
664.59	0.00
664.73	84.26
664.88	39.79
665.02	86.60
665.16	58.51
665.30	18.72
665.44	65.54
665.59	25.75
665.73	58.51
665.87	58.51
666.01	126.39
666.15	56.17
666.29	95.96
666.44	0.00
666.58	102.98
666.72	67.88
666.86	18.72
667.00	105.32
667.14	65.54
667.28	44.47
667.43	102.98
667.57	51.49
667.71	53.83
667.85	0.00
667.99	74.90
668.13	67.88
668.27	0.00
668.41	25.75
668.56	93.62
668.70	58.51
668.84	77.24
668.98	49.15
669.12	91.28
669.26	28.09
669.40	63.19
669.54	110.01
669.68	74.90
669.82	23.41
669.96	70.22
670.10	9.36
670.25	65.54
670.39	39.79
670.53	35.11
670.67	14.04
670.81	25.75
670.95	4.68
671.09	86.60
671.23	16.38
671.37	7.02
671.51	0.00
671.65	67.88
671.79	81.92
671.93	46.81
672.07	112.35
672.21	81.92
672.35	0.00
672.49	105.32
672.63	42.13
672.77	49.15
672.91	81.92
673.05	46.81
673.19	14.04
673.33	9.36
673.47	124.05
673.61	25.75
673.75	0.00
673.89	53.83
674.03	81.92
674.17	72.56
674.31	67.88
674.45	51.49
674.59	32.77
674.73	70.22
674.87	16.38
675.01	110.01
675.15	4.68
675.29	51.49
675.43	53.83
675.56	107.66
675.70	65.54
675.84	30.43
675.98	100.64
676.12	7.02
676.26	35.11
676.40	16.38
676.54	107.66
676.68	21.06
676.82	18.72
676.96	16.38
677.10	44.47
677.23	67.88
677.37	102.98
677.51	25.75
677.65	51.49
677.79	7.02
677.93	63.19
678.07	60.85
678.21	142.77
678.34	60.85
678.48	58.51
678.62	88.94
678.76	63.19
678.90	56.17
679.04	28.09
679.18	70.22
679.31	49.15
679.45	39.79
679.59	65.54
679.73	9.36
679.87	30.43
680.00	4.68
680.14	60.85
680.28	74.90
680.42	81.92
680.56	11.70
680.70	95.96
680.83	14.04
680.97	72.56
681.11	77.24
681.25	32.77
681.39	35.11
681.52	2.34
681.66	79.58
681.80	74.90
681.94	91.28
682.07	9.36
682.21	46.81
682.35	39.79
682.49	60.85
682.62	51.49
682.76	51.49
682.90	49.15
683.04	81.92
683.17	93.62
683.31	14.04
683.45	23.41
683.59	53.83
683.72	23.41
683.86	56.17
684.00	65.54
684.13	72.56
684.27	67.88
684.41	2.34
684.55	0.00
684.68	25.75
684.82	51.49
684.96	0.00
685.09	25.75
685.23	74.90
685.37	46.81
685.50	70.22
685.64	95.96
685.78	0.00
685.91	30.43
686.05	93.62
686.19	0.00
686.32	0.00
686.46	81.92
686.60	14.04
686.73	98.30
686.87	65.54
687.01	42.13
687.14	37.45
687.28	7.02
687.42	72.56
687.55	65.54
687.69	53.83
687.82	28.09
687.96	60.85
688.10	32.77
688.23	28.09
688.37	58.51
688.50	28.09
688.64	46.81
688.78	25.75
688.91	77.24
689.05	39.79
689.18	135.75
689.32	0.00
689.46	93.62
689.59	16.38
689.73	25.75
689.86	23.41
690.00	0.00
690.13	25.75
690.27	32.77
690.41	18.72
690.54	58.51
690.68	93.62
690.81	0.00
690.95	70.22
691.08	88.94
691.22	88.94
691.35	32.77
691.49	0.00
691.62	49.15
691.76	74.90
691.89	70.22
692.03	28.09
692.16	84.26
692.30	0.00
692.43	79.58
692.57	23.41
692.70	7.02
692.84	72.56
692.97	18.72
693.11	0.00
693.24	0.00
693.38	77.24
693.51	25.75
693.65	70.22
693.78	65.54
693.92	77.24
694.05	46.81
694.19	37.45
694.32	93.62
694.45	84.26
694.59	112.35
694.72	56.17
694.86	70.22
694.99	11.70
695.13	11.70
695.26	9.36
695.39	77.24
695.53	49.15
695.66	74.90
695.80	42.13
695.93	70.22
696.07	9.36
696.20	88.94
696.33	30.43
696.47	18.72
696.60	39.79
696.73	28.09
696.87	32.77
697.00	35.11
697.14	44.47
697.27	30.43
697.40	9.36
697.54	28.09
697.67	91.28
697.80	79.58
697.94	95.96
698.07	60.85
698.21	0.00
698.34	67.88
698.47	18.72
698.61	39.79
698.74	65.54
698.87	9.36
699.01	67.88
699.14	53.83
699.27	79.58
699.40	102.98
699.54	37.45
699.67	0.00
699.80	0.00
699.94	0.00
700.07	37.45
700.20	56.17
700.34	67.88
700.47	98.30
700.60	0.00
700.73	46.81
700.87	2.34
701.00	7.02
701.13	25.75
701.26	93.62
701.40	56.17
701.53	23.41
701.66	18.72
701.79	84.26
701.93	74.90
702.06	23.41
702.19	95.96
702.32	0.00
702.46	0.00
702.59	30.43
702.72	84.26
702.85	95.96
702.99	98.30
703.12	102.98
703.25	9.36
703.38	42.13
703.51	84.26
703.65	21.06
703.78	28.09
703.91	53.83
704.04	74.90
704.17	28.09
704.31	9.36
704.44	30.43
704.57	30.43
704.70	25.75
704.83	28.09
704.96	84.26
705.10	37.45
705.23	72.56
>>>>>End Processed Spectral Data<<<<<
