SpectraSuite Data File
++++++++++++++++++++++++++++++++++++
Date: Fri Oct 04 12:13:26 GMT-05:00 2013
User: price-jones
Dark Spectrum Present: No
Reference Spectrum Present: No
Number of Sampled Component Spectra: 1
Spectrometers: USB2+H05261
Integration Time (usec): 10000 (USB2+H05261)
Spectra Averaged: 1 (USB2+H05261)
Boxcar Smoothing: 0 (USB2+H05261)
Correct for Electrical Dark: No (USB2+H05261)
Strobe/Lamp Enabled: No (USB2+H05261)
Correct for Detector Non-linearity: No (USB2+H05261)
Correct for Stray Light: No (USB2+H05261)
Number of Pixels in Processed Spectrum: 2048
>>>>>Begin Processed Spectral Data<<<<<
365.73	7.02
365.92	7.02
366.12	7.02
366.32	0.00
366.52	0.00
366.72	0.00
366.91	0.00
367.11	0.00
367.31	0.00
367.51	0.00
367.70	0.00
367.90	0.00
368.10	0.00
368.30	0.00
368.49	0.00
368.69	0.00
368.89	0.00
369.09	0.00
369.28	0.00
369.48	0.00
369.68	0.00
369.87	0.00
370.07	0.00
370.27	0.00
370.47	0.00
370.66	0.00
370.86	0.00
371.06	25.75
371.25	23.41
371.45	91.28
371.65	0.00
371.84	0.00
372.04	0.00
372.24	0.00
372.44	0.00
372.63	44.47
372.83	72.56
373.03	0.00
373.22	0.00
373.42	0.00
373.62	74.90
373.81	32.77
374.01	0.00
374.21	46.81
374.40	63.19
374.60	23.41
374.79	14.04
374.99	0.00
375.19	7.02
375.38	0.00
375.58	23.41
375.78	30.43
375.97	4.68
376.17	37.45
376.37	23.41
376.56	44.47
376.76	0.00
376.95	4.68
377.15	18.72
377.35	30.43
377.54	32.77
377.74	0.00
377.93	86.60
378.13	16.38
378.33	0.00
378.52	58.51
378.72	49.15
378.91	4.68
379.11	0.00
379.31	0.00
379.50	23.41
379.70	28.09
379.89	81.92
380.09	23.41
380.28	0.00
380.48	0.00
380.68	67.88
380.87	18.72
381.07	23.41
381.26	7.02
381.46	21.06
381.65	9.36
381.85	37.45
382.04	72.56
382.24	0.00
382.43	32.77
382.63	0.00
382.83	9.36
383.02	37.45
383.22	0.00
383.41	0.00
383.61	74.90
383.80	23.41
384.00	21.06
384.19	79.58
384.39	0.00
384.58	65.54
384.78	44.47
384.97	0.00
385.17	28.09
385.36	42.13
385.56	0.00
385.75	42.13
385.95	79.58
386.14	0.00
386.34	39.79
386.53	21.06
386.72	70.22
386.92	51.49
387.11	0.00
387.31	21.06
387.50	0.00
387.70	11.70
387.89	23.41
388.09	51.49
388.28	93.62
388.48	0.00
388.67	53.83
388.86	81.92
389.06	30.43
389.25	88.94
389.45	32.77
389.64	0.00
389.84	14.04
390.03	37.45
390.22	32.77
390.42	44.47
390.61	9.36
390.81	79.58
391.00	58.51
391.19	11.70
391.39	84.26
391.58	72.56
391.78	7.02
391.97	0.00
392.16	0.00
392.36	4.68
392.55	53.83
392.75	0.00
392.94	0.00
393.13	11.70
393.33	86.60
393.52	53.83
393.71	11.70
393.91	37.45
394.10	28.09
394.29	0.00
394.49	84.26
394.68	14.04
394.88	14.04
395.07	7.02
395.26	0.00
395.46	0.00
395.65	79.58
395.84	4.68
396.04	16.38
396.23	0.00
396.42	0.00
396.62	53.83
396.81	0.00
397.00	0.00
397.19	95.96
397.39	21.06
397.58	39.79
397.77	81.92
397.97	0.00
398.16	0.00
398.35	0.00
398.55	7.02
398.74	46.81
398.93	16.38
399.12	100.64
399.32	77.24
399.51	72.56
399.70	86.60
399.90	39.79
400.09	0.00
400.28	37.45
400.47	32.77
400.67	84.26
400.86	23.41
401.05	77.24
401.24	16.38
401.44	0.00
401.63	44.47
401.82	21.06
402.01	23.41
402.21	16.38
402.40	37.45
402.59	53.83
402.78	2.34
402.97	46.81
403.17	84.26
403.36	9.36
403.55	35.11
403.74	18.72
403.93	49.15
404.13	7.02
404.32	4.68
404.51	23.41
404.70	49.15
404.89	0.00
405.09	28.09
405.28	9.36
405.47	11.70
405.66	49.15
405.85	91.28
406.05	0.00
406.24	72.56
406.43	0.00
406.62	72.56
406.81	74.90
407.00	81.92
407.20	51.49
407.39	0.00
407.58	0.00
407.77	7.02
407.96	0.00
408.15	0.00
408.34	0.00
408.54	60.85
408.73	4.68
408.92	0.00
409.11	4.68
409.30	25.75
409.49	0.00
409.68	70.22
409.87	28.09
410.07	70.22
410.26	11.70
410.45	53.83
410.64	91.28
410.83	39.79
411.02	0.00
411.21	18.72
411.40	56.17
411.59	35.11
411.78	46.81
411.98	0.00
412.17	0.00
412.36	32.77
412.55	56.17
412.74	9.36
412.93	18.72
413.12	51.49
413.31	9.36
413.50	49.15
413.69	53.83
413.88	107.66
414.07	7.02
414.26	28.09
414.45	42.13
414.64	56.17
414.83	44.47
415.02	16.38
415.22	0.00
415.41	30.43
415.60	25.75
415.79	35.11
415.98	46.81
416.17	39.79
416.36	51.49
416.55	0.00
416.74	60.85
416.93	49.15
417.12	0.00
417.31	0.00
417.50	0.00
417.69	93.62
417.88	65.54
418.07	25.75
418.26	0.00
418.45	74.90
418.64	133.41
418.83	28.09
419.02	42.13
419.21	70.22
419.39	46.81
419.58	0.00
419.77	42.13
419.96	0.00
420.15	46.81
420.34	18.72
420.53	14.04
420.72	16.38
420.91	84.26
421.10	49.15
421.29	72.56
421.48	0.00
421.67	30.43
421.86	32.77
422.05	0.00
422.24	0.00
422.43	32.77
422.61	56.17
422.80	0.00
422.99	4.68
423.18	7.02
423.37	46.81
423.56	0.00
423.75	32.77
423.94	53.83
424.13	37.45
424.32	14.04
424.50	9.36
424.69	0.00
424.88	39.79
425.07	46.81
425.26	86.60
425.45	28.09
425.64	32.77
425.83	0.00
426.01	44.47
426.20	91.28
426.39	67.88
426.58	0.00
426.77	0.00
426.96	0.00
427.15	7.02
427.33	32.77
427.52	0.00
427.71	30.43
427.90	37.45
428.09	18.72
428.28	37.45
428.46	18.72
428.65	42.13
428.84	16.38
429.03	74.90
429.22	0.00
429.40	102.98
429.59	124.05
429.78	28.09
429.97	37.45
430.16	46.81
430.34	0.00
430.53	53.83
430.72	0.00
430.91	0.00
431.10	25.75
431.28	16.38
431.47	0.00
431.66	11.70
431.85	0.00
432.03	28.09
432.22	25.75
432.41	37.45
432.60	51.49
432.79	21.06
432.97	9.36
433.16	65.54
433.35	95.96
433.54	32.77
433.72	32.77
433.91	65.54
434.10	0.00
434.28	53.83
434.47	7.02
434.66	60.85
434.85	9.36
435.03	65.54
435.22	39.79
435.41	28.09
435.59	0.00
435.78	0.00
435.97	37.45
436.16	112.35
436.34	100.64
436.53	77.24
436.72	0.00
436.90	0.00
437.09	46.81
437.28	63.19
437.46	42.13
437.65	16.38
437.84	42.13
438.02	39.79
438.21	2.34
438.40	58.51
438.58	28.09
438.77	0.00
438.96	0.00
439.14	23.41
439.33	39.79
439.52	49.15
439.70	0.00
439.89	39.79
440.08	0.00
440.26	46.81
440.45	95.96
440.63	35.11
440.82	0.00
441.01	51.49
441.19	93.62
441.38	28.09
441.57	53.83
441.75	0.00
441.94	18.72
442.12	2.34
442.31	21.06
442.50	110.01
442.68	77.24
442.87	18.72
443.05	39.79
443.24	16.38
443.43	0.00
443.61	0.00
443.80	0.00
443.98	60.85
444.17	63.19
444.35	28.09
444.54	35.11
444.73	0.00
444.91	11.70
445.10	58.51
445.28	28.09
445.47	30.43
445.65	98.30
445.84	18.72
446.02	46.81
446.21	70.22
446.39	23.41
446.58	53.83
446.77	56.17
446.95	74.90
447.14	67.88
447.32	25.75
447.51	42.13
447.69	72.56
447.88	23.41
448.06	11.70
448.25	58.51
448.43	14.04
448.62	0.00
448.80	49.15
448.99	60.85
449.17	74.90
449.36	21.06
449.54	32.77
449.73	0.00
449.91	67.88
450.10	0.00
450.28	30.43
450.46	35.11
450.65	25.75
450.83	46.81
451.02	51.49
451.20	0.00
451.39	95.96
451.57	60.85
451.76	0.00
451.94	16.38
452.13	51.49
452.31	81.92
452.49	56.17
452.68	14.04
452.86	98.30
453.05	2.34
453.23	9.36
453.42	37.45
453.60	23.41
453.78	21.06
453.97	21.06
454.15	28.09
454.34	30.43
454.52	4.68
454.70	0.00
454.89	0.00
455.07	4.68
455.26	86.60
455.44	86.60
455.62	44.47
455.81	46.81
455.99	56.17
456.17	44.47
456.36	18.72
456.54	65.54
456.73	0.00
456.91	74.90
457.09	56.17
457.28	44.47
457.46	42.13
457.64	14.04
457.83	46.81
458.01	0.00
458.19	28.09
458.38	42.13
458.56	58.51
458.74	21.06
458.93	0.00
459.11	18.72
459.29	86.60
459.48	0.00
459.66	14.04
459.84	32.77
460.03	98.30
460.21	4.68
460.39	9.36
460.57	0.00
460.76	0.00
460.94	56.17
461.12	121.71
461.31	46.81
461.49	42.13
461.67	65.54
461.85	63.19
462.04	28.09
462.22	77.24
462.40	25.75
462.59	0.00
462.77	0.00
462.95	0.00
463.13	23.41
463.32	42.13
463.50	58.51
463.68	84.26
463.86	18.72
464.05	60.85
464.23	25.75
464.41	49.15
464.59	67.88
464.78	21.06
464.96	44.47
465.14	86.60
465.32	35.11
465.50	70.22
465.69	39.79
465.87	9.36
466.05	0.00
466.23	51.49
466.41	74.90
466.60	42.13
466.78	67.88
466.96	0.00
467.14	114.69
467.32	60.85
467.51	42.13
467.69	18.72
467.87	0.00
468.05	88.94
468.23	0.00
468.41	0.00
468.60	67.88
468.78	21.06
468.96	42.13
469.14	23.41
469.32	23.41
469.50	11.70
469.69	23.41
469.87	0.00
470.05	63.19
470.23	0.00
470.41	51.49
470.59	0.00
470.77	25.75
470.95	28.09
471.14	18.72
471.32	42.13
471.50	91.28
471.68	23.41
471.86	140.43
472.04	4.68
472.22	58.51
472.40	4.68
472.58	65.54
472.77	0.00
472.95	21.06
473.13	49.15
473.31	0.00
473.49	77.24
473.67	23.41
473.85	30.43
474.03	39.79
474.21	18.72
474.39	11.70
474.57	79.58
474.75	39.79
474.93	74.90
475.12	42.13
475.30	0.00
475.48	0.00
475.66	53.83
475.84	30.43
476.02	70.22
476.20	21.06
476.38	14.04
476.56	35.11
476.74	88.94
476.92	0.00
477.10	32.77
477.28	7.02
477.46	25.75
477.64	49.15
477.82	0.00
478.00	23.41
478.18	84.26
478.36	0.00
478.54	0.00
478.72	23.41
478.90	84.26
479.08	0.00
479.26	74.90
479.44	74.90
479.62	67.88
479.80	0.00
479.98	0.00
480.16	9.36
480.34	28.09
480.52	58.51
480.70	11.70
480.88	67.88
481.06	46.81
481.24	0.00
481.41	0.00
481.59	0.00
481.77	77.24
481.95	39.79
482.13	46.81
482.31	84.26
482.49	65.54
482.67	44.47
482.85	14.04
483.03	23.41
483.21	70.22
483.39	49.15
483.57	70.22
483.74	2.34
483.92	35.11
484.10	23.41
484.28	133.41
484.46	70.22
484.64	70.22
484.82	42.13
485.00	35.11
485.18	0.00
485.35	72.56
485.53	25.75
485.71	23.41
485.89	0.00
486.07	74.90
486.25	42.13
486.43	2.34
486.61	2.34
486.78	39.79
486.96	72.56
487.14	0.00
487.32	79.58
487.50	63.19
487.68	39.79
487.85	53.83
488.03	0.00
488.21	84.26
488.39	65.54
488.57	11.70
488.75	0.00
488.92	67.88
489.10	35.11
489.28	21.06
489.46	58.51
489.64	0.00
489.81	25.75
489.99	107.66
490.17	86.60
490.35	4.68
490.53	18.72
490.70	0.00
490.88	49.15
491.06	42.13
491.24	37.45
491.41	25.75
491.59	84.26
491.77	67.88
491.95	65.54
492.13	16.38
492.30	9.36
492.48	23.41
492.66	37.45
492.84	0.00
493.01	39.79
493.19	35.11
493.37	74.90
493.54	14.04
493.72	35.11
493.90	46.81
494.08	42.13
494.25	2.34
494.43	74.90
494.61	7.02
494.79	60.85
494.96	58.51
495.14	0.00
495.32	30.43
495.49	79.58
495.67	42.13
495.85	9.36
496.02	60.85
496.20	42.13
496.38	79.58
496.55	56.17
496.73	46.81
496.91	9.36
497.09	93.62
497.26	42.13
497.44	70.22
497.62	44.47
497.79	0.00
497.97	28.09
498.14	44.47
498.32	67.88
498.50	98.30
498.67	88.94
498.85	51.49
499.03	23.41
499.20	88.94
499.38	128.73
499.56	44.47
499.73	0.00
499.91	42.13
500.08	49.15
500.26	58.51
500.44	0.00
500.61	32.77
500.79	74.90
500.97	63.19
501.14	0.00
501.32	86.60
501.49	37.45
501.67	53.83
501.84	51.49
502.02	7.02
502.20	79.58
502.37	84.26
502.55	60.85
502.72	39.79
502.90	28.09
503.07	126.39
503.25	67.88
503.43	0.00
503.60	0.00
503.78	7.02
503.95	49.15
504.13	74.90
504.30	39.79
504.48	56.17
504.65	21.06
504.83	28.09
505.01	0.00
505.18	2.34
505.36	30.43
505.53	0.00
505.71	88.94
505.88	7.02
506.06	23.41
506.23	16.38
506.41	60.85
506.58	84.26
506.76	0.00
506.93	44.47
507.11	30.43
507.28	98.30
507.46	39.79
507.63	74.90
507.81	21.06
507.98	58.51
508.16	74.90
508.33	9.36
508.50	93.62
508.68	37.45
508.85	56.17
509.03	51.49
509.20	86.60
509.38	124.05
509.55	46.81
509.73	65.54
509.90	44.47
510.08	0.00
510.25	49.15
510.42	23.41
510.60	46.81
510.77	30.43
510.95	7.02
511.12	56.17
511.30	53.83
511.47	91.28
511.64	32.77
511.82	105.32
511.99	63.19
512.17	154.48
512.34	60.85
512.51	11.70
512.69	93.62
512.86	25.75
513.04	51.49
513.21	88.94
513.38	35.11
513.56	56.17
513.73	21.06
513.90	0.00
514.08	11.70
514.25	63.19
514.43	67.88
514.60	60.85
514.77	63.19
514.95	74.90
515.12	93.62
515.29	28.09
515.47	51.49
515.64	37.45
515.81	56.17
515.99	0.00
516.16	91.28
516.33	0.00
516.51	51.49
516.68	0.00
516.85	67.88
517.03	53.83
517.20	60.85
517.37	133.41
517.54	46.81
517.72	11.70
517.89	35.11
518.06	79.58
518.24	16.38
518.41	49.15
518.58	53.83
518.75	46.81
518.93	0.00
519.10	49.15
519.27	0.00
519.45	4.68
519.62	0.00
519.79	51.49
519.96	30.43
520.14	0.00
520.31	28.09
520.48	42.13
520.65	49.15
520.83	65.54
521.00	60.85
521.17	0.00
521.34	32.77
521.52	65.54
521.69	23.41
521.86	25.75
522.03	42.13
522.20	49.15
522.38	88.94
522.55	51.49
522.72	0.00
522.89	0.00
523.07	25.75
523.24	23.41
523.41	86.60
523.58	60.85
523.75	0.00
523.92	42.13
524.10	63.19
524.27	42.13
524.44	51.49
524.61	56.17
524.78	0.00
524.96	44.47
525.13	9.36
525.30	0.00
525.47	51.49
525.64	93.62
525.81	46.81
525.98	51.49
526.16	28.09
526.33	25.75
526.50	9.36
526.67	58.51
526.84	56.17
527.01	7.02
527.18	102.98
527.36	44.47
527.53	84.26
527.70	79.58
527.87	67.88
528.04	98.30
528.21	42.13
528.38	42.13
528.55	67.88
528.72	0.00
528.89	21.06
529.07	28.09
529.24	7.02
529.41	23.41
529.58	70.22
529.75	53.83
529.92	93.62
530.09	11.70
530.26	0.00
530.43	91.28
530.60	51.49
530.77	65.54
530.94	0.00
531.11	0.00
531.28	18.72
531.46	60.85
531.63	0.00
531.80	44.47
531.97	53.83
532.14	121.71
532.31	70.22
532.48	46.81
532.65	14.04
532.82	79.58
532.99	91.28
533.16	84.26
533.33	21.06
533.50	77.24
533.67	0.00
533.84	39.79
534.01	100.64
534.18	60.85
534.35	32.77
534.52	86.60
534.69	28.09
534.86	79.58
535.03	11.70
535.20	60.85
535.37	70.22
535.54	0.00
535.71	98.30
535.88	44.47
536.05	0.00
536.22	72.56
536.38	25.75
536.55	35.11
536.72	37.45
536.89	0.00
537.06	18.72
537.23	65.54
537.40	74.90
537.57	42.13
537.74	32.77
537.91	88.94
538.08	65.54
538.25	0.00
538.42	51.49
538.59	18.72
538.75	0.00
538.92	28.09
539.09	16.38
539.26	0.00
539.43	28.09
539.60	23.41
539.77	7.02
539.94	112.35
540.11	67.88
540.28	21.06
540.44	0.00
540.61	32.77
540.78	53.83
540.95	42.13
541.12	84.26
541.29	0.00
541.46	72.56
541.62	0.00
541.79	0.00
541.96	37.45
542.13	95.96
542.30	7.02
542.47	18.72
542.63	88.94
542.80	72.56
542.97	25.75
543.14	37.45
543.31	28.09
543.48	37.45
543.64	16.38
543.81	25.75
543.98	4.68
544.15	77.24
544.32	25.75
544.48	56.17
544.65	0.00
544.82	84.26
544.99	0.00
545.16	74.90
545.32	42.13
545.49	60.85
545.66	9.36
545.83	16.38
546.00	74.90
546.16	0.00
546.33	46.81
546.50	91.28
546.67	25.75
546.83	28.09
547.00	46.81
547.17	0.00
547.34	42.13
547.50	0.00
547.67	58.51
547.84	30.43
548.00	35.11
548.17	86.60
548.34	86.60
548.51	88.94
548.67	46.81
548.84	28.09
549.01	49.15
549.18	56.17
549.34	23.41
549.51	37.45
549.68	105.32
549.84	124.05
550.01	28.09
550.18	51.49
550.34	16.38
550.51	51.49
550.68	72.56
550.84	53.83
551.01	42.13
551.18	49.15
551.34	37.45
551.51	0.00
551.68	39.79
551.84	102.98
552.01	32.77
552.18	67.88
552.34	0.00
552.51	7.02
552.68	51.49
552.84	32.77
553.01	102.98
553.18	4.68
553.34	42.13
553.51	77.24
553.67	56.17
553.84	81.92
554.01	60.85
554.17	37.45
554.34	16.38
554.51	32.77
554.67	91.28
554.84	70.22
555.00	25.75
555.17	44.47
555.33	37.45
555.50	35.11
555.67	42.13
555.83	53.83
556.00	49.15
556.16	95.96
556.33	107.66
556.50	93.62
556.66	28.09
556.83	0.00
556.99	88.94
557.16	2.34
557.32	58.51
557.49	9.36
557.65	16.38
557.82	0.00
557.98	58.51
558.15	28.09
558.32	30.43
558.48	39.79
558.65	4.68
558.81	65.54
558.98	110.01
559.14	16.38
559.31	0.00
559.47	65.54
559.64	4.68
559.80	84.26
559.97	60.85
560.13	42.13
560.30	0.00
560.46	30.43
560.63	18.72
560.79	23.41
560.96	86.60
561.12	49.15
561.29	65.54
561.45	0.00
561.61	39.79
561.78	16.38
561.94	0.00
562.11	0.00
562.27	23.41
562.44	39.79
562.60	63.19
562.77	28.09
562.93	0.00
563.10	51.49
563.26	0.00
563.42	25.75
563.59	138.09
563.75	0.00
563.92	74.90
564.08	110.01
564.24	86.60
564.41	53.83
564.57	32.77
564.74	86.60
564.90	88.94
565.07	100.64
565.23	44.47
565.39	63.19
565.56	25.75
565.72	0.00
565.88	44.47
566.05	0.00
566.21	91.28
566.38	0.00
566.54	28.09
566.70	91.28
566.87	18.72
567.03	0.00
567.19	0.00
567.36	70.22
567.52	70.22
567.68	0.00
567.85	21.06
568.01	32.77
568.17	0.00
568.34	14.04
568.50	79.58
568.66	60.85
568.83	53.83
568.99	0.00
569.15	4.68
569.32	35.11
569.48	0.00
569.64	63.19
569.81	25.75
569.97	35.11
570.13	0.00
570.30	7.02
570.46	0.00
570.62	39.79
570.78	0.00
570.95	56.17
571.11	65.54
571.27	0.00
571.43	28.09
571.60	79.58
571.76	81.92
571.92	25.75
572.09	42.13
572.25	56.17
572.41	46.81
572.57	72.56
572.74	70.22
572.90	0.00
573.06	79.58
573.22	60.85
573.38	46.81
573.55	7.02
573.71	60.85
573.87	56.17
574.03	18.72
574.20	35.11
574.36	63.19
574.52	32.77
574.68	28.09
574.84	28.09
575.01	79.58
575.17	84.26
575.33	28.09
575.49	100.64
575.65	14.04
575.82	14.04
575.98	91.28
576.14	14.04
576.30	0.00
576.46	51.49
576.62	58.51
576.79	58.51
576.95	37.45
577.11	0.00
577.27	0.00
577.43	30.43
577.59	65.54
577.75	21.06
577.92	0.00
578.08	46.81
578.24	112.35
578.40	67.88
578.56	67.88
578.72	0.00
578.88	37.45
579.04	0.00
579.21	39.79
579.37	0.00
579.53	67.88
579.69	30.43
579.85	77.24
580.01	60.85
580.17	84.26
580.33	0.00
580.49	25.75
580.65	0.00
580.82	0.00
580.98	28.09
581.14	14.04
581.30	14.04
581.46	56.17
581.62	23.41
581.78	117.03
581.94	70.22
582.10	0.00
582.26	70.22
582.42	51.49
582.58	65.54
582.74	32.77
582.90	0.00
583.06	79.58
583.22	25.75
583.38	74.90
583.54	86.60
583.70	79.58
583.86	63.19
584.02	0.00
584.18	58.51
584.34	37.45
584.50	117.03
584.66	241.08
584.82	416.62
584.98	624.92
585.14	479.81
585.30	304.27
585.46	182.56
585.62	114.69
585.78	86.60
585.94	70.22
586.10	98.30
586.26	74.90
586.42	11.70
586.58	39.79
586.74	65.54
586.90	42.13
587.06	0.00
587.22	9.36
587.38	49.15
587.54	72.56
587.70	112.35
587.86	126.39
588.02	194.26
588.18	112.35
588.34	105.32
588.49	124.05
588.65	84.26
588.81	39.79
588.97	30.43
589.13	44.47
589.29	46.81
589.45	53.83
589.61	63.19
589.77	88.94
589.93	11.70
590.08	11.70
590.24	9.36
590.40	39.79
590.56	58.51
590.72	28.09
590.88	42.13
591.04	44.47
591.20	74.90
591.35	98.30
591.51	63.19
591.67	0.00
591.83	9.36
591.99	117.03
592.15	42.13
592.31	16.38
592.46	37.45
592.62	46.81
592.78	18.72
592.94	11.70
593.10	11.70
593.26	77.24
593.41	9.36
593.57	37.45
593.73	28.09
593.89	81.92
594.05	102.98
594.20	128.73
594.36	124.05
594.52	124.05
594.68	79.58
594.84	39.79
594.99	42.13
595.15	9.36
595.31	39.79
595.47	0.00
595.62	16.38
595.78	60.85
595.94	25.75
596.10	72.56
596.25	93.62
596.41	0.00
596.57	7.02
596.73	2.34
596.88	0.00
597.04	25.75
597.20	117.03
597.36	77.24
597.51	74.90
597.67	51.49
597.83	44.47
597.99	91.28
598.14	21.06
598.30	67.88
598.46	77.24
598.61	37.45
598.77	91.28
598.93	51.49
599.09	79.58
599.24	30.43
599.40	49.15
599.56	28.09
599.71	35.11
599.87	42.13
600.03	65.54
600.18	2.34
600.34	56.17
600.50	84.26
600.65	63.19
600.81	93.62
600.97	117.03
601.12	0.00
601.28	0.00
601.44	44.47
601.59	46.81
601.75	28.09
601.91	112.35
602.06	0.00
602.22	21.06
602.37	28.09
602.53	63.19
602.69	93.62
602.84	70.22
603.00	42.13
603.16	42.13
603.31	67.88
603.47	114.69
603.62	60.85
603.78	25.75
603.94	63.19
604.09	93.62
604.25	28.09
604.40	28.09
604.56	46.81
604.71	58.51
604.87	107.66
605.03	114.69
605.18	81.92
605.34	7.02
605.49	60.85
605.65	0.00
605.80	42.13
605.96	32.77
606.12	46.81
606.27	56.17
606.43	107.66
606.58	0.00
606.74	0.00
606.89	49.15
607.05	98.30
607.20	142.77
607.36	102.98
607.51	91.28
607.67	56.17
607.82	91.28
607.98	65.54
608.13	0.00
608.29	53.83
608.44	7.02
608.60	53.83
608.75	79.58
608.91	0.00
609.06	42.13
609.22	124.05
609.37	135.75
609.53	140.43
609.68	128.73
609.84	39.79
609.99	42.13
610.15	95.96
610.30	0.00
610.46	14.04
610.61	128.73
610.76	0.00
610.92	9.36
611.07	0.00
611.23	110.01
611.38	21.06
611.54	44.47
611.69	42.13
611.84	14.04
612.00	4.68
612.15	70.22
612.31	2.34
612.46	0.00
612.62	100.64
612.77	35.11
612.92	53.83
613.08	25.75
613.23	42.13
613.39	39.79
613.54	42.13
613.69	63.19
613.85	102.98
614.00	184.90
614.15	182.56
614.31	163.84
614.46	142.77
614.62	44.47
614.77	63.19
614.92	51.49
615.08	84.26
615.23	53.83
615.38	0.00
615.54	2.34
615.69	86.60
615.84	79.58
616.00	77.24
616.15	142.77
616.30	77.24
616.46	32.77
616.61	0.00
616.76	0.00
616.92	2.34
617.07	0.00
617.22	0.00
617.37	14.04
617.53	53.83
617.68	0.00
617.83	84.26
617.99	67.88
618.14	0.00
618.29	142.77
618.45	44.47
618.60	77.24
618.75	0.00
618.90	42.13
619.06	9.36
619.21	46.81
619.36	67.88
619.51	9.36
619.67	98.30
619.82	11.70
619.97	65.54
620.12	37.45
620.28	23.41
620.43	32.77
620.58	102.98
620.73	70.22
620.89	51.49
621.04	44.47
621.19	84.26
621.34	67.88
621.49	44.47
621.65	23.41
621.80	77.24
621.95	39.79
622.10	35.11
622.25	65.54
622.41	32.77
622.56	46.81
622.71	35.11
622.86	16.38
623.01	70.22
623.16	4.68
623.32	21.06
623.47	35.11
623.62	7.02
623.77	95.96
623.92	42.13
624.07	11.70
624.23	107.66
624.38	100.64
624.53	44.47
624.68	28.09
624.83	23.41
624.98	0.00
625.13	65.54
625.29	23.41
625.44	2.34
625.59	0.00
625.74	74.90
625.89	63.19
626.04	88.94
626.19	14.04
626.34	147.45
626.49	117.03
626.65	91.28
626.80	95.96
626.95	74.90
627.10	0.00
627.25	51.49
627.40	56.17
627.55	81.92
627.70	65.54
627.85	42.13
628.00	0.00
628.15	25.75
628.30	0.00
628.45	37.45
628.60	51.49
628.76	18.72
628.91	37.45
629.06	65.54
629.21	9.36
629.36	79.58
629.51	49.15
629.66	105.32
629.81	49.15
629.96	98.30
630.11	51.49
630.26	126.39
630.41	49.15
630.56	58.51
630.71	98.30
630.86	49.15
631.01	9.36
631.16	35.11
631.31	70.22
631.46	4.68
631.61	0.00
631.76	14.04
631.91	79.58
632.06	0.00
632.21	98.30
632.36	102.98
632.51	4.68
632.66	39.79
632.81	23.41
632.96	28.09
633.10	117.03
633.25	95.96
633.40	77.24
633.55	77.24
633.70	2.34
633.85	53.83
634.00	79.58
634.15	39.79
634.30	14.04
634.45	100.64
634.60	49.15
634.75	0.00
634.90	18.72
635.05	14.04
635.19	46.81
635.34	32.77
635.49	0.00
635.64	32.77
635.79	14.04
635.94	93.62
636.09	58.51
636.24	2.34
636.39	65.54
636.53	0.00
636.68	35.11
636.83	0.00
636.98	0.00
637.13	51.49
637.28	49.15
637.43	81.92
637.57	28.09
637.72	95.96
637.87	135.75
638.02	128.73
638.17	140.43
638.32	93.62
638.46	121.71
638.61	100.64
638.76	32.77
638.91	173.20
639.06	56.17
639.20	46.81
639.35	0.00
639.50	18.72
639.65	110.01
639.80	135.75
639.94	196.60
640.09	168.52
640.24	203.63
640.39	126.39
640.54	98.30
640.68	88.94
640.83	81.92
640.98	72.56
641.13	0.00
641.27	28.09
641.42	63.19
641.57	44.47
641.72	67.88
641.86	16.38
642.01	11.70
642.16	53.83
642.31	42.13
642.45	121.71
642.60	7.02
642.75	23.41
642.90	0.00
643.04	9.36
643.19	46.81
643.34	121.71
643.48	42.13
643.63	28.09
643.78	32.77
643.93	135.75
644.07	58.51
644.22	91.28
644.37	79.58
644.51	25.75
644.66	46.81
644.81	0.00
644.95	37.45
645.10	35.11
645.25	53.83
645.39	65.54
645.54	4.68
645.69	23.41
645.83	98.30
645.98	81.92
646.13	56.17
646.27	60.85
646.42	0.00
646.57	35.11
646.71	51.49
646.86	0.00
647.00	72.56
647.15	14.04
647.30	32.77
647.44	0.00
647.59	37.45
647.74	11.70
647.88	0.00
648.03	0.00
648.17	0.00
648.32	72.56
648.47	46.81
648.61	0.00
648.76	25.75
648.90	46.81
649.05	84.26
649.20	30.43
649.34	32.77
649.49	46.81
649.63	11.70
649.78	32.77
649.92	0.00
650.07	84.26
650.21	44.47
650.36	128.73
650.51	131.07
650.65	163.84
650.80	86.60
650.94	67.88
651.09	56.17
651.23	39.79
651.38	0.00
651.52	65.54
651.67	0.00
651.81	72.56
651.96	67.88
652.10	37.45
652.25	35.11
652.39	0.00
652.54	53.83
652.68	114.69
652.83	42.13
652.97	51.49
653.12	79.58
653.26	23.41
653.41	28.09
653.55	46.81
653.70	16.38
653.84	0.00
653.99	44.47
654.13	14.04
654.27	25.75
654.42	0.00
654.56	7.02
654.71	37.45
654.85	35.11
655.00	23.41
655.14	105.32
655.29	4.68
655.43	21.06
655.57	77.24
655.72	51.49
655.86	74.90
656.01	100.64
656.15	0.00
656.30	14.04
656.44	16.38
656.58	0.00
656.73	67.88
656.87	0.00
657.01	30.43
657.16	56.17
657.30	25.75
657.45	16.38
657.59	35.11
657.73	114.69
657.88	74.90
658.02	37.45
658.16	0.00
658.31	98.30
658.45	49.15
658.60	0.00
658.74	63.19
658.88	7.02
659.03	18.72
659.17	9.36
659.31	91.28
659.46	70.22
659.60	23.41
659.74	131.07
659.89	112.35
660.03	30.43
660.17	44.47
660.32	30.43
660.46	18.72
660.60	65.54
660.74	70.22
660.89	44.47
661.03	37.45
661.17	0.00
661.32	11.70
661.46	46.81
661.60	81.92
661.74	51.49
661.89	18.72
662.03	53.83
662.17	35.11
662.31	23.41
662.46	0.00
662.60	7.02
662.74	65.54
662.88	0.00
663.03	30.43
663.17	72.56
663.31	67.88
663.45	0.00
663.60	0.00
663.74	37.45
663.88	53.83
664.02	30.43
664.17	142.77
664.31	88.94
664.45	0.00
664.59	63.19
664.73	77.24
664.88	86.60
665.02	0.00
665.16	32.77
665.30	51.49
665.44	11.70
665.59	32.77
665.73	23.41
665.87	4.68
666.01	2.34
666.15	56.17
666.29	49.15
666.44	4.68
666.58	30.43
666.72	105.32
666.86	30.43
667.00	42.13
667.14	4.68
667.28	21.06
667.43	81.92
667.57	84.26
667.71	191.92
667.85	63.19
667.99	119.37
668.13	37.45
668.27	91.28
668.41	25.75
668.56	67.88
668.70	72.56
668.84	42.13
668.98	0.00
669.12	14.04
669.26	86.60
669.40	2.34
669.54	98.30
669.68	100.64
669.82	30.43
669.96	51.49
670.10	0.00
670.25	0.00
670.39	58.51
670.53	28.09
670.67	23.41
670.81	84.26
670.95	32.77
671.09	44.47
671.23	32.77
671.37	58.51
671.51	44.47
671.65	131.07
671.79	49.15
671.93	79.58
672.07	93.62
672.21	53.83
672.35	0.00
672.49	74.90
672.63	25.75
672.77	42.13
672.91	77.24
673.05	9.36
673.19	72.56
673.33	46.81
673.47	46.81
673.61	74.90
673.75	0.00
673.89	44.47
674.03	14.04
674.17	0.00
674.31	58.51
674.45	51.49
674.59	102.98
674.73	53.83
674.87	0.00
675.01	0.00
675.15	25.75
675.29	0.00
675.43	46.81
675.56	60.85
675.70	11.70
675.84	28.09
675.98	4.68
676.12	44.47
676.26	2.34
676.40	0.00
676.54	60.85
676.68	84.26
676.82	18.72
676.96	53.83
677.10	18.72
677.23	32.77
677.37	46.81
677.51	95.96
677.65	30.43
677.79	49.15
677.93	42.13
678.07	58.51
678.21	9.36
678.34	86.60
678.48	37.45
678.62	44.47
678.76	0.00
678.90	56.17
679.04	16.38
679.18	30.43
679.31	2.34
679.45	9.36
679.59	51.49
679.73	0.00
679.87	21.06
680.00	0.00
680.14	0.00
680.28	11.70
680.42	16.38
680.56	7.02
680.70	46.81
680.83	18.72
680.97	35.11
681.11	49.15
681.25	0.00
681.39	44.47
681.52	60.85
681.66	91.28
681.80	44.47
681.94	7.02
682.07	28.09
682.21	0.00
682.35	16.38
682.49	32.77
682.62	51.49
682.76	0.00
682.90	42.13
683.04	93.62
683.17	9.36
683.31	16.38
683.45	65.54
683.59	32.77
683.72	25.75
683.86	16.38
684.00	79.58
684.13	65.54
684.27	35.11
684.41	0.00
684.55	9.36
684.68	79.58
684.82	2.34
684.96	0.00
685.09	77.24
685.23	32.77
685.37	30.43
685.50	42.13
685.64	53.83
685.78	44.47
685.91	37.45
686.05	105.32
686.19	25.75
686.32	11.70
686.46	18.72
686.60	0.00
686.73	0.00
686.87	0.00
687.01	44.47
687.14	0.00
687.28	0.00
687.42	79.58
687.55	44.47
687.69	58.51
687.82	72.56
687.96	25.75
688.10	53.83
688.23	21.06
688.37	0.00
688.50	7.02
688.64	0.00
688.78	49.15
688.91	0.00
689.05	23.41
689.18	0.00
689.32	42.13
689.46	42.13
689.59	0.00
689.73	51.49
689.86	16.38
690.00	0.00
690.13	49.15
690.27	4.68
690.41	30.43
690.54	4.68
690.68	112.35
690.81	0.00
690.95	46.81
691.08	49.15
691.22	11.70
691.35	0.00
691.49	37.45
691.62	25.75
691.76	56.17
691.89	14.04
692.03	0.00
692.16	112.35
692.30	44.47
692.43	18.72
692.57	42.13
692.70	7.02
692.84	63.19
692.97	77.24
693.11	60.85
693.24	58.51
693.38	49.15
693.51	0.00
693.65	0.00
693.78	37.45
693.92	0.00
694.05	21.06
694.19	86.60
694.32	49.15
694.45	53.83
694.59	2.34
694.72	0.00
694.86	30.43
694.99	39.79
695.13	44.47
695.26	0.00
695.39	14.04
695.53	42.13
695.66	30.43
695.80	39.79
695.93	79.58
696.07	30.43
696.20	30.43
696.33	0.00
696.47	7.02
696.60	0.00
696.73	0.00
696.87	105.32
697.00	0.00
697.14	72.56
697.27	42.13
697.40	9.36
697.54	112.35
697.67	0.00
697.80	70.22
697.94	77.24
698.07	7.02
698.21	63.19
698.34	25.75
698.47	124.05
698.61	25.75
698.74	0.00
698.87	49.15
699.01	14.04
699.14	74.90
699.27	72.56
699.40	0.00
699.54	51.49
699.67	44.47
699.80	9.36
699.94	9.36
700.07	35.11
700.20	0.00
700.34	95.96
700.47	7.02
700.60	9.36
700.73	44.47
700.87	49.15
701.00	51.49
701.13	84.26
701.26	14.04
701.40	18.72
701.53	42.13
701.66	21.06
701.79	46.81
701.93	60.85
702.06	63.19
702.19	0.00
702.32	77.24
702.46	49.15
702.59	67.88
702.72	0.00
702.85	63.19
702.99	88.94
703.12	42.13
703.25	131.07
703.38	140.43
703.51	74.90
703.65	131.07
703.78	88.94
703.91	110.01
704.04	84.26
704.17	0.00
704.31	0.00
704.44	81.92
704.57	18.72
704.70	70.22
704.83	0.00
704.96	7.02
705.10	53.83
705.23	16.38
>>>>>End Processed Spectral Data<<<<<
