SpectraSuite Data File
++++++++++++++++++++++++++++++++++++
Date: Fri Oct 04 12:13:27 GMT-05:00 2013
User: price-jones
Dark Spectrum Present: No
Reference Spectrum Present: No
Number of Sampled Component Spectra: 1
Spectrometers: USB2+H05261
Integration Time (usec): 10000 (USB2+H05261)
Spectra Averaged: 1 (USB2+H05261)
Boxcar Smoothing: 0 (USB2+H05261)
Correct for Electrical Dark: No (USB2+H05261)
Strobe/Lamp Enabled: No (USB2+H05261)
Correct for Detector Non-linearity: No (USB2+H05261)
Correct for Stray Light: No (USB2+H05261)
Number of Pixels in Processed Spectrum: 2048
>>>>>Begin Processed Spectral Data<<<<<
365.73	44.47
365.92	44.47
366.12	44.47
366.32	0.00
366.52	0.00
366.72	0.00
366.91	0.00
367.11	0.00
367.31	0.00
367.51	0.00
367.70	0.00
367.90	0.00
368.10	0.00
368.30	0.00
368.49	0.00
368.69	0.00
368.89	0.00
369.09	0.00
369.28	0.00
369.48	0.00
369.68	0.00
369.87	0.00
370.07	0.00
370.27	0.00
370.47	0.00
370.66	0.00
370.86	0.00
371.06	0.00
371.25	0.00
371.45	0.00
371.65	0.00
371.84	0.00
372.04	11.70
372.24	0.00
372.44	9.36
372.63	28.09
372.83	11.70
373.03	0.00
373.22	0.00
373.42	0.00
373.62	53.83
373.81	51.49
374.01	25.75
374.21	44.47
374.40	46.81
374.60	95.96
374.79	67.88
374.99	88.94
375.19	67.88
375.38	46.81
375.58	0.00
375.78	42.13
375.97	65.54
376.17	63.19
376.37	74.90
376.56	0.00
376.76	0.00
376.95	0.00
377.15	32.77
377.35	21.06
377.54	84.26
377.74	58.51
377.93	51.49
378.13	7.02
378.33	42.13
378.52	63.19
378.72	53.83
378.91	0.00
379.11	53.83
379.31	28.09
379.50	39.79
379.70	0.00
379.89	0.00
380.09	0.00
380.28	14.04
380.48	63.19
380.68	0.00
380.87	0.00
381.07	0.00
381.26	25.75
381.46	51.49
381.65	28.09
381.85	65.54
382.04	2.34
382.24	0.00
382.43	58.51
382.63	0.00
382.83	46.81
383.02	0.00
383.22	77.24
383.41	74.90
383.61	0.00
383.80	0.00
384.00	39.79
384.19	28.09
384.39	49.15
384.58	37.45
384.78	23.41
384.97	0.00
385.17	91.28
385.36	4.68
385.56	0.00
385.75	37.45
385.95	14.04
386.14	65.54
386.34	39.79
386.53	0.00
386.72	9.36
386.92	30.43
387.11	0.00
387.31	0.00
387.50	35.11
387.70	9.36
387.89	28.09
388.09	0.00
388.28	0.00
388.48	28.09
388.67	86.60
388.86	72.56
389.06	0.00
389.25	79.58
389.45	49.15
389.64	0.00
389.84	39.79
390.03	0.00
390.22	25.75
390.42	0.00
390.61	39.79
390.81	7.02
391.00	14.04
391.19	14.04
391.39	21.06
391.58	51.49
391.78	70.22
391.97	0.00
392.16	44.47
392.36	18.72
392.55	0.00
392.75	0.00
392.94	0.00
393.13	23.41
393.33	93.62
393.52	37.45
393.71	53.83
393.91	0.00
394.10	32.77
394.29	0.00
394.49	18.72
394.68	0.00
394.88	9.36
395.07	110.01
395.26	0.00
395.46	35.11
395.65	0.00
395.84	72.56
396.04	0.00
396.23	0.00
396.42	11.70
396.62	0.00
396.81	28.09
397.00	58.51
397.19	0.00
397.39	11.70
397.58	93.62
397.77	0.00
397.97	0.00
398.16	9.36
398.35	2.34
398.55	16.38
398.74	79.58
398.93	11.70
399.12	42.13
399.32	14.04
399.51	77.24
399.70	0.00
399.90	60.85
400.09	28.09
400.28	70.22
400.47	28.09
400.67	0.00
400.86	11.70
401.05	0.00
401.24	51.49
401.44	23.41
401.63	0.00
401.82	42.13
402.01	110.01
402.21	100.64
402.40	0.00
402.59	11.70
402.78	46.81
402.97	39.79
403.17	0.00
403.36	56.17
403.55	58.51
403.74	0.00
403.93	25.75
404.13	0.00
404.32	65.54
404.51	4.68
404.70	9.36
404.89	28.09
405.09	0.00
405.28	0.00
405.47	60.85
405.66	0.00
405.85	44.47
406.05	58.51
406.24	67.88
406.43	100.64
406.62	14.04
406.81	14.04
407.00	86.60
407.20	0.00
407.39	49.15
407.58	30.43
407.77	21.06
407.96	9.36
408.15	42.13
408.34	0.00
408.54	4.68
408.73	46.81
408.92	0.00
409.11	7.02
409.30	58.51
409.49	46.81
409.68	16.38
409.87	0.00
410.07	88.94
410.26	77.24
410.45	25.75
410.64	37.45
410.83	37.45
411.02	35.11
411.21	2.34
411.40	0.00
411.59	0.00
411.78	49.15
411.98	0.00
412.17	30.43
412.36	0.00
412.55	63.19
412.74	14.04
412.93	72.56
413.12	42.13
413.31	46.81
413.50	9.36
413.69	7.02
413.88	0.00
414.07	0.00
414.26	0.00
414.45	11.70
414.64	72.56
414.83	0.00
415.02	42.13
415.22	46.81
415.41	152.13
415.60	53.83
415.79	56.17
415.98	81.92
416.17	11.70
416.36	18.72
416.55	49.15
416.74	53.83
416.93	7.02
417.12	0.00
417.31	110.01
417.50	58.51
417.69	56.17
417.88	74.90
418.07	63.19
418.26	46.81
418.45	0.00
418.64	51.49
418.83	0.00
419.02	4.68
419.21	25.75
419.39	124.05
419.58	37.45
419.77	7.02
419.96	60.85
420.15	7.02
420.34	0.00
420.53	56.17
420.72	0.00
420.91	0.00
421.10	9.36
421.29	51.49
421.48	58.51
421.67	32.77
421.86	0.00
422.05	53.83
422.24	7.02
422.43	53.83
422.61	7.02
422.80	25.75
422.99	25.75
423.18	0.00
423.37	9.36
423.56	7.02
423.75	25.75
423.94	25.75
424.13	9.36
424.32	0.00
424.50	70.22
424.69	7.02
424.88	21.06
425.07	0.00
425.26	65.54
425.45	4.68
425.64	77.24
425.83	51.49
426.01	67.88
426.20	0.00
426.39	32.77
426.58	42.13
426.77	58.51
426.96	9.36
427.15	18.72
427.33	67.88
427.52	25.75
427.71	28.09
427.90	32.77
428.09	11.70
428.28	0.00
428.46	37.45
428.65	135.75
428.84	56.17
429.03	102.98
429.22	63.19
429.40	0.00
429.59	42.13
429.78	0.00
429.97	4.68
430.16	67.88
430.34	4.68
430.53	0.00
430.72	11.70
430.91	60.85
431.10	23.41
431.28	42.13
431.47	21.06
431.66	42.13
431.85	23.41
432.03	91.28
432.22	0.00
432.41	49.15
432.60	63.19
432.79	79.58
432.97	39.79
433.16	70.22
433.35	28.09
433.54	11.70
433.72	21.06
433.91	32.77
434.10	44.47
434.28	60.85
434.47	98.30
434.66	44.47
434.85	42.13
435.03	0.00
435.22	65.54
435.41	51.49
435.59	25.75
435.78	32.77
435.97	110.01
436.16	0.00
436.34	37.45
436.53	67.88
436.72	53.83
436.90	0.00
437.09	14.04
437.28	49.15
437.46	46.81
437.65	65.54
437.84	23.41
438.02	39.79
438.21	91.28
438.40	60.85
438.58	0.00
438.77	58.51
438.96	4.68
439.14	37.45
439.33	2.34
439.52	21.06
439.70	77.24
439.89	72.56
440.08	16.38
440.26	0.00
440.45	81.92
440.63	37.45
440.82	93.62
441.01	32.77
441.19	21.06
441.38	23.41
441.57	0.00
441.75	37.45
441.94	46.81
442.12	100.64
442.31	2.34
442.50	9.36
442.68	72.56
442.87	39.79
443.05	44.47
443.24	39.79
443.43	51.49
443.61	79.58
443.80	11.70
443.98	70.22
444.17	67.88
444.35	39.79
444.54	70.22
444.73	32.77
444.91	98.30
445.10	53.83
445.28	0.00
445.47	46.81
445.65	79.58
445.84	86.60
446.02	67.88
446.21	7.02
446.39	0.00
446.58	58.51
446.77	58.51
446.95	30.43
447.14	14.04
447.32	18.72
447.51	0.00
447.69	0.00
447.88	30.43
448.06	70.22
448.25	74.90
448.43	14.04
448.62	42.13
448.80	0.00
448.99	21.06
449.17	65.54
449.36	37.45
449.54	0.00
449.73	67.88
449.91	0.00
450.10	72.56
450.28	28.09
450.46	51.49
450.65	0.00
450.83	51.49
451.02	0.00
451.20	0.00
451.39	0.00
451.57	4.68
451.76	11.70
451.94	67.88
452.13	23.41
452.31	16.38
452.49	18.72
452.68	28.09
452.86	95.96
453.05	70.22
453.23	65.54
453.42	86.60
453.60	42.13
453.78	0.00
453.97	53.83
454.15	77.24
454.34	53.83
454.52	37.45
454.70	25.75
454.89	128.73
455.07	44.47
455.26	0.00
455.44	18.72
455.62	74.90
455.81	77.24
455.99	0.00
456.17	72.56
456.36	63.19
456.54	51.49
456.73	46.81
456.91	25.75
457.09	93.62
457.28	77.24
457.46	9.36
457.64	53.83
457.83	21.06
458.01	84.26
458.19	51.49
458.38	0.00
458.56	49.15
458.74	86.60
458.93	0.00
459.11	72.56
459.29	0.00
459.48	7.02
459.66	37.45
459.84	0.00
460.03	21.06
460.21	86.60
460.39	11.70
460.57	79.58
460.76	121.71
460.94	21.06
461.12	21.06
461.31	35.11
461.49	42.13
461.67	25.75
461.85	65.54
462.04	7.02
462.22	67.88
462.40	0.00
462.59	9.36
462.77	56.17
462.95	79.58
463.13	84.26
463.32	0.00
463.50	72.56
463.68	60.85
463.86	37.45
464.05	25.75
464.23	28.09
464.41	18.72
464.59	23.41
464.78	0.00
464.96	95.96
465.14	58.51
465.32	0.00
465.50	0.00
465.69	11.70
465.87	7.02
466.05	121.71
466.23	56.17
466.41	4.68
466.60	0.00
466.78	44.47
466.96	65.54
467.14	9.36
467.32	58.51
467.51	58.51
467.69	0.00
467.87	2.34
468.05	67.88
468.23	0.00
468.41	63.19
468.60	35.11
468.78	114.69
468.96	23.41
469.14	65.54
469.32	67.88
469.50	28.09
469.69	37.45
469.87	32.77
470.05	67.88
470.23	23.41
470.41	18.72
470.59	39.79
470.77	7.02
470.95	65.54
471.14	25.75
471.32	14.04
471.50	70.22
471.68	81.92
471.86	14.04
472.04	79.58
472.22	70.22
472.40	30.43
472.58	21.06
472.77	0.00
472.95	67.88
473.13	72.56
473.31	53.83
473.49	32.77
473.67	53.83
473.85	70.22
474.03	0.00
474.21	4.68
474.39	84.26
474.57	39.79
474.75	0.00
474.93	21.06
475.12	37.45
475.30	18.72
475.48	56.17
475.66	30.43
475.84	0.00
476.02	74.90
476.20	44.47
476.38	56.17
476.56	35.11
476.74	37.45
476.92	107.66
477.10	53.83
477.28	0.00
477.46	0.00
477.64	58.51
477.82	32.77
478.00	0.00
478.18	0.00
478.36	14.04
478.54	25.75
478.72	25.75
478.90	0.00
479.08	0.00
479.26	28.09
479.44	23.41
479.62	42.13
479.80	42.13
479.98	18.72
480.16	0.00
480.34	0.00
480.52	32.77
480.70	0.00
480.88	60.85
481.06	23.41
481.24	46.81
481.41	23.41
481.59	28.09
481.77	79.58
481.95	49.15
482.13	18.72
482.31	39.79
482.49	16.38
482.67	70.22
482.85	84.26
483.03	42.13
483.21	28.09
483.39	23.41
483.57	74.90
483.74	63.19
483.92	4.68
484.10	49.15
484.28	53.83
484.46	30.43
484.64	53.83
484.82	14.04
485.00	28.09
485.18	60.85
485.35	65.54
485.53	42.13
485.71	63.19
485.89	102.98
486.07	93.62
486.25	35.11
486.43	46.81
486.61	25.75
486.78	0.00
486.96	2.34
487.14	0.00
487.32	0.00
487.50	0.00
487.68	67.88
487.85	44.47
488.03	77.24
488.21	65.54
488.39	0.00
488.57	0.00
488.75	0.00
488.92	28.09
489.10	25.75
489.28	25.75
489.46	0.00
489.64	0.00
489.81	25.75
489.99	95.96
490.17	4.68
490.35	117.03
490.53	88.94
490.70	67.88
490.88	49.15
491.06	35.11
491.24	81.92
491.41	44.47
491.59	30.43
491.77	25.75
491.95	58.51
492.13	0.00
492.30	35.11
492.48	28.09
492.66	70.22
492.84	0.00
493.01	58.51
493.19	16.38
493.37	44.47
493.54	11.70
493.72	49.15
493.90	14.04
494.08	0.00
494.25	49.15
494.43	44.47
494.61	18.72
494.79	7.02
494.96	30.43
495.14	0.00
495.32	42.13
495.49	0.00
495.67	70.22
495.85	0.00
496.02	23.41
496.20	2.34
496.38	28.09
496.55	4.68
496.73	0.00
496.91	77.24
497.09	0.00
497.26	0.00
497.44	30.43
497.62	28.09
497.79	67.88
497.97	23.41
498.14	23.41
498.32	39.79
498.50	0.00
498.67	11.70
498.85	51.49
499.03	39.79
499.20	9.36
499.38	7.02
499.56	32.77
499.73	28.09
499.91	58.51
500.08	49.15
500.26	35.11
500.44	30.43
500.61	0.00
500.79	79.58
500.97	107.66
501.14	44.47
501.32	53.83
501.49	21.06
501.67	21.06
501.84	11.70
502.02	93.62
502.20	18.72
502.37	14.04
502.55	58.51
502.72	39.79
502.90	16.38
503.07	37.45
503.25	65.54
503.43	18.72
503.60	0.00
503.78	30.43
503.95	18.72
504.13	46.81
504.30	65.54
504.48	39.79
504.65	74.90
504.83	67.88
505.01	84.26
505.18	49.15
505.36	0.00
505.53	100.64
505.71	44.47
505.88	35.11
506.06	0.00
506.23	0.00
506.41	70.22
506.58	72.56
506.76	42.13
506.93	58.51
507.11	0.00
507.28	56.17
507.46	35.11
507.63	32.77
507.81	23.41
507.98	74.90
508.16	9.36
508.33	107.66
508.50	0.00
508.68	4.68
508.85	0.00
509.03	53.83
509.20	9.36
509.38	0.00
509.55	28.09
509.73	23.41
509.90	56.17
510.08	72.56
510.25	110.01
510.42	49.15
510.60	42.13
510.77	74.90
510.95	21.06
511.12	23.41
511.30	93.62
511.47	39.79
511.64	0.00
511.82	114.69
511.99	11.70
512.17	46.81
512.34	86.60
512.51	32.77
512.69	16.38
512.86	58.51
513.04	16.38
513.21	79.58
513.38	0.00
513.56	4.68
513.73	42.13
513.90	9.36
514.08	84.26
514.25	56.17
514.43	0.00
514.60	32.77
514.77	25.75
514.95	74.90
515.12	63.19
515.29	74.90
515.47	0.00
515.64	117.03
515.81	81.92
515.99	4.68
516.16	23.41
516.33	0.00
516.51	51.49
516.68	30.43
516.85	25.75
517.03	21.06
517.20	49.15
517.37	32.77
517.54	91.28
517.72	0.00
517.89	2.34
518.06	0.00
518.24	16.38
518.41	23.41
518.58	2.34
518.75	88.94
518.93	53.83
519.10	21.06
519.27	0.00
519.45	79.58
519.62	23.41
519.79	28.09
519.96	4.68
520.14	0.00
520.31	11.70
520.48	0.00
520.65	0.00
520.83	44.47
521.00	110.01
521.17	25.75
521.34	0.00
521.52	14.04
521.69	0.00
521.86	32.77
522.03	49.15
522.20	37.45
522.38	16.38
522.55	11.70
522.72	77.24
522.89	9.36
523.07	37.45
523.24	72.56
523.41	79.58
523.58	0.00
523.75	65.54
523.92	44.47
524.10	37.45
524.27	46.81
524.44	88.94
524.61	42.13
524.78	14.04
524.96	72.56
525.13	42.13
525.30	100.64
525.47	77.24
525.64	56.17
525.81	0.00
525.98	53.83
526.16	84.26
526.33	100.64
526.50	30.43
526.67	51.49
526.84	53.83
527.01	65.54
527.18	88.94
527.36	70.22
527.53	25.75
527.70	79.58
527.87	14.04
528.04	49.15
528.21	16.38
528.38	14.04
528.55	88.94
528.72	74.90
528.89	18.72
529.07	51.49
529.24	39.79
529.41	60.85
529.58	21.06
529.75	53.83
529.92	0.00
530.09	74.90
530.26	30.43
530.43	37.45
530.60	60.85
530.77	42.13
530.94	93.62
531.11	65.54
531.28	18.72
531.46	30.43
531.63	77.24
531.80	0.00
531.97	23.41
532.14	0.00
532.31	0.00
532.48	30.43
532.65	0.00
532.82	16.38
532.99	2.34
533.16	77.24
533.33	84.26
533.50	32.77
533.67	49.15
533.84	35.11
534.01	70.22
534.18	88.94
534.35	51.49
534.52	86.60
534.69	60.85
534.86	53.83
535.03	100.64
535.20	49.15
535.37	65.54
535.54	79.58
535.71	42.13
535.88	74.90
536.05	4.68
536.22	0.00
536.38	81.92
536.55	4.68
536.72	126.39
536.89	46.81
537.06	93.62
537.23	65.54
537.40	46.81
537.57	100.64
537.74	86.60
537.91	60.85
538.08	0.00
538.25	53.83
538.42	18.72
538.59	16.38
538.75	0.00
538.92	65.54
539.09	0.00
539.26	11.70
539.43	42.13
539.60	131.07
539.77	257.46
539.94	205.97
540.11	168.52
540.28	23.41
540.44	0.00
540.61	4.68
540.78	39.79
540.95	21.06
541.12	28.09
541.29	114.69
541.46	0.00
541.62	46.81
541.79	28.09
541.96	21.06
542.13	11.70
542.30	4.68
542.47	70.22
542.63	35.11
542.80	18.72
542.97	21.06
543.14	74.90
543.31	9.36
543.48	74.90
543.64	39.79
543.81	0.00
543.98	37.45
544.15	77.24
544.32	0.00
544.48	77.24
544.65	0.00
544.82	30.43
544.99	0.00
545.16	0.00
545.32	0.00
545.49	58.51
545.66	28.09
545.83	0.00
546.00	81.92
546.16	53.83
546.33	53.83
546.50	102.98
546.67	44.47
546.83	51.49
547.00	16.38
547.17	0.00
547.34	37.45
547.50	9.36
547.67	21.06
547.84	53.83
548.00	0.00
548.17	14.04
548.34	32.77
548.51	35.11
548.67	0.00
548.84	70.22
549.01	65.54
549.18	16.38
549.34	112.35
549.51	16.38
549.68	56.17
549.84	32.77
550.01	65.54
550.18	42.13
550.34	131.07
550.51	4.68
550.68	14.04
550.84	21.06
551.01	86.60
551.18	49.15
551.34	35.11
551.51	0.00
551.68	25.75
551.84	51.49
552.01	86.60
552.18	35.11
552.34	72.56
552.51	98.30
552.68	16.38
552.84	46.81
553.01	0.00
553.18	32.77
553.34	91.28
553.51	60.85
553.67	44.47
553.84	46.81
554.01	9.36
554.17	14.04
554.34	46.81
554.51	86.60
554.67	63.19
554.84	88.94
555.00	39.79
555.17	100.64
555.33	56.17
555.50	77.24
555.67	11.70
555.83	53.83
556.00	0.00
556.16	46.81
556.33	49.15
556.50	67.88
556.66	21.06
556.83	53.83
556.99	4.68
557.16	60.85
557.32	46.81
557.49	0.00
557.65	112.35
557.82	16.38
557.98	32.77
558.15	23.41
558.32	11.70
558.48	84.26
558.65	39.79
558.81	93.62
558.98	53.83
559.14	25.75
559.31	53.83
559.47	44.47
559.64	77.24
559.80	0.00
559.97	42.13
560.13	81.92
560.30	79.58
560.46	23.41
560.63	37.45
560.79	72.56
560.96	11.70
561.12	0.00
561.29	35.11
561.45	42.13
561.61	110.01
561.78	79.58
561.94	23.41
562.11	39.79
562.27	21.06
562.44	67.88
562.60	86.60
562.77	0.00
562.93	0.00
563.10	46.81
563.26	56.17
563.42	79.58
563.59	44.47
563.75	56.17
563.92	60.85
564.08	30.43
564.24	39.79
564.41	63.19
564.57	42.13
564.74	58.51
564.90	0.00
565.07	14.04
565.23	84.26
565.39	72.56
565.56	105.32
565.72	25.75
565.88	11.70
566.05	49.15
566.21	18.72
566.38	88.94
566.54	18.72
566.70	72.56
566.87	79.58
567.03	70.22
567.19	28.09
567.36	35.11
567.52	0.00
567.68	42.13
567.85	37.45
568.01	63.19
568.17	93.62
568.34	21.06
568.50	60.85
568.66	91.28
568.83	25.75
568.99	42.13
569.15	35.11
569.32	65.54
569.48	23.41
569.64	0.00
569.81	84.26
569.97	35.11
570.13	7.02
570.30	0.00
570.46	0.00
570.62	0.00
570.78	11.70
570.95	42.13
571.11	60.85
571.27	21.06
571.43	0.00
571.60	16.38
571.76	0.00
571.92	32.77
572.09	35.11
572.25	23.41
572.41	84.26
572.57	0.00
572.74	35.11
572.90	58.51
573.06	60.85
573.22	142.77
573.38	0.00
573.55	16.38
573.71	117.03
573.87	70.22
574.03	86.60
574.20	18.72
574.36	30.43
574.52	28.09
574.68	107.66
574.84	56.17
575.01	58.51
575.17	0.00
575.33	53.83
575.49	95.96
575.65	37.45
575.82	77.24
575.98	81.92
576.14	131.07
576.30	152.13
576.46	30.43
576.62	72.56
576.79	140.43
576.95	18.72
577.11	0.00
577.27	21.06
577.43	44.47
577.59	9.36
577.75	56.17
577.92	63.19
578.08	2.34
578.24	32.77
578.40	60.85
578.56	81.92
578.72	88.94
578.88	72.56
579.04	60.85
579.21	51.49
579.37	0.00
579.53	56.17
579.69	23.41
579.85	25.75
580.01	37.45
580.17	84.26
580.33	14.04
580.49	49.15
580.65	37.45
580.82	63.19
580.98	63.19
581.14	51.49
581.30	28.09
581.46	124.05
581.62	110.01
581.78	60.85
581.94	77.24
582.10	91.28
582.26	84.26
582.42	51.49
582.58	67.88
582.74	30.43
582.90	74.90
583.06	39.79
583.22	65.54
583.38	16.38
583.54	79.58
583.70	147.45
583.86	112.35
584.02	84.26
584.18	121.71
584.34	147.45
584.50	470.45
584.66	3068.44
584.82	7370.35
584.98	10626.03
585.14	9179.58
585.30	5760.06
585.46	3581.02
585.62	2214.15
585.78	1128.14
585.94	360.44
586.10	222.35
586.26	177.88
586.42	133.41
586.58	140.43
586.74	42.13
586.90	177.88
587.06	156.82
587.22	42.13
587.38	58.51
587.54	205.97
587.70	461.09
587.86	748.97
588.02	793.44
588.18	524.28
588.34	461.09
588.49	229.37
588.65	182.56
588.81	154.48
588.97	81.92
589.13	46.81
589.29	39.79
589.45	67.88
589.61	56.17
589.77	95.96
589.93	18.72
590.08	79.58
590.24	39.79
590.40	14.04
590.56	72.56
590.72	72.56
590.88	63.19
591.04	44.47
591.20	63.19
591.35	7.02
591.51	30.43
591.67	112.35
591.83	42.13
591.99	95.96
592.15	7.02
592.31	65.54
592.46	9.36
592.62	112.35
592.78	37.45
592.94	86.60
593.10	72.56
593.26	30.43
593.41	14.04
593.57	0.00
593.73	51.49
593.89	414.27
594.05	915.15
594.20	1315.38
594.36	1273.25
594.52	873.02
594.68	564.07
594.84	334.70
594.99	184.90
595.15	177.88
595.31	49.15
595.47	42.13
595.62	0.00
595.78	74.90
595.94	30.43
596.10	0.00
596.25	84.26
596.41	81.92
596.57	70.22
596.73	81.92
596.88	30.43
597.04	243.42
597.20	318.31
597.36	353.42
597.51	245.76
597.67	196.60
597.83	67.88
597.99	53.83
598.14	67.88
598.30	56.17
598.46	84.26
598.61	21.06
598.77	51.49
598.93	60.85
599.09	32.77
599.24	23.41
599.40	28.09
599.56	0.00
599.71	0.00
599.87	7.02
600.03	30.43
600.18	35.11
600.34	46.81
600.50	60.85
600.65	58.51
600.81	49.15
600.97	35.11
601.12	93.62
601.28	11.70
601.44	98.30
601.59	44.47
601.75	0.00
601.91	0.00
602.06	23.41
602.22	105.32
602.37	124.05
602.53	255.12
602.69	390.87
602.84	325.33
603.00	322.99
603.16	266.82
603.31	142.77
603.47	142.77
603.62	42.13
603.78	91.28
603.94	21.06
604.09	7.02
604.25	0.00
604.40	49.15
604.56	79.58
604.71	39.79
604.87	67.88
605.03	44.47
605.18	86.60
605.34	0.00
605.49	49.15
605.65	21.06
605.80	21.06
605.96	56.17
606.12	23.41
606.27	35.11
606.43	14.04
606.58	51.49
606.74	135.75
606.89	503.22
607.05	821.53
607.20	1170.27
607.36	971.32
607.51	699.82
607.67	386.19
607.82	306.61
607.98	161.50
608.13	100.64
608.29	65.54
608.44	119.37
608.60	53.83
608.75	91.28
608.91	170.86
609.06	713.86
609.22	1542.41
609.37	2031.58
609.53	1825.62
609.68	1282.61
609.84	753.65
609.99	594.50
610.15	290.23
610.30	91.28
610.46	114.69
610.61	25.75
610.76	35.11
610.92	107.66
611.07	72.56
611.23	21.06
611.38	72.56
611.54	81.92
611.69	112.35
611.84	25.75
612.00	74.90
612.15	30.43
612.31	18.72
612.46	110.01
612.62	98.30
612.77	79.58
612.92	51.49
613.08	95.96
613.23	60.85
613.39	88.94
613.54	142.77
613.69	664.71
613.85	1916.90
614.00	2925.67
614.15	3068.44
614.31	2125.21
614.46	1486.24
614.62	1008.77
614.77	603.86
614.92	393.21
615.08	177.88
615.23	93.62
615.38	72.56
615.54	77.24
615.69	142.77
615.84	461.09
616.00	660.03
616.15	814.51
616.30	674.07
616.46	514.92
616.61	308.95
616.76	163.84
616.92	182.56
617.07	63.19
617.22	98.30
617.37	117.03
617.53	131.07
617.68	93.62
617.83	98.30
617.99	23.41
618.14	37.45
618.29	72.56
618.45	56.17
618.60	23.41
618.75	91.28
618.90	51.49
619.06	32.77
619.21	37.45
619.36	42.13
619.51	32.77
619.67	0.00
619.82	2.34
619.97	21.06
620.12	53.83
620.28	28.09
620.43	32.77
620.58	51.49
620.73	46.81
620.89	79.58
621.04	88.94
621.19	205.97
621.34	430.66
621.49	505.56
621.65	479.81
621.80	308.95
621.95	201.29
622.10	203.63
622.25	74.90
622.41	72.56
622.56	25.75
622.71	16.38
622.86	88.94
623.01	39.79
623.16	49.15
623.32	102.98
623.47	0.00
623.62	49.15
623.77	67.88
623.92	44.47
624.07	0.00
624.23	110.01
624.38	32.77
624.53	98.30
624.68	72.56
624.83	81.92
624.98	35.11
625.13	0.00
625.29	16.38
625.44	63.19
625.59	0.00
625.74	32.77
625.89	74.90
626.04	297.25
626.19	987.71
626.34	1479.22
626.49	1593.90
626.65	1188.99
626.80	802.80
626.95	505.56
627.10	346.40
627.25	259.80
627.40	81.92
627.55	72.56
627.70	23.41
627.85	35.11
628.00	79.58
628.15	93.62
628.30	11.70
628.45	32.77
628.60	121.71
628.76	14.04
628.91	70.22
629.06	28.09
629.21	51.49
629.36	44.47
629.51	44.47
629.66	25.75
629.81	14.04
629.96	133.41
630.11	386.19
630.26	353.42
630.41	334.70
630.56	212.99
630.71	163.84
630.86	105.32
631.01	72.56
631.16	84.26
631.31	84.26
631.46	44.47
631.61	98.30
631.76	0.00
631.91	0.00
632.06	42.13
632.21	51.49
632.36	14.04
632.51	49.15
632.66	0.00
632.81	156.82
632.96	538.32
633.10	903.45
633.25	1186.65
633.40	959.62
633.55	671.73
633.70	461.09
633.85	241.08
634.00	117.03
634.15	117.03
634.30	51.49
634.45	14.04
634.60	21.06
634.75	16.38
634.90	77.24
635.05	63.19
635.19	63.19
635.34	65.54
635.49	86.60
635.64	42.13
635.79	0.00
635.94	81.92
636.09	0.00
636.24	14.04
636.39	56.17
636.53	58.51
636.68	28.09
636.83	65.54
636.98	51.49
637.13	35.11
637.28	53.83
637.43	46.81
637.57	100.64
637.72	510.24
637.87	1196.01
638.02	1949.67
638.17	1942.64
638.32	1540.07
638.46	1036.86
638.61	730.25
638.76	475.13
638.91	266.82
639.06	138.09
639.20	46.81
639.35	53.83
639.50	135.75
639.65	592.16
639.80	1870.09
639.94	3000.57
640.09	3243.98
640.24	2356.92
640.39	1678.16
640.54	1179.63
640.68	737.27
640.83	337.04
640.98	166.18
641.13	72.56
641.27	117.03
641.42	102.98
641.57	110.01
641.72	44.47
641.86	30.43
642.01	0.00
642.16	30.43
642.31	9.36
642.45	58.51
642.60	44.47
642.75	28.09
642.90	121.71
643.04	67.88
643.19	14.04
643.34	32.77
643.48	91.28
643.63	0.00
643.78	63.19
643.93	67.88
644.07	67.88
644.22	0.00
644.37	79.58
644.51	63.19
644.66	0.00
644.81	105.32
644.95	56.17
645.10	0.00
645.25	37.45
645.39	37.45
645.54	37.45
645.69	95.96
645.83	0.00
645.98	30.43
646.13	65.54
646.27	77.24
646.42	0.00
646.57	0.00
646.71	49.15
646.86	58.51
647.00	39.79
647.15	37.45
647.30	72.56
647.44	53.83
647.59	72.56
647.74	11.70
647.88	91.28
648.03	44.47
648.17	0.00
648.32	14.04
648.47	37.45
648.61	0.00
648.76	74.90
648.90	18.72
649.05	11.70
649.20	67.88
649.34	28.09
649.49	95.96
649.63	53.83
649.78	110.01
649.92	58.51
650.07	280.86
650.21	800.46
650.36	1348.15
650.51	1694.55
650.65	1378.58
650.80	1032.18
650.94	674.07
651.09	411.93
651.23	187.24
651.38	95.96
651.52	126.39
651.67	49.15
651.81	0.00
651.96	51.49
652.10	98.30
652.25	81.92
652.39	25.75
652.54	9.36
652.68	84.26
652.83	304.27
652.97	461.09
653.12	662.37
653.26	601.52
653.41	372.15
653.55	322.99
653.70	166.18
653.84	126.39
653.99	121.71
654.13	149.79
654.27	53.83
654.42	46.81
654.56	117.03
654.71	25.75
654.85	42.13
655.00	98.30
655.14	4.68
655.29	46.81
655.43	23.41
655.57	0.00
655.72	51.49
655.86	32.77
656.01	60.85
656.15	0.00
656.30	23.41
656.44	0.00
656.58	0.00
656.73	9.36
656.87	0.00
657.01	70.22
657.16	114.69
657.30	7.02
657.45	39.79
657.59	88.94
657.73	0.00
657.88	0.00
658.02	70.22
658.16	0.00
658.31	0.00
658.45	16.38
658.60	44.47
658.74	0.00
658.88	2.34
659.03	0.00
659.17	0.00
659.31	170.86
659.46	322.99
659.60	622.58
659.74	777.06
659.89	727.91
660.03	484.49
660.17	351.08
660.32	276.18
660.46	166.18
660.60	88.94
660.74	60.85
660.89	70.22
661.03	53.83
661.17	46.81
661.32	16.38
661.46	44.47
661.60	0.00
661.74	114.69
661.89	63.19
662.03	42.13
662.17	86.60
662.31	37.45
662.46	32.77
662.60	0.00
662.74	0.00
662.88	0.00
663.03	14.04
663.17	37.45
663.31	77.24
663.45	86.60
663.60	9.36
663.74	58.51
663.88	37.45
664.02	86.60
664.17	63.19
664.31	25.75
664.45	9.36
664.59	2.34
664.73	18.72
664.88	81.92
665.02	14.04
665.16	39.79
665.30	0.00
665.44	0.00
665.59	79.58
665.73	35.11
665.87	42.13
666.01	11.70
666.15	0.00
666.29	114.69
666.44	0.00
666.58	0.00
666.72	72.56
666.86	21.06
667.00	49.15
667.14	51.49
667.28	255.12
667.43	645.99
667.57	1132.82
667.71	1465.18
667.85	1322.40
667.99	889.40
668.13	667.05
668.27	365.12
668.41	163.84
668.56	161.50
668.70	77.24
668.84	23.41
668.98	91.28
669.12	119.37
669.26	70.22
669.40	110.01
669.54	65.54
669.68	28.09
669.82	65.54
669.96	51.49
670.10	95.96
670.25	72.56
670.39	107.66
670.53	2.34
670.67	81.92
670.81	56.17
670.95	95.96
671.09	81.92
671.23	187.24
671.37	533.64
671.51	807.48
671.65	961.96
671.79	643.65
671.93	468.11
672.07	304.27
672.21	198.95
672.35	156.82
672.49	119.37
672.63	110.01
672.77	88.94
672.91	88.94
673.05	9.36
673.19	114.69
673.33	72.56
673.47	53.83
673.61	42.13
673.75	67.88
673.89	30.43
674.03	0.00
674.17	0.00
674.31	86.60
674.45	0.00
674.59	28.09
674.73	16.38
674.87	51.49
675.01	35.11
675.15	58.51
675.29	93.62
675.43	67.88
675.56	81.92
675.70	28.09
675.84	0.00
675.98	51.49
676.12	56.17
676.26	21.06
676.40	42.13
676.54	121.71
676.68	2.34
676.82	9.36
676.96	30.43
677.10	51.49
677.23	51.49
677.37	70.22
677.51	35.11
677.65	25.75
677.79	4.68
677.93	46.81
678.07	14.04
678.21	2.34
678.34	0.00
678.48	14.04
678.62	4.68
678.76	21.06
678.90	25.75
679.04	30.43
679.18	0.00
679.31	70.22
679.45	60.85
679.59	67.88
679.73	7.02
679.87	39.79
680.00	42.13
680.14	51.49
680.28	44.47
680.42	14.04
680.56	9.36
680.70	23.41
680.83	32.77
680.97	2.34
681.11	16.38
681.25	42.13
681.39	0.00
681.52	18.72
681.66	4.68
681.80	30.43
681.94	72.56
682.07	0.00
682.21	0.00
682.35	0.00
682.49	0.00
682.62	51.49
682.76	35.11
682.90	2.34
683.04	37.45
683.17	18.72
683.31	42.13
683.45	46.81
683.59	58.51
683.72	58.51
683.86	0.00
684.00	25.75
684.13	0.00
684.27	28.09
684.41	9.36
684.55	42.13
684.68	53.83
684.82	14.04
684.96	16.38
685.09	53.83
685.23	16.38
685.37	53.83
685.50	79.58
685.64	67.88
685.78	51.49
685.91	14.04
686.05	107.66
686.19	37.45
686.32	4.68
686.46	2.34
686.60	32.77
686.73	140.43
686.87	56.17
687.01	7.02
687.14	23.41
687.28	49.15
687.42	16.38
687.55	77.24
687.69	77.24
687.82	16.38
687.96	53.83
688.10	42.13
688.23	32.77
688.37	0.00
688.50	49.15
688.64	42.13
688.78	14.04
688.91	67.88
689.05	56.17
689.18	0.00
689.32	32.77
689.46	25.75
689.59	0.00
689.73	44.47
689.86	0.00
690.00	0.00
690.13	79.58
690.27	9.36
690.41	23.41
690.54	0.00
690.68	28.09
690.81	77.24
690.95	4.68
691.08	88.94
691.22	56.17
691.35	0.00
691.49	70.22
691.62	4.68
691.76	0.00
691.89	77.24
692.03	0.00
692.16	51.49
692.30	58.51
692.43	117.03
692.57	299.59
692.70	484.49
692.84	751.31
692.97	603.86
693.11	440.02
693.24	301.93
693.38	205.97
693.51	208.31
693.65	117.03
693.78	84.26
693.92	37.45
694.05	63.19
694.19	9.36
694.32	39.79
694.45	28.09
694.59	0.00
694.72	32.77
694.86	32.77
694.99	0.00
695.13	35.11
695.26	0.00
695.39	0.00
695.53	11.70
695.66	117.03
695.80	21.06
695.93	100.64
696.07	28.09
696.20	63.19
696.33	110.01
696.47	70.22
696.60	60.85
696.73	51.49
696.87	63.19
697.00	102.98
697.14	74.90
697.27	4.68
697.40	63.19
697.54	14.04
697.67	53.83
697.80	60.85
697.94	16.38
698.07	28.09
698.21	32.77
698.34	16.38
698.47	53.83
698.61	44.47
698.74	91.28
698.87	18.72
699.01	100.64
699.14	74.90
699.27	42.13
699.40	79.58
699.54	0.00
699.67	0.00
699.80	65.54
699.94	32.77
700.07	39.79
700.20	74.90
700.34	7.02
700.47	30.43
700.60	56.17
700.73	18.72
700.87	65.54
701.00	70.22
701.13	77.24
701.26	0.00
701.40	51.49
701.53	51.49
701.66	58.51
701.79	177.88
701.93	65.54
702.06	70.22
702.19	49.15
702.32	58.51
702.46	70.22
702.59	42.13
702.72	117.03
702.85	428.32
702.99	917.49
703.12	1172.61
703.25	1203.04
703.38	1123.46
703.51	887.06
703.65	711.52
703.78	486.83
703.91	346.40
704.04	170.86
704.17	128.73
704.31	51.49
704.44	84.26
704.57	18.72
704.70	60.85
704.83	0.00
704.96	32.77
705.10	77.24
705.23	11.70
>>>>>End Processed Spectral Data<<<<<
