SpectraSuite Data File
++++++++++++++++++++++++++++++++++++
Date: Fri Oct 04 12:13:26 GMT-05:00 2013
User: price-jones
Dark Spectrum Present: No
Reference Spectrum Present: No
Number of Sampled Component Spectra: 1
Spectrometers: USB2+H05261
Integration Time (usec): 10000 (USB2+H05261)
Spectra Averaged: 1 (USB2+H05261)
Boxcar Smoothing: 0 (USB2+H05261)
Correct for Electrical Dark: No (USB2+H05261)
Strobe/Lamp Enabled: No (USB2+H05261)
Correct for Detector Non-linearity: No (USB2+H05261)
Correct for Stray Light: No (USB2+H05261)
Number of Pixels in Processed Spectrum: 2048
>>>>>Begin Processed Spectral Data<<<<<
365.73	0.00
365.92	0.00
366.12	0.00
366.32	0.00
366.52	0.00
366.72	0.00
366.91	0.00
367.11	0.00
367.31	0.00
367.51	0.00
367.70	0.00
367.90	0.00
368.10	0.00
368.30	0.00
368.49	0.00
368.69	0.00
368.89	0.00
369.09	0.00
369.28	0.00
369.48	0.00
369.68	0.00
369.87	0.00
370.07	0.00
370.27	0.00
370.47	0.00
370.66	0.00
370.86	0.00
371.06	0.00
371.25	0.00
371.45	0.00
371.65	0.00
371.84	0.00
372.04	14.04
372.24	0.00
372.44	28.09
372.63	0.00
372.83	25.75
373.03	0.00
373.22	70.22
373.42	0.00
373.62	53.83
373.81	0.00
374.01	0.00
374.21	0.00
374.40	9.36
374.60	0.00
374.79	30.43
374.99	77.24
375.19	84.26
375.38	46.81
375.58	56.17
375.78	119.37
375.97	74.90
376.17	58.51
376.37	4.68
376.56	46.81
376.76	105.32
376.95	42.13
377.15	37.45
377.35	2.34
377.54	0.00
377.74	0.00
377.93	49.15
378.13	28.09
378.33	23.41
378.52	51.49
378.72	58.51
378.91	0.00
379.11	35.11
379.31	44.47
379.50	44.47
379.70	2.34
379.89	0.00
380.09	11.70
380.28	16.38
380.48	0.00
380.68	11.70
380.87	51.49
381.07	0.00
381.26	0.00
381.46	0.00
381.65	7.02
381.85	53.83
382.04	0.00
382.24	21.06
382.43	0.00
382.63	30.43
382.83	30.43
383.02	60.85
383.22	25.75
383.41	0.00
383.61	46.81
383.80	0.00
384.00	70.22
384.19	14.04
384.39	32.77
384.58	30.43
384.78	0.00
384.97	9.36
385.17	30.43
385.36	63.19
385.56	32.77
385.75	0.00
385.95	0.00
386.14	9.36
386.34	0.00
386.53	0.00
386.72	39.79
386.92	35.11
387.11	39.79
387.31	53.83
387.50	16.38
387.70	11.70
387.89	21.06
388.09	81.92
388.28	14.04
388.48	21.06
388.67	0.00
388.86	0.00
389.06	0.00
389.25	4.68
389.45	0.00
389.64	46.81
389.84	0.00
390.03	84.26
390.22	11.70
390.42	74.90
390.61	0.00
390.81	0.00
391.00	56.17
391.19	0.00
391.39	53.83
391.58	39.79
391.78	56.17
391.97	81.92
392.16	0.00
392.36	51.49
392.55	98.30
392.75	4.68
392.94	23.41
393.13	0.00
393.33	16.38
393.52	2.34
393.71	7.02
393.91	11.70
394.10	0.00
394.29	77.24
394.49	14.04
394.68	9.36
394.88	23.41
395.07	11.70
395.26	0.00
395.46	51.49
395.65	49.15
395.84	51.49
396.04	0.00
396.23	0.00
396.42	25.75
396.62	16.38
396.81	32.77
397.00	46.81
397.19	42.13
397.39	95.96
397.58	14.04
397.77	18.72
397.97	4.68
398.16	11.70
398.35	0.00
398.55	77.24
398.74	63.19
398.93	35.11
399.12	21.06
399.32	74.90
399.51	11.70
399.70	4.68
399.90	49.15
400.09	35.11
400.28	56.17
400.47	0.00
400.67	23.41
400.86	28.09
401.05	0.00
401.24	25.75
401.44	74.90
401.63	30.43
401.82	39.79
402.01	0.00
402.21	0.00
402.40	23.41
402.59	53.83
402.78	58.51
402.97	25.75
403.17	79.58
403.36	72.56
403.55	18.72
403.74	0.00
403.93	0.00
404.13	53.83
404.32	0.00
404.51	39.79
404.70	0.00
404.89	0.00
405.09	11.70
405.28	32.77
405.47	21.06
405.66	0.00
405.85	95.96
406.05	0.00
406.24	0.00
406.43	28.09
406.62	53.83
406.81	25.75
407.00	37.45
407.20	0.00
407.39	2.34
407.58	0.00
407.77	0.00
407.96	0.00
408.15	49.15
408.34	2.34
408.54	18.72
408.73	4.68
408.92	46.81
409.11	0.00
409.30	0.00
409.49	32.77
409.68	0.00
409.87	119.37
410.07	100.64
410.26	25.75
410.45	32.77
410.64	0.00
410.83	0.00
411.02	11.70
411.21	0.00
411.40	21.06
411.59	42.13
411.78	51.49
411.98	56.17
412.17	35.11
412.36	121.71
412.55	0.00
412.74	53.83
412.93	46.81
413.12	7.02
413.31	37.45
413.50	42.13
413.69	30.43
413.88	53.83
414.07	58.51
414.26	95.96
414.45	18.72
414.64	49.15
414.83	18.72
415.02	39.79
415.22	23.41
415.41	46.81
415.60	23.41
415.79	18.72
415.98	28.09
416.17	25.75
416.36	37.45
416.55	51.49
416.74	32.77
416.93	79.58
417.12	28.09
417.31	0.00
417.50	49.15
417.69	58.51
417.88	51.49
418.07	39.79
418.26	16.38
418.45	35.11
418.64	72.56
418.83	44.47
419.02	0.00
419.21	39.79
419.39	18.72
419.58	56.17
419.77	14.04
419.96	60.85
420.15	28.09
420.34	30.43
420.53	51.49
420.72	28.09
420.91	70.22
421.10	14.04
421.29	56.17
421.48	32.77
421.67	7.02
421.86	0.00
422.05	25.75
422.24	49.15
422.43	37.45
422.61	60.85
422.80	0.00
422.99	2.34
423.18	9.36
423.37	0.00
423.56	23.41
423.75	0.00
423.94	16.38
424.13	0.00
424.32	16.38
424.50	65.54
424.69	18.72
424.88	49.15
425.07	11.70
425.26	46.81
425.45	0.00
425.64	77.24
425.83	2.34
426.01	0.00
426.20	93.62
426.39	37.45
426.58	25.75
426.77	49.15
426.96	72.56
427.15	0.00
427.33	0.00
427.52	0.00
427.71	14.04
427.90	0.00
428.09	32.77
428.28	11.70
428.46	35.11
428.65	16.38
428.84	51.49
429.03	65.54
429.22	100.64
429.40	28.09
429.59	11.70
429.78	37.45
429.97	0.00
430.16	58.51
430.34	21.06
430.53	46.81
430.72	0.00
430.91	37.45
431.10	0.00
431.28	0.00
431.47	0.00
431.66	133.41
431.85	11.70
432.03	28.09
432.22	0.00
432.41	18.72
432.60	70.22
432.79	35.11
432.97	30.43
433.16	7.02
433.35	4.68
433.54	46.81
433.72	2.34
433.91	21.06
434.10	11.70
434.28	0.00
434.47	25.75
434.66	0.00
434.85	86.60
435.03	0.00
435.22	42.13
435.41	0.00
435.59	0.00
435.78	107.66
435.97	65.54
436.16	30.43
436.34	46.81
436.53	95.96
436.72	51.49
436.90	28.09
437.09	74.90
437.28	46.81
437.46	88.94
437.65	21.06
437.84	32.77
438.02	28.09
438.21	30.43
438.40	0.00
438.58	9.36
438.77	58.51
438.96	35.11
439.14	0.00
439.33	42.13
439.52	0.00
439.70	18.72
439.89	21.06
440.08	9.36
440.26	72.56
440.45	102.98
440.63	30.43
440.82	7.02
441.01	42.13
441.19	35.11
441.38	0.00
441.57	2.34
441.75	56.17
441.94	0.00
442.12	0.00
442.31	56.17
442.50	44.47
442.68	2.34
442.87	11.70
443.05	32.77
443.24	16.38
443.43	21.06
443.61	14.04
443.80	11.70
443.98	0.00
444.17	14.04
444.35	32.77
444.54	18.72
444.73	70.22
444.91	0.00
445.10	72.56
445.28	7.02
445.47	11.70
445.65	53.83
445.84	72.56
446.02	28.09
446.21	28.09
446.39	0.00
446.58	95.96
446.77	44.47
446.95	72.56
447.14	81.92
447.32	37.45
447.51	0.00
447.69	74.90
447.88	53.83
448.06	21.06
448.25	0.00
448.43	0.00
448.62	39.79
448.80	39.79
448.99	46.81
449.17	7.02
449.36	0.00
449.54	21.06
449.73	0.00
449.91	102.98
450.10	39.79
450.28	21.06
450.46	0.00
450.65	4.68
450.83	102.98
451.02	25.75
451.20	0.00
451.39	51.49
451.57	39.79
451.76	128.73
451.94	0.00
452.13	74.90
452.31	21.06
452.49	0.00
452.68	84.26
452.86	25.75
453.05	2.34
453.23	35.11
453.42	21.06
453.60	42.13
453.78	46.81
453.97	70.22
454.15	2.34
454.34	81.92
454.52	0.00
454.70	32.77
454.89	16.38
455.07	25.75
455.26	0.00
455.44	0.00
455.62	0.00
455.81	0.00
455.99	2.34
456.17	4.68
456.36	0.00
456.54	23.41
456.73	16.38
456.91	53.83
457.09	30.43
457.28	30.43
457.46	0.00
457.64	0.00
457.83	0.00
458.01	0.00
458.19	0.00
458.38	32.77
458.56	25.75
458.74	30.43
458.93	4.68
459.11	39.79
459.29	37.45
459.48	58.51
459.66	37.45
459.84	0.00
460.03	56.17
460.21	42.13
460.39	32.77
460.57	46.81
460.76	23.41
460.94	23.41
461.12	0.00
461.31	51.49
461.49	0.00
461.67	58.51
461.85	35.11
462.04	53.83
462.22	77.24
462.40	0.00
462.59	0.00
462.77	18.72
462.95	4.68
463.13	21.06
463.32	53.83
463.50	49.15
463.68	25.75
463.86	30.43
464.05	30.43
464.23	32.77
464.41	44.47
464.59	23.41
464.78	32.77
464.96	0.00
465.14	44.47
465.32	0.00
465.50	39.79
465.69	42.13
465.87	9.36
466.05	84.26
466.23	35.11
466.41	0.00
466.60	25.75
466.78	0.00
466.96	16.38
467.14	7.02
467.32	84.26
467.51	63.19
467.69	11.70
467.87	0.00
468.05	0.00
468.23	42.13
468.41	4.68
468.60	37.45
468.78	63.19
468.96	119.37
469.14	28.09
469.32	18.72
469.50	11.70
469.69	11.70
469.87	91.28
470.05	86.60
470.23	21.06
470.41	0.00
470.59	0.00
470.77	0.00
470.95	56.17
471.14	39.79
471.32	25.75
471.50	81.92
471.68	65.54
471.86	32.77
472.04	0.00
472.22	63.19
472.40	77.24
472.58	49.15
472.77	79.58
472.95	58.51
473.13	7.02
473.31	44.47
473.49	0.00
473.67	46.81
473.85	46.81
474.03	51.49
474.21	46.81
474.39	42.13
474.57	63.19
474.75	23.41
474.93	65.54
475.12	105.32
475.30	0.00
475.48	70.22
475.66	46.81
475.84	98.30
476.02	98.30
476.20	25.75
476.38	63.19
476.56	16.38
476.74	14.04
476.92	65.54
477.10	98.30
477.28	0.00
477.46	44.47
477.64	53.83
477.82	16.38
478.00	0.00
478.18	77.24
478.36	14.04
478.54	58.51
478.72	49.15
478.90	0.00
479.08	28.09
479.26	53.83
479.44	46.81
479.62	32.77
479.80	0.00
479.98	42.13
480.16	46.81
480.34	37.45
480.52	39.79
480.70	81.92
480.88	60.85
481.06	77.24
481.24	53.83
481.41	0.00
481.59	72.56
481.77	67.88
481.95	14.04
482.13	37.45
482.31	32.77
482.49	0.00
482.67	53.83
482.85	79.58
483.03	56.17
483.21	56.17
483.39	58.51
483.57	35.11
483.74	93.62
483.92	37.45
484.10	100.64
484.28	39.79
484.46	72.56
484.64	51.49
484.82	46.81
485.00	42.13
485.18	56.17
485.35	37.45
485.53	72.56
485.71	100.64
485.89	81.92
486.07	25.75
486.25	46.81
486.43	30.43
486.61	21.06
486.78	70.22
486.96	39.79
487.14	46.81
487.32	21.06
487.50	107.66
487.68	16.38
487.85	42.13
488.03	14.04
488.21	9.36
488.39	51.49
488.57	95.96
488.75	18.72
488.92	77.24
489.10	0.00
489.28	30.43
489.46	46.81
489.64	77.24
489.81	30.43
489.99	49.15
490.17	74.90
490.35	53.83
490.53	21.06
490.70	0.00
490.88	60.85
491.06	0.00
491.24	0.00
491.41	37.45
491.59	35.11
491.77	21.06
491.95	72.56
492.13	21.06
492.30	0.00
492.48	60.85
492.66	4.68
492.84	170.86
493.01	0.00
493.19	46.81
493.37	28.09
493.54	79.58
493.72	7.02
493.90	91.28
494.08	35.11
494.25	67.88
494.43	30.43
494.61	0.00
494.79	0.00
494.96	28.09
495.14	46.81
495.32	25.75
495.49	0.00
495.67	14.04
495.85	30.43
496.02	51.49
496.20	51.49
496.38	9.36
496.55	25.75
496.73	84.26
496.91	46.81
497.09	133.41
497.26	28.09
497.44	0.00
497.62	0.00
497.79	98.30
497.97	0.00
498.14	25.75
498.32	51.49
498.50	25.75
498.67	42.13
498.85	9.36
499.03	16.38
499.20	49.15
499.38	42.13
499.56	16.38
499.73	53.83
499.91	28.09
500.08	0.00
500.26	0.00
500.44	56.17
500.61	18.72
500.79	23.41
500.97	49.15
501.14	86.60
501.32	49.15
501.49	0.00
501.67	117.03
501.84	67.88
502.02	39.79
502.20	72.56
502.37	81.92
502.55	70.22
502.72	0.00
502.90	21.06
503.07	70.22
503.25	70.22
503.43	56.17
503.60	42.13
503.78	42.13
503.95	21.06
504.13	0.00
504.30	72.56
504.48	60.85
504.65	25.75
504.83	7.02
505.01	37.45
505.18	21.06
505.36	0.00
505.53	14.04
505.71	84.26
505.88	35.11
506.06	37.45
506.23	32.77
506.41	53.83
506.58	58.51
506.76	21.06
506.93	0.00
507.11	81.92
507.28	0.00
507.46	0.00
507.63	18.72
507.81	74.90
507.98	28.09
508.16	56.17
508.33	42.13
508.50	35.11
508.68	0.00
508.85	42.13
509.03	93.62
509.20	0.00
509.38	4.68
509.55	9.36
509.73	0.00
509.90	67.88
510.08	23.41
510.25	60.85
510.42	39.79
510.60	30.43
510.77	117.03
510.95	67.88
511.12	42.13
511.30	51.49
511.47	35.11
511.64	25.75
511.82	44.47
511.99	9.36
512.17	25.75
512.34	2.34
512.51	0.00
512.69	2.34
512.86	42.13
513.04	51.49
513.21	56.17
513.38	56.17
513.56	30.43
513.73	16.38
513.90	11.70
514.08	32.77
514.25	49.15
514.43	0.00
514.60	81.92
514.77	74.90
514.95	65.54
515.12	14.04
515.29	0.00
515.47	70.22
515.64	51.49
515.81	86.60
515.99	77.24
516.16	25.75
516.33	110.01
516.51	25.75
516.68	28.09
516.85	16.38
517.03	67.88
517.20	21.06
517.37	7.02
517.54	9.36
517.72	65.54
517.89	35.11
518.06	56.17
518.24	70.22
518.41	39.79
518.58	18.72
518.75	0.00
518.93	39.79
519.10	70.22
519.27	114.69
519.45	39.79
519.62	0.00
519.79	81.92
519.96	46.81
520.14	58.51
520.31	84.26
520.48	32.77
520.65	63.19
520.83	100.64
521.00	16.38
521.17	44.47
521.34	46.81
521.52	37.45
521.69	37.45
521.86	16.38
522.03	100.64
522.20	42.13
522.38	0.00
522.55	49.15
522.72	0.00
522.89	72.56
523.07	44.47
523.24	37.45
523.41	60.85
523.58	49.15
523.75	49.15
523.92	39.79
524.10	44.47
524.27	67.88
524.44	74.90
524.61	86.60
524.78	37.45
524.96	67.88
525.13	30.43
525.30	0.00
525.47	0.00
525.64	14.04
525.81	0.00
525.98	4.68
526.16	7.02
526.33	84.26
526.50	65.54
526.67	100.64
526.84	32.77
527.01	23.41
527.18	18.72
527.36	16.38
527.53	0.00
527.70	72.56
527.87	39.79
528.04	42.13
528.21	44.47
528.38	0.00
528.55	37.45
528.72	60.85
528.89	42.13
529.07	147.45
529.24	60.85
529.41	65.54
529.58	163.84
529.75	39.79
529.92	88.94
530.09	70.22
530.26	7.02
530.43	21.06
530.60	0.00
530.77	0.00
530.94	0.00
531.11	25.75
531.28	58.51
531.46	0.00
531.63	32.77
531.80	63.19
531.97	0.00
532.14	53.83
532.31	79.58
532.48	56.17
532.65	77.24
532.82	39.79
532.99	63.19
533.16	102.98
533.33	9.36
533.50	0.00
533.67	0.00
533.84	9.36
534.01	35.11
534.18	21.06
534.35	11.70
534.52	72.56
534.69	58.51
534.86	77.24
535.03	11.70
535.20	112.35
535.37	7.02
535.54	74.90
535.71	11.70
535.88	25.75
536.05	0.00
536.22	2.34
536.38	53.83
536.55	63.19
536.72	0.00
536.89	4.68
537.06	0.00
537.23	70.22
537.40	23.41
537.57	88.94
537.74	46.81
537.91	42.13
538.08	0.00
538.25	9.36
538.42	0.00
538.59	0.00
538.75	56.17
538.92	0.00
539.09	0.00
539.26	67.88
539.43	53.83
539.60	0.00
539.77	7.02
539.94	67.88
540.11	32.77
540.28	25.75
540.44	35.11
540.61	14.04
540.78	0.00
540.95	16.38
541.12	51.49
541.29	131.07
541.46	4.68
541.62	25.75
541.79	53.83
541.96	67.88
542.13	117.03
542.30	30.43
542.47	138.09
542.63	63.19
542.80	53.83
542.97	39.79
543.14	98.30
543.31	72.56
543.48	16.38
543.64	67.88
543.81	0.00
543.98	79.58
544.15	7.02
544.32	86.60
544.48	35.11
544.65	11.70
544.82	4.68
544.99	51.49
545.16	18.72
545.32	0.00
545.49	56.17
545.66	0.00
545.83	51.49
546.00	102.98
546.16	16.38
546.33	91.28
546.50	9.36
546.67	0.00
546.83	63.19
547.00	79.58
547.17	2.34
547.34	0.00
547.50	14.04
547.67	4.68
547.84	65.54
548.00	32.77
548.17	72.56
548.34	0.00
548.51	35.11
548.67	14.04
548.84	60.85
549.01	2.34
549.18	35.11
549.34	0.00
549.51	46.81
549.68	67.88
549.84	74.90
550.01	56.17
550.18	81.92
550.34	70.22
550.51	0.00
550.68	49.15
550.84	0.00
551.01	30.43
551.18	77.24
551.34	46.81
551.51	25.75
551.68	42.13
551.84	44.47
552.01	81.92
552.18	93.62
552.34	46.81
552.51	4.68
552.68	84.26
552.84	86.60
553.01	0.00
553.18	4.68
553.34	25.75
553.51	4.68
553.67	56.17
553.84	37.45
554.01	21.06
554.17	67.88
554.34	0.00
554.51	37.45
554.67	7.02
554.84	53.83
555.00	30.43
555.17	0.00
555.33	79.58
555.50	14.04
555.67	49.15
555.83	39.79
556.00	46.81
556.16	58.51
556.33	2.34
556.50	28.09
556.66	35.11
556.83	35.11
556.99	9.36
557.16	4.68
557.32	65.54
557.49	58.51
557.65	28.09
557.82	30.43
557.98	88.94
558.15	72.56
558.32	4.68
558.48	0.00
558.65	0.00
558.81	88.94
558.98	44.47
559.14	0.00
559.31	21.06
559.47	53.83
559.64	37.45
559.80	25.75
559.97	23.41
560.13	23.41
560.30	63.19
560.46	0.00
560.63	21.06
560.79	86.60
560.96	65.54
561.12	65.54
561.29	18.72
561.45	14.04
561.61	32.77
561.78	46.81
561.94	81.92
562.11	42.13
562.27	28.09
562.44	42.13
562.60	58.51
562.77	67.88
562.93	11.70
563.10	0.00
563.26	51.49
563.42	25.75
563.59	65.54
563.75	53.83
563.92	79.58
564.08	28.09
564.24	25.75
564.41	72.56
564.57	0.00
564.74	65.54
564.90	37.45
565.07	51.49
565.23	0.00
565.39	53.83
565.56	21.06
565.72	18.72
565.88	84.26
566.05	77.24
566.21	42.13
566.38	56.17
566.54	42.13
566.70	21.06
566.87	37.45
567.03	51.49
567.19	21.06
567.36	42.13
567.52	0.00
567.68	0.00
567.85	35.11
568.01	14.04
568.17	46.81
568.34	84.26
568.50	32.77
568.66	56.17
568.83	84.26
568.99	77.24
569.15	161.50
569.32	30.43
569.48	35.11
569.64	88.94
569.81	30.43
569.97	9.36
570.13	51.49
570.30	14.04
570.46	44.47
570.62	30.43
570.78	42.13
570.95	56.17
571.11	51.49
571.27	70.22
571.43	39.79
571.60	53.83
571.76	21.06
571.92	0.00
572.09	37.45
572.25	4.68
572.41	11.70
572.57	0.00
572.74	39.79
572.90	14.04
573.06	53.83
573.22	32.77
573.38	46.81
573.55	35.11
573.71	21.06
573.87	42.13
574.03	7.02
574.20	44.47
574.36	70.22
574.52	0.00
574.68	79.58
574.84	16.38
575.01	51.49
575.17	77.24
575.33	60.85
575.49	49.15
575.65	35.11
575.82	0.00
575.98	46.81
576.14	46.81
576.30	121.71
576.46	21.06
576.62	46.81
576.79	7.02
576.95	16.38
577.11	46.81
577.27	0.00
577.43	79.58
577.59	67.88
577.75	42.13
577.92	39.79
578.08	65.54
578.24	51.49
578.40	0.00
578.56	0.00
578.72	0.00
578.88	56.17
579.04	93.62
579.21	16.38
579.37	39.79
579.53	60.85
579.69	0.00
579.85	0.00
580.01	0.00
580.17	0.00
580.33	65.54
580.49	0.00
580.65	56.17
580.82	0.00
580.98	95.96
581.14	18.72
581.30	14.04
581.46	51.49
581.62	72.56
581.78	44.47
581.94	60.85
582.10	42.13
582.26	28.09
582.42	56.17
582.58	72.56
582.74	95.96
582.90	16.38
583.06	39.79
583.22	21.06
583.38	42.13
583.54	0.00
583.70	28.09
583.86	42.13
584.02	37.45
584.18	4.68
584.34	0.00
584.50	0.00
584.66	72.56
584.82	156.82
584.98	100.64
585.14	110.01
585.30	175.54
585.46	189.58
585.62	63.19
585.78	0.00
585.94	7.02
586.10	58.51
586.26	9.36
586.42	58.51
586.58	79.58
586.74	14.04
586.90	16.38
587.06	23.41
587.22	0.00
587.38	23.41
587.54	23.41
587.70	126.39
587.86	51.49
588.02	56.17
588.18	14.04
588.34	39.79
588.49	51.49
588.65	0.00
588.81	0.00
588.97	21.06
589.13	135.75
589.29	2.34
589.45	23.41
589.61	58.51
589.77	4.68
589.93	25.75
590.08	0.00
590.24	7.02
590.40	91.28
590.56	42.13
590.72	84.26
590.88	32.77
591.04	65.54
591.20	0.00
591.35	91.28
591.51	0.00
591.67	7.02
591.83	81.92
591.99	39.79
592.15	4.68
592.31	39.79
592.46	56.17
592.62	0.00
592.78	28.09
592.94	42.13
593.10	0.00
593.26	56.17
593.41	53.83
593.57	46.81
593.73	0.00
593.89	44.47
594.05	11.70
594.20	102.98
594.36	58.51
594.52	58.51
594.68	79.58
594.84	0.00
594.99	67.88
595.15	0.00
595.31	11.70
595.47	7.02
595.62	86.60
595.78	0.00
595.94	0.00
596.10	4.68
596.25	56.17
596.41	25.75
596.57	51.49
596.73	56.17
596.88	49.15
597.04	93.62
597.20	86.60
597.36	53.83
597.51	51.49
597.67	95.96
597.83	28.09
597.99	63.19
598.14	16.38
598.30	46.81
598.46	21.06
598.61	0.00
598.77	46.81
598.93	65.54
599.09	65.54
599.24	72.56
599.40	81.92
599.56	72.56
599.71	14.04
599.87	35.11
600.03	21.06
600.18	117.03
600.34	110.01
600.50	63.19
600.65	4.68
600.81	53.83
600.97	14.04
601.12	88.94
601.28	0.00
601.44	44.47
601.59	21.06
601.75	21.06
601.91	32.77
602.06	18.72
602.22	63.19
602.37	74.90
602.53	93.62
602.69	53.83
602.84	72.56
603.00	117.03
603.16	25.75
603.31	7.02
603.47	124.05
603.62	0.00
603.78	18.72
603.94	30.43
604.09	2.34
604.25	0.00
604.40	53.83
604.56	0.00
604.71	0.00
604.87	9.36
605.03	25.75
605.18	2.34
605.34	37.45
605.49	0.00
605.65	23.41
605.80	23.41
605.96	39.79
606.12	0.00
606.27	7.02
606.43	46.81
606.58	79.58
606.74	70.22
606.89	30.43
607.05	79.58
607.20	79.58
607.36	2.34
607.51	21.06
607.67	23.41
607.82	9.36
607.98	63.19
608.13	74.90
608.29	0.00
608.44	46.81
608.60	53.83
608.75	39.79
608.91	88.94
609.06	86.60
609.22	117.03
609.37	7.02
609.53	28.09
609.68	7.02
609.84	37.45
609.99	65.54
610.15	0.00
610.30	0.00
610.46	65.54
610.61	79.58
610.76	51.49
610.92	63.19
611.07	46.81
611.23	98.30
611.38	23.41
611.54	30.43
611.69	35.11
611.84	35.11
612.00	32.77
612.15	58.51
612.31	60.85
612.46	0.00
612.62	9.36
612.77	42.13
612.92	2.34
613.08	18.72
613.23	58.51
613.39	35.11
613.54	4.68
613.69	25.75
613.85	98.30
614.00	95.96
614.15	110.01
614.31	65.54
614.46	0.00
614.62	72.56
614.77	95.96
614.92	60.85
615.08	56.17
615.23	121.71
615.38	4.68
615.54	60.85
615.69	37.45
615.84	121.71
616.00	32.77
616.15	39.79
616.30	86.60
616.46	21.06
616.61	25.75
616.76	119.37
616.92	37.45
617.07	46.81
617.22	44.47
617.37	28.09
617.53	25.75
617.68	0.00
617.83	14.04
617.99	7.02
618.14	42.13
618.29	28.09
618.45	58.51
618.60	60.85
618.75	9.36
618.90	0.00
619.06	60.85
619.21	70.22
619.36	67.88
619.51	0.00
619.67	28.09
619.82	63.19
619.97	21.06
620.12	102.98
620.28	70.22
620.43	51.49
620.58	58.51
620.73	58.51
620.89	23.41
621.04	0.00
621.19	49.15
621.34	56.17
621.49	51.49
621.65	67.88
621.80	51.49
621.95	14.04
622.10	0.00
622.25	58.51
622.41	37.45
622.56	32.77
622.71	21.06
622.86	35.11
623.01	0.00
623.16	63.19
623.32	9.36
623.47	44.47
623.62	67.88
623.77	14.04
623.92	23.41
624.07	0.00
624.23	86.60
624.38	44.47
624.53	23.41
624.68	0.00
624.83	25.75
624.98	18.72
625.13	63.19
625.29	0.00
625.44	28.09
625.59	11.70
625.74	23.41
625.89	49.15
626.04	39.79
626.19	70.22
626.34	0.00
626.49	30.43
626.65	28.09
626.80	112.35
626.95	49.15
627.10	18.72
627.25	37.45
627.40	32.77
627.55	7.02
627.70	63.19
627.85	56.17
628.00	16.38
628.15	49.15
628.30	37.45
628.45	0.00
628.60	0.00
628.76	0.00
628.91	39.79
629.06	44.47
629.21	63.19
629.36	51.49
629.51	23.41
629.66	9.36
629.81	18.72
629.96	7.02
630.11	135.75
630.26	37.45
630.41	4.68
630.56	51.49
630.71	0.00
630.86	117.03
631.01	79.58
631.16	84.26
631.31	72.56
631.46	0.00
631.61	28.09
631.76	49.15
631.91	21.06
632.06	0.00
632.21	18.72
632.36	98.30
632.51	0.00
632.66	0.00
632.81	63.19
632.96	53.83
633.10	46.81
633.25	70.22
633.40	0.00
633.55	18.72
633.70	51.49
633.85	28.09
634.00	0.00
634.15	7.02
634.30	49.15
634.45	28.09
634.60	14.04
634.75	0.00
634.90	65.54
635.05	0.00
635.19	0.00
635.34	9.36
635.49	16.38
635.64	49.15
635.79	21.06
635.94	72.56
636.09	58.51
636.24	0.00
636.39	0.00
636.53	81.92
636.68	56.17
636.83	30.43
636.98	49.15
637.13	84.26
637.28	21.06
637.43	46.81
637.57	16.38
637.72	81.92
637.87	44.47
638.02	133.41
638.17	100.64
638.32	84.26
638.46	119.37
638.61	70.22
638.76	32.77
638.91	44.47
639.06	67.88
639.20	21.06
639.35	18.72
639.50	28.09
639.65	63.19
639.80	56.17
639.94	46.81
640.09	147.45
640.24	84.26
640.39	74.90
640.54	21.06
640.68	74.90
640.83	117.03
640.98	51.49
641.13	74.90
641.27	42.13
641.42	0.00
641.57	23.41
641.72	18.72
641.86	60.85
642.01	9.36
642.16	63.19
642.31	49.15
642.45	7.02
642.60	81.92
642.75	79.58
642.90	93.62
643.04	0.00
643.19	37.45
643.34	16.38
643.48	53.83
643.63	42.13
643.78	46.81
643.93	32.77
644.07	79.58
644.22	56.17
644.37	60.85
644.51	32.77
644.66	25.75
644.81	7.02
644.95	42.13
645.10	74.90
645.25	28.09
645.39	0.00
645.54	0.00
645.69	58.51
645.83	49.15
645.98	77.24
646.13	28.09
646.27	49.15
646.42	0.00
646.57	79.58
646.71	30.43
646.86	16.38
647.00	44.47
647.15	18.72
647.30	46.81
647.44	39.79
647.59	63.19
647.74	2.34
647.88	23.41
648.03	35.11
648.17	18.72
648.32	46.81
648.47	0.00
648.61	44.47
648.76	0.00
648.90	46.81
649.05	4.68
649.20	84.26
649.34	63.19
649.49	0.00
649.63	23.41
649.78	0.00
649.92	79.58
650.07	37.45
650.21	18.72
650.36	79.58
650.51	32.77
650.65	88.94
650.80	84.26
650.94	30.43
651.09	51.49
651.23	21.06
651.38	25.75
651.52	93.62
651.67	46.81
651.81	46.81
651.96	0.00
652.10	60.85
652.25	9.36
652.39	107.66
652.54	0.00
652.68	0.00
652.83	67.88
652.97	100.64
653.12	56.17
653.26	0.00
653.41	0.00
653.55	18.72
653.70	2.34
653.84	0.00
653.99	4.68
654.13	79.58
654.27	56.17
654.42	79.58
654.56	81.92
654.71	0.00
654.85	35.11
655.00	32.77
655.14	7.02
655.29	51.49
655.43	58.51
655.57	44.47
655.72	44.47
655.86	0.00
656.01	42.13
656.15	63.19
656.30	53.83
656.44	18.72
656.58	23.41
656.73	23.41
656.87	2.34
657.01	81.92
657.16	30.43
657.30	0.00
657.45	60.85
657.59	93.62
657.73	86.60
657.88	16.38
658.02	95.96
658.16	21.06
658.31	32.77
658.45	51.49
658.60	77.24
658.74	11.70
658.88	84.26
659.03	37.45
659.17	42.13
659.31	28.09
659.46	56.17
659.60	58.51
659.74	63.19
659.89	0.00
660.03	0.00
660.17	65.54
660.32	65.54
660.46	30.43
660.60	84.26
660.74	53.83
660.89	46.81
661.03	9.36
661.17	9.36
661.32	0.00
661.46	49.15
661.60	28.09
661.74	105.32
661.89	0.00
662.03	0.00
662.17	2.34
662.31	32.77
662.46	88.94
662.60	51.49
662.74	0.00
662.88	23.41
663.03	2.34
663.17	0.00
663.31	74.90
663.45	74.90
663.60	65.54
663.74	51.49
663.88	67.88
664.02	11.70
664.17	23.41
664.31	46.81
664.45	35.11
664.59	28.09
664.73	51.49
664.88	42.13
665.02	21.06
665.16	46.81
665.30	2.34
665.44	39.79
665.59	14.04
665.73	37.45
665.87	0.00
666.01	63.19
666.15	100.64
666.29	58.51
666.44	46.81
666.58	74.90
666.72	25.75
666.86	56.17
667.00	32.77
667.14	51.49
667.28	0.00
667.43	131.07
667.57	28.09
667.71	0.00
667.85	53.83
667.99	28.09
668.13	0.00
668.27	0.00
668.41	14.04
668.56	49.15
668.70	49.15
668.84	16.38
668.98	56.17
669.12	77.24
669.26	65.54
669.40	72.56
669.54	18.72
669.68	58.51
669.82	30.43
669.96	95.96
670.10	28.09
670.25	25.75
670.39	56.17
670.53	63.19
670.67	21.06
670.81	74.90
670.95	42.13
671.09	32.77
671.23	0.00
671.37	0.00
671.51	105.32
671.65	93.62
671.79	51.49
671.93	81.92
672.07	46.81
672.21	4.68
672.35	21.06
672.49	46.81
672.63	42.13
672.77	95.96
672.91	98.30
673.05	53.83
673.19	86.60
673.33	51.49
673.47	79.58
673.61	42.13
673.75	7.02
673.89	86.60
674.03	30.43
674.17	37.45
674.31	35.11
674.45	14.04
674.59	91.28
674.73	18.72
674.87	44.47
675.01	46.81
675.15	58.51
675.29	60.85
675.43	0.00
675.56	0.00
675.70	28.09
675.84	0.00
675.98	58.51
676.12	0.00
676.26	53.83
676.40	21.06
676.54	49.15
676.68	91.28
676.82	39.79
676.96	53.83
677.10	81.92
677.23	32.77
677.37	128.73
677.51	18.72
677.65	140.43
677.79	0.00
677.93	58.51
678.07	39.79
678.21	0.00
678.34	42.13
678.48	42.13
678.62	0.00
678.76	23.41
678.90	0.00
679.04	0.00
679.18	56.17
679.31	86.60
679.45	23.41
679.59	49.15
679.73	4.68
679.87	42.13
680.00	51.49
680.14	42.13
680.28	23.41
680.42	93.62
680.56	72.56
680.70	0.00
680.83	30.43
680.97	9.36
681.11	18.72
681.25	0.00
681.39	74.90
681.52	58.51
681.66	23.41
681.80	16.38
681.94	138.09
682.07	42.13
682.21	0.00
682.35	4.68
682.49	35.11
682.62	95.96
682.76	42.13
682.90	37.45
683.04	9.36
683.17	63.19
683.31	88.94
683.45	46.81
683.59	0.00
683.72	51.49
683.86	18.72
684.00	0.00
684.13	25.75
684.27	4.68
684.41	0.00
684.55	63.19
684.68	72.56
684.82	91.28
684.96	35.11
685.09	32.77
685.23	42.13
685.37	0.00
685.50	0.00
685.64	32.77
685.78	0.00
685.91	9.36
686.05	131.07
686.19	81.92
686.32	65.54
686.46	105.32
686.60	56.17
686.73	56.17
686.87	0.00
687.01	0.00
687.14	14.04
687.28	0.00
687.42	42.13
687.55	44.47
687.69	77.24
687.82	93.62
687.96	0.00
688.10	51.49
688.23	93.62
688.37	25.75
688.50	0.00
688.64	100.64
688.78	0.00
688.91	18.72
689.05	42.13
689.18	35.11
689.32	51.49
689.46	46.81
689.59	56.17
689.73	0.00
689.86	53.83
690.00	46.81
690.13	67.88
690.27	58.51
690.41	51.49
690.54	4.68
690.68	0.00
690.81	88.94
690.95	51.49
691.08	0.00
691.22	81.92
691.35	53.83
691.49	25.75
691.62	0.00
691.76	44.47
691.89	28.09
692.03	0.00
692.16	32.77
692.30	18.72
692.43	14.04
692.57	60.85
692.70	63.19
692.84	65.54
692.97	63.19
693.11	0.00
693.24	49.15
693.38	28.09
693.51	63.19
693.65	53.83
693.78	39.79
693.92	21.06
694.05	53.83
694.19	0.00
694.32	58.51
694.45	0.00
694.59	42.13
694.72	39.79
694.86	72.56
694.99	65.54
695.13	86.60
695.26	25.75
695.39	110.01
695.53	0.00
695.66	46.81
695.80	9.36
695.93	0.00
696.07	49.15
696.20	14.04
696.33	0.00
696.47	126.39
696.60	18.72
696.73	42.13
696.87	11.70
697.00	44.47
697.14	14.04
697.27	0.00
697.40	18.72
697.54	98.30
697.67	65.54
697.80	46.81
697.94	79.58
698.07	0.00
698.21	79.58
698.34	0.00
698.47	0.00
698.61	53.83
698.74	70.22
698.87	0.00
699.01	67.88
699.14	28.09
699.27	102.98
699.40	95.96
699.54	0.00
699.67	32.77
699.80	70.22
699.94	0.00
700.07	0.00
700.20	79.58
700.34	0.00
700.47	67.88
700.60	53.83
700.73	42.13
700.87	37.45
701.00	0.00
701.13	28.09
701.26	16.38
701.40	124.05
701.53	46.81
701.66	42.13
701.79	0.00
701.93	0.00
702.06	0.00
702.19	114.69
702.32	63.19
702.46	7.02
702.59	0.00
702.72	46.81
702.85	0.00
702.99	110.01
703.12	39.79
703.25	112.35
703.38	7.02
703.51	0.00
703.65	0.00
703.78	30.43
703.91	23.41
704.04	46.81
704.17	67.88
704.31	25.75
704.44	0.00
704.57	0.00
704.70	7.02
704.83	56.17
704.96	35.11
705.10	30.43
705.23	30.43
>>>>>End Processed Spectral Data<<<<<
