SpectraSuite Data File
++++++++++++++++++++++++++++++++++++
Date: Fri Oct 04 12:13:32 GMT-05:00 2013
User: price-jones
Dark Spectrum Present: No
Reference Spectrum Present: No
Number of Sampled Component Spectra: 1
Spectrometers: USB2+H05261
Integration Time (usec): 10000 (USB2+H05261)
Spectra Averaged: 1 (USB2+H05261)
Boxcar Smoothing: 0 (USB2+H05261)
Correct for Electrical Dark: No (USB2+H05261)
Strobe/Lamp Enabled: No (USB2+H05261)
Correct for Detector Non-linearity: No (USB2+H05261)
Correct for Stray Light: No (USB2+H05261)
Number of Pixels in Processed Spectrum: 2048
>>>>>Begin Processed Spectral Data<<<<<
365.73	0.00
365.92	0.00
366.12	0.00
366.32	0.00
366.52	0.00
366.72	0.00
366.91	0.00
367.11	0.00
367.31	0.00
367.51	0.00
367.70	0.00
367.90	0.00
368.10	0.00
368.30	0.00
368.49	0.00
368.69	0.00
368.89	0.00
369.09	0.00
369.28	0.00
369.48	0.00
369.68	0.00
369.87	16.38
370.07	0.00
370.27	0.00
370.47	0.00
370.66	0.00
370.86	0.00
371.06	0.00
371.25	0.00
371.45	0.00
371.65	0.00
371.84	0.00
372.04	0.00
372.24	0.00
372.44	65.54
372.63	7.02
372.83	51.49
373.03	14.04
373.22	9.36
373.42	0.00
373.62	23.41
373.81	2.34
374.01	37.45
374.21	25.75
374.40	0.00
374.60	37.45
374.79	18.72
374.99	81.92
375.19	14.04
375.38	84.26
375.58	0.00
375.78	91.28
375.97	16.38
376.17	0.00
376.37	72.56
376.56	67.88
376.76	37.45
376.95	0.00
377.15	0.00
377.35	72.56
377.54	70.22
377.74	105.32
377.93	0.00
378.13	39.79
378.33	0.00
378.52	9.36
378.72	91.28
378.91	0.00
379.11	46.81
379.31	46.81
379.50	37.45
379.70	0.00
379.89	42.13
380.09	14.04
380.28	25.75
380.48	35.11
380.68	28.09
380.87	0.00
381.07	32.77
381.26	0.00
381.46	0.00
381.65	46.81
381.85	0.00
382.04	70.22
382.24	53.83
382.43	39.79
382.63	0.00
382.83	0.00
383.02	42.13
383.22	14.04
383.41	0.00
383.61	0.00
383.80	0.00
384.00	0.00
384.19	18.72
384.39	11.70
384.58	25.75
384.78	30.43
384.97	0.00
385.17	0.00
385.36	23.41
385.56	81.92
385.75	30.43
385.95	49.15
386.14	56.17
386.34	0.00
386.53	4.68
386.72	32.77
386.92	0.00
387.11	18.72
387.31	4.68
387.50	28.09
387.70	44.47
387.89	23.41
388.09	0.00
388.28	25.75
388.48	0.00
388.67	0.00
388.86	11.70
389.06	95.96
389.25	2.34
389.45	21.06
389.64	0.00
389.84	0.00
390.03	0.00
390.22	0.00
390.42	0.00
390.61	7.02
390.81	11.70
391.00	0.00
391.19	21.06
391.39	16.38
391.58	0.00
391.78	0.00
391.97	30.43
392.16	46.81
392.36	9.36
392.55	72.56
392.75	11.70
392.94	0.00
393.13	42.13
393.33	25.75
393.52	23.41
393.71	14.04
393.91	79.58
394.10	30.43
394.29	7.02
394.49	49.15
394.68	58.51
394.88	42.13
395.07	86.60
395.26	51.49
395.46	35.11
395.65	0.00
395.84	0.00
396.04	4.68
396.23	110.01
396.42	11.70
396.62	51.49
396.81	65.54
397.00	0.00
397.19	60.85
397.39	51.49
397.58	30.43
397.77	63.19
397.97	9.36
398.16	0.00
398.35	37.45
398.55	51.49
398.74	0.00
398.93	14.04
399.12	95.96
399.32	0.00
399.51	32.77
399.70	84.26
399.90	49.15
400.09	100.64
400.28	0.00
400.47	11.70
400.67	0.00
400.86	0.00
401.05	0.00
401.24	72.56
401.44	60.85
401.63	9.36
401.82	56.17
402.01	0.00
402.21	14.04
402.40	84.26
402.59	14.04
402.78	56.17
402.97	0.00
403.17	11.70
403.36	0.00
403.55	0.00
403.74	77.24
403.93	42.13
404.13	35.11
404.32	37.45
404.51	112.35
404.70	72.56
404.89	56.17
405.09	23.41
405.28	0.00
405.47	4.68
405.66	0.00
405.85	25.75
406.05	53.83
406.24	72.56
406.43	35.11
406.62	81.92
406.81	56.17
407.00	0.00
407.20	53.83
407.39	9.36
407.58	30.43
407.77	14.04
407.96	77.24
408.15	0.00
408.34	2.34
408.54	4.68
408.73	0.00
408.92	0.00
409.11	56.17
409.30	9.36
409.49	21.06
409.68	30.43
409.87	4.68
410.07	18.72
410.26	16.38
410.45	32.77
410.64	0.00
410.83	30.43
411.02	0.00
411.21	21.06
411.40	0.00
411.59	56.17
411.78	60.85
411.98	2.34
412.17	0.00
412.36	9.36
412.55	56.17
412.74	84.26
412.93	28.09
413.12	23.41
413.31	72.56
413.50	56.17
413.69	42.13
413.88	28.09
414.07	42.13
414.26	60.85
414.45	28.09
414.64	11.70
414.83	9.36
415.02	32.77
415.22	51.49
415.41	32.77
415.60	16.38
415.79	28.09
415.98	39.79
416.17	56.17
416.36	35.11
416.55	32.77
416.74	9.36
416.93	0.00
417.12	18.72
417.31	0.00
417.50	4.68
417.69	14.04
417.88	23.41
418.07	0.00
418.26	105.32
418.45	37.45
418.64	39.79
418.83	2.34
419.02	28.09
419.21	0.00
419.39	0.00
419.58	44.47
419.77	7.02
419.96	0.00
420.15	11.70
420.34	46.81
420.53	0.00
420.72	4.68
420.91	88.94
421.10	18.72
421.29	25.75
421.48	21.06
421.67	9.36
421.86	44.47
422.05	67.88
422.24	0.00
422.43	39.79
422.61	35.11
422.80	0.00
422.99	7.02
423.18	16.38
423.37	53.83
423.56	16.38
423.75	0.00
423.94	16.38
424.13	70.22
424.32	30.43
424.50	0.00
424.69	7.02
424.88	56.17
425.07	0.00
425.26	0.00
425.45	58.51
425.64	63.19
425.83	7.02
426.01	0.00
426.20	63.19
426.39	32.77
426.58	28.09
426.77	65.54
426.96	0.00
427.15	53.83
427.33	35.11
427.52	7.02
427.71	4.68
427.90	11.70
428.09	23.41
428.28	32.77
428.46	46.81
428.65	11.70
428.84	32.77
429.03	114.69
429.22	0.00
429.40	11.70
429.59	65.54
429.78	93.62
429.97	63.19
430.16	46.81
430.34	4.68
430.53	42.13
430.72	0.00
430.91	91.28
431.10	58.51
431.28	63.19
431.47	2.34
431.66	0.00
431.85	0.00
432.03	0.00
432.22	16.38
432.41	60.85
432.60	21.06
432.79	93.62
432.97	14.04
433.16	0.00
433.35	32.77
433.54	2.34
433.72	70.22
433.91	16.38
434.10	0.00
434.28	39.79
434.47	11.70
434.66	28.09
434.85	11.70
435.03	16.38
435.22	0.00
435.41	51.49
435.59	84.26
435.78	65.54
435.97	49.15
436.16	14.04
436.34	14.04
436.53	16.38
436.72	70.22
436.90	105.32
437.09	18.72
437.28	32.77
437.46	18.72
437.65	63.19
437.84	21.06
438.02	39.79
438.21	35.11
438.40	9.36
438.58	0.00
438.77	28.09
438.96	0.00
439.14	56.17
439.33	7.02
439.52	56.17
439.70	0.00
439.89	81.92
440.08	91.28
440.26	56.17
440.45	74.90
440.63	0.00
440.82	107.66
441.01	0.00
441.19	21.06
441.38	39.79
441.57	133.41
441.75	56.17
441.94	67.88
442.12	0.00
442.31	0.00
442.50	28.09
442.68	0.00
442.87	11.70
443.05	35.11
443.24	44.47
443.43	23.41
443.61	74.90
443.80	46.81
443.98	86.60
444.17	105.32
444.35	32.77
444.54	39.79
444.73	9.36
444.91	32.77
445.10	53.83
445.28	32.77
445.47	11.70
445.65	32.77
445.84	23.41
446.02	53.83
446.21	0.00
446.39	0.00
446.58	23.41
446.77	42.13
446.95	65.54
447.14	51.49
447.32	18.72
447.51	0.00
447.69	16.38
447.88	65.54
448.06	49.15
448.25	49.15
448.43	79.58
448.62	58.51
448.80	95.96
448.99	14.04
449.17	65.54
449.36	65.54
449.54	11.70
449.73	9.36
449.91	49.15
450.10	100.64
450.28	37.45
450.46	74.90
450.65	44.47
450.83	14.04
451.02	0.00
451.20	67.88
451.39	11.70
451.57	16.38
451.76	79.58
451.94	58.51
452.13	51.49
452.31	58.51
452.49	9.36
452.68	72.56
452.86	35.11
453.05	0.00
453.23	28.09
453.42	28.09
453.60	0.00
453.78	11.70
453.97	0.00
454.15	39.79
454.34	11.70
454.52	102.98
454.70	46.81
454.89	67.88
455.07	63.19
455.26	65.54
455.44	74.90
455.62	28.09
455.81	42.13
455.99	100.64
456.17	35.11
456.36	72.56
456.54	0.00
456.73	63.19
456.91	18.72
457.09	35.11
457.28	46.81
457.46	51.49
457.64	7.02
457.83	16.38
458.01	37.45
458.19	44.47
458.38	35.11
458.56	23.41
458.74	42.13
458.93	110.01
459.11	84.26
459.29	32.77
459.48	81.92
459.66	49.15
459.84	21.06
460.03	46.81
460.21	4.68
460.39	4.68
460.57	56.17
460.76	0.00
460.94	32.77
461.12	0.00
461.31	16.38
461.49	7.02
461.67	14.04
461.85	21.06
462.04	25.75
462.22	49.15
462.40	49.15
462.59	0.00
462.77	0.00
462.95	51.49
463.13	51.49
463.32	21.06
463.50	23.41
463.68	51.49
463.86	35.11
464.05	37.45
464.23	14.04
464.41	0.00
464.59	30.43
464.78	0.00
464.96	0.00
465.14	30.43
465.32	11.70
465.50	28.09
465.69	51.49
465.87	84.26
466.05	63.19
466.23	0.00
466.41	0.00
466.60	70.22
466.78	0.00
466.96	23.41
467.14	42.13
467.32	0.00
467.51	0.00
467.69	30.43
467.87	84.26
468.05	0.00
468.23	14.04
468.41	14.04
468.60	28.09
468.78	0.00
468.96	70.22
469.14	23.41
469.32	4.68
469.50	95.96
469.69	112.35
469.87	32.77
470.05	11.70
470.23	81.92
470.41	21.06
470.59	74.90
470.77	23.41
470.95	0.00
471.14	42.13
471.32	11.70
471.50	149.79
471.68	37.45
471.86	7.02
472.04	77.24
472.22	28.09
472.40	74.90
472.58	91.28
472.77	110.01
472.95	72.56
473.13	32.77
473.31	28.09
473.49	35.11
473.67	51.49
473.85	25.75
474.03	84.26
474.21	74.90
474.39	81.92
474.57	35.11
474.75	37.45
474.93	79.58
475.12	4.68
475.30	0.00
475.48	0.00
475.66	93.62
475.84	58.51
476.02	70.22
476.20	46.81
476.38	0.00
476.56	30.43
476.74	14.04
476.92	70.22
477.10	0.00
477.28	0.00
477.46	39.79
477.64	100.64
477.82	0.00
478.00	4.68
478.18	56.17
478.36	14.04
478.54	35.11
478.72	37.45
478.90	114.69
479.08	0.00
479.26	56.17
479.44	93.62
479.62	65.54
479.80	42.13
479.98	39.79
480.16	42.13
480.34	0.00
480.52	32.77
480.70	98.30
480.88	56.17
481.06	91.28
481.24	16.38
481.41	16.38
481.59	60.85
481.77	53.83
481.95	0.00
482.13	49.15
482.31	0.00
482.49	49.15
482.67	86.60
482.85	23.41
483.03	0.00
483.21	23.41
483.39	53.83
483.57	25.75
483.74	65.54
483.92	0.00
484.10	98.30
484.28	25.75
484.46	39.79
484.64	28.09
484.82	58.51
485.00	53.83
485.18	65.54
485.35	23.41
485.53	67.88
485.71	58.51
485.89	72.56
486.07	74.90
486.25	4.68
486.43	30.43
486.61	16.38
486.78	28.09
486.96	56.17
487.14	98.30
487.32	11.70
487.50	88.94
487.68	2.34
487.85	4.68
488.03	72.56
488.21	72.56
488.39	56.17
488.57	70.22
488.75	42.13
488.92	67.88
489.10	0.00
489.28	58.51
489.46	11.70
489.64	49.15
489.81	30.43
489.99	25.75
490.17	63.19
490.35	25.75
490.53	23.41
490.70	0.00
490.88	11.70
491.06	23.41
491.24	84.26
491.41	51.49
491.59	95.96
491.77	0.00
491.95	0.00
492.13	60.85
492.30	28.09
492.48	46.81
492.66	74.90
492.84	14.04
493.01	9.36
493.19	53.83
493.37	23.41
493.54	65.54
493.72	14.04
493.90	70.22
494.08	49.15
494.25	0.00
494.43	14.04
494.61	91.28
494.79	65.54
494.96	77.24
495.14	42.13
495.32	58.51
495.49	63.19
495.67	58.51
495.85	53.83
496.02	70.22
496.20	42.13
496.38	35.11
496.55	30.43
496.73	70.22
496.91	11.70
497.09	65.54
497.26	25.75
497.44	30.43
497.62	81.92
497.79	84.26
497.97	74.90
498.14	25.75
498.32	86.60
498.50	0.00
498.67	25.75
498.85	117.03
499.03	65.54
499.20	39.79
499.38	28.09
499.56	63.19
499.73	44.47
499.91	0.00
500.08	4.68
500.26	102.98
500.44	0.00
500.61	91.28
500.79	0.00
500.97	72.56
501.14	93.62
501.32	4.68
501.49	25.75
501.67	4.68
501.84	65.54
502.02	42.13
502.20	63.19
502.37	32.77
502.55	42.13
502.72	51.49
502.90	46.81
503.07	131.07
503.25	81.92
503.43	37.45
503.60	18.72
503.78	28.09
503.95	4.68
504.13	21.06
504.30	77.24
504.48	32.77
504.65	74.90
504.83	42.13
505.01	63.19
505.18	25.75
505.36	42.13
505.53	2.34
505.71	7.02
505.88	0.00
506.06	4.68
506.23	39.79
506.41	84.26
506.58	95.96
506.76	49.15
506.93	0.00
507.11	175.54
507.28	11.70
507.46	14.04
507.63	84.26
507.81	79.58
507.98	30.43
508.16	7.02
508.33	25.75
508.50	72.56
508.68	119.37
508.85	126.39
509.03	67.88
509.20	0.00
509.38	37.45
509.55	72.56
509.73	86.60
509.90	74.90
510.08	84.26
510.25	121.71
510.42	28.09
510.60	30.43
510.77	53.83
510.95	44.47
511.12	18.72
511.30	112.35
511.47	4.68
511.64	72.56
511.82	86.60
511.99	42.13
512.17	21.06
512.34	63.19
512.51	63.19
512.69	49.15
512.86	0.00
513.04	4.68
513.21	46.81
513.38	53.83
513.56	65.54
513.73	28.09
513.90	16.38
514.08	16.38
514.25	14.04
514.43	35.11
514.60	51.49
514.77	30.43
514.95	81.92
515.12	51.49
515.29	18.72
515.47	39.79
515.64	58.51
515.81	32.77
515.99	18.72
516.16	42.13
516.33	110.01
516.51	65.54
516.68	11.70
516.85	42.13
517.03	0.00
517.20	11.70
517.37	81.92
517.54	95.96
517.72	2.34
517.89	32.77
518.06	23.41
518.24	70.22
518.41	21.06
518.58	51.49
518.75	93.62
518.93	18.72
519.10	35.11
519.27	0.00
519.45	63.19
519.62	77.24
519.79	102.98
519.96	2.34
520.14	46.81
520.31	95.96
520.48	28.09
520.65	60.85
520.83	18.72
521.00	0.00
521.17	35.11
521.34	72.56
521.52	42.13
521.69	14.04
521.86	102.98
522.03	44.47
522.20	84.26
522.38	35.11
522.55	79.58
522.72	65.54
522.89	0.00
523.07	88.94
523.24	23.41
523.41	16.38
523.58	84.26
523.75	9.36
523.92	74.90
524.10	39.79
524.27	112.35
524.44	51.49
524.61	84.26
524.78	58.51
524.96	0.00
525.13	0.00
525.30	7.02
525.47	114.69
525.64	0.00
525.81	49.15
525.98	56.17
526.16	39.79
526.33	11.70
526.50	0.00
526.67	88.94
526.84	21.06
527.01	72.56
527.18	23.41
527.36	0.00
527.53	77.24
527.70	112.35
527.87	7.02
528.04	32.77
528.21	16.38
528.38	42.13
528.55	121.71
528.72	42.13
528.89	86.60
529.07	56.17
529.24	51.49
529.41	70.22
529.58	81.92
529.75	60.85
529.92	32.77
530.09	23.41
530.26	39.79
530.43	39.79
530.60	117.03
530.77	79.58
530.94	46.81
531.11	2.34
531.28	0.00
531.46	42.13
531.63	100.64
531.80	30.43
531.97	56.17
532.14	100.64
532.31	0.00
532.48	39.79
532.65	35.11
532.82	2.34
532.99	37.45
533.16	32.77
533.33	0.00
533.50	79.58
533.67	23.41
533.84	44.47
534.01	0.00
534.18	0.00
534.35	49.15
534.52	42.13
534.69	72.56
534.86	39.79
535.03	105.32
535.20	28.09
535.37	51.49
535.54	11.70
535.71	0.00
535.88	0.00
536.05	88.94
536.22	91.28
536.38	9.36
536.55	79.58
536.72	88.94
536.89	102.98
537.06	37.45
537.23	81.92
537.40	7.02
537.57	44.47
537.74	42.13
537.91	28.09
538.08	133.41
538.25	44.47
538.42	79.58
538.59	35.11
538.75	30.43
538.92	39.79
539.09	44.47
539.26	173.20
539.43	84.26
539.60	67.88
539.77	2.34
539.94	110.01
540.11	42.13
540.28	44.47
540.44	32.77
540.61	117.03
540.78	14.04
540.95	28.09
541.12	23.41
541.29	86.60
541.46	81.92
541.62	16.38
541.79	39.79
541.96	72.56
542.13	39.79
542.30	100.64
542.47	32.77
542.63	46.81
542.80	28.09
542.97	9.36
543.14	74.90
543.31	49.15
543.48	30.43
543.64	9.36
543.81	56.17
543.98	4.68
544.15	21.06
544.32	0.00
544.48	79.58
544.65	65.54
544.82	0.00
544.99	65.54
545.16	30.43
545.32	56.17
545.49	32.77
545.66	105.32
545.83	32.77
546.00	9.36
546.16	0.00
546.33	60.85
546.50	0.00
546.67	25.75
546.83	58.51
547.00	84.26
547.17	44.47
547.34	30.43
547.50	65.54
547.67	0.00
547.84	42.13
548.00	121.71
548.17	95.96
548.34	88.94
548.51	63.19
548.67	28.09
548.84	51.49
549.01	51.49
549.18	72.56
549.34	39.79
549.51	56.17
549.68	65.54
549.84	86.60
550.01	72.56
550.18	46.81
550.34	30.43
550.51	70.22
550.68	56.17
550.84	42.13
551.01	32.77
551.18	51.49
551.34	70.22
551.51	56.17
551.68	28.09
551.84	114.69
552.01	98.30
552.18	88.94
552.34	0.00
552.51	65.54
552.68	77.24
552.84	60.85
553.01	42.13
553.18	56.17
553.34	9.36
553.51	58.51
553.67	53.83
553.84	14.04
554.01	81.92
554.17	95.96
554.34	0.00
554.51	46.81
554.67	32.77
554.84	44.47
555.00	79.58
555.17	23.41
555.33	42.13
555.50	44.47
555.67	121.71
555.83	60.85
556.00	58.51
556.16	95.96
556.33	25.75
556.50	30.43
556.66	74.90
556.83	72.56
556.99	114.69
557.16	28.09
557.32	0.00
557.49	11.70
557.65	63.19
557.82	102.98
557.98	23.41
558.15	77.24
558.32	25.75
558.48	56.17
558.65	37.45
558.81	86.60
558.98	7.02
559.14	39.79
559.31	65.54
559.47	37.45
559.64	35.11
559.80	0.00
559.97	46.81
560.13	2.34
560.30	65.54
560.46	79.58
560.63	35.11
560.79	0.00
560.96	117.03
561.12	11.70
561.29	51.49
561.45	79.58
561.61	44.47
561.78	0.00
561.94	0.00
562.11	42.13
562.27	72.56
562.44	39.79
562.60	28.09
562.77	72.56
562.93	58.51
563.10	53.83
563.26	67.88
563.42	35.11
563.59	2.34
563.75	0.00
563.92	110.01
564.08	58.51
564.24	112.35
564.41	32.77
564.57	0.00
564.74	81.92
564.90	39.79
565.07	65.54
565.23	42.13
565.39	88.94
565.56	67.88
565.72	28.09
565.88	100.64
566.05	0.00
566.21	2.34
566.38	56.17
566.54	77.24
566.70	58.51
566.87	0.00
567.03	39.79
567.19	81.92
567.36	23.41
567.52	91.28
567.68	63.19
567.85	112.35
568.01	56.17
568.17	16.38
568.34	86.60
568.50	0.00
568.66	32.77
568.83	25.75
568.99	44.47
569.15	49.15
569.32	67.88
569.48	126.39
569.64	84.26
569.81	37.45
569.97	32.77
570.13	65.54
570.30	37.45
570.46	53.83
570.62	58.51
570.78	11.70
570.95	63.19
571.11	0.00
571.27	0.00
571.43	28.09
571.60	30.43
571.76	107.66
571.92	77.24
572.09	86.60
572.25	0.00
572.41	51.49
572.57	23.41
572.74	18.72
572.90	95.96
573.06	35.11
573.22	0.00
573.38	4.68
573.55	30.43
573.71	105.32
573.87	91.28
574.03	70.22
574.20	114.69
574.36	121.71
574.52	18.72
574.68	60.85
574.84	91.28
575.01	32.77
575.17	23.41
575.33	60.85
575.49	67.88
575.65	0.00
575.82	2.34
575.98	18.72
576.14	46.81
576.30	4.68
576.46	98.30
576.62	46.81
576.79	0.00
576.95	65.54
577.11	49.15
577.27	74.90
577.43	74.90
577.59	91.28
577.75	39.79
577.92	74.90
578.08	102.98
578.24	0.00
578.40	30.43
578.56	81.92
578.72	0.00
578.88	0.00
579.04	0.00
579.21	119.37
579.37	70.22
579.53	86.60
579.69	46.81
579.85	21.06
580.01	65.54
580.17	0.00
580.33	88.94
580.49	0.00
580.65	32.77
580.82	37.45
580.98	21.06
581.14	25.75
581.30	30.43
581.46	30.43
581.62	74.90
581.78	11.70
581.94	63.19
582.10	49.15
582.26	0.00
582.42	72.56
582.58	72.56
582.74	67.88
582.90	28.09
583.06	16.38
583.22	56.17
583.38	0.00
583.54	42.13
583.70	39.79
583.86	93.62
584.02	79.58
584.18	58.51
584.34	88.94
584.50	46.81
584.66	7.02
584.82	0.00
584.98	58.51
585.14	63.19
585.30	81.92
585.46	72.56
585.62	65.54
585.78	107.66
585.94	105.32
586.10	42.13
586.26	42.13
586.42	51.49
586.58	77.24
586.74	100.64
586.90	0.00
587.06	32.77
587.22	18.72
587.38	32.77
587.54	46.81
587.70	37.45
587.86	37.45
588.02	46.81
588.18	79.58
588.34	124.05
588.49	0.00
588.65	51.49
588.81	32.77
588.97	37.45
589.13	25.75
589.29	88.94
589.45	95.96
589.61	72.56
589.77	53.83
589.93	70.22
590.08	0.00
590.24	100.64
590.40	63.19
590.56	49.15
590.72	0.00
590.88	14.04
591.04	0.00
591.20	105.32
591.35	65.54
591.51	63.19
591.67	67.88
591.83	30.43
591.99	0.00
592.15	95.96
592.31	138.09
592.46	21.06
592.62	60.85
592.78	46.81
592.94	35.11
593.10	25.75
593.26	138.09
593.41	107.66
593.57	74.90
593.73	0.00
593.89	39.79
594.05	25.75
594.20	88.94
594.36	0.00
594.52	105.32
594.68	81.92
594.84	81.92
594.99	70.22
595.15	93.62
595.31	35.11
595.47	53.83
595.62	39.79
595.78	0.00
595.94	49.15
596.10	39.79
596.25	4.68
596.41	0.00
596.57	44.47
596.73	84.26
596.88	67.88
597.04	21.06
597.20	65.54
597.36	4.68
597.51	81.92
597.67	42.13
597.83	65.54
597.99	44.47
598.14	30.43
598.30	28.09
598.46	25.75
598.61	42.13
598.77	51.49
598.93	0.00
599.09	16.38
599.24	30.43
599.40	37.45
599.56	11.70
599.71	30.43
599.87	84.26
600.03	86.60
600.18	37.45
600.34	65.54
600.50	53.83
600.65	60.85
600.81	0.00
600.97	39.79
601.12	100.64
601.28	60.85
601.44	42.13
601.59	70.22
601.75	2.34
601.91	42.13
602.06	110.01
602.22	37.45
602.37	39.79
602.53	14.04
602.69	51.49
602.84	51.49
603.00	84.26
603.16	16.38
603.31	14.04
603.47	65.54
603.62	98.30
603.78	86.60
603.94	72.56
604.09	23.41
604.25	72.56
604.40	67.88
604.56	74.90
604.71	65.54
604.87	51.49
605.03	18.72
605.18	0.00
605.34	51.49
605.49	65.54
605.65	28.09
605.80	16.38
605.96	72.56
606.12	84.26
606.27	93.62
606.43	112.35
606.58	21.06
606.74	58.51
606.89	18.72
607.05	25.75
607.20	60.85
607.36	105.32
607.51	0.00
607.67	65.54
607.82	39.79
607.98	70.22
608.13	23.41
608.29	86.60
608.44	32.77
608.60	39.79
608.75	42.13
608.91	11.70
609.06	67.88
609.22	0.00
609.37	0.00
609.53	81.92
609.68	25.75
609.84	32.77
609.99	18.72
610.15	0.00
610.30	39.79
610.46	16.38
610.61	58.51
610.76	0.00
610.92	65.54
611.07	65.54
611.23	35.11
611.38	152.13
611.54	60.85
611.69	14.04
611.84	44.47
612.00	77.24
612.15	51.49
612.31	0.00
612.46	65.54
612.62	42.13
612.77	159.16
612.92	0.00
613.08	18.72
613.23	74.90
613.39	105.32
613.54	63.19
613.69	0.00
613.85	28.09
614.00	88.94
614.15	95.96
614.31	74.90
614.46	2.34
614.62	88.94
614.77	93.62
614.92	18.72
615.08	56.17
615.23	53.83
615.38	79.58
615.54	32.77
615.69	0.00
615.84	65.54
616.00	93.62
616.15	56.17
616.30	72.56
616.46	42.13
616.61	2.34
616.76	23.41
616.92	84.26
617.07	37.45
617.22	4.68
617.37	0.00
617.53	18.72
617.68	14.04
617.83	21.06
617.99	21.06
618.14	32.77
618.29	0.00
618.45	32.77
618.60	95.96
618.75	0.00
618.90	65.54
619.06	21.06
619.21	49.15
619.36	79.58
619.51	23.41
619.67	11.70
619.82	35.11
619.97	121.71
620.12	32.77
620.28	0.00
620.43	105.32
620.58	58.51
620.73	21.06
620.89	4.68
621.04	74.90
621.19	77.24
621.34	114.69
621.49	28.09
621.65	0.00
621.80	2.34
621.95	21.06
622.10	9.36
622.25	0.00
622.41	49.15
622.56	0.00
622.71	35.11
622.86	0.00
623.01	124.05
623.16	63.19
623.32	49.15
623.47	84.26
623.62	21.06
623.77	0.00
623.92	30.43
624.07	39.79
624.23	16.38
624.38	0.00
624.53	18.72
624.68	4.68
624.83	46.81
624.98	79.58
625.13	49.15
625.29	63.19
625.44	25.75
625.59	25.75
625.74	25.75
625.89	0.00
626.04	25.75
626.19	32.77
626.34	79.58
626.49	114.69
626.65	11.70
626.80	100.64
626.95	88.94
627.10	0.00
627.25	79.58
627.40	21.06
627.55	18.72
627.70	140.43
627.85	0.00
628.00	44.47
628.15	65.54
628.30	16.38
628.45	18.72
628.60	11.70
628.76	72.56
628.91	74.90
629.06	84.26
629.21	74.90
629.36	14.04
629.51	32.77
629.66	65.54
629.81	23.41
629.96	60.85
630.11	21.06
630.26	0.00
630.41	14.04
630.56	91.28
630.71	37.45
630.86	44.47
631.01	0.00
631.16	0.00
631.31	72.56
631.46	72.56
631.61	32.77
631.76	46.81
631.91	93.62
632.06	72.56
632.21	42.13
632.36	81.92
632.51	93.62
632.66	21.06
632.81	4.68
632.96	14.04
633.10	86.60
633.25	67.88
633.40	63.19
633.55	0.00
633.70	51.49
633.85	110.01
634.00	4.68
634.15	53.83
634.30	21.06
634.45	114.69
634.60	0.00
634.75	72.56
634.90	100.64
635.05	44.47
635.19	44.47
635.34	60.85
635.49	65.54
635.64	0.00
635.79	159.16
635.94	0.00
636.09	11.70
636.24	18.72
636.39	0.00
636.53	16.38
636.68	77.24
636.83	72.56
636.98	93.62
637.13	39.79
637.28	119.37
637.43	39.79
637.57	102.98
637.72	53.83
637.87	23.41
638.02	30.43
638.17	67.88
638.32	28.09
638.46	2.34
638.61	28.09
638.76	88.94
638.91	0.00
639.06	4.68
639.20	60.85
639.35	30.43
639.50	35.11
639.65	102.98
639.80	18.72
639.94	28.09
640.09	21.06
640.24	37.45
640.39	9.36
640.54	7.02
640.68	88.94
640.83	0.00
640.98	86.60
641.13	95.96
641.27	32.77
641.42	14.04
641.57	0.00
641.72	95.96
641.86	49.15
642.01	21.06
642.16	35.11
642.31	95.96
642.45	25.75
642.60	56.17
642.75	65.54
642.90	72.56
643.04	30.43
643.19	110.01
643.34	58.51
643.48	0.00
643.63	102.98
643.78	39.79
643.93	112.35
644.07	0.00
644.22	0.00
644.37	0.00
644.51	0.00
644.66	102.98
644.81	84.26
644.95	100.64
645.10	56.17
645.25	37.45
645.39	35.11
645.54	79.58
645.69	93.62
645.83	16.38
645.98	63.19
646.13	39.79
646.27	0.00
646.42	11.70
646.57	65.54
646.71	56.17
646.86	28.09
647.00	79.58
647.15	35.11
647.30	107.66
647.44	0.00
647.59	60.85
647.74	0.00
647.88	32.77
648.03	0.00
648.17	0.00
648.32	30.43
648.47	60.85
648.61	0.00
648.76	25.75
648.90	46.81
649.05	7.02
649.20	53.83
649.34	21.06
649.49	16.38
649.63	93.62
649.78	23.41
649.92	0.00
650.07	79.58
650.21	86.60
650.36	58.51
650.51	112.35
650.65	25.75
650.80	0.00
650.94	0.00
651.09	53.83
651.23	44.47
651.38	0.00
651.52	0.00
651.67	84.26
651.81	102.98
651.96	35.11
652.10	0.00
652.25	2.34
652.39	58.51
652.54	72.56
652.68	93.62
652.83	11.70
652.97	53.83
653.12	91.28
653.26	0.00
653.41	9.36
653.55	46.81
653.70	98.30
653.84	0.00
653.99	30.43
654.13	95.96
654.27	65.54
654.42	110.01
654.56	70.22
654.71	84.26
654.85	21.06
655.00	21.06
655.14	4.68
655.29	9.36
655.43	37.45
655.57	49.15
655.72	11.70
655.86	72.56
656.01	4.68
656.15	98.30
656.30	102.98
656.44	70.22
656.58	58.51
656.73	100.64
656.87	53.83
657.01	28.09
657.16	53.83
657.30	39.79
657.45	28.09
657.59	0.00
657.73	18.72
657.88	0.00
658.02	14.04
658.16	70.22
658.31	49.15
658.45	14.04
658.60	63.19
658.74	53.83
658.88	56.17
659.03	9.36
659.17	0.00
659.31	0.00
659.46	79.58
659.60	0.00
659.74	65.54
659.89	18.72
660.03	93.62
660.17	0.00
660.32	44.47
660.46	86.60
660.60	46.81
660.74	9.36
660.89	0.00
661.03	7.02
661.17	0.00
661.32	77.24
661.46	42.13
661.60	72.56
661.74	140.43
661.89	70.22
662.03	14.04
662.17	0.00
662.31	65.54
662.46	0.00
662.60	42.13
662.74	0.00
662.88	58.51
663.03	53.83
663.17	72.56
663.31	2.34
663.45	25.75
663.60	0.00
663.74	25.75
663.88	16.38
664.02	60.85
664.17	0.00
664.31	9.36
664.45	95.96
664.59	4.68
664.73	14.04
664.88	0.00
665.02	18.72
665.16	49.15
665.30	37.45
665.44	93.62
665.59	46.81
665.73	9.36
665.87	112.35
666.01	74.90
666.15	0.00
666.29	58.51
666.44	44.47
666.58	21.06
666.72	37.45
666.86	4.68
667.00	25.75
667.14	67.88
667.28	98.30
667.43	49.15
667.57	0.00
667.71	0.00
667.85	56.17
667.99	63.19
668.13	35.11
668.27	25.75
668.41	28.09
668.56	86.60
668.70	42.13
668.84	70.22
668.98	79.58
669.12	4.68
669.26	74.90
669.40	53.83
669.54	9.36
669.68	0.00
669.82	84.26
669.96	67.88
670.10	25.75
670.25	67.88
670.39	49.15
670.53	124.05
670.67	46.81
670.81	14.04
670.95	0.00
671.09	28.09
671.23	102.98
671.37	0.00
671.51	16.38
671.65	42.13
671.79	25.75
671.93	98.30
672.07	77.24
672.21	0.00
672.35	16.38
672.49	0.00
672.63	0.00
672.77	39.79
672.91	56.17
673.05	7.02
673.19	28.09
673.33	74.90
673.47	81.92
673.61	7.02
673.75	44.47
673.89	30.43
674.03	0.00
674.17	84.26
674.31	25.75
674.45	0.00
674.59	77.24
674.73	35.11
674.87	0.00
675.01	2.34
675.15	44.47
675.29	102.98
675.43	86.60
675.56	14.04
675.70	46.81
675.84	23.41
675.98	9.36
676.12	86.60
676.26	25.75
676.40	49.15
676.54	65.54
676.68	9.36
676.82	0.00
676.96	0.00
677.10	21.06
677.23	51.49
677.37	56.17
677.51	23.41
677.65	65.54
677.79	44.47
677.93	46.81
678.07	60.85
678.21	77.24
678.34	0.00
678.48	63.19
678.62	28.09
678.76	44.47
678.90	0.00
679.04	2.34
679.18	25.75
679.31	58.51
679.45	42.13
679.59	39.79
679.73	49.15
679.87	0.00
680.00	0.00
680.14	42.13
680.28	77.24
680.42	39.79
680.56	58.51
680.70	70.22
680.83	7.02
680.97	4.68
681.11	14.04
681.25	4.68
681.39	46.81
681.52	168.52
681.66	51.49
681.80	39.79
681.94	0.00
682.07	0.00
682.21	95.96
682.35	72.56
682.49	16.38
682.62	60.85
682.76	74.90
682.90	35.11
683.04	0.00
683.17	23.41
683.31	0.00
683.45	0.00
683.59	14.04
683.72	23.41
683.86	0.00
684.00	100.64
684.13	14.04
684.27	30.43
684.41	39.79
684.55	46.81
684.68	63.19
684.82	46.81
684.96	0.00
685.09	63.19
685.23	117.03
685.37	77.24
685.50	16.38
685.64	23.41
685.78	60.85
685.91	0.00
686.05	0.00
686.19	63.19
686.32	0.00
686.46	25.75
686.60	28.09
686.73	100.64
686.87	0.00
687.01	37.45
687.14	9.36
687.28	0.00
687.42	74.90
687.55	60.85
687.69	0.00
687.82	0.00
687.96	51.49
688.10	60.85
688.23	16.38
688.37	0.00
688.50	0.00
688.64	35.11
688.78	21.06
688.91	0.00
689.05	32.77
689.18	65.54
689.32	37.45
689.46	49.15
689.59	30.43
689.73	39.79
689.86	7.02
690.00	51.49
690.13	32.77
690.27	25.75
690.41	0.00
690.54	0.00
690.68	2.34
690.81	30.43
690.95	37.45
691.08	25.75
691.22	77.24
691.35	28.09
691.49	16.38
691.62	28.09
691.76	0.00
691.89	53.83
692.03	32.77
692.16	63.19
692.30	60.85
692.43	25.75
692.57	63.19
692.70	16.38
692.84	25.75
692.97	11.70
693.11	0.00
693.24	42.13
693.38	107.66
693.51	23.41
693.65	0.00
693.78	84.26
693.92	110.01
694.05	14.04
694.19	44.47
694.32	0.00
694.45	28.09
694.59	28.09
694.72	0.00
694.86	9.36
694.99	11.70
695.13	42.13
695.26	16.38
695.39	84.26
695.53	28.09
695.66	79.58
695.80	9.36
695.93	37.45
696.07	23.41
696.20	0.00
696.33	7.02
696.47	35.11
696.60	42.13
696.73	39.79
696.87	14.04
697.00	9.36
697.14	11.70
697.27	67.88
697.40	49.15
697.54	72.56
697.67	11.70
697.80	81.92
697.94	84.26
698.07	0.00
698.21	14.04
698.34	53.83
698.47	0.00
698.61	0.00
698.74	56.17
698.87	21.06
699.01	0.00
699.14	39.79
699.27	0.00
699.40	14.04
699.54	42.13
699.67	35.11
699.80	2.34
699.94	126.39
700.07	56.17
700.20	35.11
700.34	14.04
700.47	0.00
700.60	30.43
700.73	32.77
700.87	9.36
701.00	44.47
701.13	60.85
701.26	60.85
701.40	0.00
701.53	53.83
701.66	95.96
701.79	0.00
701.93	14.04
702.06	39.79
702.19	79.58
702.32	14.04
702.46	112.35
702.59	67.88
702.72	18.72
702.85	105.32
702.99	18.72
703.12	37.45
703.25	32.77
703.38	23.41
703.51	42.13
703.65	0.00
703.78	0.00
703.91	2.34
704.04	49.15
704.17	49.15
704.31	42.13
704.44	9.36
704.57	102.98
704.70	0.00
704.83	0.00
704.96	0.00
705.10	60.85
705.23	0.00
>>>>>End Processed Spectral Data<<<<<
