SpectraSuite Data File
++++++++++++++++++++++++++++++++++++
Date: Fri Oct 04 12:13:25 GMT-05:00 2013
User: price-jones
Dark Spectrum Present: No
Reference Spectrum Present: No
Number of Sampled Component Spectra: 1
Spectrometers: USB2+H05261
Integration Time (usec): 10000 (USB2+H05261)
Spectra Averaged: 1 (USB2+H05261)
Boxcar Smoothing: 0 (USB2+H05261)
Correct for Electrical Dark: No (USB2+H05261)
Strobe/Lamp Enabled: No (USB2+H05261)
Correct for Detector Non-linearity: No (USB2+H05261)
Correct for Stray Light: No (USB2+H05261)
Number of Pixels in Processed Spectrum: 2048
>>>>>Begin Processed Spectral Data<<<<<
365.73	0.00
365.92	0.00
366.12	0.00
366.32	0.00
366.52	0.00
366.72	0.00
366.91	0.00
367.11	0.00
367.31	0.00
367.51	0.00
367.70	0.00
367.90	0.00
368.10	0.00
368.30	0.00
368.49	0.00
368.69	0.00
368.89	0.00
369.09	0.00
369.28	0.00
369.48	0.00
369.68	0.00
369.87	0.00
370.07	0.00
370.27	0.00
370.47	0.00
370.66	0.00
370.86	0.00
371.06	0.00
371.25	0.00
371.45	0.00
371.65	0.00
371.84	0.00
372.04	7.02
372.24	0.00
372.44	0.00
372.63	16.38
372.83	0.00
373.03	53.83
373.22	37.45
373.42	88.94
373.62	16.38
373.81	53.83
374.01	49.15
374.21	37.45
374.40	65.54
374.60	63.19
374.79	4.68
374.99	4.68
375.19	4.68
375.38	0.00
375.58	0.00
375.78	39.79
375.97	114.69
376.17	56.17
376.37	44.47
376.56	53.83
376.76	28.09
376.95	53.83
377.15	16.38
377.35	86.60
377.54	0.00
377.74	46.81
377.93	0.00
378.13	14.04
378.33	11.70
378.52	0.00
378.72	23.41
378.91	0.00
379.11	4.68
379.31	7.02
379.50	42.13
379.70	91.28
379.89	16.38
380.09	0.00
380.28	14.04
380.48	30.43
380.68	35.11
380.87	7.02
381.07	0.00
381.26	77.24
381.46	46.81
381.65	0.00
381.85	0.00
382.04	9.36
382.24	0.00
382.43	0.00
382.63	35.11
382.83	0.00
383.02	11.70
383.22	4.68
383.41	0.00
383.61	67.88
383.80	42.13
384.00	58.51
384.19	46.81
384.39	7.02
384.58	28.09
384.78	0.00
384.97	0.00
385.17	0.00
385.36	23.41
385.56	42.13
385.75	35.11
385.95	4.68
386.14	51.49
386.34	49.15
386.53	21.06
386.72	11.70
386.92	37.45
387.11	18.72
387.31	0.00
387.50	30.43
387.70	7.02
387.89	53.83
388.09	67.88
388.28	4.68
388.48	16.38
388.67	42.13
388.86	51.49
389.06	37.45
389.25	11.70
389.45	0.00
389.64	37.45
389.84	63.19
390.03	23.41
390.22	7.02
390.42	37.45
390.61	28.09
390.81	23.41
391.00	0.00
391.19	0.00
391.39	4.68
391.58	46.81
391.78	0.00
391.97	0.00
392.16	42.13
392.36	14.04
392.55	0.00
392.75	16.38
392.94	39.79
393.13	0.00
393.33	0.00
393.52	11.70
393.71	51.49
393.91	0.00
394.10	58.51
394.29	30.43
394.49	18.72
394.68	65.54
394.88	30.43
395.07	28.09
395.26	16.38
395.46	28.09
395.65	0.00
395.84	0.00
396.04	72.56
396.23	25.75
396.42	11.70
396.62	0.00
396.81	46.81
397.00	18.72
397.19	95.96
397.39	30.43
397.58	0.00
397.77	0.00
397.97	16.38
398.16	7.02
398.35	35.11
398.55	63.19
398.74	35.11
398.93	0.00
399.12	0.00
399.32	39.79
399.51	42.13
399.70	4.68
399.90	0.00
400.09	0.00
400.28	0.00
400.47	0.00
400.67	9.36
400.86	25.75
401.05	49.15
401.24	49.15
401.44	49.15
401.63	49.15
401.82	58.51
402.01	0.00
402.21	9.36
402.40	4.68
402.59	23.41
402.78	39.79
402.97	16.38
403.17	0.00
403.36	37.45
403.55	9.36
403.74	9.36
403.93	0.00
404.13	0.00
404.32	21.06
404.51	30.43
404.70	25.75
404.89	35.11
405.09	21.06
405.28	28.09
405.47	0.00
405.66	35.11
405.85	23.41
406.05	44.47
406.24	67.88
406.43	86.60
406.62	58.51
406.81	28.09
407.00	49.15
407.20	4.68
407.39	51.49
407.58	4.68
407.77	18.72
407.96	39.79
408.15	44.47
408.34	2.34
408.54	0.00
408.73	0.00
408.92	37.45
409.11	4.68
409.30	11.70
409.49	0.00
409.68	51.49
409.87	21.06
410.07	0.00
410.26	0.00
410.45	23.41
410.64	0.00
410.83	114.69
411.02	0.00
411.21	42.13
411.40	16.38
411.59	49.15
411.78	0.00
411.98	81.92
412.17	63.19
412.36	4.68
412.55	56.17
412.74	0.00
412.93	0.00
413.12	0.00
413.31	0.00
413.50	0.00
413.69	0.00
413.88	14.04
414.07	4.68
414.26	32.77
414.45	0.00
414.64	28.09
414.83	11.70
415.02	0.00
415.22	72.56
415.41	77.24
415.60	102.98
415.79	0.00
415.98	39.79
416.17	51.49
416.36	18.72
416.55	0.00
416.74	0.00
416.93	39.79
417.12	58.51
417.31	79.58
417.50	32.77
417.69	39.79
417.88	0.00
418.07	0.00
418.26	86.60
418.45	28.09
418.64	0.00
418.83	46.81
419.02	53.83
419.21	0.00
419.39	39.79
419.58	0.00
419.77	0.00
419.96	0.00
420.15	21.06
420.34	4.68
420.53	51.49
420.72	0.00
420.91	30.43
421.10	28.09
421.29	0.00
421.48	7.02
421.67	0.00
421.86	44.47
422.05	53.83
422.24	0.00
422.43	21.06
422.61	49.15
422.80	51.49
422.99	0.00
423.18	42.13
423.37	0.00
423.56	0.00
423.75	0.00
423.94	18.72
424.13	30.43
424.32	67.88
424.50	84.26
424.69	0.00
424.88	23.41
425.07	67.88
425.26	2.34
425.45	0.00
425.64	23.41
425.83	0.00
426.01	74.90
426.20	0.00
426.39	39.79
426.58	39.79
426.77	0.00
426.96	0.00
427.15	30.43
427.33	32.77
427.52	95.96
427.71	0.00
427.90	63.19
428.09	11.70
428.28	9.36
428.46	81.92
428.65	18.72
428.84	28.09
429.03	11.70
429.22	81.92
429.40	0.00
429.59	4.68
429.78	39.79
429.97	0.00
430.16	105.32
430.34	16.38
430.53	30.43
430.72	56.17
430.91	65.54
431.10	72.56
431.28	60.85
431.47	28.09
431.66	0.00
431.85	49.15
432.03	35.11
432.22	84.26
432.41	37.45
432.60	23.41
432.79	9.36
432.97	23.41
433.16	0.00
433.35	0.00
433.54	0.00
433.72	46.81
433.91	0.00
434.10	0.00
434.28	9.36
434.47	23.41
434.66	49.15
434.85	72.56
435.03	56.17
435.22	39.79
435.41	0.00
435.59	7.02
435.78	70.22
435.97	7.02
436.16	72.56
436.34	37.45
436.53	51.49
436.72	39.79
436.90	4.68
437.09	32.77
437.28	0.00
437.46	51.49
437.65	39.79
437.84	88.94
438.02	2.34
438.21	32.77
438.40	0.00
438.58	58.51
438.77	9.36
438.96	51.49
439.14	53.83
439.33	16.38
439.52	37.45
439.70	23.41
439.89	35.11
440.08	51.49
440.26	0.00
440.45	0.00
440.63	74.90
440.82	25.75
441.01	9.36
441.19	37.45
441.38	39.79
441.57	46.81
441.75	105.32
441.94	21.06
442.12	16.38
442.31	0.00
442.50	72.56
442.68	32.77
442.87	7.02
443.05	7.02
443.24	0.00
443.43	56.17
443.61	0.00
443.80	44.47
443.98	42.13
444.17	46.81
444.35	0.00
444.54	0.00
444.73	21.06
444.91	9.36
445.10	42.13
445.28	74.90
445.47	60.85
445.65	42.13
445.84	49.15
446.02	37.45
446.21	37.45
446.39	0.00
446.58	81.92
446.77	79.58
446.95	25.75
447.14	30.43
447.32	25.75
447.51	72.56
447.69	65.54
447.88	98.30
448.06	28.09
448.25	11.70
448.43	35.11
448.62	63.19
448.80	58.51
448.99	14.04
449.17	79.58
449.36	37.45
449.54	67.88
449.73	28.09
449.91	42.13
450.10	25.75
450.28	60.85
450.46	46.81
450.65	77.24
450.83	46.81
451.02	93.62
451.20	14.04
451.39	28.09
451.57	32.77
451.76	4.68
451.94	0.00
452.13	51.49
452.31	65.54
452.49	9.36
452.68	53.83
452.86	74.90
453.05	60.85
453.23	56.17
453.42	53.83
453.60	0.00
453.78	0.00
453.97	25.75
454.15	2.34
454.34	0.00
454.52	0.00
454.70	11.70
454.89	46.81
455.07	72.56
455.26	42.13
455.44	67.88
455.62	114.69
455.81	51.49
455.99	79.58
456.17	7.02
456.36	9.36
456.54	74.90
456.73	16.38
456.91	11.70
457.09	0.00
457.28	21.06
457.46	9.36
457.64	9.36
457.83	18.72
458.01	65.54
458.19	21.06
458.38	7.02
458.56	0.00
458.74	86.60
458.93	79.58
459.11	39.79
459.29	25.75
459.48	65.54
459.66	32.77
459.84	32.77
460.03	35.11
460.21	74.90
460.39	0.00
460.57	0.00
460.76	53.83
460.94	0.00
461.12	72.56
461.31	81.92
461.49	100.64
461.67	18.72
461.85	77.24
462.04	35.11
462.22	93.62
462.40	0.00
462.59	60.85
462.77	18.72
462.95	56.17
463.13	107.66
463.32	21.06
463.50	67.88
463.68	28.09
463.86	23.41
464.05	0.00
464.23	7.02
464.41	16.38
464.59	0.00
464.78	70.22
464.96	42.13
465.14	60.85
465.32	49.15
465.50	53.83
465.69	30.43
465.87	86.60
466.05	23.41
466.23	49.15
466.41	37.45
466.60	7.02
466.78	0.00
466.96	72.56
467.14	67.88
467.32	16.38
467.51	14.04
467.69	81.92
467.87	32.77
468.05	0.00
468.23	21.06
468.41	9.36
468.60	16.38
468.78	44.47
468.96	11.70
469.14	0.00
469.32	0.00
469.50	86.60
469.69	4.68
469.87	0.00
470.05	56.17
470.23	4.68
470.41	23.41
470.59	88.94
470.77	65.54
470.95	18.72
471.14	44.47
471.32	63.19
471.50	4.68
471.68	56.17
471.86	37.45
472.04	25.75
472.22	2.34
472.40	44.47
472.58	30.43
472.77	16.38
472.95	58.51
473.13	79.58
473.31	14.04
473.49	25.75
473.67	42.13
473.85	39.79
474.03	105.32
474.21	53.83
474.39	16.38
474.57	42.13
474.75	0.00
474.93	0.00
475.12	56.17
475.30	93.62
475.48	58.51
475.66	11.70
475.84	0.00
476.02	28.09
476.20	44.47
476.38	51.49
476.56	21.06
476.74	67.88
476.92	53.83
477.10	67.88
477.28	0.00
477.46	0.00
477.64	93.62
477.82	105.32
478.00	2.34
478.18	93.62
478.36	0.00
478.54	28.09
478.72	53.83
478.90	32.77
479.08	65.54
479.26	65.54
479.44	67.88
479.62	14.04
479.80	21.06
479.98	4.68
480.16	7.02
480.34	53.83
480.52	105.32
480.70	0.00
480.88	37.45
481.06	86.60
481.24	32.77
481.41	46.81
481.59	46.81
481.77	32.77
481.95	4.68
482.13	0.00
482.31	2.34
482.49	30.43
482.67	0.00
482.85	74.90
483.03	0.00
483.21	11.70
483.39	25.75
483.57	16.38
483.74	32.77
483.92	25.75
484.10	23.41
484.28	86.60
484.46	4.68
484.64	65.54
484.82	63.19
485.00	51.49
485.18	63.19
485.35	21.06
485.53	56.17
485.71	4.68
485.89	37.45
486.07	49.15
486.25	53.83
486.43	28.09
486.61	63.19
486.78	32.77
486.96	2.34
487.14	46.81
487.32	53.83
487.50	23.41
487.68	4.68
487.85	30.43
488.03	30.43
488.21	37.45
488.39	0.00
488.57	81.92
488.75	18.72
488.92	42.13
489.10	4.68
489.28	79.58
489.46	28.09
489.64	67.88
489.81	98.30
489.99	4.68
490.17	51.49
490.35	84.26
490.53	0.00
490.70	0.00
490.88	32.77
491.06	9.36
491.24	0.00
491.41	16.38
491.59	98.30
491.77	32.77
491.95	0.00
492.13	39.79
492.30	18.72
492.48	42.13
492.66	63.19
492.84	65.54
493.01	74.90
493.19	30.43
493.37	72.56
493.54	44.47
493.72	37.45
493.90	131.07
494.08	74.90
494.25	65.54
494.43	44.47
494.61	53.83
494.79	0.00
494.96	16.38
495.14	4.68
495.32	11.70
495.49	23.41
495.67	0.00
495.85	37.45
496.02	35.11
496.20	63.19
496.38	65.54
496.55	0.00
496.73	14.04
496.91	23.41
497.09	51.49
497.26	21.06
497.44	4.68
497.62	0.00
497.79	7.02
497.97	102.98
498.14	86.60
498.32	58.51
498.50	44.47
498.67	51.49
498.85	53.83
499.03	63.19
499.20	37.45
499.38	91.28
499.56	44.47
499.73	11.70
499.91	51.49
500.08	44.47
500.26	16.38
500.44	28.09
500.61	16.38
500.79	49.15
500.97	2.34
501.14	0.00
501.32	0.00
501.49	11.70
501.67	39.79
501.84	46.81
502.02	21.06
502.20	105.32
502.37	67.88
502.55	23.41
502.72	72.56
502.90	0.00
503.07	4.68
503.25	21.06
503.43	16.38
503.60	56.17
503.78	58.51
503.95	35.11
504.13	44.47
504.30	79.58
504.48	18.72
504.65	2.34
504.83	0.00
505.01	21.06
505.18	37.45
505.36	25.75
505.53	72.56
505.71	35.11
505.88	0.00
506.06	74.90
506.23	16.38
506.41	100.64
506.58	110.01
506.76	35.11
506.93	42.13
507.11	51.49
507.28	42.13
507.46	0.00
507.63	49.15
507.81	102.98
507.98	7.02
508.16	18.72
508.33	0.00
508.50	72.56
508.68	2.34
508.85	86.60
509.03	23.41
509.20	35.11
509.38	79.58
509.55	63.19
509.73	56.17
509.90	44.47
510.08	0.00
510.25	93.62
510.42	23.41
510.60	88.94
510.77	11.70
510.95	60.85
511.12	77.24
511.30	16.38
511.47	46.81
511.64	39.79
511.82	0.00
511.99	81.92
512.17	114.69
512.34	25.75
512.51	4.68
512.69	0.00
512.86	51.49
513.04	23.41
513.21	0.00
513.38	58.51
513.56	60.85
513.73	0.00
513.90	37.45
514.08	21.06
514.25	124.05
514.43	39.79
514.60	23.41
514.77	37.45
514.95	0.00
515.12	0.00
515.29	0.00
515.47	105.32
515.64	53.83
515.81	16.38
515.99	28.09
516.16	88.94
516.33	0.00
516.51	42.13
516.68	63.19
516.85	74.90
517.03	107.66
517.20	23.41
517.37	145.11
517.54	46.81
517.72	18.72
517.89	32.77
518.06	88.94
518.24	105.32
518.41	51.49
518.58	58.51
518.75	32.77
518.93	35.11
519.10	98.30
519.27	84.26
519.45	49.15
519.62	44.47
519.79	60.85
519.96	63.19
520.14	107.66
520.31	28.09
520.48	4.68
520.65	32.77
520.83	44.47
521.00	84.26
521.17	37.45
521.34	95.96
521.52	100.64
521.69	58.51
521.86	56.17
522.03	79.58
522.20	70.22
522.38	0.00
522.55	0.00
522.72	2.34
522.89	16.38
523.07	14.04
523.24	46.81
523.41	67.88
523.58	21.06
523.75	0.00
523.92	53.83
524.10	0.00
524.27	60.85
524.44	30.43
524.61	18.72
524.78	58.51
524.96	135.75
525.13	9.36
525.30	23.41
525.47	91.28
525.64	37.45
525.81	53.83
525.98	49.15
526.16	0.00
526.33	4.68
526.50	28.09
526.67	32.77
526.84	23.41
527.01	0.00
527.18	14.04
527.36	105.32
527.53	81.92
527.70	114.69
527.87	65.54
528.04	0.00
528.21	49.15
528.38	49.15
528.55	86.60
528.72	79.58
528.89	81.92
529.07	25.75
529.24	0.00
529.41	4.68
529.58	63.19
529.75	37.45
529.92	0.00
530.09	0.00
530.26	67.88
530.43	21.06
530.60	91.28
530.77	9.36
530.94	42.13
531.11	0.00
531.28	18.72
531.46	0.00
531.63	49.15
531.80	51.49
531.97	39.79
532.14	58.51
532.31	58.51
532.48	18.72
532.65	39.79
532.82	74.90
532.99	51.49
533.16	60.85
533.33	77.24
533.50	79.58
533.67	35.11
533.84	0.00
534.01	0.00
534.18	28.09
534.35	0.00
534.52	49.15
534.69	56.17
534.86	23.41
535.03	16.38
535.20	49.15
535.37	39.79
535.54	23.41
535.71	9.36
535.88	2.34
536.05	58.51
536.22	9.36
536.38	63.19
536.55	0.00
536.72	4.68
536.89	110.01
537.06	37.45
537.23	91.28
537.40	126.39
537.57	28.09
537.74	46.81
537.91	9.36
538.08	37.45
538.25	14.04
538.42	44.47
538.59	56.17
538.75	7.02
538.92	77.24
539.09	79.58
539.26	67.88
539.43	102.98
539.60	32.77
539.77	53.83
539.94	70.22
540.11	0.00
540.28	35.11
540.44	16.38
540.61	46.81
540.78	7.02
540.95	46.81
541.12	18.72
541.29	70.22
541.46	16.38
541.62	32.77
541.79	58.51
541.96	60.85
542.13	0.00
542.30	58.51
542.47	60.85
542.63	0.00
542.80	72.56
542.97	79.58
543.14	14.04
543.31	16.38
543.48	0.00
543.64	60.85
543.81	77.24
543.98	0.00
544.15	93.62
544.32	0.00
544.48	152.13
544.65	14.04
544.82	39.79
544.99	16.38
545.16	56.17
545.32	16.38
545.49	95.96
545.66	35.11
545.83	0.00
546.00	16.38
546.16	14.04
546.33	86.60
546.50	25.75
546.67	65.54
546.83	32.77
547.00	86.60
547.17	88.94
547.34	44.47
547.50	0.00
547.67	11.70
547.84	107.66
548.00	60.85
548.17	0.00
548.34	23.41
548.51	32.77
548.67	107.66
548.84	42.13
549.01	58.51
549.18	25.75
549.34	23.41
549.51	51.49
549.68	39.79
549.84	16.38
550.01	37.45
550.18	91.28
550.34	39.79
550.51	93.62
550.68	28.09
550.84	30.43
551.01	7.02
551.18	0.00
551.34	77.24
551.51	107.66
551.68	53.83
551.84	21.06
552.01	14.04
552.18	102.98
552.34	70.22
552.51	9.36
552.68	74.90
552.84	30.43
553.01	124.05
553.18	4.68
553.34	0.00
553.51	93.62
553.67	14.04
553.84	81.92
554.01	44.47
554.17	100.64
554.34	84.26
554.51	100.64
554.67	65.54
554.84	81.92
555.00	44.47
555.17	21.06
555.33	9.36
555.50	11.70
555.67	25.75
555.83	93.62
556.00	25.75
556.16	0.00
556.33	84.26
556.50	56.17
556.66	93.62
556.83	77.24
556.99	0.00
557.16	23.41
557.32	42.13
557.49	98.30
557.65	0.00
557.82	0.00
557.98	21.06
558.15	0.00
558.32	60.85
558.48	72.56
558.65	14.04
558.81	11.70
558.98	0.00
559.14	77.24
559.31	58.51
559.47	93.62
559.64	77.24
559.80	42.13
559.97	65.54
560.13	60.85
560.30	72.56
560.46	21.06
560.63	23.41
560.79	16.38
560.96	25.75
561.12	14.04
561.29	0.00
561.45	67.88
561.61	21.06
561.78	58.51
561.94	0.00
562.11	14.04
562.27	58.51
562.44	32.77
562.60	58.51
562.77	0.00
562.93	110.01
563.10	23.41
563.26	44.47
563.42	46.81
563.59	46.81
563.75	25.75
563.92	44.47
564.08	25.75
564.24	105.32
564.41	2.34
564.57	21.06
564.74	60.85
564.90	7.02
565.07	39.79
565.23	0.00
565.39	0.00
565.56	0.00
565.72	49.15
565.88	53.83
566.05	74.90
566.21	88.94
566.38	93.62
566.54	49.15
566.70	4.68
566.87	0.00
567.03	53.83
567.19	72.56
567.36	60.85
567.52	14.04
567.68	56.17
567.85	0.00
568.01	88.94
568.17	51.49
568.34	30.43
568.50	0.00
568.66	0.00
568.83	58.51
568.99	39.79
569.15	39.79
569.32	0.00
569.48	44.47
569.64	28.09
569.81	63.19
569.97	18.72
570.13	51.49
570.30	0.00
570.46	0.00
570.62	84.26
570.78	74.90
570.95	23.41
571.11	98.30
571.27	65.54
571.43	95.96
571.60	135.75
571.76	53.83
571.92	9.36
572.09	2.34
572.25	18.72
572.41	49.15
572.57	0.00
572.74	84.26
572.90	9.36
573.06	35.11
573.22	16.38
573.38	46.81
573.55	51.49
573.71	30.43
573.87	112.35
574.03	46.81
574.20	23.41
574.36	44.47
574.52	93.62
574.68	14.04
574.84	56.17
575.01	32.77
575.17	0.00
575.33	35.11
575.49	0.00
575.65	9.36
575.82	32.77
575.98	25.75
576.14	28.09
576.30	58.51
576.46	39.79
576.62	35.11
576.79	63.19
576.95	46.81
577.11	0.00
577.27	102.98
577.43	65.54
577.59	88.94
577.75	39.79
577.92	16.38
578.08	32.77
578.24	107.66
578.40	25.75
578.56	102.98
578.72	16.38
578.88	0.00
579.04	70.22
579.21	74.90
579.37	30.43
579.53	84.26
579.69	32.77
579.85	0.00
580.01	0.00
580.17	21.06
580.33	0.00
580.49	14.04
580.65	11.70
580.82	25.75
580.98	53.83
581.14	60.85
581.30	11.70
581.46	16.38
581.62	0.00
581.78	63.19
581.94	110.01
582.10	0.00
582.26	30.43
582.42	53.83
582.58	2.34
582.74	21.06
582.90	58.51
583.06	11.70
583.22	39.79
583.38	95.96
583.54	74.90
583.70	28.09
583.86	2.34
584.02	39.79
584.18	128.73
584.34	42.13
584.50	0.00
584.66	2.34
584.82	77.24
584.98	58.51
585.14	32.77
585.30	9.36
585.46	0.00
585.62	72.56
585.78	25.75
585.94	46.81
586.10	84.26
586.26	79.58
586.42	88.94
586.58	30.43
586.74	70.22
586.90	9.36
587.06	49.15
587.22	0.00
587.38	56.17
587.54	0.00
587.70	39.79
587.86	67.88
588.02	67.88
588.18	63.19
588.34	4.68
588.49	70.22
588.65	39.79
588.81	42.13
588.97	39.79
589.13	44.47
589.29	58.51
589.45	86.60
589.61	35.11
589.77	21.06
589.93	18.72
590.08	28.09
590.24	4.68
590.40	35.11
590.56	0.00
590.72	37.45
590.88	28.09
591.04	18.72
591.20	84.26
591.35	37.45
591.51	11.70
591.67	23.41
591.83	56.17
591.99	37.45
592.15	32.77
592.31	21.06
592.46	25.75
592.62	56.17
592.78	0.00
592.94	21.06
593.10	44.47
593.26	9.36
593.41	0.00
593.57	28.09
593.73	44.47
593.89	72.56
594.05	42.13
594.20	56.17
594.36	105.32
594.52	28.09
594.68	30.43
594.84	65.54
594.99	0.00
595.15	11.70
595.31	0.00
595.47	23.41
595.62	0.00
595.78	30.43
595.94	35.11
596.10	7.02
596.25	4.68
596.41	56.17
596.57	28.09
596.73	67.88
596.88	42.13
597.04	0.00
597.20	23.41
597.36	2.34
597.51	70.22
597.67	53.83
597.83	35.11
597.99	58.51
598.14	135.75
598.30	49.15
598.46	35.11
598.61	53.83
598.77	0.00
598.93	117.03
599.09	84.26
599.24	112.35
599.40	18.72
599.56	72.56
599.71	42.13
599.87	23.41
600.03	67.88
600.18	0.00
600.34	39.79
600.50	119.37
600.65	84.26
600.81	91.28
600.97	0.00
601.12	74.90
601.28	53.83
601.44	23.41
601.59	49.15
601.75	0.00
601.91	35.11
602.06	88.94
602.22	30.43
602.37	67.88
602.53	0.00
602.69	46.81
602.84	56.17
603.00	39.79
603.16	0.00
603.31	0.00
603.47	4.68
603.62	81.92
603.78	16.38
603.94	51.49
604.09	14.04
604.25	56.17
604.40	74.90
604.56	44.47
604.71	0.00
604.87	56.17
605.03	42.13
605.18	72.56
605.34	11.70
605.49	98.30
605.65	25.75
605.80	28.09
605.96	9.36
606.12	11.70
606.27	72.56
606.43	102.98
606.58	51.49
606.74	28.09
606.89	42.13
607.05	79.58
607.20	49.15
607.36	23.41
607.51	18.72
607.67	53.83
607.82	0.00
607.98	74.90
608.13	0.00
608.29	9.36
608.44	28.09
608.60	81.92
608.75	100.64
608.91	72.56
609.06	77.24
609.22	81.92
609.37	86.60
609.53	0.00
609.68	77.24
609.84	70.22
609.99	39.79
610.15	0.00
610.30	39.79
610.46	60.85
610.61	23.41
610.76	0.00
610.92	37.45
611.07	32.77
611.23	65.54
611.38	117.03
611.54	84.26
611.69	0.00
611.84	21.06
612.00	23.41
612.15	35.11
612.31	95.96
612.46	67.88
612.62	46.81
612.77	49.15
612.92	0.00
613.08	105.32
613.23	32.77
613.39	14.04
613.54	53.83
613.69	0.00
613.85	56.17
614.00	0.00
614.15	65.54
614.31	18.72
614.46	32.77
614.62	44.47
614.77	84.26
614.92	72.56
615.08	35.11
615.23	16.38
615.38	18.72
615.54	107.66
615.69	56.17
615.84	16.38
616.00	35.11
616.15	18.72
616.30	74.90
616.46	7.02
616.61	51.49
616.76	77.24
616.92	14.04
617.07	95.96
617.22	102.98
617.37	37.45
617.53	7.02
617.68	51.49
617.83	81.92
617.99	65.54
618.14	51.49
618.29	0.00
618.45	119.37
618.60	9.36
618.75	25.75
618.90	28.09
619.06	63.19
619.21	60.85
619.36	0.00
619.51	0.00
619.67	42.13
619.82	14.04
619.97	21.06
620.12	98.30
620.28	49.15
620.43	0.00
620.58	0.00
620.73	28.09
620.89	42.13
621.04	46.81
621.19	79.58
621.34	74.90
621.49	35.11
621.65	30.43
621.80	25.75
621.95	107.66
622.10	67.88
622.25	98.30
622.41	23.41
622.56	95.96
622.71	35.11
622.86	39.79
623.01	0.00
623.16	0.00
623.32	0.00
623.47	0.00
623.62	107.66
623.77	60.85
623.92	53.83
624.07	81.92
624.23	60.85
624.38	0.00
624.53	39.79
624.68	7.02
624.83	18.72
624.98	0.00
625.13	42.13
625.29	0.00
625.44	30.43
625.59	0.00
625.74	28.09
625.89	32.77
626.04	56.17
626.19	84.26
626.34	168.52
626.49	16.38
626.65	58.51
626.80	53.83
626.95	51.49
627.10	37.45
627.25	53.83
627.40	0.00
627.55	77.24
627.70	35.11
627.85	0.00
628.00	60.85
628.15	51.49
628.30	32.77
628.45	100.64
628.60	79.58
628.76	23.41
628.91	60.85
629.06	65.54
629.21	9.36
629.36	79.58
629.51	46.81
629.66	51.49
629.81	30.43
629.96	14.04
630.11	0.00
630.26	95.96
630.41	49.15
630.56	49.15
630.71	30.43
630.86	2.34
631.01	37.45
631.16	16.38
631.31	93.62
631.46	44.47
631.61	0.00
631.76	49.15
631.91	0.00
632.06	30.43
632.21	37.45
632.36	44.47
632.51	21.06
632.66	95.96
632.81	67.88
632.96	42.13
633.10	58.51
633.25	0.00
633.40	4.68
633.55	74.90
633.70	28.09
633.85	53.83
634.00	65.54
634.15	11.70
634.30	37.45
634.45	49.15
634.60	44.47
634.75	72.56
634.90	91.28
635.05	79.58
635.19	11.70
635.34	67.88
635.49	44.47
635.64	79.58
635.79	102.98
635.94	42.13
636.09	0.00
636.24	23.41
636.39	86.60
636.53	56.17
636.68	46.81
636.83	37.45
636.98	30.43
637.13	0.00
637.28	9.36
637.43	32.77
637.57	58.51
637.72	25.75
637.87	0.00
638.02	86.60
638.17	84.26
638.32	42.13
638.46	42.13
638.61	56.17
638.76	112.35
638.91	0.00
639.06	49.15
639.20	0.00
639.35	93.62
639.50	56.17
639.65	42.13
639.80	0.00
639.94	0.00
640.09	16.38
640.24	21.06
640.39	16.38
640.54	0.00
640.68	79.58
640.83	86.60
640.98	0.00
641.13	28.09
641.27	53.83
641.42	60.85
641.57	4.68
641.72	4.68
641.86	58.51
642.01	49.15
642.16	53.83
642.31	0.00
642.45	11.70
642.60	0.00
642.75	37.45
642.90	100.64
643.04	93.62
643.19	25.75
643.34	18.72
643.48	23.41
643.63	4.68
643.78	0.00
643.93	42.13
644.07	7.02
644.22	67.88
644.37	0.00
644.51	16.38
644.66	28.09
644.81	30.43
644.95	14.04
645.10	0.00
645.25	39.79
645.39	74.90
645.54	117.03
645.69	0.00
645.83	46.81
645.98	18.72
646.13	63.19
646.27	30.43
646.42	0.00
646.57	21.06
646.71	32.77
646.86	42.13
647.00	28.09
647.15	46.81
647.30	37.45
647.44	35.11
647.59	30.43
647.74	63.19
647.88	72.56
648.03	58.51
648.17	7.02
648.32	42.13
648.47	30.43
648.61	0.00
648.76	70.22
648.90	11.70
649.05	65.54
649.20	49.15
649.34	2.34
649.49	0.00
649.63	0.00
649.78	44.47
649.92	0.00
650.07	51.49
650.21	93.62
650.36	74.90
650.51	74.90
650.65	42.13
650.80	74.90
650.94	0.00
651.09	30.43
651.23	0.00
651.38	0.00
651.52	0.00
651.67	0.00
651.81	18.72
651.96	9.36
652.10	72.56
652.25	124.05
652.39	0.00
652.54	25.75
652.68	79.58
652.83	46.81
652.97	0.00
653.12	18.72
653.26	0.00
653.41	77.24
653.55	91.28
653.70	18.72
653.84	39.79
653.99	32.77
654.13	0.00
654.27	25.75
654.42	79.58
654.56	112.35
654.71	56.17
654.85	77.24
655.00	93.62
655.14	0.00
655.29	0.00
655.43	14.04
655.57	67.88
655.72	25.75
655.86	4.68
656.01	23.41
656.15	39.79
656.30	0.00
656.44	0.00
656.58	30.43
656.73	65.54
656.87	0.00
657.01	0.00
657.16	32.77
657.30	0.00
657.45	7.02
657.59	44.47
657.73	58.51
657.88	14.04
658.02	23.41
658.16	70.22
658.31	9.36
658.45	21.06
658.60	0.00
658.74	14.04
658.88	18.72
659.03	98.30
659.17	7.02
659.31	30.43
659.46	0.00
659.60	16.38
659.74	74.90
659.89	46.81
660.03	28.09
660.17	72.56
660.32	91.28
660.46	51.49
660.60	81.92
660.74	154.48
660.89	25.75
661.03	35.11
661.17	25.75
661.32	58.51
661.46	25.75
661.60	81.92
661.74	25.75
661.89	56.17
662.03	23.41
662.17	70.22
662.31	51.49
662.46	9.36
662.60	25.75
662.74	84.26
662.88	25.75
663.03	35.11
663.17	37.45
663.31	79.58
663.45	0.00
663.60	7.02
663.74	88.94
663.88	9.36
664.02	86.60
664.17	0.00
664.31	67.88
664.45	14.04
664.59	30.43
664.73	4.68
664.88	14.04
665.02	74.90
665.16	9.36
665.30	81.92
665.44	51.49
665.59	100.64
665.73	95.96
665.87	37.45
666.01	77.24
666.15	21.06
666.29	16.38
666.44	65.54
666.58	0.00
666.72	32.77
666.86	37.45
667.00	67.88
667.14	63.19
667.28	58.51
667.43	16.38
667.57	0.00
667.71	60.85
667.85	70.22
667.99	9.36
668.13	81.92
668.27	16.38
668.41	72.56
668.56	30.43
668.70	44.47
668.84	23.41
668.98	14.04
669.12	0.00
669.26	0.00
669.40	37.45
669.54	81.92
669.68	42.13
669.82	53.83
669.96	0.00
670.10	56.17
670.25	11.70
670.39	51.49
670.53	7.02
670.67	7.02
670.81	37.45
670.95	56.17
671.09	39.79
671.23	0.00
671.37	56.17
671.51	0.00
671.65	2.34
671.79	32.77
671.93	58.51
672.07	32.77
672.21	30.43
672.35	35.11
672.49	0.00
672.63	107.66
672.77	110.01
672.91	65.54
673.05	0.00
673.19	28.09
673.33	0.00
673.47	16.38
673.61	11.70
673.75	0.00
673.89	0.00
674.03	23.41
674.17	25.75
674.31	30.43
674.45	0.00
674.59	2.34
674.73	39.79
674.87	28.09
675.01	2.34
675.15	18.72
675.29	56.17
675.43	58.51
675.56	86.60
675.70	21.06
675.84	0.00
675.98	30.43
676.12	0.00
676.26	0.00
676.40	32.77
676.54	46.81
676.68	35.11
676.82	67.88
676.96	0.00
677.10	49.15
677.23	25.75
677.37	7.02
677.51	105.32
677.65	0.00
677.79	0.00
677.93	28.09
678.07	9.36
678.21	65.54
678.34	2.34
678.48	16.38
678.62	67.88
678.76	21.06
678.90	74.90
679.04	35.11
679.18	18.72
679.31	21.06
679.45	25.75
679.59	42.13
679.73	60.85
679.87	28.09
680.00	0.00
680.14	23.41
680.28	74.90
680.42	37.45
680.56	11.70
680.70	70.22
680.83	14.04
680.97	28.09
681.11	74.90
681.25	107.66
681.39	28.09
681.52	30.43
681.66	63.19
681.80	58.51
681.94	25.75
682.07	32.77
682.21	16.38
682.35	56.17
682.49	28.09
682.62	25.75
682.76	0.00
682.90	28.09
683.04	46.81
683.17	28.09
683.31	2.34
683.45	35.11
683.59	28.09
683.72	72.56
683.86	0.00
684.00	81.92
684.13	18.72
684.27	28.09
684.41	11.70
684.55	32.77
684.68	51.49
684.82	0.00
684.96	51.49
685.09	0.00
685.23	0.00
685.37	21.06
685.50	51.49
685.64	32.77
685.78	46.81
685.91	0.00
686.05	11.70
686.19	77.24
686.32	65.54
686.46	53.83
686.60	28.09
686.73	28.09
686.87	72.56
687.01	39.79
687.14	51.49
687.28	91.28
687.42	35.11
687.55	14.04
687.69	74.90
687.82	46.81
687.96	32.77
688.10	46.81
688.23	95.96
688.37	0.00
688.50	16.38
688.64	7.02
688.78	86.60
688.91	110.01
689.05	7.02
689.18	0.00
689.32	37.45
689.46	56.17
689.59	70.22
689.73	72.56
689.86	98.30
690.00	0.00
690.13	0.00
690.27	63.19
690.41	4.68
690.54	9.36
690.68	63.19
690.81	25.75
690.95	0.00
691.08	65.54
691.22	63.19
691.35	42.13
691.49	39.79
691.62	93.62
691.76	39.79
691.89	16.38
692.03	0.00
692.16	25.75
692.30	30.43
692.43	77.24
692.57	42.13
692.70	30.43
692.84	67.88
692.97	37.45
693.11	0.00
693.24	46.81
693.38	0.00
693.51	14.04
693.65	0.00
693.78	0.00
693.92	4.68
694.05	11.70
694.19	86.60
694.32	35.11
694.45	51.49
694.59	77.24
694.72	49.15
694.86	21.06
694.99	28.09
695.13	18.72
695.26	53.83
695.39	51.49
695.53	32.77
695.66	23.41
695.80	53.83
695.93	81.92
696.07	28.09
696.20	67.88
696.33	46.81
696.47	11.70
696.60	11.70
696.73	16.38
696.87	28.09
697.00	0.00
697.14	44.47
697.27	18.72
697.40	0.00
697.54	86.60
697.67	110.01
697.80	25.75
697.94	0.00
698.07	93.62
698.21	11.70
698.34	28.09
698.47	16.38
698.61	23.41
698.74	4.68
698.87	0.00
699.01	0.00
699.14	60.85
699.27	0.00
699.40	30.43
699.54	51.49
699.67	51.49
699.80	32.77
699.94	14.04
700.07	35.11
700.20	63.19
700.34	63.19
700.47	9.36
700.60	25.75
700.73	37.45
700.87	39.79
701.00	67.88
701.13	16.38
701.26	14.04
701.40	39.79
701.53	9.36
701.66	18.72
701.79	0.00
701.93	32.77
702.06	11.70
702.19	16.38
702.32	4.68
702.46	4.68
702.59	18.72
702.72	0.00
702.85	32.77
702.99	4.68
703.12	74.90
703.25	0.00
703.38	21.06
703.51	0.00
703.65	0.00
703.78	84.26
703.91	67.88
704.04	46.81
704.17	49.15
704.31	79.58
704.44	21.06
704.57	16.38
704.70	16.38
704.83	79.58
704.96	28.09
705.10	21.06
705.23	0.00
>>>>>End Processed Spectral Data<<<<<
