SpectraSuite Data File
++++++++++++++++++++++++++++++++++++
Date: Fri Oct 04 12:13:42 GMT-05:00 2013
User: price-jones
Dark Spectrum Present: No
Reference Spectrum Present: No
Number of Sampled Component Spectra: 1
Spectrometers: USB2+H05261
Integration Time (usec): 10000 (USB2+H05261)
Spectra Averaged: 1 (USB2+H05261)
Boxcar Smoothing: 0 (USB2+H05261)
Correct for Electrical Dark: No (USB2+H05261)
Strobe/Lamp Enabled: No (USB2+H05261)
Correct for Detector Non-linearity: No (USB2+H05261)
Correct for Stray Light: No (USB2+H05261)
Number of Pixels in Processed Spectrum: 2048
>>>>>Begin Processed Spectral Data<<<<<
365.73	0.00
365.92	0.00
366.12	0.00
366.32	0.00
366.52	0.00
366.72	0.00
366.91	0.00
367.11	0.00
367.31	0.00
367.51	0.00
367.70	0.00
367.90	0.00
368.10	0.00
368.30	0.00
368.49	0.00
368.69	0.00
368.89	0.00
369.09	0.00
369.28	0.00
369.48	0.00
369.68	0.00
369.87	0.00
370.07	0.00
370.27	0.00
370.47	0.00
370.66	0.00
370.86	0.00
371.06	0.00
371.25	0.00
371.45	0.00
371.65	0.00
371.84	18.72
372.04	28.09
372.24	0.00
372.44	25.75
372.63	0.00
372.83	18.72
373.03	23.41
373.22	0.00
373.42	0.00
373.62	11.70
373.81	25.75
374.01	11.70
374.21	72.56
374.40	21.06
374.60	56.17
374.79	9.36
374.99	4.68
375.19	0.00
375.38	25.75
375.58	0.00
375.78	18.72
375.97	37.45
376.17	65.54
376.37	105.32
376.56	39.79
376.76	0.00
376.95	0.00
377.15	30.43
377.35	32.77
377.54	11.70
377.74	56.17
377.93	88.94
378.13	0.00
378.33	0.00
378.52	56.17
378.72	30.43
378.91	49.15
379.11	0.00
379.31	37.45
379.50	84.26
379.70	86.60
379.89	23.41
380.09	56.17
380.28	0.00
380.48	0.00
380.68	25.75
380.87	25.75
381.07	21.06
381.26	32.77
381.46	7.02
381.65	0.00
381.85	42.13
382.04	18.72
382.24	39.79
382.43	37.45
382.63	0.00
382.83	4.68
383.02	9.36
383.22	18.72
383.41	39.79
383.61	0.00
383.80	11.70
384.00	23.41
384.19	53.83
384.39	35.11
384.58	0.00
384.78	0.00
384.97	28.09
385.17	25.75
385.36	37.45
385.56	0.00
385.75	14.04
385.95	4.68
386.14	21.06
386.34	0.00
386.53	0.00
386.72	86.60
386.92	49.15
387.11	0.00
387.31	37.45
387.50	0.00
387.70	51.49
387.89	65.54
388.09	11.70
388.28	0.00
388.48	0.00
388.67	72.56
388.86	70.22
389.06	121.71
389.25	51.49
389.45	0.00
389.64	0.00
389.84	84.26
390.03	0.00
390.22	11.70
390.42	23.41
390.61	23.41
390.81	0.00
391.00	100.64
391.19	93.62
391.39	28.09
391.58	16.38
391.78	70.22
391.97	30.43
392.16	56.17
392.36	14.04
392.55	14.04
392.75	18.72
392.94	95.96
393.13	46.81
393.33	16.38
393.52	0.00
393.71	28.09
393.91	51.49
394.10	0.00
394.29	35.11
394.49	44.47
394.68	23.41
394.88	37.45
395.07	0.00
395.26	81.92
395.46	60.85
395.65	9.36
395.84	46.81
396.04	67.88
396.23	11.70
396.42	25.75
396.62	35.11
396.81	0.00
397.00	0.00
397.19	49.15
397.39	79.58
397.58	30.43
397.77	63.19
397.97	0.00
398.16	56.17
398.35	4.68
398.55	37.45
398.74	2.34
398.93	23.41
399.12	16.38
399.32	4.68
399.51	77.24
399.70	37.45
399.90	65.54
400.09	4.68
400.28	44.47
400.47	4.68
400.67	60.85
400.86	44.47
401.05	16.38
401.24	0.00
401.44	58.51
401.63	14.04
401.82	0.00
402.01	25.75
402.21	67.88
402.40	58.51
402.59	0.00
402.78	0.00
402.97	63.19
403.17	42.13
403.36	53.83
403.55	32.77
403.74	63.19
403.93	56.17
404.13	32.77
404.32	0.00
404.51	0.00
404.70	44.47
404.89	4.68
405.09	0.00
405.28	84.26
405.47	21.06
405.66	0.00
405.85	0.00
406.05	51.49
406.24	72.56
406.43	0.00
406.62	63.19
406.81	74.90
407.00	49.15
407.20	37.45
407.39	51.49
407.58	142.77
407.77	23.41
407.96	93.62
408.15	9.36
408.34	4.68
408.54	44.47
408.73	11.70
408.92	105.32
409.11	21.06
409.30	0.00
409.49	25.75
409.68	18.72
409.87	60.85
410.07	0.00
410.26	42.13
410.45	32.77
410.64	46.81
410.83	88.94
411.02	105.32
411.21	102.98
411.40	0.00
411.59	39.79
411.78	117.03
411.98	18.72
412.17	42.13
412.36	67.88
412.55	0.00
412.74	0.00
412.93	65.54
413.12	51.49
413.31	53.83
413.50	79.58
413.69	53.83
413.88	51.49
414.07	35.11
414.26	63.19
414.45	74.90
414.64	70.22
414.83	0.00
415.02	37.45
415.22	28.09
415.41	44.47
415.60	0.00
415.79	58.51
415.98	65.54
416.17	16.38
416.36	131.07
416.55	0.00
416.74	16.38
416.93	14.04
417.12	0.00
417.31	4.68
417.50	102.98
417.69	0.00
417.88	32.77
418.07	23.41
418.26	46.81
418.45	35.11
418.64	46.81
418.83	0.00
419.02	81.92
419.21	56.17
419.39	72.56
419.58	7.02
419.77	30.43
419.96	46.81
420.15	42.13
420.34	72.56
420.53	49.15
420.72	0.00
420.91	23.41
421.10	81.92
421.29	4.68
421.48	7.02
421.67	100.64
421.86	53.83
422.05	72.56
422.24	0.00
422.43	65.54
422.61	51.49
422.80	95.96
422.99	18.72
423.18	32.77
423.37	9.36
423.56	56.17
423.75	88.94
423.94	11.70
424.13	49.15
424.32	32.77
424.50	51.49
424.69	81.92
424.88	56.17
425.07	63.19
425.26	74.90
425.45	77.24
425.64	98.30
425.83	65.54
426.01	18.72
426.20	56.17
426.39	98.30
426.58	60.85
426.77	28.09
426.96	39.79
427.15	37.45
427.33	0.00
427.52	84.26
427.71	0.00
427.90	49.15
428.09	35.11
428.28	25.75
428.46	46.81
428.65	16.38
428.84	72.56
429.03	37.45
429.22	100.64
429.40	4.68
429.59	42.13
429.78	23.41
429.97	0.00
430.16	28.09
430.34	37.45
430.53	74.90
430.72	128.73
430.91	0.00
431.10	7.02
431.28	30.43
431.47	0.00
431.66	58.51
431.85	39.79
432.03	28.09
432.22	0.00
432.41	91.28
432.60	63.19
432.79	0.00
432.97	42.13
433.16	0.00
433.35	56.17
433.54	14.04
433.72	95.96
433.91	95.96
434.10	35.11
434.28	77.24
434.47	93.62
434.66	46.81
434.85	58.51
435.03	58.51
435.22	30.43
435.41	46.81
435.59	42.13
435.78	91.28
435.97	25.75
436.16	0.00
436.34	39.79
436.53	42.13
436.72	18.72
436.90	49.15
437.09	119.37
437.28	42.13
437.46	35.11
437.65	39.79
437.84	7.02
438.02	105.32
438.21	18.72
438.40	37.45
438.58	32.77
438.77	65.54
438.96	84.26
439.14	63.19
439.33	42.13
439.52	81.92
439.70	35.11
439.89	0.00
440.08	81.92
440.26	0.00
440.45	44.47
440.63	49.15
440.82	53.83
441.01	65.54
441.19	74.90
441.38	16.38
441.57	105.32
441.75	58.51
441.94	35.11
442.12	39.79
442.31	30.43
442.50	107.66
442.68	37.45
442.87	58.51
443.05	0.00
443.24	25.75
443.43	56.17
443.61	56.17
443.80	100.64
443.98	95.96
444.17	35.11
444.35	28.09
444.54	30.43
444.73	0.00
444.91	107.66
445.10	21.06
445.28	4.68
445.47	25.75
445.65	86.60
445.84	67.88
446.02	9.36
446.21	32.77
446.39	58.51
446.58	81.92
446.77	63.19
446.95	18.72
447.14	25.75
447.32	37.45
447.51	70.22
447.69	25.75
447.88	53.83
448.06	56.17
448.25	70.22
448.43	107.66
448.62	63.19
448.80	35.11
448.99	60.85
449.17	98.30
449.36	37.45
449.54	112.35
449.73	18.72
449.91	49.15
450.10	42.13
450.28	81.92
450.46	60.85
450.65	0.00
450.83	110.01
451.02	7.02
451.20	70.22
451.39	98.30
451.57	23.41
451.76	0.00
451.94	84.26
452.13	51.49
452.31	74.90
452.49	74.90
452.68	44.47
452.86	67.88
453.05	72.56
453.23	0.00
453.42	65.54
453.60	21.06
453.78	42.13
453.97	28.09
454.15	67.88
454.34	18.72
454.52	42.13
454.70	21.06
454.89	44.47
455.07	11.70
455.26	58.51
455.44	67.88
455.62	58.51
455.81	58.51
455.99	35.11
456.17	49.15
456.36	16.38
456.54	74.90
456.73	25.75
456.91	72.56
457.09	65.54
457.28	32.77
457.46	133.41
457.64	30.43
457.83	28.09
458.01	39.79
458.19	0.00
458.38	28.09
458.56	51.49
458.74	86.60
458.93	79.58
459.11	53.83
459.29	77.24
459.48	46.81
459.66	53.83
459.84	121.71
460.03	0.00
460.21	63.19
460.39	11.70
460.57	56.17
460.76	42.13
460.94	39.79
461.12	21.06
461.31	28.09
461.49	81.92
461.67	46.81
461.85	37.45
462.04	35.11
462.22	60.85
462.40	42.13
462.59	70.22
462.77	67.88
462.95	18.72
463.13	84.26
463.32	105.32
463.50	77.24
463.68	32.77
463.86	77.24
464.05	74.90
464.23	93.62
464.41	25.75
464.59	39.79
464.78	0.00
464.96	23.41
465.14	63.19
465.32	74.90
465.50	18.72
465.69	102.98
465.87	79.58
466.05	35.11
466.23	0.00
466.41	98.30
466.60	39.79
466.78	72.56
466.96	102.98
467.14	60.85
467.32	46.81
467.51	102.98
467.69	91.28
467.87	65.54
468.05	9.36
468.23	39.79
468.41	60.85
468.60	0.00
468.78	21.06
468.96	72.56
469.14	28.09
469.32	18.72
469.50	14.04
469.69	88.94
469.87	49.15
470.05	0.00
470.23	124.05
470.41	23.41
470.59	56.17
470.77	102.98
470.95	0.00
471.14	175.54
471.32	53.83
471.50	32.77
471.68	0.00
471.86	77.24
472.04	49.15
472.22	42.13
472.40	93.62
472.58	70.22
472.77	72.56
472.95	84.26
473.13	30.43
473.31	42.13
473.49	65.54
473.67	112.35
473.85	67.88
474.03	117.03
474.21	23.41
474.39	58.51
474.57	44.47
474.75	170.86
474.93	77.24
475.12	105.32
475.30	49.15
475.48	77.24
475.66	39.79
475.84	70.22
476.02	25.75
476.20	0.00
476.38	91.28
476.56	25.75
476.74	91.28
476.92	100.64
477.10	39.79
477.28	93.62
477.46	91.28
477.64	39.79
477.82	88.94
478.00	32.77
478.18	107.66
478.36	39.79
478.54	53.83
478.72	9.36
478.90	0.00
479.08	58.51
479.26	72.56
479.44	53.83
479.62	100.64
479.80	74.90
479.98	98.30
480.16	154.48
480.34	65.54
480.52	67.88
480.70	112.35
480.88	63.19
481.06	21.06
481.24	93.62
481.41	84.26
481.59	58.51
481.77	95.96
481.95	35.11
482.13	56.17
482.31	67.88
482.49	37.45
482.67	0.00
482.85	98.30
483.03	98.30
483.21	42.13
483.39	0.00
483.57	0.00
483.74	58.51
483.92	42.13
484.10	74.90
484.28	60.85
484.46	53.83
484.64	98.30
484.82	77.24
485.00	126.39
485.18	23.41
485.35	112.35
485.53	91.28
485.71	28.09
485.89	16.38
486.07	110.01
486.25	42.13
486.43	25.75
486.61	30.43
486.78	124.05
486.96	81.92
487.14	32.77
487.32	51.49
487.50	37.45
487.68	44.47
487.85	65.54
488.03	0.00
488.21	18.72
488.39	110.01
488.57	58.51
488.75	117.03
488.92	128.73
489.10	86.60
489.28	95.96
489.46	51.49
489.64	79.58
489.81	149.79
489.99	105.32
490.17	70.22
490.35	102.98
490.53	37.45
490.70	79.58
490.88	74.90
491.06	79.58
491.24	67.88
491.41	81.92
491.59	53.83
491.77	65.54
491.95	39.79
492.13	25.75
492.30	72.56
492.48	39.79
492.66	65.54
492.84	100.64
493.01	86.60
493.19	114.69
493.37	39.79
493.54	49.15
493.72	32.77
493.90	107.66
494.08	4.68
494.25	60.85
494.43	86.60
494.61	25.75
494.79	56.17
494.96	16.38
495.14	51.49
495.32	0.00
495.49	95.96
495.67	30.43
495.85	72.56
496.02	28.09
496.20	63.19
496.38	81.92
496.55	67.88
496.73	93.62
496.91	49.15
497.09	119.37
497.26	81.92
497.44	110.01
497.62	44.47
497.79	35.11
497.97	49.15
498.14	72.56
498.32	46.81
498.50	18.72
498.67	58.51
498.85	58.51
499.03	110.01
499.20	70.22
499.38	84.26
499.56	32.77
499.73	37.45
499.91	77.24
500.08	39.79
500.26	49.15
500.44	91.28
500.61	56.17
500.79	86.60
500.97	124.05
501.14	16.38
501.32	77.24
501.49	81.92
501.67	60.85
501.84	9.36
502.02	128.73
502.20	100.64
502.37	93.62
502.55	37.45
502.72	105.32
502.90	65.54
503.07	65.54
503.25	88.94
503.43	100.64
503.60	88.94
503.78	42.13
503.95	93.62
504.13	112.35
504.30	42.13
504.48	67.88
504.65	25.75
504.83	30.43
505.01	67.88
505.18	21.06
505.36	88.94
505.53	131.07
505.71	156.82
505.88	147.45
506.06	156.82
506.23	91.28
506.41	112.35
506.58	60.85
506.76	124.05
506.93	65.54
507.11	107.66
507.28	102.98
507.46	79.58
507.63	65.54
507.81	53.83
507.98	74.90
508.16	0.00
508.33	49.15
508.50	93.62
508.68	81.92
508.85	56.17
509.03	105.32
509.20	142.77
509.38	126.39
509.55	65.54
509.73	124.05
509.90	14.04
510.08	51.49
510.25	60.85
510.42	35.11
510.60	133.41
510.77	60.85
510.95	81.92
511.12	65.54
511.30	72.56
511.47	95.96
511.64	21.06
511.82	114.69
511.99	86.60
512.17	81.92
512.34	25.75
512.51	60.85
512.69	46.81
512.86	100.64
513.04	154.48
513.21	77.24
513.38	95.96
513.56	56.17
513.73	121.71
513.90	74.90
514.08	7.02
514.25	114.69
514.43	30.43
514.60	88.94
514.77	67.88
514.95	79.58
515.12	53.83
515.29	67.88
515.47	53.83
515.64	72.56
515.81	37.45
515.99	60.85
516.16	117.03
516.33	74.90
516.51	67.88
516.68	39.79
516.85	84.26
517.03	0.00
517.20	0.00
517.37	119.37
517.54	114.69
517.72	18.72
517.89	81.92
518.06	126.39
518.24	121.71
518.41	152.13
518.58	53.83
518.75	105.32
518.93	42.13
519.10	60.85
519.27	51.49
519.45	107.66
519.62	110.01
519.79	58.51
519.96	67.88
520.14	30.43
520.31	84.26
520.48	117.03
520.65	72.56
520.83	135.75
521.00	72.56
521.17	67.88
521.34	63.19
521.52	63.19
521.69	84.26
521.86	72.56
522.03	138.09
522.20	91.28
522.38	60.85
522.55	81.92
522.72	0.00
522.89	35.11
523.07	74.90
523.24	147.45
523.41	102.98
523.58	74.90
523.75	93.62
523.92	112.35
524.10	100.64
524.27	112.35
524.44	56.17
524.61	51.49
524.78	105.32
524.96	67.88
525.13	107.66
525.30	0.00
525.47	35.11
525.64	145.11
525.81	65.54
525.98	100.64
526.16	7.02
526.33	39.79
526.50	28.09
526.67	84.26
526.84	32.77
527.01	56.17
527.18	133.41
527.36	131.07
527.53	86.60
527.70	70.22
527.87	51.49
528.04	98.30
528.21	58.51
528.38	84.26
528.55	44.47
528.72	121.71
528.89	72.56
529.07	91.28
529.24	72.56
529.41	145.11
529.58	91.28
529.75	140.43
529.92	145.11
530.09	95.96
530.26	124.05
530.43	39.79
530.60	65.54
530.77	107.66
530.94	58.51
531.11	32.77
531.28	28.09
531.46	30.43
531.63	51.49
531.80	56.17
531.97	25.75
532.14	126.39
532.31	100.64
532.48	81.92
532.65	46.81
532.82	0.00
532.99	72.56
533.16	187.24
533.33	128.73
533.50	35.11
533.67	0.00
533.84	42.13
534.01	168.52
534.18	102.98
534.35	145.11
534.52	110.01
534.69	128.73
534.86	70.22
535.03	93.62
535.20	88.94
535.37	145.11
535.54	67.88
535.71	37.45
535.88	86.60
536.05	140.43
536.22	98.30
536.38	138.09
536.55	79.58
536.72	14.04
536.89	72.56
537.06	77.24
537.23	95.96
537.40	65.54
537.57	39.79
537.74	107.66
537.91	37.45
538.08	70.22
538.25	70.22
538.42	79.58
538.59	102.98
538.75	135.75
538.92	58.51
539.09	4.68
539.26	79.58
539.43	86.60
539.60	119.37
539.77	110.01
539.94	86.60
540.11	37.45
540.28	88.94
540.44	77.24
540.61	81.92
540.78	63.19
540.95	30.43
541.12	100.64
541.29	16.38
541.46	0.00
541.62	110.01
541.79	79.58
541.96	114.69
542.13	53.83
542.30	88.94
542.47	51.49
542.63	65.54
542.80	81.92
542.97	65.54
543.14	72.56
543.31	102.98
543.48	25.75
543.64	102.98
543.81	58.51
543.98	98.30
544.15	56.17
544.32	46.81
544.48	72.56
544.65	53.83
544.82	28.09
544.99	63.19
545.16	161.50
545.32	140.43
545.49	30.43
545.66	28.09
545.83	72.56
546.00	46.81
546.16	81.92
546.33	77.24
546.50	84.26
546.67	110.01
546.83	60.85
547.00	117.03
547.17	46.81
547.34	70.22
547.50	30.43
547.67	0.00
547.84	77.24
548.00	81.92
548.17	105.32
548.34	51.49
548.51	37.45
548.67	105.32
548.84	72.56
549.01	142.77
549.18	91.28
549.34	56.17
549.51	84.26
549.68	70.22
549.84	60.85
550.01	107.66
550.18	98.30
550.34	166.18
550.51	124.05
550.68	173.20
550.84	53.83
551.01	77.24
551.18	126.39
551.34	107.66
551.51	128.73
551.68	70.22
551.84	16.38
552.01	88.94
552.18	53.83
552.34	65.54
552.51	79.58
552.68	93.62
552.84	79.58
553.01	72.56
553.18	63.19
553.34	28.09
553.51	39.79
553.67	105.32
553.84	32.77
554.01	124.05
554.17	102.98
554.34	79.58
554.51	119.37
554.67	95.96
554.84	135.75
555.00	110.01
555.17	70.22
555.33	56.17
555.50	23.41
555.67	124.05
555.83	154.48
556.00	79.58
556.16	86.60
556.33	91.28
556.50	86.60
556.66	138.09
556.83	23.41
556.99	70.22
557.16	74.90
557.32	100.64
557.49	32.77
557.65	102.98
557.82	128.73
557.98	102.98
558.15	166.18
558.32	63.19
558.48	67.88
558.65	72.56
558.81	25.75
558.98	42.13
559.14	88.94
559.31	152.13
559.47	86.60
559.64	110.01
559.80	67.88
559.97	72.56
560.13	154.48
560.30	77.24
560.46	163.84
560.63	58.51
560.79	100.64
560.96	0.00
561.12	32.77
561.29	60.85
561.45	79.58
561.61	53.83
561.78	23.41
561.94	72.56
562.11	102.98
562.27	81.92
562.44	166.18
562.60	128.73
562.77	70.22
562.93	74.90
563.10	131.07
563.26	102.98
563.42	91.28
563.59	0.00
563.75	21.06
563.92	49.15
564.08	147.45
564.24	98.30
564.41	131.07
564.57	88.94
564.74	37.45
564.90	110.01
565.07	42.13
565.23	133.41
565.39	86.60
565.56	135.75
565.72	65.54
565.88	149.79
566.05	100.64
566.21	56.17
566.38	117.03
566.54	91.28
566.70	70.22
566.87	0.00
567.03	30.43
567.19	77.24
567.36	74.90
567.52	74.90
567.68	51.49
567.85	65.54
568.01	60.85
568.17	58.51
568.34	128.73
568.50	46.81
568.66	46.81
568.83	32.77
568.99	100.64
569.15	140.43
569.32	114.69
569.48	49.15
569.64	74.90
569.81	98.30
569.97	51.49
570.13	70.22
570.30	79.58
570.46	128.73
570.62	128.73
570.78	9.36
570.95	84.26
571.11	51.49
571.27	79.58
571.43	138.09
571.60	161.50
571.76	2.34
571.92	81.92
572.09	79.58
572.25	23.41
572.41	81.92
572.57	119.37
572.74	9.36
572.90	95.96
573.06	72.56
573.22	0.00
573.38	67.88
573.55	49.15
573.71	79.58
573.87	84.26
574.03	98.30
574.20	39.79
574.36	74.90
574.52	51.49
574.68	147.45
574.84	42.13
575.01	142.77
575.17	70.22
575.33	114.69
575.49	0.00
575.65	84.26
575.82	56.17
575.98	86.60
576.14	86.60
576.30	77.24
576.46	30.43
576.62	119.37
576.79	91.28
576.95	107.66
577.11	39.79
577.27	84.26
577.43	58.51
577.59	74.90
577.75	117.03
577.92	100.64
578.08	72.56
578.24	100.64
578.40	23.41
578.56	65.54
578.72	107.66
578.88	79.58
579.04	91.28
579.21	77.24
579.37	81.92
579.53	21.06
579.69	0.00
579.85	37.45
580.01	28.09
580.17	138.09
580.33	67.88
580.49	16.38
580.65	126.39
580.82	142.77
580.98	93.62
581.14	70.22
581.30	39.79
581.46	121.71
581.62	95.96
581.78	121.71
581.94	117.03
582.10	42.13
582.26	11.70
582.42	119.37
582.58	126.39
582.74	58.51
582.90	102.98
583.06	105.32
583.22	46.81
583.38	65.54
583.54	138.09
583.70	84.26
583.86	133.41
584.02	112.35
584.18	95.96
584.34	93.62
584.50	70.22
584.66	79.58
584.82	49.15
584.98	51.49
585.14	91.28
585.30	28.09
585.46	42.13
585.62	70.22
585.78	84.26
585.94	182.56
586.10	56.17
586.26	67.88
586.42	147.45
586.58	91.28
586.74	72.56
586.90	14.04
587.06	117.03
587.22	32.77
587.38	121.71
587.54	72.56
587.70	110.01
587.86	14.04
588.02	63.19
588.18	102.98
588.34	42.13
588.49	112.35
588.65	63.19
588.81	53.83
588.97	25.75
589.13	88.94
589.29	112.35
589.45	63.19
589.61	67.88
589.77	81.92
589.93	93.62
590.08	67.88
590.24	0.00
590.40	88.94
590.56	0.00
590.72	49.15
590.88	39.79
591.04	65.54
591.20	124.05
591.35	145.11
591.51	65.54
591.67	32.77
591.83	63.19
591.99	70.22
592.15	21.06
592.31	84.26
592.46	154.48
592.62	84.26
592.78	124.05
592.94	102.98
593.10	51.49
593.26	79.58
593.41	126.39
593.57	44.47
593.73	98.30
593.89	74.90
594.05	30.43
594.20	21.06
594.36	51.49
594.52	88.94
594.68	135.75
594.84	21.06
594.99	4.68
595.15	0.00
595.31	37.45
595.47	51.49
595.62	135.75
595.78	58.51
595.94	25.75
596.10	95.96
596.25	88.94
596.41	126.39
596.57	77.24
596.73	91.28
596.88	86.60
597.04	110.01
597.20	16.38
597.36	100.64
597.51	81.92
597.67	23.41
597.83	35.11
597.99	65.54
598.14	60.85
598.30	72.56
598.46	110.01
598.61	145.11
598.77	67.88
598.93	35.11
599.09	98.30
599.24	100.64
599.40	72.56
599.56	81.92
599.71	81.92
599.87	7.02
600.03	53.83
600.18	72.56
600.34	67.88
600.50	84.26
600.65	72.56
600.81	74.90
600.97	56.17
601.12	88.94
601.28	145.11
601.44	77.24
601.59	88.94
601.75	72.56
601.91	112.35
602.06	46.81
602.22	72.56
602.37	114.69
602.53	65.54
602.69	65.54
602.84	135.75
603.00	60.85
603.16	30.43
603.31	77.24
603.47	119.37
603.62	91.28
603.78	102.98
603.94	28.09
604.09	114.69
604.25	117.03
604.40	35.11
604.56	56.17
604.71	93.62
604.87	159.16
605.03	65.54
605.18	67.88
605.34	147.45
605.49	72.56
605.65	110.01
605.80	98.30
605.96	49.15
606.12	74.90
606.27	21.06
606.43	32.77
606.58	102.98
606.74	119.37
606.89	44.47
607.05	79.58
607.20	124.05
607.36	86.60
607.51	65.54
607.67	121.71
607.82	11.70
607.98	49.15
608.13	77.24
608.29	91.28
608.44	98.30
608.60	44.47
608.75	79.58
608.91	147.45
609.06	72.56
609.22	16.38
609.37	95.96
609.53	65.54
609.68	91.28
609.84	74.90
609.99	84.26
610.15	114.69
610.30	58.51
610.46	58.51
610.61	112.35
610.76	98.30
610.92	70.22
611.07	18.72
611.23	58.51
611.38	32.77
611.54	58.51
611.69	65.54
611.84	7.02
612.00	53.83
612.15	88.94
612.31	67.88
612.46	49.15
612.62	63.19
612.77	7.02
612.92	42.13
613.08	100.64
613.23	102.98
613.39	28.09
613.54	65.54
613.69	18.72
613.85	81.92
614.00	0.00
614.15	100.64
614.31	81.92
614.46	91.28
614.62	35.11
614.77	70.22
614.92	21.06
615.08	32.77
615.23	46.81
615.38	42.13
615.54	102.98
615.69	102.98
615.84	0.00
616.00	16.38
616.15	51.49
616.30	121.71
616.46	25.75
616.61	63.19
616.76	93.62
616.92	128.73
617.07	25.75
617.22	51.49
617.37	81.92
617.53	51.49
617.68	0.00
617.83	98.30
617.99	107.66
618.14	102.98
618.29	44.47
618.45	53.83
618.60	117.03
618.75	72.56
618.90	65.54
619.06	44.47
619.21	105.32
619.36	138.09
619.51	102.98
619.67	60.85
619.82	81.92
619.97	44.47
620.12	58.51
620.28	98.30
620.43	81.92
620.58	100.64
620.73	63.19
620.89	88.94
621.04	51.49
621.19	58.51
621.34	18.72
621.49	72.56
621.65	79.58
621.80	60.85
621.95	131.07
622.10	65.54
622.25	100.64
622.41	39.79
622.56	77.24
622.71	56.17
622.86	16.38
623.01	39.79
623.16	60.85
623.32	49.15
623.47	25.75
623.62	49.15
623.77	37.45
623.92	0.00
624.07	63.19
624.23	100.64
624.38	53.83
624.53	65.54
624.68	65.54
624.83	70.22
624.98	9.36
625.13	58.51
625.29	91.28
625.44	56.17
625.59	77.24
625.74	30.43
625.89	74.90
626.04	42.13
626.19	102.98
626.34	7.02
626.49	32.77
626.65	70.22
626.80	53.83
626.95	35.11
627.10	98.30
627.25	35.11
627.40	72.56
627.55	49.15
627.70	51.49
627.85	51.49
628.00	32.77
628.15	63.19
628.30	67.88
628.45	112.35
628.60	28.09
628.76	102.98
628.91	77.24
629.06	42.13
629.21	81.92
629.36	77.24
629.51	79.58
629.66	131.07
629.81	4.68
629.96	142.77
630.11	74.90
630.26	35.11
630.41	39.79
630.56	23.41
630.71	32.77
630.86	42.13
631.01	30.43
631.16	84.26
631.31	119.37
631.46	0.00
631.61	70.22
631.76	67.88
631.91	0.00
632.06	163.84
632.21	107.66
632.36	70.22
632.51	35.11
632.66	7.02
632.81	67.88
632.96	2.34
633.10	11.70
633.25	102.98
633.40	23.41
633.55	51.49
633.70	42.13
633.85	23.41
634.00	102.98
634.15	42.13
634.30	81.92
634.45	53.83
634.60	56.17
634.75	2.34
634.90	100.64
635.05	0.00
635.19	42.13
635.34	105.32
635.49	39.79
635.64	131.07
635.79	102.98
635.94	32.77
636.09	30.43
636.24	28.09
636.39	42.13
636.53	79.58
636.68	30.43
636.83	28.09
636.98	60.85
637.13	65.54
637.28	84.26
637.43	79.58
637.57	0.00
637.72	81.92
637.87	100.64
638.02	79.58
638.17	74.90
638.32	53.83
638.46	58.51
638.61	112.35
638.76	77.24
638.91	32.77
639.06	30.43
639.20	74.90
639.35	44.47
639.50	56.17
639.65	32.77
639.80	74.90
639.94	98.30
640.09	131.07
640.24	79.58
640.39	37.45
640.54	84.26
640.68	53.83
640.83	58.51
640.98	72.56
641.13	9.36
641.27	81.92
641.42	56.17
641.57	124.05
641.72	86.60
641.86	0.00
642.01	110.01
642.16	79.58
642.31	128.73
642.45	74.90
642.60	98.30
642.75	79.58
642.90	30.43
643.04	32.77
643.19	93.62
643.34	28.09
643.48	58.51
643.63	32.77
643.78	86.60
643.93	25.75
644.07	25.75
644.22	65.54
644.37	67.88
644.51	84.26
644.66	60.85
644.81	23.41
644.95	65.54
645.10	84.26
645.25	16.38
645.39	88.94
645.54	72.56
645.69	7.02
645.83	51.49
645.98	14.04
646.13	77.24
646.27	16.38
646.42	46.81
646.57	0.00
646.71	67.88
646.86	72.56
647.00	9.36
647.15	88.94
647.30	44.47
647.44	86.60
647.59	0.00
647.74	81.92
647.88	0.00
648.03	74.90
648.17	14.04
648.32	74.90
648.47	46.81
648.61	2.34
648.76	37.45
648.90	0.00
649.05	37.45
649.20	81.92
649.34	53.83
649.49	95.96
649.63	74.90
649.78	58.51
649.92	25.75
650.07	46.81
650.21	65.54
650.36	93.62
650.51	23.41
650.65	46.81
650.80	81.92
650.94	77.24
651.09	30.43
651.23	0.00
651.38	70.22
651.52	46.81
651.67	18.72
651.81	28.09
651.96	79.58
652.10	60.85
652.25	18.72
652.39	37.45
652.54	79.58
652.68	44.47
652.83	14.04
652.97	91.28
653.12	93.62
653.26	25.75
653.41	98.30
653.55	16.38
653.70	60.85
653.84	70.22
653.99	140.43
654.13	42.13
654.27	79.58
654.42	21.06
654.56	114.69
654.71	105.32
654.85	56.17
655.00	37.45
655.14	86.60
655.29	16.38
655.43	70.22
655.57	70.22
655.72	0.00
655.86	18.72
656.01	51.49
656.15	4.68
656.30	25.75
656.44	0.00
656.58	60.85
656.73	14.04
656.87	56.17
657.01	152.13
657.16	46.81
657.30	53.83
657.45	81.92
657.59	70.22
657.73	39.79
657.88	30.43
658.02	72.56
658.16	84.26
658.31	51.49
658.45	63.19
658.60	0.00
658.74	39.79
658.88	37.45
659.03	28.09
659.17	28.09
659.31	70.22
659.46	95.96
659.60	84.26
659.74	42.13
659.89	39.79
660.03	72.56
660.17	11.70
660.32	42.13
660.46	32.77
660.60	28.09
660.74	81.92
660.89	0.00
661.03	46.81
661.17	4.68
661.32	39.79
661.46	67.88
661.60	0.00
661.74	0.00
661.89	16.38
662.03	53.83
662.17	60.85
662.31	18.72
662.46	56.17
662.60	39.79
662.74	0.00
662.88	23.41
663.03	42.13
663.17	0.00
663.31	117.03
663.45	51.49
663.60	88.94
663.74	42.13
663.88	100.64
664.02	56.17
664.17	16.38
664.31	21.06
664.45	65.54
664.59	72.56
664.73	95.96
664.88	42.13
665.02	46.81
665.16	37.45
665.30	70.22
665.44	42.13
665.59	0.00
665.73	9.36
665.87	21.06
666.01	77.24
666.15	23.41
666.29	0.00
666.44	7.02
666.58	32.77
666.72	65.54
666.86	11.70
667.00	21.06
667.14	93.62
667.28	67.88
667.43	149.79
667.57	16.38
667.71	9.36
667.85	2.34
667.99	70.22
668.13	44.47
668.27	58.51
668.41	49.15
668.56	74.90
668.70	74.90
668.84	0.00
668.98	60.85
669.12	67.88
669.26	81.92
669.40	51.49
669.54	74.90
669.68	100.64
669.82	49.15
669.96	32.77
670.10	86.60
670.25	11.70
670.39	72.56
670.53	72.56
670.67	74.90
670.81	32.77
670.95	77.24
671.09	70.22
671.23	18.72
671.37	46.81
671.51	30.43
671.65	72.56
671.79	72.56
671.93	107.66
672.07	72.56
672.21	131.07
672.35	39.79
672.49	32.77
672.63	0.00
672.77	67.88
672.91	23.41
673.05	42.13
673.19	18.72
673.33	23.41
673.47	88.94
673.61	105.32
673.75	7.02
673.89	72.56
674.03	53.83
674.17	110.01
674.31	77.24
674.45	0.00
674.59	9.36
674.73	7.02
674.87	98.30
675.01	28.09
675.15	110.01
675.29	35.11
675.43	37.45
675.56	32.77
675.70	21.06
675.84	37.45
675.98	86.60
676.12	88.94
676.26	11.70
676.40	84.26
676.54	133.41
676.68	44.47
676.82	60.85
676.96	65.54
677.10	79.58
677.23	11.70
677.37	49.15
677.51	102.98
677.65	63.19
677.79	0.00
677.93	0.00
678.07	53.83
678.21	11.70
678.34	21.06
678.48	0.00
678.62	28.09
678.76	28.09
678.90	30.43
679.04	35.11
679.18	25.75
679.31	23.41
679.45	65.54
679.59	46.81
679.73	70.22
679.87	72.56
680.00	121.71
680.14	44.47
680.28	9.36
680.42	21.06
680.56	49.15
680.70	93.62
680.83	21.06
680.97	30.43
681.11	86.60
681.25	44.47
681.39	35.11
681.52	49.15
681.66	114.69
681.80	65.54
681.94	35.11
682.07	42.13
682.21	110.01
682.35	23.41
682.49	0.00
682.62	77.24
682.76	30.43
682.90	77.24
683.04	58.51
683.17	46.81
683.31	81.92
683.45	60.85
683.59	140.43
683.72	30.43
683.86	46.81
684.00	53.83
684.13	7.02
684.27	51.49
684.41	37.45
684.55	35.11
684.68	14.04
684.82	2.34
684.96	39.79
685.09	16.38
685.23	14.04
685.37	25.75
685.50	81.92
685.64	70.22
685.78	25.75
685.91	63.19
686.05	67.88
686.19	9.36
686.32	35.11
686.46	110.01
686.60	95.96
686.73	44.47
686.87	149.79
687.01	37.45
687.14	28.09
687.28	42.13
687.42	77.24
687.55	77.24
687.69	44.47
687.82	72.56
687.96	46.81
688.10	107.66
688.23	18.72
688.37	16.38
688.50	9.36
688.64	9.36
688.78	0.00
688.91	72.56
689.05	70.22
689.18	88.94
689.32	18.72
689.46	88.94
689.59	32.77
689.73	21.06
689.86	46.81
690.00	11.70
690.13	51.49
690.27	84.26
690.41	65.54
690.54	11.70
690.68	58.51
690.81	25.75
690.95	56.17
691.08	74.90
691.22	53.83
691.35	51.49
691.49	0.00
691.62	86.60
691.76	7.02
691.89	7.02
692.03	32.77
692.16	7.02
692.30	0.00
692.43	0.00
692.57	0.00
692.70	2.34
692.84	93.62
692.97	28.09
693.11	74.90
693.24	51.49
693.38	0.00
693.51	53.83
693.65	25.75
693.78	81.92
693.92	0.00
694.05	25.75
694.19	0.00
694.32	18.72
694.45	21.06
694.59	23.41
694.72	0.00
694.86	0.00
694.99	0.00
695.13	67.88
695.26	79.58
695.39	21.06
695.53	18.72
695.66	44.47
695.80	42.13
695.93	30.43
696.07	42.13
696.20	21.06
696.33	14.04
696.47	77.24
696.60	84.26
696.73	11.70
696.87	0.00
697.00	53.83
697.14	0.00
697.27	9.36
697.40	74.90
697.54	2.34
697.67	0.00
697.80	28.09
697.94	84.26
698.07	18.72
698.21	63.19
698.34	28.09
698.47	2.34
698.61	4.68
698.74	30.43
698.87	79.58
699.01	9.36
699.14	72.56
699.27	93.62
699.40	0.00
699.54	0.00
699.67	49.15
699.80	9.36
699.94	0.00
700.07	11.70
700.20	67.88
700.34	86.60
700.47	9.36
700.60	32.77
700.73	46.81
700.87	91.28
701.00	11.70
701.13	35.11
701.26	126.39
701.40	95.96
701.53	0.00
701.66	67.88
701.79	46.81
701.93	46.81
702.06	18.72
702.19	42.13
702.32	88.94
702.46	39.79
702.59	44.47
702.72	11.70
702.85	67.88
702.99	117.03
703.12	65.54
703.25	110.01
703.38	67.88
703.51	39.79
703.65	23.41
703.78	32.77
703.91	0.00
704.04	14.04
704.17	46.81
704.31	0.00
704.44	0.00
704.57	37.45
704.70	37.45
704.83	0.00
704.96	0.00
705.10	11.70
705.23	4.68
>>>>>End Processed Spectral Data<<<<<
