SpectraSuite Data File
++++++++++++++++++++++++++++++++++++
Date: Fri Oct 04 12:13:38 GMT-05:00 2013
User: price-jones
Dark Spectrum Present: No
Reference Spectrum Present: No
Number of Sampled Component Spectra: 1
Spectrometers: USB2+H05261
Integration Time (usec): 10000 (USB2+H05261)
Spectra Averaged: 1 (USB2+H05261)
Boxcar Smoothing: 0 (USB2+H05261)
Correct for Electrical Dark: No (USB2+H05261)
Strobe/Lamp Enabled: No (USB2+H05261)
Correct for Detector Non-linearity: No (USB2+H05261)
Correct for Stray Light: No (USB2+H05261)
Number of Pixels in Processed Spectrum: 2048
>>>>>Begin Processed Spectral Data<<<<<
365.73	23.41
365.92	23.41
366.12	23.41
366.32	0.00
366.52	0.00
366.72	0.00
366.91	0.00
367.11	0.00
367.31	0.00
367.51	0.00
367.70	0.00
367.90	0.00
368.10	0.00
368.30	0.00
368.49	0.00
368.69	0.00
368.89	0.00
369.09	0.00
369.28	0.00
369.48	0.00
369.68	0.00
369.87	0.00
370.07	0.00
370.27	0.00
370.47	0.00
370.66	0.00
370.86	0.00
371.06	7.02
371.25	0.00
371.45	0.00
371.65	0.00
371.84	0.00
372.04	0.00
372.24	0.00
372.44	11.70
372.63	0.00
372.83	0.00
373.03	16.38
373.22	28.09
373.42	0.00
373.62	0.00
373.81	37.45
374.01	30.43
374.21	0.00
374.40	25.75
374.60	35.11
374.79	0.00
374.99	0.00
375.19	18.72
375.38	105.32
375.58	35.11
375.78	53.83
375.97	14.04
376.17	65.54
376.37	53.83
376.56	0.00
376.76	121.71
376.95	42.13
377.15	0.00
377.35	46.81
377.54	25.75
377.74	0.00
377.93	2.34
378.13	65.54
378.33	58.51
378.52	28.09
378.72	74.90
378.91	28.09
379.11	0.00
379.31	21.06
379.50	0.00
379.70	4.68
379.89	0.00
380.09	58.51
380.28	60.85
380.48	0.00
380.68	58.51
380.87	0.00
381.07	0.00
381.26	9.36
381.46	23.41
381.65	0.00
381.85	28.09
382.04	67.88
382.24	37.45
382.43	53.83
382.63	70.22
382.83	28.09
383.02	84.26
383.22	28.09
383.41	0.00
383.61	21.06
383.80	84.26
384.00	0.00
384.19	2.34
384.39	28.09
384.58	32.77
384.78	0.00
384.97	102.98
385.17	63.19
385.36	35.11
385.56	0.00
385.75	39.79
385.95	0.00
386.14	11.70
386.34	32.77
386.53	0.00
386.72	32.77
386.92	25.75
387.11	0.00
387.31	11.70
387.50	4.68
387.70	42.13
387.89	0.00
388.09	14.04
388.28	58.51
388.48	32.77
388.67	25.75
388.86	32.77
389.06	0.00
389.25	0.00
389.45	72.56
389.64	14.04
389.84	0.00
390.03	0.00
390.22	14.04
390.42	2.34
390.61	0.00
390.81	0.00
391.00	0.00
391.19	0.00
391.39	0.00
391.58	42.13
391.78	0.00
391.97	2.34
392.16	11.70
392.36	44.47
392.55	51.49
392.75	0.00
392.94	14.04
393.13	0.00
393.33	32.77
393.52	18.72
393.71	4.68
393.91	70.22
394.10	107.66
394.29	56.17
394.49	7.02
394.68	0.00
394.88	16.38
395.07	0.00
395.26	0.00
395.46	18.72
395.65	46.81
395.84	25.75
396.04	0.00
396.23	0.00
396.42	65.54
396.62	0.00
396.81	63.19
397.00	11.70
397.19	70.22
397.39	7.02
397.58	51.49
397.77	39.79
397.97	49.15
398.16	0.00
398.35	4.68
398.55	58.51
398.74	0.00
398.93	0.00
399.12	14.04
399.32	18.72
399.51	49.15
399.70	56.17
399.90	74.90
400.09	16.38
400.28	42.13
400.47	86.60
400.67	0.00
400.86	0.00
401.05	79.58
401.24	0.00
401.44	107.66
401.63	4.68
401.82	0.00
402.01	0.00
402.21	51.49
402.40	37.45
402.59	77.24
402.78	0.00
402.97	0.00
403.17	72.56
403.36	74.90
403.55	0.00
403.74	0.00
403.93	0.00
404.13	23.41
404.32	35.11
404.51	30.43
404.70	88.94
404.89	53.83
405.09	9.36
405.28	0.00
405.47	30.43
405.66	53.83
405.85	0.00
406.05	0.00
406.24	18.72
406.43	65.54
406.62	21.06
406.81	42.13
407.00	65.54
407.20	72.56
407.39	0.00
407.58	25.75
407.77	58.51
407.96	0.00
408.15	46.81
408.34	28.09
408.54	0.00
408.73	0.00
408.92	0.00
409.11	0.00
409.30	84.26
409.49	77.24
409.68	49.15
409.87	0.00
410.07	9.36
410.26	0.00
410.45	0.00
410.64	49.15
410.83	4.68
411.02	21.06
411.21	112.35
411.40	0.00
411.59	70.22
411.78	70.22
411.98	0.00
412.17	9.36
412.36	32.77
412.55	0.00
412.74	88.94
412.93	14.04
413.12	70.22
413.31	46.81
413.50	53.83
413.69	39.79
413.88	95.96
414.07	49.15
414.26	30.43
414.45	37.45
414.64	0.00
414.83	93.62
415.02	0.00
415.22	16.38
415.41	128.73
415.60	79.58
415.79	88.94
415.98	0.00
416.17	2.34
416.36	88.94
416.55	4.68
416.74	81.92
416.93	21.06
417.12	0.00
417.31	4.68
417.50	49.15
417.69	60.85
417.88	9.36
418.07	53.83
418.26	86.60
418.45	25.75
418.64	39.79
418.83	72.56
419.02	51.49
419.21	53.83
419.39	51.49
419.58	88.94
419.77	93.62
419.96	21.06
420.15	79.58
420.34	49.15
420.53	28.09
420.72	30.43
420.91	42.13
421.10	84.26
421.29	35.11
421.48	42.13
421.67	35.11
421.86	63.19
422.05	117.03
422.24	77.24
422.43	30.43
422.61	0.00
422.80	74.90
422.99	37.45
423.18	51.49
423.37	46.81
423.56	81.92
423.75	49.15
423.94	42.13
424.13	23.41
424.32	9.36
424.50	32.77
424.69	39.79
424.88	37.45
425.07	46.81
425.26	142.77
425.45	16.38
425.64	58.51
425.83	16.38
426.01	0.00
426.20	0.00
426.39	77.24
426.58	51.49
426.77	84.26
426.96	88.94
427.15	7.02
427.33	37.45
427.52	77.24
427.71	70.22
427.90	39.79
428.09	79.58
428.28	58.51
428.46	44.47
428.65	133.41
428.84	18.72
429.03	21.06
429.22	2.34
429.40	0.00
429.59	30.43
429.78	25.75
429.97	23.41
430.16	105.32
430.34	18.72
430.53	74.90
430.72	30.43
430.91	0.00
431.10	84.26
431.28	95.96
431.47	95.96
431.66	42.13
431.85	128.73
432.03	0.00
432.22	81.92
432.41	98.30
432.60	18.72
432.79	110.01
432.97	37.45
433.16	135.75
433.35	81.92
433.54	65.54
433.72	51.49
433.91	128.73
434.10	25.75
434.28	0.00
434.47	95.96
434.66	65.54
434.85	98.30
435.03	60.85
435.22	35.11
435.41	53.83
435.59	149.79
435.78	16.38
435.97	37.45
436.16	79.58
436.34	63.19
436.53	25.75
436.72	86.60
436.90	0.00
437.09	0.00
437.28	77.24
437.46	53.83
437.65	74.90
437.84	21.06
438.02	65.54
438.21	16.38
438.40	16.38
438.58	16.38
438.77	56.17
438.96	58.51
439.14	100.64
439.33	91.28
439.52	53.83
439.70	16.38
439.89	65.54
440.08	35.11
440.26	23.41
440.45	70.22
440.63	46.81
440.82	0.00
441.01	30.43
441.19	79.58
441.38	0.00
441.57	32.77
441.75	46.81
441.94	7.02
442.12	35.11
442.31	74.90
442.50	74.90
442.68	84.26
442.87	119.37
443.05	70.22
443.24	74.90
443.43	23.41
443.61	35.11
443.80	98.30
443.98	58.51
444.17	79.58
444.35	42.13
444.54	42.13
444.73	2.34
444.91	37.45
445.10	25.75
445.28	39.79
445.47	7.02
445.65	67.88
445.84	58.51
446.02	84.26
446.21	51.49
446.39	63.19
446.58	0.00
446.77	131.07
446.95	35.11
447.14	56.17
447.32	65.54
447.51	46.81
447.69	21.06
447.88	21.06
448.06	9.36
448.25	60.85
448.43	0.00
448.62	32.77
448.80	0.00
448.99	44.47
449.17	7.02
449.36	53.83
449.54	11.70
449.73	0.00
449.91	72.56
450.10	23.41
450.28	42.13
450.46	67.88
450.65	112.35
450.83	114.69
451.02	95.96
451.20	74.90
451.39	77.24
451.57	79.58
451.76	18.72
451.94	67.88
452.13	44.47
452.31	93.62
452.49	60.85
452.68	56.17
452.86	42.13
453.05	4.68
453.23	107.66
453.42	49.15
453.60	100.64
453.78	46.81
453.97	49.15
454.15	28.09
454.34	53.83
454.52	79.58
454.70	53.83
454.89	84.26
455.07	46.81
455.26	77.24
455.44	46.81
455.62	126.39
455.81	119.37
455.99	37.45
456.17	117.03
456.36	46.81
456.54	0.00
456.73	74.90
456.91	0.00
457.09	91.28
457.28	67.88
457.46	88.94
457.64	0.00
457.83	30.43
458.01	74.90
458.19	14.04
458.38	100.64
458.56	42.13
458.74	0.00
458.93	60.85
459.11	0.00
459.29	16.38
459.48	25.75
459.66	0.00
459.84	112.35
460.03	0.00
460.21	37.45
460.39	30.43
460.57	81.92
460.76	46.81
460.94	46.81
461.12	102.98
461.31	86.60
461.49	72.56
461.67	84.26
461.85	138.09
462.04	0.00
462.22	128.73
462.40	51.49
462.59	88.94
462.77	9.36
462.95	25.75
463.13	42.13
463.32	39.79
463.50	86.60
463.68	30.43
463.86	67.88
464.05	39.79
464.23	58.51
464.41	65.54
464.59	105.32
464.78	58.51
464.96	23.41
465.14	49.15
465.32	79.58
465.50	32.77
465.69	88.94
465.87	77.24
466.05	53.83
466.23	35.11
466.41	46.81
466.60	39.79
466.78	112.35
466.96	60.85
467.14	0.00
467.32	65.54
467.51	107.66
467.69	79.58
467.87	42.13
468.05	95.96
468.23	65.54
468.41	58.51
468.60	65.54
468.78	58.51
468.96	7.02
469.14	30.43
469.32	53.83
469.50	4.68
469.69	44.47
469.87	49.15
470.05	28.09
470.23	4.68
470.41	88.94
470.59	51.49
470.77	39.79
470.95	44.47
471.14	98.30
471.32	18.72
471.50	81.92
471.68	67.88
471.86	65.54
472.04	30.43
472.22	37.45
472.40	49.15
472.58	0.00
472.77	79.58
472.95	67.88
473.13	91.28
473.31	91.28
473.49	60.85
473.67	39.79
473.85	95.96
474.03	25.75
474.21	49.15
474.39	60.85
474.57	0.00
474.75	42.13
474.93	86.60
475.12	37.45
475.30	51.49
475.48	142.77
475.66	21.06
475.84	32.77
476.02	74.90
476.20	7.02
476.38	58.51
476.56	63.19
476.74	60.85
476.92	140.43
477.10	72.56
477.28	79.58
477.46	72.56
477.64	49.15
477.82	9.36
478.00	110.01
478.18	74.90
478.36	44.47
478.54	21.06
478.72	28.09
478.90	60.85
479.08	107.66
479.26	42.13
479.44	65.54
479.62	88.94
479.80	30.43
479.98	58.51
480.16	88.94
480.34	28.09
480.52	4.68
480.70	74.90
480.88	23.41
481.06	4.68
481.24	63.19
481.41	77.24
481.59	67.88
481.77	98.30
481.95	53.83
482.13	63.19
482.31	86.60
482.49	0.00
482.67	30.43
482.85	39.79
483.03	21.06
483.21	63.19
483.39	16.38
483.57	81.92
483.74	63.19
483.92	42.13
484.10	58.51
484.28	23.41
484.46	72.56
484.64	9.36
484.82	63.19
485.00	67.88
485.18	131.07
485.35	65.54
485.53	28.09
485.71	105.32
485.89	70.22
486.07	35.11
486.25	53.83
486.43	74.90
486.61	51.49
486.78	32.77
486.96	0.00
487.14	42.13
487.32	65.54
487.50	70.22
487.68	126.39
487.85	63.19
488.03	74.90
488.21	81.92
488.39	65.54
488.57	74.90
488.75	44.47
488.92	79.58
489.10	4.68
489.28	93.62
489.46	91.28
489.64	42.13
489.81	49.15
489.99	18.72
490.17	74.90
490.35	46.81
490.53	93.62
490.70	67.88
490.88	95.96
491.06	60.85
491.24	21.06
491.41	84.26
491.59	58.51
491.77	161.50
491.95	37.45
492.13	0.00
492.30	51.49
492.48	58.51
492.66	25.75
492.84	7.02
493.01	16.38
493.19	49.15
493.37	128.73
493.54	46.81
493.72	63.19
493.90	100.64
494.08	23.41
494.25	51.49
494.43	112.35
494.61	79.58
494.79	0.00
494.96	74.90
495.14	86.60
495.32	81.92
495.49	51.49
495.67	112.35
495.85	95.96
496.02	60.85
496.20	67.88
496.38	86.60
496.55	23.41
496.73	51.49
496.91	100.64
497.09	37.45
497.26	98.30
497.44	63.19
497.62	56.17
497.79	145.11
497.97	0.00
498.14	30.43
498.32	95.96
498.50	0.00
498.67	84.26
498.85	159.16
499.03	88.94
499.20	95.96
499.38	93.62
499.56	70.22
499.73	159.16
499.91	74.90
500.08	0.00
500.26	35.11
500.44	60.85
500.61	84.26
500.79	133.41
500.97	7.02
501.14	93.62
501.32	102.98
501.49	79.58
501.67	81.92
501.84	107.66
502.02	117.03
502.20	53.83
502.37	135.75
502.55	95.96
502.72	35.11
502.90	95.96
503.07	49.15
503.25	135.75
503.43	0.00
503.60	98.30
503.78	95.96
503.95	4.68
504.13	39.79
504.30	119.37
504.48	60.85
504.65	93.62
504.83	70.22
505.01	124.05
505.18	81.92
505.36	91.28
505.53	121.71
505.71	93.62
505.88	77.24
506.06	42.13
506.23	67.88
506.41	58.51
506.58	58.51
506.76	39.79
506.93	46.81
507.11	77.24
507.28	126.39
507.46	126.39
507.63	117.03
507.81	51.49
507.98	84.26
508.16	46.81
508.33	119.37
508.50	44.47
508.68	91.28
508.85	91.28
509.03	93.62
509.20	107.66
509.38	42.13
509.55	81.92
509.73	93.62
509.90	86.60
510.08	21.06
510.25	65.54
510.42	135.75
510.60	84.26
510.77	105.32
510.95	114.69
511.12	86.60
511.30	86.60
511.47	60.85
511.64	60.85
511.82	81.92
511.99	102.98
512.17	110.01
512.34	131.07
512.51	145.11
512.69	93.62
512.86	32.77
513.04	112.35
513.21	32.77
513.38	32.77
513.56	51.49
513.73	51.49
513.90	53.83
514.08	84.26
514.25	67.88
514.43	133.41
514.60	98.30
514.77	156.82
514.95	0.00
515.12	72.56
515.29	42.13
515.47	110.01
515.64	93.62
515.81	84.26
515.99	46.81
516.16	102.98
516.33	32.77
516.51	16.38
516.68	0.00
516.85	56.17
517.03	168.52
517.20	126.39
517.37	100.64
517.54	140.43
517.72	126.39
517.89	114.69
518.06	98.30
518.24	51.49
518.41	72.56
518.58	131.07
518.75	56.17
518.93	58.51
519.10	74.90
519.27	81.92
519.45	95.96
519.62	142.77
519.79	72.56
519.96	110.01
520.14	121.71
520.31	74.90
520.48	145.11
520.65	119.37
520.83	42.13
521.00	63.19
521.17	56.17
521.34	147.45
521.52	46.81
521.69	128.73
521.86	117.03
522.03	161.50
522.20	23.41
522.38	56.17
522.55	84.26
522.72	58.51
522.89	102.98
523.07	105.32
523.24	112.35
523.41	70.22
523.58	32.77
523.75	128.73
523.92	79.58
524.10	53.83
524.27	91.28
524.44	70.22
524.61	102.98
524.78	53.83
524.96	117.03
525.13	88.94
525.30	60.85
525.47	79.58
525.64	49.15
525.81	65.54
525.98	114.69
526.16	72.56
526.33	84.26
526.50	42.13
526.67	77.24
526.84	23.41
527.01	42.13
527.18	37.45
527.36	119.37
527.53	74.90
527.70	60.85
527.87	53.83
528.04	163.84
528.21	107.66
528.38	112.35
528.55	72.56
528.72	86.60
528.89	56.17
529.07	154.48
529.24	93.62
529.41	86.60
529.58	131.07
529.75	56.17
529.92	18.72
530.09	56.17
530.26	88.94
530.43	88.94
530.60	124.05
530.77	112.35
530.94	117.03
531.11	114.69
531.28	91.28
531.46	105.32
531.63	74.90
531.80	84.26
531.97	105.32
532.14	30.43
532.31	98.30
532.48	65.54
532.65	53.83
532.82	88.94
532.99	53.83
533.16	53.83
533.33	102.98
533.50	44.47
533.67	93.62
533.84	63.19
534.01	56.17
534.18	81.92
534.35	110.01
534.52	126.39
534.69	60.85
534.86	95.96
535.03	18.72
535.20	98.30
535.37	77.24
535.54	72.56
535.71	58.51
535.88	107.66
536.05	102.98
536.22	74.90
536.38	88.94
536.55	72.56
536.72	67.88
536.89	25.75
537.06	124.05
537.23	95.96
537.40	39.79
537.57	100.64
537.74	79.58
537.91	30.43
538.08	107.66
538.25	74.90
538.42	112.35
538.59	117.03
538.75	67.88
538.92	105.32
539.09	142.77
539.26	117.03
539.43	81.92
539.60	25.75
539.77	98.30
539.94	91.28
540.11	44.47
540.28	177.88
540.44	37.45
540.61	77.24
540.78	60.85
540.95	81.92
541.12	138.09
541.29	95.96
541.46	138.09
541.62	81.92
541.79	91.28
541.96	105.32
542.13	124.05
542.30	72.56
542.47	124.05
542.63	105.32
542.80	79.58
542.97	102.98
543.14	114.69
543.31	91.28
543.48	74.90
543.64	16.38
543.81	79.58
543.98	163.84
544.15	84.26
544.32	107.66
544.48	23.41
544.65	39.79
544.82	53.83
544.99	93.62
545.16	46.81
545.32	49.15
545.49	114.69
545.66	46.81
545.83	93.62
546.00	147.45
546.16	77.24
546.33	121.71
546.50	60.85
546.67	51.49
546.83	128.73
547.00	28.09
547.17	65.54
547.34	37.45
547.50	105.32
547.67	84.26
547.84	135.75
548.00	119.37
548.17	105.32
548.34	88.94
548.51	16.38
548.67	65.54
548.84	163.84
549.01	51.49
549.18	131.07
549.34	91.28
549.51	37.45
549.68	117.03
549.84	152.13
550.01	58.51
550.18	110.01
550.34	53.83
550.51	95.96
550.68	60.85
550.84	72.56
551.01	0.00
551.18	46.81
551.34	49.15
551.51	93.62
551.68	77.24
551.84	114.69
552.01	126.39
552.18	102.98
552.34	60.85
552.51	110.01
552.68	51.49
552.84	114.69
553.01	0.00
553.18	124.05
553.34	95.96
553.51	74.90
553.67	35.11
553.84	117.03
554.01	79.58
554.17	77.24
554.34	58.51
554.51	105.32
554.67	63.19
554.84	56.17
555.00	63.19
555.17	88.94
555.33	142.77
555.50	149.79
555.67	53.83
555.83	112.35
556.00	14.04
556.16	79.58
556.33	145.11
556.50	135.75
556.66	138.09
556.83	93.62
556.99	35.11
557.16	14.04
557.32	49.15
557.49	51.49
557.65	91.28
557.82	67.88
557.98	65.54
558.15	63.19
558.32	156.82
558.48	138.09
558.65	30.43
558.81	63.19
558.98	84.26
559.14	46.81
559.31	49.15
559.47	74.90
559.64	74.90
559.80	110.01
559.97	67.88
560.13	93.62
560.30	28.09
560.46	65.54
560.63	23.41
560.79	70.22
560.96	30.43
561.12	79.58
561.29	88.94
561.45	149.79
561.61	93.62
561.78	72.56
561.94	53.83
562.11	49.15
562.27	107.66
562.44	30.43
562.60	100.64
562.77	88.94
562.93	67.88
563.10	138.09
563.26	112.35
563.42	60.85
563.59	119.37
563.75	86.60
563.92	37.45
564.08	112.35
564.24	72.56
564.41	53.83
564.57	112.35
564.74	107.66
564.90	58.51
565.07	4.68
565.23	72.56
565.39	9.36
565.56	25.75
565.72	74.90
565.88	53.83
566.05	60.85
566.21	119.37
566.38	81.92
566.54	154.48
566.70	58.51
566.87	63.19
567.03	102.98
567.19	102.98
567.36	9.36
567.52	77.24
567.68	105.32
567.85	44.47
568.01	84.26
568.17	51.49
568.34	88.94
568.50	100.64
568.66	145.11
568.83	121.71
568.99	77.24
569.15	98.30
569.32	46.81
569.48	114.69
569.64	72.56
569.81	140.43
569.97	32.77
570.13	53.83
570.30	95.96
570.46	63.19
570.62	77.24
570.78	105.32
570.95	91.28
571.11	81.92
571.27	81.92
571.43	72.56
571.60	100.64
571.76	117.03
571.92	42.13
572.09	117.03
572.25	49.15
572.41	86.60
572.57	14.04
572.74	60.85
572.90	32.77
573.06	77.24
573.22	28.09
573.38	0.00
573.55	79.58
573.71	56.17
573.87	72.56
574.03	67.88
574.20	28.09
574.36	51.49
574.52	30.43
574.68	32.77
574.84	117.03
575.01	63.19
575.17	72.56
575.33	37.45
575.49	93.62
575.65	16.38
575.82	2.34
575.98	112.35
576.14	84.26
576.30	67.88
576.46	77.24
576.62	81.92
576.79	28.09
576.95	145.11
577.11	49.15
577.27	16.38
577.43	77.24
577.59	98.30
577.75	53.83
577.92	25.75
578.08	60.85
578.24	60.85
578.40	79.58
578.56	126.39
578.72	95.96
578.88	65.54
579.04	74.90
579.21	30.43
579.37	46.81
579.53	126.39
579.69	86.60
579.85	112.35
580.01	93.62
580.17	84.26
580.33	91.28
580.49	105.32
580.65	114.69
580.82	0.00
580.98	149.79
581.14	77.24
581.30	88.94
581.46	126.39
581.62	152.13
581.78	70.22
581.94	53.83
582.10	98.30
582.26	21.06
582.42	58.51
582.58	9.36
582.74	51.49
582.90	37.45
583.06	60.85
583.22	30.43
583.38	93.62
583.54	81.92
583.70	53.83
583.86	53.83
584.02	56.17
584.18	159.16
584.34	53.83
584.50	93.62
584.66	0.00
584.82	65.54
584.98	72.56
585.14	44.47
585.30	30.43
585.46	0.00
585.62	100.64
585.78	117.03
585.94	86.60
586.10	135.75
586.26	107.66
586.42	128.73
586.58	28.09
586.74	100.64
586.90	98.30
587.06	70.22
587.22	51.49
587.38	14.04
587.54	46.81
587.70	51.49
587.86	93.62
588.02	79.58
588.18	138.09
588.34	107.66
588.49	28.09
588.65	46.81
588.81	93.62
588.97	124.05
589.13	100.64
589.29	72.56
589.45	49.15
589.61	86.60
589.77	39.79
589.93	46.81
590.08	58.51
590.24	74.90
590.40	65.54
590.56	117.03
590.72	107.66
590.88	65.54
591.04	11.70
591.20	21.06
591.35	86.60
591.51	112.35
591.67	32.77
591.83	81.92
591.99	67.88
592.15	107.66
592.31	7.02
592.46	9.36
592.62	35.11
592.78	93.62
592.94	149.79
593.10	65.54
593.26	58.51
593.41	9.36
593.57	81.92
593.73	72.56
593.89	107.66
594.05	32.77
594.20	124.05
594.36	107.66
594.52	95.96
594.68	44.47
594.84	67.88
594.99	0.00
595.15	100.64
595.31	0.00
595.47	21.06
595.62	88.94
595.78	16.38
595.94	102.98
596.10	67.88
596.25	67.88
596.41	53.83
596.57	88.94
596.73	49.15
596.88	77.24
597.04	110.01
597.20	4.68
597.36	58.51
597.51	58.51
597.67	77.24
597.83	72.56
597.99	88.94
598.14	44.47
598.30	65.54
598.46	58.51
598.61	128.73
598.77	18.72
598.93	119.37
599.09	100.64
599.24	77.24
599.40	49.15
599.56	11.70
599.71	72.56
599.87	79.58
600.03	49.15
600.18	30.43
600.34	88.94
600.50	67.88
600.65	98.30
600.81	107.66
600.97	79.58
601.12	44.47
601.28	56.17
601.44	86.60
601.59	58.51
601.75	58.51
601.91	18.72
602.06	88.94
602.22	128.73
602.37	187.24
602.53	74.90
602.69	88.94
602.84	32.77
603.00	77.24
603.16	140.43
603.31	100.64
603.47	67.88
603.62	63.19
603.78	60.85
603.94	23.41
604.09	35.11
604.25	49.15
604.40	95.96
604.56	77.24
604.71	39.79
604.87	51.49
605.03	51.49
605.18	95.96
605.34	30.43
605.49	154.48
605.65	56.17
605.80	93.62
605.96	77.24
606.12	100.64
606.27	60.85
606.43	74.90
606.58	63.19
606.74	28.09
606.89	86.60
607.05	0.00
607.20	60.85
607.36	21.06
607.51	72.56
607.67	51.49
607.82	51.49
607.98	51.49
608.13	93.62
608.29	35.11
608.44	107.66
608.60	93.62
608.75	70.22
608.91	74.90
609.06	91.28
609.22	72.56
609.37	46.81
609.53	100.64
609.68	60.85
609.84	7.02
609.99	70.22
610.15	58.51
610.30	37.45
610.46	9.36
610.61	58.51
610.76	70.22
610.92	140.43
611.07	53.83
611.23	79.58
611.38	65.54
611.54	58.51
611.69	58.51
611.84	128.73
612.00	138.09
612.15	32.77
612.31	28.09
612.46	98.30
612.62	72.56
612.77	46.81
612.92	63.19
613.08	81.92
613.23	140.43
613.39	124.05
613.54	9.36
613.69	117.03
613.85	46.81
614.00	107.66
614.15	60.85
614.31	42.13
614.46	88.94
614.62	84.26
614.77	95.96
614.92	35.11
615.08	32.77
615.23	133.41
615.38	72.56
615.54	67.88
615.69	100.64
615.84	30.43
616.00	0.00
616.15	77.24
616.30	88.94
616.46	67.88
616.61	74.90
616.76	77.24
616.92	60.85
617.07	58.51
617.22	133.41
617.37	21.06
617.53	100.64
617.68	67.88
617.83	65.54
617.99	0.00
618.14	49.15
618.29	112.35
618.45	58.51
618.60	110.01
618.75	53.83
618.90	98.30
619.06	121.71
619.21	53.83
619.36	91.28
619.51	0.00
619.67	0.00
619.82	98.30
619.97	60.85
620.12	49.15
620.28	70.22
620.43	112.35
620.58	100.64
620.73	39.79
620.89	39.79
621.04	53.83
621.19	72.56
621.34	67.88
621.49	72.56
621.65	65.54
621.80	35.11
621.95	16.38
622.10	72.56
622.25	105.32
622.41	2.34
622.56	93.62
622.71	32.77
622.86	72.56
623.01	74.90
623.16	121.71
623.32	79.58
623.47	110.01
623.62	32.77
623.77	95.96
623.92	65.54
624.07	65.54
624.23	63.19
624.38	72.56
624.53	117.03
624.68	49.15
624.83	0.00
624.98	49.15
625.13	93.62
625.29	42.13
625.44	93.62
625.59	14.04
625.74	86.60
625.89	11.70
626.04	14.04
626.19	0.00
626.34	60.85
626.49	95.96
626.65	46.81
626.80	112.35
626.95	53.83
627.10	56.17
627.25	84.26
627.40	65.54
627.55	95.96
627.70	58.51
627.85	30.43
628.00	86.60
628.15	65.54
628.30	110.01
628.45	74.90
628.60	44.47
628.76	44.47
628.91	0.00
629.06	65.54
629.21	154.48
629.36	65.54
629.51	88.94
629.66	53.83
629.81	147.45
629.96	65.54
630.11	74.90
630.26	30.43
630.41	107.66
630.56	79.58
630.71	49.15
630.86	100.64
631.01	46.81
631.16	37.45
631.31	121.71
631.46	60.85
631.61	138.09
631.76	28.09
631.91	21.06
632.06	72.56
632.21	51.49
632.36	39.79
632.51	58.51
632.66	49.15
632.81	56.17
632.96	32.77
633.10	88.94
633.25	77.24
633.40	63.19
633.55	58.51
633.70	51.49
633.85	0.00
634.00	53.83
634.15	44.47
634.30	60.85
634.45	11.70
634.60	98.30
634.75	49.15
634.90	44.47
635.05	58.51
635.19	7.02
635.34	112.35
635.49	46.81
635.64	161.50
635.79	56.17
635.94	32.77
636.09	114.69
636.24	11.70
636.39	56.17
636.53	42.13
636.68	58.51
636.83	79.58
636.98	112.35
637.13	28.09
637.28	67.88
637.43	110.01
637.57	53.83
637.72	4.68
637.87	70.22
638.02	30.43
638.17	88.94
638.32	91.28
638.46	14.04
638.61	67.88
638.76	0.00
638.91	133.41
639.06	105.32
639.20	0.00
639.35	72.56
639.50	112.35
639.65	46.81
639.80	56.17
639.94	46.81
640.09	67.88
640.24	65.54
640.39	0.00
640.54	77.24
640.68	72.56
640.83	81.92
640.98	18.72
641.13	63.19
641.27	18.72
641.42	100.64
641.57	58.51
641.72	79.58
641.86	58.51
642.01	46.81
642.16	0.00
642.31	23.41
642.45	51.49
642.60	0.00
642.75	35.11
642.90	86.60
643.04	175.54
643.19	100.64
643.34	110.01
643.48	91.28
643.63	65.54
643.78	16.38
643.93	7.02
644.07	46.81
644.22	110.01
644.37	11.70
644.51	112.35
644.66	49.15
644.81	72.56
644.95	46.81
645.10	51.49
645.25	105.32
645.39	65.54
645.54	88.94
645.69	112.35
645.83	65.54
645.98	124.05
646.13	70.22
646.27	42.13
646.42	25.75
646.57	28.09
646.71	91.28
646.86	56.17
647.00	93.62
647.15	70.22
647.30	53.83
647.44	58.51
647.59	32.77
647.74	11.70
647.88	77.24
648.03	37.45
648.17	0.00
648.32	58.51
648.47	56.17
648.61	25.75
648.76	35.11
648.90	51.49
649.05	39.79
649.20	53.83
649.34	0.00
649.49	74.90
649.63	98.30
649.78	11.70
649.92	42.13
650.07	0.00
650.21	84.26
650.36	138.09
650.51	39.79
650.65	95.96
650.80	32.77
650.94	49.15
651.09	2.34
651.23	49.15
651.38	67.88
651.52	49.15
651.67	58.51
651.81	37.45
651.96	56.17
652.10	14.04
652.25	91.28
652.39	56.17
652.54	42.13
652.68	4.68
652.83	2.34
652.97	11.70
653.12	58.51
653.26	0.00
653.41	0.00
653.55	37.45
653.70	18.72
653.84	53.83
653.99	88.94
654.13	46.81
654.27	49.15
654.42	42.13
654.56	42.13
654.71	63.19
654.85	39.79
655.00	51.49
655.14	23.41
655.29	98.30
655.43	79.58
655.57	74.90
655.72	70.22
655.86	145.11
656.01	56.17
656.15	14.04
656.30	56.17
656.44	2.34
656.58	23.41
656.73	0.00
656.87	133.41
657.01	56.17
657.16	0.00
657.30	88.94
657.45	60.85
657.59	58.51
657.73	88.94
657.88	9.36
658.02	60.85
658.16	74.90
658.31	93.62
658.45	21.06
658.60	86.60
658.74	81.92
658.88	98.30
659.03	28.09
659.17	86.60
659.31	49.15
659.46	30.43
659.60	39.79
659.74	30.43
659.89	49.15
660.03	11.70
660.17	46.81
660.32	2.34
660.46	51.49
660.60	74.90
660.74	65.54
660.89	56.17
661.03	37.45
661.17	2.34
661.32	86.60
661.46	9.36
661.60	37.45
661.74	187.24
661.89	4.68
662.03	37.45
662.17	18.72
662.31	84.26
662.46	65.54
662.60	28.09
662.74	105.32
662.88	18.72
663.03	0.00
663.17	49.15
663.31	4.68
663.45	105.32
663.60	18.72
663.74	2.34
663.88	42.13
664.02	67.88
664.17	30.43
664.31	9.36
664.45	21.06
664.59	0.00
664.73	81.92
664.88	65.54
665.02	0.00
665.16	23.41
665.30	56.17
665.44	28.09
665.59	51.49
665.73	44.47
665.87	63.19
666.01	2.34
666.15	112.35
666.29	56.17
666.44	46.81
666.58	56.17
666.72	21.06
666.86	88.94
667.00	53.83
667.14	39.79
667.28	49.15
667.43	79.58
667.57	77.24
667.71	74.90
667.85	0.00
667.99	105.32
668.13	95.96
668.27	39.79
668.41	88.94
668.56	63.19
668.70	79.58
668.84	23.41
668.98	21.06
669.12	0.00
669.26	107.66
669.40	35.11
669.54	105.32
669.68	88.94
669.82	79.58
669.96	91.28
670.10	102.98
670.25	32.77
670.39	35.11
670.53	56.17
670.67	86.60
670.81	44.47
670.95	9.36
671.09	53.83
671.23	56.17
671.37	65.54
671.51	46.81
671.65	56.17
671.79	77.24
671.93	65.54
672.07	72.56
672.21	18.72
672.35	30.43
672.49	21.06
672.63	67.88
672.77	60.85
672.91	63.19
673.05	84.26
673.19	79.58
673.33	119.37
673.47	0.00
673.61	46.81
673.75	37.45
673.89	21.06
674.03	84.26
674.17	49.15
674.31	0.00
674.45	14.04
674.59	56.17
674.73	95.96
674.87	72.56
675.01	49.15
675.15	46.81
675.29	65.54
675.43	131.07
675.56	25.75
675.70	14.04
675.84	53.83
675.98	42.13
676.12	46.81
676.26	77.24
676.40	60.85
676.54	21.06
676.68	39.79
676.82	86.60
676.96	67.88
677.10	105.32
677.23	67.88
677.37	16.38
677.51	51.49
677.65	74.90
677.79	42.13
677.93	32.77
678.07	88.94
678.21	142.77
678.34	14.04
678.48	11.70
678.62	23.41
678.76	74.90
678.90	98.30
679.04	58.51
679.18	112.35
679.31	81.92
679.45	9.36
679.59	42.13
679.73	72.56
679.87	39.79
680.00	56.17
680.14	46.81
680.28	72.56
680.42	28.09
680.56	119.37
680.70	74.90
680.83	74.90
680.97	74.90
681.11	9.36
681.25	79.58
681.39	30.43
681.52	53.83
681.66	67.88
681.80	37.45
681.94	60.85
682.07	14.04
682.21	0.00
682.35	23.41
682.49	51.49
682.62	81.92
682.76	0.00
682.90	28.09
683.04	25.75
683.17	11.70
683.31	28.09
683.45	53.83
683.59	88.94
683.72	72.56
683.86	0.00
684.00	21.06
684.13	121.71
684.27	126.39
684.41	39.79
684.55	145.11
684.68	91.28
684.82	72.56
684.96	51.49
685.09	4.68
685.23	79.58
685.37	14.04
685.50	44.47
685.64	4.68
685.78	46.81
685.91	86.60
686.05	0.00
686.19	9.36
686.32	28.09
686.46	107.66
686.60	44.47
686.73	0.00
686.87	46.81
687.01	65.54
687.14	44.47
687.28	0.00
687.42	63.19
687.55	4.68
687.69	23.41
687.82	70.22
687.96	60.85
688.10	65.54
688.23	60.85
688.37	44.47
688.50	56.17
688.64	81.92
688.78	23.41
688.91	32.77
689.05	105.32
689.18	93.62
689.32	35.11
689.46	53.83
689.59	79.58
689.73	58.51
689.86	28.09
690.00	0.00
690.13	67.88
690.27	18.72
690.41	46.81
690.54	63.19
690.68	0.00
690.81	49.15
690.95	32.77
691.08	23.41
691.22	105.32
691.35	46.81
691.49	42.13
691.62	37.45
691.76	0.00
691.89	28.09
692.03	72.56
692.16	42.13
692.30	23.41
692.43	53.83
692.57	21.06
692.70	32.77
692.84	42.13
692.97	25.75
693.11	0.00
693.24	37.45
693.38	25.75
693.51	0.00
693.65	86.60
693.78	32.77
693.92	35.11
694.05	21.06
694.19	0.00
694.32	35.11
694.45	0.00
694.59	42.13
694.72	0.00
694.86	23.41
694.99	23.41
695.13	60.85
695.26	102.98
695.39	67.88
695.53	63.19
695.66	0.00
695.80	21.06
695.93	37.45
696.07	58.51
696.20	46.81
696.33	37.45
696.47	117.03
696.60	67.88
696.73	32.77
696.87	16.38
697.00	11.70
697.14	0.00
697.27	0.00
697.40	112.35
697.54	0.00
697.67	0.00
697.80	0.00
697.94	56.17
698.07	32.77
698.21	0.00
698.34	0.00
698.47	65.54
698.61	21.06
698.74	46.81
698.87	37.45
699.01	7.02
699.14	79.58
699.27	9.36
699.40	4.68
699.54	0.00
699.67	70.22
699.80	60.85
699.94	25.75
700.07	44.47
700.20	60.85
700.34	49.15
700.47	51.49
700.60	18.72
700.73	18.72
700.87	72.56
701.00	72.56
701.13	51.49
701.26	28.09
701.40	128.73
701.53	126.39
701.66	81.92
701.79	74.90
701.93	35.11
702.06	105.32
702.19	49.15
702.32	16.38
702.46	95.96
702.59	0.00
702.72	60.85
702.85	0.00
702.99	23.41
703.12	37.45
703.25	56.17
703.38	42.13
703.51	39.79
703.65	25.75
703.78	88.94
703.91	70.22
704.04	37.45
704.17	46.81
704.31	0.00
704.44	72.56
704.57	105.32
704.70	4.68
704.83	77.24
704.96	67.88
705.10	28.09
705.23	44.47
>>>>>End Processed Spectral Data<<<<<
