SpectraSuite Data File
++++++++++++++++++++++++++++++++++++
Date: Fri Oct 04 12:13:42 GMT-05:00 2013
User: price-jones
Dark Spectrum Present: No
Reference Spectrum Present: No
Number of Sampled Component Spectra: 1
Spectrometers: USB2+H05261
Integration Time (usec): 10000 (USB2+H05261)
Spectra Averaged: 1 (USB2+H05261)
Boxcar Smoothing: 0 (USB2+H05261)
Correct for Electrical Dark: No (USB2+H05261)
Strobe/Lamp Enabled: No (USB2+H05261)
Correct for Detector Non-linearity: No (USB2+H05261)
Correct for Stray Light: No (USB2+H05261)
Number of Pixels in Processed Spectrum: 2048
>>>>>Begin Processed Spectral Data<<<<<
365.73	39.79
365.92	39.79
366.12	39.79
366.32	0.00
366.52	0.00
366.72	0.00
366.91	0.00
367.11	0.00
367.31	0.00
367.51	0.00
367.70	0.00
367.90	0.00
368.10	0.00
368.30	0.00
368.49	0.00
368.69	0.00
368.89	0.00
369.09	0.00
369.28	0.00
369.48	0.00
369.68	0.00
369.87	0.00
370.07	0.00
370.27	0.00
370.47	0.00
370.66	0.00
370.86	0.00
371.06	0.00
371.25	42.13
371.45	0.00
371.65	0.00
371.84	0.00
372.04	0.00
372.24	0.00
372.44	21.06
372.63	28.09
372.83	0.00
373.03	21.06
373.22	0.00
373.42	0.00
373.62	28.09
373.81	63.19
374.01	46.81
374.21	14.04
374.40	0.00
374.60	37.45
374.79	23.41
374.99	63.19
375.19	39.79
375.38	0.00
375.58	95.96
375.78	72.56
375.97	121.71
376.17	7.02
376.37	23.41
376.56	28.09
376.76	58.51
376.95	44.47
377.15	93.62
377.35	98.30
377.54	112.35
377.74	28.09
377.93	28.09
378.13	0.00
378.33	53.83
378.52	56.17
378.72	30.43
378.91	77.24
379.11	0.00
379.31	0.00
379.50	0.00
379.70	46.81
379.89	0.00
380.09	0.00
380.28	11.70
380.48	0.00
380.68	58.51
380.87	16.38
381.07	7.02
381.26	0.00
381.46	65.54
381.65	65.54
381.85	16.38
382.04	28.09
382.24	53.83
382.43	0.00
382.63	0.00
382.83	25.75
383.02	16.38
383.22	28.09
383.41	14.04
383.61	51.49
383.80	56.17
384.00	0.00
384.19	53.83
384.39	11.70
384.58	4.68
384.78	9.36
384.97	112.35
385.17	0.00
385.36	9.36
385.56	0.00
385.75	77.24
385.95	0.00
386.14	0.00
386.34	25.75
386.53	2.34
386.72	28.09
386.92	16.38
387.11	25.75
387.31	21.06
387.50	0.00
387.70	28.09
387.89	16.38
388.09	0.00
388.28	4.68
388.48	0.00
388.67	25.75
388.86	44.47
389.06	53.83
389.25	42.13
389.45	0.00
389.64	0.00
389.84	42.13
390.03	28.09
390.22	93.62
390.42	37.45
390.61	35.11
390.81	0.00
391.00	46.81
391.19	0.00
391.39	0.00
391.58	0.00
391.78	51.49
391.97	21.06
392.16	0.00
392.36	0.00
392.55	37.45
392.75	4.68
392.94	37.45
393.13	53.83
393.33	0.00
393.52	0.00
393.71	39.79
393.91	0.00
394.10	0.00
394.29	28.09
394.49	0.00
394.68	7.02
394.88	42.13
395.07	28.09
395.26	58.51
395.46	37.45
395.65	0.00
395.84	2.34
396.04	9.36
396.23	77.24
396.42	44.47
396.62	53.83
396.81	0.00
397.00	9.36
397.19	39.79
397.39	0.00
397.58	70.22
397.77	65.54
397.97	46.81
398.16	60.85
398.35	32.77
398.55	44.47
398.74	65.54
398.93	77.24
399.12	72.56
399.32	46.81
399.51	60.85
399.70	0.00
399.90	21.06
400.09	58.51
400.28	91.28
400.47	100.64
400.67	74.90
400.86	102.98
401.05	32.77
401.24	11.70
401.44	0.00
401.63	21.06
401.82	63.19
402.01	39.79
402.21	79.58
402.40	65.54
402.59	9.36
402.78	112.35
402.97	23.41
403.17	7.02
403.36	0.00
403.55	23.41
403.74	32.77
403.93	49.15
404.13	2.34
404.32	138.09
404.51	49.15
404.70	7.02
404.89	18.72
405.09	77.24
405.28	30.43
405.47	23.41
405.66	23.41
405.85	0.00
406.05	9.36
406.24	0.00
406.43	0.00
406.62	77.24
406.81	77.24
407.00	25.75
407.20	28.09
407.39	56.17
407.58	79.58
407.77	81.92
407.96	58.51
408.15	0.00
408.34	11.70
408.54	49.15
408.73	0.00
408.92	0.00
409.11	53.83
409.30	0.00
409.49	28.09
409.68	79.58
409.87	14.04
410.07	74.90
410.26	23.41
410.45	49.15
410.64	0.00
410.83	117.03
411.02	72.56
411.21	23.41
411.40	4.68
411.59	16.38
411.78	0.00
411.98	63.19
412.17	131.07
412.36	95.96
412.55	72.56
412.74	2.34
412.93	37.45
413.12	53.83
413.31	37.45
413.50	77.24
413.69	67.88
413.88	0.00
414.07	2.34
414.26	44.47
414.45	63.19
414.64	0.00
414.83	65.54
415.02	67.88
415.22	16.38
415.41	23.41
415.60	32.77
415.79	0.00
415.98	107.66
416.17	16.38
416.36	84.26
416.55	0.00
416.74	46.81
416.93	46.81
417.12	23.41
417.31	0.00
417.50	23.41
417.69	37.45
417.88	0.00
418.07	14.04
418.26	42.13
418.45	74.90
418.64	53.83
418.83	65.54
419.02	9.36
419.21	79.58
419.39	0.00
419.58	23.41
419.77	63.19
419.96	110.01
420.15	0.00
420.34	7.02
420.53	67.88
420.72	25.75
420.91	49.15
421.10	4.68
421.29	0.00
421.48	39.79
421.67	39.79
421.86	105.32
422.05	0.00
422.24	74.90
422.43	16.38
422.61	21.06
422.80	0.00
422.99	37.45
423.18	42.13
423.37	21.06
423.56	39.79
423.75	11.70
423.94	39.79
424.13	4.68
424.32	18.72
424.50	117.03
424.69	0.00
424.88	60.85
425.07	0.00
425.26	91.28
425.45	37.45
425.64	25.75
425.83	44.47
426.01	0.00
426.20	65.54
426.39	4.68
426.58	74.90
426.77	35.11
426.96	32.77
427.15	53.83
427.33	14.04
427.52	112.35
427.71	88.94
427.90	84.26
428.09	121.71
428.28	2.34
428.46	81.92
428.65	63.19
428.84	16.38
429.03	0.00
429.22	91.28
429.40	72.56
429.59	0.00
429.78	51.49
429.97	21.06
430.16	0.00
430.34	95.96
430.53	128.73
430.72	53.83
430.91	0.00
431.10	23.41
431.28	23.41
431.47	128.73
431.66	74.90
431.85	18.72
432.03	56.17
432.22	28.09
432.41	49.15
432.60	0.00
432.79	0.00
432.97	102.98
433.16	63.19
433.35	2.34
433.54	0.00
433.72	0.00
433.91	7.02
434.10	102.98
434.28	60.85
434.47	65.54
434.66	72.56
434.85	28.09
435.03	77.24
435.22	0.00
435.41	0.00
435.59	84.26
435.78	175.54
435.97	67.88
436.16	58.51
436.34	86.60
436.53	65.54
436.72	25.75
436.90	84.26
437.09	7.02
437.28	63.19
437.46	4.68
437.65	81.92
437.84	44.47
438.02	72.56
438.21	9.36
438.40	0.00
438.58	14.04
438.77	65.54
438.96	67.88
439.14	79.58
439.33	18.72
439.52	84.26
439.70	114.69
439.89	0.00
440.08	77.24
440.26	124.05
440.45	32.77
440.63	7.02
440.82	35.11
441.01	25.75
441.19	86.60
441.38	72.56
441.57	42.13
441.75	72.56
441.94	63.19
442.12	60.85
442.31	0.00
442.50	145.11
442.68	53.83
442.87	74.90
443.05	49.15
443.24	4.68
443.43	23.41
443.61	51.49
443.80	105.32
443.98	79.58
444.17	105.32
444.35	91.28
444.54	30.43
444.73	58.51
444.91	39.79
445.10	18.72
445.28	58.51
445.47	28.09
445.65	35.11
445.84	67.88
446.02	142.77
446.21	140.43
446.39	63.19
446.58	53.83
446.77	102.98
446.95	58.51
447.14	23.41
447.32	28.09
447.51	124.05
447.69	51.49
447.88	2.34
448.06	46.81
448.25	67.88
448.43	56.17
448.62	95.96
448.80	0.00
448.99	67.88
449.17	37.45
449.36	63.19
449.54	18.72
449.73	84.26
449.91	18.72
450.10	0.00
450.28	93.62
450.46	126.39
450.65	37.45
450.83	0.00
451.02	91.28
451.20	53.83
451.39	56.17
451.57	28.09
451.76	77.24
451.94	58.51
452.13	81.92
452.31	28.09
452.49	84.26
452.68	72.56
452.86	121.71
453.05	51.49
453.23	51.49
453.42	0.00
453.60	67.88
453.78	9.36
453.97	0.00
454.15	35.11
454.34	70.22
454.52	53.83
454.70	35.11
454.89	0.00
455.07	72.56
455.26	53.83
455.44	35.11
455.62	65.54
455.81	32.77
455.99	98.30
456.17	32.77
456.36	51.49
456.54	0.00
456.73	105.32
456.91	46.81
457.09	72.56
457.28	72.56
457.46	63.19
457.64	70.22
457.83	70.22
458.01	70.22
458.19	25.75
458.38	63.19
458.56	65.54
458.74	35.11
458.93	77.24
459.11	46.81
459.29	58.51
459.48	49.15
459.66	86.60
459.84	32.77
460.03	21.06
460.21	56.17
460.39	28.09
460.57	0.00
460.76	63.19
460.94	0.00
461.12	107.66
461.31	21.06
461.49	63.19
461.67	21.06
461.85	67.88
462.04	81.92
462.22	117.03
462.40	121.71
462.59	86.60
462.77	84.26
462.95	37.45
463.13	18.72
463.32	79.58
463.50	0.00
463.68	79.58
463.86	117.03
464.05	65.54
464.23	84.26
464.41	91.28
464.59	81.92
464.78	131.07
464.96	110.01
465.14	70.22
465.32	81.92
465.50	21.06
465.69	67.88
465.87	44.47
466.05	65.54
466.23	56.17
466.41	35.11
466.60	23.41
466.78	81.92
466.96	88.94
467.14	0.00
467.32	72.56
467.51	0.00
467.69	23.41
467.87	63.19
468.05	81.92
468.23	0.00
468.41	35.11
468.60	67.88
468.78	14.04
468.96	28.09
469.14	79.58
469.32	7.02
469.50	0.00
469.69	46.81
469.87	39.79
470.05	49.15
470.23	58.51
470.41	0.00
470.59	86.60
470.77	37.45
470.95	28.09
471.14	77.24
471.32	65.54
471.50	88.94
471.68	7.02
471.86	72.56
472.04	138.09
472.22	67.88
472.40	30.43
472.58	28.09
472.77	95.96
472.95	65.54
473.13	60.85
473.31	86.60
473.49	44.47
473.67	140.43
473.85	46.81
474.03	93.62
474.21	0.00
474.39	63.19
474.57	18.72
474.75	81.92
474.93	81.92
475.12	44.47
475.30	63.19
475.48	74.90
475.66	0.00
475.84	32.77
476.02	44.47
476.20	60.85
476.38	88.94
476.56	77.24
476.74	88.94
476.92	102.98
477.10	39.79
477.28	39.79
477.46	30.43
477.64	53.83
477.82	81.92
478.00	93.62
478.18	107.66
478.36	81.92
478.54	42.13
478.72	4.68
478.90	86.60
479.08	30.43
479.26	23.41
479.44	18.72
479.62	11.70
479.80	63.19
479.98	56.17
480.16	93.62
480.34	140.43
480.52	142.77
480.70	7.02
480.88	39.79
481.06	74.90
481.24	0.00
481.41	49.15
481.59	14.04
481.77	121.71
481.95	84.26
482.13	49.15
482.31	60.85
482.49	53.83
482.67	79.58
482.85	0.00
483.03	58.51
483.21	46.81
483.39	18.72
483.57	72.56
483.74	0.00
483.92	44.47
484.10	32.77
484.28	49.15
484.46	72.56
484.64	37.45
484.82	81.92
485.00	105.32
485.18	0.00
485.35	112.35
485.53	42.13
485.71	138.09
485.89	35.11
486.07	72.56
486.25	98.30
486.43	46.81
486.61	91.28
486.78	135.75
486.96	114.69
487.14	86.60
487.32	79.58
487.50	42.13
487.68	112.35
487.85	88.94
488.03	67.88
488.21	65.54
488.39	46.81
488.57	93.62
488.75	95.96
488.92	107.66
489.10	42.13
489.28	74.90
489.46	88.94
489.64	135.75
489.81	67.88
489.99	49.15
490.17	86.60
490.35	105.32
490.53	0.00
490.70	74.90
490.88	72.56
491.06	77.24
491.24	21.06
491.41	79.58
491.59	60.85
491.77	93.62
491.95	98.30
492.13	32.77
492.30	35.11
492.48	91.28
492.66	131.07
492.84	88.94
493.01	93.62
493.19	14.04
493.37	112.35
493.54	28.09
493.72	51.49
493.90	86.60
494.08	74.90
494.25	100.64
494.43	65.54
494.61	72.56
494.79	98.30
494.96	88.94
495.14	105.32
495.32	86.60
495.49	107.66
495.67	100.64
495.85	32.77
496.02	51.49
496.20	133.41
496.38	107.66
496.55	77.24
496.73	126.39
496.91	88.94
497.09	107.66
497.26	63.19
497.44	88.94
497.62	88.94
497.79	126.39
497.97	91.28
498.14	65.54
498.32	86.60
498.50	81.92
498.67	39.79
498.85	79.58
499.03	107.66
499.20	18.72
499.38	44.47
499.56	191.92
499.73	121.71
499.91	56.17
500.08	105.32
500.26	14.04
500.44	95.96
500.61	32.77
500.79	72.56
500.97	65.54
501.14	107.66
501.32	110.01
501.49	117.03
501.67	79.58
501.84	67.88
502.02	14.04
502.20	28.09
502.37	67.88
502.55	67.88
502.72	84.26
502.90	107.66
503.07	74.90
503.25	112.35
503.43	7.02
503.60	74.90
503.78	49.15
503.95	81.92
504.13	56.17
504.30	67.88
504.48	72.56
504.65	131.07
504.83	133.41
505.01	0.00
505.18	56.17
505.36	67.88
505.53	14.04
505.71	91.28
505.88	77.24
506.06	138.09
506.23	102.98
506.41	72.56
506.58	51.49
506.76	14.04
506.93	30.43
507.11	44.47
507.28	114.69
507.46	133.41
507.63	49.15
507.81	117.03
507.98	105.32
508.16	46.81
508.33	70.22
508.50	72.56
508.68	35.11
508.85	88.94
509.03	95.96
509.20	128.73
509.38	145.11
509.55	107.66
509.73	58.51
509.90	93.62
510.08	138.09
510.25	112.35
510.42	44.47
510.60	72.56
510.77	102.98
510.95	28.09
511.12	77.24
511.30	95.96
511.47	49.15
511.64	86.60
511.82	88.94
511.99	23.41
512.17	56.17
512.34	105.32
512.51	84.26
512.69	65.54
512.86	32.77
513.04	23.41
513.21	128.73
513.38	65.54
513.56	53.83
513.73	91.28
513.90	140.43
514.08	126.39
514.25	86.60
514.43	98.30
514.60	79.58
514.77	74.90
514.95	74.90
515.12	110.01
515.29	119.37
515.47	110.01
515.64	84.26
515.81	32.77
515.99	100.64
516.16	131.07
516.33	154.48
516.51	30.43
516.68	42.13
516.85	18.72
517.03	63.19
517.20	53.83
517.37	77.24
517.54	60.85
517.72	77.24
517.89	102.98
518.06	100.64
518.24	42.13
518.41	53.83
518.58	81.92
518.75	91.28
518.93	46.81
519.10	74.90
519.27	91.28
519.45	46.81
519.62	84.26
519.79	42.13
519.96	44.47
520.14	74.90
520.31	138.09
520.48	0.00
520.65	84.26
520.83	44.47
521.00	88.94
521.17	105.32
521.34	42.13
521.52	88.94
521.69	70.22
521.86	46.81
522.03	28.09
522.20	63.19
522.38	102.98
522.55	49.15
522.72	93.62
522.89	177.88
523.07	91.28
523.24	95.96
523.41	133.41
523.58	88.94
523.75	51.49
523.92	126.39
524.10	152.13
524.27	114.69
524.44	114.69
524.61	131.07
524.78	23.41
524.96	114.69
525.13	98.30
525.30	42.13
525.47	53.83
525.64	117.03
525.81	105.32
525.98	25.75
526.16	135.75
526.33	79.58
526.50	58.51
526.67	91.28
526.84	95.96
527.01	35.11
527.18	63.19
527.36	102.98
527.53	93.62
527.70	86.60
527.87	44.47
528.04	117.03
528.21	110.01
528.38	77.24
528.55	93.62
528.72	30.43
528.89	84.26
529.07	100.64
529.24	79.58
529.41	95.96
529.58	93.62
529.75	32.77
529.92	46.81
530.09	88.94
530.26	95.96
530.43	65.54
530.60	126.39
530.77	93.62
530.94	119.37
531.11	32.77
531.28	63.19
531.46	105.32
531.63	156.82
531.80	140.43
531.97	58.51
532.14	140.43
532.31	100.64
532.48	51.49
532.65	37.45
532.82	21.06
532.99	44.47
533.16	58.51
533.33	112.35
533.50	16.38
533.67	60.85
533.84	44.47
534.01	70.22
534.18	46.81
534.35	126.39
534.52	70.22
534.69	93.62
534.86	49.15
535.03	110.01
535.20	46.81
535.37	117.03
535.54	110.01
535.71	56.17
535.88	119.37
536.05	35.11
536.22	30.43
536.38	65.54
536.55	124.05
536.72	74.90
536.89	147.45
537.06	79.58
537.23	93.62
537.40	166.18
537.57	74.90
537.74	51.49
537.91	124.05
538.08	98.30
538.25	95.96
538.42	159.16
538.59	88.94
538.75	91.28
538.92	74.90
539.09	56.17
539.26	51.49
539.43	37.45
539.60	72.56
539.77	81.92
539.94	93.62
540.11	25.75
540.28	39.79
540.44	51.49
540.61	35.11
540.78	23.41
540.95	138.09
541.12	107.66
541.29	65.54
541.46	23.41
541.62	117.03
541.79	77.24
541.96	0.00
542.13	56.17
542.30	114.69
542.47	74.90
542.63	84.26
542.80	51.49
542.97	163.84
543.14	65.54
543.31	51.49
543.48	39.79
543.64	128.73
543.81	81.92
543.98	39.79
544.15	58.51
544.32	49.15
544.48	98.30
544.65	110.01
544.82	65.54
544.99	72.56
545.16	81.92
545.32	46.81
545.49	60.85
545.66	67.88
545.83	88.94
546.00	91.28
546.16	79.58
546.33	35.11
546.50	65.54
546.67	126.39
546.83	95.96
547.00	95.96
547.17	147.45
547.34	42.13
547.50	198.95
547.67	91.28
547.84	110.01
548.00	42.13
548.17	53.83
548.34	81.92
548.51	131.07
548.67	98.30
548.84	86.60
549.01	102.98
549.18	126.39
549.34	79.58
549.51	42.13
549.68	105.32
549.84	124.05
550.01	70.22
550.18	72.56
550.34	63.19
550.51	100.64
550.68	105.32
550.84	0.00
551.01	60.85
551.18	72.56
551.34	58.51
551.51	131.07
551.68	77.24
551.84	30.43
552.01	39.79
552.18	128.73
552.34	105.32
552.51	100.64
552.68	93.62
552.84	128.73
553.01	138.09
553.18	56.17
553.34	53.83
553.51	91.28
553.67	126.39
553.84	86.60
554.01	102.98
554.17	28.09
554.34	95.96
554.51	95.96
554.67	72.56
554.84	81.92
555.00	77.24
555.17	79.58
555.33	21.06
555.50	138.09
555.67	102.98
555.83	95.96
556.00	39.79
556.16	70.22
556.33	23.41
556.50	77.24
556.66	79.58
556.83	25.75
556.99	154.48
557.16	98.30
557.32	63.19
557.49	93.62
557.65	98.30
557.82	51.49
557.98	124.05
558.15	60.85
558.32	131.07
558.48	152.13
558.65	56.17
558.81	81.92
558.98	77.24
559.14	58.51
559.31	9.36
559.47	102.98
559.64	91.28
559.80	86.60
559.97	126.39
560.13	77.24
560.30	58.51
560.46	77.24
560.63	166.18
560.79	70.22
560.96	53.83
561.12	88.94
561.29	119.37
561.45	86.60
561.61	121.71
561.78	0.00
561.94	58.51
562.11	88.94
562.27	159.16
562.44	72.56
562.60	42.13
562.77	46.81
562.93	161.50
563.10	65.54
563.26	121.71
563.42	110.01
563.59	110.01
563.75	79.58
563.92	72.56
564.08	149.79
564.24	98.30
564.41	95.96
564.57	102.98
564.74	100.64
564.90	121.71
565.07	23.41
565.23	79.58
565.39	81.92
565.56	74.90
565.72	88.94
565.88	63.19
566.05	56.17
566.21	63.19
566.38	95.96
566.54	53.83
566.70	39.79
566.87	70.22
567.03	74.90
567.19	105.32
567.36	95.96
567.52	74.90
567.68	77.24
567.85	95.96
568.01	32.77
568.17	93.62
568.34	107.66
568.50	79.58
568.66	88.94
568.83	0.00
568.99	81.92
569.15	65.54
569.32	21.06
569.48	93.62
569.64	168.52
569.81	9.36
569.97	32.77
570.13	124.05
570.30	74.90
570.46	49.15
570.62	53.83
570.78	7.02
570.95	70.22
571.11	107.66
571.27	60.85
571.43	114.69
571.60	56.17
571.76	133.41
571.92	131.07
572.09	58.51
572.25	100.64
572.41	121.71
572.57	119.37
572.74	65.54
572.90	77.24
573.06	166.18
573.22	100.64
573.38	79.58
573.55	23.41
573.71	107.66
573.87	110.01
574.03	46.81
574.20	39.79
574.36	100.64
574.52	37.45
574.68	0.00
574.84	2.34
575.01	126.39
575.17	42.13
575.33	0.00
575.49	30.43
575.65	30.43
575.82	93.62
575.98	30.43
576.14	79.58
576.30	44.47
576.46	142.77
576.62	102.98
576.79	56.17
576.95	42.13
577.11	0.00
577.27	0.00
577.43	86.60
577.59	95.96
577.75	58.51
577.92	32.77
578.08	110.01
578.24	86.60
578.40	0.00
578.56	93.62
578.72	98.30
578.88	88.94
579.04	147.45
579.21	105.32
579.37	46.81
579.53	21.06
579.69	60.85
579.85	39.79
580.01	51.49
580.17	16.38
580.33	42.13
580.49	9.36
580.65	102.98
580.82	114.69
580.98	42.13
581.14	49.15
581.30	60.85
581.46	44.47
581.62	39.79
581.78	93.62
581.94	105.32
582.10	105.32
582.26	105.32
582.42	93.62
582.58	58.51
582.74	25.75
582.90	65.54
583.06	95.96
583.22	70.22
583.38	110.01
583.54	0.00
583.70	79.58
583.86	30.43
584.02	9.36
584.18	46.81
584.34	28.09
584.50	0.00
584.66	98.30
584.82	56.17
584.98	95.96
585.14	98.30
585.30	25.75
585.46	39.79
585.62	56.17
585.78	135.75
585.94	67.88
586.10	63.19
586.26	74.90
586.42	112.35
586.58	79.58
586.74	51.49
586.90	74.90
587.06	100.64
587.22	126.39
587.38	98.30
587.54	79.58
587.70	91.28
587.86	93.62
588.02	86.60
588.18	30.43
588.34	72.56
588.49	110.01
588.65	74.90
588.81	128.73
588.97	51.49
589.13	140.43
589.29	0.00
589.45	2.34
589.61	102.98
589.77	81.92
589.93	72.56
590.08	4.68
590.24	86.60
590.40	37.45
590.56	51.49
590.72	35.11
590.88	63.19
591.04	88.94
591.20	65.54
591.35	74.90
591.51	70.22
591.67	23.41
591.83	74.90
591.99	72.56
592.15	102.98
592.31	86.60
592.46	72.56
592.62	72.56
592.78	100.64
592.94	72.56
593.10	58.51
593.26	30.43
593.41	39.79
593.57	32.77
593.73	37.45
593.89	9.36
594.05	72.56
594.20	105.32
594.36	74.90
594.52	72.56
594.68	70.22
594.84	105.32
594.99	98.30
595.15	39.79
595.31	100.64
595.47	95.96
595.62	32.77
595.78	84.26
595.94	39.79
596.10	11.70
596.25	79.58
596.41	16.38
596.57	51.49
596.73	14.04
596.88	32.77
597.04	30.43
597.20	84.26
597.36	79.58
597.51	124.05
597.67	95.96
597.83	67.88
597.99	105.32
598.14	65.54
598.30	65.54
598.46	63.19
598.61	39.79
598.77	105.32
598.93	39.79
599.09	58.51
599.24	81.92
599.40	93.62
599.56	74.90
599.71	51.49
599.87	65.54
600.03	23.41
600.18	9.36
600.34	98.30
600.50	154.48
600.65	112.35
600.81	46.81
600.97	86.60
601.12	107.66
601.28	39.79
601.44	100.64
601.59	133.41
601.75	79.58
601.91	14.04
602.06	79.58
602.22	63.19
602.37	56.17
602.53	98.30
602.69	65.54
602.84	147.45
603.00	135.75
603.16	37.45
603.31	105.32
603.47	9.36
603.62	30.43
603.78	35.11
603.94	7.02
604.09	39.79
604.25	18.72
604.40	70.22
604.56	107.66
604.71	63.19
604.87	56.17
605.03	53.83
605.18	105.32
605.34	86.60
605.49	11.70
605.65	86.60
605.80	39.79
605.96	102.98
606.12	156.82
606.27	77.24
606.43	117.03
606.58	53.83
606.74	74.90
606.89	60.85
607.05	67.88
607.20	51.49
607.36	77.24
607.51	74.90
607.67	65.54
607.82	117.03
607.98	81.92
608.13	91.28
608.29	105.32
608.44	70.22
608.60	53.83
608.75	72.56
608.91	86.60
609.06	28.09
609.22	117.03
609.37	131.07
609.53	53.83
609.68	105.32
609.84	102.98
609.99	0.00
610.15	105.32
610.30	32.77
610.46	25.75
610.61	65.54
610.76	0.00
610.92	67.88
611.07	91.28
611.23	93.62
611.38	93.62
611.54	65.54
611.69	117.03
611.84	86.60
612.00	37.45
612.15	37.45
612.31	42.13
612.46	133.41
612.62	9.36
612.77	102.98
612.92	53.83
613.08	105.32
613.23	37.45
613.39	51.49
613.54	51.49
613.69	28.09
613.85	30.43
614.00	25.75
614.15	102.98
614.31	126.39
614.46	49.15
614.62	37.45
614.77	107.66
614.92	100.64
615.08	46.81
615.23	98.30
615.38	110.01
615.54	140.43
615.69	98.30
615.84	46.81
616.00	100.64
616.15	16.38
616.30	70.22
616.46	67.88
616.61	49.15
616.76	65.54
616.92	49.15
617.07	98.30
617.22	44.47
617.37	56.17
617.53	53.83
617.68	35.11
617.83	44.47
617.99	65.54
618.14	81.92
618.29	72.56
618.45	49.15
618.60	32.77
618.75	30.43
618.90	14.04
619.06	133.41
619.21	32.77
619.36	39.79
619.51	74.90
619.67	32.77
619.82	56.17
619.97	88.94
620.12	117.03
620.28	110.01
620.43	23.41
620.58	67.88
620.73	107.66
620.89	74.90
621.04	35.11
621.19	51.49
621.34	46.81
621.49	88.94
621.65	114.69
621.80	39.79
621.95	88.94
622.10	84.26
622.25	16.38
622.41	37.45
622.56	9.36
622.71	72.56
622.86	121.71
623.01	46.81
623.16	60.85
623.32	98.30
623.47	105.32
623.62	119.37
623.77	100.64
623.92	86.60
624.07	102.98
624.23	135.75
624.38	14.04
624.53	49.15
624.68	30.43
624.83	35.11
624.98	11.70
625.13	25.75
625.29	56.17
625.44	18.72
625.59	30.43
625.74	56.17
625.89	67.88
626.04	58.51
626.19	58.51
626.34	63.19
626.49	53.83
626.65	63.19
626.80	28.09
626.95	28.09
627.10	23.41
627.25	63.19
627.40	39.79
627.55	86.60
627.70	93.62
627.85	23.41
628.00	39.79
628.15	7.02
628.30	60.85
628.45	79.58
628.60	65.54
628.76	84.26
628.91	30.43
629.06	16.38
629.21	0.00
629.36	65.54
629.51	42.13
629.66	0.00
629.81	86.60
629.96	49.15
630.11	60.85
630.26	60.85
630.41	72.56
630.56	0.00
630.71	32.77
630.86	131.07
631.01	51.49
631.16	9.36
631.31	84.26
631.46	70.22
631.61	58.51
631.76	0.00
631.91	42.13
632.06	149.79
632.21	88.94
632.36	102.98
632.51	51.49
632.66	119.37
632.81	51.49
632.96	117.03
633.10	44.47
633.25	77.24
633.40	32.77
633.55	65.54
633.70	156.82
633.85	110.01
634.00	112.35
634.15	63.19
634.30	49.15
634.45	100.64
634.60	25.75
634.75	23.41
634.90	21.06
635.05	32.77
635.19	72.56
635.34	25.75
635.49	112.35
635.64	100.64
635.79	121.71
635.94	93.62
636.09	65.54
636.24	42.13
636.39	77.24
636.53	91.28
636.68	0.00
636.83	65.54
636.98	114.69
637.13	56.17
637.28	0.00
637.43	35.11
637.57	56.17
637.72	0.00
637.87	49.15
638.02	16.38
638.17	112.35
638.32	86.60
638.46	25.75
638.61	72.56
638.76	142.77
638.91	102.98
639.06	37.45
639.20	88.94
639.35	88.94
639.50	70.22
639.65	46.81
639.80	70.22
639.94	81.92
640.09	91.28
640.24	51.49
640.39	84.26
640.54	128.73
640.68	21.06
640.83	7.02
640.98	65.54
641.13	37.45
641.27	49.15
641.42	86.60
641.57	88.94
641.72	65.54
641.86	79.58
642.01	84.26
642.16	67.88
642.31	93.62
642.45	56.17
642.60	102.98
642.75	98.30
642.90	95.96
643.04	18.72
643.19	107.66
643.34	56.17
643.48	28.09
643.63	11.70
643.78	88.94
643.93	84.26
644.07	58.51
644.22	119.37
644.37	77.24
644.51	44.47
644.66	35.11
644.81	72.56
644.95	93.62
645.10	60.85
645.25	46.81
645.39	32.77
645.54	30.43
645.69	0.00
645.83	65.54
645.98	70.22
646.13	65.54
646.27	100.64
646.42	93.62
646.57	100.64
646.71	63.19
646.86	110.01
647.00	93.62
647.15	0.00
647.30	4.68
647.44	9.36
647.59	0.00
647.74	51.49
647.88	67.88
648.03	100.64
648.17	44.47
648.32	72.56
648.47	74.90
648.61	0.00
648.76	84.26
648.90	63.19
649.05	32.77
649.20	67.88
649.34	7.02
649.49	65.54
649.63	51.49
649.78	88.94
649.92	28.09
650.07	67.88
650.21	107.66
650.36	63.19
650.51	53.83
650.65	28.09
650.80	49.15
650.94	88.94
651.09	58.51
651.23	0.00
651.38	60.85
651.52	70.22
651.67	60.85
651.81	67.88
651.96	51.49
652.10	35.11
652.25	58.51
652.39	84.26
652.54	79.58
652.68	102.98
652.83	30.43
652.97	9.36
653.12	44.47
653.26	98.30
653.41	119.37
653.55	93.62
653.70	53.83
653.84	56.17
653.99	37.45
654.13	93.62
654.27	28.09
654.42	16.38
654.56	117.03
654.71	58.51
654.85	0.00
655.00	42.13
655.14	60.85
655.29	37.45
655.43	74.90
655.57	18.72
655.72	28.09
655.86	7.02
656.01	44.47
656.15	0.00
656.30	37.45
656.44	77.24
656.58	93.62
656.73	30.43
656.87	51.49
657.01	4.68
657.16	0.00
657.30	32.77
657.45	0.00
657.59	110.01
657.73	79.58
657.88	35.11
658.02	2.34
658.16	42.13
658.31	91.28
658.45	72.56
658.60	0.00
658.74	58.51
658.88	133.41
659.03	44.47
659.17	42.13
659.31	53.83
659.46	72.56
659.60	46.81
659.74	86.60
659.89	84.26
660.03	11.70
660.17	70.22
660.32	95.96
660.46	81.92
660.60	32.77
660.74	88.94
660.89	53.83
661.03	65.54
661.17	16.38
661.32	32.77
661.46	37.45
661.60	18.72
661.74	65.54
661.89	110.01
662.03	70.22
662.17	72.56
662.31	53.83
662.46	102.98
662.60	79.58
662.74	9.36
662.88	53.83
663.03	0.00
663.17	42.13
663.31	56.17
663.45	166.18
663.60	28.09
663.74	32.77
663.88	44.47
664.02	53.83
664.17	30.43
664.31	72.56
664.45	63.19
664.59	119.37
664.73	84.26
664.88	53.83
665.02	51.49
665.16	37.45
665.30	35.11
665.44	44.47
665.59	49.15
665.73	105.32
665.87	81.92
666.01	60.85
666.15	51.49
666.29	74.90
666.44	67.88
666.58	60.85
666.72	72.56
666.86	14.04
667.00	0.00
667.14	86.60
667.28	25.75
667.43	74.90
667.57	42.13
667.71	44.47
667.85	0.00
667.99	44.47
668.13	18.72
668.27	72.56
668.41	18.72
668.56	25.75
668.70	102.98
668.84	28.09
668.98	105.32
669.12	67.88
669.26	0.00
669.40	0.00
669.54	102.98
669.68	166.18
669.82	28.09
669.96	35.11
670.10	53.83
670.25	42.13
670.39	25.75
670.53	35.11
670.67	0.00
670.81	102.98
670.95	30.43
671.09	58.51
671.23	79.58
671.37	58.51
671.51	25.75
671.65	4.68
671.79	39.79
671.93	0.00
672.07	25.75
672.21	21.06
672.35	65.54
672.49	53.83
672.63	107.66
672.77	98.30
672.91	0.00
673.05	0.00
673.19	84.26
673.33	81.92
673.47	84.26
673.61	84.26
673.75	93.62
673.89	23.41
674.03	121.71
674.17	112.35
674.31	65.54
674.45	126.39
674.59	28.09
674.73	77.24
674.87	60.85
675.01	77.24
675.15	77.24
675.29	16.38
675.43	112.35
675.56	79.58
675.70	30.43
675.84	77.24
675.98	42.13
676.12	49.15
676.26	23.41
676.40	16.38
676.54	44.47
676.68	72.56
676.82	14.04
676.96	60.85
677.10	60.85
677.23	0.00
677.37	53.83
677.51	56.17
677.65	53.83
677.79	0.00
677.93	60.85
678.07	112.35
678.21	91.28
678.34	0.00
678.48	49.15
678.62	63.19
678.76	0.00
678.90	53.83
679.04	39.79
679.18	65.54
679.31	70.22
679.45	98.30
679.59	98.30
679.73	25.75
679.87	72.56
680.00	0.00
680.14	44.47
680.28	46.81
680.42	23.41
680.56	37.45
680.70	53.83
680.83	88.94
680.97	39.79
681.11	63.19
681.25	56.17
681.39	53.83
681.52	23.41
681.66	86.60
681.80	21.06
681.94	32.77
682.07	51.49
682.21	74.90
682.35	51.49
682.49	56.17
682.62	14.04
682.76	21.06
682.90	56.17
683.04	46.81
683.17	77.24
683.31	81.92
683.45	100.64
683.59	117.03
683.72	11.70
683.86	21.06
684.00	0.00
684.13	0.00
684.27	42.13
684.41	44.47
684.55	9.36
684.68	32.77
684.82	0.00
684.96	65.54
685.09	7.02
685.23	25.75
685.37	56.17
685.50	32.77
685.64	37.45
685.78	0.00
685.91	0.00
686.05	0.00
686.19	0.00
686.32	30.43
686.46	32.77
686.60	16.38
686.73	30.43
686.87	117.03
687.01	7.02
687.14	49.15
687.28	0.00
687.42	0.00
687.55	28.09
687.69	81.92
687.82	91.28
687.96	23.41
688.10	119.37
688.23	42.13
688.37	105.32
688.50	70.22
688.64	70.22
688.78	35.11
688.91	4.68
689.05	84.26
689.18	67.88
689.32	105.32
689.46	53.83
689.59	23.41
689.73	63.19
689.86	0.00
690.00	42.13
690.13	49.15
690.27	37.45
690.41	58.51
690.54	81.92
690.68	53.83
690.81	65.54
690.95	0.00
691.08	23.41
691.22	56.17
691.35	0.00
691.49	0.00
691.62	14.04
691.76	9.36
691.89	42.13
692.03	74.90
692.16	53.83
692.30	32.77
692.43	53.83
692.57	16.38
692.70	0.00
692.84	0.00
692.97	7.02
693.11	0.00
693.24	35.11
693.38	16.38
693.51	0.00
693.65	0.00
693.78	16.38
693.92	53.83
694.05	58.51
694.19	18.72
694.32	39.79
694.45	28.09
694.59	30.43
694.72	84.26
694.86	28.09
694.99	35.11
695.13	49.15
695.26	7.02
695.39	84.26
695.53	107.66
695.66	14.04
695.80	53.83
695.93	53.83
696.07	93.62
696.20	35.11
696.33	0.00
696.47	0.00
696.60	0.00
696.73	32.77
696.87	0.00
697.00	51.49
697.14	18.72
697.27	9.36
697.40	32.77
697.54	11.70
697.67	51.49
697.80	30.43
697.94	16.38
698.07	25.75
698.21	23.41
698.34	0.00
698.47	46.81
698.61	28.09
698.74	65.54
698.87	11.70
699.01	9.36
699.14	35.11
699.27	86.60
699.40	39.79
699.54	16.38
699.67	0.00
699.80	23.41
699.94	32.77
700.07	4.68
700.20	65.54
700.34	58.51
700.47	63.19
700.60	0.00
700.73	0.00
700.87	72.56
701.00	35.11
701.13	70.22
701.26	0.00
701.40	16.38
701.53	86.60
701.66	9.36
701.79	86.60
701.93	0.00
702.06	56.17
702.19	0.00
702.32	44.47
702.46	23.41
702.59	16.38
702.72	21.06
702.85	93.62
702.99	65.54
703.12	23.41
703.25	49.15
703.38	37.45
703.51	53.83
703.65	28.09
703.78	28.09
703.91	42.13
704.04	0.00
704.17	60.85
704.31	23.41
704.44	44.47
704.57	58.51
704.70	37.45
704.83	0.00
704.96	79.58
705.10	95.96
705.23	63.19
>>>>>End Processed Spectral Data<<<<<
