SpectraSuite Data File
++++++++++++++++++++++++++++++++++++
Date: Fri Oct 04 12:13:27 GMT-05:00 2013
User: price-jones
Dark Spectrum Present: No
Reference Spectrum Present: No
Number of Sampled Component Spectra: 1
Spectrometers: USB2+H05261
Integration Time (usec): 10000 (USB2+H05261)
Spectra Averaged: 1 (USB2+H05261)
Boxcar Smoothing: 0 (USB2+H05261)
Correct for Electrical Dark: No (USB2+H05261)
Strobe/Lamp Enabled: No (USB2+H05261)
Correct for Detector Non-linearity: No (USB2+H05261)
Correct for Stray Light: No (USB2+H05261)
Number of Pixels in Processed Spectrum: 2048
>>>>>Begin Processed Spectral Data<<<<<
365.73	4.68
365.92	4.68
366.12	4.68
366.32	0.00
366.52	0.00
366.72	0.00
366.91	0.00
367.11	0.00
367.31	0.00
367.51	0.00
367.70	0.00
367.90	0.00
368.10	0.00
368.30	0.00
368.49	0.00
368.69	0.00
368.89	0.00
369.09	0.00
369.28	0.00
369.48	0.00
369.68	0.00
369.87	0.00
370.07	0.00
370.27	0.00
370.47	0.00
370.66	0.00
370.86	0.00
371.06	0.00
371.25	0.00
371.45	0.00
371.65	0.00
371.84	0.00
372.04	14.04
372.24	67.88
372.44	53.83
372.63	0.00
372.83	25.75
373.03	70.22
373.22	9.36
373.42	0.00
373.62	0.00
373.81	0.00
374.01	0.00
374.21	0.00
374.40	84.26
374.60	4.68
374.79	0.00
374.99	0.00
375.19	11.70
375.38	39.79
375.58	11.70
375.78	21.06
375.97	49.15
376.17	98.30
376.37	51.49
376.56	42.13
376.76	11.70
376.95	0.00
377.15	60.85
377.35	0.00
377.54	21.06
377.74	114.69
377.93	51.49
378.13	16.38
378.33	0.00
378.52	37.45
378.72	7.02
378.91	102.98
379.11	2.34
379.31	37.45
379.50	0.00
379.70	42.13
379.89	70.22
380.09	21.06
380.28	37.45
380.48	0.00
380.68	56.17
380.87	0.00
381.07	0.00
381.26	42.13
381.46	35.11
381.65	46.81
381.85	0.00
382.04	0.00
382.24	30.43
382.43	60.85
382.63	44.47
382.83	0.00
383.02	0.00
383.22	18.72
383.41	46.81
383.61	0.00
383.80	0.00
384.00	49.15
384.19	60.85
384.39	0.00
384.58	58.51
384.78	0.00
384.97	42.13
385.17	7.02
385.36	0.00
385.56	7.02
385.75	23.41
385.95	28.09
386.14	2.34
386.34	0.00
386.53	0.00
386.72	44.47
386.92	25.75
387.11	25.75
387.31	0.00
387.50	0.00
387.70	56.17
387.89	58.51
388.09	32.77
388.28	0.00
388.48	0.00
388.67	0.00
388.86	16.38
389.06	0.00
389.25	0.00
389.45	49.15
389.64	4.68
389.84	0.00
390.03	42.13
390.22	0.00
390.42	0.00
390.61	0.00
390.81	30.43
391.00	0.00
391.19	28.09
391.39	105.32
391.58	53.83
391.78	14.04
391.97	0.00
392.16	28.09
392.36	60.85
392.55	44.47
392.75	53.83
392.94	25.75
393.13	53.83
393.33	60.85
393.52	0.00
393.71	67.88
393.91	16.38
394.10	18.72
394.29	0.00
394.49	14.04
394.68	16.38
394.88	30.43
395.07	46.81
395.26	0.00
395.46	0.00
395.65	4.68
395.84	16.38
396.04	0.00
396.23	46.81
396.42	37.45
396.62	0.00
396.81	49.15
397.00	74.90
397.19	67.88
397.39	14.04
397.58	102.98
397.77	39.79
397.97	70.22
398.16	74.90
398.35	51.49
398.55	44.47
398.74	0.00
398.93	4.68
399.12	70.22
399.32	9.36
399.51	42.13
399.70	0.00
399.90	0.00
400.09	0.00
400.28	51.49
400.47	4.68
400.67	39.79
400.86	37.45
401.05	0.00
401.24	21.06
401.44	102.98
401.63	0.00
401.82	65.54
402.01	58.51
402.21	42.13
402.40	53.83
402.59	32.77
402.78	51.49
402.97	91.28
403.17	0.00
403.36	16.38
403.55	53.83
403.74	25.75
403.93	51.49
404.13	23.41
404.32	0.00
404.51	7.02
404.70	4.68
404.89	107.66
405.09	35.11
405.28	14.04
405.47	0.00
405.66	49.15
405.85	21.06
406.05	88.94
406.24	21.06
406.43	18.72
406.62	11.70
406.81	63.19
407.00	32.77
407.20	25.75
407.39	56.17
407.58	0.00
407.77	37.45
407.96	30.43
408.15	30.43
408.34	25.75
408.54	51.49
408.73	30.43
408.92	9.36
409.11	16.38
409.30	49.15
409.49	0.00
409.68	4.68
409.87	39.79
410.07	9.36
410.26	49.15
410.45	28.09
410.64	0.00
410.83	35.11
411.02	39.79
411.21	65.54
411.40	35.11
411.59	0.00
411.78	44.47
411.98	37.45
412.17	56.17
412.36	25.75
412.55	25.75
412.74	0.00
412.93	0.00
413.12	65.54
413.31	67.88
413.50	0.00
413.69	32.77
413.88	98.30
414.07	53.83
414.26	53.83
414.45	0.00
414.64	0.00
414.83	37.45
415.02	18.72
415.22	0.00
415.41	51.49
415.60	49.15
415.79	0.00
415.98	21.06
416.17	32.77
416.36	0.00
416.55	0.00
416.74	16.38
416.93	25.75
417.12	25.75
417.31	16.38
417.50	74.90
417.69	49.15
417.88	39.79
418.07	46.81
418.26	49.15
418.45	0.00
418.64	7.02
418.83	0.00
419.02	2.34
419.21	77.24
419.39	58.51
419.58	18.72
419.77	91.28
419.96	0.00
420.15	18.72
420.34	28.09
420.53	42.13
420.72	72.56
420.91	65.54
421.10	21.06
421.29	74.90
421.48	70.22
421.67	0.00
421.86	7.02
422.05	84.26
422.24	0.00
422.43	60.85
422.61	0.00
422.80	65.54
422.99	79.58
423.18	23.41
423.37	0.00
423.56	9.36
423.75	32.77
423.94	11.70
424.13	14.04
424.32	51.49
424.50	0.00
424.69	28.09
424.88	32.77
425.07	74.90
425.26	51.49
425.45	42.13
425.64	67.88
425.83	53.83
426.01	7.02
426.20	28.09
426.39	2.34
426.58	16.38
426.77	37.45
426.96	7.02
427.15	14.04
427.33	21.06
427.52	18.72
427.71	4.68
427.90	0.00
428.09	21.06
428.28	53.83
428.46	23.41
428.65	35.11
428.84	30.43
429.03	16.38
429.22	0.00
429.40	0.00
429.59	18.72
429.78	7.02
429.97	0.00
430.16	42.13
430.34	39.79
430.53	98.30
430.72	0.00
430.91	39.79
431.10	30.43
431.28	0.00
431.47	0.00
431.66	44.47
431.85	42.13
432.03	51.49
432.22	98.30
432.41	49.15
432.60	63.19
432.79	4.68
432.97	67.88
433.16	58.51
433.35	65.54
433.54	86.60
433.72	42.13
433.91	51.49
434.10	28.09
434.28	67.88
434.47	49.15
434.66	32.77
434.85	124.05
435.03	0.00
435.22	63.19
435.41	32.77
435.59	56.17
435.78	11.70
435.97	28.09
436.16	21.06
436.34	7.02
436.53	56.17
436.72	25.75
436.90	105.32
437.09	30.43
437.28	23.41
437.46	0.00
437.65	60.85
437.84	67.88
438.02	39.79
438.21	42.13
438.40	4.68
438.58	16.38
438.77	35.11
438.96	0.00
439.14	21.06
439.33	49.15
439.52	32.77
439.70	0.00
439.89	16.38
440.08	58.51
440.26	2.34
440.45	9.36
440.63	28.09
440.82	0.00
441.01	18.72
441.19	4.68
441.38	0.00
441.57	14.04
441.75	46.81
441.94	16.38
442.12	32.77
442.31	0.00
442.50	0.00
442.68	0.00
442.87	77.24
443.05	14.04
443.24	37.45
443.43	60.85
443.61	58.51
443.80	30.43
443.98	23.41
444.17	0.00
444.35	0.00
444.54	0.00
444.73	25.75
444.91	60.85
445.10	37.45
445.28	0.00
445.47	0.00
445.65	46.81
445.84	2.34
446.02	58.51
446.21	39.79
446.39	23.41
446.58	0.00
446.77	51.49
446.95	0.00
447.14	0.00
447.32	63.19
447.51	0.00
447.69	23.41
447.88	39.79
448.06	28.09
448.25	37.45
448.43	18.72
448.62	53.83
448.80	67.88
448.99	42.13
449.17	7.02
449.36	63.19
449.54	2.34
449.73	86.60
449.91	39.79
450.10	30.43
450.28	0.00
450.46	16.38
450.65	14.04
450.83	0.00
451.02	46.81
451.20	21.06
451.39	46.81
451.57	21.06
451.76	51.49
451.94	14.04
452.13	21.06
452.31	42.13
452.49	44.47
452.68	2.34
452.86	72.56
453.05	25.75
453.23	72.56
453.42	35.11
453.60	58.51
453.78	2.34
453.97	0.00
454.15	14.04
454.34	0.00
454.52	72.56
454.70	77.24
454.89	7.02
455.07	42.13
455.26	81.92
455.44	46.81
455.62	0.00
455.81	70.22
455.99	9.36
456.17	28.09
456.36	65.54
456.54	16.38
456.73	21.06
456.91	39.79
457.09	42.13
457.28	0.00
457.46	23.41
457.64	32.77
457.83	0.00
458.01	32.77
458.19	37.45
458.38	70.22
458.56	39.79
458.74	56.17
458.93	60.85
459.11	18.72
459.29	7.02
459.48	56.17
459.66	105.32
459.84	11.70
460.03	0.00
460.21	84.26
460.39	63.19
460.57	28.09
460.76	35.11
460.94	0.00
461.12	4.68
461.31	49.15
461.49	98.30
461.67	23.41
461.85	51.49
462.04	0.00
462.22	149.79
462.40	39.79
462.59	51.49
462.77	28.09
462.95	28.09
463.13	14.04
463.32	79.58
463.50	30.43
463.68	0.00
463.86	0.00
464.05	0.00
464.23	56.17
464.41	0.00
464.59	60.85
464.78	0.00
464.96	102.98
465.14	63.19
465.32	25.75
465.50	44.47
465.69	4.68
465.87	0.00
466.05	46.81
466.23	32.77
466.41	0.00
466.60	0.00
466.78	56.17
466.96	16.38
467.14	7.02
467.32	65.54
467.51	53.83
467.69	30.43
467.87	30.43
468.05	0.00
468.23	37.45
468.41	86.60
468.60	23.41
468.78	4.68
468.96	56.17
469.14	37.45
469.32	39.79
469.50	79.58
469.69	0.00
469.87	18.72
470.05	18.72
470.23	0.00
470.41	4.68
470.59	63.19
470.77	46.81
470.95	14.04
471.14	21.06
471.32	49.15
471.50	42.13
471.68	18.72
471.86	0.00
472.04	0.00
472.22	0.00
472.40	0.00
472.58	0.00
472.77	18.72
472.95	14.04
473.13	77.24
473.31	7.02
473.49	51.49
473.67	18.72
473.85	60.85
474.03	0.00
474.21	49.15
474.39	46.81
474.57	51.49
474.75	110.01
474.93	81.92
475.12	16.38
475.30	0.00
475.48	16.38
475.66	0.00
475.84	7.02
476.02	0.00
476.20	81.92
476.38	44.47
476.56	0.00
476.74	25.75
476.92	0.00
477.10	0.00
477.28	0.00
477.46	0.00
477.64	11.70
477.82	107.66
478.00	9.36
478.18	4.68
478.36	65.54
478.54	81.92
478.72	9.36
478.90	32.77
479.08	56.17
479.26	135.75
479.44	0.00
479.62	23.41
479.80	91.28
479.98	39.79
480.16	37.45
480.34	49.15
480.52	72.56
480.70	53.83
480.88	23.41
481.06	0.00
481.24	0.00
481.41	60.85
481.59	2.34
481.77	58.51
481.95	23.41
482.13	0.00
482.31	0.00
482.49	46.81
482.67	100.64
482.85	2.34
483.03	39.79
483.21	56.17
483.39	21.06
483.57	105.32
483.74	16.38
483.92	86.60
484.10	44.47
484.28	44.47
484.46	0.00
484.64	74.90
484.82	0.00
485.00	4.68
485.18	42.13
485.35	23.41
485.53	51.49
485.71	79.58
485.89	0.00
486.07	42.13
486.25	72.56
486.43	63.19
486.61	51.49
486.78	2.34
486.96	0.00
487.14	30.43
487.32	0.00
487.50	30.43
487.68	112.35
487.85	35.11
488.03	0.00
488.21	42.13
488.39	44.47
488.57	51.49
488.75	23.41
488.92	84.26
489.10	88.94
489.28	70.22
489.46	28.09
489.64	21.06
489.81	0.00
489.99	72.56
490.17	14.04
490.35	49.15
490.53	18.72
490.70	84.26
490.88	49.15
491.06	56.17
491.24	112.35
491.41	105.32
491.59	0.00
491.77	0.00
491.95	0.00
492.13	0.00
492.30	37.45
492.48	37.45
492.66	2.34
492.84	88.94
493.01	46.81
493.19	0.00
493.37	42.13
493.54	32.77
493.72	0.00
493.90	0.00
494.08	58.51
494.25	14.04
494.43	9.36
494.61	46.81
494.79	70.22
494.96	9.36
495.14	0.00
495.32	70.22
495.49	23.41
495.67	18.72
495.85	70.22
496.02	84.26
496.20	51.49
496.38	79.58
496.55	28.09
496.73	102.98
496.91	65.54
497.09	60.85
497.26	7.02
497.44	49.15
497.62	51.49
497.79	0.00
497.97	14.04
498.14	44.47
498.32	44.47
498.50	60.85
498.67	93.62
498.85	42.13
499.03	44.47
499.20	81.92
499.38	28.09
499.56	25.75
499.73	0.00
499.91	2.34
500.08	25.75
500.26	44.47
500.44	84.26
500.61	60.85
500.79	37.45
500.97	30.43
501.14	0.00
501.32	56.17
501.49	51.49
501.67	37.45
501.84	44.47
502.02	18.72
502.20	0.00
502.37	91.28
502.55	11.70
502.72	30.43
502.90	60.85
503.07	117.03
503.25	25.75
503.43	84.26
503.60	0.00
503.78	74.90
503.95	114.69
504.13	0.00
504.30	18.72
504.48	18.72
504.65	46.81
504.83	49.15
505.01	2.34
505.18	49.15
505.36	46.81
505.53	0.00
505.71	0.00
505.88	14.04
506.06	11.70
506.23	79.58
506.41	7.02
506.58	16.38
506.76	46.81
506.93	93.62
507.11	32.77
507.28	32.77
507.46	0.00
507.63	81.92
507.81	58.51
507.98	7.02
508.16	35.11
508.33	86.60
508.50	9.36
508.68	25.75
508.85	0.00
509.03	56.17
509.20	42.13
509.38	0.00
509.55	0.00
509.73	39.79
509.90	65.54
510.08	0.00
510.25	7.02
510.42	126.39
510.60	67.88
510.77	30.43
510.95	58.51
511.12	16.38
511.30	77.24
511.47	0.00
511.64	25.75
511.82	79.58
511.99	70.22
512.17	2.34
512.34	140.43
512.51	25.75
512.69	30.43
512.86	7.02
513.04	63.19
513.21	67.88
513.38	0.00
513.56	0.00
513.73	42.13
513.90	35.11
514.08	56.17
514.25	53.83
514.43	51.49
514.60	79.58
514.77	86.60
514.95	81.92
515.12	0.00
515.29	67.88
515.47	63.19
515.64	23.41
515.81	0.00
515.99	39.79
516.16	0.00
516.33	0.00
516.51	67.88
516.68	16.38
516.85	53.83
517.03	16.38
517.20	11.70
517.37	70.22
517.54	21.06
517.72	7.02
517.89	0.00
518.06	53.83
518.24	0.00
518.41	79.58
518.58	14.04
518.75	56.17
518.93	0.00
519.10	0.00
519.27	74.90
519.45	9.36
519.62	0.00
519.79	58.51
519.96	9.36
520.14	72.56
520.31	81.92
520.48	39.79
520.65	53.83
520.83	28.09
521.00	37.45
521.17	67.88
521.34	53.83
521.52	58.51
521.69	72.56
521.86	0.00
522.03	49.15
522.20	53.83
522.38	37.45
522.55	65.54
522.72	21.06
522.89	53.83
523.07	42.13
523.24	16.38
523.41	18.72
523.58	88.94
523.75	0.00
523.92	65.54
524.10	28.09
524.27	58.51
524.44	11.70
524.61	35.11
524.78	4.68
524.96	0.00
525.13	79.58
525.30	35.11
525.47	79.58
525.64	11.70
525.81	42.13
525.98	0.00
526.16	18.72
526.33	0.00
526.50	16.38
526.67	32.77
526.84	0.00
527.01	70.22
527.18	88.94
527.36	44.47
527.53	30.43
527.70	77.24
527.87	0.00
528.04	0.00
528.21	49.15
528.38	0.00
528.55	0.00
528.72	11.70
528.89	28.09
529.07	88.94
529.24	51.49
529.41	0.00
529.58	37.45
529.75	4.68
529.92	74.90
530.09	35.11
530.26	58.51
530.43	105.32
530.60	126.39
530.77	81.92
530.94	39.79
531.11	100.64
531.28	53.83
531.46	32.77
531.63	46.81
531.80	0.00
531.97	51.49
532.14	72.56
532.31	56.17
532.48	21.06
532.65	25.75
532.82	37.45
532.99	7.02
533.16	25.75
533.33	37.45
533.50	21.06
533.67	42.13
533.84	79.58
534.01	0.00
534.18	4.68
534.35	100.64
534.52	67.88
534.69	110.01
534.86	30.43
535.03	0.00
535.20	72.56
535.37	77.24
535.54	95.96
535.71	0.00
535.88	60.85
536.05	114.69
536.22	44.47
536.38	39.79
536.55	28.09
536.72	81.92
536.89	28.09
537.06	77.24
537.23	58.51
537.40	49.15
537.57	32.77
537.74	65.54
537.91	98.30
538.08	100.64
538.25	56.17
538.42	0.00
538.59	11.70
538.75	44.47
538.92	25.75
539.09	70.22
539.26	110.01
539.43	124.05
539.60	138.09
539.77	182.56
539.94	156.82
540.11	84.26
540.28	65.54
540.44	121.71
540.61	14.04
540.78	7.02
540.95	81.92
541.12	32.77
541.29	37.45
541.46	37.45
541.62	81.92
541.79	100.64
541.96	0.00
542.13	56.17
542.30	39.79
542.47	28.09
542.63	65.54
542.80	98.30
542.97	9.36
543.14	119.37
543.31	0.00
543.48	63.19
543.64	114.69
543.81	60.85
543.98	53.83
544.15	25.75
544.32	39.79
544.48	74.90
544.65	60.85
544.82	72.56
544.99	44.47
545.16	53.83
545.32	30.43
545.49	119.37
545.66	23.41
545.83	49.15
546.00	46.81
546.16	112.35
546.33	77.24
546.50	44.47
546.67	49.15
546.83	49.15
547.00	32.77
547.17	0.00
547.34	0.00
547.50	23.41
547.67	42.13
547.84	16.38
548.00	35.11
548.17	35.11
548.34	42.13
548.51	42.13
548.67	60.85
548.84	53.83
549.01	72.56
549.18	74.90
549.34	79.58
549.51	7.02
549.68	0.00
549.84	35.11
550.01	7.02
550.18	23.41
550.34	49.15
550.51	2.34
550.68	9.36
550.84	32.77
551.01	30.43
551.18	28.09
551.34	46.81
551.51	0.00
551.68	53.83
551.84	81.92
552.01	124.05
552.18	0.00
552.34	14.04
552.51	95.96
552.68	11.70
552.84	67.88
553.01	72.56
553.18	0.00
553.34	53.83
553.51	23.41
553.67	35.11
553.84	28.09
554.01	77.24
554.17	46.81
554.34	102.98
554.51	72.56
554.67	0.00
554.84	53.83
555.00	60.85
555.17	23.41
555.33	4.68
555.50	58.51
555.67	0.00
555.83	74.90
556.00	0.00
556.16	53.83
556.33	65.54
556.50	67.88
556.66	46.81
556.83	51.49
556.99	0.00
557.16	56.17
557.32	100.64
557.49	79.58
557.65	23.41
557.82	0.00
557.98	95.96
558.15	72.56
558.32	28.09
558.48	100.64
558.65	4.68
558.81	74.90
558.98	42.13
559.14	32.77
559.31	4.68
559.47	46.81
559.64	18.72
559.80	46.81
559.97	21.06
560.13	32.77
560.30	0.00
560.46	16.38
560.63	65.54
560.79	2.34
560.96	42.13
561.12	107.66
561.29	9.36
561.45	49.15
561.61	81.92
561.78	0.00
561.94	49.15
562.11	110.01
562.27	51.49
562.44	23.41
562.60	72.56
562.77	37.45
562.93	44.47
563.10	4.68
563.26	0.00
563.42	81.92
563.59	77.24
563.75	2.34
563.92	25.75
564.08	65.54
564.24	70.22
564.41	79.58
564.57	81.92
564.74	0.00
564.90	46.81
565.07	72.56
565.23	95.96
565.39	56.17
565.56	58.51
565.72	0.00
565.88	53.83
566.05	46.81
566.21	42.13
566.38	18.72
566.54	65.54
566.70	30.43
566.87	39.79
567.03	39.79
567.19	0.00
567.36	79.58
567.52	28.09
567.68	0.00
567.85	30.43
568.01	28.09
568.17	67.88
568.34	4.68
568.50	72.56
568.66	51.49
568.83	0.00
568.99	9.36
569.15	53.83
569.32	11.70
569.48	79.58
569.64	16.38
569.81	74.90
569.97	0.00
570.13	28.09
570.30	63.19
570.46	51.49
570.62	14.04
570.78	32.77
570.95	60.85
571.11	32.77
571.27	37.45
571.43	0.00
571.60	18.72
571.76	51.49
571.92	88.94
572.09	84.26
572.25	63.19
572.41	65.54
572.57	0.00
572.74	28.09
572.90	42.13
573.06	42.13
573.22	37.45
573.38	53.83
573.55	58.51
573.71	39.79
573.87	16.38
574.03	0.00
574.20	119.37
574.36	65.54
574.52	23.41
574.68	0.00
574.84	44.47
575.01	65.54
575.17	93.62
575.33	37.45
575.49	4.68
575.65	51.49
575.82	28.09
575.98	37.45
576.14	60.85
576.30	79.58
576.46	53.83
576.62	0.00
576.79	110.01
576.95	74.90
577.11	56.17
577.27	44.47
577.43	25.75
577.59	18.72
577.75	28.09
577.92	60.85
578.08	0.00
578.24	72.56
578.40	77.24
578.56	72.56
578.72	147.45
578.88	53.83
579.04	23.41
579.21	84.26
579.37	23.41
579.53	70.22
579.69	18.72
579.85	102.98
580.01	51.49
580.17	46.81
580.33	121.71
580.49	77.24
580.65	100.64
580.82	46.81
580.98	100.64
581.14	60.85
581.30	65.54
581.46	105.32
581.62	2.34
581.78	44.47
581.94	46.81
582.10	156.82
582.26	102.98
582.42	0.00
582.58	30.43
582.74	63.19
582.90	105.32
583.06	107.66
583.22	56.17
583.38	79.58
583.54	49.15
583.70	93.62
583.86	74.90
584.02	114.69
584.18	112.35
584.34	168.52
584.50	411.93
584.66	2525.44
584.82	5973.05
584.98	8203.58
585.14	7297.79
585.30	4521.92
585.46	2670.55
585.62	1703.91
585.78	875.36
585.94	334.70
586.10	191.92
586.26	198.95
586.42	114.69
586.58	46.81
586.74	67.88
586.90	100.64
587.06	107.66
587.22	35.11
587.38	112.35
587.54	135.75
587.70	358.10
587.86	580.45
588.02	674.07
588.18	468.11
588.34	255.12
588.49	229.37
588.65	142.77
588.81	81.92
588.97	86.60
589.13	79.58
589.29	42.13
589.45	126.39
589.61	63.19
589.77	79.58
589.93	51.49
590.08	74.90
590.24	0.00
590.40	25.75
590.56	16.38
590.72	58.51
590.88	49.15
591.04	11.70
591.20	23.41
591.35	63.19
591.51	35.11
591.67	95.96
591.83	0.00
591.99	14.04
592.15	7.02
592.31	18.72
592.46	39.79
592.62	0.00
592.78	21.06
592.94	37.45
593.10	23.41
593.26	98.30
593.41	56.17
593.57	37.45
593.73	32.77
593.89	353.42
594.05	709.18
594.20	1074.31
594.36	1064.94
594.52	650.67
594.68	442.36
594.84	353.42
594.99	191.92
595.15	135.75
595.31	16.38
595.47	42.13
595.62	121.71
595.78	51.49
595.94	56.17
596.10	145.11
596.25	32.77
596.41	63.19
596.57	65.54
596.73	53.83
596.88	88.94
597.04	203.63
597.20	311.29
597.36	353.42
597.51	210.65
597.67	208.31
597.83	147.45
597.99	88.94
598.14	88.94
598.30	49.15
598.46	88.94
598.61	11.70
598.77	0.00
598.93	72.56
599.09	18.72
599.24	58.51
599.40	46.81
599.56	23.41
599.71	56.17
599.87	11.70
600.03	23.41
600.18	23.41
600.34	32.77
600.50	0.00
600.65	49.15
600.81	30.43
600.97	0.00
601.12	44.47
601.28	63.19
601.44	63.19
601.59	25.75
601.75	21.06
601.91	42.13
602.06	51.49
602.22	0.00
602.37	110.01
602.53	194.26
602.69	306.61
602.84	334.70
603.00	264.48
603.16	203.63
603.31	93.62
603.47	49.15
603.62	51.49
603.78	37.45
603.94	21.06
604.09	42.13
604.25	56.17
604.40	79.58
604.56	67.88
604.71	65.54
604.87	0.00
605.03	23.41
605.18	37.45
605.34	14.04
605.49	46.81
605.65	65.54
605.80	91.28
605.96	51.49
606.12	60.85
606.27	60.85
606.43	56.17
606.58	105.32
606.74	154.48
606.89	484.49
607.05	690.46
607.20	952.60
607.36	727.91
607.51	507.90
607.67	421.30
607.82	266.82
607.98	37.45
608.13	35.11
608.29	88.94
608.44	84.26
608.60	37.45
608.75	39.79
608.91	198.95
609.06	554.71
609.22	1228.78
609.37	1579.86
609.53	1289.64
609.68	957.28
609.84	734.93
609.99	435.34
610.15	297.25
610.30	133.41
610.46	70.22
610.61	107.66
610.76	0.00
610.92	21.06
611.07	56.17
611.23	67.88
611.38	51.49
611.54	49.15
611.69	86.60
611.84	30.43
612.00	72.56
612.15	49.15
612.31	35.11
612.46	102.98
612.62	105.32
612.77	56.17
612.92	49.15
613.08	44.47
613.23	39.79
613.39	63.19
613.54	156.82
613.69	484.49
613.85	1486.24
614.00	2389.69
614.15	2436.50
614.31	1678.16
614.46	1238.14
614.62	819.19
614.77	447.04
614.92	147.45
615.08	81.92
615.23	56.17
615.38	35.11
615.54	11.70
615.69	86.60
615.84	344.06
616.00	521.94
616.15	617.90
616.30	571.09
616.46	390.87
616.61	313.63
616.76	135.75
616.92	11.70
617.07	100.64
617.22	21.06
617.37	51.49
617.53	9.36
617.68	44.47
617.83	30.43
617.99	0.00
618.14	2.34
618.29	0.00
618.45	18.72
618.60	142.77
618.75	44.47
618.90	16.38
619.06	51.49
619.21	58.51
619.36	63.19
619.51	37.45
619.67	53.83
619.82	56.17
619.97	42.13
620.12	25.75
620.28	93.62
620.43	81.92
620.58	32.77
620.73	58.51
620.89	37.45
621.04	65.54
621.19	210.65
621.34	264.48
621.49	402.57
621.65	367.46
621.80	255.12
621.95	156.82
622.10	163.84
622.25	74.90
622.41	86.60
622.56	42.13
622.71	35.11
622.86	42.13
623.01	51.49
623.16	32.77
623.32	39.79
623.47	0.00
623.62	32.77
623.77	0.00
623.92	7.02
624.07	23.41
624.23	88.94
624.38	0.00
624.53	35.11
624.68	70.22
624.83	84.26
624.98	35.11
625.13	39.79
625.29	16.38
625.44	51.49
625.59	81.92
625.74	72.56
625.89	42.13
626.04	304.27
626.19	767.70
626.34	1069.62
626.49	1362.19
626.65	1032.18
626.80	730.25
626.95	496.19
627.10	332.36
627.25	121.71
627.40	91.28
627.55	67.88
627.70	23.41
627.85	86.60
628.00	39.79
628.15	21.06
628.30	53.83
628.45	51.49
628.60	0.00
628.76	18.72
628.91	0.00
629.06	18.72
629.21	0.00
629.36	93.62
629.51	0.00
629.66	44.47
629.81	49.15
629.96	224.69
630.11	280.86
630.26	379.17
630.41	334.70
630.56	243.42
630.71	224.69
630.86	49.15
631.01	58.51
631.16	42.13
631.31	25.75
631.46	100.64
631.61	53.83
631.76	56.17
631.91	42.13
632.06	58.51
632.21	18.72
632.36	95.96
632.51	42.13
632.66	18.72
632.81	222.35
632.96	383.85
633.10	678.76
633.25	910.47
633.40	760.67
633.55	526.62
633.70	416.62
633.85	203.63
634.00	189.58
634.15	117.03
634.30	46.81
634.45	0.00
634.60	30.43
634.75	37.45
634.90	14.04
635.05	42.13
635.19	25.75
635.34	65.54
635.49	28.09
635.64	67.88
635.79	21.06
635.94	16.38
636.09	35.11
636.24	11.70
636.39	51.49
636.53	117.03
636.68	95.96
636.83	46.81
636.98	25.75
637.13	35.11
637.28	77.24
637.43	56.17
637.57	180.22
637.72	423.64
637.87	1008.77
638.02	1486.24
638.17	1643.06
638.32	1203.04
638.46	835.57
638.61	599.18
638.76	477.47
638.91	152.13
639.06	184.90
639.20	70.22
639.35	79.58
639.50	159.16
639.65	622.58
639.80	1406.66
639.94	2340.54
640.09	2544.16
640.24	1818.60
640.39	1331.76
640.54	889.40
640.68	528.96
640.83	320.65
640.98	168.52
641.13	121.71
641.27	140.43
641.42	39.79
641.57	21.06
641.72	0.00
641.86	0.00
642.01	46.81
642.16	72.56
642.31	53.83
642.45	4.68
642.60	112.35
642.75	58.51
642.90	0.00
643.04	95.96
643.19	63.19
643.34	100.64
643.48	25.75
643.63	86.60
643.78	58.51
643.93	56.17
644.07	0.00
644.22	11.70
644.37	0.00
644.51	32.77
644.66	32.77
644.81	0.00
644.95	2.34
645.10	86.60
645.25	98.30
645.39	16.38
645.54	56.17
645.69	2.34
645.83	23.41
645.98	91.28
646.13	30.43
646.27	21.06
646.42	35.11
646.57	7.02
646.71	46.81
646.86	58.51
647.00	70.22
647.15	72.56
647.30	70.22
647.44	58.51
647.59	42.13
647.74	35.11
647.88	112.35
648.03	7.02
648.17	81.92
648.32	44.47
648.47	0.00
648.61	23.41
648.76	0.00
648.90	0.00
649.05	0.00
649.20	39.79
649.34	49.15
649.49	0.00
649.63	46.81
649.78	37.45
649.92	16.38
650.07	227.03
650.21	610.88
650.36	1060.26
650.51	1179.63
650.65	1057.92
650.80	699.82
650.94	528.96
651.09	379.17
651.23	161.50
651.38	149.79
651.52	65.54
651.67	46.81
651.81	37.45
651.96	0.00
652.10	51.49
652.25	67.88
652.39	30.43
652.54	25.75
652.68	95.96
652.83	234.05
652.97	395.55
653.12	498.53
653.26	475.13
653.41	344.06
653.55	208.31
653.70	168.52
653.84	60.85
653.99	0.00
654.13	53.83
654.27	84.26
654.42	18.72
654.56	79.58
654.71	23.41
654.85	28.09
655.00	95.96
655.14	14.04
655.29	74.90
655.43	84.26
655.57	35.11
655.72	0.00
655.86	124.05
656.01	25.75
656.15	91.28
656.30	95.96
656.44	11.70
656.58	9.36
656.73	51.49
656.87	35.11
657.01	49.15
657.16	95.96
657.30	72.56
657.45	37.45
657.59	65.54
657.73	0.00
657.88	67.88
658.02	63.19
658.16	0.00
658.31	28.09
658.45	63.19
658.60	30.43
658.74	74.90
658.88	49.15
659.03	63.19
659.17	81.92
659.31	114.69
659.46	297.25
659.60	561.73
659.74	587.47
659.89	580.45
660.03	440.02
660.17	280.86
660.32	208.31
660.46	102.98
660.60	65.54
660.74	0.00
660.89	14.04
661.03	112.35
661.17	14.04
661.32	74.90
661.46	32.77
661.60	98.30
661.74	35.11
661.89	21.06
662.03	58.51
662.17	42.13
662.31	100.64
662.46	32.77
662.60	2.34
662.74	44.47
662.88	77.24
663.03	63.19
663.17	18.72
663.31	14.04
663.45	91.28
663.60	46.81
663.74	28.09
663.88	58.51
664.02	32.77
664.17	0.00
664.31	39.79
664.45	84.26
664.59	2.34
664.73	79.58
664.88	0.00
665.02	9.36
665.16	39.79
665.30	32.77
665.44	0.00
665.59	9.36
665.73	107.66
665.87	32.77
666.01	105.32
666.15	9.36
666.29	0.00
666.44	65.54
666.58	42.13
666.72	28.09
666.86	81.92
667.00	56.17
667.14	58.51
667.28	131.07
667.43	503.22
667.57	971.32
667.71	1214.74
667.85	1055.58
667.99	772.38
668.13	491.51
668.27	297.25
668.41	250.44
668.56	35.11
668.70	81.92
668.84	51.49
668.98	28.09
669.12	56.17
669.26	35.11
669.40	56.17
669.54	39.79
669.68	14.04
669.82	11.70
669.96	56.17
670.10	56.17
670.25	32.77
670.39	74.90
670.53	0.00
670.67	9.36
670.81	9.36
670.95	49.15
671.09	105.32
671.23	184.90
671.37	482.15
671.51	706.84
671.65	795.78
671.79	571.09
671.93	353.42
672.07	259.80
672.21	191.92
672.35	189.58
672.49	63.19
672.63	7.02
672.77	46.81
672.91	11.70
673.05	32.77
673.19	0.00
673.33	23.41
673.47	14.04
673.61	42.13
673.75	16.38
673.89	4.68
674.03	9.36
674.17	0.00
674.31	0.00
674.45	93.62
674.59	0.00
674.73	23.41
674.87	39.79
675.01	74.90
675.15	0.00
675.29	152.13
675.43	53.83
675.56	58.51
675.70	25.75
675.84	37.45
675.98	0.00
676.12	42.13
676.26	102.98
676.40	37.45
676.54	63.19
676.68	79.58
676.82	58.51
676.96	25.75
677.10	28.09
677.23	56.17
677.37	51.49
677.51	0.00
677.65	49.15
677.79	0.00
677.93	18.72
678.07	11.70
678.21	44.47
678.34	16.38
678.48	56.17
678.62	0.00
678.76	56.17
678.90	9.36
679.04	0.00
679.18	74.90
679.31	0.00
679.45	0.00
679.59	35.11
679.73	49.15
679.87	107.66
680.00	79.58
680.14	56.17
680.28	42.13
680.42	74.90
680.56	18.72
680.70	37.45
680.83	0.00
680.97	0.00
681.11	60.85
681.25	0.00
681.39	0.00
681.52	0.00
681.66	25.75
681.80	60.85
681.94	56.17
682.07	60.85
682.21	32.77
682.35	9.36
682.49	11.70
682.62	0.00
682.76	16.38
682.90	16.38
683.04	37.45
683.17	95.96
683.31	49.15
683.45	9.36
683.59	53.83
683.72	0.00
683.86	53.83
684.00	30.43
684.13	0.00
684.27	16.38
684.41	2.34
684.55	0.00
684.68	25.75
684.82	0.00
684.96	14.04
685.09	53.83
685.23	0.00
685.37	49.15
685.50	0.00
685.64	28.09
685.78	25.75
685.91	0.00
686.05	46.81
686.19	58.51
686.32	32.77
686.46	74.90
686.60	51.49
686.73	95.96
686.87	25.75
687.01	58.51
687.14	14.04
687.28	107.66
687.42	0.00
687.55	0.00
687.69	112.35
687.82	42.13
687.96	37.45
688.10	49.15
688.23	77.24
688.37	60.85
688.50	37.45
688.64	0.00
688.78	39.79
688.91	37.45
689.05	74.90
689.18	39.79
689.32	4.68
689.46	58.51
689.59	11.70
689.73	46.81
689.86	0.00
690.00	100.64
690.13	42.13
690.27	58.51
690.41	25.75
690.54	121.71
690.68	56.17
690.81	0.00
690.95	84.26
691.08	95.96
691.22	0.00
691.35	0.00
691.49	0.00
691.62	0.00
691.76	0.00
691.89	51.49
692.03	14.04
692.16	28.09
692.30	0.00
692.43	30.43
692.57	327.68
692.70	463.43
692.84	587.47
692.97	463.43
693.11	367.46
693.24	315.97
693.38	215.33
693.51	156.82
693.65	14.04
693.78	46.81
693.92	58.51
694.05	65.54
694.19	51.49
694.32	0.00
694.45	0.00
694.59	58.51
694.72	56.17
694.86	51.49
694.99	4.68
695.13	23.41
695.26	14.04
695.39	0.00
695.53	16.38
695.66	49.15
695.80	35.11
695.93	25.75
696.07	72.56
696.20	23.41
696.33	9.36
696.47	0.00
696.60	56.17
696.73	58.51
696.87	42.13
697.00	70.22
697.14	4.68
697.27	81.92
697.40	51.49
697.54	46.81
697.67	91.28
697.80	91.28
697.94	4.68
698.07	0.00
698.21	79.58
698.34	49.15
698.47	39.79
698.61	42.13
698.74	70.22
698.87	0.00
699.01	93.62
699.14	25.75
699.27	63.19
699.40	98.30
699.54	53.83
699.67	0.00
699.80	0.00
699.94	37.45
700.07	39.79
700.20	81.92
700.34	42.13
700.47	23.41
700.60	0.00
700.73	0.00
700.87	11.70
701.00	28.09
701.13	16.38
701.26	37.45
701.40	86.60
701.53	23.41
701.66	65.54
701.79	0.00
701.93	65.54
702.06	28.09
702.19	23.41
702.32	53.83
702.46	65.54
702.59	65.54
702.72	161.50
702.85	337.04
702.99	669.39
703.12	861.32
703.25	917.49
703.38	802.80
703.51	699.82
703.65	533.64
703.78	372.15
703.91	283.20
704.04	210.65
704.17	42.13
704.31	81.92
704.44	0.00
704.57	11.70
704.70	77.24
704.83	102.98
704.96	81.92
705.10	14.04
705.23	39.79
>>>>>End Processed Spectral Data<<<<<
