SpectraSuite Data File
++++++++++++++++++++++++++++++++++++
Date: Fri Oct 04 12:13:34 GMT-05:00 2013
User: price-jones
Dark Spectrum Present: No
Reference Spectrum Present: No
Number of Sampled Component Spectra: 1
Spectrometers: USB2+H05261
Integration Time (usec): 10000 (USB2+H05261)
Spectra Averaged: 1 (USB2+H05261)
Boxcar Smoothing: 0 (USB2+H05261)
Correct for Electrical Dark: No (USB2+H05261)
Strobe/Lamp Enabled: No (USB2+H05261)
Correct for Detector Non-linearity: No (USB2+H05261)
Correct for Stray Light: No (USB2+H05261)
Number of Pixels in Processed Spectrum: 2048
>>>>>Begin Processed Spectral Data<<<<<
365.73	0.00
365.92	0.00
366.12	0.00
366.32	0.00
366.52	0.00
366.72	0.00
366.91	0.00
367.11	0.00
367.31	0.00
367.51	0.00
367.70	0.00
367.90	0.00
368.10	0.00
368.30	0.00
368.49	0.00
368.69	0.00
368.89	0.00
369.09	0.00
369.28	0.00
369.48	0.00
369.68	0.00
369.87	0.00
370.07	0.00
370.27	0.00
370.47	0.00
370.66	0.00
370.86	0.00
371.06	0.00
371.25	0.00
371.45	0.00
371.65	0.00
371.84	53.83
372.04	58.51
372.24	0.00
372.44	2.34
372.63	0.00
372.83	18.72
373.03	0.00
373.22	18.72
373.42	67.88
373.62	0.00
373.81	11.70
374.01	58.51
374.21	56.17
374.40	77.24
374.60	58.51
374.79	0.00
374.99	49.15
375.19	30.43
375.38	107.66
375.58	0.00
375.78	30.43
375.97	42.13
376.17	0.00
376.37	51.49
376.56	81.92
376.76	28.09
376.95	0.00
377.15	37.45
377.35	14.04
377.54	0.00
377.74	44.47
377.93	32.77
378.13	0.00
378.33	0.00
378.52	0.00
378.72	67.88
378.91	53.83
379.11	11.70
379.31	0.00
379.50	21.06
379.70	79.58
379.89	32.77
380.09	49.15
380.28	4.68
380.48	18.72
380.68	42.13
380.87	21.06
381.07	79.58
381.26	42.13
381.46	67.88
381.65	67.88
381.85	0.00
382.04	100.64
382.24	0.00
382.43	39.79
382.63	0.00
382.83	0.00
383.02	18.72
383.22	63.19
383.41	4.68
383.61	25.75
383.80	4.68
384.00	39.79
384.19	65.54
384.39	16.38
384.58	58.51
384.78	4.68
384.97	0.00
385.17	14.04
385.36	0.00
385.56	23.41
385.75	4.68
385.95	25.75
386.14	0.00
386.34	30.43
386.53	30.43
386.72	0.00
386.92	42.13
387.11	0.00
387.31	58.51
387.50	0.00
387.70	16.38
387.89	49.15
388.09	23.41
388.28	2.34
388.48	4.68
388.67	88.94
388.86	49.15
389.06	67.88
389.25	56.17
389.45	18.72
389.64	39.79
389.84	0.00
390.03	0.00
390.22	7.02
390.42	70.22
390.61	0.00
390.81	0.00
391.00	16.38
391.19	0.00
391.39	14.04
391.58	79.58
391.78	7.02
391.97	11.70
392.16	58.51
392.36	23.41
392.55	42.13
392.75	37.45
392.94	25.75
393.13	18.72
393.33	0.00
393.52	30.43
393.71	51.49
393.91	42.13
394.10	25.75
394.29	0.00
394.49	4.68
394.68	7.02
394.88	79.58
395.07	79.58
395.26	37.45
395.46	0.00
395.65	0.00
395.84	35.11
396.04	44.47
396.23	0.00
396.42	44.47
396.62	46.81
396.81	44.47
397.00	93.62
397.19	9.36
397.39	4.68
397.58	74.90
397.77	14.04
397.97	0.00
398.16	2.34
398.35	0.00
398.55	84.26
398.74	86.60
398.93	0.00
399.12	16.38
399.32	119.37
399.51	42.13
399.70	81.92
399.90	46.81
400.09	60.85
400.28	42.13
400.47	28.09
400.67	30.43
400.86	32.77
401.05	91.28
401.24	77.24
401.44	16.38
401.63	49.15
401.82	42.13
402.01	44.47
402.21	53.83
402.40	7.02
402.59	0.00
402.78	32.77
402.97	18.72
403.17	0.00
403.36	67.88
403.55	51.49
403.74	0.00
403.93	65.54
404.13	72.56
404.32	105.32
404.51	30.43
404.70	81.92
404.89	51.49
405.09	0.00
405.28	35.11
405.47	18.72
405.66	11.70
405.85	23.41
406.05	0.00
406.24	30.43
406.43	23.41
406.62	0.00
406.81	95.96
407.00	0.00
407.20	91.28
407.39	72.56
407.58	18.72
407.77	35.11
407.96	86.60
408.15	28.09
408.34	23.41
408.54	32.77
408.73	32.77
408.92	0.00
409.11	58.51
409.30	14.04
409.49	0.00
409.68	14.04
409.87	79.58
410.07	35.11
410.26	0.00
410.45	30.43
410.64	0.00
410.83	65.54
411.02	95.96
411.21	0.00
411.40	4.68
411.59	79.58
411.78	53.83
411.98	51.49
412.17	65.54
412.36	23.41
412.55	107.66
412.74	72.56
412.93	124.05
413.12	44.47
413.31	18.72
413.50	9.36
413.69	16.38
413.88	56.17
414.07	16.38
414.26	0.00
414.45	88.94
414.64	44.47
414.83	16.38
415.02	9.36
415.22	65.54
415.41	0.00
415.60	95.96
415.79	0.00
415.98	77.24
416.17	35.11
416.36	37.45
416.55	49.15
416.74	100.64
416.93	0.00
417.12	65.54
417.31	0.00
417.50	9.36
417.69	44.47
417.88	0.00
418.07	37.45
418.26	77.24
418.45	58.51
418.64	0.00
418.83	39.79
419.02	0.00
419.21	25.75
419.39	39.79
419.58	46.81
419.77	105.32
419.96	74.90
420.15	74.90
420.34	110.01
420.53	107.66
420.72	35.11
420.91	49.15
421.10	18.72
421.29	86.60
421.48	28.09
421.67	0.00
421.86	51.49
422.05	39.79
422.24	30.43
422.43	51.49
422.61	72.56
422.80	25.75
422.99	77.24
423.18	18.72
423.37	67.88
423.56	0.00
423.75	30.43
423.94	58.51
424.13	28.09
424.32	18.72
424.50	16.38
424.69	51.49
424.88	91.28
425.07	35.11
425.26	63.19
425.45	74.90
425.64	49.15
425.83	98.30
426.01	30.43
426.20	53.83
426.39	46.81
426.58	63.19
426.77	0.00
426.96	56.17
427.15	42.13
427.33	11.70
427.52	14.04
427.71	72.56
427.90	28.09
428.09	28.09
428.28	32.77
428.46	0.00
428.65	21.06
428.84	110.01
429.03	149.79
429.22	25.75
429.40	63.19
429.59	51.49
429.78	0.00
429.97	107.66
430.16	0.00
430.34	119.37
430.53	0.00
430.72	49.15
430.91	60.85
431.10	46.81
431.28	112.35
431.47	93.62
431.66	77.24
431.85	114.69
432.03	18.72
432.22	51.49
432.41	32.77
432.60	23.41
432.79	0.00
432.97	30.43
433.16	37.45
433.35	67.88
433.54	35.11
433.72	65.54
433.91	0.00
434.10	63.19
434.28	56.17
434.47	81.92
434.66	74.90
434.85	105.32
435.03	49.15
435.22	58.51
435.41	44.47
435.59	79.58
435.78	105.32
435.97	0.00
436.16	28.09
436.34	0.00
436.53	51.49
436.72	63.19
436.90	58.51
437.09	44.47
437.28	23.41
437.46	81.92
437.65	56.17
437.84	74.90
438.02	81.92
438.21	16.38
438.40	0.00
438.58	121.71
438.77	81.92
438.96	121.71
439.14	58.51
439.33	2.34
439.52	65.54
439.70	102.98
439.89	0.00
440.08	46.81
440.26	30.43
440.45	72.56
440.63	53.83
440.82	86.60
441.01	91.28
441.19	0.00
441.38	39.79
441.57	0.00
441.75	98.30
441.94	60.85
442.12	0.00
442.31	65.54
442.50	72.56
442.68	79.58
442.87	32.77
443.05	93.62
443.24	110.01
443.43	39.79
443.61	93.62
443.80	0.00
443.98	0.00
444.17	28.09
444.35	67.88
444.54	23.41
444.73	128.73
444.91	9.36
445.10	0.00
445.28	0.00
445.47	63.19
445.65	0.00
445.84	60.85
446.02	91.28
446.21	67.88
446.39	30.43
446.58	51.49
446.77	23.41
446.95	0.00
447.14	28.09
447.32	23.41
447.51	0.00
447.69	72.56
447.88	14.04
448.06	95.96
448.25	46.81
448.43	100.64
448.62	93.62
448.80	65.54
448.99	70.22
449.17	35.11
449.36	77.24
449.54	21.06
449.73	7.02
449.91	81.92
450.10	117.03
450.28	79.58
450.46	86.60
450.65	65.54
450.83	67.88
451.02	46.81
451.20	35.11
451.39	44.47
451.57	70.22
451.76	81.92
451.94	79.58
452.13	32.77
452.31	25.75
452.49	74.90
452.68	95.96
452.86	39.79
453.05	65.54
453.23	4.68
453.42	49.15
453.60	77.24
453.78	84.26
453.97	49.15
454.15	112.35
454.34	91.28
454.52	79.58
454.70	30.43
454.89	49.15
455.07	72.56
455.26	140.43
455.44	14.04
455.62	70.22
455.81	11.70
455.99	93.62
456.17	74.90
456.36	67.88
456.54	53.83
456.73	70.22
456.91	51.49
457.09	95.96
457.28	37.45
457.46	37.45
457.64	65.54
457.83	0.00
458.01	0.00
458.19	2.34
458.38	2.34
458.56	63.19
458.74	32.77
458.93	49.15
459.11	67.88
459.29	53.83
459.48	100.64
459.66	79.58
459.84	93.62
460.03	49.15
460.21	21.06
460.39	65.54
460.57	21.06
460.76	84.26
460.94	91.28
461.12	95.96
461.31	149.79
461.49	110.01
461.67	51.49
461.85	7.02
462.04	67.88
462.22	163.84
462.40	16.38
462.59	58.51
462.77	81.92
462.95	0.00
463.13	32.77
463.32	91.28
463.50	133.41
463.68	74.90
463.86	124.05
464.05	23.41
464.23	60.85
464.41	42.13
464.59	67.88
464.78	0.00
464.96	107.66
465.14	7.02
465.32	98.30
465.50	28.09
465.69	107.66
465.87	98.30
466.05	65.54
466.23	93.62
466.41	102.98
466.60	0.00
466.78	42.13
466.96	93.62
467.14	95.96
467.32	58.51
467.51	53.83
467.69	53.83
467.87	25.75
468.05	72.56
468.23	77.24
468.41	53.83
468.60	56.17
468.78	60.85
468.96	74.90
469.14	4.68
469.32	49.15
469.50	58.51
469.69	51.49
469.87	46.81
470.05	18.72
470.23	44.47
470.41	86.60
470.59	56.17
470.77	9.36
470.95	93.62
471.14	9.36
471.32	0.00
471.50	0.00
471.68	49.15
471.86	95.96
472.04	51.49
472.22	93.62
472.40	95.96
472.58	102.98
472.77	49.15
472.95	16.38
473.13	49.15
473.31	102.98
473.49	30.43
473.67	0.00
473.85	81.92
474.03	0.00
474.21	4.68
474.39	102.98
474.57	25.75
474.75	49.15
474.93	100.64
475.12	63.19
475.30	161.50
475.48	98.30
475.66	28.09
475.84	121.71
476.02	30.43
476.20	60.85
476.38	95.96
476.56	49.15
476.74	53.83
476.92	25.75
477.10	25.75
477.28	56.17
477.46	32.77
477.64	107.66
477.82	98.30
478.00	30.43
478.18	60.85
478.36	16.38
478.54	149.79
478.72	7.02
478.90	72.56
479.08	91.28
479.26	30.43
479.44	32.77
479.62	14.04
479.80	60.85
479.98	28.09
480.16	77.24
480.34	56.17
480.52	39.79
480.70	60.85
480.88	74.90
481.06	42.13
481.24	63.19
481.41	72.56
481.59	53.83
481.77	53.83
481.95	44.47
482.13	79.58
482.31	67.88
482.49	86.60
482.67	21.06
482.85	88.94
483.03	133.41
483.21	0.00
483.39	9.36
483.57	39.79
483.74	93.62
483.92	53.83
484.10	49.15
484.28	4.68
484.46	72.56
484.64	121.71
484.82	4.68
485.00	44.47
485.18	60.85
485.35	44.47
485.53	100.64
485.71	79.58
485.89	79.58
486.07	81.92
486.25	18.72
486.43	79.58
486.61	84.26
486.78	2.34
486.96	21.06
487.14	95.96
487.32	28.09
487.50	88.94
487.68	11.70
487.85	74.90
488.03	93.62
488.21	98.30
488.39	161.50
488.57	95.96
488.75	60.85
488.92	102.98
489.10	79.58
489.28	77.24
489.46	86.60
489.64	84.26
489.81	117.03
489.99	70.22
490.17	37.45
490.35	100.64
490.53	114.69
490.70	72.56
490.88	110.01
491.06	98.30
491.24	53.83
491.41	102.98
491.59	39.79
491.77	46.81
491.95	91.28
492.13	44.47
492.30	56.17
492.48	70.22
492.66	30.43
492.84	42.13
493.01	4.68
493.19	56.17
493.37	128.73
493.54	88.94
493.72	32.77
493.90	46.81
494.08	98.30
494.25	21.06
494.43	84.26
494.61	60.85
494.79	63.19
494.96	140.43
495.14	58.51
495.32	51.49
495.49	182.56
495.67	79.58
495.85	79.58
496.02	84.26
496.20	72.56
496.38	42.13
496.55	98.30
496.73	110.01
496.91	84.26
497.09	119.37
497.26	72.56
497.44	110.01
497.62	42.13
497.79	135.75
497.97	60.85
498.14	72.56
498.32	119.37
498.50	32.77
498.67	131.07
498.85	70.22
499.03	102.98
499.20	72.56
499.38	65.54
499.56	119.37
499.73	117.03
499.91	93.62
500.08	175.54
500.26	91.28
500.44	63.19
500.61	131.07
500.79	131.07
500.97	86.60
501.14	37.45
501.32	81.92
501.49	39.79
501.67	35.11
501.84	9.36
502.02	65.54
502.20	95.96
502.37	67.88
502.55	53.83
502.72	53.83
502.90	70.22
503.07	156.82
503.25	67.88
503.43	110.01
503.60	91.28
503.78	44.47
503.95	56.17
504.13	117.03
504.30	23.41
504.48	126.39
504.65	63.19
504.83	42.13
505.01	145.11
505.18	60.85
505.36	37.45
505.53	93.62
505.71	93.62
505.88	138.09
506.06	91.28
506.23	51.49
506.41	67.88
506.58	133.41
506.76	56.17
506.93	0.00
507.11	46.81
507.28	35.11
507.46	23.41
507.63	84.26
507.81	25.75
507.98	138.09
508.16	140.43
508.33	84.26
508.50	74.90
508.68	98.30
508.85	159.16
509.03	124.05
509.20	74.90
509.38	44.47
509.55	77.24
509.73	133.41
509.90	166.18
510.08	14.04
510.25	77.24
510.42	140.43
510.60	107.66
510.77	84.26
510.95	102.98
511.12	102.98
511.30	58.51
511.47	65.54
511.64	44.47
511.82	23.41
511.99	0.00
512.17	51.49
512.34	168.52
512.51	88.94
512.69	65.54
512.86	98.30
513.04	107.66
513.21	95.96
513.38	112.35
513.56	119.37
513.73	46.81
513.90	42.13
514.08	81.92
514.25	95.96
514.43	110.01
514.60	51.49
514.77	117.03
514.95	74.90
515.12	110.01
515.29	84.26
515.47	91.28
515.64	65.54
515.81	110.01
515.99	70.22
516.16	117.03
516.33	70.22
516.51	126.39
516.68	63.19
516.85	39.79
517.03	79.58
517.20	95.96
517.37	65.54
517.54	93.62
517.72	37.45
517.89	110.01
518.06	70.22
518.24	88.94
518.41	39.79
518.58	117.03
518.75	35.11
518.93	84.26
519.10	121.71
519.27	145.11
519.45	117.03
519.62	35.11
519.79	65.54
519.96	72.56
520.14	58.51
520.31	133.41
520.48	81.92
520.65	16.38
520.83	81.92
521.00	77.24
521.17	91.28
521.34	93.62
521.52	95.96
521.69	72.56
521.86	65.54
522.03	98.30
522.20	95.96
522.38	70.22
522.55	114.69
522.72	93.62
522.89	70.22
523.07	140.43
523.24	93.62
523.41	95.96
523.58	98.30
523.75	35.11
523.92	84.26
524.10	84.26
524.27	84.26
524.44	67.88
524.61	147.45
524.78	124.05
524.96	56.17
525.13	135.75
525.30	11.70
525.47	102.98
525.64	37.45
525.81	44.47
525.98	93.62
526.16	35.11
526.33	107.66
526.50	49.15
526.67	46.81
526.84	88.94
527.01	49.15
527.18	58.51
527.36	67.88
527.53	44.47
527.70	131.07
527.87	51.49
528.04	112.35
528.21	110.01
528.38	107.66
528.55	72.56
528.72	74.90
528.89	51.49
529.07	100.64
529.24	93.62
529.41	133.41
529.58	65.54
529.75	81.92
529.92	84.26
530.09	65.54
530.26	124.05
530.43	100.64
530.60	102.98
530.77	46.81
530.94	110.01
531.11	44.47
531.28	2.34
531.46	91.28
531.63	37.45
531.80	93.62
531.97	84.26
532.14	91.28
532.31	114.69
532.48	105.32
532.65	72.56
532.82	0.00
532.99	70.22
533.16	67.88
533.33	67.88
533.50	42.13
533.67	53.83
533.84	110.01
534.01	161.50
534.18	107.66
534.35	81.92
534.52	86.60
534.69	100.64
534.86	53.83
535.03	135.75
535.20	42.13
535.37	112.35
535.54	53.83
535.71	86.60
535.88	133.41
536.05	25.75
536.22	56.17
536.38	32.77
536.55	215.33
536.72	72.56
536.89	77.24
537.06	121.71
537.23	98.30
537.40	65.54
537.57	72.56
537.74	191.92
537.91	91.28
538.08	100.64
538.25	42.13
538.42	117.03
538.59	79.58
538.75	84.26
538.92	77.24
539.09	39.79
539.26	81.92
539.43	142.77
539.60	133.41
539.77	114.69
539.94	124.05
540.11	35.11
540.28	32.77
540.44	88.94
540.61	98.30
540.78	119.37
540.95	84.26
541.12	88.94
541.29	51.49
541.46	42.13
541.62	98.30
541.79	67.88
541.96	58.51
542.13	105.32
542.30	112.35
542.47	140.43
542.63	91.28
542.80	39.79
542.97	46.81
543.14	119.37
543.31	39.79
543.48	86.60
543.64	72.56
543.81	102.98
543.98	84.26
544.15	156.82
544.32	86.60
544.48	77.24
544.65	53.83
544.82	74.90
544.99	124.05
545.16	86.60
545.32	88.94
545.49	133.41
545.66	91.28
545.83	67.88
546.00	117.03
546.16	79.58
546.33	112.35
546.50	18.72
546.67	93.62
546.83	60.85
547.00	58.51
547.17	107.66
547.34	131.07
547.50	70.22
547.67	142.77
547.84	58.51
548.00	84.26
548.17	74.90
548.34	70.22
548.51	72.56
548.67	35.11
548.84	84.26
549.01	56.17
549.18	102.98
549.34	98.30
549.51	110.01
549.68	49.15
549.84	28.09
550.01	72.56
550.18	100.64
550.34	88.94
550.51	88.94
550.68	28.09
550.84	51.49
551.01	138.09
551.18	56.17
551.34	100.64
551.51	98.30
551.68	63.19
551.84	84.26
552.01	72.56
552.18	74.90
552.34	110.01
552.51	93.62
552.68	81.92
552.84	39.79
553.01	84.26
553.18	32.77
553.34	60.85
553.51	46.81
553.67	119.37
553.84	88.94
554.01	77.24
554.17	117.03
554.34	91.28
554.51	37.45
554.67	149.79
554.84	124.05
555.00	98.30
555.17	147.45
555.33	135.75
555.50	67.88
555.67	175.54
555.83	67.88
556.00	93.62
556.16	98.30
556.33	86.60
556.50	63.19
556.66	46.81
556.83	124.05
556.99	67.88
557.16	32.77
557.32	133.41
557.49	140.43
557.65	91.28
557.82	16.38
557.98	42.13
558.15	95.96
558.32	95.96
558.48	128.73
558.65	114.69
558.81	72.56
558.98	147.45
559.14	93.62
559.31	60.85
559.47	135.75
559.64	60.85
559.80	88.94
559.97	72.56
560.13	86.60
560.30	58.51
560.46	93.62
560.63	135.75
560.79	133.41
560.96	79.58
561.12	81.92
561.29	65.54
561.45	79.58
561.61	58.51
561.78	128.73
561.94	58.51
562.11	39.79
562.27	65.54
562.44	95.96
562.60	159.16
562.77	60.85
562.93	70.22
563.10	72.56
563.26	117.03
563.42	37.45
563.59	105.32
563.75	46.81
563.92	142.77
564.08	93.62
564.24	117.03
564.41	51.49
564.57	100.64
564.74	0.00
564.90	170.86
565.07	95.96
565.23	28.09
565.39	88.94
565.56	23.41
565.72	84.26
565.88	107.66
566.05	46.81
566.21	79.58
566.38	58.51
566.54	53.83
566.70	84.26
566.87	72.56
567.03	67.88
567.19	7.02
567.36	124.05
567.52	149.79
567.68	81.92
567.85	86.60
568.01	42.13
568.17	32.77
568.34	86.60
568.50	100.64
568.66	107.66
568.83	112.35
568.99	84.26
569.15	39.79
569.32	72.56
569.48	107.66
569.64	51.49
569.81	65.54
569.97	56.17
570.13	98.30
570.30	95.96
570.46	0.00
570.62	98.30
570.78	46.81
570.95	46.81
571.11	65.54
571.27	39.79
571.43	93.62
571.60	28.09
571.76	93.62
571.92	114.69
572.09	60.85
572.25	79.58
572.41	121.71
572.57	166.18
572.74	112.35
572.90	100.64
573.06	100.64
573.22	14.04
573.38	53.83
573.55	32.77
573.71	58.51
573.87	2.34
574.03	49.15
574.20	32.77
574.36	30.43
574.52	65.54
574.68	35.11
574.84	149.79
575.01	135.75
575.17	53.83
575.33	88.94
575.49	53.83
575.65	88.94
575.82	72.56
575.98	28.09
576.14	60.85
576.30	37.45
576.46	126.39
576.62	18.72
576.79	42.13
576.95	133.41
577.11	119.37
577.27	77.24
577.43	63.19
577.59	81.92
577.75	175.54
577.92	72.56
578.08	35.11
578.24	35.11
578.40	70.22
578.56	58.51
578.72	147.45
578.88	100.64
579.04	18.72
579.21	154.48
579.37	126.39
579.53	0.00
579.69	0.00
579.85	67.88
580.01	72.56
580.17	77.24
580.33	100.64
580.49	42.13
580.65	91.28
580.82	0.00
580.98	138.09
581.14	0.00
581.30	102.98
581.46	107.66
581.62	88.94
581.78	112.35
581.94	142.77
582.10	58.51
582.26	102.98
582.42	86.60
582.58	25.75
582.74	72.56
582.90	86.60
583.06	84.26
583.22	121.71
583.38	110.01
583.54	110.01
583.70	4.68
583.86	65.54
584.02	58.51
584.18	173.20
584.34	32.77
584.50	51.49
584.66	84.26
584.82	67.88
584.98	65.54
585.14	46.81
585.30	110.01
585.46	77.24
585.62	49.15
585.78	60.85
585.94	46.81
586.10	56.17
586.26	60.85
586.42	72.56
586.58	88.94
586.74	32.77
586.90	107.66
587.06	107.66
587.22	110.01
587.38	88.94
587.54	11.70
587.70	98.30
587.86	60.85
588.02	126.39
588.18	63.19
588.34	91.28
588.49	16.38
588.65	46.81
588.81	65.54
588.97	77.24
589.13	32.77
589.29	0.00
589.45	91.28
589.61	65.54
589.77	91.28
589.93	25.75
590.08	35.11
590.24	42.13
590.40	35.11
590.56	4.68
590.72	51.49
590.88	98.30
591.04	95.96
591.20	72.56
591.35	77.24
591.51	77.24
591.67	107.66
591.83	44.47
591.99	7.02
592.15	42.13
592.31	28.09
592.46	30.43
592.62	70.22
592.78	42.13
592.94	72.56
593.10	16.38
593.26	86.60
593.41	65.54
593.57	42.13
593.73	95.96
593.89	105.32
594.05	60.85
594.20	49.15
594.36	60.85
594.52	77.24
594.68	30.43
594.84	98.30
594.99	42.13
595.15	88.94
595.31	25.75
595.47	93.62
595.62	114.69
595.78	110.01
595.94	112.35
596.10	95.96
596.25	51.49
596.41	65.54
596.57	114.69
596.73	100.64
596.88	28.09
597.04	56.17
597.20	88.94
597.36	0.00
597.51	95.96
597.67	114.69
597.83	100.64
597.99	9.36
598.14	44.47
598.30	74.90
598.46	42.13
598.61	63.19
598.77	140.43
598.93	65.54
599.09	88.94
599.24	98.30
599.40	65.54
599.56	0.00
599.71	70.22
599.87	117.03
600.03	53.83
600.18	35.11
600.34	168.52
600.50	100.64
600.65	23.41
600.81	49.15
600.97	107.66
601.12	58.51
601.28	95.96
601.44	46.81
601.59	58.51
601.75	110.01
601.91	84.26
602.06	28.09
602.22	124.05
602.37	86.60
602.53	0.00
602.69	0.00
602.84	18.72
603.00	56.17
603.16	51.49
603.31	114.69
603.47	84.26
603.62	100.64
603.78	35.11
603.94	91.28
604.09	74.90
604.25	93.62
604.40	77.24
604.56	79.58
604.71	2.34
604.87	4.68
605.03	86.60
605.18	88.94
605.34	53.83
605.49	60.85
605.65	56.17
605.80	102.98
605.96	72.56
606.12	107.66
606.27	86.60
606.43	110.01
606.58	58.51
606.74	112.35
606.89	72.56
607.05	105.32
607.20	0.00
607.36	44.47
607.51	37.45
607.67	70.22
607.82	67.88
607.98	112.35
608.13	46.81
608.29	79.58
608.44	30.43
608.60	65.54
608.75	110.01
608.91	91.28
609.06	124.05
609.22	107.66
609.37	100.64
609.53	79.58
609.68	93.62
609.84	79.58
609.99	32.77
610.15	133.41
610.30	39.79
610.46	58.51
610.61	107.66
610.76	51.49
610.92	100.64
611.07	117.03
611.23	117.03
611.38	93.62
611.54	46.81
611.69	112.35
611.84	117.03
612.00	46.81
612.15	0.00
612.31	0.00
612.46	37.45
612.62	14.04
612.77	21.06
612.92	60.85
613.08	93.62
613.23	63.19
613.39	88.94
613.54	58.51
613.69	100.64
613.85	100.64
614.00	46.81
614.15	74.90
614.31	105.32
614.46	42.13
614.62	121.71
614.77	44.47
614.92	121.71
615.08	28.09
615.23	35.11
615.38	58.51
615.54	11.70
615.69	30.43
615.84	93.62
616.00	74.90
616.15	72.56
616.30	0.00
616.46	28.09
616.61	124.05
616.76	93.62
616.92	49.15
617.07	119.37
617.22	63.19
617.37	0.00
617.53	16.38
617.68	140.43
617.83	60.85
617.99	95.96
618.14	58.51
618.29	37.45
618.45	67.88
618.60	124.05
618.75	100.64
618.90	4.68
619.06	102.98
619.21	102.98
619.36	91.28
619.51	32.77
619.67	93.62
619.82	112.35
619.97	72.56
620.12	77.24
620.28	65.54
620.43	23.41
620.58	70.22
620.73	56.17
620.89	105.32
621.04	65.54
621.19	0.00
621.34	32.77
621.49	32.77
621.65	7.02
621.80	86.60
621.95	18.72
622.10	79.58
622.25	37.45
622.41	0.00
622.56	0.00
622.71	119.37
622.86	35.11
623.01	30.43
623.16	77.24
623.32	37.45
623.47	0.00
623.62	81.92
623.77	81.92
623.92	100.64
624.07	93.62
624.23	44.47
624.38	11.70
624.53	117.03
624.68	49.15
624.83	86.60
624.98	91.28
625.13	46.81
625.29	81.92
625.44	44.47
625.59	88.94
625.74	16.38
625.89	79.58
626.04	105.32
626.19	42.13
626.34	147.45
626.49	67.88
626.65	44.47
626.80	0.00
626.95	84.26
627.10	112.35
627.25	16.38
627.40	23.41
627.55	105.32
627.70	72.56
627.85	67.88
628.00	65.54
628.15	25.75
628.30	117.03
628.45	30.43
628.60	30.43
628.76	60.85
628.91	112.35
629.06	84.26
629.21	37.45
629.36	114.69
629.51	81.92
629.66	79.58
629.81	81.92
629.96	79.58
630.11	98.30
630.26	51.49
630.41	51.49
630.56	0.00
630.71	74.90
630.86	86.60
631.01	0.00
631.16	11.70
631.31	44.47
631.46	56.17
631.61	135.75
631.76	74.90
631.91	88.94
632.06	142.77
632.21	56.17
632.36	42.13
632.51	126.39
632.66	74.90
632.81	16.38
632.96	32.77
633.10	18.72
633.25	25.75
633.40	74.90
633.55	65.54
633.70	70.22
633.85	60.85
634.00	86.60
634.15	93.62
634.30	91.28
634.45	88.94
634.60	110.01
634.75	23.41
634.90	128.73
635.05	72.56
635.19	60.85
635.34	16.38
635.49	105.32
635.64	110.01
635.79	16.38
635.94	131.07
636.09	100.64
636.24	72.56
636.39	93.62
636.53	25.75
636.68	88.94
636.83	23.41
636.98	98.30
637.13	98.30
637.28	79.58
637.43	51.49
637.57	77.24
637.72	56.17
637.87	79.58
638.02	135.75
638.17	35.11
638.32	35.11
638.46	42.13
638.61	28.09
638.76	86.60
638.91	32.77
639.06	44.47
639.20	81.92
639.35	74.90
639.50	86.60
639.65	23.41
639.80	21.06
639.94	72.56
640.09	16.38
640.24	53.83
640.39	30.43
640.54	25.75
640.68	88.94
640.83	0.00
640.98	161.50
641.13	46.81
641.27	56.17
641.42	112.35
641.57	121.71
641.72	86.60
641.86	88.94
642.01	56.17
642.16	67.88
642.31	0.00
642.45	77.24
642.60	70.22
642.75	93.62
642.90	67.88
643.04	51.49
643.19	124.05
643.34	72.56
643.48	23.41
643.63	79.58
643.78	110.01
643.93	56.17
644.07	110.01
644.22	2.34
644.37	84.26
644.51	30.43
644.66	0.00
644.81	67.88
644.95	51.49
645.10	30.43
645.25	53.83
645.39	65.54
645.54	0.00
645.69	135.75
645.83	42.13
645.98	0.00
646.13	60.85
646.27	51.49
646.42	56.17
646.57	63.19
646.71	37.45
646.86	88.94
647.00	93.62
647.15	51.49
647.30	18.72
647.44	117.03
647.59	72.56
647.74	112.35
647.88	65.54
648.03	79.58
648.17	88.94
648.32	0.00
648.47	28.09
648.61	51.49
648.76	44.47
648.90	81.92
649.05	30.43
649.20	46.81
649.34	37.45
649.49	53.83
649.63	56.17
649.78	0.00
649.92	72.56
650.07	30.43
650.21	11.70
650.36	67.88
650.51	74.90
650.65	79.58
650.80	84.26
650.94	60.85
651.09	117.03
651.23	70.22
651.38	0.00
651.52	72.56
651.67	93.62
651.81	46.81
651.96	65.54
652.10	0.00
652.25	60.85
652.39	93.62
652.54	32.77
652.68	32.77
652.83	0.00
652.97	93.62
653.12	0.00
653.26	84.26
653.41	128.73
653.55	107.66
653.70	93.62
653.84	60.85
653.99	110.01
654.13	60.85
654.27	18.72
654.42	58.51
654.56	95.96
654.71	77.24
654.85	72.56
655.00	2.34
655.14	77.24
655.29	114.69
655.43	65.54
655.57	44.47
655.72	39.79
655.86	86.60
656.01	35.11
656.15	44.47
656.30	39.79
656.44	70.22
656.58	18.72
656.73	79.58
656.87	23.41
657.01	56.17
657.16	46.81
657.30	65.54
657.45	0.00
657.59	39.79
657.73	72.56
657.88	37.45
658.02	30.43
658.16	128.73
658.31	23.41
658.45	56.17
658.60	67.88
658.74	51.49
658.88	95.96
659.03	58.51
659.17	72.56
659.31	44.47
659.46	21.06
659.60	4.68
659.74	0.00
659.89	23.41
660.03	56.17
660.17	37.45
660.32	63.19
660.46	0.00
660.60	72.56
660.74	72.56
660.89	23.41
661.03	16.38
661.17	25.75
661.32	18.72
661.46	60.85
661.60	60.85
661.74	81.92
661.89	63.19
662.03	102.98
662.17	67.88
662.31	0.00
662.46	21.06
662.60	42.13
662.74	63.19
662.88	56.17
663.03	0.00
663.17	53.83
663.31	30.43
663.45	81.92
663.60	100.64
663.74	86.60
663.88	49.15
664.02	65.54
664.17	25.75
664.31	63.19
664.45	60.85
664.59	81.92
664.73	67.88
664.88	124.05
665.02	56.17
665.16	74.90
665.30	53.83
665.44	102.98
665.59	37.45
665.73	98.30
665.87	95.96
666.01	79.58
666.15	25.75
666.29	0.00
666.44	121.71
666.58	53.83
666.72	18.72
666.86	98.30
667.00	84.26
667.14	56.17
667.28	51.49
667.43	35.11
667.57	46.81
667.71	44.47
667.85	53.83
667.99	35.11
668.13	18.72
668.27	35.11
668.41	28.09
668.56	21.06
668.70	84.26
668.84	42.13
668.98	60.85
669.12	81.92
669.26	110.01
669.40	49.15
669.54	56.17
669.68	53.83
669.82	0.00
669.96	70.22
670.10	23.41
670.25	35.11
670.39	51.49
670.53	42.13
670.67	63.19
670.81	39.79
670.95	46.81
671.09	39.79
671.23	0.00
671.37	4.68
671.51	28.09
671.65	110.01
671.79	39.79
671.93	25.75
672.07	0.00
672.21	0.00
672.35	114.69
672.49	65.54
672.63	81.92
672.77	46.81
672.91	53.83
673.05	70.22
673.19	7.02
673.33	9.36
673.47	63.19
673.61	58.51
673.75	49.15
673.89	53.83
674.03	44.47
674.17	30.43
674.31	91.28
674.45	35.11
674.59	63.19
674.73	21.06
674.87	0.00
675.01	39.79
675.15	30.43
675.29	63.19
675.43	37.45
675.56	51.49
675.70	14.04
675.84	44.47
675.98	65.54
676.12	91.28
676.26	93.62
676.40	91.28
676.54	32.77
676.68	51.49
676.82	46.81
676.96	4.68
677.10	79.58
677.23	86.60
677.37	105.32
677.51	0.00
677.65	0.00
677.79	70.22
677.93	67.88
678.07	79.58
678.21	119.37
678.34	95.96
678.48	35.11
678.62	0.00
678.76	51.49
678.90	0.00
679.04	0.00
679.18	0.00
679.31	107.66
679.45	21.06
679.59	44.47
679.73	49.15
679.87	42.13
680.00	0.00
680.14	79.58
680.28	53.83
680.42	98.30
680.56	63.19
680.70	70.22
680.83	81.92
680.97	0.00
681.11	88.94
681.25	53.83
681.39	86.60
681.52	42.13
681.66	0.00
681.80	14.04
681.94	84.26
682.07	42.13
682.21	65.54
682.35	84.26
682.49	56.17
682.62	107.66
682.76	4.68
682.90	112.35
683.04	0.00
683.17	93.62
683.31	46.81
683.45	23.41
683.59	21.06
683.72	7.02
683.86	14.04
684.00	2.34
684.13	0.00
684.27	86.60
684.41	63.19
684.55	60.85
684.68	30.43
684.82	0.00
684.96	112.35
685.09	79.58
685.23	91.28
685.37	58.51
685.50	16.38
685.64	67.88
685.78	49.15
685.91	7.02
686.05	60.85
686.19	42.13
686.32	16.38
686.46	37.45
686.60	18.72
686.73	0.00
686.87	39.79
687.01	98.30
687.14	53.83
687.28	128.73
687.42	39.79
687.55	9.36
687.69	39.79
687.82	0.00
687.96	23.41
688.10	65.54
688.23	131.07
688.37	77.24
688.50	32.77
688.64	7.02
688.78	112.35
688.91	56.17
689.05	84.26
689.18	65.54
689.32	39.79
689.46	74.90
689.59	35.11
689.73	58.51
689.86	23.41
690.00	60.85
690.13	0.00
690.27	37.45
690.41	46.81
690.54	9.36
690.68	44.47
690.81	128.73
690.95	32.77
691.08	79.58
691.22	39.79
691.35	32.77
691.49	46.81
691.62	14.04
691.76	53.83
691.89	0.00
692.03	14.04
692.16	18.72
692.30	93.62
692.43	37.45
692.57	65.54
692.70	32.77
692.84	44.47
692.97	0.00
693.11	56.17
693.24	67.88
693.38	21.06
693.51	7.02
693.65	42.13
693.78	56.17
693.92	30.43
694.05	32.77
694.19	42.13
694.32	131.07
694.45	53.83
694.59	63.19
694.72	49.15
694.86	23.41
694.99	4.68
695.13	79.58
695.26	0.00
695.39	0.00
695.53	74.90
695.66	60.85
695.80	42.13
695.93	2.34
696.07	84.26
696.20	0.00
696.33	0.00
696.47	93.62
696.60	32.77
696.73	32.77
696.87	11.70
697.00	28.09
697.14	60.85
697.27	11.70
697.40	74.90
697.54	100.64
697.67	107.66
697.80	91.28
697.94	72.56
698.07	37.45
698.21	16.38
698.34	42.13
698.47	16.38
698.61	2.34
698.74	28.09
698.87	46.81
699.01	11.70
699.14	56.17
699.27	0.00
699.40	67.88
699.54	56.17
699.67	42.13
699.80	46.81
699.94	0.00
700.07	37.45
700.20	49.15
700.34	25.75
700.47	37.45
700.60	0.00
700.73	42.13
700.87	14.04
701.00	42.13
701.13	51.49
701.26	74.90
701.40	60.85
701.53	58.51
701.66	28.09
701.79	46.81
701.93	49.15
702.06	39.79
702.19	0.00
702.32	23.41
702.46	11.70
702.59	56.17
702.72	4.68
702.85	0.00
702.99	0.00
703.12	4.68
703.25	23.41
703.38	0.00
703.51	11.70
703.65	0.00
703.78	32.77
703.91	11.70
704.04	0.00
704.17	65.54
704.31	107.66
704.44	88.94
704.57	9.36
704.70	0.00
704.83	65.54
704.96	56.17
705.10	25.75
705.23	0.00
>>>>>End Processed Spectral Data<<<<<
