SpectraSuite Data File
++++++++++++++++++++++++++++++++++++
Date: Fri Oct 04 12:13:40 GMT-05:00 2013
User: price-jones
Dark Spectrum Present: No
Reference Spectrum Present: No
Number of Sampled Component Spectra: 1
Spectrometers: USB2+H05261
Integration Time (usec): 10000 (USB2+H05261)
Spectra Averaged: 1 (USB2+H05261)
Boxcar Smoothing: 0 (USB2+H05261)
Correct for Electrical Dark: No (USB2+H05261)
Strobe/Lamp Enabled: No (USB2+H05261)
Correct for Detector Non-linearity: No (USB2+H05261)
Correct for Stray Light: No (USB2+H05261)
Number of Pixels in Processed Spectrum: 2048
>>>>>Begin Processed Spectral Data<<<<<
365.73	0.00
365.92	0.00
366.12	0.00
366.32	0.00
366.52	0.00
366.72	0.00
366.91	0.00
367.11	0.00
367.31	0.00
367.51	0.00
367.70	0.00
367.90	0.00
368.10	0.00
368.30	0.00
368.49	0.00
368.69	0.00
368.89	0.00
369.09	0.00
369.28	0.00
369.48	0.00
369.68	0.00
369.87	0.00
370.07	0.00
370.27	0.00
370.47	0.00
370.66	0.00
370.86	0.00
371.06	0.00
371.25	0.00
371.45	49.15
371.65	0.00
371.84	0.00
372.04	0.00
372.24	0.00
372.44	23.41
372.63	18.72
372.83	63.19
373.03	0.00
373.22	65.54
373.42	49.15
373.62	0.00
373.81	0.00
374.01	11.70
374.21	84.26
374.40	0.00
374.60	28.09
374.79	60.85
374.99	0.00
375.19	18.72
375.38	25.75
375.58	49.15
375.78	77.24
375.97	2.34
376.17	63.19
376.37	14.04
376.56	63.19
376.76	93.62
376.95	51.49
377.15	44.47
377.35	0.00
377.54	67.88
377.74	18.72
377.93	21.06
378.13	18.72
378.33	65.54
378.52	37.45
378.72	65.54
378.91	0.00
379.11	58.51
379.31	2.34
379.50	0.00
379.70	49.15
379.89	14.04
380.09	0.00
380.28	0.00
380.48	4.68
380.68	70.22
380.87	0.00
381.07	9.36
381.26	14.04
381.46	0.00
381.65	37.45
381.85	32.77
382.04	7.02
382.24	67.88
382.43	23.41
382.63	65.54
382.83	56.17
383.02	0.00
383.22	4.68
383.41	0.00
383.61	28.09
383.80	14.04
384.00	0.00
384.19	0.00
384.39	46.81
384.58	58.51
384.78	0.00
384.97	16.38
385.17	84.26
385.36	16.38
385.56	25.75
385.75	39.79
385.95	35.11
386.14	32.77
386.34	9.36
386.53	67.88
386.72	37.45
386.92	37.45
387.11	53.83
387.31	0.00
387.50	0.00
387.70	102.98
387.89	21.06
388.09	14.04
388.28	11.70
388.48	16.38
388.67	0.00
388.86	51.49
389.06	0.00
389.25	0.00
389.45	37.45
389.64	30.43
389.84	46.81
390.03	37.45
390.22	67.88
390.42	9.36
390.61	9.36
390.81	16.38
391.00	0.00
391.19	51.49
391.39	14.04
391.58	39.79
391.78	74.90
391.97	95.96
392.16	30.43
392.36	128.73
392.55	7.02
392.75	30.43
392.94	0.00
393.13	0.00
393.33	0.00
393.52	14.04
393.71	0.00
393.91	0.00
394.10	0.00
394.29	56.17
394.49	37.45
394.68	23.41
394.88	46.81
395.07	0.00
395.26	44.47
395.46	0.00
395.65	25.75
395.84	35.11
396.04	46.81
396.23	11.70
396.42	18.72
396.62	4.68
396.81	65.54
397.00	58.51
397.19	16.38
397.39	107.66
397.58	0.00
397.77	86.60
397.97	14.04
398.16	77.24
398.35	35.11
398.55	65.54
398.74	42.13
398.93	25.75
399.12	67.88
399.32	98.30
399.51	65.54
399.70	42.13
399.90	98.30
400.09	44.47
400.28	0.00
400.47	46.81
400.67	23.41
400.86	23.41
401.05	0.00
401.24	0.00
401.44	18.72
401.63	81.92
401.82	72.56
402.01	98.30
402.21	63.19
402.40	0.00
402.59	14.04
402.78	30.43
402.97	51.49
403.17	88.94
403.36	18.72
403.55	74.90
403.74	16.38
403.93	42.13
404.13	49.15
404.32	0.00
404.51	35.11
404.70	63.19
404.89	51.49
405.09	0.00
405.28	56.17
405.47	0.00
405.66	9.36
405.85	0.00
406.05	70.22
406.24	37.45
406.43	16.38
406.62	14.04
406.81	28.09
407.00	51.49
407.20	49.15
407.39	7.02
407.58	86.60
407.77	72.56
407.96	0.00
408.15	58.51
408.34	16.38
408.54	100.64
408.73	46.81
408.92	16.38
409.11	100.64
409.30	18.72
409.49	49.15
409.68	35.11
409.87	72.56
410.07	0.00
410.26	0.00
410.45	2.34
410.64	88.94
410.83	42.13
411.02	39.79
411.21	9.36
411.40	0.00
411.59	56.17
411.78	4.68
411.98	30.43
412.17	95.96
412.36	39.79
412.55	53.83
412.74	58.51
412.93	70.22
413.12	23.41
413.31	32.77
413.50	0.00
413.69	23.41
413.88	70.22
414.07	9.36
414.26	74.90
414.45	86.60
414.64	79.58
414.83	23.41
415.02	0.00
415.22	0.00
415.41	18.72
415.60	0.00
415.79	28.09
415.98	25.75
416.17	72.56
416.36	39.79
416.55	53.83
416.74	51.49
416.93	37.45
417.12	119.37
417.31	142.77
417.50	35.11
417.69	46.81
417.88	9.36
418.07	2.34
418.26	0.00
418.45	56.17
418.64	72.56
418.83	37.45
419.02	0.00
419.21	16.38
419.39	11.70
419.58	46.81
419.77	37.45
419.96	67.88
420.15	74.90
420.34	2.34
420.53	0.00
420.72	2.34
420.91	39.79
421.10	0.00
421.29	28.09
421.48	84.26
421.67	37.45
421.86	39.79
422.05	0.00
422.24	58.51
422.43	16.38
422.61	28.09
422.80	79.58
422.99	72.56
423.18	32.77
423.37	16.38
423.56	88.94
423.75	63.19
423.94	35.11
424.13	4.68
424.32	44.47
424.50	16.38
424.69	84.26
424.88	37.45
425.07	35.11
425.26	32.77
425.45	42.13
425.64	53.83
425.83	7.02
426.01	0.00
426.20	25.75
426.39	28.09
426.58	60.85
426.77	16.38
426.96	42.13
427.15	0.00
427.33	42.13
427.52	81.92
427.71	117.03
427.90	46.81
428.09	42.13
428.28	0.00
428.46	67.88
428.65	35.11
428.84	110.01
429.03	67.88
429.22	14.04
429.40	11.70
429.59	30.43
429.78	86.60
429.97	0.00
430.16	105.32
430.34	58.51
430.53	0.00
430.72	4.68
430.91	14.04
431.10	0.00
431.28	44.47
431.47	4.68
431.66	100.64
431.85	65.54
432.03	84.26
432.22	77.24
432.41	23.41
432.60	35.11
432.79	0.00
432.97	2.34
433.16	0.00
433.35	79.58
433.54	42.13
433.72	112.35
433.91	51.49
434.10	37.45
434.28	37.45
434.47	67.88
434.66	88.94
434.85	32.77
435.03	21.06
435.22	74.90
435.41	58.51
435.59	126.39
435.78	39.79
435.97	30.43
436.16	79.58
436.34	0.00
436.53	35.11
436.72	60.85
436.90	35.11
437.09	81.92
437.28	65.54
437.46	14.04
437.65	18.72
437.84	72.56
438.02	25.75
438.21	7.02
438.40	74.90
438.58	70.22
438.77	70.22
438.96	28.09
439.14	30.43
439.33	51.49
439.52	67.88
439.70	72.56
439.89	51.49
440.08	4.68
440.26	53.83
440.45	51.49
440.63	88.94
440.82	37.45
441.01	28.09
441.19	28.09
441.38	35.11
441.57	46.81
441.75	112.35
441.94	51.49
442.12	65.54
442.31	37.45
442.50	0.00
442.68	72.56
442.87	100.64
443.05	65.54
443.24	7.02
443.43	65.54
443.61	58.51
443.80	100.64
443.98	63.19
444.17	9.36
444.35	102.98
444.54	16.38
444.73	16.38
444.91	42.13
445.10	49.15
445.28	114.69
445.47	0.00
445.65	65.54
445.84	49.15
446.02	0.00
446.21	0.00
446.39	35.11
446.58	0.00
446.77	28.09
446.95	79.58
447.14	53.83
447.32	16.38
447.51	56.17
447.69	35.11
447.88	37.45
448.06	51.49
448.25	79.58
448.43	46.81
448.62	93.62
448.80	28.09
448.99	32.77
449.17	37.45
449.36	42.13
449.54	67.88
449.73	32.77
449.91	39.79
450.10	28.09
450.28	0.00
450.46	0.00
450.65	14.04
450.83	74.90
451.02	16.38
451.20	0.00
451.39	77.24
451.57	46.81
451.76	91.28
451.94	42.13
452.13	0.00
452.31	23.41
452.49	65.54
452.68	44.47
452.86	0.00
453.05	49.15
453.23	4.68
453.42	4.68
453.60	81.92
453.78	88.94
453.97	100.64
454.15	88.94
454.34	53.83
454.52	58.51
454.70	86.60
454.89	9.36
455.07	0.00
455.26	4.68
455.44	30.43
455.62	42.13
455.81	11.70
455.99	42.13
456.17	58.51
456.36	37.45
456.54	88.94
456.73	7.02
456.91	63.19
457.09	102.98
457.28	98.30
457.46	42.13
457.64	0.00
457.83	86.60
458.01	30.43
458.19	46.81
458.38	84.26
458.56	102.98
458.74	65.54
458.93	46.81
459.11	110.01
459.29	39.79
459.48	42.13
459.66	67.88
459.84	21.06
460.03	70.22
460.21	35.11
460.39	42.13
460.57	28.09
460.76	32.77
460.94	58.51
461.12	49.15
461.31	88.94
461.49	0.00
461.67	95.96
461.85	121.71
462.04	84.26
462.22	180.22
462.40	21.06
462.59	72.56
462.77	23.41
462.95	23.41
463.13	72.56
463.32	46.81
463.50	60.85
463.68	35.11
463.86	0.00
464.05	0.00
464.23	105.32
464.41	46.81
464.59	14.04
464.78	98.30
464.96	86.60
465.14	46.81
465.32	77.24
465.50	74.90
465.69	16.38
465.87	81.92
466.05	93.62
466.23	81.92
466.41	77.24
466.60	46.81
466.78	39.79
466.96	65.54
467.14	18.72
467.32	14.04
467.51	0.00
467.69	56.17
467.87	107.66
468.05	95.96
468.23	70.22
468.41	74.90
468.60	70.22
468.78	84.26
468.96	30.43
469.14	35.11
469.32	23.41
469.50	93.62
469.69	58.51
469.87	0.00
470.05	105.32
470.23	49.15
470.41	30.43
470.59	56.17
470.77	67.88
470.95	133.41
471.14	53.83
471.32	60.85
471.50	35.11
471.68	86.60
471.86	11.70
472.04	88.94
472.22	44.47
472.40	138.09
472.58	105.32
472.77	7.02
472.95	110.01
473.13	51.49
473.31	18.72
473.49	28.09
473.67	39.79
473.85	46.81
474.03	133.41
474.21	60.85
474.39	44.47
474.57	84.26
474.75	44.47
474.93	44.47
475.12	32.77
475.30	21.06
475.48	91.28
475.66	74.90
475.84	56.17
476.02	0.00
476.20	35.11
476.38	44.47
476.56	91.28
476.74	18.72
476.92	23.41
477.10	25.75
477.28	121.71
477.46	86.60
477.64	56.17
477.82	0.00
478.00	119.37
478.18	105.32
478.36	65.54
478.54	58.51
478.72	77.24
478.90	21.06
479.08	42.13
479.26	74.90
479.44	70.22
479.62	81.92
479.80	39.79
479.98	56.17
480.16	128.73
480.34	112.35
480.52	58.51
480.70	11.70
480.88	114.69
481.06	88.94
481.24	133.41
481.41	140.43
481.59	56.17
481.77	25.75
481.95	93.62
482.13	16.38
482.31	51.49
482.49	39.79
482.67	93.62
482.85	37.45
483.03	102.98
483.21	98.30
483.39	112.35
483.57	0.00
483.74	117.03
483.92	74.90
484.10	95.96
484.28	37.45
484.46	81.92
484.64	88.94
484.82	63.19
485.00	95.96
485.18	65.54
485.35	32.77
485.53	79.58
485.71	67.88
485.89	0.00
486.07	0.00
486.25	102.98
486.43	0.00
486.61	74.90
486.78	0.00
486.96	35.11
487.14	0.00
487.32	53.83
487.50	100.64
487.68	86.60
487.85	11.70
488.03	0.00
488.21	124.05
488.39	114.69
488.57	16.38
488.75	51.49
488.92	133.41
489.10	51.49
489.28	124.05
489.46	88.94
489.64	2.34
489.81	79.58
489.99	49.15
490.17	65.54
490.35	91.28
490.53	16.38
490.70	23.41
490.88	102.98
491.06	39.79
491.24	88.94
491.41	133.41
491.59	88.94
491.77	60.85
491.95	84.26
492.13	88.94
492.30	72.56
492.48	98.30
492.66	124.05
492.84	77.24
493.01	58.51
493.19	91.28
493.37	121.71
493.54	0.00
493.72	72.56
493.90	86.60
494.08	84.26
494.25	110.01
494.43	126.39
494.61	105.32
494.79	67.88
494.96	119.37
495.14	65.54
495.32	60.85
495.49	119.37
495.67	131.07
495.85	72.56
496.02	102.98
496.20	91.28
496.38	152.13
496.55	81.92
496.73	168.52
496.91	84.26
497.09	0.00
497.26	51.49
497.44	21.06
497.62	49.15
497.79	135.75
497.97	44.47
498.14	98.30
498.32	135.75
498.50	60.85
498.67	72.56
498.85	100.64
499.03	16.38
499.20	93.62
499.38	16.38
499.56	67.88
499.73	93.62
499.91	107.66
500.08	30.43
500.26	126.39
500.44	65.54
500.61	117.03
500.79	102.98
500.97	102.98
501.14	0.00
501.32	72.56
501.49	77.24
501.67	28.09
501.84	107.66
502.02	42.13
502.20	46.81
502.37	39.79
502.55	58.51
502.72	51.49
502.90	56.17
503.07	105.32
503.25	114.69
503.43	114.69
503.60	42.13
503.78	112.35
503.95	112.35
504.13	88.94
504.30	93.62
504.48	124.05
504.65	86.60
504.83	170.86
505.01	46.81
505.18	91.28
505.36	56.17
505.53	60.85
505.71	32.77
505.88	77.24
506.06	93.62
506.23	128.73
506.41	65.54
506.58	86.60
506.76	39.79
506.93	2.34
507.11	93.62
507.28	105.32
507.46	39.79
507.63	86.60
507.81	58.51
507.98	84.26
508.16	60.85
508.33	142.77
508.50	63.19
508.68	72.56
508.85	77.24
509.03	81.92
509.20	100.64
509.38	91.28
509.55	114.69
509.73	100.64
509.90	124.05
510.08	72.56
510.25	156.82
510.42	46.81
510.60	84.26
510.77	95.96
510.95	53.83
511.12	39.79
511.30	58.51
511.47	72.56
511.64	65.54
511.82	77.24
511.99	86.60
512.17	46.81
512.34	105.32
512.51	0.00
512.69	95.96
512.86	107.66
513.04	67.88
513.21	138.09
513.38	56.17
513.56	140.43
513.73	128.73
513.90	86.60
514.08	51.49
514.25	110.01
514.43	32.77
514.60	98.30
514.77	124.05
514.95	23.41
515.12	67.88
515.29	156.82
515.47	119.37
515.64	65.54
515.81	112.35
515.99	39.79
516.16	23.41
516.33	65.54
516.51	107.66
516.68	0.00
516.85	91.28
517.03	21.06
517.20	60.85
517.37	35.11
517.54	79.58
517.72	163.84
517.89	72.56
518.06	79.58
518.24	0.00
518.41	126.39
518.58	133.41
518.75	105.32
518.93	117.03
519.10	102.98
519.27	72.56
519.45	117.03
519.62	56.17
519.79	16.38
519.96	98.30
520.14	86.60
520.31	110.01
520.48	91.28
520.65	88.94
520.83	56.17
521.00	63.19
521.17	72.56
521.34	77.24
521.52	0.00
521.69	23.41
521.86	67.88
522.03	112.35
522.20	74.90
522.38	117.03
522.55	42.13
522.72	93.62
522.89	107.66
523.07	156.82
523.24	100.64
523.41	79.58
523.58	112.35
523.75	88.94
523.92	42.13
524.10	110.01
524.27	93.62
524.44	37.45
524.61	72.56
524.78	28.09
524.96	128.73
525.13	98.30
525.30	72.56
525.47	51.49
525.64	133.41
525.81	23.41
525.98	79.58
526.16	100.64
526.33	74.90
526.50	51.49
526.67	35.11
526.84	84.26
527.01	133.41
527.18	91.28
527.36	65.54
527.53	91.28
527.70	49.15
527.87	74.90
528.04	98.30
528.21	49.15
528.38	126.39
528.55	95.96
528.72	46.81
528.89	154.48
529.07	93.62
529.24	65.54
529.41	72.56
529.58	11.70
529.75	70.22
529.92	35.11
530.09	56.17
530.26	119.37
530.43	60.85
530.60	63.19
530.77	112.35
530.94	110.01
531.11	18.72
531.28	46.81
531.46	74.90
531.63	107.66
531.80	156.82
531.97	107.66
532.14	79.58
532.31	58.51
532.48	11.70
532.65	65.54
532.82	117.03
532.99	159.16
533.16	70.22
533.33	131.07
533.50	102.98
533.67	51.49
533.84	58.51
534.01	152.13
534.18	44.47
534.35	110.01
534.52	77.24
534.69	93.62
534.86	128.73
535.03	156.82
535.20	105.32
535.37	53.83
535.54	100.64
535.71	42.13
535.88	95.96
536.05	86.60
536.22	91.28
536.38	42.13
536.55	95.96
536.72	25.75
536.89	88.94
537.06	56.17
537.23	170.86
537.40	60.85
537.57	44.47
537.74	114.69
537.91	154.48
538.08	67.88
538.25	138.09
538.42	86.60
538.59	161.50
538.75	67.88
538.92	88.94
539.09	46.81
539.26	65.54
539.43	124.05
539.60	110.01
539.77	70.22
539.94	102.98
540.11	107.66
540.28	112.35
540.44	131.07
540.61	88.94
540.78	32.77
540.95	170.86
541.12	119.37
541.29	107.66
541.46	133.41
541.62	56.17
541.79	131.07
541.96	121.71
542.13	72.56
542.30	91.28
542.47	79.58
542.63	102.98
542.80	128.73
542.97	51.49
543.14	53.83
543.31	107.66
543.48	58.51
543.64	53.83
543.81	65.54
543.98	77.24
544.15	74.90
544.32	53.83
544.48	72.56
544.65	107.66
544.82	53.83
544.99	95.96
545.16	86.60
545.32	86.60
545.49	60.85
545.66	102.98
545.83	156.82
546.00	84.26
546.16	46.81
546.33	135.75
546.50	16.38
546.67	70.22
546.83	60.85
547.00	102.98
547.17	88.94
547.34	91.28
547.50	32.77
547.67	86.60
547.84	72.56
548.00	86.60
548.17	63.19
548.34	56.17
548.51	79.58
548.67	156.82
548.84	70.22
549.01	74.90
549.18	81.92
549.34	119.37
549.51	110.01
549.68	81.92
549.84	95.96
550.01	77.24
550.18	95.96
550.34	98.30
550.51	44.47
550.68	110.01
550.84	72.56
551.01	138.09
551.18	7.02
551.34	39.79
551.51	93.62
551.68	142.77
551.84	51.49
552.01	0.00
552.18	133.41
552.34	112.35
552.51	142.77
552.68	86.60
552.84	77.24
553.01	72.56
553.18	49.15
553.34	131.07
553.51	9.36
553.67	70.22
553.84	95.96
554.01	88.94
554.17	53.83
554.34	81.92
554.51	100.64
554.67	107.66
554.84	79.58
555.00	93.62
555.17	91.28
555.33	88.94
555.50	67.88
555.67	95.96
555.83	112.35
556.00	107.66
556.16	152.13
556.33	114.69
556.50	88.94
556.66	133.41
556.83	102.98
556.99	86.60
557.16	70.22
557.32	145.11
557.49	30.43
557.65	91.28
557.82	86.60
557.98	30.43
558.15	4.68
558.32	16.38
558.48	42.13
558.65	65.54
558.81	128.73
558.98	105.32
559.14	124.05
559.31	42.13
559.47	81.92
559.64	114.69
559.80	170.86
559.97	67.88
560.13	147.45
560.30	63.19
560.46	58.51
560.63	11.70
560.79	42.13
560.96	124.05
561.12	166.18
561.29	105.32
561.45	110.01
561.61	135.75
561.78	56.17
561.94	37.45
562.11	32.77
562.27	84.26
562.44	147.45
562.60	65.54
562.77	84.26
562.93	70.22
563.10	95.96
563.26	119.37
563.42	14.04
563.59	25.75
563.75	79.58
563.92	98.30
564.08	98.30
564.24	60.85
564.41	72.56
564.57	105.32
564.74	91.28
564.90	81.92
565.07	138.09
565.23	84.26
565.39	30.43
565.56	138.09
565.72	70.22
565.88	77.24
566.05	74.90
566.21	102.98
566.38	53.83
566.54	88.94
566.70	65.54
566.87	124.05
567.03	140.43
567.19	9.36
567.36	110.01
567.52	110.01
567.68	46.81
567.85	124.05
568.01	133.41
568.17	0.00
568.34	51.49
568.50	105.32
568.66	84.26
568.83	70.22
568.99	16.38
569.15	121.71
569.32	67.88
569.48	79.58
569.64	149.79
569.81	95.96
569.97	88.94
570.13	117.03
570.30	39.79
570.46	79.58
570.62	0.00
570.78	102.98
570.95	79.58
571.11	124.05
571.27	49.15
571.43	65.54
571.60	77.24
571.76	91.28
571.92	84.26
572.09	42.13
572.25	32.77
572.41	21.06
572.57	25.75
572.74	70.22
572.90	102.98
573.06	107.66
573.22	67.88
573.38	72.56
573.55	100.64
573.71	65.54
573.87	11.70
574.03	102.98
574.20	28.09
574.36	65.54
574.52	117.03
574.68	74.90
574.84	81.92
575.01	18.72
575.17	126.39
575.33	110.01
575.49	105.32
575.65	121.71
575.82	42.13
575.98	102.98
576.14	74.90
576.30	105.32
576.46	95.96
576.62	102.98
576.79	70.22
576.95	51.49
577.11	88.94
577.27	11.70
577.43	140.43
577.59	32.77
577.75	37.45
577.92	166.18
578.08	112.35
578.24	18.72
578.40	35.11
578.56	95.96
578.72	138.09
578.88	105.32
579.04	84.26
579.21	93.62
579.37	98.30
579.53	42.13
579.69	105.32
579.85	102.98
580.01	0.00
580.17	58.51
580.33	63.19
580.49	51.49
580.65	72.56
580.82	65.54
580.98	119.37
581.14	77.24
581.30	112.35
581.46	32.77
581.62	98.30
581.78	65.54
581.94	159.16
582.10	88.94
582.26	77.24
582.42	60.85
582.58	44.47
582.74	81.92
582.90	74.90
583.06	79.58
583.22	112.35
583.38	32.77
583.54	98.30
583.70	65.54
583.86	60.85
584.02	112.35
584.18	79.58
584.34	81.92
584.50	124.05
584.66	72.56
584.82	133.41
584.98	93.62
585.14	88.94
585.30	88.94
585.46	23.41
585.62	56.17
585.78	32.77
585.94	81.92
586.10	30.43
586.26	23.41
586.42	110.01
586.58	100.64
586.74	77.24
586.90	65.54
587.06	110.01
587.22	46.81
587.38	32.77
587.54	0.00
587.70	98.30
587.86	2.34
588.02	77.24
588.18	35.11
588.34	49.15
588.49	77.24
588.65	70.22
588.81	44.47
588.97	0.00
589.13	23.41
589.29	23.41
589.45	100.64
589.61	0.00
589.77	23.41
589.93	18.72
590.08	67.88
590.24	46.81
590.40	119.37
590.56	67.88
590.72	74.90
590.88	117.03
591.04	37.45
591.20	21.06
591.35	93.62
591.51	77.24
591.67	37.45
591.83	70.22
591.99	126.39
592.15	42.13
592.31	46.81
592.46	121.71
592.62	9.36
592.78	102.98
592.94	56.17
593.10	77.24
593.26	32.77
593.41	70.22
593.57	60.85
593.73	95.96
593.89	65.54
594.05	23.41
594.20	0.00
594.36	74.90
594.52	95.96
594.68	114.69
594.84	86.60
594.99	65.54
595.15	14.04
595.31	98.30
595.47	100.64
595.62	98.30
595.78	84.26
595.94	63.19
596.10	0.00
596.25	91.28
596.41	32.77
596.57	56.17
596.73	56.17
596.88	124.05
597.04	28.09
597.20	121.71
597.36	37.45
597.51	77.24
597.67	72.56
597.83	58.51
597.99	170.86
598.14	7.02
598.30	56.17
598.46	110.01
598.61	91.28
598.77	114.69
598.93	11.70
599.09	117.03
599.24	65.54
599.40	44.47
599.56	112.35
599.71	117.03
599.87	32.77
600.03	32.77
600.18	28.09
600.34	93.62
600.50	70.22
600.65	95.96
600.81	72.56
600.97	81.92
601.12	70.22
601.28	100.64
601.44	56.17
601.59	51.49
601.75	42.13
601.91	53.83
602.06	91.28
602.22	32.77
602.37	72.56
602.53	0.00
602.69	119.37
602.84	95.96
603.00	58.51
603.16	105.32
603.31	112.35
603.47	56.17
603.62	81.92
603.78	105.32
603.94	81.92
604.09	72.56
604.25	56.17
604.40	84.26
604.56	168.52
604.71	63.19
604.87	112.35
605.03	119.37
605.18	100.64
605.34	65.54
605.49	81.92
605.65	63.19
605.80	0.00
605.96	0.00
606.12	60.85
606.27	0.00
606.43	102.98
606.58	131.07
606.74	77.24
606.89	105.32
607.05	107.66
607.20	7.02
607.36	70.22
607.51	51.49
607.67	88.94
607.82	56.17
607.98	63.19
608.13	91.28
608.29	28.09
608.44	72.56
608.60	53.83
608.75	7.02
608.91	77.24
609.06	154.48
609.22	9.36
609.37	51.49
609.53	121.71
609.68	18.72
609.84	0.00
609.99	70.22
610.15	95.96
610.30	25.75
610.46	4.68
610.61	28.09
610.76	49.15
610.92	49.15
611.07	93.62
611.23	53.83
611.38	25.75
611.54	60.85
611.69	79.58
611.84	65.54
612.00	67.88
612.15	4.68
612.31	126.39
612.46	14.04
612.62	74.90
612.77	14.04
612.92	124.05
613.08	58.51
613.23	0.00
613.39	44.47
613.54	72.56
613.69	56.17
613.85	16.38
614.00	145.11
614.15	121.71
614.31	105.32
614.46	159.16
614.62	56.17
614.77	91.28
614.92	35.11
615.08	39.79
615.23	142.77
615.38	58.51
615.54	79.58
615.69	124.05
615.84	53.83
616.00	9.36
616.15	72.56
616.30	102.98
616.46	28.09
616.61	49.15
616.76	42.13
616.92	18.72
617.07	0.00
617.22	53.83
617.37	84.26
617.53	58.51
617.68	9.36
617.83	77.24
617.99	95.96
618.14	95.96
618.29	98.30
618.45	65.54
618.60	86.60
618.75	79.58
618.90	84.26
619.06	70.22
619.21	79.58
619.36	100.64
619.51	0.00
619.67	42.13
619.82	79.58
619.97	63.19
620.12	28.09
620.28	102.98
620.43	100.64
620.58	56.17
620.73	93.62
620.89	44.47
621.04	32.77
621.19	49.15
621.34	25.75
621.49	11.70
621.65	84.26
621.80	86.60
621.95	44.47
622.10	0.00
622.25	110.01
622.41	98.30
622.56	86.60
622.71	72.56
622.86	21.06
623.01	9.36
623.16	70.22
623.32	14.04
623.47	0.00
623.62	77.24
623.77	37.45
623.92	46.81
624.07	44.47
624.23	4.68
624.38	86.60
624.53	72.56
624.68	74.90
624.83	23.41
624.98	74.90
625.13	79.58
625.29	65.54
625.44	51.49
625.59	56.17
625.74	11.70
625.89	72.56
626.04	98.30
626.19	72.56
626.34	0.00
626.49	56.17
626.65	67.88
626.80	98.30
626.95	131.07
627.10	102.98
627.25	67.88
627.40	49.15
627.55	14.04
627.70	74.90
627.85	18.72
628.00	63.19
628.15	25.75
628.30	51.49
628.45	42.13
628.60	110.01
628.76	84.26
628.91	84.26
629.06	107.66
629.21	79.58
629.36	60.85
629.51	117.03
629.66	121.71
629.81	93.62
629.96	67.88
630.11	0.00
630.26	72.56
630.41	39.79
630.56	58.51
630.71	0.00
630.86	140.43
631.01	84.26
631.16	163.84
631.31	133.41
631.46	49.15
631.61	39.79
631.76	117.03
631.91	0.00
632.06	79.58
632.21	42.13
632.36	32.77
632.51	18.72
632.66	42.13
632.81	105.32
632.96	86.60
633.10	39.79
633.25	0.00
633.40	79.58
633.55	56.17
633.70	60.85
633.85	18.72
634.00	56.17
634.15	63.19
634.30	28.09
634.45	65.54
634.60	25.75
634.75	91.28
634.90	9.36
635.05	28.09
635.19	35.11
635.34	84.26
635.49	74.90
635.64	79.58
635.79	16.38
635.94	60.85
636.09	0.00
636.24	39.79
636.39	67.88
636.53	98.30
636.68	37.45
636.83	56.17
636.98	93.62
637.13	49.15
637.28	0.00
637.43	74.90
637.57	23.41
637.72	93.62
637.87	88.94
638.02	67.88
638.17	77.24
638.32	0.00
638.46	30.43
638.61	88.94
638.76	102.98
638.91	0.00
639.06	35.11
639.20	0.00
639.35	42.13
639.50	63.19
639.65	0.00
639.80	79.58
639.94	21.06
640.09	74.90
640.24	53.83
640.39	39.79
640.54	30.43
640.68	30.43
640.83	58.51
640.98	100.64
641.13	65.54
641.27	42.13
641.42	63.19
641.57	11.70
641.72	77.24
641.86	60.85
642.01	42.13
642.16	7.02
642.31	51.49
642.45	9.36
642.60	72.56
642.75	114.69
642.90	44.47
643.04	74.90
643.19	102.98
643.34	117.03
643.48	30.43
643.63	9.36
643.78	128.73
643.93	124.05
644.07	39.79
644.22	16.38
644.37	133.41
644.51	39.79
644.66	114.69
644.81	32.77
644.95	58.51
645.10	74.90
645.25	44.47
645.39	102.98
645.54	35.11
645.69	58.51
645.83	37.45
645.98	9.36
646.13	93.62
646.27	44.47
646.42	32.77
646.57	0.00
646.71	74.90
646.86	65.54
647.00	100.64
647.15	21.06
647.30	74.90
647.44	51.49
647.59	42.13
647.74	77.24
647.88	60.85
648.03	51.49
648.17	93.62
648.32	18.72
648.47	21.06
648.61	126.39
648.76	49.15
648.90	18.72
649.05	25.75
649.20	44.47
649.34	51.49
649.49	53.83
649.63	51.49
649.78	37.45
649.92	9.36
650.07	14.04
650.21	77.24
650.36	51.49
650.51	18.72
650.65	100.64
650.80	37.45
650.94	79.58
651.09	16.38
651.23	102.98
651.38	0.00
651.52	51.49
651.67	98.30
651.81	46.81
651.96	16.38
652.10	79.58
652.25	56.17
652.39	81.92
652.54	49.15
652.68	53.83
652.83	4.68
652.97	2.34
653.12	56.17
653.26	91.28
653.41	67.88
653.55	4.68
653.70	72.56
653.84	56.17
653.99	25.75
654.13	23.41
654.27	0.00
654.42	91.28
654.56	49.15
654.71	84.26
654.85	49.15
655.00	25.75
655.14	14.04
655.29	93.62
655.43	25.75
655.57	121.71
655.72	46.81
655.86	16.38
656.01	145.11
656.15	23.41
656.30	11.70
656.44	21.06
656.58	0.00
656.73	46.81
656.87	77.24
657.01	23.41
657.16	14.04
657.30	170.86
657.45	42.13
657.59	23.41
657.73	11.70
657.88	18.72
658.02	30.43
658.16	14.04
658.31	0.00
658.45	88.94
658.60	86.60
658.74	9.36
658.88	7.02
659.03	77.24
659.17	0.00
659.31	23.41
659.46	0.00
659.60	70.22
659.74	79.58
659.89	70.22
660.03	49.15
660.17	37.45
660.32	4.68
660.46	42.13
660.60	39.79
660.74	32.77
660.89	51.49
661.03	0.00
661.17	79.58
661.32	84.26
661.46	9.36
661.60	88.94
661.74	77.24
661.89	46.81
662.03	51.49
662.17	16.38
662.31	25.75
662.46	42.13
662.60	65.54
662.74	88.94
662.88	56.17
663.03	121.71
663.17	74.90
663.31	56.17
663.45	81.92
663.60	4.68
663.74	72.56
663.88	2.34
664.02	0.00
664.17	72.56
664.31	65.54
664.45	0.00
664.59	28.09
664.73	60.85
664.88	105.32
665.02	49.15
665.16	32.77
665.30	77.24
665.44	46.81
665.59	70.22
665.73	56.17
665.87	58.51
666.01	126.39
666.15	39.79
666.29	77.24
666.44	30.43
666.58	30.43
666.72	14.04
666.86	74.90
667.00	56.17
667.14	79.58
667.28	46.81
667.43	44.47
667.57	65.54
667.71	51.49
667.85	42.13
667.99	42.13
668.13	0.00
668.27	0.00
668.41	0.00
668.56	105.32
668.70	74.90
668.84	11.70
668.98	79.58
669.12	25.75
669.26	21.06
669.40	37.45
669.54	65.54
669.68	100.64
669.82	56.17
669.96	102.98
670.10	81.92
670.25	37.45
670.39	39.79
670.53	49.15
670.67	84.26
670.81	0.00
670.95	65.54
671.09	49.15
671.23	72.56
671.37	74.90
671.51	112.35
671.65	16.38
671.79	11.70
671.93	74.90
672.07	56.17
672.21	107.66
672.35	0.00
672.49	56.17
672.63	70.22
672.77	44.47
672.91	140.43
673.05	44.47
673.19	9.36
673.33	30.43
673.47	91.28
673.61	131.07
673.75	39.79
673.89	32.77
674.03	0.00
674.17	105.32
674.31	65.54
674.45	32.77
674.59	84.26
674.73	28.09
674.87	51.49
675.01	124.05
675.15	44.47
675.29	67.88
675.43	25.75
675.56	49.15
675.70	0.00
675.84	11.70
675.98	74.90
676.12	35.11
676.26	0.00
676.40	74.90
676.54	21.06
676.68	131.07
676.82	0.00
676.96	46.81
677.10	56.17
677.23	60.85
677.37	0.00
677.51	35.11
677.65	0.00
677.79	39.79
677.93	0.00
678.07	84.26
678.21	0.00
678.34	21.06
678.48	58.51
678.62	0.00
678.76	56.17
678.90	58.51
679.04	42.13
679.18	35.11
679.31	16.38
679.45	60.85
679.59	42.13
679.73	49.15
679.87	79.58
680.00	25.75
680.14	114.69
680.28	95.96
680.42	0.00
680.56	23.41
680.70	4.68
680.83	42.13
680.97	37.45
681.11	4.68
681.25	4.68
681.39	7.02
681.52	46.81
681.66	58.51
681.80	63.19
681.94	37.45
682.07	91.28
682.21	30.43
682.35	14.04
682.49	44.47
682.62	0.00
682.76	112.35
682.90	84.26
683.04	37.45
683.17	44.47
683.31	51.49
683.45	77.24
683.59	37.45
683.72	95.96
683.86	93.62
684.00	18.72
684.13	51.49
684.27	0.00
684.41	0.00
684.55	0.00
684.68	23.41
684.82	21.06
684.96	14.04
685.09	25.75
685.23	0.00
685.37	91.28
685.50	60.85
685.64	107.66
685.78	32.77
685.91	0.00
686.05	44.47
686.19	25.75
686.32	0.00
686.46	98.30
686.60	77.24
686.73	119.37
686.87	4.68
687.01	0.00
687.14	16.38
687.28	81.92
687.42	28.09
687.55	53.83
687.69	107.66
687.82	112.35
687.96	140.43
688.10	16.38
688.23	30.43
688.37	0.00
688.50	28.09
688.64	44.47
688.78	86.60
688.91	23.41
689.05	0.00
689.18	0.00
689.32	56.17
689.46	23.41
689.59	4.68
689.73	84.26
689.86	65.54
690.00	102.98
690.13	0.00
690.27	7.02
690.41	49.15
690.54	53.83
690.68	0.00
690.81	4.68
690.95	77.24
691.08	72.56
691.22	16.38
691.35	21.06
691.49	9.36
691.62	86.60
691.76	4.68
691.89	28.09
692.03	102.98
692.16	37.45
692.30	39.79
692.43	0.00
692.57	0.00
692.70	23.41
692.84	49.15
692.97	0.00
693.11	42.13
693.24	37.45
693.38	56.17
693.51	2.34
693.65	0.00
693.78	70.22
693.92	105.32
694.05	28.09
694.19	0.00
694.32	30.43
694.45	35.11
694.59	0.00
694.72	49.15
694.86	23.41
694.99	70.22
695.13	77.24
695.26	79.58
695.39	88.94
695.53	0.00
695.66	72.56
695.80	0.00
695.93	2.34
696.07	21.06
696.20	46.81
696.33	65.54
696.47	21.06
696.60	56.17
696.73	63.19
696.87	30.43
697.00	44.47
697.14	65.54
697.27	25.75
697.40	51.49
697.54	35.11
697.67	0.00
697.80	79.58
697.94	0.00
698.07	0.00
698.21	14.04
698.34	81.92
698.47	51.49
698.61	35.11
698.74	14.04
698.87	23.41
699.01	0.00
699.14	56.17
699.27	60.85
699.40	60.85
699.54	0.00
699.67	93.62
699.80	23.41
699.94	32.77
700.07	0.00
700.20	88.94
700.34	70.22
700.47	0.00
700.60	14.04
700.73	32.77
700.87	2.34
701.00	30.43
701.13	0.00
701.26	11.70
701.40	0.00
701.53	0.00
701.66	0.00
701.79	86.60
701.93	60.85
702.06	51.49
702.19	84.26
702.32	107.66
702.46	138.09
702.59	16.38
702.72	46.81
702.85	107.66
702.99	72.56
703.12	35.11
703.25	0.00
703.38	32.77
703.51	77.24
703.65	77.24
703.78	0.00
703.91	58.51
704.04	25.75
704.17	23.41
704.31	0.00
704.44	124.05
704.57	79.58
704.70	126.39
704.83	9.36
704.96	86.60
705.10	79.58
705.23	86.60
>>>>>End Processed Spectral Data<<<<<
