SpectraSuite Data File
++++++++++++++++++++++++++++++++++++
Date: Fri Oct 04 12:13:45 GMT-05:00 2013
User: price-jones
Dark Spectrum Present: No
Reference Spectrum Present: No
Number of Sampled Component Spectra: 1
Spectrometers: USB2+H05261
Integration Time (usec): 10000 (USB2+H05261)
Spectra Averaged: 1 (USB2+H05261)
Boxcar Smoothing: 0 (USB2+H05261)
Correct for Electrical Dark: No (USB2+H05261)
Strobe/Lamp Enabled: No (USB2+H05261)
Correct for Detector Non-linearity: No (USB2+H05261)
Correct for Stray Light: No (USB2+H05261)
Number of Pixels in Processed Spectrum: 2048
>>>>>Begin Processed Spectral Data<<<<<
365.73	0.00
365.92	0.00
366.12	0.00
366.32	0.00
366.52	0.00
366.72	0.00
366.91	0.00
367.11	0.00
367.31	0.00
367.51	0.00
367.70	0.00
367.90	0.00
368.10	0.00
368.30	0.00
368.49	0.00
368.69	0.00
368.89	0.00
369.09	0.00
369.28	0.00
369.48	0.00
369.68	0.00
369.87	0.00
370.07	0.00
370.27	0.00
370.47	0.00
370.66	0.00
370.86	0.00
371.06	0.00
371.25	0.00
371.45	0.00
371.65	35.11
371.84	0.00
372.04	0.00
372.24	11.70
372.44	42.13
372.63	4.68
372.83	0.00
373.03	9.36
373.22	0.00
373.42	0.00
373.62	9.36
373.81	51.49
374.01	117.03
374.21	107.66
374.40	74.90
374.60	16.38
374.79	107.66
374.99	79.58
375.19	58.51
375.38	65.54
375.58	37.45
375.78	37.45
375.97	32.77
376.17	49.15
376.37	65.54
376.56	46.81
376.76	49.15
376.95	0.00
377.15	4.68
377.35	25.75
377.54	49.15
377.74	0.00
377.93	32.77
378.13	56.17
378.33	0.00
378.52	0.00
378.72	0.00
378.91	74.90
379.11	11.70
379.31	91.28
379.50	0.00
379.70	16.38
379.89	0.00
380.09	0.00
380.28	25.75
380.48	28.09
380.68	0.00
380.87	95.96
381.07	0.00
381.26	0.00
381.46	0.00
381.65	0.00
381.85	28.09
382.04	32.77
382.24	0.00
382.43	0.00
382.63	58.51
382.83	42.13
383.02	0.00
383.22	65.54
383.41	0.00
383.61	49.15
383.80	67.88
384.00	32.77
384.19	39.79
384.39	37.45
384.58	18.72
384.78	70.22
384.97	0.00
385.17	58.51
385.36	44.47
385.56	37.45
385.75	0.00
385.95	0.00
386.14	4.68
386.34	0.00
386.53	25.75
386.72	21.06
386.92	2.34
387.11	60.85
387.31	0.00
387.50	58.51
387.70	105.32
387.89	0.00
388.09	11.70
388.28	4.68
388.48	28.09
388.67	0.00
388.86	0.00
389.06	4.68
389.25	63.19
389.45	42.13
389.64	56.17
389.84	28.09
390.03	18.72
390.22	0.00
390.42	60.85
390.61	21.06
390.81	32.77
391.00	105.32
391.19	0.00
391.39	0.00
391.58	4.68
391.78	70.22
391.97	37.45
392.16	70.22
392.36	60.85
392.55	14.04
392.75	51.49
392.94	32.77
393.13	58.51
393.33	37.45
393.52	9.36
393.71	0.00
393.91	18.72
394.10	16.38
394.29	0.00
394.49	0.00
394.68	74.90
394.88	2.34
395.07	0.00
395.26	14.04
395.46	0.00
395.65	49.15
395.84	44.47
396.04	2.34
396.23	0.00
396.42	32.77
396.62	23.41
396.81	58.51
397.00	4.68
397.19	2.34
397.39	0.00
397.58	25.75
397.77	28.09
397.97	58.51
398.16	51.49
398.35	49.15
398.55	9.36
398.74	35.11
398.93	32.77
399.12	30.43
399.32	0.00
399.51	4.68
399.70	0.00
399.90	32.77
400.09	35.11
400.28	67.88
400.47	49.15
400.67	95.96
400.86	0.00
401.05	23.41
401.24	46.81
401.44	63.19
401.63	0.00
401.82	77.24
402.01	7.02
402.21	14.04
402.40	21.06
402.59	65.54
402.78	7.02
402.97	84.26
403.17	0.00
403.36	35.11
403.55	0.00
403.74	25.75
403.93	0.00
404.13	25.75
404.32	11.70
404.51	63.19
404.70	11.70
404.89	9.36
405.09	23.41
405.28	0.00
405.47	21.06
405.66	25.75
405.85	112.35
406.05	0.00
406.24	25.75
406.43	56.17
406.62	37.45
406.81	65.54
407.00	28.09
407.20	0.00
407.39	84.26
407.58	44.47
407.77	44.47
407.96	35.11
408.15	18.72
408.34	128.73
408.54	46.81
408.73	30.43
408.92	0.00
409.11	70.22
409.30	84.26
409.49	53.83
409.68	0.00
409.87	65.54
410.07	0.00
410.26	51.49
410.45	67.88
410.64	28.09
410.83	46.81
411.02	67.88
411.21	0.00
411.40	0.00
411.59	30.43
411.78	58.51
411.98	37.45
412.17	0.00
412.36	23.41
412.55	56.17
412.74	93.62
412.93	67.88
413.12	30.43
413.31	21.06
413.50	32.77
413.69	11.70
413.88	51.49
414.07	35.11
414.26	0.00
414.45	4.68
414.64	0.00
414.83	11.70
415.02	2.34
415.22	51.49
415.41	18.72
415.60	0.00
415.79	35.11
415.98	53.83
416.17	81.92
416.36	102.98
416.55	28.09
416.74	14.04
416.93	37.45
417.12	65.54
417.31	51.49
417.50	42.13
417.69	60.85
417.88	0.00
418.07	4.68
418.26	32.77
418.45	32.77
418.64	25.75
418.83	25.75
419.02	14.04
419.21	35.11
419.39	110.01
419.58	60.85
419.77	0.00
419.96	14.04
420.15	98.30
420.34	74.90
420.53	16.38
420.72	44.47
420.91	86.60
421.10	46.81
421.29	9.36
421.48	114.69
421.67	114.69
421.86	95.96
422.05	70.22
422.24	93.62
422.43	28.09
422.61	51.49
422.80	60.85
422.99	0.00
423.18	79.58
423.37	44.47
423.56	72.56
423.75	21.06
423.94	0.00
424.13	88.94
424.32	51.49
424.50	32.77
424.69	46.81
424.88	88.94
425.07	16.38
425.26	81.92
425.45	88.94
425.64	0.00
425.83	18.72
426.01	35.11
426.20	39.79
426.39	70.22
426.58	0.00
426.77	86.60
426.96	56.17
427.15	79.58
427.33	72.56
427.52	18.72
427.71	0.00
427.90	79.58
428.09	0.00
428.28	51.49
428.46	46.81
428.65	32.77
428.84	70.22
429.03	14.04
429.22	65.54
429.40	65.54
429.59	0.00
429.78	0.00
429.97	9.36
430.16	0.00
430.34	49.15
430.53	65.54
430.72	60.85
430.91	25.75
431.10	0.00
431.28	119.37
431.47	11.70
431.66	49.15
431.85	7.02
432.03	23.41
432.22	35.11
432.41	0.00
432.60	35.11
432.79	63.19
432.97	28.09
433.16	0.00
433.35	49.15
433.54	65.54
433.72	114.69
433.91	0.00
434.10	0.00
434.28	11.70
434.47	53.83
434.66	0.00
434.85	63.19
435.03	0.00
435.22	4.68
435.41	124.05
435.59	14.04
435.78	35.11
435.97	0.00
436.16	67.88
436.34	63.19
436.53	11.70
436.72	30.43
436.90	30.43
437.09	42.13
437.28	0.00
437.46	21.06
437.65	98.30
437.84	28.09
438.02	0.00
438.21	14.04
438.40	11.70
438.58	14.04
438.77	14.04
438.96	0.00
439.14	0.00
439.33	0.00
439.52	74.90
439.70	35.11
439.89	25.75
440.08	37.45
440.26	49.15
440.45	86.60
440.63	9.36
440.82	56.17
441.01	91.28
441.19	44.47
441.38	49.15
441.57	65.54
441.75	51.49
441.94	42.13
442.12	11.70
442.31	35.11
442.50	4.68
442.68	46.81
442.87	0.00
443.05	7.02
443.24	28.09
443.43	56.17
443.61	11.70
443.80	14.04
443.98	105.32
444.17	58.51
444.35	42.13
444.54	0.00
444.73	51.49
444.91	79.58
445.10	65.54
445.28	79.58
445.47	53.83
445.65	79.58
445.84	42.13
446.02	60.85
446.21	32.77
446.39	58.51
446.58	49.15
446.77	0.00
446.95	60.85
447.14	56.17
447.32	63.19
447.51	42.13
447.69	46.81
447.88	18.72
448.06	46.81
448.25	46.81
448.43	0.00
448.62	9.36
448.80	44.47
448.99	42.13
449.17	0.00
449.36	0.00
449.54	25.75
449.73	7.02
449.91	9.36
450.10	72.56
450.28	30.43
450.46	32.77
450.65	70.22
450.83	4.68
451.02	117.03
451.20	72.56
451.39	74.90
451.57	2.34
451.76	25.75
451.94	63.19
452.13	0.00
452.31	53.83
452.49	98.30
452.68	51.49
452.86	18.72
453.05	0.00
453.23	0.00
453.42	0.00
453.60	65.54
453.78	70.22
453.97	0.00
454.15	0.00
454.34	105.32
454.52	63.19
454.70	63.19
454.89	9.36
455.07	58.51
455.26	28.09
455.44	0.00
455.62	2.34
455.81	95.96
455.99	2.34
456.17	30.43
456.36	60.85
456.54	102.98
456.73	91.28
456.91	58.51
457.09	37.45
457.28	81.92
457.46	53.83
457.64	53.83
457.83	16.38
458.01	7.02
458.19	32.77
458.38	0.00
458.56	35.11
458.74	32.77
458.93	95.96
459.11	74.90
459.29	133.41
459.48	65.54
459.66	46.81
459.84	65.54
460.03	72.56
460.21	70.22
460.39	58.51
460.57	44.47
460.76	42.13
460.94	63.19
461.12	2.34
461.31	53.83
461.49	35.11
461.67	30.43
461.85	91.28
462.04	42.13
462.22	39.79
462.40	77.24
462.59	37.45
462.77	23.41
462.95	32.77
463.13	42.13
463.32	37.45
463.50	0.00
463.68	70.22
463.86	58.51
464.05	25.75
464.23	107.66
464.41	28.09
464.59	56.17
464.78	14.04
464.96	0.00
465.14	46.81
465.32	32.77
465.50	0.00
465.69	77.24
465.87	93.62
466.05	21.06
466.23	18.72
466.41	79.58
466.60	0.00
466.78	28.09
466.96	56.17
467.14	63.19
467.32	2.34
467.51	65.54
467.69	0.00
467.87	70.22
468.05	51.49
468.23	93.62
468.41	2.34
468.60	14.04
468.78	58.51
468.96	32.77
469.14	23.41
469.32	37.45
469.50	28.09
469.69	51.49
469.87	74.90
470.05	16.38
470.23	4.68
470.41	56.17
470.59	30.43
470.77	0.00
470.95	51.49
471.14	2.34
471.32	0.00
471.50	93.62
471.68	107.66
471.86	56.17
472.04	0.00
472.22	79.58
472.40	79.58
472.58	70.22
472.77	14.04
472.95	9.36
473.13	16.38
473.31	39.79
473.49	2.34
473.67	7.02
473.85	9.36
474.03	25.75
474.21	53.83
474.39	51.49
474.57	18.72
474.75	46.81
474.93	16.38
475.12	63.19
475.30	14.04
475.48	0.00
475.66	56.17
475.84	58.51
476.02	74.90
476.20	86.60
476.38	58.51
476.56	79.58
476.74	53.83
476.92	70.22
477.10	91.28
477.28	9.36
477.46	0.00
477.64	0.00
477.82	0.00
478.00	25.75
478.18	18.72
478.36	0.00
478.54	100.64
478.72	44.47
478.90	18.72
479.08	49.15
479.26	42.13
479.44	0.00
479.62	67.88
479.80	11.70
479.98	16.38
480.16	21.06
480.34	16.38
480.52	0.00
480.70	110.01
480.88	16.38
481.06	21.06
481.24	9.36
481.41	42.13
481.59	0.00
481.77	42.13
481.95	49.15
482.13	117.03
482.31	14.04
482.49	23.41
482.67	25.75
482.85	98.30
483.03	21.06
483.21	30.43
483.39	44.47
483.57	53.83
483.74	0.00
483.92	0.00
484.10	86.60
484.28	42.13
484.46	35.11
484.64	117.03
484.82	21.06
485.00	25.75
485.18	0.00
485.35	93.62
485.53	88.94
485.71	28.09
485.89	0.00
486.07	56.17
486.25	37.45
486.43	63.19
486.61	72.56
486.78	42.13
486.96	56.17
487.14	63.19
487.32	16.38
487.50	28.09
487.68	0.00
487.85	0.00
488.03	44.47
488.21	140.43
488.39	56.17
488.57	39.79
488.75	0.00
488.92	37.45
489.10	67.88
489.28	9.36
489.46	0.00
489.64	72.56
489.81	0.00
489.99	23.41
490.17	32.77
490.35	0.00
490.53	42.13
490.70	0.00
490.88	58.51
491.06	25.75
491.24	0.00
491.41	67.88
491.59	77.24
491.77	28.09
491.95	58.51
492.13	9.36
492.30	37.45
492.48	51.49
492.66	81.92
492.84	32.77
493.01	9.36
493.19	88.94
493.37	114.69
493.54	14.04
493.72	56.17
493.90	60.85
494.08	70.22
494.25	46.81
494.43	11.70
494.61	23.41
494.79	53.83
494.96	0.00
495.14	56.17
495.32	56.17
495.49	0.00
495.67	25.75
495.85	91.28
496.02	14.04
496.20	0.00
496.38	18.72
496.55	95.96
496.73	56.17
496.91	21.06
497.09	56.17
497.26	102.98
497.44	63.19
497.62	0.00
497.79	63.19
497.97	74.90
498.14	30.43
498.32	32.77
498.50	37.45
498.67	112.35
498.85	58.51
499.03	0.00
499.20	49.15
499.38	95.96
499.56	67.88
499.73	23.41
499.91	7.02
500.08	0.00
500.26	79.58
500.44	51.49
500.61	30.43
500.79	39.79
500.97	58.51
501.14	74.90
501.32	0.00
501.49	39.79
501.67	70.22
501.84	25.75
502.02	91.28
502.20	72.56
502.37	7.02
502.55	18.72
502.72	58.51
502.90	35.11
503.07	49.15
503.25	35.11
503.43	0.00
503.60	4.68
503.78	93.62
503.95	46.81
504.13	0.00
504.30	63.19
504.48	30.43
504.65	65.54
504.83	11.70
505.01	88.94
505.18	79.58
505.36	2.34
505.53	42.13
505.71	39.79
505.88	25.75
506.06	21.06
506.23	21.06
506.41	65.54
506.58	93.62
506.76	60.85
506.93	84.26
507.11	44.47
507.28	42.13
507.46	14.04
507.63	72.56
507.81	30.43
507.98	35.11
508.16	44.47
508.33	21.06
508.50	32.77
508.68	0.00
508.85	0.00
509.03	65.54
509.20	81.92
509.38	0.00
509.55	7.02
509.73	95.96
509.90	60.85
510.08	74.90
510.25	63.19
510.42	42.13
510.60	2.34
510.77	72.56
510.95	32.77
511.12	53.83
511.30	7.02
511.47	124.05
511.64	32.77
511.82	77.24
511.99	30.43
512.17	16.38
512.34	11.70
512.51	72.56
512.69	77.24
512.86	42.13
513.04	44.47
513.21	84.26
513.38	88.94
513.56	46.81
513.73	42.13
513.90	37.45
514.08	58.51
514.25	51.49
514.43	23.41
514.60	23.41
514.77	67.88
514.95	53.83
515.12	67.88
515.29	0.00
515.47	51.49
515.64	0.00
515.81	0.00
515.99	7.02
516.16	81.92
516.33	46.81
516.51	37.45
516.68	49.15
516.85	81.92
517.03	46.81
517.20	30.43
517.37	72.56
517.54	0.00
517.72	37.45
517.89	0.00
518.06	16.38
518.24	25.75
518.41	84.26
518.58	119.37
518.75	35.11
518.93	11.70
519.10	67.88
519.27	39.79
519.45	28.09
519.62	58.51
519.79	46.81
519.96	95.96
520.14	91.28
520.31	77.24
520.48	49.15
520.65	44.47
520.83	46.81
521.00	37.45
521.17	35.11
521.34	9.36
521.52	16.38
521.69	91.28
521.86	51.49
522.03	72.56
522.20	0.00
522.38	60.85
522.55	156.82
522.72	35.11
522.89	53.83
523.07	25.75
523.24	67.88
523.41	30.43
523.58	35.11
523.75	56.17
523.92	18.72
524.10	88.94
524.27	30.43
524.44	14.04
524.61	63.19
524.78	46.81
524.96	28.09
525.13	0.00
525.30	4.68
525.47	53.83
525.64	100.64
525.81	39.79
525.98	58.51
526.16	30.43
526.33	32.77
526.50	81.92
526.67	119.37
526.84	49.15
527.01	100.64
527.18	35.11
527.36	58.51
527.53	67.88
527.70	32.77
527.87	81.92
528.04	0.00
528.21	16.38
528.38	154.48
528.55	84.26
528.72	56.17
528.89	77.24
529.07	23.41
529.24	32.77
529.41	4.68
529.58	30.43
529.75	35.11
529.92	56.17
530.09	77.24
530.26	42.13
530.43	14.04
530.60	35.11
530.77	67.88
530.94	28.09
531.11	35.11
531.28	67.88
531.46	77.24
531.63	16.38
531.80	49.15
531.97	39.79
532.14	74.90
532.31	102.98
532.48	0.00
532.65	51.49
532.82	74.90
532.99	49.15
533.16	100.64
533.33	53.83
533.50	46.81
533.67	77.24
533.84	65.54
534.01	23.41
534.18	2.34
534.35	9.36
534.52	65.54
534.69	67.88
534.86	39.79
535.03	74.90
535.20	4.68
535.37	53.83
535.54	0.00
535.71	53.83
535.88	7.02
536.05	35.11
536.22	74.90
536.38	21.06
536.55	44.47
536.72	51.49
536.89	0.00
537.06	0.00
537.23	35.11
537.40	0.00
537.57	84.26
537.74	16.38
537.91	0.00
538.08	86.60
538.25	65.54
538.42	56.17
538.59	0.00
538.75	21.06
538.92	70.22
539.09	42.13
539.26	16.38
539.43	86.60
539.60	86.60
539.77	18.72
539.94	98.30
540.11	7.02
540.28	0.00
540.44	65.54
540.61	67.88
540.78	39.79
540.95	72.56
541.12	81.92
541.29	25.75
541.46	0.00
541.62	77.24
541.79	0.00
541.96	0.00
542.13	51.49
542.30	65.54
542.47	0.00
542.63	79.58
542.80	25.75
542.97	42.13
543.14	42.13
543.31	44.47
543.48	18.72
543.64	30.43
543.81	16.38
543.98	86.60
544.15	51.49
544.32	11.70
544.48	67.88
544.65	58.51
544.82	70.22
544.99	51.49
545.16	39.79
545.32	42.13
545.49	110.01
545.66	42.13
545.83	30.43
546.00	9.36
546.16	25.75
546.33	51.49
546.50	100.64
546.67	32.77
546.83	32.77
547.00	49.15
547.17	79.58
547.34	2.34
547.50	14.04
547.67	46.81
547.84	67.88
548.00	11.70
548.17	81.92
548.34	56.17
548.51	0.00
548.67	77.24
548.84	21.06
549.01	67.88
549.18	0.00
549.34	30.43
549.51	32.77
549.68	51.49
549.84	28.09
550.01	30.43
550.18	60.85
550.34	9.36
550.51	23.41
550.68	25.75
550.84	23.41
551.01	4.68
551.18	81.92
551.34	102.98
551.51	86.60
551.68	51.49
551.84	65.54
552.01	30.43
552.18	30.43
552.34	7.02
552.51	28.09
552.68	14.04
552.84	49.15
553.01	53.83
553.18	9.36
553.34	0.00
553.51	74.90
553.67	112.35
553.84	53.83
554.01	14.04
554.17	32.77
554.34	49.15
554.51	58.51
554.67	39.79
554.84	114.69
555.00	9.36
555.17	0.00
555.33	86.60
555.50	49.15
555.67	44.47
555.83	46.81
556.00	0.00
556.16	72.56
556.33	91.28
556.50	72.56
556.66	42.13
556.83	56.17
556.99	11.70
557.16	0.00
557.32	91.28
557.49	65.54
557.65	0.00
557.82	39.79
557.98	74.90
558.15	79.58
558.32	154.48
558.48	30.43
558.65	32.77
558.81	53.83
558.98	44.47
559.14	88.94
559.31	56.17
559.47	51.49
559.64	7.02
559.80	102.98
559.97	16.38
560.13	0.00
560.30	72.56
560.46	72.56
560.63	0.00
560.79	0.00
560.96	51.49
561.12	16.38
561.29	9.36
561.45	56.17
561.61	91.28
561.78	72.56
561.94	60.85
562.11	56.17
562.27	53.83
562.44	70.22
562.60	51.49
562.77	39.79
562.93	28.09
563.10	39.79
563.26	46.81
563.42	53.83
563.59	35.11
563.75	46.81
563.92	44.47
564.08	79.58
564.24	84.26
564.41	77.24
564.57	53.83
564.74	37.45
564.90	0.00
565.07	51.49
565.23	16.38
565.39	28.09
565.56	4.68
565.72	58.51
565.88	32.77
566.05	11.70
566.21	56.17
566.38	28.09
566.54	121.71
566.70	88.94
566.87	65.54
567.03	79.58
567.19	149.79
567.36	70.22
567.52	49.15
567.68	0.00
567.85	0.00
568.01	53.83
568.17	0.00
568.34	39.79
568.50	51.49
568.66	4.68
568.83	77.24
568.99	72.56
569.15	44.47
569.32	18.72
569.48	102.98
569.64	9.36
569.81	60.85
569.97	0.00
570.13	42.13
570.30	86.60
570.46	112.35
570.62	32.77
570.78	86.60
570.95	37.45
571.11	0.00
571.27	88.94
571.43	95.96
571.60	56.17
571.76	21.06
571.92	18.72
572.09	98.30
572.25	0.00
572.41	70.22
572.57	53.83
572.74	84.26
572.90	32.77
573.06	39.79
573.22	110.01
573.38	7.02
573.55	30.43
573.71	51.49
573.87	95.96
574.03	72.56
574.20	58.51
574.36	105.32
574.52	56.17
574.68	0.00
574.84	0.00
575.01	60.85
575.17	0.00
575.33	51.49
575.49	37.45
575.65	56.17
575.82	79.58
575.98	2.34
576.14	60.85
576.30	86.60
576.46	74.90
576.62	42.13
576.79	0.00
576.95	56.17
577.11	39.79
577.27	95.96
577.43	46.81
577.59	35.11
577.75	32.77
577.92	49.15
578.08	65.54
578.24	35.11
578.40	60.85
578.56	9.36
578.72	7.02
578.88	44.47
579.04	46.81
579.21	102.98
579.37	119.37
579.53	46.81
579.69	70.22
579.85	46.81
580.01	102.98
580.17	81.92
580.33	81.92
580.49	65.54
580.65	0.00
580.82	44.47
580.98	46.81
581.14	100.64
581.30	39.79
581.46	42.13
581.62	98.30
581.78	53.83
581.94	70.22
582.10	70.22
582.26	37.45
582.42	14.04
582.58	32.77
582.74	25.75
582.90	0.00
583.06	0.00
583.22	35.11
583.38	39.79
583.54	70.22
583.70	79.58
583.86	32.77
584.02	84.26
584.18	42.13
584.34	49.15
584.50	9.36
584.66	11.70
584.82	28.09
584.98	39.79
585.14	72.56
585.30	37.45
585.46	25.75
585.62	2.34
585.78	72.56
585.94	79.58
586.10	2.34
586.26	67.88
586.42	0.00
586.58	18.72
586.74	49.15
586.90	72.56
587.06	84.26
587.22	25.75
587.38	32.77
587.54	53.83
587.70	84.26
587.86	28.09
588.02	0.00
588.18	0.00
588.34	110.01
588.49	28.09
588.65	100.64
588.81	91.28
588.97	16.38
589.13	18.72
589.29	95.96
589.45	35.11
589.61	28.09
589.77	53.83
589.93	74.90
590.08	65.54
590.24	110.01
590.40	0.00
590.56	23.41
590.72	32.77
590.88	11.70
591.04	35.11
591.20	53.83
591.35	46.81
591.51	0.00
591.67	23.41
591.83	42.13
591.99	58.51
592.15	44.47
592.31	102.98
592.46	46.81
592.62	67.88
592.78	107.66
592.94	0.00
593.10	0.00
593.26	46.81
593.41	44.47
593.57	107.66
593.73	81.92
593.89	107.66
594.05	126.39
594.20	37.45
594.36	102.98
594.52	16.38
594.68	25.75
594.84	98.30
594.99	28.09
595.15	72.56
595.31	28.09
595.47	9.36
595.62	117.03
595.78	0.00
595.94	0.00
596.10	51.49
596.25	23.41
596.41	0.00
596.57	18.72
596.73	58.51
596.88	119.37
597.04	117.03
597.20	84.26
597.36	112.35
597.51	79.58
597.67	42.13
597.83	70.22
597.99	21.06
598.14	0.00
598.30	121.71
598.46	37.45
598.61	112.35
598.77	72.56
598.93	7.02
599.09	39.79
599.24	0.00
599.40	0.00
599.56	0.00
599.71	30.43
599.87	138.09
600.03	44.47
600.18	56.17
600.34	56.17
600.50	51.49
600.65	56.17
600.81	0.00
600.97	51.49
601.12	46.81
601.28	4.68
601.44	16.38
601.59	11.70
601.75	49.15
601.91	28.09
602.06	107.66
602.22	0.00
602.37	119.37
602.53	0.00
602.69	23.41
602.84	0.00
603.00	107.66
603.16	14.04
603.31	100.64
603.47	18.72
603.62	0.00
603.78	25.75
603.94	70.22
604.09	18.72
604.25	67.88
604.40	70.22
604.56	51.49
604.71	81.92
604.87	46.81
605.03	28.09
605.18	67.88
605.34	100.64
605.49	2.34
605.65	28.09
605.80	14.04
605.96	30.43
606.12	46.81
606.27	14.04
606.43	46.81
606.58	72.56
606.74	39.79
606.89	67.88
607.05	93.62
607.20	44.47
607.36	84.26
607.51	102.98
607.67	42.13
607.82	131.07
607.98	0.00
608.13	28.09
608.29	35.11
608.44	63.19
608.60	25.75
608.75	0.00
608.91	30.43
609.06	39.79
609.22	37.45
609.37	0.00
609.53	0.00
609.68	37.45
609.84	25.75
609.99	0.00
610.15	2.34
610.30	44.47
610.46	14.04
610.61	37.45
610.76	21.06
610.92	9.36
611.07	35.11
611.23	16.38
611.38	35.11
611.54	84.26
611.69	35.11
611.84	65.54
612.00	0.00
612.15	102.98
612.31	63.19
612.46	35.11
612.62	0.00
612.77	42.13
612.92	0.00
613.08	37.45
613.23	44.47
613.39	23.41
613.54	4.68
613.69	32.77
613.85	9.36
614.00	60.85
614.15	70.22
614.31	46.81
614.46	23.41
614.62	72.56
614.77	39.79
614.92	30.43
615.08	4.68
615.23	60.85
615.38	49.15
615.54	58.51
615.69	58.51
615.84	93.62
616.00	117.03
616.15	42.13
616.30	9.36
616.46	30.43
616.61	70.22
616.76	14.04
616.92	46.81
617.07	0.00
617.22	16.38
617.37	72.56
617.53	49.15
617.68	67.88
617.83	88.94
617.99	0.00
618.14	9.36
618.29	0.00
618.45	49.15
618.60	81.92
618.75	91.28
618.90	84.26
619.06	37.45
619.21	0.00
619.36	93.62
619.51	46.81
619.67	53.83
619.82	53.83
619.97	0.00
620.12	37.45
620.28	0.00
620.43	100.64
620.58	44.47
620.73	0.00
620.89	42.13
621.04	72.56
621.19	30.43
621.34	4.68
621.49	93.62
621.65	79.58
621.80	25.75
621.95	37.45
622.10	53.83
622.25	0.00
622.41	70.22
622.56	67.88
622.71	14.04
622.86	18.72
623.01	30.43
623.16	88.94
623.32	58.51
623.47	35.11
623.62	107.66
623.77	0.00
623.92	23.41
624.07	0.00
624.23	81.92
624.38	14.04
624.53	91.28
624.68	14.04
624.83	32.77
624.98	49.15
625.13	0.00
625.29	21.06
625.44	0.00
625.59	39.79
625.74	65.54
625.89	0.00
626.04	18.72
626.19	91.28
626.34	72.56
626.49	53.83
626.65	56.17
626.80	0.00
626.95	53.83
627.10	7.02
627.25	2.34
627.40	25.75
627.55	49.15
627.70	21.06
627.85	11.70
628.00	4.68
628.15	86.60
628.30	60.85
628.45	86.60
628.60	65.54
628.76	0.00
628.91	49.15
629.06	84.26
629.21	39.79
629.36	46.81
629.51	25.75
629.66	14.04
629.81	46.81
629.96	9.36
630.11	0.00
630.26	35.11
630.41	86.60
630.56	32.77
630.71	23.41
630.86	39.79
631.01	0.00
631.16	0.00
631.31	0.00
631.46	46.81
631.61	81.92
631.76	0.00
631.91	23.41
632.06	60.85
632.21	23.41
632.36	56.17
632.51	28.09
632.66	138.09
632.81	79.58
632.96	51.49
633.10	58.51
633.25	39.79
633.40	95.96
633.55	98.30
633.70	25.75
633.85	53.83
634.00	4.68
634.15	30.43
634.30	0.00
634.45	28.09
634.60	77.24
634.75	60.85
634.90	0.00
635.05	72.56
635.19	0.00
635.34	93.62
635.49	0.00
635.64	79.58
635.79	23.41
635.94	0.00
636.09	107.66
636.24	30.43
636.39	46.81
636.53	72.56
636.68	63.19
636.83	0.00
636.98	18.72
637.13	77.24
637.28	70.22
637.43	58.51
637.57	86.60
637.72	0.00
637.87	100.64
638.02	98.30
638.17	0.00
638.32	84.26
638.46	0.00
638.61	77.24
638.76	9.36
638.91	28.09
639.06	0.00
639.20	58.51
639.35	0.00
639.50	0.00
639.65	81.92
639.80	0.00
639.94	126.39
640.09	32.77
640.24	30.43
640.39	77.24
640.54	39.79
640.68	56.17
640.83	49.15
640.98	72.56
641.13	23.41
641.27	28.09
641.42	63.19
641.57	114.69
641.72	58.51
641.86	112.35
642.01	0.00
642.16	63.19
642.31	35.11
642.45	58.51
642.60	72.56
642.75	44.47
642.90	128.73
643.04	102.98
643.19	37.45
643.34	0.00
643.48	9.36
643.63	35.11
643.78	44.47
643.93	46.81
644.07	4.68
644.22	0.00
644.37	72.56
644.51	81.92
644.66	23.41
644.81	0.00
644.95	105.32
645.10	0.00
645.25	0.00
645.39	4.68
645.54	9.36
645.69	86.60
645.83	25.75
645.98	30.43
646.13	18.72
646.27	18.72
646.42	23.41
646.57	11.70
646.71	21.06
646.86	70.22
647.00	0.00
647.15	25.75
647.30	14.04
647.44	0.00
647.59	0.00
647.74	37.45
647.88	16.38
648.03	105.32
648.17	77.24
648.32	84.26
648.47	25.75
648.61	70.22
648.76	53.83
648.90	23.41
649.05	39.79
649.20	30.43
649.34	0.00
649.49	72.56
649.63	32.77
649.78	51.49
649.92	16.38
650.07	16.38
650.21	81.92
650.36	16.38
650.51	25.75
650.65	102.98
650.80	65.54
650.94	93.62
651.09	11.70
651.23	11.70
651.38	7.02
651.52	56.17
651.67	70.22
651.81	56.17
651.96	72.56
652.10	102.98
652.25	0.00
652.39	42.13
652.54	44.47
652.68	63.19
652.83	51.49
652.97	32.77
653.12	70.22
653.26	100.64
653.41	0.00
653.55	0.00
653.70	4.68
653.84	37.45
653.99	11.70
654.13	63.19
654.27	39.79
654.42	30.43
654.56	70.22
654.71	9.36
654.85	30.43
655.00	0.00
655.14	21.06
655.29	0.00
655.43	0.00
655.57	60.85
655.72	58.51
655.86	65.54
656.01	56.17
656.15	70.22
656.30	86.60
656.44	0.00
656.58	49.15
656.73	0.00
656.87	28.09
657.01	2.34
657.16	102.98
657.30	4.68
657.45	91.28
657.59	58.51
657.73	0.00
657.88	49.15
658.02	25.75
658.16	14.04
658.31	0.00
658.45	44.47
658.60	11.70
658.74	39.79
658.88	0.00
659.03	0.00
659.17	70.22
659.31	16.38
659.46	23.41
659.60	72.56
659.74	67.88
659.89	28.09
660.03	39.79
660.17	21.06
660.32	28.09
660.46	0.00
660.60	58.51
660.74	37.45
660.89	30.43
661.03	0.00
661.17	121.71
661.32	32.77
661.46	0.00
661.60	56.17
661.74	35.11
661.89	4.68
662.03	25.75
662.17	65.54
662.31	18.72
662.46	84.26
662.60	79.58
662.74	0.00
662.88	25.75
663.03	0.00
663.17	0.00
663.31	0.00
663.45	0.00
663.60	79.58
663.74	2.34
663.88	72.56
664.02	0.00
664.17	79.58
664.31	65.54
664.45	49.15
664.59	7.02
664.73	0.00
664.88	2.34
665.02	72.56
665.16	0.00
665.30	77.24
665.44	81.92
665.59	16.38
665.73	25.75
665.87	18.72
666.01	84.26
666.15	70.22
666.29	105.32
666.44	37.45
666.58	112.35
666.72	72.56
666.86	63.19
667.00	7.02
667.14	0.00
667.28	16.38
667.43	56.17
667.57	0.00
667.71	21.06
667.85	63.19
667.99	67.88
668.13	25.75
668.27	0.00
668.41	18.72
668.56	63.19
668.70	65.54
668.84	11.70
668.98	39.79
669.12	37.45
669.26	67.88
669.40	14.04
669.54	42.13
669.68	18.72
669.82	53.83
669.96	53.83
670.10	23.41
670.25	4.68
670.39	65.54
670.53	63.19
670.67	35.11
670.81	79.58
670.95	70.22
671.09	0.00
671.23	0.00
671.37	18.72
671.51	32.77
671.65	21.06
671.79	0.00
671.93	86.60
672.07	25.75
672.21	37.45
672.35	51.49
672.49	79.58
672.63	18.72
672.77	44.47
672.91	23.41
673.05	56.17
673.19	4.68
673.33	2.34
673.47	28.09
673.61	0.00
673.75	28.09
673.89	14.04
674.03	112.35
674.17	79.58
674.31	0.00
674.45	7.02
674.59	0.00
674.73	7.02
674.87	42.13
675.01	0.00
675.15	28.09
675.29	0.00
675.43	18.72
675.56	11.70
675.70	0.00
675.84	35.11
675.98	0.00
676.12	32.77
676.26	25.75
676.40	100.64
676.54	0.00
676.68	0.00
676.82	21.06
676.96	11.70
677.10	35.11
677.23	77.24
677.37	21.06
677.51	60.85
677.65	18.72
677.79	0.00
677.93	51.49
678.07	0.00
678.21	21.06
678.34	51.49
678.48	79.58
678.62	28.09
678.76	0.00
678.90	63.19
679.04	44.47
679.18	25.75
679.31	28.09
679.45	0.00
679.59	58.51
679.73	135.75
679.87	65.54
680.00	70.22
680.14	9.36
680.28	18.72
680.42	0.00
680.56	30.43
680.70	51.49
680.83	100.64
680.97	88.94
681.11	21.06
681.25	23.41
681.39	0.00
681.52	16.38
681.66	18.72
681.80	0.00
681.94	42.13
682.07	60.85
682.21	72.56
682.35	77.24
682.49	51.49
682.62	44.47
682.76	7.02
682.90	58.51
683.04	39.79
683.17	42.13
683.31	56.17
683.45	46.81
683.59	35.11
683.72	32.77
683.86	49.15
684.00	0.00
684.13	70.22
684.27	44.47
684.41	25.75
684.55	11.70
684.68	0.00
684.82	0.00
684.96	51.49
685.09	58.51
685.23	42.13
685.37	107.66
685.50	0.00
685.64	0.00
685.78	37.45
685.91	32.77
686.05	18.72
686.19	30.43
686.32	18.72
686.46	18.72
686.60	0.00
686.73	70.22
686.87	39.79
687.01	0.00
687.14	93.62
687.28	42.13
687.42	53.83
687.55	56.17
687.69	4.68
687.82	0.00
687.96	16.38
688.10	60.85
688.23	49.15
688.37	25.75
688.50	79.58
688.64	119.37
688.78	53.83
688.91	49.15
689.05	21.06
689.18	0.00
689.32	42.13
689.46	32.77
689.59	28.09
689.73	0.00
689.86	42.13
690.00	28.09
690.13	74.90
690.27	46.81
690.41	39.79
690.54	51.49
690.68	98.30
690.81	63.19
690.95	100.64
691.08	46.81
691.22	60.85
691.35	0.00
691.49	18.72
691.62	0.00
691.76	128.73
691.89	102.98
692.03	18.72
692.16	2.34
692.30	2.34
692.43	0.00
692.57	0.00
692.70	79.58
692.84	18.72
692.97	49.15
693.11	63.19
693.24	25.75
693.38	60.85
693.51	0.00
693.65	0.00
693.78	18.72
693.92	65.54
694.05	44.47
694.19	86.60
694.32	0.00
694.45	77.24
694.59	51.49
694.72	58.51
694.86	0.00
694.99	0.00
695.13	51.49
695.26	49.15
695.39	67.88
695.53	39.79
695.66	0.00
695.80	51.49
695.93	88.94
696.07	14.04
696.20	51.49
696.33	0.00
696.47	35.11
696.60	63.19
696.73	28.09
696.87	72.56
697.00	163.84
697.14	0.00
697.27	51.49
697.40	46.81
697.54	0.00
697.67	0.00
697.80	63.19
697.94	11.70
698.07	0.00
698.21	18.72
698.34	0.00
698.47	0.00
698.61	35.11
698.74	18.72
698.87	56.17
699.01	0.00
699.14	42.13
699.27	74.90
699.40	23.41
699.54	16.38
699.67	0.00
699.80	14.04
699.94	70.22
700.07	51.49
700.20	51.49
700.34	67.88
700.47	84.26
700.60	35.11
700.73	42.13
700.87	77.24
701.00	0.00
701.13	28.09
701.26	0.00
701.40	81.92
701.53	0.00
701.66	37.45
701.79	0.00
701.93	0.00
702.06	56.17
702.19	91.28
702.32	49.15
702.46	18.72
702.59	0.00
702.72	46.81
702.85	51.49
702.99	0.00
703.12	0.00
703.25	21.06
703.38	70.22
703.51	30.43
703.65	35.11
703.78	70.22
703.91	79.58
704.04	11.70
704.17	58.51
704.31	72.56
704.44	21.06
704.57	25.75
704.70	0.00
704.83	44.47
704.96	28.09
705.10	14.04
705.23	9.36
>>>>>End Processed Spectral Data<<<<<
