SpectraSuite Data File
++++++++++++++++++++++++++++++++++++
Date: Fri Oct 04 12:13:29 GMT-05:00 2013
User: price-jones
Dark Spectrum Present: No
Reference Spectrum Present: No
Number of Sampled Component Spectra: 1
Spectrometers: USB2+H05261
Integration Time (usec): 10000 (USB2+H05261)
Spectra Averaged: 1 (USB2+H05261)
Boxcar Smoothing: 0 (USB2+H05261)
Correct for Electrical Dark: No (USB2+H05261)
Strobe/Lamp Enabled: No (USB2+H05261)
Correct for Detector Non-linearity: No (USB2+H05261)
Correct for Stray Light: No (USB2+H05261)
Number of Pixels in Processed Spectrum: 2048
>>>>>Begin Processed Spectral Data<<<<<
365.73	0.00
365.92	0.00
366.12	0.00
366.32	0.00
366.52	0.00
366.72	0.00
366.91	0.00
367.11	0.00
367.31	0.00
367.51	0.00
367.70	0.00
367.90	0.00
368.10	0.00
368.30	0.00
368.49	0.00
368.69	0.00
368.89	0.00
369.09	0.00
369.28	0.00
369.48	0.00
369.68	0.00
369.87	0.00
370.07	0.00
370.27	0.00
370.47	0.00
370.66	0.00
370.86	0.00
371.06	0.00
371.25	0.00
371.45	9.36
371.65	2.34
371.84	0.00
372.04	46.81
372.24	0.00
372.44	0.00
372.63	0.00
372.83	7.02
373.03	0.00
373.22	16.38
373.42	9.36
373.62	46.81
373.81	39.79
374.01	37.45
374.21	0.00
374.40	25.75
374.60	91.28
374.79	81.92
374.99	28.09
375.19	79.58
375.38	25.75
375.58	0.00
375.78	39.79
375.97	11.70
376.17	0.00
376.37	14.04
376.56	9.36
376.76	28.09
376.95	4.68
377.15	0.00
377.35	7.02
377.54	21.06
377.74	0.00
377.93	0.00
378.13	60.85
378.33	0.00
378.52	42.13
378.72	14.04
378.91	0.00
379.11	51.49
379.31	4.68
379.50	7.02
379.70	0.00
379.89	51.49
380.09	60.85
380.28	21.06
380.48	60.85
380.68	0.00
380.87	9.36
381.07	0.00
381.26	0.00
381.46	14.04
381.65	2.34
381.85	4.68
382.04	35.11
382.24	21.06
382.43	9.36
382.63	53.83
382.83	0.00
383.02	77.24
383.22	51.49
383.41	28.09
383.61	21.06
383.80	0.00
384.00	11.70
384.19	0.00
384.39	4.68
384.58	18.72
384.78	0.00
384.97	0.00
385.17	56.17
385.36	79.58
385.56	0.00
385.75	0.00
385.95	0.00
386.14	0.00
386.34	2.34
386.53	44.47
386.72	56.17
386.92	63.19
387.11	21.06
387.31	0.00
387.50	84.26
387.70	0.00
387.89	0.00
388.09	0.00
388.28	0.00
388.48	95.96
388.67	14.04
388.86	0.00
389.06	4.68
389.25	30.43
389.45	30.43
389.64	9.36
389.84	56.17
390.03	23.41
390.22	72.56
390.42	44.47
390.61	0.00
390.81	72.56
391.00	0.00
391.19	16.38
391.39	100.64
391.58	51.49
391.78	49.15
391.97	46.81
392.16	11.70
392.36	81.92
392.55	49.15
392.75	32.77
392.94	72.56
393.13	11.70
393.33	72.56
393.52	0.00
393.71	11.70
393.91	0.00
394.10	21.06
394.29	67.88
394.49	44.47
394.68	81.92
394.88	93.62
395.07	37.45
395.26	7.02
395.46	39.79
395.65	28.09
395.84	11.70
396.04	0.00
396.23	0.00
396.42	42.13
396.62	0.00
396.81	49.15
397.00	28.09
397.19	0.00
397.39	2.34
397.58	11.70
397.77	11.70
397.97	58.51
398.16	67.88
398.35	51.49
398.55	30.43
398.74	9.36
398.93	0.00
399.12	28.09
399.32	0.00
399.51	4.68
399.70	0.00
399.90	0.00
400.09	4.68
400.28	14.04
400.47	32.77
400.67	42.13
400.86	138.09
401.05	51.49
401.24	53.83
401.44	14.04
401.63	0.00
401.82	93.62
402.01	16.38
402.21	46.81
402.40	18.72
402.59	28.09
402.78	63.19
402.97	4.68
403.17	98.30
403.36	28.09
403.55	60.85
403.74	46.81
403.93	35.11
404.13	32.77
404.32	23.41
404.51	0.00
404.70	42.13
404.89	0.00
405.09	37.45
405.28	0.00
405.47	35.11
405.66	49.15
405.85	49.15
406.05	46.81
406.24	0.00
406.43	0.00
406.62	39.79
406.81	53.83
407.00	23.41
407.20	9.36
407.39	72.56
407.58	11.70
407.77	51.49
407.96	11.70
408.15	32.77
408.34	72.56
408.54	0.00
408.73	95.96
408.92	53.83
409.11	0.00
409.30	49.15
409.49	79.58
409.68	16.38
409.87	81.92
410.07	46.81
410.26	84.26
410.45	0.00
410.64	51.49
410.83	0.00
411.02	0.00
411.21	28.09
411.40	35.11
411.59	46.81
411.78	53.83
411.98	53.83
412.17	51.49
412.36	14.04
412.55	9.36
412.74	0.00
412.93	0.00
413.12	4.68
413.31	0.00
413.50	0.00
413.69	42.13
413.88	79.58
414.07	56.17
414.26	58.51
414.45	0.00
414.64	0.00
414.83	9.36
415.02	70.22
415.22	56.17
415.41	56.17
415.60	32.77
415.79	4.68
415.98	63.19
416.17	11.70
416.36	23.41
416.55	37.45
416.74	11.70
416.93	56.17
417.12	23.41
417.31	23.41
417.50	37.45
417.69	117.03
417.88	25.75
418.07	67.88
418.26	0.00
418.45	128.73
418.64	0.00
418.83	42.13
419.02	37.45
419.21	42.13
419.39	0.00
419.58	18.72
419.77	0.00
419.96	42.13
420.15	67.88
420.34	21.06
420.53	79.58
420.72	0.00
420.91	4.68
421.10	39.79
421.29	126.39
421.48	35.11
421.67	14.04
421.86	63.19
422.05	58.51
422.24	30.43
422.43	44.47
422.61	9.36
422.80	70.22
422.99	58.51
423.18	107.66
423.37	46.81
423.56	0.00
423.75	0.00
423.94	42.13
424.13	21.06
424.32	70.22
424.50	77.24
424.69	77.24
424.88	18.72
425.07	44.47
425.26	35.11
425.45	0.00
425.64	9.36
425.83	0.00
426.01	63.19
426.20	74.90
426.39	44.47
426.58	0.00
426.77	81.92
426.96	18.72
427.15	0.00
427.33	53.83
427.52	35.11
427.71	84.26
427.90	16.38
428.09	14.04
428.28	0.00
428.46	0.00
428.65	93.62
428.84	46.81
429.03	42.13
429.22	0.00
429.40	9.36
429.59	0.00
429.78	14.04
429.97	39.79
430.16	117.03
430.34	0.00
430.53	0.00
430.72	23.41
430.91	72.56
431.10	0.00
431.28	60.85
431.47	30.43
431.66	95.96
431.85	49.15
432.03	49.15
432.22	2.34
432.41	32.77
432.60	184.90
432.79	67.88
432.97	44.47
433.16	39.79
433.35	98.30
433.54	0.00
433.72	23.41
433.91	4.68
434.10	0.00
434.28	53.83
434.47	32.77
434.66	58.51
434.85	2.34
435.03	121.71
435.22	14.04
435.41	93.62
435.59	32.77
435.78	53.83
435.97	35.11
436.16	14.04
436.34	23.41
436.53	9.36
436.72	0.00
436.90	28.09
437.09	49.15
437.28	0.00
437.46	9.36
437.65	0.00
437.84	28.09
438.02	58.51
438.21	86.60
438.40	49.15
438.58	28.09
438.77	0.00
438.96	84.26
439.14	42.13
439.33	46.81
439.52	42.13
439.70	32.77
439.89	119.37
440.08	0.00
440.26	14.04
440.45	28.09
440.63	49.15
440.82	49.15
441.01	44.47
441.19	18.72
441.38	110.01
441.57	35.11
441.75	65.54
441.94	35.11
442.12	72.56
442.31	49.15
442.50	0.00
442.68	35.11
442.87	0.00
443.05	79.58
443.24	91.28
443.43	35.11
443.61	0.00
443.80	0.00
443.98	30.43
444.17	60.85
444.35	107.66
444.54	9.36
444.73	32.77
444.91	42.13
445.10	14.04
445.28	4.68
445.47	46.81
445.65	0.00
445.84	30.43
446.02	65.54
446.21	58.51
446.39	30.43
446.58	37.45
446.77	70.22
446.95	121.71
447.14	4.68
447.32	0.00
447.51	121.71
447.69	72.56
447.88	35.11
448.06	35.11
448.25	42.13
448.43	42.13
448.62	32.77
448.80	4.68
448.99	16.38
449.17	25.75
449.36	0.00
449.54	49.15
449.73	53.83
449.91	39.79
450.10	7.02
450.28	0.00
450.46	7.02
450.65	79.58
450.83	46.81
451.02	0.00
451.20	25.75
451.39	95.96
451.57	58.51
451.76	30.43
451.94	25.75
452.13	60.85
452.31	37.45
452.49	16.38
452.68	39.79
452.86	53.83
453.05	30.43
453.23	49.15
453.42	53.83
453.60	9.36
453.78	21.06
453.97	0.00
454.15	67.88
454.34	23.41
454.52	46.81
454.70	100.64
454.89	16.38
455.07	37.45
455.26	58.51
455.44	88.94
455.62	18.72
455.81	77.24
455.99	0.00
456.17	51.49
456.36	51.49
456.54	84.26
456.73	0.00
456.91	0.00
457.09	2.34
457.28	0.00
457.46	0.00
457.64	79.58
457.83	46.81
458.01	4.68
458.19	0.00
458.38	39.79
458.56	0.00
458.74	9.36
458.93	44.47
459.11	23.41
459.29	44.47
459.48	39.79
459.66	60.85
459.84	35.11
460.03	117.03
460.21	11.70
460.39	42.13
460.57	86.60
460.76	0.00
460.94	58.51
461.12	18.72
461.31	25.75
461.49	30.43
461.67	0.00
461.85	35.11
462.04	4.68
462.22	46.81
462.40	25.75
462.59	32.77
462.77	42.13
462.95	65.54
463.13	0.00
463.32	0.00
463.50	74.90
463.68	16.38
463.86	2.34
464.05	51.49
464.23	46.81
464.41	0.00
464.59	79.58
464.78	32.77
464.96	70.22
465.14	11.70
465.32	0.00
465.50	9.36
465.69	56.17
465.87	9.36
466.05	0.00
466.23	0.00
466.41	21.06
466.60	67.88
466.78	53.83
466.96	0.00
467.14	37.45
467.32	60.85
467.51	77.24
467.69	86.60
467.87	93.62
468.05	0.00
468.23	0.00
468.41	42.13
468.60	0.00
468.78	58.51
468.96	32.77
469.14	81.92
469.32	37.45
469.50	56.17
469.69	25.75
469.87	63.19
470.05	16.38
470.23	46.81
470.41	63.19
470.59	79.58
470.77	58.51
470.95	81.92
471.14	11.70
471.32	65.54
471.50	0.00
471.68	110.01
471.86	28.09
472.04	98.30
472.22	102.98
472.40	11.70
472.58	60.85
472.77	9.36
472.95	51.49
473.13	81.92
473.31	0.00
473.49	53.83
473.67	0.00
473.85	14.04
474.03	58.51
474.21	49.15
474.39	63.19
474.57	35.11
474.75	70.22
474.93	0.00
475.12	58.51
475.30	14.04
475.48	7.02
475.66	51.49
475.84	32.77
476.02	35.11
476.20	58.51
476.38	30.43
476.56	72.56
476.74	9.36
476.92	2.34
477.10	25.75
477.28	63.19
477.46	88.94
477.64	0.00
477.82	25.75
478.00	138.09
478.18	49.15
478.36	53.83
478.54	9.36
478.72	81.92
478.90	2.34
479.08	11.70
479.26	2.34
479.44	32.77
479.62	0.00
479.80	0.00
479.98	14.04
480.16	18.72
480.34	0.00
480.52	58.51
480.70	114.69
480.88	46.81
481.06	88.94
481.24	0.00
481.41	0.00
481.59	0.00
481.77	112.35
481.95	56.17
482.13	53.83
482.31	42.13
482.49	0.00
482.67	21.06
482.85	0.00
483.03	58.51
483.21	14.04
483.39	0.00
483.57	16.38
483.74	65.54
483.92	70.22
484.10	86.60
484.28	11.70
484.46	35.11
484.64	23.41
484.82	11.70
485.00	0.00
485.18	0.00
485.35	14.04
485.53	14.04
485.71	25.75
485.89	35.11
486.07	100.64
486.25	23.41
486.43	39.79
486.61	0.00
486.78	35.11
486.96	79.58
487.14	63.19
487.32	0.00
487.50	51.49
487.68	30.43
487.85	25.75
488.03	0.00
488.21	4.68
488.39	0.00
488.57	44.47
488.75	39.79
488.92	51.49
489.10	16.38
489.28	58.51
489.46	18.72
489.64	60.85
489.81	84.26
489.99	53.83
490.17	60.85
490.35	23.41
490.53	32.77
490.70	46.81
490.88	18.72
491.06	84.26
491.24	67.88
491.41	0.00
491.59	72.56
491.77	30.43
491.95	42.13
492.13	42.13
492.30	63.19
492.48	77.24
492.66	0.00
492.84	0.00
493.01	28.09
493.19	44.47
493.37	91.28
493.54	70.22
493.72	56.17
493.90	42.13
494.08	84.26
494.25	81.92
494.43	42.13
494.61	25.75
494.79	46.81
494.96	60.85
495.14	93.62
495.32	7.02
495.49	28.09
495.67	21.06
495.85	7.02
496.02	95.96
496.20	44.47
496.38	18.72
496.55	56.17
496.73	21.06
496.91	0.00
497.09	9.36
497.26	88.94
497.44	63.19
497.62	67.88
497.79	56.17
497.97	44.47
498.14	70.22
498.32	81.92
498.50	98.30
498.67	72.56
498.85	77.24
499.03	49.15
499.20	100.64
499.38	58.51
499.56	72.56
499.73	63.19
499.91	74.90
500.08	9.36
500.26	7.02
500.44	131.07
500.61	25.75
500.79	49.15
500.97	44.47
501.14	93.62
501.32	25.75
501.49	23.41
501.67	86.60
501.84	119.37
502.02	0.00
502.20	63.19
502.37	25.75
502.55	9.36
502.72	63.19
502.90	30.43
503.07	63.19
503.25	100.64
503.43	0.00
503.60	16.38
503.78	32.77
503.95	42.13
504.13	23.41
504.30	9.36
504.48	0.00
504.65	44.47
504.83	28.09
505.01	49.15
505.18	0.00
505.36	46.81
505.53	63.19
505.71	95.96
505.88	98.30
506.06	35.11
506.23	16.38
506.41	16.38
506.58	51.49
506.76	14.04
506.93	0.00
507.11	86.60
507.28	39.79
507.46	4.68
507.63	30.43
507.81	107.66
507.98	70.22
508.16	81.92
508.33	11.70
508.50	56.17
508.68	53.83
508.85	23.41
509.03	93.62
509.20	105.32
509.38	32.77
509.55	46.81
509.73	58.51
509.90	79.58
510.08	0.00
510.25	0.00
510.42	42.13
510.60	39.79
510.77	63.19
510.95	72.56
511.12	32.77
511.30	32.77
511.47	58.51
511.64	39.79
511.82	32.77
511.99	0.00
512.17	117.03
512.34	49.15
512.51	0.00
512.69	42.13
512.86	60.85
513.04	51.49
513.21	112.35
513.38	42.13
513.56	0.00
513.73	0.00
513.90	30.43
514.08	86.60
514.25	11.70
514.43	18.72
514.60	25.75
514.77	102.98
514.95	35.11
515.12	56.17
515.29	39.79
515.47	42.13
515.64	84.26
515.81	28.09
515.99	70.22
516.16	98.30
516.33	46.81
516.51	0.00
516.68	91.28
516.85	0.00
517.03	25.75
517.20	86.60
517.37	93.62
517.54	37.45
517.72	32.77
517.89	91.28
518.06	65.54
518.24	28.09
518.41	9.36
518.58	44.47
518.75	0.00
518.93	14.04
519.10	25.75
519.27	77.24
519.45	86.60
519.62	39.79
519.79	72.56
519.96	105.32
520.14	30.43
520.31	21.06
520.48	56.17
520.65	53.83
520.83	117.03
521.00	67.88
521.17	56.17
521.34	39.79
521.52	0.00
521.69	51.49
521.86	63.19
522.03	9.36
522.20	0.00
522.38	56.17
522.55	110.01
522.72	51.49
522.89	56.17
523.07	32.77
523.24	72.56
523.41	39.79
523.58	42.13
523.75	93.62
523.92	0.00
524.10	126.39
524.27	95.96
524.44	0.00
524.61	35.11
524.78	42.13
524.96	30.43
525.13	37.45
525.30	46.81
525.47	42.13
525.64	112.35
525.81	37.45
525.98	91.28
526.16	102.98
526.33	42.13
526.50	46.81
526.67	86.60
526.84	51.49
527.01	58.51
527.18	16.38
527.36	37.45
527.53	14.04
527.70	32.77
527.87	112.35
528.04	72.56
528.21	0.00
528.38	32.77
528.55	63.19
528.72	91.28
528.89	0.00
529.07	21.06
529.24	53.83
529.41	42.13
529.58	58.51
529.75	124.05
529.92	93.62
530.09	0.00
530.26	23.41
530.43	70.22
530.60	67.88
530.77	0.00
530.94	77.24
531.11	4.68
531.28	23.41
531.46	58.51
531.63	0.00
531.80	42.13
531.97	79.58
532.14	30.43
532.31	53.83
532.48	2.34
532.65	49.15
532.82	72.56
532.99	32.77
533.16	91.28
533.33	70.22
533.50	0.00
533.67	32.77
533.84	46.81
534.01	51.49
534.18	30.43
534.35	30.43
534.52	42.13
534.69	32.77
534.86	84.26
535.03	4.68
535.20	23.41
535.37	56.17
535.54	39.79
535.71	56.17
535.88	70.22
536.05	0.00
536.22	25.75
536.38	9.36
536.55	25.75
536.72	0.00
536.89	32.77
537.06	74.90
537.23	0.00
537.40	67.88
537.57	58.51
537.74	51.49
537.91	0.00
538.08	0.00
538.25	110.01
538.42	110.01
538.59	58.51
538.75	79.58
538.92	56.17
539.09	84.26
539.26	46.81
539.43	2.34
539.60	11.70
539.77	42.13
539.94	88.94
540.11	39.79
540.28	100.64
540.44	60.85
540.61	74.90
540.78	79.58
540.95	63.19
541.12	21.06
541.29	0.00
541.46	16.38
541.62	9.36
541.79	70.22
541.96	58.51
542.13	65.54
542.30	46.81
542.47	70.22
542.63	49.15
542.80	102.98
542.97	0.00
543.14	70.22
543.31	81.92
543.48	60.85
543.64	51.49
543.81	0.00
543.98	51.49
544.15	51.49
544.32	114.69
544.48	42.13
544.65	21.06
544.82	46.81
544.99	86.60
545.16	63.19
545.32	49.15
545.49	51.49
545.66	2.34
545.83	67.88
546.00	70.22
546.16	0.00
546.33	35.11
546.50	95.96
546.67	65.54
546.83	21.06
547.00	95.96
547.17	16.38
547.34	0.00
547.50	0.00
547.67	98.30
547.84	37.45
548.00	0.00
548.17	2.34
548.34	119.37
548.51	21.06
548.67	100.64
548.84	133.41
549.01	18.72
549.18	58.51
549.34	11.70
549.51	65.54
549.68	37.45
549.84	81.92
550.01	7.02
550.18	4.68
550.34	16.38
550.51	98.30
550.68	91.28
550.84	91.28
551.01	65.54
551.18	23.41
551.34	35.11
551.51	28.09
551.68	39.79
551.84	30.43
552.01	84.26
552.18	46.81
552.34	32.77
552.51	32.77
552.68	14.04
552.84	0.00
553.01	9.36
553.18	46.81
553.34	0.00
553.51	0.00
553.67	60.85
553.84	42.13
554.01	0.00
554.17	77.24
554.34	23.41
554.51	51.49
554.67	100.64
554.84	9.36
555.00	53.83
555.17	18.72
555.33	2.34
555.50	9.36
555.67	102.98
555.83	28.09
556.00	46.81
556.16	37.45
556.33	51.49
556.50	49.15
556.66	21.06
556.83	9.36
556.99	0.00
557.16	126.39
557.32	51.49
557.49	46.81
557.65	23.41
557.82	131.07
557.98	39.79
558.15	74.90
558.32	23.41
558.48	84.26
558.65	16.38
558.81	37.45
558.98	37.45
559.14	67.88
559.31	58.51
559.47	114.69
559.64	81.92
559.80	39.79
559.97	23.41
560.13	25.75
560.30	147.45
560.46	16.38
560.63	67.88
560.79	0.00
560.96	16.38
561.12	74.90
561.29	44.47
561.45	63.19
561.61	98.30
561.78	74.90
561.94	72.56
562.11	98.30
562.27	35.11
562.44	0.00
562.60	56.17
562.77	18.72
562.93	0.00
563.10	28.09
563.26	0.00
563.42	0.00
563.59	49.15
563.75	0.00
563.92	23.41
564.08	70.22
564.24	81.92
564.41	98.30
564.57	7.02
564.74	39.79
564.90	30.43
565.07	49.15
565.23	16.38
565.39	14.04
565.56	37.45
565.72	25.75
565.88	112.35
566.05	0.00
566.21	18.72
566.38	14.04
566.54	0.00
566.70	42.13
566.87	100.64
567.03	56.17
567.19	95.96
567.36	72.56
567.52	0.00
567.68	119.37
567.85	74.90
568.01	51.49
568.17	32.77
568.34	0.00
568.50	44.47
568.66	30.43
568.83	25.75
568.99	53.83
569.15	37.45
569.32	44.47
569.48	37.45
569.64	0.00
569.81	58.51
569.97	70.22
570.13	72.56
570.30	93.62
570.46	28.09
570.62	0.00
570.78	0.00
570.95	32.77
571.11	105.32
571.27	56.17
571.43	65.54
571.60	0.00
571.76	9.36
571.92	65.54
572.09	14.04
572.25	70.22
572.41	60.85
572.57	21.06
572.74	2.34
572.90	51.49
573.06	39.79
573.22	49.15
573.38	4.68
573.55	28.09
573.71	60.85
573.87	37.45
574.03	35.11
574.20	23.41
574.36	49.15
574.52	16.38
574.68	65.54
574.84	49.15
575.01	9.36
575.17	84.26
575.33	95.96
575.49	23.41
575.65	35.11
575.82	72.56
575.98	44.47
576.14	16.38
576.30	44.47
576.46	128.73
576.62	86.60
576.79	102.98
576.95	91.28
577.11	28.09
577.27	44.47
577.43	58.51
577.59	7.02
577.75	11.70
577.92	25.75
578.08	102.98
578.24	72.56
578.40	60.85
578.56	23.41
578.72	4.68
578.88	21.06
579.04	56.17
579.21	0.00
579.37	28.09
579.53	81.92
579.69	4.68
579.85	63.19
580.01	0.00
580.17	0.00
580.33	0.00
580.49	53.83
580.65	39.79
580.82	44.47
580.98	63.19
581.14	25.75
581.30	102.98
581.46	0.00
581.62	0.00
581.78	0.00
581.94	21.06
582.10	72.56
582.26	11.70
582.42	65.54
582.58	67.88
582.74	51.49
582.90	88.94
583.06	65.54
583.22	56.17
583.38	32.77
583.54	30.43
583.70	74.90
583.86	58.51
584.02	0.00
584.18	23.41
584.34	159.16
584.50	105.32
584.66	521.94
584.82	1139.84
584.98	1703.91
585.14	1376.24
585.30	990.05
585.46	568.75
585.62	421.30
585.78	168.52
585.94	79.58
586.10	35.11
586.26	28.09
586.42	86.60
586.58	74.90
586.74	84.26
586.90	81.92
587.06	0.00
587.22	23.41
587.38	42.13
587.54	16.38
587.70	44.47
587.86	177.88
588.02	297.25
588.18	100.64
588.34	44.47
588.49	110.01
588.65	0.00
588.81	56.17
588.97	93.62
589.13	77.24
589.29	70.22
589.45	131.07
589.61	39.79
589.77	16.38
589.93	72.56
590.08	84.26
590.24	0.00
590.40	84.26
590.56	49.15
590.72	32.77
590.88	23.41
591.04	23.41
591.20	53.83
591.35	39.79
591.51	7.02
591.67	21.06
591.83	86.60
591.99	23.41
592.15	84.26
592.31	72.56
592.46	4.68
592.62	63.19
592.78	51.49
592.94	7.02
593.10	25.75
593.26	44.47
593.41	21.06
593.57	0.00
593.73	65.54
593.89	117.03
594.05	196.60
594.20	224.69
594.36	236.39
594.52	105.32
594.68	79.58
594.84	86.60
594.99	95.96
595.15	98.30
595.31	0.00
595.47	30.43
595.62	93.62
595.78	37.45
595.94	9.36
596.10	44.47
596.25	56.17
596.41	9.36
596.57	67.88
596.73	32.77
596.88	74.90
597.04	124.05
597.20	91.28
597.36	98.30
597.51	25.75
597.67	81.92
597.83	74.90
597.99	25.75
598.14	14.04
598.30	77.24
598.46	117.03
598.61	0.00
598.77	74.90
598.93	0.00
599.09	79.58
599.24	30.43
599.40	0.00
599.56	49.15
599.71	0.00
599.87	51.49
600.03	51.49
600.18	30.43
600.34	63.19
600.50	70.22
600.65	16.38
600.81	0.00
600.97	39.79
601.12	49.15
601.28	105.32
601.44	0.00
601.59	0.00
601.75	124.05
601.91	53.83
602.06	11.70
602.22	30.43
602.37	35.11
602.53	42.13
602.69	93.62
602.84	56.17
603.00	51.49
603.16	60.85
603.31	16.38
603.47	0.00
603.62	86.60
603.78	0.00
603.94	72.56
604.09	0.00
604.25	21.06
604.40	0.00
604.56	37.45
604.71	112.35
604.87	0.00
605.03	0.00
605.18	28.09
605.34	42.13
605.49	30.43
605.65	11.70
605.80	21.06
605.96	46.81
606.12	37.45
606.27	37.45
606.43	56.17
606.58	0.00
606.74	74.90
606.89	117.03
607.05	196.60
607.20	252.78
607.36	212.99
607.51	161.50
607.67	135.75
607.82	86.60
607.98	46.81
608.13	46.81
608.29	44.47
608.44	93.62
608.60	72.56
608.75	93.62
608.91	110.01
609.06	133.41
609.22	191.92
609.37	351.08
609.53	365.12
609.68	224.69
609.84	107.66
609.99	77.24
610.15	114.69
610.30	93.62
610.46	84.26
610.61	0.00
610.76	58.51
610.92	25.75
611.07	74.90
611.23	93.62
611.38	39.79
611.54	2.34
611.69	51.49
611.84	0.00
612.00	0.00
612.15	107.66
612.31	67.88
612.46	37.45
612.62	65.54
612.77	0.00
612.92	42.13
613.08	91.28
613.23	77.24
613.39	72.56
613.54	42.13
613.69	133.41
613.85	367.46
614.00	505.56
614.15	496.19
614.31	451.72
614.46	362.78
614.62	187.24
614.77	147.45
614.92	74.90
615.08	9.36
615.23	79.58
615.38	0.00
615.54	51.49
615.69	51.49
615.84	56.17
616.00	187.24
616.15	152.13
616.30	117.03
616.46	138.09
616.61	23.41
616.76	79.58
616.92	88.94
617.07	63.19
617.22	25.75
617.37	16.38
617.53	4.68
617.68	56.17
617.83	0.00
617.99	49.15
618.14	49.15
618.29	46.81
618.45	2.34
618.60	4.68
618.75	0.00
618.90	32.77
619.06	0.00
619.21	67.88
619.36	21.06
619.51	74.90
619.67	0.00
619.82	58.51
619.97	58.51
620.12	67.88
620.28	21.06
620.43	32.77
620.58	7.02
620.73	0.00
620.89	39.79
621.04	32.77
621.19	42.13
621.34	70.22
621.49	149.79
621.65	58.51
621.80	42.13
621.95	0.00
622.10	35.11
622.25	70.22
622.41	98.30
622.56	140.43
622.71	44.47
622.86	35.11
623.01	0.00
623.16	65.54
623.32	9.36
623.47	42.13
623.62	44.47
623.77	95.96
623.92	0.00
624.07	60.85
624.23	9.36
624.38	37.45
624.53	0.00
624.68	4.68
624.83	93.62
624.98	37.45
625.13	65.54
625.29	81.92
625.44	2.34
625.59	51.49
625.74	23.41
625.89	14.04
626.04	51.49
626.19	112.35
626.34	299.59
626.49	322.99
626.65	180.22
626.80	201.29
626.95	147.45
627.10	86.60
627.25	53.83
627.40	23.41
627.55	30.43
627.70	42.13
627.85	42.13
628.00	63.19
628.15	0.00
628.30	0.00
628.45	0.00
628.60	72.56
628.76	63.19
628.91	79.58
629.06	28.09
629.21	117.03
629.36	9.36
629.51	95.96
629.66	51.49
629.81	51.49
629.96	37.45
630.11	42.13
630.26	84.26
630.41	7.02
630.56	161.50
630.71	88.94
630.86	53.83
631.01	72.56
631.16	67.88
631.31	42.13
631.46	91.28
631.61	32.77
631.76	49.15
631.91	56.17
632.06	77.24
632.21	23.41
632.36	51.49
632.51	42.13
632.66	81.92
632.81	84.26
632.96	124.05
633.10	159.16
633.25	255.12
633.40	198.95
633.55	100.64
633.70	105.32
633.85	154.48
634.00	58.51
634.15	65.54
634.30	7.02
634.45	9.36
634.60	35.11
634.75	70.22
634.90	67.88
635.05	70.22
635.19	42.13
635.34	58.51
635.49	9.36
635.64	77.24
635.79	51.49
635.94	30.43
636.09	91.28
636.24	39.79
636.39	56.17
636.53	42.13
636.68	30.43
636.83	16.38
636.98	42.13
637.13	0.00
637.28	11.70
637.43	7.02
637.57	18.72
637.72	86.60
637.87	238.73
638.02	367.46
638.17	390.87
638.32	294.91
638.46	187.24
638.61	166.18
638.76	88.94
638.91	81.92
639.06	65.54
639.20	72.56
639.35	77.24
639.50	107.66
639.65	114.69
639.80	341.72
639.94	437.68
640.09	617.90
640.24	423.64
640.39	330.02
640.54	168.52
640.68	201.29
640.83	81.92
640.98	88.94
641.13	0.00
641.27	18.72
641.42	0.00
641.57	2.34
641.72	32.77
641.86	14.04
642.01	9.36
642.16	56.17
642.31	63.19
642.45	11.70
642.60	9.36
642.75	46.81
642.90	0.00
643.04	53.83
643.19	88.94
643.34	28.09
643.48	35.11
643.63	0.00
643.78	0.00
643.93	0.00
644.07	42.13
644.22	28.09
644.37	0.00
644.51	39.79
644.66	0.00
644.81	0.00
644.95	0.00
645.10	0.00
645.25	0.00
645.39	14.04
645.54	65.54
645.69	21.06
645.83	4.68
645.98	0.00
646.13	14.04
646.27	18.72
646.42	0.00
646.57	65.54
646.71	0.00
646.86	77.24
647.00	30.43
647.15	46.81
647.30	56.17
647.44	0.00
647.59	30.43
647.74	67.88
647.88	28.09
648.03	21.06
648.17	0.00
648.32	56.17
648.47	21.06
648.61	56.17
648.76	37.45
648.90	93.62
649.05	42.13
649.20	0.00
649.34	0.00
649.49	30.43
649.63	18.72
649.78	0.00
649.92	32.77
650.07	32.77
650.21	102.98
650.36	250.44
650.51	327.68
650.65	217.67
650.80	212.99
650.94	117.03
651.09	74.90
651.23	95.96
651.38	112.35
651.52	126.39
651.67	65.54
651.81	44.47
651.96	44.47
652.10	51.49
652.25	23.41
652.39	0.00
652.54	32.77
652.68	88.94
652.83	58.51
652.97	102.98
653.12	163.84
653.26	135.75
653.41	28.09
653.55	23.41
653.70	102.98
653.84	32.77
653.99	9.36
654.13	53.83
654.27	91.28
654.42	25.75
654.56	60.85
654.71	65.54
654.85	44.47
655.00	60.85
655.14	88.94
655.29	58.51
655.43	0.00
655.57	0.00
655.72	11.70
655.86	2.34
656.01	65.54
656.15	65.54
656.30	16.38
656.44	30.43
656.58	88.94
656.73	70.22
656.87	58.51
657.01	32.77
657.16	42.13
657.30	58.51
657.45	0.00
657.59	2.34
657.73	51.49
657.88	46.81
658.02	0.00
658.16	0.00
658.31	0.00
658.45	0.00
658.60	16.38
658.74	67.88
658.88	0.00
659.03	51.49
659.17	51.49
659.31	4.68
659.46	88.94
659.60	32.77
659.74	133.41
659.89	102.98
660.03	110.01
660.17	0.00
660.32	100.64
660.46	0.00
660.60	86.60
660.74	49.15
660.89	37.45
661.03	58.51
661.17	49.15
661.32	86.60
661.46	25.75
661.60	16.38
661.74	42.13
661.89	56.17
662.03	9.36
662.17	16.38
662.31	72.56
662.46	16.38
662.60	88.94
662.74	91.28
662.88	42.13
663.03	44.47
663.17	0.00
663.31	35.11
663.45	86.60
663.60	4.68
663.74	42.13
663.88	53.83
664.02	72.56
664.17	0.00
664.31	30.43
664.45	67.88
664.59	0.00
664.73	14.04
664.88	4.68
665.02	53.83
665.16	84.26
665.30	23.41
665.44	67.88
665.59	23.41
665.73	49.15
665.87	4.68
666.01	39.79
666.15	35.11
666.29	39.79
666.44	28.09
666.58	74.90
666.72	65.54
666.86	21.06
667.00	72.56
667.14	42.13
667.28	72.56
667.43	128.73
667.57	217.67
667.71	259.80
667.85	177.88
667.99	205.97
668.13	166.18
668.27	42.13
668.41	60.85
668.56	121.71
668.70	77.24
668.84	44.47
668.98	18.72
669.12	2.34
669.26	32.77
669.40	128.73
669.54	32.77
669.68	25.75
669.82	95.96
669.96	63.19
670.10	65.54
670.25	102.98
670.39	56.17
670.53	58.51
670.67	37.45
670.81	102.98
670.95	74.90
671.09	84.26
671.23	93.62
671.37	70.22
671.51	163.84
671.65	208.31
671.79	79.58
671.93	149.79
672.07	95.96
672.21	65.54
672.35	42.13
672.49	23.41
672.63	63.19
672.77	14.04
672.91	60.85
673.05	0.00
673.19	28.09
673.33	25.75
673.47	14.04
673.61	60.85
673.75	42.13
673.89	0.00
674.03	16.38
674.17	7.02
674.31	0.00
674.45	95.96
674.59	37.45
674.73	14.04
674.87	35.11
675.01	32.77
675.15	51.49
675.29	39.79
675.43	9.36
675.56	58.51
675.70	51.49
675.84	72.56
675.98	0.00
676.12	0.00
676.26	11.70
676.40	0.00
676.54	81.92
676.68	84.26
676.82	0.00
676.96	67.88
677.10	37.45
677.23	7.02
677.37	0.00
677.51	9.36
677.65	63.19
677.79	16.38
677.93	11.70
678.07	39.79
678.21	14.04
678.34	65.54
678.48	7.02
678.62	58.51
678.76	37.45
678.90	21.06
679.04	0.00
679.18	91.28
679.31	37.45
679.45	2.34
679.59	18.72
679.73	42.13
679.87	84.26
680.00	84.26
680.14	0.00
680.28	0.00
680.42	0.00
680.56	28.09
680.70	0.00
680.83	56.17
680.97	30.43
681.11	37.45
681.25	0.00
681.39	84.26
681.52	53.83
681.66	42.13
681.80	65.54
681.94	14.04
682.07	23.41
682.21	42.13
682.35	37.45
682.49	65.54
682.62	0.00
682.76	18.72
682.90	56.17
683.04	32.77
683.17	0.00
683.31	42.13
683.45	79.58
683.59	7.02
683.72	0.00
683.86	105.32
684.00	0.00
684.13	9.36
684.27	58.51
684.41	9.36
684.55	23.41
684.68	0.00
684.82	56.17
684.96	0.00
685.09	0.00
685.23	14.04
685.37	72.56
685.50	51.49
685.64	0.00
685.78	77.24
685.91	77.24
686.05	0.00
686.19	70.22
686.32	63.19
686.46	0.00
686.60	0.00
686.73	0.00
686.87	35.11
687.01	46.81
687.14	0.00
687.28	14.04
687.42	7.02
687.55	95.96
687.69	49.15
687.82	11.70
687.96	4.68
688.10	74.90
688.23	98.30
688.37	16.38
688.50	49.15
688.64	32.77
688.78	37.45
688.91	37.45
689.05	39.79
689.18	88.94
689.32	0.00
689.46	0.00
689.59	58.51
689.73	53.83
689.86	0.00
690.00	9.36
690.13	30.43
690.27	49.15
690.41	25.75
690.54	42.13
690.68	4.68
690.81	53.83
690.95	0.00
691.08	16.38
691.22	21.06
691.35	0.00
691.49	95.96
691.62	0.00
691.76	0.00
691.89	9.36
692.03	44.47
692.16	21.06
692.30	39.79
692.43	0.00
692.57	37.45
692.70	105.32
692.84	184.90
692.97	72.56
693.11	79.58
693.24	93.62
693.38	0.00
693.51	70.22
693.65	67.88
693.78	23.41
693.92	0.00
694.05	42.13
694.19	0.00
694.32	18.72
694.45	86.60
694.59	18.72
694.72	28.09
694.86	2.34
694.99	30.43
695.13	65.54
695.26	4.68
695.39	58.51
695.53	51.49
695.66	0.00
695.80	0.00
695.93	18.72
696.07	42.13
696.20	16.38
696.33	4.68
696.47	72.56
696.60	53.83
696.73	35.11
696.87	14.04
697.00	74.90
697.14	14.04
697.27	0.00
697.40	77.24
697.54	0.00
697.67	14.04
697.80	58.51
697.94	91.28
698.07	84.26
698.21	7.02
698.34	0.00
698.47	91.28
698.61	0.00
698.74	0.00
698.87	49.15
699.01	0.00
699.14	39.79
699.27	65.54
699.40	74.90
699.54	0.00
699.67	39.79
699.80	84.26
699.94	7.02
700.07	0.00
700.20	79.58
700.34	88.94
700.47	46.81
700.60	51.49
700.73	0.00
700.87	4.68
701.00	4.68
701.13	32.77
701.26	0.00
701.40	0.00
701.53	32.77
701.66	81.92
701.79	23.41
701.93	53.83
702.06	67.88
702.19	44.47
702.32	51.49
702.46	32.77
702.59	23.41
702.72	9.36
702.85	53.83
702.99	184.90
703.12	187.24
703.25	229.37
703.38	187.24
703.51	114.69
703.65	138.09
703.78	88.94
703.91	86.60
704.04	110.01
704.17	30.43
704.31	67.88
704.44	37.45
704.57	4.68
704.70	9.36
704.83	23.41
704.96	9.36
705.10	39.79
705.23	53.83
>>>>>End Processed Spectral Data<<<<<
