SpectraSuite Data File
++++++++++++++++++++++++++++++++++++
Date: Fri Oct 04 12:13:37 GMT-05:00 2013
User: price-jones
Dark Spectrum Present: No
Reference Spectrum Present: No
Number of Sampled Component Spectra: 1
Spectrometers: USB2+H05261
Integration Time (usec): 10000 (USB2+H05261)
Spectra Averaged: 1 (USB2+H05261)
Boxcar Smoothing: 0 (USB2+H05261)
Correct for Electrical Dark: No (USB2+H05261)
Strobe/Lamp Enabled: No (USB2+H05261)
Correct for Detector Non-linearity: No (USB2+H05261)
Correct for Stray Light: No (USB2+H05261)
Number of Pixels in Processed Spectrum: 2048
>>>>>Begin Processed Spectral Data<<<<<
365.73	16.38
365.92	16.38
366.12	16.38
366.32	0.00
366.52	0.00
366.72	0.00
366.91	0.00
367.11	0.00
367.31	0.00
367.51	0.00
367.70	0.00
367.90	0.00
368.10	0.00
368.30	0.00
368.49	0.00
368.69	0.00
368.89	0.00
369.09	0.00
369.28	0.00
369.48	0.00
369.68	0.00
369.87	0.00
370.07	0.00
370.27	0.00
370.47	0.00
370.66	0.00
370.86	0.00
371.06	16.38
371.25	0.00
371.45	0.00
371.65	0.00
371.84	0.00
372.04	9.36
372.24	0.00
372.44	14.04
372.63	16.38
372.83	49.15
373.03	7.02
373.22	35.11
373.42	14.04
373.62	0.00
373.81	28.09
374.01	0.00
374.21	25.75
374.40	81.92
374.60	7.02
374.79	58.51
374.99	16.38
375.19	37.45
375.38	25.75
375.58	0.00
375.78	21.06
375.97	74.90
376.17	63.19
376.37	0.00
376.56	16.38
376.76	51.49
376.95	25.75
377.15	9.36
377.35	14.04
377.54	0.00
377.74	35.11
377.93	35.11
378.13	37.45
378.33	86.60
378.52	0.00
378.72	60.85
378.91	56.17
379.11	0.00
379.31	60.85
379.50	11.70
379.70	14.04
379.89	16.38
380.09	0.00
380.28	0.00
380.48	32.77
380.68	0.00
380.87	7.02
381.07	2.34
381.26	18.72
381.46	0.00
381.65	0.00
381.85	23.41
382.04	39.79
382.24	74.90
382.43	14.04
382.63	72.56
382.83	4.68
383.02	0.00
383.22	0.00
383.41	0.00
383.61	0.00
383.80	56.17
384.00	35.11
384.19	0.00
384.39	39.79
384.58	21.06
384.78	21.06
384.97	14.04
385.17	2.34
385.36	0.00
385.56	4.68
385.75	60.85
385.95	37.45
386.14	0.00
386.34	0.00
386.53	35.11
386.72	88.94
386.92	53.83
387.11	0.00
387.31	0.00
387.50	39.79
387.70	4.68
387.89	67.88
388.09	35.11
388.28	42.13
388.48	18.72
388.67	0.00
388.86	79.58
389.06	0.00
389.25	11.70
389.45	32.77
389.64	21.06
389.84	53.83
390.03	46.81
390.22	2.34
390.42	56.17
390.61	46.81
390.81	0.00
391.00	14.04
391.19	0.00
391.39	18.72
391.58	35.11
391.78	0.00
391.97	14.04
392.16	0.00
392.36	25.75
392.55	11.70
392.75	35.11
392.94	9.36
393.13	11.70
393.33	0.00
393.52	0.00
393.71	46.81
393.91	39.79
394.10	46.81
394.29	81.92
394.49	70.22
394.68	9.36
394.88	67.88
395.07	0.00
395.26	39.79
395.46	18.72
395.65	21.06
395.84	0.00
396.04	25.75
396.23	9.36
396.42	39.79
396.62	49.15
396.81	14.04
397.00	42.13
397.19	0.00
397.39	93.62
397.58	58.51
397.77	35.11
397.97	2.34
398.16	0.00
398.35	0.00
398.55	21.06
398.74	14.04
398.93	84.26
399.12	44.47
399.32	44.47
399.51	0.00
399.70	65.54
399.90	32.77
400.09	14.04
400.28	42.13
400.47	65.54
400.67	25.75
400.86	60.85
401.05	0.00
401.24	0.00
401.44	0.00
401.63	35.11
401.82	51.49
402.01	0.00
402.21	88.94
402.40	0.00
402.59	18.72
402.78	0.00
402.97	28.09
403.17	93.62
403.36	0.00
403.55	60.85
403.74	35.11
403.93	32.77
404.13	14.04
404.32	0.00
404.51	0.00
404.70	0.00
404.89	67.88
405.09	0.00
405.28	81.92
405.47	0.00
405.66	0.00
405.85	65.54
406.05	0.00
406.24	0.00
406.43	21.06
406.62	35.11
406.81	84.26
407.00	11.70
407.20	7.02
407.39	0.00
407.58	32.77
407.77	0.00
407.96	65.54
408.15	56.17
408.34	2.34
408.54	42.13
408.73	16.38
408.92	0.00
409.11	16.38
409.30	42.13
409.49	98.30
409.68	39.79
409.87	46.81
410.07	7.02
410.26	100.64
410.45	16.38
410.64	0.00
410.83	46.81
411.02	2.34
411.21	21.06
411.40	25.75
411.59	88.94
411.78	0.00
411.98	0.00
412.17	32.77
412.36	72.56
412.55	81.92
412.74	93.62
412.93	72.56
413.12	65.54
413.31	44.47
413.50	16.38
413.69	74.90
413.88	112.35
414.07	14.04
414.26	77.24
414.45	39.79
414.64	72.56
414.83	30.43
415.02	7.02
415.22	0.00
415.41	56.17
415.60	58.51
415.79	102.98
415.98	91.28
416.17	9.36
416.36	0.00
416.55	16.38
416.74	0.00
416.93	114.69
417.12	32.77
417.31	65.54
417.50	0.00
417.69	21.06
417.88	95.96
418.07	74.90
418.26	28.09
418.45	37.45
418.64	138.09
418.83	35.11
419.02	46.81
419.21	0.00
419.39	25.75
419.58	42.13
419.77	70.22
419.96	74.90
420.15	44.47
420.34	74.90
420.53	112.35
420.72	58.51
420.91	37.45
421.10	11.70
421.29	56.17
421.48	0.00
421.67	9.36
421.86	18.72
422.05	117.03
422.24	65.54
422.43	0.00
422.61	79.58
422.80	9.36
422.99	91.28
423.18	84.26
423.37	110.01
423.56	0.00
423.75	65.54
423.94	46.81
424.13	39.79
424.32	88.94
424.50	0.00
424.69	65.54
424.88	58.51
425.07	21.06
425.26	0.00
425.45	77.24
425.64	84.26
425.83	117.03
426.01	21.06
426.20	0.00
426.39	86.60
426.58	21.06
426.77	42.13
426.96	21.06
427.15	58.51
427.33	42.13
427.52	107.66
427.71	67.88
427.90	112.35
428.09	100.64
428.28	21.06
428.46	37.45
428.65	44.47
428.84	25.75
429.03	95.96
429.22	25.75
429.40	37.45
429.59	49.15
429.78	28.09
429.97	51.49
430.16	60.85
430.34	107.66
430.53	56.17
430.72	0.00
430.91	74.90
431.10	25.75
431.28	35.11
431.47	63.19
431.66	9.36
431.85	58.51
432.03	70.22
432.22	53.83
432.41	0.00
432.60	102.98
432.79	25.75
432.97	98.30
433.16	39.79
433.35	77.24
433.54	72.56
433.72	65.54
433.91	0.00
434.10	110.01
434.28	102.98
434.47	0.00
434.66	60.85
434.85	42.13
435.03	39.79
435.22	28.09
435.41	18.72
435.59	72.56
435.78	0.00
435.97	37.45
436.16	35.11
436.34	0.00
436.53	70.22
436.72	60.85
436.90	28.09
437.09	63.19
437.28	63.19
437.46	14.04
437.65	0.00
437.84	98.30
438.02	14.04
438.21	18.72
438.40	11.70
438.58	14.04
438.77	23.41
438.96	124.05
439.14	18.72
439.33	42.13
439.52	58.51
439.70	42.13
439.89	79.58
440.08	88.94
440.26	154.48
440.45	72.56
440.63	70.22
440.82	42.13
441.01	110.01
441.19	4.68
441.38	30.43
441.57	14.04
441.75	70.22
441.94	100.64
442.12	65.54
442.31	53.83
442.50	88.94
442.68	46.81
442.87	44.47
443.05	32.77
443.24	7.02
443.43	102.98
443.61	100.64
443.80	14.04
443.98	63.19
444.17	86.60
444.35	65.54
444.54	95.96
444.73	77.24
444.91	65.54
445.10	0.00
445.28	0.00
445.47	58.51
445.65	58.51
445.84	2.34
446.02	63.19
446.21	58.51
446.39	63.19
446.58	67.88
446.77	81.92
446.95	98.30
447.14	44.47
447.32	42.13
447.51	95.96
447.69	58.51
447.88	74.90
448.06	98.30
448.25	102.98
448.43	35.11
448.62	21.06
448.80	37.45
448.99	110.01
449.17	0.00
449.36	0.00
449.54	56.17
449.73	102.98
449.91	98.30
450.10	25.75
450.28	84.26
450.46	93.62
450.65	0.00
450.83	98.30
451.02	18.72
451.20	39.79
451.39	110.01
451.57	91.28
451.76	14.04
451.94	95.96
452.13	2.34
452.31	58.51
452.49	30.43
452.68	77.24
452.86	0.00
453.05	35.11
453.23	30.43
453.42	152.13
453.60	93.62
453.78	100.64
453.97	98.30
454.15	23.41
454.34	65.54
454.52	67.88
454.70	53.83
454.89	102.98
455.07	145.11
455.26	156.82
455.44	84.26
455.62	79.58
455.81	44.47
455.99	140.43
456.17	14.04
456.36	42.13
456.54	86.60
456.73	91.28
456.91	124.05
457.09	0.00
457.28	39.79
457.46	49.15
457.64	84.26
457.83	18.72
458.01	32.77
458.19	46.81
458.38	70.22
458.56	56.17
458.74	42.13
458.93	93.62
459.11	30.43
459.29	60.85
459.48	51.49
459.66	112.35
459.84	28.09
460.03	18.72
460.21	37.45
460.39	51.49
460.57	0.00
460.76	42.13
460.94	117.03
461.12	0.00
461.31	14.04
461.49	28.09
461.67	131.07
461.85	117.03
462.04	128.73
462.22	124.05
462.40	37.45
462.59	49.15
462.77	86.60
462.95	81.92
463.13	14.04
463.32	65.54
463.50	11.70
463.68	35.11
463.86	51.49
464.05	53.83
464.23	67.88
464.41	53.83
464.59	84.26
464.78	56.17
464.96	70.22
465.14	51.49
465.32	35.11
465.50	23.41
465.69	91.28
465.87	131.07
466.05	91.28
466.23	110.01
466.41	58.51
466.60	74.90
466.78	98.30
466.96	0.00
467.14	56.17
467.32	60.85
467.51	0.00
467.69	37.45
467.87	16.38
468.05	60.85
468.23	77.24
468.41	72.56
468.60	0.00
468.78	0.00
468.96	114.69
469.14	74.90
469.32	44.47
469.50	88.94
469.69	32.77
469.87	37.45
470.05	4.68
470.23	100.64
470.41	28.09
470.59	23.41
470.77	91.28
470.95	49.15
471.14	70.22
471.32	107.66
471.50	11.70
471.68	51.49
471.86	77.24
472.04	135.75
472.22	93.62
472.40	32.77
472.58	72.56
472.77	65.54
472.95	28.09
473.13	58.51
473.31	4.68
473.49	65.54
473.67	49.15
473.85	51.49
474.03	67.88
474.21	72.56
474.39	44.47
474.57	53.83
474.75	70.22
474.93	70.22
475.12	42.13
475.30	65.54
475.48	16.38
475.66	121.71
475.84	63.19
476.02	53.83
476.20	74.90
476.38	42.13
476.56	65.54
476.74	81.92
476.92	42.13
477.10	74.90
477.28	161.50
477.46	72.56
477.64	14.04
477.82	72.56
478.00	70.22
478.18	25.75
478.36	112.35
478.54	88.94
478.72	56.17
478.90	133.41
479.08	79.58
479.26	110.01
479.44	28.09
479.62	93.62
479.80	49.15
479.98	102.98
480.16	117.03
480.34	77.24
480.52	58.51
480.70	63.19
480.88	84.26
481.06	79.58
481.24	112.35
481.41	81.92
481.59	77.24
481.77	102.98
481.95	42.13
482.13	133.41
482.31	28.09
482.49	81.92
482.67	81.92
482.85	0.00
483.03	53.83
483.21	102.98
483.39	98.30
483.57	95.96
483.74	86.60
483.92	154.48
484.10	70.22
484.28	72.56
484.46	53.83
484.64	117.03
484.82	28.09
485.00	102.98
485.18	2.34
485.35	84.26
485.53	42.13
485.71	93.62
485.89	105.32
486.07	84.26
486.25	44.47
486.43	56.17
486.61	32.77
486.78	28.09
486.96	35.11
487.14	65.54
487.32	14.04
487.50	110.01
487.68	53.83
487.85	56.17
488.03	63.19
488.21	42.13
488.39	53.83
488.57	88.94
488.75	88.94
488.92	124.05
489.10	70.22
489.28	53.83
489.46	161.50
489.64	121.71
489.81	72.56
489.99	44.47
490.17	32.77
490.35	46.81
490.53	18.72
490.70	110.01
490.88	58.51
491.06	98.30
491.24	70.22
491.41	74.90
491.59	25.75
491.77	131.07
491.95	35.11
492.13	51.49
492.30	91.28
492.48	117.03
492.66	110.01
492.84	67.88
493.01	110.01
493.19	74.90
493.37	91.28
493.54	65.54
493.72	39.79
493.90	88.94
494.08	58.51
494.25	138.09
494.43	56.17
494.61	81.92
494.79	63.19
494.96	142.77
495.14	88.94
495.32	84.26
495.49	124.05
495.67	42.13
495.85	44.47
496.02	23.41
496.20	60.85
496.38	63.19
496.55	81.92
496.73	79.58
496.91	67.88
497.09	140.43
497.26	60.85
497.44	51.49
497.62	112.35
497.79	49.15
497.97	102.98
498.14	37.45
498.32	81.92
498.50	124.05
498.67	117.03
498.85	102.98
499.03	72.56
499.20	79.58
499.38	95.96
499.56	121.71
499.73	93.62
499.91	58.51
500.08	220.01
500.26	79.58
500.44	79.58
500.61	138.09
500.79	58.51
500.97	70.22
501.14	65.54
501.32	84.26
501.49	58.51
501.67	77.24
501.84	39.79
502.02	100.64
502.20	23.41
502.37	58.51
502.55	161.50
502.72	21.06
502.90	119.37
503.07	0.00
503.25	117.03
503.43	102.98
503.60	98.30
503.78	67.88
503.95	128.73
504.13	23.41
504.30	46.81
504.48	110.01
504.65	74.90
504.83	98.30
505.01	102.98
505.18	110.01
505.36	84.26
505.53	74.90
505.71	117.03
505.88	72.56
506.06	93.62
506.23	86.60
506.41	44.47
506.58	102.98
506.76	81.92
506.93	32.77
507.11	49.15
507.28	51.49
507.46	65.54
507.63	56.17
507.81	23.41
507.98	56.17
508.16	30.43
508.33	58.51
508.50	131.07
508.68	7.02
508.85	70.22
509.03	51.49
509.20	77.24
509.38	0.00
509.55	51.49
509.73	198.95
509.90	107.66
510.08	110.01
510.25	81.92
510.42	72.56
510.60	65.54
510.77	107.66
510.95	9.36
511.12	44.47
511.30	65.54
511.47	133.41
511.64	156.82
511.82	86.60
511.99	93.62
512.17	131.07
512.34	140.43
512.51	9.36
512.69	161.50
512.86	46.81
513.04	67.88
513.21	170.86
513.38	114.69
513.56	117.03
513.73	14.04
513.90	30.43
514.08	126.39
514.25	142.77
514.43	166.18
514.60	95.96
514.77	39.79
514.95	88.94
515.12	126.39
515.29	128.73
515.47	81.92
515.64	119.37
515.81	88.94
515.99	156.82
516.16	67.88
516.33	100.64
516.51	44.47
516.68	86.60
516.85	95.96
517.03	46.81
517.20	49.15
517.37	58.51
517.54	65.54
517.72	95.96
517.89	117.03
518.06	72.56
518.24	65.54
518.41	56.17
518.58	46.81
518.75	18.72
518.93	79.58
519.10	65.54
519.27	102.98
519.45	46.81
519.62	44.47
519.79	58.51
519.96	84.26
520.14	119.37
520.31	18.72
520.48	65.54
520.65	117.03
520.83	119.37
521.00	149.79
521.17	86.60
521.34	110.01
521.52	37.45
521.69	65.54
521.86	53.83
522.03	74.90
522.20	126.39
522.38	77.24
522.55	98.30
522.72	56.17
522.89	37.45
523.07	100.64
523.24	105.32
523.41	56.17
523.58	35.11
523.75	86.60
523.92	44.47
524.10	46.81
524.27	44.47
524.44	7.02
524.61	74.90
524.78	112.35
524.96	49.15
525.13	124.05
525.30	107.66
525.47	124.05
525.64	46.81
525.81	86.60
525.98	102.98
526.16	58.51
526.33	42.13
526.50	142.77
526.67	44.47
526.84	91.28
527.01	72.56
527.18	88.94
527.36	128.73
527.53	67.88
527.70	70.22
527.87	102.98
528.04	110.01
528.21	93.62
528.38	56.17
528.55	121.71
528.72	79.58
528.89	74.90
529.07	77.24
529.24	70.22
529.41	95.96
529.58	77.24
529.75	23.41
529.92	140.43
530.09	119.37
530.26	72.56
530.43	42.13
530.60	93.62
530.77	70.22
530.94	124.05
531.11	72.56
531.28	93.62
531.46	32.77
531.63	70.22
531.80	105.32
531.97	114.69
532.14	84.26
532.31	60.85
532.48	86.60
532.65	93.62
532.82	39.79
532.99	72.56
533.16	131.07
533.33	107.66
533.50	119.37
533.67	53.83
533.84	112.35
534.01	121.71
534.18	77.24
534.35	126.39
534.52	2.34
534.69	138.09
534.86	77.24
535.03	46.81
535.20	70.22
535.37	42.13
535.54	0.00
535.71	79.58
535.88	107.66
536.05	140.43
536.22	37.45
536.38	56.17
536.55	77.24
536.72	72.56
536.89	39.79
537.06	42.13
537.23	56.17
537.40	126.39
537.57	138.09
537.74	102.98
537.91	161.50
538.08	112.35
538.25	117.03
538.42	67.88
538.59	91.28
538.75	77.24
538.92	70.22
539.09	131.07
539.26	0.00
539.43	81.92
539.60	56.17
539.77	63.19
539.94	84.26
540.11	93.62
540.28	72.56
540.44	53.83
540.61	84.26
540.78	86.60
540.95	135.75
541.12	72.56
541.29	114.69
541.46	149.79
541.62	53.83
541.79	2.34
541.96	65.54
542.13	51.49
542.30	44.47
542.47	42.13
542.63	63.19
542.80	65.54
542.97	140.43
543.14	72.56
543.31	58.51
543.48	91.28
543.64	39.79
543.81	14.04
543.98	37.45
544.15	42.13
544.32	60.85
544.48	70.22
544.65	79.58
544.82	51.49
544.99	117.03
545.16	77.24
545.32	77.24
545.49	152.13
545.66	49.15
545.83	51.49
546.00	79.58
546.16	35.11
546.33	49.15
546.50	60.85
546.67	119.37
546.83	72.56
547.00	147.45
547.17	58.51
547.34	98.30
547.50	133.41
547.67	86.60
547.84	124.05
548.00	105.32
548.17	145.11
548.34	46.81
548.51	145.11
548.67	131.07
548.84	65.54
549.01	84.26
549.18	93.62
549.34	49.15
549.51	95.96
549.68	74.90
549.84	67.88
550.01	70.22
550.18	44.47
550.34	16.38
550.51	4.68
550.68	154.48
550.84	95.96
551.01	88.94
551.18	74.90
551.34	91.28
551.51	46.81
551.68	35.11
551.84	63.19
552.01	23.41
552.18	65.54
552.34	98.30
552.51	105.32
552.68	100.64
552.84	124.05
553.01	53.83
553.18	121.71
553.34	98.30
553.51	81.92
553.67	53.83
553.84	79.58
554.01	46.81
554.17	77.24
554.34	0.00
554.51	91.28
554.67	114.69
554.84	37.45
555.00	93.62
555.17	131.07
555.33	65.54
555.50	72.56
555.67	58.51
555.83	35.11
556.00	88.94
556.16	79.58
556.33	65.54
556.50	77.24
556.66	72.56
556.83	53.83
556.99	81.92
557.16	86.60
557.32	63.19
557.49	102.98
557.65	95.96
557.82	152.13
557.98	23.41
558.15	91.28
558.32	81.92
558.48	72.56
558.65	93.62
558.81	128.73
558.98	133.41
559.14	14.04
559.31	67.88
559.47	46.81
559.64	77.24
559.80	105.32
559.97	152.13
560.13	53.83
560.30	110.01
560.46	88.94
560.63	128.73
560.79	81.92
560.96	79.58
561.12	74.90
561.29	0.00
561.45	67.88
561.61	46.81
561.78	70.22
561.94	56.17
562.11	46.81
562.27	49.15
562.44	70.22
562.60	14.04
562.77	53.83
562.93	77.24
563.10	42.13
563.26	16.38
563.42	102.98
563.59	81.92
563.75	58.51
563.92	159.16
564.08	173.20
564.24	133.41
564.41	77.24
564.57	107.66
564.74	145.11
564.90	49.15
565.07	72.56
565.23	53.83
565.39	110.01
565.56	121.71
565.72	91.28
565.88	35.11
566.05	70.22
566.21	135.75
566.38	77.24
566.54	93.62
566.70	88.94
566.87	37.45
567.03	7.02
567.19	105.32
567.36	79.58
567.52	110.01
567.68	58.51
567.85	124.05
568.01	18.72
568.17	0.00
568.34	131.07
568.50	154.48
568.66	58.51
568.83	98.30
568.99	88.94
569.15	70.22
569.32	70.22
569.48	112.35
569.64	42.13
569.81	102.98
569.97	133.41
570.13	88.94
570.30	49.15
570.46	105.32
570.62	91.28
570.78	39.79
570.95	74.90
571.11	114.69
571.27	81.92
571.43	124.05
571.60	81.92
571.76	53.83
571.92	39.79
572.09	114.69
572.25	25.75
572.41	44.47
572.57	95.96
572.74	35.11
572.90	25.75
573.06	23.41
573.22	56.17
573.38	105.32
573.55	67.88
573.71	63.19
573.87	70.22
574.03	93.62
574.20	58.51
574.36	58.51
574.52	39.79
574.68	49.15
574.84	84.26
575.01	44.47
575.17	86.60
575.33	126.39
575.49	0.00
575.65	77.24
575.82	140.43
575.98	74.90
576.14	65.54
576.30	51.49
576.46	74.90
576.62	70.22
576.79	67.88
576.95	67.88
577.11	100.64
577.27	117.03
577.43	105.32
577.59	30.43
577.75	128.73
577.92	88.94
578.08	110.01
578.24	51.49
578.40	32.77
578.56	84.26
578.72	98.30
578.88	49.15
579.04	84.26
579.21	67.88
579.37	7.02
579.53	93.62
579.69	131.07
579.85	112.35
580.01	9.36
580.17	44.47
580.33	79.58
580.49	56.17
580.65	63.19
580.82	25.75
580.98	79.58
581.14	32.77
581.30	131.07
581.46	65.54
581.62	102.98
581.78	133.41
581.94	60.85
582.10	114.69
582.26	65.54
582.42	74.90
582.58	28.09
582.74	0.00
582.90	98.30
583.06	95.96
583.22	95.96
583.38	74.90
583.54	44.47
583.70	74.90
583.86	51.49
584.02	67.88
584.18	105.32
584.34	51.49
584.50	117.03
584.66	170.86
584.82	88.94
584.98	93.62
585.14	0.00
585.30	105.32
585.46	147.45
585.62	72.56
585.78	145.11
585.94	39.79
586.10	67.88
586.26	105.32
586.42	21.06
586.58	79.58
586.74	46.81
586.90	88.94
587.06	86.60
587.22	133.41
587.38	84.26
587.54	93.62
587.70	100.64
587.86	79.58
588.02	58.51
588.18	60.85
588.34	77.24
588.49	2.34
588.65	117.03
588.81	142.77
588.97	42.13
589.13	39.79
589.29	46.81
589.45	70.22
589.61	60.85
589.77	152.13
589.93	86.60
590.08	86.60
590.24	77.24
590.40	70.22
590.56	37.45
590.72	42.13
590.88	95.96
591.04	70.22
591.20	91.28
591.35	77.24
591.51	107.66
591.67	117.03
591.83	0.00
591.99	21.06
592.15	58.51
592.31	70.22
592.46	77.24
592.62	100.64
592.78	77.24
592.94	98.30
593.10	86.60
593.26	72.56
593.41	88.94
593.57	42.13
593.73	77.24
593.89	124.05
594.05	65.54
594.20	42.13
594.36	60.85
594.52	72.56
594.68	37.45
594.84	39.79
594.99	72.56
595.15	107.66
595.31	2.34
595.47	72.56
595.62	9.36
595.78	79.58
595.94	77.24
596.10	63.19
596.25	84.26
596.41	81.92
596.57	88.94
596.73	56.17
596.88	37.45
597.04	114.69
597.20	63.19
597.36	0.00
597.51	35.11
597.67	72.56
597.83	95.96
597.99	72.56
598.14	88.94
598.30	131.07
598.46	74.90
598.61	46.81
598.77	105.32
598.93	60.85
599.09	88.94
599.24	60.85
599.40	37.45
599.56	35.11
599.71	114.69
599.87	67.88
600.03	72.56
600.18	79.58
600.34	91.28
600.50	93.62
600.65	84.26
600.81	72.56
600.97	74.90
601.12	121.71
601.28	112.35
601.44	131.07
601.59	114.69
601.75	145.11
601.91	74.90
602.06	51.49
602.22	102.98
602.37	114.69
602.53	30.43
602.69	28.09
602.84	74.90
603.00	84.26
603.16	110.01
603.31	44.47
603.47	67.88
603.62	25.75
603.78	16.38
603.94	131.07
604.09	16.38
604.25	107.66
604.40	124.05
604.56	100.64
604.71	37.45
604.87	53.83
605.03	70.22
605.18	86.60
605.34	95.96
605.49	28.09
605.65	74.90
605.80	21.06
605.96	60.85
606.12	65.54
606.27	32.77
606.43	14.04
606.58	56.17
606.74	14.04
606.89	0.00
607.05	51.49
607.20	81.92
607.36	100.64
607.51	67.88
607.67	100.64
607.82	81.92
607.98	42.13
608.13	91.28
608.29	84.26
608.44	74.90
608.60	93.62
608.75	110.01
608.91	79.58
609.06	126.39
609.22	81.92
609.37	91.28
609.53	79.58
609.68	86.60
609.84	21.06
609.99	65.54
610.15	105.32
610.30	72.56
610.46	95.96
610.61	98.30
610.76	44.47
610.92	51.49
611.07	44.47
611.23	23.41
611.38	42.13
611.54	74.90
611.69	81.92
611.84	70.22
612.00	77.24
612.15	65.54
612.31	84.26
612.46	74.90
612.62	65.54
612.77	35.11
612.92	65.54
613.08	142.77
613.23	100.64
613.39	49.15
613.54	98.30
613.69	91.28
613.85	23.41
614.00	105.32
614.15	65.54
614.31	4.68
614.46	49.15
614.62	98.30
614.77	16.38
614.92	72.56
615.08	30.43
615.23	39.79
615.38	79.58
615.54	25.75
615.69	32.77
615.84	35.11
616.00	105.32
616.15	102.98
616.30	79.58
616.46	7.02
616.61	32.77
616.76	56.17
616.92	124.05
617.07	100.64
617.22	58.51
617.37	4.68
617.53	46.81
617.68	46.81
617.83	53.83
617.99	100.64
618.14	112.35
618.29	145.11
618.45	44.47
618.60	53.83
618.75	91.28
618.90	74.90
619.06	100.64
619.21	79.58
619.36	56.17
619.51	119.37
619.67	91.28
619.82	119.37
619.97	65.54
620.12	124.05
620.28	88.94
620.43	4.68
620.58	107.66
620.73	107.66
620.89	105.32
621.04	4.68
621.19	93.62
621.34	182.56
621.49	0.00
621.65	0.00
621.80	138.09
621.95	4.68
622.10	117.03
622.25	105.32
622.41	11.70
622.56	14.04
622.71	46.81
622.86	60.85
623.01	102.98
623.16	107.66
623.32	117.03
623.47	77.24
623.62	0.00
623.77	35.11
623.92	4.68
624.07	88.94
624.23	88.94
624.38	46.81
624.53	100.64
624.68	18.72
624.83	84.26
624.98	81.92
625.13	30.43
625.29	105.32
625.44	147.45
625.59	72.56
625.74	70.22
625.89	98.30
626.04	37.45
626.19	70.22
626.34	46.81
626.49	74.90
626.65	98.30
626.80	56.17
626.95	37.45
627.10	21.06
627.25	60.85
627.40	0.00
627.55	114.69
627.70	39.79
627.85	60.85
628.00	81.92
628.15	79.58
628.30	86.60
628.45	32.77
628.60	32.77
628.76	77.24
628.91	98.30
629.06	77.24
629.21	81.92
629.36	67.88
629.51	84.26
629.66	77.24
629.81	79.58
629.96	112.35
630.11	79.58
630.26	63.19
630.41	53.83
630.56	86.60
630.71	18.72
630.86	0.00
631.01	88.94
631.16	58.51
631.31	91.28
631.46	102.98
631.61	60.85
631.76	65.54
631.91	4.68
632.06	81.92
632.21	16.38
632.36	163.84
632.51	84.26
632.66	105.32
632.81	102.98
632.96	93.62
633.10	56.17
633.25	95.96
633.40	107.66
633.55	0.00
633.70	86.60
633.85	70.22
634.00	42.13
634.15	32.77
634.30	9.36
634.45	37.45
634.60	58.51
634.75	25.75
634.90	32.77
635.05	72.56
635.19	60.85
635.34	51.49
635.49	67.88
635.64	91.28
635.79	65.54
635.94	25.75
636.09	49.15
636.24	0.00
636.39	21.06
636.53	39.79
636.68	65.54
636.83	74.90
636.98	0.00
637.13	98.30
637.28	60.85
637.43	18.72
637.57	77.24
637.72	131.07
637.87	91.28
638.02	44.47
638.17	42.13
638.32	102.98
638.46	2.34
638.61	0.00
638.76	77.24
638.91	44.47
639.06	63.19
639.20	81.92
639.35	133.41
639.50	37.45
639.65	51.49
639.80	14.04
639.94	18.72
640.09	0.00
640.24	105.32
640.39	51.49
640.54	58.51
640.68	70.22
640.83	102.98
640.98	84.26
641.13	32.77
641.27	49.15
641.42	44.47
641.57	117.03
641.72	21.06
641.86	72.56
642.01	77.24
642.16	44.47
642.31	93.62
642.45	77.24
642.60	25.75
642.75	86.60
642.90	105.32
643.04	67.88
643.19	79.58
643.34	30.43
643.48	42.13
643.63	84.26
643.78	35.11
643.93	46.81
644.07	0.00
644.22	63.19
644.37	86.60
644.51	11.70
644.66	100.64
644.81	56.17
644.95	91.28
645.10	35.11
645.25	88.94
645.39	46.81
645.54	53.83
645.69	79.58
645.83	79.58
645.98	58.51
646.13	60.85
646.27	77.24
646.42	119.37
646.57	95.96
646.71	58.51
646.86	35.11
647.00	119.37
647.15	100.64
647.30	9.36
647.44	102.98
647.59	88.94
647.74	39.79
647.88	35.11
648.03	23.41
648.17	56.17
648.32	81.92
648.47	4.68
648.61	25.75
648.76	72.56
648.90	44.47
649.05	32.77
649.20	30.43
649.34	56.17
649.49	86.60
649.63	60.85
649.78	58.51
649.92	18.72
650.07	105.32
650.21	46.81
650.36	81.92
650.51	11.70
650.65	23.41
650.80	74.90
650.94	49.15
651.09	65.54
651.23	14.04
651.38	65.54
651.52	67.88
651.67	58.51
651.81	53.83
651.96	14.04
652.10	16.38
652.25	100.64
652.39	72.56
652.54	88.94
652.68	63.19
652.83	53.83
652.97	70.22
653.12	63.19
653.26	46.81
653.41	11.70
653.55	25.75
653.70	65.54
653.84	91.28
653.99	18.72
654.13	88.94
654.27	46.81
654.42	0.00
654.56	49.15
654.71	63.19
654.85	46.81
655.00	0.00
655.14	56.17
655.29	0.00
655.43	37.45
655.57	7.02
655.72	187.24
655.86	46.81
656.01	37.45
656.15	70.22
656.30	51.49
656.44	46.81
656.58	56.17
656.73	39.79
656.87	39.79
657.01	49.15
657.16	100.64
657.30	65.54
657.45	0.00
657.59	0.00
657.73	77.24
657.88	79.58
658.02	44.47
658.16	18.72
658.31	112.35
658.45	56.17
658.60	30.43
658.74	74.90
658.88	86.60
659.03	86.60
659.17	107.66
659.31	81.92
659.46	74.90
659.60	74.90
659.74	51.49
659.89	67.88
660.03	119.37
660.17	53.83
660.32	79.58
660.46	74.90
660.60	51.49
660.74	23.41
660.89	18.72
661.03	56.17
661.17	72.56
661.32	0.00
661.46	32.77
661.60	16.38
661.74	28.09
661.89	37.45
662.03	4.68
662.17	21.06
662.31	11.70
662.46	63.19
662.60	4.68
662.74	72.56
662.88	28.09
663.03	88.94
663.17	7.02
663.31	131.07
663.45	37.45
663.60	44.47
663.74	72.56
663.88	60.85
664.02	81.92
664.17	53.83
664.31	21.06
664.45	35.11
664.59	44.47
664.73	79.58
664.88	105.32
665.02	112.35
665.16	133.41
665.30	9.36
665.44	44.47
665.59	56.17
665.73	30.43
665.87	53.83
666.01	37.45
666.15	72.56
666.29	65.54
666.44	102.98
666.58	161.50
666.72	30.43
666.86	51.49
667.00	110.01
667.14	88.94
667.28	93.62
667.43	35.11
667.57	51.49
667.71	49.15
667.85	37.45
667.99	49.15
668.13	63.19
668.27	28.09
668.41	98.30
668.56	70.22
668.70	37.45
668.84	44.47
668.98	30.43
669.12	21.06
669.26	32.77
669.40	88.94
669.54	60.85
669.68	44.47
669.82	63.19
669.96	65.54
670.10	107.66
670.25	56.17
670.39	32.77
670.53	0.00
670.67	28.09
670.81	16.38
670.95	35.11
671.09	65.54
671.23	72.56
671.37	74.90
671.51	9.36
671.65	0.00
671.79	9.36
671.93	0.00
672.07	74.90
672.21	9.36
672.35	46.81
672.49	25.75
672.63	7.02
672.77	28.09
672.91	49.15
673.05	18.72
673.19	35.11
673.33	49.15
673.47	7.02
673.61	110.01
673.75	51.49
673.89	72.56
674.03	70.22
674.17	63.19
674.31	58.51
674.45	100.64
674.59	46.81
674.73	70.22
674.87	37.45
675.01	84.26
675.15	42.13
675.29	77.24
675.43	65.54
675.56	74.90
675.70	74.90
675.84	14.04
675.98	107.66
676.12	42.13
676.26	7.02
676.40	7.02
676.54	65.54
676.68	44.47
676.82	84.26
676.96	14.04
677.10	63.19
677.23	0.00
677.37	14.04
677.51	56.17
677.65	35.11
677.79	65.54
677.93	100.64
678.07	84.26
678.21	11.70
678.34	37.45
678.48	58.51
678.62	7.02
678.76	32.77
678.90	28.09
679.04	65.54
679.18	11.70
679.31	21.06
679.45	117.03
679.59	0.00
679.73	32.77
679.87	44.47
680.00	56.17
680.14	100.64
680.28	72.56
680.42	65.54
680.56	81.92
680.70	0.00
680.83	86.60
680.97	95.96
681.11	65.54
681.25	60.85
681.39	60.85
681.52	58.51
681.66	35.11
681.80	63.19
681.94	0.00
682.07	0.00
682.21	37.45
682.35	25.75
682.49	30.43
682.62	0.00
682.76	16.38
682.90	37.45
683.04	53.83
683.17	105.32
683.31	46.81
683.45	60.85
683.59	37.45
683.72	93.62
683.86	102.98
684.00	0.00
684.13	32.77
684.27	2.34
684.41	88.94
684.55	42.13
684.68	49.15
684.82	74.90
684.96	77.24
685.09	49.15
685.23	56.17
685.37	91.28
685.50	32.77
685.64	4.68
685.78	102.98
685.91	39.79
686.05	60.85
686.19	0.00
686.32	98.30
686.46	49.15
686.60	49.15
686.73	56.17
686.87	53.83
687.01	0.00
687.14	53.83
687.28	63.19
687.42	42.13
687.55	9.36
687.69	53.83
687.82	60.85
687.96	18.72
688.10	67.88
688.23	30.43
688.37	18.72
688.50	72.56
688.64	23.41
688.78	0.00
688.91	74.90
689.05	23.41
689.18	39.79
689.32	72.56
689.46	100.64
689.59	25.75
689.73	42.13
689.86	51.49
690.00	44.47
690.13	25.75
690.27	51.49
690.41	65.54
690.54	0.00
690.68	37.45
690.81	9.36
690.95	0.00
691.08	30.43
691.22	49.15
691.35	112.35
691.49	14.04
691.62	0.00
691.76	0.00
691.89	0.00
692.03	9.36
692.16	46.81
692.30	30.43
692.43	100.64
692.57	49.15
692.70	0.00
692.84	60.85
692.97	9.36
693.11	28.09
693.24	16.38
693.38	74.90
693.51	56.17
693.65	60.85
693.78	0.00
693.92	0.00
694.05	140.43
694.19	16.38
694.32	53.83
694.45	0.00
694.59	0.00
694.72	23.41
694.86	0.00
694.99	0.00
695.13	0.00
695.26	11.70
695.39	14.04
695.53	0.00
695.66	37.45
695.80	42.13
695.93	70.22
696.07	0.00
696.20	25.75
696.33	72.56
696.47	25.75
696.60	16.38
696.73	9.36
696.87	67.88
697.00	0.00
697.14	9.36
697.27	11.70
697.40	0.00
697.54	49.15
697.67	49.15
697.80	65.54
697.94	70.22
698.07	37.45
698.21	28.09
698.34	46.81
698.47	51.49
698.61	7.02
698.74	51.49
698.87	9.36
699.01	77.24
699.14	7.02
699.27	39.79
699.40	56.17
699.54	63.19
699.67	67.88
699.80	0.00
699.94	58.51
700.07	46.81
700.20	37.45
700.34	56.17
700.47	65.54
700.60	25.75
700.73	77.24
700.87	37.45
701.00	81.92
701.13	72.56
701.26	37.45
701.40	46.81
701.53	0.00
701.66	0.00
701.79	86.60
701.93	21.06
702.06	56.17
702.19	65.54
702.32	0.00
702.46	51.49
702.59	2.34
702.72	35.11
702.85	11.70
702.99	18.72
703.12	0.00
703.25	72.56
703.38	0.00
703.51	21.06
703.65	49.15
703.78	0.00
703.91	4.68
704.04	30.43
704.17	0.00
704.31	18.72
704.44	53.83
704.57	42.13
704.70	0.00
704.83	0.00
704.96	0.00
705.10	0.00
705.23	63.19
>>>>>End Processed Spectral Data<<<<<
