SpectraSuite Data File
++++++++++++++++++++++++++++++++++++
Date: Fri Oct 04 12:13:37 GMT-05:00 2013
User: price-jones
Dark Spectrum Present: No
Reference Spectrum Present: No
Number of Sampled Component Spectra: 1
Spectrometers: USB2+H05261
Integration Time (usec): 10000 (USB2+H05261)
Spectra Averaged: 1 (USB2+H05261)
Boxcar Smoothing: 0 (USB2+H05261)
Correct for Electrical Dark: No (USB2+H05261)
Strobe/Lamp Enabled: No (USB2+H05261)
Correct for Detector Non-linearity: No (USB2+H05261)
Correct for Stray Light: No (USB2+H05261)
Number of Pixels in Processed Spectrum: 2048
>>>>>Begin Processed Spectral Data<<<<<
365.73	0.00
365.92	0.00
366.12	0.00
366.32	0.00
366.52	0.00
366.72	0.00
366.91	0.00
367.11	0.00
367.31	0.00
367.51	0.00
367.70	0.00
367.90	0.00
368.10	0.00
368.30	0.00
368.49	0.00
368.69	0.00
368.89	0.00
369.09	0.00
369.28	0.00
369.48	0.00
369.68	0.00
369.87	0.00
370.07	0.00
370.27	0.00
370.47	0.00
370.66	0.00
370.86	25.75
371.06	53.83
371.25	0.00
371.45	0.00
371.65	0.00
371.84	0.00
372.04	44.47
372.24	0.00
372.44	0.00
372.63	28.09
372.83	37.45
373.03	0.00
373.22	93.62
373.42	44.47
373.62	81.92
373.81	0.00
374.01	30.43
374.21	0.00
374.40	30.43
374.60	72.56
374.79	63.19
374.99	21.06
375.19	0.00
375.38	7.02
375.58	14.04
375.78	32.77
375.97	77.24
376.17	21.06
376.37	44.47
376.56	0.00
376.76	77.24
376.95	81.92
377.15	0.00
377.35	88.94
377.54	25.75
377.74	0.00
377.93	37.45
378.13	63.19
378.33	16.38
378.52	0.00
378.72	49.15
378.91	30.43
379.11	39.79
379.31	21.06
379.50	81.92
379.70	25.75
379.89	42.13
380.09	21.06
380.28	37.45
380.48	0.00
380.68	44.47
380.87	0.00
381.07	11.70
381.26	32.77
381.46	44.47
381.65	14.04
381.85	0.00
382.04	21.06
382.24	110.01
382.43	42.13
382.63	46.81
382.83	9.36
383.02	0.00
383.22	58.51
383.41	25.75
383.61	0.00
383.80	44.47
384.00	16.38
384.19	16.38
384.39	86.60
384.58	9.36
384.78	0.00
384.97	0.00
385.17	44.47
385.36	70.22
385.56	0.00
385.75	0.00
385.95	37.45
386.14	79.58
386.34	30.43
386.53	0.00
386.72	88.94
386.92	30.43
387.11	44.47
387.31	11.70
387.50	67.88
387.70	35.11
387.89	25.75
388.09	102.98
388.28	56.17
388.48	9.36
388.67	4.68
388.86	135.75
389.06	46.81
389.25	18.72
389.45	25.75
389.64	0.00
389.84	0.00
390.03	0.00
390.22	37.45
390.42	65.54
390.61	39.79
390.81	0.00
391.00	0.00
391.19	0.00
391.39	21.06
391.58	0.00
391.78	35.11
391.97	37.45
392.16	53.83
392.36	65.54
392.55	25.75
392.75	32.77
392.94	21.06
393.13	0.00
393.33	95.96
393.52	18.72
393.71	117.03
393.91	0.00
394.10	67.88
394.29	11.70
394.49	60.85
394.68	42.13
394.88	53.83
395.07	35.11
395.26	72.56
395.46	128.73
395.65	21.06
395.84	9.36
396.04	25.75
396.23	0.00
396.42	39.79
396.62	0.00
396.81	2.34
397.00	0.00
397.19	16.38
397.39	14.04
397.58	30.43
397.77	0.00
397.97	42.13
398.16	21.06
398.35	42.13
398.55	0.00
398.74	65.54
398.93	23.41
399.12	42.13
399.32	86.60
399.51	9.36
399.70	0.00
399.90	9.36
400.09	0.00
400.28	37.45
400.47	88.94
400.67	21.06
400.86	16.38
401.05	18.72
401.24	4.68
401.44	35.11
401.63	46.81
401.82	70.22
402.01	35.11
402.21	2.34
402.40	0.00
402.59	30.43
402.78	21.06
402.97	42.13
403.17	30.43
403.36	7.02
403.55	58.51
403.74	77.24
403.93	28.09
404.13	0.00
404.32	7.02
404.51	32.77
404.70	0.00
404.89	35.11
405.09	44.47
405.28	51.49
405.47	0.00
405.66	30.43
405.85	21.06
406.05	46.81
406.24	0.00
406.43	56.17
406.62	70.22
406.81	23.41
407.00	35.11
407.20	0.00
407.39	60.85
407.58	21.06
407.77	152.13
407.96	135.75
408.15	21.06
408.34	37.45
408.54	0.00
408.73	35.11
408.92	23.41
409.11	51.49
409.30	46.81
409.49	0.00
409.68	2.34
409.87	14.04
410.07	32.77
410.26	2.34
410.45	58.51
410.64	58.51
410.83	23.41
411.02	0.00
411.21	0.00
411.40	28.09
411.59	2.34
411.78	9.36
411.98	65.54
412.17	56.17
412.36	74.90
412.55	0.00
412.74	88.94
412.93	18.72
413.12	65.54
413.31	117.03
413.50	0.00
413.69	35.11
413.88	58.51
414.07	14.04
414.26	44.47
414.45	53.83
414.64	0.00
414.83	0.00
415.02	32.77
415.22	53.83
415.41	91.28
415.60	30.43
415.79	58.51
415.98	35.11
416.17	30.43
416.36	2.34
416.55	0.00
416.74	86.60
416.93	65.54
417.12	4.68
417.31	39.79
417.50	77.24
417.69	74.90
417.88	53.83
418.07	49.15
418.26	23.41
418.45	0.00
418.64	39.79
418.83	28.09
419.02	18.72
419.21	9.36
419.39	74.90
419.58	9.36
419.77	60.85
419.96	16.38
420.15	81.92
420.34	60.85
420.53	81.92
420.72	60.85
420.91	7.02
421.10	30.43
421.29	39.79
421.48	21.06
421.67	18.72
421.86	53.83
422.05	84.26
422.24	0.00
422.43	93.62
422.61	81.92
422.80	79.58
422.99	18.72
423.18	18.72
423.37	23.41
423.56	39.79
423.75	4.68
423.94	21.06
424.13	63.19
424.32	23.41
424.50	7.02
424.69	46.81
424.88	28.09
425.07	91.28
425.26	0.00
425.45	42.13
425.64	49.15
425.83	63.19
426.01	2.34
426.20	84.26
426.39	0.00
426.58	44.47
426.77	28.09
426.96	0.00
427.15	81.92
427.33	63.19
427.52	86.60
427.71	46.81
427.90	65.54
428.09	28.09
428.28	2.34
428.46	7.02
428.65	25.75
428.84	56.17
429.03	60.85
429.22	42.13
429.40	79.58
429.59	58.51
429.78	49.15
429.97	58.51
430.16	49.15
430.34	86.60
430.53	86.60
430.72	51.49
430.91	42.13
431.10	9.36
431.28	72.56
431.47	0.00
431.66	63.19
431.85	56.17
432.03	51.49
432.22	0.00
432.41	14.04
432.60	18.72
432.79	77.24
432.97	0.00
433.16	63.19
433.35	65.54
433.54	51.49
433.72	44.47
433.91	56.17
434.10	4.68
434.28	131.07
434.47	39.79
434.66	37.45
434.85	42.13
435.03	0.00
435.22	39.79
435.41	70.22
435.59	102.98
435.78	63.19
435.97	37.45
436.16	0.00
436.34	79.58
436.53	81.92
436.72	0.00
436.90	32.77
437.09	72.56
437.28	44.47
437.46	37.45
437.65	65.54
437.84	60.85
438.02	16.38
438.21	77.24
438.40	35.11
438.58	81.92
438.77	72.56
438.96	100.64
439.14	46.81
439.33	0.00
439.52	105.32
439.70	107.66
439.89	30.43
440.08	84.26
440.26	30.43
440.45	63.19
440.63	44.47
440.82	117.03
441.01	58.51
441.19	67.88
441.38	100.64
441.57	91.28
441.75	60.85
441.94	53.83
442.12	0.00
442.31	70.22
442.50	105.32
442.68	44.47
442.87	37.45
443.05	46.81
443.24	42.13
443.43	23.41
443.61	25.75
443.80	30.43
443.98	0.00
444.17	16.38
444.35	25.75
444.54	30.43
444.73	35.11
444.91	44.47
445.10	46.81
445.28	65.54
445.47	39.79
445.65	70.22
445.84	11.70
446.02	70.22
446.21	0.00
446.39	44.47
446.58	65.54
446.77	58.51
446.95	9.36
447.14	0.00
447.32	42.13
447.51	105.32
447.69	23.41
447.88	110.01
448.06	46.81
448.25	124.05
448.43	21.06
448.62	30.43
448.80	39.79
448.99	105.32
449.17	51.49
449.36	39.79
449.54	65.54
449.73	0.00
449.91	0.00
450.10	67.88
450.28	0.00
450.46	56.17
450.65	25.75
450.83	25.75
451.02	53.83
451.20	67.88
451.39	37.45
451.57	30.43
451.76	44.47
451.94	39.79
452.13	88.94
452.31	107.66
452.49	44.47
452.68	135.75
452.86	7.02
453.05	74.90
453.23	49.15
453.42	32.77
453.60	58.51
453.78	28.09
453.97	4.68
454.15	37.45
454.34	0.00
454.52	42.13
454.70	98.30
454.89	93.62
455.07	49.15
455.26	42.13
455.44	9.36
455.62	35.11
455.81	67.88
455.99	46.81
456.17	81.92
456.36	65.54
456.54	79.58
456.73	18.72
456.91	81.92
457.09	65.54
457.28	84.26
457.46	77.24
457.64	9.36
457.83	16.38
458.01	51.49
458.19	58.51
458.38	37.45
458.56	2.34
458.74	39.79
458.93	11.70
459.11	9.36
459.29	7.02
459.48	51.49
459.66	25.75
459.84	72.56
460.03	16.38
460.21	51.49
460.39	4.68
460.57	117.03
460.76	56.17
460.94	16.38
461.12	42.13
461.31	60.85
461.49	65.54
461.67	0.00
461.85	65.54
462.04	42.13
462.22	107.66
462.40	39.79
462.59	37.45
462.77	28.09
462.95	56.17
463.13	0.00
463.32	23.41
463.50	84.26
463.68	16.38
463.86	0.00
464.05	72.56
464.23	70.22
464.41	39.79
464.59	44.47
464.78	60.85
464.96	79.58
465.14	0.00
465.32	18.72
465.50	60.85
465.69	168.52
465.87	32.77
466.05	65.54
466.23	32.77
466.41	37.45
466.60	65.54
466.78	91.28
466.96	23.41
467.14	95.96
467.32	32.77
467.51	37.45
467.69	37.45
467.87	86.60
468.05	86.60
468.23	30.43
468.41	72.56
468.60	0.00
468.78	56.17
468.96	56.17
469.14	0.00
469.32	18.72
469.50	72.56
469.69	102.98
469.87	0.00
470.05	32.77
470.23	44.47
470.41	11.70
470.59	119.37
470.77	72.56
470.95	16.38
471.14	74.90
471.32	51.49
471.50	95.96
471.68	72.56
471.86	44.47
472.04	32.77
472.22	63.19
472.40	51.49
472.58	74.90
472.77	86.60
472.95	11.70
473.13	42.13
473.31	128.73
473.49	23.41
473.67	72.56
473.85	86.60
474.03	0.00
474.21	0.00
474.39	77.24
474.57	37.45
474.75	63.19
474.93	91.28
475.12	70.22
475.30	65.54
475.48	7.02
475.66	86.60
475.84	49.15
476.02	114.69
476.20	112.35
476.38	32.77
476.56	84.26
476.74	70.22
476.92	93.62
477.10	128.73
477.28	65.54
477.46	131.07
477.64	0.00
477.82	39.79
478.00	9.36
478.18	35.11
478.36	93.62
478.54	25.75
478.72	9.36
478.90	74.90
479.08	0.00
479.26	7.02
479.44	77.24
479.62	91.28
479.80	86.60
479.98	32.77
480.16	56.17
480.34	135.75
480.52	42.13
480.70	42.13
480.88	154.48
481.06	32.77
481.24	53.83
481.41	37.45
481.59	51.49
481.77	81.92
481.95	58.51
482.13	161.50
482.31	79.58
482.49	9.36
482.67	39.79
482.85	0.00
483.03	102.98
483.21	88.94
483.39	65.54
483.57	53.83
483.74	88.94
483.92	86.60
484.10	79.58
484.28	74.90
484.46	110.01
484.64	63.19
484.82	0.00
485.00	0.00
485.18	135.75
485.35	95.96
485.53	39.79
485.71	86.60
485.89	11.70
486.07	35.11
486.25	42.13
486.43	88.94
486.61	44.47
486.78	77.24
486.96	79.58
487.14	131.07
487.32	63.19
487.50	95.96
487.68	63.19
487.85	72.56
488.03	18.72
488.21	81.92
488.39	67.88
488.57	91.28
488.75	91.28
488.92	37.45
489.10	79.58
489.28	65.54
489.46	88.94
489.64	30.43
489.81	105.32
489.99	117.03
490.17	2.34
490.35	128.73
490.53	79.58
490.70	112.35
490.88	65.54
491.06	65.54
491.24	119.37
491.41	119.37
491.59	65.54
491.77	117.03
491.95	30.43
492.13	46.81
492.30	91.28
492.48	135.75
492.66	86.60
492.84	60.85
493.01	11.70
493.19	86.60
493.37	58.51
493.54	98.30
493.72	107.66
493.90	72.56
494.08	117.03
494.25	44.47
494.43	114.69
494.61	60.85
494.79	46.81
494.96	58.51
495.14	74.90
495.32	49.15
495.49	117.03
495.67	42.13
495.85	95.96
496.02	65.54
496.20	46.81
496.38	79.58
496.55	58.51
496.73	60.85
496.91	86.60
497.09	74.90
497.26	11.70
497.44	79.58
497.62	28.09
497.79	142.77
497.97	37.45
498.14	72.56
498.32	98.30
498.50	88.94
498.67	133.41
498.85	119.37
499.03	35.11
499.20	65.54
499.38	53.83
499.56	110.01
499.73	49.15
499.91	44.47
500.08	14.04
500.26	49.15
500.44	98.30
500.61	65.54
500.79	9.36
500.97	161.50
501.14	88.94
501.32	100.64
501.49	119.37
501.67	28.09
501.84	16.38
502.02	0.00
502.20	21.06
502.37	159.16
502.55	79.58
502.72	102.98
502.90	93.62
503.07	107.66
503.25	51.49
503.43	49.15
503.60	37.45
503.78	74.90
503.95	51.49
504.13	70.22
504.30	84.26
504.48	60.85
504.65	39.79
504.83	37.45
505.01	135.75
505.18	60.85
505.36	98.30
505.53	0.00
505.71	84.26
505.88	58.51
506.06	35.11
506.23	88.94
506.41	37.45
506.58	149.79
506.76	102.98
506.93	49.15
507.11	37.45
507.28	79.58
507.46	67.88
507.63	91.28
507.81	105.32
507.98	44.47
508.16	60.85
508.33	77.24
508.50	112.35
508.68	72.56
508.85	107.66
509.03	0.00
509.20	114.69
509.38	93.62
509.55	70.22
509.73	121.71
509.90	114.69
510.08	53.83
510.25	58.51
510.42	121.71
510.60	18.72
510.77	56.17
510.95	63.19
511.12	0.00
511.30	110.01
511.47	63.19
511.64	28.09
511.82	133.41
511.99	16.38
512.17	124.05
512.34	21.06
512.51	63.19
512.69	35.11
512.86	100.64
513.04	25.75
513.21	107.66
513.38	23.41
513.56	93.62
513.73	42.13
513.90	91.28
514.08	65.54
514.25	126.39
514.43	88.94
514.60	100.64
514.77	84.26
514.95	56.17
515.12	124.05
515.29	95.96
515.47	37.45
515.64	60.85
515.81	133.41
515.99	93.62
516.16	39.79
516.33	98.30
516.51	51.49
516.68	60.85
516.85	30.43
517.03	60.85
517.20	147.45
517.37	124.05
517.54	131.07
517.72	128.73
517.89	58.51
518.06	81.92
518.24	98.30
518.41	32.77
518.58	28.09
518.75	121.71
518.93	60.85
519.10	0.00
519.27	70.22
519.45	163.84
519.62	0.00
519.79	11.70
519.96	72.56
520.14	93.62
520.31	194.26
520.48	110.01
520.65	133.41
520.83	140.43
521.00	77.24
521.17	53.83
521.34	37.45
521.52	60.85
521.69	110.01
521.86	44.47
522.03	95.96
522.20	110.01
522.38	21.06
522.55	91.28
522.72	112.35
522.89	110.01
523.07	0.00
523.24	121.71
523.41	74.90
523.58	46.81
523.75	42.13
523.92	170.86
524.10	119.37
524.27	98.30
524.44	133.41
524.61	142.77
524.78	131.07
524.96	81.92
525.13	149.79
525.30	112.35
525.47	93.62
525.64	77.24
525.81	21.06
525.98	79.58
526.16	86.60
526.33	37.45
526.50	23.41
526.67	42.13
526.84	93.62
527.01	53.83
527.18	49.15
527.36	77.24
527.53	0.00
527.70	79.58
527.87	72.56
528.04	2.34
528.21	67.88
528.38	126.39
528.55	84.26
528.72	126.39
528.89	70.22
529.07	138.09
529.24	77.24
529.41	74.90
529.58	117.03
529.75	0.00
529.92	121.71
530.09	114.69
530.26	60.85
530.43	140.43
530.60	18.72
530.77	51.49
530.94	39.79
531.11	77.24
531.28	105.32
531.46	112.35
531.63	102.98
531.80	93.62
531.97	70.22
532.14	65.54
532.31	91.28
532.48	81.92
532.65	88.94
532.82	53.83
532.99	102.98
533.16	121.71
533.33	86.60
533.50	86.60
533.67	46.81
533.84	74.90
534.01	88.94
534.18	98.30
534.35	46.81
534.52	86.60
534.69	84.26
534.86	23.41
535.03	25.75
535.20	84.26
535.37	18.72
535.54	91.28
535.71	56.17
535.88	95.96
536.05	35.11
536.22	23.41
536.38	74.90
536.55	95.96
536.72	121.71
536.89	42.13
537.06	51.49
537.23	88.94
537.40	154.48
537.57	74.90
537.74	51.49
537.91	42.13
538.08	117.03
538.25	39.79
538.42	60.85
538.59	126.39
538.75	128.73
538.92	93.62
539.09	114.69
539.26	72.56
539.43	35.11
539.60	114.69
539.77	58.51
539.94	91.28
540.11	39.79
540.28	58.51
540.44	77.24
540.61	60.85
540.78	114.69
540.95	124.05
541.12	70.22
541.29	46.81
541.46	100.64
541.62	117.03
541.79	79.58
541.96	77.24
542.13	70.22
542.30	121.71
542.47	60.85
542.63	149.79
542.80	84.26
542.97	23.41
543.14	77.24
543.31	110.01
543.48	63.19
543.64	56.17
543.81	0.00
543.98	74.90
544.15	84.26
544.32	124.05
544.48	42.13
544.65	72.56
544.82	28.09
544.99	152.13
545.16	63.19
545.32	18.72
545.49	65.54
545.66	107.66
545.83	133.41
546.00	117.03
546.16	180.22
546.33	114.69
546.50	77.24
546.67	81.92
546.83	88.94
547.00	121.71
547.17	91.28
547.34	121.71
547.50	37.45
547.67	63.19
547.84	63.19
548.00	126.39
548.17	56.17
548.34	126.39
548.51	63.19
548.67	145.11
548.84	30.43
549.01	35.11
549.18	51.49
549.34	53.83
549.51	93.62
549.68	95.96
549.84	98.30
550.01	91.28
550.18	84.26
550.34	53.83
550.51	30.43
550.68	128.73
550.84	23.41
551.01	98.30
551.18	70.22
551.34	77.24
551.51	53.83
551.68	98.30
551.84	49.15
552.01	70.22
552.18	39.79
552.34	51.49
552.51	79.58
552.68	42.13
552.84	49.15
553.01	70.22
553.18	65.54
553.34	49.15
553.51	72.56
553.67	4.68
553.84	23.41
554.01	81.92
554.17	58.51
554.34	84.26
554.51	56.17
554.67	51.49
554.84	60.85
555.00	93.62
555.17	135.75
555.33	49.15
555.50	67.88
555.67	46.81
555.83	65.54
556.00	0.00
556.16	117.03
556.33	77.24
556.50	88.94
556.66	67.88
556.83	70.22
556.99	163.84
557.16	105.32
557.32	91.28
557.49	46.81
557.65	135.75
557.82	95.96
557.98	86.60
558.15	112.35
558.32	100.64
558.48	147.45
558.65	46.81
558.81	51.49
558.98	121.71
559.14	107.66
559.31	77.24
559.47	42.13
559.64	53.83
559.80	124.05
559.97	72.56
560.13	39.79
560.30	60.85
560.46	102.98
560.63	142.77
560.79	133.41
560.96	121.71
561.12	74.90
561.29	28.09
561.45	53.83
561.61	135.75
561.78	77.24
561.94	49.15
562.11	53.83
562.27	84.26
562.44	95.96
562.60	81.92
562.77	46.81
562.93	56.17
563.10	72.56
563.26	110.01
563.42	37.45
563.59	79.58
563.75	18.72
563.92	74.90
564.08	145.11
564.24	121.71
564.41	149.79
564.57	58.51
564.74	58.51
564.90	95.96
565.07	53.83
565.23	46.81
565.39	56.17
565.56	91.28
565.72	86.60
565.88	79.58
566.05	7.02
566.21	0.00
566.38	28.09
566.54	63.19
566.70	25.75
566.87	74.90
567.03	0.00
567.19	84.26
567.36	67.88
567.52	0.00
567.68	147.45
567.85	100.64
568.01	100.64
568.17	84.26
568.34	100.64
568.50	77.24
568.66	18.72
568.83	110.01
568.99	112.35
569.15	79.58
569.32	35.11
569.48	0.00
569.64	110.01
569.81	74.90
569.97	60.85
570.13	49.15
570.30	77.24
570.46	39.79
570.62	42.13
570.78	86.60
570.95	65.54
571.11	65.54
571.27	77.24
571.43	23.41
571.60	77.24
571.76	138.09
571.92	30.43
572.09	114.69
572.25	98.30
572.41	65.54
572.57	84.26
572.74	149.79
572.90	79.58
573.06	65.54
573.22	72.56
573.38	51.49
573.55	110.01
573.71	117.03
573.87	112.35
574.03	0.00
574.20	114.69
574.36	93.62
574.52	28.09
574.68	44.47
574.84	46.81
575.01	65.54
575.17	28.09
575.33	88.94
575.49	63.19
575.65	25.75
575.82	53.83
575.98	100.64
576.14	86.60
576.30	51.49
576.46	91.28
576.62	163.84
576.79	84.26
576.95	39.79
577.11	81.92
577.27	32.77
577.43	77.24
577.59	117.03
577.75	145.11
577.92	133.41
578.08	39.79
578.24	49.15
578.40	91.28
578.56	102.98
578.72	53.83
578.88	72.56
579.04	16.38
579.21	121.71
579.37	35.11
579.53	124.05
579.69	114.69
579.85	72.56
580.01	56.17
580.17	70.22
580.33	53.83
580.49	74.90
580.65	91.28
580.82	79.58
580.98	11.70
581.14	51.49
581.30	37.45
581.46	72.56
581.62	100.64
581.78	72.56
581.94	79.58
582.10	117.03
582.26	18.72
582.42	49.15
582.58	14.04
582.74	140.43
582.90	145.11
583.06	67.88
583.22	74.90
583.38	95.96
583.54	142.77
583.70	86.60
583.86	23.41
584.02	77.24
584.18	138.09
584.34	72.56
584.50	44.47
584.66	140.43
584.82	63.19
584.98	201.29
585.14	100.64
585.30	63.19
585.46	81.92
585.62	56.17
585.78	65.54
585.94	98.30
586.10	51.49
586.26	77.24
586.42	32.77
586.58	65.54
586.74	16.38
586.90	72.56
587.06	72.56
587.22	46.81
587.38	98.30
587.54	44.47
587.70	56.17
587.86	53.83
588.02	65.54
588.18	88.94
588.34	84.26
588.49	14.04
588.65	23.41
588.81	105.32
588.97	74.90
589.13	46.81
589.29	98.30
589.45	2.34
589.61	88.94
589.77	53.83
589.93	56.17
590.08	42.13
590.24	93.62
590.40	98.30
590.56	79.58
590.72	21.06
590.88	86.60
591.04	128.73
591.20	70.22
591.35	65.54
591.51	140.43
591.67	63.19
591.83	0.00
591.99	0.00
592.15	67.88
592.31	53.83
592.46	0.00
592.62	49.15
592.78	60.85
592.94	0.00
593.10	39.79
593.26	135.75
593.41	93.62
593.57	60.85
593.73	105.32
593.89	70.22
594.05	105.32
594.20	110.01
594.36	93.62
594.52	70.22
594.68	100.64
594.84	30.43
594.99	23.41
595.15	95.96
595.31	84.26
595.47	95.96
595.62	100.64
595.78	51.49
595.94	142.77
596.10	42.13
596.25	79.58
596.41	39.79
596.57	70.22
596.73	42.13
596.88	65.54
597.04	79.58
597.20	0.00
597.36	9.36
597.51	7.02
597.67	37.45
597.83	30.43
597.99	74.90
598.14	81.92
598.30	32.77
598.46	91.28
598.61	67.88
598.77	79.58
598.93	44.47
599.09	131.07
599.24	100.64
599.40	53.83
599.56	37.45
599.71	53.83
599.87	77.24
600.03	105.32
600.18	95.96
600.34	42.13
600.50	0.00
600.65	16.38
600.81	70.22
600.97	72.56
601.12	107.66
601.28	131.07
601.44	72.56
601.59	95.96
601.75	88.94
601.91	0.00
602.06	32.77
602.22	77.24
602.37	0.00
602.53	72.56
602.69	114.69
602.84	128.73
603.00	112.35
603.16	86.60
603.31	93.62
603.47	11.70
603.62	49.15
603.78	60.85
603.94	72.56
604.09	0.00
604.25	63.19
604.40	51.49
604.56	91.28
604.71	98.30
604.87	42.13
605.03	77.24
605.18	91.28
605.34	88.94
605.49	81.92
605.65	46.81
605.80	37.45
605.96	142.77
606.12	56.17
606.27	0.00
606.43	65.54
606.58	102.98
606.74	70.22
606.89	95.96
607.05	60.85
607.20	84.26
607.36	91.28
607.51	56.17
607.67	84.26
607.82	74.90
607.98	44.47
608.13	70.22
608.29	102.98
608.44	100.64
608.60	0.00
608.75	105.32
608.91	86.60
609.06	100.64
609.22	67.88
609.37	110.01
609.53	42.13
609.68	140.43
609.84	79.58
609.99	77.24
610.15	102.98
610.30	18.72
610.46	63.19
610.61	39.79
610.76	56.17
610.92	60.85
611.07	70.22
611.23	79.58
611.38	39.79
611.54	114.69
611.69	79.58
611.84	35.11
612.00	7.02
612.15	65.54
612.31	58.51
612.46	46.81
612.62	53.83
612.77	4.68
612.92	56.17
613.08	53.83
613.23	56.17
613.39	67.88
613.54	124.05
613.69	114.69
613.85	53.83
614.00	88.94
614.15	25.75
614.31	77.24
614.46	58.51
614.62	67.88
614.77	72.56
614.92	42.13
615.08	98.30
615.23	70.22
615.38	58.51
615.54	56.17
615.69	84.26
615.84	35.11
616.00	60.85
616.15	35.11
616.30	77.24
616.46	84.26
616.61	63.19
616.76	35.11
616.92	39.79
617.07	107.66
617.22	56.17
617.37	35.11
617.53	42.13
617.68	53.83
617.83	145.11
617.99	7.02
618.14	81.92
618.29	63.19
618.45	7.02
618.60	11.70
618.75	23.41
618.90	39.79
619.06	0.00
619.21	67.88
619.36	84.26
619.51	21.06
619.67	126.39
619.82	86.60
619.97	46.81
620.12	21.06
620.28	74.90
620.43	25.75
620.58	63.19
620.73	35.11
620.89	114.69
621.04	0.00
621.19	39.79
621.34	23.41
621.49	32.77
621.65	86.60
621.80	93.62
621.95	95.96
622.10	65.54
622.25	91.28
622.41	105.32
622.56	56.17
622.71	58.51
622.86	25.75
623.01	93.62
623.16	117.03
623.32	56.17
623.47	51.49
623.62	86.60
623.77	51.49
623.92	140.43
624.07	81.92
624.23	86.60
624.38	35.11
624.53	39.79
624.68	79.58
624.83	51.49
624.98	42.13
625.13	95.96
625.29	88.94
625.44	37.45
625.59	30.43
625.74	37.45
625.89	65.54
626.04	0.00
626.19	53.83
626.34	0.00
626.49	9.36
626.65	110.01
626.80	147.45
626.95	86.60
627.10	18.72
627.25	51.49
627.40	70.22
627.55	67.88
627.70	56.17
627.85	44.47
628.00	23.41
628.15	79.58
628.30	53.83
628.45	74.90
628.60	131.07
628.76	79.58
628.91	18.72
629.06	0.00
629.21	70.22
629.36	65.54
629.51	23.41
629.66	117.03
629.81	84.26
629.96	7.02
630.11	56.17
630.26	7.02
630.41	14.04
630.56	30.43
630.71	14.04
630.86	51.49
631.01	63.19
631.16	60.85
631.31	70.22
631.46	37.45
631.61	74.90
631.76	74.90
631.91	51.49
632.06	117.03
632.21	49.15
632.36	0.00
632.51	58.51
632.66	30.43
632.81	70.22
632.96	105.32
633.10	46.81
633.25	25.75
633.40	119.37
633.55	53.83
633.70	46.81
633.85	72.56
634.00	51.49
634.15	67.88
634.30	98.30
634.45	32.77
634.60	81.92
634.75	107.66
634.90	114.69
635.05	0.00
635.19	53.83
635.34	39.79
635.49	91.28
635.64	23.41
635.79	86.60
635.94	51.49
636.09	91.28
636.24	98.30
636.39	11.70
636.53	72.56
636.68	168.52
636.83	25.75
636.98	110.01
637.13	102.98
637.28	63.19
637.43	11.70
637.57	11.70
637.72	77.24
637.87	35.11
638.02	37.45
638.17	100.64
638.32	51.49
638.46	95.96
638.61	149.79
638.76	51.49
638.91	79.58
639.06	121.71
639.20	30.43
639.35	11.70
639.50	81.92
639.65	86.60
639.80	84.26
639.94	74.90
640.09	74.90
640.24	49.15
640.39	56.17
640.54	121.71
640.68	46.81
640.83	28.09
640.98	67.88
641.13	21.06
641.27	107.66
641.42	121.71
641.57	49.15
641.72	67.88
641.86	100.64
642.01	93.62
642.16	0.00
642.31	0.00
642.45	91.28
642.60	28.09
642.75	35.11
642.90	42.13
643.04	35.11
643.19	16.38
643.34	74.90
643.48	126.39
643.63	16.38
643.78	0.00
643.93	72.56
644.07	56.17
644.22	11.70
644.37	25.75
644.51	0.00
644.66	0.00
644.81	14.04
644.95	70.22
645.10	9.36
645.25	91.28
645.39	72.56
645.54	28.09
645.69	0.00
645.83	42.13
645.98	119.37
646.13	74.90
646.27	91.28
646.42	65.54
646.57	60.85
646.71	44.47
646.86	95.96
647.00	44.47
647.15	117.03
647.30	16.38
647.44	0.00
647.59	58.51
647.74	18.72
647.88	0.00
648.03	0.00
648.17	25.75
648.32	77.24
648.47	28.09
648.61	70.22
648.76	44.47
648.90	67.88
649.05	0.00
649.20	49.15
649.34	70.22
649.49	0.00
649.63	65.54
649.78	70.22
649.92	51.49
650.07	0.00
650.21	77.24
650.36	60.85
650.51	117.03
650.65	32.77
650.80	46.81
650.94	44.47
651.09	46.81
651.23	28.09
651.38	44.47
651.52	0.00
651.67	46.81
651.81	32.77
651.96	72.56
652.10	56.17
652.25	39.79
652.39	42.13
652.54	77.24
652.68	67.88
652.83	86.60
652.97	119.37
653.12	49.15
653.26	77.24
653.41	37.45
653.55	25.75
653.70	28.09
653.84	30.43
653.99	74.90
654.13	86.60
654.27	0.00
654.42	128.73
654.56	39.79
654.71	53.83
654.85	74.90
655.00	25.75
655.14	37.45
655.29	0.00
655.43	35.11
655.57	77.24
655.72	0.00
655.86	35.11
656.01	0.00
656.15	67.88
656.30	135.75
656.44	42.13
656.58	81.92
656.73	65.54
656.87	84.26
657.01	28.09
657.16	46.81
657.30	46.81
657.45	70.22
657.59	63.19
657.73	16.38
657.88	53.83
658.02	60.85
658.16	39.79
658.31	11.70
658.45	30.43
658.60	39.79
658.74	81.92
658.88	39.79
659.03	95.96
659.17	58.51
659.31	0.00
659.46	56.17
659.60	74.90
659.74	51.49
659.89	105.32
660.03	46.81
660.17	91.28
660.32	117.03
660.46	91.28
660.60	51.49
660.74	74.90
660.89	81.92
661.03	44.47
661.17	9.36
661.32	60.85
661.46	44.47
661.60	7.02
661.74	77.24
661.89	9.36
662.03	0.00
662.17	46.81
662.31	93.62
662.46	37.45
662.60	39.79
662.74	84.26
662.88	56.17
663.03	58.51
663.17	56.17
663.31	11.70
663.45	46.81
663.60	14.04
663.74	63.19
663.88	16.38
664.02	42.13
664.17	0.00
664.31	84.26
664.45	0.00
664.59	9.36
664.73	0.00
664.88	39.79
665.02	21.06
665.16	32.77
665.30	35.11
665.44	81.92
665.59	14.04
665.73	42.13
665.87	0.00
666.01	65.54
666.15	65.54
666.29	107.66
666.44	60.85
666.58	44.47
666.72	46.81
666.86	107.66
667.00	16.38
667.14	65.54
667.28	35.11
667.43	30.43
667.57	14.04
667.71	77.24
667.85	70.22
667.99	149.79
668.13	65.54
668.27	107.66
668.41	14.04
668.56	58.51
668.70	23.41
668.84	77.24
668.98	35.11
669.12	23.41
669.26	95.96
669.40	46.81
669.54	58.51
669.68	63.19
669.82	72.56
669.96	21.06
670.10	74.90
670.25	39.79
670.39	9.36
670.53	25.75
670.67	2.34
670.81	42.13
670.95	16.38
671.09	77.24
671.23	60.85
671.37	51.49
671.51	21.06
671.65	65.54
671.79	37.45
671.93	44.47
672.07	58.51
672.21	42.13
672.35	0.00
672.49	81.92
672.63	60.85
672.77	56.17
672.91	32.77
673.05	65.54
673.19	23.41
673.33	95.96
673.47	58.51
673.61	100.64
673.75	114.69
673.89	112.35
674.03	46.81
674.17	14.04
674.31	100.64
674.45	74.90
674.59	49.15
674.73	67.88
674.87	128.73
675.01	0.00
675.15	0.00
675.29	56.17
675.43	30.43
675.56	7.02
675.70	53.83
675.84	46.81
675.98	0.00
676.12	0.00
676.26	0.00
676.40	0.00
676.54	67.88
676.68	128.73
676.82	63.19
676.96	23.41
677.10	79.58
677.23	81.92
677.37	14.04
677.51	56.17
677.65	149.79
677.79	84.26
677.93	30.43
678.07	70.22
678.21	0.00
678.34	9.36
678.48	42.13
678.62	9.36
678.76	51.49
678.90	107.66
679.04	100.64
679.18	67.88
679.31	107.66
679.45	44.47
679.59	67.88
679.73	88.94
679.87	98.30
680.00	4.68
680.14	58.51
680.28	133.41
680.42	9.36
680.56	0.00
680.70	93.62
680.83	63.19
680.97	74.90
681.11	39.79
681.25	46.81
681.39	46.81
681.52	72.56
681.66	79.58
681.80	100.64
681.94	18.72
682.07	37.45
682.21	70.22
682.35	44.47
682.49	37.45
682.62	65.54
682.76	23.41
682.90	39.79
683.04	98.30
683.17	100.64
683.31	0.00
683.45	35.11
683.59	91.28
683.72	49.15
683.86	72.56
684.00	11.70
684.13	81.92
684.27	100.64
684.41	91.28
684.55	28.09
684.68	79.58
684.82	67.88
684.96	65.54
685.09	81.92
685.23	72.56
685.37	32.77
685.50	79.58
685.64	14.04
685.78	95.96
685.91	9.36
686.05	91.28
686.19	51.49
686.32	51.49
686.46	0.00
686.60	11.70
686.73	107.66
686.87	25.75
687.01	60.85
687.14	88.94
687.28	14.04
687.42	0.00
687.55	74.90
687.69	44.47
687.82	25.75
687.96	0.00
688.10	37.45
688.23	58.51
688.37	28.09
688.50	30.43
688.64	58.51
688.78	93.62
688.91	67.88
689.05	0.00
689.18	58.51
689.32	25.75
689.46	46.81
689.59	93.62
689.73	51.49
689.86	60.85
690.00	95.96
690.13	42.13
690.27	67.88
690.41	74.90
690.54	84.26
690.68	37.45
690.81	42.13
690.95	30.43
691.08	35.11
691.22	53.83
691.35	49.15
691.49	0.00
691.62	14.04
691.76	23.41
691.89	0.00
692.03	25.75
692.16	28.09
692.30	23.41
692.43	25.75
692.57	65.54
692.70	23.41
692.84	21.06
692.97	0.00
693.11	56.17
693.24	63.19
693.38	0.00
693.51	72.56
693.65	74.90
693.78	35.11
693.92	46.81
694.05	0.00
694.19	56.17
694.32	39.79
694.45	28.09
694.59	60.85
694.72	56.17
694.86	32.77
694.99	30.43
695.13	4.68
695.26	63.19
695.39	53.83
695.53	72.56
695.66	67.88
695.80	0.00
695.93	35.11
696.07	44.47
696.20	0.00
696.33	46.81
696.47	58.51
696.60	21.06
696.73	32.77
696.87	4.68
697.00	74.90
697.14	0.00
697.27	39.79
697.40	51.49
697.54	77.24
697.67	42.13
697.80	23.41
697.94	2.34
698.07	44.47
698.21	4.68
698.34	0.00
698.47	63.19
698.61	25.75
698.74	70.22
698.87	42.13
699.01	4.68
699.14	51.49
699.27	81.92
699.40	65.54
699.54	77.24
699.67	42.13
699.80	23.41
699.94	77.24
700.07	63.19
700.20	0.00
700.34	16.38
700.47	0.00
700.60	23.41
700.73	37.45
700.87	74.90
701.00	46.81
701.13	0.00
701.26	35.11
701.40	28.09
701.53	35.11
701.66	0.00
701.79	81.92
701.93	25.75
702.06	63.19
702.19	28.09
702.32	32.77
702.46	0.00
702.59	0.00
702.72	100.64
702.85	7.02
702.99	110.01
703.12	2.34
703.25	23.41
703.38	35.11
703.51	58.51
703.65	53.83
703.78	4.68
703.91	2.34
704.04	30.43
704.17	0.00
704.31	30.43
704.44	7.02
704.57	37.45
704.70	114.69
704.83	9.36
704.96	42.13
705.10	53.83
705.23	0.00
>>>>>End Processed Spectral Data<<<<<
