SpectraSuite Data File
++++++++++++++++++++++++++++++++++++
Date: Fri Oct 04 12:13:30 GMT-05:00 2013
User: price-jones
Dark Spectrum Present: No
Reference Spectrum Present: No
Number of Sampled Component Spectra: 1
Spectrometers: USB2+H05261
Integration Time (usec): 10000 (USB2+H05261)
Spectra Averaged: 1 (USB2+H05261)
Boxcar Smoothing: 0 (USB2+H05261)
Correct for Electrical Dark: No (USB2+H05261)
Strobe/Lamp Enabled: No (USB2+H05261)
Correct for Detector Non-linearity: No (USB2+H05261)
Correct for Stray Light: No (USB2+H05261)
Number of Pixels in Processed Spectrum: 2048
>>>>>Begin Processed Spectral Data<<<<<
365.73	46.81
365.92	46.81
366.12	46.81
366.32	0.00
366.52	0.00
366.72	0.00
366.91	0.00
367.11	0.00
367.31	0.00
367.51	0.00
367.70	0.00
367.90	0.00
368.10	0.00
368.30	0.00
368.49	0.00
368.69	0.00
368.89	0.00
369.09	0.00
369.28	0.00
369.48	0.00
369.68	0.00
369.87	0.00
370.07	0.00
370.27	0.00
370.47	0.00
370.66	0.00
370.86	9.36
371.06	0.00
371.25	9.36
371.45	0.00
371.65	0.00
371.84	2.34
372.04	9.36
372.24	0.00
372.44	21.06
372.63	21.06
372.83	9.36
373.03	0.00
373.22	0.00
373.42	0.00
373.62	0.00
373.81	0.00
374.01	138.09
374.21	16.38
374.40	44.47
374.60	42.13
374.79	39.79
374.99	135.75
375.19	67.88
375.38	56.17
375.58	39.79
375.78	28.09
375.97	70.22
376.17	46.81
376.37	21.06
376.56	37.45
376.76	0.00
376.95	23.41
377.15	16.38
377.35	0.00
377.54	39.79
377.74	53.83
377.93	28.09
378.13	0.00
378.33	58.51
378.52	51.49
378.72	4.68
378.91	7.02
379.11	95.96
379.31	2.34
379.50	65.54
379.70	0.00
379.89	2.34
380.09	0.00
380.28	42.13
380.48	0.00
380.68	0.00
380.87	0.00
381.07	51.49
381.26	0.00
381.46	25.75
381.65	35.11
381.85	46.81
382.04	23.41
382.24	0.00
382.43	23.41
382.63	0.00
382.83	30.43
383.02	0.00
383.22	28.09
383.41	0.00
383.61	63.19
383.80	0.00
384.00	16.38
384.19	0.00
384.39	0.00
384.58	0.00
384.78	72.56
384.97	4.68
385.17	16.38
385.36	35.11
385.56	56.17
385.75	63.19
385.95	21.06
386.14	100.64
386.34	28.09
386.53	16.38
386.72	9.36
386.92	25.75
387.11	0.00
387.31	0.00
387.50	56.17
387.70	0.00
387.89	0.00
388.09	72.56
388.28	35.11
388.48	35.11
388.67	0.00
388.86	25.75
389.06	30.43
389.25	28.09
389.45	81.92
389.64	63.19
389.84	4.68
390.03	53.83
390.22	37.45
390.42	7.02
390.61	56.17
390.81	0.00
391.00	0.00
391.19	0.00
391.39	23.41
391.58	0.00
391.78	81.92
391.97	49.15
392.16	0.00
392.36	0.00
392.55	0.00
392.75	2.34
392.94	14.04
393.13	23.41
393.33	44.47
393.52	42.13
393.71	65.54
393.91	9.36
394.10	25.75
394.29	18.72
394.49	9.36
394.68	0.00
394.88	30.43
395.07	2.34
395.26	0.00
395.46	0.00
395.65	81.92
395.84	37.45
396.04	0.00
396.23	16.38
396.42	37.45
396.62	53.83
396.81	37.45
397.00	0.00
397.19	14.04
397.39	23.41
397.58	39.79
397.77	23.41
397.97	28.09
398.16	42.13
398.35	23.41
398.55	9.36
398.74	35.11
398.93	51.49
399.12	18.72
399.32	0.00
399.51	39.79
399.70	16.38
399.90	30.43
400.09	25.75
400.28	0.00
400.47	35.11
400.67	23.41
400.86	16.38
401.05	23.41
401.24	14.04
401.44	14.04
401.63	117.03
401.82	58.51
402.01	46.81
402.21	53.83
402.40	30.43
402.59	42.13
402.78	11.70
402.97	16.38
403.17	49.15
403.36	49.15
403.55	32.77
403.74	16.38
403.93	0.00
404.13	86.60
404.32	14.04
404.51	30.43
404.70	56.17
404.89	42.13
405.09	16.38
405.28	0.00
405.47	39.79
405.66	32.77
405.85	0.00
406.05	25.75
406.24	37.45
406.43	39.79
406.62	25.75
406.81	0.00
407.00	21.06
407.20	23.41
407.39	37.45
407.58	18.72
407.77	84.26
407.96	0.00
408.15	4.68
408.34	72.56
408.54	30.43
408.73	0.00
408.92	81.92
409.11	37.45
409.30	7.02
409.49	56.17
409.68	35.11
409.87	16.38
410.07	35.11
410.26	14.04
410.45	4.68
410.64	44.47
410.83	0.00
411.02	77.24
411.21	0.00
411.40	32.77
411.59	28.09
411.78	56.17
411.98	88.94
412.17	102.98
412.36	53.83
412.55	21.06
412.74	16.38
412.93	25.75
413.12	0.00
413.31	18.72
413.50	0.00
413.69	135.75
413.88	2.34
414.07	81.92
414.26	53.83
414.45	16.38
414.64	44.47
414.83	46.81
415.02	0.00
415.22	39.79
415.41	0.00
415.60	0.00
415.79	46.81
415.98	28.09
416.17	0.00
416.36	18.72
416.55	0.00
416.74	105.32
416.93	58.51
417.12	37.45
417.31	70.22
417.50	49.15
417.69	60.85
417.88	53.83
418.07	0.00
418.26	16.38
418.45	112.35
418.64	0.00
418.83	0.00
419.02	16.38
419.21	18.72
419.39	9.36
419.58	0.00
419.77	79.58
419.96	46.81
420.15	25.75
420.34	58.51
420.53	37.45
420.72	0.00
420.91	28.09
421.10	0.00
421.29	0.00
421.48	23.41
421.67	0.00
421.86	49.15
422.05	39.79
422.24	128.73
422.43	58.51
422.61	35.11
422.80	0.00
422.99	37.45
423.18	9.36
423.37	28.09
423.56	46.81
423.75	0.00
423.94	35.11
424.13	0.00
424.32	91.28
424.50	53.83
424.69	0.00
424.88	70.22
425.07	30.43
425.26	65.54
425.45	37.45
425.64	58.51
425.83	37.45
426.01	4.68
426.20	46.81
426.39	28.09
426.58	0.00
426.77	18.72
426.96	0.00
427.15	18.72
427.33	0.00
427.52	21.06
427.71	2.34
427.90	4.68
428.09	63.19
428.28	70.22
428.46	7.02
428.65	0.00
428.84	0.00
429.03	0.00
429.22	0.00
429.40	0.00
429.59	0.00
429.78	16.38
429.97	7.02
430.16	16.38
430.34	0.00
430.53	91.28
430.72	23.41
430.91	37.45
431.10	11.70
431.28	37.45
431.47	0.00
431.66	51.49
431.85	23.41
432.03	58.51
432.22	74.90
432.41	0.00
432.60	60.85
432.79	0.00
432.97	11.70
433.16	42.13
433.35	21.06
433.54	25.75
433.72	21.06
433.91	44.47
434.10	49.15
434.28	32.77
434.47	0.00
434.66	72.56
434.85	74.90
435.03	58.51
435.22	46.81
435.41	65.54
435.59	7.02
435.78	2.34
435.97	30.43
436.16	0.00
436.34	39.79
436.53	72.56
436.72	4.68
436.90	35.11
437.09	39.79
437.28	42.13
437.46	117.03
437.65	53.83
437.84	0.00
438.02	72.56
438.21	60.85
438.40	44.47
438.58	0.00
438.77	39.79
438.96	9.36
439.14	0.00
439.33	119.37
439.52	0.00
439.70	46.81
439.89	23.41
440.08	21.06
440.26	46.81
440.45	0.00
440.63	2.34
440.82	16.38
441.01	37.45
441.19	72.56
441.38	51.49
441.57	0.00
441.75	30.43
441.94	56.17
442.12	53.83
442.31	63.19
442.50	0.00
442.68	81.92
442.87	81.92
443.05	23.41
443.24	28.09
443.43	0.00
443.61	49.15
443.80	25.75
443.98	4.68
444.17	77.24
444.35	0.00
444.54	9.36
444.73	81.92
444.91	23.41
445.10	35.11
445.28	56.17
445.47	18.72
445.65	9.36
445.84	0.00
446.02	0.00
446.21	44.47
446.39	32.77
446.58	0.00
446.77	58.51
446.95	0.00
447.14	23.41
447.32	35.11
447.51	2.34
447.69	11.70
447.88	93.62
448.06	91.28
448.25	112.35
448.43	0.00
448.62	49.15
448.80	32.77
448.99	58.51
449.17	53.83
449.36	7.02
449.54	79.58
449.73	21.06
449.91	110.01
450.10	35.11
450.28	0.00
450.46	32.77
450.65	56.17
450.83	7.02
451.02	35.11
451.20	35.11
451.39	35.11
451.57	37.45
451.76	23.41
451.94	58.51
452.13	21.06
452.31	0.00
452.49	0.00
452.68	0.00
452.86	0.00
453.05	37.45
453.23	128.73
453.42	74.90
453.60	7.02
453.78	35.11
453.97	0.00
454.15	37.45
454.34	51.49
454.52	51.49
454.70	28.09
454.89	21.06
455.07	9.36
455.26	16.38
455.44	39.79
455.62	105.32
455.81	39.79
455.99	0.00
456.17	0.00
456.36	0.00
456.54	53.83
456.73	21.06
456.91	0.00
457.09	74.90
457.28	44.47
457.46	11.70
457.64	0.00
457.83	49.15
458.01	60.85
458.19	81.92
458.38	0.00
458.56	74.90
458.74	25.75
458.93	0.00
459.11	0.00
459.29	42.13
459.48	0.00
459.66	88.94
459.84	93.62
460.03	28.09
460.21	72.56
460.39	23.41
460.57	0.00
460.76	93.62
460.94	0.00
461.12	23.41
461.31	37.45
461.49	14.04
461.67	53.83
461.85	32.77
462.04	0.00
462.22	86.60
462.40	35.11
462.59	30.43
462.77	65.54
462.95	18.72
463.13	37.45
463.32	39.79
463.50	49.15
463.68	11.70
463.86	53.83
464.05	0.00
464.23	14.04
464.41	63.19
464.59	0.00
464.78	32.77
464.96	25.75
465.14	63.19
465.32	107.66
465.50	53.83
465.69	2.34
465.87	0.00
466.05	30.43
466.23	117.03
466.41	23.41
466.60	0.00
466.78	65.54
466.96	63.19
467.14	32.77
467.32	42.13
467.51	77.24
467.69	86.60
467.87	46.81
468.05	16.38
468.23	0.00
468.41	9.36
468.60	14.04
468.78	42.13
468.96	23.41
469.14	30.43
469.32	2.34
469.50	14.04
469.69	72.56
469.87	9.36
470.05	72.56
470.23	32.77
470.41	42.13
470.59	81.92
470.77	14.04
470.95	28.09
471.14	100.64
471.32	7.02
471.50	39.79
471.68	114.69
471.86	60.85
472.04	16.38
472.22	44.47
472.40	74.90
472.58	105.32
472.77	28.09
472.95	161.50
473.13	30.43
473.31	60.85
473.49	53.83
473.67	44.47
473.85	51.49
474.03	0.00
474.21	63.19
474.39	42.13
474.57	79.58
474.75	35.11
474.93	46.81
475.12	124.05
475.30	67.88
475.48	67.88
475.66	4.68
475.84	21.06
476.02	39.79
476.20	74.90
476.38	4.68
476.56	28.09
476.74	79.58
476.92	63.19
477.10	14.04
477.28	14.04
477.46	117.03
477.64	63.19
477.82	18.72
478.00	81.92
478.18	58.51
478.36	49.15
478.54	74.90
478.72	102.98
478.90	35.11
479.08	0.00
479.26	46.81
479.44	53.83
479.62	95.96
479.80	124.05
479.98	0.00
480.16	21.06
480.34	105.32
480.52	30.43
480.70	14.04
480.88	102.98
481.06	44.47
481.24	21.06
481.41	56.17
481.59	39.79
481.77	46.81
481.95	60.85
482.13	81.92
482.31	49.15
482.49	74.90
482.67	0.00
482.85	98.30
483.03	77.24
483.21	39.79
483.39	14.04
483.57	84.26
483.74	53.83
483.92	0.00
484.10	28.09
484.28	9.36
484.46	79.58
484.64	49.15
484.82	42.13
485.00	65.54
485.18	81.92
485.35	0.00
485.53	0.00
485.71	0.00
485.89	21.06
486.07	0.00
486.25	11.70
486.43	44.47
486.61	14.04
486.78	0.00
486.96	53.83
487.14	0.00
487.32	46.81
487.50	32.77
487.68	0.00
487.85	0.00
488.03	65.54
488.21	81.92
488.39	88.94
488.57	0.00
488.75	25.75
488.92	42.13
489.10	67.88
489.28	49.15
489.46	63.19
489.64	0.00
489.81	9.36
489.99	21.06
490.17	112.35
490.35	93.62
490.53	77.24
490.70	11.70
490.88	49.15
491.06	35.11
491.24	0.00
491.41	18.72
491.59	91.28
491.77	86.60
491.95	7.02
492.13	42.13
492.30	0.00
492.48	88.94
492.66	67.88
492.84	58.51
493.01	18.72
493.19	14.04
493.37	51.49
493.54	37.45
493.72	60.85
493.90	49.15
494.08	30.43
494.25	81.92
494.43	0.00
494.61	35.11
494.79	46.81
494.96	0.00
495.14	28.09
495.32	14.04
495.49	0.00
495.67	42.13
495.85	25.75
496.02	0.00
496.20	49.15
496.38	44.47
496.55	39.79
496.73	14.04
496.91	49.15
497.09	39.79
497.26	0.00
497.44	0.00
497.62	49.15
497.79	91.28
497.97	49.15
498.14	51.49
498.32	74.90
498.50	0.00
498.67	0.00
498.85	49.15
499.03	46.81
499.20	58.51
499.38	2.34
499.56	65.54
499.73	39.79
499.91	16.38
500.08	32.77
500.26	0.00
500.44	0.00
500.61	51.49
500.79	56.17
500.97	4.68
501.14	79.58
501.32	77.24
501.49	44.47
501.67	16.38
501.84	0.00
502.02	114.69
502.20	77.24
502.37	70.22
502.55	49.15
502.72	2.34
502.90	56.17
503.07	0.00
503.25	9.36
503.43	42.13
503.60	37.45
503.78	2.34
503.95	117.03
504.13	0.00
504.30	23.41
504.48	0.00
504.65	56.17
504.83	0.00
505.01	100.64
505.18	88.94
505.36	67.88
505.53	0.00
505.71	147.45
505.88	46.81
506.06	0.00
506.23	21.06
506.41	0.00
506.58	0.00
506.76	32.77
506.93	51.49
507.11	23.41
507.28	9.36
507.46	25.75
507.63	53.83
507.81	9.36
507.98	86.60
508.16	102.98
508.33	0.00
508.50	16.38
508.68	21.06
508.85	37.45
509.03	60.85
509.20	56.17
509.38	112.35
509.55	16.38
509.73	46.81
509.90	21.06
510.08	0.00
510.25	39.79
510.42	32.77
510.60	0.00
510.77	65.54
510.95	14.04
511.12	105.32
511.30	65.54
511.47	0.00
511.64	0.00
511.82	93.62
511.99	51.49
512.17	18.72
512.34	21.06
512.51	0.00
512.69	49.15
512.86	9.36
513.04	0.00
513.21	42.13
513.38	0.00
513.56	11.70
513.73	7.02
513.90	35.11
514.08	35.11
514.25	9.36
514.43	63.19
514.60	58.51
514.77	0.00
514.95	0.00
515.12	28.09
515.29	91.28
515.47	56.17
515.64	51.49
515.81	44.47
515.99	0.00
516.16	28.09
516.33	46.81
516.51	18.72
516.68	39.79
516.85	58.51
517.03	4.68
517.20	46.81
517.37	112.35
517.54	58.51
517.72	86.60
517.89	0.00
518.06	18.72
518.24	28.09
518.41	21.06
518.58	70.22
518.75	95.96
518.93	44.47
519.10	81.92
519.27	74.90
519.45	25.75
519.62	23.41
519.79	7.02
519.96	81.92
520.14	53.83
520.31	32.77
520.48	0.00
520.65	0.00
520.83	0.00
521.00	53.83
521.17	0.00
521.34	86.60
521.52	0.00
521.69	37.45
521.86	0.00
522.03	16.38
522.20	74.90
522.38	56.17
522.55	44.47
522.72	53.83
522.89	65.54
523.07	88.94
523.24	0.00
523.41	35.11
523.58	0.00
523.75	60.85
523.92	9.36
524.10	46.81
524.27	51.49
524.44	77.24
524.61	105.32
524.78	16.38
524.96	39.79
525.13	32.77
525.30	11.70
525.47	0.00
525.64	74.90
525.81	30.43
525.98	23.41
526.16	42.13
526.33	93.62
526.50	23.41
526.67	0.00
526.84	0.00
527.01	28.09
527.18	79.58
527.36	49.15
527.53	18.72
527.70	74.90
527.87	0.00
528.04	84.26
528.21	79.58
528.38	49.15
528.55	37.45
528.72	91.28
528.89	86.60
529.07	60.85
529.24	0.00
529.41	23.41
529.58	25.75
529.75	51.49
529.92	11.70
530.09	37.45
530.26	58.51
530.43	53.83
530.60	67.88
530.77	4.68
530.94	74.90
531.11	91.28
531.28	63.19
531.46	110.01
531.63	9.36
531.80	74.90
531.97	70.22
532.14	49.15
532.31	28.09
532.48	30.43
532.65	79.58
532.82	18.72
532.99	100.64
533.16	11.70
533.33	42.13
533.50	77.24
533.67	2.34
533.84	70.22
534.01	23.41
534.18	112.35
534.35	30.43
534.52	88.94
534.69	126.39
534.86	39.79
535.03	25.75
535.20	0.00
535.37	53.83
535.54	9.36
535.71	77.24
535.88	37.45
536.05	37.45
536.22	53.83
536.38	23.41
536.55	18.72
536.72	46.81
536.89	65.54
537.06	0.00
537.23	98.30
537.40	44.47
537.57	0.00
537.74	32.77
537.91	58.51
538.08	56.17
538.25	37.45
538.42	11.70
538.59	79.58
538.75	0.00
538.92	35.11
539.09	67.88
539.26	25.75
539.43	135.75
539.60	39.79
539.77	56.17
539.94	117.03
540.11	0.00
540.28	39.79
540.44	60.85
540.61	25.75
540.78	58.51
540.95	100.64
541.12	117.03
541.29	25.75
541.46	0.00
541.62	11.70
541.79	28.09
541.96	46.81
542.13	72.56
542.30	0.00
542.47	32.77
542.63	0.00
542.80	0.00
542.97	4.68
543.14	2.34
543.31	53.83
543.48	0.00
543.64	60.85
543.81	39.79
543.98	30.43
544.15	63.19
544.32	63.19
544.48	32.77
544.65	42.13
544.82	14.04
544.99	86.60
545.16	25.75
545.32	0.00
545.49	4.68
545.66	77.24
545.83	4.68
546.00	0.00
546.16	0.00
546.33	14.04
546.50	58.51
546.67	18.72
546.83	37.45
547.00	25.75
547.17	4.68
547.34	56.17
547.50	107.66
547.67	58.51
547.84	77.24
548.00	46.81
548.17	30.43
548.34	72.56
548.51	4.68
548.67	67.88
548.84	56.17
549.01	0.00
549.18	44.47
549.34	46.81
549.51	70.22
549.68	79.58
549.84	35.11
550.01	49.15
550.18	67.88
550.34	112.35
550.51	25.75
550.68	14.04
550.84	25.75
551.01	72.56
551.18	114.69
551.34	25.75
551.51	0.00
551.68	37.45
551.84	67.88
552.01	0.00
552.18	0.00
552.34	0.00
552.51	39.79
552.68	0.00
552.84	58.51
553.01	51.49
553.18	65.54
553.34	25.75
553.51	7.02
553.67	102.98
553.84	39.79
554.01	23.41
554.17	30.43
554.34	37.45
554.51	67.88
554.67	51.49
554.84	28.09
555.00	11.70
555.17	0.00
555.33	9.36
555.50	77.24
555.67	30.43
555.83	42.13
556.00	37.45
556.16	86.60
556.33	46.81
556.50	2.34
556.66	79.58
556.83	60.85
556.99	16.38
557.16	21.06
557.32	51.49
557.49	35.11
557.65	0.00
557.82	91.28
557.98	32.77
558.15	11.70
558.32	93.62
558.48	100.64
558.65	95.96
558.81	37.45
558.98	0.00
559.14	25.75
559.31	63.19
559.47	37.45
559.64	56.17
559.80	18.72
559.97	74.90
560.13	28.09
560.30	98.30
560.46	18.72
560.63	56.17
560.79	18.72
560.96	23.41
561.12	42.13
561.29	53.83
561.45	30.43
561.61	74.90
561.78	4.68
561.94	0.00
562.11	39.79
562.27	0.00
562.44	42.13
562.60	102.98
562.77	79.58
562.93	44.47
563.10	60.85
563.26	72.56
563.42	25.75
563.59	11.70
563.75	39.79
563.92	107.66
564.08	0.00
564.24	2.34
564.41	14.04
564.57	14.04
564.74	51.49
564.90	56.17
565.07	49.15
565.23	28.09
565.39	9.36
565.56	39.79
565.72	25.75
565.88	25.75
566.05	16.38
566.21	51.49
566.38	49.15
566.54	23.41
566.70	14.04
566.87	102.98
567.03	105.32
567.19	0.00
567.36	105.32
567.52	23.41
567.68	0.00
567.85	14.04
568.01	74.90
568.17	84.26
568.34	32.77
568.50	39.79
568.66	86.60
568.83	65.54
568.99	49.15
569.15	56.17
569.32	46.81
569.48	72.56
569.64	60.85
569.81	0.00
569.97	0.00
570.13	0.00
570.30	44.47
570.46	126.39
570.62	30.43
570.78	49.15
570.95	7.02
571.11	25.75
571.27	53.83
571.43	0.00
571.60	28.09
571.76	51.49
571.92	56.17
572.09	0.00
572.25	39.79
572.41	110.01
572.57	63.19
572.74	21.06
572.90	56.17
573.06	11.70
573.22	67.88
573.38	79.58
573.55	44.47
573.71	18.72
573.87	46.81
574.03	65.54
574.20	0.00
574.36	74.90
574.52	7.02
574.68	0.00
574.84	23.41
575.01	46.81
575.17	53.83
575.33	86.60
575.49	58.51
575.65	0.00
575.82	65.54
575.98	119.37
576.14	11.70
576.30	53.83
576.46	39.79
576.62	30.43
576.79	79.58
576.95	32.77
577.11	0.00
577.27	25.75
577.43	65.54
577.59	35.11
577.75	46.81
577.92	74.90
578.08	67.88
578.24	23.41
578.40	35.11
578.56	58.51
578.72	44.47
578.88	67.88
579.04	105.32
579.21	32.77
579.37	39.79
579.53	56.17
579.69	65.54
579.85	0.00
580.01	86.60
580.17	28.09
580.33	56.17
580.49	32.77
580.65	23.41
580.82	25.75
580.98	0.00
581.14	16.38
581.30	16.38
581.46	4.68
581.62	135.75
581.78	18.72
581.94	16.38
582.10	25.75
582.26	58.51
582.42	28.09
582.58	60.85
582.74	74.90
582.90	37.45
583.06	49.15
583.22	51.49
583.38	58.51
583.54	4.68
583.70	46.81
583.86	0.00
584.02	67.88
584.18	70.22
584.34	44.47
584.50	23.41
584.66	521.94
584.82	840.25
584.98	983.02
585.14	809.83
585.30	498.53
585.46	348.74
585.62	243.42
585.78	161.50
585.94	56.17
586.10	28.09
586.26	51.49
586.42	72.56
586.58	74.90
586.74	86.60
586.90	63.19
587.06	42.13
587.22	37.45
587.38	53.83
587.54	18.72
587.70	102.98
587.86	163.84
588.02	112.35
588.18	74.90
588.34	25.75
588.49	46.81
588.65	81.92
588.81	11.70
588.97	28.09
589.13	95.96
589.29	39.79
589.45	44.47
589.61	65.54
589.77	58.51
589.93	28.09
590.08	9.36
590.24	42.13
590.40	79.58
590.56	46.81
590.72	63.19
590.88	0.00
591.04	0.00
591.20	58.51
591.35	37.45
591.51	0.00
591.67	67.88
591.83	67.88
591.99	30.43
592.15	37.45
592.31	88.94
592.46	25.75
592.62	86.60
592.78	86.60
592.94	86.60
593.10	46.81
593.26	30.43
593.41	0.00
593.57	0.00
593.73	0.00
593.89	145.11
594.05	184.90
594.20	170.86
594.36	182.56
594.52	142.77
594.68	77.24
594.84	0.00
594.99	121.71
595.15	0.00
595.31	105.32
595.47	30.43
595.62	107.66
595.78	4.68
595.94	35.11
596.10	79.58
596.25	58.51
596.41	42.13
596.57	7.02
596.73	53.83
596.88	18.72
597.04	67.88
597.20	63.19
597.36	9.36
597.51	37.45
597.67	84.26
597.83	51.49
597.99	23.41
598.14	128.73
598.30	21.06
598.46	21.06
598.61	14.04
598.77	16.38
598.93	18.72
599.09	25.75
599.24	56.17
599.40	60.85
599.56	16.38
599.71	84.26
599.87	0.00
600.03	0.00
600.18	2.34
600.34	95.96
600.50	32.77
600.65	0.00
600.81	18.72
600.97	51.49
601.12	42.13
601.28	74.90
601.44	74.90
601.59	16.38
601.75	28.09
601.91	88.94
602.06	30.43
602.22	42.13
602.37	77.24
602.53	86.60
602.69	63.19
602.84	60.85
603.00	138.09
603.16	25.75
603.31	70.22
603.47	79.58
603.62	0.00
603.78	35.11
603.94	77.24
604.09	93.62
604.25	72.56
604.40	23.41
604.56	0.00
604.71	28.09
604.87	4.68
605.03	49.15
605.18	0.00
605.34	30.43
605.49	67.88
605.65	107.66
605.80	25.75
605.96	0.00
606.12	39.79
606.27	0.00
606.43	74.90
606.58	23.41
606.74	32.77
606.89	23.41
607.05	131.07
607.20	159.16
607.36	0.00
607.51	84.26
607.67	60.85
607.82	100.64
607.98	70.22
608.13	95.96
608.29	21.06
608.44	0.00
608.60	107.66
608.75	44.47
608.91	49.15
609.06	112.35
609.22	196.60
609.37	215.33
609.53	210.65
609.68	121.71
609.84	88.94
609.99	42.13
610.15	74.90
610.30	46.81
610.46	0.00
610.61	51.49
610.76	91.28
610.92	18.72
611.07	30.43
611.23	14.04
611.38	42.13
611.54	58.51
611.69	0.00
611.84	70.22
612.00	28.09
612.15	2.34
612.31	145.11
612.46	0.00
612.62	16.38
612.77	28.09
612.92	37.45
613.08	77.24
613.23	65.54
613.39	46.81
613.54	14.04
613.69	112.35
613.85	285.55
614.00	313.63
614.15	311.29
614.31	250.44
614.46	147.45
614.62	131.07
614.77	119.37
614.92	77.24
615.08	72.56
615.23	110.01
615.38	25.75
615.54	79.58
615.69	42.13
615.84	42.13
616.00	23.41
616.15	74.90
616.30	124.05
616.46	0.00
616.61	84.26
616.76	44.47
616.92	4.68
617.07	30.43
617.22	70.22
617.37	32.77
617.53	67.88
617.68	93.62
617.83	32.77
617.99	0.00
618.14	35.11
618.29	0.00
618.45	32.77
618.60	46.81
618.75	72.56
618.90	25.75
619.06	23.41
619.21	110.01
619.36	46.81
619.51	74.90
619.67	21.06
619.82	58.51
619.97	21.06
620.12	56.17
620.28	25.75
620.43	0.00
620.58	0.00
620.73	49.15
620.89	63.19
621.04	88.94
621.19	65.54
621.34	67.88
621.49	70.22
621.65	98.30
621.80	60.85
621.95	7.02
622.10	35.11
622.25	74.90
622.41	4.68
622.56	0.00
622.71	4.68
622.86	46.81
623.01	70.22
623.16	60.85
623.32	18.72
623.47	91.28
623.62	88.94
623.77	16.38
623.92	7.02
624.07	74.90
624.23	14.04
624.38	95.96
624.53	98.30
624.68	65.54
624.83	128.73
624.98	53.83
625.13	88.94
625.29	0.00
625.44	0.00
625.59	42.13
625.74	58.51
625.89	46.81
626.04	28.09
626.19	163.84
626.34	117.03
626.49	227.03
626.65	187.24
626.80	194.26
626.95	56.17
627.10	91.28
627.25	114.69
627.40	124.05
627.55	60.85
627.70	14.04
627.85	39.79
628.00	0.00
628.15	95.96
628.30	46.81
628.45	46.81
628.60	18.72
628.76	74.90
628.91	0.00
629.06	53.83
629.21	49.15
629.36	28.09
629.51	0.00
629.66	4.68
629.81	25.75
629.96	32.77
630.11	51.49
630.26	28.09
630.41	124.05
630.56	4.68
630.71	0.00
630.86	28.09
631.01	79.58
631.16	11.70
631.31	9.36
631.46	65.54
631.61	51.49
631.76	30.43
631.91	70.22
632.06	32.77
632.21	53.83
632.36	21.06
632.51	42.13
632.66	0.00
632.81	74.90
632.96	72.56
633.10	124.05
633.25	140.43
633.40	112.35
633.55	131.07
633.70	70.22
633.85	72.56
634.00	58.51
634.15	14.04
634.30	84.26
634.45	42.13
634.60	0.00
634.75	58.51
634.90	0.00
635.05	105.32
635.19	0.00
635.34	11.70
635.49	56.17
635.64	46.81
635.79	4.68
635.94	44.47
636.09	81.92
636.24	21.06
636.39	72.56
636.53	88.94
636.68	98.30
636.83	63.19
636.98	0.00
637.13	9.36
637.28	74.90
637.43	72.56
637.57	65.54
637.72	93.62
637.87	173.20
638.02	271.50
638.17	327.68
638.32	102.98
638.46	142.77
638.61	88.94
638.76	79.58
638.91	46.81
639.06	49.15
639.20	88.94
639.35	42.13
639.50	28.09
639.65	91.28
639.80	196.60
639.94	297.25
640.09	447.04
640.24	208.31
640.39	170.86
640.54	149.79
640.68	140.43
640.83	72.56
640.98	16.38
641.13	0.00
641.27	81.92
641.42	7.02
641.57	0.00
641.72	63.19
641.86	53.83
642.01	4.68
642.16	16.38
642.31	77.24
642.45	0.00
642.60	32.77
642.75	72.56
642.90	9.36
643.04	53.83
643.19	16.38
643.34	32.77
643.48	46.81
643.63	84.26
643.78	72.56
643.93	32.77
644.07	58.51
644.22	2.34
644.37	58.51
644.51	124.05
644.66	51.49
644.81	119.37
644.95	7.02
645.10	53.83
645.25	60.85
645.39	51.49
645.54	46.81
645.69	28.09
645.83	91.28
645.98	42.13
646.13	4.68
646.27	77.24
646.42	58.51
646.57	11.70
646.71	0.00
646.86	58.51
647.00	16.38
647.15	0.00
647.30	25.75
647.44	70.22
647.59	7.02
647.74	21.06
647.88	63.19
648.03	121.71
648.17	32.77
648.32	60.85
648.47	56.17
648.61	25.75
648.76	56.17
648.90	67.88
649.05	81.92
649.20	86.60
649.34	32.77
649.49	18.72
649.63	0.00
649.78	0.00
649.92	21.06
650.07	70.22
650.21	121.71
650.36	124.05
650.51	152.13
650.65	170.86
650.80	138.09
650.94	53.83
651.09	14.04
651.23	0.00
651.38	81.92
651.52	32.77
651.67	0.00
651.81	46.81
651.96	11.70
652.10	23.41
652.25	67.88
652.39	88.94
652.54	72.56
652.68	0.00
652.83	98.30
652.97	72.56
653.12	131.07
653.26	14.04
653.41	30.43
653.55	37.45
653.70	7.02
653.84	37.45
653.99	44.47
654.13	30.43
654.27	0.00
654.42	79.58
654.56	28.09
654.71	11.70
654.85	65.54
655.00	63.19
655.14	98.30
655.29	32.77
655.43	0.00
655.57	7.02
655.72	14.04
655.86	49.15
656.01	0.00
656.15	35.11
656.30	128.73
656.44	16.38
656.58	74.90
656.73	44.47
656.87	0.00
657.01	56.17
657.16	32.77
657.30	30.43
657.45	0.00
657.59	14.04
657.73	25.75
657.88	39.79
658.02	0.00
658.16	30.43
658.31	88.94
658.45	91.28
658.60	7.02
658.74	30.43
658.88	65.54
659.03	72.56
659.17	44.47
659.31	88.94
659.46	140.43
659.60	102.98
659.74	117.03
659.89	42.13
660.03	25.75
660.17	100.64
660.32	46.81
660.46	67.88
660.60	58.51
660.74	49.15
660.89	30.43
661.03	25.75
661.17	72.56
661.32	44.47
661.46	53.83
661.60	0.00
661.74	35.11
661.89	30.43
662.03	9.36
662.17	18.72
662.31	21.06
662.46	32.77
662.60	9.36
662.74	49.15
662.88	23.41
663.03	2.34
663.17	23.41
663.31	67.88
663.45	58.51
663.60	53.83
663.74	39.79
663.88	53.83
664.02	58.51
664.17	91.28
664.31	18.72
664.45	0.00
664.59	49.15
664.73	35.11
664.88	58.51
665.02	110.01
665.16	60.85
665.30	86.60
665.44	102.98
665.59	37.45
665.73	25.75
665.87	2.34
666.01	37.45
666.15	60.85
666.29	11.70
666.44	65.54
666.58	14.04
666.72	39.79
666.86	0.00
667.00	53.83
667.14	53.83
667.28	84.26
667.43	53.83
667.57	84.26
667.71	161.50
667.85	114.69
667.99	110.01
668.13	93.62
668.27	110.01
668.41	35.11
668.56	56.17
668.70	39.79
668.84	0.00
668.98	0.00
669.12	9.36
669.26	114.69
669.40	9.36
669.54	0.00
669.68	65.54
669.82	14.04
669.96	18.72
670.10	14.04
670.25	2.34
670.39	93.62
670.53	25.75
670.67	0.00
670.81	81.92
670.95	84.26
671.09	11.70
671.23	56.17
671.37	91.28
671.51	72.56
671.65	117.03
671.79	98.30
671.93	95.96
672.07	86.60
672.21	0.00
672.35	42.13
672.49	23.41
672.63	25.75
672.77	14.04
672.91	42.13
673.05	117.03
673.19	14.04
673.33	63.19
673.47	81.92
673.61	0.00
673.75	0.00
673.89	46.81
674.03	60.85
674.17	65.54
674.31	91.28
674.45	51.49
674.59	0.00
674.73	18.72
674.87	105.32
675.01	67.88
675.15	70.22
675.29	42.13
675.43	0.00
675.56	63.19
675.70	65.54
675.84	63.19
675.98	37.45
676.12	23.41
676.26	23.41
676.40	42.13
676.54	32.77
676.68	91.28
676.82	0.00
676.96	46.81
677.10	0.00
677.23	51.49
677.37	46.81
677.51	23.41
677.65	18.72
677.79	0.00
677.93	51.49
678.07	77.24
678.21	11.70
678.34	32.77
678.48	84.26
678.62	35.11
678.76	28.09
678.90	23.41
679.04	21.06
679.18	0.00
679.31	91.28
679.45	0.00
679.59	70.22
679.73	65.54
679.87	0.00
680.00	2.34
680.14	37.45
680.28	30.43
680.42	0.00
680.56	39.79
680.70	9.36
680.83	70.22
680.97	86.60
681.11	32.77
681.25	67.88
681.39	11.70
681.52	77.24
681.66	39.79
681.80	53.83
681.94	67.88
682.07	7.02
682.21	46.81
682.35	53.83
682.49	0.00
682.62	35.11
682.76	0.00
682.90	42.13
683.04	51.49
683.17	49.15
683.31	35.11
683.45	63.19
683.59	7.02
683.72	65.54
683.86	0.00
684.00	93.62
684.13	30.43
684.27	74.90
684.41	16.38
684.55	51.49
684.68	42.13
684.82	0.00
684.96	84.26
685.09	56.17
685.23	58.51
685.37	0.00
685.50	44.47
685.64	51.49
685.78	0.00
685.91	0.00
686.05	30.43
686.19	37.45
686.32	4.68
686.46	70.22
686.60	0.00
686.73	25.75
686.87	0.00
687.01	70.22
687.14	11.70
687.28	51.49
687.42	14.04
687.55	35.11
687.69	88.94
687.82	32.77
687.96	28.09
688.10	53.83
688.23	0.00
688.37	0.00
688.50	0.00
688.64	18.72
688.78	0.00
688.91	23.41
689.05	7.02
689.18	37.45
689.32	56.17
689.46	21.06
689.59	70.22
689.73	18.72
689.86	18.72
690.00	49.15
690.13	0.00
690.27	7.02
690.41	23.41
690.54	93.62
690.68	39.79
690.81	23.41
690.95	0.00
691.08	25.75
691.22	0.00
691.35	46.81
691.49	0.00
691.62	53.83
691.76	4.68
691.89	0.00
692.03	32.77
692.16	0.00
692.30	46.81
692.43	39.79
692.57	30.43
692.70	81.92
692.84	70.22
692.97	37.45
693.11	67.88
693.24	46.81
693.38	67.88
693.51	0.00
693.65	32.77
693.78	9.36
693.92	0.00
694.05	16.38
694.19	25.75
694.32	60.85
694.45	32.77
694.59	0.00
694.72	16.38
694.86	11.70
694.99	21.06
695.13	72.56
695.26	35.11
695.39	0.00
695.53	86.60
695.66	11.70
695.80	0.00
695.93	18.72
696.07	44.47
696.20	42.13
696.33	39.79
696.47	65.54
696.60	42.13
696.73	0.00
696.87	105.32
697.00	28.09
697.14	81.92
697.27	63.19
697.40	30.43
697.54	42.13
697.67	0.00
697.80	0.00
697.94	32.77
698.07	16.38
698.21	51.49
698.34	35.11
698.47	9.36
698.61	77.24
698.74	30.43
698.87	60.85
699.01	53.83
699.14	65.54
699.27	44.47
699.40	0.00
699.54	28.09
699.67	0.00
699.80	0.00
699.94	46.81
700.07	35.11
700.20	39.79
700.34	0.00
700.47	0.00
700.60	18.72
700.73	28.09
700.87	0.00
701.00	25.75
701.13	30.43
701.26	11.70
701.40	23.41
701.53	65.54
701.66	25.75
701.79	32.77
701.93	35.11
702.06	30.43
702.19	70.22
702.32	63.19
702.46	67.88
702.59	28.09
702.72	44.47
702.85	95.96
702.99	126.39
703.12	65.54
703.25	182.56
703.38	131.07
703.51	135.75
703.65	105.32
703.78	95.96
703.91	49.15
704.04	65.54
704.17	30.43
704.31	72.56
704.44	0.00
704.57	16.38
704.70	32.77
704.83	0.00
704.96	0.00
705.10	7.02
705.23	49.15
>>>>>End Processed Spectral Data<<<<<
