SpectraSuite Data File
++++++++++++++++++++++++++++++++++++
Date: Fri Oct 04 12:13:34 GMT-05:00 2013
User: price-jones
Dark Spectrum Present: No
Reference Spectrum Present: No
Number of Sampled Component Spectra: 1
Spectrometers: USB2+H05261
Integration Time (usec): 10000 (USB2+H05261)
Spectra Averaged: 1 (USB2+H05261)
Boxcar Smoothing: 0 (USB2+H05261)
Correct for Electrical Dark: No (USB2+H05261)
Strobe/Lamp Enabled: No (USB2+H05261)
Correct for Detector Non-linearity: No (USB2+H05261)
Correct for Stray Light: No (USB2+H05261)
Number of Pixels in Processed Spectrum: 2048
>>>>>Begin Processed Spectral Data<<<<<
365.73	0.00
365.92	0.00
366.12	0.00
366.32	0.00
366.52	0.00
366.72	0.00
366.91	0.00
367.11	0.00
367.31	0.00
367.51	0.00
367.70	0.00
367.90	0.00
368.10	0.00
368.30	0.00
368.49	0.00
368.69	0.00
368.89	0.00
369.09	0.00
369.28	0.00
369.48	0.00
369.68	0.00
369.87	0.00
370.07	0.00
370.27	0.00
370.47	0.00
370.66	0.00
370.86	16.38
371.06	0.00
371.25	0.00
371.45	0.00
371.65	0.00
371.84	0.00
372.04	0.00
372.24	0.00
372.44	0.00
372.63	53.83
372.83	56.17
373.03	0.00
373.22	0.00
373.42	84.26
373.62	84.26
373.81	14.04
374.01	7.02
374.21	14.04
374.40	0.00
374.60	0.00
374.79	0.00
374.99	4.68
375.19	93.62
375.38	42.13
375.58	23.41
375.78	58.51
375.97	35.11
376.17	2.34
376.37	77.24
376.56	4.68
376.76	37.45
376.95	0.00
377.15	14.04
377.35	25.75
377.54	0.00
377.74	39.79
377.93	2.34
378.13	49.15
378.33	30.43
378.52	18.72
378.72	72.56
378.91	0.00
379.11	14.04
379.31	21.06
379.50	70.22
379.70	51.49
379.89	18.72
380.09	112.35
380.28	11.70
380.48	21.06
380.68	42.13
380.87	35.11
381.07	16.38
381.26	53.83
381.46	30.43
381.65	0.00
381.85	0.00
382.04	9.36
382.24	100.64
382.43	30.43
382.63	0.00
382.83	56.17
383.02	9.36
383.22	4.68
383.41	0.00
383.61	0.00
383.80	58.51
384.00	9.36
384.19	2.34
384.39	0.00
384.58	7.02
384.78	0.00
384.97	0.00
385.17	28.09
385.36	18.72
385.56	0.00
385.75	98.30
385.95	0.00
386.14	9.36
386.34	11.70
386.53	44.47
386.72	51.49
386.92	0.00
387.11	0.00
387.31	37.45
387.50	35.11
387.70	18.72
387.89	44.47
388.09	39.79
388.28	74.90
388.48	25.75
388.67	35.11
388.86	0.00
389.06	0.00
389.25	9.36
389.45	23.41
389.64	0.00
389.84	2.34
390.03	32.77
390.22	0.00
390.42	16.38
390.61	0.00
390.81	0.00
391.00	30.43
391.19	0.00
391.39	0.00
391.58	39.79
391.78	23.41
391.97	51.49
392.16	9.36
392.36	18.72
392.55	53.83
392.75	63.19
392.94	0.00
393.13	25.75
393.33	0.00
393.52	18.72
393.71	0.00
393.91	51.49
394.10	0.00
394.29	30.43
394.49	49.15
394.68	53.83
394.88	14.04
395.07	46.81
395.26	7.02
395.46	53.83
395.65	70.22
395.84	0.00
396.04	60.85
396.23	0.00
396.42	11.70
396.62	98.30
396.81	60.85
397.00	32.77
397.19	28.09
397.39	63.19
397.58	0.00
397.77	56.17
397.97	21.06
398.16	9.36
398.35	67.88
398.55	0.00
398.74	37.45
398.93	9.36
399.12	74.90
399.32	0.00
399.51	53.83
399.70	44.47
399.90	0.00
400.09	0.00
400.28	0.00
400.47	0.00
400.67	0.00
400.86	0.00
401.05	51.49
401.24	32.77
401.44	0.00
401.63	14.04
401.82	44.47
402.01	42.13
402.21	11.70
402.40	37.45
402.59	39.79
402.78	14.04
402.97	0.00
403.17	0.00
403.36	0.00
403.55	23.41
403.74	60.85
403.93	49.15
404.13	0.00
404.32	18.72
404.51	74.90
404.70	56.17
404.89	84.26
405.09	42.13
405.28	86.60
405.47	65.54
405.66	7.02
405.85	7.02
406.05	0.00
406.24	49.15
406.43	77.24
406.62	110.01
406.81	53.83
407.00	105.32
407.20	0.00
407.39	25.75
407.58	0.00
407.77	18.72
407.96	117.03
408.15	112.35
408.34	93.62
408.54	60.85
408.73	0.00
408.92	67.88
409.11	65.54
409.30	39.79
409.49	35.11
409.68	0.00
409.87	70.22
410.07	56.17
410.26	18.72
410.45	49.15
410.64	58.51
410.83	21.06
411.02	11.70
411.21	53.83
411.40	42.13
411.59	28.09
411.78	28.09
411.98	23.41
412.17	44.47
412.36	0.00
412.55	77.24
412.74	39.79
412.93	58.51
413.12	65.54
413.31	65.54
413.50	91.28
413.69	32.77
413.88	65.54
414.07	0.00
414.26	0.00
414.45	37.45
414.64	21.06
414.83	44.47
415.02	67.88
415.22	133.41
415.41	126.39
415.60	23.41
415.79	67.88
415.98	70.22
416.17	128.73
416.36	98.30
416.55	72.56
416.74	91.28
416.93	7.02
417.12	14.04
417.31	44.47
417.50	70.22
417.69	65.54
417.88	58.51
418.07	44.47
418.26	72.56
418.45	67.88
418.64	51.49
418.83	9.36
419.02	70.22
419.21	35.11
419.39	117.03
419.58	100.64
419.77	105.32
419.96	32.77
420.15	0.00
420.34	65.54
420.53	39.79
420.72	60.85
420.91	30.43
421.10	11.70
421.29	9.36
421.48	49.15
421.67	32.77
421.86	25.75
422.05	0.00
422.24	37.45
422.43	32.77
422.61	23.41
422.80	91.28
422.99	32.77
423.18	0.00
423.37	63.19
423.56	65.54
423.75	53.83
423.94	93.62
424.13	81.92
424.32	16.38
424.50	23.41
424.69	32.77
424.88	91.28
425.07	18.72
425.26	44.47
425.45	42.13
425.64	51.49
425.83	70.22
426.01	86.60
426.20	42.13
426.39	70.22
426.58	0.00
426.77	53.83
426.96	42.13
427.15	77.24
427.33	53.83
427.52	63.19
427.71	91.28
427.90	32.77
428.09	65.54
428.28	0.00
428.46	65.54
428.65	32.77
428.84	0.00
429.03	23.41
429.22	23.41
429.40	14.04
429.59	77.24
429.78	0.00
429.97	0.00
430.16	42.13
430.34	74.90
430.53	16.38
430.72	67.88
430.91	0.00
431.10	35.11
431.28	67.88
431.47	0.00
431.66	37.45
431.85	67.88
432.03	131.07
432.22	0.00
432.41	107.66
432.60	46.81
432.79	81.92
432.97	0.00
433.16	32.77
433.35	63.19
433.54	18.72
433.72	100.64
433.91	56.17
434.10	135.75
434.28	23.41
434.47	49.15
434.66	91.28
434.85	30.43
435.03	77.24
435.22	60.85
435.41	58.51
435.59	70.22
435.78	56.17
435.97	86.60
436.16	56.17
436.34	67.88
436.53	53.83
436.72	72.56
436.90	86.60
437.09	0.00
437.28	0.00
437.46	21.06
437.65	23.41
437.84	81.92
438.02	25.75
438.21	56.17
438.40	84.26
438.58	14.04
438.77	44.47
438.96	72.56
439.14	9.36
439.33	21.06
439.52	56.17
439.70	42.13
439.89	63.19
440.08	28.09
440.26	37.45
440.45	9.36
440.63	124.05
440.82	70.22
441.01	0.00
441.19	0.00
441.38	79.58
441.57	58.51
441.75	11.70
441.94	88.94
442.12	0.00
442.31	28.09
442.50	70.22
442.68	53.83
442.87	46.81
443.05	39.79
443.24	18.72
443.43	112.35
443.61	58.51
443.80	74.90
443.98	67.88
444.17	32.77
444.35	42.13
444.54	53.83
444.73	11.70
444.91	107.66
445.10	7.02
445.28	37.45
445.47	14.04
445.65	84.26
445.84	37.45
446.02	0.00
446.21	32.77
446.39	77.24
446.58	0.00
446.77	14.04
446.95	65.54
447.14	14.04
447.32	35.11
447.51	105.32
447.69	51.49
447.88	32.77
448.06	46.81
448.25	46.81
448.43	98.30
448.62	39.79
448.80	58.51
448.99	124.05
449.17	81.92
449.36	30.43
449.54	84.26
449.73	49.15
449.91	93.62
450.10	25.75
450.28	30.43
450.46	0.00
450.65	86.60
450.83	2.34
451.02	0.00
451.20	0.00
451.39	63.19
451.57	67.88
451.76	37.45
451.94	67.88
452.13	0.00
452.31	35.11
452.49	18.72
452.68	21.06
452.86	79.58
453.05	95.96
453.23	88.94
453.42	60.85
453.60	30.43
453.78	60.85
453.97	11.70
454.15	0.00
454.34	51.49
454.52	44.47
454.70	49.15
454.89	28.09
455.07	65.54
455.26	86.60
455.44	51.49
455.62	42.13
455.81	88.94
455.99	39.79
456.17	93.62
456.36	46.81
456.54	2.34
456.73	100.64
456.91	107.66
457.09	37.45
457.28	58.51
457.46	100.64
457.64	65.54
457.83	0.00
458.01	49.15
458.19	93.62
458.38	37.45
458.56	56.17
458.74	86.60
458.93	0.00
459.11	91.28
459.29	74.90
459.48	0.00
459.66	79.58
459.84	63.19
460.03	114.69
460.21	37.45
460.39	60.85
460.57	114.69
460.76	4.68
460.94	49.15
461.12	79.58
461.31	65.54
461.49	65.54
461.67	37.45
461.85	79.58
462.04	72.56
462.22	56.17
462.40	53.83
462.59	35.11
462.77	49.15
462.95	0.00
463.13	39.79
463.32	7.02
463.50	53.83
463.68	65.54
463.86	2.34
464.05	49.15
464.23	84.26
464.41	119.37
464.59	44.47
464.78	81.92
464.96	0.00
465.14	0.00
465.32	91.28
465.50	72.56
465.69	23.41
465.87	30.43
466.05	142.77
466.23	44.47
466.41	42.13
466.60	67.88
466.78	30.43
466.96	46.81
467.14	114.69
467.32	145.11
467.51	14.04
467.69	44.47
467.87	0.00
468.05	42.13
468.23	72.56
468.41	175.54
468.60	35.11
468.78	145.11
468.96	72.56
469.14	67.88
469.32	0.00
469.50	58.51
469.69	30.43
469.87	42.13
470.05	30.43
470.23	56.17
470.41	70.22
470.59	0.00
470.77	2.34
470.95	65.54
471.14	67.88
471.32	0.00
471.50	56.17
471.68	37.45
471.86	98.30
472.04	35.11
472.22	60.85
472.40	18.72
472.58	91.28
472.77	0.00
472.95	74.90
473.13	60.85
473.31	51.49
473.49	0.00
473.67	72.56
473.85	67.88
474.03	51.49
474.21	110.01
474.39	114.69
474.57	11.70
474.75	98.30
474.93	0.00
475.12	60.85
475.30	105.32
475.48	28.09
475.66	7.02
475.84	32.77
476.02	21.06
476.20	65.54
476.38	163.84
476.56	60.85
476.74	63.19
476.92	72.56
477.10	112.35
477.28	23.41
477.46	46.81
477.64	65.54
477.82	88.94
478.00	35.11
478.18	121.71
478.36	11.70
478.54	60.85
478.72	49.15
478.90	81.92
479.08	126.39
479.26	16.38
479.44	98.30
479.62	0.00
479.80	119.37
479.98	44.47
480.16	84.26
480.34	0.00
480.52	42.13
480.70	39.79
480.88	91.28
481.06	79.58
481.24	60.85
481.41	39.79
481.59	133.41
481.77	77.24
481.95	53.83
482.13	60.85
482.31	81.92
482.49	42.13
482.67	37.45
482.85	72.56
483.03	39.79
483.21	44.47
483.39	77.24
483.57	0.00
483.74	56.17
483.92	11.70
484.10	67.88
484.28	124.05
484.46	72.56
484.64	84.26
484.82	74.90
485.00	32.77
485.18	98.30
485.35	79.58
485.53	0.00
485.71	2.34
485.89	88.94
486.07	30.43
486.25	84.26
486.43	102.98
486.61	46.81
486.78	42.13
486.96	49.15
487.14	51.49
487.32	32.77
487.50	98.30
487.68	46.81
487.85	58.51
488.03	93.62
488.21	9.36
488.39	0.00
488.57	152.13
488.75	58.51
488.92	117.03
489.10	74.90
489.28	44.47
489.46	37.45
489.64	11.70
489.81	56.17
489.99	152.13
490.17	156.82
490.35	56.17
490.53	88.94
490.70	70.22
490.88	114.69
491.06	7.02
491.24	74.90
491.41	63.19
491.59	65.54
491.77	84.26
491.95	42.13
492.13	98.30
492.30	105.32
492.48	72.56
492.66	110.01
492.84	98.30
493.01	56.17
493.19	105.32
493.37	154.48
493.54	63.19
493.72	37.45
493.90	39.79
494.08	98.30
494.25	42.13
494.43	32.77
494.61	65.54
494.79	18.72
494.96	65.54
495.14	44.47
495.32	152.13
495.49	135.75
495.67	84.26
495.85	58.51
496.02	49.15
496.20	53.83
496.38	152.13
496.55	7.02
496.73	16.38
496.91	53.83
497.09	84.26
497.26	72.56
497.44	79.58
497.62	65.54
497.79	65.54
497.97	53.83
498.14	25.75
498.32	124.05
498.50	168.52
498.67	79.58
498.85	72.56
499.03	147.45
499.20	112.35
499.38	107.66
499.56	53.83
499.73	105.32
499.91	42.13
500.08	49.15
500.26	23.41
500.44	81.92
500.61	30.43
500.79	105.32
500.97	91.28
501.14	32.77
501.32	88.94
501.49	46.81
501.67	84.26
501.84	98.30
502.02	56.17
502.20	56.17
502.37	53.83
502.55	0.00
502.72	74.90
502.90	84.26
503.07	152.13
503.25	58.51
503.43	93.62
503.60	91.28
503.78	72.56
503.95	77.24
504.13	98.30
504.30	102.98
504.48	51.49
504.65	93.62
504.83	149.79
505.01	21.06
505.18	21.06
505.36	100.64
505.53	77.24
505.71	37.45
505.88	100.64
506.06	70.22
506.23	79.58
506.41	16.38
506.58	107.66
506.76	65.54
506.93	95.96
507.11	93.62
507.28	46.81
507.46	112.35
507.63	100.64
507.81	98.30
507.98	131.07
508.16	35.11
508.33	65.54
508.50	35.11
508.68	154.48
508.85	32.77
509.03	53.83
509.20	23.41
509.38	63.19
509.55	105.32
509.73	74.90
509.90	72.56
510.08	4.68
510.25	145.11
510.42	93.62
510.60	91.28
510.77	53.83
510.95	145.11
511.12	79.58
511.30	39.79
511.47	138.09
511.64	128.73
511.82	51.49
511.99	91.28
512.17	32.77
512.34	67.88
512.51	60.85
512.69	121.71
512.86	77.24
513.04	56.17
513.21	128.73
513.38	133.41
513.56	145.11
513.73	79.58
513.90	152.13
514.08	28.09
514.25	98.30
514.43	81.92
514.60	44.47
514.77	67.88
514.95	100.64
515.12	44.47
515.29	79.58
515.47	51.49
515.64	91.28
515.81	46.81
515.99	35.11
516.16	98.30
516.33	135.75
516.51	79.58
516.68	42.13
516.85	60.85
517.03	70.22
517.20	91.28
517.37	65.54
517.54	67.88
517.72	79.58
517.89	131.07
518.06	88.94
518.24	67.88
518.41	32.77
518.58	72.56
518.75	46.81
518.93	114.69
519.10	107.66
519.27	121.71
519.45	25.75
519.62	98.30
519.79	124.05
519.96	175.54
520.14	86.60
520.31	74.90
520.48	60.85
520.65	95.96
520.83	112.35
521.00	98.30
521.17	133.41
521.34	58.51
521.52	91.28
521.69	28.09
521.86	56.17
522.03	124.05
522.20	37.45
522.38	140.43
522.55	86.60
522.72	84.26
522.89	35.11
523.07	95.96
523.24	74.90
523.41	0.00
523.58	138.09
523.75	16.38
523.92	81.92
524.10	65.54
524.27	98.30
524.44	32.77
524.61	42.13
524.78	135.75
524.96	114.69
525.13	65.54
525.30	112.35
525.47	14.04
525.64	86.60
525.81	53.83
525.98	88.94
526.16	70.22
526.33	93.62
526.50	30.43
526.67	88.94
526.84	11.70
527.01	117.03
527.18	100.64
527.36	124.05
527.53	95.96
527.70	131.07
527.87	67.88
528.04	88.94
528.21	7.02
528.38	2.34
528.55	131.07
528.72	70.22
528.89	35.11
529.07	107.66
529.24	77.24
529.41	95.96
529.58	156.82
529.75	131.07
529.92	135.75
530.09	110.01
530.26	37.45
530.43	93.62
530.60	60.85
530.77	60.85
530.94	133.41
531.11	135.75
531.28	49.15
531.46	131.07
531.63	28.09
531.80	93.62
531.97	100.64
532.14	60.85
532.31	9.36
532.48	25.75
532.65	49.15
532.82	114.69
532.99	163.84
533.16	56.17
533.33	84.26
533.50	21.06
533.67	93.62
533.84	81.92
534.01	53.83
534.18	81.92
534.35	84.26
534.52	60.85
534.69	44.47
534.86	70.22
535.03	95.96
535.20	102.98
535.37	140.43
535.54	128.73
535.71	65.54
535.88	81.92
536.05	100.64
536.22	128.73
536.38	72.56
536.55	74.90
536.72	79.58
536.89	100.64
537.06	77.24
537.23	58.51
537.40	93.62
537.57	11.70
537.74	140.43
537.91	114.69
538.08	60.85
538.25	0.00
538.42	46.81
538.59	32.77
538.75	121.71
538.92	128.73
539.09	154.48
539.26	30.43
539.43	56.17
539.60	93.62
539.77	98.30
539.94	77.24
540.11	46.81
540.28	39.79
540.44	0.00
540.61	166.18
540.78	58.51
540.95	67.88
541.12	110.01
541.29	79.58
541.46	117.03
541.62	119.37
541.79	67.88
541.96	0.00
542.13	119.37
542.30	114.69
542.47	105.32
542.63	100.64
542.80	117.03
542.97	110.01
543.14	0.00
543.31	100.64
543.48	74.90
543.64	117.03
543.81	18.72
543.98	124.05
544.15	114.69
544.32	42.13
544.48	86.60
544.65	28.09
544.82	124.05
544.99	149.79
545.16	98.30
545.32	112.35
545.49	145.11
545.66	131.07
545.83	121.71
546.00	79.58
546.16	98.30
546.33	128.73
546.50	135.75
546.67	163.84
546.83	110.01
547.00	79.58
547.17	46.81
547.34	70.22
547.50	49.15
547.67	53.83
547.84	51.49
548.00	63.19
548.17	107.66
548.34	131.07
548.51	131.07
548.67	100.64
548.84	88.94
549.01	107.66
549.18	110.01
549.34	58.51
549.51	70.22
549.68	88.94
549.84	79.58
550.01	102.98
550.18	105.32
550.34	133.41
550.51	100.64
550.68	0.00
550.84	65.54
551.01	51.49
551.18	51.49
551.34	142.77
551.51	93.62
551.68	14.04
551.84	11.70
552.01	60.85
552.18	35.11
552.34	98.30
552.51	35.11
552.68	86.60
552.84	0.00
553.01	117.03
553.18	95.96
553.34	98.30
553.51	100.64
553.67	63.19
553.84	88.94
554.01	37.45
554.17	58.51
554.34	79.58
554.51	117.03
554.67	84.26
554.84	42.13
555.00	35.11
555.17	65.54
555.33	98.30
555.50	51.49
555.67	44.47
555.83	124.05
556.00	53.83
556.16	117.03
556.33	72.56
556.50	100.64
556.66	98.30
556.83	70.22
556.99	16.38
557.16	49.15
557.32	91.28
557.49	177.88
557.65	28.09
557.82	67.88
557.98	102.98
558.15	98.30
558.32	88.94
558.48	79.58
558.65	56.17
558.81	93.62
558.98	67.88
559.14	44.47
559.31	72.56
559.47	72.56
559.64	79.58
559.80	65.54
559.97	102.98
560.13	91.28
560.30	44.47
560.46	110.01
560.63	105.32
560.79	51.49
560.96	72.56
561.12	63.19
561.29	93.62
561.45	117.03
561.61	42.13
561.78	67.88
561.94	56.17
562.11	140.43
562.27	86.60
562.44	95.96
562.60	170.86
562.77	110.01
562.93	119.37
563.10	93.62
563.26	74.90
563.42	149.79
563.59	91.28
563.75	37.45
563.92	140.43
564.08	11.70
564.24	119.37
564.41	152.13
564.57	88.94
564.74	88.94
564.90	177.88
565.07	79.58
565.23	93.62
565.39	147.45
565.56	60.85
565.72	74.90
565.88	65.54
566.05	84.26
566.21	65.54
566.38	156.82
566.54	79.58
566.70	58.51
566.87	63.19
567.03	53.83
567.19	79.58
567.36	100.64
567.52	56.17
567.68	4.68
567.85	65.54
568.01	74.90
568.17	102.98
568.34	4.68
568.50	142.77
568.66	107.66
568.83	114.69
568.99	23.41
569.15	77.24
569.32	105.32
569.48	91.28
569.64	28.09
569.81	107.66
569.97	84.26
570.13	77.24
570.30	32.77
570.46	88.94
570.62	105.32
570.78	49.15
570.95	46.81
571.11	67.88
571.27	110.01
571.43	135.75
571.60	100.64
571.76	107.66
571.92	72.56
572.09	110.01
572.25	95.96
572.41	154.48
572.57	128.73
572.74	133.41
572.90	53.83
573.06	35.11
573.22	114.69
573.38	117.03
573.55	100.64
573.71	81.92
573.87	121.71
574.03	88.94
574.20	79.58
574.36	147.45
574.52	67.88
574.68	49.15
574.84	145.11
575.01	105.32
575.17	159.16
575.33	58.51
575.49	70.22
575.65	60.85
575.82	88.94
575.98	79.58
576.14	93.62
576.30	110.01
576.46	126.39
576.62	70.22
576.79	49.15
576.95	65.54
577.11	25.75
577.27	53.83
577.43	110.01
577.59	124.05
577.75	110.01
577.92	121.71
578.08	70.22
578.24	88.94
578.40	51.49
578.56	107.66
578.72	88.94
578.88	81.92
579.04	147.45
579.21	86.60
579.37	60.85
579.53	70.22
579.69	39.79
579.85	51.49
580.01	84.26
580.17	81.92
580.33	102.98
580.49	121.71
580.65	72.56
580.82	135.75
580.98	58.51
581.14	84.26
581.30	39.79
581.46	32.77
581.62	79.58
581.78	88.94
581.94	100.64
582.10	91.28
582.26	25.75
582.42	105.32
582.58	93.62
582.74	65.54
582.90	72.56
583.06	63.19
583.22	88.94
583.38	117.03
583.54	79.58
583.70	58.51
583.86	79.58
584.02	95.96
584.18	105.32
584.34	128.73
584.50	110.01
584.66	110.01
584.82	79.58
584.98	112.35
585.14	74.90
585.30	86.60
585.46	74.90
585.62	124.05
585.78	7.02
585.94	81.92
586.10	70.22
586.26	4.68
586.42	63.19
586.58	53.83
586.74	51.49
586.90	51.49
587.06	98.30
587.22	79.58
587.38	100.64
587.54	93.62
587.70	65.54
587.86	154.48
588.02	65.54
588.18	88.94
588.34	145.11
588.49	93.62
588.65	32.77
588.81	9.36
588.97	0.00
589.13	53.83
589.29	95.96
589.45	2.34
589.61	56.17
589.77	46.81
589.93	74.90
590.08	72.56
590.24	86.60
590.40	0.00
590.56	88.94
590.72	67.88
590.88	65.54
591.04	32.77
591.20	79.58
591.35	121.71
591.51	49.15
591.67	79.58
591.83	49.15
591.99	88.94
592.15	42.13
592.31	37.45
592.46	124.05
592.62	46.81
592.78	126.39
592.94	9.36
593.10	21.06
593.26	56.17
593.41	46.81
593.57	70.22
593.73	74.90
593.89	74.90
594.05	46.81
594.20	58.51
594.36	72.56
594.52	56.17
594.68	32.77
594.84	88.94
594.99	100.64
595.15	56.17
595.31	65.54
595.47	152.13
595.62	56.17
595.78	100.64
595.94	95.96
596.10	138.09
596.25	60.85
596.41	88.94
596.57	63.19
596.73	91.28
596.88	35.11
597.04	32.77
597.20	65.54
597.36	60.85
597.51	88.94
597.67	30.43
597.83	37.45
597.99	112.35
598.14	65.54
598.30	100.64
598.46	60.85
598.61	91.28
598.77	58.51
598.93	16.38
599.09	46.81
599.24	110.01
599.40	95.96
599.56	39.79
599.71	28.09
599.87	77.24
600.03	98.30
600.18	102.98
600.34	14.04
600.50	102.98
600.65	128.73
600.81	49.15
600.97	14.04
601.12	28.09
601.28	121.71
601.44	60.85
601.59	112.35
601.75	30.43
601.91	98.30
602.06	67.88
602.22	21.06
602.37	0.00
602.53	39.79
602.69	35.11
602.84	140.43
603.00	154.48
603.16	119.37
603.31	49.15
603.47	163.84
603.62	67.88
603.78	112.35
603.94	77.24
604.09	35.11
604.25	124.05
604.40	93.62
604.56	49.15
604.71	16.38
604.87	81.92
605.03	67.88
605.18	84.26
605.34	32.77
605.49	53.83
605.65	37.45
605.80	51.49
605.96	63.19
606.12	117.03
606.27	72.56
606.43	84.26
606.58	70.22
606.74	30.43
606.89	0.00
607.05	74.90
607.20	124.05
607.36	142.77
607.51	81.92
607.67	81.92
607.82	39.79
607.98	46.81
608.13	100.64
608.29	91.28
608.44	117.03
608.60	42.13
608.75	39.79
608.91	145.11
609.06	95.96
609.22	49.15
609.37	58.51
609.53	119.37
609.68	49.15
609.84	37.45
609.99	86.60
610.15	42.13
610.30	72.56
610.46	84.26
610.61	72.56
610.76	7.02
610.92	117.03
611.07	114.69
611.23	25.75
611.38	100.64
611.54	60.85
611.69	81.92
611.84	119.37
612.00	79.58
612.15	79.58
612.31	0.00
612.46	46.81
612.62	77.24
612.77	114.69
612.92	142.77
613.08	72.56
613.23	44.47
613.39	0.00
613.54	102.98
613.69	21.06
613.85	79.58
614.00	65.54
614.15	65.54
614.31	37.45
614.46	14.04
614.62	79.58
614.77	44.47
614.92	56.17
615.08	53.83
615.23	86.60
615.38	46.81
615.54	58.51
615.69	56.17
615.84	65.54
616.00	77.24
616.15	77.24
616.30	37.45
616.46	46.81
616.61	114.69
616.76	110.01
616.92	53.83
617.07	46.81
617.22	138.09
617.37	91.28
617.53	135.75
617.68	102.98
617.83	37.45
617.99	58.51
618.14	60.85
618.29	42.13
618.45	44.47
618.60	32.77
618.75	67.88
618.90	44.47
619.06	35.11
619.21	39.79
619.36	117.03
619.51	49.15
619.67	58.51
619.82	72.56
619.97	119.37
620.12	100.64
620.28	88.94
620.43	30.43
620.58	42.13
620.73	35.11
620.89	102.98
621.04	98.30
621.19	81.92
621.34	79.58
621.49	91.28
621.65	86.60
621.80	11.70
621.95	58.51
622.10	58.51
622.25	16.38
622.41	44.47
622.56	21.06
622.71	32.77
622.86	65.54
623.01	95.96
623.16	0.00
623.32	77.24
623.47	60.85
623.62	30.43
623.77	60.85
623.92	21.06
624.07	81.92
624.23	30.43
624.38	95.96
624.53	86.60
624.68	110.01
624.83	72.56
624.98	63.19
625.13	60.85
625.29	21.06
625.44	86.60
625.59	102.98
625.74	25.75
625.89	72.56
626.04	16.38
626.19	63.19
626.34	32.77
626.49	56.17
626.65	88.94
626.80	37.45
626.95	56.17
627.10	72.56
627.25	91.28
627.40	105.32
627.55	74.90
627.70	70.22
627.85	37.45
628.00	39.79
628.15	84.26
628.30	58.51
628.45	39.79
628.60	21.06
628.76	88.94
628.91	77.24
629.06	37.45
629.21	79.58
629.36	77.24
629.51	9.36
629.66	39.79
629.81	58.51
629.96	46.81
630.11	131.07
630.26	42.13
630.41	100.64
630.56	65.54
630.71	65.54
630.86	112.35
631.01	81.92
631.16	105.32
631.31	16.38
631.46	30.43
631.61	91.28
631.76	28.09
631.91	46.81
632.06	42.13
632.21	25.75
632.36	86.60
632.51	28.09
632.66	21.06
632.81	86.60
632.96	102.98
633.10	60.85
633.25	44.47
633.40	98.30
633.55	72.56
633.70	42.13
633.85	32.77
634.00	53.83
634.15	114.69
634.30	39.79
634.45	81.92
634.60	100.64
634.75	65.54
634.90	51.49
635.05	0.00
635.19	60.85
635.34	39.79
635.49	44.47
635.64	21.06
635.79	72.56
635.94	77.24
636.09	58.51
636.24	117.03
636.39	30.43
636.53	110.01
636.68	37.45
636.83	51.49
636.98	65.54
637.13	67.88
637.28	74.90
637.43	60.85
637.57	98.30
637.72	14.04
637.87	58.51
638.02	35.11
638.17	0.00
638.32	74.90
638.46	30.43
638.61	93.62
638.76	37.45
638.91	81.92
639.06	166.18
639.20	39.79
639.35	7.02
639.50	72.56
639.65	65.54
639.80	117.03
639.94	56.17
640.09	81.92
640.24	44.47
640.39	25.75
640.54	100.64
640.68	88.94
640.83	58.51
640.98	79.58
641.13	37.45
641.27	32.77
641.42	16.38
641.57	56.17
641.72	53.83
641.86	84.26
642.01	100.64
642.16	37.45
642.31	84.26
642.45	124.05
642.60	56.17
642.75	67.88
642.90	98.30
643.04	58.51
643.19	21.06
643.34	138.09
643.48	112.35
643.63	86.60
643.78	107.66
643.93	42.13
644.07	39.79
644.22	77.24
644.37	77.24
644.51	56.17
644.66	28.09
644.81	81.92
644.95	60.85
645.10	100.64
645.25	81.92
645.39	81.92
645.54	121.71
645.69	23.41
645.83	37.45
645.98	98.30
646.13	49.15
646.27	79.58
646.42	14.04
646.57	32.77
646.71	81.92
646.86	51.49
647.00	81.92
647.15	114.69
647.30	105.32
647.44	58.51
647.59	93.62
647.74	28.09
647.88	77.24
648.03	0.00
648.17	70.22
648.32	56.17
648.47	39.79
648.61	58.51
648.76	58.51
648.90	30.43
649.05	35.11
649.20	60.85
649.34	53.83
649.49	74.90
649.63	23.41
649.78	126.39
649.92	49.15
650.07	49.15
650.21	135.75
650.36	0.00
650.51	58.51
650.65	72.56
650.80	49.15
650.94	21.06
651.09	74.90
651.23	53.83
651.38	11.70
651.52	65.54
651.67	42.13
651.81	91.28
651.96	35.11
652.10	105.32
652.25	72.56
652.39	98.30
652.54	91.28
652.68	0.00
652.83	60.85
652.97	67.88
653.12	93.62
653.26	14.04
653.41	70.22
653.55	11.70
653.70	23.41
653.84	18.72
653.99	0.00
654.13	21.06
654.27	84.26
654.42	42.13
654.56	58.51
654.71	14.04
654.85	35.11
655.00	53.83
655.14	21.06
655.29	0.00
655.43	100.64
655.57	25.75
655.72	72.56
655.86	7.02
656.01	9.36
656.15	0.00
656.30	39.79
656.44	65.54
656.58	53.83
656.73	81.92
656.87	105.32
657.01	39.79
657.16	72.56
657.30	37.45
657.45	58.51
657.59	46.81
657.73	88.94
657.88	77.24
658.02	105.32
658.16	18.72
658.31	65.54
658.45	60.85
658.60	35.11
658.74	56.17
658.88	65.54
659.03	14.04
659.17	67.88
659.31	30.43
659.46	42.13
659.60	30.43
659.74	91.28
659.89	56.17
660.03	32.77
660.17	25.75
660.32	60.85
660.46	60.85
660.60	67.88
660.74	91.28
660.89	18.72
661.03	114.69
661.17	107.66
661.32	30.43
661.46	0.00
661.60	53.83
661.74	77.24
661.89	114.69
662.03	100.64
662.17	56.17
662.31	21.06
662.46	84.26
662.60	46.81
662.74	98.30
662.88	72.56
663.03	46.81
663.17	49.15
663.31	35.11
663.45	32.77
663.60	42.13
663.74	72.56
663.88	51.49
664.02	51.49
664.17	67.88
664.31	21.06
664.45	46.81
664.59	2.34
664.73	0.00
664.88	18.72
665.02	30.43
665.16	63.19
665.30	79.58
665.44	18.72
665.59	16.38
665.73	56.17
665.87	11.70
666.01	25.75
666.15	63.19
666.29	28.09
666.44	30.43
666.58	21.06
666.72	74.90
666.86	49.15
667.00	0.00
667.14	72.56
667.28	49.15
667.43	7.02
667.57	58.51
667.71	72.56
667.85	49.15
667.99	9.36
668.13	58.51
668.27	39.79
668.41	39.79
668.56	18.72
668.70	70.22
668.84	51.49
668.98	117.03
669.12	65.54
669.26	53.83
669.40	18.72
669.54	32.77
669.68	0.00
669.82	32.77
669.96	72.56
670.10	81.92
670.25	67.88
670.39	95.96
670.53	107.66
670.67	7.02
670.81	21.06
670.95	93.62
671.09	51.49
671.23	58.51
671.37	46.81
671.51	77.24
671.65	49.15
671.79	4.68
671.93	95.96
672.07	51.49
672.21	114.69
672.35	46.81
672.49	39.79
672.63	0.00
672.77	11.70
672.91	32.77
673.05	95.96
673.19	93.62
673.33	46.81
673.47	77.24
673.61	0.00
673.75	58.51
673.89	2.34
674.03	4.68
674.17	21.06
674.31	70.22
674.45	67.88
674.59	16.38
674.73	35.11
674.87	42.13
675.01	142.77
675.15	70.22
675.29	16.38
675.43	81.92
675.56	93.62
675.70	56.17
675.84	0.00
675.98	46.81
676.12	30.43
676.26	18.72
676.40	79.58
676.54	46.81
676.68	30.43
676.82	9.36
676.96	74.90
677.10	37.45
677.23	37.45
677.37	9.36
677.51	0.00
677.65	32.77
677.79	49.15
677.93	67.88
678.07	74.90
678.21	65.54
678.34	0.00
678.48	110.01
678.62	49.15
678.76	35.11
678.90	79.58
679.04	32.77
679.18	84.26
679.31	81.92
679.45	44.47
679.59	74.90
679.73	51.49
679.87	93.62
680.00	65.54
680.14	25.75
680.28	44.47
680.42	107.66
680.56	35.11
680.70	51.49
680.83	28.09
680.97	77.24
681.11	58.51
681.25	42.13
681.39	35.11
681.52	49.15
681.66	86.60
681.80	28.09
681.94	14.04
682.07	28.09
682.21	14.04
682.35	28.09
682.49	60.85
682.62	63.19
682.76	63.19
682.90	67.88
683.04	32.77
683.17	4.68
683.31	0.00
683.45	107.66
683.59	18.72
683.72	0.00
683.86	98.30
684.00	88.94
684.13	51.49
684.27	35.11
684.41	23.41
684.55	16.38
684.68	44.47
684.82	39.79
684.96	23.41
685.09	0.00
685.23	72.56
685.37	0.00
685.50	86.60
685.64	21.06
685.78	46.81
685.91	0.00
686.05	49.15
686.19	0.00
686.32	0.00
686.46	42.13
686.60	23.41
686.73	131.07
686.87	35.11
687.01	81.92
687.14	46.81
687.28	70.22
687.42	86.60
687.55	0.00
687.69	51.49
687.82	72.56
687.96	131.07
688.10	65.54
688.23	53.83
688.37	14.04
688.50	49.15
688.64	11.70
688.78	11.70
688.91	58.51
689.05	39.79
689.18	49.15
689.32	14.04
689.46	46.81
689.59	18.72
689.73	35.11
689.86	30.43
690.00	102.98
690.13	18.72
690.27	56.17
690.41	46.81
690.54	112.35
690.68	0.00
690.81	98.30
690.95	0.00
691.08	32.77
691.22	0.00
691.35	84.26
691.49	11.70
691.62	32.77
691.76	58.51
691.89	25.75
692.03	49.15
692.16	11.70
692.30	60.85
692.43	70.22
692.57	0.00
692.70	42.13
692.84	93.62
692.97	35.11
693.11	53.83
693.24	28.09
693.38	0.00
693.51	65.54
693.65	42.13
693.78	18.72
693.92	37.45
694.05	46.81
694.19	51.49
694.32	53.83
694.45	35.11
694.59	0.00
694.72	60.85
694.86	46.81
694.99	42.13
695.13	60.85
695.26	0.00
695.39	70.22
695.53	72.56
695.66	30.43
695.80	4.68
695.93	0.00
696.07	23.41
696.20	9.36
696.33	60.85
696.47	37.45
696.60	0.00
696.73	7.02
696.87	14.04
697.00	46.81
697.14	37.45
697.27	70.22
697.40	25.75
697.54	42.13
697.67	84.26
697.80	9.36
697.94	21.06
698.07	35.11
698.21	67.88
698.34	32.77
698.47	0.00
698.61	79.58
698.74	70.22
698.87	86.60
699.01	0.00
699.14	39.79
699.27	51.49
699.40	30.43
699.54	51.49
699.67	91.28
699.80	86.60
699.94	105.32
700.07	30.43
700.20	28.09
700.34	42.13
700.47	44.47
700.60	77.24
700.73	4.68
700.87	7.02
701.00	49.15
701.13	23.41
701.26	0.00
701.40	58.51
701.53	93.62
701.66	84.26
701.79	0.00
701.93	0.00
702.06	67.88
702.19	0.00
702.32	0.00
702.46	86.60
702.59	35.11
702.72	0.00
702.85	51.49
702.99	9.36
703.12	0.00
703.25	16.38
703.38	56.17
703.51	42.13
703.65	18.72
703.78	18.72
703.91	88.94
704.04	0.00
704.17	0.00
704.31	0.00
704.44	86.60
704.57	0.00
704.70	28.09
704.83	0.00
704.96	0.00
705.10	30.43
705.23	98.30
>>>>>End Processed Spectral Data<<<<<
