SpectraSuite Data File
++++++++++++++++++++++++++++++++++++
Date: Fri Oct 04 12:13:33 GMT-05:00 2013
User: price-jones
Dark Spectrum Present: No
Reference Spectrum Present: No
Number of Sampled Component Spectra: 1
Spectrometers: USB2+H05261
Integration Time (usec): 10000 (USB2+H05261)
Spectra Averaged: 1 (USB2+H05261)
Boxcar Smoothing: 0 (USB2+H05261)
Correct for Electrical Dark: No (USB2+H05261)
Strobe/Lamp Enabled: No (USB2+H05261)
Correct for Detector Non-linearity: No (USB2+H05261)
Correct for Stray Light: No (USB2+H05261)
Number of Pixels in Processed Spectrum: 2048
>>>>>Begin Processed Spectral Data<<<<<
365.73	0.00
365.92	0.00
366.12	0.00
366.32	0.00
366.52	0.00
366.72	0.00
366.91	0.00
367.11	0.00
367.31	0.00
367.51	0.00
367.70	0.00
367.90	0.00
368.10	0.00
368.30	0.00
368.49	0.00
368.69	0.00
368.89	0.00
369.09	0.00
369.28	0.00
369.48	0.00
369.68	0.00
369.87	0.00
370.07	0.00
370.27	0.00
370.47	0.00
370.66	0.00
370.86	0.00
371.06	0.00
371.25	0.00
371.45	0.00
371.65	67.88
371.84	0.00
372.04	0.00
372.24	0.00
372.44	23.41
372.63	0.00
372.83	0.00
373.03	102.98
373.22	4.68
373.42	56.17
373.62	95.96
373.81	72.56
374.01	51.49
374.21	70.22
374.40	79.58
374.60	56.17
374.79	2.34
374.99	156.82
375.19	23.41
375.38	0.00
375.58	46.81
375.78	0.00
375.97	91.28
376.17	9.36
376.37	53.83
376.56	74.90
376.76	16.38
376.95	65.54
377.15	0.00
377.35	9.36
377.54	51.49
377.74	25.75
377.93	0.00
378.13	60.85
378.33	21.06
378.52	16.38
378.72	74.90
378.91	91.28
379.11	23.41
379.31	16.38
379.50	0.00
379.70	0.00
379.89	2.34
380.09	0.00
380.28	0.00
380.48	0.00
380.68	46.81
380.87	0.00
381.07	25.75
381.26	16.38
381.46	0.00
381.65	0.00
381.85	37.45
382.04	0.00
382.24	0.00
382.43	25.75
382.63	67.88
382.83	42.13
383.02	0.00
383.22	0.00
383.41	0.00
383.61	7.02
383.80	58.51
384.00	0.00
384.19	65.54
384.39	0.00
384.58	16.38
384.78	35.11
384.97	70.22
385.17	2.34
385.36	42.13
385.56	0.00
385.75	2.34
385.95	35.11
386.14	7.02
386.34	51.49
386.53	0.00
386.72	32.77
386.92	4.68
387.11	44.47
387.31	95.96
387.50	0.00
387.70	21.06
387.89	0.00
388.09	9.36
388.28	32.77
388.48	11.70
388.67	79.58
388.86	0.00
389.06	28.09
389.25	21.06
389.45	72.56
389.64	39.79
389.84	98.30
390.03	16.38
390.22	0.00
390.42	58.51
390.61	51.49
390.81	0.00
391.00	37.45
391.19	16.38
391.39	37.45
391.58	0.00
391.78	0.00
391.97	35.11
392.16	49.15
392.36	35.11
392.55	0.00
392.75	51.49
392.94	0.00
393.13	0.00
393.33	37.45
393.52	63.19
393.71	49.15
393.91	70.22
394.10	0.00
394.29	30.43
394.49	25.75
394.68	0.00
394.88	0.00
395.07	14.04
395.26	93.62
395.46	53.83
395.65	37.45
395.84	32.77
396.04	46.81
396.23	18.72
396.42	0.00
396.62	0.00
396.81	28.09
397.00	58.51
397.19	4.68
397.39	100.64
397.58	39.79
397.77	49.15
397.97	0.00
398.16	35.11
398.35	9.36
398.55	77.24
398.74	110.01
398.93	63.19
399.12	0.00
399.32	46.81
399.51	0.00
399.70	39.79
399.90	0.00
400.09	14.04
400.28	74.90
400.47	60.85
400.67	32.77
400.86	77.24
401.05	21.06
401.24	51.49
401.44	42.13
401.63	65.54
401.82	53.83
402.01	14.04
402.21	0.00
402.40	14.04
402.59	21.06
402.78	93.62
402.97	0.00
403.17	0.00
403.36	0.00
403.55	93.62
403.74	7.02
403.93	72.56
404.13	0.00
404.32	30.43
404.51	0.00
404.70	35.11
404.89	11.70
405.09	11.70
405.28	95.96
405.47	49.15
405.66	35.11
405.85	28.09
406.05	0.00
406.24	77.24
406.43	18.72
406.62	35.11
406.81	21.06
407.00	0.00
407.20	18.72
407.39	35.11
407.58	53.83
407.77	93.62
407.96	14.04
408.15	18.72
408.34	16.38
408.54	37.45
408.73	44.47
408.92	9.36
409.11	0.00
409.30	25.75
409.49	11.70
409.68	11.70
409.87	39.79
410.07	18.72
410.26	28.09
410.45	2.34
410.64	63.19
410.83	23.41
411.02	28.09
411.21	30.43
411.40	0.00
411.59	37.45
411.78	77.24
411.98	23.41
412.17	0.00
412.36	0.00
412.55	65.54
412.74	11.70
412.93	51.49
413.12	44.47
413.31	7.02
413.50	35.11
413.69	0.00
413.88	0.00
414.07	65.54
414.26	88.94
414.45	60.85
414.64	14.04
414.83	0.00
415.02	74.90
415.22	44.47
415.41	39.79
415.60	0.00
415.79	9.36
415.98	25.75
416.17	0.00
416.36	0.00
416.55	21.06
416.74	88.94
416.93	58.51
417.12	135.75
417.31	2.34
417.50	102.98
417.69	9.36
417.88	60.85
418.07	0.00
418.26	84.26
418.45	21.06
418.64	35.11
418.83	30.43
419.02	67.88
419.21	35.11
419.39	0.00
419.58	0.00
419.77	70.22
419.96	21.06
420.15	35.11
420.34	0.00
420.53	7.02
420.72	11.70
420.91	95.96
421.10	0.00
421.29	0.00
421.48	18.72
421.67	25.75
421.86	0.00
422.05	14.04
422.24	37.45
422.43	49.15
422.61	86.60
422.80	0.00
422.99	51.49
423.18	70.22
423.37	37.45
423.56	23.41
423.75	23.41
423.94	0.00
424.13	11.70
424.32	0.00
424.50	74.90
424.69	30.43
424.88	14.04
425.07	9.36
425.26	135.75
425.45	0.00
425.64	49.15
425.83	0.00
426.01	58.51
426.20	0.00
426.39	21.06
426.58	9.36
426.77	7.02
426.96	23.41
427.15	18.72
427.33	86.60
427.52	28.09
427.71	0.00
427.90	0.00
428.09	0.00
428.28	32.77
428.46	30.43
428.65	11.70
428.84	21.06
429.03	11.70
429.22	23.41
429.40	72.56
429.59	9.36
429.78	102.98
429.97	0.00
430.16	11.70
430.34	0.00
430.53	0.00
430.72	65.54
430.91	58.51
431.10	4.68
431.28	67.88
431.47	11.70
431.66	18.72
431.85	42.13
432.03	2.34
432.22	0.00
432.41	28.09
432.60	0.00
432.79	0.00
432.97	39.79
433.16	0.00
433.35	0.00
433.54	100.64
433.72	51.49
433.91	18.72
434.10	4.68
434.28	0.00
434.47	42.13
434.66	51.49
434.85	60.85
435.03	0.00
435.22	0.00
435.41	53.83
435.59	28.09
435.78	46.81
435.97	53.83
436.16	0.00
436.34	35.11
436.53	79.58
436.72	60.85
436.90	42.13
437.09	56.17
437.28	4.68
437.46	46.81
437.65	7.02
437.84	0.00
438.02	0.00
438.21	0.00
438.40	110.01
438.58	44.47
438.77	35.11
438.96	63.19
439.14	35.11
439.33	37.45
439.52	32.77
439.70	112.35
439.89	49.15
440.08	0.00
440.26	0.00
440.45	42.13
440.63	77.24
440.82	30.43
441.01	79.58
441.19	63.19
441.38	18.72
441.57	2.34
441.75	56.17
441.94	35.11
442.12	65.54
442.31	126.39
442.50	46.81
442.68	35.11
442.87	37.45
443.05	0.00
443.24	23.41
443.43	30.43
443.61	72.56
443.80	30.43
443.98	0.00
444.17	39.79
444.35	42.13
444.54	21.06
444.73	28.09
444.91	72.56
445.10	14.04
445.28	7.02
445.47	30.43
445.65	60.85
445.84	46.81
446.02	56.17
446.21	28.09
446.39	0.00
446.58	0.00
446.77	39.79
446.95	21.06
447.14	70.22
447.32	74.90
447.51	51.49
447.69	98.30
447.88	65.54
448.06	58.51
448.25	18.72
448.43	25.75
448.62	0.00
448.80	0.00
448.99	0.00
449.17	14.04
449.36	32.77
449.54	65.54
449.73	65.54
449.91	0.00
450.10	28.09
450.28	81.92
450.46	60.85
450.65	67.88
450.83	77.24
451.02	35.11
451.20	67.88
451.39	37.45
451.57	0.00
451.76	42.13
451.94	7.02
452.13	56.17
452.31	0.00
452.49	63.19
452.68	39.79
452.86	81.92
453.05	28.09
453.23	44.47
453.42	4.68
453.60	77.24
453.78	102.98
453.97	44.47
454.15	60.85
454.34	30.43
454.52	0.00
454.70	14.04
454.89	14.04
455.07	53.83
455.26	0.00
455.44	65.54
455.62	72.56
455.81	0.00
455.99	86.60
456.17	81.92
456.36	81.92
456.54	7.02
456.73	0.00
456.91	14.04
457.09	51.49
457.28	37.45
457.46	44.47
457.64	46.81
457.83	93.62
458.01	42.13
458.19	79.58
458.38	60.85
458.56	37.45
458.74	81.92
458.93	23.41
459.11	86.60
459.29	9.36
459.48	35.11
459.66	0.00
459.84	114.69
460.03	0.00
460.21	0.00
460.39	14.04
460.57	16.38
460.76	0.00
460.94	0.00
461.12	0.00
461.31	46.81
461.49	0.00
461.67	39.79
461.85	0.00
462.04	35.11
462.22	93.62
462.40	7.02
462.59	77.24
462.77	42.13
462.95	46.81
463.13	46.81
463.32	23.41
463.50	9.36
463.68	102.98
463.86	32.77
464.05	32.77
464.23	30.43
464.41	42.13
464.59	2.34
464.78	28.09
464.96	0.00
465.14	21.06
465.32	0.00
465.50	35.11
465.69	11.70
465.87	53.83
466.05	0.00
466.23	98.30
466.41	37.45
466.60	72.56
466.78	0.00
466.96	18.72
467.14	0.00
467.32	63.19
467.51	65.54
467.69	133.41
467.87	0.00
468.05	95.96
468.23	72.56
468.41	7.02
468.60	98.30
468.78	42.13
468.96	79.58
469.14	39.79
469.32	95.96
469.50	0.00
469.69	39.79
469.87	70.22
470.05	28.09
470.23	100.64
470.41	86.60
470.59	0.00
470.77	42.13
470.95	16.38
471.14	37.45
471.32	65.54
471.50	0.00
471.68	95.96
471.86	30.43
472.04	53.83
472.22	23.41
472.40	63.19
472.58	49.15
472.77	70.22
472.95	88.94
473.13	49.15
473.31	0.00
473.49	0.00
473.67	110.01
473.85	0.00
474.03	49.15
474.21	100.64
474.39	0.00
474.57	37.45
474.75	67.88
474.93	42.13
475.12	0.00
475.30	65.54
475.48	100.64
475.66	65.54
475.84	49.15
476.02	65.54
476.20	81.92
476.38	39.79
476.56	21.06
476.74	9.36
476.92	58.51
477.10	11.70
477.28	72.56
477.46	4.68
477.64	42.13
477.82	39.79
478.00	7.02
478.18	11.70
478.36	7.02
478.54	25.75
478.72	0.00
478.90	49.15
479.08	102.98
479.26	25.75
479.44	74.90
479.62	79.58
479.80	86.60
479.98	0.00
480.16	65.54
480.34	51.49
480.52	0.00
480.70	30.43
480.88	9.36
481.06	35.11
481.24	58.51
481.41	91.28
481.59	25.75
481.77	56.17
481.95	42.13
482.13	21.06
482.31	79.58
482.49	46.81
482.67	72.56
482.85	0.00
483.03	25.75
483.21	46.81
483.39	30.43
483.57	0.00
483.74	18.72
483.92	100.64
484.10	107.66
484.28	42.13
484.46	32.77
484.64	0.00
484.82	4.68
485.00	86.60
485.18	23.41
485.35	0.00
485.53	0.00
485.71	46.81
485.89	0.00
486.07	42.13
486.25	11.70
486.43	7.02
486.61	65.54
486.78	28.09
486.96	102.98
487.14	140.43
487.32	9.36
487.50	156.82
487.68	25.75
487.85	42.13
488.03	0.00
488.21	77.24
488.39	51.49
488.57	18.72
488.75	67.88
488.92	107.66
489.10	44.47
489.28	60.85
489.46	79.58
489.64	60.85
489.81	65.54
489.99	67.88
490.17	21.06
490.35	100.64
490.53	11.70
490.70	7.02
490.88	74.90
491.06	25.75
491.24	0.00
491.41	21.06
491.59	28.09
491.77	49.15
491.95	53.83
492.13	0.00
492.30	46.81
492.48	49.15
492.66	77.24
492.84	46.81
493.01	88.94
493.19	91.28
493.37	7.02
493.54	70.22
493.72	49.15
493.90	58.51
494.08	91.28
494.25	51.49
494.43	25.75
494.61	67.88
494.79	135.75
494.96	86.60
495.14	23.41
495.32	39.79
495.49	23.41
495.67	4.68
495.85	49.15
496.02	0.00
496.20	65.54
496.38	18.72
496.55	0.00
496.73	42.13
496.91	105.32
497.09	0.00
497.26	93.62
497.44	79.58
497.62	35.11
497.79	74.90
497.97	49.15
498.14	84.26
498.32	51.49
498.50	14.04
498.67	37.45
498.85	51.49
499.03	0.00
499.20	63.19
499.38	91.28
499.56	100.64
499.73	86.60
499.91	53.83
500.08	81.92
500.26	70.22
500.44	86.60
500.61	51.49
500.79	0.00
500.97	7.02
501.14	28.09
501.32	51.49
501.49	23.41
501.67	49.15
501.84	81.92
502.02	37.45
502.20	53.83
502.37	79.58
502.55	84.26
502.72	53.83
502.90	44.47
503.07	102.98
503.25	112.35
503.43	88.94
503.60	58.51
503.78	79.58
503.95	163.84
504.13	72.56
504.30	4.68
504.48	37.45
504.65	35.11
504.83	32.77
505.01	49.15
505.18	18.72
505.36	53.83
505.53	117.03
505.71	67.88
505.88	25.75
506.06	60.85
506.23	86.60
506.41	46.81
506.58	21.06
506.76	131.07
506.93	74.90
507.11	35.11
507.28	7.02
507.46	39.79
507.63	44.47
507.81	42.13
507.98	70.22
508.16	4.68
508.33	23.41
508.50	72.56
508.68	70.22
508.85	81.92
509.03	77.24
509.20	42.13
509.38	65.54
509.55	93.62
509.73	152.13
509.90	98.30
510.08	98.30
510.25	107.66
510.42	63.19
510.60	98.30
510.77	46.81
510.95	70.22
511.12	100.64
511.30	46.81
511.47	63.19
511.64	30.43
511.82	60.85
511.99	107.66
512.17	102.98
512.34	35.11
512.51	11.70
512.69	63.19
512.86	81.92
513.04	152.13
513.21	60.85
513.38	74.90
513.56	39.79
513.73	77.24
513.90	70.22
514.08	46.81
514.25	124.05
514.43	35.11
514.60	25.75
514.77	60.85
514.95	79.58
515.12	39.79
515.29	63.19
515.47	98.30
515.64	56.17
515.81	86.60
515.99	60.85
516.16	49.15
516.33	58.51
516.51	110.01
516.68	25.75
516.85	70.22
517.03	81.92
517.20	98.30
517.37	37.45
517.54	84.26
517.72	32.77
517.89	67.88
518.06	107.66
518.24	138.09
518.41	56.17
518.58	0.00
518.75	28.09
518.93	67.88
519.10	84.26
519.27	2.34
519.45	0.00
519.62	84.26
519.79	42.13
519.96	4.68
520.14	42.13
520.31	21.06
520.48	121.71
520.65	56.17
520.83	51.49
521.00	95.96
521.17	37.45
521.34	112.35
521.52	18.72
521.69	70.22
521.86	37.45
522.03	60.85
522.20	70.22
522.38	135.75
522.55	23.41
522.72	88.94
522.89	39.79
523.07	65.54
523.24	81.92
523.41	65.54
523.58	112.35
523.75	79.58
523.92	49.15
524.10	63.19
524.27	46.81
524.44	44.47
524.61	37.45
524.78	0.00
524.96	84.26
525.13	28.09
525.30	35.11
525.47	63.19
525.64	56.17
525.81	124.05
525.98	51.49
526.16	35.11
526.33	46.81
526.50	37.45
526.67	53.83
526.84	81.92
527.01	91.28
527.18	28.09
527.36	44.47
527.53	77.24
527.70	46.81
527.87	0.00
528.04	0.00
528.21	46.81
528.38	72.56
528.55	102.98
528.72	72.56
528.89	72.56
529.07	53.83
529.24	42.13
529.41	60.85
529.58	70.22
529.75	79.58
529.92	46.81
530.09	4.68
530.26	18.72
530.43	105.32
530.60	0.00
530.77	84.26
530.94	14.04
531.11	70.22
531.28	30.43
531.46	65.54
531.63	25.75
531.80	56.17
531.97	44.47
532.14	28.09
532.31	18.72
532.48	53.83
532.65	63.19
532.82	46.81
532.99	14.04
533.16	23.41
533.33	37.45
533.50	126.39
533.67	35.11
533.84	21.06
534.01	60.85
534.18	63.19
534.35	152.13
534.52	42.13
534.69	63.19
534.86	98.30
535.03	28.09
535.20	30.43
535.37	44.47
535.54	53.83
535.71	44.47
535.88	79.58
536.05	0.00
536.22	91.28
536.38	39.79
536.55	98.30
536.72	25.75
536.89	39.79
537.06	74.90
537.23	126.39
537.40	35.11
537.57	67.88
537.74	42.13
537.91	11.70
538.08	67.88
538.25	119.37
538.42	16.38
538.59	4.68
538.75	77.24
538.92	88.94
539.09	23.41
539.26	7.02
539.43	0.00
539.60	0.00
539.77	4.68
539.94	88.94
540.11	72.56
540.28	93.62
540.44	23.41
540.61	65.54
540.78	23.41
540.95	44.47
541.12	79.58
541.29	93.62
541.46	35.11
541.62	0.00
541.79	110.01
541.96	44.47
542.13	72.56
542.30	60.85
542.47	37.45
542.63	60.85
542.80	72.56
542.97	135.75
543.14	88.94
543.31	70.22
543.48	46.81
543.64	107.66
543.81	77.24
543.98	58.51
544.15	145.11
544.32	93.62
544.48	107.66
544.65	91.28
544.82	100.64
544.99	32.77
545.16	0.00
545.32	79.58
545.49	65.54
545.66	63.19
545.83	98.30
546.00	56.17
546.16	81.92
546.33	56.17
546.50	95.96
546.67	23.41
546.83	63.19
547.00	105.32
547.17	105.32
547.34	93.62
547.50	18.72
547.67	0.00
547.84	35.11
548.00	0.00
548.17	81.92
548.34	60.85
548.51	23.41
548.67	16.38
548.84	32.77
549.01	0.00
549.18	60.85
549.34	105.32
549.51	70.22
549.68	60.85
549.84	18.72
550.01	37.45
550.18	16.38
550.34	56.17
550.51	51.49
550.68	117.03
550.84	58.51
551.01	49.15
551.18	25.75
551.34	25.75
551.51	53.83
551.68	44.47
551.84	86.60
552.01	86.60
552.18	23.41
552.34	53.83
552.51	2.34
552.68	124.05
552.84	28.09
553.01	135.75
553.18	81.92
553.34	102.98
553.51	86.60
553.67	67.88
553.84	16.38
554.01	4.68
554.17	77.24
554.34	16.38
554.51	91.28
554.67	37.45
554.84	58.51
555.00	0.00
555.17	49.15
555.33	60.85
555.50	81.92
555.67	46.81
555.83	79.58
556.00	35.11
556.16	81.92
556.33	51.49
556.50	102.98
556.66	23.41
556.83	25.75
556.99	42.13
557.16	93.62
557.32	86.60
557.49	93.62
557.65	42.13
557.82	70.22
557.98	88.94
558.15	0.00
558.32	56.17
558.48	0.00
558.65	70.22
558.81	0.00
558.98	51.49
559.14	114.69
559.31	0.00
559.47	21.06
559.64	30.43
559.80	0.00
559.97	49.15
560.13	77.24
560.30	14.04
560.46	49.15
560.63	0.00
560.79	140.43
560.96	65.54
561.12	72.56
561.29	25.75
561.45	67.88
561.61	95.96
561.78	100.64
561.94	35.11
562.11	0.00
562.27	65.54
562.44	46.81
562.60	37.45
562.77	30.43
562.93	70.22
563.10	60.85
563.26	35.11
563.42	39.79
563.59	84.26
563.75	23.41
563.92	35.11
564.08	102.98
564.24	37.45
564.41	65.54
564.57	81.92
564.74	0.00
564.90	7.02
565.07	37.45
565.23	0.00
565.39	23.41
565.56	30.43
565.72	88.94
565.88	58.51
566.05	42.13
566.21	53.83
566.38	131.07
566.54	51.49
566.70	84.26
566.87	14.04
567.03	53.83
567.19	14.04
567.36	32.77
567.52	67.88
567.68	117.03
567.85	149.79
568.01	28.09
568.17	51.49
568.34	102.98
568.50	58.51
568.66	35.11
568.83	77.24
568.99	107.66
569.15	30.43
569.32	30.43
569.48	56.17
569.64	42.13
569.81	23.41
569.97	0.00
570.13	44.47
570.30	70.22
570.46	44.47
570.62	81.92
570.78	49.15
570.95	7.02
571.11	21.06
571.27	14.04
571.43	49.15
571.60	25.75
571.76	18.72
571.92	63.19
572.09	0.00
572.25	58.51
572.41	0.00
572.57	32.77
572.74	77.24
572.90	0.00
573.06	105.32
573.22	30.43
573.38	18.72
573.55	46.81
573.71	0.00
573.87	39.79
574.03	77.24
574.20	42.13
574.36	37.45
574.52	46.81
574.68	86.60
574.84	67.88
575.01	77.24
575.17	95.96
575.33	49.15
575.49	65.54
575.65	105.32
575.82	53.83
575.98	95.96
576.14	91.28
576.30	35.11
576.46	42.13
576.62	0.00
576.79	65.54
576.95	95.96
577.11	32.77
577.27	42.13
577.43	107.66
577.59	30.43
577.75	77.24
577.92	0.00
578.08	0.00
578.24	0.00
578.40	35.11
578.56	21.06
578.72	63.19
578.88	39.79
579.04	60.85
579.21	51.49
579.37	0.00
579.53	2.34
579.69	65.54
579.85	0.00
580.01	63.19
580.17	0.00
580.33	39.79
580.49	56.17
580.65	81.92
580.82	70.22
580.98	25.75
581.14	49.15
581.30	21.06
581.46	0.00
581.62	53.83
581.78	81.92
581.94	0.00
582.10	58.51
582.26	51.49
582.42	79.58
582.58	39.79
582.74	32.77
582.90	53.83
583.06	84.26
583.22	84.26
583.38	0.00
583.54	23.41
583.70	21.06
583.86	84.26
584.02	35.11
584.18	67.88
584.34	0.00
584.50	18.72
584.66	72.56
584.82	49.15
584.98	37.45
585.14	67.88
585.30	70.22
585.46	60.85
585.62	79.58
585.78	95.96
585.94	25.75
586.10	37.45
586.26	9.36
586.42	114.69
586.58	84.26
586.74	63.19
586.90	51.49
587.06	77.24
587.22	95.96
587.38	107.66
587.54	58.51
587.70	56.17
587.86	79.58
588.02	21.06
588.18	7.02
588.34	0.00
588.49	53.83
588.65	56.17
588.81	25.75
588.97	46.81
589.13	110.01
589.29	14.04
589.45	4.68
589.61	86.60
589.77	28.09
589.93	0.00
590.08	32.77
590.24	0.00
590.40	46.81
590.56	23.41
590.72	65.54
590.88	16.38
591.04	72.56
591.20	79.58
591.35	46.81
591.51	0.00
591.67	56.17
591.83	37.45
591.99	0.00
592.15	70.22
592.31	53.83
592.46	124.05
592.62	23.41
592.78	37.45
592.94	30.43
593.10	58.51
593.26	51.49
593.41	21.06
593.57	9.36
593.73	42.13
593.89	56.17
594.05	21.06
594.20	0.00
594.36	70.22
594.52	0.00
594.68	0.00
594.84	91.28
594.99	39.79
595.15	46.81
595.31	46.81
595.47	37.45
595.62	30.43
595.78	131.07
595.94	46.81
596.10	25.75
596.25	51.49
596.41	74.90
596.57	49.15
596.73	30.43
596.88	79.58
597.04	0.00
597.20	9.36
597.36	102.98
597.51	16.38
597.67	0.00
597.83	0.00
597.99	0.00
598.14	60.85
598.30	0.00
598.46	37.45
598.61	74.90
598.77	30.43
598.93	56.17
599.09	152.13
599.24	25.75
599.40	114.69
599.56	44.47
599.71	0.00
599.87	39.79
600.03	42.13
600.18	18.72
600.34	72.56
600.50	4.68
600.65	32.77
600.81	77.24
600.97	49.15
601.12	81.92
601.28	0.00
601.44	9.36
601.59	30.43
601.75	23.41
601.91	16.38
602.06	84.26
602.22	42.13
602.37	58.51
602.53	49.15
602.69	131.07
602.84	74.90
603.00	98.30
603.16	60.85
603.31	70.22
603.47	98.30
603.62	0.00
603.78	9.36
603.94	2.34
604.09	107.66
604.25	39.79
604.40	53.83
604.56	81.92
604.71	42.13
604.87	39.79
605.03	0.00
605.18	39.79
605.34	117.03
605.49	70.22
605.65	0.00
605.80	18.72
605.96	56.17
606.12	32.77
606.27	49.15
606.43	2.34
606.58	74.90
606.74	32.77
606.89	39.79
607.05	60.85
607.20	72.56
607.36	77.24
607.51	44.47
607.67	74.90
607.82	49.15
607.98	32.77
608.13	32.77
608.29	84.26
608.44	58.51
608.60	58.51
608.75	39.79
608.91	0.00
609.06	49.15
609.22	32.77
609.37	0.00
609.53	35.11
609.68	0.00
609.84	28.09
609.99	58.51
610.15	9.36
610.30	0.00
610.46	72.56
610.61	7.02
610.76	46.81
610.92	35.11
611.07	30.43
611.23	16.38
611.38	63.19
611.54	67.88
611.69	65.54
611.84	88.94
612.00	46.81
612.15	107.66
612.31	23.41
612.46	170.86
612.62	53.83
612.77	53.83
612.92	37.45
613.08	49.15
613.23	25.75
613.39	63.19
613.54	0.00
613.69	110.01
613.85	42.13
614.00	102.98
614.15	91.28
614.31	18.72
614.46	44.47
614.62	35.11
614.77	0.00
614.92	121.71
615.08	77.24
615.23	56.17
615.38	0.00
615.54	4.68
615.69	65.54
615.84	114.69
616.00	72.56
616.15	95.96
616.30	46.81
616.46	67.88
616.61	16.38
616.76	53.83
616.92	32.77
617.07	53.83
617.22	49.15
617.37	51.49
617.53	42.13
617.68	14.04
617.83	7.02
617.99	25.75
618.14	42.13
618.29	70.22
618.45	133.41
618.60	21.06
618.75	93.62
618.90	56.17
619.06	0.00
619.21	28.09
619.36	74.90
619.51	9.36
619.67	0.00
619.82	72.56
619.97	60.85
620.12	18.72
620.28	46.81
620.43	14.04
620.58	77.24
620.73	60.85
620.89	60.85
621.04	23.41
621.19	93.62
621.34	105.32
621.49	30.43
621.65	98.30
621.80	28.09
621.95	32.77
622.10	81.92
622.25	91.28
622.41	21.06
622.56	35.11
622.71	77.24
622.86	9.36
623.01	81.92
623.16	49.15
623.32	16.38
623.47	72.56
623.62	42.13
623.77	4.68
623.92	25.75
624.07	0.00
624.23	93.62
624.38	46.81
624.53	53.83
624.68	23.41
624.83	14.04
624.98	60.85
625.13	70.22
625.29	53.83
625.44	42.13
625.59	0.00
625.74	56.17
625.89	124.05
626.04	21.06
626.19	9.36
626.34	56.17
626.49	16.38
626.65	49.15
626.80	44.47
626.95	37.45
627.10	4.68
627.25	46.81
627.40	72.56
627.55	32.77
627.70	51.49
627.85	16.38
628.00	79.58
628.15	65.54
628.30	0.00
628.45	11.70
628.60	74.90
628.76	86.60
628.91	4.68
629.06	46.81
629.21	0.00
629.36	65.54
629.51	49.15
629.66	32.77
629.81	77.24
629.96	100.64
630.11	0.00
630.26	46.81
630.41	77.24
630.56	91.28
630.71	98.30
630.86	25.75
631.01	91.28
631.16	2.34
631.31	25.75
631.46	67.88
631.61	70.22
631.76	49.15
631.91	21.06
632.06	9.36
632.21	0.00
632.36	46.81
632.51	88.94
632.66	46.81
632.81	35.11
632.96	30.43
633.10	37.45
633.25	67.88
633.40	35.11
633.55	4.68
633.70	77.24
633.85	30.43
634.00	0.00
634.15	65.54
634.30	37.45
634.45	39.79
634.60	126.39
634.75	86.60
634.90	42.13
635.05	74.90
635.19	42.13
635.34	23.41
635.49	135.75
635.64	44.47
635.79	93.62
635.94	102.98
636.09	16.38
636.24	74.90
636.39	4.68
636.53	23.41
636.68	25.75
636.83	39.79
636.98	46.81
637.13	56.17
637.28	42.13
637.43	53.83
637.57	14.04
637.72	67.88
637.87	105.32
638.02	51.49
638.17	23.41
638.32	58.51
638.46	107.66
638.61	18.72
638.76	91.28
638.91	7.02
639.06	72.56
639.20	65.54
639.35	25.75
639.50	0.00
639.65	49.15
639.80	81.92
639.94	79.58
640.09	86.60
640.24	67.88
640.39	21.06
640.54	0.00
640.68	135.75
640.83	0.00
640.98	77.24
641.13	37.45
641.27	0.00
641.42	74.90
641.57	49.15
641.72	0.00
641.86	11.70
642.01	67.88
642.16	0.00
642.31	14.04
642.45	156.82
642.60	53.83
642.75	63.19
642.90	65.54
643.04	86.60
643.19	44.47
643.34	9.36
643.48	84.26
643.63	42.13
643.78	58.51
643.93	88.94
644.07	53.83
644.22	105.32
644.37	49.15
644.51	102.98
644.66	65.54
644.81	95.96
644.95	11.70
645.10	51.49
645.25	79.58
645.39	0.00
645.54	42.13
645.69	7.02
645.83	25.75
645.98	11.70
646.13	11.70
646.27	14.04
646.42	2.34
646.57	42.13
646.71	72.56
646.86	53.83
647.00	32.77
647.15	65.54
647.30	60.85
647.44	60.85
647.59	0.00
647.74	7.02
647.88	93.62
648.03	0.00
648.17	32.77
648.32	67.88
648.47	110.01
648.61	74.90
648.76	88.94
648.90	18.72
649.05	0.00
649.20	0.00
649.34	0.00
649.49	51.49
649.63	0.00
649.78	30.43
649.92	58.51
650.07	79.58
650.21	70.22
650.36	37.45
650.51	14.04
650.65	49.15
650.80	72.56
650.94	81.92
651.09	46.81
651.23	0.00
651.38	16.38
651.52	14.04
651.67	28.09
651.81	0.00
651.96	72.56
652.10	25.75
652.25	42.13
652.39	32.77
652.54	0.00
652.68	51.49
652.83	67.88
652.97	37.45
653.12	112.35
653.26	42.13
653.41	72.56
653.55	63.19
653.70	0.00
653.84	46.81
653.99	25.75
654.13	16.38
654.27	58.51
654.42	23.41
654.56	42.13
654.71	0.00
654.85	88.94
655.00	145.11
655.14	110.01
655.29	65.54
655.43	142.77
655.57	23.41
655.72	25.75
655.86	70.22
656.01	39.79
656.15	60.85
656.30	81.92
656.44	93.62
656.58	81.92
656.73	21.06
656.87	21.06
657.01	39.79
657.16	30.43
657.30	21.06
657.45	77.24
657.59	18.72
657.73	70.22
657.88	53.83
658.02	35.11
658.16	0.00
658.31	0.00
658.45	65.54
658.60	53.83
658.74	81.92
658.88	46.81
659.03	21.06
659.17	18.72
659.31	56.17
659.46	30.43
659.60	67.88
659.74	23.41
659.89	53.83
660.03	72.56
660.17	25.75
660.32	35.11
660.46	0.00
660.60	74.90
660.74	0.00
660.89	51.49
661.03	16.38
661.17	14.04
661.32	39.79
661.46	30.43
661.60	0.00
661.74	16.38
661.89	0.00
662.03	63.19
662.17	0.00
662.31	37.45
662.46	84.26
662.60	11.70
662.74	35.11
662.88	65.54
663.03	63.19
663.17	46.81
663.31	42.13
663.45	65.54
663.60	0.00
663.74	16.38
663.88	0.00
664.02	35.11
664.17	0.00
664.31	0.00
664.45	25.75
664.59	51.49
664.73	4.68
664.88	79.58
665.02	30.43
665.16	0.00
665.30	0.00
665.44	2.34
665.59	0.00
665.73	84.26
665.87	56.17
666.01	25.75
666.15	39.79
666.29	16.38
666.44	60.85
666.58	79.58
666.72	0.00
666.86	0.00
667.00	74.90
667.14	14.04
667.28	23.41
667.43	0.00
667.57	56.17
667.71	53.83
667.85	63.19
667.99	72.56
668.13	4.68
668.27	0.00
668.41	58.51
668.56	0.00
668.70	0.00
668.84	25.75
668.98	37.45
669.12	58.51
669.26	58.51
669.40	110.01
669.54	67.88
669.68	51.49
669.82	16.38
669.96	21.06
670.10	18.72
670.25	42.13
670.39	4.68
670.53	44.47
670.67	102.98
670.81	39.79
670.95	4.68
671.09	56.17
671.23	107.66
671.37	32.77
671.51	46.81
671.65	98.30
671.79	30.43
671.93	4.68
672.07	0.00
672.21	67.88
672.35	2.34
672.49	0.00
672.63	25.75
672.77	0.00
672.91	44.47
673.05	58.51
673.19	60.85
673.33	18.72
673.47	81.92
673.61	0.00
673.75	77.24
673.89	35.11
674.03	39.79
674.17	49.15
674.31	37.45
674.45	9.36
674.59	0.00
674.73	14.04
674.87	72.56
675.01	70.22
675.15	4.68
675.29	72.56
675.43	25.75
675.56	0.00
675.70	0.00
675.84	16.38
675.98	30.43
676.12	74.90
676.26	100.64
676.40	110.01
676.54	37.45
676.68	23.41
676.82	21.06
676.96	0.00
677.10	30.43
677.23	79.58
677.37	58.51
677.51	49.15
677.65	42.13
677.79	84.26
677.93	67.88
678.07	25.75
678.21	14.04
678.34	42.13
678.48	0.00
678.62	60.85
678.76	39.79
678.90	133.41
679.04	93.62
679.18	21.06
679.31	65.54
679.45	0.00
679.59	74.90
679.73	0.00
679.87	23.41
680.00	23.41
680.14	23.41
680.28	14.04
680.42	37.45
680.56	35.11
680.70	74.90
680.83	0.00
680.97	28.09
681.11	4.68
681.25	63.19
681.39	67.88
681.52	23.41
681.66	2.34
681.80	79.58
681.94	58.51
682.07	0.00
682.21	25.75
682.35	14.04
682.49	0.00
682.62	0.00
682.76	63.19
682.90	0.00
683.04	0.00
683.17	67.88
683.31	0.00
683.45	53.83
683.59	14.04
683.72	100.64
683.86	9.36
684.00	88.94
684.13	0.00
684.27	0.00
684.41	58.51
684.55	142.77
684.68	46.81
684.82	25.75
684.96	21.06
685.09	84.26
685.23	53.83
685.37	51.49
685.50	107.66
685.64	53.83
685.78	49.15
685.91	49.15
686.05	0.00
686.19	0.00
686.32	46.81
686.46	16.38
686.60	91.28
686.73	112.35
686.87	51.49
687.01	53.83
687.14	72.56
687.28	86.60
687.42	0.00
687.55	39.79
687.69	98.30
687.82	84.26
687.96	18.72
688.10	0.00
688.23	0.00
688.37	0.00
688.50	70.22
688.64	0.00
688.78	53.83
688.91	0.00
689.05	46.81
689.18	0.00
689.32	0.00
689.46	46.81
689.59	51.49
689.73	7.02
689.86	32.77
690.00	53.83
690.13	44.47
690.27	0.00
690.41	0.00
690.54	42.13
690.68	28.09
690.81	28.09
690.95	0.00
691.08	32.77
691.22	58.51
691.35	35.11
691.49	32.77
691.62	0.00
691.76	46.81
691.89	4.68
692.03	0.00
692.16	0.00
692.30	30.43
692.43	105.32
692.57	16.38
692.70	23.41
692.84	84.26
692.97	44.47
693.11	114.69
693.24	23.41
693.38	25.75
693.51	46.81
693.65	60.85
693.78	63.19
693.92	53.83
694.05	7.02
694.19	102.98
694.32	58.51
694.45	39.79
694.59	4.68
694.72	53.83
694.86	46.81
694.99	74.90
695.13	11.70
695.26	65.54
695.39	112.35
695.53	81.92
695.66	37.45
695.80	51.49
695.93	0.00
696.07	9.36
696.20	98.30
696.33	51.49
696.47	60.85
696.60	2.34
696.73	0.00
696.87	51.49
697.00	51.49
697.14	0.00
697.27	53.83
697.40	63.19
697.54	0.00
697.67	138.09
697.80	60.85
697.94	53.83
698.07	79.58
698.21	42.13
698.34	91.28
698.47	16.38
698.61	51.49
698.74	91.28
698.87	23.41
699.01	77.24
699.14	0.00
699.27	9.36
699.40	35.11
699.54	21.06
699.67	9.36
699.80	67.88
699.94	18.72
700.07	0.00
700.20	60.85
700.34	98.30
700.47	23.41
700.60	0.00
700.73	0.00
700.87	74.90
701.00	44.47
701.13	0.00
701.26	0.00
701.40	0.00
701.53	42.13
701.66	0.00
701.79	18.72
701.93	0.00
702.06	72.56
702.19	49.15
702.32	56.17
702.46	42.13
702.59	14.04
702.72	16.38
702.85	35.11
702.99	56.17
703.12	4.68
703.25	0.00
703.38	49.15
703.51	60.85
703.65	0.00
703.78	32.77
703.91	7.02
704.04	0.00
704.17	0.00
704.31	44.47
704.44	0.00
704.57	0.00
704.70	58.51
704.83	56.17
704.96	25.75
705.10	114.69
705.23	16.38
>>>>>End Processed Spectral Data<<<<<
