SpectraSuite Data File
++++++++++++++++++++++++++++++++++++
Date: Fri Oct 04 12:13:36 GMT-05:00 2013
User: price-jones
Dark Spectrum Present: No
Reference Spectrum Present: No
Number of Sampled Component Spectra: 1
Spectrometers: USB2+H05261
Integration Time (usec): 10000 (USB2+H05261)
Spectra Averaged: 1 (USB2+H05261)
Boxcar Smoothing: 0 (USB2+H05261)
Correct for Electrical Dark: No (USB2+H05261)
Strobe/Lamp Enabled: No (USB2+H05261)
Correct for Detector Non-linearity: No (USB2+H05261)
Correct for Stray Light: No (USB2+H05261)
Number of Pixels in Processed Spectrum: 2048
>>>>>Begin Processed Spectral Data<<<<<
365.73	0.00
365.92	0.00
366.12	0.00
366.32	0.00
366.52	0.00
366.72	0.00
366.91	0.00
367.11	0.00
367.31	0.00
367.51	0.00
367.70	0.00
367.90	0.00
368.10	0.00
368.30	0.00
368.49	0.00
368.69	0.00
368.89	0.00
369.09	0.00
369.28	0.00
369.48	0.00
369.68	0.00
369.87	0.00
370.07	0.00
370.27	0.00
370.47	0.00
370.66	0.00
370.86	0.00
371.06	11.70
371.25	0.00
371.45	0.00
371.65	0.00
371.84	0.00
372.04	0.00
372.24	53.83
372.44	18.72
372.63	0.00
372.83	67.88
373.03	0.00
373.22	23.41
373.42	23.41
373.62	16.38
373.81	67.88
374.01	37.45
374.21	107.66
374.40	0.00
374.60	67.88
374.79	0.00
374.99	25.75
375.19	28.09
375.38	102.98
375.58	16.38
375.78	0.00
375.97	44.47
376.17	81.92
376.37	21.06
376.56	9.36
376.76	0.00
376.95	0.00
377.15	0.00
377.35	58.51
377.54	58.51
377.74	39.79
377.93	93.62
378.13	25.75
378.33	4.68
378.52	9.36
378.72	63.19
378.91	39.79
379.11	0.00
379.31	0.00
379.50	23.41
379.70	7.02
379.89	30.43
380.09	53.83
380.28	30.43
380.48	0.00
380.68	18.72
380.87	0.00
381.07	28.09
381.26	25.75
381.46	25.75
381.65	49.15
381.85	0.00
382.04	0.00
382.24	39.79
382.43	0.00
382.63	0.00
382.83	0.00
383.02	32.77
383.22	0.00
383.41	30.43
383.61	18.72
383.80	30.43
384.00	0.00
384.19	7.02
384.39	0.00
384.58	60.85
384.78	37.45
384.97	16.38
385.17	39.79
385.36	0.00
385.56	35.11
385.75	60.85
385.95	42.13
386.14	0.00
386.34	37.45
386.53	0.00
386.72	21.06
386.92	53.83
387.11	0.00
387.31	0.00
387.50	35.11
387.70	23.41
387.89	0.00
388.09	7.02
388.28	0.00
388.48	21.06
388.67	0.00
388.86	30.43
389.06	32.77
389.25	49.15
389.45	11.70
389.64	46.81
389.84	0.00
390.03	35.11
390.22	37.45
390.42	100.64
390.61	0.00
390.81	9.36
391.00	88.94
391.19	0.00
391.39	16.38
391.58	74.90
391.78	18.72
391.97	9.36
392.16	28.09
392.36	14.04
392.55	32.77
392.75	44.47
392.94	65.54
393.13	65.54
393.33	95.96
393.52	51.49
393.71	14.04
393.91	18.72
394.10	0.00
394.29	2.34
394.49	0.00
394.68	0.00
394.88	51.49
395.07	11.70
395.26	0.00
395.46	35.11
395.65	11.70
395.84	23.41
396.04	0.00
396.23	9.36
396.42	42.13
396.62	28.09
396.81	0.00
397.00	21.06
397.19	9.36
397.39	86.60
397.58	30.43
397.77	0.00
397.97	0.00
398.16	14.04
398.35	11.70
398.55	39.79
398.74	23.41
398.93	0.00
399.12	18.72
399.32	98.30
399.51	0.00
399.70	67.88
399.90	30.43
400.09	9.36
400.28	44.47
400.47	28.09
400.67	0.00
400.86	30.43
401.05	0.00
401.24	49.15
401.44	60.85
401.63	7.02
401.82	79.58
402.01	44.47
402.21	0.00
402.40	30.43
402.59	63.19
402.78	42.13
402.97	44.47
403.17	0.00
403.36	88.94
403.55	0.00
403.74	39.79
403.93	65.54
404.13	11.70
404.32	0.00
404.51	42.13
404.70	16.38
404.89	135.75
405.09	67.88
405.28	11.70
405.47	0.00
405.66	9.36
405.85	44.47
406.05	2.34
406.24	37.45
406.43	0.00
406.62	102.98
406.81	79.58
407.00	58.51
407.20	14.04
407.39	112.35
407.58	11.70
407.77	42.13
407.96	51.49
408.15	28.09
408.34	23.41
408.54	49.15
408.73	4.68
408.92	0.00
409.11	46.81
409.30	32.77
409.49	30.43
409.68	42.13
409.87	2.34
410.07	0.00
410.26	30.43
410.45	0.00
410.64	70.22
410.83	14.04
411.02	70.22
411.21	4.68
411.40	63.19
411.59	58.51
411.78	46.81
411.98	30.43
412.17	0.00
412.36	72.56
412.55	25.75
412.74	49.15
412.93	18.72
413.12	25.75
413.31	135.75
413.50	67.88
413.69	21.06
413.88	9.36
414.07	0.00
414.26	67.88
414.45	37.45
414.64	28.09
414.83	84.26
415.02	4.68
415.22	42.13
415.41	53.83
415.60	39.79
415.79	53.83
415.98	74.90
416.17	2.34
416.36	74.90
416.55	0.00
416.74	58.51
416.93	39.79
417.12	81.92
417.31	0.00
417.50	39.79
417.69	84.26
417.88	93.62
418.07	63.19
418.26	14.04
418.45	35.11
418.64	21.06
418.83	49.15
419.02	65.54
419.21	51.49
419.39	23.41
419.58	0.00
419.77	0.00
419.96	79.58
420.15	53.83
420.34	58.51
420.53	77.24
420.72	14.04
420.91	42.13
421.10	35.11
421.29	35.11
421.48	81.92
421.67	77.24
421.86	49.15
422.05	23.41
422.24	0.00
422.43	63.19
422.61	2.34
422.80	138.09
422.99	39.79
423.18	42.13
423.37	42.13
423.56	32.77
423.75	51.49
423.94	35.11
424.13	0.00
424.32	25.75
424.50	49.15
424.69	37.45
424.88	16.38
425.07	21.06
425.26	56.17
425.45	0.00
425.64	0.00
425.83	95.96
426.01	93.62
426.20	0.00
426.39	30.43
426.58	35.11
426.77	65.54
426.96	77.24
427.15	42.13
427.33	21.06
427.52	14.04
427.71	21.06
427.90	42.13
428.09	35.11
428.28	42.13
428.46	93.62
428.65	4.68
428.84	72.56
429.03	105.32
429.22	0.00
429.40	0.00
429.59	51.49
429.78	84.26
429.97	0.00
430.16	44.47
430.34	42.13
430.53	63.19
430.72	121.71
430.91	58.51
431.10	88.94
431.28	51.49
431.47	72.56
431.66	86.60
431.85	88.94
432.03	74.90
432.22	93.62
432.41	72.56
432.60	46.81
432.79	105.32
432.97	37.45
433.16	0.00
433.35	0.00
433.54	0.00
433.72	58.51
433.91	9.36
434.10	88.94
434.28	53.83
434.47	0.00
434.66	21.06
434.85	100.64
435.03	25.75
435.22	86.60
435.41	63.19
435.59	51.49
435.78	60.85
435.97	14.04
436.16	51.49
436.34	58.51
436.53	112.35
436.72	4.68
436.90	2.34
437.09	4.68
437.28	37.45
437.46	30.43
437.65	131.07
437.84	37.45
438.02	0.00
438.21	95.96
438.40	142.77
438.58	70.22
438.77	44.47
438.96	56.17
439.14	65.54
439.33	18.72
439.52	32.77
439.70	21.06
439.89	49.15
440.08	28.09
440.26	49.15
440.45	42.13
440.63	67.88
440.82	46.81
441.01	30.43
441.19	18.72
441.38	28.09
441.57	0.00
441.75	32.77
441.94	91.28
442.12	60.85
442.31	72.56
442.50	14.04
442.68	51.49
442.87	56.17
443.05	0.00
443.24	44.47
443.43	67.88
443.61	9.36
443.80	77.24
443.98	67.88
444.17	25.75
444.35	37.45
444.54	65.54
444.73	77.24
444.91	39.79
445.10	58.51
445.28	63.19
445.47	95.96
445.65	88.94
445.84	30.43
446.02	49.15
446.21	49.15
446.39	0.00
446.58	35.11
446.77	30.43
446.95	42.13
447.14	42.13
447.32	11.70
447.51	7.02
447.69	79.58
447.88	16.38
448.06	21.06
448.25	53.83
448.43	51.49
448.62	98.30
448.80	0.00
448.99	28.09
449.17	35.11
449.36	93.62
449.54	79.58
449.73	67.88
449.91	70.22
450.10	49.15
450.28	18.72
450.46	18.72
450.65	93.62
450.83	161.50
451.02	58.51
451.20	86.60
451.39	110.01
451.57	0.00
451.76	74.90
451.94	25.75
452.13	65.54
452.31	0.00
452.49	154.48
452.68	32.77
452.86	107.66
453.05	18.72
453.23	112.35
453.42	2.34
453.60	44.47
453.78	124.05
453.97	21.06
454.15	44.47
454.34	53.83
454.52	14.04
454.70	42.13
454.89	0.00
455.07	0.00
455.26	44.47
455.44	21.06
455.62	21.06
455.81	74.90
455.99	79.58
456.17	49.15
456.36	79.58
456.54	25.75
456.73	77.24
456.91	77.24
457.09	121.71
457.28	124.05
457.46	4.68
457.64	46.81
457.83	35.11
458.01	0.00
458.19	30.43
458.38	58.51
458.56	60.85
458.74	11.70
458.93	53.83
459.11	39.79
459.29	37.45
459.48	9.36
459.66	46.81
459.84	39.79
460.03	58.51
460.21	9.36
460.39	63.19
460.57	58.51
460.76	51.49
460.94	9.36
461.12	0.00
461.31	21.06
461.49	21.06
461.67	25.75
461.85	77.24
462.04	30.43
462.22	126.39
462.40	70.22
462.59	60.85
462.77	25.75
462.95	65.54
463.13	95.96
463.32	93.62
463.50	21.06
463.68	58.51
463.86	81.92
464.05	58.51
464.23	121.71
464.41	18.72
464.59	42.13
464.78	39.79
464.96	23.41
465.14	53.83
465.32	67.88
465.50	42.13
465.69	105.32
465.87	72.56
466.05	39.79
466.23	79.58
466.41	28.09
466.60	0.00
466.78	46.81
466.96	95.96
467.14	102.98
467.32	0.00
467.51	67.88
467.69	88.94
467.87	102.98
468.05	35.11
468.23	67.88
468.41	79.58
468.60	67.88
468.78	9.36
468.96	37.45
469.14	39.79
469.32	102.98
469.50	16.38
469.69	42.13
469.87	53.83
470.05	60.85
470.23	42.13
470.41	70.22
470.59	77.24
470.77	18.72
470.95	25.75
471.14	16.38
471.32	79.58
471.50	63.19
471.68	117.03
471.86	56.17
472.04	0.00
472.22	65.54
472.40	30.43
472.58	18.72
472.77	16.38
472.95	56.17
473.13	35.11
473.31	14.04
473.49	81.92
473.67	63.19
473.85	65.54
474.03	49.15
474.21	119.37
474.39	81.92
474.57	21.06
474.75	138.09
474.93	7.02
475.12	56.17
475.30	39.79
475.48	86.60
475.66	7.02
475.84	84.26
476.02	74.90
476.20	51.49
476.38	63.19
476.56	74.90
476.74	58.51
476.92	35.11
477.10	16.38
477.28	72.56
477.46	84.26
477.64	60.85
477.82	56.17
478.00	16.38
478.18	70.22
478.36	72.56
478.54	86.60
478.72	46.81
478.90	16.38
479.08	4.68
479.26	65.54
479.44	100.64
479.62	77.24
479.80	35.11
479.98	88.94
480.16	67.88
480.34	4.68
480.52	98.30
480.70	9.36
480.88	126.39
481.06	0.00
481.24	25.75
481.41	135.75
481.59	11.70
481.77	28.09
481.95	84.26
482.13	133.41
482.31	93.62
482.49	58.51
482.67	102.98
482.85	25.75
483.03	60.85
483.21	95.96
483.39	77.24
483.57	79.58
483.74	44.47
483.92	53.83
484.10	0.00
484.28	18.72
484.46	93.62
484.64	23.41
484.82	30.43
485.00	35.11
485.18	98.30
485.35	58.51
485.53	79.58
485.71	95.96
485.89	95.96
486.07	65.54
486.25	102.98
486.43	91.28
486.61	88.94
486.78	58.51
486.96	18.72
487.14	56.17
487.32	88.94
487.50	65.54
487.68	126.39
487.85	86.60
488.03	86.60
488.21	91.28
488.39	58.51
488.57	11.70
488.75	86.60
488.92	91.28
489.10	0.00
489.28	131.07
489.46	133.41
489.64	30.43
489.81	56.17
489.99	60.85
490.17	74.90
490.35	70.22
490.53	93.62
490.70	63.19
490.88	79.58
491.06	110.01
491.24	67.88
491.41	77.24
491.59	58.51
491.77	44.47
491.95	39.79
492.13	65.54
492.30	39.79
492.48	53.83
492.66	88.94
492.84	91.28
493.01	51.49
493.19	149.79
493.37	0.00
493.54	60.85
493.72	114.69
493.90	51.49
494.08	0.00
494.25	39.79
494.43	100.64
494.61	112.35
494.79	44.47
494.96	39.79
495.14	159.16
495.32	0.00
495.49	86.60
495.67	67.88
495.85	102.98
496.02	79.58
496.20	23.41
496.38	98.30
496.55	84.26
496.73	126.39
496.91	102.98
497.09	79.58
497.26	88.94
497.44	84.26
497.62	74.90
497.79	60.85
497.97	65.54
498.14	79.58
498.32	35.11
498.50	51.49
498.67	102.98
498.85	74.90
499.03	65.54
499.20	102.98
499.38	81.92
499.56	74.90
499.73	138.09
499.91	84.26
500.08	2.34
500.26	93.62
500.44	79.58
500.61	84.26
500.79	84.26
500.97	79.58
501.14	102.98
501.32	98.30
501.49	16.38
501.67	53.83
501.84	72.56
502.02	4.68
502.20	100.64
502.37	39.79
502.55	44.47
502.72	110.01
502.90	44.47
503.07	175.54
503.25	84.26
503.43	72.56
503.60	121.71
503.78	142.77
503.95	53.83
504.13	170.86
504.30	42.13
504.48	37.45
504.65	51.49
504.83	37.45
505.01	74.90
505.18	46.81
505.36	72.56
505.53	74.90
505.71	168.52
505.88	138.09
506.06	42.13
506.23	4.68
506.41	119.37
506.58	93.62
506.76	46.81
506.93	88.94
507.11	121.71
507.28	65.54
507.46	88.94
507.63	60.85
507.81	0.00
507.98	70.22
508.16	42.13
508.33	30.43
508.50	79.58
508.68	95.96
508.85	65.54
509.03	98.30
509.20	58.51
509.38	58.51
509.55	65.54
509.73	56.17
509.90	81.92
510.08	44.47
510.25	88.94
510.42	42.13
510.60	77.24
510.77	58.51
510.95	77.24
511.12	112.35
511.30	58.51
511.47	46.81
511.64	39.79
511.82	28.09
511.99	81.92
512.17	0.00
512.34	37.45
512.51	100.64
512.69	149.79
512.86	121.71
513.04	126.39
513.21	124.05
513.38	77.24
513.56	95.96
513.73	46.81
513.90	91.28
514.08	65.54
514.25	14.04
514.43	138.09
514.60	23.41
514.77	49.15
514.95	126.39
515.12	67.88
515.29	180.22
515.47	133.41
515.64	77.24
515.81	166.18
515.99	56.17
516.16	114.69
516.33	86.60
516.51	133.41
516.68	102.98
516.85	100.64
517.03	53.83
517.20	91.28
517.37	60.85
517.54	44.47
517.72	77.24
517.89	140.43
518.06	98.30
518.24	189.58
518.41	88.94
518.58	79.58
518.75	53.83
518.93	72.56
519.10	194.26
519.27	110.01
519.45	70.22
519.62	81.92
519.79	93.62
519.96	114.69
520.14	128.73
520.31	84.26
520.48	93.62
520.65	32.77
520.83	110.01
521.00	60.85
521.17	67.88
521.34	175.54
521.52	79.58
521.69	114.69
521.86	84.26
522.03	105.32
522.20	81.92
522.38	25.75
522.55	23.41
522.72	79.58
522.89	37.45
523.07	74.90
523.24	84.26
523.41	152.13
523.58	14.04
523.75	60.85
523.92	42.13
524.10	100.64
524.27	0.00
524.44	117.03
524.61	72.56
524.78	60.85
524.96	51.49
525.13	91.28
525.30	30.43
525.47	35.11
525.64	152.13
525.81	100.64
525.98	93.62
526.16	98.30
526.33	49.15
526.50	142.77
526.67	37.45
526.84	53.83
527.01	84.26
527.18	140.43
527.36	100.64
527.53	58.51
527.70	74.90
527.87	42.13
528.04	159.16
528.21	81.92
528.38	110.01
528.55	100.64
528.72	23.41
528.89	72.56
529.07	128.73
529.24	42.13
529.41	133.41
529.58	105.32
529.75	18.72
529.92	152.13
530.09	156.82
530.26	110.01
530.43	93.62
530.60	88.94
530.77	58.51
530.94	86.60
531.11	93.62
531.28	100.64
531.46	133.41
531.63	72.56
531.80	18.72
531.97	102.98
532.14	72.56
532.31	161.50
532.48	105.32
532.65	121.71
532.82	119.37
532.99	177.88
533.16	60.85
533.33	74.90
533.50	93.62
533.67	32.77
533.84	35.11
534.01	142.77
534.18	128.73
534.35	110.01
534.52	72.56
534.69	86.60
534.86	147.45
535.03	98.30
535.20	49.15
535.37	84.26
535.54	117.03
535.71	74.90
535.88	37.45
536.05	56.17
536.22	105.32
536.38	74.90
536.55	88.94
536.72	0.00
536.89	0.00
537.06	77.24
537.23	67.88
537.40	114.69
537.57	128.73
537.74	70.22
537.91	110.01
538.08	114.69
538.25	121.71
538.42	30.43
538.59	105.32
538.75	86.60
538.92	58.51
539.09	86.60
539.26	72.56
539.43	56.17
539.60	100.64
539.77	161.50
539.94	84.26
540.11	72.56
540.28	46.81
540.44	163.84
540.61	42.13
540.78	131.07
540.95	0.00
541.12	53.83
541.29	63.19
541.46	56.17
541.62	121.71
541.79	180.22
541.96	98.30
542.13	74.90
542.30	91.28
542.47	74.90
542.63	53.83
542.80	72.56
542.97	77.24
543.14	93.62
543.31	100.64
543.48	42.13
543.64	46.81
543.81	51.49
543.98	114.69
544.15	93.62
544.32	117.03
544.48	177.88
544.65	60.85
544.82	100.64
544.99	88.94
545.16	67.88
545.32	81.92
545.49	86.60
545.66	23.41
545.83	117.03
546.00	25.75
546.16	93.62
546.33	102.98
546.50	58.51
546.67	147.45
546.83	46.81
547.00	70.22
547.17	84.26
547.34	58.51
547.50	32.77
547.67	95.96
547.84	95.96
548.00	70.22
548.17	124.05
548.34	51.49
548.51	49.15
548.67	70.22
548.84	46.81
549.01	86.60
549.18	35.11
549.34	65.54
549.51	30.43
549.68	152.13
549.84	77.24
550.01	175.54
550.18	72.56
550.34	32.77
550.51	112.35
550.68	74.90
550.84	95.96
551.01	140.43
551.18	98.30
551.34	126.39
551.51	79.58
551.68	88.94
551.84	72.56
552.01	67.88
552.18	25.75
552.34	107.66
552.51	93.62
552.68	72.56
552.84	119.37
553.01	145.11
553.18	88.94
553.34	79.58
553.51	51.49
553.67	42.13
553.84	110.01
554.01	140.43
554.17	91.28
554.34	110.01
554.51	91.28
554.67	72.56
554.84	133.41
555.00	77.24
555.17	117.03
555.33	119.37
555.50	88.94
555.67	114.69
555.83	42.13
556.00	21.06
556.16	88.94
556.33	145.11
556.50	114.69
556.66	107.66
556.83	70.22
556.99	91.28
557.16	67.88
557.32	65.54
557.49	88.94
557.65	86.60
557.82	77.24
557.98	105.32
558.15	65.54
558.32	67.88
558.48	131.07
558.65	25.75
558.81	88.94
558.98	131.07
559.14	112.35
559.31	138.09
559.47	0.00
559.64	63.19
559.80	88.94
559.97	117.03
560.13	77.24
560.30	93.62
560.46	149.79
560.63	117.03
560.79	182.56
560.96	32.77
561.12	93.62
561.29	124.05
561.45	138.09
561.61	161.50
561.78	145.11
561.94	81.92
562.11	149.79
562.27	72.56
562.44	131.07
562.60	98.30
562.77	18.72
562.93	74.90
563.10	65.54
563.26	58.51
563.42	72.56
563.59	110.01
563.75	81.92
563.92	56.17
564.08	100.64
564.24	32.77
564.41	93.62
564.57	84.26
564.74	77.24
564.90	60.85
565.07	35.11
565.23	23.41
565.39	88.94
565.56	121.71
565.72	14.04
565.88	65.54
566.05	37.45
566.21	77.24
566.38	110.01
566.54	102.98
566.70	35.11
566.87	67.88
567.03	21.06
567.19	9.36
567.36	77.24
567.52	196.60
567.68	74.90
567.85	124.05
568.01	65.54
568.17	53.83
568.34	128.73
568.50	135.75
568.66	84.26
568.83	65.54
568.99	60.85
569.15	128.73
569.32	88.94
569.48	42.13
569.64	37.45
569.81	77.24
569.97	84.26
570.13	105.32
570.30	18.72
570.46	42.13
570.62	138.09
570.78	65.54
570.95	65.54
571.11	112.35
571.27	126.39
571.43	107.66
571.60	72.56
571.76	56.17
571.92	46.81
572.09	91.28
572.25	65.54
572.41	117.03
572.57	44.47
572.74	107.66
572.90	74.90
573.06	105.32
573.22	23.41
573.38	44.47
573.55	138.09
573.71	145.11
573.87	25.75
574.03	102.98
574.20	105.32
574.36	126.39
574.52	86.60
574.68	28.09
574.84	32.77
575.01	32.77
575.17	51.49
575.33	107.66
575.49	70.22
575.65	14.04
575.82	37.45
575.98	95.96
576.14	84.26
576.30	98.30
576.46	147.45
576.62	79.58
576.79	98.30
576.95	0.00
577.11	138.09
577.27	65.54
577.43	67.88
577.59	110.01
577.75	65.54
577.92	81.92
578.08	107.66
578.24	32.77
578.40	63.19
578.56	44.47
578.72	77.24
578.88	0.00
579.04	46.81
579.21	117.03
579.37	51.49
579.53	44.47
579.69	95.96
579.85	93.62
580.01	46.81
580.17	56.17
580.33	86.60
580.49	124.05
580.65	100.64
580.82	79.58
580.98	14.04
581.14	72.56
581.30	51.49
581.46	77.24
581.62	119.37
581.78	81.92
581.94	42.13
582.10	42.13
582.26	56.17
582.42	102.98
582.58	91.28
582.74	39.79
582.90	18.72
583.06	131.07
583.22	95.96
583.38	39.79
583.54	67.88
583.70	86.60
583.86	112.35
584.02	107.66
584.18	53.83
584.34	95.96
584.50	126.39
584.66	63.19
584.82	117.03
584.98	49.15
585.14	86.60
585.30	23.41
585.46	119.37
585.62	88.94
585.78	72.56
585.94	46.81
586.10	21.06
586.26	39.79
586.42	39.79
586.58	35.11
586.74	53.83
586.90	53.83
587.06	124.05
587.22	16.38
587.38	65.54
587.54	42.13
587.70	23.41
587.86	74.90
588.02	77.24
588.18	77.24
588.34	53.83
588.49	58.51
588.65	35.11
588.81	70.22
588.97	0.00
589.13	44.47
589.29	58.51
589.45	37.45
589.61	110.01
589.77	46.81
589.93	65.54
590.08	93.62
590.24	86.60
590.40	32.77
590.56	124.05
590.72	102.98
590.88	79.58
591.04	74.90
591.20	42.13
591.35	72.56
591.51	23.41
591.67	86.60
591.83	28.09
591.99	110.01
592.15	56.17
592.31	74.90
592.46	88.94
592.62	86.60
592.78	84.26
592.94	30.43
593.10	86.60
593.26	67.88
593.41	51.49
593.57	39.79
593.73	112.35
593.89	51.49
594.05	51.49
594.20	112.35
594.36	9.36
594.52	63.19
594.68	81.92
594.84	128.73
594.99	86.60
595.15	72.56
595.31	77.24
595.47	65.54
595.62	86.60
595.78	131.07
595.94	86.60
596.10	77.24
596.25	35.11
596.41	72.56
596.57	84.26
596.73	0.00
596.88	133.41
597.04	98.30
597.20	166.18
597.36	86.60
597.51	49.15
597.67	72.56
597.83	124.05
597.99	98.30
598.14	53.83
598.30	0.00
598.46	28.09
598.61	124.05
598.77	65.54
598.93	23.41
599.09	102.98
599.24	16.38
599.40	145.11
599.56	95.96
599.71	21.06
599.87	112.35
600.03	51.49
600.18	58.51
600.34	44.47
600.50	93.62
600.65	42.13
600.81	128.73
600.97	53.83
601.12	110.01
601.28	88.94
601.44	91.28
601.59	42.13
601.75	18.72
601.91	56.17
602.06	16.38
602.22	119.37
602.37	126.39
602.53	114.69
602.69	79.58
602.84	51.49
603.00	23.41
603.16	74.90
603.31	70.22
603.47	60.85
603.62	53.83
603.78	49.15
603.94	67.88
604.09	114.69
604.25	42.13
604.40	79.58
604.56	42.13
604.71	161.50
604.87	51.49
605.03	58.51
605.18	77.24
605.34	98.30
605.49	72.56
605.65	44.47
605.80	114.69
605.96	46.81
606.12	4.68
606.27	28.09
606.43	39.79
606.58	77.24
606.74	30.43
606.89	84.26
607.05	42.13
607.20	84.26
607.36	86.60
607.51	63.19
607.67	81.92
607.82	30.43
607.98	53.83
608.13	100.64
608.29	145.11
608.44	51.49
608.60	98.30
608.75	117.03
608.91	16.38
609.06	28.09
609.22	46.81
609.37	9.36
609.53	63.19
609.68	30.43
609.84	60.85
609.99	93.62
610.15	46.81
610.30	51.49
610.46	126.39
610.61	63.19
610.76	32.77
610.92	81.92
611.07	72.56
611.23	9.36
611.38	23.41
611.54	74.90
611.69	63.19
611.84	32.77
612.00	44.47
612.15	49.15
612.31	93.62
612.46	53.83
612.62	58.51
612.77	65.54
612.92	86.60
613.08	0.00
613.23	60.85
613.39	70.22
613.54	51.49
613.69	56.17
613.85	30.43
614.00	18.72
614.15	110.01
614.31	74.90
614.46	70.22
614.62	88.94
614.77	65.54
614.92	79.58
615.08	121.71
615.23	142.77
615.38	88.94
615.54	79.58
615.69	44.47
615.84	51.49
616.00	49.15
616.15	100.64
616.30	63.19
616.46	63.19
616.61	105.32
616.76	95.96
616.92	65.54
617.07	72.56
617.22	110.01
617.37	37.45
617.53	79.58
617.68	32.77
617.83	79.58
617.99	56.17
618.14	107.66
618.29	81.92
618.45	105.32
618.60	7.02
618.75	70.22
618.90	119.37
619.06	18.72
619.21	110.01
619.36	88.94
619.51	63.19
619.67	91.28
619.82	77.24
619.97	16.38
620.12	56.17
620.28	110.01
620.43	60.85
620.58	81.92
620.73	14.04
620.89	58.51
621.04	37.45
621.19	16.38
621.34	23.41
621.49	14.04
621.65	98.30
621.80	77.24
621.95	9.36
622.10	152.13
622.25	84.26
622.41	9.36
622.56	100.64
622.71	65.54
622.86	42.13
623.01	49.15
623.16	121.71
623.32	121.71
623.47	35.11
623.62	60.85
623.77	49.15
623.92	35.11
624.07	56.17
624.23	53.83
624.38	14.04
624.53	44.47
624.68	44.47
624.83	93.62
624.98	95.96
625.13	74.90
625.29	70.22
625.44	88.94
625.59	84.26
625.74	30.43
625.89	72.56
626.04	65.54
626.19	107.66
626.34	72.56
626.49	37.45
626.65	63.19
626.80	60.85
626.95	56.17
627.10	67.88
627.25	65.54
627.40	60.85
627.55	81.92
627.70	142.77
627.85	117.03
628.00	30.43
628.15	2.34
628.30	84.26
628.45	58.51
628.60	4.68
628.76	42.13
628.91	0.00
629.06	84.26
629.21	51.49
629.36	77.24
629.51	35.11
629.66	23.41
629.81	39.79
629.96	56.17
630.11	67.88
630.26	11.70
630.41	53.83
630.56	30.43
630.71	0.00
630.86	46.81
631.01	117.03
631.16	37.45
631.31	25.75
631.46	53.83
631.61	28.09
631.76	86.60
631.91	102.98
632.06	39.79
632.21	100.64
632.36	112.35
632.51	91.28
632.66	79.58
632.81	0.00
632.96	44.47
633.10	124.05
633.25	131.07
633.40	65.54
633.55	46.81
633.70	84.26
633.85	18.72
634.00	86.60
634.15	63.19
634.30	65.54
634.45	46.81
634.60	0.00
634.75	46.81
634.90	9.36
635.05	18.72
635.19	67.88
635.34	35.11
635.49	44.47
635.64	79.58
635.79	88.94
635.94	39.79
636.09	72.56
636.24	72.56
636.39	67.88
636.53	0.00
636.68	154.48
636.83	100.64
636.98	65.54
637.13	18.72
637.28	0.00
637.43	58.51
637.57	37.45
637.72	44.47
637.87	0.00
638.02	14.04
638.17	30.43
638.32	117.03
638.46	16.38
638.61	21.06
638.76	102.98
638.91	91.28
639.06	159.16
639.20	44.47
639.35	88.94
639.50	53.83
639.65	149.79
639.80	28.09
639.94	58.51
640.09	77.24
640.24	44.47
640.39	70.22
640.54	35.11
640.68	65.54
640.83	37.45
640.98	46.81
641.13	49.15
641.27	0.00
641.42	32.77
641.57	0.00
641.72	25.75
641.86	60.85
642.01	70.22
642.16	105.32
642.31	86.60
642.45	2.34
642.60	42.13
642.75	32.77
642.90	63.19
643.04	84.26
643.19	81.92
643.34	37.45
643.48	60.85
643.63	53.83
643.78	79.58
643.93	107.66
644.07	0.00
644.22	37.45
644.37	28.09
644.51	60.85
644.66	32.77
644.81	49.15
644.95	81.92
645.10	91.28
645.25	98.30
645.39	0.00
645.54	7.02
645.69	18.72
645.83	4.68
645.98	25.75
646.13	35.11
646.27	0.00
646.42	100.64
646.57	51.49
646.71	2.34
646.86	4.68
647.00	65.54
647.15	0.00
647.30	37.45
647.44	56.17
647.59	32.77
647.74	0.00
647.88	30.43
648.03	0.00
648.17	63.19
648.32	84.26
648.47	4.68
648.61	0.00
648.76	35.11
648.90	70.22
649.05	23.41
649.20	95.96
649.34	112.35
649.49	100.64
649.63	0.00
649.78	16.38
649.92	7.02
650.07	131.07
650.21	65.54
650.36	72.56
650.51	81.92
650.65	142.77
650.80	49.15
650.94	21.06
651.09	46.81
651.23	44.47
651.38	88.94
651.52	107.66
651.67	53.83
651.81	0.00
651.96	0.00
652.10	30.43
652.25	35.11
652.39	7.02
652.54	88.94
652.68	95.96
652.83	93.62
652.97	60.85
653.12	65.54
653.26	65.54
653.41	67.88
653.55	32.77
653.70	131.07
653.84	119.37
653.99	37.45
654.13	30.43
654.27	39.79
654.42	72.56
654.56	77.24
654.71	117.03
654.85	65.54
655.00	0.00
655.14	81.92
655.29	16.38
655.43	112.35
655.57	46.81
655.72	35.11
655.86	30.43
656.01	60.85
656.15	93.62
656.30	72.56
656.44	70.22
656.58	11.70
656.73	49.15
656.87	65.54
657.01	56.17
657.16	2.34
657.30	84.26
657.45	98.30
657.59	30.43
657.73	117.03
657.88	121.71
658.02	112.35
658.16	18.72
658.31	11.70
658.45	44.47
658.60	49.15
658.74	58.51
658.88	81.92
659.03	46.81
659.17	11.70
659.31	58.51
659.46	35.11
659.60	32.77
659.74	107.66
659.89	49.15
660.03	14.04
660.17	14.04
660.32	25.75
660.46	56.17
660.60	46.81
660.74	32.77
660.89	39.79
661.03	91.28
661.17	30.43
661.32	0.00
661.46	16.38
661.60	56.17
661.74	37.45
661.89	37.45
662.03	0.00
662.17	53.83
662.31	72.56
662.46	9.36
662.60	0.00
662.74	58.51
662.88	91.28
663.03	88.94
663.17	121.71
663.31	81.92
663.45	35.11
663.60	79.58
663.74	25.75
663.88	30.43
664.02	70.22
664.17	9.36
664.31	42.13
664.45	23.41
664.59	102.98
664.73	79.58
664.88	79.58
665.02	79.58
665.16	51.49
665.30	4.68
665.44	56.17
665.59	77.24
665.73	0.00
665.87	51.49
666.01	0.00
666.15	39.79
666.29	42.13
666.44	88.94
666.58	88.94
666.72	37.45
666.86	51.49
667.00	74.90
667.14	88.94
667.28	21.06
667.43	70.22
667.57	28.09
667.71	81.92
667.85	98.30
667.99	60.85
668.13	0.00
668.27	117.03
668.41	30.43
668.56	32.77
668.70	39.79
668.84	58.51
668.98	44.47
669.12	81.92
669.26	7.02
669.40	51.49
669.54	53.83
669.68	42.13
669.82	67.88
669.96	105.32
670.10	79.58
670.25	0.00
670.39	65.54
670.53	18.72
670.67	65.54
670.81	93.62
670.95	44.47
671.09	102.98
671.23	0.00
671.37	102.98
671.51	91.28
671.65	98.30
671.79	23.41
671.93	77.24
672.07	18.72
672.21	46.81
672.35	63.19
672.49	81.92
672.63	39.79
672.77	100.64
672.91	65.54
673.05	98.30
673.19	51.49
673.33	53.83
673.47	0.00
673.61	86.60
673.75	67.88
673.89	70.22
674.03	72.56
674.17	21.06
674.31	152.13
674.45	35.11
674.59	79.58
674.73	0.00
674.87	65.54
675.01	88.94
675.15	16.38
675.29	0.00
675.43	93.62
675.56	0.00
675.70	93.62
675.84	16.38
675.98	110.01
676.12	58.51
676.26	65.54
676.40	110.01
676.54	37.45
676.68	28.09
676.82	67.88
676.96	105.32
677.10	23.41
677.23	102.98
677.37	39.79
677.51	32.77
677.65	100.64
677.79	37.45
677.93	53.83
678.07	126.39
678.21	49.15
678.34	56.17
678.48	58.51
678.62	79.58
678.76	126.39
678.90	63.19
679.04	16.38
679.18	25.75
679.31	0.00
679.45	77.24
679.59	0.00
679.73	30.43
679.87	39.79
680.00	4.68
680.14	42.13
680.28	46.81
680.42	21.06
680.56	74.90
680.70	67.88
680.83	70.22
680.97	93.62
681.11	60.85
681.25	9.36
681.39	0.00
681.52	58.51
681.66	51.49
681.80	58.51
681.94	30.43
682.07	25.75
682.21	37.45
682.35	84.26
682.49	65.54
682.62	0.00
682.76	2.34
682.90	23.41
683.04	0.00
683.17	25.75
683.31	0.00
683.45	42.13
683.59	30.43
683.72	63.19
683.86	9.36
684.00	67.88
684.13	35.11
684.27	56.17
684.41	0.00
684.55	0.00
684.68	67.88
684.82	39.79
684.96	16.38
685.09	65.54
685.23	70.22
685.37	67.88
685.50	93.62
685.64	112.35
685.78	72.56
685.91	53.83
686.05	30.43
686.19	86.60
686.32	46.81
686.46	51.49
686.60	39.79
686.73	88.94
686.87	95.96
687.01	23.41
687.14	86.60
687.28	65.54
687.42	0.00
687.55	30.43
687.69	65.54
687.82	32.77
687.96	56.17
688.10	81.92
688.23	37.45
688.37	42.13
688.50	16.38
688.64	37.45
688.78	39.79
688.91	77.24
689.05	53.83
689.18	135.75
689.32	42.13
689.46	112.35
689.59	65.54
689.73	74.90
689.86	32.77
690.00	51.49
690.13	128.73
690.27	128.73
690.41	7.02
690.54	14.04
690.68	46.81
690.81	60.85
690.95	81.92
691.08	32.77
691.22	93.62
691.35	37.45
691.49	72.56
691.62	21.06
691.76	28.09
691.89	72.56
692.03	49.15
692.16	23.41
692.30	74.90
692.43	23.41
692.57	100.64
692.70	79.58
692.84	9.36
692.97	53.83
693.11	88.94
693.24	51.49
693.38	0.00
693.51	110.01
693.65	107.66
693.78	11.70
693.92	0.00
694.05	23.41
694.19	65.54
694.32	7.02
694.45	74.90
694.59	0.00
694.72	49.15
694.86	81.92
694.99	53.83
695.13	14.04
695.26	35.11
695.39	28.09
695.53	84.26
695.66	30.43
695.80	21.06
695.93	0.00
696.07	18.72
696.20	35.11
696.33	60.85
696.47	67.88
696.60	60.85
696.73	0.00
696.87	42.13
697.00	51.49
697.14	112.35
697.27	16.38
697.40	77.24
697.54	42.13
697.67	60.85
697.80	14.04
697.94	60.85
698.07	21.06
698.21	70.22
698.34	9.36
698.47	42.13
698.61	35.11
698.74	46.81
698.87	140.43
699.01	0.00
699.14	60.85
699.27	30.43
699.40	42.13
699.54	0.00
699.67	16.38
699.80	35.11
699.94	39.79
700.07	49.15
700.20	0.00
700.34	81.92
700.47	11.70
700.60	0.00
700.73	49.15
700.87	30.43
701.00	53.83
701.13	84.26
701.26	11.70
701.40	7.02
701.53	39.79
701.66	42.13
701.79	7.02
701.93	0.00
702.06	74.90
702.19	74.90
702.32	0.00
702.46	28.09
702.59	16.38
702.72	23.41
702.85	63.19
702.99	16.38
703.12	128.73
703.25	58.51
703.38	46.81
703.51	42.13
703.65	11.70
703.78	74.90
703.91	53.83
704.04	39.79
704.17	32.77
704.31	0.00
704.44	9.36
704.57	81.92
704.70	25.75
704.83	58.51
704.96	107.66
705.10	14.04
705.23	21.06
>>>>>End Processed Spectral Data<<<<<
