SpectraSuite Data File
++++++++++++++++++++++++++++++++++++
Date: Fri Oct 04 12:13:27 GMT-05:00 2013
User: price-jones
Dark Spectrum Present: No
Reference Spectrum Present: No
Number of Sampled Component Spectra: 1
Spectrometers: USB2+H05261
Integration Time (usec): 10000 (USB2+H05261)
Spectra Averaged: 1 (USB2+H05261)
Boxcar Smoothing: 0 (USB2+H05261)
Correct for Electrical Dark: No (USB2+H05261)
Strobe/Lamp Enabled: No (USB2+H05261)
Correct for Detector Non-linearity: No (USB2+H05261)
Correct for Stray Light: No (USB2+H05261)
Number of Pixels in Processed Spectrum: 2048
>>>>>Begin Processed Spectral Data<<<<<
365.73	0.00
365.92	0.00
366.12	0.00
366.32	0.00
366.52	0.00
366.72	0.00
366.91	0.00
367.11	0.00
367.31	0.00
367.51	0.00
367.70	0.00
367.90	0.00
368.10	0.00
368.30	0.00
368.49	0.00
368.69	0.00
368.89	0.00
369.09	0.00
369.28	0.00
369.48	0.00
369.68	0.00
369.87	0.00
370.07	0.00
370.27	0.00
370.47	0.00
370.66	0.00
370.86	0.00
371.06	0.00
371.25	4.68
371.45	0.00
371.65	0.00
371.84	44.47
372.04	11.70
372.24	16.38
372.44	81.92
372.63	0.00
372.83	0.00
373.03	7.02
373.22	30.43
373.42	77.24
373.62	21.06
373.81	0.00
374.01	18.72
374.21	79.58
374.40	23.41
374.60	84.26
374.79	51.49
374.99	28.09
375.19	65.54
375.38	25.75
375.58	28.09
375.78	0.00
375.97	39.79
376.17	21.06
376.37	0.00
376.56	72.56
376.76	0.00
376.95	58.51
377.15	35.11
377.35	44.47
377.54	0.00
377.74	84.26
377.93	28.09
378.13	14.04
378.33	30.43
378.52	37.45
378.72	56.17
378.91	0.00
379.11	37.45
379.31	23.41
379.50	25.75
379.70	23.41
379.89	72.56
380.09	0.00
380.28	0.00
380.48	0.00
380.68	7.02
380.87	0.00
381.07	0.00
381.26	0.00
381.46	0.00
381.65	0.00
381.85	0.00
382.04	0.00
382.24	60.85
382.43	9.36
382.63	25.75
382.83	0.00
383.02	4.68
383.22	21.06
383.41	79.58
383.61	30.43
383.80	53.83
384.00	0.00
384.19	25.75
384.39	0.00
384.58	21.06
384.78	14.04
384.97	58.51
385.17	51.49
385.36	84.26
385.56	0.00
385.75	0.00
385.95	53.83
386.14	23.41
386.34	0.00
386.53	28.09
386.72	32.77
386.92	0.00
387.11	18.72
387.31	0.00
387.50	0.00
387.70	77.24
387.89	4.68
388.09	0.00
388.28	42.13
388.48	0.00
388.67	0.00
388.86	25.75
389.06	51.49
389.25	7.02
389.45	16.38
389.64	0.00
389.84	84.26
390.03	0.00
390.22	44.47
390.42	0.00
390.61	0.00
390.81	32.77
391.00	0.00
391.19	0.00
391.39	39.79
391.58	0.00
391.78	0.00
391.97	0.00
392.16	58.51
392.36	44.47
392.55	2.34
392.75	133.41
392.94	0.00
393.13	0.00
393.33	131.07
393.52	58.51
393.71	25.75
393.91	0.00
394.10	0.00
394.29	51.49
394.49	56.17
394.68	100.64
394.88	49.15
395.07	11.70
395.26	44.47
395.46	0.00
395.65	112.35
395.84	0.00
396.04	16.38
396.23	32.77
396.42	21.06
396.62	72.56
396.81	51.49
397.00	0.00
397.19	37.45
397.39	60.85
397.58	0.00
397.77	0.00
397.97	4.68
398.16	0.00
398.35	23.41
398.55	72.56
398.74	0.00
398.93	65.54
399.12	63.19
399.32	30.43
399.51	37.45
399.70	0.00
399.90	11.70
400.09	102.98
400.28	53.83
400.47	147.45
400.67	0.00
400.86	42.13
401.05	65.54
401.24	49.15
401.44	60.85
401.63	98.30
401.82	0.00
402.01	0.00
402.21	0.00
402.40	16.38
402.59	30.43
402.78	0.00
402.97	16.38
403.17	46.81
403.36	0.00
403.55	49.15
403.74	32.77
403.93	9.36
404.13	30.43
404.32	35.11
404.51	0.00
404.70	28.09
404.89	4.68
405.09	28.09
405.28	7.02
405.47	0.00
405.66	0.00
405.85	0.00
406.05	100.64
406.24	0.00
406.43	30.43
406.62	0.00
406.81	4.68
407.00	42.13
407.20	79.58
407.39	0.00
407.58	88.94
407.77	102.98
407.96	16.38
408.15	9.36
408.34	0.00
408.54	32.77
408.73	2.34
408.92	0.00
409.11	46.81
409.30	18.72
409.49	32.77
409.68	79.58
409.87	28.09
410.07	28.09
410.26	0.00
410.45	7.02
410.64	46.81
410.83	0.00
411.02	67.88
411.21	9.36
411.40	67.88
411.59	0.00
411.78	0.00
411.98	25.75
412.17	49.15
412.36	81.92
412.55	51.49
412.74	9.36
412.93	77.24
413.12	0.00
413.31	74.90
413.50	95.96
413.69	56.17
413.88	74.90
414.07	4.68
414.26	81.92
414.45	53.83
414.64	0.00
414.83	63.19
415.02	0.00
415.22	2.34
415.41	23.41
415.60	30.43
415.79	0.00
415.98	32.77
416.17	44.47
416.36	79.58
416.55	11.70
416.74	0.00
416.93	46.81
417.12	30.43
417.31	25.75
417.50	0.00
417.69	35.11
417.88	77.24
418.07	30.43
418.26	63.19
418.45	21.06
418.64	56.17
418.83	86.60
419.02	67.88
419.21	2.34
419.39	81.92
419.58	0.00
419.77	65.54
419.96	39.79
420.15	39.79
420.34	0.00
420.53	9.36
420.72	0.00
420.91	65.54
421.10	0.00
421.29	9.36
421.48	60.85
421.67	0.00
421.86	0.00
422.05	9.36
422.24	21.06
422.43	0.00
422.61	14.04
422.80	0.00
422.99	51.49
423.18	14.04
423.37	14.04
423.56	84.26
423.75	0.00
423.94	42.13
424.13	0.00
424.32	0.00
424.50	2.34
424.69	39.79
424.88	44.47
425.07	100.64
425.26	95.96
425.45	0.00
425.64	0.00
425.83	0.00
426.01	74.90
426.20	32.77
426.39	65.54
426.58	21.06
426.77	49.15
426.96	18.72
427.15	4.68
427.33	49.15
427.52	49.15
427.71	42.13
427.90	23.41
428.09	35.11
428.28	0.00
428.46	0.00
428.65	16.38
428.84	65.54
429.03	0.00
429.22	0.00
429.40	51.49
429.59	65.54
429.78	51.49
429.97	88.94
430.16	0.00
430.34	37.45
430.53	0.00
430.72	0.00
430.91	7.02
431.10	74.90
431.28	58.51
431.47	77.24
431.66	72.56
431.85	28.09
432.03	0.00
432.22	0.00
432.41	28.09
432.60	0.00
432.79	51.49
432.97	70.22
433.16	72.56
433.35	4.68
433.54	44.47
433.72	60.85
433.91	117.03
434.10	0.00
434.28	37.45
434.47	0.00
434.66	35.11
434.85	18.72
435.03	30.43
435.22	37.45
435.41	98.30
435.59	93.62
435.78	0.00
435.97	0.00
436.16	7.02
436.34	0.00
436.53	46.81
436.72	7.02
436.90	58.51
437.09	14.04
437.28	0.00
437.46	0.00
437.65	11.70
437.84	7.02
438.02	60.85
438.21	28.09
438.40	37.45
438.58	7.02
438.77	42.13
438.96	32.77
439.14	84.26
439.33	39.79
439.52	70.22
439.70	37.45
439.89	11.70
440.08	0.00
440.26	79.58
440.45	0.00
440.63	7.02
440.82	0.00
441.01	79.58
441.19	0.00
441.38	7.02
441.57	30.43
441.75	81.92
441.94	53.83
442.12	30.43
442.31	9.36
442.50	7.02
442.68	44.47
442.87	42.13
443.05	51.49
443.24	39.79
443.43	37.45
443.61	21.06
443.80	23.41
443.98	88.94
444.17	56.17
444.35	105.32
444.54	63.19
444.73	42.13
444.91	0.00
445.10	35.11
445.28	65.54
445.47	35.11
445.65	0.00
445.84	32.77
446.02	100.64
446.21	44.47
446.39	91.28
446.58	70.22
446.77	0.00
446.95	0.00
447.14	2.34
447.32	0.00
447.51	0.00
447.69	63.19
447.88	51.49
448.06	25.75
448.25	51.49
448.43	46.81
448.62	0.00
448.80	14.04
448.99	9.36
449.17	0.00
449.36	44.47
449.54	0.00
449.73	37.45
449.91	53.83
450.10	0.00
450.28	39.79
450.46	51.49
450.65	70.22
450.83	0.00
451.02	0.00
451.20	0.00
451.39	14.04
451.57	7.02
451.76	74.90
451.94	65.54
452.13	79.58
452.31	53.83
452.49	91.28
452.68	18.72
452.86	79.58
453.05	56.17
453.23	21.06
453.42	35.11
453.60	79.58
453.78	16.38
453.97	49.15
454.15	32.77
454.34	70.22
454.52	30.43
454.70	74.90
454.89	0.00
455.07	70.22
455.26	84.26
455.44	23.41
455.62	11.70
455.81	0.00
455.99	7.02
456.17	98.30
456.36	11.70
456.54	0.00
456.73	53.83
456.91	0.00
457.09	14.04
457.28	63.19
457.46	0.00
457.64	67.88
457.83	72.56
458.01	77.24
458.19	44.47
458.38	56.17
458.56	9.36
458.74	37.45
458.93	16.38
459.11	7.02
459.29	21.06
459.48	74.90
459.66	0.00
459.84	0.00
460.03	23.41
460.21	14.04
460.39	39.79
460.57	23.41
460.76	18.72
460.94	14.04
461.12	58.51
461.31	63.19
461.49	81.92
461.67	30.43
461.85	2.34
462.04	42.13
462.22	128.73
462.40	46.81
462.59	23.41
462.77	7.02
462.95	28.09
463.13	0.00
463.32	11.70
463.50	56.17
463.68	18.72
463.86	63.19
464.05	0.00
464.23	28.09
464.41	2.34
464.59	4.68
464.78	14.04
464.96	32.77
465.14	44.47
465.32	21.06
465.50	39.79
465.69	0.00
465.87	49.15
466.05	37.45
466.23	56.17
466.41	32.77
466.60	0.00
466.78	42.13
466.96	70.22
467.14	72.56
467.32	18.72
467.51	11.70
467.69	18.72
467.87	32.77
468.05	63.19
468.23	39.79
468.41	56.17
468.60	0.00
468.78	14.04
468.96	18.72
469.14	98.30
469.32	16.38
469.50	0.00
469.69	44.47
469.87	0.00
470.05	7.02
470.23	0.00
470.41	56.17
470.59	32.77
470.77	30.43
470.95	0.00
471.14	11.70
471.32	30.43
471.50	0.00
471.68	93.62
471.86	119.37
472.04	58.51
472.22	0.00
472.40	21.06
472.58	28.09
472.77	16.38
472.95	44.47
473.13	88.94
473.31	79.58
473.49	4.68
473.67	0.00
473.85	39.79
474.03	0.00
474.21	65.54
474.39	16.38
474.57	39.79
474.75	4.68
474.93	0.00
475.12	0.00
475.30	51.49
475.48	0.00
475.66	25.75
475.84	0.00
476.02	0.00
476.20	91.28
476.38	37.45
476.56	35.11
476.74	42.13
476.92	53.83
477.10	53.83
477.28	51.49
477.46	32.77
477.64	0.00
477.82	72.56
478.00	39.79
478.18	70.22
478.36	30.43
478.54	60.85
478.72	18.72
478.90	65.54
479.08	11.70
479.26	0.00
479.44	53.83
479.62	0.00
479.80	39.79
479.98	0.00
480.16	107.66
480.34	4.68
480.52	42.13
480.70	72.56
480.88	98.30
481.06	2.34
481.24	0.00
481.41	63.19
481.59	35.11
481.77	2.34
481.95	102.98
482.13	32.77
482.31	16.38
482.49	25.75
482.67	107.66
482.85	25.75
483.03	79.58
483.21	37.45
483.39	35.11
483.57	35.11
483.74	9.36
483.92	0.00
484.10	107.66
484.28	44.47
484.46	2.34
484.64	42.13
484.82	21.06
485.00	93.62
485.18	72.56
485.35	49.15
485.53	0.00
485.71	56.17
485.89	81.92
486.07	23.41
486.25	7.02
486.43	60.85
486.61	0.00
486.78	100.64
486.96	0.00
487.14	0.00
487.32	0.00
487.50	131.07
487.68	65.54
487.85	42.13
488.03	42.13
488.21	56.17
488.39	14.04
488.57	16.38
488.75	49.15
488.92	79.58
489.10	72.56
489.28	49.15
489.46	53.83
489.64	79.58
489.81	81.92
489.99	46.81
490.17	16.38
490.35	25.75
490.53	42.13
490.70	14.04
490.88	63.19
491.06	102.98
491.24	30.43
491.41	0.00
491.59	72.56
491.77	42.13
491.95	0.00
492.13	0.00
492.30	35.11
492.48	119.37
492.66	42.13
492.84	51.49
493.01	18.72
493.19	0.00
493.37	0.00
493.54	25.75
493.72	67.88
493.90	14.04
494.08	0.00
494.25	46.81
494.43	35.11
494.61	58.51
494.79	91.28
494.96	95.96
495.14	53.83
495.32	98.30
495.49	42.13
495.67	2.34
495.85	81.92
496.02	49.15
496.20	32.77
496.38	58.51
496.55	42.13
496.73	51.49
496.91	4.68
497.09	65.54
497.26	84.26
497.44	35.11
497.62	16.38
497.79	32.77
497.97	42.13
498.14	14.04
498.32	107.66
498.50	0.00
498.67	28.09
498.85	11.70
499.03	60.85
499.20	39.79
499.38	56.17
499.56	0.00
499.73	70.22
499.91	72.56
500.08	16.38
500.26	128.73
500.44	35.11
500.61	93.62
500.79	46.81
500.97	84.26
501.14	0.00
501.32	84.26
501.49	0.00
501.67	7.02
501.84	35.11
502.02	65.54
502.20	0.00
502.37	32.77
502.55	0.00
502.72	0.00
502.90	0.00
503.07	81.92
503.25	35.11
503.43	23.41
503.60	67.88
503.78	51.49
503.95	37.45
504.13	37.45
504.30	70.22
504.48	58.51
504.65	56.17
504.83	60.85
505.01	16.38
505.18	112.35
505.36	0.00
505.53	58.51
505.71	112.35
505.88	46.81
506.06	9.36
506.23	23.41
506.41	56.17
506.58	44.47
506.76	67.88
506.93	46.81
507.11	93.62
507.28	30.43
507.46	53.83
507.63	46.81
507.81	11.70
507.98	0.00
508.16	0.00
508.33	84.26
508.50	98.30
508.68	44.47
508.85	93.62
509.03	105.32
509.20	79.58
509.38	58.51
509.55	32.77
509.73	23.41
509.90	88.94
510.08	49.15
510.25	44.47
510.42	46.81
510.60	49.15
510.77	23.41
510.95	46.81
511.12	21.06
511.30	74.90
511.47	84.26
511.64	88.94
511.82	21.06
511.99	21.06
512.17	9.36
512.34	49.15
512.51	28.09
512.69	25.75
512.86	74.90
513.04	4.68
513.21	93.62
513.38	49.15
513.56	11.70
513.73	67.88
513.90	28.09
514.08	32.77
514.25	30.43
514.43	65.54
514.60	58.51
514.77	18.72
514.95	102.98
515.12	37.45
515.29	63.19
515.47	72.56
515.64	0.00
515.81	88.94
515.99	2.34
516.16	51.49
516.33	88.94
516.51	53.83
516.68	30.43
516.85	72.56
517.03	18.72
517.20	37.45
517.37	98.30
517.54	49.15
517.72	16.38
517.89	0.00
518.06	18.72
518.24	42.13
518.41	72.56
518.58	67.88
518.75	44.47
518.93	65.54
519.10	112.35
519.27	100.64
519.45	53.83
519.62	98.30
519.79	65.54
519.96	53.83
520.14	46.81
520.31	72.56
520.48	49.15
520.65	46.81
520.83	21.06
521.00	51.49
521.17	44.47
521.34	9.36
521.52	7.02
521.69	0.00
521.86	77.24
522.03	74.90
522.20	65.54
522.38	63.19
522.55	60.85
522.72	11.70
522.89	67.88
523.07	56.17
523.24	21.06
523.41	21.06
523.58	51.49
523.75	0.00
523.92	49.15
524.10	35.11
524.27	4.68
524.44	0.00
524.61	39.79
524.78	65.54
524.96	35.11
525.13	91.28
525.30	37.45
525.47	0.00
525.64	2.34
525.81	37.45
525.98	23.41
526.16	56.17
526.33	18.72
526.50	70.22
526.67	46.81
526.84	28.09
527.01	16.38
527.18	2.34
527.36	0.00
527.53	42.13
527.70	51.49
527.87	28.09
528.04	37.45
528.21	39.79
528.38	0.00
528.55	56.17
528.72	107.66
528.89	58.51
529.07	72.56
529.24	23.41
529.41	142.77
529.58	102.98
529.75	88.94
529.92	58.51
530.09	140.43
530.26	65.54
530.43	88.94
530.60	44.47
530.77	21.06
530.94	42.13
531.11	65.54
531.28	14.04
531.46	60.85
531.63	110.01
531.80	84.26
531.97	0.00
532.14	28.09
532.31	49.15
532.48	88.94
532.65	4.68
532.82	49.15
532.99	60.85
533.16	74.90
533.33	72.56
533.50	9.36
533.67	46.81
533.84	4.68
534.01	110.01
534.18	35.11
534.35	46.81
534.52	51.49
534.69	46.81
534.86	42.13
535.03	67.88
535.20	81.92
535.37	35.11
535.54	77.24
535.71	56.17
535.88	121.71
536.05	0.00
536.22	93.62
536.38	49.15
536.55	35.11
536.72	72.56
536.89	65.54
537.06	0.00
537.23	0.00
537.40	35.11
537.57	35.11
537.74	91.28
537.91	30.43
538.08	44.47
538.25	100.64
538.42	65.54
538.59	53.83
538.75	14.04
538.92	65.54
539.09	2.34
539.26	56.17
539.43	105.32
539.60	140.43
539.77	313.63
539.94	236.39
540.11	175.54
540.28	102.98
540.44	58.51
540.61	65.54
540.78	39.79
540.95	35.11
541.12	74.90
541.29	86.60
541.46	39.79
541.62	58.51
541.79	39.79
541.96	35.11
542.13	42.13
542.30	77.24
542.47	70.22
542.63	67.88
542.80	58.51
542.97	35.11
543.14	11.70
543.31	51.49
543.48	156.82
543.64	0.00
543.81	16.38
543.98	21.06
544.15	56.17
544.32	79.58
544.48	67.88
544.65	0.00
544.82	51.49
544.99	18.72
545.16	72.56
545.32	30.43
545.49	70.22
545.66	16.38
545.83	81.92
546.00	21.06
546.16	67.88
546.33	42.13
546.50	70.22
546.67	16.38
546.83	37.45
547.00	0.00
547.17	32.77
547.34	112.35
547.50	0.00
547.67	63.19
547.84	119.37
548.00	16.38
548.17	0.00
548.34	0.00
548.51	28.09
548.67	32.77
548.84	72.56
549.01	102.98
549.18	74.90
549.34	88.94
549.51	56.17
549.68	0.00
549.84	114.69
550.01	0.00
550.18	32.77
550.34	119.37
550.51	51.49
550.68	53.83
550.84	35.11
551.01	28.09
551.18	58.51
551.34	42.13
551.51	107.66
551.68	14.04
551.84	32.77
552.01	51.49
552.18	28.09
552.34	56.17
552.51	14.04
552.68	135.75
552.84	112.35
553.01	37.45
553.18	7.02
553.34	0.00
553.51	30.43
553.67	0.00
553.84	60.85
554.01	79.58
554.17	37.45
554.34	0.00
554.51	42.13
554.67	4.68
554.84	72.56
555.00	84.26
555.17	53.83
555.33	46.81
555.50	79.58
555.67	21.06
555.83	42.13
556.00	53.83
556.16	14.04
556.33	79.58
556.50	133.41
556.66	0.00
556.83	32.77
556.99	51.49
557.16	100.64
557.32	23.41
557.49	72.56
557.65	9.36
557.82	23.41
557.98	42.13
558.15	0.00
558.32	11.70
558.48	60.85
558.65	51.49
558.81	11.70
558.98	9.36
559.14	23.41
559.31	0.00
559.47	0.00
559.64	7.02
559.80	91.28
559.97	7.02
560.13	0.00
560.30	65.54
560.46	63.19
560.63	23.41
560.79	77.24
560.96	77.24
561.12	98.30
561.29	0.00
561.45	18.72
561.61	117.03
561.78	93.62
561.94	37.45
562.11	0.00
562.27	28.09
562.44	28.09
562.60	72.56
562.77	88.94
562.93	70.22
563.10	18.72
563.26	74.90
563.42	60.85
563.59	63.19
563.75	49.15
563.92	131.07
564.08	0.00
564.24	0.00
564.41	72.56
564.57	51.49
564.74	72.56
564.90	28.09
565.07	28.09
565.23	100.64
565.39	63.19
565.56	86.60
565.72	42.13
565.88	16.38
566.05	0.00
566.21	93.62
566.38	72.56
566.54	16.38
566.70	0.00
566.87	51.49
567.03	102.98
567.19	65.54
567.36	14.04
567.52	0.00
567.68	0.00
567.85	0.00
568.01	70.22
568.17	72.56
568.34	21.06
568.50	102.98
568.66	51.49
568.83	70.22
568.99	98.30
569.15	86.60
569.32	86.60
569.48	32.77
569.64	93.62
569.81	58.51
569.97	25.75
570.13	16.38
570.30	44.47
570.46	28.09
570.62	23.41
570.78	63.19
570.95	0.00
571.11	42.13
571.27	30.43
571.43	44.47
571.60	11.70
571.76	46.81
571.92	74.90
572.09	84.26
572.25	49.15
572.41	67.88
572.57	65.54
572.74	88.94
572.90	0.00
573.06	0.00
573.22	105.32
573.38	0.00
573.55	63.19
573.71	0.00
573.87	18.72
574.03	4.68
574.20	0.00
574.36	37.45
574.52	28.09
574.68	51.49
574.84	77.24
575.01	142.77
575.17	46.81
575.33	95.96
575.49	21.06
575.65	35.11
575.82	28.09
575.98	81.92
576.14	107.66
576.30	121.71
576.46	145.11
576.62	37.45
576.79	39.79
576.95	42.13
577.11	56.17
577.27	23.41
577.43	100.64
577.59	39.79
577.75	0.00
577.92	0.00
578.08	35.11
578.24	65.54
578.40	65.54
578.56	21.06
578.72	65.54
578.88	77.24
579.04	81.92
579.21	4.68
579.37	0.00
579.53	37.45
579.69	42.13
579.85	98.30
580.01	42.13
580.17	60.85
580.33	11.70
580.49	42.13
580.65	70.22
580.82	44.47
580.98	39.79
581.14	91.28
581.30	35.11
581.46	81.92
581.62	86.60
581.78	70.22
581.94	42.13
582.10	74.90
582.26	117.03
582.42	102.98
582.58	32.77
582.74	91.28
582.90	114.69
583.06	86.60
583.22	131.07
583.38	74.90
583.54	114.69
583.70	121.71
583.86	126.39
584.02	124.05
584.18	156.82
584.34	215.33
584.50	585.13
584.66	3492.08
584.82	8992.34
584.98	13748.31
585.14	12276.11
585.30	7550.57
585.46	4531.28
585.62	2743.11
585.78	1280.27
585.94	465.77
586.10	222.35
586.26	180.22
586.42	112.35
586.58	107.66
586.74	119.37
586.90	102.98
587.06	93.62
587.22	112.35
587.38	88.94
587.54	173.20
587.70	526.62
587.86	912.81
588.02	1048.56
588.18	706.84
588.34	521.94
588.49	311.29
588.65	175.54
588.81	107.66
588.97	159.16
589.13	67.88
589.29	37.45
589.45	51.49
589.61	65.54
589.77	44.47
589.93	72.56
590.08	60.85
590.24	70.22
590.40	70.22
590.56	105.32
590.72	161.50
590.88	9.36
591.04	44.47
591.20	44.47
591.35	79.58
591.51	49.15
591.67	105.32
591.83	74.90
591.99	0.00
592.15	44.47
592.31	72.56
592.46	102.98
592.62	107.66
592.78	18.72
592.94	65.54
593.10	65.54
593.26	53.83
593.41	39.79
593.57	58.51
593.73	114.69
593.89	482.15
594.05	1146.86
594.20	1668.80
594.36	1671.14
594.52	1015.79
594.68	645.99
594.84	447.04
594.99	276.18
595.15	131.07
595.31	95.96
595.47	84.26
595.62	77.24
595.78	28.09
595.94	58.51
596.10	72.56
596.25	117.03
596.41	58.51
596.57	32.77
596.73	60.85
596.88	72.56
597.04	203.63
597.20	297.25
597.36	489.17
597.51	353.42
597.67	236.39
597.83	210.65
597.99	63.19
598.14	154.48
598.30	98.30
598.46	72.56
598.61	84.26
598.77	105.32
598.93	30.43
599.09	51.49
599.24	102.98
599.40	39.79
599.56	4.68
599.71	56.17
599.87	102.98
600.03	49.15
600.18	86.60
600.34	105.32
600.50	14.04
600.65	0.00
600.81	23.41
600.97	30.43
601.12	7.02
601.28	63.19
601.44	23.41
601.59	63.19
601.75	25.75
601.91	30.43
602.06	0.00
602.22	149.79
602.37	65.54
602.53	325.33
602.69	463.43
602.84	533.64
603.00	332.36
603.16	205.97
603.31	156.82
603.47	128.73
603.62	63.19
603.78	16.38
603.94	65.54
604.09	72.56
604.25	58.51
604.40	56.17
604.56	79.58
604.71	35.11
604.87	23.41
605.03	21.06
605.18	70.22
605.34	18.72
605.49	2.34
605.65	95.96
605.80	95.96
605.96	0.00
606.12	53.83
606.27	39.79
606.43	119.37
606.58	4.68
606.74	58.51
606.89	550.03
607.05	1095.37
607.20	1404.32
607.36	1132.82
607.51	795.78
607.67	573.43
607.82	418.96
607.98	156.82
608.13	70.22
608.29	74.90
608.44	77.24
608.60	46.81
608.75	21.06
608.91	112.35
609.06	903.45
609.22	1799.87
609.37	2408.41
609.53	2136.91
609.68	1439.43
609.84	1011.11
609.99	634.29
610.15	330.02
610.30	180.22
610.46	114.69
610.61	35.11
610.76	42.13
610.92	35.11
611.07	21.06
611.23	25.75
611.38	53.83
611.54	9.36
611.69	0.00
611.84	30.43
612.00	84.26
612.15	0.00
612.31	58.51
612.46	74.90
612.62	159.16
612.77	145.11
612.92	112.35
613.08	114.69
613.23	42.13
613.39	51.49
613.54	161.50
613.69	779.40
613.85	2183.72
614.00	3541.23
614.15	3932.10
614.31	2747.79
614.46	1842.00
614.62	1086.01
614.77	755.99
614.92	360.44
615.08	210.65
615.23	72.56
615.38	100.64
615.54	28.09
615.69	220.01
615.84	470.45
616.00	837.91
616.15	1015.79
616.30	854.30
616.46	601.52
616.61	379.17
616.76	294.91
616.92	135.75
617.07	168.52
617.22	84.26
617.37	25.75
617.53	28.09
617.68	0.00
617.83	0.00
617.99	105.32
618.14	81.92
618.29	117.03
618.45	70.22
618.60	53.83
618.75	42.13
618.90	23.41
619.06	7.02
619.21	0.00
619.36	105.32
619.51	107.66
619.67	9.36
619.82	28.09
619.97	86.60
620.12	81.92
620.28	44.47
620.43	16.38
620.58	30.43
620.73	63.19
620.89	42.13
621.04	23.41
621.19	290.23
621.34	610.88
621.49	582.79
621.65	596.84
621.80	367.46
621.95	234.05
622.10	201.29
622.25	42.13
622.41	4.68
622.56	93.62
622.71	53.83
622.86	107.66
623.01	51.49
623.16	23.41
623.32	4.68
623.47	70.22
623.62	70.22
623.77	11.70
623.92	25.75
624.07	81.92
624.23	30.43
624.38	114.69
624.53	63.19
624.68	21.06
624.83	11.70
624.98	0.00
625.13	46.81
625.29	49.15
625.44	119.37
625.59	81.92
625.74	110.01
625.89	72.56
626.04	308.95
626.19	1050.90
626.34	1732.00
626.49	2008.18
626.65	1619.65
626.80	1050.90
626.95	699.82
627.10	433.00
627.25	191.92
627.40	140.43
627.55	77.24
627.70	42.13
627.85	0.00
628.00	44.47
628.15	28.09
628.30	110.01
628.45	28.09
628.60	67.88
628.76	79.58
628.91	21.06
629.06	7.02
629.21	117.03
629.36	23.41
629.51	56.17
629.66	70.22
629.81	63.19
629.96	203.63
630.11	425.98
630.26	543.00
630.41	500.87
630.56	341.72
630.71	304.27
630.86	131.07
631.01	95.96
631.16	70.22
631.31	95.96
631.46	77.24
631.61	79.58
631.76	42.13
631.91	23.41
632.06	37.45
632.21	53.83
632.36	42.13
632.51	81.92
632.66	131.07
632.81	175.54
632.96	692.80
633.10	1039.20
633.25	1439.43
633.40	1184.31
633.55	814.51
633.70	528.96
633.85	325.33
634.00	243.42
634.15	74.90
634.30	65.54
634.45	16.38
634.60	98.30
634.75	14.04
634.90	84.26
635.05	4.68
635.19	65.54
635.34	84.26
635.49	44.47
635.64	0.00
635.79	28.09
635.94	84.26
636.09	65.54
636.24	60.85
636.39	79.58
636.53	28.09
636.68	42.13
636.83	49.15
636.98	145.11
637.13	51.49
637.28	67.88
637.43	28.09
637.57	121.71
637.72	561.73
637.87	1380.92
638.02	2368.62
638.17	2677.57
638.32	2047.97
638.46	1235.80
638.61	814.51
638.76	505.56
638.91	245.76
639.06	138.09
639.20	67.88
639.35	95.96
639.50	210.65
639.65	840.25
639.80	2225.85
639.94	3672.30
640.09	4287.86
640.24	2920.99
640.39	2010.52
640.54	1394.96
640.68	880.04
640.83	407.25
640.98	124.05
641.13	67.88
641.27	0.00
641.42	63.19
641.57	49.15
641.72	93.62
641.86	56.17
642.01	9.36
642.16	51.49
642.31	0.00
642.45	53.83
642.60	51.49
642.75	51.49
642.90	37.45
643.04	46.81
643.19	28.09
643.34	21.06
643.48	49.15
643.63	63.19
643.78	0.00
643.93	7.02
644.07	49.15
644.22	56.17
644.37	9.36
644.51	16.38
644.66	7.02
644.81	60.85
644.95	117.03
645.10	86.60
645.25	11.70
645.39	46.81
645.54	0.00
645.69	7.02
645.83	0.00
645.98	28.09
646.13	51.49
646.27	49.15
646.42	49.15
646.57	65.54
646.71	51.49
646.86	30.43
647.00	39.79
647.15	0.00
647.30	46.81
647.44	98.30
647.59	16.38
647.74	35.11
647.88	0.00
648.03	23.41
648.17	32.77
648.32	79.58
648.47	86.60
648.61	46.81
648.76	39.79
648.90	42.13
649.05	39.79
649.20	126.39
649.34	4.68
649.49	32.77
649.63	0.00
649.78	49.15
649.92	58.51
650.07	313.63
650.21	924.51
650.36	1675.82
650.51	2186.06
650.65	1736.68
650.80	1259.21
650.94	835.57
651.09	573.43
651.23	234.05
651.38	93.62
651.52	126.39
651.67	121.71
651.81	60.85
651.96	32.77
652.10	30.43
652.25	18.72
652.39	67.88
652.54	46.81
652.68	126.39
652.83	297.25
652.97	538.32
653.12	772.38
653.26	685.78
653.41	519.60
653.55	353.42
653.70	250.44
653.84	224.69
653.99	117.03
654.13	60.85
654.27	91.28
654.42	86.60
654.56	44.47
654.71	0.00
654.85	51.49
655.00	35.11
655.14	42.13
655.29	51.49
655.43	11.70
655.57	131.07
655.72	42.13
655.86	74.90
656.01	7.02
656.15	65.54
656.30	58.51
656.44	51.49
656.58	23.41
656.73	53.83
656.87	23.41
657.01	105.32
657.16	49.15
657.30	42.13
657.45	58.51
657.59	4.68
657.73	0.00
657.88	65.54
658.02	74.90
658.16	16.38
658.31	42.13
658.45	107.66
658.60	67.88
658.74	18.72
658.88	37.45
659.03	102.98
659.17	7.02
659.31	170.86
659.46	437.68
659.60	856.64
659.74	1004.09
659.89	992.39
660.03	704.50
660.17	454.06
660.32	264.48
660.46	222.35
660.60	95.96
660.74	98.30
660.89	72.56
661.03	23.41
661.17	37.45
661.32	32.77
661.46	11.70
661.60	42.13
661.74	86.60
661.89	4.68
662.03	88.94
662.17	49.15
662.31	0.00
662.46	56.17
662.60	39.79
662.74	51.49
662.88	32.77
663.03	39.79
663.17	74.90
663.31	35.11
663.45	67.88
663.60	42.13
663.74	65.54
663.88	0.00
664.02	44.47
664.17	49.15
664.31	42.13
664.45	84.26
664.59	23.41
664.73	0.00
664.88	58.51
665.02	18.72
665.16	39.79
665.30	79.58
665.44	0.00
665.59	30.43
665.73	37.45
665.87	11.70
666.01	11.70
666.15	32.77
666.29	21.06
666.44	42.13
666.58	110.01
666.72	70.22
666.86	114.69
667.00	58.51
667.14	110.01
667.28	276.18
667.43	732.59
667.57	1439.43
667.71	1792.85
667.85	1614.97
667.99	1165.59
668.13	770.04
668.27	531.30
668.41	182.56
668.56	100.64
668.70	107.66
668.84	128.73
668.98	65.54
669.12	79.58
669.26	0.00
669.40	14.04
669.54	74.90
669.68	53.83
669.82	0.00
669.96	32.77
670.10	42.13
670.25	86.60
670.39	0.00
670.53	49.15
670.67	0.00
670.81	0.00
670.95	0.00
671.09	135.75
671.23	313.63
671.37	650.67
671.51	1057.92
671.65	1207.72
671.79	894.08
671.93	660.03
672.07	435.34
672.21	252.78
672.35	58.51
672.49	93.62
672.63	105.32
672.77	46.81
672.91	60.85
673.05	70.22
673.19	65.54
673.33	74.90
673.47	46.81
673.61	74.90
673.75	121.71
673.89	42.13
674.03	84.26
674.17	53.83
674.31	18.72
674.45	0.00
674.59	0.00
674.73	124.05
674.87	65.54
675.01	32.77
675.15	28.09
675.29	51.49
675.43	81.92
675.56	7.02
675.70	91.28
675.84	9.36
675.98	114.69
676.12	67.88
676.26	0.00
676.40	28.09
676.54	58.51
676.68	25.75
676.82	53.83
676.96	0.00
677.10	65.54
677.23	23.41
677.37	65.54
677.51	51.49
677.65	25.75
677.79	0.00
677.93	25.75
678.07	42.13
678.21	9.36
678.34	0.00
678.48	0.00
678.62	63.19
678.76	77.24
678.90	28.09
679.04	56.17
679.18	86.60
679.31	9.36
679.45	79.58
679.59	35.11
679.73	7.02
679.87	30.43
680.00	0.00
680.14	11.70
680.28	0.00
680.42	81.92
680.56	84.26
680.70	86.60
680.83	0.00
680.97	18.72
681.11	7.02
681.25	21.06
681.39	23.41
681.52	28.09
681.66	105.32
681.80	0.00
681.94	21.06
682.07	0.00
682.21	35.11
682.35	135.75
682.49	32.77
682.62	58.51
682.76	51.49
682.90	4.68
683.04	25.75
683.17	39.79
683.31	0.00
683.45	18.72
683.59	0.00
683.72	77.24
683.86	23.41
684.00	23.41
684.13	4.68
684.27	79.58
684.41	25.75
684.55	0.00
684.68	9.36
684.82	0.00
684.96	49.15
685.09	2.34
685.23	53.83
685.37	56.17
685.50	39.79
685.64	0.00
685.78	18.72
685.91	0.00
686.05	0.00
686.19	44.47
686.32	49.15
686.46	60.85
686.60	91.28
686.73	46.81
686.87	51.49
687.01	0.00
687.14	37.45
687.28	11.70
687.42	14.04
687.55	28.09
687.69	44.47
687.82	49.15
687.96	37.45
688.10	25.75
688.23	0.00
688.37	7.02
688.50	16.38
688.64	14.04
688.78	53.83
688.91	63.19
689.05	0.00
689.18	0.00
689.32	4.68
689.46	0.00
689.59	0.00
689.73	25.75
689.86	0.00
690.00	74.90
690.13	11.70
690.27	0.00
690.41	11.70
690.54	56.17
690.68	58.51
690.81	28.09
690.95	14.04
691.08	128.73
691.22	84.26
691.35	11.70
691.49	30.43
691.62	46.81
691.76	42.13
691.89	16.38
692.03	53.83
692.16	65.54
692.30	70.22
692.43	124.05
692.57	353.42
692.70	655.35
692.84	828.55
692.97	840.25
693.11	507.90
693.24	386.19
693.38	229.37
693.51	212.99
693.65	95.96
693.78	126.39
693.92	65.54
694.05	53.83
694.19	25.75
694.32	0.00
694.45	86.60
694.59	56.17
694.72	14.04
694.86	0.00
694.99	0.00
695.13	11.70
695.26	37.45
695.39	0.00
695.53	25.75
695.66	35.11
695.80	51.49
695.93	37.45
696.07	0.00
696.20	105.32
696.33	53.83
696.47	145.11
696.60	117.03
696.73	93.62
696.87	67.88
697.00	0.00
697.14	53.83
697.27	60.85
697.40	49.15
697.54	58.51
697.67	79.58
697.80	156.82
697.94	21.06
698.07	16.38
698.21	4.68
698.34	51.49
698.47	95.96
698.61	86.60
698.74	37.45
698.87	60.85
699.01	9.36
699.14	37.45
699.27	49.15
699.40	119.37
699.54	117.03
699.67	79.58
699.80	23.41
699.94	23.41
700.07	42.13
700.20	105.32
700.34	60.85
700.47	44.47
700.60	0.00
700.73	0.00
700.87	98.30
701.00	0.00
701.13	39.79
701.26	9.36
701.40	51.49
701.53	21.06
701.66	0.00
701.79	28.09
701.93	51.49
702.06	114.69
702.19	102.98
702.32	37.45
702.46	25.75
702.59	42.13
702.72	154.48
702.85	505.56
702.99	1004.09
703.12	1462.83
703.25	1511.99
703.38	1380.92
703.51	1116.44
703.65	880.04
703.78	526.62
703.91	381.51
704.04	290.23
704.17	168.52
704.31	88.94
704.44	18.72
704.57	81.92
704.70	46.81
704.83	95.96
704.96	42.13
705.10	28.09
705.23	67.88
>>>>>End Processed Spectral Data<<<<<
