SpectraSuite Data File
++++++++++++++++++++++++++++++++++++
Date: Fri Oct 04 12:13:44 GMT-05:00 2013
User: price-jones
Dark Spectrum Present: No
Reference Spectrum Present: No
Number of Sampled Component Spectra: 1
Spectrometers: USB2+H05261
Integration Time (usec): 10000 (USB2+H05261)
Spectra Averaged: 1 (USB2+H05261)
Boxcar Smoothing: 0 (USB2+H05261)
Correct for Electrical Dark: No (USB2+H05261)
Strobe/Lamp Enabled: No (USB2+H05261)
Correct for Detector Non-linearity: No (USB2+H05261)
Correct for Stray Light: No (USB2+H05261)
Number of Pixels in Processed Spectrum: 2048
>>>>>Begin Processed Spectral Data<<<<<
365.73	0.00
365.92	0.00
366.12	0.00
366.32	0.00
366.52	0.00
366.72	0.00
366.91	0.00
367.11	0.00
367.31	0.00
367.51	0.00
367.70	0.00
367.90	0.00
368.10	0.00
368.30	0.00
368.49	0.00
368.69	0.00
368.89	0.00
369.09	0.00
369.28	0.00
369.48	0.00
369.68	0.00
369.87	0.00
370.07	0.00
370.27	0.00
370.47	0.00
370.66	2.34
370.86	0.00
371.06	0.00
371.25	7.02
371.45	0.00
371.65	0.00
371.84	25.75
372.04	0.00
372.24	9.36
372.44	30.43
372.63	28.09
372.83	30.43
373.03	49.15
373.22	0.00
373.42	56.17
373.62	88.94
373.81	88.94
374.01	35.11
374.21	18.72
374.40	49.15
374.60	102.98
374.79	0.00
374.99	72.56
375.19	0.00
375.38	0.00
375.58	42.13
375.78	21.06
375.97	142.77
376.17	46.81
376.37	0.00
376.56	18.72
376.76	0.00
376.95	65.54
377.15	37.45
377.35	0.00
377.54	2.34
377.74	0.00
377.93	0.00
378.13	23.41
378.33	28.09
378.52	0.00
378.72	119.37
378.91	39.79
379.11	0.00
379.31	25.75
379.50	49.15
379.70	7.02
379.89	0.00
380.09	0.00
380.28	21.06
380.48	100.64
380.68	32.77
380.87	65.54
381.07	7.02
381.26	58.51
381.46	60.85
381.65	0.00
381.85	0.00
382.04	2.34
382.24	0.00
382.43	65.54
382.63	37.45
382.83	25.75
383.02	0.00
383.22	56.17
383.41	79.58
383.61	67.88
383.80	23.41
384.00	32.77
384.19	21.06
384.39	0.00
384.58	53.83
384.78	2.34
384.97	0.00
385.17	32.77
385.36	65.54
385.56	0.00
385.75	39.79
385.95	91.28
386.14	21.06
386.34	53.83
386.53	0.00
386.72	21.06
386.92	35.11
387.11	28.09
387.31	28.09
387.50	16.38
387.70	0.00
387.89	0.00
388.09	42.13
388.28	49.15
388.48	2.34
388.67	4.68
388.86	60.85
389.06	18.72
389.25	30.43
389.45	30.43
389.64	11.70
389.84	51.49
390.03	0.00
390.22	53.83
390.42	11.70
390.61	0.00
390.81	0.00
391.00	0.00
391.19	53.83
391.39	0.00
391.58	32.77
391.78	0.00
391.97	11.70
392.16	9.36
392.36	16.38
392.55	0.00
392.75	4.68
392.94	14.04
393.13	0.00
393.33	0.00
393.52	7.02
393.71	35.11
393.91	2.34
394.10	0.00
394.29	0.00
394.49	0.00
394.68	23.41
394.88	0.00
395.07	51.49
395.26	4.68
395.46	0.00
395.65	35.11
395.84	0.00
396.04	0.00
396.23	51.49
396.42	56.17
396.62	37.45
396.81	9.36
397.00	0.00
397.19	9.36
397.39	98.30
397.58	0.00
397.77	39.79
397.97	4.68
398.16	4.68
398.35	51.49
398.55	0.00
398.74	28.09
398.93	14.04
399.12	0.00
399.32	0.00
399.51	0.00
399.70	49.15
399.90	0.00
400.09	46.81
400.28	14.04
400.47	63.19
400.67	56.17
400.86	16.38
401.05	7.02
401.24	23.41
401.44	131.07
401.63	21.06
401.82	35.11
402.01	42.13
402.21	16.38
402.40	93.62
402.59	23.41
402.78	0.00
402.97	44.47
403.17	30.43
403.36	28.09
403.55	7.02
403.74	98.30
403.93	30.43
404.13	11.70
404.32	72.56
404.51	4.68
404.70	9.36
404.89	21.06
405.09	25.75
405.28	28.09
405.47	9.36
405.66	0.00
405.85	4.68
406.05	95.96
406.24	46.81
406.43	0.00
406.62	30.43
406.81	2.34
407.00	0.00
407.20	9.36
407.39	58.51
407.58	51.49
407.77	0.00
407.96	30.43
408.15	0.00
408.34	2.34
408.54	25.75
408.73	46.81
408.92	58.51
409.11	46.81
409.30	74.90
409.49	16.38
409.68	0.00
409.87	49.15
410.07	49.15
410.26	44.47
410.45	4.68
410.64	28.09
410.83	46.81
411.02	0.00
411.21	56.17
411.40	46.81
411.59	42.13
411.78	65.54
411.98	7.02
412.17	0.00
412.36	65.54
412.55	16.38
412.74	14.04
412.93	37.45
413.12	18.72
413.31	39.79
413.50	0.00
413.69	21.06
413.88	9.36
414.07	0.00
414.26	30.43
414.45	70.22
414.64	21.06
414.83	67.88
415.02	98.30
415.22	0.00
415.41	21.06
415.60	0.00
415.79	14.04
415.98	23.41
416.17	60.85
416.36	95.96
416.55	0.00
416.74	63.19
416.93	44.47
417.12	56.17
417.31	0.00
417.50	37.45
417.69	65.54
417.88	70.22
418.07	28.09
418.26	11.70
418.45	32.77
418.64	0.00
418.83	51.49
419.02	16.38
419.21	30.43
419.39	46.81
419.58	0.00
419.77	0.00
419.96	14.04
420.15	0.00
420.34	28.09
420.53	67.88
420.72	46.81
420.91	30.43
421.10	79.58
421.29	0.00
421.48	14.04
421.67	93.62
421.86	67.88
422.05	32.77
422.24	32.77
422.43	44.47
422.61	35.11
422.80	0.00
422.99	14.04
423.18	42.13
423.37	37.45
423.56	18.72
423.75	35.11
423.94	0.00
424.13	0.00
424.32	0.00
424.50	44.47
424.69	39.79
424.88	0.00
425.07	11.70
425.26	56.17
425.45	0.00
425.64	23.41
425.83	2.34
426.01	46.81
426.20	0.00
426.39	32.77
426.58	9.36
426.77	16.38
426.96	121.71
427.15	0.00
427.33	4.68
427.52	53.83
427.71	28.09
427.90	14.04
428.09	51.49
428.28	51.49
428.46	53.83
428.65	81.92
428.84	51.49
429.03	42.13
429.22	2.34
429.40	58.51
429.59	0.00
429.78	53.83
429.97	65.54
430.16	0.00
430.34	46.81
430.53	0.00
430.72	95.96
430.91	56.17
431.10	60.85
431.28	0.00
431.47	0.00
431.66	32.77
431.85	49.15
432.03	21.06
432.22	72.56
432.41	39.79
432.60	21.06
432.79	9.36
432.97	4.68
433.16	0.00
433.35	74.90
433.54	42.13
433.72	39.79
433.91	56.17
434.10	74.90
434.28	30.43
434.47	16.38
434.66	0.00
434.85	42.13
435.03	84.26
435.22	60.85
435.41	42.13
435.59	67.88
435.78	0.00
435.97	0.00
436.16	86.60
436.34	79.58
436.53	35.11
436.72	0.00
436.90	0.00
437.09	77.24
437.28	9.36
437.46	53.83
437.65	60.85
437.84	0.00
438.02	35.11
438.21	0.00
438.40	0.00
438.58	0.00
438.77	28.09
438.96	70.22
439.14	46.81
439.33	100.64
439.52	107.66
439.70	117.03
439.89	79.58
440.08	42.13
440.26	0.00
440.45	72.56
440.63	35.11
440.82	56.17
441.01	107.66
441.19	58.51
441.38	56.17
441.57	0.00
441.75	23.41
441.94	74.90
442.12	32.77
442.31	32.77
442.50	7.02
442.68	0.00
442.87	0.00
443.05	0.00
443.24	0.00
443.43	58.51
443.61	14.04
443.80	81.92
443.98	49.15
444.17	39.79
444.35	63.19
444.54	30.43
444.73	39.79
444.91	63.19
445.10	37.45
445.28	53.83
445.47	16.38
445.65	14.04
445.84	72.56
446.02	65.54
446.21	4.68
446.39	30.43
446.58	28.09
446.77	63.19
446.95	25.75
447.14	14.04
447.32	32.77
447.51	32.77
447.69	21.06
447.88	0.00
448.06	30.43
448.25	0.00
448.43	98.30
448.62	0.00
448.80	67.88
448.99	56.17
449.17	0.00
449.36	28.09
449.54	117.03
449.73	0.00
449.91	86.60
450.10	0.00
450.28	77.24
450.46	58.51
450.65	60.85
450.83	39.79
451.02	32.77
451.20	23.41
451.39	65.54
451.57	88.94
451.76	53.83
451.94	30.43
452.13	42.13
452.31	21.06
452.49	91.28
452.68	46.81
452.86	28.09
453.05	37.45
453.23	63.19
453.42	86.60
453.60	49.15
453.78	0.00
453.97	56.17
454.15	0.00
454.34	23.41
454.52	58.51
454.70	25.75
454.89	0.00
455.07	37.45
455.26	0.00
455.44	65.54
455.62	14.04
455.81	2.34
455.99	0.00
456.17	0.00
456.36	84.26
456.54	21.06
456.73	23.41
456.91	0.00
457.09	77.24
457.28	42.13
457.46	30.43
457.64	32.77
457.83	16.38
458.01	32.77
458.19	86.60
458.38	102.98
458.56	49.15
458.74	70.22
458.93	91.28
459.11	49.15
459.29	9.36
459.48	18.72
459.66	37.45
459.84	56.17
460.03	51.49
460.21	39.79
460.39	46.81
460.57	37.45
460.76	9.36
460.94	74.90
461.12	0.00
461.31	63.19
461.49	51.49
461.67	0.00
461.85	18.72
462.04	0.00
462.22	4.68
462.40	102.98
462.59	56.17
462.77	81.92
462.95	49.15
463.13	16.38
463.32	25.75
463.50	35.11
463.68	0.00
463.86	0.00
464.05	0.00
464.23	53.83
464.41	84.26
464.59	21.06
464.78	42.13
464.96	42.13
465.14	46.81
465.32	25.75
465.50	65.54
465.69	39.79
465.87	30.43
466.05	51.49
466.23	107.66
466.41	18.72
466.60	21.06
466.78	74.90
466.96	84.26
467.14	60.85
467.32	60.85
467.51	37.45
467.69	32.77
467.87	16.38
468.05	56.17
468.23	110.01
468.41	37.45
468.60	0.00
468.78	72.56
468.96	0.00
469.14	0.00
469.32	30.43
469.50	0.00
469.69	42.13
469.87	16.38
470.05	56.17
470.23	0.00
470.41	77.24
470.59	102.98
470.77	84.26
470.95	126.39
471.14	37.45
471.32	21.06
471.50	0.00
471.68	39.79
471.86	81.92
472.04	49.15
472.22	11.70
472.40	25.75
472.58	0.00
472.77	0.00
472.95	46.81
473.13	60.85
473.31	98.30
473.49	0.00
473.67	44.47
473.85	74.90
474.03	28.09
474.21	46.81
474.39	121.71
474.57	102.98
474.75	44.47
474.93	100.64
475.12	49.15
475.30	79.58
475.48	30.43
475.66	49.15
475.84	112.35
476.02	74.90
476.20	42.13
476.38	51.49
476.56	100.64
476.74	25.75
476.92	98.30
477.10	14.04
477.28	42.13
477.46	46.81
477.64	56.17
477.82	81.92
478.00	14.04
478.18	16.38
478.36	14.04
478.54	95.96
478.72	102.98
478.90	58.51
479.08	114.69
479.26	18.72
479.44	49.15
479.62	30.43
479.80	0.00
479.98	37.45
480.16	58.51
480.34	51.49
480.52	0.00
480.70	84.26
480.88	23.41
481.06	60.85
481.24	46.81
481.41	25.75
481.59	91.28
481.77	95.96
481.95	14.04
482.13	58.51
482.31	46.81
482.49	56.17
482.67	72.56
482.85	0.00
483.03	72.56
483.21	0.00
483.39	49.15
483.57	65.54
483.74	44.47
483.92	28.09
484.10	21.06
484.28	39.79
484.46	44.47
484.64	105.32
484.82	4.68
485.00	51.49
485.18	72.56
485.35	32.77
485.53	0.00
485.71	63.19
485.89	58.51
486.07	37.45
486.25	56.17
486.43	30.43
486.61	28.09
486.78	51.49
486.96	56.17
487.14	77.24
487.32	0.00
487.50	51.49
487.68	72.56
487.85	2.34
488.03	70.22
488.21	30.43
488.39	67.88
488.57	53.83
488.75	11.70
488.92	81.92
489.10	107.66
489.28	9.36
489.46	91.28
489.64	60.85
489.81	77.24
489.99	42.13
490.17	37.45
490.35	77.24
490.53	67.88
490.70	53.83
490.88	32.77
491.06	49.15
491.24	56.17
491.41	28.09
491.59	42.13
491.77	53.83
491.95	58.51
492.13	147.45
492.30	0.00
492.48	39.79
492.66	67.88
492.84	49.15
493.01	58.51
493.19	70.22
493.37	18.72
493.54	65.54
493.72	28.09
493.90	37.45
494.08	117.03
494.25	49.15
494.43	39.79
494.61	49.15
494.79	105.32
494.96	42.13
495.14	49.15
495.32	56.17
495.49	67.88
495.67	30.43
495.85	51.49
496.02	100.64
496.20	21.06
496.38	65.54
496.55	39.79
496.73	56.17
496.91	63.19
497.09	7.02
497.26	18.72
497.44	0.00
497.62	44.47
497.79	79.58
497.97	35.11
498.14	84.26
498.32	11.70
498.50	77.24
498.67	37.45
498.85	49.15
499.03	124.05
499.20	18.72
499.38	58.51
499.56	79.58
499.73	81.92
499.91	84.26
500.08	112.35
500.26	110.01
500.44	46.81
500.61	9.36
500.79	107.66
500.97	0.00
501.14	0.00
501.32	44.47
501.49	51.49
501.67	42.13
501.84	42.13
502.02	84.26
502.20	35.11
502.37	100.64
502.55	16.38
502.72	84.26
502.90	91.28
503.07	51.49
503.25	30.43
503.43	32.77
503.60	70.22
503.78	28.09
503.95	18.72
504.13	74.90
504.30	23.41
504.48	56.17
504.65	79.58
504.83	9.36
505.01	77.24
505.18	0.00
505.36	0.00
505.53	72.56
505.71	28.09
505.88	25.75
506.06	0.00
506.23	86.60
506.41	72.56
506.58	51.49
506.76	77.24
506.93	128.73
507.11	77.24
507.28	16.38
507.46	49.15
507.63	0.00
507.81	42.13
507.98	51.49
508.16	74.90
508.33	28.09
508.50	72.56
508.68	77.24
508.85	25.75
509.03	42.13
509.20	107.66
509.38	2.34
509.55	86.60
509.73	112.35
509.90	63.19
510.08	119.37
510.25	51.49
510.42	91.28
510.60	67.88
510.77	0.00
510.95	49.15
511.12	46.81
511.30	18.72
511.47	95.96
511.64	121.71
511.82	88.94
511.99	51.49
512.17	77.24
512.34	23.41
512.51	28.09
512.69	30.43
512.86	30.43
513.04	44.47
513.21	37.45
513.38	53.83
513.56	117.03
513.73	56.17
513.90	0.00
514.08	88.94
514.25	58.51
514.43	72.56
514.60	88.94
514.77	63.19
514.95	53.83
515.12	28.09
515.29	42.13
515.47	21.06
515.64	42.13
515.81	30.43
515.99	58.51
516.16	60.85
516.33	63.19
516.51	110.01
516.68	60.85
516.85	63.19
517.03	21.06
517.20	32.77
517.37	72.56
517.54	51.49
517.72	93.62
517.89	56.17
518.06	77.24
518.24	74.90
518.41	65.54
518.58	2.34
518.75	58.51
518.93	95.96
519.10	60.85
519.27	65.54
519.45	21.06
519.62	77.24
519.79	35.11
519.96	0.00
520.14	67.88
520.31	58.51
520.48	63.19
520.65	44.47
520.83	147.45
521.00	37.45
521.17	95.96
521.34	128.73
521.52	0.00
521.69	53.83
521.86	91.28
522.03	74.90
522.20	42.13
522.38	21.06
522.55	84.26
522.72	0.00
522.89	37.45
523.07	124.05
523.24	56.17
523.41	110.01
523.58	51.49
523.75	0.00
523.92	88.94
524.10	28.09
524.27	23.41
524.44	58.51
524.61	56.17
524.78	58.51
524.96	70.22
525.13	51.49
525.30	7.02
525.47	23.41
525.64	0.00
525.81	58.51
525.98	42.13
526.16	60.85
526.33	84.26
526.50	77.24
526.67	21.06
526.84	39.79
527.01	81.92
527.18	7.02
527.36	18.72
527.53	2.34
527.70	60.85
527.87	11.70
528.04	23.41
528.21	53.83
528.38	23.41
528.55	56.17
528.72	49.15
528.89	32.77
529.07	11.70
529.24	16.38
529.41	14.04
529.58	60.85
529.75	46.81
529.92	110.01
530.09	70.22
530.26	74.90
530.43	84.26
530.60	4.68
530.77	53.83
530.94	51.49
531.11	53.83
531.28	60.85
531.46	72.56
531.63	25.75
531.80	37.45
531.97	18.72
532.14	56.17
532.31	51.49
532.48	30.43
532.65	46.81
532.82	81.92
532.99	56.17
533.16	56.17
533.33	86.60
533.50	25.75
533.67	18.72
533.84	51.49
534.01	81.92
534.18	72.56
534.35	58.51
534.52	16.38
534.69	49.15
534.86	0.00
535.03	23.41
535.20	35.11
535.37	56.17
535.54	93.62
535.71	11.70
535.88	46.81
536.05	49.15
536.22	51.49
536.38	72.56
536.55	49.15
536.72	25.75
536.89	84.26
537.06	46.81
537.23	72.56
537.40	77.24
537.57	67.88
537.74	95.96
537.91	91.28
538.08	102.98
538.25	65.54
538.42	25.75
538.59	39.79
538.75	35.11
538.92	53.83
539.09	93.62
539.26	53.83
539.43	88.94
539.60	86.60
539.77	23.41
539.94	79.58
540.11	112.35
540.28	21.06
540.44	56.17
540.61	46.81
540.78	79.58
540.95	110.01
541.12	58.51
541.29	42.13
541.46	7.02
541.62	14.04
541.79	77.24
541.96	81.92
542.13	21.06
542.30	77.24
542.47	28.09
542.63	0.00
542.80	39.79
542.97	0.00
543.14	63.19
543.31	98.30
543.48	77.24
543.64	86.60
543.81	79.58
543.98	105.32
544.15	46.81
544.32	79.58
544.48	18.72
544.65	67.88
544.82	42.13
544.99	2.34
545.16	4.68
545.32	4.68
545.49	107.66
545.66	58.51
545.83	91.28
546.00	65.54
546.16	46.81
546.33	88.94
546.50	14.04
546.67	98.30
546.83	77.24
547.00	93.62
547.17	74.90
547.34	44.47
547.50	9.36
547.67	0.00
547.84	32.77
548.00	84.26
548.17	102.98
548.34	0.00
548.51	53.83
548.67	95.96
548.84	88.94
549.01	30.43
549.18	56.17
549.34	65.54
549.51	37.45
549.68	65.54
549.84	114.69
550.01	35.11
550.18	53.83
550.34	2.34
550.51	67.88
550.68	102.98
550.84	65.54
551.01	49.15
551.18	58.51
551.34	16.38
551.51	0.00
551.68	0.00
551.84	4.68
552.01	93.62
552.18	98.30
552.34	63.19
552.51	14.04
552.68	56.17
552.84	21.06
553.01	70.22
553.18	46.81
553.34	105.32
553.51	21.06
553.67	86.60
553.84	0.00
554.01	14.04
554.17	79.58
554.34	49.15
554.51	95.96
554.67	11.70
554.84	70.22
555.00	86.60
555.17	74.90
555.33	70.22
555.50	56.17
555.67	37.45
555.83	60.85
556.00	0.00
556.16	91.28
556.33	79.58
556.50	114.69
556.66	25.75
556.83	39.79
556.99	63.19
557.16	2.34
557.32	44.47
557.49	74.90
557.65	67.88
557.82	42.13
557.98	0.00
558.15	51.49
558.32	53.83
558.48	14.04
558.65	30.43
558.81	14.04
558.98	21.06
559.14	86.60
559.31	16.38
559.47	110.01
559.64	70.22
559.80	79.58
559.97	18.72
560.13	21.06
560.30	42.13
560.46	37.45
560.63	25.75
560.79	60.85
560.96	53.83
561.12	51.49
561.29	2.34
561.45	16.38
561.61	9.36
561.78	65.54
561.94	35.11
562.11	0.00
562.27	79.58
562.44	77.24
562.60	124.05
562.77	65.54
562.93	60.85
563.10	35.11
563.26	28.09
563.42	42.13
563.59	49.15
563.75	32.77
563.92	35.11
564.08	110.01
564.24	70.22
564.41	0.00
564.57	30.43
564.74	49.15
564.90	77.24
565.07	39.79
565.23	25.75
565.39	58.51
565.56	105.32
565.72	86.60
565.88	7.02
566.05	9.36
566.21	0.00
566.38	18.72
566.54	51.49
566.70	37.45
566.87	37.45
567.03	25.75
567.19	98.30
567.36	42.13
567.52	25.75
567.68	39.79
567.85	65.54
568.01	21.06
568.17	32.77
568.34	37.45
568.50	91.28
568.66	81.92
568.83	16.38
568.99	0.00
569.15	28.09
569.32	37.45
569.48	79.58
569.64	65.54
569.81	25.75
569.97	81.92
570.13	72.56
570.30	74.90
570.46	37.45
570.62	88.94
570.78	2.34
570.95	77.24
571.11	32.77
571.27	9.36
571.43	37.45
571.60	72.56
571.76	0.00
571.92	84.26
572.09	72.56
572.25	56.17
572.41	23.41
572.57	0.00
572.74	4.68
572.90	46.81
573.06	60.85
573.22	53.83
573.38	91.28
573.55	60.85
573.71	70.22
573.87	0.00
574.03	65.54
574.20	77.24
574.36	21.06
574.52	86.60
574.68	67.88
574.84	86.60
575.01	65.54
575.17	28.09
575.33	0.00
575.49	21.06
575.65	77.24
575.82	42.13
575.98	93.62
576.14	51.49
576.30	0.00
576.46	28.09
576.62	30.43
576.79	51.49
576.95	25.75
577.11	23.41
577.27	63.19
577.43	46.81
577.59	51.49
577.75	88.94
577.92	77.24
578.08	98.30
578.24	51.49
578.40	107.66
578.56	7.02
578.72	81.92
578.88	32.77
579.04	81.92
579.21	21.06
579.37	0.00
579.53	9.36
579.69	35.11
579.85	67.88
580.01	23.41
580.17	140.43
580.33	60.85
580.49	9.36
580.65	37.45
580.82	16.38
580.98	30.43
581.14	0.00
581.30	42.13
581.46	18.72
581.62	49.15
581.78	25.75
581.94	51.49
582.10	63.19
582.26	84.26
582.42	102.98
582.58	49.15
582.74	86.60
582.90	72.56
583.06	23.41
583.22	0.00
583.38	74.90
583.54	53.83
583.70	84.26
583.86	0.00
584.02	49.15
584.18	0.00
584.34	72.56
584.50	74.90
584.66	23.41
584.82	63.19
584.98	9.36
585.14	2.34
585.30	63.19
585.46	91.28
585.62	63.19
585.78	63.19
585.94	0.00
586.10	4.68
586.26	51.49
586.42	25.75
586.58	9.36
586.74	77.24
586.90	70.22
587.06	70.22
587.22	63.19
587.38	25.75
587.54	49.15
587.70	42.13
587.86	53.83
588.02	84.26
588.18	53.83
588.34	11.70
588.49	81.92
588.65	46.81
588.81	42.13
588.97	30.43
589.13	67.88
589.29	23.41
589.45	0.00
589.61	51.49
589.77	95.96
589.93	105.32
590.08	49.15
590.24	32.77
590.40	2.34
590.56	35.11
590.72	67.88
590.88	0.00
591.04	65.54
591.20	7.02
591.35	42.13
591.51	53.83
591.67	44.47
591.83	37.45
591.99	86.60
592.15	86.60
592.31	63.19
592.46	30.43
592.62	23.41
592.78	102.98
592.94	49.15
593.10	53.83
593.26	35.11
593.41	91.28
593.57	56.17
593.73	70.22
593.89	79.58
594.05	107.66
594.20	63.19
594.36	42.13
594.52	74.90
594.68	25.75
594.84	88.94
594.99	156.82
595.15	9.36
595.31	53.83
595.47	58.51
595.62	72.56
595.78	39.79
595.94	21.06
596.10	49.15
596.25	18.72
596.41	0.00
596.57	0.00
596.73	46.81
596.88	46.81
597.04	44.47
597.20	18.72
597.36	51.49
597.51	121.71
597.67	0.00
597.83	42.13
597.99	32.77
598.14	37.45
598.30	37.45
598.46	49.15
598.61	28.09
598.77	14.04
598.93	91.28
599.09	0.00
599.24	53.83
599.40	72.56
599.56	67.88
599.71	0.00
599.87	65.54
600.03	0.00
600.18	0.00
600.34	51.49
600.50	4.68
600.65	23.41
600.81	35.11
600.97	0.00
601.12	91.28
601.28	56.17
601.44	46.81
601.59	49.15
601.75	81.92
601.91	72.56
602.06	39.79
602.22	56.17
602.37	98.30
602.53	74.90
602.69	9.36
602.84	65.54
603.00	56.17
603.16	0.00
603.31	72.56
603.47	39.79
603.62	32.77
603.78	79.58
603.94	39.79
604.09	23.41
604.25	16.38
604.40	30.43
604.56	100.64
604.71	140.43
604.87	0.00
605.03	119.37
605.18	42.13
605.34	56.17
605.49	124.05
605.65	114.69
605.80	30.43
605.96	77.24
606.12	91.28
606.27	7.02
606.43	88.94
606.58	112.35
606.74	98.30
606.89	30.43
607.05	25.75
607.20	67.88
607.36	14.04
607.51	21.06
607.67	105.32
607.82	51.49
607.98	56.17
608.13	18.72
608.29	44.47
608.44	56.17
608.60	0.00
608.75	37.45
608.91	58.51
609.06	79.58
609.22	28.09
609.37	81.92
609.53	74.90
609.68	65.54
609.84	39.79
609.99	49.15
610.15	53.83
610.30	56.17
610.46	63.19
610.61	0.00
610.76	79.58
610.92	49.15
611.07	84.26
611.23	70.22
611.38	4.68
611.54	0.00
611.69	63.19
611.84	58.51
612.00	74.90
612.15	70.22
612.31	44.47
612.46	93.62
612.62	53.83
612.77	107.66
612.92	56.17
613.08	44.47
613.23	0.00
613.39	58.51
613.54	51.49
613.69	91.28
613.85	37.45
614.00	95.96
614.15	110.01
614.31	39.79
614.46	100.64
614.62	74.90
614.77	46.81
614.92	28.09
615.08	42.13
615.23	32.77
615.38	58.51
615.54	0.00
615.69	28.09
615.84	16.38
616.00	67.88
616.15	21.06
616.30	25.75
616.46	0.00
616.61	16.38
616.76	0.00
616.92	25.75
617.07	11.70
617.22	42.13
617.37	11.70
617.53	16.38
617.68	74.90
617.83	25.75
617.99	110.01
618.14	35.11
618.29	0.00
618.45	119.37
618.60	60.85
618.75	42.13
618.90	102.98
619.06	0.00
619.21	72.56
619.36	11.70
619.51	58.51
619.67	25.75
619.82	0.00
619.97	14.04
620.12	18.72
620.28	77.24
620.43	21.06
620.58	4.68
620.73	95.96
620.89	72.56
621.04	0.00
621.19	42.13
621.34	37.45
621.49	21.06
621.65	37.45
621.80	93.62
621.95	65.54
622.10	42.13
622.25	7.02
622.41	86.60
622.56	70.22
622.71	95.96
622.86	74.90
623.01	32.77
623.16	53.83
623.32	95.96
623.47	16.38
623.62	79.58
623.77	11.70
623.92	14.04
624.07	70.22
624.23	74.90
624.38	72.56
624.53	7.02
624.68	42.13
624.83	46.81
624.98	39.79
625.13	46.81
625.29	0.00
625.44	0.00
625.59	25.75
625.74	25.75
625.89	74.90
626.04	84.26
626.19	32.77
626.34	23.41
626.49	0.00
626.65	4.68
626.80	44.47
626.95	42.13
627.10	60.85
627.25	0.00
627.40	0.00
627.55	67.88
627.70	65.54
627.85	0.00
628.00	84.26
628.15	79.58
628.30	7.02
628.45	25.75
628.60	65.54
628.76	46.81
628.91	16.38
629.06	39.79
629.21	67.88
629.36	51.49
629.51	0.00
629.66	51.49
629.81	67.88
629.96	65.54
630.11	0.00
630.26	42.13
630.41	25.75
630.56	28.09
630.71	49.15
630.86	51.49
631.01	74.90
631.16	7.02
631.31	11.70
631.46	7.02
631.61	28.09
631.76	0.00
631.91	32.77
632.06	28.09
632.21	58.51
632.36	72.56
632.51	53.83
632.66	32.77
632.81	84.26
632.96	42.13
633.10	28.09
633.25	21.06
633.40	16.38
633.55	42.13
633.70	39.79
633.85	58.51
634.00	42.13
634.15	0.00
634.30	49.15
634.45	105.32
634.60	0.00
634.75	0.00
634.90	84.26
635.05	58.51
635.19	60.85
635.34	65.54
635.49	65.54
635.64	25.75
635.79	49.15
635.94	60.85
636.09	60.85
636.24	2.34
636.39	18.72
636.53	42.13
636.68	67.88
636.83	81.92
636.98	39.79
637.13	28.09
637.28	9.36
637.43	37.45
637.57	51.49
637.72	32.77
637.87	93.62
638.02	11.70
638.17	72.56
638.32	49.15
638.46	0.00
638.61	81.92
638.76	0.00
638.91	21.06
639.06	14.04
639.20	70.22
639.35	11.70
639.50	0.00
639.65	70.22
639.80	102.98
639.94	51.49
640.09	53.83
640.24	28.09
640.39	72.56
640.54	105.32
640.68	49.15
640.83	53.83
640.98	51.49
641.13	9.36
641.27	98.30
641.42	0.00
641.57	18.72
641.72	152.13
641.86	0.00
642.01	0.00
642.16	0.00
642.31	65.54
642.45	0.00
642.60	42.13
642.75	0.00
642.90	93.62
643.04	53.83
643.19	16.38
643.34	16.38
643.48	53.83
643.63	0.00
643.78	67.88
643.93	51.49
644.07	11.70
644.22	60.85
644.37	30.43
644.51	0.00
644.66	53.83
644.81	16.38
644.95	0.00
645.10	0.00
645.25	86.60
645.39	14.04
645.54	0.00
645.69	49.15
645.83	42.13
645.98	42.13
646.13	37.45
646.27	72.56
646.42	72.56
646.57	79.58
646.71	23.41
646.86	0.00
647.00	44.47
647.15	42.13
647.30	46.81
647.44	25.75
647.59	65.54
647.74	39.79
647.88	25.75
648.03	11.70
648.17	0.00
648.32	60.85
648.47	63.19
648.61	58.51
648.76	11.70
648.90	44.47
649.05	0.00
649.20	39.79
649.34	58.51
649.49	105.32
649.63	37.45
649.78	117.03
649.92	0.00
650.07	63.19
650.21	42.13
650.36	28.09
650.51	0.00
650.65	67.88
650.80	53.83
650.94	0.00
651.09	9.36
651.23	23.41
651.38	0.00
651.52	79.58
651.67	4.68
651.81	7.02
651.96	0.00
652.10	14.04
652.25	77.24
652.39	91.28
652.54	70.22
652.68	0.00
652.83	42.13
652.97	25.75
653.12	121.71
653.26	70.22
653.41	0.00
653.55	63.19
653.70	0.00
653.84	58.51
653.99	46.81
654.13	58.51
654.27	51.49
654.42	39.79
654.56	51.49
654.71	0.00
654.85	46.81
655.00	44.47
655.14	0.00
655.29	16.38
655.43	88.94
655.57	44.47
655.72	18.72
655.86	81.92
656.01	35.11
656.15	2.34
656.30	25.75
656.44	37.45
656.58	77.24
656.73	86.60
656.87	56.17
657.01	18.72
657.16	35.11
657.30	51.49
657.45	42.13
657.59	23.41
657.73	93.62
657.88	4.68
658.02	42.13
658.16	21.06
658.31	35.11
658.45	35.11
658.60	2.34
658.74	0.00
658.88	9.36
659.03	35.11
659.17	0.00
659.31	21.06
659.46	49.15
659.60	53.83
659.74	79.58
659.89	63.19
660.03	42.13
660.17	7.02
660.32	42.13
660.46	23.41
660.60	0.00
660.74	117.03
660.89	0.00
661.03	9.36
661.17	39.79
661.32	49.15
661.46	23.41
661.60	112.35
661.74	14.04
661.89	0.00
662.03	28.09
662.17	14.04
662.31	65.54
662.46	0.00
662.60	0.00
662.74	37.45
662.88	56.17
663.03	35.11
663.17	0.00
663.31	91.28
663.45	32.77
663.60	77.24
663.74	0.00
663.88	2.34
664.02	74.90
664.17	51.49
664.31	58.51
664.45	93.62
664.59	18.72
664.73	81.92
664.88	114.69
665.02	0.00
665.16	2.34
665.30	63.19
665.44	60.85
665.59	0.00
665.73	35.11
665.87	11.70
666.01	0.00
666.15	58.51
666.29	49.15
666.44	53.83
666.58	37.45
666.72	23.41
666.86	46.81
667.00	63.19
667.14	11.70
667.28	14.04
667.43	60.85
667.57	14.04
667.71	42.13
667.85	67.88
667.99	67.88
668.13	72.56
668.27	74.90
668.41	4.68
668.56	16.38
668.70	56.17
668.84	95.96
668.98	58.51
669.12	11.70
669.26	49.15
669.40	53.83
669.54	42.13
669.68	23.41
669.82	28.09
669.96	79.58
670.10	7.02
670.25	91.28
670.39	21.06
670.53	4.68
670.67	84.26
670.81	74.90
670.95	2.34
671.09	114.69
671.23	67.88
671.37	65.54
671.51	72.56
671.65	0.00
671.79	44.47
671.93	25.75
672.07	63.19
672.21	32.77
672.35	2.34
672.49	56.17
672.63	9.36
672.77	58.51
672.91	74.90
673.05	0.00
673.19	65.54
673.33	9.36
673.47	0.00
673.61	18.72
673.75	81.92
673.89	37.45
674.03	124.05
674.17	35.11
674.31	67.88
674.45	32.77
674.59	53.83
674.73	32.77
674.87	4.68
675.01	0.00
675.15	49.15
675.29	4.68
675.43	32.77
675.56	11.70
675.70	28.09
675.84	0.00
675.98	23.41
676.12	28.09
676.26	93.62
676.40	28.09
676.54	44.47
676.68	95.96
676.82	58.51
676.96	23.41
677.10	0.00
677.23	37.45
677.37	4.68
677.51	37.45
677.65	65.54
677.79	4.68
677.93	21.06
678.07	14.04
678.21	0.00
678.34	0.00
678.48	0.00
678.62	91.28
678.76	37.45
678.90	42.13
679.04	0.00
679.18	30.43
679.31	30.43
679.45	37.45
679.59	18.72
679.73	65.54
679.87	42.13
680.00	84.26
680.14	63.19
680.28	30.43
680.42	0.00
680.56	0.00
680.70	56.17
680.83	100.64
680.97	14.04
681.11	95.96
681.25	93.62
681.39	35.11
681.52	0.00
681.66	102.98
681.80	0.00
681.94	0.00
682.07	67.88
682.21	25.75
682.35	60.85
682.49	0.00
682.62	84.26
682.76	98.30
682.90	98.30
683.04	2.34
683.17	0.00
683.31	65.54
683.45	91.28
683.59	56.17
683.72	35.11
683.86	53.83
684.00	0.00
684.13	77.24
684.27	60.85
684.41	11.70
684.55	37.45
684.68	100.64
684.82	65.54
684.96	23.41
685.09	32.77
685.23	0.00
685.37	14.04
685.50	51.49
685.64	32.77
685.78	84.26
685.91	63.19
686.05	72.56
686.19	72.56
686.32	35.11
686.46	11.70
686.60	51.49
686.73	91.28
686.87	39.79
687.01	0.00
687.14	46.81
687.28	60.85
687.42	2.34
687.55	51.49
687.69	44.47
687.82	21.06
687.96	53.83
688.10	81.92
688.23	81.92
688.37	56.17
688.50	88.94
688.64	91.28
688.78	102.98
688.91	37.45
689.05	0.00
689.18	0.00
689.32	0.00
689.46	35.11
689.59	53.83
689.73	16.38
689.86	7.02
690.00	49.15
690.13	23.41
690.27	79.58
690.41	84.26
690.54	35.11
690.68	74.90
690.81	25.75
690.95	30.43
691.08	4.68
691.22	0.00
691.35	65.54
691.49	23.41
691.62	23.41
691.76	0.00
691.89	46.81
692.03	30.43
692.16	35.11
692.30	44.47
692.43	60.85
692.57	18.72
692.70	56.17
692.84	81.92
692.97	65.54
693.11	28.09
693.24	0.00
693.38	16.38
693.51	0.00
693.65	0.00
693.78	0.00
693.92	9.36
694.05	2.34
694.19	23.41
694.32	63.19
694.45	35.11
694.59	2.34
694.72	25.75
694.86	46.81
694.99	25.75
695.13	28.09
695.26	0.00
695.39	91.28
695.53	74.90
695.66	107.66
695.80	44.47
695.93	14.04
696.07	98.30
696.20	23.41
696.33	91.28
696.47	23.41
696.60	42.13
696.73	0.00
696.87	0.00
697.00	35.11
697.14	11.70
697.27	70.22
697.40	30.43
697.54	0.00
697.67	25.75
697.80	56.17
697.94	21.06
698.07	128.73
698.21	81.92
698.34	32.77
698.47	70.22
698.61	53.83
698.74	0.00
698.87	56.17
699.01	77.24
699.14	56.17
699.27	35.11
699.40	16.38
699.54	124.05
699.67	35.11
699.80	0.00
699.94	53.83
700.07	44.47
700.20	44.47
700.34	28.09
700.47	0.00
700.60	18.72
700.73	11.70
700.87	79.58
701.00	72.56
701.13	0.00
701.26	81.92
701.40	18.72
701.53	0.00
701.66	51.49
701.79	46.81
701.93	23.41
702.06	0.00
702.19	46.81
702.32	35.11
702.46	21.06
702.59	0.00
702.72	39.79
702.85	2.34
702.99	42.13
703.12	60.85
703.25	0.00
703.38	25.75
703.51	91.28
703.65	74.90
703.78	32.77
703.91	0.00
704.04	67.88
704.17	67.88
704.31	32.77
704.44	28.09
704.57	21.06
704.70	21.06
704.83	23.41
704.96	0.00
705.10	35.11
705.23	86.60
>>>>>End Processed Spectral Data<<<<<
