SpectraSuite Data File
++++++++++++++++++++++++++++++++++++
Date: Fri Oct 04 12:13:40 GMT-05:00 2013
User: price-jones
Dark Spectrum Present: No
Reference Spectrum Present: No
Number of Sampled Component Spectra: 1
Spectrometers: USB2+H05261
Integration Time (usec): 10000 (USB2+H05261)
Spectra Averaged: 1 (USB2+H05261)
Boxcar Smoothing: 0 (USB2+H05261)
Correct for Electrical Dark: No (USB2+H05261)
Strobe/Lamp Enabled: No (USB2+H05261)
Correct for Detector Non-linearity: No (USB2+H05261)
Correct for Stray Light: No (USB2+H05261)
Number of Pixels in Processed Spectrum: 2048
>>>>>Begin Processed Spectral Data<<<<<
365.73	0.00
365.92	0.00
366.12	0.00
366.32	0.00
366.52	0.00
366.72	0.00
366.91	0.00
367.11	0.00
367.31	0.00
367.51	0.00
367.70	0.00
367.90	0.00
368.10	0.00
368.30	0.00
368.49	0.00
368.69	0.00
368.89	0.00
369.09	0.00
369.28	0.00
369.48	0.00
369.68	0.00
369.87	0.00
370.07	0.00
370.27	0.00
370.47	0.00
370.66	0.00
370.86	0.00
371.06	0.00
371.25	79.58
371.45	14.04
371.65	0.00
371.84	0.00
372.04	0.00
372.24	0.00
372.44	0.00
372.63	0.00
372.83	32.77
373.03	58.51
373.22	42.13
373.42	37.45
373.62	21.06
373.81	21.06
374.01	98.30
374.21	25.75
374.40	30.43
374.60	4.68
374.79	93.62
374.99	9.36
375.19	28.09
375.38	21.06
375.58	32.77
375.78	42.13
375.97	72.56
376.17	16.38
376.37	46.81
376.56	42.13
376.76	0.00
376.95	35.11
377.15	30.43
377.35	46.81
377.54	35.11
377.74	21.06
377.93	56.17
378.13	63.19
378.33	58.51
378.52	56.17
378.72	65.54
378.91	49.15
379.11	14.04
379.31	110.01
379.50	100.64
379.70	2.34
379.89	4.68
380.09	39.79
380.28	0.00
380.48	65.54
380.68	39.79
380.87	0.00
381.07	0.00
381.26	7.02
381.46	37.45
381.65	4.68
381.85	14.04
382.04	14.04
382.24	0.00
382.43	107.66
382.63	18.72
382.83	25.75
383.02	4.68
383.22	53.83
383.41	37.45
383.61	0.00
383.80	2.34
384.00	0.00
384.19	51.49
384.39	35.11
384.58	0.00
384.78	4.68
384.97	42.13
385.17	63.19
385.36	32.77
385.56	98.30
385.75	0.00
385.95	60.85
386.14	49.15
386.34	23.41
386.53	4.68
386.72	60.85
386.92	16.38
387.11	16.38
387.31	65.54
387.50	65.54
387.70	21.06
387.89	18.72
388.09	28.09
388.28	44.47
388.48	0.00
388.67	0.00
388.86	39.79
389.06	0.00
389.25	42.13
389.45	25.75
389.64	14.04
389.84	0.00
390.03	51.49
390.22	42.13
390.42	84.26
390.61	51.49
390.81	30.43
391.00	0.00
391.19	56.17
391.39	70.22
391.58	0.00
391.78	23.41
391.97	0.00
392.16	30.43
392.36	98.30
392.55	0.00
392.75	14.04
392.94	0.00
393.13	25.75
393.33	0.00
393.52	0.00
393.71	7.02
393.91	0.00
394.10	0.00
394.29	30.43
394.49	53.83
394.68	0.00
394.88	0.00
395.07	51.49
395.26	42.13
395.46	11.70
395.65	11.70
395.84	2.34
396.04	21.06
396.23	30.43
396.42	49.15
396.62	0.00
396.81	39.79
397.00	46.81
397.19	0.00
397.39	7.02
397.58	51.49
397.77	37.45
397.97	21.06
398.16	95.96
398.35	7.02
398.55	2.34
398.74	14.04
398.93	86.60
399.12	2.34
399.32	23.41
399.51	0.00
399.70	0.00
399.90	70.22
400.09	11.70
400.28	0.00
400.47	9.36
400.67	30.43
400.86	0.00
401.05	0.00
401.24	32.77
401.44	58.51
401.63	21.06
401.82	39.79
402.01	30.43
402.21	128.73
402.40	9.36
402.59	0.00
402.78	0.00
402.97	0.00
403.17	42.13
403.36	0.00
403.55	58.51
403.74	18.72
403.93	28.09
404.13	63.19
404.32	70.22
404.51	28.09
404.70	23.41
404.89	14.04
405.09	7.02
405.28	35.11
405.47	0.00
405.66	0.00
405.85	46.81
406.05	35.11
406.24	23.41
406.43	4.68
406.62	0.00
406.81	44.47
407.00	30.43
407.20	67.88
407.39	0.00
407.58	74.90
407.77	39.79
407.96	4.68
408.15	21.06
408.34	25.75
408.54	98.30
408.73	25.75
408.92	74.90
409.11	0.00
409.30	16.38
409.49	58.51
409.68	0.00
409.87	86.60
410.07	72.56
410.26	81.92
410.45	14.04
410.64	16.38
410.83	39.79
411.02	0.00
411.21	124.05
411.40	70.22
411.59	25.75
411.78	77.24
411.98	42.13
412.17	16.38
412.36	70.22
412.55	46.81
412.74	81.92
412.93	7.02
413.12	0.00
413.31	25.75
413.50	53.83
413.69	11.70
413.88	37.45
414.07	0.00
414.26	126.39
414.45	74.90
414.64	79.58
414.83	42.13
415.02	77.24
415.22	0.00
415.41	67.88
415.60	63.19
415.79	42.13
415.98	53.83
416.17	86.60
416.36	9.36
416.55	53.83
416.74	18.72
416.93	49.15
417.12	0.00
417.31	0.00
417.50	0.00
417.69	7.02
417.88	53.83
418.07	81.92
418.26	60.85
418.45	25.75
418.64	21.06
418.83	98.30
419.02	25.75
419.21	72.56
419.39	79.58
419.58	28.09
419.77	39.79
419.96	9.36
420.15	72.56
420.34	25.75
420.53	25.75
420.72	105.32
420.91	28.09
421.10	74.90
421.29	30.43
421.48	28.09
421.67	37.45
421.86	25.75
422.05	0.00
422.24	28.09
422.43	74.90
422.61	91.28
422.80	7.02
422.99	7.02
423.18	4.68
423.37	51.49
423.56	63.19
423.75	56.17
423.94	65.54
424.13	58.51
424.32	7.02
424.50	9.36
424.69	51.49
424.88	42.13
425.07	18.72
425.26	107.66
425.45	86.60
425.64	91.28
425.83	63.19
426.01	77.24
426.20	39.79
426.39	88.94
426.58	58.51
426.77	133.41
426.96	63.19
427.15	84.26
427.33	88.94
427.52	0.00
427.71	0.00
427.90	42.13
428.09	0.00
428.28	11.70
428.46	117.03
428.65	28.09
428.84	84.26
429.03	0.00
429.22	32.77
429.40	7.02
429.59	51.49
429.78	7.02
429.97	58.51
430.16	91.28
430.34	37.45
430.53	65.54
430.72	114.69
430.91	77.24
431.10	42.13
431.28	14.04
431.47	0.00
431.66	0.00
431.85	39.79
432.03	37.45
432.22	0.00
432.41	67.88
432.60	53.83
432.79	60.85
432.97	2.34
433.16	14.04
433.35	44.47
433.54	65.54
433.72	49.15
433.91	44.47
434.10	74.90
434.28	72.56
434.47	0.00
434.66	0.00
434.85	63.19
435.03	9.36
435.22	14.04
435.41	7.02
435.59	44.47
435.78	35.11
435.97	114.69
436.16	30.43
436.34	131.07
436.53	72.56
436.72	35.11
436.90	65.54
437.09	70.22
437.28	49.15
437.46	25.75
437.65	51.49
437.84	2.34
438.02	0.00
438.21	42.13
438.40	51.49
438.58	58.51
438.77	7.02
438.96	46.81
439.14	91.28
439.33	0.00
439.52	18.72
439.70	16.38
439.89	2.34
440.08	44.47
440.26	30.43
440.45	124.05
440.63	79.58
440.82	86.60
441.01	67.88
441.19	53.83
441.38	0.00
441.57	32.77
441.75	23.41
441.94	67.88
442.12	84.26
442.31	77.24
442.50	7.02
442.68	49.15
442.87	79.58
443.05	42.13
443.24	112.35
443.43	2.34
443.61	60.85
443.80	67.88
443.98	84.26
444.17	14.04
444.35	39.79
444.54	46.81
444.73	84.26
444.91	72.56
445.10	124.05
445.28	67.88
445.47	98.30
445.65	65.54
445.84	30.43
446.02	28.09
446.21	112.35
446.39	39.79
446.58	46.81
446.77	65.54
446.95	39.79
447.14	112.35
447.32	98.30
447.51	44.47
447.69	53.83
447.88	28.09
448.06	121.71
448.25	58.51
448.43	0.00
448.62	42.13
448.80	21.06
448.99	93.62
449.17	35.11
449.36	0.00
449.54	81.92
449.73	44.47
449.91	60.85
450.10	105.32
450.28	37.45
450.46	56.17
450.65	70.22
450.83	46.81
451.02	44.47
451.20	60.85
451.39	25.75
451.57	25.75
451.76	21.06
451.94	110.01
452.13	4.68
452.31	42.13
452.49	0.00
452.68	74.90
452.86	28.09
453.05	56.17
453.23	91.28
453.42	23.41
453.60	21.06
453.78	86.60
453.97	18.72
454.15	56.17
454.34	51.49
454.52	70.22
454.70	0.00
454.89	21.06
455.07	0.00
455.26	51.49
455.44	4.68
455.62	21.06
455.81	37.45
455.99	60.85
456.17	107.66
456.36	49.15
456.54	95.96
456.73	16.38
456.91	56.17
457.09	0.00
457.28	37.45
457.46	7.02
457.64	11.70
457.83	14.04
458.01	18.72
458.19	25.75
458.38	53.83
458.56	79.58
458.74	65.54
458.93	25.75
459.11	14.04
459.29	114.69
459.48	81.92
459.66	79.58
459.84	51.49
460.03	70.22
460.21	93.62
460.39	77.24
460.57	70.22
460.76	7.02
460.94	30.43
461.12	67.88
461.31	30.43
461.49	81.92
461.67	18.72
461.85	37.45
462.04	42.13
462.22	149.79
462.40	105.32
462.59	112.35
462.77	70.22
462.95	70.22
463.13	65.54
463.32	23.41
463.50	35.11
463.68	49.15
463.86	2.34
464.05	65.54
464.23	37.45
464.41	126.39
464.59	60.85
464.78	77.24
464.96	4.68
465.14	86.60
465.32	79.58
465.50	67.88
465.69	49.15
465.87	53.83
466.05	53.83
466.23	88.94
466.41	28.09
466.60	18.72
466.78	42.13
466.96	21.06
467.14	32.77
467.32	126.39
467.51	93.62
467.69	51.49
467.87	93.62
468.05	44.47
468.23	56.17
468.41	79.58
468.60	58.51
468.78	88.94
468.96	67.88
469.14	74.90
469.32	100.64
469.50	102.98
469.69	70.22
469.87	0.00
470.05	46.81
470.23	44.47
470.41	77.24
470.59	35.11
470.77	39.79
470.95	0.00
471.14	39.79
471.32	44.47
471.50	0.00
471.68	98.30
471.86	159.16
472.04	107.66
472.22	70.22
472.40	23.41
472.58	7.02
472.77	56.17
472.95	72.56
473.13	91.28
473.31	28.09
473.49	74.90
473.67	11.70
473.85	9.36
474.03	114.69
474.21	53.83
474.39	65.54
474.57	35.11
474.75	114.69
474.93	51.49
475.12	39.79
475.30	37.45
475.48	30.43
475.66	9.36
475.84	93.62
476.02	39.79
476.20	81.92
476.38	86.60
476.56	93.62
476.74	23.41
476.92	51.49
477.10	35.11
477.28	105.32
477.46	18.72
477.64	49.15
477.82	100.64
478.00	56.17
478.18	11.70
478.36	63.19
478.54	93.62
478.72	65.54
478.90	65.54
479.08	58.51
479.26	53.83
479.44	4.68
479.62	56.17
479.80	39.79
479.98	60.85
480.16	46.81
480.34	30.43
480.52	4.68
480.70	114.69
480.88	65.54
481.06	42.13
481.24	32.77
481.41	60.85
481.59	70.22
481.77	77.24
481.95	60.85
482.13	65.54
482.31	100.64
482.49	74.90
482.67	0.00
482.85	100.64
483.03	0.00
483.21	35.11
483.39	119.37
483.57	32.77
483.74	46.81
483.92	84.26
484.10	156.82
484.28	77.24
484.46	86.60
484.64	46.81
484.82	74.90
485.00	84.26
485.18	32.77
485.35	126.39
485.53	81.92
485.71	28.09
485.89	79.58
486.07	79.58
486.25	0.00
486.43	56.17
486.61	0.00
486.78	42.13
486.96	16.38
487.14	88.94
487.32	98.30
487.50	58.51
487.68	100.64
487.85	42.13
488.03	35.11
488.21	49.15
488.39	79.58
488.57	110.01
488.75	49.15
488.92	124.05
489.10	100.64
489.28	2.34
489.46	70.22
489.64	28.09
489.81	93.62
489.99	77.24
490.17	44.47
490.35	21.06
490.53	63.19
490.70	98.30
490.88	28.09
491.06	142.77
491.24	46.81
491.41	124.05
491.59	63.19
491.77	67.88
491.95	70.22
492.13	72.56
492.30	128.73
492.48	51.49
492.66	28.09
492.84	0.00
493.01	60.85
493.19	84.26
493.37	0.00
493.54	58.51
493.72	79.58
493.90	28.09
494.08	65.54
494.25	2.34
494.43	114.69
494.61	65.54
494.79	0.00
494.96	4.68
495.14	51.49
495.32	84.26
495.49	173.20
495.67	102.98
495.85	28.09
496.02	0.00
496.20	0.00
496.38	42.13
496.55	51.49
496.73	21.06
496.91	0.00
497.09	14.04
497.26	65.54
497.44	81.92
497.62	91.28
497.79	84.26
497.97	53.83
498.14	88.94
498.32	95.96
498.50	63.19
498.67	74.90
498.85	102.98
499.03	117.03
499.20	100.64
499.38	63.19
499.56	67.88
499.73	74.90
499.91	67.88
500.08	51.49
500.26	86.60
500.44	35.11
500.61	16.38
500.79	95.96
500.97	114.69
501.14	58.51
501.32	70.22
501.49	72.56
501.67	39.79
501.84	60.85
502.02	98.30
502.20	39.79
502.37	91.28
502.55	110.01
502.72	81.92
502.90	126.39
503.07	79.58
503.25	88.94
503.43	74.90
503.60	42.13
503.78	74.90
503.95	56.17
504.13	74.90
504.30	110.01
504.48	58.51
504.65	133.41
504.83	18.72
505.01	91.28
505.18	63.19
505.36	67.88
505.53	98.30
505.71	37.45
505.88	112.35
506.06	53.83
506.23	105.32
506.41	9.36
506.58	117.03
506.76	28.09
506.93	100.64
507.11	39.79
507.28	88.94
507.46	110.01
507.63	56.17
507.81	74.90
507.98	74.90
508.16	67.88
508.33	100.64
508.50	58.51
508.68	39.79
508.85	70.22
509.03	67.88
509.20	25.75
509.38	32.77
509.55	88.94
509.73	119.37
509.90	131.07
510.08	112.35
510.25	102.98
510.42	138.09
510.60	156.82
510.77	2.34
510.95	67.88
511.12	35.11
511.30	28.09
511.47	81.92
511.64	86.60
511.82	42.13
511.99	74.90
512.17	39.79
512.34	32.77
512.51	35.11
512.69	77.24
512.86	105.32
513.04	72.56
513.21	58.51
513.38	105.32
513.56	86.60
513.73	0.00
513.90	72.56
514.08	44.47
514.25	114.69
514.43	21.06
514.60	105.32
514.77	95.96
514.95	30.43
515.12	0.00
515.29	119.37
515.47	58.51
515.64	88.94
515.81	117.03
515.99	30.43
516.16	173.20
516.33	79.58
516.51	46.81
516.68	117.03
516.85	100.64
517.03	95.96
517.20	91.28
517.37	138.09
517.54	35.11
517.72	105.32
517.89	84.26
518.06	39.79
518.24	79.58
518.41	142.77
518.58	121.71
518.75	112.35
518.93	107.66
519.10	156.82
519.27	74.90
519.45	79.58
519.62	72.56
519.79	147.45
519.96	32.77
520.14	95.96
520.31	39.79
520.48	53.83
520.65	58.51
520.83	65.54
521.00	16.38
521.17	147.45
521.34	100.64
521.52	84.26
521.69	77.24
521.86	152.13
522.03	126.39
522.20	72.56
522.38	79.58
522.55	128.73
522.72	135.75
522.89	161.50
523.07	93.62
523.24	86.60
523.41	128.73
523.58	46.81
523.75	74.90
523.92	65.54
524.10	98.30
524.27	93.62
524.44	53.83
524.61	74.90
524.78	51.49
524.96	112.35
525.13	42.13
525.30	175.54
525.47	112.35
525.64	58.51
525.81	117.03
525.98	84.26
526.16	70.22
526.33	105.32
526.50	133.41
526.67	81.92
526.84	145.11
527.01	4.68
527.18	44.47
527.36	70.22
527.53	81.92
527.70	56.17
527.87	72.56
528.04	79.58
528.21	53.83
528.38	0.00
528.55	56.17
528.72	135.75
528.89	81.92
529.07	86.60
529.24	102.98
529.41	110.01
529.58	60.85
529.75	86.60
529.92	119.37
530.09	39.79
530.26	74.90
530.43	124.05
530.60	65.54
530.77	102.98
530.94	35.11
531.11	110.01
531.28	133.41
531.46	124.05
531.63	86.60
531.80	95.96
531.97	53.83
532.14	72.56
532.31	112.35
532.48	145.11
532.65	128.73
532.82	58.51
532.99	110.01
533.16	98.30
533.33	93.62
533.50	25.75
533.67	107.66
533.84	37.45
534.01	81.92
534.18	23.41
534.35	154.48
534.52	88.94
534.69	161.50
534.86	23.41
535.03	88.94
535.20	105.32
535.37	46.81
535.54	81.92
535.71	70.22
535.88	9.36
536.05	72.56
536.22	65.54
536.38	46.81
536.55	95.96
536.72	35.11
536.89	49.15
537.06	161.50
537.23	142.77
537.40	86.60
537.57	72.56
537.74	56.17
537.91	98.30
538.08	88.94
538.25	65.54
538.42	126.39
538.59	53.83
538.75	67.88
538.92	133.41
539.09	93.62
539.26	117.03
539.43	93.62
539.60	39.79
539.77	133.41
539.94	72.56
540.11	63.19
540.28	107.66
540.44	84.26
540.61	107.66
540.78	110.01
540.95	131.07
541.12	88.94
541.29	100.64
541.46	72.56
541.62	114.69
541.79	88.94
541.96	74.90
542.13	14.04
542.30	107.66
542.47	91.28
542.63	74.90
542.80	91.28
542.97	74.90
543.14	154.48
543.31	35.11
543.48	121.71
543.64	91.28
543.81	23.41
543.98	44.47
544.15	56.17
544.32	91.28
544.48	117.03
544.65	128.73
544.82	117.03
544.99	128.73
545.16	42.13
545.32	65.54
545.49	30.43
545.66	100.64
545.83	88.94
546.00	131.07
546.16	88.94
546.33	74.90
546.50	117.03
546.67	60.85
546.83	119.37
547.00	32.77
547.17	0.00
547.34	72.56
547.50	84.26
547.67	88.94
547.84	126.39
548.00	4.68
548.17	128.73
548.34	86.60
548.51	39.79
548.67	65.54
548.84	105.32
549.01	81.92
549.18	60.85
549.34	53.83
549.51	63.19
549.68	37.45
549.84	72.56
550.01	117.03
550.18	124.05
550.34	170.86
550.51	60.85
550.68	133.41
550.84	81.92
551.01	9.36
551.18	140.43
551.34	126.39
551.51	91.28
551.68	46.81
551.84	102.98
552.01	126.39
552.18	44.47
552.34	81.92
552.51	37.45
552.68	46.81
552.84	23.41
553.01	42.13
553.18	105.32
553.34	63.19
553.51	46.81
553.67	53.83
553.84	124.05
554.01	119.37
554.17	100.64
554.34	79.58
554.51	159.16
554.67	84.26
554.84	79.58
555.00	60.85
555.17	117.03
555.33	117.03
555.50	128.73
555.67	56.17
555.83	126.39
556.00	67.88
556.16	124.05
556.33	131.07
556.50	84.26
556.66	63.19
556.83	100.64
556.99	7.02
557.16	81.92
557.32	58.51
557.49	65.54
557.65	84.26
557.82	72.56
557.98	74.90
558.15	128.73
558.32	102.98
558.48	58.51
558.65	98.30
558.81	70.22
558.98	0.00
559.14	53.83
559.31	124.05
559.47	112.35
559.64	177.88
559.80	79.58
559.97	102.98
560.13	100.64
560.30	105.32
560.46	88.94
560.63	84.26
560.79	140.43
560.96	102.98
561.12	60.85
561.29	161.50
561.45	63.19
561.61	56.17
561.78	149.79
561.94	53.83
562.11	30.43
562.27	107.66
562.44	124.05
562.60	67.88
562.77	98.30
562.93	110.01
563.10	44.47
563.26	98.30
563.42	74.90
563.59	114.69
563.75	63.19
563.92	28.09
564.08	23.41
564.24	95.96
564.41	37.45
564.57	81.92
564.74	58.51
564.90	102.98
565.07	56.17
565.23	98.30
565.39	60.85
565.56	11.70
565.72	124.05
565.88	0.00
566.05	49.15
566.21	72.56
566.38	72.56
566.54	9.36
566.70	93.62
566.87	100.64
567.03	58.51
567.19	110.01
567.36	112.35
567.52	79.58
567.68	58.51
567.85	112.35
568.01	128.73
568.17	67.88
568.34	91.28
568.50	142.77
568.66	18.72
568.83	91.28
568.99	81.92
569.15	100.64
569.32	53.83
569.48	70.22
569.64	58.51
569.81	46.81
569.97	135.75
570.13	58.51
570.30	70.22
570.46	67.88
570.62	93.62
570.78	95.96
570.95	53.83
571.11	53.83
571.27	74.90
571.43	72.56
571.60	56.17
571.76	0.00
571.92	173.20
572.09	25.75
572.25	88.94
572.41	86.60
572.57	63.19
572.74	30.43
572.90	39.79
573.06	32.77
573.22	102.98
573.38	63.19
573.55	77.24
573.71	79.58
573.87	42.13
574.03	74.90
574.20	58.51
574.36	117.03
574.52	49.15
574.68	88.94
574.84	91.28
575.01	79.58
575.17	42.13
575.33	102.98
575.49	102.98
575.65	81.92
575.82	42.13
575.98	72.56
576.14	16.38
576.30	65.54
576.46	30.43
576.62	81.92
576.79	91.28
576.95	70.22
577.11	0.00
577.27	79.58
577.43	65.54
577.59	138.09
577.75	100.64
577.92	145.11
578.08	79.58
578.24	65.54
578.40	107.66
578.56	114.69
578.72	102.98
578.88	72.56
579.04	98.30
579.21	77.24
579.37	51.49
579.53	100.64
579.69	105.32
579.85	49.15
580.01	105.32
580.17	145.11
580.33	56.17
580.49	112.35
580.65	98.30
580.82	86.60
580.98	100.64
581.14	84.26
581.30	39.79
581.46	88.94
581.62	81.92
581.78	102.98
581.94	58.51
582.10	117.03
582.26	0.00
582.42	117.03
582.58	58.51
582.74	63.19
582.90	42.13
583.06	133.41
583.22	93.62
583.38	32.77
583.54	88.94
583.70	63.19
583.86	44.47
584.02	93.62
584.18	159.16
584.34	93.62
584.50	60.85
584.66	46.81
584.82	18.72
584.98	81.92
585.14	63.19
585.30	114.69
585.46	49.15
585.62	16.38
585.78	70.22
585.94	110.01
586.10	88.94
586.26	117.03
586.42	112.35
586.58	135.75
586.74	63.19
586.90	100.64
587.06	63.19
587.22	77.24
587.38	60.85
587.54	18.72
587.70	81.92
587.86	58.51
588.02	67.88
588.18	84.26
588.34	25.75
588.49	60.85
588.65	21.06
588.81	0.00
588.97	35.11
589.13	32.77
589.29	28.09
589.45	42.13
589.61	0.00
589.77	74.90
589.93	4.68
590.08	49.15
590.24	37.45
590.40	100.64
590.56	51.49
590.72	100.64
590.88	110.01
591.04	14.04
591.20	35.11
591.35	93.62
591.51	37.45
591.67	135.75
591.83	67.88
591.99	91.28
592.15	63.19
592.31	60.85
592.46	58.51
592.62	58.51
592.78	84.26
592.94	72.56
593.10	74.90
593.26	25.75
593.41	70.22
593.57	81.92
593.73	140.43
593.89	112.35
594.05	49.15
594.20	46.81
594.36	161.50
594.52	30.43
594.68	16.38
594.84	77.24
594.99	58.51
595.15	42.13
595.31	70.22
595.47	95.96
595.62	70.22
595.78	74.90
595.94	84.26
596.10	58.51
596.25	44.47
596.41	56.17
596.57	91.28
596.73	44.47
596.88	77.24
597.04	77.24
597.20	49.15
597.36	77.24
597.51	65.54
597.67	46.81
597.83	30.43
597.99	77.24
598.14	42.13
598.30	65.54
598.46	81.92
598.61	84.26
598.77	86.60
598.93	74.90
599.09	58.51
599.24	81.92
599.40	63.19
599.56	28.09
599.71	81.92
599.87	25.75
600.03	46.81
600.18	84.26
600.34	81.92
600.50	9.36
600.65	110.01
600.81	93.62
600.97	91.28
601.12	49.15
601.28	93.62
601.44	133.41
601.59	110.01
601.75	84.26
601.91	121.71
602.06	58.51
602.22	37.45
602.37	98.30
602.53	14.04
602.69	77.24
602.84	114.69
603.00	88.94
603.16	114.69
603.31	51.49
603.47	67.88
603.62	63.19
603.78	77.24
603.94	110.01
604.09	11.70
604.25	107.66
604.40	0.00
604.56	166.18
604.71	49.15
604.87	32.77
605.03	84.26
605.18	77.24
605.34	0.00
605.49	72.56
605.65	93.62
605.80	182.56
605.96	72.56
606.12	60.85
606.27	84.26
606.43	88.94
606.58	42.13
606.74	84.26
606.89	51.49
607.05	44.47
607.20	28.09
607.36	39.79
607.51	46.81
607.67	117.03
607.82	70.22
607.98	119.37
608.13	84.26
608.29	35.11
608.44	74.90
608.60	23.41
608.75	65.54
608.91	7.02
609.06	74.90
609.22	84.26
609.37	14.04
609.53	49.15
609.68	46.81
609.84	0.00
609.99	117.03
610.15	63.19
610.30	63.19
610.46	35.11
610.61	81.92
610.76	32.77
610.92	30.43
611.07	51.49
611.23	114.69
611.38	56.17
611.54	0.00
611.69	49.15
611.84	98.30
612.00	79.58
612.15	110.01
612.31	138.09
612.46	105.32
612.62	42.13
612.77	88.94
612.92	110.01
613.08	77.24
613.23	56.17
613.39	93.62
613.54	58.51
613.69	72.56
613.85	46.81
614.00	95.96
614.15	25.75
614.31	58.51
614.46	60.85
614.62	86.60
614.77	37.45
614.92	11.70
615.08	88.94
615.23	86.60
615.38	42.13
615.54	88.94
615.69	86.60
615.84	53.83
616.00	56.17
616.15	44.47
616.30	49.15
616.46	88.94
616.61	42.13
616.76	84.26
616.92	58.51
617.07	121.71
617.22	56.17
617.37	114.69
617.53	65.54
617.68	70.22
617.83	42.13
617.99	58.51
618.14	65.54
618.29	88.94
618.45	56.17
618.60	112.35
618.75	91.28
618.90	0.00
619.06	74.90
619.21	32.77
619.36	156.82
619.51	58.51
619.67	93.62
619.82	7.02
619.97	117.03
620.12	67.88
620.28	121.71
620.43	95.96
620.58	105.32
620.73	93.62
620.89	100.64
621.04	0.00
621.19	131.07
621.34	56.17
621.49	128.73
621.65	114.69
621.80	84.26
621.95	56.17
622.10	98.30
622.25	128.73
622.41	25.75
622.56	60.85
622.71	18.72
622.86	100.64
623.01	114.69
623.16	70.22
623.32	98.30
623.47	154.48
623.62	79.58
623.77	2.34
623.92	79.58
624.07	46.81
624.23	124.05
624.38	7.02
624.53	49.15
624.68	72.56
624.83	114.69
624.98	95.96
625.13	72.56
625.29	4.68
625.44	35.11
625.59	28.09
625.74	84.26
625.89	0.00
626.04	46.81
626.19	117.03
626.34	32.77
626.49	49.15
626.65	37.45
626.80	32.77
626.95	119.37
627.10	21.06
627.25	88.94
627.40	86.60
627.55	35.11
627.70	67.88
627.85	53.83
628.00	67.88
628.15	161.50
628.30	18.72
628.45	133.41
628.60	67.88
628.76	175.54
628.91	56.17
629.06	105.32
629.21	14.04
629.36	67.88
629.51	74.90
629.66	35.11
629.81	49.15
629.96	93.62
630.11	102.98
630.26	4.68
630.41	32.77
630.56	79.58
630.71	77.24
630.86	110.01
631.01	21.06
631.16	56.17
631.31	112.35
631.46	51.49
631.61	21.06
631.76	63.19
631.91	49.15
632.06	70.22
632.21	72.56
632.36	98.30
632.51	91.28
632.66	42.13
632.81	79.58
632.96	9.36
633.10	65.54
633.25	51.49
633.40	98.30
633.55	0.00
633.70	65.54
633.85	51.49
634.00	114.69
634.15	81.92
634.30	110.01
634.45	30.43
634.60	70.22
634.75	39.79
634.90	58.51
635.05	58.51
635.19	102.98
635.34	44.47
635.49	0.00
635.64	63.19
635.79	0.00
635.94	117.03
636.09	131.07
636.24	0.00
636.39	93.62
636.53	25.75
636.68	46.81
636.83	46.81
636.98	14.04
637.13	25.75
637.28	74.90
637.43	98.30
637.57	70.22
637.72	79.58
637.87	60.85
638.02	53.83
638.17	84.26
638.32	0.00
638.46	81.92
638.61	51.49
638.76	72.56
638.91	37.45
639.06	46.81
639.20	42.13
639.35	30.43
639.50	49.15
639.65	49.15
639.80	60.85
639.94	25.75
640.09	56.17
640.24	74.90
640.39	39.79
640.54	60.85
640.68	0.00
640.83	88.94
640.98	74.90
641.13	77.24
641.27	140.43
641.42	28.09
641.57	67.88
641.72	51.49
641.86	28.09
642.01	0.00
642.16	121.71
642.31	32.77
642.45	91.28
642.60	44.47
642.75	58.51
642.90	28.09
643.04	124.05
643.19	84.26
643.34	72.56
643.48	95.96
643.63	49.15
643.78	138.09
643.93	74.90
644.07	28.09
644.22	53.83
644.37	81.92
644.51	74.90
644.66	53.83
644.81	32.77
644.95	49.15
645.10	51.49
645.25	65.54
645.39	58.51
645.54	135.75
645.69	93.62
645.83	44.47
645.98	95.96
646.13	112.35
646.27	56.17
646.42	25.75
646.57	140.43
646.71	95.96
646.86	70.22
647.00	21.06
647.15	77.24
647.30	39.79
647.44	58.51
647.59	51.49
647.74	88.94
647.88	0.00
648.03	58.51
648.17	95.96
648.32	37.45
648.47	67.88
648.61	72.56
648.76	42.13
648.90	0.00
649.05	0.00
649.20	0.00
649.34	42.13
649.49	77.24
649.63	2.34
649.78	110.01
649.92	53.83
650.07	56.17
650.21	42.13
650.36	79.58
650.51	11.70
650.65	58.51
650.80	21.06
650.94	84.26
651.09	84.26
651.23	0.00
651.38	112.35
651.52	60.85
651.67	28.09
651.81	65.54
651.96	63.19
652.10	28.09
652.25	0.00
652.39	72.56
652.54	37.45
652.68	0.00
652.83	35.11
652.97	77.24
653.12	91.28
653.26	30.43
653.41	72.56
653.55	21.06
653.70	93.62
653.84	25.75
653.99	84.26
654.13	35.11
654.27	72.56
654.42	49.15
654.56	39.79
654.71	159.16
654.85	0.00
655.00	51.49
655.14	37.45
655.29	9.36
655.43	42.13
655.57	42.13
655.72	91.28
655.86	56.17
656.01	79.58
656.15	23.41
656.30	53.83
656.44	112.35
656.58	14.04
656.73	39.79
656.87	37.45
657.01	0.00
657.16	42.13
657.30	70.22
657.45	25.75
657.59	98.30
657.73	23.41
657.88	67.88
658.02	37.45
658.16	100.64
658.31	0.00
658.45	79.58
658.60	53.83
658.74	21.06
658.88	0.00
659.03	35.11
659.17	81.92
659.31	124.05
659.46	0.00
659.60	93.62
659.74	81.92
659.89	86.60
660.03	23.41
660.17	112.35
660.32	114.69
660.46	28.09
660.60	0.00
660.74	30.43
660.89	95.96
661.03	49.15
661.17	63.19
661.32	77.24
661.46	53.83
661.60	9.36
661.74	35.11
661.89	161.50
662.03	51.49
662.17	121.71
662.31	93.62
662.46	100.64
662.60	86.60
662.74	21.06
662.88	91.28
663.03	25.75
663.17	44.47
663.31	0.00
663.45	0.00
663.60	67.88
663.74	124.05
663.88	124.05
664.02	49.15
664.17	46.81
664.31	145.11
664.45	46.81
664.59	67.88
664.73	49.15
664.88	7.02
665.02	100.64
665.16	175.54
665.30	72.56
665.44	42.13
665.59	0.00
665.73	74.90
665.87	91.28
666.01	0.00
666.15	74.90
666.29	72.56
666.44	0.00
666.58	88.94
666.72	53.83
666.86	21.06
667.00	60.85
667.14	0.00
667.28	131.07
667.43	25.75
667.57	74.90
667.71	0.00
667.85	28.09
667.99	23.41
668.13	0.00
668.27	14.04
668.41	51.49
668.56	30.43
668.70	53.83
668.84	95.96
668.98	58.51
669.12	0.00
669.26	72.56
669.40	49.15
669.54	23.41
669.68	0.00
669.82	88.94
669.96	28.09
670.10	63.19
670.25	42.13
670.39	49.15
670.53	56.17
670.67	60.85
670.81	42.13
670.95	63.19
671.09	0.00
671.23	51.49
671.37	124.05
671.51	32.77
671.65	37.45
671.79	56.17
671.93	114.69
672.07	74.90
672.21	81.92
672.35	16.38
672.49	9.36
672.63	152.13
672.77	74.90
672.91	21.06
673.05	49.15
673.19	51.49
673.33	51.49
673.47	49.15
673.61	77.24
673.75	23.41
673.89	58.51
674.03	46.81
674.17	88.94
674.31	39.79
674.45	44.47
674.59	0.00
674.73	0.00
674.87	86.60
675.01	145.11
675.15	51.49
675.29	37.45
675.43	49.15
675.56	93.62
675.70	2.34
675.84	2.34
675.98	18.72
676.12	51.49
676.26	14.04
676.40	77.24
676.54	70.22
676.68	18.72
676.82	110.01
676.96	74.90
677.10	53.83
677.23	124.05
677.37	70.22
677.51	16.38
677.65	126.39
677.79	0.00
677.93	107.66
678.07	0.00
678.21	37.45
678.34	37.45
678.48	60.85
678.62	37.45
678.76	77.24
678.90	126.39
679.04	95.96
679.18	11.70
679.31	0.00
679.45	28.09
679.59	70.22
679.73	67.88
679.87	98.30
680.00	35.11
680.14	107.66
680.28	37.45
680.42	95.96
680.56	51.49
680.70	0.00
680.83	121.71
680.97	0.00
681.11	4.68
681.25	77.24
681.39	9.36
681.52	42.13
681.66	0.00
681.80	77.24
681.94	0.00
682.07	32.77
682.21	93.62
682.35	28.09
682.49	51.49
682.62	0.00
682.76	77.24
682.90	14.04
683.04	0.00
683.17	79.58
683.31	79.58
683.45	7.02
683.59	72.56
683.72	0.00
683.86	121.71
684.00	25.75
684.13	72.56
684.27	32.77
684.41	0.00
684.55	14.04
684.68	91.28
684.82	37.45
684.96	46.81
685.09	74.90
685.23	74.90
685.37	23.41
685.50	0.00
685.64	63.19
685.78	81.92
685.91	72.56
686.05	49.15
686.19	56.17
686.32	74.90
686.46	11.70
686.60	32.77
686.73	11.70
686.87	44.47
687.01	35.11
687.14	4.68
687.28	72.56
687.42	51.49
687.55	72.56
687.69	39.79
687.82	58.51
687.96	32.77
688.10	65.54
688.23	81.92
688.37	56.17
688.50	53.83
688.64	65.54
688.78	114.69
688.91	81.92
689.05	9.36
689.18	14.04
689.32	35.11
689.46	84.26
689.59	0.00
689.73	16.38
689.86	102.98
690.00	46.81
690.13	81.92
690.27	51.49
690.41	4.68
690.54	53.83
690.68	37.45
690.81	37.45
690.95	11.70
691.08	0.00
691.22	133.41
691.35	84.26
691.49	72.56
691.62	18.72
691.76	16.38
691.89	86.60
692.03	46.81
692.16	0.00
692.30	39.79
692.43	93.62
692.57	63.19
692.70	0.00
692.84	79.58
692.97	35.11
693.11	0.00
693.24	58.51
693.38	18.72
693.51	30.43
693.65	70.22
693.78	7.02
693.92	0.00
694.05	39.79
694.19	21.06
694.32	44.47
694.45	23.41
694.59	11.70
694.72	4.68
694.86	14.04
694.99	7.02
695.13	16.38
695.26	44.47
695.39	0.00
695.53	0.00
695.66	28.09
695.80	72.56
695.93	2.34
696.07	70.22
696.20	25.75
696.33	30.43
696.47	28.09
696.60	37.45
696.73	42.13
696.87	9.36
697.00	63.19
697.14	0.00
697.27	0.00
697.40	4.68
697.54	35.11
697.67	0.00
697.80	0.00
697.94	49.15
698.07	60.85
698.21	42.13
698.34	37.45
698.47	51.49
698.61	79.58
698.74	28.09
698.87	0.00
699.01	30.43
699.14	16.38
699.27	30.43
699.40	84.26
699.54	16.38
699.67	133.41
699.80	39.79
699.94	53.83
700.07	16.38
700.20	9.36
700.34	53.83
700.47	9.36
700.60	0.00
700.73	0.00
700.87	16.38
701.00	42.13
701.13	11.70
701.26	35.11
701.40	25.75
701.53	79.58
701.66	67.88
701.79	46.81
701.93	95.96
702.06	77.24
702.19	44.47
702.32	74.90
702.46	51.49
702.59	42.13
702.72	0.00
702.85	86.60
702.99	70.22
703.12	11.70
703.25	4.68
703.38	0.00
703.51	37.45
703.65	9.36
703.78	56.17
703.91	0.00
704.04	74.90
704.17	86.60
704.31	44.47
704.44	0.00
704.57	30.43
704.70	65.54
704.83	35.11
704.96	60.85
705.10	128.73
705.23	14.04
>>>>>End Processed Spectral Data<<<<<
