SpectraSuite Data File
++++++++++++++++++++++++++++++++++++
Date: Fri Oct 04 12:13:40 GMT-05:00 2013
User: price-jones
Dark Spectrum Present: No
Reference Spectrum Present: No
Number of Sampled Component Spectra: 1
Spectrometers: USB2+H05261
Integration Time (usec): 10000 (USB2+H05261)
Spectra Averaged: 1 (USB2+H05261)
Boxcar Smoothing: 0 (USB2+H05261)
Correct for Electrical Dark: No (USB2+H05261)
Strobe/Lamp Enabled: No (USB2+H05261)
Correct for Detector Non-linearity: No (USB2+H05261)
Correct for Stray Light: No (USB2+H05261)
Number of Pixels in Processed Spectrum: 2048
>>>>>Begin Processed Spectral Data<<<<<
365.73	0.00
365.92	0.00
366.12	0.00
366.32	0.00
366.52	0.00
366.72	0.00
366.91	0.00
367.11	0.00
367.31	0.00
367.51	0.00
367.70	0.00
367.90	0.00
368.10	0.00
368.30	0.00
368.49	0.00
368.69	0.00
368.89	0.00
369.09	0.00
369.28	0.00
369.48	0.00
369.68	0.00
369.87	0.00
370.07	0.00
370.27	0.00
370.47	0.00
370.66	0.00
370.86	0.00
371.06	23.41
371.25	0.00
371.45	0.00
371.65	0.00
371.84	0.00
372.04	46.81
372.24	0.00
372.44	0.00
372.63	2.34
372.83	11.70
373.03	16.38
373.22	0.00
373.42	42.13
373.62	79.58
373.81	30.43
374.01	53.83
374.21	25.75
374.40	105.32
374.60	28.09
374.79	7.02
374.99	91.28
375.19	23.41
375.38	9.36
375.58	37.45
375.78	0.00
375.97	0.00
376.17	0.00
376.37	44.47
376.56	58.51
376.76	53.83
376.95	7.02
377.15	14.04
377.35	35.11
377.54	0.00
377.74	65.54
377.93	51.49
378.13	32.77
378.33	42.13
378.52	63.19
378.72	25.75
378.91	4.68
379.11	21.06
379.31	0.00
379.50	0.00
379.70	67.88
379.89	11.70
380.09	39.79
380.28	0.00
380.48	0.00
380.68	0.00
380.87	56.17
381.07	4.68
381.26	46.81
381.46	9.36
381.65	0.00
381.85	35.11
382.04	67.88
382.24	0.00
382.43	0.00
382.63	39.79
382.83	49.15
383.02	28.09
383.22	0.00
383.41	35.11
383.61	88.94
383.80	7.02
384.00	0.00
384.19	0.00
384.39	25.75
384.58	16.38
384.78	91.28
384.97	0.00
385.17	67.88
385.36	16.38
385.56	56.17
385.75	25.75
385.95	28.09
386.14	0.00
386.34	58.51
386.53	72.56
386.72	67.88
386.92	0.00
387.11	28.09
387.31	37.45
387.50	65.54
387.70	9.36
387.89	37.45
388.09	25.75
388.28	0.00
388.48	37.45
388.67	0.00
388.86	56.17
389.06	56.17
389.25	88.94
389.45	0.00
389.64	51.49
389.84	42.13
390.03	81.92
390.22	58.51
390.42	0.00
390.61	16.38
390.81	84.26
391.00	88.94
391.19	35.11
391.39	9.36
391.58	0.00
391.78	42.13
391.97	37.45
392.16	0.00
392.36	128.73
392.55	0.00
392.75	0.00
392.94	46.81
393.13	0.00
393.33	16.38
393.52	53.83
393.71	9.36
393.91	72.56
394.10	32.77
394.29	0.00
394.49	0.00
394.68	0.00
394.88	84.26
395.07	58.51
395.26	0.00
395.46	77.24
395.65	37.45
395.84	4.68
396.04	117.03
396.23	44.47
396.42	0.00
396.62	21.06
396.81	0.00
397.00	37.45
397.19	25.75
397.39	4.68
397.58	46.81
397.77	51.49
397.97	0.00
398.16	77.24
398.35	77.24
398.55	70.22
398.74	56.17
398.93	35.11
399.12	11.70
399.32	65.54
399.51	21.06
399.70	67.88
399.90	46.81
400.09	14.04
400.28	18.72
400.47	28.09
400.67	35.11
400.86	28.09
401.05	9.36
401.24	4.68
401.44	63.19
401.63	30.43
401.82	18.72
402.01	81.92
402.21	18.72
402.40	91.28
402.59	0.00
402.78	0.00
402.97	70.22
403.17	9.36
403.36	0.00
403.55	100.64
403.74	88.94
403.93	74.90
404.13	11.70
404.32	44.47
404.51	0.00
404.70	53.83
404.89	84.26
405.09	91.28
405.28	58.51
405.47	18.72
405.66	0.00
405.85	0.00
406.05	4.68
406.24	107.66
406.43	32.77
406.62	0.00
406.81	0.00
407.00	0.00
407.20	65.54
407.39	0.00
407.58	0.00
407.77	51.49
407.96	7.02
408.15	25.75
408.34	16.38
408.54	0.00
408.73	0.00
408.92	65.54
409.11	0.00
409.30	4.68
409.49	0.00
409.68	56.17
409.87	0.00
410.07	102.98
410.26	37.45
410.45	21.06
410.64	25.75
410.83	23.41
411.02	18.72
411.21	79.58
411.40	0.00
411.59	0.00
411.78	16.38
411.98	100.64
412.17	0.00
412.36	32.77
412.55	32.77
412.74	65.54
412.93	4.68
413.12	58.51
413.31	44.47
413.50	32.77
413.69	60.85
413.88	18.72
414.07	0.00
414.26	77.24
414.45	0.00
414.64	25.75
414.83	42.13
415.02	0.00
415.22	53.83
415.41	77.24
415.60	49.15
415.79	37.45
415.98	21.06
416.17	30.43
416.36	56.17
416.55	88.94
416.74	0.00
416.93	30.43
417.12	0.00
417.31	44.47
417.50	46.81
417.69	98.30
417.88	2.34
418.07	56.17
418.26	18.72
418.45	4.68
418.64	60.85
418.83	0.00
419.02	105.32
419.21	32.77
419.39	74.90
419.58	53.83
419.77	72.56
419.96	63.19
420.15	49.15
420.34	72.56
420.53	60.85
420.72	93.62
420.91	79.58
421.10	74.90
421.29	0.00
421.48	21.06
421.67	93.62
421.86	86.60
422.05	46.81
422.24	70.22
422.43	37.45
422.61	35.11
422.80	21.06
422.99	16.38
423.18	53.83
423.37	18.72
423.56	63.19
423.75	42.13
423.94	39.79
424.13	67.88
424.32	105.32
424.50	53.83
424.69	49.15
424.88	65.54
425.07	30.43
425.26	23.41
425.45	49.15
425.64	23.41
425.83	0.00
426.01	74.90
426.20	25.75
426.39	84.26
426.58	0.00
426.77	105.32
426.96	0.00
427.15	140.43
427.33	72.56
427.52	7.02
427.71	51.49
427.90	70.22
428.09	42.13
428.28	37.45
428.46	32.77
428.65	39.79
428.84	0.00
429.03	77.24
429.22	2.34
429.40	0.00
429.59	16.38
429.78	28.09
429.97	58.51
430.16	32.77
430.34	0.00
430.53	32.77
430.72	0.00
430.91	28.09
431.10	25.75
431.28	37.45
431.47	35.11
431.66	81.92
431.85	30.43
432.03	63.19
432.22	86.60
432.41	35.11
432.60	0.00
432.79	23.41
432.97	51.49
433.16	81.92
433.35	0.00
433.54	0.00
433.72	84.26
433.91	63.19
434.10	72.56
434.28	42.13
434.47	21.06
434.66	44.47
434.85	53.83
435.03	79.58
435.22	88.94
435.41	9.36
435.59	49.15
435.78	79.58
435.97	58.51
436.16	32.77
436.34	0.00
436.53	77.24
436.72	112.35
436.90	49.15
437.09	110.01
437.28	81.92
437.46	74.90
437.65	42.13
437.84	84.26
438.02	9.36
438.21	23.41
438.40	51.49
438.58	35.11
438.77	107.66
438.96	28.09
439.14	72.56
439.33	0.00
439.52	56.17
439.70	98.30
439.89	95.96
440.08	9.36
440.26	18.72
440.45	51.49
440.63	44.47
440.82	98.30
441.01	0.00
441.19	35.11
441.38	60.85
441.57	23.41
441.75	11.70
441.94	16.38
442.12	84.26
442.31	49.15
442.50	46.81
442.68	0.00
442.87	53.83
443.05	67.88
443.24	21.06
443.43	30.43
443.61	107.66
443.80	49.15
443.98	9.36
444.17	49.15
444.35	14.04
444.54	42.13
444.73	81.92
444.91	117.03
445.10	46.81
445.28	42.13
445.47	16.38
445.65	56.17
445.84	9.36
446.02	11.70
446.21	16.38
446.39	0.00
446.58	65.54
446.77	9.36
446.95	49.15
447.14	30.43
447.32	51.49
447.51	32.77
447.69	107.66
447.88	21.06
448.06	63.19
448.25	23.41
448.43	28.09
448.62	84.26
448.80	32.77
448.99	14.04
449.17	84.26
449.36	25.75
449.54	0.00
449.73	117.03
449.91	105.32
450.10	88.94
450.28	67.88
450.46	74.90
450.65	147.45
450.83	63.19
451.02	93.62
451.20	32.77
451.39	84.26
451.57	30.43
451.76	63.19
451.94	18.72
452.13	49.15
452.31	81.92
452.49	86.60
452.68	67.88
452.86	102.98
453.05	72.56
453.23	11.70
453.42	23.41
453.60	51.49
453.78	49.15
453.97	77.24
454.15	105.32
454.34	65.54
454.52	35.11
454.70	70.22
454.89	79.58
455.07	37.45
455.26	91.28
455.44	32.77
455.62	28.09
455.81	51.49
455.99	110.01
456.17	42.13
456.36	124.05
456.54	35.11
456.73	42.13
456.91	72.56
457.09	70.22
457.28	95.96
457.46	60.85
457.64	0.00
457.83	56.17
458.01	28.09
458.19	0.00
458.38	35.11
458.56	112.35
458.74	9.36
458.93	28.09
459.11	42.13
459.29	32.77
459.48	37.45
459.66	46.81
459.84	84.26
460.03	56.17
460.21	49.15
460.39	56.17
460.57	4.68
460.76	46.81
460.94	105.32
461.12	32.77
461.31	70.22
461.49	9.36
461.67	63.19
461.85	102.98
462.04	74.90
462.22	110.01
462.40	58.51
462.59	0.00
462.77	21.06
462.95	67.88
463.13	30.43
463.32	21.06
463.50	63.19
463.68	44.47
463.86	28.09
464.05	44.47
464.23	23.41
464.41	46.81
464.59	0.00
464.78	63.19
464.96	74.90
465.14	93.62
465.32	39.79
465.50	84.26
465.69	93.62
465.87	98.30
466.05	74.90
466.23	7.02
466.41	67.88
466.60	74.90
466.78	18.72
466.96	0.00
467.14	84.26
467.32	65.54
467.51	46.81
467.69	67.88
467.87	0.00
468.05	53.83
468.23	37.45
468.41	0.00
468.60	37.45
468.78	81.92
468.96	126.39
469.14	30.43
469.32	0.00
469.50	46.81
469.69	88.94
469.87	11.70
470.05	60.85
470.23	77.24
470.41	72.56
470.59	25.75
470.77	81.92
470.95	77.24
471.14	9.36
471.32	18.72
471.50	0.00
471.68	63.19
471.86	30.43
472.04	42.13
472.22	28.09
472.40	74.90
472.58	53.83
472.77	67.88
472.95	91.28
473.13	23.41
473.31	14.04
473.49	44.47
473.67	7.02
473.85	81.92
474.03	110.01
474.21	74.90
474.39	53.83
474.57	98.30
474.75	56.17
474.93	67.88
475.12	0.00
475.30	0.00
475.48	51.49
475.66	58.51
475.84	53.83
476.02	77.24
476.20	67.88
476.38	91.28
476.56	95.96
476.74	9.36
476.92	37.45
477.10	42.13
477.28	28.09
477.46	100.64
477.64	74.90
477.82	51.49
478.00	84.26
478.18	74.90
478.36	2.34
478.54	53.83
478.72	88.94
478.90	65.54
479.08	138.09
479.26	0.00
479.44	30.43
479.62	53.83
479.80	93.62
479.98	74.90
480.16	42.13
480.34	70.22
480.52	72.56
480.70	14.04
480.88	35.11
481.06	63.19
481.24	21.06
481.41	18.72
481.59	67.88
481.77	65.54
481.95	86.60
482.13	0.00
482.31	53.83
482.49	112.35
482.67	60.85
482.85	77.24
483.03	30.43
483.21	32.77
483.39	138.09
483.57	77.24
483.74	14.04
483.92	91.28
484.10	126.39
484.28	7.02
484.46	98.30
484.64	67.88
484.82	0.00
485.00	37.45
485.18	63.19
485.35	79.58
485.53	67.88
485.71	42.13
485.89	35.11
486.07	88.94
486.25	84.26
486.43	88.94
486.61	100.64
486.78	156.82
486.96	9.36
487.14	77.24
487.32	93.62
487.50	56.17
487.68	58.51
487.85	81.92
488.03	28.09
488.21	4.68
488.39	79.58
488.57	91.28
488.75	58.51
488.92	93.62
489.10	56.17
489.28	117.03
489.46	119.37
489.64	67.88
489.81	0.00
489.99	28.09
490.17	63.19
490.35	42.13
490.53	37.45
490.70	42.13
490.88	140.43
491.06	79.58
491.24	88.94
491.41	91.28
491.59	53.83
491.77	51.49
491.95	117.03
492.13	4.68
492.30	88.94
492.48	70.22
492.66	131.07
492.84	42.13
493.01	140.43
493.19	23.41
493.37	4.68
493.54	72.56
493.72	58.51
493.90	25.75
494.08	84.26
494.25	117.03
494.43	105.32
494.61	105.32
494.79	65.54
494.96	100.64
495.14	72.56
495.32	72.56
495.49	77.24
495.67	56.17
495.85	91.28
496.02	65.54
496.20	110.01
496.38	37.45
496.55	112.35
496.73	60.85
496.91	2.34
497.09	51.49
497.26	95.96
497.44	135.75
497.62	44.47
497.79	107.66
497.97	72.56
498.14	67.88
498.32	60.85
498.50	63.19
498.67	4.68
498.85	110.01
499.03	107.66
499.20	88.94
499.38	112.35
499.56	74.90
499.73	63.19
499.91	93.62
500.08	67.88
500.26	102.98
500.44	114.69
500.61	39.79
500.79	0.00
500.97	35.11
501.14	145.11
501.32	0.00
501.49	21.06
501.67	102.98
501.84	70.22
502.02	44.47
502.20	114.69
502.37	65.54
502.55	133.41
502.72	128.73
502.90	161.50
503.07	100.64
503.25	21.06
503.43	67.88
503.60	126.39
503.78	56.17
503.95	70.22
504.13	65.54
504.30	107.66
504.48	32.77
504.65	49.15
504.83	63.19
505.01	18.72
505.18	9.36
505.36	51.49
505.53	51.49
505.71	37.45
505.88	86.60
506.06	39.79
506.23	140.43
506.41	51.49
506.58	46.81
506.76	0.00
506.93	49.15
507.11	72.56
507.28	140.43
507.46	124.05
507.63	98.30
507.81	114.69
507.98	37.45
508.16	51.49
508.33	65.54
508.50	42.13
508.68	63.19
508.85	102.98
509.03	121.71
509.20	58.51
509.38	95.96
509.55	32.77
509.73	63.19
509.90	117.03
510.08	74.90
510.25	32.77
510.42	4.68
510.60	28.09
510.77	58.51
510.95	117.03
511.12	128.73
511.30	70.22
511.47	18.72
511.64	32.77
511.82	72.56
511.99	77.24
512.17	84.26
512.34	67.88
512.51	65.54
512.69	126.39
512.86	124.05
513.04	112.35
513.21	77.24
513.38	140.43
513.56	114.69
513.73	56.17
513.90	100.64
514.08	16.38
514.25	46.81
514.43	58.51
514.60	147.45
514.77	121.71
514.95	49.15
515.12	63.19
515.29	65.54
515.47	88.94
515.64	72.56
515.81	102.98
515.99	107.66
516.16	79.58
516.33	28.09
516.51	102.98
516.68	86.60
516.85	74.90
517.03	28.09
517.20	133.41
517.37	39.79
517.54	9.36
517.72	138.09
517.89	72.56
518.06	107.66
518.24	140.43
518.41	23.41
518.58	53.83
518.75	119.37
518.93	42.13
519.10	79.58
519.27	25.75
519.45	46.81
519.62	100.64
519.79	128.73
519.96	131.07
520.14	70.22
520.31	91.28
520.48	56.17
520.65	126.39
520.83	70.22
521.00	142.77
521.17	91.28
521.34	107.66
521.52	63.19
521.69	95.96
521.86	98.30
522.03	112.35
522.20	79.58
522.38	28.09
522.55	79.58
522.72	91.28
522.89	49.15
523.07	86.60
523.24	124.05
523.41	67.88
523.58	135.75
523.75	107.66
523.92	32.77
524.10	140.43
524.27	39.79
524.44	128.73
524.61	84.26
524.78	112.35
524.96	100.64
525.13	124.05
525.30	79.58
525.47	142.77
525.64	98.30
525.81	105.32
525.98	42.13
526.16	121.71
526.33	95.96
526.50	88.94
526.67	53.83
526.84	131.07
527.01	35.11
527.18	4.68
527.36	81.92
527.53	102.98
527.70	11.70
527.87	105.32
528.04	84.26
528.21	93.62
528.38	0.00
528.55	67.88
528.72	98.30
528.89	163.84
529.07	105.32
529.24	70.22
529.41	93.62
529.58	42.13
529.75	84.26
529.92	119.37
530.09	70.22
530.26	102.98
530.43	88.94
530.60	35.11
530.77	95.96
530.94	51.49
531.11	30.43
531.28	98.30
531.46	46.81
531.63	117.03
531.80	25.75
531.97	102.98
532.14	100.64
532.31	72.56
532.48	70.22
532.65	79.58
532.82	91.28
532.99	131.07
533.16	53.83
533.33	53.83
533.50	23.41
533.67	102.98
533.84	126.39
534.01	107.66
534.18	60.85
534.35	46.81
534.52	42.13
534.69	95.96
534.86	67.88
535.03	35.11
535.20	93.62
535.37	84.26
535.54	70.22
535.71	37.45
535.88	88.94
536.05	100.64
536.22	121.71
536.38	105.32
536.55	121.71
536.72	51.49
536.89	30.43
537.06	133.41
537.23	70.22
537.40	119.37
537.57	114.69
537.74	112.35
537.91	72.56
538.08	119.37
538.25	175.54
538.42	117.03
538.59	53.83
538.75	95.96
538.92	133.41
539.09	163.84
539.26	149.79
539.43	128.73
539.60	67.88
539.77	84.26
539.94	102.98
540.11	128.73
540.28	91.28
540.44	51.49
540.61	86.60
540.78	126.39
540.95	131.07
541.12	102.98
541.29	81.92
541.46	121.71
541.62	88.94
541.79	117.03
541.96	88.94
542.13	88.94
542.30	98.30
542.47	23.41
542.63	23.41
542.80	88.94
542.97	67.88
543.14	102.98
543.31	138.09
543.48	42.13
543.64	91.28
543.81	79.58
543.98	74.90
544.15	128.73
544.32	60.85
544.48	79.58
544.65	49.15
544.82	88.94
544.99	79.58
545.16	77.24
545.32	105.32
545.49	95.96
545.66	107.66
545.83	63.19
546.00	79.58
546.16	65.54
546.33	39.79
546.50	72.56
546.67	112.35
546.83	152.13
547.00	56.17
547.17	117.03
547.34	35.11
547.50	35.11
547.67	74.90
547.84	70.22
548.00	79.58
548.17	105.32
548.34	95.96
548.51	7.02
548.67	100.64
548.84	138.09
549.01	53.83
549.18	91.28
549.34	114.69
549.51	74.90
549.68	107.66
549.84	121.71
550.01	110.01
550.18	100.64
550.34	93.62
550.51	93.62
550.68	53.83
550.84	135.75
551.01	65.54
551.18	159.16
551.34	114.69
551.51	86.60
551.68	88.94
551.84	32.77
552.01	46.81
552.18	32.77
552.34	25.75
552.51	95.96
552.68	81.92
552.84	102.98
553.01	88.94
553.18	60.85
553.34	77.24
553.51	70.22
553.67	121.71
553.84	93.62
554.01	140.43
554.17	74.90
554.34	46.81
554.51	88.94
554.67	105.32
554.84	63.19
555.00	102.98
555.17	63.19
555.33	100.64
555.50	119.37
555.67	98.30
555.83	93.62
556.00	105.32
556.16	56.17
556.33	79.58
556.50	117.03
556.66	95.96
556.83	95.96
556.99	110.01
557.16	81.92
557.32	51.49
557.49	77.24
557.65	32.77
557.82	39.79
557.98	49.15
558.15	72.56
558.32	37.45
558.48	126.39
558.65	70.22
558.81	105.32
558.98	44.47
559.14	72.56
559.31	86.60
559.47	91.28
559.64	102.98
559.80	70.22
559.97	133.41
560.13	86.60
560.30	86.60
560.46	112.35
560.63	42.13
560.79	11.70
560.96	63.19
561.12	65.54
561.29	23.41
561.45	100.64
561.61	140.43
561.78	112.35
561.94	119.37
562.11	37.45
562.27	102.98
562.44	91.28
562.60	84.26
562.77	56.17
562.93	39.79
563.10	112.35
563.26	140.43
563.42	79.58
563.59	23.41
563.75	42.13
563.92	138.09
564.08	138.09
564.24	95.96
564.41	117.03
564.57	121.71
564.74	11.70
564.90	65.54
565.07	152.13
565.23	42.13
565.39	84.26
565.56	53.83
565.72	142.77
565.88	114.69
566.05	2.34
566.21	42.13
566.38	84.26
566.54	0.00
566.70	152.13
566.87	112.35
567.03	77.24
567.19	74.90
567.36	86.60
567.52	46.81
567.68	49.15
567.85	49.15
568.01	84.26
568.17	30.43
568.34	30.43
568.50	56.17
568.66	53.83
568.83	107.66
568.99	0.00
569.15	21.06
569.32	138.09
569.48	63.19
569.64	58.51
569.81	67.88
569.97	149.79
570.13	121.71
570.30	117.03
570.46	81.92
570.62	72.56
570.78	86.60
570.95	35.11
571.11	51.49
571.27	147.45
571.43	79.58
571.60	0.00
571.76	117.03
571.92	91.28
572.09	25.75
572.25	53.83
572.41	112.35
572.57	93.62
572.74	51.49
572.90	142.77
573.06	117.03
573.22	44.47
573.38	95.96
573.55	49.15
573.71	39.79
573.87	100.64
574.03	147.45
574.20	142.77
574.36	88.94
574.52	95.96
574.68	77.24
574.84	46.81
575.01	18.72
575.17	117.03
575.33	107.66
575.49	67.88
575.65	138.09
575.82	112.35
575.98	67.88
576.14	63.19
576.30	35.11
576.46	11.70
576.62	93.62
576.79	107.66
576.95	46.81
577.11	72.56
577.27	110.01
577.43	74.90
577.59	98.30
577.75	77.24
577.92	119.37
578.08	70.22
578.24	42.13
578.40	102.98
578.56	16.38
578.72	56.17
578.88	86.60
579.04	39.79
579.21	67.88
579.37	65.54
579.53	79.58
579.69	42.13
579.85	32.77
580.01	16.38
580.17	77.24
580.33	42.13
580.49	128.73
580.65	110.01
580.82	135.75
580.98	67.88
581.14	74.90
581.30	79.58
581.46	53.83
581.62	79.58
581.78	49.15
581.94	35.11
582.10	142.77
582.26	65.54
582.42	86.60
582.58	112.35
582.74	135.75
582.90	39.79
583.06	114.69
583.22	95.96
583.38	84.26
583.54	142.77
583.70	112.35
583.86	110.01
584.02	42.13
584.18	100.64
584.34	42.13
584.50	84.26
584.66	39.79
584.82	30.43
584.98	16.38
585.14	28.09
585.30	42.13
585.46	49.15
585.62	0.00
585.78	77.24
585.94	124.05
586.10	102.98
586.26	81.92
586.42	81.92
586.58	4.68
586.74	44.47
586.90	4.68
587.06	95.96
587.22	32.77
587.38	114.69
587.54	102.98
587.70	81.92
587.86	60.85
588.02	14.04
588.18	77.24
588.34	39.79
588.49	9.36
588.65	74.90
588.81	72.56
588.97	49.15
589.13	74.90
589.29	88.94
589.45	14.04
589.61	86.60
589.77	110.01
589.93	100.64
590.08	58.51
590.24	142.77
590.40	14.04
590.56	23.41
590.72	58.51
590.88	60.85
591.04	117.03
591.20	98.30
591.35	93.62
591.51	88.94
591.67	84.26
591.83	84.26
591.99	88.94
592.15	51.49
592.31	88.94
592.46	67.88
592.62	30.43
592.78	51.49
592.94	60.85
593.10	30.43
593.26	56.17
593.41	21.06
593.57	21.06
593.73	42.13
593.89	9.36
594.05	56.17
594.20	11.70
594.36	58.51
594.52	84.26
594.68	30.43
594.84	65.54
594.99	58.51
595.15	98.30
595.31	0.00
595.47	81.92
595.62	74.90
595.78	30.43
595.94	37.45
596.10	88.94
596.25	46.81
596.41	93.62
596.57	63.19
596.73	67.88
596.88	65.54
597.04	7.02
597.20	49.15
597.36	44.47
597.51	56.17
597.67	77.24
597.83	16.38
597.99	65.54
598.14	79.58
598.30	77.24
598.46	51.49
598.61	58.51
598.77	44.47
598.93	79.58
599.09	63.19
599.24	2.34
599.40	114.69
599.56	58.51
599.71	77.24
599.87	18.72
600.03	65.54
600.18	35.11
600.34	100.64
600.50	79.58
600.65	0.00
600.81	65.54
600.97	0.00
601.12	14.04
601.28	28.09
601.44	44.47
601.59	74.90
601.75	126.39
601.91	42.13
602.06	53.83
602.22	133.41
602.37	35.11
602.53	56.17
602.69	67.88
602.84	79.58
603.00	63.19
603.16	65.54
603.31	86.60
603.47	60.85
603.62	77.24
603.78	81.92
603.94	25.75
604.09	39.79
604.25	51.49
604.40	95.96
604.56	98.30
604.71	51.49
604.87	84.26
605.03	37.45
605.18	51.49
605.34	35.11
605.49	100.64
605.65	16.38
605.80	93.62
605.96	42.13
606.12	84.26
606.27	149.79
606.43	0.00
606.58	65.54
606.74	114.69
606.89	65.54
607.05	74.90
607.20	105.32
607.36	95.96
607.51	0.00
607.67	16.38
607.82	56.17
607.98	30.43
608.13	147.45
608.29	117.03
608.44	46.81
608.60	30.43
608.75	30.43
608.91	49.15
609.06	84.26
609.22	16.38
609.37	23.41
609.53	42.13
609.68	51.49
609.84	42.13
609.99	91.28
610.15	126.39
610.30	107.66
610.46	95.96
610.61	81.92
610.76	60.85
610.92	81.92
611.07	100.64
611.23	88.94
611.38	79.58
611.54	0.00
611.69	72.56
611.84	81.92
612.00	124.05
612.15	63.19
612.31	11.70
612.46	102.98
612.62	51.49
612.77	86.60
612.92	58.51
613.08	105.32
613.23	65.54
613.39	28.09
613.54	30.43
613.69	42.13
613.85	56.17
614.00	39.79
614.15	49.15
614.31	74.90
614.46	81.92
614.62	51.49
614.77	37.45
614.92	25.75
615.08	84.26
615.23	65.54
615.38	39.79
615.54	42.13
615.69	72.56
615.84	28.09
616.00	21.06
616.15	117.03
616.30	39.79
616.46	77.24
616.61	65.54
616.76	58.51
616.92	119.37
617.07	37.45
617.22	119.37
617.37	86.60
617.53	67.88
617.68	65.54
617.83	0.00
617.99	0.00
618.14	79.58
618.29	74.90
618.45	65.54
618.60	77.24
618.75	77.24
618.90	114.69
619.06	67.88
619.21	128.73
619.36	49.15
619.51	39.79
619.67	21.06
619.82	58.51
619.97	72.56
620.12	53.83
620.28	44.47
620.43	126.39
620.58	124.05
620.73	74.90
620.89	70.22
621.04	86.60
621.19	110.01
621.34	0.00
621.49	46.81
621.65	46.81
621.80	0.00
621.95	60.85
622.10	0.00
622.25	46.81
622.41	77.24
622.56	67.88
622.71	100.64
622.86	84.26
623.01	39.79
623.16	14.04
623.32	0.00
623.47	119.37
623.62	110.01
623.77	30.43
623.92	23.41
624.07	32.77
624.23	35.11
624.38	49.15
624.53	49.15
624.68	98.30
624.83	35.11
624.98	60.85
625.13	67.88
625.29	72.56
625.44	77.24
625.59	63.19
625.74	70.22
625.89	30.43
626.04	49.15
626.19	77.24
626.34	32.77
626.49	91.28
626.65	95.96
626.80	91.28
626.95	79.58
627.10	60.85
627.25	9.36
627.40	79.58
627.55	46.81
627.70	65.54
627.85	16.38
628.00	119.37
628.15	102.98
628.30	28.09
628.45	63.19
628.60	0.00
628.76	79.58
628.91	51.49
629.06	21.06
629.21	156.82
629.36	44.47
629.51	98.30
629.66	105.32
629.81	49.15
629.96	81.92
630.11	119.37
630.26	138.09
630.41	0.00
630.56	67.88
630.71	32.77
630.86	121.71
631.01	88.94
631.16	81.92
631.31	0.00
631.46	67.88
631.61	102.98
631.76	91.28
631.91	72.56
632.06	49.15
632.21	131.07
632.36	37.45
632.51	28.09
632.66	60.85
632.81	79.58
632.96	95.96
633.10	74.90
633.25	98.30
633.40	135.75
633.55	0.00
633.70	100.64
633.85	42.13
634.00	74.90
634.15	93.62
634.30	88.94
634.45	65.54
634.60	0.00
634.75	16.38
634.90	88.94
635.05	7.02
635.19	84.26
635.34	91.28
635.49	107.66
635.64	107.66
635.79	23.41
635.94	32.77
636.09	60.85
636.24	72.56
636.39	56.17
636.53	67.88
636.68	81.92
636.83	39.79
636.98	28.09
637.13	28.09
637.28	18.72
637.43	53.83
637.57	44.47
637.72	60.85
637.87	37.45
638.02	121.71
638.17	60.85
638.32	53.83
638.46	0.00
638.61	91.28
638.76	117.03
638.91	23.41
639.06	98.30
639.20	21.06
639.35	44.47
639.50	93.62
639.65	77.24
639.80	42.13
639.94	67.88
640.09	91.28
640.24	23.41
640.39	44.47
640.54	93.62
640.68	102.98
640.83	25.75
640.98	46.81
641.13	112.35
641.27	46.81
641.42	28.09
641.57	37.45
641.72	44.47
641.86	81.92
642.01	67.88
642.16	35.11
642.31	16.38
642.45	9.36
642.60	95.96
642.75	72.56
642.90	11.70
643.04	67.88
643.19	56.17
643.34	91.28
643.48	86.60
643.63	49.15
643.78	0.00
643.93	23.41
644.07	0.00
644.22	79.58
644.37	65.54
644.51	77.24
644.66	44.47
644.81	16.38
644.95	42.13
645.10	32.77
645.25	32.77
645.39	74.90
645.54	23.41
645.69	56.17
645.83	39.79
645.98	65.54
646.13	32.77
646.27	25.75
646.42	67.88
646.57	72.56
646.71	21.06
646.86	65.54
647.00	18.72
647.15	39.79
647.30	35.11
647.44	110.01
647.59	63.19
647.74	56.17
647.88	70.22
648.03	67.88
648.17	100.64
648.32	42.13
648.47	25.75
648.61	74.90
648.76	74.90
648.90	21.06
649.05	67.88
649.20	51.49
649.34	63.19
649.49	28.09
649.63	58.51
649.78	14.04
649.92	72.56
650.07	4.68
650.21	37.45
650.36	77.24
650.51	105.32
650.65	67.88
650.80	63.19
650.94	25.75
651.09	91.28
651.23	93.62
651.38	53.83
651.52	7.02
651.67	4.68
651.81	63.19
651.96	18.72
652.10	18.72
652.25	25.75
652.39	53.83
652.54	46.81
652.68	9.36
652.83	0.00
652.97	128.73
653.12	98.30
653.26	18.72
653.41	21.06
653.55	74.90
653.70	30.43
653.84	7.02
653.99	51.49
654.13	51.49
654.27	35.11
654.42	105.32
654.56	93.62
654.71	58.51
654.85	60.85
655.00	107.66
655.14	84.26
655.29	98.30
655.43	0.00
655.57	84.26
655.72	28.09
655.86	0.00
656.01	93.62
656.15	58.51
656.30	39.79
656.44	91.28
656.58	18.72
656.73	65.54
656.87	46.81
657.01	60.85
657.16	18.72
657.30	25.75
657.45	35.11
657.59	74.90
657.73	53.83
657.88	14.04
658.02	81.92
658.16	65.54
658.31	112.35
658.45	53.83
658.60	60.85
658.74	42.13
658.88	112.35
659.03	77.24
659.17	63.19
659.31	53.83
659.46	23.41
659.60	32.77
659.74	0.00
659.89	100.64
660.03	37.45
660.17	32.77
660.32	16.38
660.46	23.41
660.60	46.81
660.74	28.09
660.89	28.09
661.03	28.09
661.17	46.81
661.32	107.66
661.46	30.43
661.60	95.96
661.74	28.09
661.89	65.54
662.03	100.64
662.17	7.02
662.31	100.64
662.46	23.41
662.60	100.64
662.74	77.24
662.88	11.70
663.03	0.00
663.17	93.62
663.31	0.00
663.45	42.13
663.60	100.64
663.74	37.45
663.88	7.02
664.02	28.09
664.17	46.81
664.31	11.70
664.45	56.17
664.59	0.00
664.73	60.85
664.88	30.43
665.02	100.64
665.16	49.15
665.30	0.00
665.44	79.58
665.59	56.17
665.73	14.04
665.87	0.00
666.01	28.09
666.15	0.00
666.29	46.81
666.44	0.00
666.58	14.04
666.72	21.06
666.86	112.35
667.00	32.77
667.14	2.34
667.28	4.68
667.43	124.05
667.57	91.28
667.71	88.94
667.85	49.15
667.99	32.77
668.13	49.15
668.27	72.56
668.41	58.51
668.56	18.72
668.70	124.05
668.84	65.54
668.98	0.00
669.12	28.09
669.26	46.81
669.40	51.49
669.54	28.09
669.68	51.49
669.82	77.24
669.96	30.43
670.10	88.94
670.25	46.81
670.39	56.17
670.53	53.83
670.67	21.06
670.81	0.00
670.95	65.54
671.09	53.83
671.23	65.54
671.37	70.22
671.51	84.26
671.65	53.83
671.79	56.17
671.93	0.00
672.07	16.38
672.21	28.09
672.35	32.77
672.49	56.17
672.63	65.54
672.77	39.79
672.91	67.88
673.05	60.85
673.19	0.00
673.33	53.83
673.47	93.62
673.61	60.85
673.75	58.51
673.89	72.56
674.03	0.00
674.17	0.00
674.31	58.51
674.45	21.06
674.59	49.15
674.73	60.85
674.87	21.06
675.01	16.38
675.15	39.79
675.29	86.60
675.43	32.77
675.56	21.06
675.70	49.15
675.84	16.38
675.98	4.68
676.12	18.72
676.26	98.30
676.40	56.17
676.54	23.41
676.68	37.45
676.82	21.06
676.96	46.81
677.10	112.35
677.23	86.60
677.37	0.00
677.51	11.70
677.65	70.22
677.79	121.71
677.93	63.19
678.07	60.85
678.21	58.51
678.34	70.22
678.48	35.11
678.62	79.58
678.76	74.90
678.90	9.36
679.04	56.17
679.18	21.06
679.31	0.00
679.45	67.88
679.59	51.49
679.73	93.62
679.87	84.26
680.00	79.58
680.14	77.24
680.28	39.79
680.42	51.49
680.56	121.71
680.70	51.49
680.83	23.41
680.97	28.09
681.11	2.34
681.25	42.13
681.39	32.77
681.52	72.56
681.66	119.37
681.80	81.92
681.94	93.62
682.07	23.41
682.21	46.81
682.35	30.43
682.49	56.17
682.62	58.51
682.76	56.17
682.90	37.45
683.04	0.00
683.17	21.06
683.31	67.88
683.45	30.43
683.59	46.81
683.72	16.38
683.86	0.00
684.00	42.13
684.13	67.88
684.27	0.00
684.41	67.88
684.55	39.79
684.68	44.47
684.82	133.41
684.96	51.49
685.09	67.88
685.23	25.75
685.37	53.83
685.50	28.09
685.64	16.38
685.78	21.06
685.91	21.06
686.05	67.88
686.19	16.38
686.32	0.00
686.46	84.26
686.60	0.00
686.73	110.01
686.87	0.00
687.01	0.00
687.14	74.90
687.28	30.43
687.42	0.00
687.55	53.83
687.69	77.24
687.82	42.13
687.96	0.00
688.10	77.24
688.23	100.64
688.37	46.81
688.50	58.51
688.64	30.43
688.78	51.49
688.91	81.92
689.05	56.17
689.18	63.19
689.32	51.49
689.46	58.51
689.59	51.49
689.73	14.04
689.86	60.85
690.00	18.72
690.13	0.00
690.27	44.47
690.41	21.06
690.54	0.00
690.68	105.32
690.81	49.15
690.95	93.62
691.08	25.75
691.22	0.00
691.35	98.30
691.49	21.06
691.62	81.92
691.76	0.00
691.89	70.22
692.03	11.70
692.16	56.17
692.30	11.70
692.43	14.04
692.57	124.05
692.70	9.36
692.84	49.15
692.97	70.22
693.11	58.51
693.24	23.41
693.38	11.70
693.51	49.15
693.65	18.72
693.78	30.43
693.92	0.00
694.05	0.00
694.19	7.02
694.32	77.24
694.45	65.54
694.59	84.26
694.72	23.41
694.86	0.00
694.99	58.51
695.13	105.32
695.26	0.00
695.39	32.77
695.53	37.45
695.66	4.68
695.80	30.43
695.93	74.90
696.07	35.11
696.20	60.85
696.33	37.45
696.47	16.38
696.60	32.77
696.73	23.41
696.87	72.56
697.00	16.38
697.14	0.00
697.27	72.56
697.40	42.13
697.54	77.24
697.67	0.00
697.80	65.54
697.94	51.49
698.07	16.38
698.21	11.70
698.34	25.75
698.47	32.77
698.61	0.00
698.74	81.92
698.87	46.81
699.01	44.47
699.14	44.47
699.27	21.06
699.40	88.94
699.54	93.62
699.67	35.11
699.80	65.54
699.94	65.54
700.07	51.49
700.20	7.02
700.34	7.02
700.47	0.00
700.60	0.00
700.73	23.41
700.87	35.11
701.00	46.81
701.13	56.17
701.26	7.02
701.40	16.38
701.53	0.00
701.66	9.36
701.79	60.85
701.93	9.36
702.06	58.51
702.19	2.34
702.32	44.47
702.46	18.72
702.59	21.06
702.72	14.04
702.85	0.00
702.99	0.00
703.12	46.81
703.25	0.00
703.38	0.00
703.51	60.85
703.65	100.64
703.78	72.56
703.91	51.49
704.04	46.81
704.17	84.26
704.31	37.45
704.44	56.17
704.57	21.06
704.70	0.00
704.83	32.77
704.96	35.11
705.10	56.17
705.23	72.56
>>>>>End Processed Spectral Data<<<<<
