SpectraSuite Data File
++++++++++++++++++++++++++++++++++++
Date: Fri Oct 04 12:13:41 GMT-05:00 2013
User: price-jones
Dark Spectrum Present: No
Reference Spectrum Present: No
Number of Sampled Component Spectra: 1
Spectrometers: USB2+H05261
Integration Time (usec): 10000 (USB2+H05261)
Spectra Averaged: 1 (USB2+H05261)
Boxcar Smoothing: 0 (USB2+H05261)
Correct for Electrical Dark: No (USB2+H05261)
Strobe/Lamp Enabled: No (USB2+H05261)
Correct for Detector Non-linearity: No (USB2+H05261)
Correct for Stray Light: No (USB2+H05261)
Number of Pixels in Processed Spectrum: 2048
>>>>>Begin Processed Spectral Data<<<<<
365.73	0.00
365.92	0.00
366.12	0.00
366.32	0.00
366.52	0.00
366.72	0.00
366.91	0.00
367.11	0.00
367.31	0.00
367.51	0.00
367.70	0.00
367.90	0.00
368.10	0.00
368.30	0.00
368.49	0.00
368.69	0.00
368.89	0.00
369.09	0.00
369.28	0.00
369.48	0.00
369.68	0.00
369.87	0.00
370.07	0.00
370.27	0.00
370.47	0.00
370.66	0.00
370.86	0.00
371.06	0.00
371.25	23.41
371.45	0.00
371.65	0.00
371.84	0.00
372.04	32.77
372.24	28.09
372.44	0.00
372.63	0.00
372.83	0.00
373.03	44.47
373.22	0.00
373.42	0.00
373.62	0.00
373.81	18.72
374.01	67.88
374.21	7.02
374.40	9.36
374.60	23.41
374.79	28.09
374.99	0.00
375.19	2.34
375.38	46.81
375.58	39.79
375.78	77.24
375.97	46.81
376.17	0.00
376.37	102.98
376.56	0.00
376.76	60.85
376.95	110.01
377.15	0.00
377.35	145.11
377.54	49.15
377.74	49.15
377.93	0.00
378.13	49.15
378.33	70.22
378.52	23.41
378.72	72.56
378.91	72.56
379.11	39.79
379.31	0.00
379.50	0.00
379.70	9.36
379.89	105.32
380.09	37.45
380.28	0.00
380.48	0.00
380.68	14.04
380.87	42.13
381.07	0.00
381.26	0.00
381.46	23.41
381.65	53.83
381.85	0.00
382.04	0.00
382.24	0.00
382.43	51.49
382.63	0.00
382.83	0.00
383.02	0.00
383.22	39.79
383.41	21.06
383.61	0.00
383.80	70.22
384.00	0.00
384.19	23.41
384.39	65.54
384.58	39.79
384.78	0.00
384.97	0.00
385.17	11.70
385.36	14.04
385.56	51.49
385.75	37.45
385.95	0.00
386.14	28.09
386.34	0.00
386.53	74.90
386.72	65.54
386.92	49.15
387.11	74.90
387.31	81.92
387.50	0.00
387.70	58.51
387.89	0.00
388.09	0.00
388.28	72.56
388.48	46.81
388.67	37.45
388.86	25.75
389.06	0.00
389.25	51.49
389.45	4.68
389.64	0.00
389.84	63.19
390.03	4.68
390.22	0.00
390.42	0.00
390.61	65.54
390.81	67.88
391.00	0.00
391.19	0.00
391.39	0.00
391.58	23.41
391.78	60.85
391.97	39.79
392.16	74.90
392.36	21.06
392.55	0.00
392.75	35.11
392.94	72.56
393.13	67.88
393.33	0.00
393.52	9.36
393.71	65.54
393.91	0.00
394.10	0.00
394.29	0.00
394.49	0.00
394.68	30.43
394.88	4.68
395.07	86.60
395.26	21.06
395.46	42.13
395.65	18.72
395.84	56.17
396.04	14.04
396.23	0.00
396.42	39.79
396.62	74.90
396.81	72.56
397.00	9.36
397.19	11.70
397.39	37.45
397.58	0.00
397.77	53.83
397.97	84.26
398.16	51.49
398.35	35.11
398.55	30.43
398.74	37.45
398.93	51.49
399.12	16.38
399.32	0.00
399.51	72.56
399.70	77.24
399.90	35.11
400.09	9.36
400.28	2.34
400.47	7.02
400.67	72.56
400.86	44.47
401.05	53.83
401.24	0.00
401.44	49.15
401.63	93.62
401.82	37.45
402.01	60.85
402.21	60.85
402.40	46.81
402.59	21.06
402.78	93.62
402.97	42.13
403.17	0.00
403.36	0.00
403.55	105.32
403.74	0.00
403.93	0.00
404.13	133.41
404.32	23.41
404.51	0.00
404.70	72.56
404.89	0.00
405.09	0.00
405.28	0.00
405.47	18.72
405.66	23.41
405.85	21.06
406.05	21.06
406.24	35.11
406.43	9.36
406.62	23.41
406.81	49.15
407.00	42.13
407.20	25.75
407.39	56.17
407.58	18.72
407.77	56.17
407.96	0.00
408.15	39.79
408.34	110.01
408.54	37.45
408.73	77.24
408.92	0.00
409.11	32.77
409.30	0.00
409.49	0.00
409.68	58.51
409.87	11.70
410.07	77.24
410.26	121.71
410.45	74.90
410.64	18.72
410.83	25.75
411.02	23.41
411.21	25.75
411.40	28.09
411.59	37.45
411.78	25.75
411.98	18.72
412.17	42.13
412.36	0.00
412.55	65.54
412.74	44.47
412.93	0.00
413.12	56.17
413.31	0.00
413.50	63.19
413.69	7.02
413.88	0.00
414.07	16.38
414.26	74.90
414.45	9.36
414.64	30.43
414.83	0.00
415.02	0.00
415.22	0.00
415.41	0.00
415.60	100.64
415.79	39.79
415.98	11.70
416.17	30.43
416.36	42.13
416.55	25.75
416.74	0.00
416.93	0.00
417.12	86.60
417.31	0.00
417.50	14.04
417.69	63.19
417.88	91.28
418.07	65.54
418.26	60.85
418.45	4.68
418.64	39.79
418.83	58.51
419.02	21.06
419.21	60.85
419.39	95.96
419.58	7.02
419.77	4.68
419.96	77.24
420.15	93.62
420.34	58.51
420.53	0.00
420.72	58.51
420.91	28.09
421.10	42.13
421.29	39.79
421.48	7.02
421.67	100.64
421.86	93.62
422.05	60.85
422.24	39.79
422.43	23.41
422.61	7.02
422.80	0.00
422.99	126.39
423.18	0.00
423.37	30.43
423.56	28.09
423.75	74.90
423.94	0.00
424.13	49.15
424.32	42.13
424.50	44.47
424.69	39.79
424.88	30.43
425.07	0.00
425.26	21.06
425.45	56.17
425.64	9.36
425.83	30.43
426.01	21.06
426.20	79.58
426.39	77.24
426.58	0.00
426.77	14.04
426.96	65.54
427.15	28.09
427.33	11.70
427.52	0.00
427.71	84.26
427.90	39.79
428.09	42.13
428.28	28.09
428.46	77.24
428.65	0.00
428.84	21.06
429.03	11.70
429.22	88.94
429.40	25.75
429.59	53.83
429.78	44.47
429.97	81.92
430.16	65.54
430.34	16.38
430.53	72.56
430.72	70.22
430.91	79.58
431.10	23.41
431.28	16.38
431.47	65.54
431.66	32.77
431.85	35.11
432.03	0.00
432.22	42.13
432.41	93.62
432.60	11.70
432.79	93.62
432.97	0.00
433.16	51.49
433.35	39.79
433.54	105.32
433.72	30.43
433.91	56.17
434.10	74.90
434.28	60.85
434.47	51.49
434.66	81.92
434.85	46.81
435.03	44.47
435.22	28.09
435.41	88.94
435.59	0.00
435.78	46.81
435.97	77.24
436.16	140.43
436.34	93.62
436.53	74.90
436.72	56.17
436.90	53.83
437.09	0.00
437.28	16.38
437.46	46.81
437.65	46.81
437.84	105.32
438.02	72.56
438.21	21.06
438.40	0.00
438.58	35.11
438.77	7.02
438.96	60.85
439.14	49.15
439.33	18.72
439.52	88.94
439.70	2.34
439.89	21.06
440.08	0.00
440.26	30.43
440.45	49.15
440.63	35.11
440.82	81.92
441.01	60.85
441.19	14.04
441.38	0.00
441.57	42.13
441.75	0.00
441.94	46.81
442.12	28.09
442.31	49.15
442.50	56.17
442.68	32.77
442.87	28.09
443.05	11.70
443.24	58.51
443.43	21.06
443.61	86.60
443.80	98.30
443.98	79.58
444.17	0.00
444.35	11.70
444.54	126.39
444.73	39.79
444.91	77.24
445.10	121.71
445.28	86.60
445.47	18.72
445.65	30.43
445.84	11.70
446.02	77.24
446.21	110.01
446.39	39.79
446.58	16.38
446.77	44.47
446.95	60.85
447.14	74.90
447.32	18.72
447.51	86.60
447.69	98.30
447.88	102.98
448.06	67.88
448.25	35.11
448.43	81.92
448.62	39.79
448.80	56.17
448.99	86.60
449.17	16.38
449.36	44.47
449.54	86.60
449.73	9.36
449.91	93.62
450.10	74.90
450.28	49.15
450.46	0.00
450.65	70.22
450.83	58.51
451.02	28.09
451.20	30.43
451.39	72.56
451.57	46.81
451.76	56.17
451.94	4.68
452.13	18.72
452.31	91.28
452.49	51.49
452.68	67.88
452.86	37.45
453.05	72.56
453.23	44.47
453.42	65.54
453.60	58.51
453.78	42.13
453.97	63.19
454.15	46.81
454.34	0.00
454.52	46.81
454.70	49.15
454.89	49.15
455.07	114.69
455.26	74.90
455.44	46.81
455.62	51.49
455.81	142.77
455.99	4.68
456.17	72.56
456.36	60.85
456.54	32.77
456.73	67.88
456.91	0.00
457.09	0.00
457.28	32.77
457.46	70.22
457.64	11.70
457.83	79.58
458.01	0.00
458.19	98.30
458.38	72.56
458.56	74.90
458.74	53.83
458.93	30.43
459.11	79.58
459.29	58.51
459.48	46.81
459.66	74.90
459.84	0.00
460.03	58.51
460.21	163.84
460.39	28.09
460.57	63.19
460.76	79.58
460.94	72.56
461.12	14.04
461.31	18.72
461.49	72.56
461.67	25.75
461.85	84.26
462.04	65.54
462.22	23.41
462.40	95.96
462.59	32.77
462.77	35.11
462.95	9.36
463.13	46.81
463.32	30.43
463.50	37.45
463.68	35.11
463.86	28.09
464.05	81.92
464.23	7.02
464.41	102.98
464.59	37.45
464.78	37.45
464.96	25.75
465.14	42.13
465.32	67.88
465.50	58.51
465.69	53.83
465.87	0.00
466.05	72.56
466.23	81.92
466.41	65.54
466.60	79.58
466.78	51.49
466.96	56.17
467.14	32.77
467.32	142.77
467.51	0.00
467.69	126.39
467.87	39.79
468.05	81.92
468.23	93.62
468.41	65.54
468.60	88.94
468.78	100.64
468.96	65.54
469.14	93.62
469.32	63.19
469.50	60.85
469.69	42.13
469.87	28.09
470.05	67.88
470.23	32.77
470.41	74.90
470.59	98.30
470.77	65.54
470.95	124.05
471.14	11.70
471.32	81.92
471.50	25.75
471.68	117.03
471.86	58.51
472.04	105.32
472.22	91.28
472.40	0.00
472.58	0.00
472.77	56.17
472.95	107.66
473.13	67.88
473.31	102.98
473.49	58.51
473.67	105.32
473.85	53.83
474.03	35.11
474.21	81.92
474.39	63.19
474.57	21.06
474.75	58.51
474.93	0.00
475.12	56.17
475.30	65.54
475.48	58.51
475.66	63.19
475.84	93.62
476.02	84.26
476.20	72.56
476.38	128.73
476.56	86.60
476.74	70.22
476.92	65.54
477.10	100.64
477.28	49.15
477.46	65.54
477.64	32.77
477.82	91.28
478.00	56.17
478.18	53.83
478.36	11.70
478.54	37.45
478.72	16.38
478.90	46.81
479.08	37.45
479.26	63.19
479.44	124.05
479.62	51.49
479.80	95.96
479.98	86.60
480.16	91.28
480.34	63.19
480.52	53.83
480.70	23.41
480.88	60.85
481.06	98.30
481.24	70.22
481.41	81.92
481.59	121.71
481.77	30.43
481.95	49.15
482.13	102.98
482.31	107.66
482.49	72.56
482.67	37.45
482.85	56.17
483.03	93.62
483.21	0.00
483.39	67.88
483.57	46.81
483.74	14.04
483.92	65.54
484.10	53.83
484.28	42.13
484.46	100.64
484.64	39.79
484.82	142.77
485.00	70.22
485.18	35.11
485.35	191.92
485.53	56.17
485.71	39.79
485.89	9.36
486.07	25.75
486.25	60.85
486.43	91.28
486.61	21.06
486.78	63.19
486.96	81.92
487.14	0.00
487.32	74.90
487.50	53.83
487.68	0.00
487.85	70.22
488.03	49.15
488.21	72.56
488.39	107.66
488.57	91.28
488.75	14.04
488.92	161.50
489.10	84.26
489.28	95.96
489.46	91.28
489.64	25.75
489.81	46.81
489.99	67.88
490.17	72.56
490.35	67.88
490.53	77.24
490.70	145.11
490.88	105.32
491.06	11.70
491.24	7.02
491.41	18.72
491.59	138.09
491.77	60.85
491.95	175.54
492.13	65.54
492.30	51.49
492.48	44.47
492.66	77.24
492.84	37.45
493.01	102.98
493.19	14.04
493.37	98.30
493.54	128.73
493.72	88.94
493.90	23.41
494.08	53.83
494.25	23.41
494.43	107.66
494.61	14.04
494.79	77.24
494.96	46.81
495.14	65.54
495.32	16.38
495.49	102.98
495.67	105.32
495.85	56.17
496.02	105.32
496.20	72.56
496.38	39.79
496.55	46.81
496.73	51.49
496.91	32.77
497.09	131.07
497.26	93.62
497.44	110.01
497.62	63.19
497.79	98.30
497.97	133.41
498.14	30.43
498.32	110.01
498.50	105.32
498.67	70.22
498.85	135.75
499.03	44.47
499.20	131.07
499.38	100.64
499.56	25.75
499.73	93.62
499.91	114.69
500.08	30.43
500.26	100.64
500.44	98.30
500.61	65.54
500.79	100.64
500.97	32.77
501.14	88.94
501.32	95.96
501.49	42.13
501.67	65.54
501.84	39.79
502.02	102.98
502.20	16.38
502.37	77.24
502.55	72.56
502.72	74.90
502.90	117.03
503.07	117.03
503.25	98.30
503.43	112.35
503.60	100.64
503.78	152.13
503.95	110.01
504.13	37.45
504.30	88.94
504.48	74.90
504.65	63.19
504.83	98.30
505.01	126.39
505.18	140.43
505.36	58.51
505.53	112.35
505.71	140.43
505.88	37.45
506.06	58.51
506.23	170.86
506.41	102.98
506.58	110.01
506.76	124.05
506.93	65.54
507.11	0.00
507.28	86.60
507.46	81.92
507.63	58.51
507.81	100.64
507.98	23.41
508.16	77.24
508.33	77.24
508.50	70.22
508.68	105.32
508.85	180.22
509.03	88.94
509.20	63.19
509.38	49.15
509.55	53.83
509.73	161.50
509.90	53.83
510.08	95.96
510.25	86.60
510.42	56.17
510.60	72.56
510.77	131.07
510.95	154.48
511.12	117.03
511.30	98.30
511.47	88.94
511.64	86.60
511.82	86.60
511.99	121.71
512.17	112.35
512.34	114.69
512.51	110.01
512.69	58.51
512.86	60.85
513.04	86.60
513.21	81.92
513.38	102.98
513.56	30.43
513.73	65.54
513.90	98.30
514.08	93.62
514.25	91.28
514.43	112.35
514.60	91.28
514.77	88.94
514.95	93.62
515.12	70.22
515.29	58.51
515.47	107.66
515.64	102.98
515.81	32.77
515.99	166.18
516.16	84.26
516.33	121.71
516.51	63.19
516.68	81.92
516.85	95.96
517.03	14.04
517.20	46.81
517.37	86.60
517.54	107.66
517.72	131.07
517.89	49.15
518.06	95.96
518.24	117.03
518.41	93.62
518.58	58.51
518.75	166.18
518.93	35.11
519.10	77.24
519.27	121.71
519.45	117.03
519.62	81.92
519.79	81.92
519.96	86.60
520.14	105.32
520.31	117.03
520.48	124.05
520.65	77.24
520.83	32.77
521.00	39.79
521.17	44.47
521.34	102.98
521.52	86.60
521.69	49.15
521.86	63.19
522.03	102.98
522.20	100.64
522.38	86.60
522.55	100.64
522.72	173.20
522.89	35.11
523.07	81.92
523.24	72.56
523.41	98.30
523.58	44.47
523.75	100.64
523.92	30.43
524.10	124.05
524.27	44.47
524.44	135.75
524.61	100.64
524.78	88.94
524.96	133.41
525.13	30.43
525.30	100.64
525.47	105.32
525.64	39.79
525.81	88.94
525.98	112.35
526.16	119.37
526.33	142.77
526.50	81.92
526.67	65.54
526.84	49.15
527.01	128.73
527.18	98.30
527.36	53.83
527.53	44.47
527.70	135.75
527.87	42.13
528.04	46.81
528.21	142.77
528.38	163.84
528.55	49.15
528.72	63.19
528.89	81.92
529.07	70.22
529.24	35.11
529.41	9.36
529.58	72.56
529.75	88.94
529.92	119.37
530.09	84.26
530.26	95.96
530.43	119.37
530.60	88.94
530.77	42.13
530.94	100.64
531.11	145.11
531.28	102.98
531.46	60.85
531.63	100.64
531.80	86.60
531.97	154.48
532.14	105.32
532.31	70.22
532.48	93.62
532.65	100.64
532.82	114.69
532.99	145.11
533.16	84.26
533.33	121.71
533.50	42.13
533.67	95.96
533.84	91.28
534.01	46.81
534.18	107.66
534.35	110.01
534.52	44.47
534.69	35.11
534.86	135.75
535.03	100.64
535.20	46.81
535.37	105.32
535.54	117.03
535.71	42.13
535.88	147.45
536.05	114.69
536.22	121.71
536.38	112.35
536.55	126.39
536.72	58.51
536.89	79.58
537.06	117.03
537.23	105.32
537.40	112.35
537.57	131.07
537.74	44.47
537.91	53.83
538.08	65.54
538.25	11.70
538.42	60.85
538.59	70.22
538.75	58.51
538.92	81.92
539.09	84.26
539.26	156.82
539.43	56.17
539.60	0.00
539.77	18.72
539.94	35.11
540.11	105.32
540.28	175.54
540.44	74.90
540.61	81.92
540.78	53.83
540.95	110.01
541.12	67.88
541.29	81.92
541.46	81.92
541.62	88.94
541.79	32.77
541.96	79.58
542.13	100.64
542.30	46.81
542.47	53.83
542.63	98.30
542.80	65.54
542.97	131.07
543.14	170.86
543.31	124.05
543.48	14.04
543.64	42.13
543.81	117.03
543.98	107.66
544.15	67.88
544.32	74.90
544.48	70.22
544.65	114.69
544.82	46.81
544.99	77.24
545.16	65.54
545.32	93.62
545.49	102.98
545.66	100.64
545.83	91.28
546.00	72.56
546.16	72.56
546.33	110.01
546.50	37.45
546.67	14.04
546.83	81.92
547.00	95.96
547.17	119.37
547.34	112.35
547.50	56.17
547.67	70.22
547.84	11.70
548.00	107.66
548.17	110.01
548.34	182.56
548.51	51.49
548.67	93.62
548.84	74.90
549.01	65.54
549.18	91.28
549.34	98.30
549.51	168.52
549.68	74.90
549.84	65.54
550.01	60.85
550.18	84.26
550.34	53.83
550.51	133.41
550.68	70.22
550.84	72.56
551.01	0.00
551.18	74.90
551.34	49.15
551.51	60.85
551.68	51.49
551.84	74.90
552.01	56.17
552.18	49.15
552.34	84.26
552.51	81.92
552.68	166.18
552.84	86.60
553.01	77.24
553.18	110.01
553.34	67.88
553.51	14.04
553.67	51.49
553.84	35.11
554.01	138.09
554.17	107.66
554.34	35.11
554.51	100.64
554.67	86.60
554.84	86.60
555.00	93.62
555.17	86.60
555.33	84.26
555.50	77.24
555.67	91.28
555.83	39.79
556.00	72.56
556.16	156.82
556.33	81.92
556.50	28.09
556.66	70.22
556.83	49.15
556.99	100.64
557.16	119.37
557.32	93.62
557.49	63.19
557.65	77.24
557.82	84.26
557.98	140.43
558.15	72.56
558.32	131.07
558.48	72.56
558.65	121.71
558.81	18.72
558.98	7.02
559.14	67.88
559.31	72.56
559.47	72.56
559.64	39.79
559.80	42.13
559.97	46.81
560.13	121.71
560.30	88.94
560.46	110.01
560.63	58.51
560.79	72.56
560.96	135.75
561.12	67.88
561.29	63.19
561.45	112.35
561.61	84.26
561.78	32.77
561.94	112.35
562.11	93.62
562.27	124.05
562.44	35.11
562.60	46.81
562.77	102.98
562.93	156.82
563.10	107.66
563.26	9.36
563.42	86.60
563.59	98.30
563.75	58.51
563.92	35.11
564.08	28.09
564.24	70.22
564.41	91.28
564.57	84.26
564.74	42.13
564.90	46.81
565.07	110.01
565.23	100.64
565.39	91.28
565.56	63.19
565.72	44.47
565.88	37.45
566.05	65.54
566.21	65.54
566.38	81.92
566.54	154.48
566.70	37.45
566.87	79.58
567.03	91.28
567.19	30.43
567.36	72.56
567.52	79.58
567.68	107.66
567.85	98.30
568.01	42.13
568.17	51.49
568.34	114.69
568.50	14.04
568.66	56.17
568.83	91.28
568.99	35.11
569.15	95.96
569.32	77.24
569.48	93.62
569.64	67.88
569.81	100.64
569.97	70.22
570.13	63.19
570.30	32.77
570.46	21.06
570.62	32.77
570.78	60.85
570.95	95.96
571.11	74.90
571.27	58.51
571.43	119.37
571.60	105.32
571.76	140.43
571.92	131.07
572.09	63.19
572.25	84.26
572.41	105.32
572.57	173.20
572.74	119.37
572.90	117.03
573.06	135.75
573.22	35.11
573.38	84.26
573.55	93.62
573.71	28.09
573.87	140.43
574.03	117.03
574.20	72.56
574.36	79.58
574.52	23.41
574.68	70.22
574.84	114.69
575.01	65.54
575.17	53.83
575.33	86.60
575.49	100.64
575.65	135.75
575.82	42.13
575.98	166.18
576.14	42.13
576.30	84.26
576.46	67.88
576.62	74.90
576.79	93.62
576.95	14.04
577.11	2.34
577.27	98.30
577.43	49.15
577.59	107.66
577.75	81.92
577.92	112.35
578.08	28.09
578.24	56.17
578.40	37.45
578.56	124.05
578.72	135.75
578.88	35.11
579.04	42.13
579.21	74.90
579.37	25.75
579.53	88.94
579.69	65.54
579.85	102.98
580.01	163.84
580.17	81.92
580.33	93.62
580.49	77.24
580.65	124.05
580.82	23.41
580.98	81.92
581.14	114.69
581.30	74.90
581.46	25.75
581.62	49.15
581.78	121.71
581.94	119.37
582.10	51.49
582.26	142.77
582.42	67.88
582.58	98.30
582.74	7.02
582.90	107.66
583.06	37.45
583.22	56.17
583.38	74.90
583.54	32.77
583.70	88.94
583.86	21.06
584.02	0.00
584.18	14.04
584.34	81.92
584.50	84.26
584.66	131.07
584.82	77.24
584.98	51.49
585.14	49.15
585.30	91.28
585.46	102.98
585.62	105.32
585.78	74.90
585.94	58.51
586.10	81.92
586.26	60.85
586.42	93.62
586.58	4.68
586.74	65.54
586.90	32.77
587.06	110.01
587.22	51.49
587.38	35.11
587.54	142.77
587.70	42.13
587.86	107.66
588.02	88.94
588.18	72.56
588.34	72.56
588.49	60.85
588.65	56.17
588.81	46.81
588.97	86.60
589.13	159.16
589.29	23.41
589.45	114.69
589.61	30.43
589.77	74.90
589.93	93.62
590.08	14.04
590.24	23.41
590.40	105.32
590.56	9.36
590.72	42.13
590.88	18.72
591.04	46.81
591.20	81.92
591.35	56.17
591.51	102.98
591.67	102.98
591.83	91.28
591.99	0.00
592.15	11.70
592.31	28.09
592.46	95.96
592.62	102.98
592.78	91.28
592.94	18.72
593.10	81.92
593.26	81.92
593.41	60.85
593.57	30.43
593.73	0.00
593.89	105.32
594.05	102.98
594.20	74.90
594.36	9.36
594.52	58.51
594.68	37.45
594.84	23.41
594.99	79.58
595.15	79.58
595.31	25.75
595.47	21.06
595.62	72.56
595.78	81.92
595.94	117.03
596.10	84.26
596.25	142.77
596.41	9.36
596.57	98.30
596.73	51.49
596.88	84.26
597.04	79.58
597.20	23.41
597.36	37.45
597.51	147.45
597.67	63.19
597.83	28.09
597.99	88.94
598.14	79.58
598.30	21.06
598.46	112.35
598.61	105.32
598.77	72.56
598.93	102.98
599.09	119.37
599.24	49.15
599.40	72.56
599.56	98.30
599.71	110.01
599.87	0.00
600.03	67.88
600.18	23.41
600.34	42.13
600.50	0.00
600.65	95.96
600.81	79.58
600.97	84.26
601.12	35.11
601.28	51.49
601.44	58.51
601.59	110.01
601.75	86.60
601.91	145.11
602.06	70.22
602.22	60.85
602.37	30.43
602.53	98.30
602.69	95.96
602.84	49.15
603.00	86.60
603.16	11.70
603.31	77.24
603.47	105.32
603.62	100.64
603.78	0.00
603.94	128.73
604.09	53.83
604.25	32.77
604.40	63.19
604.56	9.36
604.71	46.81
604.87	74.90
605.03	91.28
605.18	100.64
605.34	70.22
605.49	46.81
605.65	98.30
605.80	70.22
605.96	84.26
606.12	44.47
606.27	70.22
606.43	42.13
606.58	42.13
606.74	74.90
606.89	35.11
607.05	53.83
607.20	28.09
607.36	60.85
607.51	9.36
607.67	46.81
607.82	72.56
607.98	56.17
608.13	149.79
608.29	147.45
608.44	4.68
608.60	74.90
608.75	51.49
608.91	35.11
609.06	51.49
609.22	119.37
609.37	21.06
609.53	14.04
609.68	21.06
609.84	32.77
609.99	60.85
610.15	105.32
610.30	16.38
610.46	84.26
610.61	44.47
610.76	63.19
610.92	147.45
611.07	42.13
611.23	11.70
611.38	74.90
611.54	46.81
611.69	142.77
611.84	42.13
612.00	56.17
612.15	60.85
612.31	95.96
612.46	53.83
612.62	60.85
612.77	39.79
612.92	119.37
613.08	35.11
613.23	91.28
613.39	114.69
613.54	14.04
613.69	4.68
613.85	11.70
614.00	58.51
614.15	72.56
614.31	112.35
614.46	81.92
614.62	117.03
614.77	51.49
614.92	35.11
615.08	100.64
615.23	67.88
615.38	81.92
615.54	65.54
615.69	117.03
615.84	4.68
616.00	63.19
616.15	42.13
616.30	35.11
616.46	65.54
616.61	168.52
616.76	72.56
616.92	23.41
617.07	84.26
617.22	77.24
617.37	56.17
617.53	58.51
617.68	44.47
617.83	95.96
617.99	23.41
618.14	25.75
618.29	39.79
618.45	4.68
618.60	25.75
618.75	56.17
618.90	95.96
619.06	56.17
619.21	72.56
619.36	39.79
619.51	105.32
619.67	105.32
619.82	91.28
619.97	70.22
620.12	37.45
620.28	53.83
620.43	93.62
620.58	88.94
620.73	72.56
620.89	117.03
621.04	117.03
621.19	53.83
621.34	2.34
621.49	60.85
621.65	95.96
621.80	35.11
621.95	58.51
622.10	56.17
622.25	70.22
622.41	117.03
622.56	88.94
622.71	30.43
622.86	37.45
623.01	138.09
623.16	21.06
623.32	7.02
623.47	44.47
623.62	105.32
623.77	35.11
623.92	39.79
624.07	37.45
624.23	100.64
624.38	131.07
624.53	79.58
624.68	72.56
624.83	81.92
624.98	107.66
625.13	98.30
625.29	102.98
625.44	81.92
625.59	9.36
625.74	126.39
625.89	51.49
626.04	0.00
626.19	49.15
626.34	58.51
626.49	119.37
626.65	84.26
626.80	42.13
626.95	110.01
627.10	14.04
627.25	18.72
627.40	74.90
627.55	79.58
627.70	18.72
627.85	44.47
628.00	86.60
628.15	32.77
628.30	93.62
628.45	110.01
628.60	30.43
628.76	72.56
628.91	11.70
629.06	84.26
629.21	25.75
629.36	119.37
629.51	77.24
629.66	117.03
629.81	159.16
629.96	37.45
630.11	110.01
630.26	98.30
630.41	60.85
630.56	21.06
630.71	9.36
630.86	23.41
631.01	0.00
631.16	46.81
631.31	77.24
631.46	11.70
631.61	42.13
631.76	74.90
631.91	117.03
632.06	67.88
632.21	77.24
632.36	49.15
632.51	60.85
632.66	74.90
632.81	53.83
632.96	23.41
633.10	30.43
633.25	39.79
633.40	58.51
633.55	51.49
633.70	49.15
633.85	79.58
634.00	46.81
634.15	14.04
634.30	60.85
634.45	56.17
634.60	74.90
634.75	91.28
634.90	56.17
635.05	88.94
635.19	46.81
635.34	25.75
635.49	70.22
635.64	0.00
635.79	0.00
635.94	51.49
636.09	21.06
636.24	2.34
636.39	35.11
636.53	28.09
636.68	30.43
636.83	102.98
636.98	135.75
637.13	18.72
637.28	128.73
637.43	98.30
637.57	18.72
637.72	25.75
637.87	32.77
638.02	37.45
638.17	107.66
638.32	39.79
638.46	35.11
638.61	56.17
638.76	81.92
638.91	37.45
639.06	37.45
639.20	39.79
639.35	72.56
639.50	114.69
639.65	53.83
639.80	72.56
639.94	95.96
640.09	49.15
640.24	18.72
640.39	77.24
640.54	25.75
640.68	11.70
640.83	37.45
640.98	79.58
641.13	84.26
641.27	21.06
641.42	42.13
641.57	51.49
641.72	32.77
641.86	35.11
642.01	65.54
642.16	72.56
642.31	88.94
642.45	7.02
642.60	49.15
642.75	74.90
642.90	0.00
643.04	81.92
643.19	53.83
643.34	56.17
643.48	95.96
643.63	65.54
643.78	112.35
643.93	112.35
644.07	46.81
644.22	56.17
644.37	128.73
644.51	63.19
644.66	70.22
644.81	95.96
644.95	42.13
645.10	44.47
645.25	112.35
645.39	60.85
645.54	7.02
645.69	110.01
645.83	28.09
645.98	86.60
646.13	35.11
646.27	23.41
646.42	4.68
646.57	124.05
646.71	77.24
646.86	86.60
647.00	72.56
647.15	84.26
647.30	63.19
647.44	35.11
647.59	63.19
647.74	42.13
647.88	77.24
648.03	30.43
648.17	0.00
648.32	74.90
648.47	9.36
648.61	44.47
648.76	42.13
648.90	70.22
649.05	84.26
649.20	65.54
649.34	25.75
649.49	0.00
649.63	58.51
649.78	65.54
649.92	23.41
650.07	0.00
650.21	23.41
650.36	35.11
650.51	2.34
650.65	23.41
650.80	84.26
650.94	58.51
651.09	16.38
651.23	117.03
651.38	49.15
651.52	14.04
651.67	28.09
651.81	81.92
651.96	63.19
652.10	0.00
652.25	100.64
652.39	49.15
652.54	0.00
652.68	51.49
652.83	0.00
652.97	63.19
653.12	88.94
653.26	39.79
653.41	79.58
653.55	79.58
653.70	98.30
653.84	95.96
653.99	65.54
654.13	98.30
654.27	63.19
654.42	32.77
654.56	105.32
654.71	4.68
654.85	30.43
655.00	0.00
655.14	105.32
655.29	25.75
655.43	114.69
655.57	37.45
655.72	74.90
655.86	53.83
656.01	42.13
656.15	60.85
656.30	84.26
656.44	39.79
656.58	25.75
656.73	0.00
656.87	0.00
657.01	0.00
657.16	14.04
657.30	0.00
657.45	51.49
657.59	142.77
657.73	35.11
657.88	30.43
658.02	23.41
658.16	18.72
658.31	46.81
658.45	58.51
658.60	74.90
658.74	30.43
658.88	35.11
659.03	100.64
659.17	93.62
659.31	81.92
659.46	126.39
659.60	46.81
659.74	37.45
659.89	65.54
660.03	42.13
660.17	0.00
660.32	51.49
660.46	67.88
660.60	56.17
660.74	28.09
660.89	25.75
661.03	91.28
661.17	30.43
661.32	79.58
661.46	67.88
661.60	98.30
661.74	60.85
661.89	72.56
662.03	74.90
662.17	74.90
662.31	126.39
662.46	30.43
662.60	9.36
662.74	93.62
662.88	18.72
663.03	93.62
663.17	39.79
663.31	30.43
663.45	60.85
663.60	86.60
663.74	88.94
663.88	25.75
664.02	81.92
664.17	37.45
664.31	46.81
664.45	0.00
664.59	63.19
664.73	39.79
664.88	0.00
665.02	49.15
665.16	79.58
665.30	28.09
665.44	30.43
665.59	7.02
665.73	53.83
665.87	58.51
666.01	0.00
666.15	4.68
666.29	0.00
666.44	56.17
666.58	39.79
666.72	0.00
666.86	0.00
667.00	49.15
667.14	74.90
667.28	46.81
667.43	4.68
667.57	79.58
667.71	67.88
667.85	72.56
667.99	107.66
668.13	21.06
668.27	84.26
668.41	63.19
668.56	30.43
668.70	67.88
668.84	25.75
668.98	140.43
669.12	0.00
669.26	0.00
669.40	42.13
669.54	49.15
669.68	39.79
669.82	18.72
669.96	72.56
670.10	77.24
670.25	30.43
670.39	81.92
670.53	81.92
670.67	0.00
670.81	117.03
670.95	23.41
671.09	28.09
671.23	42.13
671.37	35.11
671.51	46.81
671.65	0.00
671.79	46.81
671.93	124.05
672.07	74.90
672.21	72.56
672.35	25.75
672.49	35.11
672.63	9.36
672.77	56.17
672.91	74.90
673.05	63.19
673.19	21.06
673.33	46.81
673.47	56.17
673.61	49.15
673.75	88.94
673.89	65.54
674.03	105.32
674.17	39.79
674.31	56.17
674.45	9.36
674.59	51.49
674.73	88.94
674.87	100.64
675.01	84.26
675.15	58.51
675.29	88.94
675.43	49.15
675.56	114.69
675.70	117.03
675.84	77.24
675.98	46.81
676.12	100.64
676.26	67.88
676.40	74.90
676.54	37.45
676.68	72.56
676.82	51.49
676.96	88.94
677.10	63.19
677.23	11.70
677.37	91.28
677.51	0.00
677.65	4.68
677.79	4.68
677.93	91.28
678.07	58.51
678.21	30.43
678.34	98.30
678.48	46.81
678.62	81.92
678.76	53.83
678.90	37.45
679.04	74.90
679.18	4.68
679.31	25.75
679.45	53.83
679.59	105.32
679.73	44.47
679.87	23.41
680.00	51.49
680.14	84.26
680.28	46.81
680.42	32.77
680.56	0.00
680.70	49.15
680.83	105.32
680.97	65.54
681.11	42.13
681.25	18.72
681.39	63.19
681.52	67.88
681.66	102.98
681.80	37.45
681.94	70.22
682.07	46.81
682.21	32.77
682.35	117.03
682.49	9.36
682.62	0.00
682.76	63.19
682.90	0.00
683.04	9.36
683.17	0.00
683.31	9.36
683.45	7.02
683.59	9.36
683.72	51.49
683.86	23.41
684.00	32.77
684.13	0.00
684.27	44.47
684.41	46.81
684.55	95.96
684.68	7.02
684.82	65.54
684.96	88.94
685.09	9.36
685.23	74.90
685.37	9.36
685.50	37.45
685.64	0.00
685.78	67.88
685.91	49.15
686.05	100.64
686.19	70.22
686.32	53.83
686.46	0.00
686.60	107.66
686.73	60.85
686.87	4.68
687.01	49.15
687.14	117.03
687.28	51.49
687.42	9.36
687.55	23.41
687.69	9.36
687.82	4.68
687.96	18.72
688.10	77.24
688.23	51.49
688.37	56.17
688.50	35.11
688.64	49.15
688.78	30.43
688.91	72.56
689.05	32.77
689.18	168.52
689.32	25.75
689.46	98.30
689.59	28.09
689.73	51.49
689.86	25.75
690.00	25.75
690.13	0.00
690.27	2.34
690.41	70.22
690.54	39.79
690.68	0.00
690.81	42.13
690.95	81.92
691.08	65.54
691.22	100.64
691.35	63.19
691.49	23.41
691.62	25.75
691.76	37.45
691.89	53.83
692.03	0.00
692.16	44.47
692.30	9.36
692.43	32.77
692.57	42.13
692.70	30.43
692.84	53.83
692.97	72.56
693.11	18.72
693.24	16.38
693.38	32.77
693.51	67.88
693.65	58.51
693.78	53.83
693.92	39.79
694.05	70.22
694.19	46.81
694.32	32.77
694.45	86.60
694.59	35.11
694.72	14.04
694.86	46.81
694.99	0.00
695.13	7.02
695.26	72.56
695.39	23.41
695.53	60.85
695.66	79.58
695.80	35.11
695.93	67.88
696.07	0.00
696.20	0.00
696.33	0.00
696.47	95.96
696.60	72.56
696.73	86.60
696.87	0.00
697.00	58.51
697.14	23.41
697.27	81.92
697.40	51.49
697.54	91.28
697.67	30.43
697.80	0.00
697.94	42.13
698.07	60.85
698.21	56.17
698.34	18.72
698.47	58.51
698.61	30.43
698.74	32.77
698.87	39.79
699.01	2.34
699.14	0.00
699.27	11.70
699.40	18.72
699.54	117.03
699.67	44.47
699.80	46.81
699.94	49.15
700.07	0.00
700.20	81.92
700.34	72.56
700.47	86.60
700.60	16.38
700.73	72.56
700.87	0.00
701.00	0.00
701.13	79.58
701.26	30.43
701.40	4.68
701.53	16.38
701.66	9.36
701.79	44.47
701.93	0.00
702.06	91.28
702.19	16.38
702.32	0.00
702.46	0.00
702.59	18.72
702.72	11.70
702.85	74.90
702.99	4.68
703.12	14.04
703.25	37.45
703.38	58.51
703.51	4.68
703.65	67.88
703.78	77.24
703.91	63.19
704.04	91.28
704.17	28.09
704.31	4.68
704.44	14.04
704.57	28.09
704.70	46.81
704.83	32.77
704.96	4.68
705.10	39.79
705.23	138.09
>>>>>End Processed Spectral Data<<<<<
