SpectraSuite Data File
++++++++++++++++++++++++++++++++++++
Date: Fri Oct 04 12:13:44 GMT-05:00 2013
User: price-jones
Dark Spectrum Present: No
Reference Spectrum Present: No
Number of Sampled Component Spectra: 1
Spectrometers: USB2+H05261
Integration Time (usec): 10000 (USB2+H05261)
Spectra Averaged: 1 (USB2+H05261)
Boxcar Smoothing: 0 (USB2+H05261)
Correct for Electrical Dark: No (USB2+H05261)
Strobe/Lamp Enabled: No (USB2+H05261)
Correct for Detector Non-linearity: No (USB2+H05261)
Correct for Stray Light: No (USB2+H05261)
Number of Pixels in Processed Spectrum: 2048
>>>>>Begin Processed Spectral Data<<<<<
365.73	46.81
365.92	46.81
366.12	46.81
366.32	0.00
366.52	0.00
366.72	0.00
366.91	0.00
367.11	0.00
367.31	0.00
367.51	0.00
367.70	0.00
367.90	0.00
368.10	0.00
368.30	0.00
368.49	0.00
368.69	0.00
368.89	0.00
369.09	0.00
369.28	0.00
369.48	0.00
369.68	0.00
369.87	42.13
370.07	0.00
370.27	0.00
370.47	0.00
370.66	0.00
370.86	0.00
371.06	9.36
371.25	0.00
371.45	0.00
371.65	46.81
371.84	0.00
372.04	0.00
372.24	18.72
372.44	0.00
372.63	0.00
372.83	0.00
373.03	0.00
373.22	44.47
373.42	0.00
373.62	11.70
373.81	18.72
374.01	11.70
374.21	72.56
374.40	32.77
374.60	51.49
374.79	93.62
374.99	32.77
375.19	58.51
375.38	28.09
375.58	37.45
375.78	39.79
375.97	84.26
376.17	44.47
376.37	4.68
376.56	0.00
376.76	67.88
376.95	72.56
377.15	37.45
377.35	70.22
377.54	18.72
377.74	4.68
377.93	0.00
378.13	4.68
378.33	65.54
378.52	0.00
378.72	21.06
378.91	67.88
379.11	9.36
379.31	0.00
379.50	9.36
379.70	32.77
379.89	25.75
380.09	32.77
380.28	16.38
380.48	0.00
380.68	4.68
380.87	2.34
381.07	14.04
381.26	0.00
381.46	2.34
381.65	9.36
381.85	16.38
382.04	74.90
382.24	0.00
382.43	77.24
382.63	86.60
382.83	70.22
383.02	0.00
383.22	0.00
383.41	63.19
383.61	18.72
383.80	4.68
384.00	58.51
384.19	0.00
384.39	4.68
384.58	70.22
384.78	4.68
384.97	32.77
385.17	72.56
385.36	21.06
385.56	56.17
385.75	44.47
385.95	35.11
386.14	81.92
386.34	56.17
386.53	0.00
386.72	56.17
386.92	53.83
387.11	81.92
387.31	0.00
387.50	7.02
387.70	67.88
387.89	100.64
388.09	14.04
388.28	35.11
388.48	39.79
388.67	23.41
388.86	32.77
389.06	11.70
389.25	0.00
389.45	4.68
389.64	35.11
389.84	60.85
390.03	9.36
390.22	0.00
390.42	0.00
390.61	32.77
390.81	42.13
391.00	0.00
391.19	0.00
391.39	0.00
391.58	56.17
391.78	28.09
391.97	65.54
392.16	0.00
392.36	0.00
392.55	35.11
392.75	0.00
392.94	9.36
393.13	79.58
393.33	14.04
393.52	0.00
393.71	53.83
393.91	4.68
394.10	18.72
394.29	7.02
394.49	0.00
394.68	4.68
394.88	51.49
395.07	44.47
395.26	53.83
395.46	42.13
395.65	70.22
395.84	32.77
396.04	18.72
396.23	37.45
396.42	11.70
396.62	46.81
396.81	32.77
397.00	21.06
397.19	25.75
397.39	0.00
397.58	23.41
397.77	42.13
397.97	39.79
398.16	14.04
398.35	18.72
398.55	7.02
398.74	4.68
398.93	23.41
399.12	25.75
399.32	9.36
399.51	23.41
399.70	0.00
399.90	30.43
400.09	23.41
400.28	0.00
400.47	16.38
400.67	0.00
400.86	18.72
401.05	30.43
401.24	70.22
401.44	102.98
401.63	74.90
401.82	42.13
402.01	28.09
402.21	72.56
402.40	14.04
402.59	25.75
402.78	25.75
402.97	63.19
403.17	0.00
403.36	67.88
403.55	0.00
403.74	56.17
403.93	44.47
404.13	2.34
404.32	18.72
404.51	0.00
404.70	0.00
404.89	0.00
405.09	49.15
405.28	21.06
405.47	107.66
405.66	35.11
405.85	0.00
406.05	81.92
406.24	39.79
406.43	28.09
406.62	32.77
406.81	21.06
407.00	39.79
407.20	93.62
407.39	42.13
407.58	67.88
407.77	0.00
407.96	2.34
408.15	25.75
408.34	46.81
408.54	58.51
408.73	77.24
408.92	2.34
409.11	72.56
409.30	0.00
409.49	4.68
409.68	23.41
409.87	91.28
410.07	56.17
410.26	42.13
410.45	63.19
410.64	0.00
410.83	14.04
411.02	81.92
411.21	16.38
411.40	37.45
411.59	74.90
411.78	117.03
411.98	102.98
412.17	2.34
412.36	37.45
412.55	35.11
412.74	39.79
412.93	0.00
413.12	77.24
413.31	93.62
413.50	0.00
413.69	30.43
413.88	0.00
414.07	4.68
414.26	88.94
414.45	91.28
414.64	49.15
414.83	28.09
415.02	0.00
415.22	11.70
415.41	9.36
415.60	42.13
415.79	0.00
415.98	30.43
416.17	65.54
416.36	0.00
416.55	23.41
416.74	25.75
416.93	93.62
417.12	49.15
417.31	28.09
417.50	72.56
417.69	28.09
417.88	74.90
418.07	0.00
418.26	58.51
418.45	74.90
418.64	124.05
418.83	53.83
419.02	32.77
419.21	51.49
419.39	14.04
419.58	74.90
419.77	7.02
419.96	72.56
420.15	37.45
420.34	32.77
420.53	79.58
420.72	51.49
420.91	133.41
421.10	60.85
421.29	81.92
421.48	14.04
421.67	21.06
421.86	93.62
422.05	42.13
422.24	0.00
422.43	39.79
422.61	79.58
422.80	77.24
422.99	14.04
423.18	35.11
423.37	7.02
423.56	14.04
423.75	11.70
423.94	37.45
424.13	25.75
424.32	112.35
424.50	79.58
424.69	81.92
424.88	100.64
425.07	30.43
425.26	102.98
425.45	35.11
425.64	0.00
425.83	32.77
426.01	4.68
426.20	0.00
426.39	14.04
426.58	67.88
426.77	77.24
426.96	81.92
427.15	63.19
427.33	9.36
427.52	42.13
427.71	60.85
427.90	74.90
428.09	74.90
428.28	77.24
428.46	49.15
428.65	84.26
428.84	112.35
429.03	0.00
429.22	39.79
429.40	110.01
429.59	2.34
429.78	49.15
429.97	65.54
430.16	37.45
430.34	72.56
430.53	37.45
430.72	79.58
430.91	18.72
431.10	72.56
431.28	21.06
431.47	77.24
431.66	79.58
431.85	32.77
432.03	42.13
432.22	84.26
432.41	0.00
432.60	72.56
432.79	56.17
432.97	53.83
433.16	37.45
433.35	25.75
433.54	16.38
433.72	16.38
433.91	53.83
434.10	60.85
434.28	49.15
434.47	84.26
434.66	60.85
434.85	46.81
435.03	30.43
435.22	53.83
435.41	7.02
435.59	18.72
435.78	30.43
435.97	9.36
436.16	67.88
436.34	74.90
436.53	49.15
436.72	11.70
436.90	32.77
437.09	42.13
437.28	39.79
437.46	9.36
437.65	93.62
437.84	86.60
438.02	32.77
438.21	16.38
438.40	25.75
438.58	98.30
438.77	53.83
438.96	124.05
439.14	25.75
439.33	58.51
439.52	81.92
439.70	44.47
439.89	65.54
440.08	72.56
440.26	21.06
440.45	37.45
440.63	30.43
440.82	11.70
441.01	107.66
441.19	44.47
441.38	98.30
441.57	25.75
441.75	0.00
441.94	51.49
442.12	51.49
442.31	95.96
442.50	23.41
442.68	56.17
442.87	72.56
443.05	95.96
443.24	84.26
443.43	18.72
443.61	133.41
443.80	0.00
443.98	53.83
444.17	93.62
444.35	42.13
444.54	58.51
444.73	42.13
444.91	60.85
445.10	32.77
445.28	102.98
445.47	107.66
445.65	21.06
445.84	70.22
446.02	79.58
446.21	51.49
446.39	53.83
446.58	0.00
446.77	124.05
446.95	42.13
447.14	58.51
447.32	58.51
447.51	100.64
447.69	49.15
447.88	133.41
448.06	60.85
448.25	58.51
448.43	65.54
448.62	51.49
448.80	58.51
448.99	18.72
449.17	74.90
449.36	74.90
449.54	114.69
449.73	112.35
449.91	0.00
450.10	42.13
450.28	21.06
450.46	84.26
450.65	74.90
450.83	46.81
451.02	46.81
451.20	102.98
451.39	95.96
451.57	35.11
451.76	74.90
451.94	126.39
452.13	79.58
452.31	56.17
452.49	4.68
452.68	32.77
452.86	67.88
453.05	49.15
453.23	0.00
453.42	91.28
453.60	74.90
453.78	53.83
453.97	14.04
454.15	91.28
454.34	25.75
454.52	72.56
454.70	112.35
454.89	0.00
455.07	37.45
455.26	18.72
455.44	58.51
455.62	107.66
455.81	98.30
455.99	51.49
456.17	30.43
456.36	4.68
456.54	51.49
456.73	114.69
456.91	91.28
457.09	58.51
457.28	105.32
457.46	126.39
457.64	44.47
457.83	51.49
458.01	79.58
458.19	53.83
458.38	121.71
458.56	70.22
458.74	88.94
458.93	16.38
459.11	67.88
459.29	112.35
459.48	0.00
459.66	39.79
459.84	60.85
460.03	18.72
460.21	102.98
460.39	79.58
460.57	32.77
460.76	11.70
460.94	0.00
461.12	60.85
461.31	84.26
461.49	70.22
461.67	42.13
461.85	70.22
462.04	51.49
462.22	72.56
462.40	46.81
462.59	81.92
462.77	37.45
462.95	117.03
463.13	23.41
463.32	117.03
463.50	63.19
463.68	145.11
463.86	77.24
464.05	2.34
464.23	88.94
464.41	9.36
464.59	56.17
464.78	16.38
464.96	81.92
465.14	44.47
465.32	67.88
465.50	16.38
465.69	51.49
465.87	39.79
466.05	67.88
466.23	79.58
466.41	112.35
466.60	28.09
466.78	37.45
466.96	32.77
467.14	0.00
467.32	49.15
467.51	23.41
467.69	25.75
467.87	32.77
468.05	56.17
468.23	44.47
468.41	21.06
468.60	58.51
468.78	18.72
468.96	28.09
469.14	58.51
469.32	44.47
469.50	51.49
469.69	37.45
469.87	67.88
470.05	16.38
470.23	70.22
470.41	67.88
470.59	60.85
470.77	135.75
470.95	0.00
471.14	46.81
471.32	4.68
471.50	100.64
471.68	79.58
471.86	28.09
472.04	30.43
472.22	58.51
472.40	152.13
472.58	63.19
472.77	81.92
472.95	65.54
473.13	128.73
473.31	53.83
473.49	65.54
473.67	117.03
473.85	53.83
474.03	51.49
474.21	88.94
474.39	56.17
474.57	58.51
474.75	25.75
474.93	21.06
475.12	30.43
475.30	98.30
475.48	11.70
475.66	149.79
475.84	25.75
476.02	58.51
476.20	86.60
476.38	42.13
476.56	70.22
476.74	46.81
476.92	23.41
477.10	56.17
477.28	42.13
477.46	102.98
477.64	67.88
477.82	86.60
478.00	102.98
478.18	147.45
478.36	14.04
478.54	53.83
478.72	56.17
478.90	105.32
479.08	0.00
479.26	53.83
479.44	131.07
479.62	98.30
479.80	110.01
479.98	16.38
480.16	95.96
480.34	23.41
480.52	0.00
480.70	37.45
480.88	18.72
481.06	84.26
481.24	81.92
481.41	23.41
481.59	39.79
481.77	91.28
481.95	67.88
482.13	42.13
482.31	100.64
482.49	110.01
482.67	14.04
482.85	72.56
483.03	49.15
483.21	32.77
483.39	74.90
483.57	7.02
483.74	14.04
483.92	56.17
484.10	51.49
484.28	42.13
484.46	79.58
484.64	60.85
484.82	32.77
485.00	53.83
485.18	72.56
485.35	0.00
485.53	100.64
485.71	60.85
485.89	30.43
486.07	77.24
486.25	46.81
486.43	30.43
486.61	117.03
486.78	18.72
486.96	21.06
487.14	56.17
487.32	44.47
487.50	51.49
487.68	100.64
487.85	124.05
488.03	23.41
488.21	7.02
488.39	32.77
488.57	65.54
488.75	86.60
488.92	32.77
489.10	88.94
489.28	100.64
489.46	11.70
489.64	95.96
489.81	56.17
489.99	140.43
490.17	110.01
490.35	128.73
490.53	42.13
490.70	95.96
490.88	79.58
491.06	161.50
491.24	133.41
491.41	93.62
491.59	11.70
491.77	0.00
491.95	72.56
492.13	119.37
492.30	67.88
492.48	86.60
492.66	149.79
492.84	79.58
493.01	72.56
493.19	46.81
493.37	88.94
493.54	67.88
493.72	163.84
493.90	100.64
494.08	42.13
494.25	95.96
494.43	77.24
494.61	119.37
494.79	51.49
494.96	53.83
495.14	37.45
495.32	42.13
495.49	32.77
495.67	56.17
495.85	7.02
496.02	49.15
496.20	70.22
496.38	110.01
496.55	112.35
496.73	56.17
496.91	37.45
497.09	46.81
497.26	53.83
497.44	91.28
497.62	72.56
497.79	173.20
497.97	102.98
498.14	65.54
498.32	44.47
498.50	14.04
498.67	81.92
498.85	86.60
499.03	102.98
499.20	145.11
499.38	98.30
499.56	142.77
499.73	119.37
499.91	98.30
500.08	102.98
500.26	119.37
500.44	0.00
500.61	93.62
500.79	159.16
500.97	128.73
501.14	124.05
501.32	74.90
501.49	133.41
501.67	84.26
501.84	117.03
502.02	42.13
502.20	124.05
502.37	49.15
502.55	110.01
502.72	42.13
502.90	79.58
503.07	84.26
503.25	25.75
503.43	79.58
503.60	98.30
503.78	152.13
503.95	93.62
504.13	39.79
504.30	18.72
504.48	67.88
504.65	79.58
504.83	79.58
505.01	56.17
505.18	126.39
505.36	145.11
505.53	142.77
505.71	58.51
505.88	88.94
506.06	117.03
506.23	70.22
506.41	72.56
506.58	156.82
506.76	114.69
506.93	142.77
507.11	53.83
507.28	0.00
507.46	140.43
507.63	23.41
507.81	65.54
507.98	140.43
508.16	65.54
508.33	86.60
508.50	102.98
508.68	107.66
508.85	67.88
509.03	23.41
509.20	56.17
509.38	67.88
509.55	93.62
509.73	100.64
509.90	110.01
510.08	98.30
510.25	21.06
510.42	16.38
510.60	159.16
510.77	98.30
510.95	93.62
511.12	107.66
511.30	70.22
511.47	93.62
511.64	88.94
511.82	86.60
511.99	95.96
512.17	72.56
512.34	91.28
512.51	65.54
512.69	60.85
512.86	77.24
513.04	65.54
513.21	121.71
513.38	18.72
513.56	79.58
513.73	105.32
513.90	112.35
514.08	102.98
514.25	102.98
514.43	42.13
514.60	81.92
514.77	16.38
514.95	88.94
515.12	67.88
515.29	79.58
515.47	102.98
515.64	84.26
515.81	72.56
515.99	23.41
516.16	88.94
516.33	72.56
516.51	84.26
516.68	35.11
516.85	77.24
517.03	25.75
517.20	28.09
517.37	84.26
517.54	91.28
517.72	77.24
517.89	67.88
518.06	42.13
518.24	107.66
518.41	110.01
518.58	128.73
518.75	51.49
518.93	105.32
519.10	58.51
519.27	60.85
519.45	77.24
519.62	95.96
519.79	86.60
519.96	100.64
520.14	102.98
520.31	114.69
520.48	72.56
520.65	145.11
520.83	67.88
521.00	93.62
521.17	72.56
521.34	79.58
521.52	42.13
521.69	74.90
521.86	128.73
522.03	77.24
522.20	107.66
522.38	147.45
522.55	91.28
522.72	88.94
522.89	79.58
523.07	79.58
523.24	56.17
523.41	102.98
523.58	51.49
523.75	105.32
523.92	117.03
524.10	39.79
524.27	63.19
524.44	72.56
524.61	72.56
524.78	145.11
524.96	9.36
525.13	74.90
525.30	65.54
525.47	72.56
525.64	131.07
525.81	51.49
525.98	63.19
526.16	117.03
526.33	117.03
526.50	0.00
526.67	95.96
526.84	77.24
527.01	30.43
527.18	77.24
527.36	175.54
527.53	44.47
527.70	128.73
527.87	142.77
528.04	46.81
528.21	147.45
528.38	112.35
528.55	117.03
528.72	58.51
528.89	166.18
529.07	32.77
529.24	100.64
529.41	191.92
529.58	86.60
529.75	112.35
529.92	119.37
530.09	65.54
530.26	46.81
530.43	81.92
530.60	112.35
530.77	42.13
530.94	9.36
531.11	124.05
531.28	63.19
531.46	81.92
531.63	138.09
531.80	86.60
531.97	168.52
532.14	117.03
532.31	107.66
532.48	74.90
532.65	131.07
532.82	58.51
532.99	117.03
533.16	84.26
533.33	58.51
533.50	56.17
533.67	28.09
533.84	72.56
534.01	95.96
534.18	74.90
534.35	46.81
534.52	60.85
534.69	58.51
534.86	7.02
535.03	107.66
535.20	105.32
535.37	145.11
535.54	124.05
535.71	37.45
535.88	93.62
536.05	112.35
536.22	60.85
536.38	70.22
536.55	74.90
536.72	149.79
536.89	74.90
537.06	154.48
537.23	51.49
537.40	56.17
537.57	133.41
537.74	56.17
537.91	30.43
538.08	93.62
538.25	126.39
538.42	72.56
538.59	46.81
538.75	86.60
538.92	81.92
539.09	114.69
539.26	60.85
539.43	60.85
539.60	86.60
539.77	147.45
539.94	145.11
540.11	53.83
540.28	84.26
540.44	84.26
540.61	51.49
540.78	152.13
540.95	67.88
541.12	74.90
541.29	0.00
541.46	105.32
541.62	72.56
541.79	79.58
541.96	84.26
542.13	25.75
542.30	121.71
542.47	121.71
542.63	140.43
542.80	30.43
542.97	72.56
543.14	28.09
543.31	65.54
543.48	35.11
543.64	7.02
543.81	23.41
543.98	119.37
544.15	147.45
544.32	107.66
544.48	114.69
544.65	131.07
544.82	93.62
544.99	93.62
545.16	198.95
545.32	63.19
545.49	77.24
545.66	28.09
545.83	70.22
546.00	65.54
546.16	42.13
546.33	145.11
546.50	70.22
546.67	93.62
546.83	65.54
547.00	102.98
547.17	53.83
547.34	81.92
547.50	53.83
547.67	102.98
547.84	93.62
548.00	112.35
548.17	28.09
548.34	79.58
548.51	135.75
548.67	77.24
548.84	147.45
549.01	72.56
549.18	180.22
549.34	53.83
549.51	65.54
549.68	35.11
549.84	67.88
550.01	126.39
550.18	14.04
550.34	112.35
550.51	56.17
550.68	126.39
550.84	67.88
551.01	159.16
551.18	98.30
551.34	30.43
551.51	30.43
551.68	110.01
551.84	133.41
552.01	23.41
552.18	49.15
552.34	98.30
552.51	110.01
552.68	44.47
552.84	135.75
553.01	98.30
553.18	142.77
553.34	93.62
553.51	119.37
553.67	86.60
553.84	98.30
554.01	114.69
554.17	110.01
554.34	77.24
554.51	67.88
554.67	81.92
554.84	105.32
555.00	70.22
555.17	79.58
555.33	95.96
555.50	72.56
555.67	23.41
555.83	74.90
556.00	0.00
556.16	65.54
556.33	79.58
556.50	67.88
556.66	56.17
556.83	81.92
556.99	60.85
557.16	49.15
557.32	42.13
557.49	39.79
557.65	58.51
557.82	86.60
557.98	56.17
558.15	16.38
558.32	60.85
558.48	63.19
558.65	128.73
558.81	32.77
558.98	18.72
559.14	65.54
559.31	107.66
559.47	105.32
559.64	65.54
559.80	81.92
559.97	28.09
560.13	126.39
560.30	131.07
560.46	81.92
560.63	102.98
560.79	9.36
560.96	98.30
561.12	110.01
561.29	91.28
561.45	49.15
561.61	46.81
561.78	51.49
561.94	60.85
562.11	35.11
562.27	23.41
562.44	46.81
562.60	79.58
562.77	72.56
562.93	39.79
563.10	182.56
563.26	152.13
563.42	25.75
563.59	119.37
563.75	74.90
563.92	58.51
564.08	84.26
564.24	49.15
564.41	91.28
564.57	88.94
564.74	25.75
564.90	21.06
565.07	81.92
565.23	135.75
565.39	39.79
565.56	79.58
565.72	81.92
565.88	56.17
566.05	67.88
566.21	67.88
566.38	84.26
566.54	107.66
566.70	91.28
566.87	119.37
567.03	147.45
567.19	110.01
567.36	84.26
567.52	133.41
567.68	42.13
567.85	112.35
568.01	102.98
568.17	79.58
568.34	131.07
568.50	37.45
568.66	138.09
568.83	74.90
568.99	51.49
569.15	112.35
569.32	44.47
569.48	58.51
569.64	65.54
569.81	49.15
569.97	84.26
570.13	110.01
570.30	0.00
570.46	105.32
570.62	121.71
570.78	37.45
570.95	51.49
571.11	51.49
571.27	156.82
571.43	16.38
571.60	84.26
571.76	49.15
571.92	124.05
572.09	121.71
572.25	112.35
572.41	110.01
572.57	121.71
572.74	84.26
572.90	9.36
573.06	84.26
573.22	98.30
573.38	51.49
573.55	32.77
573.71	0.00
573.87	79.58
574.03	70.22
574.20	46.81
574.36	128.73
574.52	110.01
574.68	77.24
574.84	58.51
575.01	126.39
575.17	25.75
575.33	77.24
575.49	51.49
575.65	0.00
575.82	114.69
575.98	63.19
576.14	63.19
576.30	63.19
576.46	98.30
576.62	42.13
576.79	28.09
576.95	30.43
577.11	60.85
577.27	28.09
577.43	60.85
577.59	70.22
577.75	77.24
577.92	77.24
578.08	42.13
578.24	49.15
578.40	93.62
578.56	110.01
578.72	79.58
578.88	95.96
579.04	81.92
579.21	114.69
579.37	44.47
579.53	100.64
579.69	32.77
579.85	35.11
580.01	107.66
580.17	128.73
580.33	60.85
580.49	124.05
580.65	91.28
580.82	117.03
580.98	88.94
581.14	119.37
581.30	58.51
581.46	107.66
581.62	91.28
581.78	81.92
581.94	93.62
582.10	42.13
582.26	70.22
582.42	46.81
582.58	86.60
582.74	121.71
582.90	107.66
583.06	72.56
583.22	32.77
583.38	145.11
583.54	86.60
583.70	58.51
583.86	60.85
584.02	56.17
584.18	51.49
584.34	65.54
584.50	58.51
584.66	56.17
584.82	44.47
584.98	58.51
585.14	4.68
585.30	67.88
585.46	67.88
585.62	49.15
585.78	79.58
585.94	93.62
586.10	112.35
586.26	56.17
586.42	74.90
586.58	0.00
586.74	93.62
586.90	72.56
587.06	72.56
587.22	91.28
587.38	32.77
587.54	16.38
587.70	42.13
587.86	28.09
588.02	60.85
588.18	84.26
588.34	25.75
588.49	42.13
588.65	35.11
588.81	58.51
588.97	51.49
589.13	44.47
589.29	86.60
589.45	53.83
589.61	74.90
589.77	107.66
589.93	86.60
590.08	102.98
590.24	72.56
590.40	77.24
590.56	65.54
590.72	67.88
590.88	100.64
591.04	60.85
591.20	107.66
591.35	37.45
591.51	93.62
591.67	67.88
591.83	28.09
591.99	53.83
592.15	49.15
592.31	21.06
592.46	35.11
592.62	110.01
592.78	72.56
592.94	88.94
593.10	32.77
593.26	100.64
593.41	133.41
593.57	81.92
593.73	128.73
593.89	35.11
594.05	60.85
594.20	25.75
594.36	81.92
594.52	63.19
594.68	79.58
594.84	30.43
594.99	112.35
595.15	60.85
595.31	63.19
595.47	4.68
595.62	67.88
595.78	72.56
595.94	79.58
596.10	63.19
596.25	79.58
596.41	14.04
596.57	84.26
596.73	72.56
596.88	86.60
597.04	44.47
597.20	91.28
597.36	11.70
597.51	98.30
597.67	0.00
597.83	93.62
597.99	65.54
598.14	46.81
598.30	53.83
598.46	70.22
598.61	18.72
598.77	93.62
598.93	81.92
599.09	32.77
599.24	51.49
599.40	0.00
599.56	65.54
599.71	56.17
599.87	98.30
600.03	65.54
600.18	60.85
600.34	77.24
600.50	81.92
600.65	58.51
600.81	39.79
600.97	30.43
601.12	81.92
601.28	56.17
601.44	18.72
601.59	37.45
601.75	35.11
601.91	32.77
602.06	58.51
602.22	100.64
602.37	42.13
602.53	84.26
602.69	56.17
602.84	63.19
603.00	70.22
603.16	60.85
603.31	86.60
603.47	102.98
603.62	72.56
603.78	98.30
603.94	32.77
604.09	142.77
604.25	67.88
604.40	79.58
604.56	53.83
604.71	79.58
604.87	107.66
605.03	112.35
605.18	65.54
605.34	37.45
605.49	0.00
605.65	21.06
605.80	53.83
605.96	46.81
606.12	56.17
606.27	84.26
606.43	67.88
606.58	124.05
606.74	35.11
606.89	0.00
607.05	91.28
607.20	67.88
607.36	86.60
607.51	2.34
607.67	16.38
607.82	159.16
607.98	37.45
608.13	133.41
608.29	117.03
608.44	65.54
608.60	156.82
608.75	67.88
608.91	0.00
609.06	131.07
609.22	25.75
609.37	65.54
609.53	95.96
609.68	23.41
609.84	44.47
609.99	58.51
610.15	56.17
610.30	23.41
610.46	126.39
610.61	131.07
610.76	0.00
610.92	74.90
611.07	98.30
611.23	32.77
611.38	49.15
611.54	110.01
611.69	86.60
611.84	93.62
612.00	98.30
612.15	124.05
612.31	88.94
612.46	95.96
612.62	7.02
612.77	93.62
612.92	30.43
613.08	74.90
613.23	39.79
613.39	100.64
613.54	0.00
613.69	42.13
613.85	42.13
614.00	0.00
614.15	30.43
614.31	0.00
614.46	84.26
614.62	121.71
614.77	53.83
614.92	56.17
615.08	14.04
615.23	142.77
615.38	74.90
615.54	74.90
615.69	46.81
615.84	117.03
616.00	110.01
616.15	39.79
616.30	30.43
616.46	35.11
616.61	112.35
616.76	86.60
616.92	86.60
617.07	91.28
617.22	0.00
617.37	79.58
617.53	60.85
617.68	46.81
617.83	107.66
617.99	7.02
618.14	81.92
618.29	72.56
618.45	0.00
618.60	107.66
618.75	51.49
618.90	53.83
619.06	7.02
619.21	30.43
619.36	42.13
619.51	77.24
619.67	9.36
619.82	56.17
619.97	102.98
620.12	131.07
620.28	138.09
620.43	44.47
620.58	46.81
620.73	77.24
620.89	112.35
621.04	49.15
621.19	58.51
621.34	58.51
621.49	91.28
621.65	35.11
621.80	32.77
621.95	93.62
622.10	74.90
622.25	124.05
622.41	16.38
622.56	79.58
622.71	84.26
622.86	51.49
623.01	67.88
623.16	126.39
623.32	42.13
623.47	42.13
623.62	18.72
623.77	16.38
623.92	21.06
624.07	23.41
624.23	21.06
624.38	88.94
624.53	88.94
624.68	74.90
624.83	98.30
624.98	25.75
625.13	30.43
625.29	42.13
625.44	105.32
625.59	105.32
625.74	60.85
625.89	95.96
626.04	9.36
626.19	98.30
626.34	107.66
626.49	84.26
626.65	23.41
626.80	35.11
626.95	79.58
627.10	42.13
627.25	86.60
627.40	37.45
627.55	86.60
627.70	2.34
627.85	84.26
628.00	46.81
628.15	81.92
628.30	93.62
628.45	46.81
628.60	70.22
628.76	70.22
628.91	63.19
629.06	32.77
629.21	18.72
629.36	46.81
629.51	93.62
629.66	105.32
629.81	18.72
629.96	39.79
630.11	65.54
630.26	42.13
630.41	0.00
630.56	79.58
630.71	70.22
630.86	0.00
631.01	67.88
631.16	95.96
631.31	98.30
631.46	23.41
631.61	51.49
631.76	93.62
631.91	131.07
632.06	25.75
632.21	0.00
632.36	21.06
632.51	93.62
632.66	35.11
632.81	51.49
632.96	39.79
633.10	79.58
633.25	60.85
633.40	46.81
633.55	93.62
633.70	53.83
633.85	23.41
634.00	56.17
634.15	86.60
634.30	112.35
634.45	39.79
634.60	119.37
634.75	86.60
634.90	0.00
635.05	81.92
635.19	117.03
635.34	46.81
635.49	30.43
635.64	88.94
635.79	102.98
635.94	51.49
636.09	28.09
636.24	86.60
636.39	58.51
636.53	81.92
636.68	88.94
636.83	98.30
636.98	135.75
637.13	63.19
637.28	77.24
637.43	30.43
637.57	39.79
637.72	102.98
637.87	98.30
638.02	32.77
638.17	44.47
638.32	0.00
638.46	14.04
638.61	42.13
638.76	86.60
638.91	0.00
639.06	58.51
639.20	51.49
639.35	46.81
639.50	35.11
639.65	51.49
639.80	63.19
639.94	119.37
640.09	91.28
640.24	46.81
640.39	0.00
640.54	39.79
640.68	81.92
640.83	114.69
640.98	0.00
641.13	74.90
641.27	46.81
641.42	79.58
641.57	23.41
641.72	0.00
641.86	138.09
642.01	72.56
642.16	35.11
642.31	84.26
642.45	56.17
642.60	0.00
642.75	9.36
642.90	25.75
643.04	39.79
643.19	102.98
643.34	46.81
643.48	70.22
643.63	72.56
643.78	42.13
643.93	60.85
644.07	63.19
644.22	32.77
644.37	63.19
644.51	53.83
644.66	51.49
644.81	58.51
644.95	84.26
645.10	46.81
645.25	0.00
645.39	25.75
645.54	107.66
645.69	37.45
645.83	16.38
645.98	32.77
646.13	65.54
646.27	49.15
646.42	0.00
646.57	81.92
646.71	93.62
646.86	74.90
647.00	23.41
647.15	0.00
647.30	11.70
647.44	53.83
647.59	0.00
647.74	86.60
647.88	88.94
648.03	21.06
648.17	70.22
648.32	81.92
648.47	35.11
648.61	35.11
648.76	0.00
648.90	35.11
649.05	124.05
649.20	107.66
649.34	77.24
649.49	154.48
649.63	51.49
649.78	81.92
649.92	63.19
650.07	23.41
650.21	9.36
650.36	60.85
650.51	7.02
650.65	105.32
650.80	7.02
650.94	0.00
651.09	4.68
651.23	60.85
651.38	51.49
651.52	107.66
651.67	28.09
651.81	67.88
651.96	28.09
652.10	32.77
652.25	79.58
652.39	30.43
652.54	65.54
652.68	14.04
652.83	4.68
652.97	70.22
653.12	84.26
653.26	25.75
653.41	0.00
653.55	175.54
653.70	86.60
653.84	86.60
653.99	70.22
654.13	60.85
654.27	0.00
654.42	60.85
654.56	32.77
654.71	39.79
654.85	105.32
655.00	65.54
655.14	46.81
655.29	77.24
655.43	84.26
655.57	42.13
655.72	86.60
655.86	11.70
656.01	4.68
656.15	25.75
656.30	98.30
656.44	56.17
656.58	21.06
656.73	35.11
656.87	0.00
657.01	107.66
657.16	35.11
657.30	53.83
657.45	18.72
657.59	42.13
657.73	46.81
657.88	28.09
658.02	0.00
658.16	18.72
658.31	44.47
658.45	67.88
658.60	0.00
658.74	81.92
658.88	58.51
659.03	95.96
659.17	16.38
659.31	23.41
659.46	14.04
659.60	72.56
659.74	39.79
659.89	0.00
660.03	16.38
660.17	105.32
660.32	28.09
660.46	49.15
660.60	65.54
660.74	81.92
660.89	37.45
661.03	56.17
661.17	95.96
661.32	16.38
661.46	14.04
661.60	46.81
661.74	86.60
661.89	53.83
662.03	70.22
662.17	56.17
662.31	28.09
662.46	77.24
662.60	100.64
662.74	9.36
662.88	0.00
663.03	0.00
663.17	74.90
663.31	39.79
663.45	53.83
663.60	60.85
663.74	102.98
663.88	4.68
664.02	42.13
664.17	100.64
664.31	65.54
664.45	35.11
664.59	86.60
664.73	37.45
664.88	44.47
665.02	93.62
665.16	18.72
665.30	105.32
665.44	49.15
665.59	44.47
665.73	21.06
665.87	0.00
666.01	28.09
666.15	0.00
666.29	7.02
666.44	35.11
666.58	74.90
666.72	93.62
666.86	39.79
667.00	37.45
667.14	88.94
667.28	21.06
667.43	60.85
667.57	0.00
667.71	95.96
667.85	100.64
667.99	70.22
668.13	65.54
668.27	21.06
668.41	21.06
668.56	65.54
668.70	65.54
668.84	138.09
668.98	79.58
669.12	84.26
669.26	28.09
669.40	95.96
669.54	58.51
669.68	16.38
669.82	7.02
669.96	4.68
670.10	39.79
670.25	32.77
670.39	58.51
670.53	77.24
670.67	42.13
670.81	35.11
670.95	25.75
671.09	16.38
671.23	65.54
671.37	2.34
671.51	2.34
671.65	84.26
671.79	77.24
671.93	56.17
672.07	39.79
672.21	46.81
672.35	67.88
672.49	84.26
672.63	110.01
672.77	46.81
672.91	70.22
673.05	35.11
673.19	49.15
673.33	84.26
673.47	32.77
673.61	51.49
673.75	67.88
673.89	0.00
674.03	11.70
674.17	53.83
674.31	14.04
674.45	117.03
674.59	60.85
674.73	14.04
674.87	0.00
675.01	25.75
675.15	77.24
675.29	63.19
675.43	72.56
675.56	16.38
675.70	21.06
675.84	23.41
675.98	88.94
676.12	18.72
676.26	49.15
676.40	58.51
676.54	44.47
676.68	49.15
676.82	32.77
676.96	2.34
677.10	81.92
677.23	56.17
677.37	23.41
677.51	37.45
677.65	81.92
677.79	14.04
677.93	74.90
678.07	35.11
678.21	56.17
678.34	91.28
678.48	14.04
678.62	39.79
678.76	51.49
678.90	74.90
679.04	30.43
679.18	0.00
679.31	0.00
679.45	84.26
679.59	46.81
679.73	51.49
679.87	60.85
680.00	154.48
680.14	0.00
680.28	39.79
680.42	110.01
680.56	72.56
680.70	81.92
680.83	88.94
680.97	70.22
681.11	93.62
681.25	0.00
681.39	65.54
681.52	14.04
681.66	9.36
681.80	58.51
681.94	93.62
682.07	58.51
682.21	37.45
682.35	7.02
682.49	11.70
682.62	21.06
682.76	65.54
682.90	79.58
683.04	11.70
683.17	84.26
683.31	0.00
683.45	56.17
683.59	9.36
683.72	67.88
683.86	74.90
684.00	0.00
684.13	81.92
684.27	56.17
684.41	25.75
684.55	18.72
684.68	79.58
684.82	95.96
684.96	0.00
685.09	14.04
685.23	67.88
685.37	42.13
685.50	60.85
685.64	2.34
685.78	93.62
685.91	39.79
686.05	53.83
686.19	30.43
686.32	102.98
686.46	107.66
686.60	44.47
686.73	18.72
686.87	14.04
687.01	37.45
687.14	42.13
687.28	42.13
687.42	16.38
687.55	79.58
687.69	0.00
687.82	56.17
687.96	4.68
688.10	0.00
688.23	74.90
688.37	42.13
688.50	11.70
688.64	133.41
688.78	9.36
688.91	56.17
689.05	7.02
689.18	70.22
689.32	67.88
689.46	0.00
689.59	37.45
689.73	25.75
689.86	28.09
690.00	42.13
690.13	58.51
690.27	121.71
690.41	110.01
690.54	72.56
690.68	25.75
690.81	11.70
690.95	0.00
691.08	42.13
691.22	46.81
691.35	14.04
691.49	0.00
691.62	25.75
691.76	65.54
691.89	16.38
692.03	39.79
692.16	0.00
692.30	0.00
692.43	21.06
692.57	18.72
692.70	7.02
692.84	4.68
692.97	32.77
693.11	18.72
693.24	65.54
693.38	9.36
693.51	0.00
693.65	81.92
693.78	67.88
693.92	110.01
694.05	86.60
694.19	63.19
694.32	0.00
694.45	70.22
694.59	56.17
694.72	23.41
694.86	0.00
694.99	18.72
695.13	77.24
695.26	37.45
695.39	60.85
695.53	53.83
695.66	32.77
695.80	21.06
695.93	0.00
696.07	51.49
696.20	46.81
696.33	0.00
696.47	53.83
696.60	0.00
696.73	72.56
696.87	14.04
697.00	46.81
697.14	37.45
697.27	84.26
697.40	51.49
697.54	46.81
697.67	74.90
697.80	0.00
697.94	60.85
698.07	30.43
698.21	0.00
698.34	44.47
698.47	60.85
698.61	37.45
698.74	35.11
698.87	39.79
699.01	4.68
699.14	46.81
699.27	37.45
699.40	58.51
699.54	23.41
699.67	39.79
699.80	46.81
699.94	23.41
700.07	44.47
700.20	9.36
700.34	32.77
700.47	32.77
700.60	79.58
700.73	21.06
700.87	77.24
701.00	21.06
701.13	25.75
701.26	117.03
701.40	42.13
701.53	70.22
701.66	0.00
701.79	0.00
701.93	0.00
702.06	7.02
702.19	21.06
702.32	42.13
702.46	79.58
702.59	49.15
702.72	37.45
702.85	28.09
702.99	0.00
703.12	100.64
703.25	14.04
703.38	32.77
703.51	53.83
703.65	53.83
703.78	16.38
703.91	11.70
704.04	56.17
704.17	0.00
704.31	39.79
704.44	0.00
704.57	77.24
704.70	18.72
704.83	42.13
704.96	37.45
705.10	30.43
705.23	65.54
>>>>>End Processed Spectral Data<<<<<
