SpectraSuite Data File
++++++++++++++++++++++++++++++++++++
Date: Fri Oct 04 12:13:34 GMT-05:00 2013
User: price-jones
Dark Spectrum Present: No
Reference Spectrum Present: No
Number of Sampled Component Spectra: 1
Spectrometers: USB2+H05261
Integration Time (usec): 10000 (USB2+H05261)
Spectra Averaged: 1 (USB2+H05261)
Boxcar Smoothing: 0 (USB2+H05261)
Correct for Electrical Dark: No (USB2+H05261)
Strobe/Lamp Enabled: No (USB2+H05261)
Correct for Detector Non-linearity: No (USB2+H05261)
Correct for Stray Light: No (USB2+H05261)
Number of Pixels in Processed Spectrum: 2048
>>>>>Begin Processed Spectral Data<<<<<
365.73	4.68
365.92	4.68
366.12	4.68
366.32	0.00
366.52	0.00
366.72	0.00
366.91	0.00
367.11	0.00
367.31	0.00
367.51	0.00
367.70	0.00
367.90	0.00
368.10	0.00
368.30	0.00
368.49	0.00
368.69	0.00
368.89	0.00
369.09	0.00
369.28	0.00
369.48	0.00
369.68	0.00
369.87	0.00
370.07	0.00
370.27	0.00
370.47	0.00
370.66	0.00
370.86	0.00
371.06	0.00
371.25	0.00
371.45	0.00
371.65	7.02
371.84	0.00
372.04	49.15
372.24	0.00
372.44	0.00
372.63	0.00
372.83	9.36
373.03	49.15
373.22	81.92
373.42	0.00
373.62	49.15
373.81	65.54
374.01	0.00
374.21	77.24
374.40	67.88
374.60	21.06
374.79	37.45
374.99	28.09
375.19	51.49
375.38	72.56
375.58	28.09
375.78	14.04
375.97	49.15
376.17	30.43
376.37	0.00
376.56	84.26
376.76	51.49
376.95	67.88
377.15	107.66
377.35	32.77
377.54	0.00
377.74	0.00
377.93	14.04
378.13	32.77
378.33	7.02
378.52	4.68
378.72	9.36
378.91	0.00
379.11	30.43
379.31	51.49
379.50	0.00
379.70	9.36
379.89	11.70
380.09	98.30
380.28	56.17
380.48	37.45
380.68	25.75
380.87	35.11
381.07	44.47
381.26	23.41
381.46	81.92
381.65	4.68
381.85	0.00
382.04	7.02
382.24	28.09
382.43	25.75
382.63	0.00
382.83	105.32
383.02	4.68
383.22	0.00
383.41	0.00
383.61	79.58
383.80	0.00
384.00	37.45
384.19	4.68
384.39	0.00
384.58	21.06
384.78	39.79
384.97	0.00
385.17	30.43
385.36	0.00
385.56	18.72
385.75	0.00
385.95	46.81
386.14	4.68
386.34	86.60
386.53	42.13
386.72	49.15
386.92	16.38
387.11	67.88
387.31	42.13
387.50	7.02
387.70	42.13
387.89	58.51
388.09	18.72
388.28	46.81
388.48	0.00
388.67	37.45
388.86	39.79
389.06	58.51
389.25	56.17
389.45	63.19
389.64	0.00
389.84	21.06
390.03	32.77
390.22	86.60
390.42	35.11
390.61	28.09
390.81	28.09
391.00	42.13
391.19	35.11
391.39	102.98
391.58	53.83
391.78	44.47
391.97	0.00
392.16	21.06
392.36	0.00
392.55	0.00
392.75	23.41
392.94	28.09
393.13	14.04
393.33	0.00
393.52	7.02
393.71	39.79
393.91	56.17
394.10	14.04
394.29	14.04
394.49	84.26
394.68	0.00
394.88	23.41
395.07	14.04
395.26	95.96
395.46	7.02
395.65	42.13
395.84	42.13
396.04	0.00
396.23	4.68
396.42	28.09
396.62	58.51
396.81	11.70
397.00	91.28
397.19	0.00
397.39	0.00
397.58	0.00
397.77	0.00
397.97	67.88
398.16	46.81
398.35	9.36
398.55	21.06
398.74	42.13
398.93	51.49
399.12	53.83
399.32	60.85
399.51	53.83
399.70	95.96
399.90	0.00
400.09	0.00
400.28	107.66
400.47	49.15
400.67	49.15
400.86	74.90
401.05	39.79
401.24	81.92
401.44	65.54
401.63	0.00
401.82	30.43
402.01	46.81
402.21	4.68
402.40	4.68
402.59	37.45
402.78	0.00
402.97	53.83
403.17	51.49
403.36	53.83
403.55	44.47
403.74	0.00
403.93	86.60
404.13	37.45
404.32	0.00
404.51	86.60
404.70	102.98
404.89	0.00
405.09	51.49
405.28	7.02
405.47	0.00
405.66	32.77
405.85	53.83
406.05	42.13
406.24	0.00
406.43	28.09
406.62	56.17
406.81	49.15
407.00	51.49
407.20	0.00
407.39	46.81
407.58	23.41
407.77	70.22
407.96	58.51
408.15	88.94
408.34	0.00
408.54	28.09
408.73	100.64
408.92	81.92
409.11	23.41
409.30	46.81
409.49	4.68
409.68	0.00
409.87	126.39
410.07	0.00
410.26	25.75
410.45	39.79
410.64	65.54
410.83	46.81
411.02	0.00
411.21	133.41
411.40	102.98
411.59	35.11
411.78	16.38
411.98	51.49
412.17	105.32
412.36	18.72
412.55	25.75
412.74	28.09
412.93	56.17
413.12	25.75
413.31	23.41
413.50	74.90
413.69	35.11
413.88	44.47
414.07	39.79
414.26	9.36
414.45	25.75
414.64	16.38
414.83	79.58
415.02	95.96
415.22	18.72
415.41	7.02
415.60	67.88
415.79	51.49
415.98	79.58
416.17	14.04
416.36	65.54
416.55	77.24
416.74	46.81
416.93	21.06
417.12	74.90
417.31	46.81
417.50	28.09
417.69	0.00
417.88	32.77
418.07	28.09
418.26	37.45
418.45	53.83
418.64	0.00
418.83	0.00
419.02	60.85
419.21	79.58
419.39	11.70
419.58	30.43
419.77	86.60
419.96	42.13
420.15	114.69
420.34	42.13
420.53	86.60
420.72	88.94
420.91	86.60
421.10	79.58
421.29	117.03
421.48	0.00
421.67	86.60
421.86	58.51
422.05	63.19
422.24	0.00
422.43	0.00
422.61	18.72
422.80	88.94
422.99	28.09
423.18	44.47
423.37	9.36
423.56	70.22
423.75	39.79
423.94	35.11
424.13	56.17
424.32	56.17
424.50	28.09
424.69	58.51
424.88	79.58
425.07	56.17
425.26	39.79
425.45	70.22
425.64	2.34
425.83	23.41
426.01	37.45
426.20	0.00
426.39	32.77
426.58	9.36
426.77	0.00
426.96	44.47
427.15	63.19
427.33	0.00
427.52	81.92
427.71	102.98
427.90	70.22
428.09	28.09
428.28	93.62
428.46	65.54
428.65	46.81
428.84	98.30
429.03	72.56
429.22	65.54
429.40	28.09
429.59	32.77
429.78	74.90
429.97	39.79
430.16	0.00
430.34	86.60
430.53	0.00
430.72	102.98
430.91	39.79
431.10	42.13
431.28	39.79
431.47	9.36
431.66	53.83
431.85	42.13
432.03	63.19
432.22	51.49
432.41	56.17
432.60	56.17
432.79	44.47
432.97	63.19
433.16	100.64
433.35	56.17
433.54	0.00
433.72	37.45
433.91	25.75
434.10	0.00
434.28	32.77
434.47	0.00
434.66	28.09
434.85	67.88
435.03	0.00
435.22	0.00
435.41	49.15
435.59	11.70
435.78	28.09
435.97	14.04
436.16	51.49
436.34	46.81
436.53	86.60
436.72	93.62
436.90	30.43
437.09	81.92
437.28	23.41
437.46	60.85
437.65	84.26
437.84	14.04
438.02	37.45
438.21	84.26
438.40	21.06
438.58	81.92
438.77	11.70
438.96	21.06
439.14	0.00
439.33	88.94
439.52	35.11
439.70	65.54
439.89	98.30
440.08	46.81
440.26	74.90
440.45	77.24
440.63	60.85
440.82	121.71
441.01	74.90
441.19	117.03
441.38	49.15
441.57	0.00
441.75	56.17
441.94	95.96
442.12	28.09
442.31	2.34
442.50	14.04
442.68	88.94
442.87	51.49
443.05	2.34
443.24	88.94
443.43	39.79
443.61	58.51
443.80	25.75
443.98	145.11
444.17	42.13
444.35	0.00
444.54	53.83
444.73	95.96
444.91	44.47
445.10	37.45
445.28	0.00
445.47	86.60
445.65	4.68
445.84	58.51
446.02	0.00
446.21	51.49
446.39	44.47
446.58	2.34
446.77	35.11
446.95	53.83
447.14	42.13
447.32	37.45
447.51	88.94
447.69	32.77
447.88	65.54
448.06	86.60
448.25	0.00
448.43	4.68
448.62	0.00
448.80	133.41
448.99	70.22
449.17	74.90
449.36	28.09
449.54	65.54
449.73	42.13
449.91	51.49
450.10	100.64
450.28	39.79
450.46	131.07
450.65	79.58
450.83	119.37
451.02	58.51
451.20	102.98
451.39	7.02
451.57	107.66
451.76	23.41
451.94	74.90
452.13	107.66
452.31	124.05
452.49	67.88
452.68	60.85
452.86	60.85
453.05	67.88
453.23	0.00
453.42	39.79
453.60	67.88
453.78	67.88
453.97	11.70
454.15	53.83
454.34	35.11
454.52	46.81
454.70	77.24
454.89	39.79
455.07	53.83
455.26	58.51
455.44	16.38
455.62	72.56
455.81	25.75
455.99	39.79
456.17	133.41
456.36	65.54
456.54	58.51
456.73	32.77
456.91	28.09
457.09	79.58
457.28	77.24
457.46	79.58
457.64	39.79
457.83	44.47
458.01	51.49
458.19	0.00
458.38	74.90
458.56	70.22
458.74	46.81
458.93	98.30
459.11	51.49
459.29	72.56
459.48	107.66
459.66	9.36
459.84	84.26
460.03	196.60
460.21	44.47
460.39	56.17
460.57	67.88
460.76	53.83
460.94	84.26
461.12	138.09
461.31	140.43
461.49	9.36
461.67	46.81
461.85	65.54
462.04	53.83
462.22	117.03
462.40	56.17
462.59	67.88
462.77	21.06
462.95	58.51
463.13	25.75
463.32	124.05
463.50	105.32
463.68	42.13
463.86	100.64
464.05	81.92
464.23	0.00
464.41	93.62
464.59	30.43
464.78	93.62
464.96	60.85
465.14	0.00
465.32	23.41
465.50	70.22
465.69	79.58
465.87	23.41
466.05	128.73
466.23	117.03
466.41	39.79
466.60	37.45
466.78	142.77
466.96	44.47
467.14	63.19
467.32	79.58
467.51	0.00
467.69	84.26
467.87	88.94
468.05	63.19
468.23	100.64
468.41	42.13
468.60	42.13
468.78	84.26
468.96	72.56
469.14	58.51
469.32	135.75
469.50	72.56
469.69	86.60
469.87	14.04
470.05	42.13
470.23	128.73
470.41	72.56
470.59	84.26
470.77	39.79
470.95	93.62
471.14	72.56
471.32	51.49
471.50	25.75
471.68	7.02
471.86	86.60
472.04	53.83
472.22	79.58
472.40	0.00
472.58	56.17
472.77	56.17
472.95	63.19
473.13	51.49
473.31	79.58
473.49	126.39
473.67	98.30
473.85	147.45
474.03	30.43
474.21	81.92
474.39	138.09
474.57	37.45
474.75	67.88
474.93	88.94
475.12	35.11
475.30	86.60
475.48	74.90
475.66	105.32
475.84	107.66
476.02	145.11
476.20	112.35
476.38	63.19
476.56	60.85
476.74	0.00
476.92	14.04
477.10	32.77
477.28	0.00
477.46	14.04
477.64	79.58
477.82	126.39
478.00	110.01
478.18	63.19
478.36	63.19
478.54	0.00
478.72	60.85
478.90	23.41
479.08	42.13
479.26	74.90
479.44	100.64
479.62	131.07
479.80	37.45
479.98	79.58
480.16	49.15
480.34	0.00
480.52	46.81
480.70	39.79
480.88	140.43
481.06	86.60
481.24	56.17
481.41	105.32
481.59	77.24
481.77	32.77
481.95	98.30
482.13	28.09
482.31	4.68
482.49	42.13
482.67	46.81
482.85	4.68
483.03	51.49
483.21	39.79
483.39	0.00
483.57	77.24
483.74	105.32
483.92	79.58
484.10	72.56
484.28	65.54
484.46	46.81
484.64	23.41
484.82	67.88
485.00	37.45
485.18	39.79
485.35	65.54
485.53	46.81
485.71	28.09
485.89	46.81
486.07	28.09
486.25	21.06
486.43	102.98
486.61	56.17
486.78	58.51
486.96	63.19
487.14	63.19
487.32	72.56
487.50	63.19
487.68	95.96
487.85	7.02
488.03	65.54
488.21	79.58
488.39	105.32
488.57	44.47
488.75	70.22
488.92	135.75
489.10	98.30
489.28	72.56
489.46	0.00
489.64	23.41
489.81	117.03
489.99	135.75
490.17	98.30
490.35	70.22
490.53	65.54
490.70	16.38
490.88	126.39
491.06	81.92
491.24	51.49
491.41	79.58
491.59	112.35
491.77	74.90
491.95	65.54
492.13	128.73
492.30	124.05
492.48	98.30
492.66	67.88
492.84	88.94
493.01	79.58
493.19	46.81
493.37	114.69
493.54	0.00
493.72	133.41
493.90	79.58
494.08	110.01
494.25	35.11
494.43	67.88
494.61	81.92
494.79	67.88
494.96	91.28
495.14	79.58
495.32	70.22
495.49	49.15
495.67	77.24
495.85	107.66
496.02	84.26
496.20	53.83
496.38	39.79
496.55	70.22
496.73	159.16
496.91	86.60
497.09	86.60
497.26	56.17
497.44	72.56
497.62	23.41
497.79	28.09
497.97	152.13
498.14	35.11
498.32	18.72
498.50	67.88
498.67	91.28
498.85	114.69
499.03	53.83
499.20	105.32
499.38	112.35
499.56	93.62
499.73	138.09
499.91	138.09
500.08	93.62
500.26	25.75
500.44	32.77
500.61	107.66
500.79	121.71
500.97	117.03
501.14	56.17
501.32	53.83
501.49	74.90
501.67	107.66
501.84	77.24
502.02	30.43
502.20	18.72
502.37	39.79
502.55	74.90
502.72	121.71
502.90	42.13
503.07	102.98
503.25	32.77
503.43	133.41
503.60	124.05
503.78	88.94
503.95	81.92
504.13	23.41
504.30	81.92
504.48	81.92
504.65	63.19
504.83	42.13
505.01	187.24
505.18	102.98
505.36	79.58
505.53	74.90
505.71	56.17
505.88	46.81
506.06	0.00
506.23	112.35
506.41	67.88
506.58	72.56
506.76	30.43
506.93	105.32
507.11	107.66
507.28	138.09
507.46	88.94
507.63	81.92
507.81	72.56
507.98	11.70
508.16	35.11
508.33	119.37
508.50	42.13
508.68	32.77
508.85	63.19
509.03	117.03
509.20	149.79
509.38	30.43
509.55	81.92
509.73	56.17
509.90	105.32
510.08	86.60
510.25	124.05
510.42	84.26
510.60	60.85
510.77	65.54
510.95	63.19
511.12	93.62
511.30	145.11
511.47	63.19
511.64	53.83
511.82	100.64
511.99	149.79
512.17	77.24
512.34	42.13
512.51	77.24
512.69	53.83
512.86	102.98
513.04	72.56
513.21	112.35
513.38	74.90
513.56	100.64
513.73	105.32
513.90	74.90
514.08	79.58
514.25	91.28
514.43	159.16
514.60	21.06
514.77	28.09
514.95	39.79
515.12	159.16
515.29	56.17
515.47	70.22
515.64	128.73
515.81	135.75
515.99	114.69
516.16	60.85
516.33	70.22
516.51	102.98
516.68	60.85
516.85	65.54
517.03	32.77
517.20	131.07
517.37	98.30
517.54	95.96
517.72	0.00
517.89	126.39
518.06	65.54
518.24	37.45
518.41	133.41
518.58	70.22
518.75	51.49
518.93	212.99
519.10	77.24
519.27	65.54
519.45	67.88
519.62	39.79
519.79	110.01
519.96	91.28
520.14	56.17
520.31	53.83
520.48	91.28
520.65	131.07
520.83	49.15
521.00	60.85
521.17	107.66
521.34	77.24
521.52	56.17
521.69	37.45
521.86	110.01
522.03	72.56
522.20	152.13
522.38	149.79
522.55	124.05
522.72	30.43
522.89	46.81
523.07	126.39
523.24	67.88
523.41	0.00
523.58	168.52
523.75	77.24
523.92	112.35
524.10	142.77
524.27	86.60
524.44	84.26
524.61	11.70
524.78	42.13
524.96	114.69
525.13	126.39
525.30	149.79
525.47	98.30
525.64	100.64
525.81	72.56
525.98	63.19
526.16	81.92
526.33	95.96
526.50	30.43
526.67	23.41
526.84	110.01
527.01	98.30
527.18	124.05
527.36	77.24
527.53	58.51
527.70	42.13
527.87	102.98
528.04	88.94
528.21	117.03
528.38	138.09
528.55	152.13
528.72	145.11
528.89	46.81
529.07	156.82
529.24	56.17
529.41	117.03
529.58	23.41
529.75	138.09
529.92	14.04
530.09	72.56
530.26	72.56
530.43	79.58
530.60	51.49
530.77	79.58
530.94	126.39
531.11	28.09
531.28	53.83
531.46	14.04
531.63	37.45
531.80	44.47
531.97	60.85
532.14	79.58
532.31	110.01
532.48	77.24
532.65	58.51
532.82	79.58
532.99	30.43
533.16	51.49
533.33	65.54
533.50	112.35
533.67	100.64
533.84	117.03
534.01	30.43
534.18	0.00
534.35	100.64
534.52	46.81
534.69	121.71
534.86	14.04
535.03	72.56
535.20	95.96
535.37	42.13
535.54	65.54
535.71	37.45
535.88	131.07
536.05	25.75
536.22	119.37
536.38	110.01
536.55	140.43
536.72	21.06
536.89	35.11
537.06	49.15
537.23	46.81
537.40	95.96
537.57	100.64
537.74	121.71
537.91	138.09
538.08	135.75
538.25	79.58
538.42	154.48
538.59	128.73
538.75	126.39
538.92	121.71
539.09	11.70
539.26	58.51
539.43	133.41
539.60	32.77
539.77	121.71
539.94	81.92
540.11	53.83
540.28	138.09
540.44	60.85
540.61	84.26
540.78	156.82
540.95	142.77
541.12	79.58
541.29	42.13
541.46	32.77
541.62	79.58
541.79	138.09
541.96	173.20
542.13	126.39
542.30	81.92
542.47	112.35
542.63	21.06
542.80	11.70
542.97	98.30
543.14	86.60
543.31	23.41
543.48	72.56
543.64	128.73
543.81	77.24
543.98	42.13
544.15	25.75
544.32	159.16
544.48	128.73
544.65	110.01
544.82	53.83
544.99	117.03
545.16	156.82
545.32	60.85
545.49	110.01
545.66	86.60
545.83	60.85
546.00	147.45
546.16	30.43
546.33	70.22
546.50	95.96
546.67	102.98
546.83	0.00
547.00	117.03
547.17	112.35
547.34	65.54
547.50	42.13
547.67	0.00
547.84	39.79
548.00	133.41
548.17	91.28
548.34	119.37
548.51	51.49
548.67	81.92
548.84	161.50
549.01	63.19
549.18	9.36
549.34	86.60
549.51	49.15
549.68	44.47
549.84	46.81
550.01	25.75
550.18	74.90
550.34	65.54
550.51	117.03
550.68	119.37
550.84	79.58
551.01	58.51
551.18	67.88
551.34	21.06
551.51	110.01
551.68	107.66
551.84	65.54
552.01	98.30
552.18	53.83
552.34	4.68
552.51	117.03
552.68	74.90
552.84	46.81
553.01	93.62
553.18	145.11
553.34	0.00
553.51	84.26
553.67	79.58
553.84	53.83
554.01	100.64
554.17	60.85
554.34	58.51
554.51	93.62
554.67	98.30
554.84	70.22
555.00	25.75
555.17	91.28
555.33	28.09
555.50	35.11
555.67	187.24
555.83	84.26
556.00	37.45
556.16	107.66
556.33	25.75
556.50	102.98
556.66	98.30
556.83	107.66
556.99	88.94
557.16	35.11
557.32	67.88
557.49	93.62
557.65	100.64
557.82	21.06
557.98	58.51
558.15	77.24
558.32	86.60
558.48	60.85
558.65	119.37
558.81	81.92
558.98	102.98
559.14	142.77
559.31	74.90
559.47	81.92
559.64	79.58
559.80	74.90
559.97	102.98
560.13	95.96
560.30	121.71
560.46	79.58
560.63	67.88
560.79	86.60
560.96	93.62
561.12	170.86
561.29	98.30
561.45	51.49
561.61	110.01
561.78	65.54
561.94	126.39
562.11	53.83
562.27	37.45
562.44	119.37
562.60	91.28
562.77	70.22
562.93	86.60
563.10	79.58
563.26	51.49
563.42	44.47
563.59	51.49
563.75	114.69
563.92	32.77
564.08	35.11
564.24	39.79
564.41	72.56
564.57	60.85
564.74	77.24
564.90	105.32
565.07	65.54
565.23	30.43
565.39	93.62
565.56	39.79
565.72	145.11
565.88	128.73
566.05	107.66
566.21	145.11
566.38	21.06
566.54	28.09
566.70	105.32
566.87	147.45
567.03	131.07
567.19	112.35
567.36	60.85
567.52	98.30
567.68	84.26
567.85	91.28
568.01	58.51
568.17	58.51
568.34	121.71
568.50	114.69
568.66	95.96
568.83	72.56
568.99	49.15
569.15	21.06
569.32	58.51
569.48	72.56
569.64	28.09
569.81	124.05
569.97	110.01
570.13	128.73
570.30	117.03
570.46	77.24
570.62	30.43
570.78	138.09
570.95	133.41
571.11	39.79
571.27	95.96
571.43	84.26
571.60	86.60
571.76	88.94
571.92	187.24
572.09	119.37
572.25	49.15
572.41	117.03
572.57	18.72
572.74	84.26
572.90	98.30
573.06	44.47
573.22	51.49
573.38	51.49
573.55	49.15
573.71	81.92
573.87	60.85
574.03	121.71
574.20	16.38
574.36	60.85
574.52	11.70
574.68	100.64
574.84	124.05
575.01	9.36
575.17	149.79
575.33	51.49
575.49	56.17
575.65	72.56
575.82	138.09
575.98	42.13
576.14	79.58
576.30	51.49
576.46	14.04
576.62	30.43
576.79	119.37
576.95	79.58
577.11	58.51
577.27	86.60
577.43	46.81
577.59	140.43
577.75	121.71
577.92	79.58
578.08	98.30
578.24	98.30
578.40	149.79
578.56	128.73
578.72	67.88
578.88	65.54
579.04	63.19
579.21	60.85
579.37	58.51
579.53	42.13
579.69	168.52
579.85	100.64
580.01	147.45
580.17	77.24
580.33	74.90
580.49	114.69
580.65	67.88
580.82	11.70
580.98	0.00
581.14	93.62
581.30	86.60
581.46	25.75
581.62	60.85
581.78	39.79
581.94	4.68
582.10	124.05
582.26	121.71
582.42	4.68
582.58	102.98
582.74	93.62
582.90	93.62
583.06	0.00
583.22	81.92
583.38	81.92
583.54	81.92
583.70	107.66
583.86	114.69
584.02	152.13
584.18	84.26
584.34	117.03
584.50	74.90
584.66	72.56
584.82	67.88
584.98	93.62
585.14	77.24
585.30	42.13
585.46	46.81
585.62	49.15
585.78	95.96
585.94	65.54
586.10	35.11
586.26	53.83
586.42	105.32
586.58	88.94
586.74	42.13
586.90	56.17
587.06	65.54
587.22	0.00
587.38	72.56
587.54	133.41
587.70	91.28
587.86	70.22
588.02	93.62
588.18	119.37
588.34	46.81
588.49	30.43
588.65	0.00
588.81	18.72
588.97	2.34
589.13	81.92
589.29	105.32
589.45	35.11
589.61	44.47
589.77	110.01
589.93	126.39
590.08	121.71
590.24	28.09
590.40	70.22
590.56	0.00
590.72	65.54
590.88	88.94
591.04	65.54
591.20	4.68
591.35	18.72
591.51	35.11
591.67	0.00
591.83	44.47
591.99	23.41
592.15	42.13
592.31	79.58
592.46	42.13
592.62	65.54
592.78	81.92
592.94	84.26
593.10	46.81
593.26	30.43
593.41	63.19
593.57	121.71
593.73	95.96
593.89	67.88
594.05	11.70
594.20	84.26
594.36	79.58
594.52	35.11
594.68	46.81
594.84	124.05
594.99	112.35
595.15	44.47
595.31	65.54
595.47	0.00
595.62	46.81
595.78	107.66
595.94	126.39
596.10	100.64
596.25	81.92
596.41	2.34
596.57	21.06
596.73	39.79
596.88	32.77
597.04	21.06
597.20	28.09
597.36	72.56
597.51	58.51
597.67	81.92
597.83	81.92
597.99	88.94
598.14	70.22
598.30	140.43
598.46	49.15
598.61	65.54
598.77	98.30
598.93	74.90
599.09	67.88
599.24	37.45
599.40	70.22
599.56	53.83
599.71	105.32
599.87	88.94
600.03	77.24
600.18	44.47
600.34	79.58
600.50	70.22
600.65	37.45
600.81	7.02
600.97	60.85
601.12	79.58
601.28	72.56
601.44	77.24
601.59	84.26
601.75	95.96
601.91	88.94
602.06	110.01
602.22	119.37
602.37	93.62
602.53	21.06
602.69	102.98
602.84	35.11
603.00	49.15
603.16	121.71
603.31	32.77
603.47	114.69
603.62	65.54
603.78	46.81
603.94	105.32
604.09	77.24
604.25	86.60
604.40	9.36
604.56	100.64
604.71	16.38
604.87	72.56
605.03	74.90
605.18	63.19
605.34	72.56
605.49	107.66
605.65	98.30
605.80	84.26
605.96	28.09
606.12	60.85
606.27	44.47
606.43	91.28
606.58	39.79
606.74	102.98
606.89	107.66
607.05	67.88
607.20	46.81
607.36	37.45
607.51	70.22
607.67	60.85
607.82	35.11
607.98	98.30
608.13	44.47
608.29	46.81
608.44	35.11
608.60	53.83
608.75	65.54
608.91	16.38
609.06	56.17
609.22	77.24
609.37	79.58
609.53	79.58
609.68	72.56
609.84	37.45
609.99	86.60
610.15	9.36
610.30	79.58
610.46	51.49
610.61	65.54
610.76	49.15
610.92	53.83
611.07	117.03
611.23	65.54
611.38	60.85
611.54	53.83
611.69	4.68
611.84	86.60
612.00	126.39
612.15	91.28
612.31	77.24
612.46	180.22
612.62	51.49
612.77	91.28
612.92	117.03
613.08	65.54
613.23	35.11
613.39	2.34
613.54	119.37
613.69	77.24
613.85	18.72
614.00	121.71
614.15	14.04
614.31	74.90
614.46	53.83
614.62	107.66
614.77	49.15
614.92	102.98
615.08	70.22
615.23	74.90
615.38	105.32
615.54	145.11
615.69	35.11
615.84	93.62
616.00	105.32
616.15	35.11
616.30	23.41
616.46	102.98
616.61	32.77
616.76	42.13
616.92	117.03
617.07	110.01
617.22	9.36
617.37	93.62
617.53	70.22
617.68	126.39
617.83	60.85
617.99	0.00
618.14	32.77
618.29	81.92
618.45	86.60
618.60	0.00
618.75	81.92
618.90	117.03
619.06	112.35
619.21	28.09
619.36	93.62
619.51	107.66
619.67	21.06
619.82	32.77
619.97	74.90
620.12	72.56
620.28	77.24
620.43	0.00
620.58	81.92
620.73	65.54
620.89	81.92
621.04	86.60
621.19	11.70
621.34	44.47
621.49	114.69
621.65	91.28
621.80	84.26
621.95	60.85
622.10	65.54
622.25	117.03
622.41	46.81
622.56	124.05
622.71	51.49
622.86	46.81
623.01	74.90
623.16	79.58
623.32	60.85
623.47	114.69
623.62	63.19
623.77	58.51
623.92	63.19
624.07	70.22
624.23	114.69
624.38	39.79
624.53	72.56
624.68	4.68
624.83	65.54
624.98	98.30
625.13	0.00
625.29	79.58
625.44	39.79
625.59	25.75
625.74	44.47
625.89	28.09
626.04	44.47
626.19	72.56
626.34	51.49
626.49	102.98
626.65	58.51
626.80	98.30
626.95	65.54
627.10	70.22
627.25	140.43
627.40	72.56
627.55	42.13
627.70	154.48
627.85	126.39
628.00	32.77
628.15	98.30
628.30	39.79
628.45	14.04
628.60	25.75
628.76	4.68
628.91	4.68
629.06	56.17
629.21	65.54
629.36	21.06
629.51	74.90
629.66	58.51
629.81	56.17
629.96	180.22
630.11	86.60
630.26	110.01
630.41	28.09
630.56	53.83
630.71	67.88
630.86	56.17
631.01	95.96
631.16	67.88
631.31	128.73
631.46	126.39
631.61	49.15
631.76	126.39
631.91	81.92
632.06	74.90
632.21	11.70
632.36	7.02
632.51	131.07
632.66	98.30
632.81	18.72
632.96	63.19
633.10	67.88
633.25	81.92
633.40	56.17
633.55	88.94
633.70	67.88
633.85	58.51
634.00	46.81
634.15	58.51
634.30	51.49
634.45	49.15
634.60	98.30
634.75	65.54
634.90	0.00
635.05	0.00
635.19	56.17
635.34	35.11
635.49	72.56
635.64	2.34
635.79	145.11
635.94	53.83
636.09	11.70
636.24	7.02
636.39	107.66
636.53	23.41
636.68	23.41
636.83	42.13
636.98	100.64
637.13	42.13
637.28	124.05
637.43	18.72
637.57	0.00
637.72	35.11
637.87	67.88
638.02	86.60
638.17	77.24
638.32	93.62
638.46	72.56
638.61	100.64
638.76	133.41
638.91	0.00
639.06	0.00
639.20	63.19
639.35	44.47
639.50	11.70
639.65	77.24
639.80	100.64
639.94	91.28
640.09	98.30
640.24	28.09
640.39	0.00
640.54	0.00
640.68	70.22
640.83	72.56
640.98	72.56
641.13	23.41
641.27	0.00
641.42	7.02
641.57	37.45
641.72	74.90
641.86	100.64
642.01	93.62
642.16	7.02
642.31	84.26
642.45	91.28
642.60	46.81
642.75	39.79
642.90	39.79
643.04	79.58
643.19	79.58
643.34	84.26
643.48	70.22
643.63	51.49
643.78	49.15
643.93	28.09
644.07	25.75
644.22	56.17
644.37	0.00
644.51	81.92
644.66	60.85
644.81	105.32
644.95	53.83
645.10	9.36
645.25	44.47
645.39	72.56
645.54	23.41
645.69	4.68
645.83	77.24
645.98	25.75
646.13	18.72
646.27	107.66
646.42	44.47
646.57	23.41
646.71	67.88
646.86	91.28
647.00	67.88
647.15	30.43
647.30	53.83
647.44	18.72
647.59	30.43
647.74	51.49
647.88	53.83
648.03	46.81
648.17	21.06
648.32	121.71
648.47	119.37
648.61	0.00
648.76	30.43
648.90	44.47
649.05	79.58
649.20	88.94
649.34	88.94
649.49	63.19
649.63	37.45
649.78	70.22
649.92	46.81
650.07	53.83
650.21	60.85
650.36	0.00
650.51	4.68
650.65	46.81
650.80	21.06
650.94	70.22
651.09	91.28
651.23	9.36
651.38	102.98
651.52	67.88
651.67	51.49
651.81	86.60
651.96	72.56
652.10	63.19
652.25	18.72
652.39	11.70
652.54	0.00
652.68	32.77
652.83	63.19
652.97	58.51
653.12	39.79
653.26	53.83
653.41	14.04
653.55	74.90
653.70	25.75
653.84	53.83
653.99	25.75
654.13	166.18
654.27	88.94
654.42	0.00
654.56	0.00
654.71	154.48
654.85	67.88
655.00	77.24
655.14	67.88
655.29	4.68
655.43	18.72
655.57	74.90
655.72	79.58
655.86	58.51
656.01	23.41
656.15	39.79
656.30	7.02
656.44	63.19
656.58	7.02
656.73	67.88
656.87	51.49
657.01	42.13
657.16	156.82
657.30	44.47
657.45	53.83
657.59	51.49
657.73	102.98
657.88	18.72
658.02	51.49
658.16	63.19
658.31	93.62
658.45	53.83
658.60	72.56
658.74	107.66
658.88	42.13
659.03	18.72
659.17	49.15
659.31	42.13
659.46	35.11
659.60	46.81
659.74	21.06
659.89	25.75
660.03	72.56
660.17	98.30
660.32	81.92
660.46	154.48
660.60	53.83
660.74	25.75
660.89	70.22
661.03	60.85
661.17	95.96
661.32	44.47
661.46	49.15
661.60	11.70
661.74	107.66
661.89	42.13
662.03	128.73
662.17	0.00
662.31	49.15
662.46	67.88
662.60	121.71
662.74	79.58
662.88	98.30
663.03	110.01
663.17	159.16
663.31	110.01
663.45	70.22
663.60	88.94
663.74	65.54
663.88	35.11
664.02	37.45
664.17	110.01
664.31	70.22
664.45	51.49
664.59	11.70
664.73	53.83
664.88	0.00
665.02	2.34
665.16	74.90
665.30	0.00
665.44	4.68
665.59	77.24
665.73	81.92
665.87	93.62
666.01	74.90
666.15	86.60
666.29	0.00
666.44	0.00
666.58	46.81
666.72	79.58
666.86	51.49
667.00	126.39
667.14	72.56
667.28	86.60
667.43	84.26
667.57	49.15
667.71	117.03
667.85	21.06
667.99	95.96
668.13	0.00
668.27	60.85
668.41	32.77
668.56	0.00
668.70	86.60
668.84	166.18
668.98	60.85
669.12	74.90
669.26	44.47
669.40	72.56
669.54	35.11
669.68	16.38
669.82	58.51
669.96	18.72
670.10	86.60
670.25	58.51
670.39	16.38
670.53	60.85
670.67	67.88
670.81	84.26
670.95	63.19
671.09	35.11
671.23	44.47
671.37	74.90
671.51	9.36
671.65	74.90
671.79	49.15
671.93	53.83
672.07	0.00
672.21	81.92
672.35	0.00
672.49	67.88
672.63	0.00
672.77	11.70
672.91	60.85
673.05	37.45
673.19	35.11
673.33	32.77
673.47	72.56
673.61	114.69
673.75	63.19
673.89	35.11
674.03	58.51
674.17	32.77
674.31	65.54
674.45	32.77
674.59	16.38
674.73	39.79
674.87	74.90
675.01	112.35
675.15	28.09
675.29	51.49
675.43	81.92
675.56	88.94
675.70	25.75
675.84	35.11
675.98	70.22
676.12	81.92
676.26	0.00
676.40	0.00
676.54	98.30
676.68	44.47
676.82	79.58
676.96	51.49
677.10	65.54
677.23	67.88
677.37	95.96
677.51	65.54
677.65	11.70
677.79	44.47
677.93	110.01
678.07	81.92
678.21	51.49
678.34	58.51
678.48	67.88
678.62	30.43
678.76	79.58
678.90	133.41
679.04	60.85
679.18	37.45
679.31	25.75
679.45	18.72
679.59	67.88
679.73	16.38
679.87	102.98
680.00	35.11
680.14	77.24
680.28	32.77
680.42	63.19
680.56	44.47
680.70	39.79
680.83	25.75
680.97	25.75
681.11	86.60
681.25	46.81
681.39	49.15
681.52	135.75
681.66	65.54
681.80	28.09
681.94	70.22
682.07	105.32
682.21	79.58
682.35	46.81
682.49	0.00
682.62	95.96
682.76	88.94
682.90	46.81
683.04	46.81
683.17	39.79
683.31	0.00
683.45	81.92
683.59	35.11
683.72	28.09
683.86	0.00
684.00	67.88
684.13	35.11
684.27	119.37
684.41	70.22
684.55	35.11
684.68	72.56
684.82	63.19
684.96	67.88
685.09	60.85
685.23	56.17
685.37	30.43
685.50	0.00
685.64	67.88
685.78	56.17
685.91	9.36
686.05	21.06
686.19	72.56
686.32	32.77
686.46	53.83
686.60	102.98
686.73	2.34
686.87	2.34
687.01	4.68
687.14	84.26
687.28	44.47
687.42	77.24
687.55	28.09
687.69	0.00
687.82	28.09
687.96	65.54
688.10	25.75
688.23	149.79
688.37	58.51
688.50	30.43
688.64	42.13
688.78	93.62
688.91	25.75
689.05	56.17
689.18	44.47
689.32	21.06
689.46	0.00
689.59	18.72
689.73	65.54
689.86	0.00
690.00	37.45
690.13	18.72
690.27	25.75
690.41	32.77
690.54	7.02
690.68	14.04
690.81	51.49
690.95	28.09
691.08	49.15
691.22	37.45
691.35	81.92
691.49	53.83
691.62	35.11
691.76	18.72
691.89	25.75
692.03	42.13
692.16	23.41
692.30	0.00
692.43	42.13
692.57	70.22
692.70	0.00
692.84	35.11
692.97	2.34
693.11	53.83
693.24	2.34
693.38	63.19
693.51	53.83
693.65	11.70
693.78	35.11
693.92	60.85
694.05	37.45
694.19	51.49
694.32	0.00
694.45	77.24
694.59	135.75
694.72	23.41
694.86	2.34
694.99	46.81
695.13	23.41
695.26	91.28
695.39	81.92
695.53	32.77
695.66	98.30
695.80	117.03
695.93	2.34
696.07	25.75
696.20	39.79
696.33	0.00
696.47	77.24
696.60	60.85
696.73	39.79
696.87	9.36
697.00	0.00
697.14	25.75
697.27	91.28
697.40	44.47
697.54	21.06
697.67	121.71
697.80	21.06
697.94	25.75
698.07	107.66
698.21	46.81
698.34	67.88
698.47	88.94
698.61	0.00
698.74	49.15
698.87	35.11
699.01	0.00
699.14	77.24
699.27	81.92
699.40	0.00
699.54	0.00
699.67	110.01
699.80	91.28
699.94	63.19
700.07	16.38
700.20	0.00
700.34	32.77
700.47	16.38
700.60	28.09
700.73	0.00
700.87	23.41
701.00	28.09
701.13	65.54
701.26	35.11
701.40	23.41
701.53	23.41
701.66	67.88
701.79	32.77
701.93	56.17
702.06	67.88
702.19	18.72
702.32	18.72
702.46	63.19
702.59	93.62
702.72	37.45
702.85	0.00
702.99	9.36
703.12	9.36
703.25	0.00
703.38	0.00
703.51	0.00
703.65	56.17
703.78	39.79
703.91	65.54
704.04	65.54
704.17	18.72
704.31	51.49
704.44	2.34
704.57	49.15
704.70	37.45
704.83	39.79
704.96	9.36
705.10	0.00
705.23	30.43
>>>>>End Processed Spectral Data<<<<<
