SpectraSuite Data File
++++++++++++++++++++++++++++++++++++
Date: Fri Oct 04 12:13:27 GMT-05:00 2013
User: price-jones
Dark Spectrum Present: No
Reference Spectrum Present: No
Number of Sampled Component Spectra: 1
Spectrometers: USB2+H05261
Integration Time (usec): 10000 (USB2+H05261)
Spectra Averaged: 1 (USB2+H05261)
Boxcar Smoothing: 0 (USB2+H05261)
Correct for Electrical Dark: No (USB2+H05261)
Strobe/Lamp Enabled: No (USB2+H05261)
Correct for Detector Non-linearity: No (USB2+H05261)
Correct for Stray Light: No (USB2+H05261)
Number of Pixels in Processed Spectrum: 2048
>>>>>Begin Processed Spectral Data<<<<<
365.73	63.19
365.92	63.19
366.12	63.19
366.32	0.00
366.52	0.00
366.72	0.00
366.91	0.00
367.11	0.00
367.31	0.00
367.51	0.00
367.70	0.00
367.90	0.00
368.10	0.00
368.30	0.00
368.49	0.00
368.69	0.00
368.89	0.00
369.09	0.00
369.28	0.00
369.48	0.00
369.68	0.00
369.87	0.00
370.07	0.00
370.27	0.00
370.47	0.00
370.66	0.00
370.86	0.00
371.06	0.00
371.25	0.00
371.45	0.00
371.65	0.00
371.84	9.36
372.04	0.00
372.24	37.45
372.44	0.00
372.63	37.45
372.83	14.04
373.03	0.00
373.22	0.00
373.42	0.00
373.62	2.34
373.81	0.00
374.01	37.45
374.21	0.00
374.40	0.00
374.60	56.17
374.79	88.94
374.99	16.38
375.19	30.43
375.38	35.11
375.58	28.09
375.78	91.28
375.97	56.17
376.17	2.34
376.37	53.83
376.56	23.41
376.76	42.13
376.95	4.68
377.15	4.68
377.35	51.49
377.54	51.49
377.74	46.81
377.93	0.00
378.13	49.15
378.33	0.00
378.52	98.30
378.72	44.47
378.91	0.00
379.11	2.34
379.31	0.00
379.50	0.00
379.70	23.41
379.89	28.09
380.09	0.00
380.28	4.68
380.48	14.04
380.68	84.26
380.87	39.79
381.07	74.90
381.26	102.98
381.46	0.00
381.65	25.75
381.85	0.00
382.04	0.00
382.24	21.06
382.43	46.81
382.63	81.92
382.83	4.68
383.02	18.72
383.22	79.58
383.41	0.00
383.61	2.34
383.80	65.54
384.00	0.00
384.19	11.70
384.39	140.43
384.58	0.00
384.78	112.35
384.97	0.00
385.17	25.75
385.36	14.04
385.56	91.28
385.75	51.49
385.95	35.11
386.14	79.58
386.34	25.75
386.53	4.68
386.72	4.68
386.92	32.77
387.11	0.00
387.31	0.00
387.50	35.11
387.70	0.00
387.89	56.17
388.09	0.00
388.28	21.06
388.48	37.45
388.67	16.38
388.86	37.45
389.06	23.41
389.25	0.00
389.45	72.56
389.64	60.85
389.84	65.54
390.03	2.34
390.22	4.68
390.42	117.03
390.61	21.06
390.81	42.13
391.00	0.00
391.19	30.43
391.39	39.79
391.58	21.06
391.78	35.11
391.97	135.75
392.16	46.81
392.36	39.79
392.55	18.72
392.75	42.13
392.94	18.72
393.13	25.75
393.33	42.13
393.52	11.70
393.71	0.00
393.91	46.81
394.10	44.47
394.29	58.51
394.49	39.79
394.68	30.43
394.88	35.11
395.07	72.56
395.26	39.79
395.46	16.38
395.65	9.36
395.84	0.00
396.04	79.58
396.23	9.36
396.42	0.00
396.62	39.79
396.81	0.00
397.00	44.47
397.19	88.94
397.39	2.34
397.58	9.36
397.77	0.00
397.97	53.83
398.16	58.51
398.35	60.85
398.55	18.72
398.74	30.43
398.93	14.04
399.12	4.68
399.32	0.00
399.51	0.00
399.70	86.60
399.90	0.00
400.09	46.81
400.28	65.54
400.47	79.58
400.67	49.15
400.86	0.00
401.05	25.75
401.24	23.41
401.44	16.38
401.63	35.11
401.82	30.43
402.01	0.00
402.21	102.98
402.40	0.00
402.59	37.45
402.78	14.04
402.97	37.45
403.17	77.24
403.36	42.13
403.55	74.90
403.74	65.54
403.93	44.47
404.13	16.38
404.32	39.79
404.51	65.54
404.70	2.34
404.89	0.00
405.09	88.94
405.28	0.00
405.47	18.72
405.66	0.00
405.85	28.09
406.05	32.77
406.24	0.00
406.43	53.83
406.62	0.00
406.81	63.19
407.00	9.36
407.20	105.32
407.39	53.83
407.58	0.00
407.77	67.88
407.96	0.00
408.15	18.72
408.34	11.70
408.54	79.58
408.73	18.72
408.92	0.00
409.11	51.49
409.30	0.00
409.49	0.00
409.68	53.83
409.87	46.81
410.07	0.00
410.26	56.17
410.45	7.02
410.64	0.00
410.83	44.47
411.02	0.00
411.21	9.36
411.40	25.75
411.59	4.68
411.78	16.38
411.98	0.00
412.17	32.77
412.36	28.09
412.55	0.00
412.74	49.15
412.93	18.72
413.12	39.79
413.31	16.38
413.50	65.54
413.69	0.00
413.88	35.11
414.07	74.90
414.26	79.58
414.45	16.38
414.64	37.45
414.83	35.11
415.02	42.13
415.22	25.75
415.41	65.54
415.60	18.72
415.79	51.49
415.98	25.75
416.17	18.72
416.36	0.00
416.55	0.00
416.74	56.17
416.93	0.00
417.12	0.00
417.31	0.00
417.50	14.04
417.69	39.79
417.88	21.06
418.07	30.43
418.26	81.92
418.45	0.00
418.64	7.02
418.83	37.45
419.02	16.38
419.21	21.06
419.39	21.06
419.58	53.83
419.77	98.30
419.96	0.00
420.15	30.43
420.34	25.75
420.53	49.15
420.72	4.68
420.91	18.72
421.10	0.00
421.29	18.72
421.48	81.92
421.67	67.88
421.86	70.22
422.05	2.34
422.24	0.00
422.43	0.00
422.61	74.90
422.80	44.47
422.99	74.90
423.18	21.06
423.37	30.43
423.56	60.85
423.75	102.98
423.94	74.90
424.13	53.83
424.32	0.00
424.50	0.00
424.69	30.43
424.88	119.37
425.07	110.01
425.26	51.49
425.45	28.09
425.64	0.00
425.83	30.43
426.01	39.79
426.20	37.45
426.39	0.00
426.58	0.00
426.77	72.56
426.96	42.13
427.15	4.68
427.33	53.83
427.52	65.54
427.71	49.15
427.90	56.17
428.09	37.45
428.28	51.49
428.46	14.04
428.65	0.00
428.84	0.00
429.03	105.32
429.22	77.24
429.40	0.00
429.59	23.41
429.78	35.11
429.97	46.81
430.16	0.00
430.34	53.83
430.53	44.47
430.72	0.00
430.91	21.06
431.10	32.77
431.28	14.04
431.47	0.00
431.66	32.77
431.85	4.68
432.03	53.83
432.22	65.54
432.41	32.77
432.60	0.00
432.79	0.00
432.97	51.49
433.16	4.68
433.35	121.71
433.54	39.79
433.72	74.90
433.91	35.11
434.10	9.36
434.28	25.75
434.47	53.83
434.66	60.85
434.85	11.70
435.03	60.85
435.22	37.45
435.41	4.68
435.59	9.36
435.78	46.81
435.97	0.00
436.16	42.13
436.34	58.51
436.53	95.96
436.72	72.56
436.90	18.72
437.09	14.04
437.28	0.00
437.46	0.00
437.65	0.00
437.84	4.68
438.02	119.37
438.21	21.06
438.40	32.77
438.58	58.51
438.77	0.00
438.96	28.09
439.14	49.15
439.33	35.11
439.52	25.75
439.70	70.22
439.89	14.04
440.08	60.85
440.26	0.00
440.45	72.56
440.63	49.15
440.82	35.11
441.01	11.70
441.19	39.79
441.38	11.70
441.57	18.72
441.75	0.00
441.94	72.56
442.12	14.04
442.31	67.88
442.50	58.51
442.68	35.11
442.87	30.43
443.05	114.69
443.24	14.04
443.43	0.00
443.61	18.72
443.80	28.09
443.98	49.15
444.17	16.38
444.35	39.79
444.54	74.90
444.73	72.56
444.91	9.36
445.10	0.00
445.28	4.68
445.47	161.50
445.65	60.85
445.84	44.47
446.02	42.13
446.21	23.41
446.39	7.02
446.58	37.45
446.77	23.41
446.95	51.49
447.14	37.45
447.32	0.00
447.51	46.81
447.69	0.00
447.88	23.41
448.06	0.00
448.25	46.81
448.43	23.41
448.62	67.88
448.80	44.47
448.99	14.04
449.17	46.81
449.36	39.79
449.54	72.56
449.73	0.00
449.91	11.70
450.10	63.19
450.28	44.47
450.46	84.26
450.65	77.24
450.83	72.56
451.02	0.00
451.20	2.34
451.39	44.47
451.57	30.43
451.76	2.34
451.94	63.19
452.13	53.83
452.31	23.41
452.49	9.36
452.68	72.56
452.86	0.00
453.05	44.47
453.23	56.17
453.42	39.79
453.60	9.36
453.78	0.00
453.97	53.83
454.15	79.58
454.34	11.70
454.52	7.02
454.70	42.13
454.89	14.04
455.07	2.34
455.26	2.34
455.44	39.79
455.62	18.72
455.81	93.62
455.99	0.00
456.17	14.04
456.36	60.85
456.54	46.81
456.73	16.38
456.91	25.75
457.09	79.58
457.28	39.79
457.46	74.90
457.64	16.38
457.83	16.38
458.01	35.11
458.19	0.00
458.38	0.00
458.56	37.45
458.74	32.77
458.93	11.70
459.11	14.04
459.29	63.19
459.48	35.11
459.66	51.49
459.84	95.96
460.03	110.01
460.21	39.79
460.39	0.00
460.57	37.45
460.76	77.24
460.94	0.00
461.12	32.77
461.31	77.24
461.49	0.00
461.67	0.00
461.85	77.24
462.04	44.47
462.22	39.79
462.40	114.69
462.59	70.22
462.77	39.79
462.95	67.88
463.13	0.00
463.32	2.34
463.50	74.90
463.68	114.69
463.86	35.11
464.05	51.49
464.23	51.49
464.41	112.35
464.59	117.03
464.78	18.72
464.96	67.88
465.14	4.68
465.32	7.02
465.50	25.75
465.69	32.77
465.87	53.83
466.05	51.49
466.23	0.00
466.41	49.15
466.60	21.06
466.78	44.47
466.96	18.72
467.14	0.00
467.32	56.17
467.51	16.38
467.69	0.00
467.87	21.06
468.05	91.28
468.23	46.81
468.41	67.88
468.60	58.51
468.78	39.79
468.96	16.38
469.14	9.36
469.32	0.00
469.50	35.11
469.69	81.92
469.87	0.00
470.05	39.79
470.23	2.34
470.41	9.36
470.59	14.04
470.77	2.34
470.95	0.00
471.14	37.45
471.32	81.92
471.50	18.72
471.68	37.45
471.86	65.54
472.04	37.45
472.22	60.85
472.40	0.00
472.58	46.81
472.77	0.00
472.95	56.17
473.13	72.56
473.31	42.13
473.49	0.00
473.67	28.09
473.85	18.72
474.03	93.62
474.21	23.41
474.39	72.56
474.57	65.54
474.75	0.00
474.93	51.49
475.12	0.00
475.30	0.00
475.48	0.00
475.66	60.85
475.84	30.43
476.02	2.34
476.20	0.00
476.38	0.00
476.56	88.94
476.74	81.92
476.92	70.22
477.10	53.83
477.28	46.81
477.46	39.79
477.64	21.06
477.82	23.41
478.00	23.41
478.18	102.98
478.36	67.88
478.54	0.00
478.72	102.98
478.90	53.83
479.08	0.00
479.26	0.00
479.44	0.00
479.62	9.36
479.80	30.43
479.98	39.79
480.16	30.43
480.34	77.24
480.52	23.41
480.70	39.79
480.88	0.00
481.06	39.79
481.24	18.72
481.41	35.11
481.59	0.00
481.77	51.49
481.95	9.36
482.13	65.54
482.31	133.41
482.49	7.02
482.67	42.13
482.85	51.49
483.03	93.62
483.21	84.26
483.39	16.38
483.57	23.41
483.74	72.56
483.92	74.90
484.10	28.09
484.28	16.38
484.46	42.13
484.64	46.81
484.82	16.38
485.00	86.60
485.18	16.38
485.35	14.04
485.53	95.96
485.71	93.62
485.89	0.00
486.07	56.17
486.25	32.77
486.43	56.17
486.61	63.19
486.78	56.17
486.96	32.77
487.14	46.81
487.32	46.81
487.50	16.38
487.68	53.83
487.85	16.38
488.03	42.13
488.21	77.24
488.39	110.01
488.57	39.79
488.75	72.56
488.92	79.58
489.10	84.26
489.28	95.96
489.46	35.11
489.64	23.41
489.81	74.90
489.99	79.58
490.17	114.69
490.35	4.68
490.53	32.77
490.70	0.00
490.88	74.90
491.06	60.85
491.24	11.70
491.41	0.00
491.59	14.04
491.77	28.09
491.95	86.60
492.13	56.17
492.30	88.94
492.48	91.28
492.66	23.41
492.84	25.75
493.01	32.77
493.19	11.70
493.37	0.00
493.54	119.37
493.72	56.17
493.90	53.83
494.08	0.00
494.25	46.81
494.43	0.00
494.61	67.88
494.79	30.43
494.96	58.51
495.14	11.70
495.32	32.77
495.49	93.62
495.67	23.41
495.85	86.60
496.02	44.47
496.20	16.38
496.38	60.85
496.55	23.41
496.73	60.85
496.91	37.45
497.09	4.68
497.26	58.51
497.44	0.00
497.62	42.13
497.79	60.85
497.97	0.00
498.14	65.54
498.32	56.17
498.50	0.00
498.67	39.79
498.85	0.00
499.03	147.45
499.20	9.36
499.38	28.09
499.56	42.13
499.73	0.00
499.91	77.24
500.08	46.81
500.26	39.79
500.44	14.04
500.61	44.47
500.79	86.60
500.97	51.49
501.14	14.04
501.32	23.41
501.49	93.62
501.67	0.00
501.84	74.90
502.02	46.81
502.20	77.24
502.37	0.00
502.55	0.00
502.72	65.54
502.90	0.00
503.07	67.88
503.25	119.37
503.43	58.51
503.60	49.15
503.78	105.32
503.95	14.04
504.13	63.19
504.30	39.79
504.48	28.09
504.65	4.68
504.83	53.83
505.01	63.19
505.18	0.00
505.36	58.51
505.53	0.00
505.71	32.77
505.88	110.01
506.06	102.98
506.23	53.83
506.41	0.00
506.58	138.09
506.76	77.24
506.93	14.04
507.11	91.28
507.28	16.38
507.46	44.47
507.63	0.00
507.81	42.13
507.98	4.68
508.16	39.79
508.33	0.00
508.50	44.47
508.68	0.00
508.85	11.70
509.03	21.06
509.20	23.41
509.38	77.24
509.55	0.00
509.73	14.04
509.90	0.00
510.08	0.00
510.25	23.41
510.42	42.13
510.60	37.45
510.77	81.92
510.95	21.06
511.12	112.35
511.30	0.00
511.47	51.49
511.64	0.00
511.82	0.00
511.99	84.26
512.17	7.02
512.34	0.00
512.51	14.04
512.69	32.77
512.86	23.41
513.04	0.00
513.21	77.24
513.38	53.83
513.56	0.00
513.73	11.70
513.90	0.00
514.08	46.81
514.25	91.28
514.43	58.51
514.60	58.51
514.77	88.94
514.95	65.54
515.12	35.11
515.29	100.64
515.47	58.51
515.64	0.00
515.81	23.41
515.99	88.94
516.16	58.51
516.33	72.56
516.51	18.72
516.68	9.36
516.85	49.15
517.03	49.15
517.20	30.43
517.37	67.88
517.54	100.64
517.72	0.00
517.89	138.09
518.06	72.56
518.24	0.00
518.41	37.45
518.58	102.98
518.75	0.00
518.93	53.83
519.10	0.00
519.27	44.47
519.45	25.75
519.62	81.92
519.79	21.06
519.96	0.00
520.14	58.51
520.31	46.81
520.48	128.73
520.65	9.36
520.83	81.92
521.00	65.54
521.17	16.38
521.34	0.00
521.52	32.77
521.69	100.64
521.86	0.00
522.03	0.00
522.20	88.94
522.38	0.00
522.55	51.49
522.72	58.51
522.89	51.49
523.07	18.72
523.24	37.45
523.41	56.17
523.58	21.06
523.75	86.60
523.92	42.13
524.10	77.24
524.27	53.83
524.44	35.11
524.61	74.90
524.78	84.26
524.96	2.34
525.13	65.54
525.30	30.43
525.47	105.32
525.64	58.51
525.81	79.58
525.98	21.06
526.16	86.60
526.33	98.30
526.50	0.00
526.67	16.38
526.84	79.58
527.01	32.77
527.18	72.56
527.36	46.81
527.53	51.49
527.70	93.62
527.87	0.00
528.04	2.34
528.21	51.49
528.38	0.00
528.55	72.56
528.72	51.49
528.89	112.35
529.07	21.06
529.24	95.96
529.41	70.22
529.58	0.00
529.75	4.68
529.92	28.09
530.09	28.09
530.26	124.05
530.43	51.49
530.60	70.22
530.77	25.75
530.94	23.41
531.11	79.58
531.28	39.79
531.46	53.83
531.63	56.17
531.80	16.38
531.97	0.00
532.14	63.19
532.31	0.00
532.48	0.00
532.65	28.09
532.82	107.66
532.99	70.22
533.16	2.34
533.33	35.11
533.50	46.81
533.67	37.45
533.84	74.90
534.01	49.15
534.18	86.60
534.35	67.88
534.52	16.38
534.69	32.77
534.86	77.24
535.03	9.36
535.20	70.22
535.37	98.30
535.54	0.00
535.71	14.04
535.88	16.38
536.05	51.49
536.22	21.06
536.38	0.00
536.55	88.94
536.72	65.54
536.89	35.11
537.06	51.49
537.23	51.49
537.40	70.22
537.57	0.00
537.74	32.77
537.91	30.43
538.08	44.47
538.25	65.54
538.42	49.15
538.59	32.77
538.75	60.85
538.92	7.02
539.09	58.51
539.26	93.62
539.43	46.81
539.60	128.73
539.77	56.17
539.94	65.54
540.11	86.60
540.28	72.56
540.44	23.41
540.61	0.00
540.78	0.00
540.95	0.00
541.12	39.79
541.29	63.19
541.46	35.11
541.62	0.00
541.79	51.49
541.96	4.68
542.13	100.64
542.30	35.11
542.47	42.13
542.63	58.51
542.80	53.83
542.97	65.54
543.14	7.02
543.31	65.54
543.48	21.06
543.64	63.19
543.81	56.17
543.98	67.88
544.15	39.79
544.32	84.26
544.48	86.60
544.65	67.88
544.82	44.47
544.99	0.00
545.16	49.15
545.32	0.00
545.49	46.81
545.66	0.00
545.83	51.49
546.00	0.00
546.16	0.00
546.33	46.81
546.50	119.37
546.67	0.00
546.83	0.00
547.00	0.00
547.17	11.70
547.34	46.81
547.50	65.54
547.67	100.64
547.84	86.60
548.00	70.22
548.17	0.00
548.34	0.00
548.51	60.85
548.67	79.58
548.84	14.04
549.01	56.17
549.18	46.81
549.34	30.43
549.51	107.66
549.68	84.26
549.84	16.38
550.01	0.00
550.18	23.41
550.34	114.69
550.51	56.17
550.68	28.09
550.84	46.81
551.01	119.37
551.18	18.72
551.34	49.15
551.51	14.04
551.68	0.00
551.84	53.83
552.01	37.45
552.18	53.83
552.34	0.00
552.51	23.41
552.68	53.83
552.84	9.36
553.01	4.68
553.18	23.41
553.34	44.47
553.51	0.00
553.67	18.72
553.84	74.90
554.01	72.56
554.17	74.90
554.34	46.81
554.51	35.11
554.67	60.85
554.84	0.00
555.00	32.77
555.17	0.00
555.33	63.19
555.50	25.75
555.67	42.13
555.83	42.13
556.00	0.00
556.16	0.00
556.33	70.22
556.50	58.51
556.66	42.13
556.83	21.06
556.99	70.22
557.16	79.58
557.32	0.00
557.49	63.19
557.65	11.70
557.82	0.00
557.98	32.77
558.15	95.96
558.32	0.00
558.48	0.00
558.65	42.13
558.81	46.81
558.98	9.36
559.14	23.41
559.31	37.45
559.47	81.92
559.64	28.09
559.80	23.41
559.97	77.24
560.13	95.96
560.30	51.49
560.46	23.41
560.63	16.38
560.79	51.49
560.96	77.24
561.12	0.00
561.29	65.54
561.45	98.30
561.61	14.04
561.78	32.77
561.94	67.88
562.11	0.00
562.27	28.09
562.44	11.70
562.60	88.94
562.77	39.79
562.93	23.41
563.10	0.00
563.26	23.41
563.42	32.77
563.59	7.02
563.75	0.00
563.92	21.06
564.08	93.62
564.24	4.68
564.41	51.49
564.57	11.70
564.74	25.75
564.90	37.45
565.07	0.00
565.23	28.09
565.39	88.94
565.56	60.85
565.72	46.81
565.88	0.00
566.05	4.68
566.21	0.00
566.38	0.00
566.54	56.17
566.70	28.09
566.87	4.68
567.03	60.85
567.19	67.88
567.36	25.75
567.52	14.04
567.68	28.09
567.85	25.75
568.01	0.00
568.17	30.43
568.34	81.92
568.50	74.90
568.66	56.17
568.83	58.51
568.99	46.81
569.15	46.81
569.32	0.00
569.48	11.70
569.64	0.00
569.81	107.66
569.97	53.83
570.13	4.68
570.30	18.72
570.46	37.45
570.62	126.39
570.78	0.00
570.95	65.54
571.11	44.47
571.27	128.73
571.43	35.11
571.60	0.00
571.76	11.70
571.92	39.79
572.09	0.00
572.25	35.11
572.41	44.47
572.57	11.70
572.74	0.00
572.90	77.24
573.06	28.09
573.22	21.06
573.38	35.11
573.55	114.69
573.71	65.54
573.87	63.19
574.03	16.38
574.20	46.81
574.36	49.15
574.52	49.15
574.68	35.11
574.84	51.49
575.01	25.75
575.17	2.34
575.33	46.81
575.49	65.54
575.65	0.00
575.82	81.92
575.98	110.01
576.14	100.64
576.30	77.24
576.46	65.54
576.62	65.54
576.79	77.24
576.95	16.38
577.11	63.19
577.27	0.00
577.43	35.11
577.59	16.38
577.75	42.13
577.92	7.02
578.08	65.54
578.24	81.92
578.40	91.28
578.56	39.79
578.72	88.94
578.88	53.83
579.04	28.09
579.21	56.17
579.37	0.00
579.53	30.43
579.69	4.68
579.85	93.62
580.01	39.79
580.17	14.04
580.33	28.09
580.49	98.30
580.65	25.75
580.82	2.34
580.98	60.85
581.14	72.56
581.30	30.43
581.46	63.19
581.62	100.64
581.78	46.81
581.94	30.43
582.10	119.37
582.26	21.06
582.42	0.00
582.58	14.04
582.74	44.47
582.90	23.41
583.06	9.36
583.22	25.75
583.38	35.11
583.54	51.49
583.70	14.04
583.86	74.90
584.02	124.05
584.18	28.09
584.34	72.56
584.50	100.64
584.66	805.14
584.82	1926.26
584.98	2527.78
585.14	2270.32
585.30	1432.41
585.46	912.81
585.62	531.30
585.78	245.76
585.94	175.54
586.10	88.94
586.26	35.11
586.42	74.90
586.58	37.45
586.74	70.22
586.90	46.81
587.06	63.19
587.22	63.19
587.38	51.49
587.54	72.56
587.70	140.43
587.86	159.16
588.02	250.44
588.18	180.22
588.34	140.43
588.49	0.00
588.65	16.38
588.81	84.26
588.97	79.58
589.13	49.15
589.29	21.06
589.45	84.26
589.61	84.26
589.77	88.94
589.93	0.00
590.08	4.68
590.24	63.19
590.40	81.92
590.56	39.79
590.72	44.47
590.88	0.00
591.04	11.70
591.20	0.00
591.35	117.03
591.51	0.00
591.67	16.38
591.83	77.24
591.99	7.02
592.15	91.28
592.31	88.94
592.46	0.00
592.62	30.43
592.78	0.00
592.94	70.22
593.10	46.81
593.26	63.19
593.41	7.02
593.57	21.06
593.73	60.85
593.89	53.83
594.05	320.65
594.20	395.55
594.36	320.65
594.52	278.52
594.68	229.37
594.84	166.18
594.99	102.98
595.15	25.75
595.31	98.30
595.47	79.58
595.62	67.88
595.78	42.13
595.94	65.54
596.10	0.00
596.25	18.72
596.41	112.35
596.57	60.85
596.73	100.64
596.88	32.77
597.04	77.24
597.20	133.41
597.36	112.35
597.51	65.54
597.67	35.11
597.83	91.28
597.99	14.04
598.14	42.13
598.30	0.00
598.46	74.90
598.61	42.13
598.77	9.36
598.93	65.54
599.09	4.68
599.24	119.37
599.40	18.72
599.56	0.00
599.71	0.00
599.87	4.68
600.03	0.00
600.18	0.00
600.34	7.02
600.50	2.34
600.65	67.88
600.81	79.58
600.97	18.72
601.12	9.36
601.28	58.51
601.44	28.09
601.59	86.60
601.75	35.11
601.91	63.19
602.06	2.34
602.22	88.94
602.37	119.37
602.53	100.64
602.69	156.82
602.84	177.88
603.00	91.28
603.16	16.38
603.31	0.00
603.47	84.26
603.62	0.00
603.78	44.47
603.94	0.00
604.09	79.58
604.25	72.56
604.40	98.30
604.56	0.00
604.71	25.75
604.87	32.77
605.03	49.15
605.18	44.47
605.34	21.06
605.49	0.00
605.65	79.58
605.80	18.72
605.96	11.70
606.12	0.00
606.27	30.43
606.43	0.00
606.58	0.00
606.74	65.54
606.89	126.39
607.05	269.16
607.20	203.63
607.36	304.27
607.51	205.97
607.67	84.26
607.82	112.35
607.98	98.30
608.13	35.11
608.29	7.02
608.44	0.00
608.60	32.77
608.75	30.43
608.91	121.71
609.06	231.71
609.22	414.27
609.37	500.87
609.53	416.62
609.68	320.65
609.84	234.05
609.99	112.35
610.15	180.22
610.30	25.75
610.46	0.00
610.61	46.81
610.76	46.81
610.92	39.79
611.07	28.09
611.23	72.56
611.38	37.45
611.54	67.88
611.69	0.00
611.84	28.09
612.00	0.00
612.15	81.92
612.31	79.58
612.46	58.51
612.62	35.11
612.77	14.04
612.92	53.83
613.08	16.38
613.23	0.00
613.39	0.00
613.54	93.62
613.69	227.03
613.85	493.85
614.00	823.87
614.15	826.21
614.31	461.09
614.46	421.30
614.62	215.33
614.77	135.75
614.92	65.54
615.08	147.45
615.23	30.43
615.38	42.13
615.54	37.45
615.69	140.43
615.84	203.63
616.00	198.95
616.15	245.76
616.30	208.31
616.46	124.05
616.61	100.64
616.76	138.09
616.92	126.39
617.07	39.79
617.22	39.79
617.37	0.00
617.53	9.36
617.68	49.15
617.83	23.41
617.99	84.26
618.14	81.92
618.29	0.00
618.45	28.09
618.60	0.00
618.75	72.56
618.90	0.00
619.06	16.38
619.21	63.19
619.36	23.41
619.51	93.62
619.67	91.28
619.82	102.98
619.97	67.88
620.12	53.83
620.28	86.60
620.43	100.64
620.58	70.22
620.73	30.43
620.89	58.51
621.04	37.45
621.19	23.41
621.34	110.01
621.49	145.11
621.65	173.20
621.80	91.28
621.95	58.51
622.10	74.90
622.25	53.83
622.41	81.92
622.56	51.49
622.71	23.41
622.86	21.06
623.01	2.34
623.16	0.00
623.32	42.13
623.47	46.81
623.62	93.62
623.77	0.00
623.92	23.41
624.07	11.70
624.23	35.11
624.38	2.34
624.53	51.49
624.68	74.90
624.83	49.15
624.98	28.09
625.13	77.24
625.29	37.45
625.44	0.00
625.59	0.00
625.74	30.43
625.89	14.04
626.04	138.09
626.19	175.54
626.34	463.43
626.49	531.30
626.65	271.50
626.80	212.99
626.95	205.97
627.10	112.35
627.25	37.45
627.40	42.13
627.55	79.58
627.70	60.85
627.85	100.64
628.00	32.77
628.15	42.13
628.30	49.15
628.45	37.45
628.60	77.24
628.76	56.17
628.91	67.88
629.06	112.35
629.21	32.77
629.36	65.54
629.51	72.56
629.66	77.24
629.81	72.56
629.96	56.17
630.11	91.28
630.26	81.92
630.41	227.03
630.56	32.77
630.71	81.92
630.86	42.13
631.01	67.88
631.16	42.13
631.31	84.26
631.46	60.85
631.61	21.06
631.76	60.85
631.91	44.47
632.06	0.00
632.21	131.07
632.36	98.30
632.51	44.47
632.66	14.04
632.81	0.00
632.96	131.07
633.10	252.78
633.25	297.25
633.40	210.65
633.55	154.48
633.70	79.58
633.85	105.32
634.00	32.77
634.15	42.13
634.30	23.41
634.45	18.72
634.60	35.11
634.75	14.04
634.90	28.09
635.05	88.94
635.19	32.77
635.34	39.79
635.49	35.11
635.64	67.88
635.79	67.88
635.94	49.15
636.09	42.13
636.24	53.83
636.39	60.85
636.53	30.43
636.68	60.85
636.83	0.00
636.98	0.00
637.13	119.37
637.28	23.41
637.43	14.04
637.57	35.11
637.72	128.73
637.87	332.36
638.02	526.62
638.17	484.49
638.32	388.53
638.46	264.48
638.61	194.26
638.76	154.48
638.91	53.83
639.06	51.49
639.20	84.26
639.35	39.79
639.50	60.85
639.65	217.67
639.80	465.77
639.94	730.25
640.09	908.13
640.24	648.33
640.39	320.65
640.54	297.25
640.68	63.19
640.83	39.79
640.98	77.24
641.13	0.00
641.27	86.60
641.42	105.32
641.57	28.09
641.72	51.49
641.86	60.85
642.01	98.30
642.16	46.81
642.31	93.62
642.45	53.83
642.60	42.13
642.75	67.88
642.90	46.81
643.04	72.56
643.19	53.83
643.34	37.45
643.48	0.00
643.63	23.41
643.78	58.51
643.93	0.00
644.07	81.92
644.22	67.88
644.37	11.70
644.51	72.56
644.66	16.38
644.81	0.00
644.95	58.51
645.10	32.77
645.25	56.17
645.39	58.51
645.54	67.88
645.69	49.15
645.83	30.43
645.98	32.77
646.13	49.15
646.27	72.56
646.42	32.77
646.57	30.43
646.71	51.49
646.86	49.15
647.00	77.24
647.15	121.71
647.30	51.49
647.44	53.83
647.59	21.06
647.74	28.09
647.88	46.81
648.03	58.51
648.17	0.00
648.32	74.90
648.47	0.00
648.61	0.00
648.76	37.45
648.90	42.13
649.05	39.79
649.20	30.43
649.34	9.36
649.49	88.94
649.63	74.90
649.78	49.15
649.92	126.39
650.07	159.16
650.21	250.44
650.36	418.96
650.51	468.11
650.65	362.78
650.80	250.44
650.94	128.73
651.09	117.03
651.23	142.77
651.38	100.64
651.52	9.36
651.67	0.00
651.81	23.41
651.96	16.38
652.10	28.09
652.25	0.00
652.39	32.77
652.54	42.13
652.68	91.28
652.83	98.30
652.97	145.11
653.12	140.43
653.26	105.32
653.41	154.48
653.55	140.43
653.70	95.96
653.84	32.77
653.99	46.81
654.13	51.49
654.27	23.41
654.42	0.00
654.56	91.28
654.71	51.49
654.85	11.70
655.00	95.96
655.14	84.26
655.29	0.00
655.43	21.06
655.57	39.79
655.72	0.00
655.86	21.06
656.01	4.68
656.15	32.77
656.30	0.00
656.44	14.04
656.58	28.09
656.73	140.43
656.87	30.43
657.01	0.00
657.16	32.77
657.30	16.38
657.45	30.43
657.59	53.83
657.73	112.35
657.88	42.13
658.02	9.36
658.16	9.36
658.31	60.85
658.45	30.43
658.60	63.19
658.74	53.83
658.88	35.11
659.03	46.81
659.17	0.00
659.31	53.83
659.46	110.01
659.60	215.33
659.74	229.37
659.89	189.58
660.03	205.97
660.17	128.73
660.32	100.64
660.46	74.90
660.60	0.00
660.74	58.51
660.89	0.00
661.03	0.00
661.17	58.51
661.32	11.70
661.46	16.38
661.60	49.15
661.74	0.00
661.89	81.92
662.03	37.45
662.17	35.11
662.31	25.75
662.46	0.00
662.60	42.13
662.74	46.81
662.88	0.00
663.03	0.00
663.17	16.38
663.31	0.00
663.45	44.47
663.60	30.43
663.74	16.38
663.88	86.60
664.02	84.26
664.17	9.36
664.31	28.09
664.45	86.60
664.59	7.02
664.73	25.75
664.88	79.58
665.02	44.47
665.16	11.70
665.30	39.79
665.44	58.51
665.59	74.90
665.73	46.81
665.87	91.28
666.01	32.77
666.15	51.49
666.29	88.94
666.44	58.51
666.58	28.09
666.72	0.00
666.86	0.00
667.00	35.11
667.14	58.51
667.28	84.26
667.43	264.48
667.57	327.68
667.71	355.76
667.85	362.78
667.99	234.05
668.13	105.32
668.27	149.79
668.41	95.96
668.56	30.43
668.70	98.30
668.84	37.45
668.98	46.81
669.12	0.00
669.26	67.88
669.40	117.03
669.54	14.04
669.68	53.83
669.82	56.17
669.96	91.28
670.10	0.00
670.25	42.13
670.39	23.41
670.53	37.45
670.67	32.77
670.81	0.00
670.95	91.28
671.09	63.19
671.23	95.96
671.37	88.94
671.51	273.84
671.65	255.12
671.79	229.37
671.93	105.32
672.07	63.19
672.21	56.17
672.35	23.41
672.49	21.06
672.63	49.15
672.77	60.85
672.91	91.28
673.05	56.17
673.19	46.81
673.33	49.15
673.47	2.34
673.61	107.66
673.75	0.00
673.89	0.00
674.03	0.00
674.17	37.45
674.31	39.79
674.45	0.00
674.59	9.36
674.73	23.41
674.87	84.26
675.01	67.88
675.15	9.36
675.29	42.13
675.43	39.79
675.56	46.81
675.70	88.94
675.84	2.34
675.98	42.13
676.12	46.81
676.26	0.00
676.40	14.04
676.54	51.49
676.68	58.51
676.82	53.83
676.96	51.49
677.10	23.41
677.23	77.24
677.37	2.34
677.51	21.06
677.65	0.00
677.79	35.11
677.93	0.00
678.07	91.28
678.21	0.00
678.34	84.26
678.48	49.15
678.62	2.34
678.76	0.00
678.90	51.49
679.04	81.92
679.18	74.90
679.31	21.06
679.45	60.85
679.59	51.49
679.73	0.00
679.87	105.32
680.00	67.88
680.14	58.51
680.28	11.70
680.42	0.00
680.56	84.26
680.70	4.68
680.83	60.85
680.97	0.00
681.11	49.15
681.25	63.19
681.39	32.77
681.52	49.15
681.66	25.75
681.80	0.00
681.94	100.64
682.07	72.56
682.21	23.41
682.35	0.00
682.49	2.34
682.62	0.00
682.76	51.49
682.90	0.00
683.04	46.81
683.17	11.70
683.31	77.24
683.45	23.41
683.59	21.06
683.72	65.54
683.86	23.41
684.00	63.19
684.13	16.38
684.27	21.06
684.41	0.00
684.55	100.64
684.68	23.41
684.82	25.75
684.96	46.81
685.09	44.47
685.23	53.83
685.37	23.41
685.50	42.13
685.64	56.17
685.78	114.69
685.91	0.00
686.05	23.41
686.19	0.00
686.32	0.00
686.46	84.26
686.60	30.43
686.73	23.41
686.87	0.00
687.01	18.72
687.14	0.00
687.28	28.09
687.42	2.34
687.55	63.19
687.69	0.00
687.82	0.00
687.96	44.47
688.10	0.00
688.23	28.09
688.37	53.83
688.50	4.68
688.64	0.00
688.78	77.24
688.91	21.06
689.05	58.51
689.18	49.15
689.32	63.19
689.46	42.13
689.59	91.28
689.73	7.02
689.86	124.05
690.00	81.92
690.13	0.00
690.27	0.00
690.41	21.06
690.54	0.00
690.68	32.77
690.81	81.92
690.95	23.41
691.08	63.19
691.22	49.15
691.35	16.38
691.49	46.81
691.62	0.00
691.76	46.81
691.89	77.24
692.03	23.41
692.16	30.43
692.30	37.45
692.43	42.13
692.57	131.07
692.70	117.03
692.84	145.11
692.97	212.99
693.11	98.30
693.24	65.54
693.38	63.19
693.51	35.11
693.65	0.00
693.78	42.13
693.92	21.06
694.05	9.36
694.19	37.45
694.32	21.06
694.45	35.11
694.59	35.11
694.72	0.00
694.86	30.43
694.99	74.90
695.13	70.22
695.26	14.04
695.39	0.00
695.53	84.26
695.66	63.19
695.80	39.79
695.93	44.47
696.07	30.43
696.20	105.32
696.33	2.34
696.47	14.04
696.60	37.45
696.73	21.06
696.87	28.09
697.00	0.00
697.14	0.00
697.27	28.09
697.40	49.15
697.54	0.00
697.67	81.92
697.80	32.77
697.94	117.03
698.07	23.41
698.21	79.58
698.34	74.90
698.47	0.00
698.61	60.85
698.74	0.00
698.87	39.79
699.01	21.06
699.14	86.60
699.27	9.36
699.40	0.00
699.54	4.68
699.67	88.94
699.80	37.45
699.94	28.09
700.07	28.09
700.20	46.81
700.34	58.51
700.47	4.68
700.60	7.02
700.73	32.77
700.87	0.00
701.00	21.06
701.13	63.19
701.26	0.00
701.40	0.00
701.53	46.81
701.66	42.13
701.79	0.00
701.93	107.66
702.06	21.06
702.19	7.02
702.32	39.79
702.46	46.81
702.59	63.19
702.72	72.56
702.85	119.37
702.99	236.39
703.12	297.25
703.25	299.59
703.38	332.36
703.51	234.05
703.65	189.58
703.78	189.58
703.91	149.79
704.04	79.58
704.17	39.79
704.31	42.13
704.44	18.72
704.57	2.34
704.70	4.68
704.83	74.90
704.96	0.00
705.10	21.06
705.23	0.00
>>>>>End Processed Spectral Data<<<<<
