SpectraSuite Data File
++++++++++++++++++++++++++++++++++++
Date: Fri Oct 04 12:13:42 GMT-05:00 2013
User: price-jones
Dark Spectrum Present: No
Reference Spectrum Present: No
Number of Sampled Component Spectra: 1
Spectrometers: USB2+H05261
Integration Time (usec): 10000 (USB2+H05261)
Spectra Averaged: 1 (USB2+H05261)
Boxcar Smoothing: 0 (USB2+H05261)
Correct for Electrical Dark: No (USB2+H05261)
Strobe/Lamp Enabled: No (USB2+H05261)
Correct for Detector Non-linearity: No (USB2+H05261)
Correct for Stray Light: No (USB2+H05261)
Number of Pixels in Processed Spectrum: 2048
>>>>>Begin Processed Spectral Data<<<<<
365.73	28.09
365.92	28.09
366.12	28.09
366.32	0.00
366.52	0.00
366.72	0.00
366.91	0.00
367.11	0.00
367.31	0.00
367.51	0.00
367.70	0.00
367.90	0.00
368.10	0.00
368.30	0.00
368.49	0.00
368.69	0.00
368.89	0.00
369.09	0.00
369.28	0.00
369.48	0.00
369.68	0.00
369.87	0.00
370.07	0.00
370.27	0.00
370.47	0.00
370.66	0.00
370.86	0.00
371.06	0.00
371.25	0.00
371.45	42.13
371.65	0.00
371.84	63.19
372.04	0.00
372.24	11.70
372.44	18.72
372.63	30.43
372.83	4.68
373.03	0.00
373.22	25.75
373.42	65.54
373.62	0.00
373.81	49.15
374.01	152.13
374.21	65.54
374.40	56.17
374.60	28.09
374.79	21.06
374.99	0.00
375.19	74.90
375.38	32.77
375.58	0.00
375.78	0.00
375.97	42.13
376.17	32.77
376.37	58.51
376.56	46.81
376.76	11.70
376.95	28.09
377.15	0.00
377.35	11.70
377.54	32.77
377.74	32.77
377.93	0.00
378.13	18.72
378.33	0.00
378.52	42.13
378.72	16.38
378.91	42.13
379.11	21.06
379.31	67.88
379.50	0.00
379.70	102.98
379.89	110.01
380.09	84.26
380.28	0.00
380.48	51.49
380.68	30.43
380.87	0.00
381.07	25.75
381.26	7.02
381.46	72.56
381.65	67.88
381.85	9.36
382.04	16.38
382.24	70.22
382.43	7.02
382.63	0.00
382.83	0.00
383.02	9.36
383.22	21.06
383.41	0.00
383.61	18.72
383.80	0.00
384.00	72.56
384.19	65.54
384.39	0.00
384.58	44.47
384.78	23.41
384.97	28.09
385.17	0.00
385.36	18.72
385.56	23.41
385.75	4.68
385.95	0.00
386.14	0.00
386.34	0.00
386.53	0.00
386.72	2.34
386.92	46.81
387.11	70.22
387.31	18.72
387.50	39.79
387.70	0.00
387.89	7.02
388.09	51.49
388.28	35.11
388.48	0.00
388.67	49.15
388.86	42.13
389.06	79.58
389.25	72.56
389.45	67.88
389.64	30.43
389.84	77.24
390.03	53.83
390.22	58.51
390.42	63.19
390.61	65.54
390.81	35.11
391.00	39.79
391.19	32.77
391.39	11.70
391.58	67.88
391.78	98.30
391.97	0.00
392.16	0.00
392.36	32.77
392.55	0.00
392.75	30.43
392.94	0.00
393.13	56.17
393.33	0.00
393.52	63.19
393.71	0.00
393.91	77.24
394.10	25.75
394.29	0.00
394.49	60.85
394.68	0.00
394.88	11.70
395.07	4.68
395.26	28.09
395.46	32.77
395.65	4.68
395.84	53.83
396.04	0.00
396.23	21.06
396.42	0.00
396.62	51.49
396.81	4.68
397.00	74.90
397.19	0.00
397.39	121.71
397.58	4.68
397.77	28.09
397.97	21.06
398.16	21.06
398.35	25.75
398.55	0.00
398.74	0.00
398.93	35.11
399.12	14.04
399.32	53.83
399.51	0.00
399.70	81.92
399.90	4.68
400.09	0.00
400.28	25.75
400.47	46.81
400.67	4.68
400.86	37.45
401.05	28.09
401.24	30.43
401.44	28.09
401.63	28.09
401.82	51.49
402.01	11.70
402.21	21.06
402.40	39.79
402.59	30.43
402.78	86.60
402.97	0.00
403.17	16.38
403.36	7.02
403.55	0.00
403.74	39.79
403.93	23.41
404.13	32.77
404.32	79.58
404.51	0.00
404.70	14.04
404.89	9.36
405.09	0.00
405.28	11.70
405.47	42.13
405.66	42.13
405.85	0.00
406.05	25.75
406.24	39.79
406.43	0.00
406.62	28.09
406.81	100.64
407.00	25.75
407.20	63.19
407.39	79.58
407.58	51.49
407.77	18.72
407.96	28.09
408.15	145.11
408.34	0.00
408.54	53.83
408.73	124.05
408.92	0.00
409.11	56.17
409.30	21.06
409.49	7.02
409.68	18.72
409.87	0.00
410.07	39.79
410.26	84.26
410.45	0.00
410.64	35.11
410.83	95.96
411.02	60.85
411.21	32.77
411.40	11.70
411.59	53.83
411.78	70.22
411.98	0.00
412.17	2.34
412.36	44.47
412.55	0.00
412.74	72.56
412.93	42.13
413.12	37.45
413.31	4.68
413.50	0.00
413.69	16.38
413.88	39.79
414.07	18.72
414.26	0.00
414.45	56.17
414.64	67.88
414.83	0.00
415.02	0.00
415.22	28.09
415.41	60.85
415.60	11.70
415.79	35.11
415.98	28.09
416.17	65.54
416.36	0.00
416.55	42.13
416.74	2.34
416.93	77.24
417.12	23.41
417.31	46.81
417.50	88.94
417.69	16.38
417.88	30.43
418.07	44.47
418.26	67.88
418.45	107.66
418.64	28.09
418.83	46.81
419.02	28.09
419.21	28.09
419.39	46.81
419.58	110.01
419.77	25.75
419.96	37.45
420.15	16.38
420.34	0.00
420.53	65.54
420.72	0.00
420.91	9.36
421.10	95.96
421.29	74.90
421.48	0.00
421.67	32.77
421.86	74.90
422.05	0.00
422.24	9.36
422.43	67.88
422.61	72.56
422.80	53.83
422.99	2.34
423.18	30.43
423.37	56.17
423.56	44.47
423.75	21.06
423.94	23.41
424.13	88.94
424.32	7.02
424.50	53.83
424.69	72.56
424.88	46.81
425.07	39.79
425.26	28.09
425.45	42.13
425.64	51.49
425.83	42.13
426.01	32.77
426.20	65.54
426.39	81.92
426.58	53.83
426.77	39.79
426.96	30.43
427.15	86.60
427.33	23.41
427.52	37.45
427.71	0.00
427.90	77.24
428.09	53.83
428.28	0.00
428.46	7.02
428.65	70.22
428.84	44.47
429.03	74.90
429.22	51.49
429.40	0.00
429.59	0.00
429.78	46.81
429.97	70.22
430.16	79.58
430.34	23.41
430.53	2.34
430.72	0.00
430.91	79.58
431.10	65.54
431.28	21.06
431.47	58.51
431.66	79.58
431.85	0.00
432.03	14.04
432.22	72.56
432.41	14.04
432.60	39.79
432.79	60.85
432.97	0.00
433.16	0.00
433.35	46.81
433.54	0.00
433.72	28.09
433.91	56.17
434.10	35.11
434.28	65.54
434.47	51.49
434.66	84.26
434.85	100.64
435.03	14.04
435.22	72.56
435.41	42.13
435.59	7.02
435.78	39.79
435.97	23.41
436.16	91.28
436.34	67.88
436.53	39.79
436.72	84.26
436.90	114.69
437.09	37.45
437.28	63.19
437.46	0.00
437.65	49.15
437.84	142.77
438.02	46.81
438.21	67.88
438.40	0.00
438.58	0.00
438.77	84.26
438.96	98.30
439.14	56.17
439.33	0.00
439.52	32.77
439.70	53.83
439.89	95.96
440.08	4.68
440.26	100.64
440.45	72.56
440.63	60.85
440.82	18.72
441.01	46.81
441.19	79.58
441.38	74.90
441.57	58.51
441.75	0.00
441.94	39.79
442.12	16.38
442.31	91.28
442.50	63.19
442.68	51.49
442.87	46.81
443.05	42.13
443.24	23.41
443.43	4.68
443.61	51.49
443.80	25.75
443.98	32.77
444.17	107.66
444.35	124.05
444.54	79.58
444.73	63.19
444.91	28.09
445.10	42.13
445.28	18.72
445.47	11.70
445.65	65.54
445.84	44.47
446.02	28.09
446.21	0.00
446.39	7.02
446.58	124.05
446.77	119.37
446.95	28.09
447.14	72.56
447.32	25.75
447.51	81.92
447.69	100.64
447.88	0.00
448.06	28.09
448.25	9.36
448.43	16.38
448.62	79.58
448.80	100.64
448.99	44.47
449.17	28.09
449.36	60.85
449.54	100.64
449.73	93.62
449.91	21.06
450.10	84.26
450.28	88.94
450.46	51.49
450.65	105.32
450.83	53.83
451.02	44.47
451.20	72.56
451.39	100.64
451.57	4.68
451.76	67.88
451.94	4.68
452.13	9.36
452.31	121.71
452.49	56.17
452.68	4.68
452.86	93.62
453.05	65.54
453.23	112.35
453.42	32.77
453.60	0.00
453.78	37.45
453.97	65.54
454.15	86.60
454.34	60.85
454.52	14.04
454.70	58.51
454.89	140.43
455.07	25.75
455.26	7.02
455.44	56.17
455.62	81.92
455.81	58.51
455.99	65.54
456.17	28.09
456.36	32.77
456.54	11.70
456.73	39.79
456.91	4.68
457.09	23.41
457.28	46.81
457.46	81.92
457.64	65.54
457.83	25.75
458.01	0.00
458.19	2.34
458.38	37.45
458.56	58.51
458.74	25.75
458.93	65.54
459.11	49.15
459.29	58.51
459.48	72.56
459.66	46.81
459.84	65.54
460.03	102.98
460.21	51.49
460.39	154.48
460.57	53.83
460.76	112.35
460.94	86.60
461.12	102.98
461.31	32.77
461.49	30.43
461.67	18.72
461.85	51.49
462.04	46.81
462.22	159.16
462.40	11.70
462.59	21.06
462.77	63.19
462.95	9.36
463.13	60.85
463.32	93.62
463.50	30.43
463.68	0.00
463.86	9.36
464.05	86.60
464.23	11.70
464.41	84.26
464.59	32.77
464.78	30.43
464.96	49.15
465.14	30.43
465.32	16.38
465.50	56.17
465.69	102.98
465.87	42.13
466.05	63.19
466.23	39.79
466.41	35.11
466.60	11.70
466.78	100.64
466.96	63.19
467.14	79.58
467.32	2.34
467.51	60.85
467.69	14.04
467.87	39.79
468.05	18.72
468.23	77.24
468.41	91.28
468.60	53.83
468.78	81.92
468.96	53.83
469.14	0.00
469.32	70.22
469.50	21.06
469.69	51.49
469.87	58.51
470.05	0.00
470.23	63.19
470.41	28.09
470.59	44.47
470.77	0.00
470.95	119.37
471.14	67.88
471.32	79.58
471.50	117.03
471.68	30.43
471.86	23.41
472.04	35.11
472.22	0.00
472.40	79.58
472.58	98.30
472.77	77.24
472.95	107.66
473.13	65.54
473.31	95.96
473.49	0.00
473.67	67.88
473.85	86.60
474.03	100.64
474.21	23.41
474.39	79.58
474.57	95.96
474.75	60.85
474.93	23.41
475.12	53.83
475.30	128.73
475.48	28.09
475.66	91.28
475.84	77.24
476.02	65.54
476.20	79.58
476.38	81.92
476.56	119.37
476.74	88.94
476.92	63.19
477.10	67.88
477.28	100.64
477.46	46.81
477.64	79.58
477.82	11.70
478.00	44.47
478.18	53.83
478.36	72.56
478.54	72.56
478.72	140.43
478.90	51.49
479.08	18.72
479.26	39.79
479.44	21.06
479.62	102.98
479.80	28.09
479.98	102.98
480.16	67.88
480.34	35.11
480.52	9.36
480.70	100.64
480.88	9.36
481.06	56.17
481.24	100.64
481.41	100.64
481.59	79.58
481.77	84.26
481.95	84.26
482.13	37.45
482.31	11.70
482.49	133.41
482.67	0.00
482.85	70.22
483.03	119.37
483.21	93.62
483.39	58.51
483.57	63.19
483.74	72.56
483.92	18.72
484.10	4.68
484.28	65.54
484.46	44.47
484.64	102.98
484.82	35.11
485.00	35.11
485.18	126.39
485.35	112.35
485.53	102.98
485.71	18.72
485.89	60.85
486.07	65.54
486.25	30.43
486.43	93.62
486.61	63.19
486.78	0.00
486.96	42.13
487.14	91.28
487.32	72.56
487.50	44.47
487.68	98.30
487.85	63.19
488.03	107.66
488.21	23.41
488.39	42.13
488.57	102.98
488.75	60.85
488.92	135.75
489.10	105.32
489.28	11.70
489.46	72.56
489.64	154.48
489.81	95.96
489.99	72.56
490.17	65.54
490.35	74.90
490.53	112.35
490.70	18.72
490.88	39.79
491.06	100.64
491.24	0.00
491.41	102.98
491.59	86.60
491.77	58.51
491.95	88.94
492.13	91.28
492.30	79.58
492.48	39.79
492.66	88.94
492.84	128.73
493.01	63.19
493.19	93.62
493.37	79.58
493.54	81.92
493.72	91.28
493.90	100.64
494.08	30.43
494.25	131.07
494.43	88.94
494.61	63.19
494.79	72.56
494.96	119.37
495.14	58.51
495.32	105.32
495.49	88.94
495.67	84.26
495.85	53.83
496.02	107.66
496.20	86.60
496.38	65.54
496.55	60.85
496.73	88.94
496.91	79.58
497.09	152.13
497.26	100.64
497.44	63.19
497.62	88.94
497.79	100.64
497.97	84.26
498.14	88.94
498.32	98.30
498.50	42.13
498.67	72.56
498.85	95.96
499.03	79.58
499.20	56.17
499.38	173.20
499.56	100.64
499.73	110.01
499.91	112.35
500.08	154.48
500.26	58.51
500.44	107.66
500.61	91.28
500.79	88.94
500.97	86.60
501.14	46.81
501.32	63.19
501.49	30.43
501.67	21.06
501.84	126.39
502.02	84.26
502.20	70.22
502.37	16.38
502.55	95.96
502.72	149.79
502.90	21.06
503.07	105.32
503.25	0.00
503.43	107.66
503.60	32.77
503.78	51.49
503.95	102.98
504.13	58.51
504.30	135.75
504.48	81.92
504.65	84.26
504.83	105.32
505.01	93.62
505.18	37.45
505.36	72.56
505.53	72.56
505.71	88.94
505.88	117.03
506.06	65.54
506.23	30.43
506.41	102.98
506.58	117.03
506.76	42.13
506.93	35.11
507.11	67.88
507.28	98.30
507.46	93.62
507.63	53.83
507.81	37.45
507.98	42.13
508.16	53.83
508.33	58.51
508.50	91.28
508.68	77.24
508.85	91.28
509.03	220.01
509.20	86.60
509.38	23.41
509.55	63.19
509.73	91.28
509.90	86.60
510.08	93.62
510.25	67.88
510.42	110.01
510.60	98.30
510.77	25.75
510.95	39.79
511.12	70.22
511.30	93.62
511.47	77.24
511.64	98.30
511.82	74.90
511.99	128.73
512.17	32.77
512.34	28.09
512.51	16.38
512.69	95.96
512.86	105.32
513.04	53.83
513.21	121.71
513.38	128.73
513.56	35.11
513.73	86.60
513.90	86.60
514.08	60.85
514.25	98.30
514.43	74.90
514.60	152.13
514.77	74.90
514.95	74.90
515.12	140.43
515.29	58.51
515.47	42.13
515.64	88.94
515.81	60.85
515.99	28.09
516.16	95.96
516.33	60.85
516.51	58.51
516.68	51.49
516.85	53.83
517.03	93.62
517.20	0.00
517.37	84.26
517.54	114.69
517.72	77.24
517.89	81.92
518.06	102.98
518.24	117.03
518.41	117.03
518.58	119.37
518.75	58.51
518.93	39.79
519.10	60.85
519.27	44.47
519.45	140.43
519.62	93.62
519.79	107.66
519.96	100.64
520.14	0.00
520.31	168.52
520.48	44.47
520.65	126.39
520.83	51.49
521.00	51.49
521.17	67.88
521.34	105.32
521.52	70.22
521.69	102.98
521.86	102.98
522.03	98.30
522.20	16.38
522.38	98.30
522.55	135.75
522.72	30.43
522.89	131.07
523.07	84.26
523.24	44.47
523.41	110.01
523.58	70.22
523.75	142.77
523.92	49.15
524.10	65.54
524.27	51.49
524.44	28.09
524.61	58.51
524.78	72.56
524.96	56.17
525.13	110.01
525.30	28.09
525.47	95.96
525.64	84.26
525.81	121.71
525.98	30.43
526.16	72.56
526.33	102.98
526.50	51.49
526.67	72.56
526.84	37.45
527.01	49.15
527.18	98.30
527.36	51.49
527.53	74.90
527.70	102.98
527.87	105.32
528.04	114.69
528.21	135.75
528.38	131.07
528.55	88.94
528.72	102.98
528.89	159.16
529.07	119.37
529.24	46.81
529.41	114.69
529.58	112.35
529.75	93.62
529.92	110.01
530.09	121.71
530.26	135.75
530.43	2.34
530.60	119.37
530.77	91.28
530.94	100.64
531.11	0.00
531.28	93.62
531.46	58.51
531.63	117.03
531.80	135.75
531.97	145.11
532.14	37.45
532.31	53.83
532.48	142.77
532.65	67.88
532.82	30.43
532.99	35.11
533.16	42.13
533.33	86.60
533.50	67.88
533.67	14.04
533.84	58.51
534.01	126.39
534.18	70.22
534.35	100.64
534.52	145.11
534.69	53.83
534.86	37.45
535.03	117.03
535.20	84.26
535.37	0.00
535.54	126.39
535.71	93.62
535.88	86.60
536.05	142.77
536.22	95.96
536.38	124.05
536.55	110.01
536.72	67.88
536.89	88.94
537.06	91.28
537.23	142.77
537.40	28.09
537.57	74.90
537.74	102.98
537.91	72.56
538.08	112.35
538.25	16.38
538.42	149.79
538.59	35.11
538.75	70.22
538.92	58.51
539.09	23.41
539.26	182.56
539.43	145.11
539.60	72.56
539.77	67.88
539.94	81.92
540.11	110.01
540.28	86.60
540.44	72.56
540.61	107.66
540.78	51.49
540.95	126.39
541.12	86.60
541.29	100.64
541.46	102.98
541.62	95.96
541.79	18.72
541.96	42.13
542.13	46.81
542.30	112.35
542.47	110.01
542.63	107.66
542.80	145.11
542.97	112.35
543.14	74.90
543.31	112.35
543.48	138.09
543.64	46.81
543.81	102.98
543.98	46.81
544.15	46.81
544.32	86.60
544.48	95.96
544.65	70.22
544.82	70.22
544.99	72.56
545.16	128.73
545.32	28.09
545.49	37.45
545.66	25.75
545.83	149.79
546.00	49.15
546.16	147.45
546.33	81.92
546.50	44.47
546.67	110.01
546.83	170.86
547.00	53.83
547.17	91.28
547.34	46.81
547.50	121.71
547.67	126.39
547.84	91.28
548.00	147.45
548.17	93.62
548.34	72.56
548.51	81.92
548.67	112.35
548.84	25.75
549.01	100.64
549.18	98.30
549.34	46.81
549.51	133.41
549.68	161.50
549.84	112.35
550.01	102.98
550.18	53.83
550.34	4.68
550.51	79.58
550.68	95.96
550.84	35.11
551.01	0.00
551.18	128.73
551.34	86.60
551.51	60.85
551.68	128.73
551.84	147.45
552.01	110.01
552.18	79.58
552.34	133.41
552.51	74.90
552.68	84.26
552.84	67.88
553.01	84.26
553.18	98.30
553.34	98.30
553.51	56.17
553.67	140.43
553.84	77.24
554.01	138.09
554.17	205.97
554.34	70.22
554.51	149.79
554.67	30.43
554.84	77.24
555.00	100.64
555.17	77.24
555.33	105.32
555.50	128.73
555.67	30.43
555.83	35.11
556.00	44.47
556.16	74.90
556.33	107.66
556.50	142.77
556.66	93.62
556.83	14.04
556.99	91.28
557.16	32.77
557.32	56.17
557.49	63.19
557.65	49.15
557.82	72.56
557.98	39.79
558.15	161.50
558.32	74.90
558.48	32.77
558.65	102.98
558.81	67.88
558.98	42.13
559.14	56.17
559.31	60.85
559.47	114.69
559.64	100.64
559.80	32.77
559.97	51.49
560.13	67.88
560.30	65.54
560.46	77.24
560.63	152.13
560.79	107.66
560.96	91.28
561.12	21.06
561.29	86.60
561.45	60.85
561.61	88.94
561.78	159.16
561.94	100.64
562.11	121.71
562.27	51.49
562.44	23.41
562.60	56.17
562.77	44.47
562.93	135.75
563.10	65.54
563.26	72.56
563.42	56.17
563.59	65.54
563.75	100.64
563.92	107.66
564.08	86.60
564.24	93.62
564.41	102.98
564.57	154.48
564.74	102.98
564.90	147.45
565.07	63.19
565.23	133.41
565.39	39.79
565.56	100.64
565.72	88.94
565.88	86.60
566.05	98.30
566.21	65.54
566.38	53.83
566.54	25.75
566.70	145.11
566.87	110.01
567.03	46.81
567.19	72.56
567.36	2.34
567.52	53.83
567.68	51.49
567.85	145.11
568.01	98.30
568.17	84.26
568.34	67.88
568.50	79.58
568.66	81.92
568.83	60.85
568.99	39.79
569.15	117.03
569.32	65.54
569.48	32.77
569.64	51.49
569.81	88.94
569.97	79.58
570.13	77.24
570.30	133.41
570.46	60.85
570.62	84.26
570.78	53.83
570.95	105.32
571.11	60.85
571.27	53.83
571.43	156.82
571.60	60.85
571.76	51.49
571.92	14.04
572.09	79.58
572.25	16.38
572.41	46.81
572.57	44.47
572.74	86.60
572.90	42.13
573.06	126.39
573.22	161.50
573.38	107.66
573.55	37.45
573.71	72.56
573.87	98.30
574.03	88.94
574.20	49.15
574.36	60.85
574.52	95.96
574.68	77.24
574.84	70.22
575.01	117.03
575.17	98.30
575.33	67.88
575.49	110.01
575.65	135.75
575.82	70.22
575.98	49.15
576.14	100.64
576.30	44.47
576.46	117.03
576.62	81.92
576.79	9.36
576.95	28.09
577.11	79.58
577.27	105.32
577.43	58.51
577.59	60.85
577.75	107.66
577.92	23.41
578.08	81.92
578.24	32.77
578.40	107.66
578.56	81.92
578.72	44.47
578.88	105.32
579.04	112.35
579.21	58.51
579.37	46.81
579.53	51.49
579.69	128.73
579.85	95.96
580.01	86.60
580.17	23.41
580.33	84.26
580.49	74.90
580.65	77.24
580.82	88.94
580.98	70.22
581.14	79.58
581.30	65.54
581.46	11.70
581.62	102.98
581.78	60.85
581.94	42.13
582.10	100.64
582.26	84.26
582.42	60.85
582.58	56.17
582.74	21.06
582.90	138.09
583.06	74.90
583.22	28.09
583.38	84.26
583.54	70.22
583.70	84.26
583.86	95.96
584.02	28.09
584.18	77.24
584.34	88.94
584.50	46.81
584.66	126.39
584.82	105.32
584.98	39.79
585.14	49.15
585.30	119.37
585.46	79.58
585.62	159.16
585.78	110.01
585.94	67.88
586.10	63.19
586.26	91.28
586.42	117.03
586.58	53.83
586.74	77.24
586.90	77.24
587.06	147.45
587.22	74.90
587.38	91.28
587.54	131.07
587.70	30.43
587.86	79.58
588.02	102.98
588.18	91.28
588.34	102.98
588.49	119.37
588.65	46.81
588.81	42.13
588.97	67.88
589.13	145.11
589.29	114.69
589.45	79.58
589.61	53.83
589.77	42.13
589.93	124.05
590.08	28.09
590.24	77.24
590.40	86.60
590.56	70.22
590.72	91.28
590.88	86.60
591.04	88.94
591.20	72.56
591.35	77.24
591.51	93.62
591.67	49.15
591.83	124.05
591.99	60.85
592.15	72.56
592.31	21.06
592.46	138.09
592.62	53.83
592.78	30.43
592.94	177.88
593.10	23.41
593.26	46.81
593.41	67.88
593.57	72.56
593.73	70.22
593.89	11.70
594.05	60.85
594.20	67.88
594.36	119.37
594.52	42.13
594.68	65.54
594.84	105.32
594.99	77.24
595.15	105.32
595.31	63.19
595.47	25.75
595.62	35.11
595.78	70.22
595.94	32.77
596.10	18.72
596.25	37.45
596.41	79.58
596.57	42.13
596.73	81.92
596.88	65.54
597.04	60.85
597.20	28.09
597.36	72.56
597.51	44.47
597.67	86.60
597.83	121.71
597.99	77.24
598.14	114.69
598.30	35.11
598.46	7.02
598.61	2.34
598.77	102.98
598.93	105.32
599.09	105.32
599.24	14.04
599.40	142.77
599.56	53.83
599.71	46.81
599.87	67.88
600.03	114.69
600.18	46.81
600.34	110.01
600.50	126.39
600.65	53.83
600.81	14.04
600.97	126.39
601.12	51.49
601.28	49.15
601.44	102.98
601.59	65.54
601.75	18.72
601.91	65.54
602.06	46.81
602.22	93.62
602.37	65.54
602.53	58.51
602.69	46.81
602.84	98.30
603.00	72.56
603.16	0.00
603.31	44.47
603.47	91.28
603.62	100.64
603.78	93.62
603.94	74.90
604.09	56.17
604.25	156.82
604.40	63.19
604.56	70.22
604.71	53.83
604.87	60.85
605.03	42.13
605.18	63.19
605.34	51.49
605.49	102.98
605.65	67.88
605.80	100.64
605.96	39.79
606.12	42.13
606.27	56.17
606.43	25.75
606.58	95.96
606.74	4.68
606.89	0.00
607.05	107.66
607.20	42.13
607.36	74.90
607.51	39.79
607.67	84.26
607.82	95.96
607.98	124.05
608.13	107.66
608.29	53.83
608.44	105.32
608.60	23.41
608.75	32.77
608.91	60.85
609.06	4.68
609.22	112.35
609.37	91.28
609.53	60.85
609.68	58.51
609.84	2.34
609.99	72.56
610.15	117.03
610.30	72.56
610.46	63.19
610.61	65.54
610.76	63.19
610.92	98.30
611.07	21.06
611.23	65.54
611.38	93.62
611.54	72.56
611.69	77.24
611.84	119.37
612.00	7.02
612.15	98.30
612.31	114.69
612.46	67.88
612.62	56.17
612.77	56.17
612.92	42.13
613.08	100.64
613.23	9.36
613.39	98.30
613.54	84.26
613.69	88.94
613.85	98.30
614.00	16.38
614.15	70.22
614.31	114.69
614.46	112.35
614.62	30.43
614.77	114.69
614.92	23.41
615.08	81.92
615.23	58.51
615.38	81.92
615.54	70.22
615.69	79.58
615.84	28.09
616.00	93.62
616.15	53.83
616.30	107.66
616.46	46.81
616.61	49.15
616.76	58.51
616.92	74.90
617.07	58.51
617.22	16.38
617.37	93.62
617.53	79.58
617.68	70.22
617.83	70.22
617.99	14.04
618.14	58.51
618.29	60.85
618.45	67.88
618.60	28.09
618.75	142.77
618.90	72.56
619.06	77.24
619.21	65.54
619.36	7.02
619.51	98.30
619.67	42.13
619.82	53.83
619.97	67.88
620.12	79.58
620.28	35.11
620.43	70.22
620.58	65.54
620.73	44.47
620.89	58.51
621.04	86.60
621.19	16.38
621.34	0.00
621.49	51.49
621.65	107.66
621.80	72.56
621.95	32.77
622.10	93.62
622.25	44.47
622.41	117.03
622.56	88.94
622.71	51.49
622.86	114.69
623.01	0.00
623.16	67.88
623.32	35.11
623.47	39.79
623.62	65.54
623.77	58.51
623.92	9.36
624.07	65.54
624.23	49.15
624.38	67.88
624.53	70.22
624.68	35.11
624.83	58.51
624.98	86.60
625.13	107.66
625.29	60.85
625.44	0.00
625.59	70.22
625.74	79.58
625.89	18.72
626.04	88.94
626.19	32.77
626.34	23.41
626.49	77.24
626.65	107.66
626.80	100.64
626.95	67.88
627.10	11.70
627.25	49.15
627.40	46.81
627.55	84.26
627.70	56.17
627.85	53.83
628.00	9.36
628.15	100.64
628.30	32.77
628.45	58.51
628.60	39.79
628.76	39.79
628.91	28.09
629.06	53.83
629.21	2.34
629.36	35.11
629.51	53.83
629.66	11.70
629.81	0.00
629.96	53.83
630.11	74.90
630.26	51.49
630.41	56.17
630.56	88.94
630.71	23.41
630.86	0.00
631.01	18.72
631.16	95.96
631.31	65.54
631.46	39.79
631.61	30.43
631.76	42.13
631.91	4.68
632.06	84.26
632.21	21.06
632.36	53.83
632.51	42.13
632.66	67.88
632.81	72.56
632.96	58.51
633.10	74.90
633.25	119.37
633.40	65.54
633.55	21.06
633.70	56.17
633.85	128.73
634.00	91.28
634.15	46.81
634.30	102.98
634.45	105.32
634.60	49.15
634.75	105.32
634.90	93.62
635.05	37.45
635.19	138.09
635.34	81.92
635.49	95.96
635.64	0.00
635.79	119.37
635.94	91.28
636.09	84.26
636.24	28.09
636.39	0.00
636.53	53.83
636.68	21.06
636.83	46.81
636.98	72.56
637.13	23.41
637.28	30.43
637.43	110.01
637.57	110.01
637.72	100.64
637.87	60.85
638.02	37.45
638.17	84.26
638.32	72.56
638.46	86.60
638.61	37.45
638.76	49.15
638.91	7.02
639.06	95.96
639.20	2.34
639.35	84.26
639.50	91.28
639.65	100.64
639.80	49.15
639.94	63.19
640.09	110.01
640.24	7.02
640.39	91.28
640.54	91.28
640.68	18.72
640.83	70.22
640.98	81.92
641.13	58.51
641.27	30.43
641.42	25.75
641.57	91.28
641.72	77.24
641.86	30.43
642.01	51.49
642.16	100.64
642.31	39.79
642.45	95.96
642.60	100.64
642.75	44.47
642.90	42.13
643.04	105.32
643.19	21.06
643.34	35.11
643.48	100.64
643.63	140.43
643.78	91.28
643.93	128.73
644.07	23.41
644.22	49.15
644.37	35.11
644.51	53.83
644.66	79.58
644.81	51.49
644.95	30.43
645.10	37.45
645.25	49.15
645.39	65.54
645.54	72.56
645.69	58.51
645.83	79.58
645.98	56.17
646.13	60.85
646.27	23.41
646.42	105.32
646.57	156.82
646.71	86.60
646.86	56.17
647.00	95.96
647.15	23.41
647.30	39.79
647.44	51.49
647.59	58.51
647.74	72.56
647.88	88.94
648.03	79.58
648.17	88.94
648.32	72.56
648.47	46.81
648.61	67.88
648.76	72.56
648.90	79.58
649.05	42.13
649.20	67.88
649.34	72.56
649.49	100.64
649.63	46.81
649.78	32.77
649.92	65.54
650.07	84.26
650.21	93.62
650.36	74.90
650.51	74.90
650.65	44.47
650.80	25.75
650.94	35.11
651.09	81.92
651.23	46.81
651.38	37.45
651.52	4.68
651.67	74.90
651.81	44.47
651.96	14.04
652.10	124.05
652.25	42.13
652.39	67.88
652.54	37.45
652.68	56.17
652.83	77.24
652.97	91.28
653.12	42.13
653.26	4.68
653.41	119.37
653.55	30.43
653.70	65.54
653.84	110.01
653.99	23.41
654.13	0.00
654.27	79.58
654.42	30.43
654.56	60.85
654.71	23.41
654.85	42.13
655.00	114.69
655.14	37.45
655.29	65.54
655.43	56.17
655.57	0.00
655.72	42.13
655.86	0.00
656.01	60.85
656.15	70.22
656.30	88.94
656.44	102.98
656.58	0.00
656.73	51.49
656.87	28.09
657.01	0.00
657.16	51.49
657.30	23.41
657.45	0.00
657.59	65.54
657.73	124.05
657.88	7.02
658.02	30.43
658.16	84.26
658.31	91.28
658.45	49.15
658.60	114.69
658.74	0.00
658.88	32.77
659.03	37.45
659.17	79.58
659.31	56.17
659.46	39.79
659.60	67.88
659.74	0.00
659.89	32.77
660.03	44.47
660.17	51.49
660.32	0.00
660.46	16.38
660.60	70.22
660.74	42.13
660.89	37.45
661.03	35.11
661.17	32.77
661.32	102.98
661.46	35.11
661.60	63.19
661.74	88.94
661.89	23.41
662.03	37.45
662.17	39.79
662.31	4.68
662.46	93.62
662.60	32.77
662.74	18.72
662.88	74.90
663.03	0.00
663.17	117.03
663.31	93.62
663.45	60.85
663.60	114.69
663.74	100.64
663.88	88.94
664.02	32.77
664.17	60.85
664.31	0.00
664.45	72.56
664.59	70.22
664.73	72.56
664.88	23.41
665.02	81.92
665.16	51.49
665.30	70.22
665.44	53.83
665.59	0.00
665.73	0.00
665.87	44.47
666.01	49.15
666.15	88.94
666.29	95.96
666.44	0.00
666.58	25.75
666.72	110.01
666.86	121.71
667.00	124.05
667.14	70.22
667.28	58.51
667.43	70.22
667.57	42.13
667.71	60.85
667.85	121.71
667.99	98.30
668.13	9.36
668.27	63.19
668.41	58.51
668.56	44.47
668.70	63.19
668.84	9.36
668.98	42.13
669.12	72.56
669.26	77.24
669.40	63.19
669.54	28.09
669.68	42.13
669.82	105.32
669.96	30.43
670.10	16.38
670.25	23.41
670.39	28.09
670.53	42.13
670.67	51.49
670.81	58.51
670.95	121.71
671.09	74.90
671.23	60.85
671.37	11.70
671.51	35.11
671.65	0.00
671.79	56.17
671.93	7.02
672.07	93.62
672.21	112.35
672.35	77.24
672.49	98.30
672.63	91.28
672.77	63.19
672.91	63.19
673.05	44.47
673.19	63.19
673.33	37.45
673.47	105.32
673.61	28.09
673.75	0.00
673.89	2.34
674.03	84.26
674.17	58.51
674.31	25.75
674.45	30.43
674.59	18.72
674.73	23.41
674.87	98.30
675.01	91.28
675.15	58.51
675.29	16.38
675.43	30.43
675.56	60.85
675.70	30.43
675.84	0.00
675.98	70.22
676.12	81.92
676.26	105.32
676.40	56.17
676.54	53.83
676.68	25.75
676.82	49.15
676.96	25.75
677.10	32.77
677.23	65.54
677.37	70.22
677.51	51.49
677.65	4.68
677.79	79.58
677.93	7.02
678.07	126.39
678.21	56.17
678.34	119.37
678.48	44.47
678.62	60.85
678.76	16.38
678.90	4.68
679.04	117.03
679.18	16.38
679.31	0.00
679.45	32.77
679.59	14.04
679.73	46.81
679.87	16.38
680.00	39.79
680.14	0.00
680.28	30.43
680.42	0.00
680.56	131.07
680.70	0.00
680.83	84.26
680.97	2.34
681.11	35.11
681.25	32.77
681.39	32.77
681.52	0.00
681.66	58.51
681.80	32.77
681.94	37.45
682.07	72.56
682.21	0.00
682.35	0.00
682.49	72.56
682.62	21.06
682.76	4.68
682.90	51.49
683.04	42.13
683.17	44.47
683.31	65.54
683.45	46.81
683.59	84.26
683.72	119.37
683.86	21.06
684.00	65.54
684.13	51.49
684.27	0.00
684.41	25.75
684.55	0.00
684.68	65.54
684.82	67.88
684.96	95.96
685.09	79.58
685.23	49.15
685.37	35.11
685.50	65.54
685.64	98.30
685.78	67.88
685.91	107.66
686.05	74.90
686.19	81.92
686.32	114.69
686.46	67.88
686.60	77.24
686.73	9.36
686.87	23.41
687.01	0.00
687.14	4.68
687.28	0.00
687.42	25.75
687.55	28.09
687.69	9.36
687.82	37.45
687.96	23.41
688.10	70.22
688.23	14.04
688.37	126.39
688.50	79.58
688.64	0.00
688.78	18.72
688.91	74.90
689.05	23.41
689.18	56.17
689.32	35.11
689.46	9.36
689.59	16.38
689.73	44.47
689.86	60.85
690.00	60.85
690.13	46.81
690.27	0.00
690.41	49.15
690.54	53.83
690.68	9.36
690.81	42.13
690.95	21.06
691.08	88.94
691.22	58.51
691.35	21.06
691.49	0.00
691.62	9.36
691.76	53.83
691.89	37.45
692.03	72.56
692.16	39.79
692.30	21.06
692.43	21.06
692.57	0.00
692.70	60.85
692.84	102.98
692.97	21.06
693.11	88.94
693.24	32.77
693.38	72.56
693.51	16.38
693.65	37.45
693.78	44.47
693.92	18.72
694.05	37.45
694.19	35.11
694.32	0.00
694.45	95.96
694.59	81.92
694.72	70.22
694.86	77.24
694.99	9.36
695.13	16.38
695.26	9.36
695.39	84.26
695.53	32.77
695.66	7.02
695.80	117.03
695.93	72.56
696.07	70.22
696.20	0.00
696.33	49.15
696.47	0.00
696.60	28.09
696.73	98.30
696.87	28.09
697.00	53.83
697.14	0.00
697.27	67.88
697.40	0.00
697.54	35.11
697.67	74.90
697.80	35.11
697.94	53.83
698.07	86.60
698.21	0.00
698.34	28.09
698.47	98.30
698.61	105.32
698.74	0.00
698.87	70.22
699.01	30.43
699.14	56.17
699.27	95.96
699.40	0.00
699.54	0.00
699.67	0.00
699.80	56.17
699.94	84.26
700.07	67.88
700.20	86.60
700.34	2.34
700.47	56.17
700.60	58.51
700.73	37.45
700.87	37.45
701.00	0.00
701.13	7.02
701.26	30.43
701.40	4.68
701.53	86.60
701.66	0.00
701.79	32.77
701.93	4.68
702.06	58.51
702.19	32.77
702.32	84.26
702.46	58.51
702.59	30.43
702.72	42.13
702.85	56.17
702.99	70.22
703.12	79.58
703.25	77.24
703.38	77.24
703.51	93.62
703.65	30.43
703.78	23.41
703.91	51.49
704.04	58.51
704.17	51.49
704.31	14.04
704.44	14.04
704.57	7.02
704.70	81.92
704.83	58.51
704.96	7.02
705.10	0.00
705.23	42.13
>>>>>End Processed Spectral Data<<<<<
