SpectraSuite Data File
++++++++++++++++++++++++++++++++++++
Date: Fri Oct 04 12:13:35 GMT-05:00 2013
User: price-jones
Dark Spectrum Present: No
Reference Spectrum Present: No
Number of Sampled Component Spectra: 1
Spectrometers: USB2+H05261
Integration Time (usec): 10000 (USB2+H05261)
Spectra Averaged: 1 (USB2+H05261)
Boxcar Smoothing: 0 (USB2+H05261)
Correct for Electrical Dark: No (USB2+H05261)
Strobe/Lamp Enabled: No (USB2+H05261)
Correct for Detector Non-linearity: No (USB2+H05261)
Correct for Stray Light: No (USB2+H05261)
Number of Pixels in Processed Spectrum: 2048
>>>>>Begin Processed Spectral Data<<<<<
365.73	0.00
365.92	0.00
366.12	0.00
366.32	0.00
366.52	0.00
366.72	0.00
366.91	0.00
367.11	0.00
367.31	0.00
367.51	0.00
367.70	0.00
367.90	0.00
368.10	0.00
368.30	0.00
368.49	0.00
368.69	0.00
368.89	0.00
369.09	0.00
369.28	0.00
369.48	0.00
369.68	0.00
369.87	0.00
370.07	0.00
370.27	0.00
370.47	0.00
370.66	0.00
370.86	0.00
371.06	0.00
371.25	0.00
371.45	0.00
371.65	9.36
371.84	0.00
372.04	0.00
372.24	0.00
372.44	28.09
372.63	0.00
372.83	0.00
373.03	21.06
373.22	0.00
373.42	0.00
373.62	0.00
373.81	0.00
374.01	37.45
374.21	46.81
374.40	58.51
374.60	53.83
374.79	9.36
374.99	0.00
375.19	9.36
375.38	0.00
375.58	0.00
375.78	0.00
375.97	39.79
376.17	30.43
376.37	0.00
376.56	16.38
376.76	0.00
376.95	67.88
377.15	0.00
377.35	4.68
377.54	0.00
377.74	0.00
377.93	0.00
378.13	138.09
378.33	72.56
378.52	18.72
378.72	0.00
378.91	0.00
379.11	93.62
379.31	11.70
379.50	4.68
379.70	0.00
379.89	60.85
380.09	28.09
380.28	84.26
380.48	21.06
380.68	0.00
380.87	0.00
381.07	39.79
381.26	0.00
381.46	44.47
381.65	16.38
381.85	58.51
382.04	49.15
382.24	42.13
382.43	2.34
382.63	23.41
382.83	65.54
383.02	0.00
383.22	67.88
383.41	32.77
383.61	23.41
383.80	0.00
384.00	9.36
384.19	4.68
384.39	35.11
384.58	56.17
384.78	30.43
384.97	0.00
385.17	30.43
385.36	30.43
385.56	0.00
385.75	95.96
385.95	0.00
386.14	28.09
386.34	77.24
386.53	23.41
386.72	9.36
386.92	28.09
387.11	0.00
387.31	0.00
387.50	0.00
387.70	35.11
387.89	0.00
388.09	21.06
388.28	30.43
388.48	37.45
388.67	51.49
388.86	0.00
389.06	63.19
389.25	88.94
389.45	0.00
389.64	14.04
389.84	25.75
390.03	21.06
390.22	0.00
390.42	70.22
390.61	56.17
390.81	51.49
391.00	7.02
391.19	58.51
391.39	0.00
391.58	63.19
391.78	25.75
391.97	65.54
392.16	2.34
392.36	0.00
392.55	0.00
392.75	102.98
392.94	0.00
393.13	28.09
393.33	0.00
393.52	37.45
393.71	46.81
393.91	0.00
394.10	23.41
394.29	79.58
394.49	46.81
394.68	32.77
394.88	35.11
395.07	35.11
395.26	91.28
395.46	72.56
395.65	65.54
395.84	65.54
396.04	72.56
396.23	44.47
396.42	28.09
396.62	0.00
396.81	9.36
397.00	42.13
397.19	77.24
397.39	0.00
397.58	28.09
397.77	32.77
397.97	77.24
398.16	32.77
398.35	25.75
398.55	51.49
398.74	25.75
398.93	124.05
399.12	4.68
399.32	21.06
399.51	14.04
399.70	0.00
399.90	4.68
400.09	32.77
400.28	74.90
400.47	72.56
400.67	9.36
400.86	35.11
401.05	0.00
401.24	39.79
401.44	32.77
401.63	28.09
401.82	102.98
402.01	21.06
402.21	0.00
402.40	35.11
402.59	0.00
402.78	63.19
402.97	14.04
403.17	121.71
403.36	25.75
403.55	44.47
403.74	0.00
403.93	0.00
404.13	9.36
404.32	9.36
404.51	56.17
404.70	81.92
404.89	25.75
405.09	0.00
405.28	0.00
405.47	0.00
405.66	16.38
405.85	93.62
406.05	37.45
406.24	37.45
406.43	28.09
406.62	74.90
406.81	32.77
407.00	0.00
407.20	63.19
407.39	37.45
407.58	9.36
407.77	42.13
407.96	46.81
408.15	60.85
408.34	30.43
408.54	0.00
408.73	44.47
408.92	65.54
409.11	30.43
409.30	2.34
409.49	30.43
409.68	67.88
409.87	65.54
410.07	9.36
410.26	9.36
410.45	63.19
410.64	77.24
410.83	58.51
411.02	25.75
411.21	84.26
411.40	35.11
411.59	77.24
411.78	28.09
411.98	51.49
412.17	25.75
412.36	0.00
412.55	77.24
412.74	0.00
412.93	0.00
413.12	51.49
413.31	154.48
413.50	46.81
413.69	0.00
413.88	53.83
414.07	23.41
414.26	77.24
414.45	0.00
414.64	0.00
414.83	53.83
415.02	65.54
415.22	105.32
415.41	11.70
415.60	53.83
415.79	11.70
415.98	0.00
416.17	0.00
416.36	86.60
416.55	121.71
416.74	35.11
416.93	14.04
417.12	56.17
417.31	39.79
417.50	21.06
417.69	25.75
417.88	88.94
418.07	0.00
418.26	23.41
418.45	63.19
418.64	161.50
418.83	114.69
419.02	0.00
419.21	18.72
419.39	46.81
419.58	23.41
419.77	21.06
419.96	44.47
420.15	9.36
420.34	77.24
420.53	107.66
420.72	42.13
420.91	14.04
421.10	63.19
421.29	42.13
421.48	42.13
421.67	53.83
421.86	140.43
422.05	0.00
422.24	18.72
422.43	0.00
422.61	25.75
422.80	56.17
422.99	63.19
423.18	25.75
423.37	79.58
423.56	42.13
423.75	0.00
423.94	4.68
424.13	46.81
424.32	102.98
424.50	7.02
424.69	114.69
424.88	60.85
425.07	25.75
425.26	14.04
425.45	11.70
425.64	56.17
425.83	23.41
426.01	56.17
426.20	2.34
426.39	7.02
426.58	0.00
426.77	0.00
426.96	49.15
427.15	0.00
427.33	44.47
427.52	49.15
427.71	14.04
427.90	46.81
428.09	18.72
428.28	117.03
428.46	70.22
428.65	86.60
428.84	58.51
429.03	49.15
429.22	9.36
429.40	49.15
429.59	70.22
429.78	0.00
429.97	0.00
430.16	93.62
430.34	44.47
430.53	0.00
430.72	21.06
430.91	30.43
431.10	42.13
431.28	51.49
431.47	60.85
431.66	77.24
431.85	23.41
432.03	18.72
432.22	0.00
432.41	32.77
432.60	4.68
432.79	2.34
432.97	56.17
433.16	56.17
433.35	0.00
433.54	0.00
433.72	84.26
433.91	70.22
434.10	70.22
434.28	60.85
434.47	2.34
434.66	79.58
434.85	112.35
435.03	14.04
435.22	86.60
435.41	25.75
435.59	65.54
435.78	46.81
435.97	23.41
436.16	14.04
436.34	84.26
436.53	25.75
436.72	56.17
436.90	7.02
437.09	0.00
437.28	21.06
437.46	18.72
437.65	18.72
437.84	16.38
438.02	58.51
438.21	0.00
438.40	32.77
438.58	60.85
438.77	63.19
438.96	18.72
439.14	63.19
439.33	58.51
439.52	35.11
439.70	84.26
439.89	102.98
440.08	11.70
440.26	88.94
440.45	44.47
440.63	72.56
440.82	14.04
441.01	74.90
441.19	37.45
441.38	63.19
441.57	46.81
441.75	25.75
441.94	100.64
442.12	51.49
442.31	37.45
442.50	42.13
442.68	0.00
442.87	2.34
443.05	42.13
443.24	23.41
443.43	110.01
443.61	112.35
443.80	21.06
443.98	56.17
444.17	23.41
444.35	28.09
444.54	124.05
444.73	51.49
444.91	0.00
445.10	114.69
445.28	63.19
445.47	21.06
445.65	65.54
445.84	70.22
446.02	102.98
446.21	0.00
446.39	44.47
446.58	107.66
446.77	9.36
446.95	72.56
447.14	70.22
447.32	65.54
447.51	42.13
447.69	23.41
447.88	25.75
448.06	84.26
448.25	65.54
448.43	77.24
448.62	7.02
448.80	58.51
448.99	114.69
449.17	67.88
449.36	23.41
449.54	65.54
449.73	37.45
449.91	53.83
450.10	72.56
450.28	37.45
450.46	67.88
450.65	79.58
450.83	39.79
451.02	21.06
451.20	2.34
451.39	51.49
451.57	60.85
451.76	39.79
451.94	18.72
452.13	9.36
452.31	0.00
452.49	67.88
452.68	51.49
452.86	16.38
453.05	42.13
453.23	65.54
453.42	37.45
453.60	74.90
453.78	56.17
453.97	25.75
454.15	81.92
454.34	0.00
454.52	63.19
454.70	35.11
454.89	21.06
455.07	91.28
455.26	91.28
455.44	67.88
455.62	107.66
455.81	100.64
455.99	37.45
456.17	88.94
456.36	77.24
456.54	0.00
456.73	25.75
456.91	42.13
457.09	72.56
457.28	9.36
457.46	30.43
457.64	53.83
457.83	0.00
458.01	102.98
458.19	0.00
458.38	72.56
458.56	2.34
458.74	16.38
458.93	35.11
459.11	32.77
459.29	114.69
459.48	25.75
459.66	32.77
459.84	131.07
460.03	58.51
460.21	2.34
460.39	74.90
460.57	95.96
460.76	100.64
460.94	117.03
461.12	56.17
461.31	0.00
461.49	28.09
461.67	126.39
461.85	42.13
462.04	84.26
462.22	79.58
462.40	63.19
462.59	51.49
462.77	28.09
462.95	37.45
463.13	11.70
463.32	30.43
463.50	70.22
463.68	65.54
463.86	60.85
464.05	32.77
464.23	58.51
464.41	91.28
464.59	105.32
464.78	35.11
464.96	46.81
465.14	91.28
465.32	163.84
465.50	84.26
465.69	32.77
465.87	49.15
466.05	67.88
466.23	28.09
466.41	86.60
466.60	93.62
466.78	91.28
466.96	105.32
467.14	70.22
467.32	32.77
467.51	28.09
467.69	58.51
467.87	86.60
468.05	0.00
468.23	42.13
468.41	0.00
468.60	11.70
468.78	23.41
468.96	49.15
469.14	46.81
469.32	74.90
469.50	51.49
469.69	0.00
469.87	63.19
470.05	25.75
470.23	21.06
470.41	51.49
470.59	51.49
470.77	110.01
470.95	25.75
471.14	102.98
471.32	30.43
471.50	28.09
471.68	46.81
471.86	35.11
472.04	30.43
472.22	84.26
472.40	53.83
472.58	124.05
472.77	81.92
472.95	39.79
473.13	95.96
473.31	49.15
473.49	51.49
473.67	51.49
473.85	21.06
474.03	42.13
474.21	84.26
474.39	86.60
474.57	30.43
474.75	70.22
474.93	58.51
475.12	30.43
475.30	30.43
475.48	70.22
475.66	60.85
475.84	11.70
476.02	81.92
476.20	84.26
476.38	25.75
476.56	147.45
476.74	74.90
476.92	70.22
477.10	25.75
477.28	0.00
477.46	53.83
477.64	56.17
477.82	65.54
478.00	30.43
478.18	65.54
478.36	126.39
478.54	0.00
478.72	53.83
478.90	23.41
479.08	58.51
479.26	60.85
479.44	58.51
479.62	53.83
479.80	70.22
479.98	88.94
480.16	110.01
480.34	58.51
480.52	70.22
480.70	72.56
480.88	58.51
481.06	110.01
481.24	51.49
481.41	79.58
481.59	42.13
481.77	28.09
481.95	67.88
482.13	131.07
482.31	37.45
482.49	107.66
482.67	79.58
482.85	18.72
483.03	91.28
483.21	126.39
483.39	98.30
483.57	135.75
483.74	42.13
483.92	49.15
484.10	65.54
484.28	86.60
484.46	56.17
484.64	30.43
484.82	9.36
485.00	53.83
485.18	32.77
485.35	81.92
485.53	110.01
485.71	67.88
485.89	46.81
486.07	93.62
486.25	9.36
486.43	65.54
486.61	28.09
486.78	21.06
486.96	84.26
487.14	86.60
487.32	0.00
487.50	30.43
487.68	67.88
487.85	81.92
488.03	46.81
488.21	58.51
488.39	91.28
488.57	93.62
488.75	28.09
488.92	60.85
489.10	44.47
489.28	180.22
489.46	121.71
489.64	46.81
489.81	21.06
489.99	63.19
490.17	23.41
490.35	100.64
490.53	63.19
490.70	119.37
490.88	51.49
491.06	65.54
491.24	126.39
491.41	77.24
491.59	0.00
491.77	77.24
491.95	70.22
492.13	53.83
492.30	100.64
492.48	175.54
492.66	117.03
492.84	86.60
493.01	72.56
493.19	49.15
493.37	149.79
493.54	93.62
493.72	72.56
493.90	95.96
494.08	25.75
494.25	18.72
494.43	100.64
494.61	77.24
494.79	23.41
494.96	95.96
495.14	56.17
495.32	60.85
495.49	46.81
495.67	72.56
495.85	117.03
496.02	133.41
496.20	121.71
496.38	117.03
496.55	72.56
496.73	72.56
496.91	117.03
497.09	58.51
497.26	81.92
497.44	63.19
497.62	46.81
497.79	79.58
497.97	51.49
498.14	44.47
498.32	14.04
498.50	98.30
498.67	86.60
498.85	70.22
499.03	67.88
499.20	119.37
499.38	128.73
499.56	100.64
499.73	117.03
499.91	100.64
500.08	65.54
500.26	119.37
500.44	53.83
500.61	86.60
500.79	60.85
500.97	60.85
501.14	21.06
501.32	63.19
501.49	84.26
501.67	79.58
501.84	53.83
502.02	145.11
502.20	74.90
502.37	86.60
502.55	131.07
502.72	79.58
502.90	39.79
503.07	110.01
503.25	140.43
503.43	147.45
503.60	84.26
503.78	56.17
503.95	81.92
504.13	4.68
504.30	84.26
504.48	4.68
504.65	121.71
504.83	131.07
505.01	7.02
505.18	128.73
505.36	110.01
505.53	42.13
505.71	67.88
505.88	114.69
506.06	95.96
506.23	14.04
506.41	105.32
506.58	114.69
506.76	105.32
506.93	79.58
507.11	88.94
507.28	88.94
507.46	93.62
507.63	60.85
507.81	156.82
507.98	110.01
508.16	56.17
508.33	35.11
508.50	74.90
508.68	105.32
508.85	117.03
509.03	18.72
509.20	44.47
509.38	112.35
509.55	128.73
509.73	121.71
509.90	110.01
510.08	107.66
510.25	51.49
510.42	49.15
510.60	124.05
510.77	124.05
510.95	9.36
511.12	93.62
511.30	51.49
511.47	107.66
511.64	98.30
511.82	112.35
511.99	86.60
512.17	128.73
512.34	67.88
512.51	67.88
512.69	121.71
512.86	86.60
513.04	67.88
513.21	63.19
513.38	77.24
513.56	35.11
513.73	51.49
513.90	102.98
514.08	91.28
514.25	79.58
514.43	91.28
514.60	81.92
514.77	107.66
514.95	100.64
515.12	51.49
515.29	119.37
515.47	145.11
515.64	133.41
515.81	100.64
515.99	84.26
516.16	81.92
516.33	72.56
516.51	91.28
516.68	74.90
516.85	0.00
517.03	4.68
517.20	91.28
517.37	105.32
517.54	0.00
517.72	51.49
517.89	88.94
518.06	119.37
518.24	102.98
518.41	14.04
518.58	35.11
518.75	79.58
518.93	112.35
519.10	58.51
519.27	86.60
519.45	51.49
519.62	102.98
519.79	114.69
519.96	67.88
520.14	114.69
520.31	124.05
520.48	18.72
520.65	100.64
520.83	88.94
521.00	28.09
521.17	74.90
521.34	67.88
521.52	124.05
521.69	60.85
521.86	53.83
522.03	32.77
522.20	79.58
522.38	74.90
522.55	84.26
522.72	51.49
522.89	58.51
523.07	9.36
523.24	37.45
523.41	84.26
523.58	81.92
523.75	35.11
523.92	168.52
524.10	58.51
524.27	79.58
524.44	95.96
524.61	88.94
524.78	91.28
524.96	25.75
525.13	74.90
525.30	95.96
525.47	102.98
525.64	79.58
525.81	131.07
525.98	81.92
526.16	60.85
526.33	135.75
526.50	72.56
526.67	21.06
526.84	60.85
527.01	67.88
527.18	119.37
527.36	77.24
527.53	42.13
527.70	56.17
527.87	30.43
528.04	114.69
528.21	81.92
528.38	84.26
528.55	100.64
528.72	114.69
528.89	110.01
529.07	142.77
529.24	46.81
529.41	88.94
529.58	60.85
529.75	114.69
529.92	65.54
530.09	121.71
530.26	81.92
530.43	74.90
530.60	145.11
530.77	119.37
530.94	140.43
531.11	74.90
531.28	79.58
531.46	140.43
531.63	194.26
531.80	119.37
531.97	79.58
532.14	44.47
532.31	63.19
532.48	53.83
532.65	100.64
532.82	72.56
532.99	147.45
533.16	49.15
533.33	81.92
533.50	98.30
533.67	102.98
533.84	74.90
534.01	124.05
534.18	86.60
534.35	95.96
534.52	121.71
534.69	74.90
534.86	131.07
535.03	58.51
535.20	67.88
535.37	9.36
535.54	77.24
535.71	88.94
535.88	74.90
536.05	65.54
536.22	42.13
536.38	81.92
536.55	37.45
536.72	65.54
536.89	86.60
537.06	117.03
537.23	100.64
537.40	126.39
537.57	77.24
537.74	145.11
537.91	142.77
538.08	88.94
538.25	95.96
538.42	170.86
538.59	77.24
538.75	51.49
538.92	135.75
539.09	145.11
539.26	149.79
539.43	102.98
539.60	63.19
539.77	46.81
539.94	114.69
540.11	60.85
540.28	42.13
540.44	79.58
540.61	88.94
540.78	91.28
540.95	121.71
541.12	154.48
541.29	56.17
541.46	86.60
541.62	114.69
541.79	79.58
541.96	30.43
542.13	140.43
542.30	70.22
542.47	149.79
542.63	81.92
542.80	170.86
542.97	124.05
543.14	30.43
543.31	60.85
543.48	98.30
543.64	95.96
543.81	100.64
543.98	72.56
544.15	117.03
544.32	98.30
544.48	77.24
544.65	121.71
544.82	25.75
544.99	77.24
545.16	117.03
545.32	37.45
545.49	110.01
545.66	124.05
545.83	28.09
546.00	126.39
546.16	95.96
546.33	7.02
546.50	86.60
546.67	107.66
546.83	110.01
547.00	67.88
547.17	51.49
547.34	159.16
547.50	91.28
547.67	93.62
547.84	65.54
548.00	67.88
548.17	42.13
548.34	121.71
548.51	133.41
548.67	37.45
548.84	42.13
549.01	93.62
549.18	65.54
549.34	32.77
549.51	163.84
549.68	105.32
549.84	74.90
550.01	119.37
550.18	102.98
550.34	37.45
550.51	124.05
550.68	65.54
550.84	86.60
551.01	21.06
551.18	86.60
551.34	70.22
551.51	46.81
551.68	81.92
551.84	51.49
552.01	86.60
552.18	138.09
552.34	23.41
552.51	42.13
552.68	126.39
552.84	49.15
553.01	102.98
553.18	88.94
553.34	95.96
553.51	138.09
553.67	84.26
553.84	124.05
554.01	117.03
554.17	124.05
554.34	95.96
554.51	84.26
554.67	77.24
554.84	105.32
555.00	131.07
555.17	77.24
555.33	131.07
555.50	110.01
555.67	49.15
555.83	88.94
556.00	126.39
556.16	102.98
556.33	79.58
556.50	18.72
556.66	58.51
556.83	177.88
556.99	70.22
557.16	149.79
557.32	79.58
557.49	100.64
557.65	39.79
557.82	163.84
557.98	107.66
558.15	117.03
558.32	102.98
558.48	72.56
558.65	42.13
558.81	53.83
558.98	16.38
559.14	44.47
559.31	70.22
559.47	91.28
559.64	60.85
559.80	124.05
559.97	117.03
560.13	91.28
560.30	147.45
560.46	117.03
560.63	72.56
560.79	70.22
560.96	114.69
561.12	63.19
561.29	135.75
561.45	35.11
561.61	95.96
561.78	84.26
561.94	133.41
562.11	149.79
562.27	35.11
562.44	131.07
562.60	74.90
562.77	39.79
562.93	37.45
563.10	145.11
563.26	107.66
563.42	107.66
563.59	74.90
563.75	117.03
563.92	51.49
564.08	28.09
564.24	121.71
564.41	91.28
564.57	81.92
564.74	49.15
564.90	42.13
565.07	56.17
565.23	65.54
565.39	107.66
565.56	187.24
565.72	53.83
565.88	70.22
566.05	161.50
566.21	70.22
566.38	147.45
566.54	124.05
566.70	88.94
566.87	37.45
567.03	63.19
567.19	14.04
567.36	21.06
567.52	88.94
567.68	112.35
567.85	28.09
568.01	65.54
568.17	102.98
568.34	77.24
568.50	128.73
568.66	93.62
568.83	138.09
568.99	49.15
569.15	58.51
569.32	39.79
569.48	72.56
569.64	110.01
569.81	32.77
569.97	49.15
570.13	25.75
570.30	98.30
570.46	35.11
570.62	49.15
570.78	44.47
570.95	56.17
571.11	56.17
571.27	140.43
571.43	42.13
571.60	102.98
571.76	86.60
571.92	72.56
572.09	46.81
572.25	72.56
572.41	63.19
572.57	74.90
572.74	79.58
572.90	67.88
573.06	70.22
573.22	44.47
573.38	112.35
573.55	91.28
573.71	70.22
573.87	60.85
574.03	84.26
574.20	58.51
574.36	51.49
574.52	58.51
574.68	72.56
574.84	133.41
575.01	28.09
575.17	124.05
575.33	72.56
575.49	168.52
575.65	44.47
575.82	58.51
575.98	133.41
576.14	86.60
576.30	25.75
576.46	112.35
576.62	119.37
576.79	25.75
576.95	77.24
577.11	0.00
577.27	58.51
577.43	16.38
577.59	133.41
577.75	140.43
577.92	102.98
578.08	147.45
578.24	21.06
578.40	51.49
578.56	107.66
578.72	67.88
578.88	46.81
579.04	16.38
579.21	0.00
579.37	23.41
579.53	93.62
579.69	88.94
579.85	107.66
580.01	102.98
580.17	88.94
580.33	56.17
580.49	107.66
580.65	65.54
580.82	39.79
580.98	77.24
581.14	42.13
581.30	14.04
581.46	117.03
581.62	110.01
581.78	110.01
581.94	110.01
582.10	44.47
582.26	63.19
582.42	63.19
582.58	67.88
582.74	112.35
582.90	93.62
583.06	46.81
583.22	102.98
583.38	91.28
583.54	70.22
583.70	110.01
583.86	126.39
584.02	21.06
584.18	70.22
584.34	67.88
584.50	86.60
584.66	46.81
584.82	110.01
584.98	93.62
585.14	74.90
585.30	140.43
585.46	95.96
585.62	79.58
585.78	65.54
585.94	51.49
586.10	28.09
586.26	49.15
586.42	100.64
586.58	60.85
586.74	0.00
586.90	84.26
587.06	56.17
587.22	131.07
587.38	107.66
587.54	126.39
587.70	46.81
587.86	58.51
588.02	18.72
588.18	74.90
588.34	126.39
588.49	95.96
588.65	30.43
588.81	63.19
588.97	70.22
589.13	65.54
589.29	70.22
589.45	11.70
589.61	81.92
589.77	63.19
589.93	95.96
590.08	65.54
590.24	72.56
590.40	124.05
590.56	77.24
590.72	79.58
590.88	28.09
591.04	51.49
591.20	44.47
591.35	67.88
591.51	65.54
591.67	105.32
591.83	60.85
591.99	18.72
592.15	4.68
592.31	79.58
592.46	46.81
592.62	65.54
592.78	110.01
592.94	23.41
593.10	49.15
593.26	77.24
593.41	16.38
593.57	25.75
593.73	18.72
593.89	86.60
594.05	84.26
594.20	88.94
594.36	119.37
594.52	58.51
594.68	93.62
594.84	44.47
594.99	16.38
595.15	142.77
595.31	81.92
595.47	77.24
595.62	79.58
595.78	0.00
595.94	124.05
596.10	102.98
596.25	74.90
596.41	44.47
596.57	74.90
596.73	126.39
596.88	131.07
597.04	114.69
597.20	39.79
597.36	72.56
597.51	112.35
597.67	107.66
597.83	100.64
597.99	58.51
598.14	46.81
598.30	16.38
598.46	79.58
598.61	70.22
598.77	14.04
598.93	0.00
599.09	100.64
599.24	93.62
599.40	95.96
599.56	63.19
599.71	107.66
599.87	72.56
600.03	51.49
600.18	23.41
600.34	32.77
600.50	77.24
600.65	0.00
600.81	86.60
600.97	138.09
601.12	81.92
601.28	51.49
601.44	77.24
601.59	79.58
601.75	56.17
601.91	30.43
602.06	0.00
602.22	56.17
602.37	37.45
602.53	0.00
602.69	114.69
602.84	65.54
603.00	81.92
603.16	58.51
603.31	21.06
603.47	77.24
603.62	93.62
603.78	39.79
603.94	107.66
604.09	152.13
604.25	60.85
604.40	93.62
604.56	0.00
604.71	0.00
604.87	91.28
605.03	58.51
605.18	21.06
605.34	86.60
605.49	60.85
605.65	46.81
605.80	91.28
605.96	39.79
606.12	46.81
606.27	42.13
606.43	95.96
606.58	128.73
606.74	2.34
606.89	60.85
607.05	28.09
607.20	91.28
607.36	4.68
607.51	63.19
607.67	140.43
607.82	110.01
607.98	88.94
608.13	39.79
608.29	72.56
608.44	93.62
608.60	58.51
608.75	128.73
608.91	70.22
609.06	70.22
609.22	119.37
609.37	0.00
609.53	67.88
609.68	44.47
609.84	107.66
609.99	4.68
610.15	0.00
610.30	119.37
610.46	107.66
610.61	42.13
610.76	86.60
610.92	35.11
611.07	124.05
611.23	114.69
611.38	114.69
611.54	2.34
611.69	39.79
611.84	119.37
612.00	100.64
612.15	84.26
612.31	140.43
612.46	98.30
612.62	58.51
612.77	77.24
612.92	65.54
613.08	51.49
613.23	154.48
613.39	60.85
613.54	44.47
613.69	110.01
613.85	30.43
614.00	77.24
614.15	95.96
614.31	93.62
614.46	81.92
614.62	126.39
614.77	39.79
614.92	77.24
615.08	58.51
615.23	42.13
615.38	74.90
615.54	56.17
615.69	79.58
615.84	11.70
616.00	63.19
616.15	72.56
616.30	21.06
616.46	74.90
616.61	145.11
616.76	79.58
616.92	105.32
617.07	39.79
617.22	72.56
617.37	30.43
617.53	0.00
617.68	105.32
617.83	25.75
617.99	79.58
618.14	149.79
618.29	72.56
618.45	79.58
618.60	72.56
618.75	7.02
618.90	159.16
619.06	56.17
619.21	51.49
619.36	100.64
619.51	77.24
619.67	18.72
619.82	105.32
619.97	88.94
620.12	119.37
620.28	56.17
620.43	110.01
620.58	67.88
620.73	81.92
620.89	81.92
621.04	63.19
621.19	98.30
621.34	98.30
621.49	0.00
621.65	110.01
621.80	23.41
621.95	4.68
622.10	49.15
622.25	67.88
622.41	0.00
622.56	39.79
622.71	51.49
622.86	23.41
623.01	79.58
623.16	35.11
623.32	51.49
623.47	86.60
623.62	117.03
623.77	72.56
623.92	63.19
624.07	14.04
624.23	32.77
624.38	23.41
624.53	119.37
624.68	14.04
624.83	93.62
624.98	9.36
625.13	28.09
625.29	65.54
625.44	18.72
625.59	0.00
625.74	145.11
625.89	23.41
626.04	23.41
626.19	0.00
626.34	21.06
626.49	65.54
626.65	105.32
626.80	91.28
626.95	67.88
627.10	107.66
627.25	65.54
627.40	16.38
627.55	46.81
627.70	25.75
627.85	0.00
628.00	23.41
628.15	42.13
628.30	0.00
628.45	28.09
628.60	42.13
628.76	60.85
628.91	63.19
629.06	56.17
629.21	32.77
629.36	65.54
629.51	81.92
629.66	0.00
629.81	70.22
629.96	121.71
630.11	39.79
630.26	53.83
630.41	46.81
630.56	0.00
630.71	72.56
630.86	70.22
631.01	51.49
631.16	58.51
631.31	131.07
631.46	72.56
631.61	100.64
631.76	102.98
631.91	79.58
632.06	51.49
632.21	9.36
632.36	39.79
632.51	88.94
632.66	142.77
632.81	0.00
632.96	0.00
633.10	51.49
633.25	42.13
633.40	91.28
633.55	86.60
633.70	46.81
633.85	0.00
634.00	0.00
634.15	140.43
634.30	88.94
634.45	63.19
634.60	14.04
634.75	72.56
634.90	65.54
635.05	67.88
635.19	4.68
635.34	91.28
635.49	112.35
635.64	0.00
635.79	77.24
635.94	67.88
636.09	72.56
636.24	91.28
636.39	39.79
636.53	35.11
636.68	60.85
636.83	51.49
636.98	114.69
637.13	49.15
637.28	86.60
637.43	49.15
637.57	46.81
637.72	32.77
637.87	93.62
638.02	56.17
638.17	39.79
638.32	9.36
638.46	56.17
638.61	72.56
638.76	114.69
638.91	16.38
639.06	0.00
639.20	93.62
639.35	65.54
639.50	42.13
639.65	0.00
639.80	18.72
639.94	112.35
640.09	121.71
640.24	91.28
640.39	107.66
640.54	112.35
640.68	70.22
640.83	65.54
640.98	4.68
641.13	77.24
641.27	140.43
641.42	72.56
641.57	63.19
641.72	102.98
641.86	81.92
642.01	9.36
642.16	0.00
642.31	74.90
642.45	46.81
642.60	117.03
642.75	74.90
642.90	128.73
643.04	28.09
643.19	112.35
643.34	53.83
643.48	117.03
643.63	0.00
643.78	84.26
643.93	9.36
644.07	11.70
644.22	86.60
644.37	44.47
644.51	74.90
644.66	51.49
644.81	135.75
644.95	117.03
645.10	91.28
645.25	32.77
645.39	79.58
645.54	112.35
645.69	28.09
645.83	56.17
645.98	21.06
646.13	28.09
646.27	11.70
646.42	67.88
646.57	56.17
646.71	65.54
646.86	65.54
647.00	65.54
647.15	77.24
647.30	63.19
647.44	72.56
647.59	0.00
647.74	35.11
647.88	63.19
648.03	72.56
648.17	56.17
648.32	53.83
648.47	44.47
648.61	86.60
648.76	77.24
648.90	23.41
649.05	44.47
649.20	51.49
649.34	14.04
649.49	65.54
649.63	4.68
649.78	105.32
649.92	21.06
650.07	28.09
650.21	35.11
650.36	72.56
650.51	4.68
650.65	81.92
650.80	16.38
650.94	102.98
651.09	51.49
651.23	100.64
651.38	74.90
651.52	44.47
651.67	60.85
651.81	53.83
651.96	86.60
652.10	100.64
652.25	35.11
652.39	28.09
652.54	81.92
652.68	84.26
652.83	142.77
652.97	117.03
653.12	58.51
653.26	84.26
653.41	53.83
653.55	39.79
653.70	0.00
653.84	16.38
653.99	30.43
654.13	37.45
654.27	133.41
654.42	72.56
654.56	37.45
654.71	93.62
654.85	2.34
655.00	25.75
655.14	23.41
655.29	65.54
655.43	98.30
655.57	67.88
655.72	65.54
655.86	25.75
656.01	21.06
656.15	14.04
656.30	156.82
656.44	35.11
656.58	79.58
656.73	74.90
656.87	70.22
657.01	77.24
657.16	63.19
657.30	53.83
657.45	102.98
657.59	128.73
657.73	37.45
657.88	30.43
658.02	93.62
658.16	28.09
658.31	84.26
658.45	56.17
658.60	0.00
658.74	21.06
658.88	79.58
659.03	49.15
659.17	44.47
659.31	58.51
659.46	0.00
659.60	100.64
659.74	56.17
659.89	65.54
660.03	7.02
660.17	39.79
660.32	0.00
660.46	46.81
660.60	56.17
660.74	86.60
660.89	39.79
661.03	25.75
661.17	105.32
661.32	98.30
661.46	32.77
661.60	58.51
661.74	25.75
661.89	84.26
662.03	9.36
662.17	0.00
662.31	121.71
662.46	25.75
662.60	42.13
662.74	77.24
662.88	37.45
663.03	14.04
663.17	16.38
663.31	107.66
663.45	77.24
663.60	74.90
663.74	18.72
663.88	0.00
664.02	0.00
664.17	0.00
664.31	105.32
664.45	49.15
664.59	67.88
664.73	112.35
664.88	102.98
665.02	14.04
665.16	74.90
665.30	56.17
665.44	53.83
665.59	91.28
665.73	44.47
665.87	53.83
666.01	0.00
666.15	25.75
666.29	56.17
666.44	9.36
666.58	30.43
666.72	72.56
666.86	100.64
667.00	72.56
667.14	0.00
667.28	51.49
667.43	65.54
667.57	53.83
667.71	98.30
667.85	35.11
667.99	84.26
668.13	46.81
668.27	56.17
668.41	0.00
668.56	0.00
668.70	4.68
668.84	2.34
668.98	88.94
669.12	18.72
669.26	28.09
669.40	58.51
669.54	60.85
669.68	42.13
669.82	44.47
669.96	56.17
670.10	37.45
670.25	32.77
670.39	51.49
670.53	70.22
670.67	81.92
670.81	100.64
670.95	35.11
671.09	107.66
671.23	7.02
671.37	86.60
671.51	105.32
671.65	28.09
671.79	30.43
671.93	28.09
672.07	81.92
672.21	72.56
672.35	79.58
672.49	37.45
672.63	98.30
672.77	25.75
672.91	98.30
673.05	102.98
673.19	58.51
673.33	18.72
673.47	121.71
673.61	0.00
673.75	51.49
673.89	51.49
674.03	0.00
674.17	56.17
674.31	39.79
674.45	0.00
674.59	25.75
674.73	65.54
674.87	98.30
675.01	81.92
675.15	16.38
675.29	14.04
675.43	51.49
675.56	117.03
675.70	126.39
675.84	77.24
675.98	2.34
676.12	37.45
676.26	30.43
676.40	39.79
676.54	72.56
676.68	60.85
676.82	126.39
676.96	86.60
677.10	98.30
677.23	67.88
677.37	28.09
677.51	9.36
677.65	18.72
677.79	105.32
677.93	56.17
678.07	16.38
678.21	81.92
678.34	9.36
678.48	35.11
678.62	67.88
678.76	0.00
678.90	0.00
679.04	35.11
679.18	95.96
679.31	60.85
679.45	35.11
679.59	23.41
679.73	60.85
679.87	91.28
680.00	72.56
680.14	110.01
680.28	105.32
680.42	42.13
680.56	88.94
680.70	37.45
680.83	93.62
680.97	39.79
681.11	77.24
681.25	46.81
681.39	0.00
681.52	112.35
681.66	58.51
681.80	86.60
681.94	60.85
682.07	117.03
682.21	72.56
682.35	0.00
682.49	18.72
682.62	35.11
682.76	16.38
682.90	23.41
683.04	60.85
683.17	51.49
683.31	14.04
683.45	44.47
683.59	37.45
683.72	28.09
683.86	51.49
684.00	11.70
684.13	0.00
684.27	67.88
684.41	21.06
684.55	44.47
684.68	0.00
684.82	32.77
684.96	18.72
685.09	46.81
685.23	46.81
685.37	51.49
685.50	42.13
685.64	53.83
685.78	44.47
685.91	28.09
686.05	65.54
686.19	86.60
686.32	100.64
686.46	46.81
686.60	44.47
686.73	46.81
686.87	2.34
687.01	0.00
687.14	7.02
687.28	86.60
687.42	25.75
687.55	58.51
687.69	67.88
687.82	37.45
687.96	0.00
688.10	4.68
688.23	0.00
688.37	53.83
688.50	107.66
688.64	14.04
688.78	81.92
688.91	58.51
689.05	9.36
689.18	58.51
689.32	84.26
689.46	0.00
689.59	72.56
689.73	11.70
689.86	14.04
690.00	74.90
690.13	67.88
690.27	0.00
690.41	67.88
690.54	0.00
690.68	32.77
690.81	11.70
690.95	37.45
691.08	0.00
691.22	67.88
691.35	35.11
691.49	21.06
691.62	46.81
691.76	124.05
691.89	4.68
692.03	0.00
692.16	100.64
692.30	25.75
692.43	74.90
692.57	65.54
692.70	0.00
692.84	28.09
692.97	58.51
693.11	28.09
693.24	56.17
693.38	32.77
693.51	65.54
693.65	77.24
693.78	35.11
693.92	65.54
694.05	56.17
694.19	72.56
694.32	7.02
694.45	93.62
694.59	32.77
694.72	2.34
694.86	67.88
694.99	42.13
695.13	14.04
695.26	35.11
695.39	4.68
695.53	0.00
695.66	18.72
695.80	18.72
695.93	81.92
696.07	28.09
696.20	21.06
696.33	18.72
696.47	4.68
696.60	56.17
696.73	11.70
696.87	0.00
697.00	86.60
697.14	86.60
697.27	9.36
697.40	86.60
697.54	35.11
697.67	28.09
697.80	0.00
697.94	58.51
698.07	74.90
698.21	91.28
698.34	7.02
698.47	53.83
698.61	74.90
698.74	28.09
698.87	79.58
699.01	21.06
699.14	44.47
699.27	0.00
699.40	0.00
699.54	49.15
699.67	7.02
699.80	42.13
699.94	0.00
700.07	32.77
700.20	21.06
700.34	0.00
700.47	0.00
700.60	18.72
700.73	32.77
700.87	14.04
701.00	93.62
701.13	0.00
701.26	0.00
701.40	60.85
701.53	32.77
701.66	86.60
701.79	58.51
701.93	11.70
702.06	37.45
702.19	0.00
702.32	0.00
702.46	2.34
702.59	74.90
702.72	46.81
702.85	121.71
702.99	49.15
703.12	14.04
703.25	28.09
703.38	11.70
703.51	23.41
703.65	74.90
703.78	46.81
703.91	0.00
704.04	102.98
704.17	25.75
704.31	0.00
704.44	32.77
704.57	0.00
704.70	21.06
704.83	42.13
704.96	39.79
705.10	60.85
705.23	11.70
>>>>>End Processed Spectral Data<<<<<
