SpectraSuite Data File
++++++++++++++++++++++++++++++++++++
Date: Fri Oct 04 12:13:26 GMT-05:00 2013
User: price-jones
Dark Spectrum Present: No
Reference Spectrum Present: No
Number of Sampled Component Spectra: 1
Spectrometers: USB2+H05261
Integration Time (usec): 10000 (USB2+H05261)
Spectra Averaged: 1 (USB2+H05261)
Boxcar Smoothing: 0 (USB2+H05261)
Correct for Electrical Dark: No (USB2+H05261)
Strobe/Lamp Enabled: No (USB2+H05261)
Correct for Detector Non-linearity: No (USB2+H05261)
Correct for Stray Light: No (USB2+H05261)
Number of Pixels in Processed Spectrum: 2048
>>>>>Begin Processed Spectral Data<<<<<
365.73	0.00
365.92	0.00
366.12	0.00
366.32	0.00
366.52	0.00
366.72	0.00
366.91	0.00
367.11	0.00
367.31	0.00
367.51	0.00
367.70	0.00
367.90	0.00
368.10	0.00
368.30	0.00
368.49	0.00
368.69	0.00
368.89	0.00
369.09	0.00
369.28	0.00
369.48	0.00
369.68	0.00
369.87	0.00
370.07	0.00
370.27	0.00
370.47	0.00
370.66	0.00
370.86	0.00
371.06	0.00
371.25	0.00
371.45	0.00
371.65	0.00
371.84	0.00
372.04	0.00
372.24	44.47
372.44	35.11
372.63	23.41
372.83	11.70
373.03	0.00
373.22	79.58
373.42	21.06
373.62	93.62
373.81	23.41
374.01	11.70
374.21	2.34
374.40	91.28
374.60	46.81
374.79	0.00
374.99	44.47
375.19	67.88
375.38	0.00
375.58	0.00
375.78	32.77
375.97	37.45
376.17	4.68
376.37	0.00
376.56	51.49
376.76	0.00
376.95	42.13
377.15	2.34
377.35	46.81
377.54	0.00
377.74	30.43
377.93	63.19
378.13	0.00
378.33	42.13
378.52	0.00
378.72	56.17
378.91	0.00
379.11	74.90
379.31	72.56
379.50	0.00
379.70	32.77
379.89	0.00
380.09	39.79
380.28	60.85
380.48	16.38
380.68	7.02
380.87	0.00
381.07	0.00
381.26	0.00
381.46	49.15
381.65	0.00
381.85	0.00
382.04	0.00
382.24	58.51
382.43	53.83
382.63	0.00
382.83	23.41
383.02	46.81
383.22	32.77
383.41	21.06
383.61	11.70
383.80	25.75
384.00	0.00
384.19	42.13
384.39	11.70
384.58	51.49
384.78	44.47
384.97	14.04
385.17	0.00
385.36	0.00
385.56	0.00
385.75	4.68
385.95	49.15
386.14	23.41
386.34	121.71
386.53	4.68
386.72	4.68
386.92	7.02
387.11	0.00
387.31	58.51
387.50	32.77
387.70	7.02
387.89	32.77
388.09	51.49
388.28	0.00
388.48	0.00
388.67	23.41
388.86	25.75
389.06	16.38
389.25	0.00
389.45	9.36
389.64	0.00
389.84	60.85
390.03	0.00
390.22	28.09
390.42	0.00
390.61	4.68
390.81	28.09
391.00	0.00
391.19	0.00
391.39	98.30
391.58	0.00
391.78	49.15
391.97	0.00
392.16	4.68
392.36	21.06
392.55	0.00
392.75	72.56
392.94	35.11
393.13	23.41
393.33	37.45
393.52	0.00
393.71	0.00
393.91	0.00
394.10	11.70
394.29	18.72
394.49	0.00
394.68	91.28
394.88	39.79
395.07	11.70
395.26	63.19
395.46	46.81
395.65	0.00
395.84	0.00
396.04	58.51
396.23	77.24
396.42	7.02
396.62	0.00
396.81	30.43
397.00	56.17
397.19	67.88
397.39	25.75
397.58	0.00
397.77	11.70
397.97	72.56
398.16	42.13
398.35	35.11
398.55	60.85
398.74	0.00
398.93	35.11
399.12	37.45
399.32	32.77
399.51	110.01
399.70	46.81
399.90	4.68
400.09	18.72
400.28	0.00
400.47	30.43
400.67	84.26
400.86	30.43
401.05	0.00
401.24	0.00
401.44	0.00
401.63	25.75
401.82	25.75
402.01	7.02
402.21	0.00
402.40	77.24
402.59	2.34
402.78	53.83
402.97	0.00
403.17	44.47
403.36	93.62
403.55	14.04
403.74	21.06
403.93	0.00
404.13	44.47
404.32	44.47
404.51	42.13
404.70	0.00
404.89	67.88
405.09	32.77
405.28	11.70
405.47	0.00
405.66	16.38
405.85	84.26
406.05	14.04
406.24	37.45
406.43	0.00
406.62	14.04
406.81	72.56
407.00	11.70
407.20	46.81
407.39	21.06
407.58	0.00
407.77	11.70
407.96	0.00
408.15	0.00
408.34	0.00
408.54	28.09
408.73	0.00
408.92	30.43
409.11	51.49
409.30	0.00
409.49	39.79
409.68	18.72
409.87	49.15
410.07	23.41
410.26	0.00
410.45	32.77
410.64	79.58
410.83	93.62
411.02	51.49
411.21	0.00
411.40	0.00
411.59	7.02
411.78	4.68
411.98	21.06
412.17	18.72
412.36	53.83
412.55	0.00
412.74	7.02
412.93	58.51
413.12	67.88
413.31	14.04
413.50	42.13
413.69	35.11
413.88	25.75
414.07	0.00
414.26	39.79
414.45	18.72
414.64	7.02
414.83	58.51
415.02	30.43
415.22	21.06
415.41	32.77
415.60	37.45
415.79	88.94
415.98	72.56
416.17	23.41
416.36	0.00
416.55	37.45
416.74	0.00
416.93	18.72
417.12	0.00
417.31	14.04
417.50	14.04
417.69	42.13
417.88	37.45
418.07	88.94
418.26	16.38
418.45	70.22
418.64	46.81
418.83	74.90
419.02	21.06
419.21	16.38
419.39	49.15
419.58	74.90
419.77	46.81
419.96	23.41
420.15	0.00
420.34	32.77
420.53	16.38
420.72	37.45
420.91	117.03
421.10	9.36
421.29	86.60
421.48	9.36
421.67	58.51
421.86	44.47
422.05	0.00
422.24	46.81
422.43	0.00
422.61	44.47
422.80	18.72
422.99	14.04
423.18	35.11
423.37	91.28
423.56	37.45
423.75	37.45
423.94	23.41
424.13	35.11
424.32	37.45
424.50	0.00
424.69	100.64
424.88	65.54
425.07	98.30
425.26	4.68
425.45	72.56
425.64	70.22
425.83	35.11
426.01	0.00
426.20	46.81
426.39	21.06
426.58	0.00
426.77	39.79
426.96	23.41
427.15	35.11
427.33	39.79
427.52	58.51
427.71	77.24
427.90	105.32
428.09	37.45
428.28	0.00
428.46	44.47
428.65	39.79
428.84	0.00
429.03	0.00
429.22	2.34
429.40	11.70
429.59	0.00
429.78	46.81
429.97	63.19
430.16	0.00
430.34	0.00
430.53	67.88
430.72	70.22
430.91	65.54
431.10	65.54
431.28	30.43
431.47	0.00
431.66	39.79
431.85	46.81
432.03	37.45
432.22	72.56
432.41	16.38
432.60	0.00
432.79	58.51
432.97	37.45
433.16	25.75
433.35	0.00
433.54	124.05
433.72	11.70
433.91	25.75
434.10	88.94
434.28	0.00
434.47	98.30
434.66	11.70
434.85	0.00
435.03	84.26
435.22	18.72
435.41	51.49
435.59	35.11
435.78	0.00
435.97	42.13
436.16	56.17
436.34	56.17
436.53	84.26
436.72	0.00
436.90	37.45
437.09	0.00
437.28	0.00
437.46	44.47
437.65	93.62
437.84	30.43
438.02	42.13
438.21	0.00
438.40	0.00
438.58	39.79
438.77	30.43
438.96	2.34
439.14	49.15
439.33	65.54
439.52	79.58
439.70	21.06
439.89	14.04
440.08	23.41
440.26	77.24
440.45	67.88
440.63	9.36
440.82	35.11
441.01	9.36
441.19	35.11
441.38	0.00
441.57	0.00
441.75	77.24
441.94	0.00
442.12	0.00
442.31	2.34
442.50	49.15
442.68	77.24
442.87	35.11
443.05	2.34
443.24	102.98
443.43	0.00
443.61	105.32
443.80	25.75
443.98	0.00
444.17	7.02
444.35	32.77
444.54	0.00
444.73	21.06
444.91	58.51
445.10	65.54
445.28	56.17
445.47	65.54
445.65	42.13
445.84	46.81
446.02	95.96
446.21	39.79
446.39	58.51
446.58	0.00
446.77	79.58
446.95	51.49
447.14	30.43
447.32	51.49
447.51	32.77
447.69	95.96
447.88	42.13
448.06	30.43
448.25	4.68
448.43	18.72
448.62	63.19
448.80	0.00
448.99	37.45
449.17	0.00
449.36	74.90
449.54	32.77
449.73	0.00
449.91	16.38
450.10	37.45
450.28	147.45
450.46	21.06
450.65	37.45
450.83	60.85
451.02	93.62
451.20	0.00
451.39	35.11
451.57	60.85
451.76	0.00
451.94	2.34
452.13	74.90
452.31	70.22
452.49	81.92
452.68	23.41
452.86	32.77
453.05	72.56
453.23	46.81
453.42	0.00
453.60	0.00
453.78	25.75
453.97	0.00
454.15	21.06
454.34	0.00
454.52	95.96
454.70	44.47
454.89	147.45
455.07	32.77
455.26	46.81
455.44	35.11
455.62	0.00
455.81	23.41
455.99	16.38
456.17	9.36
456.36	32.77
456.54	14.04
456.73	0.00
456.91	0.00
457.09	21.06
457.28	0.00
457.46	23.41
457.64	105.32
457.83	0.00
458.01	0.00
458.19	23.41
458.38	0.00
458.56	98.30
458.74	65.54
458.93	0.00
459.11	39.79
459.29	0.00
459.48	32.77
459.66	23.41
459.84	35.11
460.03	88.94
460.21	14.04
460.39	0.00
460.57	7.02
460.76	46.81
460.94	0.00
461.12	39.79
461.31	2.34
461.49	39.79
461.67	42.13
461.85	0.00
462.04	49.15
462.22	140.43
462.40	0.00
462.59	60.85
462.77	35.11
462.95	70.22
463.13	23.41
463.32	0.00
463.50	107.66
463.68	63.19
463.86	0.00
464.05	9.36
464.23	11.70
464.41	56.17
464.59	23.41
464.78	53.83
464.96	32.77
465.14	35.11
465.32	21.06
465.50	74.90
465.69	0.00
465.87	4.68
466.05	37.45
466.23	2.34
466.41	60.85
466.60	81.92
466.78	51.49
466.96	42.13
467.14	0.00
467.32	4.68
467.51	0.00
467.69	0.00
467.87	23.41
468.05	39.79
468.23	67.88
468.41	81.92
468.60	0.00
468.78	39.79
468.96	93.62
469.14	60.85
469.32	0.00
469.50	0.00
469.69	60.85
469.87	11.70
470.05	67.88
470.23	65.54
470.41	46.81
470.59	39.79
470.77	72.56
470.95	18.72
471.14	0.00
471.32	23.41
471.50	56.17
471.68	28.09
471.86	0.00
472.04	72.56
472.22	42.13
472.40	63.19
472.58	0.00
472.77	74.90
472.95	37.45
473.13	16.38
473.31	16.38
473.49	37.45
473.67	39.79
473.85	72.56
474.03	93.62
474.21	67.88
474.39	9.36
474.57	16.38
474.75	0.00
474.93	25.75
475.12	72.56
475.30	46.81
475.48	70.22
475.66	42.13
475.84	23.41
476.02	56.17
476.20	93.62
476.38	67.88
476.56	4.68
476.74	25.75
476.92	0.00
477.10	21.06
477.28	14.04
477.46	39.79
477.64	25.75
477.82	30.43
478.00	32.77
478.18	74.90
478.36	51.49
478.54	0.00
478.72	42.13
478.90	0.00
479.08	86.60
479.26	58.51
479.44	63.19
479.62	25.75
479.80	7.02
479.98	46.81
480.16	0.00
480.34	56.17
480.52	0.00
480.70	0.00
480.88	0.00
481.06	91.28
481.24	42.13
481.41	37.45
481.59	0.00
481.77	0.00
481.95	0.00
482.13	7.02
482.31	35.11
482.49	0.00
482.67	2.34
482.85	37.45
483.03	7.02
483.21	4.68
483.39	95.96
483.57	86.60
483.74	32.77
483.92	107.66
484.10	9.36
484.28	51.49
484.46	37.45
484.64	70.22
484.82	65.54
485.00	58.51
485.18	35.11
485.35	0.00
485.53	9.36
485.71	0.00
485.89	0.00
486.07	2.34
486.25	25.75
486.43	91.28
486.61	25.75
486.78	9.36
486.96	30.43
487.14	91.28
487.32	86.60
487.50	0.00
487.68	81.92
487.85	70.22
488.03	88.94
488.21	58.51
488.39	7.02
488.57	44.47
488.75	46.81
488.92	14.04
489.10	0.00
489.28	81.92
489.46	51.49
489.64	51.49
489.81	0.00
489.99	23.41
490.17	60.85
490.35	107.66
490.53	0.00
490.70	56.17
490.88	77.24
491.06	4.68
491.24	2.34
491.41	23.41
491.59	0.00
491.77	74.90
491.95	124.05
492.13	42.13
492.30	0.00
492.48	4.68
492.66	42.13
492.84	44.47
493.01	16.38
493.19	79.58
493.37	0.00
493.54	112.35
493.72	0.00
493.90	37.45
494.08	0.00
494.25	65.54
494.43	37.45
494.61	14.04
494.79	2.34
494.96	53.83
495.14	16.38
495.32	21.06
495.49	56.17
495.67	37.45
495.85	91.28
496.02	44.47
496.20	0.00
496.38	0.00
496.55	35.11
496.73	0.00
496.91	46.81
497.09	58.51
497.26	93.62
497.44	21.06
497.62	7.02
497.79	0.00
497.97	60.85
498.14	79.58
498.32	0.00
498.50	131.07
498.67	9.36
498.85	49.15
499.03	23.41
499.20	63.19
499.38	0.00
499.56	119.37
499.73	79.58
499.91	23.41
500.08	11.70
500.26	0.00
500.44	42.13
500.61	93.62
500.79	0.00
500.97	37.45
501.14	53.83
501.32	39.79
501.49	39.79
501.67	37.45
501.84	58.51
502.02	77.24
502.20	58.51
502.37	63.19
502.55	14.04
502.72	9.36
502.90	65.54
503.07	9.36
503.25	51.49
503.43	14.04
503.60	133.41
503.78	28.09
503.95	28.09
504.13	0.00
504.30	0.00
504.48	25.75
504.65	81.92
504.83	25.75
505.01	18.72
505.18	98.30
505.36	0.00
505.53	39.79
505.71	0.00
505.88	72.56
506.06	35.11
506.23	42.13
506.41	42.13
506.58	42.13
506.76	0.00
506.93	14.04
507.11	46.81
507.28	39.79
507.46	7.02
507.63	124.05
507.81	0.00
507.98	86.60
508.16	11.70
508.33	21.06
508.50	98.30
508.68	46.81
508.85	79.58
509.03	44.47
509.20	0.00
509.38	51.49
509.55	16.38
509.73	91.28
509.90	112.35
510.08	58.51
510.25	110.01
510.42	42.13
510.60	110.01
510.77	77.24
510.95	14.04
511.12	14.04
511.30	42.13
511.47	0.00
511.64	56.17
511.82	58.51
511.99	77.24
512.17	117.03
512.34	0.00
512.51	32.77
512.69	56.17
512.86	14.04
513.04	30.43
513.21	0.00
513.38	77.24
513.56	65.54
513.73	58.51
513.90	84.26
514.08	42.13
514.25	95.96
514.43	30.43
514.60	63.19
514.77	102.98
514.95	121.71
515.12	88.94
515.29	37.45
515.47	37.45
515.64	70.22
515.81	86.60
515.99	23.41
516.16	63.19
516.33	51.49
516.51	30.43
516.68	23.41
516.85	0.00
517.03	0.00
517.20	65.54
517.37	53.83
517.54	107.66
517.72	4.68
517.89	77.24
518.06	21.06
518.24	67.88
518.41	74.90
518.58	84.26
518.75	39.79
518.93	42.13
519.10	0.00
519.27	124.05
519.45	0.00
519.62	63.19
519.79	0.00
519.96	65.54
520.14	0.00
520.31	21.06
520.48	4.68
520.65	23.41
520.83	91.28
521.00	51.49
521.17	65.54
521.34	39.79
521.52	65.54
521.69	9.36
521.86	37.45
522.03	110.01
522.20	25.75
522.38	0.00
522.55	53.83
522.72	67.88
522.89	44.47
523.07	72.56
523.24	32.77
523.41	16.38
523.58	35.11
523.75	63.19
523.92	56.17
524.10	0.00
524.27	65.54
524.44	65.54
524.61	95.96
524.78	35.11
524.96	39.79
525.13	9.36
525.30	7.02
525.47	44.47
525.64	18.72
525.81	2.34
525.98	39.79
526.16	28.09
526.33	28.09
526.50	88.94
526.67	51.49
526.84	60.85
527.01	110.01
527.18	11.70
527.36	60.85
527.53	56.17
527.70	110.01
527.87	86.60
528.04	2.34
528.21	32.77
528.38	81.92
528.55	32.77
528.72	77.24
528.89	49.15
529.07	0.00
529.24	32.77
529.41	67.88
529.58	28.09
529.75	49.15
529.92	67.88
530.09	39.79
530.26	2.34
530.43	46.81
530.60	65.54
530.77	35.11
530.94	91.28
531.11	79.58
531.28	88.94
531.46	11.70
531.63	35.11
531.80	112.35
531.97	95.96
532.14	128.73
532.31	37.45
532.48	46.81
532.65	16.38
532.82	56.17
532.99	53.83
533.16	70.22
533.33	74.90
533.50	121.71
533.67	39.79
533.84	67.88
534.01	30.43
534.18	56.17
534.35	18.72
534.52	0.00
534.69	79.58
534.86	79.58
535.03	23.41
535.20	72.56
535.37	58.51
535.54	39.79
535.71	58.51
535.88	37.45
536.05	25.75
536.22	79.58
536.38	39.79
536.55	88.94
536.72	4.68
536.89	32.77
537.06	117.03
537.23	51.49
537.40	77.24
537.57	53.83
537.74	37.45
537.91	56.17
538.08	11.70
538.25	74.90
538.42	60.85
538.59	11.70
538.75	35.11
538.92	23.41
539.09	51.49
539.26	0.00
539.43	16.38
539.60	88.94
539.77	39.79
539.94	114.69
540.11	0.00
540.28	98.30
540.44	67.88
540.61	84.26
540.78	46.81
540.95	23.41
541.12	74.90
541.29	58.51
541.46	105.32
541.62	0.00
541.79	37.45
541.96	86.60
542.13	35.11
542.30	39.79
542.47	0.00
542.63	46.81
542.80	4.68
542.97	46.81
543.14	72.56
543.31	58.51
543.48	56.17
543.64	0.00
543.81	42.13
543.98	86.60
544.15	28.09
544.32	135.75
544.48	9.36
544.65	2.34
544.82	35.11
544.99	93.62
545.16	51.49
545.32	0.00
545.49	49.15
545.66	21.06
545.83	0.00
546.00	32.77
546.16	25.75
546.33	63.19
546.50	60.85
546.67	30.43
546.83	98.30
547.00	39.79
547.17	35.11
547.34	23.41
547.50	63.19
547.67	65.54
547.84	2.34
548.00	37.45
548.17	11.70
548.34	21.06
548.51	25.75
548.67	81.92
548.84	37.45
549.01	81.92
549.18	21.06
549.34	39.79
549.51	49.15
549.68	23.41
549.84	35.11
550.01	51.49
550.18	30.43
550.34	32.77
550.51	7.02
550.68	30.43
550.84	32.77
551.01	11.70
551.18	42.13
551.34	46.81
551.51	0.00
551.68	0.00
551.84	0.00
552.01	74.90
552.18	44.47
552.34	42.13
552.51	25.75
552.68	77.24
552.84	81.92
553.01	0.00
553.18	77.24
553.34	58.51
553.51	67.88
553.67	84.26
553.84	42.13
554.01	70.22
554.17	63.19
554.34	42.13
554.51	21.06
554.67	23.41
554.84	91.28
555.00	67.88
555.17	0.00
555.33	65.54
555.50	23.41
555.67	35.11
555.83	0.00
556.00	93.62
556.16	65.54
556.33	81.92
556.50	14.04
556.66	114.69
556.83	16.38
556.99	51.49
557.16	84.26
557.32	0.00
557.49	25.75
557.65	0.00
557.82	74.90
557.98	2.34
558.15	70.22
558.32	32.77
558.48	0.00
558.65	0.00
558.81	91.28
558.98	56.17
559.14	53.83
559.31	39.79
559.47	9.36
559.64	105.32
559.80	65.54
559.97	49.15
560.13	25.75
560.30	98.30
560.46	18.72
560.63	9.36
560.79	23.41
560.96	0.00
561.12	0.00
561.29	35.11
561.45	4.68
561.61	84.26
561.78	67.88
561.94	23.41
562.11	0.00
562.27	9.36
562.44	39.79
562.60	18.72
562.77	9.36
562.93	0.00
563.10	60.85
563.26	30.43
563.42	67.88
563.59	28.09
563.75	30.43
563.92	46.81
564.08	77.24
564.24	23.41
564.41	56.17
564.57	28.09
564.74	112.35
564.90	0.00
565.07	9.36
565.23	0.00
565.39	42.13
565.56	9.36
565.72	2.34
565.88	77.24
566.05	9.36
566.21	16.38
566.38	124.05
566.54	28.09
566.70	0.00
566.87	14.04
567.03	28.09
567.19	65.54
567.36	100.64
567.52	37.45
567.68	25.75
567.85	65.54
568.01	30.43
568.17	46.81
568.34	21.06
568.50	32.77
568.66	86.60
568.83	58.51
568.99	39.79
569.15	0.00
569.32	30.43
569.48	11.70
569.64	0.00
569.81	81.92
569.97	53.83
570.13	16.38
570.30	100.64
570.46	39.79
570.62	42.13
570.78	0.00
570.95	42.13
571.11	56.17
571.27	0.00
571.43	46.81
571.60	72.56
571.76	0.00
571.92	35.11
572.09	0.00
572.25	81.92
572.41	49.15
572.57	0.00
572.74	0.00
572.90	91.28
573.06	140.43
573.22	23.41
573.38	70.22
573.55	0.00
573.71	9.36
573.87	107.66
574.03	23.41
574.20	46.81
574.36	28.09
574.52	95.96
574.68	46.81
574.84	56.17
575.01	16.38
575.17	25.75
575.33	0.00
575.49	30.43
575.65	18.72
575.82	35.11
575.98	53.83
576.14	11.70
576.30	23.41
576.46	65.54
576.62	0.00
576.79	35.11
576.95	44.47
577.11	107.66
577.27	65.54
577.43	77.24
577.59	0.00
577.75	56.17
577.92	49.15
578.08	119.37
578.24	49.15
578.40	32.77
578.56	0.00
578.72	16.38
578.88	67.88
579.04	51.49
579.21	23.41
579.37	28.09
579.53	49.15
579.69	35.11
579.85	16.38
580.01	42.13
580.17	53.83
580.33	39.79
580.49	84.26
580.65	51.49
580.82	58.51
580.98	0.00
581.14	107.66
581.30	46.81
581.46	56.17
581.62	37.45
581.78	42.13
581.94	39.79
582.10	16.38
582.26	112.35
582.42	70.22
582.58	4.68
582.74	42.13
582.90	51.49
583.06	9.36
583.22	65.54
583.38	88.94
583.54	35.11
583.70	0.00
583.86	86.60
584.02	25.75
584.18	44.47
584.34	42.13
584.50	35.11
584.66	229.37
584.82	533.64
584.98	763.01
585.14	697.48
585.30	414.27
585.46	306.61
585.62	152.13
585.78	128.73
585.94	70.22
586.10	35.11
586.26	35.11
586.42	44.47
586.58	72.56
586.74	32.77
586.90	42.13
587.06	91.28
587.22	35.11
587.38	0.00
587.54	56.17
587.70	84.26
587.86	53.83
588.02	51.49
588.18	63.19
588.34	44.47
588.49	98.30
588.65	39.79
588.81	0.00
588.97	51.49
589.13	25.75
589.29	93.62
589.45	72.56
589.61	23.41
589.77	46.81
589.93	37.45
590.08	0.00
590.24	30.43
590.40	77.24
590.56	11.70
590.72	46.81
590.88	0.00
591.04	42.13
591.20	53.83
591.35	30.43
591.51	72.56
591.67	60.85
591.83	42.13
591.99	0.00
592.15	0.00
592.31	37.45
592.46	21.06
592.62	63.19
592.78	49.15
592.94	67.88
593.10	0.00
593.26	46.81
593.41	44.47
593.57	0.00
593.73	86.60
593.89	67.88
594.05	88.94
594.20	138.09
594.36	135.75
594.52	91.28
594.68	30.43
594.84	11.70
594.99	35.11
595.15	67.88
595.31	56.17
595.47	25.75
595.62	35.11
595.78	23.41
595.94	0.00
596.10	46.81
596.25	49.15
596.41	46.81
596.57	0.00
596.73	11.70
596.88	70.22
597.04	42.13
597.20	0.00
597.36	102.98
597.51	133.41
597.67	0.00
597.83	128.73
597.99	28.09
598.14	39.79
598.30	28.09
598.46	53.83
598.61	0.00
598.77	58.51
598.93	65.54
599.09	51.49
599.24	44.47
599.40	79.58
599.56	2.34
599.71	72.56
599.87	72.56
600.03	9.36
600.18	0.00
600.34	39.79
600.50	0.00
600.65	28.09
600.81	72.56
600.97	23.41
601.12	88.94
601.28	88.94
601.44	77.24
601.59	58.51
601.75	39.79
601.91	39.79
602.06	0.00
602.22	14.04
602.37	107.66
602.53	46.81
602.69	81.92
602.84	28.09
603.00	81.92
603.16	70.22
603.31	86.60
603.47	11.70
603.62	53.83
603.78	77.24
603.94	145.11
604.09	7.02
604.25	39.79
604.40	0.00
604.56	0.00
604.71	9.36
604.87	88.94
605.03	4.68
605.18	49.15
605.34	63.19
605.49	0.00
605.65	88.94
605.80	51.49
605.96	51.49
606.12	39.79
606.27	32.77
606.43	58.51
606.58	37.45
606.74	86.60
606.89	114.69
607.05	105.32
607.20	112.35
607.36	124.05
607.51	98.30
607.67	46.81
607.82	63.19
607.98	9.36
608.13	46.81
608.29	77.24
608.44	11.70
608.60	74.90
608.75	4.68
608.91	65.54
609.06	114.69
609.22	79.58
609.37	128.73
609.53	117.03
609.68	177.88
609.84	53.83
609.99	35.11
610.15	0.00
610.30	35.11
610.46	21.06
610.61	77.24
610.76	30.43
610.92	30.43
611.07	88.94
611.23	100.64
611.38	53.83
611.54	0.00
611.69	18.72
611.84	0.00
612.00	2.34
612.15	18.72
612.31	37.45
612.46	138.09
612.62	114.69
612.77	35.11
612.92	49.15
613.08	42.13
613.23	42.13
613.39	0.00
613.54	77.24
613.69	126.39
613.85	224.69
614.00	177.88
614.15	243.42
614.31	149.79
614.46	135.75
614.62	114.69
614.77	72.56
614.92	46.81
615.08	25.75
615.23	42.13
615.38	28.09
615.54	67.88
615.69	18.72
615.84	86.60
616.00	67.88
616.15	102.98
616.30	32.77
616.46	49.15
616.61	74.90
616.76	91.28
616.92	11.70
617.07	28.09
617.22	37.45
617.37	30.43
617.53	84.26
617.68	4.68
617.83	0.00
617.99	0.00
618.14	39.79
618.29	110.01
618.45	35.11
618.60	44.47
618.75	58.51
618.90	56.17
619.06	74.90
619.21	91.28
619.36	39.79
619.51	25.75
619.67	49.15
619.82	0.00
619.97	53.83
620.12	42.13
620.28	14.04
620.43	44.47
620.58	65.54
620.73	65.54
620.89	9.36
621.04	53.83
621.19	81.92
621.34	70.22
621.49	126.39
621.65	98.30
621.80	11.70
621.95	121.71
622.10	42.13
622.25	81.92
622.41	2.34
622.56	21.06
622.71	0.00
622.86	79.58
623.01	46.81
623.16	51.49
623.32	72.56
623.47	39.79
623.62	14.04
623.77	28.09
623.92	46.81
624.07	11.70
624.23	35.11
624.38	98.30
624.53	21.06
624.68	39.79
624.83	0.00
624.98	21.06
625.13	44.47
625.29	42.13
625.44	0.00
625.59	0.00
625.74	53.83
625.89	63.19
626.04	16.38
626.19	93.62
626.34	159.16
626.49	147.45
626.65	133.41
626.80	88.94
626.95	88.94
627.10	7.02
627.25	37.45
627.40	0.00
627.55	23.41
627.70	65.54
627.85	93.62
628.00	23.41
628.15	35.11
628.30	58.51
628.45	21.06
628.60	32.77
628.76	51.49
628.91	37.45
629.06	81.92
629.21	51.49
629.36	95.96
629.51	2.34
629.66	81.92
629.81	91.28
629.96	37.45
630.11	21.06
630.26	53.83
630.41	46.81
630.56	63.19
630.71	63.19
630.86	32.77
631.01	2.34
631.16	35.11
631.31	0.00
631.46	42.13
631.61	77.24
631.76	4.68
631.91	44.47
632.06	42.13
632.21	21.06
632.36	14.04
632.51	2.34
632.66	67.88
632.81	25.75
632.96	105.32
633.10	107.66
633.25	119.37
633.40	105.32
633.55	95.96
633.70	32.77
633.85	53.83
634.00	32.77
634.15	42.13
634.30	53.83
634.45	93.62
634.60	18.72
634.75	35.11
634.90	28.09
635.05	72.56
635.19	49.15
635.34	32.77
635.49	86.60
635.64	51.49
635.79	9.36
635.94	30.43
636.09	21.06
636.24	88.94
636.39	2.34
636.53	60.85
636.68	0.00
636.83	58.51
636.98	86.60
637.13	42.13
637.28	65.54
637.43	63.19
637.57	0.00
637.72	91.28
637.87	25.75
638.02	196.60
638.17	212.99
638.32	187.24
638.46	79.58
638.61	119.37
638.76	70.22
638.91	49.15
639.06	9.36
639.20	49.15
639.35	37.45
639.50	9.36
639.65	95.96
639.80	215.33
639.94	220.01
640.09	285.55
640.24	241.08
640.39	194.26
640.54	133.41
640.68	107.66
640.83	102.98
640.98	0.00
641.13	0.00
641.27	0.00
641.42	16.38
641.57	0.00
641.72	56.17
641.86	110.01
642.01	46.81
642.16	30.43
642.31	74.90
642.45	88.94
642.60	56.17
642.75	56.17
642.90	28.09
643.04	67.88
643.19	0.00
643.34	0.00
643.48	14.04
643.63	37.45
643.78	67.88
643.93	37.45
644.07	51.49
644.22	11.70
644.37	0.00
644.51	60.85
644.66	67.88
644.81	49.15
644.95	4.68
645.10	9.36
645.25	2.34
645.39	32.77
645.54	7.02
645.69	131.07
645.83	51.49
645.98	88.94
646.13	35.11
646.27	49.15
646.42	58.51
646.57	63.19
646.71	0.00
646.86	86.60
647.00	119.37
647.15	84.26
647.30	37.45
647.44	32.77
647.59	25.75
647.74	0.00
647.88	14.04
648.03	37.45
648.17	11.70
648.32	65.54
648.47	117.03
648.61	30.43
648.76	9.36
648.90	0.00
649.05	0.00
649.20	49.15
649.34	44.47
649.49	0.00
649.63	91.28
649.78	42.13
649.92	60.85
650.07	86.60
650.21	135.75
650.36	117.03
650.51	140.43
650.65	84.26
650.80	88.94
650.94	110.01
651.09	63.19
651.23	16.38
651.38	65.54
651.52	51.49
651.67	60.85
651.81	42.13
651.96	28.09
652.10	16.38
652.25	42.13
652.39	0.00
652.54	28.09
652.68	0.00
652.83	0.00
652.97	18.72
653.12	58.51
653.26	23.41
653.41	79.58
653.55	102.98
653.70	42.13
653.84	77.24
653.99	65.54
654.13	56.17
654.27	25.75
654.42	100.64
654.56	84.26
654.71	11.70
654.85	11.70
655.00	2.34
655.14	0.00
655.29	58.51
655.43	51.49
655.57	30.43
655.72	0.00
655.86	42.13
656.01	35.11
656.15	0.00
656.30	81.92
656.44	25.75
656.58	28.09
656.73	88.94
656.87	70.22
657.01	46.81
657.16	35.11
657.30	42.13
657.45	100.64
657.59	98.30
657.73	53.83
657.88	0.00
658.02	32.77
658.16	23.41
658.31	0.00
658.45	81.92
658.60	0.00
658.74	0.00
658.88	39.79
659.03	11.70
659.17	9.36
659.31	79.58
659.46	0.00
659.60	0.00
659.74	58.51
659.89	23.41
660.03	86.60
660.17	88.94
660.32	63.19
660.46	42.13
660.60	72.56
660.74	30.43
660.89	21.06
661.03	35.11
661.17	0.00
661.32	100.64
661.46	0.00
661.60	18.72
661.74	39.79
661.89	21.06
662.03	60.85
662.17	63.19
662.31	11.70
662.46	42.13
662.60	121.71
662.74	58.51
662.88	56.17
663.03	86.60
663.17	51.49
663.31	4.68
663.45	30.43
663.60	25.75
663.74	65.54
663.88	39.79
664.02	14.04
664.17	58.51
664.31	0.00
664.45	37.45
664.59	51.49
664.73	42.13
664.88	0.00
665.02	86.60
665.16	65.54
665.30	35.11
665.44	39.79
665.59	70.22
665.73	93.62
665.87	30.43
666.01	65.54
666.15	21.06
666.29	2.34
666.44	88.94
666.58	0.00
666.72	112.35
666.86	58.51
667.00	46.81
667.14	0.00
667.28	56.17
667.43	74.90
667.57	81.92
667.71	95.96
667.85	138.09
667.99	93.62
668.13	110.01
668.27	23.41
668.41	51.49
668.56	65.54
668.70	58.51
668.84	46.81
668.98	9.36
669.12	72.56
669.26	21.06
669.40	39.79
669.54	65.54
669.68	58.51
669.82	28.09
669.96	56.17
670.10	30.43
670.25	51.49
670.39	84.26
670.53	58.51
670.67	32.77
670.81	21.06
670.95	46.81
671.09	53.83
671.23	25.75
671.37	44.47
671.51	126.39
671.65	119.37
671.79	86.60
671.93	39.79
672.07	51.49
672.21	4.68
672.35	16.38
672.49	30.43
672.63	46.81
672.77	46.81
672.91	9.36
673.05	79.58
673.19	63.19
673.33	35.11
673.47	25.75
673.61	42.13
673.75	7.02
673.89	0.00
674.03	44.47
674.17	58.51
674.31	35.11
674.45	56.17
674.59	86.60
674.73	84.26
674.87	46.81
675.01	65.54
675.15	0.00
675.29	81.92
675.43	0.00
675.56	60.85
675.70	53.83
675.84	58.51
675.98	0.00
676.12	21.06
676.26	53.83
676.40	42.13
676.54	56.17
676.68	9.36
676.82	0.00
676.96	70.22
677.10	18.72
677.23	0.00
677.37	39.79
677.51	30.43
677.65	28.09
677.79	63.19
677.93	49.15
678.07	46.81
678.21	58.51
678.34	37.45
678.48	0.00
678.62	93.62
678.76	21.06
678.90	0.00
679.04	65.54
679.18	124.05
679.31	23.41
679.45	32.77
679.59	0.00
679.73	58.51
679.87	18.72
680.00	56.17
680.14	79.58
680.28	65.54
680.42	37.45
680.56	32.77
680.70	60.85
680.83	0.00
680.97	60.85
681.11	102.98
681.25	42.13
681.39	53.83
681.52	37.45
681.66	35.11
681.80	39.79
681.94	0.00
682.07	51.49
682.21	72.56
682.35	53.83
682.49	39.79
682.62	0.00
682.76	42.13
682.90	23.41
683.04	88.94
683.17	72.56
683.31	14.04
683.45	67.88
683.59	0.00
683.72	0.00
683.86	4.68
684.00	0.00
684.13	2.34
684.27	30.43
684.41	74.90
684.55	49.15
684.68	28.09
684.82	18.72
684.96	0.00
685.09	25.75
685.23	44.47
685.37	25.75
685.50	81.92
685.64	0.00
685.78	14.04
685.91	18.72
686.05	37.45
686.19	0.00
686.32	53.83
686.46	0.00
686.60	88.94
686.73	0.00
686.87	49.15
687.01	35.11
687.14	0.00
687.28	7.02
687.42	23.41
687.55	11.70
687.69	21.06
687.82	25.75
687.96	77.24
688.10	2.34
688.23	95.96
688.37	44.47
688.50	16.38
688.64	67.88
688.78	4.68
688.91	0.00
689.05	0.00
689.18	86.60
689.32	77.24
689.46	0.00
689.59	65.54
689.73	56.17
689.86	35.11
690.00	35.11
690.13	44.47
690.27	95.96
690.41	93.62
690.54	2.34
690.68	79.58
690.81	0.00
690.95	105.32
691.08	0.00
691.22	28.09
691.35	30.43
691.49	0.00
691.62	42.13
691.76	9.36
691.89	60.85
692.03	88.94
692.16	49.15
692.30	74.90
692.43	28.09
692.57	102.98
692.70	56.17
692.84	51.49
692.97	63.19
693.11	145.11
693.24	70.22
693.38	53.83
693.51	0.00
693.65	88.94
693.78	21.06
693.92	65.54
694.05	21.06
694.19	42.13
694.32	35.11
694.45	21.06
694.59	63.19
694.72	18.72
694.86	21.06
694.99	16.38
695.13	11.70
695.26	28.09
695.39	67.88
695.53	63.19
695.66	35.11
695.80	46.81
695.93	0.00
696.07	44.47
696.20	18.72
696.33	56.17
696.47	23.41
696.60	0.00
696.73	0.00
696.87	32.77
697.00	53.83
697.14	0.00
697.27	0.00
697.40	32.77
697.54	49.15
697.67	39.79
697.80	0.00
697.94	23.41
698.07	7.02
698.21	0.00
698.34	0.00
698.47	0.00
698.61	14.04
698.74	0.00
698.87	37.45
699.01	65.54
699.14	0.00
699.27	124.05
699.40	42.13
699.54	21.06
699.67	44.47
699.80	30.43
699.94	138.09
700.07	0.00
700.20	4.68
700.34	30.43
700.47	53.83
700.60	21.06
700.73	35.11
700.87	25.75
701.00	35.11
701.13	16.38
701.26	42.13
701.40	25.75
701.53	0.00
701.66	2.34
701.79	91.28
701.93	86.60
702.06	63.19
702.19	53.83
702.32	46.81
702.46	16.38
702.59	9.36
702.72	35.11
702.85	42.13
702.99	81.92
703.12	86.60
703.25	110.01
703.38	124.05
703.51	70.22
703.65	42.13
703.78	53.83
703.91	70.22
704.04	124.05
704.17	46.81
704.31	25.75
704.44	39.79
704.57	46.81
704.70	56.17
704.83	0.00
704.96	72.56
705.10	14.04
705.23	0.00
>>>>>End Processed Spectral Data<<<<<
