SpectraSuite Data File
++++++++++++++++++++++++++++++++++++
Date: Fri Oct 04 12:13:34 GMT-05:00 2013
User: price-jones
Dark Spectrum Present: No
Reference Spectrum Present: No
Number of Sampled Component Spectra: 1
Spectrometers: USB2+H05261
Integration Time (usec): 10000 (USB2+H05261)
Spectra Averaged: 1 (USB2+H05261)
Boxcar Smoothing: 0 (USB2+H05261)
Correct for Electrical Dark: No (USB2+H05261)
Strobe/Lamp Enabled: No (USB2+H05261)
Correct for Detector Non-linearity: No (USB2+H05261)
Correct for Stray Light: No (USB2+H05261)
Number of Pixels in Processed Spectrum: 2048
>>>>>Begin Processed Spectral Data<<<<<
365.73	0.00
365.92	0.00
366.12	0.00
366.32	0.00
366.52	0.00
366.72	0.00
366.91	0.00
367.11	0.00
367.31	0.00
367.51	0.00
367.70	0.00
367.90	0.00
368.10	0.00
368.30	0.00
368.49	0.00
368.69	0.00
368.89	0.00
369.09	0.00
369.28	0.00
369.48	0.00
369.68	0.00
369.87	0.00
370.07	0.00
370.27	0.00
370.47	0.00
370.66	0.00
370.86	0.00
371.06	16.38
371.25	0.00
371.45	0.00
371.65	11.70
371.84	0.00
372.04	0.00
372.24	11.70
372.44	0.00
372.63	28.09
372.83	39.79
373.03	0.00
373.22	16.38
373.42	16.38
373.62	95.96
373.81	4.68
374.01	46.81
374.21	58.51
374.40	0.00
374.60	58.51
374.79	30.43
374.99	58.51
375.19	18.72
375.38	44.47
375.58	0.00
375.78	14.04
375.97	0.00
376.17	74.90
376.37	51.49
376.56	119.37
376.76	30.43
376.95	0.00
377.15	30.43
377.35	16.38
377.54	0.00
377.74	46.81
377.93	0.00
378.13	35.11
378.33	81.92
378.52	14.04
378.72	56.17
378.91	0.00
379.11	88.94
379.31	65.54
379.50	39.79
379.70	0.00
379.89	37.45
380.09	0.00
380.28	0.00
380.48	44.47
380.68	7.02
380.87	2.34
381.07	18.72
381.26	16.38
381.46	37.45
381.65	18.72
381.85	18.72
382.04	95.96
382.24	21.06
382.43	4.68
382.63	44.47
382.83	0.00
383.02	72.56
383.22	0.00
383.41	30.43
383.61	0.00
383.80	0.00
384.00	0.00
384.19	0.00
384.39	42.13
384.58	0.00
384.78	4.68
384.97	42.13
385.17	30.43
385.36	56.17
385.56	53.83
385.75	0.00
385.95	35.11
386.14	0.00
386.34	0.00
386.53	72.56
386.72	9.36
386.92	21.06
387.11	0.00
387.31	0.00
387.50	0.00
387.70	16.38
387.89	28.09
388.09	42.13
388.28	0.00
388.48	0.00
388.67	28.09
388.86	0.00
389.06	42.13
389.25	51.49
389.45	51.49
389.64	58.51
389.84	4.68
390.03	0.00
390.22	28.09
390.42	77.24
390.61	25.75
390.81	0.00
391.00	0.00
391.19	79.58
391.39	88.94
391.58	112.35
391.78	0.00
391.97	100.64
392.16	11.70
392.36	53.83
392.55	32.77
392.75	72.56
392.94	23.41
393.13	44.47
393.33	95.96
393.52	23.41
393.71	60.85
393.91	7.02
394.10	9.36
394.29	9.36
394.49	7.02
394.68	25.75
394.88	0.00
395.07	0.00
395.26	0.00
395.46	0.00
395.65	67.88
395.84	23.41
396.04	0.00
396.23	16.38
396.42	0.00
396.62	18.72
396.81	23.41
397.00	30.43
397.19	0.00
397.39	56.17
397.58	21.06
397.77	46.81
397.97	88.94
398.16	25.75
398.35	74.90
398.55	28.09
398.74	18.72
398.93	138.09
399.12	0.00
399.32	65.54
399.51	58.51
399.70	77.24
399.90	0.00
400.09	39.79
400.28	58.51
400.47	79.58
400.67	53.83
400.86	39.79
401.05	58.51
401.24	18.72
401.44	56.17
401.63	0.00
401.82	0.00
402.01	18.72
402.21	39.79
402.40	9.36
402.59	46.81
402.78	4.68
402.97	0.00
403.17	56.17
403.36	30.43
403.55	63.19
403.74	28.09
403.93	49.15
404.13	81.92
404.32	0.00
404.51	16.38
404.70	30.43
404.89	28.09
405.09	25.75
405.28	9.36
405.47	95.96
405.66	56.17
405.85	0.00
406.05	0.00
406.24	39.79
406.43	28.09
406.62	0.00
406.81	25.75
407.00	65.54
407.20	14.04
407.39	0.00
407.58	14.04
407.77	77.24
407.96	18.72
408.15	0.00
408.34	0.00
408.54	79.58
408.73	93.62
408.92	25.75
409.11	70.22
409.30	14.04
409.49	7.02
409.68	18.72
409.87	11.70
410.07	70.22
410.26	63.19
410.45	11.70
410.64	49.15
410.83	128.73
411.02	0.00
411.21	2.34
411.40	51.49
411.59	0.00
411.78	21.06
411.98	30.43
412.17	28.09
412.36	60.85
412.55	65.54
412.74	14.04
412.93	39.79
413.12	51.49
413.31	0.00
413.50	32.77
413.69	60.85
413.88	16.38
414.07	21.06
414.26	7.02
414.45	0.00
414.64	0.00
414.83	51.49
415.02	72.56
415.22	35.11
415.41	86.60
415.60	39.79
415.79	93.62
415.98	44.47
416.17	0.00
416.36	44.47
416.55	65.54
416.74	16.38
416.93	23.41
417.12	51.49
417.31	126.39
417.50	21.06
417.69	88.94
417.88	21.06
418.07	88.94
418.26	39.79
418.45	110.01
418.64	42.13
418.83	18.72
419.02	53.83
419.21	63.19
419.39	28.09
419.58	74.90
419.77	70.22
419.96	70.22
420.15	30.43
420.34	2.34
420.53	77.24
420.72	81.92
420.91	30.43
421.10	0.00
421.29	4.68
421.48	81.92
421.67	51.49
421.86	23.41
422.05	0.00
422.24	35.11
422.43	46.81
422.61	77.24
422.80	32.77
422.99	30.43
423.18	35.11
423.37	0.00
423.56	0.00
423.75	56.17
423.94	0.00
424.13	28.09
424.32	42.13
424.50	74.90
424.69	30.43
424.88	53.83
425.07	35.11
425.26	42.13
425.45	98.30
425.64	60.85
425.83	84.26
426.01	25.75
426.20	0.00
426.39	30.43
426.58	46.81
426.77	58.51
426.96	65.54
427.15	63.19
427.33	58.51
427.52	110.01
427.71	49.15
427.90	67.88
428.09	58.51
428.28	14.04
428.46	74.90
428.65	16.38
428.84	32.77
429.03	72.56
429.22	44.47
429.40	32.77
429.59	25.75
429.78	70.22
429.97	30.43
430.16	44.47
430.34	7.02
430.53	65.54
430.72	14.04
430.91	25.75
431.10	39.79
431.28	4.68
431.47	86.60
431.66	46.81
431.85	84.26
432.03	16.38
432.22	21.06
432.41	91.28
432.60	0.00
432.79	44.47
432.97	18.72
433.16	58.51
433.35	28.09
433.54	37.45
433.72	95.96
433.91	121.71
434.10	0.00
434.28	65.54
434.47	11.70
434.66	7.02
434.85	56.17
435.03	133.41
435.22	70.22
435.41	18.72
435.59	0.00
435.78	9.36
435.97	51.49
436.16	25.75
436.34	67.88
436.53	25.75
436.72	14.04
436.90	25.75
437.09	46.81
437.28	77.24
437.46	67.88
437.65	72.56
437.84	56.17
438.02	42.13
438.21	135.75
438.40	98.30
438.58	30.43
438.77	51.49
438.96	35.11
439.14	4.68
439.33	98.30
439.52	0.00
439.70	0.00
439.89	21.06
440.08	4.68
440.26	21.06
440.45	4.68
440.63	23.41
440.82	53.83
441.01	56.17
441.19	65.54
441.38	72.56
441.57	112.35
441.75	60.85
441.94	72.56
442.12	39.79
442.31	86.60
442.50	37.45
442.68	16.38
442.87	63.19
443.05	58.51
443.24	95.96
443.43	105.32
443.61	84.26
443.80	79.58
443.98	67.88
444.17	114.69
444.35	46.81
444.54	16.38
444.73	117.03
444.91	98.30
445.10	72.56
445.28	51.49
445.47	53.83
445.65	65.54
445.84	182.56
446.02	51.49
446.21	32.77
446.39	95.96
446.58	74.90
446.77	88.94
446.95	79.58
447.14	0.00
447.32	14.04
447.51	51.49
447.69	63.19
447.88	9.36
448.06	110.01
448.25	72.56
448.43	0.00
448.62	0.00
448.80	16.38
448.99	119.37
449.17	79.58
449.36	28.09
449.54	0.00
449.73	105.32
449.91	63.19
450.10	9.36
450.28	32.77
450.46	84.26
450.65	84.26
450.83	98.30
451.02	23.41
451.20	0.00
451.39	56.17
451.57	58.51
451.76	105.32
451.94	0.00
452.13	0.00
452.31	51.49
452.49	7.02
452.68	77.24
452.86	56.17
453.05	30.43
453.23	74.90
453.42	25.75
453.60	32.77
453.78	81.92
453.97	117.03
454.15	84.26
454.34	110.01
454.52	79.58
454.70	0.00
454.89	42.13
455.07	37.45
455.26	98.30
455.44	0.00
455.62	60.85
455.81	91.28
455.99	63.19
456.17	72.56
456.36	84.26
456.54	74.90
456.73	63.19
456.91	110.01
457.09	63.19
457.28	112.35
457.46	100.64
457.64	79.58
457.83	28.09
458.01	72.56
458.19	49.15
458.38	117.03
458.56	32.77
458.74	119.37
458.93	60.85
459.11	32.77
459.29	23.41
459.48	112.35
459.66	72.56
459.84	72.56
460.03	100.64
460.21	46.81
460.39	37.45
460.57	84.26
460.76	53.83
460.94	39.79
461.12	0.00
461.31	79.58
461.49	32.77
461.67	42.13
461.85	65.54
462.04	49.15
462.22	74.90
462.40	18.72
462.59	0.00
462.77	79.58
462.95	56.17
463.13	25.75
463.32	72.56
463.50	100.64
463.68	77.24
463.86	65.54
464.05	74.90
464.23	37.45
464.41	70.22
464.59	35.11
464.78	0.00
464.96	53.83
465.14	42.13
465.32	102.98
465.50	70.22
465.69	9.36
465.87	95.96
466.05	30.43
466.23	30.43
466.41	53.83
466.60	51.49
466.78	32.77
466.96	39.79
467.14	91.28
467.32	67.88
467.51	2.34
467.69	25.75
467.87	35.11
468.05	72.56
468.23	65.54
468.41	74.90
468.60	49.15
468.78	58.51
468.96	18.72
469.14	84.26
469.32	18.72
469.50	21.06
469.69	28.09
469.87	65.54
470.05	42.13
470.23	112.35
470.41	35.11
470.59	11.70
470.77	84.26
470.95	58.51
471.14	81.92
471.32	60.85
471.50	16.38
471.68	138.09
471.86	86.60
472.04	30.43
472.22	0.00
472.40	49.15
472.58	0.00
472.77	88.94
472.95	58.51
473.13	98.30
473.31	11.70
473.49	53.83
473.67	53.83
473.85	51.49
474.03	39.79
474.21	65.54
474.39	79.58
474.57	0.00
474.75	44.47
474.93	86.60
475.12	35.11
475.30	84.26
475.48	100.64
475.66	46.81
475.84	4.68
476.02	81.92
476.20	42.13
476.38	4.68
476.56	74.90
476.74	0.00
476.92	70.22
477.10	70.22
477.28	23.41
477.46	70.22
477.64	131.07
477.82	25.75
478.00	0.00
478.18	32.77
478.36	28.09
478.54	0.00
478.72	67.88
478.90	42.13
479.08	70.22
479.26	79.58
479.44	117.03
479.62	51.49
479.80	63.19
479.98	88.94
480.16	91.28
480.34	58.51
480.52	138.09
480.70	110.01
480.88	44.47
481.06	14.04
481.24	135.75
481.41	37.45
481.59	88.94
481.77	152.13
481.95	81.92
482.13	70.22
482.31	37.45
482.49	154.48
482.67	133.41
482.85	107.66
483.03	117.03
483.21	46.81
483.39	77.24
483.57	49.15
483.74	56.17
483.92	91.28
484.10	124.05
484.28	0.00
484.46	37.45
484.64	46.81
484.82	107.66
485.00	63.19
485.18	86.60
485.35	39.79
485.53	51.49
485.71	63.19
485.89	39.79
486.07	91.28
486.25	105.32
486.43	79.58
486.61	74.90
486.78	49.15
486.96	37.45
487.14	0.00
487.32	37.45
487.50	100.64
487.68	128.73
487.85	72.56
488.03	91.28
488.21	37.45
488.39	140.43
488.57	44.47
488.75	84.26
488.92	70.22
489.10	28.09
489.28	16.38
489.46	67.88
489.64	11.70
489.81	110.01
489.99	84.26
490.17	30.43
490.35	7.02
490.53	30.43
490.70	65.54
490.88	117.03
491.06	65.54
491.24	0.00
491.41	44.47
491.59	21.06
491.77	84.26
491.95	107.66
492.13	70.22
492.30	79.58
492.48	81.92
492.66	133.41
492.84	51.49
493.01	65.54
493.19	9.36
493.37	79.58
493.54	74.90
493.72	88.94
493.90	74.90
494.08	112.35
494.25	112.35
494.43	39.79
494.61	88.94
494.79	98.30
494.96	124.05
495.14	88.94
495.32	74.90
495.49	77.24
495.67	93.62
495.85	0.00
496.02	30.43
496.20	28.09
496.38	112.35
496.55	16.38
496.73	86.60
496.91	77.24
497.09	42.13
497.26	23.41
497.44	77.24
497.62	86.60
497.79	21.06
497.97	117.03
498.14	32.77
498.32	100.64
498.50	84.26
498.67	88.94
498.85	107.66
499.03	91.28
499.20	110.01
499.38	67.88
499.56	81.92
499.73	100.64
499.91	107.66
500.08	39.79
500.26	53.83
500.44	93.62
500.61	147.45
500.79	84.26
500.97	105.32
501.14	88.94
501.32	140.43
501.49	86.60
501.67	135.75
501.84	128.73
502.02	35.11
502.20	74.90
502.37	86.60
502.55	138.09
502.72	126.39
502.90	49.15
503.07	70.22
503.25	9.36
503.43	23.41
503.60	60.85
503.78	74.90
503.95	128.73
504.13	67.88
504.30	32.77
504.48	70.22
504.65	74.90
504.83	70.22
505.01	121.71
505.18	25.75
505.36	140.43
505.53	124.05
505.71	79.58
505.88	79.58
506.06	140.43
506.23	49.15
506.41	86.60
506.58	84.26
506.76	95.96
506.93	79.58
507.11	60.85
507.28	46.81
507.46	95.96
507.63	84.26
507.81	67.88
507.98	128.73
508.16	93.62
508.33	124.05
508.50	100.64
508.68	88.94
508.85	53.83
509.03	46.81
509.20	91.28
509.38	112.35
509.55	44.47
509.73	0.00
509.90	49.15
510.08	140.43
510.25	28.09
510.42	138.09
510.60	124.05
510.77	105.32
510.95	112.35
511.12	84.26
511.30	86.60
511.47	53.83
511.64	110.01
511.82	135.75
511.99	39.79
512.17	44.47
512.34	220.01
512.51	124.05
512.69	60.85
512.86	44.47
513.04	18.72
513.21	168.52
513.38	74.90
513.56	119.37
513.73	91.28
513.90	58.51
514.08	53.83
514.25	42.13
514.43	30.43
514.60	112.35
514.77	74.90
514.95	77.24
515.12	39.79
515.29	74.90
515.47	91.28
515.64	98.30
515.81	159.16
515.99	126.39
516.16	117.03
516.33	105.32
516.51	105.32
516.68	135.75
516.85	135.75
517.03	77.24
517.20	84.26
517.37	119.37
517.54	63.19
517.72	98.30
517.89	56.17
518.06	46.81
518.24	107.66
518.41	72.56
518.58	128.73
518.75	70.22
518.93	128.73
519.10	95.96
519.27	107.66
519.45	105.32
519.62	77.24
519.79	25.75
519.96	81.92
520.14	102.98
520.31	49.15
520.48	35.11
520.65	107.66
520.83	25.75
521.00	107.66
521.17	88.94
521.34	79.58
521.52	105.32
521.69	105.32
521.86	126.39
522.03	79.58
522.20	74.90
522.38	84.26
522.55	70.22
522.72	28.09
522.89	112.35
523.07	140.43
523.24	21.06
523.41	63.19
523.58	74.90
523.75	37.45
523.92	88.94
524.10	23.41
524.27	102.98
524.44	140.43
524.61	86.60
524.78	140.43
524.96	70.22
525.13	86.60
525.30	140.43
525.47	9.36
525.64	86.60
525.81	81.92
525.98	0.00
526.16	49.15
526.33	28.09
526.50	91.28
526.67	105.32
526.84	77.24
527.01	79.58
527.18	88.94
527.36	110.01
527.53	70.22
527.70	114.69
527.87	95.96
528.04	133.41
528.21	84.26
528.38	53.83
528.55	70.22
528.72	74.90
528.89	65.54
529.07	25.75
529.24	95.96
529.41	81.92
529.58	135.75
529.75	98.30
529.92	100.64
530.09	161.50
530.26	72.56
530.43	100.64
530.60	145.11
530.77	100.64
530.94	105.32
531.11	95.96
531.28	70.22
531.46	133.41
531.63	60.85
531.80	149.79
531.97	91.28
532.14	72.56
532.31	84.26
532.48	74.90
532.65	142.77
532.82	65.54
532.99	107.66
533.16	128.73
533.33	124.05
533.50	119.37
533.67	98.30
533.84	72.56
534.01	70.22
534.18	39.79
534.35	156.82
534.52	98.30
534.69	79.58
534.86	65.54
535.03	100.64
535.20	0.00
535.37	37.45
535.54	72.56
535.71	112.35
535.88	100.64
536.05	93.62
536.22	42.13
536.38	98.30
536.55	7.02
536.72	91.28
536.89	70.22
537.06	56.17
537.23	74.90
537.40	93.62
537.57	121.71
537.74	119.37
537.91	79.58
538.08	79.58
538.25	35.11
538.42	79.58
538.59	107.66
538.75	39.79
538.92	65.54
539.09	105.32
539.26	63.19
539.43	114.69
539.60	67.88
539.77	81.92
539.94	88.94
540.11	39.79
540.28	60.85
540.44	49.15
540.61	114.69
540.78	102.98
540.95	93.62
541.12	67.88
541.29	65.54
541.46	98.30
541.62	51.49
541.79	49.15
541.96	14.04
542.13	53.83
542.30	84.26
542.47	145.11
542.63	131.07
542.80	63.19
542.97	65.54
543.14	119.37
543.31	95.96
543.48	145.11
543.64	105.32
543.81	60.85
543.98	198.95
544.15	95.96
544.32	77.24
544.48	74.90
544.65	79.58
544.82	95.96
544.99	35.11
545.16	72.56
545.32	107.66
545.49	84.26
545.66	93.62
545.83	135.75
546.00	107.66
546.16	154.48
546.33	67.88
546.50	86.60
546.67	51.49
546.83	107.66
547.00	79.58
547.17	124.05
547.34	30.43
547.50	77.24
547.67	63.19
547.84	81.92
548.00	84.26
548.17	65.54
548.34	95.96
548.51	0.00
548.67	70.22
548.84	112.35
549.01	58.51
549.18	60.85
549.34	51.49
549.51	119.37
549.68	102.98
549.84	95.96
550.01	86.60
550.18	37.45
550.34	159.16
550.51	88.94
550.68	114.69
550.84	91.28
551.01	152.13
551.18	124.05
551.34	67.88
551.51	91.28
551.68	140.43
551.84	100.64
552.01	110.01
552.18	51.49
552.34	93.62
552.51	84.26
552.68	84.26
552.84	49.15
553.01	100.64
553.18	166.18
553.34	142.77
553.51	95.96
553.67	53.83
553.84	133.41
554.01	42.13
554.17	77.24
554.34	84.26
554.51	124.05
554.67	126.39
554.84	56.17
555.00	25.75
555.17	63.19
555.33	46.81
555.50	32.77
555.67	84.26
555.83	93.62
556.00	98.30
556.16	159.16
556.33	51.49
556.50	112.35
556.66	147.45
556.83	107.66
556.99	102.98
557.16	93.62
557.32	86.60
557.49	100.64
557.65	88.94
557.82	135.75
557.98	187.24
558.15	91.28
558.32	7.02
558.48	32.77
558.65	77.24
558.81	2.34
558.98	117.03
559.14	65.54
559.31	102.98
559.47	100.64
559.64	79.58
559.80	102.98
559.97	81.92
560.13	53.83
560.30	81.92
560.46	70.22
560.63	14.04
560.79	133.41
560.96	7.02
561.12	39.79
561.29	110.01
561.45	67.88
561.61	98.30
561.78	212.99
561.94	117.03
562.11	63.19
562.27	79.58
562.44	21.06
562.60	100.64
562.77	32.77
562.93	88.94
563.10	86.60
563.26	126.39
563.42	102.98
563.59	79.58
563.75	110.01
563.92	37.45
564.08	77.24
564.24	112.35
564.41	114.69
564.57	140.43
564.74	81.92
564.90	98.30
565.07	70.22
565.23	72.56
565.39	79.58
565.56	77.24
565.72	133.41
565.88	53.83
566.05	84.26
566.21	88.94
566.38	100.64
566.54	74.90
566.70	93.62
566.87	100.64
567.03	44.47
567.19	58.51
567.36	81.92
567.52	112.35
567.68	119.37
567.85	84.26
568.01	112.35
568.17	74.90
568.34	98.30
568.50	53.83
568.66	23.41
568.83	32.77
568.99	0.00
569.15	67.88
569.32	49.15
569.48	67.88
569.64	53.83
569.81	107.66
569.97	138.09
570.13	110.01
570.30	119.37
570.46	70.22
570.62	91.28
570.78	84.26
570.95	135.75
571.11	98.30
571.27	88.94
571.43	140.43
571.60	124.05
571.76	95.96
571.92	100.64
572.09	149.79
572.25	102.98
572.41	91.28
572.57	98.30
572.74	79.58
572.90	72.56
573.06	95.96
573.22	42.13
573.38	79.58
573.55	98.30
573.71	161.50
573.87	56.17
574.03	100.64
574.20	46.81
574.36	0.00
574.52	35.11
574.68	18.72
574.84	84.26
575.01	39.79
575.17	28.09
575.33	42.13
575.49	37.45
575.65	124.05
575.82	98.30
575.98	28.09
576.14	105.32
576.30	105.32
576.46	74.90
576.62	128.73
576.79	117.03
576.95	86.60
577.11	46.81
577.27	44.47
577.43	98.30
577.59	65.54
577.75	84.26
577.92	138.09
578.08	112.35
578.24	140.43
578.40	74.90
578.56	30.43
578.72	74.90
578.88	77.24
579.04	159.16
579.21	88.94
579.37	112.35
579.53	98.30
579.69	58.51
579.85	102.98
580.01	145.11
580.17	102.98
580.33	95.96
580.49	72.56
580.65	53.83
580.82	44.47
580.98	114.69
581.14	91.28
581.30	100.64
581.46	44.47
581.62	119.37
581.78	86.60
581.94	119.37
582.10	124.05
582.26	86.60
582.42	95.96
582.58	110.01
582.74	11.70
582.90	63.19
583.06	126.39
583.22	39.79
583.38	88.94
583.54	110.01
583.70	93.62
583.86	126.39
584.02	32.77
584.18	74.90
584.34	86.60
584.50	102.98
584.66	32.77
584.82	56.17
584.98	39.79
585.14	39.79
585.30	60.85
585.46	42.13
585.62	25.75
585.78	74.90
585.94	98.30
586.10	2.34
586.26	121.71
586.42	72.56
586.58	11.70
586.74	105.32
586.90	74.90
587.06	60.85
587.22	23.41
587.38	117.03
587.54	121.71
587.70	84.26
587.86	131.07
588.02	140.43
588.18	98.30
588.34	63.19
588.49	18.72
588.65	21.06
588.81	37.45
588.97	53.83
589.13	91.28
589.29	91.28
589.45	0.00
589.61	63.19
589.77	37.45
589.93	42.13
590.08	84.26
590.24	44.47
590.40	30.43
590.56	77.24
590.72	23.41
590.88	56.17
591.04	37.45
591.20	70.22
591.35	112.35
591.51	56.17
591.67	37.45
591.83	63.19
591.99	35.11
592.15	39.79
592.31	112.35
592.46	58.51
592.62	72.56
592.78	4.68
592.94	79.58
593.10	98.30
593.26	72.56
593.41	70.22
593.57	95.96
593.73	70.22
593.89	49.15
594.05	30.43
594.20	98.30
594.36	117.03
594.52	117.03
594.68	32.77
594.84	156.82
594.99	14.04
595.15	145.11
595.31	86.60
595.47	42.13
595.62	51.49
595.78	9.36
595.94	32.77
596.10	121.71
596.25	35.11
596.41	102.98
596.57	117.03
596.73	70.22
596.88	58.51
597.04	124.05
597.20	39.79
597.36	46.81
597.51	77.24
597.67	124.05
597.83	46.81
597.99	35.11
598.14	39.79
598.30	53.83
598.46	77.24
598.61	107.66
598.77	93.62
598.93	74.90
599.09	32.77
599.24	93.62
599.40	67.88
599.56	65.54
599.71	102.98
599.87	102.98
600.03	32.77
600.18	37.45
600.34	56.17
600.50	77.24
600.65	88.94
600.81	35.11
600.97	58.51
601.12	102.98
601.28	74.90
601.44	18.72
601.59	84.26
601.75	53.83
601.91	35.11
602.06	63.19
602.22	32.77
602.37	0.00
602.53	74.90
602.69	32.77
602.84	112.35
603.00	131.07
603.16	114.69
603.31	102.98
603.47	74.90
603.62	79.58
603.78	67.88
603.94	102.98
604.09	58.51
604.25	0.00
604.40	56.17
604.56	88.94
604.71	18.72
604.87	72.56
605.03	7.02
605.18	124.05
605.34	84.26
605.49	18.72
605.65	107.66
605.80	30.43
605.96	51.49
606.12	16.38
606.27	88.94
606.43	81.92
606.58	51.49
606.74	74.90
606.89	124.05
607.05	84.26
607.20	0.00
607.36	84.26
607.51	60.85
607.67	58.51
607.82	32.77
607.98	93.62
608.13	56.17
608.29	65.54
608.44	11.70
608.60	72.56
608.75	81.92
608.91	110.01
609.06	142.77
609.22	74.90
609.37	70.22
609.53	91.28
609.68	86.60
609.84	32.77
609.99	58.51
610.15	74.90
610.30	121.71
610.46	114.69
610.61	65.54
610.76	7.02
610.92	74.90
611.07	79.58
611.23	79.58
611.38	79.58
611.54	74.90
611.69	159.16
611.84	11.70
612.00	131.07
612.15	84.26
612.31	28.09
612.46	86.60
612.62	65.54
612.77	74.90
612.92	102.98
613.08	86.60
613.23	46.81
613.39	100.64
613.54	51.49
613.69	46.81
613.85	84.26
614.00	95.96
614.15	65.54
614.31	58.51
614.46	21.06
614.62	30.43
614.77	49.15
614.92	198.95
615.08	67.88
615.23	42.13
615.38	65.54
615.54	70.22
615.69	79.58
615.84	114.69
616.00	110.01
616.15	46.81
616.30	126.39
616.46	30.43
616.61	46.81
616.76	56.17
616.92	4.68
617.07	42.13
617.22	14.04
617.37	65.54
617.53	18.72
617.68	28.09
617.83	46.81
617.99	91.28
618.14	63.19
618.29	65.54
618.45	131.07
618.60	107.66
618.75	91.28
618.90	63.19
619.06	93.62
619.21	37.45
619.36	135.75
619.51	49.15
619.67	86.60
619.82	84.26
619.97	86.60
620.12	161.50
620.28	53.83
620.43	58.51
620.58	9.36
620.73	100.64
620.89	74.90
621.04	16.38
621.19	72.56
621.34	56.17
621.49	79.58
621.65	67.88
621.80	65.54
621.95	79.58
622.10	140.43
622.25	35.11
622.41	98.30
622.56	95.96
622.71	51.49
622.86	63.19
623.01	100.64
623.16	112.35
623.32	44.47
623.47	70.22
623.62	30.43
623.77	77.24
623.92	44.47
624.07	135.75
624.23	124.05
624.38	65.54
624.53	110.01
624.68	93.62
624.83	126.39
624.98	140.43
625.13	23.41
625.29	154.48
625.44	88.94
625.59	95.96
625.74	0.00
625.89	100.64
626.04	91.28
626.19	74.90
626.34	0.00
626.49	21.06
626.65	110.01
626.80	88.94
626.95	60.85
627.10	9.36
627.25	42.13
627.40	65.54
627.55	81.92
627.70	84.26
627.85	56.17
628.00	11.70
628.15	0.00
628.30	74.90
628.45	18.72
628.60	25.75
628.76	32.77
628.91	88.94
629.06	112.35
629.21	77.24
629.36	0.00
629.51	46.81
629.66	0.00
629.81	102.98
629.96	0.00
630.11	102.98
630.26	0.00
630.41	35.11
630.56	110.01
630.71	51.49
630.86	77.24
631.01	0.00
631.16	70.22
631.31	42.13
631.46	39.79
631.61	86.60
631.76	7.02
631.91	58.51
632.06	84.26
632.21	100.64
632.36	46.81
632.51	60.85
632.66	25.75
632.81	74.90
632.96	70.22
633.10	42.13
633.25	4.68
633.40	84.26
633.55	77.24
633.70	37.45
633.85	60.85
634.00	67.88
634.15	0.00
634.30	63.19
634.45	25.75
634.60	79.58
634.75	56.17
634.90	91.28
635.05	95.96
635.19	11.70
635.34	138.09
635.49	58.51
635.64	7.02
635.79	91.28
635.94	88.94
636.09	81.92
636.24	0.00
636.39	70.22
636.53	4.68
636.68	91.28
636.83	39.79
636.98	124.05
637.13	0.00
637.28	30.43
637.43	98.30
637.57	124.05
637.72	84.26
637.87	121.71
638.02	98.30
638.17	88.94
638.32	74.90
638.46	2.34
638.61	100.64
638.76	44.47
638.91	42.13
639.06	37.45
639.20	39.79
639.35	86.60
639.50	0.00
639.65	86.60
639.80	77.24
639.94	107.66
640.09	44.47
640.24	9.36
640.39	0.00
640.54	105.32
640.68	74.90
640.83	102.98
640.98	25.75
641.13	98.30
641.27	100.64
641.42	63.19
641.57	23.41
641.72	14.04
641.86	72.56
642.01	0.00
642.16	91.28
642.31	147.45
642.45	88.94
642.60	119.37
642.75	100.64
642.90	65.54
643.04	58.51
643.19	46.81
643.34	32.77
643.48	74.90
643.63	77.24
643.78	42.13
643.93	0.00
644.07	88.94
644.22	18.72
644.37	60.85
644.51	56.17
644.66	0.00
644.81	110.01
644.95	58.51
645.10	35.11
645.25	14.04
645.39	81.92
645.54	14.04
645.69	77.24
645.83	65.54
645.98	72.56
646.13	93.62
646.27	58.51
646.42	18.72
646.57	65.54
646.71	60.85
646.86	9.36
647.00	93.62
647.15	51.49
647.30	32.77
647.44	32.77
647.59	39.79
647.74	0.00
647.88	28.09
648.03	30.43
648.17	42.13
648.32	42.13
648.47	105.32
648.61	58.51
648.76	131.07
648.90	81.92
649.05	112.35
649.20	0.00
649.34	86.60
649.49	86.60
649.63	4.68
649.78	93.62
649.92	112.35
650.07	49.15
650.21	91.28
650.36	25.75
650.51	58.51
650.65	98.30
650.80	53.83
650.94	86.60
651.09	2.34
651.23	53.83
651.38	0.00
651.52	32.77
651.67	46.81
651.81	72.56
651.96	28.09
652.10	117.03
652.25	30.43
652.39	32.77
652.54	46.81
652.68	23.41
652.83	56.17
652.97	30.43
653.12	58.51
653.26	133.41
653.41	37.45
653.55	72.56
653.70	95.96
653.84	11.70
653.99	39.79
654.13	77.24
654.27	86.60
654.42	42.13
654.56	58.51
654.71	0.00
654.85	35.11
655.00	32.77
655.14	9.36
655.29	91.28
655.43	2.34
655.57	60.85
655.72	67.88
655.86	60.85
656.01	35.11
656.15	0.00
656.30	32.77
656.44	0.00
656.58	42.13
656.73	11.70
656.87	0.00
657.01	53.83
657.16	100.64
657.30	53.83
657.45	0.00
657.59	35.11
657.73	18.72
657.88	25.75
658.02	65.54
658.16	0.00
658.31	58.51
658.45	0.00
658.60	0.00
658.74	65.54
658.88	30.43
659.03	91.28
659.17	18.72
659.31	7.02
659.46	0.00
659.60	63.19
659.74	0.00
659.89	46.81
660.03	53.83
660.17	60.85
660.32	39.79
660.46	58.51
660.60	81.92
660.74	102.98
660.89	81.92
661.03	72.56
661.17	88.94
661.32	14.04
661.46	25.75
661.60	100.64
661.74	145.11
661.89	0.00
662.03	39.79
662.17	46.81
662.31	119.37
662.46	121.71
662.60	23.41
662.74	86.60
662.88	77.24
663.03	16.38
663.17	21.06
663.31	49.15
663.45	72.56
663.60	79.58
663.74	88.94
663.88	93.62
664.02	0.00
664.17	84.26
664.31	60.85
664.45	0.00
664.59	60.85
664.73	0.00
664.88	86.60
665.02	112.35
665.16	39.79
665.30	0.00
665.44	53.83
665.59	60.85
665.73	18.72
665.87	86.60
666.01	0.00
666.15	49.15
666.29	67.88
666.44	63.19
666.58	44.47
666.72	95.96
666.86	25.75
667.00	65.54
667.14	0.00
667.28	63.19
667.43	70.22
667.57	105.32
667.71	107.66
667.85	79.58
667.99	0.00
668.13	77.24
668.27	60.85
668.41	28.09
668.56	28.09
668.70	88.94
668.84	58.51
668.98	63.19
669.12	35.11
669.26	14.04
669.40	93.62
669.54	25.75
669.68	0.00
669.82	11.70
669.96	63.19
670.10	49.15
670.25	105.32
670.39	51.49
670.53	44.47
670.67	74.90
670.81	53.83
670.95	39.79
671.09	140.43
671.23	72.56
671.37	30.43
671.51	84.26
671.65	32.77
671.79	0.00
671.93	51.49
672.07	49.15
672.21	65.54
672.35	77.24
672.49	42.13
672.63	72.56
672.77	56.17
672.91	44.47
673.05	23.41
673.19	21.06
673.33	37.45
673.47	91.28
673.61	58.51
673.75	102.98
673.89	0.00
674.03	58.51
674.17	93.62
674.31	39.79
674.45	74.90
674.59	98.30
674.73	67.88
674.87	28.09
675.01	0.00
675.15	72.56
675.29	0.00
675.43	0.00
675.56	110.01
675.70	74.90
675.84	107.66
675.98	72.56
676.12	46.81
676.26	4.68
676.40	0.00
676.54	14.04
676.68	46.81
676.82	77.24
676.96	42.13
677.10	7.02
677.23	9.36
677.37	67.88
677.51	58.51
677.65	42.13
677.79	0.00
677.93	9.36
678.07	98.30
678.21	30.43
678.34	60.85
678.48	39.79
678.62	65.54
678.76	37.45
678.90	0.00
679.04	16.38
679.18	53.83
679.31	28.09
679.45	65.54
679.59	70.22
679.73	0.00
679.87	0.00
680.00	58.51
680.14	37.45
680.28	0.00
680.42	117.03
680.56	35.11
680.70	67.88
680.83	2.34
680.97	0.00
681.11	4.68
681.25	156.82
681.39	70.22
681.52	105.32
681.66	49.15
681.80	18.72
681.94	28.09
682.07	70.22
682.21	30.43
682.35	18.72
682.49	65.54
682.62	105.32
682.76	56.17
682.90	42.13
683.04	63.19
683.17	16.38
683.31	37.45
683.45	86.60
683.59	0.00
683.72	39.79
683.86	0.00
684.00	79.58
684.13	63.19
684.27	35.11
684.41	30.43
684.55	0.00
684.68	46.81
684.82	25.75
684.96	32.77
685.09	58.51
685.23	63.19
685.37	0.00
685.50	18.72
685.64	4.68
685.78	28.09
685.91	65.54
686.05	147.45
686.19	93.62
686.32	65.54
686.46	102.98
686.60	91.28
686.73	131.07
686.87	30.43
687.01	35.11
687.14	0.00
687.28	18.72
687.42	28.09
687.55	23.41
687.69	23.41
687.82	91.28
687.96	9.36
688.10	86.60
688.23	65.54
688.37	21.06
688.50	39.79
688.64	9.36
688.78	14.04
688.91	79.58
689.05	25.75
689.18	0.00
689.32	0.00
689.46	35.11
689.59	0.00
689.73	51.49
689.86	44.47
690.00	44.47
690.13	0.00
690.27	11.70
690.41	28.09
690.54	79.58
690.68	0.00
690.81	7.02
690.95	23.41
691.08	18.72
691.22	4.68
691.35	49.15
691.49	35.11
691.62	16.38
691.76	0.00
691.89	56.17
692.03	23.41
692.16	84.26
692.30	32.77
692.43	53.83
692.57	0.00
692.70	11.70
692.84	16.38
692.97	23.41
693.11	46.81
693.24	79.58
693.38	0.00
693.51	21.06
693.65	9.36
693.78	30.43
693.92	0.00
694.05	77.24
694.19	16.38
694.32	35.11
694.45	30.43
694.59	23.41
694.72	49.15
694.86	114.69
694.99	18.72
695.13	4.68
695.26	51.49
695.39	70.22
695.53	0.00
695.66	46.81
695.80	114.69
695.93	35.11
696.07	105.32
696.20	0.00
696.33	86.60
696.47	35.11
696.60	49.15
696.73	49.15
696.87	72.56
697.00	21.06
697.14	37.45
697.27	4.68
697.40	28.09
697.54	2.34
697.67	39.79
697.80	0.00
697.94	0.00
698.07	44.47
698.21	65.54
698.34	70.22
698.47	37.45
698.61	4.68
698.74	30.43
698.87	21.06
699.01	0.00
699.14	56.17
699.27	135.75
699.40	117.03
699.54	0.00
699.67	37.45
699.80	79.58
699.94	60.85
700.07	60.85
700.20	44.47
700.34	37.45
700.47	81.92
700.60	51.49
700.73	35.11
700.87	51.49
701.00	74.90
701.13	46.81
701.26	37.45
701.40	65.54
701.53	21.06
701.66	46.81
701.79	11.70
701.93	16.38
702.06	4.68
702.19	65.54
702.32	102.98
702.46	32.77
702.59	11.70
702.72	14.04
702.85	60.85
702.99	72.56
703.12	0.00
703.25	0.00
703.38	18.72
703.51	32.77
703.65	9.36
703.78	0.00
703.91	0.00
704.04	81.92
704.17	56.17
704.31	35.11
704.44	88.94
704.57	32.77
704.70	56.17
704.83	18.72
704.96	0.00
705.10	0.00
705.23	56.17
>>>>>End Processed Spectral Data<<<<<
