SpectraSuite Data File
++++++++++++++++++++++++++++++++++++
Date: Fri Oct 04 12:13:37 GMT-05:00 2013
User: price-jones
Dark Spectrum Present: No
Reference Spectrum Present: No
Number of Sampled Component Spectra: 1
Spectrometers: USB2+H05261
Integration Time (usec): 10000 (USB2+H05261)
Spectra Averaged: 1 (USB2+H05261)
Boxcar Smoothing: 0 (USB2+H05261)
Correct for Electrical Dark: No (USB2+H05261)
Strobe/Lamp Enabled: No (USB2+H05261)
Correct for Detector Non-linearity: No (USB2+H05261)
Correct for Stray Light: No (USB2+H05261)
Number of Pixels in Processed Spectrum: 2048
>>>>>Begin Processed Spectral Data<<<<<
365.73	0.00
365.92	0.00
366.12	0.00
366.32	0.00
366.52	0.00
366.72	0.00
366.91	0.00
367.11	0.00
367.31	0.00
367.51	0.00
367.70	0.00
367.90	0.00
368.10	0.00
368.30	0.00
368.49	0.00
368.69	0.00
368.89	0.00
369.09	0.00
369.28	0.00
369.48	0.00
369.68	0.00
369.87	0.00
370.07	0.00
370.27	0.00
370.47	0.00
370.66	0.00
370.86	0.00
371.06	0.00
371.25	0.00
371.45	0.00
371.65	14.04
371.84	0.00
372.04	21.06
372.24	0.00
372.44	63.19
372.63	0.00
372.83	0.00
373.03	53.83
373.22	9.36
373.42	0.00
373.62	7.02
373.81	0.00
374.01	9.36
374.21	37.45
374.40	14.04
374.60	95.96
374.79	18.72
374.99	0.00
375.19	0.00
375.38	70.22
375.58	7.02
375.78	0.00
375.97	16.38
376.17	39.79
376.37	77.24
376.56	11.70
376.76	25.75
376.95	42.13
377.15	7.02
377.35	0.00
377.54	56.17
377.74	44.47
377.93	91.28
378.13	0.00
378.33	63.19
378.52	56.17
378.72	0.00
378.91	42.13
379.11	0.00
379.31	0.00
379.50	0.00
379.70	51.49
379.89	0.00
380.09	0.00
380.28	0.00
380.48	21.06
380.68	39.79
380.87	0.00
381.07	4.68
381.26	79.58
381.46	18.72
381.65	30.43
381.85	7.02
382.04	0.00
382.24	39.79
382.43	39.79
382.63	0.00
382.83	0.00
383.02	42.13
383.22	44.47
383.41	35.11
383.61	60.85
383.80	79.58
384.00	0.00
384.19	25.75
384.39	16.38
384.58	0.00
384.78	30.43
384.97	11.70
385.17	53.83
385.36	23.41
385.56	49.15
385.75	0.00
385.95	16.38
386.14	0.00
386.34	9.36
386.53	37.45
386.72	16.38
386.92	72.56
387.11	53.83
387.31	0.00
387.50	23.41
387.70	0.00
387.89	25.75
388.09	44.47
388.28	0.00
388.48	7.02
388.67	0.00
388.86	25.75
389.06	49.15
389.25	46.81
389.45	37.45
389.64	70.22
389.84	23.41
390.03	53.83
390.22	39.79
390.42	0.00
390.61	0.00
390.81	23.41
391.00	37.45
391.19	58.51
391.39	0.00
391.58	0.00
391.78	7.02
391.97	30.43
392.16	37.45
392.36	28.09
392.55	4.68
392.75	28.09
392.94	88.94
393.13	0.00
393.33	0.00
393.52	100.64
393.71	0.00
393.91	56.17
394.10	0.00
394.29	32.77
394.49	0.00
394.68	67.88
394.88	84.26
395.07	25.75
395.26	58.51
395.46	21.06
395.65	37.45
395.84	0.00
396.04	0.00
396.23	14.04
396.42	0.00
396.62	74.90
396.81	7.02
397.00	63.19
397.19	23.41
397.39	0.00
397.58	28.09
397.77	16.38
397.97	2.34
398.16	0.00
398.35	51.49
398.55	0.00
398.74	51.49
398.93	51.49
399.12	65.54
399.32	35.11
399.51	23.41
399.70	2.34
399.90	58.51
400.09	60.85
400.28	9.36
400.47	0.00
400.67	14.04
400.86	0.00
401.05	79.58
401.24	14.04
401.44	0.00
401.63	9.36
401.82	56.17
402.01	25.75
402.21	2.34
402.40	67.88
402.59	2.34
402.78	35.11
402.97	42.13
403.17	56.17
403.36	0.00
403.55	0.00
403.74	39.79
403.93	121.71
404.13	49.15
404.32	0.00
404.51	21.06
404.70	18.72
404.89	0.00
405.09	42.13
405.28	63.19
405.47	23.41
405.66	60.85
405.85	9.36
406.05	0.00
406.24	4.68
406.43	42.13
406.62	9.36
406.81	39.79
407.00	23.41
407.20	56.17
407.39	23.41
407.58	65.54
407.77	46.81
407.96	44.47
408.15	131.07
408.34	51.49
408.54	18.72
408.73	14.04
408.92	65.54
409.11	58.51
409.30	56.17
409.49	16.38
409.68	93.62
409.87	51.49
410.07	65.54
410.26	53.83
410.45	11.70
410.64	0.00
410.83	18.72
411.02	39.79
411.21	65.54
411.40	35.11
411.59	0.00
411.78	0.00
411.98	32.77
412.17	4.68
412.36	58.51
412.55	0.00
412.74	58.51
412.93	86.60
413.12	39.79
413.31	46.81
413.50	4.68
413.69	49.15
413.88	4.68
414.07	9.36
414.26	0.00
414.45	60.85
414.64	30.43
414.83	63.19
415.02	58.51
415.22	53.83
415.41	0.00
415.60	32.77
415.79	0.00
415.98	49.15
416.17	51.49
416.36	74.90
416.55	56.17
416.74	91.28
416.93	9.36
417.12	102.98
417.31	42.13
417.50	110.01
417.69	2.34
417.88	28.09
418.07	0.00
418.26	105.32
418.45	39.79
418.64	28.09
418.83	0.00
419.02	0.00
419.21	0.00
419.39	39.79
419.58	14.04
419.77	0.00
419.96	67.88
420.15	16.38
420.34	0.00
420.53	100.64
420.72	4.68
420.91	56.17
421.10	65.54
421.29	56.17
421.48	37.45
421.67	88.94
421.86	58.51
422.05	0.00
422.24	30.43
422.43	0.00
422.61	72.56
422.80	0.00
422.99	65.54
423.18	35.11
423.37	7.02
423.56	16.38
423.75	60.85
423.94	74.90
424.13	0.00
424.32	72.56
424.50	93.62
424.69	65.54
424.88	100.64
425.07	84.26
425.26	44.47
425.45	91.28
425.64	51.49
425.83	93.62
426.01	79.58
426.20	56.17
426.39	35.11
426.58	56.17
426.77	35.11
426.96	44.47
427.15	4.68
427.33	39.79
427.52	74.90
427.71	0.00
427.90	23.41
428.09	0.00
428.28	14.04
428.46	23.41
428.65	0.00
428.84	28.09
429.03	74.90
429.22	58.51
429.40	42.13
429.59	0.00
429.78	35.11
429.97	16.38
430.16	23.41
430.34	0.00
430.53	56.17
430.72	35.11
430.91	28.09
431.10	77.24
431.28	4.68
431.47	65.54
431.66	39.79
431.85	49.15
432.03	79.58
432.22	53.83
432.41	39.79
432.60	0.00
432.79	63.19
432.97	84.26
433.16	102.98
433.35	28.09
433.54	35.11
433.72	25.75
433.91	14.04
434.10	0.00
434.28	16.38
434.47	49.15
434.66	51.49
434.85	60.85
435.03	0.00
435.22	67.88
435.41	28.09
435.59	30.43
435.78	35.11
435.97	79.58
436.16	63.19
436.34	102.98
436.53	72.56
436.72	51.49
436.90	25.75
437.09	70.22
437.28	35.11
437.46	117.03
437.65	56.17
437.84	84.26
438.02	37.45
438.21	86.60
438.40	117.03
438.58	51.49
438.77	53.83
438.96	119.37
439.14	126.39
439.33	67.88
439.52	60.85
439.70	70.22
439.89	35.11
440.08	11.70
440.26	98.30
440.45	21.06
440.63	0.00
440.82	112.35
441.01	0.00
441.19	14.04
441.38	67.88
441.57	28.09
441.75	35.11
441.94	0.00
442.12	72.56
442.31	0.00
442.50	4.68
442.68	44.47
442.87	79.58
443.05	14.04
443.24	63.19
443.43	119.37
443.61	32.77
443.80	131.07
443.98	28.09
444.17	32.77
444.35	30.43
444.54	0.00
444.73	23.41
444.91	37.45
445.10	42.13
445.28	65.54
445.47	56.17
445.65	49.15
445.84	81.92
446.02	0.00
446.21	28.09
446.39	28.09
446.58	131.07
446.77	28.09
446.95	100.64
447.14	28.09
447.32	105.32
447.51	32.77
447.69	107.66
447.88	77.24
448.06	46.81
448.25	67.88
448.43	0.00
448.62	0.00
448.80	107.66
448.99	86.60
449.17	49.15
449.36	0.00
449.54	65.54
449.73	110.01
449.91	56.17
450.10	0.00
450.28	0.00
450.46	0.00
450.65	72.56
450.83	56.17
451.02	42.13
451.20	72.56
451.39	72.56
451.57	0.00
451.76	88.94
451.94	11.70
452.13	72.56
452.31	46.81
452.49	53.83
452.68	30.43
452.86	16.38
453.05	42.13
453.23	37.45
453.42	84.26
453.60	32.77
453.78	81.92
453.97	117.03
454.15	124.05
454.34	74.90
454.52	4.68
454.70	74.90
454.89	39.79
455.07	81.92
455.26	70.22
455.44	84.26
455.62	56.17
455.81	91.28
455.99	37.45
456.17	91.28
456.36	84.26
456.54	53.83
456.73	28.09
456.91	67.88
457.09	88.94
457.28	105.32
457.46	98.30
457.64	93.62
457.83	84.26
458.01	65.54
458.19	0.00
458.38	112.35
458.56	25.75
458.74	102.98
458.93	74.90
459.11	65.54
459.29	98.30
459.48	60.85
459.66	0.00
459.84	84.26
460.03	25.75
460.21	11.70
460.39	11.70
460.57	72.56
460.76	0.00
460.94	65.54
461.12	124.05
461.31	56.17
461.49	128.73
461.67	70.22
461.85	46.81
462.04	35.11
462.22	156.82
462.40	79.58
462.59	49.15
462.77	44.47
462.95	63.19
463.13	63.19
463.32	0.00
463.50	46.81
463.68	65.54
463.86	81.92
464.05	9.36
464.23	37.45
464.41	30.43
464.59	21.06
464.78	63.19
464.96	67.88
465.14	60.85
465.32	0.00
465.50	58.51
465.69	11.70
465.87	42.13
466.05	81.92
466.23	32.77
466.41	0.00
466.60	67.88
466.78	110.01
466.96	86.60
467.14	51.49
467.32	98.30
467.51	112.35
467.69	81.92
467.87	107.66
468.05	30.43
468.23	56.17
468.41	74.90
468.60	53.83
468.78	35.11
468.96	74.90
469.14	117.03
469.32	23.41
469.50	21.06
469.69	86.60
469.87	30.43
470.05	67.88
470.23	107.66
470.41	16.38
470.59	67.88
470.77	7.02
470.95	0.00
471.14	51.49
471.32	46.81
471.50	65.54
471.68	110.01
471.86	7.02
472.04	44.47
472.22	93.62
472.40	91.28
472.58	2.34
472.77	32.77
472.95	74.90
473.13	100.64
473.31	100.64
473.49	65.54
473.67	74.90
473.85	74.90
474.03	74.90
474.21	0.00
474.39	117.03
474.57	79.58
474.75	53.83
474.93	91.28
475.12	14.04
475.30	79.58
475.48	72.56
475.66	0.00
475.84	9.36
476.02	46.81
476.20	49.15
476.38	46.81
476.56	53.83
476.74	67.88
476.92	32.77
477.10	72.56
477.28	0.00
477.46	86.60
477.64	112.35
477.82	70.22
478.00	11.70
478.18	46.81
478.36	60.85
478.54	46.81
478.72	81.92
478.90	63.19
479.08	21.06
479.26	23.41
479.44	11.70
479.62	95.96
479.80	11.70
479.98	102.98
480.16	9.36
480.34	0.00
480.52	11.70
480.70	74.90
480.88	84.26
481.06	117.03
481.24	70.22
481.41	51.49
481.59	65.54
481.77	91.28
481.95	51.49
482.13	112.35
482.31	0.00
482.49	102.98
482.67	67.88
482.85	102.98
483.03	56.17
483.21	37.45
483.39	0.00
483.57	98.30
483.74	46.81
483.92	42.13
484.10	56.17
484.28	53.83
484.46	4.68
484.64	100.64
484.82	49.15
485.00	65.54
485.18	131.07
485.35	84.26
485.53	60.85
485.71	79.58
485.89	100.64
486.07	74.90
486.25	11.70
486.43	67.88
486.61	70.22
486.78	37.45
486.96	2.34
487.14	117.03
487.32	110.01
487.50	114.69
487.68	0.00
487.85	32.77
488.03	63.19
488.21	72.56
488.39	63.19
488.57	67.88
488.75	84.26
488.92	142.77
489.10	154.48
489.28	152.13
489.46	46.81
489.64	2.34
489.81	65.54
489.99	110.01
490.17	74.90
490.35	60.85
490.53	53.83
490.70	46.81
490.88	79.58
491.06	117.03
491.24	42.13
491.41	11.70
491.59	39.79
491.77	32.77
491.95	67.88
492.13	39.79
492.30	46.81
492.48	117.03
492.66	18.72
492.84	70.22
493.01	39.79
493.19	93.62
493.37	105.32
493.54	56.17
493.72	110.01
493.90	110.01
494.08	93.62
494.25	95.96
494.43	7.02
494.61	107.66
494.79	21.06
494.96	86.60
495.14	72.56
495.32	4.68
495.49	60.85
495.67	65.54
495.85	60.85
496.02	25.75
496.20	49.15
496.38	100.64
496.55	102.98
496.73	35.11
496.91	84.26
497.09	56.17
497.26	98.30
497.44	9.36
497.62	28.09
497.79	21.06
497.97	112.35
498.14	93.62
498.32	102.98
498.50	72.56
498.67	49.15
498.85	145.11
499.03	159.16
499.20	124.05
499.38	93.62
499.56	77.24
499.73	79.58
499.91	28.09
500.08	28.09
500.26	95.96
500.44	70.22
500.61	91.28
500.79	100.64
500.97	51.49
501.14	21.06
501.32	86.60
501.49	74.90
501.67	65.54
501.84	100.64
502.02	63.19
502.20	156.82
502.37	14.04
502.55	70.22
502.72	105.32
502.90	224.69
503.07	67.88
503.25	79.58
503.43	102.98
503.60	72.56
503.78	135.75
503.95	63.19
504.13	37.45
504.30	119.37
504.48	65.54
504.65	53.83
504.83	124.05
505.01	107.66
505.18	77.24
505.36	56.17
505.53	126.39
505.71	119.37
505.88	72.56
506.06	77.24
506.23	84.26
506.41	112.35
506.58	98.30
506.76	117.03
506.93	4.68
507.11	32.77
507.28	93.62
507.46	105.32
507.63	28.09
507.81	74.90
507.98	72.56
508.16	91.28
508.33	81.92
508.50	72.56
508.68	51.49
508.85	49.15
509.03	95.96
509.20	58.51
509.38	4.68
509.55	91.28
509.73	100.64
509.90	42.13
510.08	98.30
510.25	60.85
510.42	107.66
510.60	86.60
510.77	102.98
510.95	98.30
511.12	65.54
511.30	117.03
511.47	112.35
511.64	107.66
511.82	86.60
511.99	110.01
512.17	18.72
512.34	107.66
512.51	32.77
512.69	88.94
512.86	88.94
513.04	140.43
513.21	37.45
513.38	79.58
513.56	102.98
513.73	51.49
513.90	72.56
514.08	9.36
514.25	91.28
514.43	67.88
514.60	117.03
514.77	23.41
514.95	35.11
515.12	37.45
515.29	105.32
515.47	110.01
515.64	105.32
515.81	110.01
515.99	114.69
516.16	60.85
516.33	65.54
516.51	53.83
516.68	98.30
516.85	74.90
517.03	88.94
517.20	42.13
517.37	35.11
517.54	65.54
517.72	128.73
517.89	126.39
518.06	119.37
518.24	161.50
518.41	93.62
518.58	100.64
518.75	88.94
518.93	60.85
519.10	56.17
519.27	112.35
519.45	79.58
519.62	142.77
519.79	107.66
519.96	16.38
520.14	56.17
520.31	32.77
520.48	35.11
520.65	86.60
520.83	138.09
521.00	93.62
521.17	112.35
521.34	67.88
521.52	72.56
521.69	159.16
521.86	77.24
522.03	126.39
522.20	121.71
522.38	112.35
522.55	58.51
522.72	124.05
522.89	0.00
523.07	39.79
523.24	84.26
523.41	67.88
523.58	56.17
523.75	93.62
523.92	128.73
524.10	117.03
524.27	35.11
524.44	44.47
524.61	77.24
524.78	25.75
524.96	79.58
525.13	95.96
525.30	79.58
525.47	95.96
525.64	18.72
525.81	77.24
525.98	93.62
526.16	18.72
526.33	168.52
526.50	53.83
526.67	152.13
526.84	110.01
527.01	110.01
527.18	105.32
527.36	126.39
527.53	35.11
527.70	49.15
527.87	88.94
528.04	140.43
528.21	65.54
528.38	154.48
528.55	67.88
528.72	100.64
528.89	11.70
529.07	138.09
529.24	84.26
529.41	126.39
529.58	110.01
529.75	65.54
529.92	114.69
530.09	117.03
530.26	114.69
530.43	86.60
530.60	32.77
530.77	0.00
530.94	100.64
531.11	128.73
531.28	98.30
531.46	102.98
531.63	56.17
531.80	67.88
531.97	95.96
532.14	107.66
532.31	44.47
532.48	58.51
532.65	74.90
532.82	53.83
532.99	95.96
533.16	93.62
533.33	79.58
533.50	100.64
533.67	23.41
533.84	121.71
534.01	121.71
534.18	81.92
534.35	2.34
534.52	88.94
534.69	98.30
534.86	114.69
535.03	74.90
535.20	84.26
535.37	35.11
535.54	37.45
535.71	77.24
535.88	88.94
536.05	161.50
536.22	58.51
536.38	86.60
536.55	112.35
536.72	95.96
536.89	86.60
537.06	0.00
537.23	112.35
537.40	98.30
537.57	86.60
537.74	74.90
537.91	67.88
538.08	18.72
538.25	49.15
538.42	86.60
538.59	110.01
538.75	121.71
538.92	86.60
539.09	44.47
539.26	88.94
539.43	88.94
539.60	84.26
539.77	28.09
539.94	147.45
540.11	49.15
540.28	77.24
540.44	91.28
540.61	14.04
540.78	23.41
540.95	100.64
541.12	86.60
541.29	56.17
541.46	156.82
541.62	133.41
541.79	72.56
541.96	112.35
542.13	58.51
542.30	67.88
542.47	100.64
542.63	79.58
542.80	63.19
542.97	124.05
543.14	88.94
543.31	149.79
543.48	23.41
543.64	102.98
543.81	84.26
543.98	95.96
544.15	14.04
544.32	119.37
544.48	105.32
544.65	177.88
544.82	60.85
544.99	35.11
545.16	72.56
545.32	72.56
545.49	98.30
545.66	107.66
545.83	74.90
546.00	95.96
546.16	177.88
546.33	67.88
546.50	51.49
546.67	49.15
546.83	35.11
547.00	74.90
547.17	79.58
547.34	119.37
547.50	81.92
547.67	147.45
547.84	145.11
548.00	49.15
548.17	105.32
548.34	131.07
548.51	23.41
548.67	23.41
548.84	60.85
549.01	102.98
549.18	112.35
549.34	98.30
549.51	93.62
549.68	58.51
549.84	102.98
550.01	53.83
550.18	58.51
550.34	53.83
550.51	53.83
550.68	124.05
550.84	95.96
551.01	95.96
551.18	95.96
551.34	163.84
551.51	67.88
551.68	98.30
551.84	51.49
552.01	107.66
552.18	4.68
552.34	84.26
552.51	91.28
552.68	81.92
552.84	114.69
553.01	154.48
553.18	81.92
553.34	142.77
553.51	84.26
553.67	84.26
553.84	93.62
554.01	107.66
554.17	107.66
554.34	98.30
554.51	81.92
554.67	98.30
554.84	42.13
555.00	114.69
555.17	16.38
555.33	23.41
555.50	74.90
555.67	152.13
555.83	147.45
556.00	30.43
556.16	95.96
556.33	42.13
556.50	39.79
556.66	18.72
556.83	46.81
556.99	67.88
557.16	37.45
557.32	58.51
557.49	72.56
557.65	124.05
557.82	74.90
557.98	145.11
558.15	121.71
558.32	16.38
558.48	72.56
558.65	25.75
558.81	53.83
558.98	16.38
559.14	58.51
559.31	74.90
559.47	84.26
559.64	91.28
559.80	60.85
559.97	44.47
560.13	42.13
560.30	77.24
560.46	72.56
560.63	9.36
560.79	53.83
560.96	79.58
561.12	180.22
561.29	56.17
561.45	117.03
561.61	112.35
561.78	107.66
561.94	147.45
562.11	58.51
562.27	79.58
562.44	124.05
562.60	32.77
562.77	9.36
562.93	117.03
563.10	28.09
563.26	86.60
563.42	102.98
563.59	72.56
563.75	100.64
563.92	18.72
564.08	53.83
564.24	110.01
564.41	173.20
564.57	95.96
564.74	30.43
564.90	67.88
565.07	140.43
565.23	81.92
565.39	14.04
565.56	74.90
565.72	16.38
565.88	63.19
566.05	107.66
566.21	30.43
566.38	81.92
566.54	142.77
566.70	93.62
566.87	119.37
567.03	88.94
567.19	49.15
567.36	105.32
567.52	88.94
567.68	0.00
567.85	86.60
568.01	79.58
568.17	77.24
568.34	133.41
568.50	107.66
568.66	100.64
568.83	37.45
568.99	128.73
569.15	98.30
569.32	42.13
569.48	88.94
569.64	112.35
569.81	51.49
569.97	74.90
570.13	79.58
570.30	67.88
570.46	35.11
570.62	93.62
570.78	86.60
570.95	81.92
571.11	37.45
571.27	23.41
571.43	51.49
571.60	70.22
571.76	4.68
571.92	95.96
572.09	23.41
572.25	140.43
572.41	182.56
572.57	70.22
572.74	124.05
572.90	161.50
573.06	74.90
573.22	121.71
573.38	49.15
573.55	112.35
573.71	128.73
573.87	147.45
574.03	42.13
574.20	95.96
574.36	9.36
574.52	63.19
574.68	37.45
574.84	21.06
575.01	147.45
575.17	28.09
575.33	107.66
575.49	93.62
575.65	74.90
575.82	58.51
575.98	81.92
576.14	86.60
576.30	91.28
576.46	79.58
576.62	119.37
576.79	58.51
576.95	110.01
577.11	25.75
577.27	86.60
577.43	79.58
577.59	28.09
577.75	79.58
577.92	105.32
578.08	95.96
578.24	37.45
578.40	56.17
578.56	88.94
578.72	58.51
578.88	53.83
579.04	21.06
579.21	65.54
579.37	63.19
579.53	63.19
579.69	67.88
579.85	126.39
580.01	53.83
580.17	30.43
580.33	128.73
580.49	39.79
580.65	37.45
580.82	39.79
580.98	93.62
581.14	91.28
581.30	79.58
581.46	142.77
581.62	100.64
581.78	0.00
581.94	42.13
582.10	53.83
582.26	77.24
582.42	53.83
582.58	79.58
582.74	98.30
582.90	133.41
583.06	49.15
583.22	105.32
583.38	152.13
583.54	100.64
583.70	110.01
583.86	4.68
584.02	93.62
584.18	67.88
584.34	21.06
584.50	131.07
584.66	0.00
584.82	124.05
584.98	91.28
585.14	72.56
585.30	93.62
585.46	135.75
585.62	16.38
585.78	28.09
585.94	77.24
586.10	70.22
586.26	74.90
586.42	86.60
586.58	72.56
586.74	14.04
586.90	44.47
587.06	81.92
587.22	0.00
587.38	58.51
587.54	79.58
587.70	112.35
587.86	79.58
588.02	53.83
588.18	79.58
588.34	88.94
588.49	53.83
588.65	124.05
588.81	70.22
588.97	35.11
589.13	72.56
589.29	93.62
589.45	131.07
589.61	51.49
589.77	53.83
589.93	72.56
590.08	44.47
590.24	11.70
590.40	63.19
590.56	18.72
590.72	0.00
590.88	16.38
591.04	23.41
591.20	65.54
591.35	0.00
591.51	91.28
591.67	58.51
591.83	67.88
591.99	56.17
592.15	88.94
592.31	161.50
592.46	53.83
592.62	51.49
592.78	21.06
592.94	86.60
593.10	79.58
593.26	46.81
593.41	91.28
593.57	0.00
593.73	49.15
593.89	42.13
594.05	18.72
594.20	44.47
594.36	42.13
594.52	0.00
594.68	60.85
594.84	138.09
594.99	14.04
595.15	72.56
595.31	70.22
595.47	46.81
595.62	14.04
595.78	93.62
595.94	39.79
596.10	60.85
596.25	84.26
596.41	37.45
596.57	2.34
596.73	112.35
596.88	107.66
597.04	72.56
597.20	91.28
597.36	58.51
597.51	46.81
597.67	0.00
597.83	56.17
597.99	53.83
598.14	49.15
598.30	37.45
598.46	121.71
598.61	56.17
598.77	30.43
598.93	25.75
599.09	35.11
599.24	74.90
599.40	56.17
599.56	95.96
599.71	133.41
599.87	21.06
600.03	91.28
600.18	86.60
600.34	117.03
600.50	140.43
600.65	142.77
600.81	107.66
600.97	81.92
601.12	105.32
601.28	79.58
601.44	42.13
601.59	18.72
601.75	100.64
601.91	67.88
602.06	105.32
602.22	4.68
602.37	11.70
602.53	79.58
602.69	86.60
602.84	46.81
603.00	65.54
603.16	51.49
603.31	72.56
603.47	58.51
603.62	4.68
603.78	56.17
603.94	56.17
604.09	117.03
604.25	110.01
604.40	58.51
604.56	60.85
604.71	32.77
604.87	117.03
605.03	60.85
605.18	86.60
605.34	121.71
605.49	16.38
605.65	102.98
605.80	126.39
605.96	84.26
606.12	65.54
606.27	51.49
606.43	2.34
606.58	70.22
606.74	60.85
606.89	84.26
607.05	72.56
607.20	0.00
607.36	98.30
607.51	60.85
607.67	154.48
607.82	67.88
607.98	119.37
608.13	39.79
608.29	86.60
608.44	37.45
608.60	154.48
608.75	30.43
608.91	51.49
609.06	21.06
609.22	86.60
609.37	63.19
609.53	135.75
609.68	37.45
609.84	65.54
609.99	91.28
610.15	72.56
610.30	70.22
610.46	70.22
610.61	37.45
610.76	46.81
610.92	60.85
611.07	11.70
611.23	25.75
611.38	51.49
611.54	110.01
611.69	117.03
611.84	93.62
612.00	70.22
612.15	23.41
612.31	67.88
612.46	65.54
612.62	21.06
612.77	72.56
612.92	16.38
613.08	81.92
613.23	84.26
613.39	58.51
613.54	18.72
613.69	30.43
613.85	88.94
614.00	30.43
614.15	16.38
614.31	30.43
614.46	77.24
614.62	86.60
614.77	91.28
614.92	60.85
615.08	95.96
615.23	126.39
615.38	74.90
615.54	140.43
615.69	100.64
615.84	0.00
616.00	67.88
616.15	4.68
616.30	100.64
616.46	63.19
616.61	0.00
616.76	72.56
616.92	93.62
617.07	72.56
617.22	107.66
617.37	112.35
617.53	46.81
617.68	21.06
617.83	0.00
617.99	79.58
618.14	154.48
618.29	58.51
618.45	88.94
618.60	9.36
618.75	16.38
618.90	65.54
619.06	88.94
619.21	117.03
619.36	49.15
619.51	124.05
619.67	112.35
619.82	81.92
619.97	84.26
620.12	63.19
620.28	72.56
620.43	119.37
620.58	161.50
620.73	133.41
620.89	74.90
621.04	81.92
621.19	65.54
621.34	65.54
621.49	37.45
621.65	93.62
621.80	140.43
621.95	32.77
622.10	49.15
622.25	84.26
622.41	39.79
622.56	74.90
622.71	138.09
622.86	9.36
623.01	58.51
623.16	105.32
623.32	44.47
623.47	70.22
623.62	60.85
623.77	163.84
623.92	0.00
624.07	88.94
624.23	14.04
624.38	14.04
624.53	49.15
624.68	7.02
624.83	88.94
624.98	49.15
625.13	79.58
625.29	112.35
625.44	23.41
625.59	0.00
625.74	93.62
625.89	107.66
626.04	81.92
626.19	81.92
626.34	0.00
626.49	25.75
626.65	70.22
626.80	112.35
626.95	67.88
627.10	58.51
627.25	49.15
627.40	79.58
627.55	72.56
627.70	49.15
627.85	84.26
628.00	70.22
628.15	91.28
628.30	51.49
628.45	37.45
628.60	0.00
628.76	79.58
628.91	42.13
629.06	44.47
629.21	110.01
629.36	86.60
629.51	72.56
629.66	25.75
629.81	102.98
629.96	46.81
630.11	53.83
630.26	142.77
630.41	107.66
630.56	53.83
630.71	0.00
630.86	102.98
631.01	11.70
631.16	46.81
631.31	77.24
631.46	32.77
631.61	56.17
631.76	16.38
631.91	32.77
632.06	74.90
632.21	39.79
632.36	46.81
632.51	135.75
632.66	7.02
632.81	67.88
632.96	42.13
633.10	16.38
633.25	91.28
633.40	60.85
633.55	0.00
633.70	102.98
633.85	105.32
634.00	95.96
634.15	58.51
634.30	16.38
634.45	42.13
634.60	65.54
634.75	37.45
634.90	79.58
635.05	93.62
635.19	58.51
635.34	46.81
635.49	4.68
635.64	72.56
635.79	84.26
635.94	32.77
636.09	74.90
636.24	98.30
636.39	88.94
636.53	119.37
636.68	81.92
636.83	32.77
636.98	117.03
637.13	0.00
637.28	28.09
637.43	88.94
637.57	63.19
637.72	91.28
637.87	88.94
638.02	51.49
638.17	53.83
638.32	70.22
638.46	25.75
638.61	93.62
638.76	28.09
638.91	46.81
639.06	128.73
639.20	28.09
639.35	21.06
639.50	93.62
639.65	44.47
639.80	91.28
639.94	28.09
640.09	42.13
640.24	77.24
640.39	42.13
640.54	79.58
640.68	86.60
640.83	86.60
640.98	65.54
641.13	46.81
641.27	2.34
641.42	49.15
641.57	37.45
641.72	58.51
641.86	65.54
642.01	70.22
642.16	46.81
642.31	51.49
642.45	98.30
642.60	93.62
642.75	23.41
642.90	37.45
643.04	72.56
643.19	14.04
643.34	149.79
643.48	51.49
643.63	65.54
643.78	102.98
643.93	67.88
644.07	86.60
644.22	88.94
644.37	117.03
644.51	60.85
644.66	70.22
644.81	93.62
644.95	14.04
645.10	23.41
645.25	18.72
645.39	21.06
645.54	100.64
645.69	0.00
645.83	77.24
645.98	119.37
646.13	44.47
646.27	42.13
646.42	79.58
646.57	30.43
646.71	56.17
646.86	51.49
647.00	56.17
647.15	28.09
647.30	25.75
647.44	4.68
647.59	67.88
647.74	70.22
647.88	67.88
648.03	51.49
648.17	100.64
648.32	9.36
648.47	51.49
648.61	65.54
648.76	70.22
648.90	0.00
649.05	117.03
649.20	37.45
649.34	0.00
649.49	121.71
649.63	126.39
649.78	46.81
649.92	51.49
650.07	88.94
650.21	35.11
650.36	79.58
650.51	18.72
650.65	16.38
650.80	53.83
650.94	58.51
651.09	56.17
651.23	102.98
651.38	28.09
651.52	131.07
651.67	67.88
651.81	11.70
651.96	70.22
652.10	79.58
652.25	100.64
652.39	25.75
652.54	105.32
652.68	79.58
652.83	0.00
652.97	44.47
653.12	86.60
653.26	114.69
653.41	77.24
653.55	88.94
653.70	39.79
653.84	42.13
653.99	42.13
654.13	88.94
654.27	133.41
654.42	25.75
654.56	70.22
654.71	88.94
654.85	25.75
655.00	67.88
655.14	65.54
655.29	0.00
655.43	74.90
655.57	37.45
655.72	65.54
655.86	0.00
656.01	60.85
656.15	9.36
656.30	53.83
656.44	77.24
656.58	74.90
656.73	14.04
656.87	126.39
657.01	98.30
657.16	102.98
657.30	65.54
657.45	28.09
657.59	35.11
657.73	14.04
657.88	117.03
658.02	46.81
658.16	9.36
658.31	32.77
658.45	105.32
658.60	0.00
658.74	65.54
658.88	42.13
659.03	32.77
659.17	79.58
659.31	21.06
659.46	25.75
659.60	67.88
659.74	7.02
659.89	105.32
660.03	28.09
660.17	16.38
660.32	79.58
660.46	93.62
660.60	93.62
660.74	37.45
660.89	46.81
661.03	98.30
661.17	91.28
661.32	107.66
661.46	39.79
661.60	51.49
661.74	46.81
661.89	72.56
662.03	53.83
662.17	42.13
662.31	46.81
662.46	65.54
662.60	7.02
662.74	23.41
662.88	14.04
663.03	72.56
663.17	133.41
663.31	74.90
663.45	70.22
663.60	105.32
663.74	117.03
663.88	35.11
664.02	79.58
664.17	56.17
664.31	74.90
664.45	39.79
664.59	23.41
664.73	88.94
664.88	142.77
665.02	98.30
665.16	0.00
665.30	0.00
665.44	30.43
665.59	0.00
665.73	28.09
665.87	14.04
666.01	0.00
666.15	124.05
666.29	60.85
666.44	84.26
666.58	53.83
666.72	32.77
666.86	124.05
667.00	121.71
667.14	0.00
667.28	14.04
667.43	58.51
667.57	56.17
667.71	0.00
667.85	11.70
667.99	67.88
668.13	35.11
668.27	51.49
668.41	65.54
668.56	56.17
668.70	79.58
668.84	23.41
668.98	0.00
669.12	25.75
669.26	0.00
669.40	98.30
669.54	39.79
669.68	100.64
669.82	81.92
669.96	14.04
670.10	0.00
670.25	25.75
670.39	28.09
670.53	117.03
670.67	114.69
670.81	112.35
670.95	74.90
671.09	0.00
671.23	51.49
671.37	93.62
671.51	7.02
671.65	30.43
671.79	86.60
671.93	88.94
672.07	95.96
672.21	39.79
672.35	23.41
672.49	70.22
672.63	18.72
672.77	46.81
672.91	77.24
673.05	105.32
673.19	110.01
673.33	0.00
673.47	88.94
673.61	63.19
673.75	60.85
673.89	77.24
674.03	112.35
674.17	16.38
674.31	110.01
674.45	35.11
674.59	72.56
674.73	77.24
674.87	0.00
675.01	46.81
675.15	25.75
675.29	56.17
675.43	65.54
675.56	53.83
675.70	74.90
675.84	0.00
675.98	9.36
676.12	0.00
676.26	16.38
676.40	30.43
676.54	14.04
676.68	4.68
676.82	16.38
676.96	0.00
677.10	56.17
677.23	42.13
677.37	53.83
677.51	32.77
677.65	112.35
677.79	42.13
677.93	21.06
678.07	86.60
678.21	0.00
678.34	51.49
678.48	53.83
678.62	46.81
678.76	46.81
678.90	14.04
679.04	56.17
679.18	7.02
679.31	56.17
679.45	0.00
679.59	53.83
679.73	21.06
679.87	37.45
680.00	0.00
680.14	70.22
680.28	0.00
680.42	11.70
680.56	18.72
680.70	119.37
680.83	58.51
680.97	56.17
681.11	16.38
681.25	4.68
681.39	49.15
681.52	37.45
681.66	84.26
681.80	9.36
681.94	28.09
682.07	14.04
682.21	32.77
682.35	107.66
682.49	42.13
682.62	86.60
682.76	30.43
682.90	58.51
683.04	14.04
683.17	53.83
683.31	58.51
683.45	49.15
683.59	46.81
683.72	84.26
683.86	58.51
684.00	42.13
684.13	102.98
684.27	49.15
684.41	11.70
684.55	74.90
684.68	81.92
684.82	86.60
684.96	16.38
685.09	4.68
685.23	25.75
685.37	11.70
685.50	23.41
685.64	44.47
685.78	53.83
685.91	65.54
686.05	60.85
686.19	4.68
686.32	39.79
686.46	4.68
686.60	11.70
686.73	18.72
686.87	25.75
687.01	42.13
687.14	0.00
687.28	2.34
687.42	0.00
687.55	42.13
687.69	86.60
687.82	91.28
687.96	112.35
688.10	32.77
688.23	65.54
688.37	18.72
688.50	25.75
688.64	0.00
688.78	42.13
688.91	67.88
689.05	16.38
689.18	14.04
689.32	0.00
689.46	56.17
689.59	32.77
689.73	63.19
689.86	44.47
690.00	53.83
690.13	65.54
690.27	46.81
690.41	74.90
690.54	51.49
690.68	105.32
690.81	86.60
690.95	14.04
691.08	135.75
691.22	2.34
691.35	72.56
691.49	18.72
691.62	35.11
691.76	124.05
691.89	65.54
692.03	0.00
692.16	56.17
692.30	112.35
692.43	28.09
692.57	21.06
692.70	100.64
692.84	46.81
692.97	0.00
693.11	0.00
693.24	42.13
693.38	0.00
693.51	11.70
693.65	37.45
693.78	100.64
693.92	16.38
694.05	30.43
694.19	65.54
694.32	51.49
694.45	32.77
694.59	0.00
694.72	14.04
694.86	88.94
694.99	84.26
695.13	53.83
695.26	63.19
695.39	0.00
695.53	0.00
695.66	67.88
695.80	0.00
695.93	18.72
696.07	56.17
696.20	65.54
696.33	65.54
696.47	53.83
696.60	107.66
696.73	0.00
696.87	25.75
697.00	56.17
697.14	28.09
697.27	53.83
697.40	65.54
697.54	9.36
697.67	39.79
697.80	0.00
697.94	0.00
698.07	0.00
698.21	60.85
698.34	16.38
698.47	23.41
698.61	42.13
698.74	102.98
698.87	93.62
699.01	114.69
699.14	4.68
699.27	51.49
699.40	79.58
699.54	35.11
699.67	49.15
699.80	93.62
699.94	44.47
700.07	32.77
700.20	95.96
700.34	42.13
700.47	0.00
700.60	0.00
700.73	14.04
700.87	23.41
701.00	49.15
701.13	49.15
701.26	60.85
701.40	91.28
701.53	39.79
701.66	21.06
701.79	18.72
701.93	25.75
702.06	0.00
702.19	28.09
702.32	16.38
702.46	44.47
702.59	60.85
702.72	46.81
702.85	37.45
702.99	39.79
703.12	0.00
703.25	35.11
703.38	49.15
703.51	0.00
703.65	79.58
703.78	112.35
703.91	166.18
704.04	23.41
704.17	42.13
704.31	0.00
704.44	58.51
704.57	53.83
704.70	91.28
704.83	0.00
704.96	65.54
705.10	14.04
705.23	0.00
>>>>>End Processed Spectral Data<<<<<
