SpectraSuite Data File
++++++++++++++++++++++++++++++++++++
Date: Fri Oct 04 12:13:34 GMT-05:00 2013
User: price-jones
Dark Spectrum Present: No
Reference Spectrum Present: No
Number of Sampled Component Spectra: 1
Spectrometers: USB2+H05261
Integration Time (usec): 10000 (USB2+H05261)
Spectra Averaged: 1 (USB2+H05261)
Boxcar Smoothing: 0 (USB2+H05261)
Correct for Electrical Dark: No (USB2+H05261)
Strobe/Lamp Enabled: No (USB2+H05261)
Correct for Detector Non-linearity: No (USB2+H05261)
Correct for Stray Light: No (USB2+H05261)
Number of Pixels in Processed Spectrum: 2048
>>>>>Begin Processed Spectral Data<<<<<
365.73	11.70
365.92	11.70
366.12	11.70
366.32	0.00
366.52	0.00
366.72	0.00
366.91	0.00
367.11	0.00
367.31	0.00
367.51	0.00
367.70	0.00
367.90	0.00
368.10	0.00
368.30	0.00
368.49	0.00
368.69	0.00
368.89	0.00
369.09	0.00
369.28	0.00
369.48	0.00
369.68	0.00
369.87	0.00
370.07	0.00
370.27	0.00
370.47	0.00
370.66	0.00
370.86	0.00
371.06	0.00
371.25	0.00
371.45	0.00
371.65	0.00
371.84	0.00
372.04	11.70
372.24	0.00
372.44	0.00
372.63	21.06
372.83	0.00
373.03	0.00
373.22	0.00
373.42	2.34
373.62	60.85
373.81	0.00
374.01	25.75
374.21	67.88
374.40	16.38
374.60	23.41
374.79	28.09
374.99	79.58
375.19	56.17
375.38	21.06
375.58	32.77
375.78	46.81
375.97	23.41
376.17	63.19
376.37	30.43
376.56	0.00
376.76	23.41
376.95	0.00
377.15	9.36
377.35	46.81
377.54	0.00
377.74	4.68
377.93	0.00
378.13	0.00
378.33	0.00
378.52	58.51
378.72	0.00
378.91	30.43
379.11	0.00
379.31	0.00
379.50	42.13
379.70	95.96
379.89	37.45
380.09	0.00
380.28	0.00
380.48	0.00
380.68	23.41
380.87	4.68
381.07	93.62
381.26	0.00
381.46	37.45
381.65	0.00
381.85	9.36
382.04	0.00
382.24	0.00
382.43	0.00
382.63	46.81
382.83	0.00
383.02	18.72
383.22	42.13
383.41	0.00
383.61	25.75
383.80	0.00
384.00	11.70
384.19	51.49
384.39	23.41
384.58	0.00
384.78	23.41
384.97	0.00
385.17	0.00
385.36	28.09
385.56	4.68
385.75	0.00
385.95	65.54
386.14	0.00
386.34	63.19
386.53	37.45
386.72	0.00
386.92	0.00
387.11	25.75
387.31	49.15
387.50	53.83
387.70	63.19
387.89	0.00
388.09	0.00
388.28	0.00
388.48	42.13
388.67	0.00
388.86	14.04
389.06	0.00
389.25	44.47
389.45	25.75
389.64	0.00
389.84	23.41
390.03	0.00
390.22	58.51
390.42	46.81
390.61	2.34
390.81	58.51
391.00	2.34
391.19	49.15
391.39	44.47
391.58	98.30
391.78	51.49
391.97	21.06
392.16	88.94
392.36	37.45
392.55	112.35
392.75	2.34
392.94	0.00
393.13	121.71
393.33	0.00
393.52	0.00
393.71	0.00
393.91	0.00
394.10	65.54
394.29	37.45
394.49	0.00
394.68	44.47
394.88	0.00
395.07	53.83
395.26	23.41
395.46	0.00
395.65	23.41
395.84	4.68
396.04	11.70
396.23	51.49
396.42	0.00
396.62	2.34
396.81	30.43
397.00	0.00
397.19	0.00
397.39	60.85
397.58	56.17
397.77	11.70
397.97	0.00
398.16	77.24
398.35	28.09
398.55	30.43
398.74	30.43
398.93	37.45
399.12	39.79
399.32	21.06
399.51	9.36
399.70	65.54
399.90	42.13
400.09	28.09
400.28	46.81
400.47	11.70
400.67	0.00
400.86	7.02
401.05	4.68
401.24	0.00
401.44	58.51
401.63	60.85
401.82	56.17
402.01	98.30
402.21	65.54
402.40	49.15
402.59	0.00
402.78	37.45
402.97	74.90
403.17	0.00
403.36	25.75
403.55	0.00
403.74	74.90
403.93	44.47
404.13	56.17
404.32	0.00
404.51	0.00
404.70	25.75
404.89	0.00
405.09	58.51
405.28	18.72
405.47	67.88
405.66	72.56
405.85	11.70
406.05	46.81
406.24	46.81
406.43	30.43
406.62	74.90
406.81	79.58
407.00	74.90
407.20	42.13
407.39	7.02
407.58	32.77
407.77	58.51
407.96	65.54
408.15	32.77
408.34	53.83
408.54	53.83
408.73	11.70
408.92	0.00
409.11	74.90
409.30	0.00
409.49	44.47
409.68	32.77
409.87	11.70
410.07	18.72
410.26	44.47
410.45	0.00
410.64	0.00
410.83	49.15
411.02	0.00
411.21	0.00
411.40	49.15
411.59	30.43
411.78	102.98
411.98	72.56
412.17	46.81
412.36	35.11
412.55	46.81
412.74	65.54
412.93	67.88
413.12	58.51
413.31	0.00
413.50	21.06
413.69	58.51
413.88	84.26
414.07	51.49
414.26	16.38
414.45	60.85
414.64	30.43
414.83	44.47
415.02	0.00
415.22	0.00
415.41	74.90
415.60	21.06
415.79	67.88
415.98	0.00
416.17	86.60
416.36	9.36
416.55	23.41
416.74	72.56
416.93	74.90
417.12	14.04
417.31	42.13
417.50	102.98
417.69	23.41
417.88	79.58
418.07	63.19
418.26	0.00
418.45	81.92
418.64	32.77
418.83	0.00
419.02	60.85
419.21	58.51
419.39	0.00
419.58	77.24
419.77	37.45
419.96	51.49
420.15	51.49
420.34	30.43
420.53	0.00
420.72	98.30
420.91	28.09
421.10	95.96
421.29	58.51
421.48	58.51
421.67	32.77
421.86	44.47
422.05	51.49
422.24	86.60
422.43	70.22
422.61	93.62
422.80	18.72
422.99	79.58
423.18	70.22
423.37	100.64
423.56	14.04
423.75	60.85
423.94	60.85
424.13	44.47
424.32	0.00
424.50	9.36
424.69	7.02
424.88	65.54
425.07	0.00
425.26	49.15
425.45	7.02
425.64	46.81
425.83	30.43
426.01	21.06
426.20	44.47
426.39	42.13
426.58	37.45
426.77	86.60
426.96	53.83
427.15	9.36
427.33	39.79
427.52	39.79
427.71	88.94
427.90	46.81
428.09	39.79
428.28	21.06
428.46	32.77
428.65	23.41
428.84	14.04
429.03	49.15
429.22	46.81
429.40	49.15
429.59	91.28
429.78	49.15
429.97	2.34
430.16	63.19
430.34	67.88
430.53	25.75
430.72	11.70
430.91	0.00
431.10	9.36
431.28	11.70
431.47	18.72
431.66	63.19
431.85	0.00
432.03	30.43
432.22	88.94
432.41	7.02
432.60	39.79
432.79	70.22
432.97	74.90
433.16	56.17
433.35	0.00
433.54	7.02
433.72	63.19
433.91	72.56
434.10	42.13
434.28	58.51
434.47	67.88
434.66	67.88
434.85	0.00
435.03	126.39
435.22	53.83
435.41	88.94
435.59	79.58
435.78	84.26
435.97	67.88
436.16	51.49
436.34	56.17
436.53	79.58
436.72	18.72
436.90	30.43
437.09	0.00
437.28	42.13
437.46	60.85
437.65	0.00
437.84	4.68
438.02	39.79
438.21	0.00
438.40	16.38
438.58	16.38
438.77	51.49
438.96	58.51
439.14	39.79
439.33	23.41
439.52	11.70
439.70	0.00
439.89	44.47
440.08	23.41
440.26	77.24
440.45	28.09
440.63	49.15
440.82	88.94
441.01	79.58
441.19	46.81
441.38	93.62
441.57	21.06
441.75	49.15
441.94	35.11
442.12	63.19
442.31	79.58
442.50	86.60
442.68	100.64
442.87	100.64
443.05	46.81
443.24	105.32
443.43	93.62
443.61	53.83
443.80	21.06
443.98	23.41
444.17	102.98
444.35	30.43
444.54	58.51
444.73	91.28
444.91	81.92
445.10	93.62
445.28	81.92
445.47	93.62
445.65	16.38
445.84	93.62
446.02	37.45
446.21	51.49
446.39	53.83
446.58	49.15
446.77	0.00
446.95	70.22
447.14	88.94
447.32	121.71
447.51	7.02
447.69	39.79
447.88	35.11
448.06	107.66
448.25	30.43
448.43	28.09
448.62	63.19
448.80	42.13
448.99	0.00
449.17	67.88
449.36	81.92
449.54	21.06
449.73	14.04
449.91	49.15
450.10	117.03
450.28	63.19
450.46	56.17
450.65	42.13
450.83	2.34
451.02	128.73
451.20	51.49
451.39	56.17
451.57	0.00
451.76	58.51
451.94	44.47
452.13	35.11
452.31	7.02
452.49	32.77
452.68	49.15
452.86	32.77
453.05	81.92
453.23	51.49
453.42	117.03
453.60	4.68
453.78	0.00
453.97	56.17
454.15	56.17
454.34	46.81
454.52	0.00
454.70	79.58
454.89	35.11
455.07	91.28
455.26	95.96
455.44	2.34
455.62	65.54
455.81	0.00
455.99	95.96
456.17	102.98
456.36	28.09
456.54	58.51
456.73	63.19
456.91	77.24
457.09	72.56
457.28	79.58
457.46	0.00
457.64	42.13
457.83	77.24
458.01	25.75
458.19	98.30
458.38	18.72
458.56	131.07
458.74	30.43
458.93	81.92
459.11	105.32
459.29	53.83
459.48	53.83
459.66	35.11
459.84	128.73
460.03	74.90
460.21	135.75
460.39	16.38
460.57	30.43
460.76	102.98
460.94	35.11
461.12	93.62
461.31	58.51
461.49	0.00
461.67	86.60
461.85	37.45
462.04	107.66
462.22	95.96
462.40	49.15
462.59	56.17
462.77	58.51
462.95	0.00
463.13	11.70
463.32	0.00
463.50	35.11
463.68	63.19
463.86	65.54
464.05	65.54
464.23	60.85
464.41	84.26
464.59	28.09
464.78	74.90
464.96	105.32
465.14	63.19
465.32	39.79
465.50	4.68
465.69	72.56
465.87	74.90
466.05	72.56
466.23	72.56
466.41	65.54
466.60	91.28
466.78	39.79
466.96	16.38
467.14	11.70
467.32	86.60
467.51	124.05
467.69	74.90
467.87	28.09
468.05	39.79
468.23	44.47
468.41	11.70
468.60	114.69
468.78	37.45
468.96	23.41
469.14	65.54
469.32	14.04
469.50	93.62
469.69	65.54
469.87	32.77
470.05	65.54
470.23	63.19
470.41	81.92
470.59	72.56
470.77	44.47
470.95	44.47
471.14	0.00
471.32	49.15
471.50	161.50
471.68	51.49
471.86	93.62
472.04	58.51
472.22	4.68
472.40	74.90
472.58	56.17
472.77	53.83
472.95	63.19
473.13	0.00
473.31	42.13
473.49	67.88
473.67	102.98
473.85	11.70
474.03	49.15
474.21	67.88
474.39	44.47
474.57	0.00
474.75	23.41
474.93	56.17
475.12	88.94
475.30	28.09
475.48	25.75
475.66	74.90
475.84	91.28
476.02	121.71
476.20	35.11
476.38	58.51
476.56	56.17
476.74	60.85
476.92	117.03
477.10	126.39
477.28	74.90
477.46	124.05
477.64	39.79
477.82	28.09
478.00	95.96
478.18	74.90
478.36	74.90
478.54	131.07
478.72	7.02
478.90	100.64
479.08	117.03
479.26	63.19
479.44	93.62
479.62	44.47
479.80	56.17
479.98	67.88
480.16	42.13
480.34	4.68
480.52	49.15
480.70	91.28
480.88	21.06
481.06	46.81
481.24	58.51
481.41	4.68
481.59	93.62
481.77	53.83
481.95	67.88
482.13	67.88
482.31	107.66
482.49	25.75
482.67	30.43
482.85	9.36
483.03	67.88
483.21	98.30
483.39	42.13
483.57	0.00
483.74	88.94
483.92	39.79
484.10	98.30
484.28	51.49
484.46	32.77
484.64	65.54
484.82	86.60
485.00	51.49
485.18	60.85
485.35	58.51
485.53	49.15
485.71	65.54
485.89	49.15
486.07	114.69
486.25	49.15
486.43	124.05
486.61	58.51
486.78	107.66
486.96	70.22
487.14	70.22
487.32	44.47
487.50	102.98
487.68	107.66
487.85	95.96
488.03	86.60
488.21	49.15
488.39	56.17
488.57	107.66
488.75	58.51
488.92	56.17
489.10	2.34
489.28	65.54
489.46	91.28
489.64	51.49
489.81	152.13
489.99	95.96
490.17	60.85
490.35	72.56
490.53	79.58
490.70	0.00
490.88	105.32
491.06	30.43
491.24	145.11
491.41	53.83
491.59	77.24
491.77	51.49
491.95	58.51
492.13	117.03
492.30	0.00
492.48	110.01
492.66	9.36
492.84	53.83
493.01	58.51
493.19	70.22
493.37	126.39
493.54	74.90
493.72	98.30
493.90	51.49
494.08	88.94
494.25	56.17
494.43	112.35
494.61	39.79
494.79	93.62
494.96	84.26
495.14	74.90
495.32	49.15
495.49	32.77
495.67	37.45
495.85	100.64
496.02	128.73
496.20	72.56
496.38	117.03
496.55	86.60
496.73	112.35
496.91	51.49
497.09	23.41
497.26	79.58
497.44	70.22
497.62	44.47
497.79	93.62
497.97	32.77
498.14	74.90
498.32	81.92
498.50	112.35
498.67	121.71
498.85	100.64
499.03	35.11
499.20	46.81
499.38	70.22
499.56	93.62
499.73	49.15
499.91	18.72
500.08	126.39
500.26	79.58
500.44	72.56
500.61	42.13
500.79	72.56
500.97	0.00
501.14	110.01
501.32	63.19
501.49	180.22
501.67	32.77
501.84	98.30
502.02	63.19
502.20	0.00
502.37	81.92
502.55	110.01
502.72	124.05
502.90	39.79
503.07	51.49
503.25	212.99
503.43	14.04
503.60	121.71
503.78	32.77
503.95	28.09
504.13	72.56
504.30	156.82
504.48	149.79
504.65	72.56
504.83	51.49
505.01	95.96
505.18	79.58
505.36	147.45
505.53	110.01
505.71	35.11
505.88	35.11
506.06	119.37
506.23	74.90
506.41	84.26
506.58	117.03
506.76	86.60
506.93	30.43
507.11	72.56
507.28	98.30
507.46	140.43
507.63	74.90
507.81	0.00
507.98	140.43
508.16	9.36
508.33	35.11
508.50	147.45
508.68	35.11
508.85	119.37
509.03	58.51
509.20	44.47
509.38	93.62
509.55	81.92
509.73	112.35
509.90	32.77
510.08	11.70
510.25	100.64
510.42	46.81
510.60	128.73
510.77	102.98
510.95	166.18
511.12	102.98
511.30	84.26
511.47	173.20
511.64	81.92
511.82	79.58
511.99	51.49
512.17	77.24
512.34	9.36
512.51	98.30
512.69	70.22
512.86	86.60
513.04	114.69
513.21	77.24
513.38	112.35
513.56	84.26
513.73	126.39
513.90	72.56
514.08	128.73
514.25	67.88
514.43	37.45
514.60	39.79
514.77	117.03
514.95	159.16
515.12	138.09
515.29	98.30
515.47	42.13
515.64	46.81
515.81	88.94
515.99	138.09
516.16	72.56
516.33	100.64
516.51	58.51
516.68	102.98
516.85	72.56
517.03	67.88
517.20	70.22
517.37	16.38
517.54	102.98
517.72	30.43
517.89	88.94
518.06	105.32
518.24	107.66
518.41	51.49
518.58	93.62
518.75	49.15
518.93	49.15
519.10	100.64
519.27	112.35
519.45	65.54
519.62	72.56
519.79	51.49
519.96	0.00
520.14	0.00
520.31	49.15
520.48	88.94
520.65	114.69
520.83	42.13
521.00	70.22
521.17	124.05
521.34	53.83
521.52	30.43
521.69	58.51
521.86	114.69
522.03	117.03
522.20	67.88
522.38	70.22
522.55	72.56
522.72	7.02
522.89	39.79
523.07	93.62
523.24	91.28
523.41	53.83
523.58	79.58
523.75	145.11
523.92	46.81
524.10	98.30
524.27	100.64
524.44	91.28
524.61	79.58
524.78	37.45
524.96	93.62
525.13	37.45
525.30	74.90
525.47	124.05
525.64	67.88
525.81	39.79
525.98	37.45
526.16	119.37
526.33	74.90
526.50	65.54
526.67	100.64
526.84	102.98
527.01	46.81
527.18	131.07
527.36	46.81
527.53	81.92
527.70	67.88
527.87	88.94
528.04	79.58
528.21	81.92
528.38	51.49
528.55	88.94
528.72	46.81
528.89	58.51
529.07	124.05
529.24	74.90
529.41	131.07
529.58	91.28
529.75	95.96
529.92	39.79
530.09	51.49
530.26	159.16
530.43	86.60
530.60	65.54
530.77	56.17
530.94	88.94
531.11	25.75
531.28	121.71
531.46	60.85
531.63	163.84
531.80	63.19
531.97	79.58
532.14	0.00
532.31	156.82
532.48	84.26
532.65	42.13
532.82	86.60
532.99	91.28
533.16	53.83
533.33	100.64
533.50	121.71
533.67	56.17
533.84	81.92
534.01	70.22
534.18	107.66
534.35	149.79
534.52	140.43
534.69	63.19
534.86	81.92
535.03	30.43
535.20	74.90
535.37	100.64
535.54	107.66
535.71	119.37
535.88	77.24
536.05	39.79
536.22	98.30
536.38	35.11
536.55	110.01
536.72	117.03
536.89	98.30
537.06	107.66
537.23	25.75
537.40	70.22
537.57	42.13
537.74	42.13
537.91	77.24
538.08	107.66
538.25	77.24
538.42	72.56
538.59	79.58
538.75	102.98
538.92	9.36
539.09	107.66
539.26	77.24
539.43	107.66
539.60	124.05
539.77	74.90
539.94	107.66
540.11	133.41
540.28	84.26
540.44	93.62
540.61	91.28
540.78	70.22
540.95	98.30
541.12	163.84
541.29	67.88
541.46	2.34
541.62	51.49
541.79	102.98
541.96	21.06
542.13	93.62
542.30	91.28
542.47	152.13
542.63	65.54
542.80	110.01
542.97	112.35
543.14	53.83
543.31	72.56
543.48	91.28
543.64	91.28
543.81	49.15
543.98	39.79
544.15	67.88
544.32	72.56
544.48	135.75
544.65	44.47
544.82	28.09
544.99	28.09
545.16	86.60
545.32	95.96
545.49	58.51
545.66	65.54
545.83	126.39
546.00	110.01
546.16	84.26
546.33	126.39
546.50	72.56
546.67	124.05
546.83	63.19
547.00	93.62
547.17	147.45
547.34	72.56
547.50	37.45
547.67	9.36
547.84	77.24
548.00	110.01
548.17	72.56
548.34	56.17
548.51	131.07
548.67	88.94
548.84	72.56
549.01	119.37
549.18	65.54
549.34	100.64
549.51	56.17
549.68	112.35
549.84	86.60
550.01	72.56
550.18	84.26
550.34	138.09
550.51	65.54
550.68	91.28
550.84	63.19
551.01	142.77
551.18	102.98
551.34	102.98
551.51	49.15
551.68	25.75
551.84	114.69
552.01	81.92
552.18	107.66
552.34	79.58
552.51	42.13
552.68	95.96
552.84	44.47
553.01	46.81
553.18	21.06
553.34	58.51
553.51	56.17
553.67	131.07
553.84	95.96
554.01	81.92
554.17	56.17
554.34	56.17
554.51	102.98
554.67	100.64
554.84	91.28
555.00	58.51
555.17	79.58
555.33	86.60
555.50	107.66
555.67	46.81
555.83	128.73
556.00	133.41
556.16	142.77
556.33	112.35
556.50	79.58
556.66	88.94
556.83	140.43
556.99	133.41
557.16	11.70
557.32	49.15
557.49	23.41
557.65	35.11
557.82	53.83
557.98	70.22
558.15	44.47
558.32	39.79
558.48	53.83
558.65	102.98
558.81	60.85
558.98	60.85
559.14	86.60
559.31	72.56
559.47	11.70
559.64	72.56
559.80	102.98
559.97	0.00
560.13	107.66
560.30	35.11
560.46	58.51
560.63	121.71
560.79	98.30
560.96	93.62
561.12	56.17
561.29	135.75
561.45	84.26
561.61	114.69
561.78	112.35
561.94	100.64
562.11	16.38
562.27	93.62
562.44	138.09
562.60	135.75
562.77	49.15
562.93	11.70
563.10	74.90
563.26	107.66
563.42	0.00
563.59	56.17
563.75	67.88
563.92	128.73
564.08	88.94
564.24	81.92
564.41	56.17
564.57	9.36
564.74	114.69
564.90	67.88
565.07	53.83
565.23	39.79
565.39	98.30
565.56	67.88
565.72	74.90
565.88	72.56
566.05	70.22
566.21	67.88
566.38	84.26
566.54	93.62
566.70	81.92
566.87	4.68
567.03	21.06
567.19	65.54
567.36	72.56
567.52	74.90
567.68	84.26
567.85	79.58
568.01	95.96
568.17	74.90
568.34	95.96
568.50	51.49
568.66	91.28
568.83	72.56
568.99	88.94
569.15	58.51
569.32	88.94
569.48	91.28
569.64	77.24
569.81	9.36
569.97	63.19
570.13	88.94
570.30	91.28
570.46	91.28
570.62	56.17
570.78	39.79
570.95	72.56
571.11	28.09
571.27	91.28
571.43	81.92
571.60	147.45
571.76	65.54
571.92	35.11
572.09	84.26
572.25	58.51
572.41	0.00
572.57	135.75
572.74	51.49
572.90	100.64
573.06	0.00
573.22	93.62
573.38	98.30
573.55	56.17
573.71	53.83
573.87	98.30
574.03	114.69
574.20	84.26
574.36	44.47
574.52	58.51
574.68	93.62
574.84	23.41
575.01	39.79
575.17	60.85
575.33	60.85
575.49	121.71
575.65	70.22
575.82	91.28
575.98	81.92
576.14	74.90
576.30	60.85
576.46	67.88
576.62	88.94
576.79	53.83
576.95	124.05
577.11	51.49
577.27	28.09
577.43	51.49
577.59	39.79
577.75	110.01
577.92	21.06
578.08	91.28
578.24	93.62
578.40	135.75
578.56	180.22
578.72	39.79
578.88	79.58
579.04	156.82
579.21	44.47
579.37	46.81
579.53	79.58
579.69	95.96
579.85	159.16
580.01	86.60
580.17	95.96
580.33	112.35
580.49	98.30
580.65	112.35
580.82	56.17
580.98	119.37
581.14	131.07
581.30	63.19
581.46	53.83
581.62	51.49
581.78	152.13
581.94	77.24
582.10	131.07
582.26	114.69
582.42	42.13
582.58	53.83
582.74	25.75
582.90	46.81
583.06	135.75
583.22	124.05
583.38	35.11
583.54	84.26
583.70	102.98
583.86	58.51
584.02	77.24
584.18	67.88
584.34	77.24
584.50	107.66
584.66	107.66
584.82	67.88
584.98	112.35
585.14	32.77
585.30	102.98
585.46	149.79
585.62	51.49
585.78	30.43
585.94	91.28
586.10	49.15
586.26	112.35
586.42	51.49
586.58	65.54
586.74	65.54
586.90	35.11
587.06	124.05
587.22	128.73
587.38	81.92
587.54	84.26
587.70	65.54
587.86	14.04
588.02	93.62
588.18	56.17
588.34	119.37
588.49	65.54
588.65	58.51
588.81	88.94
588.97	81.92
589.13	60.85
589.29	67.88
589.45	4.68
589.61	0.00
589.77	102.98
589.93	37.45
590.08	4.68
590.24	32.77
590.40	70.22
590.56	25.75
590.72	93.62
590.88	84.26
591.04	72.56
591.20	112.35
591.35	7.02
591.51	81.92
591.67	86.60
591.83	107.66
591.99	28.09
592.15	74.90
592.31	72.56
592.46	81.92
592.62	102.98
592.78	44.47
592.94	117.03
593.10	74.90
593.26	21.06
593.41	93.62
593.57	60.85
593.73	91.28
593.89	51.49
594.05	65.54
594.20	70.22
594.36	128.73
594.52	28.09
594.68	46.81
594.84	51.49
594.99	105.32
595.15	107.66
595.31	119.37
595.47	98.30
595.62	72.56
595.78	65.54
595.94	77.24
596.10	138.09
596.25	0.00
596.41	23.41
596.57	51.49
596.73	112.35
596.88	81.92
597.04	56.17
597.20	42.13
597.36	0.00
597.51	107.66
597.67	74.90
597.83	51.49
597.99	28.09
598.14	23.41
598.30	98.30
598.46	42.13
598.61	0.00
598.77	114.69
598.93	91.28
599.09	65.54
599.24	4.68
599.40	28.09
599.56	0.00
599.71	23.41
599.87	46.81
600.03	77.24
600.18	53.83
600.34	35.11
600.50	110.01
600.65	91.28
600.81	30.43
600.97	39.79
601.12	32.77
601.28	0.00
601.44	74.90
601.59	100.64
601.75	79.58
601.91	67.88
602.06	46.81
602.22	100.64
602.37	93.62
602.53	35.11
602.69	28.09
602.84	63.19
603.00	51.49
603.16	65.54
603.31	32.77
603.47	42.13
603.62	88.94
603.78	121.71
603.94	63.19
604.09	117.03
604.25	79.58
604.40	44.47
604.56	63.19
604.71	88.94
604.87	56.17
605.03	0.00
605.18	63.19
605.34	112.35
605.49	58.51
605.65	30.43
605.80	39.79
605.96	67.88
606.12	70.22
606.27	16.38
606.43	51.49
606.58	56.17
606.74	25.75
606.89	91.28
607.05	42.13
607.20	35.11
607.36	86.60
607.51	37.45
607.67	63.19
607.82	51.49
607.98	63.19
608.13	44.47
608.29	98.30
608.44	74.90
608.60	112.35
608.75	110.01
608.91	131.07
609.06	53.83
609.22	37.45
609.37	42.13
609.53	4.68
609.68	21.06
609.84	42.13
609.99	35.11
610.15	79.58
610.30	93.62
610.46	21.06
610.61	63.19
610.76	70.22
610.92	35.11
611.07	53.83
611.23	0.00
611.38	51.49
611.54	81.92
611.69	60.85
611.84	49.15
612.00	4.68
612.15	56.17
612.31	74.90
612.46	4.68
612.62	110.01
612.77	107.66
612.92	93.62
613.08	105.32
613.23	81.92
613.39	28.09
613.54	84.26
613.69	53.83
613.85	72.56
614.00	42.13
614.15	72.56
614.31	42.13
614.46	37.45
614.62	58.51
614.77	88.94
614.92	131.07
615.08	138.09
615.23	95.96
615.38	142.77
615.54	93.62
615.69	51.49
615.84	9.36
616.00	46.81
616.15	79.58
616.30	77.24
616.46	0.00
616.61	88.94
616.76	84.26
616.92	100.64
617.07	110.01
617.22	32.77
617.37	93.62
617.53	114.69
617.68	44.47
617.83	18.72
617.99	102.98
618.14	35.11
618.29	86.60
618.45	0.00
618.60	37.45
618.75	107.66
618.90	0.00
619.06	37.45
619.21	28.09
619.36	0.00
619.51	30.43
619.67	35.11
619.82	28.09
619.97	110.01
620.12	86.60
620.28	0.00
620.43	23.41
620.58	72.56
620.73	32.77
620.89	79.58
621.04	74.90
621.19	107.66
621.34	37.45
621.49	72.56
621.65	102.98
621.80	58.51
621.95	58.51
622.10	63.19
622.25	74.90
622.41	81.92
622.56	79.58
622.71	131.07
622.86	0.00
623.01	18.72
623.16	98.30
623.32	79.58
623.47	88.94
623.62	110.01
623.77	32.77
623.92	58.51
624.07	112.35
624.23	88.94
624.38	72.56
624.53	39.79
624.68	84.26
624.83	49.15
624.98	56.17
625.13	77.24
625.29	49.15
625.44	126.39
625.59	91.28
625.74	42.13
625.89	35.11
626.04	46.81
626.19	49.15
626.34	74.90
626.49	49.15
626.65	95.96
626.80	30.43
626.95	9.36
627.10	42.13
627.25	60.85
627.40	98.30
627.55	51.49
627.70	88.94
627.85	23.41
628.00	2.34
628.15	4.68
628.30	98.30
628.45	126.39
628.60	107.66
628.76	65.54
628.91	53.83
629.06	77.24
629.21	58.51
629.36	65.54
629.51	79.58
629.66	0.00
629.81	74.90
629.96	30.43
630.11	72.56
630.26	42.13
630.41	21.06
630.56	7.02
630.71	84.26
630.86	28.09
631.01	28.09
631.16	30.43
631.31	91.28
631.46	84.26
631.61	46.81
631.76	0.00
631.91	32.77
632.06	63.19
632.21	51.49
632.36	56.17
632.51	4.68
632.66	51.49
632.81	126.39
632.96	0.00
633.10	53.83
633.25	9.36
633.40	42.13
633.55	21.06
633.70	86.60
633.85	0.00
634.00	28.09
634.15	32.77
634.30	39.79
634.45	7.02
634.60	98.30
634.75	16.38
634.90	0.00
635.05	79.58
635.19	30.43
635.34	95.96
635.49	53.83
635.64	112.35
635.79	49.15
635.94	74.90
636.09	93.62
636.24	42.13
636.39	32.77
636.53	0.00
636.68	0.00
636.83	95.96
636.98	88.94
637.13	46.81
637.28	70.22
637.43	128.73
637.57	53.83
637.72	126.39
637.87	49.15
638.02	72.56
638.17	100.64
638.32	46.81
638.46	88.94
638.61	107.66
638.76	110.01
638.91	30.43
639.06	72.56
639.20	86.60
639.35	77.24
639.50	51.49
639.65	0.00
639.80	70.22
639.94	95.96
640.09	53.83
640.24	32.77
640.39	42.13
640.54	124.05
640.68	77.24
640.83	37.45
640.98	81.92
641.13	67.88
641.27	117.03
641.42	100.64
641.57	23.41
641.72	51.49
641.86	4.68
642.01	88.94
642.16	110.01
642.31	44.47
642.45	0.00
642.60	56.17
642.75	105.32
642.90	0.00
643.04	23.41
643.19	86.60
643.34	46.81
643.48	93.62
643.63	56.17
643.78	46.81
643.93	28.09
644.07	67.88
644.22	81.92
644.37	84.26
644.51	0.00
644.66	9.36
644.81	60.85
644.95	39.79
645.10	0.00
645.25	28.09
645.39	51.49
645.54	107.66
645.69	79.58
645.83	72.56
645.98	39.79
646.13	42.13
646.27	23.41
646.42	67.88
646.57	14.04
646.71	44.47
646.86	72.56
647.00	65.54
647.15	70.22
647.30	53.83
647.44	65.54
647.59	114.69
647.74	77.24
647.88	37.45
648.03	44.47
648.17	56.17
648.32	30.43
648.47	0.00
648.61	53.83
648.76	86.60
648.90	39.79
649.05	14.04
649.20	35.11
649.34	131.07
649.49	84.26
649.63	56.17
649.78	21.06
649.92	63.19
650.07	114.69
650.21	46.81
650.36	51.49
650.51	0.00
650.65	58.51
650.80	126.39
650.94	0.00
651.09	91.28
651.23	35.11
651.38	63.19
651.52	84.26
651.67	56.17
651.81	23.41
651.96	28.09
652.10	56.17
652.25	0.00
652.39	51.49
652.54	79.58
652.68	86.60
652.83	60.85
652.97	70.22
653.12	79.58
653.26	16.38
653.41	102.98
653.55	42.13
653.70	88.94
653.84	72.56
653.99	28.09
654.13	32.77
654.27	28.09
654.42	70.22
654.56	70.22
654.71	100.64
654.85	42.13
655.00	72.56
655.14	21.06
655.29	79.58
655.43	110.01
655.57	58.51
655.72	18.72
655.86	107.66
656.01	44.47
656.15	0.00
656.30	44.47
656.44	30.43
656.58	25.75
656.73	117.03
656.87	42.13
657.01	46.81
657.16	110.01
657.30	7.02
657.45	65.54
657.59	72.56
657.73	81.92
657.88	28.09
658.02	7.02
658.16	65.54
658.31	32.77
658.45	42.13
658.60	35.11
658.74	53.83
658.88	53.83
659.03	81.92
659.17	93.62
659.31	51.49
659.46	60.85
659.60	72.56
659.74	58.51
659.89	110.01
660.03	93.62
660.17	81.92
660.32	39.79
660.46	51.49
660.60	39.79
660.74	56.17
660.89	39.79
661.03	77.24
661.17	2.34
661.32	58.51
661.46	28.09
661.60	112.35
661.74	60.85
661.89	42.13
662.03	0.00
662.17	0.00
662.31	98.30
662.46	0.00
662.60	49.15
662.74	0.00
662.88	63.19
663.03	51.49
663.17	74.90
663.31	44.47
663.45	86.60
663.60	0.00
663.74	100.64
663.88	0.00
664.02	2.34
664.17	21.06
664.31	18.72
664.45	84.26
664.59	88.94
664.73	0.00
664.88	28.09
665.02	102.98
665.16	112.35
665.30	23.41
665.44	44.47
665.59	9.36
665.73	37.45
665.87	65.54
666.01	74.90
666.15	91.28
666.29	91.28
666.44	51.49
666.58	65.54
666.72	121.71
666.86	67.88
667.00	60.85
667.14	56.17
667.28	81.92
667.43	4.68
667.57	140.43
667.71	32.77
667.85	46.81
667.99	58.51
668.13	30.43
668.27	79.58
668.41	102.98
668.56	70.22
668.70	53.83
668.84	51.49
668.98	77.24
669.12	110.01
669.26	91.28
669.40	30.43
669.54	102.98
669.68	25.75
669.82	53.83
669.96	46.81
670.10	58.51
670.25	49.15
670.39	79.58
670.53	18.72
670.67	0.00
670.81	11.70
670.95	65.54
671.09	131.07
671.23	14.04
671.37	28.09
671.51	16.38
671.65	0.00
671.79	44.47
671.93	25.75
672.07	86.60
672.21	37.45
672.35	21.06
672.49	65.54
672.63	88.94
672.77	135.75
672.91	81.92
673.05	16.38
673.19	56.17
673.33	9.36
673.47	88.94
673.61	0.00
673.75	81.92
673.89	28.09
674.03	131.07
674.17	37.45
674.31	67.88
674.45	114.69
674.59	53.83
674.73	51.49
674.87	56.17
675.01	53.83
675.15	53.83
675.29	7.02
675.43	128.73
675.56	65.54
675.70	88.94
675.84	37.45
675.98	74.90
676.12	11.70
676.26	70.22
676.40	35.11
676.54	60.85
676.68	0.00
676.82	63.19
676.96	72.56
677.10	0.00
677.23	32.77
677.37	67.88
677.51	37.45
677.65	32.77
677.79	81.92
677.93	126.39
678.07	30.43
678.21	0.00
678.34	58.51
678.48	53.83
678.62	21.06
678.76	0.00
678.90	51.49
679.04	35.11
679.18	35.11
679.31	39.79
679.45	56.17
679.59	16.38
679.73	9.36
679.87	46.81
680.00	98.30
680.14	30.43
680.28	77.24
680.42	105.32
680.56	21.06
680.70	72.56
680.83	70.22
680.97	9.36
681.11	95.96
681.25	14.04
681.39	0.00
681.52	79.58
681.66	88.94
681.80	30.43
681.94	46.81
682.07	70.22
682.21	42.13
682.35	70.22
682.49	16.38
682.62	67.88
682.76	60.85
682.90	9.36
683.04	86.60
683.17	39.79
683.31	35.11
683.45	58.51
683.59	102.98
683.72	53.83
683.86	37.45
684.00	58.51
684.13	0.00
684.27	11.70
684.41	9.36
684.55	63.19
684.68	53.83
684.82	70.22
684.96	81.92
685.09	42.13
685.23	32.77
685.37	67.88
685.50	56.17
685.64	49.15
685.78	0.00
685.91	28.09
686.05	51.49
686.19	51.49
686.32	0.00
686.46	63.19
686.60	119.37
686.73	0.00
686.87	0.00
687.01	21.06
687.14	53.83
687.28	9.36
687.42	4.68
687.55	58.51
687.69	14.04
687.82	25.75
687.96	81.92
688.10	98.30
688.23	0.00
688.37	39.79
688.50	23.41
688.64	110.01
688.78	14.04
688.91	21.06
689.05	0.00
689.18	16.38
689.32	35.11
689.46	74.90
689.59	42.13
689.73	86.60
689.86	0.00
690.00	35.11
690.13	9.36
690.27	51.49
690.41	0.00
690.54	21.06
690.68	16.38
690.81	44.47
690.95	0.00
691.08	9.36
691.22	67.88
691.35	32.77
691.49	42.13
691.62	105.32
691.76	114.69
691.89	84.26
692.03	88.94
692.16	2.34
692.30	74.90
692.43	7.02
692.57	63.19
692.70	14.04
692.84	0.00
692.97	35.11
693.11	0.00
693.24	51.49
693.38	32.77
693.51	0.00
693.65	58.51
693.78	35.11
693.92	28.09
694.05	72.56
694.19	56.17
694.32	65.54
694.45	70.22
694.59	58.51
694.72	72.56
694.86	0.00
694.99	0.00
695.13	100.64
695.26	114.69
695.39	4.68
695.53	0.00
695.66	30.43
695.80	105.32
695.93	0.00
696.07	0.00
696.20	67.88
696.33	25.75
696.47	37.45
696.60	67.88
696.73	23.41
696.87	9.36
697.00	135.75
697.14	91.28
697.27	65.54
697.40	28.09
697.54	81.92
697.67	4.68
697.80	70.22
697.94	86.60
698.07	2.34
698.21	51.49
698.34	53.83
698.47	14.04
698.61	77.24
698.74	86.60
698.87	32.77
699.01	0.00
699.14	32.77
699.27	0.00
699.40	0.00
699.54	0.00
699.67	25.75
699.80	0.00
699.94	11.70
700.07	0.00
700.20	0.00
700.34	58.51
700.47	4.68
700.60	60.85
700.73	39.79
700.87	86.60
701.00	21.06
701.13	0.00
701.26	42.13
701.40	28.09
701.53	0.00
701.66	14.04
701.79	0.00
701.93	42.13
702.06	44.47
702.19	28.09
702.32	84.26
702.46	67.88
702.59	49.15
702.72	9.36
702.85	86.60
702.99	51.49
703.12	46.81
703.25	67.88
703.38	14.04
703.51	114.69
703.65	51.49
703.78	46.81
703.91	0.00
704.04	16.38
704.17	23.41
704.31	77.24
704.44	28.09
704.57	9.36
704.70	0.00
704.83	58.51
704.96	39.79
705.10	46.81
705.23	16.38
>>>>>End Processed Spectral Data<<<<<
