SpectraSuite Data File
++++++++++++++++++++++++++++++++++++
Date: Fri Oct 04 12:13:29 GMT-05:00 2013
User: price-jones
Dark Spectrum Present: No
Reference Spectrum Present: No
Number of Sampled Component Spectra: 1
Spectrometers: USB2+H05261
Integration Time (usec): 10000 (USB2+H05261)
Spectra Averaged: 1 (USB2+H05261)
Boxcar Smoothing: 0 (USB2+H05261)
Correct for Electrical Dark: No (USB2+H05261)
Strobe/Lamp Enabled: No (USB2+H05261)
Correct for Detector Non-linearity: No (USB2+H05261)
Correct for Stray Light: No (USB2+H05261)
Number of Pixels in Processed Spectrum: 2048
>>>>>Begin Processed Spectral Data<<<<<
365.73	0.00
365.92	0.00
366.12	0.00
366.32	0.00
366.52	0.00
366.72	0.00
366.91	0.00
367.11	0.00
367.31	0.00
367.51	0.00
367.70	0.00
367.90	0.00
368.10	0.00
368.30	0.00
368.49	0.00
368.69	0.00
368.89	0.00
369.09	0.00
369.28	0.00
369.48	0.00
369.68	0.00
369.87	0.00
370.07	0.00
370.27	0.00
370.47	0.00
370.66	0.00
370.86	0.00
371.06	0.00
371.25	0.00
371.45	0.00
371.65	0.00
371.84	0.00
372.04	7.02
372.24	0.00
372.44	0.00
372.63	0.00
372.83	23.41
373.03	0.00
373.22	0.00
373.42	0.00
373.62	32.77
373.81	0.00
374.01	58.51
374.21	0.00
374.40	25.75
374.60	0.00
374.79	28.09
374.99	9.36
375.19	60.85
375.38	0.00
375.58	23.41
375.78	23.41
375.97	23.41
376.17	46.81
376.37	88.94
376.56	32.77
376.76	51.49
376.95	63.19
377.15	0.00
377.35	140.43
377.54	88.94
377.74	16.38
377.93	53.83
378.13	0.00
378.33	0.00
378.52	32.77
378.72	0.00
378.91	14.04
379.11	35.11
379.31	0.00
379.50	0.00
379.70	0.00
379.89	51.49
380.09	0.00
380.28	0.00
380.48	16.38
380.68	21.06
380.87	21.06
381.07	72.56
381.26	0.00
381.46	0.00
381.65	9.36
381.85	0.00
382.04	0.00
382.24	16.38
382.43	7.02
382.63	25.75
382.83	74.90
383.02	9.36
383.22	14.04
383.41	46.81
383.61	0.00
383.80	51.49
384.00	0.00
384.19	0.00
384.39	23.41
384.58	0.00
384.78	23.41
384.97	63.19
385.17	79.58
385.36	49.15
385.56	0.00
385.75	39.79
385.95	32.77
386.14	65.54
386.34	63.19
386.53	79.58
386.72	74.90
386.92	32.77
387.11	16.38
387.31	37.45
387.50	37.45
387.70	0.00
387.89	28.09
388.09	39.79
388.28	44.47
388.48	91.28
388.67	2.34
388.86	9.36
389.06	0.00
389.25	58.51
389.45	14.04
389.64	81.92
389.84	39.79
390.03	0.00
390.22	0.00
390.42	0.00
390.61	11.70
390.81	100.64
391.00	51.49
391.19	60.85
391.39	0.00
391.58	0.00
391.78	51.49
391.97	4.68
392.16	56.17
392.36	65.54
392.55	67.88
392.75	58.51
392.94	0.00
393.13	23.41
393.33	86.60
393.52	0.00
393.71	0.00
393.91	0.00
394.10	4.68
394.29	0.00
394.49	44.47
394.68	0.00
394.88	42.13
395.07	119.37
395.26	0.00
395.46	0.00
395.65	42.13
395.84	32.77
396.04	35.11
396.23	46.81
396.42	35.11
396.62	67.88
396.81	65.54
397.00	16.38
397.19	0.00
397.39	9.36
397.58	53.83
397.77	7.02
397.97	18.72
398.16	0.00
398.35	7.02
398.55	7.02
398.74	88.94
398.93	0.00
399.12	32.77
399.32	39.79
399.51	67.88
399.70	67.88
399.90	25.75
400.09	28.09
400.28	28.09
400.47	39.79
400.67	11.70
400.86	0.00
401.05	0.00
401.24	0.00
401.44	16.38
401.63	46.81
401.82	0.00
402.01	0.00
402.21	42.13
402.40	18.72
402.59	0.00
402.78	0.00
402.97	2.34
403.17	0.00
403.36	37.45
403.55	0.00
403.74	2.34
403.93	46.81
404.13	18.72
404.32	18.72
404.51	32.77
404.70	44.47
404.89	44.47
405.09	32.77
405.28	21.06
405.47	72.56
405.66	7.02
405.85	56.17
406.05	51.49
406.24	0.00
406.43	42.13
406.62	32.77
406.81	63.19
407.00	35.11
407.20	63.19
407.39	46.81
407.58	39.79
407.77	16.38
407.96	74.90
408.15	9.36
408.34	37.45
408.54	67.88
408.73	102.98
408.92	37.45
409.11	14.04
409.30	4.68
409.49	23.41
409.68	58.51
409.87	79.58
410.07	9.36
410.26	72.56
410.45	4.68
410.64	65.54
410.83	60.85
411.02	35.11
411.21	44.47
411.40	28.09
411.59	0.00
411.78	0.00
411.98	0.00
412.17	70.22
412.36	53.83
412.55	18.72
412.74	51.49
412.93	51.49
413.12	14.04
413.31	7.02
413.50	46.81
413.69	32.77
413.88	74.90
414.07	46.81
414.26	138.09
414.45	42.13
414.64	0.00
414.83	28.09
415.02	46.81
415.22	37.45
415.41	44.47
415.60	14.04
415.79	42.13
415.98	4.68
416.17	37.45
416.36	0.00
416.55	21.06
416.74	28.09
416.93	0.00
417.12	14.04
417.31	0.00
417.50	35.11
417.69	147.45
417.88	56.17
418.07	7.02
418.26	14.04
418.45	2.34
418.64	67.88
418.83	42.13
419.02	35.11
419.21	0.00
419.39	35.11
419.58	60.85
419.77	70.22
419.96	14.04
420.15	0.00
420.34	39.79
420.53	25.75
420.72	72.56
420.91	44.47
421.10	60.85
421.29	0.00
421.48	95.96
421.67	93.62
421.86	46.81
422.05	42.13
422.24	0.00
422.43	65.54
422.61	102.98
422.80	0.00
422.99	25.75
423.18	11.70
423.37	21.06
423.56	44.47
423.75	30.43
423.94	2.34
424.13	49.15
424.32	72.56
424.50	46.81
424.69	95.96
424.88	67.88
425.07	0.00
425.26	0.00
425.45	49.15
425.64	0.00
425.83	23.41
426.01	14.04
426.20	16.38
426.39	105.32
426.58	0.00
426.77	16.38
426.96	23.41
427.15	16.38
427.33	23.41
427.52	0.00
427.71	0.00
427.90	0.00
428.09	0.00
428.28	18.72
428.46	37.45
428.65	0.00
428.84	30.43
429.03	0.00
429.22	14.04
429.40	98.30
429.59	42.13
429.78	14.04
429.97	79.58
430.16	14.04
430.34	0.00
430.53	72.56
430.72	65.54
430.91	56.17
431.10	23.41
431.28	63.19
431.47	0.00
431.66	67.88
431.85	0.00
432.03	53.83
432.22	49.15
432.41	23.41
432.60	30.43
432.79	74.90
432.97	53.83
433.16	9.36
433.35	44.47
433.54	67.88
433.72	44.47
433.91	2.34
434.10	21.06
434.28	79.58
434.47	9.36
434.66	37.45
434.85	0.00
435.03	72.56
435.22	65.54
435.41	25.75
435.59	11.70
435.78	21.06
435.97	32.77
436.16	79.58
436.34	0.00
436.53	0.00
436.72	21.06
436.90	44.47
437.09	32.77
437.28	0.00
437.46	14.04
437.65	0.00
437.84	14.04
438.02	25.75
438.21	23.41
438.40	0.00
438.58	58.51
438.77	65.54
438.96	37.45
439.14	39.79
439.33	39.79
439.52	63.19
439.70	28.09
439.89	37.45
440.08	16.38
440.26	86.60
440.45	105.32
440.63	42.13
440.82	32.77
441.01	60.85
441.19	119.37
441.38	0.00
441.57	30.43
441.75	0.00
441.94	42.13
442.12	9.36
442.31	0.00
442.50	86.60
442.68	0.00
442.87	65.54
443.05	79.58
443.24	105.32
443.43	42.13
443.61	126.39
443.80	30.43
443.98	9.36
444.17	16.38
444.35	0.00
444.54	25.75
444.73	11.70
444.91	21.06
445.10	23.41
445.28	9.36
445.47	0.00
445.65	51.49
445.84	58.51
446.02	114.69
446.21	44.47
446.39	16.38
446.58	28.09
446.77	81.92
446.95	39.79
447.14	58.51
447.32	65.54
447.51	46.81
447.69	0.00
447.88	0.00
448.06	72.56
448.25	46.81
448.43	42.13
448.62	0.00
448.80	0.00
448.99	37.45
449.17	63.19
449.36	16.38
449.54	51.49
449.73	0.00
449.91	42.13
450.10	2.34
450.28	28.09
450.46	18.72
450.65	49.15
450.83	60.85
451.02	42.13
451.20	70.22
451.39	4.68
451.57	51.49
451.76	49.15
451.94	81.92
452.13	0.00
452.31	28.09
452.49	42.13
452.68	0.00
452.86	53.83
453.05	30.43
453.23	58.51
453.42	60.85
453.60	86.60
453.78	0.00
453.97	42.13
454.15	30.43
454.34	7.02
454.52	37.45
454.70	18.72
454.89	30.43
455.07	0.00
455.26	72.56
455.44	67.88
455.62	53.83
455.81	98.30
455.99	44.47
456.17	100.64
456.36	14.04
456.54	25.75
456.73	0.00
456.91	46.81
457.09	4.68
457.28	42.13
457.46	18.72
457.64	0.00
457.83	30.43
458.01	7.02
458.19	0.00
458.38	79.58
458.56	39.79
458.74	4.68
458.93	11.70
459.11	0.00
459.29	2.34
459.48	18.72
459.66	102.98
459.84	30.43
460.03	110.01
460.21	95.96
460.39	16.38
460.57	0.00
460.76	44.47
460.94	39.79
461.12	42.13
461.31	18.72
461.49	86.60
461.67	105.32
461.85	93.62
462.04	65.54
462.22	77.24
462.40	37.45
462.59	88.94
462.77	93.62
462.95	91.28
463.13	0.00
463.32	51.49
463.50	23.41
463.68	0.00
463.86	74.90
464.05	88.94
464.23	65.54
464.41	11.70
464.59	51.49
464.78	42.13
464.96	88.94
465.14	56.17
465.32	72.56
465.50	44.47
465.69	88.94
465.87	18.72
466.05	35.11
466.23	81.92
466.41	79.58
466.60	51.49
466.78	42.13
466.96	67.88
467.14	60.85
467.32	37.45
467.51	0.00
467.69	79.58
467.87	84.26
468.05	95.96
468.23	35.11
468.41	16.38
468.60	0.00
468.78	35.11
468.96	39.79
469.14	63.19
469.32	25.75
469.50	0.00
469.69	14.04
469.87	63.19
470.05	16.38
470.23	32.77
470.41	11.70
470.59	14.04
470.77	0.00
470.95	81.92
471.14	58.51
471.32	23.41
471.50	39.79
471.68	0.00
471.86	0.00
472.04	46.81
472.22	9.36
472.40	67.88
472.58	60.85
472.77	35.11
472.95	23.41
473.13	30.43
473.31	14.04
473.49	9.36
473.67	46.81
473.85	0.00
474.03	0.00
474.21	0.00
474.39	72.56
474.57	56.17
474.75	23.41
474.93	30.43
475.12	84.26
475.30	0.00
475.48	9.36
475.66	79.58
475.84	65.54
476.02	42.13
476.20	70.22
476.38	35.11
476.56	84.26
476.74	28.09
476.92	28.09
477.10	0.00
477.28	100.64
477.46	56.17
477.64	16.38
477.82	18.72
478.00	7.02
478.18	72.56
478.36	0.00
478.54	0.00
478.72	0.00
478.90	0.00
479.08	35.11
479.26	42.13
479.44	98.30
479.62	67.88
479.80	2.34
479.98	9.36
480.16	18.72
480.34	67.88
480.52	77.24
480.70	0.00
480.88	9.36
481.06	28.09
481.24	0.00
481.41	0.00
481.59	53.83
481.77	9.36
481.95	70.22
482.13	14.04
482.31	79.58
482.49	35.11
482.67	39.79
482.85	21.06
483.03	70.22
483.21	0.00
483.39	39.79
483.57	16.38
483.74	4.68
483.92	44.47
484.10	16.38
484.28	42.13
484.46	35.11
484.64	14.04
484.82	21.06
485.00	4.68
485.18	70.22
485.35	70.22
485.53	53.83
485.71	53.83
485.89	84.26
486.07	56.17
486.25	63.19
486.43	49.15
486.61	37.45
486.78	39.79
486.96	60.85
487.14	100.64
487.32	39.79
487.50	58.51
487.68	39.79
487.85	23.41
488.03	9.36
488.21	70.22
488.39	63.19
488.57	53.83
488.75	9.36
488.92	105.32
489.10	0.00
489.28	79.58
489.46	25.75
489.64	44.47
489.81	42.13
489.99	35.11
490.17	72.56
490.35	37.45
490.53	42.13
490.70	42.13
490.88	42.13
491.06	0.00
491.24	32.77
491.41	37.45
491.59	91.28
491.77	0.00
491.95	105.32
492.13	9.36
492.30	25.75
492.48	35.11
492.66	0.00
492.84	0.00
493.01	28.09
493.19	2.34
493.37	72.56
493.54	14.04
493.72	67.88
493.90	23.41
494.08	100.64
494.25	81.92
494.43	49.15
494.61	30.43
494.79	63.19
494.96	56.17
495.14	0.00
495.32	18.72
495.49	25.75
495.67	11.70
495.85	25.75
496.02	84.26
496.20	0.00
496.38	46.81
496.55	23.41
496.73	49.15
496.91	11.70
497.09	168.52
497.26	0.00
497.44	100.64
497.62	102.98
497.79	51.49
497.97	100.64
498.14	39.79
498.32	86.60
498.50	58.51
498.67	0.00
498.85	65.54
499.03	42.13
499.20	46.81
499.38	37.45
499.56	51.49
499.73	51.49
499.91	107.66
500.08	72.56
500.26	39.79
500.44	28.09
500.61	0.00
500.79	100.64
500.97	35.11
501.14	18.72
501.32	32.77
501.49	7.02
501.67	32.77
501.84	84.26
502.02	58.51
502.20	35.11
502.37	65.54
502.55	23.41
502.72	28.09
502.90	44.47
503.07	58.51
503.25	51.49
503.43	37.45
503.60	9.36
503.78	23.41
503.95	42.13
504.13	35.11
504.30	0.00
504.48	0.00
504.65	95.96
504.83	0.00
505.01	0.00
505.18	23.41
505.36	0.00
505.53	0.00
505.71	4.68
505.88	42.13
506.06	79.58
506.23	51.49
506.41	32.77
506.58	74.90
506.76	0.00
506.93	86.60
507.11	4.68
507.28	35.11
507.46	77.24
507.63	91.28
507.81	14.04
507.98	102.98
508.16	46.81
508.33	63.19
508.50	23.41
508.68	91.28
508.85	88.94
509.03	81.92
509.20	58.51
509.38	60.85
509.55	51.49
509.73	65.54
509.90	53.83
510.08	65.54
510.25	0.00
510.42	49.15
510.60	42.13
510.77	0.00
510.95	88.94
511.12	58.51
511.30	39.79
511.47	9.36
511.64	60.85
511.82	39.79
511.99	105.32
512.17	49.15
512.34	9.36
512.51	0.00
512.69	63.19
512.86	21.06
513.04	25.75
513.21	0.00
513.38	60.85
513.56	28.09
513.73	51.49
513.90	0.00
514.08	112.35
514.25	70.22
514.43	0.00
514.60	0.00
514.77	23.41
514.95	0.00
515.12	25.75
515.29	138.09
515.47	11.70
515.64	25.75
515.81	63.19
515.99	46.81
516.16	46.81
516.33	65.54
516.51	23.41
516.68	25.75
516.85	46.81
517.03	67.88
517.20	37.45
517.37	114.69
517.54	30.43
517.72	14.04
517.89	65.54
518.06	84.26
518.24	46.81
518.41	16.38
518.58	98.30
518.75	60.85
518.93	91.28
519.10	58.51
519.27	0.00
519.45	0.00
519.62	18.72
519.79	42.13
519.96	0.00
520.14	67.88
520.31	0.00
520.48	9.36
520.65	74.90
520.83	0.00
521.00	93.62
521.17	77.24
521.34	58.51
521.52	11.70
521.69	39.79
521.86	77.24
522.03	70.22
522.20	35.11
522.38	86.60
522.55	46.81
522.72	18.72
522.89	91.28
523.07	0.00
523.24	44.47
523.41	60.85
523.58	4.68
523.75	35.11
523.92	0.00
524.10	21.06
524.27	44.47
524.44	35.11
524.61	2.34
524.78	25.75
524.96	44.47
525.13	65.54
525.30	4.68
525.47	72.56
525.64	72.56
525.81	84.26
525.98	0.00
526.16	86.60
526.33	107.66
526.50	0.00
526.67	0.00
526.84	63.19
527.01	72.56
527.18	49.15
527.36	49.15
527.53	81.92
527.70	86.60
527.87	14.04
528.04	51.49
528.21	0.00
528.38	23.41
528.55	72.56
528.72	9.36
528.89	18.72
529.07	0.00
529.24	77.24
529.41	30.43
529.58	60.85
529.75	42.13
529.92	110.01
530.09	72.56
530.26	30.43
530.43	166.18
530.60	51.49
530.77	39.79
530.94	35.11
531.11	58.51
531.28	74.90
531.46	114.69
531.63	98.30
531.80	0.00
531.97	28.09
532.14	81.92
532.31	77.24
532.48	58.51
532.65	60.85
532.82	16.38
532.99	32.77
533.16	142.77
533.33	93.62
533.50	58.51
533.67	95.96
533.84	67.88
534.01	98.30
534.18	25.75
534.35	25.75
534.52	67.88
534.69	39.79
534.86	56.17
535.03	0.00
535.20	37.45
535.37	58.51
535.54	65.54
535.71	93.62
535.88	67.88
536.05	14.04
536.22	25.75
536.38	32.77
536.55	9.36
536.72	35.11
536.89	93.62
537.06	112.35
537.23	72.56
537.40	25.75
537.57	16.38
537.74	30.43
537.91	0.00
538.08	0.00
538.25	30.43
538.42	32.77
538.59	14.04
538.75	58.51
538.92	0.00
539.09	39.79
539.26	39.79
539.43	42.13
539.60	112.35
539.77	131.07
539.94	194.26
540.11	126.39
540.28	88.94
540.44	117.03
540.61	53.83
540.78	135.75
540.95	42.13
541.12	67.88
541.29	98.30
541.46	126.39
541.62	86.60
541.79	98.30
541.96	145.11
542.13	133.41
542.30	51.49
542.47	114.69
542.63	56.17
542.80	49.15
542.97	58.51
543.14	46.81
543.31	39.79
543.48	81.92
543.64	79.58
543.81	11.70
543.98	91.28
544.15	14.04
544.32	105.32
544.48	0.00
544.65	4.68
544.82	39.79
544.99	18.72
545.16	11.70
545.32	46.81
545.49	86.60
545.66	112.35
545.83	58.51
546.00	37.45
546.16	65.54
546.33	44.47
546.50	53.83
546.67	63.19
546.83	98.30
547.00	105.32
547.17	25.75
547.34	35.11
547.50	28.09
547.67	39.79
547.84	77.24
548.00	16.38
548.17	0.00
548.34	42.13
548.51	53.83
548.67	9.36
548.84	44.47
549.01	58.51
549.18	51.49
549.34	35.11
549.51	63.19
549.68	23.41
549.84	7.02
550.01	107.66
550.18	0.00
550.34	18.72
550.51	28.09
550.68	32.77
550.84	4.68
551.01	25.75
551.18	0.00
551.34	16.38
551.51	67.88
551.68	93.62
551.84	7.02
552.01	4.68
552.18	67.88
552.34	86.60
552.51	60.85
552.68	30.43
552.84	0.00
553.01	65.54
553.18	0.00
553.34	51.49
553.51	39.79
553.67	49.15
553.84	18.72
554.01	65.54
554.17	28.09
554.34	28.09
554.51	74.90
554.67	53.83
554.84	135.75
555.00	0.00
555.17	77.24
555.33	95.96
555.50	74.90
555.67	0.00
555.83	60.85
556.00	74.90
556.16	25.75
556.33	51.49
556.50	23.41
556.66	79.58
556.83	18.72
556.99	23.41
557.16	70.22
557.32	56.17
557.49	0.00
557.65	63.19
557.82	42.13
557.98	21.06
558.15	93.62
558.32	86.60
558.48	60.85
558.65	0.00
558.81	0.00
558.98	0.00
559.14	77.24
559.31	39.79
559.47	74.90
559.64	42.13
559.80	74.90
559.97	23.41
560.13	74.90
560.30	53.83
560.46	11.70
560.63	28.09
560.79	74.90
560.96	53.83
561.12	7.02
561.29	72.56
561.45	14.04
561.61	23.41
561.78	72.56
561.94	58.51
562.11	32.77
562.27	0.00
562.44	23.41
562.60	0.00
562.77	0.00
562.93	79.58
563.10	65.54
563.26	18.72
563.42	16.38
563.59	0.00
563.75	67.88
563.92	63.19
564.08	100.64
564.24	56.17
564.41	51.49
564.57	138.09
564.74	105.32
564.90	147.45
565.07	84.26
565.23	7.02
565.39	37.45
565.56	53.83
565.72	16.38
565.88	11.70
566.05	0.00
566.21	102.98
566.38	121.71
566.54	0.00
566.70	25.75
566.87	30.43
567.03	72.56
567.19	39.79
567.36	25.75
567.52	9.36
567.68	51.49
567.85	56.17
568.01	4.68
568.17	37.45
568.34	46.81
568.50	72.56
568.66	0.00
568.83	56.17
568.99	28.09
569.15	119.37
569.32	30.43
569.48	7.02
569.64	0.00
569.81	77.24
569.97	0.00
570.13	81.92
570.30	2.34
570.46	58.51
570.62	98.30
570.78	0.00
570.95	32.77
571.11	93.62
571.27	0.00
571.43	32.77
571.60	51.49
571.76	16.38
571.92	37.45
572.09	28.09
572.25	100.64
572.41	30.43
572.57	18.72
572.74	2.34
572.90	46.81
573.06	56.17
573.22	124.05
573.38	28.09
573.55	98.30
573.71	88.94
573.87	67.88
574.03	138.09
574.20	60.85
574.36	18.72
574.52	0.00
574.68	28.09
574.84	23.41
575.01	32.77
575.17	28.09
575.33	0.00
575.49	70.22
575.65	42.13
575.82	70.22
575.98	100.64
576.14	91.28
576.30	112.35
576.46	67.88
576.62	39.79
576.79	49.15
576.95	28.09
577.11	74.90
577.27	84.26
577.43	16.38
577.59	105.32
577.75	79.58
577.92	0.00
578.08	0.00
578.24	0.00
578.40	0.00
578.56	23.41
578.72	60.85
578.88	72.56
579.04	53.83
579.21	72.56
579.37	72.56
579.53	53.83
579.69	18.72
579.85	67.88
580.01	14.04
580.17	79.58
580.33	93.62
580.49	11.70
580.65	9.36
580.82	44.47
580.98	28.09
581.14	18.72
581.30	63.19
581.46	70.22
581.62	77.24
581.78	105.32
581.94	72.56
582.10	60.85
582.26	35.11
582.42	0.00
582.58	70.22
582.74	4.68
582.90	110.01
583.06	79.58
583.22	23.41
583.38	44.47
583.54	70.22
583.70	79.58
583.86	117.03
584.02	170.86
584.18	88.94
584.34	110.01
584.50	334.70
584.66	2375.64
584.82	5664.10
584.98	8131.02
585.14	6988.84
585.30	4360.42
585.46	2705.66
585.62	1685.19
585.78	833.23
585.94	320.65
586.10	194.26
586.26	117.03
586.42	46.81
586.58	166.18
586.74	60.85
586.90	91.28
587.06	84.26
587.22	91.28
587.38	86.60
587.54	198.95
587.70	337.04
587.86	580.45
588.02	557.05
588.18	435.34
588.34	320.65
588.49	229.37
588.65	95.96
588.81	84.26
588.97	121.71
589.13	7.02
589.29	35.11
589.45	11.70
589.61	72.56
589.77	21.06
589.93	9.36
590.08	4.68
590.24	7.02
590.40	0.00
590.56	53.83
590.72	95.96
590.88	72.56
591.04	58.51
591.20	14.04
591.35	30.43
591.51	46.81
591.67	60.85
591.83	30.43
591.99	46.81
592.15	51.49
592.31	133.41
592.46	14.04
592.62	95.96
592.78	49.15
592.94	2.34
593.10	51.49
593.26	0.00
593.41	37.45
593.57	65.54
593.73	81.92
593.89	379.17
594.05	793.44
594.20	1123.46
594.36	1029.84
594.52	603.86
594.68	395.55
594.84	313.63
594.99	135.75
595.15	112.35
595.31	58.51
595.47	11.70
595.62	84.26
595.78	107.66
595.94	18.72
596.10	74.90
596.25	67.88
596.41	91.28
596.57	49.15
596.73	86.60
596.88	67.88
597.04	147.45
597.20	201.29
597.36	322.99
597.51	231.71
597.67	110.01
597.83	95.96
597.99	30.43
598.14	53.83
598.30	39.79
598.46	77.24
598.61	0.00
598.77	46.81
598.93	0.00
599.09	49.15
599.24	46.81
599.40	42.13
599.56	81.92
599.71	88.94
599.87	44.47
600.03	7.02
600.18	18.72
600.34	51.49
600.50	0.00
600.65	70.22
600.81	95.96
600.97	0.00
601.12	28.09
601.28	35.11
601.44	39.79
601.59	49.15
601.75	58.51
601.91	28.09
602.06	119.37
602.22	49.15
602.37	159.16
602.53	168.52
602.69	257.46
602.84	217.67
603.00	250.44
603.16	140.43
603.31	91.28
603.47	51.49
603.62	91.28
603.78	44.47
603.94	51.49
604.09	65.54
604.25	79.58
604.40	28.09
604.56	91.28
604.71	0.00
604.87	9.36
605.03	70.22
605.18	7.02
605.34	28.09
605.49	88.94
605.65	53.83
605.80	91.28
605.96	32.77
606.12	32.77
606.27	16.38
606.43	131.07
606.58	77.24
606.74	112.35
606.89	435.34
607.05	753.65
607.20	896.43
607.36	765.36
607.51	517.26
607.67	374.49
607.82	142.77
607.98	191.92
608.13	93.62
608.29	16.38
608.44	53.83
608.60	72.56
608.75	32.77
608.91	126.39
609.06	594.50
609.22	1174.95
609.37	1507.30
609.53	1228.78
609.68	866.00
609.84	648.33
609.99	390.87
610.15	222.35
610.30	117.03
610.46	46.81
610.61	175.54
610.76	63.19
610.92	16.38
611.07	105.32
611.23	107.66
611.38	0.00
611.54	63.19
611.69	25.75
611.84	37.45
612.00	9.36
612.15	30.43
612.31	70.22
612.46	42.13
612.62	145.11
612.77	23.41
612.92	37.45
613.08	88.94
613.23	95.96
613.39	175.54
613.54	117.03
613.69	470.45
613.85	1458.15
614.00	2225.85
614.15	2319.47
614.31	1671.14
614.46	1067.28
614.62	758.33
614.77	421.30
614.92	229.37
615.08	93.62
615.23	77.24
615.38	114.69
615.54	37.45
615.69	121.71
615.84	327.68
616.00	566.41
616.15	645.99
616.30	521.94
616.46	421.30
616.61	189.58
616.76	196.60
616.92	149.79
617.07	100.64
617.22	46.81
617.37	65.54
617.53	0.00
617.68	126.39
617.83	23.41
617.99	77.24
618.14	39.79
618.29	0.00
618.45	63.19
618.60	23.41
618.75	32.77
618.90	81.92
619.06	16.38
619.21	110.01
619.36	65.54
619.51	0.00
619.67	98.30
619.82	14.04
619.97	70.22
620.12	9.36
620.28	117.03
620.43	0.00
620.58	0.00
620.73	37.45
620.89	100.64
621.04	21.06
621.19	154.48
621.34	290.23
621.49	402.57
621.65	383.85
621.80	205.97
621.95	198.95
622.10	145.11
622.25	58.51
622.41	63.19
622.56	25.75
622.71	84.26
622.86	42.13
623.01	72.56
623.16	0.00
623.32	42.13
623.47	28.09
623.62	95.96
623.77	16.38
623.92	0.00
624.07	35.11
624.23	72.56
624.38	77.24
624.53	67.88
624.68	0.00
624.83	46.81
624.98	0.00
625.13	49.15
625.29	18.72
625.44	86.60
625.59	88.94
625.74	32.77
625.89	56.17
626.04	285.55
626.19	650.67
626.34	1071.97
626.49	1210.06
626.65	887.06
626.80	629.60
626.95	477.47
627.10	292.57
627.25	159.16
627.40	119.37
627.55	70.22
627.70	65.54
627.85	112.35
628.00	46.81
628.15	0.00
628.30	0.00
628.45	95.96
628.60	72.56
628.76	25.75
628.91	65.54
629.06	44.47
629.21	37.45
629.36	49.15
629.51	32.77
629.66	0.00
629.81	67.88
629.96	152.13
630.11	313.63
630.26	355.76
630.41	367.46
630.56	306.61
630.71	126.39
630.86	149.79
631.01	86.60
631.16	44.47
631.31	51.49
631.46	49.15
631.61	93.62
631.76	39.79
631.91	128.73
632.06	37.45
632.21	72.56
632.36	28.09
632.51	72.56
632.66	7.02
632.81	112.35
632.96	435.34
633.10	695.14
633.25	917.49
633.40	629.60
633.55	521.94
633.70	334.70
633.85	248.10
634.00	196.60
634.15	81.92
634.30	81.92
634.45	60.85
634.60	37.45
634.75	86.60
634.90	91.28
635.05	58.51
635.19	65.54
635.34	46.81
635.49	63.19
635.64	0.00
635.79	44.47
635.94	84.26
636.09	67.88
636.24	81.92
636.39	4.68
636.53	49.15
636.68	21.06
636.83	44.47
636.98	0.00
637.13	25.75
637.28	88.94
637.43	63.19
637.57	138.09
637.72	386.19
637.87	929.19
638.02	1404.32
638.17	1612.63
638.32	1165.59
638.46	840.25
638.61	545.34
638.76	341.72
638.91	205.97
639.06	53.83
639.20	11.70
639.35	18.72
639.50	86.60
639.65	564.07
639.80	1465.18
639.94	2258.62
640.09	2401.39
640.24	1797.53
640.39	1203.04
640.54	861.32
640.68	601.52
640.83	273.84
640.98	212.99
641.13	98.30
641.27	21.06
641.42	58.51
641.57	51.49
641.72	79.58
641.86	35.11
642.01	65.54
642.16	63.19
642.31	46.81
642.45	58.51
642.60	42.13
642.75	11.70
642.90	7.02
643.04	112.35
643.19	7.02
643.34	0.00
643.48	60.85
643.63	0.00
643.78	35.11
643.93	67.88
644.07	46.81
644.22	30.43
644.37	37.45
644.51	2.34
644.66	0.00
644.81	0.00
644.95	28.09
645.10	28.09
645.25	74.90
645.39	93.62
645.54	0.00
645.69	39.79
645.83	0.00
645.98	60.85
646.13	88.94
646.27	46.81
646.42	42.13
646.57	49.15
646.71	4.68
646.86	11.70
647.00	46.81
647.15	77.24
647.30	30.43
647.44	46.81
647.59	46.81
647.74	46.81
647.88	0.00
648.03	49.15
648.17	72.56
648.32	0.00
648.47	28.09
648.61	21.06
648.76	0.00
648.90	0.00
649.05	74.90
649.20	65.54
649.34	16.38
649.49	49.15
649.63	60.85
649.78	70.22
649.92	131.07
650.07	266.82
650.21	617.90
650.36	1123.46
650.51	1341.13
650.65	1053.24
650.80	788.76
650.94	505.56
651.09	346.40
651.23	159.16
651.38	135.75
651.52	95.96
651.67	0.00
651.81	77.24
651.96	79.58
652.10	28.09
652.25	58.51
652.39	77.24
652.54	21.06
652.68	74.90
652.83	292.57
652.97	454.06
653.12	468.11
653.26	386.19
653.41	330.02
653.55	203.63
653.70	133.41
653.84	135.75
653.99	39.79
654.13	98.30
654.27	67.88
654.42	25.75
654.56	18.72
654.71	53.83
654.85	32.77
655.00	4.68
655.14	28.09
655.29	0.00
655.43	11.70
655.57	9.36
655.72	14.04
655.86	9.36
656.01	16.38
656.15	72.56
656.30	25.75
656.44	21.06
656.58	42.13
656.73	53.83
656.87	23.41
657.01	46.81
657.16	138.09
657.30	100.64
657.45	70.22
657.59	95.96
657.73	0.00
657.88	46.81
658.02	32.77
658.16	0.00
658.31	21.06
658.45	56.17
658.60	51.49
658.74	86.60
658.88	42.13
659.03	65.54
659.17	25.75
659.31	117.03
659.46	306.61
659.60	477.47
659.74	645.99
659.89	580.45
660.03	414.27
660.17	243.42
660.32	112.35
660.46	25.75
660.60	58.51
660.74	42.13
660.89	77.24
661.03	58.51
661.17	0.00
661.32	32.77
661.46	25.75
661.60	32.77
661.74	0.00
661.89	86.60
662.03	0.00
662.17	0.00
662.31	21.06
662.46	2.34
662.60	14.04
662.74	23.41
662.88	21.06
663.03	44.47
663.17	53.83
663.31	93.62
663.45	28.09
663.60	25.75
663.74	49.15
663.88	4.68
664.02	53.83
664.17	0.00
664.31	51.49
664.45	88.94
664.59	63.19
664.73	0.00
664.88	23.41
665.02	37.45
665.16	0.00
665.30	42.13
665.44	0.00
665.59	60.85
665.73	0.00
665.87	7.02
666.01	0.00
666.15	35.11
666.29	2.34
666.44	67.88
666.58	42.13
666.72	28.09
666.86	0.00
667.00	9.36
667.14	0.00
667.28	194.26
667.43	582.79
667.57	919.83
667.71	1179.63
667.85	992.39
667.99	772.38
668.13	397.89
668.27	297.25
668.41	149.79
668.56	119.37
668.70	65.54
668.84	32.77
668.98	23.41
669.12	46.81
669.26	77.24
669.40	0.00
669.54	117.03
669.68	51.49
669.82	42.13
669.96	67.88
670.10	63.19
670.25	0.00
670.39	0.00
670.53	0.00
670.67	74.90
670.81	7.02
670.95	0.00
671.09	107.66
671.23	257.46
671.37	397.89
671.51	624.92
671.65	812.17
671.79	552.37
671.93	374.49
672.07	210.65
672.21	110.01
672.35	128.73
672.49	2.34
672.63	39.79
672.77	72.56
672.91	91.28
673.05	39.79
673.19	67.88
673.33	11.70
673.47	32.77
673.61	124.05
673.75	39.79
673.89	91.28
674.03	42.13
674.17	9.36
674.31	25.75
674.45	72.56
674.59	65.54
674.73	0.00
674.87	28.09
675.01	58.51
675.15	53.83
675.29	23.41
675.43	93.62
675.56	37.45
675.70	0.00
675.84	79.58
675.98	0.00
676.12	58.51
676.26	44.47
676.40	0.00
676.54	32.77
676.68	74.90
676.82	53.83
676.96	0.00
677.10	49.15
677.23	51.49
677.37	16.38
677.51	84.26
677.65	49.15
677.79	0.00
677.93	21.06
678.07	0.00
678.21	63.19
678.34	0.00
678.48	107.66
678.62	39.79
678.76	65.54
678.90	0.00
679.04	18.72
679.18	107.66
679.31	42.13
679.45	0.00
679.59	0.00
679.73	28.09
679.87	25.75
680.00	14.04
680.14	28.09
680.28	39.79
680.42	46.81
680.56	65.54
680.70	4.68
680.83	93.62
680.97	30.43
681.11	28.09
681.25	72.56
681.39	16.38
681.52	49.15
681.66	86.60
681.80	100.64
681.94	133.41
682.07	4.68
682.21	98.30
682.35	65.54
682.49	0.00
682.62	25.75
682.76	53.83
682.90	25.75
683.04	0.00
683.17	65.54
683.31	70.22
683.45	39.79
683.59	0.00
683.72	35.11
683.86	42.13
684.00	60.85
684.13	53.83
684.27	60.85
684.41	63.19
684.55	65.54
684.68	30.43
684.82	0.00
684.96	39.79
685.09	25.75
685.23	0.00
685.37	37.45
685.50	0.00
685.64	114.69
685.78	93.62
685.91	0.00
686.05	100.64
686.19	88.94
686.32	49.15
686.46	30.43
686.60	60.85
686.73	67.88
686.87	46.81
687.01	4.68
687.14	28.09
687.28	0.00
687.42	9.36
687.55	53.83
687.69	56.17
687.82	30.43
687.96	11.70
688.10	9.36
688.23	32.77
688.37	2.34
688.50	100.64
688.64	14.04
688.78	60.85
688.91	21.06
689.05	18.72
689.18	0.00
689.32	91.28
689.46	25.75
689.59	28.09
689.73	14.04
689.86	46.81
690.00	42.13
690.13	4.68
690.27	4.68
690.41	39.79
690.54	51.49
690.68	49.15
690.81	39.79
690.95	100.64
691.08	18.72
691.22	53.83
691.35	11.70
691.49	16.38
691.62	16.38
691.76	37.45
691.89	0.00
692.03	58.51
692.16	88.94
692.30	51.49
692.43	51.49
692.57	203.63
692.70	442.36
692.84	472.79
692.97	503.22
693.11	395.55
693.24	222.35
693.38	191.92
693.51	44.47
693.65	46.81
693.78	117.03
693.92	77.24
694.05	79.58
694.19	39.79
694.32	0.00
694.45	51.49
694.59	4.68
694.72	65.54
694.86	2.34
694.99	32.77
695.13	56.17
695.26	65.54
695.39	35.11
695.53	32.77
695.66	138.09
695.80	0.00
695.93	35.11
696.07	23.41
696.20	51.49
696.33	28.09
696.47	88.94
696.60	86.60
696.73	18.72
696.87	51.49
697.00	114.69
697.14	9.36
697.27	0.00
697.40	42.13
697.54	25.75
697.67	0.00
697.80	0.00
697.94	42.13
698.07	2.34
698.21	2.34
698.34	42.13
698.47	25.75
698.61	46.81
698.74	11.70
698.87	46.81
699.01	23.41
699.14	65.54
699.27	0.00
699.40	58.51
699.54	60.85
699.67	72.56
699.80	88.94
699.94	7.02
700.07	23.41
700.20	28.09
700.34	72.56
700.47	86.60
700.60	30.43
700.73	91.28
700.87	28.09
701.00	35.11
701.13	51.49
701.26	67.88
701.40	77.24
701.53	67.88
701.66	70.22
701.79	105.32
701.93	11.70
702.06	70.22
702.19	28.09
702.32	51.49
702.46	37.45
702.59	58.51
702.72	84.26
702.85	346.40
702.99	704.50
703.12	908.13
703.25	926.85
703.38	753.65
703.51	653.01
703.65	601.52
703.78	369.80
703.91	264.48
704.04	203.63
704.17	140.43
704.31	60.85
704.44	53.83
704.57	53.83
704.70	49.15
704.83	30.43
704.96	67.88
705.10	84.26
705.23	0.00
>>>>>End Processed Spectral Data<<<<<
