SpectraSuite Data File
++++++++++++++++++++++++++++++++++++
Date: Fri Oct 04 12:13:24 GMT-05:00 2013
User: price-jones
Dark Spectrum Present: No
Reference Spectrum Present: No
Number of Sampled Component Spectra: 1
Spectrometers: USB2+H05261
Integration Time (usec): 10000 (USB2+H05261)
Spectra Averaged: 1 (USB2+H05261)
Boxcar Smoothing: 0 (USB2+H05261)
Correct for Electrical Dark: No (USB2+H05261)
Strobe/Lamp Enabled: No (USB2+H05261)
Correct for Detector Non-linearity: No (USB2+H05261)
Correct for Stray Light: No (USB2+H05261)
Number of Pixels in Processed Spectrum: 2048
>>>>>Begin Processed Spectral Data<<<<<
365.73	0.00
365.92	0.00
366.12	0.00
366.32	0.00
366.52	0.00
366.72	0.00
366.91	0.00
367.11	0.00
367.31	0.00
367.51	0.00
367.70	0.00
367.90	0.00
368.10	0.00
368.30	0.00
368.49	0.00
368.69	0.00
368.89	0.00
369.09	0.00
369.28	0.00
369.48	0.00
369.68	0.00
369.87	0.00
370.07	0.00
370.27	0.00
370.47	0.00
370.66	0.00
370.86	0.00
371.06	4.68
371.25	0.00
371.45	0.00
371.65	0.00
371.84	0.00
372.04	0.00
372.24	67.88
372.44	0.00
372.63	28.09
372.83	0.00
373.03	0.00
373.22	0.00
373.42	84.26
373.62	4.68
373.81	30.43
374.01	91.28
374.21	0.00
374.40	46.81
374.60	0.00
374.79	0.00
374.99	0.00
375.19	91.28
375.38	72.56
375.58	53.83
375.78	39.79
375.97	25.75
376.17	65.54
376.37	88.94
376.56	9.36
376.76	23.41
376.95	0.00
377.15	32.77
377.35	58.51
377.54	2.34
377.74	39.79
377.93	0.00
378.13	58.51
378.33	0.00
378.52	16.38
378.72	28.09
378.91	37.45
379.11	9.36
379.31	16.38
379.50	0.00
379.70	0.00
379.89	14.04
380.09	0.00
380.28	0.00
380.48	18.72
380.68	84.26
380.87	0.00
381.07	18.72
381.26	32.77
381.46	39.79
381.65	67.88
381.85	0.00
382.04	32.77
382.24	53.83
382.43	0.00
382.63	39.79
382.83	60.85
383.02	0.00
383.22	65.54
383.41	35.11
383.61	88.94
383.80	7.02
384.00	44.47
384.19	37.45
384.39	2.34
384.58	49.15
384.78	0.00
384.97	67.88
385.17	0.00
385.36	7.02
385.56	37.45
385.75	7.02
385.95	0.00
386.14	0.00
386.34	0.00
386.53	0.00
386.72	14.04
386.92	81.92
387.11	14.04
387.31	7.02
387.50	9.36
387.70	9.36
387.89	0.00
388.09	79.58
388.28	4.68
388.48	56.17
388.67	0.00
388.86	0.00
389.06	70.22
389.25	0.00
389.45	16.38
389.64	46.81
389.84	0.00
390.03	0.00
390.22	0.00
390.42	0.00
390.61	16.38
390.81	4.68
391.00	35.11
391.19	0.00
391.39	58.51
391.58	32.77
391.78	65.54
391.97	49.15
392.16	0.00
392.36	0.00
392.55	25.75
392.75	4.68
392.94	16.38
393.13	44.47
393.33	37.45
393.52	98.30
393.71	60.85
393.91	105.32
394.10	0.00
394.29	14.04
394.49	53.83
394.68	18.72
394.88	25.75
395.07	0.00
395.26	4.68
395.46	16.38
395.65	0.00
395.84	11.70
396.04	0.00
396.23	0.00
396.42	0.00
396.62	0.00
396.81	30.43
397.00	0.00
397.19	37.45
397.39	0.00
397.58	7.02
397.77	0.00
397.97	21.06
398.16	39.79
398.35	0.00
398.55	0.00
398.74	16.38
398.93	60.85
399.12	18.72
399.32	37.45
399.51	65.54
399.70	14.04
399.90	0.00
400.09	93.62
400.28	0.00
400.47	21.06
400.67	39.79
400.86	0.00
401.05	0.00
401.24	0.00
401.44	46.81
401.63	0.00
401.82	0.00
402.01	0.00
402.21	4.68
402.40	49.15
402.59	0.00
402.78	0.00
402.97	0.00
403.17	79.58
403.36	84.26
403.55	21.06
403.74	35.11
403.93	67.88
404.13	0.00
404.32	0.00
404.51	0.00
404.70	95.96
404.89	28.09
405.09	25.75
405.28	18.72
405.47	112.35
405.66	25.75
405.85	0.00
406.05	0.00
406.24	21.06
406.43	58.51
406.62	35.11
406.81	14.04
407.00	23.41
407.20	0.00
407.39	0.00
407.58	46.81
407.77	46.81
407.96	53.83
408.15	0.00
408.34	21.06
408.54	112.35
408.73	14.04
408.92	86.60
409.11	0.00
409.30	37.45
409.49	7.02
409.68	46.81
409.87	0.00
410.07	0.00
410.26	23.41
410.45	0.00
410.64	110.01
410.83	63.19
411.02	14.04
411.21	35.11
411.40	0.00
411.59	0.00
411.78	0.00
411.98	35.11
412.17	7.02
412.36	21.06
412.55	0.00
412.74	72.56
412.93	21.06
413.12	30.43
413.31	60.85
413.50	0.00
413.69	18.72
413.88	0.00
414.07	23.41
414.26	46.81
414.45	18.72
414.64	0.00
414.83	16.38
415.02	9.36
415.22	30.43
415.41	30.43
415.60	0.00
415.79	53.83
415.98	0.00
416.17	72.56
416.36	30.43
416.55	0.00
416.74	74.90
416.93	81.92
417.12	44.47
417.31	0.00
417.50	44.47
417.69	0.00
417.88	77.24
418.07	37.45
418.26	74.90
418.45	4.68
418.64	35.11
418.83	70.22
419.02	72.56
419.21	37.45
419.39	0.00
419.58	0.00
419.77	44.47
419.96	28.09
420.15	65.54
420.34	32.77
420.53	16.38
420.72	0.00
420.91	0.00
421.10	0.00
421.29	147.45
421.48	93.62
421.67	18.72
421.86	0.00
422.05	28.09
422.24	35.11
422.43	9.36
422.61	0.00
422.80	11.70
422.99	44.47
423.18	28.09
423.37	28.09
423.56	0.00
423.75	11.70
423.94	21.06
424.13	77.24
424.32	37.45
424.50	9.36
424.69	16.38
424.88	30.43
425.07	0.00
425.26	32.77
425.45	9.36
425.64	0.00
425.83	74.90
426.01	0.00
426.20	21.06
426.39	25.75
426.58	11.70
426.77	0.00
426.96	93.62
427.15	42.13
427.33	7.02
427.52	28.09
427.71	0.00
427.90	49.15
428.09	0.00
428.28	0.00
428.46	128.73
428.65	67.88
428.84	56.17
429.03	88.94
429.22	16.38
429.40	46.81
429.59	44.47
429.78	60.85
429.97	49.15
430.16	35.11
430.34	42.13
430.53	46.81
430.72	25.75
430.91	72.56
431.10	0.00
431.28	0.00
431.47	18.72
431.66	107.66
431.85	0.00
432.03	21.06
432.22	65.54
432.41	46.81
432.60	56.17
432.79	72.56
432.97	28.09
433.16	21.06
433.35	30.43
433.54	39.79
433.72	18.72
433.91	0.00
434.10	21.06
434.28	74.90
434.47	28.09
434.66	9.36
434.85	84.26
435.03	7.02
435.22	60.85
435.41	42.13
435.59	11.70
435.78	0.00
435.97	49.15
436.16	4.68
436.34	93.62
436.53	4.68
436.72	2.34
436.90	63.19
437.09	35.11
437.28	67.88
437.46	32.77
437.65	72.56
437.84	49.15
438.02	37.45
438.21	44.47
438.40	0.00
438.58	0.00
438.77	21.06
438.96	72.56
439.14	46.81
439.33	9.36
439.52	25.75
439.70	0.00
439.89	32.77
440.08	72.56
440.26	4.68
440.45	65.54
440.63	4.68
440.82	37.45
441.01	84.26
441.19	37.45
441.38	23.41
441.57	77.24
441.75	30.43
441.94	37.45
442.12	18.72
442.31	11.70
442.50	39.79
442.68	51.49
442.87	93.62
443.05	16.38
443.24	16.38
443.43	2.34
443.61	46.81
443.80	0.00
443.98	42.13
444.17	81.92
444.35	18.72
444.54	53.83
444.73	37.45
444.91	53.83
445.10	88.94
445.28	88.94
445.47	0.00
445.65	114.69
445.84	21.06
446.02	7.02
446.21	30.43
446.39	67.88
446.58	11.70
446.77	44.47
446.95	42.13
447.14	44.47
447.32	35.11
447.51	51.49
447.69	63.19
447.88	23.41
448.06	35.11
448.25	0.00
448.43	39.79
448.62	42.13
448.80	56.17
448.99	39.79
449.17	53.83
449.36	0.00
449.54	44.47
449.73	46.81
449.91	67.88
450.10	18.72
450.28	32.77
450.46	74.90
450.65	53.83
450.83	67.88
451.02	105.32
451.20	84.26
451.39	79.58
451.57	42.13
451.76	112.35
451.94	84.26
452.13	77.24
452.31	35.11
452.49	46.81
452.68	23.41
452.86	51.49
453.05	0.00
453.23	65.54
453.42	32.77
453.60	18.72
453.78	4.68
453.97	0.00
454.15	0.00
454.34	23.41
454.52	79.58
454.70	39.79
454.89	30.43
455.07	42.13
455.26	39.79
455.44	135.75
455.62	4.68
455.81	0.00
455.99	0.00
456.17	0.00
456.36	0.00
456.54	14.04
456.73	35.11
456.91	16.38
457.09	32.77
457.28	37.45
457.46	95.96
457.64	21.06
457.83	0.00
458.01	28.09
458.19	88.94
458.38	0.00
458.56	0.00
458.74	0.00
458.93	44.47
459.11	4.68
459.29	77.24
459.48	46.81
459.66	32.77
459.84	65.54
460.03	112.35
460.21	46.81
460.39	0.00
460.57	28.09
460.76	93.62
460.94	7.02
461.12	60.85
461.31	110.01
461.49	35.11
461.67	39.79
461.85	39.79
462.04	0.00
462.22	105.32
462.40	46.81
462.59	14.04
462.77	28.09
462.95	79.58
463.13	44.47
463.32	74.90
463.50	110.01
463.68	18.72
463.86	0.00
464.05	16.38
464.23	79.58
464.41	72.56
464.59	74.90
464.78	0.00
464.96	63.19
465.14	0.00
465.32	49.15
465.50	74.90
465.69	65.54
465.87	53.83
466.05	0.00
466.23	7.02
466.41	37.45
466.60	16.38
466.78	18.72
466.96	72.56
467.14	93.62
467.32	18.72
467.51	0.00
467.69	30.43
467.87	0.00
468.05	81.92
468.23	86.60
468.41	16.38
468.60	42.13
468.78	7.02
468.96	32.77
469.14	32.77
469.32	46.81
469.50	14.04
469.69	4.68
469.87	21.06
470.05	81.92
470.23	46.81
470.41	46.81
470.59	72.56
470.77	23.41
470.95	25.75
471.14	65.54
471.32	23.41
471.50	42.13
471.68	51.49
471.86	9.36
472.04	25.75
472.22	65.54
472.40	32.77
472.58	95.96
472.77	14.04
472.95	53.83
473.13	56.17
473.31	51.49
473.49	65.54
473.67	79.58
473.85	0.00
474.03	9.36
474.21	0.00
474.39	46.81
474.57	46.81
474.75	2.34
474.93	16.38
475.12	88.94
475.30	18.72
475.48	42.13
475.66	0.00
475.84	39.79
476.02	65.54
476.20	14.04
476.38	14.04
476.56	0.00
476.74	9.36
476.92	21.06
477.10	0.00
477.28	74.90
477.46	56.17
477.64	21.06
477.82	7.02
478.00	32.77
478.18	18.72
478.36	65.54
478.54	53.83
478.72	70.22
478.90	56.17
479.08	49.15
479.26	121.71
479.44	91.28
479.62	49.15
479.80	98.30
479.98	44.47
480.16	18.72
480.34	46.81
480.52	9.36
480.70	0.00
480.88	0.00
481.06	9.36
481.24	18.72
481.41	65.54
481.59	42.13
481.77	86.60
481.95	0.00
482.13	65.54
482.31	0.00
482.49	0.00
482.67	32.77
482.85	147.45
483.03	51.49
483.21	0.00
483.39	46.81
483.57	21.06
483.74	84.26
483.92	14.04
484.10	25.75
484.28	67.88
484.46	25.75
484.64	35.11
484.82	0.00
485.00	35.11
485.18	0.00
485.35	46.81
485.53	51.49
485.71	0.00
485.89	72.56
486.07	11.70
486.25	16.38
486.43	110.01
486.61	67.88
486.78	49.15
486.96	56.17
487.14	77.24
487.32	44.47
487.50	46.81
487.68	18.72
487.85	0.00
488.03	9.36
488.21	4.68
488.39	9.36
488.57	72.56
488.75	72.56
488.92	126.39
489.10	0.00
489.28	65.54
489.46	51.49
489.64	18.72
489.81	9.36
489.99	0.00
490.17	124.05
490.35	14.04
490.53	0.00
490.70	42.13
490.88	0.00
491.06	16.38
491.24	46.81
491.41	53.83
491.59	53.83
491.77	0.00
491.95	4.68
492.13	0.00
492.30	11.70
492.48	44.47
492.66	11.70
492.84	9.36
493.01	53.83
493.19	74.90
493.37	98.30
493.54	9.36
493.72	37.45
493.90	39.79
494.08	23.41
494.25	25.75
494.43	7.02
494.61	4.68
494.79	49.15
494.96	53.83
495.14	0.00
495.32	79.58
495.49	46.81
495.67	84.26
495.85	72.56
496.02	60.85
496.20	14.04
496.38	56.17
496.55	44.47
496.73	18.72
496.91	25.75
497.09	16.38
497.26	0.00
497.44	2.34
497.62	70.22
497.79	84.26
497.97	0.00
498.14	72.56
498.32	0.00
498.50	25.75
498.67	16.38
498.85	9.36
499.03	84.26
499.20	44.47
499.38	18.72
499.56	42.13
499.73	0.00
499.91	23.41
500.08	100.64
500.26	70.22
500.44	51.49
500.61	65.54
500.79	32.77
500.97	65.54
501.14	86.60
501.32	49.15
501.49	67.88
501.67	18.72
501.84	46.81
502.02	25.75
502.20	0.00
502.37	0.00
502.55	0.00
502.72	21.06
502.90	44.47
503.07	46.81
503.25	51.49
503.43	88.94
503.60	65.54
503.78	11.70
503.95	49.15
504.13	14.04
504.30	0.00
504.48	37.45
504.65	0.00
504.83	32.77
505.01	0.00
505.18	18.72
505.36	53.83
505.53	14.04
505.71	42.13
505.88	14.04
506.06	88.94
506.23	39.79
506.41	0.00
506.58	25.75
506.76	0.00
506.93	37.45
507.11	30.43
507.28	98.30
507.46	35.11
507.63	0.00
507.81	58.51
507.98	107.66
508.16	135.75
508.33	44.47
508.50	60.85
508.68	84.26
508.85	51.49
509.03	0.00
509.20	25.75
509.38	72.56
509.55	112.35
509.73	0.00
509.90	16.38
510.08	32.77
510.25	100.64
510.42	46.81
510.60	56.17
510.77	0.00
510.95	74.90
511.12	0.00
511.30	58.51
511.47	35.11
511.64	23.41
511.82	95.96
511.99	4.68
512.17	28.09
512.34	0.00
512.51	11.70
512.69	32.77
512.86	56.17
513.04	28.09
513.21	0.00
513.38	35.11
513.56	35.11
513.73	56.17
513.90	30.43
514.08	9.36
514.25	128.73
514.43	30.43
514.60	0.00
514.77	51.49
514.95	91.28
515.12	79.58
515.29	105.32
515.47	142.77
515.64	77.24
515.81	0.00
515.99	28.09
516.16	60.85
516.33	37.45
516.51	16.38
516.68	49.15
516.85	28.09
517.03	28.09
517.20	0.00
517.37	7.02
517.54	107.66
517.72	67.88
517.89	0.00
518.06	30.43
518.24	93.62
518.41	135.75
518.58	105.32
518.75	105.32
518.93	67.88
519.10	72.56
519.27	49.15
519.45	93.62
519.62	7.02
519.79	9.36
519.96	28.09
520.14	112.35
520.31	23.41
520.48	58.51
520.65	126.39
520.83	25.75
521.00	51.49
521.17	0.00
521.34	0.00
521.52	28.09
521.69	39.79
521.86	72.56
522.03	67.88
522.20	110.01
522.38	44.47
522.55	46.81
522.72	56.17
522.89	0.00
523.07	0.00
523.24	11.70
523.41	0.00
523.58	0.00
523.75	42.13
523.92	0.00
524.10	42.13
524.27	58.51
524.44	56.17
524.61	37.45
524.78	51.49
524.96	88.94
525.13	77.24
525.30	117.03
525.47	88.94
525.64	124.05
525.81	21.06
525.98	117.03
526.16	60.85
526.33	35.11
526.50	28.09
526.67	0.00
526.84	42.13
527.01	70.22
527.18	65.54
527.36	81.92
527.53	18.72
527.70	21.06
527.87	32.77
528.04	4.68
528.21	79.58
528.38	0.00
528.55	32.77
528.72	72.56
528.89	0.00
529.07	44.47
529.24	0.00
529.41	0.00
529.58	25.75
529.75	105.32
529.92	60.85
530.09	35.11
530.26	0.00
530.43	0.00
530.60	28.09
530.77	77.24
530.94	0.00
531.11	72.56
531.28	14.04
531.46	0.00
531.63	23.41
531.80	70.22
531.97	81.92
532.14	42.13
532.31	23.41
532.48	0.00
532.65	32.77
532.82	35.11
532.99	42.13
533.16	110.01
533.33	0.00
533.50	0.00
533.67	42.13
533.84	110.01
534.01	98.30
534.18	11.70
534.35	119.37
534.52	58.51
534.69	58.51
534.86	0.00
535.03	25.75
535.20	46.81
535.37	2.34
535.54	42.13
535.71	7.02
535.88	9.36
536.05	72.56
536.22	37.45
536.38	70.22
536.55	56.17
536.72	0.00
536.89	28.09
537.06	70.22
537.23	44.47
537.40	63.19
537.57	133.41
537.74	67.88
537.91	14.04
538.08	28.09
538.25	72.56
538.42	88.94
538.59	0.00
538.75	98.30
538.92	21.06
539.09	91.28
539.26	49.15
539.43	93.62
539.60	0.00
539.77	0.00
539.94	91.28
540.11	84.26
540.28	32.77
540.44	42.13
540.61	0.00
540.78	77.24
540.95	51.49
541.12	77.24
541.29	60.85
541.46	16.38
541.62	51.49
541.79	67.88
541.96	65.54
542.13	0.00
542.30	21.06
542.47	42.13
542.63	67.88
542.80	28.09
542.97	105.32
543.14	42.13
543.31	58.51
543.48	44.47
543.64	30.43
543.81	7.02
543.98	44.47
544.15	0.00
544.32	56.17
544.48	25.75
544.65	51.49
544.82	53.83
544.99	11.70
545.16	32.77
545.32	81.92
545.49	49.15
545.66	0.00
545.83	77.24
546.00	42.13
546.16	86.60
546.33	0.00
546.50	53.83
546.67	100.64
546.83	56.17
547.00	105.32
547.17	23.41
547.34	84.26
547.50	21.06
547.67	58.51
547.84	21.06
548.00	23.41
548.17	28.09
548.34	74.90
548.51	70.22
548.67	46.81
548.84	0.00
549.01	14.04
549.18	42.13
549.34	84.26
549.51	56.17
549.68	42.13
549.84	100.64
550.01	0.00
550.18	86.60
550.34	124.05
550.51	9.36
550.68	9.36
550.84	86.60
551.01	21.06
551.18	14.04
551.34	21.06
551.51	16.38
551.68	35.11
551.84	46.81
552.01	37.45
552.18	95.96
552.34	58.51
552.51	133.41
552.68	95.96
552.84	21.06
553.01	23.41
553.18	46.81
553.34	7.02
553.51	46.81
553.67	9.36
553.84	0.00
554.01	16.38
554.17	58.51
554.34	79.58
554.51	42.13
554.67	0.00
554.84	39.79
555.00	4.68
555.17	81.92
555.33	63.19
555.50	44.47
555.67	110.01
555.83	53.83
556.00	53.83
556.16	28.09
556.33	79.58
556.50	77.24
556.66	21.06
556.83	67.88
556.99	18.72
557.16	58.51
557.32	39.79
557.49	0.00
557.65	28.09
557.82	11.70
557.98	67.88
558.15	44.47
558.32	21.06
558.48	21.06
558.65	56.17
558.81	11.70
558.98	4.68
559.14	7.02
559.31	0.00
559.47	56.17
559.64	11.70
559.80	84.26
559.97	88.94
560.13	30.43
560.30	18.72
560.46	0.00
560.63	51.49
560.79	46.81
560.96	60.85
561.12	70.22
561.29	79.58
561.45	0.00
561.61	2.34
561.78	67.88
561.94	37.45
562.11	7.02
562.27	0.00
562.44	72.56
562.60	86.60
562.77	70.22
562.93	74.90
563.10	25.75
563.26	18.72
563.42	4.68
563.59	39.79
563.75	49.15
563.92	0.00
564.08	35.11
564.24	0.00
564.41	0.00
564.57	0.00
564.74	2.34
564.90	65.54
565.07	56.17
565.23	0.00
565.39	23.41
565.56	0.00
565.72	53.83
565.88	93.62
566.05	2.34
566.21	74.90
566.38	37.45
566.54	77.24
566.70	60.85
566.87	58.51
567.03	35.11
567.19	0.00
567.36	42.13
567.52	56.17
567.68	37.45
567.85	114.69
568.01	37.45
568.17	2.34
568.34	63.19
568.50	58.51
568.66	49.15
568.83	117.03
568.99	86.60
569.15	46.81
569.32	35.11
569.48	0.00
569.64	35.11
569.81	44.47
569.97	77.24
570.13	49.15
570.30	4.68
570.46	35.11
570.62	23.41
570.78	98.30
570.95	16.38
571.11	23.41
571.27	32.77
571.43	100.64
571.60	4.68
571.76	0.00
571.92	7.02
572.09	51.49
572.25	37.45
572.41	2.34
572.57	53.83
572.74	84.26
572.90	72.56
573.06	60.85
573.22	74.90
573.38	0.00
573.55	16.38
573.71	37.45
573.87	53.83
574.03	67.88
574.20	84.26
574.36	2.34
574.52	44.47
574.68	28.09
574.84	18.72
575.01	4.68
575.17	37.45
575.33	65.54
575.49	81.92
575.65	35.11
575.82	46.81
575.98	32.77
576.14	93.62
576.30	16.38
576.46	0.00
576.62	42.13
576.79	0.00
576.95	44.47
577.11	0.00
577.27	65.54
577.43	53.83
577.59	145.11
577.75	88.94
577.92	93.62
578.08	21.06
578.24	100.64
578.40	67.88
578.56	117.03
578.72	42.13
578.88	58.51
579.04	147.45
579.21	65.54
579.37	53.83
579.53	7.02
579.69	114.69
579.85	49.15
580.01	53.83
580.17	58.51
580.33	0.00
580.49	32.77
580.65	44.47
580.82	100.64
580.98	74.90
581.14	16.38
581.30	72.56
581.46	21.06
581.62	0.00
581.78	65.54
581.94	63.19
582.10	46.81
582.26	4.68
582.42	0.00
582.58	70.22
582.74	44.47
582.90	149.79
583.06	58.51
583.22	60.85
583.38	53.83
583.54	70.22
583.70	30.43
583.86	21.06
584.02	0.00
584.18	32.77
584.34	11.70
584.50	77.24
584.66	39.79
584.82	0.00
584.98	28.09
585.14	0.00
585.30	81.92
585.46	25.75
585.62	30.43
585.78	28.09
585.94	4.68
586.10	14.04
586.26	0.00
586.42	28.09
586.58	4.68
586.74	0.00
586.90	42.13
587.06	25.75
587.22	28.09
587.38	79.58
587.54	53.83
587.70	0.00
587.86	86.60
588.02	95.96
588.18	9.36
588.34	35.11
588.49	51.49
588.65	18.72
588.81	72.56
588.97	79.58
589.13	42.13
589.29	95.96
589.45	30.43
589.61	51.49
589.77	42.13
589.93	28.09
590.08	7.02
590.24	18.72
590.40	77.24
590.56	65.54
590.72	65.54
590.88	0.00
591.04	37.45
591.20	30.43
591.35	105.32
591.51	39.79
591.67	37.45
591.83	0.00
591.99	100.64
592.15	58.51
592.31	42.13
592.46	51.49
592.62	58.51
592.78	28.09
592.94	53.83
593.10	39.79
593.26	58.51
593.41	88.94
593.57	0.00
593.73	32.77
593.89	60.85
594.05	56.17
594.20	72.56
594.36	25.75
594.52	65.54
594.68	51.49
594.84	25.75
594.99	58.51
595.15	58.51
595.31	14.04
595.47	53.83
595.62	46.81
595.78	0.00
595.94	74.90
596.10	0.00
596.25	28.09
596.41	4.68
596.57	39.79
596.73	46.81
596.88	53.83
597.04	138.09
597.20	65.54
597.36	23.41
597.51	53.83
597.67	42.13
597.83	60.85
597.99	72.56
598.14	0.00
598.30	88.94
598.46	25.75
598.61	105.32
598.77	46.81
598.93	46.81
599.09	46.81
599.24	88.94
599.40	107.66
599.56	86.60
599.71	16.38
599.87	16.38
600.03	9.36
600.18	2.34
600.34	42.13
600.50	44.47
600.65	84.26
600.81	60.85
600.97	67.88
601.12	4.68
601.28	65.54
601.44	70.22
601.59	0.00
601.75	28.09
601.91	42.13
602.06	133.41
602.22	46.81
602.37	32.77
602.53	0.00
602.69	56.17
602.84	77.24
603.00	37.45
603.16	0.00
603.31	60.85
603.47	81.92
603.62	53.83
603.78	107.66
603.94	100.64
604.09	9.36
604.25	46.81
604.40	11.70
604.56	28.09
604.71	0.00
604.87	0.00
605.03	56.17
605.18	84.26
605.34	0.00
605.49	65.54
605.65	39.79
605.80	0.00
605.96	0.00
606.12	7.02
606.27	0.00
606.43	32.77
606.58	107.66
606.74	42.13
606.89	49.15
607.05	42.13
607.20	44.47
607.36	63.19
607.51	11.70
607.67	0.00
607.82	49.15
607.98	46.81
608.13	100.64
608.29	65.54
608.44	14.04
608.60	21.06
608.75	42.13
608.91	65.54
609.06	114.69
609.22	11.70
609.37	39.79
609.53	70.22
609.68	138.09
609.84	79.58
609.99	63.19
610.15	86.60
610.30	58.51
610.46	67.88
610.61	42.13
610.76	16.38
610.92	0.00
611.07	21.06
611.23	53.83
611.38	4.68
611.54	0.00
611.69	46.81
611.84	14.04
612.00	7.02
612.15	16.38
612.31	79.58
612.46	56.17
612.62	98.30
612.77	46.81
612.92	46.81
613.08	74.90
613.23	25.75
613.39	49.15
613.54	16.38
613.69	37.45
613.85	42.13
614.00	77.24
614.15	28.09
614.31	2.34
614.46	86.60
614.62	11.70
614.77	65.54
614.92	42.13
615.08	56.17
615.23	0.00
615.38	53.83
615.54	84.26
615.69	0.00
615.84	11.70
616.00	53.83
616.15	74.90
616.30	0.00
616.46	67.88
616.61	91.28
616.76	42.13
616.92	46.81
617.07	0.00
617.22	0.00
617.37	53.83
617.53	98.30
617.68	46.81
617.83	30.43
617.99	0.00
618.14	0.00
618.29	18.72
618.45	70.22
618.60	44.47
618.75	37.45
618.90	74.90
619.06	81.92
619.21	53.83
619.36	49.15
619.51	0.00
619.67	23.41
619.82	30.43
619.97	14.04
620.12	84.26
620.28	30.43
620.43	60.85
620.58	0.00
620.73	0.00
620.89	0.00
621.04	0.00
621.19	35.11
621.34	0.00
621.49	74.90
621.65	67.88
621.80	28.09
621.95	88.94
622.10	65.54
622.25	70.22
622.41	37.45
622.56	23.41
622.71	4.68
622.86	37.45
623.01	44.47
623.16	16.38
623.32	0.00
623.47	0.00
623.62	25.75
623.77	23.41
623.92	49.15
624.07	0.00
624.23	9.36
624.38	49.15
624.53	0.00
624.68	0.00
624.83	91.28
624.98	77.24
625.13	60.85
625.29	74.90
625.44	25.75
625.59	0.00
625.74	9.36
625.89	39.79
626.04	0.00
626.19	63.19
626.34	21.06
626.49	39.79
626.65	46.81
626.80	86.60
626.95	23.41
627.10	39.79
627.25	0.00
627.40	0.00
627.55	42.13
627.70	4.68
627.85	23.41
628.00	63.19
628.15	60.85
628.30	51.49
628.45	37.45
628.60	0.00
628.76	0.00
628.91	51.49
629.06	32.77
629.21	81.92
629.36	72.56
629.51	32.77
629.66	128.73
629.81	0.00
629.96	37.45
630.11	56.17
630.26	32.77
630.41	39.79
630.56	25.75
630.71	72.56
630.86	102.98
631.01	42.13
631.16	37.45
631.31	44.47
631.46	0.00
631.61	28.09
631.76	9.36
631.91	11.70
632.06	53.83
632.21	16.38
632.36	21.06
632.51	23.41
632.66	23.41
632.81	32.77
632.96	0.00
633.10	51.49
633.25	11.70
633.40	49.15
633.55	25.75
633.70	46.81
633.85	37.45
634.00	114.69
634.15	21.06
634.30	72.56
634.45	60.85
634.60	0.00
634.75	0.00
634.90	7.02
635.05	0.00
635.19	0.00
635.34	16.38
635.49	72.56
635.64	39.79
635.79	35.11
635.94	91.28
636.09	7.02
636.24	63.19
636.39	0.00
636.53	23.41
636.68	21.06
636.83	0.00
636.98	51.49
637.13	84.26
637.28	2.34
637.43	0.00
637.57	100.64
637.72	16.38
637.87	86.60
638.02	0.00
638.17	30.43
638.32	0.00
638.46	23.41
638.61	0.00
638.76	18.72
638.91	39.79
639.06	56.17
639.20	0.00
639.35	56.17
639.50	21.06
639.65	58.51
639.80	0.00
639.94	0.00
640.09	9.36
640.24	25.75
640.39	9.36
640.54	35.11
640.68	9.36
640.83	0.00
640.98	0.00
641.13	28.09
641.27	44.47
641.42	72.56
641.57	65.54
641.72	4.68
641.86	46.81
642.01	39.79
642.16	81.92
642.31	42.13
642.45	11.70
642.60	25.75
642.75	0.00
642.90	44.47
643.04	37.45
643.19	11.70
643.34	0.00
643.48	0.00
643.63	98.30
643.78	46.81
643.93	7.02
644.07	46.81
644.22	0.00
644.37	0.00
644.51	79.58
644.66	91.28
644.81	60.85
644.95	4.68
645.10	0.00
645.25	70.22
645.39	51.49
645.54	0.00
645.69	53.83
645.83	0.00
645.98	72.56
646.13	18.72
646.27	18.72
646.42	110.01
646.57	0.00
646.71	84.26
646.86	53.83
647.00	23.41
647.15	0.00
647.30	0.00
647.44	2.34
647.59	23.41
647.74	23.41
647.88	11.70
648.03	25.75
648.17	0.00
648.32	0.00
648.47	0.00
648.61	102.98
648.76	42.13
648.90	2.34
649.05	60.85
649.20	42.13
649.34	7.02
649.49	93.62
649.63	110.01
649.78	37.45
649.92	37.45
650.07	18.72
650.21	35.11
650.36	0.00
650.51	30.43
650.65	105.32
650.80	49.15
650.94	58.51
651.09	56.17
651.23	86.60
651.38	32.77
651.52	53.83
651.67	37.45
651.81	30.43
651.96	0.00
652.10	11.70
652.25	37.45
652.39	0.00
652.54	30.43
652.68	32.77
652.83	16.38
652.97	53.83
653.12	0.00
653.26	74.90
653.41	0.00
653.55	0.00
653.70	30.43
653.84	0.00
653.99	18.72
654.13	23.41
654.27	0.00
654.42	42.13
654.56	32.77
654.71	133.41
654.85	44.47
655.00	93.62
655.14	60.85
655.29	2.34
655.43	42.13
655.57	2.34
655.72	49.15
655.86	2.34
656.01	95.96
656.15	23.41
656.30	32.77
656.44	0.00
656.58	2.34
656.73	0.00
656.87	0.00
657.01	4.68
657.16	91.28
657.30	18.72
657.45	84.26
657.59	51.49
657.73	0.00
657.88	0.00
658.02	63.19
658.16	35.11
658.31	30.43
658.45	16.38
658.60	21.06
658.74	37.45
658.88	9.36
659.03	7.02
659.17	32.77
659.31	56.17
659.46	18.72
659.60	23.41
659.74	0.00
659.89	0.00
660.03	49.15
660.17	84.26
660.32	49.15
660.46	0.00
660.60	74.90
660.74	63.19
660.89	37.45
661.03	37.45
661.17	21.06
661.32	60.85
661.46	0.00
661.60	0.00
661.74	32.77
661.89	98.30
662.03	30.43
662.17	67.88
662.31	49.15
662.46	46.81
662.60	56.17
662.74	44.47
662.88	44.47
663.03	63.19
663.17	28.09
663.31	0.00
663.45	81.92
663.60	53.83
663.74	72.56
663.88	28.09
664.02	0.00
664.17	0.00
664.31	14.04
664.45	91.28
664.59	11.70
664.73	0.00
664.88	53.83
665.02	28.09
665.16	2.34
665.30	42.13
665.44	60.85
665.59	60.85
665.73	23.41
665.87	65.54
666.01	79.58
666.15	21.06
666.29	84.26
666.44	39.79
666.58	7.02
666.72	58.51
666.86	49.15
667.00	18.72
667.14	0.00
667.28	0.00
667.43	56.17
667.57	7.02
667.71	0.00
667.85	42.13
667.99	0.00
668.13	23.41
668.27	14.04
668.41	0.00
668.56	23.41
668.70	56.17
668.84	39.79
668.98	14.04
669.12	0.00
669.26	67.88
669.40	77.24
669.54	74.90
669.68	46.81
669.82	30.43
669.96	42.13
670.10	0.00
670.25	95.96
670.39	63.19
670.53	14.04
670.67	30.43
670.81	37.45
670.95	77.24
671.09	46.81
671.23	63.19
671.37	4.68
671.51	60.85
671.65	42.13
671.79	49.15
671.93	28.09
672.07	72.56
672.21	0.00
672.35	72.56
672.49	0.00
672.63	72.56
672.77	0.00
672.91	18.72
673.05	0.00
673.19	16.38
673.33	49.15
673.47	79.58
673.61	44.47
673.75	7.02
673.89	0.00
674.03	28.09
674.17	9.36
674.31	46.81
674.45	58.51
674.59	0.00
674.73	95.96
674.87	117.03
675.01	9.36
675.15	28.09
675.29	79.58
675.43	28.09
675.56	9.36
675.70	74.90
675.84	0.00
675.98	14.04
676.12	60.85
676.26	32.77
676.40	44.47
676.54	16.38
676.68	37.45
676.82	51.49
676.96	86.60
677.10	42.13
677.23	28.09
677.37	0.00
677.51	28.09
677.65	18.72
677.79	51.49
677.93	0.00
678.07	67.88
678.21	67.88
678.34	86.60
678.48	86.60
678.62	63.19
678.76	35.11
678.90	39.79
679.04	30.43
679.18	35.11
679.31	46.81
679.45	63.19
679.59	0.00
679.73	60.85
679.87	35.11
680.00	32.77
680.14	0.00
680.28	84.26
680.42	16.38
680.56	53.83
680.70	46.81
680.83	25.75
680.97	28.09
681.11	28.09
681.25	18.72
681.39	0.00
681.52	0.00
681.66	37.45
681.80	65.54
681.94	37.45
682.07	0.00
682.21	35.11
682.35	53.83
682.49	72.56
682.62	98.30
682.76	32.77
682.90	37.45
683.04	0.00
683.17	23.41
683.31	58.51
683.45	11.70
683.59	21.06
683.72	28.09
683.86	79.58
684.00	37.45
684.13	84.26
684.27	0.00
684.41	30.43
684.55	58.51
684.68	21.06
684.82	63.19
684.96	21.06
685.09	4.68
685.23	70.22
685.37	0.00
685.50	37.45
685.64	14.04
685.78	30.43
685.91	11.70
686.05	2.34
686.19	25.75
686.32	9.36
686.46	46.81
686.60	0.00
686.73	63.19
686.87	0.00
687.01	42.13
687.14	2.34
687.28	2.34
687.42	67.88
687.55	32.77
687.69	4.68
687.82	46.81
687.96	0.00
688.10	9.36
688.23	74.90
688.37	74.90
688.50	23.41
688.64	77.24
688.78	18.72
688.91	0.00
689.05	70.22
689.18	2.34
689.32	49.15
689.46	35.11
689.59	11.70
689.73	11.70
689.86	0.00
690.00	88.94
690.13	42.13
690.27	23.41
690.41	18.72
690.54	4.68
690.68	58.51
690.81	60.85
690.95	0.00
691.08	18.72
691.22	86.60
691.35	91.28
691.49	0.00
691.62	0.00
691.76	4.68
691.89	53.83
692.03	46.81
692.16	0.00
692.30	25.75
692.43	7.02
692.57	23.41
692.70	0.00
692.84	44.47
692.97	2.34
693.11	25.75
693.24	0.00
693.38	117.03
693.51	81.92
693.65	86.60
693.78	0.00
693.92	39.79
694.05	84.26
694.19	30.43
694.32	21.06
694.45	39.79
694.59	39.79
694.72	58.51
694.86	0.00
694.99	0.00
695.13	42.13
695.26	56.17
695.39	0.00
695.53	67.88
695.66	98.30
695.80	11.70
695.93	18.72
696.07	56.17
696.20	11.70
696.33	11.70
696.47	0.00
696.60	63.19
696.73	7.02
696.87	16.38
697.00	21.06
697.14	30.43
697.27	46.81
697.40	63.19
697.54	11.70
697.67	0.00
697.80	53.83
697.94	0.00
698.07	0.00
698.21	9.36
698.34	0.00
698.47	65.54
698.61	18.72
698.74	16.38
698.87	0.00
699.01	58.51
699.14	0.00
699.27	37.45
699.40	37.45
699.54	0.00
699.67	39.79
699.80	32.77
699.94	16.38
700.07	32.77
700.20	30.43
700.34	16.38
700.47	30.43
700.60	102.98
700.73	72.56
700.87	0.00
701.00	74.90
701.13	58.51
701.26	65.54
701.40	2.34
701.53	100.64
701.66	32.77
701.79	81.92
701.93	93.62
702.06	4.68
702.19	0.00
702.32	74.90
702.46	37.45
702.59	51.49
702.72	11.70
702.85	53.83
702.99	0.00
703.12	77.24
703.25	39.79
703.38	14.04
703.51	105.32
703.65	53.83
703.78	84.26
703.91	16.38
704.04	2.34
704.17	42.13
704.31	32.77
704.44	37.45
704.57	18.72
704.70	0.00
704.83	0.00
704.96	11.70
705.10	0.00
705.23	39.79
>>>>>End Processed Spectral Data<<<<<
