SpectraSuite Data File
++++++++++++++++++++++++++++++++++++
Date: Fri Oct 04 12:13:24 GMT-05:00 2013
User: price-jones
Dark Spectrum Present: No
Reference Spectrum Present: No
Number of Sampled Component Spectra: 1
Spectrometers: USB2+H05261
Integration Time (usec): 10000 (USB2+H05261)
Spectra Averaged: 1 (USB2+H05261)
Boxcar Smoothing: 0 (USB2+H05261)
Correct for Electrical Dark: No (USB2+H05261)
Strobe/Lamp Enabled: No (USB2+H05261)
Correct for Detector Non-linearity: No (USB2+H05261)
Correct for Stray Light: No (USB2+H05261)
Number of Pixels in Processed Spectrum: 2048
>>>>>Begin Processed Spectral Data<<<<<
365.73	0.00
365.92	0.00
366.12	0.00
366.32	0.00
366.52	0.00
366.72	0.00
366.91	0.00
367.11	0.00
367.31	0.00
367.51	0.00
367.70	0.00
367.90	0.00
368.10	0.00
368.30	0.00
368.49	0.00
368.69	0.00
368.89	0.00
369.09	0.00
369.28	0.00
369.48	0.00
369.68	0.00
369.87	0.00
370.07	0.00
370.27	0.00
370.47	0.00
370.66	0.00
370.86	0.00
371.06	0.00
371.25	0.00
371.45	0.00
371.65	4.68
371.84	25.75
372.04	23.41
372.24	0.00
372.44	42.13
372.63	63.19
372.83	28.09
373.03	28.09
373.22	18.72
373.42	60.85
373.62	95.96
373.81	42.13
374.01	0.00
374.21	18.72
374.40	42.13
374.60	88.94
374.79	0.00
374.99	56.17
375.19	35.11
375.38	23.41
375.58	72.56
375.78	44.47
375.97	70.22
376.17	0.00
376.37	14.04
376.56	25.75
376.76	0.00
376.95	21.06
377.15	91.28
377.35	74.90
377.54	11.70
377.74	51.49
377.93	21.06
378.13	28.09
378.33	49.15
378.52	65.54
378.72	0.00
378.91	14.04
379.11	0.00
379.31	32.77
379.50	30.43
379.70	32.77
379.89	0.00
380.09	0.00
380.28	0.00
380.48	21.06
380.68	28.09
380.87	39.79
381.07	7.02
381.26	0.00
381.46	28.09
381.65	98.30
381.85	0.00
382.04	18.72
382.24	16.38
382.43	0.00
382.63	37.45
382.83	56.17
383.02	0.00
383.22	0.00
383.41	77.24
383.61	11.70
383.80	0.00
384.00	2.34
384.19	114.69
384.39	0.00
384.58	21.06
384.78	11.70
384.97	4.68
385.17	42.13
385.36	0.00
385.56	0.00
385.75	39.79
385.95	0.00
386.14	84.26
386.34	0.00
386.53	51.49
386.72	25.75
386.92	7.02
387.11	25.75
387.31	46.81
387.50	46.81
387.70	88.94
387.89	4.68
388.09	0.00
388.28	16.38
388.48	7.02
388.67	0.00
388.86	23.41
389.06	2.34
389.25	53.83
389.45	32.77
389.64	21.06
389.84	46.81
390.03	0.00
390.22	0.00
390.42	53.83
390.61	56.17
390.81	23.41
391.00	42.13
391.19	7.02
391.39	35.11
391.58	2.34
391.78	0.00
391.97	18.72
392.16	49.15
392.36	39.79
392.55	39.79
392.75	11.70
392.94	0.00
393.13	23.41
393.33	7.02
393.52	0.00
393.71	42.13
393.91	0.00
394.10	49.15
394.29	56.17
394.49	9.36
394.68	11.70
394.88	0.00
395.07	44.47
395.26	32.77
395.46	23.41
395.65	100.64
395.84	42.13
396.04	18.72
396.23	14.04
396.42	44.47
396.62	0.00
396.81	98.30
397.00	0.00
397.19	49.15
397.39	42.13
397.58	70.22
397.77	32.77
397.97	35.11
398.16	39.79
398.35	25.75
398.55	95.96
398.74	72.56
398.93	107.66
399.12	53.83
399.32	42.13
399.51	117.03
399.70	58.51
399.90	25.75
400.09	135.75
400.28	11.70
400.47	0.00
400.67	16.38
400.86	11.70
401.05	0.00
401.24	0.00
401.44	46.81
401.63	74.90
401.82	4.68
402.01	65.54
402.21	2.34
402.40	0.00
402.59	0.00
402.78	18.72
402.97	42.13
403.17	0.00
403.36	58.51
403.55	0.00
403.74	32.77
403.93	70.22
404.13	23.41
404.32	58.51
404.51	51.49
404.70	0.00
404.89	32.77
405.09	7.02
405.28	58.51
405.47	18.72
405.66	39.79
405.85	60.85
406.05	21.06
406.24	16.38
406.43	0.00
406.62	0.00
406.81	37.45
407.00	67.88
407.20	56.17
407.39	35.11
407.58	58.51
407.77	30.43
407.96	0.00
408.15	32.77
408.34	28.09
408.54	63.19
408.73	14.04
408.92	30.43
409.11	105.32
409.30	25.75
409.49	28.09
409.68	39.79
409.87	53.83
410.07	18.72
410.26	30.43
410.45	58.51
410.64	0.00
410.83	30.43
411.02	44.47
411.21	16.38
411.40	46.81
411.59	0.00
411.78	23.41
411.98	0.00
412.17	44.47
412.36	70.22
412.55	100.64
412.74	0.00
412.93	107.66
413.12	58.51
413.31	18.72
413.50	56.17
413.69	0.00
413.88	21.06
414.07	0.00
414.26	25.75
414.45	74.90
414.64	0.00
414.83	49.15
415.02	65.54
415.22	37.45
415.41	77.24
415.60	46.81
415.79	0.00
415.98	0.00
416.17	84.26
416.36	63.19
416.55	21.06
416.74	0.00
416.93	0.00
417.12	0.00
417.31	0.00
417.50	0.00
417.69	81.92
417.88	56.17
418.07	0.00
418.26	63.19
418.45	46.81
418.64	9.36
418.83	4.68
419.02	4.68
419.21	0.00
419.39	53.83
419.58	16.38
419.77	35.11
419.96	79.58
420.15	51.49
420.34	53.83
420.53	0.00
420.72	7.02
420.91	0.00
421.10	0.00
421.29	0.00
421.48	110.01
421.67	51.49
421.86	7.02
422.05	30.43
422.24	77.24
422.43	124.05
422.61	0.00
422.80	49.15
422.99	70.22
423.18	11.70
423.37	51.49
423.56	84.26
423.75	110.01
423.94	11.70
424.13	16.38
424.32	88.94
424.50	0.00
424.69	23.41
424.88	30.43
425.07	18.72
425.26	23.41
425.45	0.00
425.64	0.00
425.83	65.54
426.01	60.85
426.20	23.41
426.39	21.06
426.58	0.00
426.77	0.00
426.96	28.09
427.15	46.81
427.33	51.49
427.52	0.00
427.71	49.15
427.90	58.51
428.09	25.75
428.28	56.17
428.46	0.00
428.65	60.85
428.84	23.41
429.03	14.04
429.22	28.09
429.40	49.15
429.59	119.37
429.78	0.00
429.97	9.36
430.16	0.00
430.34	0.00
430.53	60.85
430.72	14.04
430.91	72.56
431.10	21.06
431.28	4.68
431.47	11.70
431.66	0.00
431.85	0.00
432.03	86.60
432.22	65.54
432.41	93.62
432.60	58.51
432.79	42.13
432.97	0.00
433.16	51.49
433.35	0.00
433.54	79.58
433.72	0.00
433.91	0.00
434.10	0.00
434.28	72.56
434.47	74.90
434.66	53.83
434.85	0.00
435.03	58.51
435.22	18.72
435.41	0.00
435.59	79.58
435.78	0.00
435.97	4.68
436.16	0.00
436.34	42.13
436.53	100.64
436.72	37.45
436.90	11.70
437.09	14.04
437.28	0.00
437.46	67.88
437.65	0.00
437.84	161.50
438.02	0.00
438.21	79.58
438.40	0.00
438.58	35.11
438.77	37.45
438.96	0.00
439.14	0.00
439.33	65.54
439.52	7.02
439.70	51.49
439.89	39.79
440.08	0.00
440.26	0.00
440.45	0.00
440.63	0.00
440.82	63.19
441.01	58.51
441.19	0.00
441.38	117.03
441.57	79.58
441.75	21.06
441.94	44.47
442.12	72.56
442.31	88.94
442.50	63.19
442.68	25.75
442.87	25.75
443.05	56.17
443.24	37.45
443.43	0.00
443.61	77.24
443.80	39.79
443.98	42.13
444.17	0.00
444.35	25.75
444.54	37.45
444.73	4.68
444.91	0.00
445.10	77.24
445.28	35.11
445.47	0.00
445.65	23.41
445.84	0.00
446.02	37.45
446.21	46.81
446.39	4.68
446.58	21.06
446.77	0.00
446.95	4.68
447.14	60.85
447.32	21.06
447.51	63.19
447.69	42.13
447.88	11.70
448.06	21.06
448.25	102.98
448.43	60.85
448.62	14.04
448.80	0.00
448.99	0.00
449.17	0.00
449.36	0.00
449.54	53.83
449.73	70.22
449.91	88.94
450.10	4.68
450.28	16.38
450.46	7.02
450.65	23.41
450.83	46.81
451.02	0.00
451.20	7.02
451.39	11.70
451.57	35.11
451.76	32.77
451.94	0.00
452.13	65.54
452.31	49.15
452.49	23.41
452.68	7.02
452.86	7.02
453.05	51.49
453.23	0.00
453.42	65.54
453.60	16.38
453.78	53.83
453.97	0.00
454.15	2.34
454.34	53.83
454.52	0.00
454.70	58.51
454.89	0.00
455.07	14.04
455.26	37.45
455.44	93.62
455.62	0.00
455.81	95.96
455.99	42.13
456.17	133.41
456.36	152.13
456.54	84.26
456.73	60.85
456.91	2.34
457.09	18.72
457.28	30.43
457.46	84.26
457.64	0.00
457.83	74.90
458.01	60.85
458.19	63.19
458.38	0.00
458.56	4.68
458.74	4.68
458.93	49.15
459.11	35.11
459.29	0.00
459.48	0.00
459.66	14.04
459.84	0.00
460.03	35.11
460.21	51.49
460.39	44.47
460.57	16.38
460.76	98.30
460.94	30.43
461.12	0.00
461.31	86.60
461.49	32.77
461.67	0.00
461.85	25.75
462.04	67.88
462.22	98.30
462.40	56.17
462.59	102.98
462.77	28.09
462.95	18.72
463.13	0.00
463.32	30.43
463.50	81.92
463.68	58.51
463.86	39.79
464.05	46.81
464.23	74.90
464.41	30.43
464.59	53.83
464.78	16.38
464.96	0.00
465.14	88.94
465.32	86.60
465.50	93.62
465.69	107.66
465.87	21.06
466.05	16.38
466.23	30.43
466.41	0.00
466.60	49.15
466.78	25.75
466.96	46.81
467.14	4.68
467.32	49.15
467.51	58.51
467.69	79.58
467.87	51.49
468.05	0.00
468.23	91.28
468.41	60.85
468.60	72.56
468.78	51.49
468.96	56.17
469.14	112.35
469.32	42.13
469.50	112.35
469.69	42.13
469.87	0.00
470.05	25.75
470.23	74.90
470.41	49.15
470.59	79.58
470.77	0.00
470.95	102.98
471.14	49.15
471.32	0.00
471.50	28.09
471.68	0.00
471.86	16.38
472.04	35.11
472.22	30.43
472.40	46.81
472.58	70.22
472.77	63.19
472.95	14.04
473.13	86.60
473.31	11.70
473.49	86.60
473.67	30.43
473.85	0.00
474.03	0.00
474.21	0.00
474.39	79.58
474.57	2.34
474.75	2.34
474.93	4.68
475.12	67.88
475.30	49.15
475.48	0.00
475.66	110.01
475.84	28.09
476.02	0.00
476.20	37.45
476.38	11.70
476.56	70.22
476.74	0.00
476.92	58.51
477.10	0.00
477.28	46.81
477.46	79.58
477.64	2.34
477.82	9.36
478.00	46.81
478.18	56.17
478.36	18.72
478.54	42.13
478.72	102.98
478.90	4.68
479.08	53.83
479.26	0.00
479.44	0.00
479.62	18.72
479.80	35.11
479.98	53.83
480.16	16.38
480.34	91.28
480.52	53.83
480.70	117.03
480.88	21.06
481.06	79.58
481.24	74.90
481.41	35.11
481.59	95.96
481.77	39.79
481.95	70.22
482.13	67.88
482.31	39.79
482.49	0.00
482.67	88.94
482.85	35.11
483.03	0.00
483.21	51.49
483.39	58.51
483.57	86.60
483.74	39.79
483.92	0.00
484.10	70.22
484.28	37.45
484.46	23.41
484.64	0.00
484.82	60.85
485.00	0.00
485.18	37.45
485.35	0.00
485.53	14.04
485.71	35.11
485.89	11.70
486.07	30.43
486.25	37.45
486.43	0.00
486.61	14.04
486.78	135.75
486.96	46.81
487.14	7.02
487.32	39.79
487.50	49.15
487.68	0.00
487.85	44.47
488.03	81.92
488.21	32.77
488.39	37.45
488.57	35.11
488.75	2.34
488.92	142.77
489.10	63.19
489.28	32.77
489.46	0.00
489.64	9.36
489.81	9.36
489.99	63.19
490.17	49.15
490.35	28.09
490.53	0.00
490.70	0.00
490.88	63.19
491.06	53.83
491.24	81.92
491.41	46.81
491.59	16.38
491.77	39.79
491.95	86.60
492.13	105.32
492.30	37.45
492.48	39.79
492.66	44.47
492.84	0.00
493.01	65.54
493.19	21.06
493.37	25.75
493.54	2.34
493.72	4.68
493.90	72.56
494.08	14.04
494.25	0.00
494.43	32.77
494.61	32.77
494.79	21.06
494.96	81.92
495.14	51.49
495.32	39.79
495.49	0.00
495.67	65.54
495.85	46.81
496.02	58.51
496.20	23.41
496.38	0.00
496.55	74.90
496.73	18.72
496.91	21.06
497.09	11.70
497.26	28.09
497.44	28.09
497.62	23.41
497.79	46.81
497.97	0.00
498.14	30.43
498.32	56.17
498.50	16.38
498.67	53.83
498.85	21.06
499.03	79.58
499.20	105.32
499.38	49.15
499.56	81.92
499.73	58.51
499.91	30.43
500.08	0.00
500.26	74.90
500.44	46.81
500.61	91.28
500.79	49.15
500.97	14.04
501.14	102.98
501.32	93.62
501.49	81.92
501.67	86.60
501.84	35.11
502.02	18.72
502.20	37.45
502.37	74.90
502.55	28.09
502.72	11.70
502.90	30.43
503.07	0.00
503.25	0.00
503.43	56.17
503.60	37.45
503.78	39.79
503.95	100.64
504.13	65.54
504.30	32.77
504.48	53.83
504.65	93.62
504.83	30.43
505.01	119.37
505.18	63.19
505.36	0.00
505.53	88.94
505.71	0.00
505.88	77.24
506.06	70.22
506.23	149.79
506.41	88.94
506.58	37.45
506.76	77.24
506.93	79.58
507.11	35.11
507.28	65.54
507.46	0.00
507.63	56.17
507.81	25.75
507.98	81.92
508.16	49.15
508.33	72.56
508.50	112.35
508.68	84.26
508.85	25.75
509.03	60.85
509.20	39.79
509.38	0.00
509.55	42.13
509.73	4.68
509.90	2.34
510.08	23.41
510.25	30.43
510.42	32.77
510.60	42.13
510.77	58.51
510.95	0.00
511.12	119.37
511.30	0.00
511.47	30.43
511.64	88.94
511.82	154.48
511.99	21.06
512.17	81.92
512.34	0.00
512.51	102.98
512.69	93.62
512.86	98.30
513.04	9.36
513.21	44.47
513.38	74.90
513.56	131.07
513.73	51.49
513.90	18.72
514.08	11.70
514.25	42.13
514.43	58.51
514.60	21.06
514.77	58.51
514.95	91.28
515.12	23.41
515.29	124.05
515.47	7.02
515.64	79.58
515.81	4.68
515.99	49.15
516.16	35.11
516.33	32.77
516.51	0.00
516.68	58.51
516.85	7.02
517.03	49.15
517.20	49.15
517.37	53.83
517.54	65.54
517.72	72.56
517.89	0.00
518.06	7.02
518.24	95.96
518.41	98.30
518.58	56.17
518.75	4.68
518.93	0.00
519.10	7.02
519.27	30.43
519.45	25.75
519.62	21.06
519.79	51.49
519.96	88.94
520.14	11.70
520.31	53.83
520.48	35.11
520.65	72.56
520.83	0.00
521.00	67.88
521.17	154.48
521.34	7.02
521.52	0.00
521.69	18.72
521.86	79.58
522.03	16.38
522.20	79.58
522.38	0.00
522.55	28.09
522.72	56.17
522.89	0.00
523.07	35.11
523.24	42.13
523.41	37.45
523.58	70.22
523.75	51.49
523.92	102.98
524.10	126.39
524.27	100.64
524.44	56.17
524.61	0.00
524.78	2.34
524.96	88.94
525.13	32.77
525.30	67.88
525.47	35.11
525.64	67.88
525.81	2.34
525.98	9.36
526.16	53.83
526.33	44.47
526.50	0.00
526.67	110.01
526.84	0.00
527.01	0.00
527.18	117.03
527.36	53.83
527.53	0.00
527.70	18.72
527.87	32.77
528.04	30.43
528.21	72.56
528.38	86.60
528.55	51.49
528.72	39.79
528.89	0.00
529.07	32.77
529.24	44.47
529.41	37.45
529.58	119.37
529.75	32.77
529.92	60.85
530.09	44.47
530.26	11.70
530.43	37.45
530.60	0.00
530.77	112.35
530.94	2.34
531.11	39.79
531.28	44.47
531.46	91.28
531.63	9.36
531.80	86.60
531.97	32.77
532.14	44.47
532.31	86.60
532.48	154.48
532.65	35.11
532.82	30.43
532.99	98.30
533.16	79.58
533.33	0.00
533.50	49.15
533.67	51.49
533.84	67.88
534.01	91.28
534.18	67.88
534.35	18.72
534.52	46.81
534.69	9.36
534.86	74.90
535.03	63.19
535.20	42.13
535.37	67.88
535.54	32.77
535.71	42.13
535.88	16.38
536.05	105.32
536.22	11.70
536.38	0.00
536.55	39.79
536.72	74.90
536.89	58.51
537.06	2.34
537.23	0.00
537.40	46.81
537.57	86.60
537.74	39.79
537.91	70.22
538.08	23.41
538.25	58.51
538.42	30.43
538.59	74.90
538.75	51.49
538.92	0.00
539.09	46.81
539.26	56.17
539.43	37.45
539.60	21.06
539.77	86.60
539.94	84.26
540.11	4.68
540.28	81.92
540.44	49.15
540.61	67.88
540.78	2.34
540.95	49.15
541.12	35.11
541.29	0.00
541.46	42.13
541.62	37.45
541.79	65.54
541.96	79.58
542.13	65.54
542.30	9.36
542.47	37.45
542.63	65.54
542.80	67.88
542.97	0.00
543.14	11.70
543.31	60.85
543.48	4.68
543.64	9.36
543.81	37.45
543.98	4.68
544.15	65.54
544.32	32.77
544.48	79.58
544.65	102.98
544.82	9.36
544.99	18.72
545.16	28.09
545.32	0.00
545.49	51.49
545.66	0.00
545.83	37.45
546.00	84.26
546.16	88.94
546.33	30.43
546.50	56.17
546.67	0.00
546.83	65.54
547.00	18.72
547.17	4.68
547.34	0.00
547.50	18.72
547.67	21.06
547.84	14.04
548.00	81.92
548.17	0.00
548.34	70.22
548.51	42.13
548.67	37.45
548.84	37.45
549.01	42.13
549.18	7.02
549.34	44.47
549.51	0.00
549.68	9.36
549.84	0.00
550.01	0.00
550.18	46.81
550.34	23.41
550.51	65.54
550.68	67.88
550.84	35.11
551.01	133.41
551.18	70.22
551.34	49.15
551.51	58.51
551.68	30.43
551.84	77.24
552.01	79.58
552.18	100.64
552.34	30.43
552.51	74.90
552.68	49.15
552.84	0.00
553.01	4.68
553.18	51.49
553.34	21.06
553.51	60.85
553.67	21.06
553.84	35.11
554.01	11.70
554.17	131.07
554.34	60.85
554.51	49.15
554.67	0.00
554.84	44.47
555.00	14.04
555.17	51.49
555.33	117.03
555.50	0.00
555.67	16.38
555.83	58.51
556.00	84.26
556.16	39.79
556.33	93.62
556.50	39.79
556.66	107.66
556.83	46.81
556.99	0.00
557.16	72.56
557.32	18.72
557.49	107.66
557.65	0.00
557.82	84.26
557.98	56.17
558.15	105.32
558.32	58.51
558.48	119.37
558.65	28.09
558.81	30.43
558.98	46.81
559.14	74.90
559.31	42.13
559.47	39.79
559.64	93.62
559.80	46.81
559.97	0.00
560.13	65.54
560.30	77.24
560.46	95.96
560.63	37.45
560.79	152.13
560.96	14.04
561.12	35.11
561.29	84.26
561.45	23.41
561.61	95.96
561.78	25.75
561.94	0.00
562.11	51.49
562.27	51.49
562.44	128.73
562.60	60.85
562.77	49.15
562.93	37.45
563.10	58.51
563.26	28.09
563.42	11.70
563.59	93.62
563.75	9.36
563.92	46.81
564.08	0.00
564.24	93.62
564.41	14.04
564.57	0.00
564.74	60.85
564.90	88.94
565.07	0.00
565.23	42.13
565.39	30.43
565.56	30.43
565.72	56.17
565.88	65.54
566.05	114.69
566.21	124.05
566.38	23.41
566.54	121.71
566.70	0.00
566.87	65.54
567.03	18.72
567.19	67.88
567.36	44.47
567.52	72.56
567.68	0.00
567.85	0.00
568.01	23.41
568.17	86.60
568.34	86.60
568.50	35.11
568.66	0.00
568.83	42.13
568.99	49.15
569.15	9.36
569.32	145.11
569.48	49.15
569.64	39.79
569.81	7.02
569.97	21.06
570.13	0.00
570.30	100.64
570.46	42.13
570.62	60.85
570.78	81.92
570.95	23.41
571.11	145.11
571.27	67.88
571.43	56.17
571.60	49.15
571.76	49.15
571.92	25.75
572.09	65.54
572.25	77.24
572.41	84.26
572.57	77.24
572.74	42.13
572.90	28.09
573.06	0.00
573.22	0.00
573.38	42.13
573.55	14.04
573.71	0.00
573.87	60.85
574.03	37.45
574.20	7.02
574.36	49.15
574.52	11.70
574.68	46.81
574.84	72.56
575.01	46.81
575.17	23.41
575.33	107.66
575.49	67.88
575.65	88.94
575.82	4.68
575.98	37.45
576.14	7.02
576.30	72.56
576.46	93.62
576.62	18.72
576.79	121.71
576.95	35.11
577.11	131.07
577.27	74.90
577.43	9.36
577.59	42.13
577.75	51.49
577.92	4.68
578.08	23.41
578.24	14.04
578.40	46.81
578.56	72.56
578.72	86.60
578.88	79.58
579.04	46.81
579.21	0.00
579.37	37.45
579.53	37.45
579.69	39.79
579.85	28.09
580.01	79.58
580.17	58.51
580.33	0.00
580.49	9.36
580.65	28.09
580.82	21.06
580.98	42.13
581.14	28.09
581.30	46.81
581.46	91.28
581.62	72.56
581.78	0.00
581.94	7.02
582.10	44.47
582.26	100.64
582.42	98.30
582.58	81.92
582.74	67.88
582.90	60.85
583.06	72.56
583.22	9.36
583.38	63.19
583.54	46.81
583.70	102.98
583.86	95.96
584.02	42.13
584.18	0.00
584.34	42.13
584.50	0.00
584.66	23.41
584.82	30.43
584.98	44.47
585.14	100.64
585.30	39.79
585.46	63.19
585.62	30.43
585.78	0.00
585.94	51.49
586.10	11.70
586.26	23.41
586.42	88.94
586.58	0.00
586.74	32.77
586.90	30.43
587.06	72.56
587.22	67.88
587.38	9.36
587.54	0.00
587.70	16.38
587.86	46.81
588.02	91.28
588.18	53.83
588.34	51.49
588.49	145.11
588.65	25.75
588.81	70.22
588.97	88.94
589.13	84.26
589.29	35.11
589.45	117.03
589.61	0.00
589.77	39.79
589.93	53.83
590.08	49.15
590.24	0.00
590.40	63.19
590.56	63.19
590.72	9.36
590.88	35.11
591.04	28.09
591.20	25.75
591.35	28.09
591.51	46.81
591.67	53.83
591.83	49.15
591.99	86.60
592.15	51.49
592.31	44.47
592.46	39.79
592.62	51.49
592.78	51.49
592.94	49.15
593.10	21.06
593.26	0.00
593.41	0.00
593.57	14.04
593.73	81.92
593.89	63.19
594.05	0.00
594.20	4.68
594.36	16.38
594.52	4.68
594.68	37.45
594.84	53.83
594.99	60.85
595.15	39.79
595.31	18.72
595.47	23.41
595.62	44.47
595.78	65.54
595.94	9.36
596.10	81.92
596.25	42.13
596.41	35.11
596.57	0.00
596.73	7.02
596.88	72.56
597.04	39.79
597.20	0.00
597.36	28.09
597.51	67.88
597.67	0.00
597.83	49.15
597.99	42.13
598.14	18.72
598.30	23.41
598.46	44.47
598.61	56.17
598.77	0.00
598.93	79.58
599.09	14.04
599.24	65.54
599.40	44.47
599.56	0.00
599.71	0.00
599.87	9.36
600.03	58.51
600.18	0.00
600.34	74.90
600.50	23.41
600.65	21.06
600.81	51.49
600.97	79.58
601.12	21.06
601.28	65.54
601.44	23.41
601.59	21.06
601.75	98.30
601.91	39.79
602.06	0.00
602.22	42.13
602.37	49.15
602.53	35.11
602.69	93.62
602.84	28.09
603.00	0.00
603.16	100.64
603.31	56.17
603.47	60.85
603.62	32.77
603.78	102.98
603.94	4.68
604.09	0.00
604.25	138.09
604.40	25.75
604.56	32.77
604.71	4.68
604.87	4.68
605.03	0.00
605.18	28.09
605.34	0.00
605.49	25.75
605.65	72.56
605.80	0.00
605.96	93.62
606.12	32.77
606.27	100.64
606.43	18.72
606.58	49.15
606.74	21.06
606.89	16.38
607.05	42.13
607.20	35.11
607.36	44.47
607.51	81.92
607.67	42.13
607.82	0.00
607.98	28.09
608.13	72.56
608.29	0.00
608.44	18.72
608.60	0.00
608.75	84.26
608.91	49.15
609.06	95.96
609.22	0.00
609.37	56.17
609.53	39.79
609.68	21.06
609.84	9.36
609.99	0.00
610.15	39.79
610.30	0.00
610.46	0.00
610.61	60.85
610.76	93.62
610.92	18.72
611.07	9.36
611.23	9.36
611.38	2.34
611.54	91.28
611.69	42.13
611.84	100.64
612.00	53.83
612.15	56.17
612.31	44.47
612.46	77.24
612.62	0.00
612.77	84.26
612.92	100.64
613.08	98.30
613.23	138.09
613.39	58.51
613.54	25.75
613.69	93.62
613.85	9.36
614.00	0.00
614.15	0.00
614.31	14.04
614.46	58.51
614.62	49.15
614.77	0.00
614.92	23.41
615.08	95.96
615.23	53.83
615.38	63.19
615.54	16.38
615.69	77.24
615.84	81.92
616.00	72.56
616.15	25.75
616.30	49.15
616.46	124.05
616.61	28.09
616.76	63.19
616.92	58.51
617.07	67.88
617.22	0.00
617.37	70.22
617.53	21.06
617.68	9.36
617.83	58.51
617.99	11.70
618.14	2.34
618.29	81.92
618.45	35.11
618.60	88.94
618.75	51.49
618.90	98.30
619.06	46.81
619.21	60.85
619.36	105.32
619.51	51.49
619.67	28.09
619.82	63.19
619.97	79.58
620.12	58.51
620.28	107.66
620.43	28.09
620.58	0.00
620.73	67.88
620.89	23.41
621.04	88.94
621.19	30.43
621.34	86.60
621.49	28.09
621.65	107.66
621.80	0.00
621.95	60.85
622.10	37.45
622.25	21.06
622.41	135.75
622.56	84.26
622.71	81.92
622.86	70.22
623.01	105.32
623.16	98.30
623.32	105.32
623.47	105.32
623.62	67.88
623.77	37.45
623.92	25.75
624.07	42.13
624.23	32.77
624.38	44.47
624.53	37.45
624.68	117.03
624.83	46.81
624.98	95.96
625.13	65.54
625.29	100.64
625.44	7.02
625.59	44.47
625.74	65.54
625.89	32.77
626.04	60.85
626.19	0.00
626.34	39.79
626.49	23.41
626.65	0.00
626.80	42.13
626.95	46.81
627.10	4.68
627.25	18.72
627.40	131.07
627.55	46.81
627.70	37.45
627.85	30.43
628.00	39.79
628.15	63.19
628.30	117.03
628.45	124.05
628.60	18.72
628.76	16.38
628.91	18.72
629.06	98.30
629.21	0.00
629.36	9.36
629.51	18.72
629.66	16.38
629.81	60.85
629.96	84.26
630.11	81.92
630.26	67.88
630.41	0.00
630.56	30.43
630.71	42.13
630.86	84.26
631.01	63.19
631.16	46.81
631.31	79.58
631.46	46.81
631.61	46.81
631.76	70.22
631.91	0.00
632.06	39.79
632.21	60.85
632.36	7.02
632.51	107.66
632.66	11.70
632.81	35.11
632.96	58.51
633.10	30.43
633.25	91.28
633.40	74.90
633.55	14.04
633.70	30.43
633.85	14.04
634.00	84.26
634.15	0.00
634.30	18.72
634.45	49.15
634.60	0.00
634.75	63.19
634.90	0.00
635.05	81.92
635.19	70.22
635.34	81.92
635.49	0.00
635.64	53.83
635.79	0.00
635.94	126.39
636.09	0.00
636.24	35.11
636.39	46.81
636.53	67.88
636.68	77.24
636.83	58.51
636.98	18.72
637.13	49.15
637.28	16.38
637.43	28.09
637.57	46.81
637.72	67.88
637.87	44.47
638.02	0.00
638.17	0.00
638.32	84.26
638.46	86.60
638.61	11.70
638.76	0.00
638.91	0.00
639.06	79.58
639.20	37.45
639.35	110.01
639.50	70.22
639.65	88.94
639.80	7.02
639.94	0.00
640.09	0.00
640.24	37.45
640.39	37.45
640.54	56.17
640.68	39.79
640.83	72.56
640.98	4.68
641.13	53.83
641.27	0.00
641.42	42.13
641.57	42.13
641.72	0.00
641.86	74.90
642.01	44.47
642.16	0.00
642.31	53.83
642.45	30.43
642.60	18.72
642.75	74.90
642.90	0.00
643.04	0.00
643.19	0.00
643.34	7.02
643.48	88.94
643.63	0.00
643.78	0.00
643.93	53.83
644.07	21.06
644.22	51.49
644.37	79.58
644.51	46.81
644.66	84.26
644.81	0.00
644.95	51.49
645.10	0.00
645.25	63.19
645.39	72.56
645.54	60.85
645.69	0.00
645.83	32.77
645.98	131.07
646.13	49.15
646.27	70.22
646.42	0.00
646.57	39.79
646.71	35.11
646.86	60.85
647.00	79.58
647.15	91.28
647.30	21.06
647.44	9.36
647.59	51.49
647.74	11.70
647.88	4.68
648.03	91.28
648.17	7.02
648.32	0.00
648.47	0.00
648.61	67.88
648.76	7.02
648.90	56.17
649.05	30.43
649.20	51.49
649.34	0.00
649.49	28.09
649.63	0.00
649.78	16.38
649.92	49.15
650.07	0.00
650.21	0.00
650.36	58.51
650.51	9.36
650.65	32.77
650.80	79.58
650.94	100.64
651.09	4.68
651.23	0.00
651.38	25.75
651.52	0.00
651.67	9.36
651.81	0.00
651.96	67.88
652.10	49.15
652.25	84.26
652.39	46.81
652.54	0.00
652.68	0.00
652.83	30.43
652.97	0.00
653.12	30.43
653.26	53.83
653.41	84.26
653.55	35.11
653.70	14.04
653.84	70.22
653.99	65.54
654.13	0.00
654.27	23.41
654.42	51.49
654.56	88.94
654.71	21.06
654.85	9.36
655.00	0.00
655.14	65.54
655.29	0.00
655.43	63.19
655.57	28.09
655.72	4.68
655.86	44.47
656.01	42.13
656.15	74.90
656.30	18.72
656.44	30.43
656.58	53.83
656.73	58.51
656.87	16.38
657.01	0.00
657.16	0.00
657.30	35.11
657.45	70.22
657.59	65.54
657.73	32.77
657.88	88.94
658.02	0.00
658.16	0.00
658.31	72.56
658.45	25.75
658.60	25.75
658.74	7.02
658.88	18.72
659.03	65.54
659.17	11.70
659.31	0.00
659.46	49.15
659.60	23.41
659.74	32.77
659.89	0.00
660.03	28.09
660.17	0.00
660.32	65.54
660.46	98.30
660.60	0.00
660.74	74.90
660.89	81.92
661.03	0.00
661.17	9.36
661.32	0.00
661.46	74.90
661.60	37.45
661.74	67.88
661.89	0.00
662.03	0.00
662.17	56.17
662.31	65.54
662.46	7.02
662.60	102.98
662.74	46.81
662.88	0.00
663.03	0.00
663.17	32.77
663.31	14.04
663.45	32.77
663.60	0.00
663.74	0.00
663.88	0.00
664.02	58.51
664.17	4.68
664.31	37.45
664.45	37.45
664.59	0.00
664.73	0.00
664.88	49.15
665.02	53.83
665.16	39.79
665.30	39.79
665.44	28.09
665.59	56.17
665.73	63.19
665.87	4.68
666.01	0.00
666.15	0.00
666.29	0.00
666.44	91.28
666.58	23.41
666.72	0.00
666.86	0.00
667.00	21.06
667.14	100.64
667.28	63.19
667.43	0.00
667.57	39.79
667.71	18.72
667.85	44.47
667.99	37.45
668.13	44.47
668.27	44.47
668.41	23.41
668.56	9.36
668.70	21.06
668.84	79.58
668.98	56.17
669.12	79.58
669.26	49.15
669.40	21.06
669.54	0.00
669.68	70.22
669.82	21.06
669.96	0.00
670.10	51.49
670.25	16.38
670.39	11.70
670.53	53.83
670.67	46.81
670.81	42.13
670.95	0.00
671.09	28.09
671.23	7.02
671.37	53.83
671.51	21.06
671.65	74.90
671.79	28.09
671.93	37.45
672.07	23.41
672.21	131.07
672.35	56.17
672.49	0.00
672.63	0.00
672.77	63.19
672.91	2.34
673.05	49.15
673.19	11.70
673.33	23.41
673.47	63.19
673.61	9.36
673.75	14.04
673.89	107.66
674.03	46.81
674.17	84.26
674.31	86.60
674.45	4.68
674.59	4.68
674.73	77.24
674.87	0.00
675.01	67.88
675.15	35.11
675.29	28.09
675.43	25.75
675.56	102.98
675.70	0.00
675.84	18.72
675.98	58.51
676.12	131.07
676.26	121.71
676.40	28.09
676.54	7.02
676.68	30.43
676.82	56.17
676.96	0.00
677.10	28.09
677.23	117.03
677.37	102.98
677.51	30.43
677.65	28.09
677.79	18.72
677.93	23.41
678.07	0.00
678.21	44.47
678.34	102.98
678.48	70.22
678.62	67.88
678.76	7.02
678.90	102.98
679.04	51.49
679.18	49.15
679.31	28.09
679.45	0.00
679.59	37.45
679.73	112.35
679.87	11.70
680.00	56.17
680.14	77.24
680.28	44.47
680.42	0.00
680.56	63.19
680.70	18.72
680.83	0.00
680.97	2.34
681.11	7.02
681.25	0.00
681.39	39.79
681.52	30.43
681.66	79.58
681.80	30.43
681.94	11.70
682.07	32.77
682.21	46.81
682.35	37.45
682.49	42.13
682.62	42.13
682.76	25.75
682.90	32.77
683.04	60.85
683.17	0.00
683.31	42.13
683.45	49.15
683.59	25.75
683.72	79.58
683.86	53.83
684.00	0.00
684.13	25.75
684.27	72.56
684.41	0.00
684.55	4.68
684.68	56.17
684.82	11.70
684.96	0.00
685.09	0.00
685.23	0.00
685.37	28.09
685.50	39.79
685.64	25.75
685.78	0.00
685.91	2.34
686.05	25.75
686.19	4.68
686.32	74.90
686.46	28.09
686.60	32.77
686.73	70.22
686.87	35.11
687.01	0.00
687.14	28.09
687.28	58.51
687.42	32.77
687.55	51.49
687.69	32.77
687.82	23.41
687.96	30.43
688.10	21.06
688.23	0.00
688.37	0.00
688.50	14.04
688.64	77.24
688.78	39.79
688.91	44.47
689.05	28.09
689.18	0.00
689.32	0.00
689.46	42.13
689.59	28.09
689.73	74.90
689.86	42.13
690.00	67.88
690.13	9.36
690.27	0.00
690.41	28.09
690.54	2.34
690.68	0.00
690.81	28.09
690.95	39.79
691.08	77.24
691.22	128.73
691.35	86.60
691.49	0.00
691.62	32.77
691.76	37.45
691.89	49.15
692.03	37.45
692.16	91.28
692.30	58.51
692.43	81.92
692.57	49.15
692.70	25.75
692.84	18.72
692.97	35.11
693.11	0.00
693.24	23.41
693.38	37.45
693.51	9.36
693.65	11.70
693.78	18.72
693.92	51.49
694.05	37.45
694.19	11.70
694.32	51.49
694.45	70.22
694.59	53.83
694.72	0.00
694.86	2.34
694.99	42.13
695.13	44.47
695.26	60.85
695.39	51.49
695.53	0.00
695.66	4.68
695.80	0.00
695.93	0.00
696.07	30.43
696.20	35.11
696.33	84.26
696.47	16.38
696.60	28.09
696.73	4.68
696.87	60.85
697.00	81.92
697.14	93.62
697.27	23.41
697.40	46.81
697.54	21.06
697.67	0.00
697.80	79.58
697.94	39.79
698.07	16.38
698.21	35.11
698.34	0.00
698.47	0.00
698.61	4.68
698.74	35.11
698.87	2.34
699.01	0.00
699.14	18.72
699.27	16.38
699.40	100.64
699.54	35.11
699.67	42.13
699.80	42.13
699.94	110.01
700.07	88.94
700.20	0.00
700.34	51.49
700.47	37.45
700.60	23.41
700.73	0.00
700.87	0.00
701.00	7.02
701.13	18.72
701.26	7.02
701.40	7.02
701.53	70.22
701.66	0.00
701.79	25.75
701.93	58.51
702.06	23.41
702.19	0.00
702.32	28.09
702.46	4.68
702.59	14.04
702.72	72.56
702.85	91.28
702.99	21.06
703.12	51.49
703.25	25.75
703.38	65.54
703.51	0.00
703.65	11.70
703.78	37.45
703.91	42.13
704.04	51.49
704.17	18.72
704.31	72.56
704.44	9.36
704.57	0.00
704.70	0.00
704.83	0.00
704.96	30.43
705.10	86.60
705.23	18.72
>>>>>End Processed Spectral Data<<<<<
