SpectraSuite Data File
++++++++++++++++++++++++++++++++++++
Date: Fri Oct 04 12:13:36 GMT-05:00 2013
User: price-jones
Dark Spectrum Present: No
Reference Spectrum Present: No
Number of Sampled Component Spectra: 1
Spectrometers: USB2+H05261
Integration Time (usec): 10000 (USB2+H05261)
Spectra Averaged: 1 (USB2+H05261)
Boxcar Smoothing: 0 (USB2+H05261)
Correct for Electrical Dark: No (USB2+H05261)
Strobe/Lamp Enabled: No (USB2+H05261)
Correct for Detector Non-linearity: No (USB2+H05261)
Correct for Stray Light: No (USB2+H05261)
Number of Pixels in Processed Spectrum: 2048
>>>>>Begin Processed Spectral Data<<<<<
365.73	14.04
365.92	14.04
366.12	14.04
366.32	0.00
366.52	0.00
366.72	0.00
366.91	0.00
367.11	0.00
367.31	0.00
367.51	0.00
367.70	0.00
367.90	0.00
368.10	0.00
368.30	0.00
368.49	0.00
368.69	0.00
368.89	0.00
369.09	0.00
369.28	0.00
369.48	0.00
369.68	0.00
369.87	0.00
370.07	0.00
370.27	0.00
370.47	0.00
370.66	0.00
370.86	0.00
371.06	0.00
371.25	0.00
371.45	30.43
371.65	0.00
371.84	70.22
372.04	9.36
372.24	21.06
372.44	28.09
372.63	2.34
372.83	28.09
373.03	93.62
373.22	0.00
373.42	44.47
373.62	25.75
373.81	65.54
374.01	51.49
374.21	58.51
374.40	28.09
374.60	93.62
374.79	44.47
374.99	23.41
375.19	72.56
375.38	9.36
375.58	60.85
375.78	53.83
375.97	65.54
376.17	32.77
376.37	35.11
376.56	30.43
376.76	35.11
376.95	0.00
377.15	25.75
377.35	9.36
377.54	30.43
377.74	51.49
377.93	0.00
378.13	25.75
378.33	53.83
378.52	58.51
378.72	42.13
378.91	79.58
379.11	88.94
379.31	0.00
379.50	21.06
379.70	56.17
379.89	0.00
380.09	60.85
380.28	0.00
380.48	63.19
380.68	14.04
380.87	0.00
381.07	0.00
381.26	53.83
381.46	0.00
381.65	0.00
381.85	25.75
382.04	56.17
382.24	58.51
382.43	25.75
382.63	16.38
382.83	16.38
383.02	18.72
383.22	0.00
383.41	46.81
383.61	65.54
383.80	0.00
384.00	18.72
384.19	0.00
384.39	93.62
384.58	0.00
384.78	0.00
384.97	0.00
385.17	58.51
385.36	39.79
385.56	0.00
385.75	35.11
385.95	0.00
386.14	77.24
386.34	35.11
386.53	65.54
386.72	30.43
386.92	0.00
387.11	18.72
387.31	67.88
387.50	70.22
387.70	74.90
387.89	60.85
388.09	58.51
388.28	65.54
388.48	21.06
388.67	93.62
388.86	30.43
389.06	25.75
389.25	21.06
389.45	77.24
389.64	46.81
389.84	46.81
390.03	37.45
390.22	0.00
390.42	86.60
390.61	163.84
390.81	46.81
391.00	39.79
391.19	18.72
391.39	56.17
391.58	0.00
391.78	44.47
391.97	0.00
392.16	7.02
392.36	32.77
392.55	9.36
392.75	0.00
392.94	39.79
393.13	46.81
393.33	46.81
393.52	25.75
393.71	30.43
393.91	37.45
394.10	51.49
394.29	16.38
394.49	58.51
394.68	46.81
394.88	84.26
395.07	42.13
395.26	140.43
395.46	39.79
395.65	77.24
395.84	30.43
396.04	21.06
396.23	16.38
396.42	60.85
396.62	77.24
396.81	51.49
397.00	44.47
397.19	25.75
397.39	56.17
397.58	0.00
397.77	18.72
397.97	95.96
398.16	42.13
398.35	0.00
398.55	39.79
398.74	74.90
398.93	39.79
399.12	65.54
399.32	28.09
399.51	32.77
399.70	39.79
399.90	30.43
400.09	93.62
400.28	42.13
400.47	86.60
400.67	16.38
400.86	42.13
401.05	65.54
401.24	105.32
401.44	37.45
401.63	0.00
401.82	0.00
402.01	0.00
402.21	2.34
402.40	32.77
402.59	58.51
402.78	0.00
402.97	9.36
403.17	0.00
403.36	77.24
403.55	0.00
403.74	74.90
403.93	46.81
404.13	28.09
404.32	58.51
404.51	32.77
404.70	4.68
404.89	72.56
405.09	56.17
405.28	88.94
405.47	51.49
405.66	63.19
405.85	102.98
406.05	53.83
406.24	0.00
406.43	0.00
406.62	51.49
406.81	18.72
407.00	28.09
407.20	28.09
407.39	39.79
407.58	0.00
407.77	18.72
407.96	42.13
408.15	65.54
408.34	0.00
408.54	0.00
408.73	30.43
408.92	42.13
409.11	74.90
409.30	35.11
409.49	46.81
409.68	0.00
409.87	37.45
410.07	44.47
410.26	44.47
410.45	37.45
410.64	56.17
410.83	42.13
411.02	35.11
411.21	70.22
411.40	49.15
411.59	16.38
411.78	2.34
411.98	14.04
412.17	0.00
412.36	0.00
412.55	119.37
412.74	65.54
412.93	53.83
413.12	44.47
413.31	0.00
413.50	11.70
413.69	0.00
413.88	53.83
414.07	70.22
414.26	35.11
414.45	35.11
414.64	37.45
414.83	70.22
415.02	105.32
415.22	91.28
415.41	32.77
415.60	18.72
415.79	77.24
415.98	32.77
416.17	37.45
416.36	0.00
416.55	32.77
416.74	32.77
416.93	0.00
417.12	67.88
417.31	81.92
417.50	60.85
417.69	49.15
417.88	14.04
418.07	53.83
418.26	18.72
418.45	46.81
418.64	60.85
418.83	91.28
419.02	42.13
419.21	18.72
419.39	58.51
419.58	21.06
419.77	63.19
419.96	60.85
420.15	28.09
420.34	11.70
420.53	0.00
420.72	0.00
420.91	95.96
421.10	72.56
421.29	37.45
421.48	0.00
421.67	65.54
421.86	86.60
422.05	46.81
422.24	49.15
422.43	67.88
422.61	0.00
422.80	18.72
422.99	112.35
423.18	65.54
423.37	2.34
423.56	0.00
423.75	2.34
423.94	42.13
424.13	81.92
424.32	32.77
424.50	112.35
424.69	25.75
424.88	67.88
425.07	18.72
425.26	93.62
425.45	102.98
425.64	7.02
425.83	0.00
426.01	16.38
426.20	65.54
426.39	7.02
426.58	56.17
426.77	93.62
426.96	86.60
427.15	16.38
427.33	37.45
427.52	30.43
427.71	2.34
427.90	23.41
428.09	32.77
428.28	28.09
428.46	0.00
428.65	77.24
428.84	30.43
429.03	46.81
429.22	93.62
429.40	30.43
429.59	49.15
429.78	25.75
429.97	49.15
430.16	23.41
430.34	11.70
430.53	0.00
430.72	49.15
430.91	28.09
431.10	11.70
431.28	23.41
431.47	117.03
431.66	0.00
431.85	0.00
432.03	2.34
432.22	56.17
432.41	67.88
432.60	88.94
432.79	42.13
432.97	49.15
433.16	0.00
433.35	9.36
433.54	67.88
433.72	60.85
433.91	30.43
434.10	11.70
434.28	46.81
434.47	30.43
434.66	32.77
434.85	79.58
435.03	30.43
435.22	65.54
435.41	46.81
435.59	63.19
435.78	91.28
435.97	56.17
436.16	124.05
436.34	114.69
436.53	63.19
436.72	72.56
436.90	49.15
437.09	133.41
437.28	67.88
437.46	72.56
437.65	18.72
437.84	56.17
438.02	88.94
438.21	58.51
438.40	0.00
438.58	72.56
438.77	23.41
438.96	44.47
439.14	0.00
439.33	60.85
439.52	58.51
439.70	37.45
439.89	7.02
440.08	28.09
440.26	72.56
440.45	9.36
440.63	30.43
440.82	84.26
441.01	84.26
441.19	23.41
441.38	74.90
441.57	49.15
441.75	51.49
441.94	46.81
442.12	0.00
442.31	14.04
442.50	79.58
442.68	16.38
442.87	105.32
443.05	0.00
443.24	7.02
443.43	49.15
443.61	88.94
443.80	147.45
443.98	93.62
444.17	25.75
444.35	93.62
444.54	14.04
444.73	114.69
444.91	46.81
445.10	42.13
445.28	28.09
445.47	86.60
445.65	37.45
445.84	7.02
446.02	0.00
446.21	110.01
446.39	56.17
446.58	0.00
446.77	2.34
446.95	53.83
447.14	32.77
447.32	67.88
447.51	42.13
447.69	32.77
447.88	44.47
448.06	65.54
448.25	37.45
448.43	49.15
448.62	74.90
448.80	56.17
448.99	0.00
449.17	86.60
449.36	18.72
449.54	86.60
449.73	0.00
449.91	9.36
450.10	49.15
450.28	28.09
450.46	35.11
450.65	16.38
450.83	72.56
451.02	39.79
451.20	81.92
451.39	21.06
451.57	51.49
451.76	18.72
451.94	72.56
452.13	11.70
452.31	84.26
452.49	67.88
452.68	126.39
452.86	51.49
453.05	91.28
453.23	77.24
453.42	91.28
453.60	72.56
453.78	124.05
453.97	35.11
454.15	23.41
454.34	23.41
454.52	117.03
454.70	72.56
454.89	70.22
455.07	51.49
455.26	46.81
455.44	74.90
455.62	93.62
455.81	121.71
455.99	79.58
456.17	72.56
456.36	84.26
456.54	56.17
456.73	37.45
456.91	14.04
457.09	56.17
457.28	126.39
457.46	84.26
457.64	42.13
457.83	39.79
458.01	42.13
458.19	37.45
458.38	91.28
458.56	18.72
458.74	79.58
458.93	100.64
459.11	39.79
459.29	60.85
459.48	46.81
459.66	91.28
459.84	84.26
460.03	23.41
460.21	77.24
460.39	79.58
460.57	70.22
460.76	100.64
460.94	65.54
461.12	42.13
461.31	63.19
461.49	60.85
461.67	53.83
461.85	37.45
462.04	60.85
462.22	86.60
462.40	110.01
462.59	63.19
462.77	58.51
462.95	72.56
463.13	95.96
463.32	39.79
463.50	46.81
463.68	21.06
463.86	39.79
464.05	67.88
464.23	65.54
464.41	67.88
464.59	4.68
464.78	37.45
464.96	39.79
465.14	42.13
465.32	65.54
465.50	30.43
465.69	32.77
465.87	88.94
466.05	65.54
466.23	74.90
466.41	30.43
466.60	121.71
466.78	58.51
466.96	23.41
467.14	32.77
467.32	86.60
467.51	32.77
467.69	70.22
467.87	53.83
468.05	14.04
468.23	124.05
468.41	77.24
468.60	56.17
468.78	166.18
468.96	0.00
469.14	65.54
469.32	81.92
469.50	65.54
469.69	42.13
469.87	49.15
470.05	39.79
470.23	93.62
470.41	79.58
470.59	14.04
470.77	37.45
470.95	63.19
471.14	18.72
471.32	100.64
471.50	39.79
471.68	0.00
471.86	18.72
472.04	56.17
472.22	77.24
472.40	81.92
472.58	51.49
472.77	60.85
472.95	63.19
473.13	0.00
473.31	77.24
473.49	4.68
473.67	107.66
473.85	53.83
474.03	100.64
474.21	72.56
474.39	128.73
474.57	72.56
474.75	16.38
474.93	105.32
475.12	25.75
475.30	0.00
475.48	128.73
475.66	100.64
475.84	9.36
476.02	84.26
476.20	88.94
476.38	0.00
476.56	49.15
476.74	91.28
476.92	72.56
477.10	51.49
477.28	28.09
477.46	74.90
477.64	70.22
477.82	88.94
478.00	56.17
478.18	121.71
478.36	67.88
478.54	0.00
478.72	49.15
478.90	72.56
479.08	63.19
479.26	25.75
479.44	79.58
479.62	107.66
479.80	112.35
479.98	53.83
480.16	37.45
480.34	81.92
480.52	11.70
480.70	65.54
480.88	95.96
481.06	18.72
481.24	35.11
481.41	117.03
481.59	74.90
481.77	79.58
481.95	67.88
482.13	86.60
482.31	102.98
482.49	77.24
482.67	110.01
482.85	98.30
483.03	37.45
483.21	56.17
483.39	44.47
483.57	84.26
483.74	16.38
483.92	114.69
484.10	84.26
484.28	65.54
484.46	70.22
484.64	0.00
484.82	79.58
485.00	16.38
485.18	93.62
485.35	46.81
485.53	147.45
485.71	112.35
485.89	72.56
486.07	51.49
486.25	14.04
486.43	60.85
486.61	39.79
486.78	37.45
486.96	67.88
487.14	37.45
487.32	79.58
487.50	84.26
487.68	63.19
487.85	88.94
488.03	44.47
488.21	140.43
488.39	46.81
488.57	88.94
488.75	39.79
488.92	86.60
489.10	0.00
489.28	107.66
489.46	37.45
489.64	39.79
489.81	56.17
489.99	88.94
490.17	23.41
490.35	21.06
490.53	74.90
490.70	65.54
490.88	63.19
491.06	11.70
491.24	37.45
491.41	100.64
491.59	107.66
491.77	42.13
491.95	74.90
492.13	79.58
492.30	63.19
492.48	79.58
492.66	168.52
492.84	65.54
493.01	102.98
493.19	121.71
493.37	67.88
493.54	91.28
493.72	161.50
493.90	138.09
494.08	72.56
494.25	79.58
494.43	70.22
494.61	98.30
494.79	107.66
494.96	77.24
495.14	86.60
495.32	30.43
495.49	14.04
495.67	154.48
495.85	35.11
496.02	74.90
496.20	128.73
496.38	88.94
496.55	166.18
496.73	53.83
496.91	79.58
497.09	77.24
497.26	133.41
497.44	145.11
497.62	140.43
497.79	119.37
497.97	42.13
498.14	84.26
498.32	70.22
498.50	107.66
498.67	0.00
498.85	79.58
499.03	112.35
499.20	105.32
499.38	107.66
499.56	112.35
499.73	72.56
499.91	51.49
500.08	56.17
500.26	121.71
500.44	49.15
500.61	98.30
500.79	74.90
500.97	88.94
501.14	77.24
501.32	152.13
501.49	44.47
501.67	65.54
501.84	95.96
502.02	51.49
502.20	114.69
502.37	84.26
502.55	67.88
502.72	77.24
502.90	30.43
503.07	18.72
503.25	152.13
503.43	42.13
503.60	56.17
503.78	121.71
503.95	53.83
504.13	28.09
504.30	149.79
504.48	105.32
504.65	58.51
504.83	102.98
505.01	63.19
505.18	100.64
505.36	117.03
505.53	58.51
505.71	72.56
505.88	67.88
506.06	91.28
506.23	0.00
506.41	93.62
506.58	63.19
506.76	79.58
506.93	32.77
507.11	74.90
507.28	105.32
507.46	16.38
507.63	145.11
507.81	95.96
507.98	0.00
508.16	105.32
508.33	56.17
508.50	39.79
508.68	156.82
508.85	110.01
509.03	117.03
509.20	72.56
509.38	0.00
509.55	93.62
509.73	95.96
509.90	142.77
510.08	114.69
510.25	124.05
510.42	91.28
510.60	147.45
510.77	88.94
510.95	37.45
511.12	93.62
511.30	110.01
511.47	63.19
511.64	128.73
511.82	30.43
511.99	105.32
512.17	88.94
512.34	95.96
512.51	32.77
512.69	39.79
512.86	70.22
513.04	35.11
513.21	98.30
513.38	124.05
513.56	88.94
513.73	138.09
513.90	117.03
514.08	42.13
514.25	58.51
514.43	65.54
514.60	88.94
514.77	88.94
514.95	107.66
515.12	95.96
515.29	117.03
515.47	98.30
515.64	98.30
515.81	131.07
515.99	46.81
516.16	44.47
516.33	39.79
516.51	77.24
516.68	23.41
516.85	44.47
517.03	166.18
517.20	86.60
517.37	182.56
517.54	119.37
517.72	86.60
517.89	119.37
518.06	60.85
518.24	88.94
518.41	37.45
518.58	42.13
518.75	63.19
518.93	79.58
519.10	81.92
519.27	91.28
519.45	56.17
519.62	60.85
519.79	77.24
519.96	67.88
520.14	107.66
520.31	88.94
520.48	65.54
520.65	46.81
520.83	14.04
521.00	72.56
521.17	63.19
521.34	11.70
521.52	77.24
521.69	128.73
521.86	81.92
522.03	100.64
522.20	145.11
522.38	117.03
522.55	126.39
522.72	49.15
522.89	56.17
523.07	131.07
523.24	138.09
523.41	28.09
523.58	42.13
523.75	105.32
523.92	44.47
524.10	107.66
524.27	138.09
524.44	91.28
524.61	91.28
524.78	102.98
524.96	65.54
525.13	72.56
525.30	156.82
525.47	93.62
525.64	74.90
525.81	138.09
525.98	0.00
526.16	84.26
526.33	77.24
526.50	46.81
526.67	105.32
526.84	131.07
527.01	93.62
527.18	25.75
527.36	93.62
527.53	95.96
527.70	117.03
527.87	159.16
528.04	79.58
528.21	84.26
528.38	156.82
528.55	79.58
528.72	53.83
528.89	128.73
529.07	58.51
529.24	37.45
529.41	70.22
529.58	147.45
529.75	175.54
529.92	128.73
530.09	124.05
530.26	65.54
530.43	131.07
530.60	49.15
530.77	60.85
530.94	166.18
531.11	63.19
531.28	86.60
531.46	107.66
531.63	114.69
531.80	156.82
531.97	140.43
532.14	35.11
532.31	56.17
532.48	60.85
532.65	42.13
532.82	42.13
532.99	110.01
533.16	128.73
533.33	53.83
533.50	149.79
533.67	70.22
533.84	107.66
534.01	42.13
534.18	56.17
534.35	149.79
534.52	102.98
534.69	60.85
534.86	42.13
535.03	70.22
535.20	107.66
535.37	110.01
535.54	84.26
535.71	121.71
535.88	65.54
536.05	42.13
536.22	93.62
536.38	72.56
536.55	77.24
536.72	56.17
536.89	88.94
537.06	93.62
537.23	198.95
537.40	79.58
537.57	119.37
537.74	156.82
537.91	74.90
538.08	86.60
538.25	18.72
538.42	93.62
538.59	60.85
538.75	56.17
538.92	142.77
539.09	42.13
539.26	147.45
539.43	86.60
539.60	70.22
539.77	79.58
539.94	74.90
540.11	44.47
540.28	39.79
540.44	135.75
540.61	53.83
540.78	60.85
540.95	102.98
541.12	14.04
541.29	135.75
541.46	88.94
541.62	58.51
541.79	65.54
541.96	98.30
542.13	56.17
542.30	65.54
542.47	58.51
542.63	102.98
542.80	56.17
542.97	18.72
543.14	91.28
543.31	119.37
543.48	49.15
543.64	58.51
543.81	46.81
543.98	205.97
544.15	60.85
544.32	91.28
544.48	88.94
544.65	67.88
544.82	119.37
544.99	88.94
545.16	98.30
545.32	154.48
545.49	95.96
545.66	88.94
545.83	74.90
546.00	63.19
546.16	51.49
546.33	131.07
546.50	105.32
546.67	30.43
546.83	81.92
547.00	60.85
547.17	152.13
547.34	77.24
547.50	124.05
547.67	30.43
547.84	77.24
548.00	18.72
548.17	81.92
548.34	98.30
548.51	60.85
548.67	0.00
548.84	46.81
549.01	88.94
549.18	102.98
549.34	102.98
549.51	81.92
549.68	135.75
549.84	105.32
550.01	84.26
550.18	98.30
550.34	81.92
550.51	23.41
550.68	84.26
550.84	140.43
551.01	145.11
551.18	154.48
551.34	81.92
551.51	133.41
551.68	65.54
551.84	170.86
552.01	53.83
552.18	102.98
552.34	95.96
552.51	100.64
552.68	98.30
552.84	112.35
553.01	147.45
553.18	135.75
553.34	119.37
553.51	88.94
553.67	98.30
553.84	58.51
554.01	4.68
554.17	77.24
554.34	56.17
554.51	107.66
554.67	100.64
554.84	74.90
555.00	147.45
555.17	100.64
555.33	105.32
555.50	56.17
555.67	114.69
555.83	177.88
556.00	119.37
556.16	2.34
556.33	81.92
556.50	124.05
556.66	84.26
556.83	88.94
556.99	74.90
557.16	93.62
557.32	67.88
557.49	65.54
557.65	58.51
557.82	74.90
557.98	0.00
558.15	98.30
558.32	18.72
558.48	98.30
558.65	88.94
558.81	23.41
558.98	65.54
559.14	133.41
559.31	70.22
559.47	56.17
559.64	81.92
559.80	131.07
559.97	91.28
560.13	86.60
560.30	98.30
560.46	100.64
560.63	7.02
560.79	32.77
560.96	114.69
561.12	133.41
561.29	42.13
561.45	70.22
561.61	121.71
561.78	58.51
561.94	30.43
562.11	39.79
562.27	79.58
562.44	84.26
562.60	95.96
562.77	42.13
562.93	70.22
563.10	56.17
563.26	107.66
563.42	95.96
563.59	107.66
563.75	72.56
563.92	46.81
564.08	100.64
564.24	95.96
564.41	72.56
564.57	114.69
564.74	21.06
564.90	53.83
565.07	110.01
565.23	74.90
565.39	126.39
565.56	49.15
565.72	110.01
565.88	100.64
566.05	72.56
566.21	98.30
566.38	128.73
566.54	42.13
566.70	102.98
566.87	152.13
567.03	161.50
567.19	95.96
567.36	112.35
567.52	152.13
567.68	95.96
567.85	37.45
568.01	65.54
568.17	35.11
568.34	107.66
568.50	112.35
568.66	88.94
568.83	126.39
568.99	30.43
569.15	117.03
569.32	112.35
569.48	126.39
569.64	105.32
569.81	35.11
569.97	58.51
570.13	28.09
570.30	86.60
570.46	102.98
570.62	63.19
570.78	58.51
570.95	121.71
571.11	42.13
571.27	35.11
571.43	18.72
571.60	21.06
571.76	77.24
571.92	133.41
572.09	126.39
572.25	81.92
572.41	79.58
572.57	81.92
572.74	128.73
572.90	51.49
573.06	28.09
573.22	32.77
573.38	28.09
573.55	147.45
573.71	9.36
573.87	86.60
574.03	46.81
574.20	98.30
574.36	67.88
574.52	79.58
574.68	135.75
574.84	53.83
575.01	4.68
575.17	14.04
575.33	0.00
575.49	56.17
575.65	100.64
575.82	23.41
575.98	93.62
576.14	16.38
576.30	84.26
576.46	72.56
576.62	74.90
576.79	88.94
576.95	126.39
577.11	98.30
577.27	60.85
577.43	37.45
577.59	133.41
577.75	60.85
577.92	91.28
578.08	135.75
578.24	79.58
578.40	117.03
578.56	79.58
578.72	44.47
578.88	53.83
579.04	86.60
579.21	0.00
579.37	35.11
579.53	28.09
579.69	133.41
579.85	88.94
580.01	46.81
580.17	182.56
580.33	30.43
580.49	0.00
580.65	60.85
580.82	91.28
580.98	65.54
581.14	65.54
581.30	70.22
581.46	65.54
581.62	58.51
581.78	95.96
581.94	84.26
582.10	79.58
582.26	67.88
582.42	114.69
582.58	84.26
582.74	117.03
582.90	44.47
583.06	86.60
583.22	63.19
583.38	49.15
583.54	114.69
583.70	79.58
583.86	91.28
584.02	98.30
584.18	56.17
584.34	84.26
584.50	107.66
584.66	51.49
584.82	121.71
584.98	98.30
585.14	25.75
585.30	131.07
585.46	2.34
585.62	0.00
585.78	67.88
585.94	74.90
586.10	42.13
586.26	0.00
586.42	70.22
586.58	0.00
586.74	49.15
586.90	77.24
587.06	49.15
587.22	86.60
587.38	93.62
587.54	95.96
587.70	95.96
587.86	65.54
588.02	74.90
588.18	84.26
588.34	112.35
588.49	14.04
588.65	112.35
588.81	79.58
588.97	0.00
589.13	74.90
589.29	112.35
589.45	30.43
589.61	128.73
589.77	93.62
589.93	67.88
590.08	72.56
590.24	93.62
590.40	39.79
590.56	102.98
590.72	152.13
590.88	32.77
591.04	105.32
591.20	93.62
591.35	65.54
591.51	138.09
591.67	70.22
591.83	14.04
591.99	44.47
592.15	74.90
592.31	0.00
592.46	98.30
592.62	74.90
592.78	70.22
592.94	60.85
593.10	84.26
593.26	16.38
593.41	23.41
593.57	133.41
593.73	25.75
593.89	77.24
594.05	74.90
594.20	67.88
594.36	11.70
594.52	46.81
594.68	107.66
594.84	30.43
594.99	105.32
595.15	49.15
595.31	30.43
595.47	60.85
595.62	49.15
595.78	53.83
595.94	60.85
596.10	67.88
596.25	119.37
596.41	46.81
596.57	91.28
596.73	84.26
596.88	81.92
597.04	114.69
597.20	63.19
597.36	77.24
597.51	88.94
597.67	35.11
597.83	124.05
597.99	145.11
598.14	145.11
598.30	49.15
598.46	93.62
598.61	63.19
598.77	86.60
598.93	65.54
599.09	102.98
599.24	46.81
599.40	117.03
599.56	65.54
599.71	112.35
599.87	86.60
600.03	35.11
600.18	44.47
600.34	53.83
600.50	53.83
600.65	63.19
600.81	46.81
600.97	25.75
601.12	133.41
601.28	102.98
601.44	91.28
601.59	98.30
601.75	84.26
601.91	74.90
602.06	86.60
602.22	95.96
602.37	114.69
602.53	63.19
602.69	102.98
602.84	102.98
603.00	39.79
603.16	121.71
603.31	88.94
603.47	79.58
603.62	112.35
603.78	46.81
603.94	86.60
604.09	39.79
604.25	60.85
604.40	4.68
604.56	84.26
604.71	0.00
604.87	86.60
605.03	63.19
605.18	35.11
605.34	65.54
605.49	95.96
605.65	91.28
605.80	67.88
605.96	84.26
606.12	25.75
606.27	60.85
606.43	21.06
606.58	105.32
606.74	60.85
606.89	67.88
607.05	39.79
607.20	74.90
607.36	79.58
607.51	133.41
607.67	42.13
607.82	84.26
607.98	100.64
608.13	21.06
608.29	95.96
608.44	30.43
608.60	63.19
608.75	16.38
608.91	105.32
609.06	7.02
609.22	79.58
609.37	98.30
609.53	28.09
609.68	145.11
609.84	131.07
609.99	84.26
610.15	119.37
610.30	60.85
610.46	121.71
610.61	0.00
610.76	100.64
610.92	77.24
611.07	0.00
611.23	88.94
611.38	4.68
611.54	44.47
611.69	51.49
611.84	0.00
612.00	67.88
612.15	58.51
612.31	110.01
612.46	42.13
612.62	67.88
612.77	49.15
612.92	65.54
613.08	60.85
613.23	77.24
613.39	0.00
613.54	131.07
613.69	46.81
613.85	32.77
614.00	32.77
614.15	18.72
614.31	74.90
614.46	42.13
614.62	53.83
614.77	72.56
614.92	88.94
615.08	72.56
615.23	39.79
615.38	81.92
615.54	163.84
615.69	81.92
615.84	105.32
616.00	81.92
616.15	23.41
616.30	133.41
616.46	46.81
616.61	77.24
616.76	37.45
616.92	79.58
617.07	126.39
617.22	67.88
617.37	133.41
617.53	67.88
617.68	72.56
617.83	107.66
617.99	0.00
618.14	46.81
618.29	117.03
618.45	14.04
618.60	37.45
618.75	67.88
618.90	60.85
619.06	138.09
619.21	72.56
619.36	86.60
619.51	32.77
619.67	56.17
619.82	42.13
619.97	51.49
620.12	56.17
620.28	114.69
620.43	102.98
620.58	0.00
620.73	58.51
620.89	7.02
621.04	63.19
621.19	105.32
621.34	67.88
621.49	44.47
621.65	93.62
621.80	79.58
621.95	30.43
622.10	70.22
622.25	105.32
622.41	72.56
622.56	28.09
622.71	72.56
622.86	91.28
623.01	74.90
623.16	44.47
623.32	91.28
623.47	49.15
623.62	30.43
623.77	72.56
623.92	70.22
624.07	81.92
624.23	14.04
624.38	124.05
624.53	58.51
624.68	98.30
624.83	7.02
624.98	0.00
625.13	0.00
625.29	105.32
625.44	39.79
625.59	74.90
625.74	53.83
625.89	70.22
626.04	60.85
626.19	114.69
626.34	46.81
626.49	28.09
626.65	93.62
626.80	0.00
626.95	81.92
627.10	156.82
627.25	14.04
627.40	30.43
627.55	58.51
627.70	37.45
627.85	100.64
628.00	25.75
628.15	58.51
628.30	44.47
628.45	149.79
628.60	84.26
628.76	102.98
628.91	25.75
629.06	91.28
629.21	23.41
629.36	72.56
629.51	14.04
629.66	121.71
629.81	65.54
629.96	140.43
630.11	133.41
630.26	70.22
630.41	98.30
630.56	58.51
630.71	0.00
630.86	0.00
631.01	23.41
631.16	7.02
631.31	53.83
631.46	35.11
631.61	77.24
631.76	46.81
631.91	84.26
632.06	18.72
632.21	67.88
632.36	105.32
632.51	60.85
632.66	112.35
632.81	60.85
632.96	4.68
633.10	53.83
633.25	112.35
633.40	56.17
633.55	37.45
633.70	152.13
633.85	18.72
634.00	138.09
634.15	39.79
634.30	79.58
634.45	121.71
634.60	63.19
634.75	74.90
634.90	81.92
635.05	63.19
635.19	49.15
635.34	128.73
635.49	149.79
635.64	56.17
635.79	67.88
635.94	32.77
636.09	70.22
636.24	21.06
636.39	102.98
636.53	4.68
636.68	42.13
636.83	42.13
636.98	25.75
637.13	163.84
637.28	70.22
637.43	93.62
637.57	21.06
637.72	23.41
637.87	35.11
638.02	105.32
638.17	72.56
638.32	84.26
638.46	65.54
638.61	124.05
638.76	30.43
638.91	46.81
639.06	14.04
639.20	95.96
639.35	72.56
639.50	81.92
639.65	51.49
639.80	58.51
639.94	65.54
640.09	72.56
640.24	32.77
640.39	42.13
640.54	93.62
640.68	35.11
640.83	135.75
640.98	0.00
641.13	11.70
641.27	79.58
641.42	107.66
641.57	35.11
641.72	91.28
641.86	21.06
642.01	0.00
642.16	0.00
642.31	67.88
642.45	72.56
642.60	56.17
642.75	35.11
642.90	11.70
643.04	81.92
643.19	56.17
643.34	0.00
643.48	16.38
643.63	9.36
643.78	117.03
643.93	60.85
644.07	51.49
644.22	9.36
644.37	9.36
644.51	42.13
644.66	58.51
644.81	70.22
644.95	133.41
645.10	56.17
645.25	119.37
645.39	107.66
645.54	81.92
645.69	0.00
645.83	28.09
645.98	95.96
646.13	72.56
646.27	60.85
646.42	84.26
646.57	93.62
646.71	67.88
646.86	86.60
647.00	70.22
647.15	56.17
647.30	110.01
647.44	72.56
647.59	81.92
647.74	25.75
647.88	49.15
648.03	114.69
648.17	86.60
648.32	124.05
648.47	23.41
648.61	86.60
648.76	63.19
648.90	49.15
649.05	74.90
649.20	51.49
649.34	25.75
649.49	102.98
649.63	23.41
649.78	86.60
649.92	110.01
650.07	49.15
650.21	37.45
650.36	58.51
650.51	145.11
650.65	84.26
650.80	30.43
650.94	119.37
651.09	53.83
651.23	4.68
651.38	67.88
651.52	44.47
651.67	49.15
651.81	37.45
651.96	30.43
652.10	56.17
652.25	44.47
652.39	86.60
652.54	98.30
652.68	95.96
652.83	2.34
652.97	28.09
653.12	91.28
653.26	56.17
653.41	44.47
653.55	77.24
653.70	114.69
653.84	46.81
653.99	21.06
654.13	112.35
654.27	60.85
654.42	53.83
654.56	86.60
654.71	60.85
654.85	84.26
655.00	84.26
655.14	72.56
655.29	56.17
655.43	0.00
655.57	53.83
655.72	30.43
655.86	77.24
656.01	16.38
656.15	39.79
656.30	0.00
656.44	46.81
656.58	21.06
656.73	35.11
656.87	63.19
657.01	30.43
657.16	49.15
657.30	28.09
657.45	88.94
657.59	37.45
657.73	23.41
657.88	72.56
658.02	35.11
658.16	46.81
658.31	56.17
658.45	2.34
658.60	0.00
658.74	63.19
658.88	23.41
659.03	60.85
659.17	30.43
659.31	49.15
659.46	44.47
659.60	51.49
659.74	30.43
659.89	21.06
660.03	28.09
660.17	42.13
660.32	114.69
660.46	77.24
660.60	135.75
660.74	93.62
660.89	0.00
661.03	60.85
661.17	49.15
661.32	9.36
661.46	84.26
661.60	100.64
661.74	9.36
661.89	4.68
662.03	67.88
662.17	117.03
662.31	107.66
662.46	88.94
662.60	107.66
662.74	88.94
662.88	100.64
663.03	79.58
663.17	39.79
663.31	121.71
663.45	60.85
663.60	25.75
663.74	79.58
663.88	65.54
664.02	114.69
664.17	63.19
664.31	4.68
664.45	9.36
664.59	35.11
664.73	56.17
664.88	0.00
665.02	28.09
665.16	98.30
665.30	65.54
665.44	72.56
665.59	0.00
665.73	98.30
665.87	77.24
666.01	110.01
666.15	7.02
666.29	0.00
666.44	91.28
666.58	110.01
666.72	114.69
666.86	102.98
667.00	86.60
667.14	37.45
667.28	60.85
667.43	53.83
667.57	46.81
667.71	37.45
667.85	128.73
667.99	0.00
668.13	28.09
668.27	74.90
668.41	128.73
668.56	42.13
668.70	9.36
668.84	0.00
668.98	42.13
669.12	67.88
669.26	95.96
669.40	133.41
669.54	46.81
669.68	60.85
669.82	18.72
669.96	51.49
670.10	70.22
670.25	56.17
670.39	18.72
670.53	102.98
670.67	67.88
670.81	21.06
670.95	25.75
671.09	16.38
671.23	67.88
671.37	46.81
671.51	42.13
671.65	88.94
671.79	30.43
671.93	23.41
672.07	49.15
672.21	2.34
672.35	65.54
672.49	95.96
672.63	79.58
672.77	58.51
672.91	56.17
673.05	93.62
673.19	14.04
673.33	67.88
673.47	35.11
673.61	9.36
673.75	18.72
673.89	44.47
674.03	58.51
674.17	46.81
674.31	44.47
674.45	51.49
674.59	37.45
674.73	39.79
674.87	95.96
675.01	84.26
675.15	28.09
675.29	49.15
675.43	9.36
675.56	0.00
675.70	0.00
675.84	70.22
675.98	53.83
676.12	0.00
676.26	56.17
676.40	53.83
676.54	110.01
676.68	65.54
676.82	77.24
676.96	18.72
677.10	65.54
677.23	95.96
677.37	0.00
677.51	49.15
677.65	86.60
677.79	11.70
677.93	39.79
678.07	11.70
678.21	93.62
678.34	56.17
678.48	32.77
678.62	0.00
678.76	46.81
678.90	16.38
679.04	30.43
679.18	4.68
679.31	46.81
679.45	14.04
679.59	53.83
679.73	102.98
679.87	105.32
680.00	65.54
680.14	81.92
680.28	0.00
680.42	44.47
680.56	117.03
680.70	35.11
680.83	51.49
680.97	77.24
681.11	42.13
681.25	16.38
681.39	93.62
681.52	77.24
681.66	81.92
681.80	28.09
681.94	81.92
682.07	18.72
682.21	79.58
682.35	35.11
682.49	60.85
682.62	39.79
682.76	126.39
682.90	7.02
683.04	11.70
683.17	63.19
683.31	0.00
683.45	79.58
683.59	121.71
683.72	95.96
683.86	72.56
684.00	88.94
684.13	4.68
684.27	56.17
684.41	74.90
684.55	46.81
684.68	49.15
684.82	51.49
684.96	56.17
685.09	23.41
685.23	91.28
685.37	77.24
685.50	0.00
685.64	72.56
685.78	65.54
685.91	100.64
686.05	65.54
686.19	32.77
686.32	42.13
686.46	23.41
686.60	21.06
686.73	0.00
686.87	91.28
687.01	37.45
687.14	0.00
687.28	0.00
687.42	0.00
687.55	39.79
687.69	88.94
687.82	65.54
687.96	60.85
688.10	0.00
688.23	42.13
688.37	65.54
688.50	53.83
688.64	32.77
688.78	112.35
688.91	0.00
689.05	0.00
689.18	46.81
689.32	21.06
689.46	124.05
689.59	65.54
689.73	110.01
689.86	79.58
690.00	25.75
690.13	25.75
690.27	39.79
690.41	72.56
690.54	105.32
690.68	51.49
690.81	7.02
690.95	63.19
691.08	72.56
691.22	58.51
691.35	32.77
691.49	67.88
691.62	37.45
691.76	72.56
691.89	9.36
692.03	53.83
692.16	44.47
692.30	42.13
692.43	86.60
692.57	0.00
692.70	53.83
692.84	0.00
692.97	0.00
693.11	56.17
693.24	112.35
693.38	124.05
693.51	70.22
693.65	21.06
693.78	98.30
693.92	16.38
694.05	14.04
694.19	0.00
694.32	11.70
694.45	0.00
694.59	65.54
694.72	0.00
694.86	0.00
694.99	0.00
695.13	0.00
695.26	11.70
695.39	91.28
695.53	53.83
695.66	32.77
695.80	98.30
695.93	84.26
696.07	0.00
696.20	79.58
696.33	0.00
696.47	53.83
696.60	0.00
696.73	77.24
696.87	51.49
697.00	72.56
697.14	0.00
697.27	14.04
697.40	0.00
697.54	9.36
697.67	65.54
697.80	86.60
697.94	35.11
698.07	32.77
698.21	100.64
698.34	28.09
698.47	0.00
698.61	14.04
698.74	46.81
698.87	53.83
699.01	9.36
699.14	110.01
699.27	42.13
699.40	39.79
699.54	32.77
699.67	35.11
699.80	65.54
699.94	58.51
700.07	16.38
700.20	39.79
700.34	119.37
700.47	37.45
700.60	0.00
700.73	58.51
700.87	102.98
701.00	35.11
701.13	30.43
701.26	9.36
701.40	28.09
701.53	32.77
701.66	32.77
701.79	37.45
701.93	51.49
702.06	39.79
702.19	49.15
702.32	74.90
702.46	7.02
702.59	95.96
702.72	7.02
702.85	42.13
702.99	18.72
703.12	60.85
703.25	11.70
703.38	0.00
703.51	39.79
703.65	39.79
703.78	51.49
703.91	35.11
704.04	119.37
704.17	56.17
704.31	0.00
704.44	58.51
704.57	0.00
704.70	16.38
704.83	37.45
704.96	30.43
705.10	0.00
705.23	4.68
>>>>>End Processed Spectral Data<<<<<
