SpectraSuite Data File
++++++++++++++++++++++++++++++++++++
Date: Fri Oct 04 12:13:43 GMT-05:00 2013
User: price-jones
Dark Spectrum Present: No
Reference Spectrum Present: No
Number of Sampled Component Spectra: 1
Spectrometers: USB2+H05261
Integration Time (usec): 10000 (USB2+H05261)
Spectra Averaged: 1 (USB2+H05261)
Boxcar Smoothing: 0 (USB2+H05261)
Correct for Electrical Dark: No (USB2+H05261)
Strobe/Lamp Enabled: No (USB2+H05261)
Correct for Detector Non-linearity: No (USB2+H05261)
Correct for Stray Light: No (USB2+H05261)
Number of Pixels in Processed Spectrum: 2048
>>>>>Begin Processed Spectral Data<<<<<
365.73	51.49
365.92	51.49
366.12	51.49
366.32	0.00
366.52	0.00
366.72	0.00
366.91	0.00
367.11	0.00
367.31	0.00
367.51	0.00
367.70	0.00
367.90	0.00
368.10	0.00
368.30	0.00
368.49	0.00
368.69	0.00
368.89	0.00
369.09	0.00
369.28	0.00
369.48	0.00
369.68	0.00
369.87	0.00
370.07	0.00
370.27	0.00
370.47	0.00
370.66	0.00
370.86	0.00
371.06	0.00
371.25	0.00
371.45	0.00
371.65	0.00
371.84	0.00
372.04	7.02
372.24	0.00
372.44	14.04
372.63	14.04
372.83	46.81
373.03	0.00
373.22	0.00
373.42	81.92
373.62	0.00
373.81	74.90
374.01	65.54
374.21	0.00
374.40	9.36
374.60	84.26
374.79	42.13
374.99	67.88
375.19	23.41
375.38	67.88
375.58	51.49
375.78	0.00
375.97	51.49
376.17	56.17
376.37	37.45
376.56	14.04
376.76	14.04
376.95	0.00
377.15	23.41
377.35	0.00
377.54	77.24
377.74	16.38
377.93	51.49
378.13	74.90
378.33	0.00
378.52	0.00
378.72	0.00
378.91	72.56
379.11	117.03
379.31	0.00
379.50	39.79
379.70	67.88
379.89	60.85
380.09	51.49
380.28	0.00
380.48	14.04
380.68	93.62
380.87	16.38
381.07	67.88
381.26	0.00
381.46	95.96
381.65	28.09
381.85	39.79
382.04	0.00
382.24	21.06
382.43	9.36
382.63	0.00
382.83	0.00
383.02	0.00
383.22	35.11
383.41	0.00
383.61	0.00
383.80	63.19
384.00	42.13
384.19	4.68
384.39	4.68
384.58	9.36
384.78	0.00
384.97	0.00
385.17	0.00
385.36	0.00
385.56	14.04
385.75	56.17
385.95	0.00
386.14	35.11
386.34	9.36
386.53	70.22
386.72	11.70
386.92	56.17
387.11	2.34
387.31	0.00
387.50	11.70
387.70	0.00
387.89	0.00
388.09	0.00
388.28	0.00
388.48	0.00
388.67	72.56
388.86	32.77
389.06	0.00
389.25	98.30
389.45	74.90
389.64	79.58
389.84	44.47
390.03	0.00
390.22	0.00
390.42	51.49
390.61	79.58
390.81	44.47
391.00	7.02
391.19	70.22
391.39	9.36
391.58	42.13
391.78	32.77
391.97	56.17
392.16	28.09
392.36	58.51
392.55	37.45
392.75	42.13
392.94	81.92
393.13	35.11
393.33	42.13
393.52	117.03
393.71	0.00
393.91	35.11
394.10	81.92
394.29	0.00
394.49	0.00
394.68	65.54
394.88	37.45
395.07	0.00
395.26	0.00
395.46	42.13
395.65	11.70
395.84	14.04
396.04	0.00
396.23	51.49
396.42	14.04
396.62	39.79
396.81	0.00
397.00	77.24
397.19	0.00
397.39	84.26
397.58	35.11
397.77	7.02
397.97	21.06
398.16	46.81
398.35	60.85
398.55	7.02
398.74	16.38
398.93	58.51
399.12	65.54
399.32	0.00
399.51	0.00
399.70	37.45
399.90	42.13
400.09	0.00
400.28	44.47
400.47	81.92
400.67	21.06
400.86	46.81
401.05	0.00
401.24	2.34
401.44	25.75
401.63	28.09
401.82	9.36
402.01	84.26
402.21	74.90
402.40	79.58
402.59	81.92
402.78	0.00
402.97	51.49
403.17	44.47
403.36	46.81
403.55	42.13
403.74	32.77
403.93	0.00
404.13	60.85
404.32	119.37
404.51	77.24
404.70	95.96
404.89	11.70
405.09	11.70
405.28	32.77
405.47	0.00
405.66	44.47
405.85	9.36
406.05	28.09
406.24	28.09
406.43	42.13
406.62	9.36
406.81	56.17
407.00	0.00
407.20	14.04
407.39	72.56
407.58	100.64
407.77	14.04
407.96	46.81
408.15	46.81
408.34	32.77
408.54	58.51
408.73	84.26
408.92	32.77
409.11	23.41
409.30	25.75
409.49	18.72
409.68	35.11
409.87	65.54
410.07	49.15
410.26	58.51
410.45	0.00
410.64	84.26
410.83	42.13
411.02	2.34
411.21	0.00
411.40	0.00
411.59	0.00
411.78	9.36
411.98	44.47
412.17	58.51
412.36	63.19
412.55	124.05
412.74	46.81
412.93	44.47
413.12	56.17
413.31	100.64
413.50	28.09
413.69	25.75
413.88	46.81
414.07	51.49
414.26	65.54
414.45	74.90
414.64	58.51
414.83	0.00
415.02	35.11
415.22	114.69
415.41	46.81
415.60	4.68
415.79	21.06
415.98	0.00
416.17	60.85
416.36	0.00
416.55	98.30
416.74	70.22
416.93	72.56
417.12	0.00
417.31	67.88
417.50	70.22
417.69	72.56
417.88	32.77
418.07	79.58
418.26	35.11
418.45	16.38
418.64	0.00
418.83	0.00
419.02	42.13
419.21	2.34
419.39	56.17
419.58	77.24
419.77	0.00
419.96	60.85
420.15	63.19
420.34	107.66
420.53	46.81
420.72	79.58
420.91	30.43
421.10	0.00
421.29	9.36
421.48	42.13
421.67	51.49
421.86	0.00
422.05	25.75
422.24	35.11
422.43	9.36
422.61	56.17
422.80	77.24
422.99	25.75
423.18	70.22
423.37	0.00
423.56	63.19
423.75	46.81
423.94	0.00
424.13	0.00
424.32	11.70
424.50	0.00
424.69	0.00
424.88	72.56
425.07	7.02
425.26	44.47
425.45	79.58
425.64	23.41
425.83	65.54
426.01	23.41
426.20	46.81
426.39	18.72
426.58	30.43
426.77	0.00
426.96	35.11
427.15	0.00
427.33	102.98
427.52	63.19
427.71	63.19
427.90	23.41
428.09	11.70
428.28	102.98
428.46	72.56
428.65	23.41
428.84	0.00
429.03	30.43
429.22	21.06
429.40	37.45
429.59	0.00
429.78	84.26
429.97	88.94
430.16	107.66
430.34	79.58
430.53	4.68
430.72	21.06
430.91	63.19
431.10	63.19
431.28	60.85
431.47	65.54
431.66	30.43
431.85	16.38
432.03	42.13
432.22	25.75
432.41	0.00
432.60	79.58
432.79	117.03
432.97	9.36
433.16	42.13
433.35	7.02
433.54	0.00
433.72	42.13
433.91	4.68
434.10	9.36
434.28	30.43
434.47	60.85
434.66	60.85
434.85	86.60
435.03	14.04
435.22	72.56
435.41	2.34
435.59	0.00
435.78	72.56
435.97	70.22
436.16	0.00
436.34	28.09
436.53	93.62
436.72	91.28
436.90	21.06
437.09	25.75
437.28	42.13
437.46	58.51
437.65	93.62
437.84	67.88
438.02	58.51
438.21	42.13
438.40	0.00
438.58	0.00
438.77	2.34
438.96	117.03
439.14	58.51
439.33	93.62
439.52	60.85
439.70	11.70
439.89	37.45
440.08	4.68
440.26	49.15
440.45	105.32
440.63	70.22
440.82	25.75
441.01	79.58
441.19	105.32
441.38	0.00
441.57	70.22
441.75	37.45
441.94	11.70
442.12	42.13
442.31	39.79
442.50	18.72
442.68	53.83
442.87	53.83
443.05	51.49
443.24	49.15
443.43	72.56
443.61	32.77
443.80	39.79
443.98	53.83
444.17	81.92
444.35	23.41
444.54	51.49
444.73	11.70
444.91	95.96
445.10	56.17
445.28	42.13
445.47	11.70
445.65	9.36
445.84	46.81
446.02	53.83
446.21	49.15
446.39	30.43
446.58	51.49
446.77	74.90
446.95	53.83
447.14	51.49
447.32	70.22
447.51	140.43
447.69	84.26
447.88	16.38
448.06	4.68
448.25	53.83
448.43	84.26
448.62	145.11
448.80	44.47
448.99	74.90
449.17	74.90
449.36	60.85
449.54	95.96
449.73	14.04
449.91	121.71
450.10	0.00
450.28	72.56
450.46	37.45
450.65	70.22
450.83	72.56
451.02	53.83
451.20	67.88
451.39	53.83
451.57	145.11
451.76	79.58
451.94	28.09
452.13	0.00
452.31	39.79
452.49	107.66
452.68	79.58
452.86	0.00
453.05	35.11
453.23	49.15
453.42	0.00
453.60	74.90
453.78	56.17
453.97	88.94
454.15	60.85
454.34	32.77
454.52	98.30
454.70	84.26
454.89	58.51
455.07	98.30
455.26	0.00
455.44	67.88
455.62	35.11
455.81	23.41
455.99	112.35
456.17	177.88
456.36	37.45
456.54	77.24
456.73	81.92
456.91	23.41
457.09	0.00
457.28	77.24
457.46	16.38
457.64	0.00
457.83	102.98
458.01	49.15
458.19	63.19
458.38	84.26
458.56	30.43
458.74	25.75
458.93	156.82
459.11	98.30
459.29	98.30
459.48	21.06
459.66	4.68
459.84	114.69
460.03	49.15
460.21	138.09
460.39	95.96
460.57	140.43
460.76	58.51
460.94	4.68
461.12	60.85
461.31	98.30
461.49	53.83
461.67	14.04
461.85	44.47
462.04	100.64
462.22	95.96
462.40	95.96
462.59	0.00
462.77	72.56
462.95	32.77
463.13	0.00
463.32	46.81
463.50	56.17
463.68	77.24
463.86	81.92
464.05	70.22
464.23	93.62
464.41	32.77
464.59	18.72
464.78	65.54
464.96	46.81
465.14	79.58
465.32	67.88
465.50	9.36
465.69	30.43
465.87	77.24
466.05	95.96
466.23	79.58
466.41	30.43
466.60	46.81
466.78	53.83
466.96	86.60
467.14	37.45
467.32	86.60
467.51	58.51
467.69	65.54
467.87	72.56
468.05	44.47
468.23	70.22
468.41	74.90
468.60	95.96
468.78	56.17
468.96	32.77
469.14	63.19
469.32	70.22
469.50	56.17
469.69	56.17
469.87	79.58
470.05	28.09
470.23	63.19
470.41	32.77
470.59	23.41
470.77	0.00
470.95	95.96
471.14	67.88
471.32	60.85
471.50	4.68
471.68	32.77
471.86	32.77
472.04	93.62
472.22	60.85
472.40	16.38
472.58	72.56
472.77	63.19
472.95	110.01
473.13	53.83
473.31	0.00
473.49	86.60
473.67	37.45
473.85	0.00
474.03	23.41
474.21	70.22
474.39	91.28
474.57	77.24
474.75	81.92
474.93	37.45
475.12	42.13
475.30	70.22
475.48	114.69
475.66	32.77
475.84	74.90
476.02	53.83
476.20	49.15
476.38	81.92
476.56	42.13
476.74	88.94
476.92	56.17
477.10	25.75
477.28	46.81
477.46	58.51
477.64	63.19
477.82	119.37
478.00	81.92
478.18	37.45
478.36	39.79
478.54	42.13
478.72	126.39
478.90	72.56
479.08	56.17
479.26	95.96
479.44	44.47
479.62	9.36
479.80	56.17
479.98	98.30
480.16	7.02
480.34	203.63
480.52	77.24
480.70	4.68
480.88	72.56
481.06	37.45
481.24	58.51
481.41	86.60
481.59	60.85
481.77	39.79
481.95	60.85
482.13	63.19
482.31	67.88
482.49	77.24
482.67	0.00
482.85	56.17
483.03	142.77
483.21	11.70
483.39	110.01
483.57	49.15
483.74	175.54
483.92	44.47
484.10	37.45
484.28	86.60
484.46	81.92
484.64	49.15
484.82	25.75
485.00	2.34
485.18	88.94
485.35	131.07
485.53	39.79
485.71	16.38
485.89	46.81
486.07	124.05
486.25	30.43
486.43	35.11
486.61	49.15
486.78	23.41
486.96	74.90
487.14	11.70
487.32	84.26
487.50	37.45
487.68	110.01
487.85	135.75
488.03	110.01
488.21	117.03
488.39	128.73
488.57	63.19
488.75	0.00
488.92	81.92
489.10	121.71
489.28	77.24
489.46	98.30
489.64	35.11
489.81	142.77
489.99	53.83
490.17	74.90
490.35	67.88
490.53	65.54
490.70	88.94
490.88	32.77
491.06	95.96
491.24	58.51
491.41	56.17
491.59	124.05
491.77	37.45
491.95	114.69
492.13	0.00
492.30	51.49
492.48	60.85
492.66	35.11
492.84	35.11
493.01	79.58
493.19	16.38
493.37	121.71
493.54	37.45
493.72	44.47
493.90	121.71
494.08	100.64
494.25	72.56
494.43	95.96
494.61	91.28
494.79	46.81
494.96	39.79
495.14	77.24
495.32	126.39
495.49	39.79
495.67	25.75
495.85	60.85
496.02	81.92
496.20	51.49
496.38	117.03
496.55	23.41
496.73	60.85
496.91	156.82
497.09	25.75
497.26	112.35
497.44	131.07
497.62	126.39
497.79	60.85
497.97	67.88
498.14	67.88
498.32	53.83
498.50	88.94
498.67	72.56
498.85	161.50
499.03	173.20
499.20	102.98
499.38	149.79
499.56	133.41
499.73	102.98
499.91	79.58
500.08	65.54
500.26	65.54
500.44	98.30
500.61	7.02
500.79	35.11
500.97	67.88
501.14	110.01
501.32	39.79
501.49	98.30
501.67	98.30
501.84	117.03
502.02	81.92
502.20	30.43
502.37	110.01
502.55	91.28
502.72	102.98
502.90	147.45
503.07	107.66
503.25	37.45
503.43	53.83
503.60	46.81
503.78	21.06
503.95	49.15
504.13	159.16
504.30	32.77
504.48	95.96
504.65	4.68
504.83	46.81
505.01	23.41
505.18	138.09
505.36	100.64
505.53	126.39
505.71	107.66
505.88	147.45
506.06	65.54
506.23	100.64
506.41	119.37
506.58	128.73
506.76	77.24
506.93	77.24
507.11	70.22
507.28	79.58
507.46	140.43
507.63	72.56
507.81	124.05
507.98	86.60
508.16	93.62
508.33	30.43
508.50	86.60
508.68	145.11
508.85	60.85
509.03	180.22
509.20	110.01
509.38	58.51
509.55	49.15
509.73	107.66
509.90	121.71
510.08	46.81
510.25	86.60
510.42	98.30
510.60	105.32
510.77	95.96
510.95	135.75
511.12	81.92
511.30	117.03
511.47	128.73
511.64	105.32
511.82	88.94
511.99	110.01
512.17	135.75
512.34	100.64
512.51	91.28
512.69	126.39
512.86	121.71
513.04	131.07
513.21	77.24
513.38	81.92
513.56	133.41
513.73	145.11
513.90	91.28
514.08	23.41
514.25	35.11
514.43	30.43
514.60	105.32
514.77	124.05
514.95	88.94
515.12	126.39
515.29	91.28
515.47	224.69
515.64	121.71
515.81	63.19
515.99	91.28
516.16	112.35
516.33	60.85
516.51	147.45
516.68	25.75
516.85	86.60
517.03	138.09
517.20	63.19
517.37	147.45
517.54	119.37
517.72	91.28
517.89	117.03
518.06	72.56
518.24	124.05
518.41	102.98
518.58	0.00
518.75	35.11
518.93	154.48
519.10	95.96
519.27	126.39
519.45	81.92
519.62	88.94
519.79	102.98
519.96	51.49
520.14	114.69
520.31	86.60
520.48	0.00
520.65	42.13
520.83	142.77
521.00	70.22
521.17	131.07
521.34	65.54
521.52	95.96
521.69	131.07
521.86	133.41
522.03	128.73
522.20	49.15
522.38	0.00
522.55	58.51
522.72	49.15
522.89	58.51
523.07	121.71
523.24	81.92
523.41	168.52
523.58	156.82
523.75	42.13
523.92	105.32
524.10	175.54
524.27	49.15
524.44	23.41
524.61	110.01
524.78	142.77
524.96	135.75
525.13	56.17
525.30	152.13
525.47	145.11
525.64	124.05
525.81	117.03
525.98	84.26
526.16	44.47
526.33	95.96
526.50	121.71
526.67	72.56
526.84	60.85
527.01	0.00
527.18	81.92
527.36	100.64
527.53	86.60
527.70	121.71
527.87	124.05
528.04	110.01
528.21	60.85
528.38	133.41
528.55	84.26
528.72	14.04
528.89	107.66
529.07	88.94
529.24	112.35
529.41	140.43
529.58	142.77
529.75	18.72
529.92	91.28
530.09	56.17
530.26	58.51
530.43	100.64
530.60	49.15
530.77	88.94
530.94	133.41
531.11	84.26
531.28	170.86
531.46	128.73
531.63	138.09
531.80	53.83
531.97	58.51
532.14	72.56
532.31	70.22
532.48	81.92
532.65	102.98
532.82	119.37
532.99	51.49
533.16	77.24
533.33	93.62
533.50	79.58
533.67	72.56
533.84	100.64
534.01	98.30
534.18	98.30
534.35	105.32
534.52	60.85
534.69	154.48
534.86	140.43
535.03	60.85
535.20	121.71
535.37	145.11
535.54	110.01
535.71	56.17
535.88	135.75
536.05	126.39
536.22	74.90
536.38	110.01
536.55	63.19
536.72	14.04
536.89	105.32
537.06	114.69
537.23	128.73
537.40	51.49
537.57	42.13
537.74	102.98
537.91	107.66
538.08	79.58
538.25	152.13
538.42	128.73
538.59	140.43
538.75	119.37
538.92	128.73
539.09	81.92
539.26	124.05
539.43	128.73
539.60	98.30
539.77	117.03
539.94	93.62
540.11	105.32
540.28	100.64
540.44	135.75
540.61	93.62
540.78	154.48
540.95	42.13
541.12	205.97
541.29	88.94
541.46	58.51
541.62	161.50
541.79	53.83
541.96	100.64
542.13	65.54
542.30	79.58
542.47	77.24
542.63	121.71
542.80	110.01
542.97	112.35
543.14	88.94
543.31	72.56
543.48	114.69
543.64	166.18
543.81	114.69
543.98	51.49
544.15	131.07
544.32	39.79
544.48	72.56
544.65	105.32
544.82	91.28
544.99	128.73
545.16	67.88
545.32	133.41
545.49	100.64
545.66	124.05
545.83	63.19
546.00	53.83
546.16	81.92
546.33	100.64
546.50	91.28
546.67	91.28
546.83	65.54
547.00	107.66
547.17	67.88
547.34	88.94
547.50	88.94
547.67	46.81
547.84	77.24
548.00	107.66
548.17	91.28
548.34	56.17
548.51	177.88
548.67	128.73
548.84	81.92
549.01	110.01
549.18	152.13
549.34	88.94
549.51	84.26
549.68	95.96
549.84	114.69
550.01	152.13
550.18	58.51
550.34	88.94
550.51	124.05
550.68	131.07
550.84	72.56
551.01	128.73
551.18	140.43
551.34	100.64
551.51	166.18
551.68	35.11
551.84	60.85
552.01	77.24
552.18	88.94
552.34	51.49
552.51	100.64
552.68	117.03
552.84	84.26
553.01	156.82
553.18	91.28
553.34	135.75
553.51	168.52
553.67	93.62
553.84	32.77
554.01	124.05
554.17	152.13
554.34	149.79
554.51	79.58
554.67	126.39
554.84	135.75
555.00	65.54
555.17	91.28
555.33	23.41
555.50	102.98
555.67	121.71
555.83	102.98
556.00	138.09
556.16	79.58
556.33	77.24
556.50	91.28
556.66	79.58
556.83	28.09
556.99	72.56
557.16	114.69
557.32	35.11
557.49	105.32
557.65	32.77
557.82	112.35
557.98	117.03
558.15	100.64
558.32	138.09
558.48	142.77
558.65	102.98
558.81	63.19
558.98	77.24
559.14	86.60
559.31	91.28
559.47	25.75
559.64	65.54
559.80	88.94
559.97	110.01
560.13	95.96
560.30	86.60
560.46	77.24
560.63	102.98
560.79	84.26
560.96	65.54
561.12	37.45
561.29	84.26
561.45	110.01
561.61	74.90
561.78	93.62
561.94	98.30
562.11	77.24
562.27	39.79
562.44	65.54
562.60	98.30
562.77	102.98
562.93	110.01
563.10	93.62
563.26	21.06
563.42	72.56
563.59	133.41
563.75	44.47
563.92	102.98
564.08	88.94
564.24	95.96
564.41	124.05
564.57	86.60
564.74	100.64
564.90	51.49
565.07	46.81
565.23	72.56
565.39	28.09
565.56	110.01
565.72	107.66
565.88	74.90
566.05	105.32
566.21	72.56
566.38	88.94
566.54	91.28
566.70	128.73
566.87	100.64
567.03	77.24
567.19	72.56
567.36	63.19
567.52	91.28
567.68	175.54
567.85	37.45
568.01	16.38
568.17	35.11
568.34	65.54
568.50	53.83
568.66	42.13
568.83	114.69
568.99	133.41
569.15	91.28
569.32	95.96
569.48	77.24
569.64	79.58
569.81	102.98
569.97	70.22
570.13	126.39
570.30	119.37
570.46	46.81
570.62	131.07
570.78	53.83
570.95	110.01
571.11	65.54
571.27	42.13
571.43	110.01
571.60	70.22
571.76	0.00
571.92	117.03
572.09	37.45
572.25	79.58
572.41	149.79
572.57	67.88
572.74	140.43
572.90	65.54
573.06	46.81
573.22	51.49
573.38	91.28
573.55	77.24
573.71	114.69
573.87	105.32
574.03	86.60
574.20	124.05
574.36	95.96
574.52	149.79
574.68	98.30
574.84	72.56
575.01	65.54
575.17	65.54
575.33	114.69
575.49	100.64
575.65	72.56
575.82	53.83
575.98	95.96
576.14	84.26
576.30	149.79
576.46	133.41
576.62	112.35
576.79	70.22
576.95	114.69
577.11	126.39
577.27	95.96
577.43	74.90
577.59	30.43
577.75	7.02
577.92	95.96
578.08	138.09
578.24	98.30
578.40	58.51
578.56	98.30
578.72	35.11
578.88	95.96
579.04	58.51
579.21	93.62
579.37	58.51
579.53	70.22
579.69	28.09
579.85	86.60
580.01	86.60
580.17	81.92
580.33	72.56
580.49	98.30
580.65	102.98
580.82	112.35
580.98	135.75
581.14	0.00
581.30	72.56
581.46	124.05
581.62	128.73
581.78	102.98
581.94	44.47
582.10	18.72
582.26	145.11
582.42	119.37
582.58	119.37
582.74	98.30
582.90	145.11
583.06	60.85
583.22	65.54
583.38	72.56
583.54	159.16
583.70	168.52
583.86	107.66
584.02	0.00
584.18	98.30
584.34	107.66
584.50	110.01
584.66	25.75
584.82	95.96
584.98	79.58
585.14	93.62
585.30	156.82
585.46	133.41
585.62	79.58
585.78	102.98
585.94	140.43
586.10	159.16
586.26	102.98
586.42	58.51
586.58	112.35
586.74	63.19
586.90	79.58
587.06	81.92
587.22	88.94
587.38	67.88
587.54	124.05
587.70	88.94
587.86	86.60
588.02	16.38
588.18	81.92
588.34	51.49
588.49	44.47
588.65	156.82
588.81	98.30
588.97	37.45
589.13	44.47
589.29	63.19
589.45	67.88
589.61	84.26
589.77	98.30
589.93	14.04
590.08	56.17
590.24	79.58
590.40	91.28
590.56	91.28
590.72	65.54
590.88	77.24
591.04	154.48
591.20	9.36
591.35	131.07
591.51	100.64
591.67	18.72
591.83	72.56
591.99	105.32
592.15	126.39
592.31	93.62
592.46	30.43
592.62	159.16
592.78	4.68
592.94	77.24
593.10	23.41
593.26	58.51
593.41	77.24
593.57	56.17
593.73	53.83
593.89	35.11
594.05	105.32
594.20	0.00
594.36	60.85
594.52	7.02
594.68	95.96
594.84	60.85
594.99	138.09
595.15	95.96
595.31	100.64
595.47	128.73
595.62	88.94
595.78	60.85
595.94	37.45
596.10	105.32
596.25	74.90
596.41	142.77
596.57	18.72
596.73	30.43
596.88	51.49
597.04	60.85
597.20	0.00
597.36	70.22
597.51	23.41
597.67	102.98
597.83	56.17
597.99	67.88
598.14	49.15
598.30	98.30
598.46	91.28
598.61	81.92
598.77	74.90
598.93	46.81
599.09	23.41
599.24	88.94
599.40	53.83
599.56	100.64
599.71	100.64
599.87	65.54
600.03	28.09
600.18	0.00
600.34	65.54
600.50	42.13
600.65	117.03
600.81	114.69
600.97	149.79
601.12	4.68
601.28	65.54
601.44	105.32
601.59	145.11
601.75	131.07
601.91	88.94
602.06	35.11
602.22	128.73
602.37	105.32
602.53	65.54
602.69	30.43
602.84	53.83
603.00	84.26
603.16	112.35
603.31	159.16
603.47	107.66
603.62	105.32
603.78	79.58
603.94	77.24
604.09	44.47
604.25	126.39
604.40	114.69
604.56	28.09
604.71	110.01
604.87	86.60
605.03	23.41
605.18	81.92
605.34	56.17
605.49	126.39
605.65	74.90
605.80	93.62
605.96	133.41
606.12	112.35
606.27	100.64
606.43	100.64
606.58	133.41
606.74	7.02
606.89	79.58
607.05	81.92
607.20	74.90
607.36	74.90
607.51	98.30
607.67	114.69
607.82	86.60
607.98	107.66
608.13	135.75
608.29	74.90
608.44	51.49
608.60	63.19
608.75	44.47
608.91	91.28
609.06	107.66
609.22	23.41
609.37	18.72
609.53	28.09
609.68	7.02
609.84	107.66
609.99	81.92
610.15	53.83
610.30	100.64
610.46	91.28
610.61	84.26
610.76	100.64
610.92	105.32
611.07	67.88
611.23	65.54
611.38	46.81
611.54	25.75
611.69	58.51
611.84	30.43
612.00	42.13
612.15	135.75
612.31	100.64
612.46	70.22
612.62	0.00
612.77	105.32
612.92	0.00
613.08	35.11
613.23	79.58
613.39	131.07
613.54	81.92
613.69	81.92
613.85	9.36
614.00	91.28
614.15	74.90
614.31	91.28
614.46	65.54
614.62	70.22
614.77	0.00
614.92	32.77
615.08	28.09
615.23	63.19
615.38	77.24
615.54	77.24
615.69	77.24
615.84	51.49
616.00	44.47
616.15	56.17
616.30	14.04
616.46	88.94
616.61	39.79
616.76	79.58
616.92	86.60
617.07	79.58
617.22	60.85
617.37	23.41
617.53	102.98
617.68	74.90
617.83	2.34
617.99	70.22
618.14	86.60
618.29	86.60
618.45	2.34
618.60	74.90
618.75	0.00
618.90	63.19
619.06	86.60
619.21	79.58
619.36	7.02
619.51	84.26
619.67	53.83
619.82	44.47
619.97	98.30
620.12	23.41
620.28	21.06
620.43	0.00
620.58	58.51
620.73	14.04
620.89	58.51
621.04	14.04
621.19	63.19
621.34	46.81
621.49	7.02
621.65	23.41
621.80	81.92
621.95	49.15
622.10	95.96
622.25	25.75
622.41	25.75
622.56	56.17
622.71	58.51
622.86	107.66
623.01	56.17
623.16	81.92
623.32	74.90
623.47	35.11
623.62	65.54
623.77	60.85
623.92	42.13
624.07	74.90
624.23	49.15
624.38	65.54
624.53	28.09
624.68	138.09
624.83	114.69
624.98	0.00
625.13	46.81
625.29	63.19
625.44	58.51
625.59	9.36
625.74	74.90
625.89	126.39
626.04	53.83
626.19	58.51
626.34	107.66
626.49	63.19
626.65	72.56
626.80	149.79
626.95	79.58
627.10	84.26
627.25	7.02
627.40	91.28
627.55	63.19
627.70	42.13
627.85	56.17
628.00	56.17
628.15	25.75
628.30	4.68
628.45	100.64
628.60	0.00
628.76	30.43
628.91	72.56
629.06	37.45
629.21	51.49
629.36	56.17
629.51	102.98
629.66	105.32
629.81	74.90
629.96	0.00
630.11	7.02
630.26	21.06
630.41	49.15
630.56	56.17
630.71	105.32
630.86	65.54
631.01	51.49
631.16	84.26
631.31	37.45
631.46	110.01
631.61	86.60
631.76	2.34
631.91	79.58
632.06	138.09
632.21	58.51
632.36	42.13
632.51	98.30
632.66	14.04
632.81	37.45
632.96	81.92
633.10	88.94
633.25	58.51
633.40	14.04
633.55	65.54
633.70	14.04
633.85	79.58
634.00	53.83
634.15	91.28
634.30	100.64
634.45	30.43
634.60	30.43
634.75	2.34
634.90	39.79
635.05	112.35
635.19	21.06
635.34	21.06
635.49	35.11
635.64	23.41
635.79	42.13
635.94	88.94
636.09	58.51
636.24	51.49
636.39	25.75
636.53	14.04
636.68	42.13
636.83	72.56
636.98	39.79
637.13	49.15
637.28	37.45
637.43	16.38
637.57	21.06
637.72	0.00
637.87	16.38
638.02	49.15
638.17	49.15
638.32	74.90
638.46	21.06
638.61	11.70
638.76	11.70
638.91	86.60
639.06	0.00
639.20	72.56
639.35	28.09
639.50	81.92
639.65	18.72
639.80	9.36
639.94	93.62
640.09	119.37
640.24	91.28
640.39	44.47
640.54	46.81
640.68	58.51
640.83	124.05
640.98	98.30
641.13	46.81
641.27	25.75
641.42	58.51
641.57	72.56
641.72	63.19
641.86	14.04
642.01	42.13
642.16	56.17
642.31	23.41
642.45	88.94
642.60	117.03
642.75	86.60
642.90	84.26
643.04	60.85
643.19	77.24
643.34	84.26
643.48	84.26
643.63	25.75
643.78	7.02
643.93	72.56
644.07	65.54
644.22	93.62
644.37	93.62
644.51	133.41
644.66	114.69
644.81	133.41
644.95	77.24
645.10	14.04
645.25	0.00
645.39	60.85
645.54	0.00
645.69	23.41
645.83	98.30
645.98	135.75
646.13	32.77
646.27	105.32
646.42	46.81
646.57	44.47
646.71	67.88
646.86	46.81
647.00	67.88
647.15	65.54
647.30	0.00
647.44	35.11
647.59	58.51
647.74	67.88
647.88	72.56
648.03	56.17
648.17	86.60
648.32	23.41
648.47	42.13
648.61	100.64
648.76	0.00
648.90	107.66
649.05	46.81
649.20	79.58
649.34	46.81
649.49	25.75
649.63	44.47
649.78	65.54
649.92	65.54
650.07	0.00
650.21	32.77
650.36	100.64
650.51	63.19
650.65	0.00
650.80	145.11
650.94	39.79
651.09	49.15
651.23	18.72
651.38	32.77
651.52	11.70
651.67	114.69
651.81	77.24
651.96	16.38
652.10	138.09
652.25	37.45
652.39	72.56
652.54	46.81
652.68	100.64
652.83	84.26
652.97	18.72
653.12	21.06
653.26	14.04
653.41	53.83
653.55	53.83
653.70	30.43
653.84	88.94
653.99	91.28
654.13	51.49
654.27	0.00
654.42	14.04
654.56	23.41
654.71	21.06
654.85	7.02
655.00	2.34
655.14	65.54
655.29	53.83
655.43	21.06
655.57	56.17
655.72	86.60
655.86	58.51
656.01	0.00
656.15	28.09
656.30	49.15
656.44	79.58
656.58	114.69
656.73	32.77
656.87	16.38
657.01	9.36
657.16	72.56
657.30	0.00
657.45	79.58
657.59	49.15
657.73	74.90
657.88	56.17
658.02	91.28
658.16	112.35
658.31	58.51
658.45	42.13
658.60	72.56
658.74	110.01
658.88	46.81
659.03	0.00
659.17	25.75
659.31	9.36
659.46	25.75
659.60	56.17
659.74	81.92
659.89	0.00
660.03	72.56
660.17	91.28
660.32	0.00
660.46	77.24
660.60	51.49
660.74	18.72
660.89	4.68
661.03	42.13
661.17	81.92
661.32	42.13
661.46	72.56
661.60	14.04
661.74	0.00
661.89	46.81
662.03	46.81
662.17	51.49
662.31	70.22
662.46	74.90
662.60	7.02
662.74	0.00
662.88	7.02
663.03	121.71
663.17	70.22
663.31	56.17
663.45	32.77
663.60	105.32
663.74	112.35
663.88	0.00
664.02	46.81
664.17	81.92
664.31	67.88
664.45	39.79
664.59	110.01
664.73	44.47
664.88	44.47
665.02	65.54
665.16	39.79
665.30	91.28
665.44	4.68
665.59	9.36
665.73	138.09
665.87	23.41
666.01	9.36
666.15	63.19
666.29	100.64
666.44	18.72
666.58	0.00
666.72	2.34
666.86	53.83
667.00	84.26
667.14	25.75
667.28	23.41
667.43	91.28
667.57	81.92
667.71	49.15
667.85	11.70
667.99	46.81
668.13	72.56
668.27	21.06
668.41	63.19
668.56	74.90
668.70	58.51
668.84	46.81
668.98	58.51
669.12	18.72
669.26	63.19
669.40	79.58
669.54	28.09
669.68	49.15
669.82	56.17
669.96	0.00
670.10	67.88
670.25	46.81
670.39	35.11
670.53	72.56
670.67	35.11
670.81	39.79
670.95	0.00
671.09	63.19
671.23	88.94
671.37	63.19
671.51	18.72
671.65	42.13
671.79	53.83
671.93	35.11
672.07	88.94
672.21	56.17
672.35	16.38
672.49	0.00
672.63	44.47
672.77	74.90
672.91	58.51
673.05	93.62
673.19	138.09
673.33	84.26
673.47	42.13
673.61	25.75
673.75	44.47
673.89	67.88
674.03	81.92
674.17	67.88
674.31	4.68
674.45	81.92
674.59	0.00
674.73	53.83
674.87	84.26
675.01	28.09
675.15	58.51
675.29	44.47
675.43	28.09
675.56	0.00
675.70	74.90
675.84	44.47
675.98	25.75
676.12	159.16
676.26	46.81
676.40	28.09
676.54	70.22
676.68	0.00
676.82	105.32
676.96	77.24
677.10	93.62
677.23	49.15
677.37	44.47
677.51	49.15
677.65	100.64
677.79	35.11
677.93	121.71
678.07	105.32
678.21	0.00
678.34	49.15
678.48	121.71
678.62	44.47
678.76	107.66
678.90	18.72
679.04	46.81
679.18	16.38
679.31	86.60
679.45	98.30
679.59	0.00
679.73	42.13
679.87	60.85
680.00	0.00
680.14	49.15
680.28	91.28
680.42	28.09
680.56	98.30
680.70	11.70
680.83	70.22
680.97	60.85
681.11	0.00
681.25	37.45
681.39	95.96
681.52	23.41
681.66	0.00
681.80	2.34
681.94	67.88
682.07	37.45
682.21	77.24
682.35	30.43
682.49	0.00
682.62	91.28
682.76	91.28
682.90	0.00
683.04	0.00
683.17	9.36
683.31	0.00
683.45	28.09
683.59	4.68
683.72	2.34
683.86	11.70
684.00	88.94
684.13	39.79
684.27	14.04
684.41	39.79
684.55	74.90
684.68	21.06
684.82	4.68
684.96	25.75
685.09	98.30
685.23	14.04
685.37	39.79
685.50	79.58
685.64	0.00
685.78	30.43
685.91	84.26
686.05	74.90
686.19	56.17
686.32	138.09
686.46	51.49
686.60	49.15
686.73	28.09
686.87	44.47
687.01	35.11
687.14	0.00
687.28	49.15
687.42	74.90
687.55	58.51
687.69	11.70
687.82	0.00
687.96	42.13
688.10	0.00
688.23	81.92
688.37	60.85
688.50	35.11
688.64	91.28
688.78	9.36
688.91	72.56
689.05	35.11
689.18	16.38
689.32	44.47
689.46	0.00
689.59	11.70
689.73	0.00
689.86	0.00
690.00	0.00
690.13	58.51
690.27	0.00
690.41	35.11
690.54	11.70
690.68	44.47
690.81	63.19
690.95	58.51
691.08	79.58
691.22	72.56
691.35	18.72
691.49	46.81
691.62	0.00
691.76	63.19
691.89	30.43
692.03	63.19
692.16	16.38
692.30	25.75
692.43	102.98
692.57	16.38
692.70	0.00
692.84	0.00
692.97	46.81
693.11	32.77
693.24	35.11
693.38	95.96
693.51	88.94
693.65	67.88
693.78	74.90
693.92	51.49
694.05	37.45
694.19	70.22
694.32	46.81
694.45	37.45
694.59	25.75
694.72	7.02
694.86	18.72
694.99	30.43
695.13	7.02
695.26	46.81
695.39	72.56
695.53	114.69
695.66	32.77
695.80	91.28
695.93	65.54
696.07	65.54
696.20	0.00
696.33	16.38
696.47	56.17
696.60	53.83
696.73	35.11
696.87	0.00
697.00	37.45
697.14	63.19
697.27	65.54
697.40	11.70
697.54	44.47
697.67	30.43
697.80	65.54
697.94	88.94
698.07	35.11
698.21	2.34
698.34	0.00
698.47	74.90
698.61	14.04
698.74	21.06
698.87	2.34
699.01	0.00
699.14	32.77
699.27	72.56
699.40	65.54
699.54	28.09
699.67	32.77
699.80	0.00
699.94	51.49
700.07	32.77
700.20	0.00
700.34	88.94
700.47	14.04
700.60	32.77
700.73	53.83
700.87	32.77
701.00	14.04
701.13	42.13
701.26	14.04
701.40	23.41
701.53	74.90
701.66	39.79
701.79	11.70
701.93	105.32
702.06	0.00
702.19	107.66
702.32	11.70
702.46	49.15
702.59	14.04
702.72	0.00
702.85	56.17
702.99	102.98
703.12	0.00
703.25	42.13
703.38	67.88
703.51	65.54
703.65	0.00
703.78	25.75
703.91	51.49
704.04	91.28
704.17	18.72
704.31	37.45
704.44	56.17
704.57	58.51
704.70	25.75
704.83	39.79
704.96	9.36
705.10	0.00
705.23	77.24
>>>>>End Processed Spectral Data<<<<<
