SpectraSuite Data File
++++++++++++++++++++++++++++++++++++
Date: Fri Oct 04 12:13:25 GMT-05:00 2013
User: price-jones
Dark Spectrum Present: No
Reference Spectrum Present: No
Number of Sampled Component Spectra: 1
Spectrometers: USB2+H05261
Integration Time (usec): 10000 (USB2+H05261)
Spectra Averaged: 1 (USB2+H05261)
Boxcar Smoothing: 0 (USB2+H05261)
Correct for Electrical Dark: No (USB2+H05261)
Strobe/Lamp Enabled: No (USB2+H05261)
Correct for Detector Non-linearity: No (USB2+H05261)
Correct for Stray Light: No (USB2+H05261)
Number of Pixels in Processed Spectrum: 2048
>>>>>Begin Processed Spectral Data<<<<<
365.73	0.00
365.92	0.00
366.12	0.00
366.32	0.00
366.52	0.00
366.72	0.00
366.91	0.00
367.11	0.00
367.31	0.00
367.51	0.00
367.70	0.00
367.90	0.00
368.10	0.00
368.30	0.00
368.49	0.00
368.69	0.00
368.89	0.00
369.09	0.00
369.28	0.00
369.48	0.00
369.68	0.00
369.87	0.00
370.07	0.00
370.27	11.70
370.47	0.00
370.66	0.00
370.86	0.00
371.06	2.34
371.25	0.00
371.45	0.00
371.65	0.00
371.84	0.00
372.04	32.77
372.24	37.45
372.44	0.00
372.63	0.00
372.83	0.00
373.03	28.09
373.22	44.47
373.42	0.00
373.62	42.13
373.81	14.04
374.01	0.00
374.21	0.00
374.40	14.04
374.60	14.04
374.79	25.75
374.99	44.47
375.19	11.70
375.38	100.64
375.58	67.88
375.78	65.54
375.97	49.15
376.17	32.77
376.37	0.00
376.56	0.00
376.76	18.72
376.95	0.00
377.15	21.06
377.35	37.45
377.54	0.00
377.74	107.66
377.93	46.81
378.13	23.41
378.33	21.06
378.52	0.00
378.72	21.06
378.91	0.00
379.11	0.00
379.31	72.56
379.50	65.54
379.70	0.00
379.89	0.00
380.09	42.13
380.28	25.75
380.48	0.00
380.68	0.00
380.87	18.72
381.07	21.06
381.26	0.00
381.46	84.26
381.65	14.04
381.85	0.00
382.04	0.00
382.24	49.15
382.43	11.70
382.63	9.36
382.83	35.11
383.02	49.15
383.22	0.00
383.41	32.77
383.61	49.15
383.80	70.22
384.00	0.00
384.19	0.00
384.39	14.04
384.58	53.83
384.78	30.43
384.97	18.72
385.17	9.36
385.36	0.00
385.56	28.09
385.75	7.02
385.95	0.00
386.14	0.00
386.34	65.54
386.53	0.00
386.72	0.00
386.92	7.02
387.11	0.00
387.31	0.00
387.50	0.00
387.70	21.06
387.89	0.00
388.09	25.75
388.28	0.00
388.48	7.02
388.67	0.00
388.86	0.00
389.06	0.00
389.25	56.17
389.45	84.26
389.64	0.00
389.84	0.00
390.03	0.00
390.22	81.92
390.42	0.00
390.61	28.09
390.81	0.00
391.00	0.00
391.19	58.51
391.39	4.68
391.58	11.70
391.78	2.34
391.97	74.90
392.16	16.38
392.36	0.00
392.55	23.41
392.75	42.13
392.94	56.17
393.13	42.13
393.33	0.00
393.52	28.09
393.71	0.00
393.91	14.04
394.10	81.92
394.29	0.00
394.49	51.49
394.68	53.83
394.88	65.54
395.07	4.68
395.26	70.22
395.46	67.88
395.65	23.41
395.84	53.83
396.04	42.13
396.23	4.68
396.42	0.00
396.62	0.00
396.81	21.06
397.00	7.02
397.19	11.70
397.39	0.00
397.58	0.00
397.77	30.43
397.97	53.83
398.16	0.00
398.35	9.36
398.55	16.38
398.74	28.09
398.93	117.03
399.12	32.77
399.32	0.00
399.51	11.70
399.70	21.06
399.90	51.49
400.09	60.85
400.28	0.00
400.47	7.02
400.67	60.85
400.86	65.54
401.05	0.00
401.24	0.00
401.44	65.54
401.63	4.68
401.82	11.70
402.01	0.00
402.21	14.04
402.40	0.00
402.59	42.13
402.78	4.68
402.97	0.00
403.17	0.00
403.36	58.51
403.55	9.36
403.74	67.88
403.93	0.00
404.13	74.90
404.32	51.49
404.51	16.38
404.70	4.68
404.89	0.00
405.09	0.00
405.28	35.11
405.47	65.54
405.66	46.81
405.85	37.45
406.05	0.00
406.24	77.24
406.43	7.02
406.62	63.19
406.81	58.51
407.00	0.00
407.20	16.38
407.39	37.45
407.58	72.56
407.77	107.66
407.96	30.43
408.15	14.04
408.34	25.75
408.54	84.26
408.73	28.09
408.92	35.11
409.11	35.11
409.30	23.41
409.49	51.49
409.68	67.88
409.87	0.00
410.07	0.00
410.26	0.00
410.45	58.51
410.64	0.00
410.83	11.70
411.02	77.24
411.21	32.77
411.40	23.41
411.59	18.72
411.78	79.58
411.98	51.49
412.17	84.26
412.36	21.06
412.55	14.04
412.74	0.00
412.93	65.54
413.12	74.90
413.31	4.68
413.50	72.56
413.69	0.00
413.88	0.00
414.07	0.00
414.26	84.26
414.45	70.22
414.64	39.79
414.83	35.11
415.02	51.49
415.22	30.43
415.41	16.38
415.60	0.00
415.79	46.81
415.98	77.24
416.17	51.49
416.36	16.38
416.55	0.00
416.74	23.41
416.93	110.01
417.12	0.00
417.31	0.00
417.50	51.49
417.69	51.49
417.88	28.09
418.07	16.38
418.26	72.56
418.45	42.13
418.64	23.41
418.83	28.09
419.02	32.77
419.21	46.81
419.39	11.70
419.58	0.00
419.77	0.00
419.96	0.00
420.15	56.17
420.34	0.00
420.53	14.04
420.72	72.56
420.91	23.41
421.10	23.41
421.29	35.11
421.48	0.00
421.67	28.09
421.86	0.00
422.05	53.83
422.24	32.77
422.43	0.00
422.61	88.94
422.80	0.00
422.99	53.83
423.18	2.34
423.37	51.49
423.56	37.45
423.75	117.03
423.94	39.79
424.13	88.94
424.32	0.00
424.50	32.77
424.69	86.60
424.88	32.77
425.07	49.15
425.26	51.49
425.45	0.00
425.64	23.41
425.83	7.02
426.01	14.04
426.20	16.38
426.39	11.70
426.58	23.41
426.77	46.81
426.96	9.36
427.15	37.45
427.33	42.13
427.52	32.77
427.71	0.00
427.90	11.70
428.09	67.88
428.28	16.38
428.46	63.19
428.65	28.09
428.84	9.36
429.03	37.45
429.22	49.15
429.40	18.72
429.59	44.47
429.78	81.92
429.97	35.11
430.16	35.11
430.34	0.00
430.53	30.43
430.72	0.00
430.91	42.13
431.10	42.13
431.28	25.75
431.47	39.79
431.66	4.68
431.85	53.83
432.03	25.75
432.22	51.49
432.41	21.06
432.60	28.09
432.79	28.09
432.97	16.38
433.16	25.75
433.35	16.38
433.54	0.00
433.72	0.00
433.91	9.36
434.10	21.06
434.28	18.72
434.47	9.36
434.66	0.00
434.85	11.70
435.03	35.11
435.22	7.02
435.41	46.81
435.59	0.00
435.78	39.79
435.97	67.88
436.16	16.38
436.34	16.38
436.53	39.79
436.72	30.43
436.90	0.00
437.09	23.41
437.28	16.38
437.46	25.75
437.65	0.00
437.84	0.00
438.02	30.43
438.21	21.06
438.40	70.22
438.58	7.02
438.77	7.02
438.96	35.11
439.14	21.06
439.33	65.54
439.52	44.47
439.70	70.22
439.89	32.77
440.08	74.90
440.26	16.38
440.45	0.00
440.63	0.00
440.82	28.09
441.01	79.58
441.19	28.09
441.38	21.06
441.57	0.00
441.75	16.38
441.94	53.83
442.12	42.13
442.31	18.72
442.50	63.19
442.68	51.49
442.87	46.81
443.05	110.01
443.24	46.81
443.43	56.17
443.61	95.96
443.80	121.71
443.98	25.75
444.17	9.36
444.35	28.09
444.54	86.60
444.73	46.81
444.91	49.15
445.10	56.17
445.28	21.06
445.47	0.00
445.65	49.15
445.84	14.04
446.02	79.58
446.21	28.09
446.39	37.45
446.58	39.79
446.77	21.06
446.95	0.00
447.14	18.72
447.32	0.00
447.51	0.00
447.69	0.00
447.88	0.00
448.06	14.04
448.25	0.00
448.43	46.81
448.62	0.00
448.80	9.36
448.99	0.00
449.17	0.00
449.36	84.26
449.54	23.41
449.73	98.30
449.91	74.90
450.10	79.58
450.28	0.00
450.46	18.72
450.65	0.00
450.83	0.00
451.02	131.07
451.20	56.17
451.39	86.60
451.57	0.00
451.76	117.03
451.94	37.45
452.13	28.09
452.31	70.22
452.49	0.00
452.68	23.41
452.86	77.24
453.05	58.51
453.23	37.45
453.42	51.49
453.60	37.45
453.78	110.01
453.97	0.00
454.15	7.02
454.34	63.19
454.52	53.83
454.70	16.38
454.89	42.13
455.07	74.90
455.26	0.00
455.44	93.62
455.62	72.56
455.81	4.68
455.99	28.09
456.17	28.09
456.36	7.02
456.54	30.43
456.73	46.81
456.91	0.00
457.09	39.79
457.28	65.54
457.46	74.90
457.64	49.15
457.83	4.68
458.01	65.54
458.19	0.00
458.38	46.81
458.56	21.06
458.74	32.77
458.93	65.54
459.11	21.06
459.29	51.49
459.48	9.36
459.66	2.34
459.84	65.54
460.03	53.83
460.21	110.01
460.39	86.60
460.57	11.70
460.76	0.00
460.94	88.94
461.12	0.00
461.31	67.88
461.49	21.06
461.67	49.15
461.85	0.00
462.04	58.51
462.22	84.26
462.40	49.15
462.59	39.79
462.77	51.49
462.95	2.34
463.13	28.09
463.32	0.00
463.50	0.00
463.68	7.02
463.86	63.19
464.05	42.13
464.23	0.00
464.41	0.00
464.59	16.38
464.78	81.92
464.96	56.17
465.14	51.49
465.32	0.00
465.50	37.45
465.69	46.81
465.87	0.00
466.05	44.47
466.23	39.79
466.41	0.00
466.60	0.00
466.78	58.51
466.96	65.54
467.14	44.47
467.32	110.01
467.51	44.47
467.69	100.64
467.87	42.13
468.05	0.00
468.23	56.17
468.41	67.88
468.60	60.85
468.78	0.00
468.96	18.72
469.14	86.60
469.32	0.00
469.50	14.04
469.69	16.38
469.87	0.00
470.05	46.81
470.23	46.81
470.41	98.30
470.59	11.70
470.77	0.00
470.95	0.00
471.14	74.90
471.32	77.24
471.50	18.72
471.68	56.17
471.86	11.70
472.04	70.22
472.22	30.43
472.40	16.38
472.58	100.64
472.77	65.54
472.95	56.17
473.13	18.72
473.31	39.79
473.49	0.00
473.67	4.68
473.85	49.15
474.03	88.94
474.21	37.45
474.39	0.00
474.57	0.00
474.75	16.38
474.93	42.13
475.12	58.51
475.30	14.04
475.48	53.83
475.66	121.71
475.84	44.47
476.02	84.26
476.20	9.36
476.38	63.19
476.56	42.13
476.74	42.13
476.92	9.36
477.10	0.00
477.28	4.68
477.46	88.94
477.64	2.34
477.82	4.68
478.00	37.45
478.18	35.11
478.36	23.41
478.54	0.00
478.72	23.41
478.90	9.36
479.08	2.34
479.26	53.83
479.44	81.92
479.62	91.28
479.80	0.00
479.98	30.43
480.16	56.17
480.34	91.28
480.52	44.47
480.70	46.81
480.88	28.09
481.06	74.90
481.24	98.30
481.41	30.43
481.59	21.06
481.77	23.41
481.95	0.00
482.13	56.17
482.31	84.26
482.49	32.77
482.67	56.17
482.85	28.09
483.03	51.49
483.21	42.13
483.39	51.49
483.57	23.41
483.74	53.83
483.92	74.90
484.10	107.66
484.28	67.88
484.46	39.79
484.64	81.92
484.82	32.77
485.00	0.00
485.18	28.09
485.35	37.45
485.53	95.96
485.71	32.77
485.89	2.34
486.07	35.11
486.25	77.24
486.43	60.85
486.61	35.11
486.78	60.85
486.96	58.51
487.14	63.19
487.32	0.00
487.50	0.00
487.68	0.00
487.85	37.45
488.03	39.79
488.21	93.62
488.39	39.79
488.57	0.00
488.75	4.68
488.92	114.69
489.10	23.41
489.28	51.49
489.46	70.22
489.64	0.00
489.81	91.28
489.99	35.11
490.17	93.62
490.35	32.77
490.53	63.19
490.70	49.15
490.88	16.38
491.06	0.00
491.24	16.38
491.41	42.13
491.59	21.06
491.77	21.06
491.95	32.77
492.13	16.38
492.30	42.13
492.48	58.51
492.66	18.72
492.84	42.13
493.01	42.13
493.19	70.22
493.37	0.00
493.54	30.43
493.72	74.90
493.90	28.09
494.08	42.13
494.25	16.38
494.43	35.11
494.61	42.13
494.79	51.49
494.96	4.68
495.14	23.41
495.32	9.36
495.49	0.00
495.67	77.24
495.85	86.60
496.02	0.00
496.20	56.17
496.38	67.88
496.55	4.68
496.73	67.88
496.91	0.00
497.09	46.81
497.26	74.90
497.44	4.68
497.62	0.00
497.79	95.96
497.97	21.06
498.14	0.00
498.32	86.60
498.50	79.58
498.67	39.79
498.85	84.26
499.03	0.00
499.20	93.62
499.38	98.30
499.56	39.79
499.73	0.00
499.91	9.36
500.08	37.45
500.26	35.11
500.44	60.85
500.61	63.19
500.79	67.88
500.97	35.11
501.14	46.81
501.32	11.70
501.49	37.45
501.67	60.85
501.84	42.13
502.02	60.85
502.20	30.43
502.37	51.49
502.55	84.26
502.72	98.30
502.90	53.83
503.07	44.47
503.25	49.15
503.43	37.45
503.60	42.13
503.78	51.49
503.95	117.03
504.13	32.77
504.30	0.00
504.48	46.81
504.65	0.00
504.83	107.66
505.01	79.58
505.18	25.75
505.36	39.79
505.53	14.04
505.71	81.92
505.88	95.96
506.06	91.28
506.23	28.09
506.41	51.49
506.58	2.34
506.76	16.38
506.93	14.04
507.11	14.04
507.28	51.49
507.46	23.41
507.63	58.51
507.81	4.68
507.98	0.00
508.16	28.09
508.33	16.38
508.50	35.11
508.68	4.68
508.85	0.00
509.03	86.60
509.20	72.56
509.38	0.00
509.55	18.72
509.73	0.00
509.90	30.43
510.08	63.19
510.25	51.49
510.42	44.47
510.60	51.49
510.77	0.00
510.95	72.56
511.12	0.00
511.30	77.24
511.47	63.19
511.64	25.75
511.82	65.54
511.99	0.00
512.17	58.51
512.34	93.62
512.51	0.00
512.69	56.17
512.86	28.09
513.04	25.75
513.21	23.41
513.38	7.02
513.56	65.54
513.73	0.00
513.90	0.00
514.08	25.75
514.25	42.13
514.43	74.90
514.60	42.13
514.77	39.79
514.95	37.45
515.12	0.00
515.29	46.81
515.47	49.15
515.64	11.70
515.81	21.06
515.99	72.56
516.16	93.62
516.33	46.81
516.51	67.88
516.68	74.90
516.85	58.51
517.03	0.00
517.20	79.58
517.37	35.11
517.54	53.83
517.72	37.45
517.89	28.09
518.06	91.28
518.24	65.54
518.41	42.13
518.58	30.43
518.75	65.54
518.93	14.04
519.10	4.68
519.27	77.24
519.45	107.66
519.62	84.26
519.79	11.70
519.96	0.00
520.14	39.79
520.31	0.00
520.48	70.22
520.65	0.00
520.83	72.56
521.00	21.06
521.17	11.70
521.34	79.58
521.52	0.00
521.69	35.11
521.86	77.24
522.03	0.00
522.20	0.00
522.38	21.06
522.55	0.00
522.72	46.81
522.89	14.04
523.07	84.26
523.24	0.00
523.41	35.11
523.58	0.00
523.75	39.79
523.92	28.09
524.10	18.72
524.27	107.66
524.44	72.56
524.61	18.72
524.78	53.83
524.96	42.13
525.13	28.09
525.30	42.13
525.47	39.79
525.64	53.83
525.81	65.54
525.98	49.15
526.16	0.00
526.33	0.00
526.50	2.34
526.67	0.00
526.84	7.02
527.01	2.34
527.18	39.79
527.36	63.19
527.53	4.68
527.70	28.09
527.87	72.56
528.04	51.49
528.21	21.06
528.38	81.92
528.55	25.75
528.72	25.75
528.89	42.13
529.07	46.81
529.24	37.45
529.41	0.00
529.58	77.24
529.75	2.34
529.92	107.66
530.09	77.24
530.26	79.58
530.43	32.77
530.60	121.71
530.77	25.75
530.94	74.90
531.11	46.81
531.28	72.56
531.46	63.19
531.63	93.62
531.80	58.51
531.97	77.24
532.14	53.83
532.31	51.49
532.48	0.00
532.65	39.79
532.82	60.85
532.99	32.77
533.16	72.56
533.33	25.75
533.50	49.15
533.67	25.75
533.84	0.00
534.01	25.75
534.18	30.43
534.35	0.00
534.52	0.00
534.69	9.36
534.86	53.83
535.03	0.00
535.20	88.94
535.37	21.06
535.54	70.22
535.71	100.64
535.88	21.06
536.05	56.17
536.22	46.81
536.38	35.11
536.55	84.26
536.72	44.47
536.89	46.81
537.06	39.79
537.23	128.73
537.40	39.79
537.57	81.92
537.74	9.36
537.91	70.22
538.08	49.15
538.25	67.88
538.42	21.06
538.59	44.47
538.75	35.11
538.92	46.81
539.09	65.54
539.26	53.83
539.43	105.32
539.60	23.41
539.77	28.09
539.94	14.04
540.11	74.90
540.28	32.77
540.44	25.75
540.61	56.17
540.78	25.75
540.95	32.77
541.12	86.60
541.29	60.85
541.46	37.45
541.62	0.00
541.79	0.00
541.96	56.17
542.13	35.11
542.30	14.04
542.47	58.51
542.63	32.77
542.80	25.75
542.97	21.06
543.14	51.49
543.31	56.17
543.48	91.28
543.64	88.94
543.81	23.41
543.98	56.17
544.15	79.58
544.32	79.58
544.48	30.43
544.65	37.45
544.82	0.00
544.99	88.94
545.16	42.13
545.32	16.38
545.49	53.83
545.66	16.38
545.83	0.00
546.00	65.54
546.16	2.34
546.33	32.77
546.50	7.02
546.67	35.11
546.83	60.85
547.00	102.98
547.17	7.02
547.34	44.47
547.50	84.26
547.67	35.11
547.84	0.00
548.00	53.83
548.17	16.38
548.34	11.70
548.51	32.77
548.67	42.13
548.84	53.83
549.01	81.92
549.18	9.36
549.34	60.85
549.51	18.72
549.68	0.00
549.84	49.15
550.01	42.13
550.18	49.15
550.34	105.32
550.51	35.11
550.68	2.34
550.84	53.83
551.01	39.79
551.18	39.79
551.34	0.00
551.51	21.06
551.68	30.43
551.84	21.06
552.01	0.00
552.18	51.49
552.34	35.11
552.51	84.26
552.68	72.56
552.84	145.11
553.01	91.28
553.18	30.43
553.34	95.96
553.51	35.11
553.67	56.17
553.84	63.19
554.01	42.13
554.17	39.79
554.34	0.00
554.51	0.00
554.67	58.51
554.84	30.43
555.00	145.11
555.17	0.00
555.33	44.47
555.50	23.41
555.67	7.02
555.83	98.30
556.00	79.58
556.16	93.62
556.33	25.75
556.50	119.37
556.66	93.62
556.83	21.06
556.99	4.68
557.16	72.56
557.32	39.79
557.49	4.68
557.65	11.70
557.82	9.36
557.98	0.00
558.15	0.00
558.32	51.49
558.48	70.22
558.65	16.38
558.81	51.49
558.98	0.00
559.14	16.38
559.31	14.04
559.47	51.49
559.64	39.79
559.80	0.00
559.97	30.43
560.13	88.94
560.30	42.13
560.46	77.24
560.63	18.72
560.79	86.60
560.96	51.49
561.12	28.09
561.29	72.56
561.45	4.68
561.61	53.83
561.78	95.96
561.94	72.56
562.11	30.43
562.27	67.88
562.44	18.72
562.60	39.79
562.77	60.85
562.93	7.02
563.10	53.83
563.26	46.81
563.42	100.64
563.59	42.13
563.75	53.83
563.92	4.68
564.08	32.77
564.24	74.90
564.41	46.81
564.57	11.70
564.74	44.47
564.90	0.00
565.07	67.88
565.23	0.00
565.39	42.13
565.56	81.92
565.72	42.13
565.88	51.49
566.05	93.62
566.21	0.00
566.38	0.00
566.54	70.22
566.70	58.51
566.87	53.83
567.03	0.00
567.19	0.00
567.36	51.49
567.52	56.17
567.68	86.60
567.85	63.19
568.01	23.41
568.17	35.11
568.34	18.72
568.50	37.45
568.66	98.30
568.83	98.30
568.99	77.24
569.15	30.43
569.32	67.88
569.48	81.92
569.64	51.49
569.81	70.22
569.97	105.32
570.13	23.41
570.30	0.00
570.46	0.00
570.62	107.66
570.78	35.11
570.95	67.88
571.11	4.68
571.27	72.56
571.43	42.13
571.60	46.81
571.76	63.19
571.92	74.90
572.09	42.13
572.25	91.28
572.41	2.34
572.57	18.72
572.74	0.00
572.90	0.00
573.06	9.36
573.22	86.60
573.38	16.38
573.55	100.64
573.71	95.96
573.87	9.36
574.03	7.02
574.20	58.51
574.36	23.41
574.52	0.00
574.68	37.45
574.84	46.81
575.01	49.15
575.17	0.00
575.33	79.58
575.49	46.81
575.65	0.00
575.82	2.34
575.98	35.11
576.14	60.85
576.30	23.41
576.46	21.06
576.62	49.15
576.79	51.49
576.95	0.00
577.11	81.92
577.27	58.51
577.43	74.90
577.59	28.09
577.75	131.07
577.92	7.02
578.08	74.90
578.24	95.96
578.40	63.19
578.56	86.60
578.72	0.00
578.88	9.36
579.04	0.00
579.21	2.34
579.37	35.11
579.53	0.00
579.69	44.47
579.85	2.34
580.01	79.58
580.17	11.70
580.33	23.41
580.49	16.38
580.65	0.00
580.82	49.15
580.98	67.88
581.14	56.17
581.30	25.75
581.46	46.81
581.62	65.54
581.78	9.36
581.94	44.47
582.10	67.88
582.26	0.00
582.42	65.54
582.58	35.11
582.74	49.15
582.90	107.66
583.06	25.75
583.22	58.51
583.38	70.22
583.54	39.79
583.70	16.38
583.86	63.19
584.02	30.43
584.18	44.47
584.34	42.13
584.50	70.22
584.66	58.51
584.82	51.49
584.98	35.11
585.14	42.13
585.30	49.15
585.46	53.83
585.62	28.09
585.78	60.85
585.94	25.75
586.10	18.72
586.26	35.11
586.42	67.88
586.58	91.28
586.74	119.37
586.90	0.00
587.06	65.54
587.22	58.51
587.38	0.00
587.54	0.00
587.70	0.00
587.86	0.00
588.02	44.47
588.18	58.51
588.34	86.60
588.49	0.00
588.65	110.01
588.81	79.58
588.97	21.06
589.13	49.15
589.29	51.49
589.45	28.09
589.61	100.64
589.77	0.00
589.93	39.79
590.08	4.68
590.24	11.70
590.40	18.72
590.56	67.88
590.72	0.00
590.88	44.47
591.04	0.00
591.20	51.49
591.35	4.68
591.51	0.00
591.67	21.06
591.83	9.36
591.99	30.43
592.15	42.13
592.31	46.81
592.46	9.36
592.62	53.83
592.78	14.04
592.94	0.00
593.10	0.00
593.26	35.11
593.41	0.00
593.57	60.85
593.73	65.54
593.89	9.36
594.05	25.75
594.20	0.00
594.36	74.90
594.52	126.39
594.68	63.19
594.84	30.43
594.99	32.77
595.15	23.41
595.31	0.00
595.47	67.88
595.62	11.70
595.78	74.90
595.94	0.00
596.10	0.00
596.25	28.09
596.41	39.79
596.57	44.47
596.73	30.43
596.88	77.24
597.04	11.70
597.20	42.13
597.36	32.77
597.51	70.22
597.67	56.17
597.83	72.56
597.99	70.22
598.14	46.81
598.30	30.43
598.46	18.72
598.61	51.49
598.77	114.69
598.93	14.04
599.09	72.56
599.24	14.04
599.40	93.62
599.56	51.49
599.71	30.43
599.87	65.54
600.03	56.17
600.18	60.85
600.34	11.70
600.50	72.56
600.65	60.85
600.81	2.34
600.97	100.64
601.12	79.58
601.28	46.81
601.44	56.17
601.59	18.72
601.75	53.83
601.91	49.15
602.06	0.00
602.22	30.43
602.37	65.54
602.53	30.43
602.69	98.30
602.84	98.30
603.00	2.34
603.16	0.00
603.31	74.90
603.47	46.81
603.62	63.19
603.78	23.41
603.94	51.49
604.09	16.38
604.25	0.00
604.40	42.13
604.56	100.64
604.71	86.60
604.87	0.00
605.03	72.56
605.18	37.45
605.34	25.75
605.49	0.00
605.65	44.47
605.80	102.98
605.96	25.75
606.12	37.45
606.27	2.34
606.43	105.32
606.58	67.88
606.74	35.11
606.89	0.00
607.05	32.77
607.20	11.70
607.36	0.00
607.51	0.00
607.67	86.60
607.82	30.43
607.98	53.83
608.13	30.43
608.29	0.00
608.44	35.11
608.60	2.34
608.75	88.94
608.91	14.04
609.06	0.00
609.22	53.83
609.37	4.68
609.53	35.11
609.68	88.94
609.84	37.45
609.99	0.00
610.15	0.00
610.30	25.75
610.46	49.15
610.61	42.13
610.76	65.54
610.92	30.43
611.07	28.09
611.23	16.38
611.38	93.62
611.54	98.30
611.69	0.00
611.84	28.09
612.00	46.81
612.15	98.30
612.31	51.49
612.46	0.00
612.62	0.00
612.77	124.05
612.92	98.30
613.08	37.45
613.23	25.75
613.39	56.17
613.54	51.49
613.69	154.48
613.85	21.06
614.00	0.00
614.15	60.85
614.31	51.49
614.46	0.00
614.62	35.11
614.77	30.43
614.92	79.58
615.08	91.28
615.23	91.28
615.38	56.17
615.54	51.49
615.69	88.94
615.84	0.00
616.00	0.00
616.15	58.51
616.30	114.69
616.46	84.26
616.61	28.09
616.76	102.98
616.92	77.24
617.07	72.56
617.22	23.41
617.37	112.35
617.53	0.00
617.68	0.00
617.83	0.00
617.99	0.00
618.14	88.94
618.29	53.83
618.45	46.81
618.60	63.19
618.75	30.43
618.90	49.15
619.06	0.00
619.21	65.54
619.36	51.49
619.51	72.56
619.67	30.43
619.82	30.43
619.97	30.43
620.12	25.75
620.28	0.00
620.43	23.41
620.58	46.81
620.73	44.47
620.89	9.36
621.04	9.36
621.19	67.88
621.34	53.83
621.49	102.98
621.65	42.13
621.80	0.00
621.95	7.02
622.10	0.00
622.25	23.41
622.41	16.38
622.56	58.51
622.71	56.17
622.86	58.51
623.01	0.00
623.16	37.45
623.32	42.13
623.47	0.00
623.62	0.00
623.77	18.72
623.92	58.51
624.07	72.56
624.23	35.11
624.38	42.13
624.53	0.00
624.68	60.85
624.83	42.13
624.98	0.00
625.13	9.36
625.29	65.54
625.44	46.81
625.59	21.06
625.74	21.06
625.89	60.85
626.04	70.22
626.19	32.77
626.34	21.06
626.49	23.41
626.65	30.43
626.80	86.60
626.95	86.60
627.10	35.11
627.25	18.72
627.40	18.72
627.55	58.51
627.70	79.58
627.85	81.92
628.00	0.00
628.15	0.00
628.30	25.75
628.45	51.49
628.60	0.00
628.76	30.43
628.91	56.17
629.06	46.81
629.21	58.51
629.36	42.13
629.51	23.41
629.66	63.19
629.81	23.41
629.96	88.94
630.11	46.81
630.26	0.00
630.41	0.00
630.56	0.00
630.71	81.92
630.86	25.75
631.01	14.04
631.16	93.62
631.31	18.72
631.46	56.17
631.61	56.17
631.76	30.43
631.91	86.60
632.06	23.41
632.21	0.00
632.36	16.38
632.51	44.47
632.66	0.00
632.81	4.68
632.96	35.11
633.10	81.92
633.25	35.11
633.40	18.72
633.55	16.38
633.70	65.54
633.85	44.47
634.00	67.88
634.15	119.37
634.30	39.79
634.45	49.15
634.60	32.77
634.75	46.81
634.90	30.43
635.05	0.00
635.19	93.62
635.34	37.45
635.49	30.43
635.64	21.06
635.79	49.15
635.94	56.17
636.09	16.38
636.24	0.00
636.39	63.19
636.53	67.88
636.68	0.00
636.83	23.41
636.98	18.72
637.13	72.56
637.28	107.66
637.43	0.00
637.57	86.60
637.72	35.11
637.87	23.41
638.02	67.88
638.17	4.68
638.32	112.35
638.46	0.00
638.61	58.51
638.76	74.90
638.91	74.90
639.06	4.68
639.20	7.02
639.35	42.13
639.50	49.15
639.65	60.85
639.80	53.83
639.94	70.22
640.09	65.54
640.24	0.00
640.39	11.70
640.54	0.00
640.68	70.22
640.83	42.13
640.98	84.26
641.13	0.00
641.27	0.00
641.42	67.88
641.57	0.00
641.72	0.00
641.86	44.47
642.01	74.90
642.16	77.24
642.31	0.00
642.45	35.11
642.60	30.43
642.75	39.79
642.90	23.41
643.04	0.00
643.19	56.17
643.34	0.00
643.48	32.77
643.63	0.00
643.78	32.77
643.93	56.17
644.07	102.98
644.22	37.45
644.37	7.02
644.51	25.75
644.66	9.36
644.81	0.00
644.95	0.00
645.10	0.00
645.25	18.72
645.39	0.00
645.54	14.04
645.69	112.35
645.83	32.77
645.98	0.00
646.13	49.15
646.27	30.43
646.42	28.09
646.57	0.00
646.71	70.22
646.86	88.94
647.00	37.45
647.15	65.54
647.30	0.00
647.44	9.36
647.59	74.90
647.74	46.81
647.88	0.00
648.03	21.06
648.17	0.00
648.32	102.98
648.47	37.45
648.61	11.70
648.76	14.04
648.90	65.54
649.05	37.45
649.20	14.04
649.34	70.22
649.49	65.54
649.63	65.54
649.78	32.77
649.92	35.11
650.07	46.81
650.21	18.72
650.36	91.28
650.51	0.00
650.65	18.72
650.80	39.79
650.94	37.45
651.09	0.00
651.23	32.77
651.38	23.41
651.52	67.88
651.67	53.83
651.81	93.62
651.96	37.45
652.10	7.02
652.25	79.58
652.39	77.24
652.54	37.45
652.68	0.00
652.83	28.09
652.97	4.68
653.12	7.02
653.26	98.30
653.41	23.41
653.55	0.00
653.70	95.96
653.84	0.00
653.99	9.36
654.13	7.02
654.27	56.17
654.42	0.00
654.56	84.26
654.71	37.45
654.85	67.88
655.00	0.00
655.14	18.72
655.29	42.13
655.43	0.00
655.57	53.83
655.72	14.04
655.86	46.81
656.01	11.70
656.15	91.28
656.30	81.92
656.44	60.85
656.58	32.77
656.73	60.85
656.87	14.04
657.01	107.66
657.16	63.19
657.30	9.36
657.45	93.62
657.59	49.15
657.73	0.00
657.88	0.00
658.02	49.15
658.16	18.72
658.31	14.04
658.45	0.00
658.60	84.26
658.74	35.11
658.88	9.36
659.03	21.06
659.17	51.49
659.31	72.56
659.46	9.36
659.60	102.98
659.74	53.83
659.89	42.13
660.03	9.36
660.17	11.70
660.32	11.70
660.46	53.83
660.60	42.13
660.74	79.58
660.89	32.77
661.03	0.00
661.17	42.13
661.32	81.92
661.46	119.37
661.60	23.41
661.74	60.85
661.89	0.00
662.03	16.38
662.17	44.47
662.31	53.83
662.46	2.34
662.60	0.00
662.74	7.02
662.88	0.00
663.03	0.00
663.17	0.00
663.31	21.06
663.45	107.66
663.60	37.45
663.74	16.38
663.88	128.73
664.02	16.38
664.17	28.09
664.31	25.75
664.45	0.00
664.59	30.43
664.73	25.75
664.88	39.79
665.02	37.45
665.16	49.15
665.30	37.45
665.44	46.81
665.59	133.41
665.73	42.13
665.87	84.26
666.01	0.00
666.15	58.51
666.29	0.00
666.44	4.68
666.58	63.19
666.72	63.19
666.86	0.00
667.00	14.04
667.14	0.00
667.28	86.60
667.43	16.38
667.57	81.92
667.71	56.17
667.85	0.00
667.99	32.77
668.13	42.13
668.27	0.00
668.41	53.83
668.56	21.06
668.70	25.75
668.84	84.26
668.98	23.41
669.12	32.77
669.26	16.38
669.40	21.06
669.54	46.81
669.68	7.02
669.82	67.88
669.96	7.02
670.10	21.06
670.25	0.00
670.39	74.90
670.53	18.72
670.67	58.51
670.81	2.34
670.95	30.43
671.09	67.88
671.23	0.00
671.37	39.79
671.51	7.02
671.65	67.88
671.79	16.38
671.93	0.00
672.07	46.81
672.21	7.02
672.35	14.04
672.49	117.03
672.63	11.70
672.77	77.24
672.91	0.00
673.05	49.15
673.19	28.09
673.33	67.88
673.47	67.88
673.61	23.41
673.75	44.47
673.89	51.49
674.03	53.83
674.17	16.38
674.31	0.00
674.45	0.00
674.59	32.77
674.73	18.72
674.87	23.41
675.01	88.94
675.15	0.00
675.29	30.43
675.43	79.58
675.56	2.34
675.70	0.00
675.84	32.77
675.98	23.41
676.12	21.06
676.26	7.02
676.40	79.58
676.54	0.00
676.68	63.19
676.82	2.34
676.96	145.11
677.10	16.38
677.23	16.38
677.37	42.13
677.51	98.30
677.65	70.22
677.79	84.26
677.93	0.00
678.07	86.60
678.21	0.00
678.34	53.83
678.48	74.90
678.62	49.15
678.76	0.00
678.90	67.88
679.04	60.85
679.18	49.15
679.31	28.09
679.45	11.70
679.59	9.36
679.73	28.09
679.87	0.00
680.00	74.90
680.14	4.68
680.28	44.47
680.42	37.45
680.56	0.00
680.70	39.79
680.83	53.83
680.97	63.19
681.11	35.11
681.25	0.00
681.39	0.00
681.52	28.09
681.66	28.09
681.80	44.47
681.94	0.00
682.07	0.00
682.21	11.70
682.35	35.11
682.49	81.92
682.62	30.43
682.76	32.77
682.90	0.00
683.04	49.15
683.17	23.41
683.31	56.17
683.45	63.19
683.59	7.02
683.72	35.11
683.86	9.36
684.00	23.41
684.13	37.45
684.27	18.72
684.41	35.11
684.55	72.56
684.68	0.00
684.82	56.17
684.96	44.47
685.09	0.00
685.23	0.00
685.37	30.43
685.50	159.16
685.64	0.00
685.78	4.68
685.91	37.45
686.05	14.04
686.19	58.51
686.32	23.41
686.46	18.72
686.60	0.00
686.73	0.00
686.87	65.54
687.01	39.79
687.14	25.75
687.28	0.00
687.42	70.22
687.55	60.85
687.69	16.38
687.82	0.00
687.96	25.75
688.10	0.00
688.23	28.09
688.37	74.90
688.50	25.75
688.64	51.49
688.78	0.00
688.91	51.49
689.05	0.00
689.18	72.56
689.32	0.00
689.46	25.75
689.59	30.43
689.73	56.17
689.86	0.00
690.00	0.00
690.13	93.62
690.27	49.15
690.41	0.00
690.54	30.43
690.68	95.96
690.81	0.00
690.95	86.60
691.08	18.72
691.22	70.22
691.35	0.00
691.49	7.02
691.62	18.72
691.76	102.98
691.89	44.47
692.03	9.36
692.16	42.13
692.30	30.43
692.43	18.72
692.57	4.68
692.70	39.79
692.84	81.92
692.97	77.24
693.11	79.58
693.24	46.81
693.38	0.00
693.51	0.00
693.65	72.56
693.78	67.88
693.92	53.83
694.05	37.45
694.19	42.13
694.32	51.49
694.45	16.38
694.59	72.56
694.72	16.38
694.86	0.00
694.99	74.90
695.13	46.81
695.26	0.00
695.39	0.00
695.53	67.88
695.66	84.26
695.80	121.71
695.93	7.02
696.07	25.75
696.20	4.68
696.33	21.06
696.47	37.45
696.60	60.85
696.73	51.49
696.87	56.17
697.00	32.77
697.14	9.36
697.27	11.70
697.40	49.15
697.54	0.00
697.67	28.09
697.80	0.00
697.94	88.94
698.07	11.70
698.21	46.81
698.34	0.00
698.47	14.04
698.61	72.56
698.74	35.11
698.87	39.79
699.01	9.36
699.14	63.19
699.27	39.79
699.40	37.45
699.54	49.15
699.67	4.68
699.80	14.04
699.94	32.77
700.07	0.00
700.20	0.00
700.34	11.70
700.47	35.11
700.60	0.00
700.73	14.04
700.87	77.24
701.00	65.54
701.13	72.56
701.26	23.41
701.40	0.00
701.53	42.13
701.66	0.00
701.79	60.85
701.93	14.04
702.06	25.75
702.19	11.70
702.32	25.75
702.46	28.09
702.59	0.00
702.72	0.00
702.85	11.70
702.99	32.77
703.12	30.43
703.25	110.01
703.38	37.45
703.51	32.77
703.65	72.56
703.78	0.00
703.91	35.11
704.04	70.22
704.17	0.00
704.31	2.34
704.44	51.49
704.57	32.77
704.70	11.70
704.83	0.00
704.96	0.00
705.10	42.13
705.23	32.77
>>>>>End Processed Spectral Data<<<<<
