SpectraSuite Data File
++++++++++++++++++++++++++++++++++++
Date: Fri Oct 04 12:13:34 GMT-05:00 2013
User: price-jones
Dark Spectrum Present: No
Reference Spectrum Present: No
Number of Sampled Component Spectra: 1
Spectrometers: USB2+H05261
Integration Time (usec): 10000 (USB2+H05261)
Spectra Averaged: 1 (USB2+H05261)
Boxcar Smoothing: 0 (USB2+H05261)
Correct for Electrical Dark: No (USB2+H05261)
Strobe/Lamp Enabled: No (USB2+H05261)
Correct for Detector Non-linearity: No (USB2+H05261)
Correct for Stray Light: No (USB2+H05261)
Number of Pixels in Processed Spectrum: 2048
>>>>>Begin Processed Spectral Data<<<<<
365.73	21.06
365.92	21.06
366.12	21.06
366.32	0.00
366.52	0.00
366.72	0.00
366.91	0.00
367.11	0.00
367.31	0.00
367.51	0.00
367.70	0.00
367.90	0.00
368.10	0.00
368.30	0.00
368.49	0.00
368.69	0.00
368.89	0.00
369.09	0.00
369.28	0.00
369.48	0.00
369.68	0.00
369.87	0.00
370.07	0.00
370.27	0.00
370.47	0.00
370.66	0.00
370.86	0.00
371.06	0.00
371.25	0.00
371.45	0.00
371.65	0.00
371.84	0.00
372.04	0.00
372.24	0.00
372.44	7.02
372.63	0.00
372.83	0.00
373.03	23.41
373.22	0.00
373.42	0.00
373.62	53.83
373.81	121.71
374.01	81.92
374.21	51.49
374.40	93.62
374.60	44.47
374.79	30.43
374.99	32.77
375.19	32.77
375.38	35.11
375.58	51.49
375.78	23.41
375.97	0.00
376.17	4.68
376.37	84.26
376.56	25.75
376.76	32.77
376.95	28.09
377.15	53.83
377.35	72.56
377.54	0.00
377.74	21.06
377.93	67.88
378.13	37.45
378.33	0.00
378.52	58.51
378.72	42.13
378.91	14.04
379.11	0.00
379.31	18.72
379.50	72.56
379.70	11.70
379.89	9.36
380.09	23.41
380.28	0.00
380.48	93.62
380.68	56.17
380.87	60.85
381.07	49.15
381.26	4.68
381.46	60.85
381.65	67.88
381.85	49.15
382.04	28.09
382.24	46.81
382.43	0.00
382.63	77.24
382.83	60.85
383.02	0.00
383.22	0.00
383.41	0.00
383.61	14.04
383.80	30.43
384.00	0.00
384.19	0.00
384.39	7.02
384.58	0.00
384.78	79.58
384.97	44.47
385.17	0.00
385.36	0.00
385.56	0.00
385.75	0.00
385.95	0.00
386.14	74.90
386.34	16.38
386.53	23.41
386.72	0.00
386.92	0.00
387.11	0.00
387.31	9.36
387.50	0.00
387.70	39.79
387.89	0.00
388.09	49.15
388.28	23.41
388.48	0.00
388.67	0.00
388.86	51.49
389.06	14.04
389.25	14.04
389.45	0.00
389.64	0.00
389.84	23.41
390.03	51.49
390.22	51.49
390.42	51.49
390.61	16.38
390.81	39.79
391.00	37.45
391.19	28.09
391.39	35.11
391.58	42.13
391.78	18.72
391.97	49.15
392.16	30.43
392.36	23.41
392.55	60.85
392.75	25.75
392.94	0.00
393.13	46.81
393.33	39.79
393.52	0.00
393.71	18.72
393.91	30.43
394.10	42.13
394.29	32.77
394.49	51.49
394.68	25.75
394.88	0.00
395.07	18.72
395.26	28.09
395.46	4.68
395.65	4.68
395.84	0.00
396.04	11.70
396.23	4.68
396.42	2.34
396.62	7.02
396.81	0.00
397.00	30.43
397.19	30.43
397.39	0.00
397.58	65.54
397.77	23.41
397.97	0.00
398.16	65.54
398.35	86.60
398.55	0.00
398.74	35.11
398.93	9.36
399.12	16.38
399.32	35.11
399.51	0.00
399.70	0.00
399.90	0.00
400.09	63.19
400.28	81.92
400.47	88.94
400.67	39.79
400.86	0.00
401.05	0.00
401.24	67.88
401.44	28.09
401.63	42.13
401.82	46.81
402.01	86.60
402.21	32.77
402.40	0.00
402.59	0.00
402.78	0.00
402.97	21.06
403.17	53.83
403.36	49.15
403.55	0.00
403.74	35.11
403.93	2.34
404.13	0.00
404.32	14.04
404.51	53.83
404.70	51.49
404.89	65.54
405.09	37.45
405.28	0.00
405.47	14.04
405.66	0.00
405.85	119.37
406.05	84.26
406.24	21.06
406.43	0.00
406.62	0.00
406.81	30.43
407.00	0.00
407.20	0.00
407.39	9.36
407.58	74.90
407.77	0.00
407.96	42.13
408.15	46.81
408.34	60.85
408.54	74.90
408.73	0.00
408.92	0.00
409.11	18.72
409.30	70.22
409.49	0.00
409.68	4.68
409.87	63.19
410.07	11.70
410.26	0.00
410.45	14.04
410.64	67.88
410.83	25.75
411.02	63.19
411.21	53.83
411.40	0.00
411.59	0.00
411.78	37.45
411.98	37.45
412.17	60.85
412.36	0.00
412.55	16.38
412.74	0.00
412.93	0.00
413.12	0.00
413.31	44.47
413.50	0.00
413.69	56.17
413.88	60.85
414.07	37.45
414.26	60.85
414.45	91.28
414.64	21.06
414.83	0.00
415.02	2.34
415.22	2.34
415.41	56.17
415.60	2.34
415.79	25.75
415.98	0.00
416.17	14.04
416.36	0.00
416.55	95.96
416.74	28.09
416.93	70.22
417.12	126.39
417.31	30.43
417.50	0.00
417.69	30.43
417.88	18.72
418.07	7.02
418.26	0.00
418.45	9.36
418.64	46.81
418.83	65.54
419.02	65.54
419.21	0.00
419.39	11.70
419.58	42.13
419.77	4.68
419.96	25.75
420.15	28.09
420.34	110.01
420.53	25.75
420.72	4.68
420.91	30.43
421.10	100.64
421.29	63.19
421.48	16.38
421.67	14.04
421.86	0.00
422.05	9.36
422.24	63.19
422.43	18.72
422.61	0.00
422.80	70.22
422.99	86.60
423.18	72.56
423.37	2.34
423.56	14.04
423.75	42.13
423.94	152.13
424.13	56.17
424.32	25.75
424.50	4.68
424.69	70.22
424.88	0.00
425.07	51.49
425.26	42.13
425.45	46.81
425.64	32.77
425.83	0.00
426.01	46.81
426.20	18.72
426.39	37.45
426.58	0.00
426.77	16.38
426.96	2.34
427.15	39.79
427.33	39.79
427.52	72.56
427.71	28.09
427.90	25.75
428.09	86.60
428.28	0.00
428.46	74.90
428.65	23.41
428.84	28.09
429.03	18.72
429.22	23.41
429.40	0.00
429.59	7.02
429.78	2.34
429.97	46.81
430.16	121.71
430.34	0.00
430.53	30.43
430.72	70.22
430.91	67.88
431.10	67.88
431.28	79.58
431.47	2.34
431.66	28.09
431.85	2.34
432.03	0.00
432.22	35.11
432.41	0.00
432.60	0.00
432.79	18.72
432.97	51.49
433.16	67.88
433.35	46.81
433.54	30.43
433.72	77.24
433.91	84.26
434.10	81.92
434.28	51.49
434.47	32.77
434.66	35.11
434.85	65.54
435.03	49.15
435.22	102.98
435.41	18.72
435.59	74.90
435.78	105.32
435.97	7.02
436.16	37.45
436.34	25.75
436.53	28.09
436.72	72.56
436.90	32.77
437.09	70.22
437.28	51.49
437.46	0.00
437.65	72.56
437.84	58.51
438.02	98.30
438.21	39.79
438.40	88.94
438.58	95.96
438.77	37.45
438.96	14.04
439.14	30.43
439.33	42.13
439.52	11.70
439.70	88.94
439.89	49.15
440.08	46.81
440.26	58.51
440.45	23.41
440.63	46.81
440.82	58.51
441.01	98.30
441.19	86.60
441.38	39.79
441.57	70.22
441.75	37.45
441.94	119.37
442.12	18.72
442.31	11.70
442.50	63.19
442.68	0.00
442.87	18.72
443.05	46.81
443.24	25.75
443.43	49.15
443.61	63.19
443.80	0.00
443.98	18.72
444.17	0.00
444.35	77.24
444.54	100.64
444.73	35.11
444.91	14.04
445.10	28.09
445.28	91.28
445.47	58.51
445.65	65.54
445.84	0.00
446.02	39.79
446.21	0.00
446.39	28.09
446.58	11.70
446.77	37.45
446.95	65.54
447.14	30.43
447.32	74.90
447.51	0.00
447.69	58.51
447.88	0.00
448.06	98.30
448.25	7.02
448.43	60.85
448.62	0.00
448.80	9.36
448.99	67.88
449.17	74.90
449.36	42.13
449.54	23.41
449.73	79.58
449.91	91.28
450.10	121.71
450.28	133.41
450.46	49.15
450.65	16.38
450.83	9.36
451.02	107.66
451.20	23.41
451.39	9.36
451.57	65.54
451.76	9.36
451.94	9.36
452.13	4.68
452.31	72.56
452.49	74.90
452.68	58.51
452.86	74.90
453.05	18.72
453.23	84.26
453.42	39.79
453.60	49.15
453.78	4.68
453.97	14.04
454.15	39.79
454.34	11.70
454.52	56.17
454.70	74.90
454.89	93.62
455.07	35.11
455.26	9.36
455.44	28.09
455.62	0.00
455.81	7.02
455.99	37.45
456.17	9.36
456.36	70.22
456.54	84.26
456.73	60.85
456.91	53.83
457.09	0.00
457.28	77.24
457.46	117.03
457.64	84.26
457.83	86.60
458.01	28.09
458.19	35.11
458.38	11.70
458.56	28.09
458.74	72.56
458.93	98.30
459.11	74.90
459.29	14.04
459.48	18.72
459.66	65.54
459.84	72.56
460.03	16.38
460.21	42.13
460.39	51.49
460.57	56.17
460.76	56.17
460.94	74.90
461.12	30.43
461.31	28.09
461.49	4.68
461.67	23.41
461.85	79.58
462.04	60.85
462.22	102.98
462.40	35.11
462.59	37.45
462.77	21.06
462.95	51.49
463.13	88.94
463.32	49.15
463.50	77.24
463.68	147.45
463.86	126.39
464.05	65.54
464.23	16.38
464.41	32.77
464.59	84.26
464.78	37.45
464.96	49.15
465.14	11.70
465.32	65.54
465.50	7.02
465.69	30.43
465.87	67.88
466.05	79.58
466.23	9.36
466.41	21.06
466.60	0.00
466.78	56.17
466.96	74.90
467.14	23.41
467.32	0.00
467.51	65.54
467.69	35.11
467.87	74.90
468.05	42.13
468.23	37.45
468.41	58.51
468.60	63.19
468.78	28.09
468.96	86.60
469.14	105.32
469.32	98.30
469.50	32.77
469.69	0.00
469.87	42.13
470.05	0.00
470.23	4.68
470.41	65.54
470.59	0.00
470.77	25.75
470.95	4.68
471.14	18.72
471.32	23.41
471.50	23.41
471.68	72.56
471.86	58.51
472.04	21.06
472.22	98.30
472.40	65.54
472.58	65.54
472.77	18.72
472.95	42.13
473.13	117.03
473.31	98.30
473.49	37.45
473.67	56.17
473.85	74.90
474.03	0.00
474.21	30.43
474.39	98.30
474.57	53.83
474.75	28.09
474.93	28.09
475.12	32.77
475.30	102.98
475.48	28.09
475.66	102.98
475.84	65.54
476.02	77.24
476.20	42.13
476.38	56.17
476.56	51.49
476.74	0.00
476.92	126.39
477.10	14.04
477.28	0.00
477.46	2.34
477.64	91.28
477.82	28.09
478.00	51.49
478.18	112.35
478.36	56.17
478.54	91.28
478.72	51.49
478.90	37.45
479.08	51.49
479.26	0.00
479.44	0.00
479.62	72.56
479.80	70.22
479.98	63.19
480.16	46.81
480.34	32.77
480.52	107.66
480.70	88.94
480.88	42.13
481.06	42.13
481.24	46.81
481.41	93.62
481.59	72.56
481.77	86.60
481.95	72.56
482.13	46.81
482.31	77.24
482.49	77.24
482.67	32.77
482.85	77.24
483.03	32.77
483.21	11.70
483.39	39.79
483.57	30.43
483.74	9.36
483.92	84.26
484.10	0.00
484.28	28.09
484.46	0.00
484.64	84.26
484.82	30.43
485.00	121.71
485.18	105.32
485.35	121.71
485.53	81.92
485.71	93.62
485.89	119.37
486.07	74.90
486.25	30.43
486.43	32.77
486.61	79.58
486.78	56.17
486.96	53.83
487.14	60.85
487.32	74.90
487.50	63.19
487.68	4.68
487.85	14.04
488.03	114.69
488.21	11.70
488.39	0.00
488.57	65.54
488.75	114.69
488.92	63.19
489.10	72.56
489.28	30.43
489.46	77.24
489.64	91.28
489.81	105.32
489.99	133.41
490.17	16.38
490.35	67.88
490.53	51.49
490.70	46.81
490.88	70.22
491.06	53.83
491.24	98.30
491.41	49.15
491.59	0.00
491.77	124.05
491.95	46.81
492.13	23.41
492.30	65.54
492.48	37.45
492.66	63.19
492.84	4.68
493.01	74.90
493.19	74.90
493.37	23.41
493.54	149.79
493.72	28.09
493.90	32.77
494.08	32.77
494.25	88.94
494.43	70.22
494.61	0.00
494.79	16.38
494.96	93.62
495.14	65.54
495.32	86.60
495.49	58.51
495.67	0.00
495.85	30.43
496.02	30.43
496.20	124.05
496.38	51.49
496.55	112.35
496.73	44.47
496.91	0.00
497.09	100.64
497.26	2.34
497.44	65.54
497.62	79.58
497.79	30.43
497.97	18.72
498.14	126.39
498.32	63.19
498.50	91.28
498.67	67.88
498.85	126.39
499.03	53.83
499.20	7.02
499.38	25.75
499.56	37.45
499.73	72.56
499.91	56.17
500.08	95.96
500.26	91.28
500.44	74.90
500.61	51.49
500.79	0.00
500.97	119.37
501.14	16.38
501.32	93.62
501.49	107.66
501.67	72.56
501.84	16.38
502.02	56.17
502.20	0.00
502.37	81.92
502.55	25.75
502.72	77.24
502.90	0.00
503.07	88.94
503.25	88.94
503.43	60.85
503.60	60.85
503.78	145.11
503.95	11.70
504.13	53.83
504.30	84.26
504.48	74.90
504.65	93.62
504.83	93.62
505.01	49.15
505.18	65.54
505.36	133.41
505.53	91.28
505.71	72.56
505.88	79.58
506.06	60.85
506.23	0.00
506.41	0.00
506.58	35.11
506.76	60.85
506.93	18.72
507.11	14.04
507.28	105.32
507.46	119.37
507.63	88.94
507.81	23.41
507.98	14.04
508.16	121.71
508.33	88.94
508.50	42.13
508.68	35.11
508.85	86.60
509.03	25.75
509.20	65.54
509.38	58.51
509.55	145.11
509.73	16.38
509.90	74.90
510.08	126.39
510.25	117.03
510.42	58.51
510.60	63.19
510.77	126.39
510.95	88.94
511.12	51.49
511.30	86.60
511.47	91.28
511.64	102.98
511.82	56.17
511.99	58.51
512.17	72.56
512.34	86.60
512.51	95.96
512.69	79.58
512.86	60.85
513.04	53.83
513.21	77.24
513.38	65.54
513.56	30.43
513.73	60.85
513.90	100.64
514.08	51.49
514.25	88.94
514.43	79.58
514.60	102.98
514.77	65.54
514.95	58.51
515.12	74.90
515.29	39.79
515.47	77.24
515.64	105.32
515.81	23.41
515.99	77.24
516.16	58.51
516.33	102.98
516.51	91.28
516.68	30.43
516.85	58.51
517.03	133.41
517.20	86.60
517.37	74.90
517.54	49.15
517.72	46.81
517.89	14.04
518.06	28.09
518.24	88.94
518.41	86.60
518.58	60.85
518.75	58.51
518.93	79.58
519.10	16.38
519.27	93.62
519.45	110.01
519.62	88.94
519.79	117.03
519.96	44.47
520.14	49.15
520.31	39.79
520.48	56.17
520.65	86.60
520.83	135.75
521.00	53.83
521.17	81.92
521.34	30.43
521.52	88.94
521.69	88.94
521.86	0.00
522.03	67.88
522.20	39.79
522.38	21.06
522.55	95.96
522.72	72.56
522.89	110.01
523.07	60.85
523.24	56.17
523.41	138.09
523.58	65.54
523.75	67.88
523.92	102.98
524.10	25.75
524.27	105.32
524.44	98.30
524.61	100.64
524.78	114.69
524.96	77.24
525.13	11.70
525.30	16.38
525.47	95.96
525.64	37.45
525.81	124.05
525.98	84.26
526.16	63.19
526.33	35.11
526.50	46.81
526.67	0.00
526.84	81.92
527.01	39.79
527.18	166.18
527.36	60.85
527.53	32.77
527.70	46.81
527.87	32.77
528.04	46.81
528.21	30.43
528.38	56.17
528.55	77.24
528.72	60.85
528.89	0.00
529.07	81.92
529.24	86.60
529.41	163.84
529.58	11.70
529.75	95.96
529.92	39.79
530.09	0.00
530.26	16.38
530.43	49.15
530.60	28.09
530.77	37.45
530.94	91.28
531.11	58.51
531.28	0.00
531.46	67.88
531.63	44.47
531.80	60.85
531.97	70.22
532.14	0.00
532.31	18.72
532.48	65.54
532.65	0.00
532.82	46.81
532.99	49.15
533.16	88.94
533.33	0.00
533.50	44.47
533.67	39.79
533.84	74.90
534.01	95.96
534.18	0.00
534.35	30.43
534.52	21.06
534.69	100.64
534.86	72.56
535.03	126.39
535.20	114.69
535.37	105.32
535.54	58.51
535.71	93.62
535.88	74.90
536.05	46.81
536.22	42.13
536.38	58.51
536.55	102.98
536.72	72.56
536.89	102.98
537.06	0.00
537.23	37.45
537.40	95.96
537.57	112.35
537.74	60.85
537.91	79.58
538.08	70.22
538.25	72.56
538.42	32.77
538.59	65.54
538.75	51.49
538.92	35.11
539.09	117.03
539.26	39.79
539.43	28.09
539.60	74.90
539.77	72.56
539.94	37.45
540.11	25.75
540.28	100.64
540.44	163.84
540.61	67.88
540.78	25.75
540.95	28.09
541.12	58.51
541.29	119.37
541.46	84.26
541.62	86.60
541.79	30.43
541.96	84.26
542.13	91.28
542.30	124.05
542.47	37.45
542.63	23.41
542.80	67.88
542.97	74.90
543.14	28.09
543.31	23.41
543.48	0.00
543.64	100.64
543.81	77.24
543.98	86.60
544.15	110.01
544.32	37.45
544.48	56.17
544.65	105.32
544.82	77.24
544.99	44.47
545.16	42.13
545.32	60.85
545.49	37.45
545.66	67.88
545.83	98.30
546.00	105.32
546.16	0.00
546.33	98.30
546.50	53.83
546.67	72.56
546.83	35.11
547.00	53.83
547.17	112.35
547.34	102.98
547.50	102.98
547.67	152.13
547.84	28.09
548.00	65.54
548.17	93.62
548.34	60.85
548.51	142.77
548.67	42.13
548.84	131.07
549.01	98.30
549.18	42.13
549.34	70.22
549.51	51.49
549.68	51.49
549.84	77.24
550.01	81.92
550.18	138.09
550.34	9.36
550.51	42.13
550.68	77.24
550.84	25.75
551.01	191.92
551.18	63.19
551.34	93.62
551.51	166.18
551.68	70.22
551.84	107.66
552.01	91.28
552.18	0.00
552.34	56.17
552.51	95.96
552.68	39.79
552.84	63.19
553.01	21.06
553.18	86.60
553.34	9.36
553.51	63.19
553.67	84.26
553.84	49.15
554.01	14.04
554.17	46.81
554.34	133.41
554.51	100.64
554.67	128.73
554.84	74.90
555.00	30.43
555.17	39.79
555.33	142.77
555.50	51.49
555.67	74.90
555.83	49.15
556.00	67.88
556.16	58.51
556.33	84.26
556.50	67.88
556.66	25.75
556.83	74.90
556.99	93.62
557.16	67.88
557.32	74.90
557.49	70.22
557.65	0.00
557.82	88.94
557.98	32.77
558.15	84.26
558.32	77.24
558.48	105.32
558.65	30.43
558.81	100.64
558.98	81.92
559.14	39.79
559.31	105.32
559.47	49.15
559.64	39.79
559.80	60.85
559.97	42.13
560.13	117.03
560.30	110.01
560.46	58.51
560.63	65.54
560.79	142.77
560.96	67.88
561.12	72.56
561.29	23.41
561.45	84.26
561.61	107.66
561.78	56.17
561.94	95.96
562.11	60.85
562.27	42.13
562.44	46.81
562.60	117.03
562.77	53.83
562.93	37.45
563.10	35.11
563.26	60.85
563.42	32.77
563.59	63.19
563.75	79.58
563.92	53.83
564.08	46.81
564.24	60.85
564.41	42.13
564.57	23.41
564.74	39.79
564.90	53.83
565.07	147.45
565.23	60.85
565.39	32.77
565.56	4.68
565.72	72.56
565.88	0.00
566.05	112.35
566.21	7.02
566.38	107.66
566.54	88.94
566.70	49.15
566.87	58.51
567.03	49.15
567.19	74.90
567.36	21.06
567.52	0.00
567.68	131.07
567.85	60.85
568.01	46.81
568.17	79.58
568.34	18.72
568.50	53.83
568.66	44.47
568.83	105.32
568.99	121.71
569.15	32.77
569.32	53.83
569.48	16.38
569.64	58.51
569.81	126.39
569.97	14.04
570.13	67.88
570.30	105.32
570.46	72.56
570.62	98.30
570.78	25.75
570.95	35.11
571.11	30.43
571.27	65.54
571.43	79.58
571.60	110.01
571.76	105.32
571.92	77.24
572.09	0.00
572.25	56.17
572.41	0.00
572.57	0.00
572.74	0.00
572.90	84.26
573.06	58.51
573.22	133.41
573.38	51.49
573.55	51.49
573.71	63.19
573.87	44.47
574.03	35.11
574.20	63.19
574.36	168.52
574.52	0.00
574.68	58.51
574.84	56.17
575.01	67.88
575.17	42.13
575.33	0.00
575.49	18.72
575.65	28.09
575.82	77.24
575.98	95.96
576.14	124.05
576.30	72.56
576.46	100.64
576.62	77.24
576.79	0.00
576.95	84.26
577.11	51.49
577.27	37.45
577.43	0.00
577.59	4.68
577.75	16.38
577.92	53.83
578.08	44.47
578.24	32.77
578.40	93.62
578.56	74.90
578.72	77.24
578.88	21.06
579.04	44.47
579.21	51.49
579.37	18.72
579.53	53.83
579.69	65.54
579.85	23.41
580.01	46.81
580.17	98.30
580.33	18.72
580.49	72.56
580.65	79.58
580.82	44.47
580.98	140.43
581.14	102.98
581.30	72.56
581.46	23.41
581.62	86.60
581.78	102.98
581.94	42.13
582.10	58.51
582.26	98.30
582.42	63.19
582.58	74.90
582.74	79.58
582.90	46.81
583.06	65.54
583.22	0.00
583.38	53.83
583.54	91.28
583.70	23.41
583.86	25.75
584.02	39.79
584.18	65.54
584.34	117.03
584.50	156.82
584.66	44.47
584.82	105.32
584.98	128.73
585.14	67.88
585.30	0.00
585.46	28.09
585.62	58.51
585.78	30.43
585.94	35.11
586.10	124.05
586.26	91.28
586.42	65.54
586.58	16.38
586.74	0.00
586.90	0.00
587.06	23.41
587.22	46.81
587.38	70.22
587.54	23.41
587.70	105.32
587.86	138.09
588.02	67.88
588.18	37.45
588.34	95.96
588.49	14.04
588.65	0.00
588.81	77.24
588.97	11.70
589.13	30.43
589.29	9.36
589.45	23.41
589.61	88.94
589.77	60.85
589.93	70.22
590.08	100.64
590.24	32.77
590.40	25.75
590.56	32.77
590.72	32.77
590.88	0.00
591.04	58.51
591.20	39.79
591.35	39.79
591.51	25.75
591.67	74.90
591.83	81.92
591.99	60.85
592.15	44.47
592.31	63.19
592.46	67.88
592.62	107.66
592.78	67.88
592.94	65.54
593.10	93.62
593.26	63.19
593.41	0.00
593.57	53.83
593.73	65.54
593.89	98.30
594.05	11.70
594.20	63.19
594.36	58.51
594.52	100.64
594.68	23.41
594.84	117.03
594.99	18.72
595.15	88.94
595.31	37.45
595.47	25.75
595.62	28.09
595.78	70.22
595.94	84.26
596.10	0.00
596.25	49.15
596.41	67.88
596.57	100.64
596.73	72.56
596.88	21.06
597.04	39.79
597.20	117.03
597.36	60.85
597.51	98.30
597.67	46.81
597.83	11.70
597.99	44.47
598.14	161.50
598.30	88.94
598.46	0.00
598.61	46.81
598.77	4.68
598.93	49.15
599.09	65.54
599.24	28.09
599.40	32.77
599.56	140.43
599.71	58.51
599.87	46.81
600.03	86.60
600.18	88.94
600.34	11.70
600.50	58.51
600.65	44.47
600.81	53.83
600.97	37.45
601.12	46.81
601.28	51.49
601.44	0.00
601.59	72.56
601.75	124.05
601.91	95.96
602.06	65.54
602.22	65.54
602.37	154.48
602.53	74.90
602.69	18.72
602.84	28.09
603.00	74.90
603.16	18.72
603.31	58.51
603.47	88.94
603.62	0.00
603.78	95.96
603.94	98.30
604.09	81.92
604.25	53.83
604.40	74.90
604.56	63.19
604.71	67.88
604.87	91.28
605.03	56.17
605.18	25.75
605.34	79.58
605.49	84.26
605.65	56.17
605.80	98.30
605.96	140.43
606.12	74.90
606.27	32.77
606.43	51.49
606.58	86.60
606.74	53.83
606.89	70.22
607.05	100.64
607.20	58.51
607.36	28.09
607.51	114.69
607.67	53.83
607.82	58.51
607.98	128.73
608.13	81.92
608.29	138.09
608.44	77.24
608.60	0.00
608.75	81.92
608.91	0.00
609.06	86.60
609.22	42.13
609.37	16.38
609.53	72.56
609.68	30.43
609.84	14.04
609.99	77.24
610.15	67.88
610.30	14.04
610.46	86.60
610.61	58.51
610.76	51.49
610.92	79.58
611.07	161.50
611.23	84.26
611.38	56.17
611.54	70.22
611.69	121.71
611.84	107.66
612.00	98.30
612.15	128.73
612.31	81.92
612.46	46.81
612.62	133.41
612.77	28.09
612.92	93.62
613.08	72.56
613.23	79.58
613.39	117.03
613.54	51.49
613.69	145.11
613.85	35.11
614.00	21.06
614.15	16.38
614.31	2.34
614.46	35.11
614.62	95.96
614.77	95.96
614.92	58.51
615.08	74.90
615.23	14.04
615.38	39.79
615.54	119.37
615.69	81.92
615.84	46.81
616.00	91.28
616.15	9.36
616.30	7.02
616.46	28.09
616.61	63.19
616.76	79.58
616.92	110.01
617.07	23.41
617.22	53.83
617.37	98.30
617.53	74.90
617.68	39.79
617.83	56.17
617.99	110.01
618.14	112.35
618.29	93.62
618.45	60.85
618.60	28.09
618.75	102.98
618.90	81.92
619.06	53.83
619.21	72.56
619.36	126.39
619.51	37.45
619.67	88.94
619.82	81.92
619.97	74.90
620.12	152.13
620.28	100.64
620.43	67.88
620.58	79.58
620.73	32.77
620.89	112.35
621.04	102.98
621.19	60.85
621.34	154.48
621.49	58.51
621.65	84.26
621.80	25.75
621.95	63.19
622.10	128.73
622.25	70.22
622.41	23.41
622.56	0.00
622.71	112.35
622.86	44.47
623.01	74.90
623.16	133.41
623.32	98.30
623.47	32.77
623.62	67.88
623.77	2.34
623.92	117.03
624.07	77.24
624.23	58.51
624.38	72.56
624.53	44.47
624.68	161.50
624.83	65.54
624.98	77.24
625.13	18.72
625.29	39.79
625.44	30.43
625.59	0.00
625.74	86.60
625.89	81.92
626.04	105.32
626.19	107.66
626.34	39.79
626.49	49.15
626.65	23.41
626.80	39.79
626.95	65.54
627.10	98.30
627.25	58.51
627.40	65.54
627.55	42.13
627.70	11.70
627.85	93.62
628.00	70.22
628.15	25.75
628.30	30.43
628.45	35.11
628.60	95.96
628.76	107.66
628.91	30.43
629.06	93.62
629.21	46.81
629.36	107.66
629.51	53.83
629.66	74.90
629.81	49.15
629.96	100.64
630.11	35.11
630.26	60.85
630.41	18.72
630.56	88.94
630.71	44.47
630.86	53.83
631.01	98.30
631.16	145.11
631.31	30.43
631.46	42.13
631.61	70.22
631.76	65.54
631.91	28.09
632.06	42.13
632.21	67.88
632.36	93.62
632.51	147.45
632.66	28.09
632.81	70.22
632.96	107.66
633.10	65.54
633.25	93.62
633.40	39.79
633.55	128.73
633.70	11.70
633.85	35.11
634.00	2.34
634.15	117.03
634.30	51.49
634.45	93.62
634.60	88.94
634.75	25.75
634.90	65.54
635.05	102.98
635.19	67.88
635.34	65.54
635.49	37.45
635.64	37.45
635.79	51.49
635.94	0.00
636.09	100.64
636.24	65.54
636.39	95.96
636.53	81.92
636.68	51.49
636.83	86.60
636.98	112.35
637.13	0.00
637.28	117.03
637.43	49.15
637.57	117.03
637.72	9.36
637.87	46.81
638.02	42.13
638.17	0.00
638.32	74.90
638.46	30.43
638.61	70.22
638.76	74.90
638.91	84.26
639.06	37.45
639.20	42.13
639.35	79.58
639.50	49.15
639.65	39.79
639.80	70.22
639.94	74.90
640.09	30.43
640.24	112.35
640.39	65.54
640.54	49.15
640.68	88.94
640.83	147.45
640.98	11.70
641.13	65.54
641.27	84.26
641.42	35.11
641.57	72.56
641.72	53.83
641.86	102.98
642.01	119.37
642.16	65.54
642.31	72.56
642.45	100.64
642.60	91.28
642.75	65.54
642.90	100.64
643.04	126.39
643.19	86.60
643.34	2.34
643.48	44.47
643.63	124.05
643.78	60.85
643.93	65.54
644.07	37.45
644.22	23.41
644.37	0.00
644.51	0.00
644.66	18.72
644.81	119.37
644.95	65.54
645.10	51.49
645.25	119.37
645.39	84.26
645.54	25.75
645.69	32.77
645.83	53.83
645.98	28.09
646.13	42.13
646.27	110.01
646.42	110.01
646.57	23.41
646.71	74.90
646.86	39.79
647.00	102.98
647.15	39.79
647.30	0.00
647.44	0.00
647.59	44.47
647.74	58.51
647.88	100.64
648.03	49.15
648.17	37.45
648.32	37.45
648.47	21.06
648.61	107.66
648.76	117.03
648.90	51.49
649.05	72.56
649.20	154.48
649.34	67.88
649.49	23.41
649.63	60.85
649.78	39.79
649.92	74.90
650.07	56.17
650.21	56.17
650.36	56.17
650.51	91.28
650.65	98.30
650.80	81.92
650.94	7.02
651.09	21.06
651.23	117.03
651.38	42.13
651.52	0.00
651.67	51.49
651.81	0.00
651.96	131.07
652.10	58.51
652.25	79.58
652.39	79.58
652.54	131.07
652.68	25.75
652.83	0.00
652.97	74.90
653.12	107.66
653.26	86.60
653.41	79.58
653.55	77.24
653.70	0.00
653.84	53.83
653.99	56.17
654.13	102.98
654.27	117.03
654.42	86.60
654.56	7.02
654.71	77.24
654.85	131.07
655.00	159.16
655.14	49.15
655.29	39.79
655.43	79.58
655.57	0.00
655.72	84.26
655.86	39.79
656.01	72.56
656.15	51.49
656.30	30.43
656.44	91.28
656.58	14.04
656.73	114.69
656.87	65.54
657.01	53.83
657.16	32.77
657.30	56.17
657.45	14.04
657.59	7.02
657.73	65.54
657.88	21.06
658.02	105.32
658.16	114.69
658.31	7.02
658.45	51.49
658.60	23.41
658.74	32.77
658.88	56.17
659.03	9.36
659.17	51.49
659.31	86.60
659.46	63.19
659.60	79.58
659.74	14.04
659.89	102.98
660.03	65.54
660.17	114.69
660.32	63.19
660.46	44.47
660.60	18.72
660.74	0.00
660.89	60.85
661.03	0.00
661.17	63.19
661.32	86.60
661.46	2.34
661.60	25.75
661.74	110.01
661.89	63.19
662.03	32.77
662.17	67.88
662.31	23.41
662.46	74.90
662.60	7.02
662.74	32.77
662.88	77.24
663.03	30.43
663.17	79.58
663.31	32.77
663.45	23.41
663.60	0.00
663.74	65.54
663.88	88.94
664.02	16.38
664.17	23.41
664.31	16.38
664.45	114.69
664.59	107.66
664.73	100.64
664.88	77.24
665.02	42.13
665.16	86.60
665.30	67.88
665.44	35.11
665.59	105.32
665.73	58.51
665.87	88.94
666.01	79.58
666.15	2.34
666.29	131.07
666.44	149.79
666.58	86.60
666.72	0.00
666.86	53.83
667.00	0.00
667.14	16.38
667.28	23.41
667.43	32.77
667.57	51.49
667.71	37.45
667.85	49.15
667.99	63.19
668.13	4.68
668.27	0.00
668.41	2.34
668.56	77.24
668.70	51.49
668.84	39.79
668.98	37.45
669.12	65.54
669.26	18.72
669.40	88.94
669.54	105.32
669.68	4.68
669.82	56.17
669.96	77.24
670.10	98.30
670.25	16.38
670.39	72.56
670.53	88.94
670.67	49.15
670.81	51.49
670.95	39.79
671.09	53.83
671.23	105.32
671.37	25.75
671.51	105.32
671.65	25.75
671.79	16.38
671.93	100.64
672.07	32.77
672.21	65.54
672.35	77.24
672.49	112.35
672.63	0.00
672.77	14.04
672.91	102.98
673.05	44.47
673.19	23.41
673.33	18.72
673.47	79.58
673.61	131.07
673.75	51.49
673.89	56.17
674.03	53.83
674.17	32.77
674.31	74.90
674.45	84.26
674.59	23.41
674.73	58.51
674.87	14.04
675.01	23.41
675.15	42.13
675.29	63.19
675.43	91.28
675.56	23.41
675.70	4.68
675.84	72.56
675.98	37.45
676.12	0.00
676.26	18.72
676.40	63.19
676.54	133.41
676.68	30.43
676.82	46.81
676.96	86.60
677.10	21.06
677.23	56.17
677.37	18.72
677.51	14.04
677.65	53.83
677.79	119.37
677.93	32.77
678.07	44.47
678.21	18.72
678.34	4.68
678.48	46.81
678.62	42.13
678.76	0.00
678.90	53.83
679.04	0.00
679.18	18.72
679.31	79.58
679.45	28.09
679.59	39.79
679.73	72.56
679.87	74.90
680.00	14.04
680.14	124.05
680.28	58.51
680.42	98.30
680.56	95.96
680.70	0.00
680.83	79.58
680.97	114.69
681.11	51.49
681.25	30.43
681.39	79.58
681.52	42.13
681.66	7.02
681.80	39.79
681.94	21.06
682.07	65.54
682.21	25.75
682.35	67.88
682.49	0.00
682.62	21.06
682.76	0.00
682.90	0.00
683.04	0.00
683.17	74.90
683.31	21.06
683.45	74.90
683.59	28.09
683.72	37.45
683.86	23.41
684.00	28.09
684.13	9.36
684.27	84.26
684.41	93.62
684.55	4.68
684.68	0.00
684.82	44.47
684.96	79.58
685.09	58.51
685.23	135.75
685.37	107.66
685.50	39.79
685.64	37.45
685.78	60.85
685.91	70.22
686.05	0.00
686.19	35.11
686.32	93.62
686.46	37.45
686.60	0.00
686.73	0.00
686.87	0.00
687.01	53.83
687.14	88.94
687.28	16.38
687.42	35.11
687.55	63.19
687.69	79.58
687.82	70.22
687.96	11.70
688.10	67.88
688.23	147.45
688.37	44.47
688.50	77.24
688.64	44.47
688.78	0.00
688.91	21.06
689.05	4.68
689.18	46.81
689.32	0.00
689.46	7.02
689.59	77.24
689.73	0.00
689.86	9.36
690.00	0.00
690.13	46.81
690.27	28.09
690.41	35.11
690.54	74.90
690.68	42.13
690.81	21.06
690.95	81.92
691.08	42.13
691.22	2.34
691.35	0.00
691.49	79.58
691.62	84.26
691.76	0.00
691.89	44.47
692.03	25.75
692.16	81.92
692.30	39.79
692.43	14.04
692.57	58.51
692.70	63.19
692.84	39.79
692.97	58.51
693.11	23.41
693.24	67.88
693.38	95.96
693.51	46.81
693.65	93.62
693.78	131.07
693.92	72.56
694.05	91.28
694.19	9.36
694.32	60.85
694.45	0.00
694.59	0.00
694.72	37.45
694.86	35.11
694.99	60.85
695.13	65.54
695.26	16.38
695.39	91.28
695.53	72.56
695.66	9.36
695.80	32.77
695.93	30.43
696.07	42.13
696.20	58.51
696.33	0.00
696.47	28.09
696.60	44.47
696.73	112.35
696.87	21.06
697.00	0.00
697.14	70.22
697.27	42.13
697.40	30.43
697.54	44.47
697.67	0.00
697.80	39.79
697.94	93.62
698.07	86.60
698.21	51.49
698.34	0.00
698.47	77.24
698.61	39.79
698.74	51.49
698.87	74.90
699.01	30.43
699.14	72.56
699.27	46.81
699.40	58.51
699.54	9.36
699.67	16.38
699.80	37.45
699.94	93.62
700.07	14.04
700.20	46.81
700.34	93.62
700.47	84.26
700.60	11.70
700.73	2.34
700.87	86.60
701.00	32.77
701.13	70.22
701.26	51.49
701.40	51.49
701.53	25.75
701.66	51.49
701.79	53.83
701.93	77.24
702.06	102.98
702.19	56.17
702.32	28.09
702.46	37.45
702.59	25.75
702.72	7.02
702.85	21.06
702.99	18.72
703.12	53.83
703.25	46.81
703.38	16.38
703.51	0.00
703.65	0.00
703.78	30.43
703.91	49.15
704.04	58.51
704.17	49.15
704.31	74.90
704.44	21.06
704.57	74.90
704.70	0.00
704.83	16.38
704.96	70.22
705.10	79.58
705.23	18.72
>>>>>End Processed Spectral Data<<<<<
