SpectraSuite Data File
++++++++++++++++++++++++++++++++++++
Date: Fri Oct 04 12:13:33 GMT-05:00 2013
User: price-jones
Dark Spectrum Present: No
Reference Spectrum Present: No
Number of Sampled Component Spectra: 1
Spectrometers: USB2+H05261
Integration Time (usec): 10000 (USB2+H05261)
Spectra Averaged: 1 (USB2+H05261)
Boxcar Smoothing: 0 (USB2+H05261)
Correct for Electrical Dark: No (USB2+H05261)
Strobe/Lamp Enabled: No (USB2+H05261)
Correct for Detector Non-linearity: No (USB2+H05261)
Correct for Stray Light: No (USB2+H05261)
Number of Pixels in Processed Spectrum: 2048
>>>>>Begin Processed Spectral Data<<<<<
365.73	23.41
365.92	23.41
366.12	23.41
366.32	0.00
366.52	0.00
366.72	0.00
366.91	0.00
367.11	0.00
367.31	0.00
367.51	0.00
367.70	0.00
367.90	0.00
368.10	0.00
368.30	0.00
368.49	0.00
368.69	0.00
368.89	0.00
369.09	0.00
369.28	0.00
369.48	0.00
369.68	0.00
369.87	0.00
370.07	0.00
370.27	0.00
370.47	0.00
370.66	0.00
370.86	0.00
371.06	0.00
371.25	0.00
371.45	0.00
371.65	25.75
371.84	0.00
372.04	0.00
372.24	0.00
372.44	0.00
372.63	18.72
372.83	60.85
373.03	37.45
373.22	14.04
373.42	2.34
373.62	11.70
373.81	107.66
374.01	63.19
374.21	23.41
374.40	0.00
374.60	60.85
374.79	46.81
374.99	7.02
375.19	49.15
375.38	63.19
375.58	30.43
375.78	65.54
375.97	28.09
376.17	16.38
376.37	0.00
376.56	56.17
376.76	28.09
376.95	0.00
377.15	0.00
377.35	56.17
377.54	126.39
377.74	67.88
377.93	37.45
378.13	23.41
378.33	21.06
378.52	0.00
378.72	14.04
378.91	0.00
379.11	74.90
379.31	0.00
379.50	58.51
379.70	46.81
379.89	25.75
380.09	7.02
380.28	28.09
380.48	4.68
380.68	53.83
380.87	77.24
381.07	2.34
381.26	23.41
381.46	0.00
381.65	0.00
381.85	0.00
382.04	0.00
382.24	67.88
382.43	16.38
382.63	21.06
382.83	35.11
383.02	0.00
383.22	7.02
383.41	44.47
383.61	0.00
383.80	81.92
384.00	18.72
384.19	0.00
384.39	46.81
384.58	16.38
384.78	23.41
384.97	44.47
385.17	44.47
385.36	70.22
385.56	79.58
385.75	0.00
385.95	67.88
386.14	42.13
386.34	32.77
386.53	0.00
386.72	4.68
386.92	0.00
387.11	58.51
387.31	0.00
387.50	0.00
387.70	35.11
387.89	60.85
388.09	30.43
388.28	42.13
388.48	37.45
388.67	0.00
388.86	21.06
389.06	9.36
389.25	0.00
389.45	0.00
389.64	0.00
389.84	4.68
390.03	0.00
390.22	11.70
390.42	4.68
390.61	35.11
390.81	58.51
391.00	0.00
391.19	28.09
391.39	11.70
391.58	4.68
391.78	11.70
391.97	9.36
392.16	0.00
392.36	35.11
392.55	0.00
392.75	86.60
392.94	37.45
393.13	18.72
393.33	0.00
393.52	81.92
393.71	35.11
393.91	30.43
394.10	16.38
394.29	39.79
394.49	60.85
394.68	49.15
394.88	51.49
395.07	0.00
395.26	32.77
395.46	0.00
395.65	16.38
395.84	35.11
396.04	86.60
396.23	63.19
396.42	0.00
396.62	0.00
396.81	23.41
397.00	0.00
397.19	60.85
397.39	35.11
397.58	0.00
397.77	0.00
397.97	2.34
398.16	7.02
398.35	0.00
398.55	28.09
398.74	51.49
398.93	0.00
399.12	25.75
399.32	95.96
399.51	56.17
399.70	51.49
399.90	21.06
400.09	28.09
400.28	51.49
400.47	46.81
400.67	23.41
400.86	53.83
401.05	25.75
401.24	0.00
401.44	63.19
401.63	11.70
401.82	0.00
402.01	9.36
402.21	117.03
402.40	60.85
402.59	53.83
402.78	49.15
402.97	58.51
403.17	0.00
403.36	0.00
403.55	0.00
403.74	11.70
403.93	28.09
404.13	49.15
404.32	51.49
404.51	9.36
404.70	65.54
404.89	11.70
405.09	0.00
405.28	2.34
405.47	42.13
405.66	44.47
405.85	39.79
406.05	0.00
406.24	0.00
406.43	16.38
406.62	63.19
406.81	39.79
407.00	74.90
407.20	9.36
407.39	35.11
407.58	0.00
407.77	51.49
407.96	0.00
408.15	0.00
408.34	32.77
408.54	0.00
408.73	124.05
408.92	32.77
409.11	70.22
409.30	42.13
409.49	21.06
409.68	14.04
409.87	2.34
410.07	18.72
410.26	67.88
410.45	42.13
410.64	25.75
410.83	18.72
411.02	0.00
411.21	32.77
411.40	63.19
411.59	0.00
411.78	102.98
411.98	51.49
412.17	0.00
412.36	81.92
412.55	0.00
412.74	46.81
412.93	77.24
413.12	70.22
413.31	0.00
413.50	42.13
413.69	11.70
413.88	35.11
414.07	51.49
414.26	18.72
414.45	56.17
414.64	21.06
414.83	25.75
415.02	14.04
415.22	21.06
415.41	88.94
415.60	77.24
415.79	28.09
415.98	58.51
416.17	28.09
416.36	9.36
416.55	25.75
416.74	21.06
416.93	37.45
417.12	49.15
417.31	21.06
417.50	0.00
417.69	39.79
417.88	53.83
418.07	11.70
418.26	65.54
418.45	121.71
418.64	16.38
418.83	21.06
419.02	84.26
419.21	67.88
419.39	39.79
419.58	63.19
419.77	42.13
419.96	14.04
420.15	7.02
420.34	0.00
420.53	37.45
420.72	35.11
420.91	88.94
421.10	0.00
421.29	4.68
421.48	23.41
421.67	0.00
421.86	60.85
422.05	2.34
422.24	23.41
422.43	39.79
422.61	51.49
422.80	56.17
422.99	30.43
423.18	21.06
423.37	0.00
423.56	0.00
423.75	0.00
423.94	0.00
424.13	7.02
424.32	28.09
424.50	11.70
424.69	46.81
424.88	14.04
425.07	95.96
425.26	23.41
425.45	70.22
425.64	18.72
425.83	16.38
426.01	60.85
426.20	0.00
426.39	44.47
426.58	0.00
426.77	28.09
426.96	56.17
427.15	0.00
427.33	0.00
427.52	9.36
427.71	14.04
427.90	0.00
428.09	53.83
428.28	18.72
428.46	0.00
428.65	0.00
428.84	46.81
429.03	72.56
429.22	28.09
429.40	44.47
429.59	23.41
429.78	72.56
429.97	0.00
430.16	18.72
430.34	0.00
430.53	14.04
430.72	0.00
430.91	0.00
431.10	16.38
431.28	37.45
431.47	0.00
431.66	67.88
431.85	65.54
432.03	100.64
432.22	0.00
432.41	9.36
432.60	0.00
432.79	63.19
432.97	9.36
433.16	42.13
433.35	56.17
433.54	91.28
433.72	0.00
433.91	25.75
434.10	0.00
434.28	131.07
434.47	25.75
434.66	30.43
434.85	25.75
435.03	2.34
435.22	30.43
435.41	51.49
435.59	65.54
435.78	0.00
435.97	28.09
436.16	51.49
436.34	53.83
436.53	60.85
436.72	18.72
436.90	0.00
437.09	0.00
437.28	11.70
437.46	25.75
437.65	11.70
437.84	51.49
438.02	98.30
438.21	79.58
438.40	39.79
438.58	35.11
438.77	39.79
438.96	0.00
439.14	0.00
439.33	0.00
439.52	70.22
439.70	39.79
439.89	110.01
440.08	124.05
440.26	67.88
440.45	44.47
440.63	28.09
440.82	18.72
441.01	70.22
441.19	42.13
441.38	0.00
441.57	37.45
441.75	9.36
441.94	39.79
442.12	14.04
442.31	16.38
442.50	58.51
442.68	81.92
442.87	63.19
443.05	37.45
443.24	63.19
443.43	44.47
443.61	86.60
443.80	135.75
443.98	44.47
444.17	7.02
444.35	53.83
444.54	39.79
444.73	39.79
444.91	18.72
445.10	98.30
445.28	0.00
445.47	74.90
445.65	30.43
445.84	51.49
446.02	46.81
446.21	65.54
446.39	28.09
446.58	65.54
446.77	21.06
446.95	30.43
447.14	77.24
447.32	46.81
447.51	56.17
447.69	46.81
447.88	86.60
448.06	11.70
448.25	51.49
448.43	56.17
448.62	53.83
448.80	28.09
448.99	30.43
449.17	2.34
449.36	0.00
449.54	0.00
449.73	53.83
449.91	0.00
450.10	42.13
450.28	44.47
450.46	105.32
450.65	49.15
450.83	0.00
451.02	0.00
451.20	58.51
451.39	11.70
451.57	16.38
451.76	63.19
451.94	74.90
452.13	58.51
452.31	37.45
452.49	63.19
452.68	70.22
452.86	0.00
453.05	0.00
453.23	0.00
453.42	79.58
453.60	9.36
453.78	0.00
453.97	23.41
454.15	42.13
454.34	18.72
454.52	0.00
454.70	86.60
454.89	95.96
455.07	79.58
455.26	53.83
455.44	77.24
455.62	0.00
455.81	65.54
455.99	7.02
456.17	16.38
456.36	0.00
456.54	32.77
456.73	21.06
456.91	37.45
457.09	18.72
457.28	51.49
457.46	39.79
457.64	105.32
457.83	23.41
458.01	60.85
458.19	0.00
458.38	0.00
458.56	51.49
458.74	53.83
458.93	14.04
459.11	37.45
459.29	4.68
459.48	67.88
459.66	74.90
459.84	77.24
460.03	0.00
460.21	124.05
460.39	51.49
460.57	46.81
460.76	0.00
460.94	49.15
461.12	23.41
461.31	11.70
461.49	93.62
461.67	25.75
461.85	65.54
462.04	0.00
462.22	147.45
462.40	117.03
462.59	0.00
462.77	79.58
462.95	74.90
463.13	30.43
463.32	88.94
463.50	32.77
463.68	4.68
463.86	4.68
464.05	37.45
464.23	0.00
464.41	21.06
464.59	0.00
464.78	74.90
464.96	0.00
465.14	86.60
465.32	14.04
465.50	51.49
465.69	0.00
465.87	74.90
466.05	32.77
466.23	4.68
466.41	0.00
466.60	0.00
466.78	30.43
466.96	16.38
467.14	46.81
467.32	58.51
467.51	72.56
467.69	0.00
467.87	140.43
468.05	72.56
468.23	4.68
468.41	32.77
468.60	30.43
468.78	98.30
468.96	42.13
469.14	65.54
469.32	49.15
469.50	51.49
469.69	23.41
469.87	65.54
470.05	37.45
470.23	44.47
470.41	42.13
470.59	4.68
470.77	72.56
470.95	0.00
471.14	14.04
471.32	16.38
471.50	102.98
471.68	105.32
471.86	4.68
472.04	49.15
472.22	42.13
472.40	23.41
472.58	42.13
472.77	30.43
472.95	0.00
473.13	65.54
473.31	39.79
473.49	9.36
473.67	63.19
473.85	0.00
474.03	0.00
474.21	0.00
474.39	105.32
474.57	7.02
474.75	63.19
474.93	37.45
475.12	11.70
475.30	49.15
475.48	9.36
475.66	51.49
475.84	16.38
476.02	0.00
476.20	124.05
476.38	84.26
476.56	67.88
476.74	58.51
476.92	53.83
477.10	28.09
477.28	0.00
477.46	74.90
477.64	53.83
477.82	11.70
478.00	42.13
478.18	16.38
478.36	23.41
478.54	0.00
478.72	37.45
478.90	56.17
479.08	18.72
479.26	88.94
479.44	56.17
479.62	0.00
479.80	2.34
479.98	105.32
480.16	0.00
480.34	53.83
480.52	11.70
480.70	21.06
480.88	9.36
481.06	0.00
481.24	2.34
481.41	32.77
481.59	0.00
481.77	46.81
481.95	0.00
482.13	51.49
482.31	28.09
482.49	30.43
482.67	21.06
482.85	98.30
483.03	30.43
483.21	39.79
483.39	35.11
483.57	18.72
483.74	46.81
483.92	0.00
484.10	39.79
484.28	0.00
484.46	0.00
484.64	86.60
484.82	86.60
485.00	44.47
485.18	105.32
485.35	77.24
485.53	39.79
485.71	39.79
485.89	84.26
486.07	51.49
486.25	28.09
486.43	28.09
486.61	70.22
486.78	28.09
486.96	60.85
487.14	95.96
487.32	37.45
487.50	28.09
487.68	53.83
487.85	0.00
488.03	14.04
488.21	49.15
488.39	63.19
488.57	49.15
488.75	4.68
488.92	107.66
489.10	84.26
489.28	51.49
489.46	0.00
489.64	86.60
489.81	25.75
489.99	56.17
490.17	77.24
490.35	91.28
490.53	56.17
490.70	42.13
490.88	51.49
491.06	91.28
491.24	21.06
491.41	21.06
491.59	81.92
491.77	0.00
491.95	56.17
492.13	60.85
492.30	65.54
492.48	39.79
492.66	35.11
492.84	23.41
493.01	30.43
493.19	0.00
493.37	77.24
493.54	112.35
493.72	14.04
493.90	0.00
494.08	42.13
494.25	0.00
494.43	42.13
494.61	65.54
494.79	72.56
494.96	14.04
495.14	0.00
495.32	42.13
495.49	16.38
495.67	0.00
495.85	91.28
496.02	91.28
496.20	51.49
496.38	70.22
496.55	117.03
496.73	16.38
496.91	0.00
497.09	58.51
497.26	32.77
497.44	117.03
497.62	0.00
497.79	44.47
497.97	21.06
498.14	35.11
498.32	23.41
498.50	16.38
498.67	23.41
498.85	56.17
499.03	37.45
499.20	21.06
499.38	49.15
499.56	79.58
499.73	81.92
499.91	4.68
500.08	63.19
500.26	86.60
500.44	30.43
500.61	114.69
500.79	74.90
500.97	4.68
501.14	86.60
501.32	25.75
501.49	100.64
501.67	84.26
501.84	39.79
502.02	18.72
502.20	18.72
502.37	4.68
502.55	60.85
502.72	51.49
502.90	100.64
503.07	56.17
503.25	11.70
503.43	79.58
503.60	0.00
503.78	46.81
503.95	11.70
504.13	9.36
504.30	11.70
504.48	35.11
504.65	39.79
504.83	2.34
505.01	0.00
505.18	67.88
505.36	65.54
505.53	100.64
505.71	72.56
505.88	35.11
506.06	0.00
506.23	65.54
506.41	70.22
506.58	32.77
506.76	51.49
506.93	44.47
507.11	102.98
507.28	42.13
507.46	21.06
507.63	60.85
507.81	11.70
507.98	2.34
508.16	30.43
508.33	32.77
508.50	25.75
508.68	58.51
508.85	60.85
509.03	46.81
509.20	60.85
509.38	91.28
509.55	65.54
509.73	58.51
509.90	30.43
510.08	49.15
510.25	21.06
510.42	93.62
510.60	46.81
510.77	53.83
510.95	135.75
511.12	84.26
511.30	46.81
511.47	67.88
511.64	110.01
511.82	30.43
511.99	58.51
512.17	53.83
512.34	0.00
512.51	53.83
512.69	37.45
512.86	51.49
513.04	39.79
513.21	72.56
513.38	42.13
513.56	63.19
513.73	86.60
513.90	84.26
514.08	37.45
514.25	88.94
514.43	37.45
514.60	0.00
514.77	37.45
514.95	63.19
515.12	0.00
515.29	51.49
515.47	39.79
515.64	53.83
515.81	0.00
515.99	65.54
516.16	98.30
516.33	9.36
516.51	86.60
516.68	51.49
516.85	32.77
517.03	46.81
517.20	58.51
517.37	119.37
517.54	102.98
517.72	49.15
517.89	42.13
518.06	23.41
518.24	25.75
518.41	16.38
518.58	42.13
518.75	25.75
518.93	39.79
519.10	81.92
519.27	4.68
519.45	44.47
519.62	72.56
519.79	53.83
519.96	14.04
520.14	18.72
520.31	105.32
520.48	77.24
520.65	23.41
520.83	51.49
521.00	23.41
521.17	56.17
521.34	25.75
521.52	70.22
521.69	88.94
521.86	105.32
522.03	2.34
522.20	9.36
522.38	32.77
522.55	56.17
522.72	58.51
522.89	126.39
523.07	93.62
523.24	112.35
523.41	28.09
523.58	77.24
523.75	49.15
523.92	0.00
524.10	42.13
524.27	28.09
524.44	18.72
524.61	91.28
524.78	30.43
524.96	95.96
525.13	88.94
525.30	35.11
525.47	14.04
525.64	65.54
525.81	91.28
525.98	21.06
526.16	4.68
526.33	11.70
526.50	37.45
526.67	32.77
526.84	44.47
527.01	58.51
527.18	93.62
527.36	79.58
527.53	58.51
527.70	37.45
527.87	72.56
528.04	39.79
528.21	46.81
528.38	16.38
528.55	46.81
528.72	74.90
528.89	30.43
529.07	42.13
529.24	14.04
529.41	0.00
529.58	72.56
529.75	60.85
529.92	32.77
530.09	46.81
530.26	70.22
530.43	14.04
530.60	114.69
530.77	16.38
530.94	79.58
531.11	77.24
531.28	112.35
531.46	86.60
531.63	14.04
531.80	4.68
531.97	0.00
532.14	39.79
532.31	39.79
532.48	63.19
532.65	18.72
532.82	23.41
532.99	0.00
533.16	100.64
533.33	114.69
533.50	81.92
533.67	30.43
533.84	44.47
534.01	65.54
534.18	44.47
534.35	0.00
534.52	79.58
534.69	81.92
534.86	81.92
535.03	65.54
535.20	53.83
535.37	98.30
535.54	46.81
535.71	0.00
535.88	37.45
536.05	67.88
536.22	98.30
536.38	77.24
536.55	63.19
536.72	35.11
536.89	58.51
537.06	79.58
537.23	9.36
537.40	74.90
537.57	42.13
537.74	65.54
537.91	39.79
538.08	0.00
538.25	39.79
538.42	37.45
538.59	72.56
538.75	100.64
538.92	25.75
539.09	21.06
539.26	65.54
539.43	9.36
539.60	37.45
539.77	35.11
539.94	0.00
540.11	86.60
540.28	0.00
540.44	0.00
540.61	79.58
540.78	28.09
540.95	32.77
541.12	53.83
541.29	42.13
541.46	0.00
541.62	7.02
541.79	0.00
541.96	65.54
542.13	56.17
542.30	107.66
542.47	112.35
542.63	65.54
542.80	42.13
542.97	30.43
543.14	0.00
543.31	93.62
543.48	53.83
543.64	79.58
543.81	81.92
543.98	46.81
544.15	23.41
544.32	18.72
544.48	28.09
544.65	4.68
544.82	0.00
544.99	67.88
545.16	30.43
545.32	72.56
545.49	51.49
545.66	42.13
545.83	0.00
546.00	65.54
546.16	37.45
546.33	9.36
546.50	0.00
546.67	35.11
546.83	53.83
547.00	21.06
547.17	46.81
547.34	0.00
547.50	60.85
547.67	18.72
547.84	39.79
548.00	18.72
548.17	39.79
548.34	53.83
548.51	0.00
548.67	77.24
548.84	44.47
549.01	42.13
549.18	0.00
549.34	70.22
549.51	9.36
549.68	84.26
549.84	21.06
550.01	74.90
550.18	0.00
550.34	42.13
550.51	72.56
550.68	18.72
550.84	18.72
551.01	51.49
551.18	0.00
551.34	30.43
551.51	67.88
551.68	0.00
551.84	39.79
552.01	37.45
552.18	102.98
552.34	42.13
552.51	49.15
552.68	67.88
552.84	16.38
553.01	2.34
553.18	65.54
553.34	0.00
553.51	0.00
553.67	70.22
553.84	81.92
554.01	86.60
554.17	14.04
554.34	0.00
554.51	0.00
554.67	63.19
554.84	28.09
555.00	49.15
555.17	16.38
555.33	60.85
555.50	70.22
555.67	46.81
555.83	81.92
556.00	0.00
556.16	100.64
556.33	7.02
556.50	0.00
556.66	114.69
556.83	72.56
556.99	44.47
557.16	70.22
557.32	0.00
557.49	95.96
557.65	93.62
557.82	51.49
557.98	25.75
558.15	0.00
558.32	46.81
558.48	114.69
558.65	93.62
558.81	4.68
558.98	67.88
559.14	21.06
559.31	67.88
559.47	79.58
559.64	72.56
559.80	67.88
559.97	77.24
560.13	51.49
560.30	67.88
560.46	140.43
560.63	39.79
560.79	0.00
560.96	25.75
561.12	0.00
561.29	9.36
561.45	39.79
561.61	63.19
561.78	110.01
561.94	21.06
562.11	84.26
562.27	70.22
562.44	23.41
562.60	100.64
562.77	0.00
562.93	63.19
563.10	2.34
563.26	37.45
563.42	28.09
563.59	4.68
563.75	4.68
563.92	65.54
564.08	95.96
564.24	37.45
564.41	81.92
564.57	39.79
564.74	23.41
564.90	84.26
565.07	0.00
565.23	105.32
565.39	124.05
565.56	42.13
565.72	46.81
565.88	49.15
566.05	11.70
566.21	53.83
566.38	77.24
566.54	4.68
566.70	79.58
566.87	11.70
567.03	0.00
567.19	93.62
567.36	11.70
567.52	9.36
567.68	0.00
567.85	0.00
568.01	0.00
568.17	30.43
568.34	65.54
568.50	51.49
568.66	67.88
568.83	39.79
568.99	53.83
569.15	91.28
569.32	28.09
569.48	77.24
569.64	91.28
569.81	7.02
569.97	84.26
570.13	70.22
570.30	79.58
570.46	46.81
570.62	0.00
570.78	84.26
570.95	65.54
571.11	114.69
571.27	42.13
571.43	0.00
571.60	0.00
571.76	100.64
571.92	44.47
572.09	84.26
572.25	42.13
572.41	56.17
572.57	56.17
572.74	0.00
572.90	65.54
573.06	0.00
573.22	86.60
573.38	39.79
573.55	53.83
573.71	53.83
573.87	49.15
574.03	32.77
574.20	30.43
574.36	32.77
574.52	49.15
574.68	0.00
574.84	86.60
575.01	37.45
575.17	74.90
575.33	142.77
575.49	124.05
575.65	51.49
575.82	0.00
575.98	0.00
576.14	60.85
576.30	53.83
576.46	60.85
576.62	7.02
576.79	0.00
576.95	30.43
577.11	32.77
577.27	11.70
577.43	77.24
577.59	65.54
577.75	100.64
577.92	25.75
578.08	72.56
578.24	65.54
578.40	30.43
578.56	98.30
578.72	105.32
578.88	16.38
579.04	39.79
579.21	74.90
579.37	77.24
579.53	14.04
579.69	63.19
579.85	25.75
580.01	126.39
580.17	14.04
580.33	21.06
580.49	0.00
580.65	0.00
580.82	70.22
580.98	60.85
581.14	9.36
581.30	86.60
581.46	18.72
581.62	28.09
581.78	9.36
581.94	18.72
582.10	0.00
582.26	39.79
582.42	4.68
582.58	0.00
582.74	0.00
582.90	100.64
583.06	51.49
583.22	2.34
583.38	0.00
583.54	84.26
583.70	53.83
583.86	0.00
584.02	67.88
584.18	39.79
584.34	70.22
584.50	9.36
584.66	42.13
584.82	77.24
584.98	42.13
585.14	98.30
585.30	0.00
585.46	46.81
585.62	65.54
585.78	0.00
585.94	0.00
586.10	44.47
586.26	28.09
586.42	23.41
586.58	56.17
586.74	0.00
586.90	56.17
587.06	58.51
587.22	53.83
587.38	60.85
587.54	65.54
587.70	32.77
587.86	49.15
588.02	11.70
588.18	67.88
588.34	37.45
588.49	0.00
588.65	0.00
588.81	84.26
588.97	14.04
589.13	42.13
589.29	0.00
589.45	44.47
589.61	44.47
589.77	25.75
589.93	46.81
590.08	0.00
590.24	7.02
590.40	14.04
590.56	0.00
590.72	105.32
590.88	93.62
591.04	77.24
591.20	0.00
591.35	42.13
591.51	0.00
591.67	56.17
591.83	44.47
591.99	95.96
592.15	4.68
592.31	2.34
592.46	56.17
592.62	63.19
592.78	42.13
592.94	49.15
593.10	16.38
593.26	0.00
593.41	7.02
593.57	37.45
593.73	72.56
593.89	0.00
594.05	35.11
594.20	67.88
594.36	72.56
594.52	67.88
594.68	42.13
594.84	84.26
594.99	56.17
595.15	81.92
595.31	46.81
595.47	51.49
595.62	28.09
595.78	74.90
595.94	25.75
596.10	51.49
596.25	42.13
596.41	23.41
596.57	49.15
596.73	60.85
596.88	28.09
597.04	0.00
597.20	0.00
597.36	32.77
597.51	74.90
597.67	58.51
597.83	25.75
597.99	0.00
598.14	30.43
598.30	63.19
598.46	74.90
598.61	95.96
598.77	0.00
598.93	114.69
599.09	39.79
599.24	23.41
599.40	23.41
599.56	16.38
599.71	88.94
599.87	53.83
600.03	16.38
600.18	42.13
600.34	49.15
600.50	65.54
600.65	58.51
600.81	11.70
600.97	49.15
601.12	53.83
601.28	42.13
601.44	51.49
601.59	14.04
601.75	18.72
601.91	58.51
602.06	91.28
602.22	53.83
602.37	23.41
602.53	0.00
602.69	51.49
602.84	117.03
603.00	39.79
603.16	74.90
603.31	88.94
603.47	63.19
603.62	32.77
603.78	0.00
603.94	0.00
604.09	91.28
604.25	81.92
604.40	14.04
604.56	16.38
604.71	14.04
604.87	18.72
605.03	72.56
605.18	39.79
605.34	14.04
605.49	51.49
605.65	14.04
605.80	0.00
605.96	49.15
606.12	39.79
606.27	84.26
606.43	72.56
606.58	81.92
606.74	0.00
606.89	16.38
607.05	79.58
607.20	72.56
607.36	56.17
607.51	42.13
607.67	21.06
607.82	46.81
607.98	65.54
608.13	67.88
608.29	23.41
608.44	49.15
608.60	2.34
608.75	86.60
608.91	16.38
609.06	23.41
609.22	0.00
609.37	91.28
609.53	16.38
609.68	23.41
609.84	4.68
609.99	37.45
610.15	77.24
610.30	0.00
610.46	18.72
610.61	7.02
610.76	63.19
610.92	58.51
611.07	60.85
611.23	0.00
611.38	100.64
611.54	42.13
611.69	93.62
611.84	25.75
612.00	117.03
612.15	0.00
612.31	91.28
612.46	30.43
612.62	107.66
612.77	37.45
612.92	79.58
613.08	84.26
613.23	0.00
613.39	51.49
613.54	0.00
613.69	88.94
613.85	39.79
614.00	86.60
614.15	7.02
614.31	60.85
614.46	37.45
614.62	0.00
614.77	16.38
614.92	60.85
615.08	91.28
615.23	46.81
615.38	46.81
615.54	37.45
615.69	93.62
615.84	0.00
616.00	102.98
616.15	4.68
616.30	51.49
616.46	0.00
616.61	4.68
616.76	0.00
616.92	0.00
617.07	32.77
617.22	4.68
617.37	0.00
617.53	60.85
617.68	32.77
617.83	44.47
617.99	32.77
618.14	107.66
618.29	32.77
618.45	95.96
618.60	88.94
618.75	91.28
618.90	30.43
619.06	0.00
619.21	16.38
619.36	84.26
619.51	21.06
619.67	46.81
619.82	32.77
619.97	46.81
620.12	2.34
620.28	9.36
620.43	25.75
620.58	0.00
620.73	21.06
620.89	86.60
621.04	72.56
621.19	28.09
621.34	84.26
621.49	79.58
621.65	124.05
621.80	53.83
621.95	98.30
622.10	25.75
622.25	0.00
622.41	70.22
622.56	0.00
622.71	0.00
622.86	9.36
623.01	72.56
623.16	18.72
623.32	65.54
623.47	42.13
623.62	32.77
623.77	56.17
623.92	35.11
624.07	49.15
624.23	23.41
624.38	9.36
624.53	0.00
624.68	16.38
624.83	0.00
624.98	44.47
625.13	0.00
625.29	51.49
625.44	37.45
625.59	53.83
625.74	44.47
625.89	65.54
626.04	37.45
626.19	39.79
626.34	28.09
626.49	100.64
626.65	60.85
626.80	102.98
626.95	9.36
627.10	37.45
627.25	121.71
627.40	35.11
627.55	16.38
627.70	49.15
627.85	0.00
628.00	119.37
628.15	81.92
628.30	0.00
628.45	44.47
628.60	0.00
628.76	51.49
628.91	88.94
629.06	65.54
629.21	14.04
629.36	0.00
629.51	86.60
629.66	56.17
629.81	39.79
629.96	63.19
630.11	0.00
630.26	7.02
630.41	0.00
630.56	21.06
630.71	63.19
630.86	25.75
631.01	16.38
631.16	21.06
631.31	0.00
631.46	86.60
631.61	79.58
631.76	16.38
631.91	133.41
632.06	105.32
632.21	58.51
632.36	30.43
632.51	37.45
632.66	0.00
632.81	0.00
632.96	121.71
633.10	28.09
633.25	25.75
633.40	44.47
633.55	77.24
633.70	42.13
633.85	4.68
634.00	0.00
634.15	53.83
634.30	42.13
634.45	0.00
634.60	53.83
634.75	14.04
634.90	60.85
635.05	63.19
635.19	0.00
635.34	84.26
635.49	53.83
635.64	21.06
635.79	23.41
635.94	72.56
636.09	32.77
636.24	39.79
636.39	32.77
636.53	42.13
636.68	0.00
636.83	44.47
636.98	0.00
637.13	0.00
637.28	14.04
637.43	70.22
637.57	9.36
637.72	81.92
637.87	30.43
638.02	53.83
638.17	42.13
638.32	0.00
638.46	58.51
638.61	37.45
638.76	18.72
638.91	0.00
639.06	0.00
639.20	0.00
639.35	0.00
639.50	63.19
639.65	0.00
639.80	0.00
639.94	95.96
640.09	42.13
640.24	0.00
640.39	126.39
640.54	18.72
640.68	0.00
640.83	18.72
640.98	14.04
641.13	58.51
641.27	70.22
641.42	25.75
641.57	0.00
641.72	49.15
641.86	4.68
642.01	88.94
642.16	93.62
642.31	65.54
642.45	46.81
642.60	30.43
642.75	28.09
642.90	79.58
643.04	70.22
643.19	42.13
643.34	91.28
643.48	14.04
643.63	0.00
643.78	0.00
643.93	23.41
644.07	0.00
644.22	32.77
644.37	51.49
644.51	37.45
644.66	63.19
644.81	14.04
644.95	53.83
645.10	42.13
645.25	16.38
645.39	11.70
645.54	21.06
645.69	51.49
645.83	56.17
645.98	32.77
646.13	30.43
646.27	65.54
646.42	60.85
646.57	32.77
646.71	77.24
646.86	51.49
647.00	9.36
647.15	35.11
647.30	0.00
647.44	39.79
647.59	18.72
647.74	105.32
647.88	65.54
648.03	7.02
648.17	53.83
648.32	53.83
648.47	0.00
648.61	30.43
648.76	91.28
648.90	58.51
649.05	63.19
649.20	4.68
649.34	95.96
649.49	21.06
649.63	32.77
649.78	0.00
649.92	0.00
650.07	126.39
650.21	2.34
650.36	72.56
650.51	58.51
650.65	67.88
650.80	0.00
650.94	91.28
651.09	37.45
651.23	23.41
651.38	32.77
651.52	16.38
651.67	4.68
651.81	0.00
651.96	81.92
652.10	42.13
652.25	16.38
652.39	119.37
652.54	16.38
652.68	37.45
652.83	58.51
652.97	49.15
653.12	37.45
653.26	84.26
653.41	0.00
653.55	21.06
653.70	0.00
653.84	46.81
653.99	77.24
654.13	53.83
654.27	23.41
654.42	67.88
654.56	21.06
654.71	16.38
654.85	56.17
655.00	74.90
655.14	0.00
655.29	49.15
655.43	39.79
655.57	112.35
655.72	0.00
655.86	35.11
656.01	11.70
656.15	63.19
656.30	35.11
656.44	56.17
656.58	18.72
656.73	0.00
656.87	63.19
657.01	11.70
657.16	0.00
657.30	58.51
657.45	79.58
657.59	37.45
657.73	32.77
657.88	49.15
658.02	0.00
658.16	58.51
658.31	32.77
658.45	0.00
658.60	11.70
658.74	77.24
658.88	67.88
659.03	35.11
659.17	35.11
659.31	53.83
659.46	42.13
659.60	25.75
659.74	0.00
659.89	14.04
660.03	91.28
660.17	102.98
660.32	0.00
660.46	0.00
660.60	0.00
660.74	32.77
660.89	37.45
661.03	0.00
661.17	39.79
661.32	0.00
661.46	0.00
661.60	79.58
661.74	25.75
661.89	119.37
662.03	72.56
662.17	49.15
662.31	0.00
662.46	14.04
662.60	0.00
662.74	67.88
662.88	51.49
663.03	56.17
663.17	95.96
663.31	67.88
663.45	42.13
663.60	23.41
663.74	56.17
663.88	46.81
664.02	86.60
664.17	60.85
664.31	0.00
664.45	0.00
664.59	88.94
664.73	110.01
664.88	79.58
665.02	93.62
665.16	28.09
665.30	2.34
665.44	72.56
665.59	14.04
665.73	49.15
665.87	2.34
666.01	35.11
666.15	16.38
666.29	0.00
666.44	35.11
666.58	0.00
666.72	32.77
666.86	67.88
667.00	81.92
667.14	18.72
667.28	0.00
667.43	23.41
667.57	30.43
667.71	0.00
667.85	72.56
667.99	91.28
668.13	60.85
668.27	18.72
668.41	60.85
668.56	42.13
668.70	0.00
668.84	30.43
668.98	0.00
669.12	37.45
669.26	0.00
669.40	44.47
669.54	0.00
669.68	56.17
669.82	37.45
669.96	21.06
670.10	30.43
670.25	39.79
670.39	0.00
670.53	39.79
670.67	0.00
670.81	16.38
670.95	4.68
671.09	49.15
671.23	0.00
671.37	46.81
671.51	100.64
671.65	23.41
671.79	74.90
671.93	53.83
672.07	72.56
672.21	70.22
672.35	91.28
672.49	79.58
672.63	74.90
672.77	14.04
672.91	65.54
673.05	0.00
673.19	65.54
673.33	0.00
673.47	35.11
673.61	56.17
673.75	0.00
673.89	51.49
674.03	0.00
674.17	0.00
674.31	0.00
674.45	23.41
674.59	16.38
674.73	0.00
674.87	0.00
675.01	14.04
675.15	0.00
675.29	67.88
675.43	60.85
675.56	81.92
675.70	0.00
675.84	58.51
675.98	56.17
676.12	100.64
676.26	9.36
676.40	56.17
676.54	7.02
676.68	0.00
676.82	0.00
676.96	79.58
677.10	44.47
677.23	23.41
677.37	49.15
677.51	0.00
677.65	51.49
677.79	11.70
677.93	21.06
678.07	32.77
678.21	0.00
678.34	44.47
678.48	0.00
678.62	0.00
678.76	53.83
678.90	51.49
679.04	49.15
679.18	0.00
679.31	39.79
679.45	14.04
679.59	0.00
679.73	2.34
679.87	35.11
680.00	100.64
680.14	18.72
680.28	0.00
680.42	74.90
680.56	37.45
680.70	58.51
680.83	0.00
680.97	32.77
681.11	0.00
681.25	0.00
681.39	67.88
681.52	11.70
681.66	60.85
681.80	18.72
681.94	46.81
682.07	46.81
682.21	32.77
682.35	28.09
682.49	51.49
682.62	9.36
682.76	51.49
682.90	37.45
683.04	93.62
683.17	0.00
683.31	67.88
683.45	0.00
683.59	51.49
683.72	2.34
683.86	91.28
684.00	0.00
684.13	0.00
684.27	0.00
684.41	46.81
684.55	86.60
684.68	70.22
684.82	7.02
684.96	0.00
685.09	18.72
685.23	58.51
685.37	77.24
685.50	37.45
685.64	49.15
685.78	0.00
685.91	18.72
686.05	25.75
686.19	0.00
686.32	9.36
686.46	0.00
686.60	81.92
686.73	30.43
686.87	30.43
687.01	42.13
687.14	4.68
687.28	79.58
687.42	30.43
687.55	16.38
687.69	0.00
687.82	74.90
687.96	56.17
688.10	58.51
688.23	63.19
688.37	88.94
688.50	39.79
688.64	46.81
688.78	67.88
688.91	16.38
689.05	0.00
689.18	37.45
689.32	37.45
689.46	9.36
689.59	128.73
689.73	53.83
689.86	0.00
690.00	0.00
690.13	11.70
690.27	79.58
690.41	72.56
690.54	93.62
690.68	0.00
690.81	14.04
690.95	67.88
691.08	77.24
691.22	88.94
691.35	11.70
691.49	7.02
691.62	9.36
691.76	51.49
691.89	14.04
692.03	21.06
692.16	42.13
692.30	39.79
692.43	37.45
692.57	58.51
692.70	0.00
692.84	21.06
692.97	0.00
693.11	0.00
693.24	0.00
693.38	37.45
693.51	0.00
693.65	49.15
693.78	23.41
693.92	0.00
694.05	93.62
694.19	35.11
694.32	117.03
694.45	42.13
694.59	126.39
694.72	9.36
694.86	53.83
694.99	11.70
695.13	0.00
695.26	81.92
695.39	0.00
695.53	23.41
695.66	0.00
695.80	0.00
695.93	39.79
696.07	2.34
696.20	11.70
696.33	30.43
696.47	46.81
696.60	25.75
696.73	44.47
696.87	0.00
697.00	9.36
697.14	58.51
697.27	74.90
697.40	46.81
697.54	28.09
697.67	25.75
697.80	35.11
697.94	84.26
698.07	39.79
698.21	23.41
698.34	58.51
698.47	65.54
698.61	0.00
698.74	14.04
698.87	35.11
699.01	4.68
699.14	46.81
699.27	37.45
699.40	14.04
699.54	0.00
699.67	65.54
699.80	2.34
699.94	42.13
700.07	105.32
700.20	35.11
700.34	0.00
700.47	9.36
700.60	25.75
700.73	46.81
700.87	39.79
701.00	30.43
701.13	39.79
701.26	32.77
701.40	0.00
701.53	0.00
701.66	44.47
701.79	49.15
701.93	81.92
702.06	84.26
702.19	51.49
702.32	32.77
702.46	44.47
702.59	74.90
702.72	32.77
702.85	42.13
702.99	2.34
703.12	0.00
703.25	0.00
703.38	70.22
703.51	0.00
703.65	67.88
703.78	0.00
703.91	23.41
704.04	28.09
704.17	0.00
704.31	0.00
704.44	0.00
704.57	9.36
704.70	65.54
704.83	30.43
704.96	7.02
705.10	53.83
705.23	42.13
>>>>>End Processed Spectral Data<<<<<
