SpectraSuite Data File
++++++++++++++++++++++++++++++++++++
Date: Fri Oct 04 12:13:43 GMT-05:00 2013
User: price-jones
Dark Spectrum Present: No
Reference Spectrum Present: No
Number of Sampled Component Spectra: 1
Spectrometers: USB2+H05261
Integration Time (usec): 10000 (USB2+H05261)
Spectra Averaged: 1 (USB2+H05261)
Boxcar Smoothing: 0 (USB2+H05261)
Correct for Electrical Dark: No (USB2+H05261)
Strobe/Lamp Enabled: No (USB2+H05261)
Correct for Detector Non-linearity: No (USB2+H05261)
Correct for Stray Light: No (USB2+H05261)
Number of Pixels in Processed Spectrum: 2048
>>>>>Begin Processed Spectral Data<<<<<
365.73	0.00
365.92	0.00
366.12	0.00
366.32	0.00
366.52	0.00
366.72	0.00
366.91	0.00
367.11	0.00
367.31	0.00
367.51	0.00
367.70	0.00
367.90	0.00
368.10	0.00
368.30	0.00
368.49	0.00
368.69	0.00
368.89	0.00
369.09	0.00
369.28	0.00
369.48	0.00
369.68	0.00
369.87	0.00
370.07	0.00
370.27	0.00
370.47	0.00
370.66	0.00
370.86	0.00
371.06	0.00
371.25	0.00
371.45	0.00
371.65	88.94
371.84	0.00
372.04	0.00
372.24	32.77
372.44	0.00
372.63	0.00
372.83	0.00
373.03	65.54
373.22	0.00
373.42	0.00
373.62	0.00
373.81	14.04
374.01	0.00
374.21	0.00
374.40	0.00
374.60	60.85
374.79	35.11
374.99	60.85
375.19	28.09
375.38	37.45
375.58	42.13
375.78	25.75
375.97	105.32
376.17	51.49
376.37	21.06
376.56	35.11
376.76	0.00
376.95	16.38
377.15	49.15
377.35	9.36
377.54	0.00
377.74	0.00
377.93	21.06
378.13	39.79
378.33	14.04
378.52	0.00
378.72	49.15
378.91	0.00
379.11	0.00
379.31	72.56
379.50	0.00
379.70	60.85
379.89	21.06
380.09	72.56
380.28	0.00
380.48	60.85
380.68	72.56
380.87	0.00
381.07	28.09
381.26	0.00
381.46	42.13
381.65	0.00
381.85	0.00
382.04	23.41
382.24	0.00
382.43	0.00
382.63	0.00
382.83	0.00
383.02	28.09
383.22	39.79
383.41	0.00
383.61	60.85
383.80	60.85
384.00	67.88
384.19	51.49
384.39	7.02
384.58	35.11
384.78	35.11
384.97	0.00
385.17	42.13
385.36	0.00
385.56	9.36
385.75	0.00
385.95	0.00
386.14	0.00
386.34	0.00
386.53	4.68
386.72	58.51
386.92	4.68
387.11	65.54
387.31	23.41
387.50	0.00
387.70	0.00
387.89	9.36
388.09	9.36
388.28	0.00
388.48	2.34
388.67	56.17
388.86	32.77
389.06	46.81
389.25	0.00
389.45	0.00
389.64	21.06
389.84	11.70
390.03	53.83
390.22	70.22
390.42	37.45
390.61	44.47
390.81	0.00
391.00	51.49
391.19	53.83
391.39	0.00
391.58	0.00
391.78	21.06
391.97	49.15
392.16	35.11
392.36	53.83
392.55	81.92
392.75	0.00
392.94	0.00
393.13	56.17
393.33	37.45
393.52	44.47
393.71	0.00
393.91	0.00
394.10	42.13
394.29	7.02
394.49	4.68
394.68	81.92
394.88	0.00
395.07	49.15
395.26	9.36
395.46	128.73
395.65	14.04
395.84	0.00
396.04	44.47
396.23	37.45
396.42	0.00
396.62	72.56
396.81	0.00
397.00	0.00
397.19	11.70
397.39	11.70
397.58	124.05
397.77	2.34
397.97	37.45
398.16	74.90
398.35	11.70
398.55	0.00
398.74	11.70
398.93	0.00
399.12	0.00
399.32	42.13
399.51	0.00
399.70	14.04
399.90	4.68
400.09	21.06
400.28	0.00
400.47	0.00
400.67	39.79
400.86	58.51
401.05	16.38
401.24	93.62
401.44	0.00
401.63	114.69
401.82	56.17
402.01	18.72
402.21	37.45
402.40	77.24
402.59	74.90
402.78	37.45
402.97	63.19
403.17	0.00
403.36	0.00
403.55	0.00
403.74	21.06
403.93	58.51
404.13	39.79
404.32	105.32
404.51	18.72
404.70	0.00
404.89	0.00
405.09	58.51
405.28	16.38
405.47	39.79
405.66	72.56
405.85	11.70
406.05	23.41
406.24	86.60
406.43	9.36
406.62	126.39
406.81	0.00
407.00	0.00
407.20	46.81
407.39	0.00
407.58	67.88
407.77	11.70
407.96	0.00
408.15	0.00
408.34	0.00
408.54	39.79
408.73	0.00
408.92	4.68
409.11	0.00
409.30	0.00
409.49	0.00
409.68	16.38
409.87	51.49
410.07	42.13
410.26	98.30
410.45	30.43
410.64	0.00
410.83	9.36
411.02	0.00
411.21	0.00
411.40	51.49
411.59	18.72
411.78	37.45
411.98	39.79
412.17	67.88
412.36	0.00
412.55	14.04
412.74	56.17
412.93	4.68
413.12	4.68
413.31	81.92
413.50	37.45
413.69	79.58
413.88	70.22
414.07	67.88
414.26	28.09
414.45	30.43
414.64	0.00
414.83	86.60
415.02	30.43
415.22	18.72
415.41	0.00
415.60	18.72
415.79	0.00
415.98	58.51
416.17	77.24
416.36	30.43
416.55	53.83
416.74	46.81
416.93	46.81
417.12	9.36
417.31	30.43
417.50	67.88
417.69	18.72
417.88	35.11
418.07	23.41
418.26	37.45
418.45	16.38
418.64	0.00
418.83	14.04
419.02	23.41
419.21	32.77
419.39	16.38
419.58	0.00
419.77	35.11
419.96	32.77
420.15	32.77
420.34	56.17
420.53	100.64
420.72	32.77
420.91	0.00
421.10	14.04
421.29	14.04
421.48	21.06
421.67	79.58
421.86	9.36
422.05	60.85
422.24	98.30
422.43	51.49
422.61	9.36
422.80	56.17
422.99	72.56
423.18	30.43
423.37	42.13
423.56	28.09
423.75	11.70
423.94	30.43
424.13	39.79
424.32	0.00
424.50	0.00
424.69	9.36
424.88	56.17
425.07	86.60
425.26	18.72
425.45	56.17
425.64	2.34
425.83	53.83
426.01	0.00
426.20	23.41
426.39	0.00
426.58	23.41
426.77	0.00
426.96	46.81
427.15	100.64
427.33	0.00
427.52	18.72
427.71	0.00
427.90	51.49
428.09	39.79
428.28	0.00
428.46	16.38
428.65	0.00
428.84	4.68
429.03	9.36
429.22	18.72
429.40	0.00
429.59	0.00
429.78	25.75
429.97	0.00
430.16	0.00
430.34	37.45
430.53	49.15
430.72	95.96
430.91	77.24
431.10	74.90
431.28	42.13
431.47	44.47
431.66	9.36
431.85	46.81
432.03	2.34
432.22	14.04
432.41	11.70
432.60	42.13
432.79	44.47
432.97	39.79
433.16	9.36
433.35	14.04
433.54	0.00
433.72	7.02
433.91	0.00
434.10	9.36
434.28	35.11
434.47	0.00
434.66	0.00
434.85	23.41
435.03	51.49
435.22	23.41
435.41	67.88
435.59	44.47
435.78	88.94
435.97	32.77
436.16	37.45
436.34	28.09
436.53	0.00
436.72	49.15
436.90	58.51
437.09	95.96
437.28	0.00
437.46	42.13
437.65	53.83
437.84	67.88
438.02	51.49
438.21	9.36
438.40	37.45
438.58	77.24
438.77	18.72
438.96	49.15
439.14	18.72
439.33	51.49
439.52	84.26
439.70	21.06
439.89	0.00
440.08	4.68
440.26	79.58
440.45	28.09
440.63	51.49
440.82	100.64
441.01	25.75
441.19	18.72
441.38	0.00
441.57	0.00
441.75	39.79
441.94	30.43
442.12	77.24
442.31	0.00
442.50	32.77
442.68	16.38
442.87	37.45
443.05	81.92
443.24	39.79
443.43	35.11
443.61	0.00
443.80	21.06
443.98	72.56
444.17	0.00
444.35	0.00
444.54	28.09
444.73	60.85
444.91	0.00
445.10	60.85
445.28	23.41
445.47	7.02
445.65	35.11
445.84	39.79
446.02	18.72
446.21	70.22
446.39	18.72
446.58	124.05
446.77	11.70
446.95	11.70
447.14	72.56
447.32	37.45
447.51	53.83
447.69	46.81
447.88	46.81
448.06	42.13
448.25	4.68
448.43	102.98
448.62	37.45
448.80	0.00
448.99	14.04
449.17	35.11
449.36	0.00
449.54	100.64
449.73	9.36
449.91	93.62
450.10	42.13
450.28	72.56
450.46	140.43
450.65	44.47
450.83	65.54
451.02	58.51
451.20	0.00
451.39	4.68
451.57	0.00
451.76	32.77
451.94	0.00
452.13	18.72
452.31	18.72
452.49	7.02
452.68	105.32
452.86	32.77
453.05	0.00
453.23	37.45
453.42	44.47
453.60	84.26
453.78	88.94
453.97	30.43
454.15	81.92
454.34	18.72
454.52	51.49
454.70	65.54
454.89	44.47
455.07	65.54
455.26	7.02
455.44	102.98
455.62	58.51
455.81	18.72
455.99	58.51
456.17	44.47
456.36	44.47
456.54	4.68
456.73	84.26
456.91	56.17
457.09	4.68
457.28	0.00
457.46	74.90
457.64	56.17
457.83	4.68
458.01	93.62
458.19	88.94
458.38	0.00
458.56	0.00
458.74	70.22
458.93	39.79
459.11	58.51
459.29	37.45
459.48	44.47
459.66	44.47
459.84	49.15
460.03	58.51
460.21	63.19
460.39	0.00
460.57	0.00
460.76	67.88
460.94	58.51
461.12	0.00
461.31	70.22
461.49	44.47
461.67	28.09
461.85	32.77
462.04	0.00
462.22	60.85
462.40	32.77
462.59	79.58
462.77	84.26
462.95	0.00
463.13	35.11
463.32	56.17
463.50	21.06
463.68	65.54
463.86	0.00
464.05	56.17
464.23	37.45
464.41	0.00
464.59	30.43
464.78	0.00
464.96	49.15
465.14	32.77
465.32	88.94
465.50	0.00
465.69	102.98
465.87	32.77
466.05	11.70
466.23	18.72
466.41	63.19
466.60	63.19
466.78	32.77
466.96	16.38
467.14	11.70
467.32	0.00
467.51	21.06
467.69	14.04
467.87	35.11
468.05	79.58
468.23	46.81
468.41	14.04
468.60	98.30
468.78	18.72
468.96	114.69
469.14	37.45
469.32	72.56
469.50	79.58
469.69	72.56
469.87	16.38
470.05	0.00
470.23	18.72
470.41	49.15
470.59	0.00
470.77	18.72
470.95	81.92
471.14	39.79
471.32	18.72
471.50	25.75
471.68	25.75
471.86	51.49
472.04	100.64
472.22	58.51
472.40	88.94
472.58	7.02
472.77	0.00
472.95	23.41
473.13	4.68
473.31	107.66
473.49	2.34
473.67	46.81
473.85	86.60
474.03	32.77
474.21	58.51
474.39	77.24
474.57	0.00
474.75	32.77
474.93	67.88
475.12	93.62
475.30	58.51
475.48	39.79
475.66	0.00
475.84	0.00
476.02	35.11
476.20	53.83
476.38	0.00
476.56	25.75
476.74	56.17
476.92	14.04
477.10	0.00
477.28	72.56
477.46	25.75
477.64	0.00
477.82	49.15
478.00	79.58
478.18	14.04
478.36	91.28
478.54	35.11
478.72	14.04
478.90	30.43
479.08	30.43
479.26	49.15
479.44	51.49
479.62	0.00
479.80	72.56
479.98	63.19
480.16	16.38
480.34	56.17
480.52	63.19
480.70	110.01
480.88	16.38
481.06	51.49
481.24	9.36
481.41	49.15
481.59	84.26
481.77	49.15
481.95	37.45
482.13	0.00
482.31	72.56
482.49	25.75
482.67	58.51
482.85	44.47
483.03	53.83
483.21	0.00
483.39	23.41
483.57	28.09
483.74	65.54
483.92	126.39
484.10	46.81
484.28	74.90
484.46	53.83
484.64	107.66
484.82	53.83
485.00	53.83
485.18	58.51
485.35	0.00
485.53	42.13
485.71	65.54
485.89	0.00
486.07	0.00
486.25	84.26
486.43	39.79
486.61	35.11
486.78	46.81
486.96	30.43
487.14	39.79
487.32	0.00
487.50	25.75
487.68	72.56
487.85	0.00
488.03	23.41
488.21	119.37
488.39	72.56
488.57	44.47
488.75	25.75
488.92	74.90
489.10	16.38
489.28	37.45
489.46	7.02
489.64	72.56
489.81	102.98
489.99	0.00
490.17	112.35
490.35	46.81
490.53	39.79
490.70	46.81
490.88	0.00
491.06	25.75
491.24	100.64
491.41	4.68
491.59	16.38
491.77	74.90
491.95	70.22
492.13	0.00
492.30	35.11
492.48	53.83
492.66	70.22
492.84	0.00
493.01	60.85
493.19	0.00
493.37	18.72
493.54	42.13
493.72	56.17
493.90	37.45
494.08	63.19
494.25	56.17
494.43	84.26
494.61	49.15
494.79	67.88
494.96	21.06
495.14	56.17
495.32	65.54
495.49	74.90
495.67	65.54
495.85	18.72
496.02	51.49
496.20	37.45
496.38	86.60
496.55	51.49
496.73	32.77
496.91	0.00
497.09	0.00
497.26	37.45
497.44	16.38
497.62	53.83
497.79	84.26
497.97	44.47
498.14	0.00
498.32	44.47
498.50	65.54
498.67	14.04
498.85	60.85
499.03	0.00
499.20	65.54
499.38	93.62
499.56	2.34
499.73	0.00
499.91	23.41
500.08	14.04
500.26	16.38
500.44	67.88
500.61	39.79
500.79	91.28
500.97	42.13
501.14	2.34
501.32	0.00
501.49	7.02
501.67	63.19
501.84	95.96
502.02	65.54
502.20	84.26
502.37	49.15
502.55	4.68
502.72	9.36
502.90	65.54
503.07	79.58
503.25	18.72
503.43	56.17
503.60	53.83
503.78	67.88
503.95	32.77
504.13	39.79
504.30	93.62
504.48	18.72
504.65	23.41
504.83	39.79
505.01	30.43
505.18	49.15
505.36	95.96
505.53	30.43
505.71	39.79
505.88	98.30
506.06	7.02
506.23	42.13
506.41	30.43
506.58	46.81
506.76	46.81
506.93	49.15
507.11	0.00
507.28	60.85
507.46	0.00
507.63	84.26
507.81	42.13
507.98	39.79
508.16	23.41
508.33	53.83
508.50	105.32
508.68	63.19
508.85	37.45
509.03	39.79
509.20	0.00
509.38	2.34
509.55	30.43
509.73	44.47
509.90	25.75
510.08	16.38
510.25	35.11
510.42	37.45
510.60	53.83
510.77	23.41
510.95	154.48
511.12	14.04
511.30	0.00
511.47	70.22
511.64	58.51
511.82	86.60
511.99	46.81
512.17	32.77
512.34	23.41
512.51	11.70
512.69	67.88
512.86	72.56
513.04	102.98
513.21	86.60
513.38	0.00
513.56	77.24
513.73	51.49
513.90	35.11
514.08	30.43
514.25	100.64
514.43	65.54
514.60	46.81
514.77	37.45
514.95	18.72
515.12	32.77
515.29	46.81
515.47	23.41
515.64	72.56
515.81	58.51
515.99	2.34
516.16	32.77
516.33	67.88
516.51	46.81
516.68	32.77
516.85	0.00
517.03	42.13
517.20	63.19
517.37	32.77
517.54	4.68
517.72	53.83
517.89	67.88
518.06	21.06
518.24	79.58
518.41	18.72
518.58	23.41
518.75	88.94
518.93	42.13
519.10	0.00
519.27	0.00
519.45	128.73
519.62	105.32
519.79	42.13
519.96	56.17
520.14	28.09
520.31	42.13
520.48	42.13
520.65	18.72
520.83	63.19
521.00	0.00
521.17	18.72
521.34	93.62
521.52	9.36
521.69	0.00
521.86	32.77
522.03	79.58
522.20	53.83
522.38	86.60
522.55	42.13
522.72	53.83
522.89	30.43
523.07	30.43
523.24	51.49
523.41	0.00
523.58	42.13
523.75	32.77
523.92	51.49
524.10	67.88
524.27	88.94
524.44	2.34
524.61	32.77
524.78	60.85
524.96	88.94
525.13	86.60
525.30	105.32
525.47	88.94
525.64	53.83
525.81	95.96
525.98	0.00
526.16	49.15
526.33	58.51
526.50	9.36
526.67	51.49
526.84	44.47
527.01	0.00
527.18	51.49
527.36	39.79
527.53	81.92
527.70	98.30
527.87	2.34
528.04	140.43
528.21	63.19
528.38	63.19
528.55	9.36
528.72	23.41
528.89	56.17
529.07	53.83
529.24	35.11
529.41	18.72
529.58	124.05
529.75	107.66
529.92	16.38
530.09	0.00
530.26	0.00
530.43	93.62
530.60	11.70
530.77	74.90
530.94	72.56
531.11	93.62
531.28	72.56
531.46	126.39
531.63	23.41
531.80	23.41
531.97	67.88
532.14	0.00
532.31	0.00
532.48	0.00
532.65	58.51
532.82	81.92
532.99	25.75
533.16	72.56
533.33	42.13
533.50	44.47
533.67	2.34
533.84	0.00
534.01	0.00
534.18	9.36
534.35	16.38
534.52	30.43
534.69	84.26
534.86	74.90
535.03	84.26
535.20	74.90
535.37	88.94
535.54	67.88
535.71	67.88
535.88	0.00
536.05	0.00
536.22	65.54
536.38	4.68
536.55	65.54
536.72	39.79
536.89	49.15
537.06	65.54
537.23	105.32
537.40	65.54
537.57	65.54
537.74	39.79
537.91	72.56
538.08	49.15
538.25	74.90
538.42	49.15
538.59	79.58
538.75	93.62
538.92	0.00
539.09	86.60
539.26	0.00
539.43	72.56
539.60	44.47
539.77	86.60
539.94	67.88
540.11	11.70
540.28	84.26
540.44	65.54
540.61	51.49
540.78	79.58
540.95	93.62
541.12	60.85
541.29	51.49
541.46	105.32
541.62	51.49
541.79	114.69
541.96	81.92
542.13	32.77
542.30	51.49
542.47	42.13
542.63	14.04
542.80	35.11
542.97	14.04
543.14	39.79
543.31	18.72
543.48	98.30
543.64	91.28
543.81	0.00
543.98	16.38
544.15	124.05
544.32	58.51
544.48	147.45
544.65	112.35
544.82	56.17
544.99	105.32
545.16	70.22
545.32	93.62
545.49	4.68
545.66	21.06
545.83	131.07
546.00	65.54
546.16	107.66
546.33	91.28
546.50	0.00
546.67	0.00
546.83	88.94
547.00	53.83
547.17	56.17
547.34	114.69
547.50	7.02
547.67	28.09
547.84	9.36
548.00	107.66
548.17	0.00
548.34	18.72
548.51	79.58
548.67	72.56
548.84	39.79
549.01	58.51
549.18	44.47
549.34	84.26
549.51	51.49
549.68	35.11
549.84	65.54
550.01	51.49
550.18	7.02
550.34	46.81
550.51	0.00
550.68	77.24
550.84	56.17
551.01	65.54
551.18	32.77
551.34	51.49
551.51	74.90
551.68	65.54
551.84	74.90
552.01	18.72
552.18	60.85
552.34	140.43
552.51	37.45
552.68	2.34
552.84	114.69
553.01	140.43
553.18	117.03
553.34	98.30
553.51	0.00
553.67	25.75
553.84	60.85
554.01	79.58
554.17	56.17
554.34	51.49
554.51	0.00
554.67	0.00
554.84	49.15
555.00	32.77
555.17	9.36
555.33	81.92
555.50	56.17
555.67	70.22
555.83	0.00
556.00	16.38
556.16	72.56
556.33	37.45
556.50	0.00
556.66	0.00
556.83	42.13
556.99	44.47
557.16	30.43
557.32	28.09
557.49	42.13
557.65	128.73
557.82	114.69
557.98	23.41
558.15	49.15
558.32	53.83
558.48	124.05
558.65	56.17
558.81	74.90
558.98	44.47
559.14	28.09
559.31	91.28
559.47	42.13
559.64	14.04
559.80	37.45
559.97	79.58
560.13	14.04
560.30	21.06
560.46	14.04
560.63	0.00
560.79	25.75
560.96	102.98
561.12	7.02
561.29	37.45
561.45	72.56
561.61	79.58
561.78	79.58
561.94	46.81
562.11	30.43
562.27	14.04
562.44	65.54
562.60	70.22
562.77	88.94
562.93	28.09
563.10	56.17
563.26	63.19
563.42	60.85
563.59	70.22
563.75	79.58
563.92	0.00
564.08	95.96
564.24	44.47
564.41	72.56
564.57	35.11
564.74	124.05
564.90	51.49
565.07	70.22
565.23	32.77
565.39	7.02
565.56	0.00
565.72	81.92
565.88	56.17
566.05	95.96
566.21	42.13
566.38	49.15
566.54	23.41
566.70	51.49
566.87	0.00
567.03	0.00
567.19	79.58
567.36	0.00
567.52	0.00
567.68	74.90
567.85	91.28
568.01	65.54
568.17	28.09
568.34	28.09
568.50	56.17
568.66	2.34
568.83	53.83
568.99	142.77
569.15	100.64
569.32	81.92
569.48	25.75
569.64	42.13
569.81	30.43
569.97	74.90
570.13	124.05
570.30	0.00
570.46	7.02
570.62	58.51
570.78	77.24
570.95	63.19
571.11	25.75
571.27	53.83
571.43	49.15
571.60	49.15
571.76	88.94
571.92	72.56
572.09	7.02
572.25	14.04
572.41	81.92
572.57	42.13
572.74	72.56
572.90	72.56
573.06	65.54
573.22	35.11
573.38	32.77
573.55	53.83
573.71	56.17
573.87	67.88
574.03	58.51
574.20	126.39
574.36	0.00
574.52	0.00
574.68	0.00
574.84	0.00
575.01	81.92
575.17	60.85
575.33	28.09
575.49	67.88
575.65	30.43
575.82	42.13
575.98	91.28
576.14	79.58
576.30	0.00
576.46	63.19
576.62	126.39
576.79	0.00
576.95	60.85
577.11	51.49
577.27	60.85
577.43	56.17
577.59	70.22
577.75	88.94
577.92	107.66
578.08	0.00
578.24	37.45
578.40	56.17
578.56	102.98
578.72	9.36
578.88	100.64
579.04	79.58
579.21	93.62
579.37	163.84
579.53	39.79
579.69	46.81
579.85	70.22
580.01	11.70
580.17	117.03
580.33	102.98
580.49	91.28
580.65	18.72
580.82	4.68
580.98	63.19
581.14	53.83
581.30	88.94
581.46	117.03
581.62	11.70
581.78	44.47
581.94	0.00
582.10	49.15
582.26	28.09
582.42	51.49
582.58	56.17
582.74	67.88
582.90	35.11
583.06	53.83
583.22	11.70
583.38	67.88
583.54	35.11
583.70	4.68
583.86	110.01
584.02	49.15
584.18	2.34
584.34	102.98
584.50	72.56
584.66	70.22
584.82	0.00
584.98	86.60
585.14	51.49
585.30	74.90
585.46	63.19
585.62	46.81
585.78	14.04
585.94	70.22
586.10	0.00
586.26	0.00
586.42	79.58
586.58	72.56
586.74	35.11
586.90	9.36
587.06	91.28
587.22	81.92
587.38	42.13
587.54	11.70
587.70	25.75
587.86	4.68
588.02	35.11
588.18	46.81
588.34	105.32
588.49	67.88
588.65	0.00
588.81	112.35
588.97	0.00
589.13	42.13
589.29	4.68
589.45	72.56
589.61	23.41
589.77	39.79
589.93	11.70
590.08	25.75
590.24	74.90
590.40	28.09
590.56	11.70
590.72	51.49
590.88	23.41
591.04	18.72
591.20	44.47
591.35	35.11
591.51	44.47
591.67	102.98
591.83	21.06
591.99	49.15
592.15	53.83
592.31	60.85
592.46	86.60
592.62	74.90
592.78	105.32
592.94	28.09
593.10	23.41
593.26	107.66
593.41	51.49
593.57	32.77
593.73	0.00
593.89	56.17
594.05	0.00
594.20	88.94
594.36	65.54
594.52	42.13
594.68	70.22
594.84	0.00
594.99	7.02
595.15	70.22
595.31	0.00
595.47	37.45
595.62	84.26
595.78	9.36
595.94	0.00
596.10	60.85
596.25	0.00
596.41	18.72
596.57	37.45
596.73	42.13
596.88	74.90
597.04	88.94
597.20	2.34
597.36	0.00
597.51	95.96
597.67	107.66
597.83	112.35
597.99	51.49
598.14	70.22
598.30	56.17
598.46	77.24
598.61	56.17
598.77	44.47
598.93	86.60
599.09	37.45
599.24	4.68
599.40	30.43
599.56	60.85
599.71	63.19
599.87	88.94
600.03	49.15
600.18	7.02
600.34	63.19
600.50	30.43
600.65	11.70
600.81	0.00
600.97	7.02
601.12	42.13
601.28	117.03
601.44	11.70
601.59	28.09
601.75	100.64
601.91	35.11
602.06	72.56
602.22	49.15
602.37	79.58
602.53	53.83
602.69	91.28
602.84	74.90
603.00	25.75
603.16	28.09
603.31	25.75
603.47	18.72
603.62	51.49
603.78	23.41
603.94	112.35
604.09	124.05
604.25	46.81
604.40	16.38
604.56	44.47
604.71	65.54
604.87	9.36
605.03	44.47
605.18	112.35
605.34	60.85
605.49	124.05
605.65	42.13
605.80	28.09
605.96	53.83
606.12	140.43
606.27	46.81
606.43	60.85
606.58	21.06
606.74	81.92
606.89	32.77
607.05	0.00
607.20	51.49
607.36	74.90
607.51	60.85
607.67	9.36
607.82	28.09
607.98	42.13
608.13	100.64
608.29	91.28
608.44	0.00
608.60	25.75
608.75	107.66
608.91	28.09
609.06	84.26
609.22	21.06
609.37	65.54
609.53	51.49
609.68	44.47
609.84	23.41
609.99	58.51
610.15	56.17
610.30	7.02
610.46	70.22
610.61	14.04
610.76	9.36
610.92	23.41
611.07	30.43
611.23	44.47
611.38	72.56
611.54	42.13
611.69	14.04
611.84	11.70
612.00	95.96
612.15	49.15
612.31	70.22
612.46	4.68
612.62	0.00
612.77	0.00
612.92	32.77
613.08	110.01
613.23	105.32
613.39	7.02
613.54	30.43
613.69	28.09
613.85	91.28
614.00	107.66
614.15	51.49
614.31	16.38
614.46	30.43
614.62	72.56
614.77	39.79
614.92	91.28
615.08	9.36
615.23	7.02
615.38	7.02
615.54	74.90
615.69	37.45
615.84	0.00
616.00	21.06
616.15	0.00
616.30	56.17
616.46	32.77
616.61	37.45
616.76	65.54
616.92	35.11
617.07	0.00
617.22	0.00
617.37	86.60
617.53	42.13
617.68	32.77
617.83	0.00
617.99	44.47
618.14	53.83
618.29	30.43
618.45	42.13
618.60	86.60
618.75	0.00
618.90	0.00
619.06	0.00
619.21	56.17
619.36	39.79
619.51	58.51
619.67	23.41
619.82	0.00
619.97	0.00
620.12	63.19
620.28	4.68
620.43	0.00
620.58	0.00
620.73	88.94
620.89	25.75
621.04	74.90
621.19	37.45
621.34	102.98
621.49	32.77
621.65	100.64
621.80	30.43
621.95	37.45
622.10	44.47
622.25	77.24
622.41	35.11
622.56	49.15
622.71	0.00
622.86	51.49
623.01	58.51
623.16	0.00
623.32	91.28
623.47	98.30
623.62	30.43
623.77	11.70
623.92	0.00
624.07	32.77
624.23	63.19
624.38	0.00
624.53	51.49
624.68	30.43
624.83	56.17
624.98	63.19
625.13	53.83
625.29	46.81
625.44	2.34
625.59	77.24
625.74	0.00
625.89	21.06
626.04	51.49
626.19	28.09
626.34	72.56
626.49	25.75
626.65	0.00
626.80	0.00
626.95	18.72
627.10	0.00
627.25	25.75
627.40	23.41
627.55	46.81
627.70	74.90
627.85	25.75
628.00	53.83
628.15	79.58
628.30	0.00
628.45	88.94
628.60	77.24
628.76	35.11
628.91	30.43
629.06	0.00
629.21	105.32
629.36	98.30
629.51	70.22
629.66	72.56
629.81	65.54
629.96	0.00
630.11	67.88
630.26	67.88
630.41	23.41
630.56	88.94
630.71	9.36
630.86	18.72
631.01	74.90
631.16	0.00
631.31	79.58
631.46	35.11
631.61	88.94
631.76	44.47
631.91	35.11
632.06	28.09
632.21	14.04
632.36	37.45
632.51	11.70
632.66	25.75
632.81	14.04
632.96	74.90
633.10	32.77
633.25	0.00
633.40	102.98
633.55	30.43
633.70	102.98
633.85	42.13
634.00	32.77
634.15	70.22
634.30	46.81
634.45	37.45
634.60	25.75
634.75	84.26
634.90	58.51
635.05	65.54
635.19	30.43
635.34	0.00
635.49	72.56
635.64	32.77
635.79	70.22
635.94	53.83
636.09	0.00
636.24	9.36
636.39	42.13
636.53	140.43
636.68	18.72
636.83	9.36
636.98	30.43
637.13	9.36
637.28	58.51
637.43	35.11
637.57	16.38
637.72	91.28
637.87	32.77
638.02	0.00
638.17	67.88
638.32	0.00
638.46	28.09
638.61	67.88
638.76	46.81
638.91	14.04
639.06	35.11
639.20	0.00
639.35	0.00
639.50	65.54
639.65	70.22
639.80	37.45
639.94	51.49
640.09	67.88
640.24	25.75
640.39	49.15
640.54	63.19
640.68	117.03
640.83	0.00
640.98	51.49
641.13	51.49
641.27	51.49
641.42	30.43
641.57	49.15
641.72	72.56
641.86	4.68
642.01	28.09
642.16	2.34
642.31	0.00
642.45	37.45
642.60	46.81
642.75	51.49
642.90	119.37
643.04	25.75
643.19	0.00
643.34	2.34
643.48	25.75
643.63	60.85
643.78	2.34
643.93	56.17
644.07	18.72
644.22	14.04
644.37	0.00
644.51	102.98
644.66	0.00
644.81	0.00
644.95	0.00
645.10	46.81
645.25	23.41
645.39	16.38
645.54	93.62
645.69	0.00
645.83	39.79
645.98	25.75
646.13	0.00
646.27	53.83
646.42	0.00
646.57	18.72
646.71	16.38
646.86	30.43
647.00	58.51
647.15	51.49
647.30	32.77
647.44	0.00
647.59	88.94
647.74	32.77
647.88	16.38
648.03	77.24
648.17	0.00
648.32	21.06
648.47	70.22
648.61	16.38
648.76	42.13
648.90	95.96
649.05	44.47
649.20	0.00
649.34	56.17
649.49	93.62
649.63	67.88
649.78	72.56
649.92	11.70
650.07	4.68
650.21	0.00
650.36	58.51
650.51	28.09
650.65	56.17
650.80	32.77
650.94	28.09
651.09	102.98
651.23	16.38
651.38	0.00
651.52	0.00
651.67	42.13
651.81	0.00
651.96	74.90
652.10	77.24
652.25	42.13
652.39	30.43
652.54	37.45
652.68	2.34
652.83	102.98
652.97	35.11
653.12	35.11
653.26	0.00
653.41	42.13
653.55	39.79
653.70	0.00
653.84	65.54
653.99	0.00
654.13	72.56
654.27	93.62
654.42	44.47
654.56	21.06
654.71	56.17
654.85	11.70
655.00	14.04
655.14	42.13
655.29	67.88
655.43	67.88
655.57	32.77
655.72	58.51
655.86	11.70
656.01	0.00
656.15	42.13
656.30	117.03
656.44	70.22
656.58	11.70
656.73	74.90
656.87	0.00
657.01	0.00
657.16	60.85
657.30	32.77
657.45	9.36
657.59	18.72
657.73	86.60
657.88	70.22
658.02	0.00
658.16	2.34
658.31	58.51
658.45	42.13
658.60	11.70
658.74	21.06
658.88	56.17
659.03	18.72
659.17	18.72
659.31	0.00
659.46	14.04
659.60	58.51
659.74	21.06
659.89	28.09
660.03	18.72
660.17	88.94
660.32	21.06
660.46	7.02
660.60	91.28
660.74	65.54
660.89	56.17
661.03	0.00
661.17	4.68
661.32	67.88
661.46	63.19
661.60	86.60
661.74	0.00
661.89	63.19
662.03	42.13
662.17	16.38
662.31	37.45
662.46	7.02
662.60	25.75
662.74	65.54
662.88	58.51
663.03	9.36
663.17	49.15
663.31	18.72
663.45	0.00
663.60	74.90
663.74	63.19
663.88	16.38
664.02	0.00
664.17	37.45
664.31	25.75
664.45	65.54
664.59	53.83
664.73	0.00
664.88	18.72
665.02	65.54
665.16	0.00
665.30	0.00
665.44	23.41
665.59	63.19
665.73	0.00
665.87	30.43
666.01	30.43
666.15	51.49
666.29	4.68
666.44	44.47
666.58	2.34
666.72	44.47
666.86	42.13
667.00	72.56
667.14	0.00
667.28	53.83
667.43	56.17
667.57	25.75
667.71	9.36
667.85	0.00
667.99	0.00
668.13	2.34
668.27	42.13
668.41	0.00
668.56	77.24
668.70	0.00
668.84	11.70
668.98	28.09
669.12	21.06
669.26	30.43
669.40	11.70
669.54	35.11
669.68	56.17
669.82	53.83
669.96	4.68
670.10	14.04
670.25	7.02
670.39	0.00
670.53	0.00
670.67	114.69
670.81	39.79
670.95	56.17
671.09	81.92
671.23	18.72
671.37	70.22
671.51	46.81
671.65	86.60
671.79	30.43
671.93	53.83
672.07	53.83
672.21	37.45
672.35	74.90
672.49	44.47
672.63	119.37
672.77	51.49
672.91	51.49
673.05	44.47
673.19	63.19
673.33	0.00
673.47	81.92
673.61	30.43
673.75	102.98
673.89	35.11
674.03	18.72
674.17	9.36
674.31	39.79
674.45	0.00
674.59	60.85
674.73	23.41
674.87	60.85
675.01	9.36
675.15	124.05
675.29	67.88
675.43	35.11
675.56	42.13
675.70	44.47
675.84	65.54
675.98	0.00
676.12	0.00
676.26	9.36
676.40	74.90
676.54	0.00
676.68	32.77
676.82	16.38
676.96	32.77
677.10	4.68
677.23	11.70
677.37	0.00
677.51	4.68
677.65	14.04
677.79	23.41
677.93	0.00
678.07	84.26
678.21	0.00
678.34	32.77
678.48	32.77
678.62	88.94
678.76	84.26
678.90	23.41
679.04	58.51
679.18	65.54
679.31	23.41
679.45	49.15
679.59	0.00
679.73	39.79
679.87	65.54
680.00	9.36
680.14	58.51
680.28	98.30
680.42	53.83
680.56	0.00
680.70	23.41
680.83	51.49
680.97	28.09
681.11	14.04
681.25	46.81
681.39	14.04
681.52	88.94
681.66	70.22
681.80	14.04
681.94	46.81
682.07	0.00
682.21	67.88
682.35	53.83
682.49	63.19
682.62	0.00
682.76	79.58
682.90	18.72
683.04	65.54
683.17	0.00
683.31	7.02
683.45	79.58
683.59	32.77
683.72	23.41
683.86	0.00
684.00	0.00
684.13	53.83
684.27	42.13
684.41	18.72
684.55	0.00
684.68	25.75
684.82	77.24
684.96	77.24
685.09	16.38
685.23	86.60
685.37	30.43
685.50	0.00
685.64	70.22
685.78	32.77
685.91	28.09
686.05	72.56
686.19	72.56
686.32	21.06
686.46	35.11
686.60	14.04
686.73	0.00
686.87	0.00
687.01	28.09
687.14	53.83
687.28	37.45
687.42	60.85
687.55	0.00
687.69	86.60
687.82	30.43
687.96	14.04
688.10	0.00
688.23	53.83
688.37	14.04
688.50	67.88
688.64	65.54
688.78	35.11
688.91	0.00
689.05	0.00
689.18	79.58
689.32	32.77
689.46	23.41
689.59	44.47
689.73	23.41
689.86	0.00
690.00	21.06
690.13	0.00
690.27	56.17
690.41	51.49
690.54	37.45
690.68	7.02
690.81	53.83
690.95	56.17
691.08	0.00
691.22	0.00
691.35	46.81
691.49	32.77
691.62	91.28
691.76	28.09
691.89	77.24
692.03	0.00
692.16	32.77
692.30	60.85
692.43	65.54
692.57	23.41
692.70	56.17
692.84	16.38
692.97	16.38
693.11	63.19
693.24	65.54
693.38	30.43
693.51	51.49
693.65	0.00
693.78	79.58
693.92	58.51
694.05	42.13
694.19	0.00
694.32	21.06
694.45	98.30
694.59	0.00
694.72	4.68
694.86	70.22
694.99	30.43
695.13	32.77
695.26	0.00
695.39	11.70
695.53	60.85
695.66	21.06
695.80	21.06
695.93	58.51
696.07	0.00
696.20	23.41
696.33	70.22
696.47	39.79
696.60	25.75
696.73	0.00
696.87	44.47
697.00	58.51
697.14	0.00
697.27	37.45
697.40	0.00
697.54	25.75
697.67	25.75
697.80	21.06
697.94	107.66
698.07	37.45
698.21	0.00
698.34	46.81
698.47	49.15
698.61	0.00
698.74	58.51
698.87	77.24
699.01	32.77
699.14	14.04
699.27	74.90
699.40	32.77
699.54	56.17
699.67	0.00
699.80	9.36
699.94	51.49
700.07	14.04
700.20	35.11
700.34	65.54
700.47	25.75
700.60	0.00
700.73	46.81
700.87	14.04
701.00	91.28
701.13	0.00
701.26	14.04
701.40	0.00
701.53	128.73
701.66	72.56
701.79	0.00
701.93	58.51
702.06	44.47
702.19	0.00
702.32	63.19
702.46	63.19
702.59	25.75
702.72	70.22
702.85	23.41
702.99	0.00
703.12	7.02
703.25	0.00
703.38	42.13
703.51	65.54
703.65	51.49
703.78	7.02
703.91	53.83
704.04	46.81
704.17	0.00
704.31	23.41
704.44	0.00
704.57	39.79
704.70	0.00
704.83	53.83
704.96	58.51
705.10	53.83
705.23	0.00
>>>>>End Processed Spectral Data<<<<<
