SpectraSuite Data File
++++++++++++++++++++++++++++++++++++
Date: Fri Oct 04 12:13:36 GMT-05:00 2013
User: price-jones
Dark Spectrum Present: No
Reference Spectrum Present: No
Number of Sampled Component Spectra: 1
Spectrometers: USB2+H05261
Integration Time (usec): 10000 (USB2+H05261)
Spectra Averaged: 1 (USB2+H05261)
Boxcar Smoothing: 0 (USB2+H05261)
Correct for Electrical Dark: No (USB2+H05261)
Strobe/Lamp Enabled: No (USB2+H05261)
Correct for Detector Non-linearity: No (USB2+H05261)
Correct for Stray Light: No (USB2+H05261)
Number of Pixels in Processed Spectrum: 2048
>>>>>Begin Processed Spectral Data<<<<<
365.73	9.36
365.92	9.36
366.12	9.36
366.32	0.00
366.52	0.00
366.72	0.00
366.91	0.00
367.11	0.00
367.31	0.00
367.51	0.00
367.70	0.00
367.90	0.00
368.10	0.00
368.30	0.00
368.49	0.00
368.69	0.00
368.89	0.00
369.09	0.00
369.28	0.00
369.48	0.00
369.68	0.00
369.87	0.00
370.07	0.00
370.27	0.00
370.47	0.00
370.66	0.00
370.86	0.00
371.06	0.00
371.25	0.00
371.45	0.00
371.65	0.00
371.84	0.00
372.04	11.70
372.24	23.41
372.44	2.34
372.63	23.41
372.83	9.36
373.03	44.47
373.22	95.96
373.42	32.77
373.62	28.09
373.81	86.60
374.01	28.09
374.21	84.26
374.40	0.00
374.60	44.47
374.79	60.85
374.99	46.81
375.19	28.09
375.38	32.77
375.58	65.54
375.78	16.38
375.97	0.00
376.17	51.49
376.37	30.43
376.56	98.30
376.76	51.49
376.95	11.70
377.15	51.49
377.35	0.00
377.54	32.77
377.74	74.90
377.93	18.72
378.13	81.92
378.33	32.77
378.52	51.49
378.72	7.02
378.91	0.00
379.11	28.09
379.31	0.00
379.50	0.00
379.70	42.13
379.89	14.04
380.09	0.00
380.28	0.00
380.48	44.47
380.68	49.15
380.87	4.68
381.07	0.00
381.26	46.81
381.46	0.00
381.65	0.00
381.85	63.19
382.04	0.00
382.24	0.00
382.43	35.11
382.63	16.38
382.83	0.00
383.02	18.72
383.22	0.00
383.41	65.54
383.61	0.00
383.80	18.72
384.00	2.34
384.19	0.00
384.39	25.75
384.58	0.00
384.78	0.00
384.97	0.00
385.17	30.43
385.36	51.49
385.56	18.72
385.75	9.36
385.95	16.38
386.14	53.83
386.34	21.06
386.53	56.17
386.72	42.13
386.92	9.36
387.11	0.00
387.31	18.72
387.50	58.51
387.70	0.00
387.89	58.51
388.09	28.09
388.28	23.41
388.48	21.06
388.67	37.45
388.86	14.04
389.06	18.72
389.25	21.06
389.45	0.00
389.64	23.41
389.84	9.36
390.03	18.72
390.22	72.56
390.42	0.00
390.61	67.88
390.81	16.38
391.00	0.00
391.19	18.72
391.39	25.75
391.58	0.00
391.78	23.41
391.97	28.09
392.16	2.34
392.36	42.13
392.55	74.90
392.75	51.49
392.94	2.34
393.13	77.24
393.33	16.38
393.52	0.00
393.71	14.04
393.91	53.83
394.10	18.72
394.29	23.41
394.49	0.00
394.68	42.13
394.88	9.36
395.07	9.36
395.26	7.02
395.46	67.88
395.65	65.54
395.84	0.00
396.04	39.79
396.23	4.68
396.42	0.00
396.62	28.09
396.81	25.75
397.00	18.72
397.19	37.45
397.39	0.00
397.58	0.00
397.77	7.02
397.97	51.49
398.16	35.11
398.35	35.11
398.55	49.15
398.74	49.15
398.93	0.00
399.12	0.00
399.32	114.69
399.51	44.47
399.70	11.70
399.90	28.09
400.09	2.34
400.28	77.24
400.47	35.11
400.67	60.85
400.86	28.09
401.05	44.47
401.24	72.56
401.44	2.34
401.63	72.56
401.82	74.90
402.01	0.00
402.21	28.09
402.40	0.00
402.59	0.00
402.78	23.41
402.97	32.77
403.17	18.72
403.36	0.00
403.55	44.47
403.74	4.68
403.93	0.00
404.13	42.13
404.32	35.11
404.51	53.83
404.70	0.00
404.89	60.85
405.09	16.38
405.28	37.45
405.47	79.58
405.66	70.22
405.85	9.36
406.05	93.62
406.24	35.11
406.43	77.24
406.62	16.38
406.81	0.00
407.00	0.00
407.20	53.83
407.39	100.64
407.58	74.90
407.77	79.58
407.96	0.00
408.15	42.13
408.34	7.02
408.54	37.45
408.73	18.72
408.92	28.09
409.11	7.02
409.30	0.00
409.49	18.72
409.68	16.38
409.87	0.00
410.07	0.00
410.26	0.00
410.45	60.85
410.64	35.11
410.83	21.06
411.02	105.32
411.21	65.54
411.40	37.45
411.59	4.68
411.78	70.22
411.98	44.47
412.17	53.83
412.36	49.15
412.55	63.19
412.74	21.06
412.93	95.96
413.12	46.81
413.31	42.13
413.50	30.43
413.69	25.75
413.88	2.34
414.07	28.09
414.26	0.00
414.45	51.49
414.64	37.45
414.83	51.49
415.02	63.19
415.22	56.17
415.41	4.68
415.60	9.36
415.79	77.24
415.98	46.81
416.17	4.68
416.36	32.77
416.55	35.11
416.74	63.19
416.93	37.45
417.12	0.00
417.31	74.90
417.50	0.00
417.69	72.56
417.88	60.85
418.07	58.51
418.26	44.47
418.45	98.30
418.64	51.49
418.83	32.77
419.02	35.11
419.21	110.01
419.39	0.00
419.58	0.00
419.77	110.01
419.96	21.06
420.15	0.00
420.34	114.69
420.53	79.58
420.72	28.09
420.91	23.41
421.10	39.79
421.29	2.34
421.48	25.75
421.67	58.51
421.86	32.77
422.05	81.92
422.24	0.00
422.43	93.62
422.61	37.45
422.80	11.70
422.99	14.04
423.18	114.69
423.37	53.83
423.56	35.11
423.75	93.62
423.94	93.62
424.13	0.00
424.32	58.51
424.50	16.38
424.69	53.83
424.88	42.13
425.07	25.75
425.26	32.77
425.45	23.41
425.64	49.15
425.83	0.00
426.01	65.54
426.20	65.54
426.39	44.47
426.58	16.38
426.77	98.30
426.96	88.94
427.15	0.00
427.33	88.94
427.52	133.41
427.71	39.79
427.90	86.60
428.09	49.15
428.28	81.92
428.46	39.79
428.65	2.34
428.84	58.51
429.03	65.54
429.22	23.41
429.40	79.58
429.59	18.72
429.78	0.00
429.97	65.54
430.16	0.00
430.34	14.04
430.53	7.02
430.72	60.85
430.91	79.58
431.10	39.79
431.28	86.60
431.47	42.13
431.66	117.03
431.85	37.45
432.03	0.00
432.22	23.41
432.41	42.13
432.60	77.24
432.79	37.45
432.97	42.13
433.16	84.26
433.35	42.13
433.54	0.00
433.72	110.01
433.91	42.13
434.10	42.13
434.28	0.00
434.47	39.79
434.66	16.38
434.85	25.75
435.03	119.37
435.22	18.72
435.41	46.81
435.59	95.96
435.78	16.38
435.97	51.49
436.16	16.38
436.34	0.00
436.53	58.51
436.72	77.24
436.90	9.36
437.09	25.75
437.28	42.13
437.46	16.38
437.65	77.24
437.84	39.79
438.02	107.66
438.21	25.75
438.40	11.70
438.58	37.45
438.77	74.90
438.96	56.17
439.14	0.00
439.33	49.15
439.52	35.11
439.70	32.77
439.89	63.19
440.08	0.00
440.26	74.90
440.45	81.92
440.63	35.11
440.82	0.00
441.01	79.58
441.19	23.41
441.38	60.85
441.57	74.90
441.75	0.00
441.94	84.26
442.12	70.22
442.31	44.47
442.50	46.81
442.68	60.85
442.87	74.90
443.05	98.30
443.24	0.00
443.43	18.72
443.61	30.43
443.80	35.11
443.98	42.13
444.17	28.09
444.35	86.60
444.54	32.77
444.73	32.77
444.91	11.70
445.10	63.19
445.28	105.32
445.47	140.43
445.65	14.04
445.84	86.60
446.02	53.83
446.21	2.34
446.39	81.92
446.58	86.60
446.77	84.26
446.95	0.00
447.14	91.28
447.32	81.92
447.51	88.94
447.69	79.58
447.88	0.00
448.06	35.11
448.25	147.45
448.43	35.11
448.62	37.45
448.80	9.36
448.99	39.79
449.17	16.38
449.36	84.26
449.54	53.83
449.73	0.00
449.91	81.92
450.10	0.00
450.28	63.19
450.46	25.75
450.65	105.32
450.83	63.19
451.02	11.70
451.20	44.47
451.39	7.02
451.57	72.56
451.76	128.73
451.94	28.09
452.13	35.11
452.31	56.17
452.49	37.45
452.68	98.30
452.86	21.06
453.05	93.62
453.23	93.62
453.42	0.00
453.60	107.66
453.78	28.09
453.97	84.26
454.15	98.30
454.34	53.83
454.52	49.15
454.70	14.04
454.89	58.51
455.07	0.00
455.26	53.83
455.44	60.85
455.62	37.45
455.81	37.45
455.99	79.58
456.17	37.45
456.36	63.19
456.54	23.41
456.73	14.04
456.91	74.90
457.09	102.98
457.28	14.04
457.46	72.56
457.64	18.72
457.83	23.41
458.01	58.51
458.19	100.64
458.38	65.54
458.56	4.68
458.74	42.13
458.93	30.43
459.11	74.90
459.29	77.24
459.48	46.81
459.66	72.56
459.84	18.72
460.03	84.26
460.21	74.90
460.39	37.45
460.57	32.77
460.76	77.24
460.94	95.96
461.12	74.90
461.31	56.17
461.49	60.85
461.67	86.60
461.85	37.45
462.04	21.06
462.22	44.47
462.40	30.43
462.59	67.88
462.77	18.72
462.95	77.24
463.13	49.15
463.32	16.38
463.50	58.51
463.68	2.34
463.86	77.24
464.05	77.24
464.23	63.19
464.41	72.56
464.59	30.43
464.78	0.00
464.96	56.17
465.14	51.49
465.32	0.00
465.50	60.85
465.69	102.98
465.87	35.11
466.05	98.30
466.23	51.49
466.41	81.92
466.60	39.79
466.78	79.58
466.96	88.94
467.14	95.96
467.32	58.51
467.51	102.98
467.69	37.45
467.87	35.11
468.05	44.47
468.23	21.06
468.41	23.41
468.60	60.85
468.78	65.54
468.96	9.36
469.14	88.94
469.32	105.32
469.50	35.11
469.69	58.51
469.87	81.92
470.05	67.88
470.23	30.43
470.41	56.17
470.59	39.79
470.77	107.66
470.95	4.68
471.14	84.26
471.32	65.54
471.50	0.00
471.68	0.00
471.86	37.45
472.04	18.72
472.22	37.45
472.40	107.66
472.58	30.43
472.77	39.79
472.95	4.68
473.13	46.81
473.31	58.51
473.49	58.51
473.67	49.15
473.85	58.51
474.03	63.19
474.21	84.26
474.39	77.24
474.57	32.77
474.75	9.36
474.93	81.92
475.12	37.45
475.30	51.49
475.48	42.13
475.66	49.15
475.84	86.60
476.02	93.62
476.20	77.24
476.38	44.47
476.56	72.56
476.74	135.75
476.92	18.72
477.10	21.06
477.28	51.49
477.46	42.13
477.64	65.54
477.82	46.81
478.00	74.90
478.18	58.51
478.36	98.30
478.54	84.26
478.72	32.77
478.90	88.94
479.08	58.51
479.26	86.60
479.44	107.66
479.62	77.24
479.80	112.35
479.98	124.05
480.16	72.56
480.34	23.41
480.52	81.92
480.70	112.35
480.88	25.75
481.06	60.85
481.24	0.00
481.41	28.09
481.59	30.43
481.77	14.04
481.95	77.24
482.13	16.38
482.31	93.62
482.49	105.32
482.67	72.56
482.85	81.92
483.03	2.34
483.21	32.77
483.39	84.26
483.57	138.09
483.74	133.41
483.92	77.24
484.10	86.60
484.28	79.58
484.46	0.00
484.64	65.54
484.82	49.15
485.00	79.58
485.18	0.00
485.35	117.03
485.53	107.66
485.71	100.64
485.89	56.17
486.07	53.83
486.25	93.62
486.43	32.77
486.61	110.01
486.78	105.32
486.96	93.62
487.14	44.47
487.32	30.43
487.50	42.13
487.68	14.04
487.85	138.09
488.03	98.30
488.21	65.54
488.39	98.30
488.57	46.81
488.75	88.94
488.92	91.28
489.10	16.38
489.28	102.98
489.46	53.83
489.64	84.26
489.81	117.03
489.99	77.24
490.17	30.43
490.35	93.62
490.53	18.72
490.70	53.83
490.88	74.90
491.06	74.90
491.24	77.24
491.41	46.81
491.59	4.68
491.77	44.47
491.95	79.58
492.13	63.19
492.30	135.75
492.48	93.62
492.66	98.30
492.84	67.88
493.01	114.69
493.19	21.06
493.37	168.52
493.54	147.45
493.72	70.22
493.90	4.68
494.08	84.26
494.25	74.90
494.43	112.35
494.61	138.09
494.79	91.28
494.96	60.85
495.14	105.32
495.32	117.03
495.49	28.09
495.67	32.77
495.85	60.85
496.02	53.83
496.20	77.24
496.38	86.60
496.55	74.90
496.73	107.66
496.91	81.92
497.09	121.71
497.26	140.43
497.44	95.96
497.62	117.03
497.79	74.90
497.97	133.41
498.14	30.43
498.32	86.60
498.50	0.00
498.67	37.45
498.85	79.58
499.03	18.72
499.20	44.47
499.38	168.52
499.56	88.94
499.73	98.30
499.91	114.69
500.08	81.92
500.26	63.19
500.44	44.47
500.61	81.92
500.79	37.45
500.97	91.28
501.14	154.48
501.32	60.85
501.49	58.51
501.67	173.20
501.84	79.58
502.02	35.11
502.20	100.64
502.37	95.96
502.55	46.81
502.72	9.36
502.90	9.36
503.07	112.35
503.25	70.22
503.43	28.09
503.60	65.54
503.78	91.28
503.95	56.17
504.13	102.98
504.30	51.49
504.48	51.49
504.65	74.90
504.83	117.03
505.01	131.07
505.18	72.56
505.36	74.90
505.53	91.28
505.71	86.60
505.88	124.05
506.06	100.64
506.23	72.56
506.41	152.13
506.58	114.69
506.76	119.37
506.93	16.38
507.11	110.01
507.28	95.96
507.46	53.83
507.63	0.00
507.81	161.50
507.98	60.85
508.16	86.60
508.33	49.15
508.50	74.90
508.68	95.96
508.85	72.56
509.03	88.94
509.20	81.92
509.38	42.13
509.55	18.72
509.73	53.83
509.90	67.88
510.08	81.92
510.25	30.43
510.42	37.45
510.60	16.38
510.77	142.77
510.95	49.15
511.12	121.71
511.30	77.24
511.47	81.92
511.64	105.32
511.82	114.69
511.99	112.35
512.17	110.01
512.34	128.73
512.51	79.58
512.69	98.30
512.86	114.69
513.04	49.15
513.21	88.94
513.38	84.26
513.56	65.54
513.73	18.72
513.90	51.49
514.08	86.60
514.25	117.03
514.43	95.96
514.60	65.54
514.77	117.03
514.95	81.92
515.12	93.62
515.29	67.88
515.47	161.50
515.64	65.54
515.81	119.37
515.99	53.83
516.16	35.11
516.33	42.13
516.51	65.54
516.68	63.19
516.85	51.49
517.03	28.09
517.20	88.94
517.37	114.69
517.54	154.48
517.72	112.35
517.89	121.71
518.06	72.56
518.24	131.07
518.41	98.30
518.58	98.30
518.75	51.49
518.93	46.81
519.10	81.92
519.27	65.54
519.45	30.43
519.62	30.43
519.79	114.69
519.96	121.71
520.14	0.00
520.31	42.13
520.48	121.71
520.65	81.92
520.83	91.28
521.00	88.94
521.17	42.13
521.34	58.51
521.52	119.37
521.69	53.83
521.86	67.88
522.03	49.15
522.20	56.17
522.38	79.58
522.55	93.62
522.72	74.90
522.89	18.72
523.07	77.24
523.24	95.96
523.41	51.49
523.58	70.22
523.75	77.24
523.92	121.71
524.10	77.24
524.27	88.94
524.44	32.77
524.61	58.51
524.78	119.37
524.96	126.39
525.13	72.56
525.30	98.30
525.47	114.69
525.64	124.05
525.81	72.56
525.98	79.58
526.16	119.37
526.33	142.77
526.50	81.92
526.67	79.58
526.84	16.38
527.01	63.19
527.18	119.37
527.36	100.64
527.53	98.30
527.70	114.69
527.87	32.77
528.04	86.60
528.21	117.03
528.38	84.26
528.55	126.39
528.72	107.66
528.89	81.92
529.07	65.54
529.24	105.32
529.41	117.03
529.58	124.05
529.75	114.69
529.92	112.35
530.09	58.51
530.26	37.45
530.43	53.83
530.60	100.64
530.77	93.62
530.94	77.24
531.11	77.24
531.28	114.69
531.46	105.32
531.63	91.28
531.80	58.51
531.97	121.71
532.14	84.26
532.31	135.75
532.48	49.15
532.65	58.51
532.82	114.69
532.99	93.62
533.16	86.60
533.33	86.60
533.50	124.05
533.67	163.84
533.84	100.64
534.01	53.83
534.18	114.69
534.35	128.73
534.52	46.81
534.69	135.75
534.86	152.13
535.03	74.90
535.20	79.58
535.37	133.41
535.54	67.88
535.71	145.11
535.88	128.73
536.05	107.66
536.22	107.66
536.38	60.85
536.55	91.28
536.72	79.58
536.89	53.83
537.06	4.68
537.23	124.05
537.40	135.75
537.57	114.69
537.74	95.96
537.91	98.30
538.08	37.45
538.25	147.45
538.42	88.94
538.59	79.58
538.75	56.17
538.92	53.83
539.09	77.24
539.26	14.04
539.43	102.98
539.60	112.35
539.77	79.58
539.94	72.56
540.11	53.83
540.28	56.17
540.44	173.20
540.61	42.13
540.78	126.39
540.95	105.32
541.12	30.43
541.29	107.66
541.46	95.96
541.62	105.32
541.79	79.58
541.96	100.64
542.13	88.94
542.30	124.05
542.47	88.94
542.63	117.03
542.80	65.54
542.97	145.11
543.14	77.24
543.31	39.79
543.48	63.19
543.64	32.77
543.81	98.30
543.98	128.73
544.15	84.26
544.32	105.32
544.48	70.22
544.65	60.85
544.82	131.07
544.99	161.50
545.16	117.03
545.32	100.64
545.49	16.38
545.66	84.26
545.83	77.24
546.00	77.24
546.16	51.49
546.33	107.66
546.50	124.05
546.67	107.66
546.83	124.05
547.00	53.83
547.17	49.15
547.34	51.49
547.50	56.17
547.67	135.75
547.84	126.39
548.00	46.81
548.17	0.00
548.34	117.03
548.51	72.56
548.67	88.94
548.84	131.07
549.01	42.13
549.18	105.32
549.34	60.85
549.51	100.64
549.68	121.71
549.84	135.75
550.01	46.81
550.18	39.79
550.34	105.32
550.51	77.24
550.68	119.37
550.84	117.03
551.01	49.15
551.18	84.26
551.34	100.64
551.51	102.98
551.68	126.39
551.84	119.37
552.01	63.19
552.18	81.92
552.34	70.22
552.51	53.83
552.68	98.30
552.84	39.79
553.01	67.88
553.18	79.58
553.34	39.79
553.51	65.54
553.67	65.54
553.84	105.32
554.01	124.05
554.17	0.00
554.34	25.75
554.51	51.49
554.67	39.79
554.84	42.13
555.00	58.51
555.17	35.11
555.33	86.60
555.50	119.37
555.67	133.41
555.83	105.32
556.00	63.19
556.16	117.03
556.33	65.54
556.50	23.41
556.66	107.66
556.83	105.32
556.99	126.39
557.16	95.96
557.32	37.45
557.49	107.66
557.65	131.07
557.82	65.54
557.98	102.98
558.15	37.45
558.32	126.39
558.48	2.34
558.65	105.32
558.81	88.94
558.98	65.54
559.14	72.56
559.31	65.54
559.47	58.51
559.64	58.51
559.80	32.77
559.97	51.49
560.13	77.24
560.30	126.39
560.46	11.70
560.63	67.88
560.79	58.51
560.96	81.92
561.12	72.56
561.29	0.00
561.45	51.49
561.61	86.60
561.78	30.43
561.94	4.68
562.11	112.35
562.27	53.83
562.44	37.45
562.60	16.38
562.77	42.13
562.93	95.96
563.10	79.58
563.26	35.11
563.42	37.45
563.59	56.17
563.75	74.90
563.92	114.69
564.08	79.58
564.24	114.69
564.41	32.77
564.57	161.50
564.74	44.47
564.90	86.60
565.07	119.37
565.23	14.04
565.39	63.19
565.56	140.43
565.72	93.62
565.88	51.49
566.05	117.03
566.21	110.01
566.38	70.22
566.54	81.92
566.70	65.54
566.87	84.26
567.03	98.30
567.19	105.32
567.36	60.85
567.52	81.92
567.68	63.19
567.85	44.47
568.01	39.79
568.17	32.77
568.34	98.30
568.50	42.13
568.66	21.06
568.83	56.17
568.99	60.85
569.15	56.17
569.32	63.19
569.48	84.26
569.64	56.17
569.81	56.17
569.97	112.35
570.13	65.54
570.30	105.32
570.46	100.64
570.62	98.30
570.78	100.64
570.95	95.96
571.11	100.64
571.27	119.37
571.43	154.48
571.60	18.72
571.76	67.88
571.92	121.71
572.09	67.88
572.25	91.28
572.41	138.09
572.57	79.58
572.74	60.85
572.90	133.41
573.06	114.69
573.22	42.13
573.38	72.56
573.55	65.54
573.71	110.01
573.87	23.41
574.03	121.71
574.20	70.22
574.36	58.51
574.52	105.32
574.68	63.19
574.84	133.41
575.01	121.71
575.17	67.88
575.33	128.73
575.49	117.03
575.65	65.54
575.82	88.94
575.98	102.98
576.14	77.24
576.30	110.01
576.46	84.26
576.62	74.90
576.79	105.32
576.95	0.00
577.11	60.85
577.27	58.51
577.43	49.15
577.59	39.79
577.75	60.85
577.92	14.04
578.08	67.88
578.24	56.17
578.40	81.92
578.56	84.26
578.72	119.37
578.88	110.01
579.04	117.03
579.21	60.85
579.37	67.88
579.53	72.56
579.69	95.96
579.85	0.00
580.01	91.28
580.17	53.83
580.33	70.22
580.49	149.79
580.65	114.69
580.82	11.70
580.98	25.75
581.14	175.54
581.30	79.58
581.46	119.37
581.62	93.62
581.78	14.04
581.94	65.54
582.10	95.96
582.26	91.28
582.42	98.30
582.58	114.69
582.74	30.43
582.90	11.70
583.06	93.62
583.22	112.35
583.38	70.22
583.54	67.88
583.70	18.72
583.86	39.79
584.02	16.38
584.18	35.11
584.34	51.49
584.50	14.04
584.66	107.66
584.82	44.47
584.98	60.85
585.14	28.09
585.30	49.15
585.46	84.26
585.62	117.03
585.78	21.06
585.94	21.06
586.10	30.43
586.26	81.92
586.42	16.38
586.58	39.79
586.74	126.39
586.90	63.19
587.06	30.43
587.22	114.69
587.38	84.26
587.54	14.04
587.70	65.54
587.86	0.00
588.02	81.92
588.18	72.56
588.34	67.88
588.49	0.00
588.65	37.45
588.81	2.34
588.97	86.60
589.13	65.54
589.29	11.70
589.45	7.02
589.61	63.19
589.77	112.35
589.93	93.62
590.08	156.82
590.24	58.51
590.40	65.54
590.56	95.96
590.72	93.62
590.88	53.83
591.04	110.01
591.20	42.13
591.35	30.43
591.51	14.04
591.67	0.00
591.83	63.19
591.99	142.77
592.15	67.88
592.31	135.75
592.46	51.49
592.62	112.35
592.78	65.54
592.94	28.09
593.10	81.92
593.26	84.26
593.41	91.28
593.57	37.45
593.73	67.88
593.89	74.90
594.05	44.47
594.20	9.36
594.36	131.07
594.52	124.05
594.68	37.45
594.84	86.60
594.99	44.47
595.15	30.43
595.31	0.00
595.47	37.45
595.62	23.41
595.78	56.17
595.94	65.54
596.10	135.75
596.25	37.45
596.41	44.47
596.57	14.04
596.73	72.56
596.88	128.73
597.04	39.79
597.20	0.00
597.36	70.22
597.51	49.15
597.67	117.03
597.83	2.34
597.99	114.69
598.14	91.28
598.30	37.45
598.46	114.69
598.61	79.58
598.77	53.83
598.93	16.38
599.09	84.26
599.24	72.56
599.40	110.01
599.56	63.19
599.71	72.56
599.87	140.43
600.03	102.98
600.18	0.00
600.34	56.17
600.50	105.32
600.65	56.17
600.81	81.92
600.97	161.50
601.12	65.54
601.28	72.56
601.44	117.03
601.59	58.51
601.75	119.37
601.91	23.41
602.06	84.26
602.22	124.05
602.37	95.96
602.53	91.28
602.69	81.92
602.84	79.58
603.00	65.54
603.16	100.64
603.31	107.66
603.47	42.13
603.62	67.88
603.78	98.30
603.94	77.24
604.09	70.22
604.25	53.83
604.40	70.22
604.56	39.79
604.71	107.66
604.87	65.54
605.03	91.28
605.18	79.58
605.34	95.96
605.49	102.98
605.65	133.41
605.80	133.41
605.96	46.81
606.12	74.90
606.27	72.56
606.43	25.75
606.58	79.58
606.74	28.09
606.89	86.60
607.05	49.15
607.20	28.09
607.36	124.05
607.51	124.05
607.67	79.58
607.82	39.79
607.98	74.90
608.13	63.19
608.29	81.92
608.44	56.17
608.60	0.00
608.75	32.77
608.91	86.60
609.06	154.48
609.22	67.88
609.37	81.92
609.53	56.17
609.68	58.51
609.84	121.71
609.99	74.90
610.15	0.00
610.30	46.81
610.46	14.04
610.61	53.83
610.76	65.54
610.92	102.98
611.07	65.54
611.23	70.22
611.38	93.62
611.54	16.38
611.69	49.15
611.84	114.69
612.00	102.98
612.15	112.35
612.31	65.54
612.46	77.24
612.62	53.83
612.77	28.09
612.92	93.62
613.08	102.98
613.23	102.98
613.39	37.45
613.54	42.13
613.69	21.06
613.85	2.34
614.00	72.56
614.15	51.49
614.31	14.04
614.46	77.24
614.62	84.26
614.77	117.03
614.92	42.13
615.08	77.24
615.23	21.06
615.38	77.24
615.54	56.17
615.69	46.81
615.84	81.92
616.00	81.92
616.15	2.34
616.30	11.70
616.46	46.81
616.61	37.45
616.76	81.92
616.92	65.54
617.07	86.60
617.22	0.00
617.37	53.83
617.53	112.35
617.68	25.75
617.83	65.54
617.99	88.94
618.14	37.45
618.29	124.05
618.45	95.96
618.60	128.73
618.75	46.81
618.90	28.09
619.06	67.88
619.21	37.45
619.36	39.79
619.51	102.98
619.67	84.26
619.82	121.71
619.97	53.83
620.12	65.54
620.28	53.83
620.43	88.94
620.58	37.45
620.73	70.22
620.89	65.54
621.04	44.47
621.19	67.88
621.34	37.45
621.49	102.98
621.65	46.81
621.80	58.51
621.95	0.00
622.10	16.38
622.25	63.19
622.41	74.90
622.56	21.06
622.71	46.81
622.86	74.90
623.01	23.41
623.16	46.81
623.32	86.60
623.47	21.06
623.62	0.00
623.77	44.47
623.92	0.00
624.07	58.51
624.23	95.96
624.38	86.60
624.53	51.49
624.68	49.15
624.83	102.98
624.98	105.32
625.13	35.11
625.29	14.04
625.44	46.81
625.59	18.72
625.74	63.19
625.89	7.02
626.04	42.13
626.19	51.49
626.34	74.90
626.49	65.54
626.65	58.51
626.80	11.70
626.95	9.36
627.10	77.24
627.25	9.36
627.40	81.92
627.55	124.05
627.70	70.22
627.85	32.77
628.00	105.32
628.15	46.81
628.30	0.00
628.45	56.17
628.60	11.70
628.76	166.18
628.91	72.56
629.06	51.49
629.21	114.69
629.36	84.26
629.51	95.96
629.66	102.98
629.81	0.00
629.96	0.00
630.11	58.51
630.26	95.96
630.41	56.17
630.56	0.00
630.71	0.00
630.86	70.22
631.01	60.85
631.16	58.51
631.31	39.79
631.46	42.13
631.61	0.00
631.76	35.11
631.91	32.77
632.06	28.09
632.21	86.60
632.36	138.09
632.51	56.17
632.66	70.22
632.81	105.32
632.96	23.41
633.10	11.70
633.25	63.19
633.40	37.45
633.55	65.54
633.70	25.75
633.85	37.45
634.00	72.56
634.15	9.36
634.30	0.00
634.45	18.72
634.60	28.09
634.75	46.81
634.90	28.09
635.05	4.68
635.19	25.75
635.34	79.58
635.49	86.60
635.64	30.43
635.79	88.94
635.94	37.45
636.09	16.38
636.24	51.49
636.39	44.47
636.53	86.60
636.68	18.72
636.83	23.41
636.98	93.62
637.13	81.92
637.28	37.45
637.43	91.28
637.57	138.09
637.72	9.36
637.87	42.13
638.02	107.66
638.17	93.62
638.32	88.94
638.46	7.02
638.61	51.49
638.76	16.38
638.91	16.38
639.06	79.58
639.20	95.96
639.35	56.17
639.50	42.13
639.65	46.81
639.80	4.68
639.94	58.51
640.09	147.45
640.24	35.11
640.39	121.71
640.54	25.75
640.68	100.64
640.83	53.83
640.98	7.02
641.13	35.11
641.27	65.54
641.42	60.85
641.57	46.81
641.72	37.45
641.86	60.85
642.01	18.72
642.16	58.51
642.31	42.13
642.45	37.45
642.60	42.13
642.75	77.24
642.90	107.66
643.04	79.58
643.19	0.00
643.34	35.11
643.48	35.11
643.63	0.00
643.78	30.43
643.93	2.34
644.07	49.15
644.22	67.88
644.37	74.90
644.51	53.83
644.66	77.24
644.81	53.83
644.95	37.45
645.10	42.13
645.25	35.11
645.39	56.17
645.54	74.90
645.69	28.09
645.83	72.56
645.98	28.09
646.13	63.19
646.27	37.45
646.42	72.56
646.57	49.15
646.71	0.00
646.86	0.00
647.00	16.38
647.15	0.00
647.30	23.41
647.44	56.17
647.59	63.19
647.74	70.22
647.88	51.49
648.03	49.15
648.17	39.79
648.32	0.00
648.47	91.28
648.61	72.56
648.76	21.06
648.90	56.17
649.05	30.43
649.20	4.68
649.34	58.51
649.49	23.41
649.63	46.81
649.78	121.71
649.92	81.92
650.07	39.79
650.21	58.51
650.36	77.24
650.51	79.58
650.65	56.17
650.80	44.47
650.94	56.17
651.09	2.34
651.23	0.00
651.38	30.43
651.52	95.96
651.67	18.72
651.81	42.13
651.96	98.30
652.10	32.77
652.25	77.24
652.39	79.58
652.54	51.49
652.68	39.79
652.83	37.45
652.97	63.19
653.12	44.47
653.26	18.72
653.41	46.81
653.55	126.39
653.70	74.90
653.84	102.98
653.99	102.98
654.13	86.60
654.27	28.09
654.42	0.00
654.56	16.38
654.71	79.58
654.85	32.77
655.00	25.75
655.14	42.13
655.29	0.00
655.43	72.56
655.57	7.02
655.72	39.79
655.86	49.15
656.01	39.79
656.15	0.00
656.30	112.35
656.44	21.06
656.58	56.17
656.73	32.77
656.87	28.09
657.01	93.62
657.16	67.88
657.30	53.83
657.45	35.11
657.59	56.17
657.73	107.66
657.88	7.02
658.02	93.62
658.16	95.96
658.31	30.43
658.45	46.81
658.60	53.83
658.74	65.54
658.88	4.68
659.03	39.79
659.17	0.00
659.31	51.49
659.46	84.26
659.60	11.70
659.74	49.15
659.89	74.90
660.03	77.24
660.17	25.75
660.32	67.88
660.46	14.04
660.60	105.32
660.74	95.96
660.89	88.94
661.03	0.00
661.17	74.90
661.32	86.60
661.46	77.24
661.60	35.11
661.74	0.00
661.89	11.70
662.03	102.98
662.17	0.00
662.31	49.15
662.46	18.72
662.60	77.24
662.74	107.66
662.88	16.38
663.03	0.00
663.17	74.90
663.31	0.00
663.45	53.83
663.60	77.24
663.74	100.64
663.88	9.36
664.02	7.02
664.17	70.22
664.31	35.11
664.45	25.75
664.59	74.90
664.73	51.49
664.88	56.17
665.02	49.15
665.16	35.11
665.30	105.32
665.44	56.17
665.59	53.83
665.73	23.41
665.87	16.38
666.01	63.19
666.15	32.77
666.29	28.09
666.44	100.64
666.58	60.85
666.72	88.94
666.86	81.92
667.00	98.30
667.14	88.94
667.28	53.83
667.43	16.38
667.57	58.51
667.71	9.36
667.85	39.79
667.99	39.79
668.13	18.72
668.27	11.70
668.41	58.51
668.56	110.01
668.70	42.13
668.84	16.38
668.98	46.81
669.12	67.88
669.26	95.96
669.40	23.41
669.54	93.62
669.68	58.51
669.82	51.49
669.96	14.04
670.10	86.60
670.25	21.06
670.39	23.41
670.53	18.72
670.67	44.47
670.81	79.58
670.95	56.17
671.09	102.98
671.23	44.47
671.37	0.00
671.51	126.39
671.65	110.01
671.79	18.72
671.93	51.49
672.07	0.00
672.21	28.09
672.35	173.20
672.49	23.41
672.63	25.75
672.77	100.64
672.91	0.00
673.05	67.88
673.19	60.85
673.33	44.47
673.47	42.13
673.61	49.15
673.75	72.56
673.89	0.00
674.03	100.64
674.17	21.06
674.31	95.96
674.45	77.24
674.59	79.58
674.73	88.94
674.87	93.62
675.01	128.73
675.15	37.45
675.29	32.77
675.43	98.30
675.56	70.22
675.70	21.06
675.84	35.11
675.98	35.11
676.12	4.68
676.26	42.13
676.40	60.85
676.54	70.22
676.68	86.60
676.82	0.00
676.96	88.94
677.10	49.15
677.23	65.54
677.37	49.15
677.51	0.00
677.65	93.62
677.79	32.77
677.93	0.00
678.07	49.15
678.21	35.11
678.34	51.49
678.48	88.94
678.62	70.22
678.76	0.00
678.90	37.45
679.04	100.64
679.18	30.43
679.31	65.54
679.45	39.79
679.59	49.15
679.73	53.83
679.87	4.68
680.00	16.38
680.14	2.34
680.28	16.38
680.42	35.11
680.56	37.45
680.70	35.11
680.83	117.03
680.97	9.36
681.11	9.36
681.25	49.15
681.39	84.26
681.52	11.70
681.66	67.88
681.80	56.17
681.94	0.00
682.07	63.19
682.21	49.15
682.35	4.68
682.49	30.43
682.62	18.72
682.76	44.47
682.90	37.45
683.04	39.79
683.17	0.00
683.31	93.62
683.45	74.90
683.59	23.41
683.72	74.90
683.86	70.22
684.00	0.00
684.13	32.77
684.27	9.36
684.41	0.00
684.55	0.00
684.68	11.70
684.82	35.11
684.96	44.47
685.09	107.66
685.23	18.72
685.37	74.90
685.50	7.02
685.64	42.13
685.78	11.70
685.91	32.77
686.05	121.71
686.19	9.36
686.32	63.19
686.46	9.36
686.60	56.17
686.73	100.64
686.87	53.83
687.01	65.54
687.14	11.70
687.28	56.17
687.42	63.19
687.55	0.00
687.69	7.02
687.82	0.00
687.96	56.17
688.10	49.15
688.23	63.19
688.37	63.19
688.50	67.88
688.64	95.96
688.78	49.15
688.91	114.69
689.05	0.00
689.18	7.02
689.32	35.11
689.46	23.41
689.59	100.64
689.73	51.49
689.86	2.34
690.00	86.60
690.13	18.72
690.27	0.00
690.41	11.70
690.54	70.22
690.68	95.96
690.81	105.32
690.95	39.79
691.08	35.11
691.22	21.06
691.35	88.94
691.49	2.34
691.62	39.79
691.76	23.41
691.89	32.77
692.03	28.09
692.16	9.36
692.30	88.94
692.43	95.96
692.57	23.41
692.70	65.54
692.84	65.54
692.97	32.77
693.11	124.05
693.24	7.02
693.38	114.69
693.51	35.11
693.65	4.68
693.78	0.00
693.92	9.36
694.05	39.79
694.19	70.22
694.32	39.79
694.45	32.77
694.59	35.11
694.72	79.58
694.86	42.13
694.99	0.00
695.13	11.70
695.26	44.47
695.39	81.92
695.53	37.45
695.66	4.68
695.80	23.41
695.93	65.54
696.07	107.66
696.20	95.96
696.33	0.00
696.47	60.85
696.60	25.75
696.73	60.85
696.87	14.04
697.00	70.22
697.14	0.00
697.27	0.00
697.40	0.00
697.54	60.85
697.67	42.13
697.80	9.36
697.94	0.00
698.07	30.43
698.21	4.68
698.34	95.96
698.47	53.83
698.61	98.30
698.74	0.00
698.87	65.54
699.01	93.62
699.14	37.45
699.27	70.22
699.40	7.02
699.54	21.06
699.67	25.75
699.80	0.00
699.94	51.49
700.07	42.13
700.20	7.02
700.34	51.49
700.47	0.00
700.60	0.00
700.73	49.15
700.87	0.00
701.00	32.77
701.13	74.90
701.26	67.88
701.40	98.30
701.53	18.72
701.66	63.19
701.79	0.00
701.93	86.60
702.06	0.00
702.19	0.00
702.32	25.75
702.46	0.00
702.59	0.00
702.72	70.22
702.85	0.00
702.99	2.34
703.12	23.41
703.25	18.72
703.38	11.70
703.51	28.09
703.65	0.00
703.78	30.43
703.91	63.19
704.04	58.51
704.17	86.60
704.31	28.09
704.44	44.47
704.57	56.17
704.70	30.43
704.83	9.36
704.96	67.88
705.10	49.15
705.23	39.79
>>>>>End Processed Spectral Data<<<<<
