SpectraSuite Data File
++++++++++++++++++++++++++++++++++++
Date: Fri Oct 04 12:13:45 GMT-05:00 2013
User: price-jones
Dark Spectrum Present: No
Reference Spectrum Present: No
Number of Sampled Component Spectra: 1
Spectrometers: USB2+H05261
Integration Time (usec): 10000 (USB2+H05261)
Spectra Averaged: 1 (USB2+H05261)
Boxcar Smoothing: 0 (USB2+H05261)
Correct for Electrical Dark: No (USB2+H05261)
Strobe/Lamp Enabled: No (USB2+H05261)
Correct for Detector Non-linearity: No (USB2+H05261)
Correct for Stray Light: No (USB2+H05261)
Number of Pixels in Processed Spectrum: 2048
>>>>>Begin Processed Spectral Data<<<<<
365.73	18.72
365.92	18.72
366.12	18.72
366.32	0.00
366.52	0.00
366.72	0.00
366.91	0.00
367.11	0.00
367.31	0.00
367.51	0.00
367.70	0.00
367.90	0.00
368.10	0.00
368.30	0.00
368.49	0.00
368.69	0.00
368.89	0.00
369.09	0.00
369.28	0.00
369.48	0.00
369.68	0.00
369.87	0.00
370.07	0.00
370.27	0.00
370.47	0.00
370.66	0.00
370.86	0.00
371.06	2.34
371.25	0.00
371.45	0.00
371.65	0.00
371.84	0.00
372.04	18.72
372.24	7.02
372.44	49.15
372.63	14.04
372.83	37.45
373.03	0.00
373.22	67.88
373.42	0.00
373.62	44.47
373.81	51.49
374.01	4.68
374.21	91.28
374.40	74.90
374.60	60.85
374.79	65.54
374.99	65.54
375.19	79.58
375.38	65.54
375.58	11.70
375.78	0.00
375.97	67.88
376.17	114.69
376.37	42.13
376.56	35.11
376.76	0.00
376.95	53.83
377.15	84.26
377.35	0.00
377.54	23.41
377.74	67.88
377.93	93.62
378.13	0.00
378.33	42.13
378.52	70.22
378.72	0.00
378.91	0.00
379.11	42.13
379.31	0.00
379.50	72.56
379.70	18.72
379.89	0.00
380.09	23.41
380.28	25.75
380.48	35.11
380.68	25.75
380.87	79.58
381.07	0.00
381.26	25.75
381.46	2.34
381.65	0.00
381.85	0.00
382.04	37.45
382.24	0.00
382.43	18.72
382.63	18.72
382.83	0.00
383.02	4.68
383.22	0.00
383.41	2.34
383.61	0.00
383.80	0.00
384.00	25.75
384.19	30.43
384.39	9.36
384.58	72.56
384.78	0.00
384.97	0.00
385.17	39.79
385.36	51.49
385.56	0.00
385.75	0.00
385.95	0.00
386.14	0.00
386.34	0.00
386.53	14.04
386.72	0.00
386.92	0.00
387.11	4.68
387.31	23.41
387.50	18.72
387.70	28.09
387.89	9.36
388.09	14.04
388.28	81.92
388.48	53.83
388.67	2.34
388.86	28.09
389.06	23.41
389.25	49.15
389.45	53.83
389.64	0.00
389.84	9.36
390.03	0.00
390.22	0.00
390.42	0.00
390.61	14.04
390.81	53.83
391.00	0.00
391.19	81.92
391.39	0.00
391.58	0.00
391.78	2.34
391.97	51.49
392.16	0.00
392.36	46.81
392.55	11.70
392.75	21.06
392.94	4.68
393.13	39.79
393.33	72.56
393.52	93.62
393.71	9.36
393.91	56.17
394.10	0.00
394.29	0.00
394.49	0.00
394.68	7.02
394.88	4.68
395.07	93.62
395.26	121.71
395.46	60.85
395.65	84.26
395.84	74.90
396.04	37.45
396.23	0.00
396.42	0.00
396.62	18.72
396.81	0.00
397.00	25.75
397.19	28.09
397.39	93.62
397.58	72.56
397.77	9.36
397.97	21.06
398.16	18.72
398.35	32.77
398.55	72.56
398.74	0.00
398.93	72.56
399.12	14.04
399.32	0.00
399.51	9.36
399.70	0.00
399.90	39.79
400.09	30.43
400.28	25.75
400.47	0.00
400.67	23.41
400.86	32.77
401.05	42.13
401.24	11.70
401.44	30.43
401.63	93.62
401.82	88.94
402.01	30.43
402.21	74.90
402.40	0.00
402.59	30.43
402.78	4.68
402.97	11.70
403.17	32.77
403.36	4.68
403.55	18.72
403.74	44.47
403.93	44.47
404.13	9.36
404.32	0.00
404.51	18.72
404.70	0.00
404.89	86.60
405.09	37.45
405.28	60.85
405.47	0.00
405.66	0.00
405.85	23.41
406.05	30.43
406.24	77.24
406.43	0.00
406.62	18.72
406.81	81.92
407.00	56.17
407.20	44.47
407.39	16.38
407.58	79.58
407.77	74.90
407.96	53.83
408.15	23.41
408.34	77.24
408.54	16.38
408.73	0.00
408.92	0.00
409.11	0.00
409.30	28.09
409.49	67.88
409.68	0.00
409.87	79.58
410.07	4.68
410.26	53.83
410.45	0.00
410.64	30.43
410.83	28.09
411.02	0.00
411.21	0.00
411.40	58.51
411.59	0.00
411.78	28.09
411.98	21.06
412.17	18.72
412.36	0.00
412.55	84.26
412.74	0.00
412.93	0.00
413.12	0.00
413.31	39.79
413.50	28.09
413.69	60.85
413.88	18.72
414.07	0.00
414.26	51.49
414.45	23.41
414.64	58.51
414.83	32.77
415.02	0.00
415.22	46.81
415.41	56.17
415.60	58.51
415.79	39.79
415.98	0.00
416.17	21.06
416.36	23.41
416.55	35.11
416.74	14.04
416.93	2.34
417.12	30.43
417.31	84.26
417.50	49.15
417.69	37.45
417.88	16.38
418.07	77.24
418.26	42.13
418.45	30.43
418.64	74.90
418.83	39.79
419.02	42.13
419.21	39.79
419.39	0.00
419.58	60.85
419.77	65.54
419.96	18.72
420.15	0.00
420.34	0.00
420.53	30.43
420.72	28.09
420.91	72.56
421.10	56.17
421.29	0.00
421.48	77.24
421.67	32.77
421.86	42.13
422.05	11.70
422.24	0.00
422.43	35.11
422.61	9.36
422.80	0.00
422.99	0.00
423.18	49.15
423.37	42.13
423.56	46.81
423.75	7.02
423.94	0.00
424.13	0.00
424.32	0.00
424.50	9.36
424.69	60.85
424.88	21.06
425.07	42.13
425.26	0.00
425.45	39.79
425.64	9.36
425.83	74.90
426.01	37.45
426.20	9.36
426.39	35.11
426.58	49.15
426.77	67.88
426.96	51.49
427.15	30.43
427.33	39.79
427.52	70.22
427.71	70.22
427.90	86.60
428.09	51.49
428.28	81.92
428.46	35.11
428.65	81.92
428.84	4.68
429.03	70.22
429.22	100.64
429.40	0.00
429.59	39.79
429.78	23.41
429.97	32.77
430.16	39.79
430.34	30.43
430.53	42.13
430.72	28.09
430.91	93.62
431.10	84.26
431.28	88.94
431.47	0.00
431.66	4.68
431.85	53.83
432.03	53.83
432.22	0.00
432.41	58.51
432.60	0.00
432.79	30.43
432.97	88.94
433.16	39.79
433.35	39.79
433.54	72.56
433.72	60.85
433.91	0.00
434.10	56.17
434.28	37.45
434.47	18.72
434.66	0.00
434.85	39.79
435.03	107.66
435.22	105.32
435.41	2.34
435.59	0.00
435.78	51.49
435.97	102.98
436.16	56.17
436.34	44.47
436.53	0.00
436.72	86.60
436.90	4.68
437.09	86.60
437.28	58.51
437.46	21.06
437.65	0.00
437.84	9.36
438.02	4.68
438.21	16.38
438.40	23.41
438.58	0.00
438.77	95.96
438.96	63.19
439.14	74.90
439.33	23.41
439.52	67.88
439.70	51.49
439.89	14.04
440.08	95.96
440.26	72.56
440.45	23.41
440.63	0.00
440.82	67.88
441.01	0.00
441.19	25.75
441.38	30.43
441.57	147.45
441.75	23.41
441.94	0.00
442.12	81.92
442.31	0.00
442.50	0.00
442.68	84.26
442.87	25.75
443.05	121.71
443.24	51.49
443.43	0.00
443.61	102.98
443.80	16.38
443.98	0.00
444.17	51.49
444.35	37.45
444.54	81.92
444.73	21.06
444.91	79.58
445.10	28.09
445.28	0.00
445.47	0.00
445.65	42.13
445.84	14.04
446.02	67.88
446.21	16.38
446.39	25.75
446.58	98.30
446.77	35.11
446.95	30.43
447.14	0.00
447.32	16.38
447.51	35.11
447.69	2.34
447.88	0.00
448.06	107.66
448.25	67.88
448.43	7.02
448.62	56.17
448.80	72.56
448.99	42.13
449.17	93.62
449.36	25.75
449.54	0.00
449.73	0.00
449.91	0.00
450.10	30.43
450.28	2.34
450.46	56.17
450.65	72.56
450.83	105.32
451.02	72.56
451.20	42.13
451.39	4.68
451.57	74.90
451.76	0.00
451.94	37.45
452.13	0.00
452.31	77.24
452.49	35.11
452.68	119.37
452.86	28.09
453.05	42.13
453.23	53.83
453.42	42.13
453.60	49.15
453.78	0.00
453.97	46.81
454.15	39.79
454.34	0.00
454.52	21.06
454.70	0.00
454.89	0.00
455.07	18.72
455.26	25.75
455.44	30.43
455.62	0.00
455.81	60.85
455.99	25.75
456.17	0.00
456.36	28.09
456.54	56.17
456.73	35.11
456.91	70.22
457.09	60.85
457.28	84.26
457.46	42.13
457.64	21.06
457.83	74.90
458.01	4.68
458.19	46.81
458.38	21.06
458.56	25.75
458.74	53.83
458.93	0.00
459.11	28.09
459.29	37.45
459.48	18.72
459.66	23.41
459.84	0.00
460.03	0.00
460.21	14.04
460.39	30.43
460.57	9.36
460.76	11.70
460.94	14.04
461.12	72.56
461.31	11.70
461.49	67.88
461.67	9.36
461.85	16.38
462.04	0.00
462.22	110.01
462.40	2.34
462.59	28.09
462.77	79.58
462.95	60.85
463.13	56.17
463.32	67.88
463.50	77.24
463.68	65.54
463.86	72.56
464.05	53.83
464.23	25.75
464.41	37.45
464.59	35.11
464.78	74.90
464.96	0.00
465.14	39.79
465.32	32.77
465.50	60.85
465.69	102.98
465.87	44.47
466.05	32.77
466.23	46.81
466.41	0.00
466.60	32.77
466.78	65.54
466.96	11.70
467.14	46.81
467.32	0.00
467.51	0.00
467.69	84.26
467.87	2.34
468.05	0.00
468.23	86.60
468.41	9.36
468.60	79.58
468.78	32.77
468.96	46.81
469.14	28.09
469.32	74.90
469.50	0.00
469.69	70.22
469.87	60.85
470.05	72.56
470.23	63.19
470.41	0.00
470.59	74.90
470.77	0.00
470.95	53.83
471.14	81.92
471.32	77.24
471.50	46.81
471.68	81.92
471.86	35.11
472.04	2.34
472.22	16.38
472.40	0.00
472.58	9.36
472.77	28.09
472.95	51.49
473.13	25.75
473.31	112.35
473.49	0.00
473.67	32.77
473.85	67.88
474.03	44.47
474.21	0.00
474.39	49.15
474.57	30.43
474.75	44.47
474.93	37.45
475.12	37.45
475.30	0.00
475.48	67.88
475.66	25.75
475.84	37.45
476.02	42.13
476.20	32.77
476.38	9.36
476.56	21.06
476.74	39.79
476.92	51.49
477.10	25.75
477.28	91.28
477.46	70.22
477.64	79.58
477.82	58.51
478.00	46.81
478.18	58.51
478.36	39.79
478.54	0.00
478.72	0.00
478.90	72.56
479.08	37.45
479.26	35.11
479.44	65.54
479.62	2.34
479.80	0.00
479.98	42.13
480.16	46.81
480.34	44.47
480.52	63.19
480.70	86.60
480.88	0.00
481.06	60.85
481.24	37.45
481.41	110.01
481.59	105.32
481.77	9.36
481.95	0.00
482.13	0.00
482.31	18.72
482.49	23.41
482.67	11.70
482.85	81.92
483.03	32.77
483.21	21.06
483.39	0.00
483.57	35.11
483.74	11.70
483.92	107.66
484.10	0.00
484.28	79.58
484.46	63.19
484.64	18.72
484.82	0.00
485.00	93.62
485.18	32.77
485.35	112.35
485.53	84.26
485.71	0.00
485.89	53.83
486.07	72.56
486.25	42.13
486.43	4.68
486.61	0.00
486.78	7.02
486.96	18.72
487.14	88.94
487.32	30.43
487.50	25.75
487.68	28.09
487.85	21.06
488.03	67.88
488.21	0.00
488.39	53.83
488.57	95.96
488.75	60.85
488.92	32.77
489.10	11.70
489.28	49.15
489.46	46.81
489.64	14.04
489.81	14.04
489.99	16.38
490.17	23.41
490.35	72.56
490.53	4.68
490.70	58.51
490.88	4.68
491.06	53.83
491.24	11.70
491.41	63.19
491.59	84.26
491.77	110.01
491.95	2.34
492.13	0.00
492.30	37.45
492.48	51.49
492.66	0.00
492.84	0.00
493.01	32.77
493.19	60.85
493.37	9.36
493.54	95.96
493.72	23.41
493.90	44.47
494.08	14.04
494.25	23.41
494.43	126.39
494.61	28.09
494.79	81.92
494.96	39.79
495.14	0.00
495.32	81.92
495.49	67.88
495.67	9.36
495.85	53.83
496.02	102.98
496.20	39.79
496.38	70.22
496.55	39.79
496.73	121.71
496.91	37.45
497.09	2.34
497.26	25.75
497.44	84.26
497.62	60.85
497.79	58.51
497.97	67.88
498.14	112.35
498.32	53.83
498.50	67.88
498.67	23.41
498.85	60.85
499.03	77.24
499.20	79.58
499.38	44.47
499.56	65.54
499.73	72.56
499.91	98.30
500.08	77.24
500.26	60.85
500.44	4.68
500.61	14.04
500.79	133.41
500.97	0.00
501.14	95.96
501.32	84.26
501.49	32.77
501.67	0.00
501.84	49.15
502.02	25.75
502.20	37.45
502.37	56.17
502.55	72.56
502.72	28.09
502.90	37.45
503.07	114.69
503.25	0.00
503.43	16.38
503.60	39.79
503.78	21.06
503.95	18.72
504.13	28.09
504.30	74.90
504.48	93.62
504.65	21.06
504.83	14.04
505.01	21.06
505.18	4.68
505.36	44.47
505.53	23.41
505.71	42.13
505.88	79.58
506.06	0.00
506.23	0.00
506.41	0.00
506.58	30.43
506.76	81.92
506.93	18.72
507.11	56.17
507.28	39.79
507.46	51.49
507.63	16.38
507.81	0.00
507.98	70.22
508.16	77.24
508.33	124.05
508.50	39.79
508.68	32.77
508.85	30.43
509.03	46.81
509.20	86.60
509.38	32.77
509.55	119.37
509.73	49.15
509.90	0.00
510.08	35.11
510.25	121.71
510.42	107.66
510.60	11.70
510.77	49.15
510.95	25.75
511.12	114.69
511.30	44.47
511.47	56.17
511.64	124.05
511.82	21.06
511.99	0.00
512.17	32.77
512.34	60.85
512.51	84.26
512.69	35.11
512.86	37.45
513.04	53.83
513.21	0.00
513.38	21.06
513.56	0.00
513.73	14.04
513.90	0.00
514.08	18.72
514.25	133.41
514.43	37.45
514.60	28.09
514.77	32.77
514.95	0.00
515.12	56.17
515.29	46.81
515.47	44.47
515.64	23.41
515.81	0.00
515.99	53.83
516.16	105.32
516.33	67.88
516.51	53.83
516.68	0.00
516.85	18.72
517.03	46.81
517.20	4.68
517.37	67.88
517.54	44.47
517.72	0.00
517.89	0.00
518.06	53.83
518.24	86.60
518.41	117.03
518.58	121.71
518.75	32.77
518.93	0.00
519.10	35.11
519.27	53.83
519.45	44.47
519.62	112.35
519.79	37.45
519.96	70.22
520.14	42.13
520.31	21.06
520.48	21.06
520.65	81.92
520.83	86.60
521.00	0.00
521.17	51.49
521.34	0.00
521.52	51.49
521.69	98.30
521.86	56.17
522.03	65.54
522.20	67.88
522.38	7.02
522.55	74.90
522.72	0.00
522.89	63.19
523.07	46.81
523.24	0.00
523.41	53.83
523.58	60.85
523.75	51.49
523.92	72.56
524.10	56.17
524.27	14.04
524.44	2.34
524.61	100.64
524.78	7.02
524.96	56.17
525.13	0.00
525.30	135.75
525.47	46.81
525.64	77.24
525.81	46.81
525.98	7.02
526.16	105.32
526.33	49.15
526.50	30.43
526.67	53.83
526.84	84.26
527.01	84.26
527.18	0.00
527.36	53.83
527.53	0.00
527.70	58.51
527.87	60.85
528.04	23.41
528.21	7.02
528.38	23.41
528.55	86.60
528.72	0.00
528.89	72.56
529.07	63.19
529.24	72.56
529.41	56.17
529.58	0.00
529.75	53.83
529.92	0.00
530.09	2.34
530.26	37.45
530.43	18.72
530.60	37.45
530.77	37.45
530.94	60.85
531.11	74.90
531.28	72.56
531.46	53.83
531.63	35.11
531.80	70.22
531.97	11.70
532.14	72.56
532.31	16.38
532.48	0.00
532.65	0.00
532.82	32.77
532.99	46.81
533.16	42.13
533.33	86.60
533.50	37.45
533.67	72.56
533.84	0.00
534.01	0.00
534.18	18.72
534.35	46.81
534.52	0.00
534.69	100.64
534.86	46.81
535.03	0.00
535.20	56.17
535.37	46.81
535.54	42.13
535.71	0.00
535.88	74.90
536.05	4.68
536.22	49.15
536.38	11.70
536.55	93.62
536.72	84.26
536.89	9.36
537.06	25.75
537.23	35.11
537.40	53.83
537.57	35.11
537.74	51.49
537.91	100.64
538.08	131.07
538.25	14.04
538.42	53.83
538.59	114.69
538.75	23.41
538.92	35.11
539.09	44.47
539.26	0.00
539.43	39.79
539.60	51.49
539.77	56.17
539.94	32.77
540.11	30.43
540.28	84.26
540.44	60.85
540.61	84.26
540.78	60.85
540.95	56.17
541.12	30.43
541.29	91.28
541.46	53.83
541.62	91.28
541.79	39.79
541.96	25.75
542.13	42.13
542.30	0.00
542.47	39.79
542.63	70.22
542.80	100.64
542.97	72.56
543.14	93.62
543.31	30.43
543.48	0.00
543.64	110.01
543.81	37.45
543.98	28.09
544.15	53.83
544.32	21.06
544.48	72.56
544.65	72.56
544.82	58.51
544.99	30.43
545.16	21.06
545.32	30.43
545.49	35.11
545.66	9.36
545.83	102.98
546.00	65.54
546.16	124.05
546.33	46.81
546.50	74.90
546.67	72.56
546.83	18.72
547.00	56.17
547.17	35.11
547.34	0.00
547.50	81.92
547.67	60.85
547.84	23.41
548.00	25.75
548.17	21.06
548.34	44.47
548.51	60.85
548.67	0.00
548.84	70.22
549.01	0.00
549.18	30.43
549.34	53.83
549.51	18.72
549.68	60.85
549.84	67.88
550.01	0.00
550.18	4.68
550.34	86.60
550.51	18.72
550.68	107.66
550.84	58.51
551.01	7.02
551.18	81.92
551.34	11.70
551.51	9.36
551.68	100.64
551.84	35.11
552.01	84.26
552.18	35.11
552.34	32.77
552.51	133.41
552.68	86.60
552.84	0.00
553.01	105.32
553.18	63.19
553.34	91.28
553.51	16.38
553.67	39.79
553.84	0.00
554.01	23.41
554.17	42.13
554.34	25.75
554.51	0.00
554.67	84.26
554.84	72.56
555.00	14.04
555.17	37.45
555.33	30.43
555.50	42.13
555.67	25.75
555.83	95.96
556.00	42.13
556.16	35.11
556.33	93.62
556.50	0.00
556.66	0.00
556.83	46.81
556.99	25.75
557.16	112.35
557.32	53.83
557.49	0.00
557.65	14.04
557.82	42.13
557.98	95.96
558.15	18.72
558.32	42.13
558.48	18.72
558.65	0.00
558.81	98.30
558.98	23.41
559.14	93.62
559.31	60.85
559.47	28.09
559.64	91.28
559.80	28.09
559.97	0.00
560.13	4.68
560.30	91.28
560.46	44.47
560.63	53.83
560.79	21.06
560.96	32.77
561.12	105.32
561.29	49.15
561.45	53.83
561.61	0.00
561.78	77.24
561.94	72.56
562.11	18.72
562.27	81.92
562.44	44.47
562.60	0.00
562.77	0.00
562.93	46.81
563.10	74.90
563.26	72.56
563.42	70.22
563.59	49.15
563.75	44.47
563.92	0.00
564.08	53.83
564.24	67.88
564.41	0.00
564.57	53.83
564.74	60.85
564.90	126.39
565.07	25.75
565.23	18.72
565.39	42.13
565.56	11.70
565.72	84.26
565.88	11.70
566.05	51.49
566.21	0.00
566.38	0.00
566.54	35.11
566.70	51.49
566.87	93.62
567.03	44.47
567.19	42.13
567.36	46.81
567.52	77.24
567.68	58.51
567.85	95.96
568.01	44.47
568.17	11.70
568.34	65.54
568.50	42.13
568.66	0.00
568.83	102.98
568.99	2.34
569.15	21.06
569.32	39.79
569.48	72.56
569.64	18.72
569.81	30.43
569.97	74.90
570.13	0.00
570.30	7.02
570.46	37.45
570.62	7.02
570.78	7.02
570.95	102.98
571.11	58.51
571.27	32.77
571.43	16.38
571.60	7.02
571.76	14.04
571.92	39.79
572.09	32.77
572.25	102.98
572.41	2.34
572.57	107.66
572.74	42.13
572.90	88.94
573.06	81.92
573.22	0.00
573.38	30.43
573.55	56.17
573.71	46.81
573.87	42.13
574.03	58.51
574.20	70.22
574.36	35.11
574.52	30.43
574.68	4.68
574.84	11.70
575.01	32.77
575.17	25.75
575.33	0.00
575.49	39.79
575.65	60.85
575.82	0.00
575.98	154.48
576.14	58.51
576.30	0.00
576.46	138.09
576.62	65.54
576.79	25.75
576.95	79.58
577.11	0.00
577.27	0.00
577.43	4.68
577.59	51.49
577.75	46.81
577.92	0.00
578.08	44.47
578.24	0.00
578.40	42.13
578.56	81.92
578.72	77.24
578.88	0.00
579.04	79.58
579.21	35.11
579.37	0.00
579.53	30.43
579.69	28.09
579.85	60.85
580.01	9.36
580.17	28.09
580.33	28.09
580.49	0.00
580.65	37.45
580.82	25.75
580.98	107.66
581.14	88.94
581.30	81.92
581.46	70.22
581.62	44.47
581.78	30.43
581.94	46.81
582.10	42.13
582.26	65.54
582.42	49.15
582.58	79.58
582.74	0.00
582.90	0.00
583.06	21.06
583.22	42.13
583.38	53.83
583.54	88.94
583.70	23.41
583.86	18.72
584.02	58.51
584.18	30.43
584.34	28.09
584.50	23.41
584.66	65.54
584.82	81.92
584.98	0.00
585.14	81.92
585.30	37.45
585.46	28.09
585.62	84.26
585.78	0.00
585.94	11.70
586.10	42.13
586.26	9.36
586.42	58.51
586.58	0.00
586.74	0.00
586.90	18.72
587.06	35.11
587.22	21.06
587.38	2.34
587.54	28.09
587.70	11.70
587.86	93.62
588.02	25.75
588.18	56.17
588.34	18.72
588.49	53.83
588.65	77.24
588.81	9.36
588.97	102.98
589.13	30.43
589.29	16.38
589.45	39.79
589.61	0.00
589.77	81.92
589.93	72.56
590.08	79.58
590.24	14.04
590.40	42.13
590.56	110.01
590.72	53.83
590.88	9.36
591.04	39.79
591.20	124.05
591.35	2.34
591.51	51.49
591.67	44.47
591.83	28.09
591.99	37.45
592.15	11.70
592.31	70.22
592.46	11.70
592.62	42.13
592.78	9.36
592.94	51.49
593.10	0.00
593.26	35.11
593.41	51.49
593.57	53.83
593.73	0.00
593.89	84.26
594.05	0.00
594.20	93.62
594.36	63.19
594.52	58.51
594.68	11.70
594.84	142.77
594.99	2.34
595.15	0.00
595.31	70.22
595.47	0.00
595.62	58.51
595.78	44.47
595.94	35.11
596.10	35.11
596.25	58.51
596.41	30.43
596.57	0.00
596.73	42.13
596.88	30.43
597.04	39.79
597.20	14.04
597.36	14.04
597.51	0.00
597.67	126.39
597.83	0.00
597.99	28.09
598.14	32.77
598.30	84.26
598.46	93.62
598.61	60.85
598.77	72.56
598.93	46.81
599.09	25.75
599.24	23.41
599.40	60.85
599.56	88.94
599.71	53.83
599.87	58.51
600.03	112.35
600.18	0.00
600.34	21.06
600.50	0.00
600.65	60.85
600.81	60.85
600.97	35.11
601.12	0.00
601.28	58.51
601.44	18.72
601.59	0.00
601.75	0.00
601.91	79.58
602.06	39.79
602.22	63.19
602.37	77.24
602.53	21.06
602.69	84.26
602.84	63.19
603.00	35.11
603.16	56.17
603.31	0.00
603.47	0.00
603.62	110.01
603.78	0.00
603.94	51.49
604.09	35.11
604.25	39.79
604.40	18.72
604.56	46.81
604.71	32.77
604.87	25.75
605.03	14.04
605.18	11.70
605.34	102.98
605.49	81.92
605.65	74.90
605.80	44.47
605.96	42.13
606.12	37.45
606.27	49.15
606.43	28.09
606.58	79.58
606.74	53.83
606.89	0.00
607.05	95.96
607.20	70.22
607.36	86.60
607.51	16.38
607.67	7.02
607.82	53.83
607.98	0.00
608.13	14.04
608.29	44.47
608.44	53.83
608.60	44.47
608.75	72.56
608.91	14.04
609.06	107.66
609.22	53.83
609.37	35.11
609.53	2.34
609.68	23.41
609.84	25.75
609.99	88.94
610.15	14.04
610.30	0.00
610.46	70.22
610.61	58.51
610.76	28.09
610.92	67.88
611.07	53.83
611.23	39.79
611.38	30.43
611.54	67.88
611.69	25.75
611.84	11.70
612.00	21.06
612.15	23.41
612.31	79.58
612.46	93.62
612.62	44.47
612.77	7.02
612.92	49.15
613.08	0.00
613.23	35.11
613.39	46.81
613.54	16.38
613.69	0.00
613.85	16.38
614.00	53.83
614.15	58.51
614.31	30.43
614.46	16.38
614.62	14.04
614.77	93.62
614.92	65.54
615.08	88.94
615.23	25.75
615.38	9.36
615.54	65.54
615.69	88.94
615.84	25.75
616.00	63.19
616.15	28.09
616.30	42.13
616.46	37.45
616.61	32.77
616.76	60.85
616.92	23.41
617.07	56.17
617.22	138.09
617.37	70.22
617.53	42.13
617.68	11.70
617.83	0.00
617.99	16.38
618.14	81.92
618.29	7.02
618.45	100.64
618.60	42.13
618.75	60.85
618.90	51.49
619.06	91.28
619.21	0.00
619.36	9.36
619.51	0.00
619.67	0.00
619.82	105.32
619.97	53.83
620.12	23.41
620.28	42.13
620.43	0.00
620.58	53.83
620.73	65.54
620.89	35.11
621.04	16.38
621.19	32.77
621.34	67.88
621.49	46.81
621.65	51.49
621.80	2.34
621.95	0.00
622.10	35.11
622.25	74.90
622.41	51.49
622.56	23.41
622.71	39.79
622.86	72.56
623.01	74.90
623.16	0.00
623.32	86.60
623.47	35.11
623.62	32.77
623.77	4.68
623.92	14.04
624.07	72.56
624.23	67.88
624.38	91.28
624.53	77.24
624.68	7.02
624.83	110.01
624.98	0.00
625.13	0.00
625.29	11.70
625.44	7.02
625.59	4.68
625.74	70.22
625.89	2.34
626.04	11.70
626.19	42.13
626.34	46.81
626.49	100.64
626.65	58.51
626.80	98.30
626.95	51.49
627.10	14.04
627.25	63.19
627.40	74.90
627.55	102.98
627.70	37.45
627.85	81.92
628.00	60.85
628.15	0.00
628.30	32.77
628.45	79.58
628.60	60.85
628.76	56.17
628.91	14.04
629.06	53.83
629.21	121.71
629.36	42.13
629.51	91.28
629.66	56.17
629.81	0.00
629.96	39.79
630.11	79.58
630.26	105.32
630.41	0.00
630.56	42.13
630.71	37.45
630.86	35.11
631.01	56.17
631.16	28.09
631.31	0.00
631.46	70.22
631.61	7.02
631.76	67.88
631.91	100.64
632.06	51.49
632.21	102.98
632.36	98.30
632.51	46.81
632.66	44.47
632.81	23.41
632.96	39.79
633.10	32.77
633.25	56.17
633.40	0.00
633.55	98.30
633.70	0.00
633.85	28.09
634.00	4.68
634.15	42.13
634.30	58.51
634.45	30.43
634.60	23.41
634.75	86.60
634.90	0.00
635.05	7.02
635.19	63.19
635.34	37.45
635.49	18.72
635.64	37.45
635.79	58.51
635.94	14.04
636.09	46.81
636.24	67.88
636.39	53.83
636.53	14.04
636.68	18.72
636.83	0.00
636.98	21.06
637.13	65.54
637.28	93.62
637.43	65.54
637.57	21.06
637.72	60.85
637.87	0.00
638.02	0.00
638.17	18.72
638.32	86.60
638.46	4.68
638.61	4.68
638.76	11.70
638.91	0.00
639.06	46.81
639.20	37.45
639.35	14.04
639.50	0.00
639.65	63.19
639.80	84.26
639.94	11.70
640.09	56.17
640.24	58.51
640.39	30.43
640.54	30.43
640.68	67.88
640.83	65.54
640.98	58.51
641.13	30.43
641.27	67.88
641.42	42.13
641.57	14.04
641.72	0.00
641.86	23.41
642.01	0.00
642.16	126.39
642.31	9.36
642.45	63.19
642.60	30.43
642.75	0.00
642.90	65.54
643.04	35.11
643.19	70.22
643.34	58.51
643.48	42.13
643.63	91.28
643.78	112.35
643.93	51.49
644.07	35.11
644.22	46.81
644.37	30.43
644.51	35.11
644.66	56.17
644.81	0.00
644.95	51.49
645.10	18.72
645.25	93.62
645.39	21.06
645.54	37.45
645.69	9.36
645.83	9.36
645.98	65.54
646.13	81.92
646.27	23.41
646.42	39.79
646.57	100.64
646.71	65.54
646.86	0.00
647.00	0.00
647.15	88.94
647.30	16.38
647.44	39.79
647.59	30.43
647.74	25.75
647.88	63.19
648.03	63.19
648.17	49.15
648.32	0.00
648.47	100.64
648.61	63.19
648.76	72.56
648.90	21.06
649.05	32.77
649.20	0.00
649.34	37.45
649.49	74.90
649.63	72.56
649.78	0.00
649.92	0.00
650.07	0.00
650.21	0.00
650.36	23.41
650.51	51.49
650.65	30.43
650.80	0.00
650.94	30.43
651.09	28.09
651.23	70.22
651.38	74.90
651.52	107.66
651.67	18.72
651.81	98.30
651.96	46.81
652.10	35.11
652.25	39.79
652.39	4.68
652.54	11.70
652.68	0.00
652.83	67.88
652.97	9.36
653.12	16.38
653.26	0.00
653.41	9.36
653.55	23.41
653.70	9.36
653.84	56.17
653.99	49.15
654.13	30.43
654.27	7.02
654.42	74.90
654.56	4.68
654.71	0.00
654.85	63.19
655.00	51.49
655.14	35.11
655.29	0.00
655.43	86.60
655.57	37.45
655.72	18.72
655.86	72.56
656.01	28.09
656.15	35.11
656.30	11.70
656.44	21.06
656.58	11.70
656.73	65.54
656.87	46.81
657.01	67.88
657.16	32.77
657.30	37.45
657.45	93.62
657.59	49.15
657.73	67.88
657.88	63.19
658.02	51.49
658.16	51.49
658.31	21.06
658.45	0.00
658.60	0.00
658.74	2.34
658.88	16.38
659.03	0.00
659.17	44.47
659.31	81.92
659.46	0.00
659.60	28.09
659.74	77.24
659.89	7.02
660.03	0.00
660.17	102.98
660.32	30.43
660.46	0.00
660.60	0.00
660.74	35.11
660.89	60.85
661.03	0.00
661.17	56.17
661.32	56.17
661.46	49.15
661.60	16.38
661.74	37.45
661.89	79.58
662.03	81.92
662.17	35.11
662.31	49.15
662.46	32.77
662.60	11.70
662.74	49.15
662.88	7.02
663.03	53.83
663.17	0.00
663.31	65.54
663.45	114.69
663.60	0.00
663.74	32.77
663.88	30.43
664.02	105.32
664.17	37.45
664.31	0.00
664.45	23.41
664.59	70.22
664.73	18.72
664.88	2.34
665.02	0.00
665.16	4.68
665.30	11.70
665.44	74.90
665.59	16.38
665.73	49.15
665.87	28.09
666.01	117.03
666.15	98.30
666.29	56.17
666.44	0.00
666.58	86.60
666.72	11.70
666.86	28.09
667.00	67.88
667.14	16.38
667.28	32.77
667.43	7.02
667.57	11.70
667.71	46.81
667.85	56.17
667.99	51.49
668.13	16.38
668.27	0.00
668.41	16.38
668.56	81.92
668.70	98.30
668.84	49.15
668.98	60.85
669.12	42.13
669.26	58.51
669.40	44.47
669.54	53.83
669.68	7.02
669.82	28.09
669.96	28.09
670.10	0.00
670.25	0.00
670.39	81.92
670.53	49.15
670.67	42.13
670.81	25.75
670.95	35.11
671.09	0.00
671.23	0.00
671.37	0.00
671.51	79.58
671.65	4.68
671.79	42.13
671.93	63.19
672.07	14.04
672.21	0.00
672.35	25.75
672.49	32.77
672.63	56.17
672.77	51.49
672.91	28.09
673.05	51.49
673.19	105.32
673.33	4.68
673.47	58.51
673.61	102.98
673.75	0.00
673.89	16.38
674.03	21.06
674.17	84.26
674.31	86.60
674.45	0.00
674.59	0.00
674.73	21.06
674.87	72.56
675.01	11.70
675.15	58.51
675.29	0.00
675.43	28.09
675.56	0.00
675.70	0.00
675.84	51.49
675.98	28.09
676.12	42.13
676.26	32.77
676.40	70.22
676.54	7.02
676.68	70.22
676.82	7.02
676.96	49.15
677.10	0.00
677.23	84.26
677.37	77.24
677.51	46.81
677.65	0.00
677.79	0.00
677.93	72.56
678.07	65.54
678.21	58.51
678.34	30.43
678.48	0.00
678.62	70.22
678.76	35.11
678.90	51.49
679.04	0.00
679.18	28.09
679.31	93.62
679.45	37.45
679.59	14.04
679.73	0.00
679.87	14.04
680.00	58.51
680.14	21.06
680.28	18.72
680.42	58.51
680.56	56.17
680.70	0.00
680.83	63.19
680.97	14.04
681.11	25.75
681.25	0.00
681.39	39.79
681.52	32.77
681.66	46.81
681.80	11.70
681.94	28.09
682.07	60.85
682.21	0.00
682.35	18.72
682.49	60.85
682.62	21.06
682.76	53.83
682.90	44.47
683.04	56.17
683.17	0.00
683.31	65.54
683.45	35.11
683.59	60.85
683.72	42.13
683.86	16.38
684.00	74.90
684.13	14.04
684.27	25.75
684.41	0.00
684.55	72.56
684.68	81.92
684.82	63.19
684.96	37.45
685.09	91.28
685.23	53.83
685.37	74.90
685.50	0.00
685.64	53.83
685.78	65.54
685.91	84.26
686.05	4.68
686.19	9.36
686.32	0.00
686.46	37.45
686.60	56.17
686.73	44.47
686.87	110.01
687.01	0.00
687.14	32.77
687.28	0.00
687.42	23.41
687.55	0.00
687.69	0.00
687.82	0.00
687.96	0.00
688.10	102.98
688.23	0.00
688.37	21.06
688.50	0.00
688.64	18.72
688.78	14.04
688.91	9.36
689.05	18.72
689.18	42.13
689.32	0.00
689.46	39.79
689.59	35.11
689.73	25.75
689.86	51.49
690.00	0.00
690.13	2.34
690.27	32.77
690.41	16.38
690.54	79.58
690.68	32.77
690.81	77.24
690.95	63.19
691.08	18.72
691.22	51.49
691.35	21.06
691.49	0.00
691.62	11.70
691.76	37.45
691.89	0.00
692.03	14.04
692.16	21.06
692.30	0.00
692.43	49.15
692.57	67.88
692.70	53.83
692.84	56.17
692.97	56.17
693.11	0.00
693.24	32.77
693.38	35.11
693.51	30.43
693.65	56.17
693.78	44.47
693.92	65.54
694.05	16.38
694.19	39.79
694.32	0.00
694.45	0.00
694.59	0.00
694.72	51.49
694.86	0.00
694.99	0.00
695.13	44.47
695.26	0.00
695.39	0.00
695.53	56.17
695.66	60.85
695.80	0.00
695.93	39.79
696.07	0.00
696.20	32.77
696.33	23.41
696.47	51.49
696.60	60.85
696.73	7.02
696.87	30.43
697.00	72.56
697.14	42.13
697.27	56.17
697.40	0.00
697.54	0.00
697.67	2.34
697.80	14.04
697.94	32.77
698.07	46.81
698.21	11.70
698.34	60.85
698.47	0.00
698.61	46.81
698.74	0.00
698.87	102.98
699.01	23.41
699.14	23.41
699.27	25.75
699.40	0.00
699.54	23.41
699.67	0.00
699.80	0.00
699.94	49.15
700.07	0.00
700.20	21.06
700.34	21.06
700.47	21.06
700.60	51.49
700.73	0.00
700.87	107.66
701.00	91.28
701.13	7.02
701.26	32.77
701.40	14.04
701.53	0.00
701.66	74.90
701.79	0.00
701.93	93.62
702.06	79.58
702.19	23.41
702.32	119.37
702.46	14.04
702.59	42.13
702.72	39.79
702.85	4.68
702.99	11.70
703.12	0.00
703.25	0.00
703.38	93.62
703.51	32.77
703.65	77.24
703.78	11.70
703.91	7.02
704.04	0.00
704.17	25.75
704.31	74.90
704.44	60.85
704.57	63.19
704.70	0.00
704.83	16.38
704.96	72.56
705.10	37.45
705.23	18.72
>>>>>End Processed Spectral Data<<<<<
