SpectraSuite Data File
++++++++++++++++++++++++++++++++++++
Date: Fri Oct 04 12:13:41 GMT-05:00 2013
User: price-jones
Dark Spectrum Present: No
Reference Spectrum Present: No
Number of Sampled Component Spectra: 1
Spectrometers: USB2+H05261
Integration Time (usec): 10000 (USB2+H05261)
Spectra Averaged: 1 (USB2+H05261)
Boxcar Smoothing: 0 (USB2+H05261)
Correct for Electrical Dark: No (USB2+H05261)
Strobe/Lamp Enabled: No (USB2+H05261)
Correct for Detector Non-linearity: No (USB2+H05261)
Correct for Stray Light: No (USB2+H05261)
Number of Pixels in Processed Spectrum: 2048
>>>>>Begin Processed Spectral Data<<<<<
365.73	9.36
365.92	9.36
366.12	9.36
366.32	0.00
366.52	0.00
366.72	0.00
366.91	0.00
367.11	0.00
367.31	0.00
367.51	0.00
367.70	0.00
367.90	0.00
368.10	0.00
368.30	0.00
368.49	0.00
368.69	0.00
368.89	0.00
369.09	0.00
369.28	0.00
369.48	0.00
369.68	0.00
369.87	0.00
370.07	0.00
370.27	0.00
370.47	0.00
370.66	0.00
370.86	0.00
371.06	0.00
371.25	0.00
371.45	7.02
371.65	39.79
371.84	0.00
372.04	23.41
372.24	44.47
372.44	14.04
372.63	42.13
372.83	14.04
373.03	30.43
373.22	0.00
373.42	0.00
373.62	0.00
373.81	0.00
374.01	51.49
374.21	23.41
374.40	53.83
374.60	91.28
374.79	21.06
374.99	0.00
375.19	9.36
375.38	0.00
375.58	49.15
375.78	70.22
375.97	79.58
376.17	0.00
376.37	0.00
376.56	0.00
376.76	11.70
376.95	30.43
377.15	63.19
377.35	28.09
377.54	2.34
377.74	9.36
377.93	2.34
378.13	21.06
378.33	16.38
378.52	67.88
378.72	44.47
378.91	0.00
379.11	98.30
379.31	46.81
379.50	0.00
379.70	0.00
379.89	7.02
380.09	44.47
380.28	9.36
380.48	32.77
380.68	0.00
380.87	30.43
381.07	30.43
381.26	39.79
381.46	4.68
381.65	2.34
381.85	60.85
382.04	16.38
382.24	4.68
382.43	7.02
382.63	37.45
382.83	39.79
383.02	11.70
383.22	81.92
383.41	84.26
383.61	4.68
383.80	0.00
384.00	0.00
384.19	0.00
384.39	0.00
384.58	0.00
384.78	0.00
384.97	100.64
385.17	4.68
385.36	23.41
385.56	0.00
385.75	0.00
385.95	21.06
386.14	18.72
386.34	28.09
386.53	0.00
386.72	93.62
386.92	42.13
387.11	65.54
387.31	39.79
387.50	2.34
387.70	0.00
387.89	49.15
388.09	84.26
388.28	23.41
388.48	21.06
388.67	93.62
388.86	11.70
389.06	32.77
389.25	14.04
389.45	0.00
389.64	0.00
389.84	0.00
390.03	30.43
390.22	56.17
390.42	65.54
390.61	0.00
390.81	39.79
391.00	0.00
391.19	0.00
391.39	28.09
391.58	9.36
391.78	67.88
391.97	4.68
392.16	0.00
392.36	14.04
392.55	67.88
392.75	46.81
392.94	30.43
393.13	0.00
393.33	65.54
393.52	39.79
393.71	42.13
393.91	42.13
394.10	30.43
394.29	53.83
394.49	0.00
394.68	32.77
394.88	32.77
395.07	0.00
395.26	81.92
395.46	32.77
395.65	14.04
395.84	25.75
396.04	175.54
396.23	0.00
396.42	0.00
396.62	30.43
396.81	28.09
397.00	18.72
397.19	0.00
397.39	60.85
397.58	25.75
397.77	60.85
397.97	65.54
398.16	18.72
398.35	51.49
398.55	37.45
398.74	60.85
398.93	16.38
399.12	9.36
399.32	21.06
399.51	81.92
399.70	74.90
399.90	84.26
400.09	112.35
400.28	49.15
400.47	60.85
400.67	37.45
400.86	37.45
401.05	0.00
401.24	35.11
401.44	2.34
401.63	49.15
401.82	30.43
402.01	0.00
402.21	7.02
402.40	28.09
402.59	58.51
402.78	70.22
402.97	32.77
403.17	0.00
403.36	0.00
403.55	21.06
403.74	25.75
403.93	18.72
404.13	32.77
404.32	65.54
404.51	60.85
404.70	70.22
404.89	128.73
405.09	46.81
405.28	53.83
405.47	4.68
405.66	21.06
405.85	4.68
406.05	28.09
406.24	74.90
406.43	49.15
406.62	56.17
406.81	44.47
407.00	0.00
407.20	77.24
407.39	0.00
407.58	84.26
407.77	35.11
407.96	2.34
408.15	46.81
408.34	70.22
408.54	30.43
408.73	42.13
408.92	28.09
409.11	51.49
409.30	23.41
409.49	84.26
409.68	114.69
409.87	79.58
410.07	70.22
410.26	46.81
410.45	18.72
410.64	0.00
410.83	35.11
411.02	37.45
411.21	32.77
411.40	42.13
411.59	21.06
411.78	65.54
411.98	72.56
412.17	7.02
412.36	65.54
412.55	32.77
412.74	79.58
412.93	58.51
413.12	0.00
413.31	91.28
413.50	0.00
413.69	91.28
413.88	46.81
414.07	77.24
414.26	11.70
414.45	14.04
414.64	42.13
414.83	0.00
415.02	0.00
415.22	60.85
415.41	49.15
415.60	37.45
415.79	18.72
415.98	126.39
416.17	49.15
416.36	67.88
416.55	39.79
416.74	58.51
416.93	9.36
417.12	0.00
417.31	25.75
417.50	138.09
417.69	81.92
417.88	37.45
418.07	81.92
418.26	0.00
418.45	58.51
418.64	84.26
418.83	39.79
419.02	32.77
419.21	67.88
419.39	0.00
419.58	56.17
419.77	30.43
419.96	11.70
420.15	7.02
420.34	51.49
420.53	9.36
420.72	30.43
420.91	60.85
421.10	0.00
421.29	32.77
421.48	0.00
421.67	60.85
421.86	51.49
422.05	2.34
422.24	9.36
422.43	28.09
422.61	32.77
422.80	67.88
422.99	0.00
423.18	44.47
423.37	98.30
423.56	49.15
423.75	21.06
423.94	0.00
424.13	18.72
424.32	37.45
424.50	44.47
424.69	84.26
424.88	84.26
425.07	0.00
425.26	0.00
425.45	4.68
425.64	0.00
425.83	42.13
426.01	30.43
426.20	42.13
426.39	107.66
426.58	70.22
426.77	46.81
426.96	18.72
427.15	44.47
427.33	46.81
427.52	53.83
427.71	9.36
427.90	102.98
428.09	100.64
428.28	0.00
428.46	91.28
428.65	53.83
428.84	0.00
429.03	0.00
429.22	21.06
429.40	77.24
429.59	44.47
429.78	28.09
429.97	58.51
430.16	16.38
430.34	23.41
430.53	53.83
430.72	42.13
430.91	46.81
431.10	11.70
431.28	67.88
431.47	70.22
431.66	0.00
431.85	86.60
432.03	37.45
432.22	77.24
432.41	9.36
432.60	18.72
432.79	70.22
432.97	30.43
433.16	70.22
433.35	81.92
433.54	39.79
433.72	65.54
433.91	79.58
434.10	28.09
434.28	58.51
434.47	63.19
434.66	0.00
434.85	51.49
435.03	0.00
435.22	18.72
435.41	23.41
435.59	58.51
435.78	0.00
435.97	32.77
436.16	70.22
436.34	95.96
436.53	32.77
436.72	37.45
436.90	0.00
437.09	25.75
437.28	56.17
437.46	95.96
437.65	91.28
437.84	63.19
438.02	35.11
438.21	67.88
438.40	77.24
438.58	46.81
438.77	23.41
438.96	28.09
439.14	67.88
439.33	79.58
439.52	37.45
439.70	58.51
439.89	63.19
440.08	49.15
440.26	30.43
440.45	168.52
440.63	131.07
440.82	63.19
441.01	0.00
441.19	39.79
441.38	42.13
441.57	84.26
441.75	53.83
441.94	51.49
442.12	37.45
442.31	30.43
442.50	25.75
442.68	0.00
442.87	4.68
443.05	11.70
443.24	105.32
443.43	16.38
443.61	18.72
443.80	86.60
443.98	0.00
444.17	84.26
444.35	84.26
444.54	39.79
444.73	93.62
444.91	100.64
445.10	100.64
445.28	98.30
445.47	91.28
445.65	56.17
445.84	81.92
446.02	70.22
446.21	30.43
446.39	72.56
446.58	65.54
446.77	77.24
446.95	0.00
447.14	4.68
447.32	86.60
447.51	51.49
447.69	88.94
447.88	79.58
448.06	11.70
448.25	67.88
448.43	72.56
448.62	49.15
448.80	86.60
448.99	86.60
449.17	58.51
449.36	42.13
449.54	88.94
449.73	0.00
449.91	112.35
450.10	58.51
450.28	16.38
450.46	72.56
450.65	25.75
450.83	23.41
451.02	9.36
451.20	0.00
451.39	58.51
451.57	65.54
451.76	0.00
451.94	72.56
452.13	105.32
452.31	79.58
452.49	53.83
452.68	30.43
452.86	44.47
453.05	60.85
453.23	25.75
453.42	100.64
453.60	56.17
453.78	60.85
453.97	28.09
454.15	49.15
454.34	0.00
454.52	126.39
454.70	147.45
454.89	42.13
455.07	39.79
455.26	156.82
455.44	51.49
455.62	18.72
455.81	9.36
455.99	95.96
456.17	23.41
456.36	46.81
456.54	32.77
456.73	72.56
456.91	100.64
457.09	74.90
457.28	49.15
457.46	28.09
457.64	7.02
457.83	117.03
458.01	32.77
458.19	70.22
458.38	53.83
458.56	58.51
458.74	88.94
458.93	110.01
459.11	28.09
459.29	21.06
459.48	7.02
459.66	93.62
459.84	25.75
460.03	72.56
460.21	93.62
460.39	44.47
460.57	23.41
460.76	35.11
460.94	42.13
461.12	44.47
461.31	74.90
461.49	63.19
461.67	112.35
461.85	81.92
462.04	65.54
462.22	70.22
462.40	23.41
462.59	74.90
462.77	72.56
462.95	67.88
463.13	58.51
463.32	44.47
463.50	67.88
463.68	79.58
463.86	70.22
464.05	93.62
464.23	65.54
464.41	74.90
464.59	51.49
464.78	95.96
464.96	56.17
465.14	37.45
465.32	84.26
465.50	25.75
465.69	18.72
465.87	98.30
466.05	110.01
466.23	28.09
466.41	51.49
466.60	35.11
466.78	46.81
466.96	39.79
467.14	42.13
467.32	0.00
467.51	81.92
467.69	0.00
467.87	72.56
468.05	88.94
468.23	49.15
468.41	88.94
468.60	70.22
468.78	35.11
468.96	91.28
469.14	100.64
469.32	86.60
469.50	42.13
469.69	51.49
469.87	0.00
470.05	65.54
470.23	11.70
470.41	58.51
470.59	107.66
470.77	86.60
470.95	70.22
471.14	72.56
471.32	95.96
471.50	37.45
471.68	70.22
471.86	49.15
472.04	88.94
472.22	46.81
472.40	18.72
472.58	18.72
472.77	51.49
472.95	79.58
473.13	25.75
473.31	100.64
473.49	159.16
473.67	74.90
473.85	65.54
474.03	93.62
474.21	37.45
474.39	72.56
474.57	30.43
474.75	53.83
474.93	30.43
475.12	102.98
475.30	107.66
475.48	70.22
475.66	133.41
475.84	28.09
476.02	35.11
476.20	88.94
476.38	81.92
476.56	100.64
476.74	42.13
476.92	21.06
477.10	72.56
477.28	72.56
477.46	51.49
477.64	91.28
477.82	67.88
478.00	51.49
478.18	0.00
478.36	79.58
478.54	70.22
478.72	74.90
478.90	145.11
479.08	51.49
479.26	42.13
479.44	63.19
479.62	67.88
479.80	0.00
479.98	56.17
480.16	39.79
480.34	7.02
480.52	56.17
480.70	98.30
480.88	105.32
481.06	107.66
481.24	0.00
481.41	63.19
481.59	39.79
481.77	0.00
481.95	11.70
482.13	100.64
482.31	49.15
482.49	56.17
482.67	0.00
482.85	49.15
483.03	107.66
483.21	114.69
483.39	126.39
483.57	140.43
483.74	56.17
483.92	74.90
484.10	32.77
484.28	81.92
484.46	93.62
484.64	74.90
484.82	23.41
485.00	79.58
485.18	51.49
485.35	25.75
485.53	30.43
485.71	65.54
485.89	53.83
486.07	65.54
486.25	58.51
486.43	86.60
486.61	46.81
486.78	53.83
486.96	70.22
487.14	91.28
487.32	60.85
487.50	42.13
487.68	105.32
487.85	93.62
488.03	30.43
488.21	14.04
488.39	81.92
488.57	117.03
488.75	49.15
488.92	60.85
489.10	65.54
489.28	60.85
489.46	0.00
489.64	107.66
489.81	67.88
489.99	100.64
490.17	77.24
490.35	35.11
490.53	46.81
490.70	44.47
490.88	100.64
491.06	30.43
491.24	32.77
491.41	51.49
491.59	56.17
491.77	107.66
491.95	159.16
492.13	51.49
492.30	67.88
492.48	98.30
492.66	32.77
492.84	56.17
493.01	110.01
493.19	77.24
493.37	86.60
493.54	56.17
493.72	44.47
493.90	72.56
494.08	117.03
494.25	39.79
494.43	51.49
494.61	95.96
494.79	100.64
494.96	81.92
495.14	63.19
495.32	30.43
495.49	102.98
495.67	51.49
495.85	100.64
496.02	95.96
496.20	56.17
496.38	56.17
496.55	170.86
496.73	93.62
496.91	119.37
497.09	65.54
497.26	51.49
497.44	21.06
497.62	42.13
497.79	60.85
497.97	72.56
498.14	81.92
498.32	32.77
498.50	56.17
498.67	65.54
498.85	77.24
499.03	0.00
499.20	100.64
499.38	0.00
499.56	42.13
499.73	100.64
499.91	147.45
500.08	81.92
500.26	46.81
500.44	51.49
500.61	63.19
500.79	77.24
500.97	107.66
501.14	170.86
501.32	110.01
501.49	72.56
501.67	84.26
501.84	9.36
502.02	39.79
502.20	9.36
502.37	63.19
502.55	81.92
502.72	95.96
502.90	56.17
503.07	0.00
503.25	112.35
503.43	21.06
503.60	67.88
503.78	107.66
503.95	74.90
504.13	79.58
504.30	93.62
504.48	91.28
504.65	86.60
504.83	30.43
505.01	74.90
505.18	81.92
505.36	107.66
505.53	91.28
505.71	42.13
505.88	42.13
506.06	74.90
506.23	117.03
506.41	32.77
506.58	46.81
506.76	86.60
506.93	95.96
507.11	114.69
507.28	124.05
507.46	49.15
507.63	46.81
507.81	0.00
507.98	88.94
508.16	100.64
508.33	138.09
508.50	124.05
508.68	46.81
508.85	42.13
509.03	102.98
509.20	117.03
509.38	39.79
509.55	79.58
509.73	60.85
509.90	44.47
510.08	49.15
510.25	49.15
510.42	63.19
510.60	51.49
510.77	70.22
510.95	81.92
511.12	88.94
511.30	51.49
511.47	110.01
511.64	58.51
511.82	60.85
511.99	30.43
512.17	30.43
512.34	88.94
512.51	128.73
512.69	60.85
512.86	93.62
513.04	135.75
513.21	60.85
513.38	88.94
513.56	77.24
513.73	60.85
513.90	142.77
514.08	131.07
514.25	105.32
514.43	110.01
514.60	91.28
514.77	56.17
514.95	93.62
515.12	70.22
515.29	63.19
515.47	63.19
515.64	37.45
515.81	42.13
515.99	81.92
516.16	81.92
516.33	72.56
516.51	145.11
516.68	23.41
516.85	135.75
517.03	114.69
517.20	46.81
517.37	18.72
517.54	25.75
517.72	119.37
517.89	98.30
518.06	72.56
518.24	46.81
518.41	175.54
518.58	79.58
518.75	28.09
518.93	93.62
519.10	77.24
519.27	0.00
519.45	23.41
519.62	60.85
519.79	112.35
519.96	39.79
520.14	65.54
520.31	107.66
520.48	107.66
520.65	46.81
520.83	140.43
521.00	65.54
521.17	91.28
521.34	86.60
521.52	182.56
521.69	9.36
521.86	51.49
522.03	149.79
522.20	95.96
522.38	86.60
522.55	95.96
522.72	65.54
522.89	88.94
523.07	121.71
523.24	46.81
523.41	124.05
523.58	93.62
523.75	105.32
523.92	49.15
524.10	67.88
524.27	72.56
524.44	84.26
524.61	58.51
524.78	114.69
524.96	79.58
525.13	121.71
525.30	51.49
525.47	67.88
525.64	95.96
525.81	65.54
525.98	74.90
526.16	93.62
526.33	28.09
526.50	124.05
526.67	159.16
526.84	58.51
527.01	114.69
527.18	67.88
527.36	56.17
527.53	67.88
527.70	159.16
527.87	77.24
528.04	98.30
528.21	112.35
528.38	117.03
528.55	39.79
528.72	98.30
528.89	100.64
529.07	56.17
529.24	84.26
529.41	159.16
529.58	114.69
529.75	98.30
529.92	105.32
530.09	95.96
530.26	121.71
530.43	147.45
530.60	79.58
530.77	63.19
530.94	4.68
531.11	93.62
531.28	65.54
531.46	100.64
531.63	56.17
531.80	88.94
531.97	152.13
532.14	95.96
532.31	98.30
532.48	91.28
532.65	46.81
532.82	49.15
532.99	119.37
533.16	74.90
533.33	91.28
533.50	107.66
533.67	124.05
533.84	112.35
534.01	93.62
534.18	121.71
534.35	105.32
534.52	67.88
534.69	121.71
534.86	152.13
535.03	95.96
535.20	135.75
535.37	23.41
535.54	102.98
535.71	46.81
535.88	79.58
536.05	138.09
536.22	35.11
536.38	60.85
536.55	81.92
536.72	56.17
536.89	128.73
537.06	70.22
537.23	53.83
537.40	35.11
537.57	79.58
537.74	95.96
537.91	88.94
538.08	56.17
538.25	117.03
538.42	44.47
538.59	98.30
538.75	44.47
538.92	86.60
539.09	128.73
539.26	74.90
539.43	98.30
539.60	65.54
539.77	117.03
539.94	138.09
540.11	107.66
540.28	142.77
540.44	67.88
540.61	138.09
540.78	102.98
540.95	0.00
541.12	42.13
541.29	9.36
541.46	9.36
541.62	98.30
541.79	79.58
541.96	140.43
542.13	98.30
542.30	142.77
542.47	126.39
542.63	184.90
542.80	114.69
542.97	65.54
543.14	107.66
543.31	25.75
543.48	56.17
543.64	72.56
543.81	154.48
543.98	65.54
544.15	39.79
544.32	112.35
544.48	119.37
544.65	149.79
544.82	70.22
544.99	124.05
545.16	84.26
545.32	131.07
545.49	16.38
545.66	95.96
545.83	119.37
546.00	53.83
546.16	7.02
546.33	72.56
546.50	105.32
546.67	79.58
546.83	107.66
547.00	81.92
547.17	81.92
547.34	81.92
547.50	46.81
547.67	79.58
547.84	72.56
548.00	67.88
548.17	112.35
548.34	14.04
548.51	93.62
548.67	110.01
548.84	49.15
549.01	86.60
549.18	91.28
549.34	138.09
549.51	191.92
549.68	168.52
549.84	49.15
550.01	121.71
550.18	63.19
550.34	126.39
550.51	88.94
550.68	119.37
550.84	88.94
551.01	102.98
551.18	93.62
551.34	21.06
551.51	21.06
551.68	114.69
551.84	28.09
552.01	23.41
552.18	112.35
552.34	25.75
552.51	77.24
552.68	100.64
552.84	121.71
553.01	74.90
553.18	119.37
553.34	51.49
553.51	56.17
553.67	128.73
553.84	77.24
554.01	124.05
554.17	93.62
554.34	63.19
554.51	112.35
554.67	70.22
554.84	23.41
555.00	131.07
555.17	84.26
555.33	91.28
555.50	49.15
555.67	60.85
555.83	135.75
556.00	91.28
556.16	140.43
556.33	100.64
556.50	51.49
556.66	110.01
556.83	107.66
556.99	16.38
557.16	65.54
557.32	46.81
557.49	105.32
557.65	67.88
557.82	105.32
557.98	56.17
558.15	23.41
558.32	100.64
558.48	21.06
558.65	30.43
558.81	30.43
558.98	119.37
559.14	119.37
559.31	152.13
559.47	93.62
559.64	67.88
559.80	35.11
559.97	56.17
560.13	102.98
560.30	98.30
560.46	72.56
560.63	95.96
560.79	124.05
560.96	79.58
561.12	0.00
561.29	79.58
561.45	58.51
561.61	14.04
561.78	140.43
561.94	58.51
562.11	51.49
562.27	79.58
562.44	30.43
562.60	117.03
562.77	88.94
562.93	93.62
563.10	67.88
563.26	21.06
563.42	46.81
563.59	163.84
563.75	79.58
563.92	102.98
564.08	81.92
564.24	74.90
564.41	70.22
564.57	110.01
564.74	11.70
564.90	79.58
565.07	156.82
565.23	58.51
565.39	140.43
565.56	58.51
565.72	67.88
565.88	117.03
566.05	46.81
566.21	79.58
566.38	121.71
566.54	65.54
566.70	39.79
566.87	163.84
567.03	11.70
567.19	49.15
567.36	35.11
567.52	138.09
567.68	91.28
567.85	32.77
568.01	72.56
568.17	124.05
568.34	21.06
568.50	32.77
568.66	0.00
568.83	0.00
568.99	67.88
569.15	93.62
569.32	105.32
569.48	63.19
569.64	4.68
569.81	81.92
569.97	0.00
570.13	110.01
570.30	42.13
570.46	35.11
570.62	102.98
570.78	147.45
570.95	86.60
571.11	65.54
571.27	0.00
571.43	72.56
571.60	105.32
571.76	72.56
571.92	60.85
572.09	39.79
572.25	84.26
572.41	18.72
572.57	79.58
572.74	84.26
572.90	65.54
573.06	98.30
573.22	81.92
573.38	56.17
573.55	72.56
573.71	110.01
573.87	51.49
574.03	51.49
574.20	49.15
574.36	46.81
574.52	124.05
574.68	65.54
574.84	74.90
575.01	25.75
575.17	67.88
575.33	32.77
575.49	70.22
575.65	79.58
575.82	58.51
575.98	63.19
576.14	110.01
576.30	25.75
576.46	88.94
576.62	9.36
576.79	32.77
576.95	119.37
577.11	67.88
577.27	84.26
577.43	28.09
577.59	37.45
577.75	16.38
577.92	110.01
578.08	65.54
578.24	138.09
578.40	56.17
578.56	77.24
578.72	86.60
578.88	119.37
579.04	63.19
579.21	67.88
579.37	7.02
579.53	53.83
579.69	95.96
579.85	126.39
580.01	88.94
580.17	58.51
580.33	105.32
580.49	93.62
580.65	46.81
580.82	91.28
580.98	35.11
581.14	100.64
581.30	74.90
581.46	100.64
581.62	49.15
581.78	131.07
581.94	121.71
582.10	58.51
582.26	63.19
582.42	95.96
582.58	88.94
582.74	58.51
582.90	112.35
583.06	63.19
583.22	110.01
583.38	93.62
583.54	126.39
583.70	114.69
583.86	56.17
584.02	107.66
584.18	67.88
584.34	110.01
584.50	128.73
584.66	28.09
584.82	102.98
584.98	84.26
585.14	126.39
585.30	93.62
585.46	11.70
585.62	105.32
585.78	105.32
585.94	39.79
586.10	79.58
586.26	145.11
586.42	102.98
586.58	117.03
586.74	81.92
586.90	112.35
587.06	107.66
587.22	51.49
587.38	79.58
587.54	53.83
587.70	60.85
587.86	154.48
588.02	39.79
588.18	77.24
588.34	30.43
588.49	30.43
588.65	11.70
588.81	91.28
588.97	79.58
589.13	119.37
589.29	11.70
589.45	51.49
589.61	74.90
589.77	133.41
589.93	102.98
590.08	114.69
590.24	49.15
590.40	51.49
590.56	21.06
590.72	112.35
590.88	30.43
591.04	86.60
591.20	46.81
591.35	63.19
591.51	51.49
591.67	4.68
591.83	39.79
591.99	79.58
592.15	42.13
592.31	32.77
592.46	86.60
592.62	133.41
592.78	98.30
592.94	7.02
593.10	25.75
593.26	9.36
593.41	37.45
593.57	88.94
593.73	105.32
593.89	102.98
594.05	9.36
594.20	117.03
594.36	128.73
594.52	60.85
594.68	70.22
594.84	72.56
594.99	67.88
595.15	49.15
595.31	100.64
595.47	124.05
595.62	60.85
595.78	60.85
595.94	128.73
596.10	72.56
596.25	63.19
596.41	102.98
596.57	60.85
596.73	0.00
596.88	63.19
597.04	131.07
597.20	42.13
597.36	133.41
597.51	44.47
597.67	119.37
597.83	37.45
597.99	37.45
598.14	51.49
598.30	93.62
598.46	28.09
598.61	110.01
598.77	119.37
598.93	79.58
599.09	28.09
599.24	18.72
599.40	84.26
599.56	9.36
599.71	74.90
599.87	93.62
600.03	77.24
600.18	91.28
600.34	58.51
600.50	86.60
600.65	53.83
600.81	30.43
600.97	32.77
601.12	67.88
601.28	88.94
601.44	63.19
601.59	79.58
601.75	39.79
601.91	30.43
602.06	84.26
602.22	39.79
602.37	42.13
602.53	63.19
602.69	70.22
602.84	114.69
603.00	44.47
603.16	119.37
603.31	65.54
603.47	117.03
603.62	112.35
603.78	65.54
603.94	79.58
604.09	86.60
604.25	74.90
604.40	14.04
604.56	63.19
604.71	18.72
604.87	88.94
605.03	16.38
605.18	2.34
605.34	70.22
605.49	124.05
605.65	72.56
605.80	14.04
605.96	44.47
606.12	86.60
606.27	84.26
606.43	37.45
606.58	117.03
606.74	35.11
606.89	70.22
607.05	77.24
607.20	133.41
607.36	72.56
607.51	138.09
607.67	32.77
607.82	42.13
607.98	77.24
608.13	56.17
608.29	51.49
608.44	110.01
608.60	107.66
608.75	88.94
608.91	63.19
609.06	124.05
609.22	81.92
609.37	102.98
609.53	100.64
609.68	117.03
609.84	163.84
609.99	58.51
610.15	95.96
610.30	70.22
610.46	74.90
610.61	95.96
610.76	11.70
610.92	100.64
611.07	79.58
611.23	67.88
611.38	81.92
611.54	60.85
611.69	114.69
611.84	9.36
612.00	39.79
612.15	2.34
612.31	67.88
612.46	74.90
612.62	37.45
612.77	79.58
612.92	105.32
613.08	93.62
613.23	67.88
613.39	81.92
613.54	88.94
613.69	100.64
613.85	9.36
614.00	67.88
614.15	100.64
614.31	70.22
614.46	7.02
614.62	39.79
614.77	117.03
614.92	133.41
615.08	39.79
615.23	0.00
615.38	128.73
615.54	58.51
615.69	51.49
615.84	0.00
616.00	77.24
616.15	2.34
616.30	63.19
616.46	88.94
616.61	65.54
616.76	135.75
616.92	84.26
617.07	100.64
617.22	0.00
617.37	74.90
617.53	0.00
617.68	124.05
617.83	133.41
617.99	131.07
618.14	28.09
618.29	84.26
618.45	63.19
618.60	46.81
618.75	70.22
618.90	44.47
619.06	11.70
619.21	42.13
619.36	117.03
619.51	70.22
619.67	51.49
619.82	21.06
619.97	56.17
620.12	44.47
620.28	102.98
620.43	56.17
620.58	32.77
620.73	86.60
620.89	53.83
621.04	60.85
621.19	91.28
621.34	2.34
621.49	70.22
621.65	32.77
621.80	119.37
621.95	112.35
622.10	35.11
622.25	65.54
622.41	37.45
622.56	46.81
622.71	88.94
622.86	39.79
623.01	23.41
623.16	60.85
623.32	53.83
623.47	0.00
623.62	0.00
623.77	74.90
623.92	77.24
624.07	23.41
624.23	60.85
624.38	93.62
624.53	60.85
624.68	65.54
624.83	11.70
624.98	107.66
625.13	58.51
625.29	28.09
625.44	81.92
625.59	25.75
625.74	126.39
625.89	37.45
626.04	51.49
626.19	46.81
626.34	2.34
626.49	91.28
626.65	105.32
626.80	30.43
626.95	77.24
627.10	11.70
627.25	81.92
627.40	128.73
627.55	23.41
627.70	119.37
627.85	46.81
628.00	51.49
628.15	60.85
628.30	37.45
628.45	81.92
628.60	30.43
628.76	46.81
628.91	93.62
629.06	35.11
629.21	56.17
629.36	152.13
629.51	0.00
629.66	46.81
629.81	86.60
629.96	16.38
630.11	102.98
630.26	67.88
630.41	119.37
630.56	58.51
630.71	44.47
630.86	63.19
631.01	81.92
631.16	65.54
631.31	114.69
631.46	72.56
631.61	65.54
631.76	11.70
631.91	105.32
632.06	39.79
632.21	51.49
632.36	49.15
632.51	4.68
632.66	124.05
632.81	65.54
632.96	67.88
633.10	70.22
633.25	81.92
633.40	72.56
633.55	86.60
633.70	51.49
633.85	65.54
634.00	42.13
634.15	88.94
634.30	16.38
634.45	28.09
634.60	70.22
634.75	63.19
634.90	126.39
635.05	42.13
635.19	0.00
635.34	72.56
635.49	32.77
635.64	49.15
635.79	28.09
635.94	79.58
636.09	46.81
636.24	37.45
636.39	49.15
636.53	107.66
636.68	81.92
636.83	77.24
636.98	114.69
637.13	51.49
637.28	100.64
637.43	70.22
637.57	16.38
637.72	84.26
637.87	42.13
638.02	35.11
638.17	44.47
638.32	49.15
638.46	23.41
638.61	65.54
638.76	86.60
638.91	140.43
639.06	37.45
639.20	0.00
639.35	81.92
639.50	0.00
639.65	56.17
639.80	88.94
639.94	7.02
640.09	77.24
640.24	74.90
640.39	86.60
640.54	102.98
640.68	42.13
640.83	49.15
640.98	30.43
641.13	49.15
641.27	88.94
641.42	98.30
641.57	56.17
641.72	11.70
641.86	100.64
642.01	65.54
642.16	154.48
642.31	95.96
642.45	16.38
642.60	105.32
642.75	56.17
642.90	49.15
643.04	49.15
643.19	30.43
643.34	114.69
643.48	72.56
643.63	46.81
643.78	95.96
643.93	114.69
644.07	0.00
644.22	53.83
644.37	58.51
644.51	91.28
644.66	42.13
644.81	72.56
644.95	58.51
645.10	84.26
645.25	0.00
645.39	100.64
645.54	14.04
645.69	86.60
645.83	18.72
645.98	105.32
646.13	28.09
646.27	46.81
646.42	46.81
646.57	91.28
646.71	44.47
646.86	105.32
647.00	67.88
647.15	110.01
647.30	117.03
647.44	60.85
647.59	84.26
647.74	0.00
647.88	37.45
648.03	49.15
648.17	60.85
648.32	51.49
648.47	53.83
648.61	44.47
648.76	81.92
648.90	46.81
649.05	46.81
649.20	42.13
649.34	9.36
649.49	95.96
649.63	53.83
649.78	51.49
649.92	39.79
650.07	81.92
650.21	0.00
650.36	0.00
650.51	67.88
650.65	56.17
650.80	53.83
650.94	49.15
651.09	37.45
651.23	21.06
651.38	35.11
651.52	0.00
651.67	0.00
651.81	32.77
651.96	79.58
652.10	51.49
652.25	0.00
652.39	39.79
652.54	21.06
652.68	86.60
652.83	74.90
652.97	21.06
653.12	102.98
653.26	107.66
653.41	72.56
653.55	86.60
653.70	51.49
653.84	84.26
653.99	138.09
654.13	11.70
654.27	107.66
654.42	7.02
654.56	30.43
654.71	30.43
654.85	37.45
655.00	70.22
655.14	51.49
655.29	44.47
655.43	88.94
655.57	84.26
655.72	0.00
655.86	42.13
656.01	88.94
656.15	105.32
656.30	65.54
656.44	23.41
656.58	46.81
656.73	74.90
656.87	53.83
657.01	35.11
657.16	51.49
657.30	65.54
657.45	60.85
657.59	93.62
657.73	0.00
657.88	53.83
658.02	16.38
658.16	74.90
658.31	56.17
658.45	65.54
658.60	88.94
658.74	117.03
658.88	56.17
659.03	0.00
659.17	56.17
659.31	77.24
659.46	49.15
659.60	14.04
659.74	65.54
659.89	98.30
660.03	28.09
660.17	86.60
660.32	25.75
660.46	39.79
660.60	9.36
660.74	72.56
660.89	28.09
661.03	42.13
661.17	39.79
661.32	0.00
661.46	49.15
661.60	60.85
661.74	70.22
661.89	49.15
662.03	88.94
662.17	46.81
662.31	67.88
662.46	0.00
662.60	74.90
662.74	72.56
662.88	44.47
663.03	77.24
663.17	128.73
663.31	79.58
663.45	46.81
663.60	46.81
663.74	56.17
663.88	46.81
664.02	49.15
664.17	32.77
664.31	0.00
664.45	60.85
664.59	56.17
664.73	42.13
664.88	70.22
665.02	53.83
665.16	44.47
665.30	102.98
665.44	30.43
665.59	58.51
665.73	79.58
665.87	88.94
666.01	51.49
666.15	88.94
666.29	65.54
666.44	112.35
666.58	88.94
666.72	2.34
666.86	42.13
667.00	32.77
667.14	49.15
667.28	74.90
667.43	65.54
667.57	30.43
667.71	42.13
667.85	28.09
667.99	23.41
668.13	88.94
668.27	102.98
668.41	9.36
668.56	16.38
668.70	107.66
668.84	18.72
668.98	25.75
669.12	0.00
669.26	21.06
669.40	42.13
669.54	60.85
669.68	107.66
669.82	102.98
669.96	74.90
670.10	56.17
670.25	0.00
670.39	9.36
670.53	114.69
670.67	35.11
670.81	11.70
670.95	7.02
671.09	95.96
671.23	39.79
671.37	56.17
671.51	0.00
671.65	0.00
671.79	112.35
671.93	86.60
672.07	44.47
672.21	30.43
672.35	51.49
672.49	51.49
672.63	42.13
672.77	88.94
672.91	30.43
673.05	72.56
673.19	42.13
673.33	114.69
673.47	0.00
673.61	30.43
673.75	21.06
673.89	53.83
674.03	56.17
674.17	42.13
674.31	2.34
674.45	72.56
674.59	28.09
674.73	30.43
674.87	56.17
675.01	63.19
675.15	49.15
675.29	60.85
675.43	23.41
675.56	32.77
675.70	30.43
675.84	25.75
675.98	18.72
676.12	86.60
676.26	18.72
676.40	56.17
676.54	56.17
676.68	39.79
676.82	16.38
676.96	65.54
677.10	35.11
677.23	72.56
677.37	39.79
677.51	81.92
677.65	25.75
677.79	21.06
677.93	119.37
678.07	49.15
678.21	107.66
678.34	42.13
678.48	58.51
678.62	37.45
678.76	72.56
678.90	2.34
679.04	16.38
679.18	14.04
679.31	25.75
679.45	65.54
679.59	42.13
679.73	60.85
679.87	91.28
680.00	112.35
680.14	37.45
680.28	65.54
680.42	63.19
680.56	121.71
680.70	9.36
680.83	7.02
680.97	28.09
681.11	88.94
681.25	44.47
681.39	81.92
681.52	35.11
681.66	0.00
681.80	79.58
681.94	70.22
682.07	98.30
682.21	11.70
682.35	51.49
682.49	0.00
682.62	72.56
682.76	23.41
682.90	39.79
683.04	91.28
683.17	95.96
683.31	100.64
683.45	77.24
683.59	0.00
683.72	28.09
683.86	0.00
684.00	65.54
684.13	112.35
684.27	74.90
684.41	4.68
684.55	0.00
684.68	91.28
684.82	35.11
684.96	42.13
685.09	46.81
685.23	0.00
685.37	0.00
685.50	49.15
685.64	46.81
685.78	18.72
685.91	44.47
686.05	35.11
686.19	25.75
686.32	77.24
686.46	84.26
686.60	77.24
686.73	79.58
686.87	49.15
687.01	72.56
687.14	0.00
687.28	0.00
687.42	58.51
687.55	65.54
687.69	70.22
687.82	46.81
687.96	0.00
688.10	86.60
688.23	0.00
688.37	63.19
688.50	42.13
688.64	30.43
688.78	32.77
688.91	9.36
689.05	46.81
689.18	67.88
689.32	67.88
689.46	60.85
689.59	16.38
689.73	14.04
689.86	0.00
690.00	56.17
690.13	46.81
690.27	53.83
690.41	79.58
690.54	44.47
690.68	44.47
690.81	0.00
690.95	11.70
691.08	86.60
691.22	49.15
691.35	14.04
691.49	81.92
691.62	65.54
691.76	0.00
691.89	53.83
692.03	16.38
692.16	0.00
692.30	23.41
692.43	30.43
692.57	63.19
692.70	0.00
692.84	11.70
692.97	4.68
693.11	0.00
693.24	44.47
693.38	25.75
693.51	18.72
693.65	0.00
693.78	70.22
693.92	16.38
694.05	0.00
694.19	0.00
694.32	39.79
694.45	77.24
694.59	44.47
694.72	37.45
694.86	88.94
694.99	86.60
695.13	0.00
695.26	44.47
695.39	23.41
695.53	51.49
695.66	14.04
695.80	14.04
695.93	105.32
696.07	23.41
696.20	70.22
696.33	46.81
696.47	95.96
696.60	0.00
696.73	25.75
696.87	0.00
697.00	126.39
697.14	70.22
697.27	0.00
697.40	42.13
697.54	88.94
697.67	81.92
697.80	79.58
697.94	39.79
698.07	51.49
698.21	98.30
698.34	0.00
698.47	25.75
698.61	0.00
698.74	7.02
698.87	0.00
699.01	0.00
699.14	18.72
699.27	11.70
699.40	0.00
699.54	16.38
699.67	14.04
699.80	93.62
699.94	100.64
700.07	4.68
700.20	0.00
700.34	4.68
700.47	0.00
700.60	63.19
700.73	44.47
700.87	21.06
701.00	4.68
701.13	4.68
701.26	58.51
701.40	16.38
701.53	77.24
701.66	4.68
701.79	2.34
701.93	67.88
702.06	0.00
702.19	16.38
702.32	32.77
702.46	72.56
702.59	86.60
702.72	56.17
702.85	7.02
702.99	65.54
703.12	0.00
703.25	28.09
703.38	91.28
703.51	39.79
703.65	37.45
703.78	51.49
703.91	72.56
704.04	44.47
704.17	28.09
704.31	65.54
704.44	0.00
704.57	32.77
704.70	25.75
704.83	0.00
704.96	51.49
705.10	23.41
705.23	44.47
>>>>>End Processed Spectral Data<<<<<
