SpectraSuite Data File
++++++++++++++++++++++++++++++++++++
Date: Fri Oct 04 12:13:39 GMT-05:00 2013
User: price-jones
Dark Spectrum Present: No
Reference Spectrum Present: No
Number of Sampled Component Spectra: 1
Spectrometers: USB2+H05261
Integration Time (usec): 10000 (USB2+H05261)
Spectra Averaged: 1 (USB2+H05261)
Boxcar Smoothing: 0 (USB2+H05261)
Correct for Electrical Dark: No (USB2+H05261)
Strobe/Lamp Enabled: No (USB2+H05261)
Correct for Detector Non-linearity: No (USB2+H05261)
Correct for Stray Light: No (USB2+H05261)
Number of Pixels in Processed Spectrum: 2048
>>>>>Begin Processed Spectral Data<<<<<
365.73	42.13
365.92	42.13
366.12	42.13
366.32	0.00
366.52	0.00
366.72	0.00
366.91	0.00
367.11	0.00
367.31	0.00
367.51	0.00
367.70	0.00
367.90	0.00
368.10	0.00
368.30	0.00
368.49	0.00
368.69	0.00
368.89	0.00
369.09	0.00
369.28	0.00
369.48	0.00
369.68	0.00
369.87	0.00
370.07	0.00
370.27	0.00
370.47	0.00
370.66	0.00
370.86	0.00
371.06	46.81
371.25	0.00
371.45	0.00
371.65	0.00
371.84	0.00
372.04	21.06
372.24	0.00
372.44	28.09
372.63	0.00
372.83	14.04
373.03	39.79
373.22	0.00
373.42	63.19
373.62	72.56
373.81	21.06
374.01	18.72
374.21	37.45
374.40	39.79
374.60	32.77
374.79	4.68
374.99	107.66
375.19	74.90
375.38	0.00
375.58	30.43
375.78	67.88
375.97	44.47
376.17	46.81
376.37	100.64
376.56	72.56
376.76	14.04
376.95	63.19
377.15	28.09
377.35	0.00
377.54	39.79
377.74	0.00
377.93	60.85
378.13	49.15
378.33	58.51
378.52	25.75
378.72	28.09
378.91	0.00
379.11	9.36
379.31	0.00
379.50	58.51
379.70	0.00
379.89	11.70
380.09	67.88
380.28	84.26
380.48	46.81
380.68	7.02
380.87	28.09
381.07	42.13
381.26	11.70
381.46	0.00
381.65	0.00
381.85	86.60
382.04	49.15
382.24	0.00
382.43	16.38
382.63	23.41
382.83	0.00
383.02	32.77
383.22	0.00
383.41	0.00
383.61	0.00
383.80	16.38
384.00	42.13
384.19	65.54
384.39	0.00
384.58	0.00
384.78	16.38
384.97	25.75
385.17	46.81
385.36	0.00
385.56	2.34
385.75	28.09
385.95	65.54
386.14	37.45
386.34	32.77
386.53	23.41
386.72	14.04
386.92	14.04
387.11	0.00
387.31	14.04
387.50	0.00
387.70	60.85
387.89	0.00
388.09	21.06
388.28	65.54
388.48	44.47
388.67	23.41
388.86	56.17
389.06	72.56
389.25	0.00
389.45	0.00
389.64	49.15
389.84	95.96
390.03	21.06
390.22	81.92
390.42	42.13
390.61	56.17
390.81	60.85
391.00	138.09
391.19	121.71
391.39	32.77
391.58	16.38
391.78	67.88
391.97	21.06
392.16	37.45
392.36	63.19
392.55	11.70
392.75	9.36
392.94	0.00
393.13	53.83
393.33	0.00
393.52	42.13
393.71	21.06
393.91	32.77
394.10	25.75
394.29	0.00
394.49	53.83
394.68	0.00
394.88	42.13
395.07	25.75
395.26	25.75
395.46	0.00
395.65	25.75
395.84	42.13
396.04	21.06
396.23	30.43
396.42	28.09
396.62	65.54
396.81	0.00
397.00	4.68
397.19	63.19
397.39	23.41
397.58	72.56
397.77	114.69
397.97	11.70
398.16	60.85
398.35	51.49
398.55	0.00
398.74	145.11
398.93	51.49
399.12	0.00
399.32	70.22
399.51	16.38
399.70	39.79
399.90	14.04
400.09	56.17
400.28	37.45
400.47	4.68
400.67	4.68
400.86	0.00
401.05	25.75
401.24	39.79
401.44	0.00
401.63	63.19
401.82	28.09
402.01	11.70
402.21	30.43
402.40	28.09
402.59	9.36
402.78	0.00
402.97	0.00
403.17	53.83
403.36	39.79
403.55	58.51
403.74	67.88
403.93	7.02
404.13	84.26
404.32	60.85
404.51	28.09
404.70	49.15
404.89	114.69
405.09	35.11
405.28	11.70
405.47	93.62
405.66	58.51
405.85	98.30
406.05	102.98
406.24	37.45
406.43	0.00
406.62	7.02
406.81	25.75
407.00	0.00
407.20	0.00
407.39	25.75
407.58	58.51
407.77	0.00
407.96	14.04
408.15	37.45
408.34	23.41
408.54	21.06
408.73	0.00
408.92	79.58
409.11	14.04
409.30	74.90
409.49	74.90
409.68	91.28
409.87	0.00
410.07	0.00
410.26	39.79
410.45	14.04
410.64	0.00
410.83	0.00
411.02	25.75
411.21	44.47
411.40	0.00
411.59	95.96
411.78	7.02
411.98	91.28
412.17	110.01
412.36	51.49
412.55	14.04
412.74	133.41
412.93	0.00
413.12	56.17
413.31	133.41
413.50	100.64
413.69	23.41
413.88	102.98
414.07	42.13
414.26	44.47
414.45	60.85
414.64	77.24
414.83	72.56
415.02	49.15
415.22	46.81
415.41	21.06
415.60	0.00
415.79	4.68
415.98	79.58
416.17	72.56
416.36	53.83
416.55	112.35
416.74	35.11
416.93	86.60
417.12	21.06
417.31	4.68
417.50	53.83
417.69	14.04
417.88	44.47
418.07	102.98
418.26	63.19
418.45	32.77
418.64	25.75
418.83	30.43
419.02	0.00
419.21	102.98
419.39	28.09
419.58	102.98
419.77	53.83
419.96	46.81
420.15	100.64
420.34	2.34
420.53	84.26
420.72	46.81
420.91	49.15
421.10	35.11
421.29	63.19
421.48	35.11
421.67	60.85
421.86	77.24
422.05	84.26
422.24	42.13
422.43	37.45
422.61	32.77
422.80	88.94
422.99	30.43
423.18	72.56
423.37	93.62
423.56	21.06
423.75	16.38
423.94	2.34
424.13	0.00
424.32	102.98
424.50	21.06
424.69	11.70
424.88	98.30
425.07	42.13
425.26	60.85
425.45	88.94
425.64	18.72
425.83	53.83
426.01	0.00
426.20	145.11
426.39	65.54
426.58	25.75
426.77	30.43
426.96	28.09
427.15	67.88
427.33	126.39
427.52	18.72
427.71	37.45
427.90	30.43
428.09	77.24
428.28	14.04
428.46	95.96
428.65	58.51
428.84	72.56
429.03	79.58
429.22	28.09
429.40	39.79
429.59	110.01
429.78	93.62
429.97	88.94
430.16	42.13
430.34	67.88
430.53	135.75
430.72	72.56
430.91	77.24
431.10	46.81
431.28	11.70
431.47	42.13
431.66	58.51
431.85	88.94
432.03	32.77
432.22	72.56
432.41	39.79
432.60	30.43
432.79	35.11
432.97	30.43
433.16	72.56
433.35	58.51
433.54	9.36
433.72	0.00
433.91	0.00
434.10	74.90
434.28	70.22
434.47	51.49
434.66	23.41
434.85	0.00
435.03	74.90
435.22	30.43
435.41	72.56
435.59	46.81
435.78	79.58
435.97	32.77
436.16	7.02
436.34	23.41
436.53	77.24
436.72	0.00
436.90	30.43
437.09	102.98
437.28	35.11
437.46	0.00
437.65	44.47
437.84	51.49
438.02	23.41
438.21	9.36
438.40	42.13
438.58	51.49
438.77	35.11
438.96	105.32
439.14	16.38
439.33	0.00
439.52	53.83
439.70	4.68
439.89	42.13
440.08	28.09
440.26	56.17
440.45	63.19
440.63	9.36
440.82	152.13
441.01	105.32
441.19	105.32
441.38	39.79
441.57	30.43
441.75	77.24
441.94	23.41
442.12	93.62
442.31	95.96
442.50	91.28
442.68	35.11
442.87	138.09
443.05	0.00
443.24	81.92
443.43	77.24
443.61	70.22
443.80	11.70
443.98	67.88
444.17	91.28
444.35	63.19
444.54	0.00
444.73	2.34
444.91	28.09
445.10	23.41
445.28	49.15
445.47	84.26
445.65	11.70
445.84	42.13
446.02	42.13
446.21	70.22
446.39	16.38
446.58	37.45
446.77	11.70
446.95	0.00
447.14	60.85
447.32	16.38
447.51	0.00
447.69	4.68
447.88	93.62
448.06	93.62
448.25	72.56
448.43	25.75
448.62	70.22
448.80	49.15
448.99	14.04
449.17	67.88
449.36	39.79
449.54	65.54
449.73	88.94
449.91	65.54
450.10	63.19
450.28	110.01
450.46	23.41
450.65	102.98
450.83	28.09
451.02	63.19
451.20	79.58
451.39	42.13
451.57	72.56
451.76	72.56
451.94	37.45
452.13	0.00
452.31	42.13
452.49	39.79
452.68	28.09
452.86	25.75
453.05	110.01
453.23	86.60
453.42	16.38
453.60	51.49
453.78	60.85
453.97	98.30
454.15	4.68
454.34	39.79
454.52	30.43
454.70	37.45
454.89	4.68
455.07	60.85
455.26	0.00
455.44	100.64
455.62	77.24
455.81	53.83
455.99	79.58
456.17	49.15
456.36	0.00
456.54	23.41
456.73	79.58
456.91	60.85
457.09	30.43
457.28	23.41
457.46	35.11
457.64	46.81
457.83	81.92
458.01	25.75
458.19	53.83
458.38	7.02
458.56	32.77
458.74	0.00
458.93	60.85
459.11	63.19
459.29	21.06
459.48	56.17
459.66	74.90
459.84	42.13
460.03	35.11
460.21	30.43
460.39	102.98
460.57	77.24
460.76	58.51
460.94	14.04
461.12	95.96
461.31	37.45
461.49	72.56
461.67	16.38
461.85	72.56
462.04	60.85
462.22	51.49
462.40	60.85
462.59	74.90
462.77	0.00
462.95	74.90
463.13	67.88
463.32	60.85
463.50	30.43
463.68	93.62
463.86	11.70
464.05	7.02
464.23	60.85
464.41	0.00
464.59	4.68
464.78	53.83
464.96	7.02
465.14	49.15
465.32	107.66
465.50	23.41
465.69	79.58
465.87	4.68
466.05	32.77
466.23	100.64
466.41	0.00
466.60	32.77
466.78	37.45
466.96	114.69
467.14	86.60
467.32	23.41
467.51	102.98
467.69	88.94
467.87	86.60
468.05	65.54
468.23	138.09
468.41	77.24
468.60	67.88
468.78	42.13
468.96	28.09
469.14	28.09
469.32	28.09
469.50	98.30
469.69	84.26
469.87	0.00
470.05	58.51
470.23	46.81
470.41	14.04
470.59	79.58
470.77	84.26
470.95	0.00
471.14	32.77
471.32	21.06
471.50	16.38
471.68	56.17
471.86	63.19
472.04	16.38
472.22	79.58
472.40	0.00
472.58	56.17
472.77	46.81
472.95	86.60
473.13	77.24
473.31	2.34
473.49	35.11
473.67	37.45
473.85	46.81
474.03	46.81
474.21	88.94
474.39	37.45
474.57	37.45
474.75	79.58
474.93	98.30
475.12	51.49
475.30	79.58
475.48	152.13
475.66	0.00
475.84	70.22
476.02	72.56
476.20	77.24
476.38	60.85
476.56	0.00
476.74	74.90
476.92	63.19
477.10	46.81
477.28	128.73
477.46	65.54
477.64	105.32
477.82	53.83
478.00	65.54
478.18	56.17
478.36	51.49
478.54	0.00
478.72	105.32
478.90	72.56
479.08	72.56
479.26	0.00
479.44	42.13
479.62	58.51
479.80	4.68
479.98	44.47
480.16	121.71
480.34	58.51
480.52	98.30
480.70	39.79
480.88	42.13
481.06	88.94
481.24	58.51
481.41	25.75
481.59	14.04
481.77	42.13
481.95	81.92
482.13	74.90
482.31	37.45
482.49	21.06
482.67	18.72
482.85	124.05
483.03	23.41
483.21	102.98
483.39	72.56
483.57	63.19
483.74	152.13
483.92	65.54
484.10	39.79
484.28	77.24
484.46	58.51
484.64	32.77
484.82	39.79
485.00	0.00
485.18	74.90
485.35	39.79
485.53	23.41
485.71	60.85
485.89	25.75
486.07	70.22
486.25	35.11
486.43	72.56
486.61	77.24
486.78	56.17
486.96	58.51
487.14	93.62
487.32	70.22
487.50	60.85
487.68	32.77
487.85	133.41
488.03	56.17
488.21	124.05
488.39	30.43
488.57	102.98
488.75	58.51
488.92	32.77
489.10	9.36
489.28	79.58
489.46	51.49
489.64	30.43
489.81	93.62
489.99	114.69
490.17	95.96
490.35	119.37
490.53	91.28
490.70	49.15
490.88	140.43
491.06	138.09
491.24	28.09
491.41	131.07
491.59	70.22
491.77	51.49
491.95	84.26
492.13	86.60
492.30	2.34
492.48	84.26
492.66	86.60
492.84	25.75
493.01	63.19
493.19	42.13
493.37	117.03
493.54	56.17
493.72	44.47
493.90	46.81
494.08	58.51
494.25	44.47
494.43	102.98
494.61	74.90
494.79	88.94
494.96	51.49
495.14	72.56
495.32	58.51
495.49	117.03
495.67	53.83
495.85	100.64
496.02	91.28
496.20	107.66
496.38	152.13
496.55	7.02
496.73	110.01
496.91	0.00
497.09	11.70
497.26	58.51
497.44	135.75
497.62	98.30
497.79	42.13
497.97	102.98
498.14	131.07
498.32	77.24
498.50	72.56
498.67	46.81
498.85	72.56
499.03	88.94
499.20	84.26
499.38	98.30
499.56	86.60
499.73	119.37
499.91	60.85
500.08	156.82
500.26	91.28
500.44	88.94
500.61	77.24
500.79	0.00
500.97	142.77
501.14	105.32
501.32	70.22
501.49	147.45
501.67	16.38
501.84	93.62
502.02	138.09
502.20	121.71
502.37	77.24
502.55	91.28
502.72	35.11
502.90	142.77
503.07	86.60
503.25	60.85
503.43	81.92
503.60	112.35
503.78	84.26
503.95	77.24
504.13	46.81
504.30	74.90
504.48	126.39
504.65	88.94
504.83	93.62
505.01	86.60
505.18	56.17
505.36	114.69
505.53	63.19
505.71	18.72
505.88	74.90
506.06	56.17
506.23	110.01
506.41	67.88
506.58	67.88
506.76	79.58
506.93	42.13
507.11	53.83
507.28	67.88
507.46	102.98
507.63	77.24
507.81	70.22
507.98	42.13
508.16	86.60
508.33	138.09
508.50	84.26
508.68	93.62
508.85	98.30
509.03	72.56
509.20	74.90
509.38	60.85
509.55	140.43
509.73	51.49
509.90	135.75
510.08	21.06
510.25	100.64
510.42	126.39
510.60	35.11
510.77	95.96
510.95	77.24
511.12	56.17
511.30	93.62
511.47	98.30
511.64	60.85
511.82	58.51
511.99	56.17
512.17	72.56
512.34	107.66
512.51	131.07
512.69	14.04
512.86	72.56
513.04	140.43
513.21	42.13
513.38	72.56
513.56	67.88
513.73	42.13
513.90	145.11
514.08	152.13
514.25	63.19
514.43	119.37
514.60	25.75
514.77	100.64
514.95	67.88
515.12	126.39
515.29	70.22
515.47	58.51
515.64	60.85
515.81	72.56
515.99	49.15
516.16	131.07
516.33	67.88
516.51	49.15
516.68	128.73
516.85	30.43
517.03	72.56
517.20	21.06
517.37	95.96
517.54	18.72
517.72	32.77
517.89	58.51
518.06	93.62
518.24	128.73
518.41	65.54
518.58	18.72
518.75	86.60
518.93	30.43
519.10	107.66
519.27	107.66
519.45	16.38
519.62	102.98
519.79	152.13
519.96	98.30
520.14	58.51
520.31	105.32
520.48	88.94
520.65	60.85
520.83	163.84
521.00	44.47
521.17	28.09
521.34	91.28
521.52	79.58
521.69	128.73
521.86	63.19
522.03	121.71
522.20	86.60
522.38	28.09
522.55	110.01
522.72	35.11
522.89	105.32
523.07	32.77
523.24	91.28
523.41	107.66
523.58	95.96
523.75	107.66
523.92	84.26
524.10	58.51
524.27	67.88
524.44	102.98
524.61	67.88
524.78	138.09
524.96	51.49
525.13	79.58
525.30	105.32
525.47	30.43
525.64	100.64
525.81	95.96
525.98	100.64
526.16	133.41
526.33	72.56
526.50	133.41
526.67	156.82
526.84	102.98
527.01	9.36
527.18	58.51
527.36	53.83
527.53	88.94
527.70	4.68
527.87	81.92
528.04	84.26
528.21	140.43
528.38	84.26
528.55	100.64
528.72	58.51
528.89	121.71
529.07	114.69
529.24	2.34
529.41	95.96
529.58	86.60
529.75	112.35
529.92	81.92
530.09	93.62
530.26	46.81
530.43	177.88
530.60	63.19
530.77	107.66
530.94	88.94
531.11	88.94
531.28	63.19
531.46	46.81
531.63	81.92
531.80	88.94
531.97	44.47
532.14	63.19
532.31	93.62
532.48	65.54
532.65	11.70
532.82	74.90
532.99	0.00
533.16	156.82
533.33	119.37
533.50	67.88
533.67	84.26
533.84	70.22
534.01	37.45
534.18	81.92
534.35	100.64
534.52	51.49
534.69	65.54
534.86	30.43
535.03	100.64
535.20	88.94
535.37	121.71
535.54	93.62
535.71	51.49
535.88	102.98
536.05	63.19
536.22	70.22
536.38	65.54
536.55	105.32
536.72	56.17
536.89	60.85
537.06	81.92
537.23	126.39
537.40	77.24
537.57	30.43
537.74	124.05
537.91	131.07
538.08	77.24
538.25	98.30
538.42	56.17
538.59	63.19
538.75	63.19
538.92	60.85
539.09	0.00
539.26	60.85
539.43	63.19
539.60	91.28
539.77	128.73
539.94	88.94
540.11	53.83
540.28	81.92
540.44	102.98
540.61	100.64
540.78	105.32
540.95	91.28
541.12	124.05
541.29	79.58
541.46	72.56
541.62	72.56
541.79	65.54
541.96	84.26
542.13	95.96
542.30	16.38
542.47	63.19
542.63	107.66
542.80	102.98
542.97	53.83
543.14	30.43
543.31	51.49
543.48	72.56
543.64	23.41
543.81	98.30
543.98	95.96
544.15	35.11
544.32	102.98
544.48	93.62
544.65	147.45
544.82	88.94
544.99	95.96
545.16	77.24
545.32	128.73
545.49	35.11
545.66	72.56
545.83	112.35
546.00	79.58
546.16	168.52
546.33	79.58
546.50	70.22
546.67	81.92
546.83	60.85
547.00	102.98
547.17	124.05
547.34	77.24
547.50	98.30
547.67	126.39
547.84	56.17
548.00	84.26
548.17	58.51
548.34	56.17
548.51	58.51
548.67	100.64
548.84	114.69
549.01	149.79
549.18	105.32
549.34	53.83
549.51	23.41
549.68	72.56
549.84	28.09
550.01	46.81
550.18	93.62
550.34	72.56
550.51	84.26
550.68	77.24
550.84	37.45
551.01	98.30
551.18	65.54
551.34	42.13
551.51	128.73
551.68	102.98
551.84	135.75
552.01	39.79
552.18	95.96
552.34	79.58
552.51	119.37
552.68	98.30
552.84	4.68
553.01	46.81
553.18	39.79
553.34	65.54
553.51	63.19
553.67	79.58
553.84	60.85
554.01	81.92
554.17	98.30
554.34	37.45
554.51	93.62
554.67	81.92
554.84	84.26
555.00	119.37
555.17	100.64
555.33	72.56
555.50	112.35
555.67	112.35
555.83	133.41
556.00	110.01
556.16	147.45
556.33	107.66
556.50	98.30
556.66	128.73
556.83	86.60
556.99	53.83
557.16	46.81
557.32	107.66
557.49	95.96
557.65	35.11
557.82	67.88
557.98	60.85
558.15	0.00
558.32	58.51
558.48	81.92
558.65	98.30
558.81	79.58
558.98	72.56
559.14	35.11
559.31	168.52
559.47	67.88
559.64	28.09
559.80	28.09
559.97	135.75
560.13	46.81
560.30	140.43
560.46	114.69
560.63	98.30
560.79	100.64
560.96	114.69
561.12	112.35
561.29	91.28
561.45	65.54
561.61	79.58
561.78	95.96
561.94	77.24
562.11	81.92
562.27	91.28
562.44	105.32
562.60	124.05
562.77	98.30
562.93	44.47
563.10	53.83
563.26	70.22
563.42	23.41
563.59	124.05
563.75	79.58
563.92	117.03
564.08	95.96
564.24	16.38
564.41	121.71
564.57	107.66
564.74	81.92
564.90	53.83
565.07	145.11
565.23	102.98
565.39	18.72
565.56	117.03
565.72	72.56
565.88	138.09
566.05	84.26
566.21	51.49
566.38	128.73
566.54	88.94
566.70	159.16
566.87	81.92
567.03	74.90
567.19	128.73
567.36	67.88
567.52	58.51
567.68	121.71
567.85	58.51
568.01	88.94
568.17	107.66
568.34	119.37
568.50	88.94
568.66	28.09
568.83	84.26
568.99	74.90
569.15	23.41
569.32	117.03
569.48	117.03
569.64	28.09
569.81	28.09
569.97	65.54
570.13	117.03
570.30	16.38
570.46	44.47
570.62	42.13
570.78	119.37
570.95	56.17
571.11	44.47
571.27	86.60
571.43	105.32
571.60	42.13
571.76	37.45
571.92	51.49
572.09	7.02
572.25	88.94
572.41	121.71
572.57	100.64
572.74	65.54
572.90	84.26
573.06	0.00
573.22	107.66
573.38	63.19
573.55	32.77
573.71	133.41
573.87	16.38
574.03	100.64
574.20	91.28
574.36	74.90
574.52	91.28
574.68	117.03
574.84	102.98
575.01	46.81
575.17	11.70
575.33	60.85
575.49	133.41
575.65	86.60
575.82	121.71
575.98	81.92
576.14	67.88
576.30	133.41
576.46	91.28
576.62	105.32
576.79	98.30
576.95	121.71
577.11	145.11
577.27	23.41
577.43	112.35
577.59	95.96
577.75	74.90
577.92	14.04
578.08	39.79
578.24	37.45
578.40	77.24
578.56	42.13
578.72	51.49
578.88	91.28
579.04	18.72
579.21	49.15
579.37	70.22
579.53	110.01
579.69	126.39
579.85	91.28
580.01	102.98
580.17	65.54
580.33	51.49
580.49	56.17
580.65	110.01
580.82	37.45
580.98	86.60
581.14	74.90
581.30	114.69
581.46	126.39
581.62	140.43
581.78	70.22
581.94	30.43
582.10	86.60
582.26	67.88
582.42	86.60
582.58	163.84
582.74	63.19
582.90	72.56
583.06	72.56
583.22	79.58
583.38	63.19
583.54	32.77
583.70	77.24
583.86	105.32
584.02	39.79
584.18	49.15
584.34	131.07
584.50	37.45
584.66	88.94
584.82	65.54
584.98	84.26
585.14	16.38
585.30	53.83
585.46	88.94
585.62	86.60
585.78	79.58
585.94	81.92
586.10	0.00
586.26	11.70
586.42	100.64
586.58	14.04
586.74	77.24
586.90	102.98
587.06	49.15
587.22	95.96
587.38	91.28
587.54	32.77
587.70	110.01
587.86	37.45
588.02	35.11
588.18	44.47
588.34	56.17
588.49	112.35
588.65	44.47
588.81	56.17
588.97	49.15
589.13	91.28
589.29	107.66
589.45	60.85
589.61	67.88
589.77	72.56
589.93	18.72
590.08	102.98
590.24	119.37
590.40	37.45
590.56	114.69
590.72	77.24
590.88	56.17
591.04	60.85
591.20	63.19
591.35	4.68
591.51	131.07
591.67	0.00
591.83	79.58
591.99	93.62
592.15	114.69
592.31	63.19
592.46	79.58
592.62	63.19
592.78	51.49
592.94	70.22
593.10	100.64
593.26	0.00
593.41	67.88
593.57	91.28
593.73	86.60
593.89	86.60
594.05	60.85
594.20	23.41
594.36	121.71
594.52	56.17
594.68	149.79
594.84	105.32
594.99	74.90
595.15	0.00
595.31	0.00
595.47	112.35
595.62	117.03
595.78	44.47
595.94	60.85
596.10	117.03
596.25	88.94
596.41	98.30
596.57	0.00
596.73	53.83
596.88	81.92
597.04	56.17
597.20	100.64
597.36	53.83
597.51	156.82
597.67	98.30
597.83	79.58
597.99	100.64
598.14	107.66
598.30	56.17
598.46	112.35
598.61	72.56
598.77	28.09
598.93	58.51
599.09	42.13
599.24	126.39
599.40	91.28
599.56	46.81
599.71	9.36
599.87	39.79
600.03	53.83
600.18	77.24
600.34	65.54
600.50	53.83
600.65	30.43
600.81	79.58
600.97	100.64
601.12	21.06
601.28	79.58
601.44	46.81
601.59	53.83
601.75	84.26
601.91	91.28
602.06	81.92
602.22	93.62
602.37	112.35
602.53	4.68
602.69	42.13
602.84	124.05
603.00	2.34
603.16	60.85
603.31	67.88
603.47	93.62
603.62	131.07
603.78	65.54
603.94	159.16
604.09	98.30
604.25	135.75
604.40	4.68
604.56	28.09
604.71	67.88
604.87	9.36
605.03	98.30
605.18	95.96
605.34	131.07
605.49	44.47
605.65	0.00
605.80	95.96
605.96	30.43
606.12	135.75
606.27	149.79
606.43	53.83
606.58	14.04
606.74	28.09
606.89	72.56
607.05	124.05
607.20	60.85
607.36	74.90
607.51	30.43
607.67	98.30
607.82	70.22
607.98	114.69
608.13	72.56
608.29	14.04
608.44	77.24
608.60	86.60
608.75	93.62
608.91	77.24
609.06	63.19
609.22	65.54
609.37	72.56
609.53	11.70
609.68	88.94
609.84	32.77
609.99	23.41
610.15	42.13
610.30	53.83
610.46	60.85
610.61	63.19
610.76	121.71
610.92	72.56
611.07	107.66
611.23	124.05
611.38	67.88
611.54	147.45
611.69	95.96
611.84	110.01
612.00	95.96
612.15	70.22
612.31	39.79
612.46	11.70
612.62	60.85
612.77	56.17
612.92	60.85
613.08	0.00
613.23	23.41
613.39	100.64
613.54	105.32
613.69	67.88
613.85	77.24
614.00	107.66
614.15	49.15
614.31	16.38
614.46	124.05
614.62	42.13
614.77	65.54
614.92	117.03
615.08	44.47
615.23	81.92
615.38	65.54
615.54	70.22
615.69	42.13
615.84	60.85
616.00	21.06
616.15	53.83
616.30	28.09
616.46	23.41
616.61	32.77
616.76	28.09
616.92	93.62
617.07	100.64
617.22	58.51
617.37	91.28
617.53	67.88
617.68	119.37
617.83	56.17
617.99	32.77
618.14	39.79
618.29	77.24
618.45	32.77
618.60	102.98
618.75	44.47
618.90	39.79
619.06	30.43
619.21	56.17
619.36	60.85
619.51	58.51
619.67	91.28
619.82	25.75
619.97	124.05
620.12	110.01
620.28	46.81
620.43	49.15
620.58	0.00
620.73	65.54
620.89	23.41
621.04	102.98
621.19	32.77
621.34	102.98
621.49	14.04
621.65	11.70
621.80	60.85
621.95	131.07
622.10	133.41
622.25	39.79
622.41	56.17
622.56	79.58
622.71	67.88
622.86	112.35
623.01	23.41
623.16	147.45
623.32	39.79
623.47	72.56
623.62	0.00
623.77	77.24
623.92	72.56
624.07	88.94
624.23	42.13
624.38	102.98
624.53	86.60
624.68	74.90
624.83	95.96
624.98	32.77
625.13	112.35
625.29	60.85
625.44	131.07
625.59	149.79
625.74	37.45
625.89	74.90
626.04	0.00
626.19	9.36
626.34	7.02
626.49	70.22
626.65	95.96
626.80	79.58
626.95	58.51
627.10	4.68
627.25	53.83
627.40	81.92
627.55	67.88
627.70	18.72
627.85	81.92
628.00	70.22
628.15	51.49
628.30	117.03
628.45	49.15
628.60	138.09
628.76	98.30
628.91	65.54
629.06	138.09
629.21	65.54
629.36	35.11
629.51	65.54
629.66	11.70
629.81	18.72
629.96	65.54
630.11	77.24
630.26	67.88
630.41	46.81
630.56	51.49
630.71	28.09
630.86	131.07
631.01	0.00
631.16	60.85
631.31	60.85
631.46	49.15
631.61	63.19
631.76	131.07
631.91	79.58
632.06	133.41
632.21	0.00
632.36	39.79
632.51	107.66
632.66	53.83
632.81	0.00
632.96	72.56
633.10	60.85
633.25	0.00
633.40	74.90
633.55	32.77
633.70	0.00
633.85	128.73
634.00	70.22
634.15	65.54
634.30	28.09
634.45	93.62
634.60	60.85
634.75	58.51
634.90	49.15
635.05	65.54
635.19	32.77
635.34	70.22
635.49	72.56
635.64	44.47
635.79	35.11
635.94	49.15
636.09	168.52
636.24	65.54
636.39	28.09
636.53	63.19
636.68	37.45
636.83	49.15
636.98	11.70
637.13	53.83
637.28	98.30
637.43	88.94
637.57	74.90
637.72	88.94
637.87	25.75
638.02	86.60
638.17	0.00
638.32	86.60
638.46	23.41
638.61	65.54
638.76	53.83
638.91	51.49
639.06	30.43
639.20	28.09
639.35	105.32
639.50	9.36
639.65	7.02
639.80	49.15
639.94	11.70
640.09	86.60
640.24	86.60
640.39	105.32
640.54	98.30
640.68	42.13
640.83	46.81
640.98	70.22
641.13	11.70
641.27	58.51
641.42	0.00
641.57	119.37
641.72	100.64
641.86	121.71
642.01	39.79
642.16	35.11
642.31	25.75
642.45	39.79
642.60	88.94
642.75	37.45
642.90	91.28
643.04	18.72
643.19	86.60
643.34	121.71
643.48	37.45
643.63	98.30
643.78	53.83
643.93	81.92
644.07	70.22
644.22	72.56
644.37	21.06
644.51	14.04
644.66	35.11
644.81	72.56
644.95	28.09
645.10	86.60
645.25	46.81
645.39	25.75
645.54	28.09
645.69	49.15
645.83	77.24
645.98	18.72
646.13	77.24
646.27	39.79
646.42	23.41
646.57	60.85
646.71	23.41
646.86	98.30
647.00	84.26
647.15	0.00
647.30	88.94
647.44	35.11
647.59	112.35
647.74	39.79
647.88	2.34
648.03	0.00
648.17	32.77
648.32	32.77
648.47	46.81
648.61	11.70
648.76	30.43
648.90	67.88
649.05	2.34
649.20	37.45
649.34	30.43
649.49	0.00
649.63	30.43
649.78	0.00
649.92	70.22
650.07	44.47
650.21	37.45
650.36	72.56
650.51	0.00
650.65	65.54
650.80	44.47
650.94	39.79
651.09	51.49
651.23	81.92
651.38	93.62
651.52	49.15
651.67	0.00
651.81	79.58
651.96	105.32
652.10	72.56
652.25	114.69
652.39	70.22
652.54	81.92
652.68	95.96
652.83	49.15
652.97	32.77
653.12	95.96
653.26	18.72
653.41	49.15
653.55	42.13
653.70	0.00
653.84	63.19
653.99	32.77
654.13	23.41
654.27	44.47
654.42	81.92
654.56	30.43
654.71	28.09
654.85	4.68
655.00	28.09
655.14	72.56
655.29	49.15
655.43	81.92
655.57	37.45
655.72	42.13
655.86	81.92
656.01	28.09
656.15	35.11
656.30	0.00
656.44	39.79
656.58	42.13
656.73	51.49
656.87	44.47
657.01	51.49
657.16	53.83
657.30	42.13
657.45	70.22
657.59	102.98
657.73	117.03
657.88	63.19
658.02	70.22
658.16	117.03
658.31	53.83
658.45	0.00
658.60	37.45
658.74	93.62
658.88	63.19
659.03	58.51
659.17	28.09
659.31	187.24
659.46	124.05
659.60	51.49
659.74	70.22
659.89	67.88
660.03	21.06
660.17	0.00
660.32	51.49
660.46	65.54
660.60	32.77
660.74	21.06
660.89	28.09
661.03	77.24
661.17	9.36
661.32	25.75
661.46	72.56
661.60	88.94
661.74	51.49
661.89	124.05
662.03	110.01
662.17	88.94
662.31	100.64
662.46	0.00
662.60	28.09
662.74	49.15
662.88	16.38
663.03	39.79
663.17	23.41
663.31	74.90
663.45	0.00
663.60	100.64
663.74	35.11
663.88	42.13
664.02	98.30
664.17	51.49
664.31	56.17
664.45	77.24
664.59	63.19
664.73	46.81
664.88	35.11
665.02	102.98
665.16	0.00
665.30	37.45
665.44	154.48
665.59	4.68
665.73	63.19
665.87	79.58
666.01	114.69
666.15	0.00
666.29	35.11
666.44	67.88
666.58	105.32
666.72	51.49
666.86	51.49
667.00	107.66
667.14	14.04
667.28	23.41
667.43	56.17
667.57	28.09
667.71	35.11
667.85	72.56
667.99	28.09
668.13	112.35
668.27	100.64
668.41	60.85
668.56	98.30
668.70	84.26
668.84	63.19
668.98	30.43
669.12	23.41
669.26	91.28
669.40	39.79
669.54	25.75
669.68	53.83
669.82	7.02
669.96	0.00
670.10	70.22
670.25	35.11
670.39	35.11
670.53	32.77
670.67	7.02
670.81	18.72
670.95	56.17
671.09	67.88
671.23	112.35
671.37	46.81
671.51	74.90
671.65	63.19
671.79	28.09
671.93	56.17
672.07	18.72
672.21	53.83
672.35	28.09
672.49	107.66
672.63	56.17
672.77	93.62
672.91	60.85
673.05	110.01
673.19	7.02
673.33	51.49
673.47	98.30
673.61	42.13
673.75	72.56
673.89	37.45
674.03	152.13
674.17	105.32
674.31	84.26
674.45	65.54
674.59	65.54
674.73	0.00
674.87	95.96
675.01	56.17
675.15	28.09
675.29	4.68
675.43	0.00
675.56	67.88
675.70	74.90
675.84	72.56
675.98	42.13
676.12	4.68
676.26	0.00
676.40	35.11
676.54	37.45
676.68	28.09
676.82	79.58
676.96	37.45
677.10	14.04
677.23	63.19
677.37	32.77
677.51	16.38
677.65	102.98
677.79	53.83
677.93	37.45
678.07	44.47
678.21	100.64
678.34	9.36
678.48	91.28
678.62	44.47
678.76	28.09
678.90	107.66
679.04	0.00
679.18	42.13
679.31	112.35
679.45	21.06
679.59	23.41
679.73	58.51
679.87	23.41
680.00	35.11
680.14	23.41
680.28	42.13
680.42	30.43
680.56	35.11
680.70	37.45
680.83	126.39
680.97	58.51
681.11	79.58
681.25	58.51
681.39	37.45
681.52	21.06
681.66	133.41
681.80	79.58
681.94	11.70
682.07	70.22
682.21	42.13
682.35	39.79
682.49	35.11
682.62	117.03
682.76	72.56
682.90	16.38
683.04	105.32
683.17	65.54
683.31	39.79
683.45	86.60
683.59	0.00
683.72	58.51
683.86	65.54
684.00	60.85
684.13	98.30
684.27	65.54
684.41	44.47
684.55	46.81
684.68	98.30
684.82	56.17
684.96	81.92
685.09	60.85
685.23	32.77
685.37	100.64
685.50	95.96
685.64	51.49
685.78	25.75
685.91	30.43
686.05	35.11
686.19	72.56
686.32	21.06
686.46	88.94
686.60	0.00
686.73	46.81
686.87	70.22
687.01	28.09
687.14	51.49
687.28	23.41
687.42	67.88
687.55	0.00
687.69	39.79
687.82	0.00
687.96	37.45
688.10	72.56
688.23	44.47
688.37	16.38
688.50	42.13
688.64	72.56
688.78	35.11
688.91	117.03
689.05	49.15
689.18	25.75
689.32	0.00
689.46	93.62
689.59	70.22
689.73	16.38
689.86	37.45
690.00	0.00
690.13	65.54
690.27	42.13
690.41	37.45
690.54	0.00
690.68	81.92
690.81	0.00
690.95	32.77
691.08	84.26
691.22	133.41
691.35	0.00
691.49	14.04
691.62	44.47
691.76	39.79
691.89	42.13
692.03	46.81
692.16	63.19
692.30	67.88
692.43	65.54
692.57	58.51
692.70	56.17
692.84	56.17
692.97	100.64
693.11	63.19
693.24	0.00
693.38	16.38
693.51	37.45
693.65	28.09
693.78	44.47
693.92	79.58
694.05	0.00
694.19	58.51
694.32	98.30
694.45	51.49
694.59	21.06
694.72	67.88
694.86	60.85
694.99	21.06
695.13	42.13
695.26	42.13
695.39	39.79
695.53	4.68
695.66	128.73
695.80	23.41
695.93	0.00
696.07	93.62
696.20	46.81
696.33	49.15
696.47	39.79
696.60	58.51
696.73	0.00
696.87	37.45
697.00	67.88
697.14	28.09
697.27	23.41
697.40	42.13
697.54	49.15
697.67	28.09
697.80	11.70
697.94	63.19
698.07	39.79
698.21	37.45
698.34	46.81
698.47	65.54
698.61	49.15
698.74	32.77
698.87	14.04
699.01	53.83
699.14	0.00
699.27	16.38
699.40	44.47
699.54	9.36
699.67	42.13
699.80	35.11
699.94	42.13
700.07	46.81
700.20	25.75
700.34	9.36
700.47	42.13
700.60	28.09
700.73	74.90
700.87	91.28
701.00	28.09
701.13	21.06
701.26	58.51
701.40	28.09
701.53	49.15
701.66	14.04
701.79	37.45
701.93	72.56
702.06	9.36
702.19	77.24
702.32	30.43
702.46	102.98
702.59	0.00
702.72	67.88
702.85	0.00
702.99	39.79
703.12	72.56
703.25	56.17
703.38	30.43
703.51	53.83
703.65	72.56
703.78	9.36
703.91	30.43
704.04	60.85
704.17	21.06
704.31	74.90
704.44	4.68
704.57	70.22
704.70	14.04
704.83	60.85
704.96	30.43
705.10	53.83
705.23	53.83
>>>>>End Processed Spectral Data<<<<<
