SpectraSuite Data File
++++++++++++++++++++++++++++++++++++
Date: Fri Oct 04 12:13:37 GMT-05:00 2013
User: price-jones
Dark Spectrum Present: No
Reference Spectrum Present: No
Number of Sampled Component Spectra: 1
Spectrometers: USB2+H05261
Integration Time (usec): 10000 (USB2+H05261)
Spectra Averaged: 1 (USB2+H05261)
Boxcar Smoothing: 0 (USB2+H05261)
Correct for Electrical Dark: No (USB2+H05261)
Strobe/Lamp Enabled: No (USB2+H05261)
Correct for Detector Non-linearity: No (USB2+H05261)
Correct for Stray Light: No (USB2+H05261)
Number of Pixels in Processed Spectrum: 2048
>>>>>Begin Processed Spectral Data<<<<<
365.73	35.11
365.92	35.11
366.12	35.11
366.32	0.00
366.52	0.00
366.72	0.00
366.91	0.00
367.11	0.00
367.31	0.00
367.51	0.00
367.70	0.00
367.90	0.00
368.10	0.00
368.30	0.00
368.49	0.00
368.69	0.00
368.89	0.00
369.09	0.00
369.28	0.00
369.48	0.00
369.68	0.00
369.87	0.00
370.07	0.00
370.27	0.00
370.47	0.00
370.66	0.00
370.86	0.00
371.06	0.00
371.25	37.45
371.45	0.00
371.65	0.00
371.84	0.00
372.04	0.00
372.24	51.49
372.44	49.15
372.63	18.72
372.83	30.43
373.03	30.43
373.22	53.83
373.42	0.00
373.62	0.00
373.81	0.00
374.01	44.47
374.21	0.00
374.40	7.02
374.60	25.75
374.79	46.81
374.99	0.00
375.19	77.24
375.38	16.38
375.58	44.47
375.78	30.43
375.97	53.83
376.17	56.17
376.37	18.72
376.56	0.00
376.76	49.15
376.95	39.79
377.15	60.85
377.35	32.77
377.54	86.60
377.74	70.22
377.93	16.38
378.13	0.00
378.33	0.00
378.52	32.77
378.72	0.00
378.91	0.00
379.11	0.00
379.31	30.43
379.50	7.02
379.70	74.90
379.89	2.34
380.09	0.00
380.28	18.72
380.48	0.00
380.68	0.00
380.87	18.72
381.07	42.13
381.26	72.56
381.46	0.00
381.65	84.26
381.85	67.88
382.04	9.36
382.24	107.66
382.43	53.83
382.63	49.15
382.83	0.00
383.02	70.22
383.22	46.81
383.41	0.00
383.61	35.11
383.80	0.00
384.00	0.00
384.19	77.24
384.39	16.38
384.58	7.02
384.78	14.04
384.97	42.13
385.17	46.81
385.36	37.45
385.56	65.54
385.75	0.00
385.95	30.43
386.14	23.41
386.34	51.49
386.53	51.49
386.72	44.47
386.92	35.11
387.11	0.00
387.31	0.00
387.50	81.92
387.70	7.02
387.89	25.75
388.09	0.00
388.28	39.79
388.48	0.00
388.67	0.00
388.86	23.41
389.06	39.79
389.25	4.68
389.45	42.13
389.64	84.26
389.84	28.09
390.03	0.00
390.22	18.72
390.42	0.00
390.61	63.19
390.81	37.45
391.00	60.85
391.19	42.13
391.39	0.00
391.58	16.38
391.78	0.00
391.97	56.17
392.16	0.00
392.36	88.94
392.55	0.00
392.75	9.36
392.94	0.00
393.13	42.13
393.33	0.00
393.52	70.22
393.71	0.00
393.91	39.79
394.10	46.81
394.29	49.15
394.49	95.96
394.68	65.54
394.88	0.00
395.07	0.00
395.26	100.64
395.46	79.58
395.65	44.47
395.84	72.56
396.04	16.38
396.23	7.02
396.42	0.00
396.62	14.04
396.81	63.19
397.00	2.34
397.19	0.00
397.39	74.90
397.58	56.17
397.77	0.00
397.97	23.41
398.16	39.79
398.35	46.81
398.55	0.00
398.74	53.83
398.93	25.75
399.12	0.00
399.32	11.70
399.51	16.38
399.70	112.35
399.90	2.34
400.09	60.85
400.28	46.81
400.47	4.68
400.67	32.77
400.86	0.00
401.05	23.41
401.24	0.00
401.44	28.09
401.63	60.85
401.82	0.00
402.01	9.36
402.21	28.09
402.40	23.41
402.59	2.34
402.78	18.72
402.97	7.02
403.17	0.00
403.36	37.45
403.55	98.30
403.74	63.19
403.93	110.01
404.13	11.70
404.32	93.62
404.51	35.11
404.70	53.83
404.89	74.90
405.09	72.56
405.28	46.81
405.47	37.45
405.66	23.41
405.85	98.30
406.05	0.00
406.24	0.00
406.43	0.00
406.62	56.17
406.81	86.60
407.00	37.45
407.20	63.19
407.39	65.54
407.58	105.32
407.77	0.00
407.96	30.43
408.15	18.72
408.34	42.13
408.54	30.43
408.73	46.81
408.92	0.00
409.11	53.83
409.30	100.64
409.49	102.98
409.68	44.47
409.87	51.49
410.07	67.88
410.26	37.45
410.45	42.13
410.64	0.00
410.83	4.68
411.02	77.24
411.21	9.36
411.40	25.75
411.59	77.24
411.78	53.83
411.98	28.09
412.17	53.83
412.36	58.51
412.55	42.13
412.74	56.17
412.93	9.36
413.12	60.85
413.31	44.47
413.50	49.15
413.69	77.24
413.88	0.00
414.07	93.62
414.26	4.68
414.45	14.04
414.64	23.41
414.83	21.06
415.02	0.00
415.22	44.47
415.41	91.28
415.60	25.75
415.79	0.00
415.98	98.30
416.17	58.51
416.36	93.62
416.55	32.77
416.74	60.85
416.93	44.47
417.12	37.45
417.31	18.72
417.50	0.00
417.69	25.75
417.88	14.04
418.07	9.36
418.26	16.38
418.45	81.92
418.64	58.51
418.83	88.94
419.02	88.94
419.21	28.09
419.39	21.06
419.58	79.58
419.77	91.28
419.96	74.90
420.15	28.09
420.34	74.90
420.53	77.24
420.72	67.88
420.91	0.00
421.10	0.00
421.29	21.06
421.48	65.54
421.67	42.13
421.86	37.45
422.05	142.77
422.24	86.60
422.43	67.88
422.61	0.00
422.80	11.70
422.99	18.72
423.18	49.15
423.37	11.70
423.56	42.13
423.75	0.00
423.94	39.79
424.13	63.19
424.32	77.24
424.50	35.11
424.69	98.30
424.88	42.13
425.07	44.47
425.26	18.72
425.45	30.43
425.64	49.15
425.83	14.04
426.01	39.79
426.20	60.85
426.39	0.00
426.58	16.38
426.77	0.00
426.96	0.00
427.15	35.11
427.33	0.00
427.52	16.38
427.71	65.54
427.90	53.83
428.09	53.83
428.28	46.81
428.46	2.34
428.65	0.00
428.84	100.64
429.03	63.19
429.22	98.30
429.40	98.30
429.59	77.24
429.78	42.13
429.97	86.60
430.16	32.77
430.34	63.19
430.53	58.51
430.72	0.00
430.91	46.81
431.10	65.54
431.28	49.15
431.47	53.83
431.66	98.30
431.85	7.02
432.03	23.41
432.22	23.41
432.41	112.35
432.60	39.79
432.79	30.43
432.97	0.00
433.16	0.00
433.35	32.77
433.54	35.11
433.72	35.11
433.91	16.38
434.10	4.68
434.28	35.11
434.47	32.77
434.66	65.54
434.85	60.85
435.03	58.51
435.22	4.68
435.41	58.51
435.59	32.77
435.78	0.00
435.97	86.60
436.16	112.35
436.34	93.62
436.53	60.85
436.72	21.06
436.90	56.17
437.09	95.96
437.28	124.05
437.46	30.43
437.65	74.90
437.84	35.11
438.02	16.38
438.21	56.17
438.40	46.81
438.58	63.19
438.77	65.54
438.96	0.00
439.14	81.92
439.33	42.13
439.52	84.26
439.70	60.85
439.89	70.22
440.08	58.51
440.26	100.64
440.45	4.68
440.63	25.75
440.82	49.15
441.01	100.64
441.19	44.47
441.38	0.00
441.57	56.17
441.75	65.54
441.94	49.15
442.12	102.98
442.31	81.92
442.50	67.88
442.68	30.43
442.87	60.85
443.05	79.58
443.24	42.13
443.43	74.90
443.61	46.81
443.80	7.02
443.98	91.28
444.17	98.30
444.35	0.00
444.54	98.30
444.73	30.43
444.91	49.15
445.10	37.45
445.28	46.81
445.47	98.30
445.65	112.35
445.84	49.15
446.02	4.68
446.21	70.22
446.39	93.62
446.58	81.92
446.77	77.24
446.95	37.45
447.14	58.51
447.32	53.83
447.51	18.72
447.69	28.09
447.88	0.00
448.06	86.60
448.25	63.19
448.43	49.15
448.62	0.00
448.80	51.49
448.99	49.15
449.17	81.92
449.36	53.83
449.54	35.11
449.73	98.30
449.91	70.22
450.10	84.26
450.28	121.71
450.46	88.94
450.65	25.75
450.83	114.69
451.02	56.17
451.20	51.49
451.39	93.62
451.57	91.28
451.76	65.54
451.94	84.26
452.13	84.26
452.31	74.90
452.49	112.35
452.68	16.38
452.86	72.56
453.05	0.00
453.23	30.43
453.42	32.77
453.60	11.70
453.78	98.30
453.97	39.79
454.15	14.04
454.34	63.19
454.52	46.81
454.70	35.11
454.89	70.22
455.07	39.79
455.26	100.64
455.44	72.56
455.62	0.00
455.81	0.00
455.99	93.62
456.17	56.17
456.36	0.00
456.54	65.54
456.73	53.83
456.91	105.32
457.09	16.38
457.28	63.19
457.46	74.90
457.64	53.83
457.83	95.96
458.01	112.35
458.19	77.24
458.38	39.79
458.56	56.17
458.74	42.13
458.93	0.00
459.11	56.17
459.29	56.17
459.48	102.98
459.66	67.88
459.84	53.83
460.03	60.85
460.21	121.71
460.39	86.60
460.57	32.77
460.76	56.17
460.94	79.58
461.12	25.75
461.31	81.92
461.49	14.04
461.67	28.09
461.85	51.49
462.04	37.45
462.22	131.07
462.40	112.35
462.59	84.26
462.77	60.85
462.95	70.22
463.13	74.90
463.32	84.26
463.50	28.09
463.68	91.28
463.86	79.58
464.05	81.92
464.23	0.00
464.41	121.71
464.59	30.43
464.78	56.17
464.96	21.06
465.14	72.56
465.32	28.09
465.50	42.13
465.69	112.35
465.87	30.43
466.05	35.11
466.23	14.04
466.41	35.11
466.60	84.26
466.78	86.60
466.96	91.28
467.14	138.09
467.32	79.58
467.51	135.75
467.69	100.64
467.87	63.19
468.05	84.26
468.23	42.13
468.41	46.81
468.60	149.79
468.78	84.26
468.96	53.83
469.14	63.19
469.32	9.36
469.50	63.19
469.69	51.49
469.87	65.54
470.05	14.04
470.23	65.54
470.41	28.09
470.59	60.85
470.77	42.13
470.95	49.15
471.14	49.15
471.32	53.83
471.50	65.54
471.68	14.04
471.86	65.54
472.04	39.79
472.22	35.11
472.40	0.00
472.58	51.49
472.77	7.02
472.95	124.05
473.13	100.64
473.31	11.70
473.49	102.98
473.67	88.94
473.85	72.56
474.03	56.17
474.21	63.19
474.39	67.88
474.57	102.98
474.75	70.22
474.93	114.69
475.12	51.49
475.30	81.92
475.48	58.51
475.66	0.00
475.84	28.09
476.02	88.94
476.20	93.62
476.38	91.28
476.56	84.26
476.74	86.60
476.92	95.96
477.10	72.56
477.28	86.60
477.46	72.56
477.64	56.17
477.82	86.60
478.00	56.17
478.18	0.00
478.36	39.79
478.54	37.45
478.72	39.79
478.90	74.90
479.08	30.43
479.26	77.24
479.44	44.47
479.62	32.77
479.80	63.19
479.98	51.49
480.16	117.03
480.34	81.92
480.52	51.49
480.70	42.13
480.88	49.15
481.06	79.58
481.24	152.13
481.41	91.28
481.59	18.72
481.77	0.00
481.95	112.35
482.13	77.24
482.31	37.45
482.49	58.51
482.67	53.83
482.85	105.32
483.03	88.94
483.21	25.75
483.39	0.00
483.57	70.22
483.74	105.32
483.92	81.92
484.10	39.79
484.28	30.43
484.46	117.03
484.64	70.22
484.82	93.62
485.00	65.54
485.18	2.34
485.35	93.62
485.53	0.00
485.71	60.85
485.89	60.85
486.07	74.90
486.25	70.22
486.43	74.90
486.61	32.77
486.78	30.43
486.96	44.47
487.14	32.77
487.32	23.41
487.50	74.90
487.68	107.66
487.85	121.71
488.03	67.88
488.21	37.45
488.39	112.35
488.57	30.43
488.75	9.36
488.92	88.94
489.10	107.66
489.28	42.13
489.46	86.60
489.64	154.48
489.81	39.79
489.99	86.60
490.17	100.64
490.35	81.92
490.53	152.13
490.70	30.43
490.88	79.58
491.06	79.58
491.24	93.62
491.41	81.92
491.59	39.79
491.77	168.52
491.95	135.75
492.13	102.98
492.30	102.98
492.48	117.03
492.66	32.77
492.84	0.00
493.01	112.35
493.19	147.45
493.37	110.01
493.54	72.56
493.72	72.56
493.90	84.26
494.08	98.30
494.25	140.43
494.43	35.11
494.61	117.03
494.79	67.88
494.96	81.92
495.14	84.26
495.32	16.38
495.49	56.17
495.67	74.90
495.85	65.54
496.02	44.47
496.20	79.58
496.38	11.70
496.55	117.03
496.73	65.54
496.91	16.38
497.09	81.92
497.26	7.02
497.44	65.54
497.62	23.41
497.79	138.09
497.97	74.90
498.14	60.85
498.32	56.17
498.50	42.13
498.67	70.22
498.85	110.01
499.03	95.96
499.20	91.28
499.38	25.75
499.56	100.64
499.73	95.96
499.91	58.51
500.08	16.38
500.26	107.66
500.44	44.47
500.61	37.45
500.79	70.22
500.97	86.60
501.14	28.09
501.32	35.11
501.49	95.96
501.67	42.13
501.84	124.05
502.02	32.77
502.20	112.35
502.37	35.11
502.55	102.98
502.72	58.51
502.90	86.60
503.07	79.58
503.25	67.88
503.43	51.49
503.60	23.41
503.78	84.26
503.95	67.88
504.13	65.54
504.30	81.92
504.48	53.83
504.65	112.35
504.83	100.64
505.01	91.28
505.18	107.66
505.36	79.58
505.53	100.64
505.71	124.05
505.88	121.71
506.06	126.39
506.23	112.35
506.41	79.58
506.58	67.88
506.76	126.39
506.93	95.96
507.11	0.00
507.28	131.07
507.46	91.28
507.63	105.32
507.81	88.94
507.98	124.05
508.16	63.19
508.33	91.28
508.50	138.09
508.68	79.58
508.85	110.01
509.03	58.51
509.20	86.60
509.38	74.90
509.55	25.75
509.73	77.24
509.90	53.83
510.08	161.50
510.25	147.45
510.42	56.17
510.60	51.49
510.77	30.43
510.95	112.35
511.12	93.62
511.30	32.77
511.47	9.36
511.64	72.56
511.82	152.13
511.99	88.94
512.17	32.77
512.34	70.22
512.51	105.32
512.69	98.30
512.86	74.90
513.04	79.58
513.21	98.30
513.38	84.26
513.56	32.77
513.73	58.51
513.90	42.13
514.08	72.56
514.25	60.85
514.43	98.30
514.60	98.30
514.77	9.36
514.95	112.35
515.12	56.17
515.29	25.75
515.47	51.49
515.64	49.15
515.81	58.51
515.99	65.54
516.16	79.58
516.33	72.56
516.51	14.04
516.68	117.03
516.85	25.75
517.03	117.03
517.20	79.58
517.37	60.85
517.54	81.92
517.72	88.94
517.89	37.45
518.06	56.17
518.24	84.26
518.41	114.69
518.58	63.19
518.75	42.13
518.93	0.00
519.10	44.47
519.27	91.28
519.45	77.24
519.62	42.13
519.79	117.03
519.96	65.54
520.14	114.69
520.31	110.01
520.48	0.00
520.65	98.30
520.83	138.09
521.00	93.62
521.17	117.03
521.34	74.90
521.52	105.32
521.69	67.88
521.86	63.19
522.03	65.54
522.20	86.60
522.38	14.04
522.55	4.68
522.72	110.01
522.89	95.96
523.07	124.05
523.24	21.06
523.41	105.32
523.58	77.24
523.75	91.28
523.92	84.26
524.10	102.98
524.27	88.94
524.44	100.64
524.61	77.24
524.78	37.45
524.96	39.79
525.13	79.58
525.30	110.01
525.47	32.77
525.64	65.54
525.81	140.43
525.98	140.43
526.16	91.28
526.33	84.26
526.50	0.00
526.67	95.96
526.84	161.50
527.01	14.04
527.18	28.09
527.36	102.98
527.53	102.98
527.70	65.54
527.87	126.39
528.04	46.81
528.21	114.69
528.38	74.90
528.55	46.81
528.72	53.83
528.89	44.47
529.07	81.92
529.24	23.41
529.41	110.01
529.58	37.45
529.75	88.94
529.92	49.15
530.09	60.85
530.26	37.45
530.43	18.72
530.60	88.94
530.77	126.39
530.94	119.37
531.11	32.77
531.28	53.83
531.46	133.41
531.63	98.30
531.80	100.64
531.97	140.43
532.14	63.19
532.31	81.92
532.48	119.37
532.65	119.37
532.82	84.26
532.99	100.64
533.16	9.36
533.33	51.49
533.50	0.00
533.67	117.03
533.84	110.01
534.01	93.62
534.18	77.24
534.35	133.41
534.52	100.64
534.69	42.13
534.86	53.83
535.03	25.75
535.20	30.43
535.37	93.62
535.54	102.98
535.71	98.30
535.88	46.81
536.05	35.11
536.22	74.90
536.38	42.13
536.55	107.66
536.72	135.75
536.89	46.81
537.06	110.01
537.23	79.58
537.40	74.90
537.57	135.75
537.74	88.94
537.91	86.60
538.08	51.49
538.25	79.58
538.42	121.71
538.59	51.49
538.75	154.48
538.92	35.11
539.09	67.88
539.26	70.22
539.43	117.03
539.60	95.96
539.77	86.60
539.94	84.26
540.11	72.56
540.28	53.83
540.44	74.90
540.61	84.26
540.78	112.35
540.95	63.19
541.12	2.34
541.29	67.88
541.46	63.19
541.62	95.96
541.79	65.54
541.96	70.22
542.13	110.01
542.30	95.96
542.47	131.07
542.63	79.58
542.80	110.01
542.97	142.77
543.14	105.32
543.31	16.38
543.48	112.35
543.64	44.47
543.81	126.39
543.98	133.41
544.15	177.88
544.32	126.39
544.48	39.79
544.65	140.43
544.82	51.49
544.99	81.92
545.16	86.60
545.32	135.75
545.49	93.62
545.66	39.79
545.83	42.13
546.00	18.72
546.16	58.51
546.33	39.79
546.50	53.83
546.67	100.64
546.83	49.15
547.00	163.84
547.17	84.26
547.34	60.85
547.50	46.81
547.67	79.58
547.84	25.75
548.00	140.43
548.17	46.81
548.34	72.56
548.51	84.26
548.67	114.69
548.84	79.58
549.01	140.43
549.18	67.88
549.34	67.88
549.51	35.11
549.68	39.79
549.84	140.43
550.01	53.83
550.18	117.03
550.34	88.94
550.51	72.56
550.68	53.83
550.84	70.22
551.01	56.17
551.18	16.38
551.34	110.01
551.51	63.19
551.68	63.19
551.84	100.64
552.01	102.98
552.18	60.85
552.34	140.43
552.51	119.37
552.68	142.77
552.84	140.43
553.01	7.02
553.18	56.17
553.34	100.64
553.51	110.01
553.67	107.66
553.84	121.71
554.01	84.26
554.17	49.15
554.34	161.50
554.51	53.83
554.67	49.15
554.84	67.88
555.00	53.83
555.17	65.54
555.33	51.49
555.50	35.11
555.67	126.39
555.83	126.39
556.00	67.88
556.16	56.17
556.33	138.09
556.50	84.26
556.66	100.64
556.83	51.49
556.99	72.56
557.16	100.64
557.32	117.03
557.49	79.58
557.65	2.34
557.82	77.24
557.98	39.79
558.15	58.51
558.32	77.24
558.48	77.24
558.65	93.62
558.81	81.92
558.98	67.88
559.14	131.07
559.31	145.11
559.47	98.30
559.64	35.11
559.80	74.90
559.97	117.03
560.13	81.92
560.30	67.88
560.46	128.73
560.63	79.58
560.79	159.16
560.96	110.01
561.12	65.54
561.29	131.07
561.45	28.09
561.61	135.75
561.78	124.05
561.94	60.85
562.11	42.13
562.27	74.90
562.44	39.79
562.60	86.60
562.77	53.83
562.93	128.73
563.10	65.54
563.26	72.56
563.42	84.26
563.59	65.54
563.75	91.28
563.92	81.92
564.08	107.66
564.24	93.62
564.41	77.24
564.57	126.39
564.74	112.35
564.90	88.94
565.07	140.43
565.23	117.03
565.39	95.96
565.56	140.43
565.72	124.05
565.88	98.30
566.05	105.32
566.21	100.64
566.38	67.88
566.54	86.60
566.70	142.77
566.87	53.83
567.03	84.26
567.19	37.45
567.36	65.54
567.52	149.79
567.68	79.58
567.85	98.30
568.01	39.79
568.17	110.01
568.34	58.51
568.50	11.70
568.66	65.54
568.83	44.47
568.99	72.56
569.15	84.26
569.32	2.34
569.48	93.62
569.64	46.81
569.81	149.79
569.97	152.13
570.13	72.56
570.30	74.90
570.46	91.28
570.62	91.28
570.78	16.38
570.95	77.24
571.11	114.69
571.27	91.28
571.43	105.32
571.60	117.03
571.76	102.98
571.92	60.85
572.09	44.47
572.25	58.51
572.41	63.19
572.57	95.96
572.74	93.62
572.90	44.47
573.06	114.69
573.22	63.19
573.38	142.77
573.55	79.58
573.71	86.60
573.87	105.32
574.03	58.51
574.20	37.45
574.36	77.24
574.52	124.05
574.68	91.28
574.84	63.19
575.01	140.43
575.17	28.09
575.33	121.71
575.49	79.58
575.65	93.62
575.82	56.17
575.98	53.83
576.14	25.75
576.30	74.90
576.46	126.39
576.62	114.69
576.79	51.49
576.95	102.98
577.11	21.06
577.27	124.05
577.43	121.71
577.59	72.56
577.75	53.83
577.92	112.35
578.08	91.28
578.24	58.51
578.40	100.64
578.56	149.79
578.72	149.79
578.88	110.01
579.04	86.60
579.21	37.45
579.37	105.32
579.53	65.54
579.69	79.58
579.85	107.66
580.01	110.01
580.17	2.34
580.33	28.09
580.49	142.77
580.65	93.62
580.82	124.05
580.98	7.02
581.14	102.98
581.30	67.88
581.46	72.56
581.62	121.71
581.78	133.41
581.94	145.11
582.10	39.79
582.26	35.11
582.42	84.26
582.58	35.11
582.74	117.03
582.90	11.70
583.06	79.58
583.22	67.88
583.38	42.13
583.54	177.88
583.70	88.94
583.86	107.66
584.02	72.56
584.18	88.94
584.34	70.22
584.50	30.43
584.66	114.69
584.82	67.88
584.98	0.00
585.14	88.94
585.30	30.43
585.46	44.47
585.62	63.19
585.78	44.47
585.94	149.79
586.10	56.17
586.26	112.35
586.42	70.22
586.58	86.60
586.74	74.90
586.90	44.47
587.06	84.26
587.22	28.09
587.38	140.43
587.54	88.94
587.70	124.05
587.86	70.22
588.02	102.98
588.18	107.66
588.34	18.72
588.49	70.22
588.65	117.03
588.81	42.13
588.97	81.92
589.13	28.09
589.29	9.36
589.45	11.70
589.61	44.47
589.77	124.05
589.93	32.77
590.08	42.13
590.24	42.13
590.40	42.13
590.56	93.62
590.72	42.13
590.88	2.34
591.04	91.28
591.20	51.49
591.35	49.15
591.51	32.77
591.67	63.19
591.83	93.62
591.99	81.92
592.15	39.79
592.31	84.26
592.46	88.94
592.62	91.28
592.78	2.34
592.94	84.26
593.10	72.56
593.26	70.22
593.41	74.90
593.57	91.28
593.73	100.64
593.89	79.58
594.05	88.94
594.20	44.47
594.36	63.19
594.52	95.96
594.68	107.66
594.84	86.60
594.99	117.03
595.15	168.52
595.31	121.71
595.47	74.90
595.62	0.00
595.78	42.13
595.94	114.69
596.10	112.35
596.25	138.09
596.41	56.17
596.57	93.62
596.73	77.24
596.88	67.88
597.04	16.38
597.20	72.56
597.36	32.77
597.51	23.41
597.67	35.11
597.83	100.64
597.99	149.79
598.14	67.88
598.30	14.04
598.46	18.72
598.61	23.41
598.77	67.88
598.93	91.28
599.09	16.38
599.24	98.30
599.40	25.75
599.56	60.85
599.71	77.24
599.87	91.28
600.03	102.98
600.18	35.11
600.34	133.41
600.50	112.35
600.65	32.77
600.81	4.68
600.97	95.96
601.12	49.15
601.28	124.05
601.44	60.85
601.59	51.49
601.75	58.51
601.91	44.47
602.06	70.22
602.22	49.15
602.37	58.51
602.53	86.60
602.69	74.90
602.84	81.92
603.00	0.00
603.16	98.30
603.31	49.15
603.47	39.79
603.62	32.77
603.78	81.92
603.94	147.45
604.09	131.07
604.25	25.75
604.40	79.58
604.56	81.92
604.71	21.06
604.87	88.94
605.03	30.43
605.18	63.19
605.34	39.79
605.49	145.11
605.65	95.96
605.80	18.72
605.96	70.22
606.12	46.81
606.27	81.92
606.43	107.66
606.58	100.64
606.74	63.19
606.89	84.26
607.05	124.05
607.20	114.69
607.36	70.22
607.51	58.51
607.67	65.54
607.82	58.51
607.98	88.94
608.13	142.77
608.29	88.94
608.44	88.94
608.60	159.16
608.75	18.72
608.91	79.58
609.06	44.47
609.22	37.45
609.37	84.26
609.53	63.19
609.68	100.64
609.84	114.69
609.99	44.47
610.15	98.30
610.30	84.26
610.46	46.81
610.61	65.54
610.76	0.00
610.92	131.07
611.07	32.77
611.23	42.13
611.38	95.96
611.54	100.64
611.69	67.88
611.84	72.56
612.00	32.77
612.15	0.00
612.31	56.17
612.46	95.96
612.62	95.96
612.77	65.54
612.92	135.75
613.08	100.64
613.23	44.47
613.39	44.47
613.54	4.68
613.69	79.58
613.85	65.54
614.00	14.04
614.15	30.43
614.31	0.00
614.46	91.28
614.62	18.72
614.77	110.01
614.92	67.88
615.08	110.01
615.23	56.17
615.38	65.54
615.54	77.24
615.69	79.58
615.84	28.09
616.00	100.64
616.15	86.60
616.30	30.43
616.46	32.77
616.61	74.90
616.76	56.17
616.92	0.00
617.07	84.26
617.22	58.51
617.37	0.00
617.53	32.77
617.68	53.83
617.83	49.15
617.99	88.94
618.14	42.13
618.29	100.64
618.45	81.92
618.60	72.56
618.75	93.62
618.90	133.41
619.06	65.54
619.21	107.66
619.36	77.24
619.51	91.28
619.67	81.92
619.82	98.30
619.97	65.54
620.12	42.13
620.28	67.88
620.43	65.54
620.58	91.28
620.73	65.54
620.89	46.81
621.04	79.58
621.19	117.03
621.34	60.85
621.49	58.51
621.65	74.90
621.80	32.77
621.95	77.24
622.10	49.15
622.25	46.81
622.41	51.49
622.56	9.36
622.71	37.45
622.86	191.92
623.01	58.51
623.16	110.01
623.32	11.70
623.47	42.13
623.62	0.00
623.77	4.68
623.92	112.35
624.07	23.41
624.23	18.72
624.38	44.47
624.53	53.83
624.68	67.88
624.83	58.51
624.98	42.13
625.13	100.64
625.29	21.06
625.44	58.51
625.59	72.56
625.74	0.00
625.89	131.07
626.04	16.38
626.19	70.22
626.34	102.98
626.49	63.19
626.65	88.94
626.80	39.79
626.95	49.15
627.10	32.77
627.25	65.54
627.40	114.69
627.55	70.22
627.70	30.43
627.85	88.94
628.00	95.96
628.15	49.15
628.30	93.62
628.45	102.98
628.60	37.45
628.76	77.24
628.91	0.00
629.06	81.92
629.21	0.00
629.36	56.17
629.51	63.19
629.66	84.26
629.81	72.56
629.96	21.06
630.11	70.22
630.26	56.17
630.41	81.92
630.56	86.60
630.71	110.01
630.86	128.73
631.01	63.19
631.16	114.69
631.31	53.83
631.46	35.11
631.61	56.17
631.76	56.17
631.91	105.32
632.06	79.58
632.21	81.92
632.36	30.43
632.51	35.11
632.66	187.24
632.81	84.26
632.96	107.66
633.10	70.22
633.25	9.36
633.40	77.24
633.55	135.75
633.70	0.00
633.85	84.26
634.00	0.00
634.15	74.90
634.30	42.13
634.45	77.24
634.60	56.17
634.75	37.45
634.90	63.19
635.05	161.50
635.19	124.05
635.34	9.36
635.49	32.77
635.64	81.92
635.79	44.47
635.94	16.38
636.09	86.60
636.24	7.02
636.39	63.19
636.53	79.58
636.68	25.75
636.83	25.75
636.98	88.94
637.13	124.05
637.28	4.68
637.43	175.54
637.57	72.56
637.72	46.81
637.87	98.30
638.02	81.92
638.17	74.90
638.32	93.62
638.46	121.71
638.61	67.88
638.76	56.17
638.91	39.79
639.06	110.01
639.20	91.28
639.35	0.00
639.50	18.72
639.65	110.01
639.80	93.62
639.94	77.24
640.09	0.00
640.24	98.30
640.39	0.00
640.54	95.96
640.68	88.94
640.83	65.54
640.98	95.96
641.13	28.09
641.27	39.79
641.42	14.04
641.57	39.79
641.72	42.13
641.86	65.54
642.01	0.00
642.16	67.88
642.31	7.02
642.45	88.94
642.60	74.90
642.75	98.30
642.90	7.02
643.04	105.32
643.19	18.72
643.34	46.81
643.48	0.00
643.63	53.83
643.78	128.73
643.93	32.77
644.07	58.51
644.22	91.28
644.37	65.54
644.51	58.51
644.66	4.68
644.81	42.13
644.95	23.41
645.10	11.70
645.25	70.22
645.39	65.54
645.54	2.34
645.69	0.00
645.83	70.22
645.98	77.24
646.13	18.72
646.27	46.81
646.42	23.41
646.57	56.17
646.71	56.17
646.86	35.11
647.00	91.28
647.15	58.51
647.30	42.13
647.44	25.75
647.59	105.32
647.74	72.56
647.88	93.62
648.03	39.79
648.17	28.09
648.32	49.15
648.47	37.45
648.61	28.09
648.76	51.49
648.90	39.79
649.05	39.79
649.20	56.17
649.34	0.00
649.49	100.64
649.63	65.54
649.78	81.92
649.92	25.75
650.07	4.68
650.21	60.85
650.36	0.00
650.51	14.04
650.65	32.77
650.80	4.68
650.94	70.22
651.09	16.38
651.23	67.88
651.38	23.41
651.52	91.28
651.67	23.41
651.81	28.09
651.96	72.56
652.10	114.69
652.25	51.49
652.39	28.09
652.54	25.75
652.68	21.06
652.83	140.43
652.97	95.96
653.12	0.00
653.26	0.00
653.41	7.02
653.55	70.22
653.70	60.85
653.84	105.32
653.99	0.00
654.13	18.72
654.27	0.00
654.42	70.22
654.56	23.41
654.71	0.00
654.85	58.51
655.00	42.13
655.14	114.69
655.29	46.81
655.43	72.56
655.57	79.58
655.72	30.43
655.86	39.79
656.01	56.17
656.15	102.98
656.30	58.51
656.44	18.72
656.58	30.43
656.73	0.00
656.87	63.19
657.01	77.24
657.16	100.64
657.30	51.49
657.45	30.43
657.59	0.00
657.73	91.28
657.88	23.41
658.02	44.47
658.16	25.75
658.31	77.24
658.45	65.54
658.60	117.03
658.74	23.41
658.88	53.83
659.03	14.04
659.17	23.41
659.31	37.45
659.46	70.22
659.60	98.30
659.74	37.45
659.89	35.11
660.03	84.26
660.17	53.83
660.32	35.11
660.46	72.56
660.60	46.81
660.74	95.96
660.89	117.03
661.03	114.69
661.17	88.94
661.32	107.66
661.46	0.00
661.60	37.45
661.74	42.13
661.89	49.15
662.03	60.85
662.17	77.24
662.31	0.00
662.46	0.00
662.60	23.41
662.74	46.81
662.88	0.00
663.03	32.77
663.17	49.15
663.31	4.68
663.45	51.49
663.60	37.45
663.74	63.19
663.88	79.58
664.02	46.81
664.17	114.69
664.31	28.09
664.45	0.00
664.59	23.41
664.73	131.07
664.88	35.11
665.02	35.11
665.16	14.04
665.30	112.35
665.44	0.00
665.59	98.30
665.73	9.36
665.87	56.17
666.01	51.49
666.15	79.58
666.29	105.32
666.44	93.62
666.58	70.22
666.72	79.58
666.86	63.19
667.00	30.43
667.14	0.00
667.28	0.00
667.43	0.00
667.57	0.00
667.71	67.88
667.85	37.45
667.99	53.83
668.13	44.47
668.27	9.36
668.41	67.88
668.56	51.49
668.70	25.75
668.84	100.64
668.98	2.34
669.12	93.62
669.26	56.17
669.40	49.15
669.54	25.75
669.68	32.77
669.82	58.51
669.96	44.47
670.10	39.79
670.25	18.72
670.39	72.56
670.53	72.56
670.67	21.06
670.81	56.17
670.95	4.68
671.09	37.45
671.23	51.49
671.37	98.30
671.51	11.70
671.65	0.00
671.79	56.17
671.93	0.00
672.07	86.60
672.21	0.00
672.35	53.83
672.49	0.00
672.63	21.06
672.77	49.15
672.91	16.38
673.05	60.85
673.19	65.54
673.33	84.26
673.47	58.51
673.61	0.00
673.75	0.00
673.89	7.02
674.03	46.81
674.17	119.37
674.31	28.09
674.45	72.56
674.59	32.77
674.73	70.22
674.87	23.41
675.01	110.01
675.15	32.77
675.29	63.19
675.43	60.85
675.56	9.36
675.70	14.04
675.84	60.85
675.98	67.88
676.12	32.77
676.26	65.54
676.40	72.56
676.54	0.00
676.68	28.09
676.82	86.60
676.96	63.19
677.10	0.00
677.23	37.45
677.37	98.30
677.51	81.92
677.65	0.00
677.79	0.00
677.93	32.77
678.07	70.22
678.21	2.34
678.34	93.62
678.48	100.64
678.62	93.62
678.76	14.04
678.90	112.35
679.04	124.05
679.18	79.58
679.31	91.28
679.45	67.88
679.59	35.11
679.73	79.58
679.87	93.62
680.00	0.00
680.14	0.00
680.28	0.00
680.42	91.28
680.56	0.00
680.70	65.54
680.83	81.92
680.97	95.96
681.11	60.85
681.25	28.09
681.39	25.75
681.52	65.54
681.66	0.00
681.80	46.81
681.94	21.06
682.07	56.17
682.21	30.43
682.35	58.51
682.49	70.22
682.62	53.83
682.76	65.54
682.90	53.83
683.04	32.77
683.17	56.17
683.31	23.41
683.45	30.43
683.59	0.00
683.72	65.54
683.86	0.00
684.00	91.28
684.13	2.34
684.27	0.00
684.41	65.54
684.55	44.47
684.68	60.85
684.82	25.75
684.96	21.06
685.09	0.00
685.23	63.19
685.37	58.51
685.50	18.72
685.64	42.13
685.78	0.00
685.91	42.13
686.05	72.56
686.19	0.00
686.32	98.30
686.46	67.88
686.60	25.75
686.73	58.51
686.87	0.00
687.01	28.09
687.14	35.11
687.28	35.11
687.42	49.15
687.55	0.00
687.69	70.22
687.82	42.13
687.96	7.02
688.10	0.00
688.23	72.56
688.37	110.01
688.50	0.00
688.64	63.19
688.78	53.83
688.91	0.00
689.05	86.60
689.18	70.22
689.32	32.77
689.46	44.47
689.59	18.72
689.73	35.11
689.86	0.00
690.00	49.15
690.13	16.38
690.27	63.19
690.41	0.00
690.54	72.56
690.68	65.54
690.81	63.19
690.95	100.64
691.08	72.56
691.22	39.79
691.35	58.51
691.49	7.02
691.62	51.49
691.76	74.90
691.89	35.11
692.03	67.88
692.16	11.70
692.30	39.79
692.43	30.43
692.57	30.43
692.70	0.00
692.84	37.45
692.97	28.09
693.11	0.00
693.24	16.38
693.38	28.09
693.51	81.92
693.65	74.90
693.78	56.17
693.92	56.17
694.05	60.85
694.19	58.51
694.32	35.11
694.45	0.00
694.59	18.72
694.72	81.92
694.86	51.49
694.99	100.64
695.13	0.00
695.26	58.51
695.39	0.00
695.53	39.79
695.66	23.41
695.80	65.54
695.93	0.00
696.07	49.15
696.20	0.00
696.33	56.17
696.47	7.02
696.60	72.56
696.73	9.36
696.87	32.77
697.00	86.60
697.14	30.43
697.27	0.00
697.40	0.00
697.54	25.75
697.67	42.13
697.80	53.83
697.94	0.00
698.07	11.70
698.21	18.72
698.34	46.81
698.47	161.50
698.61	39.79
698.74	18.72
698.87	7.02
699.01	28.09
699.14	0.00
699.27	42.13
699.40	86.60
699.54	42.13
699.67	51.49
699.80	16.38
699.94	65.54
700.07	39.79
700.20	100.64
700.34	74.90
700.47	25.75
700.60	44.47
700.73	58.51
700.87	63.19
701.00	0.00
701.13	77.24
701.26	37.45
701.40	14.04
701.53	39.79
701.66	65.54
701.79	60.85
701.93	16.38
702.06	84.26
702.19	18.72
702.32	65.54
702.46	39.79
702.59	91.28
702.72	2.34
702.85	58.51
702.99	53.83
703.12	53.83
703.25	42.13
703.38	11.70
703.51	23.41
703.65	4.68
703.78	0.00
703.91	30.43
704.04	88.94
704.17	35.11
704.31	37.45
704.44	0.00
704.57	0.00
704.70	0.00
704.83	42.13
704.96	65.54
705.10	18.72
705.23	25.75
>>>>>End Processed Spectral Data<<<<<
