SpectraSuite Data File
++++++++++++++++++++++++++++++++++++
Date: Fri Oct 04 12:13:34 GMT-05:00 2013
User: price-jones
Dark Spectrum Present: No
Reference Spectrum Present: No
Number of Sampled Component Spectra: 1
Spectrometers: USB2+H05261
Integration Time (usec): 10000 (USB2+H05261)
Spectra Averaged: 1 (USB2+H05261)
Boxcar Smoothing: 0 (USB2+H05261)
Correct for Electrical Dark: No (USB2+H05261)
Strobe/Lamp Enabled: No (USB2+H05261)
Correct for Detector Non-linearity: No (USB2+H05261)
Correct for Stray Light: No (USB2+H05261)
Number of Pixels in Processed Spectrum: 2048
>>>>>Begin Processed Spectral Data<<<<<
365.73	18.72
365.92	18.72
366.12	18.72
366.32	0.00
366.52	0.00
366.72	0.00
366.91	0.00
367.11	0.00
367.31	0.00
367.51	0.00
367.70	0.00
367.90	0.00
368.10	0.00
368.30	0.00
368.49	0.00
368.69	0.00
368.89	0.00
369.09	0.00
369.28	0.00
369.48	0.00
369.68	0.00
369.87	0.00
370.07	0.00
370.27	0.00
370.47	0.00
370.66	0.00
370.86	0.00
371.06	0.00
371.25	0.00
371.45	0.00
371.65	0.00
371.84	0.00
372.04	0.00
372.24	0.00
372.44	0.00
372.63	0.00
372.83	0.00
373.03	56.17
373.22	4.68
373.42	0.00
373.62	2.34
373.81	0.00
374.01	86.60
374.21	39.79
374.40	0.00
374.60	18.72
374.79	0.00
374.99	77.24
375.19	11.70
375.38	35.11
375.58	53.83
375.78	86.60
375.97	58.51
376.17	4.68
376.37	25.75
376.56	56.17
376.76	35.11
376.95	46.81
377.15	0.00
377.35	72.56
377.54	51.49
377.74	0.00
377.93	7.02
378.13	124.05
378.33	0.00
378.52	42.13
378.72	0.00
378.91	25.75
379.11	0.00
379.31	16.38
379.50	0.00
379.70	0.00
379.89	131.07
380.09	25.75
380.28	0.00
380.48	0.00
380.68	25.75
380.87	0.00
381.07	18.72
381.26	65.54
381.46	0.00
381.65	11.70
381.85	4.68
382.04	0.00
382.24	100.64
382.43	0.00
382.63	0.00
382.83	0.00
383.02	67.88
383.22	0.00
383.41	4.68
383.61	0.00
383.80	0.00
384.00	0.00
384.19	49.15
384.39	11.70
384.58	2.34
384.78	0.00
384.97	4.68
385.17	53.83
385.36	4.68
385.56	0.00
385.75	91.28
385.95	84.26
386.14	86.60
386.34	25.75
386.53	35.11
386.72	102.98
386.92	25.75
387.11	56.17
387.31	0.00
387.50	44.47
387.70	11.70
387.89	32.77
388.09	44.47
388.28	35.11
388.48	0.00
388.67	67.88
388.86	0.00
389.06	37.45
389.25	23.41
389.45	0.00
389.64	35.11
389.84	25.75
390.03	53.83
390.22	0.00
390.42	23.41
390.61	0.00
390.81	35.11
391.00	28.09
391.19	16.38
391.39	23.41
391.58	65.54
391.78	32.77
391.97	74.90
392.16	9.36
392.36	28.09
392.55	11.70
392.75	16.38
392.94	84.26
393.13	16.38
393.33	30.43
393.52	37.45
393.71	39.79
393.91	37.45
394.10	0.00
394.29	2.34
394.49	18.72
394.68	23.41
394.88	65.54
395.07	0.00
395.26	51.49
395.46	37.45
395.65	98.30
395.84	14.04
396.04	63.19
396.23	0.00
396.42	16.38
396.62	7.02
396.81	65.54
397.00	23.41
397.19	2.34
397.39	74.90
397.58	16.38
397.77	95.96
397.97	0.00
398.16	4.68
398.35	72.56
398.55	0.00
398.74	28.09
398.93	39.79
399.12	51.49
399.32	0.00
399.51	28.09
399.70	39.79
399.90	7.02
400.09	9.36
400.28	16.38
400.47	98.30
400.67	30.43
400.86	0.00
401.05	65.54
401.24	25.75
401.44	51.49
401.63	126.39
401.82	49.15
402.01	0.00
402.21	16.38
402.40	32.77
402.59	30.43
402.78	25.75
402.97	91.28
403.17	42.13
403.36	84.26
403.55	11.70
403.74	95.96
403.93	0.00
404.13	21.06
404.32	32.77
404.51	14.04
404.70	28.09
404.89	0.00
405.09	21.06
405.28	9.36
405.47	88.94
405.66	60.85
405.85	56.17
406.05	14.04
406.24	67.88
406.43	65.54
406.62	56.17
406.81	0.00
407.00	102.98
407.20	16.38
407.39	84.26
407.58	32.77
407.77	32.77
407.96	0.00
408.15	28.09
408.34	0.00
408.54	35.11
408.73	0.00
408.92	65.54
409.11	25.75
409.30	18.72
409.49	56.17
409.68	42.13
409.87	0.00
410.07	0.00
410.26	39.79
410.45	140.43
410.64	0.00
410.83	0.00
411.02	21.06
411.21	25.75
411.40	49.15
411.59	32.77
411.78	30.43
411.98	91.28
412.17	16.38
412.36	56.17
412.55	11.70
412.74	63.19
412.93	0.00
413.12	0.00
413.31	88.94
413.50	56.17
413.69	46.81
413.88	0.00
414.07	112.35
414.26	21.06
414.45	0.00
414.64	42.13
414.83	21.06
415.02	25.75
415.22	0.00
415.41	42.13
415.60	0.00
415.79	140.43
415.98	81.92
416.17	72.56
416.36	53.83
416.55	53.83
416.74	56.17
416.93	117.03
417.12	102.98
417.31	53.83
417.50	114.69
417.69	30.43
417.88	4.68
418.07	138.09
418.26	63.19
418.45	46.81
418.64	0.00
418.83	14.04
419.02	0.00
419.21	11.70
419.39	25.75
419.58	0.00
419.77	44.47
419.96	79.58
420.15	18.72
420.34	51.49
420.53	67.88
420.72	53.83
420.91	4.68
421.10	44.47
421.29	121.71
421.48	46.81
421.67	72.56
421.86	42.13
422.05	46.81
422.24	0.00
422.43	9.36
422.61	70.22
422.80	0.00
422.99	56.17
423.18	42.13
423.37	32.77
423.56	14.04
423.75	35.11
423.94	14.04
424.13	0.00
424.32	88.94
424.50	28.09
424.69	28.09
424.88	102.98
425.07	63.19
425.26	37.45
425.45	9.36
425.64	102.98
425.83	30.43
426.01	56.17
426.20	128.73
426.39	60.85
426.58	32.77
426.77	21.06
426.96	37.45
427.15	112.35
427.33	86.60
427.52	93.62
427.71	124.05
427.90	18.72
428.09	131.07
428.28	21.06
428.46	100.64
428.65	0.00
428.84	53.83
429.03	25.75
429.22	42.13
429.40	105.32
429.59	21.06
429.78	37.45
429.97	25.75
430.16	67.88
430.34	0.00
430.53	84.26
430.72	7.02
430.91	32.77
431.10	70.22
431.28	39.79
431.47	23.41
431.66	65.54
431.85	65.54
432.03	28.09
432.22	95.96
432.41	49.15
432.60	58.51
432.79	28.09
432.97	79.58
433.16	4.68
433.35	4.68
433.54	11.70
433.72	18.72
433.91	0.00
434.10	32.77
434.28	39.79
434.47	7.02
434.66	44.47
434.85	32.77
435.03	112.35
435.22	58.51
435.41	60.85
435.59	39.79
435.78	11.70
435.97	79.58
436.16	84.26
436.34	56.17
436.53	65.54
436.72	35.11
436.90	56.17
437.09	56.17
437.28	16.38
437.46	4.68
437.65	49.15
437.84	46.81
438.02	107.66
438.21	70.22
438.40	119.37
438.58	14.04
438.77	37.45
438.96	119.37
439.14	49.15
439.33	67.88
439.52	58.51
439.70	51.49
439.89	63.19
440.08	79.58
440.26	53.83
440.45	49.15
440.63	37.45
440.82	2.34
441.01	51.49
441.19	9.36
441.38	0.00
441.57	51.49
441.75	30.43
441.94	18.72
442.12	53.83
442.31	77.24
442.50	70.22
442.68	7.02
442.87	42.13
443.05	9.36
443.24	18.72
443.43	16.38
443.61	37.45
443.80	135.75
443.98	18.72
444.17	39.79
444.35	0.00
444.54	70.22
444.73	21.06
444.91	23.41
445.10	95.96
445.28	25.75
445.47	28.09
445.65	79.58
445.84	58.51
446.02	133.41
446.21	0.00
446.39	42.13
446.58	14.04
446.77	91.28
446.95	21.06
447.14	107.66
447.32	74.90
447.51	0.00
447.69	56.17
447.88	32.77
448.06	84.26
448.25	91.28
448.43	49.15
448.62	77.24
448.80	60.85
448.99	4.68
449.17	21.06
449.36	72.56
449.54	46.81
449.73	32.77
449.91	0.00
450.10	65.54
450.28	74.90
450.46	4.68
450.65	37.45
450.83	138.09
451.02	53.83
451.20	42.13
451.39	95.96
451.57	14.04
451.76	107.66
451.94	0.00
452.13	102.98
452.31	0.00
452.49	81.92
452.68	63.19
452.86	65.54
453.05	93.62
453.23	42.13
453.42	46.81
453.60	51.49
453.78	79.58
453.97	37.45
454.15	74.90
454.34	32.77
454.52	53.83
454.70	14.04
454.89	86.60
455.07	51.49
455.26	131.07
455.44	161.50
455.62	114.69
455.81	126.39
455.99	56.17
456.17	49.15
456.36	0.00
456.54	105.32
456.73	18.72
456.91	53.83
457.09	102.98
457.28	95.96
457.46	107.66
457.64	46.81
457.83	28.09
458.01	72.56
458.19	67.88
458.38	56.17
458.56	16.38
458.74	72.56
458.93	67.88
459.11	84.26
459.29	74.90
459.48	67.88
459.66	46.81
459.84	56.17
460.03	72.56
460.21	0.00
460.39	7.02
460.57	30.43
460.76	60.85
460.94	37.45
461.12	105.32
461.31	72.56
461.49	67.88
461.67	93.62
461.85	0.00
462.04	67.88
462.22	140.43
462.40	74.90
462.59	65.54
462.77	7.02
462.95	112.35
463.13	84.26
463.32	49.15
463.50	58.51
463.68	67.88
463.86	23.41
464.05	51.49
464.23	84.26
464.41	58.51
464.59	79.58
464.78	42.13
464.96	72.56
465.14	32.77
465.32	39.79
465.50	117.03
465.69	32.77
465.87	131.07
466.05	60.85
466.23	0.00
466.41	28.09
466.60	93.62
466.78	30.43
466.96	30.43
467.14	79.58
467.32	25.75
467.51	70.22
467.69	0.00
467.87	0.00
468.05	65.54
468.23	0.00
468.41	70.22
468.60	0.00
468.78	37.45
468.96	77.24
469.14	42.13
469.32	131.07
469.50	39.79
469.69	37.45
469.87	0.00
470.05	42.13
470.23	93.62
470.41	37.45
470.59	112.35
470.77	35.11
470.95	32.77
471.14	79.58
471.32	63.19
471.50	91.28
471.68	21.06
471.86	21.06
472.04	23.41
472.22	56.17
472.40	0.00
472.58	30.43
472.77	74.90
472.95	58.51
473.13	81.92
473.31	42.13
473.49	0.00
473.67	117.03
473.85	58.51
474.03	60.85
474.21	4.68
474.39	98.30
474.57	124.05
474.75	77.24
474.93	37.45
475.12	42.13
475.30	63.19
475.48	102.98
475.66	58.51
475.84	88.94
476.02	51.49
476.20	63.19
476.38	37.45
476.56	51.49
476.74	46.81
476.92	60.85
477.10	4.68
477.28	119.37
477.46	42.13
477.64	126.39
477.82	79.58
478.00	86.60
478.18	53.83
478.36	79.58
478.54	32.77
478.72	21.06
478.90	51.49
479.08	39.79
479.26	81.92
479.44	28.09
479.62	28.09
479.80	0.00
479.98	37.45
480.16	0.00
480.34	79.58
480.52	72.56
480.70	67.88
480.88	88.94
481.06	63.19
481.24	11.70
481.41	79.58
481.59	42.13
481.77	4.68
481.95	86.60
482.13	70.22
482.31	46.81
482.49	14.04
482.67	56.17
482.85	53.83
483.03	67.88
483.21	60.85
483.39	2.34
483.57	49.15
483.74	86.60
483.92	100.64
484.10	23.41
484.28	49.15
484.46	49.15
484.64	0.00
484.82	4.68
485.00	21.06
485.18	145.11
485.35	60.85
485.53	53.83
485.71	133.41
485.89	23.41
486.07	140.43
486.25	32.77
486.43	0.00
486.61	138.09
486.78	2.34
486.96	65.54
487.14	58.51
487.32	30.43
487.50	0.00
487.68	44.47
487.85	114.69
488.03	110.01
488.21	58.51
488.39	70.22
488.57	70.22
488.75	84.26
488.92	128.73
489.10	93.62
489.28	37.45
489.46	107.66
489.64	53.83
489.81	133.41
489.99	128.73
490.17	86.60
490.35	30.43
490.53	95.96
490.70	86.60
490.88	84.26
491.06	65.54
491.24	49.15
491.41	91.28
491.59	100.64
491.77	37.45
491.95	93.62
492.13	149.79
492.30	93.62
492.48	70.22
492.66	91.28
492.84	32.77
493.01	72.56
493.19	67.88
493.37	51.49
493.54	16.38
493.72	56.17
493.90	49.15
494.08	42.13
494.25	95.96
494.43	98.30
494.61	65.54
494.79	84.26
494.96	32.77
495.14	49.15
495.32	72.56
495.49	79.58
495.67	44.47
495.85	74.90
496.02	86.60
496.20	93.62
496.38	7.02
496.55	86.60
496.73	117.03
496.91	154.48
497.09	67.88
497.26	21.06
497.44	60.85
497.62	0.00
497.79	105.32
497.97	112.35
498.14	72.56
498.32	53.83
498.50	42.13
498.67	56.17
498.85	49.15
499.03	0.00
499.20	114.69
499.38	88.94
499.56	81.92
499.73	149.79
499.91	98.30
500.08	84.26
500.26	86.60
500.44	18.72
500.61	102.98
500.79	88.94
500.97	95.96
501.14	112.35
501.32	107.66
501.49	88.94
501.67	79.58
501.84	72.56
502.02	93.62
502.20	35.11
502.37	21.06
502.55	25.75
502.72	7.02
502.90	60.85
503.07	32.77
503.25	44.47
503.43	93.62
503.60	39.79
503.78	65.54
503.95	37.45
504.13	140.43
504.30	88.94
504.48	0.00
504.65	117.03
504.83	49.15
505.01	56.17
505.18	42.13
505.36	98.30
505.53	60.85
505.71	37.45
505.88	95.96
506.06	149.79
506.23	74.90
506.41	65.54
506.58	72.56
506.76	84.26
506.93	93.62
507.11	28.09
507.28	74.90
507.46	65.54
507.63	107.66
507.81	58.51
507.98	117.03
508.16	58.51
508.33	0.00
508.50	39.79
508.68	70.22
508.85	42.13
509.03	35.11
509.20	81.92
509.38	70.22
509.55	70.22
509.73	105.32
509.90	63.19
510.08	42.13
510.25	102.98
510.42	60.85
510.60	135.75
510.77	72.56
510.95	100.64
511.12	60.85
511.30	91.28
511.47	93.62
511.64	81.92
511.82	166.18
511.99	70.22
512.17	88.94
512.34	67.88
512.51	14.04
512.69	39.79
512.86	131.07
513.04	124.05
513.21	79.58
513.38	124.05
513.56	114.69
513.73	107.66
513.90	88.94
514.08	102.98
514.25	114.69
514.43	112.35
514.60	128.73
514.77	79.58
514.95	93.62
515.12	72.56
515.29	63.19
515.47	70.22
515.64	112.35
515.81	63.19
515.99	142.77
516.16	72.56
516.33	163.84
516.51	37.45
516.68	133.41
516.85	84.26
517.03	93.62
517.20	124.05
517.37	74.90
517.54	65.54
517.72	39.79
517.89	35.11
518.06	81.92
518.24	124.05
518.41	154.48
518.58	133.41
518.75	102.98
518.93	14.04
519.10	140.43
519.27	117.03
519.45	152.13
519.62	114.69
519.79	67.88
519.96	121.71
520.14	32.77
520.31	30.43
520.48	51.49
520.65	91.28
520.83	114.69
521.00	77.24
521.17	133.41
521.34	53.83
521.52	88.94
521.69	60.85
521.86	28.09
522.03	79.58
522.20	128.73
522.38	91.28
522.55	128.73
522.72	156.82
522.89	70.22
523.07	72.56
523.24	128.73
523.41	9.36
523.58	51.49
523.75	124.05
523.92	100.64
524.10	65.54
524.27	72.56
524.44	77.24
524.61	86.60
524.78	58.51
524.96	91.28
525.13	147.45
525.30	63.19
525.47	128.73
525.64	135.75
525.81	124.05
525.98	98.30
526.16	84.26
526.33	102.98
526.50	70.22
526.67	119.37
526.84	110.01
527.01	93.62
527.18	100.64
527.36	70.22
527.53	79.58
527.70	37.45
527.87	46.81
528.04	67.88
528.21	84.26
528.38	124.05
528.55	53.83
528.72	65.54
528.89	98.30
529.07	140.43
529.24	39.79
529.41	154.48
529.58	147.45
529.75	105.32
529.92	133.41
530.09	49.15
530.26	131.07
530.43	72.56
530.60	112.35
530.77	95.96
530.94	39.79
531.11	88.94
531.28	140.43
531.46	67.88
531.63	93.62
531.80	124.05
531.97	154.48
532.14	67.88
532.31	65.54
532.48	149.79
532.65	79.58
532.82	126.39
532.99	77.24
533.16	110.01
533.33	128.73
533.50	102.98
533.67	49.15
533.84	67.88
534.01	42.13
534.18	28.09
534.35	133.41
534.52	126.39
534.69	107.66
534.86	72.56
535.03	81.92
535.20	60.85
535.37	46.81
535.54	105.32
535.71	35.11
535.88	128.73
536.05	53.83
536.22	98.30
536.38	114.69
536.55	65.54
536.72	39.79
536.89	135.75
537.06	98.30
537.23	100.64
537.40	126.39
537.57	88.94
537.74	0.00
537.91	74.90
538.08	74.90
538.25	25.75
538.42	107.66
538.59	37.45
538.75	140.43
538.92	128.73
539.09	114.69
539.26	128.73
539.43	56.17
539.60	95.96
539.77	100.64
539.94	93.62
540.11	70.22
540.28	30.43
540.44	147.45
540.61	4.68
540.78	32.77
540.95	170.86
541.12	114.69
541.29	53.83
541.46	114.69
541.62	58.51
541.79	135.75
541.96	112.35
542.13	105.32
542.30	98.30
542.47	25.75
542.63	88.94
542.80	7.02
542.97	39.79
543.14	18.72
543.31	81.92
543.48	79.58
543.64	142.77
543.81	77.24
543.98	95.96
544.15	23.41
544.32	74.90
544.48	9.36
544.65	88.94
544.82	170.86
544.99	56.17
545.16	124.05
545.32	74.90
545.49	117.03
545.66	88.94
545.83	88.94
546.00	138.09
546.16	42.13
546.33	51.49
546.50	131.07
546.67	117.03
546.83	100.64
547.00	65.54
547.17	9.36
547.34	28.09
547.50	49.15
547.67	67.88
547.84	65.54
548.00	14.04
548.17	46.81
548.34	70.22
548.51	35.11
548.67	79.58
548.84	81.92
549.01	79.58
549.18	149.79
549.34	102.98
549.51	98.30
549.68	72.56
549.84	112.35
550.01	135.75
550.18	91.28
550.34	88.94
550.51	91.28
550.68	70.22
550.84	51.49
551.01	100.64
551.18	63.19
551.34	88.94
551.51	107.66
551.68	72.56
551.84	72.56
552.01	39.79
552.18	77.24
552.34	100.64
552.51	46.81
552.68	110.01
552.84	79.58
553.01	56.17
553.18	53.83
553.34	112.35
553.51	72.56
553.67	107.66
553.84	91.28
554.01	16.38
554.17	11.70
554.34	114.69
554.51	121.71
554.67	131.07
554.84	84.26
555.00	18.72
555.17	102.98
555.33	156.82
555.50	53.83
555.67	60.85
555.83	112.35
556.00	102.98
556.16	131.07
556.33	74.90
556.50	117.03
556.66	53.83
556.83	53.83
556.99	67.88
557.16	77.24
557.32	37.45
557.49	74.90
557.65	65.54
557.82	124.05
557.98	117.03
558.15	46.81
558.32	114.69
558.48	91.28
558.65	74.90
558.81	110.01
558.98	79.58
559.14	100.64
559.31	121.71
559.47	100.64
559.64	88.94
559.80	67.88
559.97	74.90
560.13	100.64
560.30	72.56
560.46	81.92
560.63	142.77
560.79	28.09
560.96	63.19
561.12	86.60
561.29	74.90
561.45	42.13
561.61	100.64
561.78	84.26
561.94	42.13
562.11	102.98
562.27	91.28
562.44	28.09
562.60	70.22
562.77	58.51
562.93	65.54
563.10	79.58
563.26	74.90
563.42	100.64
563.59	81.92
563.75	58.51
563.92	65.54
564.08	117.03
564.24	91.28
564.41	112.35
564.57	58.51
564.74	39.79
564.90	46.81
565.07	60.85
565.23	37.45
565.39	102.98
565.56	121.71
565.72	72.56
565.88	154.48
566.05	86.60
566.21	88.94
566.38	93.62
566.54	42.13
566.70	18.72
566.87	93.62
567.03	14.04
567.19	107.66
567.36	21.06
567.52	65.54
567.68	65.54
567.85	133.41
568.01	86.60
568.17	117.03
568.34	110.01
568.50	91.28
568.66	100.64
568.83	51.49
568.99	159.16
569.15	100.64
569.32	35.11
569.48	56.17
569.64	107.66
569.81	77.24
569.97	102.98
570.13	9.36
570.30	70.22
570.46	95.96
570.62	58.51
570.78	74.90
570.95	0.00
571.11	65.54
571.27	79.58
571.43	72.56
571.60	42.13
571.76	28.09
571.92	72.56
572.09	72.56
572.25	91.28
572.41	58.51
572.57	110.01
572.74	86.60
572.90	25.75
573.06	46.81
573.22	119.37
573.38	44.47
573.55	65.54
573.71	126.39
573.87	51.49
574.03	42.13
574.20	58.51
574.36	42.13
574.52	46.81
574.68	110.01
574.84	98.30
575.01	105.32
575.17	25.75
575.33	98.30
575.49	25.75
575.65	105.32
575.82	124.05
575.98	110.01
576.14	114.69
576.30	56.17
576.46	44.47
576.62	60.85
576.79	30.43
576.95	147.45
577.11	56.17
577.27	23.41
577.43	84.26
577.59	37.45
577.75	77.24
577.92	131.07
578.08	46.81
578.24	93.62
578.40	84.26
578.56	177.88
578.72	88.94
578.88	74.90
579.04	86.60
579.21	91.28
579.37	135.75
579.53	42.13
579.69	119.37
579.85	44.47
580.01	84.26
580.17	135.75
580.33	44.47
580.49	100.64
580.65	74.90
580.82	49.15
580.98	163.84
581.14	86.60
581.30	32.77
581.46	124.05
581.62	119.37
581.78	91.28
581.94	81.92
582.10	98.30
582.26	63.19
582.42	79.58
582.58	149.79
582.74	91.28
582.90	112.35
583.06	112.35
583.22	112.35
583.38	72.56
583.54	46.81
583.70	135.75
583.86	119.37
584.02	102.98
584.18	53.83
584.34	51.49
584.50	100.64
584.66	88.94
584.82	126.39
584.98	39.79
585.14	128.73
585.30	25.75
585.46	95.96
585.62	86.60
585.78	88.94
585.94	74.90
586.10	51.49
586.26	58.51
586.42	102.98
586.58	72.56
586.74	88.94
586.90	37.45
587.06	56.17
587.22	42.13
587.38	56.17
587.54	79.58
587.70	152.13
587.86	95.96
588.02	95.96
588.18	88.94
588.34	63.19
588.49	67.88
588.65	30.43
588.81	46.81
588.97	133.41
589.13	58.51
589.29	67.88
589.45	25.75
589.61	58.51
589.77	72.56
589.93	95.96
590.08	49.15
590.24	16.38
590.40	51.49
590.56	70.22
590.72	95.96
590.88	35.11
591.04	72.56
591.20	112.35
591.35	86.60
591.51	77.24
591.67	86.60
591.83	23.41
591.99	28.09
592.15	53.83
592.31	124.05
592.46	65.54
592.62	74.90
592.78	65.54
592.94	70.22
593.10	105.32
593.26	42.13
593.41	121.71
593.57	77.24
593.73	67.88
593.89	100.64
594.05	49.15
594.20	93.62
594.36	44.47
594.52	39.79
594.68	18.72
594.84	74.90
594.99	81.92
595.15	173.20
595.31	110.01
595.47	145.11
595.62	93.62
595.78	107.66
595.94	100.64
596.10	60.85
596.25	84.26
596.41	100.64
596.57	32.77
596.73	65.54
596.88	72.56
597.04	126.39
597.20	98.30
597.36	58.51
597.51	110.01
597.67	72.56
597.83	117.03
597.99	16.38
598.14	70.22
598.30	53.83
598.46	65.54
598.61	102.98
598.77	70.22
598.93	140.43
599.09	133.41
599.24	140.43
599.40	35.11
599.56	124.05
599.71	56.17
599.87	70.22
600.03	88.94
600.18	70.22
600.34	102.98
600.50	44.47
600.65	58.51
600.81	79.58
600.97	84.26
601.12	79.58
601.28	98.30
601.44	72.56
601.59	51.49
601.75	105.32
601.91	51.49
602.06	60.85
602.22	39.79
602.37	37.45
602.53	0.00
602.69	28.09
602.84	121.71
603.00	105.32
603.16	81.92
603.31	95.96
603.47	74.90
603.62	98.30
603.78	51.49
603.94	56.17
604.09	65.54
604.25	95.96
604.40	91.28
604.56	81.92
604.71	28.09
604.87	74.90
605.03	138.09
605.18	88.94
605.34	18.72
605.49	91.28
605.65	65.54
605.80	79.58
605.96	53.83
606.12	70.22
606.27	112.35
606.43	18.72
606.58	79.58
606.74	25.75
606.89	107.66
607.05	107.66
607.20	58.51
607.36	35.11
607.51	58.51
607.67	63.19
607.82	91.28
607.98	112.35
608.13	145.11
608.29	44.47
608.44	84.26
608.60	72.56
608.75	114.69
608.91	102.98
609.06	53.83
609.22	95.96
609.37	126.39
609.53	77.24
609.68	46.81
609.84	72.56
609.99	32.77
610.15	65.54
610.30	56.17
610.46	49.15
610.61	84.26
610.76	191.92
610.92	88.94
611.07	39.79
611.23	84.26
611.38	60.85
611.54	70.22
611.69	58.51
611.84	11.70
612.00	67.88
612.15	72.56
612.31	53.83
612.46	145.11
612.62	114.69
612.77	124.05
612.92	49.15
613.08	112.35
613.23	56.17
613.39	9.36
613.54	53.83
613.69	11.70
613.85	21.06
614.00	100.64
614.15	56.17
614.31	70.22
614.46	28.09
614.62	77.24
614.77	126.39
614.92	72.56
615.08	63.19
615.23	23.41
615.38	37.45
615.54	0.00
615.69	60.85
615.84	119.37
616.00	18.72
616.15	49.15
616.30	28.09
616.46	77.24
616.61	18.72
616.76	112.35
616.92	124.05
617.07	70.22
617.22	74.90
617.37	100.64
617.53	67.88
617.68	72.56
617.83	121.71
617.99	23.41
618.14	128.73
618.29	161.50
618.45	67.88
618.60	112.35
618.75	60.85
618.90	70.22
619.06	39.79
619.21	21.06
619.36	131.07
619.51	0.00
619.67	53.83
619.82	7.02
619.97	58.51
620.12	79.58
620.28	105.32
620.43	117.03
620.58	149.79
620.73	63.19
620.89	102.98
621.04	95.96
621.19	23.41
621.34	35.11
621.49	30.43
621.65	46.81
621.80	44.47
621.95	72.56
622.10	18.72
622.25	107.66
622.41	86.60
622.56	28.09
622.71	70.22
622.86	110.01
623.01	72.56
623.16	51.49
623.32	42.13
623.47	74.90
623.62	44.47
623.77	0.00
623.92	112.35
624.07	112.35
624.23	91.28
624.38	18.72
624.53	30.43
624.68	16.38
624.83	65.54
624.98	65.54
625.13	18.72
625.29	67.88
625.44	110.01
625.59	42.13
625.74	67.88
625.89	70.22
626.04	25.75
626.19	9.36
626.34	81.92
626.49	154.48
626.65	79.58
626.80	74.90
626.95	63.19
627.10	84.26
627.25	100.64
627.40	93.62
627.55	74.90
627.70	65.54
627.85	88.94
628.00	93.62
628.15	112.35
628.30	37.45
628.45	35.11
628.60	18.72
628.76	95.96
628.91	60.85
629.06	67.88
629.21	16.38
629.36	39.79
629.51	14.04
629.66	86.60
629.81	110.01
629.96	107.66
630.11	60.85
630.26	42.13
630.41	46.81
630.56	53.83
630.71	95.96
630.86	67.88
631.01	14.04
631.16	7.02
631.31	16.38
631.46	32.77
631.61	91.28
631.76	14.04
631.91	131.07
632.06	16.38
632.21	18.72
632.36	28.09
632.51	72.56
632.66	14.04
632.81	133.41
632.96	72.56
633.10	88.94
633.25	63.19
633.40	0.00
633.55	102.98
633.70	51.49
633.85	9.36
634.00	56.17
634.15	23.41
634.30	74.90
634.45	81.92
634.60	53.83
634.75	93.62
634.90	7.02
635.05	79.58
635.19	121.71
635.34	72.56
635.49	21.06
635.64	0.00
635.79	4.68
635.94	25.75
636.09	93.62
636.24	32.77
636.39	0.00
636.53	72.56
636.68	112.35
636.83	25.75
636.98	70.22
637.13	72.56
637.28	60.85
637.43	14.04
637.57	0.00
637.72	60.85
637.87	86.60
638.02	37.45
638.17	79.58
638.32	63.19
638.46	128.73
638.61	114.69
638.76	98.30
638.91	84.26
639.06	100.64
639.20	77.24
639.35	65.54
639.50	114.69
639.65	53.83
639.80	65.54
639.94	46.81
640.09	70.22
640.24	0.00
640.39	0.00
640.54	42.13
640.68	58.51
640.83	95.96
640.98	0.00
641.13	102.98
641.27	11.70
641.42	102.98
641.57	53.83
641.72	32.77
641.86	72.56
642.01	49.15
642.16	51.49
642.31	0.00
642.45	126.39
642.60	67.88
642.75	56.17
642.90	53.83
643.04	53.83
643.19	56.17
643.34	4.68
643.48	16.38
643.63	65.54
643.78	9.36
643.93	58.51
644.07	21.06
644.22	72.56
644.37	9.36
644.51	32.77
644.66	58.51
644.81	60.85
644.95	49.15
645.10	114.69
645.25	65.54
645.39	32.77
645.54	67.88
645.69	56.17
645.83	74.90
645.98	0.00
646.13	88.94
646.27	39.79
646.42	91.28
646.57	84.26
646.71	95.96
646.86	46.81
647.00	37.45
647.15	74.90
647.30	16.38
647.44	30.43
647.59	16.38
647.74	63.19
647.88	51.49
648.03	91.28
648.17	49.15
648.32	74.90
648.47	70.22
648.61	32.77
648.76	9.36
648.90	11.70
649.05	77.24
649.20	107.66
649.34	93.62
649.49	177.88
649.63	91.28
649.78	30.43
649.92	53.83
650.07	18.72
650.21	74.90
650.36	63.19
650.51	14.04
650.65	0.00
650.80	84.26
650.94	30.43
651.09	37.45
651.23	93.62
651.38	32.77
651.52	51.49
651.67	25.75
651.81	0.00
651.96	44.47
652.10	107.66
652.25	23.41
652.39	86.60
652.54	81.92
652.68	14.04
652.83	91.28
652.97	86.60
653.12	37.45
653.26	91.28
653.41	2.34
653.55	9.36
653.70	84.26
653.84	0.00
653.99	21.06
654.13	11.70
654.27	32.77
654.42	67.88
654.56	81.92
654.71	72.56
654.85	65.54
655.00	51.49
655.14	16.38
655.29	74.90
655.43	65.54
655.57	67.88
655.72	28.09
655.86	9.36
656.01	63.19
656.15	35.11
656.30	23.41
656.44	86.60
656.58	11.70
656.73	53.83
656.87	95.96
657.01	81.92
657.16	60.85
657.30	44.47
657.45	35.11
657.59	72.56
657.73	0.00
657.88	0.00
658.02	0.00
658.16	110.01
658.31	0.00
658.45	44.47
658.60	51.49
658.74	56.17
658.88	67.88
659.03	77.24
659.17	65.54
659.31	70.22
659.46	102.98
659.60	42.13
659.74	88.94
659.89	0.00
660.03	23.41
660.17	0.00
660.32	9.36
660.46	86.60
660.60	44.47
660.74	18.72
660.89	42.13
661.03	98.30
661.17	46.81
661.32	0.00
661.46	35.11
661.60	53.83
661.74	84.26
661.89	21.06
662.03	74.90
662.17	70.22
662.31	67.88
662.46	56.17
662.60	11.70
662.74	79.58
662.88	107.66
663.03	110.01
663.17	67.88
663.31	49.15
663.45	14.04
663.60	42.13
663.74	49.15
663.88	37.45
664.02	67.88
664.17	93.62
664.31	93.62
664.45	65.54
664.59	49.15
664.73	23.41
664.88	0.00
665.02	11.70
665.16	72.56
665.30	18.72
665.44	105.32
665.59	4.68
665.73	46.81
665.87	100.64
666.01	81.92
666.15	37.45
666.29	0.00
666.44	39.79
666.58	88.94
666.72	72.56
666.86	53.83
667.00	67.88
667.14	74.90
667.28	42.13
667.43	112.35
667.57	126.39
667.71	100.64
667.85	60.85
667.99	25.75
668.13	0.00
668.27	112.35
668.41	32.77
668.56	93.62
668.70	65.54
668.84	65.54
668.98	65.54
669.12	79.58
669.26	112.35
669.40	138.09
669.54	107.66
669.68	67.88
669.82	25.75
669.96	0.00
670.10	25.75
670.25	67.88
670.39	0.00
670.53	88.94
670.67	124.05
670.81	70.22
670.95	0.00
671.09	121.71
671.23	37.45
671.37	23.41
671.51	93.62
671.65	32.77
671.79	63.19
671.93	65.54
672.07	0.00
672.21	86.60
672.35	0.00
672.49	51.49
672.63	4.68
672.77	42.13
672.91	44.47
673.05	16.38
673.19	93.62
673.33	60.85
673.47	81.92
673.61	46.81
673.75	77.24
673.89	25.75
674.03	49.15
674.17	84.26
674.31	121.71
674.45	46.81
674.59	95.96
674.73	0.00
674.87	63.19
675.01	63.19
675.15	79.58
675.29	74.90
675.43	84.26
675.56	98.30
675.70	77.24
675.84	4.68
675.98	46.81
676.12	7.02
676.26	0.00
676.40	46.81
676.54	11.70
676.68	25.75
676.82	25.75
676.96	0.00
677.10	81.92
677.23	0.00
677.37	4.68
677.51	112.35
677.65	4.68
677.79	63.19
677.93	114.69
678.07	0.00
678.21	35.11
678.34	28.09
678.48	121.71
678.62	23.41
678.76	11.70
678.90	0.00
679.04	49.15
679.18	65.54
679.31	72.56
679.45	4.68
679.59	46.81
679.73	21.06
679.87	14.04
680.00	9.36
680.14	0.00
680.28	42.13
680.42	91.28
680.56	112.35
680.70	0.00
680.83	65.54
680.97	107.66
681.11	117.03
681.25	35.11
681.39	37.45
681.52	93.62
681.66	51.49
681.80	0.00
681.94	32.77
682.07	105.32
682.21	70.22
682.35	37.45
682.49	70.22
682.62	53.83
682.76	21.06
682.90	58.51
683.04	16.38
683.17	25.75
683.31	0.00
683.45	88.94
683.59	0.00
683.72	23.41
683.86	0.00
684.00	53.83
684.13	56.17
684.27	23.41
684.41	74.90
684.55	16.38
684.68	32.77
684.82	9.36
684.96	51.49
685.09	53.83
685.23	79.58
685.37	9.36
685.50	51.49
685.64	0.00
685.78	21.06
685.91	124.05
686.05	67.88
686.19	0.00
686.32	51.49
686.46	32.77
686.60	23.41
686.73	0.00
686.87	42.13
687.01	49.15
687.14	35.11
687.28	53.83
687.42	14.04
687.55	0.00
687.69	28.09
687.82	30.43
687.96	56.17
688.10	2.34
688.23	51.49
688.37	53.83
688.50	77.24
688.64	32.77
688.78	44.47
688.91	84.26
689.05	39.79
689.18	46.81
689.32	46.81
689.46	93.62
689.59	9.36
689.73	37.45
689.86	67.88
690.00	46.81
690.13	28.09
690.27	44.47
690.41	42.13
690.54	23.41
690.68	0.00
690.81	14.04
690.95	88.94
691.08	49.15
691.22	100.64
691.35	100.64
691.49	51.49
691.62	58.51
691.76	56.17
691.89	0.00
692.03	0.00
692.16	93.62
692.30	91.28
692.43	30.43
692.57	77.24
692.70	46.81
692.84	2.34
692.97	72.56
693.11	60.85
693.24	11.70
693.38	58.51
693.51	16.38
693.65	0.00
693.78	35.11
693.92	7.02
694.05	30.43
694.19	49.15
694.32	32.77
694.45	42.13
694.59	0.00
694.72	30.43
694.86	51.49
694.99	0.00
695.13	35.11
695.26	28.09
695.39	53.83
695.53	58.51
695.66	7.02
695.80	30.43
695.93	18.72
696.07	25.75
696.20	63.19
696.33	67.88
696.47	23.41
696.60	28.09
696.73	25.75
696.87	39.79
697.00	49.15
697.14	25.75
697.27	32.77
697.40	79.58
697.54	0.00
697.67	37.45
697.80	67.88
697.94	18.72
698.07	0.00
698.21	49.15
698.34	105.32
698.47	60.85
698.61	21.06
698.74	7.02
698.87	56.17
699.01	74.90
699.14	56.17
699.27	72.56
699.40	86.60
699.54	51.49
699.67	32.77
699.80	53.83
699.94	30.43
700.07	84.26
700.20	56.17
700.34	18.72
700.47	0.00
700.60	44.47
700.73	84.26
700.87	32.77
701.00	0.00
701.13	0.00
701.26	72.56
701.40	84.26
701.53	74.90
701.66	35.11
701.79	28.09
701.93	25.75
702.06	9.36
702.19	51.49
702.32	14.04
702.46	46.81
702.59	7.02
702.72	25.75
702.85	25.75
702.99	138.09
703.12	88.94
703.25	39.79
703.38	60.85
703.51	44.47
703.65	81.92
703.78	0.00
703.91	77.24
704.04	0.00
704.17	70.22
704.31	39.79
704.44	53.83
704.57	49.15
704.70	49.15
704.83	81.92
704.96	42.13
705.10	39.79
705.23	42.13
>>>>>End Processed Spectral Data<<<<<
