SpectraSuite Data File
++++++++++++++++++++++++++++++++++++
Date: Fri Oct 04 12:13:41 GMT-05:00 2013
User: price-jones
Dark Spectrum Present: No
Reference Spectrum Present: No
Number of Sampled Component Spectra: 1
Spectrometers: USB2+H05261
Integration Time (usec): 10000 (USB2+H05261)
Spectra Averaged: 1 (USB2+H05261)
Boxcar Smoothing: 0 (USB2+H05261)
Correct for Electrical Dark: No (USB2+H05261)
Strobe/Lamp Enabled: No (USB2+H05261)
Correct for Detector Non-linearity: No (USB2+H05261)
Correct for Stray Light: No (USB2+H05261)
Number of Pixels in Processed Spectrum: 2048
>>>>>Begin Processed Spectral Data<<<<<
365.73	0.00
365.92	0.00
366.12	0.00
366.32	0.00
366.52	0.00
366.72	0.00
366.91	0.00
367.11	0.00
367.31	0.00
367.51	0.00
367.70	0.00
367.90	0.00
368.10	0.00
368.30	0.00
368.49	0.00
368.69	0.00
368.89	0.00
369.09	0.00
369.28	0.00
369.48	0.00
369.68	0.00
369.87	0.00
370.07	0.00
370.27	0.00
370.47	0.00
370.66	0.00
370.86	0.00
371.06	0.00
371.25	0.00
371.45	0.00
371.65	0.00
371.84	42.13
372.04	0.00
372.24	0.00
372.44	58.51
372.63	51.49
372.83	72.56
373.03	0.00
373.22	53.83
373.42	56.17
373.62	32.77
373.81	16.38
374.01	14.04
374.21	0.00
374.40	16.38
374.60	0.00
374.79	0.00
374.99	42.13
375.19	30.43
375.38	23.41
375.58	49.15
375.78	51.49
375.97	42.13
376.17	28.09
376.37	2.34
376.56	0.00
376.76	46.81
376.95	0.00
377.15	35.11
377.35	23.41
377.54	74.90
377.74	2.34
377.93	63.19
378.13	46.81
378.33	0.00
378.52	42.13
378.72	51.49
378.91	107.66
379.11	0.00
379.31	56.17
379.50	65.54
379.70	7.02
379.89	58.51
380.09	30.43
380.28	74.90
380.48	70.22
380.68	2.34
380.87	7.02
381.07	0.00
381.26	9.36
381.46	4.68
381.65	11.70
381.85	56.17
382.04	0.00
382.24	60.85
382.43	16.38
382.63	0.00
382.83	42.13
383.02	0.00
383.22	42.13
383.41	53.83
383.61	79.58
383.80	46.81
384.00	72.56
384.19	7.02
384.39	23.41
384.58	32.77
384.78	49.15
384.97	42.13
385.17	0.00
385.36	0.00
385.56	0.00
385.75	14.04
385.95	70.22
386.14	14.04
386.34	91.28
386.53	0.00
386.72	32.77
386.92	16.38
387.11	0.00
387.31	37.45
387.50	2.34
387.70	58.51
387.89	0.00
388.09	56.17
388.28	28.09
388.48	74.90
388.67	7.02
388.86	23.41
389.06	32.77
389.25	7.02
389.45	53.83
389.64	39.79
389.84	0.00
390.03	0.00
390.22	67.88
390.42	60.85
390.61	107.66
390.81	0.00
391.00	0.00
391.19	44.47
391.39	4.68
391.58	0.00
391.78	18.72
391.97	0.00
392.16	67.88
392.36	0.00
392.55	53.83
392.75	35.11
392.94	0.00
393.13	49.15
393.33	11.70
393.52	0.00
393.71	39.79
393.91	16.38
394.10	39.79
394.29	0.00
394.49	25.75
394.68	0.00
394.88	49.15
395.07	81.92
395.26	16.38
395.46	30.43
395.65	0.00
395.84	16.38
396.04	37.45
396.23	42.13
396.42	49.15
396.62	0.00
396.81	2.34
397.00	0.00
397.19	23.41
397.39	37.45
397.58	42.13
397.77	30.43
397.97	7.02
398.16	30.43
398.35	77.24
398.55	84.26
398.74	2.34
398.93	51.49
399.12	18.72
399.32	63.19
399.51	37.45
399.70	30.43
399.90	18.72
400.09	63.19
400.28	23.41
400.47	11.70
400.67	0.00
400.86	16.38
401.05	14.04
401.24	14.04
401.44	102.98
401.63	28.09
401.82	0.00
402.01	0.00
402.21	67.88
402.40	0.00
402.59	7.02
402.78	102.98
402.97	14.04
403.17	56.17
403.36	35.11
403.55	14.04
403.74	121.71
403.93	0.00
404.13	21.06
404.32	25.75
404.51	98.30
404.70	0.00
404.89	2.34
405.09	119.37
405.28	65.54
405.47	0.00
405.66	39.79
405.85	21.06
406.05	23.41
406.24	30.43
406.43	74.90
406.62	23.41
406.81	0.00
407.00	0.00
407.20	67.88
407.39	37.45
407.58	79.58
407.77	18.72
407.96	25.75
408.15	23.41
408.34	7.02
408.54	91.28
408.73	25.75
408.92	0.00
409.11	65.54
409.30	0.00
409.49	53.83
409.68	32.77
409.87	39.79
410.07	72.56
410.26	16.38
410.45	58.51
410.64	79.58
410.83	23.41
411.02	46.81
411.21	0.00
411.40	0.00
411.59	60.85
411.78	2.34
411.98	49.15
412.17	67.88
412.36	42.13
412.55	84.26
412.74	28.09
412.93	0.00
413.12	81.92
413.31	11.70
413.50	46.81
413.69	67.88
413.88	4.68
414.07	105.32
414.26	30.43
414.45	49.15
414.64	60.85
414.83	72.56
415.02	7.02
415.22	0.00
415.41	98.30
415.60	84.26
415.79	14.04
415.98	23.41
416.17	79.58
416.36	63.19
416.55	42.13
416.74	35.11
416.93	51.49
417.12	58.51
417.31	60.85
417.50	46.81
417.69	23.41
417.88	42.13
418.07	9.36
418.26	32.77
418.45	46.81
418.64	7.02
418.83	72.56
419.02	35.11
419.21	93.62
419.39	51.49
419.58	18.72
419.77	65.54
419.96	21.06
420.15	30.43
420.34	70.22
420.53	0.00
420.72	65.54
420.91	74.90
421.10	53.83
421.29	18.72
421.48	39.79
421.67	49.15
421.86	2.34
422.05	51.49
422.24	49.15
422.43	98.30
422.61	72.56
422.80	49.15
422.99	91.28
423.18	70.22
423.37	51.49
423.56	79.58
423.75	105.32
423.94	23.41
424.13	18.72
424.32	37.45
424.50	107.66
424.69	21.06
424.88	9.36
425.07	60.85
425.26	95.96
425.45	39.79
425.64	30.43
425.83	37.45
426.01	51.49
426.20	124.05
426.39	0.00
426.58	32.77
426.77	0.00
426.96	44.47
427.15	56.17
427.33	105.32
427.52	58.51
427.71	84.26
427.90	58.51
428.09	46.81
428.28	14.04
428.46	21.06
428.65	28.09
428.84	72.56
429.03	32.77
429.22	67.88
429.40	23.41
429.59	79.58
429.78	100.64
429.97	46.81
430.16	79.58
430.34	0.00
430.53	86.60
430.72	124.05
430.91	42.13
431.10	0.00
431.28	72.56
431.47	65.54
431.66	25.75
431.85	21.06
432.03	74.90
432.22	11.70
432.41	79.58
432.60	53.83
432.79	42.13
432.97	14.04
433.16	65.54
433.35	102.98
433.54	60.85
433.72	77.24
433.91	91.28
434.10	70.22
434.28	32.77
434.47	25.75
434.66	51.49
434.85	63.19
435.03	93.62
435.22	65.54
435.41	37.45
435.59	51.49
435.78	53.83
435.97	149.79
436.16	0.00
436.34	93.62
436.53	0.00
436.72	11.70
436.90	30.43
437.09	46.81
437.28	44.47
437.46	67.88
437.65	0.00
437.84	0.00
438.02	32.77
438.21	105.32
438.40	51.49
438.58	70.22
438.77	0.00
438.96	70.22
439.14	2.34
439.33	0.00
439.52	23.41
439.70	0.00
439.89	32.77
440.08	49.15
440.26	63.19
440.45	187.24
440.63	105.32
440.82	18.72
441.01	9.36
441.19	18.72
441.38	88.94
441.57	70.22
441.75	0.00
441.94	56.17
442.12	11.70
442.31	46.81
442.50	65.54
442.68	91.28
442.87	128.73
443.05	72.56
443.24	16.38
443.43	88.94
443.61	86.60
443.80	79.58
443.98	56.17
444.17	53.83
444.35	100.64
444.54	25.75
444.73	23.41
444.91	84.26
445.10	67.88
445.28	88.94
445.47	63.19
445.65	49.15
445.84	105.32
446.02	81.92
446.21	65.54
446.39	39.79
446.58	0.00
446.77	70.22
446.95	77.24
447.14	35.11
447.32	58.51
447.51	0.00
447.69	91.28
447.88	77.24
448.06	58.51
448.25	60.85
448.43	35.11
448.62	0.00
448.80	81.92
448.99	74.90
449.17	95.96
449.36	63.19
449.54	72.56
449.73	14.04
449.91	30.43
450.10	77.24
450.28	91.28
450.46	77.24
450.65	105.32
450.83	65.54
451.02	100.64
451.20	56.17
451.39	93.62
451.57	93.62
451.76	70.22
451.94	0.00
452.13	79.58
452.31	60.85
452.49	0.00
452.68	42.13
452.86	0.00
453.05	46.81
453.23	74.90
453.42	32.77
453.60	60.85
453.78	25.75
453.97	0.00
454.15	88.94
454.34	49.15
454.52	51.49
454.70	74.90
454.89	86.60
455.07	44.47
455.26	0.00
455.44	39.79
455.62	131.07
455.81	58.51
455.99	102.98
456.17	30.43
456.36	84.26
456.54	131.07
456.73	35.11
456.91	25.75
457.09	88.94
457.28	32.77
457.46	32.77
457.64	124.05
457.83	88.94
458.01	86.60
458.19	121.71
458.38	46.81
458.56	32.77
458.74	49.15
458.93	44.47
459.11	117.03
459.29	16.38
459.48	18.72
459.66	18.72
459.84	107.66
460.03	46.81
460.21	159.16
460.39	9.36
460.57	58.51
460.76	37.45
460.94	63.19
461.12	100.64
461.31	46.81
461.49	67.88
461.67	51.49
461.85	49.15
462.04	32.77
462.22	112.35
462.40	70.22
462.59	72.56
462.77	60.85
462.95	65.54
463.13	102.98
463.32	93.62
463.50	0.00
463.68	25.75
463.86	63.19
464.05	42.13
464.23	21.06
464.41	79.58
464.59	88.94
464.78	42.13
464.96	65.54
465.14	72.56
465.32	95.96
465.50	25.75
465.69	14.04
465.87	53.83
466.05	0.00
466.23	56.17
466.41	100.64
466.60	93.62
466.78	133.41
466.96	110.01
467.14	35.11
467.32	88.94
467.51	30.43
467.69	60.85
467.87	81.92
468.05	39.79
468.23	72.56
468.41	77.24
468.60	86.60
468.78	65.54
468.96	25.75
469.14	84.26
469.32	42.13
469.50	93.62
469.69	42.13
469.87	39.79
470.05	0.00
470.23	7.02
470.41	28.09
470.59	58.51
470.77	72.56
470.95	67.88
471.14	60.85
471.32	49.15
471.50	14.04
471.68	154.48
471.86	126.39
472.04	53.83
472.22	79.58
472.40	81.92
472.58	42.13
472.77	46.81
472.95	0.00
473.13	72.56
473.31	95.96
473.49	114.69
473.67	44.47
473.85	72.56
474.03	65.54
474.21	39.79
474.39	74.90
474.57	63.19
474.75	32.77
474.93	30.43
475.12	0.00
475.30	74.90
475.48	95.96
475.66	30.43
475.84	86.60
476.02	23.41
476.20	72.56
476.38	126.39
476.56	70.22
476.74	100.64
476.92	70.22
477.10	30.43
477.28	114.69
477.46	58.51
477.64	0.00
477.82	25.75
478.00	0.00
478.18	105.32
478.36	53.83
478.54	56.17
478.72	98.30
478.90	110.01
479.08	91.28
479.26	95.96
479.44	65.54
479.62	140.43
479.80	65.54
479.98	133.41
480.16	44.47
480.34	95.96
480.52	166.18
480.70	110.01
480.88	107.66
481.06	32.77
481.24	9.36
481.41	100.64
481.59	39.79
481.77	49.15
481.95	114.69
482.13	88.94
482.31	67.88
482.49	21.06
482.67	28.09
482.85	107.66
483.03	58.51
483.21	30.43
483.39	56.17
483.57	28.09
483.74	72.56
483.92	51.49
484.10	63.19
484.28	79.58
484.46	23.41
484.64	102.98
484.82	126.39
485.00	56.17
485.18	88.94
485.35	112.35
485.53	149.79
485.71	32.77
485.89	147.45
486.07	49.15
486.25	35.11
486.43	67.88
486.61	44.47
486.78	98.30
486.96	88.94
487.14	72.56
487.32	79.58
487.50	93.62
487.68	42.13
487.85	112.35
488.03	74.90
488.21	18.72
488.39	117.03
488.57	124.05
488.75	23.41
488.92	110.01
489.10	77.24
489.28	49.15
489.46	119.37
489.64	86.60
489.81	112.35
489.99	60.85
490.17	60.85
490.35	51.49
490.53	67.88
490.70	46.81
490.88	79.58
491.06	51.49
491.24	21.06
491.41	44.47
491.59	51.49
491.77	42.13
491.95	91.28
492.13	98.30
492.30	79.58
492.48	9.36
492.66	0.00
492.84	60.85
493.01	60.85
493.19	133.41
493.37	102.98
493.54	77.24
493.72	44.47
493.90	72.56
494.08	67.88
494.25	117.03
494.43	37.45
494.61	49.15
494.79	72.56
494.96	44.47
495.14	88.94
495.32	91.28
495.49	100.64
495.67	91.28
495.85	100.64
496.02	39.79
496.20	110.01
496.38	46.81
496.55	67.88
496.73	114.69
496.91	98.30
497.09	77.24
497.26	105.32
497.44	128.73
497.62	65.54
497.79	152.13
497.97	63.19
498.14	56.17
498.32	95.96
498.50	93.62
498.67	102.98
498.85	131.07
499.03	63.19
499.20	98.30
499.38	152.13
499.56	79.58
499.73	65.54
499.91	86.60
500.08	14.04
500.26	98.30
500.44	159.16
500.61	58.51
500.79	105.32
500.97	86.60
501.14	81.92
501.32	91.28
501.49	114.69
501.67	86.60
501.84	25.75
502.02	60.85
502.20	126.39
502.37	81.92
502.55	105.32
502.72	44.47
502.90	72.56
503.07	84.26
503.25	49.15
503.43	46.81
503.60	72.56
503.78	147.45
503.95	112.35
504.13	149.79
504.30	154.48
504.48	39.79
504.65	114.69
504.83	102.98
505.01	18.72
505.18	86.60
505.36	84.26
505.53	63.19
505.71	98.30
505.88	21.06
506.06	58.51
506.23	79.58
506.41	114.69
506.58	72.56
506.76	53.83
506.93	56.17
507.11	131.07
507.28	95.96
507.46	79.58
507.63	124.05
507.81	53.83
507.98	131.07
508.16	110.01
508.33	100.64
508.50	9.36
508.68	77.24
508.85	86.60
509.03	121.71
509.20	77.24
509.38	110.01
509.55	65.54
509.73	51.49
509.90	35.11
510.08	77.24
510.25	16.38
510.42	39.79
510.60	70.22
510.77	53.83
510.95	93.62
511.12	124.05
511.30	0.00
511.47	114.69
511.64	79.58
511.82	67.88
511.99	53.83
512.17	58.51
512.34	86.60
512.51	63.19
512.69	74.90
512.86	152.13
513.04	105.32
513.21	39.79
513.38	128.73
513.56	35.11
513.73	128.73
513.90	74.90
514.08	84.26
514.25	170.86
514.43	124.05
514.60	37.45
514.77	77.24
514.95	110.01
515.12	81.92
515.29	74.90
515.47	46.81
515.64	14.04
515.81	51.49
515.99	67.88
516.16	70.22
516.33	70.22
516.51	98.30
516.68	28.09
516.85	67.88
517.03	16.38
517.20	4.68
517.37	112.35
517.54	81.92
517.72	0.00
517.89	93.62
518.06	70.22
518.24	74.90
518.41	145.11
518.58	138.09
518.75	88.94
518.93	60.85
519.10	39.79
519.27	28.09
519.45	95.96
519.62	56.17
519.79	11.70
519.96	72.56
520.14	154.48
520.31	14.04
520.48	91.28
520.65	49.15
520.83	124.05
521.00	119.37
521.17	189.58
521.34	77.24
521.52	119.37
521.69	133.41
521.86	107.66
522.03	79.58
522.20	93.62
522.38	0.00
522.55	58.51
522.72	88.94
522.89	28.09
523.07	25.75
523.24	63.19
523.41	131.07
523.58	95.96
523.75	105.32
523.92	95.96
524.10	128.73
524.27	46.81
524.44	79.58
524.61	14.04
524.78	46.81
524.96	112.35
525.13	72.56
525.30	100.64
525.47	70.22
525.64	91.28
525.81	86.60
525.98	56.17
526.16	49.15
526.33	70.22
526.50	37.45
526.67	88.94
526.84	56.17
527.01	67.88
527.18	131.07
527.36	100.64
527.53	63.19
527.70	81.92
527.87	91.28
528.04	58.51
528.21	56.17
528.38	95.96
528.55	56.17
528.72	44.47
528.89	110.01
529.07	110.01
529.24	25.75
529.41	74.90
529.58	110.01
529.75	53.83
529.92	91.28
530.09	67.88
530.26	107.66
530.43	133.41
530.60	168.52
530.77	105.32
530.94	86.60
531.11	60.85
531.28	86.60
531.46	119.37
531.63	81.92
531.80	131.07
531.97	121.71
532.14	84.26
532.31	74.90
532.48	63.19
532.65	88.94
532.82	88.94
532.99	119.37
533.16	74.90
533.33	110.01
533.50	102.98
533.67	23.41
533.84	79.58
534.01	79.58
534.18	145.11
534.35	79.58
534.52	152.13
534.69	88.94
534.86	56.17
535.03	56.17
535.20	79.58
535.37	154.48
535.54	98.30
535.71	39.79
535.88	102.98
536.05	65.54
536.22	63.19
536.38	88.94
536.55	117.03
536.72	88.94
536.89	42.13
537.06	37.45
537.23	56.17
537.40	126.39
537.57	81.92
537.74	93.62
537.91	147.45
538.08	124.05
538.25	135.75
538.42	102.98
538.59	147.45
538.75	72.56
538.92	84.26
539.09	77.24
539.26	102.98
539.43	81.92
539.60	74.90
539.77	9.36
539.94	60.85
540.11	152.13
540.28	110.01
540.44	0.00
540.61	91.28
540.78	56.17
540.95	60.85
541.12	65.54
541.29	67.88
541.46	46.81
541.62	117.03
541.79	67.88
541.96	149.79
542.13	138.09
542.30	88.94
542.47	72.56
542.63	49.15
542.80	11.70
542.97	114.69
543.14	98.30
543.31	124.05
543.48	44.47
543.64	98.30
543.81	60.85
543.98	77.24
544.15	100.64
544.32	135.75
544.48	65.54
544.65	44.47
544.82	74.90
544.99	37.45
545.16	107.66
545.32	79.58
545.49	49.15
545.66	98.30
545.83	112.35
546.00	51.49
546.16	93.62
546.33	98.30
546.50	152.13
546.67	53.83
546.83	98.30
547.00	100.64
547.17	121.71
547.34	44.47
547.50	63.19
547.67	49.15
547.84	98.30
548.00	86.60
548.17	88.94
548.34	42.13
548.51	100.64
548.67	81.92
548.84	32.77
549.01	67.88
549.18	93.62
549.34	114.69
549.51	65.54
549.68	53.83
549.84	84.26
550.01	42.13
550.18	42.13
550.34	93.62
550.51	77.24
550.68	117.03
550.84	133.41
551.01	46.81
551.18	39.79
551.34	93.62
551.51	126.39
551.68	105.32
551.84	63.19
552.01	81.92
552.18	32.77
552.34	84.26
552.51	72.56
552.68	60.85
552.84	44.47
553.01	56.17
553.18	72.56
553.34	102.98
553.51	145.11
553.67	110.01
553.84	112.35
554.01	65.54
554.17	126.39
554.34	51.49
554.51	67.88
554.67	23.41
554.84	53.83
555.00	18.72
555.17	35.11
555.33	88.94
555.50	98.30
555.67	37.45
555.83	84.26
556.00	187.24
556.16	163.84
556.33	56.17
556.50	60.85
556.66	86.60
556.83	93.62
556.99	91.28
557.16	65.54
557.32	77.24
557.49	46.81
557.65	72.56
557.82	0.00
557.98	98.30
558.15	77.24
558.32	53.83
558.48	65.54
558.65	126.39
558.81	81.92
558.98	32.77
559.14	72.56
559.31	32.77
559.47	60.85
559.64	105.32
559.80	107.66
559.97	46.81
560.13	98.30
560.30	72.56
560.46	114.69
560.63	95.96
560.79	72.56
560.96	79.58
561.12	72.56
561.29	14.04
561.45	70.22
561.61	79.58
561.78	91.28
561.94	39.79
562.11	25.75
562.27	128.73
562.44	105.32
562.60	147.45
562.77	145.11
562.93	70.22
563.10	91.28
563.26	112.35
563.42	39.79
563.59	42.13
563.75	110.01
563.92	128.73
564.08	0.00
564.24	11.70
564.41	98.30
564.57	81.92
564.74	119.37
564.90	67.88
565.07	11.70
565.23	16.38
565.39	126.39
565.56	86.60
565.72	110.01
565.88	70.22
566.05	46.81
566.21	91.28
566.38	79.58
566.54	86.60
566.70	77.24
566.87	91.28
567.03	42.13
567.19	35.11
567.36	126.39
567.52	65.54
567.68	117.03
567.85	124.05
568.01	114.69
568.17	142.77
568.34	91.28
568.50	56.17
568.66	95.96
568.83	39.79
568.99	63.19
569.15	74.90
569.32	39.79
569.48	77.24
569.64	117.03
569.81	98.30
569.97	42.13
570.13	135.75
570.30	70.22
570.46	107.66
570.62	23.41
570.78	44.47
570.95	112.35
571.11	32.77
571.27	46.81
571.43	159.16
571.60	70.22
571.76	72.56
571.92	84.26
572.09	37.45
572.25	51.49
572.41	30.43
572.57	133.41
572.74	58.51
572.90	65.54
573.06	42.13
573.22	110.01
573.38	4.68
573.55	100.64
573.71	67.88
573.87	152.13
574.03	67.88
574.20	49.15
574.36	133.41
574.52	105.32
574.68	51.49
574.84	74.90
575.01	53.83
575.17	65.54
575.33	63.19
575.49	0.00
575.65	117.03
575.82	65.54
575.98	93.62
576.14	86.60
576.30	74.90
576.46	60.85
576.62	117.03
576.79	37.45
576.95	18.72
577.11	35.11
577.27	23.41
577.43	42.13
577.59	44.47
577.75	119.37
577.92	77.24
578.08	4.68
578.24	100.64
578.40	51.49
578.56	42.13
578.72	67.88
578.88	70.22
579.04	98.30
579.21	84.26
579.37	95.96
579.53	135.75
579.69	14.04
579.85	21.06
580.01	119.37
580.17	23.41
580.33	93.62
580.49	81.92
580.65	95.96
580.82	110.01
580.98	81.92
581.14	30.43
581.30	88.94
581.46	77.24
581.62	112.35
581.78	11.70
581.94	177.88
582.10	131.07
582.26	107.66
582.42	70.22
582.58	147.45
582.74	16.38
582.90	42.13
583.06	114.69
583.22	16.38
583.38	91.28
583.54	124.05
583.70	135.75
583.86	67.88
584.02	72.56
584.18	53.83
584.34	65.54
584.50	35.11
584.66	154.48
584.82	0.00
584.98	142.77
585.14	0.00
585.30	105.32
585.46	105.32
585.62	49.15
585.78	53.83
585.94	107.66
586.10	128.73
586.26	35.11
586.42	58.51
586.58	42.13
586.74	4.68
586.90	72.56
587.06	138.09
587.22	65.54
587.38	56.17
587.54	102.98
587.70	102.98
587.86	98.30
588.02	51.49
588.18	58.51
588.34	56.17
588.49	163.84
588.65	28.09
588.81	51.49
588.97	32.77
589.13	77.24
589.29	44.47
589.45	23.41
589.61	74.90
589.77	65.54
589.93	74.90
590.08	44.47
590.24	131.07
590.40	67.88
590.56	58.51
590.72	56.17
590.88	88.94
591.04	88.94
591.20	88.94
591.35	81.92
591.51	114.69
591.67	65.54
591.83	16.38
591.99	74.90
592.15	2.34
592.31	56.17
592.46	70.22
592.62	42.13
592.78	110.01
592.94	28.09
593.10	98.30
593.26	49.15
593.41	72.56
593.57	105.32
593.73	93.62
593.89	63.19
594.05	0.00
594.20	44.47
594.36	42.13
594.52	0.00
594.68	44.47
594.84	72.56
594.99	98.30
595.15	0.00
595.31	102.98
595.47	128.73
595.62	98.30
595.78	110.01
595.94	91.28
596.10	63.19
596.25	81.92
596.41	67.88
596.57	46.81
596.73	84.26
596.88	74.90
597.04	93.62
597.20	91.28
597.36	0.00
597.51	0.00
597.67	86.60
597.83	98.30
597.99	37.45
598.14	84.26
598.30	32.77
598.46	84.26
598.61	93.62
598.77	77.24
598.93	28.09
599.09	114.69
599.24	53.83
599.40	105.32
599.56	128.73
599.71	32.77
599.87	56.17
600.03	65.54
600.18	21.06
600.34	79.58
600.50	102.98
600.65	131.07
600.81	100.64
600.97	86.60
601.12	110.01
601.28	135.75
601.44	93.62
601.59	86.60
601.75	70.22
601.91	4.68
602.06	18.72
602.22	46.81
602.37	124.05
602.53	46.81
602.69	18.72
602.84	18.72
603.00	86.60
603.16	86.60
603.31	102.98
603.47	39.79
603.62	117.03
603.78	117.03
603.94	58.51
604.09	56.17
604.25	72.56
604.40	102.98
604.56	77.24
604.71	46.81
604.87	105.32
605.03	9.36
605.18	63.19
605.34	93.62
605.49	166.18
605.65	86.60
605.80	93.62
605.96	0.00
606.12	86.60
606.27	133.41
606.43	133.41
606.58	4.68
606.74	93.62
606.89	63.19
607.05	93.62
607.20	70.22
607.36	72.56
607.51	175.54
607.67	105.32
607.82	0.00
607.98	70.22
608.13	77.24
608.29	67.88
608.44	105.32
608.60	119.37
608.75	32.77
608.91	51.49
609.06	63.19
609.22	42.13
609.37	46.81
609.53	98.30
609.68	2.34
609.84	81.92
609.99	0.00
610.15	72.56
610.30	58.51
610.46	74.90
610.61	37.45
610.76	95.96
610.92	119.37
611.07	70.22
611.23	98.30
611.38	32.77
611.54	110.01
611.69	72.56
611.84	25.75
612.00	7.02
612.15	131.07
612.31	25.75
612.46	117.03
612.62	84.26
612.77	84.26
612.92	126.39
613.08	16.38
613.23	56.17
613.39	93.62
613.54	28.09
613.69	79.58
613.85	112.35
614.00	25.75
614.15	112.35
614.31	28.09
614.46	58.51
614.62	65.54
614.77	7.02
614.92	21.06
615.08	0.00
615.23	51.49
615.38	77.24
615.54	18.72
615.69	102.98
615.84	86.60
616.00	79.58
616.15	110.01
616.30	79.58
616.46	110.01
616.61	37.45
616.76	79.58
616.92	72.56
617.07	63.19
617.22	88.94
617.37	72.56
617.53	72.56
617.68	112.35
617.83	49.15
617.99	49.15
618.14	74.90
618.29	7.02
618.45	30.43
618.60	65.54
618.75	77.24
618.90	84.26
619.06	100.64
619.21	166.18
619.36	74.90
619.51	23.41
619.67	9.36
619.82	84.26
619.97	74.90
620.12	30.43
620.28	86.60
620.43	18.72
620.58	131.07
620.73	77.24
620.89	88.94
621.04	65.54
621.19	117.03
621.34	25.75
621.49	98.30
621.65	117.03
621.80	126.39
621.95	91.28
622.10	16.38
622.25	77.24
622.41	65.54
622.56	46.81
622.71	49.15
622.86	81.92
623.01	42.13
623.16	39.79
623.32	35.11
623.47	63.19
623.62	49.15
623.77	49.15
623.92	25.75
624.07	100.64
624.23	56.17
624.38	0.00
624.53	95.96
624.68	46.81
624.83	51.49
624.98	93.62
625.13	9.36
625.29	63.19
625.44	74.90
625.59	121.71
625.74	35.11
625.89	166.18
626.04	117.03
626.19	93.62
626.34	32.77
626.49	9.36
626.65	63.19
626.80	72.56
626.95	88.94
627.10	49.15
627.25	119.37
627.40	30.43
627.55	79.58
627.70	32.77
627.85	53.83
628.00	60.85
628.15	46.81
628.30	32.77
628.45	114.69
628.60	44.47
628.76	86.60
628.91	56.17
629.06	65.54
629.21	0.00
629.36	100.64
629.51	53.83
629.66	102.98
629.81	79.58
629.96	0.00
630.11	18.72
630.26	65.54
630.41	105.32
630.56	0.00
630.71	65.54
630.86	35.11
631.01	39.79
631.16	51.49
631.31	74.90
631.46	93.62
631.61	79.58
631.76	9.36
631.91	32.77
632.06	81.92
632.21	93.62
632.36	128.73
632.51	39.79
632.66	88.94
632.81	70.22
632.96	159.16
633.10	44.47
633.25	60.85
633.40	49.15
633.55	53.83
633.70	44.47
633.85	93.62
634.00	51.49
634.15	0.00
634.30	49.15
634.45	4.68
634.60	95.96
634.75	23.41
634.90	77.24
635.05	63.19
635.19	56.17
635.34	72.56
635.49	126.39
635.64	49.15
635.79	65.54
635.94	39.79
636.09	53.83
636.24	77.24
636.39	58.51
636.53	37.45
636.68	88.94
636.83	65.54
636.98	84.26
637.13	79.58
637.28	53.83
637.43	65.54
637.57	58.51
637.72	95.96
637.87	117.03
638.02	53.83
638.17	86.60
638.32	53.83
638.46	72.56
638.61	16.38
638.76	46.81
638.91	100.64
639.06	124.05
639.20	72.56
639.35	100.64
639.50	11.70
639.65	49.15
639.80	126.39
639.94	74.90
640.09	60.85
640.24	0.00
640.39	70.22
640.54	2.34
640.68	88.94
640.83	98.30
640.98	58.51
641.13	25.75
641.27	77.24
641.42	65.54
641.57	18.72
641.72	102.98
641.86	14.04
642.01	0.00
642.16	105.32
642.31	49.15
642.45	102.98
642.60	149.79
642.75	86.60
642.90	49.15
643.04	77.24
643.19	30.43
643.34	88.94
643.48	0.00
643.63	11.70
643.78	32.77
643.93	93.62
644.07	11.70
644.22	102.98
644.37	86.60
644.51	110.01
644.66	72.56
644.81	84.26
644.95	88.94
645.10	39.79
645.25	72.56
645.39	72.56
645.54	98.30
645.69	44.47
645.83	98.30
645.98	77.24
646.13	28.09
646.27	105.32
646.42	53.83
646.57	58.51
646.71	107.66
646.86	56.17
647.00	70.22
647.15	93.62
647.30	0.00
647.44	51.49
647.59	102.98
647.74	65.54
647.88	105.32
648.03	42.13
648.17	25.75
648.32	79.58
648.47	70.22
648.61	98.30
648.76	79.58
648.90	0.00
649.05	79.58
649.20	77.24
649.34	0.00
649.49	18.72
649.63	11.70
649.78	126.39
649.92	23.41
650.07	0.00
650.21	0.00
650.36	102.98
650.51	72.56
650.65	72.56
650.80	67.88
650.94	37.45
651.09	117.03
651.23	21.06
651.38	28.09
651.52	79.58
651.67	79.58
651.81	7.02
651.96	32.77
652.10	44.47
652.25	42.13
652.39	21.06
652.54	88.94
652.68	4.68
652.83	21.06
652.97	46.81
653.12	44.47
653.26	42.13
653.41	70.22
653.55	63.19
653.70	51.49
653.84	0.00
653.99	51.49
654.13	42.13
654.27	32.77
654.42	42.13
654.56	18.72
654.71	91.28
654.85	11.70
655.00	42.13
655.14	44.47
655.29	14.04
655.43	0.00
655.57	79.58
655.72	32.77
655.86	65.54
656.01	46.81
656.15	21.06
656.30	0.00
656.44	72.56
656.58	2.34
656.73	81.92
656.87	0.00
657.01	105.32
657.16	0.00
657.30	28.09
657.45	98.30
657.59	21.06
657.73	65.54
657.88	72.56
658.02	100.64
658.16	56.17
658.31	0.00
658.45	93.62
658.60	39.79
658.74	0.00
658.88	72.56
659.03	23.41
659.17	81.92
659.31	21.06
659.46	152.13
659.60	102.98
659.74	23.41
659.89	100.64
660.03	37.45
660.17	84.26
660.32	49.15
660.46	86.60
660.60	145.11
660.74	51.49
660.89	53.83
661.03	0.00
661.17	4.68
661.32	93.62
661.46	81.92
661.60	56.17
661.74	32.77
661.89	63.19
662.03	74.90
662.17	16.38
662.31	86.60
662.46	37.45
662.60	32.77
662.74	81.92
662.88	86.60
663.03	11.70
663.17	95.96
663.31	79.58
663.45	63.19
663.60	60.85
663.74	49.15
663.88	58.51
664.02	81.92
664.17	37.45
664.31	79.58
664.45	42.13
664.59	23.41
664.73	18.72
664.88	25.75
665.02	37.45
665.16	70.22
665.30	105.32
665.44	35.11
665.59	117.03
665.73	39.79
665.87	112.35
666.01	86.60
666.15	140.43
666.29	65.54
666.44	46.81
666.58	51.49
666.72	35.11
666.86	30.43
667.00	81.92
667.14	121.71
667.28	49.15
667.43	100.64
667.57	21.06
667.71	37.45
667.85	93.62
667.99	74.90
668.13	46.81
668.27	30.43
668.41	63.19
668.56	25.75
668.70	46.81
668.84	11.70
668.98	95.96
669.12	93.62
669.26	18.72
669.40	81.92
669.54	95.96
669.68	51.49
669.82	53.83
669.96	86.60
670.10	28.09
670.25	16.38
670.39	37.45
670.53	37.45
670.67	30.43
670.81	77.24
670.95	58.51
671.09	67.88
671.23	79.58
671.37	53.83
671.51	58.51
671.65	44.47
671.79	9.36
671.93	67.88
672.07	102.98
672.21	70.22
672.35	107.66
672.49	0.00
672.63	42.13
672.77	56.17
672.91	72.56
673.05	14.04
673.19	37.45
673.33	124.05
673.47	2.34
673.61	65.54
673.75	7.02
673.89	46.81
674.03	58.51
674.17	0.00
674.31	35.11
674.45	84.26
674.59	98.30
674.73	58.51
674.87	7.02
675.01	74.90
675.15	4.68
675.29	0.00
675.43	7.02
675.56	11.70
675.70	98.30
675.84	2.34
675.98	63.19
676.12	0.00
676.26	51.49
676.40	0.00
676.54	25.75
676.68	39.79
676.82	95.96
676.96	124.05
677.10	63.19
677.23	88.94
677.37	79.58
677.51	60.85
677.65	39.79
677.79	49.15
677.93	105.32
678.07	58.51
678.21	14.04
678.34	21.06
678.48	53.83
678.62	42.13
678.76	65.54
678.90	21.06
679.04	42.13
679.18	51.49
679.31	100.64
679.45	79.58
679.59	67.88
679.73	0.00
679.87	42.13
680.00	102.98
680.14	44.47
680.28	51.49
680.42	0.00
680.56	79.58
680.70	32.77
680.83	37.45
680.97	2.34
681.11	51.49
681.25	91.28
681.39	100.64
681.52	9.36
681.66	105.32
681.80	74.90
681.94	56.17
682.07	145.11
682.21	86.60
682.35	86.60
682.49	56.17
682.62	65.54
682.76	77.24
682.90	110.01
683.04	110.01
683.17	46.81
683.31	46.81
683.45	56.17
683.59	14.04
683.72	35.11
683.86	9.36
684.00	84.26
684.13	39.79
684.27	25.75
684.41	60.85
684.55	135.75
684.68	21.06
684.82	74.90
684.96	4.68
685.09	84.26
685.23	56.17
685.37	42.13
685.50	32.77
685.64	63.19
685.78	46.81
685.91	16.38
686.05	2.34
686.19	46.81
686.32	18.72
686.46	0.00
686.60	107.66
686.73	77.24
686.87	46.81
687.01	0.00
687.14	4.68
687.28	37.45
687.42	16.38
687.55	77.24
687.69	86.60
687.82	100.64
687.96	67.88
688.10	53.83
688.23	39.79
688.37	133.41
688.50	14.04
688.64	32.77
688.78	67.88
688.91	88.94
689.05	77.24
689.18	86.60
689.32	56.17
689.46	70.22
689.59	42.13
689.73	0.00
689.86	98.30
690.00	0.00
690.13	16.38
690.27	4.68
690.41	35.11
690.54	74.90
690.68	23.41
690.81	35.11
690.95	25.75
691.08	4.68
691.22	72.56
691.35	18.72
691.49	65.54
691.62	72.56
691.76	60.85
691.89	81.92
692.03	18.72
692.16	53.83
692.30	14.04
692.43	107.66
692.57	25.75
692.70	49.15
692.84	77.24
692.97	110.01
693.11	0.00
693.24	21.06
693.38	67.88
693.51	18.72
693.65	102.98
693.78	9.36
693.92	9.36
694.05	63.19
694.19	39.79
694.32	0.00
694.45	65.54
694.59	51.49
694.72	0.00
694.86	58.51
694.99	9.36
695.13	51.49
695.26	63.19
695.39	53.83
695.53	2.34
695.66	21.06
695.80	119.37
695.93	30.43
696.07	37.45
696.20	49.15
696.33	0.00
696.47	18.72
696.60	2.34
696.73	30.43
696.87	72.56
697.00	105.32
697.14	119.37
697.27	84.26
697.40	98.30
697.54	16.38
697.67	65.54
697.80	18.72
697.94	114.69
698.07	0.00
698.21	58.51
698.34	9.36
698.47	39.79
698.61	46.81
698.74	0.00
698.87	9.36
699.01	0.00
699.14	0.00
699.27	25.75
699.40	93.62
699.54	53.83
699.67	32.77
699.80	39.79
699.94	49.15
700.07	35.11
700.20	39.79
700.34	7.02
700.47	0.00
700.60	21.06
700.73	25.75
700.87	84.26
701.00	102.98
701.13	32.77
701.26	67.88
701.40	0.00
701.53	67.88
701.66	11.70
701.79	7.02
701.93	0.00
702.06	35.11
702.19	53.83
702.32	58.51
702.46	46.81
702.59	72.56
702.72	30.43
702.85	0.00
702.99	4.68
703.12	39.79
703.25	16.38
703.38	39.79
703.51	9.36
703.65	79.58
703.78	0.00
703.91	0.00
704.04	2.34
704.17	0.00
704.31	0.00
704.44	9.36
704.57	11.70
704.70	23.41
704.83	98.30
704.96	23.41
705.10	70.22
705.23	11.70
>>>>>End Processed Spectral Data<<<<<
