SpectraSuite Data File
++++++++++++++++++++++++++++++++++++
Date: Fri Oct 04 12:13:37 GMT-05:00 2013
User: price-jones
Dark Spectrum Present: No
Reference Spectrum Present: No
Number of Sampled Component Spectra: 1
Spectrometers: USB2+H05261
Integration Time (usec): 10000 (USB2+H05261)
Spectra Averaged: 1 (USB2+H05261)
Boxcar Smoothing: 0 (USB2+H05261)
Correct for Electrical Dark: No (USB2+H05261)
Strobe/Lamp Enabled: No (USB2+H05261)
Correct for Detector Non-linearity: No (USB2+H05261)
Correct for Stray Light: No (USB2+H05261)
Number of Pixels in Processed Spectrum: 2048
>>>>>Begin Processed Spectral Data<<<<<
365.73	0.00
365.92	0.00
366.12	0.00
366.32	0.00
366.52	0.00
366.72	0.00
366.91	0.00
367.11	0.00
367.31	0.00
367.51	0.00
367.70	0.00
367.90	0.00
368.10	0.00
368.30	0.00
368.49	0.00
368.69	0.00
368.89	0.00
369.09	0.00
369.28	0.00
369.48	0.00
369.68	0.00
369.87	0.00
370.07	0.00
370.27	0.00
370.47	0.00
370.66	0.00
370.86	0.00
371.06	0.00
371.25	0.00
371.45	0.00
371.65	0.00
371.84	67.88
372.04	0.00
372.24	0.00
372.44	0.00
372.63	2.34
372.83	0.00
373.03	0.00
373.22	0.00
373.42	35.11
373.62	14.04
373.81	0.00
374.01	0.00
374.21	72.56
374.40	60.85
374.60	35.11
374.79	79.58
374.99	51.49
375.19	107.66
375.38	30.43
375.58	44.47
375.78	114.69
375.97	35.11
376.17	49.15
376.37	0.00
376.56	9.36
376.76	44.47
376.95	100.64
377.15	0.00
377.35	93.62
377.54	56.17
377.74	0.00
377.93	16.38
378.13	0.00
378.33	56.17
378.52	7.02
378.72	25.75
378.91	0.00
379.11	18.72
379.31	0.00
379.50	0.00
379.70	124.05
379.89	51.49
380.09	7.02
380.28	2.34
380.48	0.00
380.68	51.49
380.87	4.68
381.07	32.77
381.26	53.83
381.46	4.68
381.65	0.00
381.85	81.92
382.04	0.00
382.24	86.60
382.43	32.77
382.63	2.34
382.83	56.17
383.02	23.41
383.22	39.79
383.41	35.11
383.61	4.68
383.80	0.00
384.00	30.43
384.19	2.34
384.39	0.00
384.58	67.88
384.78	65.54
384.97	44.47
385.17	0.00
385.36	0.00
385.56	0.00
385.75	67.88
385.95	46.81
386.14	30.43
386.34	25.75
386.53	60.85
386.72	0.00
386.92	0.00
387.11	23.41
387.31	2.34
387.50	9.36
387.70	18.72
387.89	0.00
388.09	9.36
388.28	23.41
388.48	70.22
388.67	37.45
388.86	0.00
389.06	21.06
389.25	110.01
389.45	18.72
389.64	84.26
389.84	56.17
390.03	30.43
390.22	25.75
390.42	4.68
390.61	0.00
390.81	32.77
391.00	37.45
391.19	60.85
391.39	4.68
391.58	0.00
391.78	0.00
391.97	23.41
392.16	18.72
392.36	35.11
392.55	21.06
392.75	4.68
392.94	25.75
393.13	16.38
393.33	58.51
393.52	0.00
393.71	0.00
393.91	16.38
394.10	9.36
394.29	0.00
394.49	0.00
394.68	9.36
394.88	35.11
395.07	11.70
395.26	105.32
395.46	56.17
395.65	65.54
395.84	0.00
396.04	0.00
396.23	44.47
396.42	0.00
396.62	0.00
396.81	98.30
397.00	35.11
397.19	42.13
397.39	44.47
397.58	39.79
397.77	30.43
397.97	21.06
398.16	0.00
398.35	28.09
398.55	70.22
398.74	72.56
398.93	7.02
399.12	49.15
399.32	0.00
399.51	9.36
399.70	98.30
399.90	21.06
400.09	0.00
400.28	102.98
400.47	32.77
400.67	32.77
400.86	37.45
401.05	70.22
401.24	30.43
401.44	0.00
401.63	58.51
401.82	32.77
402.01	37.45
402.21	77.24
402.40	67.88
402.59	11.70
402.78	35.11
402.97	100.64
403.17	79.58
403.36	2.34
403.55	53.83
403.74	0.00
403.93	0.00
404.13	0.00
404.32	0.00
404.51	0.00
404.70	42.13
404.89	56.17
405.09	7.02
405.28	46.81
405.47	0.00
405.66	30.43
405.85	4.68
406.05	0.00
406.24	14.04
406.43	58.51
406.62	51.49
406.81	53.83
407.00	65.54
407.20	60.85
407.39	67.88
407.58	67.88
407.77	65.54
407.96	65.54
408.15	25.75
408.34	102.98
408.54	37.45
408.73	67.88
408.92	0.00
409.11	21.06
409.30	67.88
409.49	18.72
409.68	0.00
409.87	72.56
410.07	91.28
410.26	9.36
410.45	72.56
410.64	14.04
410.83	23.41
411.02	46.81
411.21	28.09
411.40	18.72
411.59	25.75
411.78	107.66
411.98	60.85
412.17	32.77
412.36	58.51
412.55	65.54
412.74	70.22
412.93	0.00
413.12	0.00
413.31	72.56
413.50	100.64
413.69	42.13
413.88	53.83
414.07	32.77
414.26	0.00
414.45	0.00
414.64	0.00
414.83	4.68
415.02	84.26
415.22	74.90
415.41	23.41
415.60	28.09
415.79	65.54
415.98	74.90
416.17	77.24
416.36	42.13
416.55	0.00
416.74	28.09
416.93	14.04
417.12	44.47
417.31	11.70
417.50	65.54
417.69	39.79
417.88	28.09
418.07	79.58
418.26	44.47
418.45	39.79
418.64	0.00
418.83	84.26
419.02	63.19
419.21	49.15
419.39	79.58
419.58	0.00
419.77	18.72
419.96	60.85
420.15	21.06
420.34	30.43
420.53	72.56
420.72	11.70
420.91	72.56
421.10	51.49
421.29	79.58
421.48	74.90
421.67	135.75
421.86	0.00
422.05	0.00
422.24	77.24
422.43	53.83
422.61	0.00
422.80	0.00
422.99	0.00
423.18	42.13
423.37	46.81
423.56	42.13
423.75	25.75
423.94	7.02
424.13	37.45
424.32	63.19
424.50	11.70
424.69	70.22
424.88	93.62
425.07	49.15
425.26	53.83
425.45	74.90
425.64	42.13
425.83	4.68
426.01	39.79
426.20	93.62
426.39	74.90
426.58	0.00
426.77	4.68
426.96	58.51
427.15	0.00
427.33	79.58
427.52	95.96
427.71	0.00
427.90	79.58
428.09	44.47
428.28	67.88
428.46	49.15
428.65	51.49
428.84	0.00
429.03	63.19
429.22	63.19
429.40	44.47
429.59	0.00
429.78	0.00
429.97	39.79
430.16	0.00
430.34	126.39
430.53	42.13
430.72	0.00
430.91	93.62
431.10	28.09
431.28	18.72
431.47	60.85
431.66	39.79
431.85	56.17
432.03	95.96
432.22	4.68
432.41	49.15
432.60	23.41
432.79	21.06
432.97	42.13
433.16	32.77
433.35	32.77
433.54	0.00
433.72	42.13
433.91	79.58
434.10	49.15
434.28	42.13
434.47	0.00
434.66	51.49
434.85	72.56
435.03	0.00
435.22	16.38
435.41	0.00
435.59	21.06
435.78	30.43
435.97	7.02
436.16	63.19
436.34	39.79
436.53	18.72
436.72	18.72
436.90	30.43
437.09	88.94
437.28	58.51
437.46	39.79
437.65	7.02
437.84	131.07
438.02	25.75
438.21	72.56
438.40	42.13
438.58	46.81
438.77	51.49
438.96	18.72
439.14	72.56
439.33	72.56
439.52	39.79
439.70	0.00
439.89	28.09
440.08	0.00
440.26	9.36
440.45	39.79
440.63	35.11
440.82	117.03
441.01	51.49
441.19	44.47
441.38	23.41
441.57	51.49
441.75	67.88
441.94	25.75
442.12	21.06
442.31	74.90
442.50	60.85
442.68	105.32
442.87	49.15
443.05	30.43
443.24	67.88
443.43	74.90
443.61	32.77
443.80	51.49
443.98	44.47
444.17	72.56
444.35	77.24
444.54	131.07
444.73	93.62
444.91	67.88
445.10	53.83
445.28	18.72
445.47	93.62
445.65	35.11
445.84	0.00
446.02	0.00
446.21	32.77
446.39	74.90
446.58	16.38
446.77	70.22
446.95	25.75
447.14	79.58
447.32	65.54
447.51	44.47
447.69	65.54
447.88	0.00
448.06	53.83
448.25	114.69
448.43	0.00
448.62	51.49
448.80	70.22
448.99	65.54
449.17	51.49
449.36	0.00
449.54	117.03
449.73	0.00
449.91	72.56
450.10	102.98
450.28	102.98
450.46	56.17
450.65	39.79
450.83	53.83
451.02	0.00
451.20	44.47
451.39	46.81
451.57	105.32
451.76	39.79
451.94	0.00
452.13	81.92
452.31	51.49
452.49	65.54
452.68	42.13
452.86	51.49
453.05	14.04
453.23	86.60
453.42	0.00
453.60	93.62
453.78	42.13
453.97	0.00
454.15	70.22
454.34	30.43
454.52	70.22
454.70	56.17
454.89	67.88
455.07	7.02
455.26	49.15
455.44	9.36
455.62	77.24
455.81	65.54
455.99	21.06
456.17	16.38
456.36	63.19
456.54	42.13
456.73	37.45
456.91	2.34
457.09	105.32
457.28	138.09
457.46	23.41
457.64	0.00
457.83	0.00
458.01	56.17
458.19	14.04
458.38	2.34
458.56	39.79
458.74	14.04
458.93	74.90
459.11	84.26
459.29	91.28
459.48	81.92
459.66	63.19
459.84	72.56
460.03	88.94
460.21	88.94
460.39	42.13
460.57	72.56
460.76	44.47
460.94	58.51
461.12	67.88
461.31	53.83
461.49	21.06
461.67	42.13
461.85	102.98
462.04	49.15
462.22	121.71
462.40	86.60
462.59	58.51
462.77	16.38
462.95	53.83
463.13	98.30
463.32	74.90
463.50	49.15
463.68	70.22
463.86	79.58
464.05	0.00
464.23	0.00
464.41	39.79
464.59	65.54
464.78	51.49
464.96	39.79
465.14	81.92
465.32	30.43
465.50	67.88
465.69	77.24
465.87	63.19
466.05	140.43
466.23	53.83
466.41	37.45
466.60	74.90
466.78	0.00
466.96	51.49
467.14	65.54
467.32	11.70
467.51	67.88
467.69	51.49
467.87	0.00
468.05	14.04
468.23	23.41
468.41	91.28
468.60	16.38
468.78	138.09
468.96	58.51
469.14	67.88
469.32	11.70
469.50	121.71
469.69	88.94
469.87	25.75
470.05	74.90
470.23	16.38
470.41	0.00
470.59	88.94
470.77	149.79
470.95	110.01
471.14	53.83
471.32	9.36
471.50	56.17
471.68	18.72
471.86	79.58
472.04	56.17
472.22	39.79
472.40	63.19
472.58	25.75
472.77	0.00
472.95	0.00
473.13	0.00
473.31	81.92
473.49	60.85
473.67	56.17
473.85	98.30
474.03	102.98
474.21	95.96
474.39	86.60
474.57	30.43
474.75	102.98
474.93	0.00
475.12	37.45
475.30	2.34
475.48	39.79
475.66	23.41
475.84	51.49
476.02	32.77
476.20	39.79
476.38	28.09
476.56	0.00
476.74	74.90
476.92	35.11
477.10	32.77
477.28	39.79
477.46	65.54
477.64	63.19
477.82	63.19
478.00	46.81
478.18	25.75
478.36	18.72
478.54	117.03
478.72	0.00
478.90	49.15
479.08	37.45
479.26	25.75
479.44	7.02
479.62	11.70
479.80	53.83
479.98	65.54
480.16	72.56
480.34	72.56
480.52	74.90
480.70	65.54
480.88	37.45
481.06	39.79
481.24	65.54
481.41	63.19
481.59	98.30
481.77	0.00
481.95	133.41
482.13	91.28
482.31	93.62
482.49	117.03
482.67	98.30
482.85	16.38
483.03	11.70
483.21	60.85
483.39	0.00
483.57	37.45
483.74	93.62
483.92	49.15
484.10	30.43
484.28	95.96
484.46	42.13
484.64	60.85
484.82	93.62
485.00	72.56
485.18	0.00
485.35	32.77
485.53	79.58
485.71	70.22
485.89	23.41
486.07	56.17
486.25	58.51
486.43	18.72
486.61	16.38
486.78	74.90
486.96	63.19
487.14	7.02
487.32	32.77
487.50	11.70
487.68	77.24
487.85	32.77
488.03	25.75
488.21	56.17
488.39	18.72
488.57	98.30
488.75	77.24
488.92	84.26
489.10	58.51
489.28	65.54
489.46	37.45
489.64	39.79
489.81	56.17
489.99	161.50
490.17	98.30
490.35	91.28
490.53	74.90
490.70	105.32
490.88	131.07
491.06	77.24
491.24	135.75
491.41	121.71
491.59	107.66
491.77	88.94
491.95	91.28
492.13	39.79
492.30	35.11
492.48	77.24
492.66	95.96
492.84	86.60
493.01	74.90
493.19	67.88
493.37	25.75
493.54	95.96
493.72	93.62
493.90	65.54
494.08	117.03
494.25	51.49
494.43	86.60
494.61	84.26
494.79	72.56
494.96	117.03
495.14	37.45
495.32	42.13
495.49	91.28
495.67	60.85
495.85	56.17
496.02	39.79
496.20	42.13
496.38	74.90
496.55	67.88
496.73	168.52
496.91	140.43
497.09	63.19
497.26	46.81
497.44	9.36
497.62	98.30
497.79	91.28
497.97	39.79
498.14	88.94
498.32	93.62
498.50	0.00
498.67	37.45
498.85	107.66
499.03	98.30
499.20	65.54
499.38	42.13
499.56	37.45
499.73	70.22
499.91	72.56
500.08	16.38
500.26	102.98
500.44	70.22
500.61	39.79
500.79	88.94
500.97	81.92
501.14	166.18
501.32	86.60
501.49	28.09
501.67	107.66
501.84	0.00
502.02	131.07
502.20	39.79
502.37	44.47
502.55	79.58
502.72	124.05
502.90	74.90
503.07	28.09
503.25	105.32
503.43	30.43
503.60	86.60
503.78	70.22
503.95	147.45
504.13	105.32
504.30	84.26
504.48	72.56
504.65	0.00
504.83	44.47
505.01	107.66
505.18	77.24
505.36	173.20
505.53	42.13
505.71	102.98
505.88	112.35
506.06	126.39
506.23	42.13
506.41	23.41
506.58	9.36
506.76	35.11
506.93	93.62
507.11	65.54
507.28	39.79
507.46	105.32
507.63	166.18
507.81	46.81
507.98	4.68
508.16	95.96
508.33	79.58
508.50	112.35
508.68	114.69
508.85	184.90
509.03	0.00
509.20	70.22
509.38	28.09
509.55	39.79
509.73	72.56
509.90	105.32
510.08	93.62
510.25	168.52
510.42	58.51
510.60	102.98
510.77	98.30
510.95	107.66
511.12	63.19
511.30	121.71
511.47	67.88
511.64	72.56
511.82	32.77
511.99	126.39
512.17	91.28
512.34	110.01
512.51	112.35
512.69	152.13
512.86	81.92
513.04	147.45
513.21	107.66
513.38	16.38
513.56	42.13
513.73	72.56
513.90	74.90
514.08	79.58
514.25	84.26
514.43	79.58
514.60	14.04
514.77	98.30
514.95	154.48
515.12	72.56
515.29	79.58
515.47	58.51
515.64	28.09
515.81	84.26
515.99	49.15
516.16	93.62
516.33	44.47
516.51	112.35
516.68	100.64
516.85	35.11
517.03	28.09
517.20	44.47
517.37	126.39
517.54	91.28
517.72	28.09
517.89	117.03
518.06	100.64
518.24	81.92
518.41	107.66
518.58	77.24
518.75	32.77
518.93	53.83
519.10	30.43
519.27	42.13
519.45	117.03
519.62	74.90
519.79	81.92
519.96	74.90
520.14	128.73
520.31	84.26
520.48	63.19
520.65	39.79
520.83	46.81
521.00	93.62
521.17	49.15
521.34	140.43
521.52	126.39
521.69	93.62
521.86	56.17
522.03	49.15
522.20	124.05
522.38	149.79
522.55	51.49
522.72	102.98
522.89	117.03
523.07	65.54
523.24	84.26
523.41	49.15
523.58	114.69
523.75	11.70
523.92	102.98
524.10	100.64
524.27	133.41
524.44	140.43
524.61	79.58
524.78	133.41
524.96	102.98
525.13	79.58
525.30	93.62
525.47	79.58
525.64	67.88
525.81	84.26
525.98	70.22
526.16	100.64
526.33	93.62
526.50	63.19
526.67	30.43
526.84	23.41
527.01	114.69
527.18	121.71
527.36	30.43
527.53	70.22
527.70	161.50
527.87	161.50
528.04	124.05
528.21	23.41
528.38	138.09
528.55	133.41
528.72	91.28
528.89	28.09
529.07	117.03
529.24	126.39
529.41	67.88
529.58	110.01
529.75	63.19
529.92	91.28
530.09	77.24
530.26	44.47
530.43	65.54
530.60	67.88
530.77	105.32
530.94	117.03
531.11	70.22
531.28	65.54
531.46	79.58
531.63	37.45
531.80	152.13
531.97	100.64
532.14	65.54
532.31	65.54
532.48	88.94
532.65	46.81
532.82	63.19
532.99	42.13
533.16	105.32
533.33	105.32
533.50	112.35
533.67	49.15
533.84	93.62
534.01	131.07
534.18	32.77
534.35	79.58
534.52	25.75
534.69	65.54
534.86	65.54
535.03	58.51
535.20	133.41
535.37	46.81
535.54	102.98
535.71	105.32
535.88	60.85
536.05	112.35
536.22	88.94
536.38	74.90
536.55	128.73
536.72	49.15
536.89	114.69
537.06	42.13
537.23	81.92
537.40	86.60
537.57	105.32
537.74	138.09
537.91	79.58
538.08	72.56
538.25	74.90
538.42	98.30
538.59	65.54
538.75	51.49
538.92	95.96
539.09	84.26
539.26	72.56
539.43	32.77
539.60	18.72
539.77	93.62
539.94	60.85
540.11	65.54
540.28	25.75
540.44	18.72
540.61	51.49
540.78	86.60
540.95	11.70
541.12	145.11
541.29	58.51
541.46	60.85
541.62	102.98
541.79	88.94
541.96	102.98
542.13	102.98
542.30	0.00
542.47	88.94
542.63	44.47
542.80	42.13
542.97	121.71
543.14	131.07
543.31	124.05
543.48	30.43
543.64	51.49
543.81	98.30
543.98	121.71
544.15	105.32
544.32	37.45
544.48	105.32
544.65	124.05
544.82	60.85
544.99	65.54
545.16	149.79
545.32	112.35
545.49	112.35
545.66	37.45
545.83	88.94
546.00	138.09
546.16	112.35
546.33	102.98
546.50	81.92
546.67	42.13
546.83	107.66
547.00	145.11
547.17	56.17
547.34	28.09
547.50	98.30
547.67	25.75
547.84	46.81
548.00	49.15
548.17	51.49
548.34	77.24
548.51	79.58
548.67	67.88
548.84	140.43
549.01	56.17
549.18	95.96
549.34	77.24
549.51	23.41
549.68	98.30
549.84	79.58
550.01	79.58
550.18	107.66
550.34	91.28
550.51	37.45
550.68	60.85
550.84	81.92
551.01	121.71
551.18	142.77
551.34	168.52
551.51	114.69
551.68	81.92
551.84	65.54
552.01	51.49
552.18	44.47
552.34	175.54
552.51	102.98
552.68	30.43
552.84	39.79
553.01	81.92
553.18	65.54
553.34	49.15
553.51	114.69
553.67	35.11
553.84	98.30
554.01	93.62
554.17	21.06
554.34	100.64
554.51	128.73
554.67	74.90
554.84	21.06
555.00	100.64
555.17	56.17
555.33	25.75
555.50	35.11
555.67	147.45
555.83	81.92
556.00	114.69
556.16	110.01
556.33	128.73
556.50	58.51
556.66	72.56
556.83	110.01
556.99	86.60
557.16	88.94
557.32	173.20
557.49	88.94
557.65	63.19
557.82	49.15
557.98	105.32
558.15	67.88
558.32	46.81
558.48	107.66
558.65	95.96
558.81	42.13
558.98	63.19
559.14	0.00
559.31	84.26
559.47	67.88
559.64	100.64
559.80	79.58
559.97	77.24
560.13	79.58
560.30	74.90
560.46	79.58
560.63	53.83
560.79	37.45
560.96	138.09
561.12	86.60
561.29	86.60
561.45	51.49
561.61	91.28
561.78	49.15
561.94	79.58
562.11	46.81
562.27	65.54
562.44	112.35
562.60	28.09
562.77	93.62
562.93	81.92
563.10	58.51
563.26	21.06
563.42	67.88
563.59	46.81
563.75	49.15
563.92	121.71
564.08	79.58
564.24	112.35
564.41	70.22
564.57	35.11
564.74	163.84
564.90	93.62
565.07	112.35
565.23	131.07
565.39	37.45
565.56	70.22
565.72	86.60
565.88	32.77
566.05	63.19
566.21	42.13
566.38	51.49
566.54	102.98
566.70	84.26
566.87	177.88
567.03	63.19
567.19	114.69
567.36	88.94
567.52	95.96
567.68	53.83
567.85	7.02
568.01	86.60
568.17	28.09
568.34	100.64
568.50	145.11
568.66	4.68
568.83	56.17
568.99	86.60
569.15	67.88
569.32	98.30
569.48	65.54
569.64	28.09
569.81	49.15
569.97	67.88
570.13	88.94
570.30	72.56
570.46	65.54
570.62	161.50
570.78	67.88
570.95	95.96
571.11	110.01
571.27	67.88
571.43	65.54
571.60	74.90
571.76	39.79
571.92	105.32
572.09	100.64
572.25	114.69
572.41	152.13
572.57	77.24
572.74	112.35
572.90	72.56
573.06	93.62
573.22	124.05
573.38	25.75
573.55	93.62
573.71	28.09
573.87	70.22
574.03	128.73
574.20	35.11
574.36	124.05
574.52	110.01
574.68	70.22
574.84	81.92
575.01	93.62
575.17	44.47
575.33	39.79
575.49	77.24
575.65	98.30
575.82	74.90
575.98	88.94
576.14	18.72
576.30	88.94
576.46	30.43
576.62	114.69
576.79	107.66
576.95	25.75
577.11	124.05
577.27	42.13
577.43	60.85
577.59	72.56
577.75	28.09
577.92	28.09
578.08	107.66
578.24	95.96
578.40	56.17
578.56	93.62
578.72	110.01
578.88	0.00
579.04	46.81
579.21	121.71
579.37	117.03
579.53	119.37
579.69	81.92
579.85	74.90
580.01	100.64
580.17	37.45
580.33	60.85
580.49	91.28
580.65	112.35
580.82	84.26
580.98	95.96
581.14	93.62
581.30	91.28
581.46	107.66
581.62	100.64
581.78	70.22
581.94	28.09
582.10	117.03
582.26	74.90
582.42	70.22
582.58	114.69
582.74	65.54
582.90	70.22
583.06	121.71
583.22	98.30
583.38	79.58
583.54	44.47
583.70	88.94
583.86	56.17
584.02	79.58
584.18	142.77
584.34	81.92
584.50	124.05
584.66	74.90
584.82	65.54
584.98	0.00
585.14	100.64
585.30	77.24
585.46	56.17
585.62	107.66
585.78	110.01
585.94	42.13
586.10	86.60
586.26	44.47
586.42	63.19
586.58	63.19
586.74	100.64
586.90	0.00
587.06	53.83
587.22	86.60
587.38	133.41
587.54	119.37
587.70	37.45
587.86	91.28
588.02	72.56
588.18	84.26
588.34	70.22
588.49	70.22
588.65	32.77
588.81	65.54
588.97	93.62
589.13	30.43
589.29	67.88
589.45	107.66
589.61	79.58
589.77	63.19
589.93	44.47
590.08	74.90
590.24	0.00
590.40	7.02
590.56	28.09
590.72	95.96
590.88	9.36
591.04	60.85
591.20	58.51
591.35	39.79
591.51	88.94
591.67	46.81
591.83	35.11
591.99	110.01
592.15	42.13
592.31	18.72
592.46	105.32
592.62	63.19
592.78	56.17
592.94	56.17
593.10	149.79
593.26	102.98
593.41	133.41
593.57	72.56
593.73	25.75
593.89	18.72
594.05	121.71
594.20	77.24
594.36	65.54
594.52	60.85
594.68	102.98
594.84	23.41
594.99	51.49
595.15	93.62
595.31	28.09
595.47	86.60
595.62	58.51
595.78	117.03
595.94	44.47
596.10	72.56
596.25	81.92
596.41	107.66
596.57	74.90
596.73	18.72
596.88	95.96
597.04	77.24
597.20	117.03
597.36	67.88
597.51	2.34
597.67	93.62
597.83	25.75
597.99	95.96
598.14	67.88
598.30	65.54
598.46	88.94
598.61	93.62
598.77	88.94
598.93	86.60
599.09	2.34
599.24	126.39
599.40	0.00
599.56	58.51
599.71	131.07
599.87	149.79
600.03	112.35
600.18	65.54
600.34	79.58
600.50	67.88
600.65	107.66
600.81	74.90
600.97	93.62
601.12	124.05
601.28	95.96
601.44	74.90
601.59	79.58
601.75	79.58
601.91	95.96
602.06	77.24
602.22	112.35
602.37	124.05
602.53	65.54
602.69	51.49
602.84	23.41
603.00	77.24
603.16	107.66
603.31	58.51
603.47	9.36
603.62	56.17
603.78	100.64
603.94	110.01
604.09	49.15
604.25	67.88
604.40	77.24
604.56	74.90
604.71	49.15
604.87	98.30
605.03	98.30
605.18	86.60
605.34	107.66
605.49	79.58
605.65	35.11
605.80	65.54
605.96	117.03
606.12	159.16
606.27	72.56
606.43	51.49
606.58	93.62
606.74	95.96
606.89	121.71
607.05	32.77
607.20	102.98
607.36	46.81
607.51	11.70
607.67	18.72
607.82	0.00
607.98	39.79
608.13	21.06
608.29	77.24
608.44	51.49
608.60	154.48
608.75	53.83
608.91	28.09
609.06	63.19
609.22	147.45
609.37	58.51
609.53	105.32
609.68	142.77
609.84	53.83
609.99	37.45
610.15	98.30
610.30	142.77
610.46	46.81
610.61	56.17
610.76	9.36
610.92	100.64
611.07	25.75
611.23	0.00
611.38	110.01
611.54	135.75
611.69	117.03
611.84	35.11
612.00	4.68
612.15	11.70
612.31	37.45
612.46	102.98
612.62	63.19
612.77	63.19
612.92	86.60
613.08	56.17
613.23	95.96
613.39	49.15
613.54	35.11
613.69	67.88
613.85	39.79
614.00	0.00
614.15	105.32
614.31	74.90
614.46	112.35
614.62	44.47
614.77	88.94
614.92	95.96
615.08	98.30
615.23	74.90
615.38	51.49
615.54	37.45
615.69	114.69
615.84	70.22
616.00	77.24
616.15	156.82
616.30	51.49
616.46	121.71
616.61	65.54
616.76	56.17
616.92	42.13
617.07	70.22
617.22	0.00
617.37	21.06
617.53	42.13
617.68	53.83
617.83	70.22
617.99	46.81
618.14	37.45
618.29	32.77
618.45	28.09
618.60	44.47
618.75	32.77
618.90	93.62
619.06	53.83
619.21	28.09
619.36	107.66
619.51	95.96
619.67	63.19
619.82	49.15
619.97	128.73
620.12	56.17
620.28	135.75
620.43	39.79
620.58	51.49
620.73	37.45
620.89	44.47
621.04	16.38
621.19	65.54
621.34	86.60
621.49	18.72
621.65	46.81
621.80	77.24
621.95	56.17
622.10	81.92
622.25	0.00
622.41	44.47
622.56	88.94
622.71	67.88
622.86	37.45
623.01	46.81
623.16	86.60
623.32	67.88
623.47	79.58
623.62	37.45
623.77	60.85
623.92	28.09
624.07	39.79
624.23	79.58
624.38	63.19
624.53	14.04
624.68	9.36
624.83	154.48
624.98	44.47
625.13	107.66
625.29	32.77
625.44	102.98
625.59	18.72
625.74	18.72
625.89	84.26
626.04	65.54
626.19	32.77
626.34	0.00
626.49	28.09
626.65	58.51
626.80	44.47
626.95	46.81
627.10	46.81
627.25	124.05
627.40	95.96
627.55	60.85
627.70	0.00
627.85	95.96
628.00	91.28
628.15	74.90
628.30	49.15
628.45	84.26
628.60	44.47
628.76	42.13
628.91	112.35
629.06	16.38
629.21	102.98
629.36	133.41
629.51	7.02
629.66	84.26
629.81	39.79
629.96	21.06
630.11	16.38
630.26	81.92
630.41	39.79
630.56	107.66
630.71	21.06
630.86	39.79
631.01	28.09
631.16	58.51
631.31	2.34
631.46	77.24
631.61	72.56
631.76	37.45
631.91	74.90
632.06	88.94
632.21	126.39
632.36	39.79
632.51	56.17
632.66	79.58
632.81	63.19
632.96	23.41
633.10	70.22
633.25	51.49
633.40	51.49
633.55	0.00
633.70	0.00
633.85	65.54
634.00	91.28
634.15	25.75
634.30	23.41
634.45	86.60
634.60	23.41
634.75	51.49
634.90	81.92
635.05	72.56
635.19	79.58
635.34	102.98
635.49	9.36
635.64	119.37
635.79	112.35
635.94	18.72
636.09	0.00
636.24	77.24
636.39	25.75
636.53	128.73
636.68	79.58
636.83	79.58
636.98	65.54
637.13	114.69
637.28	74.90
637.43	91.28
637.57	86.60
637.72	95.96
637.87	84.26
638.02	0.00
638.17	0.00
638.32	114.69
638.46	67.88
638.61	131.07
638.76	49.15
638.91	67.88
639.06	84.26
639.20	79.58
639.35	60.85
639.50	65.54
639.65	28.09
639.80	39.79
639.94	0.00
640.09	86.60
640.24	65.54
640.39	49.15
640.54	67.88
640.68	70.22
640.83	79.58
640.98	86.60
641.13	135.75
641.27	35.11
641.42	100.64
641.57	58.51
641.72	0.00
641.86	39.79
642.01	100.64
642.16	39.79
642.31	25.75
642.45	72.56
642.60	102.98
642.75	60.85
642.90	39.79
643.04	74.90
643.19	84.26
643.34	91.28
643.48	0.00
643.63	44.47
643.78	23.41
643.93	46.81
644.07	63.19
644.22	58.51
644.37	63.19
644.51	28.09
644.66	23.41
644.81	77.24
644.95	56.17
645.10	56.17
645.25	72.56
645.39	79.58
645.54	100.64
645.69	0.00
645.83	70.22
645.98	49.15
646.13	84.26
646.27	16.38
646.42	39.79
646.57	25.75
646.71	56.17
646.86	42.13
647.00	60.85
647.15	84.26
647.30	53.83
647.44	37.45
647.59	39.79
647.74	102.98
647.88	63.19
648.03	16.38
648.17	79.58
648.32	58.51
648.47	30.43
648.61	37.45
648.76	35.11
648.90	0.00
649.05	9.36
649.20	51.49
649.34	23.41
649.49	14.04
649.63	16.38
649.78	2.34
649.92	56.17
650.07	49.15
650.21	51.49
650.36	119.37
650.51	23.41
650.65	39.79
650.80	0.00
650.94	14.04
651.09	44.47
651.23	35.11
651.38	7.02
651.52	0.00
651.67	60.85
651.81	67.88
651.96	102.98
652.10	100.64
652.25	21.06
652.39	70.22
652.54	21.06
652.68	9.36
652.83	58.51
652.97	65.54
653.12	4.68
653.26	84.26
653.41	0.00
653.55	81.92
653.70	67.88
653.84	0.00
653.99	63.19
654.13	35.11
654.27	4.68
654.42	32.77
654.56	30.43
654.71	77.24
654.85	0.00
655.00	70.22
655.14	49.15
655.29	72.56
655.43	63.19
655.57	39.79
655.72	23.41
655.86	0.00
656.01	23.41
656.15	79.58
656.30	28.09
656.44	28.09
656.58	147.45
656.73	0.00
656.87	30.43
657.01	35.11
657.16	65.54
657.30	56.17
657.45	30.43
657.59	23.41
657.73	49.15
657.88	51.49
658.02	9.36
658.16	28.09
658.31	39.79
658.45	51.49
658.60	21.06
658.74	21.06
658.88	0.00
659.03	138.09
659.17	44.47
659.31	95.96
659.46	14.04
659.60	21.06
659.74	18.72
659.89	86.60
660.03	100.64
660.17	65.54
660.32	25.75
660.46	44.47
660.60	117.03
660.74	65.54
660.89	37.45
661.03	81.92
661.17	18.72
661.32	63.19
661.46	98.30
661.60	9.36
661.74	39.79
661.89	86.60
662.03	49.15
662.17	49.15
662.31	72.56
662.46	32.77
662.60	46.81
662.74	53.83
662.88	11.70
663.03	39.79
663.17	39.79
663.31	58.51
663.45	35.11
663.60	21.06
663.74	11.70
663.88	32.77
664.02	74.90
664.17	46.81
664.31	30.43
664.45	79.58
664.59	16.38
664.73	32.77
664.88	70.22
665.02	0.00
665.16	65.54
665.30	98.30
665.44	53.83
665.59	124.05
665.73	67.88
665.87	60.85
666.01	114.69
666.15	0.00
666.29	74.90
666.44	79.58
666.58	86.60
666.72	42.13
666.86	0.00
667.00	121.71
667.14	58.51
667.28	72.56
667.43	70.22
667.57	42.13
667.71	77.24
667.85	60.85
667.99	23.41
668.13	37.45
668.27	23.41
668.41	56.17
668.56	60.85
668.70	86.60
668.84	44.47
668.98	88.94
669.12	79.58
669.26	44.47
669.40	39.79
669.54	77.24
669.68	65.54
669.82	98.30
669.96	67.88
670.10	4.68
670.25	70.22
670.39	70.22
670.53	16.38
670.67	63.19
670.81	44.47
670.95	32.77
671.09	49.15
671.23	18.72
671.37	142.77
671.51	98.30
671.65	86.60
671.79	121.71
671.93	84.26
672.07	44.47
672.21	42.13
672.35	35.11
672.49	7.02
672.63	0.00
672.77	56.17
672.91	25.75
673.05	53.83
673.19	39.79
673.33	149.79
673.47	88.94
673.61	72.56
673.75	88.94
673.89	60.85
674.03	72.56
674.17	145.11
674.31	37.45
674.45	56.17
674.59	81.92
674.73	56.17
674.87	88.94
675.01	65.54
675.15	35.11
675.29	42.13
675.43	65.54
675.56	77.24
675.70	51.49
675.84	60.85
675.98	58.51
676.12	23.41
676.26	28.09
676.40	60.85
676.54	16.38
676.68	0.00
676.82	63.19
676.96	88.94
677.10	32.77
677.23	23.41
677.37	23.41
677.51	102.98
677.65	0.00
677.79	28.09
677.93	56.17
678.07	18.72
678.21	32.77
678.34	51.49
678.48	53.83
678.62	135.75
678.76	65.54
678.90	42.13
679.04	74.90
679.18	44.47
679.31	74.90
679.45	0.00
679.59	67.88
679.73	44.47
679.87	0.00
680.00	72.56
680.14	0.00
680.28	91.28
680.42	67.88
680.56	105.32
680.70	0.00
680.83	65.54
680.97	91.28
681.11	0.00
681.25	11.70
681.39	23.41
681.52	42.13
681.66	72.56
681.80	53.83
681.94	9.36
682.07	51.49
682.21	102.98
682.35	42.13
682.49	77.24
682.62	0.00
682.76	65.54
682.90	110.01
683.04	72.56
683.17	72.56
683.31	39.79
683.45	49.15
683.59	56.17
683.72	37.45
683.86	37.45
684.00	81.92
684.13	0.00
684.27	39.79
684.41	35.11
684.55	39.79
684.68	30.43
684.82	53.83
684.96	28.09
685.09	81.92
685.23	67.88
685.37	0.00
685.50	32.77
685.64	30.43
685.78	30.43
685.91	25.75
686.05	98.30
686.19	21.06
686.32	28.09
686.46	46.81
686.60	67.88
686.73	25.75
686.87	23.41
687.01	63.19
687.14	28.09
687.28	44.47
687.42	74.90
687.55	65.54
687.69	77.24
687.82	49.15
687.96	58.51
688.10	18.72
688.23	21.06
688.37	42.13
688.50	0.00
688.64	0.00
688.78	0.00
688.91	32.77
689.05	60.85
689.18	25.75
689.32	0.00
689.46	86.60
689.59	0.00
689.73	14.04
689.86	98.30
690.00	72.56
690.13	32.77
690.27	46.81
690.41	32.77
690.54	60.85
690.68	0.00
690.81	18.72
690.95	58.51
691.08	14.04
691.22	32.77
691.35	128.73
691.49	35.11
691.62	112.35
691.76	49.15
691.89	9.36
692.03	107.66
692.16	98.30
692.30	30.43
692.43	72.56
692.57	11.70
692.70	4.68
692.84	9.36
692.97	67.88
693.11	28.09
693.24	63.19
693.38	14.04
693.51	51.49
693.65	65.54
693.78	30.43
693.92	0.00
694.05	16.38
694.19	51.49
694.32	25.75
694.45	65.54
694.59	60.85
694.72	74.90
694.86	79.58
694.99	28.09
695.13	0.00
695.26	4.68
695.39	0.00
695.53	49.15
695.66	0.00
695.80	67.88
695.93	46.81
696.07	14.04
696.20	0.00
696.33	18.72
696.47	49.15
696.60	98.30
696.73	79.58
696.87	28.09
697.00	21.06
697.14	105.32
697.27	14.04
697.40	0.00
697.54	30.43
697.67	0.00
697.80	14.04
697.94	0.00
698.07	79.58
698.21	0.00
698.34	37.45
698.47	0.00
698.61	112.35
698.74	0.00
698.87	35.11
699.01	25.75
699.14	65.54
699.27	25.75
699.40	39.79
699.54	32.77
699.67	21.06
699.80	56.17
699.94	25.75
700.07	72.56
700.20	0.00
700.34	16.38
700.47	23.41
700.60	49.15
700.73	39.79
700.87	42.13
701.00	49.15
701.13	0.00
701.26	0.00
701.40	79.58
701.53	14.04
701.66	39.79
701.79	0.00
701.93	2.34
702.06	51.49
702.19	11.70
702.32	77.24
702.46	60.85
702.59	2.34
702.72	11.70
702.85	51.49
702.99	63.19
703.12	0.00
703.25	23.41
703.38	0.00
703.51	77.24
703.65	74.90
703.78	39.79
703.91	88.94
704.04	14.04
704.17	32.77
704.31	23.41
704.44	0.00
704.57	30.43
704.70	74.90
704.83	88.94
704.96	49.15
705.10	74.90
705.23	23.41
>>>>>End Processed Spectral Data<<<<<
