SpectraSuite Data File
++++++++++++++++++++++++++++++++++++
Date: Fri Oct 04 12:13:36 GMT-05:00 2013
User: price-jones
Dark Spectrum Present: No
Reference Spectrum Present: No
Number of Sampled Component Spectra: 1
Spectrometers: USB2+H05261
Integration Time (usec): 10000 (USB2+H05261)
Spectra Averaged: 1 (USB2+H05261)
Boxcar Smoothing: 0 (USB2+H05261)
Correct for Electrical Dark: No (USB2+H05261)
Strobe/Lamp Enabled: No (USB2+H05261)
Correct for Detector Non-linearity: No (USB2+H05261)
Correct for Stray Light: No (USB2+H05261)
Number of Pixels in Processed Spectrum: 2048
>>>>>Begin Processed Spectral Data<<<<<
365.73	23.41
365.92	23.41
366.12	23.41
366.32	0.00
366.52	0.00
366.72	0.00
366.91	0.00
367.11	0.00
367.31	0.00
367.51	0.00
367.70	0.00
367.90	0.00
368.10	0.00
368.30	0.00
368.49	0.00
368.69	0.00
368.89	0.00
369.09	0.00
369.28	0.00
369.48	0.00
369.68	0.00
369.87	0.00
370.07	0.00
370.27	37.45
370.47	0.00
370.66	0.00
370.86	2.34
371.06	0.00
371.25	0.00
371.45	56.17
371.65	0.00
371.84	2.34
372.04	9.36
372.24	49.15
372.44	0.00
372.63	0.00
372.83	0.00
373.03	35.11
373.22	9.36
373.42	4.68
373.62	58.51
373.81	0.00
374.01	0.00
374.21	23.41
374.40	0.00
374.60	30.43
374.79	11.70
374.99	39.79
375.19	37.45
375.38	49.15
375.58	44.47
375.78	0.00
375.97	30.43
376.17	56.17
376.37	9.36
376.56	0.00
376.76	9.36
376.95	21.06
377.15	51.49
377.35	35.11
377.54	53.83
377.74	0.00
377.93	102.98
378.13	0.00
378.33	18.72
378.52	25.75
378.72	35.11
378.91	49.15
379.11	0.00
379.31	0.00
379.50	28.09
379.70	4.68
379.89	60.85
380.09	37.45
380.28	0.00
380.48	16.38
380.68	98.30
380.87	16.38
381.07	58.51
381.26	2.34
381.46	0.00
381.65	0.00
381.85	18.72
382.04	35.11
382.24	74.90
382.43	119.37
382.63	0.00
382.83	0.00
383.02	4.68
383.22	16.38
383.41	9.36
383.61	14.04
383.80	0.00
384.00	44.47
384.19	0.00
384.39	0.00
384.58	0.00
384.78	42.13
384.97	35.11
385.17	39.79
385.36	53.83
385.56	51.49
385.75	0.00
385.95	79.58
386.14	51.49
386.34	30.43
386.53	0.00
386.72	0.00
386.92	14.04
387.11	39.79
387.31	18.72
387.50	32.77
387.70	81.92
387.89	35.11
388.09	28.09
388.28	60.85
388.48	46.81
388.67	91.28
388.86	35.11
389.06	0.00
389.25	0.00
389.45	0.00
389.64	0.00
389.84	23.41
390.03	32.77
390.22	63.19
390.42	0.00
390.61	46.81
390.81	0.00
391.00	39.79
391.19	18.72
391.39	42.13
391.58	0.00
391.78	0.00
391.97	0.00
392.16	4.68
392.36	30.43
392.55	39.79
392.75	18.72
392.94	37.45
393.13	65.54
393.33	0.00
393.52	7.02
393.71	16.38
393.91	0.00
394.10	16.38
394.29	44.47
394.49	0.00
394.68	67.88
394.88	42.13
395.07	14.04
395.26	4.68
395.46	30.43
395.65	0.00
395.84	65.54
396.04	72.56
396.23	25.75
396.42	21.06
396.62	53.83
396.81	37.45
397.00	0.00
397.19	16.38
397.39	30.43
397.58	65.54
397.77	42.13
397.97	0.00
398.16	23.41
398.35	23.41
398.55	74.90
398.74	42.13
398.93	14.04
399.12	0.00
399.32	14.04
399.51	23.41
399.70	23.41
399.90	42.13
400.09	23.41
400.28	60.85
400.47	4.68
400.67	0.00
400.86	16.38
401.05	28.09
401.24	53.83
401.44	14.04
401.63	21.06
401.82	46.81
402.01	39.79
402.21	100.64
402.40	77.24
402.59	11.70
402.78	58.51
402.97	0.00
403.17	74.90
403.36	0.00
403.55	7.02
403.74	72.56
403.93	35.11
404.13	46.81
404.32	58.51
404.51	0.00
404.70	0.00
404.89	0.00
405.09	0.00
405.28	0.00
405.47	21.06
405.66	21.06
405.85	70.22
406.05	46.81
406.24	0.00
406.43	46.81
406.62	35.11
406.81	16.38
407.00	119.37
407.20	14.04
407.39	0.00
407.58	65.54
407.77	32.77
407.96	72.56
408.15	0.00
408.34	30.43
408.54	42.13
408.73	72.56
408.92	0.00
409.11	16.38
409.30	0.00
409.49	0.00
409.68	0.00
409.87	9.36
410.07	51.49
410.26	28.09
410.45	0.00
410.64	4.68
410.83	28.09
411.02	16.38
411.21	23.41
411.40	0.00
411.59	9.36
411.78	51.49
411.98	30.43
412.17	35.11
412.36	2.34
412.55	7.02
412.74	32.77
412.93	18.72
413.12	0.00
413.31	74.90
413.50	46.81
413.69	56.17
413.88	21.06
414.07	0.00
414.26	14.04
414.45	0.00
414.64	51.49
414.83	56.17
415.02	49.15
415.22	42.13
415.41	93.62
415.60	72.56
415.79	32.77
415.98	88.94
416.17	9.36
416.36	0.00
416.55	28.09
416.74	0.00
416.93	0.00
417.12	86.60
417.31	51.49
417.50	63.19
417.69	42.13
417.88	28.09
418.07	0.00
418.26	56.17
418.45	91.28
418.64	14.04
418.83	86.60
419.02	30.43
419.21	11.70
419.39	37.45
419.58	16.38
419.77	100.64
419.96	67.88
420.15	46.81
420.34	67.88
420.53	9.36
420.72	51.49
420.91	23.41
421.10	0.00
421.29	0.00
421.48	51.49
421.67	72.56
421.86	0.00
422.05	74.90
422.24	79.58
422.43	18.72
422.61	70.22
422.80	9.36
422.99	79.58
423.18	77.24
423.37	72.56
423.56	16.38
423.75	63.19
423.94	72.56
424.13	56.17
424.32	63.19
424.50	25.75
424.69	72.56
424.88	30.43
425.07	53.83
425.26	0.00
425.45	30.43
425.64	51.49
425.83	23.41
426.01	46.81
426.20	121.71
426.39	23.41
426.58	60.85
426.77	37.45
426.96	60.85
427.15	98.30
427.33	39.79
427.52	39.79
427.71	23.41
427.90	58.51
428.09	2.34
428.28	63.19
428.46	37.45
428.65	102.98
428.84	70.22
429.03	37.45
429.22	21.06
429.40	53.83
429.59	65.54
429.78	28.09
429.97	86.60
430.16	58.51
430.34	39.79
430.53	46.81
430.72	37.45
430.91	51.49
431.10	56.17
431.28	58.51
431.47	0.00
431.66	14.04
431.85	0.00
432.03	39.79
432.22	14.04
432.41	88.94
432.60	98.30
432.79	72.56
432.97	18.72
433.16	25.75
433.35	58.51
433.54	39.79
433.72	9.36
433.91	4.68
434.10	63.19
434.28	42.13
434.47	0.00
434.66	79.58
434.85	72.56
435.03	65.54
435.22	100.64
435.41	16.38
435.59	74.90
435.78	100.64
435.97	72.56
436.16	21.06
436.34	7.02
436.53	2.34
436.72	53.83
436.90	49.15
437.09	53.83
437.28	88.94
437.46	39.79
437.65	58.51
437.84	44.47
438.02	58.51
438.21	23.41
438.40	70.22
438.58	79.58
438.77	98.30
438.96	51.49
439.14	0.00
439.33	14.04
439.52	63.19
439.70	32.77
439.89	86.60
440.08	93.62
440.26	32.77
440.45	63.19
440.63	25.75
440.82	37.45
441.01	25.75
441.19	72.56
441.38	100.64
441.57	67.88
441.75	74.90
441.94	67.88
442.12	30.43
442.31	84.26
442.50	42.13
442.68	65.54
442.87	91.28
443.05	60.85
443.24	60.85
443.43	56.17
443.61	95.96
443.80	0.00
443.98	28.09
444.17	74.90
444.35	39.79
444.54	35.11
444.73	51.49
444.91	0.00
445.10	0.00
445.28	21.06
445.47	30.43
445.65	53.83
445.84	84.26
446.02	39.79
446.21	84.26
446.39	35.11
446.58	39.79
446.77	28.09
446.95	67.88
447.14	112.35
447.32	51.49
447.51	53.83
447.69	9.36
447.88	0.00
448.06	110.01
448.25	14.04
448.43	23.41
448.62	0.00
448.80	9.36
448.99	126.39
449.17	93.62
449.36	91.28
449.54	0.00
449.73	42.13
449.91	98.30
450.10	25.75
450.28	51.49
450.46	56.17
450.65	9.36
450.83	72.56
451.02	56.17
451.20	51.49
451.39	56.17
451.57	74.90
451.76	72.56
451.94	0.00
452.13	42.13
452.31	70.22
452.49	0.00
452.68	79.58
452.86	16.38
453.05	95.96
453.23	67.88
453.42	100.64
453.60	0.00
453.78	25.75
453.97	0.00
454.15	0.00
454.34	35.11
454.52	0.00
454.70	100.64
454.89	77.24
455.07	63.19
455.26	21.06
455.44	74.90
455.62	0.00
455.81	42.13
455.99	93.62
456.17	74.90
456.36	81.92
456.54	14.04
456.73	49.15
456.91	0.00
457.09	46.81
457.28	67.88
457.46	18.72
457.64	18.72
457.83	2.34
458.01	95.96
458.19	100.64
458.38	35.11
458.56	46.81
458.74	21.06
458.93	49.15
459.11	77.24
459.29	18.72
459.48	37.45
459.66	86.60
459.84	70.22
460.03	4.68
460.21	67.88
460.39	65.54
460.57	81.92
460.76	114.69
460.94	60.85
461.12	63.19
461.31	42.13
461.49	0.00
461.67	11.70
461.85	53.83
462.04	56.17
462.22	98.30
462.40	77.24
462.59	14.04
462.77	53.83
462.95	84.26
463.13	35.11
463.32	98.30
463.50	67.88
463.68	56.17
463.86	65.54
464.05	39.79
464.23	100.64
464.41	117.03
464.59	16.38
464.78	0.00
464.96	42.13
465.14	51.49
465.32	58.51
465.50	35.11
465.69	42.13
465.87	0.00
466.05	56.17
466.23	173.20
466.41	23.41
466.60	32.77
466.78	42.13
466.96	51.49
467.14	46.81
467.32	18.72
467.51	49.15
467.69	67.88
467.87	42.13
468.05	44.47
468.23	35.11
468.41	72.56
468.60	32.77
468.78	30.43
468.96	51.49
469.14	60.85
469.32	105.32
469.50	21.06
469.69	119.37
469.87	32.77
470.05	51.49
470.23	35.11
470.41	65.54
470.59	74.90
470.77	60.85
470.95	0.00
471.14	58.51
471.32	74.90
471.50	88.94
471.68	18.72
471.86	11.70
472.04	39.79
472.22	77.24
472.40	77.24
472.58	51.49
472.77	95.96
472.95	91.28
473.13	56.17
473.31	74.90
473.49	35.11
473.67	53.83
473.85	133.41
474.03	98.30
474.21	88.94
474.39	121.71
474.57	100.64
474.75	7.02
474.93	126.39
475.12	70.22
475.30	63.19
475.48	98.30
475.66	81.92
475.84	46.81
476.02	18.72
476.20	21.06
476.38	135.75
476.56	30.43
476.74	102.98
476.92	65.54
477.10	56.17
477.28	0.00
477.46	77.24
477.64	35.11
477.82	53.83
478.00	95.96
478.18	70.22
478.36	67.88
478.54	131.07
478.72	37.45
478.90	21.06
479.08	84.26
479.26	95.96
479.44	70.22
479.62	39.79
479.80	51.49
479.98	77.24
480.16	93.62
480.34	42.13
480.52	46.81
480.70	25.75
480.88	0.00
481.06	51.49
481.24	56.17
481.41	7.02
481.59	53.83
481.77	18.72
481.95	70.22
482.13	67.88
482.31	70.22
482.49	0.00
482.67	0.00
482.85	25.75
483.03	53.83
483.21	86.60
483.39	44.47
483.57	79.58
483.74	81.92
483.92	28.09
484.10	35.11
484.28	77.24
484.46	60.85
484.64	119.37
484.82	88.94
485.00	44.47
485.18	51.49
485.35	70.22
485.53	86.60
485.71	133.41
485.89	67.88
486.07	140.43
486.25	58.51
486.43	107.66
486.61	46.81
486.78	58.51
486.96	0.00
487.14	86.60
487.32	51.49
487.50	0.00
487.68	67.88
487.85	72.56
488.03	42.13
488.21	72.56
488.39	84.26
488.57	86.60
488.75	14.04
488.92	126.39
489.10	135.75
489.28	128.73
489.46	49.15
489.64	21.06
489.81	112.35
489.99	217.67
490.17	51.49
490.35	98.30
490.53	114.69
490.70	35.11
490.88	32.77
491.06	65.54
491.24	74.90
491.41	93.62
491.59	37.45
491.77	35.11
491.95	60.85
492.13	95.96
492.30	65.54
492.48	67.88
492.66	102.98
492.84	58.51
493.01	100.64
493.19	119.37
493.37	72.56
493.54	4.68
493.72	112.35
493.90	49.15
494.08	0.00
494.25	107.66
494.43	72.56
494.61	46.81
494.79	100.64
494.96	84.26
495.14	140.43
495.32	70.22
495.49	58.51
495.67	65.54
495.85	93.62
496.02	124.05
496.20	161.50
496.38	72.56
496.55	28.09
496.73	4.68
496.91	74.90
497.09	79.58
497.26	77.24
497.44	42.13
497.62	70.22
497.79	0.00
497.97	100.64
498.14	105.32
498.32	124.05
498.50	74.90
498.67	102.98
498.85	23.41
499.03	105.32
499.20	86.60
499.38	140.43
499.56	79.58
499.73	128.73
499.91	56.17
500.08	72.56
500.26	100.64
500.44	117.03
500.61	21.06
500.79	67.88
500.97	60.85
501.14	60.85
501.32	93.62
501.49	65.54
501.67	110.01
501.84	67.88
502.02	18.72
502.20	65.54
502.37	9.36
502.55	67.88
502.72	77.24
502.90	86.60
503.07	107.66
503.25	88.94
503.43	77.24
503.60	79.58
503.78	23.41
503.95	112.35
504.13	9.36
504.30	39.79
504.48	0.00
504.65	21.06
504.83	74.90
505.01	51.49
505.18	37.45
505.36	189.58
505.53	67.88
505.71	102.98
505.88	102.98
506.06	79.58
506.23	98.30
506.41	74.90
506.58	70.22
506.76	95.96
506.93	168.52
507.11	63.19
507.28	100.64
507.46	35.11
507.63	112.35
507.81	56.17
507.98	42.13
508.16	74.90
508.33	84.26
508.50	93.62
508.68	121.71
508.85	88.94
509.03	23.41
509.20	74.90
509.38	110.01
509.55	91.28
509.73	37.45
509.90	30.43
510.08	91.28
510.25	81.92
510.42	102.98
510.60	100.64
510.77	81.92
510.95	53.83
511.12	126.39
511.30	67.88
511.47	46.81
511.64	100.64
511.82	84.26
511.99	7.02
512.17	93.62
512.34	44.47
512.51	98.30
512.69	79.58
512.86	53.83
513.04	93.62
513.21	121.71
513.38	100.64
513.56	67.88
513.73	65.54
513.90	60.85
514.08	81.92
514.25	145.11
514.43	70.22
514.60	84.26
514.77	63.19
514.95	79.58
515.12	65.54
515.29	44.47
515.47	39.79
515.64	100.64
515.81	77.24
515.99	117.03
516.16	58.51
516.33	88.94
516.51	135.75
516.68	98.30
516.85	74.90
517.03	53.83
517.20	72.56
517.37	9.36
517.54	65.54
517.72	65.54
517.89	84.26
518.06	49.15
518.24	0.00
518.41	145.11
518.58	63.19
518.75	53.83
518.93	25.75
519.10	18.72
519.27	0.00
519.45	46.81
519.62	18.72
519.79	65.54
519.96	35.11
520.14	58.51
520.31	105.32
520.48	112.35
520.65	100.64
520.83	98.30
521.00	70.22
521.17	74.90
521.34	56.17
521.52	100.64
521.69	70.22
521.86	16.38
522.03	0.00
522.20	114.69
522.38	37.45
522.55	86.60
522.72	77.24
522.89	117.03
523.07	81.92
523.24	142.77
523.41	72.56
523.58	91.28
523.75	72.56
523.92	93.62
524.10	39.79
524.27	112.35
524.44	63.19
524.61	72.56
524.78	98.30
524.96	44.47
525.13	114.69
525.30	0.00
525.47	91.28
525.64	9.36
525.81	70.22
525.98	79.58
526.16	114.69
526.33	119.37
526.50	70.22
526.67	21.06
526.84	72.56
527.01	39.79
527.18	102.98
527.36	32.77
527.53	91.28
527.70	53.83
527.87	105.32
528.04	77.24
528.21	93.62
528.38	32.77
528.55	70.22
528.72	121.71
528.89	154.48
529.07	102.98
529.24	95.96
529.41	117.03
529.58	95.96
529.75	135.75
529.92	46.81
530.09	114.69
530.26	98.30
530.43	9.36
530.60	70.22
530.77	175.54
530.94	65.54
531.11	74.90
531.28	84.26
531.46	88.94
531.63	110.01
531.80	42.13
531.97	102.98
532.14	65.54
532.31	84.26
532.48	46.81
532.65	81.92
532.82	114.69
532.99	105.32
533.16	84.26
533.33	126.39
533.50	37.45
533.67	98.30
533.84	98.30
534.01	117.03
534.18	86.60
534.35	119.37
534.52	37.45
534.69	86.60
534.86	93.62
535.03	121.71
535.20	72.56
535.37	93.62
535.54	107.66
535.71	131.07
535.88	70.22
536.05	102.98
536.22	30.43
536.38	102.98
536.55	79.58
536.72	138.09
536.89	65.54
537.06	77.24
537.23	138.09
537.40	74.90
537.57	93.62
537.74	84.26
537.91	79.58
538.08	107.66
538.25	70.22
538.42	187.24
538.59	74.90
538.75	28.09
538.92	117.03
539.09	110.01
539.26	105.32
539.43	126.39
539.60	149.79
539.77	72.56
539.94	93.62
540.11	128.73
540.28	53.83
540.44	121.71
540.61	119.37
540.78	105.32
540.95	121.71
541.12	93.62
541.29	79.58
541.46	70.22
541.62	79.58
541.79	67.88
541.96	25.75
542.13	51.49
542.30	86.60
542.47	74.90
542.63	100.64
542.80	74.90
542.97	56.17
543.14	77.24
543.31	105.32
543.48	91.28
543.64	119.37
543.81	60.85
543.98	102.98
544.15	72.56
544.32	28.09
544.48	84.26
544.65	23.41
544.82	30.43
544.99	88.94
545.16	44.47
545.32	100.64
545.49	93.62
545.66	81.92
545.83	51.49
546.00	77.24
546.16	100.64
546.33	112.35
546.50	18.72
546.67	124.05
546.83	42.13
547.00	128.73
547.17	91.28
547.34	135.75
547.50	110.01
547.67	53.83
547.84	65.54
548.00	110.01
548.17	124.05
548.34	32.77
548.51	110.01
548.67	35.11
548.84	21.06
549.01	77.24
549.18	128.73
549.34	112.35
549.51	30.43
549.68	81.92
549.84	53.83
550.01	154.48
550.18	86.60
550.34	112.35
550.51	112.35
550.68	161.50
550.84	63.19
551.01	156.82
551.18	35.11
551.34	102.98
551.51	0.00
551.68	21.06
551.84	79.58
552.01	79.58
552.18	161.50
552.34	126.39
552.51	74.90
552.68	53.83
552.84	93.62
553.01	56.17
553.18	117.03
553.34	84.26
553.51	131.07
553.67	117.03
553.84	100.64
554.01	124.05
554.17	107.66
554.34	86.60
554.51	93.62
554.67	58.51
554.84	81.92
555.00	84.26
555.17	67.88
555.33	72.56
555.50	56.17
555.67	18.72
555.83	60.85
556.00	74.90
556.16	16.38
556.33	77.24
556.50	105.32
556.66	159.16
556.83	81.92
556.99	39.79
557.16	65.54
557.32	58.51
557.49	39.79
557.65	23.41
557.82	112.35
557.98	86.60
558.15	56.17
558.32	117.03
558.48	23.41
558.65	56.17
558.81	25.75
558.98	23.41
559.14	100.64
559.31	100.64
559.47	70.22
559.64	58.51
559.80	138.09
559.97	14.04
560.13	56.17
560.30	28.09
560.46	0.00
560.63	32.77
560.79	53.83
560.96	46.81
561.12	42.13
561.29	105.32
561.45	56.17
561.61	91.28
561.78	128.73
561.94	67.88
562.11	140.43
562.27	117.03
562.44	79.58
562.60	53.83
562.77	100.64
562.93	79.58
563.10	58.51
563.26	63.19
563.42	145.11
563.59	49.15
563.75	74.90
563.92	152.13
564.08	86.60
564.24	159.16
564.41	88.94
564.57	74.90
564.74	77.24
564.90	49.15
565.07	79.58
565.23	4.68
565.39	84.26
565.56	145.11
565.72	60.85
565.88	79.58
566.05	107.66
566.21	100.64
566.38	91.28
566.54	63.19
566.70	93.62
566.87	112.35
567.03	58.51
567.19	112.35
567.36	133.41
567.52	16.38
567.68	67.88
567.85	14.04
568.01	126.39
568.17	124.05
568.34	112.35
568.50	2.34
568.66	72.56
568.83	30.43
568.99	93.62
569.15	91.28
569.32	28.09
569.48	65.54
569.64	25.75
569.81	72.56
569.97	72.56
570.13	114.69
570.30	95.96
570.46	72.56
570.62	105.32
570.78	86.60
570.95	93.62
571.11	128.73
571.27	112.35
571.43	81.92
571.60	74.90
571.76	84.26
571.92	9.36
572.09	18.72
572.25	0.00
572.41	7.02
572.57	67.88
572.74	70.22
572.90	133.41
573.06	79.58
573.22	112.35
573.38	128.73
573.55	56.17
573.71	81.92
573.87	107.66
574.03	91.28
574.20	28.09
574.36	91.28
574.52	49.15
574.68	67.88
574.84	51.49
575.01	60.85
575.17	91.28
575.33	98.30
575.49	77.24
575.65	56.17
575.82	100.64
575.98	114.69
576.14	102.98
576.30	114.69
576.46	133.41
576.62	117.03
576.79	112.35
576.95	49.15
577.11	119.37
577.27	14.04
577.43	119.37
577.59	49.15
577.75	39.79
577.92	51.49
578.08	86.60
578.24	18.72
578.40	114.69
578.56	46.81
578.72	51.49
578.88	119.37
579.04	149.79
579.21	91.28
579.37	112.35
579.53	58.51
579.69	145.11
579.85	65.54
580.01	51.49
580.17	0.00
580.33	46.81
580.49	67.88
580.65	9.36
580.82	88.94
580.98	28.09
581.14	88.94
581.30	60.85
581.46	58.51
581.62	70.22
581.78	67.88
581.94	67.88
582.10	98.30
582.26	98.30
582.42	58.51
582.58	121.71
582.74	93.62
582.90	56.17
583.06	32.77
583.22	98.30
583.38	46.81
583.54	65.54
583.70	0.00
583.86	74.90
584.02	30.43
584.18	63.19
584.34	102.98
584.50	28.09
584.66	88.94
584.82	70.22
584.98	65.54
585.14	166.18
585.30	81.92
585.46	95.96
585.62	14.04
585.78	79.58
585.94	93.62
586.10	58.51
586.26	42.13
586.42	112.35
586.58	124.05
586.74	16.38
586.90	14.04
587.06	124.05
587.22	58.51
587.38	21.06
587.54	53.83
587.70	91.28
587.86	65.54
588.02	70.22
588.18	67.88
588.34	84.26
588.49	53.83
588.65	124.05
588.81	91.28
588.97	72.56
589.13	70.22
589.29	95.96
589.45	93.62
589.61	67.88
589.77	100.64
589.93	0.00
590.08	56.17
590.24	46.81
590.40	98.30
590.56	56.17
590.72	77.24
590.88	56.17
591.04	81.92
591.20	105.32
591.35	14.04
591.51	46.81
591.67	70.22
591.83	72.56
591.99	114.69
592.15	30.43
592.31	72.56
592.46	25.75
592.62	70.22
592.78	30.43
592.94	86.60
593.10	100.64
593.26	44.47
593.41	18.72
593.57	9.36
593.73	77.24
593.89	51.49
594.05	44.47
594.20	32.77
594.36	58.51
594.52	49.15
594.68	39.79
594.84	16.38
594.99	39.79
595.15	105.32
595.31	14.04
595.47	32.77
595.62	95.96
595.78	86.60
595.94	74.90
596.10	0.00
596.25	72.56
596.41	105.32
596.57	81.92
596.73	112.35
596.88	112.35
597.04	46.81
597.20	81.92
597.36	65.54
597.51	84.26
597.67	67.88
597.83	77.24
597.99	56.17
598.14	67.88
598.30	65.54
598.46	84.26
598.61	42.13
598.77	58.51
598.93	72.56
599.09	28.09
599.24	117.03
599.40	74.90
599.56	77.24
599.71	163.84
599.87	53.83
600.03	86.60
600.18	16.38
600.34	60.85
600.50	77.24
600.65	28.09
600.81	67.88
600.97	117.03
601.12	46.81
601.28	138.09
601.44	107.66
601.59	49.15
601.75	77.24
601.91	100.64
602.06	121.71
602.22	74.90
602.37	72.56
602.53	100.64
602.69	74.90
602.84	95.96
603.00	32.77
603.16	51.49
603.31	67.88
603.47	135.75
603.62	65.54
603.78	44.47
603.94	49.15
604.09	51.49
604.25	25.75
604.40	114.69
604.56	67.88
604.71	81.92
604.87	88.94
605.03	25.75
605.18	37.45
605.34	70.22
605.49	77.24
605.65	91.28
605.80	98.30
605.96	16.38
606.12	72.56
606.27	35.11
606.43	88.94
606.58	86.60
606.74	74.90
606.89	124.05
607.05	35.11
607.20	65.54
607.36	98.30
607.51	2.34
607.67	100.64
607.82	46.81
607.98	70.22
608.13	23.41
608.29	70.22
608.44	60.85
608.60	46.81
608.75	60.85
608.91	32.77
609.06	126.39
609.22	107.66
609.37	88.94
609.53	86.60
609.68	58.51
609.84	112.35
609.99	107.66
610.15	65.54
610.30	9.36
610.46	159.16
610.61	102.98
610.76	88.94
610.92	84.26
611.07	145.11
611.23	39.79
611.38	32.77
611.54	138.09
611.69	63.19
611.84	42.13
612.00	79.58
612.15	95.96
612.31	32.77
612.46	42.13
612.62	126.39
612.77	112.35
612.92	58.51
613.08	112.35
613.23	105.32
613.39	51.49
613.54	42.13
613.69	0.00
613.85	42.13
614.00	159.16
614.15	84.26
614.31	58.51
614.46	21.06
614.62	74.90
614.77	98.30
614.92	112.35
615.08	23.41
615.23	128.73
615.38	79.58
615.54	0.00
615.69	67.88
615.84	44.47
616.00	14.04
616.15	67.88
616.30	93.62
616.46	65.54
616.61	0.00
616.76	70.22
616.92	72.56
617.07	100.64
617.22	72.56
617.37	121.71
617.53	86.60
617.68	63.19
617.83	30.43
617.99	0.00
618.14	65.54
618.29	39.79
618.45	79.58
618.60	11.70
618.75	98.30
618.90	51.49
619.06	9.36
619.21	70.22
619.36	119.37
619.51	91.28
619.67	53.83
619.82	86.60
619.97	9.36
620.12	84.26
620.28	77.24
620.43	60.85
620.58	58.51
620.73	51.49
620.89	35.11
621.04	107.66
621.19	88.94
621.34	42.13
621.49	63.19
621.65	72.56
621.80	16.38
621.95	79.58
622.10	79.58
622.25	28.09
622.41	56.17
622.56	93.62
622.71	56.17
622.86	86.60
623.01	128.73
623.16	56.17
623.32	39.79
623.47	0.00
623.62	74.90
623.77	138.09
623.92	67.88
624.07	100.64
624.23	56.17
624.38	46.81
624.53	77.24
624.68	114.69
624.83	74.90
624.98	112.35
625.13	42.13
625.29	65.54
625.44	60.85
625.59	18.72
625.74	37.45
625.89	88.94
626.04	72.56
626.19	49.15
626.34	112.35
626.49	44.47
626.65	49.15
626.80	44.47
626.95	28.09
627.10	32.77
627.25	25.75
627.40	58.51
627.55	11.70
627.70	91.28
627.85	98.30
628.00	93.62
628.15	18.72
628.30	63.19
628.45	107.66
628.60	112.35
628.76	0.00
628.91	49.15
629.06	95.96
629.21	112.35
629.36	110.01
629.51	112.35
629.66	88.94
629.81	72.56
629.96	95.96
630.11	135.75
630.26	95.96
630.41	98.30
630.56	98.30
630.71	35.11
630.86	35.11
631.01	0.00
631.16	56.17
631.31	58.51
631.46	56.17
631.61	63.19
631.76	84.26
631.91	42.13
632.06	44.47
632.21	98.30
632.36	88.94
632.51	0.00
632.66	70.22
632.81	28.09
632.96	35.11
633.10	53.83
633.25	112.35
633.40	35.11
633.55	77.24
633.70	58.51
633.85	25.75
634.00	49.15
634.15	30.43
634.30	135.75
634.45	46.81
634.60	25.75
634.75	37.45
634.90	25.75
635.05	56.17
635.19	84.26
635.34	11.70
635.49	53.83
635.64	107.66
635.79	21.06
635.94	74.90
636.09	49.15
636.24	18.72
636.39	42.13
636.53	23.41
636.68	67.88
636.83	128.73
636.98	0.00
637.13	112.35
637.28	70.22
637.43	63.19
637.57	60.85
637.72	0.00
637.87	60.85
638.02	121.71
638.17	35.11
638.32	65.54
638.46	81.92
638.61	81.92
638.76	0.00
638.91	128.73
639.06	25.75
639.20	107.66
639.35	56.17
639.50	63.19
639.65	79.58
639.80	7.02
639.94	126.39
640.09	65.54
640.24	58.51
640.39	37.45
640.54	98.30
640.68	39.79
640.83	128.73
640.98	77.24
641.13	88.94
641.27	72.56
641.42	53.83
641.57	49.15
641.72	138.09
641.86	77.24
642.01	67.88
642.16	58.51
642.31	53.83
642.45	126.39
642.60	37.45
642.75	49.15
642.90	53.83
643.04	44.47
643.19	23.41
643.34	35.11
643.48	30.43
643.63	93.62
643.78	100.64
643.93	58.51
644.07	60.85
644.22	39.79
644.37	86.60
644.51	91.28
644.66	30.43
644.81	65.54
644.95	88.94
645.10	23.41
645.25	84.26
645.39	51.49
645.54	88.94
645.69	72.56
645.83	131.07
645.98	91.28
646.13	25.75
646.27	88.94
646.42	72.56
646.57	44.47
646.71	32.77
646.86	28.09
647.00	11.70
647.15	93.62
647.30	44.47
647.44	74.90
647.59	117.03
647.74	88.94
647.88	84.26
648.03	102.98
648.17	98.30
648.32	4.68
648.47	42.13
648.61	39.79
648.76	0.00
648.90	25.75
649.05	39.79
649.20	14.04
649.34	114.69
649.49	21.06
649.63	35.11
649.78	102.98
649.92	60.85
650.07	131.07
650.21	46.81
650.36	86.60
650.51	114.69
650.65	65.54
650.80	74.90
650.94	7.02
651.09	0.00
651.23	63.19
651.38	65.54
651.52	0.00
651.67	49.15
651.81	42.13
651.96	60.85
652.10	0.00
652.25	51.49
652.39	14.04
652.54	42.13
652.68	142.77
652.83	60.85
652.97	77.24
653.12	53.83
653.26	98.30
653.41	51.49
653.55	121.71
653.70	23.41
653.84	81.92
653.99	42.13
654.13	107.66
654.27	58.51
654.42	70.22
654.56	0.00
654.71	60.85
654.85	39.79
655.00	107.66
655.14	7.02
655.29	100.64
655.43	42.13
655.57	0.00
655.72	79.58
655.86	70.22
656.01	84.26
656.15	0.00
656.30	9.36
656.44	53.83
656.58	42.13
656.73	110.01
656.87	74.90
657.01	117.03
657.16	63.19
657.30	60.85
657.45	58.51
657.59	0.00
657.73	21.06
657.88	86.60
658.02	91.28
658.16	35.11
658.31	7.02
658.45	23.41
658.60	9.36
658.74	0.00
658.88	7.02
659.03	11.70
659.17	63.19
659.31	4.68
659.46	42.13
659.60	51.49
659.74	4.68
659.89	102.98
660.03	23.41
660.17	91.28
660.32	88.94
660.46	16.38
660.60	56.17
660.74	0.00
660.89	42.13
661.03	42.13
661.17	30.43
661.32	4.68
661.46	37.45
661.60	79.58
661.74	58.51
661.89	39.79
662.03	28.09
662.17	30.43
662.31	93.62
662.46	84.26
662.60	56.17
662.74	67.88
662.88	23.41
663.03	49.15
663.17	51.49
663.31	72.56
663.45	119.37
663.60	60.85
663.74	4.68
663.88	0.00
664.02	46.81
664.17	51.49
664.31	110.01
664.45	49.15
664.59	140.43
664.73	23.41
664.88	23.41
665.02	28.09
665.16	0.00
665.30	72.56
665.44	16.38
665.59	79.58
665.73	39.79
665.87	11.70
666.01	60.85
666.15	18.72
666.29	114.69
666.44	25.75
666.58	23.41
666.72	23.41
666.86	11.70
667.00	63.19
667.14	0.00
667.28	67.88
667.43	65.54
667.57	0.00
667.71	60.85
667.85	2.34
667.99	7.02
668.13	117.03
668.27	60.85
668.41	95.96
668.56	86.60
668.70	86.60
668.84	67.88
668.98	25.75
669.12	81.92
669.26	42.13
669.40	93.62
669.54	60.85
669.68	0.00
669.82	77.24
669.96	67.88
670.10	95.96
670.25	84.26
670.39	11.70
670.53	79.58
670.67	23.41
670.81	114.69
670.95	95.96
671.09	30.43
671.23	32.77
671.37	14.04
671.51	81.92
671.65	88.94
671.79	81.92
671.93	35.11
672.07	67.88
672.21	37.45
672.35	9.36
672.49	88.94
672.63	0.00
672.77	42.13
672.91	25.75
673.05	63.19
673.19	23.41
673.33	58.51
673.47	37.45
673.61	49.15
673.75	79.58
673.89	77.24
674.03	119.37
674.17	74.90
674.31	51.49
674.45	95.96
674.59	2.34
674.73	30.43
674.87	35.11
675.01	4.68
675.15	35.11
675.29	56.17
675.43	21.06
675.56	28.09
675.70	0.00
675.84	49.15
675.98	114.69
676.12	58.51
676.26	25.75
676.40	67.88
676.54	39.79
676.68	14.04
676.82	65.54
676.96	25.75
677.10	63.19
677.23	0.00
677.37	81.92
677.51	7.02
677.65	124.05
677.79	110.01
677.93	98.30
678.07	98.30
678.21	28.09
678.34	9.36
678.48	86.60
678.62	28.09
678.76	14.04
678.90	77.24
679.04	60.85
679.18	0.00
679.31	53.83
679.45	35.11
679.59	37.45
679.73	30.43
679.87	60.85
680.00	16.38
680.14	53.83
680.28	86.60
680.42	77.24
680.56	28.09
680.70	56.17
680.83	25.75
680.97	18.72
681.11	0.00
681.25	53.83
681.39	21.06
681.52	86.60
681.66	60.85
681.80	88.94
681.94	98.30
682.07	58.51
682.21	65.54
682.35	7.02
682.49	0.00
682.62	63.19
682.76	0.00
682.90	37.45
683.04	65.54
683.17	16.38
683.31	72.56
683.45	72.56
683.59	56.17
683.72	147.45
683.86	51.49
684.00	0.00
684.13	65.54
684.27	70.22
684.41	91.28
684.55	0.00
684.68	65.54
684.82	37.45
684.96	30.43
685.09	67.88
685.23	46.81
685.37	0.00
685.50	0.00
685.64	142.77
685.78	88.94
685.91	77.24
686.05	46.81
686.19	11.70
686.32	138.09
686.46	0.00
686.60	74.90
686.73	93.62
686.87	84.26
687.01	0.00
687.14	30.43
687.28	9.36
687.42	72.56
687.55	9.36
687.69	51.49
687.82	49.15
687.96	18.72
688.10	37.45
688.23	91.28
688.37	58.51
688.50	0.00
688.64	51.49
688.78	39.79
688.91	23.41
689.05	0.00
689.18	0.00
689.32	46.81
689.46	49.15
689.59	51.49
689.73	0.00
689.86	42.13
690.00	23.41
690.13	18.72
690.27	46.81
690.41	2.34
690.54	65.54
690.68	65.54
690.81	21.06
690.95	0.00
691.08	81.92
691.22	107.66
691.35	51.49
691.49	138.09
691.62	37.45
691.76	42.13
691.89	84.26
692.03	100.64
692.16	2.34
692.30	58.51
692.43	100.64
692.57	23.41
692.70	42.13
692.84	53.83
692.97	25.75
693.11	98.30
693.24	0.00
693.38	77.24
693.51	70.22
693.65	44.47
693.78	51.49
693.92	0.00
694.05	9.36
694.19	14.04
694.32	46.81
694.45	79.58
694.59	14.04
694.72	93.62
694.86	4.68
694.99	0.00
695.13	11.70
695.26	28.09
695.39	0.00
695.53	100.64
695.66	0.00
695.80	30.43
695.93	42.13
696.07	65.54
696.20	60.85
696.33	16.38
696.47	7.02
696.60	4.68
696.73	0.00
696.87	32.77
697.00	0.00
697.14	58.51
697.27	51.49
697.40	79.58
697.54	35.11
697.67	46.81
697.80	0.00
697.94	37.45
698.07	51.49
698.21	67.88
698.34	0.00
698.47	39.79
698.61	74.90
698.74	16.38
698.87	25.75
699.01	0.00
699.14	23.41
699.27	35.11
699.40	0.00
699.54	44.47
699.67	0.00
699.80	2.34
699.94	44.47
700.07	35.11
700.20	53.83
700.34	135.75
700.47	107.66
700.60	0.00
700.73	60.85
700.87	51.49
701.00	65.54
701.13	53.83
701.26	70.22
701.40	18.72
701.53	77.24
701.66	2.34
701.79	14.04
701.93	93.62
702.06	0.00
702.19	35.11
702.32	117.03
702.46	35.11
702.59	42.13
702.72	86.60
702.85	25.75
702.99	86.60
703.12	0.00
703.25	30.43
703.38	74.90
703.51	65.54
703.65	42.13
703.78	60.85
703.91	56.17
704.04	93.62
704.17	58.51
704.31	42.13
704.44	51.49
704.57	0.00
704.70	37.45
704.83	44.47
704.96	35.11
705.10	58.51
705.23	81.92
>>>>>End Processed Spectral Data<<<<<
