SpectraSuite Data File
++++++++++++++++++++++++++++++++++++
Date: Fri Oct 04 12:13:45 GMT-05:00 2013
User: price-jones
Dark Spectrum Present: No
Reference Spectrum Present: No
Number of Sampled Component Spectra: 1
Spectrometers: USB2+H05261
Integration Time (usec): 10000 (USB2+H05261)
Spectra Averaged: 1 (USB2+H05261)
Boxcar Smoothing: 0 (USB2+H05261)
Correct for Electrical Dark: No (USB2+H05261)
Strobe/Lamp Enabled: No (USB2+H05261)
Correct for Detector Non-linearity: No (USB2+H05261)
Correct for Stray Light: No (USB2+H05261)
Number of Pixels in Processed Spectrum: 2048
>>>>>Begin Processed Spectral Data<<<<<
365.73	0.00
365.92	0.00
366.12	0.00
366.32	0.00
366.52	0.00
366.72	0.00
366.91	0.00
367.11	0.00
367.31	0.00
367.51	0.00
367.70	0.00
367.90	0.00
368.10	0.00
368.30	0.00
368.49	0.00
368.69	0.00
368.89	0.00
369.09	0.00
369.28	0.00
369.48	0.00
369.68	0.00
369.87	0.00
370.07	0.00
370.27	0.00
370.47	0.00
370.66	0.00
370.86	0.00
371.06	0.00
371.25	0.00
371.45	4.68
371.65	0.00
371.84	0.00
372.04	0.00
372.24	21.06
372.44	0.00
372.63	46.81
372.83	0.00
373.03	37.45
373.22	21.06
373.42	4.68
373.62	77.24
373.81	58.51
374.01	49.15
374.21	0.00
374.40	49.15
374.60	23.41
374.79	81.92
374.99	95.96
375.19	0.00
375.38	51.49
375.58	18.72
375.78	0.00
375.97	60.85
376.17	35.11
376.37	49.15
376.56	65.54
376.76	58.51
376.95	28.09
377.15	51.49
377.35	25.75
377.54	44.47
377.74	51.49
377.93	102.98
378.13	0.00
378.33	84.26
378.52	39.79
378.72	0.00
378.91	35.11
379.11	7.02
379.31	58.51
379.50	46.81
379.70	46.81
379.89	58.51
380.09	32.77
380.28	110.01
380.48	84.26
380.68	44.47
380.87	53.83
381.07	4.68
381.26	14.04
381.46	44.47
381.65	9.36
381.85	0.00
382.04	0.00
382.24	21.06
382.43	0.00
382.63	30.43
382.83	4.68
383.02	0.00
383.22	58.51
383.41	0.00
383.61	0.00
383.80	21.06
384.00	9.36
384.19	58.51
384.39	32.77
384.58	72.56
384.78	16.38
384.97	121.71
385.17	18.72
385.36	37.45
385.56	0.00
385.75	0.00
385.95	30.43
386.14	77.24
386.34	53.83
386.53	18.72
386.72	0.00
386.92	51.49
387.11	37.45
387.31	0.00
387.50	25.75
387.70	0.00
387.89	25.75
388.09	11.70
388.28	9.36
388.48	0.00
388.67	77.24
388.86	28.09
389.06	0.00
389.25	28.09
389.45	16.38
389.64	4.68
389.84	46.81
390.03	11.70
390.22	0.00
390.42	14.04
390.61	11.70
390.81	7.02
391.00	0.00
391.19	56.17
391.39	4.68
391.58	16.38
391.78	30.43
391.97	51.49
392.16	35.11
392.36	91.28
392.55	0.00
392.75	53.83
392.94	44.47
393.13	0.00
393.33	0.00
393.52	51.49
393.71	37.45
393.91	25.75
394.10	67.88
394.29	32.77
394.49	60.85
394.68	46.81
394.88	30.43
395.07	60.85
395.26	65.54
395.46	0.00
395.65	0.00
395.84	60.85
396.04	53.83
396.23	35.11
396.42	0.00
396.62	46.81
396.81	18.72
397.00	0.00
397.19	0.00
397.39	7.02
397.58	0.00
397.77	16.38
397.97	32.77
398.16	30.43
398.35	49.15
398.55	58.51
398.74	70.22
398.93	0.00
399.12	86.60
399.32	0.00
399.51	7.02
399.70	25.75
399.90	14.04
400.09	0.00
400.28	63.19
400.47	65.54
400.67	9.36
400.86	65.54
401.05	14.04
401.24	25.75
401.44	30.43
401.63	28.09
401.82	0.00
402.01	0.00
402.21	0.00
402.40	0.00
402.59	39.79
402.78	0.00
402.97	30.43
403.17	56.17
403.36	9.36
403.55	51.49
403.74	42.13
403.93	51.49
404.13	0.00
404.32	49.15
404.51	79.58
404.70	2.34
404.89	39.79
405.09	14.04
405.28	56.17
405.47	0.00
405.66	46.81
405.85	4.68
406.05	23.41
406.24	28.09
406.43	0.00
406.62	21.06
406.81	46.81
407.00	95.96
407.20	18.72
407.39	0.00
407.58	25.75
407.77	0.00
407.96	53.83
408.15	4.68
408.34	70.22
408.54	0.00
408.73	0.00
408.92	21.06
409.11	11.70
409.30	2.34
409.49	35.11
409.68	25.75
409.87	0.00
410.07	7.02
410.26	46.81
410.45	44.47
410.64	4.68
410.83	42.13
411.02	4.68
411.21	0.00
411.40	18.72
411.59	9.36
411.78	2.34
411.98	23.41
412.17	32.77
412.36	23.41
412.55	30.43
412.74	79.58
412.93	2.34
413.12	53.83
413.31	65.54
413.50	14.04
413.69	16.38
413.88	35.11
414.07	42.13
414.26	21.06
414.45	11.70
414.64	32.77
414.83	0.00
415.02	4.68
415.22	7.02
415.41	37.45
415.60	18.72
415.79	49.15
415.98	18.72
416.17	65.54
416.36	28.09
416.55	28.09
416.74	74.90
416.93	16.38
417.12	74.90
417.31	35.11
417.50	88.94
417.69	35.11
417.88	16.38
418.07	28.09
418.26	18.72
418.45	37.45
418.64	11.70
418.83	0.00
419.02	0.00
419.21	18.72
419.39	60.85
419.58	0.00
419.77	53.83
419.96	110.01
420.15	0.00
420.34	21.06
420.53	0.00
420.72	67.88
420.91	16.38
421.10	72.56
421.29	23.41
421.48	70.22
421.67	0.00
421.86	0.00
422.05	0.00
422.24	0.00
422.43	32.77
422.61	0.00
422.80	0.00
422.99	0.00
423.18	79.58
423.37	58.51
423.56	49.15
423.75	9.36
423.94	58.51
424.13	16.38
424.32	23.41
424.50	60.85
424.69	0.00
424.88	18.72
425.07	11.70
425.26	0.00
425.45	32.77
425.64	42.13
425.83	28.09
426.01	44.47
426.20	53.83
426.39	51.49
426.58	25.75
426.77	37.45
426.96	16.38
427.15	46.81
427.33	42.13
427.52	28.09
427.71	79.58
427.90	46.81
428.09	63.19
428.28	25.75
428.46	100.64
428.65	16.38
428.84	9.36
429.03	112.35
429.22	30.43
429.40	0.00
429.59	60.85
429.78	18.72
429.97	42.13
430.16	74.90
430.34	51.49
430.53	56.17
430.72	23.41
430.91	0.00
431.10	112.35
431.28	0.00
431.47	0.00
431.66	88.94
431.85	16.38
432.03	35.11
432.22	65.54
432.41	91.28
432.60	32.77
432.79	95.96
432.97	100.64
433.16	0.00
433.35	0.00
433.54	0.00
433.72	65.54
433.91	0.00
434.10	11.70
434.28	0.00
434.47	46.81
434.66	56.17
434.85	0.00
435.03	4.68
435.22	30.43
435.41	25.75
435.59	161.50
435.78	11.70
435.97	28.09
436.16	0.00
436.34	0.00
436.53	35.11
436.72	0.00
436.90	21.06
437.09	4.68
437.28	9.36
437.46	23.41
437.65	53.83
437.84	14.04
438.02	63.19
438.21	159.16
438.40	44.47
438.58	0.00
438.77	14.04
438.96	25.75
439.14	60.85
439.33	28.09
439.52	72.56
439.70	65.54
439.89	4.68
440.08	63.19
440.26	72.56
440.45	37.45
440.63	0.00
440.82	95.96
441.01	86.60
441.19	30.43
441.38	7.02
441.57	65.54
441.75	0.00
441.94	49.15
442.12	39.79
442.31	53.83
442.50	0.00
442.68	4.68
442.87	51.49
443.05	56.17
443.24	88.94
443.43	44.47
443.61	23.41
443.80	4.68
443.98	63.19
444.17	0.00
444.35	70.22
444.54	0.00
444.73	32.77
444.91	16.38
445.10	0.00
445.28	51.49
445.47	53.83
445.65	0.00
445.84	0.00
446.02	0.00
446.21	67.88
446.39	30.43
446.58	11.70
446.77	70.22
446.95	18.72
447.14	117.03
447.32	0.00
447.51	79.58
447.69	105.32
447.88	56.17
448.06	70.22
448.25	0.00
448.43	25.75
448.62	0.00
448.80	72.56
448.99	0.00
449.17	0.00
449.36	107.66
449.54	53.83
449.73	0.00
449.91	28.09
450.10	81.92
450.28	11.70
450.46	65.54
450.65	0.00
450.83	0.00
451.02	4.68
451.20	0.00
451.39	124.05
451.57	65.54
451.76	51.49
451.94	30.43
452.13	81.92
452.31	9.36
452.49	46.81
452.68	58.51
452.86	65.54
453.05	0.00
453.23	100.64
453.42	30.43
453.60	53.83
453.78	35.11
453.97	0.00
454.15	35.11
454.34	161.50
454.52	37.45
454.70	53.83
454.89	56.17
455.07	51.49
455.26	53.83
455.44	67.88
455.62	42.13
455.81	0.00
455.99	0.00
456.17	44.47
456.36	117.03
456.54	60.85
456.73	11.70
456.91	65.54
457.09	4.68
457.28	65.54
457.46	56.17
457.64	0.00
457.83	4.68
458.01	77.24
458.19	0.00
458.38	23.41
458.56	81.92
458.74	0.00
458.93	105.32
459.11	72.56
459.29	79.58
459.48	9.36
459.66	70.22
459.84	159.16
460.03	18.72
460.21	91.28
460.39	0.00
460.57	51.49
460.76	70.22
460.94	11.70
461.12	0.00
461.31	21.06
461.49	0.00
461.67	37.45
461.85	14.04
462.04	4.68
462.22	65.54
462.40	91.28
462.59	67.88
462.77	81.92
462.95	65.54
463.13	37.45
463.32	65.54
463.50	56.17
463.68	4.68
463.86	79.58
464.05	30.43
464.23	67.88
464.41	65.54
464.59	18.72
464.78	35.11
464.96	140.43
465.14	21.06
465.32	56.17
465.50	86.60
465.69	42.13
465.87	56.17
466.05	9.36
466.23	16.38
466.41	2.34
466.60	0.00
466.78	53.83
466.96	0.00
467.14	72.56
467.32	0.00
467.51	25.75
467.69	32.77
467.87	102.98
468.05	0.00
468.23	21.06
468.41	7.02
468.60	39.79
468.78	74.90
468.96	74.90
469.14	18.72
469.32	44.47
469.50	37.45
469.69	16.38
469.87	79.58
470.05	39.79
470.23	79.58
470.41	58.51
470.59	46.81
470.77	0.00
470.95	102.98
471.14	37.45
471.32	9.36
471.50	86.60
471.68	44.47
471.86	98.30
472.04	58.51
472.22	53.83
472.40	16.38
472.58	7.02
472.77	60.85
472.95	37.45
473.13	70.22
473.31	35.11
473.49	0.00
473.67	65.54
473.85	21.06
474.03	51.49
474.21	0.00
474.39	9.36
474.57	37.45
474.75	58.51
474.93	16.38
475.12	93.62
475.30	60.85
475.48	14.04
475.66	0.00
475.84	0.00
476.02	65.54
476.20	84.26
476.38	14.04
476.56	42.13
476.74	25.75
476.92	30.43
477.10	46.81
477.28	7.02
477.46	65.54
477.64	72.56
477.82	56.17
478.00	16.38
478.18	0.00
478.36	67.88
478.54	60.85
478.72	112.35
478.90	77.24
479.08	28.09
479.26	0.00
479.44	2.34
479.62	81.92
479.80	21.06
479.98	65.54
480.16	46.81
480.34	4.68
480.52	30.43
480.70	44.47
480.88	53.83
481.06	2.34
481.24	11.70
481.41	63.19
481.59	65.54
481.77	39.79
481.95	9.36
482.13	79.58
482.31	65.54
482.49	7.02
482.67	81.92
482.85	46.81
483.03	7.02
483.21	107.66
483.39	39.79
483.57	42.13
483.74	2.34
483.92	79.58
484.10	53.83
484.28	72.56
484.46	2.34
484.64	39.79
484.82	0.00
485.00	0.00
485.18	58.51
485.35	28.09
485.53	46.81
485.71	86.60
485.89	18.72
486.07	11.70
486.25	46.81
486.43	53.83
486.61	126.39
486.78	74.90
486.96	7.02
487.14	39.79
487.32	21.06
487.50	42.13
487.68	49.15
487.85	67.88
488.03	84.26
488.21	72.56
488.39	77.24
488.57	56.17
488.75	49.15
488.92	30.43
489.10	56.17
489.28	81.92
489.46	74.90
489.64	42.13
489.81	9.36
489.99	0.00
490.17	39.79
490.35	42.13
490.53	53.83
490.70	81.92
490.88	25.75
491.06	117.03
491.24	67.88
491.41	63.19
491.59	53.83
491.77	53.83
491.95	58.51
492.13	46.81
492.30	21.06
492.48	7.02
492.66	2.34
492.84	35.11
493.01	51.49
493.19	46.81
493.37	0.00
493.54	46.81
493.72	35.11
493.90	23.41
494.08	42.13
494.25	53.83
494.43	117.03
494.61	21.06
494.79	91.28
494.96	0.00
495.14	72.56
495.32	37.45
495.49	37.45
495.67	35.11
495.85	84.26
496.02	114.69
496.20	70.22
496.38	35.11
496.55	60.85
496.73	72.56
496.91	70.22
497.09	0.00
497.26	32.77
497.44	117.03
497.62	0.00
497.79	23.41
497.97	86.60
498.14	51.49
498.32	35.11
498.50	46.81
498.67	53.83
498.85	98.30
499.03	63.19
499.20	86.60
499.38	60.85
499.56	37.45
499.73	28.09
499.91	93.62
500.08	56.17
500.26	28.09
500.44	0.00
500.61	58.51
500.79	37.45
500.97	100.64
501.14	42.13
501.32	84.26
501.49	49.15
501.67	74.90
501.84	79.58
502.02	2.34
502.20	91.28
502.37	93.62
502.55	159.16
502.72	0.00
502.90	0.00
503.07	37.45
503.25	86.60
503.43	0.00
503.60	44.47
503.78	0.00
503.95	32.77
504.13	14.04
504.30	14.04
504.48	4.68
504.65	74.90
504.83	95.96
505.01	91.28
505.18	58.51
505.36	102.98
505.53	0.00
505.71	79.58
505.88	74.90
506.06	46.81
506.23	79.58
506.41	53.83
506.58	51.49
506.76	25.75
506.93	9.36
507.11	18.72
507.28	65.54
507.46	88.94
507.63	86.60
507.81	0.00
507.98	49.15
508.16	51.49
508.33	16.38
508.50	7.02
508.68	107.66
508.85	74.90
509.03	0.00
509.20	23.41
509.38	0.00
509.55	42.13
509.73	30.43
509.90	30.43
510.08	72.56
510.25	42.13
510.42	21.06
510.60	42.13
510.77	42.13
510.95	86.60
511.12	16.38
511.30	42.13
511.47	11.70
511.64	46.81
511.82	39.79
511.99	0.00
512.17	39.79
512.34	86.60
512.51	23.41
512.69	42.13
512.86	93.62
513.04	25.75
513.21	95.96
513.38	18.72
513.56	72.56
513.73	81.92
513.90	65.54
514.08	11.70
514.25	63.19
514.43	63.19
514.60	56.17
514.77	35.11
514.95	0.00
515.12	177.88
515.29	28.09
515.47	95.96
515.64	46.81
515.81	9.36
515.99	70.22
516.16	98.30
516.33	42.13
516.51	65.54
516.68	77.24
516.85	60.85
517.03	16.38
517.20	46.81
517.37	58.51
517.54	0.00
517.72	18.72
517.89	21.06
518.06	79.58
518.24	63.19
518.41	46.81
518.58	91.28
518.75	21.06
518.93	56.17
519.10	42.13
519.27	23.41
519.45	37.45
519.62	35.11
519.79	9.36
519.96	0.00
520.14	0.00
520.31	0.00
520.48	56.17
520.65	44.47
520.83	21.06
521.00	0.00
521.17	65.54
521.34	39.79
521.52	28.09
521.69	67.88
521.86	28.09
522.03	21.06
522.20	79.58
522.38	126.39
522.55	44.47
522.72	42.13
522.89	63.19
523.07	81.92
523.24	46.81
523.41	63.19
523.58	56.17
523.75	67.88
523.92	39.79
524.10	23.41
524.27	25.75
524.44	93.62
524.61	128.73
524.78	51.49
524.96	4.68
525.13	49.15
525.30	81.92
525.47	23.41
525.64	44.47
525.81	49.15
525.98	60.85
526.16	67.88
526.33	56.17
526.50	25.75
526.67	0.00
526.84	0.00
527.01	35.11
527.18	0.00
527.36	32.77
527.53	46.81
527.70	30.43
527.87	60.85
528.04	65.54
528.21	18.72
528.38	105.32
528.55	0.00
528.72	9.36
528.89	46.81
529.07	88.94
529.24	25.75
529.41	11.70
529.58	49.15
529.75	23.41
529.92	18.72
530.09	32.77
530.26	70.22
530.43	28.09
530.60	60.85
530.77	30.43
530.94	79.58
531.11	58.51
531.28	114.69
531.46	0.00
531.63	56.17
531.80	35.11
531.97	121.71
532.14	21.06
532.31	28.09
532.48	60.85
532.65	84.26
532.82	70.22
532.99	121.71
533.16	88.94
533.33	63.19
533.50	77.24
533.67	11.70
533.84	46.81
534.01	79.58
534.18	107.66
534.35	28.09
534.52	4.68
534.69	35.11
534.86	14.04
535.03	88.94
535.20	0.00
535.37	37.45
535.54	63.19
535.71	46.81
535.88	63.19
536.05	49.15
536.22	0.00
536.38	63.19
536.55	25.75
536.72	42.13
536.89	37.45
537.06	100.64
537.23	77.24
537.40	67.88
537.57	53.83
537.74	124.05
537.91	35.11
538.08	21.06
538.25	9.36
538.42	84.26
538.59	100.64
538.75	23.41
538.92	65.54
539.09	65.54
539.26	100.64
539.43	67.88
539.60	102.98
539.77	88.94
539.94	0.00
540.11	2.34
540.28	0.00
540.44	14.04
540.61	11.70
540.78	53.83
540.95	74.90
541.12	124.05
541.29	0.00
541.46	32.77
541.62	32.77
541.79	91.28
541.96	21.06
542.13	30.43
542.30	9.36
542.47	0.00
542.63	53.83
542.80	105.32
542.97	88.94
543.14	4.68
543.31	28.09
543.48	102.98
543.64	72.56
543.81	56.17
543.98	91.28
544.15	70.22
544.32	18.72
544.48	53.83
544.65	0.00
544.82	72.56
544.99	91.28
545.16	18.72
545.32	18.72
545.49	25.75
545.66	51.49
545.83	72.56
546.00	79.58
546.16	51.49
546.33	86.60
546.50	49.15
546.67	4.68
546.83	35.11
547.00	77.24
547.17	0.00
547.34	0.00
547.50	0.00
547.67	35.11
547.84	16.38
548.00	0.00
548.17	39.79
548.34	74.90
548.51	16.38
548.67	21.06
548.84	28.09
549.01	0.00
549.18	46.81
549.34	95.96
549.51	11.70
549.68	154.48
549.84	46.81
550.01	102.98
550.18	9.36
550.34	58.51
550.51	112.35
550.68	79.58
550.84	142.77
551.01	0.00
551.18	39.79
551.34	32.77
551.51	25.75
551.68	14.04
551.84	21.06
552.01	4.68
552.18	37.45
552.34	2.34
552.51	2.34
552.68	30.43
552.84	117.03
553.01	46.81
553.18	72.56
553.34	56.17
553.51	9.36
553.67	0.00
553.84	77.24
554.01	72.56
554.17	21.06
554.34	72.56
554.51	58.51
554.67	30.43
554.84	23.41
555.00	28.09
555.17	0.00
555.33	56.17
555.50	14.04
555.67	2.34
555.83	86.60
556.00	11.70
556.16	30.43
556.33	42.13
556.50	72.56
556.66	79.58
556.83	32.77
556.99	56.17
557.16	105.32
557.32	81.92
557.49	105.32
557.65	100.64
557.82	37.45
557.98	72.56
558.15	65.54
558.32	11.70
558.48	56.17
558.65	51.49
558.81	14.04
558.98	0.00
559.14	56.17
559.31	105.32
559.47	114.69
559.64	95.96
559.80	4.68
559.97	25.75
560.13	74.90
560.30	25.75
560.46	138.09
560.63	95.96
560.79	37.45
560.96	9.36
561.12	0.00
561.29	74.90
561.45	86.60
561.61	65.54
561.78	56.17
561.94	32.77
562.11	35.11
562.27	37.45
562.44	93.62
562.60	67.88
562.77	88.94
562.93	0.00
563.10	105.32
563.26	9.36
563.42	56.17
563.59	119.37
563.75	63.19
563.92	30.43
564.08	102.98
564.24	0.00
564.41	91.28
564.57	11.70
564.74	58.51
564.90	44.47
565.07	46.81
565.23	32.77
565.39	107.66
565.56	42.13
565.72	0.00
565.88	0.00
566.05	25.75
566.21	65.54
566.38	79.58
566.54	58.51
566.70	149.79
566.87	86.60
567.03	58.51
567.19	100.64
567.36	0.00
567.52	32.77
567.68	14.04
567.85	23.41
568.01	32.77
568.17	0.00
568.34	23.41
568.50	46.81
568.66	88.94
568.83	107.66
568.99	0.00
569.15	98.30
569.32	46.81
569.48	14.04
569.64	30.43
569.81	0.00
569.97	39.79
570.13	49.15
570.30	25.75
570.46	42.13
570.62	37.45
570.78	58.51
570.95	49.15
571.11	72.56
571.27	0.00
571.43	2.34
571.60	42.13
571.76	30.43
571.92	65.54
572.09	25.75
572.25	95.96
572.41	0.00
572.57	91.28
572.74	105.32
572.90	46.81
573.06	102.98
573.22	53.83
573.38	30.43
573.55	18.72
573.71	44.47
573.87	84.26
574.03	93.62
574.20	39.79
574.36	100.64
574.52	70.22
574.68	35.11
574.84	30.43
575.01	16.38
575.17	72.56
575.33	0.00
575.49	112.35
575.65	9.36
575.82	39.79
575.98	81.92
576.14	23.41
576.30	46.81
576.46	49.15
576.62	0.00
576.79	98.30
576.95	18.72
577.11	65.54
577.27	0.00
577.43	60.85
577.59	95.96
577.75	121.71
577.92	58.51
578.08	18.72
578.24	93.62
578.40	2.34
578.56	88.94
578.72	37.45
578.88	49.15
579.04	46.81
579.21	56.17
579.37	23.41
579.53	4.68
579.69	88.94
579.85	23.41
580.01	42.13
580.17	4.68
580.33	0.00
580.49	65.54
580.65	53.83
580.82	0.00
580.98	60.85
581.14	119.37
581.30	0.00
581.46	0.00
581.62	74.90
581.78	72.56
581.94	39.79
582.10	84.26
582.26	74.90
582.42	74.90
582.58	72.56
582.74	88.94
582.90	88.94
583.06	14.04
583.22	70.22
583.38	79.58
583.54	67.88
583.70	35.11
583.86	56.17
584.02	23.41
584.18	51.49
584.34	7.02
584.50	42.13
584.66	25.75
584.82	32.77
584.98	74.90
585.14	21.06
585.30	42.13
585.46	21.06
585.62	93.62
585.78	18.72
585.94	39.79
586.10	0.00
586.26	18.72
586.42	79.58
586.58	14.04
586.74	21.06
586.90	18.72
587.06	86.60
587.22	32.77
587.38	65.54
587.54	49.15
587.70	56.17
587.86	88.94
588.02	56.17
588.18	9.36
588.34	7.02
588.49	44.47
588.65	56.17
588.81	28.09
588.97	0.00
589.13	100.64
589.29	77.24
589.45	51.49
589.61	56.17
589.77	72.56
589.93	0.00
590.08	32.77
590.24	11.70
590.40	7.02
590.56	23.41
590.72	39.79
590.88	56.17
591.04	67.88
591.20	18.72
591.35	32.77
591.51	35.11
591.67	39.79
591.83	86.60
591.99	18.72
592.15	67.88
592.31	63.19
592.46	72.56
592.62	72.56
592.78	91.28
592.94	23.41
593.10	2.34
593.26	0.00
593.41	49.15
593.57	37.45
593.73	117.03
593.89	18.72
594.05	86.60
594.20	28.09
594.36	35.11
594.52	4.68
594.68	39.79
594.84	16.38
594.99	0.00
595.15	91.28
595.31	39.79
595.47	46.81
595.62	56.17
595.78	42.13
595.94	74.90
596.10	58.51
596.25	30.43
596.41	81.92
596.57	44.47
596.73	74.90
596.88	72.56
597.04	70.22
597.20	14.04
597.36	37.45
597.51	0.00
597.67	4.68
597.83	42.13
597.99	154.48
598.14	25.75
598.30	14.04
598.46	49.15
598.61	84.26
598.77	131.07
598.93	18.72
599.09	67.88
599.24	9.36
599.40	32.77
599.56	65.54
599.71	42.13
599.87	14.04
600.03	72.56
600.18	44.47
600.34	81.92
600.50	53.83
600.65	18.72
600.81	0.00
600.97	49.15
601.12	44.47
601.28	124.05
601.44	28.09
601.59	39.79
601.75	58.51
601.91	49.15
602.06	46.81
602.22	16.38
602.37	58.51
602.53	46.81
602.69	53.83
602.84	63.19
603.00	14.04
603.16	4.68
603.31	0.00
603.47	107.66
603.62	49.15
603.78	28.09
603.94	0.00
604.09	70.22
604.25	25.75
604.40	37.45
604.56	79.58
604.71	121.71
604.87	84.26
605.03	30.43
605.18	0.00
605.34	11.70
605.49	9.36
605.65	74.90
605.80	25.75
605.96	16.38
606.12	72.56
606.27	70.22
606.43	67.88
606.58	39.79
606.74	30.43
606.89	86.60
607.05	67.88
607.20	30.43
607.36	37.45
607.51	32.77
607.67	42.13
607.82	63.19
607.98	44.47
608.13	72.56
608.29	58.51
608.44	21.06
608.60	112.35
608.75	0.00
608.91	39.79
609.06	23.41
609.22	56.17
609.37	28.09
609.53	32.77
609.68	91.28
609.84	91.28
609.99	84.26
610.15	0.00
610.30	9.36
610.46	88.94
610.61	37.45
610.76	67.88
610.92	56.17
611.07	53.83
611.23	51.49
611.38	72.56
611.54	91.28
611.69	37.45
611.84	63.19
612.00	0.00
612.15	0.00
612.31	0.00
612.46	93.62
612.62	161.50
612.77	0.00
612.92	9.36
613.08	4.68
613.23	77.24
613.39	67.88
613.54	18.72
613.69	23.41
613.85	44.47
614.00	72.56
614.15	51.49
614.31	28.09
614.46	67.88
614.62	0.00
614.77	124.05
614.92	35.11
615.08	60.85
615.23	100.64
615.38	65.54
615.54	4.68
615.69	67.88
615.84	44.47
616.00	25.75
616.15	21.06
616.30	56.17
616.46	60.85
616.61	114.69
616.76	60.85
616.92	81.92
617.07	84.26
617.22	79.58
617.37	102.98
617.53	7.02
617.68	63.19
617.83	0.00
617.99	35.11
618.14	23.41
618.29	49.15
618.45	119.37
618.60	79.58
618.75	42.13
618.90	79.58
619.06	0.00
619.21	88.94
619.36	44.47
619.51	14.04
619.67	0.00
619.82	23.41
619.97	39.79
620.12	67.88
620.28	2.34
620.43	18.72
620.58	21.06
620.73	67.88
620.89	79.58
621.04	16.38
621.19	0.00
621.34	58.51
621.49	18.72
621.65	21.06
621.80	32.77
621.95	77.24
622.10	44.47
622.25	65.54
622.41	86.60
622.56	37.45
622.71	51.49
622.86	11.70
623.01	28.09
623.16	42.13
623.32	28.09
623.47	23.41
623.62	46.81
623.77	77.24
623.92	65.54
624.07	84.26
624.23	46.81
624.38	23.41
624.53	16.38
624.68	11.70
624.83	86.60
624.98	42.13
625.13	79.58
625.29	49.15
625.44	93.62
625.59	7.02
625.74	95.96
625.89	46.81
626.04	0.00
626.19	37.45
626.34	119.37
626.49	32.77
626.65	0.00
626.80	0.00
626.95	30.43
627.10	18.72
627.25	100.64
627.40	84.26
627.55	0.00
627.70	60.85
627.85	58.51
628.00	0.00
628.15	32.77
628.30	114.69
628.45	32.77
628.60	4.68
628.76	110.01
628.91	28.09
629.06	0.00
629.21	42.13
629.36	70.22
629.51	60.85
629.66	0.00
629.81	51.49
629.96	60.85
630.11	56.17
630.26	67.88
630.41	84.26
630.56	63.19
630.71	30.43
630.86	133.41
631.01	79.58
631.16	46.81
631.31	126.39
631.46	9.36
631.61	58.51
631.76	0.00
631.91	0.00
632.06	23.41
632.21	7.02
632.36	0.00
632.51	0.00
632.66	4.68
632.81	11.70
632.96	0.00
633.10	18.72
633.25	9.36
633.40	37.45
633.55	107.66
633.70	0.00
633.85	11.70
634.00	11.70
634.15	18.72
634.30	0.00
634.45	25.75
634.60	21.06
634.75	65.54
634.90	23.41
635.05	60.85
635.19	67.88
635.34	37.45
635.49	117.03
635.64	30.43
635.79	63.19
635.94	49.15
636.09	91.28
636.24	98.30
636.39	49.15
636.53	9.36
636.68	49.15
636.83	56.17
636.98	46.81
637.13	9.36
637.28	11.70
637.43	95.96
637.57	81.92
637.72	79.58
637.87	53.83
638.02	30.43
638.17	0.00
638.32	70.22
638.46	16.38
638.61	0.00
638.76	9.36
638.91	74.90
639.06	138.09
639.20	21.06
639.35	65.54
639.50	63.19
639.65	16.38
639.80	21.06
639.94	0.00
640.09	110.01
640.24	51.49
640.39	35.11
640.54	81.92
640.68	60.85
640.83	0.00
640.98	67.88
641.13	28.09
641.27	9.36
641.42	11.70
641.57	11.70
641.72	0.00
641.86	25.75
642.01	0.00
642.16	14.04
642.31	49.15
642.45	65.54
642.60	107.66
642.75	49.15
642.90	32.77
643.04	0.00
643.19	44.47
643.34	51.49
643.48	42.13
643.63	32.77
643.78	63.19
643.93	0.00
644.07	53.83
644.22	49.15
644.37	14.04
644.51	0.00
644.66	77.24
644.81	25.75
644.95	93.62
645.10	74.90
645.25	25.75
645.39	84.26
645.54	35.11
645.69	18.72
645.83	14.04
645.98	18.72
646.13	56.17
646.27	30.43
646.42	21.06
646.57	7.02
646.71	28.09
646.86	14.04
647.00	0.00
647.15	0.00
647.30	0.00
647.44	42.13
647.59	0.00
647.74	44.47
647.88	0.00
648.03	30.43
648.17	16.38
648.32	0.00
648.47	16.38
648.61	42.13
648.76	18.72
648.90	65.54
649.05	18.72
649.20	0.00
649.34	0.00
649.49	53.83
649.63	14.04
649.78	25.75
649.92	95.96
650.07	65.54
650.21	77.24
650.36	110.01
650.51	63.19
650.65	70.22
650.80	58.51
650.94	25.75
651.09	49.15
651.23	60.85
651.38	91.28
651.52	0.00
651.67	72.56
651.81	25.75
651.96	100.64
652.10	51.49
652.25	30.43
652.39	32.77
652.54	74.90
652.68	30.43
652.83	49.15
652.97	39.79
653.12	65.54
653.26	105.32
653.41	166.18
653.55	46.81
653.70	28.09
653.84	51.49
653.99	77.24
654.13	86.60
654.27	28.09
654.42	44.47
654.56	63.19
654.71	46.81
654.85	51.49
655.00	28.09
655.14	23.41
655.29	4.68
655.43	63.19
655.57	0.00
655.72	131.07
655.86	9.36
656.01	70.22
656.15	72.56
656.30	16.38
656.44	0.00
656.58	39.79
656.73	86.60
656.87	51.49
657.01	37.45
657.16	44.47
657.30	84.26
657.45	2.34
657.59	84.26
657.73	86.60
657.88	7.02
658.02	91.28
658.16	0.00
658.31	21.06
658.45	23.41
658.60	4.68
658.74	21.06
658.88	11.70
659.03	32.77
659.17	70.22
659.31	42.13
659.46	140.43
659.60	49.15
659.74	9.36
659.89	9.36
660.03	42.13
660.17	9.36
660.32	72.56
660.46	30.43
660.60	0.00
660.74	44.47
660.89	77.24
661.03	14.04
661.17	65.54
661.32	46.81
661.46	74.90
661.60	9.36
661.74	2.34
661.89	2.34
662.03	53.83
662.17	44.47
662.31	11.70
662.46	72.56
662.60	4.68
662.74	14.04
662.88	67.88
663.03	44.47
663.17	51.49
663.31	25.75
663.45	25.75
663.60	16.38
663.74	53.83
663.88	77.24
664.02	74.90
664.17	51.49
664.31	11.70
664.45	60.85
664.59	4.68
664.73	74.90
664.88	7.02
665.02	56.17
665.16	25.75
665.30	32.77
665.44	86.60
665.59	14.04
665.73	25.75
665.87	30.43
666.01	53.83
666.15	53.83
666.29	30.43
666.44	0.00
666.58	0.00
666.72	0.00
666.86	0.00
667.00	0.00
667.14	35.11
667.28	65.54
667.43	0.00
667.57	88.94
667.71	7.02
667.85	18.72
667.99	91.28
668.13	44.47
668.27	18.72
668.41	102.98
668.56	0.00
668.70	102.98
668.84	23.41
668.98	121.71
669.12	46.81
669.26	46.81
669.40	0.00
669.54	18.72
669.68	0.00
669.82	51.49
669.96	56.17
670.10	49.15
670.25	53.83
670.39	60.85
670.53	42.13
670.67	32.77
670.81	0.00
670.95	51.49
671.09	23.41
671.23	35.11
671.37	72.56
671.51	37.45
671.65	28.09
671.79	0.00
671.93	30.43
672.07	51.49
672.21	37.45
672.35	0.00
672.49	32.77
672.63	42.13
672.77	0.00
672.91	11.70
673.05	23.41
673.19	30.43
673.33	25.75
673.47	4.68
673.61	0.00
673.75	91.28
673.89	28.09
674.03	0.00
674.17	51.49
674.31	28.09
674.45	18.72
674.59	9.36
674.73	39.79
674.87	9.36
675.01	44.47
675.15	65.54
675.29	149.79
675.43	35.11
675.56	0.00
675.70	0.00
675.84	37.45
675.98	37.45
676.12	28.09
676.26	14.04
676.40	18.72
676.54	121.71
676.68	51.49
676.82	0.00
676.96	23.41
677.10	117.03
677.23	21.06
677.37	46.81
677.51	0.00
677.65	32.77
677.79	25.75
677.93	56.17
678.07	0.00
678.21	23.41
678.34	18.72
678.48	9.36
678.62	53.83
678.76	30.43
678.90	37.45
679.04	63.19
679.18	0.00
679.31	23.41
679.45	65.54
679.59	21.06
679.73	63.19
679.87	46.81
680.00	63.19
680.14	86.60
680.28	60.85
680.42	11.70
680.56	42.13
680.70	81.92
680.83	35.11
680.97	51.49
681.11	51.49
681.25	53.83
681.39	58.51
681.52	0.00
681.66	56.17
681.80	56.17
681.94	60.85
682.07	49.15
682.21	42.13
682.35	32.77
682.49	16.38
682.62	25.75
682.76	9.36
682.90	44.47
683.04	58.51
683.17	0.00
683.31	117.03
683.45	49.15
683.59	60.85
683.72	0.00
683.86	65.54
684.00	0.00
684.13	74.90
684.27	39.79
684.41	42.13
684.55	2.34
684.68	44.47
684.82	58.51
684.96	60.85
685.09	28.09
685.23	32.77
685.37	32.77
685.50	77.24
685.64	65.54
685.78	49.15
685.91	44.47
686.05	35.11
686.19	2.34
686.32	16.38
686.46	0.00
686.60	9.36
686.73	77.24
686.87	44.47
687.01	39.79
687.14	107.66
687.28	81.92
687.42	32.77
687.55	39.79
687.69	9.36
687.82	72.56
687.96	37.45
688.10	81.92
688.23	4.68
688.37	11.70
688.50	0.00
688.64	60.85
688.78	0.00
688.91	28.09
689.05	25.75
689.18	0.00
689.32	9.36
689.46	18.72
689.59	44.47
689.73	84.26
689.86	0.00
690.00	63.19
690.13	0.00
690.27	0.00
690.41	0.00
690.54	84.26
690.68	18.72
690.81	0.00
690.95	0.00
691.08	2.34
691.22	0.00
691.35	18.72
691.49	28.09
691.62	88.94
691.76	7.02
691.89	44.47
692.03	0.00
692.16	46.81
692.30	30.43
692.43	30.43
692.57	63.19
692.70	21.06
692.84	0.00
692.97	95.96
693.11	23.41
693.24	4.68
693.38	28.09
693.51	18.72
693.65	2.34
693.78	46.81
693.92	7.02
694.05	23.41
694.19	65.54
694.32	37.45
694.45	58.51
694.59	11.70
694.72	56.17
694.86	37.45
694.99	35.11
695.13	21.06
695.26	53.83
695.39	18.72
695.53	16.38
695.66	70.22
695.80	42.13
695.93	77.24
696.07	46.81
696.20	88.94
696.33	44.47
696.47	14.04
696.60	25.75
696.73	93.62
696.87	0.00
697.00	0.00
697.14	14.04
697.27	32.77
697.40	18.72
697.54	9.36
697.67	0.00
697.80	70.22
697.94	0.00
698.07	2.34
698.21	25.75
698.34	0.00
698.47	9.36
698.61	37.45
698.74	58.51
698.87	51.49
699.01	35.11
699.14	28.09
699.27	32.77
699.40	32.77
699.54	23.41
699.67	67.88
699.80	51.49
699.94	0.00
700.07	51.49
700.20	0.00
700.34	88.94
700.47	14.04
700.60	86.60
700.73	0.00
700.87	63.19
701.00	37.45
701.13	46.81
701.26	63.19
701.40	21.06
701.53	67.88
701.66	23.41
701.79	32.77
701.93	37.45
702.06	84.26
702.19	39.79
702.32	23.41
702.46	21.06
702.59	63.19
702.72	35.11
702.85	67.88
702.99	53.83
703.12	23.41
703.25	49.15
703.38	56.17
703.51	0.00
703.65	0.00
703.78	30.43
703.91	65.54
704.04	86.60
704.17	81.92
704.31	0.00
704.44	44.47
704.57	39.79
704.70	100.64
704.83	9.36
704.96	42.13
705.10	11.70
705.23	93.62
>>>>>End Processed Spectral Data<<<<<
