SpectraSuite Data File
++++++++++++++++++++++++++++++++++++
Date: Fri Oct 04 12:13:35 GMT-05:00 2013
User: price-jones
Dark Spectrum Present: No
Reference Spectrum Present: No
Number of Sampled Component Spectra: 1
Spectrometers: USB2+H05261
Integration Time (usec): 10000 (USB2+H05261)
Spectra Averaged: 1 (USB2+H05261)
Boxcar Smoothing: 0 (USB2+H05261)
Correct for Electrical Dark: No (USB2+H05261)
Strobe/Lamp Enabled: No (USB2+H05261)
Correct for Detector Non-linearity: No (USB2+H05261)
Correct for Stray Light: No (USB2+H05261)
Number of Pixels in Processed Spectrum: 2048
>>>>>Begin Processed Spectral Data<<<<<
365.73	0.00
365.92	0.00
366.12	0.00
366.32	0.00
366.52	0.00
366.72	0.00
366.91	0.00
367.11	0.00
367.31	0.00
367.51	0.00
367.70	0.00
367.90	0.00
368.10	0.00
368.30	0.00
368.49	0.00
368.69	0.00
368.89	0.00
369.09	0.00
369.28	0.00
369.48	0.00
369.68	0.00
369.87	0.00
370.07	0.00
370.27	0.00
370.47	0.00
370.66	0.00
370.86	0.00
371.06	25.75
371.25	4.68
371.45	0.00
371.65	0.00
371.84	0.00
372.04	0.00
372.24	0.00
372.44	79.58
372.63	9.36
372.83	14.04
373.03	0.00
373.22	0.00
373.42	30.43
373.62	35.11
373.81	58.51
374.01	14.04
374.21	14.04
374.40	42.13
374.60	58.51
374.79	7.02
374.99	60.85
375.19	60.85
375.38	0.00
375.58	14.04
375.78	0.00
375.97	65.54
376.17	39.79
376.37	72.56
376.56	42.13
376.76	74.90
376.95	0.00
377.15	88.94
377.35	39.79
377.54	53.83
377.74	30.43
377.93	46.81
378.13	18.72
378.33	23.41
378.52	67.88
378.72	42.13
378.91	25.75
379.11	32.77
379.31	35.11
379.50	30.43
379.70	0.00
379.89	42.13
380.09	0.00
380.28	0.00
380.48	42.13
380.68	0.00
380.87	9.36
381.07	0.00
381.26	0.00
381.46	39.79
381.65	2.34
381.85	0.00
382.04	0.00
382.24	30.43
382.43	0.00
382.63	0.00
382.83	14.04
383.02	46.81
383.22	0.00
383.41	37.45
383.61	0.00
383.80	0.00
384.00	81.92
384.19	39.79
384.39	63.19
384.58	65.54
384.78	39.79
384.97	7.02
385.17	0.00
385.36	58.51
385.56	0.00
385.75	18.72
385.95	46.81
386.14	51.49
386.34	0.00
386.53	58.51
386.72	0.00
386.92	0.00
387.11	0.00
387.31	2.34
387.50	0.00
387.70	72.56
387.89	0.00
388.09	9.36
388.28	0.00
388.48	0.00
388.67	35.11
388.86	39.79
389.06	51.49
389.25	0.00
389.45	35.11
389.64	86.60
389.84	72.56
390.03	51.49
390.22	0.00
390.42	0.00
390.61	53.83
390.81	0.00
391.00	18.72
391.19	0.00
391.39	98.30
391.58	60.85
391.78	35.11
391.97	4.68
392.16	25.75
392.36	53.83
392.55	74.90
392.75	39.79
392.94	0.00
393.13	28.09
393.33	7.02
393.52	0.00
393.71	23.41
393.91	49.15
394.10	58.51
394.29	7.02
394.49	0.00
394.68	56.17
394.88	51.49
395.07	35.11
395.26	18.72
395.46	9.36
395.65	35.11
395.84	23.41
396.04	21.06
396.23	18.72
396.42	14.04
396.62	0.00
396.81	9.36
397.00	4.68
397.19	70.22
397.39	51.49
397.58	37.45
397.77	51.49
397.97	37.45
398.16	0.00
398.35	95.96
398.55	0.00
398.74	35.11
398.93	18.72
399.12	0.00
399.32	0.00
399.51	7.02
399.70	21.06
399.90	65.54
400.09	70.22
400.28	39.79
400.47	18.72
400.67	58.51
400.86	0.00
401.05	0.00
401.24	32.77
401.44	14.04
401.63	0.00
401.82	39.79
402.01	28.09
402.21	93.62
402.40	35.11
402.59	23.41
402.78	0.00
402.97	2.34
403.17	60.85
403.36	70.22
403.55	32.77
403.74	35.11
403.93	35.11
404.13	142.77
404.32	65.54
404.51	7.02
404.70	56.17
404.89	23.41
405.09	0.00
405.28	21.06
405.47	49.15
405.66	0.00
405.85	46.81
406.05	53.83
406.24	53.83
406.43	25.75
406.62	39.79
406.81	14.04
407.00	81.92
407.20	58.51
407.39	39.79
407.58	0.00
407.77	21.06
407.96	46.81
408.15	23.41
408.34	7.02
408.54	7.02
408.73	0.00
408.92	0.00
409.11	18.72
409.30	0.00
409.49	37.45
409.68	32.77
409.87	4.68
410.07	81.92
410.26	32.77
410.45	91.28
410.64	30.43
410.83	56.17
411.02	58.51
411.21	16.38
411.40	42.13
411.59	60.85
411.78	63.19
411.98	128.73
412.17	28.09
412.36	14.04
412.55	39.79
412.74	53.83
412.93	56.17
413.12	72.56
413.31	30.43
413.50	0.00
413.69	37.45
413.88	0.00
414.07	77.24
414.26	49.15
414.45	0.00
414.64	39.79
414.83	32.77
415.02	16.38
415.22	65.54
415.41	98.30
415.60	51.49
415.79	42.13
415.98	39.79
416.17	9.36
416.36	0.00
416.55	70.22
416.74	70.22
416.93	46.81
417.12	0.00
417.31	51.49
417.50	37.45
417.69	28.09
417.88	42.13
418.07	0.00
418.26	56.17
418.45	25.75
418.64	105.32
418.83	35.11
419.02	51.49
419.21	70.22
419.39	14.04
419.58	0.00
419.77	63.19
419.96	58.51
420.15	37.45
420.34	53.83
420.53	37.45
420.72	39.79
420.91	0.00
421.10	16.38
421.29	91.28
421.48	93.62
421.67	53.83
421.86	98.30
422.05	49.15
422.24	98.30
422.43	70.22
422.61	63.19
422.80	133.41
422.99	11.70
423.18	95.96
423.37	0.00
423.56	0.00
423.75	9.36
423.94	51.49
424.13	44.47
424.32	25.75
424.50	91.28
424.69	53.83
424.88	25.75
425.07	63.19
425.26	32.77
425.45	14.04
425.64	0.00
425.83	58.51
426.01	14.04
426.20	91.28
426.39	0.00
426.58	44.47
426.77	30.43
426.96	21.06
427.15	63.19
427.33	0.00
427.52	16.38
427.71	2.34
427.90	18.72
428.09	0.00
428.28	0.00
428.46	124.05
428.65	56.17
428.84	156.82
429.03	0.00
429.22	79.58
429.40	65.54
429.59	63.19
429.78	51.49
429.97	39.79
430.16	56.17
430.34	0.00
430.53	0.00
430.72	67.88
430.91	70.22
431.10	67.88
431.28	56.17
431.47	0.00
431.66	67.88
431.85	72.56
432.03	65.54
432.22	28.09
432.41	51.49
432.60	46.81
432.79	0.00
432.97	110.01
433.16	60.85
433.35	39.79
433.54	30.43
433.72	93.62
433.91	0.00
434.10	7.02
434.28	21.06
434.47	93.62
434.66	79.58
434.85	58.51
435.03	0.00
435.22	65.54
435.41	79.58
435.59	35.11
435.78	0.00
435.97	9.36
436.16	23.41
436.34	0.00
436.53	7.02
436.72	0.00
436.90	133.41
437.09	49.15
437.28	72.56
437.46	21.06
437.65	74.90
437.84	49.15
438.02	70.22
438.21	32.77
438.40	60.85
438.58	60.85
438.77	0.00
438.96	63.19
439.14	0.00
439.33	21.06
439.52	86.60
439.70	0.00
439.89	0.00
440.08	4.68
440.26	84.26
440.45	58.51
440.63	16.38
440.82	74.90
441.01	30.43
441.19	65.54
441.38	46.81
441.57	81.92
441.75	9.36
441.94	18.72
442.12	7.02
442.31	79.58
442.50	42.13
442.68	11.70
442.87	51.49
443.05	14.04
443.24	81.92
443.43	60.85
443.61	11.70
443.80	100.64
443.98	28.09
444.17	51.49
444.35	39.79
444.54	67.88
444.73	0.00
444.91	9.36
445.10	18.72
445.28	60.85
445.47	0.00
445.65	18.72
445.84	32.77
446.02	63.19
446.21	46.81
446.39	21.06
446.58	74.90
446.77	79.58
446.95	37.45
447.14	60.85
447.32	9.36
447.51	11.70
447.69	105.32
447.88	11.70
448.06	112.35
448.25	28.09
448.43	77.24
448.62	79.58
448.80	56.17
448.99	56.17
449.17	98.30
449.36	53.83
449.54	131.07
449.73	58.51
449.91	46.81
450.10	95.96
450.28	9.36
450.46	112.35
450.65	9.36
450.83	44.47
451.02	7.02
451.20	65.54
451.39	9.36
451.57	35.11
451.76	21.06
451.94	21.06
452.13	72.56
452.31	53.83
452.49	56.17
452.68	0.00
452.86	0.00
453.05	105.32
453.23	93.62
453.42	58.51
453.60	77.24
453.78	39.79
453.97	30.43
454.15	32.77
454.34	105.32
454.52	100.64
454.70	37.45
454.89	0.00
455.07	70.22
455.26	32.77
455.44	72.56
455.62	14.04
455.81	58.51
455.99	53.83
456.17	37.45
456.36	35.11
456.54	77.24
456.73	46.81
456.91	39.79
457.09	35.11
457.28	102.98
457.46	72.56
457.64	67.88
457.83	25.75
458.01	0.00
458.19	0.00
458.38	9.36
458.56	46.81
458.74	28.09
458.93	63.19
459.11	30.43
459.29	70.22
459.48	65.54
459.66	0.00
459.84	16.38
460.03	63.19
460.21	37.45
460.39	79.58
460.57	79.58
460.76	65.54
460.94	84.26
461.12	58.51
461.31	84.26
461.49	72.56
461.67	81.92
461.85	102.98
462.04	30.43
462.22	124.05
462.40	180.22
462.59	67.88
462.77	98.30
462.95	46.81
463.13	32.77
463.32	11.70
463.50	49.15
463.68	32.77
463.86	74.90
464.05	81.92
464.23	42.13
464.41	32.77
464.59	44.47
464.78	53.83
464.96	23.41
465.14	114.69
465.32	74.90
465.50	98.30
465.69	86.60
465.87	86.60
466.05	86.60
466.23	60.85
466.41	126.39
466.60	18.72
466.78	91.28
466.96	93.62
467.14	79.58
467.32	95.96
467.51	77.24
467.69	23.41
467.87	37.45
468.05	0.00
468.23	0.00
468.41	86.60
468.60	63.19
468.78	70.22
468.96	100.64
469.14	93.62
469.32	42.13
469.50	18.72
469.69	70.22
469.87	53.83
470.05	16.38
470.23	2.34
470.41	79.58
470.59	32.77
470.77	72.56
470.95	60.85
471.14	21.06
471.32	86.60
471.50	91.28
471.68	112.35
471.86	46.81
472.04	102.98
472.22	147.45
472.40	7.02
472.58	25.75
472.77	18.72
472.95	67.88
473.13	91.28
473.31	91.28
473.49	0.00
473.67	60.85
473.85	63.19
474.03	81.92
474.21	100.64
474.39	93.62
474.57	91.28
474.75	53.83
474.93	0.00
475.12	28.09
475.30	63.19
475.48	35.11
475.66	30.43
475.84	58.51
476.02	121.71
476.20	35.11
476.38	56.17
476.56	86.60
476.74	100.64
476.92	60.85
477.10	51.49
477.28	93.62
477.46	77.24
477.64	0.00
477.82	67.88
478.00	51.49
478.18	74.90
478.36	53.83
478.54	37.45
478.72	77.24
478.90	65.54
479.08	25.75
479.26	63.19
479.44	72.56
479.62	74.90
479.80	28.09
479.98	88.94
480.16	30.43
480.34	65.54
480.52	65.54
480.70	14.04
480.88	84.26
481.06	35.11
481.24	93.62
481.41	37.45
481.59	98.30
481.77	81.92
481.95	11.70
482.13	86.60
482.31	79.58
482.49	117.03
482.67	74.90
482.85	95.96
483.03	114.69
483.21	154.48
483.39	86.60
483.57	91.28
483.74	49.15
483.92	39.79
484.10	84.26
484.28	114.69
484.46	63.19
484.64	196.60
484.82	25.75
485.00	63.19
485.18	32.77
485.35	77.24
485.53	100.64
485.71	23.41
485.89	37.45
486.07	35.11
486.25	28.09
486.43	124.05
486.61	81.92
486.78	42.13
486.96	105.32
487.14	37.45
487.32	42.13
487.50	11.70
487.68	63.19
487.85	84.26
488.03	63.19
488.21	100.64
488.39	84.26
488.57	107.66
488.75	140.43
488.92	114.69
489.10	112.35
489.28	46.81
489.46	84.26
489.64	63.19
489.81	81.92
489.99	42.13
490.17	21.06
490.35	39.79
490.53	86.60
490.70	49.15
490.88	11.70
491.06	102.98
491.24	81.92
491.41	93.62
491.59	105.32
491.77	74.90
491.95	79.58
492.13	44.47
492.30	65.54
492.48	93.62
492.66	119.37
492.84	30.43
493.01	0.00
493.19	72.56
493.37	72.56
493.54	4.68
493.72	121.71
493.90	44.47
494.08	117.03
494.25	37.45
494.43	49.15
494.61	37.45
494.79	70.22
494.96	149.79
495.14	105.32
495.32	63.19
495.49	56.17
495.67	100.64
495.85	88.94
496.02	161.50
496.20	49.15
496.38	74.90
496.55	37.45
496.73	81.92
496.91	46.81
497.09	72.56
497.26	131.07
497.44	112.35
497.62	77.24
497.79	37.45
497.97	32.77
498.14	147.45
498.32	72.56
498.50	100.64
498.67	138.09
498.85	37.45
499.03	42.13
499.20	79.58
499.38	84.26
499.56	46.81
499.73	102.98
499.91	98.30
500.08	51.49
500.26	70.22
500.44	93.62
500.61	42.13
500.79	74.90
500.97	98.30
501.14	70.22
501.32	70.22
501.49	95.96
501.67	112.35
501.84	70.22
502.02	105.32
502.20	77.24
502.37	30.43
502.55	112.35
502.72	81.92
502.90	58.51
503.07	63.19
503.25	28.09
503.43	30.43
503.60	35.11
503.78	102.98
503.95	98.30
504.13	81.92
504.30	86.60
504.48	88.94
504.65	65.54
504.83	105.32
505.01	74.90
505.18	72.56
505.36	95.96
505.53	51.49
505.71	53.83
505.88	93.62
506.06	121.71
506.23	72.56
506.41	56.17
506.58	121.71
506.76	49.15
506.93	56.17
507.11	126.39
507.28	65.54
507.46	46.81
507.63	44.47
507.81	105.32
507.98	102.98
508.16	100.64
508.33	124.05
508.50	117.03
508.68	88.94
508.85	84.26
509.03	105.32
509.20	74.90
509.38	88.94
509.55	21.06
509.73	51.49
509.90	65.54
510.08	74.90
510.25	32.77
510.42	77.24
510.60	135.75
510.77	79.58
510.95	77.24
511.12	58.51
511.30	72.56
511.47	117.03
511.64	53.83
511.82	74.90
511.99	56.17
512.17	81.92
512.34	119.37
512.51	102.98
512.69	49.15
512.86	102.98
513.04	58.51
513.21	70.22
513.38	44.47
513.56	53.83
513.73	74.90
513.90	77.24
514.08	23.41
514.25	91.28
514.43	119.37
514.60	105.32
514.77	81.92
514.95	32.77
515.12	53.83
515.29	72.56
515.47	98.30
515.64	105.32
515.81	65.54
515.99	124.05
516.16	65.54
516.33	74.90
516.51	21.06
516.68	88.94
516.85	25.75
517.03	84.26
517.20	95.96
517.37	112.35
517.54	65.54
517.72	102.98
517.89	119.37
518.06	58.51
518.24	93.62
518.41	37.45
518.58	46.81
518.75	88.94
518.93	51.49
519.10	93.62
519.27	86.60
519.45	25.75
519.62	112.35
519.79	95.96
519.96	100.64
520.14	42.13
520.31	51.49
520.48	35.11
520.65	28.09
520.83	81.92
521.00	49.15
521.17	30.43
521.34	79.58
521.52	102.98
521.69	79.58
521.86	60.85
522.03	95.96
522.20	44.47
522.38	126.39
522.55	42.13
522.72	124.05
522.89	14.04
523.07	131.07
523.24	93.62
523.41	95.96
523.58	72.56
523.75	138.09
523.92	49.15
524.10	135.75
524.27	67.88
524.44	102.98
524.61	9.36
524.78	110.01
524.96	56.17
525.13	107.66
525.30	51.49
525.47	67.88
525.64	81.92
525.81	98.30
525.98	138.09
526.16	39.79
526.33	0.00
526.50	105.32
526.67	131.07
526.84	100.64
527.01	86.60
527.18	39.79
527.36	23.41
527.53	56.17
527.70	95.96
527.87	114.69
528.04	70.22
528.21	56.17
528.38	142.77
528.55	95.96
528.72	93.62
528.89	72.56
529.07	79.58
529.24	37.45
529.41	93.62
529.58	72.56
529.75	53.83
529.92	117.03
530.09	131.07
530.26	93.62
530.43	79.58
530.60	117.03
530.77	28.09
530.94	60.85
531.11	152.13
531.28	93.62
531.46	112.35
531.63	56.17
531.80	84.26
531.97	63.19
532.14	72.56
532.31	60.85
532.48	65.54
532.65	0.00
532.82	86.60
532.99	131.07
533.16	72.56
533.33	79.58
533.50	72.56
533.67	117.03
533.84	177.88
534.01	81.92
534.18	107.66
534.35	51.49
534.52	49.15
534.69	156.82
534.86	63.19
535.03	84.26
535.20	105.32
535.37	161.50
535.54	21.06
535.71	126.39
535.88	16.38
536.05	72.56
536.22	74.90
536.38	23.41
536.55	98.30
536.72	105.32
536.89	77.24
537.06	140.43
537.23	100.64
537.40	72.56
537.57	107.66
537.74	67.88
537.91	128.73
538.08	70.22
538.25	51.49
538.42	30.43
538.59	84.26
538.75	91.28
538.92	81.92
539.09	65.54
539.26	107.66
539.43	72.56
539.60	21.06
539.77	81.92
539.94	42.13
540.11	28.09
540.28	110.01
540.44	95.96
540.61	53.83
540.78	53.83
540.95	58.51
541.12	126.39
541.29	105.32
541.46	119.37
541.62	84.26
541.79	81.92
541.96	39.79
542.13	21.06
542.30	72.56
542.47	79.58
542.63	121.71
542.80	65.54
542.97	149.79
543.14	138.09
543.31	98.30
543.48	133.41
543.64	95.96
543.81	46.81
543.98	88.94
544.15	93.62
544.32	14.04
544.48	102.98
544.65	42.13
544.82	112.35
544.99	119.37
545.16	44.47
545.32	67.88
545.49	84.26
545.66	79.58
545.83	72.56
546.00	77.24
546.16	67.88
546.33	49.15
546.50	67.88
546.67	156.82
546.83	147.45
547.00	84.26
547.17	65.54
547.34	37.45
547.50	133.41
547.67	46.81
547.84	98.30
548.00	140.43
548.17	79.58
548.34	88.94
548.51	84.26
548.67	7.02
548.84	124.05
549.01	95.96
549.18	128.73
549.34	49.15
549.51	77.24
549.68	56.17
549.84	56.17
550.01	58.51
550.18	102.98
550.34	37.45
550.51	98.30
550.68	105.32
550.84	67.88
551.01	67.88
551.18	107.66
551.34	110.01
551.51	63.19
551.68	91.28
551.84	72.56
552.01	98.30
552.18	107.66
552.34	70.22
552.51	107.66
552.68	126.39
552.84	63.19
553.01	91.28
553.18	65.54
553.34	28.09
553.51	124.05
553.67	93.62
553.84	133.41
554.01	63.19
554.17	124.05
554.34	119.37
554.51	58.51
554.67	46.81
554.84	16.38
555.00	140.43
555.17	102.98
555.33	84.26
555.50	44.47
555.67	67.88
555.83	35.11
556.00	18.72
556.16	100.64
556.33	84.26
556.50	168.52
556.66	128.73
556.83	112.35
556.99	67.88
557.16	58.51
557.32	74.90
557.49	131.07
557.65	81.92
557.82	105.32
557.98	56.17
558.15	88.94
558.32	60.85
558.48	0.00
558.65	140.43
558.81	100.64
558.98	79.58
559.14	28.09
559.31	35.11
559.47	60.85
559.64	156.82
559.80	124.05
559.97	65.54
560.13	84.26
560.30	112.35
560.46	79.58
560.63	79.58
560.79	102.98
560.96	100.64
561.12	49.15
561.29	49.15
561.45	25.75
561.61	53.83
561.78	65.54
561.94	46.81
562.11	100.64
562.27	42.13
562.44	72.56
562.60	56.17
562.77	91.28
562.93	161.50
563.10	28.09
563.26	65.54
563.42	77.24
563.59	46.81
563.75	67.88
563.92	117.03
564.08	98.30
564.24	49.15
564.41	105.32
564.57	88.94
564.74	39.79
564.90	128.73
565.07	70.22
565.23	39.79
565.39	46.81
565.56	131.07
565.72	126.39
565.88	105.32
566.05	42.13
566.21	98.30
566.38	77.24
566.54	53.83
566.70	46.81
566.87	142.77
567.03	135.75
567.19	28.09
567.36	25.75
567.52	117.03
567.68	110.01
567.85	105.32
568.01	175.54
568.17	70.22
568.34	79.58
568.50	112.35
568.66	35.11
568.83	77.24
568.99	100.64
569.15	112.35
569.32	133.41
569.48	30.43
569.64	42.13
569.81	46.81
569.97	58.51
570.13	9.36
570.30	16.38
570.46	110.01
570.62	30.43
570.78	28.09
570.95	42.13
571.11	131.07
571.27	14.04
571.43	46.81
571.60	35.11
571.76	95.96
571.92	91.28
572.09	32.77
572.25	100.64
572.41	16.38
572.57	56.17
572.74	93.62
572.90	44.47
573.06	14.04
573.22	46.81
573.38	98.30
573.55	65.54
573.71	98.30
573.87	39.79
574.03	91.28
574.20	18.72
574.36	58.51
574.52	119.37
574.68	44.47
574.84	51.49
575.01	105.32
575.17	117.03
575.33	98.30
575.49	117.03
575.65	84.26
575.82	100.64
575.98	28.09
576.14	77.24
576.30	110.01
576.46	98.30
576.62	16.38
576.79	131.07
576.95	51.49
577.11	53.83
577.27	16.38
577.43	84.26
577.59	42.13
577.75	35.11
577.92	60.85
578.08	88.94
578.24	44.47
578.40	65.54
578.56	107.66
578.72	110.01
578.88	154.48
579.04	74.90
579.21	16.38
579.37	88.94
579.53	95.96
579.69	88.94
579.85	102.98
580.01	72.56
580.17	37.45
580.33	98.30
580.49	58.51
580.65	121.71
580.82	95.96
580.98	91.28
581.14	35.11
581.30	0.00
581.46	72.56
581.62	44.47
581.78	79.58
581.94	74.90
582.10	91.28
582.26	0.00
582.42	7.02
582.58	37.45
582.74	53.83
582.90	42.13
583.06	35.11
583.22	107.66
583.38	32.77
583.54	93.62
583.70	133.41
583.86	102.98
584.02	145.11
584.18	37.45
584.34	65.54
584.50	135.75
584.66	105.32
584.82	56.17
584.98	2.34
585.14	102.98
585.30	4.68
585.46	67.88
585.62	58.51
585.78	2.34
585.94	63.19
586.10	58.51
586.26	63.19
586.42	95.96
586.58	58.51
586.74	114.69
586.90	133.41
587.06	91.28
587.22	98.30
587.38	114.69
587.54	72.56
587.70	98.30
587.86	28.09
588.02	79.58
588.18	114.69
588.34	58.51
588.49	124.05
588.65	23.41
588.81	35.11
588.97	67.88
589.13	42.13
589.29	74.90
589.45	11.70
589.61	51.49
589.77	35.11
589.93	105.32
590.08	93.62
590.24	37.45
590.40	25.75
590.56	53.83
590.72	37.45
590.88	16.38
591.04	37.45
591.20	42.13
591.35	14.04
591.51	112.35
591.67	84.26
591.83	42.13
591.99	91.28
592.15	53.83
592.31	100.64
592.46	88.94
592.62	67.88
592.78	95.96
592.94	28.09
593.10	0.00
593.26	72.56
593.41	32.77
593.57	70.22
593.73	56.17
593.89	126.39
594.05	84.26
594.20	46.81
594.36	0.00
594.52	88.94
594.68	95.96
594.84	42.13
594.99	114.69
595.15	98.30
595.31	102.98
595.47	74.90
595.62	0.00
595.78	67.88
595.94	77.24
596.10	46.81
596.25	91.28
596.41	72.56
596.57	16.38
596.73	95.96
596.88	93.62
597.04	23.41
597.20	84.26
597.36	46.81
597.51	67.88
597.67	119.37
597.83	79.58
597.99	79.58
598.14	28.09
598.30	70.22
598.46	21.06
598.61	46.81
598.77	35.11
598.93	84.26
599.09	95.96
599.24	128.73
599.40	126.39
599.56	117.03
599.71	14.04
599.87	46.81
600.03	126.39
600.18	72.56
600.34	0.00
600.50	65.54
600.65	72.56
600.81	84.26
600.97	23.41
601.12	0.00
601.28	23.41
601.44	51.49
601.59	56.17
601.75	72.56
601.91	44.47
602.06	63.19
602.22	49.15
602.37	67.88
602.53	11.70
602.69	35.11
602.84	49.15
603.00	44.47
603.16	21.06
603.31	70.22
603.47	93.62
603.62	65.54
603.78	79.58
603.94	39.79
604.09	7.02
604.25	126.39
604.40	7.02
604.56	16.38
604.71	67.88
604.87	0.00
605.03	84.26
605.18	72.56
605.34	112.35
605.49	35.11
605.65	84.26
605.80	51.49
605.96	88.94
606.12	91.28
606.27	67.88
606.43	60.85
606.58	105.32
606.74	42.13
606.89	67.88
607.05	0.00
607.20	102.98
607.36	93.62
607.51	37.45
607.67	112.35
607.82	79.58
607.98	84.26
608.13	110.01
608.29	4.68
608.44	77.24
608.60	23.41
608.75	81.92
608.91	79.58
609.06	21.06
609.22	70.22
609.37	44.47
609.53	60.85
609.68	79.58
609.84	21.06
609.99	84.26
610.15	0.00
610.30	70.22
610.46	93.62
610.61	74.90
610.76	65.54
610.92	154.48
611.07	51.49
611.23	98.30
611.38	105.32
611.54	95.96
611.69	4.68
611.84	58.51
612.00	21.06
612.15	91.28
612.31	81.92
612.46	35.11
612.62	86.60
612.77	58.51
612.92	56.17
613.08	44.47
613.23	60.85
613.39	138.09
613.54	110.01
613.69	86.60
613.85	74.90
614.00	58.51
614.15	74.90
614.31	91.28
614.46	110.01
614.62	77.24
614.77	86.60
614.92	21.06
615.08	28.09
615.23	32.77
615.38	37.45
615.54	70.22
615.69	124.05
615.84	37.45
616.00	95.96
616.15	53.83
616.30	32.77
616.46	74.90
616.61	0.00
616.76	142.77
616.92	117.03
617.07	86.60
617.22	18.72
617.37	119.37
617.53	7.02
617.68	0.00
617.83	98.30
617.99	117.03
618.14	16.38
618.29	49.15
618.45	30.43
618.60	128.73
618.75	91.28
618.90	81.92
619.06	84.26
619.21	51.49
619.36	105.32
619.51	121.71
619.67	30.43
619.82	42.13
619.97	58.51
620.12	39.79
620.28	58.51
620.43	110.01
620.58	100.64
620.73	16.38
620.89	39.79
621.04	65.54
621.19	72.56
621.34	72.56
621.49	128.73
621.65	32.77
621.80	0.00
621.95	91.28
622.10	32.77
622.25	65.54
622.41	51.49
622.56	56.17
622.71	0.00
622.86	107.66
623.01	16.38
623.16	72.56
623.32	46.81
623.47	67.88
623.62	67.88
623.77	63.19
623.92	56.17
624.07	126.39
624.23	18.72
624.38	56.17
624.53	63.19
624.68	53.83
624.83	30.43
624.98	91.28
625.13	65.54
625.29	0.00
625.44	65.54
625.59	56.17
625.74	0.00
625.89	67.88
626.04	74.90
626.19	49.15
626.34	42.13
626.49	44.47
626.65	93.62
626.80	25.75
626.95	91.28
627.10	49.15
627.25	42.13
627.40	37.45
627.55	18.72
627.70	18.72
627.85	114.69
628.00	7.02
628.15	25.75
628.30	16.38
628.45	46.81
628.60	145.11
628.76	28.09
628.91	67.88
629.06	42.13
629.21	46.81
629.36	44.47
629.51	0.00
629.66	112.35
629.81	77.24
629.96	39.79
630.11	114.69
630.26	37.45
630.41	65.54
630.56	86.60
630.71	2.34
630.86	51.49
631.01	65.54
631.16	4.68
631.31	37.45
631.46	100.64
631.61	0.00
631.76	67.88
631.91	81.92
632.06	21.06
632.21	16.38
632.36	0.00
632.51	42.13
632.66	72.56
632.81	105.32
632.96	16.38
633.10	67.88
633.25	95.96
633.40	37.45
633.55	77.24
633.70	0.00
633.85	72.56
634.00	39.79
634.15	18.72
634.30	37.45
634.45	44.47
634.60	53.83
634.75	86.60
634.90	60.85
635.05	70.22
635.19	0.00
635.34	81.92
635.49	25.75
635.64	25.75
635.79	95.96
635.94	44.47
636.09	121.71
636.24	51.49
636.39	124.05
636.53	84.26
636.68	79.58
636.83	98.30
636.98	0.00
637.13	60.85
637.28	72.56
637.43	70.22
637.57	35.11
637.72	25.75
637.87	49.15
638.02	16.38
638.17	128.73
638.32	81.92
638.46	37.45
638.61	42.13
638.76	7.02
638.91	95.96
639.06	16.38
639.20	25.75
639.35	98.30
639.50	53.83
639.65	2.34
639.80	93.62
639.94	39.79
640.09	84.26
640.24	7.02
640.39	21.06
640.54	44.47
640.68	18.72
640.83	67.88
640.98	119.37
641.13	23.41
641.27	86.60
641.42	60.85
641.57	9.36
641.72	25.75
641.86	16.38
642.01	35.11
642.16	46.81
642.31	65.54
642.45	11.70
642.60	133.41
642.75	114.69
642.90	65.54
643.04	14.04
643.19	65.54
643.34	37.45
643.48	37.45
643.63	131.07
643.78	65.54
643.93	58.51
644.07	44.47
644.22	49.15
644.37	58.51
644.51	77.24
644.66	23.41
644.81	91.28
644.95	53.83
645.10	67.88
645.25	9.36
645.39	46.81
645.54	46.81
645.69	84.26
645.83	28.09
645.98	102.98
646.13	95.96
646.27	0.00
646.42	9.36
646.57	0.00
646.71	67.88
646.86	0.00
647.00	9.36
647.15	11.70
647.30	77.24
647.44	32.77
647.59	58.51
647.74	37.45
647.88	72.56
648.03	42.13
648.17	81.92
648.32	93.62
648.47	58.51
648.61	81.92
648.76	28.09
648.90	58.51
649.05	30.43
649.20	77.24
649.34	42.13
649.49	91.28
649.63	7.02
649.78	102.98
649.92	56.17
650.07	63.19
650.21	65.54
650.36	117.03
650.51	117.03
650.65	39.79
650.80	72.56
650.94	51.49
651.09	44.47
651.23	98.30
651.38	67.88
651.52	0.00
651.67	70.22
651.81	53.83
651.96	49.15
652.10	0.00
652.25	156.82
652.39	124.05
652.54	79.58
652.68	114.69
652.83	65.54
652.97	51.49
653.12	21.06
653.26	0.00
653.41	49.15
653.55	9.36
653.70	37.45
653.84	93.62
653.99	30.43
654.13	25.75
654.27	39.79
654.42	30.43
654.56	9.36
654.71	28.09
654.85	67.88
655.00	72.56
655.14	84.26
655.29	18.72
655.43	0.00
655.57	65.54
655.72	0.00
655.86	84.26
656.01	0.00
656.15	46.81
656.30	86.60
656.44	37.45
656.58	81.92
656.73	147.45
656.87	51.49
657.01	88.94
657.16	0.00
657.30	7.02
657.45	107.66
657.59	79.58
657.73	46.81
657.88	21.06
658.02	44.47
658.16	67.88
658.31	0.00
658.45	7.02
658.60	14.04
658.74	56.17
658.88	79.58
659.03	72.56
659.17	0.00
659.31	14.04
659.46	42.13
659.60	95.96
659.74	112.35
659.89	0.00
660.03	9.36
660.17	65.54
660.32	60.85
660.46	110.01
660.60	35.11
660.74	119.37
660.89	65.54
661.03	133.41
661.17	95.96
661.32	23.41
661.46	23.41
661.60	56.17
661.74	44.47
661.89	105.32
662.03	0.00
662.17	81.92
662.31	67.88
662.46	63.19
662.60	49.15
662.74	35.11
662.88	74.90
663.03	53.83
663.17	135.75
663.31	126.39
663.45	11.70
663.60	21.06
663.74	53.83
663.88	9.36
664.02	23.41
664.17	7.02
664.31	102.98
664.45	9.36
664.59	9.36
664.73	39.79
664.88	91.28
665.02	37.45
665.16	60.85
665.30	37.45
665.44	16.38
665.59	95.96
665.73	0.00
665.87	0.00
666.01	60.85
666.15	63.19
666.29	93.62
666.44	44.47
666.58	58.51
666.72	4.68
666.86	14.04
667.00	67.88
667.14	25.75
667.28	56.17
667.43	25.75
667.57	4.68
667.71	60.85
667.85	117.03
667.99	46.81
668.13	30.43
668.27	46.81
668.41	58.51
668.56	44.47
668.70	21.06
668.84	11.70
668.98	77.24
669.12	44.47
669.26	81.92
669.40	35.11
669.54	0.00
669.68	46.81
669.82	37.45
669.96	46.81
670.10	49.15
670.25	86.60
670.39	37.45
670.53	58.51
670.67	23.41
670.81	35.11
670.95	14.04
671.09	35.11
671.23	46.81
671.37	25.75
671.51	77.24
671.65	18.72
671.79	74.90
671.93	105.32
672.07	86.60
672.21	46.81
672.35	28.09
672.49	23.41
672.63	4.68
672.77	56.17
672.91	14.04
673.05	65.54
673.19	39.79
673.33	0.00
673.47	86.60
673.61	2.34
673.75	28.09
673.89	46.81
674.03	11.70
674.17	72.56
674.31	102.98
674.45	46.81
674.59	16.38
674.73	95.96
674.87	37.45
675.01	56.17
675.15	77.24
675.29	30.43
675.43	67.88
675.56	32.77
675.70	14.04
675.84	44.47
675.98	84.26
676.12	60.85
676.26	0.00
676.40	44.47
676.54	58.51
676.68	9.36
676.82	56.17
676.96	4.68
677.10	67.88
677.23	30.43
677.37	0.00
677.51	23.41
677.65	63.19
677.79	58.51
677.93	58.51
678.07	72.56
678.21	100.64
678.34	51.49
678.48	107.66
678.62	21.06
678.76	100.64
678.90	2.34
679.04	63.19
679.18	14.04
679.31	23.41
679.45	0.00
679.59	77.24
679.73	72.56
679.87	60.85
680.00	58.51
680.14	98.30
680.28	91.28
680.42	0.00
680.56	23.41
680.70	0.00
680.83	0.00
680.97	9.36
681.11	124.05
681.25	16.38
681.39	23.41
681.52	0.00
681.66	35.11
681.80	79.58
681.94	0.00
682.07	114.69
682.21	32.77
682.35	35.11
682.49	9.36
682.62	25.75
682.76	46.81
682.90	11.70
683.04	23.41
683.17	53.83
683.31	37.45
683.45	114.69
683.59	14.04
683.72	58.51
683.86	0.00
684.00	58.51
684.13	51.49
684.27	14.04
684.41	14.04
684.55	91.28
684.68	93.62
684.82	0.00
684.96	32.77
685.09	28.09
685.23	39.79
685.37	0.00
685.50	35.11
685.64	0.00
685.78	35.11
685.91	110.01
686.05	65.54
686.19	0.00
686.32	4.68
686.46	4.68
686.60	0.00
686.73	9.36
686.87	21.06
687.01	91.28
687.14	25.75
687.28	35.11
687.42	72.56
687.55	7.02
687.69	56.17
687.82	51.49
687.96	39.79
688.10	25.75
688.23	30.43
688.37	28.09
688.50	21.06
688.64	91.28
688.78	0.00
688.91	37.45
689.05	14.04
689.18	60.85
689.32	21.06
689.46	4.68
689.59	42.13
689.73	42.13
689.86	51.49
690.00	77.24
690.13	32.77
690.27	28.09
690.41	2.34
690.54	4.68
690.68	77.24
690.81	44.47
690.95	91.28
691.08	81.92
691.22	18.72
691.35	63.19
691.49	49.15
691.62	25.75
691.76	25.75
691.89	56.17
692.03	0.00
692.16	49.15
692.30	28.09
692.43	72.56
692.57	42.13
692.70	42.13
692.84	0.00
692.97	37.45
693.11	0.00
693.24	86.60
693.38	30.43
693.51	37.45
693.65	39.79
693.78	53.83
693.92	60.85
694.05	30.43
694.19	0.00
694.32	72.56
694.45	0.00
694.59	0.00
694.72	30.43
694.86	98.30
694.99	63.19
695.13	56.17
695.26	4.68
695.39	65.54
695.53	25.75
695.66	53.83
695.80	0.00
695.93	21.06
696.07	58.51
696.20	14.04
696.33	7.02
696.47	0.00
696.60	63.19
696.73	86.60
696.87	30.43
697.00	42.13
697.14	72.56
697.27	0.00
697.40	56.17
697.54	105.32
697.67	79.58
697.80	0.00
697.94	4.68
698.07	81.92
698.21	7.02
698.34	67.88
698.47	25.75
698.61	23.41
698.74	46.81
698.87	25.75
699.01	28.09
699.14	91.28
699.27	28.09
699.40	0.00
699.54	4.68
699.67	11.70
699.80	7.02
699.94	28.09
700.07	138.09
700.20	51.49
700.34	37.45
700.47	42.13
700.60	81.92
700.73	98.30
700.87	30.43
701.00	56.17
701.13	46.81
701.26	9.36
701.40	44.47
701.53	0.00
701.66	42.13
701.79	37.45
701.93	86.60
702.06	0.00
702.19	0.00
702.32	0.00
702.46	0.00
702.59	42.13
702.72	30.43
702.85	7.02
702.99	77.24
703.12	0.00
703.25	30.43
703.38	53.83
703.51	0.00
703.65	14.04
703.78	46.81
703.91	14.04
704.04	63.19
704.17	39.79
704.31	51.49
704.44	32.77
704.57	0.00
704.70	18.72
704.83	63.19
704.96	11.70
705.10	39.79
705.23	21.06
>>>>>End Processed Spectral Data<<<<<
