SpectraSuite Data File
++++++++++++++++++++++++++++++++++++
Date: Fri Oct 04 12:13:25 GMT-05:00 2013
User: price-jones
Dark Spectrum Present: No
Reference Spectrum Present: No
Number of Sampled Component Spectra: 1
Spectrometers: USB2+H05261
Integration Time (usec): 10000 (USB2+H05261)
Spectra Averaged: 1 (USB2+H05261)
Boxcar Smoothing: 0 (USB2+H05261)
Correct for Electrical Dark: No (USB2+H05261)
Strobe/Lamp Enabled: No (USB2+H05261)
Correct for Detector Non-linearity: No (USB2+H05261)
Correct for Stray Light: No (USB2+H05261)
Number of Pixels in Processed Spectrum: 2048
>>>>>Begin Processed Spectral Data<<<<<
365.73	9.36
365.92	9.36
366.12	9.36
366.32	0.00
366.52	0.00
366.72	0.00
366.91	0.00
367.11	0.00
367.31	0.00
367.51	0.00
367.70	0.00
367.90	0.00
368.10	0.00
368.30	0.00
368.49	0.00
368.69	0.00
368.89	0.00
369.09	0.00
369.28	0.00
369.48	0.00
369.68	0.00
369.87	0.00
370.07	0.00
370.27	0.00
370.47	0.00
370.66	0.00
370.86	0.00
371.06	0.00
371.25	0.00
371.45	4.68
371.65	0.00
371.84	2.34
372.04	0.00
372.24	0.00
372.44	0.00
372.63	21.06
372.83	23.41
373.03	32.77
373.22	51.49
373.42	23.41
373.62	0.00
373.81	35.11
374.01	63.19
374.21	60.85
374.40	65.54
374.60	14.04
374.79	7.02
374.99	67.88
375.19	81.92
375.38	18.72
375.58	56.17
375.78	35.11
375.97	14.04
376.17	46.81
376.37	14.04
376.56	21.06
376.76	7.02
376.95	39.79
377.15	14.04
377.35	72.56
377.54	4.68
377.74	84.26
377.93	72.56
378.13	56.17
378.33	72.56
378.52	72.56
378.72	7.02
378.91	23.41
379.11	42.13
379.31	7.02
379.50	28.09
379.70	0.00
379.89	0.00
380.09	32.77
380.28	0.00
380.48	11.70
380.68	0.00
380.87	53.83
381.07	0.00
381.26	18.72
381.46	49.15
381.65	0.00
381.85	0.00
382.04	25.75
382.24	0.00
382.43	0.00
382.63	23.41
382.83	4.68
383.02	7.02
383.22	60.85
383.41	23.41
383.61	0.00
383.80	4.68
384.00	51.49
384.19	56.17
384.39	70.22
384.58	0.00
384.78	0.00
384.97	28.09
385.17	56.17
385.36	23.41
385.56	30.43
385.75	25.75
385.95	58.51
386.14	32.77
386.34	37.45
386.53	63.19
386.72	77.24
386.92	58.51
387.11	46.81
387.31	0.00
387.50	7.02
387.70	0.00
387.89	46.81
388.09	44.47
388.28	9.36
388.48	42.13
388.67	0.00
388.86	0.00
389.06	42.13
389.25	42.13
389.45	2.34
389.64	2.34
389.84	74.90
390.03	23.41
390.22	0.00
390.42	0.00
390.61	46.81
390.81	30.43
391.00	0.00
391.19	51.49
391.39	32.77
391.58	0.00
391.78	37.45
391.97	0.00
392.16	0.00
392.36	0.00
392.55	2.34
392.75	4.68
392.94	60.85
393.13	39.79
393.33	51.49
393.52	53.83
393.71	4.68
393.91	23.41
394.10	25.75
394.29	0.00
394.49	0.00
394.68	14.04
394.88	37.45
395.07	39.79
395.26	88.94
395.46	39.79
395.65	28.09
395.84	0.00
396.04	25.75
396.23	28.09
396.42	18.72
396.62	0.00
396.81	0.00
397.00	14.04
397.19	0.00
397.39	9.36
397.58	93.62
397.77	60.85
397.97	35.11
398.16	7.02
398.35	72.56
398.55	4.68
398.74	21.06
398.93	16.38
399.12	16.38
399.32	0.00
399.51	37.45
399.70	138.09
399.90	0.00
400.09	7.02
400.28	100.64
400.47	0.00
400.67	44.47
400.86	0.00
401.05	35.11
401.24	4.68
401.44	0.00
401.63	0.00
401.82	44.47
402.01	37.45
402.21	0.00
402.40	70.22
402.59	39.79
402.78	7.02
402.97	0.00
403.17	0.00
403.36	7.02
403.55	28.09
403.74	0.00
403.93	46.81
404.13	25.75
404.32	18.72
404.51	0.00
404.70	16.38
404.89	0.00
405.09	21.06
405.28	67.88
405.47	21.06
405.66	0.00
405.85	25.75
406.05	79.58
406.24	0.00
406.43	0.00
406.62	49.15
406.81	21.06
407.00	28.09
407.20	70.22
407.39	28.09
407.58	0.00
407.77	0.00
407.96	58.51
408.15	46.81
408.34	18.72
408.54	65.54
408.73	37.45
408.92	37.45
409.11	11.70
409.30	25.75
409.49	7.02
409.68	63.19
409.87	32.77
410.07	0.00
410.26	39.79
410.45	49.15
410.64	23.41
410.83	102.98
411.02	32.77
411.21	42.13
411.40	25.75
411.59	0.00
411.78	42.13
411.98	56.17
412.17	0.00
412.36	32.77
412.55	51.49
412.74	4.68
412.93	7.02
413.12	0.00
413.31	14.04
413.50	86.60
413.69	100.64
413.88	60.85
414.07	0.00
414.26	32.77
414.45	11.70
414.64	0.00
414.83	39.79
415.02	25.75
415.22	93.62
415.41	0.00
415.60	0.00
415.79	35.11
415.98	86.60
416.17	0.00
416.36	0.00
416.55	46.81
416.74	0.00
416.93	9.36
417.12	51.49
417.31	74.90
417.50	44.47
417.69	0.00
417.88	46.81
418.07	0.00
418.26	25.75
418.45	16.38
418.64	37.45
418.83	88.94
419.02	30.43
419.21	0.00
419.39	46.81
419.58	0.00
419.77	0.00
419.96	28.09
420.15	0.00
420.34	77.24
420.53	93.62
420.72	91.28
420.91	74.90
421.10	0.00
421.29	0.00
421.48	86.60
421.67	84.26
421.86	53.83
422.05	49.15
422.24	72.56
422.43	65.54
422.61	49.15
422.80	60.85
422.99	35.11
423.18	0.00
423.37	112.35
423.56	21.06
423.75	23.41
423.94	124.05
424.13	0.00
424.32	53.83
424.50	28.09
424.69	0.00
424.88	14.04
425.07	23.41
425.26	49.15
425.45	0.00
425.64	23.41
425.83	0.00
426.01	4.68
426.20	30.43
426.39	0.00
426.58	67.88
426.77	126.39
426.96	0.00
427.15	0.00
427.33	14.04
427.52	72.56
427.71	0.00
427.90	0.00
428.09	7.02
428.28	77.24
428.46	0.00
428.65	25.75
428.84	0.00
429.03	30.43
429.22	0.00
429.40	70.22
429.59	0.00
429.78	28.09
429.97	46.81
430.16	53.83
430.34	7.02
430.53	32.77
430.72	0.00
430.91	53.83
431.10	91.28
431.28	0.00
431.47	79.58
431.66	11.70
431.85	2.34
432.03	7.02
432.22	51.49
432.41	0.00
432.60	4.68
432.79	72.56
432.97	84.26
433.16	0.00
433.35	0.00
433.54	0.00
433.72	0.00
433.91	21.06
434.10	4.68
434.28	44.47
434.47	102.98
434.66	7.02
434.85	65.54
435.03	0.00
435.22	30.43
435.41	93.62
435.59	58.51
435.78	49.15
435.97	0.00
436.16	0.00
436.34	21.06
436.53	42.13
436.72	11.70
436.90	7.02
437.09	74.90
437.28	51.49
437.46	60.85
437.65	81.92
437.84	67.88
438.02	32.77
438.21	53.83
438.40	100.64
438.58	65.54
438.77	81.92
438.96	88.94
439.14	98.30
439.33	30.43
439.52	0.00
439.70	114.69
439.89	0.00
440.08	0.00
440.26	0.00
440.45	28.09
440.63	0.00
440.82	32.77
441.01	32.77
441.19	2.34
441.38	58.51
441.57	0.00
441.75	74.90
441.94	23.41
442.12	49.15
442.31	30.43
442.50	30.43
442.68	0.00
442.87	56.17
443.05	72.56
443.24	11.70
443.43	30.43
443.61	79.58
443.80	25.75
443.98	56.17
444.17	16.38
444.35	42.13
444.54	84.26
444.73	93.62
444.91	0.00
445.10	7.02
445.28	58.51
445.47	0.00
445.65	67.88
445.84	77.24
446.02	79.58
446.21	46.81
446.39	46.81
446.58	14.04
446.77	128.73
446.95	46.81
447.14	60.85
447.32	0.00
447.51	21.06
447.69	14.04
447.88	51.49
448.06	11.70
448.25	65.54
448.43	58.51
448.62	0.00
448.80	51.49
448.99	49.15
449.17	46.81
449.36	67.88
449.54	0.00
449.73	9.36
449.91	77.24
450.10	4.68
450.28	110.01
450.46	105.32
450.65	0.00
450.83	77.24
451.02	98.30
451.20	18.72
451.39	60.85
451.57	21.06
451.76	37.45
451.94	86.60
452.13	105.32
452.31	35.11
452.49	4.68
452.68	0.00
452.86	46.81
453.05	49.15
453.23	25.75
453.42	37.45
453.60	65.54
453.78	37.45
453.97	0.00
454.15	0.00
454.34	32.77
454.52	39.79
454.70	37.45
454.89	9.36
455.07	46.81
455.26	37.45
455.44	56.17
455.62	42.13
455.81	49.15
455.99	84.26
456.17	18.72
456.36	51.49
456.54	0.00
456.73	30.43
456.91	53.83
457.09	39.79
457.28	107.66
457.46	44.47
457.64	51.49
457.83	37.45
458.01	46.81
458.19	0.00
458.38	42.13
458.56	28.09
458.74	93.62
458.93	37.45
459.11	4.68
459.29	30.43
459.48	25.75
459.66	56.17
459.84	72.56
460.03	107.66
460.21	25.75
460.39	23.41
460.57	95.96
460.76	44.47
460.94	70.22
461.12	21.06
461.31	42.13
461.49	0.00
461.67	65.54
461.85	25.75
462.04	9.36
462.22	128.73
462.40	79.58
462.59	0.00
462.77	0.00
462.95	25.75
463.13	65.54
463.32	28.09
463.50	32.77
463.68	67.88
463.86	77.24
464.05	53.83
464.23	135.75
464.41	14.04
464.59	60.85
464.78	0.00
464.96	46.81
465.14	32.77
465.32	2.34
465.50	37.45
465.69	7.02
465.87	39.79
466.05	0.00
466.23	0.00
466.41	0.00
466.60	0.00
466.78	30.43
466.96	37.45
467.14	84.26
467.32	88.94
467.51	58.51
467.69	46.81
467.87	0.00
468.05	77.24
468.23	56.17
468.41	65.54
468.60	4.68
468.78	14.04
468.96	11.70
469.14	112.35
469.32	70.22
469.50	72.56
469.69	72.56
469.87	4.68
470.05	70.22
470.23	67.88
470.41	42.13
470.59	0.00
470.77	42.13
470.95	53.83
471.14	9.36
471.32	32.77
471.50	37.45
471.68	0.00
471.86	72.56
472.04	25.75
472.22	58.51
472.40	74.90
472.58	49.15
472.77	86.60
472.95	65.54
473.13	51.49
473.31	117.03
473.49	51.49
473.67	60.85
473.85	58.51
474.03	60.85
474.21	4.68
474.39	56.17
474.57	11.70
474.75	46.81
474.93	0.00
475.12	74.90
475.30	35.11
475.48	53.83
475.66	0.00
475.84	51.49
476.02	35.11
476.20	88.94
476.38	28.09
476.56	86.60
476.74	53.83
476.92	4.68
477.10	25.75
477.28	119.37
477.46	58.51
477.64	88.94
477.82	30.43
478.00	9.36
478.18	51.49
478.36	0.00
478.54	46.81
478.72	7.02
478.90	32.77
479.08	112.35
479.26	0.00
479.44	91.28
479.62	60.85
479.80	42.13
479.98	18.72
480.16	0.00
480.34	49.15
480.52	0.00
480.70	28.09
480.88	32.77
481.06	14.04
481.24	0.00
481.41	70.22
481.59	77.24
481.77	37.45
481.95	35.11
482.13	98.30
482.31	49.15
482.49	88.94
482.67	95.96
482.85	42.13
483.03	44.47
483.21	67.88
483.39	23.41
483.57	0.00
483.74	14.04
483.92	0.00
484.10	25.75
484.28	0.00
484.46	21.06
484.64	0.00
484.82	98.30
485.00	16.38
485.18	81.92
485.35	28.09
485.53	65.54
485.71	117.03
485.89	4.68
486.07	2.34
486.25	0.00
486.43	67.88
486.61	65.54
486.78	58.51
486.96	35.11
487.14	0.00
487.32	79.58
487.50	4.68
487.68	51.49
487.85	0.00
488.03	74.90
488.21	37.45
488.39	63.19
488.57	46.81
488.75	30.43
488.92	77.24
489.10	58.51
489.28	0.00
489.46	88.94
489.64	16.38
489.81	0.00
489.99	56.17
490.17	23.41
490.35	11.70
490.53	86.60
490.70	21.06
490.88	32.77
491.06	53.83
491.24	11.70
491.41	65.54
491.59	9.36
491.77	39.79
491.95	23.41
492.13	23.41
492.30	0.00
492.48	21.06
492.66	60.85
492.84	63.19
493.01	0.00
493.19	11.70
493.37	56.17
493.54	51.49
493.72	72.56
493.90	56.17
494.08	0.00
494.25	14.04
494.43	0.00
494.61	0.00
494.79	102.98
494.96	2.34
495.14	67.88
495.32	49.15
495.49	46.81
495.67	25.75
495.85	32.77
496.02	77.24
496.20	107.66
496.38	30.43
496.55	63.19
496.73	60.85
496.91	0.00
497.09	32.77
497.26	58.51
497.44	35.11
497.62	86.60
497.79	79.58
497.97	0.00
498.14	98.30
498.32	51.49
498.50	23.41
498.67	0.00
498.85	0.00
499.03	44.47
499.20	42.13
499.38	7.02
499.56	30.43
499.73	58.51
499.91	25.75
500.08	39.79
500.26	70.22
500.44	14.04
500.61	0.00
500.79	58.51
500.97	0.00
501.14	49.15
501.32	0.00
501.49	53.83
501.67	56.17
501.84	0.00
502.02	0.00
502.20	117.03
502.37	39.79
502.55	7.02
502.72	67.88
502.90	46.81
503.07	102.98
503.25	0.00
503.43	79.58
503.60	30.43
503.78	39.79
503.95	35.11
504.13	46.81
504.30	46.81
504.48	72.56
504.65	79.58
504.83	0.00
505.01	0.00
505.18	7.02
505.36	65.54
505.53	70.22
505.71	58.51
505.88	37.45
506.06	23.41
506.23	18.72
506.41	84.26
506.58	28.09
506.76	91.28
506.93	35.11
507.11	42.13
507.28	14.04
507.46	49.15
507.63	14.04
507.81	11.70
507.98	0.00
508.16	39.79
508.33	70.22
508.50	37.45
508.68	70.22
508.85	0.00
509.03	16.38
509.20	37.45
509.38	63.19
509.55	56.17
509.73	4.68
509.90	21.06
510.08	37.45
510.25	0.00
510.42	86.60
510.60	16.38
510.77	25.75
510.95	25.75
511.12	65.54
511.30	14.04
511.47	21.06
511.64	0.00
511.82	63.19
511.99	0.00
512.17	58.51
512.34	46.81
512.51	0.00
512.69	23.41
512.86	107.66
513.04	60.85
513.21	95.96
513.38	88.94
513.56	100.64
513.73	91.28
513.90	9.36
514.08	4.68
514.25	25.75
514.43	0.00
514.60	84.26
514.77	11.70
514.95	84.26
515.12	7.02
515.29	0.00
515.47	0.00
515.64	9.36
515.81	74.90
515.99	37.45
516.16	58.51
516.33	25.75
516.51	18.72
516.68	25.75
516.85	28.09
517.03	91.28
517.20	32.77
517.37	51.49
517.54	9.36
517.72	2.34
517.89	0.00
518.06	49.15
518.24	25.75
518.41	95.96
518.58	30.43
518.75	49.15
518.93	0.00
519.10	0.00
519.27	84.26
519.45	23.41
519.62	11.70
519.79	88.94
519.96	81.92
520.14	58.51
520.31	81.92
520.48	86.60
520.65	93.62
520.83	0.00
521.00	30.43
521.17	53.83
521.34	32.77
521.52	0.00
521.69	86.60
521.86	0.00
522.03	63.19
522.20	30.43
522.38	0.00
522.55	0.00
522.72	0.00
522.89	0.00
523.07	30.43
523.24	72.56
523.41	4.68
523.58	77.24
523.75	102.98
523.92	49.15
524.10	37.45
524.27	58.51
524.44	18.72
524.61	79.58
524.78	16.38
524.96	95.96
525.13	67.88
525.30	0.00
525.47	23.41
525.64	30.43
525.81	105.32
525.98	16.38
526.16	53.83
526.33	0.00
526.50	60.85
526.67	25.75
526.84	42.13
527.01	16.38
527.18	46.81
527.36	100.64
527.53	39.79
527.70	32.77
527.87	4.68
528.04	98.30
528.21	32.77
528.38	2.34
528.55	0.00
528.72	58.51
528.89	42.13
529.07	28.09
529.24	0.00
529.41	9.36
529.58	21.06
529.75	35.11
529.92	21.06
530.09	30.43
530.26	0.00
530.43	74.90
530.60	70.22
530.77	67.88
530.94	21.06
531.11	67.88
531.28	56.17
531.46	35.11
531.63	35.11
531.80	0.00
531.97	0.00
532.14	79.58
532.31	35.11
532.48	44.47
532.65	51.49
532.82	63.19
532.99	0.00
533.16	88.94
533.33	23.41
533.50	37.45
533.67	91.28
533.84	86.60
534.01	25.75
534.18	11.70
534.35	67.88
534.52	23.41
534.69	28.09
534.86	23.41
535.03	16.38
535.20	37.45
535.37	28.09
535.54	7.02
535.71	53.83
535.88	91.28
536.05	49.15
536.22	37.45
536.38	7.02
536.55	16.38
536.72	32.77
536.89	44.47
537.06	39.79
537.23	37.45
537.40	23.41
537.57	28.09
537.74	0.00
537.91	63.19
538.08	53.83
538.25	74.90
538.42	77.24
538.59	0.00
538.75	63.19
538.92	37.45
539.09	0.00
539.26	0.00
539.43	18.72
539.60	88.94
539.77	79.58
539.94	0.00
540.11	60.85
540.28	79.58
540.44	0.00
540.61	72.56
540.78	44.47
540.95	79.58
541.12	0.00
541.29	28.09
541.46	0.00
541.62	72.56
541.79	21.06
541.96	23.41
542.13	16.38
542.30	63.19
542.47	79.58
542.63	72.56
542.80	0.00
542.97	44.47
543.14	51.49
543.31	39.79
543.48	53.83
543.64	16.38
543.81	79.58
543.98	4.68
544.15	110.01
544.32	35.11
544.48	79.58
544.65	32.77
544.82	11.70
544.99	53.83
545.16	72.56
545.32	25.75
545.49	70.22
545.66	56.17
545.83	28.09
546.00	23.41
546.16	18.72
546.33	35.11
546.50	25.75
546.67	93.62
546.83	18.72
547.00	77.24
547.17	74.90
547.34	100.64
547.50	23.41
547.67	70.22
547.84	4.68
548.00	60.85
548.17	35.11
548.34	93.62
548.51	4.68
548.67	30.43
548.84	32.77
549.01	88.94
549.18	39.79
549.34	0.00
549.51	114.69
549.68	53.83
549.84	74.90
550.01	131.07
550.18	98.30
550.34	81.92
550.51	70.22
550.68	35.11
550.84	77.24
551.01	32.77
551.18	56.17
551.34	0.00
551.51	63.19
551.68	16.38
551.84	53.83
552.01	56.17
552.18	32.77
552.34	67.88
552.51	117.03
552.68	37.45
552.84	0.00
553.01	9.36
553.18	49.15
553.34	70.22
553.51	46.81
553.67	32.77
553.84	114.69
554.01	53.83
554.17	98.30
554.34	9.36
554.51	42.13
554.67	72.56
554.84	56.17
555.00	100.64
555.17	93.62
555.33	23.41
555.50	0.00
555.67	53.83
555.83	25.75
556.00	70.22
556.16	67.88
556.33	98.30
556.50	49.15
556.66	23.41
556.83	18.72
556.99	9.36
557.16	84.26
557.32	0.00
557.49	35.11
557.65	70.22
557.82	60.85
557.98	16.38
558.15	44.47
558.32	0.00
558.48	53.83
558.65	81.92
558.81	14.04
558.98	72.56
559.14	117.03
559.31	14.04
559.47	102.98
559.64	42.13
559.80	0.00
559.97	0.00
560.13	95.96
560.30	53.83
560.46	9.36
560.63	95.96
560.79	81.92
560.96	91.28
561.12	0.00
561.29	60.85
561.45	37.45
561.61	4.68
561.78	77.24
561.94	23.41
562.11	0.00
562.27	30.43
562.44	0.00
562.60	107.66
562.77	0.00
562.93	51.49
563.10	53.83
563.26	18.72
563.42	72.56
563.59	63.19
563.75	67.88
563.92	2.34
564.08	35.11
564.24	25.75
564.41	42.13
564.57	49.15
564.74	25.75
564.90	67.88
565.07	11.70
565.23	0.00
565.39	32.77
565.56	74.90
565.72	65.54
565.88	14.04
566.05	60.85
566.21	35.11
566.38	67.88
566.54	84.26
566.70	72.56
566.87	42.13
567.03	56.17
567.19	51.49
567.36	7.02
567.52	0.00
567.68	0.00
567.85	63.19
568.01	25.75
568.17	25.75
568.34	0.00
568.50	0.00
568.66	11.70
568.83	117.03
568.99	39.79
569.15	16.38
569.32	35.11
569.48	0.00
569.64	72.56
569.81	53.83
569.97	4.68
570.13	102.98
570.30	9.36
570.46	35.11
570.62	60.85
570.78	49.15
570.95	30.43
571.11	53.83
571.27	32.77
571.43	81.92
571.60	102.98
571.76	4.68
571.92	21.06
572.09	0.00
572.25	2.34
572.41	46.81
572.57	0.00
572.74	44.47
572.90	30.43
573.06	70.22
573.22	9.36
573.38	67.88
573.55	0.00
573.71	46.81
573.87	0.00
574.03	14.04
574.20	16.38
574.36	77.24
574.52	37.45
574.68	11.70
574.84	65.54
575.01	102.98
575.17	39.79
575.33	0.00
575.49	35.11
575.65	51.49
575.82	65.54
575.98	65.54
576.14	70.22
576.30	32.77
576.46	79.58
576.62	30.43
576.79	35.11
576.95	53.83
577.11	9.36
577.27	70.22
577.43	0.00
577.59	9.36
577.75	37.45
577.92	56.17
578.08	142.77
578.24	112.35
578.40	81.92
578.56	16.38
578.72	21.06
578.88	0.00
579.04	21.06
579.21	25.75
579.37	11.70
579.53	11.70
579.69	30.43
579.85	70.22
580.01	21.06
580.17	0.00
580.33	114.69
580.49	30.43
580.65	18.72
580.82	0.00
580.98	14.04
581.14	72.56
581.30	23.41
581.46	4.68
581.62	16.38
581.78	0.00
581.94	70.22
582.10	23.41
582.26	70.22
582.42	0.00
582.58	44.47
582.74	16.38
582.90	42.13
583.06	74.90
583.22	0.00
583.38	93.62
583.54	23.41
583.70	44.47
583.86	70.22
584.02	95.96
584.18	25.75
584.34	63.19
584.50	16.38
584.66	72.56
584.82	72.56
584.98	39.79
585.14	0.00
585.30	23.41
585.46	25.75
585.62	42.13
585.78	0.00
585.94	58.51
586.10	58.51
586.26	91.28
586.42	9.36
586.58	0.00
586.74	9.36
586.90	4.68
587.06	126.39
587.22	51.49
587.38	0.00
587.54	0.00
587.70	53.83
587.86	0.00
588.02	30.43
588.18	0.00
588.34	0.00
588.49	11.70
588.65	44.47
588.81	67.88
588.97	30.43
589.13	56.17
589.29	14.04
589.45	49.15
589.61	32.77
589.77	30.43
589.93	63.19
590.08	25.75
590.24	93.62
590.40	16.38
590.56	107.66
590.72	60.85
590.88	107.66
591.04	72.56
591.20	0.00
591.35	58.51
591.51	23.41
591.67	30.43
591.83	46.81
591.99	0.00
592.15	11.70
592.31	46.81
592.46	0.00
592.62	60.85
592.78	28.09
592.94	25.75
593.10	65.54
593.26	23.41
593.41	11.70
593.57	42.13
593.73	88.94
593.89	56.17
594.05	70.22
594.20	23.41
594.36	77.24
594.52	0.00
594.68	18.72
594.84	74.90
594.99	11.70
595.15	11.70
595.31	51.49
595.47	39.79
595.62	32.77
595.78	79.58
595.94	74.90
596.10	4.68
596.25	53.83
596.41	14.04
596.57	23.41
596.73	46.81
596.88	51.49
597.04	67.88
597.20	23.41
597.36	11.70
597.51	0.00
597.67	25.75
597.83	39.79
597.99	16.38
598.14	49.15
598.30	0.00
598.46	7.02
598.61	16.38
598.77	23.41
598.93	63.19
599.09	70.22
599.24	37.45
599.40	0.00
599.56	23.41
599.71	11.70
599.87	7.02
600.03	53.83
600.18	107.66
600.34	70.22
600.50	35.11
600.65	51.49
600.81	105.32
600.97	32.77
601.12	44.47
601.28	74.90
601.44	21.06
601.59	2.34
601.75	35.11
601.91	67.88
602.06	53.83
602.22	44.47
602.37	58.51
602.53	65.54
602.69	42.13
602.84	81.92
603.00	32.77
603.16	18.72
603.31	9.36
603.47	42.13
603.62	58.51
603.78	46.81
603.94	32.77
604.09	46.81
604.25	0.00
604.40	0.00
604.56	0.00
604.71	65.54
604.87	46.81
605.03	60.85
605.18	56.17
605.34	79.58
605.49	51.49
605.65	28.09
605.80	25.75
605.96	86.60
606.12	14.04
606.27	35.11
606.43	65.54
606.58	0.00
606.74	32.77
606.89	51.49
607.05	51.49
607.20	60.85
607.36	35.11
607.51	46.81
607.67	30.43
607.82	30.43
607.98	67.88
608.13	0.00
608.29	32.77
608.44	2.34
608.60	56.17
608.75	11.70
608.91	7.02
609.06	28.09
609.22	70.22
609.37	0.00
609.53	79.58
609.68	16.38
609.84	28.09
609.99	0.00
610.15	81.92
610.30	51.49
610.46	63.19
610.61	35.11
610.76	102.98
610.92	7.02
611.07	14.04
611.23	7.02
611.38	74.90
611.54	0.00
611.69	105.32
611.84	0.00
612.00	117.03
612.15	37.45
612.31	7.02
612.46	0.00
612.62	18.72
612.77	39.79
612.92	0.00
613.08	28.09
613.23	35.11
613.39	58.51
613.54	9.36
613.69	25.75
613.85	117.03
614.00	84.26
614.15	63.19
614.31	9.36
614.46	16.38
614.62	30.43
614.77	32.77
614.92	51.49
615.08	53.83
615.23	51.49
615.38	44.47
615.54	18.72
615.69	93.62
615.84	0.00
616.00	0.00
616.15	0.00
616.30	35.11
616.46	49.15
616.61	0.00
616.76	51.49
616.92	11.70
617.07	7.02
617.22	0.00
617.37	30.43
617.53	37.45
617.68	39.79
617.83	25.75
617.99	58.51
618.14	32.77
618.29	60.85
618.45	7.02
618.60	21.06
618.75	39.79
618.90	14.04
619.06	30.43
619.21	44.47
619.36	7.02
619.51	0.00
619.67	49.15
619.82	46.81
619.97	25.75
620.12	28.09
620.28	0.00
620.43	42.13
620.58	39.79
620.73	0.00
620.89	56.17
621.04	14.04
621.19	18.72
621.34	0.00
621.49	51.49
621.65	21.06
621.80	44.47
621.95	23.41
622.10	46.81
622.25	30.43
622.41	58.51
622.56	56.17
622.71	7.02
622.86	0.00
623.01	58.51
623.16	67.88
623.32	7.02
623.47	21.06
623.62	60.85
623.77	42.13
623.92	72.56
624.07	16.38
624.23	35.11
624.38	56.17
624.53	39.79
624.68	21.06
624.83	2.34
624.98	4.68
625.13	0.00
625.29	11.70
625.44	39.79
625.59	56.17
625.74	74.90
625.89	7.02
626.04	0.00
626.19	32.77
626.34	4.68
626.49	56.17
626.65	56.17
626.80	67.88
626.95	32.77
627.10	0.00
627.25	56.17
627.40	18.72
627.55	119.37
627.70	28.09
627.85	0.00
628.00	0.00
628.15	0.00
628.30	53.83
628.45	0.00
628.60	37.45
628.76	11.70
628.91	35.11
629.06	72.56
629.21	4.68
629.36	77.24
629.51	84.26
629.66	44.47
629.81	30.43
629.96	117.03
630.11	14.04
630.26	0.00
630.41	63.19
630.56	0.00
630.71	28.09
630.86	4.68
631.01	84.26
631.16	53.83
631.31	86.60
631.46	28.09
631.61	74.90
631.76	63.19
631.91	53.83
632.06	21.06
632.21	0.00
632.36	23.41
632.51	18.72
632.66	25.75
632.81	14.04
632.96	23.41
633.10	100.64
633.25	18.72
633.40	117.03
633.55	39.79
633.70	0.00
633.85	65.54
634.00	39.79
634.15	25.75
634.30	60.85
634.45	35.11
634.60	0.00
634.75	70.22
634.90	84.26
635.05	30.43
635.19	0.00
635.34	28.09
635.49	21.06
635.64	46.81
635.79	0.00
635.94	4.68
636.09	37.45
636.24	84.26
636.39	60.85
636.53	0.00
636.68	51.49
636.83	49.15
636.98	28.09
637.13	37.45
637.28	51.49
637.43	77.24
637.57	46.81
637.72	93.62
637.87	42.13
638.02	0.00
638.17	79.58
638.32	7.02
638.46	0.00
638.61	16.38
638.76	0.00
638.91	70.22
639.06	21.06
639.20	4.68
639.35	70.22
639.50	21.06
639.65	18.72
639.80	72.56
639.94	60.85
640.09	28.09
640.24	23.41
640.39	0.00
640.54	7.02
640.68	0.00
640.83	0.00
640.98	35.11
641.13	14.04
641.27	0.00
641.42	39.79
641.57	11.70
641.72	46.81
641.86	0.00
642.01	91.28
642.16	0.00
642.31	0.00
642.45	58.51
642.60	105.32
642.75	81.92
642.90	0.00
643.04	65.54
643.19	0.00
643.34	28.09
643.48	32.77
643.63	95.96
643.78	100.64
643.93	30.43
644.07	114.69
644.22	93.62
644.37	114.69
644.51	51.49
644.66	72.56
644.81	67.88
644.95	53.83
645.10	21.06
645.25	14.04
645.39	39.79
645.54	0.00
645.69	42.13
645.83	0.00
645.98	0.00
646.13	0.00
646.27	67.88
646.42	30.43
646.57	14.04
646.71	56.17
646.86	95.96
647.00	14.04
647.15	0.00
647.30	2.34
647.44	28.09
647.59	65.54
647.74	51.49
647.88	23.41
648.03	42.13
648.17	46.81
648.32	0.00
648.47	4.68
648.61	63.19
648.76	11.70
648.90	2.34
649.05	72.56
649.20	56.17
649.34	35.11
649.49	16.38
649.63	0.00
649.78	72.56
649.92	9.36
650.07	28.09
650.21	0.00
650.36	32.77
650.51	4.68
650.65	11.70
650.80	16.38
650.94	21.06
651.09	51.49
651.23	25.75
651.38	9.36
651.52	53.83
651.67	11.70
651.81	0.00
651.96	79.58
652.10	63.19
652.25	63.19
652.39	18.72
652.54	42.13
652.68	16.38
652.83	44.47
652.97	23.41
653.12	39.79
653.26	44.47
653.41	42.13
653.55	0.00
653.70	81.92
653.84	56.17
653.99	56.17
654.13	2.34
654.27	88.94
654.42	30.43
654.56	77.24
654.71	84.26
654.85	35.11
655.00	44.47
655.14	0.00
655.29	23.41
655.43	21.06
655.57	0.00
655.72	70.22
655.86	84.26
656.01	46.81
656.15	0.00
656.30	28.09
656.44	0.00
656.58	25.75
656.73	0.00
656.87	84.26
657.01	0.00
657.16	0.00
657.30	91.28
657.45	46.81
657.59	2.34
657.73	0.00
657.88	0.00
658.02	63.19
658.16	49.15
658.31	35.11
658.45	72.56
658.60	14.04
658.74	14.04
658.88	14.04
659.03	0.00
659.17	0.00
659.31	0.00
659.46	0.00
659.60	18.72
659.74	0.00
659.89	18.72
660.03	0.00
660.17	110.01
660.32	98.30
660.46	21.06
660.60	11.70
660.74	81.92
660.89	0.00
661.03	23.41
661.17	0.00
661.32	0.00
661.46	4.68
661.60	32.77
661.74	0.00
661.89	42.13
662.03	18.72
662.17	53.83
662.31	44.47
662.46	9.36
662.60	30.43
662.74	39.79
662.88	0.00
663.03	25.75
663.17	98.30
663.31	135.75
663.45	16.38
663.60	67.88
663.74	0.00
663.88	46.81
664.02	30.43
664.17	49.15
664.31	44.47
664.45	100.64
664.59	37.45
664.73	32.77
664.88	51.49
665.02	37.45
665.16	2.34
665.30	56.17
665.44	74.90
665.59	23.41
665.73	9.36
665.87	18.72
666.01	0.00
666.15	0.00
666.29	9.36
666.44	51.49
666.58	0.00
666.72	16.38
666.86	23.41
667.00	2.34
667.14	2.34
667.28	0.00
667.43	72.56
667.57	49.15
667.71	100.64
667.85	0.00
667.99	37.45
668.13	39.79
668.27	30.43
668.41	53.83
668.56	58.51
668.70	42.13
668.84	0.00
668.98	0.00
669.12	35.11
669.26	30.43
669.40	93.62
669.54	2.34
669.68	51.49
669.82	0.00
669.96	25.75
670.10	9.36
670.25	81.92
670.39	51.49
670.53	67.88
670.67	37.45
670.81	44.47
670.95	81.92
671.09	35.11
671.23	39.79
671.37	53.83
671.51	2.34
671.65	4.68
671.79	42.13
671.93	0.00
672.07	37.45
672.21	11.70
672.35	28.09
672.49	0.00
672.63	25.75
672.77	0.00
672.91	44.47
673.05	42.13
673.19	7.02
673.33	91.28
673.47	21.06
673.61	131.07
673.75	70.22
673.89	51.49
674.03	37.45
674.17	32.77
674.31	21.06
674.45	4.68
674.59	56.17
674.73	53.83
674.87	65.54
675.01	65.54
675.15	9.36
675.29	0.00
675.43	9.36
675.56	49.15
675.70	60.85
675.84	28.09
675.98	49.15
676.12	0.00
676.26	98.30
676.40	35.11
676.54	44.47
676.68	124.05
676.82	0.00
676.96	42.13
677.10	16.38
677.23	21.06
677.37	58.51
677.51	18.72
677.65	0.00
677.79	35.11
677.93	21.06
678.07	28.09
678.21	46.81
678.34	88.94
678.48	28.09
678.62	0.00
678.76	112.35
678.90	56.17
679.04	56.17
679.18	110.01
679.31	4.68
679.45	25.75
679.59	39.79
679.73	0.00
679.87	98.30
680.00	42.13
680.14	0.00
680.28	0.00
680.42	0.00
680.56	0.00
680.70	16.38
680.83	63.19
680.97	46.81
681.11	0.00
681.25	11.70
681.39	28.09
681.52	0.00
681.66	60.85
681.80	11.70
681.94	21.06
682.07	32.77
682.21	100.64
682.35	11.70
682.49	53.83
682.62	49.15
682.76	88.94
682.90	0.00
683.04	25.75
683.17	70.22
683.31	121.71
683.45	23.41
683.59	51.49
683.72	23.41
683.86	28.09
684.00	23.41
684.13	37.45
684.27	77.24
684.41	81.92
684.55	84.26
684.68	32.77
684.82	0.00
684.96	37.45
685.09	100.64
685.23	0.00
685.37	0.00
685.50	42.13
685.64	2.34
685.78	30.43
685.91	63.19
686.05	84.26
686.19	0.00
686.32	0.00
686.46	39.79
686.60	30.43
686.73	23.41
686.87	0.00
687.01	16.38
687.14	39.79
687.28	65.54
687.42	46.81
687.55	37.45
687.69	30.43
687.82	7.02
687.96	44.47
688.10	88.94
688.23	32.77
688.37	18.72
688.50	49.15
688.64	72.56
688.78	74.90
688.91	46.81
689.05	21.06
689.18	4.68
689.32	81.92
689.46	0.00
689.59	18.72
689.73	32.77
689.86	9.36
690.00	0.00
690.13	16.38
690.27	0.00
690.41	25.75
690.54	49.15
690.68	0.00
690.81	0.00
690.95	60.85
691.08	0.00
691.22	58.51
691.35	44.47
691.49	37.45
691.62	30.43
691.76	37.45
691.89	0.00
692.03	23.41
692.16	4.68
692.30	28.09
692.43	67.88
692.57	11.70
692.70	0.00
692.84	39.79
692.97	21.06
693.11	0.00
693.24	25.75
693.38	21.06
693.51	39.79
693.65	35.11
693.78	91.28
693.92	74.90
694.05	0.00
694.19	23.41
694.32	72.56
694.45	0.00
694.59	2.34
694.72	14.04
694.86	46.81
694.99	0.00
695.13	11.70
695.26	16.38
695.39	51.49
695.53	84.26
695.66	88.94
695.80	0.00
695.93	23.41
696.07	21.06
696.20	0.00
696.33	44.47
696.47	16.38
696.60	58.51
696.73	53.83
696.87	72.56
697.00	0.00
697.14	42.13
697.27	18.72
697.40	0.00
697.54	0.00
697.67	51.49
697.80	4.68
697.94	0.00
698.07	35.11
698.21	46.81
698.34	4.68
698.47	16.38
698.61	44.47
698.74	35.11
698.87	9.36
699.01	0.00
699.14	18.72
699.27	44.47
699.40	28.09
699.54	142.77
699.67	11.70
699.80	21.06
699.94	53.83
700.07	23.41
700.20	25.75
700.34	39.79
700.47	23.41
700.60	56.17
700.73	105.32
700.87	4.68
701.00	105.32
701.13	42.13
701.26	65.54
701.40	16.38
701.53	86.60
701.66	0.00
701.79	72.56
701.93	0.00
702.06	49.15
702.19	18.72
702.32	72.56
702.46	0.00
702.59	16.38
702.72	100.64
702.85	56.17
702.99	0.00
703.12	0.00
703.25	11.70
703.38	107.66
703.51	88.94
703.65	35.11
703.78	86.60
703.91	81.92
704.04	72.56
704.17	7.02
704.31	44.47
704.44	0.00
704.57	0.00
704.70	102.98
704.83	16.38
704.96	39.79
705.10	23.41
705.23	28.09
>>>>>End Processed Spectral Data<<<<<
