SpectraSuite Data File
++++++++++++++++++++++++++++++++++++
Date: Fri Oct 04 12:13:44 GMT-05:00 2013
User: price-jones
Dark Spectrum Present: No
Reference Spectrum Present: No
Number of Sampled Component Spectra: 1
Spectrometers: USB2+H05261
Integration Time (usec): 10000 (USB2+H05261)
Spectra Averaged: 1 (USB2+H05261)
Boxcar Smoothing: 0 (USB2+H05261)
Correct for Electrical Dark: No (USB2+H05261)
Strobe/Lamp Enabled: No (USB2+H05261)
Correct for Detector Non-linearity: No (USB2+H05261)
Correct for Stray Light: No (USB2+H05261)
Number of Pixels in Processed Spectrum: 2048
>>>>>Begin Processed Spectral Data<<<<<
365.73	0.00
365.92	0.00
366.12	0.00
366.32	0.00
366.52	0.00
366.72	0.00
366.91	0.00
367.11	0.00
367.31	0.00
367.51	0.00
367.70	0.00
367.90	0.00
368.10	0.00
368.30	0.00
368.49	0.00
368.69	0.00
368.89	0.00
369.09	0.00
369.28	0.00
369.48	0.00
369.68	0.00
369.87	0.00
370.07	0.00
370.27	0.00
370.47	7.02
370.66	0.00
370.86	0.00
371.06	11.70
371.25	0.00
371.45	0.00
371.65	0.00
371.84	23.41
372.04	0.00
372.24	0.00
372.44	21.06
372.63	7.02
372.83	0.00
373.03	53.83
373.22	0.00
373.42	32.77
373.62	49.15
373.81	14.04
374.01	0.00
374.21	65.54
374.40	32.77
374.60	60.85
374.79	7.02
374.99	32.77
375.19	0.00
375.38	9.36
375.58	32.77
375.78	72.56
375.97	0.00
376.17	56.17
376.37	58.51
376.56	42.13
376.76	56.17
376.95	2.34
377.15	67.88
377.35	30.43
377.54	35.11
377.74	79.58
377.93	32.77
378.13	2.34
378.33	70.22
378.52	16.38
378.72	0.00
378.91	4.68
379.11	0.00
379.31	37.45
379.50	25.75
379.70	2.34
379.89	0.00
380.09	21.06
380.28	39.79
380.48	42.13
380.68	28.09
380.87	4.68
381.07	53.83
381.26	25.75
381.46	49.15
381.65	18.72
381.85	14.04
382.04	58.51
382.24	105.32
382.43	28.09
382.63	49.15
382.83	42.13
383.02	14.04
383.22	21.06
383.41	60.85
383.61	0.00
383.80	21.06
384.00	18.72
384.19	32.77
384.39	2.34
384.58	0.00
384.78	37.45
384.97	0.00
385.17	25.75
385.36	39.79
385.56	0.00
385.75	0.00
385.95	35.11
386.14	46.81
386.34	11.70
386.53	63.19
386.72	28.09
386.92	0.00
387.11	32.77
387.31	14.04
387.50	0.00
387.70	0.00
387.89	58.51
388.09	23.41
388.28	0.00
388.48	0.00
388.67	53.83
388.86	70.22
389.06	11.70
389.25	23.41
389.45	0.00
389.64	0.00
389.84	28.09
390.03	0.00
390.22	81.92
390.42	0.00
390.61	0.00
390.81	39.79
391.00	77.24
391.19	39.79
391.39	39.79
391.58	0.00
391.78	0.00
391.97	0.00
392.16	25.75
392.36	16.38
392.55	32.77
392.75	79.58
392.94	0.00
393.13	53.83
393.33	0.00
393.52	21.06
393.71	28.09
393.91	11.70
394.10	7.02
394.29	0.00
394.49	60.85
394.68	46.81
394.88	0.00
395.07	74.90
395.26	28.09
395.46	0.00
395.65	35.11
395.84	67.88
396.04	4.68
396.23	25.75
396.42	28.09
396.62	39.79
396.81	0.00
397.00	37.45
397.19	63.19
397.39	23.41
397.58	0.00
397.77	28.09
397.97	70.22
398.16	93.62
398.35	53.83
398.55	18.72
398.74	81.92
398.93	65.54
399.12	77.24
399.32	37.45
399.51	32.77
399.70	56.17
399.90	72.56
400.09	0.00
400.28	72.56
400.47	0.00
400.67	0.00
400.86	49.15
401.05	21.06
401.24	95.96
401.44	44.47
401.63	67.88
401.82	4.68
402.01	0.00
402.21	37.45
402.40	46.81
402.59	18.72
402.78	110.01
402.97	0.00
403.17	25.75
403.36	46.81
403.55	11.70
403.74	65.54
403.93	0.00
404.13	37.45
404.32	21.06
404.51	51.49
404.70	0.00
404.89	0.00
405.09	0.00
405.28	79.58
405.47	46.81
405.66	9.36
405.85	37.45
406.05	51.49
406.24	67.88
406.43	44.47
406.62	0.00
406.81	9.36
407.00	2.34
407.20	67.88
407.39	14.04
407.58	67.88
407.77	119.37
407.96	72.56
408.15	86.60
408.34	95.96
408.54	16.38
408.73	0.00
408.92	39.79
409.11	58.51
409.30	37.45
409.49	14.04
409.68	0.00
409.87	0.00
410.07	0.00
410.26	77.24
410.45	65.54
410.64	4.68
410.83	16.38
411.02	35.11
411.21	23.41
411.40	0.00
411.59	0.00
411.78	0.00
411.98	58.51
412.17	46.81
412.36	4.68
412.55	0.00
412.74	51.49
412.93	86.60
413.12	0.00
413.31	4.68
413.50	44.47
413.69	42.13
413.88	0.00
414.07	18.72
414.26	79.58
414.45	21.06
414.64	39.79
414.83	7.02
415.02	49.15
415.22	39.79
415.41	9.36
415.60	0.00
415.79	30.43
415.98	0.00
416.17	81.92
416.36	35.11
416.55	23.41
416.74	30.43
416.93	49.15
417.12	53.83
417.31	84.26
417.50	51.49
417.69	32.77
417.88	65.54
418.07	11.70
418.26	21.06
418.45	56.17
418.64	21.06
418.83	37.45
419.02	98.30
419.21	44.47
419.39	56.17
419.58	63.19
419.77	23.41
419.96	39.79
420.15	44.47
420.34	35.11
420.53	42.13
420.72	107.66
420.91	35.11
421.10	18.72
421.29	0.00
421.48	0.00
421.67	4.68
421.86	42.13
422.05	14.04
422.24	112.35
422.43	23.41
422.61	2.34
422.80	18.72
422.99	37.45
423.18	53.83
423.37	37.45
423.56	0.00
423.75	9.36
423.94	0.00
424.13	2.34
424.32	16.38
424.50	9.36
424.69	32.77
424.88	37.45
425.07	0.00
425.26	88.94
425.45	46.81
425.64	4.68
425.83	42.13
426.01	4.68
426.20	0.00
426.39	51.49
426.58	30.43
426.77	70.22
426.96	16.38
427.15	49.15
427.33	53.83
427.52	58.51
427.71	46.81
427.90	9.36
428.09	37.45
428.28	35.11
428.46	46.81
428.65	0.00
428.84	81.92
429.03	4.68
429.22	14.04
429.40	58.51
429.59	81.92
429.78	60.85
429.97	67.88
430.16	72.56
430.34	86.60
430.53	9.36
430.72	72.56
430.91	86.60
431.10	16.38
431.28	0.00
431.47	39.79
431.66	91.28
431.85	30.43
432.03	0.00
432.22	23.41
432.41	65.54
432.60	60.85
432.79	30.43
432.97	39.79
433.16	74.90
433.35	49.15
433.54	0.00
433.72	0.00
433.91	28.09
434.10	32.77
434.28	11.70
434.47	7.02
434.66	30.43
434.85	32.77
435.03	9.36
435.22	0.00
435.41	44.47
435.59	28.09
435.78	23.41
435.97	74.90
436.16	23.41
436.34	81.92
436.53	16.38
436.72	28.09
436.90	63.19
437.09	93.62
437.28	37.45
437.46	0.00
437.65	16.38
437.84	0.00
438.02	81.92
438.21	42.13
438.40	11.70
438.58	88.94
438.77	58.51
438.96	77.24
439.14	42.13
439.33	0.00
439.52	25.75
439.70	128.73
439.89	84.26
440.08	37.45
440.26	42.13
440.45	42.13
440.63	67.88
440.82	56.17
441.01	14.04
441.19	16.38
441.38	53.83
441.57	25.75
441.75	9.36
441.94	0.00
442.12	42.13
442.31	37.45
442.50	98.30
442.68	51.49
442.87	0.00
443.05	0.00
443.24	51.49
443.43	44.47
443.61	112.35
443.80	60.85
443.98	0.00
444.17	25.75
444.35	9.36
444.54	0.00
444.73	0.00
444.91	18.72
445.10	117.03
445.28	79.58
445.47	39.79
445.65	56.17
445.84	51.49
446.02	88.94
446.21	16.38
446.39	49.15
446.58	58.51
446.77	121.71
446.95	42.13
447.14	23.41
447.32	28.09
447.51	58.51
447.69	119.37
447.88	46.81
448.06	88.94
448.25	65.54
448.43	0.00
448.62	147.45
448.80	14.04
448.99	0.00
449.17	56.17
449.36	23.41
449.54	30.43
449.73	58.51
449.91	7.02
450.10	46.81
450.28	72.56
450.46	25.75
450.65	28.09
450.83	32.77
451.02	79.58
451.20	117.03
451.39	49.15
451.57	14.04
451.76	9.36
451.94	0.00
452.13	56.17
452.31	51.49
452.49	65.54
452.68	0.00
452.86	117.03
453.05	32.77
453.23	44.47
453.42	56.17
453.60	21.06
453.78	23.41
453.97	0.00
454.15	16.38
454.34	56.17
454.52	23.41
454.70	91.28
454.89	11.70
455.07	135.75
455.26	0.00
455.44	0.00
455.62	28.09
455.81	11.70
455.99	42.13
456.17	0.00
456.36	4.68
456.54	60.85
456.73	37.45
456.91	18.72
457.09	44.47
457.28	51.49
457.46	77.24
457.64	77.24
457.83	72.56
458.01	91.28
458.19	2.34
458.38	18.72
458.56	65.54
458.74	72.56
458.93	51.49
459.11	105.32
459.29	30.43
459.48	9.36
459.66	86.60
459.84	0.00
460.03	91.28
460.21	32.77
460.39	49.15
460.57	11.70
460.76	93.62
460.94	28.09
461.12	0.00
461.31	51.49
461.49	91.28
461.67	25.75
461.85	11.70
462.04	56.17
462.22	142.77
462.40	37.45
462.59	93.62
462.77	30.43
462.95	0.00
463.13	84.26
463.32	44.47
463.50	74.90
463.68	46.81
463.86	23.41
464.05	23.41
464.23	65.54
464.41	51.49
464.59	67.88
464.78	32.77
464.96	88.94
465.14	0.00
465.32	9.36
465.50	0.00
465.69	0.00
465.87	28.09
466.05	4.68
466.23	65.54
466.41	42.13
466.60	14.04
466.78	51.49
466.96	21.06
467.14	51.49
467.32	51.49
467.51	53.83
467.69	9.36
467.87	77.24
468.05	0.00
468.23	46.81
468.41	0.00
468.60	32.77
468.78	30.43
468.96	74.90
469.14	58.51
469.32	74.90
469.50	0.00
469.69	72.56
469.87	70.22
470.05	23.41
470.23	81.92
470.41	35.11
470.59	91.28
470.77	35.11
470.95	35.11
471.14	30.43
471.32	32.77
471.50	16.38
471.68	77.24
471.86	42.13
472.04	0.00
472.22	18.72
472.40	30.43
472.58	81.92
472.77	4.68
472.95	7.02
473.13	56.17
473.31	0.00
473.49	58.51
473.67	72.56
473.85	72.56
474.03	44.47
474.21	9.36
474.39	67.88
474.57	16.38
474.75	138.09
474.93	56.17
475.12	0.00
475.30	37.45
475.48	39.79
475.66	156.82
475.84	93.62
476.02	156.82
476.20	42.13
476.38	2.34
476.56	42.13
476.74	112.35
476.92	63.19
477.10	58.51
477.28	56.17
477.46	16.38
477.64	63.19
477.82	74.90
478.00	44.47
478.18	14.04
478.36	35.11
478.54	0.00
478.72	0.00
478.90	32.77
479.08	91.28
479.26	16.38
479.44	110.01
479.62	32.77
479.80	23.41
479.98	23.41
480.16	37.45
480.34	56.17
480.52	51.49
480.70	32.77
480.88	79.58
481.06	35.11
481.24	53.83
481.41	28.09
481.59	46.81
481.77	93.62
481.95	49.15
482.13	51.49
482.31	37.45
482.49	117.03
482.67	23.41
482.85	84.26
483.03	0.00
483.21	14.04
483.39	65.54
483.57	53.83
483.74	0.00
483.92	16.38
484.10	0.00
484.28	65.54
484.46	18.72
484.64	30.43
484.82	44.47
485.00	56.17
485.18	37.45
485.35	98.30
485.53	70.22
485.71	56.17
485.89	60.85
486.07	49.15
486.25	35.11
486.43	93.62
486.61	18.72
486.78	60.85
486.96	65.54
487.14	98.30
487.32	60.85
487.50	14.04
487.68	9.36
487.85	30.43
488.03	93.62
488.21	7.02
488.39	0.00
488.57	98.30
488.75	39.79
488.92	23.41
489.10	42.13
489.28	18.72
489.46	60.85
489.64	65.54
489.81	102.98
489.99	63.19
490.17	44.47
490.35	21.06
490.53	56.17
490.70	35.11
490.88	53.83
491.06	63.19
491.24	77.24
491.41	77.24
491.59	16.38
491.77	32.77
491.95	74.90
492.13	63.19
492.30	56.17
492.48	77.24
492.66	46.81
492.84	37.45
493.01	0.00
493.19	77.24
493.37	39.79
493.54	114.69
493.72	86.60
493.90	42.13
494.08	86.60
494.25	65.54
494.43	60.85
494.61	102.98
494.79	42.13
494.96	49.15
495.14	95.96
495.32	30.43
495.49	63.19
495.67	21.06
495.85	56.17
496.02	84.26
496.20	67.88
496.38	79.58
496.55	42.13
496.73	81.92
496.91	72.56
497.09	70.22
497.26	46.81
497.44	21.06
497.62	46.81
497.79	39.79
497.97	49.15
498.14	28.09
498.32	74.90
498.50	14.04
498.67	100.64
498.85	67.88
499.03	79.58
499.20	84.26
499.38	51.49
499.56	86.60
499.73	81.92
499.91	51.49
500.08	133.41
500.26	63.19
500.44	37.45
500.61	56.17
500.79	21.06
500.97	63.19
501.14	67.88
501.32	100.64
501.49	2.34
501.67	65.54
501.84	65.54
502.02	105.32
502.20	88.94
502.37	0.00
502.55	0.00
502.72	60.85
502.90	51.49
503.07	39.79
503.25	63.19
503.43	74.90
503.60	70.22
503.78	56.17
503.95	0.00
504.13	102.98
504.30	70.22
504.48	72.56
504.65	2.34
504.83	84.26
505.01	42.13
505.18	77.24
505.36	70.22
505.53	42.13
505.71	32.77
505.88	35.11
506.06	72.56
506.23	30.43
506.41	30.43
506.58	98.30
506.76	63.19
506.93	0.00
507.11	63.19
507.28	98.30
507.46	79.58
507.63	133.41
507.81	88.94
507.98	32.77
508.16	35.11
508.33	70.22
508.50	35.11
508.68	39.79
508.85	86.60
509.03	16.38
509.20	86.60
509.38	65.54
509.55	46.81
509.73	107.66
509.90	107.66
510.08	74.90
510.25	81.92
510.42	18.72
510.60	77.24
510.77	95.96
510.95	98.30
511.12	25.75
511.30	11.70
511.47	32.77
511.64	25.75
511.82	81.92
511.99	42.13
512.17	63.19
512.34	53.83
512.51	81.92
512.69	51.49
512.86	32.77
513.04	60.85
513.21	81.92
513.38	70.22
513.56	53.83
513.73	56.17
513.90	0.00
514.08	100.64
514.25	70.22
514.43	30.43
514.60	18.72
514.77	46.81
514.95	46.81
515.12	72.56
515.29	72.56
515.47	79.58
515.64	67.88
515.81	91.28
515.99	77.24
516.16	121.71
516.33	11.70
516.51	60.85
516.68	23.41
516.85	11.70
517.03	84.26
517.20	100.64
517.37	86.60
517.54	74.90
517.72	30.43
517.89	91.28
518.06	18.72
518.24	53.83
518.41	67.88
518.58	138.09
518.75	114.69
518.93	32.77
519.10	67.88
519.27	147.45
519.45	0.00
519.62	100.64
519.79	53.83
519.96	49.15
520.14	14.04
520.31	72.56
520.48	44.47
520.65	124.05
520.83	23.41
521.00	95.96
521.17	49.15
521.34	16.38
521.52	77.24
521.69	56.17
521.86	42.13
522.03	128.73
522.20	79.58
522.38	79.58
522.55	114.69
522.72	53.83
522.89	35.11
523.07	77.24
523.24	18.72
523.41	65.54
523.58	49.15
523.75	53.83
523.92	70.22
524.10	42.13
524.27	32.77
524.44	63.19
524.61	91.28
524.78	102.98
524.96	84.26
525.13	91.28
525.30	44.47
525.47	84.26
525.64	95.96
525.81	21.06
525.98	91.28
526.16	74.90
526.33	7.02
526.50	51.49
526.67	0.00
526.84	72.56
527.01	114.69
527.18	0.00
527.36	58.51
527.53	49.15
527.70	23.41
527.87	93.62
528.04	60.85
528.21	46.81
528.38	56.17
528.55	86.60
528.72	67.88
528.89	4.68
529.07	28.09
529.24	77.24
529.41	49.15
529.58	107.66
529.75	0.00
529.92	14.04
530.09	42.13
530.26	65.54
530.43	95.96
530.60	23.41
530.77	79.58
530.94	102.98
531.11	56.17
531.28	74.90
531.46	86.60
531.63	14.04
531.80	2.34
531.97	49.15
532.14	77.24
532.31	72.56
532.48	46.81
532.65	44.47
532.82	84.26
532.99	39.79
533.16	72.56
533.33	51.49
533.50	0.00
533.67	81.92
533.84	53.83
534.01	74.90
534.18	65.54
534.35	74.90
534.52	79.58
534.69	102.98
534.86	86.60
535.03	39.79
535.20	79.58
535.37	28.09
535.54	23.41
535.71	67.88
535.88	16.38
536.05	42.13
536.22	9.36
536.38	79.58
536.55	28.09
536.72	42.13
536.89	46.81
537.06	84.26
537.23	95.96
537.40	86.60
537.57	56.17
537.74	84.26
537.91	63.19
538.08	72.56
538.25	42.13
538.42	147.45
538.59	7.02
538.75	30.43
538.92	72.56
539.09	133.41
539.26	28.09
539.43	32.77
539.60	91.28
539.77	72.56
539.94	39.79
540.11	56.17
540.28	81.92
540.44	51.49
540.61	11.70
540.78	88.94
540.95	81.92
541.12	49.15
541.29	60.85
541.46	121.71
541.62	95.96
541.79	56.17
541.96	9.36
542.13	28.09
542.30	105.32
542.47	0.00
542.63	51.49
542.80	110.01
542.97	35.11
543.14	4.68
543.31	84.26
543.48	0.00
543.64	110.01
543.81	58.51
543.98	63.19
544.15	21.06
544.32	74.90
544.48	16.38
544.65	18.72
544.82	72.56
544.99	49.15
545.16	23.41
545.32	58.51
545.49	79.58
545.66	60.85
545.83	0.00
546.00	107.66
546.16	37.45
546.33	42.13
546.50	86.60
546.67	74.90
546.83	0.00
547.00	0.00
547.17	53.83
547.34	100.64
547.50	23.41
547.67	84.26
547.84	81.92
548.00	67.88
548.17	65.54
548.34	35.11
548.51	100.64
548.67	107.66
548.84	7.02
549.01	70.22
549.18	107.66
549.34	46.81
549.51	63.19
549.68	72.56
549.84	11.70
550.01	21.06
550.18	30.43
550.34	63.19
550.51	35.11
550.68	21.06
550.84	32.77
551.01	42.13
551.18	98.30
551.34	0.00
551.51	56.17
551.68	60.85
551.84	65.54
552.01	77.24
552.18	140.43
552.34	81.92
552.51	84.26
552.68	84.26
552.84	128.73
553.01	42.13
553.18	86.60
553.34	49.15
553.51	11.70
553.67	100.64
553.84	56.17
554.01	2.34
554.17	65.54
554.34	25.75
554.51	53.83
554.67	32.77
554.84	114.69
555.00	72.56
555.17	182.56
555.33	42.13
555.50	35.11
555.67	32.77
555.83	58.51
556.00	65.54
556.16	49.15
556.33	74.90
556.50	42.13
556.66	86.60
556.83	70.22
556.99	0.00
557.16	30.43
557.32	112.35
557.49	63.19
557.65	51.49
557.82	133.41
557.98	21.06
558.15	32.77
558.32	49.15
558.48	79.58
558.65	53.83
558.81	117.03
558.98	46.81
559.14	74.90
559.31	67.88
559.47	58.51
559.64	86.60
559.80	37.45
559.97	4.68
560.13	119.37
560.30	42.13
560.46	110.01
560.63	72.56
560.79	0.00
560.96	0.00
561.12	4.68
561.29	28.09
561.45	53.83
561.61	25.75
561.78	18.72
561.94	7.02
562.11	65.54
562.27	46.81
562.44	37.45
562.60	37.45
562.77	70.22
562.93	117.03
563.10	121.71
563.26	86.60
563.42	65.54
563.59	86.60
563.75	60.85
563.92	65.54
564.08	100.64
564.24	18.72
564.41	28.09
564.57	0.00
564.74	37.45
564.90	86.60
565.07	93.62
565.23	67.88
565.39	60.85
565.56	102.98
565.72	72.56
565.88	42.13
566.05	72.56
566.21	39.79
566.38	28.09
566.54	117.03
566.70	133.41
566.87	18.72
567.03	79.58
567.19	93.62
567.36	67.88
567.52	49.15
567.68	102.98
567.85	37.45
568.01	119.37
568.17	9.36
568.34	25.75
568.50	14.04
568.66	86.60
568.83	72.56
568.99	0.00
569.15	72.56
569.32	49.15
569.48	65.54
569.64	65.54
569.81	91.28
569.97	79.58
570.13	65.54
570.30	84.26
570.46	58.51
570.62	4.68
570.78	70.22
570.95	37.45
571.11	46.81
571.27	44.47
571.43	74.90
571.60	63.19
571.76	23.41
571.92	46.81
572.09	72.56
572.25	51.49
572.41	86.60
572.57	51.49
572.74	53.83
572.90	65.54
573.06	70.22
573.22	35.11
573.38	0.00
573.55	44.47
573.71	74.90
573.87	2.34
574.03	56.17
574.20	0.00
574.36	21.06
574.52	16.38
574.68	35.11
574.84	35.11
575.01	14.04
575.17	46.81
575.33	18.72
575.49	88.94
575.65	98.30
575.82	81.92
575.98	70.22
576.14	184.90
576.30	46.81
576.46	74.90
576.62	25.75
576.79	39.79
576.95	65.54
577.11	39.79
577.27	14.04
577.43	25.75
577.59	42.13
577.75	91.28
577.92	91.28
578.08	39.79
578.24	79.58
578.40	91.28
578.56	65.54
578.72	74.90
578.88	30.43
579.04	58.51
579.21	37.45
579.37	102.98
579.53	79.58
579.69	74.90
579.85	98.30
580.01	18.72
580.17	18.72
580.33	44.47
580.49	56.17
580.65	21.06
580.82	77.24
580.98	44.47
581.14	18.72
581.30	53.83
581.46	35.11
581.62	60.85
581.78	79.58
581.94	98.30
582.10	46.81
582.26	53.83
582.42	84.26
582.58	81.92
582.74	21.06
582.90	65.54
583.06	79.58
583.22	135.75
583.38	56.17
583.54	88.94
583.70	105.32
583.86	86.60
584.02	84.26
584.18	44.47
584.34	0.00
584.50	86.60
584.66	142.77
584.82	16.38
584.98	39.79
585.14	37.45
585.30	84.26
585.46	74.90
585.62	35.11
585.78	112.35
585.94	44.47
586.10	53.83
586.26	67.88
586.42	67.88
586.58	81.92
586.74	72.56
586.90	0.00
587.06	70.22
587.22	124.05
587.38	72.56
587.54	86.60
587.70	60.85
587.86	16.38
588.02	53.83
588.18	93.62
588.34	98.30
588.49	56.17
588.65	63.19
588.81	0.00
588.97	0.00
589.13	72.56
589.29	9.36
589.45	32.77
589.61	42.13
589.77	0.00
589.93	0.00
590.08	9.36
590.24	84.26
590.40	18.72
590.56	60.85
590.72	0.00
590.88	21.06
591.04	49.15
591.20	65.54
591.35	28.09
591.51	53.83
591.67	14.04
591.83	65.54
591.99	44.47
592.15	51.49
592.31	0.00
592.46	56.17
592.62	112.35
592.78	84.26
592.94	72.56
593.10	0.00
593.26	30.43
593.41	23.41
593.57	74.90
593.73	58.51
593.89	105.32
594.05	37.45
594.20	7.02
594.36	39.79
594.52	102.98
594.68	23.41
594.84	91.28
594.99	16.38
595.15	46.81
595.31	23.41
595.47	72.56
595.62	138.09
595.78	102.98
595.94	65.54
596.10	91.28
596.25	63.19
596.41	46.81
596.57	117.03
596.73	0.00
596.88	7.02
597.04	37.45
597.20	0.00
597.36	91.28
597.51	51.49
597.67	49.15
597.83	65.54
597.99	28.09
598.14	32.77
598.30	25.75
598.46	0.00
598.61	39.79
598.77	72.56
598.93	49.15
599.09	35.11
599.24	79.58
599.40	0.00
599.56	72.56
599.71	37.45
599.87	70.22
600.03	70.22
600.18	65.54
600.34	100.64
600.50	60.85
600.65	0.00
600.81	42.13
600.97	81.92
601.12	46.81
601.28	107.66
601.44	110.01
601.59	60.85
601.75	63.19
601.91	37.45
602.06	21.06
602.22	23.41
602.37	0.00
602.53	25.75
602.69	114.69
602.84	112.35
603.00	65.54
603.16	67.88
603.31	121.71
603.47	0.00
603.62	77.24
603.78	65.54
603.94	93.62
604.09	44.47
604.25	0.00
604.40	0.00
604.56	0.00
604.71	42.13
604.87	51.49
605.03	67.88
605.18	72.56
605.34	81.92
605.49	0.00
605.65	11.70
605.80	58.51
605.96	110.01
606.12	65.54
606.27	133.41
606.43	16.38
606.58	58.51
606.74	112.35
606.89	102.98
607.05	70.22
607.20	67.88
607.36	0.00
607.51	105.32
607.67	67.88
607.82	138.09
607.98	0.00
608.13	86.60
608.29	39.79
608.44	154.48
608.60	0.00
608.75	114.69
608.91	60.85
609.06	30.43
609.22	39.79
609.37	91.28
609.53	0.00
609.68	77.24
609.84	28.09
609.99	84.26
610.15	58.51
610.30	58.51
610.46	121.71
610.61	74.90
610.76	0.00
610.92	51.49
611.07	58.51
611.23	9.36
611.38	98.30
611.54	37.45
611.69	2.34
611.84	28.09
612.00	56.17
612.15	7.02
612.31	74.90
612.46	79.58
612.62	23.41
612.77	65.54
612.92	63.19
613.08	49.15
613.23	9.36
613.39	0.00
613.54	79.58
613.69	98.30
613.85	0.00
614.00	0.00
614.15	56.17
614.31	107.66
614.46	74.90
614.62	14.04
614.77	93.62
614.92	72.56
615.08	105.32
615.23	0.00
615.38	0.00
615.54	91.28
615.69	42.13
615.84	18.72
616.00	51.49
616.15	7.02
616.30	44.47
616.46	30.43
616.61	74.90
616.76	7.02
616.92	28.09
617.07	23.41
617.22	23.41
617.37	65.54
617.53	70.22
617.68	9.36
617.83	32.77
617.99	77.24
618.14	28.09
618.29	53.83
618.45	23.41
618.60	86.60
618.75	21.06
618.90	44.47
619.06	49.15
619.21	81.92
619.36	30.43
619.51	60.85
619.67	25.75
619.82	0.00
619.97	79.58
620.12	60.85
620.28	98.30
620.43	95.96
620.58	74.90
620.73	16.38
620.89	63.19
621.04	0.00
621.19	63.19
621.34	0.00
621.49	37.45
621.65	32.77
621.80	0.00
621.95	58.51
622.10	65.54
622.25	35.11
622.41	51.49
622.56	49.15
622.71	18.72
622.86	0.00
623.01	35.11
623.16	44.47
623.32	14.04
623.47	53.83
623.62	91.28
623.77	63.19
623.92	93.62
624.07	77.24
624.23	58.51
624.38	67.88
624.53	46.81
624.68	28.09
624.83	25.75
624.98	18.72
625.13	35.11
625.29	0.00
625.44	135.75
625.59	53.83
625.74	95.96
625.89	112.35
626.04	0.00
626.19	4.68
626.34	30.43
626.49	84.26
626.65	105.32
626.80	67.88
626.95	7.02
627.10	65.54
627.25	49.15
627.40	72.56
627.55	121.71
627.70	16.38
627.85	32.77
628.00	42.13
628.15	72.56
628.30	18.72
628.45	44.47
628.60	142.77
628.76	117.03
628.91	39.79
629.06	35.11
629.21	35.11
629.36	39.79
629.51	35.11
629.66	16.38
629.81	0.00
629.96	60.85
630.11	11.70
630.26	114.69
630.41	60.85
630.56	44.47
630.71	88.94
630.86	0.00
631.01	65.54
631.16	37.45
631.31	44.47
631.46	81.92
631.61	18.72
631.76	74.90
631.91	21.06
632.06	56.17
632.21	56.17
632.36	18.72
632.51	58.51
632.66	72.56
632.81	51.49
632.96	67.88
633.10	35.11
633.25	16.38
633.40	135.75
633.55	30.43
633.70	7.02
633.85	105.32
634.00	70.22
634.15	46.81
634.30	119.37
634.45	28.09
634.60	25.75
634.75	72.56
634.90	35.11
635.05	7.02
635.19	0.00
635.34	93.62
635.49	84.26
635.64	49.15
635.79	44.47
635.94	23.41
636.09	49.15
636.24	49.15
636.39	28.09
636.53	21.06
636.68	65.54
636.83	0.00
636.98	91.28
637.13	67.88
637.28	0.00
637.43	9.36
637.57	58.51
637.72	65.54
637.87	9.36
638.02	117.03
638.17	32.77
638.32	53.83
638.46	28.09
638.61	28.09
638.76	9.36
638.91	84.26
639.06	0.00
639.20	21.06
639.35	53.83
639.50	0.00
639.65	37.45
639.80	9.36
639.94	91.28
640.09	18.72
640.24	25.75
640.39	60.85
640.54	39.79
640.68	16.38
640.83	25.75
640.98	42.13
641.13	112.35
641.27	30.43
641.42	56.17
641.57	11.70
641.72	46.81
641.86	49.15
642.01	30.43
642.16	110.01
642.31	72.56
642.45	102.98
642.60	74.90
642.75	72.56
642.90	21.06
643.04	25.75
643.19	72.56
643.34	23.41
643.48	21.06
643.63	65.54
643.78	0.00
643.93	9.36
644.07	44.47
644.22	49.15
644.37	0.00
644.51	21.06
644.66	91.28
644.81	21.06
644.95	88.94
645.10	46.81
645.25	0.00
645.39	53.83
645.54	72.56
645.69	28.09
645.83	28.09
645.98	0.00
646.13	0.00
646.27	21.06
646.42	28.09
646.57	32.77
646.71	63.19
646.86	60.85
647.00	51.49
647.15	39.79
647.30	0.00
647.44	46.81
647.59	39.79
647.74	30.43
647.88	51.49
648.03	37.45
648.17	23.41
648.32	70.22
648.47	30.43
648.61	30.43
648.76	46.81
648.90	28.09
649.05	0.00
649.20	119.37
649.34	53.83
649.49	46.81
649.63	39.79
649.78	0.00
649.92	49.15
650.07	0.00
650.21	49.15
650.36	93.62
650.51	88.94
650.65	119.37
650.80	18.72
650.94	2.34
651.09	39.79
651.23	16.38
651.38	51.49
651.52	0.00
651.67	95.96
651.81	51.49
651.96	56.17
652.10	114.69
652.25	81.92
652.39	16.38
652.54	77.24
652.68	23.41
652.83	42.13
652.97	9.36
653.12	42.13
653.26	0.00
653.41	72.56
653.55	126.39
653.70	32.77
653.84	58.51
653.99	39.79
654.13	11.70
654.27	95.96
654.42	16.38
654.56	63.19
654.71	0.00
654.85	42.13
655.00	98.30
655.14	53.83
655.29	21.06
655.43	18.72
655.57	14.04
655.72	0.00
655.86	0.00
656.01	77.24
656.15	7.02
656.30	56.17
656.44	0.00
656.58	84.26
656.73	142.77
656.87	74.90
657.01	37.45
657.16	91.28
657.30	46.81
657.45	65.54
657.59	58.51
657.73	32.77
657.88	0.00
658.02	28.09
658.16	67.88
658.31	25.75
658.45	4.68
658.60	39.79
658.74	86.60
658.88	81.92
659.03	51.49
659.17	2.34
659.31	67.88
659.46	35.11
659.60	30.43
659.74	112.35
659.89	30.43
660.03	7.02
660.17	100.64
660.32	51.49
660.46	0.00
660.60	42.13
660.74	84.26
660.89	46.81
661.03	77.24
661.17	46.81
661.32	9.36
661.46	93.62
661.60	74.90
661.74	88.94
661.89	79.58
662.03	28.09
662.17	98.30
662.31	51.49
662.46	67.88
662.60	86.60
662.74	30.43
662.88	30.43
663.03	88.94
663.17	72.56
663.31	32.77
663.45	35.11
663.60	18.72
663.74	21.06
663.88	63.19
664.02	84.26
664.17	56.17
664.31	39.79
664.45	42.13
664.59	2.34
664.73	88.94
664.88	49.15
665.02	0.00
665.16	25.75
665.30	39.79
665.44	98.30
665.59	2.34
665.73	63.19
665.87	44.47
666.01	23.41
666.15	58.51
666.29	0.00
666.44	88.94
666.58	95.96
666.72	49.15
666.86	138.09
667.00	72.56
667.14	37.45
667.28	49.15
667.43	4.68
667.57	9.36
667.71	56.17
667.85	9.36
667.99	32.77
668.13	51.49
668.27	74.90
668.41	30.43
668.56	88.94
668.70	72.56
668.84	65.54
668.98	93.62
669.12	58.51
669.26	23.41
669.40	51.49
669.54	81.92
669.68	18.72
669.82	56.17
669.96	0.00
670.10	37.45
670.25	23.41
670.39	72.56
670.53	56.17
670.67	77.24
670.81	0.00
670.95	77.24
671.09	11.70
671.23	42.13
671.37	0.00
671.51	21.06
671.65	25.75
671.79	16.38
671.93	39.79
672.07	30.43
672.21	81.92
672.35	30.43
672.49	65.54
672.63	0.00
672.77	93.62
672.91	0.00
673.05	0.00
673.19	30.43
673.33	53.83
673.47	39.79
673.61	9.36
673.75	39.79
673.89	23.41
674.03	0.00
674.17	2.34
674.31	39.79
674.45	65.54
674.59	7.02
674.73	65.54
674.87	0.00
675.01	23.41
675.15	28.09
675.29	0.00
675.43	14.04
675.56	70.22
675.70	93.62
675.84	51.49
675.98	4.68
676.12	93.62
676.26	39.79
676.40	131.07
676.54	65.54
676.68	81.92
676.82	86.60
676.96	16.38
677.10	37.45
677.23	46.81
677.37	63.19
677.51	11.70
677.65	18.72
677.79	18.72
677.93	30.43
678.07	14.04
678.21	14.04
678.34	0.00
678.48	72.56
678.62	11.70
678.76	32.77
678.90	32.77
679.04	0.00
679.18	23.41
679.31	56.17
679.45	0.00
679.59	39.79
679.73	53.83
679.87	46.81
680.00	25.75
680.14	79.58
680.28	56.17
680.42	0.00
680.56	81.92
680.70	11.70
680.83	72.56
680.97	74.90
681.11	126.39
681.25	14.04
681.39	4.68
681.52	53.83
681.66	35.11
681.80	0.00
681.94	0.00
682.07	35.11
682.21	42.13
682.35	98.30
682.49	0.00
682.62	95.96
682.76	2.34
682.90	56.17
683.04	4.68
683.17	81.92
683.31	74.90
683.45	63.19
683.59	32.77
683.72	51.49
683.86	98.30
684.00	53.83
684.13	91.28
684.27	32.77
684.41	25.75
684.55	42.13
684.68	28.09
684.82	131.07
684.96	37.45
685.09	0.00
685.23	93.62
685.37	21.06
685.50	81.92
685.64	133.41
685.78	112.35
685.91	14.04
686.05	91.28
686.19	65.54
686.32	124.05
686.46	42.13
686.60	93.62
686.73	32.77
686.87	42.13
687.01	42.13
687.14	18.72
687.28	14.04
687.42	32.77
687.55	23.41
687.69	37.45
687.82	0.00
687.96	21.06
688.10	114.69
688.23	37.45
688.37	56.17
688.50	21.06
688.64	37.45
688.78	0.00
688.91	25.75
689.05	42.13
689.18	0.00
689.32	56.17
689.46	32.77
689.59	67.88
689.73	79.58
689.86	51.49
690.00	44.47
690.13	14.04
690.27	0.00
690.41	79.58
690.54	39.79
690.68	100.64
690.81	67.88
690.95	65.54
691.08	0.00
691.22	35.11
691.35	91.28
691.49	39.79
691.62	16.38
691.76	30.43
691.89	39.79
692.03	63.19
692.16	70.22
692.30	65.54
692.43	46.81
692.57	63.19
692.70	37.45
692.84	14.04
692.97	0.00
693.11	77.24
693.24	84.26
693.38	46.81
693.51	0.00
693.65	72.56
693.78	30.43
693.92	65.54
694.05	100.64
694.19	0.00
694.32	51.49
694.45	23.41
694.59	84.26
694.72	9.36
694.86	9.36
694.99	110.01
695.13	16.38
695.26	35.11
695.39	0.00
695.53	0.00
695.66	25.75
695.80	42.13
695.93	72.56
696.07	14.04
696.20	0.00
696.33	0.00
696.47	0.00
696.60	35.11
696.73	49.15
696.87	28.09
697.00	77.24
697.14	7.02
697.27	32.77
697.40	70.22
697.54	58.51
697.67	60.85
697.80	0.00
697.94	114.69
698.07	18.72
698.21	51.49
698.34	35.11
698.47	91.28
698.61	32.77
698.74	0.00
698.87	60.85
699.01	37.45
699.14	63.19
699.27	11.70
699.40	88.94
699.54	0.00
699.67	0.00
699.80	42.13
699.94	35.11
700.07	16.38
700.20	0.00
700.34	65.54
700.47	46.81
700.60	67.88
700.73	0.00
700.87	65.54
701.00	0.00
701.13	23.41
701.26	102.98
701.40	32.77
701.53	56.17
701.66	81.92
701.79	53.83
701.93	46.81
702.06	4.68
702.19	0.00
702.32	35.11
702.46	0.00
702.59	16.38
702.72	0.00
702.85	70.22
702.99	23.41
703.12	0.00
703.25	51.49
703.38	67.88
703.51	49.15
703.65	0.00
703.78	0.00
703.91	9.36
704.04	49.15
704.17	18.72
704.31	0.00
704.44	81.92
704.57	37.45
704.70	18.72
704.83	65.54
704.96	25.75
705.10	95.96
705.23	65.54
>>>>>End Processed Spectral Data<<<<<
