SpectraSuite Data File
++++++++++++++++++++++++++++++++++++
Date: Fri Oct 04 12:13:24 GMT-05:00 2013
User: price-jones
Dark Spectrum Present: No
Reference Spectrum Present: No
Number of Sampled Component Spectra: 1
Spectrometers: USB2+H05261
Integration Time (usec): 10000 (USB2+H05261)
Spectra Averaged: 1 (USB2+H05261)
Boxcar Smoothing: 0 (USB2+H05261)
Correct for Electrical Dark: No (USB2+H05261)
Strobe/Lamp Enabled: No (USB2+H05261)
Correct for Detector Non-linearity: No (USB2+H05261)
Correct for Stray Light: No (USB2+H05261)
Number of Pixels in Processed Spectrum: 2048
>>>>>Begin Processed Spectral Data<<<<<
365.73	0.00
365.92	0.00
366.12	0.00
366.32	0.00
366.52	0.00
366.72	0.00
366.91	0.00
367.11	0.00
367.31	0.00
367.51	0.00
367.70	0.00
367.90	0.00
368.10	0.00
368.30	0.00
368.49	0.00
368.69	0.00
368.89	0.00
369.09	0.00
369.28	0.00
369.48	0.00
369.68	0.00
369.87	0.00
370.07	0.00
370.27	0.00
370.47	0.00
370.66	0.00
370.86	0.00
371.06	0.00
371.25	0.00
371.45	42.13
371.65	0.00
371.84	35.11
372.04	0.00
372.24	0.00
372.44	0.00
372.63	0.00
372.83	0.00
373.03	60.85
373.22	0.00
373.42	28.09
373.62	28.09
373.81	16.38
374.01	0.00
374.21	51.49
374.40	18.72
374.60	23.41
374.79	30.43
374.99	9.36
375.19	28.09
375.38	72.56
375.58	9.36
375.78	91.28
375.97	60.85
376.17	28.09
376.37	63.19
376.56	77.24
376.76	63.19
376.95	14.04
377.15	0.00
377.35	0.00
377.54	28.09
377.74	37.45
377.93	16.38
378.13	60.85
378.33	0.00
378.52	0.00
378.72	0.00
378.91	16.38
379.11	53.83
379.31	67.88
379.50	0.00
379.70	0.00
379.89	2.34
380.09	56.17
380.28	0.00
380.48	0.00
380.68	0.00
380.87	42.13
381.07	14.04
381.26	0.00
381.46	72.56
381.65	0.00
381.85	32.77
382.04	0.00
382.24	0.00
382.43	4.68
382.63	0.00
382.83	0.00
383.02	49.15
383.22	35.11
383.41	56.17
383.61	0.00
383.80	9.36
384.00	65.54
384.19	32.77
384.39	18.72
384.58	4.68
384.78	49.15
384.97	25.75
385.17	0.00
385.36	51.49
385.56	32.77
385.75	16.38
385.95	58.51
386.14	4.68
386.34	79.58
386.53	30.43
386.72	0.00
386.92	7.02
387.11	0.00
387.31	0.00
387.50	9.36
387.70	0.00
387.89	25.75
388.09	0.00
388.28	0.00
388.48	0.00
388.67	0.00
388.86	0.00
389.06	0.00
389.25	93.62
389.45	0.00
389.64	0.00
389.84	0.00
390.03	7.02
390.22	60.85
390.42	46.81
390.61	0.00
390.81	11.70
391.00	11.70
391.19	56.17
391.39	74.90
391.58	7.02
391.78	72.56
391.97	65.54
392.16	11.70
392.36	74.90
392.55	0.00
392.75	39.79
392.94	4.68
393.13	53.83
393.33	0.00
393.52	32.77
393.71	46.81
393.91	0.00
394.10	23.41
394.29	60.85
394.49	21.06
394.68	49.15
394.88	21.06
395.07	4.68
395.26	0.00
395.46	14.04
395.65	138.09
395.84	4.68
396.04	39.79
396.23	21.06
396.42	86.60
396.62	46.81
396.81	0.00
397.00	42.13
397.19	56.17
397.39	30.43
397.58	9.36
397.77	0.00
397.97	18.72
398.16	4.68
398.35	30.43
398.55	0.00
398.74	0.00
398.93	32.77
399.12	49.15
399.32	39.79
399.51	0.00
399.70	30.43
399.90	0.00
400.09	0.00
400.28	32.77
400.47	117.03
400.67	0.00
400.86	0.00
401.05	11.70
401.24	37.45
401.44	46.81
401.63	32.77
401.82	0.00
402.01	4.68
402.21	30.43
402.40	18.72
402.59	30.43
402.78	42.13
402.97	42.13
403.17	0.00
403.36	58.51
403.55	119.37
403.74	23.41
403.93	7.02
404.13	4.68
404.32	7.02
404.51	77.24
404.70	2.34
404.89	53.83
405.09	21.06
405.28	0.00
405.47	30.43
405.66	70.22
405.85	0.00
406.05	0.00
406.24	67.88
406.43	0.00
406.62	91.28
406.81	21.06
407.00	30.43
407.20	46.81
407.39	7.02
407.58	23.41
407.77	18.72
407.96	28.09
408.15	124.05
408.34	21.06
408.54	60.85
408.73	0.00
408.92	7.02
409.11	37.45
409.30	16.38
409.49	16.38
409.68	65.54
409.87	28.09
410.07	0.00
410.26	0.00
410.45	25.75
410.64	49.15
410.83	0.00
411.02	67.88
411.21	14.04
411.40	42.13
411.59	0.00
411.78	23.41
411.98	44.47
412.17	0.00
412.36	0.00
412.55	112.35
412.74	9.36
412.93	14.04
413.12	0.00
413.31	0.00
413.50	23.41
413.69	14.04
413.88	0.00
414.07	7.02
414.26	67.88
414.45	44.47
414.64	0.00
414.83	7.02
415.02	77.24
415.22	28.09
415.41	35.11
415.60	30.43
415.79	30.43
415.98	105.32
416.17	18.72
416.36	0.00
416.55	7.02
416.74	46.81
416.93	4.68
417.12	79.58
417.31	0.00
417.50	28.09
417.69	0.00
417.88	0.00
418.07	53.83
418.26	86.60
418.45	35.11
418.64	14.04
418.83	14.04
419.02	23.41
419.21	30.43
419.39	21.06
419.58	37.45
419.77	28.09
419.96	4.68
420.15	0.00
420.34	0.00
420.53	4.68
420.72	88.94
420.91	0.00
421.10	44.47
421.29	51.49
421.48	14.04
421.67	56.17
421.86	42.13
422.05	28.09
422.24	0.00
422.43	37.45
422.61	16.38
422.80	23.41
422.99	21.06
423.18	0.00
423.37	74.90
423.56	46.81
423.75	14.04
423.94	51.49
424.13	32.77
424.32	65.54
424.50	0.00
424.69	11.70
424.88	9.36
425.07	0.00
425.26	2.34
425.45	18.72
425.64	0.00
425.83	49.15
426.01	23.41
426.20	72.56
426.39	84.26
426.58	0.00
426.77	93.62
426.96	44.47
427.15	28.09
427.33	2.34
427.52	9.36
427.71	14.04
427.90	30.43
428.09	25.75
428.28	42.13
428.46	39.79
428.65	35.11
428.84	16.38
429.03	0.00
429.22	86.60
429.40	21.06
429.59	37.45
429.78	65.54
429.97	102.98
430.16	56.17
430.34	67.88
430.53	14.04
430.72	100.64
430.91	23.41
431.10	72.56
431.28	46.81
431.47	53.83
431.66	88.94
431.85	18.72
432.03	0.00
432.22	0.00
432.41	0.00
432.60	14.04
432.79	0.00
432.97	46.81
433.16	49.15
433.35	86.60
433.54	51.49
433.72	21.06
433.91	46.81
434.10	0.00
434.28	51.49
434.47	56.17
434.66	49.15
434.85	60.85
435.03	23.41
435.22	42.13
435.41	21.06
435.59	0.00
435.78	63.19
435.97	0.00
436.16	30.43
436.34	18.72
436.53	119.37
436.72	86.60
436.90	35.11
437.09	56.17
437.28	23.41
437.46	128.73
437.65	23.41
437.84	60.85
438.02	2.34
438.21	53.83
438.40	60.85
438.58	42.13
438.77	77.24
438.96	51.49
439.14	4.68
439.33	51.49
439.52	100.64
439.70	46.81
439.89	0.00
440.08	0.00
440.26	16.38
440.45	9.36
440.63	0.00
440.82	4.68
441.01	51.49
441.19	0.00
441.38	67.88
441.57	102.98
441.75	44.47
441.94	51.49
442.12	42.13
442.31	58.51
442.50	32.77
442.68	53.83
442.87	23.41
443.05	0.00
443.24	70.22
443.43	124.05
443.61	0.00
443.80	63.19
443.98	58.51
444.17	0.00
444.35	37.45
444.54	98.30
444.73	9.36
444.91	128.73
445.10	16.38
445.28	51.49
445.47	63.19
445.65	0.00
445.84	0.00
446.02	0.00
446.21	81.92
446.39	32.77
446.58	16.38
446.77	51.49
446.95	30.43
447.14	56.17
447.32	0.00
447.51	44.47
447.69	30.43
447.88	0.00
448.06	58.51
448.25	37.45
448.43	131.07
448.62	30.43
448.80	74.90
448.99	21.06
449.17	112.35
449.36	42.13
449.54	28.09
449.73	67.88
449.91	0.00
450.10	46.81
450.28	53.83
450.46	51.49
450.65	74.90
450.83	65.54
451.02	74.90
451.20	0.00
451.39	60.85
451.57	60.85
451.76	39.79
451.94	2.34
452.13	7.02
452.31	32.77
452.49	53.83
452.68	131.07
452.86	53.83
453.05	56.17
453.23	32.77
453.42	42.13
453.60	84.26
453.78	32.77
453.97	30.43
454.15	119.37
454.34	0.00
454.52	74.90
454.70	32.77
454.89	42.13
455.07	46.81
455.26	51.49
455.44	39.79
455.62	14.04
455.81	23.41
455.99	74.90
456.17	46.81
456.36	60.85
456.54	142.77
456.73	2.34
456.91	9.36
457.09	84.26
457.28	4.68
457.46	0.00
457.64	21.06
457.83	0.00
458.01	18.72
458.19	110.01
458.38	72.56
458.56	7.02
458.74	14.04
458.93	0.00
459.11	4.68
459.29	46.81
459.48	0.00
459.66	35.11
459.84	35.11
460.03	102.98
460.21	30.43
460.39	42.13
460.57	11.70
460.76	67.88
460.94	58.51
461.12	49.15
461.31	107.66
461.49	63.19
461.67	7.02
461.85	58.51
462.04	53.83
462.22	67.88
462.40	70.22
462.59	110.01
462.77	72.56
462.95	0.00
463.13	18.72
463.32	49.15
463.50	16.38
463.68	93.62
463.86	44.47
464.05	110.01
464.23	0.00
464.41	91.28
464.59	14.04
464.78	4.68
464.96	4.68
465.14	32.77
465.32	74.90
465.50	72.56
465.69	0.00
465.87	2.34
466.05	0.00
466.23	39.79
466.41	30.43
466.60	0.00
466.78	39.79
466.96	63.19
467.14	30.43
467.32	70.22
467.51	14.04
467.69	46.81
467.87	23.41
468.05	0.00
468.23	0.00
468.41	32.77
468.60	147.45
468.78	72.56
468.96	35.11
469.14	0.00
469.32	30.43
469.50	72.56
469.69	58.51
469.87	60.85
470.05	16.38
470.23	18.72
470.41	49.15
470.59	32.77
470.77	16.38
470.95	88.94
471.14	4.68
471.32	44.47
471.50	16.38
471.68	58.51
471.86	56.17
472.04	49.15
472.22	102.98
472.40	74.90
472.58	9.36
472.77	56.17
472.95	7.02
473.13	93.62
473.31	58.51
473.49	39.79
473.67	117.03
473.85	35.11
474.03	0.00
474.21	49.15
474.39	42.13
474.57	70.22
474.75	58.51
474.93	77.24
475.12	0.00
475.30	37.45
475.48	88.94
475.66	35.11
475.84	0.00
476.02	23.41
476.20	7.02
476.38	25.75
476.56	25.75
476.74	91.28
476.92	44.47
477.10	14.04
477.28	56.17
477.46	0.00
477.64	32.77
477.82	107.66
478.00	131.07
478.18	142.77
478.36	23.41
478.54	0.00
478.72	0.00
478.90	65.54
479.08	49.15
479.26	0.00
479.44	56.17
479.62	14.04
479.80	0.00
479.98	58.51
480.16	11.70
480.34	0.00
480.52	0.00
480.70	88.94
480.88	25.75
481.06	88.94
481.24	30.43
481.41	9.36
481.59	25.75
481.77	18.72
481.95	86.60
482.13	67.88
482.31	25.75
482.49	18.72
482.67	37.45
482.85	58.51
483.03	51.49
483.21	28.09
483.39	98.30
483.57	100.64
483.74	18.72
483.92	4.68
484.10	121.71
484.28	0.00
484.46	18.72
484.64	0.00
484.82	28.09
485.00	60.85
485.18	35.11
485.35	107.66
485.53	70.22
485.71	16.38
485.89	0.00
486.07	46.81
486.25	39.79
486.43	0.00
486.61	60.85
486.78	133.41
486.96	28.09
487.14	11.70
487.32	46.81
487.50	79.58
487.68	84.26
487.85	25.75
488.03	79.58
488.21	30.43
488.39	65.54
488.57	0.00
488.75	79.58
488.92	79.58
489.10	60.85
489.28	81.92
489.46	0.00
489.64	16.38
489.81	58.51
489.99	23.41
490.17	0.00
490.35	0.00
490.53	28.09
490.70	88.94
490.88	9.36
491.06	37.45
491.24	0.00
491.41	56.17
491.59	95.96
491.77	98.30
491.95	39.79
492.13	46.81
492.30	93.62
492.48	4.68
492.66	53.83
492.84	0.00
493.01	56.17
493.19	4.68
493.37	25.75
493.54	58.51
493.72	30.43
493.90	72.56
494.08	42.13
494.25	30.43
494.43	2.34
494.61	86.60
494.79	72.56
494.96	86.60
495.14	42.13
495.32	0.00
495.49	74.90
495.67	79.58
495.85	81.92
496.02	72.56
496.20	2.34
496.38	65.54
496.55	102.98
496.73	32.77
496.91	84.26
497.09	63.19
497.26	53.83
497.44	49.15
497.62	44.47
497.79	14.04
497.97	98.30
498.14	11.70
498.32	72.56
498.50	63.19
498.67	44.47
498.85	0.00
499.03	53.83
499.20	39.79
499.38	46.81
499.56	0.00
499.73	18.72
499.91	53.83
500.08	4.68
500.26	23.41
500.44	11.70
500.61	58.51
500.79	81.92
500.97	35.11
501.14	39.79
501.32	37.45
501.49	35.11
501.67	0.00
501.84	60.85
502.02	28.09
502.20	58.51
502.37	0.00
502.55	2.34
502.72	53.83
502.90	35.11
503.07	58.51
503.25	0.00
503.43	9.36
503.60	56.17
503.78	46.81
503.95	107.66
504.13	4.68
504.30	35.11
504.48	4.68
504.65	53.83
504.83	88.94
505.01	49.15
505.18	0.00
505.36	16.38
505.53	0.00
505.71	93.62
505.88	86.60
506.06	117.03
506.23	44.47
506.41	23.41
506.58	79.58
506.76	63.19
506.93	23.41
507.11	35.11
507.28	44.47
507.46	18.72
507.63	56.17
507.81	42.13
507.98	16.38
508.16	11.70
508.33	72.56
508.50	72.56
508.68	84.26
508.85	49.15
509.03	67.88
509.20	79.58
509.38	56.17
509.55	74.90
509.73	105.32
509.90	23.41
510.08	91.28
510.25	28.09
510.42	56.17
510.60	51.49
510.77	133.41
510.95	114.69
511.12	88.94
511.30	4.68
511.47	72.56
511.64	119.37
511.82	102.98
511.99	28.09
512.17	0.00
512.34	65.54
512.51	32.77
512.69	51.49
512.86	0.00
513.04	91.28
513.21	70.22
513.38	51.49
513.56	72.56
513.73	110.01
513.90	0.00
514.08	58.51
514.25	128.73
514.43	91.28
514.60	70.22
514.77	53.83
514.95	16.38
515.12	25.75
515.29	77.24
515.47	25.75
515.64	23.41
515.81	23.41
515.99	16.38
516.16	25.75
516.33	81.92
516.51	21.06
516.68	23.41
516.85	0.00
517.03	102.98
517.20	25.75
517.37	88.94
517.54	23.41
517.72	79.58
517.89	0.00
518.06	77.24
518.24	23.41
518.41	25.75
518.58	28.09
518.75	63.19
518.93	49.15
519.10	91.28
519.27	88.94
519.45	74.90
519.62	42.13
519.79	44.47
519.96	16.38
520.14	58.51
520.31	72.56
520.48	35.11
520.65	28.09
520.83	0.00
521.00	65.54
521.17	46.81
521.34	14.04
521.52	0.00
521.69	51.49
521.86	25.75
522.03	74.90
522.20	159.16
522.38	44.47
522.55	86.60
522.72	105.32
522.89	93.62
523.07	79.58
523.24	49.15
523.41	53.83
523.58	53.83
523.75	0.00
523.92	25.75
524.10	28.09
524.27	32.77
524.44	0.00
524.61	133.41
524.78	42.13
524.96	11.70
525.13	46.81
525.30	51.49
525.47	21.06
525.64	95.96
525.81	100.64
525.98	70.22
526.16	0.00
526.33	51.49
526.50	128.73
526.67	28.09
526.84	25.75
527.01	140.43
527.18	30.43
527.36	9.36
527.53	63.19
527.70	112.35
527.87	39.79
528.04	70.22
528.21	37.45
528.38	7.02
528.55	67.88
528.72	77.24
528.89	67.88
529.07	37.45
529.24	91.28
529.41	2.34
529.58	65.54
529.75	39.79
529.92	35.11
530.09	112.35
530.26	35.11
530.43	98.30
530.60	84.26
530.77	112.35
530.94	37.45
531.11	107.66
531.28	16.38
531.46	74.90
531.63	46.81
531.80	79.58
531.97	0.00
532.14	25.75
532.31	25.75
532.48	9.36
532.65	0.00
532.82	42.13
532.99	65.54
533.16	102.98
533.33	14.04
533.50	28.09
533.67	0.00
533.84	42.13
534.01	107.66
534.18	28.09
534.35	67.88
534.52	28.09
534.69	88.94
534.86	79.58
535.03	46.81
535.20	23.41
535.37	18.72
535.54	65.54
535.71	56.17
535.88	88.94
536.05	114.69
536.22	124.05
536.38	42.13
536.55	49.15
536.72	0.00
536.89	21.06
537.06	23.41
537.23	21.06
537.40	58.51
537.57	0.00
537.74	37.45
537.91	79.58
538.08	56.17
538.25	35.11
538.42	121.71
538.59	25.75
538.75	102.98
538.92	138.09
539.09	7.02
539.26	28.09
539.43	9.36
539.60	74.90
539.77	0.00
539.94	60.85
540.11	2.34
540.28	39.79
540.44	23.41
540.61	70.22
540.78	49.15
540.95	0.00
541.12	0.00
541.29	44.47
541.46	72.56
541.62	91.28
541.79	2.34
541.96	88.94
542.13	58.51
542.30	0.00
542.47	23.41
542.63	95.96
542.80	72.56
542.97	44.47
543.14	0.00
543.31	112.35
543.48	77.24
543.64	102.98
543.81	44.47
543.98	37.45
544.15	25.75
544.32	42.13
544.48	53.83
544.65	30.43
544.82	51.49
544.99	81.92
545.16	35.11
545.32	0.00
545.49	77.24
545.66	25.75
545.83	0.00
546.00	44.47
546.16	42.13
546.33	98.30
546.50	35.11
546.67	114.69
546.83	105.32
547.00	0.00
547.17	49.15
547.34	0.00
547.50	35.11
547.67	56.17
547.84	21.06
548.00	128.73
548.17	0.00
548.34	58.51
548.51	53.83
548.67	79.58
548.84	84.26
549.01	28.09
549.18	95.96
549.34	93.62
549.51	93.62
549.68	42.13
549.84	79.58
550.01	79.58
550.18	39.79
550.34	25.75
550.51	72.56
550.68	98.30
550.84	37.45
551.01	67.88
551.18	37.45
551.34	117.03
551.51	0.00
551.68	102.98
551.84	21.06
552.01	60.85
552.18	65.54
552.34	93.62
552.51	119.37
552.68	63.19
552.84	88.94
553.01	51.49
553.18	0.00
553.34	117.03
553.51	65.54
553.67	35.11
553.84	0.00
554.01	65.54
554.17	7.02
554.34	0.00
554.51	37.45
554.67	51.49
554.84	53.83
555.00	11.70
555.17	81.92
555.33	56.17
555.50	32.77
555.67	0.00
555.83	102.98
556.00	42.13
556.16	86.60
556.33	0.00
556.50	107.66
556.66	74.90
556.83	74.90
556.99	42.13
557.16	49.15
557.32	0.00
557.49	25.75
557.65	28.09
557.82	77.24
557.98	65.54
558.15	107.66
558.32	0.00
558.48	63.19
558.65	42.13
558.81	30.43
558.98	81.92
559.14	9.36
559.31	39.79
559.47	42.13
559.64	114.69
559.80	37.45
559.97	86.60
560.13	58.51
560.30	51.49
560.46	18.72
560.63	18.72
560.79	30.43
560.96	119.37
561.12	70.22
561.29	39.79
561.45	46.81
561.61	9.36
561.78	67.88
561.94	0.00
562.11	16.38
562.27	35.11
562.44	28.09
562.60	49.15
562.77	70.22
562.93	44.47
563.10	105.32
563.26	30.43
563.42	105.32
563.59	60.85
563.75	126.39
563.92	21.06
564.08	67.88
564.24	107.66
564.41	46.81
564.57	46.81
564.74	23.41
564.90	0.00
565.07	4.68
565.23	9.36
565.39	4.68
565.56	4.68
565.72	128.73
565.88	65.54
566.05	39.79
566.21	39.79
566.38	70.22
566.54	79.58
566.70	51.49
566.87	74.90
567.03	16.38
567.19	0.00
567.36	14.04
567.52	18.72
567.68	145.11
567.85	37.45
568.01	25.75
568.17	95.96
568.34	72.56
568.50	35.11
568.66	0.00
568.83	56.17
568.99	0.00
569.15	58.51
569.32	23.41
569.48	37.45
569.64	37.45
569.81	91.28
569.97	23.41
570.13	4.68
570.30	70.22
570.46	100.64
570.62	0.00
570.78	44.47
570.95	37.45
571.11	63.19
571.27	58.51
571.43	39.79
571.60	4.68
571.76	0.00
571.92	53.83
572.09	121.71
572.25	42.13
572.41	14.04
572.57	2.34
572.74	98.30
572.90	25.75
573.06	23.41
573.22	135.75
573.38	35.11
573.55	88.94
573.71	112.35
573.87	16.38
574.03	39.79
574.20	51.49
574.36	46.81
574.52	37.45
574.68	35.11
574.84	30.43
575.01	32.77
575.17	30.43
575.33	110.01
575.49	28.09
575.65	70.22
575.82	23.41
575.98	9.36
576.14	46.81
576.30	56.17
576.46	72.56
576.62	65.54
576.79	23.41
576.95	84.26
577.11	79.58
577.27	84.26
577.43	7.02
577.59	32.77
577.75	16.38
577.92	18.72
578.08	11.70
578.24	98.30
578.40	63.19
578.56	49.15
578.72	35.11
578.88	112.35
579.04	56.17
579.21	63.19
579.37	0.00
579.53	72.56
579.69	72.56
579.85	28.09
580.01	56.17
580.17	21.06
580.33	46.81
580.49	4.68
580.65	0.00
580.82	51.49
580.98	39.79
581.14	49.15
581.30	49.15
581.46	0.00
581.62	119.37
581.78	28.09
581.94	72.56
582.10	74.90
582.26	25.75
582.42	35.11
582.58	39.79
582.74	77.24
582.90	100.64
583.06	18.72
583.22	77.24
583.38	16.38
583.54	0.00
583.70	67.88
583.86	81.92
584.02	58.51
584.18	30.43
584.34	102.98
584.50	0.00
584.66	46.81
584.82	88.94
584.98	9.36
585.14	4.68
585.30	0.00
585.46	39.79
585.62	58.51
585.78	28.09
585.94	18.72
586.10	77.24
586.26	117.03
586.42	67.88
586.58	72.56
586.74	37.45
586.90	56.17
587.06	58.51
587.22	39.79
587.38	14.04
587.54	0.00
587.70	51.49
587.86	11.70
588.02	9.36
588.18	51.49
588.34	102.98
588.49	35.11
588.65	117.03
588.81	58.51
588.97	84.26
589.13	58.51
589.29	58.51
589.45	63.19
589.61	4.68
589.77	77.24
589.93	4.68
590.08	65.54
590.24	0.00
590.40	46.81
590.56	39.79
590.72	14.04
590.88	25.75
591.04	84.26
591.20	51.49
591.35	35.11
591.51	58.51
591.67	42.13
591.83	72.56
591.99	49.15
592.15	79.58
592.31	81.92
592.46	18.72
592.62	16.38
592.78	39.79
592.94	42.13
593.10	28.09
593.26	56.17
593.41	0.00
593.57	60.85
593.73	35.11
593.89	91.28
594.05	16.38
594.20	30.43
594.36	0.00
594.52	28.09
594.68	35.11
594.84	86.60
594.99	21.06
595.15	107.66
595.31	0.00
595.47	39.79
595.62	56.17
595.78	84.26
595.94	21.06
596.10	37.45
596.25	25.75
596.41	65.54
596.57	49.15
596.73	7.02
596.88	42.13
597.04	44.47
597.20	58.51
597.36	42.13
597.51	51.49
597.67	14.04
597.83	53.83
597.99	128.73
598.14	98.30
598.30	93.62
598.46	37.45
598.61	25.75
598.77	58.51
598.93	51.49
599.09	7.02
599.24	46.81
599.40	56.17
599.56	14.04
599.71	105.32
599.87	11.70
600.03	21.06
600.18	63.19
600.34	60.85
600.50	35.11
600.65	23.41
600.81	18.72
600.97	21.06
601.12	67.88
601.28	53.83
601.44	0.00
601.59	77.24
601.75	16.38
601.91	37.45
602.06	32.77
602.22	70.22
602.37	44.47
602.53	84.26
602.69	37.45
602.84	0.00
603.00	93.62
603.16	51.49
603.31	4.68
603.47	70.22
603.62	42.13
603.78	0.00
603.94	32.77
604.09	72.56
604.25	51.49
604.40	11.70
604.56	46.81
604.71	16.38
604.87	63.19
605.03	67.88
605.18	86.60
605.34	56.17
605.49	32.77
605.65	42.13
605.80	35.11
605.96	25.75
606.12	53.83
606.27	30.43
606.43	0.00
606.58	35.11
606.74	112.35
606.89	28.09
607.05	91.28
607.20	42.13
607.36	42.13
607.51	30.43
607.67	95.96
607.82	16.38
607.98	86.60
608.13	79.58
608.29	28.09
608.44	28.09
608.60	53.83
608.75	32.77
608.91	0.00
609.06	98.30
609.22	67.88
609.37	7.02
609.53	49.15
609.68	114.69
609.84	0.00
609.99	0.00
610.15	72.56
610.30	18.72
610.46	51.49
610.61	53.83
610.76	28.09
610.92	32.77
611.07	16.38
611.23	84.26
611.38	51.49
611.54	0.00
611.69	0.00
611.84	46.81
612.00	7.02
612.15	39.79
612.31	7.02
612.46	121.71
612.62	51.49
612.77	53.83
612.92	128.73
613.08	7.02
613.23	56.17
613.39	0.00
613.54	35.11
613.69	53.83
613.85	72.56
614.00	74.90
614.15	37.45
614.31	63.19
614.46	58.51
614.62	7.02
614.77	49.15
614.92	58.51
615.08	0.00
615.23	49.15
615.38	21.06
615.54	42.13
615.69	28.09
615.84	46.81
616.00	70.22
616.15	42.13
616.30	93.62
616.46	67.88
616.61	0.00
616.76	58.51
616.92	74.90
617.07	58.51
617.22	65.54
617.37	56.17
617.53	0.00
617.68	23.41
617.83	79.58
617.99	63.19
618.14	11.70
618.29	56.17
618.45	23.41
618.60	0.00
618.75	23.41
618.90	0.00
619.06	16.38
619.21	81.92
619.36	72.56
619.51	53.83
619.67	53.83
619.82	35.11
619.97	0.00
620.12	60.85
620.28	16.38
620.43	63.19
620.58	53.83
620.73	28.09
620.89	72.56
621.04	30.43
621.19	37.45
621.34	56.17
621.49	0.00
621.65	60.85
621.80	53.83
621.95	93.62
622.10	32.77
622.25	0.00
622.41	49.15
622.56	63.19
622.71	84.26
622.86	44.47
623.01	0.00
623.16	16.38
623.32	72.56
623.47	84.26
623.62	11.70
623.77	0.00
623.92	0.00
624.07	74.90
624.23	44.47
624.38	0.00
624.53	53.83
624.68	0.00
624.83	0.00
624.98	79.58
625.13	42.13
625.29	0.00
625.44	0.00
625.59	65.54
625.74	32.77
625.89	67.88
626.04	0.00
626.19	46.81
626.34	102.98
626.49	58.51
626.65	18.72
626.80	79.58
626.95	0.00
627.10	28.09
627.25	60.85
627.40	37.45
627.55	32.77
627.70	53.83
627.85	0.00
628.00	39.79
628.15	23.41
628.30	56.17
628.45	0.00
628.60	46.81
628.76	0.00
628.91	0.00
629.06	25.75
629.21	79.58
629.36	0.00
629.51	16.38
629.66	44.47
629.81	60.85
629.96	84.26
630.11	51.49
630.26	98.30
630.41	53.83
630.56	72.56
630.71	0.00
630.86	39.79
631.01	93.62
631.16	86.60
631.31	63.19
631.46	28.09
631.61	9.36
631.76	7.02
631.91	60.85
632.06	0.00
632.21	30.43
632.36	4.68
632.51	21.06
632.66	88.94
632.81	46.81
632.96	30.43
633.10	46.81
633.25	67.88
633.40	42.13
633.55	98.30
633.70	21.06
633.85	51.49
634.00	74.90
634.15	0.00
634.30	46.81
634.45	58.51
634.60	46.81
634.75	70.22
634.90	53.83
635.05	0.00
635.19	0.00
635.34	0.00
635.49	35.11
635.64	16.38
635.79	98.30
635.94	0.00
636.09	56.17
636.24	14.04
636.39	67.88
636.53	21.06
636.68	0.00
636.83	56.17
636.98	72.56
637.13	51.49
637.28	70.22
637.43	39.79
637.57	0.00
637.72	60.85
637.87	53.83
638.02	72.56
638.17	30.43
638.32	23.41
638.46	9.36
638.61	72.56
638.76	70.22
638.91	65.54
639.06	0.00
639.20	53.83
639.35	0.00
639.50	0.00
639.65	21.06
639.80	81.92
639.94	30.43
640.09	0.00
640.24	0.00
640.39	23.41
640.54	35.11
640.68	0.00
640.83	58.51
640.98	35.11
641.13	23.41
641.27	14.04
641.42	28.09
641.57	51.49
641.72	46.81
641.86	0.00
642.01	44.47
642.16	100.64
642.31	53.83
642.45	4.68
642.60	0.00
642.75	72.56
642.90	28.09
643.04	0.00
643.19	44.47
643.34	56.17
643.48	49.15
643.63	16.38
643.78	16.38
643.93	11.70
644.07	0.00
644.22	70.22
644.37	4.68
644.51	107.66
644.66	0.00
644.81	30.43
644.95	37.45
645.10	53.83
645.25	2.34
645.39	67.88
645.54	77.24
645.69	65.54
645.83	81.92
645.98	105.32
646.13	53.83
646.27	23.41
646.42	39.79
646.57	9.36
646.71	25.75
646.86	18.72
647.00	91.28
647.15	14.04
647.30	0.00
647.44	4.68
647.59	0.00
647.74	18.72
647.88	42.13
648.03	42.13
648.17	0.00
648.32	7.02
648.47	65.54
648.61	0.00
648.76	21.06
648.90	77.24
649.05	7.02
649.20	60.85
649.34	39.79
649.49	95.96
649.63	88.94
649.78	65.54
649.92	0.00
650.07	91.28
650.21	16.38
650.36	16.38
650.51	117.03
650.65	51.49
650.80	2.34
650.94	67.88
651.09	63.19
651.23	25.75
651.38	42.13
651.52	0.00
651.67	74.90
651.81	28.09
651.96	30.43
652.10	91.28
652.25	91.28
652.39	0.00
652.54	42.13
652.68	4.68
652.83	18.72
652.97	46.81
653.12	67.88
653.26	93.62
653.41	16.38
653.55	110.01
653.70	93.62
653.84	49.15
653.99	14.04
654.13	42.13
654.27	95.96
654.42	32.77
654.56	58.51
654.71	35.11
654.85	4.68
655.00	46.81
655.14	46.81
655.29	53.83
655.43	44.47
655.57	0.00
655.72	7.02
655.86	88.94
656.01	0.00
656.15	16.38
656.30	53.83
656.44	0.00
656.58	58.51
656.73	37.45
656.87	37.45
657.01	23.41
657.16	74.90
657.30	56.17
657.45	77.24
657.59	4.68
657.73	9.36
657.88	56.17
658.02	18.72
658.16	51.49
658.31	0.00
658.45	7.02
658.60	93.62
658.74	25.75
658.88	95.96
659.03	65.54
659.17	25.75
659.31	37.45
659.46	0.00
659.60	0.00
659.74	14.04
659.89	23.41
660.03	51.49
660.17	72.56
660.32	88.94
660.46	23.41
660.60	81.92
660.74	9.36
660.89	86.60
661.03	35.11
661.17	0.00
661.32	11.70
661.46	39.79
661.60	28.09
661.74	28.09
661.89	28.09
662.03	25.75
662.17	74.90
662.31	51.49
662.46	65.54
662.60	65.54
662.74	7.02
662.88	0.00
663.03	63.19
663.17	105.32
663.31	35.11
663.45	0.00
663.60	100.64
663.74	95.96
663.88	0.00
664.02	35.11
664.17	39.79
664.31	72.56
664.45	70.22
664.59	114.69
664.73	7.02
664.88	0.00
665.02	0.00
665.16	35.11
665.30	77.24
665.44	11.70
665.59	0.00
665.73	100.64
665.87	91.28
666.01	0.00
666.15	9.36
666.29	0.00
666.44	32.77
666.58	9.36
666.72	2.34
666.86	30.43
667.00	21.06
667.14	11.70
667.28	65.54
667.43	25.75
667.57	23.41
667.71	0.00
667.85	9.36
667.99	21.06
668.13	9.36
668.27	30.43
668.41	0.00
668.56	53.83
668.70	21.06
668.84	0.00
668.98	11.70
669.12	7.02
669.26	18.72
669.40	37.45
669.54	79.58
669.68	23.41
669.82	98.30
669.96	39.79
670.10	11.70
670.25	51.49
670.39	121.71
670.53	91.28
670.67	0.00
670.81	28.09
670.95	67.88
671.09	23.41
671.23	7.02
671.37	11.70
671.51	39.79
671.65	28.09
671.79	4.68
671.93	28.09
672.07	14.04
672.21	0.00
672.35	2.34
672.49	18.72
672.63	14.04
672.77	35.11
672.91	51.49
673.05	39.79
673.19	44.47
673.33	112.35
673.47	39.79
673.61	53.83
673.75	60.85
673.89	0.00
674.03	14.04
674.17	77.24
674.31	46.81
674.45	0.00
674.59	0.00
674.73	39.79
674.87	30.43
675.01	2.34
675.15	58.51
675.29	53.83
675.43	95.96
675.56	81.92
675.70	37.45
675.84	81.92
675.98	44.47
676.12	79.58
676.26	70.22
676.40	35.11
676.54	0.00
676.68	93.62
676.82	53.83
676.96	35.11
677.10	46.81
677.23	0.00
677.37	4.68
677.51	0.00
677.65	30.43
677.79	32.77
677.93	46.81
678.07	11.70
678.21	11.70
678.34	0.00
678.48	0.00
678.62	37.45
678.76	18.72
678.90	25.75
679.04	70.22
679.18	110.01
679.31	39.79
679.45	21.06
679.59	0.00
679.73	16.38
679.87	42.13
680.00	37.45
680.14	51.49
680.28	9.36
680.42	28.09
680.56	0.00
680.70	0.00
680.83	72.56
680.97	58.51
681.11	21.06
681.25	72.56
681.39	42.13
681.52	79.58
681.66	81.92
681.80	0.00
681.94	51.49
682.07	30.43
682.21	0.00
682.35	37.45
682.49	58.51
682.62	51.49
682.76	102.98
682.90	95.96
683.04	25.75
683.17	67.88
683.31	30.43
683.45	0.00
683.59	86.60
683.72	39.79
683.86	30.43
684.00	9.36
684.13	21.06
684.27	67.88
684.41	58.51
684.55	25.75
684.68	0.00
684.82	0.00
684.96	32.77
685.09	39.79
685.23	72.56
685.37	0.00
685.50	14.04
685.64	39.79
685.78	0.00
685.91	0.00
686.05	37.45
686.19	4.68
686.32	37.45
686.46	7.02
686.60	65.54
686.73	79.58
686.87	72.56
687.01	4.68
687.14	0.00
687.28	39.79
687.42	53.83
687.55	11.70
687.69	42.13
687.82	0.00
687.96	44.47
688.10	0.00
688.23	14.04
688.37	2.34
688.50	0.00
688.64	37.45
688.78	44.47
688.91	65.54
689.05	39.79
689.18	32.77
689.32	42.13
689.46	93.62
689.59	14.04
689.73	4.68
689.86	51.49
690.00	133.41
690.13	67.88
690.27	46.81
690.41	77.24
690.54	67.88
690.68	44.47
690.81	18.72
690.95	0.00
691.08	39.79
691.22	16.38
691.35	86.60
691.49	65.54
691.62	58.51
691.76	44.47
691.89	70.22
692.03	18.72
692.16	37.45
692.30	49.15
692.43	0.00
692.57	28.09
692.70	81.92
692.84	58.51
692.97	0.00
693.11	0.00
693.24	67.88
693.38	0.00
693.51	0.00
693.65	79.58
693.78	79.58
693.92	56.17
694.05	51.49
694.19	60.85
694.32	86.60
694.45	0.00
694.59	46.81
694.72	44.47
694.86	16.38
694.99	81.92
695.13	0.00
695.26	21.06
695.39	98.30
695.53	30.43
695.66	35.11
695.80	16.38
695.93	21.06
696.07	23.41
696.20	46.81
696.33	16.38
696.47	28.09
696.60	107.66
696.73	42.13
696.87	0.00
697.00	28.09
697.14	67.88
697.27	37.45
697.40	28.09
697.54	44.47
697.67	44.47
697.80	51.49
697.94	88.94
698.07	35.11
698.21	77.24
698.34	51.49
698.47	88.94
698.61	0.00
698.74	30.43
698.87	60.85
699.01	74.90
699.14	88.94
699.27	4.68
699.40	70.22
699.54	14.04
699.67	4.68
699.80	9.36
699.94	0.00
700.07	42.13
700.20	30.43
700.34	9.36
700.47	0.00
700.60	53.83
700.73	42.13
700.87	58.51
701.00	25.75
701.13	2.34
701.26	35.11
701.40	93.62
701.53	0.00
701.66	46.81
701.79	46.81
701.93	0.00
702.06	0.00
702.19	98.30
702.32	56.17
702.46	0.00
702.59	95.96
702.72	65.54
702.85	21.06
702.99	35.11
703.12	37.45
703.25	0.00
703.38	0.00
703.51	16.38
703.65	39.79
703.78	11.70
703.91	4.68
704.04	30.43
704.17	58.51
704.31	0.00
704.44	0.00
704.57	49.15
704.70	0.00
704.83	0.00
704.96	0.00
705.10	44.47
705.23	28.09
>>>>>End Processed Spectral Data<<<<<
