SpectraSuite Data File
++++++++++++++++++++++++++++++++++++
Date: Fri Oct 04 12:13:27 GMT-05:00 2013
User: price-jones
Dark Spectrum Present: No
Reference Spectrum Present: No
Number of Sampled Component Spectra: 1
Spectrometers: USB2+H05261
Integration Time (usec): 10000 (USB2+H05261)
Spectra Averaged: 1 (USB2+H05261)
Boxcar Smoothing: 0 (USB2+H05261)
Correct for Electrical Dark: No (USB2+H05261)
Strobe/Lamp Enabled: No (USB2+H05261)
Correct for Detector Non-linearity: No (USB2+H05261)
Correct for Stray Light: No (USB2+H05261)
Number of Pixels in Processed Spectrum: 2048
>>>>>Begin Processed Spectral Data<<<<<
365.73	9.36
365.92	9.36
366.12	9.36
366.32	0.00
366.52	0.00
366.72	0.00
366.91	0.00
367.11	0.00
367.31	0.00
367.51	0.00
367.70	0.00
367.90	0.00
368.10	0.00
368.30	0.00
368.49	0.00
368.69	0.00
368.89	0.00
369.09	0.00
369.28	0.00
369.48	0.00
369.68	0.00
369.87	0.00
370.07	0.00
370.27	0.00
370.47	0.00
370.66	0.00
370.86	0.00
371.06	21.06
371.25	0.00
371.45	0.00
371.65	42.13
371.84	0.00
372.04	0.00
372.24	0.00
372.44	35.11
372.63	74.90
372.83	28.09
373.03	81.92
373.22	46.81
373.42	65.54
373.62	93.62
373.81	9.36
374.01	21.06
374.21	0.00
374.40	121.71
374.60	72.56
374.79	95.96
374.99	14.04
375.19	0.00
375.38	110.01
375.58	49.15
375.78	0.00
375.97	2.34
376.17	37.45
376.37	67.88
376.56	79.58
376.76	32.77
376.95	53.83
377.15	58.51
377.35	0.00
377.54	0.00
377.74	14.04
377.93	0.00
378.13	35.11
378.33	21.06
378.52	0.00
378.72	60.85
378.91	21.06
379.11	67.88
379.31	67.88
379.50	7.02
379.70	16.38
379.89	25.75
380.09	0.00
380.28	84.26
380.48	21.06
380.68	81.92
380.87	0.00
381.07	21.06
381.26	21.06
381.46	0.00
381.65	11.70
381.85	25.75
382.04	23.41
382.24	18.72
382.43	11.70
382.63	0.00
382.83	7.02
383.02	23.41
383.22	0.00
383.41	0.00
383.61	100.64
383.80	0.00
384.00	14.04
384.19	0.00
384.39	0.00
384.58	18.72
384.78	128.73
384.97	4.68
385.17	74.90
385.36	84.26
385.56	53.83
385.75	46.81
385.95	0.00
386.14	0.00
386.34	0.00
386.53	0.00
386.72	0.00
386.92	39.79
387.11	60.85
387.31	0.00
387.50	18.72
387.70	44.47
387.89	4.68
388.09	84.26
388.28	23.41
388.48	0.00
388.67	0.00
388.86	53.83
389.06	4.68
389.25	79.58
389.45	46.81
389.64	0.00
389.84	0.00
390.03	11.70
390.22	9.36
390.42	0.00
390.61	0.00
390.81	0.00
391.00	51.49
391.19	72.56
391.39	46.81
391.58	39.79
391.78	0.00
391.97	11.70
392.16	0.00
392.36	18.72
392.55	0.00
392.75	0.00
392.94	0.00
393.13	0.00
393.33	0.00
393.52	9.36
393.71	0.00
393.91	0.00
394.10	72.56
394.29	4.68
394.49	21.06
394.68	23.41
394.88	72.56
395.07	28.09
395.26	32.77
395.46	0.00
395.65	46.81
395.84	37.45
396.04	7.02
396.23	0.00
396.42	25.75
396.62	23.41
396.81	30.43
397.00	39.79
397.19	42.13
397.39	37.45
397.58	14.04
397.77	0.00
397.97	0.00
398.16	0.00
398.35	30.43
398.55	56.17
398.74	0.00
398.93	7.02
399.12	35.11
399.32	0.00
399.51	81.92
399.70	21.06
399.90	25.75
400.09	74.90
400.28	23.41
400.47	0.00
400.67	86.60
400.86	0.00
401.05	0.00
401.24	0.00
401.44	65.54
401.63	74.90
401.82	0.00
402.01	0.00
402.21	0.00
402.40	0.00
402.59	86.60
402.78	53.83
402.97	0.00
403.17	30.43
403.36	21.06
403.55	25.75
403.74	0.00
403.93	0.00
404.13	30.43
404.32	23.41
404.51	0.00
404.70	91.28
404.89	0.00
405.09	58.51
405.28	44.47
405.47	4.68
405.66	0.00
405.85	0.00
406.05	70.22
406.24	44.47
406.43	74.90
406.62	81.92
406.81	0.00
407.00	2.34
407.20	91.28
407.39	0.00
407.58	112.35
407.77	4.68
407.96	0.00
408.15	18.72
408.34	58.51
408.54	56.17
408.73	0.00
408.92	67.88
409.11	46.81
409.30	0.00
409.49	53.83
409.68	0.00
409.87	0.00
410.07	7.02
410.26	0.00
410.45	0.00
410.64	81.92
410.83	16.38
411.02	65.54
411.21	102.98
411.40	51.49
411.59	51.49
411.78	0.00
411.98	0.00
412.17	4.68
412.36	25.75
412.55	49.15
412.74	0.00
412.93	58.51
413.12	16.38
413.31	70.22
413.50	4.68
413.69	0.00
413.88	79.58
414.07	0.00
414.26	4.68
414.45	0.00
414.64	37.45
414.83	0.00
415.02	58.51
415.22	28.09
415.41	0.00
415.60	39.79
415.79	25.75
415.98	35.11
416.17	0.00
416.36	93.62
416.55	84.26
416.74	2.34
416.93	51.49
417.12	14.04
417.31	4.68
417.50	30.43
417.69	0.00
417.88	23.41
418.07	72.56
418.26	2.34
418.45	0.00
418.64	35.11
418.83	53.83
419.02	14.04
419.21	11.70
419.39	70.22
419.58	60.85
419.77	86.60
419.96	0.00
420.15	9.36
420.34	44.47
420.53	32.77
420.72	0.00
420.91	11.70
421.10	88.94
421.29	88.94
421.48	0.00
421.67	25.75
421.86	0.00
422.05	0.00
422.24	72.56
422.43	0.00
422.61	2.34
422.80	65.54
422.99	23.41
423.18	0.00
423.37	21.06
423.56	67.88
423.75	60.85
423.94	0.00
424.13	30.43
424.32	58.51
424.50	95.96
424.69	51.49
424.88	0.00
425.07	0.00
425.26	86.60
425.45	35.11
425.64	72.56
425.83	7.02
426.01	23.41
426.20	37.45
426.39	32.77
426.58	18.72
426.77	0.00
426.96	0.00
427.15	9.36
427.33	28.09
427.52	70.22
427.71	53.83
427.90	44.47
428.09	9.36
428.28	39.79
428.46	11.70
428.65	0.00
428.84	93.62
429.03	86.60
429.22	56.17
429.40	81.92
429.59	63.19
429.78	39.79
429.97	0.00
430.16	0.00
430.34	37.45
430.53	56.17
430.72	72.56
430.91	0.00
431.10	42.13
431.28	0.00
431.47	14.04
431.66	0.00
431.85	0.00
432.03	0.00
432.22	23.41
432.41	35.11
432.60	35.11
432.79	2.34
432.97	4.68
433.16	28.09
433.35	0.00
433.54	16.38
433.72	4.68
433.91	44.47
434.10	0.00
434.28	2.34
434.47	21.06
434.66	32.77
434.85	16.38
435.03	39.79
435.22	51.49
435.41	152.13
435.59	93.62
435.78	16.38
435.97	0.00
436.16	53.83
436.34	28.09
436.53	51.49
436.72	16.38
436.90	0.00
437.09	37.45
437.28	46.81
437.46	7.02
437.65	0.00
437.84	58.51
438.02	102.98
438.21	65.54
438.40	32.77
438.58	42.13
438.77	56.17
438.96	107.66
439.14	28.09
439.33	0.00
439.52	14.04
439.70	56.17
439.89	32.77
440.08	0.00
440.26	0.00
440.45	77.24
440.63	16.38
440.82	37.45
441.01	58.51
441.19	21.06
441.38	0.00
441.57	28.09
441.75	28.09
441.94	42.13
442.12	42.13
442.31	30.43
442.50	0.00
442.68	32.77
442.87	49.15
443.05	0.00
443.24	2.34
443.43	74.90
443.61	21.06
443.80	63.19
443.98	7.02
444.17	42.13
444.35	74.90
444.54	51.49
444.73	77.24
444.91	70.22
445.10	65.54
445.28	46.81
445.47	0.00
445.65	42.13
445.84	107.66
446.02	65.54
446.21	21.06
446.39	18.72
446.58	0.00
446.77	35.11
446.95	84.26
447.14	135.75
447.32	11.70
447.51	0.00
447.69	72.56
447.88	72.56
448.06	0.00
448.25	18.72
448.43	46.81
448.62	65.54
448.80	9.36
448.99	74.90
449.17	42.13
449.36	88.94
449.54	4.68
449.73	39.79
449.91	46.81
450.10	0.00
450.28	32.77
450.46	21.06
450.65	25.75
450.83	21.06
451.02	37.45
451.20	35.11
451.39	21.06
451.57	51.49
451.76	0.00
451.94	65.54
452.13	9.36
452.31	117.03
452.49	7.02
452.68	0.00
452.86	42.13
453.05	0.00
453.23	49.15
453.42	4.68
453.60	4.68
453.78	11.70
453.97	56.17
454.15	7.02
454.34	39.79
454.52	56.17
454.70	7.02
454.89	0.00
455.07	0.00
455.26	0.00
455.44	35.11
455.62	0.00
455.81	63.19
455.99	70.22
456.17	35.11
456.36	56.17
456.54	37.45
456.73	7.02
456.91	25.75
457.09	2.34
457.28	21.06
457.46	9.36
457.64	58.51
457.83	0.00
458.01	0.00
458.19	46.81
458.38	7.02
458.56	42.13
458.74	53.83
458.93	0.00
459.11	35.11
459.29	37.45
459.48	25.75
459.66	79.58
459.84	53.83
460.03	56.17
460.21	58.51
460.39	35.11
460.57	32.77
460.76	0.00
460.94	0.00
461.12	4.68
461.31	86.60
461.49	16.38
461.67	60.85
461.85	39.79
462.04	74.90
462.22	161.50
462.40	35.11
462.59	0.00
462.77	9.36
462.95	56.17
463.13	16.38
463.32	51.49
463.50	21.06
463.68	32.77
463.86	30.43
464.05	51.49
464.23	56.17
464.41	32.77
464.59	44.47
464.78	35.11
464.96	23.41
465.14	23.41
465.32	77.24
465.50	0.00
465.69	28.09
465.87	0.00
466.05	7.02
466.23	77.24
466.41	0.00
466.60	51.49
466.78	21.06
466.96	81.92
467.14	37.45
467.32	4.68
467.51	4.68
467.69	65.54
467.87	4.68
468.05	0.00
468.23	72.56
468.41	0.00
468.60	46.81
468.78	14.04
468.96	49.15
469.14	2.34
469.32	49.15
469.50	37.45
469.69	42.13
469.87	49.15
470.05	138.09
470.23	81.92
470.41	28.09
470.59	63.19
470.77	30.43
470.95	9.36
471.14	25.75
471.32	0.00
471.50	35.11
471.68	81.92
471.86	53.83
472.04	25.75
472.22	77.24
472.40	56.17
472.58	28.09
472.77	0.00
472.95	35.11
473.13	32.77
473.31	16.38
473.49	42.13
473.67	39.79
473.85	81.92
474.03	14.04
474.21	133.41
474.39	0.00
474.57	58.51
474.75	25.75
474.93	77.24
475.12	74.90
475.30	9.36
475.48	81.92
475.66	14.04
475.84	79.58
476.02	39.79
476.20	77.24
476.38	65.54
476.56	21.06
476.74	11.70
476.92	37.45
477.10	9.36
477.28	35.11
477.46	35.11
477.64	25.75
477.82	23.41
478.00	37.45
478.18	49.15
478.36	32.77
478.54	23.41
478.72	18.72
478.90	58.51
479.08	0.00
479.26	77.24
479.44	51.49
479.62	11.70
479.80	21.06
479.98	35.11
480.16	0.00
480.34	51.49
480.52	32.77
480.70	63.19
480.88	0.00
481.06	14.04
481.24	0.00
481.41	56.17
481.59	70.22
481.77	11.70
481.95	32.77
482.13	28.09
482.31	60.85
482.49	37.45
482.67	30.43
482.85	63.19
483.03	0.00
483.21	42.13
483.39	18.72
483.57	0.00
483.74	32.77
483.92	58.51
484.10	28.09
484.28	72.56
484.46	65.54
484.64	0.00
484.82	51.49
485.00	51.49
485.18	56.17
485.35	32.77
485.53	0.00
485.71	44.47
485.89	9.36
486.07	25.75
486.25	0.00
486.43	72.56
486.61	70.22
486.78	79.58
486.96	67.88
487.14	74.90
487.32	42.13
487.50	7.02
487.68	18.72
487.85	98.30
488.03	9.36
488.21	63.19
488.39	11.70
488.57	28.09
488.75	56.17
488.92	98.30
489.10	0.00
489.28	7.02
489.46	42.13
489.64	4.68
489.81	84.26
489.99	18.72
490.17	28.09
490.35	56.17
490.53	46.81
490.70	95.96
490.88	65.54
491.06	11.70
491.24	42.13
491.41	65.54
491.59	0.00
491.77	32.77
491.95	102.98
492.13	18.72
492.30	51.49
492.48	11.70
492.66	0.00
492.84	0.00
493.01	21.06
493.19	0.00
493.37	23.41
493.54	65.54
493.72	91.28
493.90	46.81
494.08	46.81
494.25	91.28
494.43	93.62
494.61	11.70
494.79	23.41
494.96	25.75
495.14	0.00
495.32	72.56
495.49	30.43
495.67	42.13
495.85	49.15
496.02	0.00
496.20	98.30
496.38	58.51
496.55	46.81
496.73	0.00
496.91	11.70
497.09	0.00
497.26	32.77
497.44	56.17
497.62	110.01
497.79	32.77
497.97	56.17
498.14	65.54
498.32	70.22
498.50	42.13
498.67	51.49
498.85	98.30
499.03	0.00
499.20	74.90
499.38	42.13
499.56	60.85
499.73	98.30
499.91	110.01
500.08	14.04
500.26	23.41
500.44	119.37
500.61	86.60
500.79	7.02
500.97	0.00
501.14	102.98
501.32	0.00
501.49	58.51
501.67	35.11
501.84	63.19
502.02	53.83
502.20	74.90
502.37	14.04
502.55	65.54
502.72	0.00
502.90	114.69
503.07	0.00
503.25	28.09
503.43	49.15
503.60	0.00
503.78	9.36
503.95	51.49
504.13	72.56
504.30	53.83
504.48	51.49
504.65	67.88
504.83	14.04
505.01	23.41
505.18	4.68
505.36	72.56
505.53	70.22
505.71	4.68
505.88	56.17
506.06	11.70
506.23	14.04
506.41	7.02
506.58	16.38
506.76	67.88
506.93	49.15
507.11	112.35
507.28	0.00
507.46	49.15
507.63	32.77
507.81	46.81
507.98	9.36
508.16	0.00
508.33	0.00
508.50	0.00
508.68	0.00
508.85	0.00
509.03	81.92
509.20	16.38
509.38	23.41
509.55	32.77
509.73	16.38
509.90	7.02
510.08	79.58
510.25	95.96
510.42	79.58
510.60	39.79
510.77	35.11
510.95	0.00
511.12	65.54
511.30	23.41
511.47	44.47
511.64	88.94
511.82	67.88
511.99	30.43
512.17	23.41
512.34	53.83
512.51	0.00
512.69	0.00
512.86	39.79
513.04	0.00
513.21	84.26
513.38	0.00
513.56	72.56
513.73	44.47
513.90	0.00
514.08	140.43
514.25	60.85
514.43	51.49
514.60	42.13
514.77	16.38
514.95	79.58
515.12	37.45
515.29	0.00
515.47	70.22
515.64	0.00
515.81	79.58
515.99	110.01
516.16	44.47
516.33	70.22
516.51	42.13
516.68	53.83
516.85	0.00
517.03	0.00
517.20	42.13
517.37	77.24
517.54	93.62
517.72	49.15
517.89	51.49
518.06	16.38
518.24	9.36
518.41	58.51
518.58	18.72
518.75	2.34
518.93	0.00
519.10	51.49
519.27	49.15
519.45	9.36
519.62	91.28
519.79	60.85
519.96	11.70
520.14	0.00
520.31	42.13
520.48	100.64
520.65	65.54
520.83	42.13
521.00	23.41
521.17	14.04
521.34	0.00
521.52	53.83
521.69	133.41
521.86	56.17
522.03	0.00
522.20	46.81
522.38	2.34
522.55	0.00
522.72	21.06
522.89	67.88
523.07	25.75
523.24	23.41
523.41	9.36
523.58	0.00
523.75	53.83
523.92	72.56
524.10	0.00
524.27	14.04
524.44	56.17
524.61	46.81
524.78	11.70
524.96	7.02
525.13	58.51
525.30	42.13
525.47	32.77
525.64	67.88
525.81	117.03
525.98	16.38
526.16	0.00
526.33	91.28
526.50	4.68
526.67	74.90
526.84	25.75
527.01	25.75
527.18	39.79
527.36	37.45
527.53	112.35
527.70	128.73
527.87	49.15
528.04	70.22
528.21	60.85
528.38	25.75
528.55	72.56
528.72	7.02
528.89	79.58
529.07	58.51
529.24	44.47
529.41	0.00
529.58	32.77
529.75	56.17
529.92	0.00
530.09	21.06
530.26	0.00
530.43	25.75
530.60	35.11
530.77	63.19
530.94	58.51
531.11	0.00
531.28	39.79
531.46	21.06
531.63	0.00
531.80	0.00
531.97	49.15
532.14	44.47
532.31	79.58
532.48	2.34
532.65	2.34
532.82	25.75
532.99	28.09
533.16	46.81
533.33	28.09
533.50	11.70
533.67	28.09
533.84	35.11
534.01	81.92
534.18	60.85
534.35	86.60
534.52	44.47
534.69	42.13
534.86	79.58
535.03	23.41
535.20	16.38
535.37	0.00
535.54	46.81
535.71	107.66
535.88	14.04
536.05	18.72
536.22	23.41
536.38	65.54
536.55	77.24
536.72	14.04
536.89	58.51
537.06	9.36
537.23	53.83
537.40	4.68
537.57	67.88
537.74	84.26
537.91	100.64
538.08	30.43
538.25	4.68
538.42	35.11
538.59	58.51
538.75	81.92
538.92	51.49
539.09	63.19
539.26	28.09
539.43	84.26
539.60	95.96
539.77	98.30
539.94	44.47
540.11	58.51
540.28	81.92
540.44	107.66
540.61	21.06
540.78	0.00
540.95	0.00
541.12	30.43
541.29	77.24
541.46	0.00
541.62	25.75
541.79	81.92
541.96	102.98
542.13	44.47
542.30	23.41
542.47	2.34
542.63	7.02
542.80	60.85
542.97	0.00
543.14	84.26
543.31	32.77
543.48	30.43
543.64	67.88
543.81	84.26
543.98	14.04
544.15	0.00
544.32	37.45
544.48	9.36
544.65	0.00
544.82	0.00
544.99	39.79
545.16	65.54
545.32	119.37
545.49	72.56
545.66	77.24
545.83	42.13
546.00	58.51
546.16	58.51
546.33	0.00
546.50	0.00
546.67	11.70
546.83	0.00
547.00	0.00
547.17	51.49
547.34	7.02
547.50	79.58
547.67	37.45
547.84	46.81
548.00	0.00
548.17	49.15
548.34	81.92
548.51	39.79
548.67	72.56
548.84	67.88
549.01	21.06
549.18	140.43
549.34	42.13
549.51	67.88
549.68	18.72
549.84	37.45
550.01	58.51
550.18	16.38
550.34	30.43
550.51	56.17
550.68	79.58
550.84	23.41
551.01	42.13
551.18	105.32
551.34	0.00
551.51	91.28
551.68	53.83
551.84	56.17
552.01	35.11
552.18	28.09
552.34	44.47
552.51	0.00
552.68	0.00
552.84	81.92
553.01	35.11
553.18	67.88
553.34	0.00
553.51	11.70
553.67	105.32
553.84	9.36
554.01	46.81
554.17	60.85
554.34	0.00
554.51	37.45
554.67	7.02
554.84	35.11
555.00	32.77
555.17	11.70
555.33	28.09
555.50	63.19
555.67	60.85
555.83	117.03
556.00	37.45
556.16	51.49
556.33	58.51
556.50	102.98
556.66	42.13
556.83	58.51
556.99	46.81
557.16	107.66
557.32	28.09
557.49	11.70
557.65	28.09
557.82	112.35
557.98	16.38
558.15	23.41
558.32	58.51
558.48	21.06
558.65	23.41
558.81	18.72
558.98	11.70
559.14	133.41
559.31	30.43
559.47	0.00
559.64	37.45
559.80	39.79
559.97	9.36
560.13	25.75
560.30	44.47
560.46	58.51
560.63	32.77
560.79	107.66
560.96	51.49
561.12	0.00
561.29	49.15
561.45	79.58
561.61	39.79
561.78	51.49
561.94	121.71
562.11	14.04
562.27	72.56
562.44	2.34
562.60	95.96
562.77	63.19
562.93	49.15
563.10	70.22
563.26	84.26
563.42	7.02
563.59	65.54
563.75	60.85
563.92	39.79
564.08	63.19
564.24	0.00
564.41	67.88
564.57	46.81
564.74	79.58
564.90	84.26
565.07	37.45
565.23	95.96
565.39	25.75
565.56	9.36
565.72	0.00
565.88	0.00
566.05	53.83
566.21	60.85
566.38	102.98
566.54	77.24
566.70	35.11
566.87	74.90
567.03	79.58
567.19	21.06
567.36	60.85
567.52	28.09
567.68	86.60
567.85	4.68
568.01	77.24
568.17	0.00
568.34	60.85
568.50	25.75
568.66	18.72
568.83	0.00
568.99	0.00
569.15	16.38
569.32	0.00
569.48	23.41
569.64	25.75
569.81	58.51
569.97	81.92
570.13	14.04
570.30	0.00
570.46	11.70
570.62	49.15
570.78	28.09
570.95	44.47
571.11	65.54
571.27	74.90
571.43	67.88
571.60	0.00
571.76	67.88
571.92	4.68
572.09	46.81
572.25	11.70
572.41	0.00
572.57	49.15
572.74	81.92
572.90	30.43
573.06	126.39
573.22	100.64
573.38	9.36
573.55	35.11
573.71	70.22
573.87	0.00
574.03	0.00
574.20	16.38
574.36	88.94
574.52	4.68
574.68	58.51
574.84	32.77
575.01	16.38
575.17	32.77
575.33	58.51
575.49	44.47
575.65	88.94
575.82	0.00
575.98	81.92
576.14	11.70
576.30	67.88
576.46	0.00
576.62	9.36
576.79	0.00
576.95	67.88
577.11	39.79
577.27	51.49
577.43	23.41
577.59	42.13
577.75	23.41
577.92	0.00
578.08	110.01
578.24	23.41
578.40	39.79
578.56	0.00
578.72	119.37
578.88	58.51
579.04	23.41
579.21	58.51
579.37	70.22
579.53	49.15
579.69	42.13
579.85	0.00
580.01	2.34
580.17	11.70
580.33	35.11
580.49	53.83
580.65	72.56
580.82	46.81
580.98	30.43
581.14	88.94
581.30	49.15
581.46	107.66
581.62	46.81
581.78	81.92
581.94	0.00
582.10	2.34
582.26	0.00
582.42	70.22
582.58	98.30
582.74	2.34
582.90	65.54
583.06	32.77
583.22	91.28
583.38	0.00
583.54	0.00
583.70	65.54
583.86	51.49
584.02	67.88
584.18	25.75
584.34	98.30
584.50	180.22
584.66	660.03
584.82	1338.79
584.98	1565.82
585.14	1362.19
585.30	891.74
585.46	582.79
585.62	327.68
585.78	224.69
585.94	70.22
586.10	91.28
586.26	110.01
586.42	84.26
586.58	98.30
586.74	49.15
586.90	100.64
587.06	84.26
587.22	0.00
587.38	49.15
587.54	81.92
587.70	124.05
587.86	149.79
588.02	166.18
588.18	81.92
588.34	124.05
588.49	39.79
588.65	84.26
588.81	0.00
588.97	28.09
589.13	11.70
589.29	0.00
589.45	0.00
589.61	23.41
589.77	112.35
589.93	32.77
590.08	18.72
590.24	0.00
590.40	23.41
590.56	53.83
590.72	86.60
590.88	18.72
591.04	88.94
591.20	53.83
591.35	25.75
591.51	56.17
591.67	42.13
591.83	74.90
591.99	77.24
592.15	44.47
592.31	110.01
592.46	74.90
592.62	72.56
592.78	65.54
592.94	32.77
593.10	67.88
593.26	30.43
593.41	67.88
593.57	100.64
593.73	86.60
593.89	138.09
594.05	133.41
594.20	205.97
594.36	243.42
594.52	154.48
594.68	46.81
594.84	84.26
594.99	42.13
595.15	60.85
595.31	42.13
595.47	0.00
595.62	39.79
595.78	35.11
595.94	4.68
596.10	18.72
596.25	60.85
596.41	105.32
596.57	63.19
596.73	39.79
596.88	49.15
597.04	35.11
597.20	39.79
597.36	56.17
597.51	159.16
597.67	23.41
597.83	16.38
597.99	23.41
598.14	14.04
598.30	79.58
598.46	28.09
598.61	86.60
598.77	30.43
598.93	44.47
599.09	46.81
599.24	46.81
599.40	58.51
599.56	42.13
599.71	49.15
599.87	30.43
600.03	63.19
600.18	58.51
600.34	11.70
600.50	25.75
600.65	67.88
600.81	28.09
600.97	37.45
601.12	88.94
601.28	51.49
601.44	46.81
601.59	81.92
601.75	25.75
601.91	18.72
602.06	16.38
602.22	0.00
602.37	56.17
602.53	39.79
602.69	70.22
602.84	88.94
603.00	60.85
603.16	84.26
603.31	51.49
603.47	32.77
603.62	79.58
603.78	49.15
603.94	46.81
604.09	37.45
604.25	7.02
604.40	46.81
604.56	105.32
604.71	14.04
604.87	7.02
605.03	42.13
605.18	28.09
605.34	60.85
605.49	32.77
605.65	4.68
605.80	0.00
605.96	93.62
606.12	98.30
606.27	21.06
606.43	0.00
606.58	37.45
606.74	46.81
606.89	187.24
607.05	210.65
607.20	210.65
607.36	203.63
607.51	208.31
607.67	84.26
607.82	14.04
607.98	140.43
608.13	65.54
608.29	42.13
608.44	0.00
608.60	0.00
608.75	16.38
608.91	56.17
609.06	149.79
609.22	327.68
609.37	297.25
609.53	224.69
609.68	166.18
609.84	114.69
609.99	65.54
610.15	0.00
610.30	0.00
610.46	88.94
610.61	77.24
610.76	37.45
610.92	53.83
611.07	110.01
611.23	14.04
611.38	39.79
611.54	63.19
611.69	39.79
611.84	65.54
612.00	67.88
612.15	44.47
612.31	72.56
612.46	88.94
612.62	58.51
612.77	58.51
612.92	39.79
613.08	84.26
613.23	53.83
613.39	28.09
613.54	51.49
613.69	124.05
613.85	381.51
614.00	454.06
614.15	414.27
614.31	346.40
614.46	327.68
614.62	189.58
614.77	65.54
614.92	0.00
615.08	46.81
615.23	39.79
615.38	102.98
615.54	28.09
615.69	35.11
615.84	124.05
616.00	98.30
616.15	138.09
616.30	79.58
616.46	91.28
616.61	60.85
616.76	98.30
616.92	84.26
617.07	0.00
617.22	88.94
617.37	51.49
617.53	25.75
617.68	49.15
617.83	30.43
617.99	0.00
618.14	30.43
618.29	0.00
618.45	39.79
618.60	60.85
618.75	0.00
618.90	44.47
619.06	23.41
619.21	81.92
619.36	18.72
619.51	16.38
619.67	74.90
619.82	49.15
619.97	105.32
620.12	0.00
620.28	14.04
620.43	51.49
620.58	60.85
620.73	70.22
620.89	30.43
621.04	128.73
621.19	49.15
621.34	133.41
621.49	121.71
621.65	58.51
621.80	79.58
621.95	93.62
622.10	25.75
622.25	51.49
622.41	0.00
622.56	70.22
622.71	39.79
622.86	30.43
623.01	4.68
623.16	93.62
623.32	51.49
623.47	9.36
623.62	28.09
623.77	11.70
623.92	42.13
624.07	0.00
624.23	9.36
624.38	14.04
624.53	70.22
624.68	0.00
624.83	65.54
624.98	23.41
625.13	98.30
625.29	21.06
625.44	9.36
625.59	0.00
625.74	11.70
625.89	9.36
626.04	70.22
626.19	229.37
626.34	299.59
626.49	334.70
626.65	205.97
626.80	196.60
626.95	112.35
627.10	93.62
627.25	93.62
627.40	42.13
627.55	56.17
627.70	30.43
627.85	39.79
628.00	32.77
628.15	58.51
628.30	4.68
628.45	42.13
628.60	9.36
628.76	91.28
628.91	93.62
629.06	67.88
629.21	2.34
629.36	32.77
629.51	0.00
629.66	110.01
629.81	72.56
629.96	77.24
630.11	65.54
630.26	149.79
630.41	124.05
630.56	44.47
630.71	72.56
630.86	102.98
631.01	42.13
631.16	28.09
631.31	46.81
631.46	2.34
631.61	51.49
631.76	44.47
631.91	44.47
632.06	102.98
632.21	18.72
632.36	98.30
632.51	65.54
632.66	16.38
632.81	93.62
632.96	154.48
633.10	215.33
633.25	248.10
633.40	194.26
633.55	100.64
633.70	154.48
633.85	117.03
634.00	35.11
634.15	77.24
634.30	0.00
634.45	0.00
634.60	0.00
634.75	0.00
634.90	23.41
635.05	39.79
635.19	25.75
635.34	42.13
635.49	58.51
635.64	51.49
635.79	32.77
635.94	4.68
636.09	0.00
636.24	0.00
636.39	42.13
636.53	30.43
636.68	23.41
636.83	0.00
636.98	86.60
637.13	95.96
637.28	21.06
637.43	0.00
637.57	39.79
637.72	177.88
637.87	203.63
638.02	315.97
638.17	301.93
638.32	271.50
638.46	121.71
638.61	84.26
638.76	98.30
638.91	67.88
639.06	23.41
639.20	0.00
639.35	84.26
639.50	93.62
639.65	168.52
639.80	287.89
639.94	477.47
640.09	568.75
640.24	416.62
640.39	308.95
640.54	175.54
640.68	119.37
640.83	79.58
640.98	25.75
641.13	58.51
641.27	0.00
641.42	86.60
641.57	142.77
641.72	21.06
641.86	37.45
642.01	46.81
642.16	30.43
642.31	0.00
642.45	84.26
642.60	53.83
642.75	42.13
642.90	72.56
643.04	37.45
643.19	49.15
643.34	100.64
643.48	9.36
643.63	0.00
643.78	21.06
643.93	0.00
644.07	16.38
644.22	81.92
644.37	0.00
644.51	0.00
644.66	25.75
644.81	32.77
644.95	124.05
645.10	46.81
645.25	9.36
645.39	11.70
645.54	39.79
645.69	44.47
645.83	147.45
645.98	56.17
646.13	0.00
646.27	37.45
646.42	21.06
646.57	21.06
646.71	0.00
646.86	11.70
647.00	7.02
647.15	7.02
647.30	37.45
647.44	35.11
647.59	21.06
647.74	0.00
647.88	37.45
648.03	21.06
648.17	67.88
648.32	72.56
648.47	93.62
648.61	117.03
648.76	0.00
648.90	25.75
649.05	79.58
649.20	79.58
649.34	44.47
649.49	0.00
649.63	25.75
649.78	18.72
649.92	72.56
650.07	37.45
650.21	189.58
650.36	299.59
650.51	257.46
650.65	187.24
650.80	170.86
650.94	102.98
651.09	16.38
651.23	72.56
651.38	25.75
651.52	70.22
651.67	25.75
651.81	74.90
651.96	0.00
652.10	65.54
652.25	0.00
652.39	63.19
652.54	0.00
652.68	121.71
652.83	93.62
652.97	117.03
653.12	65.54
653.26	56.17
653.41	117.03
653.55	70.22
653.70	23.41
653.84	11.70
653.99	14.04
654.13	0.00
654.27	74.90
654.42	30.43
654.56	70.22
654.71	112.35
654.85	51.49
655.00	39.79
655.14	18.72
655.29	37.45
655.43	23.41
655.57	25.75
655.72	72.56
655.86	79.58
656.01	70.22
656.15	18.72
656.30	42.13
656.44	79.58
656.58	18.72
656.73	128.73
656.87	0.00
657.01	14.04
657.16	9.36
657.30	32.77
657.45	0.00
657.59	14.04
657.73	39.79
657.88	0.00
658.02	21.06
658.16	0.00
658.31	0.00
658.45	0.00
658.60	46.81
658.74	86.60
658.88	39.79
659.03	4.68
659.17	67.88
659.31	65.54
659.46	49.15
659.60	86.60
659.74	175.54
659.89	156.82
660.03	39.79
660.17	114.69
660.32	67.88
660.46	51.49
660.60	18.72
660.74	28.09
660.89	0.00
661.03	35.11
661.17	72.56
661.32	37.45
661.46	42.13
661.60	70.22
661.74	7.02
661.89	25.75
662.03	2.34
662.17	86.60
662.31	9.36
662.46	30.43
662.60	105.32
662.74	0.00
662.88	0.00
663.03	65.54
663.17	18.72
663.31	4.68
663.45	23.41
663.60	60.85
663.74	16.38
663.88	0.00
664.02	98.30
664.17	79.58
664.31	0.00
664.45	4.68
664.59	25.75
664.73	25.75
664.88	35.11
665.02	0.00
665.16	84.26
665.30	30.43
665.44	42.13
665.59	0.00
665.73	147.45
665.87	98.30
666.01	14.04
666.15	2.34
666.29	11.70
666.44	42.13
666.58	0.00
666.72	0.00
666.86	9.36
667.00	25.75
667.14	21.06
667.28	91.28
667.43	135.75
667.57	313.63
667.71	346.40
667.85	154.48
667.99	145.11
668.13	149.79
668.27	53.83
668.41	46.81
668.56	0.00
668.70	98.30
668.84	23.41
668.98	84.26
669.12	0.00
669.26	0.00
669.40	0.00
669.54	86.60
669.68	16.38
669.82	49.15
669.96	0.00
670.10	60.85
670.25	117.03
670.39	105.32
670.53	49.15
670.67	58.51
670.81	32.77
670.95	35.11
671.09	0.00
671.23	79.58
671.37	177.88
671.51	140.43
671.65	138.09
671.79	201.29
671.93	128.73
672.07	182.56
672.21	2.34
672.35	70.22
672.49	72.56
672.63	0.00
672.77	46.81
672.91	65.54
673.05	105.32
673.19	0.00
673.33	67.88
673.47	18.72
673.61	49.15
673.75	28.09
673.89	0.00
674.03	74.90
674.17	0.00
674.31	67.88
674.45	0.00
674.59	18.72
674.73	11.70
674.87	0.00
675.01	0.00
675.15	56.17
675.29	49.15
675.43	35.11
675.56	0.00
675.70	0.00
675.84	23.41
675.98	51.49
676.12	16.38
676.26	35.11
676.40	4.68
676.54	44.47
676.68	56.17
676.82	32.77
676.96	81.92
677.10	0.00
677.23	42.13
677.37	72.56
677.51	2.34
677.65	4.68
677.79	30.43
677.93	39.79
678.07	67.88
678.21	42.13
678.34	0.00
678.48	51.49
678.62	84.26
678.76	14.04
678.90	88.94
679.04	35.11
679.18	30.43
679.31	51.49
679.45	74.90
679.59	30.43
679.73	42.13
679.87	2.34
680.00	4.68
680.14	0.00
680.28	25.75
680.42	0.00
680.56	44.47
680.70	0.00
680.83	0.00
680.97	0.00
681.11	0.00
681.25	86.60
681.39	28.09
681.52	119.37
681.66	9.36
681.80	0.00
681.94	46.81
682.07	72.56
682.21	37.45
682.35	91.28
682.49	0.00
682.62	0.00
682.76	0.00
682.90	16.38
683.04	39.79
683.17	51.49
683.31	110.01
683.45	63.19
683.59	2.34
683.72	51.49
683.86	30.43
684.00	4.68
684.13	35.11
684.27	14.04
684.41	21.06
684.55	0.00
684.68	14.04
684.82	56.17
684.96	18.72
685.09	0.00
685.23	0.00
685.37	0.00
685.50	0.00
685.64	37.45
685.78	7.02
685.91	39.79
686.05	30.43
686.19	16.38
686.32	23.41
686.46	0.00
686.60	49.15
686.73	4.68
686.87	35.11
687.01	0.00
687.14	56.17
687.28	51.49
687.42	53.83
687.55	46.81
687.69	30.43
687.82	58.51
687.96	74.90
688.10	37.45
688.23	14.04
688.37	67.88
688.50	42.13
688.64	88.94
688.78	23.41
688.91	0.00
689.05	79.58
689.18	0.00
689.32	77.24
689.46	42.13
689.59	2.34
689.73	28.09
689.86	37.45
690.00	58.51
690.13	0.00
690.27	0.00
690.41	72.56
690.54	0.00
690.68	86.60
690.81	98.30
690.95	42.13
691.08	25.75
691.22	37.45
691.35	56.17
691.49	32.77
691.62	93.62
691.76	21.06
691.89	79.58
692.03	37.45
692.16	37.45
692.30	25.75
692.43	88.94
692.57	79.58
692.70	86.60
692.84	147.45
692.97	39.79
693.11	133.41
693.24	102.98
693.38	65.54
693.51	67.88
693.65	42.13
693.78	112.35
693.92	18.72
694.05	46.81
694.19	16.38
694.32	44.47
694.45	23.41
694.59	16.38
694.72	0.00
694.86	42.13
694.99	65.54
695.13	81.92
695.26	44.47
695.39	0.00
695.53	30.43
695.66	0.00
695.80	0.00
695.93	67.88
696.07	67.88
696.20	79.58
696.33	56.17
696.47	0.00
696.60	72.56
696.73	32.77
696.87	53.83
697.00	72.56
697.14	0.00
697.27	44.47
697.40	95.96
697.54	114.69
697.67	72.56
697.80	63.19
697.94	0.00
698.07	70.22
698.21	9.36
698.34	67.88
698.47	51.49
698.61	35.11
698.74	23.41
698.87	16.38
699.01	42.13
699.14	9.36
699.27	37.45
699.40	53.83
699.54	0.00
699.67	18.72
699.80	39.79
699.94	110.01
700.07	30.43
700.20	51.49
700.34	0.00
700.47	23.41
700.60	0.00
700.73	21.06
700.87	0.00
701.00	0.00
701.13	18.72
701.26	23.41
701.40	4.68
701.53	4.68
701.66	11.70
701.79	11.70
701.93	65.54
702.06	32.77
702.19	81.92
702.32	88.94
702.46	7.02
702.59	0.00
702.72	77.24
702.85	194.26
702.99	135.75
703.12	147.45
703.25	182.56
703.38	163.84
703.51	166.18
703.65	184.90
703.78	138.09
703.91	100.64
704.04	65.54
704.17	65.54
704.31	70.22
704.44	0.00
704.57	77.24
704.70	67.88
704.83	35.11
704.96	0.00
705.10	18.72
705.23	51.49
>>>>>End Processed Spectral Data<<<<<
