SpectraSuite Data File
++++++++++++++++++++++++++++++++++++
Date: Fri Oct 04 12:13:27 GMT-05:00 2013
User: price-jones
Dark Spectrum Present: No
Reference Spectrum Present: No
Number of Sampled Component Spectra: 1
Spectrometers: USB2+H05261
Integration Time (usec): 10000 (USB2+H05261)
Spectra Averaged: 1 (USB2+H05261)
Boxcar Smoothing: 0 (USB2+H05261)
Correct for Electrical Dark: No (USB2+H05261)
Strobe/Lamp Enabled: No (USB2+H05261)
Correct for Detector Non-linearity: No (USB2+H05261)
Correct for Stray Light: No (USB2+H05261)
Number of Pixels in Processed Spectrum: 2048
>>>>>Begin Processed Spectral Data<<<<<
365.73	14.04
365.92	14.04
366.12	14.04
366.32	0.00
366.52	0.00
366.72	0.00
366.91	0.00
367.11	0.00
367.31	0.00
367.51	0.00
367.70	0.00
367.90	0.00
368.10	0.00
368.30	0.00
368.49	0.00
368.69	0.00
368.89	0.00
369.09	0.00
369.28	0.00
369.48	0.00
369.68	0.00
369.87	0.00
370.07	0.00
370.27	0.00
370.47	0.00
370.66	0.00
370.86	79.58
371.06	0.00
371.25	9.36
371.45	0.00
371.65	0.00
371.84	0.00
372.04	0.00
372.24	2.34
372.44	0.00
372.63	16.38
372.83	81.92
373.03	0.00
373.22	30.43
373.42	11.70
373.62	79.58
373.81	60.85
374.01	0.00
374.21	70.22
374.40	0.00
374.60	0.00
374.79	74.90
374.99	28.09
375.19	53.83
375.38	4.68
375.58	93.62
375.78	0.00
375.97	53.83
376.17	58.51
376.37	11.70
376.56	23.41
376.76	0.00
376.95	21.06
377.15	60.85
377.35	30.43
377.54	0.00
377.74	25.75
377.93	35.11
378.13	14.04
378.33	23.41
378.52	0.00
378.72	39.79
378.91	14.04
379.11	14.04
379.31	0.00
379.50	9.36
379.70	30.43
379.89	0.00
380.09	0.00
380.28	32.77
380.48	23.41
380.68	0.00
380.87	30.43
381.07	4.68
381.26	49.15
381.46	37.45
381.65	56.17
381.85	0.00
382.04	28.09
382.24	91.28
382.43	0.00
382.63	0.00
382.83	0.00
383.02	0.00
383.22	65.54
383.41	23.41
383.61	0.00
383.80	37.45
384.00	67.88
384.19	0.00
384.39	0.00
384.58	9.36
384.78	49.15
384.97	25.75
385.17	21.06
385.36	23.41
385.56	60.85
385.75	46.81
385.95	37.45
386.14	51.49
386.34	23.41
386.53	14.04
386.72	18.72
386.92	0.00
387.11	14.04
387.31	28.09
387.50	0.00
387.70	0.00
387.89	77.24
388.09	58.51
388.28	44.47
388.48	30.43
388.67	65.54
388.86	35.11
389.06	14.04
389.25	16.38
389.45	32.77
389.64	0.00
389.84	0.00
390.03	0.00
390.22	28.09
390.42	0.00
390.61	35.11
390.81	32.77
391.00	9.36
391.19	39.79
391.39	0.00
391.58	23.41
391.78	0.00
391.97	51.49
392.16	0.00
392.36	0.00
392.55	107.66
392.75	0.00
392.94	86.60
393.13	39.79
393.33	35.11
393.52	25.75
393.71	0.00
393.91	60.85
394.10	53.83
394.29	39.79
394.49	35.11
394.68	0.00
394.88	25.75
395.07	23.41
395.26	0.00
395.46	16.38
395.65	9.36
395.84	35.11
396.04	79.58
396.23	35.11
396.42	86.60
396.62	42.13
396.81	0.00
397.00	70.22
397.19	51.49
397.39	93.62
397.58	0.00
397.77	0.00
397.97	70.22
398.16	4.68
398.35	25.75
398.55	0.00
398.74	114.69
398.93	32.77
399.12	65.54
399.32	21.06
399.51	77.24
399.70	0.00
399.90	65.54
400.09	11.70
400.28	53.83
400.47	0.00
400.67	0.00
400.86	2.34
401.05	63.19
401.24	60.85
401.44	91.28
401.63	21.06
401.82	4.68
402.01	65.54
402.21	42.13
402.40	2.34
402.59	21.06
402.78	21.06
402.97	79.58
403.17	0.00
403.36	0.00
403.55	0.00
403.74	16.38
403.93	11.70
404.13	105.32
404.32	0.00
404.51	25.75
404.70	44.47
404.89	0.00
405.09	105.32
405.28	23.41
405.47	9.36
405.66	0.00
405.85	23.41
406.05	42.13
406.24	56.17
406.43	0.00
406.62	2.34
406.81	98.30
407.00	0.00
407.20	16.38
407.39	37.45
407.58	0.00
407.77	0.00
407.96	46.81
408.15	58.51
408.34	110.01
408.54	2.34
408.73	46.81
408.92	51.49
409.11	0.00
409.30	86.60
409.49	0.00
409.68	39.79
409.87	63.19
410.07	0.00
410.26	0.00
410.45	39.79
410.64	117.03
410.83	39.79
411.02	0.00
411.21	30.43
411.40	46.81
411.59	44.47
411.78	32.77
411.98	21.06
412.17	9.36
412.36	32.77
412.55	0.00
412.74	53.83
412.93	98.30
413.12	63.19
413.31	65.54
413.50	88.94
413.69	0.00
413.88	56.17
414.07	35.11
414.26	0.00
414.45	35.11
414.64	21.06
414.83	16.38
415.02	72.56
415.22	79.58
415.41	49.15
415.60	0.00
415.79	0.00
415.98	9.36
416.17	0.00
416.36	25.75
416.55	102.98
416.74	32.77
416.93	0.00
417.12	98.30
417.31	63.19
417.50	60.85
417.69	16.38
417.88	0.00
418.07	32.77
418.26	18.72
418.45	65.54
418.64	0.00
418.83	9.36
419.02	84.26
419.21	0.00
419.39	0.00
419.58	21.06
419.77	30.43
419.96	67.88
420.15	28.09
420.34	0.00
420.53	56.17
420.72	0.00
420.91	93.62
421.10	56.17
421.29	0.00
421.48	23.41
421.67	9.36
421.86	35.11
422.05	72.56
422.24	53.83
422.43	32.77
422.61	0.00
422.80	39.79
422.99	0.00
423.18	88.94
423.37	42.13
423.56	0.00
423.75	74.90
423.94	30.43
424.13	2.34
424.32	0.00
424.50	28.09
424.69	37.45
424.88	72.56
425.07	28.09
425.26	128.73
425.45	53.83
425.64	49.15
425.83	74.90
426.01	28.09
426.20	72.56
426.39	35.11
426.58	4.68
426.77	37.45
426.96	72.56
427.15	102.98
427.33	49.15
427.52	42.13
427.71	9.36
427.90	32.77
428.09	35.11
428.28	11.70
428.46	11.70
428.65	0.00
428.84	0.00
429.03	4.68
429.22	0.00
429.40	32.77
429.59	0.00
429.78	67.88
429.97	42.13
430.16	18.72
430.34	14.04
430.53	18.72
430.72	53.83
430.91	11.70
431.10	0.00
431.28	25.75
431.47	0.00
431.66	79.58
431.85	42.13
432.03	0.00
432.22	60.85
432.41	23.41
432.60	0.00
432.79	16.38
432.97	95.96
433.16	44.47
433.35	0.00
433.54	0.00
433.72	30.43
433.91	95.96
434.10	2.34
434.28	0.00
434.47	98.30
434.66	74.90
434.85	79.58
435.03	23.41
435.22	46.81
435.41	35.11
435.59	0.00
435.78	21.06
435.97	23.41
436.16	23.41
436.34	107.66
436.53	51.49
436.72	42.13
436.90	25.75
437.09	51.49
437.28	7.02
437.46	88.94
437.65	32.77
437.84	9.36
438.02	51.49
438.21	4.68
438.40	0.00
438.58	84.26
438.77	49.15
438.96	14.04
439.14	65.54
439.33	21.06
439.52	23.41
439.70	14.04
439.89	0.00
440.08	14.04
440.26	58.51
440.45	30.43
440.63	67.88
440.82	0.00
441.01	7.02
441.19	72.56
441.38	70.22
441.57	11.70
441.75	100.64
441.94	39.79
442.12	79.58
442.31	2.34
442.50	91.28
442.68	0.00
442.87	0.00
443.05	84.26
443.24	65.54
443.43	86.60
443.61	49.15
443.80	0.00
443.98	0.00
444.17	0.00
444.35	67.88
444.54	16.38
444.73	11.70
444.91	44.47
445.10	0.00
445.28	0.00
445.47	0.00
445.65	0.00
445.84	56.17
446.02	0.00
446.21	51.49
446.39	7.02
446.58	63.19
446.77	0.00
446.95	79.58
447.14	91.28
447.32	49.15
447.51	30.43
447.69	46.81
447.88	9.36
448.06	30.43
448.25	49.15
448.43	7.02
448.62	16.38
448.80	25.75
448.99	70.22
449.17	100.64
449.36	37.45
449.54	16.38
449.73	49.15
449.91	0.00
450.10	28.09
450.28	49.15
450.46	35.11
450.65	42.13
450.83	46.81
451.02	0.00
451.20	93.62
451.39	9.36
451.57	44.47
451.76	65.54
451.94	79.58
452.13	117.03
452.31	0.00
452.49	72.56
452.68	84.26
452.86	42.13
453.05	58.51
453.23	63.19
453.42	25.75
453.60	53.83
453.78	0.00
453.97	25.75
454.15	11.70
454.34	0.00
454.52	60.85
454.70	60.85
454.89	0.00
455.07	18.72
455.26	25.75
455.44	21.06
455.62	98.30
455.81	30.43
455.99	23.41
456.17	14.04
456.36	91.28
456.54	0.00
456.73	0.00
456.91	0.00
457.09	28.09
457.28	79.58
457.46	44.47
457.64	39.79
457.83	72.56
458.01	9.36
458.19	56.17
458.38	2.34
458.56	95.96
458.74	58.51
458.93	30.43
459.11	70.22
459.29	28.09
459.48	35.11
459.66	53.83
459.84	14.04
460.03	14.04
460.21	117.03
460.39	18.72
460.57	23.41
460.76	32.77
460.94	51.49
461.12	0.00
461.31	63.19
461.49	110.01
461.67	39.79
461.85	131.07
462.04	28.09
462.22	70.22
462.40	46.81
462.59	0.00
462.77	0.00
462.95	0.00
463.13	0.00
463.32	49.15
463.50	44.47
463.68	18.72
463.86	49.15
464.05	0.00
464.23	81.92
464.41	60.85
464.59	56.17
464.78	53.83
464.96	53.83
465.14	0.00
465.32	0.00
465.50	18.72
465.69	65.54
465.87	91.28
466.05	11.70
466.23	0.00
466.41	67.88
466.60	56.17
466.78	102.98
466.96	79.58
467.14	0.00
467.32	0.00
467.51	30.43
467.69	0.00
467.87	4.68
468.05	23.41
468.23	35.11
468.41	74.90
468.60	30.43
468.78	9.36
468.96	65.54
469.14	42.13
469.32	72.56
469.50	42.13
469.69	105.32
469.87	2.34
470.05	23.41
470.23	0.00
470.41	77.24
470.59	56.17
470.77	35.11
470.95	28.09
471.14	49.15
471.32	0.00
471.50	7.02
471.68	0.00
471.86	58.51
472.04	21.06
472.22	0.00
472.40	42.13
472.58	9.36
472.77	46.81
472.95	16.38
473.13	25.75
473.31	0.00
473.49	0.00
473.67	49.15
473.85	0.00
474.03	11.70
474.21	65.54
474.39	42.13
474.57	102.98
474.75	18.72
474.93	35.11
475.12	32.77
475.30	42.13
475.48	65.54
475.66	67.88
475.84	98.30
476.02	86.60
476.20	0.00
476.38	56.17
476.56	79.58
476.74	77.24
476.92	21.06
477.10	56.17
477.28	4.68
477.46	23.41
477.64	63.19
477.82	35.11
478.00	86.60
478.18	93.62
478.36	7.02
478.54	7.02
478.72	37.45
478.90	56.17
479.08	63.19
479.26	42.13
479.44	7.02
479.62	14.04
479.80	37.45
479.98	72.56
480.16	32.77
480.34	63.19
480.52	74.90
480.70	0.00
480.88	51.49
481.06	70.22
481.24	30.43
481.41	0.00
481.59	58.51
481.77	70.22
481.95	46.81
482.13	70.22
482.31	14.04
482.49	0.00
482.67	42.13
482.85	35.11
483.03	58.51
483.21	0.00
483.39	35.11
483.57	86.60
483.74	0.00
483.92	4.68
484.10	79.58
484.28	88.94
484.46	21.06
484.64	25.75
484.82	70.22
485.00	0.00
485.18	95.96
485.35	32.77
485.53	25.75
485.71	77.24
485.89	42.13
486.07	46.81
486.25	79.58
486.43	98.30
486.61	37.45
486.78	58.51
486.96	58.51
487.14	51.49
487.32	46.81
487.50	0.00
487.68	0.00
487.85	0.00
488.03	30.43
488.21	0.00
488.39	30.43
488.57	77.24
488.75	9.36
488.92	35.11
489.10	88.94
489.28	14.04
489.46	4.68
489.64	58.51
489.81	81.92
489.99	16.38
490.17	0.00
490.35	0.00
490.53	0.00
490.70	39.79
490.88	100.64
491.06	119.37
491.24	0.00
491.41	72.56
491.59	23.41
491.77	56.17
491.95	18.72
492.13	49.15
492.30	86.60
492.48	65.54
492.66	112.35
492.84	46.81
493.01	0.00
493.19	84.26
493.37	0.00
493.54	42.13
493.72	74.90
493.90	86.60
494.08	63.19
494.25	7.02
494.43	0.00
494.61	51.49
494.79	39.79
494.96	21.06
495.14	0.00
495.32	0.00
495.49	25.75
495.67	2.34
495.85	91.28
496.02	72.56
496.20	79.58
496.38	0.00
496.55	44.47
496.73	100.64
496.91	16.38
497.09	42.13
497.26	86.60
497.44	91.28
497.62	0.00
497.79	49.15
497.97	70.22
498.14	14.04
498.32	100.64
498.50	46.81
498.67	63.19
498.85	46.81
499.03	51.49
499.20	44.47
499.38	14.04
499.56	25.75
499.73	65.54
499.91	28.09
500.08	0.00
500.26	91.28
500.44	0.00
500.61	53.83
500.79	46.81
500.97	46.81
501.14	126.39
501.32	0.00
501.49	32.77
501.67	21.06
501.84	49.15
502.02	0.00
502.20	53.83
502.37	42.13
502.55	0.00
502.72	0.00
502.90	30.43
503.07	77.24
503.25	53.83
503.43	58.51
503.60	107.66
503.78	16.38
503.95	51.49
504.13	63.19
504.30	110.01
504.48	18.72
504.65	81.92
504.83	53.83
505.01	51.49
505.18	2.34
505.36	140.43
505.53	0.00
505.71	23.41
505.88	44.47
506.06	65.54
506.23	124.05
506.41	81.92
506.58	49.15
506.76	37.45
506.93	0.00
507.11	60.85
507.28	77.24
507.46	58.51
507.63	18.72
507.81	0.00
507.98	86.60
508.16	35.11
508.33	67.88
508.50	39.79
508.68	25.75
508.85	46.81
509.03	0.00
509.20	98.30
509.38	102.98
509.55	16.38
509.73	100.64
509.90	93.62
510.08	0.00
510.25	44.47
510.42	0.00
510.60	51.49
510.77	107.66
510.95	100.64
511.12	93.62
511.30	91.28
511.47	88.94
511.64	56.17
511.82	95.96
511.99	23.41
512.17	2.34
512.34	28.09
512.51	0.00
512.69	23.41
512.86	63.19
513.04	28.09
513.21	30.43
513.38	51.49
513.56	60.85
513.73	0.00
513.90	35.11
514.08	0.00
514.25	63.19
514.43	0.00
514.60	4.68
514.77	7.02
514.95	119.37
515.12	42.13
515.29	46.81
515.47	58.51
515.64	46.81
515.81	39.79
515.99	42.13
516.16	32.77
516.33	67.88
516.51	51.49
516.68	35.11
516.85	51.49
517.03	21.06
517.20	0.00
517.37	7.02
517.54	42.13
517.72	93.62
517.89	0.00
518.06	32.77
518.24	81.92
518.41	93.62
518.58	114.69
518.75	16.38
518.93	46.81
519.10	0.00
519.27	28.09
519.45	37.45
519.62	0.00
519.79	39.79
519.96	56.17
520.14	37.45
520.31	46.81
520.48	14.04
520.65	0.00
520.83	67.88
521.00	18.72
521.17	117.03
521.34	16.38
521.52	0.00
521.69	28.09
521.86	51.49
522.03	51.49
522.20	0.00
522.38	4.68
522.55	53.83
522.72	114.69
522.89	72.56
523.07	51.49
523.24	84.26
523.41	49.15
523.58	9.36
523.75	72.56
523.92	28.09
524.10	63.19
524.27	7.02
524.44	70.22
524.61	0.00
524.78	32.77
524.96	16.38
525.13	74.90
525.30	0.00
525.47	46.81
525.64	0.00
525.81	4.68
525.98	32.77
526.16	0.00
526.33	0.00
526.50	37.45
526.67	79.58
526.84	119.37
527.01	112.35
527.18	46.81
527.36	39.79
527.53	67.88
527.70	74.90
527.87	42.13
528.04	56.17
528.21	44.47
528.38	46.81
528.55	49.15
528.72	23.41
528.89	16.38
529.07	67.88
529.24	0.00
529.41	131.07
529.58	70.22
529.75	0.00
529.92	74.90
530.09	0.00
530.26	77.24
530.43	39.79
530.60	14.04
530.77	107.66
530.94	4.68
531.11	11.70
531.28	0.00
531.46	65.54
531.63	25.75
531.80	0.00
531.97	60.85
532.14	37.45
532.31	25.75
532.48	0.00
532.65	0.00
532.82	149.79
532.99	51.49
533.16	86.60
533.33	32.77
533.50	0.00
533.67	23.41
533.84	60.85
534.01	25.75
534.18	46.81
534.35	46.81
534.52	72.56
534.69	79.58
534.86	0.00
535.03	32.77
535.20	32.77
535.37	16.38
535.54	72.56
535.71	98.30
535.88	0.00
536.05	46.81
536.22	16.38
536.38	95.96
536.55	0.00
536.72	23.41
536.89	14.04
537.06	65.54
537.23	0.00
537.40	0.00
537.57	65.54
537.74	37.45
537.91	53.83
538.08	49.15
538.25	16.38
538.42	0.00
538.59	25.75
538.75	110.01
538.92	0.00
539.09	46.81
539.26	0.00
539.43	51.49
539.60	154.48
539.77	250.44
539.94	262.14
540.11	236.39
540.28	135.75
540.44	46.81
540.61	77.24
540.78	42.13
540.95	147.45
541.12	18.72
541.29	88.94
541.46	30.43
541.62	21.06
541.79	86.60
541.96	84.26
542.13	39.79
542.30	79.58
542.47	102.98
542.63	14.04
542.80	18.72
542.97	32.77
543.14	42.13
543.31	63.19
543.48	0.00
543.64	60.85
543.81	0.00
543.98	16.38
544.15	0.00
544.32	60.85
544.48	67.88
544.65	25.75
544.82	39.79
544.99	0.00
545.16	44.47
545.32	49.15
545.49	32.77
545.66	11.70
545.83	65.54
546.00	67.88
546.16	81.92
546.33	37.45
546.50	32.77
546.67	42.13
546.83	58.51
547.00	67.88
547.17	25.75
547.34	14.04
547.50	42.13
547.67	65.54
547.84	18.72
548.00	56.17
548.17	77.24
548.34	18.72
548.51	86.60
548.67	79.58
548.84	21.06
549.01	114.69
549.18	58.51
549.34	67.88
549.51	0.00
549.68	37.45
549.84	16.38
550.01	37.45
550.18	30.43
550.34	77.24
550.51	37.45
550.68	51.49
550.84	9.36
551.01	42.13
551.18	42.13
551.34	102.98
551.51	0.00
551.68	9.36
551.84	9.36
552.01	70.22
552.18	44.47
552.34	84.26
552.51	102.98
552.68	70.22
552.84	0.00
553.01	2.34
553.18	23.41
553.34	0.00
553.51	51.49
553.67	70.22
553.84	23.41
554.01	30.43
554.17	7.02
554.34	0.00
554.51	74.90
554.67	60.85
554.84	39.79
555.00	18.72
555.17	46.81
555.33	9.36
555.50	0.00
555.67	65.54
555.83	4.68
556.00	65.54
556.16	63.19
556.33	88.94
556.50	56.17
556.66	0.00
556.83	112.35
556.99	56.17
557.16	35.11
557.32	98.30
557.49	2.34
557.65	58.51
557.82	105.32
557.98	18.72
558.15	63.19
558.32	16.38
558.48	65.54
558.65	0.00
558.81	63.19
558.98	70.22
559.14	67.88
559.31	72.56
559.47	11.70
559.64	51.49
559.80	49.15
559.97	0.00
560.13	56.17
560.30	28.09
560.46	35.11
560.63	105.32
560.79	16.38
560.96	46.81
561.12	58.51
561.29	0.00
561.45	0.00
561.61	18.72
561.78	112.35
561.94	35.11
562.11	4.68
562.27	21.06
562.44	77.24
562.60	0.00
562.77	63.19
562.93	11.70
563.10	67.88
563.26	121.71
563.42	2.34
563.59	32.77
563.75	0.00
563.92	0.00
564.08	0.00
564.24	23.41
564.41	84.26
564.57	0.00
564.74	2.34
564.90	35.11
565.07	18.72
565.23	46.81
565.39	39.79
565.56	65.54
565.72	84.26
565.88	81.92
566.05	107.66
566.21	0.00
566.38	65.54
566.54	86.60
566.70	98.30
566.87	39.79
567.03	21.06
567.19	7.02
567.36	84.26
567.52	65.54
567.68	42.13
567.85	74.90
568.01	9.36
568.17	131.07
568.34	0.00
568.50	56.17
568.66	107.66
568.83	98.30
568.99	93.62
569.15	49.15
569.32	93.62
569.48	28.09
569.64	81.92
569.81	42.13
569.97	42.13
570.13	4.68
570.30	44.47
570.46	32.77
570.62	0.00
570.78	0.00
570.95	44.47
571.11	72.56
571.27	23.41
571.43	2.34
571.60	65.54
571.76	88.94
571.92	53.83
572.09	18.72
572.25	63.19
572.41	74.90
572.57	65.54
572.74	30.43
572.90	86.60
573.06	21.06
573.22	32.77
573.38	0.00
573.55	39.79
573.71	51.49
573.87	77.24
574.03	63.19
574.20	58.51
574.36	25.75
574.52	91.28
574.68	28.09
574.84	91.28
575.01	72.56
575.17	63.19
575.33	11.70
575.49	28.09
575.65	0.00
575.82	16.38
575.98	67.88
576.14	70.22
576.30	95.96
576.46	84.26
576.62	46.81
576.79	67.88
576.95	145.11
577.11	60.85
577.27	58.51
577.43	44.47
577.59	65.54
577.75	14.04
577.92	42.13
578.08	46.81
578.24	140.43
578.40	46.81
578.56	84.26
578.72	105.32
578.88	67.88
579.04	56.17
579.21	49.15
579.37	37.45
579.53	44.47
579.69	28.09
579.85	18.72
580.01	44.47
580.17	107.66
580.33	18.72
580.49	0.00
580.65	60.85
580.82	63.19
580.98	70.22
581.14	70.22
581.30	56.17
581.46	72.56
581.62	67.88
581.78	37.45
581.94	114.69
582.10	126.39
582.26	44.47
582.42	102.98
582.58	14.04
582.74	110.01
582.90	14.04
583.06	91.28
583.22	93.62
583.38	67.88
583.54	72.56
583.70	105.32
583.86	112.35
584.02	128.73
584.18	105.32
584.34	152.13
584.50	580.45
584.66	3784.65
584.82	9474.49
584.98	14061.94
585.14	12692.73
585.30	7662.91
585.46	4554.68
585.62	2846.09
585.78	1280.27
585.94	416.62
586.10	276.18
586.26	168.52
586.42	112.35
586.58	25.75
586.74	95.96
586.90	102.98
587.06	51.49
587.22	42.13
587.38	77.24
587.54	173.20
587.70	547.69
587.86	910.47
588.02	1081.33
588.18	709.18
588.34	491.51
588.49	367.46
588.65	243.42
588.81	138.09
588.97	147.45
589.13	95.96
589.29	56.17
589.45	46.81
589.61	100.64
589.77	77.24
589.93	65.54
590.08	133.41
590.24	65.54
590.40	65.54
590.56	63.19
590.72	67.88
590.88	0.00
591.04	42.13
591.20	51.49
591.35	88.94
591.51	44.47
591.67	95.96
591.83	0.00
591.99	72.56
592.15	58.51
592.31	93.62
592.46	0.00
592.62	0.00
592.78	84.26
592.94	0.00
593.10	65.54
593.26	35.11
593.41	21.06
593.57	79.58
593.73	88.94
593.89	437.68
594.05	1196.01
594.20	1781.15
594.36	1696.89
594.52	1046.22
594.68	695.14
594.84	437.68
594.99	191.92
595.15	173.20
595.31	117.03
595.47	30.43
595.62	88.94
595.78	81.92
595.94	84.26
596.10	74.90
596.25	25.75
596.41	70.22
596.57	107.66
596.73	98.30
596.88	133.41
597.04	227.03
597.20	433.00
597.36	411.93
597.51	294.91
597.67	278.52
597.83	126.39
597.99	74.90
598.14	121.71
598.30	107.66
598.46	30.43
598.61	32.77
598.77	112.35
598.93	84.26
599.09	77.24
599.24	39.79
599.40	67.88
599.56	35.11
599.71	60.85
599.87	70.22
600.03	32.77
600.18	21.06
600.34	42.13
600.50	16.38
600.65	161.50
600.81	16.38
600.97	0.00
601.12	0.00
601.28	91.28
601.44	39.79
601.59	9.36
601.75	32.77
601.91	70.22
602.06	95.96
602.22	91.28
602.37	112.35
602.53	358.10
602.69	489.17
602.84	507.90
603.00	320.65
603.16	222.35
603.31	154.48
603.47	124.05
603.62	46.81
603.78	95.96
603.94	18.72
604.09	105.32
604.25	72.56
604.40	65.54
604.56	74.90
604.71	77.24
604.87	56.17
605.03	53.83
605.18	0.00
605.34	114.69
605.49	93.62
605.65	124.05
605.80	128.73
605.96	72.56
606.12	21.06
606.27	39.79
606.43	63.19
606.58	79.58
606.74	182.56
606.89	568.75
607.05	1144.52
607.20	1483.90
607.36	1308.36
607.51	842.59
607.67	683.44
607.82	348.74
607.98	177.88
608.13	105.32
608.29	112.35
608.44	39.79
608.60	67.88
608.75	86.60
608.91	262.14
609.06	903.45
609.22	1898.17
609.37	2429.48
609.53	2291.38
609.68	1547.09
609.84	947.92
609.99	636.63
610.15	297.25
610.30	156.82
610.46	126.39
610.61	28.09
610.76	126.39
610.92	91.28
611.07	86.60
611.23	58.51
611.38	63.19
611.54	35.11
611.69	88.94
611.84	46.81
612.00	0.00
612.15	51.49
612.31	112.35
612.46	63.19
612.62	173.20
612.77	95.96
612.92	67.88
613.08	131.07
613.23	79.58
613.39	135.75
613.54	161.50
613.69	901.11
613.85	2347.56
614.00	3885.29
614.15	4173.18
614.31	2897.58
614.46	1799.87
614.62	1203.04
614.77	720.88
614.92	273.84
615.08	93.62
615.23	107.66
615.38	39.79
615.54	72.56
615.69	166.18
615.84	397.89
616.00	880.04
616.15	1156.22
616.30	844.93
616.46	559.39
616.61	414.27
616.76	304.27
616.92	166.18
617.07	79.58
617.22	84.26
617.37	56.17
617.53	53.83
617.68	60.85
617.83	39.79
617.99	32.77
618.14	81.92
618.29	42.13
618.45	79.58
618.60	86.60
618.75	93.62
618.90	98.30
619.06	9.36
619.21	37.45
619.36	107.66
619.51	37.45
619.67	0.00
619.82	65.54
619.97	63.19
620.12	67.88
620.28	0.00
620.43	46.81
620.58	70.22
620.73	72.56
620.89	56.17
621.04	210.65
621.19	325.33
621.34	468.11
621.49	617.90
621.65	594.50
621.80	409.59
621.95	194.26
622.10	166.18
622.25	58.51
622.41	138.09
622.56	98.30
622.71	35.11
622.86	58.51
623.01	60.85
623.16	56.17
623.32	23.41
623.47	25.75
623.62	30.43
623.77	42.13
623.92	98.30
624.07	56.17
624.23	42.13
624.38	58.51
624.53	18.72
624.68	39.79
624.83	72.56
624.98	63.19
625.13	60.85
625.29	28.09
625.44	2.34
625.59	56.17
625.74	107.66
625.89	105.32
626.04	484.49
626.19	1130.48
626.34	1966.05
626.49	2106.48
626.65	1621.99
626.80	1071.97
626.95	660.03
627.10	454.06
627.25	248.10
627.40	133.41
627.55	74.90
627.70	79.58
627.85	70.22
628.00	0.00
628.15	9.36
628.30	0.00
628.45	74.90
628.60	37.45
628.76	2.34
628.91	37.45
629.06	79.58
629.21	74.90
629.36	30.43
629.51	25.75
629.66	77.24
629.81	42.13
629.96	241.08
630.11	468.11
630.26	606.20
630.41	470.45
630.56	339.38
630.71	257.46
630.86	128.73
631.01	95.96
631.16	39.79
631.31	32.77
631.46	44.47
631.61	88.94
631.76	77.24
631.91	91.28
632.06	44.47
632.21	74.90
632.36	21.06
632.51	112.35
632.66	72.56
632.81	217.67
632.96	622.58
633.10	1144.52
633.25	1441.77
633.40	1210.06
633.55	805.14
633.70	489.17
633.85	407.25
634.00	259.80
634.15	58.51
634.30	77.24
634.45	58.51
634.60	37.45
634.75	84.26
634.90	0.00
635.05	28.09
635.19	72.56
635.34	98.30
635.49	51.49
635.64	49.15
635.79	86.60
635.94	60.85
636.09	0.00
636.24	23.41
636.39	35.11
636.53	107.66
636.68	95.96
636.83	98.30
636.98	112.35
637.13	131.07
637.28	32.77
637.43	2.34
637.57	77.24
637.72	547.69
637.87	1535.39
638.02	2406.07
638.17	2848.43
638.32	2038.61
638.46	1373.89
638.61	980.68
638.76	599.18
638.91	229.37
639.06	152.13
639.20	152.13
639.35	131.07
639.50	119.37
639.65	936.21
639.80	2361.60
639.94	3763.58
640.09	4329.99
640.24	3112.91
640.39	2176.70
640.54	1423.05
640.68	819.19
640.83	397.89
640.98	252.78
641.13	154.48
641.27	84.26
641.42	84.26
641.57	63.19
641.72	95.96
641.86	14.04
642.01	0.00
642.16	49.15
642.31	56.17
642.45	110.01
642.60	14.04
642.75	105.32
642.90	114.69
643.04	110.01
643.19	67.88
643.34	46.81
643.48	39.79
643.63	63.19
643.78	25.75
643.93	74.90
644.07	98.30
644.22	39.79
644.37	23.41
644.51	91.28
644.66	46.81
644.81	21.06
644.95	105.32
645.10	131.07
645.25	39.79
645.39	67.88
645.54	56.17
645.69	21.06
645.83	72.56
645.98	58.51
646.13	35.11
646.27	53.83
646.42	42.13
646.57	81.92
646.71	110.01
646.86	67.88
647.00	86.60
647.15	23.41
647.30	2.34
647.44	53.83
647.59	0.00
647.74	2.34
647.88	35.11
648.03	67.88
648.17	16.38
648.32	53.83
648.47	42.13
648.61	44.47
648.76	30.43
648.90	58.51
649.05	53.83
649.20	77.24
649.34	37.45
649.49	0.00
649.63	156.82
649.78	67.88
649.92	133.41
650.07	395.55
650.21	1015.79
650.36	1844.34
650.51	2150.95
650.65	1788.17
650.80	1315.38
650.94	837.91
651.09	585.13
651.23	297.25
651.38	180.22
651.52	28.09
651.67	91.28
651.81	46.81
651.96	21.06
652.10	67.88
652.25	42.13
652.39	16.38
652.54	65.54
652.68	70.22
652.83	325.33
652.97	638.97
653.12	795.78
653.26	709.18
653.41	559.39
653.55	402.57
653.70	257.46
653.84	168.52
653.99	32.77
654.13	112.35
654.27	32.77
654.42	0.00
654.56	42.13
654.71	30.43
654.85	46.81
655.00	16.38
655.14	105.32
655.29	84.26
655.43	58.51
655.57	0.00
655.72	4.68
655.86	39.79
656.01	53.83
656.15	28.09
656.30	60.85
656.44	51.49
656.58	63.19
656.73	65.54
656.87	56.17
657.01	77.24
657.16	37.45
657.30	30.43
657.45	93.62
657.59	72.56
657.73	0.00
657.88	0.00
658.02	74.90
658.16	16.38
658.31	67.88
658.45	56.17
658.60	21.06
658.74	88.94
658.88	49.15
659.03	32.77
659.17	56.17
659.31	184.90
659.46	458.74
659.60	833.23
659.74	1076.65
659.89	978.34
660.03	683.44
660.17	503.22
660.32	346.40
660.46	86.60
660.60	173.20
660.74	140.43
660.89	42.13
661.03	133.41
661.17	86.60
661.32	44.47
661.46	51.49
661.60	32.77
661.74	0.00
661.89	51.49
662.03	60.85
662.17	21.06
662.31	58.51
662.46	32.77
662.60	88.94
662.74	30.43
662.88	23.41
663.03	0.00
663.17	9.36
663.31	30.43
663.45	4.68
663.60	21.06
663.74	53.83
663.88	0.00
664.02	53.83
664.17	72.56
664.31	119.37
664.45	35.11
664.59	18.72
664.73	88.94
664.88	65.54
665.02	51.49
665.16	9.36
665.30	81.92
665.44	39.79
665.59	39.79
665.73	53.83
665.87	58.51
666.01	23.41
666.15	25.75
666.29	35.11
666.44	53.83
666.58	46.81
666.72	79.58
666.86	63.19
667.00	49.15
667.14	168.52
667.28	280.86
667.43	959.62
667.57	1390.28
667.71	1797.53
667.85	1647.74
667.99	1270.91
668.13	753.65
668.27	465.77
668.41	283.20
668.56	173.20
668.70	0.00
668.84	23.41
668.98	56.17
669.12	53.83
669.26	72.56
669.40	18.72
669.54	53.83
669.68	88.94
669.82	53.83
669.96	2.34
670.10	91.28
670.25	53.83
670.39	53.83
670.53	74.90
670.67	0.00
670.81	67.88
670.95	58.51
671.09	121.71
671.23	337.04
671.37	699.82
671.51	1158.57
671.65	1214.74
671.79	894.08
671.93	655.35
672.07	358.10
672.21	266.82
672.35	100.64
672.49	65.54
672.63	39.79
672.77	21.06
672.91	67.88
673.05	11.70
673.19	51.49
673.33	58.51
673.47	95.96
673.61	70.22
673.75	16.38
673.89	0.00
674.03	79.58
674.17	102.98
674.31	0.00
674.45	16.38
674.59	0.00
674.73	49.15
674.87	23.41
675.01	0.00
675.15	28.09
675.29	58.51
675.43	56.17
675.56	39.79
675.70	58.51
675.84	88.94
675.98	77.24
676.12	91.28
676.26	37.45
676.40	0.00
676.54	95.96
676.68	0.00
676.82	32.77
676.96	100.64
677.10	56.17
677.23	42.13
677.37	65.54
677.51	16.38
677.65	9.36
677.79	0.00
677.93	35.11
678.07	32.77
678.21	44.47
678.34	0.00
678.48	0.00
678.62	44.47
678.76	0.00
678.90	0.00
679.04	72.56
679.18	60.85
679.31	0.00
679.45	37.45
679.59	42.13
679.73	37.45
679.87	0.00
680.00	81.92
680.14	2.34
680.28	7.02
680.42	0.00
680.56	84.26
680.70	37.45
680.83	0.00
680.97	0.00
681.11	0.00
681.25	0.00
681.39	0.00
681.52	51.49
681.66	70.22
681.80	84.26
681.94	7.02
682.07	77.24
682.21	37.45
682.35	21.06
682.49	58.51
682.62	21.06
682.76	0.00
682.90	30.43
683.04	28.09
683.17	18.72
683.31	58.51
683.45	58.51
683.59	32.77
683.72	65.54
683.86	37.45
684.00	25.75
684.13	0.00
684.27	32.77
684.41	56.17
684.55	0.00
684.68	0.00
684.82	14.04
684.96	7.02
685.09	51.49
685.23	25.75
685.37	88.94
685.50	25.75
685.64	42.13
685.78	0.00
685.91	63.19
686.05	135.75
686.19	42.13
686.32	49.15
686.46	32.77
686.60	9.36
686.73	79.58
686.87	126.39
687.01	23.41
687.14	23.41
687.28	51.49
687.42	86.60
687.55	23.41
687.69	18.72
687.82	46.81
687.96	46.81
688.10	56.17
688.23	128.73
688.37	51.49
688.50	51.49
688.64	18.72
688.78	58.51
688.91	0.00
689.05	28.09
689.18	81.92
689.32	53.83
689.46	28.09
689.59	16.38
689.73	30.43
689.86	25.75
690.00	16.38
690.13	28.09
690.27	28.09
690.41	0.00
690.54	18.72
690.68	65.54
690.81	2.34
690.95	72.56
691.08	37.45
691.22	0.00
691.35	65.54
691.49	0.00
691.62	49.15
691.76	11.70
691.89	30.43
692.03	0.00
692.16	11.70
692.30	25.75
692.43	177.88
692.57	428.32
692.70	587.47
692.84	889.40
692.97	802.80
693.11	594.50
693.24	308.95
693.38	327.68
693.51	283.20
693.65	77.24
693.78	131.07
693.92	84.26
694.05	35.11
694.19	28.09
694.32	51.49
694.45	0.00
694.59	0.00
694.72	53.83
694.86	58.51
694.99	39.79
695.13	0.00
695.26	39.79
695.39	56.17
695.53	32.77
695.66	65.54
695.80	9.36
695.93	2.34
696.07	0.00
696.20	53.83
696.33	63.19
696.47	93.62
696.60	58.51
696.73	37.45
696.87	32.77
697.00	46.81
697.14	21.06
697.27	51.49
697.40	11.70
697.54	0.00
697.67	23.41
697.80	4.68
697.94	7.02
698.07	53.83
698.21	46.81
698.34	0.00
698.47	49.15
698.61	58.51
698.74	30.43
698.87	44.47
699.01	42.13
699.14	53.83
699.27	32.77
699.40	107.66
699.54	126.39
699.67	119.37
699.80	102.98
699.94	0.00
700.07	0.00
700.20	86.60
700.34	30.43
700.47	35.11
700.60	53.83
700.73	56.17
700.87	0.00
701.00	0.00
701.13	23.41
701.26	39.79
701.40	14.04
701.53	4.68
701.66	0.00
701.79	30.43
701.93	37.45
702.06	35.11
702.19	124.05
702.32	72.56
702.46	117.03
702.59	117.03
702.72	184.90
702.85	603.86
702.99	1025.15
703.12	1472.20
703.25	1593.90
703.38	1355.17
703.51	1142.18
703.65	908.13
703.78	648.33
703.91	449.38
704.04	236.39
704.17	126.39
704.31	56.17
704.44	88.94
704.57	0.00
704.70	30.43
704.83	44.47
704.96	0.00
705.10	7.02
705.23	32.77
>>>>>End Processed Spectral Data<<<<<
