SpectraSuite Data File
++++++++++++++++++++++++++++++++++++
Date: Fri Oct 04 12:13:28 GMT-05:00 2013
User: price-jones
Dark Spectrum Present: No
Reference Spectrum Present: No
Number of Sampled Component Spectra: 1
Spectrometers: USB2+H05261
Integration Time (usec): 10000 (USB2+H05261)
Spectra Averaged: 1 (USB2+H05261)
Boxcar Smoothing: 0 (USB2+H05261)
Correct for Electrical Dark: No (USB2+H05261)
Strobe/Lamp Enabled: No (USB2+H05261)
Correct for Detector Non-linearity: No (USB2+H05261)
Correct for Stray Light: No (USB2+H05261)
Number of Pixels in Processed Spectrum: 2048
>>>>>Begin Processed Spectral Data<<<<<
365.73	0.00
365.92	0.00
366.12	0.00
366.32	0.00
366.52	0.00
366.72	0.00
366.91	0.00
367.11	0.00
367.31	0.00
367.51	0.00
367.70	0.00
367.90	0.00
368.10	0.00
368.30	0.00
368.49	0.00
368.69	0.00
368.89	0.00
369.09	0.00
369.28	0.00
369.48	0.00
369.68	0.00
369.87	0.00
370.07	0.00
370.27	0.00
370.47	0.00
370.66	0.00
370.86	0.00
371.06	0.00
371.25	0.00
371.45	0.00
371.65	0.00
371.84	44.47
372.04	9.36
372.24	0.00
372.44	51.49
372.63	0.00
372.83	16.38
373.03	0.00
373.22	0.00
373.42	16.38
373.62	0.00
373.81	77.24
374.01	84.26
374.21	16.38
374.40	16.38
374.60	32.77
374.79	0.00
374.99	42.13
375.19	72.56
375.38	0.00
375.58	14.04
375.78	63.19
375.97	35.11
376.17	67.88
376.37	11.70
376.56	0.00
376.76	44.47
376.95	14.04
377.15	7.02
377.35	0.00
377.54	14.04
377.74	44.47
377.93	46.81
378.13	0.00
378.33	42.13
378.52	28.09
378.72	28.09
378.91	23.41
379.11	0.00
379.31	0.00
379.50	21.06
379.70	63.19
379.89	14.04
380.09	0.00
380.28	21.06
380.48	32.77
380.68	23.41
380.87	46.81
381.07	56.17
381.26	9.36
381.46	0.00
381.65	2.34
381.85	21.06
382.04	30.43
382.24	0.00
382.43	0.00
382.63	0.00
382.83	102.98
383.02	0.00
383.22	28.09
383.41	0.00
383.61	11.70
383.80	42.13
384.00	37.45
384.19	11.70
384.39	0.00
384.58	2.34
384.78	18.72
384.97	42.13
385.17	28.09
385.36	39.79
385.56	25.75
385.75	58.51
385.95	21.06
386.14	39.79
386.34	4.68
386.53	0.00
386.72	0.00
386.92	14.04
387.11	9.36
387.31	49.15
387.50	0.00
387.70	14.04
387.89	60.85
388.09	42.13
388.28	44.47
388.48	21.06
388.67	58.51
388.86	58.51
389.06	60.85
389.25	4.68
389.45	0.00
389.64	7.02
389.84	4.68
390.03	49.15
390.22	0.00
390.42	25.75
390.61	0.00
390.81	2.34
391.00	0.00
391.19	0.00
391.39	60.85
391.58	74.90
391.78	21.06
391.97	0.00
392.16	0.00
392.36	4.68
392.55	32.77
392.75	0.00
392.94	0.00
393.13	0.00
393.33	0.00
393.52	60.85
393.71	30.43
393.91	32.77
394.10	51.49
394.29	37.45
394.49	0.00
394.68	58.51
394.88	23.41
395.07	23.41
395.26	0.00
395.46	37.45
395.65	0.00
395.84	42.13
396.04	39.79
396.23	44.47
396.42	14.04
396.62	32.77
396.81	0.00
397.00	39.79
397.19	4.68
397.39	44.47
397.58	35.11
397.77	11.70
397.97	4.68
398.16	60.85
398.35	51.49
398.55	44.47
398.74	0.00
398.93	11.70
399.12	39.79
399.32	28.09
399.51	77.24
399.70	21.06
399.90	60.85
400.09	11.70
400.28	67.88
400.47	58.51
400.67	86.60
400.86	18.72
401.05	23.41
401.24	0.00
401.44	30.43
401.63	51.49
401.82	0.00
402.01	86.60
402.21	0.00
402.40	9.36
402.59	53.83
402.78	35.11
402.97	0.00
403.17	0.00
403.36	0.00
403.55	0.00
403.74	53.83
403.93	4.68
404.13	79.58
404.32	28.09
404.51	39.79
404.70	39.79
404.89	25.75
405.09	0.00
405.28	112.35
405.47	7.02
405.66	0.00
405.85	110.01
406.05	95.96
406.24	49.15
406.43	0.00
406.62	0.00
406.81	0.00
407.00	0.00
407.20	21.06
407.39	74.90
407.58	0.00
407.77	0.00
407.96	77.24
408.15	28.09
408.34	11.70
408.54	86.60
408.73	14.04
408.92	0.00
409.11	32.77
409.30	60.85
409.49	67.88
409.68	49.15
409.87	74.90
410.07	56.17
410.26	18.72
410.45	25.75
410.64	60.85
410.83	9.36
411.02	0.00
411.21	30.43
411.40	2.34
411.59	21.06
411.78	14.04
411.98	28.09
412.17	63.19
412.36	7.02
412.55	0.00
412.74	28.09
412.93	49.15
413.12	0.00
413.31	98.30
413.50	16.38
413.69	70.22
413.88	39.79
414.07	58.51
414.26	16.38
414.45	0.00
414.64	0.00
414.83	0.00
415.02	49.15
415.22	14.04
415.41	2.34
415.60	0.00
415.79	100.64
415.98	72.56
416.17	9.36
416.36	37.45
416.55	30.43
416.74	0.00
416.93	77.24
417.12	0.00
417.31	44.47
417.50	25.75
417.69	37.45
417.88	0.00
418.07	0.00
418.26	35.11
418.45	42.13
418.64	65.54
418.83	0.00
419.02	0.00
419.21	18.72
419.39	46.81
419.58	23.41
419.77	53.83
419.96	88.94
420.15	0.00
420.34	7.02
420.53	58.51
420.72	81.92
420.91	0.00
421.10	121.71
421.29	39.79
421.48	44.47
421.67	70.22
421.86	37.45
422.05	18.72
422.24	7.02
422.43	18.72
422.61	21.06
422.80	154.48
422.99	0.00
423.18	79.58
423.37	0.00
423.56	84.26
423.75	0.00
423.94	39.79
424.13	51.49
424.32	35.11
424.50	112.35
424.69	23.41
424.88	2.34
425.07	44.47
425.26	4.68
425.45	0.00
425.64	81.92
425.83	11.70
426.01	60.85
426.20	49.15
426.39	0.00
426.58	51.49
426.77	30.43
426.96	84.26
427.15	77.24
427.33	74.90
427.52	67.88
427.71	0.00
427.90	77.24
428.09	25.75
428.28	25.75
428.46	39.79
428.65	23.41
428.84	35.11
429.03	32.77
429.22	46.81
429.40	21.06
429.59	0.00
429.78	0.00
429.97	2.34
430.16	44.47
430.34	23.41
430.53	0.00
430.72	16.38
430.91	65.54
431.10	0.00
431.28	53.83
431.47	42.13
431.66	56.17
431.85	70.22
432.03	0.00
432.22	72.56
432.41	14.04
432.60	11.70
432.79	30.43
432.97	135.75
433.16	0.00
433.35	37.45
433.54	58.51
433.72	30.43
433.91	2.34
434.10	35.11
434.28	107.66
434.47	0.00
434.66	49.15
434.85	0.00
435.03	0.00
435.22	67.88
435.41	42.13
435.59	81.92
435.78	0.00
435.97	11.70
436.16	23.41
436.34	60.85
436.53	56.17
436.72	25.75
436.90	37.45
437.09	14.04
437.28	28.09
437.46	35.11
437.65	70.22
437.84	0.00
438.02	46.81
438.21	37.45
438.40	7.02
438.58	49.15
438.77	0.00
438.96	58.51
439.14	23.41
439.33	74.90
439.52	51.49
439.70	46.81
439.89	0.00
440.08	0.00
440.26	0.00
440.45	0.00
440.63	0.00
440.82	0.00
441.01	42.13
441.19	11.70
441.38	72.56
441.57	81.92
441.75	42.13
441.94	79.58
442.12	14.04
442.31	77.24
442.50	0.00
442.68	14.04
442.87	95.96
443.05	32.77
443.24	4.68
443.43	49.15
443.61	70.22
443.80	0.00
443.98	21.06
444.17	0.00
444.35	0.00
444.54	0.00
444.73	32.77
444.91	30.43
445.10	86.60
445.28	79.58
445.47	114.69
445.65	18.72
445.84	53.83
446.02	18.72
446.21	39.79
446.39	21.06
446.58	70.22
446.77	4.68
446.95	53.83
447.14	39.79
447.32	53.83
447.51	126.39
447.69	35.11
447.88	63.19
448.06	0.00
448.25	25.75
448.43	58.51
448.62	0.00
448.80	18.72
448.99	16.38
449.17	11.70
449.36	39.79
449.54	86.60
449.73	7.02
449.91	9.36
450.10	0.00
450.28	49.15
450.46	0.00
450.65	9.36
450.83	63.19
451.02	0.00
451.20	37.45
451.39	0.00
451.57	0.00
451.76	37.45
451.94	112.35
452.13	2.34
452.31	0.00
452.49	39.79
452.68	2.34
452.86	0.00
453.05	102.98
453.23	77.24
453.42	0.00
453.60	14.04
453.78	0.00
453.97	0.00
454.15	21.06
454.34	0.00
454.52	0.00
454.70	65.54
454.89	0.00
455.07	42.13
455.26	14.04
455.44	72.56
455.62	0.00
455.81	0.00
455.99	53.83
456.17	32.77
456.36	39.79
456.54	44.47
456.73	18.72
456.91	25.75
457.09	42.13
457.28	42.13
457.46	4.68
457.64	65.54
457.83	51.49
458.01	4.68
458.19	105.32
458.38	0.00
458.56	60.85
458.74	0.00
458.93	0.00
459.11	44.47
459.29	18.72
459.48	23.41
459.66	81.92
459.84	0.00
460.03	56.17
460.21	11.70
460.39	9.36
460.57	16.38
460.76	67.88
460.94	7.02
461.12	84.26
461.31	35.11
461.49	0.00
461.67	4.68
461.85	42.13
462.04	74.90
462.22	30.43
462.40	63.19
462.59	16.38
462.77	0.00
462.95	39.79
463.13	0.00
463.32	16.38
463.50	0.00
463.68	0.00
463.86	0.00
464.05	0.00
464.23	77.24
464.41	2.34
464.59	0.00
464.78	37.45
464.96	107.66
465.14	110.01
465.32	95.96
465.50	25.75
465.69	65.54
465.87	4.68
466.05	0.00
466.23	11.70
466.41	28.09
466.60	0.00
466.78	84.26
466.96	23.41
467.14	44.47
467.32	67.88
467.51	44.47
467.69	32.77
467.87	4.68
468.05	16.38
468.23	49.15
468.41	9.36
468.60	44.47
468.78	4.68
468.96	91.28
469.14	60.85
469.32	60.85
469.50	77.24
469.69	53.83
469.87	28.09
470.05	56.17
470.23	0.00
470.41	46.81
470.59	42.13
470.77	14.04
470.95	11.70
471.14	0.00
471.32	25.75
471.50	0.00
471.68	9.36
471.86	0.00
472.04	16.38
472.22	21.06
472.40	77.24
472.58	7.02
472.77	56.17
472.95	67.88
473.13	0.00
473.31	0.00
473.49	18.72
473.67	21.06
473.85	25.75
474.03	32.77
474.21	53.83
474.39	46.81
474.57	37.45
474.75	0.00
474.93	0.00
475.12	107.66
475.30	4.68
475.48	0.00
475.66	0.00
475.84	65.54
476.02	126.39
476.20	11.70
476.38	0.00
476.56	72.56
476.74	35.11
476.92	28.09
477.10	51.49
477.28	74.90
477.46	110.01
477.64	23.41
477.82	0.00
478.00	0.00
478.18	11.70
478.36	16.38
478.54	39.79
478.72	0.00
478.90	4.68
479.08	72.56
479.26	4.68
479.44	0.00
479.62	28.09
479.80	16.38
479.98	9.36
480.16	0.00
480.34	9.36
480.52	44.47
480.70	49.15
480.88	0.00
481.06	49.15
481.24	7.02
481.41	67.88
481.59	32.77
481.77	0.00
481.95	0.00
482.13	63.19
482.31	25.75
482.49	37.45
482.67	0.00
482.85	32.77
483.03	35.11
483.21	30.43
483.39	30.43
483.57	18.72
483.74	4.68
483.92	65.54
484.10	23.41
484.28	98.30
484.46	72.56
484.64	11.70
484.82	37.45
485.00	32.77
485.18	16.38
485.35	25.75
485.53	72.56
485.71	18.72
485.89	70.22
486.07	25.75
486.25	39.79
486.43	37.45
486.61	56.17
486.78	0.00
486.96	46.81
487.14	0.00
487.32	0.00
487.50	56.17
487.68	28.09
487.85	39.79
488.03	70.22
488.21	79.58
488.39	51.49
488.57	7.02
488.75	60.85
488.92	63.19
489.10	0.00
489.28	0.00
489.46	98.30
489.64	119.37
489.81	46.81
489.99	37.45
490.17	2.34
490.35	46.81
490.53	74.90
490.70	117.03
490.88	2.34
491.06	42.13
491.24	131.07
491.41	56.17
491.59	16.38
491.77	4.68
491.95	56.17
492.13	16.38
492.30	128.73
492.48	67.88
492.66	98.30
492.84	44.47
493.01	77.24
493.19	67.88
493.37	86.60
493.54	30.43
493.72	84.26
493.90	18.72
494.08	28.09
494.25	30.43
494.43	84.26
494.61	0.00
494.79	21.06
494.96	72.56
495.14	37.45
495.32	11.70
495.49	65.54
495.67	23.41
495.85	16.38
496.02	49.15
496.20	53.83
496.38	2.34
496.55	44.47
496.73	37.45
496.91	30.43
497.09	102.98
497.26	74.90
497.44	0.00
497.62	93.62
497.79	35.11
497.97	16.38
498.14	91.28
498.32	37.45
498.50	46.81
498.67	56.17
498.85	0.00
499.03	30.43
499.20	37.45
499.38	0.00
499.56	53.83
499.73	16.38
499.91	28.09
500.08	0.00
500.26	21.06
500.44	32.77
500.61	28.09
500.79	105.32
500.97	65.54
501.14	74.90
501.32	60.85
501.49	44.47
501.67	49.15
501.84	37.45
502.02	25.75
502.20	65.54
502.37	53.83
502.55	11.70
502.72	63.19
502.90	16.38
503.07	30.43
503.25	114.69
503.43	39.79
503.60	42.13
503.78	56.17
503.95	30.43
504.13	32.77
504.30	39.79
504.48	93.62
504.65	77.24
504.83	44.47
505.01	23.41
505.18	0.00
505.36	0.00
505.53	28.09
505.71	35.11
505.88	0.00
506.06	21.06
506.23	14.04
506.41	91.28
506.58	102.98
506.76	53.83
506.93	81.92
507.11	58.51
507.28	49.15
507.46	46.81
507.63	37.45
507.81	88.94
507.98	81.92
508.16	2.34
508.33	18.72
508.50	42.13
508.68	0.00
508.85	28.09
509.03	25.75
509.20	37.45
509.38	39.79
509.55	72.56
509.73	67.88
509.90	18.72
510.08	0.00
510.25	79.58
510.42	65.54
510.60	67.88
510.77	23.41
510.95	42.13
511.12	46.81
511.30	23.41
511.47	23.41
511.64	0.00
511.82	0.00
511.99	100.64
512.17	60.85
512.34	105.32
512.51	23.41
512.69	25.75
512.86	42.13
513.04	21.06
513.21	60.85
513.38	42.13
513.56	28.09
513.73	0.00
513.90	4.68
514.08	11.70
514.25	25.75
514.43	32.77
514.60	0.00
514.77	39.79
514.95	65.54
515.12	74.90
515.29	67.88
515.47	53.83
515.64	0.00
515.81	0.00
515.99	63.19
516.16	35.11
516.33	110.01
516.51	0.00
516.68	0.00
516.85	11.70
517.03	88.94
517.20	7.02
517.37	14.04
517.54	138.09
517.72	42.13
517.89	114.69
518.06	37.45
518.24	18.72
518.41	77.24
518.58	128.73
518.75	46.81
518.93	51.49
519.10	11.70
519.27	23.41
519.45	44.47
519.62	91.28
519.79	39.79
519.96	42.13
520.14	35.11
520.31	60.85
520.48	86.60
520.65	51.49
520.83	53.83
521.00	42.13
521.17	51.49
521.34	0.00
521.52	53.83
521.69	56.17
521.86	30.43
522.03	107.66
522.20	37.45
522.38	100.64
522.55	56.17
522.72	0.00
522.89	9.36
523.07	65.54
523.24	56.17
523.41	60.85
523.58	56.17
523.75	81.92
523.92	35.11
524.10	35.11
524.27	23.41
524.44	16.38
524.61	152.13
524.78	39.79
524.96	60.85
525.13	0.00
525.30	0.00
525.47	74.90
525.64	9.36
525.81	67.88
525.98	51.49
526.16	84.26
526.33	56.17
526.50	46.81
526.67	67.88
526.84	79.58
527.01	25.75
527.18	79.58
527.36	56.17
527.53	32.77
527.70	18.72
527.87	79.58
528.04	74.90
528.21	18.72
528.38	0.00
528.55	88.94
528.72	51.49
528.89	49.15
529.07	30.43
529.24	16.38
529.41	107.66
529.58	42.13
529.75	110.01
529.92	60.85
530.09	25.75
530.26	65.54
530.43	65.54
530.60	0.00
530.77	0.00
530.94	0.00
531.11	7.02
531.28	65.54
531.46	53.83
531.63	53.83
531.80	0.00
531.97	0.00
532.14	21.06
532.31	35.11
532.48	100.64
532.65	98.30
532.82	63.19
532.99	32.77
533.16	32.77
533.33	39.79
533.50	0.00
533.67	9.36
533.84	84.26
534.01	49.15
534.18	133.41
534.35	16.38
534.52	58.51
534.69	63.19
534.86	35.11
535.03	21.06
535.20	0.00
535.37	60.85
535.54	25.75
535.71	18.72
535.88	37.45
536.05	0.00
536.22	112.35
536.38	51.49
536.55	23.41
536.72	0.00
536.89	86.60
537.06	93.62
537.23	42.13
537.40	30.43
537.57	39.79
537.74	0.00
537.91	14.04
538.08	11.70
538.25	0.00
538.42	84.26
538.59	0.00
538.75	9.36
538.92	77.24
539.09	72.56
539.26	35.11
539.43	98.30
539.60	67.88
539.77	191.92
539.94	147.45
540.11	39.79
540.28	63.19
540.44	121.71
540.61	88.94
540.78	28.09
540.95	72.56
541.12	44.47
541.29	18.72
541.46	44.47
541.62	63.19
541.79	42.13
541.96	7.02
542.13	95.96
542.30	105.32
542.47	51.49
542.63	0.00
542.80	77.24
542.97	46.81
543.14	105.32
543.31	23.41
543.48	2.34
543.64	81.92
543.81	9.36
543.98	70.22
544.15	77.24
544.32	77.24
544.48	72.56
544.65	98.30
544.82	65.54
544.99	18.72
545.16	51.49
545.32	58.51
545.49	32.77
545.66	30.43
545.83	42.13
546.00	81.92
546.16	91.28
546.33	58.51
546.50	0.00
546.67	88.94
546.83	0.00
547.00	56.17
547.17	35.11
547.34	67.88
547.50	53.83
547.67	88.94
547.84	0.00
548.00	23.41
548.17	49.15
548.34	65.54
548.51	88.94
548.67	53.83
548.84	37.45
549.01	84.26
549.18	70.22
549.34	11.70
549.51	32.77
549.68	107.66
549.84	0.00
550.01	67.88
550.18	77.24
550.34	0.00
550.51	72.56
550.68	56.17
550.84	0.00
551.01	46.81
551.18	60.85
551.34	14.04
551.51	58.51
551.68	91.28
551.84	0.00
552.01	30.43
552.18	16.38
552.34	35.11
552.51	0.00
552.68	53.83
552.84	53.83
553.01	56.17
553.18	53.83
553.34	46.81
553.51	0.00
553.67	0.00
553.84	70.22
554.01	91.28
554.17	37.45
554.34	91.28
554.51	0.00
554.67	16.38
554.84	112.35
555.00	0.00
555.17	67.88
555.33	0.00
555.50	14.04
555.67	0.00
555.83	44.47
556.00	18.72
556.16	107.66
556.33	88.94
556.50	81.92
556.66	16.38
556.83	9.36
556.99	58.51
557.16	95.96
557.32	67.88
557.49	81.92
557.65	86.60
557.82	0.00
557.98	102.98
558.15	37.45
558.32	58.51
558.48	37.45
558.65	21.06
558.81	25.75
558.98	21.06
559.14	30.43
559.31	0.00
559.47	35.11
559.64	28.09
559.80	79.58
559.97	23.41
560.13	0.00
560.30	74.90
560.46	32.77
560.63	25.75
560.79	2.34
560.96	37.45
561.12	46.81
561.29	44.47
561.45	0.00
561.61	32.77
561.78	105.32
561.94	4.68
562.11	91.28
562.27	70.22
562.44	35.11
562.60	0.00
562.77	77.24
562.93	16.38
563.10	51.49
563.26	0.00
563.42	60.85
563.59	42.13
563.75	23.41
563.92	9.36
564.08	86.60
564.24	56.17
564.41	28.09
564.57	7.02
564.74	42.13
564.90	30.43
565.07	95.96
565.23	32.77
565.39	91.28
565.56	21.06
565.72	9.36
565.88	74.90
566.05	37.45
566.21	44.47
566.38	58.51
566.54	23.41
566.70	37.45
566.87	18.72
567.03	0.00
567.19	44.47
567.36	21.06
567.52	18.72
567.68	107.66
567.85	28.09
568.01	28.09
568.17	100.64
568.34	7.02
568.50	65.54
568.66	30.43
568.83	74.90
568.99	14.04
569.15	53.83
569.32	30.43
569.48	86.60
569.64	35.11
569.81	42.13
569.97	0.00
570.13	63.19
570.30	16.38
570.46	32.77
570.62	30.43
570.78	39.79
570.95	74.90
571.11	14.04
571.27	0.00
571.43	81.92
571.60	70.22
571.76	46.81
571.92	0.00
572.09	37.45
572.25	0.00
572.41	58.51
572.57	93.62
572.74	7.02
572.90	65.54
573.06	84.26
573.22	0.00
573.38	58.51
573.55	0.00
573.71	25.75
573.87	18.72
574.03	0.00
574.20	39.79
574.36	25.75
574.52	0.00
574.68	110.01
574.84	84.26
575.01	39.79
575.17	49.15
575.33	86.60
575.49	25.75
575.65	56.17
575.82	67.88
575.98	107.66
576.14	74.90
576.30	32.77
576.46	88.94
576.62	63.19
576.79	46.81
576.95	56.17
577.11	53.83
577.27	32.77
577.43	0.00
577.59	32.77
577.75	39.79
577.92	0.00
578.08	21.06
578.24	91.28
578.40	58.51
578.56	18.72
578.72	28.09
578.88	84.26
579.04	88.94
579.21	63.19
579.37	51.49
579.53	58.51
579.69	0.00
579.85	16.38
580.01	65.54
580.17	60.85
580.33	28.09
580.49	95.96
580.65	91.28
580.82	70.22
580.98	93.62
581.14	67.88
581.30	42.13
581.46	124.05
581.62	44.47
581.78	107.66
581.94	81.92
582.10	16.38
582.26	46.81
582.42	7.02
582.58	74.90
582.74	39.79
582.90	49.15
583.06	124.05
583.22	65.54
583.38	107.66
583.54	98.30
583.70	133.41
583.86	88.94
584.02	121.71
584.18	81.92
584.34	180.22
584.50	414.27
584.66	2708.00
584.82	6555.84
584.98	9111.71
585.14	8025.70
585.30	5139.82
585.46	3047.38
585.62	1973.07
585.78	957.28
585.94	297.25
586.10	180.22
586.26	107.66
586.42	105.32
586.58	81.92
586.74	93.62
586.90	77.24
587.06	60.85
587.22	131.07
587.38	23.41
587.54	128.73
587.70	437.68
587.86	702.16
588.02	711.52
588.18	566.41
588.34	339.38
588.49	236.39
588.65	114.69
588.81	70.22
588.97	95.96
589.13	39.79
589.29	42.13
589.45	56.17
589.61	9.36
589.77	102.98
589.93	107.66
590.08	110.01
590.24	95.96
590.40	63.19
590.56	37.45
590.72	18.72
590.88	60.85
591.04	58.51
591.20	16.38
591.35	18.72
591.51	79.58
591.67	67.88
591.83	37.45
591.99	46.81
592.15	7.02
592.31	35.11
592.46	0.00
592.62	60.85
592.78	2.34
592.94	42.13
593.10	53.83
593.26	60.85
593.41	35.11
593.57	7.02
593.73	42.13
593.89	383.85
594.05	856.64
594.20	1095.37
594.36	1088.35
594.52	676.41
594.68	449.38
594.84	402.57
594.99	175.54
595.15	28.09
595.31	67.88
595.47	114.69
595.62	81.92
595.78	4.68
595.94	4.68
596.10	32.77
596.25	0.00
596.41	32.77
596.57	16.38
596.73	46.81
596.88	84.26
597.04	163.84
597.20	315.97
597.36	287.89
597.51	311.29
597.67	182.56
597.83	205.97
597.99	79.58
598.14	23.41
598.30	91.28
598.46	77.24
598.61	60.85
598.77	72.56
598.93	0.00
599.09	49.15
599.24	21.06
599.40	63.19
599.56	100.64
599.71	42.13
599.87	14.04
600.03	18.72
600.18	7.02
600.34	46.81
600.50	0.00
600.65	51.49
600.81	23.41
600.97	21.06
601.12	25.75
601.28	105.32
601.44	4.68
601.59	42.13
601.75	23.41
601.91	32.77
602.06	14.04
602.22	117.03
602.37	135.75
602.53	224.69
602.69	332.36
602.84	224.69
603.00	234.05
603.16	161.50
603.31	145.11
603.47	79.58
603.62	44.47
603.78	28.09
603.94	39.79
604.09	93.62
604.25	0.00
604.40	28.09
604.56	9.36
604.71	25.75
604.87	9.36
605.03	16.38
605.18	60.85
605.34	21.06
605.49	2.34
605.65	51.49
605.80	49.15
605.96	56.17
606.12	42.13
606.27	0.00
606.43	91.28
606.58	105.32
606.74	152.13
606.89	454.06
607.05	788.76
607.20	961.96
607.36	882.38
607.51	594.50
607.67	369.80
607.82	229.37
607.98	152.13
608.13	102.98
608.29	0.00
608.44	65.54
608.60	95.96
608.75	23.41
608.91	93.62
609.06	634.29
609.22	1317.72
609.37	1774.13
609.53	1467.52
609.68	992.39
609.84	671.73
609.99	479.81
610.15	283.20
610.30	67.88
610.46	46.81
610.61	95.96
610.76	39.79
610.92	37.45
611.07	0.00
611.23	21.06
611.38	84.26
611.54	58.51
611.69	32.77
611.84	0.00
612.00	81.92
612.15	9.36
612.31	42.13
612.46	88.94
612.62	72.56
612.77	91.28
612.92	63.19
613.08	65.54
613.23	39.79
613.39	79.58
613.54	37.45
613.69	592.16
613.85	1636.03
614.00	2544.16
614.15	2562.89
614.31	1916.90
614.46	1310.70
614.62	877.70
614.77	491.51
614.92	212.99
615.08	154.48
615.23	107.66
615.38	14.04
615.54	23.41
615.69	168.52
615.84	411.93
616.00	540.66
616.15	678.76
616.30	564.07
616.46	379.17
616.61	280.86
616.76	166.18
616.92	147.45
617.07	49.15
617.22	128.73
617.37	63.19
617.53	23.41
617.68	0.00
617.83	98.30
617.99	25.75
618.14	30.43
618.29	25.75
618.45	28.09
618.60	63.19
618.75	70.22
618.90	67.88
619.06	70.22
619.21	4.68
619.36	37.45
619.51	51.49
619.67	35.11
619.82	11.70
619.97	37.45
620.12	9.36
620.28	49.15
620.43	98.30
620.58	60.85
620.73	72.56
620.89	58.51
621.04	102.98
621.19	215.33
621.34	304.27
621.49	461.09
621.65	416.62
621.80	273.84
621.95	276.18
622.10	124.05
622.25	128.73
622.41	0.00
622.56	98.30
622.71	67.88
622.86	121.71
623.01	46.81
623.16	44.47
623.32	18.72
623.47	58.51
623.62	107.66
623.77	0.00
623.92	0.00
624.07	53.83
624.23	23.41
624.38	46.81
624.53	37.45
624.68	112.35
624.83	51.49
624.98	21.06
625.13	28.09
625.29	53.83
625.44	25.75
625.59	91.28
625.74	74.90
625.89	182.56
626.04	308.95
626.19	840.25
626.34	1259.21
626.49	1465.18
626.65	1055.58
626.80	734.93
626.95	517.26
627.10	334.70
627.25	119.37
627.40	63.19
627.55	46.81
627.70	128.73
627.85	98.30
628.00	88.94
628.15	42.13
628.30	65.54
628.45	58.51
628.60	102.98
628.76	39.79
628.91	14.04
629.06	77.24
629.21	74.90
629.36	0.00
629.51	93.62
629.66	65.54
629.81	93.62
629.96	161.50
630.11	285.55
630.26	390.87
630.41	397.89
630.56	198.95
630.71	236.39
630.86	156.82
631.01	14.04
631.16	149.79
631.31	114.69
631.46	74.90
631.61	42.13
631.76	25.75
631.91	63.19
632.06	91.28
632.21	65.54
632.36	16.38
632.51	53.83
632.66	77.24
632.81	180.22
632.96	500.87
633.10	861.32
633.25	1036.86
633.40	823.87
633.55	561.73
633.70	376.83
633.85	276.18
634.00	138.09
634.15	107.66
634.30	60.85
634.45	53.83
634.60	14.04
634.75	58.51
634.90	56.17
635.05	44.47
635.19	51.49
635.34	37.45
635.49	49.15
635.64	28.09
635.79	63.19
635.94	44.47
636.09	49.15
636.24	67.88
636.39	53.83
636.53	32.77
636.68	51.49
636.83	49.15
636.98	81.92
637.13	44.47
637.28	39.79
637.43	60.85
637.57	135.75
637.72	430.66
637.87	1001.75
638.02	1666.46
638.17	1732.00
638.32	1310.70
638.46	905.79
638.61	681.10
638.76	390.87
638.91	201.29
639.06	145.11
639.20	93.62
639.35	60.85
639.50	131.07
639.65	662.37
639.80	1629.01
639.94	2487.99
640.09	2801.62
640.24	1947.33
640.39	1432.41
640.54	1053.24
640.68	580.45
640.83	353.42
640.98	138.09
641.13	74.90
641.27	65.54
641.42	35.11
641.57	79.58
641.72	149.79
641.86	21.06
642.01	91.28
642.16	37.45
642.31	49.15
642.45	18.72
642.60	121.71
642.75	84.26
642.90	30.43
643.04	46.81
643.19	18.72
643.34	79.58
643.48	28.09
643.63	53.83
643.78	39.79
643.93	102.98
644.07	67.88
644.22	74.90
644.37	25.75
644.51	11.70
644.66	51.49
644.81	0.00
644.95	121.71
645.10	23.41
645.25	51.49
645.39	42.13
645.54	39.79
645.69	65.54
645.83	79.58
645.98	65.54
646.13	18.72
646.27	30.43
646.42	2.34
646.57	0.00
646.71	30.43
646.86	81.92
647.00	0.00
647.15	154.48
647.30	30.43
647.44	49.15
647.59	58.51
647.74	23.41
647.88	56.17
648.03	93.62
648.17	25.75
648.32	42.13
648.47	110.01
648.61	44.47
648.76	65.54
648.90	74.90
649.05	18.72
649.20	49.15
649.34	42.13
649.49	0.00
649.63	0.00
649.78	67.88
649.92	39.79
650.07	248.10
650.21	777.06
650.36	1210.06
650.51	1427.73
650.65	1320.06
650.80	961.96
650.94	601.52
651.09	320.65
651.23	257.46
651.38	86.60
651.52	93.62
651.67	35.11
651.81	35.11
651.96	30.43
652.10	39.79
652.25	39.79
652.39	32.77
652.54	0.00
652.68	133.41
652.83	301.93
652.97	369.80
653.12	524.28
653.26	407.25
653.41	332.36
653.55	283.20
653.70	215.33
653.84	81.92
653.99	105.32
654.13	37.45
654.27	42.13
654.42	44.47
654.56	74.90
654.71	46.81
654.85	60.85
655.00	51.49
655.14	0.00
655.29	14.04
655.43	30.43
655.57	42.13
655.72	35.11
655.86	39.79
656.01	100.64
656.15	25.75
656.30	39.79
656.44	4.68
656.58	72.56
656.73	0.00
656.87	28.09
657.01	0.00
657.16	65.54
657.30	98.30
657.45	0.00
657.59	44.47
657.73	46.81
657.88	0.00
658.02	35.11
658.16	9.36
658.31	21.06
658.45	67.88
658.60	77.24
658.74	0.00
658.88	93.62
659.03	53.83
659.17	21.06
659.31	39.79
659.46	367.46
659.60	617.90
659.74	741.95
659.89	620.24
660.03	550.03
660.17	379.17
660.32	248.10
660.46	117.03
660.60	51.49
660.74	105.32
660.89	44.47
661.03	23.41
661.17	58.51
661.32	0.00
661.46	4.68
661.60	14.04
661.74	44.47
661.89	56.17
662.03	11.70
662.17	46.81
662.31	23.41
662.46	65.54
662.60	44.47
662.74	77.24
662.88	46.81
663.03	18.72
663.17	7.02
663.31	35.11
663.45	46.81
663.60	0.00
663.74	0.00
663.88	56.17
664.02	51.49
664.17	2.34
664.31	0.00
664.45	63.19
664.59	23.41
664.73	0.00
664.88	51.49
665.02	84.26
665.16	37.45
665.30	95.96
665.44	51.49
665.59	81.92
665.73	46.81
665.87	9.36
666.01	37.45
666.15	65.54
666.29	25.75
666.44	28.09
666.58	91.28
666.72	25.75
666.86	53.83
667.00	102.98
667.14	58.51
667.28	264.48
667.43	587.47
667.57	994.73
667.71	1324.74
667.85	1121.12
667.99	774.72
668.13	479.81
668.27	264.48
668.41	159.16
668.56	112.35
668.70	95.96
668.84	25.75
668.98	28.09
669.12	21.06
669.26	7.02
669.40	58.51
669.54	35.11
669.68	58.51
669.82	70.22
669.96	100.64
670.10	28.09
670.25	93.62
670.39	88.94
670.53	74.90
670.67	51.49
670.81	49.15
670.95	16.38
671.09	154.48
671.23	217.67
671.37	475.13
671.51	720.88
671.65	840.25
671.79	725.57
671.93	433.00
672.07	304.27
672.21	163.84
672.35	105.32
672.49	56.17
672.63	77.24
672.77	98.30
672.91	32.77
673.05	49.15
673.19	37.45
673.33	14.04
673.47	39.79
673.61	7.02
673.75	2.34
673.89	25.75
674.03	42.13
674.17	42.13
674.31	9.36
674.45	16.38
674.59	67.88
674.73	14.04
674.87	32.77
675.01	23.41
675.15	58.51
675.29	100.64
675.43	65.54
675.56	0.00
675.70	23.41
675.84	79.58
675.98	60.85
676.12	35.11
676.26	37.45
676.40	23.41
676.54	9.36
676.68	0.00
676.82	70.22
676.96	0.00
677.10	0.00
677.23	0.00
677.37	100.64
677.51	154.48
677.65	154.48
677.79	58.51
677.93	67.88
678.07	16.38
678.21	70.22
678.34	70.22
678.48	53.83
678.62	37.45
678.76	25.75
678.90	14.04
679.04	28.09
679.18	0.00
679.31	39.79
679.45	30.43
679.59	25.75
679.73	0.00
679.87	46.81
680.00	42.13
680.14	0.00
680.28	0.00
680.42	28.09
680.56	0.00
680.70	18.72
680.83	32.77
680.97	14.04
681.11	42.13
681.25	49.15
681.39	88.94
681.52	91.28
681.66	128.73
681.80	53.83
681.94	60.85
682.07	0.00
682.21	67.88
682.35	0.00
682.49	2.34
682.62	0.00
682.76	2.34
682.90	51.49
683.04	37.45
683.17	25.75
683.31	35.11
683.45	4.68
683.59	14.04
683.72	0.00
683.86	0.00
684.00	21.06
684.13	28.09
684.27	14.04
684.41	0.00
684.55	58.51
684.68	30.43
684.82	28.09
684.96	30.43
685.09	39.79
685.23	77.24
685.37	23.41
685.50	25.75
685.64	0.00
685.78	11.70
685.91	79.58
686.05	25.75
686.19	0.00
686.32	74.90
686.46	0.00
686.60	56.17
686.73	49.15
686.87	7.02
687.01	37.45
687.14	79.58
687.28	0.00
687.42	46.81
687.55	0.00
687.69	81.92
687.82	30.43
687.96	81.92
688.10	0.00
688.23	0.00
688.37	53.83
688.50	0.00
688.64	30.43
688.78	16.38
688.91	49.15
689.05	0.00
689.18	49.15
689.32	42.13
689.46	11.70
689.59	32.77
689.73	28.09
689.86	25.75
690.00	0.00
690.13	7.02
690.27	53.83
690.41	35.11
690.54	86.60
690.68	46.81
690.81	37.45
690.95	0.00
691.08	67.88
691.22	0.00
691.35	35.11
691.49	11.70
691.62	39.79
691.76	86.60
691.89	21.06
692.03	35.11
692.16	70.22
692.30	53.83
692.43	147.45
692.57	259.80
692.70	463.43
692.84	627.26
692.97	531.30
693.11	332.36
693.24	285.55
693.38	166.18
693.51	184.90
693.65	91.28
693.78	77.24
693.92	30.43
694.05	16.38
694.19	46.81
694.32	0.00
694.45	0.00
694.59	88.94
694.72	32.77
694.86	0.00
694.99	35.11
695.13	0.00
695.26	84.26
695.39	25.75
695.53	11.70
695.66	86.60
695.80	37.45
695.93	0.00
696.07	30.43
696.20	18.72
696.33	4.68
696.47	121.71
696.60	105.32
696.73	51.49
696.87	79.58
697.00	37.45
697.14	0.00
697.27	4.68
697.40	72.56
697.54	0.00
697.67	0.00
697.80	23.41
697.94	18.72
698.07	16.38
698.21	39.79
698.34	67.88
698.47	77.24
698.61	46.81
698.74	28.09
698.87	67.88
699.01	60.85
699.14	72.56
699.27	14.04
699.40	4.68
699.54	32.77
699.67	0.00
699.80	56.17
699.94	7.02
700.07	0.00
700.20	114.69
700.34	23.41
700.47	30.43
700.60	35.11
700.73	4.68
700.87	44.47
701.00	0.00
701.13	23.41
701.26	23.41
701.40	14.04
701.53	18.72
701.66	4.68
701.79	16.38
701.93	0.00
702.06	0.00
702.19	46.81
702.32	18.72
702.46	0.00
702.59	56.17
702.72	124.05
702.85	435.34
702.99	664.71
703.12	894.08
703.25	1118.78
703.38	1027.50
703.51	793.44
703.65	617.90
703.78	395.55
703.91	320.65
704.04	259.80
704.17	93.62
704.31	86.60
704.44	42.13
704.57	16.38
704.70	21.06
704.83	37.45
704.96	56.17
705.10	25.75
705.23	9.36
>>>>>End Processed Spectral Data<<<<<
