SpectraSuite Data File
++++++++++++++++++++++++++++++++++++
Date: Fri Oct 04 12:13:43 GMT-05:00 2013
User: price-jones
Dark Spectrum Present: No
Reference Spectrum Present: No
Number of Sampled Component Spectra: 1
Spectrometers: USB2+H05261
Integration Time (usec): 10000 (USB2+H05261)
Spectra Averaged: 1 (USB2+H05261)
Boxcar Smoothing: 0 (USB2+H05261)
Correct for Electrical Dark: No (USB2+H05261)
Strobe/Lamp Enabled: No (USB2+H05261)
Correct for Detector Non-linearity: No (USB2+H05261)
Correct for Stray Light: No (USB2+H05261)
Number of Pixels in Processed Spectrum: 2048
>>>>>Begin Processed Spectral Data<<<<<
365.73	0.00
365.92	0.00
366.12	0.00
366.32	0.00
366.52	0.00
366.72	0.00
366.91	0.00
367.11	0.00
367.31	0.00
367.51	0.00
367.70	0.00
367.90	0.00
368.10	0.00
368.30	0.00
368.49	0.00
368.69	0.00
368.89	0.00
369.09	0.00
369.28	0.00
369.48	0.00
369.68	0.00
369.87	0.00
370.07	0.00
370.27	0.00
370.47	0.00
370.66	0.00
370.86	0.00
371.06	0.00
371.25	0.00
371.45	2.34
371.65	2.34
371.84	18.72
372.04	51.49
372.24	28.09
372.44	0.00
372.63	39.79
372.83	2.34
373.03	72.56
373.22	88.94
373.42	0.00
373.62	37.45
373.81	46.81
374.01	32.77
374.21	86.60
374.40	14.04
374.60	51.49
374.79	4.68
374.99	86.60
375.19	0.00
375.38	44.47
375.58	0.00
375.78	46.81
375.97	9.36
376.17	65.54
376.37	0.00
376.56	46.81
376.76	0.00
376.95	0.00
377.15	2.34
377.35	25.75
377.54	0.00
377.74	65.54
377.93	35.11
378.13	105.32
378.33	0.00
378.52	4.68
378.72	65.54
378.91	0.00
379.11	46.81
379.31	65.54
379.50	18.72
379.70	74.90
379.89	60.85
380.09	0.00
380.28	0.00
380.48	53.83
380.68	0.00
380.87	30.43
381.07	23.41
381.26	25.75
381.46	35.11
381.65	0.00
381.85	0.00
382.04	2.34
382.24	39.79
382.43	23.41
382.63	16.38
382.83	0.00
383.02	14.04
383.22	44.47
383.41	39.79
383.61	11.70
383.80	18.72
384.00	53.83
384.19	23.41
384.39	0.00
384.58	11.70
384.78	28.09
384.97	18.72
385.17	35.11
385.36	95.96
385.56	11.70
385.75	9.36
385.95	0.00
386.14	67.88
386.34	53.83
386.53	56.17
386.72	0.00
386.92	11.70
387.11	2.34
387.31	70.22
387.50	25.75
387.70	7.02
387.89	0.00
388.09	2.34
388.28	2.34
388.48	42.13
388.67	30.43
388.86	16.38
389.06	21.06
389.25	95.96
389.45	39.79
389.64	0.00
389.84	0.00
390.03	0.00
390.22	14.04
390.42	49.15
390.61	72.56
390.81	2.34
391.00	53.83
391.19	28.09
391.39	0.00
391.58	25.75
391.78	0.00
391.97	46.81
392.16	0.00
392.36	91.28
392.55	28.09
392.75	0.00
392.94	0.00
393.13	0.00
393.33	0.00
393.52	0.00
393.71	0.00
393.91	74.90
394.10	16.38
394.29	56.17
394.49	0.00
394.68	58.51
394.88	11.70
395.07	0.00
395.26	0.00
395.46	0.00
395.65	65.54
395.84	25.75
396.04	53.83
396.23	14.04
396.42	0.00
396.62	0.00
396.81	0.00
397.00	0.00
397.19	49.15
397.39	60.85
397.58	2.34
397.77	0.00
397.97	60.85
398.16	0.00
398.35	56.17
398.55	18.72
398.74	0.00
398.93	23.41
399.12	0.00
399.32	42.13
399.51	0.00
399.70	77.24
399.90	4.68
400.09	2.34
400.28	51.49
400.47	0.00
400.67	58.51
400.86	21.06
401.05	25.75
401.24	72.56
401.44	37.45
401.63	35.11
401.82	72.56
402.01	72.56
402.21	51.49
402.40	53.83
402.59	51.49
402.78	0.00
402.97	35.11
403.17	28.09
403.36	0.00
403.55	16.38
403.74	32.77
403.93	44.47
404.13	46.81
404.32	37.45
404.51	39.79
404.70	70.22
404.89	14.04
405.09	37.45
405.28	126.39
405.47	42.13
405.66	0.00
405.85	46.81
406.05	53.83
406.24	32.77
406.43	35.11
406.62	28.09
406.81	0.00
407.00	0.00
407.20	14.04
407.39	0.00
407.58	0.00
407.77	9.36
407.96	58.51
408.15	21.06
408.34	2.34
408.54	0.00
408.73	53.83
408.92	0.00
409.11	35.11
409.30	58.51
409.49	0.00
409.68	49.15
409.87	0.00
410.07	37.45
410.26	30.43
410.45	0.00
410.64	7.02
410.83	46.81
411.02	65.54
411.21	0.00
411.40	7.02
411.59	63.19
411.78	16.38
411.98	21.06
412.17	60.85
412.36	107.66
412.55	49.15
412.74	84.26
412.93	84.26
413.12	2.34
413.31	28.09
413.50	30.43
413.69	105.32
413.88	11.70
414.07	56.17
414.26	0.00
414.45	18.72
414.64	11.70
414.83	53.83
415.02	18.72
415.22	95.96
415.41	42.13
415.60	53.83
415.79	110.01
415.98	42.13
416.17	0.00
416.36	44.47
416.55	65.54
416.74	0.00
416.93	51.49
417.12	49.15
417.31	0.00
417.50	49.15
417.69	4.68
417.88	0.00
418.07	46.81
418.26	25.75
418.45	0.00
418.64	23.41
418.83	28.09
419.02	84.26
419.21	18.72
419.39	9.36
419.58	28.09
419.77	18.72
419.96	79.58
420.15	60.85
420.34	25.75
420.53	0.00
420.72	65.54
420.91	42.13
421.10	51.49
421.29	49.15
421.48	39.79
421.67	56.17
421.86	35.11
422.05	81.92
422.24	42.13
422.43	30.43
422.61	35.11
422.80	0.00
422.99	2.34
423.18	74.90
423.37	23.41
423.56	65.54
423.75	21.06
423.94	53.83
424.13	93.62
424.32	0.00
424.50	9.36
424.69	11.70
424.88	0.00
425.07	0.00
425.26	16.38
425.45	0.00
425.64	65.54
425.83	18.72
426.01	60.85
426.20	7.02
426.39	0.00
426.58	58.51
426.77	81.92
426.96	16.38
427.15	0.00
427.33	21.06
427.52	0.00
427.71	0.00
427.90	72.56
428.09	37.45
428.28	39.79
428.46	98.30
428.65	63.19
428.84	93.62
429.03	81.92
429.22	72.56
429.40	44.47
429.59	44.47
429.78	58.51
429.97	4.68
430.16	21.06
430.34	56.17
430.53	37.45
430.72	14.04
430.91	84.26
431.10	67.88
431.28	0.00
431.47	60.85
431.66	35.11
431.85	18.72
432.03	2.34
432.22	9.36
432.41	72.56
432.60	0.00
432.79	110.01
432.97	72.56
433.16	14.04
433.35	51.49
433.54	25.75
433.72	0.00
433.91	4.68
434.10	37.45
434.28	28.09
434.47	0.00
434.66	25.75
434.85	23.41
435.03	35.11
435.22	74.90
435.41	58.51
435.59	37.45
435.78	44.47
435.97	25.75
436.16	0.00
436.34	11.70
436.53	0.00
436.72	65.54
436.90	0.00
437.09	37.45
437.28	28.09
437.46	18.72
437.65	30.43
437.84	95.96
438.02	9.36
438.21	2.34
438.40	44.47
438.58	0.00
438.77	44.47
438.96	46.81
439.14	0.00
439.33	44.47
439.52	86.60
439.70	42.13
439.89	25.75
440.08	88.94
440.26	0.00
440.45	74.90
440.63	142.77
440.82	16.38
441.01	56.17
441.19	67.88
441.38	35.11
441.57	60.85
441.75	42.13
441.94	35.11
442.12	72.56
442.31	0.00
442.50	35.11
442.68	0.00
442.87	93.62
443.05	102.98
443.24	0.00
443.43	142.77
443.61	110.01
443.80	81.92
443.98	112.35
444.17	49.15
444.35	0.00
444.54	0.00
444.73	128.73
444.91	86.60
445.10	88.94
445.28	70.22
445.47	30.43
445.65	9.36
445.84	77.24
446.02	0.00
446.21	32.77
446.39	14.04
446.58	58.51
446.77	18.72
446.95	105.32
447.14	51.49
447.32	65.54
447.51	37.45
447.69	63.19
447.88	53.83
448.06	46.81
448.25	25.75
448.43	105.32
448.62	67.88
448.80	58.51
448.99	67.88
449.17	93.62
449.36	154.48
449.54	91.28
449.73	98.30
449.91	44.47
450.10	23.41
450.28	44.47
450.46	56.17
450.65	14.04
450.83	30.43
451.02	79.58
451.20	11.70
451.39	86.60
451.57	49.15
451.76	110.01
451.94	88.94
452.13	65.54
452.31	67.88
452.49	0.00
452.68	35.11
452.86	105.32
453.05	63.19
453.23	93.62
453.42	88.94
453.60	149.79
453.78	86.60
453.97	39.79
454.15	53.83
454.34	46.81
454.52	0.00
454.70	60.85
454.89	56.17
455.07	81.92
455.26	21.06
455.44	14.04
455.62	30.43
455.81	0.00
455.99	0.00
456.17	42.13
456.36	37.45
456.54	63.19
456.73	30.43
456.91	81.92
457.09	46.81
457.28	0.00
457.46	93.62
457.64	0.00
457.83	63.19
458.01	30.43
458.19	60.85
458.38	0.00
458.56	7.02
458.74	65.54
458.93	67.88
459.11	70.22
459.29	58.51
459.48	46.81
459.66	86.60
459.84	21.06
460.03	74.90
460.21	84.26
460.39	37.45
460.57	18.72
460.76	60.85
460.94	112.35
461.12	0.00
461.31	74.90
461.49	53.83
461.67	70.22
461.85	35.11
462.04	28.09
462.22	39.79
462.40	60.85
462.59	37.45
462.77	70.22
462.95	0.00
463.13	86.60
463.32	95.96
463.50	35.11
463.68	44.47
463.86	105.32
464.05	0.00
464.23	102.98
464.41	65.54
464.59	18.72
464.78	32.77
464.96	110.01
465.14	74.90
465.32	28.09
465.50	35.11
465.69	74.90
465.87	21.06
466.05	4.68
466.23	84.26
466.41	142.77
466.60	37.45
466.78	21.06
466.96	2.34
467.14	84.26
467.32	44.47
467.51	37.45
467.69	39.79
467.87	0.00
468.05	37.45
468.23	98.30
468.41	35.11
468.60	35.11
468.78	58.51
468.96	67.88
469.14	98.30
469.32	28.09
469.50	0.00
469.69	63.19
469.87	30.43
470.05	86.60
470.23	60.85
470.41	28.09
470.59	35.11
470.77	23.41
470.95	91.28
471.14	72.56
471.32	67.88
471.50	56.17
471.68	86.60
471.86	14.04
472.04	53.83
472.22	81.92
472.40	4.68
472.58	70.22
472.77	44.47
472.95	124.05
473.13	39.79
473.31	14.04
473.49	37.45
473.67	35.11
473.85	84.26
474.03	98.30
474.21	124.05
474.39	51.49
474.57	65.54
474.75	58.51
474.93	21.06
475.12	39.79
475.30	84.26
475.48	23.41
475.66	74.90
475.84	77.24
476.02	70.22
476.20	51.49
476.38	39.79
476.56	46.81
476.74	58.51
476.92	102.98
477.10	37.45
477.28	63.19
477.46	53.83
477.64	0.00
477.82	98.30
478.00	46.81
478.18	93.62
478.36	67.88
478.54	0.00
478.72	53.83
478.90	14.04
479.08	0.00
479.26	30.43
479.44	74.90
479.62	58.51
479.80	21.06
479.98	28.09
480.16	56.17
480.34	37.45
480.52	88.94
480.70	98.30
480.88	23.41
481.06	39.79
481.24	35.11
481.41	37.45
481.59	18.72
481.77	77.24
481.95	28.09
482.13	86.60
482.31	81.92
482.49	79.58
482.67	121.71
482.85	18.72
483.03	65.54
483.21	35.11
483.39	32.77
483.57	74.90
483.74	63.19
483.92	67.88
484.10	86.60
484.28	4.68
484.46	77.24
484.64	72.56
484.82	56.17
485.00	0.00
485.18	32.77
485.35	86.60
485.53	67.88
485.71	86.60
485.89	37.45
486.07	0.00
486.25	58.51
486.43	18.72
486.61	37.45
486.78	46.81
486.96	86.60
487.14	63.19
487.32	0.00
487.50	86.60
487.68	65.54
487.85	72.56
488.03	79.58
488.21	74.90
488.39	0.00
488.57	51.49
488.75	67.88
488.92	46.81
489.10	0.00
489.28	25.75
489.46	42.13
489.64	7.02
489.81	23.41
489.99	60.85
490.17	0.00
490.35	63.19
490.53	42.13
490.70	44.47
490.88	77.24
491.06	28.09
491.24	35.11
491.41	0.00
491.59	23.41
491.77	11.70
491.95	14.04
492.13	18.72
492.30	74.90
492.48	35.11
492.66	25.75
492.84	67.88
493.01	9.36
493.19	102.98
493.37	81.92
493.54	93.62
493.72	65.54
493.90	53.83
494.08	63.19
494.25	65.54
494.43	28.09
494.61	9.36
494.79	95.96
494.96	86.60
495.14	32.77
495.32	16.38
495.49	67.88
495.67	72.56
495.85	86.60
496.02	18.72
496.20	65.54
496.38	39.79
496.55	18.72
496.73	88.94
496.91	56.17
497.09	30.43
497.26	37.45
497.44	51.49
497.62	63.19
497.79	112.35
497.97	23.41
498.14	81.92
498.32	74.90
498.50	35.11
498.67	0.00
498.85	81.92
499.03	70.22
499.20	37.45
499.38	65.54
499.56	72.56
499.73	77.24
499.91	63.19
500.08	49.15
500.26	18.72
500.44	51.49
500.61	16.38
500.79	35.11
500.97	49.15
501.14	51.49
501.32	49.15
501.49	23.41
501.67	16.38
501.84	0.00
502.02	42.13
502.20	88.94
502.37	21.06
502.55	102.98
502.72	0.00
502.90	51.49
503.07	58.51
503.25	21.06
503.43	14.04
503.60	145.11
503.78	53.83
503.95	51.49
504.13	49.15
504.30	51.49
504.48	56.17
504.65	49.15
504.83	74.90
505.01	100.64
505.18	35.11
505.36	0.00
505.53	79.58
505.71	32.77
505.88	0.00
506.06	23.41
506.23	53.83
506.41	105.32
506.58	49.15
506.76	98.30
506.93	28.09
507.11	72.56
507.28	72.56
507.46	7.02
507.63	79.58
507.81	60.85
507.98	102.98
508.16	44.47
508.33	39.79
508.50	60.85
508.68	112.35
508.85	16.38
509.03	72.56
509.20	42.13
509.38	49.15
509.55	0.00
509.73	63.19
509.90	88.94
510.08	124.05
510.25	63.19
510.42	11.70
510.60	11.70
510.77	84.26
510.95	42.13
511.12	0.00
511.30	81.92
511.47	53.83
511.64	0.00
511.82	28.09
511.99	70.22
512.17	35.11
512.34	46.81
512.51	49.15
512.69	95.96
512.86	84.26
513.04	25.75
513.21	49.15
513.38	35.11
513.56	30.43
513.73	105.32
513.90	81.92
514.08	58.51
514.25	91.28
514.43	93.62
514.60	72.56
514.77	9.36
514.95	63.19
515.12	102.98
515.29	131.07
515.47	56.17
515.64	7.02
515.81	42.13
515.99	100.64
516.16	135.75
516.33	49.15
516.51	21.06
516.68	88.94
516.85	32.77
517.03	28.09
517.20	95.96
517.37	30.43
517.54	112.35
517.72	0.00
517.89	58.51
518.06	49.15
518.24	46.81
518.41	81.92
518.58	39.79
518.75	86.60
518.93	91.28
519.10	28.09
519.27	18.72
519.45	49.15
519.62	0.00
519.79	46.81
519.96	107.66
520.14	67.88
520.31	91.28
520.48	46.81
520.65	44.47
520.83	58.51
521.00	35.11
521.17	37.45
521.34	102.98
521.52	81.92
521.69	95.96
521.86	14.04
522.03	2.34
522.20	74.90
522.38	53.83
522.55	117.03
522.72	25.75
522.89	140.43
523.07	53.83
523.24	51.49
523.41	18.72
523.58	77.24
523.75	128.73
523.92	102.98
524.10	4.68
524.27	46.81
524.44	95.96
524.61	81.92
524.78	0.00
524.96	74.90
525.13	81.92
525.30	63.19
525.47	23.41
525.64	7.02
525.81	49.15
525.98	32.77
526.16	100.64
526.33	70.22
526.50	49.15
526.67	28.09
526.84	53.83
527.01	21.06
527.18	107.66
527.36	112.35
527.53	51.49
527.70	100.64
527.87	25.75
528.04	98.30
528.21	42.13
528.38	60.85
528.55	98.30
528.72	60.85
528.89	114.69
529.07	91.28
529.24	0.00
529.41	91.28
529.58	18.72
529.75	39.79
529.92	79.58
530.09	56.17
530.26	93.62
530.43	84.26
530.60	42.13
530.77	23.41
530.94	102.98
531.11	46.81
531.28	28.09
531.46	135.75
531.63	88.94
531.80	74.90
531.97	63.19
532.14	14.04
532.31	39.79
532.48	2.34
532.65	107.66
532.82	91.28
532.99	112.35
533.16	16.38
533.33	74.90
533.50	77.24
533.67	53.83
533.84	88.94
534.01	44.47
534.18	58.51
534.35	49.15
534.52	35.11
534.69	51.49
534.86	65.54
535.03	4.68
535.20	81.92
535.37	93.62
535.54	79.58
535.71	23.41
535.88	70.22
536.05	95.96
536.22	91.28
536.38	37.45
536.55	133.41
536.72	126.39
536.89	102.98
537.06	56.17
537.23	51.49
537.40	37.45
537.57	65.54
537.74	105.32
537.91	18.72
538.08	65.54
538.25	4.68
538.42	21.06
538.59	51.49
538.75	60.85
538.92	11.70
539.09	102.98
539.26	74.90
539.43	4.68
539.60	126.39
539.77	124.05
539.94	100.64
540.11	79.58
540.28	93.62
540.44	142.77
540.61	77.24
540.78	42.13
540.95	65.54
541.12	39.79
541.29	28.09
541.46	60.85
541.62	70.22
541.79	119.37
541.96	39.79
542.13	112.35
542.30	39.79
542.47	30.43
542.63	86.60
542.80	9.36
542.97	63.19
543.14	7.02
543.31	0.00
543.48	84.26
543.64	18.72
543.81	91.28
543.98	72.56
544.15	91.28
544.32	84.26
544.48	60.85
544.65	63.19
544.82	93.62
544.99	91.28
545.16	65.54
545.32	63.19
545.49	53.83
545.66	60.85
545.83	114.69
546.00	102.98
546.16	77.24
546.33	88.94
546.50	84.26
546.67	46.81
546.83	39.79
547.00	44.47
547.17	32.77
547.34	51.49
547.50	67.88
547.67	37.45
547.84	37.45
548.00	93.62
548.17	79.58
548.34	91.28
548.51	60.85
548.67	95.96
548.84	77.24
549.01	70.22
549.18	105.32
549.34	117.03
549.51	44.47
549.68	81.92
549.84	30.43
550.01	39.79
550.18	44.47
550.34	23.41
550.51	32.77
550.68	81.92
550.84	70.22
551.01	140.43
551.18	110.01
551.34	70.22
551.51	79.58
551.68	53.83
551.84	56.17
552.01	77.24
552.18	74.90
552.34	51.49
552.51	28.09
552.68	21.06
552.84	84.26
553.01	110.01
553.18	51.49
553.34	88.94
553.51	88.94
553.67	44.47
553.84	117.03
554.01	149.79
554.17	93.62
554.34	60.85
554.51	88.94
554.67	67.88
554.84	46.81
555.00	18.72
555.17	21.06
555.33	72.56
555.50	56.17
555.67	60.85
555.83	98.30
556.00	49.15
556.16	86.60
556.33	119.37
556.50	9.36
556.66	81.92
556.83	25.75
556.99	74.90
557.16	18.72
557.32	105.32
557.49	58.51
557.65	79.58
557.82	32.77
557.98	25.75
558.15	86.60
558.32	91.28
558.48	142.77
558.65	84.26
558.81	11.70
558.98	21.06
559.14	0.00
559.31	9.36
559.47	74.90
559.64	32.77
559.80	145.11
559.97	32.77
560.13	60.85
560.30	86.60
560.46	102.98
560.63	86.60
560.79	102.98
560.96	35.11
561.12	100.64
561.29	46.81
561.45	110.01
561.61	60.85
561.78	91.28
561.94	107.66
562.11	168.52
562.27	46.81
562.44	16.38
562.60	58.51
562.77	74.90
562.93	46.81
563.10	42.13
563.26	65.54
563.42	65.54
563.59	58.51
563.75	30.43
563.92	0.00
564.08	100.64
564.24	102.98
564.41	81.92
564.57	44.47
564.74	28.09
564.90	131.07
565.07	53.83
565.23	105.32
565.39	117.03
565.56	70.22
565.72	51.49
565.88	84.26
566.05	117.03
566.21	49.15
566.38	138.09
566.54	88.94
566.70	30.43
566.87	63.19
567.03	0.00
567.19	77.24
567.36	93.62
567.52	63.19
567.68	77.24
567.85	51.49
568.01	58.51
568.17	11.70
568.34	53.83
568.50	105.32
568.66	65.54
568.83	56.17
568.99	84.26
569.15	53.83
569.32	37.45
569.48	49.15
569.64	84.26
569.81	51.49
569.97	98.30
570.13	39.79
570.30	72.56
570.46	44.47
570.62	107.66
570.78	74.90
570.95	72.56
571.11	0.00
571.27	91.28
571.43	100.64
571.60	37.45
571.76	23.41
571.92	53.83
572.09	70.22
572.25	65.54
572.41	81.92
572.57	0.00
572.74	32.77
572.90	0.00
573.06	39.79
573.22	112.35
573.38	95.96
573.55	67.88
573.71	42.13
573.87	86.60
574.03	110.01
574.20	51.49
574.36	58.51
574.52	72.56
574.68	39.79
574.84	93.62
575.01	58.51
575.17	114.69
575.33	63.19
575.49	100.64
575.65	21.06
575.82	0.00
575.98	93.62
576.14	65.54
576.30	65.54
576.46	53.83
576.62	112.35
576.79	28.09
576.95	117.03
577.11	58.51
577.27	67.88
577.43	7.02
577.59	88.94
577.75	30.43
577.92	95.96
578.08	4.68
578.24	0.00
578.40	79.58
578.56	44.47
578.72	63.19
578.88	79.58
579.04	149.79
579.21	49.15
579.37	28.09
579.53	0.00
579.69	63.19
579.85	67.88
580.01	56.17
580.17	77.24
580.33	56.17
580.49	175.54
580.65	100.64
580.82	95.96
580.98	84.26
581.14	79.58
581.30	117.03
581.46	72.56
581.62	110.01
581.78	53.83
581.94	81.92
582.10	93.62
582.26	63.19
582.42	35.11
582.58	56.17
582.74	84.26
582.90	42.13
583.06	44.47
583.22	21.06
583.38	18.72
583.54	56.17
583.70	42.13
583.86	98.30
584.02	84.26
584.18	39.79
584.34	140.43
584.50	11.70
584.66	63.19
584.82	46.81
584.98	0.00
585.14	42.13
585.30	88.94
585.46	35.11
585.62	37.45
585.78	79.58
585.94	42.13
586.10	65.54
586.26	100.64
586.42	60.85
586.58	110.01
586.74	9.36
586.90	84.26
587.06	65.54
587.22	67.88
587.38	95.96
587.54	49.15
587.70	0.00
587.86	79.58
588.02	86.60
588.18	23.41
588.34	39.79
588.49	35.11
588.65	56.17
588.81	63.19
588.97	23.41
589.13	107.66
589.29	74.90
589.45	44.47
589.61	135.75
589.77	0.00
589.93	39.79
590.08	0.00
590.24	67.88
590.40	88.94
590.56	25.75
590.72	21.06
590.88	65.54
591.04	74.90
591.20	131.07
591.35	28.09
591.51	44.47
591.67	110.01
591.83	44.47
591.99	86.60
592.15	4.68
592.31	105.32
592.46	14.04
592.62	21.06
592.78	79.58
592.94	25.75
593.10	21.06
593.26	21.06
593.41	42.13
593.57	128.73
593.73	70.22
593.89	25.75
594.05	0.00
594.20	70.22
594.36	42.13
594.52	126.39
594.68	32.77
594.84	44.47
594.99	4.68
595.15	28.09
595.31	110.01
595.47	67.88
595.62	37.45
595.78	110.01
595.94	4.68
596.10	79.58
596.25	110.01
596.41	28.09
596.57	16.38
596.73	46.81
596.88	23.41
597.04	117.03
597.20	65.54
597.36	95.96
597.51	60.85
597.67	65.54
597.83	0.00
597.99	28.09
598.14	77.24
598.30	30.43
598.46	58.51
598.61	4.68
598.77	86.60
598.93	21.06
599.09	28.09
599.24	51.49
599.40	63.19
599.56	0.00
599.71	16.38
599.87	70.22
600.03	0.00
600.18	32.77
600.34	93.62
600.50	100.64
600.65	35.11
600.81	98.30
600.97	93.62
601.12	112.35
601.28	21.06
601.44	23.41
601.59	74.90
601.75	51.49
601.91	42.13
602.06	70.22
602.22	91.28
602.37	58.51
602.53	0.00
602.69	67.88
602.84	100.64
603.00	0.00
603.16	46.81
603.31	100.64
603.47	39.79
603.62	46.81
603.78	60.85
603.94	56.17
604.09	58.51
604.25	79.58
604.40	23.41
604.56	53.83
604.71	21.06
604.87	74.90
605.03	49.15
605.18	28.09
605.34	63.19
605.49	133.41
605.65	18.72
605.80	37.45
605.96	58.51
606.12	74.90
606.27	0.00
606.43	121.71
606.58	23.41
606.74	70.22
606.89	39.79
607.05	100.64
607.20	2.34
607.36	67.88
607.51	0.00
607.67	0.00
607.82	65.54
607.98	98.30
608.13	0.00
608.29	65.54
608.44	32.77
608.60	67.88
608.75	70.22
608.91	145.11
609.06	102.98
609.22	51.49
609.37	77.24
609.53	77.24
609.68	117.03
609.84	74.90
609.99	0.00
610.15	56.17
610.30	98.30
610.46	18.72
610.61	0.00
610.76	16.38
610.92	110.01
611.07	91.28
611.23	53.83
611.38	107.66
611.54	110.01
611.69	25.75
611.84	14.04
612.00	67.88
612.15	98.30
612.31	0.00
612.46	21.06
612.62	0.00
612.77	84.26
612.92	42.13
613.08	102.98
613.23	4.68
613.39	63.19
613.54	77.24
613.69	0.00
613.85	107.66
614.00	72.56
614.15	142.77
614.31	28.09
614.46	72.56
614.62	4.68
614.77	39.79
614.92	93.62
615.08	37.45
615.23	51.49
615.38	44.47
615.54	39.79
615.69	63.19
615.84	42.13
616.00	25.75
616.15	0.00
616.30	0.00
616.46	35.11
616.61	37.45
616.76	44.47
616.92	107.66
617.07	60.85
617.22	7.02
617.37	77.24
617.53	65.54
617.68	56.17
617.83	53.83
617.99	70.22
618.14	14.04
618.29	79.58
618.45	37.45
618.60	35.11
618.75	0.00
618.90	44.47
619.06	117.03
619.21	14.04
619.36	60.85
619.51	28.09
619.67	39.79
619.82	21.06
619.97	84.26
620.12	37.45
620.28	16.38
620.43	18.72
620.58	0.00
620.73	56.17
620.89	72.56
621.04	14.04
621.19	84.26
621.34	0.00
621.49	21.06
621.65	53.83
621.80	35.11
621.95	32.77
622.10	9.36
622.25	79.58
622.41	2.34
622.56	74.90
622.71	39.79
622.86	65.54
623.01	46.81
623.16	74.90
623.32	67.88
623.47	44.47
623.62	32.77
623.77	46.81
623.92	102.98
624.07	7.02
624.23	0.00
624.38	25.75
624.53	21.06
624.68	51.49
624.83	70.22
624.98	0.00
625.13	56.17
625.29	0.00
625.44	44.47
625.59	74.90
625.74	23.41
625.89	77.24
626.04	44.47
626.19	7.02
626.34	30.43
626.49	4.68
626.65	0.00
626.80	39.79
626.95	35.11
627.10	126.39
627.25	25.75
627.40	84.26
627.55	51.49
627.70	49.15
627.85	0.00
628.00	67.88
628.15	145.11
628.30	51.49
628.45	58.51
628.60	37.45
628.76	49.15
628.91	4.68
629.06	0.00
629.21	84.26
629.36	18.72
629.51	16.38
629.66	42.13
629.81	102.98
629.96	49.15
630.11	135.75
630.26	30.43
630.41	30.43
630.56	28.09
630.71	7.02
630.86	42.13
631.01	74.90
631.16	32.77
631.31	23.41
631.46	79.58
631.61	28.09
631.76	0.00
631.91	30.43
632.06	60.85
632.21	56.17
632.36	14.04
632.51	53.83
632.66	63.19
632.81	4.68
632.96	23.41
633.10	9.36
633.25	0.00
633.40	0.00
633.55	18.72
633.70	0.00
633.85	93.62
634.00	30.43
634.15	28.09
634.30	79.58
634.45	58.51
634.60	39.79
634.75	88.94
634.90	42.13
635.05	28.09
635.19	0.00
635.34	65.54
635.49	51.49
635.64	67.88
635.79	37.45
635.94	2.34
636.09	65.54
636.24	0.00
636.39	53.83
636.53	42.13
636.68	4.68
636.83	58.51
636.98	58.51
637.13	4.68
637.28	0.00
637.43	7.02
637.57	0.00
637.72	42.13
637.87	114.69
638.02	51.49
638.17	25.75
638.32	0.00
638.46	42.13
638.61	46.81
638.76	0.00
638.91	58.51
639.06	0.00
639.20	53.83
639.35	86.60
639.50	21.06
639.65	56.17
639.80	9.36
639.94	88.94
640.09	77.24
640.24	86.60
640.39	23.41
640.54	0.00
640.68	35.11
640.83	23.41
640.98	102.98
641.13	56.17
641.27	72.56
641.42	39.79
641.57	46.81
641.72	39.79
641.86	65.54
642.01	18.72
642.16	72.56
642.31	30.43
642.45	98.30
642.60	25.75
642.75	0.00
642.90	7.02
643.04	4.68
643.19	56.17
643.34	56.17
643.48	2.34
643.63	84.26
643.78	32.77
643.93	74.90
644.07	72.56
644.22	67.88
644.37	88.94
644.51	81.92
644.66	93.62
644.81	63.19
644.95	28.09
645.10	4.68
645.25	11.70
645.39	58.51
645.54	11.70
645.69	56.17
645.83	53.83
645.98	0.00
646.13	21.06
646.27	0.00
646.42	95.96
646.57	60.85
646.71	30.43
646.86	0.00
647.00	32.77
647.15	100.64
647.30	49.15
647.44	44.47
647.59	16.38
647.74	2.34
647.88	23.41
648.03	32.77
648.17	65.54
648.32	32.77
648.47	51.49
648.61	25.75
648.76	0.00
648.90	51.49
649.05	91.28
649.20	0.00
649.34	51.49
649.49	93.62
649.63	74.90
649.78	9.36
649.92	117.03
650.07	126.39
650.21	56.17
650.36	86.60
650.51	9.36
650.65	39.79
650.80	140.43
650.94	37.45
651.09	42.13
651.23	9.36
651.38	2.34
651.52	65.54
651.67	191.92
651.81	53.83
651.96	25.75
652.10	56.17
652.25	156.82
652.39	18.72
652.54	0.00
652.68	53.83
652.83	35.11
652.97	63.19
653.12	39.79
653.26	98.30
653.41	65.54
653.55	93.62
653.70	88.94
653.84	30.43
653.99	23.41
654.13	0.00
654.27	0.00
654.42	42.13
654.56	30.43
654.71	0.00
654.85	16.38
655.00	107.66
655.14	51.49
655.29	32.77
655.43	32.77
655.57	23.41
655.72	44.47
655.86	58.51
656.01	70.22
656.15	131.07
656.30	65.54
656.44	42.13
656.58	9.36
656.73	0.00
656.87	0.00
657.01	70.22
657.16	74.90
657.30	0.00
657.45	0.00
657.59	23.41
657.73	60.85
657.88	21.06
658.02	42.13
658.16	32.77
658.31	114.69
658.45	35.11
658.60	56.17
658.74	0.00
658.88	32.77
659.03	46.81
659.17	105.32
659.31	9.36
659.46	11.70
659.60	14.04
659.74	46.81
659.89	2.34
660.03	32.77
660.17	100.64
660.32	49.15
660.46	18.72
660.60	21.06
660.74	44.47
660.89	46.81
661.03	39.79
661.17	18.72
661.32	58.51
661.46	0.00
661.60	0.00
661.74	63.19
661.89	0.00
662.03	32.77
662.17	56.17
662.31	14.04
662.46	0.00
662.60	86.60
662.74	70.22
662.88	53.83
663.03	77.24
663.17	46.81
663.31	16.38
663.45	9.36
663.60	2.34
663.74	9.36
663.88	72.56
664.02	67.88
664.17	9.36
664.31	58.51
664.45	21.06
664.59	56.17
664.73	39.79
664.88	79.58
665.02	145.11
665.16	46.81
665.30	100.64
665.44	0.00
665.59	0.00
665.73	0.00
665.87	37.45
666.01	72.56
666.15	119.37
666.29	16.38
666.44	37.45
666.58	49.15
666.72	56.17
666.86	16.38
667.00	16.38
667.14	44.47
667.28	37.45
667.43	37.45
667.57	25.75
667.71	88.94
667.85	18.72
667.99	30.43
668.13	0.00
668.27	84.26
668.41	28.09
668.56	9.36
668.70	44.47
668.84	93.62
668.98	0.00
669.12	0.00
669.26	0.00
669.40	88.94
669.54	18.72
669.68	0.00
669.82	0.00
669.96	25.75
670.10	63.19
670.25	14.04
670.39	79.58
670.53	11.70
670.67	0.00
670.81	0.00
670.95	0.00
671.09	49.15
671.23	16.38
671.37	56.17
671.51	18.72
671.65	18.72
671.79	67.88
671.93	49.15
672.07	79.58
672.21	95.96
672.35	7.02
672.49	53.83
672.63	23.41
672.77	0.00
672.91	49.15
673.05	46.81
673.19	11.70
673.33	107.66
673.47	86.60
673.61	16.38
673.75	16.38
673.89	67.88
674.03	65.54
674.17	18.72
674.31	21.06
674.45	21.06
674.59	86.60
674.73	0.00
674.87	30.43
675.01	102.98
675.15	0.00
675.29	56.17
675.43	65.54
675.56	0.00
675.70	67.88
675.84	46.81
675.98	7.02
676.12	25.75
676.26	67.88
676.40	16.38
676.54	79.58
676.68	0.00
676.82	0.00
676.96	56.17
677.10	35.11
677.23	32.77
677.37	9.36
677.51	79.58
677.65	79.58
677.79	0.00
677.93	25.75
678.07	21.06
678.21	60.85
678.34	16.38
678.48	16.38
678.62	0.00
678.76	0.00
678.90	65.54
679.04	32.77
679.18	81.92
679.31	7.02
679.45	46.81
679.59	0.00
679.73	56.17
679.87	67.88
680.00	42.13
680.14	9.36
680.28	42.13
680.42	49.15
680.56	42.13
680.70	0.00
680.83	58.51
680.97	16.38
681.11	65.54
681.25	119.37
681.39	11.70
681.52	42.13
681.66	0.00
681.80	16.38
681.94	4.68
682.07	4.68
682.21	0.00
682.35	0.00
682.49	49.15
682.62	42.13
682.76	77.24
682.90	0.00
683.04	16.38
683.17	65.54
683.31	39.79
683.45	0.00
683.59	98.30
683.72	67.88
683.86	35.11
684.00	0.00
684.13	63.19
684.27	23.41
684.41	53.83
684.55	107.66
684.68	0.00
684.82	0.00
684.96	39.79
685.09	16.38
685.23	0.00
685.37	9.36
685.50	39.79
685.64	100.64
685.78	37.45
685.91	21.06
686.05	63.19
686.19	16.38
686.32	37.45
686.46	7.02
686.60	35.11
686.73	53.83
686.87	23.41
687.01	0.00
687.14	0.00
687.28	126.39
687.42	0.00
687.55	14.04
687.69	37.45
687.82	0.00
687.96	70.22
688.10	25.75
688.23	0.00
688.37	72.56
688.50	32.77
688.64	0.00
688.78	0.00
688.91	0.00
689.05	4.68
689.18	11.70
689.32	21.06
689.46	0.00
689.59	74.90
689.73	30.43
689.86	21.06
690.00	77.24
690.13	39.79
690.27	7.02
690.41	0.00
690.54	145.11
690.68	70.22
690.81	0.00
690.95	49.15
691.08	21.06
691.22	0.00
691.35	14.04
691.49	39.79
691.62	4.68
691.76	98.30
691.89	14.04
692.03	60.85
692.16	11.70
692.30	4.68
692.43	49.15
692.57	30.43
692.70	84.26
692.84	46.81
692.97	98.30
693.11	25.75
693.24	63.19
693.38	30.43
693.51	70.22
693.65	39.79
693.78	105.32
693.92	30.43
694.05	0.00
694.19	28.09
694.32	0.00
694.45	0.00
694.59	2.34
694.72	14.04
694.86	70.22
694.99	23.41
695.13	0.00
695.26	110.01
695.39	72.56
695.53	72.56
695.66	0.00
695.80	0.00
695.93	0.00
696.07	28.09
696.20	51.49
696.33	28.09
696.47	58.51
696.60	4.68
696.73	53.83
696.87	39.79
697.00	138.09
697.14	32.77
697.27	0.00
697.40	0.00
697.54	32.77
697.67	0.00
697.80	30.43
697.94	2.34
698.07	74.90
698.21	18.72
698.34	25.75
698.47	42.13
698.61	9.36
698.74	37.45
698.87	65.54
699.01	51.49
699.14	63.19
699.27	14.04
699.40	0.00
699.54	28.09
699.67	21.06
699.80	95.96
699.94	42.13
700.07	39.79
700.20	44.47
700.34	16.38
700.47	49.15
700.60	0.00
700.73	0.00
700.87	56.17
701.00	0.00
701.13	21.06
701.26	0.00
701.40	18.72
701.53	81.92
701.66	16.38
701.79	39.79
701.93	0.00
702.06	21.06
702.19	39.79
702.32	46.81
702.46	37.45
702.59	7.02
702.72	0.00
702.85	88.94
702.99	65.54
703.12	2.34
703.25	30.43
703.38	25.75
703.51	21.06
703.65	7.02
703.78	0.00
703.91	0.00
704.04	32.77
704.17	77.24
704.31	23.41
704.44	0.00
704.57	0.00
704.70	60.85
704.83	56.17
704.96	0.00
705.10	14.04
705.23	44.47
>>>>>End Processed Spectral Data<<<<<
