SpectraSuite Data File
++++++++++++++++++++++++++++++++++++
Date: Fri Oct 04 12:13:26 GMT-05:00 2013
User: price-jones
Dark Spectrum Present: No
Reference Spectrum Present: No
Number of Sampled Component Spectra: 1
Spectrometers: USB2+H05261
Integration Time (usec): 10000 (USB2+H05261)
Spectra Averaged: 1 (USB2+H05261)
Boxcar Smoothing: 0 (USB2+H05261)
Correct for Electrical Dark: No (USB2+H05261)
Strobe/Lamp Enabled: No (USB2+H05261)
Correct for Detector Non-linearity: No (USB2+H05261)
Correct for Stray Light: No (USB2+H05261)
Number of Pixels in Processed Spectrum: 2048
>>>>>Begin Processed Spectral Data<<<<<
365.73	42.13
365.92	42.13
366.12	42.13
366.32	0.00
366.52	0.00
366.72	0.00
366.91	0.00
367.11	0.00
367.31	0.00
367.51	0.00
367.70	0.00
367.90	0.00
368.10	0.00
368.30	0.00
368.49	0.00
368.69	0.00
368.89	0.00
369.09	0.00
369.28	0.00
369.48	0.00
369.68	0.00
369.87	0.00
370.07	0.00
370.27	0.00
370.47	0.00
370.66	0.00
370.86	0.00
371.06	0.00
371.25	0.00
371.45	0.00
371.65	0.00
371.84	0.00
372.04	0.00
372.24	0.00
372.44	0.00
372.63	0.00
372.83	16.38
373.03	56.17
373.22	58.51
373.42	28.09
373.62	0.00
373.81	21.06
374.01	67.88
374.21	18.72
374.40	42.13
374.60	60.85
374.79	11.70
374.99	102.98
375.19	49.15
375.38	58.51
375.58	124.05
375.78	25.75
375.97	58.51
376.17	35.11
376.37	35.11
376.56	0.00
376.76	2.34
376.95	51.49
377.15	0.00
377.35	0.00
377.54	46.81
377.74	30.43
377.93	65.54
378.13	0.00
378.33	0.00
378.52	0.00
378.72	51.49
378.91	14.04
379.11	63.19
379.31	0.00
379.50	0.00
379.70	7.02
379.89	4.68
380.09	65.54
380.28	44.47
380.48	0.00
380.68	16.38
380.87	42.13
381.07	53.83
381.26	0.00
381.46	2.34
381.65	37.45
381.85	23.41
382.04	42.13
382.24	0.00
382.43	9.36
382.63	23.41
382.83	0.00
383.02	49.15
383.22	16.38
383.41	11.70
383.61	25.75
383.80	9.36
384.00	0.00
384.19	70.22
384.39	0.00
384.58	0.00
384.78	0.00
384.97	93.62
385.17	35.11
385.36	9.36
385.56	42.13
385.75	14.04
385.95	25.75
386.14	0.00
386.34	32.77
386.53	14.04
386.72	0.00
386.92	14.04
387.11	39.79
387.31	11.70
387.50	2.34
387.70	14.04
387.89	0.00
388.09	9.36
388.28	37.45
388.48	60.85
388.67	35.11
388.86	56.17
389.06	51.49
389.25	58.51
389.45	2.34
389.64	0.00
389.84	58.51
390.03	18.72
390.22	93.62
390.42	18.72
390.61	25.75
390.81	28.09
391.00	0.00
391.19	0.00
391.39	0.00
391.58	7.02
391.78	4.68
391.97	63.19
392.16	0.00
392.36	11.70
392.55	0.00
392.75	18.72
392.94	0.00
393.13	16.38
393.33	21.06
393.52	49.15
393.71	32.77
393.91	0.00
394.10	53.83
394.29	0.00
394.49	51.49
394.68	16.38
394.88	46.81
395.07	0.00
395.26	46.81
395.46	11.70
395.65	0.00
395.84	42.13
396.04	0.00
396.23	0.00
396.42	32.77
396.62	14.04
396.81	2.34
397.00	0.00
397.19	14.04
397.39	0.00
397.58	25.75
397.77	23.41
397.97	84.26
398.16	46.81
398.35	16.38
398.55	0.00
398.74	28.09
398.93	0.00
399.12	2.34
399.32	44.47
399.51	98.30
399.70	16.38
399.90	0.00
400.09	32.77
400.28	0.00
400.47	0.00
400.67	23.41
400.86	37.45
401.05	53.83
401.24	28.09
401.44	14.04
401.63	18.72
401.82	21.06
402.01	53.83
402.21	39.79
402.40	30.43
402.59	79.58
402.78	14.04
402.97	30.43
403.17	0.00
403.36	0.00
403.55	0.00
403.74	79.58
403.93	32.77
404.13	79.58
404.32	9.36
404.51	51.49
404.70	70.22
404.89	37.45
405.09	0.00
405.28	28.09
405.47	60.85
405.66	60.85
405.85	60.85
406.05	0.00
406.24	0.00
406.43	23.41
406.62	35.11
406.81	42.13
407.00	49.15
407.20	16.38
407.39	16.38
407.58	65.54
407.77	91.28
407.96	44.47
408.15	91.28
408.34	0.00
408.54	30.43
408.73	70.22
408.92	81.92
409.11	58.51
409.30	0.00
409.49	21.06
409.68	0.00
409.87	30.43
410.07	0.00
410.26	63.19
410.45	23.41
410.64	58.51
410.83	60.85
411.02	16.38
411.21	11.70
411.40	58.51
411.59	28.09
411.78	0.00
411.98	65.54
412.17	0.00
412.36	58.51
412.55	0.00
412.74	30.43
412.93	56.17
413.12	65.54
413.31	46.81
413.50	49.15
413.69	58.51
413.88	44.47
414.07	2.34
414.26	102.98
414.45	88.94
414.64	4.68
414.83	95.96
415.02	0.00
415.22	0.00
415.41	7.02
415.60	18.72
415.79	0.00
415.98	9.36
416.17	44.47
416.36	21.06
416.55	0.00
416.74	60.85
416.93	0.00
417.12	7.02
417.31	30.43
417.50	32.77
417.69	46.81
417.88	2.34
418.07	30.43
418.26	11.70
418.45	58.51
418.64	32.77
418.83	60.85
419.02	51.49
419.21	0.00
419.39	0.00
419.58	25.75
419.77	2.34
419.96	11.70
420.15	42.13
420.34	9.36
420.53	0.00
420.72	0.00
420.91	56.17
421.10	0.00
421.29	84.26
421.48	42.13
421.67	0.00
421.86	0.00
422.05	63.19
422.24	0.00
422.43	7.02
422.61	56.17
422.80	0.00
422.99	0.00
423.18	53.83
423.37	79.58
423.56	105.32
423.75	49.15
423.94	14.04
424.13	0.00
424.32	65.54
424.50	28.09
424.69	72.56
424.88	56.17
425.07	58.51
425.26	49.15
425.45	0.00
425.64	53.83
425.83	37.45
426.01	21.06
426.20	60.85
426.39	0.00
426.58	0.00
426.77	0.00
426.96	37.45
427.15	72.56
427.33	21.06
427.52	102.98
427.71	60.85
427.90	72.56
428.09	56.17
428.28	4.68
428.46	21.06
428.65	0.00
428.84	0.00
429.03	23.41
429.22	49.15
429.40	53.83
429.59	0.00
429.78	0.00
429.97	11.70
430.16	84.26
430.34	35.11
430.53	49.15
430.72	37.45
430.91	44.47
431.10	63.19
431.28	84.26
431.47	51.49
431.66	35.11
431.85	53.83
432.03	14.04
432.22	49.15
432.41	30.43
432.60	49.15
432.79	11.70
432.97	0.00
433.16	0.00
433.35	0.00
433.54	49.15
433.72	0.00
433.91	30.43
434.10	84.26
434.28	0.00
434.47	4.68
434.66	14.04
434.85	30.43
435.03	95.96
435.22	25.75
435.41	30.43
435.59	81.92
435.78	28.09
435.97	58.51
436.16	88.94
436.34	28.09
436.53	32.77
436.72	77.24
436.90	63.19
437.09	72.56
437.28	79.58
437.46	28.09
437.65	7.02
437.84	28.09
438.02	112.35
438.21	37.45
438.40	16.38
438.58	0.00
438.77	0.00
438.96	28.09
439.14	60.85
439.33	9.36
439.52	23.41
439.70	58.51
439.89	56.17
440.08	18.72
440.26	53.83
440.45	32.77
440.63	60.85
440.82	0.00
441.01	56.17
441.19	49.15
441.38	4.68
441.57	79.58
441.75	21.06
441.94	18.72
442.12	0.00
442.31	37.45
442.50	32.77
442.68	42.13
442.87	56.17
443.05	28.09
443.24	0.00
443.43	2.34
443.61	63.19
443.80	0.00
443.98	88.94
444.17	32.77
444.35	0.00
444.54	16.38
444.73	81.92
444.91	0.00
445.10	77.24
445.28	4.68
445.47	102.98
445.65	74.90
445.84	2.34
446.02	46.81
446.21	0.00
446.39	39.79
446.58	16.38
446.77	28.09
446.95	42.13
447.14	70.22
447.32	37.45
447.51	18.72
447.69	63.19
447.88	9.36
448.06	84.26
448.25	35.11
448.43	58.51
448.62	37.45
448.80	58.51
448.99	63.19
449.17	70.22
449.36	60.85
449.54	46.81
449.73	11.70
449.91	21.06
450.10	91.28
450.28	18.72
450.46	65.54
450.65	0.00
450.83	88.94
451.02	81.92
451.20	35.11
451.39	56.17
451.57	77.24
451.76	23.41
451.94	23.41
452.13	18.72
452.31	74.90
452.49	25.75
452.68	0.00
452.86	51.49
453.05	32.77
453.23	70.22
453.42	39.79
453.60	0.00
453.78	25.75
453.97	32.77
454.15	42.13
454.34	58.51
454.52	46.81
454.70	28.09
454.89	0.00
455.07	58.51
455.26	25.75
455.44	4.68
455.62	72.56
455.81	21.06
455.99	95.96
456.17	58.51
456.36	42.13
456.54	35.11
456.73	56.17
456.91	56.17
457.09	0.00
457.28	35.11
457.46	98.30
457.64	11.70
457.83	14.04
458.01	91.28
458.19	14.04
458.38	56.17
458.56	51.49
458.74	18.72
458.93	60.85
459.11	0.00
459.29	9.36
459.48	0.00
459.66	0.00
459.84	9.36
460.03	39.79
460.21	107.66
460.39	25.75
460.57	49.15
460.76	72.56
460.94	0.00
461.12	0.00
461.31	35.11
461.49	37.45
461.67	25.75
461.85	21.06
462.04	9.36
462.22	56.17
462.40	140.43
462.59	35.11
462.77	7.02
462.95	0.00
463.13	74.90
463.32	70.22
463.50	7.02
463.68	28.09
463.86	53.83
464.05	86.60
464.23	81.92
464.41	18.72
464.59	25.75
464.78	88.94
464.96	88.94
465.14	102.98
465.32	51.49
465.50	28.09
465.69	7.02
465.87	46.81
466.05	39.79
466.23	46.81
466.41	0.00
466.60	25.75
466.78	0.00
466.96	0.00
467.14	28.09
467.32	63.19
467.51	7.02
467.69	39.79
467.87	49.15
468.05	70.22
468.23	35.11
468.41	0.00
468.60	0.00
468.78	2.34
468.96	72.56
469.14	95.96
469.32	86.60
469.50	21.06
469.69	2.34
469.87	11.70
470.05	58.51
470.23	0.00
470.41	14.04
470.59	0.00
470.77	0.00
470.95	21.06
471.14	42.13
471.32	23.41
471.50	46.81
471.68	72.56
471.86	37.45
472.04	44.47
472.22	0.00
472.40	16.38
472.58	4.68
472.77	74.90
472.95	0.00
473.13	21.06
473.31	0.00
473.49	0.00
473.67	25.75
473.85	32.77
474.03	39.79
474.21	0.00
474.39	102.98
474.57	28.09
474.75	0.00
474.93	2.34
475.12	0.00
475.30	25.75
475.48	37.45
475.66	0.00
475.84	49.15
476.02	0.00
476.20	23.41
476.38	81.92
476.56	56.17
476.74	56.17
476.92	51.49
477.10	0.00
477.28	53.83
477.46	0.00
477.64	35.11
477.82	72.56
478.00	0.00
478.18	70.22
478.36	60.85
478.54	37.45
478.72	0.00
478.90	14.04
479.08	81.92
479.26	16.38
479.44	28.09
479.62	16.38
479.80	30.43
479.98	0.00
480.16	7.02
480.34	4.68
480.52	91.28
480.70	49.15
480.88	0.00
481.06	0.00
481.24	74.90
481.41	72.56
481.59	11.70
481.77	100.64
481.95	0.00
482.13	25.75
482.31	37.45
482.49	18.72
482.67	98.30
482.85	65.54
483.03	0.00
483.21	21.06
483.39	25.75
483.57	51.49
483.74	145.11
483.92	65.54
484.10	0.00
484.28	46.81
484.46	70.22
484.64	102.98
484.82	16.38
485.00	67.88
485.18	30.43
485.35	25.75
485.53	0.00
485.71	16.38
485.89	4.68
486.07	7.02
486.25	60.85
486.43	0.00
486.61	35.11
486.78	25.75
486.96	58.51
487.14	58.51
487.32	0.00
487.50	107.66
487.68	25.75
487.85	4.68
488.03	14.04
488.21	9.36
488.39	11.70
488.57	0.00
488.75	11.70
488.92	77.24
489.10	0.00
489.28	53.83
489.46	100.64
489.64	32.77
489.81	58.51
489.99	42.13
490.17	42.13
490.35	0.00
490.53	117.03
490.70	35.11
490.88	7.02
491.06	18.72
491.24	30.43
491.41	25.75
491.59	60.85
491.77	37.45
491.95	23.41
492.13	86.60
492.30	93.62
492.48	0.00
492.66	56.17
492.84	25.75
493.01	110.01
493.19	53.83
493.37	0.00
493.54	25.75
493.72	56.17
493.90	0.00
494.08	79.58
494.25	51.49
494.43	86.60
494.61	77.24
494.79	4.68
494.96	0.00
495.14	81.92
495.32	114.69
495.49	37.45
495.67	46.81
495.85	18.72
496.02	25.75
496.20	30.43
496.38	65.54
496.55	65.54
496.73	51.49
496.91	7.02
497.09	28.09
497.26	0.00
497.44	98.30
497.62	81.92
497.79	58.51
497.97	56.17
498.14	21.06
498.32	53.83
498.50	0.00
498.67	0.00
498.85	30.43
499.03	60.85
499.20	42.13
499.38	44.47
499.56	74.90
499.73	60.85
499.91	16.38
500.08	42.13
500.26	16.38
500.44	138.09
500.61	44.47
500.79	0.00
500.97	35.11
501.14	9.36
501.32	98.30
501.49	11.70
501.67	56.17
501.84	25.75
502.02	102.98
502.20	32.77
502.37	21.06
502.55	28.09
502.72	77.24
502.90	56.17
503.07	67.88
503.25	0.00
503.43	18.72
503.60	53.83
503.78	77.24
503.95	93.62
504.13	53.83
504.30	0.00
504.48	79.58
504.65	53.83
504.83	63.19
505.01	46.81
505.18	74.90
505.36	0.00
505.53	53.83
505.71	84.26
505.88	86.60
506.06	16.38
506.23	14.04
506.41	72.56
506.58	37.45
506.76	0.00
506.93	56.17
507.11	86.60
507.28	53.83
507.46	88.94
507.63	42.13
507.81	0.00
507.98	0.00
508.16	0.00
508.33	2.34
508.50	105.32
508.68	35.11
508.85	4.68
509.03	51.49
509.20	16.38
509.38	18.72
509.55	67.88
509.73	65.54
509.90	4.68
510.08	0.00
510.25	63.19
510.42	0.00
510.60	37.45
510.77	25.75
510.95	84.26
511.12	18.72
511.30	53.83
511.47	58.51
511.64	72.56
511.82	79.58
511.99	32.77
512.17	0.00
512.34	77.24
512.51	0.00
512.69	28.09
512.86	53.83
513.04	65.54
513.21	35.11
513.38	49.15
513.56	23.41
513.73	9.36
513.90	49.15
514.08	84.26
514.25	0.00
514.43	65.54
514.60	77.24
514.77	14.04
514.95	37.45
515.12	42.13
515.29	102.98
515.47	42.13
515.64	93.62
515.81	84.26
515.99	49.15
516.16	42.13
516.33	18.72
516.51	30.43
516.68	0.00
516.85	28.09
517.03	0.00
517.20	42.13
517.37	60.85
517.54	46.81
517.72	35.11
517.89	37.45
518.06	74.90
518.24	30.43
518.41	0.00
518.58	9.36
518.75	32.77
518.93	46.81
519.10	2.34
519.27	0.00
519.45	32.77
519.62	37.45
519.79	56.17
519.96	0.00
520.14	0.00
520.31	63.19
520.48	0.00
520.65	56.17
520.83	79.58
521.00	42.13
521.17	72.56
521.34	16.38
521.52	51.49
521.69	9.36
521.86	79.58
522.03	42.13
522.20	0.00
522.38	93.62
522.55	30.43
522.72	84.26
522.89	72.56
523.07	58.51
523.24	86.60
523.41	53.83
523.58	21.06
523.75	58.51
523.92	39.79
524.10	63.19
524.27	46.81
524.44	100.64
524.61	37.45
524.78	28.09
524.96	98.30
525.13	53.83
525.30	102.98
525.47	51.49
525.64	49.15
525.81	60.85
525.98	70.22
526.16	84.26
526.33	105.32
526.50	86.60
526.67	117.03
526.84	93.62
527.01	0.00
527.18	14.04
527.36	53.83
527.53	18.72
527.70	79.58
527.87	0.00
528.04	119.37
528.21	0.00
528.38	46.81
528.55	0.00
528.72	16.38
528.89	49.15
529.07	60.85
529.24	46.81
529.41	117.03
529.58	39.79
529.75	35.11
529.92	88.94
530.09	0.00
530.26	67.88
530.43	56.17
530.60	46.81
530.77	67.88
530.94	67.88
531.11	35.11
531.28	23.41
531.46	65.54
531.63	23.41
531.80	30.43
531.97	7.02
532.14	30.43
532.31	23.41
532.48	35.11
532.65	63.19
532.82	65.54
532.99	37.45
533.16	18.72
533.33	0.00
533.50	53.83
533.67	77.24
533.84	63.19
534.01	39.79
534.18	30.43
534.35	60.85
534.52	51.49
534.69	88.94
534.86	72.56
535.03	105.32
535.20	2.34
535.37	98.30
535.54	30.43
535.71	72.56
535.88	30.43
536.05	0.00
536.22	32.77
536.38	35.11
536.55	0.00
536.72	18.72
536.89	4.68
537.06	25.75
537.23	77.24
537.40	56.17
537.57	56.17
537.74	0.00
537.91	35.11
538.08	16.38
538.25	35.11
538.42	25.75
538.59	2.34
538.75	58.51
538.92	49.15
539.09	63.19
539.26	51.49
539.43	95.96
539.60	39.79
539.77	37.45
539.94	32.77
540.11	32.77
540.28	77.24
540.44	93.62
540.61	110.01
540.78	86.60
540.95	63.19
541.12	11.70
541.29	53.83
541.46	18.72
541.62	18.72
541.79	102.98
541.96	0.00
542.13	16.38
542.30	60.85
542.47	23.41
542.63	114.69
542.80	60.85
542.97	35.11
543.14	63.19
543.31	105.32
543.48	11.70
543.64	2.34
543.81	53.83
543.98	30.43
544.15	18.72
544.32	0.00
544.48	0.00
544.65	32.77
544.82	37.45
544.99	25.75
545.16	72.56
545.32	53.83
545.49	0.00
545.66	32.77
545.83	21.06
546.00	21.06
546.16	25.75
546.33	0.00
546.50	0.00
546.67	0.00
546.83	9.36
547.00	11.70
547.17	51.49
547.34	46.81
547.50	11.70
547.67	37.45
547.84	79.58
548.00	4.68
548.17	37.45
548.34	0.00
548.51	49.15
548.67	23.41
548.84	77.24
549.01	65.54
549.18	39.79
549.34	53.83
549.51	53.83
549.68	100.64
549.84	2.34
550.01	35.11
550.18	79.58
550.34	60.85
550.51	32.77
550.68	0.00
550.84	0.00
551.01	44.47
551.18	44.47
551.34	35.11
551.51	35.11
551.68	44.47
551.84	63.19
552.01	91.28
552.18	37.45
552.34	32.77
552.51	44.47
552.68	53.83
552.84	53.83
553.01	51.49
553.18	23.41
553.34	49.15
553.51	58.51
553.67	4.68
553.84	14.04
554.01	44.47
554.17	14.04
554.34	46.81
554.51	60.85
554.67	72.56
554.84	14.04
555.00	65.54
555.17	46.81
555.33	18.72
555.50	28.09
555.67	60.85
555.83	4.68
556.00	53.83
556.16	51.49
556.33	25.75
556.50	91.28
556.66	0.00
556.83	51.49
556.99	51.49
557.16	23.41
557.32	102.98
557.49	44.47
557.65	56.17
557.82	23.41
557.98	46.81
558.15	7.02
558.32	51.49
558.48	23.41
558.65	16.38
558.81	2.34
558.98	4.68
559.14	0.00
559.31	39.79
559.47	65.54
559.64	86.60
559.80	0.00
559.97	84.26
560.13	86.60
560.30	0.00
560.46	79.58
560.63	0.00
560.79	63.19
560.96	0.00
561.12	100.64
561.29	0.00
561.45	0.00
561.61	65.54
561.78	114.69
561.94	30.43
562.11	70.22
562.27	2.34
562.44	0.00
562.60	18.72
562.77	58.51
562.93	0.00
563.10	65.54
563.26	114.69
563.42	0.00
563.59	4.68
563.75	0.00
563.92	0.00
564.08	9.36
564.24	98.30
564.41	32.77
564.57	70.22
564.74	88.94
564.90	9.36
565.07	102.98
565.23	7.02
565.39	46.81
565.56	93.62
565.72	0.00
565.88	53.83
566.05	4.68
566.21	72.56
566.38	42.13
566.54	28.09
566.70	102.98
566.87	77.24
567.03	39.79
567.19	30.43
567.36	84.26
567.52	21.06
567.68	14.04
567.85	46.81
568.01	46.81
568.17	32.77
568.34	7.02
568.50	102.98
568.66	0.00
568.83	0.00
568.99	51.49
569.15	117.03
569.32	79.58
569.48	79.58
569.64	25.75
569.81	11.70
569.97	23.41
570.13	18.72
570.30	98.30
570.46	30.43
570.62	56.17
570.78	0.00
570.95	28.09
571.11	9.36
571.27	21.06
571.43	0.00
571.60	42.13
571.76	16.38
571.92	65.54
572.09	37.45
572.25	23.41
572.41	86.60
572.57	65.54
572.74	84.26
572.90	9.36
573.06	60.85
573.22	4.68
573.38	58.51
573.55	14.04
573.71	39.79
573.87	81.92
574.03	63.19
574.20	39.79
574.36	18.72
574.52	51.49
574.68	28.09
574.84	30.43
575.01	35.11
575.17	131.07
575.33	67.88
575.49	117.03
575.65	2.34
575.82	60.85
575.98	42.13
576.14	7.02
576.30	30.43
576.46	56.17
576.62	77.24
576.79	58.51
576.95	37.45
577.11	28.09
577.27	0.00
577.43	51.49
577.59	42.13
577.75	0.00
577.92	32.77
578.08	0.00
578.24	79.58
578.40	63.19
578.56	28.09
578.72	32.77
578.88	0.00
579.04	72.56
579.21	112.35
579.37	16.38
579.53	39.79
579.69	72.56
579.85	30.43
580.01	67.88
580.17	60.85
580.33	18.72
580.49	60.85
580.65	37.45
580.82	88.94
580.98	51.49
581.14	77.24
581.30	23.41
581.46	60.85
581.62	84.26
581.78	23.41
581.94	23.41
582.10	14.04
582.26	30.43
582.42	91.28
582.58	28.09
582.74	0.00
582.90	42.13
583.06	42.13
583.22	4.68
583.38	0.00
583.54	131.07
583.70	142.77
583.86	56.17
584.02	37.45
584.18	42.13
584.34	58.51
584.50	56.17
584.66	311.29
584.82	531.30
584.98	704.50
585.14	685.78
585.30	458.74
585.46	231.71
585.62	173.20
585.78	93.62
585.94	60.85
586.10	46.81
586.26	0.00
586.42	0.00
586.58	53.83
586.74	35.11
586.90	30.43
587.06	51.49
587.22	28.09
587.38	18.72
587.54	51.49
587.70	84.26
587.86	112.35
588.02	95.96
588.18	91.28
588.34	93.62
588.49	72.56
588.65	7.02
588.81	67.88
588.97	81.92
589.13	18.72
589.29	84.26
589.45	51.49
589.61	70.22
589.77	91.28
589.93	49.15
590.08	0.00
590.24	44.47
590.40	88.94
590.56	18.72
590.72	25.75
590.88	28.09
591.04	74.90
591.20	44.47
591.35	0.00
591.51	74.90
591.67	35.11
591.83	30.43
591.99	152.13
592.15	37.45
592.31	65.54
592.46	72.56
592.62	14.04
592.78	37.45
592.94	65.54
593.10	0.00
593.26	23.41
593.41	2.34
593.57	65.54
593.73	105.32
593.89	11.70
594.05	67.88
594.20	135.75
594.36	32.77
594.52	86.60
594.68	18.72
594.84	49.15
594.99	84.26
595.15	21.06
595.31	14.04
595.47	105.32
595.62	32.77
595.78	81.92
595.94	105.32
596.10	39.79
596.25	79.58
596.41	2.34
596.57	18.72
596.73	0.00
596.88	0.00
597.04	51.49
597.20	77.24
597.36	30.43
597.51	95.96
597.67	65.54
597.83	32.77
597.99	86.60
598.14	14.04
598.30	53.83
598.46	32.77
598.61	88.94
598.77	51.49
598.93	0.00
599.09	39.79
599.24	46.81
599.40	39.79
599.56	46.81
599.71	51.49
599.87	77.24
600.03	58.51
600.18	72.56
600.34	16.38
600.50	25.75
600.65	18.72
600.81	65.54
600.97	18.72
601.12	81.92
601.28	60.85
601.44	23.41
601.59	28.09
601.75	98.30
601.91	7.02
602.06	25.75
602.22	28.09
602.37	86.60
602.53	16.38
602.69	0.00
602.84	86.60
603.00	39.79
603.16	77.24
603.31	11.70
603.47	0.00
603.62	49.15
603.78	30.43
603.94	0.00
604.09	9.36
604.25	0.00
604.40	42.13
604.56	49.15
604.71	60.85
604.87	95.96
605.03	14.04
605.18	32.77
605.34	102.98
605.49	35.11
605.65	0.00
605.80	91.28
605.96	35.11
606.12	63.19
606.27	4.68
606.43	58.51
606.58	49.15
606.74	70.22
606.89	44.47
607.05	117.03
607.20	142.77
607.36	102.98
607.51	53.83
607.67	84.26
607.82	39.79
607.98	81.92
608.13	30.43
608.29	14.04
608.44	0.00
608.60	74.90
608.75	102.98
608.91	23.41
609.06	86.60
609.22	259.80
609.37	210.65
609.53	177.88
609.68	154.48
609.84	88.94
609.99	72.56
610.15	51.49
610.30	46.81
610.46	65.54
610.61	60.85
610.76	95.96
610.92	91.28
611.07	91.28
611.23	72.56
611.38	110.01
611.54	11.70
611.69	30.43
611.84	98.30
612.00	77.24
612.15	18.72
612.31	0.00
612.46	0.00
612.62	30.43
612.77	58.51
612.92	112.35
613.08	42.13
613.23	23.41
613.39	18.72
613.54	126.39
613.69	49.15
613.85	147.45
614.00	262.14
614.15	222.35
614.31	86.60
614.46	107.66
614.62	72.56
614.77	79.58
614.92	77.24
615.08	42.13
615.23	37.45
615.38	39.79
615.54	44.47
615.69	74.90
615.84	102.98
616.00	56.17
616.15	91.28
616.30	100.64
616.46	67.88
616.61	0.00
616.76	21.06
616.92	72.56
617.07	32.77
617.22	21.06
617.37	0.00
617.53	37.45
617.68	25.75
617.83	63.19
617.99	0.00
618.14	110.01
618.29	46.81
618.45	63.19
618.60	0.00
618.75	32.77
618.90	95.96
619.06	63.19
619.21	7.02
619.36	112.35
619.51	67.88
619.67	65.54
619.82	0.00
619.97	74.90
620.12	67.88
620.28	56.17
620.43	0.00
620.58	81.92
620.73	105.32
620.89	0.00
621.04	23.41
621.19	65.54
621.34	84.26
621.49	133.41
621.65	0.00
621.80	119.37
621.95	35.11
622.10	32.77
622.25	74.90
622.41	74.90
622.56	28.09
622.71	21.06
622.86	0.00
623.01	49.15
623.16	88.94
623.32	0.00
623.47	86.60
623.62	42.13
623.77	21.06
623.92	49.15
624.07	28.09
624.23	42.13
624.38	56.17
624.53	0.00
624.68	30.43
624.83	72.56
624.98	2.34
625.13	0.00
625.29	49.15
625.44	30.43
625.59	28.09
625.74	30.43
625.89	35.11
626.04	67.88
626.19	175.54
626.34	131.07
626.49	152.13
626.65	84.26
626.80	112.35
626.95	0.00
627.10	88.94
627.25	95.96
627.40	4.68
627.55	112.35
627.70	16.38
627.85	32.77
628.00	0.00
628.15	70.22
628.30	25.75
628.45	63.19
628.60	105.32
628.76	0.00
628.91	79.58
629.06	53.83
629.21	16.38
629.36	70.22
629.51	9.36
629.66	37.45
629.81	18.72
629.96	51.49
630.11	126.39
630.26	32.77
630.41	23.41
630.56	49.15
630.71	46.81
630.86	81.92
631.01	0.00
631.16	30.43
631.31	11.70
631.46	65.54
631.61	28.09
631.76	74.90
631.91	0.00
632.06	56.17
632.21	18.72
632.36	0.00
632.51	9.36
632.66	30.43
632.81	25.75
632.96	21.06
633.10	107.66
633.25	100.64
633.40	58.51
633.55	0.00
633.70	117.03
633.85	11.70
634.00	9.36
634.15	44.47
634.30	25.75
634.45	58.51
634.60	0.00
634.75	30.43
634.90	37.45
635.05	0.00
635.19	9.36
635.34	28.09
635.49	0.00
635.64	51.49
635.79	39.79
635.94	65.54
636.09	16.38
636.24	100.64
636.39	32.77
636.53	53.83
636.68	63.19
636.83	39.79
636.98	32.77
637.13	56.17
637.28	14.04
637.43	23.41
637.57	72.56
637.72	60.85
637.87	145.11
638.02	91.28
638.17	196.60
638.32	126.39
638.46	145.11
638.61	39.79
638.76	53.83
638.91	63.19
639.06	93.62
639.20	60.85
639.35	23.41
639.50	0.00
639.65	65.54
639.80	156.82
639.94	273.84
640.09	236.39
640.24	131.07
640.39	194.26
640.54	107.66
640.68	32.77
640.83	98.30
640.98	30.43
641.13	14.04
641.27	0.00
641.42	81.92
641.57	21.06
641.72	35.11
641.86	42.13
642.01	44.47
642.16	0.00
642.31	18.72
642.45	30.43
642.60	46.81
642.75	53.83
642.90	67.88
643.04	16.38
643.19	63.19
643.34	18.72
643.48	18.72
643.63	37.45
643.78	114.69
643.93	58.51
644.07	0.00
644.22	42.13
644.37	4.68
644.51	30.43
644.66	0.00
644.81	42.13
644.95	51.49
645.10	51.49
645.25	14.04
645.39	21.06
645.54	100.64
645.69	65.54
645.83	0.00
645.98	56.17
646.13	32.77
646.27	107.66
646.42	0.00
646.57	70.22
646.71	0.00
646.86	11.70
647.00	60.85
647.15	16.38
647.30	0.00
647.44	0.00
647.59	72.56
647.74	44.47
647.88	0.00
648.03	102.98
648.17	42.13
648.32	53.83
648.47	35.11
648.61	0.00
648.76	35.11
648.90	0.00
649.05	9.36
649.20	4.68
649.34	0.00
649.49	124.05
649.63	9.36
649.78	9.36
649.92	0.00
650.07	35.11
650.21	84.26
650.36	154.48
650.51	170.86
650.65	138.09
650.80	105.32
650.94	135.75
651.09	93.62
651.23	0.00
651.38	0.00
651.52	39.79
651.67	63.19
651.81	25.75
651.96	56.17
652.10	30.43
652.25	32.77
652.39	0.00
652.54	37.45
652.68	51.49
652.83	44.47
652.97	117.03
653.12	95.96
653.26	46.81
653.41	0.00
653.55	95.96
653.70	46.81
653.84	32.77
653.99	81.92
654.13	23.41
654.27	53.83
654.42	0.00
654.56	37.45
654.71	30.43
654.85	70.22
655.00	11.70
655.14	84.26
655.29	37.45
655.43	21.06
655.57	58.51
655.72	18.72
655.86	21.06
656.01	88.94
656.15	30.43
656.30	0.00
656.44	39.79
656.58	0.00
656.73	0.00
656.87	60.85
657.01	30.43
657.16	0.00
657.30	77.24
657.45	21.06
657.59	0.00
657.73	51.49
657.88	0.00
658.02	0.00
658.16	25.75
658.31	37.45
658.45	0.00
658.60	30.43
658.74	2.34
658.88	28.09
659.03	0.00
659.17	21.06
659.31	42.13
659.46	18.72
659.60	100.64
659.74	105.32
659.89	42.13
660.03	42.13
660.17	53.83
660.32	9.36
660.46	65.54
660.60	79.58
660.74	11.70
660.89	2.34
661.03	14.04
661.17	86.60
661.32	53.83
661.46	7.02
661.60	107.66
661.74	84.26
661.89	0.00
662.03	11.70
662.17	44.47
662.31	67.88
662.46	39.79
662.60	39.79
662.74	0.00
662.88	23.41
663.03	44.47
663.17	23.41
663.31	0.00
663.45	49.15
663.60	0.00
663.74	16.38
663.88	51.49
664.02	102.98
664.17	42.13
664.31	72.56
664.45	28.09
664.59	18.72
664.73	44.47
664.88	72.56
665.02	67.88
665.16	16.38
665.30	0.00
665.44	46.81
665.59	28.09
665.73	25.75
665.87	72.56
666.01	100.64
666.15	114.69
666.29	16.38
666.44	0.00
666.58	79.58
666.72	51.49
666.86	7.02
667.00	30.43
667.14	63.19
667.28	23.41
667.43	98.30
667.57	117.03
667.71	161.50
667.85	156.82
667.99	145.11
668.13	100.64
668.27	70.22
668.41	70.22
668.56	25.75
668.70	81.92
668.84	105.32
668.98	30.43
669.12	72.56
669.26	0.00
669.40	39.79
669.54	11.70
669.68	35.11
669.82	0.00
669.96	56.17
670.10	39.79
670.25	49.15
670.39	18.72
670.53	2.34
670.67	0.00
670.81	9.36
670.95	60.85
671.09	60.85
671.23	112.35
671.37	93.62
671.51	117.03
671.65	63.19
671.79	21.06
671.93	124.05
672.07	79.58
672.21	14.04
672.35	49.15
672.49	0.00
672.63	2.34
672.77	37.45
672.91	67.88
673.05	74.90
673.19	37.45
673.33	25.75
673.47	35.11
673.61	74.90
673.75	91.28
673.89	107.66
674.03	14.04
674.17	102.98
674.31	0.00
674.45	63.19
674.59	0.00
674.73	35.11
674.87	0.00
675.01	35.11
675.15	30.43
675.29	39.79
675.43	100.64
675.56	56.17
675.70	32.77
675.84	39.79
675.98	23.41
676.12	0.00
676.26	95.96
676.40	14.04
676.54	56.17
676.68	53.83
676.82	25.75
676.96	37.45
677.10	81.92
677.23	0.00
677.37	0.00
677.51	77.24
677.65	91.28
677.79	28.09
677.93	0.00
678.07	37.45
678.21	77.24
678.34	14.04
678.48	74.90
678.62	32.77
678.76	28.09
678.90	98.30
679.04	30.43
679.18	107.66
679.31	28.09
679.45	72.56
679.59	0.00
679.73	4.68
679.87	44.47
680.00	77.24
680.14	100.64
680.28	53.83
680.42	32.77
680.56	9.36
680.70	84.26
680.83	0.00
680.97	91.28
681.11	53.83
681.25	16.38
681.39	58.51
681.52	39.79
681.66	14.04
681.80	11.70
681.94	0.00
682.07	21.06
682.21	53.83
682.35	70.22
682.49	60.85
682.62	56.17
682.76	74.90
682.90	65.54
683.04	42.13
683.17	2.34
683.31	65.54
683.45	9.36
683.59	0.00
683.72	0.00
683.86	79.58
684.00	21.06
684.13	42.13
684.27	67.88
684.41	53.83
684.55	39.79
684.68	37.45
684.82	16.38
684.96	28.09
685.09	0.00
685.23	0.00
685.37	58.51
685.50	16.38
685.64	7.02
685.78	23.41
685.91	46.81
686.05	58.51
686.19	67.88
686.32	7.02
686.46	25.75
686.60	74.90
686.73	46.81
686.87	18.72
687.01	32.77
687.14	0.00
687.28	18.72
687.42	0.00
687.55	0.00
687.69	70.22
687.82	81.92
687.96	0.00
688.10	51.49
688.23	0.00
688.37	67.88
688.50	70.22
688.64	0.00
688.78	25.75
688.91	39.79
689.05	65.54
689.18	124.05
689.32	79.58
689.46	86.60
689.59	49.15
689.73	11.70
689.86	14.04
690.00	102.98
690.13	65.54
690.27	60.85
690.41	86.60
690.54	49.15
690.68	0.00
690.81	46.81
690.95	2.34
691.08	0.00
691.22	42.13
691.35	0.00
691.49	7.02
691.62	37.45
691.76	49.15
691.89	30.43
692.03	58.51
692.16	11.70
692.30	0.00
692.43	0.00
692.57	44.47
692.70	56.17
692.84	117.03
692.97	60.85
693.11	74.90
693.24	112.35
693.38	81.92
693.51	28.09
693.65	30.43
693.78	128.73
693.92	30.43
694.05	112.35
694.19	0.00
694.32	0.00
694.45	32.77
694.59	16.38
694.72	18.72
694.86	44.47
694.99	32.77
695.13	7.02
695.26	60.85
695.39	74.90
695.53	0.00
695.66	0.00
695.80	60.85
695.93	25.75
696.07	79.58
696.20	39.79
696.33	0.00
696.47	37.45
696.60	0.00
696.73	0.00
696.87	28.09
697.00	51.49
697.14	60.85
697.27	0.00
697.40	86.60
697.54	21.06
697.67	0.00
697.80	16.38
697.94	11.70
698.07	98.30
698.21	23.41
698.34	0.00
698.47	23.41
698.61	0.00
698.74	9.36
698.87	0.00
699.01	21.06
699.14	0.00
699.27	0.00
699.40	35.11
699.54	37.45
699.67	0.00
699.80	0.00
699.94	18.72
700.07	44.47
700.20	39.79
700.34	44.47
700.47	4.68
700.60	65.54
700.73	23.41
700.87	18.72
701.00	0.00
701.13	42.13
701.26	7.02
701.40	84.26
701.53	42.13
701.66	0.00
701.79	28.09
701.93	42.13
702.06	51.49
702.19	4.68
702.32	0.00
702.46	65.54
702.59	0.00
702.72	30.43
702.85	53.83
702.99	77.24
703.12	88.94
703.25	107.66
703.38	119.37
703.51	25.75
703.65	126.39
703.78	39.79
703.91	39.79
704.04	14.04
704.17	0.00
704.31	42.13
704.44	9.36
704.57	105.32
704.70	67.88
704.83	2.34
704.96	102.98
705.10	0.00
705.23	28.09
>>>>>End Processed Spectral Data<<<<<
