SpectraSuite Data File
++++++++++++++++++++++++++++++++++++
Date: Fri Oct 04 12:13:36 GMT-05:00 2013
User: price-jones
Dark Spectrum Present: No
Reference Spectrum Present: No
Number of Sampled Component Spectra: 1
Spectrometers: USB2+H05261
Integration Time (usec): 10000 (USB2+H05261)
Spectra Averaged: 1 (USB2+H05261)
Boxcar Smoothing: 0 (USB2+H05261)
Correct for Electrical Dark: No (USB2+H05261)
Strobe/Lamp Enabled: No (USB2+H05261)
Correct for Detector Non-linearity: No (USB2+H05261)
Correct for Stray Light: No (USB2+H05261)
Number of Pixels in Processed Spectrum: 2048
>>>>>Begin Processed Spectral Data<<<<<
365.73	0.00
365.92	0.00
366.12	0.00
366.32	0.00
366.52	0.00
366.72	0.00
366.91	0.00
367.11	0.00
367.31	0.00
367.51	0.00
367.70	0.00
367.90	0.00
368.10	0.00
368.30	0.00
368.49	0.00
368.69	0.00
368.89	0.00
369.09	0.00
369.28	0.00
369.48	0.00
369.68	0.00
369.87	0.00
370.07	0.00
370.27	0.00
370.47	0.00
370.66	0.00
370.86	0.00
371.06	0.00
371.25	14.04
371.45	0.00
371.65	2.34
371.84	9.36
372.04	0.00
372.24	0.00
372.44	0.00
372.63	51.49
372.83	11.70
373.03	0.00
373.22	4.68
373.42	0.00
373.62	0.00
373.81	39.79
374.01	88.94
374.21	100.64
374.40	18.72
374.60	0.00
374.79	37.45
374.99	0.00
375.19	0.00
375.38	2.34
375.58	35.11
375.78	65.54
375.97	79.58
376.17	91.28
376.37	79.58
376.56	42.13
376.76	35.11
376.95	56.17
377.15	37.45
377.35	56.17
377.54	0.00
377.74	30.43
377.93	16.38
378.13	4.68
378.33	11.70
378.52	21.06
378.72	53.83
378.91	53.83
379.11	0.00
379.31	0.00
379.50	0.00
379.70	72.56
379.89	0.00
380.09	81.92
380.28	28.09
380.48	25.75
380.68	0.00
380.87	67.88
381.07	4.68
381.26	28.09
381.46	88.94
381.65	84.26
381.85	7.02
382.04	35.11
382.24	37.45
382.43	0.00
382.63	25.75
382.83	28.09
383.02	28.09
383.22	35.11
383.41	30.43
383.61	65.54
383.80	49.15
384.00	21.06
384.19	44.47
384.39	0.00
384.58	30.43
384.78	7.02
384.97	74.90
385.17	51.49
385.36	14.04
385.56	51.49
385.75	53.83
385.95	0.00
386.14	30.43
386.34	11.70
386.53	0.00
386.72	32.77
386.92	28.09
387.11	32.77
387.31	86.60
387.50	0.00
387.70	7.02
387.89	0.00
388.09	14.04
388.28	37.45
388.48	37.45
388.67	74.90
388.86	35.11
389.06	0.00
389.25	0.00
389.45	70.22
389.64	0.00
389.84	18.72
390.03	74.90
390.22	0.00
390.42	0.00
390.61	35.11
390.81	0.00
391.00	4.68
391.19	39.79
391.39	35.11
391.58	0.00
391.78	91.28
391.97	58.51
392.16	11.70
392.36	21.06
392.55	25.75
392.75	35.11
392.94	7.02
393.13	0.00
393.33	88.94
393.52	0.00
393.71	0.00
393.91	42.13
394.10	30.43
394.29	0.00
394.49	0.00
394.68	0.00
394.88	25.75
395.07	74.90
395.26	91.28
395.46	0.00
395.65	42.13
395.84	2.34
396.04	37.45
396.23	77.24
396.42	42.13
396.62	32.77
396.81	60.85
397.00	7.02
397.19	86.60
397.39	81.92
397.58	4.68
397.77	84.26
397.97	0.00
398.16	32.77
398.35	9.36
398.55	0.00
398.74	56.17
398.93	58.51
399.12	35.11
399.32	0.00
399.51	65.54
399.70	23.41
399.90	4.68
400.09	74.90
400.28	49.15
400.47	32.77
400.67	35.11
400.86	84.26
401.05	65.54
401.24	28.09
401.44	32.77
401.63	2.34
401.82	18.72
402.01	107.66
402.21	39.79
402.40	70.22
402.59	60.85
402.78	53.83
402.97	9.36
403.17	44.47
403.36	37.45
403.55	18.72
403.74	65.54
403.93	25.75
404.13	0.00
404.32	18.72
404.51	39.79
404.70	28.09
404.89	11.70
405.09	28.09
405.28	0.00
405.47	28.09
405.66	0.00
405.85	4.68
406.05	49.15
406.24	0.00
406.43	21.06
406.62	18.72
406.81	105.32
407.00	30.43
407.20	0.00
407.39	63.19
407.58	2.34
407.77	42.13
407.96	0.00
408.15	14.04
408.34	58.51
408.54	79.58
408.73	11.70
408.92	65.54
409.11	37.45
409.30	117.03
409.49	7.02
409.68	18.72
409.87	46.81
410.07	0.00
410.26	28.09
410.45	30.43
410.64	30.43
410.83	42.13
411.02	177.88
411.21	42.13
411.40	42.13
411.59	9.36
411.78	67.88
411.98	32.77
412.17	49.15
412.36	25.75
412.55	18.72
412.74	44.47
412.93	70.22
413.12	72.56
413.31	53.83
413.50	0.00
413.69	39.79
413.88	7.02
414.07	7.02
414.26	18.72
414.45	28.09
414.64	37.45
414.83	86.60
415.02	49.15
415.22	79.58
415.41	84.26
415.60	28.09
415.79	16.38
415.98	56.17
416.17	30.43
416.36	77.24
416.55	56.17
416.74	91.28
416.93	0.00
417.12	0.00
417.31	9.36
417.50	56.17
417.69	107.66
417.88	63.19
418.07	37.45
418.26	21.06
418.45	67.88
418.64	0.00
418.83	88.94
419.02	74.90
419.21	70.22
419.39	25.75
419.58	7.02
419.77	4.68
419.96	0.00
420.15	7.02
420.34	0.00
420.53	0.00
420.72	42.13
420.91	42.13
421.10	35.11
421.29	65.54
421.48	53.83
421.67	39.79
421.86	32.77
422.05	74.90
422.24	51.49
422.43	86.60
422.61	46.81
422.80	53.83
422.99	63.19
423.18	58.51
423.37	93.62
423.56	88.94
423.75	0.00
423.94	0.00
424.13	11.70
424.32	81.92
424.50	4.68
424.69	28.09
424.88	39.79
425.07	63.19
425.26	49.15
425.45	60.85
425.64	44.47
425.83	30.43
426.01	81.92
426.20	105.32
426.39	16.38
426.58	4.68
426.77	91.28
426.96	16.38
427.15	18.72
427.33	105.32
427.52	0.00
427.71	91.28
427.90	44.47
428.09	35.11
428.28	51.49
428.46	88.94
428.65	30.43
428.84	16.38
429.03	77.24
429.22	35.11
429.40	14.04
429.59	65.54
429.78	23.41
429.97	63.19
430.16	18.72
430.34	2.34
430.53	58.51
430.72	25.75
430.91	37.45
431.10	65.54
431.28	16.38
431.47	79.58
431.66	21.06
431.85	81.92
432.03	86.60
432.22	65.54
432.41	25.75
432.60	49.15
432.79	72.56
432.97	0.00
433.16	11.70
433.35	11.70
433.54	79.58
433.72	25.75
433.91	39.79
434.10	65.54
434.28	93.62
434.47	105.32
434.66	32.77
434.85	32.77
435.03	72.56
435.22	84.26
435.41	60.85
435.59	93.62
435.78	37.45
435.97	56.17
436.16	0.00
436.34	60.85
436.53	16.38
436.72	0.00
436.90	72.56
437.09	42.13
437.28	58.51
437.46	67.88
437.65	53.83
437.84	28.09
438.02	58.51
438.21	37.45
438.40	0.00
438.58	65.54
438.77	37.45
438.96	37.45
439.14	37.45
439.33	16.38
439.52	56.17
439.70	0.00
439.89	46.81
440.08	72.56
440.26	74.90
440.45	79.58
440.63	58.51
440.82	77.24
441.01	16.38
441.19	0.00
441.38	93.62
441.57	67.88
441.75	0.00
441.94	67.88
442.12	56.17
442.31	140.43
442.50	79.58
442.68	0.00
442.87	42.13
443.05	16.38
443.24	4.68
443.43	39.79
443.61	42.13
443.80	58.51
443.98	53.83
444.17	39.79
444.35	63.19
444.54	98.30
444.73	51.49
444.91	28.09
445.10	0.00
445.28	0.00
445.47	18.72
445.65	0.00
445.84	60.85
446.02	79.58
446.21	100.64
446.39	44.47
446.58	46.81
446.77	35.11
446.95	84.26
447.14	70.22
447.32	58.51
447.51	42.13
447.69	42.13
447.88	30.43
448.06	18.72
448.25	100.64
448.43	72.56
448.62	60.85
448.80	35.11
448.99	4.68
449.17	0.00
449.36	0.00
449.54	35.11
449.73	93.62
449.91	51.49
450.10	9.36
450.28	30.43
450.46	46.81
450.65	32.77
450.83	79.58
451.02	51.49
451.20	60.85
451.39	63.19
451.57	72.56
451.76	2.34
451.94	46.81
452.13	51.49
452.31	39.79
452.49	67.88
452.68	28.09
452.86	77.24
453.05	49.15
453.23	25.75
453.42	51.49
453.60	60.85
453.78	53.83
453.97	39.79
454.15	16.38
454.34	32.77
454.52	16.38
454.70	63.19
454.89	117.03
455.07	25.75
455.26	49.15
455.44	18.72
455.62	67.88
455.81	93.62
455.99	42.13
456.17	49.15
456.36	91.28
456.54	37.45
456.73	44.47
456.91	39.79
457.09	16.38
457.28	79.58
457.46	107.66
457.64	58.51
457.83	42.13
458.01	44.47
458.19	35.11
458.38	65.54
458.56	35.11
458.74	42.13
458.93	16.38
459.11	72.56
459.29	11.70
459.48	91.28
459.66	81.92
459.84	39.79
460.03	53.83
460.21	131.07
460.39	0.00
460.57	77.24
460.76	0.00
460.94	37.45
461.12	60.85
461.31	81.92
461.49	74.90
461.67	81.92
461.85	72.56
462.04	63.19
462.22	65.54
462.40	46.81
462.59	49.15
462.77	119.37
462.95	30.43
463.13	18.72
463.32	58.51
463.50	72.56
463.68	23.41
463.86	53.83
464.05	42.13
464.23	100.64
464.41	65.54
464.59	0.00
464.78	32.77
464.96	42.13
465.14	86.60
465.32	46.81
465.50	9.36
465.69	79.58
465.87	93.62
466.05	0.00
466.23	44.47
466.41	32.77
466.60	53.83
466.78	51.49
466.96	51.49
467.14	102.98
467.32	63.19
467.51	114.69
467.69	60.85
467.87	86.60
468.05	4.68
468.23	0.00
468.41	65.54
468.60	84.26
468.78	70.22
468.96	114.69
469.14	28.09
469.32	9.36
469.50	42.13
469.69	86.60
469.87	39.79
470.05	0.00
470.23	42.13
470.41	67.88
470.59	23.41
470.77	67.88
470.95	77.24
471.14	0.00
471.32	32.77
471.50	98.30
471.68	91.28
471.86	79.58
472.04	77.24
472.22	35.11
472.40	72.56
472.58	53.83
472.77	81.92
472.95	58.51
473.13	0.00
473.31	86.60
473.49	63.19
473.67	44.47
473.85	51.49
474.03	56.17
474.21	100.64
474.39	58.51
474.57	110.01
474.75	49.15
474.93	16.38
475.12	16.38
475.30	60.85
475.48	60.85
475.66	28.09
475.84	0.00
476.02	56.17
476.20	0.00
476.38	79.58
476.56	72.56
476.74	42.13
476.92	37.45
477.10	119.37
477.28	60.85
477.46	35.11
477.64	79.58
477.82	21.06
478.00	25.75
478.18	91.28
478.36	86.60
478.54	44.47
478.72	23.41
478.90	91.28
479.08	110.01
479.26	4.68
479.44	16.38
479.62	56.17
479.80	77.24
479.98	9.36
480.16	39.79
480.34	16.38
480.52	46.81
480.70	56.17
480.88	23.41
481.06	112.35
481.24	110.01
481.41	46.81
481.59	46.81
481.77	117.03
481.95	60.85
482.13	0.00
482.31	53.83
482.49	0.00
482.67	58.51
482.85	65.54
483.03	95.96
483.21	74.90
483.39	18.72
483.57	56.17
483.74	79.58
483.92	79.58
484.10	84.26
484.28	74.90
484.46	91.28
484.64	91.28
484.82	84.26
485.00	91.28
485.18	28.09
485.35	51.49
485.53	67.88
485.71	84.26
485.89	105.32
486.07	98.30
486.25	72.56
486.43	56.17
486.61	42.13
486.78	84.26
486.96	11.70
487.14	56.17
487.32	63.19
487.50	14.04
487.68	49.15
487.85	145.11
488.03	88.94
488.21	30.43
488.39	56.17
488.57	72.56
488.75	23.41
488.92	126.39
489.10	56.17
489.28	67.88
489.46	93.62
489.64	105.32
489.81	93.62
489.99	72.56
490.17	93.62
490.35	58.51
490.53	72.56
490.70	88.94
490.88	112.35
491.06	72.56
491.24	86.60
491.41	9.36
491.59	44.47
491.77	70.22
491.95	49.15
492.13	119.37
492.30	81.92
492.48	49.15
492.66	42.13
492.84	95.96
493.01	138.09
493.19	131.07
493.37	126.39
493.54	128.73
493.72	49.15
493.90	63.19
494.08	21.06
494.25	124.05
494.43	74.90
494.61	107.66
494.79	14.04
494.96	56.17
495.14	107.66
495.32	159.16
495.49	42.13
495.67	86.60
495.85	81.92
496.02	44.47
496.20	53.83
496.38	93.62
496.55	67.88
496.73	67.88
496.91	0.00
497.09	91.28
497.26	128.73
497.44	93.62
497.62	0.00
497.79	114.69
497.97	42.13
498.14	105.32
498.32	100.64
498.50	18.72
498.67	79.58
498.85	49.15
499.03	110.01
499.20	37.45
499.38	135.75
499.56	77.24
499.73	65.54
499.91	49.15
500.08	81.92
500.26	39.79
500.44	37.45
500.61	70.22
500.79	65.54
500.97	86.60
501.14	93.62
501.32	138.09
501.49	72.56
501.67	65.54
501.84	135.75
502.02	72.56
502.20	154.48
502.37	65.54
502.55	70.22
502.72	91.28
502.90	138.09
503.07	60.85
503.25	110.01
503.43	95.96
503.60	39.79
503.78	0.00
503.95	72.56
504.13	100.64
504.30	91.28
504.48	86.60
504.65	91.28
504.83	72.56
505.01	88.94
505.18	88.94
505.36	63.19
505.53	154.48
505.71	117.03
505.88	117.03
506.06	70.22
506.23	0.00
506.41	74.90
506.58	65.54
506.76	56.17
506.93	18.72
507.11	124.05
507.28	60.85
507.46	39.79
507.63	98.30
507.81	49.15
507.98	98.30
508.16	117.03
508.33	25.75
508.50	133.41
508.68	86.60
508.85	110.01
509.03	49.15
509.20	81.92
509.38	67.88
509.55	25.75
509.73	138.09
509.90	0.00
510.08	72.56
510.25	138.09
510.42	37.45
510.60	81.92
510.77	124.05
510.95	105.32
511.12	100.64
511.30	84.26
511.47	91.28
511.64	93.62
511.82	138.09
511.99	119.37
512.17	0.00
512.34	65.54
512.51	0.00
512.69	14.04
512.86	65.54
513.04	110.01
513.21	32.77
513.38	67.88
513.56	60.85
513.73	53.83
513.90	102.98
514.08	88.94
514.25	9.36
514.43	86.60
514.60	0.00
514.77	32.77
514.95	67.88
515.12	86.60
515.29	49.15
515.47	58.51
515.64	44.47
515.81	51.49
515.99	124.05
516.16	86.60
516.33	70.22
516.51	56.17
516.68	7.02
516.85	56.17
517.03	112.35
517.20	86.60
517.37	72.56
517.54	166.18
517.72	88.94
517.89	88.94
518.06	58.51
518.24	88.94
518.41	91.28
518.58	100.64
518.75	114.69
518.93	86.60
519.10	84.26
519.27	58.51
519.45	88.94
519.62	100.64
519.79	53.83
519.96	65.54
520.14	102.98
520.31	163.84
520.48	138.09
520.65	35.11
520.83	119.37
521.00	77.24
521.17	84.26
521.34	37.45
521.52	88.94
521.69	117.03
521.86	72.56
522.03	100.64
522.20	49.15
522.38	159.16
522.55	28.09
522.72	67.88
522.89	35.11
523.07	18.72
523.24	42.13
523.41	60.85
523.58	131.07
523.75	110.01
523.92	95.96
524.10	112.35
524.27	65.54
524.44	56.17
524.61	95.96
524.78	126.39
524.96	102.98
525.13	32.77
525.30	74.90
525.47	93.62
525.64	0.00
525.81	95.96
525.98	49.15
526.16	60.85
526.33	30.43
526.50	49.15
526.67	70.22
526.84	88.94
527.01	88.94
527.18	88.94
527.36	95.96
527.53	70.22
527.70	25.75
527.87	53.83
528.04	81.92
528.21	126.39
528.38	140.43
528.55	88.94
528.72	147.45
528.89	51.49
529.07	142.77
529.24	63.19
529.41	102.98
529.58	98.30
529.75	0.00
529.92	86.60
530.09	114.69
530.26	133.41
530.43	131.07
530.60	79.58
530.77	98.30
530.94	119.37
531.11	142.77
531.28	42.13
531.46	23.41
531.63	28.09
531.80	119.37
531.97	67.88
532.14	102.98
532.31	147.45
532.48	91.28
532.65	191.92
532.82	86.60
532.99	84.26
533.16	88.94
533.33	63.19
533.50	121.71
533.67	25.75
533.84	56.17
534.01	84.26
534.18	105.32
534.35	166.18
534.52	39.79
534.69	49.15
534.86	46.81
535.03	84.26
535.20	110.01
535.37	149.79
535.54	81.92
535.71	53.83
535.88	86.60
536.05	131.07
536.22	60.85
536.38	51.49
536.55	28.09
536.72	44.47
536.89	117.03
537.06	84.26
537.23	95.96
537.40	56.17
537.57	79.58
537.74	100.64
537.91	81.92
538.08	81.92
538.25	79.58
538.42	46.81
538.59	140.43
538.75	86.60
538.92	81.92
539.09	110.01
539.26	74.90
539.43	117.03
539.60	98.30
539.77	93.62
539.94	53.83
540.11	0.00
540.28	16.38
540.44	56.17
540.61	16.38
540.78	81.92
540.95	65.54
541.12	110.01
541.29	91.28
541.46	105.32
541.62	98.30
541.79	100.64
541.96	28.09
542.13	147.45
542.30	21.06
542.47	60.85
542.63	72.56
542.80	65.54
542.97	67.88
543.14	100.64
543.31	46.81
543.48	86.60
543.64	126.39
543.81	100.64
543.98	86.60
544.15	93.62
544.32	46.81
544.48	81.92
544.65	67.88
544.82	126.39
544.99	60.85
545.16	51.49
545.32	37.45
545.49	121.71
545.66	128.73
545.83	117.03
546.00	93.62
546.16	65.54
546.33	110.01
546.50	84.26
546.67	124.05
546.83	117.03
547.00	131.07
547.17	18.72
547.34	46.81
547.50	51.49
547.67	121.71
547.84	79.58
548.00	154.48
548.17	16.38
548.34	56.17
548.51	35.11
548.67	42.13
548.84	18.72
549.01	121.71
549.18	65.54
549.34	28.09
549.51	79.58
549.68	39.79
549.84	51.49
550.01	65.54
550.18	53.83
550.34	93.62
550.51	114.69
550.68	100.64
550.84	84.26
551.01	121.71
551.18	28.09
551.34	95.96
551.51	128.73
551.68	84.26
551.84	100.64
552.01	98.30
552.18	81.92
552.34	110.01
552.51	67.88
552.68	102.98
552.84	67.88
553.01	60.85
553.18	16.38
553.34	74.90
553.51	60.85
553.67	37.45
553.84	81.92
554.01	39.79
554.17	124.05
554.34	93.62
554.51	107.66
554.67	114.69
554.84	18.72
555.00	93.62
555.17	51.49
555.33	86.60
555.50	102.98
555.67	32.77
555.83	56.17
556.00	63.19
556.16	65.54
556.33	65.54
556.50	44.47
556.66	25.75
556.83	128.73
556.99	53.83
557.16	147.45
557.32	70.22
557.49	60.85
557.65	166.18
557.82	124.05
557.98	39.79
558.15	21.06
558.32	79.58
558.48	117.03
558.65	23.41
558.81	56.17
558.98	98.30
559.14	16.38
559.31	35.11
559.47	0.00
559.64	46.81
559.80	30.43
559.97	74.90
560.13	145.11
560.30	98.30
560.46	112.35
560.63	58.51
560.79	37.45
560.96	0.00
561.12	77.24
561.29	51.49
561.45	102.98
561.61	77.24
561.78	72.56
561.94	133.41
562.11	105.32
562.27	110.01
562.44	140.43
562.60	42.13
562.77	112.35
562.93	98.30
563.10	145.11
563.26	133.41
563.42	126.39
563.59	42.13
563.75	95.96
563.92	51.49
564.08	56.17
564.24	91.28
564.41	121.71
564.57	138.09
564.74	110.01
564.90	60.85
565.07	117.03
565.23	126.39
565.39	30.43
565.56	107.66
565.72	105.32
565.88	91.28
566.05	46.81
566.21	32.77
566.38	16.38
566.54	112.35
566.70	44.47
566.87	58.51
567.03	72.56
567.19	138.09
567.36	46.81
567.52	23.41
567.68	159.16
567.85	16.38
568.01	58.51
568.17	95.96
568.34	86.60
568.50	72.56
568.66	88.94
568.83	67.88
568.99	95.96
569.15	51.49
569.32	65.54
569.48	105.32
569.64	46.81
569.81	44.47
569.97	105.32
570.13	88.94
570.30	60.85
570.46	128.73
570.62	60.85
570.78	102.98
570.95	58.51
571.11	93.62
571.27	86.60
571.43	16.38
571.60	135.75
571.76	25.75
571.92	72.56
572.09	70.22
572.25	93.62
572.41	117.03
572.57	142.77
572.74	63.19
572.90	58.51
573.06	0.00
573.22	44.47
573.38	44.47
573.55	81.92
573.71	74.90
573.87	37.45
574.03	70.22
574.20	49.15
574.36	112.35
574.52	117.03
574.68	107.66
574.84	63.19
575.01	70.22
575.17	60.85
575.33	60.85
575.49	67.88
575.65	95.96
575.82	124.05
575.98	60.85
576.14	51.49
576.30	0.00
576.46	56.17
576.62	110.01
576.79	86.60
576.95	88.94
577.11	72.56
577.27	67.88
577.43	88.94
577.59	93.62
577.75	138.09
577.92	84.26
578.08	65.54
578.24	23.41
578.40	0.00
578.56	14.04
578.72	44.47
578.88	23.41
579.04	42.13
579.21	105.32
579.37	49.15
579.53	98.30
579.69	84.26
579.85	53.83
580.01	49.15
580.17	30.43
580.33	117.03
580.49	86.60
580.65	121.71
580.82	107.66
580.98	107.66
581.14	91.28
581.30	72.56
581.46	79.58
581.62	100.64
581.78	58.51
581.94	70.22
582.10	100.64
582.26	126.39
582.42	117.03
582.58	86.60
582.74	46.81
582.90	42.13
583.06	60.85
583.22	11.70
583.38	21.06
583.54	77.24
583.70	63.19
583.86	16.38
584.02	79.58
584.18	63.19
584.34	86.60
584.50	53.83
584.66	72.56
584.82	0.00
584.98	84.26
585.14	0.00
585.30	28.09
585.46	100.64
585.62	102.98
585.78	2.34
585.94	30.43
586.10	35.11
586.26	46.81
586.42	107.66
586.58	23.41
586.74	63.19
586.90	72.56
587.06	25.75
587.22	117.03
587.38	42.13
587.54	126.39
587.70	81.92
587.86	53.83
588.02	81.92
588.18	114.69
588.34	0.00
588.49	86.60
588.65	138.09
588.81	56.17
588.97	51.49
589.13	51.49
589.29	60.85
589.45	70.22
589.61	37.45
589.77	37.45
589.93	70.22
590.08	124.05
590.24	37.45
590.40	46.81
590.56	46.81
590.72	37.45
590.88	18.72
591.04	53.83
591.20	91.28
591.35	72.56
591.51	23.41
591.67	32.77
591.83	49.15
591.99	46.81
592.15	107.66
592.31	67.88
592.46	51.49
592.62	72.56
592.78	131.07
592.94	95.96
593.10	21.06
593.26	86.60
593.41	67.88
593.57	49.15
593.73	72.56
593.89	77.24
594.05	81.92
594.20	0.00
594.36	91.28
594.52	53.83
594.68	46.81
594.84	86.60
594.99	51.49
595.15	126.39
595.31	91.28
595.47	166.18
595.62	77.24
595.78	107.66
595.94	107.66
596.10	81.92
596.25	9.36
596.41	70.22
596.57	79.58
596.73	56.17
596.88	32.77
597.04	9.36
597.20	119.37
597.36	11.70
597.51	35.11
597.67	72.56
597.83	81.92
597.99	56.17
598.14	51.49
598.30	11.70
598.46	44.47
598.61	102.98
598.77	42.13
598.93	114.69
599.09	58.51
599.24	100.64
599.40	42.13
599.56	58.51
599.71	67.88
599.87	91.28
600.03	35.11
600.18	56.17
600.34	124.05
600.50	74.90
600.65	44.47
600.81	46.81
600.97	9.36
601.12	135.75
601.28	60.85
601.44	67.88
601.59	105.32
601.75	84.26
601.91	84.26
602.06	21.06
602.22	53.83
602.37	21.06
602.53	152.13
602.69	93.62
602.84	93.62
603.00	114.69
603.16	98.30
603.31	44.47
603.47	88.94
603.62	49.15
603.78	74.90
603.94	65.54
604.09	16.38
604.25	79.58
604.40	30.43
604.56	91.28
604.71	110.01
604.87	88.94
605.03	35.11
605.18	0.00
605.34	0.00
605.49	105.32
605.65	88.94
605.80	63.19
605.96	79.58
606.12	121.71
606.27	65.54
606.43	112.35
606.58	100.64
606.74	67.88
606.89	25.75
607.05	86.60
607.20	102.98
607.36	0.00
607.51	56.17
607.67	81.92
607.82	42.13
607.98	63.19
608.13	98.30
608.29	16.38
608.44	37.45
608.60	0.00
608.75	86.60
608.91	91.28
609.06	88.94
609.22	72.56
609.37	46.81
609.53	46.81
609.68	91.28
609.84	170.86
609.99	98.30
610.15	30.43
610.30	58.51
610.46	88.94
610.61	49.15
610.76	88.94
610.92	93.62
611.07	98.30
611.23	140.43
611.38	173.20
611.54	65.54
611.69	84.26
611.84	133.41
612.00	60.85
612.15	107.66
612.31	44.47
612.46	37.45
612.62	63.19
612.77	98.30
612.92	84.26
613.08	91.28
613.23	95.96
613.39	11.70
613.54	88.94
613.69	74.90
613.85	53.83
614.00	51.49
614.15	23.41
614.31	0.00
614.46	49.15
614.62	0.00
614.77	30.43
614.92	84.26
615.08	0.00
615.23	18.72
615.38	72.56
615.54	42.13
615.69	63.19
615.84	16.38
616.00	46.81
616.15	74.90
616.30	112.35
616.46	32.77
616.61	110.01
616.76	25.75
616.92	112.35
617.07	53.83
617.22	49.15
617.37	49.15
617.53	16.38
617.68	0.00
617.83	77.24
617.99	105.32
618.14	124.05
618.29	124.05
618.45	98.30
618.60	9.36
618.75	51.49
618.90	67.88
619.06	65.54
619.21	42.13
619.36	23.41
619.51	112.35
619.67	0.00
619.82	128.73
619.97	79.58
620.12	63.19
620.28	23.41
620.43	124.05
620.58	77.24
620.73	39.79
620.89	51.49
621.04	86.60
621.19	95.96
621.34	18.72
621.49	37.45
621.65	30.43
621.80	65.54
621.95	35.11
622.10	46.81
622.25	60.85
622.41	112.35
622.56	72.56
622.71	100.64
622.86	49.15
623.01	91.28
623.16	16.38
623.32	74.90
623.47	11.70
623.62	70.22
623.77	100.64
623.92	53.83
624.07	67.88
624.23	39.79
624.38	102.98
624.53	49.15
624.68	72.56
624.83	107.66
624.98	81.92
625.13	49.15
625.29	21.06
625.44	42.13
625.59	84.26
625.74	51.49
625.89	65.54
626.04	42.13
626.19	72.56
626.34	18.72
626.49	81.92
626.65	114.69
626.80	56.17
626.95	65.54
627.10	77.24
627.25	37.45
627.40	0.00
627.55	30.43
627.70	11.70
627.85	23.41
628.00	37.45
628.15	0.00
628.30	37.45
628.45	58.51
628.60	0.00
628.76	56.17
628.91	65.54
629.06	44.47
629.21	67.88
629.36	60.85
629.51	70.22
629.66	86.60
629.81	74.90
629.96	117.03
630.11	112.35
630.26	84.26
630.41	53.83
630.56	0.00
630.71	23.41
630.86	93.62
631.01	81.92
631.16	51.49
631.31	102.98
631.46	0.00
631.61	0.00
631.76	58.51
631.91	51.49
632.06	4.68
632.21	74.90
632.36	32.77
632.51	79.58
632.66	72.56
632.81	95.96
632.96	77.24
633.10	79.58
633.25	72.56
633.40	0.00
633.55	100.64
633.70	51.49
633.85	60.85
634.00	32.77
634.15	74.90
634.30	70.22
634.45	9.36
634.60	18.72
634.75	58.51
634.90	42.13
635.05	100.64
635.19	93.62
635.34	11.70
635.49	39.79
635.64	63.19
635.79	81.92
635.94	18.72
636.09	124.05
636.24	39.79
636.39	65.54
636.53	7.02
636.68	0.00
636.83	117.03
636.98	0.00
637.13	42.13
637.28	117.03
637.43	93.62
637.57	16.38
637.72	42.13
637.87	9.36
638.02	30.43
638.17	117.03
638.32	7.02
638.46	70.22
638.61	25.75
638.76	58.51
638.91	95.96
639.06	65.54
639.20	53.83
639.35	138.09
639.50	105.32
639.65	44.47
639.80	4.68
639.94	112.35
640.09	0.00
640.24	39.79
640.39	49.15
640.54	32.77
640.68	23.41
640.83	107.66
640.98	152.13
641.13	51.49
641.27	88.94
641.42	28.09
641.57	121.71
641.72	35.11
641.86	65.54
642.01	107.66
642.16	42.13
642.31	9.36
642.45	70.22
642.60	81.92
642.75	37.45
642.90	9.36
643.04	39.79
643.19	65.54
643.34	58.51
643.48	124.05
643.63	107.66
643.78	0.00
643.93	74.90
644.07	49.15
644.22	98.30
644.37	46.81
644.51	84.26
644.66	117.03
644.81	93.62
644.95	0.00
645.10	51.49
645.25	56.17
645.39	88.94
645.54	67.88
645.69	35.11
645.83	81.92
645.98	32.77
646.13	0.00
646.27	7.02
646.42	4.68
646.57	91.28
646.71	21.06
646.86	56.17
647.00	74.90
647.15	21.06
647.30	37.45
647.44	70.22
647.59	14.04
647.74	21.06
647.88	53.83
648.03	56.17
648.17	30.43
648.32	30.43
648.47	28.09
648.61	56.17
648.76	46.81
648.90	131.07
649.05	4.68
649.20	67.88
649.34	58.51
649.49	67.88
649.63	28.09
649.78	21.06
649.92	79.58
650.07	23.41
650.21	81.92
650.36	107.66
650.51	44.47
650.65	56.17
650.80	18.72
650.94	18.72
651.09	91.28
651.23	37.45
651.38	0.00
651.52	0.00
651.67	79.58
651.81	77.24
651.96	42.13
652.10	72.56
652.25	49.15
652.39	67.88
652.54	30.43
652.68	98.30
652.83	14.04
652.97	42.13
653.12	63.19
653.26	21.06
653.41	11.70
653.55	147.45
653.70	70.22
653.84	72.56
653.99	0.00
654.13	65.54
654.27	93.62
654.42	58.51
654.56	72.56
654.71	30.43
654.85	30.43
655.00	88.94
655.14	0.00
655.29	77.24
655.43	131.07
655.57	49.15
655.72	39.79
655.86	84.26
656.01	77.24
656.15	42.13
656.30	86.60
656.44	84.26
656.58	60.85
656.73	51.49
656.87	67.88
657.01	23.41
657.16	32.77
657.30	32.77
657.45	58.51
657.59	86.60
657.73	16.38
657.88	35.11
658.02	53.83
658.16	11.70
658.31	72.56
658.45	42.13
658.60	28.09
658.74	23.41
658.88	70.22
659.03	70.22
659.17	67.88
659.31	18.72
659.46	39.79
659.60	110.01
659.74	63.19
659.89	0.00
660.03	37.45
660.17	67.88
660.32	53.83
660.46	74.90
660.60	72.56
660.74	156.82
660.89	28.09
661.03	14.04
661.17	0.00
661.32	72.56
661.46	46.81
661.60	25.75
661.74	114.69
661.89	65.54
662.03	0.00
662.17	84.26
662.31	42.13
662.46	63.19
662.60	42.13
662.74	81.92
662.88	86.60
663.03	100.64
663.17	65.54
663.31	63.19
663.45	51.49
663.60	72.56
663.74	46.81
663.88	63.19
664.02	63.19
664.17	49.15
664.31	149.79
664.45	18.72
664.59	23.41
664.73	16.38
664.88	37.45
665.02	67.88
665.16	4.68
665.30	70.22
665.44	0.00
665.59	65.54
665.73	119.37
665.87	67.88
666.01	65.54
666.15	32.77
666.29	42.13
666.44	32.77
666.58	70.22
666.72	0.00
666.86	65.54
667.00	0.00
667.14	74.90
667.28	93.62
667.43	49.15
667.57	30.43
667.71	74.90
667.85	23.41
667.99	72.56
668.13	88.94
668.27	60.85
668.41	100.64
668.56	79.58
668.70	56.17
668.84	88.94
668.98	51.49
669.12	11.70
669.26	0.00
669.40	72.56
669.54	39.79
669.68	56.17
669.82	46.81
669.96	16.38
670.10	23.41
670.25	49.15
670.39	42.13
670.53	0.00
670.67	72.56
670.81	112.35
670.95	0.00
671.09	79.58
671.23	0.00
671.37	102.98
671.51	56.17
671.65	0.00
671.79	46.81
671.93	7.02
672.07	25.75
672.21	86.60
672.35	0.00
672.49	0.00
672.63	67.88
672.77	91.28
672.91	112.35
673.05	60.85
673.19	0.00
673.33	88.94
673.47	14.04
673.61	37.45
673.75	79.58
673.89	37.45
674.03	23.41
674.17	14.04
674.31	65.54
674.45	100.64
674.59	56.17
674.73	25.75
674.87	21.06
675.01	21.06
675.15	98.30
675.29	67.88
675.43	56.17
675.56	121.71
675.70	49.15
675.84	25.75
675.98	91.28
676.12	0.00
676.26	60.85
676.40	0.00
676.54	88.94
676.68	42.13
676.82	56.17
676.96	21.06
677.10	100.64
677.23	100.64
677.37	11.70
677.51	60.85
677.65	28.09
677.79	51.49
677.93	124.05
678.07	46.81
678.21	42.13
678.34	70.22
678.48	65.54
678.62	18.72
678.76	81.92
678.90	37.45
679.04	0.00
679.18	0.00
679.31	0.00
679.45	18.72
679.59	42.13
679.73	35.11
679.87	25.75
680.00	32.77
680.14	74.90
680.28	49.15
680.42	42.13
680.56	110.01
680.70	114.69
680.83	21.06
680.97	37.45
681.11	58.51
681.25	46.81
681.39	35.11
681.52	72.56
681.66	28.09
681.80	51.49
681.94	18.72
682.07	0.00
682.21	0.00
682.35	23.41
682.49	72.56
682.62	51.49
682.76	32.77
682.90	112.35
683.04	14.04
683.17	72.56
683.31	86.60
683.45	14.04
683.59	67.88
683.72	77.24
683.86	35.11
684.00	21.06
684.13	23.41
684.27	23.41
684.41	16.38
684.55	16.38
684.68	100.64
684.82	53.83
684.96	95.96
685.09	0.00
685.23	0.00
685.37	16.38
685.50	9.36
685.64	0.00
685.78	51.49
685.91	35.11
686.05	18.72
686.19	65.54
686.32	91.28
686.46	67.88
686.60	74.90
686.73	39.79
686.87	42.13
687.01	56.17
687.14	30.43
687.28	49.15
687.42	21.06
687.55	86.60
687.69	32.77
687.82	114.69
687.96	0.00
688.10	117.03
688.23	74.90
688.37	60.85
688.50	0.00
688.64	14.04
688.78	46.81
688.91	46.81
689.05	53.83
689.18	0.00
689.32	42.13
689.46	0.00
689.59	14.04
689.73	42.13
689.86	74.90
690.00	79.58
690.13	30.43
690.27	53.83
690.41	0.00
690.54	60.85
690.68	65.54
690.81	67.88
690.95	39.79
691.08	37.45
691.22	88.94
691.35	37.45
691.49	51.49
691.62	23.41
691.76	74.90
691.89	56.17
692.03	42.13
692.16	51.49
692.30	30.43
692.43	98.30
692.57	2.34
692.70	53.83
692.84	0.00
692.97	35.11
693.11	0.00
693.24	0.00
693.38	14.04
693.51	70.22
693.65	86.60
693.78	84.26
693.92	39.79
694.05	0.00
694.19	2.34
694.32	0.00
694.45	30.43
694.59	49.15
694.72	0.00
694.86	93.62
694.99	56.17
695.13	30.43
695.26	0.00
695.39	0.00
695.53	11.70
695.66	0.00
695.80	14.04
695.93	0.00
696.07	2.34
696.20	124.05
696.33	9.36
696.47	0.00
696.60	35.11
696.73	16.38
696.87	63.19
697.00	0.00
697.14	60.85
697.27	107.66
697.40	67.88
697.54	46.81
697.67	25.75
697.80	67.88
697.94	25.75
698.07	117.03
698.21	7.02
698.34	53.83
698.47	53.83
698.61	77.24
698.74	11.70
698.87	53.83
699.01	0.00
699.14	49.15
699.27	0.00
699.40	2.34
699.54	44.47
699.67	63.19
699.80	25.75
699.94	0.00
700.07	39.79
700.20	0.00
700.34	70.22
700.47	37.45
700.60	93.62
700.73	65.54
700.87	49.15
701.00	93.62
701.13	0.00
701.26	0.00
701.40	30.43
701.53	0.00
701.66	30.43
701.79	0.00
701.93	0.00
702.06	49.15
702.19	70.22
702.32	100.64
702.46	44.47
702.59	117.03
702.72	102.98
702.85	65.54
702.99	18.72
703.12	23.41
703.25	53.83
703.38	77.24
703.51	0.00
703.65	0.00
703.78	70.22
703.91	18.72
704.04	0.00
704.17	79.58
704.31	42.13
704.44	95.96
704.57	58.51
704.70	46.81
704.83	91.28
704.96	0.00
705.10	102.98
705.23	21.06
>>>>>End Processed Spectral Data<<<<<
