SpectraSuite Data File
++++++++++++++++++++++++++++++++++++
Date: Fri Oct 04 12:13:27 GMT-05:00 2013
User: price-jones
Dark Spectrum Present: No
Reference Spectrum Present: No
Number of Sampled Component Spectra: 1
Spectrometers: USB2+H05261
Integration Time (usec): 10000 (USB2+H05261)
Spectra Averaged: 1 (USB2+H05261)
Boxcar Smoothing: 0 (USB2+H05261)
Correct for Electrical Dark: No (USB2+H05261)
Strobe/Lamp Enabled: No (USB2+H05261)
Correct for Detector Non-linearity: No (USB2+H05261)
Correct for Stray Light: No (USB2+H05261)
Number of Pixels in Processed Spectrum: 2048
>>>>>Begin Processed Spectral Data<<<<<
365.73	0.00
365.92	0.00
366.12	0.00
366.32	0.00
366.52	0.00
366.72	0.00
366.91	0.00
367.11	0.00
367.31	0.00
367.51	0.00
367.70	0.00
367.90	0.00
368.10	0.00
368.30	0.00
368.49	0.00
368.69	0.00
368.89	0.00
369.09	0.00
369.28	0.00
369.48	0.00
369.68	0.00
369.87	0.00
370.07	0.00
370.27	0.00
370.47	0.00
370.66	0.00
370.86	0.00
371.06	0.00
371.25	0.00
371.45	0.00
371.65	37.45
371.84	51.49
372.04	18.72
372.24	11.70
372.44	2.34
372.63	0.00
372.83	0.00
373.03	114.69
373.22	0.00
373.42	23.41
373.62	53.83
373.81	0.00
374.01	7.02
374.21	49.15
374.40	30.43
374.60	42.13
374.79	49.15
374.99	67.88
375.19	30.43
375.38	0.00
375.58	0.00
375.78	4.68
375.97	30.43
376.17	42.13
376.37	35.11
376.56	9.36
376.76	44.47
376.95	2.34
377.15	60.85
377.35	58.51
377.54	70.22
377.74	2.34
377.93	0.00
378.13	23.41
378.33	42.13
378.52	11.70
378.72	0.00
378.91	0.00
379.11	35.11
379.31	70.22
379.50	0.00
379.70	0.00
379.89	2.34
380.09	44.47
380.28	28.09
380.48	11.70
380.68	0.00
380.87	0.00
381.07	14.04
381.26	67.88
381.46	9.36
381.65	0.00
381.85	0.00
382.04	0.00
382.24	0.00
382.43	0.00
382.63	0.00
382.83	30.43
383.02	25.75
383.22	0.00
383.41	0.00
383.61	74.90
383.80	25.75
384.00	46.81
384.19	0.00
384.39	42.13
384.58	39.79
384.78	39.79
384.97	9.36
385.17	30.43
385.36	37.45
385.56	44.47
385.75	0.00
385.95	21.06
386.14	9.36
386.34	30.43
386.53	16.38
386.72	23.41
386.92	35.11
387.11	60.85
387.31	44.47
387.50	42.13
387.70	51.49
387.89	53.83
388.09	21.06
388.28	18.72
388.48	0.00
388.67	25.75
388.86	28.09
389.06	65.54
389.25	23.41
389.45	0.00
389.64	91.28
389.84	0.00
390.03	0.00
390.22	0.00
390.42	56.17
390.61	0.00
390.81	14.04
391.00	0.00
391.19	0.00
391.39	0.00
391.58	9.36
391.78	42.13
391.97	67.88
392.16	0.00
392.36	0.00
392.55	30.43
392.75	7.02
392.94	42.13
393.13	51.49
393.33	0.00
393.52	51.49
393.71	65.54
393.91	18.72
394.10	9.36
394.29	0.00
394.49	14.04
394.68	44.47
394.88	51.49
395.07	4.68
395.26	0.00
395.46	0.00
395.65	28.09
395.84	30.43
396.04	63.19
396.23	11.70
396.42	0.00
396.62	0.00
396.81	25.75
397.00	0.00
397.19	2.34
397.39	9.36
397.58	32.77
397.77	42.13
397.97	46.81
398.16	23.41
398.35	0.00
398.55	0.00
398.74	23.41
398.93	56.17
399.12	60.85
399.32	70.22
399.51	0.00
399.70	28.09
399.90	77.24
400.09	60.85
400.28	56.17
400.47	2.34
400.67	16.38
400.86	110.01
401.05	44.47
401.24	30.43
401.44	51.49
401.63	58.51
401.82	0.00
402.01	0.00
402.21	0.00
402.40	37.45
402.59	0.00
402.78	0.00
402.97	63.19
403.17	2.34
403.36	0.00
403.55	0.00
403.74	9.36
403.93	28.09
404.13	70.22
404.32	14.04
404.51	37.45
404.70	4.68
404.89	0.00
405.09	46.81
405.28	11.70
405.47	7.02
405.66	2.34
405.85	46.81
406.05	46.81
406.24	25.75
406.43	53.83
406.62	14.04
406.81	2.34
407.00	0.00
407.20	4.68
407.39	18.72
407.58	9.36
407.77	25.75
407.96	9.36
408.15	65.54
408.34	51.49
408.54	53.83
408.73	42.13
408.92	0.00
409.11	0.00
409.30	98.30
409.49	4.68
409.68	124.05
409.87	35.11
410.07	25.75
410.26	7.02
410.45	2.34
410.64	2.34
410.83	0.00
411.02	30.43
411.21	56.17
411.40	21.06
411.59	70.22
411.78	16.38
411.98	0.00
412.17	4.68
412.36	0.00
412.55	53.83
412.74	81.92
412.93	60.85
413.12	74.90
413.31	88.94
413.50	16.38
413.69	0.00
413.88	0.00
414.07	7.02
414.26	0.00
414.45	42.13
414.64	100.64
414.83	65.54
415.02	44.47
415.22	65.54
415.41	0.00
415.60	14.04
415.79	0.00
415.98	32.77
416.17	28.09
416.36	53.83
416.55	60.85
416.74	110.01
416.93	0.00
417.12	7.02
417.31	7.02
417.50	72.56
417.69	42.13
417.88	32.77
418.07	0.00
418.26	37.45
418.45	84.26
418.64	0.00
418.83	28.09
419.02	0.00
419.21	49.15
419.39	0.00
419.58	0.00
419.77	0.00
419.96	0.00
420.15	37.45
420.34	4.68
420.53	60.85
420.72	51.49
420.91	16.38
421.10	0.00
421.29	79.58
421.48	86.60
421.67	4.68
421.86	30.43
422.05	0.00
422.24	28.09
422.43	65.54
422.61	0.00
422.80	2.34
422.99	30.43
423.18	0.00
423.37	46.81
423.56	21.06
423.75	23.41
423.94	65.54
424.13	18.72
424.32	42.13
424.50	9.36
424.69	14.04
424.88	0.00
425.07	53.83
425.26	37.45
425.45	30.43
425.64	11.70
425.83	74.90
426.01	0.00
426.20	0.00
426.39	63.19
426.58	0.00
426.77	11.70
426.96	2.34
427.15	0.00
427.33	18.72
427.52	60.85
427.71	2.34
427.90	63.19
428.09	51.49
428.28	2.34
428.46	39.79
428.65	0.00
428.84	37.45
429.03	60.85
429.22	4.68
429.40	0.00
429.59	0.00
429.78	32.77
429.97	112.35
430.16	72.56
430.34	7.02
430.53	32.77
430.72	25.75
430.91	18.72
431.10	0.00
431.28	37.45
431.47	11.70
431.66	0.00
431.85	65.54
432.03	49.15
432.22	32.77
432.41	2.34
432.60	53.83
432.79	128.73
432.97	42.13
433.16	42.13
433.35	0.00
433.54	2.34
433.72	0.00
433.91	14.04
434.10	84.26
434.28	72.56
434.47	46.81
434.66	0.00
434.85	67.88
435.03	56.17
435.22	79.58
435.41	58.51
435.59	58.51
435.78	53.83
435.97	9.36
436.16	0.00
436.34	39.79
436.53	79.58
436.72	49.15
436.90	0.00
437.09	0.00
437.28	21.06
437.46	65.54
437.65	126.39
437.84	16.38
438.02	0.00
438.21	32.77
438.40	39.79
438.58	128.73
438.77	18.72
438.96	25.75
439.14	35.11
439.33	60.85
439.52	58.51
439.70	84.26
439.89	77.24
440.08	58.51
440.26	46.81
440.45	37.45
440.63	0.00
440.82	39.79
441.01	14.04
441.19	51.49
441.38	42.13
441.57	28.09
441.75	28.09
441.94	0.00
442.12	44.47
442.31	51.49
442.50	23.41
442.68	25.75
442.87	51.49
443.05	32.77
443.24	60.85
443.43	18.72
443.61	0.00
443.80	25.75
443.98	0.00
444.17	9.36
444.35	32.77
444.54	42.13
444.73	53.83
444.91	23.41
445.10	0.00
445.28	0.00
445.47	7.02
445.65	7.02
445.84	60.85
446.02	124.05
446.21	2.34
446.39	72.56
446.58	0.00
446.77	56.17
446.95	0.00
447.14	0.00
447.32	74.90
447.51	53.83
447.69	32.77
447.88	86.60
448.06	23.41
448.25	0.00
448.43	98.30
448.62	18.72
448.80	23.41
448.99	42.13
449.17	60.85
449.36	91.28
449.54	86.60
449.73	46.81
449.91	51.49
450.10	23.41
450.28	0.00
450.46	0.00
450.65	2.34
450.83	49.15
451.02	39.79
451.20	51.49
451.39	49.15
451.57	32.77
451.76	37.45
451.94	124.05
452.13	16.38
452.31	0.00
452.49	77.24
452.68	7.02
452.86	37.45
453.05	0.00
453.23	49.15
453.42	49.15
453.60	9.36
453.78	0.00
453.97	86.60
454.15	60.85
454.34	70.22
454.52	4.68
454.70	0.00
454.89	35.11
455.07	32.77
455.26	18.72
455.44	11.70
455.62	28.09
455.81	0.00
455.99	0.00
456.17	18.72
456.36	30.43
456.54	16.38
456.73	65.54
456.91	105.32
457.09	79.58
457.28	21.06
457.46	77.24
457.64	65.54
457.83	0.00
458.01	63.19
458.19	7.02
458.38	18.72
458.56	28.09
458.74	46.81
458.93	39.79
459.11	2.34
459.29	51.49
459.48	67.88
459.66	58.51
459.84	25.75
460.03	53.83
460.21	0.00
460.39	0.00
460.57	0.00
460.76	0.00
460.94	0.00
461.12	0.00
461.31	51.49
461.49	35.11
461.67	0.00
461.85	28.09
462.04	49.15
462.22	53.83
462.40	32.77
462.59	51.49
462.77	37.45
462.95	0.00
463.13	16.38
463.32	37.45
463.50	25.75
463.68	72.56
463.86	25.75
464.05	42.13
464.23	79.58
464.41	39.79
464.59	14.04
464.78	0.00
464.96	25.75
465.14	23.41
465.32	11.70
465.50	53.83
465.69	56.17
465.87	67.88
466.05	9.36
466.23	0.00
466.41	65.54
466.60	126.39
466.78	65.54
466.96	16.38
467.14	44.47
467.32	7.02
467.51	21.06
467.69	11.70
467.87	11.70
468.05	23.41
468.23	0.00
468.41	124.05
468.60	0.00
468.78	0.00
468.96	51.49
469.14	14.04
469.32	105.32
469.50	46.81
469.69	23.41
469.87	23.41
470.05	53.83
470.23	74.90
470.41	23.41
470.59	14.04
470.77	18.72
470.95	0.00
471.14	11.70
471.32	93.62
471.50	95.96
471.68	53.83
471.86	79.58
472.04	0.00
472.22	35.11
472.40	102.98
472.58	30.43
472.77	46.81
472.95	65.54
473.13	77.24
473.31	21.06
473.49	0.00
473.67	4.68
473.85	32.77
474.03	49.15
474.21	91.28
474.39	63.19
474.57	67.88
474.75	0.00
474.93	2.34
475.12	124.05
475.30	14.04
475.48	30.43
475.66	0.00
475.84	21.06
476.02	2.34
476.20	18.72
476.38	93.62
476.56	25.75
476.74	107.66
476.92	9.36
477.10	7.02
477.28	0.00
477.46	0.00
477.64	42.13
477.82	42.13
478.00	44.47
478.18	46.81
478.36	30.43
478.54	0.00
478.72	49.15
478.90	74.90
479.08	39.79
479.26	0.00
479.44	60.85
479.62	60.85
479.80	4.68
479.98	0.00
480.16	28.09
480.34	4.68
480.52	0.00
480.70	35.11
480.88	44.47
481.06	16.38
481.24	16.38
481.41	42.13
481.59	23.41
481.77	63.19
481.95	16.38
482.13	95.96
482.31	72.56
482.49	0.00
482.67	49.15
482.85	81.92
483.03	0.00
483.21	0.00
483.39	16.38
483.57	63.19
483.74	95.96
483.92	56.17
484.10	18.72
484.28	51.49
484.46	95.96
484.64	14.04
484.82	28.09
485.00	11.70
485.18	86.60
485.35	46.81
485.53	0.00
485.71	32.77
485.89	44.47
486.07	93.62
486.25	102.98
486.43	51.49
486.61	58.51
486.78	79.58
486.96	53.83
487.14	16.38
487.32	2.34
487.50	16.38
487.68	46.81
487.85	91.28
488.03	11.70
488.21	51.49
488.39	105.32
488.57	77.24
488.75	28.09
488.92	23.41
489.10	32.77
489.28	60.85
489.46	63.19
489.64	79.58
489.81	88.94
489.99	11.70
490.17	32.77
490.35	49.15
490.53	18.72
490.70	25.75
490.88	35.11
491.06	0.00
491.24	37.45
491.41	65.54
491.59	0.00
491.77	30.43
491.95	2.34
492.13	0.00
492.30	133.41
492.48	4.68
492.66	77.24
492.84	81.92
493.01	74.90
493.19	0.00
493.37	107.66
493.54	124.05
493.72	23.41
493.90	51.49
494.08	35.11
494.25	2.34
494.43	11.70
494.61	67.88
494.79	70.22
494.96	9.36
495.14	67.88
495.32	42.13
495.49	58.51
495.67	14.04
495.85	74.90
496.02	0.00
496.20	110.01
496.38	39.79
496.55	35.11
496.73	11.70
496.91	28.09
497.09	9.36
497.26	39.79
497.44	23.41
497.62	138.09
497.79	56.17
497.97	53.83
498.14	49.15
498.32	74.90
498.50	4.68
498.67	0.00
498.85	51.49
499.03	63.19
499.20	4.68
499.38	88.94
499.56	23.41
499.73	91.28
499.91	70.22
500.08	42.13
500.26	14.04
500.44	37.45
500.61	117.03
500.79	51.49
500.97	28.09
501.14	39.79
501.32	0.00
501.49	0.00
501.67	21.06
501.84	23.41
502.02	49.15
502.20	65.54
502.37	0.00
502.55	51.49
502.72	46.81
502.90	0.00
503.07	25.75
503.25	0.00
503.43	53.83
503.60	18.72
503.78	0.00
503.95	0.00
504.13	7.02
504.30	46.81
504.48	93.62
504.65	46.81
504.83	56.17
505.01	46.81
505.18	70.22
505.36	2.34
505.53	2.34
505.71	32.77
505.88	32.77
506.06	51.49
506.23	53.83
506.41	46.81
506.58	95.96
506.76	0.00
506.93	21.06
507.11	23.41
507.28	30.43
507.46	60.85
507.63	11.70
507.81	30.43
507.98	70.22
508.16	84.26
508.33	37.45
508.50	30.43
508.68	25.75
508.85	98.30
509.03	32.77
509.20	81.92
509.38	88.94
509.55	102.98
509.73	63.19
509.90	30.43
510.08	100.64
510.25	28.09
510.42	37.45
510.60	11.70
510.77	63.19
510.95	58.51
511.12	53.83
511.30	77.24
511.47	28.09
511.64	46.81
511.82	23.41
511.99	112.35
512.17	42.13
512.34	18.72
512.51	35.11
512.69	11.70
512.86	88.94
513.04	0.00
513.21	77.24
513.38	67.88
513.56	7.02
513.73	0.00
513.90	0.00
514.08	9.36
514.25	25.75
514.43	30.43
514.60	39.79
514.77	72.56
514.95	65.54
515.12	44.47
515.29	23.41
515.47	107.66
515.64	32.77
515.81	7.02
515.99	0.00
516.16	4.68
516.33	11.70
516.51	0.00
516.68	46.81
516.85	0.00
517.03	67.88
517.20	9.36
517.37	35.11
517.54	0.00
517.72	70.22
517.89	18.72
518.06	2.34
518.24	39.79
518.41	18.72
518.58	58.51
518.75	32.77
518.93	0.00
519.10	25.75
519.27	74.90
519.45	2.34
519.62	79.58
519.79	72.56
519.96	42.13
520.14	42.13
520.31	58.51
520.48	56.17
520.65	18.72
520.83	84.26
521.00	91.28
521.17	37.45
521.34	49.15
521.52	77.24
521.69	49.15
521.86	0.00
522.03	25.75
522.20	51.49
522.38	98.30
522.55	128.73
522.72	0.00
522.89	14.04
523.07	79.58
523.24	51.49
523.41	35.11
523.58	16.38
523.75	32.77
523.92	11.70
524.10	2.34
524.27	0.00
524.44	7.02
524.61	37.45
524.78	88.94
524.96	9.36
525.13	21.06
525.30	30.43
525.47	28.09
525.64	0.00
525.81	28.09
525.98	35.11
526.16	37.45
526.33	21.06
526.50	79.58
526.67	56.17
526.84	0.00
527.01	25.75
527.18	23.41
527.36	70.22
527.53	0.00
527.70	67.88
527.87	32.77
528.04	133.41
528.21	114.69
528.38	84.26
528.55	25.75
528.72	53.83
528.89	18.72
529.07	18.72
529.24	60.85
529.41	72.56
529.58	72.56
529.75	39.79
529.92	0.00
530.09	25.75
530.26	81.92
530.43	63.19
530.60	35.11
530.77	14.04
530.94	35.11
531.11	14.04
531.28	0.00
531.46	2.34
531.63	58.51
531.80	30.43
531.97	42.13
532.14	107.66
532.31	53.83
532.48	70.22
532.65	0.00
532.82	30.43
532.99	25.75
533.16	30.43
533.33	74.90
533.50	0.00
533.67	100.64
533.84	51.49
534.01	44.47
534.18	51.49
534.35	14.04
534.52	28.09
534.69	84.26
534.86	74.90
535.03	42.13
535.20	63.19
535.37	37.45
535.54	53.83
535.71	49.15
535.88	65.54
536.05	23.41
536.22	56.17
536.38	81.92
536.55	56.17
536.72	44.47
536.89	0.00
537.06	72.56
537.23	7.02
537.40	44.47
537.57	0.00
537.74	79.58
537.91	30.43
538.08	42.13
538.25	74.90
538.42	9.36
538.59	16.38
538.75	23.41
538.92	77.24
539.09	14.04
539.26	93.62
539.43	16.38
539.60	147.45
539.77	177.88
539.94	84.26
540.11	46.81
540.28	91.28
540.44	56.17
540.61	95.96
540.78	25.75
540.95	95.96
541.12	37.45
541.29	100.64
541.46	79.58
541.62	81.92
541.79	21.06
541.96	0.00
542.13	35.11
542.30	72.56
542.47	67.88
542.63	16.38
542.80	53.83
542.97	56.17
543.14	70.22
543.31	16.38
543.48	70.22
543.64	42.13
543.81	84.26
543.98	79.58
544.15	65.54
544.32	0.00
544.48	46.81
544.65	39.79
544.82	35.11
544.99	91.28
545.16	9.36
545.32	0.00
545.49	72.56
545.66	46.81
545.83	46.81
546.00	67.88
546.16	112.35
546.33	93.62
546.50	0.00
546.67	9.36
546.83	32.77
547.00	51.49
547.17	70.22
547.34	23.41
547.50	42.13
547.67	58.51
547.84	18.72
548.00	131.07
548.17	95.96
548.34	0.00
548.51	112.35
548.67	42.13
548.84	81.92
549.01	37.45
549.18	88.94
549.34	28.09
549.51	37.45
549.68	49.15
549.84	0.00
550.01	79.58
550.18	60.85
550.34	4.68
550.51	32.77
550.68	88.94
550.84	0.00
551.01	110.01
551.18	93.62
551.34	0.00
551.51	37.45
551.68	28.09
551.84	53.83
552.01	30.43
552.18	98.30
552.34	14.04
552.51	49.15
552.68	23.41
552.84	79.58
553.01	4.68
553.18	46.81
553.34	53.83
553.51	32.77
553.67	30.43
553.84	67.88
554.01	84.26
554.17	14.04
554.34	77.24
554.51	74.90
554.67	30.43
554.84	56.17
555.00	28.09
555.17	23.41
555.33	7.02
555.50	105.32
555.67	51.49
555.83	42.13
556.00	51.49
556.16	93.62
556.33	32.77
556.50	81.92
556.66	39.79
556.83	37.45
556.99	65.54
557.16	23.41
557.32	18.72
557.49	4.68
557.65	53.83
557.82	18.72
557.98	0.00
558.15	51.49
558.32	44.47
558.48	35.11
558.65	65.54
558.81	0.00
558.98	53.83
559.14	0.00
559.31	0.00
559.47	53.83
559.64	18.72
559.80	0.00
559.97	35.11
560.13	70.22
560.30	0.00
560.46	14.04
560.63	65.54
560.79	65.54
560.96	56.17
561.12	93.62
561.29	84.26
561.45	32.77
561.61	0.00
561.78	93.62
561.94	0.00
562.11	0.00
562.27	32.77
562.44	32.77
562.60	95.96
562.77	95.96
562.93	51.49
563.10	0.00
563.26	9.36
563.42	60.85
563.59	86.60
563.75	86.60
563.92	79.58
564.08	23.41
564.24	58.51
564.41	58.51
564.57	126.39
564.74	18.72
564.90	44.47
565.07	9.36
565.23	9.36
565.39	18.72
565.56	16.38
565.72	37.45
565.88	84.26
566.05	117.03
566.21	56.17
566.38	0.00
566.54	60.85
566.70	60.85
566.87	30.43
567.03	42.13
567.19	23.41
567.36	60.85
567.52	51.49
567.68	0.00
567.85	2.34
568.01	81.92
568.17	0.00
568.34	70.22
568.50	0.00
568.66	42.13
568.83	44.47
568.99	46.81
569.15	46.81
569.32	56.17
569.48	100.64
569.64	35.11
569.81	14.04
569.97	72.56
570.13	88.94
570.30	60.85
570.46	46.81
570.62	42.13
570.78	93.62
570.95	49.15
571.11	14.04
571.27	37.45
571.43	30.43
571.60	18.72
571.76	21.06
571.92	56.17
572.09	30.43
572.25	2.34
572.41	30.43
572.57	110.01
572.74	42.13
572.90	42.13
573.06	51.49
573.22	56.17
573.38	79.58
573.55	67.88
573.71	53.83
573.87	0.00
574.03	4.68
574.20	86.60
574.36	16.38
574.52	14.04
574.68	0.00
574.84	74.90
575.01	11.70
575.17	74.90
575.33	18.72
575.49	42.13
575.65	51.49
575.82	63.19
575.98	93.62
576.14	128.73
576.30	74.90
576.46	60.85
576.62	53.83
576.79	67.88
576.95	91.28
577.11	72.56
577.27	95.96
577.43	14.04
577.59	67.88
577.75	95.96
577.92	21.06
578.08	74.90
578.24	72.56
578.40	39.79
578.56	0.00
578.72	35.11
578.88	35.11
579.04	84.26
579.21	84.26
579.37	39.79
579.53	81.92
579.69	91.28
579.85	18.72
580.01	67.88
580.17	74.90
580.33	7.02
580.49	100.64
580.65	4.68
580.82	44.47
580.98	51.49
581.14	86.60
581.30	88.94
581.46	32.77
581.62	77.24
581.78	79.58
581.94	70.22
582.10	11.70
582.26	11.70
582.42	42.13
582.58	14.04
582.74	98.30
582.90	91.28
583.06	135.75
583.22	51.49
583.38	74.90
583.54	77.24
583.70	46.81
583.86	126.39
584.02	42.13
584.18	72.56
584.34	126.39
584.50	283.20
584.66	1952.01
584.82	4643.62
584.98	6946.71
585.14	6331.15
585.30	3969.55
585.46	2408.41
585.62	1437.09
585.78	725.57
585.94	346.40
586.10	156.82
586.26	98.30
586.42	107.66
586.58	128.73
586.74	102.98
586.90	18.72
587.06	84.26
587.22	0.00
587.38	49.15
587.54	117.03
587.70	330.02
587.86	500.87
588.02	620.24
588.18	351.08
588.34	248.10
588.49	210.65
588.65	107.66
588.81	124.05
588.97	65.54
589.13	65.54
589.29	37.45
589.45	46.81
589.61	14.04
589.77	51.49
589.93	0.00
590.08	37.45
590.24	65.54
590.40	110.01
590.56	0.00
590.72	53.83
590.88	105.32
591.04	65.54
591.20	81.92
591.35	18.72
591.51	88.94
591.67	93.62
591.83	86.60
591.99	105.32
592.15	46.81
592.31	72.56
592.46	16.38
592.62	2.34
592.78	67.88
592.94	0.00
593.10	25.75
593.26	91.28
593.41	93.62
593.57	102.98
593.73	98.30
593.89	264.48
594.05	608.54
594.20	952.60
594.36	882.38
594.52	575.77
594.68	346.40
594.84	250.44
594.99	131.07
595.15	138.09
595.31	60.85
595.47	42.13
595.62	93.62
595.78	28.09
595.94	98.30
596.10	166.18
596.25	11.70
596.41	42.13
596.57	44.47
596.73	16.38
596.88	30.43
597.04	138.09
597.20	210.65
597.36	231.71
597.51	177.88
597.67	182.56
597.83	84.26
597.99	49.15
598.14	79.58
598.30	49.15
598.46	74.90
598.61	142.77
598.77	98.30
598.93	0.00
599.09	0.00
599.24	42.13
599.40	56.17
599.56	84.26
599.71	98.30
599.87	35.11
600.03	35.11
600.18	65.54
600.34	100.64
600.50	23.41
600.65	39.79
600.81	30.43
600.97	105.32
601.12	16.38
601.28	100.64
601.44	0.00
601.59	86.60
601.75	39.79
601.91	21.06
602.06	77.24
602.22	25.75
602.37	56.17
602.53	187.24
602.69	222.35
602.84	243.42
603.00	187.24
603.16	119.37
603.31	98.30
603.47	16.38
603.62	77.24
603.78	4.68
603.94	44.47
604.09	49.15
604.25	28.09
604.40	79.58
604.56	37.45
604.71	46.81
604.87	51.49
605.03	56.17
605.18	35.11
605.34	63.19
605.49	91.28
605.65	70.22
605.80	49.15
605.96	0.00
606.12	0.00
606.27	77.24
606.43	42.13
606.58	23.41
606.74	65.54
606.89	250.44
607.05	521.94
607.20	791.10
607.36	730.25
607.51	425.98
607.67	304.27
607.82	196.60
607.98	98.30
608.13	42.13
608.29	0.00
608.44	81.92
608.60	56.17
608.75	86.60
608.91	107.66
609.06	498.53
609.22	994.73
609.37	1336.45
609.53	1217.08
609.68	791.10
609.84	510.24
609.99	313.63
610.15	194.26
610.30	51.49
610.46	32.77
610.61	98.30
610.76	21.06
610.92	67.88
611.07	16.38
611.23	23.41
611.38	65.54
611.54	11.70
611.69	9.36
611.84	9.36
612.00	63.19
612.15	58.51
612.31	58.51
612.46	74.90
612.62	49.15
612.77	32.77
612.92	93.62
613.08	18.72
613.23	35.11
613.39	77.24
613.54	0.00
613.69	465.77
613.85	1200.69
614.00	1928.60
614.15	2008.18
614.31	1537.73
614.46	1013.45
614.62	725.57
614.77	418.96
614.92	241.08
615.08	114.69
615.23	124.05
615.38	37.45
615.54	42.13
615.69	95.96
615.84	255.12
616.00	589.82
616.15	561.73
616.30	468.11
616.46	285.55
616.61	194.26
616.76	133.41
616.92	93.62
617.07	147.45
617.22	35.11
617.37	63.19
617.53	44.47
617.68	88.94
617.83	35.11
617.99	0.00
618.14	72.56
618.29	60.85
618.45	23.41
618.60	72.56
618.75	28.09
618.90	42.13
619.06	14.04
619.21	35.11
619.36	4.68
619.51	0.00
619.67	46.81
619.82	124.05
619.97	39.79
620.12	121.71
620.28	44.47
620.43	0.00
620.58	112.35
620.73	0.00
620.89	4.68
621.04	56.17
621.19	102.98
621.34	250.44
621.49	327.68
621.65	306.61
621.80	264.48
621.95	196.60
622.10	88.94
622.25	95.96
622.41	0.00
622.56	0.00
622.71	107.66
622.86	9.36
623.01	79.58
623.16	39.79
623.32	0.00
623.47	0.00
623.62	28.09
623.77	0.00
623.92	42.13
624.07	0.00
624.23	30.43
624.38	60.85
624.53	86.60
624.68	86.60
624.83	53.83
624.98	21.06
625.13	56.17
625.29	7.02
625.44	65.54
625.59	46.81
625.74	0.00
625.89	117.03
626.04	220.01
626.19	681.10
626.34	945.58
626.49	1135.16
626.65	882.38
626.80	629.60
626.95	365.12
627.10	217.67
627.25	91.28
627.40	60.85
627.55	95.96
627.70	7.02
627.85	9.36
628.00	67.88
628.15	4.68
628.30	25.75
628.45	46.81
628.60	11.70
628.76	18.72
628.91	46.81
629.06	51.49
629.21	23.41
629.36	49.15
629.51	4.68
629.66	11.70
629.81	70.22
629.96	93.62
630.11	259.80
630.26	344.06
630.41	278.52
630.56	220.01
630.71	194.26
630.86	135.75
631.01	74.90
631.16	0.00
631.31	46.81
631.46	77.24
631.61	65.54
631.76	9.36
631.91	105.32
632.06	128.73
632.21	74.90
632.36	23.41
632.51	35.11
632.66	60.85
632.81	255.12
632.96	318.31
633.10	627.26
633.25	833.23
633.40	601.52
633.55	498.53
633.70	273.84
633.85	222.35
634.00	117.03
634.15	84.26
634.30	67.88
634.45	53.83
634.60	28.09
634.75	86.60
634.90	72.56
635.05	16.38
635.19	56.17
635.34	100.64
635.49	46.81
635.64	37.45
635.79	91.28
635.94	0.00
636.09	0.00
636.24	30.43
636.39	46.81
636.53	0.00
636.68	0.00
636.83	32.77
636.98	0.00
637.13	86.60
637.28	74.90
637.43	25.75
637.57	56.17
637.72	294.91
637.87	718.54
638.02	1343.47
638.17	1441.77
638.32	919.83
638.46	725.57
638.61	535.98
638.76	339.38
638.91	128.73
639.06	77.24
639.20	37.45
639.35	145.11
639.50	180.22
639.65	390.87
639.80	1217.08
639.94	1935.62
640.09	2115.84
640.24	1703.91
640.39	1217.08
640.54	795.78
640.68	447.04
640.83	138.09
640.98	149.79
641.13	65.54
641.27	0.00
641.42	72.56
641.57	98.30
641.72	0.00
641.86	88.94
642.01	88.94
642.16	95.96
642.31	72.56
642.45	77.24
642.60	42.13
642.75	46.81
642.90	0.00
643.04	0.00
643.19	23.41
643.34	21.06
643.48	46.81
643.63	16.38
643.78	23.41
643.93	63.19
644.07	14.04
644.22	35.11
644.37	60.85
644.51	95.96
644.66	30.43
644.81	74.90
644.95	46.81
645.10	25.75
645.25	110.01
645.39	37.45
645.54	32.77
645.69	25.75
645.83	18.72
645.98	95.96
646.13	88.94
646.27	88.94
646.42	107.66
646.57	2.34
646.71	25.75
646.86	11.70
647.00	21.06
647.15	9.36
647.30	49.15
647.44	35.11
647.59	51.49
647.74	11.70
647.88	79.58
648.03	21.06
648.17	7.02
648.32	65.54
648.47	65.54
648.61	98.30
648.76	0.00
648.90	77.24
649.05	21.06
649.20	16.38
649.34	32.77
649.49	35.11
649.63	46.81
649.78	56.17
649.92	9.36
650.07	187.24
650.21	589.82
650.36	987.71
650.51	1205.38
650.65	983.02
650.80	655.35
650.94	472.79
651.09	271.50
651.23	175.54
651.38	131.07
651.52	63.19
651.67	0.00
651.81	60.85
651.96	0.00
652.10	86.60
652.25	30.43
652.39	4.68
652.54	74.90
652.68	102.98
652.83	252.78
652.97	379.17
653.12	346.40
653.26	355.76
653.41	243.42
653.55	128.73
653.70	110.01
653.84	124.05
653.99	105.32
654.13	49.15
654.27	72.56
654.42	35.11
654.56	11.70
654.71	60.85
654.85	0.00
655.00	30.43
655.14	86.60
655.29	0.00
655.43	86.60
655.57	7.02
655.72	46.81
655.86	4.68
656.01	0.00
656.15	79.58
656.30	58.51
656.44	25.75
656.58	32.77
656.73	58.51
656.87	0.00
657.01	63.19
657.16	11.70
657.30	4.68
657.45	46.81
657.59	51.49
657.73	30.43
657.88	77.24
658.02	53.83
658.16	23.41
658.31	74.90
658.45	72.56
658.60	86.60
658.74	7.02
658.88	11.70
659.03	53.83
659.17	121.71
659.31	140.43
659.46	271.50
659.60	407.25
659.74	585.13
659.89	491.51
660.03	271.50
660.17	210.65
660.32	163.84
660.46	81.92
660.60	77.24
660.74	0.00
660.89	4.68
661.03	0.00
661.17	14.04
661.32	23.41
661.46	9.36
661.60	9.36
661.74	44.47
661.89	30.43
662.03	28.09
662.17	14.04
662.31	65.54
662.46	0.00
662.60	2.34
662.74	49.15
662.88	7.02
663.03	21.06
663.17	39.79
663.31	21.06
663.45	0.00
663.60	0.00
663.74	0.00
663.88	0.00
664.02	23.41
664.17	56.17
664.31	53.83
664.45	0.00
664.59	35.11
664.73	25.75
664.88	35.11
665.02	16.38
665.16	9.36
665.30	18.72
665.44	0.00
665.59	39.79
665.73	53.83
665.87	21.06
666.01	67.88
666.15	42.13
666.29	42.13
666.44	44.47
666.58	49.15
666.72	72.56
666.86	0.00
667.00	93.62
667.14	44.47
667.28	217.67
667.43	533.64
667.57	653.01
667.71	1043.88
667.85	856.64
667.99	650.67
668.13	479.81
668.27	234.05
668.41	124.05
668.56	117.03
668.70	105.32
668.84	100.64
668.98	74.90
669.12	49.15
669.26	7.02
669.40	93.62
669.54	0.00
669.68	21.06
669.82	0.00
669.96	14.04
670.10	23.41
670.25	51.49
670.39	65.54
670.53	58.51
670.67	14.04
670.81	25.75
670.95	32.77
671.09	107.66
671.23	149.79
671.37	360.44
671.51	571.09
671.65	596.84
671.79	444.70
671.93	341.72
672.07	182.56
672.21	180.22
672.35	119.37
672.49	67.88
672.63	18.72
672.77	0.00
672.91	70.22
673.05	0.00
673.19	84.26
673.33	23.41
673.47	32.77
673.61	35.11
673.75	39.79
673.89	0.00
674.03	25.75
674.17	16.38
674.31	32.77
674.45	51.49
674.59	0.00
674.73	42.13
674.87	39.79
675.01	32.77
675.15	11.70
675.29	70.22
675.43	30.43
675.56	14.04
675.70	35.11
675.84	0.00
675.98	60.85
676.12	30.43
676.26	30.43
676.40	0.00
676.54	112.35
676.68	14.04
676.82	60.85
676.96	37.45
677.10	39.79
677.23	9.36
677.37	44.47
677.51	58.51
677.65	70.22
677.79	30.43
677.93	0.00
678.07	25.75
678.21	7.02
678.34	0.00
678.48	86.60
678.62	60.85
678.76	21.06
678.90	16.38
679.04	35.11
679.18	7.02
679.31	84.26
679.45	14.04
679.59	11.70
679.73	44.47
679.87	30.43
680.00	65.54
680.14	0.00
680.28	0.00
680.42	67.88
680.56	32.77
680.70	14.04
680.83	21.06
680.97	63.19
681.11	0.00
681.25	42.13
681.39	11.70
681.52	98.30
681.66	0.00
681.80	63.19
681.94	51.49
682.07	28.09
682.21	88.94
682.35	0.00
682.49	9.36
682.62	44.47
682.76	35.11
682.90	16.38
683.04	67.88
683.17	16.38
683.31	39.79
683.45	49.15
683.59	32.77
683.72	7.02
683.86	0.00
684.00	70.22
684.13	9.36
684.27	21.06
684.41	21.06
684.55	37.45
684.68	39.79
684.82	21.06
684.96	77.24
685.09	81.92
685.23	60.85
685.37	2.34
685.50	32.77
685.64	21.06
685.78	81.92
685.91	25.75
686.05	46.81
686.19	51.49
686.32	7.02
686.46	58.51
686.60	60.85
686.73	32.77
686.87	112.35
687.01	11.70
687.14	7.02
687.28	0.00
687.42	30.43
687.55	142.77
687.69	53.83
687.82	0.00
687.96	35.11
688.10	9.36
688.23	42.13
688.37	0.00
688.50	28.09
688.64	72.56
688.78	25.75
688.91	18.72
689.05	100.64
689.18	23.41
689.32	25.75
689.46	46.81
689.59	91.28
689.73	44.47
689.86	35.11
690.00	16.38
690.13	7.02
690.27	84.26
690.41	42.13
690.54	0.00
690.68	56.17
690.81	23.41
690.95	63.19
691.08	28.09
691.22	84.26
691.35	0.00
691.49	46.81
691.62	9.36
691.76	21.06
691.89	39.79
692.03	9.36
692.16	35.11
692.30	46.81
692.43	98.30
692.57	177.88
692.70	250.44
692.84	425.98
692.97	407.25
693.11	351.08
693.24	175.54
693.38	234.05
693.51	203.63
693.65	65.54
693.78	60.85
693.92	42.13
694.05	60.85
694.19	44.47
694.32	32.77
694.45	63.19
694.59	65.54
694.72	23.41
694.86	11.70
694.99	37.45
695.13	56.17
695.26	0.00
695.39	25.75
695.53	0.00
695.66	0.00
695.80	25.75
695.93	0.00
696.07	51.49
696.20	0.00
696.33	72.56
696.47	51.49
696.60	88.94
696.73	110.01
696.87	110.01
697.00	9.36
697.14	0.00
697.27	65.54
697.40	7.02
697.54	53.83
697.67	0.00
697.80	0.00
697.94	60.85
698.07	7.02
698.21	28.09
698.34	25.75
698.47	14.04
698.61	93.62
698.74	77.24
698.87	81.92
699.01	0.00
699.14	67.88
699.27	58.51
699.40	56.17
699.54	25.75
699.67	18.72
699.80	53.83
699.94	51.49
700.07	21.06
700.20	0.00
700.34	23.41
700.47	42.13
700.60	67.88
700.73	63.19
700.87	0.00
701.00	0.00
701.13	25.75
701.26	35.11
701.40	46.81
701.53	79.58
701.66	0.00
701.79	56.17
701.93	30.43
702.06	105.32
702.19	56.17
702.32	86.60
702.46	95.96
702.59	49.15
702.72	152.13
702.85	266.82
702.99	557.05
703.12	816.85
703.25	905.79
703.38	746.63
703.51	517.26
703.65	519.60
703.78	311.29
703.91	276.18
704.04	168.52
704.17	67.88
704.31	4.68
704.44	77.24
704.57	39.79
704.70	49.15
704.83	46.81
704.96	79.58
705.10	2.34
705.23	14.04
>>>>>End Processed Spectral Data<<<<<
