SpectraSuite Data File
++++++++++++++++++++++++++++++++++++
Date: Fri Oct 04 12:13:45 GMT-05:00 2013
User: price-jones
Dark Spectrum Present: No
Reference Spectrum Present: No
Number of Sampled Component Spectra: 1
Spectrometers: USB2+H05261
Integration Time (usec): 10000 (USB2+H05261)
Spectra Averaged: 1 (USB2+H05261)
Boxcar Smoothing: 0 (USB2+H05261)
Correct for Electrical Dark: No (USB2+H05261)
Strobe/Lamp Enabled: No (USB2+H05261)
Correct for Detector Non-linearity: No (USB2+H05261)
Correct for Stray Light: No (USB2+H05261)
Number of Pixels in Processed Spectrum: 2048
>>>>>Begin Processed Spectral Data<<<<<
365.73	46.81
365.92	46.81
366.12	46.81
366.32	0.00
366.52	0.00
366.72	0.00
366.91	0.00
367.11	0.00
367.31	0.00
367.51	0.00
367.70	0.00
367.90	0.00
368.10	0.00
368.30	0.00
368.49	0.00
368.69	0.00
368.89	0.00
369.09	0.00
369.28	0.00
369.48	0.00
369.68	0.00
369.87	0.00
370.07	0.00
370.27	0.00
370.47	0.00
370.66	0.00
370.86	0.00
371.06	0.00
371.25	16.38
371.45	0.00
371.65	0.00
371.84	0.00
372.04	0.00
372.24	35.11
372.44	39.79
372.63	53.83
372.83	39.79
373.03	39.79
373.22	44.47
373.42	25.75
373.62	0.00
373.81	0.00
374.01	11.70
374.21	70.22
374.40	30.43
374.60	9.36
374.79	32.77
374.99	0.00
375.19	37.45
375.38	0.00
375.58	70.22
375.78	0.00
375.97	0.00
376.17	77.24
376.37	58.51
376.56	18.72
376.76	4.68
376.95	42.13
377.15	0.00
377.35	9.36
377.54	56.17
377.74	14.04
377.93	37.45
378.13	14.04
378.33	0.00
378.52	25.75
378.72	0.00
378.91	23.41
379.11	28.09
379.31	2.34
379.50	74.90
379.70	70.22
379.89	51.49
380.09	0.00
380.28	25.75
380.48	0.00
380.68	37.45
380.87	72.56
381.07	58.51
381.26	91.28
381.46	4.68
381.65	32.77
381.85	9.36
382.04	86.60
382.24	28.09
382.43	37.45
382.63	32.77
382.83	9.36
383.02	0.00
383.22	49.15
383.41	0.00
383.61	18.72
383.80	95.96
384.00	84.26
384.19	72.56
384.39	28.09
384.58	16.38
384.78	58.51
384.97	67.88
385.17	37.45
385.36	0.00
385.56	11.70
385.75	23.41
385.95	49.15
386.14	0.00
386.34	35.11
386.53	23.41
386.72	32.77
386.92	35.11
387.11	30.43
387.31	30.43
387.50	0.00
387.70	0.00
387.89	28.09
388.09	23.41
388.28	0.00
388.48	0.00
388.67	0.00
388.86	0.00
389.06	117.03
389.25	77.24
389.45	100.64
389.64	44.47
389.84	21.06
390.03	49.15
390.22	0.00
390.42	63.19
390.61	70.22
390.81	0.00
391.00	30.43
391.19	0.00
391.39	0.00
391.58	14.04
391.78	25.75
391.97	2.34
392.16	81.92
392.36	70.22
392.55	0.00
392.75	0.00
392.94	0.00
393.13	46.81
393.33	44.47
393.52	37.45
393.71	4.68
393.91	91.28
394.10	28.09
394.29	9.36
394.49	35.11
394.68	28.09
394.88	9.36
395.07	124.05
395.26	49.15
395.46	0.00
395.65	9.36
395.84	37.45
396.04	11.70
396.23	28.09
396.42	11.70
396.62	42.13
396.81	28.09
397.00	7.02
397.19	35.11
397.39	25.75
397.58	4.68
397.77	23.41
397.97	42.13
398.16	30.43
398.35	51.49
398.55	44.47
398.74	16.38
398.93	51.49
399.12	28.09
399.32	0.00
399.51	0.00
399.70	49.15
399.90	35.11
400.09	4.68
400.28	0.00
400.47	42.13
400.67	84.26
400.86	0.00
401.05	60.85
401.24	138.09
401.44	25.75
401.63	60.85
401.82	51.49
402.01	2.34
402.21	49.15
402.40	51.49
402.59	0.00
402.78	0.00
402.97	32.77
403.17	0.00
403.36	21.06
403.55	0.00
403.74	0.00
403.93	0.00
404.13	0.00
404.32	65.54
404.51	53.83
404.70	14.04
404.89	11.70
405.09	79.58
405.28	37.45
405.47	67.88
405.66	58.51
405.85	46.81
406.05	35.11
406.24	16.38
406.43	25.75
406.62	0.00
406.81	28.09
407.00	23.41
407.20	100.64
407.39	56.17
407.58	58.51
407.77	107.66
407.96	23.41
408.15	0.00
408.34	0.00
408.54	18.72
408.73	25.75
408.92	18.72
409.11	86.60
409.30	84.26
409.49	0.00
409.68	28.09
409.87	0.00
410.07	30.43
410.26	0.00
410.45	53.83
410.64	53.83
410.83	53.83
411.02	0.00
411.21	32.77
411.40	37.45
411.59	42.13
411.78	0.00
411.98	0.00
412.17	79.58
412.36	7.02
412.55	0.00
412.74	37.45
412.93	49.15
413.12	0.00
413.31	46.81
413.50	67.88
413.69	77.24
413.88	0.00
414.07	42.13
414.26	0.00
414.45	60.85
414.64	58.51
414.83	0.00
415.02	0.00
415.22	46.81
415.41	39.79
415.60	98.30
415.79	121.71
415.98	91.28
416.17	72.56
416.36	0.00
416.55	11.70
416.74	0.00
416.93	77.24
417.12	0.00
417.31	35.11
417.50	2.34
417.69	21.06
417.88	63.19
418.07	0.00
418.26	14.04
418.45	23.41
418.64	98.30
418.83	0.00
419.02	88.94
419.21	11.70
419.39	42.13
419.58	30.43
419.77	39.79
419.96	23.41
420.15	7.02
420.34	0.00
420.53	0.00
420.72	74.90
420.91	58.51
421.10	0.00
421.29	11.70
421.48	2.34
421.67	35.11
421.86	0.00
422.05	23.41
422.24	4.68
422.43	9.36
422.61	0.00
422.80	44.47
422.99	30.43
423.18	0.00
423.37	21.06
423.56	23.41
423.75	65.54
423.94	39.79
424.13	21.06
424.32	81.92
424.50	79.58
424.69	49.15
424.88	14.04
425.07	39.79
425.26	18.72
425.45	58.51
425.64	0.00
425.83	51.49
426.01	72.56
426.20	28.09
426.39	53.83
426.58	91.28
426.77	0.00
426.96	58.51
427.15	39.79
427.33	28.09
427.52	49.15
427.71	35.11
427.90	23.41
428.09	18.72
428.28	100.64
428.46	58.51
428.65	37.45
428.84	23.41
429.03	65.54
429.22	9.36
429.40	42.13
429.59	9.36
429.78	0.00
429.97	28.09
430.16	0.00
430.34	0.00
430.53	56.17
430.72	11.70
430.91	16.38
431.10	25.75
431.28	56.17
431.47	39.79
431.66	39.79
431.85	70.22
432.03	30.43
432.22	51.49
432.41	23.41
432.60	11.70
432.79	28.09
432.97	0.00
433.16	107.66
433.35	21.06
433.54	95.96
433.72	0.00
433.91	56.17
434.10	60.85
434.28	79.58
434.47	44.47
434.66	58.51
434.85	0.00
435.03	23.41
435.22	0.00
435.41	35.11
435.59	53.83
435.78	72.56
435.97	105.32
436.16	49.15
436.34	44.47
436.53	107.66
436.72	88.94
436.90	74.90
437.09	42.13
437.28	44.47
437.46	28.09
437.65	28.09
437.84	21.06
438.02	30.43
438.21	0.00
438.40	25.75
438.58	0.00
438.77	9.36
438.96	25.75
439.14	107.66
439.33	63.19
439.52	60.85
439.70	0.00
439.89	4.68
440.08	84.26
440.26	77.24
440.45	72.56
440.63	46.81
440.82	70.22
441.01	58.51
441.19	79.58
441.38	51.49
441.57	0.00
441.75	32.77
441.94	25.75
442.12	21.06
442.31	32.77
442.50	67.88
442.68	16.38
442.87	93.62
443.05	46.81
443.24	58.51
443.43	2.34
443.61	28.09
443.80	7.02
443.98	56.17
444.17	25.75
444.35	16.38
444.54	0.00
444.73	25.75
444.91	32.77
445.10	4.68
445.28	0.00
445.47	0.00
445.65	42.13
445.84	91.28
446.02	30.43
446.21	107.66
446.39	49.15
446.58	18.72
446.77	51.49
446.95	9.36
447.14	65.54
447.32	14.04
447.51	2.34
447.69	30.43
447.88	46.81
448.06	0.00
448.25	44.47
448.43	46.81
448.62	42.13
448.80	30.43
448.99	63.19
449.17	23.41
449.36	49.15
449.54	117.03
449.73	51.49
449.91	63.19
450.10	95.96
450.28	74.90
450.46	79.58
450.65	72.56
450.83	35.11
451.02	88.94
451.20	30.43
451.39	100.64
451.57	32.77
451.76	9.36
451.94	28.09
452.13	23.41
452.31	35.11
452.49	35.11
452.68	63.19
452.86	25.75
453.05	51.49
453.23	0.00
453.42	67.88
453.60	49.15
453.78	56.17
453.97	11.70
454.15	0.00
454.34	0.00
454.52	49.15
454.70	56.17
454.89	9.36
455.07	46.81
455.26	117.03
455.44	56.17
455.62	21.06
455.81	110.01
455.99	46.81
456.17	65.54
456.36	102.98
456.54	128.73
456.73	2.34
456.91	7.02
457.09	53.83
457.28	72.56
457.46	70.22
457.64	79.58
457.83	42.13
458.01	42.13
458.19	44.47
458.38	91.28
458.56	70.22
458.74	74.90
458.93	138.09
459.11	0.00
459.29	49.15
459.48	9.36
459.66	7.02
459.84	60.85
460.03	21.06
460.21	56.17
460.39	46.81
460.57	67.88
460.76	16.38
460.94	39.79
461.12	74.90
461.31	98.30
461.49	63.19
461.67	0.00
461.85	42.13
462.04	39.79
462.22	114.69
462.40	77.24
462.59	58.51
462.77	39.79
462.95	77.24
463.13	53.83
463.32	2.34
463.50	56.17
463.68	70.22
463.86	67.88
464.05	77.24
464.23	11.70
464.41	107.66
464.59	0.00
464.78	65.54
464.96	16.38
465.14	9.36
465.32	2.34
465.50	32.77
465.69	35.11
465.87	72.56
466.05	25.75
466.23	0.00
466.41	56.17
466.60	0.00
466.78	4.68
466.96	56.17
467.14	11.70
467.32	44.47
467.51	39.79
467.69	14.04
467.87	128.73
468.05	67.88
468.23	39.79
468.41	2.34
468.60	23.41
468.78	74.90
468.96	56.17
469.14	23.41
469.32	72.56
469.50	95.96
469.69	42.13
469.87	0.00
470.05	21.06
470.23	37.45
470.41	0.00
470.59	21.06
470.77	30.43
470.95	39.79
471.14	35.11
471.32	70.22
471.50	32.77
471.68	60.85
471.86	0.00
472.04	37.45
472.22	35.11
472.40	102.98
472.58	44.47
472.77	0.00
472.95	88.94
473.13	65.54
473.31	0.00
473.49	28.09
473.67	70.22
473.85	18.72
474.03	42.13
474.21	105.32
474.39	30.43
474.57	28.09
474.75	0.00
474.93	63.19
475.12	65.54
475.30	21.06
475.48	7.02
475.66	53.83
475.84	51.49
476.02	35.11
476.20	46.81
476.38	35.11
476.56	93.62
476.74	0.00
476.92	86.60
477.10	35.11
477.28	100.64
477.46	46.81
477.64	42.13
477.82	18.72
478.00	0.00
478.18	0.00
478.36	0.00
478.54	93.62
478.72	0.00
478.90	16.38
479.08	23.41
479.26	35.11
479.44	0.00
479.62	63.19
479.80	77.24
479.98	2.34
480.16	9.36
480.34	63.19
480.52	4.68
480.70	0.00
480.88	30.43
481.06	51.49
481.24	70.22
481.41	65.54
481.59	11.70
481.77	23.41
481.95	79.58
482.13	46.81
482.31	14.04
482.49	30.43
482.67	35.11
482.85	0.00
483.03	91.28
483.21	2.34
483.39	0.00
483.57	4.68
483.74	88.94
483.92	67.88
484.10	30.43
484.28	39.79
484.46	110.01
484.64	23.41
484.82	0.00
485.00	53.83
485.18	67.88
485.35	51.49
485.53	0.00
485.71	77.24
485.89	49.15
486.07	23.41
486.25	77.24
486.43	18.72
486.61	37.45
486.78	67.88
486.96	84.26
487.14	100.64
487.32	23.41
487.50	14.04
487.68	63.19
487.85	72.56
488.03	67.88
488.21	77.24
488.39	53.83
488.57	49.15
488.75	7.02
488.92	0.00
489.10	0.00
489.28	25.75
489.46	46.81
489.64	42.13
489.81	42.13
489.99	49.15
490.17	53.83
490.35	65.54
490.53	60.85
490.70	0.00
490.88	42.13
491.06	9.36
491.24	58.51
491.41	135.75
491.59	84.26
491.77	37.45
491.95	110.01
492.13	35.11
492.30	9.36
492.48	39.79
492.66	0.00
492.84	0.00
493.01	49.15
493.19	18.72
493.37	60.85
493.54	0.00
493.72	114.69
493.90	58.51
494.08	81.92
494.25	42.13
494.43	11.70
494.61	32.77
494.79	25.75
494.96	81.92
495.14	30.43
495.32	46.81
495.49	51.49
495.67	67.88
495.85	152.13
496.02	67.88
496.20	84.26
496.38	9.36
496.55	42.13
496.73	63.19
496.91	32.77
497.09	98.30
497.26	51.49
497.44	74.90
497.62	35.11
497.79	44.47
497.97	46.81
498.14	21.06
498.32	58.51
498.50	81.92
498.67	4.68
498.85	79.58
499.03	42.13
499.20	95.96
499.38	32.77
499.56	18.72
499.73	70.22
499.91	91.28
500.08	63.19
500.26	77.24
500.44	14.04
500.61	28.09
500.79	63.19
500.97	16.38
501.14	0.00
501.32	49.15
501.49	53.83
501.67	100.64
501.84	91.28
502.02	70.22
502.20	2.34
502.37	46.81
502.55	35.11
502.72	35.11
502.90	53.83
503.07	53.83
503.25	7.02
503.43	35.11
503.60	84.26
503.78	65.54
503.95	84.26
504.13	84.26
504.30	18.72
504.48	102.98
504.65	0.00
504.83	9.36
505.01	0.00
505.18	53.83
505.36	37.45
505.53	0.00
505.71	77.24
505.88	0.00
506.06	2.34
506.23	58.51
506.41	84.26
506.58	0.00
506.76	14.04
506.93	77.24
507.11	51.49
507.28	79.58
507.46	74.90
507.63	67.88
507.81	58.51
507.98	14.04
508.16	18.72
508.33	44.47
508.50	0.00
508.68	16.38
508.85	11.70
509.03	49.15
509.20	86.60
509.38	46.81
509.55	107.66
509.73	46.81
509.90	35.11
510.08	32.77
510.25	14.04
510.42	39.79
510.60	49.15
510.77	102.98
510.95	105.32
511.12	0.00
511.30	49.15
511.47	44.47
511.64	18.72
511.82	98.30
511.99	44.47
512.17	35.11
512.34	58.51
512.51	88.94
512.69	37.45
512.86	0.00
513.04	107.66
513.21	18.72
513.38	65.54
513.56	25.75
513.73	42.13
513.90	0.00
514.08	28.09
514.25	37.45
514.43	74.90
514.60	117.03
514.77	37.45
514.95	58.51
515.12	60.85
515.29	37.45
515.47	70.22
515.64	28.09
515.81	4.68
515.99	46.81
516.16	58.51
516.33	0.00
516.51	49.15
516.68	30.43
516.85	14.04
517.03	0.00
517.20	21.06
517.37	88.94
517.54	84.26
517.72	0.00
517.89	58.51
518.06	95.96
518.24	105.32
518.41	65.54
518.58	63.19
518.75	7.02
518.93	91.28
519.10	37.45
519.27	37.45
519.45	86.60
519.62	21.06
519.79	46.81
519.96	32.77
520.14	77.24
520.31	42.13
520.48	72.56
520.65	0.00
520.83	77.24
521.00	51.49
521.17	0.00
521.34	79.58
521.52	65.54
521.69	35.11
521.86	0.00
522.03	0.00
522.20	72.56
522.38	58.51
522.55	70.22
522.72	49.15
522.89	14.04
523.07	14.04
523.24	74.90
523.41	67.88
523.58	14.04
523.75	35.11
523.92	121.71
524.10	0.00
524.27	58.51
524.44	7.02
524.61	93.62
524.78	86.60
524.96	56.17
525.13	65.54
525.30	88.94
525.47	70.22
525.64	14.04
525.81	77.24
525.98	58.51
526.16	21.06
526.33	18.72
526.50	39.79
526.67	81.92
526.84	0.00
527.01	25.75
527.18	60.85
527.36	42.13
527.53	28.09
527.70	60.85
527.87	58.51
528.04	11.70
528.21	46.81
528.38	117.03
528.55	100.64
528.72	93.62
528.89	16.38
529.07	7.02
529.24	84.26
529.41	67.88
529.58	56.17
529.75	0.00
529.92	46.81
530.09	117.03
530.26	91.28
530.43	79.58
530.60	49.15
530.77	14.04
530.94	60.85
531.11	79.58
531.28	56.17
531.46	39.79
531.63	72.56
531.80	37.45
531.97	0.00
532.14	65.54
532.31	84.26
532.48	79.58
532.65	77.24
532.82	51.49
532.99	0.00
533.16	30.43
533.33	4.68
533.50	53.83
533.67	114.69
533.84	18.72
534.01	30.43
534.18	84.26
534.35	42.13
534.52	63.19
534.69	0.00
534.86	49.15
535.03	30.43
535.20	98.30
535.37	0.00
535.54	65.54
535.71	42.13
535.88	74.90
536.05	46.81
536.22	81.92
536.38	105.32
536.55	65.54
536.72	65.54
536.89	39.79
537.06	0.00
537.23	46.81
537.40	14.04
537.57	60.85
537.74	0.00
537.91	37.45
538.08	2.34
538.25	0.00
538.42	53.83
538.59	56.17
538.75	46.81
538.92	60.85
539.09	100.64
539.26	56.17
539.43	42.13
539.60	58.51
539.77	63.19
539.94	35.11
540.11	84.26
540.28	44.47
540.44	16.38
540.61	74.90
540.78	25.75
540.95	21.06
541.12	18.72
541.29	23.41
541.46	72.56
541.62	16.38
541.79	72.56
541.96	14.04
542.13	63.19
542.30	63.19
542.47	53.83
542.63	70.22
542.80	30.43
542.97	32.77
543.14	25.75
543.31	21.06
543.48	51.49
543.64	67.88
543.81	0.00
543.98	95.96
544.15	21.06
544.32	79.58
544.48	67.88
544.65	46.81
544.82	0.00
544.99	53.83
545.16	11.70
545.32	72.56
545.49	60.85
545.66	7.02
545.83	44.47
546.00	114.69
546.16	63.19
546.33	30.43
546.50	53.83
546.67	84.26
546.83	0.00
547.00	107.66
547.17	58.51
547.34	21.06
547.50	58.51
547.67	105.32
547.84	79.58
548.00	79.58
548.17	70.22
548.34	63.19
548.51	51.49
548.67	58.51
548.84	14.04
549.01	28.09
549.18	37.45
549.34	0.00
549.51	28.09
549.68	35.11
549.84	60.85
550.01	51.49
550.18	42.13
550.34	60.85
550.51	35.11
550.68	117.03
550.84	56.17
551.01	72.56
551.18	23.41
551.34	86.60
551.51	88.94
551.68	32.77
551.84	0.00
552.01	4.68
552.18	60.85
552.34	60.85
552.51	14.04
552.68	58.51
552.84	60.85
553.01	117.03
553.18	37.45
553.34	63.19
553.51	140.43
553.67	53.83
553.84	14.04
554.01	21.06
554.17	0.00
554.34	35.11
554.51	0.00
554.67	11.70
554.84	46.81
555.00	32.77
555.17	56.17
555.33	0.00
555.50	56.17
555.67	28.09
555.83	49.15
556.00	46.81
556.16	79.58
556.33	60.85
556.50	28.09
556.66	42.13
556.83	39.79
556.99	74.90
557.16	84.26
557.32	23.41
557.49	11.70
557.65	128.73
557.82	39.79
557.98	67.88
558.15	119.37
558.32	84.26
558.48	117.03
558.65	65.54
558.81	74.90
558.98	9.36
559.14	23.41
559.31	91.28
559.47	58.51
559.64	91.28
559.80	119.37
559.97	0.00
560.13	21.06
560.30	16.38
560.46	65.54
560.63	60.85
560.79	70.22
560.96	93.62
561.12	30.43
561.29	65.54
561.45	72.56
561.61	77.24
561.78	0.00
561.94	35.11
562.11	67.88
562.27	23.41
562.44	42.13
562.60	53.83
562.77	154.48
562.93	119.37
563.10	53.83
563.26	16.38
563.42	42.13
563.59	18.72
563.75	65.54
563.92	74.90
564.08	81.92
564.24	93.62
564.41	100.64
564.57	74.90
564.74	84.26
564.90	86.60
565.07	0.00
565.23	0.00
565.39	119.37
565.56	0.00
565.72	58.51
565.88	49.15
566.05	18.72
566.21	72.56
566.38	51.49
566.54	56.17
566.70	16.38
566.87	49.15
567.03	63.19
567.19	117.03
567.36	37.45
567.52	4.68
567.68	46.81
567.85	72.56
568.01	63.19
568.17	39.79
568.34	37.45
568.50	67.88
568.66	51.49
568.83	37.45
568.99	18.72
569.15	16.38
569.32	49.15
569.48	53.83
569.64	100.64
569.81	2.34
569.97	25.75
570.13	25.75
570.30	81.92
570.46	60.85
570.62	16.38
570.78	32.77
570.95	88.94
571.11	25.75
571.27	0.00
571.43	46.81
571.60	9.36
571.76	0.00
571.92	32.77
572.09	51.49
572.25	81.92
572.41	46.81
572.57	105.32
572.74	65.54
572.90	65.54
573.06	16.38
573.22	16.38
573.38	28.09
573.55	67.88
573.71	11.70
573.87	23.41
574.03	102.98
574.20	25.75
574.36	70.22
574.52	42.13
574.68	21.06
574.84	0.00
575.01	9.36
575.17	60.85
575.33	42.13
575.49	32.77
575.65	84.26
575.82	49.15
575.98	51.49
576.14	110.01
576.30	30.43
576.46	25.75
576.62	23.41
576.79	0.00
576.95	25.75
577.11	14.04
577.27	56.17
577.43	11.70
577.59	39.79
577.75	0.00
577.92	2.34
578.08	86.60
578.24	35.11
578.40	79.58
578.56	25.75
578.72	53.83
578.88	79.58
579.04	95.96
579.21	53.83
579.37	37.45
579.53	2.34
579.69	14.04
579.85	81.92
580.01	81.92
580.17	63.19
580.33	11.70
580.49	88.94
580.65	74.90
580.82	28.09
580.98	35.11
581.14	53.83
581.30	72.56
581.46	72.56
581.62	42.13
581.78	84.26
581.94	70.22
582.10	60.85
582.26	98.30
582.42	65.54
582.58	81.92
582.74	88.94
582.90	84.26
583.06	14.04
583.22	67.88
583.38	42.13
583.54	35.11
583.70	65.54
583.86	65.54
584.02	11.70
584.18	37.45
584.34	28.09
584.50	42.13
584.66	77.24
584.82	119.37
584.98	63.19
585.14	30.43
585.30	58.51
585.46	28.09
585.62	105.32
585.78	42.13
585.94	60.85
586.10	100.64
586.26	25.75
586.42	42.13
586.58	4.68
586.74	30.43
586.90	30.43
587.06	56.17
587.22	46.81
587.38	53.83
587.54	42.13
587.70	4.68
587.86	74.90
588.02	0.00
588.18	28.09
588.34	56.17
588.49	9.36
588.65	79.58
588.81	93.62
588.97	72.56
589.13	7.02
589.29	18.72
589.45	81.92
589.61	51.49
589.77	117.03
589.93	0.00
590.08	21.06
590.24	16.38
590.40	0.00
590.56	16.38
590.72	60.85
590.88	79.58
591.04	0.00
591.20	37.45
591.35	21.06
591.51	77.24
591.67	88.94
591.83	86.60
591.99	0.00
592.15	56.17
592.31	44.47
592.46	28.09
592.62	56.17
592.78	23.41
592.94	21.06
593.10	0.00
593.26	0.00
593.41	16.38
593.57	28.09
593.73	4.68
593.89	51.49
594.05	18.72
594.20	4.68
594.36	28.09
594.52	9.36
594.68	16.38
594.84	21.06
594.99	39.79
595.15	0.00
595.31	2.34
595.47	0.00
595.62	91.28
595.78	70.22
595.94	35.11
596.10	2.34
596.25	42.13
596.41	42.13
596.57	53.83
596.73	79.58
596.88	30.43
597.04	39.79
597.20	23.41
597.36	28.09
597.51	86.60
597.67	84.26
597.83	56.17
597.99	46.81
598.14	18.72
598.30	53.83
598.46	65.54
598.61	51.49
598.77	60.85
598.93	11.70
599.09	25.75
599.24	58.51
599.40	37.45
599.56	60.85
599.71	84.26
599.87	16.38
600.03	9.36
600.18	23.41
600.34	70.22
600.50	14.04
600.65	30.43
600.81	39.79
600.97	21.06
601.12	11.70
601.28	28.09
601.44	84.26
601.59	56.17
601.75	56.17
601.91	0.00
602.06	46.81
602.22	84.26
602.37	100.64
602.53	14.04
602.69	72.56
602.84	86.60
603.00	67.88
603.16	67.88
603.31	44.47
603.47	49.15
603.62	39.79
603.78	4.68
603.94	21.06
604.09	14.04
604.25	32.77
604.40	28.09
604.56	56.17
604.71	0.00
604.87	0.00
605.03	77.24
605.18	84.26
605.34	67.88
605.49	32.77
605.65	112.35
605.80	79.58
605.96	95.96
606.12	14.04
606.27	93.62
606.43	25.75
606.58	35.11
606.74	70.22
606.89	11.70
607.05	37.45
607.20	105.32
607.36	53.83
607.51	0.00
607.67	0.00
607.82	0.00
607.98	91.28
608.13	63.19
608.29	70.22
608.44	16.38
608.60	44.47
608.75	86.60
608.91	23.41
609.06	11.70
609.22	39.79
609.37	121.71
609.53	25.75
609.68	100.64
609.84	105.32
609.99	0.00
610.15	88.94
610.30	42.13
610.46	53.83
610.61	77.24
610.76	0.00
610.92	14.04
611.07	72.56
611.23	32.77
611.38	46.81
611.54	16.38
611.69	56.17
611.84	46.81
612.00	44.47
612.15	7.02
612.31	39.79
612.46	4.68
612.62	0.00
612.77	0.00
612.92	70.22
613.08	46.81
613.23	77.24
613.39	25.75
613.54	28.09
613.69	110.01
613.85	51.49
614.00	18.72
614.15	30.43
614.31	0.00
614.46	11.70
614.62	46.81
614.77	11.70
614.92	74.90
615.08	16.38
615.23	88.94
615.38	25.75
615.54	100.64
615.69	100.64
615.84	51.49
616.00	25.75
616.15	32.77
616.30	65.54
616.46	114.69
616.61	58.51
616.76	0.00
616.92	7.02
617.07	77.24
617.22	30.43
617.37	128.73
617.53	0.00
617.68	49.15
617.83	0.00
617.99	39.79
618.14	42.13
618.29	44.47
618.45	32.77
618.60	67.88
618.75	32.77
618.90	16.38
619.06	11.70
619.21	0.00
619.36	79.58
619.51	23.41
619.67	53.83
619.82	14.04
619.97	44.47
620.12	44.47
620.28	102.98
620.43	16.38
620.58	16.38
620.73	25.75
620.89	51.49
621.04	14.04
621.19	105.32
621.34	63.19
621.49	84.26
621.65	4.68
621.80	42.13
621.95	58.51
622.10	9.36
622.25	49.15
622.41	14.04
622.56	53.83
622.71	30.43
622.86	37.45
623.01	11.70
623.16	16.38
623.32	16.38
623.47	56.17
623.62	35.11
623.77	14.04
623.92	0.00
624.07	105.32
624.23	37.45
624.38	65.54
624.53	102.98
624.68	0.00
624.83	44.47
624.98	46.81
625.13	60.85
625.29	4.68
625.44	28.09
625.59	63.19
625.74	77.24
625.89	84.26
626.04	0.00
626.19	60.85
626.34	46.81
626.49	53.83
626.65	49.15
626.80	28.09
626.95	0.00
627.10	9.36
627.25	98.30
627.40	42.13
627.55	0.00
627.70	70.22
627.85	35.11
628.00	79.58
628.15	112.35
628.30	35.11
628.45	49.15
628.60	0.00
628.76	37.45
628.91	23.41
629.06	11.70
629.21	0.00
629.36	42.13
629.51	98.30
629.66	110.01
629.81	53.83
629.96	23.41
630.11	44.47
630.26	9.36
630.41	72.56
630.56	65.54
630.71	0.00
630.86	14.04
631.01	11.70
631.16	35.11
631.31	49.15
631.46	2.34
631.61	0.00
631.76	2.34
631.91	0.00
632.06	110.01
632.21	156.82
632.36	44.47
632.51	51.49
632.66	58.51
632.81	79.58
632.96	79.58
633.10	0.00
633.25	44.47
633.40	60.85
633.55	21.06
633.70	49.15
633.85	30.43
634.00	46.81
634.15	0.00
634.30	2.34
634.45	74.90
634.60	77.24
634.75	65.54
634.90	39.79
635.05	9.36
635.19	30.43
635.34	2.34
635.49	53.83
635.64	74.90
635.79	9.36
635.94	32.77
636.09	72.56
636.24	9.36
636.39	72.56
636.53	28.09
636.68	51.49
636.83	44.47
636.98	14.04
637.13	51.49
637.28	70.22
637.43	14.04
637.57	0.00
637.72	18.72
637.87	81.92
638.02	112.35
638.17	95.96
638.32	63.19
638.46	0.00
638.61	126.39
638.76	51.49
638.91	32.77
639.06	21.06
639.20	7.02
639.35	23.41
639.50	74.90
639.65	60.85
639.80	2.34
639.94	88.94
640.09	28.09
640.24	44.47
640.39	74.90
640.54	37.45
640.68	0.00
640.83	35.11
640.98	32.77
641.13	60.85
641.27	81.92
641.42	67.88
641.57	23.41
641.72	18.72
641.86	53.83
642.01	7.02
642.16	21.06
642.31	42.13
642.45	32.77
642.60	30.43
642.75	91.28
642.90	70.22
643.04	46.81
643.19	51.49
643.34	32.77
643.48	65.54
643.63	114.69
643.78	42.13
643.93	30.43
644.07	32.77
644.22	93.62
644.37	46.81
644.51	32.77
644.66	30.43
644.81	0.00
644.95	88.94
645.10	67.88
645.25	7.02
645.39	0.00
645.54	23.41
645.69	9.36
645.83	14.04
645.98	35.11
646.13	77.24
646.27	42.13
646.42	14.04
646.57	39.79
646.71	65.54
646.86	0.00
647.00	0.00
647.15	46.81
647.30	117.03
647.44	37.45
647.59	25.75
647.74	0.00
647.88	0.00
648.03	30.43
648.17	84.26
648.32	93.62
648.47	60.85
648.61	7.02
648.76	32.77
648.90	88.94
649.05	65.54
649.20	28.09
649.34	0.00
649.49	2.34
649.63	37.45
649.78	100.64
649.92	46.81
650.07	35.11
650.21	74.90
650.36	95.96
650.51	16.38
650.65	32.77
650.80	58.51
650.94	37.45
651.09	93.62
651.23	0.00
651.38	7.02
651.52	0.00
651.67	18.72
651.81	74.90
651.96	35.11
652.10	30.43
652.25	74.90
652.39	0.00
652.54	0.00
652.68	11.70
652.83	105.32
652.97	32.77
653.12	14.04
653.26	112.35
653.41	74.90
653.55	53.83
653.70	93.62
653.84	9.36
653.99	28.09
654.13	0.00
654.27	98.30
654.42	0.00
654.56	32.77
654.71	18.72
654.85	0.00
655.00	84.26
655.14	30.43
655.29	114.69
655.43	58.51
655.57	67.88
655.72	58.51
655.86	0.00
656.01	53.83
656.15	23.41
656.30	0.00
656.44	35.11
656.58	21.06
656.73	16.38
656.87	53.83
657.01	42.13
657.16	25.75
657.30	23.41
657.45	0.00
657.59	0.00
657.73	77.24
657.88	60.85
658.02	100.64
658.16	58.51
658.31	14.04
658.45	117.03
658.60	0.00
658.74	11.70
658.88	58.51
659.03	81.92
659.17	0.00
659.31	16.38
659.46	30.43
659.60	0.00
659.74	65.54
659.89	32.77
660.03	51.49
660.17	0.00
660.32	0.00
660.46	18.72
660.60	4.68
660.74	0.00
660.89	77.24
661.03	60.85
661.17	44.47
661.32	23.41
661.46	0.00
661.60	65.54
661.74	51.49
661.89	18.72
662.03	2.34
662.17	32.77
662.31	63.19
662.46	77.24
662.60	23.41
662.74	23.41
662.88	86.60
663.03	18.72
663.17	37.45
663.31	25.75
663.45	126.39
663.60	0.00
663.74	0.00
663.88	63.19
664.02	7.02
664.17	37.45
664.31	35.11
664.45	35.11
664.59	56.17
664.73	11.70
664.88	70.22
665.02	11.70
665.16	0.00
665.30	67.88
665.44	84.26
665.59	0.00
665.73	32.77
665.87	95.96
666.01	11.70
666.15	67.88
666.29	0.00
666.44	0.00
666.58	72.56
666.72	28.09
666.86	7.02
667.00	44.47
667.14	0.00
667.28	51.49
667.43	35.11
667.57	67.88
667.71	0.00
667.85	23.41
667.99	0.00
668.13	14.04
668.27	18.72
668.41	0.00
668.56	65.54
668.70	35.11
668.84	0.00
668.98	65.54
669.12	0.00
669.26	11.70
669.40	74.90
669.54	14.04
669.68	93.62
669.82	77.24
669.96	0.00
670.10	35.11
670.25	11.70
670.39	86.60
670.53	58.51
670.67	49.15
670.81	28.09
670.95	0.00
671.09	70.22
671.23	77.24
671.37	0.00
671.51	56.17
671.65	14.04
671.79	23.41
671.93	42.13
672.07	0.00
672.21	102.98
672.35	74.90
672.49	28.09
672.63	18.72
672.77	56.17
672.91	0.00
673.05	42.13
673.19	28.09
673.33	72.56
673.47	60.85
673.61	70.22
673.75	49.15
673.89	70.22
674.03	65.54
674.17	102.98
674.31	65.54
674.45	95.96
674.59	63.19
674.73	53.83
674.87	42.13
675.01	37.45
675.15	0.00
675.29	23.41
675.43	18.72
675.56	44.47
675.70	35.11
675.84	9.36
675.98	44.47
676.12	18.72
676.26	7.02
676.40	0.00
676.54	35.11
676.68	4.68
676.82	100.64
676.96	16.38
677.10	0.00
677.23	0.00
677.37	0.00
677.51	42.13
677.65	0.00
677.79	58.51
677.93	42.13
678.07	25.75
678.21	16.38
678.34	32.77
678.48	39.79
678.62	42.13
678.76	18.72
678.90	86.60
679.04	105.32
679.18	65.54
679.31	49.15
679.45	51.49
679.59	58.51
679.73	32.77
679.87	14.04
680.00	4.68
680.14	100.64
680.28	53.83
680.42	30.43
680.56	0.00
680.70	0.00
680.83	0.00
680.97	63.19
681.11	0.00
681.25	0.00
681.39	16.38
681.52	79.58
681.66	7.02
681.80	0.00
681.94	42.13
682.07	23.41
682.21	35.11
682.35	91.28
682.49	70.22
682.62	81.92
682.76	0.00
682.90	110.01
683.04	84.26
683.17	67.88
683.31	51.49
683.45	58.51
683.59	70.22
683.72	84.26
683.86	0.00
684.00	0.00
684.13	112.35
684.27	0.00
684.41	4.68
684.55	30.43
684.68	0.00
684.82	0.00
684.96	74.90
685.09	67.88
685.23	7.02
685.37	11.70
685.50	51.49
685.64	32.77
685.78	95.96
685.91	4.68
686.05	0.00
686.19	16.38
686.32	37.45
686.46	72.56
686.60	37.45
686.73	126.39
686.87	81.92
687.01	114.69
687.14	60.85
687.28	46.81
687.42	0.00
687.55	42.13
687.69	21.06
687.82	53.83
687.96	18.72
688.10	32.77
688.23	0.00
688.37	14.04
688.50	7.02
688.64	81.92
688.78	42.13
688.91	14.04
689.05	0.00
689.18	42.13
689.32	35.11
689.46	0.00
689.59	28.09
689.73	58.51
689.86	79.58
690.00	25.75
690.13	44.47
690.27	14.04
690.41	0.00
690.54	72.56
690.68	37.45
690.81	77.24
690.95	0.00
691.08	18.72
691.22	44.47
691.35	32.77
691.49	0.00
691.62	30.43
691.76	18.72
691.89	72.56
692.03	0.00
692.16	0.00
692.30	18.72
692.43	4.68
692.57	0.00
692.70	44.47
692.84	25.75
692.97	25.75
693.11	44.47
693.24	37.45
693.38	0.00
693.51	23.41
693.65	60.85
693.78	21.06
693.92	0.00
694.05	0.00
694.19	67.88
694.32	51.49
694.45	25.75
694.59	56.17
694.72	56.17
694.86	0.00
694.99	35.11
695.13	30.43
695.26	74.90
695.39	0.00
695.53	21.06
695.66	0.00
695.80	56.17
695.93	53.83
696.07	28.09
696.20	0.00
696.33	72.56
696.47	51.49
696.60	37.45
696.73	56.17
696.87	42.13
697.00	37.45
697.14	44.47
697.27	23.41
697.40	46.81
697.54	18.72
697.67	51.49
697.80	39.79
697.94	14.04
698.07	49.15
698.21	18.72
698.34	23.41
698.47	39.79
698.61	51.49
698.74	28.09
698.87	42.13
699.01	0.00
699.14	100.64
699.27	0.00
699.40	51.49
699.54	0.00
699.67	74.90
699.80	49.15
699.94	0.00
700.07	0.00
700.20	77.24
700.34	16.38
700.47	67.88
700.60	0.00
700.73	70.22
700.87	60.85
701.00	0.00
701.13	0.00
701.26	0.00
701.40	14.04
701.53	35.11
701.66	16.38
701.79	42.13
701.93	49.15
702.06	74.90
702.19	37.45
702.32	18.72
702.46	25.75
702.59	0.00
702.72	0.00
702.85	23.41
702.99	44.47
703.12	21.06
703.25	58.51
703.38	100.64
703.51	53.83
703.65	21.06
703.78	0.00
703.91	44.47
704.04	11.70
704.17	25.75
704.31	4.68
704.44	4.68
704.57	67.88
704.70	0.00
704.83	42.13
704.96	21.06
705.10	42.13
705.23	65.54
>>>>>End Processed Spectral Data<<<<<
