SpectraSuite Data File
++++++++++++++++++++++++++++++++++++
Date: Fri Oct 04 12:13:26 GMT-05:00 2013
User: price-jones
Dark Spectrum Present: No
Reference Spectrum Present: No
Number of Sampled Component Spectra: 1
Spectrometers: USB2+H05261
Integration Time (usec): 10000 (USB2+H05261)
Spectra Averaged: 1 (USB2+H05261)
Boxcar Smoothing: 0 (USB2+H05261)
Correct for Electrical Dark: No (USB2+H05261)
Strobe/Lamp Enabled: No (USB2+H05261)
Correct for Detector Non-linearity: No (USB2+H05261)
Correct for Stray Light: No (USB2+H05261)
Number of Pixels in Processed Spectrum: 2048
>>>>>Begin Processed Spectral Data<<<<<
365.73	0.00
365.92	0.00
366.12	0.00
366.32	0.00
366.52	0.00
366.72	0.00
366.91	0.00
367.11	0.00
367.31	0.00
367.51	0.00
367.70	0.00
367.90	0.00
368.10	0.00
368.30	0.00
368.49	0.00
368.69	0.00
368.89	0.00
369.09	0.00
369.28	0.00
369.48	0.00
369.68	0.00
369.87	0.00
370.07	0.00
370.27	0.00
370.47	0.00
370.66	0.00
370.86	0.00
371.06	9.36
371.25	0.00
371.45	0.00
371.65	0.00
371.84	0.00
372.04	0.00
372.24	46.81
372.44	23.41
372.63	18.72
372.83	25.75
373.03	7.02
373.22	0.00
373.42	84.26
373.62	0.00
373.81	0.00
374.01	0.00
374.21	16.38
374.40	28.09
374.60	79.58
374.79	0.00
374.99	25.75
375.19	28.09
375.38	32.77
375.58	30.43
375.78	16.38
375.97	46.81
376.17	53.83
376.37	14.04
376.56	4.68
376.76	23.41
376.95	93.62
377.15	11.70
377.35	56.17
377.54	0.00
377.74	4.68
377.93	7.02
378.13	58.51
378.33	9.36
378.52	35.11
378.72	7.02
378.91	112.35
379.11	53.83
379.31	44.47
379.50	0.00
379.70	14.04
379.89	32.77
380.09	32.77
380.28	4.68
380.48	81.92
380.68	0.00
380.87	32.77
381.07	51.49
381.26	0.00
381.46	0.00
381.65	4.68
381.85	0.00
382.04	42.13
382.24	30.43
382.43	0.00
382.63	0.00
382.83	7.02
383.02	14.04
383.22	4.68
383.41	56.17
383.61	32.77
383.80	32.77
384.00	2.34
384.19	77.24
384.39	16.38
384.58	0.00
384.78	67.88
384.97	0.00
385.17	0.00
385.36	86.60
385.56	28.09
385.75	14.04
385.95	0.00
386.14	56.17
386.34	58.51
386.53	77.24
386.72	0.00
386.92	4.68
387.11	14.04
387.31	32.77
387.50	0.00
387.70	0.00
387.89	56.17
388.09	0.00
388.28	0.00
388.48	0.00
388.67	11.70
388.86	0.00
389.06	37.45
389.25	42.13
389.45	0.00
389.64	23.41
389.84	72.56
390.03	0.00
390.22	7.02
390.42	11.70
390.61	53.83
390.81	0.00
391.00	9.36
391.19	7.02
391.39	18.72
391.58	30.43
391.78	21.06
391.97	28.09
392.16	28.09
392.36	42.13
392.55	7.02
392.75	39.79
392.94	0.00
393.13	9.36
393.33	100.64
393.52	2.34
393.71	0.00
393.91	0.00
394.10	23.41
394.29	0.00
394.49	63.19
394.68	32.77
394.88	37.45
395.07	81.92
395.26	18.72
395.46	9.36
395.65	0.00
395.84	128.73
396.04	0.00
396.23	51.49
396.42	74.90
396.62	39.79
396.81	65.54
397.00	77.24
397.19	18.72
397.39	53.83
397.58	49.15
397.77	81.92
397.97	0.00
398.16	0.00
398.35	0.00
398.55	4.68
398.74	44.47
398.93	0.00
399.12	72.56
399.32	0.00
399.51	74.90
399.70	46.81
399.90	0.00
400.09	0.00
400.28	0.00
400.47	86.60
400.67	7.02
400.86	56.17
401.05	46.81
401.24	46.81
401.44	74.90
401.63	51.49
401.82	84.26
402.01	0.00
402.21	0.00
402.40	4.68
402.59	128.73
402.78	23.41
402.97	42.13
403.17	9.36
403.36	72.56
403.55	0.00
403.74	16.38
403.93	42.13
404.13	0.00
404.32	18.72
404.51	30.43
404.70	74.90
404.89	42.13
405.09	4.68
405.28	21.06
405.47	37.45
405.66	67.88
405.85	21.06
406.05	53.83
406.24	14.04
406.43	14.04
406.62	42.13
406.81	0.00
407.00	7.02
407.20	0.00
407.39	0.00
407.58	0.00
407.77	100.64
407.96	32.77
408.15	0.00
408.34	0.00
408.54	0.00
408.73	11.70
408.92	16.38
409.11	2.34
409.30	67.88
409.49	21.06
409.68	63.19
409.87	49.15
410.07	16.38
410.26	70.22
410.45	30.43
410.64	60.85
410.83	4.68
411.02	53.83
411.21	18.72
411.40	21.06
411.59	53.83
411.78	39.79
411.98	84.26
412.17	49.15
412.36	18.72
412.55	23.41
412.74	0.00
412.93	14.04
413.12	9.36
413.31	88.94
413.50	7.02
413.69	44.47
413.88	14.04
414.07	49.15
414.26	21.06
414.45	84.26
414.64	0.00
414.83	0.00
415.02	46.81
415.22	25.75
415.41	37.45
415.60	14.04
415.79	35.11
415.98	0.00
416.17	0.00
416.36	0.00
416.55	16.38
416.74	46.81
416.93	39.79
417.12	35.11
417.31	98.30
417.50	2.34
417.69	51.49
417.88	23.41
418.07	114.69
418.26	110.01
418.45	0.00
418.64	100.64
418.83	4.68
419.02	28.09
419.21	7.02
419.39	58.51
419.58	0.00
419.77	46.81
419.96	30.43
420.15	4.68
420.34	98.30
420.53	7.02
420.72	112.35
420.91	25.75
421.10	39.79
421.29	60.85
421.48	4.68
421.67	14.04
421.86	0.00
422.05	0.00
422.24	4.68
422.43	79.58
422.61	9.36
422.80	35.11
422.99	0.00
423.18	0.00
423.37	14.04
423.56	42.13
423.75	44.47
423.94	0.00
424.13	25.75
424.32	0.00
424.50	91.28
424.69	14.04
424.88	60.85
425.07	18.72
425.26	16.38
425.45	11.70
425.64	32.77
425.83	46.81
426.01	28.09
426.20	72.56
426.39	0.00
426.58	51.49
426.77	23.41
426.96	77.24
427.15	0.00
427.33	7.02
427.52	39.79
427.71	0.00
427.90	0.00
428.09	7.02
428.28	44.47
428.46	88.94
428.65	86.60
428.84	0.00
429.03	42.13
429.22	60.85
429.40	0.00
429.59	30.43
429.78	7.02
429.97	16.38
430.16	11.70
430.34	77.24
430.53	0.00
430.72	74.90
430.91	23.41
431.10	0.00
431.28	2.34
431.47	91.28
431.66	46.81
431.85	58.51
432.03	44.47
432.22	37.45
432.41	0.00
432.60	49.15
432.79	14.04
432.97	63.19
433.16	28.09
433.35	70.22
433.54	39.79
433.72	0.00
433.91	0.00
434.10	58.51
434.28	42.13
434.47	0.00
434.66	0.00
434.85	32.77
435.03	37.45
435.22	91.28
435.41	46.81
435.59	0.00
435.78	42.13
435.97	39.79
436.16	0.00
436.34	2.34
436.53	58.51
436.72	30.43
436.90	23.41
437.09	30.43
437.28	32.77
437.46	77.24
437.65	23.41
437.84	0.00
438.02	58.51
438.21	65.54
438.40	0.00
438.58	16.38
438.77	32.77
438.96	0.00
439.14	110.01
439.33	7.02
439.52	0.00
439.70	32.77
439.89	9.36
440.08	0.00
440.26	91.28
440.45	0.00
440.63	0.00
440.82	0.00
441.01	0.00
441.19	0.00
441.38	79.58
441.57	39.79
441.75	46.81
441.94	11.70
442.12	0.00
442.31	32.77
442.50	0.00
442.68	65.54
442.87	63.19
443.05	0.00
443.24	0.00
443.43	65.54
443.61	74.90
443.80	44.47
443.98	32.77
444.17	46.81
444.35	37.45
444.54	0.00
444.73	46.81
444.91	11.70
445.10	0.00
445.28	0.00
445.47	0.00
445.65	53.83
445.84	0.00
446.02	25.75
446.21	56.17
446.39	51.49
446.58	25.75
446.77	7.02
446.95	70.22
447.14	30.43
447.32	9.36
447.51	95.96
447.69	2.34
447.88	2.34
448.06	51.49
448.25	46.81
448.43	30.43
448.62	0.00
448.80	9.36
448.99	58.51
449.17	46.81
449.36	32.77
449.54	77.24
449.73	30.43
449.91	30.43
450.10	2.34
450.28	25.75
450.46	51.49
450.65	0.00
450.83	0.00
451.02	23.41
451.20	0.00
451.39	14.04
451.57	16.38
451.76	9.36
451.94	84.26
452.13	2.34
452.31	0.00
452.49	56.17
452.68	0.00
452.86	2.34
453.05	0.00
453.23	7.02
453.42	0.00
453.60	114.69
453.78	0.00
453.97	37.45
454.15	11.70
454.34	0.00
454.52	14.04
454.70	7.02
454.89	53.83
455.07	112.35
455.26	39.79
455.44	30.43
455.62	0.00
455.81	46.81
455.99	65.54
456.17	7.02
456.36	0.00
456.54	0.00
456.73	0.00
456.91	39.79
457.09	65.54
457.28	60.85
457.46	0.00
457.64	79.58
457.83	119.37
458.01	84.26
458.19	63.19
458.38	0.00
458.56	0.00
458.74	0.00
458.93	95.96
459.11	63.19
459.29	37.45
459.48	63.19
459.66	65.54
459.84	51.49
460.03	16.38
460.21	0.00
460.39	49.15
460.57	35.11
460.76	70.22
460.94	23.41
461.12	77.24
461.31	0.00
461.49	0.00
461.67	63.19
461.85	65.54
462.04	42.13
462.22	72.56
462.40	0.00
462.59	60.85
462.77	21.06
462.95	0.00
463.13	32.77
463.32	2.34
463.50	0.00
463.68	77.24
463.86	35.11
464.05	67.88
464.23	39.79
464.41	0.00
464.59	39.79
464.78	4.68
464.96	16.38
465.14	70.22
465.32	35.11
465.50	0.00
465.69	65.54
465.87	65.54
466.05	21.06
466.23	86.60
466.41	49.15
466.60	14.04
466.78	7.02
466.96	56.17
467.14	32.77
467.32	21.06
467.51	14.04
467.69	0.00
467.87	7.02
468.05	39.79
468.23	58.51
468.41	67.88
468.60	70.22
468.78	65.54
468.96	28.09
469.14	49.15
469.32	9.36
469.50	28.09
469.69	51.49
469.87	30.43
470.05	60.85
470.23	42.13
470.41	37.45
470.59	30.43
470.77	0.00
470.95	0.00
471.14	28.09
471.32	42.13
471.50	32.77
471.68	0.00
471.86	35.11
472.04	51.49
472.22	0.00
472.40	0.00
472.58	9.36
472.77	30.43
472.95	25.75
473.13	72.56
473.31	77.24
473.49	72.56
473.67	0.00
473.85	23.41
474.03	51.49
474.21	58.51
474.39	0.00
474.57	7.02
474.75	0.00
474.93	0.00
475.12	0.00
475.30	14.04
475.48	53.83
475.66	56.17
475.84	21.06
476.02	18.72
476.20	0.00
476.38	49.15
476.56	0.00
476.74	0.00
476.92	23.41
477.10	42.13
477.28	35.11
477.46	0.00
477.64	72.56
477.82	21.06
478.00	0.00
478.18	9.36
478.36	35.11
478.54	51.49
478.72	32.77
478.90	72.56
479.08	107.66
479.26	0.00
479.44	16.38
479.62	35.11
479.80	79.58
479.98	44.47
480.16	28.09
480.34	0.00
480.52	56.17
480.70	60.85
480.88	18.72
481.06	56.17
481.24	58.51
481.41	0.00
481.59	49.15
481.77	56.17
481.95	35.11
482.13	107.66
482.31	39.79
482.49	0.00
482.67	0.00
482.85	60.85
483.03	0.00
483.21	14.04
483.39	67.88
483.57	84.26
483.74	30.43
483.92	51.49
484.10	32.77
484.28	21.06
484.46	56.17
484.64	0.00
484.82	2.34
485.00	25.75
485.18	81.92
485.35	88.94
485.53	86.60
485.71	0.00
485.89	14.04
486.07	39.79
486.25	86.60
486.43	39.79
486.61	7.02
486.78	60.85
486.96	0.00
487.14	86.60
487.32	44.47
487.50	25.75
487.68	58.51
487.85	30.43
488.03	32.77
488.21	21.06
488.39	0.00
488.57	21.06
488.75	37.45
488.92	81.92
489.10	16.38
489.28	0.00
489.46	0.00
489.64	21.06
489.81	30.43
489.99	46.81
490.17	25.75
490.35	39.79
490.53	63.19
490.70	16.38
490.88	79.58
491.06	37.45
491.24	81.92
491.41	72.56
491.59	4.68
491.77	2.34
491.95	70.22
492.13	18.72
492.30	0.00
492.48	53.83
492.66	23.41
492.84	32.77
493.01	25.75
493.19	23.41
493.37	51.49
493.54	16.38
493.72	11.70
493.90	23.41
494.08	21.06
494.25	35.11
494.43	23.41
494.61	0.00
494.79	0.00
494.96	30.43
495.14	16.38
495.32	79.58
495.49	60.85
495.67	37.45
495.85	30.43
496.02	98.30
496.20	56.17
496.38	0.00
496.55	28.09
496.73	28.09
496.91	74.90
497.09	32.77
497.26	11.70
497.44	25.75
497.62	11.70
497.79	37.45
497.97	70.22
498.14	35.11
498.32	46.81
498.50	98.30
498.67	60.85
498.85	0.00
499.03	72.56
499.20	14.04
499.38	35.11
499.56	0.00
499.73	42.13
499.91	70.22
500.08	42.13
500.26	67.88
500.44	0.00
500.61	18.72
500.79	100.64
500.97	77.24
501.14	28.09
501.32	102.98
501.49	74.90
501.67	81.92
501.84	32.77
502.02	63.19
502.20	23.41
502.37	16.38
502.55	60.85
502.72	42.13
502.90	44.47
503.07	32.77
503.25	9.36
503.43	86.60
503.60	74.90
503.78	65.54
503.95	44.47
504.13	23.41
504.30	60.85
504.48	70.22
504.65	46.81
504.83	30.43
505.01	86.60
505.18	9.36
505.36	32.77
505.53	46.81
505.71	44.47
505.88	72.56
506.06	79.58
506.23	16.38
506.41	60.85
506.58	46.81
506.76	11.70
506.93	44.47
507.11	53.83
507.28	0.00
507.46	0.00
507.63	21.06
507.81	0.00
507.98	0.00
508.16	0.00
508.33	30.43
508.50	39.79
508.68	30.43
508.85	79.58
509.03	44.47
509.20	0.00
509.38	37.45
509.55	30.43
509.73	67.88
509.90	11.70
510.08	46.81
510.25	28.09
510.42	32.77
510.60	16.38
510.77	0.00
510.95	51.49
511.12	16.38
511.30	28.09
511.47	28.09
511.64	58.51
511.82	98.30
511.99	81.92
512.17	56.17
512.34	124.05
512.51	77.24
512.69	65.54
512.86	65.54
513.04	49.15
513.21	77.24
513.38	51.49
513.56	11.70
513.73	37.45
513.90	21.06
514.08	100.64
514.25	53.83
514.43	35.11
514.60	0.00
514.77	0.00
514.95	0.00
515.12	21.06
515.29	21.06
515.47	70.22
515.64	63.19
515.81	98.30
515.99	30.43
516.16	25.75
516.33	16.38
516.51	42.13
516.68	88.94
516.85	58.51
517.03	0.00
517.20	56.17
517.37	0.00
517.54	16.38
517.72	30.43
517.89	51.49
518.06	39.79
518.24	114.69
518.41	25.75
518.58	46.81
518.75	0.00
518.93	56.17
519.10	119.37
519.27	35.11
519.45	91.28
519.62	67.88
519.79	0.00
519.96	60.85
520.14	63.19
520.31	70.22
520.48	84.26
520.65	126.39
520.83	0.00
521.00	70.22
521.17	63.19
521.34	81.92
521.52	0.00
521.69	65.54
521.86	18.72
522.03	110.01
522.20	72.56
522.38	0.00
522.55	0.00
522.72	32.77
522.89	49.15
523.07	9.36
523.24	46.81
523.41	0.00
523.58	28.09
523.75	28.09
523.92	39.79
524.10	25.75
524.27	65.54
524.44	79.58
524.61	53.83
524.78	46.81
524.96	53.83
525.13	56.17
525.30	72.56
525.47	35.11
525.64	42.13
525.81	7.02
525.98	79.58
526.16	9.36
526.33	65.54
526.50	25.75
526.67	0.00
526.84	18.72
527.01	0.00
527.18	23.41
527.36	56.17
527.53	18.72
527.70	56.17
527.87	28.09
528.04	46.81
528.21	51.49
528.38	25.75
528.55	51.49
528.72	86.60
528.89	39.79
529.07	0.00
529.24	0.00
529.41	0.00
529.58	0.00
529.75	51.49
529.92	67.88
530.09	86.60
530.26	60.85
530.43	58.51
530.60	0.00
530.77	72.56
530.94	14.04
531.11	93.62
531.28	51.49
531.46	77.24
531.63	63.19
531.80	42.13
531.97	65.54
532.14	21.06
532.31	0.00
532.48	95.96
532.65	159.16
532.82	98.30
532.99	102.98
533.16	100.64
533.33	30.43
533.50	35.11
533.67	0.00
533.84	42.13
534.01	35.11
534.18	110.01
534.35	88.94
534.52	14.04
534.69	79.58
534.86	0.00
535.03	56.17
535.20	28.09
535.37	46.81
535.54	39.79
535.71	107.66
535.88	32.77
536.05	91.28
536.22	2.34
536.38	65.54
536.55	28.09
536.72	53.83
536.89	44.47
537.06	21.06
537.23	60.85
537.40	88.94
537.57	25.75
537.74	44.47
537.91	107.66
538.08	42.13
538.25	18.72
538.42	81.92
538.59	42.13
538.75	25.75
538.92	37.45
539.09	86.60
539.26	65.54
539.43	35.11
539.60	79.58
539.77	42.13
539.94	2.34
540.11	32.77
540.28	42.13
540.44	32.77
540.61	18.72
540.78	2.34
540.95	30.43
541.12	63.19
541.29	72.56
541.46	74.90
541.62	0.00
541.79	0.00
541.96	11.70
542.13	44.47
542.30	32.77
542.47	44.47
542.63	32.77
542.80	25.75
542.97	0.00
543.14	11.70
543.31	156.82
543.48	30.43
543.64	4.68
543.81	7.02
543.98	25.75
544.15	4.68
544.32	21.06
544.48	16.38
544.65	0.00
544.82	0.00
544.99	0.00
545.16	79.58
545.32	58.51
545.49	81.92
545.66	0.00
545.83	0.00
546.00	39.79
546.16	91.28
546.33	28.09
546.50	121.71
546.67	79.58
546.83	65.54
547.00	100.64
547.17	49.15
547.34	65.54
547.50	84.26
547.67	23.41
547.84	35.11
548.00	28.09
548.17	107.66
548.34	0.00
548.51	37.45
548.67	0.00
548.84	79.58
549.01	44.47
549.18	14.04
549.34	70.22
549.51	37.45
549.68	0.00
549.84	35.11
550.01	7.02
550.18	86.60
550.34	0.00
550.51	21.06
550.68	32.77
550.84	30.43
551.01	0.00
551.18	35.11
551.34	0.00
551.51	11.70
551.68	11.70
551.84	67.88
552.01	0.00
552.18	35.11
552.34	0.00
552.51	56.17
552.68	11.70
552.84	0.00
553.01	2.34
553.18	46.81
553.34	114.69
553.51	23.41
553.67	39.79
553.84	46.81
554.01	30.43
554.17	49.15
554.34	56.17
554.51	53.83
554.67	9.36
554.84	0.00
555.00	65.54
555.17	2.34
555.33	7.02
555.50	44.47
555.67	25.75
555.83	42.13
556.00	93.62
556.16	74.90
556.33	35.11
556.50	86.60
556.66	0.00
556.83	72.56
556.99	30.43
557.16	37.45
557.32	0.00
557.49	0.00
557.65	49.15
557.82	67.88
557.98	84.26
558.15	49.15
558.32	7.02
558.48	70.22
558.65	25.75
558.81	77.24
558.98	0.00
559.14	51.49
559.31	79.58
559.47	0.00
559.64	84.26
559.80	23.41
559.97	0.00
560.13	74.90
560.30	37.45
560.46	0.00
560.63	23.41
560.79	25.75
560.96	30.43
561.12	0.00
561.29	0.00
561.45	0.00
561.61	0.00
561.78	0.00
561.94	37.45
562.11	77.24
562.27	14.04
562.44	39.79
562.60	14.04
562.77	14.04
562.93	70.22
563.10	53.83
563.26	18.72
563.42	9.36
563.59	0.00
563.75	67.88
563.92	44.47
564.08	65.54
564.24	35.11
564.41	100.64
564.57	63.19
564.74	49.15
564.90	84.26
565.07	30.43
565.23	37.45
565.39	49.15
565.56	86.60
565.72	70.22
565.88	0.00
566.05	4.68
566.21	39.79
566.38	63.19
566.54	51.49
566.70	60.85
566.87	70.22
567.03	79.58
567.19	7.02
567.36	39.79
567.52	0.00
567.68	21.06
567.85	39.79
568.01	0.00
568.17	74.90
568.34	0.00
568.50	9.36
568.66	28.09
568.83	110.01
568.99	30.43
569.15	98.30
569.32	49.15
569.48	37.45
569.64	77.24
569.81	0.00
569.97	81.92
570.13	51.49
570.30	0.00
570.46	35.11
570.62	14.04
570.78	37.45
570.95	0.00
571.11	60.85
571.27	60.85
571.43	0.00
571.60	25.75
571.76	49.15
571.92	7.02
572.09	67.88
572.25	67.88
572.41	44.47
572.57	23.41
572.74	133.41
572.90	58.51
573.06	9.36
573.22	21.06
573.38	81.92
573.55	77.24
573.71	72.56
573.87	2.34
574.03	30.43
574.20	100.64
574.36	56.17
574.52	88.94
574.68	37.45
574.84	0.00
575.01	0.00
575.17	46.81
575.33	11.70
575.49	4.68
575.65	16.38
575.82	60.85
575.98	79.58
576.14	11.70
576.30	102.98
576.46	7.02
576.62	14.04
576.79	35.11
576.95	93.62
577.11	91.28
577.27	4.68
577.43	0.00
577.59	105.32
577.75	14.04
577.92	9.36
578.08	25.75
578.24	149.79
578.40	39.79
578.56	0.00
578.72	39.79
578.88	51.49
579.04	39.79
579.21	0.00
579.37	131.07
579.53	21.06
579.69	21.06
579.85	42.13
580.01	35.11
580.17	21.06
580.33	0.00
580.49	37.45
580.65	39.79
580.82	16.38
580.98	42.13
581.14	39.79
581.30	37.45
581.46	60.85
581.62	84.26
581.78	7.02
581.94	98.30
582.10	60.85
582.26	56.17
582.42	51.49
582.58	51.49
582.74	51.49
582.90	49.15
583.06	79.58
583.22	77.24
583.38	16.38
583.54	114.69
583.70	60.85
583.86	67.88
584.02	63.19
584.18	102.98
584.34	53.83
584.50	128.73
584.66	313.63
584.82	505.56
584.98	702.16
585.14	711.52
585.30	390.87
585.46	234.05
585.62	159.16
585.78	63.19
585.94	81.92
586.10	117.03
586.26	112.35
586.42	86.60
586.58	0.00
586.74	0.00
586.90	7.02
587.06	0.00
587.22	56.17
587.38	28.09
587.54	70.22
587.70	95.96
587.86	37.45
588.02	84.26
588.18	18.72
588.34	51.49
588.49	88.94
588.65	44.47
588.81	88.94
588.97	46.81
589.13	30.43
589.29	11.70
589.45	4.68
589.61	102.98
589.77	37.45
589.93	0.00
590.08	44.47
590.24	0.00
590.40	81.92
590.56	35.11
590.72	7.02
590.88	147.45
591.04	56.17
591.20	14.04
591.35	98.30
591.51	14.04
591.67	0.00
591.83	93.62
591.99	105.32
592.15	0.00
592.31	30.43
592.46	81.92
592.62	23.41
592.78	0.00
592.94	0.00
593.10	4.68
593.26	91.28
593.41	49.15
593.57	9.36
593.73	0.00
593.89	133.41
594.05	128.73
594.20	100.64
594.36	93.62
594.52	91.28
594.68	140.43
594.84	58.51
594.99	37.45
595.15	39.79
595.31	79.58
595.47	39.79
595.62	37.45
595.78	7.02
595.94	44.47
596.10	49.15
596.25	11.70
596.41	60.85
596.57	53.83
596.73	0.00
596.88	51.49
597.04	0.00
597.20	74.90
597.36	0.00
597.51	51.49
597.67	74.90
597.83	51.49
597.99	84.26
598.14	58.51
598.30	7.02
598.46	91.28
598.61	124.05
598.77	0.00
598.93	46.81
599.09	23.41
599.24	39.79
599.40	58.51
599.56	30.43
599.71	60.85
599.87	51.49
600.03	46.81
600.18	100.64
600.34	21.06
600.50	81.92
600.65	88.94
600.81	21.06
600.97	18.72
601.12	124.05
601.28	32.77
601.44	0.00
601.59	86.60
601.75	88.94
601.91	25.75
602.06	88.94
602.22	14.04
602.37	28.09
602.53	18.72
602.69	70.22
602.84	70.22
603.00	0.00
603.16	0.00
603.31	32.77
603.47	44.47
603.62	93.62
603.78	60.85
603.94	51.49
604.09	44.47
604.25	11.70
604.40	30.43
604.56	138.09
604.71	25.75
604.87	32.77
605.03	79.58
605.18	88.94
605.34	44.47
605.49	95.96
605.65	105.32
605.80	65.54
605.96	77.24
606.12	46.81
606.27	49.15
606.43	4.68
606.58	42.13
606.74	30.43
606.89	135.75
607.05	126.39
607.20	135.75
607.36	110.01
607.51	98.30
607.67	51.49
607.82	56.17
607.98	81.92
608.13	60.85
608.29	37.45
608.44	44.47
608.60	30.43
608.75	74.90
608.91	86.60
609.06	72.56
609.22	170.86
609.37	163.84
609.53	110.01
609.68	140.43
609.84	39.79
609.99	46.81
610.15	23.41
610.30	0.00
610.46	53.83
610.61	44.47
610.76	53.83
610.92	72.56
611.07	0.00
611.23	37.45
611.38	53.83
611.54	93.62
611.69	72.56
611.84	49.15
612.00	84.26
612.15	0.00
612.31	46.81
612.46	81.92
612.62	18.72
612.77	23.41
612.92	98.30
613.08	0.00
613.23	0.00
613.39	0.00
613.54	0.00
613.69	184.90
613.85	196.60
614.00	248.10
614.15	236.39
614.31	156.82
614.46	88.94
614.62	147.45
614.77	114.69
614.92	39.79
615.08	35.11
615.23	0.00
615.38	119.37
615.54	107.66
615.69	44.47
615.84	32.77
616.00	46.81
616.15	74.90
616.30	91.28
616.46	121.71
616.61	2.34
616.76	81.92
616.92	77.24
617.07	0.00
617.22	25.75
617.37	63.19
617.53	42.13
617.68	0.00
617.83	51.49
617.99	114.69
618.14	81.92
618.29	51.49
618.45	39.79
618.60	74.90
618.75	105.32
618.90	0.00
619.06	9.36
619.21	32.77
619.36	70.22
619.51	0.00
619.67	91.28
619.82	91.28
619.97	77.24
620.12	46.81
620.28	39.79
620.43	46.81
620.58	42.13
620.73	63.19
620.89	37.45
621.04	46.81
621.19	53.83
621.34	114.69
621.49	56.17
621.65	114.69
621.80	28.09
621.95	65.54
622.10	32.77
622.25	25.75
622.41	32.77
622.56	0.00
622.71	16.38
622.86	0.00
623.01	44.47
623.16	53.83
623.32	11.70
623.47	0.00
623.62	60.85
623.77	42.13
623.92	4.68
624.07	49.15
624.23	67.88
624.38	18.72
624.53	0.00
624.68	7.02
624.83	0.00
624.98	2.34
625.13	0.00
625.29	42.13
625.44	81.92
625.59	42.13
625.74	67.88
625.89	72.56
626.04	70.22
626.19	119.37
626.34	154.48
626.49	142.77
626.65	147.45
626.80	110.01
626.95	60.85
627.10	65.54
627.25	51.49
627.40	14.04
627.55	95.96
627.70	58.51
627.85	16.38
628.00	11.70
628.15	53.83
628.30	32.77
628.45	77.24
628.60	37.45
628.76	32.77
628.91	14.04
629.06	9.36
629.21	51.49
629.36	88.94
629.51	95.96
629.66	21.06
629.81	91.28
629.96	9.36
630.11	135.75
630.26	67.88
630.41	114.69
630.56	131.07
630.71	60.85
630.86	44.47
631.01	42.13
631.16	46.81
631.31	77.24
631.46	79.58
631.61	70.22
631.76	58.51
631.91	9.36
632.06	0.00
632.21	112.35
632.36	32.77
632.51	25.75
632.66	0.00
632.81	7.02
632.96	56.17
633.10	107.66
633.25	112.35
633.40	194.26
633.55	77.24
633.70	72.56
633.85	70.22
634.00	9.36
634.15	0.00
634.30	35.11
634.45	56.17
634.60	86.60
634.75	4.68
634.90	0.00
635.05	23.41
635.19	67.88
635.34	0.00
635.49	86.60
635.64	0.00
635.79	100.64
635.94	0.00
636.09	72.56
636.24	79.58
636.39	42.13
636.53	67.88
636.68	35.11
636.83	51.49
636.98	88.94
637.13	23.41
637.28	35.11
637.43	46.81
637.57	98.30
637.72	16.38
637.87	74.90
638.02	166.18
638.17	198.95
638.32	88.94
638.46	138.09
638.61	128.73
638.76	77.24
638.91	121.71
639.06	14.04
639.20	0.00
639.35	0.00
639.50	65.54
639.65	63.19
639.80	180.22
639.94	257.46
640.09	196.60
640.24	177.88
640.39	114.69
640.54	70.22
640.68	42.13
640.83	7.02
640.98	70.22
641.13	56.17
641.27	28.09
641.42	11.70
641.57	23.41
641.72	11.70
641.86	37.45
642.01	39.79
642.16	25.75
642.31	30.43
642.45	77.24
642.60	37.45
642.75	65.54
642.90	44.47
643.04	49.15
643.19	72.56
643.34	37.45
643.48	79.58
643.63	95.96
643.78	0.00
643.93	30.43
644.07	88.94
644.22	60.85
644.37	53.83
644.51	2.34
644.66	39.79
644.81	25.75
644.95	18.72
645.10	2.34
645.25	77.24
645.39	44.47
645.54	72.56
645.69	98.30
645.83	63.19
645.98	51.49
646.13	67.88
646.27	23.41
646.42	35.11
646.57	9.36
646.71	30.43
646.86	30.43
647.00	63.19
647.15	84.26
647.30	39.79
647.44	18.72
647.59	70.22
647.74	0.00
647.88	0.00
648.03	56.17
648.17	58.51
648.32	88.94
648.47	98.30
648.61	86.60
648.76	0.00
648.90	18.72
649.05	16.38
649.20	7.02
649.34	0.00
649.49	74.90
649.63	0.00
649.78	4.68
649.92	42.13
650.07	37.45
650.21	105.32
650.36	159.16
650.51	163.84
650.65	84.26
650.80	84.26
650.94	77.24
651.09	56.17
651.23	39.79
651.38	53.83
651.52	72.56
651.67	7.02
651.81	0.00
651.96	70.22
652.10	42.13
652.25	0.00
652.39	32.77
652.54	9.36
652.68	30.43
652.83	81.92
652.97	44.47
653.12	0.00
653.26	25.75
653.41	16.38
653.55	23.41
653.70	81.92
653.84	51.49
653.99	70.22
654.13	56.17
654.27	35.11
654.42	81.92
654.56	142.77
654.71	23.41
654.85	91.28
655.00	63.19
655.14	23.41
655.29	28.09
655.43	39.79
655.57	95.96
655.72	21.06
655.86	51.49
656.01	30.43
656.15	0.00
656.30	0.00
656.44	11.70
656.58	18.72
656.73	42.13
656.87	44.47
657.01	30.43
657.16	16.38
657.30	37.45
657.45	81.92
657.59	74.90
657.73	30.43
657.88	49.15
658.02	0.00
658.16	0.00
658.31	138.09
658.45	0.00
658.60	81.92
658.74	14.04
658.88	18.72
659.03	0.00
659.17	60.85
659.31	42.13
659.46	72.56
659.60	112.35
659.74	102.98
659.89	56.17
660.03	14.04
660.17	4.68
660.32	65.54
660.46	79.58
660.60	42.13
660.74	16.38
660.89	25.75
661.03	7.02
661.17	84.26
661.32	11.70
661.46	60.85
661.60	84.26
661.74	0.00
661.89	25.75
662.03	0.00
662.17	0.00
662.31	18.72
662.46	107.66
662.60	0.00
662.74	16.38
662.88	32.77
663.03	28.09
663.17	21.06
663.31	2.34
663.45	11.70
663.60	25.75
663.74	18.72
663.88	46.81
664.02	53.83
664.17	53.83
664.31	49.15
664.45	49.15
664.59	56.17
664.73	37.45
664.88	56.17
665.02	0.00
665.16	39.79
665.30	60.85
665.44	0.00
665.59	18.72
665.73	0.00
665.87	39.79
666.01	21.06
666.15	0.00
666.29	18.72
666.44	0.00
666.58	23.41
666.72	37.45
666.86	0.00
667.00	32.77
667.14	51.49
667.28	0.00
667.43	126.39
667.57	100.64
667.71	138.09
667.85	145.11
667.99	42.13
668.13	37.45
668.27	95.96
668.41	46.81
668.56	0.00
668.70	0.00
668.84	53.83
668.98	35.11
669.12	25.75
669.26	30.43
669.40	28.09
669.54	37.45
669.68	60.85
669.82	0.00
669.96	4.68
670.10	42.13
670.25	0.00
670.39	42.13
670.53	39.79
670.67	98.30
670.81	56.17
670.95	44.47
671.09	77.24
671.23	100.64
671.37	131.07
671.51	128.73
671.65	67.88
671.79	140.43
671.93	105.32
672.07	100.64
672.21	74.90
672.35	23.41
672.49	0.00
672.63	0.00
672.77	0.00
672.91	37.45
673.05	0.00
673.19	74.90
673.33	49.15
673.47	63.19
673.61	56.17
673.75	39.79
673.89	65.54
674.03	32.77
674.17	0.00
674.31	79.58
674.45	30.43
674.59	18.72
674.73	0.00
674.87	30.43
675.01	35.11
675.15	37.45
675.29	9.36
675.43	25.75
675.56	0.00
675.70	65.54
675.84	0.00
675.98	95.96
676.12	44.47
676.26	74.90
676.40	117.03
676.54	51.49
676.68	30.43
676.82	49.15
676.96	37.45
677.10	16.38
677.23	23.41
677.37	21.06
677.51	110.01
677.65	70.22
677.79	11.70
677.93	11.70
678.07	51.49
678.21	84.26
678.34	42.13
678.48	18.72
678.62	11.70
678.76	37.45
678.90	74.90
679.04	4.68
679.18	51.49
679.31	30.43
679.45	9.36
679.59	77.24
679.73	0.00
679.87	63.19
680.00	0.00
680.14	91.28
680.28	81.92
680.42	42.13
680.56	11.70
680.70	49.15
680.83	63.19
680.97	86.60
681.11	4.68
681.25	4.68
681.39	16.38
681.52	56.17
681.66	74.90
681.80	46.81
681.94	58.51
682.07	23.41
682.21	9.36
682.35	44.47
682.49	21.06
682.62	30.43
682.76	51.49
682.90	46.81
683.04	11.70
683.17	46.81
683.31	42.13
683.45	16.38
683.59	0.00
683.72	0.00
683.86	63.19
684.00	79.58
684.13	21.06
684.27	58.51
684.41	4.68
684.55	63.19
684.68	0.00
684.82	81.92
684.96	0.00
685.09	46.81
685.23	0.00
685.37	60.85
685.50	23.41
685.64	0.00
685.78	35.11
685.91	28.09
686.05	0.00
686.19	0.00
686.32	44.47
686.46	0.00
686.60	0.00
686.73	70.22
686.87	60.85
687.01	112.35
687.14	35.11
687.28	67.88
687.42	25.75
687.55	0.00
687.69	0.00
687.82	21.06
687.96	0.00
688.10	0.00
688.23	112.35
688.37	72.56
688.50	0.00
688.64	39.79
688.78	14.04
688.91	16.38
689.05	23.41
689.18	44.47
689.32	32.77
689.46	37.45
689.59	23.41
689.73	23.41
689.86	23.41
690.00	0.00
690.13	0.00
690.27	32.77
690.41	0.00
690.54	63.19
690.68	44.47
690.81	9.36
690.95	0.00
691.08	0.00
691.22	35.11
691.35	0.00
691.49	0.00
691.62	37.45
691.76	88.94
691.89	42.13
692.03	32.77
692.16	0.00
692.30	44.47
692.43	0.00
692.57	18.72
692.70	32.77
692.84	32.77
692.97	9.36
693.11	51.49
693.24	30.43
693.38	37.45
693.51	42.13
693.65	25.75
693.78	11.70
693.92	53.83
694.05	0.00
694.19	21.06
694.32	0.00
694.45	72.56
694.59	25.75
694.72	51.49
694.86	0.00
694.99	7.02
695.13	58.51
695.26	28.09
695.39	67.88
695.53	0.00
695.66	65.54
695.80	0.00
695.93	107.66
696.07	9.36
696.20	49.15
696.33	9.36
696.47	42.13
696.60	16.38
696.73	21.06
696.87	0.00
697.00	21.06
697.14	49.15
697.27	0.00
697.40	0.00
697.54	42.13
697.67	60.85
697.80	0.00
697.94	28.09
698.07	0.00
698.21	28.09
698.34	21.06
698.47	25.75
698.61	154.48
698.74	56.17
698.87	65.54
699.01	0.00
699.14	67.88
699.27	74.90
699.40	81.92
699.54	0.00
699.67	102.98
699.80	32.77
699.94	0.00
700.07	30.43
700.20	49.15
700.34	30.43
700.47	28.09
700.60	0.00
700.73	77.24
700.87	100.64
701.00	35.11
701.13	0.00
701.26	51.49
701.40	30.43
701.53	53.83
701.66	42.13
701.79	11.70
701.93	60.85
702.06	0.00
702.19	18.72
702.32	60.85
702.46	67.88
702.59	37.45
702.72	0.00
702.85	81.92
702.99	142.77
703.12	173.20
703.25	119.37
703.38	84.26
703.51	95.96
703.65	88.94
703.78	42.13
703.91	46.81
704.04	0.00
704.17	25.75
704.31	9.36
704.44	0.00
704.57	21.06
704.70	51.49
704.83	28.09
704.96	11.70
705.10	95.96
705.23	51.49
>>>>>End Processed Spectral Data<<<<<
