SpectraSuite Data File
++++++++++++++++++++++++++++++++++++
Date: Fri Oct 04 12:13:29 GMT-05:00 2013
User: price-jones
Dark Spectrum Present: No
Reference Spectrum Present: No
Number of Sampled Component Spectra: 1
Spectrometers: USB2+H05261
Integration Time (usec): 10000 (USB2+H05261)
Spectra Averaged: 1 (USB2+H05261)
Boxcar Smoothing: 0 (USB2+H05261)
Correct for Electrical Dark: No (USB2+H05261)
Strobe/Lamp Enabled: No (USB2+H05261)
Correct for Detector Non-linearity: No (USB2+H05261)
Correct for Stray Light: No (USB2+H05261)
Number of Pixels in Processed Spectrum: 2048
>>>>>Begin Processed Spectral Data<<<<<
365.73	0.00
365.92	0.00
366.12	0.00
366.32	0.00
366.52	0.00
366.72	0.00
366.91	0.00
367.11	0.00
367.31	0.00
367.51	0.00
367.70	0.00
367.90	0.00
368.10	0.00
368.30	0.00
368.49	0.00
368.69	0.00
368.89	0.00
369.09	0.00
369.28	0.00
369.48	0.00
369.68	0.00
369.87	0.00
370.07	0.00
370.27	0.00
370.47	0.00
370.66	0.00
370.86	0.00
371.06	0.00
371.25	0.00
371.45	72.56
371.65	30.43
371.84	44.47
372.04	0.00
372.24	0.00
372.44	0.00
372.63	46.81
372.83	0.00
373.03	4.68
373.22	0.00
373.42	42.13
373.62	49.15
373.81	0.00
374.01	35.11
374.21	9.36
374.40	7.02
374.60	70.22
374.79	42.13
374.99	79.58
375.19	65.54
375.38	102.98
375.58	28.09
375.78	9.36
375.97	32.77
376.17	37.45
376.37	9.36
376.56	74.90
376.76	53.83
376.95	0.00
377.15	67.88
377.35	23.41
377.54	0.00
377.74	0.00
377.93	7.02
378.13	39.79
378.33	23.41
378.52	0.00
378.72	42.13
378.91	14.04
379.11	56.17
379.31	95.96
379.50	58.51
379.70	44.47
379.89	11.70
380.09	105.32
380.28	11.70
380.48	86.60
380.68	44.47
380.87	49.15
381.07	46.81
381.26	30.43
381.46	16.38
381.65	44.47
381.85	0.00
382.04	21.06
382.24	14.04
382.43	0.00
382.63	7.02
382.83	0.00
383.02	0.00
383.22	0.00
383.41	35.11
383.61	28.09
383.80	30.43
384.00	0.00
384.19	0.00
384.39	0.00
384.58	67.88
384.78	25.75
384.97	32.77
385.17	56.17
385.36	30.43
385.56	37.45
385.75	2.34
385.95	23.41
386.14	0.00
386.34	9.36
386.53	0.00
386.72	86.60
386.92	4.68
387.11	21.06
387.31	65.54
387.50	65.54
387.70	0.00
387.89	60.85
388.09	63.19
388.28	18.72
388.48	0.00
388.67	0.00
388.86	25.75
389.06	0.00
389.25	0.00
389.45	37.45
389.64	28.09
389.84	18.72
390.03	30.43
390.22	0.00
390.42	28.09
390.61	11.70
390.81	0.00
391.00	60.85
391.19	0.00
391.39	9.36
391.58	0.00
391.78	30.43
391.97	42.13
392.16	0.00
392.36	58.51
392.55	65.54
392.75	18.72
392.94	30.43
393.13	39.79
393.33	0.00
393.52	56.17
393.71	37.45
393.91	63.19
394.10	4.68
394.29	0.00
394.49	28.09
394.68	0.00
394.88	0.00
395.07	49.15
395.26	0.00
395.46	32.77
395.65	0.00
395.84	65.54
396.04	25.75
396.23	7.02
396.42	0.00
396.62	53.83
396.81	35.11
397.00	9.36
397.19	72.56
397.39	0.00
397.58	0.00
397.77	21.06
397.97	16.38
398.16	21.06
398.35	0.00
398.55	42.13
398.74	88.94
398.93	56.17
399.12	18.72
399.32	126.39
399.51	72.56
399.70	0.00
399.90	0.00
400.09	65.54
400.28	53.83
400.47	56.17
400.67	53.83
400.86	42.13
401.05	0.00
401.24	16.38
401.44	4.68
401.63	0.00
401.82	4.68
402.01	4.68
402.21	0.00
402.40	49.15
402.59	56.17
402.78	0.00
402.97	60.85
403.17	46.81
403.36	63.19
403.55	7.02
403.74	60.85
403.93	32.77
404.13	46.81
404.32	14.04
404.51	102.98
404.70	28.09
404.89	14.04
405.09	16.38
405.28	28.09
405.47	56.17
405.66	30.43
405.85	9.36
406.05	0.00
406.24	30.43
406.43	63.19
406.62	35.11
406.81	39.79
407.00	63.19
407.20	0.00
407.39	30.43
407.58	0.00
407.77	0.00
407.96	0.00
408.15	18.72
408.34	0.00
408.54	46.81
408.73	21.06
408.92	28.09
409.11	0.00
409.30	21.06
409.49	0.00
409.68	79.58
409.87	0.00
410.07	102.98
410.26	25.75
410.45	0.00
410.64	0.00
410.83	0.00
411.02	0.00
411.21	18.72
411.40	44.47
411.59	58.51
411.78	21.06
411.98	60.85
412.17	35.11
412.36	32.77
412.55	0.00
412.74	0.00
412.93	37.45
413.12	53.83
413.31	42.13
413.50	0.00
413.69	7.02
413.88	0.00
414.07	0.00
414.26	98.30
414.45	11.70
414.64	70.22
414.83	72.56
415.02	32.77
415.22	60.85
415.41	16.38
415.60	0.00
415.79	88.94
415.98	0.00
416.17	63.19
416.36	84.26
416.55	0.00
416.74	100.64
416.93	9.36
417.12	0.00
417.31	14.04
417.50	7.02
417.69	21.06
417.88	79.58
418.07	49.15
418.26	35.11
418.45	77.24
418.64	28.09
418.83	81.92
419.02	72.56
419.21	0.00
419.39	79.58
419.58	77.24
419.77	0.00
419.96	39.79
420.15	88.94
420.34	7.02
420.53	28.09
420.72	49.15
420.91	77.24
421.10	88.94
421.29	0.00
421.48	18.72
421.67	56.17
421.86	65.54
422.05	0.00
422.24	35.11
422.43	0.00
422.61	95.96
422.80	128.73
422.99	14.04
423.18	16.38
423.37	51.49
423.56	9.36
423.75	25.75
423.94	86.60
424.13	53.83
424.32	32.77
424.50	23.41
424.69	0.00
424.88	65.54
425.07	2.34
425.26	7.02
425.45	25.75
425.64	0.00
425.83	18.72
426.01	58.51
426.20	0.00
426.39	25.75
426.58	35.11
426.77	53.83
426.96	32.77
427.15	23.41
427.33	51.49
427.52	28.09
427.71	4.68
427.90	46.81
428.09	30.43
428.28	60.85
428.46	100.64
428.65	28.09
428.84	0.00
429.03	44.47
429.22	37.45
429.40	4.68
429.59	23.41
429.78	9.36
429.97	0.00
430.16	2.34
430.34	23.41
430.53	32.77
430.72	0.00
430.91	30.43
431.10	49.15
431.28	67.88
431.47	58.51
431.66	42.13
431.85	86.60
432.03	74.90
432.22	56.17
432.41	0.00
432.60	56.17
432.79	0.00
432.97	142.77
433.16	0.00
433.35	0.00
433.54	0.00
433.72	65.54
433.91	14.04
434.10	39.79
434.28	11.70
434.47	0.00
434.66	30.43
434.85	21.06
435.03	51.49
435.22	79.58
435.41	23.41
435.59	25.75
435.78	51.49
435.97	25.75
436.16	11.70
436.34	46.81
436.53	42.13
436.72	60.85
436.90	65.54
437.09	46.81
437.28	28.09
437.46	0.00
437.65	0.00
437.84	25.75
438.02	0.00
438.21	67.88
438.40	18.72
438.58	39.79
438.77	23.41
438.96	23.41
439.14	14.04
439.33	70.22
439.52	35.11
439.70	70.22
439.89	84.26
440.08	49.15
440.26	60.85
440.45	42.13
440.63	74.90
440.82	53.83
441.01	9.36
441.19	9.36
441.38	0.00
441.57	74.90
441.75	35.11
441.94	28.09
442.12	0.00
442.31	14.04
442.50	65.54
442.68	49.15
442.87	18.72
443.05	81.92
443.24	9.36
443.43	25.75
443.61	44.47
443.80	0.00
443.98	28.09
444.17	32.77
444.35	49.15
444.54	37.45
444.73	74.90
444.91	77.24
445.10	0.00
445.28	91.28
445.47	58.51
445.65	53.83
445.84	0.00
446.02	72.56
446.21	91.28
446.39	0.00
446.58	67.88
446.77	88.94
446.95	11.70
447.14	0.00
447.32	86.60
447.51	95.96
447.69	0.00
447.88	79.58
448.06	0.00
448.25	21.06
448.43	37.45
448.62	0.00
448.80	58.51
448.99	11.70
449.17	77.24
449.36	39.79
449.54	35.11
449.73	0.00
449.91	65.54
450.10	67.88
450.28	0.00
450.46	98.30
450.65	21.06
450.83	37.45
451.02	25.75
451.20	42.13
451.39	25.75
451.57	16.38
451.76	58.51
451.94	72.56
452.13	95.96
452.31	42.13
452.49	67.88
452.68	53.83
452.86	105.32
453.05	77.24
453.23	32.77
453.42	0.00
453.60	0.00
453.78	112.35
453.97	88.94
454.15	28.09
454.34	49.15
454.52	60.85
454.70	79.58
454.89	23.41
455.07	0.00
455.26	107.66
455.44	23.41
455.62	21.06
455.81	0.00
455.99	37.45
456.17	18.72
456.36	0.00
456.54	18.72
456.73	58.51
456.91	25.75
457.09	0.00
457.28	16.38
457.46	0.00
457.64	16.38
457.83	21.06
458.01	72.56
458.19	0.00
458.38	98.30
458.56	105.32
458.74	0.00
458.93	56.17
459.11	58.51
459.29	2.34
459.48	23.41
459.66	39.79
459.84	49.15
460.03	74.90
460.21	63.19
460.39	63.19
460.57	74.90
460.76	28.09
460.94	44.47
461.12	60.85
461.31	21.06
461.49	21.06
461.67	0.00
461.85	21.06
462.04	7.02
462.22	58.51
462.40	16.38
462.59	18.72
462.77	39.79
462.95	0.00
463.13	0.00
463.32	25.75
463.50	9.36
463.68	91.28
463.86	30.43
464.05	81.92
464.23	25.75
464.41	44.47
464.59	46.81
464.78	9.36
464.96	35.11
465.14	7.02
465.32	133.41
465.50	77.24
465.69	49.15
465.87	2.34
466.05	44.47
466.23	32.77
466.41	49.15
466.60	0.00
466.78	11.70
466.96	81.92
467.14	14.04
467.32	39.79
467.51	67.88
467.69	7.02
467.87	60.85
468.05	93.62
468.23	0.00
468.41	46.81
468.60	37.45
468.78	0.00
468.96	39.79
469.14	0.00
469.32	0.00
469.50	77.24
469.69	88.94
469.87	37.45
470.05	0.00
470.23	21.06
470.41	0.00
470.59	14.04
470.77	2.34
470.95	18.72
471.14	0.00
471.32	14.04
471.50	25.75
471.68	65.54
471.86	46.81
472.04	23.41
472.22	35.11
472.40	37.45
472.58	0.00
472.77	42.13
472.95	49.15
473.13	28.09
473.31	51.49
473.49	42.13
473.67	32.77
473.85	28.09
474.03	0.00
474.21	58.51
474.39	67.88
474.57	25.75
474.75	51.49
474.93	21.06
475.12	72.56
475.30	0.00
475.48	0.00
475.66	14.04
475.84	25.75
476.02	21.06
476.20	25.75
476.38	39.79
476.56	88.94
476.74	25.75
476.92	4.68
477.10	25.75
477.28	0.00
477.46	16.38
477.64	35.11
477.82	0.00
478.00	65.54
478.18	4.68
478.36	51.49
478.54	4.68
478.72	14.04
478.90	35.11
479.08	93.62
479.26	16.38
479.44	16.38
479.62	70.22
479.80	86.60
479.98	0.00
480.16	58.51
480.34	0.00
480.52	16.38
480.70	7.02
480.88	11.70
481.06	14.04
481.24	0.00
481.41	77.24
481.59	67.88
481.77	18.72
481.95	4.68
482.13	46.81
482.31	91.28
482.49	0.00
482.67	37.45
482.85	51.49
483.03	28.09
483.21	28.09
483.39	30.43
483.57	11.70
483.74	11.70
483.92	63.19
484.10	77.24
484.28	4.68
484.46	112.35
484.64	16.38
484.82	11.70
485.00	35.11
485.18	28.09
485.35	77.24
485.53	70.22
485.71	70.22
485.89	0.00
486.07	28.09
486.25	88.94
486.43	0.00
486.61	60.85
486.78	56.17
486.96	18.72
487.14	56.17
487.32	30.43
487.50	0.00
487.68	4.68
487.85	21.06
488.03	65.54
488.21	9.36
488.39	84.26
488.57	49.15
488.75	16.38
488.92	46.81
489.10	67.88
489.28	35.11
489.46	11.70
489.64	133.41
489.81	72.56
489.99	74.90
490.17	72.56
490.35	18.72
490.53	70.22
490.70	7.02
490.88	14.04
491.06	44.47
491.24	46.81
491.41	58.51
491.59	0.00
491.77	77.24
491.95	32.77
492.13	102.98
492.30	74.90
492.48	37.45
492.66	98.30
492.84	79.58
493.01	53.83
493.19	56.17
493.37	67.88
493.54	63.19
493.72	0.00
493.90	84.26
494.08	93.62
494.25	0.00
494.43	30.43
494.61	93.62
494.79	44.47
494.96	46.81
495.14	35.11
495.32	93.62
495.49	16.38
495.67	51.49
495.85	46.81
496.02	4.68
496.20	79.58
496.38	23.41
496.55	46.81
496.73	72.56
496.91	112.35
497.09	21.06
497.26	35.11
497.44	30.43
497.62	95.96
497.79	60.85
497.97	49.15
498.14	21.06
498.32	0.00
498.50	0.00
498.67	18.72
498.85	81.92
499.03	67.88
499.20	0.00
499.38	0.00
499.56	124.05
499.73	18.72
499.91	23.41
500.08	46.81
500.26	35.11
500.44	79.58
500.61	32.77
500.79	72.56
500.97	42.13
501.14	63.19
501.32	56.17
501.49	114.69
501.67	72.56
501.84	2.34
502.02	18.72
502.20	63.19
502.37	95.96
502.55	126.39
502.72	100.64
502.90	2.34
503.07	72.56
503.25	91.28
503.43	86.60
503.60	16.38
503.78	51.49
503.95	37.45
504.13	51.49
504.30	46.81
504.48	18.72
504.65	2.34
504.83	81.92
505.01	46.81
505.18	30.43
505.36	7.02
505.53	0.00
505.71	44.47
505.88	49.15
506.06	32.77
506.23	37.45
506.41	53.83
506.58	23.41
506.76	70.22
506.93	98.30
507.11	63.19
507.28	37.45
507.46	72.56
507.63	102.98
507.81	72.56
507.98	23.41
508.16	70.22
508.33	46.81
508.50	98.30
508.68	0.00
508.85	46.81
509.03	70.22
509.20	74.90
509.38	74.90
509.55	16.38
509.73	0.00
509.90	51.49
510.08	49.15
510.25	65.54
510.42	25.75
510.60	0.00
510.77	46.81
510.95	35.11
511.12	56.17
511.30	81.92
511.47	11.70
511.64	16.38
511.82	91.28
511.99	14.04
512.17	72.56
512.34	23.41
512.51	42.13
512.69	0.00
512.86	30.43
513.04	30.43
513.21	0.00
513.38	60.85
513.56	88.94
513.73	25.75
513.90	58.51
514.08	98.30
514.25	4.68
514.43	0.00
514.60	44.47
514.77	44.47
514.95	0.00
515.12	25.75
515.29	21.06
515.47	65.54
515.64	102.98
515.81	63.19
515.99	25.75
516.16	28.09
516.33	88.94
516.51	0.00
516.68	46.81
516.85	95.96
517.03	63.19
517.20	79.58
517.37	11.70
517.54	0.00
517.72	37.45
517.89	32.77
518.06	65.54
518.24	112.35
518.41	95.96
518.58	16.38
518.75	72.56
518.93	60.85
519.10	63.19
519.27	42.13
519.45	46.81
519.62	81.92
519.79	16.38
519.96	4.68
520.14	0.00
520.31	79.58
520.48	0.00
520.65	39.79
520.83	0.00
521.00	32.77
521.17	0.00
521.34	0.00
521.52	25.75
521.69	56.17
521.86	86.60
522.03	44.47
522.20	39.79
522.38	46.81
522.55	95.96
522.72	53.83
522.89	58.51
523.07	102.98
523.24	117.03
523.41	102.98
523.58	37.45
523.75	77.24
523.92	74.90
524.10	30.43
524.27	0.00
524.44	0.00
524.61	14.04
524.78	93.62
524.96	46.81
525.13	0.00
525.30	46.81
525.47	16.38
525.64	0.00
525.81	18.72
525.98	42.13
526.16	46.81
526.33	18.72
526.50	49.15
526.67	0.00
526.84	32.77
527.01	51.49
527.18	126.39
527.36	53.83
527.53	86.60
527.70	0.00
527.87	35.11
528.04	16.38
528.21	44.47
528.38	58.51
528.55	18.72
528.72	18.72
528.89	0.00
529.07	25.75
529.24	18.72
529.41	56.17
529.58	95.96
529.75	37.45
529.92	65.54
530.09	135.75
530.26	39.79
530.43	0.00
530.60	21.06
530.77	14.04
530.94	72.56
531.11	35.11
531.28	93.62
531.46	7.02
531.63	28.09
531.80	35.11
531.97	88.94
532.14	0.00
532.31	51.49
532.48	63.19
532.65	11.70
532.82	56.17
532.99	72.56
533.16	37.45
533.33	70.22
533.50	0.00
533.67	0.00
533.84	9.36
534.01	30.43
534.18	107.66
534.35	2.34
534.52	124.05
534.69	74.90
534.86	18.72
535.03	60.85
535.20	112.35
535.37	86.60
535.54	25.75
535.71	110.01
535.88	39.79
536.05	49.15
536.22	21.06
536.38	0.00
536.55	67.88
536.72	93.62
536.89	25.75
537.06	9.36
537.23	84.26
537.40	81.92
537.57	63.19
537.74	117.03
537.91	30.43
538.08	60.85
538.25	128.73
538.42	49.15
538.59	49.15
538.75	107.66
538.92	53.83
539.09	32.77
539.26	0.00
539.43	79.58
539.60	60.85
539.77	37.45
539.94	49.15
540.11	117.03
540.28	0.00
540.44	107.66
540.61	28.09
540.78	18.72
540.95	18.72
541.12	46.81
541.29	86.60
541.46	37.45
541.62	0.00
541.79	56.17
541.96	58.51
542.13	39.79
542.30	14.04
542.47	95.96
542.63	39.79
542.80	14.04
542.97	7.02
543.14	0.00
543.31	28.09
543.48	23.41
543.64	53.83
543.81	44.47
543.98	53.83
544.15	39.79
544.32	2.34
544.48	114.69
544.65	60.85
544.82	0.00
544.99	21.06
545.16	0.00
545.32	70.22
545.49	0.00
545.66	53.83
545.83	53.83
546.00	63.19
546.16	23.41
546.33	56.17
546.50	28.09
546.67	16.38
546.83	39.79
547.00	63.19
547.17	30.43
547.34	18.72
547.50	0.00
547.67	91.28
547.84	102.98
548.00	58.51
548.17	30.43
548.34	42.13
548.51	91.28
548.67	0.00
548.84	0.00
549.01	46.81
549.18	0.00
549.34	39.79
549.51	72.56
549.68	93.62
549.84	28.09
550.01	4.68
550.18	35.11
550.34	46.81
550.51	0.00
550.68	58.51
550.84	84.26
551.01	32.77
551.18	72.56
551.34	98.30
551.51	0.00
551.68	9.36
551.84	81.92
552.01	0.00
552.18	16.38
552.34	51.49
552.51	74.90
552.68	7.02
552.84	30.43
553.01	44.47
553.18	9.36
553.34	53.83
553.51	102.98
553.67	77.24
553.84	4.68
554.01	49.15
554.17	74.90
554.34	44.47
554.51	0.00
554.67	51.49
554.84	30.43
555.00	23.41
555.17	25.75
555.33	44.47
555.50	28.09
555.67	91.28
555.83	25.75
556.00	81.92
556.16	126.39
556.33	53.83
556.50	56.17
556.66	9.36
556.83	98.30
556.99	74.90
557.16	37.45
557.32	53.83
557.49	49.15
557.65	44.47
557.82	119.37
557.98	77.24
558.15	44.47
558.32	28.09
558.48	28.09
558.65	0.00
558.81	53.83
558.98	9.36
559.14	67.88
559.31	100.64
559.47	39.79
559.64	70.22
559.80	60.85
559.97	60.85
560.13	95.96
560.30	30.43
560.46	37.45
560.63	46.81
560.79	39.79
560.96	67.88
561.12	23.41
561.29	67.88
561.45	25.75
561.61	0.00
561.78	100.64
561.94	77.24
562.11	42.13
562.27	95.96
562.44	86.60
562.60	42.13
562.77	21.06
562.93	44.47
563.10	0.00
563.26	67.88
563.42	105.32
563.59	58.51
563.75	79.58
563.92	23.41
564.08	0.00
564.24	65.54
564.41	9.36
564.57	11.70
564.74	21.06
564.90	0.00
565.07	42.13
565.23	65.54
565.39	93.62
565.56	46.81
565.72	70.22
565.88	0.00
566.05	60.85
566.21	49.15
566.38	35.11
566.54	0.00
566.70	124.05
566.87	28.09
567.03	23.41
567.19	49.15
567.36	84.26
567.52	77.24
567.68	0.00
567.85	14.04
568.01	35.11
568.17	23.41
568.34	88.94
568.50	49.15
568.66	21.06
568.83	28.09
568.99	9.36
569.15	46.81
569.32	79.58
569.48	95.96
569.64	23.41
569.81	32.77
569.97	100.64
570.13	79.58
570.30	30.43
570.46	42.13
570.62	65.54
570.78	51.49
570.95	88.94
571.11	102.98
571.27	44.47
571.43	18.72
571.60	18.72
571.76	0.00
571.92	23.41
572.09	0.00
572.25	0.00
572.41	35.11
572.57	0.00
572.74	56.17
572.90	110.01
573.06	42.13
573.22	23.41
573.38	30.43
573.55	28.09
573.71	32.77
573.87	53.83
574.03	58.51
574.20	77.24
574.36	0.00
574.52	16.38
574.68	18.72
574.84	18.72
575.01	39.79
575.17	63.19
575.33	128.73
575.49	77.24
575.65	72.56
575.82	23.41
575.98	63.19
576.14	63.19
576.30	98.30
576.46	51.49
576.62	30.43
576.79	114.69
576.95	0.00
577.11	53.83
577.27	77.24
577.43	56.17
577.59	11.70
577.75	42.13
577.92	112.35
578.08	98.30
578.24	51.49
578.40	58.51
578.56	121.71
578.72	65.54
578.88	0.00
579.04	72.56
579.21	42.13
579.37	100.64
579.53	9.36
579.69	49.15
579.85	0.00
580.01	63.19
580.17	39.79
580.33	25.75
580.49	7.02
580.65	67.88
580.82	51.49
580.98	112.35
581.14	18.72
581.30	7.02
581.46	58.51
581.62	39.79
581.78	56.17
581.94	53.83
582.10	65.54
582.26	60.85
582.42	28.09
582.58	4.68
582.74	112.35
582.90	79.58
583.06	74.90
583.22	98.30
583.38	46.81
583.54	32.77
583.70	60.85
583.86	35.11
584.02	70.22
584.18	30.43
584.34	0.00
584.50	145.11
584.66	753.65
584.82	1586.88
584.98	2071.37
585.14	1809.23
585.30	1172.61
585.46	671.73
585.62	458.74
585.78	271.50
585.94	112.35
586.10	16.38
586.26	21.06
586.42	79.58
586.58	110.01
586.74	35.11
586.90	74.90
587.06	72.56
587.22	67.88
587.38	60.85
587.54	84.26
587.70	131.07
587.86	163.84
588.02	283.20
588.18	147.45
588.34	67.88
588.49	7.02
588.65	86.60
588.81	84.26
588.97	37.45
589.13	28.09
589.29	91.28
589.45	0.00
589.61	53.83
589.77	25.75
589.93	46.81
590.08	7.02
590.24	65.54
590.40	46.81
590.56	110.01
590.72	91.28
590.88	44.47
591.04	88.94
591.20	32.77
591.35	11.70
591.51	30.43
591.67	9.36
591.83	11.70
591.99	91.28
592.15	0.00
592.31	18.72
592.46	2.34
592.62	42.13
592.78	39.79
592.94	53.83
593.10	65.54
593.26	39.79
593.41	46.81
593.57	67.88
593.73	39.79
593.89	114.69
594.05	189.58
594.20	285.55
594.36	241.08
594.52	208.31
594.68	135.75
594.84	84.26
594.99	121.71
595.15	51.49
595.31	9.36
595.47	0.00
595.62	0.00
595.78	81.92
595.94	0.00
596.10	23.41
596.25	56.17
596.41	0.00
596.57	49.15
596.73	53.83
596.88	49.15
597.04	25.75
597.20	93.62
597.36	100.64
597.51	114.69
597.67	74.90
597.83	112.35
597.99	4.68
598.14	86.60
598.30	9.36
598.46	56.17
598.61	39.79
598.77	30.43
598.93	18.72
599.09	100.64
599.24	4.68
599.40	32.77
599.56	84.26
599.71	39.79
599.87	46.81
600.03	37.45
600.18	100.64
600.34	49.15
600.50	0.00
600.65	63.19
600.81	39.79
600.97	18.72
601.12	84.26
601.28	58.51
601.44	79.58
601.59	37.45
601.75	0.00
601.91	14.04
602.06	93.62
602.22	4.68
602.37	88.94
602.53	119.37
602.69	25.75
602.84	145.11
603.00	142.77
603.16	126.39
603.31	53.83
603.47	77.24
603.62	18.72
603.78	46.81
603.94	11.70
604.09	0.00
604.25	11.70
604.40	65.54
604.56	49.15
604.71	60.85
604.87	18.72
605.03	56.17
605.18	0.00
605.34	60.85
605.49	39.79
605.65	9.36
605.80	30.43
605.96	72.56
606.12	25.75
606.27	25.75
606.43	86.60
606.58	46.81
606.74	112.35
606.89	145.11
607.05	220.01
607.20	264.48
607.36	299.59
607.51	159.16
607.67	159.16
607.82	46.81
607.98	65.54
608.13	88.94
608.29	42.13
608.44	42.13
608.60	35.11
608.75	21.06
608.91	32.77
609.06	187.24
609.22	390.87
609.37	411.93
609.53	379.17
609.68	250.44
609.84	203.63
609.99	159.16
610.15	93.62
610.30	51.49
610.46	65.54
610.61	67.88
610.76	37.45
610.92	72.56
611.07	117.03
611.23	53.83
611.38	2.34
611.54	53.83
611.69	28.09
611.84	35.11
612.00	11.70
612.15	37.45
612.31	105.32
612.46	67.88
612.62	25.75
612.77	28.09
612.92	2.34
613.08	18.72
613.23	81.92
613.39	58.51
613.54	4.68
613.69	201.29
613.85	437.68
614.00	627.26
614.15	620.24
614.31	409.59
614.46	276.18
614.62	220.01
614.77	163.84
614.92	35.11
615.08	91.28
615.23	0.00
615.38	25.75
615.54	65.54
615.69	77.24
615.84	114.69
616.00	187.24
616.15	212.99
616.30	184.90
616.46	191.92
616.61	140.43
616.76	121.71
616.92	91.28
617.07	79.58
617.22	65.54
617.37	70.22
617.53	28.09
617.68	70.22
617.83	56.17
617.99	35.11
618.14	65.54
618.29	100.64
618.45	53.83
618.60	23.41
618.75	28.09
618.90	0.00
619.06	2.34
619.21	0.00
619.36	16.38
619.51	25.75
619.67	0.00
619.82	53.83
619.97	72.56
620.12	49.15
620.28	2.34
620.43	107.66
620.58	67.88
620.73	25.75
620.89	126.39
621.04	93.62
621.19	51.49
621.34	93.62
621.49	98.30
621.65	72.56
621.80	131.07
621.95	4.68
622.10	95.96
622.25	72.56
622.41	53.83
622.56	98.30
622.71	51.49
622.86	0.00
623.01	32.77
623.16	86.60
623.32	95.96
623.47	7.02
623.62	72.56
623.77	21.06
623.92	9.36
624.07	30.43
624.23	65.54
624.38	84.26
624.53	53.83
624.68	18.72
624.83	102.98
624.98	67.88
625.13	102.98
625.29	93.62
625.44	23.41
625.59	11.70
625.74	77.24
625.89	81.92
626.04	67.88
626.19	208.31
626.34	372.15
626.49	308.95
626.65	276.18
626.80	212.99
626.95	175.54
627.10	149.79
627.25	135.75
627.40	37.45
627.55	0.00
627.70	25.75
627.85	42.13
628.00	70.22
628.15	58.51
628.30	23.41
628.45	67.88
628.60	119.37
628.76	74.90
628.91	4.68
629.06	14.04
629.21	0.00
629.36	14.04
629.51	49.15
629.66	0.00
629.81	44.47
629.96	124.05
630.11	119.37
630.26	79.58
630.41	79.58
630.56	98.30
630.71	98.30
630.86	0.00
631.01	49.15
631.16	79.58
631.31	86.60
631.46	42.13
631.61	56.17
631.76	107.66
631.91	58.51
632.06	44.47
632.21	16.38
632.36	74.90
632.51	49.15
632.66	11.70
632.81	16.38
632.96	161.50
633.10	198.95
633.25	294.91
633.40	215.33
633.55	100.64
633.70	152.13
633.85	63.19
634.00	107.66
634.15	81.92
634.30	98.30
634.45	91.28
634.60	21.06
634.75	4.68
634.90	58.51
635.05	95.96
635.19	28.09
635.34	4.68
635.49	37.45
635.64	56.17
635.79	53.83
635.94	91.28
636.09	9.36
636.24	65.54
636.39	16.38
636.53	95.96
636.68	28.09
636.83	67.88
636.98	93.62
637.13	58.51
637.28	35.11
637.43	32.77
637.57	28.09
637.72	198.95
637.87	299.59
638.02	383.85
638.17	409.59
638.32	337.04
638.46	196.60
638.61	147.45
638.76	133.41
638.91	184.90
639.06	30.43
639.20	88.94
639.35	95.96
639.50	53.83
639.65	177.88
639.80	411.93
639.94	552.37
640.09	683.44
640.24	547.69
640.39	376.83
640.54	266.82
640.68	184.90
640.83	32.77
640.98	28.09
641.13	42.13
641.27	23.41
641.42	77.24
641.57	86.60
641.72	63.19
641.86	0.00
642.01	93.62
642.16	35.11
642.31	49.15
642.45	21.06
642.60	72.56
642.75	23.41
642.90	46.81
643.04	74.90
643.19	74.90
643.34	95.96
643.48	39.79
643.63	93.62
643.78	77.24
643.93	42.13
644.07	77.24
644.22	56.17
644.37	65.54
644.51	60.85
644.66	0.00
644.81	0.00
644.95	53.83
645.10	86.60
645.25	102.98
645.39	44.47
645.54	39.79
645.69	53.83
645.83	30.43
645.98	0.00
646.13	30.43
646.27	25.75
646.42	39.79
646.57	0.00
646.71	67.88
646.86	23.41
647.00	0.00
647.15	88.94
647.30	25.75
647.44	51.49
647.59	21.06
647.74	93.62
647.88	67.88
648.03	23.41
648.17	37.45
648.32	0.00
648.47	74.90
648.61	70.22
648.76	0.00
648.90	7.02
649.05	72.56
649.20	37.45
649.34	77.24
649.49	65.54
649.63	0.00
649.78	37.45
649.92	25.75
650.07	74.90
650.21	220.01
650.36	358.10
650.51	332.36
650.65	330.02
650.80	266.82
650.94	138.09
651.09	93.62
651.23	49.15
651.38	0.00
651.52	32.77
651.67	39.79
651.81	16.38
651.96	0.00
652.10	100.64
652.25	79.58
652.39	32.77
652.54	9.36
652.68	37.45
652.83	32.77
652.97	91.28
653.12	177.88
653.26	140.43
653.41	231.71
653.55	105.32
653.70	72.56
653.84	49.15
653.99	16.38
654.13	114.69
654.27	0.00
654.42	2.34
654.56	28.09
654.71	30.43
654.85	18.72
655.00	18.72
655.14	56.17
655.29	25.75
655.43	25.75
655.57	25.75
655.72	23.41
655.86	32.77
656.01	79.58
656.15	0.00
656.30	25.75
656.44	23.41
656.58	49.15
656.73	74.90
656.87	46.81
657.01	58.51
657.16	77.24
657.30	16.38
657.45	46.81
657.59	44.47
657.73	74.90
657.88	102.98
658.02	107.66
658.16	0.00
658.31	18.72
658.45	51.49
658.60	86.60
658.74	2.34
658.88	18.72
659.03	0.00
659.17	49.15
659.31	0.00
659.46	58.51
659.60	152.13
659.74	177.88
659.89	203.63
660.03	154.48
660.17	77.24
660.32	102.98
660.46	114.69
660.60	39.79
660.74	0.00
660.89	65.54
661.03	16.38
661.17	0.00
661.32	70.22
661.46	42.13
661.60	11.70
661.74	58.51
661.89	9.36
662.03	0.00
662.17	30.43
662.31	32.77
662.46	77.24
662.60	105.32
662.74	46.81
662.88	11.70
663.03	4.68
663.17	28.09
663.31	124.05
663.45	91.28
663.60	18.72
663.74	65.54
663.88	0.00
664.02	93.62
664.17	23.41
664.31	74.90
664.45	46.81
664.59	51.49
664.73	18.72
664.88	32.77
665.02	0.00
665.16	4.68
665.30	16.38
665.44	49.15
665.59	53.83
665.73	51.49
665.87	14.04
666.01	21.06
666.15	51.49
666.29	53.83
666.44	32.77
666.58	88.94
666.72	86.60
666.86	44.47
667.00	63.19
667.14	30.43
667.28	81.92
667.43	154.48
667.57	313.63
667.71	318.31
667.85	355.76
667.99	227.03
668.13	121.71
668.27	91.28
668.41	86.60
668.56	30.43
668.70	60.85
668.84	58.51
668.98	65.54
669.12	46.81
669.26	88.94
669.40	88.94
669.54	60.85
669.68	2.34
669.82	53.83
669.96	0.00
670.10	0.00
670.25	49.15
670.39	67.88
670.53	28.09
670.67	16.38
670.81	39.79
670.95	98.30
671.09	0.00
671.23	110.01
671.37	166.18
671.51	245.76
671.65	290.23
671.79	135.75
671.93	102.98
672.07	67.88
672.21	77.24
672.35	35.11
672.49	77.24
672.63	46.81
672.77	70.22
672.91	114.69
673.05	11.70
673.19	44.47
673.33	79.58
673.47	149.79
673.61	100.64
673.75	0.00
673.89	72.56
674.03	121.71
674.17	67.88
674.31	51.49
674.45	37.45
674.59	79.58
674.73	32.77
674.87	65.54
675.01	16.38
675.15	51.49
675.29	53.83
675.43	35.11
675.56	46.81
675.70	14.04
675.84	51.49
675.98	11.70
676.12	18.72
676.26	9.36
676.40	2.34
676.54	53.83
676.68	21.06
676.82	21.06
676.96	0.00
677.10	56.17
677.23	0.00
677.37	37.45
677.51	0.00
677.65	14.04
677.79	0.00
677.93	0.00
678.07	37.45
678.21	0.00
678.34	67.88
678.48	77.24
678.62	72.56
678.76	53.83
678.90	79.58
679.04	67.88
679.18	51.49
679.31	0.00
679.45	0.00
679.59	0.00
679.73	44.47
679.87	0.00
680.00	0.00
680.14	72.56
680.28	16.38
680.42	18.72
680.56	56.17
680.70	4.68
680.83	0.00
680.97	0.00
681.11	35.11
681.25	91.28
681.39	9.36
681.52	114.69
681.66	44.47
681.80	0.00
681.94	7.02
682.07	0.00
682.21	58.51
682.35	37.45
682.49	14.04
682.62	74.90
682.76	44.47
682.90	11.70
683.04	65.54
683.17	46.81
683.31	0.00
683.45	2.34
683.59	23.41
683.72	28.09
683.86	32.77
684.00	117.03
684.13	56.17
684.27	25.75
684.41	0.00
684.55	51.49
684.68	0.00
684.82	0.00
684.96	9.36
685.09	60.85
685.23	81.92
685.37	23.41
685.50	70.22
685.64	0.00
685.78	81.92
685.91	32.77
686.05	0.00
686.19	28.09
686.32	21.06
686.46	21.06
686.60	44.47
686.73	63.19
686.87	16.38
687.01	23.41
687.14	21.06
687.28	88.94
687.42	88.94
687.55	0.00
687.69	16.38
687.82	49.15
687.96	46.81
688.10	79.58
688.23	0.00
688.37	16.38
688.50	63.19
688.64	0.00
688.78	53.83
688.91	44.47
689.05	30.43
689.18	35.11
689.32	0.00
689.46	53.83
689.59	0.00
689.73	35.11
689.86	53.83
690.00	42.13
690.13	58.51
690.27	23.41
690.41	4.68
690.54	32.77
690.68	35.11
690.81	63.19
690.95	77.24
691.08	0.00
691.22	0.00
691.35	35.11
691.49	67.88
691.62	7.02
691.76	51.49
691.89	18.72
692.03	21.06
692.16	37.45
692.30	14.04
692.43	100.64
692.57	114.69
692.70	142.77
692.84	126.39
692.97	198.95
693.11	170.86
693.24	149.79
693.38	95.96
693.51	84.26
693.65	4.68
693.78	49.15
693.92	0.00
694.05	79.58
694.19	23.41
694.32	65.54
694.45	65.54
694.59	56.17
694.72	0.00
694.86	42.13
694.99	84.26
695.13	28.09
695.26	46.81
695.39	4.68
695.53	23.41
695.66	0.00
695.80	121.71
695.93	30.43
696.07	67.88
696.20	49.15
696.33	65.54
696.47	35.11
696.60	58.51
696.73	37.45
696.87	56.17
697.00	49.15
697.14	25.75
697.27	21.06
697.40	53.83
697.54	16.38
697.67	0.00
697.80	53.83
697.94	65.54
698.07	70.22
698.21	25.75
698.34	102.98
698.47	39.79
698.61	9.36
698.74	4.68
698.87	14.04
699.01	79.58
699.14	11.70
699.27	0.00
699.40	14.04
699.54	44.47
699.67	2.34
699.80	0.00
699.94	7.02
700.07	46.81
700.20	39.79
700.34	110.01
700.47	14.04
700.60	0.00
700.73	0.00
700.87	63.19
701.00	0.00
701.13	60.85
701.26	70.22
701.40	35.11
701.53	7.02
701.66	0.00
701.79	0.00
701.93	44.47
702.06	51.49
702.19	25.75
702.32	0.00
702.46	2.34
702.59	0.00
702.72	37.45
702.85	145.11
702.99	198.95
703.12	276.18
703.25	287.89
703.38	271.50
703.51	220.01
703.65	102.98
703.78	117.03
703.91	77.24
704.04	84.26
704.17	28.09
704.31	9.36
704.44	0.00
704.57	44.47
704.70	37.45
704.83	11.70
704.96	0.00
705.10	58.51
705.23	30.43
>>>>>End Processed Spectral Data<<<<<
