SpectraSuite Data File
++++++++++++++++++++++++++++++++++++
Date: Fri Oct 04 12:13:31 GMT-05:00 2013
User: price-jones
Dark Spectrum Present: No
Reference Spectrum Present: No
Number of Sampled Component Spectra: 1
Spectrometers: USB2+H05261
Integration Time (usec): 10000 (USB2+H05261)
Spectra Averaged: 1 (USB2+H05261)
Boxcar Smoothing: 0 (USB2+H05261)
Correct for Electrical Dark: No (USB2+H05261)
Strobe/Lamp Enabled: No (USB2+H05261)
Correct for Detector Non-linearity: No (USB2+H05261)
Correct for Stray Light: No (USB2+H05261)
Number of Pixels in Processed Spectrum: 2048
>>>>>Begin Processed Spectral Data<<<<<
365.73	4.68
365.92	4.68
366.12	4.68
366.32	0.00
366.52	0.00
366.72	0.00
366.91	0.00
367.11	0.00
367.31	0.00
367.51	0.00
367.70	0.00
367.90	0.00
368.10	0.00
368.30	0.00
368.49	0.00
368.69	0.00
368.89	0.00
369.09	0.00
369.28	0.00
369.48	0.00
369.68	0.00
369.87	0.00
370.07	0.00
370.27	0.00
370.47	0.00
370.66	0.00
370.86	0.00
371.06	0.00
371.25	0.00
371.45	0.00
371.65	0.00
371.84	25.75
372.04	0.00
372.24	53.83
372.44	32.77
372.63	0.00
372.83	0.00
373.03	9.36
373.22	9.36
373.42	74.90
373.62	9.36
373.81	70.22
374.01	49.15
374.21	0.00
374.40	30.43
374.60	46.81
374.79	0.00
374.99	4.68
375.19	72.56
375.38	0.00
375.58	0.00
375.78	0.00
375.97	56.17
376.17	9.36
376.37	28.09
376.56	70.22
376.76	0.00
376.95	11.70
377.15	0.00
377.35	39.79
377.54	0.00
377.74	0.00
377.93	9.36
378.13	0.00
378.33	23.41
378.52	32.77
378.72	4.68
378.91	16.38
379.11	0.00
379.31	0.00
379.50	28.09
379.70	30.43
379.89	0.00
380.09	0.00
380.28	0.00
380.48	49.15
380.68	21.06
380.87	0.00
381.07	32.77
381.26	67.88
381.46	25.75
381.65	28.09
381.85	0.00
382.04	25.75
382.24	21.06
382.43	9.36
382.63	0.00
382.83	0.00
383.02	0.00
383.22	14.04
383.41	65.54
383.61	84.26
383.80	9.36
384.00	0.00
384.19	0.00
384.39	25.75
384.58	14.04
384.78	0.00
384.97	0.00
385.17	81.92
385.36	0.00
385.56	37.45
385.75	7.02
385.95	35.11
386.14	4.68
386.34	0.00
386.53	0.00
386.72	9.36
386.92	0.00
387.11	91.28
387.31	30.43
387.50	23.41
387.70	39.79
387.89	4.68
388.09	2.34
388.28	11.70
388.48	60.85
388.67	88.94
388.86	9.36
389.06	58.51
389.25	9.36
389.45	0.00
389.64	7.02
389.84	0.00
390.03	0.00
390.22	4.68
390.42	0.00
390.61	0.00
390.81	0.00
391.00	32.77
391.19	51.49
391.39	72.56
391.58	4.68
391.78	30.43
391.97	0.00
392.16	25.75
392.36	51.49
392.55	35.11
392.75	60.85
392.94	18.72
393.13	49.15
393.33	0.00
393.52	0.00
393.71	11.70
393.91	0.00
394.10	14.04
394.29	56.17
394.49	16.38
394.68	86.60
394.88	32.77
395.07	0.00
395.26	91.28
395.46	35.11
395.65	84.26
395.84	25.75
396.04	16.38
396.23	37.45
396.42	56.17
396.62	0.00
396.81	0.00
397.00	0.00
397.19	2.34
397.39	0.00
397.58	0.00
397.77	91.28
397.97	0.00
398.16	0.00
398.35	0.00
398.55	72.56
398.74	30.43
398.93	32.77
399.12	0.00
399.32	21.06
399.51	28.09
399.70	9.36
399.90	23.41
400.09	0.00
400.28	86.60
400.47	28.09
400.67	0.00
400.86	58.51
401.05	9.36
401.24	23.41
401.44	9.36
401.63	30.43
401.82	7.02
402.01	58.51
402.21	9.36
402.40	30.43
402.59	30.43
402.78	72.56
402.97	14.04
403.17	0.00
403.36	28.09
403.55	28.09
403.74	32.77
403.93	46.81
404.13	7.02
404.32	74.90
404.51	0.00
404.70	58.51
404.89	42.13
405.09	28.09
405.28	4.68
405.47	60.85
405.66	21.06
405.85	65.54
406.05	18.72
406.24	51.49
406.43	32.77
406.62	0.00
406.81	0.00
407.00	88.94
407.20	30.43
407.39	0.00
407.58	0.00
407.77	95.96
407.96	28.09
408.15	0.00
408.34	44.47
408.54	7.02
408.73	93.62
408.92	11.70
409.11	7.02
409.30	14.04
409.49	49.15
409.68	58.51
409.87	37.45
410.07	42.13
410.26	18.72
410.45	28.09
410.64	0.00
410.83	0.00
411.02	16.38
411.21	11.70
411.40	0.00
411.59	0.00
411.78	0.00
411.98	7.02
412.17	16.38
412.36	86.60
412.55	23.41
412.74	25.75
412.93	35.11
413.12	0.00
413.31	51.49
413.50	0.00
413.69	51.49
413.88	9.36
414.07	0.00
414.26	21.06
414.45	56.17
414.64	51.49
414.83	18.72
415.02	18.72
415.22	79.58
415.41	46.81
415.60	70.22
415.79	0.00
415.98	86.60
416.17	79.58
416.36	53.83
416.55	30.43
416.74	81.92
416.93	35.11
417.12	46.81
417.31	35.11
417.50	53.83
417.69	0.00
417.88	0.00
418.07	0.00
418.26	28.09
418.45	63.19
418.64	30.43
418.83	25.75
419.02	28.09
419.21	88.94
419.39	77.24
419.58	0.00
419.77	51.49
419.96	42.13
420.15	0.00
420.34	11.70
420.53	86.60
420.72	100.64
420.91	4.68
421.10	0.00
421.29	4.68
421.48	7.02
421.67	0.00
421.86	14.04
422.05	53.83
422.24	65.54
422.43	35.11
422.61	0.00
422.80	39.79
422.99	0.00
423.18	14.04
423.37	42.13
423.56	35.11
423.75	0.00
423.94	0.00
424.13	7.02
424.32	81.92
424.50	0.00
424.69	2.34
424.88	56.17
425.07	0.00
425.26	39.79
425.45	0.00
425.64	16.38
425.83	46.81
426.01	88.94
426.20	32.77
426.39	72.56
426.58	42.13
426.77	0.00
426.96	86.60
427.15	39.79
427.33	28.09
427.52	2.34
427.71	35.11
427.90	14.04
428.09	0.00
428.28	23.41
428.46	21.06
428.65	79.58
428.84	63.19
429.03	0.00
429.22	11.70
429.40	0.00
429.59	32.77
429.78	14.04
429.97	2.34
430.16	14.04
430.34	21.06
430.53	16.38
430.72	121.71
430.91	0.00
431.10	9.36
431.28	21.06
431.47	0.00
431.66	0.00
431.85	11.70
432.03	39.79
432.22	58.51
432.41	70.22
432.60	70.22
432.79	14.04
432.97	0.00
433.16	0.00
433.35	51.49
433.54	30.43
433.72	65.54
433.91	63.19
434.10	23.41
434.28	23.41
434.47	11.70
434.66	102.98
434.85	98.30
435.03	67.88
435.22	0.00
435.41	58.51
435.59	77.24
435.78	0.00
435.97	9.36
436.16	0.00
436.34	49.15
436.53	42.13
436.72	23.41
436.90	0.00
437.09	16.38
437.28	39.79
437.46	0.00
437.65	0.00
437.84	0.00
438.02	0.00
438.21	32.77
438.40	0.00
438.58	0.00
438.77	23.41
438.96	4.68
439.14	4.68
439.33	60.85
439.52	0.00
439.70	44.47
439.89	37.45
440.08	46.81
440.26	0.00
440.45	18.72
440.63	0.00
440.82	0.00
441.01	28.09
441.19	95.96
441.38	98.30
441.57	53.83
441.75	32.77
441.94	0.00
442.12	18.72
442.31	14.04
442.50	0.00
442.68	2.34
442.87	35.11
443.05	42.13
443.24	56.17
443.43	30.43
443.61	65.54
443.80	49.15
443.98	65.54
444.17	53.83
444.35	11.70
444.54	58.51
444.73	25.75
444.91	0.00
445.10	77.24
445.28	0.00
445.47	0.00
445.65	0.00
445.84	9.36
446.02	58.51
446.21	65.54
446.39	67.88
446.58	60.85
446.77	4.68
446.95	65.54
447.14	14.04
447.32	51.49
447.51	91.28
447.69	70.22
447.88	58.51
448.06	35.11
448.25	0.00
448.43	2.34
448.62	0.00
448.80	0.00
448.99	49.15
449.17	7.02
449.36	0.00
449.54	42.13
449.73	9.36
449.91	11.70
450.10	11.70
450.28	0.00
450.46	77.24
450.65	53.83
450.83	39.79
451.02	37.45
451.20	0.00
451.39	128.73
451.57	65.54
451.76	42.13
451.94	81.92
452.13	0.00
452.31	32.77
452.49	37.45
452.68	70.22
452.86	16.38
453.05	18.72
453.23	53.83
453.42	14.04
453.60	53.83
453.78	16.38
453.97	0.00
454.15	53.83
454.34	0.00
454.52	0.00
454.70	7.02
454.89	2.34
455.07	49.15
455.26	23.41
455.44	25.75
455.62	9.36
455.81	42.13
455.99	0.00
456.17	25.75
456.36	21.06
456.54	0.00
456.73	63.19
456.91	37.45
457.09	58.51
457.28	0.00
457.46	32.77
457.64	0.00
457.83	18.72
458.01	0.00
458.19	65.54
458.38	7.02
458.56	30.43
458.74	84.26
458.93	70.22
459.11	102.98
459.29	9.36
459.48	91.28
459.66	4.68
459.84	86.60
460.03	28.09
460.21	91.28
460.39	88.94
460.57	0.00
460.76	16.38
460.94	67.88
461.12	0.00
461.31	0.00
461.49	98.30
461.67	2.34
461.85	63.19
462.04	70.22
462.22	42.13
462.40	42.13
462.59	16.38
462.77	32.77
462.95	23.41
463.13	0.00
463.32	0.00
463.50	0.00
463.68	58.51
463.86	7.02
464.05	30.43
464.23	53.83
464.41	51.49
464.59	37.45
464.78	4.68
464.96	53.83
465.14	0.00
465.32	0.00
465.50	4.68
465.69	0.00
465.87	4.68
466.05	42.13
466.23	39.79
466.41	30.43
466.60	0.00
466.78	18.72
466.96	63.19
467.14	25.75
467.32	70.22
467.51	23.41
467.69	46.81
467.87	84.26
468.05	25.75
468.23	60.85
468.41	0.00
468.60	49.15
468.78	35.11
468.96	67.88
469.14	77.24
469.32	23.41
469.50	58.51
469.69	11.70
469.87	11.70
470.05	119.37
470.23	23.41
470.41	0.00
470.59	35.11
470.77	37.45
470.95	51.49
471.14	53.83
471.32	46.81
471.50	37.45
471.68	0.00
471.86	72.56
472.04	32.77
472.22	58.51
472.40	0.00
472.58	9.36
472.77	63.19
472.95	25.75
473.13	30.43
473.31	0.00
473.49	93.62
473.67	0.00
473.85	42.13
474.03	81.92
474.21	37.45
474.39	16.38
474.57	74.90
474.75	7.02
474.93	0.00
475.12	7.02
475.30	58.51
475.48	16.38
475.66	51.49
475.84	21.06
476.02	44.47
476.20	44.47
476.38	23.41
476.56	14.04
476.74	49.15
476.92	49.15
477.10	46.81
477.28	72.56
477.46	16.38
477.64	0.00
477.82	95.96
478.00	14.04
478.18	0.00
478.36	35.11
478.54	63.19
478.72	74.90
478.90	30.43
479.08	56.17
479.26	2.34
479.44	60.85
479.62	2.34
479.80	35.11
479.98	77.24
480.16	44.47
480.34	65.54
480.52	18.72
480.70	81.92
480.88	49.15
481.06	23.41
481.24	65.54
481.41	23.41
481.59	37.45
481.77	81.92
481.95	16.38
482.13	4.68
482.31	0.00
482.49	4.68
482.67	14.04
482.85	56.17
483.03	32.77
483.21	35.11
483.39	32.77
483.57	46.81
483.74	42.13
483.92	11.70
484.10	14.04
484.28	67.88
484.46	56.17
484.64	0.00
484.82	39.79
485.00	25.75
485.18	77.24
485.35	32.77
485.53	58.51
485.71	46.81
485.89	0.00
486.07	0.00
486.25	25.75
486.43	77.24
486.61	14.04
486.78	42.13
486.96	74.90
487.14	30.43
487.32	37.45
487.50	53.83
487.68	18.72
487.85	16.38
488.03	60.85
488.21	0.00
488.39	16.38
488.57	0.00
488.75	25.75
488.92	14.04
489.10	0.00
489.28	56.17
489.46	58.51
489.64	9.36
489.81	28.09
489.99	58.51
490.17	25.75
490.35	63.19
490.53	16.38
490.70	74.90
490.88	77.24
491.06	65.54
491.24	18.72
491.41	16.38
491.59	74.90
491.77	32.77
491.95	0.00
492.13	35.11
492.30	110.01
492.48	32.77
492.66	23.41
492.84	0.00
493.01	58.51
493.19	67.88
493.37	0.00
493.54	0.00
493.72	131.07
493.90	14.04
494.08	44.47
494.25	63.19
494.43	14.04
494.61	114.69
494.79	44.47
494.96	60.85
495.14	79.58
495.32	58.51
495.49	39.79
495.67	0.00
495.85	18.72
496.02	49.15
496.20	72.56
496.38	100.64
496.55	21.06
496.73	35.11
496.91	30.43
497.09	60.85
497.26	65.54
497.44	7.02
497.62	44.47
497.79	53.83
497.97	30.43
498.14	0.00
498.32	51.49
498.50	18.72
498.67	11.70
498.85	46.81
499.03	46.81
499.20	91.28
499.38	67.88
499.56	44.47
499.73	100.64
499.91	65.54
500.08	35.11
500.26	100.64
500.44	46.81
500.61	0.00
500.79	49.15
500.97	28.09
501.14	2.34
501.32	49.15
501.49	58.51
501.67	23.41
501.84	49.15
502.02	49.15
502.20	105.32
502.37	25.75
502.55	46.81
502.72	0.00
502.90	51.49
503.07	53.83
503.25	44.47
503.43	53.83
503.60	98.30
503.78	70.22
503.95	18.72
504.13	35.11
504.30	42.13
504.48	74.90
504.65	63.19
504.83	60.85
505.01	11.70
505.18	114.69
505.36	58.51
505.53	63.19
505.71	81.92
505.88	110.01
506.06	77.24
506.23	100.64
506.41	46.81
506.58	0.00
506.76	72.56
506.93	53.83
507.11	18.72
507.28	79.58
507.46	58.51
507.63	0.00
507.81	9.36
507.98	39.79
508.16	44.47
508.33	30.43
508.50	53.83
508.68	44.47
508.85	60.85
509.03	16.38
509.20	93.62
509.38	56.17
509.55	67.88
509.73	88.94
509.90	58.51
510.08	37.45
510.25	21.06
510.42	37.45
510.60	81.92
510.77	77.24
510.95	65.54
511.12	74.90
511.30	23.41
511.47	28.09
511.64	37.45
511.82	0.00
511.99	30.43
512.17	72.56
512.34	79.58
512.51	16.38
512.69	67.88
512.86	35.11
513.04	23.41
513.21	58.51
513.38	53.83
513.56	56.17
513.73	30.43
513.90	65.54
514.08	86.60
514.25	0.00
514.43	11.70
514.60	18.72
514.77	0.00
514.95	110.01
515.12	35.11
515.29	7.02
515.47	21.06
515.64	0.00
515.81	51.49
515.99	86.60
516.16	21.06
516.33	112.35
516.51	65.54
516.68	28.09
516.85	32.77
517.03	65.54
517.20	53.83
517.37	0.00
517.54	44.47
517.72	72.56
517.89	44.47
518.06	63.19
518.24	0.00
518.41	0.00
518.58	56.17
518.75	86.60
518.93	30.43
519.10	25.75
519.27	23.41
519.45	60.85
519.62	14.04
519.79	39.79
519.96	25.75
520.14	67.88
520.31	23.41
520.48	0.00
520.65	102.98
520.83	67.88
521.00	4.68
521.17	49.15
521.34	98.30
521.52	37.45
521.69	72.56
521.86	35.11
522.03	35.11
522.20	32.77
522.38	9.36
522.55	56.17
522.72	74.90
522.89	51.49
523.07	35.11
523.24	21.06
523.41	84.26
523.58	30.43
523.75	18.72
523.92	21.06
524.10	14.04
524.27	0.00
524.44	88.94
524.61	42.13
524.78	21.06
524.96	63.19
525.13	70.22
525.30	35.11
525.47	4.68
525.64	30.43
525.81	51.49
525.98	81.92
526.16	23.41
526.33	28.09
526.50	25.75
526.67	0.00
526.84	35.11
527.01	0.00
527.18	30.43
527.36	0.00
527.53	16.38
527.70	0.00
527.87	46.81
528.04	18.72
528.21	67.88
528.38	53.83
528.55	53.83
528.72	14.04
528.89	23.41
529.07	58.51
529.24	100.64
529.41	0.00
529.58	0.00
529.75	35.11
529.92	51.49
530.09	35.11
530.26	9.36
530.43	79.58
530.60	21.06
530.77	65.54
530.94	46.81
531.11	25.75
531.28	23.41
531.46	0.00
531.63	0.00
531.80	9.36
531.97	7.02
532.14	88.94
532.31	53.83
532.48	51.49
532.65	93.62
532.82	25.75
532.99	42.13
533.16	100.64
533.33	60.85
533.50	53.83
533.67	49.15
533.84	32.77
534.01	63.19
534.18	21.06
534.35	67.88
534.52	18.72
534.69	32.77
534.86	56.17
535.03	37.45
535.20	46.81
535.37	4.68
535.54	56.17
535.71	9.36
535.88	63.19
536.05	86.60
536.22	30.43
536.38	88.94
536.55	23.41
536.72	16.38
536.89	18.72
537.06	14.04
537.23	16.38
537.40	86.60
537.57	30.43
537.74	51.49
537.91	84.26
538.08	93.62
538.25	51.49
538.42	95.96
538.59	117.03
538.75	14.04
538.92	44.47
539.09	81.92
539.26	74.90
539.43	67.88
539.60	124.05
539.77	88.94
539.94	84.26
540.11	39.79
540.28	39.79
540.44	53.83
540.61	0.00
540.78	58.51
540.95	0.00
541.12	84.26
541.29	0.00
541.46	42.13
541.62	32.77
541.79	44.47
541.96	0.00
542.13	37.45
542.30	21.06
542.47	91.28
542.63	88.94
542.80	88.94
542.97	81.92
543.14	9.36
543.31	0.00
543.48	86.60
543.64	46.81
543.81	23.41
543.98	65.54
544.15	119.37
544.32	95.96
544.48	56.17
544.65	58.51
544.82	0.00
544.99	28.09
545.16	0.00
545.32	65.54
545.49	95.96
545.66	77.24
545.83	79.58
546.00	140.43
546.16	18.72
546.33	42.13
546.50	23.41
546.67	32.77
546.83	81.92
547.00	65.54
547.17	63.19
547.34	21.06
547.50	60.85
547.67	112.35
547.84	72.56
548.00	65.54
548.17	63.19
548.34	0.00
548.51	44.47
548.67	0.00
548.84	65.54
549.01	0.00
549.18	0.00
549.34	28.09
549.51	70.22
549.68	30.43
549.84	56.17
550.01	16.38
550.18	79.58
550.34	46.81
550.51	42.13
550.68	70.22
550.84	0.00
551.01	72.56
551.18	7.02
551.34	39.79
551.51	25.75
551.68	42.13
551.84	30.43
552.01	18.72
552.18	53.83
552.34	91.28
552.51	37.45
552.68	30.43
552.84	51.49
553.01	79.58
553.18	4.68
553.34	23.41
553.51	42.13
553.67	105.32
553.84	21.06
554.01	77.24
554.17	0.00
554.34	16.38
554.51	30.43
554.67	110.01
554.84	0.00
555.00	65.54
555.17	37.45
555.33	0.00
555.50	133.41
555.67	56.17
555.83	7.02
556.00	56.17
556.16	84.26
556.33	56.17
556.50	79.58
556.66	7.02
556.83	25.75
556.99	42.13
557.16	49.15
557.32	39.79
557.49	67.88
557.65	23.41
557.82	32.77
557.98	72.56
558.15	79.58
558.32	67.88
558.48	0.00
558.65	79.58
558.81	0.00
558.98	67.88
559.14	35.11
559.31	32.77
559.47	74.90
559.64	58.51
559.80	25.75
559.97	28.09
560.13	105.32
560.30	107.66
560.46	88.94
560.63	0.00
560.79	0.00
560.96	39.79
561.12	49.15
561.29	32.77
561.45	0.00
561.61	51.49
561.78	107.66
561.94	81.92
562.11	0.00
562.27	0.00
562.44	4.68
562.60	84.26
562.77	0.00
562.93	14.04
563.10	77.24
563.26	30.43
563.42	77.24
563.59	67.88
563.75	84.26
563.92	23.41
564.08	39.79
564.24	2.34
564.41	56.17
564.57	0.00
564.74	67.88
564.90	135.75
565.07	11.70
565.23	60.85
565.39	25.75
565.56	0.00
565.72	0.00
565.88	0.00
566.05	37.45
566.21	65.54
566.38	0.00
566.54	37.45
566.70	4.68
566.87	9.36
567.03	0.00
567.19	28.09
567.36	42.13
567.52	35.11
567.68	70.22
567.85	0.00
568.01	105.32
568.17	0.00
568.34	110.01
568.50	79.58
568.66	63.19
568.83	37.45
568.99	9.36
569.15	0.00
569.32	35.11
569.48	93.62
569.64	23.41
569.81	9.36
569.97	0.00
570.13	25.75
570.30	0.00
570.46	16.38
570.62	25.75
570.78	0.00
570.95	0.00
571.11	63.19
571.27	39.79
571.43	30.43
571.60	21.06
571.76	65.54
571.92	0.00
572.09	39.79
572.25	14.04
572.41	0.00
572.57	9.36
572.74	32.77
572.90	42.13
573.06	25.75
573.22	102.98
573.38	0.00
573.55	63.19
573.71	30.43
573.87	70.22
574.03	37.45
574.20	0.00
574.36	11.70
574.52	86.60
574.68	16.38
574.84	9.36
575.01	100.64
575.17	49.15
575.33	81.92
575.49	4.68
575.65	56.17
575.82	72.56
575.98	79.58
576.14	0.00
576.30	65.54
576.46	77.24
576.62	11.70
576.79	70.22
576.95	70.22
577.11	138.09
577.27	72.56
577.43	30.43
577.59	53.83
577.75	11.70
577.92	53.83
578.08	56.17
578.24	25.75
578.40	35.11
578.56	84.26
578.72	0.00
578.88	30.43
579.04	46.81
579.21	74.90
579.37	0.00
579.53	51.49
579.69	63.19
579.85	46.81
580.01	53.83
580.17	65.54
580.33	67.88
580.49	30.43
580.65	9.36
580.82	28.09
580.98	42.13
581.14	35.11
581.30	23.41
581.46	67.88
581.62	0.00
581.78	77.24
581.94	110.01
582.10	81.92
582.26	49.15
582.42	56.17
582.58	67.88
582.74	53.83
582.90	51.49
583.06	60.85
583.22	39.79
583.38	81.92
583.54	117.03
583.70	56.17
583.86	28.09
584.02	126.39
584.18	74.90
584.34	110.01
584.50	189.58
584.66	1076.65
584.82	2843.75
584.98	4241.05
585.14	4014.02
585.30	2403.73
585.46	1469.86
585.62	905.79
585.78	423.64
585.94	187.24
586.10	46.81
586.26	117.03
586.42	84.26
586.58	7.02
586.74	100.64
586.90	67.88
587.06	112.35
587.22	74.90
587.38	53.83
587.54	91.28
587.70	262.14
587.86	337.04
588.02	362.78
588.18	262.14
588.34	152.13
588.49	114.69
588.65	42.13
588.81	44.47
588.97	7.02
589.13	16.38
589.29	23.41
589.45	21.06
589.61	4.68
589.77	49.15
589.93	56.17
590.08	105.32
590.24	63.19
590.40	32.77
590.56	60.85
590.72	0.00
590.88	0.00
591.04	91.28
591.20	0.00
591.35	0.00
591.51	84.26
591.67	98.30
591.83	63.19
591.99	91.28
592.15	39.79
592.31	105.32
592.46	16.38
592.62	42.13
592.78	0.00
592.94	44.47
593.10	39.79
593.26	21.06
593.41	42.13
593.57	14.04
593.73	56.17
593.89	191.92
594.05	358.10
594.20	617.90
594.36	622.58
594.52	339.38
594.68	236.39
594.84	205.97
594.99	98.30
595.15	46.81
595.31	23.41
595.47	35.11
595.62	63.19
595.78	37.45
595.94	51.49
596.10	88.94
596.25	98.30
596.41	11.70
596.57	0.00
596.73	72.56
596.88	53.83
597.04	91.28
597.20	128.73
597.36	285.55
597.51	245.76
597.67	58.51
597.83	77.24
597.99	86.60
598.14	0.00
598.30	46.81
598.46	23.41
598.61	0.00
598.77	39.79
598.93	32.77
599.09	0.00
599.24	88.94
599.40	70.22
599.56	79.58
599.71	21.06
599.87	0.00
600.03	49.15
600.18	51.49
600.34	112.35
600.50	93.62
600.65	46.81
600.81	37.45
600.97	53.83
601.12	11.70
601.28	0.00
601.44	58.51
601.59	18.72
601.75	49.15
601.91	0.00
602.06	49.15
602.22	70.22
602.37	56.17
602.53	152.13
602.69	159.16
602.84	159.16
603.00	117.03
603.16	110.01
603.31	63.19
603.47	60.85
603.62	30.43
603.78	0.00
603.94	21.06
604.09	39.79
604.25	25.75
604.40	18.72
604.56	53.83
604.71	30.43
604.87	100.64
605.03	84.26
605.18	0.00
605.34	21.06
605.49	35.11
605.65	86.60
605.80	39.79
605.96	77.24
606.12	23.41
606.27	72.56
606.43	30.43
606.58	58.51
606.74	58.51
606.89	208.31
607.05	339.38
607.20	449.38
607.36	442.36
607.51	269.16
607.67	210.65
607.82	147.45
607.98	11.70
608.13	79.58
608.29	32.77
608.44	58.51
608.60	28.09
608.75	0.00
608.91	88.94
609.06	344.06
609.22	575.77
609.37	912.81
609.53	746.63
609.68	489.17
609.84	358.10
609.99	252.78
610.15	147.45
610.30	32.77
610.46	14.04
610.61	39.79
610.76	35.11
610.92	91.28
611.07	18.72
611.23	95.96
611.38	105.32
611.54	28.09
611.69	46.81
611.84	21.06
612.00	81.92
612.15	58.51
612.31	46.81
612.46	37.45
612.62	65.54
612.77	70.22
612.92	128.73
613.08	86.60
613.23	147.45
613.39	67.88
613.54	117.03
613.69	320.65
613.85	678.76
614.00	1111.75
614.15	1387.94
614.31	889.40
614.46	596.84
614.62	411.93
614.77	250.44
614.92	215.33
615.08	63.19
615.23	100.64
615.38	2.34
615.54	0.00
615.69	107.66
615.84	121.71
616.00	339.38
616.15	402.57
616.30	304.27
616.46	280.86
616.61	84.26
616.76	56.17
616.92	42.13
617.07	14.04
617.22	60.85
617.37	86.60
617.53	110.01
617.68	35.11
617.83	44.47
617.99	84.26
618.14	30.43
618.29	0.00
618.45	25.75
618.60	9.36
618.75	37.45
618.90	100.64
619.06	74.90
619.21	53.83
619.36	0.00
619.51	35.11
619.67	67.88
619.82	81.92
619.97	67.88
620.12	35.11
620.28	58.51
620.43	30.43
620.58	60.85
620.73	51.49
620.89	0.00
621.04	88.94
621.19	100.64
621.34	187.24
621.49	215.33
621.65	220.01
621.80	159.16
621.95	102.98
622.10	124.05
622.25	112.35
622.41	119.37
622.56	30.43
622.71	46.81
622.86	0.00
623.01	77.24
623.16	25.75
623.32	42.13
623.47	119.37
623.62	39.79
623.77	42.13
623.92	25.75
624.07	72.56
624.23	58.51
624.38	46.81
624.53	60.85
624.68	86.60
624.83	51.49
624.98	53.83
625.13	7.02
625.29	14.04
625.44	18.72
625.59	98.30
625.74	18.72
625.89	138.09
626.04	154.48
626.19	327.68
626.34	573.43
626.49	681.10
626.65	519.60
626.80	280.86
626.95	220.01
627.10	91.28
627.25	88.94
627.40	42.13
627.55	7.02
627.70	7.02
627.85	70.22
628.00	53.83
628.15	152.13
628.30	18.72
628.45	51.49
628.60	30.43
628.76	0.00
628.91	23.41
629.06	28.09
629.21	42.13
629.36	60.85
629.51	44.47
629.66	28.09
629.81	72.56
629.96	117.03
630.11	128.73
630.26	212.99
630.41	187.24
630.56	138.09
630.71	110.01
630.86	105.32
631.01	77.24
631.16	0.00
631.31	25.75
631.46	51.49
631.61	86.60
631.76	65.54
631.91	91.28
632.06	0.00
632.21	60.85
632.36	9.36
632.51	105.32
632.66	79.58
632.81	110.01
632.96	262.14
633.10	330.02
633.25	540.66
633.40	365.12
633.55	269.16
633.70	215.33
633.85	119.37
634.00	107.66
634.15	95.96
634.30	110.01
634.45	98.30
634.60	117.03
634.75	0.00
634.90	23.41
635.05	79.58
635.19	105.32
635.34	0.00
635.49	21.06
635.64	25.75
635.79	42.13
635.94	53.83
636.09	32.77
636.24	79.58
636.39	9.36
636.53	56.17
636.68	42.13
636.83	32.77
636.98	88.94
637.13	60.85
637.28	91.28
637.43	56.17
637.57	49.15
637.72	117.03
637.87	451.72
638.02	798.12
638.17	938.55
638.32	695.14
638.46	404.91
638.61	344.06
638.76	224.69
638.91	147.45
639.06	65.54
639.20	88.94
639.35	133.41
639.50	39.79
639.65	292.57
639.80	788.76
639.94	1149.20
640.09	1352.83
640.24	1130.48
640.39	690.46
640.54	409.59
640.68	327.68
640.83	156.82
640.98	152.13
641.13	51.49
641.27	44.47
641.42	110.01
641.57	49.15
641.72	0.00
641.86	0.00
642.01	51.49
642.16	14.04
642.31	53.83
642.45	49.15
642.60	37.45
642.75	70.22
642.90	14.04
643.04	42.13
643.19	37.45
643.34	44.47
643.48	39.79
643.63	39.79
643.78	39.79
643.93	58.51
644.07	11.70
644.22	65.54
644.37	0.00
644.51	0.00
644.66	95.96
644.81	37.45
644.95	77.24
645.10	72.56
645.25	44.47
645.39	18.72
645.54	14.04
645.69	112.35
645.83	32.77
645.98	51.49
646.13	0.00
646.27	0.00
646.42	0.00
646.57	39.79
646.71	51.49
646.86	0.00
647.00	60.85
647.15	84.26
647.30	60.85
647.44	42.13
647.59	86.60
647.74	44.47
647.88	4.68
648.03	60.85
648.17	102.98
648.32	0.00
648.47	0.00
648.61	16.38
648.76	0.00
648.90	0.00
649.05	77.24
649.20	35.11
649.34	14.04
649.49	7.02
649.63	25.75
649.78	37.45
649.92	53.83
650.07	117.03
650.21	297.25
650.36	561.73
650.51	744.29
650.65	596.84
650.80	430.66
650.94	330.02
651.09	182.56
651.23	49.15
651.38	39.79
651.52	35.11
651.67	0.00
651.81	44.47
651.96	42.13
652.10	79.58
652.25	60.85
652.39	53.83
652.54	67.88
652.68	67.88
652.83	98.30
652.97	212.99
653.12	292.57
653.26	262.14
653.41	187.24
653.55	112.35
653.70	81.92
653.84	30.43
653.99	58.51
654.13	28.09
654.27	0.00
654.42	14.04
654.56	46.81
654.71	44.47
654.85	63.19
655.00	23.41
655.14	30.43
655.29	60.85
655.43	44.47
655.57	56.17
655.72	70.22
655.86	102.98
656.01	32.77
656.15	0.00
656.30	37.45
656.44	21.06
656.58	0.00
656.73	56.17
656.87	102.98
657.01	30.43
657.16	93.62
657.30	46.81
657.45	18.72
657.59	93.62
657.73	0.00
657.88	16.38
658.02	35.11
658.16	0.00
658.31	86.60
658.45	72.56
658.60	56.17
658.74	28.09
658.88	0.00
659.03	16.38
659.17	18.72
659.31	70.22
659.46	121.71
659.60	266.82
659.74	320.65
659.89	348.74
660.03	278.52
660.17	248.10
660.32	102.98
660.46	119.37
660.60	14.04
660.74	0.00
660.89	23.41
661.03	28.09
661.17	51.49
661.32	0.00
661.46	65.54
661.60	0.00
661.74	0.00
661.89	39.79
662.03	7.02
662.17	0.00
662.31	0.00
662.46	11.70
662.60	0.00
662.74	11.70
662.88	18.72
663.03	67.88
663.17	25.75
663.31	67.88
663.45	95.96
663.60	9.36
663.74	30.43
663.88	0.00
664.02	51.49
664.17	70.22
664.31	42.13
664.45	81.92
664.59	100.64
664.73	30.43
664.88	39.79
665.02	56.17
665.16	98.30
665.30	30.43
665.44	28.09
665.59	51.49
665.73	0.00
665.87	37.45
666.01	91.28
666.15	16.38
666.29	0.00
666.44	0.00
666.58	30.43
666.72	21.06
666.86	37.45
667.00	11.70
667.14	16.38
667.28	67.88
667.43	292.57
667.57	465.77
667.71	645.99
667.85	526.62
667.99	407.25
668.13	236.39
668.27	138.09
668.41	124.05
668.56	74.90
668.70	0.00
668.84	65.54
668.98	81.92
669.12	44.47
669.26	0.00
669.40	124.05
669.54	35.11
669.68	51.49
669.82	4.68
669.96	21.06
670.10	0.00
670.25	39.79
670.39	0.00
670.53	42.13
670.67	35.11
670.81	18.72
670.95	4.68
671.09	44.47
671.23	98.30
671.37	262.14
671.51	402.57
671.65	470.45
671.79	315.97
671.93	269.16
672.07	173.20
672.21	161.50
672.35	74.90
672.49	39.79
672.63	65.54
672.77	46.81
672.91	84.26
673.05	74.90
673.19	72.56
673.33	7.02
673.47	49.15
673.61	65.54
673.75	0.00
673.89	0.00
674.03	79.58
674.17	0.00
674.31	46.81
674.45	49.15
674.59	35.11
674.73	51.49
674.87	7.02
675.01	18.72
675.15	16.38
675.29	0.00
675.43	51.49
675.56	23.41
675.70	44.47
675.84	0.00
675.98	70.22
676.12	4.68
676.26	49.15
676.40	79.58
676.54	0.00
676.68	53.83
676.82	72.56
676.96	30.43
677.10	84.26
677.23	0.00
677.37	37.45
677.51	23.41
677.65	0.00
677.79	0.00
677.93	0.00
678.07	14.04
678.21	25.75
678.34	0.00
678.48	0.00
678.62	14.04
678.76	65.54
678.90	39.79
679.04	0.00
679.18	16.38
679.31	30.43
679.45	81.92
679.59	2.34
679.73	0.00
679.87	0.00
680.00	65.54
680.14	23.41
680.28	28.09
680.42	65.54
680.56	84.26
680.70	65.54
680.83	107.66
680.97	46.81
681.11	7.02
681.25	39.79
681.39	65.54
681.52	0.00
681.66	35.11
681.80	11.70
681.94	14.04
682.07	18.72
682.21	72.56
682.35	0.00
682.49	0.00
682.62	28.09
682.76	53.83
682.90	77.24
683.04	2.34
683.17	53.83
683.31	16.38
683.45	60.85
683.59	67.88
683.72	58.51
683.86	0.00
684.00	77.24
684.13	105.32
684.27	21.06
684.41	0.00
684.55	91.28
684.68	14.04
684.82	44.47
684.96	0.00
685.09	77.24
685.23	32.77
685.37	18.72
685.50	70.22
685.64	37.45
685.78	42.13
685.91	58.51
686.05	14.04
686.19	42.13
686.32	16.38
686.46	67.88
686.60	4.68
686.73	0.00
686.87	7.02
687.01	35.11
687.14	72.56
687.28	28.09
687.42	0.00
687.55	37.45
687.69	39.79
687.82	11.70
687.96	18.72
688.10	0.00
688.23	0.00
688.37	0.00
688.50	81.92
688.64	135.75
688.78	0.00
688.91	0.00
689.05	91.28
689.18	49.15
689.32	30.43
689.46	42.13
689.59	79.58
689.73	16.38
689.86	30.43
690.00	49.15
690.13	60.85
690.27	74.90
690.41	25.75
690.54	35.11
690.68	37.45
690.81	37.45
690.95	0.00
691.08	0.00
691.22	39.79
691.35	51.49
691.49	100.64
691.62	0.00
691.76	0.00
691.89	0.00
692.03	86.60
692.16	0.00
692.30	21.06
692.43	42.13
692.57	131.07
692.70	311.29
692.84	294.91
692.97	283.20
693.11	250.44
693.24	105.32
693.38	121.71
693.51	138.09
693.65	67.88
693.78	74.90
693.92	84.26
694.05	18.72
694.19	14.04
694.32	32.77
694.45	63.19
694.59	63.19
694.72	110.01
694.86	0.00
694.99	42.13
695.13	88.94
695.26	21.06
695.39	0.00
695.53	23.41
695.66	46.81
695.80	0.00
695.93	46.81
696.07	18.72
696.20	74.90
696.33	63.19
696.47	39.79
696.60	114.69
696.73	79.58
696.87	98.30
697.00	46.81
697.14	16.38
697.27	25.75
697.40	58.51
697.54	18.72
697.67	63.19
697.80	53.83
697.94	39.79
698.07	4.68
698.21	25.75
698.34	0.00
698.47	91.28
698.61	37.45
698.74	23.41
698.87	0.00
699.01	2.34
699.14	9.36
699.27	2.34
699.40	46.81
699.54	9.36
699.67	44.47
699.80	0.00
699.94	65.54
700.07	70.22
700.20	7.02
700.34	14.04
700.47	65.54
700.60	39.79
700.73	53.83
700.87	70.22
701.00	7.02
701.13	23.41
701.26	74.90
701.40	88.94
701.53	39.79
701.66	7.02
701.79	0.00
701.93	7.02
702.06	0.00
702.19	32.77
702.32	63.19
702.46	58.51
702.59	46.81
702.72	74.90
702.85	217.67
702.99	397.89
703.12	442.36
703.25	582.79
703.38	477.47
703.51	402.57
703.65	241.08
703.78	285.55
703.91	154.48
704.04	154.48
704.17	56.17
704.31	77.24
704.44	51.49
704.57	0.00
704.70	49.15
704.83	81.92
704.96	2.34
705.10	30.43
705.23	42.13
>>>>>End Processed Spectral Data<<<<<
