SpectraSuite Data File
++++++++++++++++++++++++++++++++++++
Date: Fri Oct 04 12:13:43 GMT-05:00 2013
User: price-jones
Dark Spectrum Present: No
Reference Spectrum Present: No
Number of Sampled Component Spectra: 1
Spectrometers: USB2+H05261
Integration Time (usec): 10000 (USB2+H05261)
Spectra Averaged: 1 (USB2+H05261)
Boxcar Smoothing: 0 (USB2+H05261)
Correct for Electrical Dark: No (USB2+H05261)
Strobe/Lamp Enabled: No (USB2+H05261)
Correct for Detector Non-linearity: No (USB2+H05261)
Correct for Stray Light: No (USB2+H05261)
Number of Pixels in Processed Spectrum: 2048
>>>>>Begin Processed Spectral Data<<<<<
365.73	0.00
365.92	0.00
366.12	0.00
366.32	0.00
366.52	0.00
366.72	0.00
366.91	0.00
367.11	0.00
367.31	0.00
367.51	0.00
367.70	0.00
367.90	0.00
368.10	0.00
368.30	0.00
368.49	0.00
368.69	0.00
368.89	0.00
369.09	0.00
369.28	0.00
369.48	0.00
369.68	0.00
369.87	0.00
370.07	0.00
370.27	0.00
370.47	0.00
370.66	0.00
370.86	0.00
371.06	0.00
371.25	0.00
371.45	0.00
371.65	72.56
371.84	0.00
372.04	44.47
372.24	44.47
372.44	32.77
372.63	51.49
372.83	70.22
373.03	0.00
373.22	0.00
373.42	0.00
373.62	25.75
373.81	28.09
374.01	0.00
374.21	0.00
374.40	56.17
374.60	63.19
374.79	56.17
374.99	0.00
375.19	37.45
375.38	53.83
375.58	32.77
375.78	2.34
375.97	35.11
376.17	37.45
376.37	93.62
376.56	30.43
376.76	56.17
376.95	9.36
377.15	18.72
377.35	56.17
377.54	18.72
377.74	0.00
377.93	65.54
378.13	79.58
378.33	4.68
378.52	39.79
378.72	42.13
378.91	28.09
379.11	23.41
379.31	60.85
379.50	42.13
379.70	58.51
379.89	37.45
380.09	65.54
380.28	0.00
380.48	0.00
380.68	49.15
380.87	74.90
381.07	23.41
381.26	7.02
381.46	11.70
381.65	9.36
381.85	77.24
382.04	28.09
382.24	16.38
382.43	56.17
382.63	23.41
382.83	77.24
383.02	21.06
383.22	0.00
383.41	58.51
383.61	2.34
383.80	23.41
384.00	0.00
384.19	21.06
384.39	117.03
384.58	60.85
384.78	42.13
384.97	7.02
385.17	0.00
385.36	9.36
385.56	28.09
385.75	2.34
385.95	14.04
386.14	44.47
386.34	70.22
386.53	84.26
386.72	0.00
386.92	21.06
387.11	21.06
387.31	30.43
387.50	91.28
387.70	0.00
387.89	49.15
388.09	0.00
388.28	42.13
388.48	67.88
388.67	16.38
388.86	23.41
389.06	21.06
389.25	0.00
389.45	30.43
389.64	7.02
389.84	25.75
390.03	72.56
390.22	16.38
390.42	0.00
390.61	7.02
390.81	0.00
391.00	18.72
391.19	32.77
391.39	4.68
391.58	77.24
391.78	0.00
391.97	30.43
392.16	0.00
392.36	105.32
392.55	65.54
392.75	0.00
392.94	0.00
393.13	0.00
393.33	23.41
393.52	32.77
393.71	4.68
393.91	21.06
394.10	0.00
394.29	58.51
394.49	25.75
394.68	0.00
394.88	23.41
395.07	37.45
395.26	0.00
395.46	9.36
395.65	65.54
395.84	0.00
396.04	28.09
396.23	9.36
396.42	51.49
396.62	0.00
396.81	32.77
397.00	0.00
397.19	46.81
397.39	25.75
397.58	44.47
397.77	95.96
397.97	7.02
398.16	100.64
398.35	51.49
398.55	18.72
398.74	77.24
398.93	21.06
399.12	72.56
399.32	74.90
399.51	28.09
399.70	35.11
399.90	42.13
400.09	30.43
400.28	37.45
400.47	51.49
400.67	95.96
400.86	49.15
401.05	67.88
401.24	37.45
401.44	53.83
401.63	11.70
401.82	91.28
402.01	93.62
402.21	67.88
402.40	110.01
402.59	37.45
402.78	51.49
402.97	23.41
403.17	14.04
403.36	37.45
403.55	49.15
403.74	51.49
403.93	0.00
404.13	9.36
404.32	74.90
404.51	60.85
404.70	53.83
404.89	23.41
405.09	98.30
405.28	16.38
405.47	21.06
405.66	2.34
405.85	42.13
406.05	46.81
406.24	51.49
406.43	28.09
406.62	51.49
406.81	4.68
407.00	42.13
407.20	81.92
407.39	11.70
407.58	56.17
407.77	53.83
407.96	95.96
408.15	72.56
408.34	95.96
408.54	23.41
408.73	0.00
408.92	107.66
409.11	86.60
409.30	30.43
409.49	42.13
409.68	53.83
409.87	79.58
410.07	58.51
410.26	28.09
410.45	53.83
410.64	2.34
410.83	42.13
411.02	7.02
411.21	35.11
411.40	42.13
411.59	51.49
411.78	58.51
411.98	53.83
412.17	81.92
412.36	11.70
412.55	53.83
412.74	0.00
412.93	124.05
413.12	88.94
413.31	25.75
413.50	35.11
413.69	65.54
413.88	18.72
414.07	51.49
414.26	25.75
414.45	58.51
414.64	65.54
414.83	166.18
415.02	51.49
415.22	67.88
415.41	70.22
415.60	67.88
415.79	112.35
415.98	81.92
416.17	51.49
416.36	65.54
416.55	60.85
416.74	102.98
416.93	88.94
417.12	95.96
417.31	25.75
417.50	58.51
417.69	58.51
417.88	51.49
418.07	77.24
418.26	74.90
418.45	28.09
418.64	93.62
418.83	60.85
419.02	84.26
419.21	110.01
419.39	70.22
419.58	67.88
419.77	46.81
419.96	51.49
420.15	142.77
420.34	79.58
420.53	23.41
420.72	124.05
420.91	25.75
421.10	138.09
421.29	110.01
421.48	63.19
421.67	32.77
421.86	77.24
422.05	51.49
422.24	98.30
422.43	72.56
422.61	175.54
422.80	74.90
422.99	37.45
423.18	60.85
423.37	72.56
423.56	49.15
423.75	114.69
423.94	70.22
424.13	32.77
424.32	49.15
424.50	44.47
424.69	44.47
424.88	131.07
425.07	100.64
425.26	100.64
425.45	18.72
425.64	70.22
425.83	37.45
426.01	65.54
426.20	37.45
426.39	74.90
426.58	121.71
426.77	79.58
426.96	56.17
427.15	44.47
427.33	51.49
427.52	98.30
427.71	74.90
427.90	44.47
428.09	18.72
428.28	72.56
428.46	67.88
428.65	112.35
428.84	88.94
429.03	131.07
429.22	107.66
429.40	131.07
429.59	105.32
429.78	110.01
429.97	77.24
430.16	105.32
430.34	0.00
430.53	72.56
430.72	126.39
430.91	88.94
431.10	18.72
431.28	53.83
431.47	9.36
431.66	81.92
431.85	93.62
432.03	77.24
432.22	91.28
432.41	30.43
432.60	51.49
432.79	117.03
432.97	60.85
433.16	100.64
433.35	65.54
433.54	23.41
433.72	58.51
433.91	81.92
434.10	93.62
434.28	56.17
434.47	112.35
434.66	84.26
434.85	53.83
435.03	117.03
435.22	114.69
435.41	112.35
435.59	0.00
435.78	35.11
435.97	95.96
436.16	156.82
436.34	124.05
436.53	107.66
436.72	63.19
436.90	56.17
437.09	63.19
437.28	63.19
437.46	56.17
437.65	91.28
437.84	110.01
438.02	67.88
438.21	114.69
438.40	98.30
438.58	100.64
438.77	79.58
438.96	88.94
439.14	74.90
439.33	79.58
439.52	72.56
439.70	98.30
439.89	117.03
440.08	79.58
440.26	102.98
440.45	72.56
440.63	91.28
440.82	98.30
441.01	154.48
441.19	42.13
441.38	37.45
441.57	105.32
441.75	182.56
441.94	138.09
442.12	84.26
442.31	131.07
442.50	72.56
442.68	149.79
442.87	98.30
443.05	110.01
443.24	70.22
443.43	65.54
443.61	187.24
443.80	65.54
443.98	124.05
444.17	84.26
444.35	147.45
444.54	32.77
444.73	124.05
444.91	77.24
445.10	51.49
445.28	128.73
445.47	21.06
445.65	23.41
445.84	65.54
446.02	72.56
446.21	74.90
446.39	79.58
446.58	194.26
446.77	79.58
446.95	72.56
447.14	105.32
447.32	77.24
447.51	126.39
447.69	44.47
447.88	77.24
448.06	100.64
448.25	147.45
448.43	74.90
448.62	56.17
448.80	128.73
448.99	117.03
449.17	37.45
449.36	53.83
449.54	170.86
449.73	100.64
449.91	0.00
450.10	110.01
450.28	126.39
450.46	133.41
450.65	93.62
450.83	53.83
451.02	128.73
451.20	95.96
451.39	88.94
451.57	95.96
451.76	93.62
451.94	98.30
452.13	88.94
452.31	135.75
452.49	102.98
452.68	56.17
452.86	110.01
453.05	60.85
453.23	100.64
453.42	84.26
453.60	67.88
453.78	53.83
453.97	65.54
454.15	53.83
454.34	133.41
454.52	159.16
454.70	145.11
454.89	124.05
455.07	77.24
455.26	25.75
455.44	53.83
455.62	131.07
455.81	28.09
455.99	70.22
456.17	112.35
456.36	102.98
456.54	138.09
456.73	58.51
456.91	145.11
457.09	114.69
457.28	107.66
457.46	98.30
457.64	74.90
457.83	32.77
458.01	74.90
458.19	91.28
458.38	0.00
458.56	126.39
458.74	124.05
458.93	107.66
459.11	88.94
459.29	60.85
459.48	100.64
459.66	35.11
459.84	100.64
460.03	124.05
460.21	91.28
460.39	98.30
460.57	124.05
460.76	131.07
460.94	156.82
461.12	79.58
461.31	63.19
461.49	107.66
461.67	53.83
461.85	117.03
462.04	72.56
462.22	154.48
462.40	100.64
462.59	65.54
462.77	126.39
462.95	121.71
463.13	86.60
463.32	110.01
463.50	119.37
463.68	79.58
463.86	81.92
464.05	88.94
464.23	135.75
464.41	133.41
464.59	119.37
464.78	175.54
464.96	79.58
465.14	147.45
465.32	124.05
465.50	102.98
465.69	84.26
465.87	147.45
466.05	110.01
466.23	65.54
466.41	126.39
466.60	65.54
466.78	42.13
466.96	67.88
467.14	77.24
467.32	39.79
467.51	133.41
467.69	154.48
467.87	60.85
468.05	147.45
468.23	39.79
468.41	107.66
468.60	128.73
468.78	121.71
468.96	145.11
469.14	114.69
469.32	93.62
469.50	67.88
469.69	49.15
469.87	70.22
470.05	124.05
470.23	88.94
470.41	91.28
470.59	63.19
470.77	105.32
470.95	86.60
471.14	154.48
471.32	72.56
471.50	91.28
471.68	126.39
471.86	142.77
472.04	175.54
472.22	63.19
472.40	119.37
472.58	117.03
472.77	95.96
472.95	140.43
473.13	140.43
473.31	112.35
473.49	93.62
473.67	93.62
473.85	88.94
474.03	145.11
474.21	95.96
474.39	114.69
474.57	91.28
474.75	93.62
474.93	152.13
475.12	72.56
475.30	42.13
475.48	79.58
475.66	163.84
475.84	98.30
476.02	95.96
476.20	138.09
476.38	149.79
476.56	95.96
476.74	142.77
476.92	128.73
477.10	98.30
477.28	77.24
477.46	86.60
477.64	95.96
477.82	133.41
478.00	107.66
478.18	100.64
478.36	133.41
478.54	32.77
478.72	79.58
478.90	194.26
479.08	105.32
479.26	117.03
479.44	84.26
479.62	140.43
479.80	154.48
479.98	105.32
480.16	86.60
480.34	126.39
480.52	18.72
480.70	112.35
480.88	60.85
481.06	117.03
481.24	72.56
481.41	140.43
481.59	142.77
481.77	37.45
481.95	152.13
482.13	107.66
482.31	70.22
482.49	135.75
482.67	126.39
482.85	145.11
483.03	107.66
483.21	124.05
483.39	114.69
483.57	180.22
483.74	170.86
483.92	145.11
484.10	110.01
484.28	72.56
484.46	187.24
484.64	100.64
484.82	128.73
485.00	191.92
485.18	133.41
485.35	128.73
485.53	138.09
485.71	84.26
485.89	152.13
486.07	135.75
486.25	67.88
486.43	140.43
486.61	145.11
486.78	152.13
486.96	42.13
487.14	145.11
487.32	39.79
487.50	154.48
487.68	128.73
487.85	168.52
488.03	86.60
488.21	163.84
488.39	149.79
488.57	152.13
488.75	107.66
488.92	114.69
489.10	180.22
489.28	145.11
489.46	149.79
489.64	110.01
489.81	49.15
489.99	140.43
490.17	121.71
490.35	135.75
490.53	117.03
490.70	138.09
490.88	98.30
491.06	168.52
491.24	114.69
491.41	56.17
491.59	128.73
491.77	74.90
491.95	100.64
492.13	159.16
492.30	191.92
492.48	163.84
492.66	166.18
492.84	159.16
493.01	168.52
493.19	191.92
493.37	152.13
493.54	117.03
493.72	149.79
493.90	65.54
494.08	168.52
494.25	112.35
494.43	133.41
494.61	152.13
494.79	145.11
494.96	135.75
495.14	159.16
495.32	175.54
495.49	161.50
495.67	159.16
495.85	98.30
496.02	117.03
496.20	149.79
496.38	145.11
496.55	79.58
496.73	112.35
496.91	135.75
497.09	93.62
497.26	93.62
497.44	112.35
497.62	131.07
497.79	105.32
497.97	163.84
498.14	107.66
498.32	161.50
498.50	114.69
498.67	112.35
498.85	163.84
499.03	124.05
499.20	166.18
499.38	60.85
499.56	173.20
499.73	142.77
499.91	168.52
500.08	98.30
500.26	133.41
500.44	46.81
500.61	147.45
500.79	138.09
500.97	131.07
501.14	117.03
501.32	102.98
501.49	175.54
501.67	140.43
501.84	224.69
502.02	154.48
502.20	149.79
502.37	159.16
502.55	152.13
502.72	98.30
502.90	159.16
503.07	105.32
503.25	119.37
503.43	124.05
503.60	133.41
503.78	152.13
503.95	91.28
504.13	166.18
504.30	201.29
504.48	191.92
504.65	131.07
504.83	135.75
505.01	128.73
505.18	161.50
505.36	161.50
505.53	140.43
505.71	208.31
505.88	110.01
506.06	145.11
506.23	131.07
506.41	133.41
506.58	56.17
506.76	105.32
506.93	135.75
507.11	110.01
507.28	112.35
507.46	159.16
507.63	161.50
507.81	117.03
507.98	154.48
508.16	84.26
508.33	152.13
508.50	208.31
508.68	135.75
508.85	107.66
509.03	208.31
509.20	145.11
509.38	173.20
509.55	170.86
509.73	212.99
509.90	196.60
510.08	194.26
510.25	86.60
510.42	196.60
510.60	182.56
510.77	175.54
510.95	231.71
511.12	159.16
511.30	98.30
511.47	191.92
511.64	149.79
511.82	159.16
511.99	131.07
512.17	182.56
512.34	222.35
512.51	234.05
512.69	168.52
512.86	149.79
513.04	170.86
513.21	180.22
513.38	182.56
513.56	107.66
513.73	159.16
513.90	166.18
514.08	154.48
514.25	198.95
514.43	156.82
514.60	121.71
514.77	149.79
514.95	159.16
515.12	142.77
515.29	203.63
515.47	297.25
515.64	212.99
515.81	227.03
515.99	203.63
516.16	166.18
516.33	168.52
516.51	175.54
516.68	152.13
516.85	114.69
517.03	133.41
517.20	114.69
517.37	177.88
517.54	88.94
517.72	110.01
517.89	166.18
518.06	159.16
518.24	201.29
518.41	229.37
518.58	77.24
518.75	159.16
518.93	133.41
519.10	142.77
519.27	154.48
519.45	117.03
519.62	166.18
519.79	152.13
519.96	227.03
520.14	203.63
520.31	170.86
520.48	170.86
520.65	138.09
520.83	177.88
521.00	184.90
521.17	166.18
521.34	145.11
521.52	203.63
521.69	224.69
521.86	168.52
522.03	180.22
522.20	126.39
522.38	152.13
522.55	166.18
522.72	187.24
522.89	166.18
523.07	102.98
523.24	182.56
523.41	149.79
523.58	135.75
523.75	205.97
523.92	154.48
524.10	91.28
524.27	156.82
524.44	208.31
524.61	142.77
524.78	236.39
524.96	241.08
525.13	147.45
525.30	175.54
525.47	166.18
525.64	124.05
525.81	124.05
525.98	121.71
526.16	168.52
526.33	114.69
526.50	114.69
526.67	81.92
526.84	152.13
527.01	205.97
527.18	189.58
527.36	217.67
527.53	166.18
527.70	60.85
527.87	201.29
528.04	163.84
528.21	98.30
528.38	175.54
528.55	177.88
528.72	149.79
528.89	161.50
529.07	173.20
529.24	135.75
529.41	191.92
529.58	168.52
529.75	154.48
529.92	135.75
530.09	163.84
530.26	147.45
530.43	154.48
530.60	166.18
530.77	159.16
530.94	133.41
531.11	198.95
531.28	175.54
531.46	173.20
531.63	166.18
531.80	161.50
531.97	194.26
532.14	175.54
532.31	205.97
532.48	159.16
532.65	201.29
532.82	149.79
532.99	102.98
533.16	140.43
533.33	175.54
533.50	182.56
533.67	100.64
533.84	224.69
534.01	49.15
534.18	203.63
534.35	154.48
534.52	201.29
534.69	88.94
534.86	142.77
535.03	138.09
535.20	140.43
535.37	140.43
535.54	145.11
535.71	152.13
535.88	222.35
536.05	177.88
536.22	133.41
536.38	180.22
536.55	107.66
536.72	145.11
536.89	145.11
537.06	161.50
537.23	126.39
537.40	152.13
537.57	67.88
537.74	124.05
537.91	140.43
538.08	135.75
538.25	154.48
538.42	161.50
538.59	166.18
538.75	131.07
538.92	110.01
539.09	100.64
539.26	72.56
539.43	177.88
539.60	198.95
539.77	119.37
539.94	107.66
540.11	114.69
540.28	212.99
540.44	166.18
540.61	95.96
540.78	135.75
540.95	196.60
541.12	147.45
541.29	135.75
541.46	163.84
541.62	124.05
541.79	119.37
541.96	149.79
542.13	142.77
542.30	170.86
542.47	147.45
542.63	131.07
542.80	166.18
542.97	142.77
543.14	88.94
543.31	215.33
543.48	252.78
543.64	173.20
543.81	205.97
543.98	154.48
544.15	145.11
544.32	149.79
544.48	182.56
544.65	191.92
544.82	159.16
544.99	198.95
545.16	159.16
545.32	173.20
545.49	175.54
545.66	154.48
545.83	124.05
546.00	114.69
546.16	175.54
546.33	248.10
546.50	191.92
546.67	140.43
546.83	110.01
547.00	152.13
547.17	163.84
547.34	156.82
547.50	166.18
547.67	25.75
547.84	135.75
548.00	163.84
548.17	138.09
548.34	156.82
548.51	154.48
548.67	180.22
548.84	168.52
549.01	86.60
549.18	201.29
549.34	191.92
549.51	138.09
549.68	114.69
549.84	210.65
550.01	126.39
550.18	138.09
550.34	149.79
550.51	93.62
550.68	102.98
550.84	198.95
551.01	175.54
551.18	147.45
551.34	145.11
551.51	149.79
551.68	166.18
551.84	170.86
552.01	189.58
552.18	147.45
552.34	124.05
552.51	168.52
552.68	110.01
552.84	191.92
553.01	124.05
553.18	102.98
553.34	110.01
553.51	149.79
553.67	145.11
553.84	161.50
554.01	121.71
554.17	131.07
554.34	107.66
554.51	138.09
554.67	163.84
554.84	175.54
555.00	163.84
555.17	220.01
555.33	222.35
555.50	138.09
555.67	175.54
555.83	72.56
556.00	98.30
556.16	156.82
556.33	126.39
556.50	145.11
556.66	131.07
556.83	147.45
556.99	95.96
557.16	124.05
557.32	220.01
557.49	191.92
557.65	77.24
557.82	72.56
557.98	107.66
558.15	182.56
558.32	168.52
558.48	166.18
558.65	135.75
558.81	105.32
558.98	65.54
559.14	205.97
559.31	191.92
559.47	149.79
559.64	170.86
559.80	126.39
559.97	138.09
560.13	159.16
560.30	88.94
560.46	117.03
560.63	128.73
560.79	117.03
560.96	65.54
561.12	159.16
561.29	229.37
561.45	98.30
561.61	163.84
561.78	63.19
561.94	182.56
562.11	175.54
562.27	201.29
562.44	236.39
562.60	100.64
562.77	102.98
562.93	110.01
563.10	135.75
563.26	105.32
563.42	177.88
563.59	74.90
563.75	102.98
563.92	161.50
564.08	98.30
564.24	135.75
564.41	166.18
564.57	173.20
564.74	135.75
564.90	170.86
565.07	159.16
565.23	107.66
565.39	128.73
565.56	86.60
565.72	145.11
565.88	161.50
566.05	147.45
566.21	159.16
566.38	154.48
566.54	102.98
566.70	135.75
566.87	110.01
567.03	149.79
567.19	84.26
567.36	147.45
567.52	205.97
567.68	152.13
567.85	149.79
568.01	161.50
568.17	198.95
568.34	177.88
568.50	126.39
568.66	124.05
568.83	126.39
568.99	166.18
569.15	79.58
569.32	105.32
569.48	138.09
569.64	159.16
569.81	114.69
569.97	100.64
570.13	128.73
570.30	100.64
570.46	81.92
570.62	161.50
570.78	159.16
570.95	170.86
571.11	149.79
571.27	74.90
571.43	79.58
571.60	119.37
571.76	135.75
571.92	121.71
572.09	231.71
572.25	156.82
572.41	126.39
572.57	119.37
572.74	138.09
572.90	117.03
573.06	121.71
573.22	86.60
573.38	154.48
573.55	163.84
573.71	28.09
573.87	194.26
574.03	102.98
574.20	196.60
574.36	107.66
574.52	105.32
574.68	126.39
574.84	117.03
575.01	117.03
575.17	173.20
575.33	177.88
575.49	142.77
575.65	126.39
575.82	117.03
575.98	140.43
576.14	156.82
576.30	81.92
576.46	189.58
576.62	161.50
576.79	173.20
576.95	112.35
577.11	205.97
577.27	126.39
577.43	147.45
577.59	117.03
577.75	107.66
577.92	105.32
578.08	60.85
578.24	133.41
578.40	67.88
578.56	105.32
578.72	175.54
578.88	63.19
579.04	98.30
579.21	140.43
579.37	145.11
579.53	168.52
579.69	70.22
579.85	114.69
580.01	173.20
580.17	102.98
580.33	149.79
580.49	98.30
580.65	119.37
580.82	166.18
580.98	91.28
581.14	107.66
581.30	180.22
581.46	138.09
581.62	60.85
581.78	124.05
581.94	147.45
582.10	177.88
582.26	91.28
582.42	98.30
582.58	114.69
582.74	117.03
582.90	98.30
583.06	149.79
583.22	84.26
583.38	46.81
583.54	63.19
583.70	147.45
583.86	173.20
584.02	133.41
584.18	88.94
584.34	119.37
584.50	63.19
584.66	131.07
584.82	152.13
584.98	56.17
585.14	168.52
585.30	65.54
585.46	161.50
585.62	140.43
585.78	112.35
585.94	114.69
586.10	58.51
586.26	180.22
586.42	121.71
586.58	168.52
586.74	60.85
586.90	196.60
587.06	102.98
587.22	135.75
587.38	142.77
587.54	88.94
587.70	147.45
587.86	128.73
588.02	84.26
588.18	152.13
588.34	77.24
588.49	126.39
588.65	56.17
588.81	145.11
588.97	121.71
589.13	65.54
589.29	114.69
589.45	91.28
589.61	35.11
589.77	107.66
589.93	39.79
590.08	182.56
590.24	91.28
590.40	166.18
590.56	84.26
590.72	81.92
590.88	117.03
591.04	145.11
591.20	182.56
591.35	91.28
591.51	117.03
591.67	81.92
591.83	112.35
591.99	93.62
592.15	156.82
592.31	98.30
592.46	100.64
592.62	67.88
592.78	110.01
592.94	67.88
593.10	114.69
593.26	119.37
593.41	60.85
593.57	173.20
593.73	114.69
593.89	86.60
594.05	105.32
594.20	107.66
594.36	16.38
594.52	114.69
594.68	72.56
594.84	145.11
594.99	126.39
595.15	124.05
595.31	72.56
595.47	86.60
595.62	107.66
595.78	152.13
595.94	152.13
596.10	51.49
596.25	138.09
596.41	126.39
596.57	128.73
596.73	42.13
596.88	135.75
597.04	102.98
597.20	121.71
597.36	88.94
597.51	93.62
597.67	124.05
597.83	121.71
597.99	74.90
598.14	154.48
598.30	114.69
598.46	51.49
598.61	63.19
598.77	161.50
598.93	56.17
599.09	187.24
599.24	117.03
599.40	135.75
599.56	98.30
599.71	189.58
599.87	117.03
600.03	170.86
600.18	140.43
600.34	121.71
600.50	53.83
600.65	56.17
600.81	86.60
600.97	166.18
601.12	72.56
601.28	170.86
601.44	173.20
601.59	154.48
601.75	163.84
601.91	74.90
602.06	98.30
602.22	117.03
602.37	74.90
602.53	135.75
602.69	135.75
602.84	107.66
603.00	180.22
603.16	163.84
603.31	166.18
603.47	145.11
603.62	138.09
603.78	135.75
603.94	65.54
604.09	121.71
604.25	166.18
604.40	110.01
604.56	105.32
604.71	170.86
604.87	70.22
605.03	105.32
605.18	46.81
605.34	77.24
605.49	152.13
605.65	124.05
605.80	184.90
605.96	124.05
606.12	102.98
606.27	91.28
606.43	95.96
606.58	180.22
606.74	93.62
606.89	173.20
607.05	121.71
607.20	95.96
607.36	100.64
607.51	84.26
607.67	93.62
607.82	117.03
607.98	107.66
608.13	180.22
608.29	60.85
608.44	67.88
608.60	131.07
608.75	133.41
608.91	74.90
609.06	95.96
609.22	100.64
609.37	131.07
609.53	140.43
609.68	37.45
609.84	88.94
609.99	86.60
610.15	25.75
610.30	9.36
610.46	86.60
610.61	149.79
610.76	112.35
610.92	70.22
611.07	161.50
611.23	100.64
611.38	65.54
611.54	119.37
611.69	154.48
611.84	170.86
612.00	119.37
612.15	84.26
612.31	140.43
612.46	112.35
612.62	67.88
612.77	110.01
612.92	114.69
613.08	112.35
613.23	70.22
613.39	46.81
613.54	70.22
613.69	100.64
613.85	67.88
614.00	161.50
614.15	114.69
614.31	70.22
614.46	91.28
614.62	56.17
614.77	156.82
614.92	93.62
615.08	140.43
615.23	205.97
615.38	77.24
615.54	110.01
615.69	53.83
615.84	93.62
616.00	124.05
616.15	140.43
616.30	112.35
616.46	81.92
616.61	84.26
616.76	182.56
616.92	93.62
617.07	70.22
617.22	140.43
617.37	124.05
617.53	84.26
617.68	126.39
617.83	112.35
617.99	166.18
618.14	28.09
618.29	138.09
618.45	110.01
618.60	152.13
618.75	88.94
618.90	42.13
619.06	140.43
619.21	37.45
619.36	145.11
619.51	21.06
619.67	93.62
619.82	21.06
619.97	25.75
620.12	79.58
620.28	105.32
620.43	86.60
620.58	81.92
620.73	138.09
620.89	112.35
621.04	117.03
621.19	112.35
621.34	67.88
621.49	147.45
621.65	100.64
621.80	79.58
621.95	163.84
622.10	159.16
622.25	91.28
622.41	35.11
622.56	91.28
622.71	114.69
622.86	117.03
623.01	56.17
623.16	124.05
623.32	98.30
623.47	149.79
623.62	126.39
623.77	149.79
623.92	100.64
624.07	46.81
624.23	112.35
624.38	95.96
624.53	135.75
624.68	28.09
624.83	121.71
624.98	98.30
625.13	53.83
625.29	25.75
625.44	152.13
625.59	107.66
625.74	114.69
625.89	121.71
626.04	91.28
626.19	117.03
626.34	102.98
626.49	121.71
626.65	168.52
626.80	58.51
626.95	112.35
627.10	121.71
627.25	16.38
627.40	121.71
627.55	37.45
627.70	95.96
627.85	79.58
628.00	98.30
628.15	84.26
628.30	114.69
628.45	46.81
628.60	18.72
628.76	100.64
628.91	65.54
629.06	117.03
629.21	51.49
629.36	112.35
629.51	102.98
629.66	124.05
629.81	110.01
629.96	133.41
630.11	110.01
630.26	42.13
630.41	81.92
630.56	126.39
630.71	86.60
630.86	32.77
631.01	145.11
631.16	77.24
631.31	110.01
631.46	42.13
631.61	182.56
631.76	84.26
631.91	70.22
632.06	128.73
632.21	32.77
632.36	110.01
632.51	65.54
632.66	201.29
632.81	140.43
632.96	124.05
633.10	42.13
633.25	95.96
633.40	159.16
633.55	133.41
633.70	37.45
633.85	81.92
634.00	91.28
634.15	100.64
634.30	107.66
634.45	58.51
634.60	49.15
634.75	107.66
634.90	138.09
635.05	95.96
635.19	112.35
635.34	114.69
635.49	74.90
635.64	140.43
635.79	117.03
635.94	114.69
636.09	102.98
636.24	35.11
636.39	86.60
636.53	63.19
636.68	142.77
636.83	119.37
636.98	110.01
637.13	0.00
637.28	84.26
637.43	67.88
637.57	114.69
637.72	84.26
637.87	63.19
638.02	110.01
638.17	138.09
638.32	91.28
638.46	79.58
638.61	110.01
638.76	51.49
638.91	91.28
639.06	93.62
639.20	51.49
639.35	110.01
639.50	117.03
639.65	7.02
639.80	16.38
639.94	2.34
640.09	77.24
640.24	124.05
640.39	84.26
640.54	56.17
640.68	79.58
640.83	56.17
640.98	117.03
641.13	42.13
641.27	107.66
641.42	28.09
641.57	77.24
641.72	182.56
641.86	65.54
642.01	46.81
642.16	81.92
642.31	91.28
642.45	21.06
642.60	110.01
642.75	86.60
642.90	98.30
643.04	100.64
643.19	147.45
643.34	81.92
643.48	72.56
643.63	88.94
643.78	154.48
643.93	65.54
644.07	49.15
644.22	117.03
644.37	65.54
644.51	67.88
644.66	93.62
644.81	154.48
644.95	107.66
645.10	98.30
645.25	138.09
645.39	79.58
645.54	91.28
645.69	100.64
645.83	35.11
645.98	149.79
646.13	126.39
646.27	107.66
646.42	28.09
646.57	30.43
646.71	32.77
646.86	91.28
647.00	98.30
647.15	70.22
647.30	128.73
647.44	74.90
647.59	112.35
647.74	98.30
647.88	32.77
648.03	60.85
648.17	58.51
648.32	46.81
648.47	105.32
648.61	44.47
648.76	95.96
648.90	119.37
649.05	65.54
649.20	74.90
649.34	112.35
649.49	152.13
649.63	0.00
649.78	70.22
649.92	25.75
650.07	35.11
650.21	133.41
650.36	110.01
650.51	49.15
650.65	100.64
650.80	95.96
650.94	117.03
651.09	131.07
651.23	119.37
651.38	65.54
651.52	114.69
651.67	11.70
651.81	84.26
651.96	98.30
652.10	114.69
652.25	77.24
652.39	112.35
652.54	95.96
652.68	133.41
652.83	58.51
652.97	154.48
653.12	42.13
653.26	74.90
653.41	70.22
653.55	81.92
653.70	51.49
653.84	46.81
653.99	95.96
654.13	70.22
654.27	30.43
654.42	84.26
654.56	77.24
654.71	30.43
654.85	72.56
655.00	2.34
655.14	112.35
655.29	140.43
655.43	114.69
655.57	67.88
655.72	16.38
655.86	9.36
656.01	42.13
656.15	30.43
656.30	95.96
656.44	9.36
656.58	42.13
656.73	63.19
656.87	23.41
657.01	77.24
657.16	117.03
657.30	39.79
657.45	74.90
657.59	74.90
657.73	67.88
657.88	149.79
658.02	110.01
658.16	44.47
658.31	135.75
658.45	35.11
658.60	65.54
658.74	138.09
658.88	98.30
659.03	4.68
659.17	11.70
659.31	42.13
659.46	74.90
659.60	56.17
659.74	77.24
659.89	117.03
660.03	70.22
660.17	53.83
660.32	112.35
660.46	39.79
660.60	102.98
660.74	88.94
660.89	21.06
661.03	39.79
661.17	65.54
661.32	84.26
661.46	74.90
661.60	44.47
661.74	11.70
661.89	114.69
662.03	88.94
662.17	51.49
662.31	135.75
662.46	114.69
662.60	147.45
662.74	77.24
662.88	67.88
663.03	79.58
663.17	86.60
663.31	49.15
663.45	100.64
663.60	152.13
663.74	119.37
663.88	58.51
664.02	67.88
664.17	44.47
664.31	46.81
664.45	60.85
664.59	84.26
664.73	98.30
664.88	84.26
665.02	105.32
665.16	63.19
665.30	44.47
665.44	70.22
665.59	42.13
665.73	70.22
665.87	121.71
666.01	51.49
666.15	105.32
666.29	84.26
666.44	81.92
666.58	58.51
666.72	58.51
666.86	51.49
667.00	147.45
667.14	88.94
667.28	67.88
667.43	102.98
667.57	93.62
667.71	0.00
667.85	49.15
667.99	117.03
668.13	93.62
668.27	135.75
668.41	23.41
668.56	77.24
668.70	46.81
668.84	67.88
668.98	42.13
669.12	107.66
669.26	161.50
669.40	58.51
669.54	77.24
669.68	105.32
669.82	72.56
669.96	37.45
670.10	72.56
670.25	88.94
670.39	39.79
670.53	72.56
670.67	25.75
670.81	128.73
670.95	149.79
671.09	49.15
671.23	98.30
671.37	2.34
671.51	79.58
671.65	102.98
671.79	65.54
671.93	56.17
672.07	77.24
672.21	32.77
672.35	84.26
672.49	98.30
672.63	67.88
672.77	4.68
672.91	88.94
673.05	58.51
673.19	74.90
673.33	30.43
673.47	77.24
673.61	18.72
673.75	147.45
673.89	49.15
674.03	72.56
674.17	53.83
674.31	70.22
674.45	95.96
674.59	100.64
674.73	95.96
674.87	58.51
675.01	58.51
675.15	28.09
675.29	70.22
675.43	95.96
675.56	131.07
675.70	65.54
675.84	77.24
675.98	173.20
676.12	51.49
676.26	93.62
676.40	65.54
676.54	67.88
676.68	91.28
676.82	95.96
676.96	37.45
677.10	58.51
677.23	100.64
677.37	65.54
677.51	84.26
677.65	88.94
677.79	0.00
677.93	88.94
678.07	32.77
678.21	100.64
678.34	72.56
678.48	46.81
678.62	56.17
678.76	70.22
678.90	79.58
679.04	67.88
679.18	39.79
679.31	107.66
679.45	117.03
679.59	74.90
679.73	79.58
679.87	7.02
680.00	16.38
680.14	65.54
680.28	70.22
680.42	79.58
680.56	14.04
680.70	37.45
680.83	65.54
680.97	0.00
681.11	91.28
681.25	135.75
681.39	46.81
681.52	56.17
681.66	70.22
681.80	91.28
681.94	46.81
682.07	93.62
682.21	25.75
682.35	37.45
682.49	25.75
682.62	58.51
682.76	28.09
682.90	70.22
683.04	81.92
683.17	81.92
683.31	18.72
683.45	28.09
683.59	14.04
683.72	58.51
683.86	93.62
684.00	35.11
684.13	9.36
684.27	37.45
684.41	51.49
684.55	16.38
684.68	58.51
684.82	35.11
684.96	107.66
685.09	117.03
685.23	0.00
685.37	23.41
685.50	0.00
685.64	0.00
685.78	14.04
685.91	9.36
686.05	44.47
686.19	11.70
686.32	154.48
686.46	23.41
686.60	0.00
686.73	49.15
686.87	42.13
687.01	39.79
687.14	14.04
687.28	60.85
687.42	9.36
687.55	63.19
687.69	65.54
687.82	56.17
687.96	112.35
688.10	91.28
688.23	21.06
688.37	84.26
688.50	18.72
688.64	44.47
688.78	30.43
688.91	91.28
689.05	60.85
689.18	53.83
689.32	131.07
689.46	117.03
689.59	60.85
689.73	74.90
689.86	93.62
690.00	114.69
690.13	63.19
690.27	70.22
690.41	25.75
690.54	32.77
690.68	18.72
690.81	0.00
690.95	65.54
691.08	70.22
691.22	0.00
691.35	49.15
691.49	117.03
691.62	72.56
691.76	0.00
691.89	70.22
692.03	53.83
692.16	100.64
692.30	18.72
692.43	25.75
692.57	25.75
692.70	18.72
692.84	84.26
692.97	30.43
693.11	39.79
693.24	35.11
693.38	58.51
693.51	42.13
693.65	46.81
693.78	7.02
693.92	88.94
694.05	2.34
694.19	18.72
694.32	91.28
694.45	145.11
694.59	0.00
694.72	51.49
694.86	35.11
694.99	0.00
695.13	72.56
695.26	156.82
695.39	32.77
695.53	35.11
695.66	60.85
695.80	63.19
695.93	0.00
696.07	32.77
696.20	4.68
696.33	100.64
696.47	25.75
696.60	86.60
696.73	56.17
696.87	23.41
697.00	81.92
697.14	51.49
697.27	44.47
697.40	18.72
697.54	21.06
697.67	56.17
697.80	65.54
697.94	126.39
698.07	51.49
698.21	32.77
698.34	58.51
698.47	84.26
698.61	70.22
698.74	37.45
698.87	84.26
699.01	53.83
699.14	46.81
699.27	105.32
699.40	77.24
699.54	25.75
699.67	23.41
699.80	95.96
699.94	30.43
700.07	49.15
700.20	30.43
700.34	58.51
700.47	37.45
700.60	0.00
700.73	0.00
700.87	70.22
701.00	46.81
701.13	35.11
701.26	105.32
701.40	0.00
701.53	72.56
701.66	0.00
701.79	0.00
701.93	14.04
702.06	81.92
702.19	0.00
702.32	56.17
702.46	0.00
702.59	63.19
702.72	49.15
702.85	58.51
702.99	16.38
703.12	23.41
703.25	32.77
703.38	84.26
703.51	32.77
703.65	28.09
703.78	4.68
703.91	74.90
704.04	37.45
704.17	2.34
704.31	98.30
704.44	0.00
704.57	42.13
704.70	63.19
704.83	0.00
704.96	28.09
705.10	39.79
705.23	117.03
>>>>>End Processed Spectral Data<<<<<
