SpectraSuite Data File
++++++++++++++++++++++++++++++++++++
Date: Fri Oct 04 12:13:24 GMT-05:00 2013
User: price-jones
Dark Spectrum Present: No
Reference Spectrum Present: No
Number of Sampled Component Spectra: 1
Spectrometers: USB2+H05261
Integration Time (usec): 10000 (USB2+H05261)
Spectra Averaged: 1 (USB2+H05261)
Boxcar Smoothing: 0 (USB2+H05261)
Correct for Electrical Dark: No (USB2+H05261)
Strobe/Lamp Enabled: No (USB2+H05261)
Correct for Detector Non-linearity: No (USB2+H05261)
Correct for Stray Light: No (USB2+H05261)
Number of Pixels in Processed Spectrum: 2048
>>>>>Begin Processed Spectral Data<<<<<
365.73	37.45
365.92	37.45
366.12	37.45
366.32	0.00
366.52	0.00
366.72	0.00
366.91	0.00
367.11	0.00
367.31	0.00
367.51	0.00
367.70	0.00
367.90	0.00
368.10	0.00
368.30	0.00
368.49	0.00
368.69	0.00
368.89	0.00
369.09	0.00
369.28	0.00
369.48	0.00
369.68	0.00
369.87	0.00
370.07	0.00
370.27	0.00
370.47	0.00
370.66	0.00
370.86	0.00
371.06	0.00
371.25	0.00
371.45	0.00
371.65	0.00
371.84	7.02
372.04	11.70
372.24	18.72
372.44	30.43
372.63	49.15
372.83	0.00
373.03	0.00
373.22	18.72
373.42	53.83
373.62	11.70
373.81	0.00
374.01	16.38
374.21	60.85
374.40	32.77
374.60	0.00
374.79	37.45
374.99	35.11
375.19	7.02
375.38	30.43
375.58	18.72
375.78	39.79
375.97	65.54
376.17	70.22
376.37	9.36
376.56	100.64
376.76	14.04
376.95	56.17
377.15	18.72
377.35	0.00
377.54	37.45
377.74	0.00
377.93	18.72
378.13	30.43
378.33	42.13
378.52	28.09
378.72	70.22
378.91	30.43
379.11	32.77
379.31	21.06
379.50	0.00
379.70	7.02
379.89	16.38
380.09	21.06
380.28	84.26
380.48	11.70
380.68	32.77
380.87	51.49
381.07	53.83
381.26	46.81
381.46	0.00
381.65	74.90
381.85	37.45
382.04	51.49
382.24	37.45
382.43	0.00
382.63	25.75
382.83	0.00
383.02	70.22
383.22	37.45
383.41	0.00
383.61	79.58
383.80	58.51
384.00	0.00
384.19	0.00
384.39	0.00
384.58	0.00
384.78	0.00
384.97	16.38
385.17	23.41
385.36	0.00
385.56	25.75
385.75	2.34
385.95	14.04
386.14	0.00
386.34	14.04
386.53	0.00
386.72	14.04
386.92	0.00
387.11	58.51
387.31	60.85
387.50	30.43
387.70	44.47
387.89	2.34
388.09	65.54
388.28	0.00
388.48	7.02
388.67	0.00
388.86	79.58
389.06	4.68
389.25	0.00
389.45	32.77
389.64	21.06
389.84	86.60
390.03	60.85
390.22	30.43
390.42	0.00
390.61	28.09
390.81	44.47
391.00	30.43
391.19	28.09
391.39	0.00
391.58	30.43
391.78	37.45
391.97	2.34
392.16	49.15
392.36	51.49
392.55	42.13
392.75	30.43
392.94	39.79
393.13	9.36
393.33	0.00
393.52	49.15
393.71	21.06
393.91	37.45
394.10	0.00
394.29	21.06
394.49	37.45
394.68	2.34
394.88	0.00
395.07	0.00
395.26	0.00
395.46	14.04
395.65	2.34
395.84	18.72
396.04	0.00
396.23	0.00
396.42	84.26
396.62	11.70
396.81	39.79
397.00	74.90
397.19	49.15
397.39	70.22
397.58	30.43
397.77	0.00
397.97	11.70
398.16	11.70
398.35	21.06
398.55	37.45
398.74	0.00
398.93	30.43
399.12	67.88
399.32	0.00
399.51	7.02
399.70	0.00
399.90	9.36
400.09	102.98
400.28	60.85
400.47	28.09
400.67	16.38
400.86	30.43
401.05	0.00
401.24	110.01
401.44	9.36
401.63	14.04
401.82	79.58
402.01	46.81
402.21	44.47
402.40	30.43
402.59	21.06
402.78	25.75
402.97	0.00
403.17	21.06
403.36	16.38
403.55	11.70
403.74	67.88
403.93	18.72
404.13	2.34
404.32	53.83
404.51	28.09
404.70	60.85
404.89	58.51
405.09	107.66
405.28	32.77
405.47	67.88
405.66	63.19
405.85	67.88
406.05	0.00
406.24	60.85
406.43	30.43
406.62	0.00
406.81	23.41
407.00	44.47
407.20	0.00
407.39	0.00
407.58	18.72
407.77	0.00
407.96	98.30
408.15	18.72
408.34	0.00
408.54	42.13
408.73	0.00
408.92	42.13
409.11	37.45
409.30	0.00
409.49	0.00
409.68	35.11
409.87	14.04
410.07	39.79
410.26	58.51
410.45	60.85
410.64	93.62
410.83	0.00
411.02	28.09
411.21	42.13
411.40	46.81
411.59	60.85
411.78	42.13
411.98	9.36
412.17	0.00
412.36	23.41
412.55	63.19
412.74	4.68
412.93	16.38
413.12	63.19
413.31	91.28
413.50	58.51
413.69	0.00
413.88	44.47
414.07	28.09
414.26	0.00
414.45	93.62
414.64	4.68
414.83	28.09
415.02	74.90
415.22	2.34
415.41	84.26
415.60	44.47
415.79	79.58
415.98	0.00
416.17	9.36
416.36	0.00
416.55	0.00
416.74	9.36
416.93	0.00
417.12	0.00
417.31	0.00
417.50	0.00
417.69	51.49
417.88	0.00
418.07	0.00
418.26	14.04
418.45	18.72
418.64	0.00
418.83	74.90
419.02	28.09
419.21	18.72
419.39	44.47
419.58	65.54
419.77	81.92
419.96	0.00
420.15	67.88
420.34	0.00
420.53	4.68
420.72	14.04
420.91	65.54
421.10	81.92
421.29	16.38
421.48	0.00
421.67	46.81
421.86	0.00
422.05	0.00
422.24	46.81
422.43	72.56
422.61	0.00
422.80	0.00
422.99	0.00
423.18	70.22
423.37	14.04
423.56	39.79
423.75	72.56
423.94	25.75
424.13	86.60
424.32	0.00
424.50	77.24
424.69	49.15
424.88	0.00
425.07	86.60
425.26	0.00
425.45	63.19
425.64	23.41
425.83	2.34
426.01	25.75
426.20	32.77
426.39	23.41
426.58	0.00
426.77	25.75
426.96	72.56
427.15	93.62
427.33	0.00
427.52	32.77
427.71	42.13
427.90	56.17
428.09	18.72
428.28	2.34
428.46	0.00
428.65	0.00
428.84	0.00
429.03	0.00
429.22	35.11
429.40	65.54
429.59	0.00
429.78	25.75
429.97	32.77
430.16	42.13
430.34	25.75
430.53	16.38
430.72	25.75
430.91	53.83
431.10	28.09
431.28	100.64
431.47	84.26
431.66	18.72
431.85	0.00
432.03	35.11
432.22	53.83
432.41	0.00
432.60	53.83
432.79	23.41
432.97	25.75
433.16	46.81
433.35	0.00
433.54	0.00
433.72	0.00
433.91	18.72
434.10	81.92
434.28	91.28
434.47	14.04
434.66	39.79
434.85	9.36
435.03	0.00
435.22	98.30
435.41	0.00
435.59	9.36
435.78	0.00
435.97	28.09
436.16	0.00
436.34	7.02
436.53	51.49
436.72	91.28
436.90	56.17
437.09	65.54
437.28	0.00
437.46	0.00
437.65	79.58
437.84	67.88
438.02	28.09
438.21	16.38
438.40	0.00
438.58	35.11
438.77	0.00
438.96	11.70
439.14	11.70
439.33	2.34
439.52	0.00
439.70	46.81
439.89	14.04
440.08	81.92
440.26	46.81
440.45	0.00
440.63	14.04
440.82	63.19
441.01	0.00
441.19	14.04
441.38	0.00
441.57	70.22
441.75	25.75
441.94	11.70
442.12	67.88
442.31	30.43
442.50	100.64
442.68	63.19
442.87	16.38
443.05	28.09
443.24	16.38
443.43	16.38
443.61	30.43
443.80	32.77
443.98	0.00
444.17	32.77
444.35	102.98
444.54	2.34
444.73	25.75
444.91	28.09
445.10	77.24
445.28	28.09
445.47	0.00
445.65	51.49
445.84	39.79
446.02	32.77
446.21	35.11
446.39	21.06
446.58	107.66
446.77	102.98
446.95	0.00
447.14	0.00
447.32	67.88
447.51	51.49
447.69	25.75
447.88	49.15
448.06	0.00
448.25	11.70
448.43	32.77
448.62	32.77
448.80	35.11
448.99	51.49
449.17	0.00
449.36	37.45
449.54	4.68
449.73	126.39
449.91	60.85
450.10	37.45
450.28	46.81
450.46	25.75
450.65	81.92
450.83	35.11
451.02	44.47
451.20	0.00
451.39	23.41
451.57	0.00
451.76	0.00
451.94	74.90
452.13	28.09
452.31	18.72
452.49	23.41
452.68	56.17
452.86	23.41
453.05	0.00
453.23	23.41
453.42	7.02
453.60	25.75
453.78	42.13
453.97	35.11
454.15	0.00
454.34	7.02
454.52	14.04
454.70	30.43
454.89	11.70
455.07	0.00
455.26	30.43
455.44	30.43
455.62	51.49
455.81	11.70
455.99	0.00
456.17	39.79
456.36	11.70
456.54	42.13
456.73	16.38
456.91	16.38
457.09	2.34
457.28	42.13
457.46	65.54
457.64	32.77
457.83	28.09
458.01	4.68
458.19	16.38
458.38	37.45
458.56	4.68
458.74	102.98
458.93	2.34
459.11	37.45
459.29	60.85
459.48	77.24
459.66	18.72
459.84	37.45
460.03	49.15
460.21	32.77
460.39	18.72
460.57	95.96
460.76	56.17
460.94	28.09
461.12	49.15
461.31	11.70
461.49	72.56
461.67	56.17
461.85	81.92
462.04	18.72
462.22	133.41
462.40	95.96
462.59	30.43
462.77	9.36
462.95	37.45
463.13	21.06
463.32	9.36
463.50	35.11
463.68	72.56
463.86	70.22
464.05	0.00
464.23	0.00
464.41	0.00
464.59	37.45
464.78	0.00
464.96	21.06
465.14	86.60
465.32	0.00
465.50	70.22
465.69	51.49
465.87	0.00
466.05	7.02
466.23	51.49
466.41	35.11
466.60	88.94
466.78	37.45
466.96	53.83
467.14	58.51
467.32	86.60
467.51	0.00
467.69	23.41
467.87	42.13
468.05	0.00
468.23	100.64
468.41	16.38
468.60	0.00
468.78	63.19
468.96	39.79
469.14	28.09
469.32	0.00
469.50	0.00
469.69	0.00
469.87	14.04
470.05	0.00
470.23	11.70
470.41	0.00
470.59	25.75
470.77	53.83
470.95	44.47
471.14	21.06
471.32	93.62
471.50	86.60
471.68	25.75
471.86	23.41
472.04	28.09
472.22	0.00
472.40	0.00
472.58	16.38
472.77	39.79
472.95	117.03
473.13	0.00
473.31	0.00
473.49	21.06
473.67	14.04
473.85	0.00
474.03	0.00
474.21	7.02
474.39	46.81
474.57	39.79
474.75	124.05
474.93	0.00
475.12	46.81
475.30	46.81
475.48	25.75
475.66	32.77
475.84	77.24
476.02	46.81
476.20	0.00
476.38	63.19
476.56	39.79
476.74	25.75
476.92	18.72
477.10	60.85
477.28	30.43
477.46	0.00
477.64	46.81
477.82	53.83
478.00	9.36
478.18	32.77
478.36	30.43
478.54	49.15
478.72	39.79
478.90	35.11
479.08	0.00
479.26	16.38
479.44	58.51
479.62	74.90
479.80	0.00
479.98	2.34
480.16	0.00
480.34	32.77
480.52	56.17
480.70	0.00
480.88	14.04
481.06	0.00
481.24	58.51
481.41	18.72
481.59	37.45
481.77	56.17
481.95	37.45
482.13	60.85
482.31	21.06
482.49	86.60
482.67	81.92
482.85	23.41
483.03	23.41
483.21	16.38
483.39	63.19
483.57	72.56
483.74	70.22
483.92	81.92
484.10	9.36
484.28	21.06
484.46	77.24
484.64	16.38
484.82	35.11
485.00	35.11
485.18	9.36
485.35	39.79
485.53	49.15
485.71	84.26
485.89	21.06
486.07	35.11
486.25	58.51
486.43	67.88
486.61	37.45
486.78	67.88
486.96	46.81
487.14	72.56
487.32	42.13
487.50	0.00
487.68	114.69
487.85	23.41
488.03	0.00
488.21	0.00
488.39	51.49
488.57	79.58
488.75	112.35
488.92	53.83
489.10	21.06
489.28	16.38
489.46	74.90
489.64	9.36
489.81	98.30
489.99	93.62
490.17	58.51
490.35	2.34
490.53	49.15
490.70	4.68
490.88	105.32
491.06	58.51
491.24	0.00
491.41	56.17
491.59	4.68
491.77	0.00
491.95	25.75
492.13	63.19
492.30	28.09
492.48	51.49
492.66	53.83
492.84	46.81
493.01	44.47
493.19	65.54
493.37	44.47
493.54	7.02
493.72	35.11
493.90	0.00
494.08	0.00
494.25	72.56
494.43	28.09
494.61	53.83
494.79	105.32
494.96	88.94
495.14	0.00
495.32	23.41
495.49	30.43
495.67	25.75
495.85	37.45
496.02	60.85
496.20	0.00
496.38	0.00
496.55	74.90
496.73	98.30
496.91	70.22
497.09	70.22
497.26	98.30
497.44	11.70
497.62	72.56
497.79	70.22
497.97	77.24
498.14	72.56
498.32	4.68
498.50	0.00
498.67	32.77
498.85	74.90
499.03	25.75
499.20	18.72
499.38	74.90
499.56	67.88
499.73	74.90
499.91	147.45
500.08	25.75
500.26	72.56
500.44	16.38
500.61	0.00
500.79	35.11
500.97	107.66
501.14	28.09
501.32	39.79
501.49	7.02
501.67	44.47
501.84	28.09
502.02	112.35
502.20	67.88
502.37	14.04
502.55	7.02
502.72	7.02
502.90	86.60
503.07	32.77
503.25	14.04
503.43	98.30
503.60	32.77
503.78	28.09
503.95	30.43
504.13	39.79
504.30	70.22
504.48	0.00
504.65	25.75
504.83	67.88
505.01	53.83
505.18	119.37
505.36	49.15
505.53	58.51
505.71	88.94
505.88	79.58
506.06	84.26
506.23	39.79
506.41	9.36
506.58	65.54
506.76	95.96
506.93	0.00
507.11	0.00
507.28	30.43
507.46	32.77
507.63	32.77
507.81	88.94
507.98	2.34
508.16	63.19
508.33	23.41
508.50	23.41
508.68	2.34
508.85	56.17
509.03	105.32
509.20	32.77
509.38	39.79
509.55	88.94
509.73	51.49
509.90	4.68
510.08	126.39
510.25	35.11
510.42	79.58
510.60	121.71
510.77	42.13
510.95	46.81
511.12	30.43
511.30	58.51
511.47	46.81
511.64	65.54
511.82	18.72
511.99	0.00
512.17	102.98
512.34	72.56
512.51	0.00
512.69	72.56
512.86	110.01
513.04	72.56
513.21	7.02
513.38	16.38
513.56	98.30
513.73	28.09
513.90	49.15
514.08	84.26
514.25	58.51
514.43	46.81
514.60	0.00
514.77	39.79
514.95	53.83
515.12	35.11
515.29	70.22
515.47	11.70
515.64	77.24
515.81	105.32
515.99	65.54
516.16	107.66
516.33	88.94
516.51	0.00
516.68	18.72
516.85	39.79
517.03	72.56
517.20	9.36
517.37	51.49
517.54	39.79
517.72	0.00
517.89	70.22
518.06	88.94
518.24	16.38
518.41	35.11
518.58	81.92
518.75	23.41
518.93	91.28
519.10	11.70
519.27	0.00
519.45	30.43
519.62	67.88
519.79	53.83
519.96	65.54
520.14	23.41
520.31	25.75
520.48	0.00
520.65	4.68
520.83	2.34
521.00	39.79
521.17	63.19
521.34	88.94
521.52	49.15
521.69	30.43
521.86	117.03
522.03	21.06
522.20	14.04
522.38	95.96
522.55	49.15
522.72	23.41
522.89	7.02
523.07	67.88
523.24	42.13
523.41	84.26
523.58	63.19
523.75	121.71
523.92	70.22
524.10	7.02
524.27	56.17
524.44	51.49
524.61	39.79
524.78	2.34
524.96	56.17
525.13	88.94
525.30	56.17
525.47	25.75
525.64	56.17
525.81	30.43
525.98	39.79
526.16	9.36
526.33	67.88
526.50	49.15
526.67	133.41
526.84	79.58
527.01	60.85
527.18	93.62
527.36	95.96
527.53	0.00
527.70	53.83
527.87	44.47
528.04	81.92
528.21	18.72
528.38	70.22
528.55	84.26
528.72	42.13
528.89	147.45
529.07	107.66
529.24	67.88
529.41	161.50
529.58	42.13
529.75	39.79
529.92	74.90
530.09	67.88
530.26	107.66
530.43	98.30
530.60	121.71
530.77	4.68
530.94	11.70
531.11	4.68
531.28	44.47
531.46	0.00
531.63	49.15
531.80	74.90
531.97	9.36
532.14	2.34
532.31	67.88
532.48	11.70
532.65	32.77
532.82	9.36
532.99	18.72
533.16	14.04
533.33	35.11
533.50	37.45
533.67	7.02
533.84	32.77
534.01	70.22
534.18	39.79
534.35	70.22
534.52	98.30
534.69	98.30
534.86	0.00
535.03	0.00
535.20	0.00
535.37	102.98
535.54	51.49
535.71	23.41
535.88	23.41
536.05	42.13
536.22	0.00
536.38	88.94
536.55	18.72
536.72	44.47
536.89	0.00
537.06	91.28
537.23	63.19
537.40	0.00
537.57	53.83
537.74	42.13
537.91	58.51
538.08	0.00
538.25	110.01
538.42	23.41
538.59	14.04
538.75	147.45
538.92	39.79
539.09	135.75
539.26	81.92
539.43	39.79
539.60	23.41
539.77	77.24
539.94	72.56
540.11	63.19
540.28	84.26
540.44	58.51
540.61	0.00
540.78	2.34
540.95	70.22
541.12	46.81
541.29	70.22
541.46	46.81
541.62	60.85
541.79	58.51
541.96	28.09
542.13	117.03
542.30	0.00
542.47	28.09
542.63	4.68
542.80	107.66
542.97	23.41
543.14	81.92
543.31	60.85
543.48	79.58
543.64	0.00
543.81	28.09
543.98	9.36
544.15	70.22
544.32	7.02
544.48	65.54
544.65	4.68
544.82	51.49
544.99	0.00
545.16	81.92
545.32	65.54
545.49	60.85
545.66	60.85
545.83	51.49
546.00	32.77
546.16	18.72
546.33	16.38
546.50	35.11
546.67	42.13
546.83	37.45
547.00	35.11
547.17	65.54
547.34	44.47
547.50	42.13
547.67	63.19
547.84	53.83
548.00	35.11
548.17	60.85
548.34	70.22
548.51	2.34
548.67	9.36
548.84	0.00
549.01	107.66
549.18	11.70
549.34	63.19
549.51	49.15
549.68	18.72
549.84	21.06
550.01	21.06
550.18	121.71
550.34	51.49
550.51	0.00
550.68	0.00
550.84	53.83
551.01	91.28
551.18	0.00
551.34	32.77
551.51	0.00
551.68	30.43
551.84	2.34
552.01	23.41
552.18	0.00
552.34	42.13
552.51	21.06
552.68	74.90
552.84	30.43
553.01	0.00
553.18	67.88
553.34	65.54
553.51	0.00
553.67	95.96
553.84	35.11
554.01	7.02
554.17	51.49
554.34	35.11
554.51	30.43
554.67	0.00
554.84	23.41
555.00	102.98
555.17	74.90
555.33	95.96
555.50	42.13
555.67	28.09
555.83	39.79
556.00	14.04
556.16	25.75
556.33	16.38
556.50	16.38
556.66	70.22
556.83	18.72
556.99	117.03
557.16	95.96
557.32	0.00
557.49	77.24
557.65	35.11
557.82	28.09
557.98	21.06
558.15	0.00
558.32	102.98
558.48	56.17
558.65	37.45
558.81	2.34
558.98	39.79
559.14	88.94
559.31	81.92
559.47	91.28
559.64	100.64
559.80	42.13
559.97	23.41
560.13	100.64
560.30	53.83
560.46	18.72
560.63	35.11
560.79	65.54
560.96	128.73
561.12	49.15
561.29	23.41
561.45	117.03
561.61	30.43
561.78	23.41
561.94	4.68
562.11	0.00
562.27	44.47
562.44	100.64
562.60	32.77
562.77	11.70
562.93	0.00
563.10	16.38
563.26	21.06
563.42	53.83
563.59	37.45
563.75	63.19
563.92	79.58
564.08	35.11
564.24	7.02
564.41	112.35
564.57	32.77
564.74	11.70
564.90	121.71
565.07	60.85
565.23	49.15
565.39	70.22
565.56	0.00
565.72	42.13
565.88	79.58
566.05	39.79
566.21	46.81
566.38	70.22
566.54	0.00
566.70	81.92
566.87	0.00
567.03	0.00
567.19	0.00
567.36	32.77
567.52	42.13
567.68	49.15
567.85	0.00
568.01	0.00
568.17	0.00
568.34	98.30
568.50	14.04
568.66	37.45
568.83	0.00
568.99	0.00
569.15	53.83
569.32	77.24
569.48	23.41
569.64	18.72
569.81	60.85
569.97	138.09
570.13	131.07
570.30	88.94
570.46	49.15
570.62	25.75
570.78	18.72
570.95	58.51
571.11	65.54
571.27	4.68
571.43	25.75
571.60	72.56
571.76	0.00
571.92	51.49
572.09	147.45
572.25	37.45
572.41	28.09
572.57	35.11
572.74	32.77
572.90	0.00
573.06	67.88
573.22	67.88
573.38	4.68
573.55	49.15
573.71	0.00
573.87	60.85
574.03	44.47
574.20	11.70
574.36	2.34
574.52	56.17
574.68	0.00
574.84	72.56
575.01	114.69
575.17	100.64
575.33	44.47
575.49	0.00
575.65	14.04
575.82	93.62
575.98	0.00
576.14	67.88
576.30	9.36
576.46	51.49
576.62	0.00
576.79	67.88
576.95	95.96
577.11	63.19
577.27	51.49
577.43	56.17
577.59	32.77
577.75	107.66
577.92	95.96
578.08	0.00
578.24	35.11
578.40	30.43
578.56	30.43
578.72	42.13
578.88	0.00
579.04	37.45
579.21	65.54
579.37	74.90
579.53	32.77
579.69	65.54
579.85	46.81
580.01	0.00
580.17	46.81
580.33	72.56
580.49	79.58
580.65	23.41
580.82	9.36
580.98	23.41
581.14	18.72
581.30	58.51
581.46	0.00
581.62	0.00
581.78	56.17
581.94	32.77
582.10	0.00
582.26	49.15
582.42	0.00
582.58	77.24
582.74	60.85
582.90	0.00
583.06	18.72
583.22	53.83
583.38	72.56
583.54	98.30
583.70	49.15
583.86	0.00
584.02	63.19
584.18	44.47
584.34	53.83
584.50	53.83
584.66	16.38
584.82	9.36
584.98	32.77
585.14	112.35
585.30	74.90
585.46	42.13
585.62	28.09
585.78	14.04
585.94	25.75
586.10	30.43
586.26	100.64
586.42	0.00
586.58	60.85
586.74	44.47
586.90	21.06
587.06	88.94
587.22	51.49
587.38	11.70
587.54	0.00
587.70	121.71
587.86	67.88
588.02	11.70
588.18	91.28
588.34	37.45
588.49	65.54
588.65	0.00
588.81	0.00
588.97	65.54
589.13	0.00
589.29	0.00
589.45	18.72
589.61	0.00
589.77	21.06
589.93	9.36
590.08	21.06
590.24	53.83
590.40	37.45
590.56	44.47
590.72	79.58
590.88	100.64
591.04	49.15
591.20	91.28
591.35	23.41
591.51	0.00
591.67	23.41
591.83	39.79
591.99	39.79
592.15	14.04
592.31	0.00
592.46	37.45
592.62	42.13
592.78	44.47
592.94	35.11
593.10	77.24
593.26	67.88
593.41	11.70
593.57	124.05
593.73	98.30
593.89	7.02
594.05	44.47
594.20	56.17
594.36	9.36
594.52	0.00
594.68	35.11
594.84	44.47
594.99	95.96
595.15	37.45
595.31	107.66
595.47	14.04
595.62	86.60
595.78	98.30
595.94	35.11
596.10	39.79
596.25	67.88
596.41	77.24
596.57	30.43
596.73	0.00
596.88	32.77
597.04	25.75
597.20	39.79
597.36	14.04
597.51	11.70
597.67	63.19
597.83	28.09
597.99	11.70
598.14	65.54
598.30	9.36
598.46	53.83
598.61	35.11
598.77	0.00
598.93	16.38
599.09	60.85
599.24	42.13
599.40	9.36
599.56	0.00
599.71	65.54
599.87	67.88
600.03	74.90
600.18	37.45
600.34	25.75
600.50	72.56
600.65	51.49
600.81	63.19
600.97	56.17
601.12	39.79
601.28	53.83
601.44	11.70
601.59	9.36
601.75	74.90
601.91	11.70
602.06	18.72
602.22	44.47
602.37	16.38
602.53	56.17
602.69	14.04
602.84	0.00
603.00	14.04
603.16	23.41
603.31	32.77
603.47	0.00
603.62	0.00
603.78	93.62
603.94	117.03
604.09	46.81
604.25	28.09
604.40	30.43
604.56	63.19
604.71	32.77
604.87	51.49
605.03	7.02
605.18	0.00
605.34	60.85
605.49	37.45
605.65	56.17
605.80	51.49
605.96	72.56
606.12	0.00
606.27	25.75
606.43	58.51
606.58	16.38
606.74	0.00
606.89	7.02
607.05	70.22
607.20	39.79
607.36	51.49
607.51	25.75
607.67	0.00
607.82	63.19
607.98	9.36
608.13	0.00
608.29	100.64
608.44	35.11
608.60	0.00
608.75	67.88
608.91	21.06
609.06	95.96
609.22	142.77
609.37	77.24
609.53	77.24
609.68	131.07
609.84	28.09
609.99	53.83
610.15	37.45
610.30	0.00
610.46	0.00
610.61	0.00
610.76	53.83
610.92	30.43
611.07	14.04
611.23	81.92
611.38	56.17
611.54	0.00
611.69	0.00
611.84	4.68
612.00	0.00
612.15	0.00
612.31	88.94
612.46	56.17
612.62	60.85
612.77	39.79
612.92	0.00
613.08	124.05
613.23	42.13
613.39	72.56
613.54	0.00
613.69	58.51
613.85	0.00
614.00	25.75
614.15	16.38
614.31	65.54
614.46	72.56
614.62	0.00
614.77	0.00
614.92	0.00
615.08	11.70
615.23	49.15
615.38	39.79
615.54	11.70
615.69	86.60
615.84	44.47
616.00	37.45
616.15	37.45
616.30	0.00
616.46	23.41
616.61	74.90
616.76	98.30
616.92	72.56
617.07	0.00
617.22	2.34
617.37	9.36
617.53	0.00
617.68	56.17
617.83	72.56
617.99	0.00
618.14	18.72
618.29	11.70
618.45	67.88
618.60	86.60
618.75	77.24
618.90	72.56
619.06	56.17
619.21	70.22
619.36	16.38
619.51	11.70
619.67	30.43
619.82	135.75
619.97	65.54
620.12	65.54
620.28	46.81
620.43	18.72
620.58	28.09
620.73	0.00
620.89	84.26
621.04	53.83
621.19	60.85
621.34	63.19
621.49	56.17
621.65	39.79
621.80	0.00
621.95	67.88
622.10	28.09
622.25	0.00
622.41	88.94
622.56	37.45
622.71	32.77
622.86	4.68
623.01	0.00
623.16	81.92
623.32	65.54
623.47	14.04
623.62	28.09
623.77	39.79
623.92	51.49
624.07	70.22
624.23	77.24
624.38	28.09
624.53	7.02
624.68	44.47
624.83	0.00
624.98	23.41
625.13	14.04
625.29	63.19
625.44	65.54
625.59	30.43
625.74	28.09
625.89	86.60
626.04	67.88
626.19	60.85
626.34	58.51
626.49	0.00
626.65	0.00
626.80	25.75
626.95	88.94
627.10	23.41
627.25	70.22
627.40	84.26
627.55	86.60
627.70	0.00
627.85	28.09
628.00	28.09
628.15	63.19
628.30	65.54
628.45	30.43
628.60	70.22
628.76	98.30
628.91	0.00
629.06	86.60
629.21	72.56
629.36	16.38
629.51	74.90
629.66	65.54
629.81	44.47
629.96	44.47
630.11	0.00
630.26	25.75
630.41	16.38
630.56	77.24
630.71	0.00
630.86	28.09
631.01	21.06
631.16	16.38
631.31	0.00
631.46	0.00
631.61	100.64
631.76	72.56
631.91	37.45
632.06	21.06
632.21	58.51
632.36	18.72
632.51	28.09
632.66	0.00
632.81	60.85
632.96	63.19
633.10	18.72
633.25	79.58
633.40	16.38
633.55	0.00
633.70	0.00
633.85	28.09
634.00	49.15
634.15	86.60
634.30	32.77
634.45	42.13
634.60	53.83
634.75	72.56
634.90	25.75
635.05	46.81
635.19	0.00
635.34	39.79
635.49	35.11
635.64	30.43
635.79	0.00
635.94	44.47
636.09	18.72
636.24	49.15
636.39	0.00
636.53	0.00
636.68	67.88
636.83	46.81
636.98	16.38
637.13	39.79
637.28	28.09
637.43	88.94
637.57	114.69
637.72	53.83
637.87	32.77
638.02	44.47
638.17	65.54
638.32	9.36
638.46	46.81
638.61	102.98
638.76	49.15
638.91	21.06
639.06	35.11
639.20	39.79
639.35	60.85
639.50	16.38
639.65	56.17
639.80	32.77
639.94	0.00
640.09	79.58
640.24	0.00
640.39	23.41
640.54	11.70
640.68	88.94
640.83	35.11
640.98	0.00
641.13	65.54
641.27	0.00
641.42	39.79
641.57	11.70
641.72	0.00
641.86	21.06
642.01	28.09
642.16	14.04
642.31	28.09
642.45	114.69
642.60	21.06
642.75	114.69
642.90	42.13
643.04	49.15
643.19	67.88
643.34	11.70
643.48	23.41
643.63	0.00
643.78	44.47
643.93	0.00
644.07	79.58
644.22	32.77
644.37	23.41
644.51	91.28
644.66	7.02
644.81	11.70
644.95	74.90
645.10	81.92
645.25	4.68
645.39	100.64
645.54	65.54
645.69	53.83
645.83	9.36
645.98	39.79
646.13	51.49
646.27	44.47
646.42	0.00
646.57	7.02
646.71	86.60
646.86	72.56
647.00	98.30
647.15	56.17
647.30	28.09
647.44	72.56
647.59	63.19
647.74	42.13
647.88	2.34
648.03	39.79
648.17	14.04
648.32	25.75
648.47	37.45
648.61	16.38
648.76	46.81
648.90	4.68
649.05	0.00
649.20	37.45
649.34	4.68
649.49	32.77
649.63	23.41
649.78	14.04
649.92	65.54
650.07	0.00
650.21	30.43
650.36	4.68
650.51	21.06
650.65	30.43
650.80	0.00
650.94	56.17
651.09	53.83
651.23	65.54
651.38	16.38
651.52	4.68
651.67	0.00
651.81	30.43
651.96	56.17
652.10	0.00
652.25	0.00
652.39	0.00
652.54	9.36
652.68	16.38
652.83	9.36
652.97	7.02
653.12	46.81
653.26	14.04
653.41	39.79
653.55	56.17
653.70	11.70
653.84	0.00
653.99	39.79
654.13	39.79
654.27	0.00
654.42	37.45
654.56	18.72
654.71	16.38
654.85	39.79
655.00	70.22
655.14	39.79
655.29	51.49
655.43	2.34
655.57	51.49
655.72	0.00
655.86	25.75
656.01	37.45
656.15	114.69
656.30	4.68
656.44	18.72
656.58	65.54
656.73	0.00
656.87	23.41
657.01	42.13
657.16	88.94
657.30	35.11
657.45	0.00
657.59	0.00
657.73	72.56
657.88	37.45
658.02	18.72
658.16	81.92
658.31	4.68
658.45	0.00
658.60	0.00
658.74	0.00
658.88	56.17
659.03	0.00
659.17	30.43
659.31	7.02
659.46	28.09
659.60	60.85
659.74	35.11
659.89	67.88
660.03	0.00
660.17	30.43
660.32	44.47
660.46	91.28
660.60	51.49
660.74	0.00
660.89	0.00
661.03	53.83
661.17	23.41
661.32	32.77
661.46	46.81
661.60	0.00
661.74	23.41
661.89	65.54
662.03	9.36
662.17	51.49
662.31	35.11
662.46	25.75
662.60	0.00
662.74	0.00
662.88	30.43
663.03	16.38
663.17	49.15
663.31	11.70
663.45	18.72
663.60	0.00
663.74	7.02
663.88	42.13
664.02	79.58
664.17	23.41
664.31	44.47
664.45	9.36
664.59	39.79
664.73	32.77
664.88	0.00
665.02	0.00
665.16	79.58
665.30	32.77
665.44	32.77
665.59	18.72
665.73	102.98
665.87	21.06
666.01	72.56
666.15	0.00
666.29	0.00
666.44	21.06
666.58	114.69
666.72	42.13
666.86	25.75
667.00	79.58
667.14	56.17
667.28	14.04
667.43	16.38
667.57	65.54
667.71	74.90
667.85	84.26
667.99	32.77
668.13	42.13
668.27	2.34
668.41	53.83
668.56	70.22
668.70	84.26
668.84	42.13
668.98	30.43
669.12	7.02
669.26	0.00
669.40	77.24
669.54	39.79
669.68	74.90
669.82	23.41
669.96	88.94
670.10	79.58
670.25	84.26
670.39	0.00
670.53	18.72
670.67	46.81
670.81	65.54
670.95	30.43
671.09	0.00
671.23	91.28
671.37	0.00
671.51	49.15
671.65	46.81
671.79	93.62
671.93	25.75
672.07	88.94
672.21	79.58
672.35	4.68
672.49	0.00
672.63	0.00
672.77	46.81
672.91	0.00
673.05	32.77
673.19	79.58
673.33	70.22
673.47	39.79
673.61	91.28
673.75	25.75
673.89	86.60
674.03	67.88
674.17	9.36
674.31	23.41
674.45	16.38
674.59	39.79
674.73	0.00
674.87	53.83
675.01	60.85
675.15	0.00
675.29	0.00
675.43	25.75
675.56	53.83
675.70	4.68
675.84	72.56
675.98	9.36
676.12	46.81
676.26	95.96
676.40	28.09
676.54	28.09
676.68	11.70
676.82	0.00
676.96	30.43
677.10	0.00
677.23	30.43
677.37	65.54
677.51	74.90
677.65	0.00
677.79	18.72
677.93	9.36
678.07	16.38
678.21	18.72
678.34	88.94
678.48	37.45
678.62	53.83
678.76	18.72
678.90	114.69
679.04	44.47
679.18	46.81
679.31	0.00
679.45	0.00
679.59	14.04
679.73	70.22
679.87	23.41
680.00	107.66
680.14	63.19
680.28	0.00
680.42	0.00
680.56	23.41
680.70	0.00
680.83	39.79
680.97	2.34
681.11	39.79
681.25	30.43
681.39	63.19
681.52	72.56
681.66	56.17
681.80	51.49
681.94	0.00
682.07	72.56
682.21	16.38
682.35	0.00
682.49	86.60
682.62	42.13
682.76	32.77
682.90	63.19
683.04	37.45
683.17	86.60
683.31	81.92
683.45	37.45
683.59	0.00
683.72	0.00
683.86	58.51
684.00	0.00
684.13	11.70
684.27	56.17
684.41	25.75
684.55	25.75
684.68	79.58
684.82	67.88
684.96	28.09
685.09	0.00
685.23	28.09
685.37	74.90
685.50	72.56
685.64	0.00
685.78	25.75
685.91	0.00
686.05	100.64
686.19	11.70
686.32	30.43
686.46	72.56
686.60	93.62
686.73	81.92
686.87	18.72
687.01	16.38
687.14	30.43
687.28	23.41
687.42	121.71
687.55	2.34
687.69	51.49
687.82	77.24
687.96	56.17
688.10	74.90
688.23	0.00
688.37	44.47
688.50	0.00
688.64	77.24
688.78	0.00
688.91	16.38
689.05	70.22
689.18	0.00
689.32	65.54
689.46	49.15
689.59	0.00
689.73	35.11
689.86	0.00
690.00	0.00
690.13	14.04
690.27	30.43
690.41	63.19
690.54	77.24
690.68	18.72
690.81	58.51
690.95	98.30
691.08	0.00
691.22	7.02
691.35	0.00
691.49	77.24
691.62	58.51
691.76	16.38
691.89	35.11
692.03	0.00
692.16	30.43
692.30	91.28
692.43	0.00
692.57	42.13
692.70	28.09
692.84	65.54
692.97	0.00
693.11	74.90
693.24	81.92
693.38	0.00
693.51	72.56
693.65	11.70
693.78	28.09
693.92	28.09
694.05	0.00
694.19	0.00
694.32	42.13
694.45	67.88
694.59	49.15
694.72	30.43
694.86	140.43
694.99	35.11
695.13	21.06
695.26	30.43
695.39	72.56
695.53	79.58
695.66	11.70
695.80	95.96
695.93	0.00
696.07	18.72
696.20	23.41
696.33	60.85
696.47	0.00
696.60	0.00
696.73	102.98
696.87	35.11
697.00	84.26
697.14	9.36
697.27	74.90
697.40	46.81
697.54	60.85
697.67	0.00
697.80	0.00
697.94	28.09
698.07	0.00
698.21	72.56
698.34	51.49
698.47	0.00
698.61	9.36
698.74	0.00
698.87	63.19
699.01	70.22
699.14	32.77
699.27	0.00
699.40	53.83
699.54	9.36
699.67	7.02
699.80	0.00
699.94	0.00
700.07	53.83
700.20	4.68
700.34	0.00
700.47	35.11
700.60	67.88
700.73	0.00
700.87	0.00
701.00	30.43
701.13	0.00
701.26	44.47
701.40	60.85
701.53	35.11
701.66	11.70
701.79	37.45
701.93	0.00
702.06	9.36
702.19	65.54
702.32	21.06
702.46	9.36
702.59	9.36
702.72	18.72
702.85	14.04
702.99	58.51
703.12	56.17
703.25	2.34
703.38	25.75
703.51	0.00
703.65	70.22
703.78	42.13
703.91	9.36
704.04	0.00
704.17	65.54
704.31	28.09
704.44	112.35
704.57	0.00
704.70	63.19
704.83	4.68
704.96	53.83
705.10	16.38
705.23	46.81
>>>>>End Processed Spectral Data<<<<<
