SpectraSuite Data File
++++++++++++++++++++++++++++++++++++
Date: Fri Oct 04 12:13:33 GMT-05:00 2013
User: price-jones
Dark Spectrum Present: No
Reference Spectrum Present: No
Number of Sampled Component Spectra: 1
Spectrometers: USB2+H05261
Integration Time (usec): 10000 (USB2+H05261)
Spectra Averaged: 1 (USB2+H05261)
Boxcar Smoothing: 0 (USB2+H05261)
Correct for Electrical Dark: No (USB2+H05261)
Strobe/Lamp Enabled: No (USB2+H05261)
Correct for Detector Non-linearity: No (USB2+H05261)
Correct for Stray Light: No (USB2+H05261)
Number of Pixels in Processed Spectrum: 2048
>>>>>Begin Processed Spectral Data<<<<<
365.73	7.02
365.92	7.02
366.12	7.02
366.32	0.00
366.52	0.00
366.72	0.00
366.91	0.00
367.11	0.00
367.31	0.00
367.51	0.00
367.70	0.00
367.90	0.00
368.10	0.00
368.30	0.00
368.49	0.00
368.69	0.00
368.89	0.00
369.09	0.00
369.28	0.00
369.48	0.00
369.68	0.00
369.87	0.00
370.07	0.00
370.27	0.00
370.47	0.00
370.66	0.00
370.86	0.00
371.06	0.00
371.25	35.11
371.45	0.00
371.65	0.00
371.84	0.00
372.04	0.00
372.24	0.00
372.44	67.88
372.63	53.83
372.83	0.00
373.03	0.00
373.22	23.41
373.42	39.79
373.62	37.45
373.81	9.36
374.01	63.19
374.21	0.00
374.40	65.54
374.60	39.79
374.79	58.51
374.99	72.56
375.19	49.15
375.38	23.41
375.58	86.60
375.78	39.79
375.97	14.04
376.17	7.02
376.37	145.11
376.56	53.83
376.76	0.00
376.95	37.45
377.15	28.09
377.35	23.41
377.54	0.00
377.74	117.03
377.93	0.00
378.13	32.77
378.33	112.35
378.52	0.00
378.72	39.79
378.91	4.68
379.11	25.75
379.31	37.45
379.50	65.54
379.70	30.43
379.89	16.38
380.09	0.00
380.28	2.34
380.48	0.00
380.68	7.02
380.87	0.00
381.07	25.75
381.26	0.00
381.46	51.49
381.65	56.17
381.85	0.00
382.04	0.00
382.24	18.72
382.43	0.00
382.63	0.00
382.83	30.43
383.02	28.09
383.22	95.96
383.41	79.58
383.61	23.41
383.80	7.02
384.00	37.45
384.19	14.04
384.39	0.00
384.58	0.00
384.78	4.68
384.97	65.54
385.17	32.77
385.36	0.00
385.56	95.96
385.75	0.00
385.95	21.06
386.14	53.83
386.34	51.49
386.53	25.75
386.72	7.02
386.92	70.22
387.11	42.13
387.31	0.00
387.50	65.54
387.70	0.00
387.89	21.06
388.09	16.38
388.28	35.11
388.48	0.00
388.67	93.62
388.86	0.00
389.06	7.02
389.25	35.11
389.45	0.00
389.64	44.47
389.84	9.36
390.03	65.54
390.22	0.00
390.42	21.06
390.61	0.00
390.81	49.15
391.00	9.36
391.19	21.06
391.39	35.11
391.58	9.36
391.78	0.00
391.97	25.75
392.16	16.38
392.36	2.34
392.55	42.13
392.75	14.04
392.94	0.00
393.13	0.00
393.33	16.38
393.52	16.38
393.71	9.36
393.91	0.00
394.10	39.79
394.29	0.00
394.49	14.04
394.68	42.13
394.88	56.17
395.07	0.00
395.26	58.51
395.46	23.41
395.65	74.90
395.84	0.00
396.04	0.00
396.23	25.75
396.42	117.03
396.62	88.94
396.81	7.02
397.00	21.06
397.19	0.00
397.39	4.68
397.58	9.36
397.77	7.02
397.97	14.04
398.16	30.43
398.35	42.13
398.55	32.77
398.74	16.38
398.93	11.70
399.12	0.00
399.32	16.38
399.51	39.79
399.70	2.34
399.90	0.00
400.09	16.38
400.28	4.68
400.47	11.70
400.67	0.00
400.86	56.17
401.05	23.41
401.24	74.90
401.44	0.00
401.63	98.30
401.82	0.00
402.01	0.00
402.21	44.47
402.40	0.00
402.59	0.00
402.78	42.13
402.97	74.90
403.17	44.47
403.36	0.00
403.55	7.02
403.74	58.51
403.93	39.79
404.13	102.98
404.32	46.81
404.51	0.00
404.70	14.04
404.89	0.00
405.09	9.36
405.28	77.24
405.47	0.00
405.66	21.06
405.85	32.77
406.05	2.34
406.24	0.00
406.43	23.41
406.62	30.43
406.81	86.60
407.00	30.43
407.20	0.00
407.39	0.00
407.58	65.54
407.77	88.94
407.96	0.00
408.15	0.00
408.34	18.72
408.54	53.83
408.73	65.54
408.92	0.00
409.11	70.22
409.30	49.15
409.49	21.06
409.68	11.70
409.87	18.72
410.07	16.38
410.26	9.36
410.45	0.00
410.64	14.04
410.83	0.00
411.02	56.17
411.21	35.11
411.40	37.45
411.59	0.00
411.78	53.83
411.98	21.06
412.17	110.01
412.36	44.47
412.55	74.90
412.74	21.06
412.93	84.26
413.12	14.04
413.31	0.00
413.50	46.81
413.69	25.75
413.88	21.06
414.07	21.06
414.26	42.13
414.45	93.62
414.64	72.56
414.83	63.19
415.02	42.13
415.22	0.00
415.41	63.19
415.60	42.13
415.79	56.17
415.98	0.00
416.17	25.75
416.36	37.45
416.55	35.11
416.74	44.47
416.93	0.00
417.12	28.09
417.31	0.00
417.50	65.54
417.69	56.17
417.88	23.41
418.07	25.75
418.26	16.38
418.45	79.58
418.64	84.26
418.83	0.00
419.02	28.09
419.21	0.00
419.39	44.47
419.58	0.00
419.77	133.41
419.96	67.88
420.15	51.49
420.34	4.68
420.53	32.77
420.72	84.26
420.91	18.72
421.10	44.47
421.29	51.49
421.48	9.36
421.67	81.92
421.86	37.45
422.05	0.00
422.24	51.49
422.43	0.00
422.61	42.13
422.80	53.83
422.99	0.00
423.18	49.15
423.37	74.90
423.56	0.00
423.75	32.77
423.94	30.43
424.13	56.17
424.32	0.00
424.50	39.79
424.69	23.41
424.88	44.47
425.07	42.13
425.26	102.98
425.45	70.22
425.64	28.09
425.83	84.26
426.01	0.00
426.20	9.36
426.39	0.00
426.58	18.72
426.77	49.15
426.96	35.11
427.15	21.06
427.33	0.00
427.52	7.02
427.71	49.15
427.90	0.00
428.09	21.06
428.28	2.34
428.46	4.68
428.65	0.00
428.84	46.81
429.03	18.72
429.22	74.90
429.40	23.41
429.59	46.81
429.78	79.58
429.97	0.00
430.16	53.83
430.34	0.00
430.53	42.13
430.72	18.72
430.91	37.45
431.10	63.19
431.28	0.00
431.47	0.00
431.66	63.19
431.85	7.02
432.03	9.36
432.22	0.00
432.41	0.00
432.60	77.24
432.79	16.38
432.97	102.98
433.16	25.75
433.35	0.00
433.54	37.45
433.72	49.15
433.91	4.68
434.10	53.83
434.28	121.71
434.47	0.00
434.66	49.15
434.85	88.94
435.03	65.54
435.22	35.11
435.41	0.00
435.59	56.17
435.78	56.17
435.97	35.11
436.16	58.51
436.34	93.62
436.53	0.00
436.72	58.51
436.90	0.00
437.09	0.00
437.28	46.81
437.46	84.26
437.65	14.04
437.84	0.00
438.02	46.81
438.21	14.04
438.40	16.38
438.58	91.28
438.77	67.88
438.96	98.30
439.14	4.68
439.33	60.85
439.52	32.77
439.70	70.22
439.89	30.43
440.08	79.58
440.26	9.36
440.45	74.90
440.63	14.04
440.82	0.00
441.01	28.09
441.19	23.41
441.38	2.34
441.57	74.90
441.75	60.85
441.94	56.17
442.12	7.02
442.31	9.36
442.50	0.00
442.68	23.41
442.87	0.00
443.05	18.72
443.24	46.81
443.43	25.75
443.61	0.00
443.80	42.13
443.98	28.09
444.17	25.75
444.35	4.68
444.54	21.06
444.73	56.17
444.91	70.22
445.10	39.79
445.28	93.62
445.47	65.54
445.65	46.81
445.84	91.28
446.02	67.88
446.21	46.81
446.39	51.49
446.58	14.04
446.77	28.09
446.95	0.00
447.14	30.43
447.32	95.96
447.51	37.45
447.69	0.00
447.88	23.41
448.06	35.11
448.25	49.15
448.43	58.51
448.62	42.13
448.80	0.00
448.99	0.00
449.17	32.77
449.36	0.00
449.54	0.00
449.73	0.00
449.91	18.72
450.10	14.04
450.28	28.09
450.46	21.06
450.65	44.47
450.83	37.45
451.02	93.62
451.20	35.11
451.39	35.11
451.57	21.06
451.76	72.56
451.94	67.88
452.13	81.92
452.31	23.41
452.49	0.00
452.68	0.00
452.86	53.83
453.05	39.79
453.23	11.70
453.42	51.49
453.60	60.85
453.78	53.83
453.97	77.24
454.15	39.79
454.34	56.17
454.52	0.00
454.70	16.38
454.89	23.41
455.07	0.00
455.26	35.11
455.44	21.06
455.62	28.09
455.81	18.72
455.99	60.85
456.17	0.00
456.36	67.88
456.54	0.00
456.73	0.00
456.91	25.75
457.09	21.06
457.28	58.51
457.46	44.47
457.64	91.28
457.83	0.00
458.01	0.00
458.19	30.43
458.38	42.13
458.56	63.19
458.74	60.85
458.93	88.94
459.11	63.19
459.29	65.54
459.48	2.34
459.66	0.00
459.84	53.83
460.03	9.36
460.21	0.00
460.39	32.77
460.57	58.51
460.76	0.00
460.94	39.79
461.12	30.43
461.31	0.00
461.49	42.13
461.67	37.45
461.85	28.09
462.04	32.77
462.22	79.58
462.40	0.00
462.59	42.13
462.77	28.09
462.95	84.26
463.13	39.79
463.32	14.04
463.50	21.06
463.68	0.00
463.86	28.09
464.05	21.06
464.23	0.00
464.41	11.70
464.59	121.71
464.78	53.83
464.96	42.13
465.14	4.68
465.32	21.06
465.50	37.45
465.69	112.35
465.87	72.56
466.05	16.38
466.23	28.09
466.41	79.58
466.60	102.98
466.78	53.83
466.96	63.19
467.14	56.17
467.32	0.00
467.51	28.09
467.69	37.45
467.87	86.60
468.05	16.38
468.23	14.04
468.41	53.83
468.60	112.35
468.78	0.00
468.96	21.06
469.14	21.06
469.32	25.75
469.50	14.04
469.69	56.17
469.87	46.81
470.05	0.00
470.23	23.41
470.41	84.26
470.59	35.11
470.77	182.56
470.95	49.15
471.14	56.17
471.32	65.54
471.50	49.15
471.68	42.13
471.86	44.47
472.04	0.00
472.22	107.66
472.40	67.88
472.58	39.79
472.77	51.49
472.95	37.45
473.13	30.43
473.31	39.79
473.49	56.17
473.67	65.54
473.85	32.77
474.03	0.00
474.21	32.77
474.39	30.43
474.57	32.77
474.75	0.00
474.93	11.70
475.12	0.00
475.30	18.72
475.48	18.72
475.66	2.34
475.84	65.54
476.02	63.19
476.20	7.02
476.38	46.81
476.56	9.36
476.74	70.22
476.92	65.54
477.10	32.77
477.28	0.00
477.46	37.45
477.64	21.06
477.82	16.38
478.00	86.60
478.18	74.90
478.36	16.38
478.54	70.22
478.72	63.19
478.90	0.00
479.08	79.58
479.26	0.00
479.44	32.77
479.62	74.90
479.80	60.85
479.98	42.13
480.16	23.41
480.34	81.92
480.52	58.51
480.70	84.26
480.88	28.09
481.06	2.34
481.24	32.77
481.41	0.00
481.59	42.13
481.77	0.00
481.95	102.98
482.13	79.58
482.31	65.54
482.49	7.02
482.67	0.00
482.85	0.00
483.03	30.43
483.21	63.19
483.39	65.54
483.57	42.13
483.74	18.72
483.92	42.13
484.10	16.38
484.28	110.01
484.46	11.70
484.64	51.49
484.82	49.15
485.00	63.19
485.18	25.75
485.35	39.79
485.53	35.11
485.71	58.51
485.89	53.83
486.07	39.79
486.25	112.35
486.43	9.36
486.61	67.88
486.78	42.13
486.96	46.81
487.14	42.13
487.32	63.19
487.50	93.62
487.68	51.49
487.85	67.88
488.03	21.06
488.21	16.38
488.39	51.49
488.57	60.85
488.75	63.19
488.92	53.83
489.10	46.81
489.28	35.11
489.46	119.37
489.64	46.81
489.81	23.41
489.99	21.06
490.17	0.00
490.35	30.43
490.53	98.30
490.70	56.17
490.88	74.90
491.06	28.09
491.24	49.15
491.41	0.00
491.59	88.94
491.77	93.62
491.95	14.04
492.13	110.01
492.30	56.17
492.48	46.81
492.66	46.81
492.84	39.79
493.01	28.09
493.19	14.04
493.37	56.17
493.54	56.17
493.72	28.09
493.90	14.04
494.08	114.69
494.25	39.79
494.43	11.70
494.61	21.06
494.79	58.51
494.96	18.72
495.14	53.83
495.32	49.15
495.49	0.00
495.67	58.51
495.85	25.75
496.02	0.00
496.20	0.00
496.38	79.58
496.55	74.90
496.73	39.79
496.91	44.47
497.09	23.41
497.26	0.00
497.44	4.68
497.62	91.28
497.79	21.06
497.97	46.81
498.14	28.09
498.32	44.47
498.50	53.83
498.67	39.79
498.85	32.77
499.03	81.92
499.20	11.70
499.38	119.37
499.56	88.94
499.73	93.62
499.91	44.47
500.08	112.35
500.26	0.00
500.44	53.83
500.61	67.88
500.79	42.13
500.97	49.15
501.14	53.83
501.32	44.47
501.49	4.68
501.67	4.68
501.84	53.83
502.02	91.28
502.20	21.06
502.37	58.51
502.55	63.19
502.72	0.00
502.90	42.13
503.07	4.68
503.25	131.07
503.43	23.41
503.60	37.45
503.78	0.00
503.95	67.88
504.13	49.15
504.30	0.00
504.48	21.06
504.65	88.94
504.83	0.00
505.01	58.51
505.18	93.62
505.36	9.36
505.53	49.15
505.71	2.34
505.88	0.00
506.06	9.36
506.23	0.00
506.41	18.72
506.58	35.11
506.76	72.56
506.93	60.85
507.11	2.34
507.28	18.72
507.46	0.00
507.63	18.72
507.81	37.45
507.98	51.49
508.16	70.22
508.33	53.83
508.50	28.09
508.68	102.98
508.85	63.19
509.03	18.72
509.20	0.00
509.38	37.45
509.55	0.00
509.73	84.26
509.90	63.19
510.08	42.13
510.25	46.81
510.42	53.83
510.60	28.09
510.77	4.68
510.95	0.00
511.12	51.49
511.30	49.15
511.47	58.51
511.64	91.28
511.82	42.13
511.99	53.83
512.17	46.81
512.34	39.79
512.51	39.79
512.69	60.85
512.86	70.22
513.04	28.09
513.21	0.00
513.38	32.77
513.56	4.68
513.73	18.72
513.90	51.49
514.08	65.54
514.25	28.09
514.43	98.30
514.60	0.00
514.77	53.83
514.95	77.24
515.12	42.13
515.29	112.35
515.47	63.19
515.64	18.72
515.81	74.90
515.99	14.04
516.16	9.36
516.33	32.77
516.51	21.06
516.68	60.85
516.85	14.04
517.03	16.38
517.20	58.51
517.37	58.51
517.54	32.77
517.72	30.43
517.89	51.49
518.06	105.32
518.24	16.38
518.41	84.26
518.58	51.49
518.75	0.00
518.93	9.36
519.10	74.90
519.27	56.17
519.45	32.77
519.62	86.60
519.79	88.94
519.96	98.30
520.14	58.51
520.31	95.96
520.48	14.04
520.65	58.51
520.83	84.26
521.00	4.68
521.17	102.98
521.34	84.26
521.52	91.28
521.69	0.00
521.86	25.75
522.03	65.54
522.20	21.06
522.38	105.32
522.55	74.90
522.72	37.45
522.89	49.15
523.07	65.54
523.24	60.85
523.41	32.77
523.58	0.00
523.75	30.43
523.92	14.04
524.10	60.85
524.27	100.64
524.44	86.60
524.61	37.45
524.78	2.34
524.96	51.49
525.13	30.43
525.30	53.83
525.47	79.58
525.64	42.13
525.81	58.51
525.98	23.41
526.16	79.58
526.33	44.47
526.50	18.72
526.67	0.00
526.84	35.11
527.01	18.72
527.18	23.41
527.36	0.00
527.53	39.79
527.70	21.06
527.87	0.00
528.04	0.00
528.21	95.96
528.38	0.00
528.55	70.22
528.72	7.02
528.89	84.26
529.07	77.24
529.24	72.56
529.41	93.62
529.58	49.15
529.75	39.79
529.92	21.06
530.09	18.72
530.26	44.47
530.43	9.36
530.60	0.00
530.77	0.00
530.94	42.13
531.11	79.58
531.28	35.11
531.46	60.85
531.63	67.88
531.80	77.24
531.97	42.13
532.14	58.51
532.31	21.06
532.48	0.00
532.65	37.45
532.82	37.45
532.99	79.58
533.16	49.15
533.33	79.58
533.50	72.56
533.67	0.00
533.84	42.13
534.01	51.49
534.18	9.36
534.35	23.41
534.52	65.54
534.69	84.26
534.86	65.54
535.03	49.15
535.20	42.13
535.37	37.45
535.54	14.04
535.71	18.72
535.88	18.72
536.05	98.30
536.22	44.47
536.38	23.41
536.55	49.15
536.72	51.49
536.89	44.47
537.06	46.81
537.23	30.43
537.40	60.85
537.57	32.77
537.74	79.58
537.91	56.17
538.08	60.85
538.25	112.35
538.42	0.00
538.59	14.04
538.75	30.43
538.92	42.13
539.09	21.06
539.26	81.92
539.43	0.00
539.60	0.00
539.77	51.49
539.94	2.34
540.11	77.24
540.28	86.60
540.44	67.88
540.61	39.79
540.78	0.00
540.95	53.83
541.12	46.81
541.29	0.00
541.46	72.56
541.62	16.38
541.79	14.04
541.96	18.72
542.13	4.68
542.30	37.45
542.47	79.58
542.63	32.77
542.80	79.58
542.97	28.09
543.14	51.49
543.31	51.49
543.48	32.77
543.64	0.00
543.81	58.51
543.98	30.43
544.15	21.06
544.32	18.72
544.48	30.43
544.65	32.77
544.82	32.77
544.99	60.85
545.16	18.72
545.32	18.72
545.49	77.24
545.66	58.51
545.83	37.45
546.00	9.36
546.16	30.43
546.33	39.79
546.50	37.45
546.67	14.04
546.83	79.58
547.00	42.13
547.17	21.06
547.34	0.00
547.50	77.24
547.67	0.00
547.84	28.09
548.00	51.49
548.17	65.54
548.34	51.49
548.51	63.19
548.67	46.81
548.84	95.96
549.01	156.82
549.18	16.38
549.34	39.79
549.51	51.49
549.68	32.77
549.84	91.28
550.01	53.83
550.18	142.77
550.34	53.83
550.51	16.38
550.68	60.85
550.84	0.00
551.01	84.26
551.18	51.49
551.34	32.77
551.51	42.13
551.68	100.64
551.84	58.51
552.01	63.19
552.18	105.32
552.34	51.49
552.51	112.35
552.68	0.00
552.84	44.47
553.01	28.09
553.18	112.35
553.34	0.00
553.51	58.51
553.67	30.43
553.84	58.51
554.01	18.72
554.17	39.79
554.34	74.90
554.51	0.00
554.67	0.00
554.84	2.34
555.00	0.00
555.17	30.43
555.33	79.58
555.50	81.92
555.67	35.11
555.83	56.17
556.00	79.58
556.16	100.64
556.33	74.90
556.50	37.45
556.66	35.11
556.83	21.06
556.99	49.15
557.16	25.75
557.32	11.70
557.49	21.06
557.65	0.00
557.82	14.04
557.98	81.92
558.15	49.15
558.32	18.72
558.48	58.51
558.65	124.05
558.81	44.47
558.98	44.47
559.14	0.00
559.31	37.45
559.47	81.92
559.64	25.75
559.80	70.22
559.97	21.06
560.13	42.13
560.30	39.79
560.46	49.15
560.63	72.56
560.79	21.06
560.96	35.11
561.12	67.88
561.29	4.68
561.45	112.35
561.61	37.45
561.78	107.66
561.94	56.17
562.11	58.51
562.27	11.70
562.44	114.69
562.60	88.94
562.77	0.00
562.93	11.70
563.10	44.47
563.26	39.79
563.42	93.62
563.59	114.69
563.75	37.45
563.92	37.45
564.08	105.32
564.24	42.13
564.41	53.83
564.57	7.02
564.74	88.94
564.90	28.09
565.07	23.41
565.23	44.47
565.39	81.92
565.56	0.00
565.72	65.54
565.88	112.35
566.05	65.54
566.21	32.77
566.38	72.56
566.54	25.75
566.70	28.09
566.87	46.81
567.03	9.36
567.19	28.09
567.36	4.68
567.52	0.00
567.68	60.85
567.85	35.11
568.01	53.83
568.17	0.00
568.34	53.83
568.50	79.58
568.66	18.72
568.83	58.51
568.99	16.38
569.15	58.51
569.32	84.26
569.48	7.02
569.64	23.41
569.81	0.00
569.97	0.00
570.13	70.22
570.30	46.81
570.46	37.45
570.62	58.51
570.78	58.51
570.95	67.88
571.11	65.54
571.27	67.88
571.43	0.00
571.60	32.77
571.76	49.15
571.92	58.51
572.09	21.06
572.25	51.49
572.41	4.68
572.57	18.72
572.74	126.39
572.90	65.54
573.06	72.56
573.22	4.68
573.38	65.54
573.55	79.58
573.71	49.15
573.87	93.62
574.03	51.49
574.20	14.04
574.36	110.01
574.52	0.00
574.68	56.17
574.84	16.38
575.01	91.28
575.17	53.83
575.33	35.11
575.49	46.81
575.65	0.00
575.82	9.36
575.98	37.45
576.14	65.54
576.30	23.41
576.46	39.79
576.62	58.51
576.79	0.00
576.95	4.68
577.11	0.00
577.27	79.58
577.43	0.00
577.59	30.43
577.75	77.24
577.92	2.34
578.08	0.00
578.24	32.77
578.40	100.64
578.56	0.00
578.72	18.72
578.88	147.45
579.04	105.32
579.21	53.83
579.37	16.38
579.53	37.45
579.69	105.32
579.85	53.83
580.01	30.43
580.17	98.30
580.33	16.38
580.49	51.49
580.65	84.26
580.82	77.24
580.98	35.11
581.14	21.06
581.30	39.79
581.46	7.02
581.62	25.75
581.78	84.26
581.94	0.00
582.10	0.00
582.26	0.00
582.42	23.41
582.58	21.06
582.74	70.22
582.90	39.79
583.06	0.00
583.22	2.34
583.38	44.47
583.54	91.28
583.70	25.75
583.86	23.41
584.02	74.90
584.18	95.96
584.34	0.00
584.50	2.34
584.66	35.11
584.82	39.79
584.98	25.75
585.14	95.96
585.30	70.22
585.46	18.72
585.62	25.75
585.78	9.36
585.94	30.43
586.10	46.81
586.26	51.49
586.42	74.90
586.58	58.51
586.74	21.06
586.90	58.51
587.06	42.13
587.22	0.00
587.38	28.09
587.54	16.38
587.70	49.15
587.86	39.79
588.02	42.13
588.18	0.00
588.34	44.47
588.49	44.47
588.65	2.34
588.81	30.43
588.97	35.11
589.13	11.70
589.29	16.38
589.45	110.01
589.61	100.64
589.77	74.90
589.93	65.54
590.08	23.41
590.24	67.88
590.40	65.54
590.56	112.35
590.72	30.43
590.88	56.17
591.04	39.79
591.20	0.00
591.35	93.62
591.51	42.13
591.67	77.24
591.83	44.47
591.99	0.00
592.15	91.28
592.31	0.00
592.46	25.75
592.62	65.54
592.78	14.04
592.94	16.38
593.10	21.06
593.26	30.43
593.41	39.79
593.57	16.38
593.73	107.66
593.89	0.00
594.05	60.85
594.20	7.02
594.36	46.81
594.52	0.00
594.68	0.00
594.84	44.47
594.99	46.81
595.15	46.81
595.31	77.24
595.47	0.00
595.62	72.56
595.78	95.96
595.94	65.54
596.10	30.43
596.25	81.92
596.41	18.72
596.57	21.06
596.73	46.81
596.88	49.15
597.04	98.30
597.20	105.32
597.36	37.45
597.51	16.38
597.67	124.05
597.83	46.81
597.99	39.79
598.14	114.69
598.30	32.77
598.46	35.11
598.61	21.06
598.77	21.06
598.93	65.54
599.09	0.00
599.24	53.83
599.40	105.32
599.56	30.43
599.71	9.36
599.87	105.32
600.03	107.66
600.18	53.83
600.34	60.85
600.50	79.58
600.65	37.45
600.81	77.24
600.97	91.28
601.12	46.81
601.28	67.88
601.44	9.36
601.59	9.36
601.75	0.00
601.91	63.19
602.06	42.13
602.22	18.72
602.37	49.15
602.53	79.58
602.69	53.83
602.84	4.68
603.00	23.41
603.16	46.81
603.31	95.96
603.47	32.77
603.62	35.11
603.78	126.39
603.94	107.66
604.09	37.45
604.25	42.13
604.40	60.85
604.56	30.43
604.71	0.00
604.87	0.00
605.03	16.38
605.18	86.60
605.34	21.06
605.49	0.00
605.65	44.47
605.80	49.15
605.96	42.13
606.12	0.00
606.27	77.24
606.43	42.13
606.58	30.43
606.74	79.58
606.89	16.38
607.05	86.60
607.20	42.13
607.36	74.90
607.51	63.19
607.67	98.30
607.82	21.06
607.98	44.47
608.13	46.81
608.29	44.47
608.44	37.45
608.60	0.00
608.75	0.00
608.91	16.38
609.06	11.70
609.22	0.00
609.37	0.00
609.53	30.43
609.68	56.17
609.84	39.79
609.99	21.06
610.15	53.83
610.30	67.88
610.46	63.19
610.61	42.13
610.76	37.45
610.92	32.77
611.07	53.83
611.23	98.30
611.38	44.47
611.54	77.24
611.69	91.28
611.84	23.41
612.00	77.24
612.15	32.77
612.31	98.30
612.46	11.70
612.62	37.45
612.77	72.56
612.92	25.75
613.08	39.79
613.23	86.60
613.39	117.03
613.54	117.03
613.69	35.11
613.85	25.75
614.00	0.00
614.15	56.17
614.31	11.70
614.46	74.90
614.62	7.02
614.77	0.00
614.92	0.00
615.08	77.24
615.23	14.04
615.38	72.56
615.54	44.47
615.69	63.19
615.84	0.00
616.00	32.77
616.15	53.83
616.30	100.64
616.46	77.24
616.61	37.45
616.76	18.72
616.92	4.68
617.07	2.34
617.22	0.00
617.37	0.00
617.53	46.81
617.68	70.22
617.83	51.49
617.99	0.00
618.14	60.85
618.29	0.00
618.45	16.38
618.60	65.54
618.75	18.72
618.90	77.24
619.06	0.00
619.21	0.00
619.36	65.54
619.51	39.79
619.67	98.30
619.82	21.06
619.97	65.54
620.12	93.62
620.28	0.00
620.43	72.56
620.58	86.60
620.73	46.81
620.89	58.51
621.04	46.81
621.19	56.17
621.34	16.38
621.49	4.68
621.65	46.81
621.80	56.17
621.95	21.06
622.10	0.00
622.25	0.00
622.41	53.83
622.56	25.75
622.71	46.81
622.86	56.17
623.01	102.98
623.16	0.00
623.32	93.62
623.47	77.24
623.62	0.00
623.77	0.00
623.92	74.90
624.07	79.58
624.23	11.70
624.38	11.70
624.53	35.11
624.68	37.45
624.83	46.81
624.98	0.00
625.13	0.00
625.29	93.62
625.44	0.00
625.59	25.75
625.74	79.58
625.89	72.56
626.04	2.34
626.19	0.00
626.34	53.83
626.49	51.49
626.65	53.83
626.80	46.81
626.95	2.34
627.10	0.00
627.25	72.56
627.40	18.72
627.55	58.51
627.70	53.83
627.85	37.45
628.00	0.00
628.15	11.70
628.30	0.00
628.45	74.90
628.60	0.00
628.76	16.38
628.91	0.00
629.06	95.96
629.21	65.54
629.36	37.45
629.51	25.75
629.66	4.68
629.81	0.00
629.96	0.00
630.11	25.75
630.26	28.09
630.41	32.77
630.56	56.17
630.71	84.26
630.86	42.13
631.01	0.00
631.16	56.17
631.31	42.13
631.46	60.85
631.61	67.88
631.76	28.09
631.91	63.19
632.06	0.00
632.21	79.58
632.36	72.56
632.51	58.51
632.66	0.00
632.81	30.43
632.96	51.49
633.10	65.54
633.25	79.58
633.40	44.47
633.55	28.09
633.70	0.00
633.85	67.88
634.00	0.00
634.15	42.13
634.30	16.38
634.45	46.81
634.60	23.41
634.75	11.70
634.90	60.85
635.05	28.09
635.19	42.13
635.34	37.45
635.49	7.02
635.64	145.11
635.79	91.28
635.94	49.15
636.09	65.54
636.24	65.54
636.39	39.79
636.53	18.72
636.68	0.00
636.83	42.13
636.98	32.77
637.13	18.72
637.28	49.15
637.43	44.47
637.57	46.81
637.72	44.47
637.87	51.49
638.02	39.79
638.17	39.79
638.32	28.09
638.46	56.17
638.61	86.60
638.76	37.45
638.91	0.00
639.06	88.94
639.20	77.24
639.35	0.00
639.50	67.88
639.65	0.00
639.80	63.19
639.94	72.56
640.09	46.81
640.24	39.79
640.39	91.28
640.54	67.88
640.68	14.04
640.83	42.13
640.98	63.19
641.13	44.47
641.27	4.68
641.42	60.85
641.57	35.11
641.72	46.81
641.86	53.83
642.01	44.47
642.16	49.15
642.31	42.13
642.45	44.47
642.60	56.17
642.75	18.72
642.90	0.00
643.04	93.62
643.19	93.62
643.34	0.00
643.48	0.00
643.63	53.83
643.78	25.75
643.93	81.92
644.07	70.22
644.22	49.15
644.37	79.58
644.51	11.70
644.66	93.62
644.81	110.01
644.95	81.92
645.10	0.00
645.25	0.00
645.39	9.36
645.54	7.02
645.69	81.92
645.83	46.81
645.98	51.49
646.13	0.00
646.27	84.26
646.42	30.43
646.57	30.43
646.71	37.45
646.86	11.70
647.00	44.47
647.15	28.09
647.30	0.00
647.44	23.41
647.59	44.47
647.74	2.34
647.88	58.51
648.03	63.19
648.17	30.43
648.32	21.06
648.47	46.81
648.61	49.15
648.76	14.04
648.90	0.00
649.05	42.13
649.20	58.51
649.34	0.00
649.49	42.13
649.63	11.70
649.78	0.00
649.92	39.79
650.07	39.79
650.21	49.15
650.36	42.13
650.51	0.00
650.65	49.15
650.80	35.11
650.94	0.00
651.09	67.88
651.23	56.17
651.38	37.45
651.52	30.43
651.67	35.11
651.81	14.04
651.96	18.72
652.10	44.47
652.25	30.43
652.39	11.70
652.54	4.68
652.68	0.00
652.83	16.38
652.97	86.60
653.12	53.83
653.26	16.38
653.41	65.54
653.55	7.02
653.70	51.49
653.84	2.34
653.99	46.81
654.13	28.09
654.27	7.02
654.42	102.98
654.56	70.22
654.71	0.00
654.85	105.32
655.00	25.75
655.14	0.00
655.29	2.34
655.43	107.66
655.57	72.56
655.72	18.72
655.86	11.70
656.01	4.68
656.15	0.00
656.30	9.36
656.44	42.13
656.58	58.51
656.73	95.96
656.87	28.09
657.01	42.13
657.16	88.94
657.30	0.00
657.45	67.88
657.59	25.75
657.73	0.00
657.88	23.41
658.02	4.68
658.16	51.49
658.31	100.64
658.45	9.36
658.60	14.04
658.74	72.56
658.88	16.38
659.03	65.54
659.17	53.83
659.31	9.36
659.46	0.00
659.60	63.19
659.74	79.58
659.89	65.54
660.03	25.75
660.17	74.90
660.32	117.03
660.46	114.69
660.60	86.60
660.74	42.13
660.89	0.00
661.03	46.81
661.17	51.49
661.32	0.00
661.46	16.38
661.60	7.02
661.74	16.38
661.89	28.09
662.03	42.13
662.17	32.77
662.31	77.24
662.46	0.00
662.60	93.62
662.74	60.85
662.88	0.00
663.03	46.81
663.17	77.24
663.31	0.00
663.45	21.06
663.60	28.09
663.74	67.88
663.88	23.41
664.02	35.11
664.17	60.85
664.31	110.01
664.45	53.83
664.59	126.39
664.73	46.81
664.88	28.09
665.02	53.83
665.16	2.34
665.30	44.47
665.44	154.48
665.59	21.06
665.73	65.54
665.87	102.98
666.01	11.70
666.15	23.41
666.29	16.38
666.44	63.19
666.58	0.00
666.72	16.38
666.86	86.60
667.00	0.00
667.14	42.13
667.28	53.83
667.43	14.04
667.57	0.00
667.71	60.85
667.85	14.04
667.99	9.36
668.13	0.00
668.27	0.00
668.41	11.70
668.56	4.68
668.70	28.09
668.84	0.00
668.98	58.51
669.12	49.15
669.26	49.15
669.40	21.06
669.54	23.41
669.68	14.04
669.82	39.79
669.96	2.34
670.10	25.75
670.25	18.72
670.39	70.22
670.53	44.47
670.67	67.88
670.81	46.81
670.95	28.09
671.09	79.58
671.23	35.11
671.37	28.09
671.51	0.00
671.65	32.77
671.79	37.45
671.93	39.79
672.07	23.41
672.21	0.00
672.35	37.45
672.49	79.58
672.63	14.04
672.77	60.85
672.91	0.00
673.05	56.17
673.19	42.13
673.33	88.94
673.47	0.00
673.61	21.06
673.75	121.71
673.89	46.81
674.03	0.00
674.17	91.28
674.31	23.41
674.45	114.69
674.59	4.68
674.73	42.13
674.87	4.68
675.01	32.77
675.15	88.94
675.29	0.00
675.43	14.04
675.56	39.79
675.70	37.45
675.84	0.00
675.98	86.60
676.12	70.22
676.26	77.24
676.40	70.22
676.54	9.36
676.68	30.43
676.82	65.54
676.96	37.45
677.10	0.00
677.23	30.43
677.37	42.13
677.51	35.11
677.65	0.00
677.79	67.88
677.93	0.00
678.07	21.06
678.21	53.83
678.34	53.83
678.48	44.47
678.62	0.00
678.76	60.85
678.90	7.02
679.04	0.00
679.18	60.85
679.31	72.56
679.45	7.02
679.59	86.60
679.73	42.13
679.87	65.54
680.00	0.00
680.14	2.34
680.28	98.30
680.42	35.11
680.56	0.00
680.70	46.81
680.83	37.45
680.97	46.81
681.11	9.36
681.25	0.00
681.39	0.00
681.52	70.22
681.66	51.49
681.80	49.15
681.94	72.56
682.07	0.00
682.21	44.47
682.35	7.02
682.49	32.77
682.62	67.88
682.76	0.00
682.90	42.13
683.04	37.45
683.17	88.94
683.31	25.75
683.45	21.06
683.59	14.04
683.72	44.47
683.86	88.94
684.00	18.72
684.13	0.00
684.27	84.26
684.41	53.83
684.55	0.00
684.68	9.36
684.82	25.75
684.96	0.00
685.09	65.54
685.23	70.22
685.37	4.68
685.50	11.70
685.64	23.41
685.78	51.49
685.91	30.43
686.05	44.47
686.19	30.43
686.32	46.81
686.46	7.02
686.60	18.72
686.73	65.54
686.87	9.36
687.01	49.15
687.14	37.45
687.28	56.17
687.42	42.13
687.55	0.00
687.69	30.43
687.82	91.28
687.96	30.43
688.10	0.00
688.23	9.36
688.37	0.00
688.50	0.00
688.64	0.00
688.78	14.04
688.91	51.49
689.05	35.11
689.18	88.94
689.32	0.00
689.46	39.79
689.59	0.00
689.73	56.17
689.86	63.19
690.00	0.00
690.13	0.00
690.27	51.49
690.41	51.49
690.54	7.02
690.68	98.30
690.81	44.47
690.95	37.45
691.08	53.83
691.22	91.28
691.35	53.83
691.49	32.77
691.62	53.83
691.76	28.09
691.89	102.98
692.03	42.13
692.16	72.56
692.30	63.19
692.43	60.85
692.57	11.70
692.70	32.77
692.84	0.00
692.97	70.22
693.11	46.81
693.24	0.00
693.38	0.00
693.51	0.00
693.65	42.13
693.78	25.75
693.92	60.85
694.05	0.00
694.19	30.43
694.32	4.68
694.45	56.17
694.59	49.15
694.72	63.19
694.86	81.92
694.99	58.51
695.13	35.11
695.26	25.75
695.39	35.11
695.53	23.41
695.66	39.79
695.80	28.09
695.93	49.15
696.07	53.83
696.20	18.72
696.33	0.00
696.47	4.68
696.60	0.00
696.73	74.90
696.87	7.02
697.00	70.22
697.14	21.06
697.27	30.43
697.40	72.56
697.54	44.47
697.67	18.72
697.80	18.72
697.94	56.17
698.07	11.70
698.21	42.13
698.34	21.06
698.47	70.22
698.61	23.41
698.74	0.00
698.87	35.11
699.01	84.26
699.14	42.13
699.27	37.45
699.40	30.43
699.54	74.90
699.67	49.15
699.80	0.00
699.94	2.34
700.07	28.09
700.20	28.09
700.34	42.13
700.47	4.68
700.60	46.81
700.73	0.00
700.87	39.79
701.00	21.06
701.13	0.00
701.26	23.41
701.40	0.00
701.53	9.36
701.66	63.19
701.79	11.70
701.93	77.24
702.06	51.49
702.19	79.58
702.32	0.00
702.46	77.24
702.59	56.17
702.72	70.22
702.85	0.00
702.99	0.00
703.12	67.88
703.25	21.06
703.38	0.00
703.51	58.51
703.65	21.06
703.78	58.51
703.91	7.02
704.04	65.54
704.17	72.56
704.31	58.51
704.44	46.81
704.57	98.30
704.70	30.43
704.83	0.00
704.96	0.00
705.10	16.38
705.23	58.51
>>>>>End Processed Spectral Data<<<<<
