SpectraSuite Data File
++++++++++++++++++++++++++++++++++++
Date: Fri Oct 04 12:13:24 GMT-05:00 2013
User: price-jones
Dark Spectrum Present: No
Reference Spectrum Present: No
Number of Sampled Component Spectra: 1
Spectrometers: USB2+H05261
Integration Time (usec): 10000 (USB2+H05261)
Spectra Averaged: 1 (USB2+H05261)
Boxcar Smoothing: 0 (USB2+H05261)
Correct for Electrical Dark: No (USB2+H05261)
Strobe/Lamp Enabled: No (USB2+H05261)
Correct for Detector Non-linearity: No (USB2+H05261)
Correct for Stray Light: No (USB2+H05261)
Number of Pixels in Processed Spectrum: 2048
>>>>>Begin Processed Spectral Data<<<<<
365.73	30.43
365.92	30.43
366.12	30.43
366.32	0.00
366.52	0.00
366.72	0.00
366.91	0.00
367.11	0.00
367.31	0.00
367.51	0.00
367.70	0.00
367.90	0.00
368.10	0.00
368.30	0.00
368.49	0.00
368.69	0.00
368.89	0.00
369.09	0.00
369.28	0.00
369.48	0.00
369.68	0.00
369.87	0.00
370.07	0.00
370.27	0.00
370.47	0.00
370.66	0.00
370.86	14.04
371.06	0.00
371.25	7.02
371.45	0.00
371.65	0.00
371.84	30.43
372.04	0.00
372.24	0.00
372.44	7.02
372.63	72.56
372.83	16.38
373.03	16.38
373.22	53.83
373.42	30.43
373.62	30.43
373.81	0.00
374.01	23.41
374.21	25.75
374.40	0.00
374.60	0.00
374.79	32.77
374.99	23.41
375.19	65.54
375.38	0.00
375.58	42.13
375.78	65.54
375.97	60.85
376.17	44.47
376.37	63.19
376.56	7.02
376.76	46.81
376.95	0.00
377.15	79.58
377.35	16.38
377.54	9.36
377.74	46.81
377.93	25.75
378.13	56.17
378.33	56.17
378.52	2.34
378.72	0.00
378.91	30.43
379.11	0.00
379.31	18.72
379.50	53.83
379.70	0.00
379.89	79.58
380.09	23.41
380.28	72.56
380.48	72.56
380.68	35.11
380.87	4.68
381.07	46.81
381.26	14.04
381.46	28.09
381.65	0.00
381.85	0.00
382.04	51.49
382.24	2.34
382.43	21.06
382.63	28.09
382.83	42.13
383.02	18.72
383.22	4.68
383.41	0.00
383.61	0.00
383.80	58.51
384.00	0.00
384.19	11.70
384.39	42.13
384.58	0.00
384.78	42.13
384.97	0.00
385.17	0.00
385.36	32.77
385.56	51.49
385.75	79.58
385.95	35.11
386.14	4.68
386.34	63.19
386.53	9.36
386.72	35.11
386.92	88.94
387.11	7.02
387.31	23.41
387.50	67.88
387.70	53.83
387.89	18.72
388.09	4.68
388.28	39.79
388.48	81.92
388.67	30.43
388.86	14.04
389.06	0.00
389.25	16.38
389.45	79.58
389.64	49.15
389.84	51.49
390.03	14.04
390.22	0.00
390.42	30.43
390.61	46.81
390.81	11.70
391.00	44.47
391.19	0.00
391.39	0.00
391.58	32.77
391.78	0.00
391.97	100.64
392.16	91.28
392.36	0.00
392.55	2.34
392.75	39.79
392.94	0.00
393.13	0.00
393.33	35.11
393.52	58.51
393.71	9.36
393.91	0.00
394.10	0.00
394.29	25.75
394.49	7.02
394.68	0.00
394.88	0.00
395.07	0.00
395.26	35.11
395.46	0.00
395.65	102.98
395.84	0.00
396.04	0.00
396.23	58.51
396.42	39.79
396.62	0.00
396.81	32.77
397.00	44.47
397.19	44.47
397.39	7.02
397.58	51.49
397.77	16.38
397.97	14.04
398.16	4.68
398.35	0.00
398.55	9.36
398.74	35.11
398.93	51.49
399.12	49.15
399.32	0.00
399.51	58.51
399.70	44.47
399.90	14.04
400.09	79.58
400.28	42.13
400.47	14.04
400.67	37.45
400.86	0.00
401.05	30.43
401.24	39.79
401.44	0.00
401.63	0.00
401.82	0.00
402.01	56.17
402.21	18.72
402.40	2.34
402.59	51.49
402.78	32.77
402.97	0.00
403.17	0.00
403.36	0.00
403.55	0.00
403.74	32.77
403.93	0.00
404.13	0.00
404.32	58.51
404.51	0.00
404.70	28.09
404.89	56.17
405.09	102.98
405.28	16.38
405.47	0.00
405.66	0.00
405.85	0.00
406.05	21.06
406.24	35.11
406.43	14.04
406.62	65.54
406.81	11.70
407.00	30.43
407.20	0.00
407.39	0.00
407.58	37.45
407.77	2.34
407.96	0.00
408.15	67.88
408.34	49.15
408.54	93.62
408.73	14.04
408.92	28.09
409.11	35.11
409.30	65.54
409.49	91.28
409.68	60.85
409.87	0.00
410.07	0.00
410.26	42.13
410.45	23.41
410.64	51.49
410.83	0.00
411.02	46.81
411.21	67.88
411.40	7.02
411.59	0.00
411.78	0.00
411.98	0.00
412.17	98.30
412.36	39.79
412.55	0.00
412.74	70.22
412.93	0.00
413.12	46.81
413.31	51.49
413.50	65.54
413.69	98.30
413.88	2.34
414.07	35.11
414.26	42.13
414.45	44.47
414.64	30.43
414.83	25.75
415.02	0.00
415.22	100.64
415.41	37.45
415.60	93.62
415.79	25.75
415.98	46.81
416.17	84.26
416.36	95.96
416.55	18.72
416.74	21.06
416.93	0.00
417.12	63.19
417.31	44.47
417.50	0.00
417.69	67.88
417.88	37.45
418.07	39.79
418.26	0.00
418.45	0.00
418.64	39.79
418.83	30.43
419.02	93.62
419.21	39.79
419.39	49.15
419.58	58.51
419.77	25.75
419.96	58.51
420.15	53.83
420.34	2.34
420.53	11.70
420.72	46.81
420.91	51.49
421.10	0.00
421.29	2.34
421.48	25.75
421.67	11.70
421.86	0.00
422.05	0.00
422.24	0.00
422.43	16.38
422.61	51.49
422.80	35.11
422.99	23.41
423.18	25.75
423.37	32.77
423.56	60.85
423.75	86.60
423.94	46.81
424.13	49.15
424.32	102.98
424.50	23.41
424.69	44.47
424.88	0.00
425.07	0.00
425.26	65.54
425.45	25.75
425.64	18.72
425.83	23.41
426.01	0.00
426.20	0.00
426.39	63.19
426.58	0.00
426.77	77.24
426.96	0.00
427.15	23.41
427.33	35.11
427.52	0.00
427.71	0.00
427.90	23.41
428.09	67.88
428.28	0.00
428.46	53.83
428.65	86.60
428.84	0.00
429.03	23.41
429.22	58.51
429.40	42.13
429.59	60.85
429.78	70.22
429.97	0.00
430.16	49.15
430.34	67.88
430.53	49.15
430.72	4.68
430.91	117.03
431.10	53.83
431.28	37.45
431.47	37.45
431.66	39.79
431.85	49.15
432.03	93.62
432.22	0.00
432.41	93.62
432.60	0.00
432.79	7.02
432.97	0.00
433.16	28.09
433.35	58.51
433.54	138.09
433.72	63.19
433.91	77.24
434.10	53.83
434.28	46.81
434.47	23.41
434.66	84.26
434.85	0.00
435.03	81.92
435.22	102.98
435.41	0.00
435.59	121.71
435.78	35.11
435.97	37.45
436.16	0.00
436.34	42.13
436.53	7.02
436.72	37.45
436.90	37.45
437.09	42.13
437.28	28.09
437.46	16.38
437.65	98.30
437.84	35.11
438.02	46.81
438.21	67.88
438.40	88.94
438.58	51.49
438.77	0.00
438.96	25.75
439.14	112.35
439.33	32.77
439.52	70.22
439.70	60.85
439.89	32.77
440.08	46.81
440.26	9.36
440.45	0.00
440.63	30.43
440.82	37.45
441.01	70.22
441.19	11.70
441.38	16.38
441.57	7.02
441.75	35.11
441.94	25.75
442.12	88.94
442.31	88.94
442.50	0.00
442.68	35.11
442.87	42.13
443.05	39.79
443.24	0.00
443.43	4.68
443.61	32.77
443.80	56.17
443.98	44.47
444.17	91.28
444.35	0.00
444.54	37.45
444.73	0.00
444.91	2.34
445.10	37.45
445.28	0.00
445.47	60.85
445.65	21.06
445.84	53.83
446.02	60.85
446.21	49.15
446.39	25.75
446.58	25.75
446.77	53.83
446.95	37.45
447.14	81.92
447.32	65.54
447.51	18.72
447.69	37.45
447.88	21.06
448.06	0.00
448.25	44.47
448.43	23.41
448.62	11.70
448.80	0.00
448.99	77.24
449.17	21.06
449.36	25.75
449.54	56.17
449.73	28.09
449.91	65.54
450.10	0.00
450.28	56.17
450.46	9.36
450.65	0.00
450.83	0.00
451.02	70.22
451.20	46.81
451.39	65.54
451.57	32.77
451.76	16.38
451.94	37.45
452.13	0.00
452.31	9.36
452.49	7.02
452.68	44.47
452.86	16.38
453.05	37.45
453.23	67.88
453.42	0.00
453.60	2.34
453.78	4.68
453.97	46.81
454.15	37.45
454.34	16.38
454.52	58.51
454.70	14.04
454.89	102.98
455.07	25.75
455.26	42.13
455.44	79.58
455.62	25.75
455.81	21.06
455.99	49.15
456.17	42.13
456.36	21.06
456.54	23.41
456.73	0.00
456.91	0.00
457.09	0.00
457.28	0.00
457.46	16.38
457.64	18.72
457.83	65.54
458.01	42.13
458.19	11.70
458.38	72.56
458.56	32.77
458.74	4.68
458.93	25.75
459.11	46.81
459.29	21.06
459.48	4.68
459.66	42.13
459.84	2.34
460.03	4.68
460.21	25.75
460.39	32.77
460.57	16.38
460.76	138.09
460.94	112.35
461.12	0.00
461.31	37.45
461.49	49.15
461.67	37.45
461.85	9.36
462.04	51.49
462.22	95.96
462.40	65.54
462.59	0.00
462.77	0.00
462.95	2.34
463.13	4.68
463.32	84.26
463.50	44.47
463.68	63.19
463.86	58.51
464.05	23.41
464.23	2.34
464.41	0.00
464.59	14.04
464.78	49.15
464.96	0.00
465.14	86.60
465.32	0.00
465.50	35.11
465.69	18.72
465.87	0.00
466.05	14.04
466.23	11.70
466.41	88.94
466.60	67.88
466.78	56.17
466.96	65.54
467.14	37.45
467.32	9.36
467.51	0.00
467.69	105.32
467.87	84.26
468.05	14.04
468.23	77.24
468.41	65.54
468.60	51.49
468.78	9.36
468.96	25.75
469.14	124.05
469.32	32.77
469.50	32.77
469.69	7.02
469.87	42.13
470.05	2.34
470.23	42.13
470.41	11.70
470.59	72.56
470.77	0.00
470.95	51.49
471.14	70.22
471.32	28.09
471.50	86.60
471.68	25.75
471.86	0.00
472.04	86.60
472.22	37.45
472.40	7.02
472.58	32.77
472.77	35.11
472.95	56.17
473.13	44.47
473.31	79.58
473.49	65.54
473.67	35.11
473.85	16.38
474.03	91.28
474.21	91.28
474.39	4.68
474.57	7.02
474.75	18.72
474.93	0.00
475.12	28.09
475.30	32.77
475.48	30.43
475.66	58.51
475.84	63.19
476.02	37.45
476.20	84.26
476.38	58.51
476.56	98.30
476.74	39.79
476.92	11.70
477.10	86.60
477.28	0.00
477.46	74.90
477.64	51.49
477.82	0.00
478.00	65.54
478.18	46.81
478.36	91.28
478.54	21.06
478.72	72.56
478.90	65.54
479.08	53.83
479.26	35.11
479.44	18.72
479.62	18.72
479.80	58.51
479.98	81.92
480.16	60.85
480.34	0.00
480.52	86.60
480.70	0.00
480.88	21.06
481.06	39.79
481.24	37.45
481.41	2.34
481.59	0.00
481.77	46.81
481.95	21.06
482.13	93.62
482.31	0.00
482.49	0.00
482.67	25.75
482.85	0.00
483.03	51.49
483.21	65.54
483.39	16.38
483.57	46.81
483.74	0.00
483.92	112.35
484.10	81.92
484.28	35.11
484.46	74.90
484.64	23.41
484.82	23.41
485.00	74.90
485.18	46.81
485.35	88.94
485.53	7.02
485.71	18.72
485.89	0.00
486.07	46.81
486.25	21.06
486.43	44.47
486.61	23.41
486.78	0.00
486.96	28.09
487.14	63.19
487.32	16.38
487.50	44.47
487.68	0.00
487.85	98.30
488.03	60.85
488.21	21.06
488.39	14.04
488.57	0.00
488.75	74.90
488.92	65.54
489.10	0.00
489.28	39.79
489.46	14.04
489.64	72.56
489.81	100.64
489.99	65.54
490.17	88.94
490.35	23.41
490.53	70.22
490.70	14.04
490.88	88.94
491.06	0.00
491.24	51.49
491.41	84.26
491.59	0.00
491.77	70.22
491.95	84.26
492.13	7.02
492.30	46.81
492.48	53.83
492.66	70.22
492.84	35.11
493.01	4.68
493.19	72.56
493.37	77.24
493.54	110.01
493.72	86.60
493.90	0.00
494.08	63.19
494.25	70.22
494.43	0.00
494.61	11.70
494.79	51.49
494.96	65.54
495.14	126.39
495.32	30.43
495.49	58.51
495.67	0.00
495.85	37.45
496.02	14.04
496.20	0.00
496.38	56.17
496.55	39.79
496.73	25.75
496.91	37.45
497.09	32.77
497.26	0.00
497.44	42.13
497.62	21.06
497.79	49.15
497.97	7.02
498.14	53.83
498.32	0.00
498.50	44.47
498.67	9.36
498.85	14.04
499.03	39.79
499.20	23.41
499.38	124.05
499.56	74.90
499.73	42.13
499.91	72.56
500.08	0.00
500.26	70.22
500.44	65.54
500.61	28.09
500.79	51.49
500.97	102.98
501.14	74.90
501.32	42.13
501.49	0.00
501.67	0.00
501.84	4.68
502.02	117.03
502.20	42.13
502.37	51.49
502.55	105.32
502.72	65.54
502.90	42.13
503.07	0.00
503.25	51.49
503.43	11.70
503.60	0.00
503.78	28.09
503.95	46.81
504.13	107.66
504.30	0.00
504.48	25.75
504.65	0.00
504.83	131.07
505.01	11.70
505.18	44.47
505.36	44.47
505.53	32.77
505.71	42.13
505.88	119.37
506.06	14.04
506.23	63.19
506.41	51.49
506.58	0.00
506.76	4.68
506.93	32.77
507.11	35.11
507.28	23.41
507.46	4.68
507.63	56.17
507.81	49.15
507.98	32.77
508.16	79.58
508.33	32.77
508.50	67.88
508.68	72.56
508.85	0.00
509.03	42.13
509.20	30.43
509.38	30.43
509.55	30.43
509.73	0.00
509.90	0.00
510.08	39.79
510.25	46.81
510.42	88.94
510.60	65.54
510.77	51.49
510.95	72.56
511.12	91.28
511.30	30.43
511.47	60.85
511.64	91.28
511.82	16.38
511.99	37.45
512.17	98.30
512.34	44.47
512.51	30.43
512.69	42.13
512.86	126.39
513.04	44.47
513.21	7.02
513.38	72.56
513.56	32.77
513.73	0.00
513.90	0.00
514.08	58.51
514.25	7.02
514.43	39.79
514.60	16.38
514.77	39.79
514.95	67.88
515.12	51.49
515.29	65.54
515.47	53.83
515.64	0.00
515.81	28.09
515.99	88.94
516.16	18.72
516.33	42.13
516.51	60.85
516.68	131.07
516.85	72.56
517.03	91.28
517.20	84.26
517.37	39.79
517.54	49.15
517.72	74.90
517.89	53.83
518.06	72.56
518.24	60.85
518.41	117.03
518.58	39.79
518.75	58.51
518.93	67.88
519.10	16.38
519.27	79.58
519.45	35.11
519.62	51.49
519.79	14.04
519.96	2.34
520.14	46.81
520.31	84.26
520.48	93.62
520.65	42.13
520.83	2.34
521.00	0.00
521.17	25.75
521.34	28.09
521.52	93.62
521.69	56.17
521.86	53.83
522.03	32.77
522.20	93.62
522.38	0.00
522.55	95.96
522.72	0.00
522.89	72.56
523.07	7.02
523.24	4.68
523.41	63.19
523.58	4.68
523.75	0.00
523.92	56.17
524.10	2.34
524.27	0.00
524.44	74.90
524.61	0.00
524.78	39.79
524.96	39.79
525.13	35.11
525.30	0.00
525.47	63.19
525.64	93.62
525.81	0.00
525.98	93.62
526.16	37.45
526.33	72.56
526.50	79.58
526.67	37.45
526.84	53.83
527.01	88.94
527.18	72.56
527.36	112.35
527.53	114.69
527.70	110.01
527.87	93.62
528.04	81.92
528.21	42.13
528.38	9.36
528.55	91.28
528.72	128.73
528.89	70.22
529.07	81.92
529.24	16.38
529.41	74.90
529.58	46.81
529.75	105.32
529.92	65.54
530.09	112.35
530.26	56.17
530.43	42.13
530.60	56.17
530.77	114.69
530.94	58.51
531.11	39.79
531.28	84.26
531.46	72.56
531.63	39.79
531.80	39.79
531.97	60.85
532.14	35.11
532.31	84.26
532.48	84.26
532.65	58.51
532.82	35.11
532.99	0.00
533.16	0.00
533.33	63.19
533.50	0.00
533.67	25.75
533.84	16.38
534.01	0.00
534.18	14.04
534.35	65.54
534.52	58.51
534.69	46.81
534.86	0.00
535.03	28.09
535.20	79.58
535.37	107.66
535.54	81.92
535.71	67.88
535.88	7.02
536.05	14.04
536.22	77.24
536.38	81.92
536.55	53.83
536.72	72.56
536.89	119.37
537.06	18.72
537.23	60.85
537.40	51.49
537.57	9.36
537.74	25.75
537.91	37.45
538.08	0.00
538.25	0.00
538.42	60.85
538.59	93.62
538.75	42.13
538.92	51.49
539.09	46.81
539.26	81.92
539.43	49.15
539.60	107.66
539.77	39.79
539.94	42.13
540.11	14.04
540.28	77.24
540.44	21.06
540.61	35.11
540.78	72.56
540.95	91.28
541.12	32.77
541.29	44.47
541.46	0.00
541.62	25.75
541.79	58.51
541.96	23.41
542.13	135.75
542.30	91.28
542.47	11.70
542.63	39.79
542.80	53.83
542.97	58.51
543.14	81.92
543.31	49.15
543.48	86.60
543.64	91.28
543.81	28.09
543.98	49.15
544.15	30.43
544.32	35.11
544.48	9.36
544.65	44.47
544.82	56.17
544.99	14.04
545.16	110.01
545.32	35.11
545.49	0.00
545.66	18.72
545.83	0.00
546.00	53.83
546.16	2.34
546.33	32.77
546.50	4.68
546.67	65.54
546.83	32.77
547.00	53.83
547.17	51.49
547.34	60.85
547.50	42.13
547.67	46.81
547.84	72.56
548.00	16.38
548.17	7.02
548.34	58.51
548.51	35.11
548.67	107.66
548.84	9.36
549.01	0.00
549.18	21.06
549.34	4.68
549.51	84.26
549.68	32.77
549.84	18.72
550.01	51.49
550.18	0.00
550.34	21.06
550.51	9.36
550.68	67.88
550.84	0.00
551.01	0.00
551.18	0.00
551.34	49.15
551.51	23.41
551.68	21.06
551.84	32.77
552.01	86.60
552.18	0.00
552.34	105.32
552.51	95.96
552.68	46.81
552.84	46.81
553.01	46.81
553.18	149.79
553.34	49.15
553.51	100.64
553.67	53.83
553.84	102.98
554.01	81.92
554.17	74.90
554.34	18.72
554.51	9.36
554.67	30.43
554.84	105.32
555.00	105.32
555.17	0.00
555.33	84.26
555.50	0.00
555.67	30.43
555.83	77.24
556.00	100.64
556.16	135.75
556.33	37.45
556.50	32.77
556.66	0.00
556.83	0.00
556.99	112.35
557.16	23.41
557.32	70.22
557.49	63.19
557.65	21.06
557.82	37.45
557.98	28.09
558.15	91.28
558.32	32.77
558.48	46.81
558.65	65.54
558.81	0.00
558.98	58.51
559.14	131.07
559.31	135.75
559.47	63.19
559.64	72.56
559.80	7.02
559.97	0.00
560.13	11.70
560.30	67.88
560.46	112.35
560.63	60.85
560.79	28.09
560.96	72.56
561.12	0.00
561.29	9.36
561.45	37.45
561.61	9.36
561.78	72.56
561.94	30.43
562.11	77.24
562.27	0.00
562.44	91.28
562.60	84.26
562.77	35.11
562.93	56.17
563.10	49.15
563.26	49.15
563.42	105.32
563.59	28.09
563.75	44.47
563.92	81.92
564.08	0.00
564.24	25.75
564.41	44.47
564.57	67.88
564.74	35.11
564.90	30.43
565.07	58.51
565.23	67.88
565.39	95.96
565.56	32.77
565.72	51.49
565.88	4.68
566.05	0.00
566.21	9.36
566.38	0.00
566.54	32.77
566.70	23.41
566.87	16.38
567.03	42.13
567.19	114.69
567.36	0.00
567.52	70.22
567.68	79.58
567.85	0.00
568.01	44.47
568.17	74.90
568.34	51.49
568.50	49.15
568.66	46.81
568.83	30.43
568.99	4.68
569.15	21.06
569.32	0.00
569.48	14.04
569.64	51.49
569.81	58.51
569.97	51.49
570.13	9.36
570.30	65.54
570.46	37.45
570.62	28.09
570.78	67.88
570.95	4.68
571.11	81.92
571.27	81.92
571.43	28.09
571.60	23.41
571.76	14.04
571.92	86.60
572.09	63.19
572.25	14.04
572.41	46.81
572.57	56.17
572.74	58.51
572.90	79.58
573.06	121.71
573.22	37.45
573.38	74.90
573.55	46.81
573.71	72.56
573.87	0.00
574.03	42.13
574.20	98.30
574.36	25.75
574.52	25.75
574.68	32.77
574.84	53.83
575.01	42.13
575.17	42.13
575.33	140.43
575.49	25.75
575.65	72.56
575.82	140.43
575.98	0.00
576.14	32.77
576.30	23.41
576.46	42.13
576.62	23.41
576.79	72.56
576.95	0.00
577.11	93.62
577.27	37.45
577.43	91.28
577.59	28.09
577.75	79.58
577.92	9.36
578.08	25.75
578.24	53.83
578.40	37.45
578.56	56.17
578.72	56.17
578.88	28.09
579.04	39.79
579.21	51.49
579.37	11.70
579.53	100.64
579.69	60.85
579.85	63.19
580.01	105.32
580.17	56.17
580.33	117.03
580.49	35.11
580.65	77.24
580.82	42.13
580.98	0.00
581.14	32.77
581.30	14.04
581.46	0.00
581.62	77.24
581.78	79.58
581.94	18.72
582.10	84.26
582.26	49.15
582.42	67.88
582.58	14.04
582.74	0.00
582.90	25.75
583.06	65.54
583.22	70.22
583.38	4.68
583.54	4.68
583.70	25.75
583.86	0.00
584.02	0.00
584.18	53.83
584.34	133.41
584.50	86.60
584.66	16.38
584.82	0.00
584.98	0.00
585.14	0.00
585.30	100.64
585.46	70.22
585.62	28.09
585.78	58.51
585.94	0.00
586.10	67.88
586.26	53.83
586.42	51.49
586.58	37.45
586.74	30.43
586.90	0.00
587.06	42.13
587.22	25.75
587.38	65.54
587.54	70.22
587.70	56.17
587.86	32.77
588.02	72.56
588.18	58.51
588.34	16.38
588.49	81.92
588.65	67.88
588.81	81.92
588.97	39.79
589.13	74.90
589.29	0.00
589.45	53.83
589.61	93.62
589.77	39.79
589.93	0.00
590.08	14.04
590.24	112.35
590.40	0.00
590.56	70.22
590.72	0.00
590.88	56.17
591.04	39.79
591.20	56.17
591.35	70.22
591.51	74.90
591.67	81.92
591.83	107.66
591.99	18.72
592.15	53.83
592.31	60.85
592.46	0.00
592.62	49.15
592.78	4.68
592.94	58.51
593.10	0.00
593.26	39.79
593.41	86.60
593.57	49.15
593.73	25.75
593.89	70.22
594.05	46.81
594.20	25.75
594.36	74.90
594.52	9.36
594.68	131.07
594.84	100.64
594.99	58.51
595.15	0.00
595.31	84.26
595.47	37.45
595.62	81.92
595.78	30.43
595.94	0.00
596.10	51.49
596.25	39.79
596.41	28.09
596.57	53.83
596.73	37.45
596.88	7.02
597.04	58.51
597.20	58.51
597.36	65.54
597.51	30.43
597.67	60.85
597.83	70.22
597.99	23.41
598.14	0.00
598.30	9.36
598.46	81.92
598.61	23.41
598.77	32.77
598.93	35.11
599.09	86.60
599.24	44.47
599.40	32.77
599.56	63.19
599.71	63.19
599.87	4.68
600.03	39.79
600.18	60.85
600.34	0.00
600.50	0.00
600.65	72.56
600.81	63.19
600.97	0.00
601.12	58.51
601.28	110.01
601.44	74.90
601.59	0.00
601.75	53.83
601.91	7.02
602.06	25.75
602.22	49.15
602.37	70.22
602.53	63.19
602.69	0.00
602.84	100.64
603.00	58.51
603.16	39.79
603.31	28.09
603.47	51.49
603.62	46.81
603.78	56.17
603.94	18.72
604.09	7.02
604.25	51.49
604.40	32.77
604.56	32.77
604.71	25.75
604.87	65.54
605.03	0.00
605.18	46.81
605.34	65.54
605.49	7.02
605.65	32.77
605.80	30.43
605.96	11.70
606.12	84.26
606.27	25.75
606.43	67.88
606.58	0.00
606.74	79.58
606.89	84.26
607.05	44.47
607.20	25.75
607.36	0.00
607.51	0.00
607.67	35.11
607.82	49.15
607.98	2.34
608.13	4.68
608.29	42.13
608.44	42.13
608.60	70.22
608.75	74.90
608.91	53.83
609.06	74.90
609.22	74.90
609.37	98.30
609.53	49.15
609.68	37.45
609.84	0.00
609.99	18.72
610.15	25.75
610.30	91.28
610.46	70.22
610.61	0.00
610.76	23.41
610.92	0.00
611.07	32.77
611.23	35.11
611.38	0.00
611.54	0.00
611.69	39.79
611.84	93.62
612.00	11.70
612.15	95.96
612.31	42.13
612.46	30.43
612.62	105.32
612.77	56.17
612.92	32.77
613.08	9.36
613.23	51.49
613.39	70.22
613.54	28.09
613.69	46.81
613.85	65.54
614.00	32.77
614.15	56.17
614.31	79.58
614.46	93.62
614.62	84.26
614.77	25.75
614.92	0.00
615.08	79.58
615.23	4.68
615.38	81.92
615.54	23.41
615.69	67.88
615.84	114.69
616.00	28.09
616.15	42.13
616.30	16.38
616.46	65.54
616.61	86.60
616.76	21.06
616.92	4.68
617.07	46.81
617.22	91.28
617.37	0.00
617.53	32.77
617.68	0.00
617.83	44.47
617.99	0.00
618.14	32.77
618.29	11.70
618.45	9.36
618.60	147.45
618.75	18.72
618.90	60.85
619.06	23.41
619.21	0.00
619.36	37.45
619.51	65.54
619.67	46.81
619.82	77.24
619.97	39.79
620.12	11.70
620.28	65.54
620.43	46.81
620.58	42.13
620.73	0.00
620.89	49.15
621.04	95.96
621.19	7.02
621.34	60.85
621.49	35.11
621.65	39.79
621.80	14.04
621.95	25.75
622.10	9.36
622.25	98.30
622.41	51.49
622.56	0.00
622.71	46.81
622.86	0.00
623.01	56.17
623.16	72.56
623.32	58.51
623.47	49.15
623.62	0.00
623.77	0.00
623.92	56.17
624.07	16.38
624.23	23.41
624.38	11.70
624.53	58.51
624.68	32.77
624.83	0.00
624.98	37.45
625.13	51.49
625.29	11.70
625.44	49.15
625.59	2.34
625.74	30.43
625.89	0.00
626.04	4.68
626.19	23.41
626.34	30.43
626.49	0.00
626.65	37.45
626.80	23.41
626.95	0.00
627.10	35.11
627.25	14.04
627.40	39.79
627.55	0.00
627.70	0.00
627.85	72.56
628.00	28.09
628.15	18.72
628.30	117.03
628.45	51.49
628.60	84.26
628.76	46.81
628.91	93.62
629.06	44.47
629.21	51.49
629.36	30.43
629.51	77.24
629.66	70.22
629.81	46.81
629.96	124.05
630.11	32.77
630.26	0.00
630.41	0.00
630.56	58.51
630.71	7.02
630.86	72.56
631.01	42.13
631.16	23.41
631.31	18.72
631.46	102.98
631.61	42.13
631.76	63.19
631.91	16.38
632.06	2.34
632.21	105.32
632.36	0.00
632.51	23.41
632.66	53.83
632.81	74.90
632.96	88.94
633.10	0.00
633.25	11.70
633.40	77.24
633.55	0.00
633.70	53.83
633.85	81.92
634.00	70.22
634.15	67.88
634.30	21.06
634.45	93.62
634.60	32.77
634.75	81.92
634.90	25.75
635.05	60.85
635.19	4.68
635.34	102.98
635.49	0.00
635.64	0.00
635.79	25.75
635.94	37.45
636.09	140.43
636.24	23.41
636.39	37.45
636.53	65.54
636.68	95.96
636.83	7.02
636.98	37.45
637.13	0.00
637.28	53.83
637.43	0.00
637.57	49.15
637.72	60.85
637.87	86.60
638.02	56.17
638.17	0.00
638.32	58.51
638.46	51.49
638.61	30.43
638.76	0.00
638.91	4.68
639.06	28.09
639.20	49.15
639.35	93.62
639.50	2.34
639.65	0.00
639.80	70.22
639.94	74.90
640.09	65.54
640.24	18.72
640.39	91.28
640.54	11.70
640.68	37.45
640.83	74.90
640.98	37.45
641.13	30.43
641.27	105.32
641.42	0.00
641.57	51.49
641.72	14.04
641.86	102.98
642.01	30.43
642.16	107.66
642.31	39.79
642.45	0.00
642.60	98.30
642.75	63.19
642.90	58.51
643.04	56.17
643.19	23.41
643.34	0.00
643.48	23.41
643.63	46.81
643.78	4.68
643.93	0.00
644.07	84.26
644.22	44.47
644.37	63.19
644.51	18.72
644.66	32.77
644.81	0.00
644.95	14.04
645.10	72.56
645.25	9.36
645.39	30.43
645.54	23.41
645.69	7.02
645.83	77.24
645.98	0.00
646.13	58.51
646.27	119.37
646.42	58.51
646.57	18.72
646.71	28.09
646.86	93.62
647.00	16.38
647.15	28.09
647.30	51.49
647.44	0.00
647.59	11.70
647.74	35.11
647.88	56.17
648.03	105.32
648.17	51.49
648.32	30.43
648.47	2.34
648.61	28.09
648.76	51.49
648.90	53.83
649.05	70.22
649.20	77.24
649.34	65.54
649.49	25.75
649.63	74.90
649.78	14.04
649.92	70.22
650.07	11.70
650.21	70.22
650.36	91.28
650.51	16.38
650.65	56.17
650.80	65.54
650.94	98.30
651.09	51.49
651.23	77.24
651.38	0.00
651.52	0.00
651.67	2.34
651.81	44.47
651.96	51.49
652.10	77.24
652.25	72.56
652.39	25.75
652.54	67.88
652.68	28.09
652.83	0.00
652.97	0.00
653.12	28.09
653.26	60.85
653.41	107.66
653.55	51.49
653.70	124.05
653.84	28.09
653.99	0.00
654.13	21.06
654.27	46.81
654.42	77.24
654.56	39.79
654.71	30.43
654.85	70.22
655.00	9.36
655.14	81.92
655.29	72.56
655.43	56.17
655.57	81.92
655.72	65.54
655.86	9.36
656.01	63.19
656.15	88.94
656.30	53.83
656.44	21.06
656.58	42.13
656.73	0.00
656.87	46.81
657.01	0.00
657.16	0.00
657.30	58.51
657.45	0.00
657.59	0.00
657.73	53.83
657.88	0.00
658.02	0.00
658.16	79.58
658.31	65.54
658.45	49.15
658.60	51.49
658.74	72.56
658.88	18.72
659.03	53.83
659.17	0.00
659.31	7.02
659.46	2.34
659.60	65.54
659.74	0.00
659.89	74.90
660.03	51.49
660.17	37.45
660.32	23.41
660.46	0.00
660.60	0.00
660.74	56.17
660.89	30.43
661.03	51.49
661.17	0.00
661.32	58.51
661.46	74.90
661.60	0.00
661.74	0.00
661.89	7.02
662.03	67.88
662.17	0.00
662.31	25.75
662.46	28.09
662.60	63.19
662.74	110.01
662.88	124.05
663.03	42.13
663.17	74.90
663.31	7.02
663.45	35.11
663.60	0.00
663.74	0.00
663.88	58.51
664.02	4.68
664.17	0.00
664.31	63.19
664.45	4.68
664.59	14.04
664.73	86.60
664.88	0.00
665.02	49.15
665.16	32.77
665.30	74.90
665.44	23.41
665.59	0.00
665.73	18.72
665.87	42.13
666.01	81.92
666.15	86.60
666.29	74.90
666.44	110.01
666.58	0.00
666.72	0.00
666.86	0.00
667.00	72.56
667.14	0.00
667.28	16.38
667.43	9.36
667.57	42.13
667.71	81.92
667.85	9.36
667.99	0.00
668.13	72.56
668.27	32.77
668.41	0.00
668.56	0.00
668.70	42.13
668.84	0.00
668.98	28.09
669.12	60.85
669.26	58.51
669.40	77.24
669.54	51.49
669.68	42.13
669.82	35.11
669.96	91.28
670.10	23.41
670.25	0.00
670.39	16.38
670.53	42.13
670.67	65.54
670.81	2.34
670.95	51.49
671.09	0.00
671.23	74.90
671.37	0.00
671.51	53.83
671.65	16.38
671.79	16.38
671.93	30.43
672.07	79.58
672.21	46.81
672.35	14.04
672.49	46.81
672.63	60.85
672.77	25.75
672.91	23.41
673.05	46.81
673.19	67.88
673.33	42.13
673.47	0.00
673.61	21.06
673.75	14.04
673.89	88.94
674.03	32.77
674.17	0.00
674.31	28.09
674.45	58.51
674.59	42.13
674.73	46.81
674.87	11.70
675.01	14.04
675.15	53.83
675.29	105.32
675.43	88.94
675.56	28.09
675.70	72.56
675.84	42.13
675.98	2.34
676.12	44.47
676.26	14.04
676.40	147.45
676.54	9.36
676.68	30.43
676.82	51.49
676.96	46.81
677.10	49.15
677.23	58.51
677.37	35.11
677.51	35.11
677.65	21.06
677.79	60.85
677.93	51.49
678.07	46.81
678.21	37.45
678.34	0.00
678.48	35.11
678.62	28.09
678.76	51.49
678.90	70.22
679.04	67.88
679.18	0.00
679.31	49.15
679.45	44.47
679.59	63.19
679.73	93.62
679.87	0.00
680.00	0.00
680.14	0.00
680.28	39.79
680.42	16.38
680.56	0.00
680.70	25.75
680.83	56.17
680.97	42.13
681.11	102.98
681.25	124.05
681.39	39.79
681.52	0.00
681.66	42.13
681.80	67.88
681.94	16.38
682.07	0.00
682.21	32.77
682.35	77.24
682.49	74.90
682.62	58.51
682.76	28.09
682.90	0.00
683.04	0.00
683.17	35.11
683.31	0.00
683.45	93.62
683.59	58.51
683.72	138.09
683.86	56.17
684.00	84.26
684.13	18.72
684.27	32.77
684.41	65.54
684.55	0.00
684.68	4.68
684.82	0.00
684.96	0.00
685.09	37.45
685.23	0.00
685.37	77.24
685.50	4.68
685.64	0.00
685.78	67.88
685.91	0.00
686.05	39.79
686.19	0.00
686.32	0.00
686.46	18.72
686.60	21.06
686.73	53.83
686.87	18.72
687.01	23.41
687.14	32.77
687.28	28.09
687.42	25.75
687.55	35.11
687.69	32.77
687.82	30.43
687.96	2.34
688.10	25.75
688.23	100.64
688.37	81.92
688.50	77.24
688.64	2.34
688.78	0.00
688.91	77.24
689.05	35.11
689.18	91.28
689.32	28.09
689.46	58.51
689.59	138.09
689.73	44.47
689.86	58.51
690.00	93.62
690.13	84.26
690.27	42.13
690.41	28.09
690.54	0.00
690.68	49.15
690.81	21.06
690.95	46.81
691.08	49.15
691.22	21.06
691.35	30.43
691.49	51.49
691.62	35.11
691.76	7.02
691.89	88.94
692.03	9.36
692.16	63.19
692.30	0.00
692.43	51.49
692.57	16.38
692.70	23.41
692.84	105.32
692.97	0.00
693.11	0.00
693.24	30.43
693.38	72.56
693.51	4.68
693.65	44.47
693.78	35.11
693.92	58.51
694.05	37.45
694.19	58.51
694.32	53.83
694.45	16.38
694.59	72.56
694.72	9.36
694.86	32.77
694.99	32.77
695.13	51.49
695.26	60.85
695.39	51.49
695.53	88.94
695.66	25.75
695.80	0.00
695.93	30.43
696.07	58.51
696.20	84.26
696.33	51.49
696.47	35.11
696.60	35.11
696.73	46.81
696.87	135.75
697.00	58.51
697.14	51.49
697.27	0.00
697.40	4.68
697.54	39.79
697.67	0.00
697.80	84.26
697.94	53.83
698.07	46.81
698.21	35.11
698.34	0.00
698.47	81.92
698.61	0.00
698.74	51.49
698.87	84.26
699.01	0.00
699.14	37.45
699.27	32.77
699.40	14.04
699.54	14.04
699.67	25.75
699.80	25.75
699.94	100.64
700.07	18.72
700.20	0.00
700.34	37.45
700.47	49.15
700.60	0.00
700.73	46.81
700.87	39.79
701.00	0.00
701.13	124.05
701.26	0.00
701.40	51.49
701.53	0.00
701.66	7.02
701.79	0.00
701.93	25.75
702.06	0.00
702.19	18.72
702.32	79.58
702.46	23.41
702.59	117.03
702.72	56.17
702.85	0.00
702.99	44.47
703.12	44.47
703.25	23.41
703.38	65.54
703.51	0.00
703.65	46.81
703.78	0.00
703.91	156.82
704.04	32.77
704.17	72.56
704.31	79.58
704.44	39.79
704.57	9.36
704.70	21.06
704.83	32.77
704.96	0.00
705.10	49.15
705.23	30.43
>>>>>End Processed Spectral Data<<<<<
