SpectraSuite Data File
++++++++++++++++++++++++++++++++++++
Date: Fri Oct 04 12:13:41 GMT-05:00 2013
User: price-jones
Dark Spectrum Present: No
Reference Spectrum Present: No
Number of Sampled Component Spectra: 1
Spectrometers: USB2+H05261
Integration Time (usec): 10000 (USB2+H05261)
Spectra Averaged: 1 (USB2+H05261)
Boxcar Smoothing: 0 (USB2+H05261)
Correct for Electrical Dark: No (USB2+H05261)
Strobe/Lamp Enabled: No (USB2+H05261)
Correct for Detector Non-linearity: No (USB2+H05261)
Correct for Stray Light: No (USB2+H05261)
Number of Pixels in Processed Spectrum: 2048
>>>>>Begin Processed Spectral Data<<<<<
365.73	0.00
365.92	0.00
366.12	0.00
366.32	0.00
366.52	0.00
366.72	0.00
366.91	0.00
367.11	0.00
367.31	0.00
367.51	0.00
367.70	0.00
367.90	0.00
368.10	0.00
368.30	0.00
368.49	0.00
368.69	0.00
368.89	0.00
369.09	0.00
369.28	0.00
369.48	0.00
369.68	0.00
369.87	0.00
370.07	0.00
370.27	0.00
370.47	0.00
370.66	23.41
370.86	0.00
371.06	0.00
371.25	32.77
371.45	9.36
371.65	72.56
371.84	42.13
372.04	0.00
372.24	37.45
372.44	0.00
372.63	98.30
372.83	84.26
373.03	35.11
373.22	37.45
373.42	51.49
373.62	21.06
373.81	39.79
374.01	86.60
374.21	58.51
374.40	67.88
374.60	21.06
374.79	21.06
374.99	121.71
375.19	67.88
375.38	51.49
375.58	37.45
375.78	0.00
375.97	63.19
376.17	42.13
376.37	16.38
376.56	49.15
376.76	0.00
376.95	60.85
377.15	117.03
377.35	93.62
377.54	0.00
377.74	9.36
377.93	30.43
378.13	60.85
378.33	72.56
378.52	18.72
378.72	39.79
378.91	74.90
379.11	0.00
379.31	0.00
379.50	67.88
379.70	0.00
379.89	28.09
380.09	0.00
380.28	0.00
380.48	42.13
380.68	42.13
380.87	25.75
381.07	14.04
381.26	35.11
381.46	0.00
381.65	0.00
381.85	49.15
382.04	0.00
382.24	30.43
382.43	53.83
382.63	11.70
382.83	11.70
383.02	0.00
383.22	9.36
383.41	16.38
383.61	9.36
383.80	51.49
384.00	0.00
384.19	16.38
384.39	0.00
384.58	21.06
384.78	0.00
384.97	0.00
385.17	58.51
385.36	0.00
385.56	0.00
385.75	0.00
385.95	0.00
386.14	32.77
386.34	0.00
386.53	72.56
386.72	32.77
386.92	42.13
387.11	0.00
387.31	0.00
387.50	44.47
387.70	0.00
387.89	58.51
388.09	21.06
388.28	86.60
388.48	9.36
388.67	0.00
388.86	39.79
389.06	30.43
389.25	0.00
389.45	51.49
389.64	0.00
389.84	0.00
390.03	60.85
390.22	11.70
390.42	2.34
390.61	30.43
390.81	16.38
391.00	77.24
391.19	42.13
391.39	14.04
391.58	114.69
391.78	88.94
391.97	4.68
392.16	42.13
392.36	72.56
392.55	16.38
392.75	16.38
392.94	65.54
393.13	42.13
393.33	30.43
393.52	93.62
393.71	28.09
393.91	100.64
394.10	14.04
394.29	32.77
394.49	2.34
394.68	0.00
394.88	44.47
395.07	46.81
395.26	44.47
395.46	0.00
395.65	58.51
395.84	21.06
396.04	131.07
396.23	0.00
396.42	46.81
396.62	16.38
396.81	23.41
397.00	84.26
397.19	23.41
397.39	84.26
397.58	30.43
397.77	4.68
397.97	11.70
398.16	32.77
398.35	63.19
398.55	67.88
398.74	28.09
398.93	60.85
399.12	32.77
399.32	23.41
399.51	30.43
399.70	37.45
399.90	44.47
400.09	25.75
400.28	119.37
400.47	86.60
400.67	124.05
400.86	0.00
401.05	86.60
401.24	0.00
401.44	16.38
401.63	95.96
401.82	23.41
402.01	88.94
402.21	98.30
402.40	65.54
402.59	37.45
402.78	88.94
402.97	81.92
403.17	56.17
403.36	58.51
403.55	100.64
403.74	0.00
403.93	11.70
404.13	98.30
404.32	35.11
404.51	30.43
404.70	53.83
404.89	53.83
405.09	18.72
405.28	86.60
405.47	32.77
405.66	21.06
405.85	72.56
406.05	138.09
406.24	7.02
406.43	74.90
406.62	58.51
406.81	0.00
407.00	23.41
407.20	65.54
407.39	0.00
407.58	88.94
407.77	58.51
407.96	0.00
408.15	42.13
408.34	30.43
408.54	77.24
408.73	21.06
408.92	42.13
409.11	37.45
409.30	84.26
409.49	14.04
409.68	49.15
409.87	25.75
410.07	30.43
410.26	0.00
410.45	0.00
410.64	23.41
410.83	44.47
411.02	60.85
411.21	42.13
411.40	14.04
411.59	44.47
411.78	0.00
411.98	2.34
412.17	72.56
412.36	51.49
412.55	0.00
412.74	88.94
412.93	35.11
413.12	30.43
413.31	0.00
413.50	86.60
413.69	37.45
413.88	0.00
414.07	79.58
414.26	93.62
414.45	72.56
414.64	23.41
414.83	16.38
415.02	77.24
415.22	4.68
415.41	0.00
415.60	4.68
415.79	18.72
415.98	60.85
416.17	0.00
416.36	35.11
416.55	21.06
416.74	51.49
416.93	0.00
417.12	79.58
417.31	0.00
417.50	63.19
417.69	74.90
417.88	65.54
418.07	51.49
418.26	23.41
418.45	0.00
418.64	60.85
418.83	21.06
419.02	0.00
419.21	46.81
419.39	0.00
419.58	72.56
419.77	56.17
419.96	60.85
420.15	79.58
420.34	131.07
420.53	21.06
420.72	107.66
420.91	58.51
421.10	14.04
421.29	37.45
421.48	0.00
421.67	70.22
421.86	0.00
422.05	63.19
422.24	0.00
422.43	14.04
422.61	93.62
422.80	126.39
422.99	128.73
423.18	0.00
423.37	44.47
423.56	74.90
423.75	56.17
423.94	4.68
424.13	16.38
424.32	42.13
424.50	70.22
424.69	0.00
424.88	72.56
425.07	84.26
425.26	23.41
425.45	0.00
425.64	46.81
425.83	42.13
426.01	46.81
426.20	56.17
426.39	35.11
426.58	65.54
426.77	100.64
426.96	51.49
427.15	95.96
427.33	74.90
427.52	42.13
427.71	70.22
427.90	0.00
428.09	86.60
428.28	37.45
428.46	30.43
428.65	95.96
428.84	74.90
429.03	2.34
429.22	32.77
429.40	49.15
429.59	67.88
429.78	0.00
429.97	0.00
430.16	11.70
430.34	42.13
430.53	7.02
430.72	42.13
430.91	65.54
431.10	2.34
431.28	14.04
431.47	63.19
431.66	58.51
431.85	53.83
432.03	42.13
432.22	91.28
432.41	25.75
432.60	58.51
432.79	9.36
432.97	4.68
433.16	72.56
433.35	42.13
433.54	53.83
433.72	79.58
433.91	60.85
434.10	93.62
434.28	0.00
434.47	0.00
434.66	84.26
434.85	65.54
435.03	44.47
435.22	0.00
435.41	11.70
435.59	28.09
435.78	88.94
435.97	84.26
436.16	58.51
436.34	70.22
436.53	0.00
436.72	86.60
436.90	53.83
437.09	46.81
437.28	81.92
437.46	0.00
437.65	72.56
437.84	72.56
438.02	67.88
438.21	74.90
438.40	46.81
438.58	65.54
438.77	67.88
438.96	77.24
439.14	65.54
439.33	32.77
439.52	98.30
439.70	49.15
439.89	46.81
440.08	53.83
440.26	46.81
440.45	88.94
440.63	84.26
440.82	91.28
441.01	16.38
441.19	81.92
441.38	4.68
441.57	0.00
441.75	93.62
441.94	14.04
442.12	18.72
442.31	70.22
442.50	53.83
442.68	53.83
442.87	91.28
443.05	23.41
443.24	70.22
443.43	32.77
443.61	56.17
443.80	70.22
443.98	91.28
444.17	58.51
444.35	49.15
444.54	110.01
444.73	28.09
444.91	60.85
445.10	0.00
445.28	84.26
445.47	84.26
445.65	32.77
445.84	91.28
446.02	65.54
446.21	32.77
446.39	21.06
446.58	91.28
446.77	7.02
446.95	63.19
447.14	44.47
447.32	37.45
447.51	67.88
447.69	60.85
447.88	9.36
448.06	88.94
448.25	91.28
448.43	60.85
448.62	4.68
448.80	25.75
448.99	44.47
449.17	119.37
449.36	79.58
449.54	74.90
449.73	53.83
449.91	70.22
450.10	84.26
450.28	77.24
450.46	114.69
450.65	70.22
450.83	74.90
451.02	0.00
451.20	67.88
451.39	56.17
451.57	98.30
451.76	91.28
451.94	14.04
452.13	0.00
452.31	11.70
452.49	102.98
452.68	74.90
452.86	35.11
453.05	117.03
453.23	105.32
453.42	152.13
453.60	35.11
453.78	16.38
453.97	98.30
454.15	44.47
454.34	91.28
454.52	42.13
454.70	86.60
454.89	81.92
455.07	95.96
455.26	23.41
455.44	18.72
455.62	65.54
455.81	60.85
455.99	70.22
456.17	49.15
456.36	28.09
456.54	39.79
456.73	16.38
456.91	105.32
457.09	0.00
457.28	53.83
457.46	7.02
457.64	44.47
457.83	35.11
458.01	21.06
458.19	74.90
458.38	72.56
458.56	70.22
458.74	88.94
458.93	32.77
459.11	86.60
459.29	44.47
459.48	91.28
459.66	18.72
459.84	58.51
460.03	74.90
460.21	77.24
460.39	93.62
460.57	56.17
460.76	159.16
460.94	84.26
461.12	23.41
461.31	51.49
461.49	65.54
461.67	21.06
461.85	0.00
462.04	18.72
462.22	142.77
462.40	44.47
462.59	102.98
462.77	100.64
462.95	35.11
463.13	107.66
463.32	88.94
463.50	86.60
463.68	53.83
463.86	72.56
464.05	77.24
464.23	51.49
464.41	147.45
464.59	79.58
464.78	70.22
464.96	112.35
465.14	79.58
465.32	28.09
465.50	0.00
465.69	81.92
465.87	63.19
466.05	21.06
466.23	79.58
466.41	16.38
466.60	18.72
466.78	0.00
466.96	72.56
467.14	35.11
467.32	49.15
467.51	65.54
467.69	14.04
467.87	23.41
468.05	14.04
468.23	95.96
468.41	42.13
468.60	74.90
468.78	77.24
468.96	88.94
469.14	11.70
469.32	86.60
469.50	98.30
469.69	2.34
469.87	91.28
470.05	138.09
470.23	46.81
470.41	79.58
470.59	65.54
470.77	91.28
470.95	37.45
471.14	7.02
471.32	65.54
471.50	0.00
471.68	98.30
471.86	21.06
472.04	145.11
472.22	84.26
472.40	23.41
472.58	23.41
472.77	65.54
472.95	135.75
473.13	74.90
473.31	46.81
473.49	84.26
473.67	0.00
473.85	0.00
474.03	58.51
474.21	2.34
474.39	88.94
474.57	88.94
474.75	91.28
474.93	0.00
475.12	0.00
475.30	21.06
475.48	67.88
475.66	32.77
475.84	53.83
476.02	67.88
476.20	44.47
476.38	60.85
476.56	126.39
476.74	46.81
476.92	46.81
477.10	16.38
477.28	156.82
477.46	23.41
477.64	30.43
477.82	63.19
478.00	23.41
478.18	58.51
478.36	126.39
478.54	23.41
478.72	58.51
478.90	117.03
479.08	67.88
479.26	18.72
479.44	23.41
479.62	0.00
479.80	0.00
479.98	9.36
480.16	21.06
480.34	117.03
480.52	30.43
480.70	112.35
480.88	117.03
481.06	14.04
481.24	58.51
481.41	56.17
481.59	72.56
481.77	91.28
481.95	65.54
482.13	58.51
482.31	56.17
482.49	107.66
482.67	51.49
482.85	110.01
483.03	60.85
483.21	32.77
483.39	46.81
483.57	112.35
483.74	74.90
483.92	156.82
484.10	14.04
484.28	133.41
484.46	124.05
484.64	42.13
484.82	100.64
485.00	86.60
485.18	119.37
485.35	46.81
485.53	63.19
485.71	37.45
485.89	63.19
486.07	93.62
486.25	117.03
486.43	72.56
486.61	180.22
486.78	72.56
486.96	84.26
487.14	110.01
487.32	88.94
487.50	44.47
487.68	53.83
487.85	56.17
488.03	121.71
488.21	86.60
488.39	86.60
488.57	81.92
488.75	114.69
488.92	67.88
489.10	74.90
489.28	53.83
489.46	77.24
489.64	100.64
489.81	100.64
489.99	100.64
490.17	0.00
490.35	4.68
490.53	86.60
490.70	65.54
490.88	81.92
491.06	25.75
491.24	60.85
491.41	93.62
491.59	86.60
491.77	65.54
491.95	138.09
492.13	46.81
492.30	65.54
492.48	49.15
492.66	114.69
492.84	126.39
493.01	70.22
493.19	124.05
493.37	0.00
493.54	51.49
493.72	107.66
493.90	51.49
494.08	107.66
494.25	98.30
494.43	35.11
494.61	30.43
494.79	95.96
494.96	107.66
495.14	7.02
495.32	93.62
495.49	0.00
495.67	112.35
495.85	51.49
496.02	107.66
496.20	100.64
496.38	107.66
496.55	100.64
496.73	58.51
496.91	131.07
497.09	91.28
497.26	35.11
497.44	49.15
497.62	100.64
497.79	53.83
497.97	135.75
498.14	21.06
498.32	128.73
498.50	32.77
498.67	44.47
498.85	51.49
499.03	79.58
499.20	102.98
499.38	86.60
499.56	173.20
499.73	63.19
499.91	79.58
500.08	124.05
500.26	140.43
500.44	58.51
500.61	124.05
500.79	30.43
500.97	88.94
501.14	91.28
501.32	35.11
501.49	44.47
501.67	81.92
501.84	126.39
502.02	105.32
502.20	119.37
502.37	98.30
502.55	126.39
502.72	112.35
502.90	63.19
503.07	0.00
503.25	46.81
503.43	63.19
503.60	65.54
503.78	74.90
503.95	79.58
504.13	58.51
504.30	91.28
504.48	95.96
504.65	63.19
504.83	30.43
505.01	74.90
505.18	46.81
505.36	72.56
505.53	67.88
505.71	81.92
505.88	65.54
506.06	79.58
506.23	67.88
506.41	84.26
506.58	65.54
506.76	72.56
506.93	91.28
507.11	107.66
507.28	88.94
507.46	74.90
507.63	110.01
507.81	79.58
507.98	30.43
508.16	124.05
508.33	98.30
508.50	119.37
508.68	121.71
508.85	88.94
509.03	95.96
509.20	93.62
509.38	138.09
509.55	114.69
509.73	156.82
509.90	77.24
510.08	70.22
510.25	102.98
510.42	35.11
510.60	49.15
510.77	105.32
510.95	70.22
511.12	175.54
511.30	112.35
511.47	21.06
511.64	46.81
511.82	65.54
511.99	37.45
512.17	51.49
512.34	105.32
512.51	9.36
512.69	93.62
512.86	112.35
513.04	102.98
513.21	67.88
513.38	37.45
513.56	114.69
513.73	117.03
513.90	100.64
514.08	138.09
514.25	65.54
514.43	88.94
514.60	84.26
514.77	110.01
514.95	105.32
515.12	110.01
515.29	65.54
515.47	86.60
515.64	102.98
515.81	56.17
515.99	63.19
516.16	77.24
516.33	91.28
516.51	58.51
516.68	42.13
516.85	77.24
517.03	84.26
517.20	88.94
517.37	32.77
517.54	102.98
517.72	25.75
517.89	102.98
518.06	95.96
518.24	53.83
518.41	124.05
518.58	56.17
518.75	44.47
518.93	60.85
519.10	126.39
519.27	44.47
519.45	114.69
519.62	39.79
519.79	131.07
519.96	100.64
520.14	98.30
520.31	119.37
520.48	44.47
520.65	98.30
520.83	102.98
521.00	70.22
521.17	98.30
521.34	91.28
521.52	23.41
521.69	49.15
521.86	16.38
522.03	79.58
522.20	30.43
522.38	95.96
522.55	91.28
522.72	39.79
522.89	102.98
523.07	98.30
523.24	142.77
523.41	65.54
523.58	81.92
523.75	145.11
523.92	140.43
524.10	98.30
524.27	91.28
524.44	133.41
524.61	107.66
524.78	126.39
524.96	112.35
525.13	112.35
525.30	98.30
525.47	102.98
525.64	117.03
525.81	114.69
525.98	0.00
526.16	102.98
526.33	93.62
526.50	44.47
526.67	77.24
526.84	53.83
527.01	60.85
527.18	131.07
527.36	58.51
527.53	128.73
527.70	140.43
527.87	102.98
528.04	84.26
528.21	98.30
528.38	49.15
528.55	91.28
528.72	107.66
528.89	182.56
529.07	51.49
529.24	126.39
529.41	32.77
529.58	63.19
529.75	79.58
529.92	105.32
530.09	93.62
530.26	119.37
530.43	46.81
530.60	119.37
530.77	102.98
530.94	88.94
531.11	58.51
531.28	91.28
531.46	93.62
531.63	138.09
531.80	93.62
531.97	112.35
532.14	72.56
532.31	67.88
532.48	95.96
532.65	114.69
532.82	135.75
532.99	100.64
533.16	93.62
533.33	88.94
533.50	131.07
533.67	74.90
533.84	95.96
534.01	149.79
534.18	105.32
534.35	32.77
534.52	91.28
534.69	163.84
534.86	23.41
535.03	53.83
535.20	107.66
535.37	23.41
535.54	30.43
535.71	138.09
535.88	117.03
536.05	147.45
536.22	53.83
536.38	30.43
536.55	21.06
536.72	72.56
536.89	135.75
537.06	159.16
537.23	138.09
537.40	98.30
537.57	145.11
537.74	88.94
537.91	177.88
538.08	42.13
538.25	77.24
538.42	67.88
538.59	65.54
538.75	102.98
538.92	93.62
539.09	133.41
539.26	30.43
539.43	114.69
539.60	84.26
539.77	70.22
539.94	88.94
540.11	56.17
540.28	91.28
540.44	95.96
540.61	9.36
540.78	60.85
540.95	95.96
541.12	105.32
541.29	70.22
541.46	119.37
541.62	67.88
541.79	74.90
541.96	21.06
542.13	102.98
542.30	126.39
542.47	72.56
542.63	77.24
542.80	170.86
542.97	49.15
543.14	32.77
543.31	124.05
543.48	65.54
543.64	93.62
543.81	72.56
543.98	44.47
544.15	51.49
544.32	142.77
544.48	77.24
544.65	53.83
544.82	98.30
544.99	114.69
545.16	140.43
545.32	105.32
545.49	53.83
545.66	25.75
545.83	88.94
546.00	81.92
546.16	72.56
546.33	105.32
546.50	98.30
546.67	37.45
546.83	112.35
547.00	145.11
547.17	88.94
547.34	18.72
547.50	44.47
547.67	86.60
547.84	25.75
548.00	93.62
548.17	32.77
548.34	35.11
548.51	53.83
548.67	74.90
548.84	77.24
549.01	72.56
549.18	32.77
549.34	133.41
549.51	32.77
549.68	74.90
549.84	67.88
550.01	107.66
550.18	93.62
550.34	119.37
550.51	112.35
550.68	138.09
550.84	46.81
551.01	142.77
551.18	77.24
551.34	70.22
551.51	121.71
551.68	161.50
551.84	63.19
552.01	42.13
552.18	32.77
552.34	93.62
552.51	105.32
552.68	91.28
552.84	98.30
553.01	135.75
553.18	79.58
553.34	46.81
553.51	138.09
553.67	42.13
553.84	102.98
554.01	63.19
554.17	110.01
554.34	46.81
554.51	102.98
554.67	131.07
554.84	112.35
555.00	114.69
555.17	131.07
555.33	35.11
555.50	84.26
555.67	37.45
555.83	63.19
556.00	32.77
556.16	91.28
556.33	60.85
556.50	114.69
556.66	74.90
556.83	65.54
556.99	110.01
557.16	70.22
557.32	49.15
557.49	51.49
557.65	84.26
557.82	93.62
557.98	100.64
558.15	100.64
558.32	65.54
558.48	86.60
558.65	49.15
558.81	42.13
558.98	124.05
559.14	93.62
559.31	128.73
559.47	65.54
559.64	70.22
559.80	86.60
559.97	107.66
560.13	126.39
560.30	110.01
560.46	74.90
560.63	65.54
560.79	60.85
560.96	39.79
561.12	63.19
561.29	60.85
561.45	74.90
561.61	65.54
561.78	147.45
561.94	91.28
562.11	91.28
562.27	51.49
562.44	126.39
562.60	126.39
562.77	79.58
562.93	86.60
563.10	84.26
563.26	168.52
563.42	91.28
563.59	84.26
563.75	112.35
563.92	119.37
564.08	60.85
564.24	154.48
564.41	91.28
564.57	105.32
564.74	0.00
564.90	105.32
565.07	121.71
565.23	79.58
565.39	126.39
565.56	51.49
565.72	100.64
565.88	154.48
566.05	65.54
566.21	119.37
566.38	88.94
566.54	135.75
566.70	51.49
566.87	142.77
567.03	88.94
567.19	105.32
567.36	60.85
567.52	72.56
567.68	131.07
567.85	86.60
568.01	88.94
568.17	56.17
568.34	49.15
568.50	28.09
568.66	121.71
568.83	98.30
568.99	138.09
569.15	112.35
569.32	105.32
569.48	110.01
569.64	42.13
569.81	65.54
569.97	63.19
570.13	131.07
570.30	63.19
570.46	107.66
570.62	79.58
570.78	49.15
570.95	18.72
571.11	49.15
571.27	100.64
571.43	63.19
571.60	93.62
571.76	74.90
571.92	72.56
572.09	95.96
572.25	51.49
572.41	100.64
572.57	49.15
572.74	114.69
572.90	126.39
573.06	119.37
573.22	77.24
573.38	128.73
573.55	119.37
573.71	58.51
573.87	128.73
574.03	46.81
574.20	173.20
574.36	60.85
574.52	18.72
574.68	98.30
574.84	98.30
575.01	86.60
575.17	30.43
575.33	142.77
575.49	128.73
575.65	51.49
575.82	100.64
575.98	91.28
576.14	58.51
576.30	53.83
576.46	81.92
576.62	0.00
576.79	67.88
576.95	70.22
577.11	72.56
577.27	102.98
577.43	56.17
577.59	11.70
577.75	67.88
577.92	25.75
578.08	79.58
578.24	56.17
578.40	39.79
578.56	53.83
578.72	98.30
578.88	166.18
579.04	84.26
579.21	53.83
579.37	72.56
579.53	95.96
579.69	63.19
579.85	88.94
580.01	91.28
580.17	135.75
580.33	65.54
580.49	70.22
580.65	30.43
580.82	58.51
580.98	60.85
581.14	65.54
581.30	91.28
581.46	84.26
581.62	100.64
581.78	88.94
581.94	102.98
582.10	77.24
582.26	0.00
582.42	51.49
582.58	53.83
582.74	72.56
582.90	51.49
583.06	35.11
583.22	18.72
583.38	88.94
583.54	18.72
583.70	135.75
583.86	124.05
584.02	98.30
584.18	112.35
584.34	152.13
584.50	51.49
584.66	149.79
584.82	46.81
584.98	77.24
585.14	77.24
585.30	65.54
585.46	37.45
585.62	42.13
585.78	110.01
585.94	81.92
586.10	84.26
586.26	74.90
586.42	135.75
586.58	131.07
586.74	88.94
586.90	126.39
587.06	140.43
587.22	35.11
587.38	53.83
587.54	51.49
587.70	79.58
587.86	84.26
588.02	51.49
588.18	32.77
588.34	16.38
588.49	56.17
588.65	39.79
588.81	56.17
588.97	98.30
589.13	51.49
589.29	18.72
589.45	77.24
589.61	53.83
589.77	28.09
589.93	51.49
590.08	107.66
590.24	107.66
590.40	91.28
590.56	72.56
590.72	58.51
590.88	32.77
591.04	100.64
591.20	100.64
591.35	16.38
591.51	35.11
591.67	72.56
591.83	102.98
591.99	84.26
592.15	95.96
592.31	107.66
592.46	49.15
592.62	107.66
592.78	98.30
592.94	60.85
593.10	102.98
593.26	9.36
593.41	72.56
593.57	86.60
593.73	142.77
593.89	46.81
594.05	42.13
594.20	9.36
594.36	79.58
594.52	79.58
594.68	58.51
594.84	37.45
594.99	86.60
595.15	131.07
595.31	42.13
595.47	81.92
595.62	126.39
595.78	79.58
595.94	77.24
596.10	110.01
596.25	67.88
596.41	95.96
596.57	105.32
596.73	44.47
596.88	117.03
597.04	63.19
597.20	39.79
597.36	91.28
597.51	0.00
597.67	35.11
597.83	81.92
597.99	91.28
598.14	77.24
598.30	110.01
598.46	0.00
598.61	86.60
598.77	67.88
598.93	37.45
599.09	95.96
599.24	86.60
599.40	79.58
599.56	0.00
599.71	81.92
599.87	95.96
600.03	79.58
600.18	63.19
600.34	121.71
600.50	81.92
600.65	37.45
600.81	81.92
600.97	110.01
601.12	25.75
601.28	88.94
601.44	37.45
601.59	18.72
601.75	98.30
601.91	72.56
602.06	42.13
602.22	60.85
602.37	56.17
602.53	110.01
602.69	77.24
602.84	81.92
603.00	65.54
603.16	114.69
603.31	67.88
603.47	124.05
603.62	100.64
603.78	163.84
603.94	91.28
604.09	56.17
604.25	44.47
604.40	84.26
604.56	30.43
604.71	39.79
604.87	51.49
605.03	74.90
605.18	51.49
605.34	121.71
605.49	25.75
605.65	86.60
605.80	138.09
605.96	70.22
606.12	65.54
606.27	95.96
606.43	70.22
606.58	100.64
606.74	44.47
606.89	53.83
607.05	70.22
607.20	46.81
607.36	100.64
607.51	84.26
607.67	79.58
607.82	88.94
607.98	18.72
608.13	14.04
608.29	114.69
608.44	25.75
608.60	18.72
608.75	16.38
608.91	60.85
609.06	46.81
609.22	39.79
609.37	21.06
609.53	100.64
609.68	72.56
609.84	25.75
609.99	91.28
610.15	74.90
610.30	51.49
610.46	44.47
610.61	88.94
610.76	77.24
610.92	67.88
611.07	37.45
611.23	110.01
611.38	67.88
611.54	98.30
611.69	44.47
611.84	56.17
612.00	74.90
612.15	112.35
612.31	70.22
612.46	37.45
612.62	56.17
612.77	126.39
612.92	25.75
613.08	65.54
613.23	37.45
613.39	88.94
613.54	49.15
613.69	58.51
613.85	117.03
614.00	98.30
614.15	84.26
614.31	102.98
614.46	53.83
614.62	100.64
614.77	23.41
614.92	114.69
615.08	74.90
615.23	95.96
615.38	46.81
615.54	18.72
615.69	32.77
615.84	110.01
616.00	119.37
616.15	124.05
616.30	175.54
616.46	65.54
616.61	135.75
616.76	81.92
616.92	28.09
617.07	42.13
617.22	93.62
617.37	77.24
617.53	0.00
617.68	0.00
617.83	49.15
617.99	0.00
618.14	44.47
618.29	39.79
618.45	93.62
618.60	110.01
618.75	9.36
618.90	53.83
619.06	98.30
619.21	56.17
619.36	107.66
619.51	65.54
619.67	28.09
619.82	23.41
619.97	67.88
620.12	35.11
620.28	0.00
620.43	58.51
620.58	72.56
620.73	100.64
620.89	23.41
621.04	117.03
621.19	21.06
621.34	70.22
621.49	67.88
621.65	37.45
621.80	53.83
621.95	72.56
622.10	86.60
622.25	39.79
622.41	23.41
622.56	65.54
622.71	124.05
622.86	119.37
623.01	7.02
623.16	93.62
623.32	39.79
623.47	86.60
623.62	65.54
623.77	84.26
623.92	74.90
624.07	91.28
624.23	126.39
624.38	107.66
624.53	133.41
624.68	110.01
624.83	100.64
624.98	74.90
625.13	154.48
625.29	117.03
625.44	81.92
625.59	32.77
625.74	102.98
625.89	60.85
626.04	86.60
626.19	86.60
626.34	63.19
626.49	70.22
626.65	133.41
626.80	4.68
626.95	49.15
627.10	131.07
627.25	77.24
627.40	86.60
627.55	72.56
627.70	44.47
627.85	60.85
628.00	107.66
628.15	39.79
628.30	67.88
628.45	67.88
628.60	98.30
628.76	72.56
628.91	63.19
629.06	63.19
629.21	147.45
629.36	110.01
629.51	93.62
629.66	100.64
629.81	21.06
629.96	9.36
630.11	102.98
630.26	7.02
630.41	35.11
630.56	46.81
630.71	86.60
630.86	0.00
631.01	95.96
631.16	98.30
631.31	51.49
631.46	11.70
631.61	7.02
631.76	95.96
631.91	49.15
632.06	51.49
632.21	107.66
632.36	0.00
632.51	0.00
632.66	93.62
632.81	56.17
632.96	32.77
633.10	28.09
633.25	98.30
633.40	77.24
633.55	74.90
633.70	154.48
633.85	79.58
634.00	56.17
634.15	39.79
634.30	58.51
634.45	58.51
634.60	39.79
634.75	42.13
634.90	25.75
635.05	39.79
635.19	28.09
635.34	65.54
635.49	51.49
635.64	14.04
635.79	46.81
635.94	63.19
636.09	0.00
636.24	84.26
636.39	114.69
636.53	149.79
636.68	30.43
636.83	79.58
636.98	65.54
637.13	72.56
637.28	65.54
637.43	65.54
637.57	95.96
637.72	53.83
637.87	58.51
638.02	84.26
638.17	32.77
638.32	138.09
638.46	74.90
638.61	67.88
638.76	72.56
638.91	84.26
639.06	56.17
639.20	65.54
639.35	56.17
639.50	70.22
639.65	2.34
639.80	117.03
639.94	114.69
640.09	72.56
640.24	74.90
640.39	67.88
640.54	37.45
640.68	63.19
640.83	95.96
640.98	37.45
641.13	46.81
641.27	86.60
641.42	30.43
641.57	74.90
641.72	58.51
641.86	74.90
642.01	110.01
642.16	72.56
642.31	0.00
642.45	11.70
642.60	53.83
642.75	93.62
642.90	81.92
643.04	81.92
643.19	60.85
643.34	72.56
643.48	63.19
643.63	25.75
643.78	0.00
643.93	51.49
644.07	18.72
644.22	21.06
644.37	37.45
644.51	114.69
644.66	95.96
644.81	74.90
644.95	53.83
645.10	44.47
645.25	91.28
645.39	133.41
645.54	70.22
645.69	67.88
645.83	58.51
645.98	63.19
646.13	95.96
646.27	84.26
646.42	0.00
646.57	23.41
646.71	0.00
646.86	74.90
647.00	56.17
647.15	28.09
647.30	74.90
647.44	42.13
647.59	37.45
647.74	81.92
647.88	63.19
648.03	23.41
648.17	42.13
648.32	51.49
648.47	53.83
648.61	63.19
648.76	30.43
648.90	0.00
649.05	156.82
649.20	14.04
649.34	4.68
649.49	28.09
649.63	56.17
649.78	25.75
649.92	98.30
650.07	121.71
650.21	35.11
650.36	63.19
650.51	70.22
650.65	60.85
650.80	86.60
650.94	9.36
651.09	74.90
651.23	110.01
651.38	145.11
651.52	67.88
651.67	84.26
651.81	23.41
651.96	58.51
652.10	25.75
652.25	35.11
652.39	58.51
652.54	16.38
652.68	58.51
652.83	70.22
652.97	49.15
653.12	100.64
653.26	95.96
653.41	39.79
653.55	121.71
653.70	72.56
653.84	30.43
653.99	32.77
654.13	0.00
654.27	32.77
654.42	2.34
654.56	107.66
654.71	74.90
654.85	65.54
655.00	0.00
655.14	70.22
655.29	28.09
655.43	4.68
655.57	18.72
655.72	88.94
655.86	70.22
656.01	32.77
656.15	4.68
656.30	84.26
656.44	65.54
656.58	49.15
656.73	46.81
656.87	53.83
657.01	81.92
657.16	98.30
657.30	121.71
657.45	60.85
657.59	79.58
657.73	18.72
657.88	86.60
658.02	37.45
658.16	102.98
658.31	53.83
658.45	72.56
658.60	81.92
658.74	79.58
658.88	65.54
659.03	74.90
659.17	79.58
659.31	60.85
659.46	39.79
659.60	37.45
659.74	9.36
659.89	16.38
660.03	42.13
660.17	63.19
660.32	114.69
660.46	9.36
660.60	44.47
660.74	70.22
660.89	0.00
661.03	9.36
661.17	53.83
661.32	63.19
661.46	53.83
661.60	2.34
661.74	72.56
661.89	114.69
662.03	37.45
662.17	30.43
662.31	72.56
662.46	32.77
662.60	102.98
662.74	18.72
662.88	100.64
663.03	74.90
663.17	23.41
663.31	21.06
663.45	100.64
663.60	63.19
663.74	0.00
663.88	51.49
664.02	39.79
664.17	37.45
664.31	53.83
664.45	21.06
664.59	105.32
664.73	32.77
664.88	0.00
665.02	67.88
665.16	18.72
665.30	86.60
665.44	32.77
665.59	49.15
665.73	63.19
665.87	63.19
666.01	35.11
666.15	14.04
666.29	74.90
666.44	91.28
666.58	72.56
666.72	9.36
666.86	124.05
667.00	86.60
667.14	98.30
667.28	28.09
667.43	16.38
667.57	9.36
667.71	30.43
667.85	23.41
667.99	28.09
668.13	0.00
668.27	88.94
668.41	147.45
668.56	4.68
668.70	102.98
668.84	93.62
668.98	30.43
669.12	14.04
669.26	79.58
669.40	2.34
669.54	53.83
669.68	56.17
669.82	65.54
669.96	16.38
670.10	16.38
670.25	98.30
670.39	21.06
670.53	93.62
670.67	81.92
670.81	0.00
670.95	0.00
671.09	14.04
671.23	140.43
671.37	53.83
671.51	35.11
671.65	9.36
671.79	63.19
671.93	67.88
672.07	91.28
672.21	0.00
672.35	53.83
672.49	51.49
672.63	98.30
672.77	49.15
672.91	28.09
673.05	16.38
673.19	16.38
673.33	79.58
673.47	88.94
673.61	30.43
673.75	74.90
673.89	67.88
674.03	44.47
674.17	23.41
674.31	51.49
674.45	23.41
674.59	37.45
674.73	16.38
674.87	0.00
675.01	30.43
675.15	74.90
675.29	65.54
675.43	21.06
675.56	98.30
675.70	11.70
675.84	145.11
675.98	105.32
676.12	0.00
676.26	32.77
676.40	23.41
676.54	74.90
676.68	49.15
676.82	67.88
676.96	88.94
677.10	58.51
677.23	23.41
677.37	18.72
677.51	166.18
677.65	46.81
677.79	2.34
677.93	74.90
678.07	16.38
678.21	74.90
678.34	67.88
678.48	21.06
678.62	0.00
678.76	42.13
678.90	65.54
679.04	70.22
679.18	44.47
679.31	18.72
679.45	18.72
679.59	88.94
679.73	53.83
679.87	4.68
680.00	81.92
680.14	23.41
680.28	25.75
680.42	70.22
680.56	60.85
680.70	93.62
680.83	102.98
680.97	0.00
681.11	51.49
681.25	42.13
681.39	74.90
681.52	53.83
681.66	81.92
681.80	0.00
681.94	117.03
682.07	56.17
682.21	16.38
682.35	7.02
682.49	114.69
682.62	39.79
682.76	4.68
682.90	44.47
683.04	23.41
683.17	58.51
683.31	25.75
683.45	35.11
683.59	42.13
683.72	49.15
683.86	72.56
684.00	0.00
684.13	46.81
684.27	21.06
684.41	0.00
684.55	63.19
684.68	23.41
684.82	74.90
684.96	30.43
685.09	11.70
685.23	77.24
685.37	72.56
685.50	49.15
685.64	30.43
685.78	72.56
685.91	46.81
686.05	145.11
686.19	60.85
686.32	91.28
686.46	112.35
686.60	0.00
686.73	28.09
686.87	23.41
687.01	79.58
687.14	21.06
687.28	0.00
687.42	105.32
687.55	100.64
687.69	100.64
687.82	28.09
687.96	67.88
688.10	42.13
688.23	60.85
688.37	112.35
688.50	93.62
688.64	72.56
688.78	65.54
688.91	42.13
689.05	0.00
689.18	9.36
689.32	60.85
689.46	0.00
689.59	0.00
689.73	18.72
689.86	32.77
690.00	30.43
690.13	0.00
690.27	44.47
690.41	35.11
690.54	0.00
690.68	28.09
690.81	25.75
690.95	35.11
691.08	44.47
691.22	67.88
691.35	42.13
691.49	128.73
691.62	67.88
691.76	11.70
691.89	91.28
692.03	39.79
692.16	72.56
692.30	74.90
692.43	14.04
692.57	49.15
692.70	56.17
692.84	23.41
692.97	88.94
693.11	46.81
693.24	58.51
693.38	79.58
693.51	30.43
693.65	70.22
693.78	37.45
693.92	42.13
694.05	49.15
694.19	28.09
694.32	21.06
694.45	44.47
694.59	42.13
694.72	0.00
694.86	23.41
694.99	37.45
695.13	107.66
695.26	58.51
695.39	25.75
695.53	74.90
695.66	23.41
695.80	28.09
695.93	32.77
696.07	0.00
696.20	30.43
696.33	107.66
696.47	23.41
696.60	0.00
696.73	72.56
696.87	159.16
697.00	0.00
697.14	88.94
697.27	2.34
697.40	63.19
697.54	0.00
697.67	74.90
697.80	53.83
697.94	23.41
698.07	0.00
698.21	23.41
698.34	18.72
698.47	30.43
698.61	23.41
698.74	42.13
698.87	7.02
699.01	126.39
699.14	0.00
699.27	23.41
699.40	37.45
699.54	58.51
699.67	0.00
699.80	23.41
699.94	63.19
700.07	2.34
700.20	28.09
700.34	16.38
700.47	53.83
700.60	25.75
700.73	16.38
700.87	23.41
701.00	42.13
701.13	28.09
701.26	67.88
701.40	30.43
701.53	112.35
701.66	0.00
701.79	39.79
701.93	0.00
702.06	0.00
702.19	44.47
702.32	44.47
702.46	46.81
702.59	35.11
702.72	112.35
702.85	9.36
702.99	88.94
703.12	18.72
703.25	63.19
703.38	14.04
703.51	84.26
703.65	65.54
703.78	81.92
703.91	7.02
704.04	53.83
704.17	114.69
704.31	70.22
704.44	74.90
704.57	4.68
704.70	35.11
704.83	35.11
704.96	32.77
705.10	46.81
705.23	72.56
>>>>>End Processed Spectral Data<<<<<
