SpectraSuite Data File
++++++++++++++++++++++++++++++++++++
Date: Fri Oct 04 12:13:34 GMT-05:00 2013
User: price-jones
Dark Spectrum Present: No
Reference Spectrum Present: No
Number of Sampled Component Spectra: 1
Spectrometers: USB2+H05261
Integration Time (usec): 10000 (USB2+H05261)
Spectra Averaged: 1 (USB2+H05261)
Boxcar Smoothing: 0 (USB2+H05261)
Correct for Electrical Dark: No (USB2+H05261)
Strobe/Lamp Enabled: No (USB2+H05261)
Correct for Detector Non-linearity: No (USB2+H05261)
Correct for Stray Light: No (USB2+H05261)
Number of Pixels in Processed Spectrum: 2048
>>>>>Begin Processed Spectral Data<<<<<
365.73	9.36
365.92	9.36
366.12	9.36
366.32	0.00
366.52	0.00
366.72	0.00
366.91	0.00
367.11	0.00
367.31	0.00
367.51	0.00
367.70	0.00
367.90	0.00
368.10	0.00
368.30	0.00
368.49	0.00
368.69	0.00
368.89	0.00
369.09	0.00
369.28	0.00
369.48	0.00
369.68	0.00
369.87	0.00
370.07	0.00
370.27	0.00
370.47	0.00
370.66	0.00
370.86	0.00
371.06	0.00
371.25	0.00
371.45	23.41
371.65	11.70
371.84	58.51
372.04	7.02
372.24	49.15
372.44	0.00
372.63	0.00
372.83	0.00
373.03	63.19
373.22	0.00
373.42	0.00
373.62	18.72
373.81	58.51
374.01	77.24
374.21	30.43
374.40	0.00
374.60	53.83
374.79	0.00
374.99	25.75
375.19	37.45
375.38	65.54
375.58	0.00
375.78	0.00
375.97	51.49
376.17	44.47
376.37	2.34
376.56	60.85
376.76	7.02
376.95	0.00
377.15	18.72
377.35	16.38
377.54	39.79
377.74	0.00
377.93	0.00
378.13	63.19
378.33	9.36
378.52	39.79
378.72	11.70
378.91	11.70
379.11	0.00
379.31	51.49
379.50	4.68
379.70	0.00
379.89	0.00
380.09	51.49
380.28	63.19
380.48	16.38
380.68	16.38
380.87	11.70
381.07	0.00
381.26	14.04
381.46	0.00
381.65	42.13
381.85	46.81
382.04	0.00
382.24	42.13
382.43	0.00
382.63	79.58
382.83	28.09
383.02	7.02
383.22	7.02
383.41	4.68
383.61	46.81
383.80	51.49
384.00	11.70
384.19	0.00
384.39	51.49
384.58	0.00
384.78	53.83
384.97	28.09
385.17	14.04
385.36	0.00
385.56	9.36
385.75	0.00
385.95	72.56
386.14	88.94
386.34	0.00
386.53	49.15
386.72	18.72
386.92	49.15
387.11	0.00
387.31	37.45
387.50	0.00
387.70	0.00
387.89	0.00
388.09	58.51
388.28	0.00
388.48	0.00
388.67	32.77
388.86	0.00
389.06	21.06
389.25	32.77
389.45	0.00
389.64	60.85
389.84	49.15
390.03	0.00
390.22	28.09
390.42	0.00
390.61	44.47
390.81	7.02
391.00	16.38
391.19	0.00
391.39	25.75
391.58	44.47
391.78	9.36
391.97	65.54
392.16	51.49
392.36	93.62
392.55	9.36
392.75	0.00
392.94	21.06
393.13	63.19
393.33	42.13
393.52	32.77
393.71	67.88
393.91	0.00
394.10	0.00
394.29	70.22
394.49	4.68
394.68	9.36
394.88	65.54
395.07	51.49
395.26	30.43
395.46	23.41
395.65	23.41
395.84	18.72
396.04	0.00
396.23	58.51
396.42	0.00
396.62	35.11
396.81	67.88
397.00	58.51
397.19	14.04
397.39	46.81
397.58	21.06
397.77	16.38
397.97	28.09
398.16	42.13
398.35	74.90
398.55	77.24
398.74	4.68
398.93	86.60
399.12	74.90
399.32	58.51
399.51	39.79
399.70	32.77
399.90	0.00
400.09	0.00
400.28	0.00
400.47	28.09
400.67	11.70
400.86	60.85
401.05	0.00
401.24	23.41
401.44	56.17
401.63	74.90
401.82	74.90
402.01	23.41
402.21	0.00
402.40	0.00
402.59	60.85
402.78	0.00
402.97	4.68
403.17	95.96
403.36	58.51
403.55	77.24
403.74	95.96
403.93	11.70
404.13	35.11
404.32	51.49
404.51	72.56
404.70	2.34
404.89	23.41
405.09	51.49
405.28	0.00
405.47	18.72
405.66	9.36
405.85	0.00
406.05	25.75
406.24	35.11
406.43	37.45
406.62	4.68
406.81	49.15
407.00	4.68
407.20	0.00
407.39	70.22
407.58	88.94
407.77	37.45
407.96	0.00
408.15	39.79
408.34	28.09
408.54	25.75
408.73	25.75
408.92	72.56
409.11	93.62
409.30	28.09
409.49	95.96
409.68	37.45
409.87	32.77
410.07	30.43
410.26	117.03
410.45	32.77
410.64	44.47
410.83	0.00
411.02	32.77
411.21	25.75
411.40	0.00
411.59	28.09
411.78	0.00
411.98	70.22
412.17	23.41
412.36	0.00
412.55	86.60
412.74	67.88
412.93	44.47
413.12	65.54
413.31	42.13
413.50	42.13
413.69	44.47
413.88	18.72
414.07	0.00
414.26	39.79
414.45	0.00
414.64	72.56
414.83	25.75
415.02	32.77
415.22	49.15
415.41	0.00
415.60	35.11
415.79	72.56
415.98	39.79
416.17	42.13
416.36	60.85
416.55	30.43
416.74	28.09
416.93	0.00
417.12	14.04
417.31	58.51
417.50	0.00
417.69	16.38
417.88	32.77
418.07	18.72
418.26	18.72
418.45	77.24
418.64	74.90
418.83	0.00
419.02	0.00
419.21	49.15
419.39	42.13
419.58	4.68
419.77	37.45
419.96	51.49
420.15	4.68
420.34	58.51
420.53	25.75
420.72	84.26
420.91	44.47
421.10	88.94
421.29	35.11
421.48	18.72
421.67	37.45
421.86	53.83
422.05	95.96
422.24	67.88
422.43	37.45
422.61	42.13
422.80	58.51
422.99	65.54
423.18	11.70
423.37	35.11
423.56	58.51
423.75	28.09
423.94	117.03
424.13	35.11
424.32	0.00
424.50	9.36
424.69	46.81
424.88	65.54
425.07	65.54
425.26	102.98
425.45	44.47
425.64	46.81
425.83	63.19
426.01	16.38
426.20	0.00
426.39	56.17
426.58	74.90
426.77	37.45
426.96	4.68
427.15	32.77
427.33	79.58
427.52	86.60
427.71	98.30
427.90	32.77
428.09	16.38
428.28	0.00
428.46	16.38
428.65	91.28
428.84	0.00
429.03	70.22
429.22	30.43
429.40	9.36
429.59	91.28
429.78	79.58
429.97	81.92
430.16	67.88
430.34	70.22
430.53	37.45
430.72	25.75
430.91	77.24
431.10	84.26
431.28	56.17
431.47	77.24
431.66	39.79
431.85	16.38
432.03	0.00
432.22	131.07
432.41	51.49
432.60	25.75
432.79	0.00
432.97	14.04
433.16	79.58
433.35	39.79
433.54	49.15
433.72	60.85
433.91	77.24
434.10	79.58
434.28	100.64
434.47	56.17
434.66	88.94
434.85	7.02
435.03	74.90
435.22	112.35
435.41	30.43
435.59	126.39
435.78	49.15
435.97	117.03
436.16	30.43
436.34	42.13
436.53	42.13
436.72	79.58
436.90	21.06
437.09	49.15
437.28	0.00
437.46	0.00
437.65	2.34
437.84	42.13
438.02	0.00
438.21	23.41
438.40	18.72
438.58	81.92
438.77	79.58
438.96	16.38
439.14	72.56
439.33	39.79
439.52	93.62
439.70	81.92
439.89	39.79
440.08	0.00
440.26	23.41
440.45	30.43
440.63	23.41
440.82	74.90
441.01	0.00
441.19	7.02
441.38	53.83
441.57	23.41
441.75	51.49
441.94	58.51
442.12	58.51
442.31	32.77
442.50	93.62
442.68	16.38
442.87	170.86
443.05	18.72
443.24	49.15
443.43	14.04
443.61	44.47
443.80	72.56
443.98	42.13
444.17	70.22
444.35	32.77
444.54	0.00
444.73	65.54
444.91	46.81
445.10	72.56
445.28	49.15
445.47	88.94
445.65	16.38
445.84	53.83
446.02	37.45
446.21	2.34
446.39	0.00
446.58	46.81
446.77	16.38
446.95	28.09
447.14	16.38
447.32	63.19
447.51	32.77
447.69	142.77
447.88	114.69
448.06	84.26
448.25	98.30
448.43	100.64
448.62	65.54
448.80	74.90
448.99	74.90
449.17	23.41
449.36	126.39
449.54	203.63
449.73	60.85
449.91	14.04
450.10	74.90
450.28	39.79
450.46	79.58
450.65	0.00
450.83	72.56
451.02	60.85
451.20	119.37
451.39	44.47
451.57	0.00
451.76	93.62
451.94	51.49
452.13	110.01
452.31	18.72
452.49	46.81
452.68	28.09
452.86	39.79
453.05	102.98
453.23	65.54
453.42	32.77
453.60	11.70
453.78	60.85
453.97	4.68
454.15	0.00
454.34	77.24
454.52	70.22
454.70	156.82
454.89	23.41
455.07	0.00
455.26	72.56
455.44	58.51
455.62	56.17
455.81	44.47
455.99	95.96
456.17	65.54
456.36	2.34
456.54	28.09
456.73	81.92
456.91	35.11
457.09	28.09
457.28	74.90
457.46	93.62
457.64	0.00
457.83	53.83
458.01	88.94
458.19	42.13
458.38	72.56
458.56	63.19
458.74	28.09
458.93	0.00
459.11	39.79
459.29	91.28
459.48	84.26
459.66	56.17
459.84	30.43
460.03	67.88
460.21	102.98
460.39	77.24
460.57	51.49
460.76	110.01
460.94	124.05
461.12	60.85
461.31	65.54
461.49	84.26
461.67	4.68
461.85	11.70
462.04	107.66
462.22	88.94
462.40	56.17
462.59	81.92
462.77	25.75
462.95	39.79
463.13	44.47
463.32	67.88
463.50	65.54
463.68	32.77
463.86	65.54
464.05	4.68
464.23	91.28
464.41	95.96
464.59	70.22
464.78	18.72
464.96	77.24
465.14	23.41
465.32	23.41
465.50	65.54
465.69	65.54
465.87	84.26
466.05	30.43
466.23	60.85
466.41	131.07
466.60	0.00
466.78	18.72
466.96	84.26
467.14	67.88
467.32	37.45
467.51	53.83
467.69	32.77
467.87	72.56
468.05	0.00
468.23	67.88
468.41	65.54
468.60	16.38
468.78	72.56
468.96	93.62
469.14	44.47
469.32	51.49
469.50	65.54
469.69	49.15
469.87	0.00
470.05	53.83
470.23	84.26
470.41	0.00
470.59	18.72
470.77	0.00
470.95	0.00
471.14	51.49
471.32	100.64
471.50	70.22
471.68	53.83
471.86	51.49
472.04	81.92
472.22	93.62
472.40	23.41
472.58	37.45
472.77	86.60
472.95	70.22
473.13	51.49
473.31	107.66
473.49	11.70
473.67	140.43
473.85	93.62
474.03	18.72
474.21	4.68
474.39	84.26
474.57	93.62
474.75	60.85
474.93	74.90
475.12	32.77
475.30	91.28
475.48	37.45
475.66	32.77
475.84	4.68
476.02	74.90
476.20	23.41
476.38	86.60
476.56	65.54
476.74	16.38
476.92	51.49
477.10	37.45
477.28	30.43
477.46	58.51
477.64	46.81
477.82	81.92
478.00	74.90
478.18	49.15
478.36	44.47
478.54	0.00
478.72	88.94
478.90	93.62
479.08	18.72
479.26	65.54
479.44	44.47
479.62	51.49
479.80	25.75
479.98	112.35
480.16	72.56
480.34	28.09
480.52	14.04
480.70	25.75
480.88	88.94
481.06	11.70
481.24	98.30
481.41	100.64
481.59	107.66
481.77	112.35
481.95	51.49
482.13	161.50
482.31	98.30
482.49	67.88
482.67	84.26
482.85	44.47
483.03	58.51
483.21	30.43
483.39	21.06
483.57	58.51
483.74	53.83
483.92	65.54
484.10	23.41
484.28	65.54
484.46	105.32
484.64	0.00
484.82	91.28
485.00	86.60
485.18	49.15
485.35	32.77
485.53	58.51
485.71	110.01
485.89	135.75
486.07	84.26
486.25	93.62
486.43	49.15
486.61	91.28
486.78	88.94
486.96	11.70
487.14	131.07
487.32	93.62
487.50	88.94
487.68	72.56
487.85	77.24
488.03	46.81
488.21	18.72
488.39	49.15
488.57	81.92
488.75	110.01
488.92	110.01
489.10	0.00
489.28	72.56
489.46	60.85
489.64	126.39
489.81	79.58
489.99	9.36
490.17	100.64
490.35	105.32
490.53	53.83
490.70	100.64
490.88	81.92
491.06	28.09
491.24	58.51
491.41	72.56
491.59	156.82
491.77	88.94
491.95	100.64
492.13	107.66
492.30	44.47
492.48	37.45
492.66	56.17
492.84	102.98
493.01	105.32
493.19	138.09
493.37	39.79
493.54	105.32
493.72	58.51
493.90	145.11
494.08	58.51
494.25	81.92
494.43	74.90
494.61	46.81
494.79	88.94
494.96	28.09
495.14	152.13
495.32	67.88
495.49	7.02
495.67	60.85
495.85	110.01
496.02	105.32
496.20	79.58
496.38	77.24
496.55	74.90
496.73	135.75
496.91	138.09
497.09	149.79
497.26	119.37
497.44	0.00
497.62	88.94
497.79	117.03
497.97	152.13
498.14	46.81
498.32	70.22
498.50	114.69
498.67	58.51
498.85	32.77
499.03	86.60
499.20	79.58
499.38	140.43
499.56	21.06
499.73	84.26
499.91	65.54
500.08	72.56
500.26	56.17
500.44	74.90
500.61	70.22
500.79	91.28
500.97	53.83
501.14	14.04
501.32	81.92
501.49	70.22
501.67	79.58
501.84	53.83
502.02	100.64
502.20	180.22
502.37	126.39
502.55	93.62
502.72	46.81
502.90	74.90
503.07	131.07
503.25	156.82
503.43	88.94
503.60	56.17
503.78	88.94
503.95	63.19
504.13	56.17
504.30	23.41
504.48	51.49
504.65	98.30
504.83	98.30
505.01	140.43
505.18	98.30
505.36	117.03
505.53	56.17
505.71	56.17
505.88	121.71
506.06	32.77
506.23	95.96
506.41	30.43
506.58	16.38
506.76	60.85
506.93	84.26
507.11	77.24
507.28	18.72
507.46	39.79
507.63	58.51
507.81	86.60
507.98	58.51
508.16	140.43
508.33	81.92
508.50	166.18
508.68	117.03
508.85	112.35
509.03	0.00
509.20	65.54
509.38	100.64
509.55	98.30
509.73	110.01
509.90	58.51
510.08	100.64
510.25	107.66
510.42	16.38
510.60	60.85
510.77	119.37
510.95	95.96
511.12	124.05
511.30	102.98
511.47	63.19
511.64	65.54
511.82	0.00
511.99	95.96
512.17	98.30
512.34	46.81
512.51	79.58
512.69	114.69
512.86	112.35
513.04	117.03
513.21	39.79
513.38	105.32
513.56	81.92
513.73	138.09
513.90	138.09
514.08	35.11
514.25	51.49
514.43	88.94
514.60	128.73
514.77	65.54
514.95	23.41
515.12	35.11
515.29	102.98
515.47	98.30
515.64	70.22
515.81	65.54
515.99	105.32
516.16	37.45
516.33	114.69
516.51	72.56
516.68	9.36
516.85	98.30
517.03	56.17
517.20	79.58
517.37	117.03
517.54	46.81
517.72	72.56
517.89	105.32
518.06	154.48
518.24	102.98
518.41	39.79
518.58	67.88
518.75	4.68
518.93	67.88
519.10	86.60
519.27	56.17
519.45	56.17
519.62	39.79
519.79	74.90
519.96	98.30
520.14	102.98
520.31	74.90
520.48	60.85
520.65	18.72
520.83	110.01
521.00	100.64
521.17	91.28
521.34	114.69
521.52	81.92
521.69	51.49
521.86	77.24
522.03	128.73
522.20	138.09
522.38	39.79
522.55	84.26
522.72	100.64
522.89	105.32
523.07	42.13
523.24	18.72
523.41	70.22
523.58	51.49
523.75	11.70
523.92	149.79
524.10	121.71
524.27	86.60
524.44	51.49
524.61	51.49
524.78	105.32
524.96	93.62
525.13	88.94
525.30	65.54
525.47	42.13
525.64	93.62
525.81	117.03
525.98	0.00
526.16	35.11
526.33	124.05
526.50	93.62
526.67	53.83
526.84	18.72
527.01	58.51
527.18	119.37
527.36	58.51
527.53	91.28
527.70	77.24
527.87	152.13
528.04	60.85
528.21	81.92
528.38	117.03
528.55	72.56
528.72	110.01
528.89	117.03
529.07	124.05
529.24	128.73
529.41	95.96
529.58	95.96
529.75	81.92
529.92	147.45
530.09	84.26
530.26	84.26
530.43	25.75
530.60	102.98
530.77	95.96
530.94	74.90
531.11	84.26
531.28	119.37
531.46	65.54
531.63	138.09
531.80	105.32
531.97	93.62
532.14	65.54
532.31	79.58
532.48	58.51
532.65	98.30
532.82	51.49
532.99	32.77
533.16	58.51
533.33	114.69
533.50	86.60
533.67	39.79
533.84	37.45
534.01	30.43
534.18	65.54
534.35	30.43
534.52	147.45
534.69	100.64
534.86	98.30
535.03	63.19
535.20	70.22
535.37	117.03
535.54	110.01
535.71	79.58
535.88	100.64
536.05	159.16
536.22	21.06
536.38	100.64
536.55	77.24
536.72	88.94
536.89	74.90
537.06	63.19
537.23	98.30
537.40	149.79
537.57	81.92
537.74	39.79
537.91	84.26
538.08	133.41
538.25	142.77
538.42	63.19
538.59	86.60
538.75	140.43
538.92	42.13
539.09	91.28
539.26	105.32
539.43	86.60
539.60	100.64
539.77	37.45
539.94	100.64
540.11	105.32
540.28	70.22
540.44	46.81
540.61	37.45
540.78	37.45
540.95	77.24
541.12	105.32
541.29	105.32
541.46	140.43
541.62	152.13
541.79	135.75
541.96	44.47
542.13	18.72
542.30	0.00
542.47	4.68
542.63	58.51
542.80	114.69
542.97	70.22
543.14	91.28
543.31	53.83
543.48	49.15
543.64	72.56
543.81	100.64
543.98	100.64
544.15	95.96
544.32	98.30
544.48	131.07
544.65	72.56
544.82	32.77
544.99	91.28
545.16	23.41
545.32	58.51
545.49	88.94
545.66	107.66
545.83	100.64
546.00	53.83
546.16	110.01
546.33	70.22
546.50	77.24
546.67	60.85
546.83	63.19
547.00	16.38
547.17	100.64
547.34	77.24
547.50	51.49
547.67	0.00
547.84	39.79
548.00	110.01
548.17	93.62
548.34	149.79
548.51	72.56
548.67	126.39
548.84	159.16
549.01	60.85
549.18	70.22
549.34	77.24
549.51	131.07
549.68	0.00
549.84	105.32
550.01	46.81
550.18	86.60
550.34	135.75
550.51	58.51
550.68	35.11
550.84	133.41
551.01	18.72
551.18	35.11
551.34	91.28
551.51	126.39
551.68	86.60
551.84	51.49
552.01	25.75
552.18	114.69
552.34	58.51
552.51	114.69
552.68	110.01
552.84	152.13
553.01	105.32
553.18	156.82
553.34	126.39
553.51	77.24
553.67	32.77
553.84	32.77
554.01	72.56
554.17	63.19
554.34	124.05
554.51	100.64
554.67	53.83
554.84	28.09
555.00	112.35
555.17	95.96
555.33	79.58
555.50	107.66
555.67	42.13
555.83	60.85
556.00	79.58
556.16	135.75
556.33	110.01
556.50	166.18
556.66	65.54
556.83	72.56
556.99	37.45
557.16	91.28
557.32	84.26
557.49	81.92
557.65	79.58
557.82	25.75
557.98	60.85
558.15	0.00
558.32	98.30
558.48	72.56
558.65	70.22
558.81	91.28
558.98	107.66
559.14	131.07
559.31	56.17
559.47	88.94
559.64	77.24
559.80	23.41
559.97	112.35
560.13	86.60
560.30	105.32
560.46	128.73
560.63	70.22
560.79	173.20
560.96	44.47
561.12	35.11
561.29	140.43
561.45	0.00
561.61	105.32
561.78	53.83
561.94	60.85
562.11	81.92
562.27	131.07
562.44	77.24
562.60	110.01
562.77	79.58
562.93	44.47
563.10	114.69
563.26	51.49
563.42	149.79
563.59	88.94
563.75	72.56
563.92	18.72
564.08	102.98
564.24	28.09
564.41	77.24
564.57	133.41
564.74	70.22
564.90	44.47
565.07	77.24
565.23	88.94
565.39	81.92
565.56	42.13
565.72	72.56
565.88	25.75
566.05	11.70
566.21	65.54
566.38	102.98
566.54	84.26
566.70	110.01
566.87	18.72
567.03	86.60
567.19	49.15
567.36	35.11
567.52	140.43
567.68	16.38
567.85	21.06
568.01	74.90
568.17	100.64
568.34	138.09
568.50	81.92
568.66	56.17
568.83	98.30
568.99	110.01
569.15	49.15
569.32	86.60
569.48	4.68
569.64	124.05
569.81	84.26
569.97	0.00
570.13	102.98
570.30	9.36
570.46	81.92
570.62	88.94
570.78	72.56
570.95	46.81
571.11	163.84
571.27	72.56
571.43	84.26
571.60	93.62
571.76	117.03
571.92	44.47
572.09	114.69
572.25	21.06
572.41	32.77
572.57	86.60
572.74	126.39
572.90	49.15
573.06	0.00
573.22	65.54
573.38	28.09
573.55	60.85
573.71	105.32
573.87	74.90
574.03	58.51
574.20	102.98
574.36	74.90
574.52	63.19
574.68	126.39
574.84	35.11
575.01	70.22
575.17	74.90
575.33	95.96
575.49	114.69
575.65	100.64
575.82	128.73
575.98	49.15
576.14	28.09
576.30	39.79
576.46	49.15
576.62	63.19
576.79	44.47
576.95	58.51
577.11	86.60
577.27	102.98
577.43	124.05
577.59	98.30
577.75	56.17
577.92	79.58
578.08	77.24
578.24	67.88
578.40	152.13
578.56	121.71
578.72	107.66
578.88	60.85
579.04	56.17
579.21	32.77
579.37	32.77
579.53	112.35
579.69	121.71
579.85	2.34
580.01	124.05
580.17	21.06
580.33	51.49
580.49	100.64
580.65	100.64
580.82	102.98
580.98	91.28
581.14	32.77
581.30	117.03
581.46	18.72
581.62	65.54
581.78	18.72
581.94	95.96
582.10	79.58
582.26	149.79
582.42	102.98
582.58	60.85
582.74	60.85
582.90	60.85
583.06	173.20
583.22	14.04
583.38	39.79
583.54	60.85
583.70	56.17
583.86	42.13
584.02	18.72
584.18	121.71
584.34	77.24
584.50	93.62
584.66	32.77
584.82	46.81
584.98	60.85
585.14	124.05
585.30	65.54
585.46	72.56
585.62	124.05
585.78	46.81
585.94	117.03
586.10	32.77
586.26	84.26
586.42	98.30
586.58	51.49
586.74	63.19
586.90	58.51
587.06	154.48
587.22	39.79
587.38	53.83
587.54	51.49
587.70	14.04
587.86	79.58
588.02	44.47
588.18	51.49
588.34	74.90
588.49	105.32
588.65	32.77
588.81	56.17
588.97	128.73
589.13	102.98
589.29	30.43
589.45	42.13
589.61	114.69
589.77	88.94
589.93	84.26
590.08	42.13
590.24	72.56
590.40	63.19
590.56	44.47
590.72	128.73
590.88	65.54
591.04	49.15
591.20	35.11
591.35	28.09
591.51	0.00
591.67	32.77
591.83	65.54
591.99	53.83
592.15	149.79
592.31	107.66
592.46	91.28
592.62	49.15
592.78	58.51
592.94	25.75
593.10	37.45
593.26	79.58
593.41	117.03
593.57	79.58
593.73	60.85
593.89	72.56
594.05	65.54
594.20	98.30
594.36	58.51
594.52	49.15
594.68	25.75
594.84	0.00
594.99	42.13
595.15	105.32
595.31	79.58
595.47	49.15
595.62	102.98
595.78	98.30
595.94	93.62
596.10	100.64
596.25	81.92
596.41	25.75
596.57	112.35
596.73	9.36
596.88	117.03
597.04	86.60
597.20	88.94
597.36	63.19
597.51	58.51
597.67	14.04
597.83	88.94
597.99	142.77
598.14	93.62
598.30	23.41
598.46	35.11
598.61	91.28
598.77	4.68
598.93	25.75
599.09	65.54
599.24	32.77
599.40	23.41
599.56	4.68
599.71	60.85
599.87	4.68
600.03	84.26
600.18	32.77
600.34	30.43
600.50	60.85
600.65	105.32
600.81	65.54
600.97	30.43
601.12	46.81
601.28	84.26
601.44	53.83
601.59	86.60
601.75	18.72
601.91	53.83
602.06	79.58
602.22	102.98
602.37	53.83
602.53	44.47
602.69	72.56
602.84	30.43
603.00	84.26
603.16	131.07
603.31	44.47
603.47	70.22
603.62	72.56
603.78	100.64
603.94	81.92
604.09	49.15
604.25	42.13
604.40	51.49
604.56	84.26
604.71	86.60
604.87	63.19
605.03	102.98
605.18	60.85
605.34	72.56
605.49	23.41
605.65	30.43
605.80	119.37
605.96	44.47
606.12	21.06
606.27	93.62
606.43	63.19
606.58	124.05
606.74	51.49
606.89	131.07
607.05	110.01
607.20	51.49
607.36	67.88
607.51	100.64
607.67	86.60
607.82	28.09
607.98	46.81
608.13	58.51
608.29	60.85
608.44	79.58
608.60	88.94
608.75	126.39
608.91	7.02
609.06	9.36
609.22	60.85
609.37	112.35
609.53	39.79
609.68	30.43
609.84	95.96
609.99	107.66
610.15	84.26
610.30	37.45
610.46	95.96
610.61	56.17
610.76	21.06
610.92	32.77
611.07	98.30
611.23	182.56
611.38	23.41
611.54	135.75
611.69	114.69
611.84	88.94
612.00	51.49
612.15	30.43
612.31	91.28
612.46	102.98
612.62	32.77
612.77	133.41
612.92	107.66
613.08	91.28
613.23	93.62
613.39	42.13
613.54	2.34
613.69	63.19
613.85	86.60
614.00	72.56
614.15	91.28
614.31	60.85
614.46	23.41
614.62	42.13
614.77	46.81
614.92	79.58
615.08	25.75
615.23	77.24
615.38	91.28
615.54	60.85
615.69	44.47
615.84	25.75
616.00	46.81
616.15	119.37
616.30	37.45
616.46	18.72
616.61	67.88
616.76	0.00
616.92	51.49
617.07	81.92
617.22	51.49
617.37	25.75
617.53	18.72
617.68	37.45
617.83	105.32
617.99	124.05
618.14	56.17
618.29	187.24
618.45	53.83
618.60	49.15
618.75	168.52
618.90	58.51
619.06	117.03
619.21	147.45
619.36	49.15
619.51	91.28
619.67	72.56
619.82	100.64
619.97	159.16
620.12	107.66
620.28	0.00
620.43	86.60
620.58	77.24
620.73	63.19
620.89	84.26
621.04	77.24
621.19	42.13
621.34	140.43
621.49	28.09
621.65	32.77
621.80	93.62
621.95	4.68
622.10	95.96
622.25	65.54
622.41	32.77
622.56	58.51
622.71	37.45
622.86	74.90
623.01	0.00
623.16	84.26
623.32	0.00
623.47	56.17
623.62	46.81
623.77	18.72
623.92	72.56
624.07	70.22
624.23	9.36
624.38	53.83
624.53	114.69
624.68	39.79
624.83	95.96
624.98	63.19
625.13	86.60
625.29	39.79
625.44	44.47
625.59	114.69
625.74	112.35
625.89	107.66
626.04	56.17
626.19	58.51
626.34	0.00
626.49	23.41
626.65	42.13
626.80	11.70
626.95	16.38
627.10	51.49
627.25	70.22
627.40	23.41
627.55	56.17
627.70	60.85
627.85	93.62
628.00	18.72
628.15	37.45
628.30	100.64
628.45	91.28
628.60	37.45
628.76	84.26
628.91	0.00
629.06	25.75
629.21	53.83
629.36	65.54
629.51	107.66
629.66	0.00
629.81	100.64
629.96	88.94
630.11	67.88
630.26	65.54
630.41	42.13
630.56	74.90
630.71	98.30
630.86	49.15
631.01	23.41
631.16	56.17
631.31	25.75
631.46	70.22
631.61	84.26
631.76	35.11
631.91	51.49
632.06	25.75
632.21	35.11
632.36	21.06
632.51	0.00
632.66	72.56
632.81	14.04
632.96	28.09
633.10	0.00
633.25	102.98
633.40	102.98
633.55	70.22
633.70	21.06
633.85	119.37
634.00	51.49
634.15	58.51
634.30	63.19
634.45	70.22
634.60	42.13
634.75	4.68
634.90	51.49
635.05	63.19
635.19	9.36
635.34	65.54
635.49	170.86
635.64	84.26
635.79	35.11
635.94	100.64
636.09	30.43
636.24	84.26
636.39	77.24
636.53	98.30
636.68	23.41
636.83	86.60
636.98	72.56
637.13	30.43
637.28	37.45
637.43	86.60
637.57	30.43
637.72	56.17
637.87	56.17
638.02	86.60
638.17	28.09
638.32	28.09
638.46	16.38
638.61	105.32
638.76	114.69
638.91	93.62
639.06	42.13
639.20	60.85
639.35	46.81
639.50	88.94
639.65	11.70
639.80	67.88
639.94	42.13
640.09	4.68
640.24	63.19
640.39	65.54
640.54	44.47
640.68	67.88
640.83	100.64
640.98	37.45
641.13	23.41
641.27	37.45
641.42	67.88
641.57	65.54
641.72	0.00
641.86	56.17
642.01	37.45
642.16	23.41
642.31	0.00
642.45	42.13
642.60	70.22
642.75	39.79
642.90	74.90
643.04	0.00
643.19	110.01
643.34	0.00
643.48	72.56
643.63	11.70
643.78	126.39
643.93	100.64
644.07	28.09
644.22	102.98
644.37	42.13
644.51	63.19
644.66	91.28
644.81	42.13
644.95	65.54
645.10	49.15
645.25	18.72
645.39	16.38
645.54	95.96
645.69	98.30
645.83	14.04
645.98	63.19
646.13	86.60
646.27	39.79
646.42	105.32
646.57	9.36
646.71	128.73
646.86	65.54
647.00	7.02
647.15	0.00
647.30	100.64
647.44	39.79
647.59	114.69
647.74	51.49
647.88	100.64
648.03	51.49
648.17	32.77
648.32	58.51
648.47	18.72
648.61	16.38
648.76	0.00
648.90	23.41
649.05	0.00
649.20	51.49
649.34	79.58
649.49	32.77
649.63	46.81
649.78	0.00
649.92	46.81
650.07	79.58
650.21	49.15
650.36	42.13
650.51	51.49
650.65	56.17
650.80	74.90
650.94	2.34
651.09	65.54
651.23	30.43
651.38	77.24
651.52	93.62
651.67	42.13
651.81	18.72
651.96	2.34
652.10	81.92
652.25	0.00
652.39	102.98
652.54	60.85
652.68	0.00
652.83	42.13
652.97	102.98
653.12	7.02
653.26	46.81
653.41	44.47
653.55	25.75
653.70	98.30
653.84	60.85
653.99	11.70
654.13	56.17
654.27	70.22
654.42	74.90
654.56	102.98
654.71	18.72
654.85	39.79
655.00	65.54
655.14	105.32
655.29	46.81
655.43	77.24
655.57	100.64
655.72	51.49
655.86	51.49
656.01	0.00
656.15	0.00
656.30	37.45
656.44	9.36
656.58	21.06
656.73	16.38
656.87	9.36
657.01	16.38
657.16	16.38
657.30	63.19
657.45	88.94
657.59	93.62
657.73	39.79
657.88	23.41
658.02	95.96
658.16	60.85
658.31	77.24
658.45	35.11
658.60	72.56
658.74	93.62
658.88	51.49
659.03	56.17
659.17	49.15
659.31	46.81
659.46	102.98
659.60	93.62
659.74	7.02
659.89	84.26
660.03	56.17
660.17	0.00
660.32	16.38
660.46	81.92
660.60	88.94
660.74	44.47
660.89	28.09
661.03	30.43
661.17	42.13
661.32	84.26
661.46	14.04
661.60	9.36
661.74	21.06
661.89	39.79
662.03	11.70
662.17	46.81
662.31	67.88
662.46	46.81
662.60	74.90
662.74	44.47
662.88	42.13
663.03	0.00
663.17	21.06
663.31	65.54
663.45	14.04
663.60	23.41
663.74	53.83
663.88	60.85
664.02	84.26
664.17	37.45
664.31	84.26
664.45	18.72
664.59	25.75
664.73	77.24
664.88	114.69
665.02	72.56
665.16	11.70
665.30	44.47
665.44	32.77
665.59	7.02
665.73	25.75
665.87	149.79
666.01	53.83
666.15	0.00
666.29	2.34
666.44	98.30
666.58	67.88
666.72	37.45
666.86	93.62
667.00	98.30
667.14	91.28
667.28	0.00
667.43	53.83
667.57	4.68
667.71	72.56
667.85	0.00
667.99	42.13
668.13	63.19
668.27	126.39
668.41	2.34
668.56	51.49
668.70	0.00
668.84	49.15
668.98	77.24
669.12	39.79
669.26	88.94
669.40	102.98
669.54	63.19
669.68	35.11
669.82	46.81
669.96	58.51
670.10	49.15
670.25	107.66
670.39	7.02
670.53	67.88
670.67	79.58
670.81	58.51
670.95	117.03
671.09	100.64
671.23	60.85
671.37	105.32
671.51	39.79
671.65	79.58
671.79	32.77
671.93	77.24
672.07	84.26
672.21	51.49
672.35	49.15
672.49	135.75
672.63	42.13
672.77	77.24
672.91	25.75
673.05	91.28
673.19	51.49
673.33	91.28
673.47	72.56
673.61	0.00
673.75	28.09
673.89	11.70
674.03	72.56
674.17	35.11
674.31	67.88
674.45	88.94
674.59	0.00
674.73	53.83
674.87	74.90
675.01	18.72
675.15	0.00
675.29	65.54
675.43	14.04
675.56	93.62
675.70	88.94
675.84	30.43
675.98	105.32
676.12	0.00
676.26	56.17
676.40	23.41
676.54	42.13
676.68	7.02
676.82	79.58
676.96	46.81
677.10	49.15
677.23	37.45
677.37	70.22
677.51	107.66
677.65	51.49
677.79	28.09
677.93	51.49
678.07	49.15
678.21	0.00
678.34	51.49
678.48	30.43
678.62	91.28
678.76	60.85
678.90	105.32
679.04	4.68
679.18	74.90
679.31	30.43
679.45	23.41
679.59	72.56
679.73	51.49
679.87	44.47
680.00	53.83
680.14	25.75
680.28	16.38
680.42	30.43
680.56	117.03
680.70	44.47
680.83	49.15
680.97	30.43
681.11	60.85
681.25	7.02
681.39	53.83
681.52	124.05
681.66	37.45
681.80	67.88
681.94	51.49
682.07	56.17
682.21	147.45
682.35	23.41
682.49	88.94
682.62	44.47
682.76	0.00
682.90	77.24
683.04	37.45
683.17	11.70
683.31	67.88
683.45	58.51
683.59	4.68
683.72	16.38
683.86	0.00
684.00	58.51
684.13	67.88
684.27	16.38
684.41	105.32
684.55	56.17
684.68	28.09
684.82	49.15
684.96	51.49
685.09	81.92
685.23	0.00
685.37	58.51
685.50	81.92
685.64	102.98
685.78	28.09
685.91	11.70
686.05	0.00
686.19	51.49
686.32	21.06
686.46	84.26
686.60	58.51
686.73	4.68
686.87	173.20
687.01	51.49
687.14	88.94
687.28	56.17
687.42	0.00
687.55	53.83
687.69	86.60
687.82	28.09
687.96	63.19
688.10	39.79
688.23	32.77
688.37	23.41
688.50	30.43
688.64	0.00
688.78	25.75
688.91	0.00
689.05	84.26
689.18	21.06
689.32	11.70
689.46	51.49
689.59	58.51
689.73	63.19
689.86	28.09
690.00	63.19
690.13	0.00
690.27	9.36
690.41	77.24
690.54	11.70
690.68	49.15
690.81	128.73
690.95	49.15
691.08	18.72
691.22	16.38
691.35	67.88
691.49	2.34
691.62	0.00
691.76	9.36
691.89	0.00
692.03	79.58
692.16	39.79
692.30	32.77
692.43	4.68
692.57	25.75
692.70	93.62
692.84	49.15
692.97	65.54
693.11	23.41
693.24	35.11
693.38	0.00
693.51	25.75
693.65	74.90
693.78	60.85
693.92	0.00
694.05	4.68
694.19	49.15
694.32	0.00
694.45	2.34
694.59	30.43
694.72	30.43
694.86	56.17
694.99	39.79
695.13	0.00
695.26	23.41
695.39	23.41
695.53	42.13
695.66	81.92
695.80	0.00
695.93	131.07
696.07	39.79
696.20	0.00
696.33	49.15
696.47	0.00
696.60	72.56
696.73	0.00
696.87	16.38
697.00	0.00
697.14	0.00
697.27	58.51
697.40	53.83
697.54	0.00
697.67	9.36
697.80	60.85
697.94	23.41
698.07	42.13
698.21	0.00
698.34	42.13
698.47	37.45
698.61	60.85
698.74	44.47
698.87	91.28
699.01	7.02
699.14	25.75
699.27	58.51
699.40	21.06
699.54	0.00
699.67	67.88
699.80	56.17
699.94	42.13
700.07	86.60
700.20	0.00
700.34	7.02
700.47	0.00
700.60	2.34
700.73	51.49
700.87	42.13
701.00	65.54
701.13	60.85
701.26	11.70
701.40	0.00
701.53	0.00
701.66	0.00
701.79	0.00
701.93	77.24
702.06	49.15
702.19	14.04
702.32	16.38
702.46	0.00
702.59	81.92
702.72	56.17
702.85	65.54
702.99	37.45
703.12	72.56
703.25	39.79
703.38	0.00
703.51	84.26
703.65	21.06
703.78	0.00
703.91	114.69
704.04	58.51
704.17	65.54
704.31	30.43
704.44	51.49
704.57	23.41
704.70	46.81
704.83	39.79
704.96	25.75
705.10	81.92
705.23	23.41
>>>>>End Processed Spectral Data<<<<<
