SpectraSuite Data File
++++++++++++++++++++++++++++++++++++
Date: Fri Oct 04 12:13:32 GMT-05:00 2013
User: price-jones
Dark Spectrum Present: No
Reference Spectrum Present: No
Number of Sampled Component Spectra: 1
Spectrometers: USB2+H05261
Integration Time (usec): 10000 (USB2+H05261)
Spectra Averaged: 1 (USB2+H05261)
Boxcar Smoothing: 0 (USB2+H05261)
Correct for Electrical Dark: No (USB2+H05261)
Strobe/Lamp Enabled: No (USB2+H05261)
Correct for Detector Non-linearity: No (USB2+H05261)
Correct for Stray Light: No (USB2+H05261)
Number of Pixels in Processed Spectrum: 2048
>>>>>Begin Processed Spectral Data<<<<<
365.73	0.00
365.92	0.00
366.12	0.00
366.32	0.00
366.52	0.00
366.72	0.00
366.91	0.00
367.11	0.00
367.31	0.00
367.51	0.00
367.70	0.00
367.90	0.00
368.10	0.00
368.30	0.00
368.49	0.00
368.69	0.00
368.89	0.00
369.09	0.00
369.28	0.00
369.48	0.00
369.68	0.00
369.87	0.00
370.07	0.00
370.27	0.00
370.47	0.00
370.66	0.00
370.86	30.43
371.06	7.02
371.25	0.00
371.45	0.00
371.65	0.00
371.84	0.00
372.04	7.02
372.24	0.00
372.44	11.70
372.63	0.00
372.83	14.04
373.03	4.68
373.22	121.71
373.42	32.77
373.62	23.41
373.81	0.00
374.01	51.49
374.21	0.00
374.40	46.81
374.60	81.92
374.79	7.02
374.99	25.75
375.19	0.00
375.38	35.11
375.58	7.02
375.78	42.13
375.97	30.43
376.17	32.77
376.37	11.70
376.56	39.79
376.76	84.26
376.95	42.13
377.15	0.00
377.35	51.49
377.54	79.58
377.74	0.00
377.93	16.38
378.13	37.45
378.33	49.15
378.52	0.00
378.72	23.41
378.91	46.81
379.11	93.62
379.31	35.11
379.50	46.81
379.70	9.36
379.89	53.83
380.09	42.13
380.28	0.00
380.48	4.68
380.68	32.77
380.87	0.00
381.07	0.00
381.26	51.49
381.46	18.72
381.65	0.00
381.85	70.22
382.04	77.24
382.24	0.00
382.43	0.00
382.63	2.34
382.83	0.00
383.02	37.45
383.22	0.00
383.41	35.11
383.61	11.70
383.80	0.00
384.00	30.43
384.19	88.94
384.39	0.00
384.58	32.77
384.78	18.72
384.97	0.00
385.17	0.00
385.36	60.85
385.56	63.19
385.75	0.00
385.95	21.06
386.14	30.43
386.34	0.00
386.53	51.49
386.72	37.45
386.92	18.72
387.11	39.79
387.31	21.06
387.50	28.09
387.70	25.75
387.89	46.81
388.09	4.68
388.28	98.30
388.48	4.68
388.67	67.88
388.86	25.75
389.06	0.00
389.25	56.17
389.45	63.19
389.64	11.70
389.84	56.17
390.03	23.41
390.22	4.68
390.42	46.81
390.61	25.75
390.81	77.24
391.00	2.34
391.19	39.79
391.39	0.00
391.58	39.79
391.78	0.00
391.97	67.88
392.16	51.49
392.36	0.00
392.55	49.15
392.75	51.49
392.94	0.00
393.13	42.13
393.33	81.92
393.52	25.75
393.71	0.00
393.91	72.56
394.10	0.00
394.29	72.56
394.49	4.68
394.68	4.68
394.88	0.00
395.07	72.56
395.26	81.92
395.46	60.85
395.65	95.96
395.84	72.56
396.04	0.00
396.23	0.00
396.42	18.72
396.62	0.00
396.81	60.85
397.00	9.36
397.19	4.68
397.39	0.00
397.58	35.11
397.77	25.75
397.97	0.00
398.16	16.38
398.35	46.81
398.55	0.00
398.74	0.00
398.93	4.68
399.12	60.85
399.32	23.41
399.51	0.00
399.70	14.04
399.90	0.00
400.09	18.72
400.28	23.41
400.47	25.75
400.67	63.19
400.86	56.17
401.05	14.04
401.24	7.02
401.44	67.88
401.63	42.13
401.82	0.00
402.01	46.81
402.21	0.00
402.40	56.17
402.59	72.56
402.78	4.68
402.97	0.00
403.17	18.72
403.36	30.43
403.55	7.02
403.74	70.22
403.93	37.45
404.13	35.11
404.32	56.17
404.51	0.00
404.70	23.41
404.89	35.11
405.09	0.00
405.28	30.43
405.47	93.62
405.66	49.15
405.85	4.68
406.05	0.00
406.24	7.02
406.43	86.60
406.62	114.69
406.81	74.90
407.00	51.49
407.20	21.06
407.39	79.58
407.58	0.00
407.77	35.11
407.96	0.00
408.15	46.81
408.34	0.00
408.54	32.77
408.73	9.36
408.92	39.79
409.11	0.00
409.30	53.83
409.49	42.13
409.68	42.13
409.87	4.68
410.07	7.02
410.26	0.00
410.45	32.77
410.64	0.00
410.83	21.06
411.02	51.49
411.21	21.06
411.40	102.98
411.59	32.77
411.78	0.00
411.98	32.77
412.17	0.00
412.36	14.04
412.55	39.79
412.74	63.19
412.93	49.15
413.12	0.00
413.31	0.00
413.50	21.06
413.69	37.45
413.88	93.62
414.07	58.51
414.26	60.85
414.45	126.39
414.64	77.24
414.83	44.47
415.02	28.09
415.22	14.04
415.41	39.79
415.60	77.24
415.79	0.00
415.98	39.79
416.17	44.47
416.36	35.11
416.55	28.09
416.74	133.41
416.93	84.26
417.12	28.09
417.31	14.04
417.50	0.00
417.69	7.02
417.88	32.77
418.07	88.94
418.26	51.49
418.45	44.47
418.64	28.09
418.83	119.37
419.02	91.28
419.21	32.77
419.39	28.09
419.58	0.00
419.77	56.17
419.96	42.13
420.15	42.13
420.34	21.06
420.53	21.06
420.72	7.02
420.91	0.00
421.10	28.09
421.29	32.77
421.48	100.64
421.67	53.83
421.86	0.00
422.05	112.35
422.24	0.00
422.43	16.38
422.61	72.56
422.80	128.73
422.99	25.75
423.18	42.13
423.37	81.92
423.56	84.26
423.75	35.11
423.94	28.09
424.13	58.51
424.32	0.00
424.50	98.30
424.69	14.04
424.88	39.79
425.07	30.43
425.26	46.81
425.45	65.54
425.64	9.36
425.83	0.00
426.01	46.81
426.20	72.56
426.39	60.85
426.58	74.90
426.77	23.41
426.96	0.00
427.15	14.04
427.33	56.17
427.52	49.15
427.71	0.00
427.90	0.00
428.09	0.00
428.28	0.00
428.46	9.36
428.65	35.11
428.84	84.26
429.03	23.41
429.22	32.77
429.40	35.11
429.59	25.75
429.78	67.88
429.97	4.68
430.16	9.36
430.34	4.68
430.53	77.24
430.72	72.56
430.91	39.79
431.10	60.85
431.28	60.85
431.47	93.62
431.66	51.49
431.85	18.72
432.03	44.47
432.22	51.49
432.41	16.38
432.60	2.34
432.79	42.13
432.97	28.09
433.16	0.00
433.35	14.04
433.54	11.70
433.72	28.09
433.91	0.00
434.10	88.94
434.28	23.41
434.47	0.00
434.66	65.54
434.85	0.00
435.03	7.02
435.22	0.00
435.41	63.19
435.59	35.11
435.78	46.81
435.97	4.68
436.16	35.11
436.34	42.13
436.53	51.49
436.72	0.00
436.90	0.00
437.09	35.11
437.28	88.94
437.46	25.75
437.65	77.24
437.84	18.72
438.02	91.28
438.21	86.60
438.40	105.32
438.58	42.13
438.77	86.60
438.96	44.47
439.14	51.49
439.33	23.41
439.52	44.47
439.70	0.00
439.89	0.00
440.08	46.81
440.26	0.00
440.45	11.70
440.63	0.00
440.82	88.94
441.01	23.41
441.19	0.00
441.38	11.70
441.57	42.13
441.75	37.45
441.94	86.60
442.12	49.15
442.31	35.11
442.50	44.47
442.68	0.00
442.87	84.26
443.05	37.45
443.24	39.79
443.43	11.70
443.61	49.15
443.80	46.81
443.98	35.11
444.17	16.38
444.35	37.45
444.54	72.56
444.73	30.43
444.91	56.17
445.10	21.06
445.28	16.38
445.47	28.09
445.65	53.83
445.84	65.54
446.02	70.22
446.21	32.77
446.39	18.72
446.58	60.85
446.77	81.92
446.95	0.00
447.14	72.56
447.32	56.17
447.51	86.60
447.69	56.17
447.88	39.79
448.06	37.45
448.25	35.11
448.43	51.49
448.62	18.72
448.80	21.06
448.99	88.94
449.17	42.13
449.36	11.70
449.54	23.41
449.73	28.09
449.91	9.36
450.10	58.51
450.28	0.00
450.46	0.00
450.65	74.90
450.83	88.94
451.02	91.28
451.20	0.00
451.39	51.49
451.57	14.04
451.76	37.45
451.94	4.68
452.13	25.75
452.31	0.00
452.49	0.00
452.68	0.00
452.86	11.70
453.05	28.09
453.23	0.00
453.42	37.45
453.60	0.00
453.78	70.22
453.97	16.38
454.15	14.04
454.34	14.04
454.52	9.36
454.70	0.00
454.89	32.77
455.07	0.00
455.26	0.00
455.44	72.56
455.62	0.00
455.81	44.47
455.99	23.41
456.17	18.72
456.36	37.45
456.54	35.11
456.73	32.77
456.91	25.75
457.09	49.15
457.28	72.56
457.46	35.11
457.64	28.09
457.83	0.00
458.01	72.56
458.19	0.00
458.38	42.13
458.56	39.79
458.74	0.00
458.93	91.28
459.11	37.45
459.29	4.68
459.48	39.79
459.66	0.00
459.84	0.00
460.03	35.11
460.21	4.68
460.39	4.68
460.57	88.94
460.76	42.13
460.94	39.79
461.12	93.62
461.31	105.32
461.49	70.22
461.67	30.43
461.85	35.11
462.04	25.75
462.22	86.60
462.40	28.09
462.59	0.00
462.77	21.06
462.95	49.15
463.13	30.43
463.32	65.54
463.50	42.13
463.68	46.81
463.86	77.24
464.05	60.85
464.23	37.45
464.41	16.38
464.59	18.72
464.78	67.88
464.96	42.13
465.14	53.83
465.32	0.00
465.50	4.68
465.69	37.45
465.87	60.85
466.05	35.11
466.23	70.22
466.41	0.00
466.60	110.01
466.78	0.00
466.96	32.77
467.14	0.00
467.32	46.81
467.51	18.72
467.69	81.92
467.87	7.02
468.05	0.00
468.23	18.72
468.41	67.88
468.60	56.17
468.78	0.00
468.96	0.00
469.14	0.00
469.32	67.88
469.50	25.75
469.69	72.56
469.87	0.00
470.05	44.47
470.23	124.05
470.41	2.34
470.59	0.00
470.77	14.04
470.95	16.38
471.14	0.00
471.32	42.13
471.50	39.79
471.68	60.85
471.86	53.83
472.04	11.70
472.22	28.09
472.40	119.37
472.58	0.00
472.77	28.09
472.95	35.11
473.13	67.88
473.31	51.49
473.49	56.17
473.67	51.49
473.85	63.19
474.03	107.66
474.21	11.70
474.39	53.83
474.57	42.13
474.75	0.00
474.93	30.43
475.12	74.90
475.30	37.45
475.48	0.00
475.66	91.28
475.84	67.88
476.02	32.77
476.20	0.00
476.38	65.54
476.56	49.15
476.74	32.77
476.92	0.00
477.10	51.49
477.28	60.85
477.46	0.00
477.64	35.11
477.82	32.77
478.00	7.02
478.18	21.06
478.36	70.22
478.54	14.04
478.72	4.68
478.90	21.06
479.08	14.04
479.26	67.88
479.44	25.75
479.62	72.56
479.80	37.45
479.98	35.11
480.16	39.79
480.34	35.11
480.52	44.47
480.70	46.81
480.88	32.77
481.06	0.00
481.24	112.35
481.41	74.90
481.59	81.92
481.77	23.41
481.95	107.66
482.13	77.24
482.31	7.02
482.49	9.36
482.67	14.04
482.85	0.00
483.03	49.15
483.21	37.45
483.39	11.70
483.57	37.45
483.74	86.60
483.92	25.75
484.10	86.60
484.28	53.83
484.46	35.11
484.64	16.38
484.82	21.06
485.00	56.17
485.18	0.00
485.35	121.71
485.53	37.45
485.71	0.00
485.89	7.02
486.07	30.43
486.25	51.49
486.43	53.83
486.61	60.85
486.78	79.58
486.96	53.83
487.14	0.00
487.32	72.56
487.50	35.11
487.68	46.81
487.85	35.11
488.03	44.47
488.21	58.51
488.39	0.00
488.57	60.85
488.75	88.94
488.92	84.26
489.10	126.39
489.28	32.77
489.46	65.54
489.64	18.72
489.81	51.49
489.99	77.24
490.17	30.43
490.35	58.51
490.53	23.41
490.70	25.75
490.88	79.58
491.06	39.79
491.24	37.45
491.41	30.43
491.59	39.79
491.77	72.56
491.95	0.00
492.13	72.56
492.30	117.03
492.48	67.88
492.66	11.70
492.84	37.45
493.01	37.45
493.19	105.32
493.37	35.11
493.54	42.13
493.72	30.43
493.90	0.00
494.08	21.06
494.25	81.92
494.43	53.83
494.61	35.11
494.79	0.00
494.96	25.75
495.14	2.34
495.32	35.11
495.49	7.02
495.67	16.38
495.85	72.56
496.02	18.72
496.20	37.45
496.38	105.32
496.55	60.85
496.73	16.38
496.91	42.13
497.09	37.45
497.26	56.17
497.44	53.83
497.62	0.00
497.79	0.00
497.97	23.41
498.14	84.26
498.32	58.51
498.50	53.83
498.67	35.11
498.85	35.11
499.03	44.47
499.20	0.00
499.38	16.38
499.56	37.45
499.73	49.15
499.91	70.22
500.08	0.00
500.26	28.09
500.44	117.03
500.61	30.43
500.79	4.68
500.97	51.49
501.14	9.36
501.32	14.04
501.49	58.51
501.67	102.98
501.84	70.22
502.02	11.70
502.20	44.47
502.37	25.75
502.55	53.83
502.72	42.13
502.90	67.88
503.07	25.75
503.25	0.00
503.43	60.85
503.60	0.00
503.78	0.00
503.95	30.43
504.13	9.36
504.30	51.49
504.48	102.98
504.65	42.13
504.83	9.36
505.01	0.00
505.18	30.43
505.36	0.00
505.53	35.11
505.71	35.11
505.88	16.38
506.06	0.00
506.23	4.68
506.41	7.02
506.58	39.79
506.76	35.11
506.93	46.81
507.11	0.00
507.28	2.34
507.46	91.28
507.63	25.75
507.81	9.36
507.98	107.66
508.16	0.00
508.33	25.75
508.50	67.88
508.68	32.77
508.85	84.26
509.03	0.00
509.20	84.26
509.38	51.49
509.55	9.36
509.73	0.00
509.90	11.70
510.08	56.17
510.25	77.24
510.42	60.85
510.60	0.00
510.77	46.81
510.95	35.11
511.12	9.36
511.30	86.60
511.47	56.17
511.64	4.68
511.82	37.45
511.99	37.45
512.17	16.38
512.34	39.79
512.51	58.51
512.69	25.75
512.86	72.56
513.04	39.79
513.21	30.43
513.38	93.62
513.56	51.49
513.73	0.00
513.90	18.72
514.08	121.71
514.25	0.00
514.43	30.43
514.60	70.22
514.77	74.90
514.95	28.09
515.12	74.90
515.29	51.49
515.47	28.09
515.64	9.36
515.81	65.54
515.99	72.56
516.16	74.90
516.33	56.17
516.51	95.96
516.68	70.22
516.85	30.43
517.03	74.90
517.20	81.92
517.37	110.01
517.54	35.11
517.72	37.45
517.89	58.51
518.06	58.51
518.24	51.49
518.41	93.62
518.58	30.43
518.75	70.22
518.93	74.90
519.10	105.32
519.27	7.02
519.45	133.41
519.62	7.02
519.79	18.72
519.96	84.26
520.14	0.00
520.31	30.43
520.48	124.05
520.65	70.22
520.83	0.00
521.00	32.77
521.17	35.11
521.34	72.56
521.52	117.03
521.69	30.43
521.86	53.83
522.03	81.92
522.20	112.35
522.38	28.09
522.55	18.72
522.72	35.11
522.89	0.00
523.07	0.00
523.24	25.75
523.41	30.43
523.58	88.94
523.75	2.34
523.92	53.83
524.10	56.17
524.27	112.35
524.44	74.90
524.61	32.77
524.78	63.19
524.96	23.41
525.13	2.34
525.30	74.90
525.47	91.28
525.64	23.41
525.81	84.26
525.98	53.83
526.16	25.75
526.33	70.22
526.50	65.54
526.67	102.98
526.84	0.00
527.01	39.79
527.18	58.51
527.36	25.75
527.53	21.06
527.70	49.15
527.87	77.24
528.04	53.83
528.21	42.13
528.38	35.11
528.55	60.85
528.72	70.22
528.89	18.72
529.07	100.64
529.24	102.98
529.41	2.34
529.58	28.09
529.75	0.00
529.92	18.72
530.09	0.00
530.26	81.92
530.43	98.30
530.60	70.22
530.77	91.28
530.94	88.94
531.11	44.47
531.28	0.00
531.46	25.75
531.63	23.41
531.80	91.28
531.97	39.79
532.14	65.54
532.31	100.64
532.48	30.43
532.65	86.60
532.82	0.00
532.99	67.88
533.16	98.30
533.33	51.49
533.50	44.47
533.67	18.72
533.84	98.30
534.01	121.71
534.18	23.41
534.35	14.04
534.52	23.41
534.69	53.83
534.86	37.45
535.03	63.19
535.20	0.00
535.37	65.54
535.54	63.19
535.71	51.49
535.88	79.58
536.05	46.81
536.22	56.17
536.38	49.15
536.55	35.11
536.72	79.58
536.89	14.04
537.06	37.45
537.23	0.00
537.40	9.36
537.57	32.77
537.74	42.13
537.91	100.64
538.08	11.70
538.25	0.00
538.42	93.62
538.59	53.83
538.75	53.83
538.92	42.13
539.09	21.06
539.26	74.90
539.43	79.58
539.60	98.30
539.77	241.08
539.94	187.24
540.11	124.05
540.28	74.90
540.44	72.56
540.61	21.06
540.78	0.00
540.95	39.79
541.12	28.09
541.29	32.77
541.46	60.85
541.62	58.51
541.79	18.72
541.96	2.34
542.13	2.34
542.30	30.43
542.47	0.00
542.63	67.88
542.80	114.69
542.97	102.98
543.14	58.51
543.31	35.11
543.48	86.60
543.64	0.00
543.81	14.04
543.98	77.24
544.15	2.34
544.32	32.77
544.48	60.85
544.65	16.38
544.82	72.56
544.99	18.72
545.16	44.47
545.32	39.79
545.49	74.90
545.66	74.90
545.83	35.11
546.00	81.92
546.16	56.17
546.33	0.00
546.50	42.13
546.67	0.00
546.83	39.79
547.00	0.00
547.17	4.68
547.34	23.41
547.50	32.77
547.67	21.06
547.84	18.72
548.00	42.13
548.17	0.00
548.34	39.79
548.51	79.58
548.67	46.81
548.84	23.41
549.01	23.41
549.18	42.13
549.34	0.00
549.51	79.58
549.68	39.79
549.84	70.22
550.01	4.68
550.18	0.00
550.34	100.64
550.51	0.00
550.68	67.88
550.84	67.88
551.01	4.68
551.18	65.54
551.34	100.64
551.51	25.75
551.68	37.45
551.84	67.88
552.01	32.77
552.18	9.36
552.34	35.11
552.51	21.06
552.68	0.00
552.84	11.70
553.01	0.00
553.18	51.49
553.34	81.92
553.51	9.36
553.67	86.60
553.84	0.00
554.01	51.49
554.17	102.98
554.34	16.38
554.51	0.00
554.67	9.36
554.84	14.04
555.00	88.94
555.17	49.15
555.33	70.22
555.50	81.92
555.67	63.19
555.83	98.30
556.00	110.01
556.16	23.41
556.33	72.56
556.50	39.79
556.66	63.19
556.83	28.09
556.99	138.09
557.16	67.88
557.32	110.01
557.49	58.51
557.65	60.85
557.82	44.47
557.98	67.88
558.15	16.38
558.32	77.24
558.48	42.13
558.65	16.38
558.81	128.73
558.98	32.77
559.14	91.28
559.31	2.34
559.47	0.00
559.64	49.15
559.80	44.47
559.97	0.00
560.13	7.02
560.30	35.11
560.46	4.68
560.63	35.11
560.79	42.13
560.96	2.34
561.12	95.96
561.29	58.51
561.45	18.72
561.61	84.26
561.78	0.00
561.94	0.00
562.11	0.00
562.27	30.43
562.44	44.47
562.60	51.49
562.77	58.51
562.93	21.06
563.10	0.00
563.26	18.72
563.42	51.49
563.59	49.15
563.75	65.54
563.92	88.94
564.08	42.13
564.24	84.26
564.41	30.43
564.57	91.28
564.74	53.83
564.90	14.04
565.07	0.00
565.23	46.81
565.39	16.38
565.56	49.15
565.72	121.71
565.88	18.72
566.05	56.17
566.21	0.00
566.38	74.90
566.54	21.06
566.70	7.02
566.87	16.38
567.03	30.43
567.19	9.36
567.36	60.85
567.52	25.75
567.68	0.00
567.85	0.00
568.01	42.13
568.17	32.77
568.34	35.11
568.50	70.22
568.66	53.83
568.83	95.96
568.99	14.04
569.15	39.79
569.32	49.15
569.48	0.00
569.64	86.60
569.81	28.09
569.97	37.45
570.13	44.47
570.30	46.81
570.46	63.19
570.62	147.45
570.78	0.00
570.95	37.45
571.11	16.38
571.27	0.00
571.43	42.13
571.60	11.70
571.76	51.49
571.92	86.60
572.09	0.00
572.25	35.11
572.41	53.83
572.57	0.00
572.74	67.88
572.90	91.28
573.06	65.54
573.22	42.13
573.38	72.56
573.55	0.00
573.71	53.83
573.87	56.17
574.03	86.60
574.20	56.17
574.36	117.03
574.52	53.83
574.68	110.01
574.84	42.13
575.01	58.51
575.17	25.75
575.33	67.88
575.49	11.70
575.65	0.00
575.82	0.00
575.98	119.37
576.14	14.04
576.30	21.06
576.46	135.75
576.62	100.64
576.79	0.00
576.95	51.49
577.11	16.38
577.27	91.28
577.43	67.88
577.59	79.58
577.75	39.79
577.92	14.04
578.08	51.49
578.24	0.00
578.40	44.47
578.56	72.56
578.72	102.98
578.88	35.11
579.04	105.32
579.21	49.15
579.37	88.94
579.53	51.49
579.69	0.00
579.85	25.75
580.01	79.58
580.17	16.38
580.33	14.04
580.49	37.45
580.65	105.32
580.82	49.15
580.98	72.56
581.14	70.22
581.30	53.83
581.46	0.00
581.62	63.19
581.78	74.90
581.94	117.03
582.10	28.09
582.26	60.85
582.42	112.35
582.58	21.06
582.74	0.00
582.90	51.49
583.06	56.17
583.22	23.41
583.38	37.45
583.54	117.03
583.70	140.43
583.86	112.35
584.02	117.03
584.18	112.35
584.34	175.54
584.50	313.63
584.66	1802.21
584.82	4388.50
584.98	6069.01
585.14	5167.90
585.30	3375.05
585.46	2054.99
585.62	1343.47
585.78	601.52
585.94	297.25
586.10	152.13
586.26	128.73
586.42	65.54
586.58	112.35
586.74	77.24
586.90	37.45
587.06	79.58
587.22	32.77
587.38	107.66
587.54	72.56
587.70	227.03
587.86	451.72
588.02	526.62
588.18	276.18
588.34	215.33
588.49	159.16
588.65	63.19
588.81	72.56
588.97	65.54
589.13	56.17
589.29	28.09
589.45	56.17
589.61	81.92
589.77	77.24
589.93	0.00
590.08	65.54
590.24	16.38
590.40	42.13
590.56	56.17
590.72	84.26
590.88	86.60
591.04	72.56
591.20	0.00
591.35	91.28
591.51	58.51
591.67	25.75
591.83	84.26
591.99	56.17
592.15	14.04
592.31	46.81
592.46	32.77
592.62	86.60
592.78	39.79
592.94	42.13
593.10	93.62
593.26	39.79
593.41	112.35
593.57	16.38
593.73	74.90
593.89	266.82
594.05	629.60
594.20	856.64
594.36	737.27
594.52	463.43
594.68	360.44
594.84	182.56
594.99	121.71
595.15	100.64
595.31	124.05
595.47	4.68
595.62	93.62
595.78	44.47
595.94	0.00
596.10	0.00
596.25	35.11
596.41	65.54
596.57	30.43
596.73	81.92
596.88	149.79
597.04	56.17
597.20	205.97
597.36	191.92
597.51	276.18
597.67	91.28
597.83	53.83
597.99	37.45
598.14	63.19
598.30	74.90
598.46	58.51
598.61	7.02
598.77	53.83
598.93	79.58
599.09	53.83
599.24	21.06
599.40	2.34
599.56	30.43
599.71	46.81
599.87	0.00
600.03	121.71
600.18	0.00
600.34	0.00
600.50	42.13
600.65	16.38
600.81	28.09
600.97	23.41
601.12	0.00
601.28	60.85
601.44	46.81
601.59	30.43
601.75	44.47
601.91	49.15
602.06	0.00
602.22	46.81
602.37	60.85
602.53	86.60
602.69	220.01
602.84	201.29
603.00	166.18
603.16	191.92
603.31	110.01
603.47	65.54
603.62	0.00
603.78	42.13
603.94	100.64
604.09	51.49
604.25	91.28
604.40	95.96
604.56	84.26
604.71	32.77
604.87	79.58
605.03	72.56
605.18	0.00
605.34	25.75
605.49	46.81
605.65	25.75
605.80	0.00
605.96	37.45
606.12	0.00
606.27	67.88
606.43	60.85
606.58	7.02
606.74	30.43
606.89	280.86
607.05	561.73
607.20	631.94
607.36	587.47
607.51	376.83
607.67	283.20
607.82	170.86
607.98	58.51
608.13	95.96
608.29	39.79
608.44	4.68
608.60	93.62
608.75	44.47
608.91	149.79
609.06	521.94
609.22	833.23
609.37	1123.46
609.53	947.92
609.68	624.92
609.84	461.09
609.99	339.38
610.15	231.71
610.30	100.64
610.46	9.36
610.61	42.13
610.76	18.72
610.92	51.49
611.07	105.32
611.23	67.88
611.38	84.26
611.54	30.43
611.69	77.24
611.84	46.81
612.00	100.64
612.15	28.09
612.31	0.00
612.46	112.35
612.62	93.62
612.77	117.03
612.92	107.66
613.08	79.58
613.23	98.30
613.39	21.06
613.54	114.69
613.69	421.30
613.85	1186.65
614.00	1682.85
614.15	1671.14
614.31	1357.51
614.46	917.49
614.62	571.09
614.77	393.21
614.92	194.26
615.08	98.30
615.23	63.19
615.38	91.28
615.54	49.15
615.69	112.35
615.84	262.14
616.00	404.91
616.15	470.45
616.30	461.09
616.46	304.27
616.61	234.05
616.76	180.22
616.92	102.98
617.07	95.96
617.22	23.41
617.37	21.06
617.53	0.00
617.68	72.56
617.83	46.81
617.99	0.00
618.14	30.43
618.29	51.49
618.45	60.85
618.60	0.00
618.75	51.49
618.90	30.43
619.06	42.13
619.21	58.51
619.36	0.00
619.51	63.19
619.67	63.19
619.82	7.02
619.97	53.83
620.12	79.58
620.28	25.75
620.43	37.45
620.58	53.83
620.73	25.75
620.89	35.11
621.04	0.00
621.19	102.98
621.34	348.74
621.49	294.91
621.65	294.91
621.80	180.22
621.95	135.75
622.10	51.49
622.25	56.17
622.41	72.56
622.56	74.90
622.71	42.13
622.86	46.81
623.01	53.83
623.16	93.62
623.32	7.02
623.47	81.92
623.62	63.19
623.77	63.19
623.92	0.00
624.07	30.43
624.23	9.36
624.38	16.38
624.53	91.28
624.68	39.79
624.83	0.00
624.98	72.56
625.13	53.83
625.29	56.17
625.44	14.04
625.59	51.49
625.74	79.58
625.89	32.77
626.04	198.95
626.19	500.87
626.34	896.43
626.49	926.85
626.65	784.08
626.80	479.81
626.95	294.91
627.10	217.67
627.25	149.79
627.40	114.69
627.55	49.15
627.70	16.38
627.85	51.49
628.00	46.81
628.15	25.75
628.30	72.56
628.45	32.77
628.60	42.13
628.76	56.17
628.91	35.11
629.06	0.00
629.21	95.96
629.36	58.51
629.51	77.24
629.66	21.06
629.81	0.00
629.96	84.26
630.11	290.23
630.26	315.97
630.41	222.35
630.56	138.09
630.71	208.31
630.86	105.32
631.01	86.60
631.16	14.04
631.31	70.22
631.46	53.83
631.61	93.62
631.76	2.34
631.91	67.88
632.06	60.85
632.21	32.77
632.36	95.96
632.51	98.30
632.66	58.51
632.81	98.30
632.96	341.72
633.10	610.88
633.25	720.88
633.40	545.34
633.55	367.46
633.70	318.31
633.85	131.07
634.00	95.96
634.15	91.28
634.30	72.56
634.45	30.43
634.60	0.00
634.75	21.06
634.90	32.77
635.05	0.00
635.19	30.43
635.34	37.45
635.49	98.30
635.64	53.83
635.79	37.45
635.94	84.26
636.09	42.13
636.24	42.13
636.39	0.00
636.53	42.13
636.68	53.83
636.83	0.00
636.98	28.09
637.13	32.77
637.28	9.36
637.43	16.38
637.57	67.88
637.72	283.20
637.87	734.93
638.02	1086.01
638.17	1261.55
638.32	884.72
638.46	580.45
638.61	470.45
638.76	266.82
638.91	191.92
639.06	126.39
639.20	93.62
639.35	53.83
639.50	100.64
639.65	479.81
639.80	1163.25
639.94	1816.26
640.09	1884.13
640.24	1341.13
640.39	952.60
640.54	662.37
640.68	376.83
640.83	266.82
640.98	95.96
641.13	117.03
641.27	124.05
641.42	35.11
641.57	102.98
641.72	49.15
641.86	0.00
642.01	0.00
642.16	0.00
642.31	28.09
642.45	25.75
642.60	21.06
642.75	7.02
642.90	74.90
643.04	98.30
643.19	67.88
643.34	72.56
643.48	67.88
643.63	44.47
643.78	0.00
643.93	0.00
644.07	28.09
644.22	42.13
644.37	67.88
644.51	35.11
644.66	46.81
644.81	74.90
644.95	65.54
645.10	0.00
645.25	46.81
645.39	14.04
645.54	86.60
645.69	21.06
645.83	49.15
645.98	67.88
646.13	0.00
646.27	0.00
646.42	35.11
646.57	32.77
646.71	25.75
646.86	166.18
647.00	7.02
647.15	0.00
647.30	21.06
647.44	60.85
647.59	0.00
647.74	21.06
647.88	91.28
648.03	11.70
648.17	79.58
648.32	93.62
648.47	0.00
648.61	67.88
648.76	46.81
648.90	0.00
649.05	60.85
649.20	0.00
649.34	88.94
649.49	81.92
649.63	18.72
649.78	77.24
649.92	37.45
650.07	163.84
650.21	552.37
650.36	835.57
650.51	912.81
650.65	814.51
650.80	507.90
650.94	337.04
651.09	194.26
651.23	187.24
651.38	126.39
651.52	117.03
651.67	7.02
651.81	28.09
651.96	56.17
652.10	60.85
652.25	58.51
652.39	42.13
652.54	86.60
652.68	88.94
652.83	222.35
652.97	278.52
653.12	374.49
653.26	290.23
653.41	327.68
653.55	266.82
653.70	84.26
653.84	63.19
653.99	25.75
654.13	23.41
654.27	112.35
654.42	7.02
654.56	63.19
654.71	25.75
654.85	46.81
655.00	32.77
655.14	28.09
655.29	0.00
655.43	25.75
655.57	93.62
655.72	72.56
655.86	32.77
656.01	60.85
656.15	42.13
656.30	0.00
656.44	60.85
656.58	0.00
656.73	28.09
656.87	0.00
657.01	28.09
657.16	121.71
657.30	49.15
657.45	74.90
657.59	49.15
657.73	42.13
657.88	2.34
658.02	58.51
658.16	42.13
658.31	67.88
658.45	18.72
658.60	0.00
658.74	131.07
658.88	46.81
659.03	39.79
659.17	88.94
659.31	58.51
659.46	198.95
659.60	437.68
659.74	505.56
659.89	407.25
660.03	311.29
660.17	229.37
660.32	177.88
660.46	70.22
660.60	88.94
660.74	112.35
660.89	72.56
661.03	37.45
661.17	0.00
661.32	79.58
661.46	110.01
661.60	84.26
661.74	102.98
661.89	53.83
662.03	30.43
662.17	72.56
662.31	46.81
662.46	30.43
662.60	25.75
662.74	67.88
662.88	42.13
663.03	74.90
663.17	0.00
663.31	0.00
663.45	46.81
663.60	16.38
663.74	32.77
663.88	95.96
664.02	49.15
664.17	28.09
664.31	23.41
664.45	49.15
664.59	35.11
664.73	42.13
664.88	60.85
665.02	37.45
665.16	25.75
665.30	23.41
665.44	58.51
665.59	53.83
665.73	9.36
665.87	67.88
666.01	70.22
666.15	58.51
666.29	23.41
666.44	60.85
666.58	44.47
666.72	0.00
666.86	124.05
667.00	133.41
667.14	98.30
667.28	124.05
667.43	433.00
667.57	716.20
667.71	877.70
667.85	770.04
667.99	550.03
668.13	315.97
668.27	163.84
668.41	65.54
668.56	51.49
668.70	166.18
668.84	58.51
668.98	23.41
669.12	79.58
669.26	53.83
669.40	14.04
669.54	39.79
669.68	91.28
669.82	0.00
669.96	9.36
670.10	65.54
670.25	21.06
670.39	88.94
670.53	51.49
670.67	46.81
670.81	9.36
670.95	39.79
671.09	2.34
671.23	259.80
671.37	351.08
671.51	493.85
671.65	526.62
671.79	477.47
671.93	311.29
672.07	187.24
672.21	124.05
672.35	93.62
672.49	79.58
672.63	67.88
672.77	46.81
672.91	46.81
673.05	42.13
673.19	70.22
673.33	35.11
673.47	32.77
673.61	18.72
673.75	42.13
673.89	72.56
674.03	49.15
674.17	9.36
674.31	0.00
674.45	56.17
674.59	58.51
674.73	72.56
674.87	18.72
675.01	91.28
675.15	46.81
675.29	84.26
675.43	86.60
675.56	65.54
675.70	119.37
675.84	0.00
675.98	95.96
676.12	11.70
676.26	0.00
676.40	46.81
676.54	30.43
676.68	44.47
676.82	0.00
676.96	84.26
677.10	39.79
677.23	63.19
677.37	93.62
677.51	65.54
677.65	46.81
677.79	70.22
677.93	0.00
678.07	35.11
678.21	37.45
678.34	32.77
678.48	11.70
678.62	65.54
678.76	60.85
678.90	91.28
679.04	4.68
679.18	56.17
679.31	42.13
679.45	46.81
679.59	0.00
679.73	23.41
679.87	49.15
680.00	18.72
680.14	51.49
680.28	58.51
680.42	81.92
680.56	30.43
680.70	60.85
680.83	44.47
680.97	21.06
681.11	35.11
681.25	0.00
681.39	32.77
681.52	56.17
681.66	32.77
681.80	0.00
681.94	23.41
682.07	65.54
682.21	18.72
682.35	84.26
682.49	42.13
682.62	0.00
682.76	0.00
682.90	0.00
683.04	0.00
683.17	42.13
683.31	18.72
683.45	0.00
683.59	4.68
683.72	98.30
683.86	30.43
684.00	0.00
684.13	18.72
684.27	46.81
684.41	44.47
684.55	0.00
684.68	0.00
684.82	156.82
684.96	0.00
685.09	11.70
685.23	16.38
685.37	14.04
685.50	39.79
685.64	0.00
685.78	0.00
685.91	23.41
686.05	0.00
686.19	4.68
686.32	0.00
686.46	0.00
686.60	21.06
686.73	56.17
686.87	100.64
687.01	39.79
687.14	91.28
687.28	2.34
687.42	21.06
687.55	0.00
687.69	39.79
687.82	0.00
687.96	0.00
688.10	0.00
688.23	100.64
688.37	2.34
688.50	51.49
688.64	65.54
688.78	0.00
688.91	30.43
689.05	84.26
689.18	18.72
689.32	18.72
689.46	152.13
689.59	14.04
689.73	9.36
689.86	0.00
690.00	74.90
690.13	46.81
690.27	16.38
690.41	16.38
690.54	21.06
690.68	21.06
690.81	51.49
690.95	2.34
691.08	28.09
691.22	25.75
691.35	11.70
691.49	0.00
691.62	18.72
691.76	9.36
691.89	72.56
692.03	7.02
692.16	100.64
692.30	32.77
692.43	107.66
692.57	201.29
692.70	299.59
692.84	423.64
692.97	320.65
693.11	273.84
693.24	210.65
693.38	208.31
693.51	142.77
693.65	93.62
693.78	30.43
693.92	72.56
694.05	23.41
694.19	65.54
694.32	0.00
694.45	0.00
694.59	25.75
694.72	39.79
694.86	0.00
694.99	4.68
695.13	35.11
695.26	58.51
695.39	60.85
695.53	140.43
695.66	77.24
695.80	28.09
695.93	0.00
696.07	0.00
696.20	0.00
696.33	42.13
696.47	67.88
696.60	4.68
696.73	7.02
696.87	0.00
697.00	32.77
697.14	16.38
697.27	35.11
697.40	105.32
697.54	81.92
697.67	51.49
697.80	28.09
697.94	14.04
698.07	46.81
698.21	0.00
698.34	63.19
698.47	11.70
698.61	0.00
698.74	0.00
698.87	74.90
699.01	4.68
699.14	65.54
699.27	23.41
699.40	0.00
699.54	0.00
699.67	0.00
699.80	44.47
699.94	14.04
700.07	0.00
700.20	49.15
700.34	72.56
700.47	0.00
700.60	60.85
700.73	0.00
700.87	0.00
701.00	30.43
701.13	46.81
701.26	60.85
701.40	25.75
701.53	23.41
701.66	0.00
701.79	11.70
701.93	0.00
702.06	117.03
702.19	32.77
702.32	117.03
702.46	121.71
702.59	18.72
702.72	86.60
702.85	210.65
702.99	428.32
703.12	692.80
703.25	697.48
703.38	636.63
703.51	547.69
703.65	332.36
703.78	271.50
703.91	173.20
704.04	58.51
704.17	4.68
704.31	88.94
704.44	72.56
704.57	11.70
704.70	35.11
704.83	95.96
704.96	30.43
705.10	51.49
705.23	77.24
>>>>>End Processed Spectral Data<<<<<
