SpectraSuite Data File
++++++++++++++++++++++++++++++++++++
Date: Fri Oct 04 12:13:32 GMT-05:00 2013
User: price-jones
Dark Spectrum Present: No
Reference Spectrum Present: No
Number of Sampled Component Spectra: 1
Spectrometers: USB2+H05261
Integration Time (usec): 10000 (USB2+H05261)
Spectra Averaged: 1 (USB2+H05261)
Boxcar Smoothing: 0 (USB2+H05261)
Correct for Electrical Dark: No (USB2+H05261)
Strobe/Lamp Enabled: No (USB2+H05261)
Correct for Detector Non-linearity: No (USB2+H05261)
Correct for Stray Light: No (USB2+H05261)
Number of Pixels in Processed Spectrum: 2048
>>>>>Begin Processed Spectral Data<<<<<
365.73	44.47
365.92	44.47
366.12	44.47
366.32	0.00
366.52	0.00
366.72	0.00
366.91	0.00
367.11	0.00
367.31	0.00
367.51	0.00
367.70	0.00
367.90	0.00
368.10	0.00
368.30	0.00
368.49	0.00
368.69	0.00
368.89	0.00
369.09	0.00
369.28	0.00
369.48	0.00
369.68	0.00
369.87	0.00
370.07	0.00
370.27	0.00
370.47	0.00
370.66	0.00
370.86	0.00
371.06	0.00
371.25	30.43
371.45	4.68
371.65	0.00
371.84	0.00
372.04	0.00
372.24	0.00
372.44	0.00
372.63	0.00
372.83	46.81
373.03	0.00
373.22	53.83
373.42	18.72
373.62	25.75
373.81	28.09
374.01	4.68
374.21	51.49
374.40	51.49
374.60	65.54
374.79	58.51
374.99	0.00
375.19	91.28
375.38	42.13
375.58	0.00
375.78	79.58
375.97	58.51
376.17	4.68
376.37	88.94
376.56	39.79
376.76	32.77
376.95	0.00
377.15	42.13
377.35	16.38
377.54	11.70
377.74	28.09
377.93	23.41
378.13	51.49
378.33	81.92
378.52	23.41
378.72	11.70
378.91	28.09
379.11	21.06
379.31	0.00
379.50	46.81
379.70	60.85
379.89	0.00
380.09	44.47
380.28	0.00
380.48	16.38
380.68	77.24
380.87	14.04
381.07	16.38
381.26	14.04
381.46	16.38
381.65	2.34
381.85	49.15
382.04	28.09
382.24	0.00
382.43	9.36
382.63	0.00
382.83	0.00
383.02	0.00
383.22	53.83
383.41	28.09
383.61	4.68
383.80	2.34
384.00	37.45
384.19	79.58
384.39	32.77
384.58	7.02
384.78	0.00
384.97	98.30
385.17	60.85
385.36	84.26
385.56	0.00
385.75	0.00
385.95	42.13
386.14	74.90
386.34	0.00
386.53	88.94
386.72	21.06
386.92	0.00
387.11	4.68
387.31	56.17
387.50	44.47
387.70	0.00
387.89	0.00
388.09	74.90
388.28	0.00
388.48	2.34
388.67	0.00
388.86	0.00
389.06	23.41
389.25	0.00
389.45	46.81
389.64	46.81
389.84	0.00
390.03	25.75
390.22	14.04
390.42	63.19
390.61	0.00
390.81	63.19
391.00	35.11
391.19	21.06
391.39	0.00
391.58	53.83
391.78	2.34
391.97	37.45
392.16	0.00
392.36	0.00
392.55	0.00
392.75	32.77
392.94	35.11
393.13	0.00
393.33	0.00
393.52	0.00
393.71	44.47
393.91	0.00
394.10	11.70
394.29	67.88
394.49	23.41
394.68	2.34
394.88	18.72
395.07	23.41
395.26	53.83
395.46	39.79
395.65	100.64
395.84	0.00
396.04	0.00
396.23	63.19
396.42	0.00
396.62	0.00
396.81	37.45
397.00	21.06
397.19	0.00
397.39	18.72
397.58	77.24
397.77	46.81
397.97	0.00
398.16	0.00
398.35	37.45
398.55	70.22
398.74	14.04
398.93	0.00
399.12	37.45
399.32	32.77
399.51	21.06
399.70	2.34
399.90	93.62
400.09	53.83
400.28	0.00
400.47	32.77
400.67	49.15
400.86	18.72
401.05	0.00
401.24	23.41
401.44	0.00
401.63	9.36
401.82	0.00
402.01	32.77
402.21	56.17
402.40	0.00
402.59	28.09
402.78	84.26
402.97	0.00
403.17	0.00
403.36	39.79
403.55	21.06
403.74	60.85
403.93	23.41
404.13	4.68
404.32	42.13
404.51	0.00
404.70	14.04
404.89	98.30
405.09	39.79
405.28	0.00
405.47	0.00
405.66	7.02
405.85	7.02
406.05	60.85
406.24	0.00
406.43	0.00
406.62	49.15
406.81	21.06
407.00	49.15
407.20	9.36
407.39	0.00
407.58	21.06
407.77	30.43
407.96	42.13
408.15	0.00
408.34	42.13
408.54	9.36
408.73	0.00
408.92	25.75
409.11	67.88
409.30	74.90
409.49	49.15
409.68	37.45
409.87	35.11
410.07	0.00
410.26	56.17
410.45	0.00
410.64	21.06
410.83	0.00
411.02	39.79
411.21	39.79
411.40	32.77
411.59	28.09
411.78	0.00
411.98	0.00
412.17	0.00
412.36	39.79
412.55	0.00
412.74	14.04
412.93	60.85
413.12	9.36
413.31	0.00
413.50	88.94
413.69	23.41
413.88	77.24
414.07	42.13
414.26	42.13
414.45	102.98
414.64	32.77
414.83	84.26
415.02	37.45
415.22	32.77
415.41	44.47
415.60	14.04
415.79	49.15
415.98	0.00
416.17	0.00
416.36	56.17
416.55	42.13
416.74	39.79
416.93	0.00
417.12	51.49
417.31	49.15
417.50	65.54
417.69	74.90
417.88	11.70
418.07	0.00
418.26	0.00
418.45	93.62
418.64	32.77
418.83	63.19
419.02	9.36
419.21	100.64
419.39	42.13
419.58	60.85
419.77	65.54
419.96	16.38
420.15	0.00
420.34	25.75
420.53	56.17
420.72	30.43
420.91	23.41
421.10	42.13
421.29	35.11
421.48	9.36
421.67	0.00
421.86	7.02
422.05	65.54
422.24	117.03
422.43	18.72
422.61	46.81
422.80	58.51
422.99	49.15
423.18	0.00
423.37	0.00
423.56	44.47
423.75	0.00
423.94	0.00
424.13	4.68
424.32	79.58
424.50	16.38
424.69	32.77
424.88	0.00
425.07	23.41
425.26	60.85
425.45	65.54
425.64	25.75
425.83	30.43
426.01	53.83
426.20	65.54
426.39	63.19
426.58	0.00
426.77	60.85
426.96	28.09
427.15	77.24
427.33	4.68
427.52	0.00
427.71	4.68
427.90	72.56
428.09	58.51
428.28	0.00
428.46	9.36
428.65	0.00
428.84	42.13
429.03	23.41
429.22	18.72
429.40	58.51
429.59	32.77
429.78	35.11
429.97	4.68
430.16	60.85
430.34	42.13
430.53	0.00
430.72	35.11
430.91	0.00
431.10	63.19
431.28	0.00
431.47	28.09
431.66	70.22
431.85	11.70
432.03	105.32
432.22	9.36
432.41	65.54
432.60	60.85
432.79	74.90
432.97	119.37
433.16	95.96
433.35	37.45
433.54	11.70
433.72	21.06
433.91	51.49
434.10	65.54
434.28	0.00
434.47	46.81
434.66	28.09
434.85	0.00
435.03	2.34
435.22	0.00
435.41	51.49
435.59	117.03
435.78	88.94
435.97	100.64
436.16	16.38
436.34	79.58
436.53	53.83
436.72	32.77
436.90	18.72
437.09	0.00
437.28	86.60
437.46	32.77
437.65	44.47
437.84	28.09
438.02	63.19
438.21	2.34
438.40	21.06
438.58	63.19
438.77	7.02
438.96	11.70
439.14	39.79
439.33	95.96
439.52	0.00
439.70	37.45
439.89	65.54
440.08	67.88
440.26	37.45
440.45	4.68
440.63	21.06
440.82	70.22
441.01	14.04
441.19	23.41
441.38	35.11
441.57	53.83
441.75	25.75
441.94	79.58
442.12	65.54
442.31	16.38
442.50	16.38
442.68	44.47
442.87	70.22
443.05	0.00
443.24	67.88
443.43	0.00
443.61	39.79
443.80	65.54
443.98	102.98
444.17	28.09
444.35	39.79
444.54	56.17
444.73	18.72
444.91	35.11
445.10	0.00
445.28	0.00
445.47	60.85
445.65	56.17
445.84	0.00
446.02	51.49
446.21	84.26
446.39	0.00
446.58	51.49
446.77	49.15
446.95	21.06
447.14	81.92
447.32	0.00
447.51	0.00
447.69	39.79
447.88	44.47
448.06	42.13
448.25	18.72
448.43	84.26
448.62	44.47
448.80	32.77
448.99	42.13
449.17	81.92
449.36	46.81
449.54	0.00
449.73	51.49
449.91	84.26
450.10	81.92
450.28	77.24
450.46	35.11
450.65	0.00
450.83	49.15
451.02	0.00
451.20	28.09
451.39	2.34
451.57	30.43
451.76	56.17
451.94	7.02
452.13	44.47
452.31	0.00
452.49	9.36
452.68	58.51
452.86	28.09
453.05	74.90
453.23	112.35
453.42	18.72
453.60	56.17
453.78	9.36
453.97	95.96
454.15	18.72
454.34	46.81
454.52	67.88
454.70	37.45
454.89	0.00
455.07	95.96
455.26	84.26
455.44	25.75
455.62	7.02
455.81	49.15
455.99	23.41
456.17	84.26
456.36	0.00
456.54	0.00
456.73	72.56
456.91	32.77
457.09	53.83
457.28	7.02
457.46	0.00
457.64	77.24
457.83	53.83
458.01	4.68
458.19	7.02
458.38	107.66
458.56	23.41
458.74	0.00
458.93	0.00
459.11	0.00
459.29	53.83
459.48	7.02
459.66	88.94
459.84	0.00
460.03	7.02
460.21	23.41
460.39	42.13
460.57	65.54
460.76	53.83
460.94	65.54
461.12	42.13
461.31	9.36
461.49	0.00
461.67	53.83
461.85	53.83
462.04	53.83
462.22	86.60
462.40	77.24
462.59	58.51
462.77	0.00
462.95	23.41
463.13	37.45
463.32	39.79
463.50	46.81
463.68	0.00
463.86	58.51
464.05	4.68
464.23	58.51
464.41	0.00
464.59	0.00
464.78	39.79
464.96	88.94
465.14	30.43
465.32	86.60
465.50	28.09
465.69	60.85
465.87	7.02
466.05	67.88
466.23	72.56
466.41	51.49
466.60	39.79
466.78	11.70
466.96	0.00
467.14	88.94
467.32	56.17
467.51	70.22
467.69	21.06
467.87	21.06
468.05	35.11
468.23	21.06
468.41	0.00
468.60	0.00
468.78	49.15
468.96	65.54
469.14	58.51
469.32	0.00
469.50	0.00
469.69	70.22
469.87	2.34
470.05	65.54
470.23	30.43
470.41	65.54
470.59	30.43
470.77	9.36
470.95	44.47
471.14	51.49
471.32	74.90
471.50	0.00
471.68	11.70
471.86	84.26
472.04	81.92
472.22	0.00
472.40	74.90
472.58	39.79
472.77	0.00
472.95	9.36
473.13	37.45
473.31	56.17
473.49	74.90
473.67	4.68
473.85	0.00
474.03	32.77
474.21	91.28
474.39	18.72
474.57	58.51
474.75	51.49
474.93	119.37
475.12	86.60
475.30	77.24
475.48	23.41
475.66	32.77
475.84	39.79
476.02	145.11
476.20	46.81
476.38	72.56
476.56	28.09
476.74	49.15
476.92	84.26
477.10	35.11
477.28	46.81
477.46	67.88
477.64	86.60
477.82	4.68
478.00	51.49
478.18	58.51
478.36	35.11
478.54	30.43
478.72	11.70
478.90	100.64
479.08	63.19
479.26	32.77
479.44	37.45
479.62	74.90
479.80	51.49
479.98	63.19
480.16	37.45
480.34	0.00
480.52	49.15
480.70	56.17
480.88	140.43
481.06	35.11
481.24	4.68
481.41	53.83
481.59	32.77
481.77	60.85
481.95	37.45
482.13	37.45
482.31	53.83
482.49	23.41
482.67	42.13
482.85	58.51
483.03	44.47
483.21	30.43
483.39	0.00
483.57	131.07
483.74	93.62
483.92	35.11
484.10	0.00
484.28	53.83
484.46	79.58
484.64	0.00
484.82	49.15
485.00	4.68
485.18	21.06
485.35	93.62
485.53	37.45
485.71	42.13
485.89	95.96
486.07	86.60
486.25	0.00
486.43	60.85
486.61	51.49
486.78	42.13
486.96	91.28
487.14	30.43
487.32	18.72
487.50	0.00
487.68	56.17
487.85	0.00
488.03	0.00
488.21	81.92
488.39	53.83
488.57	51.49
488.75	58.51
488.92	67.88
489.10	74.90
489.28	32.77
489.46	46.81
489.64	70.22
489.81	21.06
489.99	84.26
490.17	63.19
490.35	74.90
490.53	56.17
490.70	46.81
490.88	88.94
491.06	58.51
491.24	86.60
491.41	23.41
491.59	30.43
491.77	53.83
491.95	23.41
492.13	21.06
492.30	16.38
492.48	70.22
492.66	16.38
492.84	4.68
493.01	28.09
493.19	25.75
493.37	72.56
493.54	70.22
493.72	114.69
493.90	74.90
494.08	79.58
494.25	18.72
494.43	63.19
494.61	23.41
494.79	18.72
494.96	105.32
495.14	37.45
495.32	72.56
495.49	39.79
495.67	14.04
495.85	63.19
496.02	46.81
496.20	88.94
496.38	70.22
496.55	117.03
496.73	46.81
496.91	2.34
497.09	56.17
497.26	72.56
497.44	53.83
497.62	16.38
497.79	0.00
497.97	42.13
498.14	0.00
498.32	44.47
498.50	88.94
498.67	95.96
498.85	2.34
499.03	32.77
499.20	37.45
499.38	72.56
499.56	35.11
499.73	88.94
499.91	49.15
500.08	124.05
500.26	39.79
500.44	32.77
500.61	102.98
500.79	14.04
500.97	14.04
501.14	42.13
501.32	25.75
501.49	37.45
501.67	67.88
501.84	100.64
502.02	35.11
502.20	77.24
502.37	16.38
502.55	21.06
502.72	112.35
502.90	30.43
503.07	0.00
503.25	74.90
503.43	42.13
503.60	84.26
503.78	49.15
503.95	56.17
504.13	44.47
504.30	37.45
504.48	11.70
504.65	58.51
504.83	25.75
505.01	0.00
505.18	39.79
505.36	56.17
505.53	23.41
505.71	46.81
505.88	95.96
506.06	14.04
506.23	117.03
506.41	53.83
506.58	42.13
506.76	81.92
506.93	102.98
507.11	67.88
507.28	98.30
507.46	72.56
507.63	37.45
507.81	28.09
507.98	14.04
508.16	0.00
508.33	70.22
508.50	0.00
508.68	53.83
508.85	72.56
509.03	51.49
509.20	23.41
509.38	88.94
509.55	88.94
509.73	44.47
509.90	0.00
510.08	84.26
510.25	51.49
510.42	44.47
510.60	9.36
510.77	93.62
510.95	74.90
511.12	0.00
511.30	18.72
511.47	107.66
511.64	119.37
511.82	51.49
511.99	28.09
512.17	72.56
512.34	117.03
512.51	63.19
512.69	60.85
512.86	14.04
513.04	107.66
513.21	95.96
513.38	100.64
513.56	81.92
513.73	16.38
513.90	53.83
514.08	42.13
514.25	81.92
514.43	46.81
514.60	105.32
514.77	46.81
514.95	67.88
515.12	0.00
515.29	23.41
515.47	35.11
515.64	110.01
515.81	81.92
515.99	72.56
516.16	81.92
516.33	0.00
516.51	39.79
516.68	39.79
516.85	105.32
517.03	65.54
517.20	114.69
517.37	60.85
517.54	0.00
517.72	58.51
517.89	77.24
518.06	14.04
518.24	4.68
518.41	46.81
518.58	0.00
518.75	28.09
518.93	88.94
519.10	88.94
519.27	95.96
519.45	79.58
519.62	32.77
519.79	70.22
519.96	32.77
520.14	32.77
520.31	32.77
520.48	81.92
520.65	0.00
520.83	0.00
521.00	49.15
521.17	84.26
521.34	0.00
521.52	91.28
521.69	65.54
521.86	74.90
522.03	114.69
522.20	25.75
522.38	23.41
522.55	25.75
522.72	49.15
522.89	4.68
523.07	91.28
523.24	58.51
523.41	95.96
523.58	49.15
523.75	58.51
523.92	44.47
524.10	93.62
524.27	9.36
524.44	4.68
524.61	14.04
524.78	93.62
524.96	16.38
525.13	58.51
525.30	81.92
525.47	0.00
525.64	42.13
525.81	25.75
525.98	0.00
526.16	0.00
526.33	42.13
526.50	0.00
526.67	18.72
526.84	23.41
527.01	91.28
527.18	28.09
527.36	100.64
527.53	51.49
527.70	28.09
527.87	42.13
528.04	7.02
528.21	102.98
528.38	95.96
528.55	42.13
528.72	42.13
528.89	93.62
529.07	35.11
529.24	119.37
529.41	63.19
529.58	53.83
529.75	16.38
529.92	18.72
530.09	51.49
530.26	86.60
530.43	49.15
530.60	0.00
530.77	79.58
530.94	74.90
531.11	42.13
531.28	53.83
531.46	88.94
531.63	35.11
531.80	72.56
531.97	16.38
532.14	95.96
532.31	77.24
532.48	77.24
532.65	21.06
532.82	88.94
532.99	72.56
533.16	28.09
533.33	65.54
533.50	46.81
533.67	58.51
533.84	51.49
534.01	23.41
534.18	25.75
534.35	9.36
534.52	72.56
534.69	37.45
534.86	42.13
535.03	58.51
535.20	35.11
535.37	42.13
535.54	16.38
535.71	112.35
535.88	37.45
536.05	84.26
536.22	7.02
536.38	28.09
536.55	58.51
536.72	2.34
536.89	0.00
537.06	39.79
537.23	88.94
537.40	16.38
537.57	37.45
537.74	2.34
537.91	60.85
538.08	86.60
538.25	58.51
538.42	51.49
538.59	102.98
538.75	65.54
538.92	46.81
539.09	72.56
539.26	0.00
539.43	0.00
539.60	74.90
539.77	84.26
539.94	53.83
540.11	65.54
540.28	79.58
540.44	53.83
540.61	56.17
540.78	88.94
540.95	107.66
541.12	58.51
541.29	86.60
541.46	65.54
541.62	42.13
541.79	35.11
541.96	114.69
542.13	39.79
542.30	46.81
542.47	86.60
542.63	23.41
542.80	0.00
542.97	0.00
543.14	60.85
543.31	65.54
543.48	110.01
543.64	60.85
543.81	60.85
543.98	37.45
544.15	35.11
544.32	37.45
544.48	46.81
544.65	65.54
544.82	23.41
544.99	53.83
545.16	124.05
545.32	98.30
545.49	79.58
545.66	86.60
545.83	0.00
546.00	35.11
546.16	39.79
546.33	56.17
546.50	72.56
546.67	65.54
546.83	86.60
547.00	0.00
547.17	74.90
547.34	0.00
547.50	44.47
547.67	74.90
547.84	124.05
548.00	30.43
548.17	0.00
548.34	9.36
548.51	35.11
548.67	74.90
548.84	0.00
549.01	88.94
549.18	0.00
549.34	93.62
549.51	56.17
549.68	0.00
549.84	25.75
550.01	93.62
550.18	30.43
550.34	53.83
550.51	65.54
550.68	58.51
550.84	23.41
551.01	0.00
551.18	2.34
551.34	98.30
551.51	28.09
551.68	56.17
551.84	51.49
552.01	0.00
552.18	0.00
552.34	51.49
552.51	70.22
552.68	28.09
552.84	9.36
553.01	53.83
553.18	72.56
553.34	81.92
553.51	112.35
553.67	98.30
553.84	23.41
554.01	4.68
554.17	70.22
554.34	28.09
554.51	51.49
554.67	79.58
554.84	44.47
555.00	138.09
555.17	72.56
555.33	74.90
555.50	0.00
555.67	70.22
555.83	60.85
556.00	63.19
556.16	98.30
556.33	84.26
556.50	98.30
556.66	131.07
556.83	107.66
556.99	70.22
557.16	56.17
557.32	4.68
557.49	35.11
557.65	53.83
557.82	30.43
557.98	42.13
558.15	100.64
558.32	102.98
558.48	65.54
558.65	21.06
558.81	67.88
558.98	79.58
559.14	11.70
559.31	63.19
559.47	11.70
559.64	0.00
559.80	4.68
559.97	44.47
560.13	0.00
560.30	0.00
560.46	9.36
560.63	46.81
560.79	30.43
560.96	37.45
561.12	110.01
561.29	72.56
561.45	56.17
561.61	110.01
561.78	60.85
561.94	0.00
562.11	44.47
562.27	74.90
562.44	88.94
562.60	37.45
562.77	70.22
562.93	11.70
563.10	42.13
563.26	67.88
563.42	18.72
563.59	0.00
563.75	9.36
563.92	110.01
564.08	35.11
564.24	37.45
564.41	147.45
564.57	56.17
564.74	32.77
564.90	11.70
565.07	14.04
565.23	0.00
565.39	84.26
565.56	86.60
565.72	23.41
565.88	88.94
566.05	39.79
566.21	72.56
566.38	67.88
566.54	58.51
566.70	114.69
566.87	51.49
567.03	42.13
567.19	11.70
567.36	30.43
567.52	28.09
567.68	0.00
567.85	11.70
568.01	70.22
568.17	60.85
568.34	0.00
568.50	74.90
568.66	42.13
568.83	30.43
568.99	91.28
569.15	28.09
569.32	53.83
569.48	28.09
569.64	84.26
569.81	91.28
569.97	95.96
570.13	49.15
570.30	117.03
570.46	28.09
570.62	28.09
570.78	37.45
570.95	23.41
571.11	100.64
571.27	79.58
571.43	32.77
571.60	91.28
571.76	65.54
571.92	14.04
572.09	0.00
572.25	39.79
572.41	65.54
572.57	107.66
572.74	56.17
572.90	53.83
573.06	44.47
573.22	18.72
573.38	91.28
573.55	56.17
573.71	58.51
573.87	86.60
574.03	46.81
574.20	81.92
574.36	0.00
574.52	28.09
574.68	86.60
574.84	25.75
575.01	60.85
575.17	35.11
575.33	51.49
575.49	14.04
575.65	18.72
575.82	39.79
575.98	23.41
576.14	0.00
576.30	23.41
576.46	0.00
576.62	58.51
576.79	138.09
576.95	70.22
577.11	7.02
577.27	81.92
577.43	58.51
577.59	110.01
577.75	0.00
577.92	9.36
578.08	0.00
578.24	28.09
578.40	0.00
578.56	30.43
578.72	93.62
578.88	72.56
579.04	79.58
579.21	16.38
579.37	21.06
579.53	2.34
579.69	28.09
579.85	23.41
580.01	60.85
580.17	30.43
580.33	37.45
580.49	74.90
580.65	0.00
580.82	0.00
580.98	32.77
581.14	88.94
581.30	0.00
581.46	44.47
581.62	14.04
581.78	44.47
581.94	77.24
582.10	93.62
582.26	81.92
582.42	0.00
582.58	49.15
582.74	70.22
582.90	25.75
583.06	46.81
583.22	110.01
583.38	63.19
583.54	18.72
583.70	51.49
583.86	14.04
584.02	30.43
584.18	51.49
584.34	72.56
584.50	70.22
584.66	28.09
584.82	32.77
584.98	70.22
585.14	0.00
585.30	110.01
585.46	84.26
585.62	35.11
585.78	39.79
585.94	88.94
586.10	107.66
586.26	9.36
586.42	60.85
586.58	46.81
586.74	30.43
586.90	105.32
587.06	91.28
587.22	56.17
587.38	58.51
587.54	88.94
587.70	67.88
587.86	86.60
588.02	51.49
588.18	2.34
588.34	86.60
588.49	79.58
588.65	79.58
588.81	23.41
588.97	56.17
589.13	28.09
589.29	0.00
589.45	74.90
589.61	77.24
589.77	56.17
589.93	60.85
590.08	30.43
590.24	49.15
590.40	67.88
590.56	44.47
590.72	77.24
590.88	53.83
591.04	114.69
591.20	51.49
591.35	44.47
591.51	2.34
591.67	37.45
591.83	46.81
591.99	53.83
592.15	91.28
592.31	16.38
592.46	81.92
592.62	0.00
592.78	60.85
592.94	0.00
593.10	14.04
593.26	70.22
593.41	32.77
593.57	0.00
593.73	4.68
593.89	58.51
594.05	42.13
594.20	44.47
594.36	0.00
594.52	98.30
594.68	28.09
594.84	81.92
594.99	72.56
595.15	79.58
595.31	39.79
595.47	28.09
595.62	14.04
595.78	93.62
595.94	44.47
596.10	4.68
596.25	0.00
596.41	51.49
596.57	98.30
596.73	91.28
596.88	51.49
597.04	74.90
597.20	30.43
597.36	0.00
597.51	67.88
597.67	0.00
597.83	70.22
597.99	51.49
598.14	21.06
598.30	51.49
598.46	70.22
598.61	93.62
598.77	14.04
598.93	23.41
599.09	18.72
599.24	88.94
599.40	0.00
599.56	9.36
599.71	37.45
599.87	11.70
600.03	37.45
600.18	0.00
600.34	53.83
600.50	93.62
600.65	79.58
600.81	77.24
600.97	77.24
601.12	65.54
601.28	16.38
601.44	65.54
601.59	98.30
601.75	46.81
601.91	21.06
602.06	14.04
602.22	72.56
602.37	74.90
602.53	23.41
602.69	11.70
602.84	46.81
603.00	7.02
603.16	102.98
603.31	70.22
603.47	51.49
603.62	11.70
603.78	46.81
603.94	0.00
604.09	18.72
604.25	72.56
604.40	46.81
604.56	42.13
604.71	0.00
604.87	81.92
605.03	37.45
605.18	32.77
605.34	42.13
605.49	42.13
605.65	42.13
605.80	63.19
605.96	0.00
606.12	56.17
606.27	77.24
606.43	21.06
606.58	53.83
606.74	53.83
606.89	65.54
607.05	0.00
607.20	11.70
607.36	46.81
607.51	0.00
607.67	2.34
607.82	0.00
607.98	44.47
608.13	21.06
608.29	81.92
608.44	72.56
608.60	0.00
608.75	37.45
608.91	79.58
609.06	60.85
609.22	63.19
609.37	72.56
609.53	58.51
609.68	44.47
609.84	9.36
609.99	86.60
610.15	46.81
610.30	21.06
610.46	0.00
610.61	0.00
610.76	49.15
610.92	37.45
611.07	65.54
611.23	46.81
611.38	46.81
611.54	39.79
611.69	37.45
611.84	0.00
612.00	0.00
612.15	124.05
612.31	30.43
612.46	0.00
612.62	77.24
612.77	25.75
612.92	98.30
613.08	42.13
613.23	0.00
613.39	39.79
613.54	77.24
613.69	28.09
613.85	35.11
614.00	21.06
614.15	11.70
614.31	65.54
614.46	2.34
614.62	18.72
614.77	102.98
614.92	58.51
615.08	65.54
615.23	63.19
615.38	88.94
615.54	95.96
615.69	16.38
615.84	77.24
616.00	84.26
616.15	32.77
616.30	25.75
616.46	37.45
616.61	56.17
616.76	58.51
616.92	32.77
617.07	37.45
617.22	28.09
617.37	81.92
617.53	105.32
617.68	42.13
617.83	46.81
617.99	79.58
618.14	72.56
618.29	77.24
618.45	70.22
618.60	53.83
618.75	74.90
618.90	72.56
619.06	32.77
619.21	79.58
619.36	102.98
619.51	0.00
619.67	51.49
619.82	4.68
619.97	63.19
620.12	63.19
620.28	35.11
620.43	16.38
620.58	63.19
620.73	49.15
620.89	32.77
621.04	72.56
621.19	65.54
621.34	28.09
621.49	0.00
621.65	88.94
621.80	46.81
621.95	72.56
622.10	37.45
622.25	11.70
622.41	67.88
622.56	58.51
622.71	35.11
622.86	18.72
623.01	102.98
623.16	67.88
623.32	35.11
623.47	0.00
623.62	46.81
623.77	39.79
623.92	37.45
624.07	91.28
624.23	25.75
624.38	49.15
624.53	60.85
624.68	30.43
624.83	49.15
624.98	53.83
625.13	2.34
625.29	21.06
625.44	124.05
625.59	49.15
625.74	51.49
625.89	0.00
626.04	65.54
626.19	7.02
626.34	21.06
626.49	79.58
626.65	95.96
626.80	72.56
626.95	32.77
627.10	2.34
627.25	9.36
627.40	0.00
627.55	58.51
627.70	0.00
627.85	74.90
628.00	42.13
628.15	18.72
628.30	70.22
628.45	0.00
628.60	7.02
628.76	51.49
628.91	7.02
629.06	65.54
629.21	58.51
629.36	35.11
629.51	0.00
629.66	7.02
629.81	4.68
629.96	112.35
630.11	72.56
630.26	91.28
630.41	39.79
630.56	81.92
630.71	79.58
630.86	67.88
631.01	16.38
631.16	117.03
631.31	7.02
631.46	21.06
631.61	0.00
631.76	56.17
631.91	42.13
632.06	18.72
632.21	0.00
632.36	49.15
632.51	21.06
632.66	4.68
632.81	14.04
632.96	0.00
633.10	0.00
633.25	0.00
633.40	60.85
633.55	72.56
633.70	16.38
633.85	0.00
634.00	18.72
634.15	0.00
634.30	0.00
634.45	42.13
634.60	60.85
634.75	77.24
634.90	44.47
635.05	56.17
635.19	72.56
635.34	2.34
635.49	53.83
635.64	60.85
635.79	93.62
635.94	84.26
636.09	98.30
636.24	21.06
636.39	28.09
636.53	93.62
636.68	58.51
636.83	11.70
636.98	9.36
637.13	32.77
637.28	0.00
637.43	60.85
637.57	98.30
637.72	0.00
637.87	70.22
638.02	42.13
638.17	107.66
638.32	32.77
638.46	32.77
638.61	56.17
638.76	49.15
638.91	93.62
639.06	72.56
639.20	0.00
639.35	0.00
639.50	30.43
639.65	79.58
639.80	51.49
639.94	51.49
640.09	4.68
640.24	107.66
640.39	7.02
640.54	112.35
640.68	18.72
640.83	46.81
640.98	42.13
641.13	37.45
641.27	28.09
641.42	4.68
641.57	49.15
641.72	51.49
641.86	91.28
642.01	44.47
642.16	16.38
642.31	46.81
642.45	65.54
642.60	84.26
642.75	77.24
642.90	79.58
643.04	42.13
643.19	65.54
643.34	9.36
643.48	56.17
643.63	56.17
643.78	2.34
643.93	9.36
644.07	44.47
644.22	14.04
644.37	28.09
644.51	0.00
644.66	77.24
644.81	28.09
644.95	32.77
645.10	56.17
645.25	37.45
645.39	79.58
645.54	77.24
645.69	70.22
645.83	74.90
645.98	100.64
646.13	0.00
646.27	51.49
646.42	58.51
646.57	0.00
646.71	49.15
646.86	0.00
647.00	30.43
647.15	81.92
647.30	0.00
647.44	7.02
647.59	46.81
647.74	56.17
647.88	53.83
648.03	46.81
648.17	44.47
648.32	28.09
648.47	49.15
648.61	42.13
648.76	16.38
648.90	23.41
649.05	2.34
649.20	25.75
649.34	0.00
649.49	28.09
649.63	51.49
649.78	25.75
649.92	9.36
650.07	58.51
650.21	93.62
650.36	65.54
650.51	37.45
650.65	0.00
650.80	7.02
650.94	44.47
651.09	86.60
651.23	74.90
651.38	77.24
651.52	44.47
651.67	0.00
651.81	37.45
651.96	98.30
652.10	102.98
652.25	7.02
652.39	0.00
652.54	42.13
652.68	16.38
652.83	42.13
652.97	0.00
653.12	0.00
653.26	70.22
653.41	95.96
653.55	37.45
653.70	42.13
653.84	35.11
653.99	56.17
654.13	32.77
654.27	11.70
654.42	49.15
654.56	25.75
654.71	32.77
654.85	35.11
655.00	51.49
655.14	0.00
655.29	7.02
655.43	28.09
655.57	51.49
655.72	0.00
655.86	67.88
656.01	11.70
656.15	28.09
656.30	21.06
656.44	28.09
656.58	0.00
656.73	88.94
656.87	65.54
657.01	74.90
657.16	39.79
657.30	84.26
657.45	44.47
657.59	0.00
657.73	4.68
657.88	18.72
658.02	42.13
658.16	28.09
658.31	7.02
658.45	23.41
658.60	0.00
658.74	86.60
658.88	28.09
659.03	23.41
659.17	0.00
659.31	42.13
659.46	44.47
659.60	35.11
659.74	39.79
659.89	11.70
660.03	70.22
660.17	0.00
660.32	46.81
660.46	49.15
660.60	74.90
660.74	30.43
660.89	119.37
661.03	25.75
661.17	23.41
661.32	0.00
661.46	39.79
661.60	56.17
661.74	4.68
661.89	32.77
662.03	51.49
662.17	39.79
662.31	67.88
662.46	0.00
662.60	9.36
662.74	30.43
662.88	2.34
663.03	0.00
663.17	100.64
663.31	21.06
663.45	0.00
663.60	0.00
663.74	49.15
663.88	21.06
664.02	39.79
664.17	0.00
664.31	0.00
664.45	49.15
664.59	37.45
664.73	42.13
664.88	16.38
665.02	79.58
665.16	53.83
665.30	58.51
665.44	58.51
665.59	0.00
665.73	58.51
665.87	86.60
666.01	65.54
666.15	60.85
666.29	39.79
666.44	88.94
666.58	91.28
666.72	28.09
666.86	88.94
667.00	72.56
667.14	37.45
667.28	39.79
667.43	23.41
667.57	0.00
667.71	42.13
667.85	39.79
667.99	53.83
668.13	42.13
668.27	28.09
668.41	72.56
668.56	74.90
668.70	23.41
668.84	7.02
668.98	0.00
669.12	46.81
669.26	102.98
669.40	70.22
669.54	16.38
669.68	28.09
669.82	23.41
669.96	9.36
670.10	0.00
670.25	65.54
670.39	11.70
670.53	18.72
670.67	46.81
670.81	53.83
670.95	56.17
671.09	21.06
671.23	102.98
671.37	2.34
671.51	51.49
671.65	72.56
671.79	105.32
671.93	28.09
672.07	42.13
672.21	9.36
672.35	42.13
672.49	16.38
672.63	81.92
672.77	35.11
672.91	63.19
673.05	42.13
673.19	25.75
673.33	16.38
673.47	63.19
673.61	100.64
673.75	32.77
673.89	88.94
674.03	2.34
674.17	23.41
674.31	74.90
674.45	11.70
674.59	67.88
674.73	95.96
674.87	42.13
675.01	58.51
675.15	0.00
675.29	0.00
675.43	23.41
675.56	53.83
675.70	100.64
675.84	72.56
675.98	65.54
676.12	0.00
676.26	0.00
676.40	0.00
676.54	56.17
676.68	23.41
676.82	37.45
676.96	84.26
677.10	0.00
677.23	0.00
677.37	95.96
677.51	88.94
677.65	98.30
677.79	77.24
677.93	84.26
678.07	49.15
678.21	28.09
678.34	63.19
678.48	39.79
678.62	124.05
678.76	53.83
678.90	23.41
679.04	0.00
679.18	65.54
679.31	46.81
679.45	18.72
679.59	44.47
679.73	53.83
679.87	28.09
680.00	28.09
680.14	0.00
680.28	51.49
680.42	0.00
680.56	72.56
680.70	35.11
680.83	11.70
680.97	0.00
681.11	100.64
681.25	0.00
681.39	0.00
681.52	44.47
681.66	0.00
681.80	49.15
681.94	0.00
682.07	0.00
682.21	25.75
682.35	44.47
682.49	58.51
682.62	11.70
682.76	0.00
682.90	4.68
683.04	32.77
683.17	23.41
683.31	18.72
683.45	42.13
683.59	7.02
683.72	42.13
683.86	32.77
684.00	0.00
684.13	25.75
684.27	79.58
684.41	0.00
684.55	42.13
684.68	44.47
684.82	0.00
684.96	0.00
685.09	39.79
685.23	42.13
685.37	30.43
685.50	74.90
685.64	65.54
685.78	4.68
685.91	11.70
686.05	39.79
686.19	0.00
686.32	107.66
686.46	46.81
686.60	0.00
686.73	84.26
686.87	21.06
687.01	77.24
687.14	65.54
687.28	49.15
687.42	0.00
687.55	53.83
687.69	9.36
687.82	63.19
687.96	72.56
688.10	16.38
688.23	4.68
688.37	0.00
688.50	42.13
688.64	7.02
688.78	21.06
688.91	53.83
689.05	2.34
689.18	35.11
689.32	25.75
689.46	0.00
689.59	0.00
689.73	30.43
689.86	21.06
690.00	4.68
690.13	58.51
690.27	32.77
690.41	63.19
690.54	0.00
690.68	9.36
690.81	28.09
690.95	105.32
691.08	16.38
691.22	70.22
691.35	23.41
691.49	58.51
691.62	81.92
691.76	23.41
691.89	21.06
692.03	9.36
692.16	0.00
692.30	18.72
692.43	56.17
692.57	0.00
692.70	79.58
692.84	0.00
692.97	4.68
693.11	0.00
693.24	121.71
693.38	84.26
693.51	0.00
693.65	0.00
693.78	70.22
693.92	46.81
694.05	0.00
694.19	4.68
694.32	37.45
694.45	4.68
694.59	37.45
694.72	0.00
694.86	72.56
694.99	46.81
695.13	39.79
695.26	0.00
695.39	0.00
695.53	32.77
695.66	23.41
695.80	72.56
695.93	74.90
696.07	44.47
696.20	46.81
696.33	39.79
696.47	42.13
696.60	91.28
696.73	0.00
696.87	2.34
697.00	4.68
697.14	67.88
697.27	0.00
697.40	60.85
697.54	44.47
697.67	23.41
697.80	23.41
697.94	0.00
698.07	21.06
698.21	79.58
698.34	2.34
698.47	7.02
698.61	0.00
698.74	7.02
698.87	39.79
699.01	44.47
699.14	0.00
699.27	67.88
699.40	42.13
699.54	93.62
699.67	77.24
699.80	42.13
699.94	42.13
700.07	93.62
700.20	79.58
700.34	39.79
700.47	28.09
700.60	79.58
700.73	21.06
700.87	58.51
701.00	11.70
701.13	23.41
701.26	44.47
701.40	0.00
701.53	35.11
701.66	74.90
701.79	98.30
701.93	44.47
702.06	39.79
702.19	65.54
702.32	79.58
702.46	56.17
702.59	0.00
702.72	0.00
702.85	9.36
702.99	11.70
703.12	72.56
703.25	65.54
703.38	0.00
703.51	77.24
703.65	72.56
703.78	51.49
703.91	16.38
704.04	16.38
704.17	25.75
704.31	23.41
704.44	23.41
704.57	7.02
704.70	49.15
704.83	32.77
704.96	49.15
705.10	46.81
705.23	14.04
>>>>>End Processed Spectral Data<<<<<
