SpectraSuite Data File
++++++++++++++++++++++++++++++++++++
Date: Fri Oct 04 12:13:28 GMT-05:00 2013
User: price-jones
Dark Spectrum Present: No
Reference Spectrum Present: No
Number of Sampled Component Spectra: 1
Spectrometers: USB2+H05261
Integration Time (usec): 10000 (USB2+H05261)
Spectra Averaged: 1 (USB2+H05261)
Boxcar Smoothing: 0 (USB2+H05261)
Correct for Electrical Dark: No (USB2+H05261)
Strobe/Lamp Enabled: No (USB2+H05261)
Correct for Detector Non-linearity: No (USB2+H05261)
Correct for Stray Light: No (USB2+H05261)
Number of Pixels in Processed Spectrum: 2048
>>>>>Begin Processed Spectral Data<<<<<
365.73	25.75
365.92	25.75
366.12	25.75
366.32	0.00
366.52	0.00
366.72	0.00
366.91	0.00
367.11	0.00
367.31	0.00
367.51	0.00
367.70	0.00
367.90	0.00
368.10	0.00
368.30	0.00
368.49	0.00
368.69	0.00
368.89	0.00
369.09	0.00
369.28	0.00
369.48	0.00
369.68	0.00
369.87	0.00
370.07	0.00
370.27	0.00
370.47	2.34
370.66	0.00
370.86	0.00
371.06	0.00
371.25	0.00
371.45	0.00
371.65	0.00
371.84	0.00
372.04	2.34
372.24	0.00
372.44	0.00
372.63	7.02
372.83	46.81
373.03	0.00
373.22	14.04
373.42	0.00
373.62	7.02
373.81	42.13
374.01	0.00
374.21	114.69
374.40	42.13
374.60	0.00
374.79	0.00
374.99	0.00
375.19	18.72
375.38	79.58
375.58	37.45
375.78	53.83
375.97	67.88
376.17	9.36
376.37	32.77
376.56	0.00
376.76	56.17
376.95	0.00
377.15	2.34
377.35	0.00
377.54	0.00
377.74	14.04
377.93	16.38
378.13	42.13
378.33	0.00
378.52	42.13
378.72	16.38
378.91	4.68
379.11	23.41
379.31	23.41
379.50	91.28
379.70	9.36
379.89	0.00
380.09	0.00
380.28	18.72
380.48	16.38
380.68	70.22
380.87	9.36
381.07	42.13
381.26	16.38
381.46	30.43
381.65	30.43
381.85	32.77
382.04	39.79
382.24	0.00
382.43	0.00
382.63	0.00
382.83	0.00
383.02	49.15
383.22	51.49
383.41	16.38
383.61	42.13
383.80	44.47
384.00	16.38
384.19	28.09
384.39	4.68
384.58	0.00
384.78	35.11
384.97	67.88
385.17	0.00
385.36	4.68
385.56	53.83
385.75	9.36
385.95	25.75
386.14	21.06
386.34	9.36
386.53	0.00
386.72	0.00
386.92	0.00
387.11	14.04
387.31	39.79
387.50	28.09
387.70	37.45
387.89	16.38
388.09	0.00
388.28	51.49
388.48	18.72
388.67	0.00
388.86	44.47
389.06	70.22
389.25	39.79
389.45	0.00
389.64	21.06
389.84	117.03
390.03	77.24
390.22	46.81
390.42	0.00
390.61	63.19
390.81	53.83
391.00	9.36
391.19	121.71
391.39	4.68
391.58	21.06
391.78	18.72
391.97	32.77
392.16	51.49
392.36	65.54
392.55	32.77
392.75	25.75
392.94	0.00
393.13	74.90
393.33	0.00
393.52	16.38
393.71	0.00
393.91	53.83
394.10	21.06
394.29	35.11
394.49	0.00
394.68	81.92
394.88	0.00
395.07	53.83
395.26	60.85
395.46	28.09
395.65	9.36
395.84	4.68
396.04	9.36
396.23	0.00
396.42	11.70
396.62	39.79
396.81	0.00
397.00	0.00
397.19	0.00
397.39	37.45
397.58	35.11
397.77	35.11
397.97	23.41
398.16	0.00
398.35	37.45
398.55	9.36
398.74	16.38
398.93	37.45
399.12	23.41
399.32	65.54
399.51	0.00
399.70	9.36
399.90	37.45
400.09	0.00
400.28	42.13
400.47	0.00
400.67	0.00
400.86	0.00
401.05	0.00
401.24	39.79
401.44	23.41
401.63	9.36
401.82	0.00
402.01	0.00
402.21	25.75
402.40	60.85
402.59	107.66
402.78	46.81
402.97	51.49
403.17	0.00
403.36	60.85
403.55	37.45
403.74	0.00
403.93	49.15
404.13	28.09
404.32	2.34
404.51	0.00
404.70	14.04
404.89	0.00
405.09	98.30
405.28	49.15
405.47	0.00
405.66	0.00
405.85	16.38
406.05	23.41
406.24	0.00
406.43	44.47
406.62	37.45
406.81	7.02
407.00	16.38
407.20	4.68
407.39	18.72
407.58	0.00
407.77	42.13
407.96	0.00
408.15	0.00
408.34	9.36
408.54	35.11
408.73	74.90
408.92	100.64
409.11	49.15
409.30	56.17
409.49	0.00
409.68	51.49
409.87	18.72
410.07	9.36
410.26	14.04
410.45	18.72
410.64	0.00
410.83	44.47
411.02	42.13
411.21	2.34
411.40	2.34
411.59	39.79
411.78	23.41
411.98	0.00
412.17	11.70
412.36	32.77
412.55	0.00
412.74	25.75
412.93	18.72
413.12	4.68
413.31	0.00
413.50	32.77
413.69	51.49
413.88	60.85
414.07	2.34
414.26	25.75
414.45	44.47
414.64	0.00
414.83	9.36
415.02	46.81
415.22	18.72
415.41	53.83
415.60	21.06
415.79	58.51
415.98	49.15
416.17	11.70
416.36	0.00
416.55	0.00
416.74	58.51
416.93	21.06
417.12	39.79
417.31	65.54
417.50	44.47
417.69	23.41
417.88	37.45
418.07	23.41
418.26	23.41
418.45	30.43
418.64	46.81
418.83	0.00
419.02	16.38
419.21	18.72
419.39	91.28
419.58	25.75
419.77	49.15
419.96	42.13
420.15	16.38
420.34	0.00
420.53	21.06
420.72	25.75
420.91	2.34
421.10	0.00
421.29	16.38
421.48	28.09
421.67	51.49
421.86	28.09
422.05	35.11
422.24	70.22
422.43	0.00
422.61	72.56
422.80	35.11
422.99	105.32
423.18	74.90
423.37	56.17
423.56	0.00
423.75	18.72
423.94	0.00
424.13	18.72
424.32	39.79
424.50	23.41
424.69	21.06
424.88	70.22
425.07	32.77
425.26	28.09
425.45	39.79
425.64	65.54
425.83	21.06
426.01	0.00
426.20	28.09
426.39	44.47
426.58	42.13
426.77	32.77
426.96	37.45
427.15	95.96
427.33	21.06
427.52	18.72
427.71	11.70
427.90	35.11
428.09	0.00
428.28	32.77
428.46	46.81
428.65	37.45
428.84	37.45
429.03	30.43
429.22	0.00
429.40	30.43
429.59	70.22
429.78	28.09
429.97	25.75
430.16	0.00
430.34	18.72
430.53	32.77
430.72	0.00
430.91	0.00
431.10	84.26
431.28	2.34
431.47	46.81
431.66	84.26
431.85	30.43
432.03	16.38
432.22	72.56
432.41	0.00
432.60	53.83
432.79	0.00
432.97	65.54
433.16	44.47
433.35	72.56
433.54	42.13
433.72	11.70
433.91	2.34
434.10	4.68
434.28	58.51
434.47	14.04
434.66	7.02
434.85	11.70
435.03	56.17
435.22	53.83
435.41	51.49
435.59	0.00
435.78	0.00
435.97	28.09
436.16	0.00
436.34	18.72
436.53	11.70
436.72	23.41
436.90	25.75
437.09	39.79
437.28	0.00
437.46	28.09
437.65	9.36
437.84	0.00
438.02	93.62
438.21	63.19
438.40	28.09
438.58	18.72
438.77	93.62
438.96	28.09
439.14	0.00
439.33	56.17
439.52	21.06
439.70	65.54
439.89	37.45
440.08	117.03
440.26	0.00
440.45	44.47
440.63	51.49
440.82	0.00
441.01	79.58
441.19	72.56
441.38	107.66
441.57	0.00
441.75	14.04
441.94	9.36
442.12	107.66
442.31	86.60
442.50	25.75
442.68	32.77
442.87	49.15
443.05	32.77
443.24	42.13
443.43	16.38
443.61	11.70
443.80	32.77
443.98	21.06
444.17	86.60
444.35	0.00
444.54	37.45
444.73	21.06
444.91	0.00
445.10	0.00
445.28	14.04
445.47	0.00
445.65	65.54
445.84	46.81
446.02	0.00
446.21	58.51
446.39	0.00
446.58	53.83
446.77	0.00
446.95	114.69
447.14	58.51
447.32	44.47
447.51	88.94
447.69	51.49
447.88	32.77
448.06	58.51
448.25	51.49
448.43	0.00
448.62	84.26
448.80	65.54
448.99	51.49
449.17	112.35
449.36	32.77
449.54	58.51
449.73	35.11
449.91	25.75
450.10	0.00
450.28	37.45
450.46	2.34
450.65	0.00
450.83	100.64
451.02	67.88
451.20	46.81
451.39	4.68
451.57	4.68
451.76	0.00
451.94	14.04
452.13	0.00
452.31	37.45
452.49	56.17
452.68	0.00
452.86	14.04
453.05	7.02
453.23	60.85
453.42	0.00
453.60	63.19
453.78	18.72
453.97	0.00
454.15	60.85
454.34	58.51
454.52	14.04
454.70	0.00
454.89	0.00
455.07	84.26
455.26	42.13
455.44	46.81
455.62	9.36
455.81	30.43
455.99	65.54
456.17	32.77
456.36	0.00
456.54	58.51
456.73	32.77
456.91	18.72
457.09	44.47
457.28	44.47
457.46	84.26
457.64	53.83
457.83	102.98
458.01	0.00
458.19	0.00
458.38	14.04
458.56	56.17
458.74	14.04
458.93	53.83
459.11	18.72
459.29	9.36
459.48	25.75
459.66	39.79
459.84	28.09
460.03	14.04
460.21	77.24
460.39	0.00
460.57	51.49
460.76	65.54
460.94	70.22
461.12	28.09
461.31	7.02
461.49	93.62
461.67	4.68
461.85	42.13
462.04	9.36
462.22	37.45
462.40	0.00
462.59	88.94
462.77	53.83
462.95	0.00
463.13	0.00
463.32	74.90
463.50	0.00
463.68	44.47
463.86	42.13
464.05	0.00
464.23	32.77
464.41	0.00
464.59	44.47
464.78	32.77
464.96	0.00
465.14	39.79
465.32	0.00
465.50	0.00
465.69	32.77
465.87	14.04
466.05	65.54
466.23	84.26
466.41	16.38
466.60	21.06
466.78	53.83
466.96	63.19
467.14	37.45
467.32	0.00
467.51	30.43
467.69	105.32
467.87	60.85
468.05	21.06
468.23	0.00
468.41	18.72
468.60	35.11
468.78	2.34
468.96	0.00
469.14	93.62
469.32	9.36
469.50	35.11
469.69	25.75
469.87	0.00
470.05	35.11
470.23	7.02
470.41	81.92
470.59	65.54
470.77	28.09
470.95	98.30
471.14	0.00
471.32	0.00
471.50	28.09
471.68	0.00
471.86	77.24
472.04	93.62
472.22	16.38
472.40	18.72
472.58	53.83
472.77	18.72
472.95	0.00
473.13	46.81
473.31	37.45
473.49	46.81
473.67	72.56
473.85	46.81
474.03	58.51
474.21	44.47
474.39	16.38
474.57	0.00
474.75	0.00
474.93	0.00
475.12	77.24
475.30	0.00
475.48	18.72
475.66	37.45
475.84	58.51
476.02	88.94
476.20	77.24
476.38	0.00
476.56	0.00
476.74	70.22
476.92	14.04
477.10	0.00
477.28	23.41
477.46	39.79
477.64	0.00
477.82	39.79
478.00	0.00
478.18	53.83
478.36	37.45
478.54	0.00
478.72	0.00
478.90	18.72
479.08	74.90
479.26	0.00
479.44	4.68
479.62	16.38
479.80	58.51
479.98	51.49
480.16	35.11
480.34	112.35
480.52	46.81
480.70	35.11
480.88	67.88
481.06	0.00
481.24	39.79
481.41	95.96
481.59	72.56
481.77	14.04
481.95	4.68
482.13	53.83
482.31	39.79
482.49	0.00
482.67	46.81
482.85	58.51
483.03	2.34
483.21	88.94
483.39	9.36
483.57	70.22
483.74	65.54
483.92	65.54
484.10	65.54
484.28	42.13
484.46	65.54
484.64	93.62
484.82	56.17
485.00	0.00
485.18	63.19
485.35	86.60
485.53	35.11
485.71	0.00
485.89	60.85
486.07	65.54
486.25	28.09
486.43	0.00
486.61	46.81
486.78	7.02
486.96	30.43
487.14	0.00
487.32	74.90
487.50	18.72
487.68	88.94
487.85	16.38
488.03	11.70
488.21	49.15
488.39	0.00
488.57	0.00
488.75	11.70
488.92	124.05
489.10	0.00
489.28	14.04
489.46	53.83
489.64	16.38
489.81	0.00
489.99	72.56
490.17	11.70
490.35	70.22
490.53	32.77
490.70	91.28
490.88	42.13
491.06	28.09
491.24	53.83
491.41	60.85
491.59	23.41
491.77	46.81
491.95	0.00
492.13	25.75
492.30	81.92
492.48	23.41
492.66	65.54
492.84	49.15
493.01	37.45
493.19	88.94
493.37	81.92
493.54	60.85
493.72	21.06
493.90	81.92
494.08	25.75
494.25	28.09
494.43	131.07
494.61	32.77
494.79	0.00
494.96	18.72
495.14	58.51
495.32	46.81
495.49	93.62
495.67	11.70
495.85	58.51
496.02	0.00
496.20	0.00
496.38	0.00
496.55	67.88
496.73	28.09
496.91	25.75
497.09	58.51
497.26	14.04
497.44	0.00
497.62	7.02
497.79	60.85
497.97	60.85
498.14	4.68
498.32	37.45
498.50	23.41
498.67	46.81
498.85	49.15
499.03	51.49
499.20	14.04
499.38	51.49
499.56	9.36
499.73	79.58
499.91	102.98
500.08	0.00
500.26	0.00
500.44	67.88
500.61	37.45
500.79	30.43
500.97	79.58
501.14	23.41
501.32	67.88
501.49	32.77
501.67	91.28
501.84	107.66
502.02	128.73
502.20	4.68
502.37	70.22
502.55	25.75
502.72	42.13
502.90	28.09
503.07	4.68
503.25	110.01
503.43	49.15
503.60	28.09
503.78	65.54
503.95	32.77
504.13	0.00
504.30	16.38
504.48	42.13
504.65	37.45
504.83	25.75
505.01	0.00
505.18	84.26
505.36	18.72
505.53	51.49
505.71	74.90
505.88	14.04
506.06	0.00
506.23	0.00
506.41	18.72
506.58	88.94
506.76	25.75
506.93	63.19
507.11	63.19
507.28	35.11
507.46	4.68
507.63	67.88
507.81	21.06
507.98	0.00
508.16	4.68
508.33	0.00
508.50	0.00
508.68	60.85
508.85	100.64
509.03	14.04
509.20	0.00
509.38	0.00
509.55	49.15
509.73	9.36
509.90	0.00
510.08	126.39
510.25	58.51
510.42	0.00
510.60	14.04
510.77	18.72
510.95	77.24
511.12	0.00
511.30	18.72
511.47	9.36
511.64	67.88
511.82	46.81
511.99	51.49
512.17	60.85
512.34	37.45
512.51	18.72
512.69	65.54
512.86	60.85
513.04	14.04
513.21	32.77
513.38	16.38
513.56	0.00
513.73	32.77
513.90	0.00
514.08	117.03
514.25	25.75
514.43	53.83
514.60	0.00
514.77	60.85
514.95	0.00
515.12	49.15
515.29	21.06
515.47	7.02
515.64	110.01
515.81	32.77
515.99	74.90
516.16	39.79
516.33	16.38
516.51	32.77
516.68	98.30
516.85	110.01
517.03	53.83
517.20	79.58
517.37	4.68
517.54	159.16
517.72	63.19
517.89	9.36
518.06	39.79
518.24	0.00
518.41	35.11
518.58	4.68
518.75	18.72
518.93	0.00
519.10	9.36
519.27	0.00
519.45	0.00
519.62	0.00
519.79	18.72
519.96	81.92
520.14	0.00
520.31	35.11
520.48	7.02
520.65	86.60
520.83	23.41
521.00	58.51
521.17	0.00
521.34	107.66
521.52	42.13
521.69	84.26
521.86	72.56
522.03	14.04
522.20	88.94
522.38	21.06
522.55	53.83
522.72	16.38
522.89	14.04
523.07	30.43
523.24	88.94
523.41	70.22
523.58	44.47
523.75	30.43
523.92	11.70
524.10	53.83
524.27	135.75
524.44	74.90
524.61	23.41
524.78	102.98
524.96	67.88
525.13	0.00
525.30	46.81
525.47	107.66
525.64	65.54
525.81	14.04
525.98	0.00
526.16	16.38
526.33	77.24
526.50	63.19
526.67	88.94
526.84	18.72
527.01	51.49
527.18	44.47
527.36	88.94
527.53	44.47
527.70	0.00
527.87	42.13
528.04	11.70
528.21	42.13
528.38	105.32
528.55	18.72
528.72	91.28
528.89	72.56
529.07	39.79
529.24	72.56
529.41	56.17
529.58	58.51
529.75	70.22
529.92	42.13
530.09	49.15
530.26	98.30
530.43	11.70
530.60	0.00
530.77	86.60
530.94	23.41
531.11	30.43
531.28	135.75
531.46	51.49
531.63	32.77
531.80	0.00
531.97	30.43
532.14	51.49
532.31	46.81
532.48	18.72
532.65	60.85
532.82	28.09
532.99	121.71
533.16	102.98
533.33	35.11
533.50	91.28
533.67	0.00
533.84	60.85
534.01	58.51
534.18	11.70
534.35	39.79
534.52	46.81
534.69	51.49
534.86	58.51
535.03	37.45
535.20	72.56
535.37	14.04
535.54	84.26
535.71	46.81
535.88	60.85
536.05	35.11
536.22	70.22
536.38	65.54
536.55	28.09
536.72	56.17
536.89	49.15
537.06	21.06
537.23	0.00
537.40	84.26
537.57	70.22
537.74	53.83
537.91	0.00
538.08	35.11
538.25	28.09
538.42	44.47
538.59	16.38
538.75	42.13
538.92	4.68
539.09	60.85
539.26	72.56
539.43	58.51
539.60	138.09
539.77	159.16
539.94	191.92
540.11	93.62
540.28	77.24
540.44	79.58
540.61	49.15
540.78	14.04
540.95	88.94
541.12	77.24
541.29	0.00
541.46	0.00
541.62	60.85
541.79	25.75
541.96	37.45
542.13	28.09
542.30	25.75
542.47	0.00
542.63	58.51
542.80	39.79
542.97	21.06
543.14	0.00
543.31	81.92
543.48	25.75
543.64	58.51
543.81	65.54
543.98	39.79
544.15	35.11
544.32	84.26
544.48	32.77
544.65	0.00
544.82	35.11
544.99	88.94
545.16	39.79
545.32	18.72
545.49	0.00
545.66	32.77
545.83	77.24
546.00	0.00
546.16	0.00
546.33	14.04
546.50	0.00
546.67	60.85
546.83	0.00
547.00	65.54
547.17	0.00
547.34	110.01
547.50	46.81
547.67	51.49
547.84	18.72
548.00	0.00
548.17	51.49
548.34	91.28
548.51	86.60
548.67	46.81
548.84	91.28
549.01	42.13
549.18	79.58
549.34	42.13
549.51	63.19
549.68	49.15
549.84	81.92
550.01	0.00
550.18	53.83
550.34	0.00
550.51	9.36
550.68	49.15
550.84	0.00
551.01	79.58
551.18	11.70
551.34	60.85
551.51	70.22
551.68	9.36
551.84	84.26
552.01	0.00
552.18	0.00
552.34	58.51
552.51	7.02
552.68	30.43
552.84	56.17
553.01	16.38
553.18	0.00
553.34	81.92
553.51	39.79
553.67	35.11
553.84	51.49
554.01	105.32
554.17	88.94
554.34	14.04
554.51	100.64
554.67	46.81
554.84	51.49
555.00	44.47
555.17	72.56
555.33	105.32
555.50	30.43
555.67	112.35
555.83	30.43
556.00	60.85
556.16	79.58
556.33	39.79
556.50	18.72
556.66	14.04
556.83	14.04
556.99	49.15
557.16	77.24
557.32	32.77
557.49	30.43
557.65	53.83
557.82	91.28
557.98	65.54
558.15	0.00
558.32	30.43
558.48	65.54
558.65	14.04
558.81	18.72
558.98	84.26
559.14	16.38
559.31	84.26
559.47	2.34
559.64	133.41
559.80	14.04
559.97	77.24
560.13	91.28
560.30	65.54
560.46	84.26
560.63	0.00
560.79	4.68
560.96	110.01
561.12	37.45
561.29	42.13
561.45	51.49
561.61	67.88
561.78	7.02
561.94	42.13
562.11	56.17
562.27	0.00
562.44	60.85
562.60	74.90
562.77	37.45
562.93	156.82
563.10	74.90
563.26	65.54
563.42	4.68
563.59	67.88
563.75	70.22
563.92	28.09
564.08	95.96
564.24	63.19
564.41	44.47
564.57	53.83
564.74	58.51
564.90	51.49
565.07	37.45
565.23	11.70
565.39	42.13
565.56	23.41
565.72	0.00
565.88	42.13
566.05	0.00
566.21	25.75
566.38	11.70
566.54	37.45
566.70	77.24
566.87	95.96
567.03	21.06
567.19	16.38
567.36	0.00
567.52	67.88
567.68	53.83
567.85	30.43
568.01	74.90
568.17	18.72
568.34	56.17
568.50	100.64
568.66	42.13
568.83	65.54
568.99	56.17
569.15	58.51
569.32	67.88
569.48	63.19
569.64	53.83
569.81	46.81
569.97	46.81
570.13	49.15
570.30	95.96
570.46	21.06
570.62	65.54
570.78	72.56
570.95	0.00
571.11	100.64
571.27	67.88
571.43	21.06
571.60	0.00
571.76	74.90
571.92	7.02
572.09	65.54
572.25	16.38
572.41	58.51
572.57	35.11
572.74	4.68
572.90	2.34
573.06	53.83
573.22	25.75
573.38	102.98
573.55	72.56
573.71	81.92
573.87	0.00
574.03	37.45
574.20	11.70
574.36	105.32
574.52	16.38
574.68	16.38
574.84	70.22
575.01	35.11
575.17	0.00
575.33	114.69
575.49	102.98
575.65	30.43
575.82	49.15
575.98	88.94
576.14	168.52
576.30	77.24
576.46	147.45
576.62	70.22
576.79	100.64
576.95	35.11
577.11	51.49
577.27	58.51
577.43	28.09
577.59	23.41
577.75	91.28
577.92	2.34
578.08	49.15
578.24	98.30
578.40	32.77
578.56	56.17
578.72	102.98
578.88	0.00
579.04	0.00
579.21	35.11
579.37	4.68
579.53	46.81
579.69	102.98
579.85	9.36
580.01	100.64
580.17	91.28
580.33	51.49
580.49	100.64
580.65	0.00
580.82	4.68
580.98	65.54
581.14	95.96
581.30	65.54
581.46	100.64
581.62	72.56
581.78	72.56
581.94	86.60
582.10	91.28
582.26	44.47
582.42	42.13
582.58	42.13
582.74	0.00
582.90	84.26
583.06	88.94
583.22	51.49
583.38	131.07
583.54	102.98
583.70	35.11
583.86	107.66
584.02	114.69
584.18	4.68
584.34	84.26
584.50	425.98
584.66	2623.74
584.82	6424.77
584.98	9371.50
585.14	8446.99
585.30	5046.20
585.46	3183.13
585.62	2115.84
585.78	922.17
585.94	400.23
586.10	175.54
586.26	51.49
586.42	110.01
586.58	79.58
586.74	84.26
586.90	74.90
587.06	77.24
587.22	23.41
587.38	53.83
587.54	79.58
587.70	451.72
587.86	617.90
588.02	622.58
588.18	526.62
588.34	297.25
588.49	238.73
588.65	166.18
588.81	86.60
588.97	77.24
589.13	58.51
589.29	70.22
589.45	77.24
589.61	53.83
589.77	53.83
589.93	44.47
590.08	49.15
590.24	58.51
590.40	77.24
590.56	30.43
590.72	11.70
590.88	67.88
591.04	84.26
591.20	105.32
591.35	42.13
591.51	112.35
591.67	60.85
591.83	16.38
591.99	42.13
592.15	56.17
592.31	42.13
592.46	63.19
592.62	84.26
592.78	46.81
592.94	0.00
593.10	0.00
593.26	46.81
593.41	44.47
593.57	23.41
593.73	100.64
593.89	334.70
594.05	868.34
594.20	1139.84
594.36	1181.97
594.52	751.31
594.68	531.30
594.84	404.91
594.99	196.60
595.15	88.94
595.31	135.75
595.47	44.47
595.62	46.81
595.78	30.43
595.94	86.60
596.10	93.62
596.25	9.36
596.41	77.24
596.57	70.22
596.73	51.49
596.88	32.77
597.04	147.45
597.20	266.82
597.36	344.06
597.51	287.89
597.67	154.48
597.83	105.32
597.99	117.03
598.14	42.13
598.30	0.00
598.46	65.54
598.61	30.43
598.77	95.96
598.93	53.83
599.09	14.04
599.24	79.58
599.40	42.13
599.56	56.17
599.71	110.01
599.87	88.94
600.03	9.36
600.18	9.36
600.34	0.00
600.50	42.13
600.65	35.11
600.81	63.19
600.97	14.04
601.12	23.41
601.28	0.00
601.44	86.60
601.59	128.73
601.75	0.00
601.91	16.38
602.06	25.75
602.22	21.06
602.37	119.37
602.53	184.90
602.69	381.51
602.84	348.74
603.00	264.48
603.16	198.95
603.31	114.69
603.47	110.01
603.62	105.32
603.78	30.43
603.94	7.02
604.09	53.83
604.25	28.09
604.40	21.06
604.56	23.41
604.71	30.43
604.87	0.00
605.03	56.17
605.18	74.90
605.34	0.00
605.49	32.77
605.65	72.56
605.80	35.11
605.96	49.15
606.12	23.41
606.27	51.49
606.43	0.00
606.58	65.54
606.74	25.75
606.89	468.11
607.05	758.33
607.20	1029.84
607.36	877.70
607.51	645.99
607.67	381.51
607.82	332.36
607.98	93.62
608.13	63.19
608.29	30.43
608.44	51.49
608.60	63.19
608.75	44.47
608.91	145.11
609.06	645.99
609.22	1296.66
609.37	1724.97
609.53	1556.46
609.68	1020.47
609.84	638.97
609.99	482.15
610.15	191.92
610.30	114.69
610.46	49.15
610.61	110.01
610.76	23.41
610.92	102.98
611.07	37.45
611.23	46.81
611.38	16.38
611.54	0.00
611.69	25.75
611.84	63.19
612.00	11.70
612.15	65.54
612.31	32.77
612.46	72.56
612.62	72.56
612.77	72.56
612.92	11.70
613.08	65.54
613.23	37.45
613.39	60.85
613.54	117.03
613.69	559.39
613.85	1600.93
614.00	2551.18
614.15	2726.72
614.31	1895.83
614.46	1226.44
614.62	887.06
614.77	447.04
614.92	245.76
615.08	161.50
615.23	79.58
615.38	98.30
615.54	74.90
615.69	107.66
615.84	388.53
616.00	545.34
616.15	660.03
616.30	587.47
616.46	414.27
616.61	264.48
616.76	198.95
616.92	198.95
617.07	147.45
617.22	49.15
617.37	117.03
617.53	114.69
617.68	117.03
617.83	39.79
617.99	32.77
618.14	51.49
618.29	0.00
618.45	42.13
618.60	11.70
618.75	7.02
618.90	25.75
619.06	81.92
619.21	147.45
619.36	65.54
619.51	102.98
619.67	124.05
619.82	37.45
619.97	4.68
620.12	0.00
620.28	0.00
620.43	0.00
620.58	23.41
620.73	49.15
620.89	51.49
621.04	14.04
621.19	163.84
621.34	402.57
621.49	463.43
621.65	287.89
621.80	269.16
621.95	243.42
622.10	147.45
622.25	112.35
622.41	11.70
622.56	39.79
622.71	46.81
622.86	18.72
623.01	21.06
623.16	93.62
623.32	46.81
623.47	91.28
623.62	28.09
623.77	42.13
623.92	74.90
624.07	0.00
624.23	32.77
624.38	7.02
624.53	95.96
624.68	0.00
624.83	88.94
624.98	49.15
625.13	107.66
625.29	67.88
625.44	25.75
625.59	9.36
625.74	95.96
625.89	86.60
626.04	301.93
626.19	718.54
626.34	1331.76
626.49	1502.62
626.65	1132.82
626.80	648.33
626.95	538.32
627.10	362.78
627.25	182.56
627.40	88.94
627.55	100.64
627.70	25.75
627.85	117.03
628.00	84.26
628.15	4.68
628.30	60.85
628.45	30.43
628.60	2.34
628.76	53.83
628.91	72.56
629.06	14.04
629.21	28.09
629.36	7.02
629.51	9.36
629.66	72.56
629.81	95.96
629.96	98.30
630.11	280.86
630.26	379.17
630.41	390.87
630.56	250.44
630.71	196.60
630.86	154.48
631.01	140.43
631.16	11.70
631.31	58.51
631.46	56.17
631.61	39.79
631.76	88.94
631.91	98.30
632.06	0.00
632.21	67.88
632.36	105.32
632.51	70.22
632.66	56.17
632.81	117.03
632.96	552.37
633.10	795.78
633.25	1078.99
633.40	861.32
633.55	585.13
633.70	393.21
633.85	294.91
634.00	201.29
634.15	95.96
634.30	51.49
634.45	86.60
634.60	39.79
634.75	93.62
634.90	49.15
635.05	4.68
635.19	44.47
635.34	0.00
635.49	0.00
635.64	35.11
635.79	46.81
635.94	14.04
636.09	84.26
636.24	49.15
636.39	23.41
636.53	46.81
636.68	0.00
636.83	79.58
636.98	98.30
637.13	128.73
637.28	58.51
637.43	0.00
637.57	18.72
637.72	411.93
637.87	1041.54
638.02	1577.52
638.17	1879.45
638.32	1371.55
638.46	898.77
638.61	603.86
638.76	355.76
638.91	231.71
639.06	133.41
639.20	124.05
639.35	70.22
639.50	131.07
639.65	610.88
639.80	1652.42
639.94	2616.72
640.09	2860.13
640.24	2085.42
640.39	1411.34
640.54	1001.75
640.68	601.52
640.83	283.20
640.98	77.24
641.13	95.96
641.27	88.94
641.42	67.88
641.57	14.04
641.72	39.79
641.86	70.22
642.01	37.45
642.16	93.62
642.31	74.90
642.45	11.70
642.60	39.79
642.75	9.36
642.90	0.00
643.04	35.11
643.19	11.70
643.34	0.00
643.48	0.00
643.63	42.13
643.78	0.00
643.93	67.88
644.07	51.49
644.22	18.72
644.37	56.17
644.51	46.81
644.66	46.81
644.81	77.24
644.95	51.49
645.10	74.90
645.25	25.75
645.39	67.88
645.54	117.03
645.69	0.00
645.83	81.92
645.98	63.19
646.13	32.77
646.27	67.88
646.42	0.00
646.57	35.11
646.71	25.75
646.86	0.00
647.00	0.00
647.15	0.00
647.30	18.72
647.44	18.72
647.59	49.15
647.74	16.38
647.88	11.70
648.03	0.00
648.17	18.72
648.32	58.51
648.47	25.75
648.61	126.39
648.76	0.00
648.90	21.06
649.05	30.43
649.20	16.38
649.34	28.09
649.49	39.79
649.63	23.41
649.78	112.35
649.92	95.96
650.07	243.42
650.21	765.36
650.36	1348.15
650.51	1437.09
650.65	1362.19
650.80	828.55
650.94	559.39
651.09	397.89
651.23	212.99
651.38	175.54
651.52	0.00
651.67	30.43
651.81	18.72
651.96	23.41
652.10	117.03
652.25	79.58
652.39	53.83
652.54	140.43
652.68	88.94
652.83	234.05
652.97	409.59
653.12	547.69
653.26	514.92
653.41	390.87
653.55	217.67
653.70	147.45
653.84	60.85
653.99	91.28
654.13	23.41
654.27	77.24
654.42	30.43
654.56	4.68
654.71	0.00
654.85	32.77
655.00	63.19
655.14	60.85
655.29	18.72
655.43	74.90
655.57	67.88
655.72	58.51
655.86	14.04
656.01	18.72
656.15	18.72
656.30	7.02
656.44	93.62
656.58	84.26
656.73	77.24
656.87	18.72
657.01	81.92
657.16	16.38
657.30	58.51
657.45	49.15
657.59	58.51
657.73	42.13
657.88	46.81
658.02	91.28
658.16	37.45
658.31	21.06
658.45	53.83
658.60	51.49
658.74	32.77
658.88	0.00
659.03	30.43
659.17	95.96
659.31	86.60
659.46	358.10
659.60	552.37
659.74	744.29
659.89	671.73
660.03	533.64
660.17	301.93
660.32	210.65
660.46	163.84
660.60	98.30
660.74	51.49
660.89	35.11
661.03	121.71
661.17	0.00
661.32	56.17
661.46	81.92
661.60	0.00
661.74	51.49
661.89	67.88
662.03	0.00
662.17	0.00
662.31	4.68
662.46	30.43
662.60	58.51
662.74	67.88
662.88	86.60
663.03	67.88
663.17	81.92
663.31	98.30
663.45	58.51
663.60	21.06
663.74	25.75
663.88	0.00
664.02	28.09
664.17	88.94
664.31	28.09
664.45	0.00
664.59	0.00
664.73	21.06
664.88	21.06
665.02	7.02
665.16	46.81
665.30	65.54
665.44	100.64
665.59	28.09
665.73	0.00
665.87	0.00
666.01	32.77
666.15	0.00
666.29	4.68
666.44	4.68
666.58	88.94
666.72	56.17
666.86	32.77
667.00	46.81
667.14	77.24
667.28	234.05
667.43	617.90
667.57	987.71
667.71	1357.51
667.85	1193.67
667.99	840.25
668.13	517.26
668.27	318.31
668.41	161.50
668.56	105.32
668.70	102.98
668.84	135.75
668.98	67.88
669.12	72.56
669.26	11.70
669.40	58.51
669.54	79.58
669.68	7.02
669.82	79.58
669.96	2.34
670.10	30.43
670.25	86.60
670.39	88.94
670.53	70.22
670.67	44.47
670.81	49.15
670.95	56.17
671.09	102.98
671.23	278.52
671.37	491.51
671.51	809.83
671.65	894.08
671.79	695.14
671.93	411.93
672.07	250.44
672.21	189.58
672.35	133.41
672.49	81.92
672.63	102.98
672.77	16.38
672.91	74.90
673.05	16.38
673.19	49.15
673.33	14.04
673.47	4.68
673.61	56.17
673.75	0.00
673.89	0.00
674.03	35.11
674.17	77.24
674.31	0.00
674.45	14.04
674.59	44.47
674.73	0.00
674.87	37.45
675.01	2.34
675.15	0.00
675.29	53.83
675.43	56.17
675.56	30.43
675.70	32.77
675.84	0.00
675.98	16.38
676.12	0.00
676.26	56.17
676.40	2.34
676.54	86.60
676.68	30.43
676.82	67.88
676.96	42.13
677.10	60.85
677.23	32.77
677.37	67.88
677.51	84.26
677.65	67.88
677.79	30.43
677.93	4.68
678.07	28.09
678.21	67.88
678.34	81.92
678.48	117.03
678.62	0.00
678.76	58.51
678.90	7.02
679.04	30.43
679.18	14.04
679.31	2.34
679.45	0.00
679.59	14.04
679.73	25.75
679.87	0.00
680.00	72.56
680.14	0.00
680.28	70.22
680.42	77.24
680.56	16.38
680.70	2.34
680.83	37.45
680.97	14.04
681.11	102.98
681.25	53.83
681.39	60.85
681.52	114.69
681.66	79.58
681.80	56.17
681.94	0.00
682.07	35.11
682.21	37.45
682.35	37.45
682.49	7.02
682.62	25.75
682.76	7.02
682.90	4.68
683.04	14.04
683.17	77.24
683.31	121.71
683.45	63.19
683.59	35.11
683.72	79.58
683.86	46.81
684.00	35.11
684.13	14.04
684.27	0.00
684.41	60.85
684.55	0.00
684.68	53.83
684.82	56.17
684.96	72.56
685.09	28.09
685.23	25.75
685.37	32.77
685.50	42.13
685.64	11.70
685.78	53.83
685.91	0.00
686.05	79.58
686.19	79.58
686.32	0.00
686.46	60.85
686.60	0.00
686.73	79.58
686.87	74.90
687.01	56.17
687.14	79.58
687.28	0.00
687.42	84.26
687.55	7.02
687.69	77.24
687.82	30.43
687.96	46.81
688.10	0.00
688.23	51.49
688.37	65.54
688.50	46.81
688.64	0.00
688.78	18.72
688.91	102.98
689.05	0.00
689.18	23.41
689.32	51.49
689.46	0.00
689.59	81.92
689.73	44.47
689.86	77.24
690.00	35.11
690.13	65.54
690.27	46.81
690.41	0.00
690.54	23.41
690.68	60.85
690.81	0.00
690.95	51.49
691.08	119.37
691.22	84.26
691.35	0.00
691.49	18.72
691.62	84.26
691.76	72.56
691.89	39.79
692.03	86.60
692.16	56.17
692.30	2.34
692.43	65.54
692.57	231.71
692.70	390.87
692.84	507.90
692.97	514.92
693.11	381.51
693.24	315.97
693.38	217.67
693.51	133.41
693.65	58.51
693.78	35.11
693.92	49.15
694.05	32.77
694.19	30.43
694.32	30.43
694.45	46.81
694.59	39.79
694.72	0.00
694.86	21.06
694.99	0.00
695.13	32.77
695.26	30.43
695.39	0.00
695.53	56.17
695.66	25.75
695.80	70.22
695.93	37.45
696.07	58.51
696.20	0.00
696.33	93.62
696.47	67.88
696.60	28.09
696.73	67.88
696.87	23.41
697.00	0.00
697.14	0.00
697.27	21.06
697.40	60.85
697.54	77.24
697.67	53.83
697.80	0.00
697.94	49.15
698.07	30.43
698.21	32.77
698.34	25.75
698.47	0.00
698.61	25.75
698.74	58.51
698.87	2.34
699.01	51.49
699.14	0.00
699.27	23.41
699.40	91.28
699.54	53.83
699.67	18.72
699.80	0.00
699.94	119.37
700.07	9.36
700.20	140.43
700.34	63.19
700.47	0.00
700.60	98.30
700.73	63.19
700.87	0.00
701.00	0.00
701.13	9.36
701.26	16.38
701.40	18.72
701.53	67.88
701.66	39.79
701.79	21.06
701.93	11.70
702.06	44.47
702.19	30.43
702.32	60.85
702.46	110.01
702.59	37.45
702.72	121.71
702.85	304.27
702.99	737.27
703.12	1029.84
703.25	1125.80
703.38	985.37
703.51	777.06
703.65	573.43
703.78	400.23
703.91	208.31
704.04	194.26
704.17	205.97
704.31	44.47
704.44	9.36
704.57	100.64
704.70	4.68
704.83	0.00
704.96	25.75
705.10	0.00
705.23	39.79
>>>>>End Processed Spectral Data<<<<<
