SpectraSuite Data File
++++++++++++++++++++++++++++++++++++
Date: Fri Oct 04 12:13:41 GMT-05:00 2013
User: price-jones
Dark Spectrum Present: No
Reference Spectrum Present: No
Number of Sampled Component Spectra: 1
Spectrometers: USB2+H05261
Integration Time (usec): 10000 (USB2+H05261)
Spectra Averaged: 1 (USB2+H05261)
Boxcar Smoothing: 0 (USB2+H05261)
Correct for Electrical Dark: No (USB2+H05261)
Strobe/Lamp Enabled: No (USB2+H05261)
Correct for Detector Non-linearity: No (USB2+H05261)
Correct for Stray Light: No (USB2+H05261)
Number of Pixels in Processed Spectrum: 2048
>>>>>Begin Processed Spectral Data<<<<<
365.73	16.38
365.92	16.38
366.12	16.38
366.32	0.00
366.52	0.00
366.72	0.00
366.91	0.00
367.11	0.00
367.31	0.00
367.51	0.00
367.70	0.00
367.90	0.00
368.10	0.00
368.30	0.00
368.49	0.00
368.69	0.00
368.89	0.00
369.09	0.00
369.28	0.00
369.48	0.00
369.68	0.00
369.87	0.00
370.07	0.00
370.27	0.00
370.47	0.00
370.66	0.00
370.86	0.00
371.06	0.00
371.25	14.04
371.45	0.00
371.65	0.00
371.84	23.41
372.04	0.00
372.24	11.70
372.44	9.36
372.63	35.11
372.83	7.02
373.03	0.00
373.22	0.00
373.42	9.36
373.62	91.28
373.81	81.92
374.01	60.85
374.21	53.83
374.40	23.41
374.60	32.77
374.79	16.38
374.99	42.13
375.19	21.06
375.38	2.34
375.58	56.17
375.78	95.96
375.97	70.22
376.17	51.49
376.37	53.83
376.56	42.13
376.76	0.00
376.95	30.43
377.15	14.04
377.35	65.54
377.54	35.11
377.74	46.81
377.93	0.00
378.13	74.90
378.33	18.72
378.52	25.75
378.72	42.13
378.91	14.04
379.11	30.43
379.31	0.00
379.50	0.00
379.70	21.06
379.89	14.04
380.09	0.00
380.28	0.00
380.48	11.70
380.68	0.00
380.87	0.00
381.07	35.11
381.26	0.00
381.46	81.92
381.65	0.00
381.85	32.77
382.04	0.00
382.24	44.47
382.43	72.56
382.63	21.06
382.83	0.00
383.02	14.04
383.22	0.00
383.41	11.70
383.61	44.47
383.80	42.13
384.00	0.00
384.19	32.77
384.39	77.24
384.58	23.41
384.78	4.68
384.97	2.34
385.17	0.00
385.36	0.00
385.56	65.54
385.75	46.81
385.95	0.00
386.14	53.83
386.34	0.00
386.53	0.00
386.72	14.04
386.92	4.68
387.11	0.00
387.31	0.00
387.50	49.15
387.70	91.28
387.89	0.00
388.09	60.85
388.28	21.06
388.48	51.49
388.67	46.81
388.86	0.00
389.06	28.09
389.25	72.56
389.45	79.58
389.64	70.22
389.84	58.51
390.03	93.62
390.22	70.22
390.42	56.17
390.61	9.36
390.81	28.09
391.00	53.83
391.19	0.00
391.39	35.11
391.58	35.11
391.78	65.54
391.97	56.17
392.16	49.15
392.36	32.77
392.55	23.41
392.75	0.00
392.94	88.94
393.13	0.00
393.33	60.85
393.52	0.00
393.71	65.54
393.91	37.45
394.10	42.13
394.29	42.13
394.49	7.02
394.68	14.04
394.88	28.09
395.07	60.85
395.26	0.00
395.46	72.56
395.65	56.17
395.84	60.85
396.04	25.75
396.23	39.79
396.42	0.00
396.62	9.36
396.81	0.00
397.00	14.04
397.19	98.30
397.39	46.81
397.58	0.00
397.77	42.13
397.97	28.09
398.16	11.70
398.35	0.00
398.55	65.54
398.74	35.11
398.93	46.81
399.12	58.51
399.32	21.06
399.51	49.15
399.70	16.38
399.90	51.49
400.09	74.90
400.28	0.00
400.47	0.00
400.67	0.00
400.86	72.56
401.05	51.49
401.24	16.38
401.44	79.58
401.63	25.75
401.82	58.51
402.01	44.47
402.21	79.58
402.40	0.00
402.59	18.72
402.78	14.04
402.97	32.77
403.17	74.90
403.36	32.77
403.55	0.00
403.74	0.00
403.93	44.47
404.13	105.32
404.32	0.00
404.51	35.11
404.70	0.00
404.89	46.81
405.09	39.79
405.28	56.17
405.47	42.13
405.66	0.00
405.85	49.15
406.05	21.06
406.24	0.00
406.43	0.00
406.62	35.11
406.81	16.38
407.00	30.43
407.20	14.04
407.39	23.41
407.58	0.00
407.77	0.00
407.96	16.38
408.15	110.01
408.34	79.58
408.54	25.75
408.73	0.00
408.92	7.02
409.11	72.56
409.30	49.15
409.49	49.15
409.68	53.83
409.87	63.19
410.07	49.15
410.26	46.81
410.45	30.43
410.64	53.83
410.83	100.64
411.02	18.72
411.21	58.51
411.40	51.49
411.59	35.11
411.78	42.13
411.98	25.75
412.17	7.02
412.36	56.17
412.55	49.15
412.74	16.38
412.93	49.15
413.12	16.38
413.31	0.00
413.50	88.94
413.69	88.94
413.88	0.00
414.07	51.49
414.26	9.36
414.45	93.62
414.64	81.92
414.83	32.77
415.02	32.77
415.22	95.96
415.41	2.34
415.60	11.70
415.79	53.83
415.98	51.49
416.17	42.13
416.36	51.49
416.55	2.34
416.74	86.60
416.93	2.34
417.12	98.30
417.31	91.28
417.50	16.38
417.69	25.75
417.88	70.22
418.07	56.17
418.26	0.00
418.45	56.17
418.64	0.00
418.83	4.68
419.02	14.04
419.21	0.00
419.39	72.56
419.58	93.62
419.77	49.15
419.96	56.17
420.15	63.19
420.34	67.88
420.53	35.11
420.72	67.88
420.91	65.54
421.10	4.68
421.29	46.81
421.48	25.75
421.67	25.75
421.86	0.00
422.05	0.00
422.24	63.19
422.43	112.35
422.61	39.79
422.80	37.45
422.99	56.17
423.18	65.54
423.37	74.90
423.56	16.38
423.75	42.13
423.94	67.88
424.13	77.24
424.32	18.72
424.50	37.45
424.69	28.09
424.88	0.00
425.07	72.56
425.26	152.13
425.45	18.72
425.64	46.81
425.83	74.90
426.01	56.17
426.20	0.00
426.39	65.54
426.58	70.22
426.77	65.54
426.96	100.64
427.15	35.11
427.33	23.41
427.52	11.70
427.71	56.17
427.90	0.00
428.09	0.00
428.28	25.75
428.46	23.41
428.65	0.00
428.84	0.00
429.03	79.58
429.22	30.43
429.40	0.00
429.59	42.13
429.78	0.00
429.97	70.22
430.16	37.45
430.34	79.58
430.53	42.13
430.72	21.06
430.91	23.41
431.10	23.41
431.28	0.00
431.47	28.09
431.66	0.00
431.85	30.43
432.03	49.15
432.22	65.54
432.41	49.15
432.60	65.54
432.79	65.54
432.97	145.11
433.16	88.94
433.35	88.94
433.54	95.96
433.72	58.51
433.91	0.00
434.10	56.17
434.28	74.90
434.47	161.50
434.66	77.24
434.85	35.11
435.03	51.49
435.22	7.02
435.41	46.81
435.59	72.56
435.78	37.45
435.97	95.96
436.16	16.38
436.34	124.05
436.53	28.09
436.72	67.88
436.90	51.49
437.09	0.00
437.28	77.24
437.46	124.05
437.65	67.88
437.84	67.88
438.02	46.81
438.21	79.58
438.40	30.43
438.58	37.45
438.77	44.47
438.96	124.05
439.14	30.43
439.33	18.72
439.52	86.60
439.70	126.39
439.89	18.72
440.08	58.51
440.26	79.58
440.45	14.04
440.63	65.54
440.82	86.60
441.01	32.77
441.19	39.79
441.38	60.85
441.57	35.11
441.75	77.24
441.94	23.41
442.12	70.22
442.31	63.19
442.50	0.00
442.68	60.85
442.87	35.11
443.05	42.13
443.24	28.09
443.43	44.47
443.61	39.79
443.80	11.70
443.98	102.98
444.17	51.49
444.35	65.54
444.54	49.15
444.73	67.88
444.91	44.47
445.10	70.22
445.28	25.75
445.47	56.17
445.65	39.79
445.84	72.56
446.02	18.72
446.21	72.56
446.39	86.60
446.58	51.49
446.77	63.19
446.95	65.54
447.14	100.64
447.32	77.24
447.51	11.70
447.69	39.79
447.88	44.47
448.06	65.54
448.25	72.56
448.43	81.92
448.62	56.17
448.80	0.00
448.99	60.85
449.17	102.98
449.36	60.85
449.54	91.28
449.73	46.81
449.91	84.26
450.10	58.51
450.28	25.75
450.46	0.00
450.65	74.90
450.83	23.41
451.02	67.88
451.20	74.90
451.39	51.49
451.57	2.34
451.76	23.41
451.94	95.96
452.13	51.49
452.31	0.00
452.49	46.81
452.68	37.45
452.86	39.79
453.05	39.79
453.23	0.00
453.42	0.00
453.60	77.24
453.78	72.56
453.97	0.00
454.15	67.88
454.34	88.94
454.52	93.62
454.70	93.62
454.89	0.00
455.07	30.43
455.26	2.34
455.44	91.28
455.62	128.73
455.81	18.72
455.99	2.34
456.17	0.00
456.36	84.26
456.54	25.75
456.73	0.00
456.91	37.45
457.09	60.85
457.28	65.54
457.46	60.85
457.64	58.51
457.83	35.11
458.01	9.36
458.19	28.09
458.38	46.81
458.56	9.36
458.74	32.77
458.93	58.51
459.11	67.88
459.29	37.45
459.48	49.15
459.66	56.17
459.84	114.69
460.03	72.56
460.21	119.37
460.39	65.54
460.57	65.54
460.76	98.30
460.94	156.82
461.12	14.04
461.31	42.13
461.49	39.79
461.67	44.47
461.85	51.49
462.04	21.06
462.22	77.24
462.40	0.00
462.59	35.11
462.77	51.49
462.95	142.77
463.13	112.35
463.32	81.92
463.50	0.00
463.68	72.56
463.86	114.69
464.05	100.64
464.23	21.06
464.41	30.43
464.59	46.81
464.78	25.75
464.96	39.79
465.14	88.94
465.32	65.54
465.50	0.00
465.69	112.35
465.87	79.58
466.05	67.88
466.23	81.92
466.41	88.94
466.60	0.00
466.78	23.41
466.96	70.22
467.14	21.06
467.32	56.17
467.51	93.62
467.69	51.49
467.87	124.05
468.05	14.04
468.23	98.30
468.41	0.00
468.60	100.64
468.78	91.28
468.96	168.52
469.14	25.75
469.32	88.94
469.50	39.79
469.69	63.19
469.87	65.54
470.05	28.09
470.23	7.02
470.41	0.00
470.59	0.00
470.77	4.68
470.95	21.06
471.14	100.64
471.32	65.54
471.50	30.43
471.68	51.49
471.86	4.68
472.04	51.49
472.22	42.13
472.40	72.56
472.58	0.00
472.77	11.70
472.95	32.77
473.13	14.04
473.31	49.15
473.49	42.13
473.67	70.22
473.85	37.45
474.03	46.81
474.21	30.43
474.39	37.45
474.57	88.94
474.75	16.38
474.93	23.41
475.12	0.00
475.30	25.75
475.48	49.15
475.66	79.58
475.84	72.56
476.02	91.28
476.20	2.34
476.38	98.30
476.56	105.32
476.74	105.32
476.92	88.94
477.10	67.88
477.28	65.54
477.46	102.98
477.64	93.62
477.82	84.26
478.00	49.15
478.18	14.04
478.36	112.35
478.54	102.98
478.72	32.77
478.90	67.88
479.08	42.13
479.26	44.47
479.44	72.56
479.62	0.00
479.80	42.13
479.98	79.58
480.16	18.72
480.34	100.64
480.52	58.51
480.70	77.24
480.88	81.92
481.06	37.45
481.24	65.54
481.41	35.11
481.59	88.94
481.77	72.56
481.95	70.22
482.13	100.64
482.31	117.03
482.49	56.17
482.67	58.51
482.85	114.69
483.03	25.75
483.21	37.45
483.39	51.49
483.57	65.54
483.74	58.51
483.92	65.54
484.10	0.00
484.28	117.03
484.46	84.26
484.64	32.77
484.82	32.77
485.00	32.77
485.18	112.35
485.35	135.75
485.53	42.13
485.71	79.58
485.89	91.28
486.07	79.58
486.25	77.24
486.43	53.83
486.61	39.79
486.78	42.13
486.96	100.64
487.14	30.43
487.32	112.35
487.50	117.03
487.68	65.54
487.85	100.64
488.03	114.69
488.21	93.62
488.39	84.26
488.57	25.75
488.75	37.45
488.92	170.86
489.10	37.45
489.28	81.92
489.46	44.47
489.64	107.66
489.81	145.11
489.99	30.43
490.17	28.09
490.35	58.51
490.53	53.83
490.70	32.77
490.88	39.79
491.06	131.07
491.24	98.30
491.41	63.19
491.59	32.77
491.77	72.56
491.95	39.79
492.13	51.49
492.30	18.72
492.48	30.43
492.66	79.58
492.84	16.38
493.01	70.22
493.19	147.45
493.37	16.38
493.54	79.58
493.72	58.51
493.90	0.00
494.08	49.15
494.25	70.22
494.43	46.81
494.61	53.83
494.79	0.00
494.96	51.49
495.14	49.15
495.32	74.90
495.49	91.28
495.67	93.62
495.85	145.11
496.02	91.28
496.20	53.83
496.38	49.15
496.55	107.66
496.73	67.88
496.91	0.00
497.09	46.81
497.26	95.96
497.44	21.06
497.62	32.77
497.79	98.30
497.97	65.54
498.14	44.47
498.32	112.35
498.50	98.30
498.67	100.64
498.85	126.39
499.03	32.77
499.20	53.83
499.38	81.92
499.56	53.83
499.73	53.83
499.91	4.68
500.08	119.37
500.26	105.32
500.44	65.54
500.61	91.28
500.79	35.11
500.97	56.17
501.14	121.71
501.32	25.75
501.49	91.28
501.67	44.47
501.84	32.77
502.02	44.47
502.20	98.30
502.37	67.88
502.55	67.88
502.72	60.85
502.90	88.94
503.07	86.60
503.25	74.90
503.43	117.03
503.60	88.94
503.78	79.58
503.95	107.66
504.13	102.98
504.30	70.22
504.48	72.56
504.65	79.58
504.83	95.96
505.01	112.35
505.18	60.85
505.36	140.43
505.53	53.83
505.71	105.32
505.88	42.13
506.06	0.00
506.23	53.83
506.41	30.43
506.58	119.37
506.76	86.60
506.93	117.03
507.11	140.43
507.28	70.22
507.46	74.90
507.63	126.39
507.81	53.83
507.98	56.17
508.16	77.24
508.33	51.49
508.50	93.62
508.68	81.92
508.85	81.92
509.03	84.26
509.20	93.62
509.38	88.94
509.55	44.47
509.73	119.37
509.90	102.98
510.08	91.28
510.25	60.85
510.42	63.19
510.60	133.41
510.77	51.49
510.95	142.77
511.12	4.68
511.30	49.15
511.47	53.83
511.64	35.11
511.82	51.49
511.99	44.47
512.17	117.03
512.34	79.58
512.51	135.75
512.69	114.69
512.86	72.56
513.04	112.35
513.21	77.24
513.38	119.37
513.56	112.35
513.73	79.58
513.90	110.01
514.08	91.28
514.25	86.60
514.43	42.13
514.60	23.41
514.77	175.54
514.95	63.19
515.12	79.58
515.29	156.82
515.47	100.64
515.64	51.49
515.81	84.26
515.99	70.22
516.16	117.03
516.33	53.83
516.51	93.62
516.68	53.83
516.85	77.24
517.03	63.19
517.20	112.35
517.37	88.94
517.54	70.22
517.72	51.49
517.89	46.81
518.06	79.58
518.24	84.26
518.41	65.54
518.58	79.58
518.75	49.15
518.93	46.81
519.10	81.92
519.27	70.22
519.45	79.58
519.62	74.90
519.79	86.60
519.96	9.36
520.14	77.24
520.31	53.83
520.48	7.02
520.65	51.49
520.83	74.90
521.00	100.64
521.17	79.58
521.34	86.60
521.52	0.00
521.69	63.19
521.86	49.15
522.03	46.81
522.20	88.94
522.38	110.01
522.55	117.03
522.72	128.73
522.89	126.39
523.07	39.79
523.24	70.22
523.41	70.22
523.58	98.30
523.75	140.43
523.92	32.77
524.10	58.51
524.27	46.81
524.44	28.09
524.61	77.24
524.78	49.15
524.96	98.30
525.13	138.09
525.30	74.90
525.47	60.85
525.64	67.88
525.81	51.49
525.98	112.35
526.16	102.98
526.33	81.92
526.50	121.71
526.67	84.26
526.84	74.90
527.01	51.49
527.18	128.73
527.36	110.01
527.53	119.37
527.70	105.32
527.87	84.26
528.04	37.45
528.21	93.62
528.38	23.41
528.55	39.79
528.72	86.60
528.89	56.17
529.07	93.62
529.24	152.13
529.41	32.77
529.58	112.35
529.75	65.54
529.92	110.01
530.09	98.30
530.26	53.83
530.43	147.45
530.60	110.01
530.77	107.66
530.94	100.64
531.11	70.22
531.28	51.49
531.46	70.22
531.63	152.13
531.80	140.43
531.97	112.35
532.14	86.60
532.31	53.83
532.48	14.04
532.65	95.96
532.82	58.51
532.99	18.72
533.16	95.96
533.33	152.13
533.50	105.32
533.67	18.72
533.84	119.37
534.01	126.39
534.18	135.75
534.35	67.88
534.52	37.45
534.69	58.51
534.86	65.54
535.03	37.45
535.20	187.24
535.37	51.49
535.54	163.84
535.71	142.77
535.88	77.24
536.05	70.22
536.22	91.28
536.38	84.26
536.55	149.79
536.72	74.90
536.89	67.88
537.06	86.60
537.23	79.58
537.40	86.60
537.57	180.22
537.74	35.11
537.91	60.85
538.08	117.03
538.25	93.62
538.42	58.51
538.59	88.94
538.75	72.56
538.92	56.17
539.09	60.85
539.26	145.11
539.43	67.88
539.60	32.77
539.77	49.15
539.94	0.00
540.11	63.19
540.28	102.98
540.44	93.62
540.61	65.54
540.78	88.94
540.95	0.00
541.12	114.69
541.29	117.03
541.46	37.45
541.62	138.09
541.79	56.17
541.96	0.00
542.13	72.56
542.30	114.69
542.47	131.07
542.63	110.01
542.80	126.39
542.97	110.01
543.14	140.43
543.31	105.32
543.48	124.05
543.64	42.13
543.81	91.28
543.98	60.85
544.15	51.49
544.32	72.56
544.48	35.11
544.65	95.96
544.82	72.56
544.99	74.90
545.16	110.01
545.32	72.56
545.49	133.41
545.66	154.48
545.83	105.32
546.00	95.96
546.16	100.64
546.33	88.94
546.50	126.39
546.67	65.54
546.83	133.41
547.00	70.22
547.17	95.96
547.34	145.11
547.50	102.98
547.67	98.30
547.84	74.90
548.00	56.17
548.17	49.15
548.34	93.62
548.51	105.32
548.67	145.11
548.84	65.54
549.01	63.19
549.18	93.62
549.34	124.05
549.51	0.00
549.68	74.90
549.84	107.66
550.01	58.51
550.18	88.94
550.34	107.66
550.51	35.11
550.68	102.98
550.84	98.30
551.01	98.30
551.18	135.75
551.34	72.56
551.51	126.39
551.68	84.26
551.84	114.69
552.01	23.41
552.18	91.28
552.34	58.51
552.51	4.68
552.68	105.32
552.84	102.98
553.01	70.22
553.18	95.96
553.34	138.09
553.51	142.77
553.67	161.50
553.84	110.01
554.01	35.11
554.17	79.58
554.34	81.92
554.51	79.58
554.67	37.45
554.84	112.35
555.00	30.43
555.17	86.60
555.33	117.03
555.50	67.88
555.67	117.03
555.83	16.38
556.00	53.83
556.16	102.98
556.33	124.05
556.50	173.20
556.66	70.22
556.83	67.88
556.99	77.24
557.16	53.83
557.32	0.00
557.49	107.66
557.65	84.26
557.82	23.41
557.98	53.83
558.15	77.24
558.32	88.94
558.48	117.03
558.65	32.77
558.81	79.58
558.98	114.69
559.14	140.43
559.31	79.58
559.47	67.88
559.64	58.51
559.80	138.09
559.97	93.62
560.13	16.38
560.30	58.51
560.46	86.60
560.63	49.15
560.79	114.69
560.96	98.30
561.12	74.90
561.29	140.43
561.45	100.64
561.61	44.47
561.78	114.69
561.94	23.41
562.11	28.09
562.27	102.98
562.44	72.56
562.60	79.58
562.77	163.84
562.93	81.92
563.10	126.39
563.26	117.03
563.42	119.37
563.59	100.64
563.75	70.22
563.92	86.60
564.08	58.51
564.24	77.24
564.41	100.64
564.57	154.48
564.74	72.56
564.90	121.71
565.07	56.17
565.23	60.85
565.39	121.71
565.56	77.24
565.72	30.43
565.88	91.28
566.05	9.36
566.21	60.85
566.38	0.00
566.54	63.19
566.70	67.88
566.87	110.01
567.03	112.35
567.19	74.90
567.36	86.60
567.52	37.45
567.68	65.54
567.85	102.98
568.01	98.30
568.17	46.81
568.34	95.96
568.50	44.47
568.66	49.15
568.83	88.94
568.99	0.00
569.15	32.77
569.32	32.77
569.48	58.51
569.64	110.01
569.81	98.30
569.97	79.58
570.13	117.03
570.30	28.09
570.46	79.58
570.62	135.75
570.78	37.45
570.95	0.00
571.11	63.19
571.27	58.51
571.43	70.22
571.60	81.92
571.76	107.66
571.92	88.94
572.09	70.22
572.25	107.66
572.41	77.24
572.57	88.94
572.74	39.79
572.90	65.54
573.06	70.22
573.22	131.07
573.38	110.01
573.55	91.28
573.71	16.38
573.87	25.75
574.03	81.92
574.20	49.15
574.36	46.81
574.52	135.75
574.68	86.60
574.84	53.83
575.01	65.54
575.17	72.56
575.33	18.72
575.49	28.09
575.65	51.49
575.82	140.43
575.98	105.32
576.14	152.13
576.30	35.11
576.46	128.73
576.62	175.54
576.79	86.60
576.95	114.69
577.11	88.94
577.27	86.60
577.43	37.45
577.59	72.56
577.75	72.56
577.92	81.92
578.08	110.01
578.24	147.45
578.40	102.98
578.56	42.13
578.72	65.54
578.88	112.35
579.04	107.66
579.21	98.30
579.37	77.24
579.53	65.54
579.69	0.00
579.85	4.68
580.01	114.69
580.17	53.83
580.33	93.62
580.49	119.37
580.65	79.58
580.82	56.17
580.98	51.49
581.14	102.98
581.30	124.05
581.46	44.47
581.62	23.41
581.78	79.58
581.94	100.64
582.10	135.75
582.26	107.66
582.42	72.56
582.58	156.82
582.74	149.79
582.90	58.51
583.06	49.15
583.22	63.19
583.38	77.24
583.54	135.75
583.70	107.66
583.86	72.56
584.02	28.09
584.18	39.79
584.34	65.54
584.50	23.41
584.66	84.26
584.82	110.01
584.98	46.81
585.14	152.13
585.30	102.98
585.46	0.00
585.62	98.30
585.78	74.90
585.94	56.17
586.10	67.88
586.26	37.45
586.42	100.64
586.58	117.03
586.74	91.28
586.90	112.35
587.06	35.11
587.22	114.69
587.38	81.92
587.54	86.60
587.70	91.28
587.86	39.79
588.02	25.75
588.18	56.17
588.34	121.71
588.49	93.62
588.65	60.85
588.81	93.62
588.97	53.83
589.13	117.03
589.29	32.77
589.45	39.79
589.61	140.43
589.77	32.77
589.93	102.98
590.08	88.94
590.24	39.79
590.40	110.01
590.56	168.52
590.72	53.83
590.88	30.43
591.04	65.54
591.20	72.56
591.35	112.35
591.51	7.02
591.67	42.13
591.83	79.58
591.99	121.71
592.15	0.00
592.31	7.02
592.46	60.85
592.62	65.54
592.78	58.51
592.94	28.09
593.10	56.17
593.26	70.22
593.41	46.81
593.57	93.62
593.73	60.85
593.89	93.62
594.05	42.13
594.20	74.90
594.36	51.49
594.52	16.38
594.68	21.06
594.84	16.38
594.99	0.00
595.15	18.72
595.31	49.15
595.47	7.02
595.62	56.17
595.78	58.51
595.94	44.47
596.10	49.15
596.25	23.41
596.41	117.03
596.57	79.58
596.73	63.19
596.88	32.77
597.04	63.19
597.20	65.54
597.36	70.22
597.51	51.49
597.67	98.30
597.83	77.24
597.99	121.71
598.14	88.94
598.30	128.73
598.46	30.43
598.61	79.58
598.77	84.26
598.93	35.11
599.09	65.54
599.24	81.92
599.40	18.72
599.56	25.75
599.71	46.81
599.87	74.90
600.03	152.13
600.18	11.70
600.34	42.13
600.50	91.28
600.65	107.66
600.81	21.06
600.97	93.62
601.12	51.49
601.28	49.15
601.44	65.54
601.59	107.66
601.75	107.66
601.91	121.71
602.06	0.00
602.22	4.68
602.37	88.94
602.53	112.35
602.69	60.85
602.84	74.90
603.00	11.70
603.16	110.01
603.31	88.94
603.47	91.28
603.62	126.39
603.78	42.13
603.94	100.64
604.09	53.83
604.25	70.22
604.40	16.38
604.56	114.69
604.71	60.85
604.87	81.92
605.03	44.47
605.18	58.51
605.34	81.92
605.49	0.00
605.65	84.26
605.80	100.64
605.96	58.51
606.12	30.43
606.27	74.90
606.43	105.32
606.58	23.41
606.74	86.60
606.89	7.02
607.05	74.90
607.20	91.28
607.36	138.09
607.51	67.88
607.67	81.92
607.82	51.49
607.98	77.24
608.13	98.30
608.29	42.13
608.44	107.66
608.60	37.45
608.75	46.81
608.91	88.94
609.06	37.45
609.22	107.66
609.37	93.62
609.53	42.13
609.68	131.07
609.84	39.79
609.99	30.43
610.15	53.83
610.30	18.72
610.46	110.01
610.61	105.32
610.76	53.83
610.92	145.11
611.07	77.24
611.23	208.31
611.38	126.39
611.54	11.70
611.69	124.05
611.84	105.32
612.00	91.28
612.15	63.19
612.31	51.49
612.46	74.90
612.62	46.81
612.77	35.11
612.92	39.79
613.08	117.03
613.23	0.00
613.39	51.49
613.54	81.92
613.69	77.24
613.85	37.45
614.00	0.00
614.15	42.13
614.31	14.04
614.46	49.15
614.62	16.38
614.77	84.26
614.92	79.58
615.08	79.58
615.23	81.92
615.38	23.41
615.54	23.41
615.69	28.09
615.84	0.00
616.00	46.81
616.15	86.60
616.30	49.15
616.46	67.88
616.61	56.17
616.76	77.24
616.92	79.58
617.07	65.54
617.22	42.13
617.37	128.73
617.53	44.47
617.68	28.09
617.83	42.13
617.99	46.81
618.14	154.48
618.29	98.30
618.45	100.64
618.60	84.26
618.75	107.66
618.90	98.30
619.06	126.39
619.21	67.88
619.36	105.32
619.51	100.64
619.67	51.49
619.82	84.26
619.97	88.94
620.12	72.56
620.28	28.09
620.43	63.19
620.58	37.45
620.73	58.51
620.89	58.51
621.04	105.32
621.19	131.07
621.34	35.11
621.49	37.45
621.65	51.49
621.80	0.00
621.95	77.24
622.10	49.15
622.25	23.41
622.41	35.11
622.56	56.17
622.71	63.19
622.86	67.88
623.01	112.35
623.16	37.45
623.32	14.04
623.47	63.19
623.62	84.26
623.77	60.85
623.92	56.17
624.07	39.79
624.23	0.00
624.38	32.77
624.53	67.88
624.68	102.98
624.83	35.11
624.98	67.88
625.13	0.00
625.29	91.28
625.44	18.72
625.59	117.03
625.74	58.51
625.89	42.13
626.04	74.90
626.19	102.98
626.34	7.02
626.49	117.03
626.65	84.26
626.80	102.98
626.95	46.81
627.10	114.69
627.25	74.90
627.40	65.54
627.55	84.26
627.70	14.04
627.85	16.38
628.00	91.28
628.15	53.83
628.30	16.38
628.45	100.64
628.60	46.81
628.76	124.05
628.91	56.17
629.06	51.49
629.21	14.04
629.36	88.94
629.51	74.90
629.66	110.01
629.81	77.24
629.96	23.41
630.11	42.13
630.26	30.43
630.41	21.06
630.56	18.72
630.71	91.28
630.86	16.38
631.01	0.00
631.16	86.60
631.31	100.64
631.46	46.81
631.61	88.94
631.76	18.72
631.91	4.68
632.06	79.58
632.21	91.28
632.36	32.77
632.51	53.83
632.66	42.13
632.81	18.72
632.96	60.85
633.10	72.56
633.25	9.36
633.40	65.54
633.55	86.60
633.70	53.83
633.85	0.00
634.00	84.26
634.15	7.02
634.30	25.75
634.45	0.00
634.60	67.88
634.75	63.19
634.90	51.49
635.05	100.64
635.19	102.98
635.34	70.22
635.49	79.58
635.64	63.19
635.79	79.58
635.94	102.98
636.09	110.01
636.24	49.15
636.39	91.28
636.53	95.96
636.68	39.79
636.83	44.47
636.98	86.60
637.13	112.35
637.28	72.56
637.43	21.06
637.57	77.24
637.72	14.04
637.87	0.00
638.02	84.26
638.17	32.77
638.32	60.85
638.46	105.32
638.61	25.75
638.76	44.47
638.91	74.90
639.06	37.45
639.20	58.51
639.35	37.45
639.50	114.69
639.65	72.56
639.80	114.69
639.94	81.92
640.09	39.79
640.24	49.15
640.39	84.26
640.54	95.96
640.68	107.66
640.83	100.64
640.98	91.28
641.13	25.75
641.27	18.72
641.42	14.04
641.57	16.38
641.72	107.66
641.86	4.68
642.01	74.90
642.16	25.75
642.31	149.79
642.45	70.22
642.60	39.79
642.75	58.51
642.90	35.11
643.04	105.32
643.19	42.13
643.34	49.15
643.48	53.83
643.63	56.17
643.78	88.94
643.93	72.56
644.07	51.49
644.22	21.06
644.37	175.54
644.51	21.06
644.66	105.32
644.81	119.37
644.95	44.47
645.10	35.11
645.25	51.49
645.39	95.96
645.54	88.94
645.69	53.83
645.83	0.00
645.98	102.98
646.13	11.70
646.27	105.32
646.42	110.01
646.57	72.56
646.71	32.77
646.86	23.41
647.00	37.45
647.15	72.56
647.30	42.13
647.44	91.28
647.59	39.79
647.74	0.00
647.88	35.11
648.03	35.11
648.17	49.15
648.32	86.60
648.47	46.81
648.61	86.60
648.76	32.77
648.90	35.11
649.05	32.77
649.20	53.83
649.34	44.47
649.49	86.60
649.63	28.09
649.78	105.32
649.92	18.72
650.07	35.11
650.21	98.30
650.36	35.11
650.51	84.26
650.65	72.56
650.80	84.26
650.94	23.41
651.09	72.56
651.23	79.58
651.38	63.19
651.52	11.70
651.67	65.54
651.81	98.30
651.96	88.94
652.10	72.56
652.25	79.58
652.39	46.81
652.54	81.92
652.68	95.96
652.83	56.17
652.97	53.83
653.12	102.98
653.26	0.00
653.41	44.47
653.55	77.24
653.70	72.56
653.84	49.15
653.99	107.66
654.13	32.77
654.27	18.72
654.42	88.94
654.56	25.75
654.71	30.43
654.85	60.85
655.00	51.49
655.14	67.88
655.29	2.34
655.43	18.72
655.57	72.56
655.72	49.15
655.86	58.51
656.01	25.75
656.15	21.06
656.30	74.90
656.44	51.49
656.58	60.85
656.73	70.22
656.87	0.00
657.01	95.96
657.16	28.09
657.30	28.09
657.45	53.83
657.59	84.26
657.73	124.05
657.88	44.47
658.02	95.96
658.16	65.54
658.31	114.69
658.45	39.79
658.60	42.13
658.74	98.30
658.88	63.19
659.03	44.47
659.17	30.43
659.31	0.00
659.46	65.54
659.60	124.05
659.74	42.13
659.89	126.39
660.03	2.34
660.17	44.47
660.32	0.00
660.46	35.11
660.60	23.41
660.74	46.81
660.89	28.09
661.03	2.34
661.17	119.37
661.32	67.88
661.46	56.17
661.60	28.09
661.74	42.13
661.89	124.05
662.03	119.37
662.17	126.39
662.31	60.85
662.46	30.43
662.60	51.49
662.74	133.41
662.88	93.62
663.03	42.13
663.17	4.68
663.31	23.41
663.45	0.00
663.60	60.85
663.74	51.49
663.88	23.41
664.02	35.11
664.17	18.72
664.31	98.30
664.45	37.45
664.59	28.09
664.73	86.60
664.88	30.43
665.02	63.19
665.16	77.24
665.30	53.83
665.44	67.88
665.59	28.09
665.73	35.11
665.87	86.60
666.01	105.32
666.15	60.85
666.29	16.38
666.44	58.51
666.58	51.49
666.72	53.83
666.86	4.68
667.00	51.49
667.14	7.02
667.28	79.58
667.43	60.85
667.57	91.28
667.71	21.06
667.85	32.77
667.99	65.54
668.13	74.90
668.27	18.72
668.41	0.00
668.56	74.90
668.70	49.15
668.84	37.45
668.98	14.04
669.12	56.17
669.26	51.49
669.40	72.56
669.54	56.17
669.68	46.81
669.82	84.26
669.96	37.45
670.10	37.45
670.25	0.00
670.39	16.38
670.53	86.60
670.67	18.72
670.81	46.81
670.95	81.92
671.09	51.49
671.23	49.15
671.37	0.00
671.51	117.03
671.65	56.17
671.79	21.06
671.93	58.51
672.07	0.00
672.21	46.81
672.35	16.38
672.49	0.00
672.63	74.90
672.77	88.94
672.91	70.22
673.05	114.69
673.19	44.47
673.33	86.60
673.47	51.49
673.61	46.81
673.75	72.56
673.89	46.81
674.03	18.72
674.17	70.22
674.31	37.45
674.45	0.00
674.59	16.38
674.73	0.00
674.87	112.35
675.01	93.62
675.15	72.56
675.29	79.58
675.43	58.51
675.56	49.15
675.70	42.13
675.84	56.17
675.98	56.17
676.12	18.72
676.26	44.47
676.40	42.13
676.54	39.79
676.68	37.45
676.82	39.79
676.96	39.79
677.10	70.22
677.23	77.24
677.37	0.00
677.51	72.56
677.65	14.04
677.79	21.06
677.93	56.17
678.07	42.13
678.21	37.45
678.34	18.72
678.48	98.30
678.62	58.51
678.76	84.26
678.90	95.96
679.04	98.30
679.18	25.75
679.31	35.11
679.45	39.79
679.59	0.00
679.73	58.51
679.87	37.45
680.00	0.00
680.14	65.54
680.28	58.51
680.42	58.51
680.56	9.36
680.70	23.41
680.83	4.68
680.97	58.51
681.11	86.60
681.25	30.43
681.39	23.41
681.52	39.79
681.66	32.77
681.80	86.60
681.94	44.47
682.07	37.45
682.21	74.90
682.35	91.28
682.49	25.75
682.62	100.64
682.76	128.73
682.90	98.30
683.04	25.75
683.17	35.11
683.31	65.54
683.45	88.94
683.59	84.26
683.72	53.83
683.86	11.70
684.00	56.17
684.13	21.06
684.27	128.73
684.41	72.56
684.55	32.77
684.68	28.09
684.82	98.30
684.96	110.01
685.09	0.00
685.23	35.11
685.37	14.04
685.50	56.17
685.64	35.11
685.78	44.47
685.91	21.06
686.05	7.02
686.19	67.88
686.32	0.00
686.46	39.79
686.60	14.04
686.73	0.00
686.87	0.00
687.01	4.68
687.14	58.51
687.28	0.00
687.42	67.88
687.55	65.54
687.69	0.00
687.82	0.00
687.96	51.49
688.10	35.11
688.23	56.17
688.37	70.22
688.50	49.15
688.64	126.39
688.78	58.51
688.91	23.41
689.05	14.04
689.18	51.49
689.32	23.41
689.46	105.32
689.59	44.47
689.73	0.00
689.86	44.47
690.00	14.04
690.13	86.60
690.27	58.51
690.41	25.75
690.54	30.43
690.68	65.54
690.81	0.00
690.95	46.81
691.08	18.72
691.22	16.38
691.35	102.98
691.49	67.88
691.62	44.47
691.76	100.64
691.89	60.85
692.03	25.75
692.16	135.75
692.30	91.28
692.43	2.34
692.57	0.00
692.70	4.68
692.84	23.41
692.97	77.24
693.11	84.26
693.24	16.38
693.38	32.77
693.51	84.26
693.65	95.96
693.78	0.00
693.92	63.19
694.05	0.00
694.19	49.15
694.32	32.77
694.45	72.56
694.59	51.49
694.72	35.11
694.86	23.41
694.99	0.00
695.13	67.88
695.26	37.45
695.39	91.28
695.53	16.38
695.66	77.24
695.80	23.41
695.93	0.00
696.07	35.11
696.20	37.45
696.33	11.70
696.47	58.51
696.60	23.41
696.73	7.02
696.87	4.68
697.00	79.58
697.14	32.77
697.27	23.41
697.40	56.17
697.54	105.32
697.67	39.79
697.80	35.11
697.94	0.00
698.07	77.24
698.21	0.00
698.34	21.06
698.47	0.00
698.61	23.41
698.74	25.75
698.87	77.24
699.01	32.77
699.14	77.24
699.27	25.75
699.40	70.22
699.54	67.88
699.67	0.00
699.80	42.13
699.94	0.00
700.07	0.00
700.20	39.79
700.34	25.75
700.47	110.01
700.60	9.36
700.73	35.11
700.87	67.88
701.00	0.00
701.13	0.00
701.26	63.19
701.40	28.09
701.53	0.00
701.66	14.04
701.79	39.79
701.93	0.00
702.06	91.28
702.19	11.70
702.32	0.00
702.46	0.00
702.59	0.00
702.72	0.00
702.85	67.88
702.99	0.00
703.12	9.36
703.25	25.75
703.38	25.75
703.51	65.54
703.65	0.00
703.78	53.83
703.91	49.15
704.04	135.75
704.17	51.49
704.31	42.13
704.44	65.54
704.57	25.75
704.70	0.00
704.83	0.00
704.96	77.24
705.10	60.85
705.23	70.22
>>>>>End Processed Spectral Data<<<<<
