SpectraSuite Data File
++++++++++++++++++++++++++++++++++++
Date: Fri Oct 04 12:13:35 GMT-05:00 2013
User: price-jones
Dark Spectrum Present: No
Reference Spectrum Present: No
Number of Sampled Component Spectra: 1
Spectrometers: USB2+H05261
Integration Time (usec): 10000 (USB2+H05261)
Spectra Averaged: 1 (USB2+H05261)
Boxcar Smoothing: 0 (USB2+H05261)
Correct for Electrical Dark: No (USB2+H05261)
Strobe/Lamp Enabled: No (USB2+H05261)
Correct for Detector Non-linearity: No (USB2+H05261)
Correct for Stray Light: No (USB2+H05261)
Number of Pixels in Processed Spectrum: 2048
>>>>>Begin Processed Spectral Data<<<<<
365.73	56.17
365.92	56.17
366.12	56.17
366.32	0.00
366.52	0.00
366.72	0.00
366.91	0.00
367.11	0.00
367.31	0.00
367.51	0.00
367.70	0.00
367.90	0.00
368.10	0.00
368.30	0.00
368.49	0.00
368.69	0.00
368.89	0.00
369.09	0.00
369.28	0.00
369.48	0.00
369.68	0.00
369.87	0.00
370.07	0.00
370.27	0.00
370.47	0.00
370.66	0.00
370.86	0.00
371.06	0.00
371.25	4.68
371.45	0.00
371.65	0.00
371.84	0.00
372.04	25.75
372.24	35.11
372.44	21.06
372.63	86.60
372.83	0.00
373.03	0.00
373.22	18.72
373.42	25.75
373.62	0.00
373.81	25.75
374.01	0.00
374.21	18.72
374.40	42.13
374.60	42.13
374.79	0.00
374.99	0.00
375.19	72.56
375.38	32.77
375.58	112.35
375.78	0.00
375.97	100.64
376.17	14.04
376.37	21.06
376.56	21.06
376.76	42.13
376.95	56.17
377.15	14.04
377.35	60.85
377.54	37.45
377.74	51.49
377.93	25.75
378.13	11.70
378.33	49.15
378.52	37.45
378.72	2.34
378.91	70.22
379.11	0.00
379.31	49.15
379.50	21.06
379.70	2.34
379.89	60.85
380.09	46.81
380.28	35.11
380.48	37.45
380.68	9.36
380.87	58.51
381.07	95.96
381.26	98.30
381.46	0.00
381.65	0.00
381.85	46.81
382.04	46.81
382.24	65.54
382.43	30.43
382.63	0.00
382.83	0.00
383.02	60.85
383.22	74.90
383.41	23.41
383.61	95.96
383.80	9.36
384.00	0.00
384.19	0.00
384.39	56.17
384.58	28.09
384.78	30.43
384.97	39.79
385.17	16.38
385.36	0.00
385.56	0.00
385.75	9.36
385.95	53.83
386.14	49.15
386.34	14.04
386.53	58.51
386.72	23.41
386.92	0.00
387.11	51.49
387.31	30.43
387.50	42.13
387.70	18.72
387.89	0.00
388.09	30.43
388.28	4.68
388.48	0.00
388.67	23.41
388.86	16.38
389.06	74.90
389.25	0.00
389.45	0.00
389.64	23.41
389.84	67.88
390.03	0.00
390.22	25.75
390.42	0.00
390.61	9.36
390.81	53.83
391.00	124.05
391.19	0.00
391.39	72.56
391.58	23.41
391.78	0.00
391.97	56.17
392.16	0.00
392.36	0.00
392.55	67.88
392.75	70.22
392.94	65.54
393.13	79.58
393.33	7.02
393.52	60.85
393.71	44.47
393.91	65.54
394.10	65.54
394.29	18.72
394.49	9.36
394.68	0.00
394.88	0.00
395.07	39.79
395.26	32.77
395.46	0.00
395.65	0.00
395.84	42.13
396.04	0.00
396.23	25.75
396.42	0.00
396.62	79.58
396.81	14.04
397.00	2.34
397.19	4.68
397.39	84.26
397.58	37.45
397.77	23.41
397.97	67.88
398.16	0.00
398.35	88.94
398.55	44.47
398.74	53.83
398.93	53.83
399.12	9.36
399.32	60.85
399.51	0.00
399.70	0.00
399.90	35.11
400.09	28.09
400.28	25.75
400.47	46.81
400.67	0.00
400.86	74.90
401.05	21.06
401.24	35.11
401.44	46.81
401.63	0.00
401.82	0.00
402.01	39.79
402.21	44.47
402.40	91.28
402.59	46.81
402.78	88.94
402.97	18.72
403.17	91.28
403.36	114.69
403.55	65.54
403.74	35.11
403.93	18.72
404.13	84.26
404.32	23.41
404.51	51.49
404.70	32.77
404.89	84.26
405.09	0.00
405.28	42.13
405.47	0.00
405.66	72.56
405.85	0.00
406.05	23.41
406.24	21.06
406.43	72.56
406.62	46.81
406.81	63.19
407.00	32.77
407.20	0.00
407.39	14.04
407.58	37.45
407.77	30.43
407.96	84.26
408.15	42.13
408.34	16.38
408.54	28.09
408.73	11.70
408.92	88.94
409.11	0.00
409.30	81.92
409.49	16.38
409.68	11.70
409.87	74.90
410.07	119.37
410.26	4.68
410.45	44.47
410.64	0.00
410.83	65.54
411.02	21.06
411.21	2.34
411.40	18.72
411.59	11.70
411.78	65.54
411.98	70.22
412.17	21.06
412.36	9.36
412.55	53.83
412.74	30.43
412.93	37.45
413.12	86.60
413.31	49.15
413.50	107.66
413.69	156.82
413.88	46.81
414.07	16.38
414.26	37.45
414.45	91.28
414.64	91.28
414.83	56.17
415.02	79.58
415.22	16.38
415.41	32.77
415.60	51.49
415.79	21.06
415.98	72.56
416.17	70.22
416.36	42.13
416.55	49.15
416.74	138.09
416.93	0.00
417.12	0.00
417.31	9.36
417.50	91.28
417.69	0.00
417.88	32.77
418.07	0.00
418.26	11.70
418.45	72.56
418.64	63.19
418.83	44.47
419.02	32.77
419.21	0.00
419.39	88.94
419.58	25.75
419.77	30.43
419.96	46.81
420.15	81.92
420.34	23.41
420.53	37.45
420.72	14.04
420.91	44.47
421.10	0.00
421.29	56.17
421.48	81.92
421.67	39.79
421.86	114.69
422.05	0.00
422.24	2.34
422.43	152.13
422.61	9.36
422.80	53.83
422.99	28.09
423.18	14.04
423.37	9.36
423.56	107.66
423.75	32.77
423.94	16.38
424.13	56.17
424.32	100.64
424.50	63.19
424.69	11.70
424.88	37.45
425.07	16.38
425.26	7.02
425.45	56.17
425.64	14.04
425.83	21.06
426.01	44.47
426.20	32.77
426.39	49.15
426.58	44.47
426.77	81.92
426.96	65.54
427.15	88.94
427.33	16.38
427.52	28.09
427.71	98.30
427.90	44.47
428.09	86.60
428.28	79.58
428.46	53.83
428.65	93.62
428.84	42.13
429.03	16.38
429.22	51.49
429.40	58.51
429.59	28.09
429.78	56.17
429.97	91.28
430.16	58.51
430.34	18.72
430.53	0.00
430.72	23.41
430.91	42.13
431.10	0.00
431.28	25.75
431.47	56.17
431.66	39.79
431.85	21.06
432.03	0.00
432.22	30.43
432.41	14.04
432.60	42.13
432.79	18.72
432.97	42.13
433.16	11.70
433.35	65.54
433.54	4.68
433.72	88.94
433.91	0.00
434.10	25.75
434.28	51.49
434.47	44.47
434.66	70.22
434.85	0.00
435.03	0.00
435.22	93.62
435.41	37.45
435.59	117.03
435.78	70.22
435.97	4.68
436.16	84.26
436.34	0.00
436.53	37.45
436.72	79.58
436.90	60.85
437.09	21.06
437.28	32.77
437.46	37.45
437.65	44.47
437.84	65.54
438.02	63.19
438.21	0.00
438.40	0.00
438.58	49.15
438.77	88.94
438.96	117.03
439.14	25.75
439.33	35.11
439.52	32.77
439.70	28.09
439.89	60.85
440.08	44.47
440.26	46.81
440.45	53.83
440.63	88.94
440.82	0.00
441.01	56.17
441.19	46.81
441.38	18.72
441.57	18.72
441.75	65.54
441.94	14.04
442.12	102.98
442.31	58.51
442.50	32.77
442.68	98.30
442.87	88.94
443.05	86.60
443.24	102.98
443.43	0.00
443.61	42.13
443.80	88.94
443.98	93.62
444.17	135.75
444.35	74.90
444.54	86.60
444.73	84.26
444.91	63.19
445.10	95.96
445.28	23.41
445.47	35.11
445.65	67.88
445.84	112.35
446.02	72.56
446.21	114.69
446.39	74.90
446.58	21.06
446.77	86.60
446.95	100.64
447.14	42.13
447.32	56.17
447.51	65.54
447.69	0.00
447.88	84.26
448.06	58.51
448.25	39.79
448.43	21.06
448.62	21.06
448.80	21.06
448.99	72.56
449.17	49.15
449.36	112.35
449.54	46.81
449.73	18.72
449.91	42.13
450.10	0.00
450.28	79.58
450.46	65.54
450.65	74.90
450.83	32.77
451.02	21.06
451.20	126.39
451.39	35.11
451.57	100.64
451.76	35.11
451.94	39.79
452.13	23.41
452.31	93.62
452.49	86.60
452.68	44.47
452.86	56.17
453.05	49.15
453.23	37.45
453.42	112.35
453.60	77.24
453.78	16.38
453.97	42.13
454.15	4.68
454.34	98.30
454.52	67.88
454.70	32.77
454.89	84.26
455.07	114.69
455.26	49.15
455.44	77.24
455.62	91.28
455.81	11.70
455.99	60.85
456.17	35.11
456.36	46.81
456.54	44.47
456.73	79.58
456.91	93.62
457.09	70.22
457.28	81.92
457.46	39.79
457.64	77.24
457.83	30.43
458.01	44.47
458.19	46.81
458.38	0.00
458.56	86.60
458.74	84.26
458.93	37.45
459.11	0.00
459.29	51.49
459.48	7.02
459.66	63.19
459.84	117.03
460.03	23.41
460.21	30.43
460.39	11.70
460.57	65.54
460.76	56.17
460.94	0.00
461.12	51.49
461.31	119.37
461.49	0.00
461.67	39.79
461.85	100.64
462.04	35.11
462.22	119.37
462.40	84.26
462.59	49.15
462.77	49.15
462.95	28.09
463.13	77.24
463.32	42.13
463.50	86.60
463.68	7.02
463.86	7.02
464.05	35.11
464.23	39.79
464.41	49.15
464.59	110.01
464.78	117.03
464.96	28.09
465.14	18.72
465.32	98.30
465.50	44.47
465.69	126.39
465.87	39.79
466.05	86.60
466.23	42.13
466.41	32.77
466.60	49.15
466.78	46.81
466.96	0.00
467.14	46.81
467.32	32.77
467.51	56.17
467.69	11.70
467.87	112.35
468.05	107.66
468.23	77.24
468.41	88.94
468.60	30.43
468.78	100.64
468.96	124.05
469.14	0.00
469.32	44.47
469.50	93.62
469.69	0.00
469.87	67.88
470.05	84.26
470.23	32.77
470.41	37.45
470.59	25.75
470.77	95.96
470.95	102.98
471.14	28.09
471.32	102.98
471.50	81.92
471.68	37.45
471.86	0.00
472.04	4.68
472.22	74.90
472.40	88.94
472.58	11.70
472.77	93.62
472.95	100.64
473.13	28.09
473.31	74.90
473.49	9.36
473.67	21.06
473.85	84.26
474.03	37.45
474.21	23.41
474.39	39.79
474.57	42.13
474.75	60.85
474.93	18.72
475.12	86.60
475.30	53.83
475.48	84.26
475.66	44.47
475.84	42.13
476.02	51.49
476.20	46.81
476.38	58.51
476.56	140.43
476.74	53.83
476.92	32.77
477.10	28.09
477.28	56.17
477.46	51.49
477.64	18.72
477.82	86.60
478.00	131.07
478.18	4.68
478.36	23.41
478.54	56.17
478.72	46.81
478.90	18.72
479.08	95.96
479.26	88.94
479.44	18.72
479.62	86.60
479.80	100.64
479.98	9.36
480.16	53.83
480.34	79.58
480.52	93.62
480.70	74.90
480.88	77.24
481.06	49.15
481.24	30.43
481.41	32.77
481.59	18.72
481.77	42.13
481.95	0.00
482.13	63.19
482.31	70.22
482.49	21.06
482.67	112.35
482.85	84.26
483.03	84.26
483.21	98.30
483.39	81.92
483.57	21.06
483.74	28.09
483.92	18.72
484.10	11.70
484.28	39.79
484.46	128.73
484.64	70.22
484.82	65.54
485.00	74.90
485.18	65.54
485.35	84.26
485.53	65.54
485.71	58.51
485.89	72.56
486.07	63.19
486.25	49.15
486.43	91.28
486.61	51.49
486.78	46.81
486.96	147.45
487.14	93.62
487.32	37.45
487.50	91.28
487.68	60.85
487.85	154.48
488.03	63.19
488.21	63.19
488.39	51.49
488.57	93.62
488.75	14.04
488.92	58.51
489.10	105.32
489.28	131.07
489.46	65.54
489.64	60.85
489.81	49.15
489.99	147.45
490.17	70.22
490.35	23.41
490.53	74.90
490.70	119.37
490.88	95.96
491.06	4.68
491.24	70.22
491.41	126.39
491.59	140.43
491.77	91.28
491.95	110.01
492.13	44.47
492.30	11.70
492.48	56.17
492.66	37.45
492.84	72.56
493.01	114.69
493.19	126.39
493.37	35.11
493.54	58.51
493.72	114.69
493.90	51.49
494.08	28.09
494.25	63.19
494.43	79.58
494.61	105.32
494.79	124.05
494.96	86.60
495.14	35.11
495.32	58.51
495.49	16.38
495.67	63.19
495.85	93.62
496.02	86.60
496.20	77.24
496.38	86.60
496.55	191.92
496.73	0.00
496.91	81.92
497.09	93.62
497.26	86.60
497.44	100.64
497.62	56.17
497.79	107.66
497.97	35.11
498.14	81.92
498.32	119.37
498.50	39.79
498.67	135.75
498.85	65.54
499.03	25.75
499.20	53.83
499.38	88.94
499.56	102.98
499.73	79.58
499.91	91.28
500.08	58.51
500.26	18.72
500.44	110.01
500.61	72.56
500.79	119.37
500.97	65.54
501.14	98.30
501.32	72.56
501.49	77.24
501.67	110.01
501.84	63.19
502.02	149.79
502.20	51.49
502.37	67.88
502.55	30.43
502.72	77.24
502.90	72.56
503.07	110.01
503.25	74.90
503.43	65.54
503.60	91.28
503.78	121.71
503.95	79.58
504.13	72.56
504.30	105.32
504.48	138.09
504.65	32.77
504.83	77.24
505.01	135.75
505.18	60.85
505.36	72.56
505.53	49.15
505.71	126.39
505.88	63.19
506.06	133.41
506.23	51.49
506.41	114.69
506.58	42.13
506.76	93.62
506.93	44.47
507.11	100.64
507.28	117.03
507.46	56.17
507.63	121.71
507.81	51.49
507.98	128.73
508.16	28.09
508.33	21.06
508.50	142.77
508.68	77.24
508.85	74.90
509.03	191.92
509.20	37.45
509.38	95.96
509.55	44.47
509.73	156.82
509.90	110.01
510.08	60.85
510.25	53.83
510.42	112.35
510.60	102.98
510.77	49.15
510.95	60.85
511.12	0.00
511.30	77.24
511.47	21.06
511.64	124.05
511.82	60.85
511.99	23.41
512.17	112.35
512.34	60.85
512.51	86.60
512.69	70.22
512.86	114.69
513.04	0.00
513.21	84.26
513.38	121.71
513.56	168.52
513.73	95.96
513.90	23.41
514.08	21.06
514.25	88.94
514.43	88.94
514.60	126.39
514.77	88.94
514.95	117.03
515.12	32.77
515.29	93.62
515.47	84.26
515.64	119.37
515.81	67.88
515.99	74.90
516.16	60.85
516.33	124.05
516.51	42.13
516.68	56.17
516.85	51.49
517.03	81.92
517.20	112.35
517.37	37.45
517.54	93.62
517.72	74.90
517.89	42.13
518.06	182.56
518.24	84.26
518.41	173.20
518.58	95.96
518.75	107.66
518.93	84.26
519.10	74.90
519.27	119.37
519.45	65.54
519.62	140.43
519.79	42.13
519.96	79.58
520.14	98.30
520.31	63.19
520.48	79.58
520.65	74.90
520.83	21.06
521.00	67.88
521.17	35.11
521.34	114.69
521.52	67.88
521.69	16.38
521.86	124.05
522.03	102.98
522.20	0.00
522.38	18.72
522.55	23.41
522.72	65.54
522.89	105.32
523.07	46.81
523.24	105.32
523.41	79.58
523.58	39.79
523.75	74.90
523.92	112.35
524.10	102.98
524.27	84.26
524.44	182.56
524.61	42.13
524.78	102.98
524.96	74.90
525.13	72.56
525.30	105.32
525.47	142.77
525.64	53.83
525.81	98.30
525.98	49.15
526.16	77.24
526.33	63.19
526.50	133.41
526.67	131.07
526.84	49.15
527.01	37.45
527.18	23.41
527.36	107.66
527.53	93.62
527.70	72.56
527.87	84.26
528.04	74.90
528.21	119.37
528.38	37.45
528.55	81.92
528.72	102.98
528.89	74.90
529.07	138.09
529.24	124.05
529.41	135.75
529.58	18.72
529.75	65.54
529.92	152.13
530.09	56.17
530.26	95.96
530.43	46.81
530.60	152.13
530.77	88.94
530.94	121.71
531.11	110.01
531.28	91.28
531.46	100.64
531.63	81.92
531.80	42.13
531.97	84.26
532.14	86.60
532.31	60.85
532.48	21.06
532.65	49.15
532.82	18.72
532.99	77.24
533.16	156.82
533.33	95.96
533.50	56.17
533.67	67.88
533.84	149.79
534.01	168.52
534.18	114.69
534.35	67.88
534.52	63.19
534.69	46.81
534.86	81.92
535.03	133.41
535.20	84.26
535.37	131.07
535.54	60.85
535.71	56.17
535.88	114.69
536.05	93.62
536.22	86.60
536.38	147.45
536.55	77.24
536.72	88.94
536.89	60.85
537.06	14.04
537.23	67.88
537.40	107.66
537.57	58.51
537.74	14.04
537.91	44.47
538.08	114.69
538.25	53.83
538.42	44.47
538.59	18.72
538.75	70.22
538.92	91.28
539.09	149.79
539.26	56.17
539.43	77.24
539.60	102.98
539.77	72.56
539.94	95.96
540.11	107.66
540.28	79.58
540.44	81.92
540.61	100.64
540.78	49.15
540.95	0.00
541.12	126.39
541.29	93.62
541.46	58.51
541.62	98.30
541.79	112.35
541.96	147.45
542.13	37.45
542.30	2.34
542.47	86.60
542.63	58.51
542.80	79.58
542.97	70.22
543.14	49.15
543.31	102.98
543.48	58.51
543.64	79.58
543.81	81.92
543.98	121.71
544.15	112.35
544.32	110.01
544.48	138.09
544.65	105.32
544.82	65.54
544.99	67.88
545.16	149.79
545.32	37.45
545.49	67.88
545.66	16.38
545.83	56.17
546.00	84.26
546.16	133.41
546.33	133.41
546.50	142.77
546.67	145.11
546.83	142.77
547.00	70.22
547.17	81.92
547.34	131.07
547.50	98.30
547.67	53.83
547.84	67.88
548.00	77.24
548.17	51.49
548.34	86.60
548.51	100.64
548.67	77.24
548.84	88.94
549.01	86.60
549.18	51.49
549.34	37.45
549.51	86.60
549.68	126.39
549.84	53.83
550.01	91.28
550.18	51.49
550.34	86.60
550.51	67.88
550.68	95.96
550.84	135.75
551.01	18.72
551.18	88.94
551.34	98.30
551.51	107.66
551.68	98.30
551.84	107.66
552.01	102.98
552.18	117.03
552.34	140.43
552.51	79.58
552.68	119.37
552.84	72.56
553.01	65.54
553.18	98.30
553.34	42.13
553.51	79.58
553.67	2.34
553.84	32.77
554.01	86.60
554.17	63.19
554.34	53.83
554.51	112.35
554.67	81.92
554.84	91.28
555.00	138.09
555.17	124.05
555.33	110.01
555.50	79.58
555.67	30.43
555.83	53.83
556.00	95.96
556.16	110.01
556.33	88.94
556.50	93.62
556.66	44.47
556.83	72.56
556.99	39.79
557.16	88.94
557.32	67.88
557.49	107.66
557.65	0.00
557.82	126.39
557.98	88.94
558.15	44.47
558.32	42.13
558.48	35.11
558.65	100.64
558.81	35.11
558.98	60.85
559.14	84.26
559.31	126.39
559.47	32.77
559.64	49.15
559.80	51.49
559.97	42.13
560.13	107.66
560.30	98.30
560.46	107.66
560.63	105.32
560.79	117.03
560.96	114.69
561.12	128.73
561.29	154.48
561.45	39.79
561.61	84.26
561.78	107.66
561.94	98.30
562.11	98.30
562.27	30.43
562.44	84.26
562.60	37.45
562.77	112.35
562.93	65.54
563.10	79.58
563.26	135.75
563.42	11.70
563.59	114.69
563.75	88.94
563.92	100.64
564.08	56.17
564.24	63.19
564.41	93.62
564.57	110.01
564.74	81.92
564.90	53.83
565.07	124.05
565.23	126.39
565.39	77.24
565.56	0.00
565.72	77.24
565.88	39.79
566.05	65.54
566.21	93.62
566.38	128.73
566.54	84.26
566.70	98.30
566.87	63.19
567.03	72.56
567.19	84.26
567.36	93.62
567.52	88.94
567.68	49.15
567.85	95.96
568.01	79.58
568.17	72.56
568.34	65.54
568.50	93.62
568.66	70.22
568.83	56.17
568.99	107.66
569.15	124.05
569.32	77.24
569.48	100.64
569.64	53.83
569.81	67.88
569.97	65.54
570.13	135.75
570.30	95.96
570.46	74.90
570.62	70.22
570.78	53.83
570.95	63.19
571.11	56.17
571.27	2.34
571.43	81.92
571.60	65.54
571.76	46.81
571.92	124.05
572.09	77.24
572.25	46.81
572.41	0.00
572.57	154.48
572.74	32.77
572.90	25.75
573.06	100.64
573.22	56.17
573.38	117.03
573.55	105.32
573.71	105.32
573.87	74.90
574.03	65.54
574.20	91.28
574.36	84.26
574.52	18.72
574.68	72.56
574.84	112.35
575.01	154.48
575.17	63.19
575.33	84.26
575.49	107.66
575.65	88.94
575.82	81.92
575.98	107.66
576.14	42.13
576.30	25.75
576.46	126.39
576.62	77.24
576.79	91.28
576.95	74.90
577.11	133.41
577.27	81.92
577.43	128.73
577.59	28.09
577.75	0.00
577.92	102.98
578.08	102.98
578.24	81.92
578.40	37.45
578.56	79.58
578.72	102.98
578.88	112.35
579.04	81.92
579.21	28.09
579.37	88.94
579.53	67.88
579.69	107.66
579.85	58.51
580.01	72.56
580.17	51.49
580.33	124.05
580.49	84.26
580.65	138.09
580.82	100.64
580.98	156.82
581.14	49.15
581.30	74.90
581.46	7.02
581.62	51.49
581.78	56.17
581.94	107.66
582.10	51.49
582.26	86.60
582.42	25.75
582.58	124.05
582.74	51.49
582.90	91.28
583.06	65.54
583.22	37.45
583.38	60.85
583.54	53.83
583.70	110.01
583.86	65.54
584.02	86.60
584.18	126.39
584.34	168.52
584.50	49.15
584.66	79.58
584.82	138.09
584.98	91.28
585.14	70.22
585.30	37.45
585.46	70.22
585.62	42.13
585.78	67.88
585.94	93.62
586.10	67.88
586.26	95.96
586.42	105.32
586.58	117.03
586.74	105.32
586.90	84.26
587.06	74.90
587.22	102.98
587.38	51.49
587.54	25.75
587.70	93.62
587.86	67.88
588.02	77.24
588.18	30.43
588.34	42.13
588.49	18.72
588.65	77.24
588.81	126.39
588.97	60.85
589.13	53.83
589.29	147.45
589.45	112.35
589.61	81.92
589.77	105.32
589.93	32.77
590.08	23.41
590.24	100.64
590.40	124.05
590.56	88.94
590.72	65.54
590.88	25.75
591.04	84.26
591.20	53.83
591.35	39.79
591.51	42.13
591.67	93.62
591.83	88.94
591.99	63.19
592.15	30.43
592.31	67.88
592.46	30.43
592.62	79.58
592.78	102.98
592.94	18.72
593.10	79.58
593.26	49.15
593.41	114.69
593.57	88.94
593.73	42.13
593.89	184.90
594.05	44.47
594.20	79.58
594.36	121.71
594.52	86.60
594.68	70.22
594.84	100.64
594.99	105.32
595.15	79.58
595.31	88.94
595.47	91.28
595.62	30.43
595.78	51.49
595.94	77.24
596.10	44.47
596.25	53.83
596.41	14.04
596.57	39.79
596.73	60.85
596.88	70.22
597.04	133.41
597.20	138.09
597.36	112.35
597.51	42.13
597.67	79.58
597.83	28.09
597.99	70.22
598.14	72.56
598.30	60.85
598.46	25.75
598.61	107.66
598.77	65.54
598.93	23.41
599.09	37.45
599.24	30.43
599.40	74.90
599.56	46.81
599.71	60.85
599.87	81.92
600.03	74.90
600.18	84.26
600.34	114.69
600.50	79.58
600.65	93.62
600.81	21.06
600.97	86.60
601.12	110.01
601.28	121.71
601.44	81.92
601.59	60.85
601.75	65.54
601.91	63.19
602.06	37.45
602.22	102.98
602.37	46.81
602.53	72.56
602.69	56.17
602.84	21.06
603.00	32.77
603.16	65.54
603.31	84.26
603.47	60.85
603.62	91.28
603.78	51.49
603.94	51.49
604.09	74.90
604.25	81.92
604.40	32.77
604.56	67.88
604.71	149.79
604.87	145.11
605.03	84.26
605.18	70.22
605.34	117.03
605.49	107.66
605.65	74.90
605.80	88.94
605.96	77.24
606.12	0.00
606.27	21.06
606.43	95.96
606.58	81.92
606.74	98.30
606.89	60.85
607.05	72.56
607.20	105.32
607.36	49.15
607.51	21.06
607.67	63.19
607.82	81.92
607.98	53.83
608.13	51.49
608.29	102.98
608.44	21.06
608.60	18.72
608.75	0.00
608.91	28.09
609.06	60.85
609.22	46.81
609.37	46.81
609.53	117.03
609.68	46.81
609.84	25.75
609.99	107.66
610.15	95.96
610.30	161.50
610.46	93.62
610.61	93.62
610.76	37.45
610.92	42.13
611.07	11.70
611.23	30.43
611.38	44.47
611.54	114.69
611.69	88.94
611.84	67.88
612.00	98.30
612.15	93.62
612.31	51.49
612.46	28.09
612.62	30.43
612.77	114.69
612.92	32.77
613.08	79.58
613.23	67.88
613.39	79.58
613.54	0.00
613.69	105.32
613.85	102.98
614.00	51.49
614.15	49.15
614.31	100.64
614.46	32.77
614.62	28.09
614.77	65.54
614.92	166.18
615.08	102.98
615.23	60.85
615.38	35.11
615.54	23.41
615.69	39.79
615.84	63.19
616.00	100.64
616.15	79.58
616.30	107.66
616.46	93.62
616.61	23.41
616.76	91.28
616.92	44.47
617.07	35.11
617.22	91.28
617.37	95.96
617.53	49.15
617.68	53.83
617.83	117.03
617.99	9.36
618.14	117.03
618.29	77.24
618.45	51.49
618.60	84.26
618.75	81.92
618.90	37.45
619.06	98.30
619.21	49.15
619.36	81.92
619.51	95.96
619.67	51.49
619.82	86.60
619.97	86.60
620.12	9.36
620.28	28.09
620.43	37.45
620.58	81.92
620.73	37.45
620.89	91.28
621.04	2.34
621.19	79.58
621.34	119.37
621.49	110.01
621.65	46.81
621.80	35.11
621.95	35.11
622.10	105.32
622.25	88.94
622.41	74.90
622.56	138.09
622.71	70.22
622.86	77.24
623.01	32.77
623.16	77.24
623.32	77.24
623.47	100.64
623.62	56.17
623.77	16.38
623.92	42.13
624.07	32.77
624.23	35.11
624.38	140.43
624.53	74.90
624.68	56.17
624.83	53.83
624.98	124.05
625.13	32.77
625.29	49.15
625.44	49.15
625.59	70.22
625.74	18.72
625.89	53.83
626.04	49.15
626.19	58.51
626.34	67.88
626.49	79.58
626.65	4.68
626.80	98.30
626.95	117.03
627.10	46.81
627.25	74.90
627.40	77.24
627.55	67.88
627.70	42.13
627.85	23.41
628.00	79.58
628.15	63.19
628.30	56.17
628.45	49.15
628.60	58.51
628.76	67.88
628.91	67.88
629.06	63.19
629.21	56.17
629.36	79.58
629.51	58.51
629.66	37.45
629.81	70.22
629.96	107.66
630.11	98.30
630.26	102.98
630.41	84.26
630.56	0.00
630.71	32.77
630.86	18.72
631.01	7.02
631.16	100.64
631.31	44.47
631.46	86.60
631.61	77.24
631.76	7.02
631.91	53.83
632.06	60.85
632.21	37.45
632.36	63.19
632.51	0.00
632.66	42.13
632.81	44.47
632.96	32.77
633.10	72.56
633.25	37.45
633.40	23.41
633.55	53.83
633.70	46.81
633.85	95.96
634.00	16.38
634.15	98.30
634.30	44.47
634.45	51.49
634.60	2.34
634.75	49.15
634.90	23.41
635.05	65.54
635.19	0.00
635.34	51.49
635.49	0.00
635.64	60.85
635.79	65.54
635.94	58.51
636.09	0.00
636.24	0.00
636.39	58.51
636.53	63.19
636.68	37.45
636.83	72.56
636.98	16.38
637.13	79.58
637.28	98.30
637.43	58.51
637.57	46.81
637.72	60.85
637.87	51.49
638.02	77.24
638.17	70.22
638.32	42.13
638.46	63.19
638.61	84.26
638.76	152.13
638.91	114.69
639.06	84.26
639.20	67.88
639.35	142.77
639.50	98.30
639.65	67.88
639.80	51.49
639.94	135.75
640.09	100.64
640.24	88.94
640.39	49.15
640.54	2.34
640.68	42.13
640.83	58.51
640.98	105.32
641.13	60.85
641.27	112.35
641.42	51.49
641.57	65.54
641.72	67.88
641.86	107.66
642.01	58.51
642.16	28.09
642.31	32.77
642.45	18.72
642.60	63.19
642.75	133.41
642.90	86.60
643.04	53.83
643.19	9.36
643.34	56.17
643.48	9.36
643.63	74.90
643.78	121.71
643.93	63.19
644.07	65.54
644.22	39.79
644.37	14.04
644.51	105.32
644.66	102.98
644.81	0.00
644.95	32.77
645.10	35.11
645.25	39.79
645.39	65.54
645.54	49.15
645.69	46.81
645.83	74.90
645.98	60.85
646.13	70.22
646.27	46.81
646.42	23.41
646.57	11.70
646.71	32.77
646.86	0.00
647.00	30.43
647.15	63.19
647.30	18.72
647.44	131.07
647.59	98.30
647.74	44.47
647.88	84.26
648.03	32.77
648.17	39.79
648.32	67.88
648.47	107.66
648.61	53.83
648.76	0.00
648.90	135.75
649.05	18.72
649.20	30.43
649.34	93.62
649.49	0.00
649.63	46.81
649.78	56.17
649.92	0.00
650.07	53.83
650.21	53.83
650.36	100.64
650.51	0.00
650.65	67.88
650.80	72.56
650.94	100.64
651.09	28.09
651.23	95.96
651.38	44.47
651.52	58.51
651.67	11.70
651.81	70.22
651.96	77.24
652.10	105.32
652.25	51.49
652.39	30.43
652.54	0.00
652.68	65.54
652.83	46.81
652.97	35.11
653.12	4.68
653.26	18.72
653.41	4.68
653.55	88.94
653.70	0.00
653.84	0.00
653.99	72.56
654.13	60.85
654.27	102.98
654.42	100.64
654.56	72.56
654.71	14.04
654.85	58.51
655.00	0.00
655.14	39.79
655.29	53.83
655.43	25.75
655.57	21.06
655.72	63.19
655.86	114.69
656.01	86.60
656.15	7.02
656.30	9.36
656.44	46.81
656.58	0.00
656.73	70.22
656.87	93.62
657.01	46.81
657.16	25.75
657.30	56.17
657.45	74.90
657.59	28.09
657.73	25.75
657.88	84.26
658.02	0.00
658.16	67.88
658.31	72.56
658.45	124.05
658.60	37.45
658.74	79.58
658.88	93.62
659.03	88.94
659.17	131.07
659.31	77.24
659.46	56.17
659.60	91.28
659.74	133.41
659.89	28.09
660.03	46.81
660.17	56.17
660.32	42.13
660.46	30.43
660.60	18.72
660.74	63.19
660.89	42.13
661.03	60.85
661.17	79.58
661.32	91.28
661.46	0.00
661.60	74.90
661.74	79.58
661.89	77.24
662.03	81.92
662.17	98.30
662.31	95.96
662.46	84.26
662.60	60.85
662.74	30.43
662.88	58.51
663.03	23.41
663.17	0.00
663.31	37.45
663.45	154.48
663.60	114.69
663.74	107.66
663.88	0.00
664.02	65.54
664.17	107.66
664.31	44.47
664.45	65.54
664.59	37.45
664.73	25.75
664.88	91.28
665.02	84.26
665.16	44.47
665.30	37.45
665.44	44.47
665.59	58.51
665.73	70.22
665.87	79.58
666.01	51.49
666.15	60.85
666.29	25.75
666.44	74.90
666.58	93.62
666.72	39.79
666.86	37.45
667.00	46.81
667.14	28.09
667.28	93.62
667.43	74.90
667.57	18.72
667.71	70.22
667.85	51.49
667.99	58.51
668.13	46.81
668.27	63.19
668.41	58.51
668.56	7.02
668.70	0.00
668.84	2.34
668.98	0.00
669.12	30.43
669.26	72.56
669.40	81.92
669.54	81.92
669.68	0.00
669.82	0.00
669.96	70.22
670.10	58.51
670.25	93.62
670.39	37.45
670.53	11.70
670.67	72.56
670.81	14.04
670.95	121.71
671.09	119.37
671.23	11.70
671.37	4.68
671.51	2.34
671.65	46.81
671.79	32.77
671.93	86.60
672.07	49.15
672.21	56.17
672.35	0.00
672.49	51.49
672.63	65.54
672.77	14.04
672.91	42.13
673.05	65.54
673.19	0.00
673.33	44.47
673.47	81.92
673.61	79.58
673.75	0.00
673.89	35.11
674.03	37.45
674.17	0.00
674.31	74.90
674.45	79.58
674.59	91.28
674.73	49.15
674.87	74.90
675.01	0.00
675.15	9.36
675.29	67.88
675.43	95.96
675.56	35.11
675.70	44.47
675.84	60.85
675.98	58.51
676.12	105.32
676.26	70.22
676.40	32.77
676.54	46.81
676.68	74.90
676.82	9.36
676.96	16.38
677.10	16.38
677.23	88.94
677.37	60.85
677.51	0.00
677.65	28.09
677.79	28.09
677.93	35.11
678.07	4.68
678.21	56.17
678.34	0.00
678.48	0.00
678.62	51.49
678.76	25.75
678.90	65.54
679.04	65.54
679.18	28.09
679.31	51.49
679.45	49.15
679.59	44.47
679.73	0.00
679.87	56.17
680.00	117.03
680.14	102.98
680.28	51.49
680.42	37.45
680.56	49.15
680.70	46.81
680.83	86.60
680.97	0.00
681.11	44.47
681.25	56.17
681.39	91.28
681.52	35.11
681.66	9.36
681.80	0.00
681.94	0.00
682.07	63.19
682.21	81.92
682.35	42.13
682.49	63.19
682.62	72.56
682.76	46.81
682.90	84.26
683.04	9.36
683.17	44.47
683.31	49.15
683.45	107.66
683.59	72.56
683.72	63.19
683.86	84.26
684.00	46.81
684.13	42.13
684.27	0.00
684.41	37.45
684.55	72.56
684.68	25.75
684.82	0.00
684.96	49.15
685.09	0.00
685.23	7.02
685.37	67.88
685.50	32.77
685.64	88.94
685.78	65.54
685.91	7.02
686.05	65.54
686.19	100.64
686.32	32.77
686.46	46.81
686.60	0.00
686.73	46.81
686.87	91.28
687.01	21.06
687.14	7.02
687.28	86.60
687.42	9.36
687.55	30.43
687.69	79.58
687.82	133.41
687.96	23.41
688.10	23.41
688.23	23.41
688.37	49.15
688.50	28.09
688.64	28.09
688.78	86.60
688.91	0.00
689.05	60.85
689.18	93.62
689.32	9.36
689.46	0.00
689.59	23.41
689.73	74.90
689.86	0.00
690.00	0.00
690.13	91.28
690.27	16.38
690.41	77.24
690.54	58.51
690.68	30.43
690.81	32.77
690.95	0.00
691.08	14.04
691.22	32.77
691.35	44.47
691.49	105.32
691.62	4.68
691.76	0.00
691.89	21.06
692.03	35.11
692.16	95.96
692.30	9.36
692.43	39.79
692.57	0.00
692.70	49.15
692.84	67.88
692.97	53.83
693.11	74.90
693.24	35.11
693.38	44.47
693.51	14.04
693.65	7.02
693.78	46.81
693.92	0.00
694.05	86.60
694.19	35.11
694.32	14.04
694.45	46.81
694.59	51.49
694.72	37.45
694.86	28.09
694.99	65.54
695.13	23.41
695.26	11.70
695.39	93.62
695.53	32.77
695.66	30.43
695.80	16.38
695.93	0.00
696.07	84.26
696.20	67.88
696.33	86.60
696.47	51.49
696.60	91.28
696.73	93.62
696.87	4.68
697.00	39.79
697.14	51.49
697.27	67.88
697.40	107.66
697.54	28.09
697.67	0.00
697.80	35.11
697.94	35.11
698.07	28.09
698.21	23.41
698.34	0.00
698.47	16.38
698.61	39.79
698.74	86.60
698.87	0.00
699.01	70.22
699.14	51.49
699.27	72.56
699.40	105.32
699.54	44.47
699.67	77.24
699.80	60.85
699.94	9.36
700.07	0.00
700.20	18.72
700.34	0.00
700.47	0.00
700.60	0.00
700.73	37.45
700.87	30.43
701.00	39.79
701.13	11.70
701.26	16.38
701.40	0.00
701.53	70.22
701.66	4.68
701.79	9.36
701.93	0.00
702.06	65.54
702.19	81.92
702.32	14.04
702.46	35.11
702.59	0.00
702.72	53.83
702.85	35.11
702.99	44.47
703.12	63.19
703.25	121.71
703.38	51.49
703.51	86.60
703.65	0.00
703.78	0.00
703.91	0.00
704.04	0.00
704.17	56.17
704.31	51.49
704.44	72.56
704.57	49.15
704.70	32.77
704.83	35.11
704.96	30.43
705.10	0.00
705.23	67.88
>>>>>End Processed Spectral Data<<<<<
