SpectraSuite Data File
++++++++++++++++++++++++++++++++++++
Date: Fri Oct 04 12:13:30 GMT-05:00 2013
User: price-jones
Dark Spectrum Present: No
Reference Spectrum Present: No
Number of Sampled Component Spectra: 1
Spectrometers: USB2+H05261
Integration Time (usec): 10000 (USB2+H05261)
Spectra Averaged: 1 (USB2+H05261)
Boxcar Smoothing: 0 (USB2+H05261)
Correct for Electrical Dark: No (USB2+H05261)
Strobe/Lamp Enabled: No (USB2+H05261)
Correct for Detector Non-linearity: No (USB2+H05261)
Correct for Stray Light: No (USB2+H05261)
Number of Pixels in Processed Spectrum: 2048
>>>>>Begin Processed Spectral Data<<<<<
365.73	0.00
365.92	0.00
366.12	0.00
366.32	0.00
366.52	0.00
366.72	0.00
366.91	0.00
367.11	0.00
367.31	0.00
367.51	0.00
367.70	0.00
367.90	0.00
368.10	0.00
368.30	0.00
368.49	0.00
368.69	0.00
368.89	0.00
369.09	0.00
369.28	0.00
369.48	0.00
369.68	0.00
369.87	0.00
370.07	0.00
370.27	0.00
370.47	0.00
370.66	0.00
370.86	0.00
371.06	0.00
371.25	0.00
371.45	0.00
371.65	0.00
371.84	0.00
372.04	30.43
372.24	84.26
372.44	0.00
372.63	4.68
372.83	0.00
373.03	7.02
373.22	0.00
373.42	11.70
373.62	84.26
373.81	46.81
374.01	91.28
374.21	95.96
374.40	0.00
374.60	0.00
374.79	16.38
374.99	0.00
375.19	18.72
375.38	63.19
375.58	4.68
375.78	46.81
375.97	46.81
376.17	56.17
376.37	16.38
376.56	53.83
376.76	4.68
376.95	37.45
377.15	28.09
377.35	23.41
377.54	25.75
377.74	0.00
377.93	30.43
378.13	0.00
378.33	7.02
378.52	14.04
378.72	7.02
378.91	0.00
379.11	0.00
379.31	0.00
379.50	23.41
379.70	86.60
379.89	9.36
380.09	0.00
380.28	21.06
380.48	0.00
380.68	0.00
380.87	0.00
381.07	70.22
381.26	0.00
381.46	0.00
381.65	44.47
381.85	37.45
382.04	4.68
382.24	4.68
382.43	0.00
382.63	0.00
382.83	44.47
383.02	0.00
383.22	44.47
383.41	0.00
383.61	0.00
383.80	18.72
384.00	42.13
384.19	0.00
384.39	14.04
384.58	28.09
384.78	28.09
384.97	0.00
385.17	51.49
385.36	18.72
385.56	9.36
385.75	44.47
385.95	2.34
386.14	14.04
386.34	2.34
386.53	37.45
386.72	21.06
386.92	37.45
387.11	11.70
387.31	9.36
387.50	0.00
387.70	46.81
387.89	37.45
388.09	32.77
388.28	30.43
388.48	53.83
388.67	53.83
388.86	0.00
389.06	0.00
389.25	53.83
389.45	0.00
389.64	0.00
389.84	9.36
390.03	11.70
390.22	35.11
390.42	72.56
390.61	9.36
390.81	0.00
391.00	49.15
391.19	74.90
391.39	25.75
391.58	0.00
391.78	30.43
391.97	79.58
392.16	58.51
392.36	16.38
392.55	60.85
392.75	14.04
392.94	18.72
393.13	4.68
393.33	16.38
393.52	0.00
393.71	0.00
393.91	0.00
394.10	25.75
394.29	0.00
394.49	23.41
394.68	42.13
394.88	2.34
395.07	2.34
395.26	56.17
395.46	44.47
395.65	9.36
395.84	25.75
396.04	0.00
396.23	7.02
396.42	0.00
396.62	16.38
396.81	14.04
397.00	14.04
397.19	0.00
397.39	28.09
397.58	0.00
397.77	81.92
397.97	44.47
398.16	0.00
398.35	0.00
398.55	9.36
398.74	32.77
398.93	7.02
399.12	42.13
399.32	32.77
399.51	91.28
399.70	7.02
399.90	4.68
400.09	42.13
400.28	37.45
400.47	74.90
400.67	14.04
400.86	32.77
401.05	58.51
401.24	53.83
401.44	0.00
401.63	0.00
401.82	0.00
402.01	35.11
402.21	9.36
402.40	0.00
402.59	0.00
402.78	60.85
402.97	65.54
403.17	95.96
403.36	70.22
403.55	142.77
403.74	30.43
403.93	0.00
404.13	11.70
404.32	72.56
404.51	7.02
404.70	0.00
404.89	70.22
405.09	72.56
405.28	56.17
405.47	11.70
405.66	0.00
405.85	32.77
406.05	37.45
406.24	14.04
406.43	4.68
406.62	0.00
406.81	37.45
407.00	18.72
407.20	70.22
407.39	0.00
407.58	21.06
407.77	2.34
407.96	9.36
408.15	39.79
408.34	0.00
408.54	16.38
408.73	0.00
408.92	35.11
409.11	53.83
409.30	0.00
409.49	0.00
409.68	58.51
409.87	72.56
410.07	51.49
410.26	25.75
410.45	7.02
410.64	11.70
410.83	7.02
411.02	23.41
411.21	0.00
411.40	60.85
411.59	88.94
411.78	32.77
411.98	56.17
412.17	0.00
412.36	18.72
412.55	0.00
412.74	16.38
412.93	49.15
413.12	49.15
413.31	49.15
413.50	11.70
413.69	23.41
413.88	18.72
414.07	49.15
414.26	72.56
414.45	46.81
414.64	21.06
414.83	14.04
415.02	4.68
415.22	21.06
415.41	0.00
415.60	28.09
415.79	0.00
415.98	14.04
416.17	35.11
416.36	39.79
416.55	2.34
416.74	102.98
416.93	28.09
417.12	37.45
417.31	30.43
417.50	25.75
417.69	65.54
417.88	44.47
418.07	0.00
418.26	32.77
418.45	84.26
418.64	23.41
418.83	0.00
419.02	56.17
419.21	37.45
419.39	0.00
419.58	0.00
419.77	63.19
419.96	9.36
420.15	72.56
420.34	60.85
420.53	0.00
420.72	86.60
420.91	16.38
421.10	0.00
421.29	0.00
421.48	72.56
421.67	53.83
421.86	28.09
422.05	18.72
422.24	30.43
422.43	35.11
422.61	0.00
422.80	11.70
422.99	51.49
423.18	0.00
423.37	18.72
423.56	42.13
423.75	0.00
423.94	67.88
424.13	49.15
424.32	0.00
424.50	0.00
424.69	0.00
424.88	53.83
425.07	30.43
425.26	30.43
425.45	23.41
425.64	7.02
425.83	9.36
426.01	37.45
426.20	0.00
426.39	46.81
426.58	0.00
426.77	35.11
426.96	39.79
427.15	0.00
427.33	2.34
427.52	0.00
427.71	37.45
427.90	14.04
428.09	65.54
428.28	72.56
428.46	4.68
428.65	42.13
428.84	60.85
429.03	46.81
429.22	56.17
429.40	18.72
429.59	81.92
429.78	30.43
429.97	35.11
430.16	0.00
430.34	2.34
430.53	86.60
430.72	51.49
430.91	0.00
431.10	0.00
431.28	84.26
431.47	58.51
431.66	81.92
431.85	0.00
432.03	65.54
432.22	0.00
432.41	39.79
432.60	32.77
432.79	37.45
432.97	0.00
433.16	65.54
433.35	32.77
433.54	0.00
433.72	51.49
433.91	79.58
434.10	11.70
434.28	2.34
434.47	0.00
434.66	0.00
434.85	35.11
435.03	39.79
435.22	11.70
435.41	2.34
435.59	39.79
435.78	63.19
435.97	37.45
436.16	67.88
436.34	67.88
436.53	4.68
436.72	4.68
436.90	72.56
437.09	21.06
437.28	0.00
437.46	0.00
437.65	16.38
437.84	4.68
438.02	0.00
438.21	9.36
438.40	42.13
438.58	72.56
438.77	14.04
438.96	9.36
439.14	51.49
439.33	44.47
439.52	39.79
439.70	35.11
439.89	0.00
440.08	18.72
440.26	4.68
440.45	28.09
440.63	0.00
440.82	42.13
441.01	44.47
441.19	0.00
441.38	23.41
441.57	25.75
441.75	14.04
441.94	16.38
442.12	32.77
442.31	28.09
442.50	37.45
442.68	35.11
442.87	9.36
443.05	18.72
443.24	0.00
443.43	39.79
443.61	72.56
443.80	16.38
443.98	46.81
444.17	95.96
444.35	51.49
444.54	44.47
444.73	0.00
444.91	0.00
445.10	37.45
445.28	11.70
445.47	7.02
445.65	0.00
445.84	0.00
446.02	70.22
446.21	0.00
446.39	88.94
446.58	30.43
446.77	86.60
446.95	98.30
447.14	0.00
447.32	39.79
447.51	0.00
447.69	37.45
447.88	46.81
448.06	35.11
448.25	0.00
448.43	70.22
448.62	0.00
448.80	0.00
448.99	9.36
449.17	23.41
449.36	0.00
449.54	53.83
449.73	56.17
449.91	0.00
450.10	39.79
450.28	32.77
450.46	77.24
450.65	117.03
450.83	72.56
451.02	39.79
451.20	30.43
451.39	46.81
451.57	44.47
451.76	74.90
451.94	28.09
452.13	42.13
452.31	119.37
452.49	0.00
452.68	14.04
452.86	56.17
453.05	105.32
453.23	4.68
453.42	16.38
453.60	51.49
453.78	21.06
453.97	39.79
454.15	0.00
454.34	0.00
454.52	58.51
454.70	4.68
454.89	30.43
455.07	4.68
455.26	4.68
455.44	72.56
455.62	32.77
455.81	28.09
455.99	77.24
456.17	2.34
456.36	0.00
456.54	65.54
456.73	42.13
456.91	4.68
457.09	72.56
457.28	28.09
457.46	2.34
457.64	11.70
457.83	11.70
458.01	0.00
458.19	7.02
458.38	0.00
458.56	2.34
458.74	0.00
458.93	9.36
459.11	0.00
459.29	39.79
459.48	67.88
459.66	35.11
459.84	49.15
460.03	0.00
460.21	65.54
460.39	0.00
460.57	72.56
460.76	49.15
460.94	0.00
461.12	0.00
461.31	42.13
461.49	35.11
461.67	86.60
461.85	46.81
462.04	86.60
462.22	93.62
462.40	39.79
462.59	37.45
462.77	0.00
462.95	7.02
463.13	102.98
463.32	21.06
463.50	16.38
463.68	4.68
463.86	4.68
464.05	91.28
464.23	0.00
464.41	0.00
464.59	44.47
464.78	30.43
464.96	0.00
465.14	72.56
465.32	9.36
465.50	46.81
465.69	100.64
465.87	0.00
466.05	0.00
466.23	18.72
466.41	117.03
466.60	53.83
466.78	0.00
466.96	28.09
467.14	117.03
467.32	53.83
467.51	0.00
467.69	44.47
467.87	0.00
468.05	11.70
468.23	0.00
468.41	0.00
468.60	0.00
468.78	58.51
468.96	102.98
469.14	0.00
469.32	28.09
469.50	30.43
469.69	51.49
469.87	25.75
470.05	49.15
470.23	63.19
470.41	32.77
470.59	0.00
470.77	21.06
470.95	0.00
471.14	0.00
471.32	0.00
471.50	32.77
471.68	9.36
471.86	30.43
472.04	0.00
472.22	56.17
472.40	88.94
472.58	4.68
472.77	77.24
472.95	0.00
473.13	42.13
473.31	28.09
473.49	14.04
473.67	9.36
473.85	49.15
474.03	0.00
474.21	7.02
474.39	16.38
474.57	72.56
474.75	0.00
474.93	4.68
475.12	63.19
475.30	42.13
475.48	60.85
475.66	32.77
475.84	16.38
476.02	0.00
476.20	21.06
476.38	28.09
476.56	53.83
476.74	63.19
476.92	11.70
477.10	0.00
477.28	16.38
477.46	0.00
477.64	32.77
477.82	72.56
478.00	0.00
478.18	0.00
478.36	14.04
478.54	25.75
478.72	0.00
478.90	65.54
479.08	42.13
479.26	44.47
479.44	28.09
479.62	84.26
479.80	42.13
479.98	11.70
480.16	56.17
480.34	2.34
480.52	107.66
480.70	0.00
480.88	7.02
481.06	18.72
481.24	88.94
481.41	4.68
481.59	35.11
481.77	14.04
481.95	14.04
482.13	0.00
482.31	72.56
482.49	32.77
482.67	23.41
482.85	16.38
483.03	0.00
483.21	67.88
483.39	46.81
483.57	72.56
483.74	9.36
483.92	0.00
484.10	23.41
484.28	65.54
484.46	63.19
484.64	30.43
484.82	14.04
485.00	0.00
485.18	0.00
485.35	0.00
485.53	84.26
485.71	117.03
485.89	4.68
486.07	49.15
486.25	46.81
486.43	72.56
486.61	102.98
486.78	60.85
486.96	42.13
487.14	25.75
487.32	42.13
487.50	28.09
487.68	72.56
487.85	35.11
488.03	53.83
488.21	2.34
488.39	79.58
488.57	39.79
488.75	154.48
488.92	98.30
489.10	46.81
489.28	32.77
489.46	21.06
489.64	84.26
489.81	46.81
489.99	77.24
490.17	56.17
490.35	42.13
490.53	23.41
490.70	23.41
490.88	30.43
491.06	67.88
491.24	0.00
491.41	58.51
491.59	0.00
491.77	14.04
491.95	58.51
492.13	0.00
492.30	16.38
492.48	23.41
492.66	25.75
492.84	65.54
493.01	0.00
493.19	63.19
493.37	37.45
493.54	79.58
493.72	60.85
493.90	65.54
494.08	11.70
494.25	95.96
494.43	30.43
494.61	14.04
494.79	42.13
494.96	65.54
495.14	14.04
495.32	39.79
495.49	58.51
495.67	39.79
495.85	9.36
496.02	35.11
496.20	32.77
496.38	60.85
496.55	16.38
496.73	0.00
496.91	49.15
497.09	4.68
497.26	25.75
497.44	42.13
497.62	77.24
497.79	46.81
497.97	51.49
498.14	0.00
498.32	56.17
498.50	67.88
498.67	18.72
498.85	72.56
499.03	44.47
499.20	0.00
499.38	18.72
499.56	4.68
499.73	77.24
499.91	42.13
500.08	35.11
500.26	28.09
500.44	46.81
500.61	46.81
500.79	0.00
500.97	28.09
501.14	9.36
501.32	23.41
501.49	9.36
501.67	98.30
501.84	14.04
502.02	25.75
502.20	56.17
502.37	32.77
502.55	65.54
502.72	30.43
502.90	30.43
503.07	16.38
503.25	44.47
503.43	70.22
503.60	21.06
503.78	100.64
503.95	46.81
504.13	9.36
504.30	23.41
504.48	9.36
504.65	0.00
504.83	60.85
505.01	91.28
505.18	42.13
505.36	9.36
505.53	84.26
505.71	11.70
505.88	39.79
506.06	88.94
506.23	110.01
506.41	53.83
506.58	51.49
506.76	86.60
506.93	42.13
507.11	37.45
507.28	16.38
507.46	46.81
507.63	35.11
507.81	105.32
507.98	107.66
508.16	56.17
508.33	46.81
508.50	53.83
508.68	77.24
508.85	18.72
509.03	0.00
509.20	84.26
509.38	112.35
509.55	0.00
509.73	9.36
509.90	51.49
510.08	74.90
510.25	49.15
510.42	67.88
510.60	63.19
510.77	67.88
510.95	0.00
511.12	117.03
511.30	58.51
511.47	46.81
511.64	42.13
511.82	42.13
511.99	44.47
512.17	67.88
512.34	28.09
512.51	23.41
512.69	11.70
512.86	77.24
513.04	21.06
513.21	53.83
513.38	42.13
513.56	0.00
513.73	91.28
513.90	65.54
514.08	0.00
514.25	72.56
514.43	67.88
514.60	39.79
514.77	32.77
514.95	42.13
515.12	0.00
515.29	32.77
515.47	14.04
515.64	4.68
515.81	14.04
515.99	60.85
516.16	60.85
516.33	23.41
516.51	7.02
516.68	28.09
516.85	91.28
517.03	88.94
517.20	44.47
517.37	35.11
517.54	37.45
517.72	23.41
517.89	14.04
518.06	4.68
518.24	2.34
518.41	9.36
518.58	32.77
518.75	63.19
518.93	56.17
519.10	88.94
519.27	107.66
519.45	67.88
519.62	28.09
519.79	79.58
519.96	0.00
520.14	7.02
520.31	51.49
520.48	25.75
520.65	0.00
520.83	32.77
521.00	39.79
521.17	95.96
521.34	88.94
521.52	32.77
521.69	14.04
521.86	0.00
522.03	37.45
522.20	4.68
522.38	18.72
522.55	44.47
522.72	53.83
522.89	58.51
523.07	70.22
523.24	42.13
523.41	42.13
523.58	9.36
523.75	35.11
523.92	42.13
524.10	60.85
524.27	77.24
524.44	91.28
524.61	124.05
524.78	0.00
524.96	37.45
525.13	51.49
525.30	77.24
525.47	9.36
525.64	56.17
525.81	30.43
525.98	0.00
526.16	16.38
526.33	81.92
526.50	51.49
526.67	2.34
526.84	63.19
527.01	65.54
527.18	7.02
527.36	98.30
527.53	70.22
527.70	60.85
527.87	0.00
528.04	32.77
528.21	7.02
528.38	88.94
528.55	39.79
528.72	53.83
528.89	39.79
529.07	77.24
529.24	30.43
529.41	14.04
529.58	2.34
529.75	37.45
529.92	18.72
530.09	0.00
530.26	63.19
530.43	142.77
530.60	7.02
530.77	56.17
530.94	0.00
531.11	0.00
531.28	30.43
531.46	128.73
531.63	70.22
531.80	32.77
531.97	81.92
532.14	11.70
532.31	58.51
532.48	0.00
532.65	133.41
532.82	42.13
532.99	18.72
533.16	28.09
533.33	30.43
533.50	39.79
533.67	60.85
533.84	145.11
534.01	46.81
534.18	37.45
534.35	39.79
534.52	63.19
534.69	14.04
534.86	72.56
535.03	30.43
535.20	65.54
535.37	84.26
535.54	79.58
535.71	77.24
535.88	30.43
536.05	56.17
536.22	18.72
536.38	32.77
536.55	0.00
536.72	28.09
536.89	28.09
537.06	4.68
537.23	70.22
537.40	0.00
537.57	7.02
537.74	35.11
537.91	56.17
538.08	49.15
538.25	0.00
538.42	60.85
538.59	0.00
538.75	9.36
538.92	4.68
539.09	0.00
539.26	35.11
539.43	28.09
539.60	117.03
539.77	102.98
539.94	4.68
540.11	23.41
540.28	102.98
540.44	49.15
540.61	0.00
540.78	42.13
540.95	35.11
541.12	42.13
541.29	14.04
541.46	0.00
541.62	93.62
541.79	11.70
541.96	35.11
542.13	60.85
542.30	49.15
542.47	35.11
542.63	4.68
542.80	58.51
542.97	49.15
543.14	53.83
543.31	28.09
543.48	25.75
543.64	16.38
543.81	0.00
543.98	16.38
544.15	67.88
544.32	25.75
544.48	46.81
544.65	39.79
544.82	9.36
544.99	0.00
545.16	4.68
545.32	0.00
545.49	0.00
545.66	0.00
545.83	100.64
546.00	39.79
546.16	72.56
546.33	84.26
546.50	9.36
546.67	42.13
546.83	60.85
547.00	0.00
547.17	91.28
547.34	102.98
547.50	60.85
547.67	95.96
547.84	25.75
548.00	53.83
548.17	79.58
548.34	65.54
548.51	51.49
548.67	95.96
548.84	28.09
549.01	14.04
549.18	84.26
549.34	46.81
549.51	60.85
549.68	105.32
549.84	35.11
550.01	84.26
550.18	39.79
550.34	51.49
550.51	4.68
550.68	112.35
550.84	60.85
551.01	0.00
551.18	28.09
551.34	98.30
551.51	0.00
551.68	77.24
551.84	121.71
552.01	79.58
552.18	60.85
552.34	32.77
552.51	21.06
552.68	21.06
552.84	88.94
553.01	0.00
553.18	102.98
553.34	0.00
553.51	49.15
553.67	84.26
553.84	95.96
554.01	23.41
554.17	39.79
554.34	7.02
554.51	42.13
554.67	7.02
554.84	42.13
555.00	74.90
555.17	44.47
555.33	65.54
555.50	2.34
555.67	53.83
555.83	0.00
556.00	46.81
556.16	102.98
556.33	42.13
556.50	88.94
556.66	16.38
556.83	4.68
556.99	0.00
557.16	112.35
557.32	0.00
557.49	18.72
557.65	25.75
557.82	28.09
557.98	72.56
558.15	60.85
558.32	74.90
558.48	91.28
558.65	91.28
558.81	37.45
558.98	25.75
559.14	91.28
559.31	63.19
559.47	4.68
559.64	35.11
559.80	65.54
559.97	84.26
560.13	0.00
560.30	0.00
560.46	0.00
560.63	84.26
560.79	74.90
560.96	28.09
561.12	81.92
561.29	0.00
561.45	16.38
561.61	70.22
561.78	112.35
561.94	58.51
562.11	49.15
562.27	35.11
562.44	9.36
562.60	65.54
562.77	49.15
562.93	32.77
563.10	9.36
563.26	14.04
563.42	18.72
563.59	102.98
563.75	0.00
563.92	7.02
564.08	9.36
564.24	72.56
564.41	42.13
564.57	21.06
564.74	51.49
564.90	14.04
565.07	42.13
565.23	84.26
565.39	56.17
565.56	58.51
565.72	16.38
565.88	39.79
566.05	110.01
566.21	58.51
566.38	35.11
566.54	21.06
566.70	81.92
566.87	9.36
567.03	7.02
567.19	42.13
567.36	39.79
567.52	51.49
567.68	18.72
567.85	100.64
568.01	4.68
568.17	30.43
568.34	58.51
568.50	53.83
568.66	79.58
568.83	7.02
568.99	14.04
569.15	95.96
569.32	53.83
569.48	0.00
569.64	0.00
569.81	30.43
569.97	28.09
570.13	56.17
570.30	93.62
570.46	0.00
570.62	35.11
570.78	28.09
570.95	30.43
571.11	63.19
571.27	7.02
571.43	25.75
571.60	63.19
571.76	18.72
571.92	32.77
572.09	28.09
572.25	0.00
572.41	0.00
572.57	84.26
572.74	28.09
572.90	21.06
573.06	0.00
573.22	56.17
573.38	0.00
573.55	30.43
573.71	0.00
573.87	23.41
574.03	14.04
574.20	21.06
574.36	53.83
574.52	21.06
574.68	16.38
574.84	51.49
575.01	0.00
575.17	39.79
575.33	0.00
575.49	65.54
575.65	2.34
575.82	91.28
575.98	7.02
576.14	16.38
576.30	112.35
576.46	14.04
576.62	100.64
576.79	91.28
576.95	46.81
577.11	56.17
577.27	18.72
577.43	0.00
577.59	49.15
577.75	79.58
577.92	49.15
578.08	0.00
578.24	9.36
578.40	0.00
578.56	23.41
578.72	39.79
578.88	53.83
579.04	37.45
579.21	0.00
579.37	79.58
579.53	65.54
579.69	11.70
579.85	35.11
580.01	77.24
580.17	32.77
580.33	4.68
580.49	30.43
580.65	0.00
580.82	49.15
580.98	0.00
581.14	25.75
581.30	0.00
581.46	46.81
581.62	67.88
581.78	46.81
581.94	79.58
582.10	121.71
582.26	63.19
582.42	56.17
582.58	21.06
582.74	0.00
582.90	21.06
583.06	126.39
583.22	70.22
583.38	11.70
583.54	2.34
583.70	95.96
583.86	74.90
584.02	28.09
584.18	21.06
584.34	84.26
584.50	133.41
584.66	760.67
584.82	1837.32
584.98	2539.48
585.14	2352.24
585.30	1500.28
585.46	910.47
585.62	561.73
585.78	294.91
585.94	142.77
586.10	86.60
586.26	0.00
586.42	70.22
586.58	39.79
586.74	67.88
586.90	53.83
587.06	67.88
587.22	32.77
587.38	42.13
587.54	79.58
587.70	170.86
587.86	217.67
588.02	334.70
588.18	140.43
588.34	95.96
588.49	46.81
588.65	135.75
588.81	56.17
588.97	44.47
589.13	18.72
589.29	44.47
589.45	28.09
589.61	60.85
589.77	32.77
589.93	0.00
590.08	77.24
590.24	25.75
590.40	35.11
590.56	0.00
590.72	23.41
590.88	0.00
591.04	74.90
591.20	4.68
591.35	42.13
591.51	84.26
591.67	53.83
591.83	28.09
591.99	81.92
592.15	110.01
592.31	28.09
592.46	21.06
592.62	37.45
592.78	2.34
592.94	23.41
593.10	0.00
593.26	51.49
593.41	53.83
593.57	7.02
593.73	133.41
593.89	184.90
594.05	259.80
594.20	367.46
594.36	299.59
594.52	278.52
594.68	184.90
594.84	102.98
594.99	142.77
595.15	49.15
595.31	0.00
595.47	60.85
595.62	53.83
595.78	51.49
595.94	0.00
596.10	67.88
596.25	86.60
596.41	0.00
596.57	58.51
596.73	0.00
596.88	37.45
597.04	98.30
597.20	119.37
597.36	107.66
597.51	39.79
597.67	63.19
597.83	58.51
597.99	58.51
598.14	16.38
598.30	30.43
598.46	37.45
598.61	0.00
598.77	30.43
598.93	117.03
599.09	0.00
599.24	105.32
599.40	77.24
599.56	25.75
599.71	51.49
599.87	39.79
600.03	44.47
600.18	2.34
600.34	70.22
600.50	51.49
600.65	23.41
600.81	18.72
600.97	152.13
601.12	30.43
601.28	39.79
601.44	14.04
601.59	30.43
601.75	79.58
601.91	7.02
602.06	51.49
602.22	44.47
602.37	65.54
602.53	100.64
602.69	114.69
602.84	161.50
603.00	93.62
603.16	84.26
603.31	46.81
603.47	72.56
603.62	7.02
603.78	0.00
603.94	51.49
604.09	0.00
604.25	21.06
604.40	0.00
604.56	133.41
604.71	51.49
604.87	37.45
605.03	9.36
605.18	37.45
605.34	35.11
605.49	28.09
605.65	7.02
605.80	35.11
605.96	110.01
606.12	128.73
606.27	56.17
606.43	14.04
606.58	98.30
606.74	79.58
606.89	156.82
607.05	273.84
607.20	294.91
607.36	257.46
607.51	163.84
607.67	102.98
607.82	128.73
607.98	39.79
608.13	23.41
608.29	4.68
608.44	11.70
608.60	35.11
608.75	105.32
608.91	67.88
609.06	245.76
609.22	411.93
609.37	554.71
609.53	479.81
609.68	346.40
609.84	177.88
609.99	114.69
610.15	65.54
610.30	30.43
610.46	49.15
610.61	72.56
610.76	58.51
610.92	0.00
611.07	0.00
611.23	37.45
611.38	32.77
611.54	84.26
611.69	25.75
611.84	14.04
612.00	23.41
612.15	65.54
612.31	46.81
612.46	0.00
612.62	46.81
612.77	35.11
612.92	140.43
613.08	44.47
613.23	25.75
613.39	74.90
613.54	98.30
613.69	208.31
613.85	500.87
614.00	725.57
614.15	840.25
614.31	564.07
614.46	337.04
614.62	259.80
614.77	121.71
614.92	128.73
615.08	102.98
615.23	98.30
615.38	0.00
615.54	39.79
615.69	0.00
615.84	133.41
616.00	283.20
616.15	180.22
616.30	170.86
616.46	241.08
616.61	138.09
616.76	149.79
616.92	0.00
617.07	9.36
617.22	84.26
617.37	0.00
617.53	21.06
617.68	53.83
617.83	65.54
617.99	0.00
618.14	0.00
618.29	65.54
618.45	49.15
618.60	67.88
618.75	39.79
618.90	0.00
619.06	58.51
619.21	93.62
619.36	23.41
619.51	67.88
619.67	9.36
619.82	16.38
619.97	107.66
620.12	32.77
620.28	32.77
620.43	49.15
620.58	93.62
620.73	46.81
620.89	65.54
621.04	77.24
621.19	86.60
621.34	149.79
621.49	117.03
621.65	177.88
621.80	60.85
621.95	86.60
622.10	154.48
622.25	32.77
622.41	51.49
622.56	56.17
622.71	60.85
622.86	44.47
623.01	93.62
623.16	37.45
623.32	0.00
623.47	46.81
623.62	0.00
623.77	51.49
623.92	74.90
624.07	42.13
624.23	11.70
624.38	0.00
624.53	0.00
624.68	0.00
624.83	18.72
624.98	51.49
625.13	4.68
625.29	58.51
625.44	30.43
625.59	79.58
625.74	49.15
625.89	23.41
626.04	140.43
626.19	252.78
626.34	477.47
626.49	433.00
626.65	407.25
626.80	177.88
626.95	170.86
627.10	91.28
627.25	107.66
627.40	32.77
627.55	25.75
627.70	42.13
627.85	112.35
628.00	30.43
628.15	56.17
628.30	16.38
628.45	49.15
628.60	72.56
628.76	42.13
628.91	112.35
629.06	0.00
629.21	51.49
629.36	9.36
629.51	67.88
629.66	32.77
629.81	0.00
629.96	39.79
630.11	72.56
630.26	107.66
630.41	100.64
630.56	126.39
630.71	84.26
630.86	100.64
631.01	0.00
631.16	18.72
631.31	88.94
631.46	110.01
631.61	53.83
631.76	28.09
631.91	11.70
632.06	93.62
632.21	91.28
632.36	42.13
632.51	65.54
632.66	60.85
632.81	138.09
632.96	175.54
633.10	276.18
633.25	367.46
633.40	210.65
633.55	142.77
633.70	152.13
633.85	100.64
634.00	84.26
634.15	110.01
634.30	9.36
634.45	0.00
634.60	49.15
634.75	16.38
634.90	49.15
635.05	72.56
635.19	44.47
635.34	0.00
635.49	0.00
635.64	0.00
635.79	28.09
635.94	46.81
636.09	67.88
636.24	60.85
636.39	37.45
636.53	0.00
636.68	0.00
636.83	0.00
636.98	0.00
637.13	46.81
637.28	21.06
637.43	32.77
637.57	84.26
637.72	196.60
637.87	362.78
638.02	486.83
638.17	599.18
638.32	428.32
638.46	243.42
638.61	110.01
638.76	220.01
638.91	107.66
639.06	11.70
639.20	119.37
639.35	74.90
639.50	44.47
639.65	119.37
639.80	517.26
639.94	725.57
640.09	830.89
640.24	622.58
640.39	463.43
640.54	332.36
640.68	198.95
640.83	28.09
640.98	79.58
641.13	60.85
641.27	65.54
641.42	53.83
641.57	0.00
641.72	0.00
641.86	18.72
642.01	0.00
642.16	102.98
642.31	28.09
642.45	37.45
642.60	95.96
642.75	105.32
642.90	58.51
643.04	0.00
643.19	0.00
643.34	81.92
643.48	77.24
643.63	84.26
643.78	32.77
643.93	0.00
644.07	16.38
644.22	95.96
644.37	84.26
644.51	56.17
644.66	72.56
644.81	46.81
644.95	0.00
645.10	28.09
645.25	91.28
645.39	0.00
645.54	53.83
645.69	28.09
645.83	42.13
645.98	0.00
646.13	42.13
646.27	60.85
646.42	70.22
646.57	0.00
646.71	11.70
646.86	25.75
647.00	4.68
647.15	4.68
647.30	18.72
647.44	0.00
647.59	9.36
647.74	0.00
647.88	128.73
648.03	30.43
648.17	7.02
648.32	0.00
648.47	86.60
648.61	58.51
648.76	11.70
648.90	60.85
649.05	49.15
649.20	51.49
649.34	30.43
649.49	70.22
649.63	39.79
649.78	18.72
649.92	44.47
650.07	140.43
650.21	210.65
650.36	404.91
650.51	433.00
650.65	341.72
650.80	175.54
650.94	210.65
651.09	126.39
651.23	77.24
651.38	37.45
651.52	49.15
651.67	72.56
651.81	60.85
651.96	16.38
652.10	28.09
652.25	46.81
652.39	25.75
652.54	16.38
652.68	56.17
652.83	135.75
652.97	222.35
653.12	119.37
653.26	187.24
653.41	126.39
653.55	56.17
653.70	95.96
653.84	39.79
653.99	88.94
654.13	112.35
654.27	25.75
654.42	84.26
654.56	72.56
654.71	53.83
654.85	0.00
655.00	16.38
655.14	21.06
655.29	23.41
655.43	53.83
655.57	95.96
655.72	56.17
655.86	0.00
656.01	28.09
656.15	23.41
656.30	4.68
656.44	46.81
656.58	2.34
656.73	4.68
656.87	7.02
657.01	100.64
657.16	63.19
657.30	23.41
657.45	72.56
657.59	42.13
657.73	0.00
657.88	42.13
658.02	74.90
658.16	65.54
658.31	11.70
658.45	58.51
658.60	9.36
658.74	18.72
658.88	0.00
659.03	11.70
659.17	56.17
659.31	72.56
659.46	154.48
659.60	252.78
659.74	236.39
659.89	220.01
660.03	133.41
660.17	210.65
660.32	18.72
660.46	39.79
660.60	91.28
660.74	44.47
660.89	77.24
661.03	42.13
661.17	51.49
661.32	91.28
661.46	67.88
661.60	4.68
661.74	35.11
661.89	0.00
662.03	51.49
662.17	0.00
662.31	30.43
662.46	11.70
662.60	88.94
662.74	42.13
662.88	28.09
663.03	0.00
663.17	0.00
663.31	37.45
663.45	32.77
663.60	30.43
663.74	39.79
663.88	42.13
664.02	56.17
664.17	42.13
664.31	14.04
664.45	0.00
664.59	67.88
664.73	44.47
664.88	44.47
665.02	37.45
665.16	0.00
665.30	25.75
665.44	25.75
665.59	0.00
665.73	112.35
665.87	74.90
666.01	49.15
666.15	0.00
666.29	23.41
666.44	0.00
666.58	42.13
666.72	18.72
666.86	0.00
667.00	0.00
667.14	30.43
667.28	0.00
667.43	234.05
667.57	327.68
667.71	360.44
667.85	332.36
667.99	248.10
668.13	154.48
668.27	107.66
668.41	70.22
668.56	102.98
668.70	70.22
668.84	28.09
668.98	98.30
669.12	0.00
669.26	53.83
669.40	0.00
669.54	46.81
669.68	0.00
669.82	102.98
669.96	39.79
670.10	86.60
670.25	51.49
670.39	58.51
670.53	63.19
670.67	51.49
670.81	0.00
670.95	91.28
671.09	25.75
671.23	46.81
671.37	126.39
671.51	264.48
671.65	280.86
671.79	156.82
671.93	102.98
672.07	63.19
672.21	0.00
672.35	23.41
672.49	88.94
672.63	18.72
672.77	53.83
672.91	0.00
673.05	14.04
673.19	7.02
673.33	51.49
673.47	63.19
673.61	37.45
673.75	0.00
673.89	86.60
674.03	37.45
674.17	46.81
674.31	42.13
674.45	128.73
674.59	28.09
674.73	16.38
674.87	21.06
675.01	42.13
675.15	91.28
675.29	91.28
675.43	44.47
675.56	60.85
675.70	2.34
675.84	35.11
675.98	0.00
676.12	0.00
676.26	28.09
676.40	84.26
676.54	65.54
676.68	0.00
676.82	46.81
676.96	9.36
677.10	39.79
677.23	30.43
677.37	11.70
677.51	51.49
677.65	11.70
677.79	21.06
677.93	0.00
678.07	0.00
678.21	7.02
678.34	124.05
678.48	0.00
678.62	0.00
678.76	128.73
678.90	35.11
679.04	63.19
679.18	11.70
679.31	72.56
679.45	42.13
679.59	23.41
679.73	46.81
679.87	110.01
680.00	65.54
680.14	65.54
680.28	35.11
680.42	25.75
680.56	0.00
680.70	86.60
680.83	74.90
680.97	30.43
681.11	37.45
681.25	37.45
681.39	0.00
681.52	100.64
681.66	0.00
681.80	0.00
681.94	51.49
682.07	28.09
682.21	72.56
682.35	23.41
682.49	46.81
682.62	44.47
682.76	0.00
682.90	16.38
683.04	30.43
683.17	131.07
683.31	65.54
683.45	16.38
683.59	18.72
683.72	42.13
683.86	7.02
684.00	44.47
684.13	4.68
684.27	4.68
684.41	28.09
684.55	86.60
684.68	4.68
684.82	9.36
684.96	25.75
685.09	30.43
685.23	79.58
685.37	0.00
685.50	42.13
685.64	0.00
685.78	18.72
685.91	72.56
686.05	102.98
686.19	23.41
686.32	86.60
686.46	42.13
686.60	0.00
686.73	32.77
686.87	0.00
687.01	0.00
687.14	30.43
687.28	63.19
687.42	42.13
687.55	0.00
687.69	0.00
687.82	79.58
687.96	0.00
688.10	23.41
688.23	25.75
688.37	35.11
688.50	46.81
688.64	88.94
688.78	93.62
688.91	14.04
689.05	0.00
689.18	42.13
689.32	32.77
689.46	0.00
689.59	86.60
689.73	67.88
689.86	46.81
690.00	0.00
690.13	0.00
690.27	98.30
690.41	65.54
690.54	84.26
690.68	51.49
690.81	37.45
690.95	28.09
691.08	0.00
691.22	18.72
691.35	91.28
691.49	42.13
691.62	30.43
691.76	0.00
691.89	46.81
692.03	30.43
692.16	0.00
692.30	16.38
692.43	58.51
692.57	53.83
692.70	95.96
692.84	175.54
692.97	212.99
693.11	166.18
693.24	88.94
693.38	2.34
693.51	98.30
693.65	9.36
693.78	0.00
693.92	49.15
694.05	18.72
694.19	44.47
694.32	7.02
694.45	2.34
694.59	0.00
694.72	65.54
694.86	65.54
694.99	16.38
695.13	0.00
695.26	70.22
695.39	0.00
695.53	138.09
695.66	72.56
695.80	72.56
695.93	91.28
696.07	32.77
696.20	0.00
696.33	30.43
696.47	49.15
696.60	72.56
696.73	0.00
696.87	0.00
697.00	0.00
697.14	23.41
697.27	53.83
697.40	0.00
697.54	0.00
697.67	0.00
697.80	0.00
697.94	28.09
698.07	25.75
698.21	81.92
698.34	63.19
698.47	42.13
698.61	0.00
698.74	28.09
698.87	0.00
699.01	21.06
699.14	2.34
699.27	18.72
699.40	9.36
699.54	32.77
699.67	0.00
699.80	0.00
699.94	0.00
700.07	0.00
700.20	0.00
700.34	58.51
700.47	30.43
700.60	7.02
700.73	63.19
700.87	37.45
701.00	49.15
701.13	2.34
701.26	56.17
701.40	0.00
701.53	0.00
701.66	0.00
701.79	53.83
701.93	28.09
702.06	65.54
702.19	0.00
702.32	30.43
702.46	0.00
702.59	51.49
702.72	4.68
702.85	135.75
702.99	283.20
703.12	311.29
703.25	255.12
703.38	280.86
703.51	262.14
703.65	173.20
703.78	168.52
703.91	100.64
704.04	35.11
704.17	0.00
704.31	93.62
704.44	0.00
704.57	60.85
704.70	30.43
704.83	56.17
704.96	9.36
705.10	21.06
705.23	28.09
>>>>>End Processed Spectral Data<<<<<
