SpectraSuite Data File
++++++++++++++++++++++++++++++++++++
Date: Fri Oct 04 12:13:38 GMT-05:00 2013
User: price-jones
Dark Spectrum Present: No
Reference Spectrum Present: No
Number of Sampled Component Spectra: 1
Spectrometers: USB2+H05261
Integration Time (usec): 10000 (USB2+H05261)
Spectra Averaged: 1 (USB2+H05261)
Boxcar Smoothing: 0 (USB2+H05261)
Correct for Electrical Dark: No (USB2+H05261)
Strobe/Lamp Enabled: No (USB2+H05261)
Correct for Detector Non-linearity: No (USB2+H05261)
Correct for Stray Light: No (USB2+H05261)
Number of Pixels in Processed Spectrum: 2048
>>>>>Begin Processed Spectral Data<<<<<
365.73	72.56
365.92	72.56
366.12	72.56
366.32	0.00
366.52	0.00
366.72	0.00
366.91	0.00
367.11	0.00
367.31	0.00
367.51	0.00
367.70	0.00
367.90	0.00
368.10	0.00
368.30	0.00
368.49	0.00
368.69	0.00
368.89	0.00
369.09	0.00
369.28	0.00
369.48	0.00
369.68	0.00
369.87	0.00
370.07	0.00
370.27	0.00
370.47	0.00
370.66	0.00
370.86	0.00
371.06	4.68
371.25	14.04
371.45	0.00
371.65	11.70
371.84	9.36
372.04	0.00
372.24	0.00
372.44	7.02
372.63	25.75
372.83	18.72
373.03	0.00
373.22	56.17
373.42	30.43
373.62	0.00
373.81	25.75
374.01	11.70
374.21	65.54
374.40	25.75
374.60	46.81
374.79	86.60
374.99	65.54
375.19	21.06
375.38	0.00
375.58	37.45
375.78	74.90
375.97	14.04
376.17	16.38
376.37	2.34
376.56	63.19
376.76	60.85
376.95	39.79
377.15	9.36
377.35	102.98
377.54	35.11
377.74	0.00
377.93	7.02
378.13	0.00
378.33	7.02
378.52	9.36
378.72	49.15
378.91	44.47
379.11	53.83
379.31	0.00
379.50	70.22
379.70	7.02
379.89	2.34
380.09	0.00
380.28	14.04
380.48	39.79
380.68	0.00
380.87	32.77
381.07	44.47
381.26	28.09
381.46	14.04
381.65	4.68
381.85	42.13
382.04	9.36
382.24	0.00
382.43	9.36
382.63	63.19
382.83	56.17
383.02	23.41
383.22	21.06
383.41	11.70
383.61	0.00
383.80	2.34
384.00	28.09
384.19	7.02
384.39	49.15
384.58	21.06
384.78	0.00
384.97	28.09
385.17	42.13
385.36	58.51
385.56	37.45
385.75	46.81
385.95	72.56
386.14	60.85
386.34	0.00
386.53	0.00
386.72	0.00
386.92	25.75
387.11	25.75
387.31	32.77
387.50	21.06
387.70	28.09
387.89	35.11
388.09	49.15
388.28	0.00
388.48	63.19
388.67	14.04
388.86	4.68
389.06	53.83
389.25	60.85
389.45	56.17
389.64	0.00
389.84	86.60
390.03	23.41
390.22	0.00
390.42	65.54
390.61	25.75
390.81	46.81
391.00	23.41
391.19	21.06
391.39	7.02
391.58	0.00
391.78	0.00
391.97	28.09
392.16	0.00
392.36	112.35
392.55	11.70
392.75	2.34
392.94	0.00
393.13	0.00
393.33	0.00
393.52	53.83
393.71	70.22
393.91	23.41
394.10	58.51
394.29	0.00
394.49	7.02
394.68	2.34
394.88	58.51
395.07	46.81
395.26	0.00
395.46	56.17
395.65	49.15
395.84	9.36
396.04	30.43
396.23	46.81
396.42	0.00
396.62	0.00
396.81	32.77
397.00	2.34
397.19	49.15
397.39	53.83
397.58	44.47
397.77	53.83
397.97	7.02
398.16	30.43
398.35	0.00
398.55	14.04
398.74	23.41
398.93	0.00
399.12	0.00
399.32	16.38
399.51	51.49
399.70	16.38
399.90	18.72
400.09	0.00
400.28	23.41
400.47	84.26
400.67	2.34
400.86	67.88
401.05	93.62
401.24	30.43
401.44	30.43
401.63	58.51
401.82	79.58
402.01	35.11
402.21	84.26
402.40	53.83
402.59	44.47
402.78	42.13
402.97	28.09
403.17	32.77
403.36	2.34
403.55	2.34
403.74	0.00
403.93	25.75
404.13	9.36
404.32	0.00
404.51	7.02
404.70	30.43
404.89	60.85
405.09	0.00
405.28	84.26
405.47	74.90
405.66	9.36
405.85	58.51
406.05	21.06
406.24	63.19
406.43	51.49
406.62	0.00
406.81	42.13
407.00	42.13
407.20	18.72
407.39	51.49
407.58	30.43
407.77	63.19
407.96	23.41
408.15	25.75
408.34	0.00
408.54	30.43
408.73	0.00
408.92	58.51
409.11	65.54
409.30	60.85
409.49	0.00
409.68	39.79
409.87	21.06
410.07	79.58
410.26	112.35
410.45	65.54
410.64	74.90
410.83	7.02
411.02	7.02
411.21	51.49
411.40	39.79
411.59	58.51
411.78	9.36
411.98	107.66
412.17	4.68
412.36	28.09
412.55	23.41
412.74	37.45
412.93	95.96
413.12	51.49
413.31	0.00
413.50	14.04
413.69	77.24
413.88	23.41
414.07	44.47
414.26	56.17
414.45	14.04
414.64	16.38
414.83	35.11
415.02	35.11
415.22	79.58
415.41	100.64
415.60	63.19
415.79	74.90
415.98	2.34
416.17	0.00
416.36	35.11
416.55	58.51
416.74	28.09
416.93	88.94
417.12	121.71
417.31	77.24
417.50	0.00
417.69	63.19
417.88	32.77
418.07	0.00
418.26	49.15
418.45	95.96
418.64	0.00
418.83	44.47
419.02	18.72
419.21	4.68
419.39	35.11
419.58	37.45
419.77	79.58
419.96	60.85
420.15	114.69
420.34	0.00
420.53	4.68
420.72	86.60
420.91	65.54
421.10	2.34
421.29	16.38
421.48	63.19
421.67	21.06
421.86	49.15
422.05	77.24
422.24	60.85
422.43	35.11
422.61	46.81
422.80	14.04
422.99	53.83
423.18	37.45
423.37	0.00
423.56	81.92
423.75	86.60
423.94	70.22
424.13	16.38
424.32	93.62
424.50	39.79
424.69	14.04
424.88	126.39
425.07	39.79
425.26	124.05
425.45	79.58
425.64	23.41
425.83	100.64
426.01	70.22
426.20	58.51
426.39	0.00
426.58	14.04
426.77	23.41
426.96	56.17
427.15	79.58
427.33	30.43
427.52	9.36
427.71	63.19
427.90	72.56
428.09	117.03
428.28	0.00
428.46	51.49
428.65	70.22
428.84	67.88
429.03	37.45
429.22	77.24
429.40	18.72
429.59	0.00
429.78	84.26
429.97	37.45
430.16	67.88
430.34	60.85
430.53	98.30
430.72	28.09
430.91	63.19
431.10	18.72
431.28	42.13
431.47	95.96
431.66	128.73
431.85	65.54
432.03	0.00
432.22	0.00
432.41	126.39
432.60	30.43
432.79	67.88
432.97	60.85
433.16	51.49
433.35	58.51
433.54	67.88
433.72	7.02
433.91	81.92
434.10	53.83
434.28	30.43
434.47	0.00
434.66	110.01
434.85	14.04
435.03	0.00
435.22	30.43
435.41	0.00
435.59	30.43
435.78	28.09
435.97	72.56
436.16	67.88
436.34	93.62
436.53	86.60
436.72	53.83
436.90	4.68
437.09	79.58
437.28	21.06
437.46	84.26
437.65	9.36
437.84	49.15
438.02	16.38
438.21	0.00
438.40	51.49
438.58	91.28
438.77	65.54
438.96	70.22
439.14	37.45
439.33	11.70
439.52	39.79
439.70	74.90
439.89	95.96
440.08	39.79
440.26	11.70
440.45	42.13
440.63	72.56
440.82	67.88
441.01	67.88
441.19	91.28
441.38	0.00
441.57	86.60
441.75	9.36
441.94	37.45
442.12	98.30
442.31	145.11
442.50	84.26
442.68	135.75
442.87	0.00
443.05	37.45
443.24	0.00
443.43	91.28
443.61	56.17
443.80	56.17
443.98	81.92
444.17	2.34
444.35	46.81
444.54	105.32
444.73	21.06
444.91	84.26
445.10	81.92
445.28	37.45
445.47	51.49
445.65	65.54
445.84	0.00
446.02	58.51
446.21	0.00
446.39	23.41
446.58	0.00
446.77	63.19
446.95	60.85
447.14	133.41
447.32	131.07
447.51	86.60
447.69	46.81
447.88	32.77
448.06	63.19
448.25	35.11
448.43	84.26
448.62	88.94
448.80	53.83
448.99	56.17
449.17	46.81
449.36	0.00
449.54	25.75
449.73	0.00
449.91	30.43
450.10	0.00
450.28	88.94
450.46	25.75
450.65	7.02
450.83	81.92
451.02	32.77
451.20	39.79
451.39	11.70
451.57	42.13
451.76	30.43
451.94	67.88
452.13	65.54
452.31	88.94
452.49	49.15
452.68	39.79
452.86	30.43
453.05	53.83
453.23	65.54
453.42	56.17
453.60	114.69
453.78	42.13
453.97	51.49
454.15	98.30
454.34	81.92
454.52	25.75
454.70	63.19
454.89	30.43
455.07	56.17
455.26	11.70
455.44	46.81
455.62	79.58
455.81	28.09
455.99	117.03
456.17	44.47
456.36	72.56
456.54	72.56
456.73	25.75
456.91	88.94
457.09	46.81
457.28	72.56
457.46	70.22
457.64	93.62
457.83	0.00
458.01	14.04
458.19	107.66
458.38	88.94
458.56	86.60
458.74	4.68
458.93	0.00
459.11	98.30
459.29	77.24
459.48	46.81
459.66	72.56
459.84	42.13
460.03	58.51
460.21	2.34
460.39	9.36
460.57	86.60
460.76	84.26
460.94	0.00
461.12	67.88
461.31	88.94
461.49	56.17
461.67	0.00
461.85	95.96
462.04	23.41
462.22	124.05
462.40	46.81
462.59	7.02
462.77	112.35
462.95	49.15
463.13	16.38
463.32	51.49
463.50	72.56
463.68	74.90
463.86	44.47
464.05	84.26
464.23	77.24
464.41	70.22
464.59	98.30
464.78	42.13
464.96	14.04
465.14	39.79
465.32	77.24
465.50	0.00
465.69	7.02
465.87	42.13
466.05	0.00
466.23	23.41
466.41	100.64
466.60	67.88
466.78	0.00
466.96	0.00
467.14	81.92
467.32	95.96
467.51	39.79
467.69	105.32
467.87	93.62
468.05	110.01
468.23	39.79
468.41	30.43
468.60	11.70
468.78	21.06
468.96	7.02
469.14	49.15
469.32	67.88
469.50	30.43
469.69	0.00
469.87	56.17
470.05	25.75
470.23	56.17
470.41	63.19
470.59	60.85
470.77	16.38
470.95	46.81
471.14	14.04
471.32	46.81
471.50	37.45
471.68	60.85
471.86	84.26
472.04	32.77
472.22	18.72
472.40	44.47
472.58	16.38
472.77	84.26
472.95	25.75
473.13	32.77
473.31	93.62
473.49	98.30
473.67	56.17
473.85	23.41
474.03	28.09
474.21	91.28
474.39	60.85
474.57	114.69
474.75	67.88
474.93	51.49
475.12	91.28
475.30	42.13
475.48	42.13
475.66	49.15
475.84	102.98
476.02	58.51
476.20	60.85
476.38	60.85
476.56	60.85
476.74	67.88
476.92	0.00
477.10	42.13
477.28	30.43
477.46	88.94
477.64	56.17
477.82	126.39
478.00	95.96
478.18	70.22
478.36	7.02
478.54	37.45
478.72	63.19
478.90	117.03
479.08	56.17
479.26	58.51
479.44	74.90
479.62	9.36
479.80	100.64
479.98	14.04
480.16	28.09
480.34	138.09
480.52	58.51
480.70	77.24
480.88	70.22
481.06	117.03
481.24	67.88
481.41	77.24
481.59	65.54
481.77	14.04
481.95	37.45
482.13	84.26
482.31	25.75
482.49	51.49
482.67	93.62
482.85	49.15
483.03	128.73
483.21	0.00
483.39	77.24
483.57	58.51
483.74	93.62
483.92	49.15
484.10	79.58
484.28	14.04
484.46	93.62
484.64	37.45
484.82	42.13
485.00	56.17
485.18	70.22
485.35	74.90
485.53	84.26
485.71	117.03
485.89	58.51
486.07	30.43
486.25	23.41
486.43	117.03
486.61	93.62
486.78	105.32
486.96	56.17
487.14	70.22
487.32	74.90
487.50	0.00
487.68	39.79
487.85	72.56
488.03	93.62
488.21	95.96
488.39	86.60
488.57	42.13
488.75	65.54
488.92	145.11
489.10	121.71
489.28	88.94
489.46	49.15
489.64	70.22
489.81	88.94
489.99	77.24
490.17	72.56
490.35	44.47
490.53	112.35
490.70	107.66
490.88	39.79
491.06	49.15
491.24	149.79
491.41	11.70
491.59	102.98
491.77	102.98
491.95	72.56
492.13	32.77
492.30	91.28
492.48	147.45
492.66	70.22
492.84	117.03
493.01	84.26
493.19	84.26
493.37	100.64
493.54	84.26
493.72	42.13
493.90	72.56
494.08	46.81
494.25	79.58
494.43	91.28
494.61	91.28
494.79	16.38
494.96	53.83
495.14	65.54
495.32	37.45
495.49	93.62
495.67	147.45
495.85	44.47
496.02	93.62
496.20	70.22
496.38	63.19
496.55	126.39
496.73	133.41
496.91	35.11
497.09	124.05
497.26	102.98
497.44	49.15
497.62	63.19
497.79	7.02
497.97	63.19
498.14	53.83
498.32	30.43
498.50	25.75
498.67	0.00
498.85	51.49
499.03	11.70
499.20	107.66
499.38	28.09
499.56	56.17
499.73	86.60
499.91	105.32
500.08	95.96
500.26	49.15
500.44	49.15
500.61	133.41
500.79	79.58
500.97	56.17
501.14	112.35
501.32	0.00
501.49	21.06
501.67	119.37
501.84	70.22
502.02	117.03
502.20	107.66
502.37	53.83
502.55	98.30
502.72	51.49
502.90	159.16
503.07	11.70
503.25	105.32
503.43	117.03
503.60	58.51
503.78	58.51
503.95	37.45
504.13	88.94
504.30	126.39
504.48	32.77
504.65	7.02
504.83	79.58
505.01	70.22
505.18	70.22
505.36	133.41
505.53	140.43
505.71	51.49
505.88	117.03
506.06	133.41
506.23	128.73
506.41	86.60
506.58	95.96
506.76	37.45
506.93	67.88
507.11	28.09
507.28	70.22
507.46	100.64
507.63	60.85
507.81	84.26
507.98	163.84
508.16	25.75
508.33	42.13
508.50	119.37
508.68	105.32
508.85	88.94
509.03	74.90
509.20	42.13
509.38	79.58
509.55	77.24
509.73	86.60
509.90	114.69
510.08	63.19
510.25	77.24
510.42	42.13
510.60	67.88
510.77	77.24
510.95	91.28
511.12	140.43
511.30	37.45
511.47	14.04
511.64	60.85
511.82	86.60
511.99	110.01
512.17	93.62
512.34	0.00
512.51	56.17
512.69	81.92
512.86	70.22
513.04	119.37
513.21	79.58
513.38	49.15
513.56	177.88
513.73	42.13
513.90	81.92
514.08	21.06
514.25	126.39
514.43	133.41
514.60	86.60
514.77	124.05
514.95	98.30
515.12	0.00
515.29	138.09
515.47	25.75
515.64	51.49
515.81	77.24
515.99	56.17
516.16	95.96
516.33	39.79
516.51	30.43
516.68	44.47
516.85	119.37
517.03	81.92
517.20	65.54
517.37	44.47
517.54	102.98
517.72	67.88
517.89	107.66
518.06	110.01
518.24	95.96
518.41	51.49
518.58	128.73
518.75	11.70
518.93	18.72
519.10	102.98
519.27	37.45
519.45	53.83
519.62	91.28
519.79	35.11
519.96	110.01
520.14	44.47
520.31	63.19
520.48	128.73
520.65	114.69
520.83	84.26
521.00	84.26
521.17	49.15
521.34	39.79
521.52	67.88
521.69	138.09
521.86	42.13
522.03	105.32
522.20	67.88
522.38	79.58
522.55	7.02
522.72	44.47
522.89	114.69
523.07	30.43
523.24	142.77
523.41	105.32
523.58	112.35
523.75	35.11
523.92	72.56
524.10	42.13
524.27	32.77
524.44	67.88
524.61	84.26
524.78	100.64
524.96	156.82
525.13	14.04
525.30	49.15
525.47	91.28
525.64	63.19
525.81	0.00
525.98	121.71
526.16	70.22
526.33	14.04
526.50	91.28
526.67	42.13
526.84	37.45
527.01	63.19
527.18	95.96
527.36	67.88
527.53	138.09
527.70	37.45
527.87	119.37
528.04	117.03
528.21	166.18
528.38	91.28
528.55	91.28
528.72	102.98
528.89	67.88
529.07	74.90
529.24	124.05
529.41	117.03
529.58	65.54
529.75	32.77
529.92	30.43
530.09	81.92
530.26	70.22
530.43	46.81
530.60	81.92
530.77	102.98
530.94	18.72
531.11	39.79
531.28	58.51
531.46	16.38
531.63	81.92
531.80	9.36
531.97	37.45
532.14	112.35
532.31	114.69
532.48	42.13
532.65	86.60
532.82	60.85
532.99	131.07
533.16	81.92
533.33	56.17
533.50	117.03
533.67	65.54
533.84	86.60
534.01	51.49
534.18	112.35
534.35	7.02
534.52	88.94
534.69	70.22
534.86	81.92
535.03	138.09
535.20	93.62
535.37	74.90
535.54	63.19
535.71	91.28
535.88	32.77
536.05	86.60
536.22	84.26
536.38	67.88
536.55	0.00
536.72	126.39
536.89	70.22
537.06	121.71
537.23	74.90
537.40	72.56
537.57	105.32
537.74	72.56
537.91	49.15
538.08	107.66
538.25	126.39
538.42	91.28
538.59	98.30
538.75	175.54
538.92	88.94
539.09	70.22
539.26	79.58
539.43	56.17
539.60	86.60
539.77	98.30
539.94	91.28
540.11	154.48
540.28	98.30
540.44	74.90
540.61	18.72
540.78	65.54
540.95	128.73
541.12	124.05
541.29	67.88
541.46	35.11
541.62	56.17
541.79	37.45
541.96	117.03
542.13	95.96
542.30	56.17
542.47	117.03
542.63	18.72
542.80	14.04
542.97	110.01
543.14	81.92
543.31	105.32
543.48	65.54
543.64	67.88
543.81	124.05
543.98	112.35
544.15	37.45
544.32	135.75
544.48	133.41
544.65	67.88
544.82	100.64
544.99	53.83
545.16	110.01
545.32	65.54
545.49	74.90
545.66	74.90
545.83	39.79
546.00	84.26
546.16	114.69
546.33	74.90
546.50	138.09
546.67	110.01
546.83	86.60
547.00	79.58
547.17	35.11
547.34	23.41
547.50	112.35
547.67	112.35
547.84	70.22
548.00	86.60
548.17	9.36
548.34	44.47
548.51	37.45
548.67	18.72
548.84	145.11
549.01	77.24
549.18	67.88
549.34	72.56
549.51	49.15
549.68	105.32
549.84	95.96
550.01	77.24
550.18	98.30
550.34	72.56
550.51	147.45
550.68	107.66
550.84	32.77
551.01	79.58
551.18	102.98
551.34	77.24
551.51	140.43
551.68	119.37
551.84	7.02
552.01	77.24
552.18	53.83
552.34	100.64
552.51	112.35
552.68	114.69
552.84	128.73
553.01	102.98
553.18	81.92
553.34	168.52
553.51	100.64
553.67	119.37
553.84	72.56
554.01	112.35
554.17	119.37
554.34	105.32
554.51	173.20
554.67	86.60
554.84	121.71
555.00	119.37
555.17	147.45
555.33	53.83
555.50	98.30
555.67	65.54
555.83	149.79
556.00	70.22
556.16	145.11
556.33	72.56
556.50	72.56
556.66	79.58
556.83	112.35
556.99	67.88
557.16	138.09
557.32	72.56
557.49	135.75
557.65	154.48
557.82	32.77
557.98	11.70
558.15	0.00
558.32	60.85
558.48	91.28
558.65	79.58
558.81	100.64
558.98	84.26
559.14	77.24
559.31	119.37
559.47	30.43
559.64	81.92
559.80	107.66
559.97	81.92
560.13	49.15
560.30	112.35
560.46	110.01
560.63	74.90
560.79	142.77
560.96	70.22
561.12	14.04
561.29	65.54
561.45	0.00
561.61	84.26
561.78	161.50
561.94	51.49
562.11	91.28
562.27	84.26
562.44	35.11
562.60	35.11
562.77	131.07
562.93	119.37
563.10	145.11
563.26	91.28
563.42	63.19
563.59	135.75
563.75	32.77
563.92	133.41
564.08	117.03
564.24	79.58
564.41	4.68
564.57	63.19
564.74	81.92
564.90	149.79
565.07	133.41
565.23	86.60
565.39	95.96
565.56	25.75
565.72	91.28
565.88	166.18
566.05	84.26
566.21	21.06
566.38	95.96
566.54	77.24
566.70	4.68
566.87	30.43
567.03	79.58
567.19	60.85
567.36	88.94
567.52	142.77
567.68	112.35
567.85	70.22
568.01	194.26
568.17	110.01
568.34	114.69
568.50	35.11
568.66	88.94
568.83	51.49
568.99	74.90
569.15	77.24
569.32	65.54
569.48	81.92
569.64	0.00
569.81	110.01
569.97	91.28
570.13	119.37
570.30	128.73
570.46	74.90
570.62	58.51
570.78	44.47
570.95	39.79
571.11	93.62
571.27	133.41
571.43	126.39
571.60	154.48
571.76	147.45
571.92	133.41
572.09	95.96
572.25	124.05
572.41	93.62
572.57	72.56
572.74	32.77
572.90	98.30
573.06	72.56
573.22	147.45
573.38	70.22
573.55	84.26
573.71	131.07
573.87	81.92
574.03	4.68
574.20	23.41
574.36	93.62
574.52	102.98
574.68	60.85
574.84	65.54
575.01	58.51
575.17	77.24
575.33	25.75
575.49	58.51
575.65	84.26
575.82	23.41
575.98	86.60
576.14	124.05
576.30	86.60
576.46	58.51
576.62	67.88
576.79	49.15
576.95	110.01
577.11	67.88
577.27	65.54
577.43	105.32
577.59	58.51
577.75	60.85
577.92	95.96
578.08	4.68
578.24	74.90
578.40	105.32
578.56	114.69
578.72	95.96
578.88	95.96
579.04	60.85
579.21	28.09
579.37	63.19
579.53	56.17
579.69	65.54
579.85	30.43
580.01	72.56
580.17	133.41
580.33	128.73
580.49	91.28
580.65	51.49
580.82	79.58
580.98	79.58
581.14	28.09
581.30	39.79
581.46	70.22
581.62	65.54
581.78	46.81
581.94	0.00
582.10	72.56
582.26	51.49
582.42	95.96
582.58	60.85
582.74	37.45
582.90	28.09
583.06	16.38
583.22	107.66
583.38	42.13
583.54	93.62
583.70	79.58
583.86	119.37
584.02	70.22
584.18	79.58
584.34	49.15
584.50	72.56
584.66	51.49
584.82	60.85
584.98	39.79
585.14	117.03
585.30	63.19
585.46	77.24
585.62	133.41
585.78	81.92
585.94	28.09
586.10	56.17
586.26	112.35
586.42	140.43
586.58	58.51
586.74	81.92
586.90	154.48
587.06	44.47
587.22	88.94
587.38	23.41
587.54	14.04
587.70	23.41
587.86	32.77
588.02	98.30
588.18	35.11
588.34	53.83
588.49	30.43
588.65	53.83
588.81	49.15
588.97	84.26
589.13	98.30
589.29	105.32
589.45	128.73
589.61	35.11
589.77	23.41
589.93	105.32
590.08	67.88
590.24	100.64
590.40	114.69
590.56	39.79
590.72	117.03
590.88	65.54
591.04	25.75
591.20	91.28
591.35	126.39
591.51	49.15
591.67	30.43
591.83	79.58
591.99	102.98
592.15	67.88
592.31	88.94
592.46	51.49
592.62	88.94
592.78	56.17
592.94	56.17
593.10	119.37
593.26	0.00
593.41	53.83
593.57	84.26
593.73	112.35
593.89	46.81
594.05	74.90
594.20	28.09
594.36	70.22
594.52	93.62
594.68	102.98
594.84	51.49
594.99	56.17
595.15	21.06
595.31	81.92
595.47	114.69
595.62	72.56
595.78	72.56
595.94	30.43
596.10	56.17
596.25	35.11
596.41	65.54
596.57	58.51
596.73	37.45
596.88	117.03
597.04	67.88
597.20	32.77
597.36	128.73
597.51	63.19
597.67	11.70
597.83	133.41
597.99	58.51
598.14	88.94
598.30	60.85
598.46	98.30
598.61	46.81
598.77	58.51
598.93	88.94
599.09	74.90
599.24	79.58
599.40	53.83
599.56	72.56
599.71	4.68
599.87	60.85
600.03	30.43
600.18	95.96
600.34	51.49
600.50	14.04
600.65	74.90
600.81	86.60
600.97	46.81
601.12	16.38
601.28	79.58
601.44	77.24
601.59	0.00
601.75	30.43
601.91	98.30
602.06	79.58
602.22	107.66
602.37	58.51
602.53	114.69
602.69	63.19
602.84	67.88
603.00	98.30
603.16	107.66
603.31	37.45
603.47	42.13
603.62	91.28
603.78	112.35
603.94	102.98
604.09	98.30
604.25	107.66
604.40	67.88
604.56	70.22
604.71	95.96
604.87	79.58
605.03	51.49
605.18	100.64
605.34	98.30
605.49	102.98
605.65	91.28
605.80	9.36
605.96	35.11
606.12	23.41
606.27	107.66
606.43	119.37
606.58	133.41
606.74	77.24
606.89	0.00
607.05	145.11
607.20	98.30
607.36	93.62
607.51	63.19
607.67	28.09
607.82	46.81
607.98	79.58
608.13	102.98
608.29	35.11
608.44	112.35
608.60	98.30
608.75	110.01
608.91	112.35
609.06	100.64
609.22	86.60
609.37	112.35
609.53	63.19
609.68	77.24
609.84	32.77
609.99	37.45
610.15	117.03
610.30	51.49
610.46	49.15
610.61	14.04
610.76	88.94
610.92	0.00
611.07	95.96
611.23	102.98
611.38	79.58
611.54	128.73
611.69	30.43
611.84	35.11
612.00	60.85
612.15	56.17
612.31	135.75
612.46	51.49
612.62	70.22
612.77	77.24
612.92	35.11
613.08	49.15
613.23	65.54
613.39	105.32
613.54	173.20
613.69	46.81
613.85	93.62
614.00	77.24
614.15	67.88
614.31	121.71
614.46	86.60
614.62	91.28
614.77	37.45
614.92	56.17
615.08	79.58
615.23	91.28
615.38	42.13
615.54	65.54
615.69	60.85
615.84	95.96
616.00	95.96
616.15	60.85
616.30	77.24
616.46	67.88
616.61	53.83
616.76	7.02
616.92	21.06
617.07	44.47
617.22	154.48
617.37	98.30
617.53	18.72
617.68	72.56
617.83	65.54
617.99	156.82
618.14	49.15
618.29	102.98
618.45	46.81
618.60	65.54
618.75	28.09
618.90	93.62
619.06	28.09
619.21	100.64
619.36	60.85
619.51	65.54
619.67	0.00
619.82	18.72
619.97	119.37
620.12	77.24
620.28	77.24
620.43	32.77
620.58	30.43
620.73	35.11
620.89	14.04
621.04	9.36
621.19	0.00
621.34	58.51
621.49	42.13
621.65	65.54
621.80	70.22
621.95	110.01
622.10	110.01
622.25	63.19
622.41	121.71
622.56	21.06
622.71	133.41
622.86	98.30
623.01	9.36
623.16	93.62
623.32	2.34
623.47	58.51
623.62	23.41
623.77	67.88
623.92	100.64
624.07	63.19
624.23	39.79
624.38	51.49
624.53	11.70
624.68	32.77
624.83	86.60
624.98	49.15
625.13	30.43
625.29	67.88
625.44	44.47
625.59	58.51
625.74	100.64
625.89	44.47
626.04	72.56
626.19	39.79
626.34	42.13
626.49	70.22
626.65	70.22
626.80	42.13
626.95	84.26
627.10	72.56
627.25	124.05
627.40	14.04
627.55	0.00
627.70	25.75
627.85	114.69
628.00	65.54
628.15	88.94
628.30	25.75
628.45	30.43
628.60	0.00
628.76	25.75
628.91	154.48
629.06	49.15
629.21	23.41
629.36	100.64
629.51	35.11
629.66	42.13
629.81	189.58
629.96	39.79
630.11	21.06
630.26	53.83
630.41	133.41
630.56	60.85
630.71	63.19
630.86	0.00
631.01	39.79
631.16	58.51
631.31	11.70
631.46	126.39
631.61	88.94
631.76	77.24
631.91	51.49
632.06	67.88
632.21	0.00
632.36	84.26
632.51	77.24
632.66	65.54
632.81	9.36
632.96	98.30
633.10	30.43
633.25	25.75
633.40	0.00
633.55	107.66
633.70	105.32
633.85	131.07
634.00	91.28
634.15	0.00
634.30	67.88
634.45	0.00
634.60	14.04
634.75	49.15
634.90	14.04
635.05	53.83
635.19	21.06
635.34	32.77
635.49	112.35
635.64	39.79
635.79	102.98
635.94	32.77
636.09	56.17
636.24	0.00
636.39	84.26
636.53	65.54
636.68	72.56
636.83	23.41
636.98	0.00
637.13	67.88
637.28	133.41
637.43	14.04
637.57	0.00
637.72	98.30
637.87	72.56
638.02	56.17
638.17	67.88
638.32	32.77
638.46	93.62
638.61	53.83
638.76	37.45
638.91	30.43
639.06	0.00
639.20	25.75
639.35	98.30
639.50	91.28
639.65	124.05
639.80	46.81
639.94	88.94
640.09	70.22
640.24	35.11
640.39	2.34
640.54	28.09
640.68	72.56
640.83	56.17
640.98	32.77
641.13	18.72
641.27	23.41
641.42	28.09
641.57	58.51
641.72	28.09
641.86	81.92
642.01	65.54
642.16	58.51
642.31	63.19
642.45	88.94
642.60	95.96
642.75	77.24
642.90	84.26
643.04	49.15
643.19	56.17
643.34	0.00
643.48	77.24
643.63	0.00
643.78	67.88
643.93	51.49
644.07	110.01
644.22	60.85
644.37	93.62
644.51	37.45
644.66	60.85
644.81	23.41
644.95	30.43
645.10	9.36
645.25	81.92
645.39	107.66
645.54	42.13
645.69	74.90
645.83	70.22
645.98	18.72
646.13	23.41
646.27	79.58
646.42	84.26
646.57	107.66
646.71	81.92
646.86	42.13
647.00	9.36
647.15	0.00
647.30	110.01
647.44	91.28
647.59	44.47
647.74	58.51
647.88	77.24
648.03	4.68
648.17	95.96
648.32	56.17
648.47	49.15
648.61	70.22
648.76	37.45
648.90	74.90
649.05	0.00
649.20	100.64
649.34	53.83
649.49	35.11
649.63	0.00
649.78	51.49
649.92	44.47
650.07	86.60
650.21	114.69
650.36	42.13
650.51	44.47
650.65	9.36
650.80	23.41
650.94	53.83
651.09	100.64
651.23	72.56
651.38	9.36
651.52	100.64
651.67	51.49
651.81	46.81
651.96	98.30
652.10	2.34
652.25	4.68
652.39	32.77
652.54	37.45
652.68	93.62
652.83	7.02
652.97	0.00
653.12	114.69
653.26	0.00
653.41	23.41
653.55	81.92
653.70	77.24
653.84	56.17
653.99	74.90
654.13	49.15
654.27	63.19
654.42	51.49
654.56	79.58
654.71	121.71
654.85	70.22
655.00	70.22
655.14	49.15
655.29	84.26
655.43	37.45
655.57	67.88
655.72	11.70
655.86	35.11
656.01	28.09
656.15	60.85
656.30	23.41
656.44	30.43
656.58	46.81
656.73	65.54
656.87	49.15
657.01	51.49
657.16	37.45
657.30	65.54
657.45	42.13
657.59	0.00
657.73	51.49
657.88	18.72
658.02	23.41
658.16	121.71
658.31	58.51
658.45	7.02
658.60	91.28
658.74	77.24
658.88	7.02
659.03	42.13
659.17	35.11
659.31	77.24
659.46	65.54
659.60	11.70
659.74	35.11
659.89	42.13
660.03	79.58
660.17	95.96
660.32	70.22
660.46	0.00
660.60	39.79
660.74	60.85
660.89	98.30
661.03	4.68
661.17	14.04
661.32	4.68
661.46	39.79
661.60	25.75
661.74	70.22
661.89	60.85
662.03	105.32
662.17	67.88
662.31	86.60
662.46	67.88
662.60	25.75
662.74	44.47
662.88	70.22
663.03	11.70
663.17	42.13
663.31	95.96
663.45	44.47
663.60	28.09
663.74	21.06
663.88	21.06
664.02	53.83
664.17	46.81
664.31	0.00
664.45	28.09
664.59	4.68
664.73	35.11
664.88	63.19
665.02	53.83
665.16	114.69
665.30	44.47
665.44	30.43
665.59	65.54
665.73	107.66
665.87	56.17
666.01	91.28
666.15	18.72
666.29	42.13
666.44	93.62
666.58	53.83
666.72	21.06
666.86	53.83
667.00	18.72
667.14	0.00
667.28	30.43
667.43	114.69
667.57	77.24
667.71	21.06
667.85	86.60
667.99	65.54
668.13	86.60
668.27	119.37
668.41	74.90
668.56	79.58
668.70	72.56
668.84	28.09
668.98	60.85
669.12	0.00
669.26	56.17
669.40	44.47
669.54	30.43
669.68	7.02
669.82	70.22
669.96	4.68
670.10	0.00
670.25	79.58
670.39	119.37
670.53	49.15
670.67	46.81
670.81	58.51
670.95	9.36
671.09	49.15
671.23	95.96
671.37	37.45
671.51	105.32
671.65	56.17
671.79	39.79
671.93	88.94
672.07	28.09
672.21	51.49
672.35	79.58
672.49	18.72
672.63	0.00
672.77	60.85
672.91	0.00
673.05	51.49
673.19	4.68
673.33	74.90
673.47	117.03
673.61	49.15
673.75	81.92
673.89	35.11
674.03	11.70
674.17	72.56
674.31	11.70
674.45	39.79
674.59	49.15
674.73	72.56
674.87	37.45
675.01	0.00
675.15	42.13
675.29	72.56
675.43	58.51
675.56	39.79
675.70	0.00
675.84	0.00
675.98	35.11
676.12	79.58
676.26	2.34
676.40	0.00
676.54	65.54
676.68	79.58
676.82	56.17
676.96	56.17
677.10	60.85
677.23	0.00
677.37	9.36
677.51	39.79
677.65	14.04
677.79	7.02
677.93	72.56
678.07	105.32
678.21	107.66
678.34	84.26
678.48	65.54
678.62	65.54
678.76	49.15
678.90	0.00
679.04	93.62
679.18	86.60
679.31	65.54
679.45	0.00
679.59	0.00
679.73	18.72
679.87	93.62
680.00	72.56
680.14	46.81
680.28	79.58
680.42	4.68
680.56	25.75
680.70	124.05
680.83	74.90
680.97	23.41
681.11	44.47
681.25	51.49
681.39	49.15
681.52	60.85
681.66	65.54
681.80	28.09
681.94	46.81
682.07	67.88
682.21	23.41
682.35	60.85
682.49	0.00
682.62	56.17
682.76	58.51
682.90	42.13
683.04	28.09
683.17	77.24
683.31	39.79
683.45	51.49
683.59	18.72
683.72	42.13
683.86	14.04
684.00	81.92
684.13	51.49
684.27	107.66
684.41	7.02
684.55	60.85
684.68	35.11
684.82	58.51
684.96	60.85
685.09	72.56
685.23	35.11
685.37	0.00
685.50	74.90
685.64	77.24
685.78	39.79
685.91	72.56
686.05	4.68
686.19	67.88
686.32	4.68
686.46	14.04
686.60	4.68
686.73	44.47
686.87	110.01
687.01	37.45
687.14	30.43
687.28	49.15
687.42	9.36
687.55	16.38
687.69	42.13
687.82	28.09
687.96	18.72
688.10	117.03
688.23	0.00
688.37	42.13
688.50	18.72
688.64	37.45
688.78	0.00
688.91	70.22
689.05	46.81
689.18	53.83
689.32	0.00
689.46	72.56
689.59	72.56
689.73	32.77
689.86	2.34
690.00	74.90
690.13	35.11
690.27	0.00
690.41	88.94
690.54	25.75
690.68	18.72
690.81	107.66
690.95	9.36
691.08	70.22
691.22	35.11
691.35	93.62
691.49	11.70
691.62	117.03
691.76	0.00
691.89	110.01
692.03	91.28
692.16	67.88
692.30	58.51
692.43	0.00
692.57	32.77
692.70	32.77
692.84	39.79
692.97	14.04
693.11	56.17
693.24	32.77
693.38	32.77
693.51	0.00
693.65	35.11
693.78	14.04
693.92	0.00
694.05	28.09
694.19	58.51
694.32	46.81
694.45	23.41
694.59	39.79
694.72	18.72
694.86	28.09
694.99	25.75
695.13	44.47
695.26	35.11
695.39	60.85
695.53	21.06
695.66	0.00
695.80	14.04
695.93	7.02
696.07	77.24
696.20	51.49
696.33	23.41
696.47	86.60
696.60	7.02
696.73	70.22
696.87	58.51
697.00	121.71
697.14	70.22
697.27	25.75
697.40	53.83
697.54	74.90
697.67	42.13
697.80	11.70
697.94	0.00
698.07	0.00
698.21	25.75
698.34	30.43
698.47	65.54
698.61	32.77
698.74	49.15
698.87	0.00
699.01	98.30
699.14	25.75
699.27	21.06
699.40	65.54
699.54	18.72
699.67	16.38
699.80	93.62
699.94	28.09
700.07	86.60
700.20	7.02
700.34	51.49
700.47	0.00
700.60	14.04
700.73	30.43
700.87	0.00
701.00	21.06
701.13	4.68
701.26	37.45
701.40	25.75
701.53	37.45
701.66	7.02
701.79	2.34
701.93	16.38
702.06	121.71
702.19	46.81
702.32	65.54
702.46	25.75
702.59	4.68
702.72	0.00
702.85	46.81
702.99	14.04
703.12	79.58
703.25	79.58
703.38	0.00
703.51	74.90
703.65	0.00
703.78	28.09
703.91	58.51
704.04	16.38
704.17	119.37
704.31	0.00
704.44	70.22
704.57	44.47
704.70	79.58
704.83	70.22
704.96	88.94
705.10	51.49
705.23	46.81
>>>>>End Processed Spectral Data<<<<<
