SpectraSuite Data File
++++++++++++++++++++++++++++++++++++
Date: Fri Oct 04 12:13:38 GMT-05:00 2013
User: price-jones
Dark Spectrum Present: No
Reference Spectrum Present: No
Number of Sampled Component Spectra: 1
Spectrometers: USB2+H05261
Integration Time (usec): 10000 (USB2+H05261)
Spectra Averaged: 1 (USB2+H05261)
Boxcar Smoothing: 0 (USB2+H05261)
Correct for Electrical Dark: No (USB2+H05261)
Strobe/Lamp Enabled: No (USB2+H05261)
Correct for Detector Non-linearity: No (USB2+H05261)
Correct for Stray Light: No (USB2+H05261)
Number of Pixels in Processed Spectrum: 2048
>>>>>Begin Processed Spectral Data<<<<<
365.73	0.00
365.92	0.00
366.12	0.00
366.32	0.00
366.52	0.00
366.72	0.00
366.91	0.00
367.11	0.00
367.31	0.00
367.51	0.00
367.70	0.00
367.90	0.00
368.10	0.00
368.30	0.00
368.49	0.00
368.69	0.00
368.89	0.00
369.09	0.00
369.28	0.00
369.48	0.00
369.68	0.00
369.87	0.00
370.07	0.00
370.27	0.00
370.47	0.00
370.66	0.00
370.86	0.00
371.06	25.75
371.25	0.00
371.45	0.00
371.65	0.00
371.84	0.00
372.04	0.00
372.24	0.00
372.44	18.72
372.63	74.90
372.83	67.88
373.03	28.09
373.22	0.00
373.42	51.49
373.62	110.01
373.81	93.62
374.01	46.81
374.21	28.09
374.40	58.51
374.60	42.13
374.79	77.24
374.99	4.68
375.19	53.83
375.38	60.85
375.58	0.00
375.78	91.28
375.97	63.19
376.17	37.45
376.37	37.45
376.56	67.88
376.76	9.36
376.95	0.00
377.15	77.24
377.35	0.00
377.54	0.00
377.74	0.00
377.93	0.00
378.13	18.72
378.33	0.00
378.52	37.45
378.72	21.06
378.91	44.47
379.11	23.41
379.31	4.68
379.50	30.43
379.70	93.62
379.89	9.36
380.09	0.00
380.28	18.72
380.48	23.41
380.68	14.04
380.87	44.47
381.07	25.75
381.26	0.00
381.46	4.68
381.65	0.00
381.85	53.83
382.04	0.00
382.24	44.47
382.43	0.00
382.63	0.00
382.83	0.00
383.02	131.07
383.22	9.36
383.41	0.00
383.61	0.00
383.80	18.72
384.00	0.00
384.19	30.43
384.39	0.00
384.58	30.43
384.78	14.04
384.97	0.00
385.17	91.28
385.36	0.00
385.56	58.51
385.75	0.00
385.95	77.24
386.14	51.49
386.34	88.94
386.53	4.68
386.72	28.09
386.92	0.00
387.11	4.68
387.31	72.56
387.50	9.36
387.70	58.51
387.89	7.02
388.09	0.00
388.28	63.19
388.48	0.00
388.67	49.15
388.86	0.00
389.06	0.00
389.25	42.13
389.45	0.00
389.64	70.22
389.84	0.00
390.03	9.36
390.22	9.36
390.42	0.00
390.61	65.54
390.81	0.00
391.00	0.00
391.19	0.00
391.39	0.00
391.58	91.28
391.78	37.45
391.97	77.24
392.16	21.06
392.36	0.00
392.55	60.85
392.75	0.00
392.94	65.54
393.13	0.00
393.33	32.77
393.52	21.06
393.71	0.00
393.91	79.58
394.10	23.41
394.29	28.09
394.49	0.00
394.68	9.36
394.88	0.00
395.07	0.00
395.26	28.09
395.46	18.72
395.65	18.72
395.84	63.19
396.04	44.47
396.23	95.96
396.42	117.03
396.62	35.11
396.81	0.00
397.00	37.45
397.19	72.56
397.39	18.72
397.58	0.00
397.77	39.79
397.97	11.70
398.16	16.38
398.35	25.75
398.55	51.49
398.74	37.45
398.93	25.75
399.12	32.77
399.32	53.83
399.51	0.00
399.70	35.11
399.90	23.41
400.09	67.88
400.28	51.49
400.47	0.00
400.67	0.00
400.86	9.36
401.05	18.72
401.24	0.00
401.44	60.85
401.63	21.06
401.82	46.81
402.01	58.51
402.21	79.58
402.40	0.00
402.59	100.64
402.78	0.00
402.97	49.15
403.17	98.30
403.36	18.72
403.55	72.56
403.74	58.51
403.93	16.38
404.13	35.11
404.32	35.11
404.51	65.54
404.70	9.36
404.89	131.07
405.09	72.56
405.28	18.72
405.47	70.22
405.66	25.75
405.85	37.45
406.05	51.49
406.24	79.58
406.43	56.17
406.62	32.77
406.81	37.45
407.00	23.41
407.20	28.09
407.39	53.83
407.58	32.77
407.77	77.24
407.96	49.15
408.15	84.26
408.34	100.64
408.54	65.54
408.73	0.00
408.92	18.72
409.11	88.94
409.30	2.34
409.49	63.19
409.68	70.22
409.87	23.41
410.07	77.24
410.26	11.70
410.45	21.06
410.64	51.49
410.83	25.75
411.02	93.62
411.21	0.00
411.40	30.43
411.59	74.90
411.78	14.04
411.98	16.38
412.17	32.77
412.36	25.75
412.55	84.26
412.74	107.66
412.93	56.17
413.12	53.83
413.31	46.81
413.50	18.72
413.69	0.00
413.88	0.00
414.07	0.00
414.26	58.51
414.45	56.17
414.64	44.47
414.83	25.75
415.02	30.43
415.22	25.75
415.41	0.00
415.60	0.00
415.79	60.85
415.98	39.79
416.17	119.37
416.36	0.00
416.55	42.13
416.74	0.00
416.93	95.96
417.12	79.58
417.31	4.68
417.50	30.43
417.69	23.41
417.88	77.24
418.07	42.13
418.26	110.01
418.45	74.90
418.64	63.19
418.83	84.26
419.02	72.56
419.21	39.79
419.39	30.43
419.58	14.04
419.77	35.11
419.96	124.05
420.15	56.17
420.34	79.58
420.53	77.24
420.72	77.24
420.91	49.15
421.10	56.17
421.29	142.77
421.48	18.72
421.67	4.68
421.86	95.96
422.05	49.15
422.24	0.00
422.43	58.51
422.61	11.70
422.80	49.15
422.99	72.56
423.18	16.38
423.37	51.49
423.56	49.15
423.75	42.13
423.94	58.51
424.13	105.32
424.32	30.43
424.50	21.06
424.69	74.90
424.88	93.62
425.07	51.49
425.26	46.81
425.45	25.75
425.64	16.38
425.83	44.47
426.01	63.19
426.20	77.24
426.39	72.56
426.58	51.49
426.77	53.83
426.96	4.68
427.15	46.81
427.33	44.47
427.52	65.54
427.71	44.47
427.90	60.85
428.09	67.88
428.28	0.00
428.46	114.69
428.65	0.00
428.84	25.75
429.03	60.85
429.22	14.04
429.40	0.00
429.59	98.30
429.78	51.49
429.97	49.15
430.16	14.04
430.34	131.07
430.53	46.81
430.72	67.88
430.91	0.00
431.10	81.92
431.28	114.69
431.47	46.81
431.66	56.17
431.85	7.02
432.03	44.47
432.22	35.11
432.41	44.47
432.60	86.60
432.79	46.81
432.97	93.62
433.16	63.19
433.35	4.68
433.54	77.24
433.72	42.13
433.91	32.77
434.10	70.22
434.28	4.68
434.47	0.00
434.66	30.43
434.85	58.51
435.03	49.15
435.22	37.45
435.41	46.81
435.59	18.72
435.78	60.85
435.97	39.79
436.16	84.26
436.34	14.04
436.53	46.81
436.72	60.85
436.90	63.19
437.09	7.02
437.28	0.00
437.46	102.98
437.65	110.01
437.84	30.43
438.02	42.13
438.21	121.71
438.40	53.83
438.58	32.77
438.77	49.15
438.96	32.77
439.14	16.38
439.33	16.38
439.52	70.22
439.70	46.81
439.89	51.49
440.08	107.66
440.26	28.09
440.45	46.81
440.63	77.24
440.82	81.92
441.01	51.49
441.19	37.45
441.38	21.06
441.57	84.26
441.75	0.00
441.94	79.58
442.12	28.09
442.31	72.56
442.50	58.51
442.68	23.41
442.87	0.00
443.05	98.30
443.24	37.45
443.43	65.54
443.61	11.70
443.80	28.09
443.98	0.00
444.17	30.43
444.35	72.56
444.54	102.98
444.73	128.73
444.91	25.75
445.10	51.49
445.28	117.03
445.47	7.02
445.65	37.45
445.84	28.09
446.02	91.28
446.21	0.00
446.39	60.85
446.58	65.54
446.77	44.47
446.95	91.28
447.14	37.45
447.32	72.56
447.51	35.11
447.69	63.19
447.88	58.51
448.06	84.26
448.25	30.43
448.43	102.98
448.62	65.54
448.80	60.85
448.99	14.04
449.17	60.85
449.36	53.83
449.54	51.49
449.73	93.62
449.91	65.54
450.10	0.00
450.28	60.85
450.46	91.28
450.65	107.66
450.83	0.00
451.02	56.17
451.20	37.45
451.39	67.88
451.57	74.90
451.76	53.83
451.94	28.09
452.13	58.51
452.31	51.49
452.49	58.51
452.68	11.70
452.86	32.77
453.05	39.79
453.23	25.75
453.42	60.85
453.60	60.85
453.78	25.75
453.97	21.06
454.15	42.13
454.34	65.54
454.52	58.51
454.70	0.00
454.89	42.13
455.07	37.45
455.26	25.75
455.44	86.60
455.62	46.81
455.81	37.45
455.99	88.94
456.17	44.47
456.36	37.45
456.54	88.94
456.73	114.69
456.91	102.98
457.09	51.49
457.28	72.56
457.46	9.36
457.64	49.15
457.83	23.41
458.01	32.77
458.19	88.94
458.38	11.70
458.56	25.75
458.74	53.83
458.93	16.38
459.11	30.43
459.29	42.13
459.48	35.11
459.66	42.13
459.84	100.64
460.03	49.15
460.21	84.26
460.39	0.00
460.57	21.06
460.76	4.68
460.94	72.56
461.12	81.92
461.31	93.62
461.49	0.00
461.67	51.49
461.85	86.60
462.04	28.09
462.22	110.01
462.40	93.62
462.59	0.00
462.77	51.49
462.95	28.09
463.13	18.72
463.32	53.83
463.50	93.62
463.68	32.77
463.86	70.22
464.05	67.88
464.23	72.56
464.41	32.77
464.59	35.11
464.78	88.94
464.96	35.11
465.14	11.70
465.32	46.81
465.50	7.02
465.69	30.43
465.87	88.94
466.05	63.19
466.23	42.13
466.41	49.15
466.60	114.69
466.78	58.51
466.96	21.06
467.14	18.72
467.32	77.24
467.51	44.47
467.69	86.60
467.87	93.62
468.05	58.51
468.23	0.00
468.41	0.00
468.60	65.54
468.78	39.79
468.96	2.34
469.14	46.81
469.32	28.09
469.50	9.36
469.69	46.81
469.87	65.54
470.05	98.30
470.23	70.22
470.41	0.00
470.59	63.19
470.77	105.32
470.95	124.05
471.14	95.96
471.32	0.00
471.50	21.06
471.68	25.75
471.86	91.28
472.04	53.83
472.22	14.04
472.40	11.70
472.58	18.72
472.77	105.32
472.95	14.04
473.13	42.13
473.31	98.30
473.49	14.04
473.67	51.49
473.85	81.92
474.03	42.13
474.21	0.00
474.39	84.26
474.57	93.62
474.75	107.66
474.93	9.36
475.12	67.88
475.30	102.98
475.48	9.36
475.66	21.06
475.84	74.90
476.02	70.22
476.20	58.51
476.38	7.02
476.56	42.13
476.74	21.06
476.92	51.49
477.10	44.47
477.28	81.92
477.46	72.56
477.64	81.92
477.82	77.24
478.00	95.96
478.18	145.11
478.36	67.88
478.54	65.54
478.72	60.85
478.90	70.22
479.08	39.79
479.26	44.47
479.44	63.19
479.62	74.90
479.80	0.00
479.98	14.04
480.16	11.70
480.34	98.30
480.52	30.43
480.70	53.83
480.88	49.15
481.06	60.85
481.24	84.26
481.41	124.05
481.59	149.79
481.77	81.92
481.95	30.43
482.13	16.38
482.31	32.77
482.49	53.83
482.67	0.00
482.85	131.07
483.03	107.66
483.21	84.26
483.39	74.90
483.57	65.54
483.74	95.96
483.92	102.98
484.10	37.45
484.28	56.17
484.46	102.98
484.64	107.66
484.82	23.41
485.00	51.49
485.18	16.38
485.35	30.43
485.53	105.32
485.71	65.54
485.89	63.19
486.07	51.49
486.25	21.06
486.43	53.83
486.61	4.68
486.78	0.00
486.96	51.49
487.14	25.75
487.32	39.79
487.50	63.19
487.68	124.05
487.85	81.92
488.03	46.81
488.21	93.62
488.39	72.56
488.57	44.47
488.75	39.79
488.92	124.05
489.10	63.19
489.28	58.51
489.46	100.64
489.64	28.09
489.81	131.07
489.99	60.85
490.17	56.17
490.35	56.17
490.53	70.22
490.70	42.13
490.88	65.54
491.06	56.17
491.24	86.60
491.41	72.56
491.59	138.09
491.77	39.79
491.95	42.13
492.13	102.98
492.30	86.60
492.48	44.47
492.66	37.45
492.84	84.26
493.01	128.73
493.19	72.56
493.37	110.01
493.54	56.17
493.72	30.43
493.90	81.92
494.08	70.22
494.25	51.49
494.43	67.88
494.61	128.73
494.79	11.70
494.96	42.13
495.14	9.36
495.32	100.64
495.49	98.30
495.67	88.94
495.85	42.13
496.02	88.94
496.20	56.17
496.38	79.58
496.55	95.96
496.73	81.92
496.91	74.90
497.09	67.88
497.26	0.00
497.44	91.28
497.62	37.45
497.79	117.03
497.97	56.17
498.14	70.22
498.32	46.81
498.50	0.00
498.67	110.01
498.85	63.19
499.03	35.11
499.20	81.92
499.38	60.85
499.56	11.70
499.73	119.37
499.91	88.94
500.08	126.39
500.26	131.07
500.44	112.35
500.61	42.13
500.79	102.98
500.97	56.17
501.14	98.30
501.32	121.71
501.49	105.32
501.67	51.49
501.84	39.79
502.02	42.13
502.20	56.17
502.37	112.35
502.55	110.01
502.72	46.81
502.90	44.47
503.07	23.41
503.25	39.79
503.43	65.54
503.60	121.71
503.78	79.58
503.95	117.03
504.13	53.83
504.30	51.49
504.48	128.73
504.65	4.68
504.83	105.32
505.01	114.69
505.18	88.94
505.36	39.79
505.53	79.58
505.71	51.49
505.88	95.96
506.06	81.92
506.23	145.11
506.41	37.45
506.58	28.09
506.76	14.04
506.93	107.66
507.11	110.01
507.28	77.24
507.46	58.51
507.63	0.00
507.81	95.96
507.98	49.15
508.16	58.51
508.33	131.07
508.50	145.11
508.68	93.62
508.85	84.26
509.03	84.26
509.20	0.00
509.38	88.94
509.55	60.85
509.73	128.73
509.90	67.88
510.08	51.49
510.25	93.62
510.42	84.26
510.60	28.09
510.77	67.88
510.95	117.03
511.12	42.13
511.30	81.92
511.47	93.62
511.64	81.92
511.82	0.00
511.99	51.49
512.17	77.24
512.34	142.77
512.51	46.81
512.69	145.11
512.86	119.37
513.04	91.28
513.21	70.22
513.38	102.98
513.56	72.56
513.73	81.92
513.90	67.88
514.08	0.00
514.25	124.05
514.43	58.51
514.60	65.54
514.77	46.81
514.95	74.90
515.12	0.00
515.29	44.47
515.47	39.79
515.64	56.17
515.81	98.30
515.99	79.58
516.16	70.22
516.33	32.77
516.51	35.11
516.68	44.47
516.85	128.73
517.03	30.43
517.20	93.62
517.37	49.15
517.54	154.48
517.72	91.28
517.89	77.24
518.06	44.47
518.24	49.15
518.41	23.41
518.58	81.92
518.75	63.19
518.93	79.58
519.10	91.28
519.27	133.41
519.45	119.37
519.62	100.64
519.79	11.70
519.96	86.60
520.14	42.13
520.31	102.98
520.48	23.41
520.65	74.90
520.83	117.03
521.00	142.77
521.17	100.64
521.34	42.13
521.52	81.92
521.69	39.79
521.86	46.81
522.03	77.24
522.20	84.26
522.38	102.98
522.55	28.09
522.72	100.64
522.89	128.73
523.07	88.94
523.24	79.58
523.41	58.51
523.58	100.64
523.75	67.88
523.92	63.19
524.10	63.19
524.27	49.15
524.44	63.19
524.61	49.15
524.78	126.39
524.96	74.90
525.13	35.11
525.30	161.50
525.47	93.62
525.64	42.13
525.81	84.26
525.98	84.26
526.16	49.15
526.33	72.56
526.50	63.19
526.67	70.22
526.84	124.05
527.01	102.98
527.18	86.60
527.36	63.19
527.53	112.35
527.70	114.69
527.87	74.90
528.04	121.71
528.21	93.62
528.38	86.60
528.55	86.60
528.72	77.24
528.89	81.92
529.07	51.49
529.24	84.26
529.41	74.90
529.58	140.43
529.75	84.26
529.92	44.47
530.09	112.35
530.26	117.03
530.43	93.62
530.60	11.70
530.77	0.00
530.94	49.15
531.11	42.13
531.28	95.96
531.46	98.30
531.63	168.52
531.80	135.75
531.97	112.35
532.14	72.56
532.31	168.52
532.48	81.92
532.65	53.83
532.82	105.32
532.99	105.32
533.16	58.51
533.33	86.60
533.50	46.81
533.67	105.32
533.84	112.35
534.01	81.92
534.18	138.09
534.35	65.54
534.52	4.68
534.69	53.83
534.86	119.37
535.03	140.43
535.20	46.81
535.37	65.54
535.54	128.73
535.71	98.30
535.88	138.09
536.05	39.79
536.22	0.00
536.38	93.62
536.55	81.92
536.72	79.58
536.89	14.04
537.06	37.45
537.23	107.66
537.40	133.41
537.57	98.30
537.74	70.22
537.91	0.00
538.08	79.58
538.25	44.47
538.42	84.26
538.59	4.68
538.75	100.64
538.92	81.92
539.09	100.64
539.26	9.36
539.43	84.26
539.60	53.83
539.77	124.05
539.94	105.32
540.11	110.01
540.28	42.13
540.44	79.58
540.61	53.83
540.78	70.22
540.95	79.58
541.12	72.56
541.29	91.28
541.46	37.45
541.62	49.15
541.79	145.11
541.96	63.19
542.13	77.24
542.30	53.83
542.47	70.22
542.63	86.60
542.80	119.37
542.97	84.26
543.14	0.00
543.31	58.51
543.48	142.77
543.64	149.79
543.81	124.05
543.98	86.60
544.15	119.37
544.32	88.94
544.48	86.60
544.65	126.39
544.82	72.56
544.99	77.24
545.16	74.90
545.32	93.62
545.49	100.64
545.66	81.92
545.83	42.13
546.00	86.60
546.16	44.47
546.33	23.41
546.50	95.96
546.67	74.90
546.83	100.64
547.00	58.51
547.17	91.28
547.34	126.39
547.50	142.77
547.67	154.48
547.84	72.56
548.00	49.15
548.17	107.66
548.34	196.60
548.51	70.22
548.67	100.64
548.84	32.77
549.01	112.35
549.18	25.75
549.34	107.66
549.51	65.54
549.68	124.05
549.84	14.04
550.01	77.24
550.18	88.94
550.34	135.75
550.51	105.32
550.68	163.84
550.84	128.73
551.01	112.35
551.18	79.58
551.34	98.30
551.51	65.54
551.68	112.35
551.84	86.60
552.01	86.60
552.18	121.71
552.34	112.35
552.51	102.98
552.68	105.32
552.84	168.52
553.01	79.58
553.18	60.85
553.34	39.79
553.51	140.43
553.67	72.56
553.84	46.81
554.01	70.22
554.17	95.96
554.34	58.51
554.51	21.06
554.67	74.90
554.84	112.35
555.00	163.84
555.17	128.73
555.33	51.49
555.50	35.11
555.67	63.19
555.83	53.83
556.00	72.56
556.16	46.81
556.33	91.28
556.50	93.62
556.66	86.60
556.83	32.77
556.99	70.22
557.16	70.22
557.32	32.77
557.49	128.73
557.65	65.54
557.82	63.19
557.98	32.77
558.15	107.66
558.32	30.43
558.48	95.96
558.65	65.54
558.81	88.94
558.98	53.83
559.14	0.00
559.31	93.62
559.47	30.43
559.64	119.37
559.80	177.88
559.97	140.43
560.13	95.96
560.30	44.47
560.46	63.19
560.63	51.49
560.79	135.75
560.96	102.98
561.12	79.58
561.29	98.30
561.45	60.85
561.61	142.77
561.78	102.98
561.94	131.07
562.11	102.98
562.27	91.28
562.44	53.83
562.60	46.81
562.77	9.36
562.93	91.28
563.10	166.18
563.26	121.71
563.42	65.54
563.59	117.03
563.75	107.66
563.92	60.85
564.08	121.71
564.24	86.60
564.41	30.43
564.57	37.45
564.74	91.28
564.90	196.60
565.07	30.43
565.23	49.15
565.39	77.24
565.56	74.90
565.72	46.81
565.88	88.94
566.05	65.54
566.21	63.19
566.38	107.66
566.54	60.85
566.70	95.96
566.87	100.64
567.03	119.37
567.19	67.88
567.36	117.03
567.52	18.72
567.68	95.96
567.85	84.26
568.01	124.05
568.17	39.79
568.34	67.88
568.50	149.79
568.66	100.64
568.83	126.39
568.99	63.19
569.15	93.62
569.32	84.26
569.48	70.22
569.64	121.71
569.81	145.11
569.97	32.77
570.13	74.90
570.30	72.56
570.46	53.83
570.62	51.49
570.78	67.88
570.95	110.01
571.11	84.26
571.27	32.77
571.43	23.41
571.60	65.54
571.76	49.15
571.92	105.32
572.09	88.94
572.25	25.75
572.41	14.04
572.57	46.81
572.74	79.58
572.90	88.94
573.06	84.26
573.22	25.75
573.38	161.50
573.55	84.26
573.71	84.26
573.87	53.83
574.03	79.58
574.20	16.38
574.36	86.60
574.52	140.43
574.68	88.94
574.84	18.72
575.01	79.58
575.17	114.69
575.33	21.06
575.49	124.05
575.65	86.60
575.82	32.77
575.98	35.11
576.14	28.09
576.30	149.79
576.46	147.45
576.62	128.73
576.79	107.66
576.95	100.64
577.11	51.49
577.27	44.47
577.43	44.47
577.59	0.00
577.75	88.94
577.92	110.01
578.08	88.94
578.24	77.24
578.40	161.50
578.56	63.19
578.72	86.60
578.88	49.15
579.04	126.39
579.21	74.90
579.37	30.43
579.53	98.30
579.69	105.32
579.85	37.45
580.01	72.56
580.17	84.26
580.33	77.24
580.49	39.79
580.65	105.32
580.82	63.19
580.98	105.32
581.14	72.56
581.30	11.70
581.46	79.58
581.62	39.79
581.78	32.77
581.94	112.35
582.10	126.39
582.26	79.58
582.42	100.64
582.58	58.51
582.74	102.98
582.90	105.32
583.06	93.62
583.22	70.22
583.38	84.26
583.54	65.54
583.70	110.01
583.86	39.79
584.02	98.30
584.18	79.58
584.34	65.54
584.50	81.92
584.66	49.15
584.82	79.58
584.98	25.75
585.14	95.96
585.30	35.11
585.46	42.13
585.62	88.94
585.78	39.79
585.94	42.13
586.10	102.98
586.26	126.39
586.42	105.32
586.58	77.24
586.74	100.64
586.90	44.47
587.06	126.39
587.22	58.51
587.38	49.15
587.54	93.62
587.70	67.88
587.86	100.64
588.02	67.88
588.18	102.98
588.34	79.58
588.49	65.54
588.65	25.75
588.81	81.92
588.97	95.96
589.13	37.45
589.29	105.32
589.45	56.17
589.61	44.47
589.77	79.58
589.93	39.79
590.08	39.79
590.24	0.00
590.40	42.13
590.56	105.32
590.72	93.62
590.88	110.01
591.04	11.70
591.20	154.48
591.35	138.09
591.51	58.51
591.67	74.90
591.83	107.66
591.99	79.58
592.15	46.81
592.31	105.32
592.46	51.49
592.62	74.90
592.78	58.51
592.94	117.03
593.10	42.13
593.26	0.00
593.41	46.81
593.57	65.54
593.73	49.15
593.89	77.24
594.05	51.49
594.20	0.00
594.36	128.73
594.52	56.17
594.68	25.75
594.84	107.66
594.99	105.32
595.15	110.01
595.31	124.05
595.47	56.17
595.62	39.79
595.78	14.04
595.94	77.24
596.10	110.01
596.25	86.60
596.41	114.69
596.57	51.49
596.73	140.43
596.88	28.09
597.04	63.19
597.20	39.79
597.36	42.13
597.51	93.62
597.67	74.90
597.83	32.77
597.99	72.56
598.14	124.05
598.30	35.11
598.46	77.24
598.61	53.83
598.77	102.98
598.93	4.68
599.09	110.01
599.24	72.56
599.40	81.92
599.56	119.37
599.71	32.77
599.87	46.81
600.03	147.45
600.18	37.45
600.34	98.30
600.50	23.41
600.65	35.11
600.81	23.41
600.97	121.71
601.12	58.51
601.28	53.83
601.44	46.81
601.59	30.43
601.75	84.26
601.91	81.92
602.06	63.19
602.22	0.00
602.37	72.56
602.53	84.26
602.69	77.24
602.84	58.51
603.00	98.30
603.16	88.94
603.31	67.88
603.47	84.26
603.62	79.58
603.78	32.77
603.94	60.85
604.09	88.94
604.25	56.17
604.40	58.51
604.56	74.90
604.71	88.94
604.87	79.58
605.03	39.79
605.18	98.30
605.34	51.49
605.49	65.54
605.65	126.39
605.80	93.62
605.96	77.24
606.12	0.00
606.27	84.26
606.43	102.98
606.58	2.34
606.74	63.19
606.89	112.35
607.05	79.58
607.20	65.54
607.36	100.64
607.51	18.72
607.67	21.06
607.82	79.58
607.98	28.09
608.13	138.09
608.29	70.22
608.44	21.06
608.60	81.92
608.75	0.00
608.91	39.79
609.06	86.60
609.22	81.92
609.37	95.96
609.53	86.60
609.68	0.00
609.84	67.88
609.99	46.81
610.15	79.58
610.30	128.73
610.46	84.26
610.61	124.05
610.76	88.94
610.92	105.32
611.07	49.15
611.23	81.92
611.38	110.01
611.54	84.26
611.69	117.03
611.84	175.54
612.00	65.54
612.15	28.09
612.31	53.83
612.46	81.92
612.62	58.51
612.77	16.38
612.92	102.98
613.08	35.11
613.23	95.96
613.39	39.79
613.54	84.26
613.69	35.11
613.85	56.17
614.00	32.77
614.15	46.81
614.31	77.24
614.46	42.13
614.62	39.79
614.77	95.96
614.92	81.92
615.08	77.24
615.23	98.30
615.38	107.66
615.54	91.28
615.69	46.81
615.84	28.09
616.00	39.79
616.15	93.62
616.30	44.47
616.46	35.11
616.61	51.49
616.76	84.26
616.92	56.17
617.07	65.54
617.22	44.47
617.37	18.72
617.53	18.72
617.68	9.36
617.83	56.17
617.99	28.09
618.14	16.38
618.29	117.03
618.45	51.49
618.60	25.75
618.75	105.32
618.90	25.75
619.06	112.35
619.21	88.94
619.36	65.54
619.51	53.83
619.67	93.62
619.82	58.51
619.97	81.92
620.12	49.15
620.28	81.92
620.43	23.41
620.58	32.77
620.73	4.68
620.89	65.54
621.04	98.30
621.19	121.71
621.34	32.77
621.49	16.38
621.65	86.60
621.80	4.68
621.95	86.60
622.10	84.26
622.25	37.45
622.41	58.51
622.56	81.92
622.71	46.81
622.86	25.75
623.01	35.11
623.16	63.19
623.32	105.32
623.47	23.41
623.62	100.64
623.77	86.60
623.92	14.04
624.07	102.98
624.23	32.77
624.38	124.05
624.53	39.79
624.68	49.15
624.83	77.24
624.98	65.54
625.13	65.54
625.29	42.13
625.44	81.92
625.59	77.24
625.74	63.19
625.89	121.71
626.04	88.94
626.19	56.17
626.34	49.15
626.49	112.35
626.65	2.34
626.80	79.58
626.95	60.85
627.10	16.38
627.25	35.11
627.40	58.51
627.55	51.49
627.70	114.69
627.85	16.38
628.00	128.73
628.15	98.30
628.30	32.77
628.45	63.19
628.60	25.75
628.76	107.66
628.91	93.62
629.06	58.51
629.21	23.41
629.36	86.60
629.51	39.79
629.66	32.77
629.81	98.30
629.96	9.36
630.11	124.05
630.26	37.45
630.41	58.51
630.56	39.79
630.71	79.58
630.86	88.94
631.01	30.43
631.16	39.79
631.31	72.56
631.46	23.41
631.61	100.64
631.76	65.54
631.91	30.43
632.06	112.35
632.21	98.30
632.36	84.26
632.51	44.47
632.66	53.83
632.81	159.16
632.96	21.06
633.10	56.17
633.25	58.51
633.40	67.88
633.55	65.54
633.70	35.11
633.85	49.15
634.00	30.43
634.15	46.81
634.30	65.54
634.45	4.68
634.60	44.47
634.75	65.54
634.90	35.11
635.05	2.34
635.19	44.47
635.34	128.73
635.49	0.00
635.64	42.13
635.79	39.79
635.94	95.96
636.09	28.09
636.24	7.02
636.39	39.79
636.53	77.24
636.68	58.51
636.83	44.47
636.98	46.81
637.13	70.22
637.28	117.03
637.43	42.13
637.57	93.62
637.72	84.26
637.87	28.09
638.02	72.56
638.17	81.92
638.32	93.62
638.46	65.54
638.61	70.22
638.76	7.02
638.91	28.09
639.06	37.45
639.20	0.00
639.35	100.64
639.50	95.96
639.65	77.24
639.80	84.26
639.94	110.01
640.09	114.69
640.24	88.94
640.39	39.79
640.54	72.56
640.68	81.92
640.83	49.15
640.98	0.00
641.13	67.88
641.27	37.45
641.42	0.00
641.57	30.43
641.72	121.71
641.86	2.34
642.01	0.00
642.16	35.11
642.31	53.83
642.45	84.26
642.60	25.75
642.75	63.19
642.90	0.00
643.04	63.19
643.19	131.07
643.34	65.54
643.48	9.36
643.63	16.38
643.78	100.64
643.93	44.47
644.07	72.56
644.22	37.45
644.37	72.56
644.51	53.83
644.66	105.32
644.81	79.58
644.95	114.69
645.10	46.81
645.25	133.41
645.39	79.58
645.54	35.11
645.69	60.85
645.83	21.06
645.98	21.06
646.13	86.60
646.27	63.19
646.42	56.17
646.57	72.56
646.71	25.75
646.86	63.19
647.00	102.98
647.15	44.47
647.30	23.41
647.44	65.54
647.59	88.94
647.74	70.22
647.88	58.51
648.03	51.49
648.17	77.24
648.32	95.96
648.47	25.75
648.61	67.88
648.76	56.17
648.90	49.15
649.05	93.62
649.20	46.81
649.34	42.13
649.49	91.28
649.63	37.45
649.78	70.22
649.92	86.60
650.07	53.83
650.21	65.54
650.36	88.94
650.51	58.51
650.65	25.75
650.80	72.56
650.94	37.45
651.09	11.70
651.23	42.13
651.38	65.54
651.52	46.81
651.67	58.51
651.81	72.56
651.96	58.51
652.10	67.88
652.25	37.45
652.39	105.32
652.54	65.54
652.68	79.58
652.83	56.17
652.97	30.43
653.12	65.54
653.26	93.62
653.41	18.72
653.55	16.38
653.70	25.75
653.84	107.66
653.99	84.26
654.13	114.69
654.27	93.62
654.42	138.09
654.56	79.58
654.71	0.00
654.85	79.58
655.00	84.26
655.14	51.49
655.29	0.00
655.43	77.24
655.57	0.00
655.72	49.15
655.86	121.71
656.01	133.41
656.15	42.13
656.30	32.77
656.44	105.32
656.58	70.22
656.73	63.19
656.87	32.77
657.01	35.11
657.16	37.45
657.30	39.79
657.45	37.45
657.59	70.22
657.73	37.45
657.88	53.83
658.02	32.77
658.16	51.49
658.31	88.94
658.45	58.51
658.60	0.00
658.74	46.81
658.88	0.00
659.03	42.13
659.17	42.13
659.31	7.02
659.46	0.00
659.60	14.04
659.74	9.36
659.89	56.17
660.03	53.83
660.17	32.77
660.32	2.34
660.46	35.11
660.60	51.49
660.74	77.24
660.89	79.58
661.03	16.38
661.17	91.28
661.32	65.54
661.46	49.15
661.60	84.26
661.74	93.62
661.89	49.15
662.03	60.85
662.17	0.00
662.31	70.22
662.46	23.41
662.60	72.56
662.74	63.19
662.88	51.49
663.03	28.09
663.17	51.49
663.31	0.00
663.45	119.37
663.60	95.96
663.74	37.45
663.88	0.00
664.02	77.24
664.17	84.26
664.31	25.75
664.45	42.13
664.59	100.64
664.73	58.51
664.88	95.96
665.02	35.11
665.16	86.60
665.30	117.03
665.44	0.00
665.59	102.98
665.73	128.73
665.87	16.38
666.01	42.13
666.15	11.70
666.29	42.13
666.44	42.13
666.58	102.98
666.72	56.17
666.86	93.62
667.00	107.66
667.14	88.94
667.28	25.75
667.43	93.62
667.57	0.00
667.71	67.88
667.85	7.02
667.99	37.45
668.13	35.11
668.27	60.85
668.41	30.43
668.56	28.09
668.70	58.51
668.84	91.28
668.98	7.02
669.12	14.04
669.26	67.88
669.40	0.00
669.54	0.00
669.68	35.11
669.82	23.41
669.96	70.22
670.10	51.49
670.25	39.79
670.39	16.38
670.53	60.85
670.67	79.58
670.81	16.38
670.95	56.17
671.09	18.72
671.23	77.24
671.37	9.36
671.51	58.51
671.65	2.34
671.79	0.00
671.93	100.64
672.07	72.56
672.21	74.90
672.35	21.06
672.49	77.24
672.63	16.38
672.77	21.06
672.91	11.70
673.05	0.00
673.19	81.92
673.33	18.72
673.47	81.92
673.61	84.26
673.75	100.64
673.89	86.60
674.03	42.13
674.17	0.00
674.31	63.19
674.45	102.98
674.59	74.90
674.73	39.79
674.87	114.69
675.01	65.54
675.15	0.00
675.29	9.36
675.43	91.28
675.56	0.00
675.70	107.66
675.84	25.75
675.98	0.00
676.12	53.83
676.26	14.04
676.40	0.00
676.54	93.62
676.68	23.41
676.82	63.19
676.96	42.13
677.10	105.32
677.23	32.77
677.37	30.43
677.51	42.13
677.65	63.19
677.79	0.00
677.93	70.22
678.07	42.13
678.21	35.11
678.34	25.75
678.48	35.11
678.62	30.43
678.76	53.83
678.90	77.24
679.04	39.79
679.18	0.00
679.31	0.00
679.45	49.15
679.59	72.56
679.73	42.13
679.87	53.83
680.00	21.06
680.14	0.00
680.28	14.04
680.42	60.85
680.56	156.82
680.70	72.56
680.83	60.85
680.97	16.38
681.11	21.06
681.25	18.72
681.39	49.15
681.52	25.75
681.66	16.38
681.80	35.11
681.94	70.22
682.07	42.13
682.21	25.75
682.35	32.77
682.49	46.81
682.62	81.92
682.76	16.38
682.90	70.22
683.04	53.83
683.17	49.15
683.31	0.00
683.45	35.11
683.59	74.90
683.72	28.09
683.86	58.51
684.00	86.60
684.13	65.54
684.27	44.47
684.41	42.13
684.55	79.58
684.68	65.54
684.82	60.85
684.96	79.58
685.09	100.64
685.23	77.24
685.37	77.24
685.50	117.03
685.64	28.09
685.78	39.79
685.91	79.58
686.05	11.70
686.19	7.02
686.32	7.02
686.46	7.02
686.60	42.13
686.73	46.81
686.87	58.51
687.01	49.15
687.14	16.38
687.28	81.92
687.42	81.92
687.55	0.00
687.69	56.17
687.82	51.49
687.96	14.04
688.10	0.00
688.23	56.17
688.37	4.68
688.50	67.88
688.64	37.45
688.78	0.00
688.91	74.90
689.05	65.54
689.18	0.00
689.32	72.56
689.46	58.51
689.59	74.90
689.73	42.13
689.86	0.00
690.00	11.70
690.13	72.56
690.27	42.13
690.41	32.77
690.54	42.13
690.68	79.58
690.81	58.51
690.95	30.43
691.08	14.04
691.22	0.00
691.35	7.02
691.49	9.36
691.62	0.00
691.76	60.85
691.89	95.96
692.03	21.06
692.16	70.22
692.30	23.41
692.43	51.49
692.57	58.51
692.70	42.13
692.84	14.04
692.97	100.64
693.11	35.11
693.24	46.81
693.38	49.15
693.51	9.36
693.65	44.47
693.78	46.81
693.92	16.38
694.05	9.36
694.19	28.09
694.32	28.09
694.45	79.58
694.59	49.15
694.72	56.17
694.86	35.11
694.99	51.49
695.13	74.90
695.26	53.83
695.39	63.19
695.53	30.43
695.66	23.41
695.80	131.07
695.93	65.54
696.07	65.54
696.20	37.45
696.33	44.47
696.47	51.49
696.60	74.90
696.73	58.51
696.87	93.62
697.00	37.45
697.14	28.09
697.27	35.11
697.40	30.43
697.54	0.00
697.67	0.00
697.80	0.00
697.94	49.15
698.07	77.24
698.21	7.02
698.34	30.43
698.47	35.11
698.61	77.24
698.74	18.72
698.87	49.15
699.01	53.83
699.14	16.38
699.27	67.88
699.40	14.04
699.54	42.13
699.67	46.81
699.80	25.75
699.94	51.49
700.07	0.00
700.20	30.43
700.34	98.30
700.47	0.00
700.60	95.96
700.73	4.68
700.87	88.94
701.00	56.17
701.13	84.26
701.26	72.56
701.40	21.06
701.53	14.04
701.66	67.88
701.79	51.49
701.93	0.00
702.06	65.54
702.19	79.58
702.32	93.62
702.46	107.66
702.59	0.00
702.72	0.00
702.85	7.02
702.99	74.90
703.12	88.94
703.25	95.96
703.38	7.02
703.51	35.11
703.65	16.38
703.78	0.00
703.91	46.81
704.04	37.45
704.17	42.13
704.31	0.00
704.44	11.70
704.57	102.98
704.70	65.54
704.83	81.92
704.96	79.58
705.10	63.19
705.23	42.13
>>>>>End Processed Spectral Data<<<<<
