SpectraSuite Data File
++++++++++++++++++++++++++++++++++++
Date: Fri Oct 04 12:13:25 GMT-05:00 2013
User: price-jones
Dark Spectrum Present: No
Reference Spectrum Present: No
Number of Sampled Component Spectra: 1
Spectrometers: USB2+H05261
Integration Time (usec): 10000 (USB2+H05261)
Spectra Averaged: 1 (USB2+H05261)
Boxcar Smoothing: 0 (USB2+H05261)
Correct for Electrical Dark: No (USB2+H05261)
Strobe/Lamp Enabled: No (USB2+H05261)
Correct for Detector Non-linearity: No (USB2+H05261)
Correct for Stray Light: No (USB2+H05261)
Number of Pixels in Processed Spectrum: 2048
>>>>>Begin Processed Spectral Data<<<<<
365.73	25.75
365.92	25.75
366.12	25.75
366.32	0.00
366.52	0.00
366.72	0.00
366.91	0.00
367.11	0.00
367.31	0.00
367.51	0.00
367.70	0.00
367.90	0.00
368.10	0.00
368.30	0.00
368.49	0.00
368.69	0.00
368.89	0.00
369.09	0.00
369.28	0.00
369.48	0.00
369.68	0.00
369.87	0.00
370.07	0.00
370.27	0.00
370.47	0.00
370.66	0.00
370.86	4.68
371.06	0.00
371.25	0.00
371.45	0.00
371.65	0.00
371.84	0.00
372.04	21.06
372.24	42.13
372.44	28.09
372.63	53.83
372.83	0.00
373.03	0.00
373.22	44.47
373.42	35.11
373.62	44.47
373.81	58.51
374.01	77.24
374.21	0.00
374.40	60.85
374.60	0.00
374.79	0.00
374.99	25.75
375.19	23.41
375.38	0.00
375.58	42.13
375.78	67.88
375.97	16.38
376.17	44.47
376.37	18.72
376.56	44.47
376.76	28.09
376.95	30.43
377.15	14.04
377.35	7.02
377.54	32.77
377.74	77.24
377.93	0.00
378.13	0.00
378.33	126.39
378.52	0.00
378.72	46.81
378.91	0.00
379.11	0.00
379.31	65.54
379.50	16.38
379.70	53.83
379.89	30.43
380.09	32.77
380.28	53.83
380.48	44.47
380.68	16.38
380.87	32.77
381.07	39.79
381.26	0.00
381.46	14.04
381.65	32.77
381.85	51.49
382.04	135.75
382.24	51.49
382.43	0.00
382.63	32.77
382.83	32.77
383.02	46.81
383.22	37.45
383.41	0.00
383.61	67.88
383.80	0.00
384.00	42.13
384.19	18.72
384.39	14.04
384.58	2.34
384.78	70.22
384.97	11.70
385.17	9.36
385.36	4.68
385.56	42.13
385.75	30.43
385.95	21.06
386.14	7.02
386.34	65.54
386.53	4.68
386.72	63.19
386.92	0.00
387.11	11.70
387.31	28.09
387.50	0.00
387.70	56.17
387.89	79.58
388.09	4.68
388.28	35.11
388.48	25.75
388.67	81.92
388.86	0.00
389.06	14.04
389.25	65.54
389.45	0.00
389.64	11.70
389.84	93.62
390.03	0.00
390.22	0.00
390.42	21.06
390.61	0.00
390.81	28.09
391.00	58.51
391.19	95.96
391.39	2.34
391.58	32.77
391.78	72.56
391.97	14.04
392.16	0.00
392.36	7.02
392.55	9.36
392.75	88.94
392.94	0.00
393.13	44.47
393.33	21.06
393.52	11.70
393.71	0.00
393.91	46.81
394.10	32.77
394.29	67.88
394.49	0.00
394.68	16.38
394.88	51.49
395.07	37.45
395.26	0.00
395.46	65.54
395.65	58.51
395.84	0.00
396.04	30.43
396.23	0.00
396.42	51.49
396.62	2.34
396.81	21.06
397.00	53.83
397.19	51.49
397.39	35.11
397.58	0.00
397.77	77.24
397.97	56.17
398.16	23.41
398.35	0.00
398.55	0.00
398.74	16.38
398.93	37.45
399.12	0.00
399.32	30.43
399.51	0.00
399.70	11.70
399.90	46.81
400.09	53.83
400.28	37.45
400.47	39.79
400.67	0.00
400.86	14.04
401.05	77.24
401.24	0.00
401.44	11.70
401.63	18.72
401.82	0.00
402.01	4.68
402.21	42.13
402.40	0.00
402.59	0.00
402.78	35.11
402.97	0.00
403.17	25.75
403.36	28.09
403.55	0.00
403.74	0.00
403.93	0.00
404.13	44.47
404.32	131.07
404.51	7.02
404.70	51.49
404.89	0.00
405.09	117.03
405.28	25.75
405.47	0.00
405.66	37.45
405.85	0.00
406.05	21.06
406.24	39.79
406.43	9.36
406.62	53.83
406.81	74.90
407.00	70.22
407.20	7.02
407.39	0.00
407.58	39.79
407.77	42.13
407.96	4.68
408.15	49.15
408.34	0.00
408.54	39.79
408.73	65.54
408.92	25.75
409.11	58.51
409.30	23.41
409.49	28.09
409.68	0.00
409.87	72.56
410.07	0.00
410.26	0.00
410.45	0.00
410.64	70.22
410.83	0.00
411.02	53.83
411.21	0.00
411.40	23.41
411.59	4.68
411.78	23.41
411.98	18.72
412.17	2.34
412.36	30.43
412.55	7.02
412.74	18.72
412.93	42.13
413.12	53.83
413.31	0.00
413.50	63.19
413.69	0.00
413.88	14.04
414.07	0.00
414.26	42.13
414.45	56.17
414.64	81.92
414.83	77.24
415.02	11.70
415.22	23.41
415.41	4.68
415.60	88.94
415.79	39.79
415.98	81.92
416.17	0.00
416.36	0.00
416.55	39.79
416.74	0.00
416.93	65.54
417.12	37.45
417.31	63.19
417.50	23.41
417.69	7.02
417.88	0.00
418.07	0.00
418.26	23.41
418.45	0.00
418.64	28.09
418.83	23.41
419.02	16.38
419.21	0.00
419.39	0.00
419.58	0.00
419.77	35.11
419.96	0.00
420.15	4.68
420.34	0.00
420.53	126.39
420.72	53.83
420.91	0.00
421.10	0.00
421.29	53.83
421.48	49.15
421.67	65.54
421.86	86.60
422.05	0.00
422.24	0.00
422.43	0.00
422.61	60.85
422.80	39.79
422.99	23.41
423.18	58.51
423.37	56.17
423.56	56.17
423.75	0.00
423.94	0.00
424.13	70.22
424.32	58.51
424.50	0.00
424.69	18.72
424.88	65.54
425.07	63.19
425.26	0.00
425.45	0.00
425.64	0.00
425.83	0.00
426.01	28.09
426.20	42.13
426.39	30.43
426.58	65.54
426.77	74.90
426.96	23.41
427.15	35.11
427.33	9.36
427.52	72.56
427.71	112.35
427.90	0.00
428.09	0.00
428.28	112.35
428.46	25.75
428.65	0.00
428.84	14.04
429.03	30.43
429.22	32.77
429.40	0.00
429.59	98.30
429.78	30.43
429.97	95.96
430.16	28.09
430.34	44.47
430.53	0.00
430.72	14.04
430.91	25.75
431.10	105.32
431.28	46.81
431.47	91.28
431.66	0.00
431.85	0.00
432.03	35.11
432.22	44.47
432.41	0.00
432.60	21.06
432.79	32.77
432.97	21.06
433.16	77.24
433.35	9.36
433.54	7.02
433.72	0.00
433.91	23.41
434.10	67.88
434.28	9.36
434.47	23.41
434.66	91.28
434.85	51.49
435.03	0.00
435.22	2.34
435.41	0.00
435.59	14.04
435.78	32.77
435.97	77.24
436.16	9.36
436.34	2.34
436.53	35.11
436.72	0.00
436.90	18.72
437.09	21.06
437.28	28.09
437.46	4.68
437.65	72.56
437.84	16.38
438.02	107.66
438.21	28.09
438.40	0.00
438.58	0.00
438.77	0.00
438.96	23.41
439.14	0.00
439.33	42.13
439.52	77.24
439.70	112.35
439.89	4.68
440.08	0.00
440.26	7.02
440.45	74.90
440.63	21.06
440.82	18.72
441.01	23.41
441.19	112.35
441.38	9.36
441.57	51.49
441.75	0.00
441.94	53.83
442.12	0.00
442.31	28.09
442.50	84.26
442.68	0.00
442.87	37.45
443.05	93.62
443.24	0.00
443.43	0.00
443.61	67.88
443.80	72.56
443.98	53.83
444.17	51.49
444.35	0.00
444.54	16.38
444.73	35.11
444.91	60.85
445.10	49.15
445.28	42.13
445.47	11.70
445.65	18.72
445.84	53.83
446.02	21.06
446.21	79.58
446.39	56.17
446.58	39.79
446.77	23.41
446.95	58.51
447.14	58.51
447.32	0.00
447.51	42.13
447.69	39.79
447.88	42.13
448.06	56.17
448.25	11.70
448.43	44.47
448.62	56.17
448.80	58.51
448.99	49.15
449.17	39.79
449.36	0.00
449.54	58.51
449.73	25.75
449.91	0.00
450.10	35.11
450.28	14.04
450.46	0.00
450.65	0.00
450.83	39.79
451.02	84.26
451.20	28.09
451.39	93.62
451.57	23.41
451.76	91.28
451.94	114.69
452.13	14.04
452.31	53.83
452.49	105.32
452.68	46.81
452.86	77.24
453.05	0.00
453.23	58.51
453.42	16.38
453.60	98.30
453.78	30.43
453.97	2.34
454.15	70.22
454.34	39.79
454.52	11.70
454.70	65.54
454.89	39.79
455.07	4.68
455.26	0.00
455.44	21.06
455.62	0.00
455.81	51.49
455.99	0.00
456.17	0.00
456.36	9.36
456.54	79.58
456.73	16.38
456.91	21.06
457.09	88.94
457.28	9.36
457.46	74.90
457.64	21.06
457.83	0.00
458.01	11.70
458.19	7.02
458.38	60.85
458.56	42.13
458.74	60.85
458.93	77.24
459.11	42.13
459.29	51.49
459.48	9.36
459.66	35.11
459.84	7.02
460.03	23.41
460.21	39.79
460.39	44.47
460.57	0.00
460.76	11.70
460.94	53.83
461.12	53.83
461.31	23.41
461.49	84.26
461.67	46.81
461.85	46.81
462.04	74.90
462.22	124.05
462.40	2.34
462.59	4.68
462.77	23.41
462.95	0.00
463.13	114.69
463.32	49.15
463.50	28.09
463.68	42.13
463.86	105.32
464.05	88.94
464.23	35.11
464.41	88.94
464.59	77.24
464.78	63.19
464.96	84.26
465.14	58.51
465.32	0.00
465.50	44.47
465.69	74.90
465.87	21.06
466.05	2.34
466.23	81.92
466.41	72.56
466.60	58.51
466.78	9.36
466.96	35.11
467.14	7.02
467.32	39.79
467.51	67.88
467.69	37.45
467.87	37.45
468.05	46.81
468.23	79.58
468.41	32.77
468.60	84.26
468.78	102.98
468.96	72.56
469.14	44.47
469.32	56.17
469.50	0.00
469.69	67.88
469.87	65.54
470.05	14.04
470.23	4.68
470.41	25.75
470.59	42.13
470.77	32.77
470.95	53.83
471.14	39.79
471.32	81.92
471.50	25.75
471.68	16.38
471.86	39.79
472.04	16.38
472.22	35.11
472.40	35.11
472.58	60.85
472.77	63.19
472.95	32.77
473.13	77.24
473.31	91.28
473.49	9.36
473.67	63.19
473.85	70.22
474.03	100.64
474.21	56.17
474.39	0.00
474.57	11.70
474.75	25.75
474.93	63.19
475.12	51.49
475.30	49.15
475.48	9.36
475.66	105.32
475.84	49.15
476.02	102.98
476.20	0.00
476.38	0.00
476.56	42.13
476.74	56.17
476.92	145.11
477.10	63.19
477.28	56.17
477.46	74.90
477.64	39.79
477.82	37.45
478.00	86.60
478.18	70.22
478.36	46.81
478.54	39.79
478.72	0.00
478.90	53.83
479.08	93.62
479.26	112.35
479.44	58.51
479.62	58.51
479.80	0.00
479.98	46.81
480.16	35.11
480.34	0.00
480.52	11.70
480.70	114.69
480.88	44.47
481.06	4.68
481.24	23.41
481.41	42.13
481.59	30.43
481.77	23.41
481.95	95.96
482.13	67.88
482.31	60.85
482.49	0.00
482.67	39.79
482.85	53.83
483.03	72.56
483.21	0.00
483.39	14.04
483.57	4.68
483.74	95.96
483.92	32.77
484.10	53.83
484.28	21.06
484.46	23.41
484.64	16.38
484.82	23.41
485.00	56.17
485.18	79.58
485.35	42.13
485.53	70.22
485.71	14.04
485.89	42.13
486.07	2.34
486.25	4.68
486.43	35.11
486.61	30.43
486.78	7.02
486.96	53.83
487.14	32.77
487.32	9.36
487.50	53.83
487.68	46.81
487.85	30.43
488.03	88.94
488.21	72.56
488.39	51.49
488.57	16.38
488.75	0.00
488.92	67.88
489.10	18.72
489.28	58.51
489.46	65.54
489.64	28.09
489.81	18.72
489.99	42.13
490.17	42.13
490.35	51.49
490.53	0.00
490.70	28.09
490.88	49.15
491.06	46.81
491.24	2.34
491.41	79.58
491.59	60.85
491.77	11.70
491.95	0.00
492.13	44.47
492.30	21.06
492.48	30.43
492.66	53.83
492.84	30.43
493.01	30.43
493.19	35.11
493.37	98.30
493.54	18.72
493.72	30.43
493.90	46.81
494.08	11.70
494.25	100.64
494.43	84.26
494.61	60.85
494.79	0.00
494.96	51.49
495.14	30.43
495.32	93.62
495.49	70.22
495.67	77.24
495.85	28.09
496.02	95.96
496.20	0.00
496.38	0.00
496.55	37.45
496.73	14.04
496.91	14.04
497.09	72.56
497.26	0.00
497.44	35.11
497.62	53.83
497.79	0.00
497.97	0.00
498.14	63.19
498.32	30.43
498.50	37.45
498.67	23.41
498.85	56.17
499.03	70.22
499.20	121.71
499.38	0.00
499.56	9.36
499.73	42.13
499.91	9.36
500.08	42.13
500.26	11.70
500.44	0.00
500.61	32.77
500.79	51.49
500.97	37.45
501.14	39.79
501.32	11.70
501.49	67.88
501.67	46.81
501.84	77.24
502.02	0.00
502.20	39.79
502.37	25.75
502.55	0.00
502.72	14.04
502.90	60.85
503.07	25.75
503.25	14.04
503.43	42.13
503.60	39.79
503.78	58.51
503.95	14.04
504.13	23.41
504.30	53.83
504.48	95.96
504.65	0.00
504.83	42.13
505.01	86.60
505.18	110.01
505.36	0.00
505.53	39.79
505.71	2.34
505.88	44.47
506.06	23.41
506.23	37.45
506.41	107.66
506.58	32.77
506.76	25.75
506.93	56.17
507.11	23.41
507.28	0.00
507.46	21.06
507.63	107.66
507.81	14.04
507.98	16.38
508.16	58.51
508.33	37.45
508.50	25.75
508.68	7.02
508.85	0.00
509.03	18.72
509.20	4.68
509.38	42.13
509.55	0.00
509.73	44.47
509.90	0.00
510.08	16.38
510.25	58.51
510.42	25.75
510.60	0.00
510.77	72.56
510.95	4.68
511.12	39.79
511.30	60.85
511.47	72.56
511.64	105.32
511.82	11.70
511.99	32.77
512.17	49.15
512.34	37.45
512.51	46.81
512.69	9.36
512.86	72.56
513.04	77.24
513.21	60.85
513.38	86.60
513.56	51.49
513.73	70.22
513.90	74.90
514.08	21.06
514.25	65.54
514.43	28.09
514.60	56.17
514.77	39.79
514.95	7.02
515.12	46.81
515.29	44.47
515.47	114.69
515.64	70.22
515.81	0.00
515.99	37.45
516.16	46.81
516.33	21.06
516.51	42.13
516.68	51.49
516.85	7.02
517.03	7.02
517.20	0.00
517.37	30.43
517.54	32.77
517.72	28.09
517.89	4.68
518.06	110.01
518.24	67.88
518.41	81.92
518.58	0.00
518.75	35.11
518.93	46.81
519.10	16.38
519.27	0.00
519.45	63.19
519.62	32.77
519.79	30.43
519.96	51.49
520.14	37.45
520.31	4.68
520.48	102.98
520.65	56.17
520.83	18.72
521.00	30.43
521.17	0.00
521.34	93.62
521.52	114.69
521.69	65.54
521.86	23.41
522.03	46.81
522.20	32.77
522.38	88.94
522.55	0.00
522.72	84.26
522.89	67.88
523.07	51.49
523.24	65.54
523.41	63.19
523.58	53.83
523.75	63.19
523.92	23.41
524.10	56.17
524.27	70.22
524.44	0.00
524.61	65.54
524.78	25.75
524.96	100.64
525.13	2.34
525.30	100.64
525.47	74.90
525.64	42.13
525.81	23.41
525.98	77.24
526.16	0.00
526.33	46.81
526.50	91.28
526.67	39.79
526.84	67.88
527.01	0.00
527.18	30.43
527.36	39.79
527.53	88.94
527.70	53.83
527.87	0.00
528.04	91.28
528.21	53.83
528.38	35.11
528.55	32.77
528.72	88.94
528.89	28.09
529.07	18.72
529.24	37.45
529.41	0.00
529.58	51.49
529.75	60.85
529.92	0.00
530.09	23.41
530.26	39.79
530.43	32.77
530.60	70.22
530.77	11.70
530.94	72.56
531.11	4.68
531.28	0.00
531.46	0.00
531.63	42.13
531.80	86.60
531.97	0.00
532.14	14.04
532.31	44.47
532.48	56.17
532.65	114.69
532.82	4.68
532.99	16.38
533.16	44.47
533.33	7.02
533.50	21.06
533.67	91.28
533.84	42.13
534.01	58.51
534.18	0.00
534.35	58.51
534.52	51.49
534.69	44.47
534.86	49.15
535.03	67.88
535.20	44.47
535.37	35.11
535.54	124.05
535.71	95.96
535.88	79.58
536.05	67.88
536.22	77.24
536.38	46.81
536.55	37.45
536.72	37.45
536.89	49.15
537.06	18.72
537.23	23.41
537.40	0.00
537.57	58.51
537.74	0.00
537.91	0.00
538.08	25.75
538.25	0.00
538.42	49.15
538.59	16.38
538.75	9.36
538.92	65.54
539.09	105.32
539.26	42.13
539.43	23.41
539.60	7.02
539.77	46.81
539.94	93.62
540.11	18.72
540.28	65.54
540.44	46.81
540.61	58.51
540.78	72.56
540.95	74.90
541.12	37.45
541.29	0.00
541.46	60.85
541.62	2.34
541.79	35.11
541.96	58.51
542.13	0.00
542.30	42.13
542.47	18.72
542.63	2.34
542.80	86.60
542.97	11.70
543.14	114.69
543.31	0.00
543.48	72.56
543.64	25.75
543.81	60.85
543.98	81.92
544.15	79.58
544.32	93.62
544.48	53.83
544.65	70.22
544.82	67.88
544.99	7.02
545.16	60.85
545.32	2.34
545.49	67.88
545.66	23.41
545.83	42.13
546.00	14.04
546.16	53.83
546.33	65.54
546.50	4.68
546.67	39.79
546.83	53.83
547.00	39.79
547.17	58.51
547.34	42.13
547.50	0.00
547.67	0.00
547.84	0.00
548.00	88.94
548.17	35.11
548.34	2.34
548.51	53.83
548.67	65.54
548.84	56.17
549.01	39.79
549.18	77.24
549.34	0.00
549.51	35.11
549.68	60.85
549.84	42.13
550.01	79.58
550.18	175.54
550.34	39.79
550.51	67.88
550.68	56.17
550.84	11.70
551.01	53.83
551.18	0.00
551.34	30.43
551.51	4.68
551.68	23.41
551.84	32.77
552.01	9.36
552.18	65.54
552.34	23.41
552.51	0.00
552.68	74.90
552.84	23.41
553.01	65.54
553.18	70.22
553.34	7.02
553.51	0.00
553.67	4.68
553.84	105.32
554.01	28.09
554.17	7.02
554.34	16.38
554.51	72.56
554.67	67.88
554.84	0.00
555.00	35.11
555.17	21.06
555.33	7.02
555.50	51.49
555.67	0.00
555.83	37.45
556.00	93.62
556.16	49.15
556.33	60.85
556.50	2.34
556.66	49.15
556.83	0.00
556.99	70.22
557.16	53.83
557.32	39.79
557.49	28.09
557.65	16.38
557.82	84.26
557.98	49.15
558.15	35.11
558.32	98.30
558.48	7.02
558.65	67.88
558.81	67.88
558.98	60.85
559.14	86.60
559.31	39.79
559.47	11.70
559.64	30.43
559.80	70.22
559.97	51.49
560.13	49.15
560.30	39.79
560.46	35.11
560.63	63.19
560.79	0.00
560.96	126.39
561.12	49.15
561.29	21.06
561.45	72.56
561.61	60.85
561.78	112.35
561.94	42.13
562.11	51.49
562.27	30.43
562.44	91.28
562.60	0.00
562.77	0.00
562.93	16.38
563.10	100.64
563.26	39.79
563.42	0.00
563.59	37.45
563.75	28.09
563.92	46.81
564.08	0.00
564.24	107.66
564.41	25.75
564.57	16.38
564.74	95.96
564.90	72.56
565.07	25.75
565.23	21.06
565.39	42.13
565.56	49.15
565.72	0.00
565.88	4.68
566.05	18.72
566.21	70.22
566.38	28.09
566.54	4.68
566.70	11.70
566.87	37.45
567.03	49.15
567.19	74.90
567.36	51.49
567.52	49.15
567.68	25.75
567.85	60.85
568.01	25.75
568.17	35.11
568.34	58.51
568.50	58.51
568.66	0.00
568.83	58.51
568.99	9.36
569.15	16.38
569.32	9.36
569.48	23.41
569.64	74.90
569.81	32.77
569.97	16.38
570.13	84.26
570.30	23.41
570.46	60.85
570.62	42.13
570.78	23.41
570.95	7.02
571.11	2.34
571.27	112.35
571.43	95.96
571.60	35.11
571.76	86.60
571.92	30.43
572.09	67.88
572.25	133.41
572.41	65.54
572.57	0.00
572.74	4.68
572.90	56.17
573.06	18.72
573.22	0.00
573.38	46.81
573.55	65.54
573.71	84.26
573.87	0.00
574.03	81.92
574.20	72.56
574.36	0.00
574.52	0.00
574.68	0.00
574.84	28.09
575.01	79.58
575.17	42.13
575.33	11.70
575.49	23.41
575.65	0.00
575.82	67.88
575.98	44.47
576.14	25.75
576.30	44.47
576.46	18.72
576.62	49.15
576.79	21.06
576.95	39.79
577.11	81.92
577.27	39.79
577.43	37.45
577.59	74.90
577.75	28.09
577.92	42.13
578.08	74.90
578.24	93.62
578.40	79.58
578.56	46.81
578.72	77.24
578.88	65.54
579.04	0.00
579.21	21.06
579.37	37.45
579.53	117.03
579.69	30.43
579.85	65.54
580.01	63.19
580.17	65.54
580.33	72.56
580.49	46.81
580.65	9.36
580.82	0.00
580.98	65.54
581.14	14.04
581.30	70.22
581.46	91.28
581.62	0.00
581.78	46.81
581.94	37.45
582.10	88.94
582.26	30.43
582.42	39.79
582.58	51.49
582.74	0.00
582.90	46.81
583.06	30.43
583.22	16.38
583.38	58.51
583.54	95.96
583.70	14.04
583.86	0.00
584.02	81.92
584.18	49.15
584.34	44.47
584.50	7.02
584.66	23.41
584.82	0.00
584.98	107.66
585.14	18.72
585.30	49.15
585.46	30.43
585.62	11.70
585.78	21.06
585.94	81.92
586.10	14.04
586.26	0.00
586.42	32.77
586.58	110.01
586.74	56.17
586.90	77.24
587.06	42.13
587.22	49.15
587.38	88.94
587.54	112.35
587.70	30.43
587.86	42.13
588.02	35.11
588.18	35.11
588.34	67.88
588.49	11.70
588.65	30.43
588.81	18.72
588.97	98.30
589.13	0.00
589.29	37.45
589.45	14.04
589.61	35.11
589.77	84.26
589.93	7.02
590.08	72.56
590.24	49.15
590.40	0.00
590.56	21.06
590.72	0.00
590.88	16.38
591.04	0.00
591.20	25.75
591.35	81.92
591.51	35.11
591.67	0.00
591.83	67.88
591.99	86.60
592.15	32.77
592.31	35.11
592.46	67.88
592.62	72.56
592.78	37.45
592.94	72.56
593.10	28.09
593.26	37.45
593.41	72.56
593.57	39.79
593.73	44.47
593.89	18.72
594.05	18.72
594.20	74.90
594.36	70.22
594.52	0.00
594.68	74.90
594.84	107.66
594.99	37.45
595.15	25.75
595.31	0.00
595.47	35.11
595.62	46.81
595.78	0.00
595.94	11.70
596.10	2.34
596.25	9.36
596.41	58.51
596.57	44.47
596.73	23.41
596.88	126.39
597.04	44.47
597.20	4.68
597.36	4.68
597.51	30.43
597.67	58.51
597.83	16.38
597.99	49.15
598.14	70.22
598.30	0.00
598.46	49.15
598.61	60.85
598.77	0.00
598.93	23.41
599.09	37.45
599.24	39.79
599.40	0.00
599.56	44.47
599.71	9.36
599.87	25.75
600.03	39.79
600.18	44.47
600.34	60.85
600.50	11.70
600.65	44.47
600.81	77.24
600.97	0.00
601.12	21.06
601.28	117.03
601.44	65.54
601.59	0.00
601.75	46.81
601.91	18.72
602.06	9.36
602.22	65.54
602.37	0.00
602.53	119.37
602.69	65.54
602.84	16.38
603.00	35.11
603.16	39.79
603.31	0.00
603.47	81.92
603.62	35.11
603.78	56.17
603.94	112.35
604.09	18.72
604.25	84.26
604.40	51.49
604.56	0.00
604.71	42.13
604.87	58.51
605.03	32.77
605.18	0.00
605.34	49.15
605.49	2.34
605.65	91.28
605.80	63.19
605.96	60.85
606.12	0.00
606.27	39.79
606.43	23.41
606.58	0.00
606.74	2.34
606.89	42.13
607.05	0.00
607.20	88.94
607.36	0.00
607.51	21.06
607.67	0.00
607.82	18.72
607.98	72.56
608.13	37.45
608.29	44.47
608.44	65.54
608.60	0.00
608.75	84.26
608.91	42.13
609.06	0.00
609.22	44.47
609.37	44.47
609.53	49.15
609.68	114.69
609.84	18.72
609.99	100.64
610.15	16.38
610.30	35.11
610.46	21.06
610.61	2.34
610.76	28.09
610.92	0.00
611.07	0.00
611.23	30.43
611.38	81.92
611.54	16.38
611.69	60.85
611.84	14.04
612.00	49.15
612.15	23.41
612.31	49.15
612.46	0.00
612.62	4.68
612.77	28.09
612.92	56.17
613.08	14.04
613.23	105.32
613.39	4.68
613.54	42.13
613.69	23.41
613.85	42.13
614.00	30.43
614.15	0.00
614.31	58.51
614.46	37.45
614.62	86.60
614.77	14.04
614.92	23.41
615.08	32.77
615.23	7.02
615.38	39.79
615.54	23.41
615.69	77.24
615.84	21.06
616.00	119.37
616.15	77.24
616.30	25.75
616.46	28.09
616.61	39.79
616.76	23.41
616.92	11.70
617.07	46.81
617.22	51.49
617.37	74.90
617.53	44.47
617.68	44.47
617.83	49.15
617.99	0.00
618.14	0.00
618.29	72.56
618.45	0.00
618.60	58.51
618.75	65.54
618.90	37.45
619.06	32.77
619.21	60.85
619.36	42.13
619.51	70.22
619.67	0.00
619.82	9.36
619.97	51.49
620.12	7.02
620.28	11.70
620.43	65.54
620.58	53.83
620.73	30.43
620.89	110.01
621.04	4.68
621.19	56.17
621.34	25.75
621.49	28.09
621.65	9.36
621.80	0.00
621.95	4.68
622.10	49.15
622.25	63.19
622.41	7.02
622.56	0.00
622.71	77.24
622.86	49.15
623.01	0.00
623.16	65.54
623.32	0.00
623.47	11.70
623.62	0.00
623.77	74.90
623.92	91.28
624.07	0.00
624.23	30.43
624.38	56.17
624.53	30.43
624.68	112.35
624.83	65.54
624.98	0.00
625.13	0.00
625.29	28.09
625.44	81.92
625.59	0.00
625.74	67.88
625.89	79.58
626.04	63.19
626.19	79.58
626.34	44.47
626.49	23.41
626.65	21.06
626.80	46.81
626.95	21.06
627.10	0.00
627.25	46.81
627.40	0.00
627.55	32.77
627.70	0.00
627.85	23.41
628.00	53.83
628.15	0.00
628.30	49.15
628.45	42.13
628.60	56.17
628.76	63.19
628.91	42.13
629.06	79.58
629.21	70.22
629.36	32.77
629.51	30.43
629.66	79.58
629.81	16.38
629.96	84.26
630.11	46.81
630.26	21.06
630.41	53.83
630.56	51.49
630.71	0.00
630.86	11.70
631.01	35.11
631.16	39.79
631.31	46.81
631.46	42.13
631.61	0.00
631.76	14.04
631.91	95.96
632.06	63.19
632.21	56.17
632.36	0.00
632.51	65.54
632.66	0.00
632.81	44.47
632.96	30.43
633.10	0.00
633.25	56.17
633.40	58.51
633.55	0.00
633.70	49.15
633.85	30.43
634.00	25.75
634.15	86.60
634.30	0.00
634.45	37.45
634.60	9.36
634.75	0.00
634.90	0.00
635.05	25.75
635.19	51.49
635.34	84.26
635.49	65.54
635.64	7.02
635.79	49.15
635.94	65.54
636.09	21.06
636.24	51.49
636.39	23.41
636.53	65.54
636.68	72.56
636.83	35.11
636.98	67.88
637.13	23.41
637.28	16.38
637.43	18.72
637.57	14.04
637.72	0.00
637.87	70.22
638.02	49.15
638.17	0.00
638.32	35.11
638.46	51.49
638.61	21.06
638.76	46.81
638.91	91.28
639.06	65.54
639.20	81.92
639.35	0.00
639.50	74.90
639.65	35.11
639.80	4.68
639.94	56.17
640.09	79.58
640.24	16.38
640.39	37.45
640.54	0.00
640.68	9.36
640.83	53.83
640.98	32.77
641.13	0.00
641.27	28.09
641.42	23.41
641.57	63.19
641.72	63.19
641.86	14.04
642.01	0.00
642.16	86.60
642.31	7.02
642.45	0.00
642.60	49.15
642.75	51.49
642.90	128.73
643.04	11.70
643.19	49.15
643.34	95.96
643.48	56.17
643.63	30.43
643.78	32.77
643.93	0.00
644.07	0.00
644.22	4.68
644.37	28.09
644.51	60.85
644.66	53.83
644.81	84.26
644.95	0.00
645.10	0.00
645.25	53.83
645.39	0.00
645.54	114.69
645.69	0.00
645.83	56.17
645.98	70.22
646.13	60.85
646.27	42.13
646.42	56.17
646.57	79.58
646.71	0.00
646.86	0.00
647.00	0.00
647.15	0.00
647.30	58.51
647.44	42.13
647.59	28.09
647.74	65.54
647.88	42.13
648.03	0.00
648.17	58.51
648.32	0.00
648.47	0.00
648.61	0.00
648.76	86.60
648.90	74.90
649.05	51.49
649.20	23.41
649.34	9.36
649.49	42.13
649.63	79.58
649.78	51.49
649.92	0.00
650.07	49.15
650.21	49.15
650.36	0.00
650.51	4.68
650.65	112.35
650.80	0.00
650.94	25.75
651.09	25.75
651.23	39.79
651.38	9.36
651.52	0.00
651.67	0.00
651.81	30.43
651.96	0.00
652.10	21.06
652.25	11.70
652.39	7.02
652.54	58.51
652.68	67.88
652.83	0.00
652.97	67.88
653.12	46.81
653.26	21.06
653.41	14.04
653.55	4.68
653.70	30.43
653.84	42.13
653.99	86.60
654.13	84.26
654.27	11.70
654.42	84.26
654.56	14.04
654.71	35.11
654.85	0.00
655.00	4.68
655.14	98.30
655.29	42.13
655.43	49.15
655.57	0.00
655.72	35.11
655.86	2.34
656.01	4.68
656.15	44.47
656.30	0.00
656.44	30.43
656.58	18.72
656.73	0.00
656.87	28.09
657.01	30.43
657.16	74.90
657.30	154.48
657.45	42.13
657.59	28.09
657.73	16.38
657.88	0.00
658.02	67.88
658.16	0.00
658.31	4.68
658.45	63.19
658.60	0.00
658.74	9.36
658.88	2.34
659.03	39.79
659.17	16.38
659.31	105.32
659.46	79.58
659.60	46.81
659.74	44.47
659.89	67.88
660.03	21.06
660.17	0.00
660.32	53.83
660.46	23.41
660.60	25.75
660.74	86.60
660.89	25.75
661.03	46.81
661.17	0.00
661.32	0.00
661.46	35.11
661.60	23.41
661.74	51.49
661.89	21.06
662.03	35.11
662.17	67.88
662.31	42.13
662.46	14.04
662.60	18.72
662.74	46.81
662.88	14.04
663.03	18.72
663.17	88.94
663.31	51.49
663.45	14.04
663.60	0.00
663.74	16.38
663.88	25.75
664.02	56.17
664.17	32.77
664.31	0.00
664.45	56.17
664.59	0.00
664.73	0.00
664.88	23.41
665.02	44.47
665.16	23.41
665.30	18.72
665.44	14.04
665.59	35.11
665.73	49.15
665.87	9.36
666.01	16.38
666.15	70.22
666.29	7.02
666.44	23.41
666.58	98.30
666.72	67.88
666.86	37.45
667.00	51.49
667.14	72.56
667.28	0.00
667.43	49.15
667.57	67.88
667.71	95.96
667.85	21.06
667.99	65.54
668.13	32.77
668.27	49.15
668.41	35.11
668.56	53.83
668.70	0.00
668.84	74.90
668.98	53.83
669.12	0.00
669.26	2.34
669.40	70.22
669.54	63.19
669.68	0.00
669.82	14.04
669.96	56.17
670.10	0.00
670.25	0.00
670.39	14.04
670.53	0.00
670.67	74.90
670.81	28.09
670.95	79.58
671.09	42.13
671.23	112.35
671.37	0.00
671.51	25.75
671.65	23.41
671.79	0.00
671.93	58.51
672.07	56.17
672.21	25.75
672.35	0.00
672.49	84.26
672.63	11.70
672.77	11.70
672.91	0.00
673.05	4.68
673.19	32.77
673.33	30.43
673.47	21.06
673.61	0.00
673.75	0.00
673.89	0.00
674.03	7.02
674.17	28.09
674.31	70.22
674.45	67.88
674.59	11.70
674.73	14.04
674.87	37.45
675.01	63.19
675.15	58.51
675.29	28.09
675.43	46.81
675.56	84.26
675.70	70.22
675.84	39.79
675.98	156.82
676.12	72.56
676.26	51.49
676.40	79.58
676.54	32.77
676.68	0.00
676.82	0.00
676.96	21.06
677.10	65.54
677.23	4.68
677.37	44.47
677.51	32.77
677.65	4.68
677.79	21.06
677.93	0.00
678.07	0.00
678.21	9.36
678.34	72.56
678.48	60.85
678.62	46.81
678.76	30.43
678.90	0.00
679.04	49.15
679.18	37.45
679.31	4.68
679.45	0.00
679.59	0.00
679.73	37.45
679.87	0.00
680.00	77.24
680.14	7.02
680.28	51.49
680.42	39.79
680.56	49.15
680.70	49.15
680.83	79.58
680.97	49.15
681.11	25.75
681.25	23.41
681.39	0.00
681.52	18.72
681.66	88.94
681.80	42.13
681.94	84.26
682.07	21.06
682.21	0.00
682.35	0.00
682.49	81.92
682.62	44.47
682.76	58.51
682.90	35.11
683.04	53.83
683.17	11.70
683.31	0.00
683.45	84.26
683.59	105.32
683.72	28.09
683.86	42.13
684.00	18.72
684.13	72.56
684.27	9.36
684.41	18.72
684.55	74.90
684.68	0.00
684.82	53.83
684.96	60.85
685.09	21.06
685.23	0.00
685.37	58.51
685.50	0.00
685.64	16.38
685.78	25.75
685.91	23.41
686.05	93.62
686.19	51.49
686.32	25.75
686.46	25.75
686.60	114.69
686.73	42.13
686.87	18.72
687.01	18.72
687.14	46.81
687.28	51.49
687.42	23.41
687.55	37.45
687.69	56.17
687.82	7.02
687.96	93.62
688.10	53.83
688.23	4.68
688.37	0.00
688.50	9.36
688.64	42.13
688.78	74.90
688.91	28.09
689.05	0.00
689.18	0.00
689.32	23.41
689.46	51.49
689.59	112.35
689.73	51.49
689.86	51.49
690.00	2.34
690.13	28.09
690.27	49.15
690.41	49.15
690.54	23.41
690.68	100.64
690.81	81.92
690.95	0.00
691.08	28.09
691.22	18.72
691.35	25.75
691.49	0.00
691.62	65.54
691.76	63.19
691.89	35.11
692.03	0.00
692.16	65.54
692.30	67.88
692.43	0.00
692.57	14.04
692.70	25.75
692.84	0.00
692.97	0.00
693.11	11.70
693.24	0.00
693.38	77.24
693.51	44.47
693.65	0.00
693.78	11.70
693.92	0.00
694.05	98.30
694.19	37.45
694.32	91.28
694.45	88.94
694.59	81.92
694.72	58.51
694.86	77.24
694.99	28.09
695.13	18.72
695.26	56.17
695.39	58.51
695.53	72.56
695.66	51.49
695.80	0.00
695.93	72.56
696.07	0.00
696.20	95.96
696.33	4.68
696.47	84.26
696.60	93.62
696.73	0.00
696.87	35.11
697.00	70.22
697.14	0.00
697.27	63.19
697.40	74.90
697.54	0.00
697.67	39.79
697.80	49.15
697.94	0.00
698.07	46.81
698.21	79.58
698.34	11.70
698.47	93.62
698.61	65.54
698.74	0.00
698.87	0.00
699.01	4.68
699.14	4.68
699.27	72.56
699.40	53.83
699.54	11.70
699.67	2.34
699.80	65.54
699.94	0.00
700.07	81.92
700.20	18.72
700.34	65.54
700.47	91.28
700.60	2.34
700.73	35.11
700.87	102.98
701.00	2.34
701.13	25.75
701.26	112.35
701.40	18.72
701.53	37.45
701.66	32.77
701.79	4.68
701.93	0.00
702.06	70.22
702.19	67.88
702.32	70.22
702.46	23.41
702.59	23.41
702.72	110.01
702.85	67.88
702.99	30.43
703.12	2.34
703.25	14.04
703.38	0.00
703.51	0.00
703.65	0.00
703.78	0.00
703.91	86.60
704.04	0.00
704.17	0.00
704.31	4.68
704.44	23.41
704.57	0.00
704.70	14.04
704.83	30.43
704.96	0.00
705.10	46.81
705.23	44.47
>>>>>End Processed Spectral Data<<<<<
