SpectraSuite Data File
++++++++++++++++++++++++++++++++++++
Date: Fri Oct 04 12:13:45 GMT-05:00 2013
User: price-jones
Dark Spectrum Present: No
Reference Spectrum Present: No
Number of Sampled Component Spectra: 1
Spectrometers: USB2+H05261
Integration Time (usec): 10000 (USB2+H05261)
Spectra Averaged: 1 (USB2+H05261)
Boxcar Smoothing: 0 (USB2+H05261)
Correct for Electrical Dark: No (USB2+H05261)
Strobe/Lamp Enabled: No (USB2+H05261)
Correct for Detector Non-linearity: No (USB2+H05261)
Correct for Stray Light: No (USB2+H05261)
Number of Pixels in Processed Spectrum: 2048
>>>>>Begin Processed Spectral Data<<<<<
365.73	0.00
365.92	0.00
366.12	0.00
366.32	0.00
366.52	0.00
366.72	0.00
366.91	0.00
367.11	0.00
367.31	0.00
367.51	0.00
367.70	0.00
367.90	0.00
368.10	0.00
368.30	0.00
368.49	0.00
368.69	0.00
368.89	0.00
369.09	0.00
369.28	0.00
369.48	0.00
369.68	0.00
369.87	0.00
370.07	0.00
370.27	0.00
370.47	0.00
370.66	18.72
370.86	0.00
371.06	0.00
371.25	0.00
371.45	0.00
371.65	16.38
371.84	0.00
372.04	0.00
372.24	0.00
372.44	0.00
372.63	63.19
372.83	0.00
373.03	11.70
373.22	0.00
373.42	28.09
373.62	35.11
373.81	7.02
374.01	35.11
374.21	23.41
374.40	0.00
374.60	72.56
374.79	42.13
374.99	23.41
375.19	46.81
375.38	112.35
375.58	7.02
375.78	110.01
375.97	11.70
376.17	93.62
376.37	65.54
376.56	0.00
376.76	65.54
376.95	72.56
377.15	0.00
377.35	0.00
377.54	18.72
377.74	46.81
377.93	49.15
378.13	79.58
378.33	81.92
378.52	18.72
378.72	32.77
378.91	32.77
379.11	46.81
379.31	53.83
379.50	0.00
379.70	35.11
379.89	58.51
380.09	16.38
380.28	0.00
380.48	28.09
380.68	65.54
380.87	0.00
381.07	44.47
381.26	2.34
381.46	51.49
381.65	44.47
381.85	0.00
382.04	0.00
382.24	9.36
382.43	32.77
382.63	0.00
382.83	0.00
383.02	14.04
383.22	39.79
383.41	60.85
383.61	21.06
383.80	0.00
384.00	32.77
384.19	7.02
384.39	23.41
384.58	98.30
384.78	7.02
384.97	28.09
385.17	72.56
385.36	11.70
385.56	23.41
385.75	39.79
385.95	0.00
386.14	0.00
386.34	0.00
386.53	39.79
386.72	63.19
386.92	32.77
387.11	0.00
387.31	79.58
387.50	18.72
387.70	28.09
387.89	0.00
388.09	0.00
388.28	25.75
388.48	0.00
388.67	0.00
388.86	30.43
389.06	0.00
389.25	0.00
389.45	32.77
389.64	39.79
389.84	0.00
390.03	0.00
390.22	102.98
390.42	16.38
390.61	0.00
390.81	0.00
391.00	37.45
391.19	18.72
391.39	30.43
391.58	2.34
391.78	65.54
391.97	42.13
392.16	2.34
392.36	0.00
392.55	4.68
392.75	23.41
392.94	84.26
393.13	44.47
393.33	4.68
393.52	84.26
393.71	9.36
393.91	0.00
394.10	32.77
394.29	25.75
394.49	35.11
394.68	60.85
394.88	0.00
395.07	0.00
395.26	0.00
395.46	9.36
395.65	21.06
395.84	35.11
396.04	100.64
396.23	56.17
396.42	44.47
396.62	0.00
396.81	0.00
397.00	88.94
397.19	30.43
397.39	70.22
397.58	16.38
397.77	0.00
397.97	0.00
398.16	32.77
398.35	0.00
398.55	23.41
398.74	21.06
398.93	16.38
399.12	0.00
399.32	0.00
399.51	0.00
399.70	67.88
399.90	72.56
400.09	0.00
400.28	9.36
400.47	0.00
400.67	14.04
400.86	35.11
401.05	58.51
401.24	56.17
401.44	42.13
401.63	74.90
401.82	9.36
402.01	46.81
402.21	37.45
402.40	25.75
402.59	0.00
402.78	70.22
402.97	21.06
403.17	23.41
403.36	0.00
403.55	0.00
403.74	0.00
403.93	44.47
404.13	0.00
404.32	23.41
404.51	53.83
404.70	0.00
404.89	0.00
405.09	37.45
405.28	0.00
405.47	23.41
405.66	35.11
405.85	0.00
406.05	0.00
406.24	18.72
406.43	23.41
406.62	39.79
406.81	70.22
407.00	25.75
407.20	18.72
407.39	25.75
407.58	9.36
407.77	44.47
407.96	58.51
408.15	51.49
408.34	4.68
408.54	0.00
408.73	18.72
408.92	46.81
409.11	0.00
409.30	11.70
409.49	51.49
409.68	58.51
409.87	0.00
410.07	79.58
410.26	100.64
410.45	16.38
410.64	0.00
410.83	32.77
411.02	0.00
411.21	9.36
411.40	56.17
411.59	51.49
411.78	84.26
411.98	25.75
412.17	0.00
412.36	58.51
412.55	81.92
412.74	16.38
412.93	28.09
413.12	53.83
413.31	53.83
413.50	23.41
413.69	49.15
413.88	44.47
414.07	23.41
414.26	0.00
414.45	7.02
414.64	74.90
414.83	42.13
415.02	105.32
415.22	63.19
415.41	14.04
415.60	46.81
415.79	0.00
415.98	9.36
416.17	32.77
416.36	0.00
416.55	32.77
416.74	25.75
416.93	28.09
417.12	0.00
417.31	74.90
417.50	18.72
417.69	84.26
417.88	39.79
418.07	0.00
418.26	44.47
418.45	0.00
418.64	0.00
418.83	0.00
419.02	56.17
419.21	9.36
419.39	28.09
419.58	14.04
419.77	81.92
419.96	16.38
420.15	56.17
420.34	30.43
420.53	58.51
420.72	32.77
420.91	46.81
421.10	79.58
421.29	32.77
421.48	0.00
421.67	37.45
421.86	67.88
422.05	0.00
422.24	46.81
422.43	4.68
422.61	4.68
422.80	100.64
422.99	58.51
423.18	0.00
423.37	72.56
423.56	44.47
423.75	86.60
423.94	67.88
424.13	65.54
424.32	112.35
424.50	25.75
424.69	0.00
424.88	25.75
425.07	2.34
425.26	163.84
425.45	65.54
425.64	37.45
425.83	32.77
426.01	77.24
426.20	58.51
426.39	0.00
426.58	46.81
426.77	37.45
426.96	53.83
427.15	0.00
427.33	32.77
427.52	46.81
427.71	0.00
427.90	67.88
428.09	0.00
428.28	58.51
428.46	44.47
428.65	91.28
428.84	0.00
429.03	21.06
429.22	60.85
429.40	39.79
429.59	46.81
429.78	93.62
429.97	77.24
430.16	79.58
430.34	0.00
430.53	9.36
430.72	35.11
430.91	28.09
431.10	28.09
431.28	0.00
431.47	30.43
431.66	93.62
431.85	65.54
432.03	0.00
432.22	74.90
432.41	9.36
432.60	53.83
432.79	0.00
432.97	53.83
433.16	138.09
433.35	21.06
433.54	42.13
433.72	2.34
433.91	72.56
434.10	35.11
434.28	65.54
434.47	56.17
434.66	42.13
434.85	44.47
435.03	16.38
435.22	32.77
435.41	28.09
435.59	81.92
435.78	25.75
435.97	0.00
436.16	7.02
436.34	2.34
436.53	35.11
436.72	56.17
436.90	4.68
437.09	30.43
437.28	35.11
437.46	46.81
437.65	81.92
437.84	9.36
438.02	91.28
438.21	14.04
438.40	51.49
438.58	60.85
438.77	70.22
438.96	0.00
439.14	46.81
439.33	21.06
439.52	9.36
439.70	51.49
439.89	35.11
440.08	32.77
440.26	56.17
440.45	0.00
440.63	28.09
440.82	63.19
441.01	4.68
441.19	11.70
441.38	72.56
441.57	7.02
441.75	16.38
441.94	11.70
442.12	0.00
442.31	21.06
442.50	63.19
442.68	65.54
442.87	42.13
443.05	72.56
443.24	28.09
443.43	0.00
443.61	58.51
443.80	72.56
443.98	72.56
444.17	95.96
444.35	37.45
444.54	0.00
444.73	67.88
444.91	93.62
445.10	0.00
445.28	70.22
445.47	30.43
445.65	49.15
445.84	25.75
446.02	14.04
446.21	23.41
446.39	30.43
446.58	49.15
446.77	9.36
446.95	35.11
447.14	14.04
447.32	102.98
447.51	65.54
447.69	58.51
447.88	72.56
448.06	49.15
448.25	37.45
448.43	21.06
448.62	0.00
448.80	46.81
448.99	0.00
449.17	0.00
449.36	0.00
449.54	42.13
449.73	0.00
449.91	28.09
450.10	93.62
450.28	28.09
450.46	60.85
450.65	0.00
450.83	30.43
451.02	11.70
451.20	21.06
451.39	70.22
451.57	58.51
451.76	56.17
451.94	56.17
452.13	56.17
452.31	53.83
452.49	79.58
452.68	0.00
452.86	21.06
453.05	44.47
453.23	35.11
453.42	9.36
453.60	49.15
453.78	70.22
453.97	51.49
454.15	7.02
454.34	93.62
454.52	0.00
454.70	0.00
454.89	60.85
455.07	74.90
455.26	102.98
455.44	74.90
455.62	7.02
455.81	0.00
455.99	112.35
456.17	28.09
456.36	98.30
456.54	11.70
456.73	79.58
456.91	44.47
457.09	30.43
457.28	105.32
457.46	14.04
457.64	30.43
457.83	67.88
458.01	117.03
458.19	53.83
458.38	0.00
458.56	0.00
458.74	44.47
458.93	93.62
459.11	30.43
459.29	4.68
459.48	42.13
459.66	53.83
459.84	74.90
460.03	102.98
460.21	39.79
460.39	21.06
460.57	21.06
460.76	42.13
460.94	0.00
461.12	18.72
461.31	7.02
461.49	7.02
461.67	46.81
461.85	51.49
462.04	14.04
462.22	105.32
462.40	35.11
462.59	56.17
462.77	18.72
462.95	0.00
463.13	28.09
463.32	112.35
463.50	37.45
463.68	39.79
463.86	107.66
464.05	28.09
464.23	25.75
464.41	51.49
464.59	25.75
464.78	30.43
464.96	91.28
465.14	51.49
465.32	133.41
465.50	42.13
465.69	67.88
465.87	0.00
466.05	28.09
466.23	58.51
466.41	107.66
466.60	18.72
466.78	37.45
466.96	53.83
467.14	42.13
467.32	0.00
467.51	105.32
467.69	126.39
467.87	18.72
468.05	37.45
468.23	81.92
468.41	56.17
468.60	44.47
468.78	65.54
468.96	9.36
469.14	53.83
469.32	102.98
469.50	9.36
469.69	0.00
469.87	16.38
470.05	0.00
470.23	72.56
470.41	110.01
470.59	18.72
470.77	86.60
470.95	79.58
471.14	30.43
471.32	28.09
471.50	4.68
471.68	44.47
471.86	91.28
472.04	23.41
472.22	0.00
472.40	0.00
472.58	98.30
472.77	117.03
472.95	0.00
473.13	44.47
473.31	0.00
473.49	42.13
473.67	0.00
473.85	84.26
474.03	65.54
474.21	63.19
474.39	67.88
474.57	49.15
474.75	67.88
474.93	88.94
475.12	0.00
475.30	81.92
475.48	77.24
475.66	30.43
475.84	28.09
476.02	53.83
476.20	42.13
476.38	56.17
476.56	39.79
476.74	21.06
476.92	53.83
477.10	42.13
477.28	58.51
477.46	74.90
477.64	4.68
477.82	0.00
478.00	35.11
478.18	35.11
478.36	14.04
478.54	0.00
478.72	25.75
478.90	32.77
479.08	63.19
479.26	35.11
479.44	0.00
479.62	0.00
479.80	37.45
479.98	65.54
480.16	51.49
480.34	0.00
480.52	21.06
480.70	74.90
480.88	60.85
481.06	0.00
481.24	0.00
481.41	79.58
481.59	105.32
481.77	0.00
481.95	18.72
482.13	25.75
482.31	42.13
482.49	30.43
482.67	88.94
482.85	16.38
483.03	11.70
483.21	56.17
483.39	93.62
483.57	32.77
483.74	28.09
483.92	11.70
484.10	14.04
484.28	58.51
484.46	49.15
484.64	60.85
484.82	0.00
485.00	32.77
485.18	32.77
485.35	35.11
485.53	46.81
485.71	0.00
485.89	58.51
486.07	39.79
486.25	81.92
486.43	25.75
486.61	100.64
486.78	110.01
486.96	7.02
487.14	56.17
487.32	42.13
487.50	37.45
487.68	35.11
487.85	117.03
488.03	42.13
488.21	32.77
488.39	32.77
488.57	77.24
488.75	93.62
488.92	77.24
489.10	0.00
489.28	105.32
489.46	70.22
489.64	9.36
489.81	42.13
489.99	0.00
490.17	72.56
490.35	46.81
490.53	42.13
490.70	70.22
490.88	84.26
491.06	18.72
491.24	0.00
491.41	60.85
491.59	53.83
491.77	32.77
491.95	35.11
492.13	42.13
492.30	35.11
492.48	84.26
492.66	0.00
492.84	7.02
493.01	25.75
493.19	44.47
493.37	65.54
493.54	86.60
493.72	0.00
493.90	16.38
494.08	23.41
494.25	81.92
494.43	37.45
494.61	58.51
494.79	46.81
494.96	30.43
495.14	39.79
495.32	72.56
495.49	23.41
495.67	32.77
495.85	28.09
496.02	2.34
496.20	35.11
496.38	39.79
496.55	46.81
496.73	98.30
496.91	77.24
497.09	117.03
497.26	0.00
497.44	65.54
497.62	16.38
497.79	32.77
497.97	37.45
498.14	49.15
498.32	35.11
498.50	105.32
498.67	28.09
498.85	65.54
499.03	84.26
499.20	32.77
499.38	0.00
499.56	9.36
499.73	30.43
499.91	112.35
500.08	28.09
500.26	4.68
500.44	11.70
500.61	42.13
500.79	49.15
500.97	72.56
501.14	0.00
501.32	70.22
501.49	21.06
501.67	32.77
501.84	84.26
502.02	32.77
502.20	30.43
502.37	7.02
502.55	84.26
502.72	0.00
502.90	7.02
503.07	63.19
503.25	37.45
503.43	95.96
503.60	21.06
503.78	81.92
503.95	0.00
504.13	49.15
504.30	25.75
504.48	25.75
504.65	23.41
504.83	46.81
505.01	72.56
505.18	60.85
505.36	86.60
505.53	65.54
505.71	67.88
505.88	46.81
506.06	7.02
506.23	56.17
506.41	107.66
506.58	18.72
506.76	28.09
506.93	58.51
507.11	74.90
507.28	32.77
507.46	95.96
507.63	14.04
507.81	21.06
507.98	16.38
508.16	49.15
508.33	88.94
508.50	49.15
508.68	30.43
508.85	81.92
509.03	79.58
509.20	70.22
509.38	53.83
509.55	53.83
509.73	67.88
509.90	86.60
510.08	9.36
510.25	28.09
510.42	0.00
510.60	30.43
510.77	23.41
510.95	63.19
511.12	7.02
511.30	39.79
511.47	65.54
511.64	0.00
511.82	35.11
511.99	37.45
512.17	74.90
512.34	28.09
512.51	81.92
512.69	21.06
512.86	51.49
513.04	21.06
513.21	28.09
513.38	65.54
513.56	0.00
513.73	56.17
513.90	49.15
514.08	74.90
514.25	35.11
514.43	44.47
514.60	25.75
514.77	121.71
514.95	37.45
515.12	18.72
515.29	58.51
515.47	46.81
515.64	63.19
515.81	63.19
515.99	49.15
516.16	74.90
516.33	28.09
516.51	56.17
516.68	72.56
516.85	0.00
517.03	79.58
517.20	51.49
517.37	46.81
517.54	67.88
517.72	11.70
517.89	0.00
518.06	86.60
518.24	39.79
518.41	60.85
518.58	23.41
518.75	30.43
518.93	58.51
519.10	30.43
519.27	4.68
519.45	53.83
519.62	0.00
519.79	2.34
519.96	63.19
520.14	67.88
520.31	56.17
520.48	35.11
520.65	11.70
520.83	51.49
521.00	0.00
521.17	35.11
521.34	32.77
521.52	23.41
521.69	67.88
521.86	21.06
522.03	77.24
522.20	77.24
522.38	49.15
522.55	74.90
522.72	0.00
522.89	88.94
523.07	56.17
523.24	95.96
523.41	44.47
523.58	11.70
523.75	42.13
523.92	18.72
524.10	110.01
524.27	58.51
524.44	35.11
524.61	74.90
524.78	46.81
524.96	2.34
525.13	23.41
525.30	44.47
525.47	51.49
525.64	65.54
525.81	37.45
525.98	37.45
526.16	32.77
526.33	112.35
526.50	114.69
526.67	84.26
526.84	0.00
527.01	44.47
527.18	0.00
527.36	2.34
527.53	51.49
527.70	114.69
527.87	18.72
528.04	0.00
528.21	23.41
528.38	4.68
528.55	51.49
528.72	0.00
528.89	21.06
529.07	53.83
529.24	23.41
529.41	63.19
529.58	63.19
529.75	77.24
529.92	32.77
530.09	39.79
530.26	25.75
530.43	56.17
530.60	74.90
530.77	86.60
530.94	124.05
531.11	0.00
531.28	9.36
531.46	98.30
531.63	39.79
531.80	11.70
531.97	14.04
532.14	58.51
532.31	114.69
532.48	56.17
532.65	23.41
532.82	46.81
532.99	42.13
533.16	42.13
533.33	0.00
533.50	9.36
533.67	4.68
533.84	77.24
534.01	51.49
534.18	74.90
534.35	42.13
534.52	60.85
534.69	0.00
534.86	60.85
535.03	72.56
535.20	42.13
535.37	39.79
535.54	145.11
535.71	42.13
535.88	11.70
536.05	32.77
536.22	39.79
536.38	84.26
536.55	77.24
536.72	65.54
536.89	14.04
537.06	35.11
537.23	37.45
537.40	51.49
537.57	32.77
537.74	53.83
537.91	46.81
538.08	7.02
538.25	46.81
538.42	77.24
538.59	0.00
538.75	11.70
538.92	23.41
539.09	7.02
539.26	84.26
539.43	56.17
539.60	70.22
539.77	44.47
539.94	23.41
540.11	0.00
540.28	0.00
540.44	65.54
540.61	0.00
540.78	77.24
540.95	25.75
541.12	30.43
541.29	44.47
541.46	60.85
541.62	35.11
541.79	9.36
541.96	14.04
542.13	28.09
542.30	37.45
542.47	37.45
542.63	70.22
542.80	30.43
542.97	58.51
543.14	37.45
543.31	63.19
543.48	60.85
543.64	60.85
543.81	70.22
543.98	88.94
544.15	63.19
544.32	63.19
544.48	63.19
544.65	18.72
544.82	0.00
544.99	56.17
545.16	84.26
545.32	56.17
545.49	49.15
545.66	77.24
545.83	58.51
546.00	107.66
546.16	14.04
546.33	49.15
546.50	105.32
546.67	37.45
546.83	0.00
547.00	23.41
547.17	46.81
547.34	28.09
547.50	117.03
547.67	2.34
547.84	23.41
548.00	25.75
548.17	37.45
548.34	46.81
548.51	21.06
548.67	28.09
548.84	74.90
549.01	0.00
549.18	11.70
549.34	79.58
549.51	107.66
549.68	79.58
549.84	25.75
550.01	0.00
550.18	60.85
550.34	79.58
550.51	100.64
550.68	65.54
550.84	0.00
551.01	0.00
551.18	44.47
551.34	18.72
551.51	25.75
551.68	100.64
551.84	100.64
552.01	28.09
552.18	65.54
552.34	117.03
552.51	60.85
552.68	49.15
552.84	28.09
553.01	0.00
553.18	60.85
553.34	49.15
553.51	58.51
553.67	23.41
553.84	30.43
554.01	67.88
554.17	16.38
554.34	0.00
554.51	81.92
554.67	114.69
554.84	35.11
555.00	53.83
555.17	0.00
555.33	53.83
555.50	74.90
555.67	39.79
555.83	65.54
556.00	0.00
556.16	126.39
556.33	51.49
556.50	119.37
556.66	93.62
556.83	21.06
556.99	11.70
557.16	0.00
557.32	42.13
557.49	79.58
557.65	7.02
557.82	77.24
557.98	86.60
558.15	70.22
558.32	81.92
558.48	35.11
558.65	84.26
558.81	65.54
558.98	58.51
559.14	63.19
559.31	42.13
559.47	51.49
559.64	28.09
559.80	9.36
559.97	4.68
560.13	95.96
560.30	30.43
560.46	21.06
560.63	51.49
560.79	42.13
560.96	25.75
561.12	35.11
561.29	0.00
561.45	110.01
561.61	72.56
561.78	46.81
561.94	0.00
562.11	51.49
562.27	39.79
562.44	77.24
562.60	32.77
562.77	35.11
562.93	86.60
563.10	23.41
563.26	44.47
563.42	2.34
563.59	74.90
563.75	0.00
563.92	42.13
564.08	9.36
564.24	32.77
564.41	49.15
564.57	16.38
564.74	63.19
564.90	42.13
565.07	39.79
565.23	117.03
565.39	14.04
565.56	58.51
565.72	102.98
565.88	2.34
566.05	18.72
566.21	79.58
566.38	0.00
566.54	65.54
566.70	67.88
566.87	88.94
567.03	25.75
567.19	65.54
567.36	35.11
567.52	49.15
567.68	35.11
567.85	79.58
568.01	39.79
568.17	105.32
568.34	77.24
568.50	81.92
568.66	0.00
568.83	46.81
568.99	35.11
569.15	25.75
569.32	102.98
569.48	39.79
569.64	35.11
569.81	56.17
569.97	37.45
570.13	46.81
570.30	58.51
570.46	67.88
570.62	30.43
570.78	0.00
570.95	51.49
571.11	72.56
571.27	49.15
571.43	58.51
571.60	58.51
571.76	14.04
571.92	110.01
572.09	51.49
572.25	28.09
572.41	2.34
572.57	51.49
572.74	0.00
572.90	77.24
573.06	51.49
573.22	79.58
573.38	65.54
573.55	0.00
573.71	18.72
573.87	21.06
574.03	110.01
574.20	53.83
574.36	0.00
574.52	44.47
574.68	30.43
574.84	18.72
575.01	51.49
575.17	28.09
575.33	114.69
575.49	11.70
575.65	32.77
575.82	37.45
575.98	0.00
576.14	42.13
576.30	44.47
576.46	39.79
576.62	95.96
576.79	168.52
576.95	95.96
577.11	63.19
577.27	4.68
577.43	35.11
577.59	28.09
577.75	0.00
577.92	93.62
578.08	28.09
578.24	39.79
578.40	28.09
578.56	28.09
578.72	4.68
578.88	63.19
579.04	65.54
579.21	65.54
579.37	37.45
579.53	18.72
579.69	72.56
579.85	39.79
580.01	2.34
580.17	51.49
580.33	23.41
580.49	0.00
580.65	88.94
580.82	0.00
580.98	65.54
581.14	0.00
581.30	4.68
581.46	4.68
581.62	72.56
581.78	0.00
581.94	65.54
582.10	0.00
582.26	95.96
582.42	14.04
582.58	0.00
582.74	0.00
582.90	46.81
583.06	88.94
583.22	110.01
583.38	100.64
583.54	51.49
583.70	67.88
583.86	81.92
584.02	42.13
584.18	63.19
584.34	53.83
584.50	67.88
584.66	58.51
584.82	0.00
584.98	42.13
585.14	18.72
585.30	44.47
585.46	65.54
585.62	0.00
585.78	39.79
585.94	70.22
586.10	25.75
586.26	110.01
586.42	39.79
586.58	18.72
586.74	72.56
586.90	25.75
587.06	46.81
587.22	49.15
587.38	0.00
587.54	0.00
587.70	0.00
587.86	74.90
588.02	0.00
588.18	37.45
588.34	133.41
588.49	51.49
588.65	16.38
588.81	49.15
588.97	23.41
589.13	14.04
589.29	53.83
589.45	56.17
589.61	126.39
589.77	84.26
589.93	9.36
590.08	23.41
590.24	0.00
590.40	35.11
590.56	37.45
590.72	58.51
590.88	42.13
591.04	133.41
591.20	11.70
591.35	42.13
591.51	100.64
591.67	25.75
591.83	60.85
591.99	18.72
592.15	46.81
592.31	35.11
592.46	53.83
592.62	18.72
592.78	46.81
592.94	79.58
593.10	53.83
593.26	0.00
593.41	91.28
593.57	49.15
593.73	0.00
593.89	60.85
594.05	128.73
594.20	53.83
594.36	32.77
594.52	84.26
594.68	0.00
594.84	44.47
594.99	51.49
595.15	112.35
595.31	98.30
595.47	0.00
595.62	2.34
595.78	37.45
595.94	39.79
596.10	98.30
596.25	35.11
596.41	93.62
596.57	56.17
596.73	2.34
596.88	25.75
597.04	88.94
597.20	70.22
597.36	60.85
597.51	46.81
597.67	91.28
597.83	35.11
597.99	63.19
598.14	32.77
598.30	128.73
598.46	60.85
598.61	2.34
598.77	44.47
598.93	58.51
599.09	81.92
599.24	53.83
599.40	18.72
599.56	0.00
599.71	95.96
599.87	65.54
600.03	72.56
600.18	88.94
600.34	32.77
600.50	28.09
600.65	0.00
600.81	0.00
600.97	53.83
601.12	39.79
601.28	63.19
601.44	39.79
601.59	56.17
601.75	58.51
601.91	28.09
602.06	86.60
602.22	105.32
602.37	25.75
602.53	105.32
602.69	77.24
602.84	21.06
603.00	0.00
603.16	79.58
603.31	67.88
603.47	23.41
603.62	0.00
603.78	0.00
603.94	74.90
604.09	21.06
604.25	4.68
604.40	56.17
604.56	0.00
604.71	65.54
604.87	79.58
605.03	14.04
605.18	86.60
605.34	25.75
605.49	23.41
605.65	105.32
605.80	14.04
605.96	32.77
606.12	46.81
606.27	39.79
606.43	100.64
606.58	74.90
606.74	72.56
606.89	2.34
607.05	56.17
607.20	53.83
607.36	37.45
607.51	60.85
607.67	0.00
607.82	58.51
607.98	117.03
608.13	84.26
608.29	112.35
608.44	60.85
608.60	18.72
608.75	0.00
608.91	7.02
609.06	142.77
609.22	77.24
609.37	60.85
609.53	39.79
609.68	65.54
609.84	4.68
609.99	0.00
610.15	28.09
610.30	102.98
610.46	121.71
610.61	7.02
610.76	0.00
610.92	39.79
611.07	91.28
611.23	63.19
611.38	44.47
611.54	49.15
611.69	63.19
611.84	110.01
612.00	60.85
612.15	107.66
612.31	65.54
612.46	9.36
612.62	84.26
612.77	0.00
612.92	37.45
613.08	56.17
613.23	18.72
613.39	79.58
613.54	42.13
613.69	25.75
613.85	72.56
614.00	14.04
614.15	81.92
614.31	65.54
614.46	60.85
614.62	23.41
614.77	56.17
614.92	0.00
615.08	60.85
615.23	35.11
615.38	44.47
615.54	0.00
615.69	49.15
615.84	0.00
616.00	4.68
616.15	0.00
616.30	23.41
616.46	0.00
616.61	37.45
616.76	2.34
616.92	56.17
617.07	72.56
617.22	23.41
617.37	39.79
617.53	0.00
617.68	49.15
617.83	2.34
617.99	32.77
618.14	0.00
618.29	37.45
618.45	39.79
618.60	25.75
618.75	79.58
618.90	14.04
619.06	70.22
619.21	77.24
619.36	25.75
619.51	39.79
619.67	58.51
619.82	86.60
619.97	79.58
620.12	30.43
620.28	25.75
620.43	42.13
620.58	51.49
620.73	0.00
620.89	81.92
621.04	7.02
621.19	46.81
621.34	4.68
621.49	4.68
621.65	0.00
621.80	112.35
621.95	49.15
622.10	63.19
622.25	72.56
622.41	42.13
622.56	86.60
622.71	74.90
622.86	67.88
623.01	0.00
623.16	88.94
623.32	21.06
623.47	0.00
623.62	18.72
623.77	35.11
623.92	39.79
624.07	42.13
624.23	70.22
624.38	28.09
624.53	21.06
624.68	0.00
624.83	42.13
624.98	0.00
625.13	30.43
625.29	9.36
625.44	72.56
625.59	65.54
625.74	44.47
625.89	58.51
626.04	37.45
626.19	4.68
626.34	9.36
626.49	81.92
626.65	42.13
626.80	53.83
626.95	42.13
627.10	79.58
627.25	0.00
627.40	74.90
627.55	0.00
627.70	2.34
627.85	30.43
628.00	65.54
628.15	42.13
628.30	21.06
628.45	4.68
628.60	2.34
628.76	18.72
628.91	39.79
629.06	121.71
629.21	7.02
629.36	65.54
629.51	23.41
629.66	63.19
629.81	9.36
629.96	56.17
630.11	0.00
630.26	39.79
630.41	37.45
630.56	72.56
630.71	117.03
630.86	0.00
631.01	53.83
631.16	44.47
631.31	0.00
631.46	72.56
631.61	46.81
631.76	84.26
631.91	67.88
632.06	107.66
632.21	53.83
632.36	51.49
632.51	56.17
632.66	37.45
632.81	95.96
632.96	30.43
633.10	51.49
633.25	37.45
633.40	0.00
633.55	0.00
633.70	70.22
633.85	0.00
634.00	53.83
634.15	32.77
634.30	81.92
634.45	21.06
634.60	88.94
634.75	70.22
634.90	30.43
635.05	0.00
635.19	35.11
635.34	39.79
635.49	39.79
635.64	44.47
635.79	28.09
635.94	60.85
636.09	18.72
636.24	53.83
636.39	30.43
636.53	0.00
636.68	11.70
636.83	100.64
636.98	84.26
637.13	35.11
637.28	39.79
637.43	0.00
637.57	25.75
637.72	102.98
637.87	67.88
638.02	4.68
638.17	79.58
638.32	60.85
638.46	63.19
638.61	23.41
638.76	18.72
638.91	0.00
639.06	28.09
639.20	51.49
639.35	16.38
639.50	23.41
639.65	98.30
639.80	102.98
639.94	21.06
640.09	42.13
640.24	9.36
640.39	79.58
640.54	0.00
640.68	51.49
640.83	35.11
640.98	0.00
641.13	112.35
641.27	28.09
641.42	25.75
641.57	60.85
641.72	35.11
641.86	37.45
642.01	46.81
642.16	42.13
642.31	16.38
642.45	9.36
642.60	0.00
642.75	37.45
642.90	0.00
643.04	11.70
643.19	37.45
643.34	0.00
643.48	53.83
643.63	58.51
643.78	39.79
643.93	25.75
644.07	77.24
644.22	23.41
644.37	18.72
644.51	37.45
644.66	9.36
644.81	74.90
644.95	14.04
645.10	4.68
645.25	28.09
645.39	105.32
645.54	23.41
645.69	72.56
645.83	18.72
645.98	51.49
646.13	0.00
646.27	2.34
646.42	46.81
646.57	37.45
646.71	44.47
646.86	2.34
647.00	35.11
647.15	0.00
647.30	65.54
647.44	105.32
647.59	21.06
647.74	0.00
647.88	28.09
648.03	23.41
648.17	30.43
648.32	67.88
648.47	25.75
648.61	42.13
648.76	14.04
648.90	0.00
649.05	49.15
649.20	37.45
649.34	28.09
649.49	74.90
649.63	65.54
649.78	72.56
649.92	77.24
650.07	49.15
650.21	18.72
650.36	16.38
650.51	4.68
650.65	79.58
650.80	16.38
650.94	72.56
651.09	56.17
651.23	0.00
651.38	77.24
651.52	0.00
651.67	46.81
651.81	56.17
651.96	51.49
652.10	67.88
652.25	35.11
652.39	100.64
652.54	77.24
652.68	91.28
652.83	53.83
652.97	23.41
653.12	39.79
653.26	42.13
653.41	9.36
653.55	4.68
653.70	88.94
653.84	58.51
653.99	0.00
654.13	0.00
654.27	58.51
654.42	173.20
654.56	0.00
654.71	0.00
654.85	37.45
655.00	51.49
655.14	58.51
655.29	0.00
655.43	37.45
655.57	51.49
655.72	25.75
655.86	18.72
656.01	39.79
656.15	65.54
656.30	56.17
656.44	0.00
656.58	81.92
656.73	42.13
656.87	39.79
657.01	51.49
657.16	28.09
657.30	4.68
657.45	28.09
657.59	0.00
657.73	0.00
657.88	0.00
658.02	11.70
658.16	0.00
658.31	4.68
658.45	46.81
658.60	35.11
658.74	56.17
658.88	128.73
659.03	37.45
659.17	84.26
659.31	9.36
659.46	58.51
659.60	18.72
659.74	46.81
659.89	51.49
660.03	63.19
660.17	23.41
660.32	0.00
660.46	98.30
660.60	32.77
660.74	2.34
660.89	0.00
661.03	0.00
661.17	79.58
661.32	11.70
661.46	0.00
661.60	114.69
661.74	51.49
661.89	72.56
662.03	77.24
662.17	32.77
662.31	42.13
662.46	86.60
662.60	65.54
662.74	51.49
662.88	63.19
663.03	2.34
663.17	37.45
663.31	44.47
663.45	39.79
663.60	42.13
663.74	0.00
663.88	65.54
664.02	0.00
664.17	23.41
664.31	9.36
664.45	0.00
664.59	0.00
664.73	67.88
664.88	0.00
665.02	44.47
665.16	72.56
665.30	46.81
665.44	74.90
665.59	39.79
665.73	0.00
665.87	4.68
666.01	42.13
666.15	39.79
666.29	25.75
666.44	28.09
666.58	112.35
666.72	23.41
666.86	0.00
667.00	28.09
667.14	121.71
667.28	0.00
667.43	25.75
667.57	35.11
667.71	0.00
667.85	2.34
667.99	0.00
668.13	39.79
668.27	37.45
668.41	60.85
668.56	79.58
668.70	0.00
668.84	60.85
668.98	18.72
669.12	65.54
669.26	0.00
669.40	0.00
669.54	16.38
669.68	35.11
669.82	30.43
669.96	88.94
670.10	18.72
670.25	53.83
670.39	23.41
670.53	32.77
670.67	14.04
670.81	28.09
670.95	79.58
671.09	42.13
671.23	44.47
671.37	77.24
671.51	65.54
671.65	49.15
671.79	7.02
671.93	53.83
672.07	74.90
672.21	42.13
672.35	0.00
672.49	35.11
672.63	37.45
672.77	42.13
672.91	56.17
673.05	105.32
673.19	49.15
673.33	86.60
673.47	81.92
673.61	42.13
673.75	70.22
673.89	91.28
674.03	0.00
674.17	84.26
674.31	58.51
674.45	0.00
674.59	72.56
674.73	49.15
674.87	156.82
675.01	86.60
675.15	21.06
675.29	18.72
675.43	39.79
675.56	25.75
675.70	0.00
675.84	0.00
675.98	77.24
676.12	39.79
676.26	42.13
676.40	0.00
676.54	25.75
676.68	11.70
676.82	11.70
676.96	11.70
677.10	4.68
677.23	9.36
677.37	25.75
677.51	42.13
677.65	124.05
677.79	28.09
677.93	46.81
678.07	67.88
678.21	86.60
678.34	81.92
678.48	35.11
678.62	0.00
678.76	53.83
678.90	91.28
679.04	0.00
679.18	60.85
679.31	16.38
679.45	63.19
679.59	2.34
679.73	53.83
679.87	37.45
680.00	67.88
680.14	2.34
680.28	49.15
680.42	30.43
680.56	0.00
680.70	0.00
680.83	60.85
680.97	7.02
681.11	0.00
681.25	0.00
681.39	0.00
681.52	25.75
681.66	0.00
681.80	16.38
681.94	79.58
682.07	0.00
682.21	30.43
682.35	21.06
682.49	74.90
682.62	84.26
682.76	0.00
682.90	9.36
683.04	4.68
683.17	18.72
683.31	30.43
683.45	37.45
683.59	35.11
683.72	0.00
683.86	7.02
684.00	46.81
684.13	0.00
684.27	23.41
684.41	44.47
684.55	0.00
684.68	18.72
684.82	0.00
684.96	0.00
685.09	0.00
685.23	37.45
685.37	0.00
685.50	16.38
685.64	0.00
685.78	65.54
685.91	4.68
686.05	0.00
686.19	2.34
686.32	23.41
686.46	60.85
686.60	30.43
686.73	21.06
686.87	23.41
687.01	32.77
687.14	51.49
687.28	60.85
687.42	72.56
687.55	98.30
687.69	63.19
687.82	60.85
687.96	44.47
688.10	21.06
688.23	79.58
688.37	42.13
688.50	37.45
688.64	0.00
688.78	44.47
688.91	42.13
689.05	25.75
689.18	9.36
689.32	91.28
689.46	44.47
689.59	4.68
689.73	21.06
689.86	44.47
690.00	35.11
690.13	0.00
690.27	16.38
690.41	37.45
690.54	0.00
690.68	16.38
690.81	53.83
690.95	2.34
691.08	14.04
691.22	14.04
691.35	0.00
691.49	63.19
691.62	16.38
691.76	0.00
691.89	18.72
692.03	11.70
692.16	65.54
692.30	53.83
692.43	14.04
692.57	119.37
692.70	0.00
692.84	0.00
692.97	2.34
693.11	7.02
693.24	44.47
693.38	35.11
693.51	0.00
693.65	91.28
693.78	0.00
693.92	63.19
694.05	0.00
694.19	0.00
694.32	16.38
694.45	0.00
694.59	4.68
694.72	93.62
694.86	9.36
694.99	32.77
695.13	0.00
695.26	0.00
695.39	84.26
695.53	49.15
695.66	28.09
695.80	42.13
695.93	37.45
696.07	88.94
696.20	2.34
696.33	0.00
696.47	25.75
696.60	28.09
696.73	60.85
696.87	67.88
697.00	79.58
697.14	0.00
697.27	0.00
697.40	56.17
697.54	88.94
697.67	28.09
697.80	0.00
697.94	28.09
698.07	44.47
698.21	63.19
698.34	0.00
698.47	0.00
698.61	32.77
698.74	0.00
698.87	0.00
699.01	0.00
699.14	72.56
699.27	37.45
699.40	135.75
699.54	65.54
699.67	9.36
699.80	93.62
699.94	23.41
700.07	25.75
700.20	70.22
700.34	0.00
700.47	28.09
700.60	131.07
700.73	0.00
700.87	72.56
701.00	0.00
701.13	53.83
701.26	124.05
701.40	79.58
701.53	0.00
701.66	0.00
701.79	0.00
701.93	9.36
702.06	4.68
702.19	0.00
702.32	28.09
702.46	56.17
702.59	2.34
702.72	30.43
702.85	21.06
702.99	0.00
703.12	0.00
703.25	53.83
703.38	35.11
703.51	81.92
703.65	65.54
703.78	77.24
703.91	60.85
704.04	91.28
704.17	28.09
704.31	4.68
704.44	25.75
704.57	0.00
704.70	44.47
704.83	11.70
704.96	37.45
705.10	23.41
705.23	32.77
>>>>>End Processed Spectral Data<<<<<
