SpectraSuite Data File
++++++++++++++++++++++++++++++++++++
Date: Fri Oct 04 12:13:38 GMT-05:00 2013
User: price-jones
Dark Spectrum Present: No
Reference Spectrum Present: No
Number of Sampled Component Spectra: 1
Spectrometers: USB2+H05261
Integration Time (usec): 10000 (USB2+H05261)
Spectra Averaged: 1 (USB2+H05261)
Boxcar Smoothing: 0 (USB2+H05261)
Correct for Electrical Dark: No (USB2+H05261)
Strobe/Lamp Enabled: No (USB2+H05261)
Correct for Detector Non-linearity: No (USB2+H05261)
Correct for Stray Light: No (USB2+H05261)
Number of Pixels in Processed Spectrum: 2048
>>>>>Begin Processed Spectral Data<<<<<
365.73	30.43
365.92	30.43
366.12	30.43
366.32	0.00
366.52	0.00
366.72	0.00
366.91	0.00
367.11	0.00
367.31	0.00
367.51	0.00
367.70	0.00
367.90	0.00
368.10	0.00
368.30	0.00
368.49	0.00
368.69	0.00
368.89	0.00
369.09	0.00
369.28	0.00
369.48	0.00
369.68	0.00
369.87	0.00
370.07	0.00
370.27	0.00
370.47	0.00
370.66	0.00
370.86	0.00
371.06	0.00
371.25	0.00
371.45	0.00
371.65	0.00
371.84	0.00
372.04	0.00
372.24	0.00
372.44	0.00
372.63	0.00
372.83	21.06
373.03	77.24
373.22	37.45
373.42	23.41
373.62	56.17
373.81	77.24
374.01	0.00
374.21	25.75
374.40	140.43
374.60	56.17
374.79	84.26
374.99	25.75
375.19	84.26
375.38	28.09
375.58	58.51
375.78	7.02
375.97	30.43
376.17	114.69
376.37	42.13
376.56	0.00
376.76	4.68
376.95	44.47
377.15	91.28
377.35	0.00
377.54	28.09
377.74	77.24
377.93	14.04
378.13	23.41
378.33	42.13
378.52	9.36
378.72	25.75
378.91	0.00
379.11	30.43
379.31	0.00
379.50	95.96
379.70	18.72
379.89	0.00
380.09	0.00
380.28	0.00
380.48	16.38
380.68	51.49
380.87	37.45
381.07	60.85
381.26	49.15
381.46	0.00
381.65	37.45
381.85	65.54
382.04	37.45
382.24	0.00
382.43	9.36
382.63	0.00
382.83	0.00
383.02	25.75
383.22	0.00
383.41	44.47
383.61	0.00
383.80	46.81
384.00	37.45
384.19	0.00
384.39	32.77
384.58	0.00
384.78	46.81
384.97	49.15
385.17	4.68
385.36	53.83
385.56	16.38
385.75	0.00
385.95	9.36
386.14	98.30
386.34	0.00
386.53	65.54
386.72	49.15
386.92	74.90
387.11	91.28
387.31	56.17
387.50	2.34
387.70	74.90
387.89	86.60
388.09	28.09
388.28	44.47
388.48	28.09
388.67	42.13
388.86	11.70
389.06	81.92
389.25	65.54
389.45	25.75
389.64	0.00
389.84	0.00
390.03	30.43
390.22	0.00
390.42	53.83
390.61	51.49
390.81	14.04
391.00	58.51
391.19	77.24
391.39	25.75
391.58	121.71
391.78	105.32
391.97	30.43
392.16	7.02
392.36	2.34
392.55	30.43
392.75	7.02
392.94	16.38
393.13	63.19
393.33	79.58
393.52	0.00
393.71	16.38
393.91	28.09
394.10	16.38
394.29	0.00
394.49	18.72
394.68	0.00
394.88	77.24
395.07	0.00
395.26	51.49
395.46	49.15
395.65	23.41
395.84	79.58
396.04	49.15
396.23	49.15
396.42	25.75
396.62	28.09
396.81	4.68
397.00	67.88
397.19	32.77
397.39	42.13
397.58	51.49
397.77	72.56
397.97	9.36
398.16	32.77
398.35	21.06
398.55	51.49
398.74	16.38
398.93	77.24
399.12	58.51
399.32	28.09
399.51	44.47
399.70	98.30
399.90	37.45
400.09	2.34
400.28	30.43
400.47	14.04
400.67	0.00
400.86	0.00
401.05	114.69
401.24	49.15
401.44	0.00
401.63	72.56
401.82	49.15
402.01	0.00
402.21	0.00
402.40	0.00
402.59	39.79
402.78	100.64
402.97	84.26
403.17	81.92
403.36	77.24
403.55	2.34
403.74	25.75
403.93	37.45
404.13	7.02
404.32	32.77
404.51	0.00
404.70	51.49
404.89	14.04
405.09	65.54
405.28	91.28
405.47	65.54
405.66	28.09
405.85	72.56
406.05	25.75
406.24	91.28
406.43	0.00
406.62	60.85
406.81	4.68
407.00	46.81
407.20	9.36
407.39	30.43
407.58	63.19
407.77	49.15
407.96	0.00
408.15	2.34
408.34	0.00
408.54	37.45
408.73	60.85
408.92	77.24
409.11	63.19
409.30	0.00
409.49	46.81
409.68	4.68
409.87	42.13
410.07	56.17
410.26	117.03
410.45	30.43
410.64	0.00
410.83	42.13
411.02	30.43
411.21	23.41
411.40	14.04
411.59	9.36
411.78	30.43
411.98	0.00
412.17	9.36
412.36	7.02
412.55	56.17
412.74	0.00
412.93	79.58
413.12	28.09
413.31	18.72
413.50	44.47
413.69	0.00
413.88	14.04
414.07	7.02
414.26	65.54
414.45	14.04
414.64	53.83
414.83	51.49
415.02	0.00
415.22	63.19
415.41	0.00
415.60	0.00
415.79	81.92
415.98	14.04
416.17	0.00
416.36	79.58
416.55	0.00
416.74	16.38
416.93	63.19
417.12	91.28
417.31	32.77
417.50	0.00
417.69	42.13
417.88	100.64
418.07	37.45
418.26	0.00
418.45	100.64
418.64	28.09
418.83	58.51
419.02	32.77
419.21	37.45
419.39	42.13
419.58	56.17
419.77	4.68
419.96	11.70
420.15	0.00
420.34	65.54
420.53	23.41
420.72	0.00
420.91	9.36
421.10	65.54
421.29	56.17
421.48	67.88
421.67	77.24
421.86	25.75
422.05	0.00
422.24	0.00
422.43	21.06
422.61	117.03
422.80	51.49
422.99	121.71
423.18	0.00
423.37	88.94
423.56	28.09
423.75	18.72
423.94	95.96
424.13	37.45
424.32	110.01
424.50	23.41
424.69	60.85
424.88	0.00
425.07	30.43
425.26	53.83
425.45	14.04
425.64	11.70
425.83	21.06
426.01	46.81
426.20	58.51
426.39	60.85
426.58	44.47
426.77	65.54
426.96	42.13
427.15	39.79
427.33	117.03
427.52	30.43
427.71	4.68
427.90	58.51
428.09	42.13
428.28	63.19
428.46	28.09
428.65	0.00
428.84	16.38
429.03	46.81
429.22	65.54
429.40	91.28
429.59	81.92
429.78	95.96
429.97	70.22
430.16	58.51
430.34	35.11
430.53	9.36
430.72	74.90
430.91	35.11
431.10	9.36
431.28	21.06
431.47	63.19
431.66	4.68
431.85	60.85
432.03	142.77
432.22	2.34
432.41	0.00
432.60	0.00
432.79	32.77
432.97	35.11
433.16	30.43
433.35	88.94
433.54	100.64
433.72	110.01
433.91	46.81
434.10	86.60
434.28	0.00
434.47	23.41
434.66	35.11
434.85	53.83
435.03	60.85
435.22	0.00
435.41	67.88
435.59	14.04
435.78	35.11
435.97	30.43
436.16	0.00
436.34	79.58
436.53	35.11
436.72	11.70
436.90	91.28
437.09	67.88
437.28	9.36
437.46	0.00
437.65	2.34
437.84	28.09
438.02	9.36
438.21	28.09
438.40	74.90
438.58	16.38
438.77	93.62
438.96	133.41
439.14	0.00
439.33	9.36
439.52	39.79
439.70	0.00
439.89	72.56
440.08	102.98
440.26	86.60
440.45	44.47
440.63	25.75
440.82	67.88
441.01	28.09
441.19	93.62
441.38	79.58
441.57	0.00
441.75	91.28
441.94	70.22
442.12	0.00
442.31	72.56
442.50	63.19
442.68	0.00
442.87	23.41
443.05	60.85
443.24	51.49
443.43	65.54
443.61	84.26
443.80	28.09
443.98	119.37
444.17	77.24
444.35	25.75
444.54	14.04
444.73	56.17
444.91	72.56
445.10	0.00
445.28	28.09
445.47	18.72
445.65	32.77
445.84	53.83
446.02	72.56
446.21	35.11
446.39	35.11
446.58	35.11
446.77	58.51
446.95	30.43
447.14	4.68
447.32	58.51
447.51	42.13
447.69	44.47
447.88	81.92
448.06	124.05
448.25	0.00
448.43	28.09
448.62	14.04
448.80	46.81
448.99	28.09
449.17	86.60
449.36	28.09
449.54	16.38
449.73	21.06
449.91	84.26
450.10	32.77
450.28	0.00
450.46	112.35
450.65	72.56
450.83	105.32
451.02	88.94
451.20	2.34
451.39	72.56
451.57	131.07
451.76	91.28
451.94	77.24
452.13	110.01
452.31	60.85
452.49	77.24
452.68	21.06
452.86	37.45
453.05	0.00
453.23	74.90
453.42	112.35
453.60	107.66
453.78	53.83
453.97	35.11
454.15	0.00
454.34	51.49
454.52	14.04
454.70	86.60
454.89	42.13
455.07	39.79
455.26	42.13
455.44	53.83
455.62	93.62
455.81	56.17
455.99	67.88
456.17	60.85
456.36	119.37
456.54	46.81
456.73	74.90
456.91	2.34
457.09	102.98
457.28	44.47
457.46	88.94
457.64	42.13
457.83	0.00
458.01	81.92
458.19	145.11
458.38	21.06
458.56	124.05
458.74	105.32
458.93	84.26
459.11	53.83
459.29	14.04
459.48	91.28
459.66	88.94
459.84	91.28
460.03	95.96
460.21	51.49
460.39	35.11
460.57	70.22
460.76	44.47
460.94	58.51
461.12	0.00
461.31	30.43
461.49	39.79
461.67	128.73
461.85	70.22
462.04	51.49
462.22	67.88
462.40	23.41
462.59	0.00
462.77	100.64
462.95	65.54
463.13	28.09
463.32	7.02
463.50	0.00
463.68	23.41
463.86	72.56
464.05	93.62
464.23	72.56
464.41	23.41
464.59	105.32
464.78	21.06
464.96	93.62
465.14	0.00
465.32	100.64
465.50	91.28
465.69	56.17
465.87	88.94
466.05	95.96
466.23	93.62
466.41	46.81
466.60	2.34
466.78	58.51
466.96	0.00
467.14	0.00
467.32	133.41
467.51	51.49
467.69	58.51
467.87	152.13
468.05	110.01
468.23	23.41
468.41	124.05
468.60	145.11
468.78	79.58
468.96	44.47
469.14	72.56
469.32	39.79
469.50	0.00
469.69	79.58
469.87	0.00
470.05	30.43
470.23	60.85
470.41	46.81
470.59	0.00
470.77	37.45
470.95	105.32
471.14	56.17
471.32	107.66
471.50	63.19
471.68	0.00
471.86	177.88
472.04	98.30
472.22	88.94
472.40	37.45
472.58	46.81
472.77	86.60
472.95	79.58
473.13	37.45
473.31	0.00
473.49	60.85
473.67	79.58
473.85	21.06
474.03	0.00
474.21	79.58
474.39	93.62
474.57	49.15
474.75	16.38
474.93	79.58
475.12	32.77
475.30	0.00
475.48	51.49
475.66	98.30
475.84	39.79
476.02	42.13
476.20	39.79
476.38	46.81
476.56	93.62
476.74	100.64
476.92	84.26
477.10	60.85
477.28	84.26
477.46	107.66
477.64	51.49
477.82	56.17
478.00	63.19
478.18	102.98
478.36	145.11
478.54	60.85
478.72	0.00
478.90	86.60
479.08	32.77
479.26	4.68
479.44	53.83
479.62	32.77
479.80	4.68
479.98	37.45
480.16	86.60
480.34	0.00
480.52	79.58
480.70	112.35
480.88	98.30
481.06	142.77
481.24	88.94
481.41	30.43
481.59	131.07
481.77	95.96
481.95	126.39
482.13	11.70
482.31	53.83
482.49	14.04
482.67	93.62
482.85	56.17
483.03	145.11
483.21	140.43
483.39	107.66
483.57	74.90
483.74	100.64
483.92	63.19
484.10	9.36
484.28	117.03
484.46	18.72
484.64	107.66
484.82	4.68
485.00	21.06
485.18	65.54
485.35	102.98
485.53	79.58
485.71	102.98
485.89	28.09
486.07	77.24
486.25	95.96
486.43	16.38
486.61	37.45
486.78	46.81
486.96	63.19
487.14	110.01
487.32	138.09
487.50	28.09
487.68	102.98
487.85	30.43
488.03	128.73
488.21	121.71
488.39	93.62
488.57	70.22
488.75	84.26
488.92	18.72
489.10	0.00
489.28	100.64
489.46	16.38
489.64	74.90
489.81	86.60
489.99	86.60
490.17	72.56
490.35	72.56
490.53	117.03
490.70	81.92
490.88	35.11
491.06	114.69
491.24	37.45
491.41	135.75
491.59	72.56
491.77	98.30
491.95	37.45
492.13	135.75
492.30	72.56
492.48	79.58
492.66	124.05
492.84	2.34
493.01	133.41
493.19	112.35
493.37	0.00
493.54	84.26
493.72	46.81
493.90	77.24
494.08	46.81
494.25	42.13
494.43	91.28
494.61	86.60
494.79	105.32
494.96	95.96
495.14	63.19
495.32	14.04
495.49	88.94
495.67	159.16
495.85	70.22
496.02	114.69
496.20	119.37
496.38	60.85
496.55	81.92
496.73	110.01
496.91	93.62
497.09	37.45
497.26	60.85
497.44	63.19
497.62	140.43
497.79	110.01
497.97	205.97
498.14	72.56
498.32	56.17
498.50	98.30
498.67	112.35
498.85	95.96
499.03	88.94
499.20	74.90
499.38	93.62
499.56	70.22
499.73	65.54
499.91	91.28
500.08	184.90
500.26	67.88
500.44	53.83
500.61	65.54
500.79	100.64
500.97	67.88
501.14	56.17
501.32	93.62
501.49	25.75
501.67	98.30
501.84	124.05
502.02	37.45
502.20	126.39
502.37	100.64
502.55	32.77
502.72	140.43
502.90	58.51
503.07	145.11
503.25	58.51
503.43	65.54
503.60	102.98
503.78	53.83
503.95	49.15
504.13	128.73
504.30	70.22
504.48	159.16
504.65	168.52
504.83	37.45
505.01	67.88
505.18	114.69
505.36	95.96
505.53	0.00
505.71	0.00
505.88	84.26
506.06	70.22
506.23	95.96
506.41	53.83
506.58	74.90
506.76	63.19
506.93	28.09
507.11	128.73
507.28	121.71
507.46	72.56
507.63	142.77
507.81	56.17
507.98	37.45
508.16	42.13
508.33	39.79
508.50	152.13
508.68	86.60
508.85	79.58
509.03	88.94
509.20	112.35
509.38	112.35
509.55	110.01
509.73	102.98
509.90	88.94
510.08	88.94
510.25	91.28
510.42	86.60
510.60	147.45
510.77	79.58
510.95	70.22
511.12	105.32
511.30	56.17
511.47	117.03
511.64	63.19
511.82	74.90
511.99	70.22
512.17	70.22
512.34	79.58
512.51	114.69
512.69	42.13
512.86	0.00
513.04	65.54
513.21	65.54
513.38	67.88
513.56	51.49
513.73	135.75
513.90	114.69
514.08	74.90
514.25	49.15
514.43	124.05
514.60	112.35
514.77	2.34
514.95	44.47
515.12	60.85
515.29	105.32
515.47	58.51
515.64	65.54
515.81	93.62
515.99	72.56
516.16	81.92
516.33	86.60
516.51	110.01
516.68	93.62
516.85	81.92
517.03	77.24
517.20	72.56
517.37	56.17
517.54	39.79
517.72	133.41
517.89	70.22
518.06	56.17
518.24	119.37
518.41	98.30
518.58	105.32
518.75	112.35
518.93	117.03
519.10	135.75
519.27	63.19
519.45	121.71
519.62	84.26
519.79	81.92
519.96	16.38
520.14	121.71
520.31	67.88
520.48	28.09
520.65	93.62
520.83	60.85
521.00	147.45
521.17	0.00
521.34	65.54
521.52	67.88
521.69	72.56
521.86	142.77
522.03	32.77
522.20	138.09
522.38	81.92
522.55	128.73
522.72	86.60
522.89	56.17
523.07	53.83
523.24	88.94
523.41	37.45
523.58	112.35
523.75	44.47
523.92	60.85
524.10	86.60
524.27	163.84
524.44	95.96
524.61	0.00
524.78	124.05
524.96	49.15
525.13	79.58
525.30	84.26
525.47	91.28
525.64	110.01
525.81	79.58
525.98	114.69
526.16	72.56
526.33	114.69
526.50	121.71
526.67	63.19
526.84	0.00
527.01	72.56
527.18	91.28
527.36	42.13
527.53	51.49
527.70	93.62
527.87	63.19
528.04	152.13
528.21	121.71
528.38	86.60
528.55	39.79
528.72	81.92
528.89	81.92
529.07	79.58
529.24	84.26
529.41	128.73
529.58	81.92
529.75	112.35
529.92	131.07
530.09	145.11
530.26	51.49
530.43	72.56
530.60	0.00
530.77	91.28
530.94	70.22
531.11	39.79
531.28	93.62
531.46	56.17
531.63	44.47
531.80	53.83
531.97	51.49
532.14	84.26
532.31	42.13
532.48	23.41
532.65	77.24
532.82	72.56
532.99	110.01
533.16	72.56
533.33	56.17
533.50	98.30
533.67	105.32
533.84	110.01
534.01	156.82
534.18	91.28
534.35	131.07
534.52	93.62
534.69	124.05
534.86	63.19
535.03	81.92
535.20	58.51
535.37	42.13
535.54	86.60
535.71	102.98
535.88	124.05
536.05	56.17
536.22	72.56
536.38	74.90
536.55	65.54
536.72	42.13
536.89	63.19
537.06	77.24
537.23	102.98
537.40	95.96
537.57	21.06
537.74	112.35
537.91	98.30
538.08	86.60
538.25	32.77
538.42	100.64
538.59	74.90
538.75	35.11
538.92	112.35
539.09	159.16
539.26	142.77
539.43	84.26
539.60	152.13
539.77	128.73
539.94	95.96
540.11	86.60
540.28	65.54
540.44	142.77
540.61	37.45
540.78	86.60
540.95	79.58
541.12	98.30
541.29	39.79
541.46	102.98
541.62	16.38
541.79	149.79
541.96	65.54
542.13	84.26
542.30	128.73
542.47	14.04
542.63	51.49
542.80	56.17
542.97	98.30
543.14	23.41
543.31	102.98
543.48	56.17
543.64	0.00
543.81	2.34
543.98	18.72
544.15	147.45
544.32	70.22
544.48	46.81
544.65	105.32
544.82	86.60
544.99	58.51
545.16	70.22
545.32	133.41
545.49	98.30
545.66	49.15
545.83	102.98
546.00	100.64
546.16	105.32
546.33	131.07
546.50	72.56
546.67	138.09
546.83	30.43
547.00	159.16
547.17	131.07
547.34	79.58
547.50	91.28
547.67	84.26
547.84	67.88
548.00	170.86
548.17	117.03
548.34	102.98
548.51	42.13
548.67	84.26
548.84	163.84
549.01	114.69
549.18	0.00
549.34	86.60
549.51	93.62
549.68	86.60
549.84	63.19
550.01	28.09
550.18	145.11
550.34	112.35
550.51	56.17
550.68	77.24
550.84	105.32
551.01	131.07
551.18	107.66
551.34	63.19
551.51	119.37
551.68	119.37
551.84	138.09
552.01	95.96
552.18	131.07
552.34	119.37
552.51	46.81
552.68	86.60
552.84	107.66
553.01	95.96
553.18	70.22
553.34	112.35
553.51	65.54
553.67	86.60
553.84	107.66
554.01	67.88
554.17	191.92
554.34	65.54
554.51	49.15
554.67	88.94
554.84	72.56
555.00	65.54
555.17	93.62
555.33	93.62
555.50	67.88
555.67	100.64
555.83	58.51
556.00	88.94
556.16	42.13
556.33	100.64
556.50	100.64
556.66	102.98
556.83	121.71
556.99	63.19
557.16	121.71
557.32	35.11
557.49	56.17
557.65	119.37
557.82	56.17
557.98	98.30
558.15	51.49
558.32	105.32
558.48	110.01
558.65	117.03
558.81	119.37
558.98	98.30
559.14	70.22
559.31	168.52
559.47	9.36
559.64	16.38
559.80	70.22
559.97	56.17
560.13	79.58
560.30	182.56
560.46	86.60
560.63	56.17
560.79	0.00
560.96	159.16
561.12	126.39
561.29	117.03
561.45	95.96
561.61	112.35
561.78	119.37
561.94	114.69
562.11	105.32
562.27	56.17
562.44	79.58
562.60	74.90
562.77	74.90
562.93	133.41
563.10	117.03
563.26	135.75
563.42	84.26
563.59	124.05
563.75	84.26
563.92	102.98
564.08	91.28
564.24	124.05
564.41	107.66
564.57	49.15
564.74	79.58
564.90	70.22
565.07	9.36
565.23	53.83
565.39	107.66
565.56	0.00
565.72	149.79
565.88	152.13
566.05	46.81
566.21	21.06
566.38	0.00
566.54	46.81
566.70	203.63
566.87	86.60
567.03	56.17
567.19	53.83
567.36	119.37
567.52	67.88
567.68	128.73
567.85	63.19
568.01	149.79
568.17	18.72
568.34	23.41
568.50	100.64
568.66	86.60
568.83	126.39
568.99	86.60
569.15	154.48
569.32	102.98
569.48	124.05
569.64	37.45
569.81	56.17
569.97	112.35
570.13	56.17
570.30	49.15
570.46	65.54
570.62	131.07
570.78	133.41
570.95	124.05
571.11	77.24
571.27	63.19
571.43	7.02
571.60	42.13
571.76	0.00
571.92	112.35
572.09	74.90
572.25	21.06
572.41	14.04
572.57	133.41
572.74	21.06
572.90	102.98
573.06	63.19
573.22	49.15
573.38	63.19
573.55	42.13
573.71	142.77
573.87	49.15
574.03	81.92
574.20	138.09
574.36	65.54
574.52	21.06
574.68	86.60
574.84	67.88
575.01	112.35
575.17	91.28
575.33	98.30
575.49	44.47
575.65	81.92
575.82	100.64
575.98	86.60
576.14	124.05
576.30	58.51
576.46	88.94
576.62	98.30
576.79	124.05
576.95	112.35
577.11	0.00
577.27	88.94
577.43	110.01
577.59	4.68
577.75	126.39
577.92	126.39
578.08	46.81
578.24	77.24
578.40	58.51
578.56	84.26
578.72	105.32
578.88	74.90
579.04	86.60
579.21	138.09
579.37	107.66
579.53	30.43
579.69	7.02
579.85	77.24
580.01	140.43
580.17	102.98
580.33	117.03
580.49	44.47
580.65	117.03
580.82	93.62
580.98	91.28
581.14	37.45
581.30	53.83
581.46	14.04
581.62	88.94
581.78	63.19
581.94	60.85
582.10	44.47
582.26	105.32
582.42	119.37
582.58	128.73
582.74	53.83
582.90	74.90
583.06	131.07
583.22	93.62
583.38	56.17
583.54	84.26
583.70	105.32
583.86	128.73
584.02	67.88
584.18	112.35
584.34	32.77
584.50	67.88
584.66	37.45
584.82	58.51
584.98	79.58
585.14	72.56
585.30	46.81
585.46	63.19
585.62	70.22
585.78	121.71
585.94	88.94
586.10	42.13
586.26	84.26
586.42	77.24
586.58	63.19
586.74	105.32
586.90	42.13
587.06	149.79
587.22	93.62
587.38	70.22
587.54	84.26
587.70	56.17
587.86	37.45
588.02	72.56
588.18	42.13
588.34	0.00
588.49	51.49
588.65	72.56
588.81	42.13
588.97	51.49
589.13	77.24
589.29	70.22
589.45	67.88
589.61	100.64
589.77	72.56
589.93	81.92
590.08	149.79
590.24	88.94
590.40	67.88
590.56	35.11
590.72	42.13
590.88	67.88
591.04	107.66
591.20	51.49
591.35	110.01
591.51	42.13
591.67	102.98
591.83	58.51
591.99	152.13
592.15	152.13
592.31	110.01
592.46	46.81
592.62	23.41
592.78	93.62
592.94	93.62
593.10	72.56
593.26	42.13
593.41	53.83
593.57	81.92
593.73	49.15
593.89	53.83
594.05	46.81
594.20	42.13
594.36	128.73
594.52	70.22
594.68	25.75
594.84	28.09
594.99	95.96
595.15	117.03
595.31	65.54
595.47	46.81
595.62	63.19
595.78	88.94
595.94	44.47
596.10	18.72
596.25	7.02
596.41	81.92
596.57	124.05
596.73	58.51
596.88	86.60
597.04	112.35
597.20	81.92
597.36	37.45
597.51	114.69
597.67	21.06
597.83	60.85
597.99	74.90
598.14	65.54
598.30	131.07
598.46	49.15
598.61	77.24
598.77	32.77
598.93	110.01
599.09	88.94
599.24	58.51
599.40	65.54
599.56	35.11
599.71	149.79
599.87	74.90
600.03	131.07
600.18	117.03
600.34	37.45
600.50	126.39
600.65	81.92
600.81	117.03
600.97	77.24
601.12	86.60
601.28	81.92
601.44	77.24
601.59	65.54
601.75	60.85
601.91	112.35
602.06	53.83
602.22	58.51
602.37	60.85
602.53	84.26
602.69	77.24
602.84	88.94
603.00	9.36
603.16	0.00
603.31	53.83
603.47	86.60
603.62	112.35
603.78	42.13
603.94	42.13
604.09	102.98
604.25	79.58
604.40	60.85
604.56	93.62
604.71	58.51
604.87	124.05
605.03	105.32
605.18	74.90
605.34	60.85
605.49	56.17
605.65	35.11
605.80	128.73
605.96	46.81
606.12	107.66
606.27	42.13
606.43	91.28
606.58	28.09
606.74	63.19
606.89	60.85
607.05	91.28
607.20	44.47
607.36	93.62
607.51	79.58
607.67	63.19
607.82	84.26
607.98	91.28
608.13	145.11
608.29	51.49
608.44	91.28
608.60	88.94
608.75	91.28
608.91	84.26
609.06	25.75
609.22	51.49
609.37	42.13
609.53	124.05
609.68	88.94
609.84	65.54
609.99	23.41
610.15	60.85
610.30	91.28
610.46	60.85
610.61	30.43
610.76	21.06
610.92	65.54
611.07	21.06
611.23	63.19
611.38	110.01
611.54	30.43
611.69	18.72
611.84	124.05
612.00	25.75
612.15	42.13
612.31	39.79
612.46	77.24
612.62	0.00
612.77	98.30
612.92	32.77
613.08	175.54
613.23	112.35
613.39	21.06
613.54	77.24
613.69	65.54
613.85	67.88
614.00	56.17
614.15	79.58
614.31	39.79
614.46	60.85
614.62	100.64
614.77	42.13
614.92	70.22
615.08	105.32
615.23	74.90
615.38	60.85
615.54	28.09
615.69	142.77
615.84	72.56
616.00	63.19
616.15	56.17
616.30	105.32
616.46	21.06
616.61	107.66
616.76	0.00
616.92	114.69
617.07	70.22
617.22	53.83
617.37	46.81
617.53	51.49
617.68	65.54
617.83	16.38
617.99	7.02
618.14	112.35
618.29	79.58
618.45	138.09
618.60	121.71
618.75	14.04
618.90	70.22
619.06	46.81
619.21	44.47
619.36	126.39
619.51	105.32
619.67	60.85
619.82	100.64
619.97	60.85
620.12	154.48
620.28	67.88
620.43	84.26
620.58	53.83
620.73	32.77
620.89	23.41
621.04	56.17
621.19	107.66
621.34	44.47
621.49	32.77
621.65	72.56
621.80	0.00
621.95	4.68
622.10	0.00
622.25	7.02
622.41	53.83
622.56	67.88
622.71	18.72
622.86	58.51
623.01	53.83
623.16	44.47
623.32	81.92
623.47	79.58
623.62	49.15
623.77	154.48
623.92	35.11
624.07	46.81
624.23	14.04
624.38	72.56
624.53	72.56
624.68	81.92
624.83	58.51
624.98	70.22
625.13	117.03
625.29	21.06
625.44	60.85
625.59	46.81
625.74	0.00
625.89	58.51
626.04	60.85
626.19	30.43
626.34	105.32
626.49	60.85
626.65	32.77
626.80	67.88
626.95	72.56
627.10	44.47
627.25	70.22
627.40	72.56
627.55	74.90
627.70	84.26
627.85	32.77
628.00	77.24
628.15	2.34
628.30	46.81
628.45	18.72
628.60	35.11
628.76	70.22
628.91	53.83
629.06	37.45
629.21	0.00
629.36	70.22
629.51	110.01
629.66	67.88
629.81	93.62
629.96	91.28
630.11	117.03
630.26	21.06
630.41	49.15
630.56	74.90
630.71	81.92
630.86	81.92
631.01	14.04
631.16	102.98
631.31	51.49
631.46	79.58
631.61	86.60
631.76	9.36
631.91	14.04
632.06	154.48
632.21	74.90
632.36	37.45
632.51	35.11
632.66	152.13
632.81	121.71
632.96	18.72
633.10	98.30
633.25	95.96
633.40	72.56
633.55	74.90
633.70	53.83
633.85	77.24
634.00	51.49
634.15	53.83
634.30	35.11
634.45	32.77
634.60	14.04
634.75	51.49
634.90	0.00
635.05	91.28
635.19	81.92
635.34	77.24
635.49	16.38
635.64	56.17
635.79	53.83
635.94	65.54
636.09	51.49
636.24	105.32
636.39	32.77
636.53	107.66
636.68	65.54
636.83	28.09
636.98	105.32
637.13	65.54
637.28	30.43
637.43	49.15
637.57	107.66
637.72	35.11
637.87	46.81
638.02	138.09
638.17	74.90
638.32	58.51
638.46	51.49
638.61	21.06
638.76	42.13
638.91	2.34
639.06	44.47
639.20	74.90
639.35	23.41
639.50	65.54
639.65	28.09
639.80	100.64
639.94	67.88
640.09	98.30
640.24	110.01
640.39	56.17
640.54	86.60
640.68	65.54
640.83	32.77
640.98	32.77
641.13	51.49
641.27	53.83
641.42	56.17
641.57	74.90
641.72	131.07
641.86	46.81
642.01	77.24
642.16	49.15
642.31	95.96
642.45	86.60
642.60	37.45
642.75	65.54
642.90	56.17
643.04	67.88
643.19	44.47
643.34	46.81
643.48	53.83
643.63	102.98
643.78	100.64
643.93	72.56
644.07	63.19
644.22	114.69
644.37	18.72
644.51	42.13
644.66	30.43
644.81	81.92
644.95	63.19
645.10	65.54
645.25	119.37
645.39	112.35
645.54	35.11
645.69	30.43
645.83	0.00
645.98	91.28
646.13	42.13
646.27	56.17
646.42	23.41
646.57	9.36
646.71	11.70
646.86	60.85
647.00	42.13
647.15	9.36
647.30	18.72
647.44	95.96
647.59	88.94
647.74	9.36
647.88	67.88
648.03	56.17
648.17	63.19
648.32	4.68
648.47	67.88
648.61	30.43
648.76	23.41
648.90	114.69
649.05	70.22
649.20	58.51
649.34	0.00
649.49	51.49
649.63	88.94
649.78	53.83
649.92	35.11
650.07	39.79
650.21	74.90
650.36	65.54
650.51	49.15
650.65	0.00
650.80	23.41
650.94	84.26
651.09	91.28
651.23	49.15
651.38	49.15
651.52	60.85
651.67	124.05
651.81	91.28
651.96	86.60
652.10	98.30
652.25	11.70
652.39	49.15
652.54	28.09
652.68	30.43
652.83	42.13
652.97	21.06
653.12	60.85
653.26	60.85
653.41	0.00
653.55	0.00
653.70	107.66
653.84	46.81
653.99	117.03
654.13	63.19
654.27	74.90
654.42	32.77
654.56	56.17
654.71	112.35
654.85	9.36
655.00	0.00
655.14	77.24
655.29	58.51
655.43	42.13
655.57	25.75
655.72	18.72
655.86	88.94
656.01	37.45
656.15	39.79
656.30	44.47
656.44	0.00
656.58	28.09
656.73	9.36
656.87	16.38
657.01	60.85
657.16	110.01
657.30	100.64
657.45	100.64
657.59	37.45
657.73	63.19
657.88	65.54
658.02	51.49
658.16	56.17
658.31	16.38
658.45	21.06
658.60	112.35
658.74	79.58
658.88	0.00
659.03	32.77
659.17	28.09
659.31	7.02
659.46	58.51
659.60	88.94
659.74	79.58
659.89	2.34
660.03	117.03
660.17	58.51
660.32	11.70
660.46	60.85
660.60	70.22
660.74	11.70
660.89	44.47
661.03	58.51
661.17	32.77
661.32	7.02
661.46	28.09
661.60	0.00
661.74	44.47
661.89	49.15
662.03	79.58
662.17	46.81
662.31	58.51
662.46	0.00
662.60	60.85
662.74	35.11
662.88	53.83
663.03	23.41
663.17	60.85
663.31	0.00
663.45	70.22
663.60	25.75
663.74	16.38
663.88	67.88
664.02	39.79
664.17	0.00
664.31	79.58
664.45	79.58
664.59	65.54
664.73	35.11
664.88	0.00
665.02	67.88
665.16	42.13
665.30	46.81
665.44	23.41
665.59	18.72
665.73	124.05
665.87	79.58
666.01	60.85
666.15	107.66
666.29	70.22
666.44	25.75
666.58	65.54
666.72	46.81
666.86	56.17
667.00	35.11
667.14	65.54
667.28	4.68
667.43	0.00
667.57	95.96
667.71	86.60
667.85	100.64
667.99	131.07
668.13	37.45
668.27	84.26
668.41	44.47
668.56	98.30
668.70	23.41
668.84	0.00
668.98	86.60
669.12	88.94
669.26	65.54
669.40	35.11
669.54	11.70
669.68	25.75
669.82	4.68
669.96	56.17
670.10	105.32
670.25	32.77
670.39	37.45
670.53	35.11
670.67	91.28
670.81	35.11
670.95	18.72
671.09	98.30
671.23	114.69
671.37	51.49
671.51	46.81
671.65	11.70
671.79	98.30
671.93	110.01
672.07	84.26
672.21	60.85
672.35	58.51
672.49	53.83
672.63	84.26
672.77	110.01
672.91	49.15
673.05	72.56
673.19	51.49
673.33	42.13
673.47	70.22
673.61	4.68
673.75	65.54
673.89	7.02
674.03	35.11
674.17	11.70
674.31	35.11
674.45	0.00
674.59	39.79
674.73	23.41
674.87	0.00
675.01	37.45
675.15	16.38
675.29	58.51
675.43	49.15
675.56	0.00
675.70	112.35
675.84	51.49
675.98	77.24
676.12	18.72
676.26	65.54
676.40	2.34
676.54	14.04
676.68	88.94
676.82	70.22
676.96	65.54
677.10	95.96
677.23	74.90
677.37	32.77
677.51	81.92
677.65	60.85
677.79	117.03
677.93	98.30
678.07	9.36
678.21	58.51
678.34	51.49
678.48	53.83
678.62	65.54
678.76	49.15
678.90	98.30
679.04	60.85
679.18	0.00
679.31	28.09
679.45	25.75
679.59	37.45
679.73	0.00
679.87	49.15
680.00	23.41
680.14	95.96
680.28	30.43
680.42	51.49
680.56	39.79
680.70	0.00
680.83	67.88
680.97	28.09
681.11	88.94
681.25	18.72
681.39	93.62
681.52	84.26
681.66	0.00
681.80	42.13
681.94	4.68
682.07	81.92
682.21	23.41
682.35	65.54
682.49	14.04
682.62	65.54
682.76	72.56
682.90	53.83
683.04	16.38
683.17	39.79
683.31	0.00
683.45	28.09
683.59	74.90
683.72	23.41
683.86	44.47
684.00	72.56
684.13	53.83
684.27	39.79
684.41	91.28
684.55	4.68
684.68	0.00
684.82	98.30
684.96	65.54
685.09	18.72
685.23	74.90
685.37	7.02
685.50	0.00
685.64	18.72
685.78	35.11
685.91	21.06
686.05	93.62
686.19	58.51
686.32	0.00
686.46	56.17
686.60	72.56
686.73	91.28
686.87	74.90
687.01	53.83
687.14	0.00
687.28	46.81
687.42	63.19
687.55	42.13
687.69	0.00
687.82	0.00
687.96	0.00
688.10	56.17
688.23	0.00
688.37	74.90
688.50	37.45
688.64	32.77
688.78	37.45
688.91	0.00
689.05	60.85
689.18	0.00
689.32	56.17
689.46	35.11
689.59	70.22
689.73	0.00
689.86	0.00
690.00	37.45
690.13	2.34
690.27	58.51
690.41	16.38
690.54	32.77
690.68	58.51
690.81	81.92
690.95	0.00
691.08	168.52
691.22	37.45
691.35	131.07
691.49	110.01
691.62	25.75
691.76	2.34
691.89	23.41
692.03	81.92
692.16	72.56
692.30	56.17
692.43	95.96
692.57	4.68
692.70	25.75
692.84	65.54
692.97	35.11
693.11	4.68
693.24	79.58
693.38	70.22
693.51	0.00
693.65	74.90
693.78	51.49
693.92	86.60
694.05	46.81
694.19	81.92
694.32	0.00
694.45	7.02
694.59	14.04
694.72	14.04
694.86	21.06
694.99	35.11
695.13	0.00
695.26	65.54
695.39	0.00
695.53	28.09
695.66	46.81
695.80	44.47
695.93	14.04
696.07	77.24
696.20	14.04
696.33	0.00
696.47	0.00
696.60	37.45
696.73	11.70
696.87	58.51
697.00	135.75
697.14	79.58
697.27	32.77
697.40	117.03
697.54	0.00
697.67	39.79
697.80	63.19
697.94	135.75
698.07	91.28
698.21	58.51
698.34	110.01
698.47	53.83
698.61	51.49
698.74	51.49
698.87	32.77
699.01	0.00
699.14	9.36
699.27	60.85
699.40	51.49
699.54	74.90
699.67	18.72
699.80	0.00
699.94	39.79
700.07	53.83
700.20	0.00
700.34	7.02
700.47	0.00
700.60	16.38
700.73	0.00
700.87	37.45
701.00	44.47
701.13	58.51
701.26	23.41
701.40	35.11
701.53	53.83
701.66	51.49
701.79	0.00
701.93	4.68
702.06	0.00
702.19	0.00
702.32	49.15
702.46	2.34
702.59	35.11
702.72	39.79
702.85	7.02
702.99	42.13
703.12	42.13
703.25	51.49
703.38	21.06
703.51	100.64
703.65	0.00
703.78	98.30
703.91	0.00
704.04	44.47
704.17	98.30
704.31	95.96
704.44	28.09
704.57	11.70
704.70	46.81
704.83	25.75
704.96	39.79
705.10	0.00
705.23	2.34
>>>>>End Processed Spectral Data<<<<<
