SpectraSuite Data File
++++++++++++++++++++++++++++++++++++
Date: Fri Oct 04 12:13:40 GMT-05:00 2013
User: price-jones
Dark Spectrum Present: No
Reference Spectrum Present: No
Number of Sampled Component Spectra: 1
Spectrometers: USB2+H05261
Integration Time (usec): 10000 (USB2+H05261)
Spectra Averaged: 1 (USB2+H05261)
Boxcar Smoothing: 0 (USB2+H05261)
Correct for Electrical Dark: No (USB2+H05261)
Strobe/Lamp Enabled: No (USB2+H05261)
Correct for Detector Non-linearity: No (USB2+H05261)
Correct for Stray Light: No (USB2+H05261)
Number of Pixels in Processed Spectrum: 2048
>>>>>Begin Processed Spectral Data<<<<<
365.73	32.77
365.92	32.77
366.12	32.77
366.32	0.00
366.52	0.00
366.72	0.00
366.91	0.00
367.11	0.00
367.31	0.00
367.51	0.00
367.70	0.00
367.90	0.00
368.10	0.00
368.30	0.00
368.49	0.00
368.69	0.00
368.89	0.00
369.09	0.00
369.28	0.00
369.48	0.00
369.68	0.00
369.87	0.00
370.07	0.00
370.27	0.00
370.47	0.00
370.66	0.00
370.86	0.00
371.06	0.00
371.25	0.00
371.45	0.00
371.65	18.72
371.84	0.00
372.04	25.75
372.24	0.00
372.44	18.72
372.63	0.00
372.83	32.77
373.03	37.45
373.22	0.00
373.42	14.04
373.62	11.70
373.81	46.81
374.01	63.19
374.21	84.26
374.40	74.90
374.60	39.79
374.79	84.26
374.99	58.51
375.19	0.00
375.38	0.00
375.58	4.68
375.78	0.00
375.97	0.00
376.17	49.15
376.37	44.47
376.56	21.06
376.76	86.60
376.95	95.96
377.15	0.00
377.35	16.38
377.54	14.04
377.74	0.00
377.93	0.00
378.13	0.00
378.33	7.02
378.52	35.11
378.72	0.00
378.91	7.02
379.11	86.60
379.31	58.51
379.50	0.00
379.70	56.17
379.89	0.00
380.09	4.68
380.28	60.85
380.48	39.79
380.68	0.00
380.87	0.00
381.07	81.92
381.26	49.15
381.46	32.77
381.65	21.06
381.85	0.00
382.04	14.04
382.24	23.41
382.43	2.34
382.63	11.70
382.83	7.02
383.02	53.83
383.22	0.00
383.41	9.36
383.61	0.00
383.80	0.00
384.00	72.56
384.19	28.09
384.39	11.70
384.58	53.83
384.78	9.36
384.97	0.00
385.17	37.45
385.36	18.72
385.56	9.36
385.75	32.77
385.95	0.00
386.14	37.45
386.34	81.92
386.53	81.92
386.72	25.75
386.92	37.45
387.11	9.36
387.31	0.00
387.50	4.68
387.70	7.02
387.89	58.51
388.09	0.00
388.28	0.00
388.48	11.70
388.67	11.70
388.86	9.36
389.06	46.81
389.25	0.00
389.45	37.45
389.64	25.75
389.84	9.36
390.03	63.19
390.22	14.04
390.42	11.70
390.61	0.00
390.81	37.45
391.00	74.90
391.19	0.00
391.39	28.09
391.58	0.00
391.78	35.11
391.97	0.00
392.16	30.43
392.36	9.36
392.55	0.00
392.75	44.47
392.94	51.49
393.13	21.06
393.33	18.72
393.52	0.00
393.71	65.54
393.91	0.00
394.10	32.77
394.29	88.94
394.49	0.00
394.68	14.04
394.88	2.34
395.07	25.75
395.26	32.77
395.46	35.11
395.65	84.26
395.84	32.77
396.04	46.81
396.23	0.00
396.42	0.00
396.62	60.85
396.81	88.94
397.00	49.15
397.19	16.38
397.39	25.75
397.58	70.22
397.77	7.02
397.97	44.47
398.16	0.00
398.35	0.00
398.55	35.11
398.74	0.00
398.93	51.49
399.12	42.13
399.32	42.13
399.51	77.24
399.70	0.00
399.90	0.00
400.09	9.36
400.28	102.98
400.47	35.11
400.67	0.00
400.86	0.00
401.05	39.79
401.24	0.00
401.44	72.56
401.63	16.38
401.82	49.15
402.01	37.45
402.21	9.36
402.40	37.45
402.59	0.00
402.78	18.72
402.97	100.64
403.17	39.79
403.36	7.02
403.55	49.15
403.74	0.00
403.93	0.00
404.13	0.00
404.32	30.43
404.51	81.92
404.70	39.79
404.89	7.02
405.09	0.00
405.28	79.58
405.47	18.72
405.66	2.34
405.85	28.09
406.05	74.90
406.24	0.00
406.43	0.00
406.62	0.00
406.81	0.00
407.00	42.13
407.20	74.90
407.39	35.11
407.58	28.09
407.77	65.54
407.96	9.36
408.15	0.00
408.34	0.00
408.54	11.70
408.73	0.00
408.92	46.81
409.11	32.77
409.30	72.56
409.49	58.51
409.68	14.04
409.87	0.00
410.07	21.06
410.26	9.36
410.45	42.13
410.64	39.79
410.83	86.60
411.02	0.00
411.21	0.00
411.40	58.51
411.59	37.45
411.78	9.36
411.98	63.19
412.17	0.00
412.36	21.06
412.55	46.81
412.74	0.00
412.93	60.85
413.12	63.19
413.31	0.00
413.50	44.47
413.69	30.43
413.88	7.02
414.07	25.75
414.26	67.88
414.45	32.77
414.64	0.00
414.83	60.85
415.02	23.41
415.22	0.00
415.41	46.81
415.60	21.06
415.79	16.38
415.98	46.81
416.17	72.56
416.36	14.04
416.55	4.68
416.74	11.70
416.93	18.72
417.12	0.00
417.31	53.83
417.50	46.81
417.69	74.90
417.88	44.47
418.07	102.98
418.26	91.28
418.45	39.79
418.64	0.00
418.83	0.00
419.02	51.49
419.21	35.11
419.39	56.17
419.58	21.06
419.77	98.30
419.96	25.75
420.15	32.77
420.34	35.11
420.53	16.38
420.72	84.26
420.91	0.00
421.10	46.81
421.29	77.24
421.48	35.11
421.67	18.72
421.86	23.41
422.05	25.75
422.24	84.26
422.43	84.26
422.61	39.79
422.80	131.07
422.99	58.51
423.18	7.02
423.37	4.68
423.56	72.56
423.75	56.17
423.94	88.94
424.13	95.96
424.32	7.02
424.50	77.24
424.69	7.02
424.88	46.81
425.07	21.06
425.26	25.75
425.45	98.30
425.64	0.00
425.83	7.02
426.01	0.00
426.20	30.43
426.39	37.45
426.58	30.43
426.77	0.00
426.96	44.47
427.15	11.70
427.33	4.68
427.52	91.28
427.71	0.00
427.90	60.85
428.09	72.56
428.28	86.60
428.46	42.13
428.65	23.41
428.84	0.00
429.03	51.49
429.22	23.41
429.40	4.68
429.59	25.75
429.78	53.83
429.97	63.19
430.16	42.13
430.34	28.09
430.53	35.11
430.72	11.70
430.91	79.58
431.10	93.62
431.28	51.49
431.47	58.51
431.66	9.36
431.85	84.26
432.03	77.24
432.22	46.81
432.41	79.58
432.60	72.56
432.79	93.62
432.97	25.75
433.16	0.00
433.35	53.83
433.54	23.41
433.72	0.00
433.91	70.22
434.10	84.26
434.28	107.66
434.47	42.13
434.66	77.24
434.85	60.85
435.03	98.30
435.22	79.58
435.41	74.90
435.59	0.00
435.78	35.11
435.97	58.51
436.16	0.00
436.34	110.01
436.53	70.22
436.72	98.30
436.90	28.09
437.09	9.36
437.28	60.85
437.46	37.45
437.65	91.28
437.84	67.88
438.02	65.54
438.21	53.83
438.40	14.04
438.58	49.15
438.77	58.51
438.96	67.88
439.14	0.00
439.33	102.98
439.52	0.00
439.70	124.05
439.89	53.83
440.08	25.75
440.26	18.72
440.45	0.00
440.63	37.45
440.82	72.56
441.01	39.79
441.19	49.15
441.38	86.60
441.57	51.49
441.75	56.17
441.94	65.54
442.12	51.49
442.31	58.51
442.50	60.85
442.68	4.68
442.87	126.39
443.05	0.00
443.24	44.47
443.43	56.17
443.61	16.38
443.80	84.26
443.98	95.96
444.17	112.35
444.35	145.11
444.54	49.15
444.73	28.09
444.91	28.09
445.10	49.15
445.28	23.41
445.47	140.43
445.65	21.06
445.84	9.36
446.02	11.70
446.21	93.62
446.39	72.56
446.58	25.75
446.77	18.72
446.95	51.49
447.14	60.85
447.32	32.77
447.51	39.79
447.69	32.77
447.88	46.81
448.06	14.04
448.25	74.90
448.43	4.68
448.62	7.02
448.80	49.15
448.99	58.51
449.17	51.49
449.36	0.00
449.54	9.36
449.73	21.06
449.91	46.81
450.10	4.68
450.28	74.90
450.46	70.22
450.65	88.94
450.83	23.41
451.02	84.26
451.20	18.72
451.39	102.98
451.57	74.90
451.76	72.56
451.94	100.64
452.13	93.62
452.31	0.00
452.49	131.07
452.68	0.00
452.86	135.75
453.05	84.26
453.23	9.36
453.42	35.11
453.60	0.00
453.78	100.64
453.97	42.13
454.15	44.47
454.34	18.72
454.52	93.62
454.70	81.92
454.89	105.32
455.07	65.54
455.26	51.49
455.44	16.38
455.62	32.77
455.81	16.38
455.99	2.34
456.17	0.00
456.36	53.83
456.54	42.13
456.73	7.02
456.91	65.54
457.09	0.00
457.28	7.02
457.46	79.58
457.64	102.98
457.83	0.00
458.01	30.43
458.19	81.92
458.38	0.00
458.56	67.88
458.74	53.83
458.93	63.19
459.11	53.83
459.29	110.01
459.48	65.54
459.66	42.13
459.84	51.49
460.03	67.88
460.21	105.32
460.39	72.56
460.57	53.83
460.76	65.54
460.94	65.54
461.12	23.41
461.31	98.30
461.49	74.90
461.67	46.81
461.85	100.64
462.04	7.02
462.22	46.81
462.40	37.45
462.59	42.13
462.77	60.85
462.95	102.98
463.13	70.22
463.32	95.96
463.50	84.26
463.68	88.94
463.86	77.24
464.05	7.02
464.23	39.79
464.41	44.47
464.59	56.17
464.78	49.15
464.96	105.32
465.14	95.96
465.32	102.98
465.50	60.85
465.69	107.66
465.87	0.00
466.05	112.35
466.23	156.82
466.41	145.11
466.60	0.00
466.78	35.11
466.96	25.75
467.14	53.83
467.32	84.26
467.51	140.43
467.69	63.19
467.87	0.00
468.05	11.70
468.23	14.04
468.41	95.96
468.60	46.81
468.78	67.88
468.96	18.72
469.14	131.07
469.32	88.94
469.50	14.04
469.69	51.49
469.87	35.11
470.05	35.11
470.23	49.15
470.41	74.90
470.59	16.38
470.77	39.79
470.95	44.47
471.14	142.77
471.32	4.68
471.50	133.41
471.68	35.11
471.86	42.13
472.04	56.17
472.22	84.26
472.40	9.36
472.58	21.06
472.77	74.90
472.95	0.00
473.13	65.54
473.31	21.06
473.49	93.62
473.67	39.79
473.85	42.13
474.03	105.32
474.21	88.94
474.39	39.79
474.57	39.79
474.75	142.77
474.93	110.01
475.12	16.38
475.30	21.06
475.48	74.90
475.66	46.81
475.84	58.51
476.02	30.43
476.20	84.26
476.38	0.00
476.56	86.60
476.74	56.17
476.92	28.09
477.10	105.32
477.28	35.11
477.46	35.11
477.64	91.28
477.82	49.15
478.00	18.72
478.18	58.51
478.36	51.49
478.54	86.60
478.72	32.77
478.90	79.58
479.08	63.19
479.26	37.45
479.44	28.09
479.62	9.36
479.80	102.98
479.98	0.00
480.16	42.13
480.34	72.56
480.52	35.11
480.70	81.92
480.88	98.30
481.06	142.77
481.24	60.85
481.41	70.22
481.59	119.37
481.77	91.28
481.95	46.81
482.13	16.38
482.31	37.45
482.49	56.17
482.67	37.45
482.85	0.00
483.03	74.90
483.21	124.05
483.39	107.66
483.57	63.19
483.74	51.49
483.92	74.90
484.10	91.28
484.28	79.58
484.46	105.32
484.64	65.54
484.82	49.15
485.00	58.51
485.18	0.00
485.35	63.19
485.53	49.15
485.71	30.43
485.89	32.77
486.07	25.75
486.25	79.58
486.43	51.49
486.61	44.47
486.78	79.58
486.96	21.06
487.14	18.72
487.32	35.11
487.50	46.81
487.68	58.51
487.85	53.83
488.03	119.37
488.21	18.72
488.39	60.85
488.57	67.88
488.75	0.00
488.92	95.96
489.10	114.69
489.28	77.24
489.46	95.96
489.64	88.94
489.81	28.09
489.99	79.58
490.17	63.19
490.35	67.88
490.53	25.75
490.70	70.22
490.88	128.73
491.06	65.54
491.24	53.83
491.41	88.94
491.59	114.69
491.77	49.15
491.95	79.58
492.13	138.09
492.30	154.48
492.48	135.75
492.66	44.47
492.84	100.64
493.01	135.75
493.19	95.96
493.37	86.60
493.54	121.71
493.72	128.73
493.90	95.96
494.08	28.09
494.25	84.26
494.43	16.38
494.61	124.05
494.79	91.28
494.96	67.88
495.14	65.54
495.32	0.00
495.49	9.36
495.67	39.79
495.85	14.04
496.02	98.30
496.20	58.51
496.38	81.92
496.55	30.43
496.73	100.64
496.91	77.24
497.09	51.49
497.26	98.30
497.44	112.35
497.62	159.16
497.79	37.45
497.97	2.34
498.14	44.47
498.32	77.24
498.50	107.66
498.67	126.39
498.85	121.71
499.03	67.88
499.20	72.56
499.38	100.64
499.56	114.69
499.73	51.49
499.91	81.92
500.08	32.77
500.26	42.13
500.44	23.41
500.61	100.64
500.79	67.88
500.97	63.19
501.14	39.79
501.32	39.79
501.49	79.58
501.67	110.01
501.84	14.04
502.02	84.26
502.20	67.88
502.37	135.75
502.55	105.32
502.72	42.13
502.90	46.81
503.07	30.43
503.25	88.94
503.43	98.30
503.60	86.60
503.78	140.43
503.95	72.56
504.13	18.72
504.30	39.79
504.48	93.62
504.65	124.05
504.83	114.69
505.01	121.71
505.18	95.96
505.36	105.32
505.53	98.30
505.71	70.22
505.88	91.28
506.06	86.60
506.23	124.05
506.41	58.51
506.58	72.56
506.76	88.94
506.93	42.13
507.11	156.82
507.28	65.54
507.46	112.35
507.63	74.90
507.81	88.94
507.98	58.51
508.16	32.77
508.33	102.98
508.50	74.90
508.68	152.13
508.85	0.00
509.03	126.39
509.20	56.17
509.38	84.26
509.55	56.17
509.73	58.51
509.90	107.66
510.08	72.56
510.25	107.66
510.42	112.35
510.60	28.09
510.77	72.56
510.95	28.09
511.12	152.13
511.30	46.81
511.47	112.35
511.64	65.54
511.82	72.56
511.99	142.77
512.17	145.11
512.34	74.90
512.51	4.68
512.69	81.92
512.86	93.62
513.04	14.04
513.21	72.56
513.38	58.51
513.56	23.41
513.73	81.92
513.90	142.77
514.08	58.51
514.25	72.56
514.43	154.48
514.60	35.11
514.77	42.13
514.95	63.19
515.12	79.58
515.29	88.94
515.47	9.36
515.64	81.92
515.81	51.49
515.99	117.03
516.16	88.94
516.33	156.82
516.51	98.30
516.68	105.32
516.85	72.56
517.03	65.54
517.20	49.15
517.37	102.98
517.54	131.07
517.72	37.45
517.89	79.58
518.06	126.39
518.24	107.66
518.41	63.19
518.58	51.49
518.75	51.49
518.93	37.45
519.10	63.19
519.27	117.03
519.45	119.37
519.62	126.39
519.79	79.58
519.96	133.41
520.14	88.94
520.31	133.41
520.48	63.19
520.65	77.24
520.83	102.98
521.00	58.51
521.17	100.64
521.34	67.88
521.52	91.28
521.69	117.03
521.86	67.88
522.03	53.83
522.20	42.13
522.38	98.30
522.55	117.03
522.72	110.01
522.89	88.94
523.07	117.03
523.24	110.01
523.41	0.00
523.58	74.90
523.75	21.06
523.92	110.01
524.10	18.72
524.27	88.94
524.44	72.56
524.61	124.05
524.78	95.96
524.96	77.24
525.13	53.83
525.30	145.11
525.47	79.58
525.64	170.86
525.81	16.38
525.98	46.81
526.16	56.17
526.33	32.77
526.50	86.60
526.67	95.96
526.84	100.64
527.01	46.81
527.18	74.90
527.36	39.79
527.53	114.69
527.70	72.56
527.87	74.90
528.04	25.75
528.21	32.77
528.38	30.43
528.55	170.86
528.72	140.43
528.89	107.66
529.07	0.00
529.24	133.41
529.41	105.32
529.58	49.15
529.75	65.54
529.92	98.30
530.09	156.82
530.26	100.64
530.43	93.62
530.60	105.32
530.77	124.05
530.94	84.26
531.11	60.85
531.28	133.41
531.46	91.28
531.63	42.13
531.80	98.30
531.97	119.37
532.14	133.41
532.31	121.71
532.48	112.35
532.65	79.58
532.82	93.62
532.99	21.06
533.16	32.77
533.33	114.69
533.50	110.01
533.67	30.43
533.84	72.56
534.01	79.58
534.18	65.54
534.35	93.62
534.52	42.13
534.69	79.58
534.86	70.22
535.03	100.64
535.20	51.49
535.37	81.92
535.54	102.98
535.71	95.96
535.88	135.75
536.05	53.83
536.22	72.56
536.38	51.49
536.55	70.22
536.72	126.39
536.89	79.58
537.06	135.75
537.23	65.54
537.40	0.00
537.57	16.38
537.74	30.43
537.91	126.39
538.08	67.88
538.25	63.19
538.42	131.07
538.59	131.07
538.75	28.09
538.92	159.16
539.09	65.54
539.26	102.98
539.43	119.37
539.60	72.56
539.77	58.51
539.94	42.13
540.11	44.47
540.28	58.51
540.44	44.47
540.61	37.45
540.78	32.77
540.95	74.90
541.12	175.54
541.29	119.37
541.46	88.94
541.62	88.94
541.79	72.56
541.96	58.51
542.13	81.92
542.30	11.70
542.47	74.90
542.63	79.58
542.80	16.38
542.97	88.94
543.14	86.60
543.31	56.17
543.48	77.24
543.64	91.28
543.81	60.85
543.98	53.83
544.15	84.26
544.32	142.77
544.48	77.24
544.65	98.30
544.82	79.58
544.99	60.85
545.16	114.69
545.32	88.94
545.49	93.62
545.66	39.79
545.83	98.30
546.00	91.28
546.16	79.58
546.33	53.83
546.50	93.62
546.67	114.69
546.83	74.90
547.00	9.36
547.17	119.37
547.34	65.54
547.50	35.11
547.67	126.39
547.84	98.30
548.00	74.90
548.17	56.17
548.34	81.92
548.51	147.45
548.67	84.26
548.84	65.54
549.01	74.90
549.18	51.49
549.34	86.60
549.51	117.03
549.68	88.94
549.84	84.26
550.01	77.24
550.18	147.45
550.34	58.51
550.51	67.88
550.68	65.54
550.84	145.11
551.01	114.69
551.18	77.24
551.34	126.39
551.51	135.75
551.68	79.58
551.84	98.30
552.01	86.60
552.18	145.11
552.34	119.37
552.51	49.15
552.68	84.26
552.84	56.17
553.01	175.54
553.18	56.17
553.34	93.62
553.51	107.66
553.67	114.69
553.84	95.96
554.01	121.71
554.17	81.92
554.34	102.98
554.51	65.54
554.67	112.35
554.84	37.45
555.00	63.19
555.17	32.77
555.33	124.05
555.50	56.17
555.67	86.60
555.83	145.11
556.00	77.24
556.16	60.85
556.33	53.83
556.50	74.90
556.66	114.69
556.83	91.28
556.99	117.03
557.16	126.39
557.32	105.32
557.49	53.83
557.65	102.98
557.82	107.66
557.98	119.37
558.15	119.37
558.32	107.66
558.48	58.51
558.65	63.19
558.81	86.60
558.98	114.69
559.14	79.58
559.31	173.20
559.47	98.30
559.64	100.64
559.80	88.94
559.97	91.28
560.13	124.05
560.30	53.83
560.46	81.92
560.63	84.26
560.79	124.05
560.96	53.83
561.12	98.30
561.29	42.13
561.45	77.24
561.61	124.05
561.78	117.03
561.94	56.17
562.11	46.81
562.27	7.02
562.44	88.94
562.60	72.56
562.77	84.26
562.93	91.28
563.10	79.58
563.26	72.56
563.42	25.75
563.59	117.03
563.75	60.85
563.92	121.71
564.08	119.37
564.24	79.58
564.41	149.79
564.57	91.28
564.74	126.39
564.90	105.32
565.07	119.37
565.23	131.07
565.39	23.41
565.56	114.69
565.72	91.28
565.88	21.06
566.05	35.11
566.21	79.58
566.38	107.66
566.54	81.92
566.70	77.24
566.87	65.54
567.03	65.54
567.19	23.41
567.36	95.96
567.52	77.24
567.68	0.00
567.85	67.88
568.01	98.30
568.17	140.43
568.34	35.11
568.50	91.28
568.66	110.01
568.83	95.96
568.99	74.90
569.15	79.58
569.32	39.79
569.48	67.88
569.64	112.35
569.81	25.75
569.97	114.69
570.13	67.88
570.30	16.38
570.46	110.01
570.62	79.58
570.78	60.85
570.95	65.54
571.11	25.75
571.27	37.45
571.43	65.54
571.60	79.58
571.76	91.28
571.92	37.45
572.09	58.51
572.25	53.83
572.41	84.26
572.57	67.88
572.74	70.22
572.90	74.90
573.06	88.94
573.22	119.37
573.38	102.98
573.55	117.03
573.71	58.51
573.87	95.96
574.03	88.94
574.20	149.79
574.36	98.30
574.52	102.98
574.68	49.15
574.84	70.22
575.01	51.49
575.17	93.62
575.33	0.00
575.49	30.43
575.65	135.75
575.82	9.36
575.98	98.30
576.14	28.09
576.30	65.54
576.46	37.45
576.62	77.24
576.79	102.98
576.95	88.94
577.11	79.58
577.27	32.77
577.43	77.24
577.59	102.98
577.75	53.83
577.92	58.51
578.08	142.77
578.24	58.51
578.40	72.56
578.56	124.05
578.72	98.30
578.88	124.05
579.04	86.60
579.21	53.83
579.37	131.07
579.53	149.79
579.69	95.96
579.85	56.17
580.01	95.96
580.17	28.09
580.33	145.11
580.49	11.70
580.65	84.26
580.82	110.01
580.98	74.90
581.14	121.71
581.30	100.64
581.46	105.32
581.62	49.15
581.78	142.77
581.94	110.01
582.10	7.02
582.26	51.49
582.42	105.32
582.58	0.00
582.74	102.98
582.90	46.81
583.06	32.77
583.22	65.54
583.38	63.19
583.54	56.17
583.70	67.88
583.86	74.90
584.02	133.41
584.18	81.92
584.34	58.51
584.50	56.17
584.66	60.85
584.82	131.07
584.98	46.81
585.14	42.13
585.30	124.05
585.46	88.94
585.62	72.56
585.78	84.26
585.94	159.16
586.10	39.79
586.26	114.69
586.42	93.62
586.58	44.47
586.74	46.81
586.90	102.98
587.06	14.04
587.22	46.81
587.38	70.22
587.54	42.13
587.70	77.24
587.86	70.22
588.02	63.19
588.18	18.72
588.34	86.60
588.49	56.17
588.65	4.68
588.81	74.90
588.97	74.90
589.13	81.92
589.29	37.45
589.45	39.79
589.61	98.30
589.77	23.41
589.93	149.79
590.08	58.51
590.24	51.49
590.40	119.37
590.56	93.62
590.72	107.66
590.88	23.41
591.04	32.77
591.20	46.81
591.35	37.45
591.51	35.11
591.67	105.32
591.83	18.72
591.99	79.58
592.15	56.17
592.31	56.17
592.46	93.62
592.62	74.90
592.78	142.77
592.94	35.11
593.10	81.92
593.26	51.49
593.41	105.32
593.57	91.28
593.73	39.79
593.89	67.88
594.05	70.22
594.20	0.00
594.36	81.92
594.52	98.30
594.68	37.45
594.84	44.47
594.99	81.92
595.15	28.09
595.31	114.69
595.47	70.22
595.62	72.56
595.78	105.32
595.94	95.96
596.10	77.24
596.25	140.43
596.41	65.54
596.57	124.05
596.73	100.64
596.88	65.54
597.04	2.34
597.20	2.34
597.36	39.79
597.51	86.60
597.67	65.54
597.83	0.00
597.99	53.83
598.14	16.38
598.30	32.77
598.46	156.82
598.61	39.79
598.77	79.58
598.93	131.07
599.09	53.83
599.24	117.03
599.40	42.13
599.56	0.00
599.71	32.77
599.87	124.05
600.03	117.03
600.18	105.32
600.34	128.73
600.50	25.75
600.65	107.66
600.81	4.68
600.97	98.30
601.12	0.00
601.28	154.48
601.44	42.13
601.59	46.81
601.75	133.41
601.91	84.26
602.06	28.09
602.22	30.43
602.37	65.54
602.53	124.05
602.69	0.00
602.84	74.90
603.00	63.19
603.16	102.98
603.31	102.98
603.47	72.56
603.62	84.26
603.78	56.17
603.94	152.13
604.09	86.60
604.25	49.15
604.40	0.00
604.56	86.60
604.71	95.96
604.87	67.88
605.03	135.75
605.18	65.54
605.34	67.88
605.49	95.96
605.65	105.32
605.80	28.09
605.96	74.90
606.12	37.45
606.27	81.92
606.43	79.58
606.58	58.51
606.74	44.47
606.89	124.05
607.05	51.49
607.20	133.41
607.36	133.41
607.51	77.24
607.67	23.41
607.82	46.81
607.98	105.32
608.13	161.50
608.29	95.96
608.44	72.56
608.60	63.19
608.75	16.38
608.91	60.85
609.06	37.45
609.22	49.15
609.37	131.07
609.53	93.62
609.68	49.15
609.84	117.03
609.99	91.28
610.15	77.24
610.30	25.75
610.46	114.69
610.61	51.49
610.76	88.94
610.92	81.92
611.07	11.70
611.23	60.85
611.38	74.90
611.54	46.81
611.69	107.66
611.84	117.03
612.00	72.56
612.15	72.56
612.31	72.56
612.46	86.60
612.62	37.45
612.77	21.06
612.92	124.05
613.08	95.96
613.23	98.30
613.39	0.00
613.54	0.00
613.69	77.24
613.85	21.06
614.00	16.38
614.15	70.22
614.31	39.79
614.46	49.15
614.62	112.35
614.77	128.73
614.92	4.68
615.08	67.88
615.23	0.00
615.38	35.11
615.54	32.77
615.69	60.85
615.84	39.79
616.00	133.41
616.15	88.94
616.30	21.06
616.46	119.37
616.61	49.15
616.76	37.45
616.92	37.45
617.07	9.36
617.22	70.22
617.37	49.15
617.53	2.34
617.68	9.36
617.83	49.15
617.99	110.01
618.14	107.66
618.29	121.71
618.45	121.71
618.60	44.47
618.75	0.00
618.90	91.28
619.06	117.03
619.21	102.98
619.36	98.30
619.51	65.54
619.67	35.11
619.82	25.75
619.97	105.32
620.12	98.30
620.28	2.34
620.43	88.94
620.58	49.15
620.73	147.45
620.89	84.26
621.04	91.28
621.19	46.81
621.34	79.58
621.49	95.96
621.65	9.36
621.80	81.92
621.95	53.83
622.10	21.06
622.25	0.00
622.41	4.68
622.56	53.83
622.71	39.79
622.86	138.09
623.01	21.06
623.16	30.43
623.32	88.94
623.47	100.64
623.62	67.88
623.77	56.17
623.92	126.39
624.07	39.79
624.23	67.88
624.38	35.11
624.53	21.06
624.68	39.79
624.83	35.11
624.98	51.49
625.13	53.83
625.29	28.09
625.44	42.13
625.59	152.13
625.74	32.77
625.89	121.71
626.04	44.47
626.19	58.51
626.34	93.62
626.49	23.41
626.65	88.94
626.80	25.75
626.95	81.92
627.10	60.85
627.25	77.24
627.40	58.51
627.55	51.49
627.70	0.00
627.85	58.51
628.00	51.49
628.15	51.49
628.30	49.15
628.45	91.28
628.60	88.94
628.76	30.43
628.91	28.09
629.06	56.17
629.21	70.22
629.36	42.13
629.51	63.19
629.66	21.06
629.81	84.26
629.96	84.26
630.11	56.17
630.26	0.00
630.41	39.79
630.56	74.90
630.71	88.94
630.86	0.00
631.01	28.09
631.16	23.41
631.31	39.79
631.46	91.28
631.61	0.00
631.76	0.00
631.91	53.83
632.06	28.09
632.21	23.41
632.36	9.36
632.51	70.22
632.66	70.22
632.81	0.00
632.96	9.36
633.10	114.69
633.25	72.56
633.40	46.81
633.55	46.81
633.70	51.49
633.85	53.83
634.00	53.83
634.15	133.41
634.30	44.47
634.45	114.69
634.60	9.36
634.75	16.38
634.90	28.09
635.05	77.24
635.19	39.79
635.34	46.81
635.49	42.13
635.64	72.56
635.79	124.05
635.94	0.00
636.09	56.17
636.24	44.47
636.39	44.47
636.53	11.70
636.68	117.03
636.83	74.90
636.98	32.77
637.13	56.17
637.28	42.13
637.43	81.92
637.57	46.81
637.72	39.79
637.87	39.79
638.02	39.79
638.17	65.54
638.32	100.64
638.46	107.66
638.61	86.60
638.76	23.41
638.91	35.11
639.06	30.43
639.20	91.28
639.35	37.45
639.50	28.09
639.65	60.85
639.80	65.54
639.94	35.11
640.09	37.45
640.24	23.41
640.39	49.15
640.54	86.60
640.68	107.66
640.83	32.77
640.98	95.96
641.13	86.60
641.27	91.28
641.42	63.19
641.57	49.15
641.72	37.45
641.86	0.00
642.01	100.64
642.16	23.41
642.31	42.13
642.45	77.24
642.60	67.88
642.75	32.77
642.90	30.43
643.04	70.22
643.19	49.15
643.34	102.98
643.48	70.22
643.63	44.47
643.78	53.83
643.93	46.81
644.07	51.49
644.22	126.39
644.37	42.13
644.51	95.96
644.66	67.88
644.81	35.11
644.95	39.79
645.10	2.34
645.25	56.17
645.39	32.77
645.54	30.43
645.69	37.45
645.83	0.00
645.98	79.58
646.13	86.60
646.27	2.34
646.42	0.00
646.57	51.49
646.71	28.09
646.86	67.88
647.00	138.09
647.15	0.00
647.30	60.85
647.44	105.32
647.59	0.00
647.74	0.00
647.88	44.47
648.03	56.17
648.17	112.35
648.32	0.00
648.47	44.47
648.61	95.96
648.76	93.62
648.90	56.17
649.05	86.60
649.20	30.43
649.34	23.41
649.49	182.56
649.63	37.45
649.78	79.58
649.92	30.43
650.07	0.00
650.21	46.81
650.36	58.51
650.51	49.15
650.65	35.11
650.80	18.72
650.94	84.26
651.09	14.04
651.23	14.04
651.38	0.00
651.52	4.68
651.67	70.22
651.81	18.72
651.96	0.00
652.10	58.51
652.25	74.90
652.39	42.13
652.54	37.45
652.68	49.15
652.83	81.92
652.97	58.51
653.12	42.13
653.26	32.77
653.41	98.30
653.55	49.15
653.70	98.30
653.84	93.62
653.99	107.66
654.13	28.09
654.27	58.51
654.42	2.34
654.56	32.77
654.71	44.47
654.85	30.43
655.00	39.79
655.14	93.62
655.29	67.88
655.43	44.47
655.57	9.36
655.72	65.54
655.86	28.09
656.01	53.83
656.15	74.90
656.30	42.13
656.44	28.09
656.58	93.62
656.73	79.58
656.87	79.58
657.01	32.77
657.16	56.17
657.30	44.47
657.45	32.77
657.59	56.17
657.73	79.58
657.88	72.56
658.02	93.62
658.16	42.13
658.31	67.88
658.45	21.06
658.60	91.28
658.74	93.62
658.88	49.15
659.03	0.00
659.17	88.94
659.31	28.09
659.46	18.72
659.60	107.66
659.74	53.83
659.89	72.56
660.03	53.83
660.17	72.56
660.32	35.11
660.46	95.96
660.60	79.58
660.74	86.60
660.89	0.00
661.03	77.24
661.17	30.43
661.32	49.15
661.46	105.32
661.60	0.00
661.74	77.24
661.89	72.56
662.03	21.06
662.17	70.22
662.31	63.19
662.46	58.51
662.60	16.38
662.74	39.79
662.88	0.00
663.03	32.77
663.17	25.75
663.31	105.32
663.45	131.07
663.60	14.04
663.74	46.81
663.88	65.54
664.02	0.00
664.17	63.19
664.31	88.94
664.45	65.54
664.59	91.28
664.73	100.64
664.88	0.00
665.02	37.45
665.16	46.81
665.30	74.90
665.44	67.88
665.59	39.79
665.73	51.49
665.87	23.41
666.01	58.51
666.15	42.13
666.29	95.96
666.44	35.11
666.58	91.28
666.72	28.09
666.86	58.51
667.00	25.75
667.14	81.92
667.28	67.88
667.43	9.36
667.57	110.01
667.71	88.94
667.85	100.64
667.99	0.00
668.13	67.88
668.27	72.56
668.41	81.92
668.56	42.13
668.70	49.15
668.84	81.92
668.98	16.38
669.12	46.81
669.26	60.85
669.40	72.56
669.54	93.62
669.68	60.85
669.82	0.00
669.96	0.00
670.10	100.64
670.25	81.92
670.39	65.54
670.53	79.58
670.67	23.41
670.81	51.49
670.95	95.96
671.09	74.90
671.23	100.64
671.37	58.51
671.51	0.00
671.65	37.45
671.79	51.49
671.93	16.38
672.07	124.05
672.21	58.51
672.35	39.79
672.49	42.13
672.63	28.09
672.77	77.24
672.91	93.62
673.05	70.22
673.19	63.19
673.33	16.38
673.47	37.45
673.61	0.00
673.75	102.98
673.89	51.49
674.03	11.70
674.17	2.34
674.31	70.22
674.45	58.51
674.59	58.51
674.73	53.83
674.87	79.58
675.01	65.54
675.15	53.83
675.29	0.00
675.43	84.26
675.56	74.90
675.70	131.07
675.84	53.83
675.98	56.17
676.12	86.60
676.26	77.24
676.40	21.06
676.54	37.45
676.68	11.70
676.82	46.81
676.96	7.02
677.10	51.49
677.23	98.30
677.37	0.00
677.51	42.13
677.65	79.58
677.79	2.34
677.93	11.70
678.07	53.83
678.21	46.81
678.34	0.00
678.48	0.00
678.62	77.24
678.76	49.15
678.90	0.00
679.04	0.00
679.18	77.24
679.31	84.26
679.45	0.00
679.59	30.43
679.73	39.79
679.87	65.54
680.00	70.22
680.14	0.00
680.28	91.28
680.42	60.85
680.56	84.26
680.70	9.36
680.83	81.92
680.97	74.90
681.11	0.00
681.25	67.88
681.39	51.49
681.52	72.56
681.66	23.41
681.80	32.77
681.94	72.56
682.07	93.62
682.21	53.83
682.35	4.68
682.49	23.41
682.62	126.39
682.76	28.09
682.90	30.43
683.04	140.43
683.17	0.00
683.31	7.02
683.45	84.26
683.59	14.04
683.72	46.81
683.86	105.32
684.00	88.94
684.13	67.88
684.27	35.11
684.41	21.06
684.55	18.72
684.68	63.19
684.82	30.43
684.96	91.28
685.09	16.38
685.23	37.45
685.37	51.49
685.50	30.43
685.64	0.00
685.78	65.54
685.91	77.24
686.05	81.92
686.19	53.83
686.32	0.00
686.46	0.00
686.60	42.13
686.73	63.19
686.87	98.30
687.01	67.88
687.14	65.54
687.28	60.85
687.42	39.79
687.55	102.98
687.69	0.00
687.82	0.00
687.96	60.85
688.10	23.41
688.23	0.00
688.37	0.00
688.50	0.00
688.64	16.38
688.78	63.19
688.91	63.19
689.05	72.56
689.18	0.00
689.32	0.00
689.46	53.83
689.59	65.54
689.73	35.11
689.86	28.09
690.00	42.13
690.13	0.00
690.27	0.00
690.41	37.45
690.54	91.28
690.68	0.00
690.81	72.56
690.95	44.47
691.08	28.09
691.22	21.06
691.35	56.17
691.49	42.13
691.62	18.72
691.76	35.11
691.89	100.64
692.03	81.92
692.16	39.79
692.30	0.00
692.43	56.17
692.57	49.15
692.70	56.17
692.84	0.00
692.97	56.17
693.11	39.79
693.24	25.75
693.38	0.00
693.51	9.36
693.65	74.90
693.78	74.90
693.92	37.45
694.05	74.90
694.19	63.19
694.32	91.28
694.45	18.72
694.59	30.43
694.72	28.09
694.86	67.88
694.99	46.81
695.13	25.75
695.26	35.11
695.39	11.70
695.53	58.51
695.66	0.00
695.80	67.88
695.93	49.15
696.07	35.11
696.20	44.47
696.33	35.11
696.47	35.11
696.60	100.64
696.73	51.49
696.87	46.81
697.00	86.60
697.14	60.85
697.27	35.11
697.40	79.58
697.54	77.24
697.67	0.00
697.80	0.00
697.94	25.75
698.07	65.54
698.21	32.77
698.34	0.00
698.47	58.51
698.61	49.15
698.74	18.72
698.87	0.00
699.01	81.92
699.14	51.49
699.27	42.13
699.40	95.96
699.54	44.47
699.67	121.71
699.80	11.70
699.94	67.88
700.07	14.04
700.20	0.00
700.34	39.79
700.47	88.94
700.60	159.16
700.73	117.03
700.87	46.81
701.00	110.01
701.13	51.49
701.26	49.15
701.40	0.00
701.53	81.92
701.66	30.43
701.79	42.13
701.93	72.56
702.06	67.88
702.19	30.43
702.32	46.81
702.46	46.81
702.59	42.13
702.72	35.11
702.85	88.94
702.99	63.19
703.12	93.62
703.25	70.22
703.38	25.75
703.51	0.00
703.65	28.09
703.78	11.70
703.91	25.75
704.04	44.47
704.17	18.72
704.31	14.04
704.44	35.11
704.57	65.54
704.70	44.47
704.83	56.17
704.96	25.75
705.10	25.75
705.23	51.49
>>>>>End Processed Spectral Data<<<<<
