SpectraSuite Data File
++++++++++++++++++++++++++++++++++++
Date: Fri Oct 04 12:13:40 GMT-05:00 2013
User: price-jones
Dark Spectrum Present: No
Reference Spectrum Present: No
Number of Sampled Component Spectra: 1
Spectrometers: USB2+H05261
Integration Time (usec): 10000 (USB2+H05261)
Spectra Averaged: 1 (USB2+H05261)
Boxcar Smoothing: 0 (USB2+H05261)
Correct for Electrical Dark: No (USB2+H05261)
Strobe/Lamp Enabled: No (USB2+H05261)
Correct for Detector Non-linearity: No (USB2+H05261)
Correct for Stray Light: No (USB2+H05261)
Number of Pixels in Processed Spectrum: 2048
>>>>>Begin Processed Spectral Data<<<<<
365.73	100.64
365.92	100.64
366.12	100.64
366.32	0.00
366.52	0.00
366.72	0.00
366.91	0.00
367.11	0.00
367.31	0.00
367.51	0.00
367.70	0.00
367.90	0.00
368.10	0.00
368.30	0.00
368.49	0.00
368.69	0.00
368.89	0.00
369.09	0.00
369.28	0.00
369.48	0.00
369.68	0.00
369.87	0.00
370.07	0.00
370.27	0.00
370.47	0.00
370.66	0.00
370.86	0.00
371.06	0.00
371.25	0.00
371.45	28.09
371.65	98.30
371.84	63.19
372.04	2.34
372.24	0.00
372.44	18.72
372.63	28.09
372.83	32.77
373.03	4.68
373.22	0.00
373.42	25.75
373.62	21.06
373.81	0.00
374.01	32.77
374.21	79.58
374.40	58.51
374.60	44.47
374.79	65.54
374.99	63.19
375.19	95.96
375.38	51.49
375.58	70.22
375.78	65.54
375.97	67.88
376.17	18.72
376.37	0.00
376.56	60.85
376.76	21.06
376.95	0.00
377.15	39.79
377.35	53.83
377.54	18.72
377.74	39.79
377.93	4.68
378.13	53.83
378.33	86.60
378.52	100.64
378.72	39.79
378.91	25.75
379.11	28.09
379.31	7.02
379.50	30.43
379.70	0.00
379.89	32.77
380.09	23.41
380.28	0.00
380.48	35.11
380.68	25.75
380.87	37.45
381.07	23.41
381.26	70.22
381.46	0.00
381.65	0.00
381.85	37.45
382.04	0.00
382.24	0.00
382.43	18.72
382.63	60.85
382.83	0.00
383.02	81.92
383.22	56.17
383.41	0.00
383.61	0.00
383.80	9.36
384.00	9.36
384.19	0.00
384.39	25.75
384.58	49.15
384.78	119.37
384.97	30.43
385.17	16.38
385.36	60.85
385.56	9.36
385.75	0.00
385.95	44.47
386.14	77.24
386.34	0.00
386.53	93.62
386.72	51.49
386.92	18.72
387.11	91.28
387.31	11.70
387.50	0.00
387.70	46.81
387.89	44.47
388.09	35.11
388.28	60.85
388.48	58.51
388.67	44.47
388.86	35.11
389.06	0.00
389.25	49.15
389.45	4.68
389.64	7.02
389.84	25.75
390.03	23.41
390.22	79.58
390.42	65.54
390.61	0.00
390.81	51.49
391.00	56.17
391.19	0.00
391.39	110.01
391.58	67.88
391.78	0.00
391.97	9.36
392.16	0.00
392.36	67.88
392.55	0.00
392.75	0.00
392.94	0.00
393.13	18.72
393.33	21.06
393.52	14.04
393.71	2.34
393.91	0.00
394.10	53.83
394.29	4.68
394.49	14.04
394.68	49.15
394.88	67.88
395.07	0.00
395.26	4.68
395.46	67.88
395.65	9.36
395.84	67.88
396.04	60.85
396.23	0.00
396.42	23.41
396.62	7.02
396.81	28.09
397.00	18.72
397.19	51.49
397.39	0.00
397.58	0.00
397.77	21.06
397.97	18.72
398.16	32.77
398.35	70.22
398.55	60.85
398.74	0.00
398.93	65.54
399.12	46.81
399.32	0.00
399.51	0.00
399.70	79.58
399.90	49.15
400.09	18.72
400.28	51.49
400.47	0.00
400.67	28.09
400.86	60.85
401.05	49.15
401.24	51.49
401.44	0.00
401.63	0.00
401.82	35.11
402.01	23.41
402.21	67.88
402.40	77.24
402.59	56.17
402.78	25.75
402.97	44.47
403.17	0.00
403.36	23.41
403.55	14.04
403.74	60.85
403.93	63.19
404.13	77.24
404.32	49.15
404.51	28.09
404.70	30.43
404.89	72.56
405.09	72.56
405.28	14.04
405.47	74.90
405.66	46.81
405.85	0.00
406.05	37.45
406.24	56.17
406.43	9.36
406.62	25.75
406.81	51.49
407.00	51.49
407.20	35.11
407.39	91.28
407.58	93.62
407.77	91.28
407.96	0.00
408.15	56.17
408.34	77.24
408.54	51.49
408.73	35.11
408.92	0.00
409.11	72.56
409.30	60.85
409.49	0.00
409.68	14.04
409.87	0.00
410.07	35.11
410.26	0.00
410.45	0.00
410.64	51.49
410.83	98.30
411.02	49.15
411.21	58.51
411.40	0.00
411.59	67.88
411.78	84.26
411.98	0.00
412.17	42.13
412.36	53.83
412.55	37.45
412.74	32.77
412.93	9.36
413.12	25.75
413.31	42.13
413.50	0.00
413.69	11.70
413.88	14.04
414.07	46.81
414.26	23.41
414.45	4.68
414.64	2.34
414.83	23.41
415.02	84.26
415.22	77.24
415.41	4.68
415.60	0.00
415.79	18.72
415.98	124.05
416.17	4.68
416.36	44.47
416.55	21.06
416.74	126.39
416.93	107.66
417.12	88.94
417.31	79.58
417.50	49.15
417.69	86.60
417.88	72.56
418.07	35.11
418.26	81.92
418.45	63.19
418.64	105.32
418.83	4.68
419.02	72.56
419.21	74.90
419.39	93.62
419.58	37.45
419.77	0.00
419.96	77.24
420.15	37.45
420.34	7.02
420.53	88.94
420.72	58.51
420.91	30.43
421.10	18.72
421.29	39.79
421.48	65.54
421.67	0.00
421.86	107.66
422.05	84.26
422.24	0.00
422.43	100.64
422.61	16.38
422.80	53.83
422.99	16.38
423.18	0.00
423.37	11.70
423.56	81.92
423.75	67.88
423.94	23.41
424.13	30.43
424.32	53.83
424.50	44.47
424.69	77.24
424.88	37.45
425.07	37.45
425.26	25.75
425.45	11.70
425.64	42.13
425.83	0.00
426.01	14.04
426.20	49.15
426.39	21.06
426.58	39.79
426.77	32.77
426.96	88.94
427.15	72.56
427.33	39.79
427.52	37.45
427.71	39.79
427.90	0.00
428.09	35.11
428.28	79.58
428.46	9.36
428.65	14.04
428.84	0.00
429.03	79.58
429.22	11.70
429.40	53.83
429.59	56.17
429.78	100.64
429.97	46.81
430.16	39.79
430.34	0.00
430.53	9.36
430.72	4.68
430.91	0.00
431.10	44.47
431.28	0.00
431.47	0.00
431.66	72.56
431.85	0.00
432.03	4.68
432.22	25.75
432.41	56.17
432.60	23.41
432.79	32.77
432.97	67.88
433.16	0.00
433.35	0.00
433.54	18.72
433.72	11.70
433.91	67.88
434.10	18.72
434.28	60.85
434.47	18.72
434.66	14.04
434.85	16.38
435.03	65.54
435.22	72.56
435.41	91.28
435.59	51.49
435.78	32.77
435.97	74.90
436.16	77.24
436.34	0.00
436.53	63.19
436.72	11.70
436.90	44.47
437.09	0.00
437.28	49.15
437.46	100.64
437.65	100.64
437.84	44.47
438.02	0.00
438.21	18.72
438.40	98.30
438.58	39.79
438.77	28.09
438.96	95.96
439.14	86.60
439.33	49.15
439.52	42.13
439.70	42.13
439.89	60.85
440.08	51.49
440.26	0.00
440.45	79.58
440.63	30.43
440.82	114.69
441.01	74.90
441.19	81.92
441.38	65.54
441.57	63.19
441.75	14.04
441.94	70.22
442.12	77.24
442.31	63.19
442.50	53.83
442.68	77.24
442.87	147.45
443.05	23.41
443.24	42.13
443.43	25.75
443.61	72.56
443.80	16.38
443.98	11.70
444.17	67.88
444.35	56.17
444.54	70.22
444.73	25.75
444.91	46.81
445.10	35.11
445.28	28.09
445.47	16.38
445.65	7.02
445.84	16.38
446.02	79.58
446.21	25.75
446.39	51.49
446.58	35.11
446.77	53.83
446.95	77.24
447.14	23.41
447.32	86.60
447.51	30.43
447.69	102.98
447.88	4.68
448.06	9.36
448.25	63.19
448.43	0.00
448.62	0.00
448.80	74.90
448.99	0.00
449.17	58.51
449.36	72.56
449.54	53.83
449.73	25.75
449.91	23.41
450.10	95.96
450.28	16.38
450.46	72.56
450.65	67.88
450.83	168.52
451.02	0.00
451.20	23.41
451.39	35.11
451.57	7.02
451.76	117.03
451.94	7.02
452.13	86.60
452.31	51.49
452.49	25.75
452.68	0.00
452.86	44.47
453.05	0.00
453.23	21.06
453.42	70.22
453.60	53.83
453.78	105.32
453.97	88.94
454.15	21.06
454.34	110.01
454.52	70.22
454.70	18.72
454.89	9.36
455.07	131.07
455.26	93.62
455.44	16.38
455.62	9.36
455.81	65.54
455.99	18.72
456.17	14.04
456.36	37.45
456.54	28.09
456.73	86.60
456.91	67.88
457.09	70.22
457.28	74.90
457.46	53.83
457.64	74.90
457.83	51.49
458.01	63.19
458.19	35.11
458.38	53.83
458.56	51.49
458.74	2.34
458.93	86.60
459.11	70.22
459.29	72.56
459.48	56.17
459.66	37.45
459.84	35.11
460.03	51.49
460.21	32.77
460.39	63.19
460.57	112.35
460.76	72.56
460.94	70.22
461.12	67.88
461.31	37.45
461.49	18.72
461.67	16.38
461.85	88.94
462.04	46.81
462.22	65.54
462.40	119.37
462.59	25.75
462.77	28.09
462.95	53.83
463.13	7.02
463.32	79.58
463.50	28.09
463.68	39.79
463.86	86.60
464.05	35.11
464.23	138.09
464.41	60.85
464.59	0.00
464.78	60.85
464.96	67.88
465.14	39.79
465.32	77.24
465.50	152.13
465.69	74.90
465.87	39.79
466.05	81.92
466.23	44.47
466.41	16.38
466.60	84.26
466.78	44.47
466.96	51.49
467.14	88.94
467.32	84.26
467.51	32.77
467.69	16.38
467.87	30.43
468.05	67.88
468.23	56.17
468.41	35.11
468.60	49.15
468.78	4.68
468.96	63.19
469.14	95.96
469.32	0.00
469.50	72.56
469.69	11.70
469.87	35.11
470.05	95.96
470.23	25.75
470.41	74.90
470.59	42.13
470.77	49.15
470.95	63.19
471.14	60.85
471.32	72.56
471.50	74.90
471.68	56.17
471.86	110.01
472.04	11.70
472.22	30.43
472.40	91.28
472.58	74.90
472.77	0.00
472.95	23.41
473.13	74.90
473.31	28.09
473.49	88.94
473.67	81.92
473.85	11.70
474.03	0.00
474.21	28.09
474.39	72.56
474.57	42.13
474.75	46.81
474.93	39.79
475.12	65.54
475.30	32.77
475.48	4.68
475.66	105.32
475.84	72.56
476.02	32.77
476.20	84.26
476.38	77.24
476.56	86.60
476.74	51.49
476.92	18.72
477.10	114.69
477.28	60.85
477.46	2.34
477.64	16.38
477.82	58.51
478.00	0.00
478.18	42.13
478.36	35.11
478.54	49.15
478.72	0.00
478.90	72.56
479.08	42.13
479.26	18.72
479.44	58.51
479.62	112.35
479.80	93.62
479.98	44.47
480.16	77.24
480.34	114.69
480.52	95.96
480.70	163.84
480.88	53.83
481.06	79.58
481.24	112.35
481.41	51.49
481.59	112.35
481.77	35.11
481.95	23.41
482.13	102.98
482.31	18.72
482.49	46.81
482.67	81.92
482.85	0.00
483.03	46.81
483.21	67.88
483.39	119.37
483.57	42.13
483.74	51.49
483.92	46.81
484.10	72.56
484.28	98.30
484.46	56.17
484.64	74.90
484.82	112.35
485.00	105.32
485.18	18.72
485.35	79.58
485.53	42.13
485.71	93.62
485.89	53.83
486.07	70.22
486.25	56.17
486.43	58.51
486.61	67.88
486.78	46.81
486.96	121.71
487.14	21.06
487.32	42.13
487.50	70.22
487.68	37.45
487.85	105.32
488.03	81.92
488.21	124.05
488.39	91.28
488.57	2.34
488.75	166.18
488.92	128.73
489.10	133.41
489.28	100.64
489.46	72.56
489.64	133.41
489.81	30.43
489.99	126.39
490.17	81.92
490.35	95.96
490.53	25.75
490.70	60.85
490.88	44.47
491.06	51.49
491.24	131.07
491.41	0.00
491.59	0.00
491.77	30.43
491.95	98.30
492.13	44.47
492.30	28.09
492.48	98.30
492.66	49.15
492.84	63.19
493.01	67.88
493.19	53.83
493.37	126.39
493.54	79.58
493.72	74.90
493.90	114.69
494.08	81.92
494.25	163.84
494.43	102.98
494.61	53.83
494.79	51.49
494.96	100.64
495.14	72.56
495.32	65.54
495.49	70.22
495.67	81.92
495.85	121.71
496.02	25.75
496.20	102.98
496.38	35.11
496.55	72.56
496.73	105.32
496.91	44.47
497.09	88.94
497.26	65.54
497.44	58.51
497.62	70.22
497.79	88.94
497.97	39.79
498.14	32.77
498.32	28.09
498.50	37.45
498.67	156.82
498.85	63.19
499.03	91.28
499.20	74.90
499.38	86.60
499.56	84.26
499.73	121.71
499.91	60.85
500.08	56.17
500.26	0.00
500.44	0.00
500.61	88.94
500.79	91.28
500.97	53.83
501.14	37.45
501.32	65.54
501.49	53.83
501.67	131.07
501.84	117.03
502.02	67.88
502.20	72.56
502.37	86.60
502.55	102.98
502.72	35.11
502.90	63.19
503.07	77.24
503.25	65.54
503.43	95.96
503.60	7.02
503.78	105.32
503.95	0.00
504.13	110.01
504.30	84.26
504.48	77.24
504.65	77.24
504.83	77.24
505.01	98.30
505.18	93.62
505.36	98.30
505.53	126.39
505.71	119.37
505.88	77.24
506.06	114.69
506.23	14.04
506.41	4.68
506.58	65.54
506.76	25.75
506.93	23.41
507.11	53.83
507.28	95.96
507.46	117.03
507.63	98.30
507.81	58.51
507.98	91.28
508.16	95.96
508.33	63.19
508.50	67.88
508.68	77.24
508.85	37.45
509.03	112.35
509.20	84.26
509.38	84.26
509.55	95.96
509.73	126.39
509.90	110.01
510.08	44.47
510.25	88.94
510.42	131.07
510.60	163.84
510.77	79.58
510.95	44.47
511.12	112.35
511.30	107.66
511.47	91.28
511.64	11.70
511.82	81.92
511.99	58.51
512.17	102.98
512.34	53.83
512.51	95.96
512.69	84.26
512.86	170.86
513.04	102.98
513.21	51.49
513.38	95.96
513.56	51.49
513.73	58.51
513.90	121.71
514.08	110.01
514.25	65.54
514.43	110.01
514.60	140.43
514.77	102.98
514.95	30.43
515.12	23.41
515.29	77.24
515.47	112.35
515.64	107.66
515.81	105.32
515.99	128.73
516.16	21.06
516.33	42.13
516.51	18.72
516.68	102.98
516.85	0.00
517.03	98.30
517.20	112.35
517.37	39.79
517.54	60.85
517.72	159.16
517.89	72.56
518.06	189.58
518.24	184.90
518.41	126.39
518.58	46.81
518.75	145.11
518.93	121.71
519.10	102.98
519.27	86.60
519.45	163.84
519.62	133.41
519.79	7.02
519.96	86.60
520.14	126.39
520.31	124.05
520.48	77.24
520.65	152.13
520.83	30.43
521.00	91.28
521.17	79.58
521.34	49.15
521.52	46.81
521.69	133.41
521.86	102.98
522.03	138.09
522.20	117.03
522.38	159.16
522.55	28.09
522.72	65.54
522.89	65.54
523.07	119.37
523.24	107.66
523.41	102.98
523.58	102.98
523.75	95.96
523.92	84.26
524.10	88.94
524.27	98.30
524.44	37.45
524.61	110.01
524.78	53.83
524.96	112.35
525.13	93.62
525.30	56.17
525.47	63.19
525.64	79.58
525.81	105.32
525.98	98.30
526.16	79.58
526.33	60.85
526.50	79.58
526.67	81.92
526.84	86.60
527.01	102.98
527.18	56.17
527.36	7.02
527.53	102.98
527.70	100.64
527.87	18.72
528.04	81.92
528.21	30.43
528.38	11.70
528.55	79.58
528.72	53.83
528.89	133.41
529.07	74.90
529.24	0.00
529.41	63.19
529.58	67.88
529.75	88.94
529.92	170.86
530.09	35.11
530.26	56.17
530.43	91.28
530.60	138.09
530.77	56.17
530.94	126.39
531.11	140.43
531.28	91.28
531.46	51.49
531.63	81.92
531.80	51.49
531.97	86.60
532.14	25.75
532.31	84.26
532.48	107.66
532.65	114.69
532.82	67.88
532.99	39.79
533.16	46.81
533.33	154.48
533.50	124.05
533.67	79.58
533.84	131.07
534.01	67.88
534.18	79.58
534.35	86.60
534.52	16.38
534.69	102.98
534.86	147.45
535.03	102.98
535.20	67.88
535.37	154.48
535.54	112.35
535.71	25.75
535.88	110.01
536.05	93.62
536.22	70.22
536.38	154.48
536.55	63.19
536.72	95.96
536.89	117.03
537.06	98.30
537.23	81.92
537.40	16.38
537.57	114.69
537.74	21.06
537.91	131.07
538.08	67.88
538.25	161.50
538.42	93.62
538.59	28.09
538.75	100.64
538.92	49.15
539.09	102.98
539.26	46.81
539.43	105.32
539.60	154.48
539.77	35.11
539.94	105.32
540.11	63.19
540.28	81.92
540.44	102.98
540.61	81.92
540.78	107.66
540.95	44.47
541.12	88.94
541.29	39.79
541.46	30.43
541.62	37.45
541.79	51.49
541.96	77.24
542.13	51.49
542.30	126.39
542.47	79.58
542.63	110.01
542.80	98.30
542.97	124.05
543.14	105.32
543.31	42.13
543.48	84.26
543.64	30.43
543.81	100.64
543.98	65.54
544.15	126.39
544.32	100.64
544.48	84.26
544.65	95.96
544.82	95.96
544.99	93.62
545.16	154.48
545.32	49.15
545.49	107.66
545.66	147.45
545.83	30.43
546.00	86.60
546.16	175.54
546.33	84.26
546.50	42.13
546.67	102.98
546.83	28.09
547.00	58.51
547.17	70.22
547.34	95.96
547.50	63.19
547.67	74.90
547.84	86.60
548.00	60.85
548.17	58.51
548.34	124.05
548.51	53.83
548.67	117.03
548.84	46.81
549.01	107.66
549.18	60.85
549.34	100.64
549.51	30.43
549.68	67.88
549.84	112.35
550.01	95.96
550.18	140.43
550.34	51.49
550.51	67.88
550.68	180.22
550.84	77.24
551.01	156.82
551.18	105.32
551.34	77.24
551.51	58.51
551.68	30.43
551.84	149.79
552.01	35.11
552.18	135.75
552.34	58.51
552.51	42.13
552.68	114.69
552.84	46.81
553.01	128.73
553.18	4.68
553.34	65.54
553.51	112.35
553.67	98.30
553.84	77.24
554.01	93.62
554.17	42.13
554.34	70.22
554.51	60.85
554.67	119.37
554.84	145.11
555.00	93.62
555.17	102.98
555.33	102.98
555.50	32.77
555.67	18.72
555.83	72.56
556.00	46.81
556.16	119.37
556.33	161.50
556.50	74.90
556.66	58.51
556.83	53.83
556.99	44.47
557.16	16.38
557.32	0.00
557.49	70.22
557.65	126.39
557.82	117.03
557.98	58.51
558.15	149.79
558.32	56.17
558.48	128.73
558.65	95.96
558.81	217.67
558.98	95.96
559.14	88.94
559.31	98.30
559.47	124.05
559.64	131.07
559.80	126.39
559.97	105.32
560.13	133.41
560.30	119.37
560.46	60.85
560.63	102.98
560.79	194.26
560.96	49.15
561.12	79.58
561.29	58.51
561.45	98.30
561.61	23.41
561.78	44.47
561.94	30.43
562.11	35.11
562.27	53.83
562.44	126.39
562.60	117.03
562.77	51.49
562.93	74.90
563.10	21.06
563.26	46.81
563.42	81.92
563.59	77.24
563.75	124.05
563.92	70.22
564.08	14.04
564.24	39.79
564.41	110.01
564.57	105.32
564.74	110.01
564.90	145.11
565.07	67.88
565.23	67.88
565.39	77.24
565.56	39.79
565.72	60.85
565.88	98.30
566.05	95.96
566.21	16.38
566.38	77.24
566.54	119.37
566.70	65.54
566.87	98.30
567.03	30.43
567.19	53.83
567.36	16.38
567.52	100.64
567.68	81.92
567.85	79.58
568.01	63.19
568.17	74.90
568.34	81.92
568.50	81.92
568.66	65.54
568.83	70.22
568.99	119.37
569.15	49.15
569.32	112.35
569.48	112.35
569.64	117.03
569.81	135.75
569.97	63.19
570.13	72.56
570.30	131.07
570.46	23.41
570.62	152.13
570.78	65.54
570.95	105.32
571.11	124.05
571.27	37.45
571.43	28.09
571.60	98.30
571.76	0.00
571.92	56.17
572.09	105.32
572.25	81.92
572.41	46.81
572.57	49.15
572.74	117.03
572.90	74.90
573.06	98.30
573.22	46.81
573.38	49.15
573.55	95.96
573.71	110.01
573.87	72.56
574.03	81.92
574.20	131.07
574.36	100.64
574.52	95.96
574.68	86.60
574.84	126.39
575.01	91.28
575.17	60.85
575.33	14.04
575.49	86.60
575.65	65.54
575.82	53.83
575.98	70.22
576.14	49.15
576.30	28.09
576.46	25.75
576.62	88.94
576.79	121.71
576.95	84.26
577.11	102.98
577.27	74.90
577.43	23.41
577.59	131.07
577.75	84.26
577.92	42.13
578.08	72.56
578.24	102.98
578.40	37.45
578.56	86.60
578.72	35.11
578.88	4.68
579.04	112.35
579.21	53.83
579.37	23.41
579.53	70.22
579.69	65.54
579.85	86.60
580.01	91.28
580.17	49.15
580.33	100.64
580.49	88.94
580.65	79.58
580.82	77.24
580.98	30.43
581.14	67.88
581.30	65.54
581.46	23.41
581.62	126.39
581.78	203.63
581.94	77.24
582.10	23.41
582.26	25.75
582.42	25.75
582.58	72.56
582.74	93.62
582.90	67.88
583.06	91.28
583.22	100.64
583.38	46.81
583.54	86.60
583.70	58.51
583.86	114.69
584.02	60.85
584.18	70.22
584.34	110.01
584.50	77.24
584.66	159.16
584.82	44.47
584.98	93.62
585.14	74.90
585.30	88.94
585.46	110.01
585.62	53.83
585.78	110.01
585.94	95.96
586.10	65.54
586.26	93.62
586.42	95.96
586.58	70.22
586.74	93.62
586.90	79.58
587.06	56.17
587.22	28.09
587.38	2.34
587.54	23.41
587.70	32.77
587.86	72.56
588.02	126.39
588.18	53.83
588.34	86.60
588.49	14.04
588.65	121.71
588.81	98.30
588.97	18.72
589.13	56.17
589.29	44.47
589.45	56.17
589.61	37.45
589.77	35.11
589.93	67.88
590.08	44.47
590.24	14.04
590.40	32.77
590.56	58.51
590.72	56.17
590.88	86.60
591.04	93.62
591.20	72.56
591.35	67.88
591.51	91.28
591.67	21.06
591.83	98.30
591.99	63.19
592.15	0.00
592.31	39.79
592.46	110.01
592.62	79.58
592.78	37.45
592.94	74.90
593.10	46.81
593.26	105.32
593.41	63.19
593.57	70.22
593.73	105.32
593.89	119.37
594.05	79.58
594.20	117.03
594.36	23.41
594.52	77.24
594.68	77.24
594.84	86.60
594.99	93.62
595.15	32.77
595.31	72.56
595.47	0.00
595.62	102.98
595.78	88.94
595.94	119.37
596.10	25.75
596.25	84.26
596.41	79.58
596.57	60.85
596.73	74.90
596.88	42.13
597.04	23.41
597.20	28.09
597.36	70.22
597.51	0.00
597.67	110.01
597.83	208.31
597.99	84.26
598.14	67.88
598.30	51.49
598.46	39.79
598.61	28.09
598.77	105.32
598.93	95.96
599.09	0.00
599.24	91.28
599.40	105.32
599.56	107.66
599.71	112.35
599.87	105.32
600.03	25.75
600.18	37.45
600.34	163.84
600.50	72.56
600.65	135.75
600.81	124.05
600.97	51.49
601.12	51.49
601.28	117.03
601.44	49.15
601.59	65.54
601.75	56.17
601.91	58.51
602.06	39.79
602.22	9.36
602.37	114.69
602.53	72.56
602.69	128.73
602.84	18.72
603.00	28.09
603.16	88.94
603.31	102.98
603.47	81.92
603.62	86.60
603.78	0.00
603.94	46.81
604.09	25.75
604.25	56.17
604.40	112.35
604.56	173.20
604.71	30.43
604.87	28.09
605.03	65.54
605.18	42.13
605.34	53.83
605.49	60.85
605.65	121.71
605.80	44.47
605.96	124.05
606.12	65.54
606.27	72.56
606.43	72.56
606.58	74.90
606.74	79.58
606.89	128.73
607.05	72.56
607.20	25.75
607.36	67.88
607.51	72.56
607.67	138.09
607.82	81.92
607.98	0.00
608.13	0.00
608.29	70.22
608.44	93.62
608.60	0.00
608.75	79.58
608.91	93.62
609.06	114.69
609.22	18.72
609.37	95.96
609.53	30.43
609.68	88.94
609.84	56.17
609.99	25.75
610.15	72.56
610.30	65.54
610.46	46.81
610.61	67.88
610.76	70.22
610.92	119.37
611.07	110.01
611.23	49.15
611.38	0.00
611.54	124.05
611.69	58.51
611.84	107.66
612.00	102.98
612.15	60.85
612.31	70.22
612.46	63.19
612.62	91.28
612.77	49.15
612.92	11.70
613.08	126.39
613.23	58.51
613.39	65.54
613.54	28.09
613.69	53.83
613.85	53.83
614.00	39.79
614.15	70.22
614.31	70.22
614.46	98.30
614.62	81.92
614.77	72.56
614.92	39.79
615.08	30.43
615.23	58.51
615.38	117.03
615.54	102.98
615.69	2.34
615.84	72.56
616.00	0.00
616.15	0.00
616.30	95.96
616.46	42.13
616.61	107.66
616.76	0.00
616.92	30.43
617.07	56.17
617.22	51.49
617.37	105.32
617.53	9.36
617.68	21.06
617.83	32.77
617.99	107.66
618.14	79.58
618.29	112.35
618.45	58.51
618.60	58.51
618.75	56.17
618.90	74.90
619.06	46.81
619.21	58.51
619.36	102.98
619.51	46.81
619.67	37.45
619.82	110.01
619.97	0.00
620.12	110.01
620.28	60.85
620.43	100.64
620.58	88.94
620.73	51.49
620.89	102.98
621.04	133.41
621.19	93.62
621.34	56.17
621.49	42.13
621.65	11.70
621.80	44.47
621.95	84.26
622.10	0.00
622.25	16.38
622.41	84.26
622.56	100.64
622.71	88.94
622.86	23.41
623.01	0.00
623.16	39.79
623.32	51.49
623.47	28.09
623.62	88.94
623.77	105.32
623.92	79.58
624.07	93.62
624.23	84.26
624.38	53.83
624.53	72.56
624.68	86.60
624.83	131.07
624.98	0.00
625.13	63.19
625.29	100.64
625.44	56.17
625.59	60.85
625.74	0.00
625.89	74.90
626.04	42.13
626.19	77.24
626.34	63.19
626.49	84.26
626.65	35.11
626.80	119.37
626.95	84.26
627.10	102.98
627.25	0.00
627.40	81.92
627.55	51.49
627.70	110.01
627.85	65.54
628.00	42.13
628.15	67.88
628.30	9.36
628.45	49.15
628.60	16.38
628.76	114.69
628.91	110.01
629.06	93.62
629.21	23.41
629.36	21.06
629.51	11.70
629.66	53.83
629.81	60.85
629.96	65.54
630.11	51.49
630.26	70.22
630.41	46.81
630.56	84.26
630.71	14.04
630.86	51.49
631.01	93.62
631.16	23.41
631.31	18.72
631.46	32.77
631.61	23.41
631.76	0.00
631.91	39.79
632.06	63.19
632.21	84.26
632.36	28.09
632.51	95.96
632.66	28.09
632.81	18.72
632.96	14.04
633.10	95.96
633.25	23.41
633.40	142.77
633.55	102.98
633.70	39.79
633.85	16.38
634.00	77.24
634.15	51.49
634.30	65.54
634.45	37.45
634.60	58.51
634.75	74.90
634.90	0.00
635.05	81.92
635.19	110.01
635.34	30.43
635.49	81.92
635.64	149.79
635.79	25.75
635.94	114.69
636.09	32.77
636.24	53.83
636.39	124.05
636.53	72.56
636.68	93.62
636.83	9.36
636.98	100.64
637.13	81.92
637.28	74.90
637.43	114.69
637.57	110.01
637.72	44.47
637.87	119.37
638.02	0.00
638.17	16.38
638.32	0.00
638.46	93.62
638.61	67.88
638.76	30.43
638.91	93.62
639.06	0.00
639.20	51.49
639.35	0.00
639.50	7.02
639.65	0.00
639.80	84.26
639.94	58.51
640.09	102.98
640.24	42.13
640.39	42.13
640.54	32.77
640.68	88.94
640.83	121.71
640.98	65.54
641.13	112.35
641.27	105.32
641.42	28.09
641.57	49.15
641.72	60.85
641.86	81.92
642.01	128.73
642.16	65.54
642.31	0.00
642.45	37.45
642.60	0.00
642.75	7.02
642.90	117.03
643.04	25.75
643.19	44.47
643.34	100.64
643.48	16.38
643.63	77.24
643.78	4.68
643.93	11.70
644.07	44.47
644.22	56.17
644.37	28.09
644.51	88.94
644.66	79.58
644.81	11.70
644.95	100.64
645.10	117.03
645.25	4.68
645.39	60.85
645.54	37.45
645.69	63.19
645.83	30.43
645.98	0.00
646.13	23.41
646.27	65.54
646.42	81.92
646.57	37.45
646.71	93.62
646.86	53.83
647.00	56.17
647.15	56.17
647.30	49.15
647.44	98.30
647.59	21.06
647.74	42.13
647.88	63.19
648.03	25.75
648.17	81.92
648.32	65.54
648.47	37.45
648.61	0.00
648.76	72.56
648.90	35.11
649.05	67.88
649.20	39.79
649.34	42.13
649.49	4.68
649.63	0.00
649.78	39.79
649.92	46.81
650.07	0.00
650.21	46.81
650.36	16.38
650.51	58.51
650.65	74.90
650.80	42.13
650.94	74.90
651.09	16.38
651.23	14.04
651.38	32.77
651.52	117.03
651.67	126.39
651.81	7.02
651.96	98.30
652.10	88.94
652.25	56.17
652.39	77.24
652.54	7.02
652.68	21.06
652.83	49.15
652.97	21.06
653.12	39.79
653.26	32.77
653.41	14.04
653.55	37.45
653.70	65.54
653.84	0.00
653.99	0.00
654.13	81.92
654.27	18.72
654.42	0.00
654.56	65.54
654.71	0.00
654.85	42.13
655.00	0.00
655.14	70.22
655.29	0.00
655.43	16.38
655.57	56.17
655.72	25.75
655.86	42.13
656.01	67.88
656.15	95.96
656.30	0.00
656.44	114.69
656.58	72.56
656.73	147.45
656.87	11.70
657.01	74.90
657.16	53.83
657.30	91.28
657.45	46.81
657.59	67.88
657.73	46.81
657.88	0.00
658.02	46.81
658.16	81.92
658.31	107.66
658.45	25.75
658.60	18.72
658.74	39.79
658.88	56.17
659.03	49.15
659.17	2.34
659.31	30.43
659.46	39.79
659.60	0.00
659.74	63.19
659.89	25.75
660.03	0.00
660.17	18.72
660.32	88.94
660.46	81.92
660.60	4.68
660.74	84.26
660.89	105.32
661.03	95.96
661.17	9.36
661.32	105.32
661.46	67.88
661.60	93.62
661.74	51.49
661.89	0.00
662.03	30.43
662.17	60.85
662.31	37.45
662.46	56.17
662.60	93.62
662.74	95.96
662.88	14.04
663.03	23.41
663.17	77.24
663.31	18.72
663.45	23.41
663.60	0.00
663.74	53.83
663.88	58.51
664.02	51.49
664.17	149.79
664.31	81.92
664.45	0.00
664.59	56.17
664.73	37.45
664.88	30.43
665.02	70.22
665.16	25.75
665.30	67.88
665.44	81.92
665.59	32.77
665.73	23.41
665.87	91.28
666.01	70.22
666.15	0.00
666.29	23.41
666.44	74.90
666.58	44.47
666.72	37.45
666.86	60.85
667.00	37.45
667.14	25.75
667.28	0.00
667.43	2.34
667.57	79.58
667.71	56.17
667.85	56.17
667.99	11.70
668.13	65.54
668.27	58.51
668.41	0.00
668.56	58.51
668.70	46.81
668.84	11.70
668.98	67.88
669.12	49.15
669.26	63.19
669.40	60.85
669.54	107.66
669.68	23.41
669.82	91.28
669.96	0.00
670.10	0.00
670.25	63.19
670.39	63.19
670.53	35.11
670.67	56.17
670.81	51.49
670.95	70.22
671.09	35.11
671.23	46.81
671.37	100.64
671.51	56.17
671.65	93.62
671.79	18.72
671.93	79.58
672.07	39.79
672.21	25.75
672.35	7.02
672.49	30.43
672.63	23.41
672.77	14.04
672.91	0.00
673.05	11.70
673.19	79.58
673.33	88.94
673.47	98.30
673.61	67.88
673.75	95.96
673.89	53.83
674.03	77.24
674.17	117.03
674.31	37.45
674.45	23.41
674.59	0.00
674.73	63.19
674.87	25.75
675.01	0.00
675.15	100.64
675.29	25.75
675.43	42.13
675.56	23.41
675.70	35.11
675.84	72.56
675.98	32.77
676.12	74.90
676.26	9.36
676.40	51.49
676.54	18.72
676.68	91.28
676.82	0.00
676.96	23.41
677.10	11.70
677.23	72.56
677.37	0.00
677.51	11.70
677.65	79.58
677.79	95.96
677.93	70.22
678.07	84.26
678.21	65.54
678.34	70.22
678.48	84.26
678.62	32.77
678.76	0.00
678.90	11.70
679.04	65.54
679.18	28.09
679.31	51.49
679.45	49.15
679.59	32.77
679.73	21.06
679.87	9.36
680.00	16.38
680.14	56.17
680.28	16.38
680.42	25.75
680.56	133.41
680.70	105.32
680.83	0.00
680.97	72.56
681.11	21.06
681.25	91.28
681.39	37.45
681.52	156.82
681.66	44.47
681.80	4.68
681.94	35.11
682.07	18.72
682.21	0.00
682.35	28.09
682.49	28.09
682.62	65.54
682.76	16.38
682.90	53.83
683.04	51.49
683.17	112.35
683.31	98.30
683.45	88.94
683.59	187.24
683.72	65.54
683.86	53.83
684.00	7.02
684.13	49.15
684.27	0.00
684.41	72.56
684.55	180.22
684.68	30.43
684.82	46.81
684.96	67.88
685.09	14.04
685.23	46.81
685.37	86.60
685.50	46.81
685.64	0.00
685.78	0.00
685.91	81.92
686.05	100.64
686.19	0.00
686.32	65.54
686.46	0.00
686.60	14.04
686.73	0.00
686.87	86.60
687.01	9.36
687.14	63.19
687.28	28.09
687.42	46.81
687.55	23.41
687.69	0.00
687.82	21.06
687.96	44.47
688.10	4.68
688.23	46.81
688.37	58.51
688.50	14.04
688.64	0.00
688.78	44.47
688.91	53.83
689.05	25.75
689.18	51.49
689.32	30.43
689.46	128.73
689.59	53.83
689.73	0.00
689.86	49.15
690.00	81.92
690.13	42.13
690.27	0.00
690.41	0.00
690.54	35.11
690.68	72.56
690.81	35.11
690.95	98.30
691.08	11.70
691.22	58.51
691.35	42.13
691.49	32.77
691.62	28.09
691.76	58.51
691.89	53.83
692.03	37.45
692.16	56.17
692.30	67.88
692.43	58.51
692.57	37.45
692.70	37.45
692.84	58.51
692.97	0.00
693.11	23.41
693.24	53.83
693.38	42.13
693.51	7.02
693.65	25.75
693.78	56.17
693.92	35.11
694.05	7.02
694.19	16.38
694.32	110.01
694.45	0.00
694.59	0.00
694.72	44.47
694.86	35.11
694.99	0.00
695.13	58.51
695.26	74.90
695.39	0.00
695.53	56.17
695.66	0.00
695.80	35.11
695.93	37.45
696.07	65.54
696.20	9.36
696.33	28.09
696.47	67.88
696.60	9.36
696.73	46.81
696.87	28.09
697.00	117.03
697.14	91.28
697.27	0.00
697.40	77.24
697.54	91.28
697.67	49.15
697.80	9.36
697.94	0.00
698.07	35.11
698.21	7.02
698.34	35.11
698.47	67.88
698.61	67.88
698.74	25.75
698.87	0.00
699.01	11.70
699.14	21.06
699.27	30.43
699.40	53.83
699.54	0.00
699.67	0.00
699.80	9.36
699.94	0.00
700.07	0.00
700.20	28.09
700.34	49.15
700.47	51.49
700.60	14.04
700.73	51.49
700.87	74.90
701.00	77.24
701.13	42.13
701.26	37.45
701.40	0.00
701.53	35.11
701.66	23.41
701.79	70.22
701.93	11.70
702.06	25.75
702.19	46.81
702.32	84.26
702.46	110.01
702.59	0.00
702.72	49.15
702.85	60.85
702.99	11.70
703.12	42.13
703.25	88.94
703.38	0.00
703.51	37.45
703.65	84.26
703.78	0.00
703.91	0.00
704.04	58.51
704.17	0.00
704.31	23.41
704.44	9.36
704.57	42.13
704.70	7.02
704.83	63.19
704.96	35.11
705.10	23.41
705.23	25.75
>>>>>End Processed Spectral Data<<<<<
