SpectraSuite Data File
++++++++++++++++++++++++++++++++++++
Date: Fri Oct 04 12:13:24 GMT-05:00 2013
User: price-jones
Dark Spectrum Present: No
Reference Spectrum Present: No
Number of Sampled Component Spectra: 1
Spectrometers: USB2+H05261
Integration Time (usec): 10000 (USB2+H05261)
Spectra Averaged: 1 (USB2+H05261)
Boxcar Smoothing: 0 (USB2+H05261)
Correct for Electrical Dark: No (USB2+H05261)
Strobe/Lamp Enabled: No (USB2+H05261)
Correct for Detector Non-linearity: No (USB2+H05261)
Correct for Stray Light: No (USB2+H05261)
Number of Pixels in Processed Spectrum: 2048
>>>>>Begin Processed Spectral Data<<<<<
365.73	9.36
365.92	9.36
366.12	9.36
366.32	0.00
366.52	0.00
366.72	0.00
366.91	0.00
367.11	0.00
367.31	0.00
367.51	0.00
367.70	0.00
367.90	0.00
368.10	0.00
368.30	0.00
368.49	0.00
368.69	0.00
368.89	0.00
369.09	0.00
369.28	0.00
369.48	0.00
369.68	0.00
369.87	0.00
370.07	0.00
370.27	0.00
370.47	0.00
370.66	25.75
370.86	0.00
371.06	0.00
371.25	56.17
371.45	0.00
371.65	0.00
371.84	0.00
372.04	0.00
372.24	42.13
372.44	14.04
372.63	25.75
372.83	23.41
373.03	23.41
373.22	18.72
373.42	25.75
373.62	23.41
373.81	23.41
374.01	0.00
374.21	7.02
374.40	0.00
374.60	70.22
374.79	9.36
374.99	23.41
375.19	11.70
375.38	0.00
375.58	0.00
375.78	32.77
375.97	7.02
376.17	0.00
376.37	0.00
376.56	32.77
376.76	30.43
376.95	0.00
377.15	16.38
377.35	0.00
377.54	37.45
377.74	37.45
377.93	56.17
378.13	58.51
378.33	35.11
378.52	0.00
378.72	23.41
378.91	7.02
379.11	0.00
379.31	58.51
379.50	21.06
379.70	51.49
379.89	0.00
380.09	37.45
380.28	7.02
380.48	72.56
380.68	2.34
380.87	0.00
381.07	63.19
381.26	28.09
381.46	0.00
381.65	4.68
381.85	2.34
382.04	14.04
382.24	72.56
382.43	0.00
382.63	0.00
382.83	11.70
383.02	11.70
383.22	0.00
383.41	63.19
383.61	18.72
383.80	39.79
384.00	63.19
384.19	11.70
384.39	42.13
384.58	53.83
384.78	72.56
384.97	21.06
385.17	28.09
385.36	9.36
385.56	65.54
385.75	70.22
385.95	107.66
386.14	21.06
386.34	9.36
386.53	11.70
386.72	4.68
386.92	51.49
387.11	14.04
387.31	0.00
387.50	91.28
387.70	28.09
387.89	7.02
388.09	4.68
388.28	56.17
388.48	95.96
388.67	49.15
388.86	30.43
389.06	25.75
389.25	16.38
389.45	49.15
389.64	9.36
389.84	39.79
390.03	2.34
390.22	0.00
390.42	49.15
390.61	53.83
390.81	0.00
391.00	0.00
391.19	0.00
391.39	0.00
391.58	0.00
391.78	0.00
391.97	23.41
392.16	56.17
392.36	23.41
392.55	11.70
392.75	74.90
392.94	0.00
393.13	4.68
393.33	21.06
393.52	37.45
393.71	0.00
393.91	7.02
394.10	0.00
394.29	0.00
394.49	0.00
394.68	37.45
394.88	32.77
395.07	0.00
395.26	28.09
395.46	23.41
395.65	42.13
395.84	11.70
396.04	32.77
396.23	0.00
396.42	0.00
396.62	0.00
396.81	0.00
397.00	81.92
397.19	0.00
397.39	0.00
397.58	0.00
397.77	0.00
397.97	25.75
398.16	86.60
398.35	49.15
398.55	0.00
398.74	14.04
398.93	9.36
399.12	56.17
399.32	81.92
399.51	72.56
399.70	0.00
399.90	0.00
400.09	79.58
400.28	0.00
400.47	70.22
400.67	0.00
400.86	0.00
401.05	39.79
401.24	23.41
401.44	39.79
401.63	0.00
401.82	11.70
402.01	117.03
402.21	0.00
402.40	56.17
402.59	67.88
402.78	25.75
402.97	23.41
403.17	16.38
403.36	32.77
403.55	58.51
403.74	4.68
403.93	35.11
404.13	0.00
404.32	25.75
404.51	46.81
404.70	60.85
404.89	37.45
405.09	0.00
405.28	18.72
405.47	0.00
405.66	11.70
405.85	30.43
406.05	9.36
406.24	0.00
406.43	0.00
406.62	30.43
406.81	39.79
407.00	42.13
407.20	18.72
407.39	28.09
407.58	0.00
407.77	11.70
407.96	30.43
408.15	2.34
408.34	37.45
408.54	0.00
408.73	4.68
408.92	63.19
409.11	37.45
409.30	18.72
409.49	60.85
409.68	114.69
409.87	0.00
410.07	32.77
410.26	14.04
410.45	0.00
410.64	4.68
410.83	46.81
411.02	23.41
411.21	56.17
411.40	28.09
411.59	46.81
411.78	0.00
411.98	42.13
412.17	30.43
412.36	51.49
412.55	44.47
412.74	21.06
412.93	9.36
413.12	56.17
413.31	0.00
413.50	0.00
413.69	11.70
413.88	16.38
414.07	23.41
414.26	58.51
414.45	25.75
414.64	30.43
414.83	16.38
415.02	16.38
415.22	11.70
415.41	14.04
415.60	28.09
415.79	0.00
415.98	4.68
416.17	37.45
416.36	7.02
416.55	51.49
416.74	25.75
416.93	56.17
417.12	63.19
417.31	56.17
417.50	86.60
417.69	67.88
417.88	11.70
418.07	0.00
418.26	81.92
418.45	14.04
418.64	53.83
418.83	14.04
419.02	0.00
419.21	91.28
419.39	2.34
419.58	0.00
419.77	72.56
419.96	23.41
420.15	77.24
420.34	72.56
420.53	21.06
420.72	44.47
420.91	67.88
421.10	16.38
421.29	4.68
421.48	0.00
421.67	49.15
421.86	9.36
422.05	63.19
422.24	102.98
422.43	0.00
422.61	21.06
422.80	35.11
422.99	35.11
423.18	51.49
423.37	32.77
423.56	37.45
423.75	0.00
423.94	14.04
424.13	23.41
424.32	0.00
424.50	44.47
424.69	16.38
424.88	107.66
425.07	67.88
425.26	0.00
425.45	0.00
425.64	2.34
425.83	7.02
426.01	0.00
426.20	44.47
426.39	51.49
426.58	0.00
426.77	91.28
426.96	30.43
427.15	0.00
427.33	25.75
427.52	25.75
427.71	0.00
427.90	42.13
428.09	4.68
428.28	58.51
428.46	0.00
428.65	74.90
428.84	51.49
429.03	81.92
429.22	0.00
429.40	86.60
429.59	58.51
429.78	53.83
429.97	63.19
430.16	0.00
430.34	0.00
430.53	53.83
430.72	0.00
430.91	46.81
431.10	77.24
431.28	4.68
431.47	63.19
431.66	30.43
431.85	91.28
432.03	14.04
432.22	79.58
432.41	65.54
432.60	0.00
432.79	56.17
432.97	135.75
433.16	9.36
433.35	4.68
433.54	25.75
433.72	30.43
433.91	0.00
434.10	58.51
434.28	100.64
434.47	16.38
434.66	32.77
434.85	9.36
435.03	0.00
435.22	51.49
435.41	0.00
435.59	0.00
435.78	86.60
435.97	7.02
436.16	9.36
436.34	18.72
436.53	28.09
436.72	65.54
436.90	30.43
437.09	56.17
437.28	35.11
437.46	30.43
437.65	37.45
437.84	53.83
438.02	0.00
438.21	81.92
438.40	25.75
438.58	37.45
438.77	23.41
438.96	21.06
439.14	35.11
439.33	98.30
439.52	53.83
439.70	119.37
439.89	77.24
440.08	0.00
440.26	0.00
440.45	58.51
440.63	42.13
440.82	14.04
441.01	0.00
441.19	0.00
441.38	9.36
441.57	53.83
441.75	9.36
441.94	44.47
442.12	9.36
442.31	39.79
442.50	107.66
442.68	70.22
442.87	0.00
443.05	0.00
443.24	35.11
443.43	88.94
443.61	112.35
443.80	0.00
443.98	65.54
444.17	67.88
444.35	86.60
444.54	58.51
444.73	0.00
444.91	7.02
445.10	4.68
445.28	32.77
445.47	42.13
445.65	60.85
445.84	107.66
446.02	65.54
446.21	14.04
446.39	9.36
446.58	0.00
446.77	63.19
446.95	4.68
447.14	0.00
447.32	42.13
447.51	9.36
447.69	95.96
447.88	18.72
448.06	67.88
448.25	0.00
448.43	46.81
448.62	0.00
448.80	0.00
448.99	37.45
449.17	30.43
449.36	37.45
449.54	37.45
449.73	35.11
449.91	28.09
450.10	91.28
450.28	25.75
450.46	0.00
450.65	0.00
450.83	51.49
451.02	131.07
451.20	63.19
451.39	18.72
451.57	4.68
451.76	121.71
451.94	91.28
452.13	39.79
452.31	49.15
452.49	112.35
452.68	28.09
452.86	53.83
453.05	77.24
453.23	23.41
453.42	126.39
453.60	86.60
453.78	0.00
453.97	35.11
454.15	42.13
454.34	28.09
454.52	0.00
454.70	21.06
454.89	53.83
455.07	65.54
455.26	18.72
455.44	46.81
455.62	42.13
455.81	56.17
455.99	39.79
456.17	4.68
456.36	46.81
456.54	65.54
456.73	16.38
456.91	112.35
457.09	79.58
457.28	28.09
457.46	0.00
457.64	0.00
457.83	53.83
458.01	51.49
458.19	49.15
458.38	9.36
458.56	65.54
458.74	60.85
458.93	72.56
459.11	25.75
459.29	14.04
459.48	4.68
459.66	79.58
459.84	70.22
460.03	0.00
460.21	30.43
460.39	84.26
460.57	117.03
460.76	21.06
460.94	7.02
461.12	44.47
461.31	37.45
461.49	70.22
461.67	32.77
461.85	11.70
462.04	72.56
462.22	51.49
462.40	77.24
462.59	0.00
462.77	14.04
462.95	98.30
463.13	39.79
463.32	37.45
463.50	35.11
463.68	70.22
463.86	39.79
464.05	0.00
464.23	44.47
464.41	51.49
464.59	63.19
464.78	21.06
464.96	0.00
465.14	46.81
465.32	49.15
465.50	42.13
465.69	58.51
465.87	39.79
466.05	0.00
466.23	44.47
466.41	0.00
466.60	7.02
466.78	16.38
466.96	0.00
467.14	60.85
467.32	37.45
467.51	11.70
467.69	21.06
467.87	16.38
468.05	7.02
468.23	46.81
468.41	37.45
468.60	42.13
468.78	124.05
468.96	28.09
469.14	16.38
469.32	30.43
469.50	0.00
469.69	58.51
469.87	9.36
470.05	0.00
470.23	37.45
470.41	30.43
470.59	42.13
470.77	0.00
470.95	0.00
471.14	84.26
471.32	98.30
471.50	63.19
471.68	44.47
471.86	37.45
472.04	74.90
472.22	51.49
472.40	135.75
472.58	2.34
472.77	7.02
472.95	84.26
473.13	72.56
473.31	0.00
473.49	32.77
473.67	49.15
473.85	42.13
474.03	39.79
474.21	65.54
474.39	51.49
474.57	91.28
474.75	37.45
474.93	37.45
475.12	23.41
475.30	28.09
475.48	51.49
475.66	0.00
475.84	65.54
476.02	63.19
476.20	51.49
476.38	30.43
476.56	14.04
476.74	0.00
476.92	35.11
477.10	100.64
477.28	28.09
477.46	25.75
477.64	37.45
477.82	32.77
478.00	39.79
478.18	23.41
478.36	0.00
478.54	44.47
478.72	86.60
478.90	86.60
479.08	9.36
479.26	7.02
479.44	88.94
479.62	25.75
479.80	60.85
479.98	65.54
480.16	56.17
480.34	51.49
480.52	110.01
480.70	42.13
480.88	107.66
481.06	51.49
481.24	35.11
481.41	88.94
481.59	49.15
481.77	0.00
481.95	63.19
482.13	63.19
482.31	21.06
482.49	23.41
482.67	84.26
482.85	46.81
483.03	128.73
483.21	107.66
483.39	46.81
483.57	30.43
483.74	35.11
483.92	46.81
484.10	21.06
484.28	16.38
484.46	25.75
484.64	37.45
484.82	110.01
485.00	0.00
485.18	14.04
485.35	81.92
485.53	60.85
485.71	72.56
485.89	0.00
486.07	58.51
486.25	49.15
486.43	67.88
486.61	114.69
486.78	44.47
486.96	0.00
487.14	4.68
487.32	18.72
487.50	0.00
487.68	39.79
487.85	65.54
488.03	28.09
488.21	91.28
488.39	21.06
488.57	51.49
488.75	77.24
488.92	0.00
489.10	0.00
489.28	0.00
489.46	42.13
489.64	98.30
489.81	30.43
489.99	42.13
490.17	53.83
490.35	18.72
490.53	114.69
490.70	42.13
490.88	4.68
491.06	0.00
491.24	53.83
491.41	0.00
491.59	14.04
491.77	44.47
491.95	28.09
492.13	46.81
492.30	56.17
492.48	35.11
492.66	56.17
492.84	0.00
493.01	9.36
493.19	0.00
493.37	25.75
493.54	91.28
493.72	0.00
493.90	74.90
494.08	100.64
494.25	35.11
494.43	32.77
494.61	0.00
494.79	14.04
494.96	53.83
495.14	98.30
495.32	44.47
495.49	65.54
495.67	30.43
495.85	0.00
496.02	2.34
496.20	65.54
496.38	51.49
496.55	81.92
496.73	0.00
496.91	53.83
497.09	63.19
497.26	56.17
497.44	79.58
497.62	16.38
497.79	30.43
497.97	0.00
498.14	30.43
498.32	0.00
498.50	23.41
498.67	70.22
498.85	49.15
499.03	32.77
499.20	18.72
499.38	0.00
499.56	28.09
499.73	58.51
499.91	35.11
500.08	18.72
500.26	65.54
500.44	74.90
500.61	161.50
500.79	23.41
500.97	65.54
501.14	70.22
501.32	81.92
501.49	32.77
501.67	121.71
501.84	119.37
502.02	37.45
502.20	0.00
502.37	81.92
502.55	53.83
502.72	86.60
502.90	67.88
503.07	35.11
503.25	72.56
503.43	46.81
503.60	74.90
503.78	0.00
503.95	74.90
504.13	0.00
504.30	0.00
504.48	0.00
504.65	37.45
504.83	100.64
505.01	112.35
505.18	16.38
505.36	39.79
505.53	100.64
505.71	140.43
505.88	74.90
506.06	58.51
506.23	77.24
506.41	70.22
506.58	0.00
506.76	37.45
506.93	53.83
507.11	28.09
507.28	7.02
507.46	32.77
507.63	0.00
507.81	30.43
507.98	32.77
508.16	67.88
508.33	46.81
508.50	44.47
508.68	0.00
508.85	46.81
509.03	44.47
509.20	51.49
509.38	7.02
509.55	56.17
509.73	86.60
509.90	7.02
510.08	42.13
510.25	74.90
510.42	53.83
510.60	70.22
510.77	14.04
510.95	79.58
511.12	28.09
511.30	65.54
511.47	46.81
511.64	74.90
511.82	91.28
511.99	60.85
512.17	0.00
512.34	0.00
512.51	53.83
512.69	9.36
512.86	28.09
513.04	107.66
513.21	0.00
513.38	42.13
513.56	14.04
513.73	18.72
513.90	63.19
514.08	9.36
514.25	18.72
514.43	4.68
514.60	25.75
514.77	0.00
514.95	28.09
515.12	18.72
515.29	42.13
515.47	74.90
515.64	30.43
515.81	23.41
515.99	0.00
516.16	51.49
516.33	81.92
516.51	95.96
516.68	35.11
516.85	42.13
517.03	60.85
517.20	30.43
517.37	49.15
517.54	16.38
517.72	30.43
517.89	70.22
518.06	74.90
518.24	53.83
518.41	44.47
518.58	32.77
518.75	53.83
518.93	51.49
519.10	7.02
519.27	84.26
519.45	7.02
519.62	51.49
519.79	44.47
519.96	0.00
520.14	0.00
520.31	28.09
520.48	18.72
520.65	28.09
520.83	32.77
521.00	0.00
521.17	32.77
521.34	88.94
521.52	42.13
521.69	14.04
521.86	110.01
522.03	93.62
522.20	100.64
522.38	81.92
522.55	21.06
522.72	65.54
522.89	67.88
523.07	32.77
523.24	9.36
523.41	93.62
523.58	21.06
523.75	42.13
523.92	2.34
524.10	67.88
524.27	37.45
524.44	18.72
524.61	84.26
524.78	0.00
524.96	4.68
525.13	86.60
525.30	32.77
525.47	0.00
525.64	72.56
525.81	70.22
525.98	60.85
526.16	70.22
526.33	0.00
526.50	16.38
526.67	16.38
526.84	63.19
527.01	32.77
527.18	0.00
527.36	53.83
527.53	23.41
527.70	0.00
527.87	0.00
528.04	102.98
528.21	67.88
528.38	95.96
528.55	65.54
528.72	28.09
528.89	42.13
529.07	14.04
529.24	32.77
529.41	53.83
529.58	9.36
529.75	72.56
529.92	56.17
530.09	25.75
530.26	98.30
530.43	0.00
530.60	42.13
530.77	42.13
530.94	37.45
531.11	0.00
531.28	23.41
531.46	0.00
531.63	51.49
531.80	16.38
531.97	74.90
532.14	58.51
532.31	42.13
532.48	81.92
532.65	0.00
532.82	0.00
532.99	0.00
533.16	70.22
533.33	77.24
533.50	65.54
533.67	0.00
533.84	88.94
534.01	28.09
534.18	74.90
534.35	86.60
534.52	98.30
534.69	102.98
534.86	56.17
535.03	44.47
535.20	49.15
535.37	7.02
535.54	32.77
535.71	98.30
535.88	9.36
536.05	9.36
536.22	100.64
536.38	72.56
536.55	0.00
536.72	0.00
536.89	51.49
537.06	63.19
537.23	9.36
537.40	56.17
537.57	16.38
537.74	79.58
537.91	39.79
538.08	81.92
538.25	91.28
538.42	107.66
538.59	32.77
538.75	56.17
538.92	105.32
539.09	86.60
539.26	70.22
539.43	84.26
539.60	44.47
539.77	32.77
539.94	42.13
540.11	0.00
540.28	0.00
540.44	0.00
540.61	86.60
540.78	86.60
540.95	37.45
541.12	63.19
541.29	0.00
541.46	88.94
541.62	58.51
541.79	67.88
541.96	58.51
542.13	32.77
542.30	0.00
542.47	4.68
542.63	9.36
542.80	112.35
542.97	44.47
543.14	95.96
543.31	21.06
543.48	44.47
543.64	91.28
543.81	25.75
543.98	65.54
544.15	0.00
544.32	25.75
544.48	21.06
544.65	42.13
544.82	102.98
544.99	0.00
545.16	0.00
545.32	42.13
545.49	46.81
545.66	42.13
545.83	91.28
546.00	0.00
546.16	28.09
546.33	23.41
546.50	49.15
546.67	70.22
546.83	58.51
547.00	93.62
547.17	84.26
547.34	44.47
547.50	23.41
547.67	11.70
547.84	2.34
548.00	37.45
548.17	30.43
548.34	77.24
548.51	21.06
548.67	30.43
548.84	18.72
549.01	25.75
549.18	0.00
549.34	58.51
549.51	0.00
549.68	0.00
549.84	79.58
550.01	21.06
550.18	63.19
550.34	86.60
550.51	70.22
550.68	0.00
550.84	0.00
551.01	25.75
551.18	72.56
551.34	86.60
551.51	0.00
551.68	56.17
551.84	37.45
552.01	84.26
552.18	32.77
552.34	77.24
552.51	4.68
552.68	0.00
552.84	35.11
553.01	86.60
553.18	67.88
553.34	25.75
553.51	67.88
553.67	25.75
553.84	0.00
554.01	21.06
554.17	7.02
554.34	0.00
554.51	70.22
554.67	9.36
554.84	28.09
555.00	28.09
555.17	49.15
555.33	0.00
555.50	30.43
555.67	0.00
555.83	81.92
556.00	42.13
556.16	51.49
556.33	28.09
556.50	23.41
556.66	44.47
556.83	44.47
556.99	0.00
557.16	0.00
557.32	42.13
557.49	14.04
557.65	65.54
557.82	91.28
557.98	65.54
558.15	35.11
558.32	88.94
558.48	72.56
558.65	39.79
558.81	51.49
558.98	39.79
559.14	95.96
559.31	79.58
559.47	21.06
559.64	42.13
559.80	91.28
559.97	25.75
560.13	0.00
560.30	58.51
560.46	88.94
560.63	63.19
560.79	49.15
560.96	86.60
561.12	30.43
561.29	0.00
561.45	114.69
561.61	79.58
561.78	32.77
561.94	81.92
562.11	63.19
562.27	74.90
562.44	51.49
562.60	0.00
562.77	30.43
562.93	56.17
563.10	32.77
563.26	2.34
563.42	98.30
563.59	28.09
563.75	70.22
563.92	2.34
564.08	0.00
564.24	65.54
564.41	51.49
564.57	37.45
564.74	93.62
564.90	147.45
565.07	119.37
565.23	51.49
565.39	16.38
565.56	25.75
565.72	98.30
565.88	37.45
566.05	39.79
566.21	0.00
566.38	65.54
566.54	126.39
566.70	30.43
566.87	77.24
567.03	51.49
567.19	0.00
567.36	98.30
567.52	14.04
567.68	84.26
567.85	124.05
568.01	35.11
568.17	95.96
568.34	95.96
568.50	0.00
568.66	11.70
568.83	84.26
568.99	77.24
569.15	42.13
569.32	88.94
569.48	117.03
569.64	0.00
569.81	67.88
569.97	28.09
570.13	35.11
570.30	18.72
570.46	23.41
570.62	100.64
570.78	42.13
570.95	0.00
571.11	14.04
571.27	28.09
571.43	100.64
571.60	42.13
571.76	0.00
571.92	91.28
572.09	74.90
572.25	0.00
572.41	0.00
572.57	70.22
572.74	42.13
572.90	53.83
573.06	114.69
573.22	30.43
573.38	30.43
573.55	44.47
573.71	37.45
573.87	49.15
574.03	51.49
574.20	67.88
574.36	25.75
574.52	35.11
574.68	37.45
574.84	4.68
575.01	60.85
575.17	32.77
575.33	60.85
575.49	63.19
575.65	58.51
575.82	42.13
575.98	84.26
576.14	7.02
576.30	70.22
576.46	16.38
576.62	74.90
576.79	0.00
576.95	28.09
577.11	77.24
577.27	0.00
577.43	28.09
577.59	149.79
577.75	74.90
577.92	63.19
578.08	67.88
578.24	86.60
578.40	9.36
578.56	81.92
578.72	121.71
578.88	67.88
579.04	39.79
579.21	65.54
579.37	46.81
579.53	14.04
579.69	86.60
579.85	16.38
580.01	100.64
580.17	30.43
580.33	46.81
580.49	23.41
580.65	21.06
580.82	51.49
580.98	46.81
581.14	37.45
581.30	65.54
581.46	65.54
581.62	16.38
581.78	133.41
581.94	117.03
582.10	0.00
582.26	53.83
582.42	72.56
582.58	21.06
582.74	0.00
582.90	23.41
583.06	72.56
583.22	56.17
583.38	63.19
583.54	14.04
583.70	37.45
583.86	0.00
584.02	28.09
584.18	91.28
584.34	0.00
584.50	37.45
584.66	93.62
584.82	44.47
584.98	21.06
585.14	28.09
585.30	84.26
585.46	84.26
585.62	44.47
585.78	51.49
585.94	18.72
586.10	95.96
586.26	39.79
586.42	42.13
586.58	16.38
586.74	32.77
586.90	0.00
587.06	44.47
587.22	77.24
587.38	70.22
587.54	30.43
587.70	65.54
587.86	9.36
588.02	46.81
588.18	102.98
588.34	102.98
588.49	84.26
588.65	39.79
588.81	14.04
588.97	65.54
589.13	4.68
589.29	128.73
589.45	32.77
589.61	30.43
589.77	32.77
589.93	9.36
590.08	14.04
590.24	18.72
590.40	7.02
590.56	67.88
590.72	53.83
590.88	79.58
591.04	4.68
591.20	35.11
591.35	67.88
591.51	98.30
591.67	81.92
591.83	53.83
591.99	49.15
592.15	81.92
592.31	0.00
592.46	23.41
592.62	0.00
592.78	11.70
592.94	25.75
593.10	63.19
593.26	81.92
593.41	91.28
593.57	30.43
593.73	4.68
593.89	0.00
594.05	77.24
594.20	14.04
594.36	18.72
594.52	0.00
594.68	18.72
594.84	42.13
594.99	63.19
595.15	0.00
595.31	30.43
595.47	42.13
595.62	58.51
595.78	65.54
595.94	70.22
596.10	0.00
596.25	0.00
596.41	42.13
596.57	67.88
596.73	86.60
596.88	35.11
597.04	51.49
597.20	37.45
597.36	119.37
597.51	28.09
597.67	0.00
597.83	25.75
597.99	77.24
598.14	65.54
598.30	67.88
598.46	77.24
598.61	107.66
598.77	18.72
598.93	86.60
599.09	44.47
599.24	4.68
599.40	100.64
599.56	0.00
599.71	4.68
599.87	9.36
600.03	100.64
600.18	0.00
600.34	30.43
600.50	37.45
600.65	7.02
600.81	2.34
600.97	28.09
601.12	60.85
601.28	67.88
601.44	42.13
601.59	53.83
601.75	0.00
601.91	25.75
602.06	67.88
602.22	0.00
602.37	56.17
602.53	56.17
602.69	18.72
602.84	74.90
603.00	28.09
603.16	60.85
603.31	72.56
603.47	32.77
603.62	112.35
603.78	0.00
603.94	51.49
604.09	53.83
604.25	0.00
604.40	21.06
604.56	30.43
604.71	7.02
604.87	63.19
605.03	42.13
605.18	49.15
605.34	39.79
605.49	56.17
605.65	53.83
605.80	77.24
605.96	23.41
606.12	98.30
606.27	37.45
606.43	56.17
606.58	0.00
606.74	9.36
606.89	100.64
607.05	23.41
607.20	84.26
607.36	32.77
607.51	95.96
607.67	0.00
607.82	30.43
607.98	72.56
608.13	67.88
608.29	49.15
608.44	16.38
608.60	2.34
608.75	63.19
608.91	9.36
609.06	67.88
609.22	88.94
609.37	58.51
609.53	37.45
609.68	14.04
609.84	0.00
609.99	28.09
610.15	51.49
610.30	0.00
610.46	0.00
610.61	88.94
610.76	102.98
610.92	4.68
611.07	0.00
611.23	14.04
611.38	56.17
611.54	44.47
611.69	0.00
611.84	35.11
612.00	35.11
612.15	39.79
612.31	32.77
612.46	35.11
612.62	86.60
612.77	70.22
612.92	23.41
613.08	28.09
613.23	4.68
613.39	0.00
613.54	56.17
613.69	56.17
613.85	0.00
614.00	32.77
614.15	77.24
614.31	23.41
614.46	0.00
614.62	58.51
614.77	0.00
614.92	32.77
615.08	4.68
615.23	0.00
615.38	67.88
615.54	0.00
615.69	37.45
615.84	51.49
616.00	74.90
616.15	39.79
616.30	37.45
616.46	42.13
616.61	81.92
616.76	60.85
616.92	56.17
617.07	86.60
617.22	30.43
617.37	51.49
617.53	0.00
617.68	79.58
617.83	51.49
617.99	63.19
618.14	84.26
618.29	60.85
618.45	63.19
618.60	42.13
618.75	121.71
618.90	0.00
619.06	0.00
619.21	7.02
619.36	124.05
619.51	37.45
619.67	0.00
619.82	0.00
619.97	16.38
620.12	18.72
620.28	42.13
620.43	53.83
620.58	0.00
620.73	63.19
620.89	53.83
621.04	84.26
621.19	30.43
621.34	37.45
621.49	4.68
621.65	81.92
621.80	30.43
621.95	100.64
622.10	39.79
622.25	42.13
622.41	53.83
622.56	53.83
622.71	67.88
622.86	39.79
623.01	46.81
623.16	91.28
623.32	37.45
623.47	25.75
623.62	0.00
623.77	21.06
623.92	72.56
624.07	16.38
624.23	9.36
624.38	72.56
624.53	147.45
624.68	77.24
624.83	11.70
624.98	0.00
625.13	44.47
625.29	2.34
625.44	58.51
625.59	37.45
625.74	60.85
625.89	37.45
626.04	51.49
626.19	39.79
626.34	70.22
626.49	0.00
626.65	18.72
626.80	28.09
626.95	51.49
627.10	39.79
627.25	42.13
627.40	0.00
627.55	110.01
627.70	35.11
627.85	28.09
628.00	23.41
628.15	42.13
628.30	35.11
628.45	74.90
628.60	11.70
628.76	86.60
628.91	58.51
629.06	11.70
629.21	21.06
629.36	28.09
629.51	0.00
629.66	72.56
629.81	70.22
629.96	23.41
630.11	0.00
630.26	0.00
630.41	58.51
630.56	84.26
630.71	9.36
630.86	25.75
631.01	91.28
631.16	51.49
631.31	42.13
631.46	4.68
631.61	0.00
631.76	67.88
631.91	86.60
632.06	0.00
632.21	32.77
632.36	25.75
632.51	0.00
632.66	7.02
632.81	58.51
632.96	37.45
633.10	0.00
633.25	88.94
633.40	67.88
633.55	42.13
633.70	18.72
633.85	28.09
634.00	0.00
634.15	53.83
634.30	42.13
634.45	28.09
634.60	0.00
634.75	25.75
634.90	72.56
635.05	65.54
635.19	65.54
635.34	46.81
635.49	4.68
635.64	102.98
635.79	93.62
635.94	4.68
636.09	51.49
636.24	53.83
636.39	53.83
636.53	39.79
636.68	0.00
636.83	0.00
636.98	51.49
637.13	0.00
637.28	25.75
637.43	37.45
637.57	0.00
637.72	0.00
637.87	74.90
638.02	7.02
638.17	72.56
638.32	30.43
638.46	56.17
638.61	100.64
638.76	0.00
638.91	0.00
639.06	77.24
639.20	35.11
639.35	46.81
639.50	46.81
639.65	128.73
639.80	28.09
639.94	37.45
640.09	37.45
640.24	21.06
640.39	0.00
640.54	0.00
640.68	0.00
640.83	102.98
640.98	46.81
641.13	0.00
641.27	35.11
641.42	98.30
641.57	74.90
641.72	21.06
641.86	35.11
642.01	25.75
642.16	14.04
642.31	0.00
642.45	30.43
642.60	37.45
642.75	46.81
642.90	23.41
643.04	14.04
643.19	32.77
643.34	88.94
643.48	107.66
643.63	156.82
643.78	35.11
643.93	65.54
644.07	74.90
644.22	0.00
644.37	0.00
644.51	60.85
644.66	21.06
644.81	21.06
644.95	77.24
645.10	51.49
645.25	11.70
645.39	18.72
645.54	23.41
645.69	18.72
645.83	9.36
645.98	28.09
646.13	39.79
646.27	60.85
646.42	23.41
646.57	95.96
646.71	114.69
646.86	21.06
647.00	7.02
647.15	11.70
647.30	42.13
647.44	126.39
647.59	11.70
647.74	79.58
647.88	0.00
648.03	44.47
648.17	173.20
648.32	81.92
648.47	14.04
648.61	16.38
648.76	84.26
648.90	0.00
649.05	98.30
649.20	0.00
649.34	9.36
649.49	58.51
649.63	25.75
649.78	4.68
649.92	49.15
650.07	0.00
650.21	0.00
650.36	18.72
650.51	84.26
650.65	65.54
650.80	86.60
650.94	121.71
651.09	39.79
651.23	32.77
651.38	70.22
651.52	91.28
651.67	0.00
651.81	53.83
651.96	49.15
652.10	49.15
652.25	35.11
652.39	42.13
652.54	0.00
652.68	39.79
652.83	42.13
652.97	93.62
653.12	53.83
653.26	86.60
653.41	46.81
653.55	60.85
653.70	25.75
653.84	42.13
653.99	72.56
654.13	0.00
654.27	7.02
654.42	32.77
654.56	0.00
654.71	51.49
654.85	7.02
655.00	0.00
655.14	70.22
655.29	58.51
655.43	100.64
655.57	81.92
655.72	44.47
655.86	0.00
656.01	67.88
656.15	32.77
656.30	42.13
656.44	46.81
656.58	28.09
656.73	49.15
656.87	91.28
657.01	0.00
657.16	44.47
657.30	74.90
657.45	28.09
657.59	51.49
657.73	72.56
657.88	7.02
658.02	60.85
658.16	39.79
658.31	11.70
658.45	70.22
658.60	28.09
658.74	7.02
658.88	0.00
659.03	60.85
659.17	107.66
659.31	11.70
659.46	23.41
659.60	32.77
659.74	88.94
659.89	0.00
660.03	100.64
660.17	9.36
660.32	0.00
660.46	32.77
660.60	28.09
660.74	0.00
660.89	14.04
661.03	0.00
661.17	67.88
661.32	39.79
661.46	0.00
661.60	32.77
661.74	18.72
661.89	53.83
662.03	0.00
662.17	79.58
662.31	9.36
662.46	51.49
662.60	28.09
662.74	65.54
662.88	72.56
663.03	0.00
663.17	35.11
663.31	46.81
663.45	53.83
663.60	0.00
663.74	25.75
663.88	9.36
664.02	0.00
664.17	28.09
664.31	0.00
664.45	44.47
664.59	53.83
664.73	46.81
664.88	35.11
665.02	63.19
665.16	37.45
665.30	0.00
665.44	51.49
665.59	95.96
665.73	0.00
665.87	44.47
666.01	0.00
666.15	95.96
666.29	0.00
666.44	7.02
666.58	91.28
666.72	79.58
666.86	32.77
667.00	53.83
667.14	42.13
667.28	35.11
667.43	21.06
667.57	77.24
667.71	44.47
667.85	37.45
667.99	0.00
668.13	72.56
668.27	46.81
668.41	53.83
668.56	35.11
668.70	58.51
668.84	72.56
668.98	0.00
669.12	28.09
669.26	14.04
669.40	79.58
669.54	21.06
669.68	98.30
669.82	0.00
669.96	74.90
670.10	39.79
670.25	77.24
670.39	58.51
670.53	51.49
670.67	35.11
670.81	93.62
670.95	11.70
671.09	0.00
671.23	77.24
671.37	0.00
671.51	28.09
671.65	46.81
671.79	77.24
671.93	23.41
672.07	16.38
672.21	84.26
672.35	51.49
672.49	72.56
672.63	67.88
672.77	56.17
672.91	32.77
673.05	81.92
673.19	0.00
673.33	63.19
673.47	74.90
673.61	0.00
673.75	9.36
673.89	32.77
674.03	72.56
674.17	25.75
674.31	44.47
674.45	21.06
674.59	0.00
674.73	42.13
674.87	39.79
675.01	0.00
675.15	0.00
675.29	16.38
675.43	44.47
675.56	60.85
675.70	7.02
675.84	56.17
675.98	16.38
676.12	56.17
676.26	88.94
676.40	110.01
676.54	135.75
676.68	107.66
676.82	74.90
676.96	0.00
677.10	0.00
677.23	30.43
677.37	74.90
677.51	102.98
677.65	74.90
677.79	0.00
677.93	72.56
678.07	93.62
678.21	65.54
678.34	25.75
678.48	49.15
678.62	60.85
678.76	18.72
678.90	0.00
679.04	46.81
679.18	4.68
679.31	100.64
679.45	14.04
679.59	18.72
679.73	11.70
679.87	30.43
680.00	7.02
680.14	58.51
680.28	0.00
680.42	25.75
680.56	60.85
680.70	25.75
680.83	0.00
680.97	16.38
681.11	0.00
681.25	7.02
681.39	2.34
681.52	81.92
681.66	95.96
681.80	81.92
681.94	16.38
682.07	37.45
682.21	84.26
682.35	0.00
682.49	14.04
682.62	91.28
682.76	67.88
682.90	56.17
683.04	88.94
683.17	81.92
683.31	0.00
683.45	60.85
683.59	28.09
683.72	28.09
683.86	16.38
684.00	42.13
684.13	14.04
684.27	25.75
684.41	23.41
684.55	35.11
684.68	9.36
684.82	16.38
684.96	91.28
685.09	25.75
685.23	4.68
685.37	0.00
685.50	46.81
685.64	30.43
685.78	53.83
685.91	121.71
686.05	56.17
686.19	0.00
686.32	49.15
686.46	58.51
686.60	14.04
686.73	42.13
686.87	4.68
687.01	25.75
687.14	23.41
687.28	0.00
687.42	0.00
687.55	0.00
687.69	119.37
687.82	11.70
687.96	74.90
688.10	49.15
688.23	51.49
688.37	79.58
688.50	42.13
688.64	0.00
688.78	16.38
688.91	79.58
689.05	0.00
689.18	4.68
689.32	35.11
689.46	49.15
689.59	32.77
689.73	65.54
689.86	28.09
690.00	32.77
690.13	39.79
690.27	65.54
690.41	72.56
690.54	49.15
690.68	0.00
690.81	18.72
690.95	0.00
691.08	46.81
691.22	7.02
691.35	4.68
691.49	0.00
691.62	0.00
691.76	23.41
691.89	51.49
692.03	42.13
692.16	0.00
692.30	79.58
692.43	70.22
692.57	35.11
692.70	39.79
692.84	72.56
692.97	35.11
693.11	86.60
693.24	4.68
693.38	72.56
693.51	84.26
693.65	25.75
693.78	4.68
693.92	18.72
694.05	0.00
694.19	49.15
694.32	18.72
694.45	23.41
694.59	53.83
694.72	23.41
694.86	81.92
694.99	16.38
695.13	93.62
695.26	18.72
695.39	0.00
695.53	28.09
695.66	21.06
695.80	46.81
695.93	0.00
696.07	30.43
696.20	56.17
696.33	0.00
696.47	79.58
696.60	53.83
696.73	0.00
696.87	23.41
697.00	23.41
697.14	21.06
697.27	49.15
697.40	11.70
697.54	0.00
697.67	79.58
697.80	67.88
697.94	46.81
698.07	0.00
698.21	9.36
698.34	88.94
698.47	63.19
698.61	0.00
698.74	0.00
698.87	21.06
699.01	107.66
699.14	28.09
699.27	0.00
699.40	0.00
699.54	0.00
699.67	86.60
699.80	44.47
699.94	16.38
700.07	77.24
700.20	25.75
700.34	32.77
700.47	100.64
700.60	100.64
700.73	70.22
700.87	30.43
701.00	0.00
701.13	58.51
701.26	81.92
701.40	0.00
701.53	42.13
701.66	74.90
701.79	58.51
701.93	72.56
702.06	42.13
702.19	0.00
702.32	39.79
702.46	16.38
702.59	86.60
702.72	0.00
702.85	28.09
702.99	51.49
703.12	37.45
703.25	18.72
703.38	98.30
703.51	32.77
703.65	39.79
703.78	23.41
703.91	86.60
704.04	32.77
704.17	7.02
704.31	28.09
704.44	0.00
704.57	0.00
704.70	0.00
704.83	7.02
704.96	23.41
705.10	35.11
705.23	28.09
>>>>>End Processed Spectral Data<<<<<
