SpectraSuite Data File
++++++++++++++++++++++++++++++++++++
Date: Fri Oct 04 12:13:40 GMT-05:00 2013
User: price-jones
Dark Spectrum Present: No
Reference Spectrum Present: No
Number of Sampled Component Spectra: 1
Spectrometers: USB2+H05261
Integration Time (usec): 10000 (USB2+H05261)
Spectra Averaged: 1 (USB2+H05261)
Boxcar Smoothing: 0 (USB2+H05261)
Correct for Electrical Dark: No (USB2+H05261)
Strobe/Lamp Enabled: No (USB2+H05261)
Correct for Detector Non-linearity: No (USB2+H05261)
Correct for Stray Light: No (USB2+H05261)
Number of Pixels in Processed Spectrum: 2048
>>>>>Begin Processed Spectral Data<<<<<
365.73	0.00
365.92	0.00
366.12	0.00
366.32	0.00
366.52	0.00
366.72	0.00
366.91	0.00
367.11	0.00
367.31	0.00
367.51	0.00
367.70	0.00
367.90	0.00
368.10	0.00
368.30	0.00
368.49	0.00
368.69	0.00
368.89	0.00
369.09	0.00
369.28	0.00
369.48	0.00
369.68	0.00
369.87	0.00
370.07	0.00
370.27	0.00
370.47	0.00
370.66	0.00
370.86	0.00
371.06	0.00
371.25	0.00
371.45	7.02
371.65	37.45
371.84	60.85
372.04	7.02
372.24	0.00
372.44	0.00
372.63	23.41
372.83	14.04
373.03	21.06
373.22	0.00
373.42	16.38
373.62	7.02
373.81	30.43
374.01	0.00
374.21	2.34
374.40	30.43
374.60	4.68
374.79	42.13
374.99	23.41
375.19	0.00
375.38	28.09
375.58	51.49
375.78	51.49
375.97	44.47
376.17	39.79
376.37	65.54
376.56	0.00
376.76	0.00
376.95	23.41
377.15	39.79
377.35	0.00
377.54	63.19
377.74	119.37
377.93	0.00
378.13	102.98
378.33	0.00
378.52	0.00
378.72	7.02
378.91	39.79
379.11	0.00
379.31	0.00
379.50	4.68
379.70	14.04
379.89	56.17
380.09	0.00
380.28	0.00
380.48	0.00
380.68	14.04
380.87	0.00
381.07	56.17
381.26	49.15
381.46	7.02
381.65	42.13
381.85	30.43
382.04	0.00
382.24	51.49
382.43	37.45
382.63	46.81
382.83	0.00
383.02	77.24
383.22	60.85
383.41	102.98
383.61	21.06
383.80	28.09
384.00	46.81
384.19	39.79
384.39	37.45
384.58	0.00
384.78	44.47
384.97	81.92
385.17	11.70
385.36	0.00
385.56	0.00
385.75	4.68
385.95	49.15
386.14	11.70
386.34	21.06
386.53	100.64
386.72	0.00
386.92	37.45
387.11	0.00
387.31	42.13
387.50	0.00
387.70	0.00
387.89	0.00
388.09	0.00
388.28	25.75
388.48	49.15
388.67	0.00
388.86	58.51
389.06	44.47
389.25	86.60
389.45	32.77
389.64	0.00
389.84	0.00
390.03	37.45
390.22	42.13
390.42	0.00
390.61	0.00
390.81	18.72
391.00	93.62
391.19	0.00
391.39	98.30
391.58	79.58
391.78	0.00
391.97	0.00
392.16	9.36
392.36	0.00
392.55	25.75
392.75	14.04
392.94	0.00
393.13	42.13
393.33	23.41
393.52	84.26
393.71	44.47
393.91	44.47
394.10	0.00
394.29	23.41
394.49	0.00
394.68	16.38
394.88	28.09
395.07	9.36
395.26	25.75
395.46	49.15
395.65	53.83
395.84	14.04
396.04	14.04
396.23	53.83
396.42	37.45
396.62	0.00
396.81	32.77
397.00	4.68
397.19	60.85
397.39	86.60
397.58	21.06
397.77	93.62
397.97	77.24
398.16	67.88
398.35	72.56
398.55	49.15
398.74	44.47
398.93	0.00
399.12	53.83
399.32	81.92
399.51	100.64
399.70	53.83
399.90	65.54
400.09	102.98
400.28	39.79
400.47	0.00
400.67	35.11
400.86	35.11
401.05	4.68
401.24	0.00
401.44	0.00
401.63	4.68
401.82	0.00
402.01	4.68
402.21	9.36
402.40	58.51
402.59	77.24
402.78	32.77
402.97	74.90
403.17	14.04
403.36	56.17
403.55	0.00
403.74	35.11
403.93	42.13
404.13	0.00
404.32	39.79
404.51	4.68
404.70	4.68
404.89	65.54
405.09	63.19
405.28	39.79
405.47	0.00
405.66	0.00
405.85	0.00
406.05	0.00
406.24	70.22
406.43	0.00
406.62	42.13
406.81	65.54
407.00	58.51
407.20	37.45
407.39	32.77
407.58	63.19
407.77	63.19
407.96	7.02
408.15	51.49
408.34	58.51
408.54	0.00
408.73	74.90
408.92	35.11
409.11	44.47
409.30	72.56
409.49	30.43
409.68	39.79
409.87	14.04
410.07	56.17
410.26	35.11
410.45	18.72
410.64	11.70
410.83	74.90
411.02	0.00
411.21	30.43
411.40	30.43
411.59	56.17
411.78	46.81
411.98	51.49
412.17	44.47
412.36	37.45
412.55	49.15
412.74	4.68
412.93	95.96
413.12	35.11
413.31	65.54
413.50	100.64
413.69	77.24
413.88	7.02
414.07	25.75
414.26	56.17
414.45	28.09
414.64	119.37
414.83	70.22
415.02	53.83
415.22	18.72
415.41	84.26
415.60	14.04
415.79	18.72
415.98	46.81
416.17	11.70
416.36	30.43
416.55	25.75
416.74	9.36
416.93	49.15
417.12	0.00
417.31	126.39
417.50	2.34
417.69	23.41
417.88	102.98
418.07	30.43
418.26	100.64
418.45	4.68
418.64	37.45
418.83	42.13
419.02	79.58
419.21	14.04
419.39	14.04
419.58	81.92
419.77	84.26
419.96	35.11
420.15	21.06
420.34	23.41
420.53	86.60
420.72	0.00
420.91	37.45
421.10	63.19
421.29	56.17
421.48	138.09
421.67	28.09
421.86	0.00
422.05	0.00
422.24	0.00
422.43	39.79
422.61	128.73
422.80	11.70
422.99	102.98
423.18	65.54
423.37	14.04
423.56	74.90
423.75	39.79
423.94	60.85
424.13	56.17
424.32	25.75
424.50	39.79
424.69	21.06
424.88	67.88
425.07	0.00
425.26	46.81
425.45	30.43
425.64	28.09
425.83	39.79
426.01	0.00
426.20	28.09
426.39	0.00
426.58	23.41
426.77	112.35
426.96	11.70
427.15	0.00
427.33	51.49
427.52	4.68
427.71	4.68
427.90	56.17
428.09	93.62
428.28	37.45
428.46	32.77
428.65	16.38
428.84	39.79
429.03	0.00
429.22	42.13
429.40	18.72
429.59	67.88
429.78	0.00
429.97	23.41
430.16	42.13
430.34	81.92
430.53	4.68
430.72	79.58
430.91	65.54
431.10	23.41
431.28	77.24
431.47	32.77
431.66	14.04
431.85	110.01
432.03	63.19
432.22	74.90
432.41	67.88
432.60	58.51
432.79	30.43
432.97	9.36
433.16	100.64
433.35	67.88
433.54	44.47
433.72	60.85
433.91	77.24
434.10	58.51
434.28	30.43
434.47	56.17
434.66	44.47
434.85	65.54
435.03	42.13
435.22	42.13
435.41	70.22
435.59	65.54
435.78	18.72
435.97	100.64
436.16	25.75
436.34	63.19
436.53	65.54
436.72	51.49
436.90	51.49
437.09	16.38
437.28	37.45
437.46	98.30
437.65	2.34
437.84	0.00
438.02	74.90
438.21	49.15
438.40	98.30
438.58	21.06
438.77	0.00
438.96	23.41
439.14	112.35
439.33	60.85
439.52	74.90
439.70	56.17
439.89	88.94
440.08	49.15
440.26	74.90
440.45	0.00
440.63	88.94
440.82	93.62
441.01	63.19
441.19	60.85
441.38	42.13
441.57	25.75
441.75	58.51
441.94	88.94
442.12	60.85
442.31	63.19
442.50	42.13
442.68	28.09
442.87	65.54
443.05	53.83
443.24	93.62
443.43	98.30
443.61	117.03
443.80	9.36
443.98	46.81
444.17	32.77
444.35	49.15
444.54	42.13
444.73	88.94
444.91	0.00
445.10	67.88
445.28	0.00
445.47	25.75
445.65	60.85
445.84	49.15
446.02	63.19
446.21	77.24
446.39	74.90
446.58	91.28
446.77	18.72
446.95	28.09
447.14	4.68
447.32	65.54
447.51	98.30
447.69	74.90
447.88	105.32
448.06	105.32
448.25	0.00
448.43	72.56
448.62	35.11
448.80	35.11
448.99	65.54
449.17	121.71
449.36	42.13
449.54	100.64
449.73	60.85
449.91	32.77
450.10	44.47
450.28	72.56
450.46	79.58
450.65	7.02
450.83	65.54
451.02	51.49
451.20	65.54
451.39	30.43
451.57	58.51
451.76	60.85
451.94	44.47
452.13	23.41
452.31	67.88
452.49	30.43
452.68	42.13
452.86	2.34
453.05	88.94
453.23	77.24
453.42	63.19
453.60	67.88
453.78	0.00
453.97	56.17
454.15	35.11
454.34	147.45
454.52	84.26
454.70	63.19
454.89	159.16
455.07	46.81
455.26	74.90
455.44	114.69
455.62	9.36
455.81	4.68
455.99	93.62
456.17	100.64
456.36	56.17
456.54	28.09
456.73	79.58
456.91	35.11
457.09	95.96
457.28	9.36
457.46	95.96
457.64	79.58
457.83	0.00
458.01	51.49
458.19	91.28
458.38	84.26
458.56	170.86
458.74	67.88
458.93	91.28
459.11	98.30
459.29	84.26
459.48	56.17
459.66	58.51
459.84	23.41
460.03	114.69
460.21	72.56
460.39	25.75
460.57	14.04
460.76	42.13
460.94	51.49
461.12	81.92
461.31	74.90
461.49	63.19
461.67	18.72
461.85	117.03
462.04	46.81
462.22	128.73
462.40	30.43
462.59	81.92
462.77	88.94
462.95	67.88
463.13	42.13
463.32	142.77
463.50	70.22
463.68	81.92
463.86	77.24
464.05	25.75
464.23	51.49
464.41	4.68
464.59	65.54
464.78	79.58
464.96	65.54
465.14	93.62
465.32	105.32
465.50	56.17
465.69	67.88
465.87	42.13
466.05	39.79
466.23	112.35
466.41	70.22
466.60	117.03
466.78	30.43
466.96	100.64
467.14	4.68
467.32	4.68
467.51	2.34
467.69	72.56
467.87	0.00
468.05	0.00
468.23	46.81
468.41	0.00
468.60	84.26
468.78	110.01
468.96	86.60
469.14	91.28
469.32	98.30
469.50	0.00
469.69	56.17
469.87	25.75
470.05	44.47
470.23	18.72
470.41	21.06
470.59	9.36
470.77	0.00
470.95	35.11
471.14	23.41
471.32	0.00
471.50	121.71
471.68	194.26
471.86	23.41
472.04	4.68
472.22	84.26
472.40	58.51
472.58	81.92
472.77	86.60
472.95	53.83
473.13	16.38
473.31	77.24
473.49	25.75
473.67	49.15
473.85	0.00
474.03	49.15
474.21	128.73
474.39	60.85
474.57	65.54
474.75	119.37
474.93	42.13
475.12	100.64
475.30	49.15
475.48	28.09
475.66	53.83
475.84	65.54
476.02	56.17
476.20	56.17
476.38	37.45
476.56	0.00
476.74	63.19
476.92	21.06
477.10	107.66
477.28	128.73
477.46	53.83
477.64	70.22
477.82	28.09
478.00	49.15
478.18	77.24
478.36	18.72
478.54	39.79
478.72	0.00
478.90	84.26
479.08	72.56
479.26	51.49
479.44	21.06
479.62	58.51
479.80	152.13
479.98	114.69
480.16	114.69
480.34	98.30
480.52	107.66
480.70	46.81
480.88	95.96
481.06	58.51
481.24	42.13
481.41	86.60
481.59	74.90
481.77	51.49
481.95	91.28
482.13	63.19
482.31	121.71
482.49	56.17
482.67	102.98
482.85	37.45
483.03	86.60
483.21	25.75
483.39	105.32
483.57	107.66
483.74	88.94
483.92	114.69
484.10	100.64
484.28	14.04
484.46	105.32
484.64	91.28
484.82	67.88
485.00	0.00
485.18	65.54
485.35	124.05
485.53	51.49
485.71	53.83
485.89	53.83
486.07	81.92
486.25	91.28
486.43	102.98
486.61	37.45
486.78	21.06
486.96	67.88
487.14	30.43
487.32	18.72
487.50	107.66
487.68	77.24
487.85	114.69
488.03	107.66
488.21	100.64
488.39	28.09
488.57	58.51
488.75	88.94
488.92	102.98
489.10	81.92
489.28	21.06
489.46	72.56
489.64	105.32
489.81	53.83
489.99	35.11
490.17	88.94
490.35	98.30
490.53	105.32
490.70	42.13
490.88	42.13
491.06	30.43
491.24	102.98
491.41	128.73
491.59	154.48
491.77	98.30
491.95	21.06
492.13	56.17
492.30	102.98
492.48	51.49
492.66	58.51
492.84	67.88
493.01	100.64
493.19	72.56
493.37	18.72
493.54	44.47
493.72	81.92
493.90	84.26
494.08	117.03
494.25	67.88
494.43	72.56
494.61	95.96
494.79	74.90
494.96	140.43
495.14	14.04
495.32	105.32
495.49	49.15
495.67	88.94
495.85	145.11
496.02	95.96
496.20	37.45
496.38	28.09
496.55	11.70
496.73	91.28
496.91	84.26
497.09	128.73
497.26	98.30
497.44	86.60
497.62	0.00
497.79	63.19
497.97	0.00
498.14	145.11
498.32	35.11
498.50	119.37
498.67	79.58
498.85	84.26
499.03	23.41
499.20	14.04
499.38	128.73
499.56	102.98
499.73	88.94
499.91	56.17
500.08	53.83
500.26	117.03
500.44	46.81
500.61	81.92
500.79	30.43
500.97	60.85
501.14	77.24
501.32	98.30
501.49	30.43
501.67	128.73
501.84	44.47
502.02	84.26
502.20	100.64
502.37	152.13
502.55	28.09
502.72	72.56
502.90	58.51
503.07	110.01
503.25	30.43
503.43	168.52
503.60	81.92
503.78	112.35
503.95	53.83
504.13	53.83
504.30	93.62
504.48	91.28
504.65	60.85
504.83	84.26
505.01	84.26
505.18	74.90
505.36	100.64
505.53	98.30
505.71	18.72
505.88	121.71
506.06	86.60
506.23	95.96
506.41	114.69
506.58	79.58
506.76	14.04
506.93	112.35
507.11	124.05
507.28	91.28
507.46	112.35
507.63	114.69
507.81	49.15
507.98	60.85
508.16	65.54
508.33	86.60
508.50	98.30
508.68	60.85
508.85	0.00
509.03	42.13
509.20	65.54
509.38	77.24
509.55	79.58
509.73	65.54
509.90	58.51
510.08	46.81
510.25	93.62
510.42	60.85
510.60	100.64
510.77	159.16
510.95	56.17
511.12	131.07
511.30	138.09
511.47	84.26
511.64	56.17
511.82	117.03
511.99	77.24
512.17	93.62
512.34	35.11
512.51	56.17
512.69	95.96
512.86	102.98
513.04	100.64
513.21	126.39
513.38	133.41
513.56	35.11
513.73	37.45
513.90	72.56
514.08	84.26
514.25	70.22
514.43	37.45
514.60	35.11
514.77	72.56
514.95	102.98
515.12	63.19
515.29	2.34
515.47	72.56
515.64	18.72
515.81	72.56
515.99	35.11
516.16	88.94
516.33	77.24
516.51	46.81
516.68	102.98
516.85	46.81
517.03	98.30
517.20	100.64
517.37	77.24
517.54	112.35
517.72	105.32
517.89	65.54
518.06	21.06
518.24	138.09
518.41	124.05
518.58	46.81
518.75	95.96
518.93	58.51
519.10	140.43
519.27	77.24
519.45	117.03
519.62	170.86
519.79	126.39
519.96	112.35
520.14	105.32
520.31	121.71
520.48	42.13
520.65	112.35
520.83	93.62
521.00	114.69
521.17	91.28
521.34	112.35
521.52	77.24
521.69	161.50
521.86	119.37
522.03	84.26
522.20	114.69
522.38	95.96
522.55	60.85
522.72	70.22
522.89	77.24
523.07	25.75
523.24	105.32
523.41	51.49
523.58	70.22
523.75	74.90
523.92	65.54
524.10	98.30
524.27	133.41
524.44	81.92
524.61	49.15
524.78	65.54
524.96	93.62
525.13	63.19
525.30	60.85
525.47	102.98
525.64	39.79
525.81	84.26
525.98	86.60
526.16	65.54
526.33	67.88
526.50	84.26
526.67	9.36
526.84	74.90
527.01	77.24
527.18	86.60
527.36	107.66
527.53	72.56
527.70	117.03
527.87	84.26
528.04	100.64
528.21	100.64
528.38	37.45
528.55	67.88
528.72	131.07
528.89	154.48
529.07	60.85
529.24	117.03
529.41	67.88
529.58	110.01
529.75	70.22
529.92	98.30
530.09	67.88
530.26	117.03
530.43	65.54
530.60	23.41
530.77	100.64
530.94	86.60
531.11	49.15
531.28	107.66
531.46	44.47
531.63	35.11
531.80	60.85
531.97	30.43
532.14	95.96
532.31	60.85
532.48	77.24
532.65	65.54
532.82	84.26
532.99	110.01
533.16	131.07
533.33	60.85
533.50	46.81
533.67	124.05
533.84	49.15
534.01	58.51
534.18	93.62
534.35	145.11
534.52	74.90
534.69	91.28
534.86	128.73
535.03	14.04
535.20	65.54
535.37	98.30
535.54	114.69
535.71	74.90
535.88	56.17
536.05	112.35
536.22	42.13
536.38	72.56
536.55	65.54
536.72	168.52
536.89	53.83
537.06	0.00
537.23	81.92
537.40	102.98
537.57	112.35
537.74	126.39
537.91	28.09
538.08	44.47
538.25	77.24
538.42	154.48
538.59	91.28
538.75	39.79
538.92	70.22
539.09	72.56
539.26	100.64
539.43	46.81
539.60	56.17
539.77	77.24
539.94	16.38
540.11	98.30
540.28	117.03
540.44	58.51
540.61	98.30
540.78	114.69
540.95	88.94
541.12	77.24
541.29	56.17
541.46	46.81
541.62	44.47
541.79	44.47
541.96	72.56
542.13	88.94
542.30	124.05
542.47	56.17
542.63	44.47
542.80	98.30
542.97	135.75
543.14	138.09
543.31	131.07
543.48	74.90
543.64	100.64
543.81	86.60
543.98	91.28
544.15	70.22
544.32	70.22
544.48	88.94
544.65	114.69
544.82	44.47
544.99	16.38
545.16	35.11
545.32	0.00
545.49	84.26
545.66	93.62
545.83	81.92
546.00	51.49
546.16	42.13
546.33	149.79
546.50	79.58
546.67	102.98
546.83	32.77
547.00	53.83
547.17	44.47
547.34	91.28
547.50	28.09
547.67	86.60
547.84	124.05
548.00	79.58
548.17	128.73
548.34	152.13
548.51	53.83
548.67	49.15
548.84	107.66
549.01	128.73
549.18	18.72
549.34	30.43
549.51	105.32
549.68	86.60
549.84	70.22
550.01	124.05
550.18	110.01
550.34	18.72
550.51	81.92
550.68	14.04
550.84	70.22
551.01	44.47
551.18	86.60
551.34	107.66
551.51	4.68
551.68	105.32
551.84	105.32
552.01	65.54
552.18	30.43
552.34	30.43
552.51	124.05
552.68	72.56
552.84	126.39
553.01	114.69
553.18	18.72
553.34	86.60
553.51	23.41
553.67	112.35
553.84	93.62
554.01	124.05
554.17	95.96
554.34	37.45
554.51	95.96
554.67	86.60
554.84	182.56
555.00	84.26
555.17	53.83
555.33	84.26
555.50	25.75
555.67	44.47
555.83	32.77
556.00	86.60
556.16	135.75
556.33	74.90
556.50	32.77
556.66	65.54
556.83	70.22
556.99	88.94
557.16	107.66
557.32	32.77
557.49	98.30
557.65	147.45
557.82	138.09
557.98	58.51
558.15	119.37
558.32	72.56
558.48	53.83
558.65	46.81
558.81	107.66
558.98	53.83
559.14	102.98
559.31	65.54
559.47	140.43
559.64	88.94
559.80	88.94
559.97	112.35
560.13	9.36
560.30	79.58
560.46	32.77
560.63	107.66
560.79	74.90
560.96	32.77
561.12	124.05
561.29	63.19
561.45	98.30
561.61	128.73
561.78	107.66
561.94	65.54
562.11	56.17
562.27	77.24
562.44	105.32
562.60	114.69
562.77	28.09
562.93	42.13
563.10	128.73
563.26	60.85
563.42	114.69
563.59	72.56
563.75	161.50
563.92	110.01
564.08	35.11
564.24	63.19
564.41	119.37
564.57	121.71
564.74	81.92
564.90	42.13
565.07	0.00
565.23	39.79
565.39	56.17
565.56	72.56
565.72	37.45
565.88	77.24
566.05	107.66
566.21	124.05
566.38	53.83
566.54	74.90
566.70	79.58
566.87	56.17
567.03	72.56
567.19	145.11
567.36	105.32
567.52	98.30
567.68	79.58
567.85	135.75
568.01	86.60
568.17	44.47
568.34	135.75
568.50	63.19
568.66	72.56
568.83	105.32
568.99	11.70
569.15	100.64
569.32	140.43
569.48	187.24
569.64	46.81
569.81	65.54
569.97	46.81
570.13	119.37
570.30	65.54
570.46	88.94
570.62	110.01
570.78	98.30
570.95	25.75
571.11	63.19
571.27	21.06
571.43	9.36
571.60	88.94
571.76	70.22
571.92	100.64
572.09	88.94
572.25	84.26
572.41	117.03
572.57	72.56
572.74	58.51
572.90	44.47
573.06	49.15
573.22	86.60
573.38	91.28
573.55	70.22
573.71	72.56
573.87	102.98
574.03	88.94
574.20	91.28
574.36	51.49
574.52	112.35
574.68	21.06
574.84	16.38
575.01	60.85
575.17	105.32
575.33	149.79
575.49	39.79
575.65	98.30
575.82	86.60
575.98	112.35
576.14	79.58
576.30	105.32
576.46	53.83
576.62	30.43
576.79	135.75
576.95	107.66
577.11	51.49
577.27	100.64
577.43	65.54
577.59	133.41
577.75	18.72
577.92	58.51
578.08	0.00
578.24	42.13
578.40	72.56
578.56	86.60
578.72	72.56
578.88	44.47
579.04	84.26
579.21	39.79
579.37	95.96
579.53	102.98
579.69	4.68
579.85	23.41
580.01	65.54
580.17	53.83
580.33	63.19
580.49	28.09
580.65	163.84
580.82	95.96
580.98	0.00
581.14	30.43
581.30	60.85
581.46	95.96
581.62	88.94
581.78	32.77
581.94	91.28
582.10	145.11
582.26	138.09
582.42	91.28
582.58	124.05
582.74	77.24
582.90	128.73
583.06	156.82
583.22	100.64
583.38	110.01
583.54	91.28
583.70	35.11
583.86	39.79
584.02	42.13
584.18	23.41
584.34	88.94
584.50	98.30
584.66	56.17
584.82	65.54
584.98	135.75
585.14	63.19
585.30	98.30
585.46	42.13
585.62	46.81
585.78	2.34
585.94	105.32
586.10	0.00
586.26	110.01
586.42	53.83
586.58	72.56
586.74	102.98
586.90	79.58
587.06	46.81
587.22	98.30
587.38	42.13
587.54	70.22
587.70	65.54
587.86	77.24
588.02	70.22
588.18	53.83
588.34	65.54
588.49	46.81
588.65	44.47
588.81	112.35
588.97	100.64
589.13	18.72
589.29	7.02
589.45	88.94
589.61	84.26
589.77	98.30
589.93	93.62
590.08	56.17
590.24	77.24
590.40	105.32
590.56	149.79
590.72	35.11
590.88	100.64
591.04	63.19
591.20	42.13
591.35	107.66
591.51	105.32
591.67	74.90
591.83	23.41
591.99	91.28
592.15	149.79
592.31	74.90
592.46	107.66
592.62	86.60
592.78	70.22
592.94	51.49
593.10	98.30
593.26	131.07
593.41	72.56
593.57	79.58
593.73	124.05
593.89	88.94
594.05	107.66
594.20	16.38
594.36	81.92
594.52	0.00
594.68	56.17
594.84	79.58
594.99	67.88
595.15	98.30
595.31	23.41
595.47	98.30
595.62	49.15
595.78	18.72
595.94	110.01
596.10	63.19
596.25	86.60
596.41	77.24
596.57	112.35
596.73	65.54
596.88	58.51
597.04	77.24
597.20	135.75
597.36	133.41
597.51	152.13
597.67	117.03
597.83	56.17
597.99	28.09
598.14	67.88
598.30	42.13
598.46	65.54
598.61	30.43
598.77	67.88
598.93	28.09
599.09	25.75
599.24	88.94
599.40	81.92
599.56	93.62
599.71	63.19
599.87	107.66
600.03	53.83
600.18	63.19
600.34	74.90
600.50	25.75
600.65	138.09
600.81	2.34
600.97	67.88
601.12	81.92
601.28	145.11
601.44	117.03
601.59	131.07
601.75	93.62
601.91	70.22
602.06	84.26
602.22	182.56
602.37	58.51
602.53	93.62
602.69	84.26
602.84	25.75
603.00	86.60
603.16	77.24
603.31	60.85
603.47	117.03
603.62	98.30
603.78	23.41
603.94	37.45
604.09	32.77
604.25	86.60
604.40	70.22
604.56	28.09
604.71	140.43
604.87	60.85
605.03	11.70
605.18	0.00
605.34	84.26
605.49	100.64
605.65	65.54
605.80	63.19
605.96	100.64
606.12	98.30
606.27	21.06
606.43	32.77
606.58	128.73
606.74	44.47
606.89	65.54
607.05	0.00
607.20	128.73
607.36	51.49
607.51	100.64
607.67	86.60
607.82	145.11
607.98	126.39
608.13	107.66
608.29	88.94
608.44	133.41
608.60	93.62
608.75	58.51
608.91	65.54
609.06	91.28
609.22	77.24
609.37	98.30
609.53	74.90
609.68	93.62
609.84	72.56
609.99	100.64
610.15	110.01
610.30	88.94
610.46	93.62
610.61	9.36
610.76	121.71
610.92	107.66
611.07	70.22
611.23	49.15
611.38	110.01
611.54	77.24
611.69	77.24
611.84	72.56
612.00	37.45
612.15	65.54
612.31	49.15
612.46	0.00
612.62	81.92
612.77	21.06
612.92	93.62
613.08	37.45
613.23	77.24
613.39	72.56
613.54	49.15
613.69	60.85
613.85	42.13
614.00	56.17
614.15	131.07
614.31	58.51
614.46	46.81
614.62	35.11
614.77	14.04
614.92	98.30
615.08	121.71
615.23	65.54
615.38	58.51
615.54	70.22
615.69	121.71
615.84	42.13
616.00	51.49
616.15	14.04
616.30	65.54
616.46	67.88
616.61	58.51
616.76	28.09
616.92	67.88
617.07	170.86
617.22	105.32
617.37	2.34
617.53	2.34
617.68	42.13
617.83	91.28
617.99	86.60
618.14	84.26
618.29	107.66
618.45	49.15
618.60	65.54
618.75	98.30
618.90	60.85
619.06	37.45
619.21	70.22
619.36	49.15
619.51	114.69
619.67	56.17
619.82	28.09
619.97	53.83
620.12	14.04
620.28	65.54
620.43	72.56
620.58	0.00
620.73	81.92
620.89	53.83
621.04	32.77
621.19	107.66
621.34	16.38
621.49	28.09
621.65	100.64
621.80	16.38
621.95	21.06
622.10	77.24
622.25	42.13
622.41	95.96
622.56	142.77
622.71	58.51
622.86	110.01
623.01	91.28
623.16	72.56
623.32	53.83
623.47	67.88
623.62	84.26
623.77	65.54
623.92	107.66
624.07	100.64
624.23	77.24
624.38	67.88
624.53	112.35
624.68	56.17
624.83	0.00
624.98	72.56
625.13	102.98
625.29	58.51
625.44	100.64
625.59	53.83
625.74	4.68
625.89	39.79
626.04	14.04
626.19	63.19
626.34	46.81
626.49	79.58
626.65	74.90
626.80	53.83
626.95	100.64
627.10	16.38
627.25	63.19
627.40	63.19
627.55	63.19
627.70	30.43
627.85	39.79
628.00	44.47
628.15	49.15
628.30	86.60
628.45	56.17
628.60	79.58
628.76	67.88
628.91	44.47
629.06	49.15
629.21	72.56
629.36	98.30
629.51	53.83
629.66	131.07
629.81	37.45
629.96	23.41
630.11	46.81
630.26	84.26
630.41	39.79
630.56	53.83
630.71	107.66
630.86	67.88
631.01	49.15
631.16	14.04
631.31	105.32
631.46	119.37
631.61	4.68
631.76	53.83
631.91	42.13
632.06	51.49
632.21	46.81
632.36	37.45
632.51	84.26
632.66	70.22
632.81	86.60
632.96	37.45
633.10	138.09
633.25	98.30
633.40	70.22
633.55	23.41
633.70	72.56
633.85	84.26
634.00	16.38
634.15	18.72
634.30	91.28
634.45	98.30
634.60	63.19
634.75	81.92
634.90	51.49
635.05	60.85
635.19	39.79
635.34	95.96
635.49	102.98
635.64	0.00
635.79	67.88
635.94	63.19
636.09	58.51
636.24	0.00
636.39	56.17
636.53	86.60
636.68	30.43
636.83	74.90
636.98	79.58
637.13	35.11
637.28	105.32
637.43	77.24
637.57	35.11
637.72	49.15
637.87	39.79
638.02	60.85
638.17	37.45
638.32	35.11
638.46	84.26
638.61	46.81
638.76	100.64
638.91	39.79
639.06	44.47
639.20	0.00
639.35	39.79
639.50	77.24
639.65	42.13
639.80	0.00
639.94	18.72
640.09	149.79
640.24	184.90
640.39	159.16
640.54	70.22
640.68	37.45
640.83	86.60
640.98	42.13
641.13	81.92
641.27	51.49
641.42	0.00
641.57	14.04
641.72	65.54
641.86	37.45
642.01	39.79
642.16	53.83
642.31	100.64
642.45	11.70
642.60	2.34
642.75	0.00
642.90	2.34
643.04	53.83
643.19	117.03
643.34	100.64
643.48	119.37
643.63	30.43
643.78	65.54
643.93	84.26
644.07	60.85
644.22	72.56
644.37	18.72
644.51	121.71
644.66	107.66
644.81	21.06
644.95	65.54
645.10	102.98
645.25	51.49
645.39	37.45
645.54	49.15
645.69	0.00
645.83	58.51
645.98	25.75
646.13	0.00
646.27	159.16
646.42	42.13
646.57	39.79
646.71	0.00
646.86	4.68
647.00	147.45
647.15	112.35
647.30	72.56
647.44	93.62
647.59	60.85
647.74	63.19
647.88	86.60
648.03	60.85
648.17	44.47
648.32	16.38
648.47	84.26
648.61	88.94
648.76	11.70
648.90	93.62
649.05	0.00
649.20	4.68
649.34	46.81
649.49	49.15
649.63	63.19
649.78	44.47
649.92	25.75
650.07	32.77
650.21	49.15
650.36	124.05
650.51	44.47
650.65	65.54
650.80	74.90
650.94	25.75
651.09	86.60
651.23	53.83
651.38	77.24
651.52	28.09
651.67	4.68
651.81	88.94
651.96	107.66
652.10	121.71
652.25	49.15
652.39	0.00
652.54	49.15
652.68	77.24
652.83	145.11
652.97	88.94
653.12	42.13
653.26	44.47
653.41	25.75
653.55	51.49
653.70	56.17
653.84	67.88
653.99	77.24
654.13	72.56
654.27	84.26
654.42	42.13
654.56	16.38
654.71	14.04
654.85	11.70
655.00	81.92
655.14	14.04
655.29	0.00
655.43	70.22
655.57	51.49
655.72	4.68
655.86	9.36
656.01	28.09
656.15	63.19
656.30	56.17
656.44	21.06
656.58	30.43
656.73	46.81
656.87	93.62
657.01	46.81
657.16	46.81
657.30	25.75
657.45	107.66
657.59	28.09
657.73	2.34
657.88	4.68
658.02	42.13
658.16	0.00
658.31	84.26
658.45	7.02
658.60	81.92
658.74	65.54
658.88	18.72
659.03	58.51
659.17	70.22
659.31	65.54
659.46	86.60
659.60	102.98
659.74	93.62
659.89	0.00
660.03	23.41
660.17	107.66
660.32	91.28
660.46	49.15
660.60	105.32
660.74	133.41
660.89	28.09
661.03	14.04
661.17	98.30
661.32	72.56
661.46	11.70
661.60	0.00
661.74	98.30
661.89	60.85
662.03	2.34
662.17	67.88
662.31	102.98
662.46	70.22
662.60	42.13
662.74	42.13
662.88	67.88
663.03	0.00
663.17	0.00
663.31	63.19
663.45	58.51
663.60	2.34
663.74	51.49
663.88	16.38
664.02	70.22
664.17	39.79
664.31	105.32
664.45	67.88
664.59	131.07
664.73	56.17
664.88	0.00
665.02	79.58
665.16	58.51
665.30	0.00
665.44	39.79
665.59	42.13
665.73	98.30
665.87	0.00
666.01	63.19
666.15	81.92
666.29	98.30
666.44	65.54
666.58	21.06
666.72	86.60
666.86	28.09
667.00	51.49
667.14	21.06
667.28	77.24
667.43	37.45
667.57	0.00
667.71	37.45
667.85	28.09
667.99	30.43
668.13	18.72
668.27	4.68
668.41	49.15
668.56	84.26
668.70	88.94
668.84	23.41
668.98	72.56
669.12	84.26
669.26	98.30
669.40	0.00
669.54	30.43
669.68	0.00
669.82	70.22
669.96	65.54
670.10	21.06
670.25	72.56
670.39	133.41
670.53	98.30
670.67	9.36
670.81	53.83
670.95	16.38
671.09	23.41
671.23	67.88
671.37	70.22
671.51	32.77
671.65	0.00
671.79	51.49
671.93	25.75
672.07	65.54
672.21	112.35
672.35	51.49
672.49	23.41
672.63	67.88
672.77	77.24
672.91	74.90
673.05	84.26
673.19	16.38
673.33	100.64
673.47	135.75
673.61	14.04
673.75	53.83
673.89	0.00
674.03	18.72
674.17	35.11
674.31	49.15
674.45	23.41
674.59	56.17
674.73	46.81
674.87	23.41
675.01	28.09
675.15	23.41
675.29	0.00
675.43	65.54
675.56	25.75
675.70	72.56
675.84	18.72
675.98	30.43
676.12	16.38
676.26	46.81
676.40	49.15
676.54	58.51
676.68	18.72
676.82	88.94
676.96	0.00
677.10	112.35
677.23	42.13
677.37	102.98
677.51	9.36
677.65	100.64
677.79	81.92
677.93	84.26
678.07	14.04
678.21	4.68
678.34	0.00
678.48	51.49
678.62	91.28
678.76	0.00
678.90	72.56
679.04	110.01
679.18	63.19
679.31	51.49
679.45	51.49
679.59	18.72
679.73	23.41
679.87	18.72
680.00	9.36
680.14	84.26
680.28	91.28
680.42	30.43
680.56	63.19
680.70	77.24
680.83	67.88
680.97	0.00
681.11	65.54
681.25	53.83
681.39	46.81
681.52	42.13
681.66	67.88
681.80	63.19
681.94	49.15
682.07	23.41
682.21	0.00
682.35	70.22
682.49	11.70
682.62	77.24
682.76	79.58
682.90	0.00
683.04	86.60
683.17	51.49
683.31	72.56
683.45	0.00
683.59	0.00
683.72	0.00
683.86	65.54
684.00	14.04
684.13	91.28
684.27	51.49
684.41	110.01
684.55	65.54
684.68	131.07
684.82	32.77
684.96	46.81
685.09	42.13
685.23	35.11
685.37	37.45
685.50	30.43
685.64	51.49
685.78	14.04
685.91	63.19
686.05	86.60
686.19	25.75
686.32	70.22
686.46	53.83
686.60	63.19
686.73	0.00
686.87	9.36
687.01	91.28
687.14	74.90
687.28	28.09
687.42	37.45
687.55	16.38
687.69	49.15
687.82	49.15
687.96	98.30
688.10	4.68
688.23	56.17
688.37	67.88
688.50	42.13
688.64	60.85
688.78	51.49
688.91	53.83
689.05	28.09
689.18	86.60
689.32	74.90
689.46	49.15
689.59	39.79
689.73	49.15
689.86	4.68
690.00	7.02
690.13	44.47
690.27	121.71
690.41	37.45
690.54	25.75
690.68	0.00
690.81	46.81
690.95	4.68
691.08	0.00
691.22	25.75
691.35	0.00
691.49	51.49
691.62	30.43
691.76	0.00
691.89	0.00
692.03	32.77
692.16	16.38
692.30	0.00
692.43	95.96
692.57	67.88
692.70	30.43
692.84	32.77
692.97	37.45
693.11	53.83
693.24	0.00
693.38	56.17
693.51	95.96
693.65	30.43
693.78	51.49
693.92	30.43
694.05	2.34
694.19	30.43
694.32	93.62
694.45	37.45
694.59	81.92
694.72	2.34
694.86	98.30
694.99	0.00
695.13	39.79
695.26	2.34
695.39	16.38
695.53	37.45
695.66	63.19
695.80	0.00
695.93	65.54
696.07	16.38
696.20	11.70
696.33	95.96
696.47	4.68
696.60	67.88
696.73	60.85
696.87	0.00
697.00	74.90
697.14	4.68
697.27	25.75
697.40	65.54
697.54	112.35
697.67	0.00
697.80	37.45
697.94	37.45
698.07	7.02
698.21	46.81
698.34	0.00
698.47	63.19
698.61	70.22
698.74	60.85
698.87	2.34
699.01	107.66
699.14	2.34
699.27	53.83
699.40	32.77
699.54	117.03
699.67	0.00
699.80	65.54
699.94	63.19
700.07	25.75
700.20	72.56
700.34	25.75
700.47	65.54
700.60	46.81
700.73	11.70
700.87	30.43
701.00	67.88
701.13	7.02
701.26	39.79
701.40	37.45
701.53	56.17
701.66	21.06
701.79	0.00
701.93	0.00
702.06	0.00
702.19	37.45
702.32	0.00
702.46	72.56
702.59	9.36
702.72	39.79
702.85	32.77
702.99	65.54
703.12	9.36
703.25	105.32
703.38	32.77
703.51	9.36
703.65	21.06
703.78	21.06
703.91	70.22
704.04	9.36
704.17	81.92
704.31	0.00
704.44	21.06
704.57	14.04
704.70	23.41
704.83	107.66
704.96	58.51
705.10	0.00
705.23	0.00
>>>>>End Processed Spectral Data<<<<<
