SpectraSuite Data File
++++++++++++++++++++++++++++++++++++
Date: Fri Oct 04 12:13:35 GMT-05:00 2013
User: price-jones
Dark Spectrum Present: No
Reference Spectrum Present: No
Number of Sampled Component Spectra: 1
Spectrometers: USB2+H05261
Integration Time (usec): 10000 (USB2+H05261)
Spectra Averaged: 1 (USB2+H05261)
Boxcar Smoothing: 0 (USB2+H05261)
Correct for Electrical Dark: No (USB2+H05261)
Strobe/Lamp Enabled: No (USB2+H05261)
Correct for Detector Non-linearity: No (USB2+H05261)
Correct for Stray Light: No (USB2+H05261)
Number of Pixels in Processed Spectrum: 2048
>>>>>Begin Processed Spectral Data<<<<<
365.73	0.00
365.92	0.00
366.12	0.00
366.32	0.00
366.52	0.00
366.72	0.00
366.91	0.00
367.11	0.00
367.31	0.00
367.51	0.00
367.70	0.00
367.90	0.00
368.10	0.00
368.30	0.00
368.49	0.00
368.69	0.00
368.89	0.00
369.09	0.00
369.28	0.00
369.48	0.00
369.68	0.00
369.87	0.00
370.07	0.00
370.27	0.00
370.47	0.00
370.66	0.00
370.86	0.00
371.06	0.00
371.25	0.00
371.45	0.00
371.65	0.00
371.84	16.38
372.04	14.04
372.24	0.00
372.44	46.81
372.63	0.00
372.83	0.00
373.03	9.36
373.22	0.00
373.42	32.77
373.62	0.00
373.81	35.11
374.01	70.22
374.21	56.17
374.40	0.00
374.60	18.72
374.79	18.72
374.99	51.49
375.19	100.64
375.38	91.28
375.58	65.54
375.78	0.00
375.97	65.54
376.17	0.00
376.37	28.09
376.56	93.62
376.76	67.88
376.95	58.51
377.15	30.43
377.35	53.83
377.54	25.75
377.74	58.51
377.93	0.00
378.13	74.90
378.33	30.43
378.52	4.68
378.72	39.79
378.91	18.72
379.11	100.64
379.31	28.09
379.50	0.00
379.70	39.79
379.89	9.36
380.09	46.81
380.28	72.56
380.48	7.02
380.68	84.26
380.87	74.90
381.07	0.00
381.26	0.00
381.46	0.00
381.65	0.00
381.85	49.15
382.04	30.43
382.24	0.00
382.43	25.75
382.63	23.41
382.83	65.54
383.02	0.00
383.22	56.17
383.41	0.00
383.61	0.00
383.80	21.06
384.00	0.00
384.19	105.32
384.39	0.00
384.58	16.38
384.78	0.00
384.97	53.83
385.17	42.13
385.36	11.70
385.56	4.68
385.75	0.00
385.95	0.00
386.14	9.36
386.34	23.41
386.53	0.00
386.72	32.77
386.92	56.17
387.11	0.00
387.31	0.00
387.50	4.68
387.70	0.00
387.89	0.00
388.09	23.41
388.28	37.45
388.48	11.70
388.67	21.06
388.86	70.22
389.06	14.04
389.25	23.41
389.45	11.70
389.64	91.28
389.84	44.47
390.03	51.49
390.22	7.02
390.42	0.00
390.61	0.00
390.81	35.11
391.00	18.72
391.19	70.22
391.39	0.00
391.58	0.00
391.78	4.68
391.97	16.38
392.16	53.83
392.36	18.72
392.55	0.00
392.75	70.22
392.94	53.83
393.13	56.17
393.33	23.41
393.52	7.02
393.71	65.54
393.91	23.41
394.10	39.79
394.29	49.15
394.49	32.77
394.68	0.00
394.88	42.13
395.07	0.00
395.26	0.00
395.46	0.00
395.65	30.43
395.84	0.00
396.04	0.00
396.23	9.36
396.42	49.15
396.62	0.00
396.81	0.00
397.00	0.00
397.19	0.00
397.39	14.04
397.58	0.00
397.77	0.00
397.97	16.38
398.16	0.00
398.35	0.00
398.55	46.81
398.74	67.88
398.93	4.68
399.12	0.00
399.32	74.90
399.51	60.85
399.70	39.79
399.90	4.68
400.09	0.00
400.28	72.56
400.47	39.79
400.67	72.56
400.86	16.38
401.05	81.92
401.24	30.43
401.44	23.41
401.63	0.00
401.82	77.24
402.01	49.15
402.21	28.09
402.40	91.28
402.59	74.90
402.78	0.00
402.97	46.81
403.17	0.00
403.36	23.41
403.55	84.26
403.74	39.79
403.93	65.54
404.13	56.17
404.32	25.75
404.51	107.66
404.70	67.88
404.89	42.13
405.09	88.94
405.28	0.00
405.47	30.43
405.66	28.09
405.85	86.60
406.05	0.00
406.24	28.09
406.43	0.00
406.62	39.79
406.81	46.81
407.00	14.04
407.20	93.62
407.39	65.54
407.58	28.09
407.77	0.00
407.96	0.00
408.15	110.01
408.34	79.58
408.54	0.00
408.73	58.51
408.92	65.54
409.11	18.72
409.30	9.36
409.49	77.24
409.68	28.09
409.87	0.00
410.07	0.00
410.26	81.92
410.45	98.30
410.64	14.04
410.83	72.56
411.02	56.17
411.21	0.00
411.40	51.49
411.59	37.45
411.78	4.68
411.98	60.85
412.17	63.19
412.36	21.06
412.55	21.06
412.74	49.15
412.93	25.75
413.12	35.11
413.31	79.58
413.50	49.15
413.69	100.64
413.88	11.70
414.07	23.41
414.26	0.00
414.45	84.26
414.64	70.22
414.83	0.00
415.02	58.51
415.22	63.19
415.41	0.00
415.60	14.04
415.79	14.04
415.98	0.00
416.17	30.43
416.36	0.00
416.55	23.41
416.74	35.11
416.93	0.00
417.12	7.02
417.31	49.15
417.50	56.17
417.69	37.45
417.88	91.28
418.07	91.28
418.26	51.49
418.45	25.75
418.64	0.00
418.83	72.56
419.02	37.45
419.21	98.30
419.39	74.90
419.58	0.00
419.77	49.15
419.96	84.26
420.15	25.75
420.34	53.83
420.53	4.68
420.72	25.75
420.91	49.15
421.10	42.13
421.29	18.72
421.48	53.83
421.67	72.56
421.86	98.30
422.05	44.47
422.24	14.04
422.43	77.24
422.61	37.45
422.80	86.60
422.99	0.00
423.18	58.51
423.37	102.98
423.56	65.54
423.75	18.72
423.94	14.04
424.13	0.00
424.32	81.92
424.50	56.17
424.69	46.81
424.88	44.47
425.07	67.88
425.26	51.49
425.45	21.06
425.64	0.00
425.83	35.11
426.01	18.72
426.20	70.22
426.39	0.00
426.58	14.04
426.77	56.17
426.96	100.64
427.15	14.04
427.33	37.45
427.52	46.81
427.71	28.09
427.90	28.09
428.09	2.34
428.28	51.49
428.46	9.36
428.65	37.45
428.84	93.62
429.03	74.90
429.22	72.56
429.40	98.30
429.59	51.49
429.78	86.60
429.97	4.68
430.16	39.79
430.34	58.51
430.53	0.00
430.72	74.90
430.91	18.72
431.10	0.00
431.28	9.36
431.47	11.70
431.66	95.96
431.85	23.41
432.03	49.15
432.22	100.64
432.41	0.00
432.60	23.41
432.79	14.04
432.97	28.09
433.16	21.06
433.35	65.54
433.54	32.77
433.72	0.00
433.91	0.00
434.10	39.79
434.28	32.77
434.47	23.41
434.66	23.41
434.85	35.11
435.03	0.00
435.22	11.70
435.41	63.19
435.59	7.02
435.78	9.36
435.97	30.43
436.16	131.07
436.34	53.83
436.53	105.32
436.72	49.15
436.90	49.15
437.09	18.72
437.28	30.43
437.46	51.49
437.65	46.81
437.84	79.58
438.02	37.45
438.21	56.17
438.40	30.43
438.58	70.22
438.77	60.85
438.96	74.90
439.14	28.09
439.33	25.75
439.52	28.09
439.70	81.92
439.89	28.09
440.08	100.64
440.26	145.11
440.45	100.64
440.63	0.00
440.82	63.19
441.01	28.09
441.19	49.15
441.38	14.04
441.57	21.06
441.75	49.15
441.94	46.81
442.12	84.26
442.31	53.83
442.50	79.58
442.68	23.41
442.87	37.45
443.05	60.85
443.24	0.00
443.43	37.45
443.61	44.47
443.80	112.35
443.98	102.98
444.17	0.00
444.35	0.00
444.54	18.72
444.73	95.96
444.91	49.15
445.10	30.43
445.28	119.37
445.47	60.85
445.65	133.41
445.84	95.96
446.02	86.60
446.21	60.85
446.39	100.64
446.58	65.54
446.77	14.04
446.95	0.00
447.14	49.15
447.32	42.13
447.51	11.70
447.69	91.28
447.88	0.00
448.06	44.47
448.25	28.09
448.43	18.72
448.62	18.72
448.80	119.37
448.99	42.13
449.17	53.83
449.36	21.06
449.54	77.24
449.73	35.11
449.91	58.51
450.10	56.17
450.28	77.24
450.46	72.56
450.65	53.83
450.83	0.00
451.02	133.41
451.20	84.26
451.39	46.81
451.57	58.51
451.76	51.49
451.94	42.13
452.13	0.00
452.31	46.81
452.49	11.70
452.68	32.77
452.86	95.96
453.05	105.32
453.23	58.51
453.42	65.54
453.60	60.85
453.78	9.36
453.97	11.70
454.15	0.00
454.34	49.15
454.52	4.68
454.70	0.00
454.89	58.51
455.07	28.09
455.26	53.83
455.44	4.68
455.62	9.36
455.81	88.94
455.99	72.56
456.17	74.90
456.36	149.79
456.54	86.60
456.73	67.88
456.91	7.02
457.09	74.90
457.28	9.36
457.46	58.51
457.64	21.06
457.83	112.35
458.01	105.32
458.19	0.00
458.38	46.81
458.56	124.05
458.74	56.17
458.93	72.56
459.11	72.56
459.29	37.45
459.48	30.43
459.66	28.09
459.84	42.13
460.03	63.19
460.21	107.66
460.39	56.17
460.57	72.56
460.76	53.83
460.94	4.68
461.12	35.11
461.31	42.13
461.49	4.68
461.67	58.51
461.85	81.92
462.04	21.06
462.22	74.90
462.40	53.83
462.59	7.02
462.77	65.54
462.95	74.90
463.13	63.19
463.32	46.81
463.50	67.88
463.68	133.41
463.86	23.41
464.05	110.01
464.23	77.24
464.41	30.43
464.59	84.26
464.78	14.04
464.96	46.81
465.14	23.41
465.32	53.83
465.50	70.22
465.69	49.15
465.87	53.83
466.05	23.41
466.23	35.11
466.41	51.49
466.60	100.64
466.78	44.47
466.96	72.56
467.14	44.47
467.32	56.17
467.51	16.38
467.69	72.56
467.87	107.66
468.05	128.73
468.23	0.00
468.41	42.13
468.60	58.51
468.78	112.35
468.96	119.37
469.14	145.11
469.32	138.09
469.50	35.11
469.69	86.60
469.87	0.00
470.05	9.36
470.23	81.92
470.41	79.58
470.59	58.51
470.77	25.75
470.95	49.15
471.14	60.85
471.32	60.85
471.50	81.92
471.68	14.04
471.86	60.85
472.04	74.90
472.22	56.17
472.40	25.75
472.58	0.00
472.77	93.62
472.95	58.51
473.13	44.47
473.31	119.37
473.49	65.54
473.67	7.02
473.85	72.56
474.03	0.00
474.21	65.54
474.39	86.60
474.57	121.71
474.75	88.94
474.93	35.11
475.12	25.75
475.30	32.77
475.48	72.56
475.66	7.02
475.84	0.00
476.02	93.62
476.20	4.68
476.38	11.70
476.56	37.45
476.74	70.22
476.92	51.49
477.10	91.28
477.28	11.70
477.46	0.00
477.64	16.38
477.82	58.51
478.00	42.13
478.18	11.70
478.36	98.30
478.54	46.81
478.72	30.43
478.90	95.96
479.08	98.30
479.26	56.17
479.44	142.77
479.62	56.17
479.80	44.47
479.98	65.54
480.16	84.26
480.34	67.88
480.52	88.94
480.70	11.70
480.88	121.71
481.06	72.56
481.24	93.62
481.41	91.28
481.59	77.24
481.77	102.98
481.95	88.94
482.13	91.28
482.31	16.38
482.49	63.19
482.67	65.54
482.85	105.32
483.03	72.56
483.21	93.62
483.39	44.47
483.57	98.30
483.74	32.77
483.92	105.32
484.10	63.19
484.28	128.73
484.46	65.54
484.64	30.43
484.82	88.94
485.00	37.45
485.18	84.26
485.35	4.68
485.53	18.72
485.71	72.56
485.89	4.68
486.07	91.28
486.25	42.13
486.43	102.98
486.61	53.83
486.78	60.85
486.96	39.79
487.14	147.45
487.32	28.09
487.50	67.88
487.68	53.83
487.85	100.64
488.03	65.54
488.21	0.00
488.39	100.64
488.57	105.32
488.75	49.15
488.92	93.62
489.10	72.56
489.28	159.16
489.46	95.96
489.64	91.28
489.81	102.98
489.99	121.71
490.17	53.83
490.35	84.26
490.53	65.54
490.70	23.41
490.88	63.19
491.06	65.54
491.24	30.43
491.41	86.60
491.59	133.41
491.77	67.88
491.95	72.56
492.13	39.79
492.30	74.90
492.48	37.45
492.66	74.90
492.84	37.45
493.01	53.83
493.19	53.83
493.37	67.88
493.54	121.71
493.72	32.77
493.90	60.85
494.08	175.54
494.25	42.13
494.43	112.35
494.61	88.94
494.79	74.90
494.96	107.66
495.14	44.47
495.32	65.54
495.49	53.83
495.67	65.54
495.85	86.60
496.02	42.13
496.20	114.69
496.38	93.62
496.55	95.96
496.73	107.66
496.91	98.30
497.09	105.32
497.26	67.88
497.44	114.69
497.62	121.71
497.79	117.03
497.97	37.45
498.14	67.88
498.32	100.64
498.50	56.17
498.67	0.00
498.85	58.51
499.03	70.22
499.20	0.00
499.38	112.35
499.56	44.47
499.73	102.98
499.91	128.73
500.08	126.39
500.26	63.19
500.44	63.19
500.61	86.60
500.79	32.77
500.97	65.54
501.14	60.85
501.32	0.00
501.49	86.60
501.67	100.64
501.84	35.11
502.02	72.56
502.20	135.75
502.37	42.13
502.55	63.19
502.72	117.03
502.90	84.26
503.07	39.79
503.25	95.96
503.43	138.09
503.60	60.85
503.78	84.26
503.95	67.88
504.13	117.03
504.30	121.71
504.48	100.64
504.65	42.13
504.83	23.41
505.01	74.90
505.18	77.24
505.36	84.26
505.53	25.75
505.71	133.41
505.88	44.47
506.06	77.24
506.23	114.69
506.41	74.90
506.58	77.24
506.76	86.60
506.93	70.22
507.11	105.32
507.28	65.54
507.46	110.01
507.63	51.49
507.81	133.41
507.98	154.48
508.16	102.98
508.33	84.26
508.50	84.26
508.68	149.79
508.85	100.64
509.03	25.75
509.20	100.64
509.38	142.77
509.55	100.64
509.73	126.39
509.90	102.98
510.08	72.56
510.25	46.81
510.42	44.47
510.60	131.07
510.77	32.77
510.95	124.05
511.12	88.94
511.30	0.00
511.47	145.11
511.64	70.22
511.82	60.85
511.99	105.32
512.17	117.03
512.34	88.94
512.51	138.09
512.69	77.24
512.86	35.11
513.04	119.37
513.21	121.71
513.38	11.70
513.56	28.09
513.73	25.75
513.90	112.35
514.08	74.90
514.25	102.98
514.43	58.51
514.60	86.60
514.77	128.73
514.95	93.62
515.12	121.71
515.29	105.32
515.47	42.13
515.64	84.26
515.81	72.56
515.99	51.49
516.16	95.96
516.33	147.45
516.51	35.11
516.68	86.60
516.85	44.47
517.03	49.15
517.20	37.45
517.37	88.94
517.54	44.47
517.72	44.47
517.89	67.88
518.06	112.35
518.24	56.17
518.41	60.85
518.58	77.24
518.75	112.35
518.93	70.22
519.10	42.13
519.27	79.58
519.45	91.28
519.62	112.35
519.79	133.41
519.96	140.43
520.14	51.49
520.31	67.88
520.48	9.36
520.65	131.07
520.83	102.98
521.00	60.85
521.17	67.88
521.34	63.19
521.52	156.82
521.69	88.94
521.86	63.19
522.03	77.24
522.20	63.19
522.38	51.49
522.55	60.85
522.72	77.24
522.89	91.28
523.07	142.77
523.24	105.32
523.41	63.19
523.58	21.06
523.75	119.37
523.92	173.20
524.10	107.66
524.27	42.13
524.44	72.56
524.61	152.13
524.78	98.30
524.96	32.77
525.13	105.32
525.30	11.70
525.47	105.32
525.64	32.77
525.81	72.56
525.98	88.94
526.16	70.22
526.33	114.69
526.50	77.24
526.67	91.28
526.84	53.83
527.01	77.24
527.18	114.69
527.36	117.03
527.53	72.56
527.70	0.00
527.87	56.17
528.04	63.19
528.21	100.64
528.38	88.94
528.55	124.05
528.72	58.51
528.89	124.05
529.07	60.85
529.24	49.15
529.41	70.22
529.58	112.35
529.75	135.75
529.92	56.17
530.09	86.60
530.26	170.86
530.43	72.56
530.60	42.13
530.77	91.28
530.94	81.92
531.11	86.60
531.28	53.83
531.46	79.58
531.63	114.69
531.80	114.69
531.97	88.94
532.14	98.30
532.31	86.60
532.48	65.54
532.65	156.82
532.82	91.28
532.99	65.54
533.16	93.62
533.33	98.30
533.50	77.24
533.67	79.58
533.84	102.98
534.01	105.32
534.18	77.24
534.35	98.30
534.52	30.43
534.69	112.35
534.86	138.09
535.03	51.49
535.20	46.81
535.37	72.56
535.54	156.82
535.71	28.09
535.88	149.79
536.05	72.56
536.22	56.17
536.38	110.01
536.55	81.92
536.72	88.94
536.89	32.77
537.06	21.06
537.23	93.62
537.40	0.00
537.57	102.98
537.74	46.81
537.91	117.03
538.08	7.02
538.25	93.62
538.42	112.35
538.59	16.38
538.75	100.64
538.92	142.77
539.09	58.51
539.26	79.58
539.43	53.83
539.60	121.71
539.77	21.06
539.94	46.81
540.11	65.54
540.28	105.32
540.44	84.26
540.61	60.85
540.78	110.01
540.95	88.94
541.12	42.13
541.29	79.58
541.46	60.85
541.62	121.71
541.79	23.41
541.96	81.92
542.13	49.15
542.30	107.66
542.47	86.60
542.63	152.13
542.80	140.43
542.97	105.32
543.14	77.24
543.31	28.09
543.48	112.35
543.64	105.32
543.81	72.56
543.98	93.62
544.15	79.58
544.32	121.71
544.48	49.15
544.65	135.75
544.82	44.47
544.99	95.96
545.16	53.83
545.32	51.49
545.49	105.32
545.66	53.83
545.83	114.69
546.00	51.49
546.16	149.79
546.33	117.03
546.50	65.54
546.67	74.90
546.83	110.01
547.00	53.83
547.17	46.81
547.34	60.85
547.50	86.60
547.67	84.26
547.84	58.51
548.00	70.22
548.17	86.60
548.34	51.49
548.51	79.58
548.67	138.09
548.84	63.19
549.01	42.13
549.18	60.85
549.34	93.62
549.51	84.26
549.68	117.03
549.84	46.81
550.01	98.30
550.18	63.19
550.34	67.88
550.51	60.85
550.68	51.49
550.84	53.83
551.01	91.28
551.18	98.30
551.34	88.94
551.51	67.88
551.68	65.54
551.84	53.83
552.01	56.17
552.18	65.54
552.34	102.98
552.51	30.43
552.68	119.37
552.84	161.50
553.01	128.73
553.18	98.30
553.34	11.70
553.51	107.66
553.67	46.81
553.84	102.98
554.01	126.39
554.17	77.24
554.34	63.19
554.51	72.56
554.67	63.19
554.84	149.79
555.00	102.98
555.17	79.58
555.33	49.15
555.50	117.03
555.67	135.75
555.83	98.30
556.00	74.90
556.16	88.94
556.33	98.30
556.50	56.17
556.66	60.85
556.83	110.01
556.99	70.22
557.16	135.75
557.32	105.32
557.49	46.81
557.65	126.39
557.82	138.09
557.98	67.88
558.15	72.56
558.32	93.62
558.48	49.15
558.65	70.22
558.81	81.92
558.98	77.24
559.14	23.41
559.31	53.83
559.47	140.43
559.64	119.37
559.80	114.69
559.97	102.98
560.13	67.88
560.30	102.98
560.46	14.04
560.63	79.58
560.79	51.49
560.96	86.60
561.12	112.35
561.29	72.56
561.45	100.64
561.61	72.56
561.78	105.32
561.94	84.26
562.11	100.64
562.27	51.49
562.44	124.05
562.60	145.11
562.77	128.73
562.93	65.54
563.10	114.69
563.26	67.88
563.42	21.06
563.59	44.47
563.75	49.15
563.92	67.88
564.08	44.47
564.24	56.17
564.41	65.54
564.57	102.98
564.74	70.22
564.90	70.22
565.07	145.11
565.23	88.94
565.39	100.64
565.56	44.47
565.72	105.32
565.88	84.26
566.05	102.98
566.21	93.62
566.38	65.54
566.54	79.58
566.70	91.28
566.87	65.54
567.03	107.66
567.19	131.07
567.36	9.36
567.52	60.85
567.68	98.30
567.85	60.85
568.01	81.92
568.17	79.58
568.34	95.96
568.50	23.41
568.66	46.81
568.83	84.26
568.99	81.92
569.15	133.41
569.32	70.22
569.48	67.88
569.64	114.69
569.81	42.13
569.97	65.54
570.13	107.66
570.30	86.60
570.46	60.85
570.62	2.34
570.78	25.75
570.95	35.11
571.11	37.45
571.27	119.37
571.43	60.85
571.60	91.28
571.76	46.81
571.92	107.66
572.09	84.26
572.25	81.92
572.41	58.51
572.57	81.92
572.74	58.51
572.90	84.26
573.06	163.84
573.22	93.62
573.38	4.68
573.55	53.83
573.71	67.88
573.87	49.15
574.03	65.54
574.20	67.88
574.36	72.56
574.52	46.81
574.68	60.85
574.84	79.58
575.01	21.06
575.17	77.24
575.33	9.36
575.49	203.63
575.65	142.77
575.82	28.09
575.98	74.90
576.14	72.56
576.30	51.49
576.46	72.56
576.62	63.19
576.79	70.22
576.95	65.54
577.11	84.26
577.27	93.62
577.43	152.13
577.59	67.88
577.75	100.64
577.92	60.85
578.08	70.22
578.24	112.35
578.40	105.32
578.56	95.96
578.72	110.01
578.88	25.75
579.04	81.92
579.21	49.15
579.37	107.66
579.53	60.85
579.69	67.88
579.85	70.22
580.01	2.34
580.17	95.96
580.33	65.54
580.49	95.96
580.65	51.49
580.82	72.56
580.98	112.35
581.14	70.22
581.30	114.69
581.46	72.56
581.62	128.73
581.78	140.43
581.94	65.54
582.10	147.45
582.26	72.56
582.42	70.22
582.58	39.79
582.74	65.54
582.90	74.90
583.06	18.72
583.22	0.00
583.38	44.47
583.54	117.03
583.70	74.90
583.86	67.88
584.02	37.45
584.18	81.92
584.34	32.77
584.50	44.47
584.66	84.26
584.82	74.90
584.98	9.36
585.14	58.51
585.30	79.58
585.46	67.88
585.62	65.54
585.78	86.60
585.94	88.94
586.10	81.92
586.26	117.03
586.42	58.51
586.58	67.88
586.74	91.28
586.90	152.13
587.06	72.56
587.22	138.09
587.38	84.26
587.54	65.54
587.70	121.71
587.86	110.01
588.02	51.49
588.18	67.88
588.34	100.64
588.49	4.68
588.65	39.79
588.81	95.96
588.97	44.47
589.13	49.15
589.29	60.85
589.45	37.45
589.61	88.94
589.77	0.00
589.93	131.07
590.08	21.06
590.24	81.92
590.40	79.58
590.56	98.30
590.72	140.43
590.88	11.70
591.04	79.58
591.20	77.24
591.35	56.17
591.51	35.11
591.67	51.49
591.83	105.32
591.99	49.15
592.15	44.47
592.31	88.94
592.46	63.19
592.62	70.22
592.78	84.26
592.94	14.04
593.10	32.77
593.26	74.90
593.41	110.01
593.57	88.94
593.73	100.64
593.89	14.04
594.05	49.15
594.20	42.13
594.36	0.00
594.52	67.88
594.68	60.85
594.84	86.60
594.99	114.69
595.15	60.85
595.31	67.88
595.47	98.30
595.62	88.94
595.78	128.73
595.94	84.26
596.10	56.17
596.25	49.15
596.41	11.70
596.57	56.17
596.73	56.17
596.88	91.28
597.04	105.32
597.20	53.83
597.36	53.83
597.51	0.00
597.67	114.69
597.83	35.11
597.99	84.26
598.14	121.71
598.30	152.13
598.46	95.96
598.61	56.17
598.77	42.13
598.93	70.22
599.09	168.52
599.24	91.28
599.40	58.51
599.56	28.09
599.71	114.69
599.87	98.30
600.03	39.79
600.18	16.38
600.34	88.94
600.50	32.77
600.65	84.26
600.81	39.79
600.97	110.01
601.12	39.79
601.28	93.62
601.44	58.51
601.59	51.49
601.75	56.17
601.91	114.69
602.06	107.66
602.22	98.30
602.37	32.77
602.53	107.66
602.69	70.22
602.84	77.24
603.00	142.77
603.16	84.26
603.31	114.69
603.47	4.68
603.62	0.00
603.78	74.90
603.94	42.13
604.09	44.47
604.25	42.13
604.40	81.92
604.56	203.63
604.71	63.19
604.87	84.26
605.03	18.72
605.18	56.17
605.34	39.79
605.49	107.66
605.65	39.79
605.80	70.22
605.96	95.96
606.12	88.94
606.27	67.88
606.43	102.98
606.58	16.38
606.74	9.36
606.89	107.66
607.05	63.19
607.20	142.77
607.36	60.85
607.51	84.26
607.67	72.56
607.82	74.90
607.98	0.00
608.13	131.07
608.29	102.98
608.44	46.81
608.60	0.00
608.75	147.45
608.91	70.22
609.06	124.05
609.22	135.75
609.37	72.56
609.53	77.24
609.68	72.56
609.84	100.64
609.99	14.04
610.15	63.19
610.30	124.05
610.46	102.98
610.61	91.28
610.76	72.56
610.92	51.49
611.07	81.92
611.23	88.94
611.38	32.77
611.54	25.75
611.69	88.94
611.84	2.34
612.00	95.96
612.15	49.15
612.31	77.24
612.46	67.88
612.62	74.90
612.77	14.04
612.92	23.41
613.08	37.45
613.23	65.54
613.39	102.98
613.54	112.35
613.69	102.98
613.85	60.85
614.00	46.81
614.15	0.00
614.31	88.94
614.46	0.00
614.62	21.06
614.77	81.92
614.92	145.11
615.08	177.88
615.23	0.00
615.38	35.11
615.54	30.43
615.69	60.85
615.84	79.58
616.00	72.56
616.15	67.88
616.30	72.56
616.46	56.17
616.61	42.13
616.76	51.49
616.92	65.54
617.07	56.17
617.22	56.17
617.37	112.35
617.53	18.72
617.68	72.56
617.83	91.28
617.99	107.66
618.14	56.17
618.29	9.36
618.45	23.41
618.60	23.41
618.75	65.54
618.90	42.13
619.06	114.69
619.21	140.43
619.36	58.51
619.51	51.49
619.67	39.79
619.82	0.00
619.97	60.85
620.12	65.54
620.28	154.48
620.43	170.86
620.58	119.37
620.73	51.49
620.89	14.04
621.04	58.51
621.19	86.60
621.34	53.83
621.49	70.22
621.65	79.58
621.80	98.30
621.95	100.64
622.10	14.04
622.25	58.51
622.41	79.58
622.56	105.32
622.71	0.00
622.86	147.45
623.01	35.11
623.16	67.88
623.32	119.37
623.47	81.92
623.62	102.98
623.77	114.69
623.92	25.75
624.07	107.66
624.23	63.19
624.38	79.58
624.53	86.60
624.68	77.24
624.83	159.16
624.98	135.75
625.13	98.30
625.29	0.00
625.44	70.22
625.59	39.79
625.74	86.60
625.89	46.81
626.04	70.22
626.19	95.96
626.34	65.54
626.49	107.66
626.65	93.62
626.80	105.32
626.95	60.85
627.10	86.60
627.25	28.09
627.40	16.38
627.55	98.30
627.70	0.00
627.85	42.13
628.00	56.17
628.15	39.79
628.30	95.96
628.45	16.38
628.60	79.58
628.76	102.98
628.91	65.54
629.06	39.79
629.21	2.34
629.36	74.90
629.51	32.77
629.66	112.35
629.81	0.00
629.96	32.77
630.11	74.90
630.26	67.88
630.41	35.11
630.56	60.85
630.71	112.35
630.86	79.58
631.01	70.22
631.16	88.94
631.31	23.41
631.46	46.81
631.61	0.00
631.76	0.00
631.91	60.85
632.06	65.54
632.21	58.51
632.36	58.51
632.51	0.00
632.66	86.60
632.81	56.17
632.96	74.90
633.10	81.92
633.25	152.13
633.40	58.51
633.55	74.90
633.70	77.24
633.85	0.00
634.00	0.00
634.15	32.77
634.30	0.00
634.45	46.81
634.60	32.77
634.75	93.62
634.90	51.49
635.05	58.51
635.19	53.83
635.34	74.90
635.49	0.00
635.64	124.05
635.79	44.47
635.94	51.49
636.09	46.81
636.24	21.06
636.39	84.26
636.53	0.00
636.68	37.45
636.83	121.71
636.98	16.38
637.13	25.75
637.28	32.77
637.43	53.83
637.57	56.17
637.72	86.60
637.87	46.81
638.02	21.06
638.17	56.17
638.32	77.24
638.46	53.83
638.61	11.70
638.76	117.03
638.91	77.24
639.06	65.54
639.20	149.79
639.35	58.51
639.50	79.58
639.65	60.85
639.80	72.56
639.94	67.88
640.09	18.72
640.24	32.77
640.39	77.24
640.54	35.11
640.68	77.24
640.83	42.13
640.98	86.60
641.13	86.60
641.27	98.30
641.42	63.19
641.57	100.64
641.72	112.35
641.86	37.45
642.01	67.88
642.16	35.11
642.31	53.83
642.45	39.79
642.60	42.13
642.75	121.71
642.90	0.00
643.04	49.15
643.19	21.06
643.34	65.54
643.48	93.62
643.63	42.13
643.78	46.81
643.93	88.94
644.07	0.00
644.22	98.30
644.37	37.45
644.51	39.79
644.66	28.09
644.81	28.09
644.95	114.69
645.10	70.22
645.25	121.71
645.39	42.13
645.54	86.60
645.69	98.30
645.83	53.83
645.98	0.00
646.13	35.11
646.27	56.17
646.42	88.94
646.57	67.88
646.71	9.36
646.86	0.00
647.00	74.90
647.15	28.09
647.30	77.24
647.44	133.41
647.59	25.75
647.74	2.34
647.88	91.28
648.03	84.26
648.17	60.85
648.32	88.94
648.47	119.37
648.61	56.17
648.76	39.79
648.90	51.49
649.05	46.81
649.20	0.00
649.34	16.38
649.49	65.54
649.63	16.38
649.78	0.00
649.92	53.83
650.07	28.09
650.21	32.77
650.36	88.94
650.51	4.68
650.65	112.35
650.80	23.41
650.94	2.34
651.09	25.75
651.23	0.00
651.38	70.22
651.52	0.00
651.67	98.30
651.81	65.54
651.96	110.01
652.10	18.72
652.25	30.43
652.39	39.79
652.54	44.47
652.68	21.06
652.83	112.35
652.97	79.58
653.12	117.03
653.26	35.11
653.41	81.92
653.55	37.45
653.70	14.04
653.84	30.43
653.99	0.00
654.13	0.00
654.27	14.04
654.42	53.83
654.56	39.79
654.71	23.41
654.85	67.88
655.00	70.22
655.14	35.11
655.29	0.00
655.43	84.26
655.57	23.41
655.72	9.36
655.86	0.00
656.01	35.11
656.15	72.56
656.30	39.79
656.44	91.28
656.58	21.06
656.73	86.60
656.87	67.88
657.01	35.11
657.16	18.72
657.30	112.35
657.45	51.49
657.59	30.43
657.73	30.43
657.88	56.17
658.02	81.92
658.16	23.41
658.31	7.02
658.45	28.09
658.60	60.85
658.74	58.51
658.88	30.43
659.03	18.72
659.17	88.94
659.31	32.77
659.46	23.41
659.60	23.41
659.74	30.43
659.89	84.26
660.03	30.43
660.17	0.00
660.32	14.04
660.46	37.45
660.60	32.77
660.74	58.51
660.89	39.79
661.03	46.81
661.17	30.43
661.32	32.77
661.46	25.75
661.60	65.54
661.74	28.09
661.89	0.00
662.03	46.81
662.17	30.43
662.31	9.36
662.46	56.17
662.60	56.17
662.74	32.77
662.88	28.09
663.03	65.54
663.17	51.49
663.31	58.51
663.45	102.98
663.60	51.49
663.74	16.38
663.88	11.70
664.02	46.81
664.17	58.51
664.31	28.09
664.45	21.06
664.59	39.79
664.73	74.90
664.88	0.00
665.02	51.49
665.16	72.56
665.30	49.15
665.44	11.70
665.59	79.58
665.73	39.79
665.87	60.85
666.01	16.38
666.15	44.47
666.29	0.00
666.44	58.51
666.58	88.94
666.72	53.83
666.86	46.81
667.00	60.85
667.14	126.39
667.28	86.60
667.43	53.83
667.57	81.92
667.71	88.94
667.85	135.75
667.99	21.06
668.13	0.00
668.27	7.02
668.41	124.05
668.56	42.13
668.70	32.77
668.84	65.54
668.98	0.00
669.12	37.45
669.26	14.04
669.40	53.83
669.54	42.13
669.68	44.47
669.82	112.35
669.96	39.79
670.10	56.17
670.25	32.77
670.39	79.58
670.53	28.09
670.67	65.54
670.81	46.81
670.95	42.13
671.09	18.72
671.23	32.77
671.37	79.58
671.51	11.70
671.65	81.92
671.79	0.00
671.93	0.00
672.07	9.36
672.21	14.04
672.35	46.81
672.49	4.68
672.63	131.07
672.77	56.17
672.91	0.00
673.05	53.83
673.19	81.92
673.33	110.01
673.47	9.36
673.61	25.75
673.75	58.51
673.89	28.09
674.03	65.54
674.17	56.17
674.31	67.88
674.45	18.72
674.59	16.38
674.73	72.56
674.87	86.60
675.01	60.85
675.15	0.00
675.29	11.70
675.43	14.04
675.56	0.00
675.70	0.00
675.84	88.94
675.98	95.96
676.12	98.30
676.26	88.94
676.40	70.22
676.54	0.00
676.68	86.60
676.82	79.58
676.96	74.90
677.10	35.11
677.23	91.28
677.37	0.00
677.51	100.64
677.65	9.36
677.79	91.28
677.93	100.64
678.07	177.88
678.21	110.01
678.34	79.58
678.48	35.11
678.62	0.00
678.76	74.90
678.90	49.15
679.04	39.79
679.18	86.60
679.31	126.39
679.45	119.37
679.59	124.05
679.73	18.72
679.87	53.83
680.00	0.00
680.14	35.11
680.28	42.13
680.42	42.13
680.56	35.11
680.70	4.68
680.83	74.90
680.97	37.45
681.11	14.04
681.25	88.94
681.39	56.17
681.52	49.15
681.66	67.88
681.80	105.32
681.94	49.15
682.07	77.24
682.21	25.75
682.35	93.62
682.49	16.38
682.62	35.11
682.76	49.15
682.90	9.36
683.04	39.79
683.17	23.41
683.31	84.26
683.45	60.85
683.59	0.00
683.72	21.06
683.86	49.15
684.00	32.77
684.13	39.79
684.27	0.00
684.41	42.13
684.55	0.00
684.68	51.49
684.82	44.47
684.96	72.56
685.09	91.28
685.23	25.75
685.37	98.30
685.50	95.96
685.64	25.75
685.78	9.36
685.91	56.17
686.05	0.00
686.19	74.90
686.32	0.00
686.46	4.68
686.60	42.13
686.73	18.72
686.87	42.13
687.01	18.72
687.14	70.22
687.28	37.45
687.42	4.68
687.55	74.90
687.69	35.11
687.82	74.90
687.96	124.05
688.10	14.04
688.23	11.70
688.37	14.04
688.50	63.19
688.64	51.49
688.78	70.22
688.91	0.00
689.05	49.15
689.18	60.85
689.32	32.77
689.46	51.49
689.59	72.56
689.73	114.69
689.86	0.00
690.00	23.41
690.13	42.13
690.27	14.04
690.41	30.43
690.54	37.45
690.68	119.37
690.81	67.88
690.95	18.72
691.08	98.30
691.22	56.17
691.35	21.06
691.49	46.81
691.62	63.19
691.76	74.90
691.89	0.00
692.03	4.68
692.16	46.81
692.30	63.19
692.43	49.15
692.57	0.00
692.70	7.02
692.84	14.04
692.97	28.09
693.11	32.77
693.24	46.81
693.38	9.36
693.51	32.77
693.65	0.00
693.78	84.26
693.92	42.13
694.05	9.36
694.19	4.68
694.32	42.13
694.45	0.00
694.59	0.00
694.72	74.90
694.86	60.85
694.99	18.72
695.13	56.17
695.26	53.83
695.39	63.19
695.53	39.79
695.66	32.77
695.80	0.00
695.93	42.13
696.07	58.51
696.20	4.68
696.33	32.77
696.47	53.83
696.60	9.36
696.73	0.00
696.87	37.45
697.00	86.60
697.14	42.13
697.27	30.43
697.40	46.81
697.54	21.06
697.67	0.00
697.80	25.75
697.94	128.73
698.07	56.17
698.21	65.54
698.34	39.79
698.47	91.28
698.61	63.19
698.74	81.92
698.87	23.41
699.01	0.00
699.14	32.77
699.27	107.66
699.40	65.54
699.54	21.06
699.67	93.62
699.80	46.81
699.94	9.36
700.07	0.00
700.20	30.43
700.34	9.36
700.47	70.22
700.60	0.00
700.73	0.00
700.87	18.72
701.00	63.19
701.13	72.56
701.26	0.00
701.40	21.06
701.53	0.00
701.66	0.00
701.79	60.85
701.93	25.75
702.06	60.85
702.19	88.94
702.32	32.77
702.46	0.00
702.59	7.02
702.72	39.79
702.85	51.49
702.99	30.43
703.12	0.00
703.25	0.00
703.38	0.00
703.51	39.79
703.65	102.98
703.78	84.26
703.91	63.19
704.04	9.36
704.17	70.22
704.31	32.77
704.44	46.81
704.57	0.00
704.70	11.70
704.83	72.56
704.96	81.92
705.10	30.43
705.23	65.54
>>>>>End Processed Spectral Data<<<<<
