SpectraSuite Data File
++++++++++++++++++++++++++++++++++++
Date: Fri Oct 04 12:13:30 GMT-05:00 2013
User: price-jones
Dark Spectrum Present: No
Reference Spectrum Present: No
Number of Sampled Component Spectra: 1
Spectrometers: USB2+H05261
Integration Time (usec): 10000 (USB2+H05261)
Spectra Averaged: 1 (USB2+H05261)
Boxcar Smoothing: 0 (USB2+H05261)
Correct for Electrical Dark: No (USB2+H05261)
Strobe/Lamp Enabled: No (USB2+H05261)
Correct for Detector Non-linearity: No (USB2+H05261)
Correct for Stray Light: No (USB2+H05261)
Number of Pixels in Processed Spectrum: 2048
>>>>>Begin Processed Spectral Data<<<<<
365.73	0.00
365.92	0.00
366.12	0.00
366.32	0.00
366.52	0.00
366.72	0.00
366.91	0.00
367.11	0.00
367.31	0.00
367.51	0.00
367.70	0.00
367.90	0.00
368.10	0.00
368.30	0.00
368.49	0.00
368.69	0.00
368.89	0.00
369.09	0.00
369.28	0.00
369.48	0.00
369.68	0.00
369.87	0.00
370.07	0.00
370.27	0.00
370.47	0.00
370.66	0.00
370.86	0.00
371.06	0.00
371.25	0.00
371.45	0.00
371.65	0.00
371.84	0.00
372.04	2.34
372.24	0.00
372.44	0.00
372.63	53.83
372.83	65.54
373.03	2.34
373.22	23.41
373.42	0.00
373.62	28.09
373.81	51.49
374.01	21.06
374.21	44.47
374.40	39.79
374.60	0.00
374.79	93.62
374.99	42.13
375.19	105.32
375.38	67.88
375.58	25.75
375.78	23.41
375.97	63.19
376.17	0.00
376.37	0.00
376.56	51.49
376.76	58.51
376.95	11.70
377.15	0.00
377.35	37.45
377.54	0.00
377.74	0.00
377.93	0.00
378.13	0.00
378.33	37.45
378.52	0.00
378.72	51.49
378.91	60.85
379.11	63.19
379.31	88.94
379.50	88.94
379.70	0.00
379.89	28.09
380.09	44.47
380.28	0.00
380.48	4.68
380.68	23.41
380.87	0.00
381.07	35.11
381.26	16.38
381.46	9.36
381.65	67.88
381.85	0.00
382.04	37.45
382.24	56.17
382.43	4.68
382.63	0.00
382.83	32.77
383.02	21.06
383.22	58.51
383.41	14.04
383.61	49.15
383.80	4.68
384.00	0.00
384.19	0.00
384.39	0.00
384.58	0.00
384.78	25.75
384.97	42.13
385.17	0.00
385.36	56.17
385.56	86.60
385.75	49.15
385.95	63.19
386.14	9.36
386.34	35.11
386.53	53.83
386.72	11.70
386.92	39.79
387.11	0.00
387.31	0.00
387.50	0.00
387.70	70.22
387.89	49.15
388.09	0.00
388.28	11.70
388.48	0.00
388.67	7.02
388.86	0.00
389.06	0.00
389.25	0.00
389.45	39.79
389.64	0.00
389.84	23.41
390.03	0.00
390.22	4.68
390.42	49.15
390.61	0.00
390.81	0.00
391.00	49.15
391.19	0.00
391.39	16.38
391.58	0.00
391.78	0.00
391.97	25.75
392.16	49.15
392.36	28.09
392.55	79.58
392.75	58.51
392.94	25.75
393.13	0.00
393.33	9.36
393.52	7.02
393.71	88.94
393.91	32.77
394.10	0.00
394.29	0.00
394.49	18.72
394.68	0.00
394.88	46.81
395.07	4.68
395.26	23.41
395.46	28.09
395.65	0.00
395.84	23.41
396.04	0.00
396.23	4.68
396.42	16.38
396.62	14.04
396.81	0.00
397.00	0.00
397.19	37.45
397.39	74.90
397.58	37.45
397.77	70.22
397.97	93.62
398.16	18.72
398.35	0.00
398.55	0.00
398.74	25.75
398.93	37.45
399.12	0.00
399.32	0.00
399.51	2.34
399.70	46.81
399.90	21.06
400.09	84.26
400.28	25.75
400.47	0.00
400.67	100.64
400.86	70.22
401.05	35.11
401.24	35.11
401.44	46.81
401.63	0.00
401.82	0.00
402.01	70.22
402.21	37.45
402.40	18.72
402.59	0.00
402.78	0.00
402.97	32.77
403.17	84.26
403.36	32.77
403.55	21.06
403.74	56.17
403.93	0.00
404.13	42.13
404.32	53.83
404.51	88.94
404.70	98.30
404.89	37.45
405.09	0.00
405.28	0.00
405.47	32.77
405.66	51.49
405.85	4.68
406.05	51.49
406.24	28.09
406.43	65.54
406.62	18.72
406.81	44.47
407.00	9.36
407.20	0.00
407.39	32.77
407.58	18.72
407.77	4.68
407.96	35.11
408.15	63.19
408.34	93.62
408.54	51.49
408.73	0.00
408.92	49.15
409.11	2.34
409.30	0.00
409.49	0.00
409.68	0.00
409.87	23.41
410.07	32.77
410.26	0.00
410.45	114.69
410.64	56.17
410.83	0.00
411.02	0.00
411.21	11.70
411.40	32.77
411.59	39.79
411.78	0.00
411.98	16.38
412.17	0.00
412.36	56.17
412.55	53.83
412.74	2.34
412.93	0.00
413.12	44.47
413.31	44.47
413.50	0.00
413.69	63.19
413.88	0.00
414.07	25.75
414.26	95.96
414.45	18.72
414.64	7.02
414.83	37.45
415.02	58.51
415.22	53.83
415.41	70.22
415.60	58.51
415.79	81.92
415.98	0.00
416.17	51.49
416.36	37.45
416.55	11.70
416.74	44.47
416.93	0.00
417.12	0.00
417.31	0.00
417.50	124.05
417.69	39.79
417.88	86.60
418.07	46.81
418.26	49.15
418.45	21.06
418.64	0.00
418.83	25.75
419.02	0.00
419.21	9.36
419.39	18.72
419.58	56.17
419.77	0.00
419.96	145.11
420.15	60.85
420.34	4.68
420.53	23.41
420.72	35.11
420.91	72.56
421.10	18.72
421.29	32.77
421.48	39.79
421.67	30.43
421.86	9.36
422.05	0.00
422.24	35.11
422.43	9.36
422.61	56.17
422.80	35.11
422.99	44.47
423.18	14.04
423.37	56.17
423.56	0.00
423.75	53.83
423.94	112.35
424.13	0.00
424.32	2.34
424.50	0.00
424.69	63.19
424.88	0.00
425.07	39.79
425.26	0.00
425.45	4.68
425.64	37.45
425.83	21.06
426.01	37.45
426.20	0.00
426.39	0.00
426.58	53.83
426.77	67.88
426.96	46.81
427.15	4.68
427.33	14.04
427.52	0.00
427.71	0.00
427.90	23.41
428.09	4.68
428.28	21.06
428.46	51.49
428.65	0.00
428.84	39.79
429.03	32.77
429.22	49.15
429.40	2.34
429.59	30.43
429.78	23.41
429.97	46.81
430.16	56.17
430.34	0.00
430.53	0.00
430.72	0.00
430.91	42.13
431.10	91.28
431.28	32.77
431.47	91.28
431.66	28.09
431.85	0.00
432.03	0.00
432.22	0.00
432.41	53.83
432.60	37.45
432.79	58.51
432.97	0.00
433.16	79.58
433.35	0.00
433.54	14.04
433.72	16.38
433.91	23.41
434.10	0.00
434.28	21.06
434.47	49.15
434.66	0.00
434.85	25.75
435.03	0.00
435.22	49.15
435.41	72.56
435.59	77.24
435.78	0.00
435.97	0.00
436.16	72.56
436.34	77.24
436.53	0.00
436.72	16.38
436.90	0.00
437.09	23.41
437.28	4.68
437.46	21.06
437.65	67.88
437.84	84.26
438.02	46.81
438.21	121.71
438.40	14.04
438.58	25.75
438.77	49.15
438.96	44.47
439.14	11.70
439.33	56.17
439.52	77.24
439.70	93.62
439.89	0.00
440.08	77.24
440.26	28.09
440.45	35.11
440.63	65.54
440.82	67.88
441.01	14.04
441.19	112.35
441.38	60.85
441.57	53.83
441.75	86.60
441.94	102.98
442.12	70.22
442.31	32.77
442.50	56.17
442.68	67.88
442.87	0.00
443.05	84.26
443.24	46.81
443.43	25.75
443.61	28.09
443.80	72.56
443.98	21.06
444.17	67.88
444.35	56.17
444.54	49.15
444.73	58.51
444.91	77.24
445.10	14.04
445.28	4.68
445.47	11.70
445.65	23.41
445.84	77.24
446.02	16.38
446.21	32.77
446.39	4.68
446.58	51.49
446.77	11.70
446.95	9.36
447.14	14.04
447.32	60.85
447.51	4.68
447.69	37.45
447.88	32.77
448.06	88.94
448.25	63.19
448.43	23.41
448.62	35.11
448.80	0.00
448.99	18.72
449.17	11.70
449.36	42.13
449.54	9.36
449.73	39.79
449.91	114.69
450.10	60.85
450.28	67.88
450.46	23.41
450.65	25.75
450.83	23.41
451.02	16.38
451.20	74.90
451.39	4.68
451.57	25.75
451.76	0.00
451.94	60.85
452.13	16.38
452.31	49.15
452.49	44.47
452.68	49.15
452.86	0.00
453.05	0.00
453.23	25.75
453.42	32.77
453.60	77.24
453.78	0.00
453.97	28.09
454.15	42.13
454.34	4.68
454.52	30.43
454.70	0.00
454.89	32.77
455.07	35.11
455.26	65.54
455.44	42.13
455.62	53.83
455.81	11.70
455.99	49.15
456.17	37.45
456.36	9.36
456.54	58.51
456.73	28.09
456.91	58.51
457.09	7.02
457.28	4.68
457.46	74.90
457.64	0.00
457.83	63.19
458.01	79.58
458.19	9.36
458.38	58.51
458.56	0.00
458.74	0.00
458.93	30.43
459.11	56.17
459.29	0.00
459.48	77.24
459.66	14.04
459.84	39.79
460.03	0.00
460.21	7.02
460.39	0.00
460.57	53.83
460.76	37.45
460.94	7.02
461.12	18.72
461.31	32.77
461.49	0.00
461.67	28.09
461.85	18.72
462.04	0.00
462.22	56.17
462.40	0.00
462.59	35.11
462.77	91.28
462.95	46.81
463.13	14.04
463.32	9.36
463.50	35.11
463.68	37.45
463.86	58.51
464.05	0.00
464.23	84.26
464.41	16.38
464.59	25.75
464.78	25.75
464.96	0.00
465.14	0.00
465.32	23.41
465.50	93.62
465.69	58.51
465.87	46.81
466.05	14.04
466.23	44.47
466.41	37.45
466.60	84.26
466.78	21.06
466.96	0.00
467.14	124.05
467.32	72.56
467.51	0.00
467.69	46.81
467.87	58.51
468.05	0.00
468.23	60.85
468.41	37.45
468.60	2.34
468.78	0.00
468.96	16.38
469.14	25.75
469.32	51.49
469.50	21.06
469.69	65.54
469.87	60.85
470.05	56.17
470.23	70.22
470.41	102.98
470.59	42.13
470.77	42.13
470.95	30.43
471.14	44.47
471.32	9.36
471.50	46.81
471.68	0.00
471.86	16.38
472.04	72.56
472.22	63.19
472.40	58.51
472.58	72.56
472.77	4.68
472.95	2.34
473.13	60.85
473.31	39.79
473.49	63.19
473.67	0.00
473.85	58.51
474.03	0.00
474.21	95.96
474.39	56.17
474.57	23.41
474.75	102.98
474.93	79.58
475.12	53.83
475.30	58.51
475.48	39.79
475.66	91.28
475.84	93.62
476.02	11.70
476.20	32.77
476.38	0.00
476.56	23.41
476.74	16.38
476.92	0.00
477.10	102.98
477.28	0.00
477.46	28.09
477.64	46.81
477.82	42.13
478.00	0.00
478.18	39.79
478.36	51.49
478.54	0.00
478.72	0.00
478.90	42.13
479.08	0.00
479.26	70.22
479.44	0.00
479.62	58.51
479.80	14.04
479.98	42.13
480.16	74.90
480.34	14.04
480.52	0.00
480.70	49.15
480.88	11.70
481.06	58.51
481.24	67.88
481.41	65.54
481.59	30.43
481.77	44.47
481.95	58.51
482.13	28.09
482.31	7.02
482.49	14.04
482.67	30.43
482.85	65.54
483.03	37.45
483.21	53.83
483.39	0.00
483.57	4.68
483.74	72.56
483.92	18.72
484.10	0.00
484.28	18.72
484.46	49.15
484.64	35.11
484.82	32.77
485.00	0.00
485.18	44.47
485.35	2.34
485.53	0.00
485.71	18.72
485.89	39.79
486.07	28.09
486.25	42.13
486.43	86.60
486.61	0.00
486.78	77.24
486.96	60.85
487.14	0.00
487.32	0.00
487.50	0.00
487.68	2.34
487.85	93.62
488.03	46.81
488.21	0.00
488.39	39.79
488.57	105.32
488.75	77.24
488.92	0.00
489.10	7.02
489.28	63.19
489.46	4.68
489.64	46.81
489.81	65.54
489.99	58.51
490.17	32.77
490.35	0.00
490.53	81.92
490.70	42.13
490.88	0.00
491.06	21.06
491.24	9.36
491.41	77.24
491.59	86.60
491.77	77.24
491.95	42.13
492.13	30.43
492.30	126.39
492.48	44.47
492.66	0.00
492.84	0.00
493.01	0.00
493.19	51.49
493.37	46.81
493.54	42.13
493.72	93.62
493.90	21.06
494.08	98.30
494.25	4.68
494.43	0.00
494.61	23.41
494.79	30.43
494.96	0.00
495.14	23.41
495.32	37.45
495.49	0.00
495.67	65.54
495.85	37.45
496.02	28.09
496.20	67.88
496.38	70.22
496.55	0.00
496.73	30.43
496.91	0.00
497.09	112.35
497.26	58.51
497.44	0.00
497.62	74.90
497.79	4.68
497.97	39.79
498.14	23.41
498.32	0.00
498.50	18.72
498.67	25.75
498.85	30.43
499.03	35.11
499.20	100.64
499.38	95.96
499.56	0.00
499.73	9.36
499.91	100.64
500.08	25.75
500.26	14.04
500.44	51.49
500.61	25.75
500.79	56.17
500.97	65.54
501.14	23.41
501.32	23.41
501.49	37.45
501.67	58.51
501.84	63.19
502.02	114.69
502.20	56.17
502.37	88.94
502.55	0.00
502.72	4.68
502.90	11.70
503.07	0.00
503.25	28.09
503.43	39.79
503.60	23.41
503.78	11.70
503.95	23.41
504.13	46.81
504.30	0.00
504.48	37.45
504.65	93.62
504.83	91.28
505.01	67.88
505.18	67.88
505.36	58.51
505.53	23.41
505.71	49.15
505.88	60.85
506.06	0.00
506.23	25.75
506.41	25.75
506.58	0.00
506.76	138.09
506.93	37.45
507.11	7.02
507.28	56.17
507.46	0.00
507.63	53.83
507.81	23.41
507.98	4.68
508.16	42.13
508.33	53.83
508.50	0.00
508.68	53.83
508.85	46.81
509.03	28.09
509.20	70.22
509.38	65.54
509.55	0.00
509.73	16.38
509.90	93.62
510.08	21.06
510.25	53.83
510.42	0.00
510.60	35.11
510.77	53.83
510.95	58.51
511.12	39.79
511.30	124.05
511.47	44.47
511.64	56.17
511.82	91.28
511.99	72.56
512.17	44.47
512.34	0.00
512.51	30.43
512.69	0.00
512.86	58.51
513.04	56.17
513.21	32.77
513.38	0.00
513.56	131.07
513.73	49.15
513.90	102.98
514.08	9.36
514.25	21.06
514.43	0.00
514.60	4.68
514.77	93.62
514.95	0.00
515.12	107.66
515.29	105.32
515.47	131.07
515.64	67.88
515.81	25.75
515.99	53.83
516.16	112.35
516.33	37.45
516.51	0.00
516.68	16.38
516.85	2.34
517.03	32.77
517.20	91.28
517.37	18.72
517.54	28.09
517.72	2.34
517.89	72.56
518.06	0.00
518.24	53.83
518.41	30.43
518.58	11.70
518.75	25.75
518.93	72.56
519.10	58.51
519.27	0.00
519.45	140.43
519.62	30.43
519.79	60.85
519.96	0.00
520.14	63.19
520.31	0.00
520.48	53.83
520.65	0.00
520.83	39.79
521.00	95.96
521.17	67.88
521.34	0.00
521.52	0.00
521.69	60.85
521.86	58.51
522.03	23.41
522.20	98.30
522.38	93.62
522.55	63.19
522.72	51.49
522.89	28.09
523.07	44.47
523.24	81.92
523.41	7.02
523.58	63.19
523.75	11.70
523.92	2.34
524.10	7.02
524.27	23.41
524.44	0.00
524.61	53.83
524.78	95.96
524.96	9.36
525.13	25.75
525.30	114.69
525.47	91.28
525.64	74.90
525.81	32.77
525.98	63.19
526.16	102.98
526.33	91.28
526.50	84.26
526.67	0.00
526.84	74.90
527.01	30.43
527.18	51.49
527.36	58.51
527.53	0.00
527.70	4.68
527.87	117.03
528.04	23.41
528.21	30.43
528.38	28.09
528.55	11.70
528.72	63.19
528.89	56.17
529.07	51.49
529.24	30.43
529.41	56.17
529.58	16.38
529.75	74.90
529.92	49.15
530.09	21.06
530.26	37.45
530.43	0.00
530.60	93.62
530.77	0.00
530.94	39.79
531.11	100.64
531.28	49.15
531.46	72.56
531.63	91.28
531.80	16.38
531.97	0.00
532.14	0.00
532.31	14.04
532.48	98.30
532.65	28.09
532.82	86.60
532.99	65.54
533.16	42.13
533.33	67.88
533.50	23.41
533.67	39.79
533.84	42.13
534.01	98.30
534.18	0.00
534.35	63.19
534.52	30.43
534.69	44.47
534.86	49.15
535.03	60.85
535.20	44.47
535.37	0.00
535.54	42.13
535.71	91.28
535.88	32.77
536.05	7.02
536.22	51.49
536.38	0.00
536.55	72.56
536.72	65.54
536.89	63.19
537.06	0.00
537.23	0.00
537.40	53.83
537.57	18.72
537.74	70.22
537.91	42.13
538.08	0.00
538.25	7.02
538.42	63.19
538.59	9.36
538.75	11.70
538.92	65.54
539.09	32.77
539.26	112.35
539.43	14.04
539.60	74.90
539.77	11.70
539.94	0.00
540.11	4.68
540.28	0.00
540.44	23.41
540.61	121.71
540.78	81.92
540.95	16.38
541.12	49.15
541.29	88.94
541.46	56.17
541.62	9.36
541.79	124.05
541.96	0.00
542.13	21.06
542.30	135.75
542.47	67.88
542.63	100.64
542.80	77.24
542.97	88.94
543.14	72.56
543.31	0.00
543.48	81.92
543.64	95.96
543.81	42.13
543.98	42.13
544.15	16.38
544.32	30.43
544.48	0.00
544.65	2.34
544.82	86.60
544.99	2.34
545.16	53.83
545.32	9.36
545.49	44.47
545.66	58.51
545.83	63.19
546.00	49.15
546.16	91.28
546.33	121.71
546.50	88.94
546.67	11.70
546.83	49.15
547.00	7.02
547.17	4.68
547.34	16.38
547.50	16.38
547.67	0.00
547.84	81.92
548.00	11.70
548.17	86.60
548.34	0.00
548.51	65.54
548.67	23.41
548.84	0.00
549.01	30.43
549.18	0.00
549.34	0.00
549.51	28.09
549.68	11.70
549.84	46.81
550.01	23.41
550.18	86.60
550.34	30.43
550.51	110.01
550.68	21.06
550.84	39.79
551.01	0.00
551.18	25.75
551.34	86.60
551.51	42.13
551.68	2.34
551.84	51.49
552.01	95.96
552.18	0.00
552.34	23.41
552.51	2.34
552.68	53.83
552.84	42.13
553.01	65.54
553.18	49.15
553.34	37.45
553.51	30.43
553.67	37.45
553.84	30.43
554.01	0.00
554.17	65.54
554.34	70.22
554.51	72.56
554.67	9.36
554.84	35.11
555.00	25.75
555.17	35.11
555.33	81.92
555.50	11.70
555.67	58.51
555.83	0.00
556.00	23.41
556.16	60.85
556.33	70.22
556.50	70.22
556.66	0.00
556.83	0.00
556.99	65.54
557.16	117.03
557.32	0.00
557.49	44.47
557.65	11.70
557.82	37.45
557.98	42.13
558.15	18.72
558.32	67.88
558.48	60.85
558.65	9.36
558.81	49.15
558.98	0.00
559.14	7.02
559.31	0.00
559.47	0.00
559.64	42.13
559.80	53.83
559.97	0.00
560.13	72.56
560.30	14.04
560.46	86.60
560.63	107.66
560.79	91.28
560.96	39.79
561.12	9.36
561.29	7.02
561.45	0.00
561.61	51.49
561.78	44.47
561.94	0.00
562.11	32.77
562.27	74.90
562.44	70.22
562.60	14.04
562.77	0.00
562.93	23.41
563.10	53.83
563.26	0.00
563.42	0.00
563.59	63.19
563.75	28.09
563.92	60.85
564.08	63.19
564.24	16.38
564.41	21.06
564.57	53.83
564.74	72.56
564.90	0.00
565.07	60.85
565.23	91.28
565.39	2.34
565.56	32.77
565.72	37.45
565.88	77.24
566.05	32.77
566.21	35.11
566.38	56.17
566.54	67.88
566.70	91.28
566.87	7.02
567.03	42.13
567.19	28.09
567.36	84.26
567.52	70.22
567.68	42.13
567.85	74.90
568.01	9.36
568.17	18.72
568.34	86.60
568.50	4.68
568.66	28.09
568.83	0.00
568.99	4.68
569.15	58.51
569.32	72.56
569.48	58.51
569.64	86.60
569.81	32.77
569.97	23.41
570.13	44.47
570.30	74.90
570.46	0.00
570.62	0.00
570.78	11.70
570.95	30.43
571.11	67.88
571.27	79.58
571.43	30.43
571.60	28.09
571.76	25.75
571.92	60.85
572.09	25.75
572.25	72.56
572.41	44.47
572.57	86.60
572.74	56.17
572.90	42.13
573.06	53.83
573.22	9.36
573.38	42.13
573.55	60.85
573.71	72.56
573.87	0.00
574.03	14.04
574.20	42.13
574.36	0.00
574.52	18.72
574.68	119.37
574.84	25.75
575.01	107.66
575.17	100.64
575.33	25.75
575.49	37.45
575.65	32.77
575.82	35.11
575.98	30.43
576.14	30.43
576.30	131.07
576.46	98.30
576.62	147.45
576.79	0.00
576.95	51.49
577.11	91.28
577.27	49.15
577.43	0.00
577.59	77.24
577.75	9.36
577.92	56.17
578.08	131.07
578.24	42.13
578.40	0.00
578.56	21.06
578.72	44.47
578.88	30.43
579.04	105.32
579.21	0.00
579.37	0.00
579.53	74.90
579.69	0.00
579.85	32.77
580.01	86.60
580.17	35.11
580.33	0.00
580.49	114.69
580.65	70.22
580.82	21.06
580.98	105.32
581.14	70.22
581.30	18.72
581.46	65.54
581.62	42.13
581.78	51.49
581.94	0.00
582.10	4.68
582.26	0.00
582.42	32.77
582.58	0.00
582.74	44.47
582.90	21.06
583.06	44.47
583.22	65.54
583.38	79.58
583.54	9.36
583.70	100.64
583.86	42.13
584.02	39.79
584.18	74.90
584.34	67.88
584.50	51.49
584.66	170.86
584.82	234.05
584.98	355.76
585.14	255.12
585.30	238.73
585.46	166.18
585.62	107.66
585.78	30.43
585.94	7.02
586.10	30.43
586.26	18.72
586.42	102.98
586.58	0.00
586.74	0.00
586.90	37.45
587.06	2.34
587.22	39.79
587.38	25.75
587.54	21.06
587.70	77.24
587.86	88.94
588.02	2.34
588.18	84.26
588.34	0.00
588.49	84.26
588.65	0.00
588.81	65.54
588.97	18.72
589.13	21.06
589.29	110.01
589.45	49.15
589.61	79.58
589.77	74.90
589.93	91.28
590.08	16.38
590.24	39.79
590.40	0.00
590.56	51.49
590.72	65.54
590.88	30.43
591.04	84.26
591.20	46.81
591.35	70.22
591.51	35.11
591.67	79.58
591.83	74.90
591.99	9.36
592.15	0.00
592.31	46.81
592.46	0.00
592.62	11.70
592.78	70.22
592.94	9.36
593.10	7.02
593.26	0.00
593.41	42.13
593.57	65.54
593.73	53.83
593.89	32.77
594.05	70.22
594.20	0.00
594.36	53.83
594.52	60.85
594.68	25.75
594.84	53.83
594.99	9.36
595.15	58.51
595.31	32.77
595.47	16.38
595.62	28.09
595.78	4.68
595.94	51.49
596.10	2.34
596.25	16.38
596.41	0.00
596.57	74.90
596.73	39.79
596.88	0.00
597.04	93.62
597.20	30.43
597.36	35.11
597.51	63.19
597.67	35.11
597.83	21.06
597.99	95.96
598.14	86.60
598.30	9.36
598.46	0.00
598.61	21.06
598.77	95.96
598.93	0.00
599.09	28.09
599.24	51.49
599.40	30.43
599.56	32.77
599.71	100.64
599.87	84.26
600.03	4.68
600.18	37.45
600.34	0.00
600.50	0.00
600.65	74.90
600.81	93.62
600.97	11.70
601.12	0.00
601.28	9.36
601.44	0.00
601.59	23.41
601.75	121.71
601.91	25.75
602.06	0.00
602.22	18.72
602.37	44.47
602.53	9.36
602.69	30.43
602.84	51.49
603.00	0.00
603.16	46.81
603.31	84.26
603.47	91.28
603.62	0.00
603.78	42.13
603.94	0.00
604.09	53.83
604.25	7.02
604.40	88.94
604.56	0.00
604.71	98.30
604.87	74.90
605.03	44.47
605.18	74.90
605.34	4.68
605.49	0.00
605.65	60.85
605.80	95.96
605.96	65.54
606.12	67.88
606.27	16.38
606.43	0.00
606.58	46.81
606.74	86.60
606.89	91.28
607.05	67.88
607.20	49.15
607.36	107.66
607.51	102.98
607.67	18.72
607.82	23.41
607.98	56.17
608.13	23.41
608.29	14.04
608.44	67.88
608.60	42.13
608.75	30.43
608.91	0.00
609.06	133.41
609.22	107.66
609.37	67.88
609.53	81.92
609.68	93.62
609.84	25.75
609.99	86.60
610.15	51.49
610.30	147.45
610.46	93.62
610.61	25.75
610.76	21.06
610.92	53.83
611.07	0.00
611.23	81.92
611.38	0.00
611.54	39.79
611.69	74.90
611.84	60.85
612.00	32.77
612.15	7.02
612.31	37.45
612.46	4.68
612.62	25.75
612.77	67.88
612.92	0.00
613.08	72.56
613.23	0.00
613.39	56.17
613.54	28.09
613.69	81.92
613.85	140.43
614.00	170.86
614.15	131.07
614.31	145.11
614.46	91.28
614.62	65.54
614.77	70.22
614.92	11.70
615.08	112.35
615.23	32.77
615.38	0.00
615.54	65.54
615.69	25.75
615.84	70.22
616.00	0.00
616.15	91.28
616.30	91.28
616.46	60.85
616.61	2.34
616.76	11.70
616.92	72.56
617.07	32.77
617.22	39.79
617.37	63.19
617.53	16.38
617.68	0.00
617.83	42.13
617.99	0.00
618.14	86.60
618.29	70.22
618.45	37.45
618.60	56.17
618.75	11.70
618.90	0.00
619.06	49.15
619.21	0.00
619.36	70.22
619.51	21.06
619.67	28.09
619.82	0.00
619.97	49.15
620.12	102.98
620.28	0.00
620.43	51.49
620.58	21.06
620.73	0.00
620.89	7.02
621.04	53.83
621.19	65.54
621.34	0.00
621.49	124.05
621.65	0.00
621.80	28.09
621.95	79.58
622.10	67.88
622.25	4.68
622.41	0.00
622.56	9.36
622.71	88.94
622.86	9.36
623.01	39.79
623.16	119.37
623.32	42.13
623.47	46.81
623.62	77.24
623.77	0.00
623.92	133.41
624.07	49.15
624.23	88.94
624.38	0.00
624.53	84.26
624.68	30.43
624.83	84.26
624.98	56.17
625.13	60.85
625.29	18.72
625.44	14.04
625.59	86.60
625.74	18.72
625.89	95.96
626.04	67.88
626.19	39.79
626.34	39.79
626.49	42.13
626.65	37.45
626.80	23.41
626.95	25.75
627.10	42.13
627.25	79.58
627.40	25.75
627.55	14.04
627.70	42.13
627.85	25.75
628.00	91.28
628.15	4.68
628.30	7.02
628.45	0.00
628.60	51.49
628.76	0.00
628.91	37.45
629.06	14.04
629.21	51.49
629.36	30.43
629.51	42.13
629.66	0.00
629.81	0.00
629.96	44.47
630.11	53.83
630.26	11.70
630.41	44.47
630.56	18.72
630.71	88.94
630.86	21.06
631.01	42.13
631.16	58.51
631.31	65.54
631.46	60.85
631.61	91.28
631.76	124.05
631.91	0.00
632.06	63.19
632.21	0.00
632.36	70.22
632.51	72.56
632.66	44.47
632.81	0.00
632.96	56.17
633.10	79.58
633.25	46.81
633.40	51.49
633.55	98.30
633.70	46.81
633.85	124.05
634.00	149.79
634.15	46.81
634.30	39.79
634.45	49.15
634.60	37.45
634.75	0.00
634.90	53.83
635.05	16.38
635.19	63.19
635.34	0.00
635.49	39.79
635.64	0.00
635.79	0.00
635.94	91.28
636.09	49.15
636.24	11.70
636.39	121.71
636.53	9.36
636.68	14.04
636.83	84.26
636.98	63.19
637.13	37.45
637.28	53.83
637.43	0.00
637.57	25.75
637.72	88.94
637.87	72.56
638.02	18.72
638.17	28.09
638.32	70.22
638.46	44.47
638.61	65.54
638.76	0.00
638.91	39.79
639.06	0.00
639.20	21.06
639.35	84.26
639.50	72.56
639.65	56.17
639.80	93.62
639.94	67.88
640.09	100.64
640.24	138.09
640.39	107.66
640.54	91.28
640.68	49.15
640.83	63.19
640.98	16.38
641.13	0.00
641.27	0.00
641.42	21.06
641.57	70.22
641.72	74.90
641.86	46.81
642.01	21.06
642.16	58.51
642.31	30.43
642.45	58.51
642.60	79.58
642.75	44.47
642.90	30.43
643.04	28.09
643.19	100.64
643.34	25.75
643.48	37.45
643.63	77.24
643.78	25.75
643.93	25.75
644.07	77.24
644.22	60.85
644.37	0.00
644.51	2.34
644.66	46.81
644.81	77.24
644.95	63.19
645.10	67.88
645.25	16.38
645.39	4.68
645.54	0.00
645.69	39.79
645.83	21.06
645.98	65.54
646.13	102.98
646.27	9.36
646.42	102.98
646.57	46.81
646.71	63.19
646.86	56.17
647.00	44.47
647.15	0.00
647.30	23.41
647.44	88.94
647.59	0.00
647.74	7.02
647.88	79.58
648.03	9.36
648.17	88.94
648.32	44.47
648.47	0.00
648.61	16.38
648.76	0.00
648.90	25.75
649.05	70.22
649.20	0.00
649.34	0.00
649.49	56.17
649.63	0.00
649.78	51.49
649.92	63.19
650.07	0.00
650.21	81.92
650.36	142.77
650.51	65.54
650.65	44.47
650.80	95.96
650.94	32.77
651.09	39.79
651.23	0.00
651.38	7.02
651.52	2.34
651.67	49.15
651.81	7.02
651.96	30.43
652.10	72.56
652.25	25.75
652.39	0.00
652.54	107.66
652.68	37.45
652.83	0.00
652.97	23.41
653.12	67.88
653.26	9.36
653.41	74.90
653.55	2.34
653.70	102.98
653.84	49.15
653.99	18.72
654.13	88.94
654.27	74.90
654.42	60.85
654.56	53.83
654.71	53.83
654.85	39.79
655.00	56.17
655.14	0.00
655.29	32.77
655.43	105.32
655.57	56.17
655.72	0.00
655.86	23.41
656.01	4.68
656.15	112.35
656.30	25.75
656.44	56.17
656.58	18.72
656.73	72.56
656.87	60.85
657.01	11.70
657.16	117.03
657.30	18.72
657.45	28.09
657.59	0.00
657.73	72.56
657.88	18.72
658.02	25.75
658.16	21.06
658.31	25.75
658.45	0.00
658.60	42.13
658.74	72.56
658.88	18.72
659.03	79.58
659.17	2.34
659.31	23.41
659.46	60.85
659.60	65.54
659.74	0.00
659.89	74.90
660.03	84.26
660.17	28.09
660.32	63.19
660.46	42.13
660.60	58.51
660.74	30.43
660.89	9.36
661.03	35.11
661.17	86.60
661.32	4.68
661.46	49.15
661.60	46.81
661.74	42.13
661.89	0.00
662.03	32.77
662.17	44.47
662.31	30.43
662.46	100.64
662.60	25.75
662.74	70.22
662.88	2.34
663.03	65.54
663.17	35.11
663.31	88.94
663.45	53.83
663.60	51.49
663.74	0.00
663.88	46.81
664.02	102.98
664.17	74.90
664.31	0.00
664.45	51.49
664.59	0.00
664.73	39.79
664.88	86.60
665.02	91.28
665.16	102.98
665.30	63.19
665.44	0.00
665.59	16.38
665.73	7.02
665.87	0.00
666.01	9.36
666.15	0.00
666.29	70.22
666.44	23.41
666.58	84.26
666.72	63.19
666.86	93.62
667.00	93.62
667.14	70.22
667.28	121.71
667.43	86.60
667.57	70.22
667.71	11.70
667.85	67.88
667.99	88.94
668.13	67.88
668.27	0.00
668.41	0.00
668.56	25.75
668.70	72.56
668.84	9.36
668.98	58.51
669.12	0.00
669.26	18.72
669.40	16.38
669.54	56.17
669.68	28.09
669.82	39.79
669.96	9.36
670.10	9.36
670.25	0.00
670.39	60.85
670.53	21.06
670.67	21.06
670.81	42.13
670.95	9.36
671.09	46.81
671.23	44.47
671.37	60.85
671.51	88.94
671.65	25.75
671.79	32.77
671.93	86.60
672.07	79.58
672.21	37.45
672.35	39.79
672.49	0.00
672.63	74.90
672.77	4.68
672.91	0.00
673.05	7.02
673.19	67.88
673.33	0.00
673.47	35.11
673.61	42.13
673.75	18.72
673.89	37.45
674.03	35.11
674.17	14.04
674.31	32.77
674.45	0.00
674.59	49.15
674.73	9.36
674.87	18.72
675.01	0.00
675.15	25.75
675.29	9.36
675.43	107.66
675.56	28.09
675.70	46.81
675.84	53.83
675.98	79.58
676.12	0.00
676.26	0.00
676.40	25.75
676.54	21.06
676.68	14.04
676.82	49.15
676.96	0.00
677.10	0.00
677.23	70.22
677.37	4.68
677.51	0.00
677.65	0.00
677.79	56.17
677.93	11.70
678.07	0.00
678.21	0.00
678.34	0.00
678.48	0.00
678.62	0.00
678.76	95.96
678.90	37.45
679.04	42.13
679.18	0.00
679.31	51.49
679.45	86.60
679.59	131.07
679.73	58.51
679.87	0.00
680.00	60.85
680.14	119.37
680.28	44.47
680.42	30.43
680.56	0.00
680.70	32.77
680.83	49.15
680.97	58.51
681.11	0.00
681.25	0.00
681.39	70.22
681.52	35.11
681.66	72.56
681.80	39.79
681.94	0.00
682.07	72.56
682.21	81.92
682.35	37.45
682.49	46.81
682.62	53.83
682.76	70.22
682.90	18.72
683.04	67.88
683.17	93.62
683.31	21.06
683.45	74.90
683.59	0.00
683.72	39.79
683.86	7.02
684.00	32.77
684.13	0.00
684.27	95.96
684.41	49.15
684.55	32.77
684.68	23.41
684.82	72.56
684.96	18.72
685.09	14.04
685.23	11.70
685.37	23.41
685.50	9.36
685.64	0.00
685.78	23.41
685.91	39.79
686.05	4.68
686.19	86.60
686.32	32.77
686.46	30.43
686.60	0.00
686.73	0.00
686.87	0.00
687.01	79.58
687.14	60.85
687.28	44.47
687.42	11.70
687.55	32.77
687.69	39.79
687.82	28.09
687.96	23.41
688.10	28.09
688.23	14.04
688.37	70.22
688.50	18.72
688.64	51.49
688.78	72.56
688.91	60.85
689.05	35.11
689.18	23.41
689.32	35.11
689.46	44.47
689.59	58.51
689.73	25.75
689.86	32.77
690.00	53.83
690.13	9.36
690.27	9.36
690.41	30.43
690.54	28.09
690.68	32.77
690.81	49.15
690.95	46.81
691.08	14.04
691.22	16.38
691.35	2.34
691.49	11.70
691.62	46.81
691.76	46.81
691.89	58.51
692.03	23.41
692.16	11.70
692.30	0.00
692.43	46.81
692.57	133.41
692.70	84.26
692.84	138.09
692.97	30.43
693.11	9.36
693.24	56.17
693.38	44.47
693.51	21.06
693.65	58.51
693.78	53.83
693.92	72.56
694.05	110.01
694.19	74.90
694.32	88.94
694.45	4.68
694.59	18.72
694.72	37.45
694.86	21.06
694.99	0.00
695.13	65.54
695.26	2.34
695.39	77.24
695.53	67.88
695.66	18.72
695.80	0.00
695.93	102.98
696.07	7.02
696.20	63.19
696.33	28.09
696.47	4.68
696.60	0.00
696.73	70.22
696.87	16.38
697.00	39.79
697.14	0.00
697.27	60.85
697.40	0.00
697.54	30.43
697.67	0.00
697.80	32.77
697.94	70.22
698.07	70.22
698.21	0.00
698.34	4.68
698.47	77.24
698.61	77.24
698.74	0.00
698.87	51.49
699.01	39.79
699.14	53.83
699.27	9.36
699.40	58.51
699.54	53.83
699.67	0.00
699.80	23.41
699.94	0.00
700.07	9.36
700.20	21.06
700.34	32.77
700.47	79.58
700.60	16.38
700.73	49.15
700.87	0.00
701.00	37.45
701.13	9.36
701.26	56.17
701.40	30.43
701.53	86.60
701.66	65.54
701.79	58.51
701.93	4.68
702.06	25.75
702.19	91.28
702.32	60.85
702.46	63.19
702.59	16.38
702.72	7.02
702.85	49.15
702.99	65.54
703.12	56.17
703.25	81.92
703.38	44.47
703.51	95.96
703.65	84.26
703.78	63.19
703.91	84.26
704.04	63.19
704.17	72.56
704.31	79.58
704.44	140.43
704.57	0.00
704.70	72.56
704.83	84.26
704.96	58.51
705.10	30.43
705.23	30.43
>>>>>End Processed Spectral Data<<<<<
