SpectraSuite Data File
++++++++++++++++++++++++++++++++++++
Date: Fri Oct 04 12:13:26 GMT-05:00 2013
User: price-jones
Dark Spectrum Present: No
Reference Spectrum Present: No
Number of Sampled Component Spectra: 1
Spectrometers: USB2+H05261
Integration Time (usec): 10000 (USB2+H05261)
Spectra Averaged: 1 (USB2+H05261)
Boxcar Smoothing: 0 (USB2+H05261)
Correct for Electrical Dark: No (USB2+H05261)
Strobe/Lamp Enabled: No (USB2+H05261)
Correct for Detector Non-linearity: No (USB2+H05261)
Correct for Stray Light: No (USB2+H05261)
Number of Pixels in Processed Spectrum: 2048
>>>>>Begin Processed Spectral Data<<<<<
365.73	42.13
365.92	42.13
366.12	42.13
366.32	0.00
366.52	0.00
366.72	0.00
366.91	0.00
367.11	0.00
367.31	0.00
367.51	0.00
367.70	0.00
367.90	0.00
368.10	0.00
368.30	0.00
368.49	0.00
368.69	0.00
368.89	0.00
369.09	0.00
369.28	0.00
369.48	0.00
369.68	0.00
369.87	0.00
370.07	0.00
370.27	0.00
370.47	0.00
370.66	28.09
370.86	0.00
371.06	0.00
371.25	0.00
371.45	0.00
371.65	95.96
371.84	18.72
372.04	0.00
372.24	23.41
372.44	2.34
372.63	0.00
372.83	16.38
373.03	35.11
373.22	14.04
373.42	7.02
373.62	49.15
373.81	42.13
374.01	0.00
374.21	7.02
374.40	25.75
374.60	25.75
374.79	131.07
374.99	49.15
375.19	49.15
375.38	51.49
375.58	0.00
375.78	25.75
375.97	23.41
376.17	74.90
376.37	16.38
376.56	53.83
376.76	51.49
376.95	49.15
377.15	44.47
377.35	86.60
377.54	23.41
377.74	2.34
377.93	21.06
378.13	0.00
378.33	0.00
378.52	9.36
378.72	65.54
378.91	74.90
379.11	4.68
379.31	28.09
379.50	77.24
379.70	0.00
379.89	21.06
380.09	7.02
380.28	65.54
380.48	60.85
380.68	56.17
380.87	32.77
381.07	0.00
381.26	74.90
381.46	7.02
381.65	23.41
381.85	49.15
382.04	42.13
382.24	21.06
382.43	79.58
382.63	0.00
382.83	0.00
383.02	9.36
383.22	70.22
383.41	37.45
383.61	0.00
383.80	14.04
384.00	0.00
384.19	32.77
384.39	49.15
384.58	18.72
384.78	11.70
384.97	4.68
385.17	0.00
385.36	51.49
385.56	0.00
385.75	100.64
385.95	60.85
386.14	30.43
386.34	0.00
386.53	0.00
386.72	30.43
386.92	91.28
387.11	32.77
387.31	30.43
387.50	0.00
387.70	0.00
387.89	0.00
388.09	14.04
388.28	44.47
388.48	79.58
388.67	18.72
388.86	25.75
389.06	25.75
389.25	0.00
389.45	0.00
389.64	28.09
389.84	0.00
390.03	0.00
390.22	0.00
390.42	49.15
390.61	39.79
390.81	0.00
391.00	0.00
391.19	60.85
391.39	0.00
391.58	0.00
391.78	56.17
391.97	11.70
392.16	79.58
392.36	14.04
392.55	32.77
392.75	11.70
392.94	0.00
393.13	0.00
393.33	65.54
393.52	0.00
393.71	0.00
393.91	16.38
394.10	53.83
394.29	28.09
394.49	58.51
394.68	46.81
394.88	56.17
395.07	35.11
395.26	0.00
395.46	0.00
395.65	9.36
395.84	63.19
396.04	67.88
396.23	56.17
396.42	0.00
396.62	70.22
396.81	81.92
397.00	58.51
397.19	39.79
397.39	0.00
397.58	30.43
397.77	18.72
397.97	44.47
398.16	0.00
398.35	70.22
398.55	0.00
398.74	51.49
398.93	0.00
399.12	56.17
399.32	4.68
399.51	53.83
399.70	42.13
399.90	14.04
400.09	32.77
400.28	0.00
400.47	30.43
400.67	14.04
400.86	21.06
401.05	32.77
401.24	37.45
401.44	9.36
401.63	30.43
401.82	86.60
402.01	32.77
402.21	0.00
402.40	0.00
402.59	9.36
402.78	7.02
402.97	28.09
403.17	56.17
403.36	49.15
403.55	46.81
403.74	18.72
403.93	0.00
404.13	30.43
404.32	18.72
404.51	0.00
404.70	7.02
404.89	0.00
405.09	58.51
405.28	21.06
405.47	77.24
405.66	86.60
405.85	32.77
406.05	23.41
406.24	0.00
406.43	60.85
406.62	14.04
406.81	42.13
407.00	9.36
407.20	49.15
407.39	0.00
407.58	0.00
407.77	35.11
407.96	49.15
408.15	100.64
408.34	25.75
408.54	0.00
408.73	9.36
408.92	2.34
409.11	11.70
409.30	0.00
409.49	0.00
409.68	28.09
409.87	35.11
410.07	32.77
410.26	65.54
410.45	0.00
410.64	32.77
410.83	0.00
411.02	35.11
411.21	65.54
411.40	114.69
411.59	67.88
411.78	0.00
411.98	0.00
412.17	18.72
412.36	42.13
412.55	2.34
412.74	81.92
412.93	0.00
413.12	98.30
413.31	37.45
413.50	25.75
413.69	25.75
413.88	81.92
414.07	0.00
414.26	23.41
414.45	56.17
414.64	51.49
414.83	65.54
415.02	65.54
415.22	14.04
415.41	44.47
415.60	16.38
415.79	95.96
415.98	0.00
416.17	4.68
416.36	0.00
416.55	67.88
416.74	70.22
416.93	60.85
417.12	42.13
417.31	60.85
417.50	0.00
417.69	0.00
417.88	86.60
418.07	11.70
418.26	70.22
418.45	0.00
418.64	0.00
418.83	0.00
419.02	7.02
419.21	67.88
419.39	4.68
419.58	51.49
419.77	11.70
419.96	35.11
420.15	0.00
420.34	32.77
420.53	32.77
420.72	9.36
420.91	67.88
421.10	0.00
421.29	0.00
421.48	0.00
421.67	91.28
421.86	0.00
422.05	0.00
422.24	58.51
422.43	0.00
422.61	9.36
422.80	42.13
422.99	0.00
423.18	51.49
423.37	25.75
423.56	86.60
423.75	18.72
423.94	14.04
424.13	18.72
424.32	2.34
424.50	0.00
424.69	56.17
424.88	42.13
425.07	117.03
425.26	37.45
425.45	56.17
425.64	23.41
425.83	0.00
426.01	70.22
426.20	70.22
426.39	4.68
426.58	74.90
426.77	102.98
426.96	39.79
427.15	0.00
427.33	37.45
427.52	0.00
427.71	0.00
427.90	65.54
428.09	39.79
428.28	23.41
428.46	0.00
428.65	44.47
428.84	0.00
429.03	18.72
429.22	91.28
429.40	14.04
429.59	16.38
429.78	14.04
429.97	4.68
430.16	58.51
430.34	0.00
430.53	95.96
430.72	79.58
430.91	112.35
431.10	2.34
431.28	16.38
431.47	0.00
431.66	79.58
431.85	25.75
432.03	0.00
432.22	9.36
432.41	58.51
432.60	9.36
432.79	32.77
432.97	30.43
433.16	0.00
433.35	88.94
433.54	23.41
433.72	51.49
433.91	51.49
434.10	42.13
434.28	58.51
434.47	0.00
434.66	16.38
434.85	30.43
435.03	79.58
435.22	49.15
435.41	28.09
435.59	9.36
435.78	32.77
435.97	0.00
436.16	0.00
436.34	35.11
436.53	0.00
436.72	4.68
436.90	49.15
437.09	0.00
437.28	23.41
437.46	0.00
437.65	39.79
437.84	9.36
438.02	28.09
438.21	58.51
438.40	18.72
438.58	0.00
438.77	56.17
438.96	0.00
439.14	18.72
439.33	21.06
439.52	30.43
439.70	56.17
439.89	56.17
440.08	30.43
440.26	32.77
440.45	30.43
440.63	39.79
440.82	0.00
441.01	0.00
441.19	0.00
441.38	28.09
441.57	0.00
441.75	0.00
441.94	72.56
442.12	0.00
442.31	65.54
442.50	51.49
442.68	28.09
442.87	42.13
443.05	0.00
443.24	88.94
443.43	0.00
443.61	0.00
443.80	21.06
443.98	4.68
444.17	53.83
444.35	4.68
444.54	16.38
444.73	4.68
444.91	37.45
445.10	30.43
445.28	23.41
445.47	0.00
445.65	39.79
445.84	0.00
446.02	35.11
446.21	74.90
446.39	11.70
446.58	25.75
446.77	30.43
446.95	18.72
447.14	84.26
447.32	91.28
447.51	23.41
447.69	42.13
447.88	63.19
448.06	32.77
448.25	11.70
448.43	0.00
448.62	0.00
448.80	23.41
448.99	53.83
449.17	72.56
449.36	0.00
449.54	0.00
449.73	30.43
449.91	49.15
450.10	0.00
450.28	21.06
450.46	39.79
450.65	0.00
450.83	93.62
451.02	14.04
451.20	72.56
451.39	0.00
451.57	11.70
451.76	21.06
451.94	70.22
452.13	44.47
452.31	58.51
452.49	18.72
452.68	53.83
452.86	67.88
453.05	81.92
453.23	18.72
453.42	16.38
453.60	0.00
453.78	7.02
453.97	44.47
454.15	42.13
454.34	93.62
454.52	98.30
454.70	23.41
454.89	0.00
455.07	28.09
455.26	98.30
455.44	56.17
455.62	2.34
455.81	44.47
455.99	35.11
456.17	63.19
456.36	0.00
456.54	18.72
456.73	9.36
456.91	0.00
457.09	39.79
457.28	56.17
457.46	0.00
457.64	0.00
457.83	39.79
458.01	4.68
458.19	14.04
458.38	35.11
458.56	23.41
458.74	0.00
458.93	65.54
459.11	46.81
459.29	53.83
459.48	14.04
459.66	23.41
459.84	0.00
460.03	0.00
460.21	51.49
460.39	42.13
460.57	0.00
460.76	65.54
460.94	44.47
461.12	0.00
461.31	18.72
461.49	23.41
461.67	0.00
461.85	0.00
462.04	0.00
462.22	77.24
462.40	51.49
462.59	42.13
462.77	0.00
462.95	0.00
463.13	11.70
463.32	44.47
463.50	32.77
463.68	91.28
463.86	49.15
464.05	11.70
464.23	16.38
464.41	42.13
464.59	0.00
464.78	0.00
464.96	72.56
465.14	39.79
465.32	56.17
465.50	39.79
465.69	35.11
465.87	14.04
466.05	23.41
466.23	0.00
466.41	21.06
466.60	28.09
466.78	2.34
466.96	0.00
467.14	37.45
467.32	37.45
467.51	44.47
467.69	51.49
467.87	7.02
468.05	28.09
468.23	42.13
468.41	28.09
468.60	23.41
468.78	42.13
468.96	14.04
469.14	25.75
469.32	0.00
469.50	0.00
469.69	42.13
469.87	0.00
470.05	72.56
470.23	0.00
470.41	21.06
470.59	44.47
470.77	67.88
470.95	53.83
471.14	95.96
471.32	21.06
471.50	124.05
471.68	14.04
471.86	37.45
472.04	35.11
472.22	0.00
472.40	9.36
472.58	35.11
472.77	4.68
472.95	30.43
473.13	88.94
473.31	25.75
473.49	21.06
473.67	0.00
473.85	0.00
474.03	0.00
474.21	9.36
474.39	16.38
474.57	67.88
474.75	53.83
474.93	49.15
475.12	65.54
475.30	63.19
475.48	0.00
475.66	39.79
475.84	7.02
476.02	0.00
476.20	0.00
476.38	65.54
476.56	35.11
476.74	11.70
476.92	4.68
477.10	18.72
477.28	16.38
477.46	44.47
477.64	81.92
477.82	23.41
478.00	11.70
478.18	30.43
478.36	35.11
478.54	9.36
478.72	16.38
478.90	14.04
479.08	84.26
479.26	39.79
479.44	23.41
479.62	32.77
479.80	39.79
479.98	53.83
480.16	42.13
480.34	30.43
480.52	16.38
480.70	51.49
480.88	7.02
481.06	95.96
481.24	11.70
481.41	58.51
481.59	110.01
481.77	28.09
481.95	56.17
482.13	81.92
482.31	53.83
482.49	23.41
482.67	63.19
482.85	77.24
483.03	60.85
483.21	35.11
483.39	7.02
483.57	46.81
483.74	100.64
483.92	0.00
484.10	32.77
484.28	0.00
484.46	72.56
484.64	74.90
484.82	25.75
485.00	46.81
485.18	0.00
485.35	42.13
485.53	56.17
485.71	56.17
485.89	35.11
486.07	63.19
486.25	67.88
486.43	56.17
486.61	112.35
486.78	86.60
486.96	46.81
487.14	77.24
487.32	7.02
487.50	7.02
487.68	9.36
487.85	2.34
488.03	0.00
488.21	72.56
488.39	0.00
488.57	63.19
488.75	4.68
488.92	72.56
489.10	28.09
489.28	42.13
489.46	49.15
489.64	32.77
489.81	0.00
489.99	37.45
490.17	44.47
490.35	32.77
490.53	23.41
490.70	21.06
490.88	105.32
491.06	58.51
491.24	2.34
491.41	63.19
491.59	56.17
491.77	9.36
491.95	21.06
492.13	25.75
492.30	42.13
492.48	60.85
492.66	102.98
492.84	30.43
493.01	25.75
493.19	44.47
493.37	51.49
493.54	49.15
493.72	84.26
493.90	0.00
494.08	11.70
494.25	7.02
494.43	72.56
494.61	28.09
494.79	49.15
494.96	11.70
495.14	0.00
495.32	49.15
495.49	0.00
495.67	58.51
495.85	56.17
496.02	25.75
496.20	84.26
496.38	46.81
496.55	51.49
496.73	35.11
496.91	39.79
497.09	32.77
497.26	0.00
497.44	14.04
497.62	65.54
497.79	49.15
497.97	37.45
498.14	74.90
498.32	44.47
498.50	77.24
498.67	23.41
498.85	28.09
499.03	77.24
499.20	0.00
499.38	140.43
499.56	56.17
499.73	23.41
499.91	46.81
500.08	46.81
500.26	0.00
500.44	30.43
500.61	95.96
500.79	25.75
500.97	67.88
501.14	58.51
501.32	58.51
501.49	2.34
501.67	86.60
501.84	53.83
502.02	79.58
502.20	0.00
502.37	32.77
502.55	44.47
502.72	60.85
502.90	37.45
503.07	51.49
503.25	63.19
503.43	93.62
503.60	4.68
503.78	42.13
503.95	11.70
504.13	30.43
504.30	74.90
504.48	0.00
504.65	11.70
504.83	74.90
505.01	51.49
505.18	53.83
505.36	0.00
505.53	35.11
505.71	7.02
505.88	88.94
506.06	18.72
506.23	72.56
506.41	35.11
506.58	35.11
506.76	77.24
506.93	49.15
507.11	18.72
507.28	0.00
507.46	4.68
507.63	53.83
507.81	37.45
507.98	46.81
508.16	9.36
508.33	49.15
508.50	7.02
508.68	23.41
508.85	63.19
509.03	7.02
509.20	77.24
509.38	86.60
509.55	0.00
509.73	4.68
509.90	23.41
510.08	42.13
510.25	0.00
510.42	72.56
510.60	46.81
510.77	9.36
510.95	7.02
511.12	84.26
511.30	70.22
511.47	39.79
511.64	28.09
511.82	4.68
511.99	81.92
512.17	124.05
512.34	49.15
512.51	81.92
512.69	88.94
512.86	56.17
513.04	25.75
513.21	0.00
513.38	56.17
513.56	18.72
513.73	35.11
513.90	14.04
514.08	0.00
514.25	32.77
514.43	56.17
514.60	2.34
514.77	49.15
514.95	131.07
515.12	42.13
515.29	37.45
515.47	100.64
515.64	51.49
515.81	18.72
515.99	88.94
516.16	100.64
516.33	63.19
516.51	46.81
516.68	67.88
516.85	7.02
517.03	39.79
517.20	56.17
517.37	53.83
517.54	74.90
517.72	16.38
517.89	0.00
518.06	11.70
518.24	107.66
518.41	0.00
518.58	21.06
518.75	117.03
518.93	128.73
519.10	0.00
519.27	7.02
519.45	161.50
519.62	100.64
519.79	60.85
519.96	93.62
520.14	4.68
520.31	88.94
520.48	28.09
520.65	9.36
520.83	0.00
521.00	21.06
521.17	60.85
521.34	0.00
521.52	51.49
521.69	0.00
521.86	28.09
522.03	0.00
522.20	39.79
522.38	46.81
522.55	0.00
522.72	16.38
522.89	65.54
523.07	58.51
523.24	58.51
523.41	53.83
523.58	95.96
523.75	32.77
523.92	35.11
524.10	0.00
524.27	105.32
524.44	77.24
524.61	86.60
524.78	70.22
524.96	16.38
525.13	79.58
525.30	39.79
525.47	42.13
525.64	16.38
525.81	58.51
525.98	49.15
526.16	91.28
526.33	46.81
526.50	0.00
526.67	39.79
526.84	0.00
527.01	7.02
527.18	21.06
527.36	7.02
527.53	21.06
527.70	126.39
527.87	67.88
528.04	0.00
528.21	39.79
528.38	117.03
528.55	72.56
528.72	44.47
528.89	65.54
529.07	95.96
529.24	11.70
529.41	72.56
529.58	35.11
529.75	53.83
529.92	25.75
530.09	42.13
530.26	21.06
530.43	30.43
530.60	51.49
530.77	72.56
530.94	39.79
531.11	88.94
531.28	0.00
531.46	65.54
531.63	16.38
531.80	0.00
531.97	9.36
532.14	30.43
532.31	16.38
532.48	84.26
532.65	0.00
532.82	79.58
532.99	0.00
533.16	91.28
533.33	51.49
533.50	16.38
533.67	23.41
533.84	42.13
534.01	9.36
534.18	53.83
534.35	0.00
534.52	35.11
534.69	0.00
534.86	37.45
535.03	7.02
535.20	30.43
535.37	63.19
535.54	42.13
535.71	79.58
535.88	77.24
536.05	81.92
536.22	14.04
536.38	46.81
536.55	16.38
536.72	95.96
536.89	98.30
537.06	58.51
537.23	53.83
537.40	0.00
537.57	7.02
537.74	95.96
537.91	35.11
538.08	21.06
538.25	58.51
538.42	35.11
538.59	44.47
538.75	51.49
538.92	60.85
539.09	35.11
539.26	21.06
539.43	105.32
539.60	112.35
539.77	98.30
539.94	133.41
540.11	70.22
540.28	72.56
540.44	51.49
540.61	168.52
540.78	112.35
540.95	35.11
541.12	39.79
541.29	23.41
541.46	11.70
541.62	28.09
541.79	74.90
541.96	0.00
542.13	21.06
542.30	16.38
542.47	4.68
542.63	21.06
542.80	102.98
542.97	0.00
543.14	0.00
543.31	30.43
543.48	32.77
543.64	7.02
543.81	49.15
543.98	42.13
544.15	35.11
544.32	46.81
544.48	49.15
544.65	18.72
544.82	70.22
544.99	70.22
545.16	42.13
545.32	28.09
545.49	21.06
545.66	60.85
545.83	63.19
546.00	35.11
546.16	25.75
546.33	51.49
546.50	0.00
546.67	0.00
546.83	16.38
547.00	49.15
547.17	14.04
547.34	4.68
547.50	70.22
547.67	58.51
547.84	0.00
548.00	105.32
548.17	105.32
548.34	18.72
548.51	51.49
548.67	51.49
548.84	0.00
549.01	46.81
549.18	42.13
549.34	65.54
549.51	60.85
549.68	2.34
549.84	65.54
550.01	25.75
550.18	2.34
550.34	0.00
550.51	67.88
550.68	65.54
550.84	0.00
551.01	53.83
551.18	98.30
551.34	53.83
551.51	25.75
551.68	42.13
551.84	23.41
552.01	49.15
552.18	51.49
552.34	28.09
552.51	49.15
552.68	0.00
552.84	95.96
553.01	42.13
553.18	39.79
553.34	91.28
553.51	72.56
553.67	100.64
553.84	51.49
554.01	7.02
554.17	0.00
554.34	21.06
554.51	21.06
554.67	58.51
554.84	53.83
555.00	2.34
555.17	51.49
555.33	46.81
555.50	53.83
555.67	35.11
555.83	0.00
556.00	2.34
556.16	79.58
556.33	25.75
556.50	39.79
556.66	0.00
556.83	0.00
556.99	65.54
557.16	0.00
557.32	79.58
557.49	4.68
557.65	28.09
557.82	7.02
557.98	0.00
558.15	67.88
558.32	11.70
558.48	86.60
558.65	0.00
558.81	35.11
558.98	23.41
559.14	46.81
559.31	0.00
559.47	30.43
559.64	2.34
559.80	23.41
559.97	11.70
560.13	60.85
560.30	0.00
560.46	51.49
560.63	91.28
560.79	32.77
560.96	70.22
561.12	84.26
561.29	58.51
561.45	65.54
561.61	126.39
561.78	35.11
561.94	70.22
562.11	53.83
562.27	67.88
562.44	39.79
562.60	21.06
562.77	65.54
562.93	114.69
563.10	63.19
563.26	49.15
563.42	121.71
563.59	60.85
563.75	65.54
563.92	16.38
564.08	0.00
564.24	44.47
564.41	9.36
564.57	14.04
564.74	11.70
564.90	42.13
565.07	4.68
565.23	18.72
565.39	44.47
565.56	72.56
565.72	49.15
565.88	4.68
566.05	53.83
566.21	86.60
566.38	44.47
566.54	112.35
566.70	18.72
566.87	35.11
567.03	32.77
567.19	42.13
567.36	0.00
567.52	39.79
567.68	86.60
567.85	112.35
568.01	9.36
568.17	0.00
568.34	88.94
568.50	28.09
568.66	0.00
568.83	46.81
568.99	58.51
569.15	44.47
569.32	9.36
569.48	28.09
569.64	72.56
569.81	35.11
569.97	105.32
570.13	28.09
570.30	70.22
570.46	149.79
570.62	53.83
570.78	9.36
570.95	81.92
571.11	18.72
571.27	30.43
571.43	25.75
571.60	46.81
571.76	0.00
571.92	44.47
572.09	32.77
572.25	28.09
572.41	42.13
572.57	0.00
572.74	21.06
572.90	46.81
573.06	84.26
573.22	11.70
573.38	37.45
573.55	0.00
573.71	25.75
573.87	77.24
574.03	98.30
574.20	16.38
574.36	30.43
574.52	9.36
574.68	49.15
574.84	42.13
575.01	63.19
575.17	110.01
575.33	11.70
575.49	53.83
575.65	67.88
575.82	23.41
575.98	18.72
576.14	21.06
576.30	105.32
576.46	105.32
576.62	0.00
576.79	63.19
576.95	37.45
577.11	98.30
577.27	2.34
577.43	70.22
577.59	56.17
577.75	53.83
577.92	25.75
578.08	95.96
578.24	44.47
578.40	70.22
578.56	81.92
578.72	11.70
578.88	81.92
579.04	32.77
579.21	67.88
579.37	44.47
579.53	51.49
579.69	42.13
579.85	30.43
580.01	9.36
580.17	91.28
580.33	32.77
580.49	23.41
580.65	53.83
580.82	58.51
580.98	14.04
581.14	21.06
581.30	72.56
581.46	67.88
581.62	51.49
581.78	11.70
581.94	91.28
582.10	70.22
582.26	95.96
582.42	79.58
582.58	63.19
582.74	86.60
582.90	28.09
583.06	14.04
583.22	18.72
583.38	107.66
583.54	51.49
583.70	37.45
583.86	44.47
584.02	102.98
584.18	11.70
584.34	100.64
584.50	168.52
584.66	1097.71
584.82	2541.82
584.98	3328.24
585.14	2916.31
585.30	1959.03
585.46	1151.54
585.62	788.76
585.78	341.72
585.94	189.58
586.10	84.26
586.26	100.64
586.42	91.28
586.58	35.11
586.74	0.00
586.90	107.66
587.06	16.38
587.22	0.00
587.38	56.17
587.54	121.71
587.70	184.90
587.86	304.27
588.02	325.33
588.18	243.42
588.34	135.75
588.49	117.03
588.65	117.03
588.81	37.45
588.97	0.00
589.13	0.00
589.29	44.47
589.45	30.43
589.61	16.38
589.77	51.49
589.93	14.04
590.08	100.64
590.24	35.11
590.40	93.62
590.56	18.72
590.72	46.81
590.88	58.51
591.04	42.13
591.20	9.36
591.35	84.26
591.51	37.45
591.67	58.51
591.83	98.30
591.99	0.00
592.15	51.49
592.31	0.00
592.46	65.54
592.62	4.68
592.78	37.45
592.94	7.02
593.10	46.81
593.26	49.15
593.41	56.17
593.57	42.13
593.73	56.17
593.89	142.77
594.05	257.46
594.20	500.87
594.36	486.83
594.52	337.04
594.68	135.75
594.84	117.03
594.99	133.41
595.15	95.96
595.31	21.06
595.47	35.11
595.62	107.66
595.78	95.96
595.94	102.98
596.10	49.15
596.25	23.41
596.41	39.79
596.57	65.54
596.73	16.38
596.88	21.06
597.04	107.66
597.20	142.77
597.36	149.79
597.51	81.92
597.67	72.56
597.83	56.17
597.99	14.04
598.14	16.38
598.30	37.45
598.46	0.00
598.61	30.43
598.77	46.81
598.93	0.00
599.09	2.34
599.24	32.77
599.40	105.32
599.56	56.17
599.71	44.47
599.87	39.79
600.03	35.11
600.18	21.06
600.34	74.90
600.50	0.00
600.65	0.00
600.81	74.90
600.97	37.45
601.12	35.11
601.28	100.64
601.44	32.77
601.59	23.41
601.75	14.04
601.91	98.30
602.06	84.26
602.22	102.98
602.37	72.56
602.53	110.01
602.69	220.01
602.84	121.71
603.00	177.88
603.16	58.51
603.31	56.17
603.47	112.35
603.62	23.41
603.78	37.45
603.94	4.68
604.09	65.54
604.25	100.64
604.40	25.75
604.56	133.41
604.71	67.88
604.87	0.00
605.03	39.79
605.18	88.94
605.34	63.19
605.49	60.85
605.65	105.32
605.80	105.32
605.96	44.47
606.12	39.79
606.27	100.64
606.43	88.94
606.58	23.41
606.74	100.64
606.89	184.90
607.05	273.84
607.20	334.70
607.36	344.06
607.51	189.58
607.67	154.48
607.82	119.37
607.98	79.58
608.13	0.00
608.29	56.17
608.44	58.51
608.60	84.26
608.75	112.35
608.91	74.90
609.06	187.24
609.22	538.32
609.37	610.88
609.53	484.49
609.68	465.77
609.84	269.16
609.99	208.31
610.15	77.24
610.30	65.54
610.46	95.96
610.61	7.02
610.76	30.43
610.92	2.34
611.07	14.04
611.23	79.58
611.38	25.75
611.54	46.81
611.69	58.51
611.84	67.88
612.00	0.00
612.15	0.00
612.31	95.96
612.46	67.88
612.62	30.43
612.77	65.54
612.92	91.28
613.08	58.51
613.23	91.28
613.39	56.17
613.54	49.15
613.69	234.05
613.85	681.10
614.00	1001.75
614.15	882.38
614.31	725.57
614.46	510.24
614.62	369.80
614.77	191.92
614.92	77.24
615.08	0.00
615.23	72.56
615.38	105.32
615.54	25.75
615.69	44.47
615.84	191.92
616.00	271.50
616.15	339.38
616.30	276.18
616.46	159.16
616.61	149.79
616.76	110.01
616.92	16.38
617.07	18.72
617.22	18.72
617.37	14.04
617.53	23.41
617.68	0.00
617.83	49.15
617.99	51.49
618.14	53.83
618.29	88.94
618.45	25.75
618.60	21.06
618.75	0.00
618.90	21.06
619.06	0.00
619.21	39.79
619.36	140.43
619.51	0.00
619.67	0.00
619.82	11.70
619.97	46.81
620.12	60.85
620.28	25.75
620.43	67.88
620.58	21.06
620.73	102.98
620.89	72.56
621.04	72.56
621.19	53.83
621.34	187.24
621.49	145.11
621.65	168.52
621.80	170.86
621.95	114.69
622.10	65.54
622.25	93.62
622.41	16.38
622.56	30.43
622.71	11.70
622.86	9.36
623.01	107.66
623.16	65.54
623.32	81.92
623.47	37.45
623.62	30.43
623.77	58.51
623.92	32.77
624.07	63.19
624.23	0.00
624.38	58.51
624.53	81.92
624.68	28.09
624.83	51.49
624.98	100.64
625.13	39.79
625.29	30.43
625.44	18.72
625.59	0.00
625.74	39.79
625.89	35.11
626.04	231.71
626.19	351.08
626.34	477.47
626.49	531.30
626.65	372.15
626.80	259.80
626.95	217.67
627.10	124.05
627.25	88.94
627.40	67.88
627.55	95.96
627.70	2.34
627.85	21.06
628.00	46.81
628.15	32.77
628.30	9.36
628.45	72.56
628.60	35.11
628.76	39.79
628.91	42.13
629.06	21.06
629.21	53.83
629.36	28.09
629.51	16.38
629.66	25.75
629.81	65.54
629.96	119.37
630.11	84.26
630.26	191.92
630.41	133.41
630.56	65.54
630.71	81.92
630.86	98.30
631.01	133.41
631.16	140.43
631.31	95.96
631.46	49.15
631.61	14.04
631.76	58.51
631.91	121.71
632.06	60.85
632.21	16.38
632.36	9.36
632.51	51.49
632.66	0.00
632.81	58.51
632.96	259.80
633.10	355.76
633.25	353.42
633.40	318.31
633.55	252.78
633.70	170.86
633.85	81.92
634.00	102.98
634.15	0.00
634.30	30.43
634.45	53.83
634.60	49.15
634.75	0.00
634.90	72.56
635.05	56.17
635.19	46.81
635.34	32.77
635.49	32.77
635.64	138.09
635.79	18.72
635.94	23.41
636.09	53.83
636.24	0.00
636.39	25.75
636.53	0.00
636.68	0.00
636.83	72.56
636.98	63.19
637.13	14.04
637.28	4.68
637.43	21.06
637.57	16.38
637.72	198.95
637.87	477.47
638.02	610.88
638.17	760.67
638.32	559.39
638.46	402.57
638.61	248.10
638.76	161.50
638.91	107.66
639.06	95.96
639.20	58.51
639.35	18.72
639.50	84.26
639.65	227.03
639.80	755.99
639.94	968.98
640.09	1001.75
640.24	828.55
640.39	552.37
640.54	322.99
640.68	248.10
640.83	196.60
640.98	51.49
641.13	77.24
641.27	30.43
641.42	93.62
641.57	16.38
641.72	0.00
641.86	4.68
642.01	32.77
642.16	49.15
642.31	44.47
642.45	49.15
642.60	65.54
642.75	0.00
642.90	102.98
643.04	51.49
643.19	42.13
643.34	0.00
643.48	37.45
643.63	14.04
643.78	23.41
643.93	25.75
644.07	105.32
644.22	35.11
644.37	0.00
644.51	37.45
644.66	67.88
644.81	0.00
644.95	0.00
645.10	21.06
645.25	0.00
645.39	72.56
645.54	0.00
645.69	84.26
645.83	0.00
645.98	49.15
646.13	0.00
646.27	18.72
646.42	49.15
646.57	16.38
646.71	18.72
646.86	0.00
647.00	67.88
647.15	100.64
647.30	65.54
647.44	42.13
647.59	18.72
647.74	30.43
647.88	42.13
648.03	42.13
648.17	0.00
648.32	30.43
648.47	25.75
648.61	0.00
648.76	18.72
648.90	30.43
649.05	0.00
649.20	77.24
649.34	7.02
649.49	4.68
649.63	105.32
649.78	74.90
649.92	67.88
650.07	105.32
650.21	318.31
650.36	475.13
650.51	507.90
650.65	484.49
650.80	297.25
650.94	229.37
651.09	152.13
651.23	114.69
651.38	23.41
651.52	39.79
651.67	30.43
651.81	0.00
651.96	102.98
652.10	9.36
652.25	58.51
652.39	0.00
652.54	14.04
652.68	84.26
652.83	140.43
652.97	166.18
653.12	252.78
653.26	168.52
653.41	88.94
653.55	126.39
653.70	56.17
653.84	0.00
653.99	53.83
654.13	0.00
654.27	0.00
654.42	56.17
654.56	30.43
654.71	67.88
654.85	2.34
655.00	77.24
655.14	16.38
655.29	0.00
655.43	28.09
655.57	46.81
655.72	53.83
655.86	56.17
656.01	35.11
656.15	37.45
656.30	63.19
656.44	0.00
656.58	30.43
656.73	0.00
656.87	58.51
657.01	23.41
657.16	25.75
657.30	28.09
657.45	56.17
657.59	32.77
657.73	23.41
657.88	16.38
658.02	4.68
658.16	39.79
658.31	63.19
658.45	0.00
658.60	25.75
658.74	60.85
658.88	35.11
659.03	23.41
659.17	84.26
659.31	51.49
659.46	142.77
659.60	271.50
659.74	257.46
659.89	224.69
660.03	276.18
660.17	128.73
660.32	93.62
660.46	117.03
660.60	2.34
660.74	67.88
660.89	74.90
661.03	0.00
661.17	14.04
661.32	0.00
661.46	11.70
661.60	42.13
661.74	42.13
661.89	14.04
662.03	63.19
662.17	65.54
662.31	14.04
662.46	67.88
662.60	21.06
662.74	25.75
662.88	32.77
663.03	21.06
663.17	11.70
663.31	0.00
663.45	39.79
663.60	0.00
663.74	16.38
663.88	63.19
664.02	65.54
664.17	18.72
664.31	23.41
664.45	28.09
664.59	53.83
664.73	74.90
664.88	0.00
665.02	49.15
665.16	2.34
665.30	39.79
665.44	98.30
665.59	63.19
665.73	0.00
665.87	70.22
666.01	39.79
666.15	0.00
666.29	42.13
666.44	25.75
666.58	0.00
666.72	74.90
666.86	63.19
667.00	42.13
667.14	0.00
667.28	91.28
667.43	215.33
667.57	379.17
667.71	442.36
667.85	355.76
667.99	344.06
668.13	198.95
668.27	156.82
668.41	32.77
668.56	42.13
668.70	91.28
668.84	100.64
668.98	14.04
669.12	84.26
669.26	98.30
669.40	42.13
669.54	21.06
669.68	56.17
669.82	0.00
669.96	37.45
670.10	14.04
670.25	9.36
670.39	32.77
670.53	74.90
670.67	14.04
670.81	9.36
670.95	35.11
671.09	46.81
671.23	121.71
671.37	245.76
671.51	360.44
671.65	306.61
671.79	301.93
671.93	187.24
672.07	152.13
672.21	70.22
672.35	84.26
672.49	21.06
672.63	0.00
672.77	56.17
672.91	58.51
673.05	86.60
673.19	53.83
673.33	28.09
673.47	0.00
673.61	18.72
673.75	0.00
673.89	0.00
674.03	44.47
674.17	7.02
674.31	63.19
674.45	0.00
674.59	58.51
674.73	9.36
674.87	79.58
675.01	0.00
675.15	32.77
675.29	11.70
675.43	84.26
675.56	0.00
675.70	9.36
675.84	53.83
675.98	9.36
676.12	0.00
676.26	14.04
676.40	21.06
676.54	65.54
676.68	14.04
676.82	42.13
676.96	44.47
677.10	9.36
677.23	9.36
677.37	70.22
677.51	63.19
677.65	72.56
677.79	9.36
677.93	18.72
678.07	60.85
678.21	0.00
678.34	0.00
678.48	100.64
678.62	18.72
678.76	7.02
678.90	30.43
679.04	79.58
679.18	70.22
679.31	63.19
679.45	7.02
679.59	63.19
679.73	0.00
679.87	0.00
680.00	46.81
680.14	23.41
680.28	100.64
680.42	42.13
680.56	32.77
680.70	95.96
680.83	14.04
680.97	14.04
681.11	11.70
681.25	28.09
681.39	100.64
681.52	51.49
681.66	74.90
681.80	0.00
681.94	65.54
682.07	9.36
682.21	4.68
682.35	16.38
682.49	110.01
682.62	0.00
682.76	11.70
682.90	0.00
683.04	98.30
683.17	105.32
683.31	9.36
683.45	0.00
683.59	56.17
683.72	16.38
683.86	23.41
684.00	16.38
684.13	25.75
684.27	0.00
684.41	30.43
684.55	67.88
684.68	18.72
684.82	53.83
684.96	100.64
685.09	72.56
685.23	37.45
685.37	51.49
685.50	51.49
685.64	18.72
685.78	35.11
685.91	39.79
686.05	58.51
686.19	30.43
686.32	42.13
686.46	42.13
686.60	37.45
686.73	65.54
686.87	9.36
687.01	18.72
687.14	84.26
687.28	0.00
687.42	53.83
687.55	14.04
687.69	18.72
687.82	39.79
687.96	25.75
688.10	37.45
688.23	72.56
688.37	100.64
688.50	30.43
688.64	16.38
688.78	63.19
688.91	23.41
689.05	28.09
689.18	16.38
689.32	25.75
689.46	79.58
689.59	86.60
689.73	79.58
689.86	7.02
690.00	39.79
690.13	30.43
690.27	28.09
690.41	0.00
690.54	124.05
690.68	0.00
690.81	32.77
690.95	11.70
691.08	0.00
691.22	30.43
691.35	79.58
691.49	79.58
691.62	39.79
691.76	65.54
691.89	28.09
692.03	53.83
692.16	0.00
692.30	0.00
692.43	56.17
692.57	58.51
692.70	170.86
692.84	278.52
692.97	358.10
693.11	149.79
693.24	105.32
693.38	173.20
693.51	0.00
693.65	105.32
693.78	88.94
693.92	58.51
694.05	16.38
694.19	56.17
694.32	74.90
694.45	42.13
694.59	0.00
694.72	0.00
694.86	23.41
694.99	11.70
695.13	0.00
695.26	0.00
695.39	9.36
695.53	58.51
695.66	77.24
695.80	35.11
695.93	39.79
696.07	42.13
696.20	11.70
696.33	11.70
696.47	53.83
696.60	100.64
696.73	84.26
696.87	72.56
697.00	70.22
697.14	46.81
697.27	0.00
697.40	37.45
697.54	42.13
697.67	16.38
697.80	63.19
697.94	0.00
698.07	35.11
698.21	14.04
698.34	42.13
698.47	88.94
698.61	37.45
698.74	42.13
698.87	0.00
699.01	53.83
699.14	53.83
699.27	67.88
699.40	79.58
699.54	28.09
699.67	84.26
699.80	65.54
699.94	30.43
700.07	35.11
700.20	18.72
700.34	0.00
700.47	79.58
700.60	0.00
700.73	0.00
700.87	44.47
701.00	4.68
701.13	30.43
701.26	84.26
701.40	11.70
701.53	0.00
701.66	0.00
701.79	23.41
701.93	51.49
702.06	42.13
702.19	74.90
702.32	65.54
702.46	86.60
702.59	65.54
702.72	65.54
702.85	220.01
702.99	325.33
703.12	451.72
703.25	454.06
703.38	386.19
703.51	255.12
703.65	217.67
703.78	187.24
703.91	128.73
704.04	117.03
704.17	28.09
704.31	42.13
704.44	32.77
704.57	63.19
704.70	77.24
704.83	0.00
704.96	28.09
705.10	0.00
705.23	21.06
>>>>>End Processed Spectral Data<<<<<
