SpectraSuite Data File
++++++++++++++++++++++++++++++++++++
Date: Fri Oct 04 12:13:37 GMT-05:00 2013
User: price-jones
Dark Spectrum Present: No
Reference Spectrum Present: No
Number of Sampled Component Spectra: 1
Spectrometers: USB2+H05261
Integration Time (usec): 10000 (USB2+H05261)
Spectra Averaged: 1 (USB2+H05261)
Boxcar Smoothing: 0 (USB2+H05261)
Correct for Electrical Dark: No (USB2+H05261)
Strobe/Lamp Enabled: No (USB2+H05261)
Correct for Detector Non-linearity: No (USB2+H05261)
Correct for Stray Light: No (USB2+H05261)
Number of Pixels in Processed Spectrum: 2048
>>>>>Begin Processed Spectral Data<<<<<
365.73	23.41
365.92	23.41
366.12	23.41
366.32	0.00
366.52	0.00
366.72	0.00
366.91	0.00
367.11	0.00
367.31	0.00
367.51	0.00
367.70	0.00
367.90	0.00
368.10	0.00
368.30	0.00
368.49	0.00
368.69	0.00
368.89	0.00
369.09	0.00
369.28	0.00
369.48	0.00
369.68	0.00
369.87	0.00
370.07	0.00
370.27	0.00
370.47	0.00
370.66	0.00
370.86	0.00
371.06	0.00
371.25	0.00
371.45	0.00
371.65	0.00
371.84	0.00
372.04	0.00
372.24	0.00
372.44	9.36
372.63	7.02
372.83	0.00
373.03	51.49
373.22	51.49
373.42	18.72
373.62	18.72
373.81	58.51
374.01	112.35
374.21	39.79
374.40	49.15
374.60	21.06
374.79	23.41
374.99	49.15
375.19	67.88
375.38	100.64
375.58	49.15
375.78	25.75
375.97	25.75
376.17	56.17
376.37	67.88
376.56	32.77
376.76	42.13
376.95	25.75
377.15	0.00
377.35	0.00
377.54	16.38
377.74	56.17
377.93	51.49
378.13	88.94
378.33	0.00
378.52	21.06
378.72	0.00
378.91	28.09
379.11	4.68
379.31	11.70
379.50	9.36
379.70	2.34
379.89	46.81
380.09	0.00
380.28	4.68
380.48	16.38
380.68	0.00
380.87	0.00
381.07	0.00
381.26	4.68
381.46	21.06
381.65	0.00
381.85	32.77
382.04	81.92
382.24	49.15
382.43	9.36
382.63	30.43
382.83	0.00
383.02	4.68
383.22	46.81
383.41	0.00
383.61	0.00
383.80	30.43
384.00	51.49
384.19	4.68
384.39	39.79
384.58	0.00
384.78	65.54
384.97	46.81
385.17	0.00
385.36	23.41
385.56	133.41
385.75	37.45
385.95	0.00
386.14	67.88
386.34	0.00
386.53	4.68
386.72	0.00
386.92	58.51
387.11	42.13
387.31	0.00
387.50	0.00
387.70	9.36
387.89	16.38
388.09	0.00
388.28	0.00
388.48	0.00
388.67	0.00
388.86	0.00
389.06	95.96
389.25	2.34
389.45	0.00
389.64	44.47
389.84	42.13
390.03	0.00
390.22	4.68
390.42	39.79
390.61	0.00
390.81	0.00
391.00	65.54
391.19	23.41
391.39	37.45
391.58	0.00
391.78	14.04
391.97	58.51
392.16	93.62
392.36	18.72
392.55	0.00
392.75	95.96
392.94	21.06
393.13	18.72
393.33	37.45
393.52	53.83
393.71	2.34
393.91	30.43
394.10	0.00
394.29	16.38
394.49	53.83
394.68	0.00
394.88	35.11
395.07	0.00
395.26	53.83
395.46	37.45
395.65	37.45
395.84	107.66
396.04	74.90
396.23	37.45
396.42	58.51
396.62	0.00
396.81	18.72
397.00	0.00
397.19	0.00
397.39	37.45
397.58	145.11
397.77	28.09
397.97	18.72
398.16	98.30
398.35	39.79
398.55	65.54
398.74	63.19
398.93	0.00
399.12	0.00
399.32	14.04
399.51	74.90
399.70	11.70
399.90	16.38
400.09	0.00
400.28	4.68
400.47	51.49
400.67	35.11
400.86	28.09
401.05	0.00
401.24	42.13
401.44	51.49
401.63	37.45
401.82	100.64
402.01	0.00
402.21	72.56
402.40	28.09
402.59	0.00
402.78	0.00
402.97	49.15
403.17	32.77
403.36	16.38
403.55	25.75
403.74	35.11
403.93	4.68
404.13	0.00
404.32	0.00
404.51	39.79
404.70	0.00
404.89	0.00
405.09	39.79
405.28	7.02
405.47	49.15
405.66	0.00
405.85	46.81
406.05	35.11
406.24	44.47
406.43	105.32
406.62	14.04
406.81	37.45
407.00	30.43
407.20	16.38
407.39	7.02
407.58	86.60
407.77	14.04
407.96	60.85
408.15	9.36
408.34	35.11
408.54	0.00
408.73	25.75
408.92	25.75
409.11	9.36
409.30	0.00
409.49	58.51
409.68	16.38
409.87	86.60
410.07	0.00
410.26	88.94
410.45	0.00
410.64	7.02
410.83	25.75
411.02	58.51
411.21	86.60
411.40	42.13
411.59	0.00
411.78	86.60
411.98	67.88
412.17	30.43
412.36	110.01
412.55	23.41
412.74	32.77
412.93	21.06
413.12	14.04
413.31	4.68
413.50	72.56
413.69	16.38
413.88	84.26
414.07	32.77
414.26	35.11
414.45	49.15
414.64	0.00
414.83	0.00
415.02	60.85
415.22	25.75
415.41	67.88
415.60	37.45
415.79	32.77
415.98	56.17
416.17	30.43
416.36	44.47
416.55	88.94
416.74	4.68
416.93	35.11
417.12	25.75
417.31	25.75
417.50	98.30
417.69	44.47
417.88	23.41
418.07	25.75
418.26	44.47
418.45	9.36
418.64	44.47
418.83	72.56
419.02	9.36
419.21	0.00
419.39	2.34
419.58	7.02
419.77	74.90
419.96	93.62
420.15	0.00
420.34	18.72
420.53	77.24
420.72	2.34
420.91	56.17
421.10	28.09
421.29	46.81
421.48	72.56
421.67	74.90
421.86	39.79
422.05	77.24
422.24	0.00
422.43	7.02
422.61	2.34
422.80	28.09
422.99	210.65
423.18	23.41
423.37	44.47
423.56	11.70
423.75	60.85
423.94	28.09
424.13	39.79
424.32	37.45
424.50	39.79
424.69	44.47
424.88	32.77
425.07	16.38
425.26	0.00
425.45	9.36
425.64	35.11
425.83	11.70
426.01	53.83
426.20	56.17
426.39	37.45
426.58	0.00
426.77	93.62
426.96	56.17
427.15	32.77
427.33	74.90
427.52	28.09
427.71	28.09
427.90	39.79
428.09	7.02
428.28	0.00
428.46	0.00
428.65	18.72
428.84	16.38
429.03	86.60
429.22	42.13
429.40	124.05
429.59	95.96
429.78	4.68
429.97	2.34
430.16	23.41
430.34	18.72
430.53	25.75
430.72	58.51
430.91	9.36
431.10	119.37
431.28	44.47
431.47	86.60
431.66	30.43
431.85	91.28
432.03	37.45
432.22	23.41
432.41	81.92
432.60	131.07
432.79	117.03
432.97	44.47
433.16	72.56
433.35	23.41
433.54	28.09
433.72	65.54
433.91	91.28
434.10	30.43
434.28	23.41
434.47	53.83
434.66	72.56
434.85	60.85
435.03	46.81
435.22	81.92
435.41	56.17
435.59	39.79
435.78	42.13
435.97	84.26
436.16	60.85
436.34	28.09
436.53	70.22
436.72	86.60
436.90	81.92
437.09	30.43
437.28	58.51
437.46	63.19
437.65	91.28
437.84	28.09
438.02	16.38
438.21	98.30
438.40	25.75
438.58	16.38
438.77	18.72
438.96	2.34
439.14	46.81
439.33	0.00
439.52	0.00
439.70	35.11
439.89	70.22
440.08	35.11
440.26	58.51
440.45	11.70
440.63	65.54
440.82	67.88
441.01	58.51
441.19	0.00
441.38	102.98
441.57	72.56
441.75	23.41
441.94	159.16
442.12	0.00
442.31	53.83
442.50	88.94
442.68	0.00
442.87	44.47
443.05	72.56
443.24	154.48
443.43	37.45
443.61	46.81
443.80	16.38
443.98	79.58
444.17	53.83
444.35	2.34
444.54	0.00
444.73	2.34
444.91	112.35
445.10	25.75
445.28	95.96
445.47	119.37
445.65	4.68
445.84	25.75
446.02	53.83
446.21	0.00
446.39	56.17
446.58	9.36
446.77	102.98
446.95	98.30
447.14	53.83
447.32	30.43
447.51	18.72
447.69	72.56
447.88	0.00
448.06	0.00
448.25	149.79
448.43	51.49
448.62	51.49
448.80	32.77
448.99	42.13
449.17	46.81
449.36	74.90
449.54	0.00
449.73	65.54
449.91	58.51
450.10	51.49
450.28	9.36
450.46	117.03
450.65	37.45
450.83	32.77
451.02	100.64
451.20	49.15
451.39	100.64
451.57	0.00
451.76	65.54
451.94	46.81
452.13	30.43
452.31	35.11
452.49	58.51
452.68	42.13
452.86	86.60
453.05	67.88
453.23	91.28
453.42	53.83
453.60	39.79
453.78	74.90
453.97	18.72
454.15	25.75
454.34	16.38
454.52	93.62
454.70	58.51
454.89	32.77
455.07	107.66
455.26	16.38
455.44	63.19
455.62	16.38
455.81	74.90
455.99	28.09
456.17	0.00
456.36	35.11
456.54	37.45
456.73	67.88
456.91	28.09
457.09	51.49
457.28	44.47
457.46	44.47
457.64	105.32
457.83	86.60
458.01	16.38
458.19	107.66
458.38	44.47
458.56	35.11
458.74	49.15
458.93	79.58
459.11	67.88
459.29	9.36
459.48	28.09
459.66	93.62
459.84	53.83
460.03	102.98
460.21	77.24
460.39	77.24
460.57	2.34
460.76	65.54
460.94	56.17
461.12	14.04
461.31	35.11
461.49	77.24
461.67	21.06
461.85	81.92
462.04	56.17
462.22	110.01
462.40	28.09
462.59	51.49
462.77	79.58
462.95	51.49
463.13	32.77
463.32	105.32
463.50	56.17
463.68	30.43
463.86	37.45
464.05	51.49
464.23	56.17
464.41	56.17
464.59	35.11
464.78	2.34
464.96	9.36
465.14	51.49
465.32	0.00
465.50	9.36
465.69	72.56
465.87	98.30
466.05	0.00
466.23	56.17
466.41	56.17
466.60	70.22
466.78	49.15
466.96	16.38
467.14	11.70
467.32	84.26
467.51	53.83
467.69	25.75
467.87	35.11
468.05	0.00
468.23	100.64
468.41	42.13
468.60	138.09
468.78	65.54
468.96	32.77
469.14	95.96
469.32	98.30
469.50	124.05
469.69	65.54
469.87	30.43
470.05	72.56
470.23	16.38
470.41	25.75
470.59	65.54
470.77	0.00
470.95	25.75
471.14	98.30
471.32	56.17
471.50	21.06
471.68	51.49
471.86	37.45
472.04	23.41
472.22	74.90
472.40	60.85
472.58	107.66
472.77	81.92
472.95	98.30
473.13	0.00
473.31	42.13
473.49	114.69
473.67	30.43
473.85	79.58
474.03	21.06
474.21	42.13
474.39	124.05
474.57	119.37
474.75	0.00
474.93	60.85
475.12	124.05
475.30	7.02
475.48	58.51
475.66	63.19
475.84	35.11
476.02	198.95
476.20	98.30
476.38	110.01
476.56	93.62
476.74	70.22
476.92	56.17
477.10	9.36
477.28	70.22
477.46	32.77
477.64	44.47
477.82	46.81
478.00	0.00
478.18	49.15
478.36	14.04
478.54	53.83
478.72	67.88
478.90	128.73
479.08	81.92
479.26	72.56
479.44	112.35
479.62	84.26
479.80	16.38
479.98	65.54
480.16	65.54
480.34	49.15
480.52	58.51
480.70	0.00
480.88	28.09
481.06	93.62
481.24	95.96
481.41	72.56
481.59	70.22
481.77	46.81
481.95	81.92
482.13	95.96
482.31	0.00
482.49	46.81
482.67	107.66
482.85	110.01
483.03	18.72
483.21	119.37
483.39	110.01
483.57	14.04
483.74	86.60
483.92	110.01
484.10	88.94
484.28	86.60
484.46	84.26
484.64	74.90
484.82	72.56
485.00	138.09
485.18	79.58
485.35	14.04
485.53	0.00
485.71	114.69
485.89	0.00
486.07	0.00
486.25	37.45
486.43	46.81
486.61	63.19
486.78	126.39
486.96	14.04
487.14	39.79
487.32	77.24
487.50	46.81
487.68	39.79
487.85	58.51
488.03	37.45
488.21	56.17
488.39	91.28
488.57	81.92
488.75	93.62
488.92	98.30
489.10	72.56
489.28	65.54
489.46	102.98
489.64	46.81
489.81	105.32
489.99	7.02
490.17	72.56
490.35	95.96
490.53	84.26
490.70	98.30
490.88	53.83
491.06	30.43
491.24	81.92
491.41	23.41
491.59	100.64
491.77	51.49
491.95	121.71
492.13	39.79
492.30	56.17
492.48	86.60
492.66	102.98
492.84	79.58
493.01	95.96
493.19	46.81
493.37	88.94
493.54	124.05
493.72	124.05
493.90	58.51
494.08	105.32
494.25	110.01
494.43	81.92
494.61	124.05
494.79	74.90
494.96	88.94
495.14	152.13
495.32	58.51
495.49	102.98
495.67	117.03
495.85	2.34
496.02	142.77
496.20	49.15
496.38	110.01
496.55	100.64
496.73	126.39
496.91	119.37
497.09	9.36
497.26	30.43
497.44	110.01
497.62	44.47
497.79	102.98
497.97	67.88
498.14	0.00
498.32	49.15
498.50	88.94
498.67	53.83
498.85	51.49
499.03	58.51
499.20	79.58
499.38	60.85
499.56	70.22
499.73	107.66
499.91	0.00
500.08	88.94
500.26	119.37
500.44	16.38
500.61	84.26
500.79	39.79
500.97	84.26
501.14	112.35
501.32	128.73
501.49	107.66
501.67	149.79
501.84	131.07
502.02	28.09
502.20	93.62
502.37	72.56
502.55	74.90
502.72	84.26
502.90	117.03
503.07	77.24
503.25	126.39
503.43	67.88
503.60	126.39
503.78	198.95
503.95	84.26
504.13	51.49
504.30	32.77
504.48	63.19
504.65	44.47
504.83	126.39
505.01	126.39
505.18	74.90
505.36	65.54
505.53	39.79
505.71	51.49
505.88	145.11
506.06	65.54
506.23	84.26
506.41	70.22
506.58	91.28
506.76	23.41
506.93	119.37
507.11	105.32
507.28	51.49
507.46	168.52
507.63	11.70
507.81	79.58
507.98	49.15
508.16	51.49
508.33	100.64
508.50	56.17
508.68	49.15
508.85	77.24
509.03	56.17
509.20	131.07
509.38	39.79
509.55	46.81
509.73	23.41
509.90	70.22
510.08	72.56
510.25	114.69
510.42	74.90
510.60	133.41
510.77	112.35
510.95	74.90
511.12	93.62
511.30	168.52
511.47	156.82
511.64	102.98
511.82	35.11
511.99	128.73
512.17	91.28
512.34	49.15
512.51	91.28
512.69	86.60
512.86	145.11
513.04	88.94
513.21	35.11
513.38	98.30
513.56	70.22
513.73	133.41
513.90	77.24
514.08	77.24
514.25	81.92
514.43	72.56
514.60	88.94
514.77	67.88
514.95	70.22
515.12	77.24
515.29	14.04
515.47	112.35
515.64	110.01
515.81	28.09
515.99	112.35
516.16	77.24
516.33	126.39
516.51	28.09
516.68	58.51
516.85	39.79
517.03	84.26
517.20	56.17
517.37	114.69
517.54	79.58
517.72	88.94
517.89	56.17
518.06	42.13
518.24	105.32
518.41	79.58
518.58	46.81
518.75	35.11
518.93	9.36
519.10	77.24
519.27	154.48
519.45	124.05
519.62	77.24
519.79	58.51
519.96	100.64
520.14	60.85
520.31	72.56
520.48	135.75
520.65	88.94
520.83	63.19
521.00	93.62
521.17	100.64
521.34	0.00
521.52	60.85
521.69	161.50
521.86	65.54
522.03	114.69
522.20	56.17
522.38	142.77
522.55	51.49
522.72	70.22
522.89	133.41
523.07	95.96
523.24	88.94
523.41	114.69
523.58	11.70
523.75	72.56
523.92	72.56
524.10	105.32
524.27	124.05
524.44	81.92
524.61	74.90
524.78	60.85
524.96	145.11
525.13	42.13
525.30	124.05
525.47	117.03
525.64	102.98
525.81	58.51
525.98	11.70
526.16	112.35
526.33	25.75
526.50	39.79
526.67	88.94
526.84	53.83
527.01	35.11
527.18	84.26
527.36	128.73
527.53	86.60
527.70	86.60
527.87	128.73
528.04	30.43
528.21	65.54
528.38	110.01
528.55	70.22
528.72	86.60
528.89	145.11
529.07	46.81
529.24	67.88
529.41	100.64
529.58	119.37
529.75	100.64
529.92	51.49
530.09	159.16
530.26	91.28
530.43	51.49
530.60	124.05
530.77	105.32
530.94	67.88
531.11	79.58
531.28	39.79
531.46	37.45
531.63	105.32
531.80	98.30
531.97	98.30
532.14	102.98
532.31	39.79
532.48	88.94
532.65	51.49
532.82	44.47
532.99	84.26
533.16	63.19
533.33	161.50
533.50	32.77
533.67	107.66
533.84	56.17
534.01	100.64
534.18	142.77
534.35	51.49
534.52	168.52
534.69	100.64
534.86	77.24
535.03	42.13
535.20	39.79
535.37	98.30
535.54	84.26
535.71	88.94
535.88	100.64
536.05	72.56
536.22	79.58
536.38	95.96
536.55	84.26
536.72	0.00
536.89	53.83
537.06	140.43
537.23	102.98
537.40	100.64
537.57	63.19
537.74	107.66
537.91	112.35
538.08	65.54
538.25	133.41
538.42	0.00
538.59	58.51
538.75	110.01
538.92	84.26
539.09	159.16
539.26	58.51
539.43	110.01
539.60	124.05
539.77	124.05
539.94	131.07
540.11	72.56
540.28	86.60
540.44	121.71
540.61	23.41
540.78	102.98
540.95	128.73
541.12	93.62
541.29	72.56
541.46	37.45
541.62	107.66
541.79	65.54
541.96	86.60
542.13	117.03
542.30	53.83
542.47	112.35
542.63	105.32
542.80	142.77
542.97	126.39
543.14	102.98
543.31	72.56
543.48	86.60
543.64	168.52
543.81	112.35
543.98	91.28
544.15	74.90
544.32	60.85
544.48	84.26
544.65	88.94
544.82	163.84
544.99	70.22
545.16	105.32
545.32	74.90
545.49	86.60
545.66	110.01
545.83	126.39
546.00	100.64
546.16	107.66
546.33	112.35
546.50	110.01
546.67	100.64
546.83	74.90
547.00	98.30
547.17	49.15
547.34	100.64
547.50	140.43
547.67	63.19
547.84	98.30
548.00	42.13
548.17	46.81
548.34	161.50
548.51	70.22
548.67	65.54
548.84	0.00
549.01	100.64
549.18	91.28
549.34	72.56
549.51	88.94
549.68	88.94
549.84	107.66
550.01	142.77
550.18	121.71
550.34	182.56
550.51	98.30
550.68	91.28
550.84	98.30
551.01	84.26
551.18	107.66
551.34	77.24
551.51	53.83
551.68	126.39
551.84	58.51
552.01	91.28
552.18	70.22
552.34	79.58
552.51	86.60
552.68	42.13
552.84	14.04
553.01	112.35
553.18	98.30
553.34	56.17
553.51	131.07
553.67	135.75
553.84	72.56
554.01	126.39
554.17	126.39
554.34	63.19
554.51	145.11
554.67	72.56
554.84	81.92
555.00	91.28
555.17	86.60
555.33	25.75
555.50	84.26
555.67	49.15
555.83	18.72
556.00	177.88
556.16	133.41
556.33	84.26
556.50	124.05
556.66	100.64
556.83	98.30
556.99	79.58
557.16	74.90
557.32	81.92
557.49	107.66
557.65	74.90
557.82	23.41
557.98	70.22
558.15	79.58
558.32	65.54
558.48	25.75
558.65	84.26
558.81	86.60
558.98	37.45
559.14	46.81
559.31	65.54
559.47	81.92
559.64	65.54
559.80	138.09
559.97	119.37
560.13	32.77
560.30	98.30
560.46	131.07
560.63	65.54
560.79	91.28
560.96	91.28
561.12	86.60
561.29	119.37
561.45	74.90
561.61	30.43
561.78	44.47
561.94	81.92
562.11	121.71
562.27	88.94
562.44	98.30
562.60	84.26
562.77	110.01
562.93	102.98
563.10	114.69
563.26	63.19
563.42	44.47
563.59	42.13
563.75	53.83
563.92	112.35
564.08	105.32
564.24	77.24
564.41	58.51
564.57	0.00
564.74	81.92
564.90	18.72
565.07	49.15
565.23	21.06
565.39	46.81
565.56	28.09
565.72	51.49
565.88	84.26
566.05	95.96
566.21	107.66
566.38	81.92
566.54	23.41
566.70	60.85
566.87	124.05
567.03	177.88
567.19	100.64
567.36	37.45
567.52	72.56
567.68	114.69
567.85	56.17
568.01	77.24
568.17	154.48
568.34	70.22
568.50	63.19
568.66	70.22
568.83	114.69
568.99	0.00
569.15	65.54
569.32	37.45
569.48	56.17
569.64	95.96
569.81	35.11
569.97	65.54
570.13	65.54
570.30	142.77
570.46	105.32
570.62	74.90
570.78	107.66
570.95	28.09
571.11	67.88
571.27	88.94
571.43	25.75
571.60	28.09
571.76	56.17
571.92	46.81
572.09	0.00
572.25	100.64
572.41	11.70
572.57	154.48
572.74	58.51
572.90	65.54
573.06	60.85
573.22	14.04
573.38	77.24
573.55	46.81
573.71	79.58
573.87	79.58
574.03	105.32
574.20	126.39
574.36	84.26
574.52	39.79
574.68	51.49
574.84	93.62
575.01	65.54
575.17	32.77
575.33	46.81
575.49	32.77
575.65	81.92
575.82	100.64
575.98	70.22
576.14	51.49
576.30	86.60
576.46	79.58
576.62	46.81
576.79	53.83
576.95	58.51
577.11	4.68
577.27	79.58
577.43	86.60
577.59	102.98
577.75	81.92
577.92	23.41
578.08	14.04
578.24	72.56
578.40	93.62
578.56	112.35
578.72	131.07
578.88	126.39
579.04	84.26
579.21	14.04
579.37	79.58
579.53	60.85
579.69	49.15
579.85	28.09
580.01	110.01
580.17	65.54
580.33	74.90
580.49	25.75
580.65	35.11
580.82	77.24
580.98	58.51
581.14	44.47
581.30	37.45
581.46	7.02
581.62	91.28
581.78	91.28
581.94	56.17
582.10	63.19
582.26	81.92
582.42	72.56
582.58	0.00
582.74	39.79
582.90	2.34
583.06	46.81
583.22	74.90
583.38	58.51
583.54	42.13
583.70	135.75
583.86	79.58
584.02	86.60
584.18	70.22
584.34	25.75
584.50	28.09
584.66	30.43
584.82	107.66
584.98	56.17
585.14	88.94
585.30	147.45
585.46	86.60
585.62	88.94
585.78	117.03
585.94	100.64
586.10	124.05
586.26	60.85
586.42	91.28
586.58	30.43
586.74	84.26
586.90	95.96
587.06	98.30
587.22	32.77
587.38	4.68
587.54	74.90
587.70	46.81
587.86	77.24
588.02	67.88
588.18	58.51
588.34	49.15
588.49	67.88
588.65	93.62
588.81	79.58
588.97	91.28
589.13	58.51
589.29	72.56
589.45	4.68
589.61	56.17
589.77	84.26
589.93	58.51
590.08	16.38
590.24	70.22
590.40	74.90
590.56	58.51
590.72	53.83
590.88	126.39
591.04	65.54
591.20	95.96
591.35	105.32
591.51	133.41
591.67	100.64
591.83	58.51
591.99	102.98
592.15	95.96
592.31	42.13
592.46	58.51
592.62	138.09
592.78	37.45
592.94	65.54
593.10	74.90
593.26	91.28
593.41	49.15
593.57	74.90
593.73	117.03
593.89	49.15
594.05	60.85
594.20	74.90
594.36	81.92
594.52	88.94
594.68	63.19
594.84	32.77
594.99	37.45
595.15	74.90
595.31	65.54
595.47	56.17
595.62	105.32
595.78	86.60
595.94	46.81
596.10	72.56
596.25	77.24
596.41	28.09
596.57	86.60
596.73	88.94
596.88	46.81
597.04	49.15
597.20	91.28
597.36	44.47
597.51	110.01
597.67	58.51
597.83	105.32
597.99	91.28
598.14	77.24
598.30	147.45
598.46	95.96
598.61	44.47
598.77	46.81
598.93	168.52
599.09	93.62
599.24	65.54
599.40	117.03
599.56	72.56
599.71	88.94
599.87	32.77
600.03	72.56
600.18	25.75
600.34	0.00
600.50	42.13
600.65	42.13
600.81	117.03
600.97	88.94
601.12	72.56
601.28	102.98
601.44	28.09
601.59	138.09
601.75	53.83
601.91	67.88
602.06	102.98
602.22	53.83
602.37	51.49
602.53	142.77
602.69	84.26
602.84	46.81
603.00	112.35
603.16	98.30
603.31	35.11
603.47	81.92
603.62	105.32
603.78	53.83
603.94	77.24
604.09	124.05
604.25	72.56
604.40	39.79
604.56	14.04
604.71	32.77
604.87	107.66
605.03	105.32
605.18	114.69
605.34	74.90
605.49	79.58
605.65	110.01
605.80	14.04
605.96	81.92
606.12	4.68
606.27	65.54
606.43	77.24
606.58	32.77
606.74	102.98
606.89	91.28
607.05	126.39
607.20	63.19
607.36	44.47
607.51	98.30
607.67	86.60
607.82	95.96
607.98	37.45
608.13	72.56
608.29	56.17
608.44	0.00
608.60	46.81
608.75	112.35
608.91	72.56
609.06	133.41
609.22	0.00
609.37	51.49
609.53	23.41
609.68	74.90
609.84	63.19
609.99	65.54
610.15	88.94
610.30	56.17
610.46	67.88
610.61	21.06
610.76	25.75
610.92	37.45
611.07	4.68
611.23	21.06
611.38	39.79
611.54	53.83
611.69	67.88
611.84	72.56
612.00	135.75
612.15	63.19
612.31	79.58
612.46	79.58
612.62	84.26
612.77	9.36
612.92	112.35
613.08	49.15
613.23	28.09
613.39	30.43
613.54	14.04
613.69	65.54
613.85	0.00
614.00	93.62
614.15	0.00
614.31	0.00
614.46	30.43
614.62	11.70
614.77	86.60
614.92	46.81
615.08	56.17
615.23	23.41
615.38	0.00
615.54	65.54
615.69	39.79
615.84	53.83
616.00	0.00
616.15	77.24
616.30	60.85
616.46	98.30
616.61	42.13
616.76	16.38
616.92	63.19
617.07	84.26
617.22	93.62
617.37	95.96
617.53	16.38
617.68	84.26
617.83	46.81
617.99	74.90
618.14	53.83
618.29	121.71
618.45	126.39
618.60	35.11
618.75	86.60
618.90	49.15
619.06	77.24
619.21	35.11
619.36	114.69
619.51	65.54
619.67	32.77
619.82	46.81
619.97	72.56
620.12	42.13
620.28	77.24
620.43	74.90
620.58	91.28
620.73	51.49
620.89	74.90
621.04	18.72
621.19	65.54
621.34	74.90
621.49	86.60
621.65	100.64
621.80	70.22
621.95	51.49
622.10	51.49
622.25	42.13
622.41	79.58
622.56	72.56
622.71	0.00
622.86	35.11
623.01	145.11
623.16	46.81
623.32	56.17
623.47	23.41
623.62	53.83
623.77	32.77
623.92	56.17
624.07	56.17
624.23	98.30
624.38	67.88
624.53	63.19
624.68	105.32
624.83	91.28
624.98	93.62
625.13	84.26
625.29	46.81
625.44	140.43
625.59	72.56
625.74	65.54
625.89	58.51
626.04	88.94
626.19	88.94
626.34	44.47
626.49	0.00
626.65	53.83
626.80	72.56
626.95	93.62
627.10	74.90
627.25	88.94
627.40	32.77
627.55	91.28
627.70	56.17
627.85	16.38
628.00	37.45
628.15	25.75
628.30	65.54
628.45	56.17
628.60	37.45
628.76	0.00
628.91	35.11
629.06	16.38
629.21	126.39
629.36	105.32
629.51	86.60
629.66	25.75
629.81	70.22
629.96	119.37
630.11	30.43
630.26	124.05
630.41	9.36
630.56	63.19
630.71	60.85
630.86	42.13
631.01	102.98
631.16	126.39
631.31	58.51
631.46	9.36
631.61	2.34
631.76	28.09
631.91	35.11
632.06	11.70
632.21	91.28
632.36	18.72
632.51	72.56
632.66	32.77
632.81	37.45
632.96	51.49
633.10	23.41
633.25	105.32
633.40	28.09
633.55	126.39
633.70	70.22
633.85	35.11
634.00	100.64
634.15	100.64
634.30	37.45
634.45	37.45
634.60	51.49
634.75	35.11
634.90	14.04
635.05	98.30
635.19	79.58
635.34	95.96
635.49	35.11
635.64	0.00
635.79	28.09
635.94	51.49
636.09	49.15
636.24	46.81
636.39	86.60
636.53	58.51
636.68	86.60
636.83	46.81
636.98	56.17
637.13	9.36
637.28	74.90
637.43	39.79
637.57	16.38
637.72	51.49
637.87	37.45
638.02	46.81
638.17	72.56
638.32	74.90
638.46	86.60
638.61	56.17
638.76	100.64
638.91	7.02
639.06	79.58
639.20	30.43
639.35	84.26
639.50	84.26
639.65	91.28
639.80	0.00
639.94	14.04
640.09	86.60
640.24	63.19
640.39	32.77
640.54	81.92
640.68	16.38
640.83	121.71
640.98	63.19
641.13	28.09
641.27	135.75
641.42	91.28
641.57	91.28
641.72	138.09
641.86	30.43
642.01	0.00
642.16	63.19
642.31	51.49
642.45	121.71
642.60	18.72
642.75	93.62
642.90	16.38
643.04	23.41
643.19	44.47
643.34	23.41
643.48	49.15
643.63	49.15
643.78	84.26
643.93	117.03
644.07	119.37
644.22	30.43
644.37	91.28
644.51	0.00
644.66	53.83
644.81	53.83
644.95	23.41
645.10	25.75
645.25	37.45
645.39	0.00
645.54	25.75
645.69	0.00
645.83	39.79
645.98	72.56
646.13	56.17
646.27	65.54
646.42	4.68
646.57	0.00
646.71	88.94
646.86	77.24
647.00	67.88
647.15	70.22
647.30	93.62
647.44	32.77
647.59	0.00
647.74	60.85
647.88	58.51
648.03	74.90
648.17	135.75
648.32	70.22
648.47	72.56
648.61	37.45
648.76	88.94
648.90	124.05
649.05	93.62
649.20	0.00
649.34	23.41
649.49	63.19
649.63	42.13
649.78	42.13
649.92	58.51
650.07	100.64
650.21	60.85
650.36	18.72
650.51	124.05
650.65	9.36
650.80	53.83
650.94	91.28
651.09	4.68
651.23	124.05
651.38	28.09
651.52	67.88
651.67	114.69
651.81	81.92
651.96	65.54
652.10	32.77
652.25	0.00
652.39	39.79
652.54	84.26
652.68	110.01
652.83	56.17
652.97	42.13
653.12	65.54
653.26	72.56
653.41	60.85
653.55	65.54
653.70	11.70
653.84	0.00
653.99	28.09
654.13	131.07
654.27	35.11
654.42	28.09
654.56	93.62
654.71	35.11
654.85	88.94
655.00	74.90
655.14	0.00
655.29	81.92
655.43	74.90
655.57	60.85
655.72	44.47
655.86	81.92
656.01	77.24
656.15	42.13
656.30	16.38
656.44	18.72
656.58	56.17
656.73	18.72
656.87	51.49
657.01	86.60
657.16	65.54
657.30	110.01
657.45	133.41
657.59	0.00
657.73	56.17
657.88	18.72
658.02	60.85
658.16	0.00
658.31	25.75
658.45	74.90
658.60	4.68
658.74	56.17
658.88	21.06
659.03	25.75
659.17	14.04
659.31	105.32
659.46	84.26
659.60	65.54
659.74	79.58
659.89	70.22
660.03	14.04
660.17	0.00
660.32	16.38
660.46	53.83
660.60	74.90
660.74	23.41
660.89	23.41
661.03	72.56
661.17	98.30
661.32	56.17
661.46	18.72
661.60	67.88
661.74	9.36
661.89	16.38
662.03	51.49
662.17	58.51
662.31	107.66
662.46	18.72
662.60	51.49
662.74	23.41
662.88	30.43
663.03	74.90
663.17	4.68
663.31	25.75
663.45	46.81
663.60	79.58
663.74	105.32
663.88	0.00
664.02	159.16
664.17	98.30
664.31	79.58
664.45	56.17
664.59	72.56
664.73	37.45
664.88	42.13
665.02	2.34
665.16	7.02
665.30	126.39
665.44	23.41
665.59	16.38
665.73	18.72
665.87	100.64
666.01	42.13
666.15	86.60
666.29	107.66
666.44	14.04
666.58	32.77
666.72	100.64
666.86	32.77
667.00	53.83
667.14	44.47
667.28	9.36
667.43	58.51
667.57	11.70
667.71	112.35
667.85	25.75
667.99	18.72
668.13	56.17
668.27	79.58
668.41	28.09
668.56	79.58
668.70	23.41
668.84	86.60
668.98	77.24
669.12	44.47
669.26	37.45
669.40	0.00
669.54	63.19
669.68	35.11
669.82	44.47
669.96	21.06
670.10	51.49
670.25	11.70
670.39	121.71
670.53	65.54
670.67	112.35
670.81	60.85
670.95	63.19
671.09	21.06
671.23	44.47
671.37	14.04
671.51	133.41
671.65	30.43
671.79	67.88
671.93	0.00
672.07	32.77
672.21	51.49
672.35	0.00
672.49	84.26
672.63	42.13
672.77	126.39
672.91	35.11
673.05	35.11
673.19	46.81
673.33	23.41
673.47	56.17
673.61	74.90
673.75	79.58
673.89	0.00
674.03	51.49
674.17	65.54
674.31	35.11
674.45	60.85
674.59	32.77
674.73	67.88
674.87	44.47
675.01	0.00
675.15	84.26
675.29	56.17
675.43	49.15
675.56	95.96
675.70	37.45
675.84	14.04
675.98	44.47
676.12	0.00
676.26	28.09
676.40	49.15
676.54	46.81
676.68	37.45
676.82	0.00
676.96	65.54
677.10	95.96
677.23	0.00
677.37	21.06
677.51	102.98
677.65	25.75
677.79	0.00
677.93	70.22
678.07	93.62
678.21	86.60
678.34	65.54
678.48	60.85
678.62	0.00
678.76	77.24
678.90	37.45
679.04	91.28
679.18	93.62
679.31	51.49
679.45	63.19
679.59	65.54
679.73	88.94
679.87	44.47
680.00	18.72
680.14	21.06
680.28	44.47
680.42	25.75
680.56	25.75
680.70	65.54
680.83	70.22
680.97	72.56
681.11	70.22
681.25	46.81
681.39	46.81
681.52	23.41
681.66	30.43
681.80	98.30
681.94	35.11
682.07	81.92
682.21	67.88
682.35	18.72
682.49	46.81
682.62	44.47
682.76	88.94
682.90	77.24
683.04	37.45
683.17	49.15
683.31	53.83
683.45	105.32
683.59	53.83
683.72	0.00
683.86	91.28
684.00	0.00
684.13	35.11
684.27	7.02
684.41	0.00
684.55	88.94
684.68	63.19
684.82	0.00
684.96	42.13
685.09	51.49
685.23	44.47
685.37	0.00
685.50	25.75
685.64	21.06
685.78	95.96
685.91	51.49
686.05	0.00
686.19	91.28
686.32	35.11
686.46	51.49
686.60	37.45
686.73	28.09
686.87	77.24
687.01	56.17
687.14	39.79
687.28	0.00
687.42	60.85
687.55	23.41
687.69	49.15
687.82	0.00
687.96	46.81
688.10	28.09
688.23	28.09
688.37	0.00
688.50	70.22
688.64	91.28
688.78	56.17
688.91	23.41
689.05	18.72
689.18	9.36
689.32	0.00
689.46	0.00
689.59	2.34
689.73	53.83
689.86	2.34
690.00	88.94
690.13	93.62
690.27	0.00
690.41	53.83
690.54	70.22
690.68	51.49
690.81	67.88
690.95	49.15
691.08	28.09
691.22	23.41
691.35	84.26
691.49	0.00
691.62	49.15
691.76	49.15
691.89	63.19
692.03	23.41
692.16	0.00
692.30	93.62
692.43	51.49
692.57	44.47
692.70	58.51
692.84	42.13
692.97	63.19
693.11	44.47
693.24	7.02
693.38	4.68
693.51	0.00
693.65	42.13
693.78	77.24
693.92	49.15
694.05	58.51
694.19	107.66
694.32	18.72
694.45	49.15
694.59	35.11
694.72	107.66
694.86	58.51
694.99	95.96
695.13	79.58
695.26	56.17
695.39	56.17
695.53	67.88
695.66	51.49
695.80	28.09
695.93	77.24
696.07	117.03
696.20	35.11
696.33	70.22
696.47	35.11
696.60	0.00
696.73	14.04
696.87	77.24
697.00	0.00
697.14	81.92
697.27	105.32
697.40	0.00
697.54	81.92
697.67	14.04
697.80	9.36
697.94	114.69
698.07	42.13
698.21	23.41
698.34	14.04
698.47	84.26
698.61	63.19
698.74	58.51
698.87	72.56
699.01	0.00
699.14	79.58
699.27	21.06
699.40	9.36
699.54	81.92
699.67	25.75
699.80	25.75
699.94	21.06
700.07	77.24
700.20	114.69
700.34	0.00
700.47	42.13
700.60	4.68
700.73	0.00
700.87	18.72
701.00	51.49
701.13	37.45
701.26	9.36
701.40	0.00
701.53	39.79
701.66	4.68
701.79	95.96
701.93	98.30
702.06	30.43
702.19	23.41
702.32	117.03
702.46	42.13
702.59	74.90
702.72	0.00
702.85	0.00
702.99	49.15
703.12	4.68
703.25	23.41
703.38	42.13
703.51	79.58
703.65	28.09
703.78	0.00
703.91	49.15
704.04	37.45
704.17	63.19
704.31	25.75
704.44	30.43
704.57	84.26
704.70	53.83
704.83	21.06
704.96	16.38
705.10	18.72
705.23	60.85
>>>>>End Processed Spectral Data<<<<<
