SpectraSuite Data File
++++++++++++++++++++++++++++++++++++
Date: Fri Oct 04 12:13:36 GMT-05:00 2013
User: price-jones
Dark Spectrum Present: No
Reference Spectrum Present: No
Number of Sampled Component Spectra: 1
Spectrometers: USB2+H05261
Integration Time (usec): 10000 (USB2+H05261)
Spectra Averaged: 1 (USB2+H05261)
Boxcar Smoothing: 0 (USB2+H05261)
Correct for Electrical Dark: No (USB2+H05261)
Strobe/Lamp Enabled: No (USB2+H05261)
Correct for Detector Non-linearity: No (USB2+H05261)
Correct for Stray Light: No (USB2+H05261)
Number of Pixels in Processed Spectrum: 2048
>>>>>Begin Processed Spectral Data<<<<<
365.73	18.72
365.92	18.72
366.12	18.72
366.32	0.00
366.52	0.00
366.72	0.00
366.91	0.00
367.11	0.00
367.31	0.00
367.51	0.00
367.70	0.00
367.90	0.00
368.10	0.00
368.30	0.00
368.49	0.00
368.69	0.00
368.89	0.00
369.09	0.00
369.28	0.00
369.48	0.00
369.68	0.00
369.87	0.00
370.07	0.00
370.27	0.00
370.47	0.00
370.66	9.36
370.86	0.00
371.06	0.00
371.25	0.00
371.45	0.00
371.65	0.00
371.84	42.13
372.04	0.00
372.24	74.90
372.44	46.81
372.63	37.45
372.83	0.00
373.03	25.75
373.22	21.06
373.42	0.00
373.62	39.79
373.81	39.79
374.01	16.38
374.21	67.88
374.40	18.72
374.60	46.81
374.79	0.00
374.99	2.34
375.19	23.41
375.38	98.30
375.58	35.11
375.78	53.83
375.97	30.43
376.17	0.00
376.37	60.85
376.56	51.49
376.76	0.00
376.95	0.00
377.15	39.79
377.35	65.54
377.54	0.00
377.74	35.11
377.93	65.54
378.13	18.72
378.33	0.00
378.52	0.00
378.72	9.36
378.91	16.38
379.11	14.04
379.31	9.36
379.50	28.09
379.70	0.00
379.89	0.00
380.09	9.36
380.28	0.00
380.48	70.22
380.68	0.00
380.87	0.00
381.07	28.09
381.26	0.00
381.46	0.00
381.65	0.00
381.85	88.94
382.04	21.06
382.24	0.00
382.43	46.81
382.63	0.00
382.83	32.77
383.02	14.04
383.22	14.04
383.41	46.81
383.61	30.43
383.80	9.36
384.00	39.79
384.19	11.70
384.39	53.83
384.58	63.19
384.78	46.81
384.97	44.47
385.17	7.02
385.36	58.51
385.56	0.00
385.75	9.36
385.95	32.77
386.14	18.72
386.34	32.77
386.53	35.11
386.72	21.06
386.92	4.68
387.11	0.00
387.31	0.00
387.50	60.85
387.70	11.70
387.89	84.26
388.09	0.00
388.28	16.38
388.48	60.85
388.67	25.75
388.86	39.79
389.06	0.00
389.25	30.43
389.45	9.36
389.64	16.38
389.84	0.00
390.03	4.68
390.22	63.19
390.42	0.00
390.61	30.43
390.81	81.92
391.00	25.75
391.19	0.00
391.39	49.15
391.58	42.13
391.78	28.09
391.97	60.85
392.16	0.00
392.36	25.75
392.55	28.09
392.75	0.00
392.94	14.04
393.13	28.09
393.33	77.24
393.52	18.72
393.71	21.06
393.91	63.19
394.10	14.04
394.29	65.54
394.49	21.06
394.68	0.00
394.88	2.34
395.07	91.28
395.26	110.01
395.46	0.00
395.65	0.00
395.84	44.47
396.04	58.51
396.23	98.30
396.42	2.34
396.62	51.49
396.81	25.75
397.00	100.64
397.19	86.60
397.39	25.75
397.58	4.68
397.77	0.00
397.97	39.79
398.16	72.56
398.35	30.43
398.55	65.54
398.74	58.51
398.93	0.00
399.12	35.11
399.32	21.06
399.51	107.66
399.70	30.43
399.90	9.36
400.09	14.04
400.28	49.15
400.47	25.75
400.67	39.79
400.86	0.00
401.05	65.54
401.24	81.92
401.44	21.06
401.63	18.72
401.82	30.43
402.01	21.06
402.21	16.38
402.40	60.85
402.59	63.19
402.78	32.77
402.97	53.83
403.17	30.43
403.36	7.02
403.55	37.45
403.74	0.00
403.93	16.38
404.13	0.00
404.32	42.13
404.51	4.68
404.70	93.62
404.89	42.13
405.09	14.04
405.28	93.62
405.47	9.36
405.66	37.45
405.85	51.49
406.05	0.00
406.24	0.00
406.43	65.54
406.62	49.15
406.81	0.00
407.00	0.00
407.20	46.81
407.39	0.00
407.58	63.19
407.77	21.06
407.96	0.00
408.15	2.34
408.34	30.43
408.54	7.02
408.73	72.56
408.92	46.81
409.11	105.32
409.30	53.83
409.49	14.04
409.68	63.19
409.87	23.41
410.07	105.32
410.26	74.90
410.45	11.70
410.64	0.00
410.83	79.58
411.02	37.45
411.21	32.77
411.40	44.47
411.59	42.13
411.78	91.28
411.98	72.56
412.17	88.94
412.36	42.13
412.55	98.30
412.74	53.83
412.93	79.58
413.12	51.49
413.31	51.49
413.50	18.72
413.69	35.11
413.88	46.81
414.07	0.00
414.26	30.43
414.45	0.00
414.64	46.81
414.83	32.77
415.02	32.77
415.22	67.88
415.41	117.03
415.60	60.85
415.79	81.92
415.98	65.54
416.17	67.88
416.36	28.09
416.55	21.06
416.74	63.19
416.93	16.38
417.12	74.90
417.31	0.00
417.50	91.28
417.69	4.68
417.88	0.00
418.07	30.43
418.26	53.83
418.45	7.02
418.64	88.94
418.83	163.84
419.02	77.24
419.21	18.72
419.39	16.38
419.58	44.47
419.77	0.00
419.96	72.56
420.15	117.03
420.34	65.54
420.53	110.01
420.72	84.26
420.91	25.75
421.10	0.00
421.29	0.00
421.48	60.85
421.67	0.00
421.86	16.38
422.05	42.13
422.24	107.66
422.43	42.13
422.61	117.03
422.80	0.00
422.99	21.06
423.18	67.88
423.37	70.22
423.56	142.77
423.75	98.30
423.94	86.60
424.13	51.49
424.32	7.02
424.50	23.41
424.69	9.36
424.88	93.62
425.07	114.69
425.26	107.66
425.45	63.19
425.64	77.24
425.83	67.88
426.01	86.60
426.20	81.92
426.39	28.09
426.58	35.11
426.77	77.24
426.96	23.41
427.15	79.58
427.33	42.13
427.52	25.75
427.71	21.06
427.90	114.69
428.09	32.77
428.28	56.17
428.46	79.58
428.65	145.11
428.84	63.19
429.03	53.83
429.22	159.16
429.40	39.79
429.59	65.54
429.78	88.94
429.97	32.77
430.16	30.43
430.34	86.60
430.53	112.35
430.72	107.66
430.91	11.70
431.10	35.11
431.28	32.77
431.47	49.15
431.66	53.83
431.85	46.81
432.03	65.54
432.22	67.88
432.41	39.79
432.60	46.81
432.79	25.75
432.97	37.45
433.16	124.05
433.35	60.85
433.54	4.68
433.72	60.85
433.91	74.90
434.10	56.17
434.28	9.36
434.47	70.22
434.66	56.17
434.85	0.00
435.03	72.56
435.22	16.38
435.41	7.02
435.59	49.15
435.78	0.00
435.97	23.41
436.16	56.17
436.34	93.62
436.53	18.72
436.72	49.15
436.90	9.36
437.09	25.75
437.28	100.64
437.46	39.79
437.65	44.47
437.84	39.79
438.02	58.51
438.21	2.34
438.40	117.03
438.58	124.05
438.77	81.92
438.96	95.96
439.14	65.54
439.33	51.49
439.52	44.47
439.70	21.06
439.89	60.85
440.08	11.70
440.26	0.00
440.45	72.56
440.63	56.17
440.82	56.17
441.01	0.00
441.19	74.90
441.38	72.56
441.57	93.62
441.75	53.83
441.94	119.37
442.12	58.51
442.31	0.00
442.50	49.15
442.68	140.43
442.87	72.56
443.05	77.24
443.24	60.85
443.43	58.51
443.61	11.70
443.80	0.00
443.98	67.88
444.17	63.19
444.35	0.00
444.54	67.88
444.73	9.36
444.91	9.36
445.10	77.24
445.28	100.64
445.47	65.54
445.65	58.51
445.84	67.88
446.02	23.41
446.21	86.60
446.39	37.45
446.58	63.19
446.77	9.36
446.95	21.06
447.14	95.96
447.32	23.41
447.51	44.47
447.69	30.43
447.88	98.30
448.06	67.88
448.25	110.01
448.43	81.92
448.62	100.64
448.80	142.77
448.99	70.22
449.17	95.96
449.36	18.72
449.54	77.24
449.73	84.26
449.91	11.70
450.10	18.72
450.28	88.94
450.46	7.02
450.65	95.96
450.83	65.54
451.02	81.92
451.20	56.17
451.39	58.51
451.57	107.66
451.76	98.30
451.94	67.88
452.13	77.24
452.31	63.19
452.49	18.72
452.68	95.96
452.86	21.06
453.05	2.34
453.23	56.17
453.42	30.43
453.60	42.13
453.78	42.13
453.97	39.79
454.15	39.79
454.34	56.17
454.52	53.83
454.70	9.36
454.89	102.98
455.07	9.36
455.26	16.38
455.44	16.38
455.62	14.04
455.81	46.81
455.99	53.83
456.17	84.26
456.36	42.13
456.54	93.62
456.73	0.00
456.91	39.79
457.09	28.09
457.28	126.39
457.46	65.54
457.64	70.22
457.83	60.85
458.01	37.45
458.19	46.81
458.38	42.13
458.56	63.19
458.74	81.92
458.93	60.85
459.11	77.24
459.29	74.90
459.48	9.36
459.66	60.85
459.84	37.45
460.03	58.51
460.21	86.60
460.39	14.04
460.57	9.36
460.76	9.36
460.94	18.72
461.12	63.19
461.31	0.00
461.49	77.24
461.67	39.79
461.85	95.96
462.04	44.47
462.22	135.75
462.40	0.00
462.59	56.17
462.77	49.15
462.95	74.90
463.13	93.62
463.32	107.66
463.50	98.30
463.68	53.83
463.86	53.83
464.05	37.45
464.23	79.58
464.41	2.34
464.59	4.68
464.78	7.02
464.96	0.00
465.14	105.32
465.32	117.03
465.50	74.90
465.69	37.45
465.87	37.45
466.05	23.41
466.23	93.62
466.41	91.28
466.60	79.58
466.78	21.06
466.96	79.58
467.14	152.13
467.32	77.24
467.51	79.58
467.69	79.58
467.87	51.49
468.05	60.85
468.23	46.81
468.41	126.39
468.60	46.81
468.78	39.79
468.96	37.45
469.14	128.73
469.32	53.83
469.50	25.75
469.69	60.85
469.87	14.04
470.05	72.56
470.23	88.94
470.41	39.79
470.59	0.00
470.77	63.19
470.95	60.85
471.14	149.79
471.32	135.75
471.50	53.83
471.68	60.85
471.86	4.68
472.04	46.81
472.22	28.09
472.40	53.83
472.58	23.41
472.77	105.32
472.95	53.83
473.13	147.45
473.31	84.26
473.49	46.81
473.67	0.00
473.85	63.19
474.03	7.02
474.21	30.43
474.39	42.13
474.57	81.92
474.75	0.00
474.93	100.64
475.12	58.51
475.30	114.69
475.48	70.22
475.66	0.00
475.84	74.90
476.02	39.79
476.20	56.17
476.38	23.41
476.56	88.94
476.74	44.47
476.92	51.49
477.10	72.56
477.28	14.04
477.46	100.64
477.64	70.22
477.82	117.03
478.00	51.49
478.18	60.85
478.36	28.09
478.54	0.00
478.72	77.24
478.90	145.11
479.08	28.09
479.26	37.45
479.44	30.43
479.62	65.54
479.80	67.88
479.98	102.98
480.16	16.38
480.34	4.68
480.52	0.00
480.70	102.98
480.88	91.28
481.06	51.49
481.24	77.24
481.41	21.06
481.59	67.88
481.77	46.81
481.95	35.11
482.13	4.68
482.31	65.54
482.49	72.56
482.67	44.47
482.85	35.11
483.03	65.54
483.21	0.00
483.39	88.94
483.57	0.00
483.74	105.32
483.92	18.72
484.10	72.56
484.28	49.15
484.46	14.04
484.64	86.60
484.82	98.30
485.00	119.37
485.18	53.83
485.35	58.51
485.53	58.51
485.71	93.62
485.89	32.77
486.07	7.02
486.25	81.92
486.43	51.49
486.61	0.00
486.78	39.79
486.96	72.56
487.14	131.07
487.32	102.98
487.50	32.77
487.68	53.83
487.85	46.81
488.03	77.24
488.21	105.32
488.39	39.79
488.57	72.56
488.75	30.43
488.92	16.38
489.10	25.75
489.28	25.75
489.46	102.98
489.64	16.38
489.81	107.66
489.99	60.85
490.17	46.81
490.35	117.03
490.53	14.04
490.70	79.58
490.88	60.85
491.06	84.26
491.24	77.24
491.41	0.00
491.59	100.64
491.77	65.54
491.95	98.30
492.13	32.77
492.30	67.88
492.48	102.98
492.66	102.98
492.84	56.17
493.01	53.83
493.19	84.26
493.37	74.90
493.54	91.28
493.72	93.62
493.90	67.88
494.08	86.60
494.25	93.62
494.43	49.15
494.61	4.68
494.79	86.60
494.96	58.51
495.14	77.24
495.32	72.56
495.49	91.28
495.67	91.28
495.85	88.94
496.02	95.96
496.20	77.24
496.38	30.43
496.55	79.58
496.73	124.05
496.91	88.94
497.09	91.28
497.26	70.22
497.44	0.00
497.62	114.69
497.79	81.92
497.97	95.96
498.14	70.22
498.32	67.88
498.50	91.28
498.67	56.17
498.85	56.17
499.03	60.85
499.20	28.09
499.38	91.28
499.56	72.56
499.73	135.75
499.91	46.81
500.08	84.26
500.26	74.90
500.44	14.04
500.61	140.43
500.79	105.32
500.97	79.58
501.14	105.32
501.32	79.58
501.49	51.49
501.67	74.90
501.84	21.06
502.02	35.11
502.20	65.54
502.37	147.45
502.55	44.47
502.72	37.45
502.90	67.88
503.07	56.17
503.25	35.11
503.43	39.79
503.60	140.43
503.78	56.17
503.95	95.96
504.13	51.49
504.30	74.90
504.48	119.37
504.65	81.92
504.83	88.94
505.01	49.15
505.18	28.09
505.36	88.94
505.53	95.96
505.71	98.30
505.88	133.41
506.06	95.96
506.23	35.11
506.41	53.83
506.58	147.45
506.76	105.32
506.93	65.54
507.11	88.94
507.28	152.13
507.46	56.17
507.63	128.73
507.81	51.49
507.98	100.64
508.16	112.35
508.33	63.19
508.50	37.45
508.68	56.17
508.85	124.05
509.03	46.81
509.20	114.69
509.38	56.17
509.55	72.56
509.73	93.62
509.90	65.54
510.08	65.54
510.25	77.24
510.42	46.81
510.60	56.17
510.77	42.13
510.95	114.69
511.12	70.22
511.30	53.83
511.47	84.26
511.64	95.96
511.82	63.19
511.99	49.15
512.17	63.19
512.34	81.92
512.51	93.62
512.69	72.56
512.86	145.11
513.04	18.72
513.21	49.15
513.38	72.56
513.56	135.75
513.73	14.04
513.90	49.15
514.08	93.62
514.25	117.03
514.43	77.24
514.60	77.24
514.77	72.56
514.95	72.56
515.12	81.92
515.29	105.32
515.47	46.81
515.64	18.72
515.81	35.11
515.99	100.64
516.16	135.75
516.33	39.79
516.51	53.83
516.68	105.32
516.85	37.45
517.03	56.17
517.20	49.15
517.37	72.56
517.54	28.09
517.72	63.19
517.89	128.73
518.06	70.22
518.24	95.96
518.41	124.05
518.58	149.79
518.75	91.28
518.93	32.77
519.10	93.62
519.27	72.56
519.45	51.49
519.62	46.81
519.79	79.58
519.96	77.24
520.14	140.43
520.31	121.71
520.48	11.70
520.65	114.69
520.83	32.77
521.00	131.07
521.17	67.88
521.34	105.32
521.52	77.24
521.69	135.75
521.86	189.58
522.03	131.07
522.20	25.75
522.38	79.58
522.55	46.81
522.72	74.90
522.89	63.19
523.07	175.54
523.24	56.17
523.41	105.32
523.58	138.09
523.75	98.30
523.92	112.35
524.10	105.32
524.27	93.62
524.44	18.72
524.61	93.62
524.78	131.07
524.96	112.35
525.13	114.69
525.30	23.41
525.47	16.38
525.64	128.73
525.81	117.03
525.98	152.13
526.16	65.54
526.33	70.22
526.50	107.66
526.67	91.28
526.84	131.07
527.01	117.03
527.18	114.69
527.36	46.81
527.53	163.84
527.70	37.45
527.87	128.73
528.04	0.00
528.21	28.09
528.38	65.54
528.55	131.07
528.72	56.17
528.89	182.56
529.07	14.04
529.24	51.49
529.41	56.17
529.58	46.81
529.75	88.94
529.92	91.28
530.09	63.19
530.26	60.85
530.43	53.83
530.60	98.30
530.77	124.05
530.94	102.98
531.11	91.28
531.28	95.96
531.46	135.75
531.63	23.41
531.80	46.81
531.97	86.60
532.14	74.90
532.31	37.45
532.48	84.26
532.65	16.38
532.82	138.09
532.99	107.66
533.16	147.45
533.33	65.54
533.50	67.88
533.67	126.39
533.84	102.98
534.01	84.26
534.18	74.90
534.35	32.77
534.52	37.45
534.69	51.49
534.86	91.28
535.03	95.96
535.20	74.90
535.37	53.83
535.54	105.32
535.71	58.51
535.88	4.68
536.05	63.19
536.22	98.30
536.38	112.35
536.55	0.00
536.72	117.03
536.89	126.39
537.06	98.30
537.23	44.47
537.40	95.96
537.57	42.13
537.74	91.28
537.91	42.13
538.08	93.62
538.25	46.81
538.42	117.03
538.59	18.72
538.75	79.58
538.92	145.11
539.09	72.56
539.26	86.60
539.43	105.32
539.60	100.64
539.77	84.26
539.94	46.81
540.11	88.94
540.28	65.54
540.44	42.13
540.61	88.94
540.78	112.35
540.95	84.26
541.12	53.83
541.29	37.45
541.46	133.41
541.62	67.88
541.79	91.28
541.96	149.79
542.13	135.75
542.30	98.30
542.47	140.43
542.63	58.51
542.80	72.56
542.97	51.49
543.14	159.16
543.31	112.35
543.48	72.56
543.64	142.77
543.81	65.54
543.98	56.17
544.15	126.39
544.32	65.54
544.48	95.96
544.65	91.28
544.82	117.03
544.99	51.49
545.16	88.94
545.32	58.51
545.49	51.49
545.66	65.54
545.83	63.19
546.00	93.62
546.16	63.19
546.33	91.28
546.50	79.58
546.67	81.92
546.83	119.37
547.00	135.75
547.17	51.49
547.34	4.68
547.50	110.01
547.67	70.22
547.84	93.62
548.00	110.01
548.17	72.56
548.34	86.60
548.51	159.16
548.67	35.11
548.84	67.88
549.01	147.45
549.18	77.24
549.34	70.22
549.51	93.62
549.68	100.64
549.84	51.49
550.01	81.92
550.18	46.81
550.34	91.28
550.51	98.30
550.68	72.56
550.84	149.79
551.01	145.11
551.18	117.03
551.34	117.03
551.51	84.26
551.68	149.79
551.84	86.60
552.01	60.85
552.18	110.01
552.34	70.22
552.51	77.24
552.68	30.43
552.84	56.17
553.01	63.19
553.18	91.28
553.34	112.35
553.51	102.98
553.67	119.37
553.84	133.41
554.01	147.45
554.17	93.62
554.34	81.92
554.51	114.69
554.67	88.94
554.84	74.90
555.00	170.86
555.17	86.60
555.33	44.47
555.50	84.26
555.67	107.66
555.83	35.11
556.00	98.30
556.16	126.39
556.33	65.54
556.50	58.51
556.66	98.30
556.83	191.92
556.99	74.90
557.16	16.38
557.32	117.03
557.49	205.97
557.65	114.69
557.82	100.64
557.98	91.28
558.15	58.51
558.32	131.07
558.48	63.19
558.65	39.79
558.81	53.83
558.98	84.26
559.14	93.62
559.31	100.64
559.47	140.43
559.64	98.30
559.80	7.02
559.97	184.90
560.13	168.52
560.30	95.96
560.46	7.02
560.63	163.84
560.79	63.19
560.96	88.94
561.12	110.01
561.29	117.03
561.45	53.83
561.61	42.13
561.78	100.64
561.94	119.37
562.11	86.60
562.27	67.88
562.44	42.13
562.60	49.15
562.77	81.92
562.93	21.06
563.10	93.62
563.26	46.81
563.42	102.98
563.59	70.22
563.75	93.62
563.92	60.85
564.08	131.07
564.24	88.94
564.41	93.62
564.57	49.15
564.74	44.47
564.90	42.13
565.07	138.09
565.23	133.41
565.39	81.92
565.56	119.37
565.72	72.56
565.88	72.56
566.05	88.94
566.21	79.58
566.38	49.15
566.54	77.24
566.70	93.62
566.87	126.39
567.03	72.56
567.19	37.45
567.36	117.03
567.52	11.70
567.68	117.03
567.85	147.45
568.01	95.96
568.17	32.77
568.34	93.62
568.50	70.22
568.66	65.54
568.83	88.94
568.99	105.32
569.15	152.13
569.32	74.90
569.48	39.79
569.64	60.85
569.81	30.43
569.97	110.01
570.13	117.03
570.30	63.19
570.46	191.92
570.62	60.85
570.78	7.02
570.95	70.22
571.11	77.24
571.27	154.48
571.43	117.03
571.60	135.75
571.76	95.96
571.92	88.94
572.09	98.30
572.25	117.03
572.41	119.37
572.57	4.68
572.74	77.24
572.90	81.92
573.06	65.54
573.22	93.62
573.38	121.71
573.55	60.85
573.71	77.24
573.87	0.00
574.03	112.35
574.20	102.98
574.36	28.09
574.52	70.22
574.68	70.22
574.84	74.90
575.01	39.79
575.17	142.77
575.33	112.35
575.49	79.58
575.65	72.56
575.82	49.15
575.98	110.01
576.14	84.26
576.30	110.01
576.46	88.94
576.62	138.09
576.79	42.13
576.95	67.88
577.11	98.30
577.27	131.07
577.43	0.00
577.59	51.49
577.75	126.39
577.92	11.70
578.08	56.17
578.24	93.62
578.40	124.05
578.56	121.71
578.72	84.26
578.88	79.58
579.04	58.51
579.21	86.60
579.37	98.30
579.53	72.56
579.69	65.54
579.85	72.56
580.01	124.05
580.17	95.96
580.33	51.49
580.49	35.11
580.65	100.64
580.82	70.22
580.98	37.45
581.14	77.24
581.30	74.90
581.46	28.09
581.62	30.43
581.78	159.16
581.94	56.17
582.10	67.88
582.26	100.64
582.42	21.06
582.58	67.88
582.74	60.85
582.90	133.41
583.06	79.58
583.22	70.22
583.38	81.92
583.54	53.83
583.70	135.75
583.86	102.98
584.02	79.58
584.18	98.30
584.34	70.22
584.50	70.22
584.66	79.58
584.82	170.86
584.98	53.83
585.14	121.71
585.30	14.04
585.46	67.88
585.62	77.24
585.78	112.35
585.94	86.60
586.10	110.01
586.26	63.19
586.42	44.47
586.58	107.66
586.74	74.90
586.90	154.48
587.06	79.58
587.22	56.17
587.38	44.47
587.54	93.62
587.70	100.64
587.86	53.83
588.02	107.66
588.18	91.28
588.34	58.51
588.49	51.49
588.65	79.58
588.81	112.35
588.97	49.15
589.13	88.94
589.29	23.41
589.45	88.94
589.61	53.83
589.77	56.17
589.93	0.00
590.08	9.36
590.24	67.88
590.40	67.88
590.56	9.36
590.72	32.77
590.88	53.83
591.04	11.70
591.20	49.15
591.35	35.11
591.51	102.98
591.67	105.32
591.83	44.47
591.99	110.01
592.15	63.19
592.31	39.79
592.46	67.88
592.62	102.98
592.78	168.52
592.94	67.88
593.10	67.88
593.26	51.49
593.41	124.05
593.57	84.26
593.73	72.56
593.89	100.64
594.05	74.90
594.20	81.92
594.36	58.51
594.52	128.73
594.68	58.51
594.84	79.58
594.99	77.24
595.15	51.49
595.31	49.15
595.47	88.94
595.62	81.92
595.78	58.51
595.94	42.13
596.10	70.22
596.25	39.79
596.41	86.60
596.57	58.51
596.73	65.54
596.88	133.41
597.04	88.94
597.20	49.15
597.36	16.38
597.51	65.54
597.67	60.85
597.83	51.49
597.99	0.00
598.14	81.92
598.30	0.00
598.46	44.47
598.61	51.49
598.77	152.13
598.93	51.49
599.09	58.51
599.24	91.28
599.40	0.00
599.56	60.85
599.71	131.07
599.87	117.03
600.03	138.09
600.18	65.54
600.34	14.04
600.50	42.13
600.65	49.15
600.81	81.92
600.97	98.30
601.12	145.11
601.28	67.88
601.44	37.45
601.59	100.64
601.75	81.92
601.91	35.11
602.06	86.60
602.22	60.85
602.37	124.05
602.53	46.81
602.69	117.03
602.84	4.68
603.00	39.79
603.16	95.96
603.31	147.45
603.47	79.58
603.62	86.60
603.78	81.92
603.94	117.03
604.09	0.00
604.25	30.43
604.40	44.47
604.56	53.83
604.71	91.28
604.87	77.24
605.03	28.09
605.18	91.28
605.34	32.77
605.49	84.26
605.65	0.00
605.80	25.75
605.96	102.98
606.12	107.66
606.27	51.49
606.43	58.51
606.58	60.85
606.74	65.54
606.89	112.35
607.05	77.24
607.20	86.60
607.36	145.11
607.51	102.98
607.67	77.24
607.82	56.17
607.98	44.47
608.13	37.45
608.29	32.77
608.44	42.13
608.60	124.05
608.75	46.81
608.91	88.94
609.06	126.39
609.22	91.28
609.37	35.11
609.53	70.22
609.68	37.45
609.84	95.96
609.99	98.30
610.15	42.13
610.30	81.92
610.46	72.56
610.61	93.62
610.76	67.88
610.92	128.73
611.07	79.58
611.23	39.79
611.38	112.35
611.54	128.73
611.69	72.56
611.84	56.17
612.00	131.07
612.15	46.81
612.31	128.73
612.46	30.43
612.62	86.60
612.77	42.13
612.92	98.30
613.08	119.37
613.23	81.92
613.39	49.15
613.54	86.60
613.69	70.22
613.85	63.19
614.00	35.11
614.15	35.11
614.31	11.70
614.46	51.49
614.62	102.98
614.77	44.47
614.92	23.41
615.08	142.77
615.23	21.06
615.38	88.94
615.54	14.04
615.69	51.49
615.84	0.00
616.00	93.62
616.15	21.06
616.30	79.58
616.46	70.22
616.61	46.81
616.76	67.88
616.92	18.72
617.07	51.49
617.22	65.54
617.37	77.24
617.53	74.90
617.68	114.69
617.83	159.16
617.99	44.47
618.14	0.00
618.29	30.43
618.45	37.45
618.60	32.77
618.75	81.92
618.90	11.70
619.06	170.86
619.21	102.98
619.36	23.41
619.51	65.54
619.67	107.66
619.82	42.13
619.97	117.03
620.12	70.22
620.28	60.85
620.43	72.56
620.58	14.04
620.73	44.47
620.89	56.17
621.04	37.45
621.19	100.64
621.34	114.69
621.49	56.17
621.65	95.96
621.80	2.34
621.95	86.60
622.10	42.13
622.25	91.28
622.41	0.00
622.56	58.51
622.71	42.13
622.86	60.85
623.01	84.26
623.16	32.77
623.32	23.41
623.47	131.07
623.62	53.83
623.77	65.54
623.92	49.15
624.07	53.83
624.23	49.15
624.38	77.24
624.53	128.73
624.68	124.05
624.83	53.83
624.98	84.26
625.13	70.22
625.29	105.32
625.44	86.60
625.59	46.81
625.74	25.75
625.89	98.30
626.04	39.79
626.19	0.00
626.34	58.51
626.49	126.39
626.65	25.75
626.80	11.70
626.95	25.75
627.10	65.54
627.25	56.17
627.40	102.98
627.55	77.24
627.70	58.51
627.85	102.98
628.00	28.09
628.15	86.60
628.30	77.24
628.45	35.11
628.60	56.17
628.76	72.56
628.91	51.49
629.06	35.11
629.21	74.90
629.36	138.09
629.51	93.62
629.66	81.92
629.81	72.56
629.96	9.36
630.11	37.45
630.26	86.60
630.41	88.94
630.56	70.22
630.71	84.26
630.86	35.11
631.01	16.38
631.16	58.51
631.31	0.00
631.46	0.00
631.61	14.04
631.76	67.88
631.91	53.83
632.06	30.43
632.21	161.50
632.36	102.98
632.51	70.22
632.66	72.56
632.81	16.38
632.96	84.26
633.10	128.73
633.25	79.58
633.40	49.15
633.55	131.07
633.70	53.83
633.85	49.15
634.00	88.94
634.15	28.09
634.30	42.13
634.45	81.92
634.60	53.83
634.75	128.73
634.90	77.24
635.05	39.79
635.19	56.17
635.34	77.24
635.49	7.02
635.64	9.36
635.79	63.19
635.94	63.19
636.09	42.13
636.24	107.66
636.39	142.77
636.53	105.32
636.68	74.90
636.83	86.60
636.98	39.79
637.13	56.17
637.28	56.17
637.43	74.90
637.57	63.19
637.72	72.56
637.87	98.30
638.02	74.90
638.17	32.77
638.32	23.41
638.46	51.49
638.61	11.70
638.76	30.43
638.91	14.04
639.06	9.36
639.20	60.85
639.35	37.45
639.50	46.81
639.65	42.13
639.80	44.47
639.94	53.83
640.09	32.77
640.24	16.38
640.39	72.56
640.54	4.68
640.68	28.09
640.83	100.64
640.98	79.58
641.13	0.00
641.27	65.54
641.42	58.51
641.57	95.96
641.72	49.15
641.86	72.56
642.01	14.04
642.16	53.83
642.31	84.26
642.45	46.81
642.60	18.72
642.75	86.60
642.90	124.05
643.04	21.06
643.19	91.28
643.34	67.88
643.48	46.81
643.63	119.37
643.78	65.54
643.93	63.19
644.07	0.00
644.22	23.41
644.37	35.11
644.51	77.24
644.66	39.79
644.81	67.88
644.95	74.90
645.10	0.00
645.25	11.70
645.39	124.05
645.54	39.79
645.69	0.00
645.83	70.22
645.98	84.26
646.13	30.43
646.27	58.51
646.42	102.98
646.57	128.73
646.71	93.62
646.86	81.92
647.00	93.62
647.15	84.26
647.30	56.17
647.44	39.79
647.59	46.81
647.74	65.54
647.88	105.32
648.03	25.75
648.17	95.96
648.32	79.58
648.47	46.81
648.61	91.28
648.76	39.79
648.90	98.30
649.05	74.90
649.20	107.66
649.34	14.04
649.49	121.71
649.63	21.06
649.78	0.00
649.92	65.54
650.07	77.24
650.21	112.35
650.36	65.54
650.51	107.66
650.65	100.64
650.80	95.96
650.94	81.92
651.09	16.38
651.23	91.28
651.38	79.58
651.52	23.41
651.67	32.77
651.81	51.49
651.96	114.69
652.10	114.69
652.25	79.58
652.39	0.00
652.54	93.62
652.68	39.79
652.83	39.79
652.97	95.96
653.12	44.47
653.26	84.26
653.41	0.00
653.55	0.00
653.70	30.43
653.84	9.36
653.99	18.72
654.13	100.64
654.27	63.19
654.42	46.81
654.56	114.69
654.71	0.00
654.85	117.03
655.00	58.51
655.14	67.88
655.29	81.92
655.43	25.75
655.57	25.75
655.72	72.56
655.86	42.13
656.01	121.71
656.15	60.85
656.30	79.58
656.44	46.81
656.58	0.00
656.73	23.41
656.87	79.58
657.01	112.35
657.16	56.17
657.30	30.43
657.45	86.60
657.59	110.01
657.73	65.54
657.88	0.00
658.02	0.00
658.16	72.56
658.31	58.51
658.45	7.02
658.60	0.00
658.74	18.72
658.88	35.11
659.03	56.17
659.17	21.06
659.31	9.36
659.46	56.17
659.60	42.13
659.74	32.77
659.89	65.54
660.03	0.00
660.17	14.04
660.32	67.88
660.46	100.64
660.60	49.15
660.74	21.06
660.89	42.13
661.03	84.26
661.17	11.70
661.32	28.09
661.46	58.51
661.60	30.43
661.74	21.06
661.89	81.92
662.03	0.00
662.17	100.64
662.31	21.06
662.46	65.54
662.60	2.34
662.74	60.85
662.88	51.49
663.03	30.43
663.17	16.38
663.31	7.02
663.45	35.11
663.60	105.32
663.74	70.22
663.88	44.47
664.02	39.79
664.17	0.00
664.31	11.70
664.45	67.88
664.59	147.45
664.73	74.90
664.88	53.83
665.02	0.00
665.16	72.56
665.30	9.36
665.44	0.00
665.59	56.17
665.73	65.54
665.87	53.83
666.01	58.51
666.15	72.56
666.29	60.85
666.44	88.94
666.58	49.15
666.72	11.70
666.86	0.00
667.00	60.85
667.14	79.58
667.28	107.66
667.43	28.09
667.57	30.43
667.71	56.17
667.85	46.81
667.99	86.60
668.13	84.26
668.27	46.81
668.41	70.22
668.56	9.36
668.70	60.85
668.84	77.24
668.98	35.11
669.12	4.68
669.26	112.35
669.40	0.00
669.54	88.94
669.68	21.06
669.82	7.02
669.96	0.00
670.10	0.00
670.25	53.83
670.39	44.47
670.53	86.60
670.67	35.11
670.81	4.68
670.95	14.04
671.09	37.45
671.23	51.49
671.37	0.00
671.51	25.75
671.65	49.15
671.79	11.70
671.93	133.41
672.07	77.24
672.21	0.00
672.35	11.70
672.49	39.79
672.63	21.06
672.77	42.13
672.91	56.17
673.05	81.92
673.19	77.24
673.33	81.92
673.47	44.47
673.61	23.41
673.75	42.13
673.89	74.90
674.03	14.04
674.17	23.41
674.31	14.04
674.45	39.79
674.59	147.45
674.73	0.00
674.87	65.54
675.01	42.13
675.15	49.15
675.29	91.28
675.43	70.22
675.56	65.54
675.70	9.36
675.84	56.17
675.98	74.90
676.12	100.64
676.26	0.00
676.40	81.92
676.54	46.81
676.68	21.06
676.82	84.26
676.96	0.00
677.10	28.09
677.23	79.58
677.37	79.58
677.51	14.04
677.65	81.92
677.79	18.72
677.93	11.70
678.07	30.43
678.21	70.22
678.34	67.88
678.48	0.00
678.62	70.22
678.76	56.17
678.90	77.24
679.04	51.49
679.18	67.88
679.31	23.41
679.45	98.30
679.59	25.75
679.73	0.00
679.87	42.13
680.00	65.54
680.14	72.56
680.28	18.72
680.42	0.00
680.56	74.90
680.70	51.49
680.83	107.66
680.97	28.09
681.11	60.85
681.25	67.88
681.39	21.06
681.52	102.98
681.66	7.02
681.80	0.00
681.94	14.04
682.07	107.66
682.21	77.24
682.35	37.45
682.49	0.00
682.62	11.70
682.76	56.17
682.90	32.77
683.04	0.00
683.17	51.49
683.31	46.81
683.45	42.13
683.59	159.16
683.72	0.00
683.86	16.38
684.00	14.04
684.13	51.49
684.27	79.58
684.41	9.36
684.55	23.41
684.68	0.00
684.82	21.06
684.96	63.19
685.09	18.72
685.23	0.00
685.37	14.04
685.50	67.88
685.64	81.92
685.78	0.00
685.91	9.36
686.05	74.90
686.19	18.72
686.32	58.51
686.46	51.49
686.60	18.72
686.73	70.22
686.87	63.19
687.01	37.45
687.14	25.75
687.28	18.72
687.42	126.39
687.55	30.43
687.69	46.81
687.82	32.77
687.96	32.77
688.10	42.13
688.23	28.09
688.37	37.45
688.50	102.98
688.64	44.47
688.78	107.66
688.91	133.41
689.05	124.05
689.18	11.70
689.32	65.54
689.46	35.11
689.59	30.43
689.73	21.06
689.86	0.00
690.00	131.07
690.13	18.72
690.27	0.00
690.41	56.17
690.54	7.02
690.68	74.90
690.81	37.45
690.95	53.83
691.08	21.06
691.22	0.00
691.35	112.35
691.49	30.43
691.62	42.13
691.76	67.88
691.89	0.00
692.03	16.38
692.16	21.06
692.30	102.98
692.43	63.19
692.57	37.45
692.70	98.30
692.84	35.11
692.97	63.19
693.11	0.00
693.24	21.06
693.38	39.79
693.51	0.00
693.65	35.11
693.78	37.45
693.92	58.51
694.05	7.02
694.19	56.17
694.32	74.90
694.45	25.75
694.59	0.00
694.72	32.77
694.86	65.54
694.99	25.75
695.13	21.06
695.26	42.13
695.39	18.72
695.53	112.35
695.66	14.04
695.80	35.11
695.93	131.07
696.07	16.38
696.20	18.72
696.33	39.79
696.47	16.38
696.60	0.00
696.73	14.04
696.87	0.00
697.00	25.75
697.14	11.70
697.27	0.00
697.40	70.22
697.54	84.26
697.67	86.60
697.80	81.92
697.94	18.72
698.07	0.00
698.21	42.13
698.34	93.62
698.47	18.72
698.61	4.68
698.74	98.30
698.87	28.09
699.01	35.11
699.14	49.15
699.27	53.83
699.40	72.56
699.54	11.70
699.67	0.00
699.80	14.04
699.94	0.00
700.07	30.43
700.20	16.38
700.34	30.43
700.47	42.13
700.60	2.34
700.73	0.00
700.87	14.04
701.00	53.83
701.13	44.47
701.26	0.00
701.40	0.00
701.53	60.85
701.66	102.98
701.79	0.00
701.93	44.47
702.06	23.41
702.19	70.22
702.32	53.83
702.46	0.00
702.59	138.09
702.72	60.85
702.85	58.51
702.99	23.41
703.12	30.43
703.25	53.83
703.38	35.11
703.51	56.17
703.65	37.45
703.78	46.81
703.91	49.15
704.04	44.47
704.17	25.75
704.31	30.43
704.44	32.77
704.57	49.15
704.70	67.88
704.83	0.00
704.96	9.36
705.10	16.38
705.23	14.04
>>>>>End Processed Spectral Data<<<<<
