SpectraSuite Data File
++++++++++++++++++++++++++++++++++++
Date: Fri Oct 04 12:13:25 GMT-05:00 2013
User: price-jones
Dark Spectrum Present: No
Reference Spectrum Present: No
Number of Sampled Component Spectra: 1
Spectrometers: USB2+H05261
Integration Time (usec): 10000 (USB2+H05261)
Spectra Averaged: 1 (USB2+H05261)
Boxcar Smoothing: 0 (USB2+H05261)
Correct for Electrical Dark: No (USB2+H05261)
Strobe/Lamp Enabled: No (USB2+H05261)
Correct for Detector Non-linearity: No (USB2+H05261)
Correct for Stray Light: No (USB2+H05261)
Number of Pixels in Processed Spectrum: 2048
>>>>>Begin Processed Spectral Data<<<<<
365.73	0.00
365.92	0.00
366.12	0.00
366.32	0.00
366.52	0.00
366.72	0.00
366.91	0.00
367.11	0.00
367.31	0.00
367.51	0.00
367.70	0.00
367.90	0.00
368.10	0.00
368.30	0.00
368.49	0.00
368.69	0.00
368.89	0.00
369.09	0.00
369.28	0.00
369.48	0.00
369.68	0.00
369.87	0.00
370.07	0.00
370.27	0.00
370.47	0.00
370.66	0.00
370.86	0.00
371.06	0.00
371.25	0.00
371.45	0.00
371.65	0.00
371.84	0.00
372.04	39.79
372.24	25.75
372.44	30.43
372.63	44.47
372.83	0.00
373.03	0.00
373.22	56.17
373.42	0.00
373.62	0.00
373.81	35.11
374.01	30.43
374.21	0.00
374.40	11.70
374.60	72.56
374.79	37.45
374.99	4.68
375.19	0.00
375.38	16.38
375.58	49.15
375.78	16.38
375.97	63.19
376.17	2.34
376.37	0.00
376.56	0.00
376.76	7.02
376.95	35.11
377.15	0.00
377.35	28.09
377.54	4.68
377.74	0.00
377.93	4.68
378.13	114.69
378.33	0.00
378.52	51.49
378.72	37.45
378.91	4.68
379.11	0.00
379.31	58.51
379.50	18.72
379.70	0.00
379.89	0.00
380.09	0.00
380.28	42.13
380.48	16.38
380.68	37.45
380.87	107.66
381.07	37.45
381.26	28.09
381.46	16.38
381.65	28.09
381.85	58.51
382.04	16.38
382.24	18.72
382.43	46.81
382.63	18.72
382.83	67.88
383.02	37.45
383.22	0.00
383.41	9.36
383.61	30.43
383.80	0.00
384.00	18.72
384.19	28.09
384.39	0.00
384.58	32.77
384.78	0.00
384.97	25.75
385.17	49.15
385.36	37.45
385.56	16.38
385.75	0.00
385.95	53.83
386.14	18.72
386.34	49.15
386.53	49.15
386.72	30.43
386.92	44.47
387.11	70.22
387.31	9.36
387.50	0.00
387.70	0.00
387.89	51.49
388.09	25.75
388.28	44.47
388.48	11.70
388.67	7.02
388.86	2.34
389.06	37.45
389.25	70.22
389.45	44.47
389.64	49.15
389.84	0.00
390.03	0.00
390.22	72.56
390.42	81.92
390.61	35.11
390.81	7.02
391.00	0.00
391.19	11.70
391.39	30.43
391.58	30.43
391.78	0.00
391.97	0.00
392.16	65.54
392.36	30.43
392.55	0.00
392.75	0.00
392.94	16.38
393.13	9.36
393.33	28.09
393.52	25.75
393.71	49.15
393.91	21.06
394.10	49.15
394.29	32.77
394.49	46.81
394.68	0.00
394.88	14.04
395.07	18.72
395.26	32.77
395.46	51.49
395.65	0.00
395.84	0.00
396.04	0.00
396.23	0.00
396.42	42.13
396.62	2.34
396.81	4.68
397.00	9.36
397.19	46.81
397.39	58.51
397.58	4.68
397.77	21.06
397.97	16.38
398.16	49.15
398.35	0.00
398.55	11.70
398.74	35.11
398.93	25.75
399.12	25.75
399.32	63.19
399.51	0.00
399.70	53.83
399.90	9.36
400.09	0.00
400.28	77.24
400.47	46.81
400.67	53.83
400.86	0.00
401.05	37.45
401.24	30.43
401.44	112.35
401.63	44.47
401.82	23.41
402.01	0.00
402.21	4.68
402.40	58.51
402.59	0.00
402.78	0.00
402.97	0.00
403.17	11.70
403.36	117.03
403.55	18.72
403.74	0.00
403.93	0.00
404.13	70.22
404.32	0.00
404.51	18.72
404.70	0.00
404.89	32.77
405.09	44.47
405.28	86.60
405.47	53.83
405.66	39.79
405.85	0.00
406.05	93.62
406.24	58.51
406.43	72.56
406.62	49.15
406.81	23.41
407.00	51.49
407.20	16.38
407.39	51.49
407.58	18.72
407.77	81.92
407.96	60.85
408.15	56.17
408.34	46.81
408.54	0.00
408.73	37.45
408.92	21.06
409.11	0.00
409.30	18.72
409.49	0.00
409.68	39.79
409.87	4.68
410.07	117.03
410.26	44.47
410.45	30.43
410.64	25.75
410.83	18.72
411.02	21.06
411.21	7.02
411.40	0.00
411.59	74.90
411.78	9.36
411.98	105.32
412.17	0.00
412.36	23.41
412.55	16.38
412.74	46.81
412.93	25.75
413.12	39.79
413.31	25.75
413.50	23.41
413.69	0.00
413.88	37.45
414.07	147.45
414.26	51.49
414.45	23.41
414.64	0.00
414.83	18.72
415.02	7.02
415.22	25.75
415.41	56.17
415.60	44.47
415.79	37.45
415.98	9.36
416.17	110.01
416.36	107.66
416.55	70.22
416.74	21.06
416.93	44.47
417.12	60.85
417.31	51.49
417.50	30.43
417.69	77.24
417.88	2.34
418.07	37.45
418.26	32.77
418.45	0.00
418.64	25.75
418.83	0.00
419.02	35.11
419.21	39.79
419.39	9.36
419.58	23.41
419.77	18.72
419.96	63.19
420.15	51.49
420.34	32.77
420.53	21.06
420.72	0.00
420.91	72.56
421.10	56.17
421.29	86.60
421.48	0.00
421.67	11.70
421.86	28.09
422.05	11.70
422.24	16.38
422.43	79.58
422.61	14.04
422.80	39.79
422.99	74.90
423.18	35.11
423.37	70.22
423.56	44.47
423.75	0.00
423.94	30.43
424.13	0.00
424.32	39.79
424.50	32.77
424.69	30.43
424.88	70.22
425.07	39.79
425.26	53.83
425.45	110.01
425.64	121.71
425.83	67.88
426.01	0.00
426.20	44.47
426.39	60.85
426.58	0.00
426.77	16.38
426.96	72.56
427.15	86.60
427.33	0.00
427.52	46.81
427.71	16.38
427.90	88.94
428.09	72.56
428.28	7.02
428.46	0.00
428.65	58.51
428.84	32.77
429.03	0.00
429.22	42.13
429.40	11.70
429.59	30.43
429.78	79.58
429.97	9.36
430.16	79.58
430.34	0.00
430.53	39.79
430.72	25.75
430.91	46.81
431.10	0.00
431.28	16.38
431.47	49.15
431.66	28.09
431.85	63.19
432.03	60.85
432.22	44.47
432.41	25.75
432.60	14.04
432.79	70.22
432.97	0.00
433.16	53.83
433.35	51.49
433.54	21.06
433.72	30.43
433.91	0.00
434.10	67.88
434.28	0.00
434.47	0.00
434.66	0.00
434.85	53.83
435.03	0.00
435.22	0.00
435.41	0.00
435.59	42.13
435.78	58.51
435.97	70.22
436.16	49.15
436.34	23.41
436.53	86.60
436.72	21.06
436.90	0.00
437.09	49.15
437.28	21.06
437.46	126.39
437.65	93.62
437.84	58.51
438.02	0.00
438.21	70.22
438.40	56.17
438.58	56.17
438.77	30.43
438.96	0.00
439.14	58.51
439.33	23.41
439.52	0.00
439.70	23.41
439.89	79.58
440.08	0.00
440.26	65.54
440.45	49.15
440.63	53.83
440.82	112.35
441.01	28.09
441.19	25.75
441.38	0.00
441.57	9.36
441.75	30.43
441.94	30.43
442.12	25.75
442.31	51.49
442.50	0.00
442.68	16.38
442.87	67.88
443.05	32.77
443.24	11.70
443.43	25.75
443.61	30.43
443.80	7.02
443.98	0.00
444.17	9.36
444.35	30.43
444.54	49.15
444.73	0.00
444.91	35.11
445.10	53.83
445.28	42.13
445.47	37.45
445.65	9.36
445.84	11.70
446.02	63.19
446.21	0.00
446.39	0.00
446.58	0.00
446.77	11.70
446.95	2.34
447.14	95.96
447.32	0.00
447.51	67.88
447.69	35.11
447.88	105.32
448.06	0.00
448.25	79.58
448.43	81.92
448.62	0.00
448.80	70.22
448.99	0.00
449.17	0.00
449.36	21.06
449.54	39.79
449.73	0.00
449.91	0.00
450.10	28.09
450.28	0.00
450.46	79.58
450.65	70.22
450.83	4.68
451.02	135.75
451.20	0.00
451.39	65.54
451.57	23.41
451.76	2.34
451.94	25.75
452.13	0.00
452.31	37.45
452.49	32.77
452.68	44.47
452.86	79.58
453.05	18.72
453.23	63.19
453.42	42.13
453.60	46.81
453.78	95.96
453.97	67.88
454.15	25.75
454.34	0.00
454.52	25.75
454.70	9.36
454.89	0.00
455.07	0.00
455.26	16.38
455.44	18.72
455.62	42.13
455.81	2.34
455.99	9.36
456.17	65.54
456.36	74.90
456.54	32.77
456.73	0.00
456.91	65.54
457.09	28.09
457.28	42.13
457.46	9.36
457.64	46.81
457.83	16.38
458.01	25.75
458.19	49.15
458.38	21.06
458.56	0.00
458.74	0.00
458.93	51.49
459.11	67.88
459.29	7.02
459.48	30.43
459.66	70.22
459.84	23.41
460.03	39.79
460.21	51.49
460.39	42.13
460.57	37.45
460.76	16.38
460.94	0.00
461.12	0.00
461.31	46.81
461.49	56.17
461.67	0.00
461.85	39.79
462.04	0.00
462.22	86.60
462.40	67.88
462.59	79.58
462.77	65.54
462.95	16.38
463.13	0.00
463.32	49.15
463.50	25.75
463.68	9.36
463.86	32.77
464.05	14.04
464.23	105.32
464.41	56.17
464.59	100.64
464.78	67.88
464.96	0.00
465.14	0.00
465.32	2.34
465.50	42.13
465.69	9.36
465.87	74.90
466.05	18.72
466.23	21.06
466.41	7.02
466.60	42.13
466.78	58.51
466.96	0.00
467.14	46.81
467.32	46.81
467.51	14.04
467.69	0.00
467.87	53.83
468.05	74.90
468.23	98.30
468.41	39.79
468.60	63.19
468.78	42.13
468.96	46.81
469.14	0.00
469.32	49.15
469.50	25.75
469.69	23.41
469.87	39.79
470.05	39.79
470.23	0.00
470.41	11.70
470.59	0.00
470.77	46.81
470.95	46.81
471.14	32.77
471.32	0.00
471.50	44.47
471.68	7.02
471.86	56.17
472.04	4.68
472.22	32.77
472.40	0.00
472.58	46.81
472.77	67.88
472.95	30.43
473.13	37.45
473.31	72.56
473.49	53.83
473.67	30.43
473.85	28.09
474.03	23.41
474.21	84.26
474.39	44.47
474.57	88.94
474.75	58.51
474.93	51.49
475.12	0.00
475.30	7.02
475.48	46.81
475.66	0.00
475.84	72.56
476.02	72.56
476.20	72.56
476.38	102.98
476.56	56.17
476.74	51.49
476.92	16.38
477.10	42.13
477.28	14.04
477.46	56.17
477.64	98.30
477.82	32.77
478.00	4.68
478.18	56.17
478.36	32.77
478.54	35.11
478.72	44.47
478.90	0.00
479.08	51.49
479.26	67.88
479.44	0.00
479.62	46.81
479.80	58.51
479.98	16.38
480.16	42.13
480.34	58.51
480.52	84.26
480.70	39.79
480.88	98.30
481.06	0.00
481.24	23.41
481.41	86.60
481.59	30.43
481.77	46.81
481.95	51.49
482.13	0.00
482.31	0.00
482.49	21.06
482.67	37.45
482.85	88.94
483.03	0.00
483.21	77.24
483.39	14.04
483.57	7.02
483.74	58.51
483.92	46.81
484.10	56.17
484.28	95.96
484.46	70.22
484.64	9.36
484.82	51.49
485.00	86.60
485.18	11.70
485.35	86.60
485.53	35.11
485.71	21.06
485.89	0.00
486.07	0.00
486.25	58.51
486.43	46.81
486.61	25.75
486.78	21.06
486.96	30.43
487.14	70.22
487.32	81.92
487.50	0.00
487.68	51.49
487.85	23.41
488.03	0.00
488.21	0.00
488.39	37.45
488.57	30.43
488.75	25.75
488.92	51.49
489.10	0.00
489.28	70.22
489.46	30.43
489.64	105.32
489.81	0.00
489.99	0.00
490.17	32.77
490.35	81.92
490.53	49.15
490.70	0.00
490.88	18.72
491.06	37.45
491.24	56.17
491.41	70.22
491.59	56.17
491.77	51.49
491.95	0.00
492.13	42.13
492.30	114.69
492.48	25.75
492.66	14.04
492.84	35.11
493.01	65.54
493.19	63.19
493.37	70.22
493.54	30.43
493.72	72.56
493.90	18.72
494.08	0.00
494.25	0.00
494.43	2.34
494.61	86.60
494.79	0.00
494.96	39.79
495.14	93.62
495.32	72.56
495.49	35.11
495.67	79.58
495.85	23.41
496.02	7.02
496.20	67.88
496.38	2.34
496.55	72.56
496.73	23.41
496.91	16.38
497.09	46.81
497.26	0.00
497.44	0.00
497.62	67.88
497.79	37.45
497.97	0.00
498.14	79.58
498.32	0.00
498.50	14.04
498.67	11.70
498.85	49.15
499.03	39.79
499.20	0.00
499.38	39.79
499.56	74.90
499.73	23.41
499.91	23.41
500.08	58.51
500.26	81.92
500.44	7.02
500.61	95.96
500.79	128.73
500.97	105.32
501.14	138.09
501.32	67.88
501.49	2.34
501.67	39.79
501.84	0.00
502.02	39.79
502.20	77.24
502.37	16.38
502.55	128.73
502.72	7.02
502.90	0.00
503.07	39.79
503.25	21.06
503.43	32.77
503.60	0.00
503.78	110.01
503.95	84.26
504.13	107.66
504.30	30.43
504.48	81.92
504.65	30.43
504.83	28.09
505.01	21.06
505.18	37.45
505.36	67.88
505.53	28.09
505.71	0.00
505.88	7.02
506.06	0.00
506.23	53.83
506.41	0.00
506.58	35.11
506.76	0.00
506.93	0.00
507.11	46.81
507.28	0.00
507.46	53.83
507.63	86.60
507.81	49.15
507.98	0.00
508.16	11.70
508.33	4.68
508.50	0.00
508.68	49.15
508.85	39.79
509.03	16.38
509.20	0.00
509.38	18.72
509.55	79.58
509.73	44.47
509.90	60.85
510.08	49.15
510.25	60.85
510.42	18.72
510.60	44.47
510.77	28.09
510.95	77.24
511.12	30.43
511.30	35.11
511.47	11.70
511.64	0.00
511.82	35.11
511.99	72.56
512.17	23.41
512.34	25.75
512.51	32.77
512.69	42.13
512.86	18.72
513.04	28.09
513.21	37.45
513.38	84.26
513.56	28.09
513.73	0.00
513.90	25.75
514.08	14.04
514.25	44.47
514.43	42.13
514.60	133.41
514.77	63.19
514.95	23.41
515.12	11.70
515.29	56.17
515.47	60.85
515.64	42.13
515.81	11.70
515.99	117.03
516.16	35.11
516.33	77.24
516.51	39.79
516.68	30.43
516.85	84.26
517.03	11.70
517.20	0.00
517.37	0.00
517.54	18.72
517.72	0.00
517.89	32.77
518.06	37.45
518.24	21.06
518.41	77.24
518.58	35.11
518.75	21.06
518.93	9.36
519.10	51.49
519.27	56.17
519.45	37.45
519.62	11.70
519.79	51.49
519.96	102.98
520.14	0.00
520.31	9.36
520.48	4.68
520.65	0.00
520.83	23.41
521.00	25.75
521.17	72.56
521.34	65.54
521.52	39.79
521.69	102.98
521.86	0.00
522.03	32.77
522.20	16.38
522.38	56.17
522.55	37.45
522.72	63.19
522.89	0.00
523.07	32.77
523.24	30.43
523.41	91.28
523.58	37.45
523.75	39.79
523.92	93.62
524.10	65.54
524.27	11.70
524.44	145.11
524.61	39.79
524.78	0.00
524.96	53.83
525.13	37.45
525.30	14.04
525.47	77.24
525.64	81.92
525.81	21.06
525.98	0.00
526.16	91.28
526.33	88.94
526.50	42.13
526.67	53.83
526.84	32.77
527.01	25.75
527.18	35.11
527.36	0.00
527.53	0.00
527.70	35.11
527.87	56.17
528.04	74.90
528.21	28.09
528.38	79.58
528.55	14.04
528.72	32.77
528.89	67.88
529.07	67.88
529.24	7.02
529.41	16.38
529.58	42.13
529.75	9.36
529.92	74.90
530.09	35.11
530.26	35.11
530.43	58.51
530.60	37.45
530.77	30.43
530.94	102.98
531.11	112.35
531.28	49.15
531.46	0.00
531.63	53.83
531.80	0.00
531.97	11.70
532.14	4.68
532.31	9.36
532.48	58.51
532.65	79.58
532.82	86.60
532.99	77.24
533.16	53.83
533.33	21.06
533.50	100.64
533.67	11.70
533.84	39.79
534.01	58.51
534.18	25.75
534.35	67.88
534.52	14.04
534.69	7.02
534.86	0.00
535.03	74.90
535.20	0.00
535.37	21.06
535.54	39.79
535.71	25.75
535.88	88.94
536.05	35.11
536.22	72.56
536.38	11.70
536.55	46.81
536.72	35.11
536.89	46.81
537.06	32.77
537.23	21.06
537.40	86.60
537.57	42.13
537.74	11.70
537.91	95.96
538.08	70.22
538.25	60.85
538.42	72.56
538.59	30.43
538.75	63.19
538.92	58.51
539.09	67.88
539.26	93.62
539.43	65.54
539.60	49.15
539.77	44.47
539.94	98.30
540.11	32.77
540.28	2.34
540.44	93.62
540.61	58.51
540.78	16.38
540.95	67.88
541.12	16.38
541.29	42.13
541.46	25.75
541.62	0.00
541.79	0.00
541.96	28.09
542.13	23.41
542.30	2.34
542.47	79.58
542.63	0.00
542.80	65.54
542.97	28.09
543.14	39.79
543.31	84.26
543.48	53.83
543.64	32.77
543.81	65.54
543.98	0.00
544.15	53.83
544.32	65.54
544.48	51.49
544.65	0.00
544.82	112.35
544.99	51.49
545.16	56.17
545.32	60.85
545.49	44.47
545.66	51.49
545.83	30.43
546.00	93.62
546.16	21.06
546.33	53.83
546.50	124.05
546.67	25.75
546.83	49.15
547.00	37.45
547.17	65.54
547.34	49.15
547.50	88.94
547.67	128.73
547.84	58.51
548.00	0.00
548.17	65.54
548.34	16.38
548.51	95.96
548.67	131.07
548.84	11.70
549.01	25.75
549.18	16.38
549.34	56.17
549.51	46.81
549.68	21.06
549.84	65.54
550.01	18.72
550.18	74.90
550.34	21.06
550.51	51.49
550.68	67.88
550.84	0.00
551.01	28.09
551.18	0.00
551.34	81.92
551.51	35.11
551.68	67.88
551.84	28.09
552.01	46.81
552.18	2.34
552.34	9.36
552.51	4.68
552.68	35.11
552.84	37.45
553.01	32.77
553.18	23.41
553.34	53.83
553.51	0.00
553.67	0.00
553.84	72.56
554.01	0.00
554.17	51.49
554.34	65.54
554.51	49.15
554.67	112.35
554.84	72.56
555.00	0.00
555.17	28.09
555.33	2.34
555.50	16.38
555.67	91.28
555.83	74.90
556.00	51.49
556.16	4.68
556.33	0.00
556.50	35.11
556.66	53.83
556.83	9.36
556.99	51.49
557.16	30.43
557.32	100.64
557.49	37.45
557.65	11.70
557.82	39.79
557.98	0.00
558.15	51.49
558.32	21.06
558.48	51.49
558.65	0.00
558.81	93.62
558.98	51.49
559.14	32.77
559.31	72.56
559.47	35.11
559.64	67.88
559.80	0.00
559.97	16.38
560.13	0.00
560.30	0.00
560.46	21.06
560.63	21.06
560.79	28.09
560.96	18.72
561.12	74.90
561.29	81.92
561.45	30.43
561.61	0.00
561.78	25.75
561.94	7.02
562.11	107.66
562.27	86.60
562.44	58.51
562.60	74.90
562.77	0.00
562.93	58.51
563.10	21.06
563.26	9.36
563.42	46.81
563.59	0.00
563.75	35.11
563.92	25.75
564.08	0.00
564.24	0.00
564.41	46.81
564.57	0.00
564.74	32.77
564.90	53.83
565.07	112.35
565.23	18.72
565.39	14.04
565.56	39.79
565.72	63.19
565.88	72.56
566.05	2.34
566.21	0.00
566.38	0.00
566.54	37.45
566.70	112.35
566.87	16.38
567.03	32.77
567.19	58.51
567.36	0.00
567.52	46.81
567.68	0.00
567.85	11.70
568.01	0.00
568.17	39.79
568.34	0.00
568.50	42.13
568.66	9.36
568.83	35.11
568.99	0.00
569.15	35.11
569.32	2.34
569.48	18.72
569.64	9.36
569.81	0.00
569.97	0.00
570.13	67.88
570.30	56.17
570.46	98.30
570.62	56.17
570.78	56.17
570.95	0.00
571.11	49.15
571.27	39.79
571.43	133.41
571.60	60.85
571.76	37.45
571.92	70.22
572.09	95.96
572.25	30.43
572.41	39.79
572.57	67.88
572.74	44.47
572.90	32.77
573.06	37.45
573.22	46.81
573.38	46.81
573.55	0.00
573.71	0.00
573.87	9.36
574.03	7.02
574.20	0.00
574.36	23.41
574.52	77.24
574.68	0.00
574.84	63.19
575.01	21.06
575.17	51.49
575.33	0.00
575.49	42.13
575.65	42.13
575.82	110.01
575.98	16.38
576.14	58.51
576.30	79.58
576.46	18.72
576.62	56.17
576.79	21.06
576.95	32.77
577.11	44.47
577.27	4.68
577.43	77.24
577.59	35.11
577.75	0.00
577.92	23.41
578.08	77.24
578.24	74.90
578.40	58.51
578.56	9.36
578.72	46.81
578.88	32.77
579.04	65.54
579.21	0.00
579.37	42.13
579.53	65.54
579.69	53.83
579.85	0.00
580.01	21.06
580.17	0.00
580.33	65.54
580.49	77.24
580.65	9.36
580.82	0.00
580.98	58.51
581.14	4.68
581.30	39.79
581.46	9.36
581.62	14.04
581.78	0.00
581.94	49.15
582.10	70.22
582.26	53.83
582.42	0.00
582.58	9.36
582.74	23.41
582.90	77.24
583.06	0.00
583.22	42.13
583.38	2.34
583.54	58.51
583.70	56.17
583.86	63.19
584.02	30.43
584.18	23.41
584.34	51.49
584.50	100.64
584.66	74.90
584.82	65.54
584.98	32.77
585.14	46.81
585.30	72.56
585.46	51.49
585.62	70.22
585.78	105.32
585.94	49.15
586.10	56.17
586.26	46.81
586.42	95.96
586.58	28.09
586.74	25.75
586.90	9.36
587.06	39.79
587.22	23.41
587.38	21.06
587.54	74.90
587.70	79.58
587.86	100.64
588.02	0.00
588.18	30.43
588.34	2.34
588.49	74.90
588.65	86.60
588.81	42.13
588.97	58.51
589.13	46.81
589.29	9.36
589.45	81.92
589.61	49.15
589.77	39.79
589.93	0.00
590.08	65.54
590.24	0.00
590.40	21.06
590.56	53.83
590.72	60.85
590.88	81.92
591.04	21.06
591.20	72.56
591.35	93.62
591.51	4.68
591.67	0.00
591.83	39.79
591.99	39.79
592.15	0.00
592.31	0.00
592.46	0.00
592.62	65.54
592.78	49.15
592.94	21.06
593.10	44.47
593.26	86.60
593.41	95.96
593.57	28.09
593.73	74.90
593.89	95.96
594.05	58.51
594.20	0.00
594.36	11.70
594.52	0.00
594.68	37.45
594.84	86.60
594.99	35.11
595.15	4.68
595.31	18.72
595.47	4.68
595.62	9.36
595.78	44.47
595.94	95.96
596.10	81.92
596.25	0.00
596.41	49.15
596.57	110.01
596.73	86.60
596.88	0.00
597.04	25.75
597.20	30.43
597.36	0.00
597.51	37.45
597.67	9.36
597.83	107.66
597.99	95.96
598.14	32.77
598.30	0.00
598.46	42.13
598.61	35.11
598.77	56.17
598.93	53.83
599.09	100.64
599.24	84.26
599.40	51.49
599.56	0.00
599.71	0.00
599.87	53.83
600.03	9.36
600.18	0.00
600.34	14.04
600.50	16.38
600.65	23.41
600.81	21.06
600.97	91.28
601.12	117.03
601.28	46.81
601.44	0.00
601.59	9.36
601.75	11.70
601.91	98.30
602.06	46.81
602.22	44.47
602.37	4.68
602.53	18.72
602.69	0.00
602.84	88.94
603.00	84.26
603.16	32.77
603.31	0.00
603.47	18.72
603.62	46.81
603.78	35.11
603.94	49.15
604.09	56.17
604.25	56.17
604.40	0.00
604.56	60.85
604.71	49.15
604.87	2.34
605.03	53.83
605.18	0.00
605.34	84.26
605.49	42.13
605.65	21.06
605.80	0.00
605.96	95.96
606.12	65.54
606.27	14.04
606.43	39.79
606.58	0.00
606.74	81.92
606.89	56.17
607.05	21.06
607.20	0.00
607.36	49.15
607.51	18.72
607.67	60.85
607.82	0.00
607.98	14.04
608.13	0.00
608.29	32.77
608.44	53.83
608.60	42.13
608.75	65.54
608.91	46.81
609.06	65.54
609.22	0.00
609.37	51.49
609.53	44.47
609.68	74.90
609.84	23.41
609.99	30.43
610.15	107.66
610.30	0.00
610.46	51.49
610.61	46.81
610.76	0.00
610.92	107.66
611.07	42.13
611.23	0.00
611.38	44.47
611.54	32.77
611.69	63.19
611.84	112.35
612.00	51.49
612.15	93.62
612.31	67.88
612.46	91.28
612.62	23.41
612.77	58.51
612.92	84.26
613.08	102.98
613.23	30.43
613.39	16.38
613.54	25.75
613.69	56.17
613.85	9.36
614.00	0.00
614.15	0.00
614.31	7.02
614.46	177.88
614.62	91.28
614.77	0.00
614.92	25.75
615.08	0.00
615.23	0.00
615.38	37.45
615.54	11.70
615.69	77.24
615.84	58.51
616.00	81.92
616.15	51.49
616.30	60.85
616.46	49.15
616.61	51.49
616.76	46.81
616.92	37.45
617.07	70.22
617.22	35.11
617.37	35.11
617.53	60.85
617.68	81.92
617.83	37.45
617.99	11.70
618.14	84.26
618.29	49.15
618.45	0.00
618.60	18.72
618.75	51.49
618.90	105.32
619.06	39.79
619.21	81.92
619.36	77.24
619.51	91.28
619.67	0.00
619.82	16.38
619.97	98.30
620.12	65.54
620.28	0.00
620.43	46.81
620.58	0.00
620.73	37.45
620.89	28.09
621.04	93.62
621.19	7.02
621.34	110.01
621.49	98.30
621.65	79.58
621.80	18.72
621.95	11.70
622.10	74.90
622.25	58.51
622.41	2.34
622.56	42.13
622.71	28.09
622.86	0.00
623.01	0.00
623.16	42.13
623.32	18.72
623.47	0.00
623.62	0.00
623.77	0.00
623.92	49.15
624.07	42.13
624.23	0.00
624.38	44.47
624.53	0.00
624.68	4.68
624.83	60.85
624.98	0.00
625.13	14.04
625.29	0.00
625.44	37.45
625.59	0.00
625.74	16.38
625.89	65.54
626.04	30.43
626.19	4.68
626.34	81.92
626.49	84.26
626.65	44.47
626.80	58.51
626.95	14.04
627.10	23.41
627.25	105.32
627.40	0.00
627.55	0.00
627.70	86.60
627.85	0.00
628.00	7.02
628.15	2.34
628.30	102.98
628.45	58.51
628.60	16.38
628.76	35.11
628.91	60.85
629.06	23.41
629.21	21.06
629.36	35.11
629.51	39.79
629.66	37.45
629.81	4.68
629.96	0.00
630.11	14.04
630.26	65.54
630.41	2.34
630.56	81.92
630.71	67.88
630.86	0.00
631.01	84.26
631.16	65.54
631.31	53.83
631.46	35.11
631.61	84.26
631.76	25.75
631.91	53.83
632.06	46.81
632.21	86.60
632.36	32.77
632.51	53.83
632.66	7.02
632.81	32.77
632.96	2.34
633.10	74.90
633.25	21.06
633.40	11.70
633.55	42.13
633.70	4.68
633.85	84.26
634.00	21.06
634.15	32.77
634.30	46.81
634.45	0.00
634.60	60.85
634.75	39.79
634.90	56.17
635.05	0.00
635.19	46.81
635.34	95.96
635.49	18.72
635.64	0.00
635.79	2.34
635.94	63.19
636.09	4.68
636.24	51.49
636.39	0.00
636.53	2.34
636.68	28.09
636.83	23.41
636.98	35.11
637.13	0.00
637.28	7.02
637.43	81.92
637.57	7.02
637.72	30.43
637.87	11.70
638.02	4.68
638.17	18.72
638.32	49.15
638.46	23.41
638.61	133.41
638.76	95.96
638.91	53.83
639.06	28.09
639.20	28.09
639.35	23.41
639.50	11.70
639.65	18.72
639.80	28.09
639.94	35.11
640.09	39.79
640.24	42.13
640.39	0.00
640.54	25.75
640.68	9.36
640.83	9.36
640.98	30.43
641.13	11.70
641.27	0.00
641.42	35.11
641.57	18.72
641.72	9.36
641.86	16.38
642.01	44.47
642.16	53.83
642.31	63.19
642.45	23.41
642.60	72.56
642.75	100.64
642.90	107.66
643.04	23.41
643.19	42.13
643.34	18.72
643.48	32.77
643.63	91.28
643.78	86.60
643.93	105.32
644.07	86.60
644.22	0.00
644.37	0.00
644.51	49.15
644.66	84.26
644.81	65.54
644.95	18.72
645.10	0.00
645.25	37.45
645.39	11.70
645.54	44.47
645.69	56.17
645.83	0.00
645.98	81.92
646.13	9.36
646.27	21.06
646.42	51.49
646.57	4.68
646.71	25.75
646.86	0.00
647.00	93.62
647.15	11.70
647.30	37.45
647.44	72.56
647.59	63.19
647.74	32.77
647.88	0.00
648.03	0.00
648.17	107.66
648.32	63.19
648.47	37.45
648.61	30.43
648.76	51.49
648.90	86.60
649.05	65.54
649.20	0.00
649.34	0.00
649.49	28.09
649.63	72.56
649.78	74.90
649.92	0.00
650.07	79.58
650.21	14.04
650.36	7.02
650.51	0.00
650.65	117.03
650.80	46.81
650.94	37.45
651.09	60.85
651.23	28.09
651.38	60.85
651.52	56.17
651.67	128.73
651.81	35.11
651.96	2.34
652.10	91.28
652.25	9.36
652.39	0.00
652.54	0.00
652.68	21.06
652.83	51.49
652.97	119.37
653.12	88.94
653.26	0.00
653.41	37.45
653.55	0.00
653.70	74.90
653.84	88.94
653.99	42.13
654.13	67.88
654.27	0.00
654.42	23.41
654.56	53.83
654.71	35.11
654.85	95.96
655.00	4.68
655.14	16.38
655.29	91.28
655.43	58.51
655.57	0.00
655.72	49.15
655.86	86.60
656.01	42.13
656.15	18.72
656.30	51.49
656.44	9.36
656.58	0.00
656.73	70.22
656.87	30.43
657.01	0.00
657.16	0.00
657.30	32.77
657.45	32.77
657.59	79.58
657.73	70.22
657.88	91.28
658.02	25.75
658.16	60.85
658.31	60.85
658.45	46.81
658.60	0.00
658.74	32.77
658.88	18.72
659.03	21.06
659.17	79.58
659.31	51.49
659.46	74.90
659.60	32.77
659.74	0.00
659.89	4.68
660.03	0.00
660.17	67.88
660.32	44.47
660.46	0.00
660.60	46.81
660.74	46.81
660.89	32.77
661.03	30.43
661.17	58.51
661.32	88.94
661.46	28.09
661.60	81.92
661.74	46.81
661.89	0.00
662.03	0.00
662.17	53.83
662.31	0.00
662.46	102.98
662.60	65.54
662.74	60.85
662.88	35.11
663.03	39.79
663.17	25.75
663.31	58.51
663.45	0.00
663.60	0.00
663.74	63.19
663.88	0.00
664.02	51.49
664.17	65.54
664.31	72.56
664.45	63.19
664.59	53.83
664.73	51.49
664.88	46.81
665.02	0.00
665.16	25.75
665.30	18.72
665.44	30.43
665.59	56.17
665.73	93.62
665.87	9.36
666.01	2.34
666.15	30.43
666.29	63.19
666.44	7.02
666.58	11.70
666.72	53.83
666.86	46.81
667.00	0.00
667.14	7.02
667.28	58.51
667.43	0.00
667.57	72.56
667.71	77.24
667.85	14.04
667.99	35.11
668.13	60.85
668.27	72.56
668.41	79.58
668.56	72.56
668.70	9.36
668.84	51.49
668.98	63.19
669.12	77.24
669.26	53.83
669.40	81.92
669.54	53.83
669.68	0.00
669.82	14.04
669.96	7.02
670.10	14.04
670.25	23.41
670.39	0.00
670.53	0.00
670.67	58.51
670.81	79.58
670.95	42.13
671.09	9.36
671.23	65.54
671.37	53.83
671.51	39.79
671.65	121.71
671.79	42.13
671.93	65.54
672.07	21.06
672.21	23.41
672.35	0.00
672.49	16.38
672.63	0.00
672.77	28.09
672.91	37.45
673.05	74.90
673.19	32.77
673.33	58.51
673.47	0.00
673.61	51.49
673.75	46.81
673.89	23.41
674.03	56.17
674.17	44.47
674.31	84.26
674.45	105.32
674.59	11.70
674.73	39.79
674.87	81.92
675.01	0.00
675.15	49.15
675.29	74.90
675.43	93.62
675.56	35.11
675.70	56.17
675.84	0.00
675.98	56.17
676.12	35.11
676.26	7.02
676.40	79.58
676.54	37.45
676.68	0.00
676.82	16.38
676.96	53.83
677.10	0.00
677.23	53.83
677.37	0.00
677.51	44.47
677.65	81.92
677.79	49.15
677.93	25.75
678.07	81.92
678.21	4.68
678.34	0.00
678.48	35.11
678.62	70.22
678.76	0.00
678.90	37.45
679.04	37.45
679.18	110.01
679.31	35.11
679.45	79.58
679.59	51.49
679.73	70.22
679.87	67.88
680.00	32.77
680.14	0.00
680.28	39.79
680.42	7.02
680.56	86.60
680.70	56.17
680.83	11.70
680.97	32.77
681.11	58.51
681.25	88.94
681.39	58.51
681.52	2.34
681.66	39.79
681.80	35.11
681.94	0.00
682.07	53.83
682.21	35.11
682.35	95.96
682.49	0.00
682.62	0.00
682.76	93.62
682.90	42.13
683.04	49.15
683.17	21.06
683.31	60.85
683.45	16.38
683.59	30.43
683.72	60.85
683.86	102.98
684.00	0.00
684.13	9.36
684.27	0.00
684.41	0.00
684.55	14.04
684.68	72.56
684.82	21.06
684.96	77.24
685.09	0.00
685.23	0.00
685.37	70.22
685.50	14.04
685.64	46.81
685.78	11.70
685.91	14.04
686.05	86.60
686.19	11.70
686.32	44.47
686.46	72.56
686.60	51.49
686.73	0.00
686.87	0.00
687.01	51.49
687.14	51.49
687.28	63.19
687.42	21.06
687.55	51.49
687.69	0.00
687.82	0.00
687.96	60.85
688.10	79.58
688.23	0.00
688.37	0.00
688.50	0.00
688.64	58.51
688.78	21.06
688.91	9.36
689.05	2.34
689.18	35.11
689.32	11.70
689.46	0.00
689.59	7.02
689.73	4.68
689.86	30.43
690.00	21.06
690.13	32.77
690.27	39.79
690.41	58.51
690.54	32.77
690.68	91.28
690.81	42.13
690.95	35.11
691.08	0.00
691.22	16.38
691.35	46.81
691.49	46.81
691.62	42.13
691.76	0.00
691.89	0.00
692.03	42.13
692.16	72.56
692.30	0.00
692.43	42.13
692.57	100.64
692.70	25.75
692.84	67.88
692.97	46.81
693.11	81.92
693.24	0.00
693.38	42.13
693.51	81.92
693.65	23.41
693.78	0.00
693.92	53.83
694.05	46.81
694.19	93.62
694.32	91.28
694.45	0.00
694.59	14.04
694.72	9.36
694.86	0.00
694.99	23.41
695.13	63.19
695.26	60.85
695.39	72.56
695.53	0.00
695.66	9.36
695.80	9.36
695.93	46.81
696.07	65.54
696.20	0.00
696.33	0.00
696.47	0.00
696.60	0.00
696.73	4.68
696.87	46.81
697.00	0.00
697.14	0.00
697.27	18.72
697.40	25.75
697.54	0.00
697.67	0.00
697.80	0.00
697.94	51.49
698.07	0.00
698.21	4.68
698.34	56.17
698.47	74.90
698.61	81.92
698.74	39.79
698.87	37.45
699.01	63.19
699.14	93.62
699.27	11.70
699.40	39.79
699.54	46.81
699.67	0.00
699.80	9.36
699.94	42.13
700.07	39.79
700.20	9.36
700.34	35.11
700.47	88.94
700.60	35.11
700.73	2.34
700.87	0.00
701.00	11.70
701.13	14.04
701.26	21.06
701.40	28.09
701.53	21.06
701.66	16.38
701.79	65.54
701.93	0.00
702.06	39.79
702.19	53.83
702.32	0.00
702.46	91.28
702.59	4.68
702.72	37.45
702.85	65.54
702.99	37.45
703.12	84.26
703.25	28.09
703.38	32.77
703.51	60.85
703.65	0.00
703.78	23.41
703.91	98.30
704.04	60.85
704.17	44.47
704.31	32.77
704.44	18.72
704.57	51.49
704.70	0.00
704.83	28.09
704.96	32.77
705.10	105.32
705.23	23.41
>>>>>End Processed Spectral Data<<<<<
