SpectraSuite Data File
++++++++++++++++++++++++++++++++++++
Date: Fri Oct 04 12:13:42 GMT-05:00 2013
User: price-jones
Dark Spectrum Present: No
Reference Spectrum Present: No
Number of Sampled Component Spectra: 1
Spectrometers: USB2+H05261
Integration Time (usec): 10000 (USB2+H05261)
Spectra Averaged: 1 (USB2+H05261)
Boxcar Smoothing: 0 (USB2+H05261)
Correct for Electrical Dark: No (USB2+H05261)
Strobe/Lamp Enabled: No (USB2+H05261)
Correct for Detector Non-linearity: No (USB2+H05261)
Correct for Stray Light: No (USB2+H05261)
Number of Pixels in Processed Spectrum: 2048
>>>>>Begin Processed Spectral Data<<<<<
365.73	0.00
365.92	0.00
366.12	0.00
366.32	0.00
366.52	0.00
366.72	0.00
366.91	0.00
367.11	0.00
367.31	0.00
367.51	0.00
367.70	0.00
367.90	0.00
368.10	0.00
368.30	0.00
368.49	0.00
368.69	0.00
368.89	0.00
369.09	0.00
369.28	0.00
369.48	0.00
369.68	0.00
369.87	0.00
370.07	0.00
370.27	0.00
370.47	0.00
370.66	0.00
370.86	0.00
371.06	0.00
371.25	0.00
371.45	0.00
371.65	11.70
371.84	0.00
372.04	0.00
372.24	0.00
372.44	0.00
372.63	0.00
372.83	14.04
373.03	0.00
373.22	0.00
373.42	18.72
373.62	0.00
373.81	51.49
374.01	37.45
374.21	0.00
374.40	56.17
374.60	0.00
374.79	0.00
374.99	42.13
375.19	25.75
375.38	4.68
375.58	21.06
375.78	0.00
375.97	60.85
376.17	0.00
376.37	39.79
376.56	21.06
376.76	0.00
376.95	28.09
377.15	44.47
377.35	16.38
377.54	16.38
377.74	2.34
377.93	65.54
378.13	70.22
378.33	21.06
378.52	32.77
378.72	21.06
378.91	0.00
379.11	35.11
379.31	0.00
379.50	0.00
379.70	42.13
379.89	63.19
380.09	42.13
380.28	0.00
380.48	49.15
380.68	11.70
380.87	42.13
381.07	72.56
381.26	0.00
381.46	77.24
381.65	0.00
381.85	49.15
382.04	0.00
382.24	0.00
382.43	37.45
382.63	93.62
382.83	0.00
383.02	37.45
383.22	126.39
383.41	30.43
383.61	0.00
383.80	42.13
384.00	0.00
384.19	14.04
384.39	32.77
384.58	0.00
384.78	0.00
384.97	0.00
385.17	25.75
385.36	0.00
385.56	35.11
385.75	39.79
385.95	0.00
386.14	56.17
386.34	53.83
386.53	0.00
386.72	102.98
386.92	4.68
387.11	0.00
387.31	32.77
387.50	23.41
387.70	28.09
387.89	67.88
388.09	23.41
388.28	84.26
388.48	60.85
388.67	21.06
388.86	0.00
389.06	49.15
389.25	0.00
389.45	42.13
389.64	4.68
389.84	9.36
390.03	107.66
390.22	51.49
390.42	4.68
390.61	44.47
390.81	0.00
391.00	63.19
391.19	28.09
391.39	32.77
391.58	28.09
391.78	42.13
391.97	9.36
392.16	0.00
392.36	70.22
392.55	21.06
392.75	0.00
392.94	23.41
393.13	11.70
393.33	9.36
393.52	11.70
393.71	46.81
393.91	65.54
394.10	42.13
394.29	23.41
394.49	7.02
394.68	46.81
394.88	14.04
395.07	0.00
395.26	9.36
395.46	67.88
395.65	0.00
395.84	21.06
396.04	28.09
396.23	0.00
396.42	18.72
396.62	105.32
396.81	0.00
397.00	44.47
397.19	65.54
397.39	114.69
397.58	28.09
397.77	79.58
397.97	39.79
398.16	28.09
398.35	21.06
398.55	0.00
398.74	23.41
398.93	0.00
399.12	0.00
399.32	53.83
399.51	70.22
399.70	51.49
399.90	107.66
400.09	42.13
400.28	65.54
400.47	67.88
400.67	65.54
400.86	35.11
401.05	14.04
401.24	44.47
401.44	42.13
401.63	86.60
401.82	4.68
402.01	46.81
402.21	4.68
402.40	49.15
402.59	95.96
402.78	98.30
402.97	0.00
403.17	0.00
403.36	65.54
403.55	81.92
403.74	0.00
403.93	53.83
404.13	0.00
404.32	9.36
404.51	0.00
404.70	0.00
404.89	0.00
405.09	21.06
405.28	0.00
405.47	37.45
405.66	0.00
405.85	28.09
406.05	0.00
406.24	0.00
406.43	9.36
406.62	56.17
406.81	42.13
407.00	112.35
407.20	32.77
407.39	0.00
407.58	42.13
407.77	53.83
407.96	30.43
408.15	39.79
408.34	14.04
408.54	25.75
408.73	42.13
408.92	58.51
409.11	4.68
409.30	56.17
409.49	25.75
409.68	16.38
409.87	28.09
410.07	0.00
410.26	23.41
410.45	60.85
410.64	0.00
410.83	35.11
411.02	63.19
411.21	56.17
411.40	28.09
411.59	88.94
411.78	32.77
411.98	37.45
412.17	39.79
412.36	7.02
412.55	149.79
412.74	4.68
412.93	35.11
413.12	28.09
413.31	2.34
413.50	46.81
413.69	23.41
413.88	67.88
414.07	23.41
414.26	32.77
414.45	84.26
414.64	88.94
414.83	102.98
415.02	14.04
415.22	30.43
415.41	4.68
415.60	30.43
415.79	0.00
415.98	2.34
416.17	117.03
416.36	74.90
416.55	42.13
416.74	42.13
416.93	4.68
417.12	100.64
417.31	74.90
417.50	100.64
417.69	49.15
417.88	81.92
418.07	32.77
418.26	23.41
418.45	23.41
418.64	88.94
418.83	23.41
419.02	79.58
419.21	14.04
419.39	39.79
419.58	18.72
419.77	84.26
419.96	32.77
420.15	42.13
420.34	86.60
420.53	30.43
420.72	72.56
420.91	0.00
421.10	91.28
421.29	0.00
421.48	53.83
421.67	72.56
421.86	44.47
422.05	107.66
422.24	18.72
422.43	39.79
422.61	79.58
422.80	74.90
422.99	65.54
423.18	46.81
423.37	37.45
423.56	0.00
423.75	84.26
423.94	32.77
424.13	53.83
424.32	0.00
424.50	70.22
424.69	98.30
424.88	9.36
425.07	70.22
425.26	58.51
425.45	32.77
425.64	95.96
425.83	79.58
426.01	56.17
426.20	42.13
426.39	0.00
426.58	51.49
426.77	30.43
426.96	0.00
427.15	56.17
427.33	32.77
427.52	21.06
427.71	0.00
427.90	2.34
428.09	49.15
428.28	30.43
428.46	0.00
428.65	39.79
428.84	18.72
429.03	49.15
429.22	63.19
429.40	65.54
429.59	11.70
429.78	70.22
429.97	53.83
430.16	32.77
430.34	0.00
430.53	58.51
430.72	9.36
430.91	16.38
431.10	49.15
431.28	42.13
431.47	30.43
431.66	28.09
431.85	0.00
432.03	42.13
432.22	21.06
432.41	4.68
432.60	70.22
432.79	93.62
432.97	46.81
433.16	0.00
433.35	70.22
433.54	98.30
433.72	84.26
433.91	2.34
434.10	88.94
434.28	42.13
434.47	0.00
434.66	53.83
434.85	25.75
435.03	37.45
435.22	79.58
435.41	39.79
435.59	105.32
435.78	25.75
435.97	0.00
436.16	23.41
436.34	72.56
436.53	74.90
436.72	30.43
436.90	56.17
437.09	46.81
437.28	49.15
437.46	60.85
437.65	88.94
437.84	42.13
438.02	98.30
438.21	14.04
438.40	84.26
438.58	110.01
438.77	65.54
438.96	14.04
439.14	86.60
439.33	4.68
439.52	67.88
439.70	18.72
439.89	63.19
440.08	21.06
440.26	88.94
440.45	49.15
440.63	51.49
440.82	11.70
441.01	56.17
441.19	107.66
441.38	98.30
441.57	84.26
441.75	112.35
441.94	11.70
442.12	46.81
442.31	77.24
442.50	39.79
442.68	37.45
442.87	49.15
443.05	4.68
443.24	4.68
443.43	58.51
443.61	21.06
443.80	46.81
443.98	133.41
444.17	86.60
444.35	114.69
444.54	4.68
444.73	44.47
444.91	46.81
445.10	18.72
445.28	23.41
445.47	79.58
445.65	42.13
445.84	30.43
446.02	2.34
446.21	25.75
446.39	30.43
446.58	37.45
446.77	18.72
446.95	9.36
447.14	100.64
447.32	30.43
447.51	7.02
447.69	7.02
447.88	70.22
448.06	84.26
448.25	44.47
448.43	25.75
448.62	86.60
448.80	25.75
448.99	60.85
449.17	21.06
449.36	77.24
449.54	72.56
449.73	105.32
449.91	28.09
450.10	18.72
450.28	91.28
450.46	100.64
450.65	58.51
450.83	0.00
451.02	84.26
451.20	32.77
451.39	95.96
451.57	35.11
451.76	65.54
451.94	79.58
452.13	102.98
452.31	65.54
452.49	58.51
452.68	65.54
452.86	0.00
453.05	110.01
453.23	102.98
453.42	79.58
453.60	72.56
453.78	70.22
453.97	58.51
454.15	46.81
454.34	51.49
454.52	93.62
454.70	46.81
454.89	91.28
455.07	93.62
455.26	86.60
455.44	18.72
455.62	119.37
455.81	9.36
455.99	58.51
456.17	49.15
456.36	49.15
456.54	51.49
456.73	0.00
456.91	88.94
457.09	39.79
457.28	21.06
457.46	58.51
457.64	30.43
457.83	46.81
458.01	23.41
458.19	46.81
458.38	72.56
458.56	95.96
458.74	65.54
458.93	0.00
459.11	133.41
459.29	67.88
459.48	32.77
459.66	46.81
459.84	88.94
460.03	77.24
460.21	114.69
460.39	18.72
460.57	77.24
460.76	46.81
460.94	84.26
461.12	56.17
461.31	91.28
461.49	56.17
461.67	37.45
461.85	11.70
462.04	95.96
462.22	112.35
462.40	35.11
462.59	18.72
462.77	72.56
462.95	79.58
463.13	0.00
463.32	9.36
463.50	65.54
463.68	11.70
463.86	53.83
464.05	37.45
464.23	56.17
464.41	63.19
464.59	58.51
464.78	4.68
464.96	37.45
465.14	60.85
465.32	25.75
465.50	56.17
465.69	70.22
465.87	42.13
466.05	105.32
466.23	11.70
466.41	42.13
466.60	77.24
466.78	58.51
466.96	51.49
467.14	44.47
467.32	56.17
467.51	0.00
467.69	77.24
467.87	105.32
468.05	51.49
468.23	23.41
468.41	63.19
468.60	25.75
468.78	100.64
468.96	84.26
469.14	0.00
469.32	49.15
469.50	112.35
469.69	32.77
469.87	63.19
470.05	77.24
470.23	37.45
470.41	86.60
470.59	30.43
470.77	46.81
470.95	98.30
471.14	51.49
471.32	14.04
471.50	28.09
471.68	100.64
471.86	44.47
472.04	105.32
472.22	63.19
472.40	32.77
472.58	60.85
472.77	140.43
472.95	79.58
473.13	4.68
473.31	18.72
473.49	0.00
473.67	35.11
473.85	149.79
474.03	95.96
474.21	18.72
474.39	53.83
474.57	117.03
474.75	67.88
474.93	65.54
475.12	91.28
475.30	63.19
475.48	51.49
475.66	79.58
475.84	70.22
476.02	44.47
476.20	88.94
476.38	60.85
476.56	102.98
476.74	23.41
476.92	110.01
477.10	30.43
477.28	100.64
477.46	63.19
477.64	16.38
477.82	67.88
478.00	56.17
478.18	56.17
478.36	30.43
478.54	126.39
478.72	42.13
478.90	39.79
479.08	28.09
479.26	105.32
479.44	46.81
479.62	23.41
479.80	25.75
479.98	105.32
480.16	100.64
480.34	142.77
480.52	77.24
480.70	126.39
480.88	102.98
481.06	11.70
481.24	51.49
481.41	16.38
481.59	49.15
481.77	32.77
481.95	77.24
482.13	30.43
482.31	72.56
482.49	72.56
482.67	152.13
482.85	70.22
483.03	32.77
483.21	77.24
483.39	133.41
483.57	28.09
483.74	30.43
483.92	95.96
484.10	77.24
484.28	51.49
484.46	175.54
484.64	100.64
484.82	0.00
485.00	53.83
485.18	152.13
485.35	88.94
485.53	49.15
485.71	18.72
485.89	28.09
486.07	191.92
486.25	102.98
486.43	60.85
486.61	63.19
486.78	84.26
486.96	23.41
487.14	79.58
487.32	4.68
487.50	74.90
487.68	133.41
487.85	102.98
488.03	30.43
488.21	32.77
488.39	42.13
488.57	67.88
488.75	32.77
488.92	88.94
489.10	131.07
489.28	81.92
489.46	88.94
489.64	25.75
489.81	81.92
489.99	35.11
490.17	91.28
490.35	98.30
490.53	81.92
490.70	44.47
490.88	91.28
491.06	30.43
491.24	72.56
491.41	135.75
491.59	56.17
491.77	117.03
491.95	42.13
492.13	105.32
492.30	126.39
492.48	67.88
492.66	100.64
492.84	91.28
493.01	145.11
493.19	65.54
493.37	79.58
493.54	49.15
493.72	84.26
493.90	77.24
494.08	93.62
494.25	70.22
494.43	65.54
494.61	98.30
494.79	93.62
494.96	95.96
495.14	53.83
495.32	25.75
495.49	65.54
495.67	95.96
495.85	84.26
496.02	72.56
496.20	119.37
496.38	60.85
496.55	67.88
496.73	70.22
496.91	105.32
497.09	91.28
497.26	133.41
497.44	110.01
497.62	112.35
497.79	86.60
497.97	105.32
498.14	49.15
498.32	135.75
498.50	124.05
498.67	107.66
498.85	67.88
499.03	91.28
499.20	102.98
499.38	86.60
499.56	152.13
499.73	67.88
499.91	105.32
500.08	30.43
500.26	124.05
500.44	128.73
500.61	131.07
500.79	0.00
500.97	32.77
501.14	37.45
501.32	105.32
501.49	74.90
501.67	35.11
501.84	138.09
502.02	18.72
502.20	91.28
502.37	112.35
502.55	67.88
502.72	79.58
502.90	56.17
503.07	23.41
503.25	42.13
503.43	21.06
503.60	114.69
503.78	95.96
503.95	72.56
504.13	102.98
504.30	93.62
504.48	119.37
504.65	70.22
504.83	58.51
505.01	39.79
505.18	67.88
505.36	74.90
505.53	161.50
505.71	14.04
505.88	117.03
506.06	86.60
506.23	63.19
506.41	9.36
506.58	49.15
506.76	65.54
506.93	95.96
507.11	86.60
507.28	28.09
507.46	70.22
507.63	93.62
507.81	11.70
507.98	42.13
508.16	44.47
508.33	32.77
508.50	46.81
508.68	23.41
508.85	32.77
509.03	91.28
509.20	88.94
509.38	93.62
509.55	7.02
509.73	0.00
509.90	98.30
510.08	128.73
510.25	138.09
510.42	30.43
510.60	128.73
510.77	72.56
510.95	18.72
511.12	67.88
511.30	4.68
511.47	124.05
511.64	74.90
511.82	63.19
511.99	79.58
512.17	124.05
512.34	58.51
512.51	84.26
512.69	51.49
512.86	86.60
513.04	102.98
513.21	35.11
513.38	124.05
513.56	93.62
513.73	35.11
513.90	9.36
514.08	119.37
514.25	42.13
514.43	56.17
514.60	145.11
514.77	56.17
514.95	107.66
515.12	100.64
515.29	100.64
515.47	93.62
515.64	84.26
515.81	70.22
515.99	84.26
516.16	84.26
516.33	131.07
516.51	121.71
516.68	44.47
516.85	56.17
517.03	49.15
517.20	7.02
517.37	51.49
517.54	7.02
517.72	49.15
517.89	77.24
518.06	37.45
518.24	16.38
518.41	65.54
518.58	91.28
518.75	121.71
518.93	58.51
519.10	79.58
519.27	65.54
519.45	70.22
519.62	107.66
519.79	121.71
519.96	67.88
520.14	35.11
520.31	4.68
520.48	84.26
520.65	79.58
520.83	72.56
521.00	100.64
521.17	81.92
521.34	91.28
521.52	128.73
521.69	100.64
521.86	23.41
522.03	53.83
522.20	98.30
522.38	131.07
522.55	42.13
522.72	51.49
522.89	128.73
523.07	77.24
523.24	84.26
523.41	102.98
523.58	114.69
523.75	128.73
523.92	65.54
524.10	42.13
524.27	133.41
524.44	56.17
524.61	32.77
524.78	147.45
524.96	128.73
525.13	131.07
525.30	32.77
525.47	58.51
525.64	65.54
525.81	0.00
525.98	100.64
526.16	21.06
526.33	16.38
526.50	119.37
526.67	126.39
526.84	74.90
527.01	91.28
527.18	70.22
527.36	44.47
527.53	74.90
527.70	121.71
527.87	74.90
528.04	46.81
528.21	131.07
528.38	105.32
528.55	60.85
528.72	110.01
528.89	84.26
529.07	58.51
529.24	0.00
529.41	74.90
529.58	119.37
529.75	84.26
529.92	98.30
530.09	91.28
530.26	142.77
530.43	67.88
530.60	110.01
530.77	105.32
530.94	51.49
531.11	60.85
531.28	28.09
531.46	98.30
531.63	100.64
531.80	65.54
531.97	79.58
532.14	46.81
532.31	35.11
532.48	147.45
532.65	95.96
532.82	51.49
532.99	77.24
533.16	128.73
533.33	95.96
533.50	42.13
533.67	124.05
533.84	37.45
534.01	124.05
534.18	70.22
534.35	105.32
534.52	117.03
534.69	65.54
534.86	77.24
535.03	91.28
535.20	84.26
535.37	46.81
535.54	18.72
535.71	39.79
535.88	107.66
536.05	84.26
536.22	65.54
536.38	46.81
536.55	35.11
536.72	140.43
536.89	72.56
537.06	60.85
537.23	105.32
537.40	65.54
537.57	107.66
537.74	63.19
537.91	70.22
538.08	149.79
538.25	112.35
538.42	84.26
538.59	79.58
538.75	74.90
538.92	88.94
539.09	95.96
539.26	44.47
539.43	114.69
539.60	98.30
539.77	74.90
539.94	100.64
540.11	131.07
540.28	126.39
540.44	74.90
540.61	67.88
540.78	88.94
540.95	0.00
541.12	98.30
541.29	14.04
541.46	98.30
541.62	79.58
541.79	0.00
541.96	11.70
542.13	84.26
542.30	161.50
542.47	117.03
542.63	84.26
542.80	49.15
542.97	142.77
543.14	102.98
543.31	142.77
543.48	110.01
543.64	39.79
543.81	105.32
543.98	67.88
544.15	60.85
544.32	95.96
544.48	58.51
544.65	95.96
544.82	112.35
544.99	0.00
545.16	46.81
545.32	86.60
545.49	124.05
545.66	93.62
545.83	98.30
546.00	114.69
546.16	119.37
546.33	77.24
546.50	112.35
546.67	93.62
546.83	74.90
547.00	117.03
547.17	138.09
547.34	67.88
547.50	112.35
547.67	121.71
547.84	63.19
548.00	93.62
548.17	65.54
548.34	147.45
548.51	70.22
548.67	121.71
548.84	37.45
549.01	58.51
549.18	191.92
549.34	119.37
549.51	159.16
549.68	65.54
549.84	53.83
550.01	63.19
550.18	88.94
550.34	128.73
550.51	93.62
550.68	110.01
550.84	133.41
551.01	117.03
551.18	98.30
551.34	70.22
551.51	77.24
551.68	56.17
551.84	88.94
552.01	86.60
552.18	126.39
552.34	102.98
552.51	93.62
552.68	32.77
552.84	44.47
553.01	74.90
553.18	65.54
553.34	149.79
553.51	46.81
553.67	100.64
553.84	70.22
554.01	67.88
554.17	81.92
554.34	0.00
554.51	81.92
554.67	60.85
554.84	16.38
555.00	56.17
555.17	70.22
555.33	49.15
555.50	110.01
555.67	131.07
555.83	58.51
556.00	72.56
556.16	81.92
556.33	72.56
556.50	77.24
556.66	88.94
556.83	51.49
556.99	58.51
557.16	65.54
557.32	81.92
557.49	18.72
557.65	119.37
557.82	126.39
557.98	114.69
558.15	53.83
558.32	72.56
558.48	79.58
558.65	14.04
558.81	23.41
558.98	117.03
559.14	117.03
559.31	102.98
559.47	95.96
559.64	81.92
559.80	131.07
559.97	37.45
560.13	42.13
560.30	86.60
560.46	88.94
560.63	63.19
560.79	140.43
560.96	102.98
561.12	107.66
561.29	14.04
561.45	72.56
561.61	124.05
561.78	79.58
561.94	88.94
562.11	46.81
562.27	110.01
562.44	16.38
562.60	110.01
562.77	58.51
562.93	60.85
563.10	37.45
563.26	32.77
563.42	65.54
563.59	74.90
563.75	46.81
563.92	79.58
564.08	86.60
564.24	9.36
564.41	95.96
564.57	138.09
564.74	138.09
564.90	173.20
565.07	170.86
565.23	124.05
565.39	149.79
565.56	161.50
565.72	0.00
565.88	63.19
566.05	107.66
566.21	72.56
566.38	79.58
566.54	72.56
566.70	46.81
566.87	88.94
567.03	98.30
567.19	105.32
567.36	84.26
567.52	77.24
567.68	110.01
567.85	95.96
568.01	117.03
568.17	53.83
568.34	112.35
568.50	102.98
568.66	81.92
568.83	81.92
568.99	114.69
569.15	39.79
569.32	0.00
569.48	81.92
569.64	81.92
569.81	30.43
569.97	119.37
570.13	77.24
570.30	56.17
570.46	91.28
570.62	42.13
570.78	74.90
570.95	98.30
571.11	112.35
571.27	105.32
571.43	72.56
571.60	117.03
571.76	9.36
571.92	79.58
572.09	67.88
572.25	84.26
572.41	16.38
572.57	93.62
572.74	74.90
572.90	16.38
573.06	126.39
573.22	98.30
573.38	138.09
573.55	102.98
573.71	159.16
573.87	32.77
574.03	91.28
574.20	65.54
574.36	72.56
574.52	88.94
574.68	105.32
574.84	51.49
575.01	81.92
575.17	114.69
575.33	77.24
575.49	121.71
575.65	93.62
575.82	32.77
575.98	70.22
576.14	60.85
576.30	112.35
576.46	72.56
576.62	100.64
576.79	117.03
576.95	63.19
577.11	117.03
577.27	42.13
577.43	126.39
577.59	32.77
577.75	53.83
577.92	60.85
578.08	37.45
578.24	9.36
578.40	49.15
578.56	58.51
578.72	39.79
578.88	65.54
579.04	37.45
579.21	98.30
579.37	53.83
579.53	98.30
579.69	77.24
579.85	102.98
580.01	63.19
580.17	51.49
580.33	119.37
580.49	100.64
580.65	72.56
580.82	60.85
580.98	56.17
581.14	70.22
581.30	56.17
581.46	93.62
581.62	67.88
581.78	107.66
581.94	95.96
582.10	84.26
582.26	124.05
582.42	58.51
582.58	56.17
582.74	91.28
582.90	51.49
583.06	117.03
583.22	58.51
583.38	110.01
583.54	93.62
583.70	44.47
583.86	21.06
584.02	42.13
584.18	79.58
584.34	28.09
584.50	91.28
584.66	88.94
584.82	77.24
584.98	107.66
585.14	91.28
585.30	74.90
585.46	93.62
585.62	65.54
585.78	18.72
585.94	63.19
586.10	53.83
586.26	65.54
586.42	110.01
586.58	42.13
586.74	65.54
586.90	119.37
587.06	70.22
587.22	30.43
587.38	114.69
587.54	107.66
587.70	25.75
587.86	84.26
588.02	63.19
588.18	67.88
588.34	44.47
588.49	53.83
588.65	28.09
588.81	95.96
588.97	102.98
589.13	74.90
589.29	74.90
589.45	46.81
589.61	65.54
589.77	25.75
589.93	102.98
590.08	81.92
590.24	21.06
590.40	46.81
590.56	53.83
590.72	25.75
590.88	84.26
591.04	46.81
591.20	39.79
591.35	65.54
591.51	81.92
591.67	79.58
591.83	72.56
591.99	70.22
592.15	58.51
592.31	63.19
592.46	9.36
592.62	65.54
592.78	182.56
592.94	37.45
593.10	67.88
593.26	91.28
593.41	70.22
593.57	117.03
593.73	25.75
593.89	51.49
594.05	32.77
594.20	84.26
594.36	126.39
594.52	56.17
594.68	23.41
594.84	112.35
594.99	135.75
595.15	112.35
595.31	25.75
595.47	133.41
595.62	168.52
595.78	95.96
595.94	11.70
596.10	79.58
596.25	0.00
596.41	100.64
596.57	21.06
596.73	28.09
596.88	79.58
597.04	100.64
597.20	124.05
597.36	56.17
597.51	107.66
597.67	95.96
597.83	65.54
597.99	44.47
598.14	77.24
598.30	42.13
598.46	112.35
598.61	18.72
598.77	32.77
598.93	44.47
599.09	18.72
599.24	63.19
599.40	0.00
599.56	119.37
599.71	91.28
599.87	67.88
600.03	65.54
600.18	11.70
600.34	105.32
600.50	105.32
600.65	147.45
600.81	60.85
600.97	37.45
601.12	58.51
601.28	107.66
601.44	56.17
601.59	79.58
601.75	65.54
601.91	65.54
602.06	25.75
602.22	138.09
602.37	74.90
602.53	23.41
602.69	102.98
602.84	124.05
603.00	98.30
603.16	135.75
603.31	131.07
603.47	53.83
603.62	102.98
603.78	121.71
603.94	131.07
604.09	70.22
604.25	91.28
604.40	114.69
604.56	51.49
604.71	114.69
604.87	23.41
605.03	95.96
605.18	119.37
605.34	147.45
605.49	91.28
605.65	84.26
605.80	84.26
605.96	0.00
606.12	60.85
606.27	51.49
606.43	53.83
606.58	86.60
606.74	74.90
606.89	67.88
607.05	77.24
607.20	107.66
607.36	142.77
607.51	102.98
607.67	180.22
607.82	105.32
607.98	65.54
608.13	77.24
608.29	11.70
608.44	126.39
608.60	0.00
608.75	107.66
608.91	0.00
609.06	124.05
609.22	35.11
609.37	86.60
609.53	0.00
609.68	42.13
609.84	53.83
609.99	30.43
610.15	32.77
610.30	56.17
610.46	112.35
610.61	42.13
610.76	46.81
610.92	105.32
611.07	4.68
611.23	14.04
611.38	79.58
611.54	32.77
611.69	133.41
611.84	32.77
612.00	25.75
612.15	0.00
612.31	4.68
612.46	0.00
612.62	149.79
612.77	60.85
612.92	70.22
613.08	37.45
613.23	28.09
613.39	42.13
613.54	0.00
613.69	42.13
613.85	7.02
614.00	60.85
614.15	84.26
614.31	46.81
614.46	74.90
614.62	117.03
614.77	102.98
614.92	42.13
615.08	51.49
615.23	107.66
615.38	91.28
615.54	28.09
615.69	42.13
615.84	18.72
616.00	107.66
616.15	32.77
616.30	42.13
616.46	60.85
616.61	149.79
616.76	72.56
616.92	114.69
617.07	70.22
617.22	65.54
617.37	44.47
617.53	102.98
617.68	37.45
617.83	58.51
617.99	14.04
618.14	44.47
618.29	32.77
618.45	49.15
618.60	49.15
618.75	42.13
618.90	35.11
619.06	53.83
619.21	56.17
619.36	32.77
619.51	37.45
619.67	44.47
619.82	107.66
619.97	81.92
620.12	95.96
620.28	100.64
620.43	91.28
620.58	39.79
620.73	107.66
620.89	58.51
621.04	53.83
621.19	63.19
621.34	74.90
621.49	70.22
621.65	42.13
621.80	25.75
621.95	28.09
622.10	58.51
622.25	74.90
622.41	0.00
622.56	131.07
622.71	77.24
622.86	105.32
623.01	51.49
623.16	84.26
623.32	0.00
623.47	25.75
623.62	93.62
623.77	86.60
623.92	95.96
624.07	70.22
624.23	84.26
624.38	84.26
624.53	79.58
624.68	65.54
624.83	152.13
624.98	28.09
625.13	46.81
625.29	49.15
625.44	42.13
625.59	42.13
625.74	32.77
625.89	58.51
626.04	42.13
626.19	11.70
626.34	70.22
626.49	72.56
626.65	46.81
626.80	42.13
626.95	49.15
627.10	70.22
627.25	70.22
627.40	39.79
627.55	35.11
627.70	126.39
627.85	65.54
628.00	60.85
628.15	21.06
628.30	70.22
628.45	79.58
628.60	159.16
628.76	74.90
628.91	49.15
629.06	39.79
629.21	49.15
629.36	21.06
629.51	16.38
629.66	67.88
629.81	44.47
629.96	49.15
630.11	0.00
630.26	100.64
630.41	53.83
630.56	93.62
630.71	14.04
630.86	44.47
631.01	91.28
631.16	65.54
631.31	58.51
631.46	159.16
631.61	14.04
631.76	53.83
631.91	37.45
632.06	42.13
632.21	72.56
632.36	124.05
632.51	72.56
632.66	37.45
632.81	102.98
632.96	42.13
633.10	95.96
633.25	11.70
633.40	49.15
633.55	117.03
633.70	74.90
633.85	56.17
634.00	72.56
634.15	23.41
634.30	25.75
634.45	60.85
634.60	65.54
634.75	93.62
634.90	44.47
635.05	56.17
635.19	142.77
635.34	46.81
635.49	86.60
635.64	16.38
635.79	84.26
635.94	98.30
636.09	25.75
636.24	86.60
636.39	102.98
636.53	74.90
636.68	81.92
636.83	21.06
636.98	126.39
637.13	56.17
637.28	77.24
637.43	63.19
637.57	131.07
637.72	42.13
637.87	86.60
638.02	102.98
638.17	58.51
638.32	0.00
638.46	84.26
638.61	72.56
638.76	60.85
638.91	18.72
639.06	63.19
639.20	74.90
639.35	56.17
639.50	42.13
639.65	0.00
639.80	0.00
639.94	110.01
640.09	7.02
640.24	25.75
640.39	67.88
640.54	37.45
640.68	65.54
640.83	7.02
640.98	107.66
641.13	93.62
641.27	63.19
641.42	30.43
641.57	79.58
641.72	21.06
641.86	100.64
642.01	21.06
642.16	11.70
642.31	105.32
642.45	65.54
642.60	74.90
642.75	28.09
642.90	35.11
643.04	58.51
643.19	46.81
643.34	95.96
643.48	60.85
643.63	37.45
643.78	58.51
643.93	77.24
644.07	91.28
644.22	21.06
644.37	93.62
644.51	9.36
644.66	32.77
644.81	58.51
644.95	11.70
645.10	0.00
645.25	70.22
645.39	79.58
645.54	0.00
645.69	98.30
645.83	91.28
645.98	74.90
646.13	0.00
646.27	145.11
646.42	53.83
646.57	65.54
646.71	28.09
646.86	28.09
647.00	18.72
647.15	7.02
647.30	105.32
647.44	30.43
647.59	88.94
647.74	28.09
647.88	46.81
648.03	0.00
648.17	46.81
648.32	18.72
648.47	0.00
648.61	25.75
648.76	37.45
648.90	98.30
649.05	0.00
649.20	11.70
649.34	74.90
649.49	56.17
649.63	4.68
649.78	98.30
649.92	30.43
650.07	9.36
650.21	58.51
650.36	18.72
650.51	46.81
650.65	51.49
650.80	0.00
650.94	39.79
651.09	42.13
651.23	42.13
651.38	0.00
651.52	65.54
651.67	16.38
651.81	37.45
651.96	72.56
652.10	18.72
652.25	4.68
652.39	60.85
652.54	44.47
652.68	63.19
652.83	81.92
652.97	100.64
653.12	44.47
653.26	138.09
653.41	138.09
653.55	93.62
653.70	0.00
653.84	77.24
653.99	81.92
654.13	0.00
654.27	51.49
654.42	0.00
654.56	95.96
654.71	30.43
654.85	49.15
655.00	56.17
655.14	98.30
655.29	100.64
655.43	0.00
655.57	65.54
655.72	0.00
655.86	11.70
656.01	18.72
656.15	0.00
656.30	28.09
656.44	23.41
656.58	79.58
656.73	23.41
656.87	28.09
657.01	70.22
657.16	23.41
657.30	39.79
657.45	88.94
657.59	4.68
657.73	0.00
657.88	7.02
658.02	86.60
658.16	0.00
658.31	16.38
658.45	37.45
658.60	147.45
658.74	70.22
658.88	35.11
659.03	81.92
659.17	0.00
659.31	28.09
659.46	65.54
659.60	42.13
659.74	14.04
659.89	53.83
660.03	28.09
660.17	37.45
660.32	0.00
660.46	0.00
660.60	44.47
660.74	77.24
660.89	21.06
661.03	32.77
661.17	56.17
661.32	42.13
661.46	18.72
661.60	51.49
661.74	95.96
661.89	79.58
662.03	21.06
662.17	67.88
662.31	114.69
662.46	51.49
662.60	70.22
662.74	65.54
662.88	51.49
663.03	84.26
663.17	95.96
663.31	56.17
663.45	23.41
663.60	86.60
663.74	32.77
663.88	37.45
664.02	58.51
664.17	65.54
664.31	72.56
664.45	42.13
664.59	86.60
664.73	39.79
664.88	9.36
665.02	39.79
665.16	25.75
665.30	30.43
665.44	18.72
665.59	51.49
665.73	21.06
665.87	14.04
666.01	152.13
666.15	25.75
666.29	46.81
666.44	102.98
666.58	0.00
666.72	56.17
666.86	0.00
667.00	63.19
667.14	23.41
667.28	9.36
667.43	65.54
667.57	49.15
667.71	56.17
667.85	18.72
667.99	86.60
668.13	28.09
668.27	91.28
668.41	42.13
668.56	0.00
668.70	46.81
668.84	0.00
668.98	23.41
669.12	119.37
669.26	56.17
669.40	100.64
669.54	102.98
669.68	32.77
669.82	107.66
669.96	77.24
670.10	60.85
670.25	84.26
670.39	25.75
670.53	21.06
670.67	70.22
670.81	44.47
670.95	9.36
671.09	81.92
671.23	7.02
671.37	56.17
671.51	42.13
671.65	11.70
671.79	49.15
671.93	4.68
672.07	0.00
672.21	32.77
672.35	0.00
672.49	7.02
672.63	81.92
672.77	67.88
672.91	0.00
673.05	65.54
673.19	39.79
673.33	2.34
673.47	18.72
673.61	30.43
673.75	131.07
673.89	9.36
674.03	23.41
674.17	11.70
674.31	4.68
674.45	32.77
674.59	21.06
674.73	28.09
674.87	98.30
675.01	65.54
675.15	42.13
675.29	77.24
675.43	49.15
675.56	79.58
675.70	32.77
675.84	112.35
675.98	91.28
676.12	81.92
676.26	14.04
676.40	14.04
676.54	42.13
676.68	51.49
676.82	49.15
676.96	42.13
677.10	25.75
677.23	63.19
677.37	37.45
677.51	0.00
677.65	67.88
677.79	53.83
677.93	21.06
678.07	39.79
678.21	72.56
678.34	9.36
678.48	77.24
678.62	30.43
678.76	7.02
678.90	7.02
679.04	0.00
679.18	53.83
679.31	67.88
679.45	56.17
679.59	81.92
679.73	51.49
679.87	60.85
680.00	53.83
680.14	44.47
680.28	42.13
680.42	84.26
680.56	102.98
680.70	95.96
680.83	63.19
680.97	65.54
681.11	25.75
681.25	63.19
681.39	60.85
681.52	21.06
681.66	74.90
681.80	56.17
681.94	65.54
682.07	14.04
682.21	98.30
682.35	63.19
682.49	51.49
682.62	58.51
682.76	4.68
682.90	42.13
683.04	56.17
683.17	67.88
683.31	32.77
683.45	9.36
683.59	79.58
683.72	53.83
683.86	0.00
684.00	7.02
684.13	53.83
684.27	28.09
684.41	32.77
684.55	4.68
684.68	0.00
684.82	32.77
684.96	44.47
685.09	11.70
685.23	42.13
685.37	0.00
685.50	18.72
685.64	18.72
685.78	0.00
685.91	53.83
686.05	49.15
686.19	0.00
686.32	163.84
686.46	25.75
686.60	49.15
686.73	18.72
686.87	46.81
687.01	84.26
687.14	39.79
687.28	46.81
687.42	84.26
687.55	35.11
687.69	14.04
687.82	7.02
687.96	18.72
688.10	44.47
688.23	77.24
688.37	110.01
688.50	2.34
688.64	63.19
688.78	49.15
688.91	74.90
689.05	0.00
689.18	74.90
689.32	28.09
689.46	0.00
689.59	35.11
689.73	0.00
689.86	25.75
690.00	9.36
690.13	0.00
690.27	39.79
690.41	37.45
690.54	81.92
690.68	35.11
690.81	67.88
690.95	81.92
691.08	79.58
691.22	14.04
691.35	39.79
691.49	37.45
691.62	88.94
691.76	67.88
691.89	51.49
692.03	72.56
692.16	44.47
692.30	77.24
692.43	49.15
692.57	49.15
692.70	53.83
692.84	7.02
692.97	58.51
693.11	4.68
693.24	0.00
693.38	28.09
693.51	58.51
693.65	14.04
693.78	0.00
693.92	67.88
694.05	56.17
694.19	46.81
694.32	60.85
694.45	60.85
694.59	21.06
694.72	9.36
694.86	23.41
694.99	77.24
695.13	7.02
695.26	18.72
695.39	79.58
695.53	42.13
695.66	70.22
695.80	110.01
695.93	0.00
696.07	32.77
696.20	110.01
696.33	32.77
696.47	65.54
696.60	7.02
696.73	42.13
696.87	56.17
697.00	30.43
697.14	0.00
697.27	51.49
697.40	60.85
697.54	56.17
697.67	35.11
697.80	0.00
697.94	149.79
698.07	39.79
698.21	77.24
698.34	117.03
698.47	18.72
698.61	35.11
698.74	4.68
698.87	18.72
699.01	4.68
699.14	63.19
699.27	107.66
699.40	105.32
699.54	107.66
699.67	11.70
699.80	98.30
699.94	117.03
700.07	32.77
700.20	44.47
700.34	95.96
700.47	35.11
700.60	30.43
700.73	0.00
700.87	74.90
701.00	58.51
701.13	51.49
701.26	74.90
701.40	7.02
701.53	32.77
701.66	0.00
701.79	37.45
701.93	67.88
702.06	46.81
702.19	91.28
702.32	0.00
702.46	88.94
702.59	0.00
702.72	63.19
702.85	28.09
702.99	42.13
703.12	28.09
703.25	58.51
703.38	67.88
703.51	35.11
703.65	42.13
703.78	14.04
703.91	28.09
704.04	28.09
704.17	51.49
704.31	105.32
704.44	0.00
704.57	0.00
704.70	0.00
704.83	0.00
704.96	56.17
705.10	53.83
705.23	39.79
>>>>>End Processed Spectral Data<<<<<
