SpectraSuite Data File
++++++++++++++++++++++++++++++++++++
Date: Fri Oct 04 12:13:28 GMT-05:00 2013
User: price-jones
Dark Spectrum Present: No
Reference Spectrum Present: No
Number of Sampled Component Spectra: 1
Spectrometers: USB2+H05261
Integration Time (usec): 10000 (USB2+H05261)
Spectra Averaged: 1 (USB2+H05261)
Boxcar Smoothing: 0 (USB2+H05261)
Correct for Electrical Dark: No (USB2+H05261)
Strobe/Lamp Enabled: No (USB2+H05261)
Correct for Detector Non-linearity: No (USB2+H05261)
Correct for Stray Light: No (USB2+H05261)
Number of Pixels in Processed Spectrum: 2048
>>>>>Begin Processed Spectral Data<<<<<
365.73	4.68
365.92	4.68
366.12	4.68
366.32	0.00
366.52	0.00
366.72	0.00
366.91	0.00
367.11	0.00
367.31	0.00
367.51	0.00
367.70	0.00
367.90	0.00
368.10	0.00
368.30	0.00
368.49	0.00
368.69	0.00
368.89	0.00
369.09	0.00
369.28	0.00
369.48	0.00
369.68	0.00
369.87	0.00
370.07	0.00
370.27	0.00
370.47	0.00
370.66	0.00
370.86	0.00
371.06	0.00
371.25	0.00
371.45	0.00
371.65	0.00
371.84	0.00
372.04	0.00
372.24	0.00
372.44	28.09
372.63	0.00
372.83	0.00
373.03	0.00
373.22	0.00
373.42	0.00
373.62	0.00
373.81	28.09
374.01	46.81
374.21	9.36
374.40	142.77
374.60	30.43
374.79	79.58
374.99	49.15
375.19	28.09
375.38	4.68
375.58	28.09
375.78	0.00
375.97	23.41
376.17	16.38
376.37	21.06
376.56	9.36
376.76	18.72
376.95	14.04
377.15	60.85
377.35	2.34
377.54	60.85
377.74	9.36
377.93	46.81
378.13	0.00
378.33	28.09
378.52	0.00
378.72	44.47
378.91	0.00
379.11	39.79
379.31	60.85
379.50	37.45
379.70	23.41
379.89	9.36
380.09	7.02
380.28	0.00
380.48	58.51
380.68	46.81
380.87	0.00
381.07	0.00
381.26	37.45
381.46	0.00
381.65	91.28
381.85	11.70
382.04	14.04
382.24	21.06
382.43	0.00
382.63	0.00
382.83	0.00
383.02	28.09
383.22	0.00
383.41	9.36
383.61	11.70
383.80	7.02
384.00	0.00
384.19	51.49
384.39	32.77
384.58	0.00
384.78	37.45
384.97	42.13
385.17	77.24
385.36	0.00
385.56	32.77
385.75	37.45
385.95	0.00
386.14	95.96
386.34	23.41
386.53	0.00
386.72	9.36
386.92	11.70
387.11	35.11
387.31	0.00
387.50	0.00
387.70	25.75
387.89	63.19
388.09	0.00
388.28	39.79
388.48	0.00
388.67	49.15
388.86	46.81
389.06	49.15
389.25	42.13
389.45	60.85
389.64	0.00
389.84	107.66
390.03	32.77
390.22	9.36
390.42	4.68
390.61	25.75
390.81	0.00
391.00	63.19
391.19	70.22
391.39	0.00
391.58	65.54
391.78	39.79
391.97	9.36
392.16	42.13
392.36	63.19
392.55	21.06
392.75	7.02
392.94	53.83
393.13	11.70
393.33	0.00
393.52	72.56
393.71	79.58
393.91	100.64
394.10	35.11
394.29	58.51
394.49	18.72
394.68	39.79
394.88	25.75
395.07	0.00
395.26	65.54
395.46	65.54
395.65	37.45
395.84	42.13
396.04	65.54
396.23	23.41
396.42	25.75
396.62	86.60
396.81	110.01
397.00	0.00
397.19	0.00
397.39	53.83
397.58	32.77
397.77	23.41
397.97	11.70
398.16	56.17
398.35	70.22
398.55	32.77
398.74	84.26
398.93	30.43
399.12	60.85
399.32	77.24
399.51	70.22
399.70	0.00
399.90	0.00
400.09	0.00
400.28	21.06
400.47	18.72
400.67	28.09
400.86	0.00
401.05	18.72
401.24	0.00
401.44	0.00
401.63	0.00
401.82	46.81
402.01	30.43
402.21	0.00
402.40	46.81
402.59	72.56
402.78	42.13
402.97	74.90
403.17	110.01
403.36	23.41
403.55	16.38
403.74	60.85
403.93	28.09
404.13	0.00
404.32	2.34
404.51	37.45
404.70	0.00
404.89	0.00
405.09	14.04
405.28	0.00
405.47	23.41
405.66	0.00
405.85	9.36
406.05	39.79
406.24	84.26
406.43	42.13
406.62	35.11
406.81	74.90
407.00	56.17
407.20	0.00
407.39	98.30
407.58	0.00
407.77	28.09
407.96	9.36
408.15	72.56
408.34	0.00
408.54	0.00
408.73	14.04
408.92	0.00
409.11	0.00
409.30	46.81
409.49	0.00
409.68	119.37
409.87	23.41
410.07	0.00
410.26	65.54
410.45	16.38
410.64	42.13
410.83	30.43
411.02	7.02
411.21	16.38
411.40	53.83
411.59	79.58
411.78	14.04
411.98	39.79
412.17	0.00
412.36	11.70
412.55	0.00
412.74	63.19
412.93	21.06
413.12	30.43
413.31	35.11
413.50	7.02
413.69	4.68
413.88	23.41
414.07	18.72
414.26	25.75
414.45	2.34
414.64	28.09
414.83	0.00
415.02	70.22
415.22	0.00
415.41	23.41
415.60	70.22
415.79	46.81
415.98	16.38
416.17	18.72
416.36	77.24
416.55	53.83
416.74	58.51
416.93	42.13
417.12	49.15
417.31	56.17
417.50	0.00
417.69	0.00
417.88	119.37
418.07	44.47
418.26	16.38
418.45	4.68
418.64	74.90
418.83	14.04
419.02	42.13
419.21	0.00
419.39	0.00
419.58	72.56
419.77	53.83
419.96	0.00
420.15	14.04
420.34	28.09
420.53	32.77
420.72	4.68
420.91	9.36
421.10	0.00
421.29	49.15
421.48	32.77
421.67	4.68
421.86	0.00
422.05	70.22
422.24	30.43
422.43	30.43
422.61	30.43
422.80	28.09
422.99	0.00
423.18	0.00
423.37	35.11
423.56	110.01
423.75	84.26
423.94	72.56
424.13	32.77
424.32	49.15
424.50	70.22
424.69	0.00
424.88	70.22
425.07	37.45
425.26	21.06
425.45	95.96
425.64	91.28
425.83	2.34
426.01	30.43
426.20	18.72
426.39	28.09
426.58	49.15
426.77	51.49
426.96	49.15
427.15	93.62
427.33	2.34
427.52	28.09
427.71	32.77
427.90	65.54
428.09	77.24
428.28	4.68
428.46	21.06
428.65	91.28
428.84	49.15
429.03	70.22
429.22	0.00
429.40	49.15
429.59	56.17
429.78	16.38
429.97	23.41
430.16	0.00
430.34	46.81
430.53	35.11
430.72	0.00
430.91	14.04
431.10	44.47
431.28	0.00
431.47	72.56
431.66	0.00
431.85	0.00
432.03	9.36
432.22	44.47
432.41	30.43
432.60	35.11
432.79	74.90
432.97	23.41
433.16	60.85
433.35	32.77
433.54	32.77
433.72	67.88
433.91	0.00
434.10	39.79
434.28	70.22
434.47	37.45
434.66	65.54
434.85	56.17
435.03	65.54
435.22	0.00
435.41	0.00
435.59	28.09
435.78	46.81
435.97	67.88
436.16	63.19
436.34	0.00
436.53	74.90
436.72	28.09
436.90	2.34
437.09	46.81
437.28	30.43
437.46	0.00
437.65	0.00
437.84	0.00
438.02	74.90
438.21	14.04
438.40	32.77
438.58	79.58
438.77	39.79
438.96	0.00
439.14	0.00
439.33	0.00
439.52	117.03
439.70	93.62
439.89	0.00
440.08	35.11
440.26	35.11
440.45	23.41
440.63	81.92
440.82	0.00
441.01	30.43
441.19	65.54
441.38	11.70
441.57	9.36
441.75	0.00
441.94	35.11
442.12	0.00
442.31	0.00
442.50	2.34
442.68	70.22
442.87	49.15
443.05	21.06
443.24	25.75
443.43	28.09
443.61	51.49
443.80	9.36
443.98	53.83
444.17	0.00
444.35	9.36
444.54	25.75
444.73	39.79
444.91	28.09
445.10	46.81
445.28	60.85
445.47	119.37
445.65	35.11
445.84	28.09
446.02	2.34
446.21	0.00
446.39	2.34
446.58	0.00
446.77	67.88
446.95	0.00
447.14	0.00
447.32	0.00
447.51	0.00
447.69	81.92
447.88	56.17
448.06	21.06
448.25	32.77
448.43	16.38
448.62	39.79
448.80	16.38
448.99	51.49
449.17	16.38
449.36	0.00
449.54	67.88
449.73	60.85
449.91	44.47
450.10	70.22
450.28	0.00
450.46	9.36
450.65	102.98
450.83	65.54
451.02	84.26
451.20	0.00
451.39	32.77
451.57	14.04
451.76	2.34
451.94	37.45
452.13	4.68
452.31	4.68
452.49	37.45
452.68	46.81
452.86	42.13
453.05	0.00
453.23	0.00
453.42	0.00
453.60	42.13
453.78	0.00
453.97	0.00
454.15	49.15
454.34	0.00
454.52	35.11
454.70	72.56
454.89	70.22
455.07	21.06
455.26	23.41
455.44	21.06
455.62	0.00
455.81	79.58
455.99	9.36
456.17	77.24
456.36	4.68
456.54	42.13
456.73	23.41
456.91	74.90
457.09	88.94
457.28	70.22
457.46	23.41
457.64	39.79
457.83	0.00
458.01	117.03
458.19	30.43
458.38	30.43
458.56	32.77
458.74	0.00
458.93	65.54
459.11	0.00
459.29	7.02
459.48	7.02
459.66	16.38
459.84	18.72
460.03	74.90
460.21	60.85
460.39	53.83
460.57	30.43
460.76	30.43
460.94	4.68
461.12	100.64
461.31	4.68
461.49	30.43
461.67	49.15
461.85	28.09
462.04	44.47
462.22	25.75
462.40	0.00
462.59	14.04
462.77	107.66
462.95	0.00
463.13	35.11
463.32	18.72
463.50	0.00
463.68	4.68
463.86	18.72
464.05	44.47
464.23	0.00
464.41	14.04
464.59	56.17
464.78	18.72
464.96	0.00
465.14	7.02
465.32	65.54
465.50	72.56
465.69	23.41
465.87	0.00
466.05	0.00
466.23	51.49
466.41	2.34
466.60	23.41
466.78	42.13
466.96	58.51
467.14	37.45
467.32	51.49
467.51	16.38
467.69	23.41
467.87	32.77
468.05	0.00
468.23	21.06
468.41	0.00
468.60	2.34
468.78	21.06
468.96	0.00
469.14	44.47
469.32	30.43
469.50	98.30
469.69	0.00
469.87	2.34
470.05	77.24
470.23	0.00
470.41	16.38
470.59	32.77
470.77	79.58
470.95	35.11
471.14	28.09
471.32	21.06
471.50	0.00
471.68	7.02
471.86	60.85
472.04	60.85
472.22	4.68
472.40	88.94
472.58	67.88
472.77	60.85
472.95	0.00
473.13	0.00
473.31	42.13
473.49	145.11
473.67	0.00
473.85	56.17
474.03	7.02
474.21	25.75
474.39	72.56
474.57	72.56
474.75	0.00
474.93	0.00
475.12	0.00
475.30	56.17
475.48	0.00
475.66	0.00
475.84	72.56
476.02	16.38
476.20	121.71
476.38	60.85
476.56	0.00
476.74	107.66
476.92	77.24
477.10	65.54
477.28	0.00
477.46	0.00
477.64	4.68
477.82	98.30
478.00	84.26
478.18	0.00
478.36	56.17
478.54	74.90
478.72	0.00
478.90	42.13
479.08	44.47
479.26	44.47
479.44	0.00
479.62	77.24
479.80	2.34
479.98	11.70
480.16	0.00
480.34	51.49
480.52	28.09
480.70	79.58
480.88	9.36
481.06	86.60
481.24	0.00
481.41	39.79
481.59	53.83
481.77	0.00
481.95	49.15
482.13	88.94
482.31	11.70
482.49	0.00
482.67	44.47
482.85	42.13
483.03	72.56
483.21	42.13
483.39	86.60
483.57	65.54
483.74	0.00
483.92	11.70
484.10	18.72
484.28	98.30
484.46	32.77
484.64	23.41
484.82	9.36
485.00	67.88
485.18	30.43
485.35	14.04
485.53	44.47
485.71	23.41
485.89	56.17
486.07	74.90
486.25	107.66
486.43	0.00
486.61	0.00
486.78	0.00
486.96	28.09
487.14	126.39
487.32	112.35
487.50	28.09
487.68	30.43
487.85	0.00
488.03	114.69
488.21	53.83
488.39	84.26
488.57	49.15
488.75	44.47
488.92	65.54
489.10	124.05
489.28	44.47
489.46	100.64
489.64	0.00
489.81	49.15
489.99	53.83
490.17	2.34
490.35	63.19
490.53	0.00
490.70	2.34
490.88	56.17
491.06	30.43
491.24	100.64
491.41	105.32
491.59	60.85
491.77	147.45
491.95	35.11
492.13	42.13
492.30	72.56
492.48	56.17
492.66	32.77
492.84	0.00
493.01	72.56
493.19	32.77
493.37	32.77
493.54	9.36
493.72	98.30
493.90	0.00
494.08	46.81
494.25	42.13
494.43	25.75
494.61	107.66
494.79	65.54
494.96	60.85
495.14	32.77
495.32	18.72
495.49	56.17
495.67	84.26
495.85	32.77
496.02	60.85
496.20	102.98
496.38	74.90
496.55	16.38
496.73	28.09
496.91	21.06
497.09	56.17
497.26	72.56
497.44	42.13
497.62	56.17
497.79	21.06
497.97	0.00
498.14	60.85
498.32	7.02
498.50	51.49
498.67	0.00
498.85	86.60
499.03	95.96
499.20	67.88
499.38	37.45
499.56	11.70
499.73	56.17
499.91	28.09
500.08	0.00
500.26	16.38
500.44	112.35
500.61	0.00
500.79	58.51
500.97	124.05
501.14	0.00
501.32	58.51
501.49	11.70
501.67	100.64
501.84	70.22
502.02	0.00
502.20	100.64
502.37	81.92
502.55	32.77
502.72	0.00
502.90	21.06
503.07	37.45
503.25	35.11
503.43	70.22
503.60	11.70
503.78	37.45
503.95	63.19
504.13	37.45
504.30	0.00
504.48	0.00
504.65	0.00
504.83	23.41
505.01	28.09
505.18	65.54
505.36	9.36
505.53	53.83
505.71	44.47
505.88	16.38
506.06	4.68
506.23	0.00
506.41	91.28
506.58	35.11
506.76	0.00
506.93	63.19
507.11	58.51
507.28	9.36
507.46	0.00
507.63	93.62
507.81	84.26
507.98	60.85
508.16	58.51
508.33	7.02
508.50	72.56
508.68	70.22
508.85	46.81
509.03	44.47
509.20	56.17
509.38	0.00
509.55	0.00
509.73	72.56
509.90	21.06
510.08	44.47
510.25	149.79
510.42	4.68
510.60	67.88
510.77	79.58
510.95	2.34
511.12	65.54
511.30	102.98
511.47	72.56
511.64	32.77
511.82	60.85
511.99	9.36
512.17	23.41
512.34	77.24
512.51	93.62
512.69	58.51
512.86	0.00
513.04	42.13
513.21	37.45
513.38	30.43
513.56	4.68
513.73	51.49
513.90	100.64
514.08	72.56
514.25	14.04
514.43	28.09
514.60	14.04
514.77	0.00
514.95	0.00
515.12	39.79
515.29	58.51
515.47	32.77
515.64	9.36
515.81	49.15
515.99	67.88
516.16	0.00
516.33	63.19
516.51	18.72
516.68	0.00
516.85	35.11
517.03	100.64
517.20	65.54
517.37	128.73
517.54	0.00
517.72	23.41
517.89	16.38
518.06	58.51
518.24	0.00
518.41	32.77
518.58	56.17
518.75	44.47
518.93	112.35
519.10	60.85
519.27	51.49
519.45	11.70
519.62	51.49
519.79	56.17
519.96	58.51
520.14	49.15
520.31	58.51
520.48	7.02
520.65	35.11
520.83	0.00
521.00	0.00
521.17	60.85
521.34	28.09
521.52	46.81
521.69	14.04
521.86	9.36
522.03	84.26
522.20	67.88
522.38	42.13
522.55	56.17
522.72	79.58
522.89	16.38
523.07	49.15
523.24	79.58
523.41	25.75
523.58	23.41
523.75	7.02
523.92	0.00
524.10	70.22
524.27	88.94
524.44	0.00
524.61	74.90
524.78	18.72
524.96	60.85
525.13	107.66
525.30	58.51
525.47	77.24
525.64	0.00
525.81	65.54
525.98	37.45
526.16	42.13
526.33	21.06
526.50	51.49
526.67	30.43
526.84	14.04
527.01	65.54
527.18	23.41
527.36	25.75
527.53	0.00
527.70	0.00
527.87	9.36
528.04	88.94
528.21	58.51
528.38	65.54
528.55	37.45
528.72	25.75
528.89	77.24
529.07	60.85
529.24	23.41
529.41	0.00
529.58	63.19
529.75	23.41
529.92	28.09
530.09	35.11
530.26	0.00
530.43	32.77
530.60	53.83
530.77	63.19
530.94	88.94
531.11	60.85
531.28	60.85
531.46	53.83
531.63	74.90
531.80	46.81
531.97	32.77
532.14	0.00
532.31	39.79
532.48	42.13
532.65	21.06
532.82	9.36
532.99	81.92
533.16	112.35
533.33	32.77
533.50	18.72
533.67	86.60
533.84	37.45
534.01	0.00
534.18	65.54
534.35	60.85
534.52	105.32
534.69	81.92
534.86	95.96
535.03	28.09
535.20	91.28
535.37	56.17
535.54	95.96
535.71	121.71
535.88	37.45
536.05	51.49
536.22	44.47
536.38	23.41
536.55	28.09
536.72	51.49
536.89	39.79
537.06	81.92
537.23	30.43
537.40	16.38
537.57	35.11
537.74	60.85
537.91	74.90
538.08	0.00
538.25	67.88
538.42	0.00
538.59	51.49
538.75	37.45
538.92	21.06
539.09	44.47
539.26	28.09
539.43	0.00
539.60	147.45
539.77	304.27
539.94	159.16
540.11	114.69
540.28	84.26
540.44	63.19
540.61	86.60
540.78	37.45
540.95	44.47
541.12	53.83
541.29	32.77
541.46	23.41
541.62	11.70
541.79	0.00
541.96	98.30
542.13	72.56
542.30	49.15
542.47	124.05
542.63	42.13
542.80	0.00
542.97	11.70
543.14	49.15
543.31	7.02
543.48	102.98
543.64	21.06
543.81	16.38
543.98	56.17
544.15	30.43
544.32	110.01
544.48	51.49
544.65	0.00
544.82	30.43
544.99	28.09
545.16	28.09
545.32	53.83
545.49	0.00
545.66	0.00
545.83	21.06
546.00	0.00
546.16	35.11
546.33	7.02
546.50	28.09
546.67	39.79
546.83	100.64
547.00	37.45
547.17	119.37
547.34	0.00
547.50	37.45
547.67	124.05
547.84	63.19
548.00	81.92
548.17	51.49
548.34	107.66
548.51	88.94
548.67	86.60
548.84	35.11
549.01	9.36
549.18	25.75
549.34	9.36
549.51	79.58
549.68	58.51
549.84	39.79
550.01	74.90
550.18	49.15
550.34	60.85
550.51	21.06
550.68	58.51
550.84	63.19
551.01	0.00
551.18	60.85
551.34	44.47
551.51	30.43
551.68	79.58
551.84	81.92
552.01	95.96
552.18	72.56
552.34	60.85
552.51	77.24
552.68	0.00
552.84	84.26
553.01	65.54
553.18	30.43
553.34	21.06
553.51	28.09
553.67	9.36
553.84	46.81
554.01	0.00
554.17	46.81
554.34	46.81
554.51	58.51
554.67	42.13
554.84	32.77
555.00	4.68
555.17	28.09
555.33	16.38
555.50	51.49
555.67	56.17
555.83	102.98
556.00	95.96
556.16	42.13
556.33	72.56
556.50	11.70
556.66	37.45
556.83	0.00
556.99	77.24
557.16	72.56
557.32	79.58
557.49	25.75
557.65	11.70
557.82	51.49
557.98	74.90
558.15	39.79
558.32	11.70
558.48	60.85
558.65	0.00
558.81	58.51
558.98	42.13
559.14	28.09
559.31	105.32
559.47	112.35
559.64	9.36
559.80	9.36
559.97	11.70
560.13	86.60
560.30	0.00
560.46	21.06
560.63	18.72
560.79	51.49
560.96	44.47
561.12	39.79
561.29	124.05
561.45	107.66
561.61	30.43
561.78	63.19
561.94	49.15
562.11	86.60
562.27	93.62
562.44	28.09
562.60	79.58
562.77	0.00
562.93	56.17
563.10	65.54
563.26	23.41
563.42	0.00
563.59	95.96
563.75	35.11
563.92	46.81
564.08	65.54
564.24	14.04
564.41	44.47
564.57	70.22
564.74	110.01
564.90	32.77
565.07	32.77
565.23	56.17
565.39	84.26
565.56	88.94
565.72	9.36
565.88	21.06
566.05	32.77
566.21	9.36
566.38	81.92
566.54	58.51
566.70	9.36
566.87	70.22
567.03	112.35
567.19	67.88
567.36	42.13
567.52	46.81
567.68	67.88
567.85	53.83
568.01	35.11
568.17	25.75
568.34	28.09
568.50	86.60
568.66	98.30
568.83	67.88
568.99	100.64
569.15	58.51
569.32	86.60
569.48	28.09
569.64	60.85
569.81	0.00
569.97	81.92
570.13	0.00
570.30	91.28
570.46	49.15
570.62	112.35
570.78	23.41
570.95	2.34
571.11	0.00
571.27	100.64
571.43	0.00
571.60	126.39
571.76	58.51
571.92	74.90
572.09	51.49
572.25	0.00
572.41	0.00
572.57	42.13
572.74	79.58
572.90	42.13
573.06	86.60
573.22	37.45
573.38	51.49
573.55	0.00
573.71	46.81
573.87	32.77
574.03	72.56
574.20	65.54
574.36	0.00
574.52	60.85
574.68	65.54
574.84	79.58
575.01	53.83
575.17	77.24
575.33	58.51
575.49	9.36
575.65	102.98
575.82	53.83
575.98	102.98
576.14	154.48
576.30	93.62
576.46	79.58
576.62	112.35
576.79	18.72
576.95	53.83
577.11	112.35
577.27	95.96
577.43	53.83
577.59	0.00
577.75	107.66
577.92	46.81
578.08	72.56
578.24	30.43
578.40	30.43
578.56	0.00
578.72	53.83
578.88	46.81
579.04	0.00
579.21	0.00
579.37	65.54
579.53	4.68
579.69	77.24
579.85	0.00
580.01	79.58
580.17	88.94
580.33	16.38
580.49	7.02
580.65	98.30
580.82	37.45
580.98	53.83
581.14	114.69
581.30	0.00
581.46	53.83
581.62	93.62
581.78	135.75
581.94	84.26
582.10	77.24
582.26	51.49
582.42	91.28
582.58	88.94
582.74	53.83
582.90	51.49
583.06	126.39
583.22	93.62
583.38	58.51
583.54	100.64
583.70	98.30
583.86	114.69
584.02	147.45
584.18	210.65
584.34	241.08
584.50	540.66
584.66	3501.44
584.82	8659.98
584.98	12807.41
585.14	11098.82
585.30	6913.94
585.46	4121.68
585.62	2637.78
585.78	1249.85
585.94	458.74
586.10	189.58
586.26	126.39
586.42	173.20
586.58	67.88
586.74	128.73
586.90	81.92
587.06	77.24
587.22	163.84
587.38	72.56
587.54	191.92
587.70	582.79
587.86	954.94
588.02	945.58
588.18	727.91
588.34	512.58
588.49	269.16
588.65	182.56
588.81	102.98
588.97	98.30
589.13	117.03
589.29	0.00
589.45	100.64
589.61	86.60
589.77	49.15
589.93	74.90
590.08	112.35
590.24	42.13
590.40	23.41
590.56	74.90
590.72	100.64
590.88	91.28
591.04	18.72
591.20	58.51
591.35	60.85
591.51	110.01
591.67	9.36
591.83	32.77
591.99	18.72
592.15	100.64
592.31	110.01
592.46	60.85
592.62	79.58
592.78	65.54
592.94	18.72
593.10	93.62
593.26	100.64
593.41	63.19
593.57	28.09
593.73	98.30
593.89	418.96
594.05	1093.03
594.20	1558.80
594.36	1556.46
594.52	1048.56
594.68	601.52
594.84	484.49
594.99	255.12
595.15	65.54
595.31	58.51
595.47	14.04
595.62	18.72
595.78	63.19
595.94	16.38
596.10	67.88
596.25	74.90
596.41	56.17
596.57	131.07
596.73	79.58
596.88	114.69
597.04	257.46
597.20	372.15
597.36	397.89
597.51	294.91
597.67	227.03
597.83	170.86
597.99	154.48
598.14	124.05
598.30	37.45
598.46	0.00
598.61	51.49
598.77	91.28
598.93	46.81
599.09	21.06
599.24	98.30
599.40	49.15
599.56	9.36
599.71	70.22
599.87	58.51
600.03	124.05
600.18	16.38
600.34	60.85
600.50	58.51
600.65	65.54
600.81	39.79
600.97	77.24
601.12	60.85
601.28	84.26
601.44	119.37
601.59	67.88
601.75	42.13
601.91	0.00
602.06	7.02
602.22	77.24
602.37	14.04
602.53	325.33
602.69	379.17
602.84	395.55
603.00	320.65
603.16	224.69
603.31	205.97
603.47	77.24
603.62	117.03
603.78	49.15
603.94	0.00
604.09	126.39
604.25	0.00
604.40	72.56
604.56	53.83
604.71	0.00
604.87	70.22
605.03	23.41
605.18	18.72
605.34	0.00
605.49	42.13
605.65	63.19
605.80	100.64
605.96	4.68
606.12	72.56
606.27	86.60
606.43	56.17
606.58	114.69
606.74	131.07
606.89	416.62
607.05	1004.09
607.20	1343.47
607.36	1041.54
607.51	774.72
607.67	524.28
607.82	388.53
607.98	292.57
608.13	49.15
608.29	32.77
608.44	114.69
608.60	184.90
608.75	95.96
608.91	196.60
609.06	828.55
609.22	1783.49
609.37	2202.44
609.53	2036.27
609.68	1392.62
609.84	905.79
609.99	702.16
610.15	266.82
610.30	145.11
610.46	37.45
610.61	53.83
610.76	77.24
610.92	102.98
611.07	0.00
611.23	114.69
611.38	95.96
611.54	0.00
611.69	86.60
611.84	23.41
612.00	100.64
612.15	79.58
612.31	86.60
612.46	93.62
612.62	121.71
612.77	93.62
612.92	110.01
613.08	56.17
613.23	42.13
613.39	77.24
613.54	138.09
613.69	791.10
613.85	2150.95
614.00	3459.31
614.15	3751.88
614.31	2609.70
614.46	1664.12
614.62	1179.63
614.77	655.35
614.92	355.76
615.08	102.98
615.23	121.71
615.38	86.60
615.54	170.86
615.69	142.77
615.84	482.15
616.00	748.97
616.15	1015.79
616.30	802.80
616.46	524.28
616.61	355.76
616.76	194.26
616.92	63.19
617.07	79.58
617.22	0.00
617.37	74.90
617.53	77.24
617.68	145.11
617.83	0.00
617.99	4.68
618.14	16.38
618.29	91.28
618.45	114.69
618.60	0.00
618.75	53.83
618.90	86.60
619.06	77.24
619.21	28.09
619.36	65.54
619.51	88.94
619.67	51.49
619.82	25.75
619.97	42.13
620.12	32.77
620.28	49.15
620.43	9.36
620.58	25.75
620.73	49.15
620.89	25.75
621.04	110.01
621.19	180.22
621.34	482.15
621.49	676.41
621.65	486.83
621.80	400.23
621.95	234.05
622.10	212.99
622.25	102.98
622.41	25.75
622.56	91.28
622.71	37.45
622.86	51.49
623.01	35.11
623.16	39.79
623.32	63.19
623.47	0.00
623.62	72.56
623.77	0.00
623.92	42.13
624.07	145.11
624.23	32.77
624.38	25.75
624.53	93.62
624.68	42.13
624.83	42.13
624.98	49.15
625.13	21.06
625.29	4.68
625.44	0.00
625.59	39.79
625.74	58.51
625.89	133.41
626.04	423.64
626.19	1095.37
626.34	1774.13
626.49	1952.01
626.65	1378.58
626.80	952.60
626.95	650.67
627.10	395.55
627.25	196.60
627.40	98.30
627.55	98.30
627.70	84.26
627.85	4.68
628.00	105.32
628.15	0.00
628.30	30.43
628.45	65.54
628.60	0.00
628.76	110.01
628.91	51.49
629.06	42.13
629.21	14.04
629.36	37.45
629.51	0.00
629.66	7.02
629.81	70.22
629.96	135.75
630.11	355.76
630.26	517.26
630.41	372.15
630.56	416.62
630.71	234.05
630.86	198.95
631.01	21.06
631.16	88.94
631.31	110.01
631.46	107.66
631.61	44.47
631.76	7.02
631.91	16.38
632.06	110.01
632.21	79.58
632.36	56.17
632.51	112.35
632.66	28.09
632.81	166.18
632.96	599.18
633.10	1060.26
633.25	1350.49
633.40	1167.93
633.55	837.91
633.70	559.39
633.85	397.89
634.00	212.99
634.15	84.26
634.30	35.11
634.45	39.79
634.60	49.15
634.75	65.54
634.90	14.04
635.05	16.38
635.19	49.15
635.34	121.71
635.49	46.81
635.64	60.85
635.79	16.38
635.94	16.38
636.09	70.22
636.24	98.30
636.39	35.11
636.53	67.88
636.68	53.83
636.83	70.22
636.98	70.22
637.13	9.36
637.28	4.68
637.43	63.19
637.57	110.01
637.72	535.98
637.87	1558.80
638.02	2223.51
638.17	2427.14
638.32	1919.24
638.46	1174.95
638.61	868.34
638.76	571.09
638.91	273.84
639.06	170.86
639.20	149.79
639.35	128.73
639.50	142.77
639.65	863.66
639.80	2237.55
639.94	3489.74
640.09	3866.56
640.24	2862.48
640.39	1919.24
640.54	1270.91
640.68	786.42
640.83	383.85
640.98	212.99
641.13	93.62
641.27	35.11
641.42	86.60
641.57	131.07
641.72	91.28
641.86	56.17
642.01	0.00
642.16	44.47
642.31	18.72
642.45	86.60
642.60	65.54
642.75	44.47
642.90	32.77
643.04	0.00
643.19	0.00
643.34	0.00
643.48	44.47
643.63	100.64
643.78	14.04
643.93	84.26
644.07	14.04
644.22	39.79
644.37	35.11
644.51	0.00
644.66	91.28
644.81	51.49
644.95	81.92
645.10	46.81
645.25	0.00
645.39	14.04
645.54	117.03
645.69	11.70
645.83	79.58
645.98	121.71
646.13	0.00
646.27	0.00
646.42	35.11
646.57	74.90
646.71	49.15
646.86	98.30
647.00	107.66
647.15	30.43
647.30	72.56
647.44	4.68
647.59	7.02
647.74	11.70
647.88	58.51
648.03	2.34
648.17	21.06
648.32	21.06
648.47	88.94
648.61	70.22
648.76	84.26
648.90	42.13
649.05	49.15
649.20	56.17
649.34	86.60
649.49	49.15
649.63	67.88
649.78	49.15
649.92	102.98
650.07	271.50
650.21	987.71
650.36	1638.38
650.51	1966.05
650.65	1650.08
650.80	1039.20
650.94	805.14
651.09	475.13
651.23	187.24
651.38	102.98
651.52	25.75
651.67	44.47
651.81	28.09
651.96	39.79
652.10	0.00
652.25	0.00
652.39	25.75
652.54	0.00
652.68	107.66
652.83	346.40
652.97	568.75
653.12	784.08
653.26	692.80
653.41	493.85
653.55	290.23
653.70	208.31
653.84	170.86
653.99	65.54
654.13	46.81
654.27	79.58
654.42	23.41
654.56	0.00
654.71	25.75
654.85	86.60
655.00	79.58
655.14	65.54
655.29	56.17
655.43	98.30
655.57	65.54
655.72	0.00
655.86	0.00
656.01	67.88
656.15	4.68
656.30	18.72
656.44	77.24
656.58	18.72
656.73	42.13
656.87	84.26
657.01	30.43
657.16	0.00
657.30	67.88
657.45	30.43
657.59	23.41
657.73	9.36
657.88	58.51
658.02	16.38
658.16	18.72
658.31	28.09
658.45	51.49
658.60	56.17
658.74	35.11
658.88	81.92
659.03	9.36
659.17	14.04
659.31	147.45
659.46	414.27
659.60	748.97
659.74	933.87
659.89	889.40
660.03	755.99
660.17	444.70
660.32	227.03
660.46	173.20
660.60	23.41
660.74	58.51
660.89	21.06
661.03	39.79
661.17	53.83
661.32	102.98
661.46	60.85
661.60	7.02
661.74	79.58
661.89	35.11
662.03	63.19
662.17	16.38
662.31	77.24
662.46	30.43
662.60	121.71
662.74	44.47
662.88	16.38
663.03	72.56
663.17	0.00
663.31	0.00
663.45	2.34
663.60	46.81
663.74	79.58
663.88	53.83
664.02	95.96
664.17	65.54
664.31	77.24
664.45	32.77
664.59	35.11
664.73	93.62
664.88	30.43
665.02	98.30
665.16	49.15
665.30	70.22
665.44	25.75
665.59	77.24
665.73	79.58
665.87	28.09
666.01	77.24
666.15	25.75
666.29	44.47
666.44	58.51
666.58	35.11
666.72	70.22
666.86	81.92
667.00	0.00
667.14	79.58
667.28	283.20
667.43	816.85
667.57	1345.81
667.71	1638.38
667.85	1448.79
667.99	1153.88
668.13	760.67
668.27	430.66
668.41	224.69
668.56	105.32
668.70	25.75
668.84	25.75
668.98	25.75
669.12	100.64
669.26	35.11
669.40	28.09
669.54	18.72
669.68	0.00
669.82	58.51
669.96	18.72
670.10	7.02
670.25	21.06
670.39	0.00
670.53	0.00
670.67	42.13
670.81	102.98
670.95	81.92
671.09	112.35
671.23	367.46
671.37	578.11
671.51	961.96
671.65	1043.88
671.79	772.38
671.93	615.56
672.07	339.38
672.21	308.95
672.35	203.63
672.49	60.85
672.63	72.56
672.77	70.22
672.91	65.54
673.05	0.00
673.19	25.75
673.33	84.26
673.47	9.36
673.61	2.34
673.75	44.47
673.89	72.56
674.03	51.49
674.17	37.45
674.31	0.00
674.45	0.00
674.59	112.35
674.73	30.43
674.87	51.49
675.01	77.24
675.15	39.79
675.29	16.38
675.43	11.70
675.56	23.41
675.70	110.01
675.84	110.01
675.98	21.06
676.12	79.58
676.26	44.47
676.40	42.13
676.54	46.81
676.68	0.00
676.82	58.51
676.96	114.69
677.10	0.00
677.23	58.51
677.37	42.13
677.51	14.04
677.65	0.00
677.79	46.81
677.93	21.06
678.07	46.81
678.21	7.02
678.34	7.02
678.48	0.00
678.62	16.38
678.76	21.06
678.90	0.00
679.04	0.00
679.18	72.56
679.31	0.00
679.45	25.75
679.59	0.00
679.73	21.06
679.87	28.09
680.00	70.22
680.14	28.09
680.28	21.06
680.42	0.00
680.56	0.00
680.70	67.88
680.83	102.98
680.97	21.06
681.11	0.00
681.25	0.00
681.39	88.94
681.52	7.02
681.66	42.13
681.80	0.00
681.94	2.34
682.07	16.38
682.21	56.17
682.35	4.68
682.49	4.68
682.62	7.02
682.76	42.13
682.90	63.19
683.04	39.79
683.17	100.64
683.31	74.90
683.45	9.36
683.59	0.00
683.72	2.34
683.86	28.09
684.00	93.62
684.13	56.17
684.27	39.79
684.41	70.22
684.55	7.02
684.68	7.02
684.82	0.00
684.96	28.09
685.09	63.19
685.23	81.92
685.37	112.35
685.50	0.00
685.64	107.66
685.78	35.11
685.91	72.56
686.05	35.11
686.19	56.17
686.32	0.00
686.46	0.00
686.60	14.04
686.73	16.38
686.87	0.00
687.01	63.19
687.14	0.00
687.28	7.02
687.42	65.54
687.55	0.00
687.69	25.75
687.82	105.32
687.96	100.64
688.10	77.24
688.23	74.90
688.37	67.88
688.50	28.09
688.64	0.00
688.78	49.15
688.91	65.54
689.05	23.41
689.18	53.83
689.32	4.68
689.46	46.81
689.59	70.22
689.73	16.38
689.86	42.13
690.00	0.00
690.13	0.00
690.27	46.81
690.41	0.00
690.54	0.00
690.68	4.68
690.81	56.17
690.95	79.58
691.08	88.94
691.22	44.47
691.35	0.00
691.49	35.11
691.62	49.15
691.76	0.00
691.89	60.85
692.03	18.72
692.16	102.98
692.30	65.54
692.43	77.24
692.57	278.52
692.70	533.64
692.84	777.06
692.97	631.94
693.11	566.41
693.24	351.08
693.38	280.86
693.51	191.92
693.65	154.48
693.78	126.39
693.92	112.35
694.05	77.24
694.19	18.72
694.32	23.41
694.45	28.09
694.59	37.45
694.72	0.00
694.86	23.41
694.99	0.00
695.13	25.75
695.26	16.38
695.39	21.06
695.53	0.00
695.66	44.47
695.80	7.02
695.93	9.36
696.07	70.22
696.20	107.66
696.33	25.75
696.47	112.35
696.60	152.13
696.73	56.17
696.87	65.54
697.00	79.58
697.14	56.17
697.27	0.00
697.40	65.54
697.54	79.58
697.67	18.72
697.80	0.00
697.94	56.17
698.07	4.68
698.21	0.00
698.34	60.85
698.47	53.83
698.61	2.34
698.74	0.00
698.87	70.22
699.01	117.03
699.14	105.32
699.27	81.92
699.40	81.92
699.54	35.11
699.67	32.77
699.80	58.51
699.94	65.54
700.07	0.00
700.20	0.00
700.34	42.13
700.47	0.00
700.60	9.36
700.73	30.43
700.87	46.81
701.00	58.51
701.13	35.11
701.26	7.02
701.40	0.00
701.53	30.43
701.66	53.83
701.79	72.56
701.93	81.92
702.06	60.85
702.19	18.72
702.32	84.26
702.46	131.07
702.59	77.24
702.72	168.52
702.85	397.89
702.99	1004.09
703.12	1294.32
703.25	1439.43
703.38	1233.46
703.51	980.68
703.65	896.43
703.78	575.77
703.91	390.87
704.04	194.26
704.17	149.79
704.31	117.03
704.44	60.85
704.57	91.28
704.70	0.00
704.83	4.68
704.96	0.00
705.10	79.58
705.23	0.00
>>>>>End Processed Spectral Data<<<<<
