SpectraSuite Data File
++++++++++++++++++++++++++++++++++++
Date: Fri Oct 04 12:13:33 GMT-05:00 2013
User: price-jones
Dark Spectrum Present: No
Reference Spectrum Present: No
Number of Sampled Component Spectra: 1
Spectrometers: USB2+H05261
Integration Time (usec): 10000 (USB2+H05261)
Spectra Averaged: 1 (USB2+H05261)
Boxcar Smoothing: 0 (USB2+H05261)
Correct for Electrical Dark: No (USB2+H05261)
Strobe/Lamp Enabled: No (USB2+H05261)
Correct for Detector Non-linearity: No (USB2+H05261)
Correct for Stray Light: No (USB2+H05261)
Number of Pixels in Processed Spectrum: 2048
>>>>>Begin Processed Spectral Data<<<<<
365.73	65.54
365.92	65.54
366.12	65.54
366.32	0.00
366.52	0.00
366.72	0.00
366.91	0.00
367.11	0.00
367.31	0.00
367.51	0.00
367.70	0.00
367.90	0.00
368.10	0.00
368.30	0.00
368.49	0.00
368.69	0.00
368.89	0.00
369.09	0.00
369.28	0.00
369.48	0.00
369.68	0.00
369.87	0.00
370.07	0.00
370.27	0.00
370.47	0.00
370.66	0.00
370.86	0.00
371.06	0.00
371.25	0.00
371.45	0.00
371.65	21.06
371.84	0.00
372.04	0.00
372.24	0.00
372.44	37.45
372.63	0.00
372.83	84.26
373.03	23.41
373.22	14.04
373.42	58.51
373.62	21.06
373.81	16.38
374.01	74.90
374.21	0.00
374.40	0.00
374.60	107.66
374.79	100.64
374.99	124.05
375.19	86.60
375.38	37.45
375.58	63.19
375.78	60.85
375.97	58.51
376.17	9.36
376.37	14.04
376.56	63.19
376.76	49.15
376.95	65.54
377.15	0.00
377.35	30.43
377.54	30.43
377.74	0.00
377.93	0.00
378.13	2.34
378.33	0.00
378.52	84.26
378.72	7.02
378.91	11.70
379.11	0.00
379.31	28.09
379.50	30.43
379.70	0.00
379.89	0.00
380.09	0.00
380.28	21.06
380.48	0.00
380.68	0.00
380.87	0.00
381.07	18.72
381.26	0.00
381.46	11.70
381.65	0.00
381.85	9.36
382.04	32.77
382.24	9.36
382.43	25.75
382.63	58.51
382.83	0.00
383.02	25.75
383.22	51.49
383.41	23.41
383.61	70.22
383.80	18.72
384.00	0.00
384.19	30.43
384.39	16.38
384.58	23.41
384.78	32.77
384.97	65.54
385.17	0.00
385.36	0.00
385.56	39.79
385.75	0.00
385.95	49.15
386.14	2.34
386.34	74.90
386.53	32.77
386.72	56.17
386.92	42.13
387.11	16.38
387.31	9.36
387.50	14.04
387.70	7.02
387.89	93.62
388.09	88.94
388.28	58.51
388.48	39.79
388.67	14.04
388.86	0.00
389.06	23.41
389.25	67.88
389.45	0.00
389.64	51.49
389.84	67.88
390.03	30.43
390.22	58.51
390.42	14.04
390.61	0.00
390.81	49.15
391.00	0.00
391.19	0.00
391.39	0.00
391.58	51.49
391.78	37.45
391.97	2.34
392.16	39.79
392.36	0.00
392.55	37.45
392.75	14.04
392.94	28.09
393.13	35.11
393.33	11.70
393.52	28.09
393.71	4.68
393.91	86.60
394.10	21.06
394.29	35.11
394.49	21.06
394.68	4.68
394.88	11.70
395.07	67.88
395.26	4.68
395.46	0.00
395.65	18.72
395.84	0.00
396.04	53.83
396.23	0.00
396.42	0.00
396.62	0.00
396.81	0.00
397.00	18.72
397.19	0.00
397.39	70.22
397.58	30.43
397.77	88.94
397.97	0.00
398.16	0.00
398.35	95.96
398.55	0.00
398.74	42.13
398.93	74.90
399.12	18.72
399.32	28.09
399.51	49.15
399.70	98.30
399.90	2.34
400.09	39.79
400.28	0.00
400.47	77.24
400.67	4.68
400.86	0.00
401.05	0.00
401.24	9.36
401.44	51.49
401.63	35.11
401.82	2.34
402.01	0.00
402.21	42.13
402.40	0.00
402.59	44.47
402.78	56.17
402.97	0.00
403.17	0.00
403.36	53.83
403.55	0.00
403.74	102.98
403.93	56.17
404.13	32.77
404.32	7.02
404.51	37.45
404.70	51.49
404.89	135.75
405.09	67.88
405.28	0.00
405.47	14.04
405.66	25.75
405.85	14.04
406.05	56.17
406.24	0.00
406.43	0.00
406.62	0.00
406.81	0.00
407.00	0.00
407.20	2.34
407.39	23.41
407.58	98.30
407.77	0.00
407.96	0.00
408.15	0.00
408.34	58.51
408.54	35.11
408.73	37.45
408.92	4.68
409.11	58.51
409.30	0.00
409.49	16.38
409.68	0.00
409.87	0.00
410.07	0.00
410.26	0.00
410.45	37.45
410.64	91.28
410.83	60.85
411.02	112.35
411.21	60.85
411.40	30.43
411.59	42.13
411.78	65.54
411.98	16.38
412.17	2.34
412.36	0.00
412.55	0.00
412.74	14.04
412.93	72.56
413.12	18.72
413.31	0.00
413.50	63.19
413.69	51.49
413.88	84.26
414.07	63.19
414.26	0.00
414.45	28.09
414.64	63.19
414.83	28.09
415.02	53.83
415.22	60.85
415.41	0.00
415.60	23.41
415.79	14.04
415.98	67.88
416.17	58.51
416.36	84.26
416.55	72.56
416.74	65.54
416.93	46.81
417.12	0.00
417.31	65.54
417.50	39.79
417.69	65.54
417.88	39.79
418.07	14.04
418.26	14.04
418.45	14.04
418.64	30.43
418.83	30.43
419.02	42.13
419.21	11.70
419.39	58.51
419.58	4.68
419.77	39.79
419.96	28.09
420.15	7.02
420.34	18.72
420.53	39.79
420.72	63.19
420.91	18.72
421.10	65.54
421.29	11.70
421.48	0.00
421.67	16.38
421.86	23.41
422.05	119.37
422.24	25.75
422.43	77.24
422.61	53.83
422.80	0.00
422.99	49.15
423.18	63.19
423.37	25.75
423.56	35.11
423.75	18.72
423.94	0.00
424.13	14.04
424.32	0.00
424.50	21.06
424.69	53.83
424.88	0.00
425.07	117.03
425.26	25.75
425.45	9.36
425.64	30.43
425.83	23.41
426.01	11.70
426.20	0.00
426.39	77.24
426.58	0.00
426.77	25.75
426.96	121.71
427.15	16.38
427.33	28.09
427.52	63.19
427.71	58.51
427.90	58.51
428.09	28.09
428.28	44.47
428.46	32.77
428.65	0.00
428.84	11.70
429.03	63.19
429.22	49.15
429.40	28.09
429.59	0.00
429.78	79.58
429.97	49.15
430.16	37.45
430.34	81.92
430.53	0.00
430.72	23.41
430.91	112.35
431.10	74.90
431.28	35.11
431.47	32.77
431.66	14.04
431.85	0.00
432.03	44.47
432.22	4.68
432.41	72.56
432.60	63.19
432.79	65.54
432.97	42.13
433.16	60.85
433.35	28.09
433.54	32.77
433.72	39.79
433.91	0.00
434.10	81.92
434.28	0.00
434.47	18.72
434.66	0.00
434.85	49.15
435.03	0.00
435.22	0.00
435.41	46.81
435.59	58.51
435.78	0.00
435.97	39.79
436.16	14.04
436.34	23.41
436.53	0.00
436.72	65.54
436.90	35.11
437.09	0.00
437.28	74.90
437.46	46.81
437.65	84.26
437.84	9.36
438.02	42.13
438.21	114.69
438.40	28.09
438.58	42.13
438.77	4.68
438.96	42.13
439.14	14.04
439.33	51.49
439.52	4.68
439.70	0.00
439.89	79.58
440.08	60.85
440.26	18.72
440.45	28.09
440.63	56.17
440.82	44.47
441.01	74.90
441.19	102.98
441.38	2.34
441.57	25.75
441.75	9.36
441.94	67.88
442.12	25.75
442.31	37.45
442.50	37.45
442.68	42.13
442.87	93.62
443.05	23.41
443.24	49.15
443.43	0.00
443.61	60.85
443.80	74.90
443.98	16.38
444.17	32.77
444.35	0.00
444.54	86.60
444.73	93.62
444.91	37.45
445.10	4.68
445.28	7.02
445.47	65.54
445.65	37.45
445.84	0.00
446.02	42.13
446.21	79.58
446.39	77.24
446.58	46.81
446.77	79.58
446.95	0.00
447.14	56.17
447.32	46.81
447.51	18.72
447.69	60.85
447.88	0.00
448.06	0.00
448.25	72.56
448.43	4.68
448.62	0.00
448.80	23.41
448.99	42.13
449.17	0.00
449.36	23.41
449.54	91.28
449.73	0.00
449.91	112.35
450.10	56.17
450.28	56.17
450.46	37.45
450.65	28.09
450.83	11.70
451.02	63.19
451.20	21.06
451.39	35.11
451.57	14.04
451.76	32.77
451.94	53.83
452.13	117.03
452.31	49.15
452.49	14.04
452.68	23.41
452.86	91.28
453.05	0.00
453.23	0.00
453.42	0.00
453.60	0.00
453.78	9.36
453.97	28.09
454.15	56.17
454.34	39.79
454.52	30.43
454.70	46.81
454.89	2.34
455.07	21.06
455.26	0.00
455.44	23.41
455.62	53.83
455.81	67.88
455.99	74.90
456.17	42.13
456.36	2.34
456.54	18.72
456.73	46.81
456.91	0.00
457.09	35.11
457.28	32.77
457.46	0.00
457.64	28.09
457.83	21.06
458.01	0.00
458.19	23.41
458.38	65.54
458.56	21.06
458.74	23.41
458.93	58.51
459.11	49.15
459.29	79.58
459.48	119.37
459.66	0.00
459.84	93.62
460.03	42.13
460.21	42.13
460.39	95.96
460.57	9.36
460.76	86.60
460.94	81.92
461.12	44.47
461.31	9.36
461.49	14.04
461.67	51.49
461.85	21.06
462.04	9.36
462.22	49.15
462.40	21.06
462.59	14.04
462.77	14.04
462.95	25.75
463.13	79.58
463.32	37.45
463.50	58.51
463.68	0.00
463.86	18.72
464.05	0.00
464.23	79.58
464.41	23.41
464.59	7.02
464.78	4.68
464.96	0.00
465.14	102.98
465.32	37.45
465.50	65.54
465.69	37.45
465.87	63.19
466.05	0.00
466.23	114.69
466.41	121.71
466.60	37.45
466.78	58.51
466.96	67.88
467.14	58.51
467.32	95.96
467.51	51.49
467.69	81.92
467.87	0.00
468.05	7.02
468.23	88.94
468.41	81.92
468.60	9.36
468.78	67.88
468.96	9.36
469.14	51.49
469.32	63.19
469.50	65.54
469.69	44.47
469.87	37.45
470.05	35.11
470.23	65.54
470.41	42.13
470.59	11.70
470.77	9.36
470.95	84.26
471.14	70.22
471.32	65.54
471.50	0.00
471.68	23.41
471.86	0.00
472.04	30.43
472.22	0.00
472.40	9.36
472.58	67.88
472.77	0.00
472.95	56.17
473.13	60.85
473.31	28.09
473.49	30.43
473.67	81.92
473.85	46.81
474.03	32.77
474.21	0.00
474.39	44.47
474.57	65.54
474.75	30.43
474.93	0.00
475.12	28.09
475.30	72.56
475.48	100.64
475.66	91.28
475.84	70.22
476.02	42.13
476.20	74.90
476.38	2.34
476.56	49.15
476.74	79.58
476.92	30.43
477.10	23.41
477.28	112.35
477.46	42.13
477.64	0.00
477.82	2.34
478.00	46.81
478.18	0.00
478.36	9.36
478.54	0.00
478.72	32.77
478.90	49.15
479.08	77.24
479.26	16.38
479.44	107.66
479.62	23.41
479.80	21.06
479.98	72.56
480.16	72.56
480.34	0.00
480.52	25.75
480.70	0.00
480.88	91.28
481.06	107.66
481.24	51.49
481.41	4.68
481.59	21.06
481.77	9.36
481.95	60.85
482.13	23.41
482.31	21.06
482.49	0.00
482.67	84.26
482.85	67.88
483.03	18.72
483.21	21.06
483.39	46.81
483.57	88.94
483.74	42.13
483.92	49.15
484.10	58.51
484.28	51.49
484.46	14.04
484.64	32.77
484.82	28.09
485.00	53.83
485.18	46.81
485.35	25.75
485.53	0.00
485.71	81.92
485.89	56.17
486.07	7.02
486.25	0.00
486.43	14.04
486.61	14.04
486.78	28.09
486.96	18.72
487.14	65.54
487.32	35.11
487.50	32.77
487.68	9.36
487.85	9.36
488.03	81.92
488.21	0.00
488.39	65.54
488.57	0.00
488.75	7.02
488.92	124.05
489.10	46.81
489.28	35.11
489.46	37.45
489.64	23.41
489.81	95.96
489.99	60.85
490.17	72.56
490.35	126.39
490.53	77.24
490.70	9.36
490.88	117.03
491.06	28.09
491.24	49.15
491.41	32.77
491.59	93.62
491.77	46.81
491.95	39.79
492.13	46.81
492.30	102.98
492.48	65.54
492.66	53.83
492.84	28.09
493.01	28.09
493.19	84.26
493.37	81.92
493.54	53.83
493.72	35.11
493.90	30.43
494.08	0.00
494.25	28.09
494.43	98.30
494.61	2.34
494.79	60.85
494.96	9.36
495.14	79.58
495.32	131.07
495.49	84.26
495.67	102.98
495.85	18.72
496.02	51.49
496.20	23.41
496.38	0.00
496.55	14.04
496.73	56.17
496.91	0.00
497.09	65.54
497.26	51.49
497.44	128.73
497.62	60.85
497.79	0.00
497.97	56.17
498.14	84.26
498.32	39.79
498.50	72.56
498.67	32.77
498.85	70.22
499.03	0.00
499.20	56.17
499.38	79.58
499.56	98.30
499.73	23.41
499.91	0.00
500.08	16.38
500.26	11.70
500.44	0.00
500.61	0.00
500.79	114.69
500.97	14.04
501.14	0.00
501.32	79.58
501.49	32.77
501.67	35.11
501.84	9.36
502.02	67.88
502.20	110.01
502.37	67.88
502.55	60.85
502.72	72.56
502.90	32.77
503.07	65.54
503.25	0.00
503.43	9.36
503.60	0.00
503.78	79.58
503.95	0.00
504.13	60.85
504.30	49.15
504.48	39.79
504.65	11.70
504.83	42.13
505.01	23.41
505.18	7.02
505.36	49.15
505.53	65.54
505.71	72.56
505.88	30.43
506.06	63.19
506.23	63.19
506.41	0.00
506.58	105.32
506.76	0.00
506.93	32.77
507.11	44.47
507.28	56.17
507.46	63.19
507.63	0.00
507.81	51.49
507.98	14.04
508.16	60.85
508.33	28.09
508.50	131.07
508.68	23.41
508.85	42.13
509.03	30.43
509.20	119.37
509.38	42.13
509.55	23.41
509.73	23.41
509.90	0.00
510.08	74.90
510.25	25.75
510.42	46.81
510.60	63.19
510.77	30.43
510.95	53.83
511.12	56.17
511.30	42.13
511.47	44.47
511.64	72.56
511.82	70.22
511.99	93.62
512.17	44.47
512.34	77.24
512.51	84.26
512.69	95.96
512.86	9.36
513.04	84.26
513.21	53.83
513.38	30.43
513.56	70.22
513.73	0.00
513.90	58.51
514.08	37.45
514.25	60.85
514.43	0.00
514.60	0.00
514.77	93.62
514.95	77.24
515.12	53.83
515.29	37.45
515.47	46.81
515.64	58.51
515.81	0.00
515.99	0.00
516.16	51.49
516.33	70.22
516.51	37.45
516.68	86.60
516.85	119.37
517.03	39.79
517.20	56.17
517.37	39.79
517.54	58.51
517.72	21.06
517.89	42.13
518.06	58.51
518.24	81.92
518.41	4.68
518.58	119.37
518.75	32.77
518.93	93.62
519.10	18.72
519.27	53.83
519.45	4.68
519.62	39.79
519.79	56.17
519.96	2.34
520.14	105.32
520.31	86.60
520.48	35.11
520.65	42.13
520.83	74.90
521.00	35.11
521.17	0.00
521.34	35.11
521.52	56.17
521.69	42.13
521.86	60.85
522.03	9.36
522.20	42.13
522.38	25.75
522.55	0.00
522.72	32.77
522.89	65.54
523.07	9.36
523.24	0.00
523.41	79.58
523.58	70.22
523.75	70.22
523.92	58.51
524.10	39.79
524.27	25.75
524.44	32.77
524.61	67.88
524.78	119.37
524.96	81.92
525.13	63.19
525.30	39.79
525.47	0.00
525.64	28.09
525.81	23.41
525.98	42.13
526.16	51.49
526.33	30.43
526.50	49.15
526.67	77.24
526.84	21.06
527.01	4.68
527.18	7.02
527.36	72.56
527.53	23.41
527.70	9.36
527.87	21.06
528.04	133.41
528.21	84.26
528.38	21.06
528.55	32.77
528.72	63.19
528.89	21.06
529.07	72.56
529.24	124.05
529.41	74.90
529.58	98.30
529.75	44.47
529.92	72.56
530.09	135.75
530.26	95.96
530.43	32.77
530.60	65.54
530.77	21.06
530.94	56.17
531.11	70.22
531.28	42.13
531.46	0.00
531.63	49.15
531.80	51.49
531.97	81.92
532.14	86.60
532.31	98.30
532.48	0.00
532.65	35.11
532.82	0.00
532.99	135.75
533.16	114.69
533.33	70.22
533.50	56.17
533.67	100.64
533.84	30.43
534.01	49.15
534.18	23.41
534.35	93.62
534.52	86.60
534.69	23.41
534.86	58.51
535.03	32.77
535.20	39.79
535.37	4.68
535.54	56.17
535.71	18.72
535.88	56.17
536.05	42.13
536.22	49.15
536.38	42.13
536.55	63.19
536.72	14.04
536.89	51.49
537.06	14.04
537.23	77.24
537.40	4.68
537.57	42.13
537.74	39.79
537.91	72.56
538.08	88.94
538.25	7.02
538.42	53.83
538.59	39.79
538.75	131.07
538.92	53.83
539.09	119.37
539.26	117.03
539.43	112.35
539.60	86.60
539.77	70.22
539.94	49.15
540.11	35.11
540.28	42.13
540.44	49.15
540.61	74.90
540.78	42.13
540.95	9.36
541.12	53.83
541.29	39.79
541.46	0.00
541.62	91.28
541.79	65.54
541.96	0.00
542.13	65.54
542.30	28.09
542.47	95.96
542.63	30.43
542.80	46.81
542.97	0.00
543.14	42.13
543.31	72.56
543.48	0.00
543.64	93.62
543.81	14.04
543.98	9.36
544.15	37.45
544.32	11.70
544.48	81.92
544.65	46.81
544.82	49.15
544.99	100.64
545.16	98.30
545.32	14.04
545.49	0.00
545.66	4.68
545.83	35.11
546.00	53.83
546.16	0.00
546.33	25.75
546.50	81.92
546.67	11.70
546.83	77.24
547.00	0.00
547.17	28.09
547.34	53.83
547.50	72.56
547.67	42.13
547.84	0.00
548.00	2.34
548.17	25.75
548.34	0.00
548.51	18.72
548.67	35.11
548.84	18.72
549.01	51.49
549.18	72.56
549.34	74.90
549.51	86.60
549.68	32.77
549.84	39.79
550.01	32.77
550.18	88.94
550.34	70.22
550.51	23.41
550.68	42.13
550.84	37.45
551.01	44.47
551.18	0.00
551.34	28.09
551.51	16.38
551.68	56.17
551.84	4.68
552.01	65.54
552.18	23.41
552.34	58.51
552.51	30.43
552.68	0.00
552.84	124.05
553.01	117.03
553.18	117.03
553.34	124.05
553.51	25.75
553.67	95.96
553.84	79.58
554.01	46.81
554.17	51.49
554.34	58.51
554.51	37.45
554.67	110.01
554.84	25.75
555.00	56.17
555.17	65.54
555.33	79.58
555.50	121.71
555.67	81.92
555.83	74.90
556.00	30.43
556.16	0.00
556.33	35.11
556.50	16.38
556.66	0.00
556.83	32.77
556.99	74.90
557.16	91.28
557.32	0.00
557.49	25.75
557.65	46.81
557.82	131.07
557.98	37.45
558.15	46.81
558.32	84.26
558.48	74.90
558.65	0.00
558.81	81.92
558.98	0.00
559.14	18.72
559.31	56.17
559.47	63.19
559.64	30.43
559.80	65.54
559.97	37.45
560.13	72.56
560.30	88.94
560.46	70.22
560.63	28.09
560.79	0.00
560.96	35.11
561.12	175.54
561.29	42.13
561.45	58.51
561.61	0.00
561.78	7.02
561.94	86.60
562.11	30.43
562.27	0.00
562.44	37.45
562.60	28.09
562.77	67.88
562.93	46.81
563.10	95.96
563.26	25.75
563.42	72.56
563.59	65.54
563.75	14.04
563.92	65.54
564.08	74.90
564.24	0.00
564.41	86.60
564.57	74.90
564.74	9.36
564.90	58.51
565.07	14.04
565.23	0.00
565.39	14.04
565.56	18.72
565.72	21.06
565.88	23.41
566.05	60.85
566.21	0.00
566.38	105.32
566.54	11.70
566.70	60.85
566.87	23.41
567.03	63.19
567.19	72.56
567.36	72.56
567.52	35.11
567.68	21.06
567.85	0.00
568.01	77.24
568.17	72.56
568.34	65.54
568.50	53.83
568.66	0.00
568.83	0.00
568.99	21.06
569.15	35.11
569.32	32.77
569.48	53.83
569.64	74.90
569.81	37.45
569.97	9.36
570.13	32.77
570.30	39.79
570.46	100.64
570.62	79.58
570.78	105.32
570.95	0.00
571.11	4.68
571.27	35.11
571.43	32.77
571.60	70.22
571.76	49.15
571.92	18.72
572.09	16.38
572.25	18.72
572.41	93.62
572.57	149.79
572.74	42.13
572.90	133.41
573.06	93.62
573.22	72.56
573.38	77.24
573.55	58.51
573.71	49.15
573.87	0.00
574.03	18.72
574.20	70.22
574.36	67.88
574.52	37.45
574.68	0.00
574.84	53.83
575.01	49.15
575.17	44.47
575.33	49.15
575.49	70.22
575.65	88.94
575.82	49.15
575.98	39.79
576.14	49.15
576.30	72.56
576.46	60.85
576.62	14.04
576.79	46.81
576.95	117.03
577.11	0.00
577.27	107.66
577.43	149.79
577.59	44.47
577.75	0.00
577.92	44.47
578.08	35.11
578.24	2.34
578.40	53.83
578.56	0.00
578.72	51.49
578.88	39.79
579.04	35.11
579.21	79.58
579.37	105.32
579.53	56.17
579.69	2.34
579.85	42.13
580.01	58.51
580.17	0.00
580.33	51.49
580.49	44.47
580.65	86.60
580.82	0.00
580.98	60.85
581.14	11.70
581.30	35.11
581.46	42.13
581.62	0.00
581.78	58.51
581.94	79.58
582.10	65.54
582.26	42.13
582.42	79.58
582.58	65.54
582.74	100.64
582.90	37.45
583.06	42.13
583.22	56.17
583.38	81.92
583.54	70.22
583.70	46.81
583.86	0.00
584.02	49.15
584.18	88.94
584.34	74.90
584.50	56.17
584.66	56.17
584.82	7.02
584.98	110.01
585.14	60.85
585.30	168.52
585.46	53.83
585.62	46.81
585.78	114.69
585.94	42.13
586.10	0.00
586.26	0.00
586.42	58.51
586.58	23.41
586.74	11.70
586.90	51.49
587.06	63.19
587.22	60.85
587.38	35.11
587.54	60.85
587.70	25.75
587.86	49.15
588.02	39.79
588.18	0.00
588.34	79.58
588.49	0.00
588.65	0.00
588.81	67.88
588.97	21.06
589.13	18.72
589.29	2.34
589.45	0.00
589.61	44.47
589.77	126.39
589.93	74.90
590.08	49.15
590.24	0.00
590.40	37.45
590.56	81.92
590.72	18.72
590.88	39.79
591.04	58.51
591.20	51.49
591.35	23.41
591.51	53.83
591.67	53.83
591.83	58.51
591.99	18.72
592.15	14.04
592.31	93.62
592.46	11.70
592.62	74.90
592.78	21.06
592.94	70.22
593.10	0.00
593.26	72.56
593.41	23.41
593.57	39.79
593.73	18.72
593.89	60.85
594.05	63.19
594.20	2.34
594.36	42.13
594.52	18.72
594.68	58.51
594.84	46.81
594.99	42.13
595.15	0.00
595.31	0.00
595.47	91.28
595.62	72.56
595.78	46.81
595.94	28.09
596.10	74.90
596.25	67.88
596.41	18.72
596.57	0.00
596.73	67.88
596.88	65.54
597.04	14.04
597.20	37.45
597.36	49.15
597.51	79.58
597.67	42.13
597.83	60.85
597.99	42.13
598.14	11.70
598.30	32.77
598.46	46.81
598.61	46.81
598.77	44.47
598.93	0.00
599.09	77.24
599.24	0.00
599.40	110.01
599.56	84.26
599.71	9.36
599.87	63.19
600.03	32.77
600.18	81.92
600.34	25.75
600.50	16.38
600.65	35.11
600.81	14.04
600.97	32.77
601.12	46.81
601.28	49.15
601.44	51.49
601.59	58.51
601.75	0.00
601.91	0.00
602.06	9.36
602.22	9.36
602.37	79.58
602.53	70.22
602.69	53.83
602.84	77.24
603.00	0.00
603.16	0.00
603.31	63.19
603.47	58.51
603.62	102.98
603.78	18.72
603.94	46.81
604.09	35.11
604.25	23.41
604.40	0.00
604.56	53.83
604.71	37.45
604.87	11.70
605.03	114.69
605.18	46.81
605.34	63.19
605.49	74.90
605.65	28.09
605.80	70.22
605.96	46.81
606.12	49.15
606.27	95.96
606.43	42.13
606.58	9.36
606.74	77.24
606.89	44.47
607.05	7.02
607.20	0.00
607.36	0.00
607.51	44.47
607.67	11.70
607.82	84.26
607.98	42.13
608.13	0.00
608.29	9.36
608.44	39.79
608.60	0.00
608.75	2.34
608.91	114.69
609.06	14.04
609.22	65.54
609.37	32.77
609.53	9.36
609.68	0.00
609.84	53.83
609.99	42.13
610.15	100.64
610.30	74.90
610.46	91.28
610.61	23.41
610.76	110.01
610.92	0.00
611.07	0.00
611.23	28.09
611.38	25.75
611.54	0.00
611.69	56.17
611.84	0.00
612.00	23.41
612.15	0.00
612.31	0.00
612.46	46.81
612.62	0.00
612.77	16.38
612.92	37.45
613.08	0.00
613.23	25.75
613.39	39.79
613.54	25.75
613.69	53.83
613.85	14.04
614.00	56.17
614.15	49.15
614.31	0.00
614.46	4.68
614.62	0.00
614.77	35.11
614.92	44.47
615.08	28.09
615.23	0.00
615.38	46.81
615.54	0.00
615.69	21.06
615.84	53.83
616.00	18.72
616.15	2.34
616.30	119.37
616.46	23.41
616.61	39.79
616.76	7.02
616.92	42.13
617.07	16.38
617.22	0.00
617.37	60.85
617.53	81.92
617.68	0.00
617.83	110.01
617.99	79.58
618.14	60.85
618.29	46.81
618.45	9.36
618.60	77.24
618.75	77.24
618.90	21.06
619.06	35.11
619.21	2.34
619.36	100.64
619.51	65.54
619.67	79.58
619.82	18.72
619.97	84.26
620.12	25.75
620.28	21.06
620.43	18.72
620.58	30.43
620.73	0.00
620.89	18.72
621.04	100.64
621.19	51.49
621.34	65.54
621.49	32.77
621.65	0.00
621.80	9.36
621.95	77.24
622.10	32.77
622.25	16.38
622.41	2.34
622.56	7.02
622.71	39.79
622.86	28.09
623.01	0.00
623.16	25.75
623.32	42.13
623.47	42.13
623.62	58.51
623.77	23.41
623.92	49.15
624.07	23.41
624.23	0.00
624.38	72.56
624.53	23.41
624.68	51.49
624.83	49.15
624.98	49.15
625.13	51.49
625.29	39.79
625.44	35.11
625.59	112.35
625.74	81.92
625.89	100.64
626.04	58.51
626.19	18.72
626.34	18.72
626.49	58.51
626.65	46.81
626.80	11.70
626.95	49.15
627.10	42.13
627.25	49.15
627.40	23.41
627.55	32.77
627.70	0.00
627.85	46.81
628.00	42.13
628.15	0.00
628.30	0.00
628.45	0.00
628.60	0.00
628.76	0.00
628.91	9.36
629.06	2.34
629.21	91.28
629.36	0.00
629.51	86.60
629.66	91.28
629.81	11.70
629.96	18.72
630.11	51.49
630.26	107.66
630.41	2.34
630.56	21.06
630.71	25.75
630.86	0.00
631.01	46.81
631.16	84.26
631.31	119.37
631.46	0.00
631.61	88.94
631.76	14.04
631.91	49.15
632.06	9.36
632.21	37.45
632.36	60.85
632.51	60.85
632.66	51.49
632.81	0.00
632.96	84.26
633.10	39.79
633.25	23.41
633.40	49.15
633.55	56.17
633.70	49.15
633.85	79.58
634.00	100.64
634.15	81.92
634.30	37.45
634.45	18.72
634.60	49.15
634.75	56.17
634.90	28.09
635.05	95.96
635.19	30.43
635.34	58.51
635.49	56.17
635.64	2.34
635.79	60.85
635.94	7.02
636.09	140.43
636.24	28.09
636.39	42.13
636.53	25.75
636.68	4.68
636.83	2.34
636.98	9.36
637.13	0.00
637.28	11.70
637.43	32.77
637.57	42.13
637.72	46.81
637.87	0.00
638.02	91.28
638.17	65.54
638.32	2.34
638.46	56.17
638.61	18.72
638.76	72.56
638.91	49.15
639.06	0.00
639.20	0.00
639.35	49.15
639.50	91.28
639.65	119.37
639.80	18.72
639.94	21.06
640.09	23.41
640.24	7.02
640.39	0.00
640.54	145.11
640.68	128.73
640.83	65.54
640.98	65.54
641.13	42.13
641.27	105.32
641.42	102.98
641.57	53.83
641.72	7.02
641.86	37.45
642.01	49.15
642.16	56.17
642.31	11.70
642.45	23.41
642.60	60.85
642.75	126.39
642.90	58.51
643.04	2.34
643.19	58.51
643.34	53.83
643.48	46.81
643.63	72.56
643.78	42.13
643.93	11.70
644.07	77.24
644.22	77.24
644.37	42.13
644.51	51.49
644.66	114.69
644.81	32.77
644.95	56.17
645.10	25.75
645.25	84.26
645.39	74.90
645.54	23.41
645.69	53.83
645.83	81.92
645.98	32.77
646.13	53.83
646.27	107.66
646.42	95.96
646.57	11.70
646.71	18.72
646.86	0.00
647.00	63.19
647.15	44.47
647.30	60.85
647.44	35.11
647.59	110.01
647.74	21.06
647.88	58.51
648.03	0.00
648.17	18.72
648.32	49.15
648.47	72.56
648.61	77.24
648.76	0.00
648.90	49.15
649.05	93.62
649.20	65.54
649.34	70.22
649.49	53.83
649.63	53.83
649.78	93.62
649.92	32.77
650.07	88.94
650.21	60.85
650.36	32.77
650.51	81.92
650.65	67.88
650.80	32.77
650.94	60.85
651.09	21.06
651.23	110.01
651.38	93.62
651.52	72.56
651.67	56.17
651.81	39.79
651.96	39.79
652.10	44.47
652.25	23.41
652.39	46.81
652.54	25.75
652.68	0.00
652.83	21.06
652.97	84.26
653.12	9.36
653.26	84.26
653.41	46.81
653.55	4.68
653.70	28.09
653.84	53.83
653.99	4.68
654.13	21.06
654.27	79.58
654.42	37.45
654.56	14.04
654.71	9.36
654.85	65.54
655.00	35.11
655.14	63.19
655.29	67.88
655.43	14.04
655.57	11.70
655.72	42.13
655.86	0.00
656.01	18.72
656.15	0.00
656.30	18.72
656.44	88.94
656.58	14.04
656.73	23.41
656.87	2.34
657.01	88.94
657.16	25.75
657.30	0.00
657.45	42.13
657.59	42.13
657.73	4.68
657.88	98.30
658.02	88.94
658.16	35.11
658.31	42.13
658.45	72.56
658.60	39.79
658.74	30.43
658.88	39.79
659.03	49.15
659.17	18.72
659.31	0.00
659.46	46.81
659.60	42.13
659.74	0.00
659.89	58.51
660.03	9.36
660.17	56.17
660.32	51.49
660.46	65.54
660.60	46.81
660.74	72.56
660.89	23.41
661.03	9.36
661.17	30.43
661.32	23.41
661.46	91.28
661.60	161.50
661.74	14.04
661.89	93.62
662.03	56.17
662.17	30.43
662.31	51.49
662.46	58.51
662.60	32.77
662.74	23.41
662.88	67.88
663.03	32.77
663.17	21.06
663.31	14.04
663.45	28.09
663.60	37.45
663.74	46.81
663.88	0.00
664.02	49.15
664.17	51.49
664.31	46.81
664.45	44.47
664.59	9.36
664.73	0.00
664.88	49.15
665.02	0.00
665.16	42.13
665.30	2.34
665.44	16.38
665.59	28.09
665.73	77.24
665.87	49.15
666.01	53.83
666.15	0.00
666.29	67.88
666.44	0.00
666.58	28.09
666.72	2.34
666.86	4.68
667.00	2.34
667.14	30.43
667.28	7.02
667.43	121.71
667.57	28.09
667.71	67.88
667.85	49.15
667.99	53.83
668.13	11.70
668.27	21.06
668.41	60.85
668.56	28.09
668.70	30.43
668.84	70.22
668.98	0.00
669.12	0.00
669.26	81.92
669.40	44.47
669.54	30.43
669.68	28.09
669.82	16.38
669.96	21.06
670.10	11.70
670.25	28.09
670.39	98.30
670.53	72.56
670.67	0.00
670.81	0.00
670.95	107.66
671.09	84.26
671.23	56.17
671.37	42.13
671.51	0.00
671.65	42.13
671.79	21.06
671.93	0.00
672.07	79.58
672.21	65.54
672.35	0.00
672.49	72.56
672.63	0.00
672.77	0.00
672.91	21.06
673.05	7.02
673.19	67.88
673.33	0.00
673.47	42.13
673.61	23.41
673.75	60.85
673.89	18.72
674.03	46.81
674.17	65.54
674.31	0.00
674.45	0.00
674.59	25.75
674.73	0.00
674.87	44.47
675.01	14.04
675.15	58.51
675.29	0.00
675.43	46.81
675.56	28.09
675.70	49.15
675.84	88.94
675.98	74.90
676.12	60.85
676.26	93.62
676.40	72.56
676.54	0.00
676.68	0.00
676.82	14.04
676.96	49.15
677.10	21.06
677.23	65.54
677.37	14.04
677.51	32.77
677.65	0.00
677.79	23.41
677.93	7.02
678.07	0.00
678.21	4.68
678.34	72.56
678.48	2.34
678.62	63.19
678.76	23.41
678.90	0.00
679.04	25.75
679.18	18.72
679.31	11.70
679.45	58.51
679.59	37.45
679.73	11.70
679.87	11.70
680.00	28.09
680.14	0.00
680.28	0.00
680.42	56.17
680.56	58.51
680.70	0.00
680.83	39.79
680.97	0.00
681.11	121.71
681.25	49.15
681.39	37.45
681.52	0.00
681.66	0.00
681.80	79.58
681.94	7.02
682.07	32.77
682.21	35.11
682.35	7.02
682.49	46.81
682.62	32.77
682.76	37.45
682.90	77.24
683.04	0.00
683.17	7.02
683.31	2.34
683.45	37.45
683.59	35.11
683.72	0.00
683.86	32.77
684.00	53.83
684.13	7.02
684.27	9.36
684.41	58.51
684.55	51.49
684.68	81.92
684.82	11.70
684.96	84.26
685.09	77.24
685.23	25.75
685.37	74.90
685.50	2.34
685.64	0.00
685.78	44.47
685.91	77.24
686.05	37.45
686.19	0.00
686.32	77.24
686.46	70.22
686.60	0.00
686.73	2.34
686.87	51.49
687.01	70.22
687.14	102.98
687.28	18.72
687.42	49.15
687.55	70.22
687.69	32.77
687.82	9.36
687.96	53.83
688.10	0.00
688.23	14.04
688.37	105.32
688.50	65.54
688.64	74.90
688.78	117.03
688.91	44.47
689.05	23.41
689.18	0.00
689.32	28.09
689.46	18.72
689.59	56.17
689.73	25.75
689.86	16.38
690.00	25.75
690.13	65.54
690.27	11.70
690.41	39.79
690.54	79.58
690.68	30.43
690.81	18.72
690.95	91.28
691.08	63.19
691.22	37.45
691.35	121.71
691.49	30.43
691.62	0.00
691.76	11.70
691.89	95.96
692.03	56.17
692.16	86.60
692.30	0.00
692.43	30.43
692.57	14.04
692.70	23.41
692.84	46.81
692.97	72.56
693.11	35.11
693.24	23.41
693.38	49.15
693.51	0.00
693.65	42.13
693.78	49.15
693.92	42.13
694.05	23.41
694.19	21.06
694.32	9.36
694.45	0.00
694.59	9.36
694.72	0.00
694.86	18.72
694.99	46.81
695.13	14.04
695.26	14.04
695.39	35.11
695.53	30.43
695.66	95.96
695.80	9.36
695.93	0.00
696.07	46.81
696.20	28.09
696.33	18.72
696.47	16.38
696.60	9.36
696.73	65.54
696.87	102.98
697.00	81.92
697.14	91.28
697.27	25.75
697.40	4.68
697.54	0.00
697.67	74.90
697.80	25.75
697.94	0.00
698.07	0.00
698.21	25.75
698.34	35.11
698.47	74.90
698.61	37.45
698.74	16.38
698.87	112.35
699.01	0.00
699.14	0.00
699.27	93.62
699.40	74.90
699.54	30.43
699.67	81.92
699.80	23.41
699.94	14.04
700.07	0.00
700.20	39.79
700.34	65.54
700.47	4.68
700.60	14.04
700.73	58.51
700.87	60.85
701.00	46.81
701.13	14.04
701.26	56.17
701.40	37.45
701.53	0.00
701.66	0.00
701.79	77.24
701.93	102.98
702.06	70.22
702.19	9.36
702.32	44.47
702.46	0.00
702.59	23.41
702.72	0.00
702.85	117.03
702.99	4.68
703.12	18.72
703.25	0.00
703.38	14.04
703.51	42.13
703.65	93.62
703.78	39.79
703.91	7.02
704.04	16.38
704.17	0.00
704.31	110.01
704.44	53.83
704.57	11.70
704.70	4.68
704.83	11.70
704.96	35.11
705.10	46.81
705.23	53.83
>>>>>End Processed Spectral Data<<<<<
