SpectraSuite Data File
++++++++++++++++++++++++++++++++++++
Date: Fri Oct 04 12:13:40 GMT-05:00 2013
User: price-jones
Dark Spectrum Present: No
Reference Spectrum Present: No
Number of Sampled Component Spectra: 1
Spectrometers: USB2+H05261
Integration Time (usec): 10000 (USB2+H05261)
Spectra Averaged: 1 (USB2+H05261)
Boxcar Smoothing: 0 (USB2+H05261)
Correct for Electrical Dark: No (USB2+H05261)
Strobe/Lamp Enabled: No (USB2+H05261)
Correct for Detector Non-linearity: No (USB2+H05261)
Correct for Stray Light: No (USB2+H05261)
Number of Pixels in Processed Spectrum: 2048
>>>>>Begin Processed Spectral Data<<<<<
365.73	0.00
365.92	0.00
366.12	0.00
366.32	0.00
366.52	0.00
366.72	0.00
366.91	0.00
367.11	0.00
367.31	0.00
367.51	0.00
367.70	0.00
367.90	0.00
368.10	0.00
368.30	0.00
368.49	0.00
368.69	0.00
368.89	0.00
369.09	0.00
369.28	0.00
369.48	0.00
369.68	0.00
369.87	0.00
370.07	0.00
370.27	0.00
370.47	0.00
370.66	0.00
370.86	30.43
371.06	0.00
371.25	23.41
371.45	0.00
371.65	0.00
371.84	0.00
372.04	37.45
372.24	58.51
372.44	0.00
372.63	0.00
372.83	4.68
373.03	44.47
373.22	0.00
373.42	11.70
373.62	0.00
373.81	25.75
374.01	14.04
374.21	84.26
374.40	9.36
374.60	30.43
374.79	88.94
374.99	53.83
375.19	30.43
375.38	65.54
375.58	81.92
375.78	32.77
375.97	18.72
376.17	86.60
376.37	35.11
376.56	7.02
376.76	0.00
376.95	39.79
377.15	0.00
377.35	0.00
377.54	0.00
377.74	4.68
377.93	88.94
378.13	9.36
378.33	42.13
378.52	51.49
378.72	32.77
378.91	32.77
379.11	49.15
379.31	46.81
379.50	65.54
379.70	18.72
379.89	39.79
380.09	70.22
380.28	32.77
380.48	0.00
380.68	0.00
380.87	114.69
381.07	14.04
381.26	37.45
381.46	0.00
381.65	49.15
381.85	21.06
382.04	0.00
382.24	0.00
382.43	0.00
382.63	63.19
382.83	21.06
383.02	91.28
383.22	51.49
383.41	0.00
383.61	0.00
383.80	46.81
384.00	0.00
384.19	0.00
384.39	110.01
384.58	0.00
384.78	18.72
384.97	0.00
385.17	53.83
385.36	65.54
385.56	0.00
385.75	0.00
385.95	35.11
386.14	14.04
386.34	9.36
386.53	0.00
386.72	0.00
386.92	74.90
387.11	0.00
387.31	11.70
387.50	0.00
387.70	42.13
387.89	16.38
388.09	9.36
388.28	0.00
388.48	0.00
388.67	16.38
388.86	53.83
389.06	0.00
389.25	0.00
389.45	0.00
389.64	51.49
389.84	0.00
390.03	0.00
390.22	28.09
390.42	7.02
390.61	74.90
390.81	21.06
391.00	21.06
391.19	0.00
391.39	2.34
391.58	30.43
391.78	23.41
391.97	98.30
392.16	84.26
392.36	58.51
392.55	0.00
392.75	0.00
392.94	0.00
393.13	0.00
393.33	49.15
393.52	30.43
393.71	39.79
393.91	2.34
394.10	0.00
394.29	70.22
394.49	65.54
394.68	107.66
394.88	0.00
395.07	63.19
395.26	0.00
395.46	35.11
395.65	32.77
395.84	2.34
396.04	0.00
396.23	0.00
396.42	16.38
396.62	0.00
396.81	0.00
397.00	2.34
397.19	28.09
397.39	4.68
397.58	37.45
397.77	70.22
397.97	0.00
398.16	37.45
398.35	16.38
398.55	18.72
398.74	72.56
398.93	102.98
399.12	14.04
399.32	0.00
399.51	37.45
399.70	30.43
399.90	23.41
400.09	51.49
400.28	0.00
400.47	9.36
400.67	0.00
400.86	0.00
401.05	56.17
401.24	28.09
401.44	42.13
401.63	28.09
401.82	42.13
402.01	0.00
402.21	56.17
402.40	0.00
402.59	4.68
402.78	0.00
402.97	0.00
403.17	56.17
403.36	46.81
403.55	2.34
403.74	14.04
403.93	67.88
404.13	28.09
404.32	30.43
404.51	32.77
404.70	67.88
404.89	56.17
405.09	25.75
405.28	56.17
405.47	0.00
405.66	56.17
405.85	56.17
406.05	2.34
406.24	30.43
406.43	88.94
406.62	11.70
406.81	49.15
407.00	51.49
407.20	32.77
407.39	58.51
407.58	0.00
407.77	42.13
407.96	154.48
408.15	0.00
408.34	21.06
408.54	91.28
408.73	18.72
408.92	86.60
409.11	23.41
409.30	18.72
409.49	93.62
409.68	42.13
409.87	44.47
410.07	46.81
410.26	53.83
410.45	23.41
410.64	0.00
410.83	23.41
411.02	65.54
411.21	70.22
411.40	0.00
411.59	0.00
411.78	32.77
411.98	37.45
412.17	0.00
412.36	21.06
412.55	35.11
412.74	91.28
412.93	35.11
413.12	86.60
413.31	65.54
413.50	86.60
413.69	0.00
413.88	39.79
414.07	51.49
414.26	49.15
414.45	14.04
414.64	7.02
414.83	51.49
415.02	7.02
415.22	0.00
415.41	30.43
415.60	0.00
415.79	30.43
415.98	56.17
416.17	9.36
416.36	60.85
416.55	65.54
416.74	0.00
416.93	21.06
417.12	25.75
417.31	84.26
417.50	0.00
417.69	79.58
417.88	74.90
418.07	21.06
418.26	2.34
418.45	72.56
418.64	65.54
418.83	74.90
419.02	9.36
419.21	0.00
419.39	49.15
419.58	0.00
419.77	49.15
419.96	16.38
420.15	25.75
420.34	0.00
420.53	117.03
420.72	60.85
420.91	21.06
421.10	0.00
421.29	39.79
421.48	88.94
421.67	81.92
421.86	56.17
422.05	46.81
422.24	84.26
422.43	84.26
422.61	65.54
422.80	25.75
422.99	133.41
423.18	0.00
423.37	0.00
423.56	56.17
423.75	128.73
423.94	70.22
424.13	65.54
424.32	49.15
424.50	98.30
424.69	23.41
424.88	30.43
425.07	9.36
425.26	0.00
425.45	0.00
425.64	0.00
425.83	0.00
426.01	51.49
426.20	63.19
426.39	25.75
426.58	28.09
426.77	0.00
426.96	56.17
427.15	77.24
427.33	88.94
427.52	0.00
427.71	0.00
427.90	21.06
428.09	42.13
428.28	117.03
428.46	32.77
428.65	72.56
428.84	63.19
429.03	70.22
429.22	126.39
429.40	0.00
429.59	53.83
429.78	46.81
429.97	2.34
430.16	11.70
430.34	14.04
430.53	49.15
430.72	44.47
430.91	44.47
431.10	98.30
431.28	56.17
431.47	28.09
431.66	51.49
431.85	35.11
432.03	0.00
432.22	70.22
432.41	79.58
432.60	58.51
432.79	63.19
432.97	0.00
433.16	93.62
433.35	7.02
433.54	84.26
433.72	30.43
433.91	84.26
434.10	72.56
434.28	37.45
434.47	110.01
434.66	51.49
434.85	0.00
435.03	98.30
435.22	56.17
435.41	91.28
435.59	30.43
435.78	46.81
435.97	23.41
436.16	63.19
436.34	28.09
436.53	11.70
436.72	74.90
436.90	0.00
437.09	110.01
437.28	37.45
437.46	0.00
437.65	60.85
437.84	145.11
438.02	100.64
438.21	0.00
438.40	70.22
438.58	7.02
438.77	81.92
438.96	58.51
439.14	39.79
439.33	81.92
439.52	102.98
439.70	81.92
439.89	49.15
440.08	56.17
440.26	91.28
440.45	91.28
440.63	35.11
440.82	128.73
441.01	81.92
441.19	53.83
441.38	81.92
441.57	0.00
441.75	2.34
441.94	63.19
442.12	42.13
442.31	23.41
442.50	58.51
442.68	4.68
442.87	23.41
443.05	105.32
443.24	7.02
443.43	7.02
443.61	42.13
443.80	0.00
443.98	53.83
444.17	46.81
444.35	56.17
444.54	63.19
444.73	51.49
444.91	0.00
445.10	51.49
445.28	0.00
445.47	32.77
445.65	72.56
445.84	128.73
446.02	86.60
446.21	70.22
446.39	51.49
446.58	79.58
446.77	58.51
446.95	16.38
447.14	14.04
447.32	74.90
447.51	32.77
447.69	35.11
447.88	49.15
448.06	14.04
448.25	110.01
448.43	11.70
448.62	67.88
448.80	49.15
448.99	51.49
449.17	79.58
449.36	65.54
449.54	79.58
449.73	0.00
449.91	112.35
450.10	7.02
450.28	100.64
450.46	35.11
450.65	100.64
450.83	28.09
451.02	25.75
451.20	58.51
451.39	70.22
451.57	67.88
451.76	37.45
451.94	35.11
452.13	44.47
452.31	117.03
452.49	81.92
452.68	18.72
452.86	93.62
453.05	51.49
453.23	53.83
453.42	4.68
453.60	86.60
453.78	32.77
453.97	44.47
454.15	42.13
454.34	60.85
454.52	0.00
454.70	21.06
454.89	21.06
455.07	30.43
455.26	35.11
455.44	98.30
455.62	63.19
455.81	44.47
455.99	0.00
456.17	23.41
456.36	0.00
456.54	140.43
456.73	42.13
456.91	37.45
457.09	77.24
457.28	42.13
457.46	95.96
457.64	98.30
457.83	44.47
458.01	102.98
458.19	93.62
458.38	53.83
458.56	9.36
458.74	133.41
458.93	44.47
459.11	81.92
459.29	0.00
459.48	67.88
459.66	56.17
459.84	56.17
460.03	53.83
460.21	138.09
460.39	39.79
460.57	53.83
460.76	58.51
460.94	32.77
461.12	37.45
461.31	44.47
461.49	67.88
461.67	44.47
461.85	37.45
462.04	72.56
462.22	121.71
462.40	84.26
462.59	25.75
462.77	100.64
462.95	35.11
463.13	117.03
463.32	63.19
463.50	32.77
463.68	145.11
463.86	72.56
464.05	72.56
464.23	28.09
464.41	65.54
464.59	58.51
464.78	60.85
464.96	88.94
465.14	53.83
465.32	93.62
465.50	102.98
465.69	98.30
465.87	67.88
466.05	37.45
466.23	11.70
466.41	25.75
466.60	95.96
466.78	39.79
466.96	28.09
467.14	28.09
467.32	46.81
467.51	140.43
467.69	53.83
467.87	32.77
468.05	28.09
468.23	107.66
468.41	53.83
468.60	119.37
468.78	51.49
468.96	30.43
469.14	112.35
469.32	32.77
469.50	60.85
469.69	88.94
469.87	42.13
470.05	72.56
470.23	128.73
470.41	39.79
470.59	95.96
470.77	107.66
470.95	72.56
471.14	121.71
471.32	84.26
471.50	102.98
471.68	56.17
471.86	77.24
472.04	88.94
472.22	16.38
472.40	0.00
472.58	21.06
472.77	67.88
472.95	77.24
473.13	42.13
473.31	39.79
473.49	14.04
473.67	93.62
473.85	112.35
474.03	51.49
474.21	42.13
474.39	81.92
474.57	91.28
474.75	53.83
474.93	79.58
475.12	14.04
475.30	88.94
475.48	93.62
475.66	0.00
475.84	0.00
476.02	28.09
476.20	11.70
476.38	0.00
476.56	0.00
476.74	81.92
476.92	25.75
477.10	140.43
477.28	126.39
477.46	35.11
477.64	88.94
477.82	2.34
478.00	56.17
478.18	30.43
478.36	16.38
478.54	152.13
478.72	102.98
478.90	30.43
479.08	86.60
479.26	21.06
479.44	74.90
479.62	74.90
479.80	2.34
479.98	46.81
480.16	0.00
480.34	0.00
480.52	107.66
480.70	37.45
480.88	102.98
481.06	51.49
481.24	65.54
481.41	84.26
481.59	39.79
481.77	74.90
481.95	91.28
482.13	77.24
482.31	42.13
482.49	126.39
482.67	0.00
482.85	56.17
483.03	4.68
483.21	67.88
483.39	70.22
483.57	51.49
483.74	70.22
483.92	2.34
484.10	60.85
484.28	60.85
484.46	107.66
484.64	163.84
484.82	23.41
485.00	37.45
485.18	39.79
485.35	32.77
485.53	28.09
485.71	0.00
485.89	98.30
486.07	112.35
486.25	58.51
486.43	0.00
486.61	42.13
486.78	39.79
486.96	117.03
487.14	46.81
487.32	79.58
487.50	9.36
487.68	105.32
487.85	79.58
488.03	88.94
488.21	37.45
488.39	42.13
488.57	119.37
488.75	95.96
488.92	74.90
489.10	79.58
489.28	79.58
489.46	79.58
489.64	70.22
489.81	56.17
489.99	32.77
490.17	105.32
490.35	79.58
490.53	77.24
490.70	49.15
490.88	98.30
491.06	32.77
491.24	77.24
491.41	25.75
491.59	51.49
491.77	81.92
491.95	0.00
492.13	72.56
492.30	49.15
492.48	53.83
492.66	105.32
492.84	51.49
493.01	42.13
493.19	60.85
493.37	117.03
493.54	51.49
493.72	135.75
493.90	77.24
494.08	21.06
494.25	28.09
494.43	37.45
494.61	102.98
494.79	77.24
494.96	128.73
495.14	107.66
495.32	107.66
495.49	112.35
495.67	28.09
495.85	0.00
496.02	37.45
496.20	189.58
496.38	67.88
496.55	91.28
496.73	142.77
496.91	100.64
497.09	112.35
497.26	53.83
497.44	0.00
497.62	72.56
497.79	49.15
497.97	173.20
498.14	77.24
498.32	72.56
498.50	91.28
498.67	9.36
498.85	14.04
499.03	39.79
499.20	117.03
499.38	63.19
499.56	79.58
499.73	140.43
499.91	28.09
500.08	37.45
500.26	131.07
500.44	72.56
500.61	46.81
500.79	74.90
500.97	0.00
501.14	133.41
501.32	77.24
501.49	46.81
501.67	110.01
501.84	77.24
502.02	93.62
502.20	100.64
502.37	163.84
502.55	7.02
502.72	140.43
502.90	119.37
503.07	16.38
503.25	77.24
503.43	79.58
503.60	88.94
503.78	95.96
503.95	23.41
504.13	16.38
504.30	110.01
504.48	100.64
504.65	63.19
504.83	28.09
505.01	65.54
505.18	49.15
505.36	100.64
505.53	79.58
505.71	100.64
505.88	79.58
506.06	63.19
506.23	32.77
506.41	70.22
506.58	37.45
506.76	149.79
506.93	166.18
507.11	84.26
507.28	14.04
507.46	88.94
507.63	81.92
507.81	46.81
507.98	112.35
508.16	42.13
508.33	81.92
508.50	35.11
508.68	39.79
508.85	63.19
509.03	110.01
509.20	46.81
509.38	159.16
509.55	138.09
509.73	112.35
509.90	72.56
510.08	201.29
510.25	93.62
510.42	56.17
510.60	28.09
510.77	86.60
510.95	77.24
511.12	86.60
511.30	105.32
511.47	32.77
511.64	74.90
511.82	7.02
511.99	65.54
512.17	65.54
512.34	65.54
512.51	72.56
512.69	86.60
512.86	86.60
513.04	77.24
513.21	77.24
513.38	107.66
513.56	60.85
513.73	84.26
513.90	93.62
514.08	21.06
514.25	81.92
514.43	102.98
514.60	18.72
514.77	107.66
514.95	84.26
515.12	70.22
515.29	9.36
515.47	4.68
515.64	0.00
515.81	114.69
515.99	77.24
516.16	51.49
516.33	72.56
516.51	126.39
516.68	63.19
516.85	35.11
517.03	70.22
517.20	35.11
517.37	67.88
517.54	131.07
517.72	93.62
517.89	84.26
518.06	58.51
518.24	11.70
518.41	35.11
518.58	65.54
518.75	74.90
518.93	121.71
519.10	102.98
519.27	44.47
519.45	84.26
519.62	70.22
519.79	105.32
519.96	100.64
520.14	100.64
520.31	84.26
520.48	35.11
520.65	102.98
520.83	91.28
521.00	72.56
521.17	93.62
521.34	93.62
521.52	95.96
521.69	88.94
521.86	72.56
522.03	105.32
522.20	112.35
522.38	147.45
522.55	35.11
522.72	56.17
522.89	121.71
523.07	189.58
523.24	133.41
523.41	119.37
523.58	70.22
523.75	0.00
523.92	105.32
524.10	88.94
524.27	91.28
524.44	67.88
524.61	119.37
524.78	70.22
524.96	133.41
525.13	95.96
525.30	37.45
525.47	105.32
525.64	32.77
525.81	110.01
525.98	102.98
526.16	110.01
526.33	77.24
526.50	16.38
526.67	93.62
526.84	25.75
527.01	107.66
527.18	140.43
527.36	81.92
527.53	74.90
527.70	77.24
527.87	100.64
528.04	79.58
528.21	119.37
528.38	49.15
528.55	124.05
528.72	86.60
528.89	60.85
529.07	88.94
529.24	95.96
529.41	100.64
529.58	93.62
529.75	112.35
529.92	51.49
530.09	77.24
530.26	93.62
530.43	114.69
530.60	70.22
530.77	65.54
530.94	112.35
531.11	77.24
531.28	23.41
531.46	67.88
531.63	67.88
531.80	98.30
531.97	67.88
532.14	93.62
532.31	93.62
532.48	74.90
532.65	56.17
532.82	70.22
532.99	53.83
533.16	86.60
533.33	70.22
533.50	95.96
533.67	72.56
533.84	77.24
534.01	18.72
534.18	91.28
534.35	88.94
534.52	81.92
534.69	42.13
534.86	37.45
535.03	98.30
535.20	86.60
535.37	49.15
535.54	140.43
535.71	84.26
535.88	131.07
536.05	79.58
536.22	65.54
536.38	100.64
536.55	70.22
536.72	135.75
536.89	35.11
537.06	95.96
537.23	32.77
537.40	98.30
537.57	60.85
537.74	9.36
537.91	98.30
538.08	74.90
538.25	51.49
538.42	58.51
538.59	117.03
538.75	119.37
538.92	86.60
539.09	56.17
539.26	117.03
539.43	102.98
539.60	138.09
539.77	0.00
539.94	74.90
540.11	60.85
540.28	74.90
540.44	124.05
540.61	70.22
540.78	70.22
540.95	60.85
541.12	67.88
541.29	60.85
541.46	0.00
541.62	60.85
541.79	110.01
541.96	119.37
542.13	105.32
542.30	86.60
542.47	131.07
542.63	107.66
542.80	173.20
542.97	88.94
543.14	93.62
543.31	86.60
543.48	124.05
543.64	117.03
543.81	74.90
543.98	100.64
544.15	93.62
544.32	18.72
544.48	145.11
544.65	28.09
544.82	49.15
544.99	100.64
545.16	86.60
545.32	72.56
545.49	25.75
545.66	112.35
545.83	81.92
546.00	93.62
546.16	135.75
546.33	95.96
546.50	67.88
546.67	110.01
546.83	56.17
547.00	7.02
547.17	44.47
547.34	53.83
547.50	79.58
547.67	53.83
547.84	46.81
548.00	102.98
548.17	28.09
548.34	77.24
548.51	114.69
548.67	135.75
548.84	72.56
549.01	70.22
549.18	91.28
549.34	119.37
549.51	119.37
549.68	70.22
549.84	53.83
550.01	4.68
550.18	72.56
550.34	53.83
550.51	110.01
550.68	133.41
550.84	93.62
551.01	152.13
551.18	88.94
551.34	98.30
551.51	124.05
551.68	131.07
551.84	133.41
552.01	65.54
552.18	67.88
552.34	95.96
552.51	63.19
552.68	51.49
552.84	30.43
553.01	65.54
553.18	63.19
553.34	23.41
553.51	72.56
553.67	170.86
553.84	119.37
554.01	91.28
554.17	81.92
554.34	105.32
554.51	102.98
554.67	81.92
554.84	42.13
555.00	121.71
555.17	84.26
555.33	77.24
555.50	49.15
555.67	93.62
555.83	53.83
556.00	126.39
556.16	18.72
556.33	86.60
556.50	124.05
556.66	53.83
556.83	88.94
556.99	91.28
557.16	107.66
557.32	126.39
557.49	23.41
557.65	32.77
557.82	91.28
557.98	114.69
558.15	23.41
558.32	67.88
558.48	63.19
558.65	72.56
558.81	88.94
558.98	107.66
559.14	107.66
559.31	79.58
559.47	102.98
559.64	112.35
559.80	0.00
559.97	65.54
560.13	14.04
560.30	11.70
560.46	77.24
560.63	114.69
560.79	88.94
560.96	79.58
561.12	81.92
561.29	67.88
561.45	0.00
561.61	105.32
561.78	102.98
561.94	110.01
562.11	67.88
562.27	42.13
562.44	79.58
562.60	107.66
562.77	44.47
562.93	86.60
563.10	70.22
563.26	142.77
563.42	39.79
563.59	119.37
563.75	152.13
563.92	60.85
564.08	9.36
564.24	70.22
564.41	53.83
564.57	102.98
564.74	121.71
564.90	25.75
565.07	35.11
565.23	70.22
565.39	65.54
565.56	95.96
565.72	114.69
565.88	114.69
566.05	128.73
566.21	163.84
566.38	65.54
566.54	37.45
566.70	128.73
566.87	32.77
567.03	56.17
567.19	135.75
567.36	65.54
567.52	67.88
567.68	65.54
567.85	191.92
568.01	98.30
568.17	114.69
568.34	46.81
568.50	35.11
568.66	100.64
568.83	37.45
568.99	95.96
569.15	65.54
569.32	42.13
569.48	117.03
569.64	98.30
569.81	35.11
569.97	119.37
570.13	39.79
570.30	163.84
570.46	63.19
570.62	124.05
570.78	65.54
570.95	138.09
571.11	168.52
571.27	88.94
571.43	65.54
571.60	63.19
571.76	11.70
571.92	28.09
572.09	95.96
572.25	121.71
572.41	0.00
572.57	98.30
572.74	121.71
572.90	86.60
573.06	70.22
573.22	14.04
573.38	39.79
573.55	84.26
573.71	0.00
573.87	81.92
574.03	79.58
574.20	145.11
574.36	117.03
574.52	117.03
574.68	145.11
574.84	63.19
575.01	53.83
575.17	100.64
575.33	42.13
575.49	138.09
575.65	25.75
575.82	105.32
575.98	145.11
576.14	32.77
576.30	77.24
576.46	114.69
576.62	81.92
576.79	107.66
576.95	25.75
577.11	93.62
577.27	119.37
577.43	35.11
577.59	119.37
577.75	88.94
577.92	74.90
578.08	0.00
578.24	0.00
578.40	56.17
578.56	102.98
578.72	0.00
578.88	91.28
579.04	53.83
579.21	112.35
579.37	51.49
579.53	14.04
579.69	72.56
579.85	117.03
580.01	53.83
580.17	39.79
580.33	77.24
580.49	98.30
580.65	65.54
580.82	102.98
580.98	131.07
581.14	140.43
581.30	60.85
581.46	18.72
581.62	140.43
581.78	152.13
581.94	105.32
582.10	105.32
582.26	70.22
582.42	67.88
582.58	42.13
582.74	79.58
582.90	91.28
583.06	95.96
583.22	74.90
583.38	93.62
583.54	100.64
583.70	79.58
583.86	32.77
584.02	105.32
584.18	91.28
584.34	56.17
584.50	21.06
584.66	100.64
584.82	49.15
584.98	102.98
585.14	156.82
585.30	30.43
585.46	4.68
585.62	28.09
585.78	126.39
585.94	0.00
586.10	91.28
586.26	117.03
586.42	39.79
586.58	86.60
586.74	119.37
586.90	142.77
587.06	58.51
587.22	42.13
587.38	49.15
587.54	32.77
587.70	79.58
587.86	79.58
588.02	37.45
588.18	53.83
588.34	58.51
588.49	63.19
588.65	53.83
588.81	159.16
588.97	138.09
589.13	63.19
589.29	81.92
589.45	51.49
589.61	53.83
589.77	88.94
589.93	28.09
590.08	44.47
590.24	100.64
590.40	0.00
590.56	44.47
590.72	91.28
590.88	51.49
591.04	84.26
591.20	9.36
591.35	4.68
591.51	65.54
591.67	25.75
591.83	70.22
591.99	39.79
592.15	107.66
592.31	117.03
592.46	16.38
592.62	46.81
592.78	107.66
592.94	63.19
593.10	72.56
593.26	70.22
593.41	49.15
593.57	23.41
593.73	58.51
593.89	32.77
594.05	21.06
594.20	30.43
594.36	70.22
594.52	42.13
594.68	30.43
594.84	98.30
594.99	46.81
595.15	30.43
595.31	37.45
595.47	79.58
595.62	107.66
595.78	70.22
595.94	44.47
596.10	67.88
596.25	21.06
596.41	72.56
596.57	58.51
596.73	56.17
596.88	88.94
597.04	81.92
597.20	65.54
597.36	60.85
597.51	65.54
597.67	58.51
597.83	25.75
597.99	77.24
598.14	14.04
598.30	60.85
598.46	81.92
598.61	39.79
598.77	42.13
598.93	72.56
599.09	72.56
599.24	133.41
599.40	77.24
599.56	84.26
599.71	25.75
599.87	28.09
600.03	84.26
600.18	35.11
600.34	128.73
600.50	117.03
600.65	30.43
600.81	65.54
600.97	67.88
601.12	32.77
601.28	70.22
601.44	119.37
601.59	95.96
601.75	60.85
601.91	63.19
602.06	79.58
602.22	0.00
602.37	28.09
602.53	74.90
602.69	112.35
602.84	28.09
603.00	46.81
603.16	25.75
603.31	49.15
603.47	93.62
603.62	58.51
603.78	86.60
603.94	0.00
604.09	28.09
604.25	135.75
604.40	138.09
604.56	65.54
604.71	37.45
604.87	56.17
605.03	51.49
605.18	102.98
605.34	23.41
605.49	112.35
605.65	91.28
605.80	58.51
605.96	28.09
606.12	60.85
606.27	56.17
606.43	95.96
606.58	4.68
606.74	14.04
606.89	63.19
607.05	51.49
607.20	100.64
607.36	77.24
607.51	72.56
607.67	30.43
607.82	46.81
607.98	32.77
608.13	79.58
608.29	84.26
608.44	77.24
608.60	67.88
608.75	119.37
608.91	58.51
609.06	126.39
609.22	117.03
609.37	74.90
609.53	93.62
609.68	86.60
609.84	51.49
609.99	112.35
610.15	100.64
610.30	100.64
610.46	124.05
610.61	112.35
610.76	53.83
610.92	18.72
611.07	25.75
611.23	138.09
611.38	49.15
611.54	28.09
611.69	60.85
611.84	51.49
612.00	63.19
612.15	21.06
612.31	107.66
612.46	56.17
612.62	107.66
612.77	39.79
612.92	98.30
613.08	100.64
613.23	51.49
613.39	91.28
613.54	30.43
613.69	114.69
613.85	9.36
614.00	74.90
614.15	98.30
614.31	30.43
614.46	35.11
614.62	112.35
614.77	56.17
614.92	11.70
615.08	105.32
615.23	32.77
615.38	58.51
615.54	46.81
615.69	65.54
615.84	77.24
616.00	23.41
616.15	77.24
616.30	14.04
616.46	131.07
616.61	51.49
616.76	100.64
616.92	81.92
617.07	60.85
617.22	37.45
617.37	107.66
617.53	42.13
617.68	0.00
617.83	121.71
617.99	81.92
618.14	42.13
618.29	81.92
618.45	60.85
618.60	14.04
618.75	126.39
618.90	131.07
619.06	72.56
619.21	124.05
619.36	42.13
619.51	51.49
619.67	105.32
619.82	53.83
619.97	63.19
620.12	7.02
620.28	126.39
620.43	42.13
620.58	35.11
620.73	65.54
620.89	32.77
621.04	60.85
621.19	98.30
621.34	65.54
621.49	67.88
621.65	105.32
621.80	102.98
621.95	114.69
622.10	60.85
622.25	107.66
622.41	119.37
622.56	63.19
622.71	25.75
622.86	39.79
623.01	117.03
623.16	42.13
623.32	81.92
623.47	67.88
623.62	25.75
623.77	74.90
623.92	60.85
624.07	77.24
624.23	53.83
624.38	0.00
624.53	28.09
624.68	74.90
624.83	0.00
624.98	32.77
625.13	7.02
625.29	46.81
625.44	37.45
625.59	65.54
625.74	77.24
625.89	126.39
626.04	49.15
626.19	44.47
626.34	102.98
626.49	37.45
626.65	60.85
626.80	14.04
626.95	63.19
627.10	46.81
627.25	70.22
627.40	86.60
627.55	112.35
627.70	28.09
627.85	32.77
628.00	28.09
628.15	112.35
628.30	84.26
628.45	35.11
628.60	44.47
628.76	81.92
628.91	28.09
629.06	37.45
629.21	39.79
629.36	32.77
629.51	28.09
629.66	67.88
629.81	79.58
629.96	11.70
630.11	0.00
630.26	46.81
630.41	88.94
630.56	91.28
630.71	72.56
630.86	39.79
631.01	25.75
631.16	49.15
631.31	37.45
631.46	39.79
631.61	56.17
631.76	0.00
631.91	0.00
632.06	105.32
632.21	56.17
632.36	4.68
632.51	72.56
632.66	67.88
632.81	14.04
632.96	0.00
633.10	46.81
633.25	58.51
633.40	46.81
633.55	58.51
633.70	95.96
633.85	60.85
634.00	91.28
634.15	77.24
634.30	0.00
634.45	42.13
634.60	51.49
634.75	86.60
634.90	18.72
635.05	49.15
635.19	49.15
635.34	28.09
635.49	30.43
635.64	60.85
635.79	56.17
635.94	56.17
636.09	74.90
636.24	11.70
636.39	0.00
636.53	74.90
636.68	32.77
636.83	86.60
636.98	30.43
637.13	0.00
637.28	93.62
637.43	70.22
637.57	60.85
637.72	30.43
637.87	70.22
638.02	21.06
638.17	72.56
638.32	39.79
638.46	28.09
638.61	28.09
638.76	67.88
638.91	110.01
639.06	35.11
639.20	35.11
639.35	65.54
639.50	81.92
639.65	25.75
639.80	70.22
639.94	114.69
640.09	77.24
640.24	86.60
640.39	14.04
640.54	102.98
640.68	28.09
640.83	86.60
640.98	149.79
641.13	91.28
641.27	63.19
641.42	91.28
641.57	100.64
641.72	67.88
641.86	100.64
642.01	49.15
642.16	84.26
642.31	42.13
642.45	93.62
642.60	4.68
642.75	51.49
642.90	46.81
643.04	0.00
643.19	16.38
643.34	32.77
643.48	49.15
643.63	42.13
643.78	18.72
643.93	58.51
644.07	37.45
644.22	70.22
644.37	0.00
644.51	86.60
644.66	42.13
644.81	42.13
644.95	0.00
645.10	70.22
645.25	44.47
645.39	16.38
645.54	30.43
645.69	14.04
645.83	117.03
645.98	49.15
646.13	60.85
646.27	74.90
646.42	14.04
646.57	77.24
646.71	65.54
646.86	25.75
647.00	79.58
647.15	65.54
647.30	107.66
647.44	7.02
647.59	46.81
647.74	51.49
647.88	91.28
648.03	56.17
648.17	23.41
648.32	44.47
648.47	86.60
648.61	100.64
648.76	74.90
648.90	35.11
649.05	35.11
649.20	88.94
649.34	11.70
649.49	0.00
649.63	16.38
649.78	72.56
649.92	84.26
650.07	88.94
650.21	121.71
650.36	30.43
650.51	37.45
650.65	124.05
650.80	77.24
650.94	77.24
651.09	42.13
651.23	95.96
651.38	23.41
651.52	91.28
651.67	0.00
651.81	102.98
651.96	44.47
652.10	91.28
652.25	58.51
652.39	105.32
652.54	81.92
652.68	81.92
652.83	107.66
652.97	72.56
653.12	44.47
653.26	65.54
653.41	14.04
653.55	42.13
653.70	42.13
653.84	0.00
653.99	46.81
654.13	93.62
654.27	18.72
654.42	46.81
654.56	0.00
654.71	56.17
654.85	81.92
655.00	35.11
655.14	42.13
655.29	35.11
655.43	49.15
655.57	35.11
655.72	88.94
655.86	49.15
656.01	21.06
656.15	79.58
656.30	88.94
656.44	30.43
656.58	2.34
656.73	53.83
656.87	58.51
657.01	70.22
657.16	0.00
657.30	149.79
657.45	107.66
657.59	46.81
657.73	37.45
657.88	67.88
658.02	117.03
658.16	114.69
658.31	23.41
658.45	25.75
658.60	98.30
658.74	25.75
658.88	46.81
659.03	0.00
659.17	16.38
659.31	42.13
659.46	32.77
659.60	53.83
659.74	21.06
659.89	42.13
660.03	51.49
660.17	70.22
660.32	21.06
660.46	39.79
660.60	44.47
660.74	49.15
660.89	117.03
661.03	58.51
661.17	25.75
661.32	42.13
661.46	32.77
661.60	0.00
661.74	74.90
661.89	0.00
662.03	21.06
662.17	86.60
662.31	0.00
662.46	119.37
662.60	119.37
662.74	60.85
662.88	56.17
663.03	0.00
663.17	56.17
663.31	100.64
663.45	9.36
663.60	63.19
663.74	9.36
663.88	58.51
664.02	79.58
664.17	65.54
664.31	110.01
664.45	154.48
664.59	63.19
664.73	39.79
664.88	7.02
665.02	30.43
665.16	56.17
665.30	44.47
665.44	9.36
665.59	30.43
665.73	95.96
665.87	100.64
666.01	46.81
666.15	77.24
666.29	70.22
666.44	56.17
666.58	86.60
666.72	39.79
666.86	74.90
667.00	42.13
667.14	0.00
667.28	60.85
667.43	35.11
667.57	39.79
667.71	0.00
667.85	49.15
667.99	28.09
668.13	98.30
668.27	11.70
668.41	51.49
668.56	23.41
668.70	63.19
668.84	46.81
668.98	2.34
669.12	0.00
669.26	86.60
669.40	65.54
669.54	91.28
669.68	58.51
669.82	86.60
669.96	91.28
670.10	51.49
670.25	117.03
670.39	70.22
670.53	4.68
670.67	65.54
670.81	58.51
670.95	56.17
671.09	35.11
671.23	21.06
671.37	0.00
671.51	58.51
671.65	25.75
671.79	65.54
671.93	49.15
672.07	42.13
672.21	114.69
672.35	0.00
672.49	58.51
672.63	21.06
672.77	77.24
672.91	37.45
673.05	72.56
673.19	9.36
673.33	28.09
673.47	65.54
673.61	84.26
673.75	107.66
673.89	44.47
674.03	37.45
674.17	72.56
674.31	110.01
674.45	0.00
674.59	79.58
674.73	11.70
674.87	44.47
675.01	91.28
675.15	100.64
675.29	0.00
675.43	2.34
675.56	25.75
675.70	0.00
675.84	51.49
675.98	30.43
676.12	0.00
676.26	0.00
676.40	53.83
676.54	14.04
676.68	110.01
676.82	42.13
676.96	35.11
677.10	18.72
677.23	14.04
677.37	35.11
677.51	2.34
677.65	51.49
677.79	121.71
677.93	70.22
678.07	51.49
678.21	105.32
678.34	37.45
678.48	65.54
678.62	23.41
678.76	35.11
678.90	11.70
679.04	51.49
679.18	28.09
679.31	30.43
679.45	100.64
679.59	77.24
679.73	65.54
679.87	56.17
680.00	18.72
680.14	121.71
680.28	39.79
680.42	4.68
680.56	53.83
680.70	56.17
680.83	9.36
680.97	72.56
681.11	98.30
681.25	37.45
681.39	88.94
681.52	74.90
681.66	56.17
681.80	91.28
681.94	44.47
682.07	11.70
682.21	16.38
682.35	51.49
682.49	42.13
682.62	11.70
682.76	18.72
682.90	65.54
683.04	0.00
683.17	4.68
683.31	49.15
683.45	16.38
683.59	42.13
683.72	18.72
683.86	9.36
684.00	67.88
684.13	46.81
684.27	9.36
684.41	28.09
684.55	58.51
684.68	53.83
684.82	46.81
684.96	25.75
685.09	65.54
685.23	39.79
685.37	72.56
685.50	91.28
685.64	42.13
685.78	128.73
685.91	93.62
686.05	77.24
686.19	46.81
686.32	37.45
686.46	79.58
686.60	79.58
686.73	39.79
686.87	42.13
687.01	28.09
687.14	32.77
687.28	0.00
687.42	117.03
687.55	58.51
687.69	0.00
687.82	81.92
687.96	63.19
688.10	32.77
688.23	67.88
688.37	7.02
688.50	23.41
688.64	60.85
688.78	60.85
688.91	30.43
689.05	91.28
689.18	95.96
689.32	9.36
689.46	16.38
689.59	0.00
689.73	53.83
689.86	30.43
690.00	56.17
690.13	0.00
690.27	42.13
690.41	86.60
690.54	60.85
690.68	21.06
690.81	49.15
690.95	9.36
691.08	56.17
691.22	65.54
691.35	0.00
691.49	21.06
691.62	35.11
691.76	0.00
691.89	21.06
692.03	70.22
692.16	46.81
692.30	112.35
692.43	0.00
692.57	23.41
692.70	0.00
692.84	32.77
692.97	0.00
693.11	70.22
693.24	0.00
693.38	0.00
693.51	0.00
693.65	23.41
693.78	39.79
693.92	0.00
694.05	4.68
694.19	112.35
694.32	98.30
694.45	77.24
694.59	79.58
694.72	18.72
694.86	23.41
694.99	51.49
695.13	35.11
695.26	63.19
695.39	37.45
695.53	21.06
695.66	18.72
695.80	16.38
695.93	37.45
696.07	11.70
696.20	11.70
696.33	63.19
696.47	4.68
696.60	21.06
696.73	49.15
696.87	14.04
697.00	67.88
697.14	67.88
697.27	0.00
697.40	0.00
697.54	105.32
697.67	23.41
697.80	0.00
697.94	65.54
698.07	0.00
698.21	0.00
698.34	46.81
698.47	0.00
698.61	56.17
698.74	42.13
698.87	70.22
699.01	2.34
699.14	46.81
699.27	0.00
699.40	37.45
699.54	7.02
699.67	0.00
699.80	28.09
699.94	77.24
700.07	7.02
700.20	58.51
700.34	56.17
700.47	39.79
700.60	4.68
700.73	28.09
700.87	25.75
701.00	63.19
701.13	0.00
701.26	25.75
701.40	65.54
701.53	14.04
701.66	93.62
701.79	42.13
701.93	70.22
702.06	0.00
702.19	28.09
702.32	46.81
702.46	0.00
702.59	30.43
702.72	0.00
702.85	32.77
702.99	42.13
703.12	49.15
703.25	37.45
703.38	0.00
703.51	9.36
703.65	0.00
703.78	39.79
703.91	51.49
704.04	30.43
704.17	0.00
704.31	11.70
704.44	0.00
704.57	53.83
704.70	53.83
704.83	16.38
704.96	28.09
705.10	14.04
705.23	0.00
>>>>>End Processed Spectral Data<<<<<
