SpectraSuite Data File
++++++++++++++++++++++++++++++++++++
Date: Fri Oct 04 12:13:31 GMT-05:00 2013
User: price-jones
Dark Spectrum Present: No
Reference Spectrum Present: No
Number of Sampled Component Spectra: 1
Spectrometers: USB2+H05261
Integration Time (usec): 10000 (USB2+H05261)
Spectra Averaged: 1 (USB2+H05261)
Boxcar Smoothing: 0 (USB2+H05261)
Correct for Electrical Dark: No (USB2+H05261)
Strobe/Lamp Enabled: No (USB2+H05261)
Correct for Detector Non-linearity: No (USB2+H05261)
Correct for Stray Light: No (USB2+H05261)
Number of Pixels in Processed Spectrum: 2048
>>>>>Begin Processed Spectral Data<<<<<
365.73	0.00
365.92	0.00
366.12	0.00
366.32	0.00
366.52	0.00
366.72	0.00
366.91	0.00
367.11	0.00
367.31	0.00
367.51	0.00
367.70	0.00
367.90	0.00
368.10	0.00
368.30	0.00
368.49	0.00
368.69	0.00
368.89	0.00
369.09	0.00
369.28	0.00
369.48	0.00
369.68	0.00
369.87	0.00
370.07	0.00
370.27	0.00
370.47	0.00
370.66	0.00
370.86	0.00
371.06	0.00
371.25	4.68
371.45	0.00
371.65	4.68
371.84	0.00
372.04	0.00
372.24	0.00
372.44	18.72
372.63	0.00
372.83	58.51
373.03	51.49
373.22	14.04
373.42	0.00
373.62	18.72
373.81	51.49
374.01	39.79
374.21	0.00
374.40	28.09
374.60	46.81
374.79	70.22
374.99	0.00
375.19	4.68
375.38	25.75
375.58	0.00
375.78	9.36
375.97	63.19
376.17	9.36
376.37	0.00
376.56	0.00
376.76	25.75
376.95	42.13
377.15	51.49
377.35	0.00
377.54	0.00
377.74	4.68
377.93	30.43
378.13	0.00
378.33	18.72
378.52	16.38
378.72	35.11
378.91	0.00
379.11	14.04
379.31	0.00
379.50	0.00
379.70	0.00
379.89	9.36
380.09	0.00
380.28	0.00
380.48	0.00
380.68	7.02
380.87	28.09
381.07	32.77
381.26	79.58
381.46	0.00
381.65	23.41
381.85	53.83
382.04	32.77
382.24	32.77
382.43	16.38
382.63	42.13
382.83	14.04
383.02	58.51
383.22	4.68
383.41	37.45
383.61	0.00
383.80	0.00
384.00	0.00
384.19	35.11
384.39	53.83
384.58	25.75
384.78	32.77
384.97	11.70
385.17	44.47
385.36	35.11
385.56	42.13
385.75	0.00
385.95	51.49
386.14	25.75
386.34	79.58
386.53	18.72
386.72	0.00
386.92	0.00
387.11	0.00
387.31	37.45
387.50	0.00
387.70	28.09
387.89	65.54
388.09	28.09
388.28	70.22
388.48	0.00
388.67	56.17
388.86	65.54
389.06	44.47
389.25	0.00
389.45	21.06
389.64	14.04
389.84	21.06
390.03	60.85
390.22	86.60
390.42	39.79
390.61	72.56
390.81	32.77
391.00	11.70
391.19	53.83
391.39	65.54
391.58	46.81
391.78	0.00
391.97	51.49
392.16	46.81
392.36	4.68
392.55	42.13
392.75	0.00
392.94	53.83
393.13	11.70
393.33	0.00
393.52	60.85
393.71	39.79
393.91	39.79
394.10	0.00
394.29	84.26
394.49	60.85
394.68	25.75
394.88	4.68
395.07	42.13
395.26	23.41
395.46	70.22
395.65	56.17
395.84	0.00
396.04	63.19
396.23	58.51
396.42	0.00
396.62	0.00
396.81	56.17
397.00	18.72
397.19	0.00
397.39	30.43
397.58	25.75
397.77	30.43
397.97	37.45
398.16	21.06
398.35	121.71
398.55	0.00
398.74	0.00
398.93	0.00
399.12	28.09
399.32	112.35
399.51	18.72
399.70	0.00
399.90	0.00
400.09	0.00
400.28	0.00
400.47	60.85
400.67	42.13
400.86	42.13
401.05	110.01
401.24	46.81
401.44	53.83
401.63	18.72
401.82	9.36
402.01	44.47
402.21	74.90
402.40	16.38
402.59	18.72
402.78	23.41
402.97	79.58
403.17	0.00
403.36	0.00
403.55	56.17
403.74	0.00
403.93	0.00
404.13	65.54
404.32	0.00
404.51	32.77
404.70	14.04
404.89	0.00
405.09	49.15
405.28	95.96
405.47	88.94
405.66	35.11
405.85	37.45
406.05	39.79
406.24	32.77
406.43	0.00
406.62	25.75
406.81	25.75
407.00	39.79
407.20	44.47
407.39	0.00
407.58	44.47
407.77	2.34
407.96	53.83
408.15	39.79
408.34	117.03
408.54	18.72
408.73	0.00
408.92	0.00
409.11	4.68
409.30	72.56
409.49	11.70
409.68	18.72
409.87	0.00
410.07	70.22
410.26	9.36
410.45	46.81
410.64	117.03
410.83	11.70
411.02	0.00
411.21	46.81
411.40	51.49
411.59	37.45
411.78	21.06
411.98	0.00
412.17	79.58
412.36	60.85
412.55	65.54
412.74	95.96
412.93	93.62
413.12	9.36
413.31	63.19
413.50	21.06
413.69	58.51
413.88	14.04
414.07	28.09
414.26	88.94
414.45	86.60
414.64	18.72
414.83	46.81
415.02	0.00
415.22	0.00
415.41	51.49
415.60	46.81
415.79	81.92
415.98	79.58
416.17	30.43
416.36	25.75
416.55	58.51
416.74	11.70
416.93	42.13
417.12	37.45
417.31	25.75
417.50	0.00
417.69	0.00
417.88	46.81
418.07	9.36
418.26	32.77
418.45	0.00
418.64	0.00
418.83	25.75
419.02	42.13
419.21	35.11
419.39	0.00
419.58	67.88
419.77	9.36
419.96	46.81
420.15	49.15
420.34	42.13
420.53	46.81
420.72	25.75
420.91	18.72
421.10	0.00
421.29	46.81
421.48	46.81
421.67	14.04
421.86	0.00
422.05	88.94
422.24	84.26
422.43	51.49
422.61	37.45
422.80	0.00
422.99	23.41
423.18	51.49
423.37	152.13
423.56	23.41
423.75	49.15
423.94	84.26
424.13	30.43
424.32	0.00
424.50	72.56
424.69	0.00
424.88	9.36
425.07	0.00
425.26	25.75
425.45	0.00
425.64	18.72
425.83	81.92
426.01	30.43
426.20	0.00
426.39	9.36
426.58	18.72
426.77	84.26
426.96	65.54
427.15	60.85
427.33	0.00
427.52	11.70
427.71	65.54
427.90	63.19
428.09	0.00
428.28	46.81
428.46	0.00
428.65	16.38
428.84	21.06
429.03	102.98
429.22	39.79
429.40	0.00
429.59	39.79
429.78	56.17
429.97	72.56
430.16	44.47
430.34	4.68
430.53	100.64
430.72	0.00
430.91	28.09
431.10	95.96
431.28	86.60
431.47	93.62
431.66	23.41
431.85	0.00
432.03	0.00
432.22	9.36
432.41	23.41
432.60	28.09
432.79	0.00
432.97	56.17
433.16	0.00
433.35	32.77
433.54	25.75
433.72	60.85
433.91	4.68
434.10	105.32
434.28	51.49
434.47	53.83
434.66	28.09
434.85	32.77
435.03	9.36
435.22	0.00
435.41	35.11
435.59	46.81
435.78	30.43
435.97	11.70
436.16	60.85
436.34	7.02
436.53	7.02
436.72	0.00
436.90	0.00
437.09	21.06
437.28	46.81
437.46	0.00
437.65	53.83
437.84	79.58
438.02	119.37
438.21	72.56
438.40	0.00
438.58	4.68
438.77	39.79
438.96	44.47
439.14	0.00
439.33	21.06
439.52	86.60
439.70	9.36
439.89	32.77
440.08	18.72
440.26	42.13
440.45	21.06
440.63	46.81
440.82	18.72
441.01	65.54
441.19	0.00
441.38	25.75
441.57	37.45
441.75	72.56
441.94	0.00
442.12	4.68
442.31	42.13
442.50	0.00
442.68	70.22
442.87	32.77
443.05	84.26
443.24	32.77
443.43	58.51
443.61	0.00
443.80	0.00
443.98	23.41
444.17	2.34
444.35	0.00
444.54	67.88
444.73	53.83
444.91	0.00
445.10	0.00
445.28	28.09
445.47	37.45
445.65	0.00
445.84	35.11
446.02	11.70
446.21	93.62
446.39	0.00
446.58	0.00
446.77	25.75
446.95	0.00
447.14	28.09
447.32	74.90
447.51	18.72
447.69	56.17
447.88	56.17
448.06	42.13
448.25	44.47
448.43	11.70
448.62	14.04
448.80	14.04
448.99	18.72
449.17	49.15
449.36	21.06
449.54	0.00
449.73	9.36
449.91	74.90
450.10	67.88
450.28	42.13
450.46	4.68
450.65	14.04
450.83	9.36
451.02	9.36
451.20	91.28
451.39	0.00
451.57	11.70
451.76	63.19
451.94	21.06
452.13	51.49
452.31	0.00
452.49	14.04
452.68	58.51
452.86	0.00
453.05	30.43
453.23	25.75
453.42	72.56
453.60	37.45
453.78	44.47
453.97	0.00
454.15	4.68
454.34	11.70
454.52	32.77
454.70	28.09
454.89	7.02
455.07	32.77
455.26	16.38
455.44	0.00
455.62	0.00
455.81	0.00
455.99	51.49
456.17	0.00
456.36	0.00
456.54	63.19
456.73	16.38
456.91	30.43
457.09	51.49
457.28	46.81
457.46	74.90
457.64	32.77
457.83	79.58
458.01	56.17
458.19	9.36
458.38	46.81
458.56	32.77
458.74	30.43
458.93	0.00
459.11	4.68
459.29	79.58
459.48	51.49
459.66	0.00
459.84	30.43
460.03	16.38
460.21	91.28
460.39	23.41
460.57	25.75
460.76	16.38
460.94	4.68
461.12	46.81
461.31	67.88
461.49	0.00
461.67	91.28
461.85	0.00
462.04	25.75
462.22	65.54
462.40	16.38
462.59	14.04
462.77	37.45
462.95	18.72
463.13	25.75
463.32	2.34
463.50	0.00
463.68	65.54
463.86	0.00
464.05	0.00
464.23	0.00
464.41	37.45
464.59	77.24
464.78	70.22
464.96	16.38
465.14	39.79
465.32	58.51
465.50	93.62
465.69	65.54
465.87	35.11
466.05	0.00
466.23	30.43
466.41	28.09
466.60	0.00
466.78	74.90
466.96	60.85
467.14	67.88
467.32	11.70
467.51	42.13
467.69	46.81
467.87	112.35
468.05	23.41
468.23	14.04
468.41	32.77
468.60	42.13
468.78	21.06
468.96	0.00
469.14	67.88
469.32	65.54
469.50	0.00
469.69	23.41
469.87	9.36
470.05	53.83
470.23	16.38
470.41	110.01
470.59	0.00
470.77	23.41
470.95	65.54
471.14	53.83
471.32	0.00
471.50	7.02
471.68	0.00
471.86	79.58
472.04	35.11
472.22	25.75
472.40	14.04
472.58	37.45
472.77	0.00
472.95	107.66
473.13	51.49
473.31	25.75
473.49	0.00
473.67	35.11
473.85	25.75
474.03	42.13
474.21	9.36
474.39	65.54
474.57	49.15
474.75	0.00
474.93	0.00
475.12	39.79
475.30	16.38
475.48	86.60
475.66	65.54
475.84	2.34
476.02	28.09
476.20	21.06
476.38	42.13
476.56	0.00
476.74	37.45
476.92	0.00
477.10	32.77
477.28	81.92
477.46	93.62
477.64	32.77
477.82	23.41
478.00	74.90
478.18	0.00
478.36	39.79
478.54	35.11
478.72	0.00
478.90	0.00
479.08	39.79
479.26	72.56
479.44	21.06
479.62	67.88
479.80	0.00
479.98	23.41
480.16	67.88
480.34	7.02
480.52	65.54
480.70	58.51
480.88	23.41
481.06	35.11
481.24	7.02
481.41	81.92
481.59	37.45
481.77	23.41
481.95	0.00
482.13	133.41
482.31	42.13
482.49	49.15
482.67	4.68
482.85	0.00
483.03	30.43
483.21	0.00
483.39	0.00
483.57	28.09
483.74	67.88
483.92	51.49
484.10	65.54
484.28	0.00
484.46	4.68
484.64	37.45
484.82	2.34
485.00	84.26
485.18	46.81
485.35	51.49
485.53	39.79
485.71	32.77
485.89	44.47
486.07	0.00
486.25	42.13
486.43	0.00
486.61	58.51
486.78	42.13
486.96	35.11
487.14	0.00
487.32	100.64
487.50	49.15
487.68	35.11
487.85	25.75
488.03	9.36
488.21	51.49
488.39	0.00
488.57	84.26
488.75	53.83
488.92	72.56
489.10	0.00
489.28	67.88
489.46	7.02
489.64	0.00
489.81	0.00
489.99	23.41
490.17	39.79
490.35	88.94
490.53	44.47
490.70	65.54
490.88	86.60
491.06	32.77
491.24	11.70
491.41	0.00
491.59	44.47
491.77	67.88
491.95	9.36
492.13	0.00
492.30	28.09
492.48	77.24
492.66	30.43
492.84	32.77
493.01	56.17
493.19	44.47
493.37	63.19
493.54	32.77
493.72	0.00
493.90	0.00
494.08	0.00
494.25	91.28
494.43	44.47
494.61	110.01
494.79	98.30
494.96	77.24
495.14	4.68
495.32	102.98
495.49	23.41
495.67	79.58
495.85	42.13
496.02	46.81
496.20	86.60
496.38	21.06
496.55	16.38
496.73	32.77
496.91	56.17
497.09	37.45
497.26	0.00
497.44	18.72
497.62	11.70
497.79	11.70
497.97	23.41
498.14	28.09
498.32	28.09
498.50	39.79
498.67	79.58
498.85	25.75
499.03	28.09
499.20	46.81
499.38	60.85
499.56	100.64
499.73	67.88
499.91	79.58
500.08	88.94
500.26	44.47
500.44	58.51
500.61	35.11
500.79	0.00
500.97	16.38
501.14	0.00
501.32	2.34
501.49	39.79
501.67	46.81
501.84	23.41
502.02	39.79
502.20	0.00
502.37	11.70
502.55	35.11
502.72	70.22
502.90	28.09
503.07	28.09
503.25	0.00
503.43	93.62
503.60	93.62
503.78	100.64
503.95	35.11
504.13	88.94
504.30	11.70
504.48	84.26
504.65	23.41
504.83	0.00
505.01	70.22
505.18	46.81
505.36	0.00
505.53	46.81
505.71	37.45
505.88	2.34
506.06	0.00
506.23	93.62
506.41	11.70
506.58	49.15
506.76	49.15
506.93	58.51
507.11	56.17
507.28	72.56
507.46	7.02
507.63	2.34
507.81	23.41
507.98	42.13
508.16	65.54
508.33	70.22
508.50	37.45
508.68	16.38
508.85	86.60
509.03	25.75
509.20	67.88
509.38	67.88
509.55	30.43
509.73	72.56
509.90	60.85
510.08	65.54
510.25	39.79
510.42	119.37
510.60	21.06
510.77	65.54
510.95	56.17
511.12	46.81
511.30	72.56
511.47	63.19
511.64	23.41
511.82	0.00
511.99	88.94
512.17	93.62
512.34	44.47
512.51	0.00
512.69	42.13
512.86	32.77
513.04	18.72
513.21	9.36
513.38	37.45
513.56	23.41
513.73	46.81
513.90	39.79
514.08	30.43
514.25	25.75
514.43	28.09
514.60	42.13
514.77	39.79
514.95	63.19
515.12	65.54
515.29	30.43
515.47	14.04
515.64	0.00
515.81	23.41
515.99	32.77
516.16	86.60
516.33	14.04
516.51	98.30
516.68	39.79
516.85	46.81
517.03	42.13
517.20	60.85
517.37	100.64
517.54	60.85
517.72	0.00
517.89	70.22
518.06	0.00
518.24	23.41
518.41	102.98
518.58	35.11
518.75	0.00
518.93	37.45
519.10	60.85
519.27	0.00
519.45	42.13
519.62	84.26
519.79	0.00
519.96	39.79
520.14	133.41
520.31	74.90
520.48	72.56
520.65	35.11
520.83	98.30
521.00	56.17
521.17	74.90
521.34	28.09
521.52	28.09
521.69	102.98
521.86	42.13
522.03	42.13
522.20	30.43
522.38	67.88
522.55	0.00
522.72	49.15
522.89	44.47
523.07	11.70
523.24	21.06
523.41	53.83
523.58	0.00
523.75	51.49
523.92	39.79
524.10	42.13
524.27	84.26
524.44	42.13
524.61	46.81
524.78	46.81
524.96	0.00
525.13	37.45
525.30	110.01
525.47	30.43
525.64	4.68
525.81	107.66
525.98	58.51
526.16	56.17
526.33	93.62
526.50	7.02
526.67	7.02
526.84	25.75
527.01	23.41
527.18	56.17
527.36	44.47
527.53	25.75
527.70	58.51
527.87	0.00
528.04	84.26
528.21	74.90
528.38	37.45
528.55	70.22
528.72	32.77
528.89	0.00
529.07	42.13
529.24	46.81
529.41	0.00
529.58	28.09
529.75	0.00
529.92	0.00
530.09	49.15
530.26	32.77
530.43	4.68
530.60	0.00
530.77	23.41
530.94	44.47
531.11	2.34
531.28	79.58
531.46	121.71
531.63	23.41
531.80	42.13
531.97	128.73
532.14	28.09
532.31	37.45
532.48	70.22
532.65	4.68
532.82	58.51
532.99	23.41
533.16	42.13
533.33	60.85
533.50	56.17
533.67	81.92
533.84	49.15
534.01	23.41
534.18	58.51
534.35	11.70
534.52	42.13
534.69	9.36
534.86	53.83
535.03	81.92
535.20	7.02
535.37	51.49
535.54	0.00
535.71	21.06
535.88	30.43
536.05	23.41
536.22	16.38
536.38	35.11
536.55	138.09
536.72	7.02
536.89	30.43
537.06	56.17
537.23	0.00
537.40	39.79
537.57	65.54
537.74	21.06
537.91	58.51
538.08	28.09
538.25	81.92
538.42	100.64
538.59	58.51
538.75	11.70
538.92	39.79
539.09	30.43
539.26	53.83
539.43	131.07
539.60	72.56
539.77	88.94
539.94	98.30
540.11	65.54
540.28	42.13
540.44	16.38
540.61	51.49
540.78	74.90
540.95	91.28
541.12	14.04
541.29	0.00
541.46	49.15
541.62	21.06
541.79	37.45
541.96	0.00
542.13	0.00
542.30	2.34
542.47	105.32
542.63	0.00
542.80	25.75
542.97	72.56
543.14	105.32
543.31	102.98
543.48	93.62
543.64	93.62
543.81	56.17
543.98	56.17
544.15	91.28
544.32	0.00
544.48	23.41
544.65	72.56
544.82	35.11
544.99	46.81
545.16	81.92
545.32	11.70
545.49	0.00
545.66	32.77
545.83	7.02
546.00	28.09
546.16	30.43
546.33	0.00
546.50	74.90
546.67	14.04
546.83	53.83
547.00	23.41
547.17	51.49
547.34	23.41
547.50	4.68
547.67	39.79
547.84	77.24
548.00	51.49
548.17	95.96
548.34	46.81
548.51	74.90
548.67	35.11
548.84	60.85
549.01	42.13
549.18	65.54
549.34	7.02
549.51	14.04
549.68	21.06
549.84	0.00
550.01	21.06
550.18	86.60
550.34	37.45
550.51	84.26
550.68	81.92
550.84	0.00
551.01	0.00
551.18	0.00
551.34	65.54
551.51	67.88
551.68	84.26
551.84	28.09
552.01	63.19
552.18	9.36
552.34	56.17
552.51	30.43
552.68	25.75
552.84	105.32
553.01	74.90
553.18	37.45
553.34	42.13
553.51	58.51
553.67	0.00
553.84	0.00
554.01	53.83
554.17	70.22
554.34	135.75
554.51	86.60
554.67	0.00
554.84	58.51
555.00	39.79
555.17	2.34
555.33	72.56
555.50	0.00
555.67	18.72
555.83	44.47
556.00	0.00
556.16	32.77
556.33	0.00
556.50	58.51
556.66	0.00
556.83	16.38
556.99	98.30
557.16	60.85
557.32	18.72
557.49	77.24
557.65	32.77
557.82	74.90
557.98	0.00
558.15	0.00
558.32	81.92
558.48	11.70
558.65	51.49
558.81	49.15
558.98	63.19
559.14	23.41
559.31	46.81
559.47	0.00
559.64	30.43
559.80	44.47
559.97	0.00
560.13	35.11
560.30	70.22
560.46	9.36
560.63	0.00
560.79	39.79
560.96	51.49
561.12	60.85
561.29	67.88
561.45	77.24
561.61	81.92
561.78	4.68
561.94	95.96
562.11	81.92
562.27	0.00
562.44	49.15
562.60	2.34
562.77	37.45
562.93	16.38
563.10	4.68
563.26	0.00
563.42	72.56
563.59	56.17
563.75	56.17
563.92	72.56
564.08	49.15
564.24	0.00
564.41	0.00
564.57	0.00
564.74	0.00
564.90	67.88
565.07	42.13
565.23	0.00
565.39	42.13
565.56	28.09
565.72	39.79
565.88	2.34
566.05	0.00
566.21	4.68
566.38	32.77
566.54	25.75
566.70	51.49
566.87	42.13
567.03	16.38
567.19	4.68
567.36	58.51
567.52	46.81
567.68	9.36
567.85	11.70
568.01	16.38
568.17	42.13
568.34	16.38
568.50	7.02
568.66	28.09
568.83	107.66
568.99	46.81
569.15	37.45
569.32	63.19
569.48	21.06
569.64	0.00
569.81	74.90
569.97	56.17
570.13	0.00
570.30	2.34
570.46	37.45
570.62	0.00
570.78	60.85
570.95	28.09
571.11	51.49
571.27	23.41
571.43	37.45
571.60	86.60
571.76	49.15
571.92	0.00
572.09	7.02
572.25	21.06
572.41	2.34
572.57	49.15
572.74	58.51
572.90	67.88
573.06	7.02
573.22	32.77
573.38	0.00
573.55	42.13
573.71	107.66
573.87	7.02
574.03	42.13
574.20	58.51
574.36	58.51
574.52	30.43
574.68	74.90
574.84	42.13
575.01	9.36
575.17	88.94
575.33	51.49
575.49	42.13
575.65	21.06
575.82	11.70
575.98	56.17
576.14	53.83
576.30	131.07
576.46	18.72
576.62	9.36
576.79	49.15
576.95	37.45
577.11	30.43
577.27	35.11
577.43	81.92
577.59	70.22
577.75	35.11
577.92	81.92
578.08	119.37
578.24	28.09
578.40	9.36
578.56	0.00
578.72	67.88
578.88	58.51
579.04	74.90
579.21	4.68
579.37	42.13
579.53	51.49
579.69	0.00
579.85	32.77
580.01	72.56
580.17	0.00
580.33	0.00
580.49	77.24
580.65	86.60
580.82	21.06
580.98	42.13
581.14	14.04
581.30	11.70
581.46	42.13
581.62	2.34
581.78	91.28
581.94	135.75
582.10	49.15
582.26	0.00
582.42	60.85
582.58	51.49
582.74	72.56
582.90	81.92
583.06	0.00
583.22	58.51
583.38	42.13
583.54	70.22
583.70	60.85
583.86	25.75
584.02	84.26
584.18	37.45
584.34	63.19
584.50	121.71
584.66	636.63
584.82	1240.48
584.98	1568.16
585.14	1313.04
585.30	844.93
585.46	545.34
585.62	320.65
585.78	180.22
585.94	79.58
586.10	112.35
586.26	39.79
586.42	70.22
586.58	37.45
586.74	0.00
586.90	39.79
587.06	0.00
587.22	16.38
587.38	49.15
587.54	102.98
587.70	46.81
587.86	117.03
588.02	159.16
588.18	86.60
588.34	117.03
588.49	14.04
588.65	0.00
588.81	11.70
588.97	44.47
589.13	77.24
589.29	4.68
589.45	0.00
589.61	35.11
589.77	32.77
589.93	21.06
590.08	30.43
590.24	35.11
590.40	51.49
590.56	18.72
590.72	44.47
590.88	23.41
591.04	91.28
591.20	2.34
591.35	56.17
591.51	44.47
591.67	11.70
591.83	51.49
591.99	51.49
592.15	0.00
592.31	4.68
592.46	91.28
592.62	4.68
592.78	49.15
592.94	16.38
593.10	0.00
593.26	23.41
593.41	39.79
593.57	44.47
593.73	9.36
593.89	93.62
594.05	224.69
594.20	152.13
594.36	276.18
594.52	154.48
594.68	142.77
594.84	77.24
594.99	93.62
595.15	49.15
595.31	51.49
595.47	79.58
595.62	44.47
595.78	53.83
595.94	28.09
596.10	39.79
596.25	14.04
596.41	25.75
596.57	35.11
596.73	37.45
596.88	46.81
597.04	81.92
597.20	149.79
597.36	21.06
597.51	16.38
597.67	159.16
597.83	2.34
597.99	77.24
598.14	56.17
598.30	0.00
598.46	63.19
598.61	42.13
598.77	0.00
598.93	37.45
599.09	30.43
599.24	2.34
599.40	63.19
599.56	51.49
599.71	16.38
599.87	42.13
600.03	44.47
600.18	37.45
600.34	28.09
600.50	0.00
600.65	7.02
600.81	0.00
600.97	60.85
601.12	0.00
601.28	63.19
601.44	4.68
601.59	11.70
601.75	49.15
601.91	56.17
602.06	93.62
602.22	42.13
602.37	74.90
602.53	105.32
602.69	65.54
602.84	42.13
603.00	28.09
603.16	74.90
603.31	37.45
603.47	60.85
603.62	30.43
603.78	9.36
603.94	70.22
604.09	0.00
604.25	46.81
604.40	84.26
604.56	65.54
604.71	100.64
604.87	14.04
605.03	58.51
605.18	72.56
605.34	14.04
605.49	30.43
605.65	93.62
605.80	100.64
605.96	30.43
606.12	53.83
606.27	72.56
606.43	7.02
606.58	65.54
606.74	93.62
606.89	102.98
607.05	152.13
607.20	231.71
607.36	187.24
607.51	154.48
607.67	46.81
607.82	32.77
607.98	100.64
608.13	112.35
608.29	56.17
608.44	4.68
608.60	0.00
608.75	58.51
608.91	23.41
609.06	210.65
609.22	320.65
609.37	388.53
609.53	245.76
609.68	161.50
609.84	159.16
609.99	184.90
610.15	60.85
610.30	93.62
610.46	9.36
610.61	84.26
610.76	53.83
610.92	25.75
611.07	21.06
611.23	11.70
611.38	28.09
611.54	0.00
611.69	46.81
611.84	49.15
612.00	0.00
612.15	35.11
612.31	2.34
612.46	21.06
612.62	9.36
612.77	44.47
612.92	126.39
613.08	42.13
613.23	72.56
613.39	58.51
613.54	51.49
613.69	180.22
613.85	374.49
614.00	491.51
614.15	500.87
614.31	339.38
614.46	215.33
614.62	133.41
614.77	128.73
614.92	0.00
615.08	25.75
615.23	107.66
615.38	53.83
615.54	65.54
615.69	0.00
615.84	102.98
616.00	187.24
616.15	131.07
616.30	121.71
616.46	100.64
616.61	72.56
616.76	70.22
616.92	0.00
617.07	49.15
617.22	14.04
617.37	67.88
617.53	44.47
617.68	67.88
617.83	28.09
617.99	42.13
618.14	25.75
618.29	74.90
618.45	0.00
618.60	2.34
618.75	67.88
618.90	70.22
619.06	138.09
619.21	28.09
619.36	46.81
619.51	42.13
619.67	72.56
619.82	44.47
619.97	30.43
620.12	39.79
620.28	42.13
620.43	42.13
620.58	42.13
620.73	21.06
620.89	0.00
621.04	37.45
621.19	110.01
621.34	65.54
621.49	152.13
621.65	142.77
621.80	53.83
621.95	63.19
622.10	32.77
622.25	37.45
622.41	0.00
622.56	0.00
622.71	0.00
622.86	39.79
623.01	49.15
623.16	0.00
623.32	18.72
623.47	0.00
623.62	60.85
623.77	35.11
623.92	67.88
624.07	65.54
624.23	0.00
624.38	14.04
624.53	25.75
624.68	46.81
624.83	42.13
624.98	35.11
625.13	49.15
625.29	51.49
625.44	42.13
625.59	9.36
625.74	0.00
625.89	67.88
626.04	159.16
626.19	177.88
626.34	238.73
626.49	252.78
626.65	191.92
626.80	159.16
626.95	149.79
627.10	91.28
627.25	14.04
627.40	65.54
627.55	112.35
627.70	0.00
627.85	53.83
628.00	49.15
628.15	39.79
628.30	49.15
628.45	0.00
628.60	46.81
628.76	16.38
628.91	0.00
629.06	58.51
629.21	0.00
629.36	0.00
629.51	74.90
629.66	11.70
629.81	65.54
629.96	30.43
630.11	77.24
630.26	81.92
630.41	124.05
630.56	58.51
630.71	102.98
630.86	25.75
631.01	0.00
631.16	39.79
631.31	84.26
631.46	16.38
631.61	0.00
631.76	53.83
631.91	37.45
632.06	110.01
632.21	9.36
632.36	9.36
632.51	16.38
632.66	0.00
632.81	44.47
632.96	131.07
633.10	166.18
633.25	203.63
633.40	208.31
633.55	72.56
633.70	72.56
633.85	18.72
634.00	84.26
634.15	44.47
634.30	7.02
634.45	56.17
634.60	4.68
634.75	93.62
634.90	112.35
635.05	51.49
635.19	16.38
635.34	84.26
635.49	72.56
635.64	67.88
635.79	46.81
635.94	7.02
636.09	65.54
636.24	9.36
636.39	25.75
636.53	0.00
636.68	74.90
636.83	51.49
636.98	56.17
637.13	105.32
637.28	14.04
637.43	0.00
637.57	4.68
637.72	98.30
637.87	212.99
638.02	348.74
638.17	322.99
638.32	191.92
638.46	173.20
638.61	161.50
638.76	121.71
638.91	74.90
639.06	35.11
639.20	0.00
639.35	84.26
639.50	49.15
639.65	128.73
639.80	327.68
639.94	437.68
640.09	479.81
640.24	341.72
640.39	248.10
640.54	208.31
640.68	145.11
640.83	58.51
640.98	18.72
641.13	70.22
641.27	81.92
641.42	145.11
641.57	72.56
641.72	63.19
641.86	0.00
642.01	44.47
642.16	49.15
642.31	32.77
642.45	67.88
642.60	72.56
642.75	35.11
642.90	49.15
643.04	0.00
643.19	51.49
643.34	9.36
643.48	39.79
643.63	58.51
643.78	72.56
643.93	56.17
644.07	91.28
644.22	86.60
644.37	0.00
644.51	32.77
644.66	42.13
644.81	49.15
644.95	72.56
645.10	42.13
645.25	56.17
645.39	84.26
645.54	105.32
645.69	44.47
645.83	128.73
645.98	102.98
646.13	2.34
646.27	37.45
646.42	84.26
646.57	65.54
646.71	102.98
646.86	49.15
647.00	0.00
647.15	56.17
647.30	58.51
647.44	65.54
647.59	74.90
647.74	0.00
647.88	0.00
648.03	37.45
648.17	0.00
648.32	51.49
648.47	21.06
648.61	86.60
648.76	0.00
648.90	14.04
649.05	70.22
649.20	0.00
649.34	0.00
649.49	7.02
649.63	42.13
649.78	65.54
649.92	58.51
650.07	16.38
650.21	177.88
650.36	234.05
650.51	248.10
650.65	269.16
650.80	114.69
650.94	128.73
651.09	100.64
651.23	49.15
651.38	28.09
651.52	67.88
651.67	44.47
651.81	0.00
651.96	0.00
652.10	0.00
652.25	46.81
652.39	91.28
652.54	56.17
652.68	4.68
652.83	0.00
652.97	74.90
653.12	91.28
653.26	107.66
653.41	35.11
653.55	67.88
653.70	39.79
653.84	0.00
653.99	63.19
654.13	18.72
654.27	74.90
654.42	49.15
654.56	42.13
654.71	0.00
654.85	4.68
655.00	7.02
655.14	86.60
655.29	49.15
655.43	53.83
655.57	0.00
655.72	44.47
655.86	0.00
656.01	0.00
656.15	21.06
656.30	0.00
656.44	23.41
656.58	74.90
656.73	16.38
656.87	30.43
657.01	51.49
657.16	28.09
657.30	60.85
657.45	0.00
657.59	2.34
657.73	70.22
657.88	9.36
658.02	0.00
658.16	35.11
658.31	49.15
658.45	23.41
658.60	74.90
658.74	42.13
658.88	16.38
659.03	25.75
659.17	23.41
659.31	37.45
659.46	112.35
659.60	77.24
659.74	126.39
659.89	74.90
660.03	147.45
660.17	91.28
660.32	39.79
660.46	32.77
660.60	112.35
660.74	77.24
660.89	95.96
661.03	56.17
661.17	16.38
661.32	0.00
661.46	46.81
661.60	21.06
661.74	11.70
661.89	77.24
662.03	79.58
662.17	39.79
662.31	0.00
662.46	0.00
662.60	7.02
662.74	0.00
662.88	159.16
663.03	44.47
663.17	42.13
663.31	7.02
663.45	32.77
663.60	58.51
663.74	23.41
663.88	39.79
664.02	0.00
664.17	42.13
664.31	84.26
664.45	14.04
664.59	0.00
664.73	77.24
664.88	4.68
665.02	60.85
665.16	0.00
665.30	46.81
665.44	46.81
665.59	28.09
665.73	46.81
665.87	56.17
666.01	58.51
666.15	0.00
666.29	35.11
666.44	56.17
666.58	53.83
666.72	39.79
666.86	53.83
667.00	51.49
667.14	37.45
667.28	72.56
667.43	159.16
667.57	191.92
667.71	191.92
667.85	170.86
667.99	112.35
668.13	98.30
668.27	60.85
668.41	37.45
668.56	58.51
668.70	35.11
668.84	25.75
668.98	56.17
669.12	2.34
669.26	25.75
669.40	9.36
669.54	60.85
669.68	25.75
669.82	63.19
669.96	51.49
670.10	11.70
670.25	0.00
670.39	21.06
670.53	0.00
670.67	65.54
670.81	58.51
670.95	32.77
671.09	14.04
671.23	32.77
671.37	84.26
671.51	163.84
671.65	128.73
671.79	135.75
671.93	133.41
672.07	95.96
672.21	39.79
672.35	42.13
672.49	23.41
672.63	0.00
672.77	56.17
672.91	60.85
673.05	42.13
673.19	30.43
673.33	2.34
673.47	39.79
673.61	58.51
673.75	11.70
673.89	0.00
674.03	63.19
674.17	46.81
674.31	0.00
674.45	4.68
674.59	16.38
674.73	37.45
674.87	67.88
675.01	51.49
675.15	39.79
675.29	37.45
675.43	21.06
675.56	18.72
675.70	100.64
675.84	2.34
675.98	74.90
676.12	35.11
676.26	23.41
676.40	37.45
676.54	65.54
676.68	25.75
676.82	0.00
676.96	23.41
677.10	84.26
677.23	49.15
677.37	110.01
677.51	100.64
677.65	44.47
677.79	63.19
677.93	0.00
678.07	32.77
678.21	32.77
678.34	23.41
678.48	23.41
678.62	42.13
678.76	39.79
678.90	9.36
679.04	84.26
679.18	53.83
679.31	9.36
679.45	0.00
679.59	0.00
679.73	2.34
679.87	18.72
680.00	46.81
680.14	0.00
680.28	39.79
680.42	28.09
680.56	51.49
680.70	42.13
680.83	105.32
680.97	0.00
681.11	44.47
681.25	30.43
681.39	0.00
681.52	65.54
681.66	0.00
681.80	79.58
681.94	53.83
682.07	0.00
682.21	65.54
682.35	79.58
682.49	14.04
682.62	65.54
682.76	11.70
682.90	107.66
683.04	28.09
683.17	18.72
683.31	18.72
683.45	0.00
683.59	32.77
683.72	74.90
683.86	44.47
684.00	0.00
684.13	37.45
684.27	51.49
684.41	2.34
684.55	51.49
684.68	0.00
684.82	23.41
684.96	0.00
685.09	77.24
685.23	28.09
685.37	0.00
685.50	51.49
685.64	9.36
685.78	0.00
685.91	67.88
686.05	23.41
686.19	25.75
686.32	42.13
686.46	44.47
686.60	65.54
686.73	37.45
686.87	28.09
687.01	51.49
687.14	44.47
687.28	39.79
687.42	84.26
687.55	53.83
687.69	74.90
687.82	14.04
687.96	67.88
688.10	21.06
688.23	0.00
688.37	32.77
688.50	18.72
688.64	30.43
688.78	37.45
688.91	11.70
689.05	16.38
689.18	30.43
689.32	86.60
689.46	46.81
689.59	0.00
689.73	60.85
689.86	32.77
690.00	0.00
690.13	119.37
690.27	0.00
690.41	58.51
690.54	67.88
690.68	98.30
690.81	65.54
690.95	32.77
691.08	56.17
691.22	39.79
691.35	18.72
691.49	23.41
691.62	0.00
691.76	21.06
691.89	65.54
692.03	28.09
692.16	23.41
692.30	91.28
692.43	49.15
692.57	128.73
692.70	72.56
692.84	182.56
692.97	119.37
693.11	117.03
693.24	49.15
693.38	91.28
693.51	42.13
693.65	0.00
693.78	0.00
693.92	21.06
694.05	0.00
694.19	16.38
694.32	159.16
694.45	37.45
694.59	58.51
694.72	21.06
694.86	25.75
694.99	39.79
695.13	0.00
695.26	49.15
695.39	18.72
695.53	4.68
695.66	0.00
695.80	63.19
695.93	4.68
696.07	37.45
696.20	56.17
696.33	28.09
696.47	93.62
696.60	84.26
696.73	74.90
696.87	0.00
697.00	14.04
697.14	84.26
697.27	0.00
697.40	18.72
697.54	49.15
697.67	25.75
697.80	42.13
697.94	72.56
698.07	9.36
698.21	16.38
698.34	65.54
698.47	58.51
698.61	16.38
698.74	16.38
698.87	84.26
699.01	0.00
699.14	65.54
699.27	44.47
699.40	35.11
699.54	0.00
699.67	0.00
699.80	0.00
699.94	95.96
700.07	70.22
700.20	86.60
700.34	16.38
700.47	74.90
700.60	63.19
700.73	14.04
700.87	42.13
701.00	32.77
701.13	32.77
701.26	49.15
701.40	79.58
701.53	53.83
701.66	9.36
701.79	51.49
701.93	0.00
702.06	67.88
702.19	44.47
702.32	28.09
702.46	100.64
702.59	49.15
702.72	72.56
702.85	124.05
702.99	140.43
703.12	124.05
703.25	184.90
703.38	212.99
703.51	95.96
703.65	79.58
703.78	93.62
703.91	51.49
704.04	53.83
704.17	0.00
704.31	53.83
704.44	9.36
704.57	25.75
704.70	21.06
704.83	0.00
704.96	60.85
705.10	51.49
705.23	4.68
>>>>>End Processed Spectral Data<<<<<
