SpectraSuite Data File
++++++++++++++++++++++++++++++++++++
Date: Fri Oct 04 12:13:38 GMT-05:00 2013
User: price-jones
Dark Spectrum Present: No
Reference Spectrum Present: No
Number of Sampled Component Spectra: 1
Spectrometers: USB2+H05261
Integration Time (usec): 10000 (USB2+H05261)
Spectra Averaged: 1 (USB2+H05261)
Boxcar Smoothing: 0 (USB2+H05261)
Correct for Electrical Dark: No (USB2+H05261)
Strobe/Lamp Enabled: No (USB2+H05261)
Correct for Detector Non-linearity: No (USB2+H05261)
Correct for Stray Light: No (USB2+H05261)
Number of Pixels in Processed Spectrum: 2048
>>>>>Begin Processed Spectral Data<<<<<
365.73	0.00
365.92	0.00
366.12	0.00
366.32	0.00
366.52	0.00
366.72	0.00
366.91	0.00
367.11	0.00
367.31	0.00
367.51	0.00
367.70	0.00
367.90	0.00
368.10	0.00
368.30	0.00
368.49	0.00
368.69	0.00
368.89	0.00
369.09	0.00
369.28	0.00
369.48	0.00
369.68	0.00
369.87	0.00
370.07	0.00
370.27	0.00
370.47	14.04
370.66	0.00
370.86	0.00
371.06	0.00
371.25	0.00
371.45	9.36
371.65	0.00
371.84	23.41
372.04	0.00
372.24	11.70
372.44	0.00
372.63	18.72
372.83	67.88
373.03	2.34
373.22	23.41
373.42	42.13
373.62	44.47
373.81	0.00
374.01	23.41
374.21	11.70
374.40	16.38
374.60	0.00
374.79	0.00
374.99	72.56
375.19	4.68
375.38	51.49
375.58	44.47
375.78	72.56
375.97	7.02
376.17	28.09
376.37	70.22
376.56	0.00
376.76	0.00
376.95	21.06
377.15	11.70
377.35	16.38
377.54	58.51
377.74	0.00
377.93	0.00
378.13	4.68
378.33	30.43
378.52	9.36
378.72	74.90
378.91	14.04
379.11	28.09
379.31	0.00
379.50	0.00
379.70	9.36
379.89	0.00
380.09	28.09
380.28	0.00
380.48	14.04
380.68	32.77
380.87	49.15
381.07	0.00
381.26	56.17
381.46	65.54
381.65	9.36
381.85	0.00
382.04	0.00
382.24	51.49
382.43	32.77
382.63	0.00
382.83	30.43
383.02	44.47
383.22	0.00
383.41	79.58
383.61	7.02
383.80	0.00
384.00	11.70
384.19	0.00
384.39	28.09
384.58	16.38
384.78	0.00
384.97	0.00
385.17	37.45
385.36	0.00
385.56	42.13
385.75	11.70
385.95	0.00
386.14	42.13
386.34	16.38
386.53	105.32
386.72	2.34
386.92	14.04
387.11	35.11
387.31	56.17
387.50	114.69
387.70	18.72
387.89	65.54
388.09	46.81
388.28	28.09
388.48	32.77
388.67	0.00
388.86	42.13
389.06	18.72
389.25	84.26
389.45	4.68
389.64	95.96
389.84	37.45
390.03	98.30
390.22	70.22
390.42	23.41
390.61	28.09
390.81	21.06
391.00	0.00
391.19	56.17
391.39	37.45
391.58	44.47
391.78	86.60
391.97	42.13
392.16	60.85
392.36	100.64
392.55	21.06
392.75	21.06
392.94	0.00
393.13	53.83
393.33	0.00
393.52	18.72
393.71	0.00
393.91	49.15
394.10	39.79
394.29	28.09
394.49	46.81
394.68	37.45
394.88	16.38
395.07	30.43
395.26	0.00
395.46	0.00
395.65	79.58
395.84	51.49
396.04	46.81
396.23	126.39
396.42	79.58
396.62	16.38
396.81	37.45
397.00	86.60
397.19	30.43
397.39	16.38
397.58	95.96
397.77	30.43
397.97	49.15
398.16	42.13
398.35	0.00
398.55	60.85
398.74	56.17
398.93	65.54
399.12	67.88
399.32	11.70
399.51	0.00
399.70	42.13
399.90	35.11
400.09	65.54
400.28	18.72
400.47	0.00
400.67	39.79
400.86	0.00
401.05	39.79
401.24	51.49
401.44	0.00
401.63	42.13
401.82	56.17
402.01	0.00
402.21	7.02
402.40	42.13
402.59	84.26
402.78	126.39
402.97	58.51
403.17	0.00
403.36	46.81
403.55	23.41
403.74	86.60
403.93	0.00
404.13	44.47
404.32	14.04
404.51	0.00
404.70	60.85
404.89	21.06
405.09	63.19
405.28	11.70
405.47	30.43
405.66	0.00
405.85	0.00
406.05	0.00
406.24	14.04
406.43	46.81
406.62	0.00
406.81	114.69
407.00	25.75
407.20	16.38
407.39	42.13
407.58	72.56
407.77	0.00
407.96	53.83
408.15	65.54
408.34	74.90
408.54	70.22
408.73	14.04
408.92	18.72
409.11	9.36
409.30	65.54
409.49	49.15
409.68	51.49
409.87	14.04
410.07	56.17
410.26	0.00
410.45	70.22
410.64	42.13
410.83	23.41
411.02	9.36
411.21	0.00
411.40	86.60
411.59	58.51
411.78	0.00
411.98	0.00
412.17	56.17
412.36	0.00
412.55	0.00
412.74	18.72
412.93	21.06
413.12	0.00
413.31	147.45
413.50	88.94
413.69	60.85
413.88	95.96
414.07	18.72
414.26	42.13
414.45	49.15
414.64	37.45
414.83	28.09
415.02	67.88
415.22	30.43
415.41	65.54
415.60	49.15
415.79	0.00
415.98	16.38
416.17	53.83
416.36	37.45
416.55	53.83
416.74	37.45
416.93	0.00
417.12	53.83
417.31	21.06
417.50	44.47
417.69	0.00
417.88	49.15
418.07	0.00
418.26	0.00
418.45	84.26
418.64	102.98
418.83	58.51
419.02	32.77
419.21	60.85
419.39	107.66
419.58	91.28
419.77	72.56
419.96	14.04
420.15	84.26
420.34	79.58
420.53	49.15
420.72	42.13
420.91	0.00
421.10	79.58
421.29	58.51
421.48	21.06
421.67	25.75
421.86	84.26
422.05	44.47
422.24	32.77
422.43	49.15
422.61	16.38
422.80	56.17
422.99	37.45
423.18	63.19
423.37	58.51
423.56	28.09
423.75	0.00
423.94	145.11
424.13	0.00
424.32	58.51
424.50	86.60
424.69	23.41
424.88	14.04
425.07	56.17
425.26	51.49
425.45	44.47
425.64	107.66
425.83	46.81
426.01	30.43
426.20	37.45
426.39	0.00
426.58	46.81
426.77	46.81
426.96	30.43
427.15	16.38
427.33	49.15
427.52	67.88
427.71	0.00
427.90	32.77
428.09	51.49
428.28	65.54
428.46	0.00
428.65	18.72
428.84	32.77
429.03	9.36
429.22	37.45
429.40	28.09
429.59	44.47
429.78	65.54
429.97	70.22
430.16	49.15
430.34	28.09
430.53	58.51
430.72	30.43
430.91	7.02
431.10	53.83
431.28	84.26
431.47	44.47
431.66	4.68
431.85	28.09
432.03	95.96
432.22	65.54
432.41	32.77
432.60	67.88
432.79	0.00
432.97	72.56
433.16	9.36
433.35	91.28
433.54	0.00
433.72	0.00
433.91	58.51
434.10	0.00
434.28	30.43
434.47	37.45
434.66	117.03
434.85	124.05
435.03	0.00
435.22	93.62
435.41	65.54
435.59	74.90
435.78	100.64
435.97	86.60
436.16	56.17
436.34	60.85
436.53	70.22
436.72	49.15
436.90	93.62
437.09	46.81
437.28	93.62
437.46	51.49
437.65	4.68
437.84	133.41
438.02	37.45
438.21	0.00
438.40	67.88
438.58	14.04
438.77	53.83
438.96	39.79
439.14	110.01
439.33	39.79
439.52	25.75
439.70	70.22
439.89	11.70
440.08	145.11
440.26	37.45
440.45	63.19
440.63	84.26
440.82	121.71
441.01	60.85
441.19	65.54
441.38	35.11
441.57	16.38
441.75	0.00
441.94	67.88
442.12	63.19
442.31	86.60
442.50	135.75
442.68	46.81
442.87	14.04
443.05	105.32
443.24	16.38
443.43	32.77
443.61	0.00
443.80	25.75
443.98	49.15
444.17	79.58
444.35	133.41
444.54	107.66
444.73	28.09
444.91	102.98
445.10	74.90
445.28	0.00
445.47	11.70
445.65	128.73
445.84	56.17
446.02	70.22
446.21	102.98
446.39	56.17
446.58	32.77
446.77	74.90
446.95	18.72
447.14	37.45
447.32	0.00
447.51	44.47
447.69	56.17
447.88	0.00
448.06	42.13
448.25	65.54
448.43	56.17
448.62	70.22
448.80	53.83
448.99	14.04
449.17	32.77
449.36	21.06
449.54	110.01
449.73	16.38
449.91	32.77
450.10	53.83
450.28	28.09
450.46	7.02
450.65	28.09
450.83	49.15
451.02	53.83
451.20	60.85
451.39	0.00
451.57	39.79
451.76	98.30
451.94	91.28
452.13	32.77
452.31	102.98
452.49	25.75
452.68	14.04
452.86	32.77
453.05	140.43
453.23	46.81
453.42	0.00
453.60	88.94
453.78	44.47
453.97	0.00
454.15	53.83
454.34	56.17
454.52	86.60
454.70	0.00
454.89	39.79
455.07	58.51
455.26	35.11
455.44	60.85
455.62	88.94
455.81	131.07
455.99	44.47
456.17	79.58
456.36	51.49
456.54	51.49
456.73	46.81
456.91	9.36
457.09	0.00
457.28	9.36
457.46	63.19
457.64	86.60
457.83	81.92
458.01	46.81
458.19	0.00
458.38	81.92
458.56	93.62
458.74	0.00
458.93	49.15
459.11	131.07
459.29	42.13
459.48	0.00
459.66	60.85
459.84	110.01
460.03	67.88
460.21	32.77
460.39	81.92
460.57	86.60
460.76	107.66
460.94	16.38
461.12	60.85
461.31	16.38
461.49	51.49
461.67	4.68
461.85	72.56
462.04	21.06
462.22	100.64
462.40	49.15
462.59	93.62
462.77	70.22
462.95	0.00
463.13	2.34
463.32	60.85
463.50	65.54
463.68	58.51
463.86	37.45
464.05	39.79
464.23	56.17
464.41	14.04
464.59	0.00
464.78	11.70
464.96	60.85
465.14	53.83
465.32	112.35
465.50	74.90
465.69	100.64
465.87	77.24
466.05	28.09
466.23	0.00
466.41	166.18
466.60	21.06
466.78	102.98
466.96	0.00
467.14	65.54
467.32	46.81
467.51	0.00
467.69	42.13
467.87	9.36
468.05	11.70
468.23	21.06
468.41	117.03
468.60	112.35
468.78	30.43
468.96	77.24
469.14	67.88
469.32	44.47
469.50	53.83
469.69	51.49
469.87	91.28
470.05	18.72
470.23	46.81
470.41	81.92
470.59	39.79
470.77	58.51
470.95	88.94
471.14	35.11
471.32	32.77
471.50	35.11
471.68	63.19
471.86	86.60
472.04	35.11
472.22	77.24
472.40	128.73
472.58	70.22
472.77	93.62
472.95	39.79
473.13	88.94
473.31	49.15
473.49	46.81
473.67	25.75
473.85	93.62
474.03	79.58
474.21	53.83
474.39	32.77
474.57	32.77
474.75	70.22
474.93	102.98
475.12	28.09
475.30	9.36
475.48	0.00
475.66	74.90
475.84	93.62
476.02	37.45
476.20	0.00
476.38	56.17
476.56	86.60
476.74	56.17
476.92	30.43
477.10	63.19
477.28	14.04
477.46	0.00
477.64	0.00
477.82	53.83
478.00	98.30
478.18	110.01
478.36	32.77
478.54	0.00
478.72	100.64
478.90	88.94
479.08	42.13
479.26	14.04
479.44	25.75
479.62	95.96
479.80	100.64
479.98	95.96
480.16	0.00
480.34	14.04
480.52	67.88
480.70	133.41
480.88	56.17
481.06	21.06
481.24	14.04
481.41	79.58
481.59	117.03
481.77	65.54
481.95	117.03
482.13	37.45
482.31	93.62
482.49	65.54
482.67	114.69
482.85	86.60
483.03	32.77
483.21	63.19
483.39	98.30
483.57	42.13
483.74	86.60
483.92	154.48
484.10	72.56
484.28	46.81
484.46	79.58
484.64	74.90
484.82	56.17
485.00	91.28
485.18	49.15
485.35	32.77
485.53	86.60
485.71	60.85
485.89	135.75
486.07	112.35
486.25	25.75
486.43	51.49
486.61	67.88
486.78	58.51
486.96	102.98
487.14	2.34
487.32	58.51
487.50	67.88
487.68	100.64
487.85	67.88
488.03	67.88
488.21	84.26
488.39	77.24
488.57	72.56
488.75	88.94
488.92	100.64
489.10	110.01
489.28	138.09
489.46	93.62
489.64	28.09
489.81	23.41
489.99	28.09
490.17	11.70
490.35	112.35
490.53	79.58
490.70	98.30
490.88	46.81
491.06	28.09
491.24	58.51
491.41	102.98
491.59	70.22
491.77	93.62
491.95	95.96
492.13	154.48
492.30	140.43
492.48	56.17
492.66	77.24
492.84	119.37
493.01	91.28
493.19	81.92
493.37	128.73
493.54	58.51
493.72	84.26
493.90	46.81
494.08	44.47
494.25	114.69
494.43	98.30
494.61	81.92
494.79	93.62
494.96	23.41
495.14	37.45
495.32	23.41
495.49	84.26
495.67	133.41
495.85	65.54
496.02	105.32
496.20	60.85
496.38	72.56
496.55	91.28
496.73	140.43
496.91	65.54
497.09	30.43
497.26	161.50
497.44	44.47
497.62	53.83
497.79	110.01
497.97	53.83
498.14	79.58
498.32	105.32
498.50	32.77
498.67	79.58
498.85	114.69
499.03	70.22
499.20	102.98
499.38	91.28
499.56	65.54
499.73	53.83
499.91	91.28
500.08	81.92
500.26	114.69
500.44	91.28
500.61	9.36
500.79	21.06
500.97	93.62
501.14	51.49
501.32	51.49
501.49	39.79
501.67	84.26
501.84	28.09
502.02	86.60
502.20	107.66
502.37	140.43
502.55	86.60
502.72	2.34
502.90	124.05
503.07	140.43
503.25	88.94
503.43	21.06
503.60	77.24
503.78	88.94
503.95	72.56
504.13	4.68
504.30	0.00
504.48	119.37
504.65	110.01
504.83	77.24
505.01	35.11
505.18	30.43
505.36	32.77
505.53	74.90
505.71	86.60
505.88	98.30
506.06	49.15
506.23	77.24
506.41	93.62
506.58	93.62
506.76	100.64
506.93	117.03
507.11	95.96
507.28	126.39
507.46	110.01
507.63	175.54
507.81	133.41
507.98	81.92
508.16	77.24
508.33	102.98
508.50	81.92
508.68	79.58
508.85	86.60
509.03	9.36
509.20	23.41
509.38	93.62
509.55	140.43
509.73	67.88
509.90	42.13
510.08	98.30
510.25	170.86
510.42	58.51
510.60	84.26
510.77	81.92
510.95	95.96
511.12	135.75
511.30	131.07
511.47	107.66
511.64	117.03
511.82	149.79
511.99	91.28
512.17	133.41
512.34	49.15
512.51	51.49
512.69	93.62
512.86	49.15
513.04	84.26
513.21	60.85
513.38	77.24
513.56	93.62
513.73	84.26
513.90	42.13
514.08	30.43
514.25	95.96
514.43	37.45
514.60	42.13
514.77	70.22
514.95	126.39
515.12	117.03
515.29	88.94
515.47	72.56
515.64	107.66
515.81	35.11
515.99	65.54
516.16	37.45
516.33	124.05
516.51	81.92
516.68	98.30
516.85	70.22
517.03	112.35
517.20	105.32
517.37	67.88
517.54	46.81
517.72	81.92
517.89	84.26
518.06	102.98
518.24	0.00
518.41	147.45
518.58	156.82
518.75	91.28
518.93	72.56
519.10	110.01
519.27	60.85
519.45	93.62
519.62	81.92
519.79	58.51
519.96	126.39
520.14	70.22
520.31	91.28
520.48	128.73
520.65	28.09
520.83	107.66
521.00	119.37
521.17	93.62
521.34	93.62
521.52	133.41
521.69	53.83
521.86	86.60
522.03	51.49
522.20	65.54
522.38	74.90
522.55	84.26
522.72	0.00
522.89	121.71
523.07	88.94
523.24	79.58
523.41	100.64
523.58	110.01
523.75	72.56
523.92	86.60
524.10	119.37
524.27	72.56
524.44	0.00
524.61	131.07
524.78	98.30
524.96	95.96
525.13	58.51
525.30	110.01
525.47	67.88
525.64	91.28
525.81	81.92
525.98	56.17
526.16	93.62
526.33	138.09
526.50	7.02
526.67	32.77
526.84	98.30
527.01	105.32
527.18	133.41
527.36	63.19
527.53	140.43
527.70	86.60
527.87	112.35
528.04	138.09
528.21	107.66
528.38	72.56
528.55	56.17
528.72	147.45
528.89	95.96
529.07	46.81
529.24	42.13
529.41	53.83
529.58	72.56
529.75	112.35
529.92	107.66
530.09	60.85
530.26	102.98
530.43	74.90
530.60	56.17
530.77	112.35
530.94	138.09
531.11	102.98
531.28	119.37
531.46	105.32
531.63	114.69
531.80	117.03
531.97	65.54
532.14	46.81
532.31	65.54
532.48	112.35
532.65	100.64
532.82	81.92
532.99	63.19
533.16	56.17
533.33	131.07
533.50	84.26
533.67	60.85
533.84	119.37
534.01	79.58
534.18	65.54
534.35	128.73
534.52	79.58
534.69	51.49
534.86	25.75
535.03	67.88
535.20	135.75
535.37	126.39
535.54	77.24
535.71	110.01
535.88	67.88
536.05	102.98
536.22	135.75
536.38	79.58
536.55	102.98
536.72	107.66
536.89	70.22
537.06	152.13
537.23	44.47
537.40	112.35
537.57	91.28
537.74	74.90
537.91	56.17
538.08	135.75
538.25	51.49
538.42	37.45
538.59	46.81
538.75	84.26
538.92	81.92
539.09	74.90
539.26	0.00
539.43	30.43
539.60	170.86
539.77	32.77
539.94	135.75
540.11	63.19
540.28	51.49
540.44	149.79
540.61	65.54
540.78	56.17
540.95	133.41
541.12	98.30
541.29	88.94
541.46	86.60
541.62	44.47
541.79	74.90
541.96	60.85
542.13	121.71
542.30	72.56
542.47	142.77
542.63	0.00
542.80	65.54
542.97	79.58
543.14	79.58
543.31	126.39
543.48	124.05
543.64	100.64
543.81	72.56
543.98	84.26
544.15	84.26
544.32	133.41
544.48	84.26
544.65	23.41
544.82	114.69
544.99	77.24
545.16	100.64
545.32	56.17
545.49	119.37
545.66	140.43
545.83	9.36
546.00	124.05
546.16	53.83
546.33	35.11
546.50	140.43
546.67	53.83
546.83	107.66
547.00	11.70
547.17	91.28
547.34	77.24
547.50	65.54
547.67	56.17
547.84	70.22
548.00	60.85
548.17	49.15
548.34	58.51
548.51	98.30
548.67	88.94
548.84	23.41
549.01	77.24
549.18	84.26
549.34	98.30
549.51	88.94
549.68	93.62
549.84	72.56
550.01	98.30
550.18	110.01
550.34	121.71
550.51	77.24
550.68	117.03
550.84	51.49
551.01	112.35
551.18	91.28
551.34	91.28
551.51	28.09
551.68	128.73
551.84	88.94
552.01	81.92
552.18	86.60
552.34	95.96
552.51	53.83
552.68	77.24
552.84	95.96
553.01	72.56
553.18	72.56
553.34	110.01
553.51	63.19
553.67	88.94
553.84	0.00
554.01	58.51
554.17	112.35
554.34	117.03
554.51	147.45
554.67	105.32
554.84	91.28
555.00	7.02
555.17	81.92
555.33	65.54
555.50	67.88
555.67	44.47
555.83	126.39
556.00	32.77
556.16	133.41
556.33	102.98
556.50	102.98
556.66	119.37
556.83	84.26
556.99	121.71
557.16	93.62
557.32	91.28
557.49	35.11
557.65	70.22
557.82	112.35
557.98	9.36
558.15	91.28
558.32	39.79
558.48	56.17
558.65	140.43
558.81	74.90
558.98	117.03
559.14	128.73
559.31	72.56
559.47	28.09
559.64	81.92
559.80	114.69
559.97	105.32
560.13	86.60
560.30	58.51
560.46	18.72
560.63	39.79
560.79	166.18
560.96	51.49
561.12	58.51
561.29	86.60
561.45	112.35
561.61	74.90
561.78	44.47
561.94	100.64
562.11	110.01
562.27	44.47
562.44	28.09
562.60	65.54
562.77	51.49
562.93	42.13
563.10	112.35
563.26	65.54
563.42	107.66
563.59	81.92
563.75	53.83
563.92	95.96
564.08	112.35
564.24	93.62
564.41	63.19
564.57	88.94
564.74	121.71
564.90	163.84
565.07	170.86
565.23	70.22
565.39	72.56
565.56	93.62
565.72	88.94
565.88	84.26
566.05	65.54
566.21	44.47
566.38	88.94
566.54	21.06
566.70	0.00
566.87	53.83
567.03	117.03
567.19	147.45
567.36	56.17
567.52	2.34
567.68	98.30
567.85	56.17
568.01	56.17
568.17	138.09
568.34	56.17
568.50	102.98
568.66	128.73
568.83	84.26
568.99	58.51
569.15	95.96
569.32	88.94
569.48	37.45
569.64	53.83
569.81	7.02
569.97	93.62
570.13	65.54
570.30	25.75
570.46	81.92
570.62	46.81
570.78	0.00
570.95	79.58
571.11	84.26
571.27	117.03
571.43	56.17
571.60	18.72
571.76	44.47
571.92	56.17
572.09	77.24
572.25	93.62
572.41	93.62
572.57	72.56
572.74	159.16
572.90	93.62
573.06	77.24
573.22	37.45
573.38	18.72
573.55	51.49
573.71	81.92
573.87	0.00
574.03	102.98
574.20	84.26
574.36	51.49
574.52	77.24
574.68	53.83
574.84	84.26
575.01	86.60
575.17	37.45
575.33	84.26
575.49	105.32
575.65	79.58
575.82	72.56
575.98	88.94
576.14	70.22
576.30	63.19
576.46	117.03
576.62	84.26
576.79	117.03
576.95	23.41
577.11	77.24
577.27	16.38
577.43	70.22
577.59	86.60
577.75	51.49
577.92	37.45
578.08	100.64
578.24	35.11
578.40	70.22
578.56	4.68
578.72	102.98
578.88	93.62
579.04	21.06
579.21	86.60
579.37	58.51
579.53	32.77
579.69	163.84
579.85	79.58
580.01	49.15
580.17	100.64
580.33	35.11
580.49	95.96
580.65	105.32
580.82	72.56
580.98	70.22
581.14	51.49
581.30	42.13
581.46	98.30
581.62	72.56
581.78	119.37
581.94	72.56
582.10	98.30
582.26	84.26
582.42	133.41
582.58	95.96
582.74	30.43
582.90	93.62
583.06	95.96
583.22	121.71
583.38	56.17
583.54	51.49
583.70	67.88
583.86	133.41
584.02	74.90
584.18	91.28
584.34	25.75
584.50	44.47
584.66	91.28
584.82	30.43
584.98	91.28
585.14	60.85
585.30	37.45
585.46	14.04
585.62	124.05
585.78	30.43
585.94	84.26
586.10	79.58
586.26	70.22
586.42	145.11
586.58	128.73
586.74	86.60
586.90	98.30
587.06	65.54
587.22	110.01
587.38	84.26
587.54	51.49
587.70	100.64
587.86	105.32
588.02	91.28
588.18	166.18
588.34	147.45
588.49	51.49
588.65	126.39
588.81	140.43
588.97	60.85
589.13	2.34
589.29	25.75
589.45	102.98
589.61	156.82
589.77	0.00
589.93	74.90
590.08	49.15
590.24	0.00
590.40	56.17
590.56	100.64
590.72	44.47
590.88	39.79
591.04	74.90
591.20	121.71
591.35	0.00
591.51	128.73
591.67	39.79
591.83	44.47
591.99	0.00
592.15	124.05
592.31	95.96
592.46	98.30
592.62	67.88
592.78	0.00
592.94	14.04
593.10	32.77
593.26	154.48
593.41	95.96
593.57	100.64
593.73	100.64
593.89	49.15
594.05	21.06
594.20	63.19
594.36	91.28
594.52	58.51
594.68	56.17
594.84	42.13
594.99	32.77
595.15	63.19
595.31	74.90
595.47	142.77
595.62	51.49
595.78	79.58
595.94	79.58
596.10	51.49
596.25	51.49
596.41	133.41
596.57	46.81
596.73	9.36
596.88	88.94
597.04	51.49
597.20	0.00
597.36	42.13
597.51	25.75
597.67	35.11
597.83	100.64
597.99	65.54
598.14	23.41
598.30	28.09
598.46	51.49
598.61	95.96
598.77	102.98
598.93	135.75
599.09	67.88
599.24	84.26
599.40	74.90
599.56	170.86
599.71	0.00
599.87	74.90
600.03	37.45
600.18	95.96
600.34	67.88
600.50	9.36
600.65	84.26
600.81	88.94
600.97	16.38
601.12	58.51
601.28	72.56
601.44	72.56
601.59	25.75
601.75	30.43
601.91	152.13
602.06	65.54
602.22	98.30
602.37	42.13
602.53	107.66
602.69	81.92
602.84	65.54
603.00	79.58
603.16	72.56
603.31	74.90
603.47	53.83
603.62	56.17
603.78	51.49
603.94	53.83
604.09	95.96
604.25	119.37
604.40	86.60
604.56	35.11
604.71	0.00
604.87	46.81
605.03	140.43
605.18	42.13
605.34	60.85
605.49	65.54
605.65	56.17
605.80	30.43
605.96	154.48
606.12	39.79
606.27	93.62
606.43	98.30
606.58	32.77
606.74	28.09
606.89	65.54
607.05	58.51
607.20	23.41
607.36	49.15
607.51	70.22
607.67	46.81
607.82	0.00
607.98	95.96
608.13	60.85
608.29	67.88
608.44	70.22
608.60	74.90
608.75	42.13
608.91	135.75
609.06	79.58
609.22	42.13
609.37	84.26
609.53	49.15
609.68	14.04
609.84	65.54
609.99	9.36
610.15	105.32
610.30	65.54
610.46	53.83
610.61	100.64
610.76	95.96
610.92	84.26
611.07	25.75
611.23	110.01
611.38	56.17
611.54	63.19
611.69	30.43
611.84	98.30
612.00	39.79
612.15	72.56
612.31	39.79
612.46	95.96
612.62	91.28
612.77	100.64
612.92	102.98
613.08	102.98
613.23	117.03
613.39	88.94
613.54	84.26
613.69	60.85
613.85	49.15
614.00	51.49
614.15	142.77
614.31	88.94
614.46	51.49
614.62	46.81
614.77	46.81
614.92	105.32
615.08	81.92
615.23	53.83
615.38	44.47
615.54	16.38
615.69	107.66
615.84	79.58
616.00	93.62
616.15	23.41
616.30	35.11
616.46	77.24
616.61	72.56
616.76	88.94
616.92	156.82
617.07	51.49
617.22	77.24
617.37	138.09
617.53	77.24
617.68	88.94
617.83	2.34
617.99	39.79
618.14	53.83
618.29	147.45
618.45	147.45
618.60	140.43
618.75	81.92
618.90	112.35
619.06	18.72
619.21	98.30
619.36	58.51
619.51	58.51
619.67	110.01
619.82	86.60
619.97	112.35
620.12	56.17
620.28	56.17
620.43	112.35
620.58	128.73
620.73	58.51
620.89	49.15
621.04	65.54
621.19	14.04
621.34	16.38
621.49	124.05
621.65	77.24
621.80	46.81
621.95	0.00
622.10	7.02
622.25	91.28
622.41	56.17
622.56	49.15
622.71	25.75
622.86	58.51
623.01	117.03
623.16	79.58
623.32	39.79
623.47	58.51
623.62	53.83
623.77	25.75
623.92	28.09
624.07	53.83
624.23	56.17
624.38	74.90
624.53	128.73
624.68	81.92
624.83	100.64
624.98	67.88
625.13	93.62
625.29	128.73
625.44	114.69
625.59	28.09
625.74	95.96
625.89	9.36
626.04	100.64
626.19	35.11
626.34	30.43
626.49	2.34
626.65	30.43
626.80	53.83
626.95	11.70
627.10	88.94
627.25	81.92
627.40	119.37
627.55	30.43
627.70	70.22
627.85	86.60
628.00	35.11
628.15	37.45
628.30	18.72
628.45	32.77
628.60	77.24
628.76	0.00
628.91	9.36
629.06	91.28
629.21	105.32
629.36	95.96
629.51	37.45
629.66	18.72
629.81	58.51
629.96	72.56
630.11	93.62
630.26	72.56
630.41	65.54
630.56	32.77
630.71	91.28
630.86	95.96
631.01	95.96
631.16	79.58
631.31	51.49
631.46	77.24
631.61	25.75
631.76	46.81
631.91	42.13
632.06	81.92
632.21	0.00
632.36	37.45
632.51	138.09
632.66	25.75
632.81	51.49
632.96	16.38
633.10	88.94
633.25	65.54
633.40	35.11
633.55	72.56
633.70	44.47
633.85	53.83
634.00	88.94
634.15	147.45
634.30	53.83
634.45	51.49
634.60	79.58
634.75	39.79
634.90	30.43
635.05	7.02
635.19	84.26
635.34	0.00
635.49	42.13
635.64	98.30
635.79	53.83
635.94	0.00
636.09	53.83
636.24	74.90
636.39	25.75
636.53	74.90
636.68	74.90
636.83	23.41
636.98	117.03
637.13	63.19
637.28	60.85
637.43	18.72
637.57	60.85
637.72	14.04
637.87	0.00
638.02	0.00
638.17	93.62
638.32	53.83
638.46	65.54
638.61	65.54
638.76	0.00
638.91	81.92
639.06	88.94
639.20	138.09
639.35	35.11
639.50	44.47
639.65	79.58
639.80	60.85
639.94	117.03
640.09	86.60
640.24	7.02
640.39	58.51
640.54	21.06
640.68	72.56
640.83	0.00
640.98	51.49
641.13	91.28
641.27	114.69
641.42	72.56
641.57	0.00
641.72	39.79
641.86	74.90
642.01	0.00
642.16	88.94
642.31	0.00
642.45	95.96
642.60	63.19
642.75	91.28
642.90	124.05
643.04	86.60
643.19	49.15
643.34	102.98
643.48	58.51
643.63	14.04
643.78	30.43
643.93	42.13
644.07	63.19
644.22	84.26
644.37	84.26
644.51	102.98
644.66	53.83
644.81	77.24
644.95	58.51
645.10	2.34
645.25	49.15
645.39	81.92
645.54	21.06
645.69	67.88
645.83	11.70
645.98	42.13
646.13	42.13
646.27	30.43
646.42	128.73
646.57	84.26
646.71	77.24
646.86	4.68
647.00	79.58
647.15	0.00
647.30	84.26
647.44	2.34
647.59	42.13
647.74	11.70
647.88	53.83
648.03	35.11
648.17	25.75
648.32	112.35
648.47	81.92
648.61	0.00
648.76	14.04
648.90	60.85
649.05	16.38
649.20	95.96
649.34	23.41
649.49	121.71
649.63	25.75
649.78	42.13
649.92	67.88
650.07	65.54
650.21	35.11
650.36	0.00
650.51	81.92
650.65	86.60
650.80	46.81
650.94	0.00
651.09	79.58
651.23	77.24
651.38	32.77
651.52	138.09
651.67	32.77
651.81	9.36
651.96	121.71
652.10	14.04
652.25	65.54
652.39	65.54
652.54	81.92
652.68	117.03
652.83	46.81
652.97	56.17
653.12	53.83
653.26	112.35
653.41	100.64
653.55	72.56
653.70	14.04
653.84	60.85
653.99	72.56
654.13	112.35
654.27	0.00
654.42	49.15
654.56	16.38
654.71	0.00
654.85	98.30
655.00	63.19
655.14	74.90
655.29	102.98
655.43	81.92
655.57	42.13
655.72	194.26
655.86	60.85
656.01	25.75
656.15	77.24
656.30	67.88
656.44	180.22
656.58	0.00
656.73	0.00
656.87	0.00
657.01	74.90
657.16	32.77
657.30	18.72
657.45	30.43
657.59	95.96
657.73	37.45
657.88	60.85
658.02	105.32
658.16	39.79
658.31	65.54
658.45	37.45
658.60	84.26
658.74	35.11
658.88	4.68
659.03	72.56
659.17	35.11
659.31	37.45
659.46	53.83
659.60	16.38
659.74	39.79
659.89	46.81
660.03	74.90
660.17	46.81
660.32	67.88
660.46	0.00
660.60	21.06
660.74	18.72
660.89	49.15
661.03	9.36
661.17	14.04
661.32	25.75
661.46	60.85
661.60	16.38
661.74	88.94
661.89	14.04
662.03	35.11
662.17	81.92
662.31	37.45
662.46	56.17
662.60	81.92
662.74	105.32
662.88	93.62
663.03	51.49
663.17	53.83
663.31	25.75
663.45	11.70
663.60	35.11
663.74	56.17
663.88	11.70
664.02	35.11
664.17	44.47
664.31	39.79
664.45	0.00
664.59	58.51
664.73	39.79
664.88	98.30
665.02	60.85
665.16	110.01
665.30	53.83
665.44	112.35
665.59	63.19
665.73	14.04
665.87	56.17
666.01	100.64
666.15	86.60
666.29	0.00
666.44	67.88
666.58	51.49
666.72	0.00
666.86	126.39
667.00	25.75
667.14	39.79
667.28	42.13
667.43	70.22
667.57	14.04
667.71	25.75
667.85	49.15
667.99	0.00
668.13	110.01
668.27	74.90
668.41	23.41
668.56	25.75
668.70	0.00
668.84	16.38
668.98	0.00
669.12	65.54
669.26	9.36
669.40	44.47
669.54	35.11
669.68	100.64
669.82	60.85
669.96	0.00
670.10	56.17
670.25	124.05
670.39	79.58
670.53	91.28
670.67	32.77
670.81	49.15
670.95	86.60
671.09	0.00
671.23	46.81
671.37	70.22
671.51	131.07
671.65	91.28
671.79	88.94
671.93	63.19
672.07	30.43
672.21	77.24
672.35	67.88
672.49	49.15
672.63	81.92
672.77	44.47
672.91	21.06
673.05	131.07
673.19	51.49
673.33	11.70
673.47	117.03
673.61	65.54
673.75	42.13
673.89	4.68
674.03	32.77
674.17	0.00
674.31	37.45
674.45	4.68
674.59	46.81
674.73	0.00
674.87	56.17
675.01	86.60
675.15	16.38
675.29	105.32
675.43	28.09
675.56	60.85
675.70	0.00
675.84	72.56
675.98	23.41
676.12	77.24
676.26	72.56
676.40	0.00
676.54	53.83
676.68	46.81
676.82	21.06
676.96	14.04
677.10	53.83
677.23	49.15
677.37	0.00
677.51	79.58
677.65	65.54
677.79	65.54
677.93	86.60
678.07	107.66
678.21	102.98
678.34	56.17
678.48	16.38
678.62	67.88
678.76	37.45
678.90	0.00
679.04	16.38
679.18	7.02
679.31	39.79
679.45	44.47
679.59	77.24
679.73	23.41
679.87	14.04
680.00	79.58
680.14	0.00
680.28	21.06
680.42	28.09
680.56	28.09
680.70	84.26
680.83	70.22
680.97	37.45
681.11	37.45
681.25	16.38
681.39	67.88
681.52	107.66
681.66	65.54
681.80	98.30
681.94	39.79
682.07	53.83
682.21	39.79
682.35	107.66
682.49	128.73
682.62	60.85
682.76	18.72
682.90	23.41
683.04	46.81
683.17	70.22
683.31	67.88
683.45	98.30
683.59	2.34
683.72	32.77
683.86	81.92
684.00	0.00
684.13	84.26
684.27	18.72
684.41	9.36
684.55	65.54
684.68	58.51
684.82	46.81
684.96	0.00
685.09	98.30
685.23	42.13
685.37	74.90
685.50	0.00
685.64	67.88
685.78	32.77
685.91	18.72
686.05	42.13
686.19	9.36
686.32	72.56
686.46	42.13
686.60	18.72
686.73	30.43
686.87	91.28
687.01	117.03
687.14	84.26
687.28	107.66
687.42	42.13
687.55	140.43
687.69	0.00
687.82	88.94
687.96	28.09
688.10	30.43
688.23	42.13
688.37	42.13
688.50	98.30
688.64	4.68
688.78	0.00
688.91	49.15
689.05	60.85
689.18	0.00
689.32	23.41
689.46	0.00
689.59	53.83
689.73	23.41
689.86	0.00
690.00	42.13
690.13	74.90
690.27	72.56
690.41	32.77
690.54	18.72
690.68	30.43
690.81	14.04
690.95	4.68
691.08	0.00
691.22	18.72
691.35	0.00
691.49	49.15
691.62	7.02
691.76	0.00
691.89	88.94
692.03	11.70
692.16	42.13
692.30	4.68
692.43	18.72
692.57	0.00
692.70	30.43
692.84	77.24
692.97	58.51
693.11	74.90
693.24	21.06
693.38	4.68
693.51	30.43
693.65	60.85
693.78	32.77
693.92	30.43
694.05	25.75
694.19	23.41
694.32	35.11
694.45	51.49
694.59	28.09
694.72	18.72
694.86	37.45
694.99	60.85
695.13	23.41
695.26	65.54
695.39	63.19
695.53	14.04
695.66	88.94
695.80	32.77
695.93	74.90
696.07	60.85
696.20	4.68
696.33	0.00
696.47	25.75
696.60	23.41
696.73	81.92
696.87	0.00
697.00	72.56
697.14	93.62
697.27	79.58
697.40	32.77
697.54	37.45
697.67	88.94
697.80	4.68
697.94	25.75
698.07	86.60
698.21	56.17
698.34	88.94
698.47	37.45
698.61	35.11
698.74	0.00
698.87	2.34
699.01	0.00
699.14	0.00
699.27	30.43
699.40	25.75
699.54	16.38
699.67	4.68
699.80	51.49
699.94	0.00
700.07	25.75
700.20	46.81
700.34	0.00
700.47	37.45
700.60	0.00
700.73	67.88
700.87	72.56
701.00	2.34
701.13	56.17
701.26	88.94
701.40	32.77
701.53	53.83
701.66	30.43
701.79	35.11
701.93	67.88
702.06	126.39
702.19	74.90
702.32	0.00
702.46	7.02
702.59	56.17
702.72	28.09
702.85	0.00
702.99	0.00
703.12	60.85
703.25	152.13
703.38	0.00
703.51	21.06
703.65	0.00
703.78	81.92
703.91	63.19
704.04	0.00
704.17	53.83
704.31	0.00
704.44	30.43
704.57	46.81
704.70	74.90
704.83	35.11
704.96	0.00
705.10	51.49
705.23	11.70
>>>>>End Processed Spectral Data<<<<<
