SpectraSuite Data File
++++++++++++++++++++++++++++++++++++
Date: Fri Oct 04 12:13:40 GMT-05:00 2013
User: price-jones
Dark Spectrum Present: No
Reference Spectrum Present: No
Number of Sampled Component Spectra: 1
Spectrometers: USB2+H05261
Integration Time (usec): 10000 (USB2+H05261)
Spectra Averaged: 1 (USB2+H05261)
Boxcar Smoothing: 0 (USB2+H05261)
Correct for Electrical Dark: No (USB2+H05261)
Strobe/Lamp Enabled: No (USB2+H05261)
Correct for Detector Non-linearity: No (USB2+H05261)
Correct for Stray Light: No (USB2+H05261)
Number of Pixels in Processed Spectrum: 2048
>>>>>Begin Processed Spectral Data<<<<<
365.73	11.70
365.92	11.70
366.12	11.70
366.32	0.00
366.52	0.00
366.72	0.00
366.91	0.00
367.11	0.00
367.31	0.00
367.51	0.00
367.70	0.00
367.90	0.00
368.10	0.00
368.30	0.00
368.49	0.00
368.69	0.00
368.89	0.00
369.09	0.00
369.28	0.00
369.48	0.00
369.68	0.00
369.87	0.00
370.07	0.00
370.27	0.00
370.47	0.00
370.66	0.00
370.86	0.00
371.06	0.00
371.25	0.00
371.45	0.00
371.65	23.41
371.84	0.00
372.04	0.00
372.24	14.04
372.44	32.77
372.63	0.00
372.83	0.00
373.03	86.60
373.22	23.41
373.42	28.09
373.62	14.04
373.81	30.43
374.01	0.00
374.21	25.75
374.40	0.00
374.60	0.00
374.79	58.51
374.99	28.09
375.19	86.60
375.38	84.26
375.58	11.70
375.78	124.05
375.97	18.72
376.17	4.68
376.37	0.00
376.56	42.13
376.76	37.45
376.95	51.49
377.15	0.00
377.35	35.11
377.54	86.60
377.74	60.85
377.93	100.64
378.13	56.17
378.33	0.00
378.52	16.38
378.72	21.06
378.91	14.04
379.11	135.75
379.31	56.17
379.50	0.00
379.70	0.00
379.89	60.85
380.09	25.75
380.28	0.00
380.48	0.00
380.68	25.75
380.87	0.00
381.07	49.15
381.26	60.85
381.46	58.51
381.65	11.70
381.85	91.28
382.04	25.75
382.24	63.19
382.43	21.06
382.63	0.00
382.83	0.00
383.02	28.09
383.22	0.00
383.41	23.41
383.61	46.81
383.80	0.00
384.00	2.34
384.19	35.11
384.39	86.60
384.58	0.00
384.78	37.45
384.97	72.56
385.17	42.13
385.36	2.34
385.56	21.06
385.75	0.00
385.95	37.45
386.14	91.28
386.34	37.45
386.53	51.49
386.72	4.68
386.92	60.85
387.11	70.22
387.31	18.72
387.50	0.00
387.70	37.45
387.89	0.00
388.09	21.06
388.28	81.92
388.48	39.79
388.67	37.45
388.86	0.00
389.06	0.00
389.25	46.81
389.45	14.04
389.64	0.00
389.84	21.06
390.03	11.70
390.22	77.24
390.42	11.70
390.61	53.83
390.81	0.00
391.00	88.94
391.19	0.00
391.39	23.41
391.58	53.83
391.78	56.17
391.97	0.00
392.16	0.00
392.36	39.79
392.55	72.56
392.75	0.00
392.94	37.45
393.13	53.83
393.33	0.00
393.52	0.00
393.71	56.17
393.91	0.00
394.10	16.38
394.29	63.19
394.49	0.00
394.68	0.00
394.88	63.19
395.07	32.77
395.26	46.81
395.46	49.15
395.65	11.70
395.84	51.49
396.04	84.26
396.23	30.43
396.42	35.11
396.62	0.00
396.81	0.00
397.00	53.83
397.19	0.00
397.39	58.51
397.58	49.15
397.77	95.96
397.97	28.09
398.16	23.41
398.35	0.00
398.55	35.11
398.74	98.30
398.93	7.02
399.12	4.68
399.32	39.79
399.51	0.00
399.70	46.81
399.90	44.47
400.09	0.00
400.28	0.00
400.47	56.17
400.67	46.81
400.86	0.00
401.05	37.45
401.24	0.00
401.44	0.00
401.63	0.00
401.82	0.00
402.01	4.68
402.21	32.77
402.40	60.85
402.59	56.17
402.78	2.34
402.97	67.88
403.17	28.09
403.36	25.75
403.55	0.00
403.74	0.00
403.93	16.38
404.13	72.56
404.32	105.32
404.51	42.13
404.70	30.43
404.89	65.54
405.09	60.85
405.28	23.41
405.47	21.06
405.66	0.00
405.85	42.13
406.05	0.00
406.24	46.81
406.43	51.49
406.62	32.77
406.81	7.02
407.00	60.85
407.20	30.43
407.39	84.26
407.58	0.00
407.77	67.88
407.96	42.13
408.15	63.19
408.34	65.54
408.54	65.54
408.73	0.00
408.92	0.00
409.11	70.22
409.30	0.00
409.49	11.70
409.68	0.00
409.87	63.19
410.07	9.36
410.26	74.90
410.45	16.38
410.64	7.02
410.83	46.81
411.02	2.34
411.21	74.90
411.40	72.56
411.59	23.41
411.78	0.00
411.98	58.51
412.17	70.22
412.36	14.04
412.55	25.75
412.74	0.00
412.93	51.49
413.12	30.43
413.31	77.24
413.50	30.43
413.69	28.09
413.88	56.17
414.07	39.79
414.26	86.60
414.45	11.70
414.64	51.49
414.83	74.90
415.02	30.43
415.22	0.00
415.41	60.85
415.60	0.00
415.79	0.00
415.98	14.04
416.17	0.00
416.36	30.43
416.55	14.04
416.74	28.09
416.93	79.58
417.12	0.00
417.31	21.06
417.50	110.01
417.69	79.58
417.88	100.64
418.07	4.68
418.26	51.49
418.45	7.02
418.64	0.00
418.83	81.92
419.02	49.15
419.21	91.28
419.39	70.22
419.58	42.13
419.77	72.56
419.96	37.45
420.15	77.24
420.34	84.26
420.53	23.41
420.72	11.70
420.91	58.51
421.10	42.13
421.29	0.00
421.48	4.68
421.67	42.13
421.86	138.09
422.05	0.00
422.24	0.00
422.43	0.00
422.61	37.45
422.80	70.22
422.99	0.00
423.18	39.79
423.37	93.62
423.56	88.94
423.75	18.72
423.94	65.54
424.13	39.79
424.32	77.24
424.50	0.00
424.69	74.90
424.88	23.41
425.07	53.83
425.26	42.13
425.45	0.00
425.64	70.22
425.83	88.94
426.01	74.90
426.20	39.79
426.39	30.43
426.58	79.58
426.77	46.81
426.96	58.51
427.15	77.24
427.33	53.83
427.52	0.00
427.71	0.00
427.90	91.28
428.09	74.90
428.28	9.36
428.46	18.72
428.65	86.60
428.84	44.47
429.03	60.85
429.22	88.94
429.40	0.00
429.59	25.75
429.78	0.00
429.97	49.15
430.16	67.88
430.34	107.66
430.53	91.28
430.72	7.02
430.91	35.11
431.10	11.70
431.28	67.88
431.47	35.11
431.66	93.62
431.85	42.13
432.03	30.43
432.22	23.41
432.41	0.00
432.60	91.28
432.79	16.38
432.97	72.56
433.16	0.00
433.35	0.00
433.54	32.77
433.72	30.43
433.91	4.68
434.10	23.41
434.28	42.13
434.47	77.24
434.66	65.54
434.85	63.19
435.03	21.06
435.22	39.79
435.41	32.77
435.59	0.00
435.78	30.43
435.97	110.01
436.16	60.85
436.34	74.90
436.53	42.13
436.72	86.60
436.90	121.71
437.09	32.77
437.28	79.58
437.46	58.51
437.65	44.47
437.84	58.51
438.02	28.09
438.21	42.13
438.40	53.83
438.58	44.47
438.77	121.71
438.96	102.98
439.14	0.00
439.33	58.51
439.52	11.70
439.70	74.90
439.89	70.22
440.08	46.81
440.26	7.02
440.45	30.43
440.63	0.00
440.82	35.11
441.01	53.83
441.19	51.49
441.38	58.51
441.57	58.51
441.75	0.00
441.94	39.79
442.12	56.17
442.31	28.09
442.50	56.17
442.68	39.79
442.87	67.88
443.05	119.37
443.24	77.24
443.43	46.81
443.61	74.90
443.80	86.60
443.98	63.19
444.17	79.58
444.35	60.85
444.54	60.85
444.73	37.45
444.91	56.17
445.10	46.81
445.28	51.49
445.47	93.62
445.65	51.49
445.84	37.45
446.02	77.24
446.21	100.64
446.39	91.28
446.58	74.90
446.77	30.43
446.95	60.85
447.14	0.00
447.32	135.75
447.51	72.56
447.69	0.00
447.88	56.17
448.06	107.66
448.25	98.30
448.43	49.15
448.62	25.75
448.80	0.00
448.99	0.00
449.17	0.00
449.36	131.07
449.54	0.00
449.73	77.24
449.91	67.88
450.10	53.83
450.28	105.32
450.46	95.96
450.65	28.09
450.83	28.09
451.02	105.32
451.20	72.56
451.39	14.04
451.57	0.00
451.76	25.75
451.94	131.07
452.13	98.30
452.31	79.58
452.49	7.02
452.68	7.02
452.86	84.26
453.05	44.47
453.23	65.54
453.42	25.75
453.60	121.71
453.78	49.15
453.97	98.30
454.15	4.68
454.34	60.85
454.52	28.09
454.70	46.81
454.89	58.51
455.07	28.09
455.26	110.01
455.44	0.00
455.62	88.94
455.81	0.00
455.99	4.68
456.17	14.04
456.36	70.22
456.54	14.04
456.73	37.45
456.91	58.51
457.09	105.32
457.28	0.00
457.46	0.00
457.64	28.09
457.83	42.13
458.01	86.60
458.19	56.17
458.38	70.22
458.56	70.22
458.74	88.94
458.93	0.00
459.11	114.69
459.29	53.83
459.48	131.07
459.66	65.54
459.84	32.77
460.03	60.85
460.21	35.11
460.39	81.92
460.57	49.15
460.76	56.17
460.94	30.43
461.12	35.11
461.31	56.17
461.49	49.15
461.67	58.51
461.85	42.13
462.04	88.94
462.22	98.30
462.40	63.19
462.59	126.39
462.77	86.60
462.95	14.04
463.13	77.24
463.32	128.73
463.50	32.77
463.68	25.75
463.86	100.64
464.05	77.24
464.23	84.26
464.41	63.19
464.59	21.06
464.78	117.03
464.96	79.58
465.14	51.49
465.32	91.28
465.50	93.62
465.69	51.49
465.87	49.15
466.05	63.19
466.23	23.41
466.41	23.41
466.60	49.15
466.78	0.00
466.96	86.60
467.14	30.43
467.32	32.77
467.51	93.62
467.69	0.00
467.87	56.17
468.05	42.13
468.23	4.68
468.41	56.17
468.60	91.28
468.78	58.51
468.96	74.90
469.14	77.24
469.32	95.96
469.50	84.26
469.69	65.54
469.87	91.28
470.05	72.56
470.23	42.13
470.41	16.38
470.59	51.49
470.77	53.83
470.95	0.00
471.14	84.26
471.32	25.75
471.50	67.88
471.68	32.77
471.86	56.17
472.04	11.70
472.22	74.90
472.40	46.81
472.58	42.13
472.77	51.49
472.95	63.19
473.13	14.04
473.31	91.28
473.49	53.83
473.67	23.41
473.85	105.32
474.03	100.64
474.21	114.69
474.39	84.26
474.57	98.30
474.75	0.00
474.93	56.17
475.12	114.69
475.30	51.49
475.48	112.35
475.66	88.94
475.84	65.54
476.02	23.41
476.20	0.00
476.38	42.13
476.56	35.11
476.74	46.81
476.92	60.85
477.10	84.26
477.28	65.54
477.46	46.81
477.64	42.13
477.82	65.54
478.00	124.05
478.18	0.00
478.36	70.22
478.54	70.22
478.72	18.72
478.90	60.85
479.08	18.72
479.26	42.13
479.44	67.88
479.62	46.81
479.80	51.49
479.98	56.17
480.16	100.64
480.34	93.62
480.52	112.35
480.70	56.17
480.88	16.38
481.06	84.26
481.24	21.06
481.41	84.26
481.59	58.51
481.77	0.00
481.95	74.90
482.13	79.58
482.31	74.90
482.49	149.79
482.67	60.85
482.85	67.88
483.03	49.15
483.21	46.81
483.39	84.26
483.57	0.00
483.74	7.02
483.92	95.96
484.10	145.11
484.28	44.47
484.46	67.88
484.64	124.05
484.82	79.58
485.00	7.02
485.18	65.54
485.35	42.13
485.53	0.00
485.71	110.01
485.89	51.49
486.07	21.06
486.25	11.70
486.43	110.01
486.61	77.24
486.78	63.19
486.96	81.92
487.14	42.13
487.32	58.51
487.50	56.17
487.68	105.32
487.85	77.24
488.03	53.83
488.21	35.11
488.39	67.88
488.57	35.11
488.75	100.64
488.92	128.73
489.10	107.66
489.28	58.51
489.46	51.49
489.64	100.64
489.81	93.62
489.99	46.81
490.17	53.83
490.35	56.17
490.53	79.58
490.70	95.96
490.88	74.90
491.06	4.68
491.24	46.81
491.41	49.15
491.59	23.41
491.77	0.00
491.95	124.05
492.13	105.32
492.30	72.56
492.48	42.13
492.66	56.17
492.84	114.69
493.01	112.35
493.19	42.13
493.37	30.43
493.54	128.73
493.72	107.66
493.90	86.60
494.08	30.43
494.25	93.62
494.43	79.58
494.61	79.58
494.79	126.39
494.96	107.66
495.14	135.75
495.32	44.47
495.49	79.58
495.67	182.56
495.85	67.88
496.02	44.47
496.20	81.92
496.38	30.43
496.55	91.28
496.73	81.92
496.91	77.24
497.09	70.22
497.26	2.34
497.44	84.26
497.62	14.04
497.79	95.96
497.97	65.54
498.14	42.13
498.32	65.54
498.50	51.49
498.67	114.69
498.85	95.96
499.03	140.43
499.20	49.15
499.38	42.13
499.56	0.00
499.73	35.11
499.91	49.15
500.08	98.30
500.26	44.47
500.44	23.41
500.61	112.35
500.79	60.85
500.97	161.50
501.14	110.01
501.32	102.98
501.49	77.24
501.67	72.56
501.84	105.32
502.02	84.26
502.20	95.96
502.37	65.54
502.55	67.88
502.72	91.28
502.90	84.26
503.07	81.92
503.25	14.04
503.43	86.60
503.60	32.77
503.78	110.01
503.95	60.85
504.13	88.94
504.30	0.00
504.48	51.49
504.65	100.64
504.83	133.41
505.01	72.56
505.18	23.41
505.36	51.49
505.53	133.41
505.71	77.24
505.88	65.54
506.06	105.32
506.23	51.49
506.41	0.00
506.58	110.01
506.76	117.03
506.93	72.56
507.11	49.15
507.28	117.03
507.46	79.58
507.63	98.30
507.81	81.92
507.98	98.30
508.16	39.79
508.33	28.09
508.50	9.36
508.68	53.83
508.85	37.45
509.03	7.02
509.20	60.85
509.38	138.09
509.55	70.22
509.73	74.90
509.90	46.81
510.08	93.62
510.25	51.49
510.42	53.83
510.60	117.03
510.77	0.00
510.95	18.72
511.12	105.32
511.30	102.98
511.47	98.30
511.64	51.49
511.82	35.11
511.99	84.26
512.17	91.28
512.34	65.54
512.51	100.64
512.69	117.03
512.86	91.28
513.04	58.51
513.21	35.11
513.38	77.24
513.56	91.28
513.73	16.38
513.90	84.26
514.08	39.79
514.25	72.56
514.43	63.19
514.60	46.81
514.77	30.43
514.95	119.37
515.12	86.60
515.29	77.24
515.47	77.24
515.64	156.82
515.81	88.94
515.99	67.88
516.16	56.17
516.33	65.54
516.51	107.66
516.68	74.90
516.85	105.32
517.03	70.22
517.20	86.60
517.37	74.90
517.54	93.62
517.72	65.54
517.89	119.37
518.06	126.39
518.24	37.45
518.41	65.54
518.58	51.49
518.75	70.22
518.93	107.66
519.10	105.32
519.27	107.66
519.45	98.30
519.62	114.69
519.79	91.28
519.96	49.15
520.14	56.17
520.31	114.69
520.48	88.94
520.65	74.90
520.83	110.01
521.00	46.81
521.17	152.13
521.34	98.30
521.52	114.69
521.69	131.07
521.86	21.06
522.03	46.81
522.20	91.28
522.38	58.51
522.55	32.77
522.72	77.24
522.89	100.64
523.07	46.81
523.24	117.03
523.41	21.06
523.58	100.64
523.75	84.26
523.92	46.81
524.10	74.90
524.27	91.28
524.44	72.56
524.61	58.51
524.78	67.88
524.96	117.03
525.13	4.68
525.30	53.83
525.47	140.43
525.64	72.56
525.81	131.07
525.98	100.64
526.16	154.48
526.33	51.49
526.50	58.51
526.67	30.43
526.84	46.81
527.01	32.77
527.18	131.07
527.36	42.13
527.53	114.69
527.70	46.81
527.87	39.79
528.04	74.90
528.21	84.26
528.38	105.32
528.55	100.64
528.72	35.11
528.89	180.22
529.07	105.32
529.24	0.00
529.41	98.30
529.58	32.77
529.75	126.39
529.92	124.05
530.09	86.60
530.26	86.60
530.43	74.90
530.60	138.09
530.77	88.94
530.94	46.81
531.11	28.09
531.28	81.92
531.46	98.30
531.63	53.83
531.80	131.07
531.97	35.11
532.14	70.22
532.31	77.24
532.48	121.71
532.65	84.26
532.82	100.64
532.99	91.28
533.16	53.83
533.33	42.13
533.50	126.39
533.67	140.43
533.84	70.22
534.01	93.62
534.18	51.49
534.35	93.62
534.52	63.19
534.69	88.94
534.86	126.39
535.03	53.83
535.20	140.43
535.37	110.01
535.54	110.01
535.71	81.92
535.88	79.58
536.05	25.75
536.22	100.64
536.38	49.15
536.55	70.22
536.72	65.54
536.89	56.17
537.06	37.45
537.23	44.47
537.40	79.58
537.57	81.92
537.74	107.66
537.91	124.05
538.08	56.17
538.25	110.01
538.42	131.07
538.59	58.51
538.75	81.92
538.92	67.88
539.09	60.85
539.26	107.66
539.43	145.11
539.60	72.56
539.77	67.88
539.94	46.81
540.11	100.64
540.28	159.16
540.44	51.49
540.61	117.03
540.78	86.60
540.95	112.35
541.12	86.60
541.29	21.06
541.46	86.60
541.62	28.09
541.79	107.66
541.96	81.92
542.13	88.94
542.30	18.72
542.47	114.69
542.63	126.39
542.80	107.66
542.97	131.07
543.14	124.05
543.31	100.64
543.48	74.90
543.64	154.48
543.81	72.56
543.98	121.71
544.15	100.64
544.32	91.28
544.48	56.17
544.65	110.01
544.82	93.62
544.99	121.71
545.16	56.17
545.32	77.24
545.49	124.05
545.66	110.01
545.83	72.56
546.00	114.69
546.16	65.54
546.33	88.94
546.50	112.35
546.67	117.03
546.83	131.07
547.00	105.32
547.17	32.77
547.34	60.85
547.50	100.64
547.67	79.58
547.84	35.11
548.00	44.47
548.17	49.15
548.34	119.37
548.51	81.92
548.67	32.77
548.84	70.22
549.01	105.32
549.18	93.62
549.34	39.79
549.51	95.96
549.68	117.03
549.84	133.41
550.01	86.60
550.18	100.64
550.34	93.62
550.51	35.11
550.68	107.66
550.84	63.19
551.01	44.47
551.18	105.32
551.34	81.92
551.51	88.94
551.68	25.75
551.84	110.01
552.01	35.11
552.18	102.98
552.34	102.98
552.51	28.09
552.68	79.58
552.84	35.11
553.01	93.62
553.18	126.39
553.34	65.54
553.51	102.98
553.67	112.35
553.84	18.72
554.01	4.68
554.17	124.05
554.34	53.83
554.51	63.19
554.67	60.85
554.84	159.16
555.00	35.11
555.17	72.56
555.33	77.24
555.50	105.32
555.67	131.07
555.83	74.90
556.00	95.96
556.16	60.85
556.33	84.26
556.50	58.51
556.66	7.02
556.83	9.36
556.99	63.19
557.16	81.92
557.32	37.45
557.49	100.64
557.65	79.58
557.82	65.54
557.98	67.88
558.15	100.64
558.32	51.49
558.48	81.92
558.65	56.17
558.81	63.19
558.98	0.00
559.14	0.00
559.31	102.98
559.47	100.64
559.64	72.56
559.80	121.71
559.97	168.52
560.13	117.03
560.30	154.48
560.46	177.88
560.63	93.62
560.79	98.30
560.96	70.22
561.12	135.75
561.29	135.75
561.45	0.00
561.61	79.58
561.78	102.98
561.94	98.30
562.11	84.26
562.27	35.11
562.44	133.41
562.60	49.15
562.77	91.28
562.93	65.54
563.10	95.96
563.26	81.92
563.42	117.03
563.59	140.43
563.75	35.11
563.92	23.41
564.08	100.64
564.24	51.49
564.41	102.98
564.57	35.11
564.74	128.73
564.90	152.13
565.07	25.75
565.23	9.36
565.39	18.72
565.56	88.94
565.72	79.58
565.88	23.41
566.05	88.94
566.21	86.60
566.38	98.30
566.54	23.41
566.70	79.58
566.87	58.51
567.03	21.06
567.19	91.28
567.36	102.98
567.52	72.56
567.68	77.24
567.85	86.60
568.01	58.51
568.17	102.98
568.34	44.47
568.50	72.56
568.66	53.83
568.83	39.79
568.99	53.83
569.15	91.28
569.32	0.00
569.48	0.00
569.64	88.94
569.81	25.75
569.97	74.90
570.13	49.15
570.30	72.56
570.46	21.06
570.62	56.17
570.78	72.56
570.95	72.56
571.11	84.26
571.27	114.69
571.43	51.49
571.60	25.75
571.76	53.83
571.92	119.37
572.09	126.39
572.25	138.09
572.41	72.56
572.57	32.77
572.74	98.30
572.90	100.64
573.06	98.30
573.22	28.09
573.38	98.30
573.55	23.41
573.71	91.28
573.87	21.06
574.03	117.03
574.20	91.28
574.36	16.38
574.52	95.96
574.68	21.06
574.84	39.79
575.01	65.54
575.17	30.43
575.33	84.26
575.49	86.60
575.65	42.13
575.82	53.83
575.98	102.98
576.14	133.41
576.30	88.94
576.46	46.81
576.62	72.56
576.79	88.94
576.95	86.60
577.11	79.58
577.27	65.54
577.43	35.11
577.59	60.85
577.75	163.84
577.92	37.45
578.08	88.94
578.24	65.54
578.40	74.90
578.56	121.71
578.72	107.66
578.88	53.83
579.04	74.90
579.21	9.36
579.37	53.83
579.53	46.81
579.69	21.06
579.85	128.73
580.01	35.11
580.17	0.00
580.33	95.96
580.49	70.22
580.65	105.32
580.82	84.26
580.98	86.60
581.14	67.88
581.30	51.49
581.46	112.35
581.62	65.54
581.78	16.38
581.94	0.00
582.10	25.75
582.26	84.26
582.42	53.83
582.58	65.54
582.74	107.66
582.90	0.00
583.06	63.19
583.22	84.26
583.38	128.73
583.54	37.45
583.70	95.96
583.86	42.13
584.02	23.41
584.18	77.24
584.34	28.09
584.50	42.13
584.66	81.92
584.82	65.54
584.98	102.98
585.14	147.45
585.30	95.96
585.46	86.60
585.62	28.09
585.78	56.17
585.94	60.85
586.10	28.09
586.26	49.15
586.42	84.26
586.58	140.43
586.74	81.92
586.90	147.45
587.06	98.30
587.22	88.94
587.38	51.49
587.54	28.09
587.70	9.36
587.86	39.79
588.02	107.66
588.18	53.83
588.34	131.07
588.49	25.75
588.65	107.66
588.81	0.00
588.97	30.43
589.13	42.13
589.29	86.60
589.45	65.54
589.61	86.60
589.77	30.43
589.93	81.92
590.08	100.64
590.24	117.03
590.40	93.62
590.56	131.07
590.72	79.58
590.88	105.32
591.04	18.72
591.20	60.85
591.35	154.48
591.51	110.01
591.67	32.77
591.83	56.17
591.99	18.72
592.15	121.71
592.31	21.06
592.46	9.36
592.62	21.06
592.78	58.51
592.94	9.36
593.10	128.73
593.26	18.72
593.41	182.56
593.57	95.96
593.73	28.09
593.89	126.39
594.05	0.00
594.20	30.43
594.36	30.43
594.52	14.04
594.68	135.75
594.84	77.24
594.99	65.54
595.15	0.00
595.31	9.36
595.47	100.64
595.62	23.41
595.78	72.56
595.94	30.43
596.10	0.00
596.25	67.88
596.41	72.56
596.57	102.98
596.73	105.32
596.88	65.54
597.04	16.38
597.20	23.41
597.36	98.30
597.51	147.45
597.67	70.22
597.83	23.41
597.99	98.30
598.14	56.17
598.30	100.64
598.46	102.98
598.61	60.85
598.77	70.22
598.93	58.51
599.09	128.73
599.24	30.43
599.40	65.54
599.56	60.85
599.71	32.77
599.87	102.98
600.03	18.72
600.18	74.90
600.34	70.22
600.50	23.41
600.65	23.41
600.81	77.24
600.97	147.45
601.12	135.75
601.28	133.41
601.44	25.75
601.59	67.88
601.75	60.85
601.91	58.51
602.06	88.94
602.22	128.73
602.37	81.92
602.53	77.24
602.69	42.13
602.84	49.15
603.00	67.88
603.16	67.88
603.31	81.92
603.47	140.43
603.62	84.26
603.78	28.09
603.94	14.04
604.09	25.75
604.25	60.85
604.40	70.22
604.56	35.11
604.71	81.92
604.87	37.45
605.03	102.98
605.18	100.64
605.34	107.66
605.49	60.85
605.65	51.49
605.80	91.28
605.96	105.32
606.12	18.72
606.27	2.34
606.43	37.45
606.58	77.24
606.74	119.37
606.89	166.18
607.05	63.19
607.20	65.54
607.36	21.06
607.51	95.96
607.67	16.38
607.82	30.43
607.98	81.92
608.13	0.00
608.29	32.77
608.44	25.75
608.60	44.47
608.75	51.49
608.91	67.88
609.06	135.75
609.22	58.51
609.37	91.28
609.53	77.24
609.68	77.24
609.84	67.88
609.99	67.88
610.15	60.85
610.30	14.04
610.46	95.96
610.61	35.11
610.76	114.69
610.92	117.03
611.07	56.17
611.23	93.62
611.38	46.81
611.54	28.09
611.69	32.77
611.84	25.75
612.00	0.00
612.15	72.56
612.31	35.11
612.46	37.45
612.62	63.19
612.77	121.71
612.92	98.30
613.08	14.04
613.23	53.83
613.39	44.47
613.54	42.13
613.69	0.00
613.85	88.94
614.00	72.56
614.15	110.01
614.31	112.35
614.46	67.88
614.62	70.22
614.77	126.39
614.92	98.30
615.08	100.64
615.23	105.32
615.38	0.00
615.54	53.83
615.69	14.04
615.84	77.24
616.00	53.83
616.15	2.34
616.30	81.92
616.46	79.58
616.61	67.88
616.76	49.15
616.92	102.98
617.07	0.00
617.22	126.39
617.37	107.66
617.53	84.26
617.68	0.00
617.83	81.92
617.99	79.58
618.14	60.85
618.29	84.26
618.45	23.41
618.60	53.83
618.75	70.22
618.90	53.83
619.06	166.18
619.21	63.19
619.36	44.47
619.51	74.90
619.67	138.09
619.82	37.45
619.97	72.56
620.12	63.19
620.28	30.43
620.43	105.32
620.58	112.35
620.73	79.58
620.89	58.51
621.04	51.49
621.19	91.28
621.34	65.54
621.49	131.07
621.65	170.86
621.80	37.45
621.95	30.43
622.10	56.17
622.25	74.90
622.41	49.15
622.56	0.00
622.71	42.13
622.86	74.90
623.01	114.69
623.16	74.90
623.32	102.98
623.47	72.56
623.62	42.13
623.77	0.00
623.92	98.30
624.07	131.07
624.23	105.32
624.38	51.49
624.53	93.62
624.68	49.15
624.83	79.58
624.98	23.41
625.13	51.49
625.29	133.41
625.44	42.13
625.59	67.88
625.74	93.62
625.89	0.00
626.04	32.77
626.19	30.43
626.34	131.07
626.49	39.79
626.65	114.69
626.80	56.17
626.95	91.28
627.10	74.90
627.25	60.85
627.40	32.77
627.55	77.24
627.70	4.68
627.85	0.00
628.00	133.41
628.15	119.37
628.30	93.62
628.45	32.77
628.60	25.75
628.76	30.43
628.91	0.00
629.06	63.19
629.21	95.96
629.36	81.92
629.51	35.11
629.66	70.22
629.81	72.56
629.96	7.02
630.11	72.56
630.26	91.28
630.41	32.77
630.56	81.92
630.71	56.17
630.86	142.77
631.01	0.00
631.16	44.47
631.31	44.47
631.46	16.38
631.61	42.13
631.76	86.60
631.91	105.32
632.06	42.13
632.21	4.68
632.36	0.00
632.51	16.38
632.66	0.00
632.81	93.62
632.96	98.30
633.10	42.13
633.25	30.43
633.40	91.28
633.55	79.58
633.70	49.15
633.85	86.60
634.00	53.83
634.15	112.35
634.30	25.75
634.45	39.79
634.60	32.77
634.75	86.60
634.90	35.11
635.05	140.43
635.19	91.28
635.34	79.58
635.49	88.94
635.64	72.56
635.79	65.54
635.94	102.98
636.09	0.00
636.24	56.17
636.39	124.05
636.53	28.09
636.68	86.60
636.83	21.06
636.98	79.58
637.13	88.94
637.28	56.17
637.43	67.88
637.57	0.00
637.72	67.88
637.87	11.70
638.02	124.05
638.17	49.15
638.32	21.06
638.46	60.85
638.61	30.43
638.76	51.49
638.91	0.00
639.06	9.36
639.20	42.13
639.35	65.54
639.50	25.75
639.65	60.85
639.80	42.13
639.94	77.24
640.09	84.26
640.24	0.00
640.39	65.54
640.54	102.98
640.68	11.70
640.83	70.22
640.98	7.02
641.13	37.45
641.27	110.01
641.42	28.09
641.57	91.28
641.72	107.66
641.86	51.49
642.01	46.81
642.16	44.47
642.31	77.24
642.45	119.37
642.60	88.94
642.75	18.72
642.90	98.30
643.04	138.09
643.19	72.56
643.34	81.92
643.48	98.30
643.63	9.36
643.78	77.24
643.93	91.28
644.07	53.83
644.22	42.13
644.37	67.88
644.51	25.75
644.66	124.05
644.81	7.02
644.95	60.85
645.10	114.69
645.25	100.64
645.39	37.45
645.54	23.41
645.69	91.28
645.83	65.54
645.98	88.94
646.13	112.35
646.27	51.49
646.42	131.07
646.57	0.00
646.71	0.00
646.86	100.64
647.00	0.00
647.15	67.88
647.30	117.03
647.44	60.85
647.59	53.83
647.74	72.56
647.88	42.13
648.03	102.98
648.17	107.66
648.32	131.07
648.47	138.09
648.61	23.41
648.76	25.75
648.90	88.94
649.05	119.37
649.20	4.68
649.34	0.00
649.49	72.56
649.63	65.54
649.78	0.00
649.92	74.90
650.07	42.13
650.21	28.09
650.36	65.54
650.51	98.30
650.65	21.06
650.80	0.00
650.94	0.00
651.09	60.85
651.23	77.24
651.38	88.94
651.52	23.41
651.67	88.94
651.81	25.75
651.96	30.43
652.10	51.49
652.25	46.81
652.39	131.07
652.54	7.02
652.68	35.11
652.83	53.83
652.97	21.06
653.12	65.54
653.26	51.49
653.41	117.03
653.55	86.60
653.70	21.06
653.84	23.41
653.99	37.45
654.13	70.22
654.27	7.02
654.42	74.90
654.56	91.28
654.71	58.51
654.85	44.47
655.00	81.92
655.14	79.58
655.29	0.00
655.43	56.17
655.57	23.41
655.72	44.47
655.86	105.32
656.01	72.56
656.15	0.00
656.30	37.45
656.44	18.72
656.58	18.72
656.73	14.04
656.87	93.62
657.01	51.49
657.16	88.94
657.30	39.79
657.45	25.75
657.59	56.17
657.73	11.70
657.88	37.45
658.02	42.13
658.16	63.19
658.31	53.83
658.45	67.88
658.60	4.68
658.74	63.19
658.88	37.45
659.03	95.96
659.17	51.49
659.31	35.11
659.46	37.45
659.60	37.45
659.74	0.00
659.89	121.71
660.03	28.09
660.17	60.85
660.32	35.11
660.46	142.77
660.60	84.26
660.74	25.75
660.89	0.00
661.03	23.41
661.17	0.00
661.32	32.77
661.46	25.75
661.60	79.58
661.74	21.06
661.89	16.38
662.03	7.02
662.17	84.26
662.31	44.47
662.46	70.22
662.60	2.34
662.74	72.56
662.88	0.00
663.03	32.77
663.17	0.00
663.31	60.85
663.45	91.28
663.60	11.70
663.74	9.36
663.88	65.54
664.02	35.11
664.17	117.03
664.31	60.85
664.45	67.88
664.59	51.49
664.73	49.15
664.88	25.75
665.02	46.81
665.16	39.79
665.30	37.45
665.44	60.85
665.59	21.06
665.73	65.54
665.87	110.01
666.01	46.81
666.15	70.22
666.29	25.75
666.44	102.98
666.58	4.68
666.72	0.00
666.86	88.94
667.00	95.96
667.14	79.58
667.28	42.13
667.43	44.47
667.57	107.66
667.71	60.85
667.85	49.15
667.99	49.15
668.13	107.66
668.27	65.54
668.41	102.98
668.56	0.00
668.70	65.54
668.84	49.15
668.98	28.09
669.12	51.49
669.26	63.19
669.40	0.00
669.54	0.00
669.68	84.26
669.82	63.19
669.96	28.09
670.10	70.22
670.25	30.43
670.39	37.45
670.53	70.22
670.67	32.77
670.81	28.09
670.95	32.77
671.09	0.00
671.23	49.15
671.37	84.26
671.51	35.11
671.65	65.54
671.79	51.49
671.93	100.64
672.07	70.22
672.21	0.00
672.35	145.11
672.49	58.51
672.63	49.15
672.77	49.15
672.91	37.45
673.05	95.96
673.19	35.11
673.33	21.06
673.47	44.47
673.61	112.35
673.75	21.06
673.89	39.79
674.03	79.58
674.17	25.75
674.31	0.00
674.45	72.56
674.59	30.43
674.73	37.45
674.87	0.00
675.01	51.49
675.15	51.49
675.29	72.56
675.43	110.01
675.56	56.17
675.70	63.19
675.84	56.17
675.98	32.77
676.12	65.54
676.26	100.64
676.40	0.00
676.54	88.94
676.68	63.19
676.82	21.06
676.96	16.38
677.10	102.98
677.23	114.69
677.37	56.17
677.51	56.17
677.65	72.56
677.79	11.70
677.93	86.60
678.07	7.02
678.21	56.17
678.34	63.19
678.48	102.98
678.62	95.96
678.76	7.02
678.90	44.47
679.04	53.83
679.18	0.00
679.31	7.02
679.45	0.00
679.59	25.75
679.73	93.62
679.87	0.00
680.00	39.79
680.14	77.24
680.28	77.24
680.42	84.26
680.56	84.26
680.70	86.60
680.83	46.81
680.97	28.09
681.11	0.00
681.25	0.00
681.39	14.04
681.52	63.19
681.66	18.72
681.80	32.77
681.94	105.32
682.07	23.41
682.21	39.79
682.35	25.75
682.49	39.79
682.62	44.47
682.76	25.75
682.90	32.77
683.04	14.04
683.17	81.92
683.31	53.83
683.45	74.90
683.59	49.15
683.72	21.06
683.86	88.94
684.00	7.02
684.13	70.22
684.27	53.83
684.41	14.04
684.55	28.09
684.68	46.81
684.82	30.43
684.96	0.00
685.09	37.45
685.23	128.73
685.37	53.83
685.50	46.81
685.64	86.60
685.78	46.81
685.91	25.75
686.05	18.72
686.19	126.39
686.32	49.15
686.46	39.79
686.60	100.64
686.73	56.17
686.87	2.34
687.01	39.79
687.14	39.79
687.28	86.60
687.42	58.51
687.55	56.17
687.69	32.77
687.82	44.47
687.96	0.00
688.10	60.85
688.23	77.24
688.37	39.79
688.50	81.92
688.64	35.11
688.78	79.58
688.91	28.09
689.05	0.00
689.18	42.13
689.32	84.26
689.46	11.70
689.59	4.68
689.73	112.35
689.86	0.00
690.00	0.00
690.13	4.68
690.27	14.04
690.41	56.17
690.54	46.81
690.68	39.79
690.81	86.60
690.95	44.47
691.08	105.32
691.22	88.94
691.35	42.13
691.49	63.19
691.62	28.09
691.76	42.13
691.89	30.43
692.03	63.19
692.16	21.06
692.30	58.51
692.43	35.11
692.57	67.88
692.70	37.45
692.84	25.75
692.97	42.13
693.11	4.68
693.24	30.43
693.38	11.70
693.51	32.77
693.65	0.00
693.78	77.24
693.92	7.02
694.05	42.13
694.19	25.75
694.32	37.45
694.45	0.00
694.59	32.77
694.72	23.41
694.86	81.92
694.99	49.15
695.13	0.00
695.26	30.43
695.39	74.90
695.53	124.05
695.66	39.79
695.80	46.81
695.93	42.13
696.07	56.17
696.20	65.54
696.33	0.00
696.47	72.56
696.60	60.85
696.73	49.15
696.87	51.49
697.00	42.13
697.14	70.22
697.27	65.54
697.40	16.38
697.54	42.13
697.67	51.49
697.80	0.00
697.94	74.90
698.07	77.24
698.21	51.49
698.34	28.09
698.47	28.09
698.61	0.00
698.74	65.54
698.87	39.79
699.01	51.49
699.14	16.38
699.27	67.88
699.40	60.85
699.54	93.62
699.67	0.00
699.80	0.00
699.94	46.81
700.07	77.24
700.20	7.02
700.34	0.00
700.47	84.26
700.60	0.00
700.73	0.00
700.87	51.49
701.00	11.70
701.13	23.41
701.26	70.22
701.40	4.68
701.53	39.79
701.66	86.60
701.79	49.15
701.93	25.75
702.06	0.00
702.19	58.51
702.32	74.90
702.46	0.00
702.59	23.41
702.72	58.51
702.85	79.58
702.99	60.85
703.12	0.00
703.25	44.47
703.38	46.81
703.51	74.90
703.65	0.00
703.78	0.00
703.91	0.00
704.04	23.41
704.17	0.00
704.31	65.54
704.44	25.75
704.57	44.47
704.70	23.41
704.83	51.49
704.96	32.77
705.10	77.24
705.23	114.69
>>>>>End Processed Spectral Data<<<<<
