SpectraSuite Data File
++++++++++++++++++++++++++++++++++++
Date: Fri Oct 04 12:13:25 GMT-05:00 2013
User: price-jones
Dark Spectrum Present: No
Reference Spectrum Present: No
Number of Sampled Component Spectra: 1
Spectrometers: USB2+H05261
Integration Time (usec): 10000 (USB2+H05261)
Spectra Averaged: 1 (USB2+H05261)
Boxcar Smoothing: 0 (USB2+H05261)
Correct for Electrical Dark: No (USB2+H05261)
Strobe/Lamp Enabled: No (USB2+H05261)
Correct for Detector Non-linearity: No (USB2+H05261)
Correct for Stray Light: No (USB2+H05261)
Number of Pixels in Processed Spectrum: 2048
>>>>>Begin Processed Spectral Data<<<<<
365.73	0.00
365.92	0.00
366.12	0.00
366.32	0.00
366.52	0.00
366.72	0.00
366.91	0.00
367.11	0.00
367.31	0.00
367.51	0.00
367.70	0.00
367.90	0.00
368.10	0.00
368.30	0.00
368.49	0.00
368.69	0.00
368.89	0.00
369.09	0.00
369.28	0.00
369.48	0.00
369.68	0.00
369.87	0.00
370.07	0.00
370.27	0.00
370.47	0.00
370.66	0.00
370.86	0.00
371.06	0.00
371.25	0.00
371.45	0.00
371.65	4.68
371.84	23.41
372.04	25.75
372.24	0.00
372.44	0.00
372.63	0.00
372.83	67.88
373.03	42.13
373.22	63.19
373.42	77.24
373.62	56.17
373.81	65.54
374.01	18.72
374.21	0.00
374.40	60.85
374.60	0.00
374.79	18.72
374.99	0.00
375.19	4.68
375.38	0.00
375.58	77.24
375.78	53.83
375.97	0.00
376.17	30.43
376.37	39.79
376.56	16.38
376.76	37.45
376.95	18.72
377.15	0.00
377.35	0.00
377.54	0.00
377.74	39.79
377.93	4.68
378.13	28.09
378.33	0.00
378.52	35.11
378.72	77.24
378.91	42.13
379.11	51.49
379.31	14.04
379.50	0.00
379.70	44.47
379.89	0.00
380.09	100.64
380.28	7.02
380.48	39.79
380.68	25.75
380.87	18.72
381.07	65.54
381.26	42.13
381.46	39.79
381.65	4.68
381.85	0.00
382.04	0.00
382.24	9.36
382.43	0.00
382.63	53.83
382.83	0.00
383.02	32.77
383.22	67.88
383.41	0.00
383.61	0.00
383.80	42.13
384.00	25.75
384.19	0.00
384.39	0.00
384.58	9.36
384.78	0.00
384.97	49.15
385.17	0.00
385.36	0.00
385.56	18.72
385.75	70.22
385.95	16.38
386.14	35.11
386.34	0.00
386.53	67.88
386.72	0.00
386.92	88.94
387.11	9.36
387.31	77.24
387.50	46.81
387.70	51.49
387.89	0.00
388.09	37.45
388.28	0.00
388.48	42.13
388.67	44.47
388.86	25.75
389.06	0.00
389.25	35.11
389.45	0.00
389.64	56.17
389.84	65.54
390.03	72.56
390.22	0.00
390.42	0.00
390.61	42.13
390.81	42.13
391.00	28.09
391.19	0.00
391.39	56.17
391.58	28.09
391.78	0.00
391.97	46.81
392.16	0.00
392.36	44.47
392.55	84.26
392.75	0.00
392.94	56.17
393.13	11.70
393.33	44.47
393.52	0.00
393.71	0.00
393.91	2.34
394.10	0.00
394.29	0.00
394.49	67.88
394.68	7.02
394.88	0.00
395.07	0.00
395.26	42.13
395.46	53.83
395.65	0.00
395.84	0.00
396.04	0.00
396.23	11.70
396.42	16.38
396.62	51.49
396.81	51.49
397.00	14.04
397.19	44.47
397.39	65.54
397.58	0.00
397.77	0.00
397.97	23.41
398.16	0.00
398.35	0.00
398.55	11.70
398.74	9.36
398.93	77.24
399.12	35.11
399.32	65.54
399.51	72.56
399.70	39.79
399.90	11.70
400.09	4.68
400.28	14.04
400.47	35.11
400.67	0.00
400.86	81.92
401.05	53.83
401.24	51.49
401.44	0.00
401.63	35.11
401.82	2.34
402.01	0.00
402.21	53.83
402.40	0.00
402.59	11.70
402.78	0.00
402.97	86.60
403.17	11.70
403.36	0.00
403.55	42.13
403.74	9.36
403.93	0.00
404.13	2.34
404.32	46.81
404.51	37.45
404.70	74.90
404.89	79.58
405.09	37.45
405.28	0.00
405.47	14.04
405.66	60.85
405.85	46.81
406.05	23.41
406.24	44.47
406.43	37.45
406.62	23.41
406.81	23.41
407.00	0.00
407.20	65.54
407.39	0.00
407.58	11.70
407.77	23.41
407.96	70.22
408.15	39.79
408.34	32.77
408.54	35.11
408.73	28.09
408.92	44.47
409.11	30.43
409.30	42.13
409.49	4.68
409.68	0.00
409.87	0.00
410.07	0.00
410.26	91.28
410.45	0.00
410.64	0.00
410.83	30.43
411.02	32.77
411.21	74.90
411.40	25.75
411.59	72.56
411.78	98.30
411.98	14.04
412.17	77.24
412.36	7.02
412.55	7.02
412.74	79.58
412.93	39.79
413.12	39.79
413.31	18.72
413.50	2.34
413.69	58.51
413.88	60.85
414.07	16.38
414.26	23.41
414.45	88.94
414.64	53.83
414.83	25.75
415.02	28.09
415.22	53.83
415.41	67.88
415.60	56.17
415.79	39.79
415.98	35.11
416.17	35.11
416.36	2.34
416.55	30.43
416.74	28.09
416.93	0.00
417.12	0.00
417.31	58.51
417.50	11.70
417.69	16.38
417.88	65.54
418.07	102.98
418.26	154.48
418.45	56.17
418.64	58.51
418.83	32.77
419.02	0.00
419.21	11.70
419.39	32.77
419.58	44.47
419.77	25.75
419.96	0.00
420.15	0.00
420.34	0.00
420.53	46.81
420.72	46.81
420.91	11.70
421.10	63.19
421.29	35.11
421.48	35.11
421.67	67.88
421.86	0.00
422.05	72.56
422.24	65.54
422.43	9.36
422.61	49.15
422.80	35.11
422.99	0.00
423.18	74.90
423.37	18.72
423.56	0.00
423.75	0.00
423.94	0.00
424.13	2.34
424.32	21.06
424.50	63.19
424.69	0.00
424.88	0.00
425.07	37.45
425.26	32.77
425.45	107.66
425.64	7.02
425.83	23.41
426.01	72.56
426.20	32.77
426.39	0.00
426.58	65.54
426.77	25.75
426.96	0.00
427.15	32.77
427.33	32.77
427.52	30.43
427.71	37.45
427.90	63.19
428.09	0.00
428.28	107.66
428.46	98.30
428.65	84.26
428.84	58.51
429.03	0.00
429.22	0.00
429.40	49.15
429.59	74.90
429.78	2.34
429.97	25.75
430.16	56.17
430.34	2.34
430.53	32.77
430.72	0.00
430.91	35.11
431.10	23.41
431.28	23.41
431.47	11.70
431.66	23.41
431.85	30.43
432.03	37.45
432.22	58.51
432.41	0.00
432.60	30.43
432.79	88.94
432.97	35.11
433.16	0.00
433.35	0.00
433.54	21.06
433.72	21.06
433.91	21.06
434.10	18.72
434.28	9.36
434.47	44.47
434.66	4.68
434.85	0.00
435.03	46.81
435.22	0.00
435.41	14.04
435.59	28.09
435.78	42.13
435.97	28.09
436.16	0.00
436.34	77.24
436.53	35.11
436.72	49.15
436.90	42.13
437.09	16.38
437.28	28.09
437.46	7.02
437.65	7.02
437.84	0.00
438.02	11.70
438.21	46.81
438.40	0.00
438.58	9.36
438.77	0.00
438.96	0.00
439.14	25.75
439.33	0.00
439.52	30.43
439.70	58.51
439.89	0.00
440.08	0.00
440.26	42.13
440.45	0.00
440.63	77.24
440.82	35.11
441.01	63.19
441.19	65.54
441.38	0.00
441.57	93.62
441.75	35.11
441.94	23.41
442.12	35.11
442.31	58.51
442.50	32.77
442.68	0.00
442.87	86.60
443.05	4.68
443.24	72.56
443.43	35.11
443.61	42.13
443.80	79.58
443.98	23.41
444.17	30.43
444.35	60.85
444.54	60.85
444.73	18.72
444.91	79.58
445.10	53.83
445.28	32.77
445.47	0.00
445.65	46.81
445.84	65.54
446.02	46.81
446.21	0.00
446.39	28.09
446.58	72.56
446.77	25.75
446.95	60.85
447.14	21.06
447.32	14.04
447.51	100.64
447.69	35.11
447.88	0.00
448.06	16.38
448.25	35.11
448.43	65.54
448.62	0.00
448.80	58.51
448.99	84.26
449.17	21.06
449.36	23.41
449.54	53.83
449.73	37.45
449.91	23.41
450.10	14.04
450.28	102.98
450.46	23.41
450.65	0.00
450.83	9.36
451.02	16.38
451.20	0.00
451.39	42.13
451.57	39.79
451.76	35.11
451.94	86.60
452.13	32.77
452.31	60.85
452.49	28.09
452.68	56.17
452.86	63.19
453.05	30.43
453.23	30.43
453.42	65.54
453.60	11.70
453.78	58.51
453.97	14.04
454.15	53.83
454.34	23.41
454.52	63.19
454.70	42.13
454.89	28.09
455.07	18.72
455.26	39.79
455.44	23.41
455.62	37.45
455.81	60.85
455.99	49.15
456.17	0.00
456.36	7.02
456.54	0.00
456.73	0.00
456.91	14.04
457.09	37.45
457.28	16.38
457.46	58.51
457.64	9.36
457.83	0.00
458.01	16.38
458.19	0.00
458.38	74.90
458.56	35.11
458.74	16.38
458.93	4.68
459.11	46.81
459.29	9.36
459.48	4.68
459.66	21.06
459.84	74.90
460.03	32.77
460.21	72.56
460.39	58.51
460.57	18.72
460.76	0.00
460.94	0.00
461.12	91.28
461.31	25.75
461.49	100.64
461.67	42.13
461.85	21.06
462.04	32.77
462.22	56.17
462.40	14.04
462.59	72.56
462.77	88.94
462.95	84.26
463.13	0.00
463.32	0.00
463.50	7.02
463.68	2.34
463.86	16.38
464.05	9.36
464.23	11.70
464.41	53.83
464.59	28.09
464.78	28.09
464.96	84.26
465.14	37.45
465.32	72.56
465.50	79.58
465.69	60.85
465.87	46.81
466.05	16.38
466.23	28.09
466.41	21.06
466.60	0.00
466.78	32.77
466.96	4.68
467.14	56.17
467.32	0.00
467.51	70.22
467.69	100.64
467.87	0.00
468.05	65.54
468.23	28.09
468.41	23.41
468.60	93.62
468.78	67.88
468.96	72.56
469.14	42.13
469.32	49.15
469.50	0.00
469.69	74.90
469.87	14.04
470.05	0.00
470.23	77.24
470.41	9.36
470.59	74.90
470.77	28.09
470.95	51.49
471.14	79.58
471.32	0.00
471.50	138.09
471.68	67.88
471.86	58.51
472.04	18.72
472.22	74.90
472.40	0.00
472.58	30.43
472.77	35.11
472.95	53.83
473.13	4.68
473.31	37.45
473.49	77.24
473.67	14.04
473.85	0.00
474.03	21.06
474.21	98.30
474.39	44.47
474.57	95.96
474.75	98.30
474.93	25.75
475.12	44.47
475.30	35.11
475.48	30.43
475.66	37.45
475.84	0.00
476.02	0.00
476.20	30.43
476.38	11.70
476.56	84.26
476.74	39.79
476.92	105.32
477.10	65.54
477.28	74.90
477.46	14.04
477.64	0.00
477.82	21.06
478.00	37.45
478.18	53.83
478.36	0.00
478.54	0.00
478.72	25.75
478.90	25.75
479.08	49.15
479.26	32.77
479.44	58.51
479.62	0.00
479.80	84.26
479.98	0.00
480.16	72.56
480.34	60.85
480.52	79.58
480.70	51.49
480.88	0.00
481.06	65.54
481.24	0.00
481.41	145.11
481.59	0.00
481.77	95.96
481.95	53.83
482.13	9.36
482.31	35.11
482.49	2.34
482.67	0.00
482.85	21.06
483.03	86.60
483.21	18.72
483.39	46.81
483.57	0.00
483.74	65.54
483.92	2.34
484.10	0.00
484.28	35.11
484.46	56.17
484.64	49.15
484.82	16.38
485.00	0.00
485.18	56.17
485.35	28.09
485.53	121.71
485.71	88.94
485.89	44.47
486.07	37.45
486.25	4.68
486.43	88.94
486.61	63.19
486.78	0.00
486.96	0.00
487.14	14.04
487.32	119.37
487.50	37.45
487.68	0.00
487.85	70.22
488.03	72.56
488.21	44.47
488.39	39.79
488.57	23.41
488.75	0.00
488.92	18.72
489.10	126.39
489.28	79.58
489.46	63.19
489.64	0.00
489.81	0.00
489.99	81.92
490.17	21.06
490.35	74.90
490.53	0.00
490.70	21.06
490.88	95.96
491.06	58.51
491.24	58.51
491.41	25.75
491.59	93.62
491.77	126.39
491.95	4.68
492.13	72.56
492.30	0.00
492.48	65.54
492.66	42.13
492.84	91.28
493.01	51.49
493.19	0.00
493.37	14.04
493.54	37.45
493.72	14.04
493.90	30.43
494.08	4.68
494.25	21.06
494.43	0.00
494.61	37.45
494.79	51.49
494.96	32.77
495.14	23.41
495.32	72.56
495.49	42.13
495.67	35.11
495.85	70.22
496.02	39.79
496.20	30.43
496.38	25.75
496.55	0.00
496.73	56.17
496.91	84.26
497.09	14.04
497.26	25.75
497.44	16.38
497.62	58.51
497.79	65.54
497.97	72.56
498.14	21.06
498.32	56.17
498.50	35.11
498.67	0.00
498.85	32.77
499.03	65.54
499.20	60.85
499.38	23.41
499.56	16.38
499.73	72.56
499.91	16.38
500.08	32.77
500.26	2.34
500.44	44.47
500.61	58.51
500.79	58.51
500.97	53.83
501.14	25.75
501.32	0.00
501.49	32.77
501.67	93.62
501.84	0.00
502.02	84.26
502.20	49.15
502.37	35.11
502.55	128.73
502.72	42.13
502.90	56.17
503.07	0.00
503.25	18.72
503.43	9.36
503.60	84.26
503.78	114.69
503.95	11.70
504.13	37.45
504.30	25.75
504.48	159.16
504.65	0.00
504.83	44.47
505.01	4.68
505.18	9.36
505.36	77.24
505.53	107.66
505.71	0.00
505.88	74.90
506.06	25.75
506.23	18.72
506.41	42.13
506.58	18.72
506.76	7.02
506.93	88.94
507.11	7.02
507.28	14.04
507.46	9.36
507.63	16.38
507.81	32.77
507.98	2.34
508.16	56.17
508.33	32.77
508.50	9.36
508.68	154.48
508.85	74.90
509.03	32.77
509.20	37.45
509.38	4.68
509.55	72.56
509.73	98.30
509.90	0.00
510.08	0.00
510.25	39.79
510.42	16.38
510.60	9.36
510.77	70.22
510.95	53.83
511.12	49.15
511.30	93.62
511.47	114.69
511.64	46.81
511.82	21.06
511.99	70.22
512.17	39.79
512.34	51.49
512.51	128.73
512.69	53.83
512.86	86.60
513.04	53.83
513.21	49.15
513.38	30.43
513.56	86.60
513.73	91.28
513.90	65.54
514.08	184.90
514.25	23.41
514.43	23.41
514.60	30.43
514.77	0.00
514.95	0.00
515.12	0.00
515.29	44.47
515.47	53.83
515.64	84.26
515.81	74.90
515.99	60.85
516.16	4.68
516.33	23.41
516.51	86.60
516.68	23.41
516.85	35.11
517.03	81.92
517.20	81.92
517.37	74.90
517.54	79.58
517.72	72.56
517.89	0.00
518.06	21.06
518.24	16.38
518.41	72.56
518.58	77.24
518.75	9.36
518.93	18.72
519.10	70.22
519.27	0.00
519.45	0.00
519.62	86.60
519.79	25.75
519.96	35.11
520.14	60.85
520.31	0.00
520.48	25.75
520.65	74.90
520.83	58.51
521.00	49.15
521.17	30.43
521.34	65.54
521.52	32.77
521.69	25.75
521.86	28.09
522.03	11.70
522.20	35.11
522.38	37.45
522.55	56.17
522.72	98.30
522.89	0.00
523.07	42.13
523.24	63.19
523.41	0.00
523.58	0.00
523.75	0.00
523.92	35.11
524.10	11.70
524.27	84.26
524.44	35.11
524.61	42.13
524.78	4.68
524.96	37.45
525.13	0.00
525.30	0.00
525.47	39.79
525.64	70.22
525.81	25.75
525.98	37.45
526.16	70.22
526.33	114.69
526.50	4.68
526.67	46.81
526.84	32.77
527.01	25.75
527.18	65.54
527.36	0.00
527.53	21.06
527.70	65.54
527.87	44.47
528.04	72.56
528.21	28.09
528.38	32.77
528.55	32.77
528.72	28.09
528.89	32.77
529.07	107.66
529.24	77.24
529.41	11.70
529.58	7.02
529.75	42.13
529.92	56.17
530.09	117.03
530.26	0.00
530.43	39.79
530.60	56.17
530.77	44.47
530.94	77.24
531.11	60.85
531.28	4.68
531.46	56.17
531.63	46.81
531.80	21.06
531.97	42.13
532.14	18.72
532.31	0.00
532.48	2.34
532.65	14.04
532.82	0.00
532.99	63.19
533.16	67.88
533.33	28.09
533.50	0.00
533.67	77.24
533.84	25.75
534.01	0.00
534.18	46.81
534.35	58.51
534.52	81.92
534.69	11.70
534.86	56.17
535.03	35.11
535.20	0.00
535.37	70.22
535.54	11.70
535.71	0.00
535.88	7.02
536.05	4.68
536.22	2.34
536.38	77.24
536.55	53.83
536.72	21.06
536.89	37.45
537.06	84.26
537.23	91.28
537.40	81.92
537.57	11.70
537.74	65.54
537.91	72.56
538.08	53.83
538.25	30.43
538.42	30.43
538.59	84.26
538.75	21.06
538.92	81.92
539.09	0.00
539.26	46.81
539.43	58.51
539.60	28.09
539.77	86.60
539.94	16.38
540.11	30.43
540.28	124.05
540.44	46.81
540.61	9.36
540.78	2.34
540.95	42.13
541.12	39.79
541.29	56.17
541.46	42.13
541.62	0.00
541.79	67.88
541.96	51.49
542.13	0.00
542.30	65.54
542.47	88.94
542.63	0.00
542.80	67.88
542.97	65.54
543.14	4.68
543.31	9.36
543.48	65.54
543.64	23.41
543.81	67.88
543.98	46.81
544.15	37.45
544.32	32.77
544.48	11.70
544.65	30.43
544.82	28.09
544.99	100.64
545.16	11.70
545.32	65.54
545.49	35.11
545.66	81.92
545.83	67.88
546.00	42.13
546.16	70.22
546.33	39.79
546.50	18.72
546.67	53.83
546.83	0.00
547.00	133.41
547.17	7.02
547.34	60.85
547.50	60.85
547.67	4.68
547.84	60.85
548.00	0.00
548.17	11.70
548.34	0.00
548.51	105.32
548.67	14.04
548.84	42.13
549.01	58.51
549.18	56.17
549.34	58.51
549.51	51.49
549.68	21.06
549.84	100.64
550.01	53.83
550.18	35.11
550.34	63.19
550.51	0.00
550.68	51.49
550.84	9.36
551.01	11.70
551.18	60.85
551.34	67.88
551.51	14.04
551.68	2.34
551.84	44.47
552.01	56.17
552.18	53.83
552.34	49.15
552.51	53.83
552.68	95.96
552.84	2.34
553.01	28.09
553.18	35.11
553.34	4.68
553.51	23.41
553.67	35.11
553.84	91.28
554.01	37.45
554.17	0.00
554.34	58.51
554.51	23.41
554.67	79.58
554.84	84.26
555.00	0.00
555.17	0.00
555.33	74.90
555.50	0.00
555.67	0.00
555.83	72.56
556.00	46.81
556.16	0.00
556.33	0.00
556.50	67.88
556.66	28.09
556.83	0.00
556.99	102.98
557.16	46.81
557.32	70.22
557.49	63.19
557.65	0.00
557.82	35.11
557.98	124.05
558.15	32.77
558.32	14.04
558.48	35.11
558.65	35.11
558.81	39.79
558.98	49.15
559.14	56.17
559.31	93.62
559.47	70.22
559.64	56.17
559.80	0.00
559.97	70.22
560.13	72.56
560.30	46.81
560.46	4.68
560.63	0.00
560.79	14.04
560.96	53.83
561.12	21.06
561.29	23.41
561.45	60.85
561.61	81.92
561.78	95.96
561.94	77.24
562.11	65.54
562.27	49.15
562.44	44.47
562.60	23.41
562.77	102.98
562.93	93.62
563.10	23.41
563.26	35.11
563.42	37.45
563.59	56.17
563.75	65.54
563.92	30.43
564.08	77.24
564.24	86.60
564.41	77.24
564.57	21.06
564.74	114.69
564.90	0.00
565.07	0.00
565.23	16.38
565.39	0.00
565.56	37.45
565.72	23.41
565.88	39.79
566.05	60.85
566.21	72.56
566.38	56.17
566.54	67.88
566.70	81.92
566.87	49.15
567.03	95.96
567.19	56.17
567.36	28.09
567.52	32.77
567.68	86.60
567.85	28.09
568.01	53.83
568.17	72.56
568.34	86.60
568.50	44.47
568.66	18.72
568.83	56.17
568.99	46.81
569.15	77.24
569.32	88.94
569.48	11.70
569.64	60.85
569.81	67.88
569.97	28.09
570.13	0.00
570.30	4.68
570.46	0.00
570.62	0.00
570.78	4.68
570.95	105.32
571.11	81.92
571.27	44.47
571.43	72.56
571.60	46.81
571.76	0.00
571.92	4.68
572.09	7.02
572.25	2.34
572.41	0.00
572.57	28.09
572.74	51.49
572.90	119.37
573.06	37.45
573.22	67.88
573.38	49.15
573.55	18.72
573.71	53.83
573.87	42.13
574.03	77.24
574.20	23.41
574.36	30.43
574.52	0.00
574.68	30.43
574.84	39.79
575.01	18.72
575.17	56.17
575.33	23.41
575.49	35.11
575.65	58.51
575.82	37.45
575.98	72.56
576.14	0.00
576.30	21.06
576.46	9.36
576.62	53.83
576.79	30.43
576.95	70.22
577.11	0.00
577.27	42.13
577.43	0.00
577.59	77.24
577.75	77.24
577.92	51.49
578.08	67.88
578.24	53.83
578.40	67.88
578.56	72.56
578.72	0.00
578.88	37.45
579.04	70.22
579.21	42.13
579.37	60.85
579.53	16.38
579.69	56.17
579.85	58.51
580.01	65.54
580.17	65.54
580.33	18.72
580.49	35.11
580.65	53.83
580.82	0.00
580.98	63.19
581.14	39.79
581.30	44.47
581.46	91.28
581.62	16.38
581.78	11.70
581.94	11.70
582.10	107.66
582.26	81.92
582.42	86.60
582.58	16.38
582.74	84.26
582.90	88.94
583.06	32.77
583.22	51.49
583.38	0.00
583.54	44.47
583.70	58.51
583.86	0.00
584.02	11.70
584.18	128.73
584.34	46.81
584.50	37.45
584.66	72.56
584.82	0.00
584.98	23.41
585.14	72.56
585.30	88.94
585.46	16.38
585.62	42.13
585.78	32.77
585.94	14.04
586.10	72.56
586.26	60.85
586.42	77.24
586.58	70.22
586.74	25.75
586.90	60.85
587.06	0.00
587.22	4.68
587.38	70.22
587.54	46.81
587.70	23.41
587.86	30.43
588.02	35.11
588.18	51.49
588.34	51.49
588.49	0.00
588.65	21.06
588.81	86.60
588.97	49.15
589.13	81.92
589.29	51.49
589.45	0.00
589.61	42.13
589.77	60.85
589.93	60.85
590.08	18.72
590.24	0.00
590.40	25.75
590.56	9.36
590.72	35.11
590.88	2.34
591.04	37.45
591.20	63.19
591.35	77.24
591.51	88.94
591.67	16.38
591.83	16.38
591.99	37.45
592.15	91.28
592.31	0.00
592.46	11.70
592.62	28.09
592.78	23.41
592.94	28.09
593.10	56.17
593.26	56.17
593.41	51.49
593.57	2.34
593.73	91.28
593.89	51.49
594.05	37.45
594.20	46.81
594.36	30.43
594.52	14.04
594.68	100.64
594.84	0.00
594.99	0.00
595.15	79.58
595.31	23.41
595.47	46.81
595.62	88.94
595.78	0.00
595.94	72.56
596.10	56.17
596.25	51.49
596.41	21.06
596.57	60.85
596.73	18.72
596.88	0.00
597.04	46.81
597.20	21.06
597.36	32.77
597.51	18.72
597.67	35.11
597.83	74.90
597.99	35.11
598.14	18.72
598.30	86.60
598.46	37.45
598.61	0.00
598.77	91.28
598.93	39.79
599.09	0.00
599.24	37.45
599.40	0.00
599.56	25.75
599.71	32.77
599.87	0.00
600.03	51.49
600.18	39.79
600.34	9.36
600.50	18.72
600.65	2.34
600.81	0.00
600.97	23.41
601.12	0.00
601.28	49.15
601.44	32.77
601.59	28.09
601.75	32.77
601.91	53.83
602.06	70.22
602.22	14.04
602.37	32.77
602.53	81.92
602.69	21.06
602.84	39.79
603.00	86.60
603.16	18.72
603.31	0.00
603.47	93.62
603.62	42.13
603.78	79.58
603.94	107.66
604.09	70.22
604.25	0.00
604.40	39.79
604.56	37.45
604.71	25.75
604.87	53.83
605.03	18.72
605.18	0.00
605.34	49.15
605.49	65.54
605.65	0.00
605.80	79.58
605.96	4.68
606.12	60.85
606.27	28.09
606.43	35.11
606.58	72.56
606.74	63.19
606.89	126.39
607.05	35.11
607.20	16.38
607.36	70.22
607.51	60.85
607.67	0.00
607.82	35.11
607.98	28.09
608.13	88.94
608.29	0.00
608.44	0.00
608.60	53.83
608.75	84.26
608.91	32.77
609.06	14.04
609.22	0.00
609.37	37.45
609.53	63.19
609.68	60.85
609.84	30.43
609.99	0.00
610.15	74.90
610.30	88.94
610.46	63.19
610.61	42.13
610.76	11.70
610.92	21.06
611.07	63.19
611.23	35.11
611.38	86.60
611.54	0.00
611.69	2.34
611.84	0.00
612.00	46.81
612.15	53.83
612.31	39.79
612.46	42.13
612.62	0.00
612.77	16.38
612.92	7.02
613.08	70.22
613.23	88.94
613.39	9.36
613.54	28.09
613.69	28.09
613.85	79.58
614.00	72.56
614.15	4.68
614.31	124.05
614.46	46.81
614.62	0.00
614.77	56.17
614.92	74.90
615.08	0.00
615.23	46.81
615.38	0.00
615.54	91.28
615.69	25.75
615.84	0.00
616.00	2.34
616.15	53.83
616.30	9.36
616.46	0.00
616.61	0.00
616.76	86.60
616.92	86.60
617.07	0.00
617.22	23.41
617.37	81.92
617.53	44.47
617.68	46.81
617.83	70.22
617.99	0.00
618.14	30.43
618.29	72.56
618.45	11.70
618.60	63.19
618.75	0.00
618.90	46.81
619.06	11.70
619.21	49.15
619.36	32.77
619.51	7.02
619.67	0.00
619.82	0.00
619.97	58.51
620.12	42.13
620.28	77.24
620.43	0.00
620.58	0.00
620.73	30.43
620.89	0.00
621.04	37.45
621.19	58.51
621.34	0.00
621.49	2.34
621.65	0.00
621.80	46.81
621.95	0.00
622.10	156.82
622.25	16.38
622.41	32.77
622.56	32.77
622.71	25.75
622.86	51.49
623.01	51.49
623.16	14.04
623.32	84.26
623.47	72.56
623.62	23.41
623.77	51.49
623.92	0.00
624.07	28.09
624.23	0.00
624.38	28.09
624.53	107.66
624.68	124.05
624.83	49.15
624.98	58.51
625.13	56.17
625.29	35.11
625.44	7.02
625.59	4.68
625.74	0.00
625.89	28.09
626.04	11.70
626.19	23.41
626.34	11.70
626.49	51.49
626.65	95.96
626.80	39.79
626.95	60.85
627.10	23.41
627.25	28.09
627.40	2.34
627.55	4.68
627.70	107.66
627.85	11.70
628.00	0.00
628.15	0.00
628.30	0.00
628.45	4.68
628.60	0.00
628.76	37.45
628.91	60.85
629.06	18.72
629.21	60.85
629.36	81.92
629.51	23.41
629.66	44.47
629.81	0.00
629.96	0.00
630.11	70.22
630.26	0.00
630.41	7.02
630.56	84.26
630.71	65.54
630.86	53.83
631.01	46.81
631.16	18.72
631.31	32.77
631.46	42.13
631.61	0.00
631.76	44.47
631.91	0.00
632.06	42.13
632.21	9.36
632.36	63.19
632.51	63.19
632.66	42.13
632.81	44.47
632.96	0.00
633.10	39.79
633.25	81.92
633.40	0.00
633.55	77.24
633.70	35.11
633.85	32.77
634.00	0.00
634.15	18.72
634.30	67.88
634.45	0.00
634.60	32.77
634.75	107.66
634.90	46.81
635.05	25.75
635.19	53.83
635.34	11.70
635.49	0.00
635.64	117.03
635.79	51.49
635.94	65.54
636.09	102.98
636.24	0.00
636.39	0.00
636.53	70.22
636.68	58.51
636.83	0.00
636.98	39.79
637.13	46.81
637.28	32.77
637.43	46.81
637.57	60.85
637.72	9.36
637.87	0.00
638.02	0.00
638.17	117.03
638.32	72.56
638.46	18.72
638.61	49.15
638.76	0.00
638.91	2.34
639.06	32.77
639.20	23.41
639.35	7.02
639.50	58.51
639.65	44.47
639.80	65.54
639.94	0.00
640.09	44.47
640.24	2.34
640.39	28.09
640.54	44.47
640.68	49.15
640.83	30.43
640.98	16.38
641.13	0.00
641.27	42.13
641.42	16.38
641.57	58.51
641.72	42.13
641.86	35.11
642.01	23.41
642.16	84.26
642.31	77.24
642.45	114.69
642.60	4.68
642.75	70.22
642.90	70.22
643.04	18.72
643.19	32.77
643.34	81.92
643.48	0.00
643.63	7.02
643.78	79.58
643.93	0.00
644.07	98.30
644.22	110.01
644.37	79.58
644.51	91.28
644.66	46.81
644.81	42.13
644.95	49.15
645.10	56.17
645.25	63.19
645.39	110.01
645.54	67.88
645.69	18.72
645.83	42.13
645.98	44.47
646.13	39.79
646.27	4.68
646.42	0.00
646.57	70.22
646.71	117.03
646.86	88.94
647.00	58.51
647.15	18.72
647.30	88.94
647.44	39.79
647.59	79.58
647.74	56.17
647.88	46.81
648.03	67.88
648.17	32.77
648.32	0.00
648.47	11.70
648.61	2.34
648.76	0.00
648.90	84.26
649.05	49.15
649.20	53.83
649.34	0.00
649.49	65.54
649.63	42.13
649.78	28.09
649.92	67.88
650.07	84.26
650.21	49.15
650.36	93.62
650.51	88.94
650.65	32.77
650.80	70.22
650.94	0.00
651.09	0.00
651.23	0.00
651.38	67.88
651.52	44.47
651.67	65.54
651.81	114.69
651.96	67.88
652.10	32.77
652.25	0.00
652.39	65.54
652.54	0.00
652.68	18.72
652.83	0.00
652.97	79.58
653.12	4.68
653.26	51.49
653.41	67.88
653.55	4.68
653.70	0.00
653.84	37.45
653.99	58.51
654.13	49.15
654.27	46.81
654.42	49.15
654.56	70.22
654.71	56.17
654.85	53.83
655.00	51.49
655.14	25.75
655.29	46.81
655.43	30.43
655.57	2.34
655.72	4.68
655.86	0.00
656.01	11.70
656.15	18.72
656.30	49.15
656.44	35.11
656.58	0.00
656.73	88.94
656.87	65.54
657.01	0.00
657.16	28.09
657.30	107.66
657.45	65.54
657.59	35.11
657.73	18.72
657.88	37.45
658.02	70.22
658.16	42.13
658.31	65.54
658.45	53.83
658.60	39.79
658.74	2.34
658.88	21.06
659.03	23.41
659.17	53.83
659.31	37.45
659.46	0.00
659.60	100.64
659.74	46.81
659.89	0.00
660.03	0.00
660.17	28.09
660.32	91.28
660.46	39.79
660.60	23.41
660.74	65.54
660.89	4.68
661.03	0.00
661.17	0.00
661.32	105.32
661.46	72.56
661.60	2.34
661.74	2.34
661.89	79.58
662.03	53.83
662.17	0.00
662.31	0.00
662.46	39.79
662.60	30.43
662.74	44.47
662.88	2.34
663.03	4.68
663.17	53.83
663.31	23.41
663.45	7.02
663.60	65.54
663.74	56.17
663.88	84.26
664.02	77.24
664.17	93.62
664.31	0.00
664.45	7.02
664.59	53.83
664.73	98.30
664.88	49.15
665.02	37.45
665.16	11.70
665.30	63.19
665.44	14.04
665.59	0.00
665.73	0.00
665.87	21.06
666.01	37.45
666.15	0.00
666.29	0.00
666.44	23.41
666.58	56.17
666.72	53.83
666.86	32.77
667.00	32.77
667.14	0.00
667.28	37.45
667.43	18.72
667.57	32.77
667.71	37.45
667.85	23.41
667.99	0.00
668.13	0.00
668.27	46.81
668.41	100.64
668.56	23.41
668.70	14.04
668.84	65.54
668.98	21.06
669.12	51.49
669.26	142.77
669.40	4.68
669.54	77.24
669.68	79.58
669.82	72.56
669.96	25.75
670.10	28.09
670.25	102.98
670.39	63.19
670.53	65.54
670.67	39.79
670.81	25.75
670.95	30.43
671.09	2.34
671.23	0.00
671.37	105.32
671.51	21.06
671.65	35.11
671.79	0.00
671.93	30.43
672.07	72.56
672.21	0.00
672.35	0.00
672.49	0.00
672.63	18.72
672.77	7.02
672.91	58.51
673.05	100.64
673.19	60.85
673.33	25.75
673.47	0.00
673.61	2.34
673.75	81.92
673.89	49.15
674.03	42.13
674.17	0.00
674.31	72.56
674.45	58.51
674.59	16.38
674.73	16.38
674.87	11.70
675.01	0.00
675.15	9.36
675.29	72.56
675.43	37.45
675.56	14.04
675.70	56.17
675.84	51.49
675.98	14.04
676.12	56.17
676.26	63.19
676.40	2.34
676.54	60.85
676.68	14.04
676.82	18.72
676.96	4.68
677.10	28.09
677.23	60.85
677.37	7.02
677.51	46.81
677.65	0.00
677.79	44.47
677.93	35.11
678.07	58.51
678.21	51.49
678.34	0.00
678.48	11.70
678.62	35.11
678.76	63.19
678.90	53.83
679.04	23.41
679.18	28.09
679.31	0.00
679.45	18.72
679.59	72.56
679.73	21.06
679.87	21.06
680.00	14.04
680.14	49.15
680.28	98.30
680.42	86.60
680.56	35.11
680.70	117.03
680.83	14.04
680.97	63.19
681.11	16.38
681.25	14.04
681.39	30.43
681.52	18.72
681.66	0.00
681.80	0.00
681.94	0.00
682.07	65.54
682.21	35.11
682.35	11.70
682.49	84.26
682.62	0.00
682.76	56.17
682.90	42.13
683.04	35.11
683.17	0.00
683.31	0.00
683.45	49.15
683.59	49.15
683.72	84.26
683.86	37.45
684.00	30.43
684.13	7.02
684.27	21.06
684.41	93.62
684.55	16.38
684.68	32.77
684.82	49.15
684.96	84.26
685.09	0.00
685.23	0.00
685.37	65.54
685.50	28.09
685.64	42.13
685.78	11.70
685.91	25.75
686.05	56.17
686.19	0.00
686.32	0.00
686.46	58.51
686.60	98.30
686.73	77.24
686.87	30.43
687.01	32.77
687.14	0.00
687.28	0.00
687.42	18.72
687.55	9.36
687.69	30.43
687.82	39.79
687.96	0.00
688.10	30.43
688.23	11.70
688.37	39.79
688.50	0.00
688.64	21.06
688.78	0.00
688.91	21.06
689.05	39.79
689.18	67.88
689.32	63.19
689.46	4.68
689.59	0.00
689.73	39.79
689.86	44.47
690.00	32.77
690.13	0.00
690.27	53.83
690.41	81.92
690.54	16.38
690.68	35.11
690.81	0.00
690.95	37.45
691.08	37.45
691.22	4.68
691.35	21.06
691.49	63.19
691.62	0.00
691.76	30.43
691.89	30.43
692.03	79.58
692.16	60.85
692.30	0.00
692.43	35.11
692.57	16.38
692.70	18.72
692.84	23.41
692.97	0.00
693.11	7.02
693.24	77.24
693.38	72.56
693.51	7.02
693.65	67.88
693.78	37.45
693.92	21.06
694.05	16.38
694.19	16.38
694.32	30.43
694.45	49.15
694.59	0.00
694.72	0.00
694.86	35.11
694.99	18.72
695.13	14.04
695.26	21.06
695.39	74.90
695.53	65.54
695.66	11.70
695.80	2.34
695.93	0.00
696.07	44.47
696.20	53.83
696.33	56.17
696.47	46.81
696.60	0.00
696.73	128.73
696.87	16.38
697.00	30.43
697.14	49.15
697.27	58.51
697.40	9.36
697.54	51.49
697.67	39.79
697.80	53.83
697.94	0.00
698.07	0.00
698.21	72.56
698.34	72.56
698.47	0.00
698.61	79.58
698.74	63.19
698.87	53.83
699.01	14.04
699.14	0.00
699.27	79.58
699.40	0.00
699.54	35.11
699.67	0.00
699.80	28.09
699.94	25.75
700.07	18.72
700.20	4.68
700.34	70.22
700.47	53.83
700.60	37.45
700.73	4.68
700.87	18.72
701.00	81.92
701.13	63.19
701.26	30.43
701.40	0.00
701.53	0.00
701.66	30.43
701.79	0.00
701.93	4.68
702.06	0.00
702.19	0.00
702.32	21.06
702.46	51.49
702.59	28.09
702.72	0.00
702.85	42.13
702.99	49.15
703.12	121.71
703.25	0.00
703.38	21.06
703.51	0.00
703.65	0.00
703.78	56.17
703.91	77.24
704.04	30.43
704.17	25.75
704.31	32.77
704.44	7.02
704.57	105.32
704.70	14.04
704.83	0.00
704.96	77.24
705.10	21.06
705.23	18.72
>>>>>End Processed Spectral Data<<<<<
