SpectraSuite Data File
++++++++++++++++++++++++++++++++++++
Date: Fri Oct 04 12:13:29 GMT-05:00 2013
User: price-jones
Dark Spectrum Present: No
Reference Spectrum Present: No
Number of Sampled Component Spectra: 1
Spectrometers: USB2+H05261
Integration Time (usec): 10000 (USB2+H05261)
Spectra Averaged: 1 (USB2+H05261)
Boxcar Smoothing: 0 (USB2+H05261)
Correct for Electrical Dark: No (USB2+H05261)
Strobe/Lamp Enabled: No (USB2+H05261)
Correct for Detector Non-linearity: No (USB2+H05261)
Correct for Stray Light: No (USB2+H05261)
Number of Pixels in Processed Spectrum: 2048
>>>>>Begin Processed Spectral Data<<<<<
365.73	16.38
365.92	16.38
366.12	16.38
366.32	0.00
366.52	0.00
366.72	0.00
366.91	0.00
367.11	0.00
367.31	0.00
367.51	0.00
367.70	0.00
367.90	0.00
368.10	0.00
368.30	0.00
368.49	0.00
368.69	0.00
368.89	0.00
369.09	0.00
369.28	0.00
369.48	0.00
369.68	0.00
369.87	0.00
370.07	0.00
370.27	0.00
370.47	0.00
370.66	0.00
370.86	0.00
371.06	0.00
371.25	0.00
371.45	0.00
371.65	0.00
371.84	25.75
372.04	0.00
372.24	25.75
372.44	0.00
372.63	18.72
372.83	0.00
373.03	25.75
373.22	0.00
373.42	0.00
373.62	2.34
373.81	14.04
374.01	0.00
374.21	0.00
374.40	30.43
374.60	65.54
374.79	7.02
374.99	21.06
375.19	35.11
375.38	65.54
375.58	0.00
375.78	42.13
375.97	51.49
376.17	60.85
376.37	60.85
376.56	0.00
376.76	70.22
376.95	23.41
377.15	21.06
377.35	2.34
377.54	51.49
377.74	21.06
377.93	51.49
378.13	0.00
378.33	4.68
378.52	11.70
378.72	14.04
378.91	18.72
379.11	42.13
379.31	0.00
379.50	7.02
379.70	72.56
379.89	0.00
380.09	0.00
380.28	0.00
380.48	11.70
380.68	72.56
380.87	0.00
381.07	0.00
381.26	0.00
381.46	67.88
381.65	88.94
381.85	32.77
382.04	0.00
382.24	0.00
382.43	35.11
382.63	7.02
382.83	11.70
383.02	0.00
383.22	25.75
383.41	32.77
383.61	93.62
383.80	11.70
384.00	0.00
384.19	46.81
384.39	0.00
384.58	56.17
384.78	30.43
384.97	0.00
385.17	0.00
385.36	67.88
385.56	0.00
385.75	70.22
385.95	18.72
386.14	28.09
386.34	56.17
386.53	23.41
386.72	102.98
386.92	21.06
387.11	32.77
387.31	0.00
387.50	2.34
387.70	28.09
387.89	23.41
388.09	23.41
388.28	9.36
388.48	7.02
388.67	32.77
388.86	28.09
389.06	25.75
389.25	51.49
389.45	81.92
389.64	0.00
389.84	25.75
390.03	56.17
390.22	86.60
390.42	28.09
390.61	65.54
390.81	88.94
391.00	9.36
391.19	67.88
391.39	44.47
391.58	16.38
391.78	23.41
391.97	11.70
392.16	2.34
392.36	32.77
392.55	56.17
392.75	74.90
392.94	49.15
393.13	30.43
393.33	0.00
393.52	30.43
393.71	35.11
393.91	0.00
394.10	18.72
394.29	77.24
394.49	0.00
394.68	0.00
394.88	0.00
395.07	53.83
395.26	18.72
395.46	51.49
395.65	53.83
395.84	44.47
396.04	46.81
396.23	28.09
396.42	60.85
396.62	32.77
396.81	0.00
397.00	0.00
397.19	0.00
397.39	32.77
397.58	49.15
397.77	23.41
397.97	63.19
398.16	18.72
398.35	32.77
398.55	49.15
398.74	0.00
398.93	0.00
399.12	67.88
399.32	60.85
399.51	25.75
399.70	0.00
399.90	0.00
400.09	88.94
400.28	28.09
400.47	95.96
400.67	21.06
400.86	0.00
401.05	4.68
401.24	18.72
401.44	0.00
401.63	0.00
401.82	39.79
402.01	86.60
402.21	0.00
402.40	23.41
402.59	63.19
402.78	2.34
402.97	0.00
403.17	42.13
403.36	2.34
403.55	32.77
403.74	11.70
403.93	58.51
404.13	25.75
404.32	91.28
404.51	16.38
404.70	65.54
404.89	37.45
405.09	0.00
405.28	49.15
405.47	86.60
405.66	60.85
405.85	0.00
406.05	0.00
406.24	0.00
406.43	65.54
406.62	14.04
406.81	0.00
407.00	7.02
407.20	35.11
407.39	0.00
407.58	0.00
407.77	39.79
407.96	25.75
408.15	30.43
408.34	49.15
408.54	0.00
408.73	49.15
408.92	0.00
409.11	42.13
409.30	49.15
409.49	30.43
409.68	11.70
409.87	28.09
410.07	14.04
410.26	0.00
410.45	35.11
410.64	44.47
410.83	58.51
411.02	0.00
411.21	25.75
411.40	32.77
411.59	23.41
411.78	18.72
411.98	4.68
412.17	65.54
412.36	18.72
412.55	39.79
412.74	25.75
412.93	60.85
413.12	58.51
413.31	140.43
413.50	46.81
413.69	0.00
413.88	72.56
414.07	95.96
414.26	21.06
414.45	32.77
414.64	44.47
414.83	37.45
415.02	14.04
415.22	0.00
415.41	32.77
415.60	35.11
415.79	0.00
415.98	30.43
416.17	98.30
416.36	2.34
416.55	14.04
416.74	9.36
416.93	4.68
417.12	102.98
417.31	60.85
417.50	72.56
417.69	2.34
417.88	25.75
418.07	9.36
418.26	0.00
418.45	0.00
418.64	37.45
418.83	44.47
419.02	44.47
419.21	42.13
419.39	53.83
419.58	60.85
419.77	25.75
419.96	11.70
420.15	86.60
420.34	30.43
420.53	0.00
420.72	16.38
420.91	28.09
421.10	0.00
421.29	32.77
421.48	14.04
421.67	0.00
421.86	4.68
422.05	0.00
422.24	0.00
422.43	58.51
422.61	25.75
422.80	77.24
422.99	77.24
423.18	0.00
423.37	110.01
423.56	14.04
423.75	16.38
423.94	77.24
424.13	28.09
424.32	79.58
424.50	0.00
424.69	53.83
424.88	0.00
425.07	0.00
425.26	0.00
425.45	44.47
425.64	46.81
425.83	37.45
426.01	60.85
426.20	0.00
426.39	14.04
426.58	0.00
426.77	51.49
426.96	14.04
427.15	25.75
427.33	7.02
427.52	0.00
427.71	102.98
427.90	25.75
428.09	56.17
428.28	0.00
428.46	0.00
428.65	0.00
428.84	88.94
429.03	0.00
429.22	14.04
429.40	58.51
429.59	0.00
429.78	65.54
429.97	14.04
430.16	7.02
430.34	67.88
430.53	14.04
430.72	25.75
430.91	0.00
431.10	9.36
431.28	72.56
431.47	0.00
431.66	30.43
431.85	56.17
432.03	0.00
432.22	11.70
432.41	30.43
432.60	49.15
432.79	16.38
432.97	53.83
433.16	18.72
433.35	28.09
433.54	42.13
433.72	51.49
433.91	32.77
434.10	21.06
434.28	37.45
434.47	81.92
434.66	46.81
434.85	16.38
435.03	0.00
435.22	32.77
435.41	42.13
435.59	18.72
435.78	32.77
435.97	23.41
436.16	37.45
436.34	16.38
436.53	39.79
436.72	46.81
436.90	0.00
437.09	4.68
437.28	0.00
437.46	91.28
437.65	79.58
437.84	23.41
438.02	88.94
438.21	60.85
438.40	0.00
438.58	30.43
438.77	0.00
438.96	7.02
439.14	0.00
439.33	39.79
439.52	21.06
439.70	72.56
439.89	58.51
440.08	0.00
440.26	21.06
440.45	0.00
440.63	70.22
440.82	21.06
441.01	53.83
441.19	23.41
441.38	18.72
441.57	93.62
441.75	77.24
441.94	0.00
442.12	23.41
442.31	74.90
442.50	0.00
442.68	37.45
442.87	25.75
443.05	9.36
443.24	98.30
443.43	37.45
443.61	0.00
443.80	2.34
443.98	25.75
444.17	0.00
444.35	110.01
444.54	0.00
444.73	72.56
444.91	51.49
445.10	32.77
445.28	25.75
445.47	30.43
445.65	2.34
445.84	7.02
446.02	56.17
446.21	58.51
446.39	72.56
446.58	0.00
446.77	72.56
446.95	28.09
447.14	28.09
447.32	21.06
447.51	37.45
447.69	0.00
447.88	42.13
448.06	72.56
448.25	16.38
448.43	16.38
448.62	18.72
448.80	0.00
448.99	25.75
449.17	70.22
449.36	25.75
449.54	0.00
449.73	23.41
449.91	0.00
450.10	53.83
450.28	88.94
450.46	23.41
450.65	53.83
450.83	88.94
451.02	30.43
451.20	60.85
451.39	11.70
451.57	60.85
451.76	0.00
451.94	23.41
452.13	28.09
452.31	18.72
452.49	60.85
452.68	0.00
452.86	0.00
453.05	51.49
453.23	72.56
453.42	0.00
453.60	2.34
453.78	63.19
453.97	4.68
454.15	30.43
454.34	72.56
454.52	67.88
454.70	39.79
454.89	23.41
455.07	74.90
455.26	58.51
455.44	2.34
455.62	28.09
455.81	16.38
455.99	0.00
456.17	0.00
456.36	49.15
456.54	98.30
456.73	0.00
456.91	51.49
457.09	0.00
457.28	67.88
457.46	60.85
457.64	49.15
457.83	7.02
458.01	67.88
458.19	79.58
458.38	51.49
458.56	49.15
458.74	42.13
458.93	9.36
459.11	0.00
459.29	114.69
459.48	0.00
459.66	0.00
459.84	60.85
460.03	46.81
460.21	16.38
460.39	86.60
460.57	35.11
460.76	28.09
460.94	0.00
461.12	79.58
461.31	81.92
461.49	16.38
461.67	53.83
461.85	0.00
462.04	51.49
462.22	74.90
462.40	0.00
462.59	25.75
462.77	37.45
462.95	0.00
463.13	0.00
463.32	0.00
463.50	25.75
463.68	72.56
463.86	46.81
464.05	30.43
464.23	0.00
464.41	72.56
464.59	46.81
464.78	11.70
464.96	23.41
465.14	49.15
465.32	53.83
465.50	51.49
465.69	49.15
465.87	0.00
466.05	0.00
466.23	0.00
466.41	72.56
466.60	49.15
466.78	35.11
466.96	28.09
467.14	0.00
467.32	2.34
467.51	77.24
467.69	74.90
467.87	0.00
468.05	37.45
468.23	0.00
468.41	100.64
468.60	77.24
468.78	39.79
468.96	39.79
469.14	0.00
469.32	0.00
469.50	0.00
469.69	14.04
469.87	86.60
470.05	9.36
470.23	51.49
470.41	51.49
470.59	60.85
470.77	0.00
470.95	46.81
471.14	0.00
471.32	18.72
471.50	0.00
471.68	51.49
471.86	11.70
472.04	0.00
472.22	93.62
472.40	60.85
472.58	77.24
472.77	100.64
472.95	4.68
473.13	0.00
473.31	35.11
473.49	74.90
473.67	28.09
473.85	18.72
474.03	37.45
474.21	7.02
474.39	65.54
474.57	0.00
474.75	49.15
474.93	30.43
475.12	0.00
475.30	42.13
475.48	67.88
475.66	63.19
475.84	0.00
476.02	7.02
476.20	16.38
476.38	46.81
476.56	77.24
476.74	44.47
476.92	60.85
477.10	46.81
477.28	21.06
477.46	70.22
477.64	37.45
477.82	56.17
478.00	51.49
478.18	81.92
478.36	63.19
478.54	42.13
478.72	0.00
478.90	72.56
479.08	60.85
479.26	0.00
479.44	25.75
479.62	21.06
479.80	23.41
479.98	46.81
480.16	30.43
480.34	79.58
480.52	65.54
480.70	86.60
480.88	23.41
481.06	79.58
481.24	28.09
481.41	0.00
481.59	35.11
481.77	30.43
481.95	49.15
482.13	28.09
482.31	79.58
482.49	46.81
482.67	53.83
482.85	46.81
483.03	0.00
483.21	35.11
483.39	4.68
483.57	42.13
483.74	16.38
483.92	39.79
484.10	16.38
484.28	0.00
484.46	56.17
484.64	49.15
484.82	37.45
485.00	2.34
485.18	37.45
485.35	0.00
485.53	51.49
485.71	51.49
485.89	49.15
486.07	81.92
486.25	9.36
486.43	0.00
486.61	21.06
486.78	49.15
486.96	30.43
487.14	65.54
487.32	37.45
487.50	7.02
487.68	23.41
487.85	28.09
488.03	37.45
488.21	56.17
488.39	67.88
488.57	46.81
488.75	0.00
488.92	138.09
489.10	0.00
489.28	65.54
489.46	46.81
489.64	39.79
489.81	0.00
489.99	49.15
490.17	51.49
490.35	65.54
490.53	11.70
490.70	0.00
490.88	37.45
491.06	46.81
491.24	37.45
491.41	70.22
491.59	63.19
491.77	23.41
491.95	4.68
492.13	16.38
492.30	74.90
492.48	0.00
492.66	42.13
492.84	0.00
493.01	37.45
493.19	67.88
493.37	35.11
493.54	28.09
493.72	140.43
493.90	0.00
494.08	51.49
494.25	23.41
494.43	28.09
494.61	58.51
494.79	21.06
494.96	32.77
495.14	30.43
495.32	110.01
495.49	72.56
495.67	18.72
495.85	79.58
496.02	72.56
496.20	84.26
496.38	58.51
496.55	49.15
496.73	100.64
496.91	51.49
497.09	0.00
497.26	23.41
497.44	56.17
497.62	63.19
497.79	30.43
497.97	105.32
498.14	79.58
498.32	88.94
498.50	0.00
498.67	30.43
498.85	51.49
499.03	44.47
499.20	9.36
499.38	21.06
499.56	18.72
499.73	67.88
499.91	42.13
500.08	0.00
500.26	0.00
500.44	9.36
500.61	86.60
500.79	7.02
500.97	51.49
501.14	51.49
501.32	51.49
501.49	88.94
501.67	53.83
501.84	37.45
502.02	25.75
502.20	86.60
502.37	60.85
502.55	58.51
502.72	74.90
502.90	102.98
503.07	9.36
503.25	9.36
503.43	56.17
503.60	67.88
503.78	39.79
503.95	11.70
504.13	53.83
504.30	63.19
504.48	0.00
504.65	42.13
504.83	23.41
505.01	37.45
505.18	16.38
505.36	18.72
505.53	2.34
505.71	0.00
505.88	28.09
506.06	25.75
506.23	0.00
506.41	0.00
506.58	23.41
506.76	53.83
506.93	39.79
507.11	18.72
507.28	49.15
507.46	16.38
507.63	79.58
507.81	4.68
507.98	18.72
508.16	30.43
508.33	0.00
508.50	23.41
508.68	28.09
508.85	44.47
509.03	30.43
509.20	60.85
509.38	30.43
509.55	14.04
509.73	107.66
509.90	128.73
510.08	44.47
510.25	39.79
510.42	35.11
510.60	42.13
510.77	25.75
510.95	37.45
511.12	95.96
511.30	65.54
511.47	21.06
511.64	67.88
511.82	32.77
511.99	25.75
512.17	0.00
512.34	9.36
512.51	77.24
512.69	0.00
512.86	56.17
513.04	58.51
513.21	16.38
513.38	0.00
513.56	28.09
513.73	9.36
513.90	65.54
514.08	0.00
514.25	35.11
514.43	60.85
514.60	0.00
514.77	63.19
514.95	74.90
515.12	81.92
515.29	67.88
515.47	105.32
515.64	56.17
515.81	56.17
515.99	110.01
516.16	35.11
516.33	16.38
516.51	0.00
516.68	0.00
516.85	0.00
517.03	0.00
517.20	28.09
517.37	70.22
517.54	72.56
517.72	58.51
517.89	65.54
518.06	60.85
518.24	4.68
518.41	42.13
518.58	53.83
518.75	18.72
518.93	39.79
519.10	21.06
519.27	91.28
519.45	0.00
519.62	30.43
519.79	0.00
519.96	9.36
520.14	25.75
520.31	11.70
520.48	51.49
520.65	2.34
520.83	16.38
521.00	0.00
521.17	21.06
521.34	60.85
521.52	2.34
521.69	32.77
521.86	65.54
522.03	86.60
522.20	0.00
522.38	65.54
522.55	51.49
522.72	0.00
522.89	39.79
523.07	30.43
523.24	53.83
523.41	95.96
523.58	95.96
523.75	18.72
523.92	35.11
524.10	46.81
524.27	25.75
524.44	0.00
524.61	93.62
524.78	84.26
524.96	18.72
525.13	65.54
525.30	63.19
525.47	42.13
525.64	2.34
525.81	21.06
525.98	0.00
526.16	53.83
526.33	42.13
526.50	0.00
526.67	72.56
526.84	0.00
527.01	65.54
527.18	37.45
527.36	4.68
527.53	23.41
527.70	44.47
527.87	11.70
528.04	0.00
528.21	44.47
528.38	67.88
528.55	0.00
528.72	84.26
528.89	2.34
529.07	16.38
529.24	0.00
529.41	0.00
529.58	72.56
529.75	60.85
529.92	107.66
530.09	53.83
530.26	0.00
530.43	25.75
530.60	39.79
530.77	63.19
530.94	63.19
531.11	44.47
531.28	72.56
531.46	39.79
531.63	70.22
531.80	35.11
531.97	28.09
532.14	60.85
532.31	25.75
532.48	42.13
532.65	51.49
532.82	107.66
532.99	65.54
533.16	67.88
533.33	168.52
533.50	28.09
533.67	32.77
533.84	95.96
534.01	51.49
534.18	149.79
534.35	107.66
534.52	72.56
534.69	81.92
534.86	16.38
535.03	42.13
535.20	0.00
535.37	39.79
535.54	88.94
535.71	112.35
535.88	0.00
536.05	2.34
536.22	35.11
536.38	46.81
536.55	21.06
536.72	44.47
536.89	37.45
537.06	23.41
537.23	30.43
537.40	100.64
537.57	107.66
537.74	91.28
537.91	77.24
538.08	100.64
538.25	37.45
538.42	21.06
538.59	67.88
538.75	138.09
538.92	49.15
539.09	0.00
539.26	32.77
539.43	72.56
539.60	152.13
539.77	187.24
539.94	105.32
540.11	131.07
540.28	126.39
540.44	121.71
540.61	18.72
540.78	53.83
540.95	35.11
541.12	105.32
541.29	16.38
541.46	49.15
541.62	79.58
541.79	21.06
541.96	70.22
542.13	77.24
542.30	88.94
542.47	0.00
542.63	25.75
542.80	60.85
542.97	0.00
543.14	58.51
543.31	56.17
543.48	39.79
543.64	81.92
543.81	2.34
543.98	21.06
544.15	0.00
544.32	23.41
544.48	32.77
544.65	21.06
544.82	63.19
544.99	35.11
545.16	60.85
545.32	72.56
545.49	77.24
545.66	23.41
545.83	0.00
546.00	51.49
546.16	0.00
546.33	28.09
546.50	72.56
546.67	0.00
546.83	0.00
547.00	86.60
547.17	67.88
547.34	51.49
547.50	21.06
547.67	46.81
547.84	0.00
548.00	72.56
548.17	102.98
548.34	28.09
548.51	23.41
548.67	2.34
548.84	77.24
549.01	72.56
549.18	49.15
549.34	23.41
549.51	119.37
549.68	16.38
549.84	18.72
550.01	51.49
550.18	72.56
550.34	2.34
550.51	37.45
550.68	70.22
550.84	53.83
551.01	0.00
551.18	65.54
551.34	72.56
551.51	46.81
551.68	32.77
551.84	42.13
552.01	49.15
552.18	7.02
552.34	44.47
552.51	23.41
552.68	16.38
552.84	46.81
553.01	46.81
553.18	79.58
553.34	72.56
553.51	56.17
553.67	0.00
553.84	53.83
554.01	35.11
554.17	58.51
554.34	91.28
554.51	32.77
554.67	16.38
554.84	72.56
555.00	74.90
555.17	65.54
555.33	88.94
555.50	23.41
555.67	0.00
555.83	53.83
556.00	4.68
556.16	30.43
556.33	105.32
556.50	56.17
556.66	21.06
556.83	23.41
556.99	11.70
557.16	21.06
557.32	30.43
557.49	16.38
557.65	56.17
557.82	0.00
557.98	49.15
558.15	16.38
558.32	56.17
558.48	58.51
558.65	84.26
558.81	65.54
558.98	32.77
559.14	56.17
559.31	102.98
559.47	11.70
559.64	112.35
559.80	74.90
559.97	58.51
560.13	74.90
560.30	39.79
560.46	39.79
560.63	28.09
560.79	18.72
560.96	4.68
561.12	74.90
561.29	117.03
561.45	72.56
561.61	63.19
561.78	63.19
561.94	0.00
562.11	42.13
562.27	173.20
562.44	0.00
562.60	56.17
562.77	60.85
562.93	72.56
563.10	30.43
563.26	63.19
563.42	51.49
563.59	63.19
563.75	0.00
563.92	25.75
564.08	0.00
564.24	0.00
564.41	63.19
564.57	35.11
564.74	0.00
564.90	30.43
565.07	60.85
565.23	72.56
565.39	37.45
565.56	4.68
565.72	39.79
565.88	0.00
566.05	7.02
566.21	105.32
566.38	88.94
566.54	51.49
566.70	2.34
566.87	46.81
567.03	25.75
567.19	23.41
567.36	28.09
567.52	9.36
567.68	39.79
567.85	2.34
568.01	7.02
568.17	0.00
568.34	79.58
568.50	74.90
568.66	25.75
568.83	35.11
568.99	70.22
569.15	16.38
569.32	9.36
569.48	37.45
569.64	9.36
569.81	2.34
569.97	0.00
570.13	42.13
570.30	16.38
570.46	39.79
570.62	28.09
570.78	60.85
570.95	53.83
571.11	0.00
571.27	28.09
571.43	32.77
571.60	72.56
571.76	46.81
571.92	0.00
572.09	30.43
572.25	0.00
572.41	0.00
572.57	98.30
572.74	23.41
572.90	0.00
573.06	51.49
573.22	58.51
573.38	16.38
573.55	35.11
573.71	21.06
573.87	49.15
574.03	32.77
574.20	0.00
574.36	65.54
574.52	88.94
574.68	86.60
574.84	107.66
575.01	65.54
575.17	30.43
575.33	9.36
575.49	37.45
575.65	95.96
575.82	63.19
575.98	58.51
576.14	79.58
576.30	16.38
576.46	102.98
576.62	39.79
576.79	53.83
576.95	0.00
577.11	44.47
577.27	63.19
577.43	23.41
577.59	0.00
577.75	81.92
577.92	16.38
578.08	35.11
578.24	140.43
578.40	58.51
578.56	56.17
578.72	0.00
578.88	39.79
579.04	51.49
579.21	7.02
579.37	51.49
579.53	32.77
579.69	9.36
579.85	30.43
580.01	93.62
580.17	110.01
580.33	72.56
580.49	0.00
580.65	35.11
580.82	74.90
580.98	25.75
581.14	79.58
581.30	70.22
581.46	51.49
581.62	56.17
581.78	60.85
581.94	30.43
582.10	49.15
582.26	7.02
582.42	0.00
582.58	0.00
582.74	0.00
582.90	77.24
583.06	0.00
583.22	2.34
583.38	74.90
583.54	67.88
583.70	91.28
583.86	117.03
584.02	56.17
584.18	79.58
584.34	140.43
584.50	292.57
584.66	2029.24
584.82	4702.14
584.98	6410.73
585.14	5437.06
585.30	3492.08
585.46	2141.59
585.62	1416.02
585.78	751.31
585.94	285.55
586.10	140.43
586.26	145.11
586.42	51.49
586.58	72.56
586.74	117.03
586.90	84.26
587.06	25.75
587.22	30.43
587.38	84.26
587.54	145.11
587.70	301.93
587.86	505.56
588.02	449.38
588.18	341.72
588.34	320.65
588.49	152.13
588.65	135.75
588.81	154.48
588.97	95.96
589.13	60.85
589.29	72.56
589.45	53.83
589.61	53.83
589.77	4.68
589.93	42.13
590.08	58.51
590.24	65.54
590.40	25.75
590.56	65.54
590.72	63.19
590.88	51.49
591.04	2.34
591.20	63.19
591.35	0.00
591.51	88.94
591.67	23.41
591.83	84.26
591.99	39.79
592.15	72.56
592.31	0.00
592.46	32.77
592.62	102.98
592.78	11.70
592.94	81.92
593.10	28.09
593.26	32.77
593.41	0.00
593.57	58.51
593.73	135.75
593.89	348.74
594.05	631.94
594.20	751.31
594.36	795.78
594.52	533.64
594.68	390.87
594.84	220.01
594.99	93.62
595.15	67.88
595.31	63.19
595.47	56.17
595.62	0.00
595.78	0.00
595.94	65.54
596.10	56.17
596.25	107.66
596.41	0.00
596.57	0.00
596.73	16.38
596.88	18.72
597.04	220.01
597.20	135.75
597.36	201.29
597.51	166.18
597.67	175.54
597.83	79.58
597.99	72.56
598.14	44.47
598.30	42.13
598.46	70.22
598.61	0.00
598.77	39.79
598.93	18.72
599.09	37.45
599.24	25.75
599.40	56.17
599.56	28.09
599.71	42.13
599.87	98.30
600.03	23.41
600.18	79.58
600.34	56.17
600.50	4.68
600.65	18.72
600.81	37.45
600.97	28.09
601.12	44.47
601.28	37.45
601.44	74.90
601.59	63.19
601.75	117.03
601.91	25.75
602.06	30.43
602.22	0.00
602.37	35.11
602.53	133.41
602.69	276.18
602.84	201.29
603.00	198.95
603.16	145.11
603.31	88.94
603.47	110.01
603.62	46.81
603.78	86.60
603.94	32.77
604.09	91.28
604.25	42.13
604.40	105.32
604.56	35.11
604.71	91.28
604.87	98.30
605.03	95.96
605.18	107.66
605.34	53.83
605.49	37.45
605.65	44.47
605.80	21.06
605.96	53.83
606.12	107.66
606.27	42.13
606.43	56.17
606.58	84.26
606.74	98.30
606.89	308.95
607.05	674.07
607.20	688.12
607.36	645.99
607.51	315.97
607.67	283.20
607.82	217.67
607.98	194.26
608.13	60.85
608.29	95.96
608.44	44.47
608.60	21.06
608.75	88.94
608.91	93.62
609.06	528.96
609.22	966.64
609.37	1289.64
609.53	1078.99
609.68	732.59
609.84	484.49
609.99	287.89
610.15	189.58
610.30	100.64
610.46	98.30
610.61	25.75
610.76	53.83
610.92	32.77
611.07	0.00
611.23	95.96
611.38	18.72
611.54	79.58
611.69	0.00
611.84	37.45
612.00	0.00
612.15	39.79
612.31	23.41
612.46	35.11
612.62	65.54
612.77	16.38
612.92	114.69
613.08	0.00
613.23	28.09
613.39	121.71
613.54	98.30
613.69	477.47
613.85	1277.93
614.00	1778.81
614.15	1968.39
614.31	1404.32
614.46	910.47
614.62	613.22
614.77	341.72
614.92	198.95
615.08	60.85
615.23	58.51
615.38	39.79
615.54	81.92
615.69	58.51
615.84	269.16
616.00	472.79
616.15	521.94
616.30	416.62
616.46	259.80
616.61	250.44
616.76	154.48
616.92	86.60
617.07	114.69
617.22	11.70
617.37	107.66
617.53	56.17
617.68	56.17
617.83	0.00
617.99	46.81
618.14	46.81
618.29	25.75
618.45	2.34
618.60	56.17
618.75	51.49
618.90	0.00
619.06	46.81
619.21	72.56
619.36	9.36
619.51	42.13
619.67	16.38
619.82	0.00
619.97	51.49
620.12	7.02
620.28	0.00
620.43	14.04
620.58	35.11
620.73	14.04
620.89	2.34
621.04	107.66
621.19	131.07
621.34	234.05
621.49	348.74
621.65	269.16
621.80	182.56
621.95	121.71
622.10	161.50
622.25	117.03
622.41	28.09
622.56	0.00
622.71	84.26
622.86	4.68
623.01	110.01
623.16	0.00
623.32	81.92
623.47	0.00
623.62	63.19
623.77	39.79
623.92	14.04
624.07	0.00
624.23	74.90
624.38	70.22
624.53	42.13
624.68	77.24
624.83	7.02
624.98	72.56
625.13	0.00
625.29	42.13
625.44	30.43
625.59	65.54
625.74	2.34
625.89	156.82
626.04	299.59
626.19	624.92
626.34	880.04
626.49	1064.94
626.65	816.85
626.80	568.75
626.95	365.12
627.10	205.97
627.25	112.35
627.40	86.60
627.55	49.15
627.70	30.43
627.85	7.02
628.00	46.81
628.15	14.04
628.30	72.56
628.45	74.90
628.60	0.00
628.76	81.92
628.91	98.30
629.06	25.75
629.21	2.34
629.36	95.96
629.51	28.09
629.66	44.47
629.81	14.04
629.96	140.43
630.11	220.01
630.26	262.14
630.41	248.10
630.56	170.86
630.71	180.22
630.86	100.64
631.01	46.81
631.16	131.07
631.31	42.13
631.46	70.22
631.61	51.49
631.76	0.00
631.91	0.00
632.06	0.00
632.21	11.70
632.36	0.00
632.51	2.34
632.66	35.11
632.81	98.30
632.96	388.53
633.10	610.88
633.25	791.10
633.40	500.87
633.55	404.91
633.70	266.82
633.85	231.71
634.00	133.41
634.15	53.83
634.30	67.88
634.45	39.79
634.60	0.00
634.75	88.94
634.90	28.09
635.05	0.00
635.19	0.00
635.34	105.32
635.49	39.79
635.64	53.83
635.79	11.70
635.94	39.79
636.09	53.83
636.24	65.54
636.39	84.26
636.53	16.38
636.68	37.45
636.83	98.30
636.98	84.26
637.13	42.13
637.28	93.62
637.43	77.24
637.57	49.15
637.72	365.12
637.87	840.25
638.02	1139.84
638.17	1296.66
638.32	1029.84
638.46	645.99
638.61	458.74
638.76	266.82
638.91	182.56
639.06	88.94
639.20	128.73
639.35	107.66
639.50	152.13
639.65	575.77
639.80	1165.59
639.94	1874.77
640.09	2012.86
640.24	1401.98
640.39	990.05
640.54	727.91
640.68	430.66
640.83	208.31
640.98	100.64
641.13	112.35
641.27	63.19
641.42	30.43
641.57	81.92
641.72	60.85
641.86	0.00
642.01	42.13
642.16	28.09
642.31	35.11
642.45	53.83
642.60	72.56
642.75	58.51
642.90	0.00
643.04	0.00
643.19	18.72
643.34	0.00
643.48	28.09
643.63	0.00
643.78	0.00
643.93	63.19
644.07	0.00
644.22	58.51
644.37	0.00
644.51	30.43
644.66	0.00
644.81	0.00
644.95	81.92
645.10	49.15
645.25	46.81
645.39	42.13
645.54	44.47
645.69	14.04
645.83	98.30
645.98	60.85
646.13	88.94
646.27	37.45
646.42	28.09
646.57	0.00
646.71	72.56
646.86	51.49
647.00	56.17
647.15	60.85
647.30	9.36
647.44	23.41
647.59	0.00
647.74	63.19
647.88	44.47
648.03	2.34
648.17	0.00
648.32	126.39
648.47	25.75
648.61	0.00
648.76	28.09
648.90	37.45
649.05	0.00
649.20	63.19
649.34	42.13
649.49	0.00
649.63	49.15
649.78	21.06
649.92	168.52
650.07	205.97
650.21	564.07
650.36	863.66
650.51	987.71
650.65	823.87
650.80	514.92
650.94	505.56
651.09	285.55
651.23	119.37
651.38	117.03
651.52	60.85
651.67	147.45
651.81	98.30
651.96	86.60
652.10	58.51
652.25	49.15
652.39	72.56
652.54	28.09
652.68	173.20
652.83	170.86
652.97	266.82
653.12	318.31
653.26	313.63
653.41	287.89
653.55	191.92
653.70	74.90
653.84	98.30
653.99	56.17
654.13	35.11
654.27	60.85
654.42	107.66
654.56	81.92
654.71	65.54
654.85	30.43
655.00	30.43
655.14	107.66
655.29	16.38
655.43	18.72
655.57	28.09
655.72	0.00
655.86	14.04
656.01	0.00
656.15	0.00
656.30	53.83
656.44	35.11
656.58	58.51
656.73	126.39
656.87	18.72
657.01	23.41
657.16	2.34
657.30	37.45
657.45	56.17
657.59	53.83
657.73	0.00
657.88	7.02
658.02	42.13
658.16	65.54
658.31	65.54
658.45	51.49
658.60	56.17
658.74	21.06
658.88	28.09
659.03	58.51
659.17	0.00
659.31	63.19
659.46	252.78
659.60	475.13
659.74	498.53
659.89	496.19
660.03	353.42
660.17	257.46
660.32	191.92
660.46	56.17
660.60	25.75
660.74	11.70
660.89	25.75
661.03	0.00
661.17	63.19
661.32	56.17
661.46	70.22
661.60	46.81
661.74	70.22
661.89	93.62
662.03	98.30
662.17	60.85
662.31	14.04
662.46	93.62
662.60	117.03
662.74	77.24
662.88	53.83
663.03	56.17
663.17	72.56
663.31	0.00
663.45	0.00
663.60	39.79
663.74	37.45
663.88	79.58
664.02	28.09
664.17	58.51
664.31	53.83
664.45	7.02
664.59	0.00
664.73	77.24
664.88	42.13
665.02	65.54
665.16	46.81
665.30	86.60
665.44	28.09
665.59	14.04
665.73	79.58
665.87	0.00
666.01	4.68
666.15	39.79
666.29	4.68
666.44	42.13
666.58	86.60
666.72	42.13
666.86	42.13
667.00	25.75
667.14	23.41
667.28	184.90
667.43	428.32
667.57	702.16
667.71	938.55
667.85	781.74
667.99	557.05
668.13	355.76
668.27	287.89
668.41	121.71
668.56	88.94
668.70	138.09
668.84	23.41
668.98	0.00
669.12	65.54
669.26	18.72
669.40	0.00
669.54	93.62
669.68	39.79
669.82	25.75
669.96	21.06
670.10	28.09
670.25	77.24
670.39	37.45
670.53	21.06
670.67	32.77
670.81	39.79
670.95	105.32
671.09	114.69
671.23	203.63
671.37	367.46
671.51	526.62
671.65	580.45
671.79	472.79
671.93	322.99
672.07	152.13
672.21	156.82
672.35	135.75
672.49	7.02
672.63	49.15
672.77	56.17
672.91	77.24
673.05	32.77
673.19	117.03
673.33	0.00
673.47	70.22
673.61	4.68
673.75	0.00
673.89	58.51
674.03	14.04
674.17	119.37
674.31	58.51
674.45	21.06
674.59	49.15
674.73	74.90
674.87	128.73
675.01	23.41
675.15	77.24
675.29	32.77
675.43	32.77
675.56	70.22
675.70	0.00
675.84	14.04
675.98	60.85
676.12	0.00
676.26	30.43
676.40	0.00
676.54	4.68
676.68	49.15
676.82	0.00
676.96	21.06
677.10	65.54
677.23	51.49
677.37	70.22
677.51	0.00
677.65	49.15
677.79	63.19
677.93	18.72
678.07	25.75
678.21	32.77
678.34	58.51
678.48	23.41
678.62	0.00
678.76	21.06
678.90	16.38
679.04	133.41
679.18	0.00
679.31	0.00
679.45	9.36
679.59	32.77
679.73	0.00
679.87	49.15
680.00	44.47
680.14	51.49
680.28	53.83
680.42	74.90
680.56	23.41
680.70	124.05
680.83	49.15
680.97	77.24
681.11	9.36
681.25	35.11
681.39	51.49
681.52	18.72
681.66	35.11
681.80	4.68
681.94	0.00
682.07	79.58
682.21	93.62
682.35	0.00
682.49	28.09
682.62	35.11
682.76	25.75
682.90	0.00
683.04	0.00
683.17	72.56
683.31	51.49
683.45	35.11
683.59	98.30
683.72	93.62
683.86	44.47
684.00	0.00
684.13	44.47
684.27	16.38
684.41	56.17
684.55	88.94
684.68	53.83
684.82	7.02
684.96	39.79
685.09	14.04
685.23	44.47
685.37	18.72
685.50	70.22
685.64	53.83
685.78	63.19
685.91	56.17
686.05	0.00
686.19	21.06
686.32	67.88
686.46	60.85
686.60	30.43
686.73	51.49
686.87	16.38
687.01	0.00
687.14	0.00
687.28	79.58
687.42	60.85
687.55	51.49
687.69	28.09
687.82	0.00
687.96	56.17
688.10	7.02
688.23	0.00
688.37	14.04
688.50	16.38
688.64	7.02
688.78	35.11
688.91	16.38
689.05	14.04
689.18	0.00
689.32	65.54
689.46	9.36
689.59	0.00
689.73	39.79
689.86	0.00
690.00	72.56
690.13	7.02
690.27	84.26
690.41	30.43
690.54	37.45
690.68	0.00
690.81	51.49
690.95	2.34
691.08	0.00
691.22	0.00
691.35	32.77
691.49	35.11
691.62	67.88
691.76	30.43
691.89	9.36
692.03	35.11
692.16	0.00
692.30	0.00
692.43	102.98
692.57	266.82
692.70	292.57
692.84	369.80
692.97	360.44
693.11	227.03
693.24	248.10
693.38	203.63
693.51	191.92
693.65	100.64
693.78	44.47
693.92	58.51
694.05	93.62
694.19	0.00
694.32	0.00
694.45	0.00
694.59	9.36
694.72	58.51
694.86	93.62
694.99	56.17
695.13	21.06
695.26	70.22
695.39	84.26
695.53	39.79
695.66	58.51
695.80	11.70
695.93	42.13
696.07	21.06
696.20	65.54
696.33	16.38
696.47	84.26
696.60	56.17
696.73	7.02
696.87	46.81
697.00	65.54
697.14	63.19
697.27	25.75
697.40	0.00
697.54	25.75
697.67	58.51
697.80	23.41
697.94	7.02
698.07	0.00
698.21	0.00
698.34	11.70
698.47	0.00
698.61	9.36
698.74	4.68
698.87	18.72
699.01	58.51
699.14	0.00
699.27	0.00
699.40	32.77
699.54	0.00
699.67	37.45
699.80	70.22
699.94	0.00
700.07	14.04
700.20	2.34
700.34	44.47
700.47	9.36
700.60	84.26
700.73	56.17
700.87	74.90
701.00	9.36
701.13	4.68
701.26	0.00
701.40	46.81
701.53	28.09
701.66	39.79
701.79	0.00
701.93	0.00
702.06	9.36
702.19	74.90
702.32	23.41
702.46	72.56
702.59	133.41
702.72	131.07
702.85	222.35
702.99	540.66
703.12	643.65
703.25	741.95
703.38	610.88
703.51	592.16
703.65	374.49
703.78	234.05
703.91	152.13
704.04	152.13
704.17	53.83
704.31	23.41
704.44	0.00
704.57	93.62
704.70	9.36
704.83	2.34
704.96	70.22
705.10	32.77
705.23	72.56
>>>>>End Processed Spectral Data<<<<<
