SpectraSuite Data File
++++++++++++++++++++++++++++++++++++
Date: Fri Oct 04 12:13:42 GMT-05:00 2013
User: price-jones
Dark Spectrum Present: No
Reference Spectrum Present: No
Number of Sampled Component Spectra: 1
Spectrometers: USB2+H05261
Integration Time (usec): 10000 (USB2+H05261)
Spectra Averaged: 1 (USB2+H05261)
Boxcar Smoothing: 0 (USB2+H05261)
Correct for Electrical Dark: No (USB2+H05261)
Strobe/Lamp Enabled: No (USB2+H05261)
Correct for Detector Non-linearity: No (USB2+H05261)
Correct for Stray Light: No (USB2+H05261)
Number of Pixels in Processed Spectrum: 2048
>>>>>Begin Processed Spectral Data<<<<<
365.73	23.41
365.92	23.41
366.12	23.41
366.32	0.00
366.52	0.00
366.72	0.00
366.91	0.00
367.11	0.00
367.31	0.00
367.51	0.00
367.70	0.00
367.90	0.00
368.10	0.00
368.30	0.00
368.49	0.00
368.69	0.00
368.89	0.00
369.09	0.00
369.28	0.00
369.48	0.00
369.68	0.00
369.87	0.00
370.07	0.00
370.27	0.00
370.47	0.00
370.66	0.00
370.86	0.00
371.06	0.00
371.25	0.00
371.45	0.00
371.65	39.79
371.84	9.36
372.04	0.00
372.24	0.00
372.44	0.00
372.63	0.00
372.83	42.13
373.03	18.72
373.22	23.41
373.42	32.77
373.62	30.43
373.81	0.00
374.01	0.00
374.21	117.03
374.40	0.00
374.60	65.54
374.79	9.36
374.99	58.51
375.19	67.88
375.38	39.79
375.58	67.88
375.78	74.90
375.97	23.41
376.17	7.02
376.37	49.15
376.56	2.34
376.76	39.79
376.95	112.35
377.15	0.00
377.35	35.11
377.54	70.22
377.74	7.02
377.93	44.47
378.13	25.75
378.33	0.00
378.52	11.70
378.72	84.26
378.91	44.47
379.11	39.79
379.31	28.09
379.50	18.72
379.70	0.00
379.89	39.79
380.09	63.19
380.28	44.47
380.48	11.70
380.68	0.00
380.87	86.60
381.07	16.38
381.26	79.58
381.46	2.34
381.65	4.68
381.85	35.11
382.04	0.00
382.24	0.00
382.43	0.00
382.63	56.17
382.83	21.06
383.02	0.00
383.22	0.00
383.41	0.00
383.61	14.04
383.80	84.26
384.00	0.00
384.19	7.02
384.39	84.26
384.58	11.70
384.78	74.90
384.97	37.45
385.17	21.06
385.36	42.13
385.56	58.51
385.75	72.56
385.95	0.00
386.14	0.00
386.34	74.90
386.53	65.54
386.72	32.77
386.92	7.02
387.11	51.49
387.31	37.45
387.50	74.90
387.70	0.00
387.89	121.71
388.09	18.72
388.28	21.06
388.48	25.75
388.67	133.41
388.86	0.00
389.06	44.47
389.25	16.38
389.45	35.11
389.64	42.13
389.84	44.47
390.03	35.11
390.22	0.00
390.42	51.49
390.61	51.49
390.81	84.26
391.00	0.00
391.19	4.68
391.39	0.00
391.58	0.00
391.78	39.79
391.97	9.36
392.16	0.00
392.36	28.09
392.55	79.58
392.75	0.00
392.94	0.00
393.13	0.00
393.33	44.47
393.52	32.77
393.71	9.36
393.91	63.19
394.10	32.77
394.29	42.13
394.49	98.30
394.68	23.41
394.88	86.60
395.07	32.77
395.26	16.38
395.46	0.00
395.65	0.00
395.84	72.56
396.04	65.54
396.23	23.41
396.42	14.04
396.62	0.00
396.81	7.02
397.00	37.45
397.19	72.56
397.39	53.83
397.58	23.41
397.77	44.47
397.97	21.06
398.16	81.92
398.35	110.01
398.55	0.00
398.74	16.38
398.93	39.79
399.12	46.81
399.32	23.41
399.51	32.77
399.70	0.00
399.90	30.43
400.09	0.00
400.28	56.17
400.47	49.15
400.67	4.68
400.86	98.30
401.05	49.15
401.24	39.79
401.44	9.36
401.63	0.00
401.82	91.28
402.01	0.00
402.21	70.22
402.40	0.00
402.59	4.68
402.78	2.34
402.97	0.00
403.17	0.00
403.36	0.00
403.55	28.09
403.74	0.00
403.93	58.51
404.13	74.90
404.32	11.70
404.51	2.34
404.70	46.81
404.89	56.17
405.09	56.17
405.28	98.30
405.47	67.88
405.66	74.90
405.85	91.28
406.05	7.02
406.24	56.17
406.43	32.77
406.62	0.00
406.81	88.94
407.00	60.85
407.20	0.00
407.39	35.11
407.58	0.00
407.77	107.66
407.96	28.09
408.15	100.64
408.34	0.00
408.54	0.00
408.73	102.98
408.92	32.77
409.11	21.06
409.30	77.24
409.49	0.00
409.68	42.13
409.87	77.24
410.07	79.58
410.26	63.19
410.45	4.68
410.64	88.94
410.83	84.26
411.02	30.43
411.21	74.90
411.40	63.19
411.59	67.88
411.78	9.36
411.98	65.54
412.17	18.72
412.36	0.00
412.55	91.28
412.74	91.28
412.93	4.68
413.12	18.72
413.31	79.58
413.50	32.77
413.69	58.51
413.88	0.00
414.07	112.35
414.26	18.72
414.45	84.26
414.64	28.09
414.83	0.00
415.02	0.00
415.22	72.56
415.41	70.22
415.60	35.11
415.79	30.43
415.98	0.00
416.17	74.90
416.36	30.43
416.55	53.83
416.74	46.81
416.93	35.11
417.12	0.00
417.31	11.70
417.50	7.02
417.69	4.68
417.88	21.06
418.07	0.00
418.26	88.94
418.45	84.26
418.64	39.79
418.83	63.19
419.02	32.77
419.21	16.38
419.39	77.24
419.58	67.88
419.77	23.41
419.96	32.77
420.15	46.81
420.34	100.64
420.53	56.17
420.72	18.72
420.91	37.45
421.10	46.81
421.29	67.88
421.48	0.00
421.67	53.83
421.86	28.09
422.05	0.00
422.24	70.22
422.43	74.90
422.61	11.70
422.80	7.02
422.99	21.06
423.18	25.75
423.37	67.88
423.56	51.49
423.75	23.41
423.94	23.41
424.13	0.00
424.32	58.51
424.50	79.58
424.69	79.58
424.88	0.00
425.07	39.79
425.26	30.43
425.45	9.36
425.64	42.13
425.83	91.28
426.01	37.45
426.20	95.96
426.39	58.51
426.58	44.47
426.77	11.70
426.96	102.98
427.15	51.49
427.33	0.00
427.52	39.79
427.71	37.45
427.90	0.00
428.09	42.13
428.28	14.04
428.46	79.58
428.65	79.58
428.84	42.13
429.03	112.35
429.22	0.00
429.40	42.13
429.59	4.68
429.78	25.75
429.97	65.54
430.16	0.00
430.34	65.54
430.53	4.68
430.72	0.00
430.91	65.54
431.10	88.94
431.28	100.64
431.47	79.58
431.66	124.05
431.85	32.77
432.03	107.66
432.22	0.00
432.41	0.00
432.60	91.28
432.79	86.60
432.97	11.70
433.16	58.51
433.35	72.56
433.54	21.06
433.72	42.13
433.91	18.72
434.10	25.75
434.28	42.13
434.47	51.49
434.66	77.24
434.85	16.38
435.03	58.51
435.22	0.00
435.41	79.58
435.59	44.47
435.78	44.47
435.97	56.17
436.16	18.72
436.34	110.01
436.53	25.75
436.72	16.38
436.90	35.11
437.09	28.09
437.28	53.83
437.46	60.85
437.65	0.00
437.84	46.81
438.02	84.26
438.21	107.66
438.40	11.70
438.58	77.24
438.77	0.00
438.96	21.06
439.14	30.43
439.33	140.43
439.52	0.00
439.70	77.24
439.89	53.83
440.08	53.83
440.26	77.24
440.45	0.00
440.63	72.56
440.82	60.85
441.01	49.15
441.19	35.11
441.38	42.13
441.57	30.43
441.75	70.22
441.94	25.75
442.12	44.47
442.31	63.19
442.50	79.58
442.68	67.88
442.87	42.13
443.05	0.00
443.24	102.98
443.43	81.92
443.61	70.22
443.80	114.69
443.98	35.11
444.17	46.81
444.35	32.77
444.54	65.54
444.73	88.94
444.91	44.47
445.10	58.51
445.28	44.47
445.47	0.00
445.65	25.75
445.84	93.62
446.02	86.60
446.21	11.70
446.39	42.13
446.58	56.17
446.77	93.62
446.95	65.54
447.14	14.04
447.32	60.85
447.51	124.05
447.69	23.41
447.88	44.47
448.06	25.75
448.25	74.90
448.43	84.26
448.62	53.83
448.80	86.60
448.99	77.24
449.17	79.58
449.36	63.19
449.54	91.28
449.73	39.79
449.91	53.83
450.10	39.79
450.28	67.88
450.46	84.26
450.65	81.92
450.83	100.64
451.02	117.03
451.20	72.56
451.39	145.11
451.57	0.00
451.76	23.41
451.94	81.92
452.13	32.77
452.31	70.22
452.49	46.81
452.68	7.02
452.86	39.79
453.05	0.00
453.23	32.77
453.42	0.00
453.60	25.75
453.78	53.83
453.97	81.92
454.15	107.66
454.34	95.96
454.52	56.17
454.70	42.13
454.89	30.43
455.07	93.62
455.26	37.45
455.44	110.01
455.62	77.24
455.81	65.54
455.99	145.11
456.17	42.13
456.36	25.75
456.54	72.56
456.73	11.70
456.91	25.75
457.09	95.96
457.28	100.64
457.46	72.56
457.64	117.03
457.83	58.51
458.01	30.43
458.19	0.00
458.38	35.11
458.56	67.88
458.74	53.83
458.93	91.28
459.11	107.66
459.29	72.56
459.48	81.92
459.66	53.83
459.84	28.09
460.03	39.79
460.21	49.15
460.39	30.43
460.57	81.92
460.76	0.00
460.94	37.45
461.12	86.60
461.31	14.04
461.49	0.00
461.67	74.90
461.85	32.77
462.04	65.54
462.22	117.03
462.40	107.66
462.59	42.13
462.77	58.51
462.95	67.88
463.13	63.19
463.32	35.11
463.50	11.70
463.68	56.17
463.86	56.17
464.05	72.56
464.23	28.09
464.41	0.00
464.59	86.60
464.78	28.09
464.96	0.00
465.14	46.81
465.32	49.15
465.50	102.98
465.69	74.90
465.87	49.15
466.05	74.90
466.23	32.77
466.41	81.92
466.60	56.17
466.78	37.45
466.96	77.24
467.14	84.26
467.32	46.81
467.51	49.15
467.69	63.19
467.87	56.17
468.05	0.00
468.23	67.88
468.41	98.30
468.60	46.81
468.78	119.37
468.96	56.17
469.14	35.11
469.32	49.15
469.50	46.81
469.69	0.00
469.87	44.47
470.05	86.60
470.23	51.49
470.41	60.85
470.59	81.92
470.77	0.00
470.95	63.19
471.14	14.04
471.32	102.98
471.50	37.45
471.68	53.83
471.86	95.96
472.04	131.07
472.22	46.81
472.40	46.81
472.58	63.19
472.77	28.09
472.95	35.11
473.13	128.73
473.31	112.35
473.49	42.13
473.67	95.96
473.85	60.85
474.03	0.00
474.21	102.98
474.39	79.58
474.57	25.75
474.75	28.09
474.93	51.49
475.12	42.13
475.30	53.83
475.48	72.56
475.66	102.98
475.84	25.75
476.02	65.54
476.20	0.00
476.38	18.72
476.56	63.19
476.74	0.00
476.92	58.51
477.10	35.11
477.28	0.00
477.46	0.00
477.64	44.47
477.82	56.17
478.00	63.19
478.18	53.83
478.36	88.94
478.54	16.38
478.72	0.00
478.90	70.22
479.08	63.19
479.26	65.54
479.44	30.43
479.62	100.64
479.80	7.02
479.98	58.51
480.16	84.26
480.34	51.49
480.52	11.70
480.70	81.92
480.88	53.83
481.06	42.13
481.24	44.47
481.41	63.19
481.59	63.19
481.77	42.13
481.95	124.05
482.13	95.96
482.31	79.58
482.49	0.00
482.67	51.49
482.85	49.15
483.03	86.60
483.21	105.32
483.39	147.45
483.57	72.56
483.74	56.17
483.92	70.22
484.10	100.64
484.28	74.90
484.46	110.01
484.64	91.28
484.82	95.96
485.00	140.43
485.18	53.83
485.35	46.81
485.53	16.38
485.71	30.43
485.89	81.92
486.07	67.88
486.25	0.00
486.43	72.56
486.61	2.34
486.78	79.58
486.96	58.51
487.14	35.11
487.32	53.83
487.50	60.85
487.68	98.30
487.85	7.02
488.03	30.43
488.21	42.13
488.39	42.13
488.57	91.28
488.75	70.22
488.92	86.60
489.10	53.83
489.28	60.85
489.46	28.09
489.64	98.30
489.81	16.38
489.99	110.01
490.17	79.58
490.35	74.90
490.53	72.56
490.70	95.96
490.88	79.58
491.06	56.17
491.24	44.47
491.41	56.17
491.59	18.72
491.77	212.99
491.95	84.26
492.13	86.60
492.30	81.92
492.48	65.54
492.66	124.05
492.84	102.98
493.01	60.85
493.19	105.32
493.37	110.01
493.54	117.03
493.72	170.86
493.90	70.22
494.08	58.51
494.25	98.30
494.43	95.96
494.61	135.75
494.79	67.88
494.96	79.58
495.14	53.83
495.32	86.60
495.49	67.88
495.67	177.88
495.85	88.94
496.02	42.13
496.20	91.28
496.38	114.69
496.55	102.98
496.73	35.11
496.91	51.49
497.09	105.32
497.26	100.64
497.44	32.77
497.62	124.05
497.79	32.77
497.97	35.11
498.14	49.15
498.32	81.92
498.50	53.83
498.67	70.22
498.85	81.92
499.03	93.62
499.20	60.85
499.38	67.88
499.56	102.98
499.73	70.22
499.91	39.79
500.08	63.19
500.26	51.49
500.44	161.50
500.61	72.56
500.79	51.49
500.97	23.41
501.14	60.85
501.32	49.15
501.49	88.94
501.67	100.64
501.84	63.19
502.02	21.06
502.20	72.56
502.37	86.60
502.55	70.22
502.72	147.45
502.90	28.09
503.07	58.51
503.25	84.26
503.43	105.32
503.60	79.58
503.78	63.19
503.95	44.47
504.13	100.64
504.30	56.17
504.48	77.24
504.65	110.01
504.83	135.75
505.01	44.47
505.18	18.72
505.36	126.39
505.53	110.01
505.71	98.30
505.88	135.75
506.06	42.13
506.23	93.62
506.41	138.09
506.58	70.22
506.76	149.79
506.93	16.38
507.11	67.88
507.28	23.41
507.46	145.11
507.63	81.92
507.81	63.19
507.98	128.73
508.16	53.83
508.33	56.17
508.50	60.85
508.68	63.19
508.85	79.58
509.03	72.56
509.20	46.81
509.38	121.71
509.55	63.19
509.73	74.90
509.90	105.32
510.08	98.30
510.25	35.11
510.42	119.37
510.60	44.47
510.77	53.83
510.95	110.01
511.12	39.79
511.30	42.13
511.47	175.54
511.64	65.54
511.82	77.24
511.99	126.39
512.17	35.11
512.34	88.94
512.51	88.94
512.69	58.51
512.86	42.13
513.04	28.09
513.21	98.30
513.38	72.56
513.56	72.56
513.73	77.24
513.90	131.07
514.08	42.13
514.25	138.09
514.43	58.51
514.60	63.19
514.77	142.77
514.95	65.54
515.12	84.26
515.29	42.13
515.47	112.35
515.64	70.22
515.81	91.28
515.99	44.47
516.16	126.39
516.33	100.64
516.51	53.83
516.68	49.15
516.85	74.90
517.03	81.92
517.20	142.77
517.37	88.94
517.54	91.28
517.72	60.85
517.89	35.11
518.06	142.77
518.24	86.60
518.41	37.45
518.58	91.28
518.75	65.54
518.93	63.19
519.10	105.32
519.27	74.90
519.45	60.85
519.62	91.28
519.79	0.00
519.96	30.43
520.14	114.69
520.31	128.73
520.48	53.83
520.65	86.60
520.83	81.92
521.00	93.62
521.17	119.37
521.34	32.77
521.52	117.03
521.69	51.49
521.86	140.43
522.03	102.98
522.20	56.17
522.38	25.75
522.55	107.66
522.72	51.49
522.89	65.54
523.07	117.03
523.24	77.24
523.41	81.92
523.58	93.62
523.75	53.83
523.92	63.19
524.10	140.43
524.27	63.19
524.44	51.49
524.61	72.56
524.78	72.56
524.96	91.28
525.13	156.82
525.30	138.09
525.47	74.90
525.64	77.24
525.81	81.92
525.98	21.06
526.16	46.81
526.33	58.51
526.50	74.90
526.67	53.83
526.84	126.39
527.01	95.96
527.18	60.85
527.36	95.96
527.53	53.83
527.70	79.58
527.87	65.54
528.04	91.28
528.21	35.11
528.38	39.79
528.55	53.83
528.72	67.88
528.89	88.94
529.07	65.54
529.24	142.77
529.41	110.01
529.58	39.79
529.75	138.09
529.92	81.92
530.09	114.69
530.26	149.79
530.43	74.90
530.60	121.71
530.77	110.01
530.94	79.58
531.11	145.11
531.28	112.35
531.46	121.71
531.63	63.19
531.80	91.28
531.97	105.32
532.14	110.01
532.31	102.98
532.48	4.68
532.65	84.26
532.82	77.24
532.99	49.15
533.16	124.05
533.33	79.58
533.50	110.01
533.67	72.56
533.84	79.58
534.01	147.45
534.18	117.03
534.35	79.58
534.52	91.28
534.69	177.88
534.86	147.45
535.03	65.54
535.20	88.94
535.37	105.32
535.54	173.20
535.71	152.13
535.88	84.26
536.05	124.05
536.22	79.58
536.38	74.90
536.55	147.45
536.72	72.56
536.89	74.90
537.06	42.13
537.23	58.51
537.40	93.62
537.57	39.79
537.74	77.24
537.91	131.07
538.08	58.51
538.25	84.26
538.42	100.64
538.59	30.43
538.75	65.54
538.92	42.13
539.09	56.17
539.26	72.56
539.43	107.66
539.60	95.96
539.77	18.72
539.94	117.03
540.11	18.72
540.28	138.09
540.44	84.26
540.61	72.56
540.78	93.62
540.95	79.58
541.12	67.88
541.29	44.47
541.46	86.60
541.62	135.75
541.79	81.92
541.96	121.71
542.13	0.00
542.30	42.13
542.47	42.13
542.63	121.71
542.80	107.66
542.97	138.09
543.14	18.72
543.31	95.96
543.48	39.79
543.64	53.83
543.81	95.96
543.98	81.92
544.15	0.00
544.32	166.18
544.48	110.01
544.65	145.11
544.82	126.39
544.99	119.37
545.16	138.09
545.32	74.90
545.49	110.01
545.66	135.75
545.83	77.24
546.00	79.58
546.16	37.45
546.33	37.45
546.50	88.94
546.67	88.94
546.83	67.88
547.00	88.94
547.17	77.24
547.34	65.54
547.50	126.39
547.67	70.22
547.84	100.64
548.00	128.73
548.17	138.09
548.34	51.49
548.51	117.03
548.67	133.41
548.84	49.15
549.01	67.88
549.18	65.54
549.34	86.60
549.51	42.13
549.68	56.17
549.84	65.54
550.01	182.56
550.18	110.01
550.34	149.79
550.51	0.00
550.68	112.35
550.84	112.35
551.01	60.85
551.18	51.49
551.34	14.04
551.51	84.26
551.68	30.43
551.84	65.54
552.01	58.51
552.18	124.05
552.34	70.22
552.51	194.26
552.68	84.26
552.84	110.01
553.01	53.83
553.18	156.82
553.34	32.77
553.51	152.13
553.67	142.77
553.84	70.22
554.01	86.60
554.17	88.94
554.34	65.54
554.51	98.30
554.67	194.26
554.84	142.77
555.00	135.75
555.17	77.24
555.33	140.43
555.50	117.03
555.67	60.85
555.83	105.32
556.00	18.72
556.16	37.45
556.33	163.84
556.50	124.05
556.66	128.73
556.83	93.62
556.99	56.17
557.16	70.22
557.32	84.26
557.49	0.00
557.65	46.81
557.82	49.15
557.98	56.17
558.15	119.37
558.32	102.98
558.48	135.75
558.65	110.01
558.81	4.68
558.98	63.19
559.14	84.26
559.31	70.22
559.47	126.39
559.64	142.77
559.80	128.73
559.97	23.41
560.13	0.00
560.30	28.09
560.46	149.79
560.63	107.66
560.79	112.35
560.96	84.26
561.12	91.28
561.29	72.56
561.45	100.64
561.61	107.66
561.78	142.77
561.94	107.66
562.11	100.64
562.27	149.79
562.44	74.90
562.60	102.98
562.77	58.51
562.93	88.94
563.10	121.71
563.26	84.26
563.42	140.43
563.59	105.32
563.75	102.98
563.92	51.49
564.08	163.84
564.24	63.19
564.41	100.64
564.57	93.62
564.74	4.68
564.90	60.85
565.07	70.22
565.23	39.79
565.39	72.56
565.56	39.79
565.72	60.85
565.88	63.19
566.05	42.13
566.21	74.90
566.38	46.81
566.54	67.88
566.70	112.35
566.87	32.77
567.03	60.85
567.19	53.83
567.36	93.62
567.52	63.19
567.68	53.83
567.85	74.90
568.01	60.85
568.17	86.60
568.34	107.66
568.50	107.66
568.66	39.79
568.83	37.45
568.99	81.92
569.15	60.85
569.32	51.49
569.48	67.88
569.64	88.94
569.81	0.00
569.97	7.02
570.13	91.28
570.30	117.03
570.46	67.88
570.62	74.90
570.78	114.69
570.95	86.60
571.11	70.22
571.27	49.15
571.43	70.22
571.60	56.17
571.76	56.17
571.92	44.47
572.09	105.32
572.25	86.60
572.41	7.02
572.57	105.32
572.74	93.62
572.90	70.22
573.06	98.30
573.22	79.58
573.38	53.83
573.55	95.96
573.71	77.24
573.87	49.15
574.03	37.45
574.20	81.92
574.36	70.22
574.52	140.43
574.68	44.47
574.84	77.24
575.01	138.09
575.17	126.39
575.33	105.32
575.49	88.94
575.65	53.83
575.82	16.38
575.98	39.79
576.14	63.19
576.30	102.98
576.46	79.58
576.62	25.75
576.79	30.43
576.95	14.04
577.11	77.24
577.27	37.45
577.43	35.11
577.59	77.24
577.75	65.54
577.92	117.03
578.08	79.58
578.24	70.22
578.40	128.73
578.56	67.88
578.72	42.13
578.88	11.70
579.04	70.22
579.21	98.30
579.37	44.47
579.53	53.83
579.69	114.69
579.85	42.13
580.01	60.85
580.17	91.28
580.33	70.22
580.49	100.64
580.65	138.09
580.82	11.70
580.98	51.49
581.14	0.00
581.30	79.58
581.46	100.64
581.62	88.94
581.78	110.01
581.94	126.39
582.10	79.58
582.26	53.83
582.42	77.24
582.58	133.41
582.74	42.13
582.90	2.34
583.06	86.60
583.22	110.01
583.38	170.86
583.54	67.88
583.70	84.26
583.86	88.94
584.02	56.17
584.18	28.09
584.34	35.11
584.50	0.00
584.66	63.19
584.82	49.15
584.98	187.24
585.14	16.38
585.30	0.00
585.46	65.54
585.62	124.05
585.78	88.94
585.94	30.43
586.10	7.02
586.26	60.85
586.42	51.49
586.58	98.30
586.74	0.00
586.90	117.03
587.06	163.84
587.22	128.73
587.38	88.94
587.54	42.13
587.70	81.92
587.86	124.05
588.02	128.73
588.18	42.13
588.34	117.03
588.49	49.15
588.65	102.98
588.81	65.54
588.97	58.51
589.13	79.58
589.29	79.58
589.45	70.22
589.61	88.94
589.77	63.19
589.93	79.58
590.08	35.11
590.24	86.60
590.40	93.62
590.56	28.09
590.72	25.75
590.88	88.94
591.04	110.01
591.20	93.62
591.35	30.43
591.51	74.90
591.67	81.92
591.83	88.94
591.99	91.28
592.15	102.98
592.31	102.98
592.46	70.22
592.62	30.43
592.78	16.38
592.94	84.26
593.10	105.32
593.26	65.54
593.41	81.92
593.57	42.13
593.73	46.81
593.89	88.94
594.05	65.54
594.20	70.22
594.36	0.00
594.52	67.88
594.68	107.66
594.84	65.54
594.99	65.54
595.15	0.00
595.31	88.94
595.47	100.64
595.62	72.56
595.78	39.79
595.94	30.43
596.10	39.79
596.25	105.32
596.41	72.56
596.57	35.11
596.73	74.90
596.88	51.49
597.04	102.98
597.20	58.51
597.36	53.83
597.51	28.09
597.67	67.88
597.83	32.77
597.99	32.77
598.14	84.26
598.30	84.26
598.46	126.39
598.61	0.00
598.77	7.02
598.93	95.96
599.09	98.30
599.24	4.68
599.40	32.77
599.56	49.15
599.71	93.62
599.87	39.79
600.03	72.56
600.18	128.73
600.34	107.66
600.50	32.77
600.65	14.04
600.81	81.92
600.97	70.22
601.12	102.98
601.28	100.64
601.44	119.37
601.59	133.41
601.75	65.54
601.91	51.49
602.06	37.45
602.22	110.01
602.37	37.45
602.53	88.94
602.69	14.04
602.84	65.54
603.00	30.43
603.16	88.94
603.31	131.07
603.47	100.64
603.62	49.15
603.78	63.19
603.94	110.01
604.09	0.00
604.25	39.79
604.40	58.51
604.56	30.43
604.71	91.28
604.87	16.38
605.03	81.92
605.18	39.79
605.34	37.45
605.49	70.22
605.65	81.92
605.80	49.15
605.96	117.03
606.12	140.43
606.27	23.41
606.43	93.62
606.58	95.96
606.74	93.62
606.89	70.22
607.05	46.81
607.20	63.19
607.36	42.13
607.51	63.19
607.67	72.56
607.82	74.90
607.98	126.39
608.13	32.77
608.29	88.94
608.44	105.32
608.60	79.58
608.75	91.28
608.91	128.73
609.06	84.26
609.22	28.09
609.37	93.62
609.53	100.64
609.68	84.26
609.84	126.39
609.99	86.60
610.15	0.00
610.30	77.24
610.46	60.85
610.61	91.28
610.76	35.11
610.92	4.68
611.07	53.83
611.23	110.01
611.38	81.92
611.54	44.47
611.69	63.19
611.84	44.47
612.00	67.88
612.15	32.77
612.31	16.38
612.46	79.58
612.62	119.37
612.77	100.64
612.92	28.09
613.08	93.62
613.23	67.88
613.39	0.00
613.54	70.22
613.69	58.51
613.85	70.22
614.00	16.38
614.15	0.00
614.31	63.19
614.46	44.47
614.62	112.35
614.77	74.90
614.92	11.70
615.08	46.81
615.23	112.35
615.38	86.60
615.54	60.85
615.69	84.26
615.84	84.26
616.00	81.92
616.15	112.35
616.30	88.94
616.46	11.70
616.61	128.73
616.76	30.43
616.92	0.00
617.07	110.01
617.22	14.04
617.37	42.13
617.53	126.39
617.68	93.62
617.83	79.58
617.99	117.03
618.14	112.35
618.29	98.30
618.45	16.38
618.60	84.26
618.75	81.92
618.90	142.77
619.06	100.64
619.21	65.54
619.36	140.43
619.51	49.15
619.67	88.94
619.82	46.81
619.97	70.22
620.12	49.15
620.28	60.85
620.43	79.58
620.58	46.81
620.73	0.00
620.89	79.58
621.04	35.11
621.19	65.54
621.34	100.64
621.49	100.64
621.65	107.66
621.80	51.49
621.95	110.01
622.10	72.56
622.25	63.19
622.41	28.09
622.56	44.47
622.71	42.13
622.86	53.83
623.01	49.15
623.16	39.79
623.32	81.92
623.47	107.66
623.62	7.02
623.77	105.32
623.92	4.68
624.07	53.83
624.23	30.43
624.38	95.96
624.53	11.70
624.68	51.49
624.83	23.41
624.98	121.71
625.13	56.17
625.29	74.90
625.44	49.15
625.59	21.06
625.74	93.62
625.89	91.28
626.04	72.56
626.19	44.47
626.34	74.90
626.49	0.00
626.65	0.00
626.80	124.05
626.95	63.19
627.10	114.69
627.25	14.04
627.40	67.88
627.55	86.60
627.70	42.13
627.85	51.49
628.00	51.49
628.15	28.09
628.30	84.26
628.45	88.94
628.60	44.47
628.76	84.26
628.91	0.00
629.06	35.11
629.21	56.17
629.36	79.58
629.51	91.28
629.66	67.88
629.81	23.41
629.96	11.70
630.11	46.81
630.26	23.41
630.41	0.00
630.56	124.05
630.71	39.79
630.86	81.92
631.01	35.11
631.16	0.00
631.31	58.51
631.46	67.88
631.61	39.79
631.76	39.79
631.91	100.64
632.06	88.94
632.21	121.71
632.36	0.00
632.51	18.72
632.66	46.81
632.81	0.00
632.96	65.54
633.10	11.70
633.25	16.38
633.40	51.49
633.55	30.43
633.70	105.32
633.85	72.56
634.00	56.17
634.15	44.47
634.30	0.00
634.45	44.47
634.60	30.43
634.75	67.88
634.90	93.62
635.05	156.82
635.19	28.09
635.34	42.13
635.49	30.43
635.64	100.64
635.79	53.83
635.94	135.75
636.09	46.81
636.24	30.43
636.39	46.81
636.53	30.43
636.68	93.62
636.83	32.77
636.98	100.64
637.13	44.47
637.28	79.58
637.43	77.24
637.57	0.00
637.72	95.96
637.87	46.81
638.02	53.83
638.17	84.26
638.32	65.54
638.46	100.64
638.61	88.94
638.76	49.15
638.91	105.32
639.06	67.88
639.20	70.22
639.35	60.85
639.50	14.04
639.65	49.15
639.80	30.43
639.94	121.71
640.09	112.35
640.24	95.96
640.39	28.09
640.54	131.07
640.68	32.77
640.83	79.58
640.98	21.06
641.13	53.83
641.27	128.73
641.42	100.64
641.57	81.92
641.72	42.13
641.86	98.30
642.01	60.85
642.16	2.34
642.31	65.54
642.45	88.94
642.60	86.60
642.75	39.79
642.90	72.56
643.04	56.17
643.19	30.43
643.34	49.15
643.48	0.00
643.63	67.88
643.78	39.79
643.93	74.90
644.07	70.22
644.22	53.83
644.37	0.00
644.51	67.88
644.66	49.15
644.81	49.15
644.95	67.88
645.10	28.09
645.25	86.60
645.39	42.13
645.54	37.45
645.69	91.28
645.83	28.09
645.98	107.66
646.13	112.35
646.27	98.30
646.42	67.88
646.57	18.72
646.71	53.83
646.86	44.47
647.00	53.83
647.15	23.41
647.30	44.47
647.44	79.58
647.59	21.06
647.74	18.72
647.88	0.00
648.03	35.11
648.17	79.58
648.32	67.88
648.47	51.49
648.61	74.90
648.76	35.11
648.90	4.68
649.05	93.62
649.20	88.94
649.34	35.11
649.49	65.54
649.63	0.00
649.78	114.69
649.92	140.43
650.07	77.24
650.21	140.43
650.36	128.73
650.51	18.72
650.65	70.22
650.80	102.98
650.94	42.13
651.09	23.41
651.23	56.17
651.38	53.83
651.52	0.00
651.67	88.94
651.81	65.54
651.96	18.72
652.10	84.26
652.25	63.19
652.39	79.58
652.54	28.09
652.68	21.06
652.83	49.15
652.97	81.92
653.12	9.36
653.26	117.03
653.41	88.94
653.55	0.00
653.70	98.30
653.84	23.41
653.99	63.19
654.13	51.49
654.27	32.77
654.42	56.17
654.56	93.62
654.71	46.81
654.85	81.92
655.00	60.85
655.14	4.68
655.29	49.15
655.43	91.28
655.57	35.11
655.72	16.38
655.86	0.00
656.01	7.02
656.15	30.43
656.30	56.17
656.44	44.47
656.58	63.19
656.73	39.79
656.87	49.15
657.01	100.64
657.16	25.75
657.30	72.56
657.45	63.19
657.59	63.19
657.73	72.56
657.88	81.92
658.02	58.51
658.16	0.00
658.31	56.17
658.45	28.09
658.60	42.13
658.74	46.81
658.88	56.17
659.03	56.17
659.17	56.17
659.31	65.54
659.46	49.15
659.60	21.06
659.74	107.66
659.89	42.13
660.03	53.83
660.17	58.51
660.32	100.64
660.46	25.75
660.60	51.49
660.74	107.66
660.89	14.04
661.03	105.32
661.17	28.09
661.32	11.70
661.46	112.35
661.60	46.81
661.74	86.60
661.89	86.60
662.03	91.28
662.17	95.96
662.31	18.72
662.46	0.00
662.60	0.00
662.74	32.77
662.88	86.60
663.03	114.69
663.17	58.51
663.31	46.81
663.45	67.88
663.60	81.92
663.74	98.30
663.88	93.62
664.02	25.75
664.17	46.81
664.31	124.05
664.45	7.02
664.59	9.36
664.73	86.60
664.88	88.94
665.02	58.51
665.16	0.00
665.30	53.83
665.44	9.36
665.59	51.49
665.73	114.69
665.87	86.60
666.01	18.72
666.15	53.83
666.29	58.51
666.44	70.22
666.58	53.83
666.72	131.07
666.86	32.77
667.00	60.85
667.14	39.79
667.28	53.83
667.43	37.45
667.57	65.54
667.71	51.49
667.85	37.45
667.99	18.72
668.13	4.68
668.27	72.56
668.41	42.13
668.56	56.17
668.70	46.81
668.84	23.41
668.98	35.11
669.12	51.49
669.26	23.41
669.40	28.09
669.54	67.88
669.68	121.71
669.82	88.94
669.96	112.35
670.10	4.68
670.25	77.24
670.39	21.06
670.53	32.77
670.67	0.00
670.81	42.13
670.95	58.51
671.09	86.60
671.23	65.54
671.37	0.00
671.51	105.32
671.65	42.13
671.79	18.72
671.93	81.92
672.07	32.77
672.21	72.56
672.35	44.47
672.49	21.06
672.63	65.54
672.77	53.83
672.91	126.39
673.05	51.49
673.19	9.36
673.33	46.81
673.47	0.00
673.61	51.49
673.75	112.35
673.89	93.62
674.03	53.83
674.17	0.00
674.31	16.38
674.45	0.00
674.59	11.70
674.73	4.68
674.87	30.43
675.01	2.34
675.15	91.28
675.29	4.68
675.43	70.22
675.56	30.43
675.70	49.15
675.84	44.47
675.98	0.00
676.12	56.17
676.26	77.24
676.40	42.13
676.54	74.90
676.68	58.51
676.82	65.54
676.96	14.04
677.10	18.72
677.23	0.00
677.37	35.11
677.51	44.47
677.65	25.75
677.79	39.79
677.93	0.00
678.07	65.54
678.21	77.24
678.34	0.00
678.48	37.45
678.62	98.30
678.76	86.60
678.90	9.36
679.04	14.04
679.18	88.94
679.31	32.77
679.45	23.41
679.59	79.58
679.73	98.30
679.87	133.41
680.00	37.45
680.14	2.34
680.28	11.70
680.42	88.94
680.56	77.24
680.70	79.58
680.83	145.11
680.97	7.02
681.11	39.79
681.25	4.68
681.39	44.47
681.52	51.49
681.66	30.43
681.80	79.58
681.94	53.83
682.07	65.54
682.21	51.49
682.35	25.75
682.49	86.60
682.62	74.90
682.76	72.56
682.90	21.06
683.04	9.36
683.17	25.75
683.31	102.98
683.45	67.88
683.59	14.04
683.72	0.00
683.86	0.00
684.00	114.69
684.13	107.66
684.27	28.09
684.41	98.30
684.55	81.92
684.68	79.58
684.82	88.94
684.96	65.54
685.09	42.13
685.23	79.58
685.37	46.81
685.50	16.38
685.64	93.62
685.78	37.45
685.91	51.49
686.05	30.43
686.19	0.00
686.32	18.72
686.46	110.01
686.60	53.83
686.73	37.45
686.87	42.13
687.01	0.00
687.14	65.54
687.28	93.62
687.42	37.45
687.55	0.00
687.69	100.64
687.82	56.17
687.96	21.06
688.10	63.19
688.23	0.00
688.37	0.00
688.50	74.90
688.64	49.15
688.78	135.75
688.91	44.47
689.05	140.43
689.18	107.66
689.32	44.47
689.46	60.85
689.59	0.00
689.73	4.68
689.86	25.75
690.00	0.00
690.13	67.88
690.27	105.32
690.41	63.19
690.54	14.04
690.68	23.41
690.81	81.92
690.95	81.92
691.08	0.00
691.22	11.70
691.35	35.11
691.49	60.85
691.62	37.45
691.76	44.47
691.89	4.68
692.03	53.83
692.16	53.83
692.30	42.13
692.43	58.51
692.57	49.15
692.70	49.15
692.84	44.47
692.97	25.75
693.11	72.56
693.24	37.45
693.38	53.83
693.51	23.41
693.65	70.22
693.78	25.75
693.92	25.75
694.05	58.51
694.19	49.15
694.32	16.38
694.45	0.00
694.59	46.81
694.72	0.00
694.86	63.19
694.99	25.75
695.13	23.41
695.26	79.58
695.39	88.94
695.53	65.54
695.66	0.00
695.80	67.88
695.93	128.73
696.07	74.90
696.20	79.58
696.33	46.81
696.47	23.41
696.60	51.49
696.73	0.00
696.87	25.75
697.00	100.64
697.14	49.15
697.27	23.41
697.40	39.79
697.54	93.62
697.67	42.13
697.80	14.04
697.94	0.00
698.07	46.81
698.21	39.79
698.34	46.81
698.47	14.04
698.61	18.72
698.74	98.30
698.87	70.22
699.01	39.79
699.14	81.92
699.27	25.75
699.40	114.69
699.54	14.04
699.67	0.00
699.80	25.75
699.94	44.47
700.07	39.79
700.20	28.09
700.34	23.41
700.47	35.11
700.60	37.45
700.73	11.70
700.87	42.13
701.00	112.35
701.13	2.34
701.26	9.36
701.40	86.60
701.53	25.75
701.66	39.79
701.79	35.11
701.93	79.58
702.06	25.75
702.19	60.85
702.32	23.41
702.46	0.00
702.59	7.02
702.72	9.36
702.85	0.00
702.99	0.00
703.12	0.00
703.25	35.11
703.38	51.49
703.51	18.72
703.65	70.22
703.78	0.00
703.91	42.13
704.04	63.19
704.17	63.19
704.31	4.68
704.44	0.00
704.57	0.00
704.70	0.00
704.83	0.00
704.96	72.56
705.10	86.60
705.23	42.13
>>>>>End Processed Spectral Data<<<<<
