SpectraSuite Data File
++++++++++++++++++++++++++++++++++++
Date: Fri Oct 04 12:13:42 GMT-05:00 2013
User: price-jones
Dark Spectrum Present: No
Reference Spectrum Present: No
Number of Sampled Component Spectra: 1
Spectrometers: USB2+H05261
Integration Time (usec): 10000 (USB2+H05261)
Spectra Averaged: 1 (USB2+H05261)
Boxcar Smoothing: 0 (USB2+H05261)
Correct for Electrical Dark: No (USB2+H05261)
Strobe/Lamp Enabled: No (USB2+H05261)
Correct for Detector Non-linearity: No (USB2+H05261)
Correct for Stray Light: No (USB2+H05261)
Number of Pixels in Processed Spectrum: 2048
>>>>>Begin Processed Spectral Data<<<<<
365.73	0.00
365.92	0.00
366.12	0.00
366.32	0.00
366.52	0.00
366.72	0.00
366.91	0.00
367.11	0.00
367.31	0.00
367.51	0.00
367.70	0.00
367.90	0.00
368.10	0.00
368.30	0.00
368.49	0.00
368.69	0.00
368.89	0.00
369.09	0.00
369.28	0.00
369.48	0.00
369.68	0.00
369.87	0.00
370.07	0.00
370.27	0.00
370.47	0.00
370.66	0.00
370.86	0.00
371.06	0.00
371.25	0.00
371.45	0.00
371.65	30.43
371.84	0.00
372.04	0.00
372.24	18.72
372.44	25.75
372.63	42.13
372.83	0.00
373.03	0.00
373.22	0.00
373.42	32.77
373.62	56.17
373.81	86.60
374.01	79.58
374.21	49.15
374.40	42.13
374.60	30.43
374.79	42.13
374.99	70.22
375.19	14.04
375.38	0.00
375.58	0.00
375.78	70.22
375.97	0.00
376.17	53.83
376.37	46.81
376.56	9.36
376.76	0.00
376.95	0.00
377.15	32.77
377.35	25.75
377.54	18.72
377.74	51.49
377.93	91.28
378.13	28.09
378.33	37.45
378.52	0.00
378.72	35.11
378.91	44.47
379.11	53.83
379.31	0.00
379.50	46.81
379.70	2.34
379.89	14.04
380.09	42.13
380.28	53.83
380.48	39.79
380.68	25.75
380.87	11.70
381.07	0.00
381.26	0.00
381.46	42.13
381.65	93.62
381.85	0.00
382.04	0.00
382.24	0.00
382.43	4.68
382.63	51.49
382.83	0.00
383.02	0.00
383.22	0.00
383.41	0.00
383.61	0.00
383.80	0.00
384.00	0.00
384.19	0.00
384.39	23.41
384.58	0.00
384.78	74.90
384.97	46.81
385.17	18.72
385.36	0.00
385.56	32.77
385.75	63.19
385.95	53.83
386.14	0.00
386.34	37.45
386.53	14.04
386.72	32.77
386.92	7.02
387.11	0.00
387.31	16.38
387.50	21.06
387.70	46.81
387.89	0.00
388.09	0.00
388.28	49.15
388.48	53.83
388.67	0.00
388.86	28.09
389.06	14.04
389.25	9.36
389.45	7.02
389.64	65.54
389.84	0.00
390.03	0.00
390.22	32.77
390.42	0.00
390.61	39.79
390.81	9.36
391.00	35.11
391.19	0.00
391.39	18.72
391.58	72.56
391.78	51.49
391.97	0.00
392.16	28.09
392.36	7.02
392.55	65.54
392.75	0.00
392.94	37.45
393.13	37.45
393.33	0.00
393.52	0.00
393.71	53.83
393.91	51.49
394.10	18.72
394.29	53.83
394.49	65.54
394.68	72.56
394.88	91.28
395.07	72.56
395.26	0.00
395.46	63.19
395.65	0.00
395.84	0.00
396.04	28.09
396.23	56.17
396.42	7.02
396.62	37.45
396.81	56.17
397.00	0.00
397.19	18.72
397.39	0.00
397.58	4.68
397.77	0.00
397.97	42.13
398.16	58.51
398.35	124.05
398.55	30.43
398.74	21.06
398.93	0.00
399.12	16.38
399.32	93.62
399.51	39.79
399.70	16.38
399.90	28.09
400.09	25.75
400.28	42.13
400.47	0.00
400.67	7.02
400.86	77.24
401.05	23.41
401.24	0.00
401.44	11.70
401.63	0.00
401.82	0.00
402.01	77.24
402.21	30.43
402.40	23.41
402.59	7.02
402.78	46.81
402.97	0.00
403.17	0.00
403.36	79.58
403.55	46.81
403.74	16.38
403.93	72.56
404.13	44.47
404.32	28.09
404.51	30.43
404.70	11.70
404.89	11.70
405.09	14.04
405.28	0.00
405.47	23.41
405.66	32.77
405.85	0.00
406.05	11.70
406.24	51.49
406.43	0.00
406.62	63.19
406.81	11.70
407.00	37.45
407.20	98.30
407.39	4.68
407.58	100.64
407.77	4.68
407.96	0.00
408.15	0.00
408.34	56.17
408.54	56.17
408.73	86.60
408.92	37.45
409.11	44.47
409.30	18.72
409.49	131.07
409.68	23.41
409.87	56.17
410.07	23.41
410.26	28.09
410.45	21.06
410.64	2.34
410.83	39.79
411.02	67.88
411.21	4.68
411.40	23.41
411.59	79.58
411.78	0.00
411.98	35.11
412.17	23.41
412.36	35.11
412.55	2.34
412.74	28.09
412.93	74.90
413.12	95.96
413.31	35.11
413.50	142.77
413.69	23.41
413.88	0.00
414.07	7.02
414.26	42.13
414.45	0.00
414.64	77.24
414.83	11.70
415.02	46.81
415.22	18.72
415.41	147.45
415.60	91.28
415.79	67.88
415.98	79.58
416.17	72.56
416.36	25.75
416.55	9.36
416.74	0.00
416.93	25.75
417.12	0.00
417.31	18.72
417.50	81.92
417.69	63.19
417.88	49.15
418.07	0.00
418.26	0.00
418.45	72.56
418.64	77.24
418.83	37.45
419.02	91.28
419.21	77.24
419.39	63.19
419.58	74.90
419.77	35.11
419.96	65.54
420.15	58.51
420.34	0.00
420.53	56.17
420.72	0.00
420.91	25.75
421.10	100.64
421.29	23.41
421.48	18.72
421.67	100.64
421.86	21.06
422.05	74.90
422.24	21.06
422.43	30.43
422.61	107.66
422.80	60.85
422.99	0.00
423.18	23.41
423.37	49.15
423.56	72.56
423.75	93.62
423.94	32.77
424.13	53.83
424.32	65.54
424.50	42.13
424.69	28.09
424.88	23.41
425.07	0.00
425.26	60.85
425.45	0.00
425.64	0.00
425.83	65.54
426.01	58.51
426.20	0.00
426.39	112.35
426.58	44.47
426.77	11.70
426.96	0.00
427.15	46.81
427.33	49.15
427.52	0.00
427.71	44.47
427.90	0.00
428.09	30.43
428.28	114.69
428.46	32.77
428.65	32.77
428.84	21.06
429.03	7.02
429.22	56.17
429.40	51.49
429.59	42.13
429.78	63.19
429.97	28.09
430.16	56.17
430.34	21.06
430.53	74.90
430.72	74.90
430.91	67.88
431.10	51.49
431.28	4.68
431.47	42.13
431.66	28.09
431.85	44.47
432.03	88.94
432.22	70.22
432.41	32.77
432.60	0.00
432.79	23.41
432.97	86.60
433.16	84.26
433.35	60.85
433.54	49.15
433.72	0.00
433.91	35.11
434.10	56.17
434.28	37.45
434.47	58.51
434.66	21.06
434.85	7.02
435.03	0.00
435.22	42.13
435.41	18.72
435.59	32.77
435.78	25.75
435.97	42.13
436.16	39.79
436.34	98.30
436.53	65.54
436.72	0.00
436.90	23.41
437.09	11.70
437.28	23.41
437.46	18.72
437.65	25.75
437.84	42.13
438.02	107.66
438.21	0.00
438.40	16.38
438.58	39.79
438.77	30.43
438.96	51.49
439.14	0.00
439.33	7.02
439.52	53.83
439.70	14.04
439.89	39.79
440.08	7.02
440.26	4.68
440.45	0.00
440.63	0.00
440.82	35.11
441.01	0.00
441.19	35.11
441.38	72.56
441.57	44.47
441.75	42.13
441.94	46.81
442.12	9.36
442.31	30.43
442.50	79.58
442.68	51.49
442.87	58.51
443.05	102.98
443.24	14.04
443.43	42.13
443.61	86.60
443.80	35.11
443.98	88.94
444.17	63.19
444.35	39.79
444.54	14.04
444.73	35.11
444.91	4.68
445.10	0.00
445.28	67.88
445.47	51.49
445.65	28.09
445.84	14.04
446.02	7.02
446.21	70.22
446.39	30.43
446.58	4.68
446.77	11.70
446.95	84.26
447.14	74.90
447.32	65.54
447.51	60.85
447.69	0.00
447.88	110.01
448.06	98.30
448.25	0.00
448.43	32.77
448.62	18.72
448.80	16.38
448.99	86.60
449.17	39.79
449.36	70.22
449.54	32.77
449.73	88.94
449.91	81.92
450.10	98.30
450.28	84.26
450.46	65.54
450.65	126.39
450.83	60.85
451.02	0.00
451.20	53.83
451.39	11.70
451.57	107.66
451.76	23.41
451.94	117.03
452.13	110.01
452.31	46.81
452.49	0.00
452.68	30.43
452.86	28.09
453.05	23.41
453.23	77.24
453.42	72.56
453.60	53.83
453.78	74.90
453.97	51.49
454.15	51.49
454.34	0.00
454.52	0.00
454.70	0.00
454.89	65.54
455.07	56.17
455.26	110.01
455.44	124.05
455.62	25.75
455.81	81.92
455.99	16.38
456.17	72.56
456.36	110.01
456.54	119.37
456.73	0.00
456.91	9.36
457.09	105.32
457.28	81.92
457.46	100.64
457.64	56.17
457.83	0.00
458.01	110.01
458.19	9.36
458.38	32.77
458.56	0.00
458.74	63.19
458.93	140.43
459.11	67.88
459.29	42.13
459.48	21.06
459.66	21.06
459.84	18.72
460.03	42.13
460.21	58.51
460.39	74.90
460.57	117.03
460.76	46.81
460.94	16.38
461.12	86.60
461.31	114.69
461.49	124.05
461.67	0.00
461.85	114.69
462.04	86.60
462.22	37.45
462.40	2.34
462.59	56.17
462.77	77.24
462.95	0.00
463.13	77.24
463.32	100.64
463.50	81.92
463.68	91.28
463.86	93.62
464.05	65.54
464.23	7.02
464.41	67.88
464.59	44.47
464.78	30.43
464.96	133.41
465.14	53.83
465.32	51.49
465.50	79.58
465.69	56.17
465.87	72.56
466.05	32.77
466.23	154.48
466.41	44.47
466.60	2.34
466.78	56.17
466.96	18.72
467.14	18.72
467.32	53.83
467.51	128.73
467.69	81.92
467.87	35.11
468.05	16.38
468.23	37.45
468.41	32.77
468.60	63.19
468.78	44.47
468.96	114.69
469.14	0.00
469.32	81.92
469.50	0.00
469.69	93.62
469.87	65.54
470.05	30.43
470.23	46.81
470.41	51.49
470.59	79.58
470.77	102.98
470.95	65.54
471.14	21.06
471.32	70.22
471.50	63.19
471.68	51.49
471.86	18.72
472.04	25.75
472.22	81.92
472.40	51.49
472.58	91.28
472.77	77.24
472.95	72.56
473.13	67.88
473.31	0.00
473.49	0.00
473.67	49.15
473.85	91.28
474.03	84.26
474.21	98.30
474.39	30.43
474.57	49.15
474.75	112.35
474.93	7.02
475.12	93.62
475.30	14.04
475.48	56.17
475.66	77.24
475.84	25.75
476.02	63.19
476.20	53.83
476.38	37.45
476.56	102.98
476.74	147.45
476.92	30.43
477.10	133.41
477.28	86.60
477.46	37.45
477.64	121.71
477.82	25.75
478.00	74.90
478.18	119.37
478.36	30.43
478.54	4.68
478.72	81.92
478.90	58.51
479.08	91.28
479.26	63.19
479.44	53.83
479.62	0.00
479.80	102.98
479.98	60.85
480.16	81.92
480.34	2.34
480.52	11.70
480.70	0.00
480.88	77.24
481.06	30.43
481.24	77.24
481.41	119.37
481.59	114.69
481.77	53.83
481.95	63.19
482.13	86.60
482.31	74.90
482.49	46.81
482.67	44.47
482.85	46.81
483.03	95.96
483.21	84.26
483.39	77.24
483.57	102.98
483.74	117.03
483.92	23.41
484.10	51.49
484.28	98.30
484.46	91.28
484.64	131.07
484.82	70.22
485.00	28.09
485.18	7.02
485.35	63.19
485.53	42.13
485.71	32.77
485.89	14.04
486.07	98.30
486.25	32.77
486.43	35.11
486.61	39.79
486.78	91.28
486.96	30.43
487.14	0.00
487.32	42.13
487.50	138.09
487.68	84.26
487.85	42.13
488.03	51.49
488.21	0.00
488.39	110.01
488.57	102.98
488.75	63.19
488.92	53.83
489.10	91.28
489.28	70.22
489.46	30.43
489.64	51.49
489.81	51.49
489.99	79.58
490.17	42.13
490.35	117.03
490.53	81.92
490.70	88.94
490.88	58.51
491.06	79.58
491.24	2.34
491.41	107.66
491.59	56.17
491.77	60.85
491.95	23.41
492.13	44.47
492.30	95.96
492.48	86.60
492.66	117.03
492.84	30.43
493.01	119.37
493.19	60.85
493.37	100.64
493.54	81.92
493.72	2.34
493.90	112.35
494.08	23.41
494.25	84.26
494.43	42.13
494.61	39.79
494.79	60.85
494.96	9.36
495.14	46.81
495.32	44.47
495.49	74.90
495.67	51.49
495.85	60.85
496.02	53.83
496.20	93.62
496.38	65.54
496.55	35.11
496.73	7.02
496.91	58.51
497.09	88.94
497.26	67.88
497.44	98.30
497.62	67.88
497.79	44.47
497.97	70.22
498.14	46.81
498.32	30.43
498.50	84.26
498.67	32.77
498.85	86.60
499.03	81.92
499.20	74.90
499.38	32.77
499.56	70.22
499.73	142.77
499.91	93.62
500.08	72.56
500.26	81.92
500.44	91.28
500.61	65.54
500.79	49.15
500.97	93.62
501.14	105.32
501.32	107.66
501.49	67.88
501.67	149.79
501.84	70.22
502.02	65.54
502.20	42.13
502.37	100.64
502.55	67.88
502.72	63.19
502.90	187.24
503.07	65.54
503.25	56.17
503.43	70.22
503.60	77.24
503.78	86.60
503.95	81.92
504.13	72.56
504.30	114.69
504.48	70.22
504.65	46.81
504.83	51.49
505.01	72.56
505.18	128.73
505.36	25.75
505.53	60.85
505.71	56.17
505.88	105.32
506.06	63.19
506.23	98.30
506.41	42.13
506.58	23.41
506.76	102.98
506.93	70.22
507.11	58.51
507.28	23.41
507.46	77.24
507.63	119.37
507.81	102.98
507.98	91.28
508.16	126.39
508.33	126.39
508.50	91.28
508.68	39.79
508.85	152.13
509.03	126.39
509.20	121.71
509.38	135.75
509.55	65.54
509.73	49.15
509.90	131.07
510.08	14.04
510.25	53.83
510.42	81.92
510.60	60.85
510.77	112.35
510.95	126.39
511.12	56.17
511.30	112.35
511.47	119.37
511.64	93.62
511.82	79.58
511.99	84.26
512.17	63.19
512.34	67.88
512.51	53.83
512.69	149.79
512.86	70.22
513.04	72.56
513.21	70.22
513.38	46.81
513.56	88.94
513.73	67.88
513.90	107.66
514.08	60.85
514.25	131.07
514.43	0.00
514.60	65.54
514.77	114.69
514.95	95.96
515.12	86.60
515.29	65.54
515.47	112.35
515.64	135.75
515.81	72.56
515.99	46.81
516.16	98.30
516.33	95.96
516.51	112.35
516.68	81.92
516.85	77.24
517.03	56.17
517.20	126.39
517.37	65.54
517.54	84.26
517.72	135.75
517.89	37.45
518.06	102.98
518.24	18.72
518.41	124.05
518.58	67.88
518.75	93.62
518.93	67.88
519.10	107.66
519.27	49.15
519.45	65.54
519.62	107.66
519.79	84.26
519.96	7.02
520.14	149.79
520.31	53.83
520.48	187.24
520.65	58.51
520.83	135.75
521.00	131.07
521.17	49.15
521.34	44.47
521.52	72.56
521.69	124.05
521.86	121.71
522.03	58.51
522.20	88.94
522.38	2.34
522.55	93.62
522.72	107.66
522.89	37.45
523.07	91.28
523.24	63.19
523.41	51.49
523.58	95.96
523.75	37.45
523.92	44.47
524.10	53.83
524.27	60.85
524.44	23.41
524.61	63.19
524.78	156.82
524.96	98.30
525.13	72.56
525.30	145.11
525.47	56.17
525.64	39.79
525.81	37.45
525.98	107.66
526.16	28.09
526.33	107.66
526.50	86.60
526.67	88.94
526.84	131.07
527.01	117.03
527.18	91.28
527.36	49.15
527.53	23.41
527.70	91.28
527.87	72.56
528.04	65.54
528.21	74.90
528.38	124.05
528.55	70.22
528.72	77.24
528.89	70.22
529.07	30.43
529.24	42.13
529.41	72.56
529.58	81.92
529.75	135.75
529.92	58.51
530.09	32.77
530.26	63.19
530.43	159.16
530.60	107.66
530.77	58.51
530.94	77.24
531.11	102.98
531.28	93.62
531.46	133.41
531.63	79.58
531.80	102.98
531.97	91.28
532.14	114.69
532.31	119.37
532.48	110.01
532.65	107.66
532.82	128.73
532.99	65.54
533.16	81.92
533.33	72.56
533.50	46.81
533.67	152.13
533.84	28.09
534.01	119.37
534.18	135.75
534.35	100.64
534.52	105.32
534.69	63.19
534.86	135.75
535.03	110.01
535.20	182.56
535.37	110.01
535.54	98.30
535.71	37.45
535.88	0.00
536.05	163.84
536.22	149.79
536.38	74.90
536.55	110.01
536.72	124.05
536.89	98.30
537.06	39.79
537.23	63.19
537.40	128.73
537.57	84.26
537.74	79.58
537.91	105.32
538.08	63.19
538.25	100.64
538.42	56.17
538.59	77.24
538.75	79.58
538.92	159.16
539.09	81.92
539.26	107.66
539.43	32.77
539.60	117.03
539.77	88.94
539.94	86.60
540.11	21.06
540.28	105.32
540.44	65.54
540.61	107.66
540.78	46.81
540.95	98.30
541.12	77.24
541.29	110.01
541.46	65.54
541.62	140.43
541.79	84.26
541.96	117.03
542.13	74.90
542.30	67.88
542.47	163.84
542.63	135.75
542.80	67.88
542.97	126.39
543.14	117.03
543.31	72.56
543.48	44.47
543.64	112.35
543.81	126.39
543.98	124.05
544.15	35.11
544.32	159.16
544.48	91.28
544.65	58.51
544.82	74.90
544.99	9.36
545.16	42.13
545.32	102.98
545.49	72.56
545.66	79.58
545.83	86.60
546.00	98.30
546.16	58.51
546.33	46.81
546.50	84.26
546.67	114.69
546.83	112.35
547.00	53.83
547.17	121.71
547.34	100.64
547.50	60.85
547.67	81.92
547.84	77.24
548.00	86.60
548.17	58.51
548.34	135.75
548.51	23.41
548.67	49.15
548.84	16.38
549.01	65.54
549.18	140.43
549.34	173.20
549.51	117.03
549.68	58.51
549.84	114.69
550.01	56.17
550.18	152.13
550.34	86.60
550.51	131.07
550.68	114.69
550.84	110.01
551.01	74.90
551.18	110.01
551.34	133.41
551.51	63.19
551.68	74.90
551.84	53.83
552.01	56.17
552.18	60.85
552.34	37.45
552.51	126.39
552.68	84.26
552.84	84.26
553.01	142.77
553.18	84.26
553.34	135.75
553.51	60.85
553.67	105.32
553.84	72.56
554.01	79.58
554.17	128.73
554.34	42.13
554.51	119.37
554.67	149.79
554.84	70.22
555.00	128.73
555.17	126.39
555.33	140.43
555.50	65.54
555.67	107.66
555.83	81.92
556.00	102.98
556.16	163.84
556.33	107.66
556.50	65.54
556.66	100.64
556.83	23.41
556.99	65.54
557.16	98.30
557.32	131.07
557.49	81.92
557.65	14.04
557.82	112.35
557.98	18.72
558.15	53.83
558.32	107.66
558.48	60.85
558.65	32.77
558.81	138.09
558.98	138.09
559.14	173.20
559.31	28.09
559.47	77.24
559.64	128.73
559.80	95.96
559.97	28.09
560.13	84.26
560.30	81.92
560.46	142.77
560.63	60.85
560.79	65.54
560.96	63.19
561.12	74.90
561.29	56.17
561.45	84.26
561.61	112.35
561.78	126.39
561.94	91.28
562.11	49.15
562.27	156.82
562.44	105.32
562.60	44.47
562.77	98.30
562.93	74.90
563.10	81.92
563.26	117.03
563.42	30.43
563.59	88.94
563.75	105.32
563.92	49.15
564.08	0.00
564.24	102.98
564.41	42.13
564.57	60.85
564.74	112.35
564.90	42.13
565.07	81.92
565.23	42.13
565.39	88.94
565.56	60.85
565.72	25.75
565.88	81.92
566.05	81.92
566.21	222.35
566.38	95.96
566.54	86.60
566.70	131.07
566.87	77.24
567.03	77.24
567.19	98.30
567.36	65.54
567.52	74.90
567.68	124.05
567.85	51.49
568.01	42.13
568.17	28.09
568.34	93.62
568.50	117.03
568.66	81.92
568.83	25.75
568.99	58.51
569.15	44.47
569.32	124.05
569.48	51.49
569.64	58.51
569.81	91.28
569.97	77.24
570.13	88.94
570.30	88.94
570.46	74.90
570.62	93.62
570.78	23.41
570.95	51.49
571.11	79.58
571.27	35.11
571.43	74.90
571.60	67.88
571.76	84.26
571.92	58.51
572.09	102.98
572.25	102.98
572.41	14.04
572.57	53.83
572.74	152.13
572.90	28.09
573.06	105.32
573.22	65.54
573.38	91.28
573.55	42.13
573.71	7.02
573.87	77.24
574.03	72.56
574.20	0.00
574.36	98.30
574.52	74.90
574.68	4.68
574.84	58.51
575.01	88.94
575.17	77.24
575.33	110.01
575.49	60.85
575.65	117.03
575.82	42.13
575.98	124.05
576.14	110.01
576.30	46.81
576.46	107.66
576.62	98.30
576.79	95.96
576.95	156.82
577.11	133.41
577.27	42.13
577.43	149.79
577.59	154.48
577.75	131.07
577.92	114.69
578.08	77.24
578.24	135.75
578.40	149.79
578.56	84.26
578.72	191.92
578.88	105.32
579.04	49.15
579.21	65.54
579.37	42.13
579.53	102.98
579.69	98.30
579.85	102.98
580.01	63.19
580.17	51.49
580.33	81.92
580.49	44.47
580.65	107.66
580.82	65.54
580.98	84.26
581.14	135.75
581.30	107.66
581.46	65.54
581.62	11.70
581.78	70.22
581.94	133.41
582.10	84.26
582.26	81.92
582.42	77.24
582.58	114.69
582.74	77.24
582.90	88.94
583.06	70.22
583.22	128.73
583.38	147.45
583.54	67.88
583.70	0.00
583.86	84.26
584.02	70.22
584.18	39.79
584.34	117.03
584.50	105.32
584.66	0.00
584.82	107.66
584.98	112.35
585.14	21.06
585.30	84.26
585.46	74.90
585.62	100.64
585.78	65.54
585.94	63.19
586.10	93.62
586.26	145.11
586.42	32.77
586.58	124.05
586.74	79.58
586.90	79.58
587.06	145.11
587.22	110.01
587.38	23.41
587.54	37.45
587.70	28.09
587.86	51.49
588.02	28.09
588.18	86.60
588.34	81.92
588.49	84.26
588.65	32.77
588.81	121.71
588.97	105.32
589.13	93.62
589.29	102.98
589.45	86.60
589.61	81.92
589.77	107.66
589.93	107.66
590.08	42.13
590.24	102.98
590.40	46.81
590.56	51.49
590.72	74.90
590.88	37.45
591.04	67.88
591.20	18.72
591.35	88.94
591.51	67.88
591.67	98.30
591.83	79.58
591.99	79.58
592.15	138.09
592.31	67.88
592.46	60.85
592.62	42.13
592.78	72.56
592.94	74.90
593.10	91.28
593.26	60.85
593.41	67.88
593.57	32.77
593.73	72.56
593.89	77.24
594.05	67.88
594.20	56.17
594.36	35.11
594.52	77.24
594.68	77.24
594.84	105.32
594.99	77.24
595.15	119.37
595.31	88.94
595.47	72.56
595.62	30.43
595.78	84.26
595.94	142.77
596.10	44.47
596.25	67.88
596.41	119.37
596.57	105.32
596.73	121.71
596.88	110.01
597.04	117.03
597.20	28.09
597.36	65.54
597.51	67.88
597.67	72.56
597.83	86.60
597.99	72.56
598.14	60.85
598.30	105.32
598.46	39.79
598.61	107.66
598.77	142.77
598.93	126.39
599.09	102.98
599.24	107.66
599.40	110.01
599.56	93.62
599.71	46.81
599.87	56.17
600.03	100.64
600.18	102.98
600.34	98.30
600.50	28.09
600.65	124.05
600.81	107.66
600.97	154.48
601.12	70.22
601.28	60.85
601.44	49.15
601.59	70.22
601.75	44.47
601.91	65.54
602.06	60.85
602.22	72.56
602.37	67.88
602.53	88.94
602.69	67.88
602.84	84.26
603.00	79.58
603.16	159.16
603.31	16.38
603.47	56.17
603.62	70.22
603.78	32.77
603.94	79.58
604.09	98.30
604.25	49.15
604.40	95.96
604.56	112.35
604.71	159.16
604.87	112.35
605.03	60.85
605.18	60.85
605.34	133.41
605.49	105.32
605.65	65.54
605.80	84.26
605.96	37.45
606.12	102.98
606.27	4.68
606.43	42.13
606.58	95.96
606.74	72.56
606.89	58.51
607.05	21.06
607.20	86.60
607.36	0.00
607.51	95.96
607.67	105.32
607.82	112.35
607.98	49.15
608.13	74.90
608.29	117.03
608.44	0.00
608.60	67.88
608.75	21.06
608.91	0.00
609.06	142.77
609.22	79.58
609.37	70.22
609.53	46.81
609.68	65.54
609.84	93.62
609.99	51.49
610.15	46.81
610.30	98.30
610.46	98.30
610.61	65.54
610.76	0.00
610.92	74.90
611.07	70.22
611.23	63.19
611.38	35.11
611.54	86.60
611.69	70.22
611.84	86.60
612.00	39.79
612.15	72.56
612.31	46.81
612.46	100.64
612.62	65.54
612.77	159.16
612.92	79.58
613.08	67.88
613.23	117.03
613.39	65.54
613.54	23.41
613.69	88.94
613.85	131.07
614.00	105.32
614.15	74.90
614.31	91.28
614.46	18.72
614.62	74.90
614.77	18.72
614.92	65.54
615.08	79.58
615.23	79.58
615.38	18.72
615.54	51.49
615.69	18.72
615.84	44.47
616.00	28.09
616.15	53.83
616.30	70.22
616.46	58.51
616.61	74.90
616.76	28.09
616.92	0.00
617.07	23.41
617.22	117.03
617.37	4.68
617.53	175.54
617.68	51.49
617.83	112.35
617.99	142.77
618.14	23.41
618.29	30.43
618.45	67.88
618.60	91.28
618.75	32.77
618.90	74.90
619.06	156.82
619.21	142.77
619.36	81.92
619.51	37.45
619.67	98.30
619.82	91.28
619.97	58.51
620.12	119.37
620.28	53.83
620.43	114.69
620.58	105.32
620.73	102.98
620.89	42.13
621.04	77.24
621.19	117.03
621.34	67.88
621.49	53.83
621.65	46.81
621.80	51.49
621.95	25.75
622.10	140.43
622.25	72.56
622.41	44.47
622.56	119.37
622.71	88.94
622.86	0.00
623.01	88.94
623.16	84.26
623.32	74.90
623.47	42.13
623.62	63.19
623.77	56.17
623.92	21.06
624.07	42.13
624.23	44.47
624.38	14.04
624.53	79.58
624.68	58.51
624.83	51.49
624.98	21.06
625.13	102.98
625.29	81.92
625.44	138.09
625.59	56.17
625.74	131.07
625.89	51.49
626.04	84.26
626.19	37.45
626.34	18.72
626.49	74.90
626.65	100.64
626.80	25.75
626.95	7.02
627.10	74.90
627.25	74.90
627.40	91.28
627.55	32.77
627.70	16.38
627.85	77.24
628.00	32.77
628.15	9.36
628.30	72.56
628.45	23.41
628.60	98.30
628.76	23.41
628.91	95.96
629.06	37.45
629.21	58.51
629.36	42.13
629.51	14.04
629.66	35.11
629.81	77.24
629.96	18.72
630.11	37.45
630.26	53.83
630.41	95.96
630.56	0.00
630.71	49.15
630.86	14.04
631.01	77.24
631.16	117.03
631.31	30.43
631.46	114.69
631.61	100.64
631.76	70.22
631.91	53.83
632.06	42.13
632.21	44.47
632.36	0.00
632.51	65.54
632.66	42.13
632.81	51.49
632.96	0.00
633.10	49.15
633.25	0.00
633.40	140.43
633.55	98.30
633.70	46.81
633.85	77.24
634.00	72.56
634.15	77.24
634.30	63.19
634.45	46.81
634.60	25.75
634.75	77.24
634.90	67.88
635.05	102.98
635.19	100.64
635.34	49.15
635.49	156.82
635.64	18.72
635.79	70.22
635.94	32.77
636.09	142.77
636.24	88.94
636.39	70.22
636.53	98.30
636.68	84.26
636.83	95.96
636.98	25.75
637.13	79.58
637.28	100.64
637.43	28.09
637.57	88.94
637.72	84.26
637.87	67.88
638.02	14.04
638.17	0.00
638.32	100.64
638.46	37.45
638.61	7.02
638.76	98.30
638.91	46.81
639.06	46.81
639.20	25.75
639.35	98.30
639.50	107.66
639.65	58.51
639.80	30.43
639.94	23.41
640.09	42.13
640.24	18.72
640.39	32.77
640.54	35.11
640.68	51.49
640.83	72.56
640.98	74.90
641.13	39.79
641.27	124.05
641.42	32.77
641.57	126.39
641.72	63.19
641.86	4.68
642.01	138.09
642.16	25.75
642.31	72.56
642.45	117.03
642.60	51.49
642.75	58.51
642.90	32.77
643.04	35.11
643.19	18.72
643.34	86.60
643.48	63.19
643.63	88.94
643.78	63.19
643.93	46.81
644.07	51.49
644.22	49.15
644.37	49.15
644.51	100.64
644.66	7.02
644.81	67.88
644.95	60.85
645.10	53.83
645.25	91.28
645.39	37.45
645.54	67.88
645.69	4.68
645.83	0.00
645.98	56.17
646.13	117.03
646.27	51.49
646.42	88.94
646.57	133.41
646.71	77.24
646.86	112.35
647.00	0.00
647.15	21.06
647.30	9.36
647.44	88.94
647.59	133.41
647.74	7.02
647.88	70.22
648.03	77.24
648.17	147.45
648.32	67.88
648.47	37.45
648.61	39.79
648.76	105.32
648.90	21.06
649.05	25.75
649.20	102.98
649.34	0.00
649.49	0.00
649.63	16.38
649.78	32.77
649.92	46.81
650.07	18.72
650.21	46.81
650.36	25.75
650.51	9.36
650.65	0.00
650.80	79.58
650.94	72.56
651.09	39.79
651.23	70.22
651.38	46.81
651.52	105.32
651.67	49.15
651.81	65.54
651.96	28.09
652.10	51.49
652.25	63.19
652.39	42.13
652.54	32.77
652.68	35.11
652.83	114.69
652.97	2.34
653.12	81.92
653.26	46.81
653.41	14.04
653.55	58.51
653.70	32.77
653.84	0.00
653.99	56.17
654.13	51.49
654.27	63.19
654.42	112.35
654.56	60.85
654.71	42.13
654.85	133.41
655.00	65.54
655.14	93.62
655.29	14.04
655.43	42.13
655.57	56.17
655.72	25.75
655.86	16.38
656.01	65.54
656.15	30.43
656.30	91.28
656.44	72.56
656.58	23.41
656.73	49.15
656.87	25.75
657.01	65.54
657.16	67.88
657.30	58.51
657.45	133.41
657.59	39.79
657.73	39.79
657.88	18.72
658.02	53.83
658.16	110.01
658.31	23.41
658.45	0.00
658.60	46.81
658.74	140.43
658.88	18.72
659.03	35.11
659.17	0.00
659.31	53.83
659.46	46.81
659.60	124.05
659.74	0.00
659.89	65.54
660.03	56.17
660.17	58.51
660.32	100.64
660.46	51.49
660.60	110.01
660.74	25.75
660.89	49.15
661.03	39.79
661.17	0.00
661.32	4.68
661.46	77.24
661.60	65.54
661.74	28.09
661.89	32.77
662.03	74.90
662.17	35.11
662.31	58.51
662.46	114.69
662.60	53.83
662.74	114.69
662.88	16.38
663.03	21.06
663.17	35.11
663.31	28.09
663.45	28.09
663.60	32.77
663.74	21.06
663.88	84.26
664.02	0.00
664.17	70.22
664.31	0.00
664.45	25.75
664.59	79.58
664.73	93.62
664.88	84.26
665.02	145.11
665.16	95.96
665.30	67.88
665.44	63.19
665.59	51.49
665.73	91.28
665.87	37.45
666.01	44.47
666.15	25.75
666.29	56.17
666.44	163.84
666.58	63.19
666.72	42.13
666.86	30.43
667.00	67.88
667.14	119.37
667.28	60.85
667.43	58.51
667.57	72.56
667.71	124.05
667.85	4.68
667.99	0.00
668.13	37.45
668.27	37.45
668.41	37.45
668.56	88.94
668.70	70.22
668.84	79.58
668.98	79.58
669.12	67.88
669.26	98.30
669.40	42.13
669.54	39.79
669.68	32.77
669.82	21.06
669.96	105.32
670.10	51.49
670.25	11.70
670.39	23.41
670.53	0.00
670.67	35.11
670.81	44.47
670.95	16.38
671.09	149.79
671.23	72.56
671.37	98.30
671.51	14.04
671.65	46.81
671.79	56.17
671.93	25.75
672.07	88.94
672.21	72.56
672.35	51.49
672.49	23.41
672.63	63.19
672.77	0.00
672.91	25.75
673.05	102.98
673.19	2.34
673.33	58.51
673.47	0.00
673.61	14.04
673.75	39.79
673.89	63.19
674.03	46.81
674.17	105.32
674.31	51.49
674.45	72.56
674.59	56.17
674.73	58.51
674.87	42.13
675.01	42.13
675.15	9.36
675.29	88.94
675.43	138.09
675.56	37.45
675.70	65.54
675.84	84.26
675.98	39.79
676.12	53.83
676.26	100.64
676.40	112.35
676.54	72.56
676.68	79.58
676.82	32.77
676.96	39.79
677.10	2.34
677.23	37.45
677.37	70.22
677.51	35.11
677.65	11.70
677.79	0.00
677.93	67.88
678.07	42.13
678.21	7.02
678.34	46.81
678.48	102.98
678.62	23.41
678.76	117.03
678.90	14.04
679.04	51.49
679.18	88.94
679.31	0.00
679.45	21.06
679.59	70.22
679.73	67.88
679.87	67.88
680.00	23.41
680.14	53.83
680.28	0.00
680.42	91.28
680.56	39.79
680.70	60.85
680.83	30.43
680.97	49.15
681.11	70.22
681.25	39.79
681.39	102.98
681.52	25.75
681.66	32.77
681.80	28.09
681.94	117.03
682.07	77.24
682.21	37.45
682.35	98.30
682.49	9.36
682.62	100.64
682.76	79.58
682.90	117.03
683.04	110.01
683.17	46.81
683.31	53.83
683.45	25.75
683.59	32.77
683.72	72.56
683.86	60.85
684.00	58.51
684.13	30.43
684.27	49.15
684.41	23.41
684.55	60.85
684.68	30.43
684.82	67.88
684.96	81.92
685.09	51.49
685.23	16.38
685.37	39.79
685.50	37.45
685.64	42.13
685.78	28.09
685.91	72.56
686.05	100.64
686.19	0.00
686.32	0.00
686.46	35.11
686.60	30.43
686.73	0.00
686.87	0.00
687.01	63.19
687.14	53.83
687.28	28.09
687.42	0.00
687.55	0.00
687.69	39.79
687.82	110.01
687.96	117.03
688.10	58.51
688.23	58.51
688.37	35.11
688.50	35.11
688.64	28.09
688.78	21.06
688.91	72.56
689.05	51.49
689.18	0.00
689.32	0.00
689.46	0.00
689.59	53.83
689.73	0.00
689.86	16.38
690.00	88.94
690.13	72.56
690.27	49.15
690.41	39.79
690.54	42.13
690.68	32.77
690.81	0.00
690.95	46.81
691.08	44.47
691.22	42.13
691.35	7.02
691.49	28.09
691.62	39.79
691.76	14.04
691.89	23.41
692.03	81.92
692.16	60.85
692.30	18.72
692.43	93.62
692.57	86.60
692.70	30.43
692.84	84.26
692.97	119.37
693.11	79.58
693.24	18.72
693.38	42.13
693.51	21.06
693.65	67.88
693.78	65.54
693.92	49.15
694.05	9.36
694.19	23.41
694.32	98.30
694.45	32.77
694.59	28.09
694.72	2.34
694.86	49.15
694.99	32.77
695.13	44.47
695.26	30.43
695.39	44.47
695.53	30.43
695.66	14.04
695.80	46.81
695.93	32.77
696.07	18.72
696.20	23.41
696.33	18.72
696.47	2.34
696.60	79.58
696.73	42.13
696.87	58.51
697.00	46.81
697.14	53.83
697.27	0.00
697.40	67.88
697.54	42.13
697.67	25.75
697.80	0.00
697.94	0.00
698.07	2.34
698.21	77.24
698.34	0.00
698.47	35.11
698.61	58.51
698.74	88.94
698.87	102.98
699.01	39.79
699.14	0.00
699.27	14.04
699.40	77.24
699.54	0.00
699.67	77.24
699.80	93.62
699.94	39.79
700.07	11.70
700.20	0.00
700.34	56.17
700.47	4.68
700.60	14.04
700.73	74.90
700.87	74.90
701.00	9.36
701.13	46.81
701.26	35.11
701.40	58.51
701.53	0.00
701.66	88.94
701.79	25.75
701.93	72.56
702.06	63.19
702.19	51.49
702.32	70.22
702.46	21.06
702.59	56.17
702.72	65.54
702.85	46.81
702.99	0.00
703.12	93.62
703.25	102.98
703.38	65.54
703.51	23.41
703.65	16.38
703.78	2.34
703.91	81.92
704.04	0.00
704.17	25.75
704.31	14.04
704.44	74.90
704.57	51.49
704.70	53.83
704.83	9.36
704.96	72.56
705.10	32.77
705.23	30.43
>>>>>End Processed Spectral Data<<<<<
