SpectraSuite Data File
++++++++++++++++++++++++++++++++++++
Date: Fri Oct 04 12:13:29 GMT-05:00 2013
User: price-jones
Dark Spectrum Present: No
Reference Spectrum Present: No
Number of Sampled Component Spectra: 1
Spectrometers: USB2+H05261
Integration Time (usec): 10000 (USB2+H05261)
Spectra Averaged: 1 (USB2+H05261)
Boxcar Smoothing: 0 (USB2+H05261)
Correct for Electrical Dark: No (USB2+H05261)
Strobe/Lamp Enabled: No (USB2+H05261)
Correct for Detector Non-linearity: No (USB2+H05261)
Correct for Stray Light: No (USB2+H05261)
Number of Pixels in Processed Spectrum: 2048
>>>>>Begin Processed Spectral Data<<<<<
365.73	0.00
365.92	0.00
366.12	0.00
366.32	0.00
366.52	0.00
366.72	0.00
366.91	0.00
367.11	0.00
367.31	0.00
367.51	0.00
367.70	0.00
367.90	0.00
368.10	0.00
368.30	0.00
368.49	0.00
368.69	0.00
368.89	0.00
369.09	0.00
369.28	0.00
369.48	0.00
369.68	0.00
369.87	0.00
370.07	0.00
370.27	0.00
370.47	0.00
370.66	0.00
370.86	0.00
371.06	0.00
371.25	42.13
371.45	0.00
371.65	70.22
371.84	28.09
372.04	0.00
372.24	0.00
372.44	39.79
372.63	0.00
372.83	0.00
373.03	95.96
373.22	44.47
373.42	84.26
373.62	91.28
373.81	46.81
374.01	23.41
374.21	53.83
374.40	0.00
374.60	70.22
374.79	42.13
374.99	0.00
375.19	42.13
375.38	46.81
375.58	117.03
375.78	0.00
375.97	58.51
376.17	39.79
376.37	81.92
376.56	0.00
376.76	63.19
376.95	28.09
377.15	77.24
377.35	30.43
377.54	2.34
377.74	32.77
377.93	58.51
378.13	32.77
378.33	7.02
378.52	39.79
378.72	35.11
378.91	84.26
379.11	14.04
379.31	58.51
379.50	0.00
379.70	0.00
379.89	14.04
380.09	23.41
380.28	46.81
380.48	30.43
380.68	0.00
380.87	0.00
381.07	0.00
381.26	4.68
381.46	0.00
381.65	0.00
381.85	0.00
382.04	23.41
382.24	44.47
382.43	21.06
382.63	25.75
382.83	16.38
383.02	32.77
383.22	42.13
383.41	28.09
383.61	0.00
383.80	0.00
384.00	16.38
384.19	44.47
384.39	16.38
384.58	105.32
384.78	0.00
384.97	49.15
385.17	0.00
385.36	0.00
385.56	30.43
385.75	7.02
385.95	11.70
386.14	0.00
386.34	0.00
386.53	42.13
386.72	0.00
386.92	9.36
387.11	0.00
387.31	0.00
387.50	18.72
387.70	112.35
387.89	2.34
388.09	56.17
388.28	9.36
388.48	0.00
388.67	44.47
388.86	25.75
389.06	25.75
389.25	0.00
389.45	0.00
389.64	0.00
389.84	0.00
390.03	0.00
390.22	23.41
390.42	4.68
390.61	107.66
390.81	65.54
391.00	53.83
391.19	9.36
391.39	67.88
391.58	0.00
391.78	28.09
391.97	42.13
392.16	53.83
392.36	16.38
392.55	0.00
392.75	51.49
392.94	110.01
393.13	46.81
393.33	0.00
393.52	0.00
393.71	2.34
393.91	16.38
394.10	2.34
394.29	60.85
394.49	0.00
394.68	0.00
394.88	21.06
395.07	0.00
395.26	72.56
395.46	0.00
395.65	53.83
395.84	30.43
396.04	65.54
396.23	2.34
396.42	7.02
396.62	42.13
396.81	0.00
397.00	21.06
397.19	49.15
397.39	53.83
397.58	16.38
397.77	14.04
397.97	0.00
398.16	4.68
398.35	0.00
398.55	65.54
398.74	44.47
398.93	0.00
399.12	60.85
399.32	4.68
399.51	53.83
399.70	0.00
399.90	63.19
400.09	0.00
400.28	0.00
400.47	30.43
400.67	0.00
400.86	14.04
401.05	23.41
401.24	14.04
401.44	32.77
401.63	0.00
401.82	28.09
402.01	70.22
402.21	0.00
402.40	0.00
402.59	30.43
402.78	35.11
402.97	14.04
403.17	0.00
403.36	0.00
403.55	37.45
403.74	28.09
403.93	2.34
404.13	30.43
404.32	0.00
404.51	28.09
404.70	18.72
404.89	4.68
405.09	32.77
405.28	28.09
405.47	0.00
405.66	0.00
405.85	25.75
406.05	0.00
406.24	0.00
406.43	58.51
406.62	28.09
406.81	49.15
407.00	2.34
407.20	0.00
407.39	39.79
407.58	53.83
407.77	0.00
407.96	18.72
408.15	0.00
408.34	72.56
408.54	65.54
408.73	53.83
408.92	0.00
409.11	44.47
409.30	21.06
409.49	2.34
409.68	0.00
409.87	9.36
410.07	0.00
410.26	0.00
410.45	39.79
410.64	23.41
410.83	0.00
411.02	0.00
411.21	23.41
411.40	0.00
411.59	0.00
411.78	88.94
411.98	11.70
412.17	42.13
412.36	16.38
412.55	35.11
412.74	53.83
412.93	42.13
413.12	14.04
413.31	16.38
413.50	25.75
413.69	18.72
413.88	30.43
414.07	88.94
414.26	88.94
414.45	79.58
414.64	0.00
414.83	2.34
415.02	30.43
415.22	25.75
415.41	56.17
415.60	49.15
415.79	56.17
415.98	30.43
416.17	44.47
416.36	53.83
416.55	32.77
416.74	49.15
416.93	58.51
417.12	21.06
417.31	0.00
417.50	0.00
417.69	0.00
417.88	0.00
418.07	0.00
418.26	16.38
418.45	53.83
418.64	4.68
418.83	105.32
419.02	91.28
419.21	0.00
419.39	63.19
419.58	86.60
419.77	0.00
419.96	81.92
420.15	51.49
420.34	28.09
420.53	21.06
420.72	7.02
420.91	79.58
421.10	37.45
421.29	16.38
421.48	77.24
421.67	0.00
421.86	0.00
422.05	0.00
422.24	46.81
422.43	53.83
422.61	23.41
422.80	0.00
422.99	0.00
423.18	21.06
423.37	0.00
423.56	0.00
423.75	79.58
423.94	56.17
424.13	0.00
424.32	9.36
424.50	124.05
424.69	0.00
424.88	11.70
425.07	102.98
425.26	72.56
425.45	88.94
425.64	28.09
425.83	0.00
426.01	0.00
426.20	25.75
426.39	0.00
426.58	86.60
426.77	11.70
426.96	37.45
427.15	0.00
427.33	0.00
427.52	9.36
427.71	37.45
427.90	21.06
428.09	56.17
428.28	58.51
428.46	67.88
428.65	0.00
428.84	67.88
429.03	46.81
429.22	16.38
429.40	18.72
429.59	0.00
429.78	95.96
429.97	44.47
430.16	35.11
430.34	35.11
430.53	77.24
430.72	53.83
430.91	18.72
431.10	0.00
431.28	53.83
431.47	72.56
431.66	58.51
431.85	49.15
432.03	37.45
432.22	102.98
432.41	72.56
432.60	53.83
432.79	49.15
432.97	7.02
433.16	37.45
433.35	86.60
433.54	32.77
433.72	0.00
433.91	28.09
434.10	49.15
434.28	0.00
434.47	0.00
434.66	77.24
434.85	0.00
435.03	44.47
435.22	16.38
435.41	65.54
435.59	0.00
435.78	21.06
435.97	32.77
436.16	0.00
436.34	32.77
436.53	98.30
436.72	95.96
436.90	74.90
437.09	21.06
437.28	21.06
437.46	18.72
437.65	63.19
437.84	49.15
438.02	23.41
438.21	91.28
438.40	30.43
438.58	46.81
438.77	79.58
438.96	0.00
439.14	37.45
439.33	0.00
439.52	74.90
439.70	102.98
439.89	0.00
440.08	51.49
440.26	74.90
440.45	35.11
440.63	58.51
440.82	37.45
441.01	16.38
441.19	9.36
441.38	0.00
441.57	42.13
441.75	58.51
441.94	107.66
442.12	39.79
442.31	84.26
442.50	0.00
442.68	0.00
442.87	58.51
443.05	65.54
443.24	30.43
443.43	49.15
443.61	63.19
443.80	2.34
443.98	39.79
444.17	35.11
444.35	16.38
444.54	51.49
444.73	0.00
444.91	42.13
445.10	23.41
445.28	2.34
445.47	51.49
445.65	28.09
445.84	53.83
446.02	21.06
446.21	18.72
446.39	86.60
446.58	18.72
446.77	25.75
446.95	49.15
447.14	0.00
447.32	18.72
447.51	58.51
447.69	56.17
447.88	14.04
448.06	28.09
448.25	18.72
448.43	0.00
448.62	23.41
448.80	21.06
448.99	0.00
449.17	53.83
449.36	70.22
449.54	60.85
449.73	35.11
449.91	58.51
450.10	9.36
450.28	0.00
450.46	44.47
450.65	56.17
450.83	0.00
451.02	11.70
451.20	58.51
451.39	32.77
451.57	44.47
451.76	18.72
451.94	30.43
452.13	60.85
452.31	28.09
452.49	65.54
452.68	56.17
452.86	81.92
453.05	25.75
453.23	0.00
453.42	30.43
453.60	9.36
453.78	42.13
453.97	46.81
454.15	0.00
454.34	46.81
454.52	0.00
454.70	25.75
454.89	0.00
455.07	30.43
455.26	67.88
455.44	51.49
455.62	63.19
455.81	77.24
455.99	14.04
456.17	0.00
456.36	46.81
456.54	53.83
456.73	70.22
456.91	117.03
457.09	100.64
457.28	9.36
457.46	56.17
457.64	0.00
457.83	102.98
458.01	42.13
458.19	65.54
458.38	28.09
458.56	49.15
458.74	95.96
458.93	58.51
459.11	23.41
459.29	28.09
459.48	53.83
459.66	0.00
459.84	0.00
460.03	25.75
460.21	0.00
460.39	81.92
460.57	23.41
460.76	72.56
460.94	37.45
461.12	0.00
461.31	51.49
461.49	32.77
461.67	32.77
461.85	0.00
462.04	51.49
462.22	102.98
462.40	25.75
462.59	28.09
462.77	74.90
462.95	42.13
463.13	65.54
463.32	0.00
463.50	67.88
463.68	28.09
463.86	37.45
464.05	0.00
464.23	60.85
464.41	58.51
464.59	102.98
464.78	35.11
464.96	107.66
465.14	14.04
465.32	0.00
465.50	4.68
465.69	49.15
465.87	0.00
466.05	63.19
466.23	72.56
466.41	44.47
466.60	72.56
466.78	44.47
466.96	67.88
467.14	72.56
467.32	51.49
467.51	7.02
467.69	0.00
467.87	46.81
468.05	0.00
468.23	23.41
468.41	0.00
468.60	0.00
468.78	65.54
468.96	0.00
469.14	51.49
469.32	4.68
469.50	14.04
469.69	77.24
469.87	65.54
470.05	35.11
470.23	16.38
470.41	25.75
470.59	30.43
470.77	88.94
470.95	16.38
471.14	23.41
471.32	72.56
471.50	44.47
471.68	18.72
471.86	131.07
472.04	37.45
472.22	0.00
472.40	0.00
472.58	0.00
472.77	0.00
472.95	16.38
473.13	119.37
473.31	39.79
473.49	18.72
473.67	0.00
473.85	16.38
474.03	0.00
474.21	65.54
474.39	37.45
474.57	44.47
474.75	58.51
474.93	0.00
475.12	9.36
475.30	23.41
475.48	30.43
475.66	9.36
475.84	0.00
476.02	30.43
476.20	0.00
476.38	37.45
476.56	63.19
476.74	0.00
476.92	21.06
477.10	51.49
477.28	0.00
477.46	0.00
477.64	23.41
477.82	21.06
478.00	88.94
478.18	39.79
478.36	100.64
478.54	0.00
478.72	53.83
478.90	42.13
479.08	25.75
479.26	112.35
479.44	42.13
479.62	32.77
479.80	21.06
479.98	0.00
480.16	60.85
480.34	95.96
480.52	63.19
480.70	39.79
480.88	39.79
481.06	74.90
481.24	30.43
481.41	0.00
481.59	28.09
481.77	35.11
481.95	39.79
482.13	58.51
482.31	0.00
482.49	4.68
482.67	0.00
482.85	0.00
483.03	30.43
483.21	9.36
483.39	60.85
483.57	70.22
483.74	2.34
483.92	0.00
484.10	0.00
484.28	18.72
484.46	53.83
484.64	72.56
484.82	23.41
485.00	0.00
485.18	46.81
485.35	0.00
485.53	72.56
485.71	2.34
485.89	79.58
486.07	30.43
486.25	7.02
486.43	84.26
486.61	0.00
486.78	58.51
486.96	0.00
487.14	49.15
487.32	79.58
487.50	0.00
487.68	53.83
487.85	46.81
488.03	18.72
488.21	0.00
488.39	30.43
488.57	30.43
488.75	9.36
488.92	0.00
489.10	102.98
489.28	72.56
489.46	70.22
489.64	93.62
489.81	7.02
489.99	51.49
490.17	51.49
490.35	53.83
490.53	84.26
490.70	11.70
490.88	53.83
491.06	100.64
491.24	65.54
491.41	100.64
491.59	23.41
491.77	42.13
491.95	0.00
492.13	28.09
492.30	0.00
492.48	98.30
492.66	84.26
492.84	70.22
493.01	7.02
493.19	0.00
493.37	32.77
493.54	46.81
493.72	0.00
493.90	60.85
494.08	0.00
494.25	7.02
494.43	32.77
494.61	4.68
494.79	28.09
494.96	95.96
495.14	0.00
495.32	74.90
495.49	37.45
495.67	0.00
495.85	14.04
496.02	58.51
496.20	14.04
496.38	102.98
496.55	0.00
496.73	0.00
496.91	23.41
497.09	42.13
497.26	37.45
497.44	79.58
497.62	37.45
497.79	74.90
497.97	51.49
498.14	51.49
498.32	0.00
498.50	30.43
498.67	23.41
498.85	110.01
499.03	0.00
499.20	42.13
499.38	107.66
499.56	0.00
499.73	4.68
499.91	44.47
500.08	81.92
500.26	32.77
500.44	18.72
500.61	46.81
500.79	0.00
500.97	51.49
501.14	70.22
501.32	2.34
501.49	0.00
501.67	119.37
501.84	65.54
502.02	0.00
502.20	79.58
502.37	32.77
502.55	72.56
502.72	30.43
502.90	51.49
503.07	14.04
503.25	7.02
503.43	0.00
503.60	30.43
503.78	56.17
503.95	86.60
504.13	84.26
504.30	11.70
504.48	74.90
504.65	56.17
504.83	32.77
505.01	7.02
505.18	0.00
505.36	133.41
505.53	0.00
505.71	2.34
505.88	21.06
506.06	51.49
506.23	11.70
506.41	65.54
506.58	28.09
506.76	18.72
506.93	56.17
507.11	63.19
507.28	16.38
507.46	88.94
507.63	0.00
507.81	32.77
507.98	2.34
508.16	70.22
508.33	51.49
508.50	25.75
508.68	44.47
508.85	81.92
509.03	35.11
509.20	35.11
509.38	67.88
509.55	58.51
509.73	0.00
509.90	14.04
510.08	102.98
510.25	56.17
510.42	2.34
510.60	49.15
510.77	30.43
510.95	44.47
511.12	70.22
511.30	23.41
511.47	51.49
511.64	0.00
511.82	37.45
511.99	60.85
512.17	46.81
512.34	32.77
512.51	0.00
512.69	84.26
512.86	28.09
513.04	51.49
513.21	0.00
513.38	39.79
513.56	86.60
513.73	0.00
513.90	42.13
514.08	11.70
514.25	0.00
514.43	11.70
514.60	0.00
514.77	25.75
514.95	21.06
515.12	72.56
515.29	28.09
515.47	16.38
515.64	0.00
515.81	42.13
515.99	0.00
516.16	23.41
516.33	0.00
516.51	0.00
516.68	0.00
516.85	0.00
517.03	74.90
517.20	100.64
517.37	11.70
517.54	14.04
517.72	56.17
517.89	77.24
518.06	0.00
518.24	25.75
518.41	77.24
518.58	128.73
518.75	14.04
518.93	77.24
519.10	9.36
519.27	81.92
519.45	74.90
519.62	51.49
519.79	49.15
519.96	53.83
520.14	63.19
520.31	30.43
520.48	37.45
520.65	93.62
520.83	0.00
521.00	14.04
521.17	21.06
521.34	46.81
521.52	70.22
521.69	14.04
521.86	86.60
522.03	30.43
522.20	42.13
522.38	14.04
522.55	0.00
522.72	74.90
522.89	37.45
523.07	100.64
523.24	9.36
523.41	63.19
523.58	51.49
523.75	60.85
523.92	60.85
524.10	0.00
524.27	70.22
524.44	74.90
524.61	67.88
524.78	84.26
524.96	42.13
525.13	0.00
525.30	42.13
525.47	84.26
525.64	0.00
525.81	105.32
525.98	67.88
526.16	39.79
526.33	0.00
526.50	7.02
526.67	88.94
526.84	74.90
527.01	35.11
527.18	0.00
527.36	51.49
527.53	46.81
527.70	67.88
527.87	0.00
528.04	91.28
528.21	37.45
528.38	95.96
528.55	51.49
528.72	23.41
528.89	16.38
529.07	51.49
529.24	21.06
529.41	0.00
529.58	91.28
529.75	0.00
529.92	56.17
530.09	110.01
530.26	58.51
530.43	67.88
530.60	0.00
530.77	28.09
530.94	95.96
531.11	70.22
531.28	46.81
531.46	79.58
531.63	49.15
531.80	46.81
531.97	0.00
532.14	39.79
532.31	39.79
532.48	32.77
532.65	11.70
532.82	107.66
532.99	114.69
533.16	51.49
533.33	58.51
533.50	9.36
533.67	60.85
533.84	18.72
534.01	30.43
534.18	84.26
534.35	11.70
534.52	28.09
534.69	23.41
534.86	81.92
535.03	42.13
535.20	65.54
535.37	105.32
535.54	53.83
535.71	4.68
535.88	81.92
536.05	0.00
536.22	58.51
536.38	16.38
536.55	58.51
536.72	42.13
536.89	51.49
537.06	9.36
537.23	35.11
537.40	0.00
537.57	7.02
537.74	56.17
537.91	16.38
538.08	0.00
538.25	98.30
538.42	56.17
538.59	58.51
538.75	0.00
538.92	46.81
539.09	126.39
539.26	35.11
539.43	42.13
539.60	95.96
539.77	182.56
539.94	102.98
540.11	79.58
540.28	32.77
540.44	18.72
540.61	58.51
540.78	63.19
540.95	53.83
541.12	42.13
541.29	79.58
541.46	18.72
541.62	4.68
541.79	56.17
541.96	65.54
542.13	102.98
542.30	9.36
542.47	37.45
542.63	30.43
542.80	72.56
542.97	56.17
543.14	0.00
543.31	0.00
543.48	7.02
543.64	11.70
543.81	23.41
543.98	42.13
544.15	0.00
544.32	7.02
544.48	51.49
544.65	46.81
544.82	58.51
544.99	86.60
545.16	72.56
545.32	56.17
545.49	49.15
545.66	63.19
545.83	84.26
546.00	156.82
546.16	32.77
546.33	72.56
546.50	88.94
546.67	46.81
546.83	51.49
547.00	91.28
547.17	44.47
547.34	60.85
547.50	105.32
547.67	70.22
547.84	138.09
548.00	32.77
548.17	0.00
548.34	21.06
548.51	74.90
548.67	0.00
548.84	32.77
549.01	4.68
549.18	39.79
549.34	23.41
549.51	11.70
549.68	9.36
549.84	4.68
550.01	37.45
550.18	105.32
550.34	77.24
550.51	51.49
550.68	74.90
550.84	98.30
551.01	86.60
551.18	25.75
551.34	60.85
551.51	37.45
551.68	0.00
551.84	58.51
552.01	21.06
552.18	37.45
552.34	105.32
552.51	98.30
552.68	74.90
552.84	0.00
553.01	0.00
553.18	53.83
553.34	65.54
553.51	32.77
553.67	72.56
553.84	63.19
554.01	0.00
554.17	63.19
554.34	44.47
554.51	44.47
554.67	98.30
554.84	133.41
555.00	11.70
555.17	88.94
555.33	9.36
555.50	32.77
555.67	28.09
555.83	86.60
556.00	86.60
556.16	168.52
556.33	65.54
556.50	51.49
556.66	51.49
556.83	63.19
556.99	21.06
557.16	18.72
557.32	49.15
557.49	93.62
557.65	14.04
557.82	100.64
557.98	4.68
558.15	58.51
558.32	161.50
558.48	37.45
558.65	32.77
558.81	35.11
558.98	9.36
559.14	51.49
559.31	9.36
559.47	46.81
559.64	42.13
559.80	70.22
559.97	53.83
560.13	63.19
560.30	58.51
560.46	65.54
560.63	58.51
560.79	46.81
560.96	58.51
561.12	30.43
561.29	60.85
561.45	32.77
561.61	0.00
561.78	70.22
561.94	0.00
562.11	0.00
562.27	42.13
562.44	18.72
562.60	25.75
562.77	23.41
562.93	39.79
563.10	95.96
563.26	49.15
563.42	32.77
563.59	30.43
563.75	25.75
563.92	65.54
564.08	25.75
564.24	37.45
564.41	79.58
564.57	81.92
564.74	84.26
564.90	110.01
565.07	37.45
565.23	49.15
565.39	53.83
565.56	102.98
565.72	0.00
565.88	14.04
566.05	56.17
566.21	35.11
566.38	110.01
566.54	9.36
566.70	51.49
566.87	35.11
567.03	30.43
567.19	21.06
567.36	7.02
567.52	91.28
567.68	11.70
567.85	81.92
568.01	63.19
568.17	72.56
568.34	11.70
568.50	0.00
568.66	105.32
568.83	32.77
568.99	0.00
569.15	32.77
569.32	39.79
569.48	65.54
569.64	39.79
569.81	56.17
569.97	110.01
570.13	74.90
570.30	49.15
570.46	79.58
570.62	42.13
570.78	30.43
570.95	0.00
571.11	2.34
571.27	74.90
571.43	7.02
571.60	98.30
571.76	11.70
571.92	18.72
572.09	2.34
572.25	0.00
572.41	28.09
572.57	28.09
572.74	93.62
572.90	30.43
573.06	16.38
573.22	56.17
573.38	60.85
573.55	7.02
573.71	23.41
573.87	72.56
574.03	0.00
574.20	49.15
574.36	65.54
574.52	42.13
574.68	30.43
574.84	44.47
575.01	21.06
575.17	2.34
575.33	95.96
575.49	86.60
575.65	81.92
575.82	70.22
575.98	28.09
576.14	88.94
576.30	4.68
576.46	63.19
576.62	46.81
576.79	14.04
576.95	175.54
577.11	79.58
577.27	25.75
577.43	18.72
577.59	4.68
577.75	0.00
577.92	37.45
578.08	0.00
578.24	44.47
578.40	0.00
578.56	58.51
578.72	67.88
578.88	65.54
579.04	0.00
579.21	0.00
579.37	42.13
579.53	25.75
579.69	0.00
579.85	32.77
580.01	53.83
580.17	0.00
580.33	79.58
580.49	0.00
580.65	0.00
580.82	23.41
580.98	4.68
581.14	37.45
581.30	70.22
581.46	56.17
581.62	70.22
581.78	88.94
581.94	81.92
582.10	23.41
582.26	58.51
582.42	79.58
582.58	32.77
582.74	0.00
582.90	37.45
583.06	53.83
583.22	28.09
583.38	18.72
583.54	30.43
583.70	182.56
583.86	112.35
584.02	124.05
584.18	37.45
584.34	124.05
584.50	191.92
584.66	1231.12
584.82	2689.28
584.98	3543.57
585.14	2991.20
585.30	1989.46
585.46	1245.16
585.62	786.42
585.78	367.46
585.94	156.82
586.10	105.32
586.26	79.58
586.42	58.51
586.58	88.94
586.74	28.09
586.90	72.56
587.06	51.49
587.22	70.22
587.38	0.00
587.54	152.13
587.70	208.31
587.86	278.52
588.02	280.86
588.18	262.14
588.34	191.92
588.49	74.90
588.65	135.75
588.81	39.79
588.97	84.26
589.13	44.47
589.29	135.75
589.45	91.28
589.61	88.94
589.77	42.13
589.93	44.47
590.08	74.90
590.24	9.36
590.40	23.41
590.56	9.36
590.72	67.88
590.88	16.38
591.04	49.15
591.20	46.81
591.35	107.66
591.51	51.49
591.67	98.30
591.83	51.49
591.99	88.94
592.15	37.45
592.31	35.11
592.46	39.79
592.62	65.54
592.78	60.85
592.94	14.04
593.10	56.17
593.26	2.34
593.41	79.58
593.57	154.48
593.73	74.90
593.89	191.92
594.05	395.55
594.20	538.32
594.36	519.60
594.52	315.97
594.68	184.90
594.84	49.15
594.99	42.13
595.15	84.26
595.31	102.98
595.47	14.04
595.62	28.09
595.78	23.41
595.94	42.13
596.10	67.88
596.25	44.47
596.41	0.00
596.57	44.47
596.73	18.72
596.88	77.24
597.04	114.69
597.20	84.26
597.36	105.32
597.51	81.92
597.67	107.66
597.83	119.37
597.99	25.75
598.14	112.35
598.30	49.15
598.46	74.90
598.61	21.06
598.77	58.51
598.93	72.56
599.09	46.81
599.24	51.49
599.40	95.96
599.56	30.43
599.71	74.90
599.87	46.81
600.03	44.47
600.18	21.06
600.34	11.70
600.50	32.77
600.65	56.17
600.81	72.56
600.97	51.49
601.12	16.38
601.28	44.47
601.44	46.81
601.59	21.06
601.75	49.15
601.91	32.77
602.06	110.01
602.22	56.17
602.37	114.69
602.53	170.86
602.69	95.96
602.84	147.45
603.00	81.92
603.16	95.96
603.31	65.54
603.47	86.60
603.62	21.06
603.78	14.04
603.94	67.88
604.09	42.13
604.25	67.88
604.40	0.00
604.56	0.00
604.71	0.00
604.87	18.72
605.03	25.75
605.18	18.72
605.34	42.13
605.49	93.62
605.65	93.62
605.80	74.90
605.96	32.77
606.12	0.00
606.27	28.09
606.43	0.00
606.58	88.94
606.74	84.26
606.89	245.76
607.05	301.93
607.20	447.04
607.36	360.44
607.51	222.35
607.67	152.13
607.82	140.43
607.98	67.88
608.13	51.49
608.29	63.19
608.44	119.37
608.60	79.58
608.75	35.11
608.91	56.17
609.06	351.08
609.22	533.64
609.37	643.65
609.53	660.03
609.68	381.51
609.84	224.69
609.99	238.73
610.15	88.94
610.30	107.66
610.46	100.64
610.61	35.11
610.76	88.94
610.92	0.00
611.07	9.36
611.23	14.04
611.38	58.51
611.54	53.83
611.69	11.70
611.84	4.68
612.00	58.51
612.15	44.47
612.31	46.81
612.46	105.32
612.62	25.75
612.77	79.58
612.92	28.09
613.08	0.00
613.23	16.38
613.39	25.75
613.54	63.19
613.69	318.31
613.85	755.99
614.00	990.05
614.15	1057.92
614.31	671.73
614.46	545.34
614.62	337.04
614.77	194.26
614.92	135.75
615.08	70.22
615.23	84.26
615.38	46.81
615.54	30.43
615.69	56.17
615.84	189.58
616.00	306.61
616.15	304.27
616.30	252.78
616.46	152.13
616.61	100.64
616.76	105.32
616.92	79.58
617.07	35.11
617.22	32.77
617.37	51.49
617.53	30.43
617.68	53.83
617.83	0.00
617.99	81.92
618.14	21.06
618.29	0.00
618.45	93.62
618.60	35.11
618.75	49.15
618.90	0.00
619.06	30.43
619.21	65.54
619.36	77.24
619.51	16.38
619.67	30.43
619.82	56.17
619.97	0.00
620.12	112.35
620.28	30.43
620.43	14.04
620.58	72.56
620.73	81.92
620.89	0.00
621.04	72.56
621.19	72.56
621.34	93.62
621.49	135.75
621.65	203.63
621.80	79.58
621.95	159.16
622.10	98.30
622.25	72.56
622.41	84.26
622.56	30.43
622.71	23.41
622.86	30.43
623.01	0.00
623.16	37.45
623.32	2.34
623.47	100.64
623.62	46.81
623.77	11.70
623.92	53.83
624.07	37.45
624.23	11.70
624.38	121.71
624.53	39.79
624.68	16.38
624.83	42.13
624.98	110.01
625.13	79.58
625.29	110.01
625.44	0.00
625.59	23.41
625.74	4.68
625.89	67.88
626.04	156.82
626.19	388.53
626.34	580.45
626.49	514.92
626.65	383.85
626.80	348.74
626.95	210.65
627.10	67.88
627.25	28.09
627.40	86.60
627.55	25.75
627.70	44.47
627.85	28.09
628.00	0.00
628.15	32.77
628.30	21.06
628.45	93.62
628.60	51.49
628.76	37.45
628.91	84.26
629.06	21.06
629.21	18.72
629.36	70.22
629.51	46.81
629.66	72.56
629.81	56.17
629.96	117.03
630.11	222.35
630.26	201.29
630.41	140.43
630.56	79.58
630.71	156.82
630.86	0.00
631.01	72.56
631.16	37.45
631.31	72.56
631.46	9.36
631.61	28.09
631.76	74.90
631.91	114.69
632.06	81.92
632.21	0.00
632.36	65.54
632.51	42.13
632.66	53.83
632.81	110.01
632.96	262.14
633.10	252.78
633.25	393.21
633.40	294.91
633.55	250.44
633.70	140.43
633.85	105.32
634.00	81.92
634.15	86.60
634.30	79.58
634.45	72.56
634.60	77.24
634.75	51.49
634.90	77.24
635.05	28.09
635.19	14.04
635.34	0.00
635.49	63.19
635.64	0.00
635.79	81.92
635.94	39.79
636.09	53.83
636.24	49.15
636.39	0.00
636.53	23.41
636.68	65.54
636.83	49.15
636.98	0.00
637.13	102.98
637.28	63.19
637.43	88.94
637.57	119.37
637.72	245.76
637.87	411.93
638.02	685.78
638.17	608.54
638.32	510.24
638.46	383.85
638.61	299.59
638.76	91.28
638.91	53.83
639.06	112.35
639.20	112.35
639.35	79.58
639.50	93.62
639.65	299.59
639.80	784.08
639.94	1036.86
640.09	1165.59
640.24	908.13
640.39	580.45
640.54	369.80
640.68	276.18
640.83	166.18
640.98	95.96
641.13	74.90
641.27	117.03
641.42	23.41
641.57	65.54
641.72	93.62
641.86	0.00
642.01	32.77
642.16	35.11
642.31	39.79
642.45	30.43
642.60	21.06
642.75	35.11
642.90	72.56
643.04	37.45
643.19	79.58
643.34	0.00
643.48	77.24
643.63	58.51
643.78	32.77
643.93	25.75
644.07	23.41
644.22	0.00
644.37	16.38
644.51	18.72
644.66	37.45
644.81	86.60
644.95	21.06
645.10	32.77
645.25	93.62
645.39	88.94
645.54	23.41
645.69	39.79
645.83	74.90
645.98	79.58
646.13	18.72
646.27	37.45
646.42	70.22
646.57	16.38
646.71	60.85
646.86	77.24
647.00	2.34
647.15	112.35
647.30	60.85
647.44	32.77
647.59	25.75
647.74	46.81
647.88	58.51
648.03	0.00
648.17	28.09
648.32	11.70
648.47	51.49
648.61	49.15
648.76	32.77
648.90	95.96
649.05	44.47
649.20	9.36
649.34	9.36
649.49	32.77
649.63	67.88
649.78	84.26
649.92	7.02
650.07	95.96
650.21	348.74
650.36	489.17
650.51	524.28
650.65	500.87
650.80	337.04
650.94	273.84
651.09	182.56
651.23	105.32
651.38	74.90
651.52	46.81
651.67	0.00
651.81	14.04
651.96	67.88
652.10	0.00
652.25	0.00
652.39	70.22
652.54	0.00
652.68	56.17
652.83	168.52
652.97	191.92
653.12	264.48
653.26	217.67
653.41	198.95
653.55	140.43
653.70	86.60
653.84	98.30
653.99	30.43
654.13	9.36
654.27	0.00
654.42	42.13
654.56	0.00
654.71	7.02
654.85	46.81
655.00	51.49
655.14	35.11
655.29	18.72
655.43	98.30
655.57	30.43
655.72	37.45
655.86	42.13
656.01	0.00
656.15	0.00
656.30	39.79
656.44	9.36
656.58	49.15
656.73	53.83
656.87	46.81
657.01	0.00
657.16	42.13
657.30	9.36
657.45	51.49
657.59	32.77
657.73	67.88
657.88	51.49
658.02	11.70
658.16	0.00
658.31	9.36
658.45	0.00
658.60	9.36
658.74	32.77
658.88	2.34
659.03	93.62
659.17	9.36
659.31	105.32
659.46	196.60
659.60	271.50
659.74	308.95
659.89	266.82
660.03	250.44
660.17	159.16
660.32	140.43
660.46	39.79
660.60	72.56
660.74	58.51
660.89	42.13
661.03	14.04
661.17	14.04
661.32	0.00
661.46	53.83
661.60	23.41
661.74	21.06
661.89	56.17
662.03	25.75
662.17	0.00
662.31	107.66
662.46	70.22
662.60	53.83
662.74	14.04
662.88	9.36
663.03	0.00
663.17	16.38
663.31	63.19
663.45	65.54
663.60	42.13
663.74	77.24
663.88	0.00
664.02	0.00
664.17	70.22
664.31	9.36
664.45	0.00
664.59	67.88
664.73	9.36
664.88	37.45
665.02	11.70
665.16	77.24
665.30	56.17
665.44	74.90
665.59	49.15
665.73	42.13
665.87	0.00
666.01	65.54
666.15	28.09
666.29	56.17
666.44	32.77
666.58	44.47
666.72	77.24
666.86	39.79
667.00	70.22
667.14	105.32
667.28	161.50
667.43	318.31
667.57	407.25
667.71	421.30
667.85	400.23
667.99	315.97
668.13	210.65
668.27	149.79
668.41	65.54
668.56	51.49
668.70	23.41
668.84	0.00
668.98	44.47
669.12	51.49
669.26	4.68
669.40	21.06
669.54	53.83
669.68	2.34
669.82	0.00
669.96	46.81
670.10	67.88
670.25	91.28
670.39	49.15
670.53	0.00
670.67	60.85
670.81	63.19
670.95	121.71
671.09	49.15
671.23	156.82
671.37	271.50
671.51	353.42
671.65	327.68
671.79	243.42
671.93	107.66
672.07	58.51
672.21	32.77
672.35	16.38
672.49	63.19
672.63	84.26
672.77	39.79
672.91	39.79
673.05	39.79
673.19	0.00
673.33	95.96
673.47	18.72
673.61	25.75
673.75	18.72
673.89	18.72
674.03	18.72
674.17	32.77
674.31	0.00
674.45	79.58
674.59	46.81
674.73	58.51
674.87	0.00
675.01	18.72
675.15	0.00
675.29	44.47
675.43	14.04
675.56	74.90
675.70	30.43
675.84	37.45
675.98	53.83
676.12	44.47
676.26	35.11
676.40	28.09
676.54	58.51
676.68	23.41
676.82	4.68
676.96	18.72
677.10	65.54
677.23	65.54
677.37	28.09
677.51	63.19
677.65	58.51
677.79	28.09
677.93	11.70
678.07	0.00
678.21	21.06
678.34	56.17
678.48	0.00
678.62	95.96
678.76	60.85
678.90	84.26
679.04	32.77
679.18	72.56
679.31	37.45
679.45	0.00
679.59	0.00
679.73	0.00
679.87	56.17
680.00	56.17
680.14	37.45
680.28	16.38
680.42	25.75
680.56	0.00
680.70	58.51
680.83	37.45
680.97	0.00
681.11	0.00
681.25	0.00
681.39	93.62
681.52	77.24
681.66	102.98
681.80	7.02
681.94	63.19
682.07	58.51
682.21	142.77
682.35	28.09
682.49	21.06
682.62	21.06
682.76	37.45
682.90	84.26
683.04	23.41
683.17	14.04
683.31	0.00
683.45	0.00
683.59	51.49
683.72	25.75
683.86	4.68
684.00	32.77
684.13	91.28
684.27	32.77
684.41	42.13
684.55	56.17
684.68	46.81
684.82	14.04
684.96	42.13
685.09	0.00
685.23	49.15
685.37	49.15
685.50	39.79
685.64	88.94
685.78	86.60
685.91	0.00
686.05	63.19
686.19	9.36
686.32	56.17
686.46	7.02
686.60	30.43
686.73	86.60
686.87	7.02
687.01	81.92
687.14	42.13
687.28	72.56
687.42	51.49
687.55	74.90
687.69	35.11
687.82	44.47
687.96	23.41
688.10	23.41
688.23	0.00
688.37	46.81
688.50	2.34
688.64	63.19
688.78	7.02
688.91	39.79
689.05	37.45
689.18	21.06
689.32	9.36
689.46	81.92
689.59	0.00
689.73	37.45
689.86	4.68
690.00	0.00
690.13	9.36
690.27	0.00
690.41	56.17
690.54	18.72
690.68	51.49
690.81	42.13
690.95	0.00
691.08	77.24
691.22	102.98
691.35	9.36
691.49	28.09
691.62	93.62
691.76	0.00
691.89	4.68
692.03	60.85
692.16	30.43
692.30	42.13
692.43	58.51
692.57	135.75
692.70	173.20
692.84	196.60
692.97	140.43
693.11	88.94
693.24	77.24
693.38	95.96
693.51	74.90
693.65	30.43
693.78	74.90
693.92	105.32
694.05	58.51
694.19	0.00
694.32	23.41
694.45	60.85
694.59	14.04
694.72	49.15
694.86	2.34
694.99	0.00
695.13	28.09
695.26	0.00
695.39	0.00
695.53	102.98
695.66	105.32
695.80	21.06
695.93	46.81
696.07	60.85
696.20	60.85
696.33	77.24
696.47	42.13
696.60	42.13
696.73	0.00
696.87	58.51
697.00	37.45
697.14	28.09
697.27	42.13
697.40	23.41
697.54	42.13
697.67	0.00
697.80	53.83
697.94	65.54
698.07	4.68
698.21	23.41
698.34	0.00
698.47	0.00
698.61	25.75
698.74	37.45
698.87	37.45
699.01	39.79
699.14	0.00
699.27	9.36
699.40	0.00
699.54	0.00
699.67	79.58
699.80	95.96
699.94	74.90
700.07	4.68
700.20	0.00
700.34	60.85
700.47	0.00
700.60	39.79
700.73	28.09
700.87	74.90
701.00	11.70
701.13	35.11
701.26	0.00
701.40	25.75
701.53	0.00
701.66	0.00
701.79	28.09
701.93	65.54
702.06	95.96
702.19	110.01
702.32	156.82
702.46	28.09
702.59	25.75
702.72	53.83
702.85	147.45
702.99	337.04
703.12	395.55
703.25	390.87
703.38	404.91
703.51	245.76
703.65	229.37
703.78	131.07
703.91	98.30
704.04	98.30
704.17	2.34
704.31	63.19
704.44	53.83
704.57	23.41
704.70	11.70
704.83	0.00
704.96	56.17
705.10	74.90
705.23	32.77
>>>>>End Processed Spectral Data<<<<<
