SpectraSuite Data File
++++++++++++++++++++++++++++++++++++
Date: Fri Oct 04 12:13:42 GMT-05:00 2013
User: price-jones
Dark Spectrum Present: No
Reference Spectrum Present: No
Number of Sampled Component Spectra: 1
Spectrometers: USB2+H05261
Integration Time (usec): 10000 (USB2+H05261)
Spectra Averaged: 1 (USB2+H05261)
Boxcar Smoothing: 0 (USB2+H05261)
Correct for Electrical Dark: No (USB2+H05261)
Strobe/Lamp Enabled: No (USB2+H05261)
Correct for Detector Non-linearity: No (USB2+H05261)
Correct for Stray Light: No (USB2+H05261)
Number of Pixels in Processed Spectrum: 2048
>>>>>Begin Processed Spectral Data<<<<<
365.73	28.09
365.92	28.09
366.12	28.09
366.32	0.00
366.52	0.00
366.72	0.00
366.91	0.00
367.11	0.00
367.31	0.00
367.51	0.00
367.70	0.00
367.90	0.00
368.10	0.00
368.30	0.00
368.49	0.00
368.69	0.00
368.89	0.00
369.09	0.00
369.28	0.00
369.48	0.00
369.68	0.00
369.87	0.00
370.07	0.00
370.27	4.68
370.47	0.00
370.66	0.00
370.86	0.00
371.06	0.00
371.25	0.00
371.45	9.36
371.65	0.00
371.84	0.00
372.04	46.81
372.24	42.13
372.44	7.02
372.63	0.00
372.83	32.77
373.03	0.00
373.22	42.13
373.42	21.06
373.62	44.47
373.81	21.06
374.01	37.45
374.21	67.88
374.40	0.00
374.60	93.62
374.79	35.11
374.99	67.88
375.19	23.41
375.38	37.45
375.58	0.00
375.78	0.00
375.97	51.49
376.17	131.07
376.37	102.98
376.56	11.70
376.76	98.30
376.95	35.11
377.15	53.83
377.35	51.49
377.54	25.75
377.74	0.00
377.93	70.22
378.13	49.15
378.33	37.45
378.52	28.09
378.72	0.00
378.91	18.72
379.11	16.38
379.31	0.00
379.50	28.09
379.70	72.56
379.89	67.88
380.09	25.75
380.28	18.72
380.48	67.88
380.68	0.00
380.87	60.85
381.07	0.00
381.26	37.45
381.46	67.88
381.65	37.45
381.85	23.41
382.04	53.83
382.24	21.06
382.43	49.15
382.63	0.00
382.83	30.43
383.02	44.47
383.22	37.45
383.41	42.13
383.61	7.02
383.80	0.00
384.00	0.00
384.19	0.00
384.39	0.00
384.58	7.02
384.78	0.00
384.97	46.81
385.17	53.83
385.36	0.00
385.56	51.49
385.75	2.34
385.95	32.77
386.14	60.85
386.34	0.00
386.53	9.36
386.72	70.22
386.92	23.41
387.11	11.70
387.31	18.72
387.50	11.70
387.70	21.06
387.89	0.00
388.09	58.51
388.28	30.43
388.48	30.43
388.67	21.06
388.86	42.13
389.06	58.51
389.25	0.00
389.45	32.77
389.64	18.72
389.84	0.00
390.03	49.15
390.22	72.56
390.42	0.00
390.61	49.15
390.81	16.38
391.00	79.58
391.19	23.41
391.39	7.02
391.58	2.34
391.78	37.45
391.97	2.34
392.16	16.38
392.36	142.77
392.55	21.06
392.75	60.85
392.94	0.00
393.13	60.85
393.33	70.22
393.52	58.51
393.71	4.68
393.91	0.00
394.10	105.32
394.29	25.75
394.49	37.45
394.68	21.06
394.88	0.00
395.07	0.00
395.26	0.00
395.46	0.00
395.65	0.00
395.84	0.00
396.04	0.00
396.23	4.68
396.42	0.00
396.62	25.75
396.81	7.02
397.00	16.38
397.19	11.70
397.39	18.72
397.58	0.00
397.77	65.54
397.97	39.79
398.16	0.00
398.35	72.56
398.55	32.77
398.74	159.16
398.93	39.79
399.12	0.00
399.32	81.92
399.51	46.81
399.70	14.04
399.90	7.02
400.09	51.49
400.28	37.45
400.47	37.45
400.67	86.60
400.86	53.83
401.05	74.90
401.24	0.00
401.44	4.68
401.63	32.77
401.82	0.00
402.01	9.36
402.21	49.15
402.40	39.79
402.59	9.36
402.78	63.19
402.97	86.60
403.17	37.45
403.36	28.09
403.55	124.05
403.74	18.72
403.93	77.24
404.13	32.77
404.32	37.45
404.51	74.90
404.70	46.81
404.89	51.49
405.09	77.24
405.28	81.92
405.47	42.13
405.66	86.60
405.85	72.56
406.05	131.07
406.24	32.77
406.43	0.00
406.62	23.41
406.81	107.66
407.00	9.36
407.20	56.17
407.39	23.41
407.58	44.47
407.77	0.00
407.96	0.00
408.15	67.88
408.34	0.00
408.54	84.26
408.73	0.00
408.92	44.47
409.11	0.00
409.30	0.00
409.49	0.00
409.68	9.36
409.87	51.49
410.07	35.11
410.26	53.83
410.45	63.19
410.64	70.22
410.83	112.35
411.02	2.34
411.21	42.13
411.40	46.81
411.59	0.00
411.78	46.81
411.98	46.81
412.17	25.75
412.36	67.88
412.55	77.24
412.74	39.79
412.93	67.88
413.12	16.38
413.31	25.75
413.50	9.36
413.69	84.26
413.88	4.68
414.07	11.70
414.26	58.51
414.45	91.28
414.64	4.68
414.83	25.75
415.02	32.77
415.22	0.00
415.41	0.00
415.60	0.00
415.79	28.09
415.98	0.00
416.17	51.49
416.36	4.68
416.55	70.22
416.74	0.00
416.93	7.02
417.12	91.28
417.31	91.28
417.50	77.24
417.69	81.92
417.88	0.00
418.07	81.92
418.26	67.88
418.45	11.70
418.64	56.17
418.83	44.47
419.02	58.51
419.21	77.24
419.39	18.72
419.58	117.03
419.77	98.30
419.96	0.00
420.15	56.17
420.34	51.49
420.53	88.94
420.72	7.02
420.91	0.00
421.10	77.24
421.29	35.11
421.48	42.13
421.67	14.04
421.86	0.00
422.05	86.60
422.24	0.00
422.43	44.47
422.61	0.00
422.80	0.00
422.99	46.81
423.18	0.00
423.37	100.64
423.56	74.90
423.75	91.28
423.94	53.83
424.13	23.41
424.32	25.75
424.50	0.00
424.69	0.00
424.88	72.56
425.07	67.88
425.26	37.45
425.45	23.41
425.64	86.60
425.83	81.92
426.01	21.06
426.20	0.00
426.39	81.92
426.58	39.79
426.77	0.00
426.96	65.54
427.15	58.51
427.33	98.30
427.52	49.15
427.71	25.75
427.90	77.24
428.09	39.79
428.28	0.00
428.46	23.41
428.65	25.75
428.84	28.09
429.03	7.02
429.22	0.00
429.40	56.17
429.59	58.51
429.78	28.09
429.97	37.45
430.16	77.24
430.34	70.22
430.53	44.47
430.72	46.81
430.91	77.24
431.10	35.11
431.28	51.49
431.47	46.81
431.66	128.73
431.85	56.17
432.03	0.00
432.22	42.13
432.41	23.41
432.60	0.00
432.79	0.00
432.97	58.51
433.16	51.49
433.35	63.19
433.54	35.11
433.72	84.26
433.91	56.17
434.10	112.35
434.28	53.83
434.47	46.81
434.66	0.00
434.85	56.17
435.03	37.45
435.22	37.45
435.41	67.88
435.59	35.11
435.78	35.11
435.97	4.68
436.16	30.43
436.34	4.68
436.53	60.85
436.72	65.54
436.90	39.79
437.09	70.22
437.28	110.01
437.46	70.22
437.65	84.26
437.84	4.68
438.02	51.49
438.21	46.81
438.40	14.04
438.58	86.60
438.77	28.09
438.96	163.84
439.14	67.88
439.33	51.49
439.52	21.06
439.70	65.54
439.89	35.11
440.08	0.00
440.26	28.09
440.45	67.88
440.63	49.15
440.82	25.75
441.01	65.54
441.19	105.32
441.38	93.62
441.57	0.00
441.75	14.04
441.94	51.49
442.12	100.64
442.31	28.09
442.50	70.22
442.68	0.00
442.87	53.83
443.05	25.75
443.24	102.98
443.43	23.41
443.61	79.58
443.80	4.68
443.98	88.94
444.17	39.79
444.35	32.77
444.54	39.79
444.73	42.13
444.91	49.15
445.10	11.70
445.28	102.98
445.47	88.94
445.65	58.51
445.84	28.09
446.02	74.90
446.21	0.00
446.39	126.39
446.58	65.54
446.77	28.09
446.95	39.79
447.14	25.75
447.32	7.02
447.51	44.47
447.69	67.88
447.88	74.90
448.06	32.77
448.25	81.92
448.43	46.81
448.62	28.09
448.80	23.41
448.99	0.00
449.17	46.81
449.36	0.00
449.54	102.98
449.73	74.90
449.91	77.24
450.10	79.58
450.28	91.28
450.46	58.51
450.65	81.92
450.83	72.56
451.02	88.94
451.20	131.07
451.39	81.92
451.57	110.01
451.76	91.28
451.94	35.11
452.13	30.43
452.31	0.00
452.49	42.13
452.68	16.38
452.86	39.79
453.05	107.66
453.23	98.30
453.42	74.90
453.60	23.41
453.78	0.00
453.97	39.79
454.15	72.56
454.34	42.13
454.52	46.81
454.70	58.51
454.89	72.56
455.07	37.45
455.26	14.04
455.44	32.77
455.62	0.00
455.81	74.90
455.99	0.00
456.17	2.34
456.36	28.09
456.54	39.79
456.73	49.15
456.91	91.28
457.09	16.38
457.28	25.75
457.46	56.17
457.64	42.13
457.83	28.09
458.01	100.64
458.19	65.54
458.38	79.58
458.56	70.22
458.74	86.60
458.93	35.11
459.11	42.13
459.29	65.54
459.48	53.83
459.66	0.00
459.84	30.43
460.03	51.49
460.21	100.64
460.39	91.28
460.57	60.85
460.76	0.00
460.94	49.15
461.12	46.81
461.31	72.56
461.49	0.00
461.67	2.34
461.85	93.62
462.04	0.00
462.22	117.03
462.40	63.19
462.59	145.11
462.77	37.45
462.95	14.04
463.13	84.26
463.32	32.77
463.50	39.79
463.68	11.70
463.86	0.00
464.05	124.05
464.23	28.09
464.41	0.00
464.59	28.09
464.78	0.00
464.96	91.28
465.14	35.11
465.32	91.28
465.50	98.30
465.69	0.00
465.87	60.85
466.05	105.32
466.23	18.72
466.41	42.13
466.60	63.19
466.78	86.60
466.96	0.00
467.14	60.85
467.32	0.00
467.51	37.45
467.69	70.22
467.87	0.00
468.05	102.98
468.23	0.00
468.41	93.62
468.60	18.72
468.78	100.64
468.96	60.85
469.14	84.26
469.32	102.98
469.50	7.02
469.69	4.68
469.87	56.17
470.05	51.49
470.23	112.35
470.41	56.17
470.59	4.68
470.77	7.02
470.95	65.54
471.14	74.90
471.32	4.68
471.50	131.07
471.68	88.94
471.86	56.17
472.04	9.36
472.22	63.19
472.40	32.77
472.58	67.88
472.77	42.13
472.95	18.72
473.13	53.83
473.31	77.24
473.49	72.56
473.67	42.13
473.85	35.11
474.03	35.11
474.21	2.34
474.39	53.83
474.57	63.19
474.75	32.77
474.93	58.51
475.12	14.04
475.30	88.94
475.48	56.17
475.66	58.51
475.84	32.77
476.02	32.77
476.20	70.22
476.38	51.49
476.56	70.22
476.74	35.11
476.92	58.51
477.10	49.15
477.28	37.45
477.46	0.00
477.64	44.47
477.82	60.85
478.00	49.15
478.18	72.56
478.36	16.38
478.54	105.32
478.72	0.00
478.90	105.32
479.08	84.26
479.26	37.45
479.44	79.58
479.62	16.38
479.80	65.54
479.98	0.00
480.16	121.71
480.34	0.00
480.52	72.56
480.70	63.19
480.88	70.22
481.06	0.00
481.24	46.81
481.41	95.96
481.59	98.30
481.77	51.49
481.95	51.49
482.13	70.22
482.31	0.00
482.49	21.06
482.67	67.88
482.85	60.85
483.03	23.41
483.21	121.71
483.39	86.60
483.57	14.04
483.74	0.00
483.92	121.71
484.10	84.26
484.28	88.94
484.46	110.01
484.64	84.26
484.82	84.26
485.00	121.71
485.18	72.56
485.35	77.24
485.53	56.17
485.71	0.00
485.89	28.09
486.07	93.62
486.25	88.94
486.43	7.02
486.61	95.96
486.78	67.88
486.96	84.26
487.14	81.92
487.32	67.88
487.50	63.19
487.68	70.22
487.85	81.92
488.03	112.35
488.21	77.24
488.39	0.00
488.57	46.81
488.75	51.49
488.92	100.64
489.10	72.56
489.28	131.07
489.46	93.62
489.64	91.28
489.81	39.79
489.99	79.58
490.17	98.30
490.35	114.69
490.53	156.82
490.70	37.45
490.88	79.58
491.06	46.81
491.24	65.54
491.41	86.60
491.59	126.39
491.77	119.37
491.95	39.79
492.13	84.26
492.30	88.94
492.48	100.64
492.66	105.32
492.84	79.58
493.01	84.26
493.19	0.00
493.37	32.77
493.54	35.11
493.72	84.26
493.90	88.94
494.08	67.88
494.25	105.32
494.43	67.88
494.61	65.54
494.79	72.56
494.96	100.64
495.14	35.11
495.32	56.17
495.49	112.35
495.67	23.41
495.85	88.94
496.02	67.88
496.20	117.03
496.38	44.47
496.55	84.26
496.73	53.83
496.91	77.24
497.09	161.50
497.26	126.39
497.44	189.58
497.62	100.64
497.79	51.49
497.97	65.54
498.14	9.36
498.32	14.04
498.50	21.06
498.67	79.58
498.85	39.79
499.03	91.28
499.20	124.05
499.38	63.19
499.56	70.22
499.73	42.13
499.91	98.30
500.08	65.54
500.26	86.60
500.44	56.17
500.61	72.56
500.79	107.66
500.97	86.60
501.14	37.45
501.32	63.19
501.49	110.01
501.67	51.49
501.84	0.00
502.02	98.30
502.20	124.05
502.37	138.09
502.55	93.62
502.72	65.54
502.90	37.45
503.07	23.41
503.25	70.22
503.43	152.13
503.60	77.24
503.78	65.54
503.95	74.90
504.13	112.35
504.30	110.01
504.48	51.49
504.65	74.90
504.83	84.26
505.01	0.00
505.18	112.35
505.36	37.45
505.53	14.04
505.71	91.28
505.88	56.17
506.06	58.51
506.23	93.62
506.41	51.49
506.58	49.15
506.76	16.38
506.93	30.43
507.11	65.54
507.28	88.94
507.46	131.07
507.63	46.81
507.81	56.17
507.98	77.24
508.16	93.62
508.33	11.70
508.50	46.81
508.68	93.62
508.85	117.03
509.03	107.66
509.20	100.64
509.38	105.32
509.55	58.51
509.73	86.60
509.90	74.90
510.08	51.49
510.25	53.83
510.42	131.07
510.60	156.82
510.77	37.45
510.95	102.98
511.12	86.60
511.30	37.45
511.47	124.05
511.64	9.36
511.82	147.45
511.99	117.03
512.17	30.43
512.34	60.85
512.51	81.92
512.69	138.09
512.86	145.11
513.04	119.37
513.21	91.28
513.38	65.54
513.56	72.56
513.73	46.81
513.90	42.13
514.08	107.66
514.25	77.24
514.43	105.32
514.60	105.32
514.77	100.64
514.95	35.11
515.12	44.47
515.29	77.24
515.47	37.45
515.64	56.17
515.81	46.81
515.99	161.50
516.16	79.58
516.33	70.22
516.51	147.45
516.68	39.79
516.85	91.28
517.03	88.94
517.20	0.00
517.37	84.26
517.54	110.01
517.72	93.62
517.89	84.26
518.06	44.47
518.24	124.05
518.41	67.88
518.58	67.88
518.75	56.17
518.93	74.90
519.10	44.47
519.27	18.72
519.45	23.41
519.62	28.09
519.79	65.54
519.96	51.49
520.14	42.13
520.31	140.43
520.48	60.85
520.65	46.81
520.83	117.03
521.00	117.03
521.17	88.94
521.34	138.09
521.52	79.58
521.69	67.88
521.86	77.24
522.03	149.79
522.20	49.15
522.38	60.85
522.55	23.41
522.72	79.58
522.89	4.68
523.07	74.90
523.24	32.77
523.41	79.58
523.58	102.98
523.75	119.37
523.92	56.17
524.10	84.26
524.27	72.56
524.44	28.09
524.61	72.56
524.78	173.20
524.96	44.47
525.13	105.32
525.30	98.30
525.47	81.92
525.64	67.88
525.81	70.22
525.98	79.58
526.16	37.45
526.33	65.54
526.50	98.30
526.67	74.90
526.84	86.60
527.01	102.98
527.18	65.54
527.36	161.50
527.53	79.58
527.70	37.45
527.87	46.81
528.04	86.60
528.21	35.11
528.38	98.30
528.55	84.26
528.72	84.26
528.89	81.92
529.07	60.85
529.24	105.32
529.41	49.15
529.58	65.54
529.75	14.04
529.92	140.43
530.09	114.69
530.26	53.83
530.43	98.30
530.60	159.16
530.77	117.03
530.94	60.85
531.11	98.30
531.28	161.50
531.46	79.58
531.63	60.85
531.80	79.58
531.97	88.94
532.14	119.37
532.31	93.62
532.48	107.66
532.65	65.54
532.82	138.09
532.99	140.43
533.16	37.45
533.33	133.41
533.50	91.28
533.67	112.35
533.84	60.85
534.01	166.18
534.18	91.28
534.35	110.01
534.52	74.90
534.69	60.85
534.86	65.54
535.03	88.94
535.20	152.13
535.37	98.30
535.54	23.41
535.71	42.13
535.88	124.05
536.05	107.66
536.22	149.79
536.38	124.05
536.55	112.35
536.72	189.58
536.89	79.58
537.06	91.28
537.23	16.38
537.40	56.17
537.57	51.49
537.74	65.54
537.91	58.51
538.08	121.71
538.25	105.32
538.42	114.69
538.59	39.79
538.75	72.56
538.92	30.43
539.09	86.60
539.26	4.68
539.43	74.90
539.60	60.85
539.77	140.43
539.94	112.35
540.11	46.81
540.28	142.77
540.44	32.77
540.61	79.58
540.78	67.88
540.95	32.77
541.12	84.26
541.29	58.51
541.46	114.69
541.62	98.30
541.79	107.66
541.96	56.17
542.13	53.83
542.30	51.49
542.47	79.58
542.63	79.58
542.80	91.28
542.97	63.19
543.14	105.32
543.31	32.77
543.48	16.38
543.64	56.17
543.81	44.47
543.98	25.75
544.15	98.30
544.32	93.62
544.48	53.83
544.65	107.66
544.82	53.83
544.99	32.77
545.16	86.60
545.32	63.19
545.49	74.90
545.66	105.32
545.83	65.54
546.00	102.98
546.16	126.39
546.33	98.30
546.50	72.56
546.67	121.71
546.83	105.32
547.00	175.54
547.17	49.15
547.34	63.19
547.50	93.62
547.67	63.19
547.84	79.58
548.00	53.83
548.17	77.24
548.34	100.64
548.51	23.41
548.67	23.41
548.84	70.22
549.01	107.66
549.18	30.43
549.34	161.50
549.51	56.17
549.68	70.22
549.84	124.05
550.01	16.38
550.18	110.01
550.34	86.60
550.51	72.56
550.68	175.54
550.84	170.86
551.01	140.43
551.18	117.03
551.34	117.03
551.51	149.79
551.68	145.11
551.84	51.49
552.01	49.15
552.18	107.66
552.34	49.15
552.51	56.17
552.68	32.77
552.84	112.35
553.01	60.85
553.18	77.24
553.34	74.90
553.51	56.17
553.67	25.75
553.84	138.09
554.01	135.75
554.17	67.88
554.34	128.73
554.51	145.11
554.67	35.11
554.84	131.07
555.00	44.47
555.17	67.88
555.33	58.51
555.50	84.26
555.67	81.92
555.83	100.64
556.00	93.62
556.16	95.96
556.33	145.11
556.50	39.79
556.66	37.45
556.83	32.77
556.99	126.39
557.16	9.36
557.32	60.85
557.49	91.28
557.65	98.30
557.82	95.96
557.98	117.03
558.15	91.28
558.32	112.35
558.48	86.60
558.65	142.77
558.81	70.22
558.98	110.01
559.14	72.56
559.31	72.56
559.47	21.06
559.64	65.54
559.80	147.45
559.97	77.24
560.13	79.58
560.30	93.62
560.46	107.66
560.63	30.43
560.79	107.66
560.96	60.85
561.12	65.54
561.29	86.60
561.45	46.81
561.61	135.75
561.78	74.90
561.94	142.77
562.11	49.15
562.27	117.03
562.44	91.28
562.60	70.22
562.77	100.64
562.93	42.13
563.10	107.66
563.26	56.17
563.42	23.41
563.59	70.22
563.75	63.19
563.92	65.54
564.08	32.77
564.24	110.01
564.41	70.22
564.57	121.71
564.74	107.66
564.90	2.34
565.07	60.85
565.23	44.47
565.39	51.49
565.56	74.90
565.72	44.47
565.88	112.35
566.05	70.22
566.21	107.66
566.38	112.35
566.54	110.01
566.70	58.51
566.87	88.94
567.03	152.13
567.19	79.58
567.36	91.28
567.52	86.60
567.68	84.26
567.85	79.58
568.01	60.85
568.17	88.94
568.34	67.88
568.50	88.94
568.66	74.90
568.83	81.92
568.99	44.47
569.15	119.37
569.32	65.54
569.48	11.70
569.64	168.52
569.81	102.98
569.97	63.19
570.13	32.77
570.30	39.79
570.46	42.13
570.62	117.03
570.78	74.90
570.95	39.79
571.11	58.51
571.27	84.26
571.43	79.58
571.60	142.77
571.76	70.22
571.92	140.43
572.09	133.41
572.25	46.81
572.41	58.51
572.57	84.26
572.74	86.60
572.90	77.24
573.06	117.03
573.22	88.94
573.38	58.51
573.55	77.24
573.71	16.38
573.87	46.81
574.03	18.72
574.20	128.73
574.36	74.90
574.52	154.48
574.68	58.51
574.84	86.60
575.01	23.41
575.17	102.98
575.33	44.47
575.49	23.41
575.65	79.58
575.82	86.60
575.98	65.54
576.14	175.54
576.30	110.01
576.46	105.32
576.62	84.26
576.79	72.56
576.95	30.43
577.11	88.94
577.27	98.30
577.43	9.36
577.59	65.54
577.75	28.09
577.92	14.04
578.08	0.00
578.24	42.13
578.40	84.26
578.56	56.17
578.72	42.13
578.88	58.51
579.04	39.79
579.21	107.66
579.37	37.45
579.53	110.01
579.69	37.45
579.85	79.58
580.01	39.79
580.17	98.30
580.33	182.56
580.49	25.75
580.65	91.28
580.82	86.60
580.98	86.60
581.14	25.75
581.30	81.92
581.46	53.83
581.62	60.85
581.78	86.60
581.94	37.45
582.10	105.32
582.26	131.07
582.42	42.13
582.58	117.03
582.74	72.56
582.90	42.13
583.06	74.90
583.22	67.88
583.38	126.39
583.54	95.96
583.70	91.28
583.86	49.15
584.02	21.06
584.18	63.19
584.34	91.28
584.50	95.96
584.66	79.58
584.82	65.54
584.98	49.15
585.14	60.85
585.30	93.62
585.46	21.06
585.62	53.83
585.78	39.79
585.94	138.09
586.10	128.73
586.26	102.98
586.42	105.32
586.58	79.58
586.74	77.24
586.90	70.22
587.06	49.15
587.22	114.69
587.38	58.51
587.54	107.66
587.70	91.28
587.86	93.62
588.02	79.58
588.18	91.28
588.34	0.00
588.49	51.49
588.65	53.83
588.81	11.70
588.97	51.49
589.13	49.15
589.29	11.70
589.45	60.85
589.61	74.90
589.77	112.35
589.93	102.98
590.08	72.56
590.24	25.75
590.40	28.09
590.56	28.09
590.72	53.83
590.88	58.51
591.04	95.96
591.20	25.75
591.35	46.81
591.51	74.90
591.67	93.62
591.83	25.75
591.99	79.58
592.15	49.15
592.31	88.94
592.46	114.69
592.62	72.56
592.78	88.94
592.94	58.51
593.10	93.62
593.26	42.13
593.41	119.37
593.57	35.11
593.73	16.38
593.89	63.19
594.05	110.01
594.20	81.92
594.36	100.64
594.52	84.26
594.68	72.56
594.84	114.69
594.99	84.26
595.15	11.70
595.31	51.49
595.47	128.73
595.62	81.92
595.78	2.34
595.94	14.04
596.10	121.71
596.25	56.17
596.41	95.96
596.57	79.58
596.73	121.71
596.88	60.85
597.04	74.90
597.20	86.60
597.36	9.36
597.51	84.26
597.67	93.62
597.83	35.11
597.99	84.26
598.14	100.64
598.30	79.58
598.46	63.19
598.61	44.47
598.77	67.88
598.93	65.54
599.09	88.94
599.24	21.06
599.40	4.68
599.56	23.41
599.71	25.75
599.87	107.66
600.03	95.96
600.18	60.85
600.34	37.45
600.50	60.85
600.65	121.71
600.81	72.56
600.97	138.09
601.12	30.43
601.28	25.75
601.44	93.62
601.59	105.32
601.75	58.51
601.91	126.39
602.06	51.49
602.22	95.96
602.37	173.20
602.53	100.64
602.69	135.75
602.84	152.13
603.00	81.92
603.16	51.49
603.31	65.54
603.47	44.47
603.62	77.24
603.78	63.19
603.94	128.73
604.09	74.90
604.25	105.32
604.40	72.56
604.56	142.77
604.71	98.30
604.87	51.49
605.03	46.81
605.18	86.60
605.34	124.05
605.49	126.39
605.65	112.35
605.80	114.69
605.96	65.54
606.12	79.58
606.27	98.30
606.43	74.90
606.58	11.70
606.74	105.32
606.89	117.03
607.05	44.47
607.20	0.00
607.36	77.24
607.51	81.92
607.67	70.22
607.82	46.81
607.98	44.47
608.13	95.96
608.29	84.26
608.44	37.45
608.60	25.75
608.75	77.24
608.91	58.51
609.06	65.54
609.22	93.62
609.37	70.22
609.53	42.13
609.68	65.54
609.84	32.77
609.99	63.19
610.15	60.85
610.30	74.90
610.46	93.62
610.61	88.94
610.76	63.19
610.92	9.36
611.07	0.00
611.23	102.98
611.38	63.19
611.54	60.85
611.69	16.38
611.84	63.19
612.00	163.84
612.15	70.22
612.31	91.28
612.46	23.41
612.62	107.66
612.77	14.04
612.92	67.88
613.08	81.92
613.23	44.47
613.39	168.52
613.54	86.60
613.69	142.77
613.85	35.11
614.00	49.15
614.15	30.43
614.31	77.24
614.46	44.47
614.62	133.41
614.77	98.30
614.92	7.02
615.08	88.94
615.23	117.03
615.38	86.60
615.54	18.72
615.69	79.58
615.84	72.56
616.00	18.72
616.15	46.81
616.30	60.85
616.46	110.01
616.61	72.56
616.76	110.01
616.92	7.02
617.07	51.49
617.22	63.19
617.37	4.68
617.53	49.15
617.68	74.90
617.83	67.88
617.99	0.00
618.14	42.13
618.29	74.90
618.45	98.30
618.60	91.28
618.75	14.04
618.90	67.88
619.06	0.00
619.21	46.81
619.36	110.01
619.51	117.03
619.67	2.34
619.82	63.19
619.97	58.51
620.12	152.13
620.28	16.38
620.43	42.13
620.58	65.54
620.73	42.13
620.89	126.39
621.04	114.69
621.19	42.13
621.34	46.81
621.49	107.66
621.65	56.17
621.80	100.64
621.95	25.75
622.10	39.79
622.25	72.56
622.41	65.54
622.56	63.19
622.71	91.28
622.86	84.26
623.01	7.02
623.16	63.19
623.32	95.96
623.47	37.45
623.62	25.75
623.77	81.92
623.92	30.43
624.07	70.22
624.23	133.41
624.38	102.98
624.53	39.79
624.68	42.13
624.83	91.28
624.98	11.70
625.13	53.83
625.29	35.11
625.44	0.00
625.59	95.96
625.74	11.70
625.89	37.45
626.04	126.39
626.19	65.54
626.34	58.51
626.49	51.49
626.65	65.54
626.80	56.17
626.95	51.49
627.10	95.96
627.25	79.58
627.40	91.28
627.55	131.07
627.70	88.94
627.85	14.04
628.00	23.41
628.15	81.92
628.30	37.45
628.45	110.01
628.60	93.62
628.76	25.75
628.91	72.56
629.06	65.54
629.21	74.90
629.36	100.64
629.51	56.17
629.66	58.51
629.81	49.15
629.96	67.88
630.11	91.28
630.26	42.13
630.41	56.17
630.56	42.13
630.71	35.11
630.86	81.92
631.01	49.15
631.16	65.54
631.31	74.90
631.46	60.85
631.61	107.66
631.76	46.81
631.91	49.15
632.06	0.00
632.21	49.15
632.36	37.45
632.51	58.51
632.66	72.56
632.81	42.13
632.96	46.81
633.10	49.15
633.25	32.77
633.40	81.92
633.55	18.72
633.70	119.37
633.85	35.11
634.00	67.88
634.15	77.24
634.30	58.51
634.45	37.45
634.60	0.00
634.75	42.13
634.90	63.19
635.05	112.35
635.19	56.17
635.34	63.19
635.49	95.96
635.64	67.88
635.79	39.79
635.94	105.32
636.09	84.26
636.24	0.00
636.39	32.77
636.53	23.41
636.68	60.85
636.83	0.00
636.98	9.36
637.13	112.35
637.28	53.83
637.43	53.83
637.57	51.49
637.72	35.11
637.87	21.06
638.02	56.17
638.17	39.79
638.32	65.54
638.46	65.54
638.61	102.98
638.76	39.79
638.91	44.47
639.06	37.45
639.20	0.00
639.35	42.13
639.50	91.28
639.65	86.60
639.80	7.02
639.94	79.58
640.09	67.88
640.24	107.66
640.39	77.24
640.54	46.81
640.68	4.68
640.83	105.32
640.98	65.54
641.13	60.85
641.27	74.90
641.42	2.34
641.57	67.88
641.72	63.19
641.86	117.03
642.01	46.81
642.16	14.04
642.31	39.79
642.45	30.43
642.60	77.24
642.75	65.54
642.90	86.60
643.04	58.51
643.19	67.88
643.34	49.15
643.48	65.54
643.63	4.68
643.78	11.70
643.93	0.00
644.07	39.79
644.22	39.79
644.37	32.77
644.51	0.00
644.66	28.09
644.81	63.19
644.95	51.49
645.10	0.00
645.25	124.05
645.39	65.54
645.54	16.38
645.69	60.85
645.83	105.32
645.98	88.94
646.13	65.54
646.27	44.47
646.42	60.85
646.57	11.70
646.71	46.81
646.86	4.68
647.00	51.49
647.15	91.28
647.30	37.45
647.44	70.22
647.59	147.45
647.74	93.62
647.88	72.56
648.03	91.28
648.17	107.66
648.32	58.51
648.47	51.49
648.61	28.09
648.76	46.81
648.90	7.02
649.05	60.85
649.20	0.00
649.34	86.60
649.49	11.70
649.63	42.13
649.78	98.30
649.92	18.72
650.07	0.00
650.21	79.58
650.36	44.47
650.51	67.88
650.65	126.39
650.80	98.30
650.94	0.00
651.09	84.26
651.23	42.13
651.38	121.71
651.52	35.11
651.67	86.60
651.81	35.11
651.96	4.68
652.10	21.06
652.25	138.09
652.39	105.32
652.54	0.00
652.68	0.00
652.83	72.56
652.97	60.85
653.12	58.51
653.26	84.26
653.41	49.15
653.55	0.00
653.70	51.49
653.84	32.77
653.99	88.94
654.13	18.72
654.27	0.00
654.42	98.30
654.56	86.60
654.71	46.81
654.85	70.22
655.00	0.00
655.14	0.00
655.29	14.04
655.43	35.11
655.57	60.85
655.72	32.77
655.86	49.15
656.01	65.54
656.15	9.36
656.30	88.94
656.44	166.18
656.58	60.85
656.73	88.94
656.87	30.43
657.01	7.02
657.16	77.24
657.30	21.06
657.45	88.94
657.59	121.71
657.73	49.15
657.88	77.24
658.02	100.64
658.16	35.11
658.31	79.58
658.45	23.41
658.60	98.30
658.74	58.51
658.88	23.41
659.03	30.43
659.17	23.41
659.31	49.15
659.46	7.02
659.60	119.37
659.74	44.47
659.89	0.00
660.03	79.58
660.17	28.09
660.32	126.39
660.46	88.94
660.60	100.64
660.74	7.02
660.89	42.13
661.03	124.05
661.17	79.58
661.32	84.26
661.46	28.09
661.60	81.92
661.74	51.49
661.89	56.17
662.03	102.98
662.17	56.17
662.31	30.43
662.46	110.01
662.60	51.49
662.74	32.77
662.88	51.49
663.03	0.00
663.17	49.15
663.31	25.75
663.45	49.15
663.60	77.24
663.74	74.90
663.88	14.04
664.02	84.26
664.17	30.43
664.31	21.06
664.45	0.00
664.59	56.17
664.73	11.70
664.88	11.70
665.02	28.09
665.16	21.06
665.30	28.09
665.44	63.19
665.59	67.88
665.73	74.90
665.87	2.34
666.01	58.51
666.15	56.17
666.29	53.83
666.44	105.32
666.58	74.90
666.72	0.00
666.86	25.75
667.00	35.11
667.14	46.81
667.28	142.77
667.43	14.04
667.57	35.11
667.71	0.00
667.85	7.02
667.99	39.79
668.13	63.19
668.27	93.62
668.41	2.34
668.56	53.83
668.70	105.32
668.84	30.43
668.98	49.15
669.12	65.54
669.26	0.00
669.40	53.83
669.54	49.15
669.68	60.85
669.82	30.43
669.96	72.56
670.10	133.41
670.25	39.79
670.39	81.92
670.53	81.92
670.67	58.51
670.81	42.13
670.95	51.49
671.09	77.24
671.23	60.85
671.37	53.83
671.51	25.75
671.65	63.19
671.79	84.26
671.93	102.98
672.07	46.81
672.21	152.13
672.35	30.43
672.49	67.88
672.63	56.17
672.77	128.73
672.91	91.28
673.05	53.83
673.19	16.38
673.33	74.90
673.47	16.38
673.61	9.36
673.75	18.72
673.89	72.56
674.03	0.00
674.17	9.36
674.31	93.62
674.45	67.88
674.59	100.64
674.73	51.49
674.87	32.77
675.01	58.51
675.15	42.13
675.29	0.00
675.43	23.41
675.56	65.54
675.70	21.06
675.84	86.60
675.98	2.34
676.12	16.38
676.26	30.43
676.40	0.00
676.54	0.00
676.68	72.56
676.82	39.79
676.96	23.41
677.10	21.06
677.23	72.56
677.37	0.00
677.51	53.83
677.65	102.98
677.79	7.02
677.93	14.04
678.07	53.83
678.21	77.24
678.34	77.24
678.48	84.26
678.62	0.00
678.76	42.13
678.90	46.81
679.04	95.96
679.18	70.22
679.31	11.70
679.45	30.43
679.59	39.79
679.73	9.36
679.87	51.49
680.00	0.00
680.14	0.00
680.28	51.49
680.42	112.35
680.56	30.43
680.70	74.90
680.83	91.28
680.97	25.75
681.11	14.04
681.25	42.13
681.39	77.24
681.52	21.06
681.66	102.98
681.80	142.77
681.94	58.51
682.07	37.45
682.21	58.51
682.35	11.70
682.49	112.35
682.62	18.72
682.76	81.92
682.90	70.22
683.04	56.17
683.17	93.62
683.31	79.58
683.45	51.49
683.59	42.13
683.72	107.66
683.86	23.41
684.00	49.15
684.13	39.79
684.27	0.00
684.41	126.39
684.55	67.88
684.68	0.00
684.82	65.54
684.96	58.51
685.09	16.38
685.23	0.00
685.37	46.81
685.50	53.83
685.64	51.49
685.78	44.47
685.91	0.00
686.05	46.81
686.19	35.11
686.32	46.81
686.46	0.00
686.60	0.00
686.73	0.00
686.87	112.35
687.01	0.00
687.14	0.00
687.28	0.00
687.42	0.00
687.55	60.85
687.69	4.68
687.82	53.83
687.96	25.75
688.10	53.83
688.23	0.00
688.37	128.73
688.50	9.36
688.64	63.19
688.78	67.88
688.91	53.83
689.05	39.79
689.18	23.41
689.32	7.02
689.46	56.17
689.59	67.88
689.73	86.60
689.86	63.19
690.00	74.90
690.13	2.34
690.27	16.38
690.41	18.72
690.54	0.00
690.68	37.45
690.81	0.00
690.95	65.54
691.08	0.00
691.22	93.62
691.35	0.00
691.49	4.68
691.62	14.04
691.76	117.03
691.89	35.11
692.03	30.43
692.16	117.03
692.30	53.83
692.43	23.41
692.57	37.45
692.70	4.68
692.84	60.85
692.97	49.15
693.11	39.79
693.24	91.28
693.38	53.83
693.51	23.41
693.65	58.51
693.78	84.26
693.92	0.00
694.05	16.38
694.19	88.94
694.32	37.45
694.45	0.00
694.59	35.11
694.72	49.15
694.86	84.26
694.99	18.72
695.13	46.81
695.26	28.09
695.39	60.85
695.53	110.01
695.66	65.54
695.80	56.17
695.93	81.92
696.07	39.79
696.20	135.75
696.33	77.24
696.47	0.00
696.60	0.00
696.73	58.51
696.87	2.34
697.00	77.24
697.14	49.15
697.27	67.88
697.40	37.45
697.54	0.00
697.67	0.00
697.80	39.79
697.94	81.92
698.07	11.70
698.21	0.00
698.34	25.75
698.47	79.58
698.61	11.70
698.74	46.81
698.87	53.83
699.01	37.45
699.14	51.49
699.27	32.77
699.40	14.04
699.54	93.62
699.67	37.45
699.80	9.36
699.94	86.60
700.07	0.00
700.20	25.75
700.34	72.56
700.47	0.00
700.60	140.43
700.73	4.68
700.87	44.47
701.00	0.00
701.13	70.22
701.26	63.19
701.40	72.56
701.53	28.09
701.66	53.83
701.79	114.69
701.93	95.96
702.06	53.83
702.19	23.41
702.32	32.77
702.46	0.00
702.59	72.56
702.72	72.56
702.85	95.96
702.99	60.85
703.12	0.00
703.25	0.00
703.38	0.00
703.51	63.19
703.65	72.56
703.78	63.19
703.91	72.56
704.04	35.11
704.17	7.02
704.31	30.43
704.44	74.90
704.57	74.90
704.70	9.36
704.83	21.06
704.96	88.94
705.10	4.68
705.23	7.02
>>>>>End Processed Spectral Data<<<<<
