SpectraSuite Data File
++++++++++++++++++++++++++++++++++++
Date: Fri Oct 04 12:13:28 GMT-05:00 2013
User: price-jones
Dark Spectrum Present: No
Reference Spectrum Present: No
Number of Sampled Component Spectra: 1
Spectrometers: USB2+H05261
Integration Time (usec): 10000 (USB2+H05261)
Spectra Averaged: 1 (USB2+H05261)
Boxcar Smoothing: 0 (USB2+H05261)
Correct for Electrical Dark: No (USB2+H05261)
Strobe/Lamp Enabled: No (USB2+H05261)
Correct for Detector Non-linearity: No (USB2+H05261)
Correct for Stray Light: No (USB2+H05261)
Number of Pixels in Processed Spectrum: 2048
>>>>>Begin Processed Spectral Data<<<<<
365.73	0.00
365.92	0.00
366.12	0.00
366.32	0.00
366.52	0.00
366.72	0.00
366.91	0.00
367.11	0.00
367.31	0.00
367.51	0.00
367.70	0.00
367.90	0.00
368.10	0.00
368.30	0.00
368.49	0.00
368.69	0.00
368.89	0.00
369.09	0.00
369.28	0.00
369.48	0.00
369.68	0.00
369.87	0.00
370.07	0.00
370.27	0.00
370.47	0.00
370.66	0.00
370.86	0.00
371.06	0.00
371.25	0.00
371.45	0.00
371.65	0.00
371.84	0.00
372.04	0.00
372.24	0.00
372.44	30.43
372.63	14.04
372.83	93.62
373.03	81.92
373.22	0.00
373.42	4.68
373.62	60.85
373.81	44.47
374.01	77.24
374.21	0.00
374.40	37.45
374.60	46.81
374.79	39.79
374.99	28.09
375.19	21.06
375.38	18.72
375.58	0.00
375.78	35.11
375.97	70.22
376.17	51.49
376.37	32.77
376.56	51.49
376.76	49.15
376.95	46.81
377.15	0.00
377.35	9.36
377.54	39.79
377.74	79.58
377.93	0.00
378.13	37.45
378.33	67.88
378.52	37.45
378.72	30.43
378.91	35.11
379.11	0.00
379.31	79.58
379.50	23.41
379.70	7.02
379.89	0.00
380.09	16.38
380.28	0.00
380.48	0.00
380.68	53.83
380.87	0.00
381.07	0.00
381.26	35.11
381.46	0.00
381.65	16.38
381.85	14.04
382.04	0.00
382.24	14.04
382.43	21.06
382.63	0.00
382.83	63.19
383.02	0.00
383.22	0.00
383.41	23.41
383.61	32.77
383.80	0.00
384.00	16.38
384.19	21.06
384.39	0.00
384.58	0.00
384.78	4.68
384.97	44.47
385.17	0.00
385.36	21.06
385.56	7.02
385.75	0.00
385.95	7.02
386.14	0.00
386.34	0.00
386.53	0.00
386.72	28.09
386.92	0.00
387.11	0.00
387.31	25.75
387.50	0.00
387.70	32.77
387.89	0.00
388.09	44.47
388.28	0.00
388.48	0.00
388.67	0.00
388.86	21.06
389.06	0.00
389.25	51.49
389.45	112.35
389.64	11.70
389.84	21.06
390.03	11.70
390.22	39.79
390.42	84.26
390.61	0.00
390.81	88.94
391.00	0.00
391.19	30.43
391.39	42.13
391.58	93.62
391.78	72.56
391.97	0.00
392.16	32.77
392.36	18.72
392.55	81.92
392.75	65.54
392.94	30.43
393.13	0.00
393.33	7.02
393.52	18.72
393.71	121.71
393.91	0.00
394.10	7.02
394.29	4.68
394.49	67.88
394.68	0.00
394.88	21.06
395.07	11.70
395.26	37.45
395.46	0.00
395.65	88.94
395.84	0.00
396.04	77.24
396.23	28.09
396.42	16.38
396.62	23.41
396.81	84.26
397.00	9.36
397.19	0.00
397.39	37.45
397.58	0.00
397.77	0.00
397.97	9.36
398.16	28.09
398.35	42.13
398.55	7.02
398.74	0.00
398.93	35.11
399.12	21.06
399.32	63.19
399.51	58.51
399.70	32.77
399.90	32.77
400.09	44.47
400.28	16.38
400.47	56.17
400.67	21.06
400.86	30.43
401.05	0.00
401.24	0.00
401.44	11.70
401.63	79.58
401.82	84.26
402.01	0.00
402.21	14.04
402.40	65.54
402.59	21.06
402.78	4.68
402.97	14.04
403.17	21.06
403.36	60.85
403.55	0.00
403.74	60.85
403.93	21.06
404.13	84.26
404.32	0.00
404.51	0.00
404.70	0.00
404.89	53.83
405.09	58.51
405.28	49.15
405.47	0.00
405.66	44.47
405.85	0.00
406.05	0.00
406.24	56.17
406.43	67.88
406.62	0.00
406.81	14.04
407.00	70.22
407.20	9.36
407.39	53.83
407.58	79.58
407.77	14.04
407.96	25.75
408.15	30.43
408.34	44.47
408.54	81.92
408.73	49.15
408.92	0.00
409.11	0.00
409.30	32.77
409.49	159.16
409.68	44.47
409.87	18.72
410.07	84.26
410.26	46.81
410.45	67.88
410.64	23.41
410.83	42.13
411.02	60.85
411.21	112.35
411.40	58.51
411.59	0.00
411.78	39.79
411.98	0.00
412.17	25.75
412.36	21.06
412.55	35.11
412.74	0.00
412.93	53.83
413.12	21.06
413.31	7.02
413.50	60.85
413.69	0.00
413.88	74.90
414.07	0.00
414.26	58.51
414.45	63.19
414.64	0.00
414.83	42.13
415.02	0.00
415.22	37.45
415.41	28.09
415.60	4.68
415.79	0.00
415.98	37.45
416.17	72.56
416.36	21.06
416.55	7.02
416.74	56.17
416.93	51.49
417.12	42.13
417.31	32.77
417.50	4.68
417.69	0.00
417.88	53.83
418.07	9.36
418.26	30.43
418.45	0.00
418.64	63.19
418.83	93.62
419.02	0.00
419.21	37.45
419.39	16.38
419.58	0.00
419.77	23.41
419.96	46.81
420.15	0.00
420.34	30.43
420.53	0.00
420.72	28.09
420.91	23.41
421.10	4.68
421.29	14.04
421.48	18.72
421.67	51.49
421.86	70.22
422.05	46.81
422.24	16.38
422.43	28.09
422.61	25.75
422.80	0.00
422.99	18.72
423.18	0.00
423.37	39.79
423.56	86.60
423.75	21.06
423.94	0.00
424.13	51.49
424.32	18.72
424.50	77.24
424.69	56.17
424.88	32.77
425.07	30.43
425.26	49.15
425.45	42.13
425.64	51.49
425.83	42.13
426.01	4.68
426.20	0.00
426.39	77.24
426.58	39.79
426.77	0.00
426.96	35.11
427.15	53.83
427.33	53.83
427.52	9.36
427.71	44.47
427.90	32.77
428.09	44.47
428.28	14.04
428.46	86.60
428.65	30.43
428.84	53.83
429.03	28.09
429.22	23.41
429.40	0.00
429.59	42.13
429.78	95.96
429.97	67.88
430.16	37.45
430.34	51.49
430.53	0.00
430.72	0.00
430.91	25.75
431.10	25.75
431.28	0.00
431.47	81.92
431.66	4.68
431.85	28.09
432.03	42.13
432.22	84.26
432.41	70.22
432.60	39.79
432.79	14.04
432.97	72.56
433.16	18.72
433.35	32.77
433.54	4.68
433.72	30.43
433.91	2.34
434.10	4.68
434.28	44.47
434.47	25.75
434.66	28.09
434.85	16.38
435.03	51.49
435.22	30.43
435.41	7.02
435.59	81.92
435.78	70.22
435.97	9.36
436.16	51.49
436.34	21.06
436.53	72.56
436.72	42.13
436.90	0.00
437.09	9.36
437.28	0.00
437.46	0.00
437.65	16.38
437.84	86.60
438.02	0.00
438.21	4.68
438.40	95.96
438.58	9.36
438.77	49.15
438.96	63.19
439.14	0.00
439.33	98.30
439.52	25.75
439.70	0.00
439.89	37.45
440.08	0.00
440.26	0.00
440.45	98.30
440.63	39.79
440.82	60.85
441.01	25.75
441.19	14.04
441.38	35.11
441.57	16.38
441.75	74.90
441.94	63.19
442.12	42.13
442.31	72.56
442.50	25.75
442.68	0.00
442.87	39.79
443.05	49.15
443.24	23.41
443.43	56.17
443.61	49.15
443.80	65.54
443.98	86.60
444.17	72.56
444.35	28.09
444.54	44.47
444.73	0.00
444.91	35.11
445.10	53.83
445.28	32.77
445.47	42.13
445.65	44.47
445.84	32.77
446.02	30.43
446.21	117.03
446.39	0.00
446.58	44.47
446.77	72.56
446.95	0.00
447.14	0.00
447.32	11.70
447.51	84.26
447.69	32.77
447.88	0.00
448.06	39.79
448.25	74.90
448.43	53.83
448.62	58.51
448.80	9.36
448.99	32.77
449.17	93.62
449.36	42.13
449.54	53.83
449.73	46.81
449.91	44.47
450.10	60.85
450.28	37.45
450.46	63.19
450.65	0.00
450.83	44.47
451.02	18.72
451.20	0.00
451.39	39.79
451.57	63.19
451.76	2.34
451.94	81.92
452.13	42.13
452.31	23.41
452.49	67.88
452.68	28.09
452.86	84.26
453.05	102.98
453.23	18.72
453.42	53.83
453.60	0.00
453.78	23.41
453.97	25.75
454.15	70.22
454.34	16.38
454.52	39.79
454.70	0.00
454.89	0.00
455.07	4.68
455.26	0.00
455.44	39.79
455.62	53.83
455.81	0.00
455.99	72.56
456.17	32.77
456.36	79.58
456.54	2.34
456.73	28.09
456.91	44.47
457.09	0.00
457.28	9.36
457.46	91.28
457.64	9.36
457.83	0.00
458.01	4.68
458.19	65.54
458.38	4.68
458.56	0.00
458.74	114.69
458.93	74.90
459.11	35.11
459.29	2.34
459.48	72.56
459.66	46.81
459.84	42.13
460.03	65.54
460.21	44.47
460.39	72.56
460.57	0.00
460.76	25.75
460.94	49.15
461.12	60.85
461.31	46.81
461.49	0.00
461.67	0.00
461.85	100.64
462.04	21.06
462.22	21.06
462.40	0.00
462.59	18.72
462.77	37.45
462.95	0.00
463.13	28.09
463.32	49.15
463.50	72.56
463.68	70.22
463.86	44.47
464.05	9.36
464.23	2.34
464.41	11.70
464.59	21.06
464.78	7.02
464.96	14.04
465.14	37.45
465.32	2.34
465.50	0.00
465.69	67.88
465.87	11.70
466.05	0.00
466.23	28.09
466.41	56.17
466.60	9.36
466.78	18.72
466.96	25.75
467.14	11.70
467.32	7.02
467.51	0.00
467.69	35.11
467.87	98.30
468.05	0.00
468.23	0.00
468.41	51.49
468.60	39.79
468.78	100.64
468.96	53.83
469.14	0.00
469.32	2.34
469.50	4.68
469.69	25.75
469.87	67.88
470.05	16.38
470.23	16.38
470.41	88.94
470.59	67.88
470.77	9.36
470.95	37.45
471.14	28.09
471.32	0.00
471.50	72.56
471.68	0.00
471.86	63.19
472.04	63.19
472.22	0.00
472.40	53.83
472.58	0.00
472.77	14.04
472.95	35.11
473.13	42.13
473.31	0.00
473.49	77.24
473.67	65.54
473.85	46.81
474.03	0.00
474.21	84.26
474.39	63.19
474.57	72.56
474.75	0.00
474.93	35.11
475.12	0.00
475.30	21.06
475.48	25.75
475.66	28.09
475.84	72.56
476.02	16.38
476.20	37.45
476.38	58.51
476.56	14.04
476.74	86.60
476.92	42.13
477.10	28.09
477.28	0.00
477.46	11.70
477.64	14.04
477.82	28.09
478.00	25.75
478.18	51.49
478.36	88.94
478.54	58.51
478.72	30.43
478.90	9.36
479.08	42.13
479.26	32.77
479.44	32.77
479.62	35.11
479.80	37.45
479.98	65.54
480.16	30.43
480.34	16.38
480.52	88.94
480.70	25.75
480.88	0.00
481.06	124.05
481.24	0.00
481.41	28.09
481.59	0.00
481.77	46.81
481.95	14.04
482.13	60.85
482.31	112.35
482.49	56.17
482.67	4.68
482.85	65.54
483.03	32.77
483.21	114.69
483.39	0.00
483.57	58.51
483.74	14.04
483.92	60.85
484.10	0.00
484.28	30.43
484.46	0.00
484.64	32.77
484.82	0.00
485.00	0.00
485.18	0.00
485.35	28.09
485.53	0.00
485.71	58.51
485.89	16.38
486.07	42.13
486.25	46.81
486.43	9.36
486.61	42.13
486.78	72.56
486.96	39.79
487.14	39.79
487.32	11.70
487.50	102.98
487.68	2.34
487.85	0.00
488.03	35.11
488.21	105.32
488.39	53.83
488.57	0.00
488.75	18.72
488.92	107.66
489.10	28.09
489.28	81.92
489.46	0.00
489.64	63.19
489.81	21.06
489.99	14.04
490.17	86.60
490.35	16.38
490.53	18.72
490.70	95.96
490.88	56.17
491.06	0.00
491.24	51.49
491.41	0.00
491.59	37.45
491.77	53.83
491.95	74.90
492.13	39.79
492.30	0.00
492.48	79.58
492.66	11.70
492.84	32.77
493.01	23.41
493.19	58.51
493.37	0.00
493.54	65.54
493.72	14.04
493.90	9.36
494.08	14.04
494.25	0.00
494.43	63.19
494.61	37.45
494.79	32.77
494.96	18.72
495.14	0.00
495.32	32.77
495.49	14.04
495.67	28.09
495.85	2.34
496.02	16.38
496.20	37.45
496.38	35.11
496.55	4.68
496.73	14.04
496.91	32.77
497.09	32.77
497.26	18.72
497.44	30.43
497.62	53.83
497.79	58.51
497.97	81.92
498.14	105.32
498.32	18.72
498.50	65.54
498.67	0.00
498.85	79.58
499.03	72.56
499.20	84.26
499.38	0.00
499.56	14.04
499.73	112.35
499.91	23.41
500.08	88.94
500.26	18.72
500.44	9.36
500.61	49.15
500.79	86.60
500.97	67.88
501.14	46.81
501.32	11.70
501.49	91.28
501.67	63.19
501.84	0.00
502.02	4.68
502.20	32.77
502.37	53.83
502.55	2.34
502.72	88.94
502.90	16.38
503.07	100.64
503.25	49.15
503.43	100.64
503.60	58.51
503.78	65.54
503.95	9.36
504.13	91.28
504.30	58.51
504.48	7.02
504.65	18.72
504.83	11.70
505.01	114.69
505.18	42.13
505.36	42.13
505.53	105.32
505.71	81.92
505.88	91.28
506.06	39.79
506.23	88.94
506.41	18.72
506.58	0.00
506.76	0.00
506.93	58.51
507.11	23.41
507.28	42.13
507.46	67.88
507.63	58.51
507.81	53.83
507.98	39.79
508.16	65.54
508.33	0.00
508.50	37.45
508.68	0.00
508.85	0.00
509.03	58.51
509.20	93.62
509.38	11.70
509.55	46.81
509.73	44.47
509.90	35.11
510.08	60.85
510.25	44.47
510.42	7.02
510.60	14.04
510.77	53.83
510.95	0.00
511.12	0.00
511.30	9.36
511.47	65.54
511.64	37.45
511.82	39.79
511.99	88.94
512.17	51.49
512.34	145.11
512.51	0.00
512.69	67.88
512.86	65.54
513.04	28.09
513.21	32.77
513.38	0.00
513.56	35.11
513.73	21.06
513.90	67.88
514.08	102.98
514.25	23.41
514.43	32.77
514.60	79.58
514.77	0.00
514.95	67.88
515.12	63.19
515.29	84.26
515.47	0.00
515.64	23.41
515.81	28.09
515.99	25.75
516.16	0.00
516.33	88.94
516.51	65.54
516.68	4.68
516.85	67.88
517.03	0.00
517.20	9.36
517.37	14.04
517.54	93.62
517.72	42.13
517.89	28.09
518.06	35.11
518.24	35.11
518.41	56.17
518.58	14.04
518.75	32.77
518.93	0.00
519.10	23.41
519.27	0.00
519.45	51.49
519.62	74.90
519.79	32.77
519.96	70.22
520.14	70.22
520.31	23.41
520.48	79.58
520.65	28.09
520.83	60.85
521.00	2.34
521.17	91.28
521.34	18.72
521.52	95.96
521.69	124.05
521.86	60.85
522.03	25.75
522.20	0.00
522.38	67.88
522.55	37.45
522.72	88.94
522.89	44.47
523.07	23.41
523.24	25.75
523.41	42.13
523.58	18.72
523.75	46.81
523.92	0.00
524.10	0.00
524.27	0.00
524.44	56.17
524.61	30.43
524.78	84.26
524.96	23.41
525.13	128.73
525.30	79.58
525.47	18.72
525.64	37.45
525.81	56.17
525.98	2.34
526.16	39.79
526.33	63.19
526.50	74.90
526.67	2.34
526.84	16.38
527.01	53.83
527.18	37.45
527.36	114.69
527.53	0.00
527.70	65.54
527.87	49.15
528.04	46.81
528.21	49.15
528.38	14.04
528.55	65.54
528.72	81.92
528.89	49.15
529.07	49.15
529.24	91.28
529.41	79.58
529.58	56.17
529.75	14.04
529.92	21.06
530.09	44.47
530.26	56.17
530.43	39.79
530.60	84.26
530.77	30.43
530.94	28.09
531.11	51.49
531.28	60.85
531.46	58.51
531.63	86.60
531.80	42.13
531.97	21.06
532.14	105.32
532.31	35.11
532.48	35.11
532.65	0.00
532.82	18.72
532.99	53.83
533.16	124.05
533.33	79.58
533.50	126.39
533.67	0.00
533.84	42.13
534.01	60.85
534.18	18.72
534.35	60.85
534.52	21.06
534.69	60.85
534.86	0.00
535.03	30.43
535.20	86.60
535.37	79.58
535.54	58.51
535.71	39.79
535.88	72.56
536.05	0.00
536.22	23.41
536.38	56.17
536.55	56.17
536.72	25.75
536.89	131.07
537.06	32.77
537.23	21.06
537.40	121.71
537.57	4.68
537.74	84.26
537.91	49.15
538.08	44.47
538.25	37.45
538.42	86.60
538.59	21.06
538.75	0.00
538.92	0.00
539.09	35.11
539.26	67.88
539.43	58.51
539.60	98.30
539.77	135.75
539.94	86.60
540.11	88.94
540.28	65.54
540.44	32.77
540.61	60.85
540.78	77.24
540.95	98.30
541.12	49.15
541.29	16.38
541.46	21.06
541.62	49.15
541.79	70.22
541.96	2.34
542.13	58.51
542.30	65.54
542.47	0.00
542.63	60.85
542.80	0.00
542.97	95.96
543.14	0.00
543.31	32.77
543.48	37.45
543.64	46.81
543.81	0.00
543.98	51.49
544.15	84.26
544.32	0.00
544.48	81.92
544.65	11.70
544.82	53.83
544.99	35.11
545.16	79.58
545.32	51.49
545.49	63.19
545.66	0.00
545.83	9.36
546.00	30.43
546.16	28.09
546.33	28.09
546.50	16.38
546.67	35.11
546.83	65.54
547.00	25.75
547.17	107.66
547.34	28.09
547.50	21.06
547.67	72.56
547.84	67.88
548.00	53.83
548.17	2.34
548.34	44.47
548.51	114.69
548.67	0.00
548.84	9.36
549.01	0.00
549.18	72.56
549.34	0.00
549.51	4.68
549.68	91.28
549.84	32.77
550.01	100.64
550.18	21.06
550.34	32.77
550.51	14.04
550.68	42.13
550.84	0.00
551.01	77.24
551.18	67.88
551.34	81.92
551.51	18.72
551.68	28.09
551.84	117.03
552.01	65.54
552.18	0.00
552.34	67.88
552.51	91.28
552.68	98.30
552.84	0.00
553.01	23.41
553.18	77.24
553.34	135.75
553.51	0.00
553.67	4.68
553.84	58.51
554.01	0.00
554.17	77.24
554.34	28.09
554.51	49.15
554.67	18.72
554.84	58.51
555.00	39.79
555.17	9.36
555.33	42.13
555.50	23.41
555.67	60.85
555.83	28.09
556.00	58.51
556.16	9.36
556.33	32.77
556.50	0.00
556.66	56.17
556.83	0.00
556.99	67.88
557.16	84.26
557.32	0.00
557.49	35.11
557.65	0.00
557.82	70.22
557.98	35.11
558.15	91.28
558.32	107.66
558.48	100.64
558.65	77.24
558.81	67.88
558.98	77.24
559.14	60.85
559.31	0.00
559.47	18.72
559.64	44.47
559.80	37.45
559.97	107.66
560.13	35.11
560.30	88.94
560.46	2.34
560.63	142.77
560.79	0.00
560.96	56.17
561.12	81.92
561.29	46.81
561.45	7.02
561.61	9.36
561.78	32.77
561.94	58.51
562.11	46.81
562.27	0.00
562.44	30.43
562.60	42.13
562.77	9.36
562.93	9.36
563.10	0.00
563.26	18.72
563.42	28.09
563.59	84.26
563.75	67.88
563.92	46.81
564.08	14.04
564.24	9.36
564.41	70.22
564.57	72.56
564.74	0.00
564.90	84.26
565.07	84.26
565.23	88.94
565.39	7.02
565.56	95.96
565.72	37.45
565.88	60.85
566.05	23.41
566.21	35.11
566.38	0.00
566.54	0.00
566.70	25.75
566.87	74.90
567.03	28.09
567.19	16.38
567.36	46.81
567.52	23.41
567.68	30.43
567.85	70.22
568.01	16.38
568.17	74.90
568.34	0.00
568.50	60.85
568.66	53.83
568.83	14.04
568.99	18.72
569.15	98.30
569.32	77.24
569.48	46.81
569.64	16.38
569.81	9.36
569.97	67.88
570.13	51.49
570.30	133.41
570.46	46.81
570.62	39.79
570.78	84.26
570.95	14.04
571.11	77.24
571.27	46.81
571.43	25.75
571.60	0.00
571.76	23.41
571.92	18.72
572.09	100.64
572.25	21.06
572.41	119.37
572.57	81.92
572.74	37.45
572.90	95.96
573.06	49.15
573.22	28.09
573.38	107.66
573.55	0.00
573.71	63.19
573.87	39.79
574.03	11.70
574.20	51.49
574.36	58.51
574.52	9.36
574.68	28.09
574.84	142.77
575.01	30.43
575.17	126.39
575.33	4.68
575.49	91.28
575.65	0.00
575.82	14.04
575.98	23.41
576.14	67.88
576.30	67.88
576.46	72.56
576.62	84.26
576.79	81.92
576.95	37.45
577.11	79.58
577.27	0.00
577.43	56.17
577.59	35.11
577.75	25.75
577.92	91.28
578.08	21.06
578.24	23.41
578.40	88.94
578.56	46.81
578.72	28.09
578.88	53.83
579.04	119.37
579.21	46.81
579.37	37.45
579.53	67.88
579.69	51.49
579.85	51.49
580.01	53.83
580.17	46.81
580.33	119.37
580.49	110.01
580.65	74.90
580.82	18.72
580.98	30.43
581.14	131.07
581.30	58.51
581.46	25.75
581.62	67.88
581.78	67.88
581.94	84.26
582.10	86.60
582.26	88.94
582.42	53.83
582.58	32.77
582.74	91.28
582.90	0.00
583.06	42.13
583.22	95.96
583.38	58.51
583.54	95.96
583.70	86.60
583.86	44.47
584.02	135.75
584.18	110.01
584.34	149.79
584.50	292.57
584.66	1996.48
584.82	4746.61
584.98	6427.11
585.14	5668.78
585.30	3531.87
585.46	2218.83
585.62	1291.98
585.78	699.82
585.94	276.18
586.10	168.52
586.26	72.56
586.42	98.30
586.58	11.70
586.74	74.90
586.90	210.65
587.06	88.94
587.22	56.17
587.38	105.32
587.54	147.45
587.70	332.36
587.86	519.60
588.02	531.30
588.18	304.27
588.34	170.86
588.49	180.22
588.65	147.45
588.81	42.13
588.97	30.43
589.13	46.81
589.29	81.92
589.45	28.09
589.61	4.68
589.77	21.06
589.93	81.92
590.08	25.75
590.24	81.92
590.40	70.22
590.56	60.85
590.72	9.36
590.88	14.04
591.04	11.70
591.20	21.06
591.35	32.77
591.51	0.00
591.67	56.17
591.83	14.04
591.99	88.94
592.15	0.00
592.31	37.45
592.46	42.13
592.62	72.56
592.78	81.92
592.94	0.00
593.10	32.77
593.26	7.02
593.41	14.04
593.57	23.41
593.73	72.56
593.89	283.20
594.05	566.41
594.20	856.64
594.36	767.70
594.52	552.37
594.68	355.76
594.84	236.39
594.99	110.01
595.15	84.26
595.31	0.00
595.47	0.00
595.62	117.03
595.78	74.90
595.94	72.56
596.10	74.90
596.25	25.75
596.41	44.47
596.57	84.26
596.73	112.35
596.88	74.90
597.04	145.11
597.20	191.92
597.36	170.86
597.51	290.23
597.67	142.77
597.83	102.98
597.99	60.85
598.14	0.00
598.30	74.90
598.46	51.49
598.61	51.49
598.77	56.17
598.93	84.26
599.09	42.13
599.24	23.41
599.40	49.15
599.56	0.00
599.71	0.00
599.87	84.26
600.03	0.00
600.18	114.69
600.34	30.43
600.50	28.09
600.65	0.00
600.81	30.43
600.97	23.41
601.12	53.83
601.28	0.00
601.44	51.49
601.59	7.02
601.75	4.68
601.91	0.00
602.06	145.11
602.22	51.49
602.37	77.24
602.53	168.52
602.69	205.97
602.84	168.52
603.00	138.09
603.16	168.52
603.31	133.41
603.47	32.77
603.62	0.00
603.78	56.17
603.94	14.04
604.09	37.45
604.25	67.88
604.40	88.94
604.56	9.36
604.71	0.00
604.87	84.26
605.03	105.32
605.18	91.28
605.34	84.26
605.49	58.51
605.65	16.38
605.80	42.13
605.96	30.43
606.12	0.00
606.27	65.54
606.43	46.81
606.58	65.54
606.74	100.64
606.89	297.25
607.05	533.64
607.20	763.01
607.36	622.58
607.51	376.83
607.67	304.27
607.82	210.65
607.98	112.35
608.13	49.15
608.29	46.81
608.44	93.62
608.60	67.88
608.75	65.54
608.91	79.58
609.06	454.06
609.22	964.30
609.37	1196.01
609.53	1121.12
609.68	758.33
609.84	461.09
609.99	346.40
610.15	173.20
610.30	131.07
610.46	58.51
610.61	37.45
610.76	58.51
610.92	84.26
611.07	23.41
611.23	0.00
611.38	25.75
611.54	4.68
611.69	60.85
611.84	7.02
612.00	35.11
612.15	70.22
612.31	49.15
612.46	107.66
612.62	63.19
612.77	72.56
612.92	49.15
613.08	23.41
613.23	117.03
613.39	23.41
613.54	156.82
613.69	468.11
613.85	1210.06
614.00	1783.49
614.15	1891.15
614.31	1359.85
614.46	1039.20
614.62	643.65
614.77	355.76
614.92	245.76
615.08	117.03
615.23	30.43
615.38	28.09
615.54	67.88
615.69	88.94
615.84	212.99
616.00	486.83
616.15	521.94
616.30	409.59
616.46	318.31
616.61	245.76
616.76	124.05
616.92	145.11
617.07	58.51
617.22	30.43
617.37	0.00
617.53	32.77
617.68	21.06
617.83	72.56
617.99	46.81
618.14	0.00
618.29	7.02
618.45	30.43
618.60	72.56
618.75	67.88
618.90	56.17
619.06	21.06
619.21	21.06
619.36	35.11
619.51	11.70
619.67	0.00
619.82	79.58
619.97	16.38
620.12	44.47
620.28	95.96
620.43	81.92
620.58	0.00
620.73	79.58
620.89	30.43
621.04	79.58
621.19	138.09
621.34	273.84
621.49	360.44
621.65	236.39
621.80	220.01
621.95	194.26
622.10	149.79
622.25	0.00
622.41	79.58
622.56	46.81
622.71	84.26
622.86	0.00
623.01	53.83
623.16	44.47
623.32	65.54
623.47	0.00
623.62	102.98
623.77	11.70
623.92	25.75
624.07	46.81
624.23	60.85
624.38	74.90
624.53	0.00
624.68	70.22
624.83	60.85
624.98	35.11
625.13	11.70
625.29	93.62
625.44	28.09
625.59	63.19
625.74	18.72
625.89	0.00
626.04	220.01
626.19	582.79
626.34	870.68
626.49	1004.09
626.65	683.44
626.80	519.60
626.95	344.06
627.10	196.60
627.25	100.64
627.40	56.17
627.55	65.54
627.70	14.04
627.85	98.30
628.00	46.81
628.15	0.00
628.30	56.17
628.45	16.38
628.60	11.70
628.76	53.83
628.91	114.69
629.06	49.15
629.21	0.00
629.36	4.68
629.51	39.79
629.66	46.81
629.81	74.90
629.96	138.09
630.11	234.05
630.26	241.08
630.41	290.23
630.56	159.16
630.71	131.07
630.86	128.73
631.01	0.00
631.16	30.43
631.31	93.62
631.46	14.04
631.61	63.19
631.76	0.00
631.91	4.68
632.06	39.79
632.21	58.51
632.36	21.06
632.51	25.75
632.66	14.04
632.81	42.13
632.96	322.99
633.10	568.75
633.25	603.86
633.40	554.71
633.55	519.60
633.70	241.08
633.85	191.92
634.00	53.83
634.15	23.41
634.30	65.54
634.45	42.13
634.60	51.49
634.75	11.70
634.90	0.00
635.05	63.19
635.19	58.51
635.34	44.47
635.49	25.75
635.64	56.17
635.79	30.43
635.94	0.00
636.09	0.00
636.24	0.00
636.39	51.49
636.53	2.34
636.68	77.24
636.83	70.22
636.98	56.17
637.13	56.17
637.28	39.79
637.43	91.28
637.57	95.96
637.72	346.40
637.87	751.31
638.02	1179.63
638.17	1231.12
638.32	1011.11
638.46	774.72
638.61	545.34
638.76	306.61
638.91	142.77
639.06	131.07
639.20	142.77
639.35	74.90
639.50	142.77
639.65	435.34
639.80	1217.08
639.94	1825.62
640.09	1991.80
640.24	1465.18
640.39	1025.15
640.54	781.74
640.68	383.85
640.83	203.63
640.98	56.17
641.13	39.79
641.27	25.75
641.42	102.98
641.57	58.51
641.72	53.83
641.86	88.94
642.01	9.36
642.16	18.72
642.31	0.00
642.45	70.22
642.60	16.38
642.75	39.79
642.90	37.45
643.04	84.26
643.19	53.83
643.34	11.70
643.48	60.85
643.63	74.90
643.78	58.51
643.93	0.00
644.07	0.00
644.22	72.56
644.37	0.00
644.51	23.41
644.66	0.00
644.81	14.04
644.95	9.36
645.10	23.41
645.25	46.81
645.39	0.00
645.54	77.24
645.69	11.70
645.83	0.00
645.98	37.45
646.13	65.54
646.27	79.58
646.42	0.00
646.57	0.00
646.71	42.13
646.86	49.15
647.00	98.30
647.15	49.15
647.30	79.58
647.44	2.34
647.59	37.45
647.74	16.38
647.88	32.77
648.03	44.47
648.17	25.75
648.32	70.22
648.47	51.49
648.61	110.01
648.76	4.68
648.90	37.45
649.05	0.00
649.20	9.36
649.34	18.72
649.49	107.66
649.63	117.03
649.78	0.00
649.92	100.64
650.07	173.20
650.21	465.77
650.36	856.64
650.51	980.68
650.65	856.64
650.80	727.91
650.94	451.72
651.09	250.44
651.23	154.48
651.38	58.51
651.52	70.22
651.67	44.47
651.81	56.17
651.96	46.81
652.10	42.13
652.25	117.03
652.39	14.04
652.54	0.00
652.68	42.13
652.83	187.24
652.97	255.12
653.12	348.74
653.26	353.42
653.41	287.89
653.55	243.42
653.70	215.33
653.84	112.35
653.99	53.83
654.13	0.00
654.27	39.79
654.42	46.81
654.56	102.98
654.71	0.00
654.85	28.09
655.00	21.06
655.14	81.92
655.29	79.58
655.43	11.70
655.57	28.09
655.72	18.72
655.86	0.00
656.01	9.36
656.15	79.58
656.30	93.62
656.44	56.17
656.58	72.56
656.73	0.00
656.87	0.00
657.01	9.36
657.16	9.36
657.30	0.00
657.45	11.70
657.59	0.00
657.73	9.36
657.88	0.00
658.02	81.92
658.16	23.41
658.31	7.02
658.45	79.58
658.60	58.51
658.74	105.32
658.88	67.88
659.03	32.77
659.17	86.60
659.31	79.58
659.46	229.37
659.60	409.59
659.74	475.13
659.89	444.70
660.03	313.63
660.17	215.33
660.32	189.58
660.46	65.54
660.60	11.70
660.74	60.85
660.89	21.06
661.03	117.03
661.17	28.09
661.32	58.51
661.46	2.34
661.60	58.51
661.74	105.32
661.89	0.00
662.03	0.00
662.17	37.45
662.31	14.04
662.46	25.75
662.60	74.90
662.74	0.00
662.88	30.43
663.03	14.04
663.17	18.72
663.31	21.06
663.45	0.00
663.60	0.00
663.74	30.43
663.88	0.00
664.02	44.47
664.17	70.22
664.31	0.00
664.45	0.00
664.59	0.00
664.73	88.94
664.88	91.28
665.02	0.00
665.16	56.17
665.30	79.58
665.44	51.49
665.59	35.11
665.73	58.51
665.87	49.15
666.01	11.70
666.15	14.04
666.29	51.49
666.44	32.77
666.58	49.15
666.72	53.83
666.86	30.43
667.00	16.38
667.14	114.69
667.28	166.18
667.43	463.43
667.57	681.10
667.71	966.64
667.85	816.85
667.99	603.86
668.13	498.53
668.27	280.86
668.41	93.62
668.56	93.62
668.70	114.69
668.84	25.75
668.98	18.72
669.12	30.43
669.26	72.56
669.40	86.60
669.54	110.01
669.68	93.62
669.82	0.00
669.96	37.45
670.10	53.83
670.25	0.00
670.39	56.17
670.53	88.94
670.67	58.51
670.81	21.06
670.95	98.30
671.09	88.94
671.23	138.09
671.37	397.89
671.51	463.43
671.65	519.60
671.79	442.36
671.93	322.99
672.07	205.97
672.21	53.83
672.35	133.41
672.49	51.49
672.63	0.00
672.77	0.00
672.91	0.00
673.05	84.26
673.19	2.34
673.33	0.00
673.47	7.02
673.61	0.00
673.75	56.17
673.89	32.77
674.03	14.04
674.17	0.00
674.31	0.00
674.45	53.83
674.59	11.70
674.73	23.41
674.87	4.68
675.01	14.04
675.15	7.02
675.29	51.49
675.43	51.49
675.56	49.15
675.70	7.02
675.84	72.56
675.98	60.85
676.12	9.36
676.26	67.88
676.40	9.36
676.54	49.15
676.68	4.68
676.82	9.36
676.96	4.68
677.10	0.00
677.23	0.00
677.37	37.45
677.51	2.34
677.65	0.00
677.79	42.13
677.93	0.00
678.07	0.00
678.21	84.26
678.34	0.00
678.48	56.17
678.62	67.88
678.76	44.47
678.90	65.54
679.04	72.56
679.18	39.79
679.31	39.79
679.45	42.13
679.59	46.81
679.73	42.13
679.87	0.00
680.00	0.00
680.14	23.41
680.28	46.81
680.42	98.30
680.56	42.13
680.70	18.72
680.83	0.00
680.97	0.00
681.11	49.15
681.25	21.06
681.39	7.02
681.52	35.11
681.66	0.00
681.80	11.70
681.94	44.47
682.07	9.36
682.21	51.49
682.35	0.00
682.49	74.90
682.62	35.11
682.76	35.11
682.90	35.11
683.04	117.03
683.17	44.47
683.31	39.79
683.45	84.26
683.59	91.28
683.72	21.06
683.86	0.00
684.00	72.56
684.13	84.26
684.27	25.75
684.41	14.04
684.55	65.54
684.68	49.15
684.82	72.56
684.96	0.00
685.09	7.02
685.23	63.19
685.37	56.17
685.50	84.26
685.64	28.09
685.78	30.43
685.91	18.72
686.05	9.36
686.19	100.64
686.32	81.92
686.46	23.41
686.60	39.79
686.73	0.00
686.87	0.00
687.01	25.75
687.14	0.00
687.28	23.41
687.42	7.02
687.55	46.81
687.69	18.72
687.82	102.98
687.96	74.90
688.10	32.77
688.23	49.15
688.37	2.34
688.50	14.04
688.64	142.77
688.78	0.00
688.91	7.02
689.05	91.28
689.18	0.00
689.32	0.00
689.46	79.58
689.59	0.00
689.73	74.90
689.86	49.15
690.00	60.85
690.13	16.38
690.27	0.00
690.41	51.49
690.54	77.24
690.68	25.75
690.81	39.79
690.95	70.22
691.08	0.00
691.22	25.75
691.35	0.00
691.49	0.00
691.62	18.72
691.76	72.56
691.89	30.43
692.03	37.45
692.16	30.43
692.30	0.00
692.43	60.85
692.57	224.69
692.70	421.30
692.84	442.36
692.97	369.80
693.11	271.50
693.24	149.79
693.38	184.90
693.51	119.37
693.65	102.98
693.78	32.77
693.92	2.34
694.05	35.11
694.19	0.00
694.32	16.38
694.45	2.34
694.59	65.54
694.72	2.34
694.86	39.79
694.99	30.43
695.13	63.19
695.26	0.00
695.39	0.00
695.53	35.11
695.66	0.00
695.80	0.00
695.93	49.15
696.07	11.70
696.20	77.24
696.33	0.00
696.47	56.17
696.60	35.11
696.73	42.13
696.87	39.79
697.00	56.17
697.14	133.41
697.27	39.79
697.40	0.00
697.54	51.49
697.67	30.43
697.80	35.11
697.94	49.15
698.07	39.79
698.21	37.45
698.34	35.11
698.47	39.79
698.61	93.62
698.74	32.77
698.87	30.43
699.01	0.00
699.14	0.00
699.27	0.00
699.40	32.77
699.54	11.70
699.67	9.36
699.80	60.85
699.94	7.02
700.07	70.22
700.20	21.06
700.34	0.00
700.47	35.11
700.60	53.83
700.73	4.68
700.87	28.09
701.00	32.77
701.13	16.38
701.26	28.09
701.40	58.51
701.53	16.38
701.66	46.81
701.79	49.15
701.93	42.13
702.06	32.77
702.19	49.15
702.32	105.32
702.46	81.92
702.59	98.30
702.72	49.15
702.85	257.46
702.99	503.22
703.12	692.80
703.25	732.59
703.38	636.63
703.51	594.50
703.65	440.02
703.78	292.57
703.91	170.86
704.04	145.11
704.17	18.72
704.31	25.75
704.44	72.56
704.57	0.00
704.70	56.17
704.83	16.38
704.96	0.00
705.10	46.81
705.23	39.79
>>>>>End Processed Spectral Data<<<<<
