SpectraSuite Data File
++++++++++++++++++++++++++++++++++++
Date: Fri Oct 04 12:13:41 GMT-05:00 2013
User: price-jones
Dark Spectrum Present: No
Reference Spectrum Present: No
Number of Sampled Component Spectra: 1
Spectrometers: USB2+H05261
Integration Time (usec): 10000 (USB2+H05261)
Spectra Averaged: 1 (USB2+H05261)
Boxcar Smoothing: 0 (USB2+H05261)
Correct for Electrical Dark: No (USB2+H05261)
Strobe/Lamp Enabled: No (USB2+H05261)
Correct for Detector Non-linearity: No (USB2+H05261)
Correct for Stray Light: No (USB2+H05261)
Number of Pixels in Processed Spectrum: 2048
>>>>>Begin Processed Spectral Data<<<<<
365.73	0.00
365.92	0.00
366.12	0.00
366.32	0.00
366.52	0.00
366.72	0.00
366.91	0.00
367.11	0.00
367.31	0.00
367.51	0.00
367.70	0.00
367.90	0.00
368.10	0.00
368.30	0.00
368.49	0.00
368.69	0.00
368.89	0.00
369.09	0.00
369.28	0.00
369.48	0.00
369.68	0.00
369.87	0.00
370.07	0.00
370.27	0.00
370.47	0.00
370.66	0.00
370.86	0.00
371.06	0.00
371.25	0.00
371.45	7.02
371.65	0.00
371.84	7.02
372.04	0.00
372.24	0.00
372.44	44.47
372.63	44.47
372.83	25.75
373.03	16.38
373.22	0.00
373.42	0.00
373.62	0.00
373.81	46.81
374.01	16.38
374.21	0.00
374.40	0.00
374.60	79.58
374.79	9.36
374.99	0.00
375.19	72.56
375.38	30.43
375.58	16.38
375.78	63.19
375.97	16.38
376.17	11.70
376.37	0.00
376.56	39.79
376.76	14.04
376.95	42.13
377.15	30.43
377.35	65.54
377.54	2.34
377.74	60.85
377.93	23.41
378.13	21.06
378.33	49.15
378.52	32.77
378.72	44.47
378.91	63.19
379.11	0.00
379.31	44.47
379.50	0.00
379.70	77.24
379.89	28.09
380.09	0.00
380.28	11.70
380.48	0.00
380.68	0.00
380.87	9.36
381.07	60.85
381.26	0.00
381.46	0.00
381.65	0.00
381.85	9.36
382.04	30.43
382.24	11.70
382.43	53.83
382.63	0.00
382.83	0.00
383.02	0.00
383.22	0.00
383.41	23.41
383.61	0.00
383.80	0.00
384.00	60.85
384.19	49.15
384.39	37.45
384.58	0.00
384.78	100.64
384.97	0.00
385.17	0.00
385.36	35.11
385.56	16.38
385.75	0.00
385.95	46.81
386.14	0.00
386.34	7.02
386.53	77.24
386.72	72.56
386.92	58.51
387.11	49.15
387.31	63.19
387.50	14.04
387.70	18.72
387.89	25.75
388.09	32.77
388.28	0.00
388.48	9.36
388.67	0.00
388.86	14.04
389.06	72.56
389.25	11.70
389.45	58.51
389.64	42.13
389.84	56.17
390.03	0.00
390.22	0.00
390.42	0.00
390.61	28.09
390.81	37.45
391.00	84.26
391.19	0.00
391.39	28.09
391.58	63.19
391.78	11.70
391.97	23.41
392.16	0.00
392.36	32.77
392.55	42.13
392.75	39.79
392.94	35.11
393.13	4.68
393.33	16.38
393.52	74.90
393.71	0.00
393.91	67.88
394.10	16.38
394.29	0.00
394.49	42.13
394.68	0.00
394.88	0.00
395.07	18.72
395.26	21.06
395.46	25.75
395.65	0.00
395.84	95.96
396.04	30.43
396.23	0.00
396.42	81.92
396.62	25.75
396.81	49.15
397.00	60.85
397.19	56.17
397.39	9.36
397.58	0.00
397.77	107.66
397.97	16.38
398.16	21.06
398.35	14.04
398.55	11.70
398.74	44.47
398.93	25.75
399.12	37.45
399.32	58.51
399.51	32.77
399.70	14.04
399.90	16.38
400.09	58.51
400.28	100.64
400.47	72.56
400.67	23.41
400.86	0.00
401.05	28.09
401.24	30.43
401.44	49.15
401.63	0.00
401.82	35.11
402.01	77.24
402.21	102.98
402.40	67.88
402.59	0.00
402.78	14.04
402.97	16.38
403.17	79.58
403.36	0.00
403.55	0.00
403.74	81.92
403.93	2.34
404.13	42.13
404.32	7.02
404.51	0.00
404.70	0.00
404.89	14.04
405.09	39.79
405.28	56.17
405.47	2.34
405.66	0.00
405.85	39.79
406.05	0.00
406.24	74.90
406.43	44.47
406.62	28.09
406.81	84.26
407.00	77.24
407.20	84.26
407.39	37.45
407.58	77.24
407.77	51.49
407.96	16.38
408.15	0.00
408.34	0.00
408.54	37.45
408.73	74.90
408.92	23.41
409.11	35.11
409.30	11.70
409.49	16.38
409.68	32.77
409.87	0.00
410.07	84.26
410.26	4.68
410.45	0.00
410.64	0.00
410.83	51.49
411.02	30.43
411.21	37.45
411.40	28.09
411.59	63.19
411.78	0.00
411.98	49.15
412.17	91.28
412.36	0.00
412.55	72.56
412.74	77.24
412.93	35.11
413.12	91.28
413.31	93.62
413.50	0.00
413.69	35.11
413.88	79.58
414.07	14.04
414.26	37.45
414.45	93.62
414.64	44.47
414.83	60.85
415.02	32.77
415.22	46.81
415.41	117.03
415.60	126.39
415.79	128.73
415.98	18.72
416.17	16.38
416.36	39.79
416.55	49.15
416.74	0.00
416.93	23.41
417.12	131.07
417.31	0.00
417.50	51.49
417.69	37.45
417.88	42.13
418.07	91.28
418.26	95.96
418.45	58.51
418.64	74.90
418.83	58.51
419.02	56.17
419.21	49.15
419.39	51.49
419.58	18.72
419.77	67.88
419.96	37.45
420.15	112.35
420.34	119.37
420.53	16.38
420.72	4.68
420.91	28.09
421.10	102.98
421.29	112.35
421.48	0.00
421.67	35.11
421.86	74.90
422.05	0.00
422.24	105.32
422.43	30.43
422.61	86.60
422.80	65.54
422.99	0.00
423.18	65.54
423.37	128.73
423.56	0.00
423.75	58.51
423.94	0.00
424.13	72.56
424.32	72.56
424.50	86.60
424.69	79.58
424.88	0.00
425.07	11.70
425.26	35.11
425.45	42.13
425.64	32.77
425.83	42.13
426.01	25.75
426.20	53.83
426.39	23.41
426.58	42.13
426.77	46.81
426.96	35.11
427.15	16.38
427.33	58.51
427.52	46.81
427.71	28.09
427.90	28.09
428.09	7.02
428.28	0.00
428.46	110.01
428.65	30.43
428.84	32.77
429.03	63.19
429.22	39.79
429.40	53.83
429.59	140.43
429.78	37.45
429.97	67.88
430.16	0.00
430.34	58.51
430.53	4.68
430.72	0.00
430.91	84.26
431.10	28.09
431.28	0.00
431.47	30.43
431.66	60.85
431.85	0.00
432.03	39.79
432.22	9.36
432.41	0.00
432.60	72.56
432.79	0.00
432.97	42.13
433.16	23.41
433.35	0.00
433.54	32.77
433.72	100.64
433.91	9.36
434.10	44.47
434.28	72.56
434.47	74.90
434.66	100.64
434.85	107.66
435.03	30.43
435.22	67.88
435.41	39.79
435.59	95.96
435.78	30.43
435.97	9.36
436.16	2.34
436.34	30.43
436.53	49.15
436.72	86.60
436.90	0.00
437.09	63.19
437.28	39.79
437.46	16.38
437.65	63.19
437.84	0.00
438.02	60.85
438.21	63.19
438.40	51.49
438.58	49.15
438.77	0.00
438.96	14.04
439.14	28.09
439.33	74.90
439.52	49.15
439.70	0.00
439.89	9.36
440.08	93.62
440.26	7.02
440.45	131.07
440.63	42.13
440.82	98.30
441.01	81.92
441.19	44.47
441.38	39.79
441.57	72.56
441.75	98.30
441.94	11.70
442.12	105.32
442.31	102.98
442.50	74.90
442.68	98.30
442.87	58.51
443.05	56.17
443.24	39.79
443.43	81.92
443.61	56.17
443.80	56.17
443.98	51.49
444.17	77.24
444.35	91.28
444.54	42.13
444.73	25.75
444.91	0.00
445.10	30.43
445.28	53.83
445.47	14.04
445.65	25.75
445.84	79.58
446.02	16.38
446.21	32.77
446.39	2.34
446.58	67.88
446.77	16.38
446.95	67.88
447.14	9.36
447.32	77.24
447.51	107.66
447.69	63.19
447.88	0.00
448.06	81.92
448.25	72.56
448.43	42.13
448.62	49.15
448.80	93.62
448.99	42.13
449.17	58.51
449.36	65.54
449.54	88.94
449.73	58.51
449.91	74.90
450.10	0.00
450.28	72.56
450.46	16.38
450.65	65.54
450.83	16.38
451.02	2.34
451.20	140.43
451.39	128.73
451.57	9.36
451.76	44.47
451.94	44.47
452.13	0.00
452.31	91.28
452.49	77.24
452.68	0.00
452.86	18.72
453.05	79.58
453.23	102.98
453.42	65.54
453.60	63.19
453.78	0.00
453.97	18.72
454.15	32.77
454.34	28.09
454.52	46.81
454.70	44.47
454.89	51.49
455.07	124.05
455.26	114.69
455.44	67.88
455.62	124.05
455.81	119.37
455.99	60.85
456.17	98.30
456.36	65.54
456.54	60.85
456.73	35.11
456.91	0.00
457.09	30.43
457.28	42.13
457.46	53.83
457.64	14.04
457.83	0.00
458.01	56.17
458.19	79.58
458.38	9.36
458.56	98.30
458.74	16.38
458.93	74.90
459.11	21.06
459.29	37.45
459.48	100.64
459.66	131.07
459.84	32.77
460.03	70.22
460.21	95.96
460.39	44.47
460.57	46.81
460.76	35.11
460.94	88.94
461.12	91.28
461.31	84.26
461.49	46.81
461.67	95.96
461.85	28.09
462.04	14.04
462.22	131.07
462.40	23.41
462.59	128.73
462.77	49.15
462.95	91.28
463.13	46.81
463.32	114.69
463.50	53.83
463.68	46.81
463.86	46.81
464.05	11.70
464.23	88.94
464.41	0.00
464.59	35.11
464.78	44.47
464.96	53.83
465.14	11.70
465.32	128.73
465.50	21.06
465.69	91.28
465.87	46.81
466.05	2.34
466.23	9.36
466.41	56.17
466.60	110.01
466.78	72.56
466.96	18.72
467.14	112.35
467.32	37.45
467.51	25.75
467.69	51.49
467.87	77.24
468.05	30.43
468.23	11.70
468.41	58.51
468.60	0.00
468.78	0.00
468.96	46.81
469.14	53.83
469.32	42.13
469.50	60.85
469.69	79.58
469.87	65.54
470.05	126.39
470.23	35.11
470.41	72.56
470.59	77.24
470.77	91.28
470.95	9.36
471.14	65.54
471.32	88.94
471.50	79.58
471.68	39.79
471.86	0.00
472.04	67.88
472.22	63.19
472.40	32.77
472.58	86.60
472.77	65.54
472.95	70.22
473.13	100.64
473.31	107.66
473.49	84.26
473.67	70.22
473.85	65.54
474.03	56.17
474.21	72.56
474.39	0.00
474.57	37.45
474.75	72.56
474.93	86.60
475.12	9.36
475.30	46.81
475.48	35.11
475.66	32.77
475.84	0.00
476.02	0.00
476.20	16.38
476.38	51.49
476.56	114.69
476.74	86.60
476.92	60.85
477.10	112.35
477.28	9.36
477.46	74.90
477.64	88.94
477.82	95.96
478.00	49.15
478.18	65.54
478.36	60.85
478.54	63.19
478.72	11.70
478.90	63.19
479.08	53.83
479.26	37.45
479.44	18.72
479.62	74.90
479.80	95.96
479.98	93.62
480.16	100.64
480.34	93.62
480.52	44.47
480.70	84.26
480.88	93.62
481.06	18.72
481.24	30.43
481.41	131.07
481.59	49.15
481.77	56.17
481.95	58.51
482.13	0.00
482.31	51.49
482.49	42.13
482.67	49.15
482.85	107.66
483.03	95.96
483.21	114.69
483.39	112.35
483.57	0.00
483.74	112.35
483.92	42.13
484.10	79.58
484.28	98.30
484.46	126.39
484.64	84.26
484.82	30.43
485.00	16.38
485.18	105.32
485.35	72.56
485.53	86.60
485.71	67.88
485.89	42.13
486.07	0.00
486.25	7.02
486.43	35.11
486.61	65.54
486.78	74.90
486.96	16.38
487.14	65.54
487.32	53.83
487.50	35.11
487.68	79.58
487.85	65.54
488.03	102.98
488.21	70.22
488.39	11.70
488.57	60.85
488.75	98.30
488.92	145.11
489.10	100.64
489.28	77.24
489.46	105.32
489.64	39.79
489.81	56.17
489.99	72.56
490.17	84.26
490.35	88.94
490.53	95.96
490.70	67.88
490.88	63.19
491.06	49.15
491.24	63.19
491.41	28.09
491.59	112.35
491.77	102.98
491.95	56.17
492.13	72.56
492.30	42.13
492.48	74.90
492.66	93.62
492.84	100.64
493.01	37.45
493.19	56.17
493.37	46.81
493.54	98.30
493.72	77.24
493.90	53.83
494.08	51.49
494.25	88.94
494.43	46.81
494.61	107.66
494.79	98.30
494.96	93.62
495.14	65.54
495.32	65.54
495.49	98.30
495.67	100.64
495.85	65.54
496.02	105.32
496.20	119.37
496.38	21.06
496.55	63.19
496.73	53.83
496.91	9.36
497.09	95.96
497.26	84.26
497.44	56.17
497.62	135.75
497.79	119.37
497.97	63.19
498.14	51.49
498.32	39.79
498.50	77.24
498.67	63.19
498.85	86.60
499.03	4.68
499.20	93.62
499.38	42.13
499.56	77.24
499.73	84.26
499.91	124.05
500.08	138.09
500.26	18.72
500.44	121.71
500.61	77.24
500.79	98.30
500.97	88.94
501.14	95.96
501.32	11.70
501.49	77.24
501.67	77.24
501.84	35.11
502.02	124.05
502.20	77.24
502.37	77.24
502.55	107.66
502.72	95.96
502.90	77.24
503.07	105.32
503.25	37.45
503.43	95.96
503.60	91.28
503.78	102.98
503.95	9.36
504.13	46.81
504.30	51.49
504.48	56.17
504.65	72.56
504.83	110.01
505.01	51.49
505.18	79.58
505.36	77.24
505.53	100.64
505.71	56.17
505.88	112.35
506.06	84.26
506.23	124.05
506.41	72.56
506.58	60.85
506.76	81.92
506.93	81.92
507.11	74.90
507.28	93.62
507.46	98.30
507.63	102.98
507.81	180.22
507.98	63.19
508.16	98.30
508.33	184.90
508.50	107.66
508.68	91.28
508.85	14.04
509.03	72.56
509.20	70.22
509.38	49.15
509.55	86.60
509.73	49.15
509.90	18.72
510.08	51.49
510.25	46.81
510.42	70.22
510.60	60.85
510.77	117.03
510.95	74.90
511.12	58.51
511.30	63.19
511.47	44.47
511.64	98.30
511.82	60.85
511.99	70.22
512.17	142.77
512.34	35.11
512.51	112.35
512.69	32.77
512.86	100.64
513.04	105.32
513.21	30.43
513.38	86.60
513.56	58.51
513.73	0.00
513.90	18.72
514.08	4.68
514.25	58.51
514.43	0.00
514.60	37.45
514.77	98.30
514.95	100.64
515.12	110.01
515.29	35.11
515.47	35.11
515.64	63.19
515.81	70.22
515.99	128.73
516.16	53.83
516.33	9.36
516.51	95.96
516.68	74.90
516.85	60.85
517.03	74.90
517.20	74.90
517.37	79.58
517.54	91.28
517.72	35.11
517.89	91.28
518.06	65.54
518.24	72.56
518.41	4.68
518.58	88.94
518.75	28.09
518.93	91.28
519.10	44.47
519.27	9.36
519.45	63.19
519.62	166.18
519.79	72.56
519.96	86.60
520.14	88.94
520.31	53.83
520.48	131.07
520.65	79.58
520.83	58.51
521.00	60.85
521.17	25.75
521.34	30.43
521.52	112.35
521.69	32.77
521.86	102.98
522.03	51.49
522.20	112.35
522.38	37.45
522.55	107.66
522.72	95.96
522.89	152.13
523.07	86.60
523.24	42.13
523.41	112.35
523.58	98.30
523.75	65.54
523.92	49.15
524.10	114.69
524.27	100.64
524.44	74.90
524.61	49.15
524.78	95.96
524.96	51.49
525.13	140.43
525.30	102.98
525.47	152.13
525.64	37.45
525.81	46.81
525.98	58.51
526.16	100.64
526.33	126.39
526.50	42.13
526.67	37.45
526.84	124.05
527.01	56.17
527.18	152.13
527.36	51.49
527.53	65.54
527.70	79.58
527.87	140.43
528.04	53.83
528.21	51.49
528.38	25.75
528.55	140.43
528.72	84.26
528.89	161.50
529.07	74.90
529.24	81.92
529.41	67.88
529.58	72.56
529.75	126.39
529.92	133.41
530.09	74.90
530.26	93.62
530.43	42.13
530.60	84.26
530.77	63.19
530.94	156.82
531.11	0.00
531.28	42.13
531.46	56.17
531.63	152.13
531.80	70.22
531.97	205.97
532.14	51.49
532.31	37.45
532.48	65.54
532.65	42.13
532.82	42.13
532.99	105.32
533.16	142.77
533.33	63.19
533.50	91.28
533.67	135.75
533.84	145.11
534.01	112.35
534.18	95.96
534.35	60.85
534.52	37.45
534.69	63.19
534.86	86.60
535.03	159.16
535.20	93.62
535.37	126.39
535.54	77.24
535.71	114.69
535.88	67.88
536.05	0.00
536.22	79.58
536.38	74.90
536.55	84.26
536.72	88.94
536.89	84.26
537.06	149.79
537.23	145.11
537.40	32.77
537.57	51.49
537.74	49.15
537.91	112.35
538.08	53.83
538.25	135.75
538.42	128.73
538.59	35.11
538.75	4.68
538.92	65.54
539.09	114.69
539.26	91.28
539.43	46.81
539.60	107.66
539.77	98.30
539.94	86.60
540.11	98.30
540.28	42.13
540.44	128.73
540.61	18.72
540.78	77.24
540.95	126.39
541.12	65.54
541.29	124.05
541.46	25.75
541.62	88.94
541.79	79.58
541.96	46.81
542.13	210.65
542.30	114.69
542.47	60.85
542.63	65.54
542.80	11.70
542.97	60.85
543.14	49.15
543.31	86.60
543.48	49.15
543.64	39.79
543.81	91.28
543.98	117.03
544.15	56.17
544.32	119.37
544.48	135.75
544.65	30.43
544.82	70.22
544.99	114.69
545.16	84.26
545.32	128.73
545.49	74.90
545.66	63.19
545.83	63.19
546.00	135.75
546.16	77.24
546.33	65.54
546.50	100.64
546.67	135.75
546.83	102.98
547.00	126.39
547.17	117.03
547.34	107.66
547.50	105.32
547.67	67.88
547.84	70.22
548.00	112.35
548.17	95.96
548.34	86.60
548.51	95.96
548.67	81.92
548.84	93.62
549.01	93.62
549.18	79.58
549.34	67.88
549.51	79.58
549.68	102.98
549.84	173.20
550.01	25.75
550.18	58.51
550.34	42.13
550.51	121.71
550.68	53.83
550.84	51.49
551.01	86.60
551.18	56.17
551.34	56.17
551.51	145.11
551.68	107.66
551.84	44.47
552.01	65.54
552.18	77.24
552.34	102.98
552.51	74.90
552.68	28.09
552.84	105.32
553.01	95.96
553.18	114.69
553.34	56.17
553.51	74.90
553.67	138.09
553.84	159.16
554.01	58.51
554.17	93.62
554.34	65.54
554.51	70.22
554.67	65.54
554.84	91.28
555.00	30.43
555.17	53.83
555.33	128.73
555.50	95.96
555.67	107.66
555.83	67.88
556.00	107.66
556.16	65.54
556.33	88.94
556.50	63.19
556.66	46.81
556.83	18.72
556.99	25.75
557.16	81.92
557.32	110.01
557.49	65.54
557.65	88.94
557.82	67.88
557.98	79.58
558.15	67.88
558.32	107.66
558.48	95.96
558.65	74.90
558.81	67.88
558.98	39.79
559.14	81.92
559.31	72.56
559.47	35.11
559.64	9.36
559.80	46.81
559.97	91.28
560.13	9.36
560.30	191.92
560.46	79.58
560.63	91.28
560.79	131.07
560.96	53.83
561.12	77.24
561.29	93.62
561.45	128.73
561.61	0.00
561.78	77.24
561.94	67.88
562.11	37.45
562.27	93.62
562.44	21.06
562.60	11.70
562.77	81.92
562.93	77.24
563.10	72.56
563.26	84.26
563.42	93.62
563.59	102.98
563.75	35.11
563.92	4.68
564.08	91.28
564.24	42.13
564.41	110.01
564.57	74.90
564.74	74.90
564.90	145.11
565.07	124.05
565.23	67.88
565.39	44.47
565.56	131.07
565.72	110.01
565.88	28.09
566.05	67.88
566.21	56.17
566.38	18.72
566.54	77.24
566.70	145.11
566.87	79.58
567.03	9.36
567.19	131.07
567.36	154.48
567.52	84.26
567.68	67.88
567.85	70.22
568.01	77.24
568.17	95.96
568.34	30.43
568.50	95.96
568.66	166.18
568.83	70.22
568.99	35.11
569.15	60.85
569.32	39.79
569.48	0.00
569.64	119.37
569.81	39.79
569.97	95.96
570.13	114.69
570.30	126.39
570.46	131.07
570.62	88.94
570.78	93.62
570.95	14.04
571.11	7.02
571.27	100.64
571.43	154.48
571.60	46.81
571.76	84.26
571.92	114.69
572.09	147.45
572.25	138.09
572.41	149.79
572.57	39.79
572.74	23.41
572.90	105.32
573.06	46.81
573.22	81.92
573.38	74.90
573.55	105.32
573.71	98.30
573.87	77.24
574.03	147.45
574.20	102.98
574.36	39.79
574.52	105.32
574.68	72.56
574.84	72.56
575.01	53.83
575.17	70.22
575.33	21.06
575.49	7.02
575.65	9.36
575.82	65.54
575.98	91.28
576.14	49.15
576.30	91.28
576.46	77.24
576.62	88.94
576.79	70.22
576.95	53.83
577.11	65.54
577.27	60.85
577.43	121.71
577.59	105.32
577.75	39.79
577.92	93.62
578.08	46.81
578.24	53.83
578.40	81.92
578.56	74.90
578.72	105.32
578.88	93.62
579.04	100.64
579.21	72.56
579.37	98.30
579.53	121.71
579.69	95.96
579.85	74.90
580.01	39.79
580.17	74.90
580.33	65.54
580.49	18.72
580.65	86.60
580.82	98.30
580.98	100.64
581.14	46.81
581.30	84.26
581.46	63.19
581.62	0.00
581.78	100.64
581.94	81.92
582.10	25.75
582.26	42.13
582.42	102.98
582.58	70.22
582.74	102.98
582.90	63.19
583.06	67.88
583.22	102.98
583.38	86.60
583.54	91.28
583.70	117.03
583.86	56.17
584.02	0.00
584.18	175.54
584.34	86.60
584.50	95.96
584.66	77.24
584.82	86.60
584.98	53.83
585.14	63.19
585.30	100.64
585.46	114.69
585.62	102.98
585.78	135.75
585.94	77.24
586.10	32.77
586.26	79.58
586.42	74.90
586.58	4.68
586.74	65.54
586.90	60.85
587.06	0.00
587.22	91.28
587.38	65.54
587.54	79.58
587.70	44.47
587.86	67.88
588.02	46.81
588.18	67.88
588.34	91.28
588.49	49.15
588.65	161.50
588.81	58.51
588.97	84.26
589.13	46.81
589.29	88.94
589.45	110.01
589.61	42.13
589.77	70.22
589.93	102.98
590.08	56.17
590.24	74.90
590.40	81.92
590.56	107.66
590.72	105.32
590.88	91.28
591.04	74.90
591.20	77.24
591.35	46.81
591.51	35.11
591.67	42.13
591.83	49.15
591.99	51.49
592.15	37.45
592.31	93.62
592.46	112.35
592.62	79.58
592.78	49.15
592.94	51.49
593.10	70.22
593.26	88.94
593.41	81.92
593.57	51.49
593.73	32.77
593.89	23.41
594.05	56.17
594.20	138.09
594.36	46.81
594.52	72.56
594.68	49.15
594.84	81.92
594.99	77.24
595.15	60.85
595.31	91.28
595.47	72.56
595.62	74.90
595.78	37.45
595.94	119.37
596.10	81.92
596.25	63.19
596.41	88.94
596.57	23.41
596.73	110.01
596.88	131.07
597.04	93.62
597.20	100.64
597.36	81.92
597.51	39.79
597.67	23.41
597.83	168.52
597.99	79.58
598.14	18.72
598.30	37.45
598.46	98.30
598.61	131.07
598.77	35.11
598.93	149.79
599.09	65.54
599.24	145.11
599.40	117.03
599.56	42.13
599.71	88.94
599.87	18.72
600.03	86.60
600.18	88.94
600.34	93.62
600.50	100.64
600.65	56.17
600.81	37.45
600.97	51.49
601.12	70.22
601.28	63.19
601.44	79.58
601.59	4.68
601.75	42.13
601.91	81.92
602.06	42.13
602.22	124.05
602.37	28.09
602.53	105.32
602.69	25.75
602.84	39.79
603.00	44.47
603.16	4.68
603.31	107.66
603.47	0.00
603.62	65.54
603.78	58.51
603.94	105.32
604.09	25.75
604.25	53.83
604.40	53.83
604.56	60.85
604.71	0.00
604.87	114.69
605.03	49.15
605.18	166.18
605.34	14.04
605.49	95.96
605.65	124.05
605.80	98.30
605.96	39.79
606.12	84.26
606.27	77.24
606.43	63.19
606.58	44.47
606.74	35.11
606.89	84.26
607.05	21.06
607.20	84.26
607.36	25.75
607.51	91.28
607.67	46.81
607.82	194.26
607.98	84.26
608.13	117.03
608.29	30.43
608.44	100.64
608.60	44.47
608.75	105.32
608.91	145.11
609.06	70.22
609.22	56.17
609.37	7.02
609.53	88.94
609.68	46.81
609.84	65.54
609.99	86.60
610.15	133.41
610.30	63.19
610.46	37.45
610.61	126.39
610.76	74.90
610.92	63.19
611.07	25.75
611.23	35.11
611.38	112.35
611.54	126.39
611.69	39.79
611.84	4.68
612.00	56.17
612.15	112.35
612.31	49.15
612.46	39.79
612.62	49.15
612.77	58.51
612.92	51.49
613.08	51.49
613.23	56.17
613.39	74.90
613.54	67.88
613.69	88.94
613.85	21.06
614.00	63.19
614.15	58.51
614.31	49.15
614.46	60.85
614.62	14.04
614.77	72.56
614.92	114.69
615.08	51.49
615.23	56.17
615.38	46.81
615.54	53.83
615.69	60.85
615.84	28.09
616.00	0.00
616.15	79.58
616.30	0.00
616.46	91.28
616.61	37.45
616.76	44.47
616.92	81.92
617.07	93.62
617.22	102.98
617.37	23.41
617.53	93.62
617.68	88.94
617.83	51.49
617.99	84.26
618.14	53.83
618.29	63.19
618.45	117.03
618.60	77.24
618.75	53.83
618.90	56.17
619.06	121.71
619.21	60.85
619.36	72.56
619.51	149.79
619.67	72.56
619.82	46.81
619.97	119.37
620.12	30.43
620.28	0.00
620.43	63.19
620.58	114.69
620.73	56.17
620.89	77.24
621.04	37.45
621.19	133.41
621.34	117.03
621.49	46.81
621.65	114.69
621.80	70.22
621.95	88.94
622.10	133.41
622.25	7.02
622.41	25.75
622.56	117.03
622.71	56.17
622.86	70.22
623.01	58.51
623.16	112.35
623.32	11.70
623.47	84.26
623.62	88.94
623.77	114.69
623.92	23.41
624.07	0.00
624.23	74.90
624.38	56.17
624.53	16.38
624.68	112.35
624.83	70.22
624.98	53.83
625.13	39.79
625.29	65.54
625.44	0.00
625.59	84.26
625.74	14.04
625.89	91.28
626.04	77.24
626.19	70.22
626.34	28.09
626.49	60.85
626.65	0.00
626.80	39.79
626.95	79.58
627.10	65.54
627.25	114.69
627.40	72.56
627.55	114.69
627.70	44.47
627.85	107.66
628.00	49.15
628.15	98.30
628.30	161.50
628.45	105.32
628.60	119.37
628.76	88.94
628.91	70.22
629.06	93.62
629.21	51.49
629.36	0.00
629.51	49.15
629.66	65.54
629.81	53.83
629.96	84.26
630.11	65.54
630.26	84.26
630.41	0.00
630.56	107.66
630.71	72.56
630.86	145.11
631.01	42.13
631.16	39.79
631.31	88.94
631.46	37.45
631.61	77.24
631.76	32.77
631.91	107.66
632.06	51.49
632.21	7.02
632.36	51.49
632.51	93.62
632.66	79.58
632.81	14.04
632.96	49.15
633.10	110.01
633.25	16.38
633.40	23.41
633.55	9.36
633.70	63.19
633.85	84.26
634.00	44.47
634.15	60.85
634.30	58.51
634.45	105.32
634.60	95.96
634.75	65.54
634.90	67.88
635.05	91.28
635.19	70.22
635.34	56.17
635.49	37.45
635.64	56.17
635.79	81.92
635.94	37.45
636.09	65.54
636.24	110.01
636.39	53.83
636.53	7.02
636.68	39.79
636.83	23.41
636.98	67.88
637.13	30.43
637.28	44.47
637.43	56.17
637.57	46.81
637.72	100.64
637.87	39.79
638.02	56.17
638.17	91.28
638.32	0.00
638.46	46.81
638.61	56.17
638.76	11.70
638.91	53.83
639.06	60.85
639.20	100.64
639.35	58.51
639.50	0.00
639.65	95.96
639.80	32.77
639.94	70.22
640.09	81.92
640.24	44.47
640.39	72.56
640.54	102.98
640.68	81.92
640.83	84.26
640.98	84.26
641.13	58.51
641.27	0.00
641.42	91.28
641.57	70.22
641.72	32.77
641.86	14.04
642.01	53.83
642.16	107.66
642.31	124.05
642.45	35.11
642.60	91.28
642.75	46.81
642.90	56.17
643.04	0.00
643.19	112.35
643.34	88.94
643.48	0.00
643.63	121.71
643.78	58.51
643.93	58.51
644.07	51.49
644.22	81.92
644.37	63.19
644.51	65.54
644.66	88.94
644.81	65.54
644.95	0.00
645.10	51.49
645.25	88.94
645.39	63.19
645.54	105.32
645.69	95.96
645.83	42.13
645.98	58.51
646.13	70.22
646.27	30.43
646.42	30.43
646.57	51.49
646.71	67.88
646.86	128.73
647.00	56.17
647.15	63.19
647.30	2.34
647.44	124.05
647.59	124.05
647.74	37.45
647.88	67.88
648.03	70.22
648.17	114.69
648.32	79.58
648.47	37.45
648.61	95.96
648.76	56.17
648.90	0.00
649.05	56.17
649.20	84.26
649.34	77.24
649.49	60.85
649.63	72.56
649.78	32.77
649.92	56.17
650.07	60.85
650.21	44.47
650.36	110.01
650.51	117.03
650.65	107.66
650.80	100.64
650.94	44.47
651.09	51.49
651.23	77.24
651.38	93.62
651.52	72.56
651.67	7.02
651.81	4.68
651.96	25.75
652.10	63.19
652.25	112.35
652.39	16.38
652.54	23.41
652.68	147.45
652.83	65.54
652.97	145.11
653.12	60.85
653.26	56.17
653.41	117.03
653.55	86.60
653.70	105.32
653.84	0.00
653.99	28.09
654.13	84.26
654.27	60.85
654.42	51.49
654.56	51.49
654.71	102.98
654.85	65.54
655.00	9.36
655.14	65.54
655.29	14.04
655.43	21.06
655.57	35.11
655.72	98.30
655.86	0.00
656.01	58.51
656.15	11.70
656.30	51.49
656.44	7.02
656.58	98.30
656.73	100.64
656.87	0.00
657.01	37.45
657.16	7.02
657.30	0.00
657.45	60.85
657.59	56.17
657.73	44.47
657.88	0.00
658.02	25.75
658.16	102.98
658.31	7.02
658.45	25.75
658.60	39.79
658.74	18.72
658.88	74.90
659.03	72.56
659.17	84.26
659.31	28.09
659.46	60.85
659.60	156.82
659.74	74.90
659.89	16.38
660.03	16.38
660.17	65.54
660.32	14.04
660.46	21.06
660.60	93.62
660.74	56.17
660.89	112.35
661.03	9.36
661.17	14.04
661.32	81.92
661.46	16.38
661.60	93.62
661.74	46.81
661.89	2.34
662.03	53.83
662.17	49.15
662.31	65.54
662.46	51.49
662.60	37.45
662.74	11.70
662.88	42.13
663.03	114.69
663.17	79.58
663.31	65.54
663.45	74.90
663.60	28.09
663.74	74.90
663.88	11.70
664.02	77.24
664.17	112.35
664.31	28.09
664.45	58.51
664.59	100.64
664.73	53.83
664.88	16.38
665.02	16.38
665.16	65.54
665.30	112.35
665.44	42.13
665.59	11.70
665.73	91.28
665.87	18.72
666.01	102.98
666.15	67.88
666.29	51.49
666.44	67.88
666.58	91.28
666.72	93.62
666.86	95.96
667.00	7.02
667.14	44.47
667.28	63.19
667.43	53.83
667.57	46.81
667.71	105.32
667.85	42.13
667.99	72.56
668.13	67.88
668.27	51.49
668.41	56.17
668.56	7.02
668.70	0.00
668.84	35.11
668.98	77.24
669.12	63.19
669.26	0.00
669.40	63.19
669.54	35.11
669.68	42.13
669.82	53.83
669.96	117.03
670.10	23.41
670.25	35.11
670.39	84.26
670.53	4.68
670.67	56.17
670.81	56.17
670.95	9.36
671.09	14.04
671.23	60.85
671.37	0.00
671.51	135.75
671.65	58.51
671.79	42.13
671.93	93.62
672.07	91.28
672.21	91.28
672.35	49.15
672.49	14.04
672.63	37.45
672.77	77.24
672.91	63.19
673.05	67.88
673.19	63.19
673.33	14.04
673.47	77.24
673.61	88.94
673.75	23.41
673.89	0.00
674.03	93.62
674.17	110.01
674.31	77.24
674.45	21.06
674.59	0.00
674.73	14.04
674.87	46.81
675.01	77.24
675.15	93.62
675.29	81.92
675.43	49.15
675.56	56.17
675.70	56.17
675.84	135.75
675.98	74.90
676.12	0.00
676.26	30.43
676.40	58.51
676.54	58.51
676.68	86.60
676.82	49.15
676.96	70.22
677.10	63.19
677.23	65.54
677.37	42.13
677.51	0.00
677.65	37.45
677.79	88.94
677.93	2.34
678.07	77.24
678.21	0.00
678.34	145.11
678.48	88.94
678.62	25.75
678.76	56.17
678.90	18.72
679.04	0.00
679.18	63.19
679.31	0.00
679.45	0.00
679.59	30.43
679.73	23.41
679.87	93.62
680.00	0.00
680.14	23.41
680.28	21.06
680.42	35.11
680.56	42.13
680.70	86.60
680.83	95.96
680.97	105.32
681.11	77.24
681.25	72.56
681.39	77.24
681.52	93.62
681.66	152.13
681.80	114.69
681.94	28.09
682.07	51.49
682.21	0.00
682.35	88.94
682.49	86.60
682.62	91.28
682.76	74.90
682.90	81.92
683.04	37.45
683.17	9.36
683.31	21.06
683.45	25.75
683.59	51.49
683.72	46.81
683.86	30.43
684.00	0.00
684.13	0.00
684.27	65.54
684.41	23.41
684.55	56.17
684.68	112.35
684.82	0.00
684.96	0.00
685.09	65.54
685.23	0.00
685.37	56.17
685.50	21.06
685.64	35.11
685.78	84.26
685.91	63.19
686.05	46.81
686.19	63.19
686.32	21.06
686.46	65.54
686.60	49.15
686.73	86.60
686.87	21.06
687.01	46.81
687.14	49.15
687.28	28.09
687.42	46.81
687.55	35.11
687.69	72.56
687.82	0.00
687.96	4.68
688.10	9.36
688.23	30.43
688.37	58.51
688.50	53.83
688.64	0.00
688.78	67.88
688.91	0.00
689.05	25.75
689.18	42.13
689.32	44.47
689.46	74.90
689.59	30.43
689.73	9.36
689.86	72.56
690.00	39.79
690.13	77.24
690.27	4.68
690.41	0.00
690.54	74.90
690.68	0.00
690.81	44.47
690.95	56.17
691.08	9.36
691.22	0.00
691.35	91.28
691.49	35.11
691.62	18.72
691.76	39.79
691.89	74.90
692.03	84.26
692.16	0.00
692.30	0.00
692.43	60.85
692.57	28.09
692.70	9.36
692.84	0.00
692.97	0.00
693.11	77.24
693.24	53.83
693.38	46.81
693.51	35.11
693.65	14.04
693.78	28.09
693.92	84.26
694.05	14.04
694.19	23.41
694.32	70.22
694.45	39.79
694.59	9.36
694.72	0.00
694.86	63.19
694.99	35.11
695.13	60.85
695.26	67.88
695.39	51.49
695.53	46.81
695.66	107.66
695.80	58.51
695.93	23.41
696.07	44.47
696.20	53.83
696.33	63.19
696.47	18.72
696.60	95.96
696.73	0.00
696.87	93.62
697.00	56.17
697.14	18.72
697.27	18.72
697.40	60.85
697.54	63.19
697.67	32.77
697.80	53.83
697.94	39.79
698.07	60.85
698.21	102.98
698.34	0.00
698.47	86.60
698.61	0.00
698.74	18.72
698.87	37.45
699.01	30.43
699.14	7.02
699.27	25.75
699.40	95.96
699.54	53.83
699.67	51.49
699.80	95.96
699.94	72.56
700.07	30.43
700.20	102.98
700.34	9.36
700.47	60.85
700.60	51.49
700.73	119.37
700.87	58.51
701.00	18.72
701.13	0.00
701.26	53.83
701.40	2.34
701.53	74.90
701.66	93.62
701.79	0.00
701.93	74.90
702.06	58.51
702.19	16.38
702.32	0.00
702.46	25.75
702.59	37.45
702.72	39.79
702.85	23.41
702.99	16.38
703.12	79.58
703.25	11.70
703.38	18.72
703.51	60.85
703.65	11.70
703.78	0.00
703.91	0.00
704.04	11.70
704.17	51.49
704.31	0.00
704.44	16.38
704.57	0.00
704.70	25.75
704.83	18.72
704.96	16.38
705.10	16.38
705.23	0.00
>>>>>End Processed Spectral Data<<<<<
