SpectraSuite Data File
++++++++++++++++++++++++++++++++++++
Date: Fri Oct 04 12:13:27 GMT-05:00 2013
User: price-jones
Dark Spectrum Present: No
Reference Spectrum Present: No
Number of Sampled Component Spectra: 1
Spectrometers: USB2+H05261
Integration Time (usec): 10000 (USB2+H05261)
Spectra Averaged: 1 (USB2+H05261)
Boxcar Smoothing: 0 (USB2+H05261)
Correct for Electrical Dark: No (USB2+H05261)
Strobe/Lamp Enabled: No (USB2+H05261)
Correct for Detector Non-linearity: No (USB2+H05261)
Correct for Stray Light: No (USB2+H05261)
Number of Pixels in Processed Spectrum: 2048
>>>>>Begin Processed Spectral Data<<<<<
365.73	9.36
365.92	9.36
366.12	9.36
366.32	0.00
366.52	0.00
366.72	0.00
366.91	0.00
367.11	0.00
367.31	0.00
367.51	0.00
367.70	0.00
367.90	0.00
368.10	0.00
368.30	0.00
368.49	0.00
368.69	0.00
368.89	0.00
369.09	0.00
369.28	0.00
369.48	0.00
369.68	0.00
369.87	0.00
370.07	0.00
370.27	0.00
370.47	0.00
370.66	0.00
370.86	0.00
371.06	0.00
371.25	2.34
371.45	0.00
371.65	0.00
371.84	14.04
372.04	23.41
372.24	0.00
372.44	0.00
372.63	0.00
372.83	0.00
373.03	70.22
373.22	67.88
373.42	0.00
373.62	63.19
373.81	93.62
374.01	37.45
374.21	35.11
374.40	0.00
374.60	4.68
374.79	0.00
374.99	88.94
375.19	0.00
375.38	56.17
375.58	60.85
375.78	37.45
375.97	42.13
376.17	63.19
376.37	53.83
376.56	0.00
376.76	25.75
376.95	21.06
377.15	0.00
377.35	84.26
377.54	0.00
377.74	39.79
377.93	25.75
378.13	0.00
378.33	23.41
378.52	0.00
378.72	0.00
378.91	35.11
379.11	11.70
379.31	2.34
379.50	2.34
379.70	25.75
379.89	23.41
380.09	42.13
380.28	60.85
380.48	16.38
380.68	0.00
380.87	11.70
381.07	25.75
381.26	32.77
381.46	49.15
381.65	28.09
381.85	16.38
382.04	32.77
382.24	2.34
382.43	30.43
382.63	86.60
382.83	37.45
383.02	42.13
383.22	53.83
383.41	0.00
383.61	0.00
383.80	117.03
384.00	35.11
384.19	21.06
384.39	0.00
384.58	0.00
384.78	63.19
384.97	53.83
385.17	63.19
385.36	39.79
385.56	16.38
385.75	0.00
385.95	14.04
386.14	77.24
386.34	58.51
386.53	0.00
386.72	7.02
386.92	0.00
387.11	0.00
387.31	44.47
387.50	7.02
387.70	2.34
387.89	0.00
388.09	49.15
388.28	4.68
388.48	0.00
388.67	58.51
388.86	63.19
389.06	16.38
389.25	51.49
389.45	30.43
389.64	18.72
389.84	0.00
390.03	32.77
390.22	0.00
390.42	0.00
390.61	0.00
390.81	65.54
391.00	0.00
391.19	4.68
391.39	0.00
391.58	4.68
391.78	18.72
391.97	77.24
392.16	0.00
392.36	2.34
392.55	46.81
392.75	51.49
392.94	16.38
393.13	142.77
393.33	30.43
393.52	0.00
393.71	32.77
393.91	25.75
394.10	23.41
394.29	67.88
394.49	67.88
394.68	16.38
394.88	46.81
395.07	74.90
395.26	46.81
395.46	21.06
395.65	21.06
395.84	79.58
396.04	32.77
396.23	11.70
396.42	79.58
396.62	56.17
396.81	39.79
397.00	0.00
397.19	18.72
397.39	0.00
397.58	11.70
397.77	0.00
397.97	44.47
398.16	0.00
398.35	39.79
398.55	0.00
398.74	53.83
398.93	51.49
399.12	84.26
399.32	0.00
399.51	0.00
399.70	44.47
399.90	46.81
400.09	16.38
400.28	0.00
400.47	51.49
400.67	18.72
400.86	0.00
401.05	51.49
401.24	74.90
401.44	32.77
401.63	37.45
401.82	100.64
402.01	46.81
402.21	7.02
402.40	11.70
402.59	51.49
402.78	39.79
402.97	0.00
403.17	9.36
403.36	18.72
403.55	0.00
403.74	0.00
403.93	7.02
404.13	44.47
404.32	0.00
404.51	44.47
404.70	0.00
404.89	72.56
405.09	46.81
405.28	4.68
405.47	7.02
405.66	4.68
405.85	28.09
406.05	28.09
406.24	11.70
406.43	9.36
406.62	0.00
406.81	49.15
407.00	0.00
407.20	7.02
407.39	51.49
407.58	60.85
407.77	0.00
407.96	32.77
408.15	4.68
408.34	100.64
408.54	14.04
408.73	44.47
408.92	72.56
409.11	16.38
409.30	4.68
409.49	4.68
409.68	81.92
409.87	0.00
410.07	21.06
410.26	0.00
410.45	2.34
410.64	28.09
410.83	63.19
411.02	0.00
411.21	28.09
411.40	16.38
411.59	42.13
411.78	0.00
411.98	46.81
412.17	0.00
412.36	51.49
412.55	32.77
412.74	18.72
412.93	105.32
413.12	42.13
413.31	4.68
413.50	4.68
413.69	23.41
413.88	18.72
414.07	7.02
414.26	4.68
414.45	0.00
414.64	42.13
414.83	25.75
415.02	23.41
415.22	21.06
415.41	0.00
415.60	0.00
415.79	14.04
415.98	0.00
416.17	30.43
416.36	0.00
416.55	0.00
416.74	56.17
416.93	67.88
417.12	0.00
417.31	23.41
417.50	121.71
417.69	93.62
417.88	35.11
418.07	7.02
418.26	44.47
418.45	23.41
418.64	56.17
418.83	0.00
419.02	30.43
419.21	7.02
419.39	32.77
419.58	0.00
419.77	49.15
419.96	0.00
420.15	30.43
420.34	44.47
420.53	28.09
420.72	58.51
420.91	79.58
421.10	0.00
421.29	0.00
421.48	42.13
421.67	7.02
421.86	67.88
422.05	60.85
422.24	16.38
422.43	0.00
422.61	28.09
422.80	44.47
422.99	25.75
423.18	0.00
423.37	0.00
423.56	32.77
423.75	18.72
423.94	25.75
424.13	18.72
424.32	0.00
424.50	63.19
424.69	42.13
424.88	39.79
425.07	72.56
425.26	9.36
425.45	63.19
425.64	56.17
425.83	70.22
426.01	14.04
426.20	0.00
426.39	16.38
426.58	39.79
426.77	0.00
426.96	16.38
427.15	74.90
427.33	0.00
427.52	51.49
427.71	9.36
427.90	0.00
428.09	56.17
428.28	44.47
428.46	11.70
428.65	0.00
428.84	0.00
429.03	30.43
429.22	88.94
429.40	35.11
429.59	0.00
429.78	32.77
429.97	56.17
430.16	58.51
430.34	11.70
430.53	79.58
430.72	77.24
430.91	0.00
431.10	16.38
431.28	4.68
431.47	0.00
431.66	0.00
431.85	35.11
432.03	81.92
432.22	0.00
432.41	18.72
432.60	98.30
432.79	124.05
432.97	16.38
433.16	37.45
433.35	0.00
433.54	0.00
433.72	56.17
433.91	30.43
434.10	0.00
434.28	11.70
434.47	70.22
434.66	84.26
434.85	35.11
435.03	77.24
435.22	77.24
435.41	37.45
435.59	0.00
435.78	0.00
435.97	93.62
436.16	44.47
436.34	39.79
436.53	79.58
436.72	0.00
436.90	0.00
437.09	0.00
437.28	0.00
437.46	0.00
437.65	30.43
437.84	0.00
438.02	23.41
438.21	21.06
438.40	0.00
438.58	28.09
438.77	9.36
438.96	102.98
439.14	65.54
439.33	37.45
439.52	0.00
439.70	0.00
439.89	0.00
440.08	42.13
440.26	74.90
440.45	0.00
440.63	60.85
440.82	84.26
441.01	18.72
441.19	14.04
441.38	21.06
441.57	23.41
441.75	25.75
441.94	14.04
442.12	0.00
442.31	9.36
442.50	7.02
442.68	0.00
442.87	0.00
443.05	49.15
443.24	32.77
443.43	84.26
443.61	0.00
443.80	81.92
443.98	30.43
444.17	88.94
444.35	23.41
444.54	0.00
444.73	28.09
444.91	46.81
445.10	11.70
445.28	77.24
445.47	63.19
445.65	44.47
445.84	53.83
446.02	18.72
446.21	21.06
446.39	14.04
446.58	25.75
446.77	67.88
446.95	44.47
447.14	42.13
447.32	0.00
447.51	0.00
447.69	0.00
447.88	44.47
448.06	44.47
448.25	65.54
448.43	51.49
448.62	0.00
448.80	84.26
448.99	0.00
449.17	0.00
449.36	0.00
449.54	86.60
449.73	21.06
449.91	0.00
450.10	16.38
450.28	46.81
450.46	51.49
450.65	0.00
450.83	67.88
451.02	0.00
451.20	14.04
451.39	42.13
451.57	63.19
451.76	18.72
451.94	67.88
452.13	0.00
452.31	25.75
452.49	58.51
452.68	14.04
452.86	46.81
453.05	98.30
453.23	44.47
453.42	88.94
453.60	46.81
453.78	4.68
453.97	63.19
454.15	84.26
454.34	42.13
454.52	53.83
454.70	9.36
454.89	0.00
455.07	39.79
455.26	107.66
455.44	58.51
455.62	11.70
455.81	0.00
455.99	9.36
456.17	11.70
456.36	44.47
456.54	39.79
456.73	21.06
456.91	21.06
457.09	42.13
457.28	9.36
457.46	0.00
457.64	56.17
457.83	16.38
458.01	32.77
458.19	60.85
458.38	0.00
458.56	91.28
458.74	39.79
458.93	25.75
459.11	60.85
459.29	93.62
459.48	16.38
459.66	77.24
459.84	53.83
460.03	67.88
460.21	7.02
460.39	25.75
460.57	11.70
460.76	18.72
460.94	0.00
461.12	51.49
461.31	88.94
461.49	0.00
461.67	0.00
461.85	4.68
462.04	7.02
462.22	77.24
462.40	0.00
462.59	0.00
462.77	56.17
462.95	0.00
463.13	88.94
463.32	67.88
463.50	37.45
463.68	0.00
463.86	58.51
464.05	28.09
464.23	0.00
464.41	32.77
464.59	44.47
464.78	56.17
464.96	23.41
465.14	0.00
465.32	39.79
465.50	46.81
465.69	72.56
465.87	56.17
466.05	32.77
466.23	65.54
466.41	0.00
466.60	63.19
466.78	0.00
466.96	93.62
467.14	46.81
467.32	39.79
467.51	117.03
467.69	11.70
467.87	58.51
468.05	86.60
468.23	58.51
468.41	51.49
468.60	81.92
468.78	42.13
468.96	35.11
469.14	65.54
469.32	0.00
469.50	51.49
469.69	53.83
469.87	67.88
470.05	56.17
470.23	0.00
470.41	18.72
470.59	0.00
470.77	0.00
470.95	126.39
471.14	105.32
471.32	86.60
471.50	37.45
471.68	0.00
471.86	0.00
472.04	16.38
472.22	58.51
472.40	32.77
472.58	30.43
472.77	11.70
472.95	42.13
473.13	21.06
473.31	56.17
473.49	0.00
473.67	28.09
473.85	51.49
474.03	60.85
474.21	67.88
474.39	65.54
474.57	42.13
474.75	44.47
474.93	0.00
475.12	0.00
475.30	16.38
475.48	35.11
475.66	53.83
475.84	9.36
476.02	7.02
476.20	9.36
476.38	35.11
476.56	86.60
476.74	39.79
476.92	0.00
477.10	16.38
477.28	0.00
477.46	16.38
477.64	35.11
477.82	7.02
478.00	93.62
478.18	37.45
478.36	30.43
478.54	0.00
478.72	0.00
478.90	72.56
479.08	21.06
479.26	67.88
479.44	44.47
479.62	2.34
479.80	53.83
479.98	72.56
480.16	23.41
480.34	74.90
480.52	39.79
480.70	65.54
480.88	124.05
481.06	0.00
481.24	21.06
481.41	46.81
481.59	28.09
481.77	2.34
481.95	42.13
482.13	0.00
482.31	4.68
482.49	46.81
482.67	72.56
482.85	9.36
483.03	2.34
483.21	72.56
483.39	25.75
483.57	110.01
483.74	2.34
483.92	56.17
484.10	42.13
484.28	25.75
484.46	56.17
484.64	0.00
484.82	46.81
485.00	0.00
485.18	44.47
485.35	0.00
485.53	0.00
485.71	32.77
485.89	16.38
486.07	9.36
486.25	2.34
486.43	56.17
486.61	39.79
486.78	0.00
486.96	46.81
487.14	16.38
487.32	9.36
487.50	0.00
487.68	72.56
487.85	0.00
488.03	0.00
488.21	25.75
488.39	74.90
488.57	53.83
488.75	21.06
488.92	46.81
489.10	46.81
489.28	42.13
489.46	25.75
489.64	56.17
489.81	28.09
489.99	128.73
490.17	21.06
490.35	86.60
490.53	35.11
490.70	35.11
490.88	53.83
491.06	35.11
491.24	11.70
491.41	112.35
491.59	2.34
491.77	60.85
491.95	77.24
492.13	25.75
492.30	100.64
492.48	63.19
492.66	56.17
492.84	32.77
493.01	28.09
493.19	4.68
493.37	51.49
493.54	44.47
493.72	9.36
493.90	21.06
494.08	77.24
494.25	0.00
494.43	65.54
494.61	51.49
494.79	84.26
494.96	79.58
495.14	44.47
495.32	105.32
495.49	18.72
495.67	25.75
495.85	70.22
496.02	0.00
496.20	44.47
496.38	91.28
496.55	51.49
496.73	70.22
496.91	51.49
497.09	88.94
497.26	21.06
497.44	49.15
497.62	58.51
497.79	0.00
497.97	0.00
498.14	2.34
498.32	93.62
498.50	102.98
498.67	56.17
498.85	30.43
499.03	77.24
499.20	46.81
499.38	93.62
499.56	21.06
499.73	0.00
499.91	16.38
500.08	0.00
500.26	58.51
500.44	32.77
500.61	79.58
500.79	23.41
500.97	23.41
501.14	91.28
501.32	18.72
501.49	56.17
501.67	42.13
501.84	65.54
502.02	14.04
502.20	58.51
502.37	65.54
502.55	93.62
502.72	44.47
502.90	21.06
503.07	30.43
503.25	32.77
503.43	37.45
503.60	51.49
503.78	110.01
503.95	32.77
504.13	18.72
504.30	72.56
504.48	98.30
504.65	0.00
504.83	25.75
505.01	81.92
505.18	74.90
505.36	42.13
505.53	72.56
505.71	67.88
505.88	51.49
506.06	0.00
506.23	46.81
506.41	46.81
506.58	14.04
506.76	63.19
506.93	46.81
507.11	16.38
507.28	72.56
507.46	77.24
507.63	102.98
507.81	0.00
507.98	72.56
508.16	56.17
508.33	63.19
508.50	98.30
508.68	0.00
508.85	44.47
509.03	93.62
509.20	28.09
509.38	23.41
509.55	30.43
509.73	70.22
509.90	72.56
510.08	18.72
510.25	25.75
510.42	4.68
510.60	0.00
510.77	53.83
510.95	0.00
511.12	2.34
511.30	4.68
511.47	56.17
511.64	77.24
511.82	21.06
511.99	0.00
512.17	37.45
512.34	0.00
512.51	0.00
512.69	65.54
512.86	30.43
513.04	0.00
513.21	2.34
513.38	28.09
513.56	30.43
513.73	30.43
513.90	30.43
514.08	42.13
514.25	51.49
514.43	14.04
514.60	0.00
514.77	2.34
514.95	56.17
515.12	107.66
515.29	42.13
515.47	18.72
515.64	23.41
515.81	14.04
515.99	28.09
516.16	91.28
516.33	0.00
516.51	39.79
516.68	14.04
516.85	7.02
517.03	7.02
517.20	25.75
517.37	23.41
517.54	16.38
517.72	25.75
517.89	9.36
518.06	51.49
518.24	16.38
518.41	67.88
518.58	2.34
518.75	11.70
518.93	35.11
519.10	53.83
519.27	60.85
519.45	74.90
519.62	39.79
519.79	16.38
519.96	53.83
520.14	37.45
520.31	51.49
520.48	51.49
520.65	42.13
520.83	58.51
521.00	0.00
521.17	0.00
521.34	37.45
521.52	44.47
521.69	7.02
521.86	72.56
522.03	58.51
522.20	21.06
522.38	14.04
522.55	63.19
522.72	32.77
522.89	30.43
523.07	18.72
523.24	35.11
523.41	98.30
523.58	0.00
523.75	42.13
523.92	9.36
524.10	51.49
524.27	25.75
524.44	16.38
524.61	16.38
524.78	79.58
524.96	44.47
525.13	35.11
525.30	35.11
525.47	72.56
525.64	39.79
525.81	11.70
525.98	39.79
526.16	21.06
526.33	0.00
526.50	49.15
526.67	32.77
526.84	58.51
527.01	25.75
527.18	11.70
527.36	37.45
527.53	35.11
527.70	18.72
527.87	39.79
528.04	0.00
528.21	37.45
528.38	28.09
528.55	63.19
528.72	28.09
528.89	51.49
529.07	42.13
529.24	42.13
529.41	35.11
529.58	35.11
529.75	49.15
529.92	30.43
530.09	67.88
530.26	35.11
530.43	39.79
530.60	0.00
530.77	18.72
530.94	39.79
531.11	4.68
531.28	67.88
531.46	124.05
531.63	32.77
531.80	0.00
531.97	0.00
532.14	49.15
532.31	58.51
532.48	53.83
532.65	11.70
532.82	67.88
532.99	37.45
533.16	25.75
533.33	23.41
533.50	93.62
533.67	49.15
533.84	117.03
534.01	65.54
534.18	58.51
534.35	14.04
534.52	79.58
534.69	35.11
534.86	0.00
535.03	35.11
535.20	74.90
535.37	74.90
535.54	63.19
535.71	14.04
535.88	30.43
536.05	0.00
536.22	79.58
536.38	39.79
536.55	39.79
536.72	46.81
536.89	42.13
537.06	84.26
537.23	102.98
537.40	74.90
537.57	60.85
537.74	32.77
537.91	0.00
538.08	56.17
538.25	37.45
538.42	49.15
538.59	110.01
538.75	133.41
538.92	28.09
539.09	0.00
539.26	60.85
539.43	53.83
539.60	142.77
539.77	220.01
539.94	248.10
540.11	140.43
540.28	142.77
540.44	46.81
540.61	16.38
540.78	21.06
540.95	25.75
541.12	65.54
541.29	58.51
541.46	0.00
541.62	14.04
541.79	35.11
541.96	0.00
542.13	105.32
542.30	44.47
542.47	21.06
542.63	63.19
542.80	67.88
542.97	84.26
543.14	58.51
543.31	0.00
543.48	0.00
543.64	126.39
543.81	46.81
543.98	51.49
544.15	72.56
544.32	74.90
544.48	21.06
544.65	102.98
544.82	0.00
544.99	4.68
545.16	46.81
545.32	0.00
545.49	14.04
545.66	44.47
545.83	25.75
546.00	18.72
546.16	39.79
546.33	88.94
546.50	0.00
546.67	67.88
546.83	23.41
547.00	39.79
547.17	21.06
547.34	7.02
547.50	46.81
547.67	25.75
547.84	51.49
548.00	107.66
548.17	32.77
548.34	32.77
548.51	18.72
548.67	9.36
548.84	21.06
549.01	21.06
549.18	0.00
549.34	65.54
549.51	81.92
549.68	56.17
549.84	28.09
550.01	63.19
550.18	44.47
550.34	53.83
550.51	49.15
550.68	63.19
550.84	79.58
551.01	65.54
551.18	44.47
551.34	95.96
551.51	51.49
551.68	0.00
551.84	7.02
552.01	25.75
552.18	135.75
552.34	0.00
552.51	53.83
552.68	0.00
552.84	88.94
553.01	58.51
553.18	0.00
553.34	2.34
553.51	107.66
553.67	74.90
553.84	119.37
554.01	30.43
554.17	72.56
554.34	81.92
554.51	14.04
554.67	0.00
554.84	95.96
555.00	46.81
555.17	0.00
555.33	91.28
555.50	9.36
555.67	93.62
555.83	28.09
556.00	46.81
556.16	100.64
556.33	39.79
556.50	77.24
556.66	0.00
556.83	14.04
556.99	30.43
557.16	67.88
557.32	0.00
557.49	18.72
557.65	0.00
557.82	16.38
557.98	46.81
558.15	42.13
558.32	0.00
558.48	0.00
558.65	7.02
558.81	32.77
558.98	81.92
559.14	56.17
559.31	18.72
559.47	18.72
559.64	67.88
559.80	70.22
559.97	107.66
560.13	49.15
560.30	30.43
560.46	0.00
560.63	0.00
560.79	16.38
560.96	102.98
561.12	67.88
561.29	39.79
561.45	0.00
561.61	0.00
561.78	21.06
561.94	74.90
562.11	81.92
562.27	44.47
562.44	4.68
562.60	18.72
562.77	28.09
562.93	23.41
563.10	102.98
563.26	84.26
563.42	51.49
563.59	32.77
563.75	9.36
563.92	2.34
564.08	32.77
564.24	9.36
564.41	28.09
564.57	4.68
564.74	21.06
564.90	51.49
565.07	11.70
565.23	0.00
565.39	0.00
565.56	79.58
565.72	88.94
565.88	14.04
566.05	53.83
566.21	18.72
566.38	72.56
566.54	0.00
566.70	9.36
566.87	44.47
567.03	70.22
567.19	84.26
567.36	70.22
567.52	0.00
567.68	28.09
567.85	102.98
568.01	0.00
568.17	25.75
568.34	98.30
568.50	9.36
568.66	28.09
568.83	23.41
568.99	44.47
569.15	112.35
569.32	51.49
569.48	44.47
569.64	0.00
569.81	14.04
569.97	4.68
570.13	30.43
570.30	35.11
570.46	51.49
570.62	16.38
570.78	133.41
570.95	56.17
571.11	46.81
571.27	0.00
571.43	46.81
571.60	28.09
571.76	63.19
571.92	65.54
572.09	77.24
572.25	53.83
572.41	49.15
572.57	56.17
572.74	39.79
572.90	16.38
573.06	77.24
573.22	30.43
573.38	37.45
573.55	0.00
573.71	114.69
573.87	56.17
574.03	7.02
574.20	9.36
574.36	72.56
574.52	9.36
574.68	44.47
574.84	77.24
575.01	53.83
575.17	74.90
575.33	77.24
575.49	93.62
575.65	63.19
575.82	86.60
575.98	177.88
576.14	168.52
576.30	0.00
576.46	102.98
576.62	28.09
576.79	124.05
576.95	0.00
577.11	23.41
577.27	84.26
577.43	4.68
577.59	58.51
577.75	49.15
577.92	60.85
578.08	67.88
578.24	4.68
578.40	35.11
578.56	74.90
578.72	77.24
578.88	74.90
579.04	11.70
579.21	131.07
579.37	0.00
579.53	35.11
579.69	58.51
579.85	74.90
580.01	53.83
580.17	51.49
580.33	72.56
580.49	53.83
580.65	0.00
580.82	14.04
580.98	70.22
581.14	18.72
581.30	63.19
581.46	9.36
581.62	119.37
581.78	135.75
581.94	100.64
582.10	0.00
582.26	102.98
582.42	100.64
582.58	44.47
582.74	0.00
582.90	114.69
583.06	56.17
583.22	14.04
583.38	39.79
583.54	79.58
583.70	86.60
583.86	156.82
584.02	131.07
584.18	175.54
584.34	131.07
584.50	409.59
584.66	3243.98
584.82	8271.45
584.98	12517.18
585.14	11133.93
585.30	6944.37
585.46	4095.94
585.62	2541.82
585.78	1186.65
585.94	440.02
586.10	252.78
586.26	187.24
586.42	131.07
586.58	32.77
586.74	51.49
586.90	187.24
587.06	88.94
587.22	37.45
587.38	100.64
587.54	250.44
587.70	414.27
587.86	812.17
588.02	922.17
588.18	669.39
588.34	402.57
588.49	337.04
588.65	170.86
588.81	107.66
588.97	88.94
589.13	60.85
589.29	65.54
589.45	72.56
589.61	37.45
589.77	95.96
589.93	79.58
590.08	77.24
590.24	30.43
590.40	95.96
590.56	49.15
590.72	145.11
590.88	0.00
591.04	35.11
591.20	42.13
591.35	42.13
591.51	72.56
591.67	98.30
591.83	98.30
591.99	70.22
592.15	65.54
592.31	74.90
592.46	49.15
592.62	74.90
592.78	56.17
592.94	44.47
593.10	105.32
593.26	0.00
593.41	81.92
593.57	107.66
593.73	84.26
593.89	491.51
594.05	1139.84
594.20	1603.27
594.36	1563.48
594.52	1076.65
594.68	645.99
594.84	423.64
594.99	257.46
595.15	128.73
595.31	112.35
595.47	114.69
595.62	63.19
595.78	0.00
595.94	0.00
596.10	95.96
596.25	21.06
596.41	49.15
596.57	9.36
596.73	0.00
596.88	67.88
597.04	182.56
597.20	330.02
597.36	376.83
597.51	315.97
597.67	243.42
597.83	102.98
597.99	121.71
598.14	88.94
598.30	70.22
598.46	63.19
598.61	0.00
598.77	49.15
598.93	49.15
599.09	39.79
599.24	39.79
599.40	0.00
599.56	53.83
599.71	21.06
599.87	42.13
600.03	18.72
600.18	7.02
600.34	11.70
600.50	0.00
600.65	56.17
600.81	72.56
600.97	95.96
601.12	44.47
601.28	4.68
601.44	58.51
601.59	21.06
601.75	67.88
601.91	14.04
602.06	102.98
602.22	100.64
602.37	124.05
602.53	332.36
602.69	402.57
602.84	500.87
603.00	339.38
603.16	269.16
603.31	140.43
603.47	98.30
603.62	60.85
603.78	56.17
603.94	16.38
604.09	44.47
604.25	11.70
604.40	51.49
604.56	70.22
604.71	128.73
604.87	58.51
605.03	11.70
605.18	65.54
605.34	51.49
605.49	46.81
605.65	23.41
605.80	21.06
605.96	49.15
606.12	159.16
606.27	11.70
606.43	84.26
606.58	35.11
606.74	91.28
606.89	528.96
607.05	943.24
607.20	1364.53
607.36	1144.52
607.51	830.89
607.67	437.68
607.82	339.38
607.98	217.67
608.13	100.64
608.29	63.19
608.44	72.56
608.60	0.00
608.75	16.38
608.91	203.63
609.06	774.72
609.22	1713.27
609.37	2328.83
609.53	2155.63
609.68	1362.19
609.84	908.13
609.99	622.58
610.15	327.68
610.30	126.39
610.46	88.94
610.61	58.51
610.76	105.32
610.92	126.39
611.07	25.75
611.23	11.70
611.38	49.15
611.54	49.15
611.69	135.75
611.84	0.00
612.00	81.92
612.15	105.32
612.31	105.32
612.46	98.30
612.62	149.79
612.77	39.79
612.92	63.19
613.08	70.22
613.23	79.58
613.39	25.75
613.54	79.58
613.69	741.95
613.85	2003.50
614.00	3302.50
614.15	3777.62
614.31	2593.31
614.46	1750.72
614.62	1186.65
614.77	699.82
614.92	372.15
615.08	149.79
615.23	35.11
615.38	72.56
615.54	32.77
615.69	210.65
615.84	454.06
616.00	727.91
616.15	1025.15
616.30	823.87
616.46	671.73
616.61	386.19
616.76	205.97
616.92	168.52
617.07	107.66
617.22	14.04
617.37	53.83
617.53	88.94
617.68	88.94
617.83	0.00
617.99	28.09
618.14	53.83
618.29	65.54
618.45	53.83
618.60	105.32
618.75	18.72
618.90	35.11
619.06	32.77
619.21	110.01
619.36	98.30
619.51	60.85
619.67	30.43
619.82	42.13
619.97	42.13
620.12	77.24
620.28	37.45
620.43	60.85
620.58	23.41
620.73	0.00
620.89	28.09
621.04	145.11
621.19	278.52
621.34	442.36
621.49	564.07
621.65	486.83
621.80	283.20
621.95	227.03
622.10	187.24
622.25	84.26
622.41	65.54
622.56	93.62
622.71	60.85
622.86	0.00
623.01	98.30
623.16	44.47
623.32	39.79
623.47	60.85
623.62	53.83
623.77	117.03
623.92	0.00
624.07	0.00
624.23	0.00
624.38	98.30
624.53	81.92
624.68	56.17
624.83	74.90
624.98	32.77
625.13	56.17
625.29	11.70
625.44	37.45
625.59	14.04
625.74	32.77
625.89	102.98
626.04	393.21
626.19	966.64
626.34	1652.42
626.49	1987.11
626.65	1376.24
626.80	1006.43
626.95	645.99
627.10	433.00
627.25	220.01
627.40	110.01
627.55	30.43
627.70	0.00
627.85	95.96
628.00	16.38
628.15	65.54
628.30	84.26
628.45	37.45
628.60	110.01
628.76	0.00
628.91	0.00
629.06	70.22
629.21	63.19
629.36	65.54
629.51	100.64
629.66	0.00
629.81	86.60
629.96	159.16
630.11	407.25
630.26	496.19
630.41	512.58
630.56	346.40
630.71	222.35
630.86	203.63
631.01	180.22
631.16	56.17
631.31	88.94
631.46	51.49
631.61	46.81
631.76	37.45
631.91	56.17
632.06	0.00
632.21	0.00
632.36	51.49
632.51	0.00
632.66	112.35
632.81	194.26
632.96	528.96
633.10	1027.50
633.25	1369.21
633.40	1086.01
633.55	741.95
633.70	543.00
633.85	339.38
634.00	124.05
634.15	107.66
634.30	119.37
634.45	35.11
634.60	58.51
634.75	67.88
634.90	60.85
635.05	84.26
635.19	42.13
635.34	0.00
635.49	51.49
635.64	0.00
635.79	37.45
635.94	14.04
636.09	23.41
636.24	0.00
636.39	37.45
636.53	110.01
636.68	28.09
636.83	79.58
636.98	23.41
637.13	2.34
637.28	88.94
637.43	117.03
637.57	138.09
637.72	505.56
637.87	1383.26
638.02	2127.55
638.17	2408.41
638.32	1881.79
638.46	1198.35
638.61	711.52
638.76	578.11
638.91	266.82
639.06	166.18
639.20	210.65
639.35	105.32
639.50	156.82
639.65	755.99
639.80	2094.78
639.94	3276.75
640.09	3840.82
640.24	2899.92
640.39	1839.66
640.54	1366.87
640.68	741.95
640.83	411.93
640.98	126.39
641.13	227.03
641.27	74.90
641.42	39.79
641.57	23.41
641.72	63.19
641.86	21.06
642.01	74.90
642.16	18.72
642.31	30.43
642.45	124.05
642.60	4.68
642.75	42.13
642.90	28.09
643.04	21.06
643.19	58.51
643.34	70.22
643.48	18.72
643.63	67.88
643.78	0.00
643.93	65.54
644.07	56.17
644.22	63.19
644.37	51.49
644.51	60.85
644.66	49.15
644.81	46.81
644.95	32.77
645.10	0.00
645.25	46.81
645.39	23.41
645.54	100.64
645.69	100.64
645.83	7.02
645.98	98.30
646.13	35.11
646.27	114.69
646.42	25.75
646.57	46.81
646.71	44.47
646.86	25.75
647.00	44.47
647.15	37.45
647.30	14.04
647.44	11.70
647.59	4.68
647.74	53.83
647.88	65.54
648.03	0.00
648.17	35.11
648.32	0.00
648.47	2.34
648.61	14.04
648.76	23.41
648.90	0.00
649.05	98.30
649.20	49.15
649.34	16.38
649.49	35.11
649.63	39.79
649.78	30.43
649.92	88.94
650.07	362.78
650.21	887.06
650.36	1462.83
650.51	1989.46
650.65	1666.46
650.80	1121.12
650.94	770.04
651.09	545.34
651.23	292.57
651.38	159.16
651.52	63.19
651.67	0.00
651.81	42.13
651.96	46.81
652.10	79.58
652.25	0.00
652.39	60.85
652.54	105.32
652.68	67.88
652.83	330.02
652.97	512.58
653.12	746.63
653.26	648.33
653.41	489.17
653.55	290.23
653.70	224.69
653.84	102.98
653.99	88.94
654.13	60.85
654.27	35.11
654.42	0.00
654.56	14.04
654.71	25.75
654.85	0.00
655.00	102.98
655.14	0.00
655.29	16.38
655.43	49.15
655.57	21.06
655.72	39.79
655.86	72.56
656.01	30.43
656.15	21.06
656.30	39.79
656.44	0.00
656.58	81.92
656.73	49.15
656.87	70.22
657.01	0.00
657.16	28.09
657.30	28.09
657.45	42.13
657.59	4.68
657.73	58.51
657.88	25.75
658.02	49.15
658.16	49.15
658.31	0.00
658.45	0.00
658.60	21.06
658.74	49.15
658.88	53.83
659.03	25.75
659.17	58.51
659.31	105.32
659.46	444.70
659.60	772.38
659.74	940.90
659.89	884.72
660.03	585.13
660.17	411.93
660.32	355.76
660.46	145.11
660.60	102.98
660.74	46.81
660.89	93.62
661.03	81.92
661.17	70.22
661.32	70.22
661.46	44.47
661.60	18.72
661.74	23.41
661.89	51.49
662.03	46.81
662.17	21.06
662.31	23.41
662.46	35.11
662.60	25.75
662.74	25.75
662.88	0.00
663.03	93.62
663.17	0.00
663.31	65.54
663.45	37.45
663.60	102.98
663.74	49.15
663.88	44.47
664.02	91.28
664.17	0.00
664.31	7.02
664.45	30.43
664.59	4.68
664.73	81.92
664.88	0.00
665.02	9.36
665.16	46.81
665.30	72.56
665.44	28.09
665.59	35.11
665.73	84.26
665.87	28.09
666.01	39.79
666.15	0.00
666.29	30.43
666.44	44.47
666.58	32.77
666.72	18.72
666.86	23.41
667.00	91.28
667.14	23.41
667.28	257.46
667.43	685.78
667.57	1245.16
667.71	1844.34
667.85	1483.90
667.99	1086.01
668.13	697.48
668.27	397.89
668.41	271.50
668.56	72.56
668.70	63.19
668.84	86.60
668.98	7.02
669.12	18.72
669.26	84.26
669.40	37.45
669.54	4.68
669.68	70.22
669.82	0.00
669.96	44.47
670.10	102.98
670.25	35.11
670.39	30.43
670.53	81.92
670.67	53.83
670.81	110.01
670.95	58.51
671.09	25.75
671.23	266.82
671.37	613.22
671.51	1039.20
671.65	1064.94
671.79	870.68
671.93	566.41
672.07	332.36
672.21	196.60
672.35	91.28
672.49	58.51
672.63	84.26
672.77	37.45
672.91	53.83
673.05	42.13
673.19	74.90
673.33	11.70
673.47	16.38
673.61	74.90
673.75	0.00
673.89	46.81
674.03	93.62
674.17	32.77
674.31	56.17
674.45	46.81
674.59	44.47
674.73	21.06
674.87	18.72
675.01	70.22
675.15	91.28
675.29	0.00
675.43	100.64
675.56	14.04
675.70	0.00
675.84	39.79
675.98	67.88
676.12	100.64
676.26	39.79
676.40	65.54
676.54	11.70
676.68	0.00
676.82	65.54
676.96	0.00
677.10	44.47
677.23	16.38
677.37	9.36
677.51	0.00
677.65	39.79
677.79	35.11
677.93	14.04
678.07	18.72
678.21	58.51
678.34	0.00
678.48	91.28
678.62	0.00
678.76	0.00
678.90	7.02
679.04	0.00
679.18	95.96
679.31	9.36
679.45	105.32
679.59	0.00
679.73	56.17
679.87	9.36
680.00	16.38
680.14	16.38
680.28	77.24
680.42	51.49
680.56	70.22
680.70	30.43
680.83	49.15
680.97	95.96
681.11	4.68
681.25	51.49
681.39	21.06
681.52	65.54
681.66	107.66
681.80	4.68
681.94	42.13
682.07	49.15
682.21	39.79
682.35	35.11
682.49	21.06
682.62	37.45
682.76	0.00
682.90	0.00
683.04	70.22
683.17	16.38
683.31	2.34
683.45	0.00
683.59	0.00
683.72	91.28
683.86	0.00
684.00	42.13
684.13	102.98
684.27	49.15
684.41	35.11
684.55	7.02
684.68	0.00
684.82	0.00
684.96	51.49
685.09	0.00
685.23	35.11
685.37	37.45
685.50	74.90
685.64	35.11
685.78	2.34
685.91	0.00
686.05	53.83
686.19	0.00
686.32	39.79
686.46	11.70
686.60	0.00
686.73	0.00
686.87	0.00
687.01	14.04
687.14	42.13
687.28	11.70
687.42	28.09
687.55	0.00
687.69	0.00
687.82	0.00
687.96	0.00
688.10	0.00
688.23	102.98
688.37	65.54
688.50	30.43
688.64	72.56
688.78	23.41
688.91	60.85
689.05	2.34
689.18	81.92
689.32	114.69
689.46	63.19
689.59	0.00
689.73	0.00
689.86	11.70
690.00	7.02
690.13	56.17
690.27	18.72
690.41	37.45
690.54	53.83
690.68	0.00
690.81	32.77
690.95	4.68
691.08	58.51
691.22	0.00
691.35	46.81
691.49	16.38
691.62	72.56
691.76	42.13
691.89	0.00
692.03	9.36
692.16	2.34
692.30	2.34
692.43	154.48
692.57	348.74
692.70	594.50
692.84	781.74
692.97	765.36
693.11	557.05
693.24	468.11
693.38	182.56
693.51	161.50
693.65	149.79
693.78	107.66
693.92	105.32
694.05	84.26
694.19	81.92
694.32	4.68
694.45	0.00
694.59	37.45
694.72	46.81
694.86	74.90
694.99	30.43
695.13	32.77
695.26	65.54
695.39	23.41
695.53	0.00
695.66	60.85
695.80	28.09
695.93	37.45
696.07	35.11
696.20	60.85
696.33	128.73
696.47	67.88
696.60	44.47
696.73	49.15
696.87	25.75
697.00	37.45
697.14	18.72
697.27	0.00
697.40	0.00
697.54	2.34
697.67	84.26
697.80	35.11
697.94	63.19
698.07	37.45
698.21	25.75
698.34	51.49
698.47	7.02
698.61	37.45
698.74	23.41
698.87	14.04
699.01	30.43
699.14	58.51
699.27	0.00
699.40	30.43
699.54	0.00
699.67	7.02
699.80	93.62
699.94	84.26
700.07	0.00
700.20	16.38
700.34	74.90
700.47	37.45
700.60	0.00
700.73	18.72
700.87	25.75
701.00	77.24
701.13	0.00
701.26	53.83
701.40	0.00
701.53	77.24
701.66	32.77
701.79	112.35
701.93	28.09
702.06	126.39
702.19	60.85
702.32	58.51
702.46	63.19
702.59	112.35
702.72	112.35
702.85	430.66
702.99	966.64
703.12	1352.83
703.25	1455.81
703.38	1256.87
703.51	959.62
703.65	823.87
703.78	514.92
703.91	402.57
704.04	224.69
704.17	135.75
704.31	145.11
704.44	74.90
704.57	63.19
704.70	0.00
704.83	7.02
704.96	44.47
705.10	65.54
705.23	91.28
>>>>>End Processed Spectral Data<<<<<
