SpectraSuite Data File
++++++++++++++++++++++++++++++++++++
Date: Fri Oct 04 12:13:38 GMT-05:00 2013
User: price-jones
Dark Spectrum Present: No
Reference Spectrum Present: No
Number of Sampled Component Spectra: 1
Spectrometers: USB2+H05261
Integration Time (usec): 10000 (USB2+H05261)
Spectra Averaged: 1 (USB2+H05261)
Boxcar Smoothing: 0 (USB2+H05261)
Correct for Electrical Dark: No (USB2+H05261)
Strobe/Lamp Enabled: No (USB2+H05261)
Correct for Detector Non-linearity: No (USB2+H05261)
Correct for Stray Light: No (USB2+H05261)
Number of Pixels in Processed Spectrum: 2048
>>>>>Begin Processed Spectral Data<<<<<
365.73	0.00
365.92	0.00
366.12	0.00
366.32	0.00
366.52	0.00
366.72	0.00
366.91	0.00
367.11	0.00
367.31	0.00
367.51	0.00
367.70	0.00
367.90	0.00
368.10	0.00
368.30	0.00
368.49	0.00
368.69	0.00
368.89	0.00
369.09	0.00
369.28	0.00
369.48	0.00
369.68	0.00
369.87	0.00
370.07	0.00
370.27	0.00
370.47	0.00
370.66	0.00
370.86	0.00
371.06	11.70
371.25	0.00
371.45	9.36
371.65	0.00
371.84	0.00
372.04	0.00
372.24	44.47
372.44	0.00
372.63	16.38
372.83	67.88
373.03	79.58
373.22	0.00
373.42	0.00
373.62	28.09
373.81	2.34
374.01	56.17
374.21	0.00
374.40	0.00
374.60	81.92
374.79	70.22
374.99	56.17
375.19	32.77
375.38	65.54
375.58	4.68
375.78	37.45
375.97	0.00
376.17	72.56
376.37	44.47
376.56	39.79
376.76	0.00
376.95	42.13
377.15	0.00
377.35	58.51
377.54	7.02
377.74	0.00
377.93	9.36
378.13	67.88
378.33	79.58
378.52	42.13
378.72	0.00
378.91	0.00
379.11	0.00
379.31	0.00
379.50	46.81
379.70	46.81
379.89	30.43
380.09	28.09
380.28	7.02
380.48	0.00
380.68	0.00
380.87	28.09
381.07	0.00
381.26	11.70
381.46	0.00
381.65	9.36
381.85	28.09
382.04	4.68
382.24	0.00
382.43	32.77
382.63	28.09
382.83	2.34
383.02	65.54
383.22	32.77
383.41	53.83
383.61	7.02
383.80	42.13
384.00	0.00
384.19	51.49
384.39	0.00
384.58	0.00
384.78	56.17
384.97	35.11
385.17	37.45
385.36	0.00
385.56	37.45
385.75	0.00
385.95	16.38
386.14	14.04
386.34	51.49
386.53	0.00
386.72	0.00
386.92	102.98
387.11	49.15
387.31	4.68
387.50	51.49
387.70	39.79
387.89	0.00
388.09	0.00
388.28	4.68
388.48	93.62
388.67	18.72
388.86	46.81
389.06	0.00
389.25	18.72
389.45	79.58
389.64	49.15
389.84	51.49
390.03	133.41
390.22	35.11
390.42	0.00
390.61	39.79
390.81	0.00
391.00	0.00
391.19	35.11
391.39	0.00
391.58	0.00
391.78	9.36
391.97	0.00
392.16	9.36
392.36	65.54
392.55	0.00
392.75	7.02
392.94	14.04
393.13	18.72
393.33	0.00
393.52	93.62
393.71	0.00
393.91	65.54
394.10	0.00
394.29	67.88
394.49	0.00
394.68	14.04
394.88	72.56
395.07	67.88
395.26	63.19
395.46	18.72
395.65	39.79
395.84	4.68
396.04	16.38
396.23	67.88
396.42	35.11
396.62	42.13
396.81	63.19
397.00	23.41
397.19	42.13
397.39	28.09
397.58	81.92
397.77	2.34
397.97	53.83
398.16	58.51
398.35	39.79
398.55	79.58
398.74	0.00
398.93	39.79
399.12	16.38
399.32	7.02
399.51	25.75
399.70	58.51
399.90	23.41
400.09	2.34
400.28	56.17
400.47	0.00
400.67	98.30
400.86	0.00
401.05	0.00
401.24	84.26
401.44	51.49
401.63	0.00
401.82	0.00
402.01	58.51
402.21	91.28
402.40	0.00
402.59	32.77
402.78	30.43
402.97	0.00
403.17	9.36
403.36	53.83
403.55	60.85
403.74	79.58
403.93	46.81
404.13	35.11
404.32	0.00
404.51	14.04
404.70	56.17
404.89	102.98
405.09	51.49
405.28	79.58
405.47	16.38
405.66	0.00
405.85	49.15
406.05	46.81
406.24	72.56
406.43	37.45
406.62	0.00
406.81	65.54
407.00	79.58
407.20	25.75
407.39	0.00
407.58	65.54
407.77	56.17
407.96	4.68
408.15	44.47
408.34	0.00
408.54	37.45
408.73	56.17
408.92	32.77
409.11	49.15
409.30	0.00
409.49	77.24
409.68	72.56
409.87	58.51
410.07	32.77
410.26	56.17
410.45	51.49
410.64	39.79
410.83	18.72
411.02	0.00
411.21	16.38
411.40	9.36
411.59	0.00
411.78	112.35
411.98	32.77
412.17	0.00
412.36	35.11
412.55	77.24
412.74	95.96
412.93	35.11
413.12	0.00
413.31	46.81
413.50	28.09
413.69	21.06
413.88	88.94
414.07	121.71
414.26	0.00
414.45	0.00
414.64	0.00
414.83	7.02
415.02	63.19
415.22	0.00
415.41	14.04
415.60	0.00
415.79	4.68
415.98	0.00
416.17	21.06
416.36	51.49
416.55	16.38
416.74	0.00
416.93	18.72
417.12	0.00
417.31	56.17
417.50	0.00
417.69	98.30
417.88	51.49
418.07	74.90
418.26	0.00
418.45	0.00
418.64	79.58
418.83	30.43
419.02	86.60
419.21	49.15
419.39	51.49
419.58	37.45
419.77	35.11
419.96	112.35
420.15	51.49
420.34	95.96
420.53	9.36
420.72	84.26
420.91	53.83
421.10	14.04
421.29	39.79
421.48	72.56
421.67	77.24
421.86	35.11
422.05	72.56
422.24	0.00
422.43	44.47
422.61	39.79
422.80	7.02
422.99	0.00
423.18	124.05
423.37	37.45
423.56	91.28
423.75	0.00
423.94	16.38
424.13	9.36
424.32	16.38
424.50	84.26
424.69	7.02
424.88	35.11
425.07	112.35
425.26	0.00
425.45	30.43
425.64	84.26
425.83	42.13
426.01	23.41
426.20	49.15
426.39	67.88
426.58	14.04
426.77	42.13
426.96	16.38
427.15	46.81
427.33	72.56
427.52	49.15
427.71	105.32
427.90	9.36
428.09	0.00
428.28	42.13
428.46	60.85
428.65	0.00
428.84	46.81
429.03	60.85
429.22	18.72
429.40	86.60
429.59	0.00
429.78	88.94
429.97	95.96
430.16	35.11
430.34	30.43
430.53	0.00
430.72	0.00
430.91	11.70
431.10	0.00
431.28	72.56
431.47	60.85
431.66	16.38
431.85	51.49
432.03	2.34
432.22	18.72
432.41	35.11
432.60	72.56
432.79	28.09
432.97	37.45
433.16	11.70
433.35	63.19
433.54	0.00
433.72	0.00
433.91	107.66
434.10	60.85
434.28	0.00
434.47	23.41
434.66	56.17
434.85	21.06
435.03	93.62
435.22	77.24
435.41	21.06
435.59	93.62
435.78	14.04
435.97	0.00
436.16	65.54
436.34	63.19
436.53	63.19
436.72	88.94
436.90	39.79
437.09	30.43
437.28	0.00
437.46	11.70
437.65	0.00
437.84	49.15
438.02	93.62
438.21	49.15
438.40	86.60
438.58	51.49
438.77	67.88
438.96	91.28
439.14	0.00
439.33	23.41
439.52	70.22
439.70	0.00
439.89	51.49
440.08	79.58
440.26	44.47
440.45	117.03
440.63	35.11
440.82	65.54
441.01	67.88
441.19	0.00
441.38	0.00
441.57	102.98
441.75	23.41
441.94	4.68
442.12	0.00
442.31	9.36
442.50	58.51
442.68	23.41
442.87	35.11
443.05	110.01
443.24	18.72
443.43	70.22
443.61	2.34
443.80	0.00
443.98	39.79
444.17	98.30
444.35	49.15
444.54	77.24
444.73	23.41
444.91	28.09
445.10	65.54
445.28	14.04
445.47	42.13
445.65	32.77
445.84	4.68
446.02	79.58
446.21	110.01
446.39	49.15
446.58	56.17
446.77	53.83
446.95	81.92
447.14	23.41
447.32	0.00
447.51	0.00
447.69	51.49
447.88	4.68
448.06	86.60
448.25	60.85
448.43	67.88
448.62	81.92
448.80	0.00
448.99	72.56
449.17	93.62
449.36	35.11
449.54	46.81
449.73	0.00
449.91	42.13
450.10	9.36
450.28	65.54
450.46	60.85
450.65	84.26
450.83	49.15
451.02	95.96
451.20	49.15
451.39	14.04
451.57	91.28
451.76	110.01
451.94	56.17
452.13	95.96
452.31	70.22
452.49	110.01
452.68	72.56
452.86	63.19
453.05	86.60
453.23	74.90
453.42	16.38
453.60	131.07
453.78	37.45
453.97	0.00
454.15	121.71
454.34	67.88
454.52	70.22
454.70	72.56
454.89	0.00
455.07	46.81
455.26	119.37
455.44	35.11
455.62	7.02
455.81	81.92
455.99	44.47
456.17	63.19
456.36	63.19
456.54	42.13
456.73	63.19
456.91	84.26
457.09	79.58
457.28	42.13
457.46	93.62
457.64	135.75
457.83	67.88
458.01	60.85
458.19	88.94
458.38	95.96
458.56	42.13
458.74	91.28
458.93	0.00
459.11	100.64
459.29	35.11
459.48	170.86
459.66	51.49
459.84	70.22
460.03	49.15
460.21	4.68
460.39	28.09
460.57	112.35
460.76	93.62
460.94	77.24
461.12	84.26
461.31	81.92
461.49	114.69
461.67	74.90
461.85	7.02
462.04	42.13
462.22	46.81
462.40	0.00
462.59	35.11
462.77	0.00
462.95	14.04
463.13	79.58
463.32	84.26
463.50	98.30
463.68	21.06
463.86	0.00
464.05	107.66
464.23	63.19
464.41	60.85
464.59	37.45
464.78	88.94
464.96	77.24
465.14	63.19
465.32	35.11
465.50	37.45
465.69	0.00
465.87	65.54
466.05	84.26
466.23	79.58
466.41	135.75
466.60	49.15
466.78	7.02
466.96	0.00
467.14	93.62
467.32	81.92
467.51	18.72
467.69	63.19
467.87	25.75
468.05	0.00
468.23	39.79
468.41	0.00
468.60	46.81
468.78	53.83
468.96	56.17
469.14	44.47
469.32	84.26
469.50	72.56
469.69	93.62
469.87	32.77
470.05	46.81
470.23	95.96
470.41	51.49
470.59	32.77
470.77	110.01
470.95	32.77
471.14	110.01
471.32	28.09
471.50	7.02
471.68	88.94
471.86	46.81
472.04	74.90
472.22	161.50
472.40	100.64
472.58	107.66
472.77	28.09
472.95	65.54
473.13	35.11
473.31	60.85
473.49	110.01
473.67	81.92
473.85	102.98
474.03	35.11
474.21	35.11
474.39	70.22
474.57	23.41
474.75	81.92
474.93	0.00
475.12	28.09
475.30	0.00
475.48	51.49
475.66	18.72
475.84	105.32
476.02	0.00
476.20	131.07
476.38	32.77
476.56	93.62
476.74	65.54
476.92	91.28
477.10	91.28
477.28	114.69
477.46	91.28
477.64	152.13
477.82	60.85
478.00	14.04
478.18	9.36
478.36	46.81
478.54	9.36
478.72	16.38
478.90	42.13
479.08	30.43
479.26	42.13
479.44	58.51
479.62	98.30
479.80	77.24
479.98	51.49
480.16	63.19
480.34	149.79
480.52	65.54
480.70	49.15
480.88	124.05
481.06	67.88
481.24	35.11
481.41	23.41
481.59	105.32
481.77	67.88
481.95	49.15
482.13	70.22
482.31	53.83
482.49	102.98
482.67	46.81
482.85	28.09
483.03	98.30
483.21	30.43
483.39	81.92
483.57	23.41
483.74	11.70
483.92	79.58
484.10	0.00
484.28	51.49
484.46	110.01
484.64	0.00
484.82	110.01
485.00	79.58
485.18	42.13
485.35	49.15
485.53	63.19
485.71	95.96
485.89	140.43
486.07	58.51
486.25	28.09
486.43	0.00
486.61	67.88
486.78	126.39
486.96	2.34
487.14	23.41
487.32	37.45
487.50	119.37
487.68	100.64
487.85	35.11
488.03	79.58
488.21	32.77
488.39	74.90
488.57	11.70
488.75	42.13
488.92	138.09
489.10	37.45
489.28	30.43
489.46	23.41
489.64	4.68
489.81	81.92
489.99	58.51
490.17	81.92
490.35	93.62
490.53	65.54
490.70	100.64
490.88	28.09
491.06	86.60
491.24	100.64
491.41	67.88
491.59	95.96
491.77	30.43
491.95	112.35
492.13	93.62
492.30	65.54
492.48	60.85
492.66	51.49
492.84	88.94
493.01	112.35
493.19	93.62
493.37	72.56
493.54	110.01
493.72	74.90
493.90	65.54
494.08	74.90
494.25	98.30
494.43	110.01
494.61	79.58
494.79	58.51
494.96	37.45
495.14	72.56
495.32	65.54
495.49	105.32
495.67	51.49
495.85	58.51
496.02	119.37
496.20	91.28
496.38	128.73
496.55	147.45
496.73	67.88
496.91	53.83
497.09	114.69
497.26	177.88
497.44	93.62
497.62	110.01
497.79	23.41
497.97	58.51
498.14	124.05
498.32	112.35
498.50	14.04
498.67	72.56
498.85	81.92
499.03	117.03
499.20	53.83
499.38	56.17
499.56	67.88
499.73	79.58
499.91	81.92
500.08	119.37
500.26	117.03
500.44	51.49
500.61	74.90
500.79	39.79
500.97	53.83
501.14	74.90
501.32	100.64
501.49	140.43
501.67	28.09
501.84	46.81
502.02	67.88
502.20	74.90
502.37	65.54
502.55	88.94
502.72	23.41
502.90	46.81
503.07	63.19
503.25	32.77
503.43	128.73
503.60	100.64
503.78	37.45
503.95	79.58
504.13	102.98
504.30	131.07
504.48	46.81
504.65	102.98
504.83	46.81
505.01	0.00
505.18	70.22
505.36	56.17
505.53	0.00
505.71	79.58
505.88	114.69
506.06	100.64
506.23	107.66
506.41	49.15
506.58	56.17
506.76	77.24
506.93	95.96
507.11	58.51
507.28	35.11
507.46	128.73
507.63	102.98
507.81	58.51
507.98	0.00
508.16	67.88
508.33	110.01
508.50	74.90
508.68	56.17
508.85	126.39
509.03	131.07
509.20	88.94
509.38	39.79
509.55	138.09
509.73	79.58
509.90	121.71
510.08	81.92
510.25	114.69
510.42	32.77
510.60	56.17
510.77	51.49
510.95	58.51
511.12	93.62
511.30	81.92
511.47	133.41
511.64	81.92
511.82	145.11
511.99	42.13
512.17	58.51
512.34	53.83
512.51	110.01
512.69	100.64
512.86	35.11
513.04	79.58
513.21	77.24
513.38	60.85
513.56	79.58
513.73	67.88
513.90	32.77
514.08	25.75
514.25	51.49
514.43	28.09
514.60	79.58
514.77	140.43
514.95	114.69
515.12	135.75
515.29	154.48
515.47	53.83
515.64	23.41
515.81	44.47
515.99	77.24
516.16	102.98
516.33	105.32
516.51	93.62
516.68	84.26
516.85	152.13
517.03	65.54
517.20	102.98
517.37	28.09
517.54	65.54
517.72	100.64
517.89	95.96
518.06	128.73
518.24	0.00
518.41	21.06
518.58	93.62
518.75	46.81
518.93	56.17
519.10	49.15
519.27	74.90
519.45	77.24
519.62	0.00
519.79	49.15
519.96	95.96
520.14	121.71
520.31	74.90
520.48	46.81
520.65	67.88
520.83	49.15
521.00	32.77
521.17	95.96
521.34	107.66
521.52	37.45
521.69	126.39
521.86	51.49
522.03	81.92
522.20	93.62
522.38	77.24
522.55	84.26
522.72	100.64
522.89	39.79
523.07	67.88
523.24	39.79
523.41	4.68
523.58	74.90
523.75	95.96
523.92	117.03
524.10	102.98
524.27	84.26
524.44	81.92
524.61	44.47
524.78	60.85
524.96	37.45
525.13	98.30
525.30	98.30
525.47	60.85
525.64	84.26
525.81	110.01
525.98	49.15
526.16	70.22
526.33	70.22
526.50	117.03
526.67	84.26
526.84	25.75
527.01	161.50
527.18	86.60
527.36	112.35
527.53	102.98
527.70	67.88
527.87	63.19
528.04	100.64
528.21	53.83
528.38	23.41
528.55	35.11
528.72	53.83
528.89	91.28
529.07	98.30
529.24	32.77
529.41	88.94
529.58	72.56
529.75	124.05
529.92	58.51
530.09	95.96
530.26	138.09
530.43	93.62
530.60	117.03
530.77	30.43
530.94	21.06
531.11	42.13
531.28	102.98
531.46	128.73
531.63	56.17
531.80	65.54
531.97	28.09
532.14	77.24
532.31	49.15
532.48	70.22
532.65	102.98
532.82	79.58
532.99	91.28
533.16	112.35
533.33	79.58
533.50	74.90
533.67	105.32
533.84	7.02
534.01	114.69
534.18	107.66
534.35	77.24
534.52	79.58
534.69	72.56
534.86	105.32
535.03	156.82
535.20	81.92
535.37	51.49
535.54	81.92
535.71	93.62
535.88	49.15
536.05	110.01
536.22	91.28
536.38	124.05
536.55	126.39
536.72	140.43
536.89	30.43
537.06	28.09
537.23	88.94
537.40	100.64
537.57	84.26
537.74	0.00
537.91	42.13
538.08	32.77
538.25	58.51
538.42	86.60
538.59	98.30
538.75	93.62
538.92	114.69
539.09	21.06
539.26	44.47
539.43	53.83
539.60	35.11
539.77	84.26
539.94	119.37
540.11	95.96
540.28	149.79
540.44	93.62
540.61	135.75
540.78	51.49
540.95	70.22
541.12	110.01
541.29	126.39
541.46	39.79
541.62	72.56
541.79	67.88
541.96	53.83
542.13	51.49
542.30	56.17
542.47	114.69
542.63	95.96
542.80	72.56
542.97	74.90
543.14	46.81
543.31	145.11
543.48	49.15
543.64	112.35
543.81	135.75
543.98	112.35
544.15	84.26
544.32	18.72
544.48	65.54
544.65	84.26
544.82	53.83
544.99	79.58
545.16	37.45
545.32	121.71
545.49	79.58
545.66	79.58
545.83	74.90
546.00	72.56
546.16	110.01
546.33	81.92
546.50	105.32
546.67	135.75
546.83	107.66
547.00	67.88
547.17	147.45
547.34	135.75
547.50	135.75
547.67	63.19
547.84	135.75
548.00	102.98
548.17	100.64
548.34	65.54
548.51	65.54
548.67	23.41
548.84	77.24
549.01	110.01
549.18	79.58
549.34	159.16
549.51	63.19
549.68	105.32
549.84	0.00
550.01	74.90
550.18	124.05
550.34	107.66
550.51	138.09
550.68	126.39
550.84	56.17
551.01	79.58
551.18	114.69
551.34	114.69
551.51	18.72
551.68	93.62
551.84	74.90
552.01	39.79
552.18	138.09
552.34	77.24
552.51	149.79
552.68	110.01
552.84	105.32
553.01	93.62
553.18	152.13
553.34	67.88
553.51	0.00
553.67	100.64
553.84	117.03
554.01	110.01
554.17	131.07
554.34	49.15
554.51	72.56
554.67	102.98
554.84	7.02
555.00	86.60
555.17	42.13
555.33	161.50
555.50	102.98
555.67	98.30
555.83	121.71
556.00	124.05
556.16	79.58
556.33	0.00
556.50	121.71
556.66	93.62
556.83	30.43
556.99	42.13
557.16	56.17
557.32	88.94
557.49	107.66
557.65	126.39
557.82	110.01
557.98	142.77
558.15	182.56
558.32	93.62
558.48	53.83
558.65	128.73
558.81	60.85
558.98	74.90
559.14	79.58
559.31	95.96
559.47	67.88
559.64	105.32
559.80	53.83
559.97	44.47
560.13	95.96
560.30	93.62
560.46	65.54
560.63	91.28
560.79	74.90
560.96	25.75
561.12	100.64
561.29	114.69
561.45	91.28
561.61	23.41
561.78	175.54
561.94	102.98
562.11	65.54
562.27	70.22
562.44	100.64
562.60	60.85
562.77	74.90
562.93	88.94
563.10	84.26
563.26	131.07
563.42	46.81
563.59	0.00
563.75	65.54
563.92	72.56
564.08	56.17
564.24	84.26
564.41	60.85
564.57	67.88
564.74	51.49
564.90	56.17
565.07	35.11
565.23	81.92
565.39	84.26
565.56	79.58
565.72	98.30
565.88	42.13
566.05	0.00
566.21	81.92
566.38	79.58
566.54	86.60
566.70	84.26
566.87	88.94
567.03	98.30
567.19	63.19
567.36	121.71
567.52	32.77
567.68	119.37
567.85	88.94
568.01	74.90
568.17	35.11
568.34	142.77
568.50	77.24
568.66	44.47
568.83	98.30
568.99	23.41
569.15	142.77
569.32	126.39
569.48	91.28
569.64	121.71
569.81	93.62
569.97	81.92
570.13	58.51
570.30	77.24
570.46	95.96
570.62	98.30
570.78	60.85
570.95	51.49
571.11	77.24
571.27	124.05
571.43	67.88
571.60	93.62
571.76	84.26
571.92	0.00
572.09	145.11
572.25	32.77
572.41	100.64
572.57	53.83
572.74	93.62
572.90	105.32
573.06	2.34
573.22	72.56
573.38	102.98
573.55	102.98
573.71	53.83
573.87	84.26
574.03	28.09
574.20	117.03
574.36	56.17
574.52	35.11
574.68	88.94
574.84	98.30
575.01	74.90
575.17	42.13
575.33	42.13
575.49	39.79
575.65	105.32
575.82	110.01
575.98	128.73
576.14	56.17
576.30	95.96
576.46	163.84
576.62	0.00
576.79	124.05
576.95	67.88
577.11	67.88
577.27	63.19
577.43	37.45
577.59	60.85
577.75	51.49
577.92	25.75
578.08	77.24
578.24	21.06
578.40	49.15
578.56	79.58
578.72	72.56
578.88	32.77
579.04	140.43
579.21	86.60
579.37	91.28
579.53	30.43
579.69	11.70
579.85	28.09
580.01	0.00
580.17	4.68
580.33	105.32
580.49	21.06
580.65	42.13
580.82	30.43
580.98	86.60
581.14	7.02
581.30	65.54
581.46	77.24
581.62	21.06
581.78	105.32
581.94	110.01
582.10	98.30
582.26	49.15
582.42	110.01
582.58	32.77
582.74	88.94
582.90	105.32
583.06	77.24
583.22	37.45
583.38	2.34
583.54	79.58
583.70	128.73
583.86	67.88
584.02	67.88
584.18	65.54
584.34	74.90
584.50	95.96
584.66	53.83
584.82	110.01
584.98	114.69
585.14	49.15
585.30	112.35
585.46	81.92
585.62	126.39
585.78	25.75
585.94	93.62
586.10	46.81
586.26	28.09
586.42	44.47
586.58	30.43
586.74	114.69
586.90	124.05
587.06	51.49
587.22	60.85
587.38	28.09
587.54	98.30
587.70	102.98
587.86	49.15
588.02	51.49
588.18	0.00
588.34	81.92
588.49	35.11
588.65	37.45
588.81	21.06
588.97	67.88
589.13	18.72
589.29	23.41
589.45	63.19
589.61	51.49
589.77	0.00
589.93	98.30
590.08	56.17
590.24	7.02
590.40	91.28
590.56	56.17
590.72	88.94
590.88	37.45
591.04	77.24
591.20	67.88
591.35	100.64
591.51	58.51
591.67	105.32
591.83	70.22
591.99	60.85
592.15	121.71
592.31	60.85
592.46	93.62
592.62	56.17
592.78	49.15
592.94	23.41
593.10	126.39
593.26	79.58
593.41	91.28
593.57	46.81
593.73	100.64
593.89	53.83
594.05	51.49
594.20	56.17
594.36	14.04
594.52	0.00
594.68	46.81
594.84	121.71
594.99	0.00
595.15	100.64
595.31	119.37
595.47	126.39
595.62	58.51
595.78	102.98
595.94	58.51
596.10	11.70
596.25	91.28
596.41	72.56
596.57	56.17
596.73	39.79
596.88	86.60
597.04	49.15
597.20	110.01
597.36	77.24
597.51	121.71
597.67	84.26
597.83	147.45
597.99	117.03
598.14	23.41
598.30	124.05
598.46	86.60
598.61	72.56
598.77	39.79
598.93	32.77
599.09	77.24
599.24	65.54
599.40	95.96
599.56	67.88
599.71	53.83
599.87	58.51
600.03	42.13
600.18	119.37
600.34	95.96
600.50	9.36
600.65	84.26
600.81	72.56
600.97	79.58
601.12	23.41
601.28	93.62
601.44	105.32
601.59	28.09
601.75	51.49
601.91	32.77
602.06	63.19
602.22	86.60
602.37	124.05
602.53	60.85
602.69	112.35
602.84	28.09
603.00	35.11
603.16	70.22
603.31	102.98
603.47	98.30
603.62	53.83
603.78	72.56
603.94	74.90
604.09	86.60
604.25	91.28
604.40	11.70
604.56	91.28
604.71	107.66
604.87	98.30
605.03	72.56
605.18	142.77
605.34	60.85
605.49	135.75
605.65	98.30
605.80	46.81
605.96	11.70
606.12	81.92
606.27	37.45
606.43	84.26
606.58	23.41
606.74	58.51
606.89	44.47
607.05	16.38
607.20	49.15
607.36	74.90
607.51	93.62
607.67	105.32
607.82	46.81
607.98	84.26
608.13	88.94
608.29	0.00
608.44	79.58
608.60	14.04
608.75	70.22
608.91	98.30
609.06	58.51
609.22	74.90
609.37	49.15
609.53	65.54
609.68	11.70
609.84	9.36
609.99	102.98
610.15	9.36
610.30	91.28
610.46	70.22
610.61	11.70
610.76	93.62
610.92	60.85
611.07	51.49
611.23	63.19
611.38	0.00
611.54	37.45
611.69	18.72
611.84	91.28
612.00	112.35
612.15	91.28
612.31	70.22
612.46	124.05
612.62	112.35
612.77	77.24
612.92	49.15
613.08	65.54
613.23	74.90
613.39	112.35
613.54	51.49
613.69	77.24
613.85	53.83
614.00	138.09
614.15	4.68
614.31	70.22
614.46	77.24
614.62	37.45
614.77	114.69
614.92	2.34
615.08	63.19
615.23	63.19
615.38	56.17
615.54	42.13
615.69	126.39
615.84	95.96
616.00	70.22
616.15	67.88
616.30	42.13
616.46	131.07
616.61	60.85
616.76	49.15
616.92	74.90
617.07	91.28
617.22	110.01
617.37	46.81
617.53	102.98
617.68	86.60
617.83	102.98
617.99	11.70
618.14	39.79
618.29	25.75
618.45	100.64
618.60	124.05
618.75	0.00
618.90	74.90
619.06	119.37
619.21	102.98
619.36	74.90
619.51	58.51
619.67	124.05
619.82	14.04
619.97	74.90
620.12	25.75
620.28	28.09
620.43	37.45
620.58	51.49
620.73	37.45
620.89	86.60
621.04	56.17
621.19	0.00
621.34	91.28
621.49	63.19
621.65	53.83
621.80	100.64
621.95	70.22
622.10	81.92
622.25	110.01
622.41	9.36
622.56	95.96
622.71	16.38
622.86	84.26
623.01	77.24
623.16	152.13
623.32	21.06
623.47	23.41
623.62	91.28
623.77	49.15
623.92	51.49
624.07	70.22
624.23	110.01
624.38	56.17
624.53	79.58
624.68	79.58
624.83	21.06
624.98	74.90
625.13	121.71
625.29	72.56
625.44	67.88
625.59	25.75
625.74	117.03
625.89	86.60
626.04	65.54
626.19	46.81
626.34	46.81
626.49	0.00
626.65	60.85
626.80	0.00
626.95	56.17
627.10	32.77
627.25	84.26
627.40	58.51
627.55	105.32
627.70	84.26
627.85	77.24
628.00	49.15
628.15	86.60
628.30	39.79
628.45	0.00
628.60	28.09
628.76	0.00
628.91	133.41
629.06	46.81
629.21	58.51
629.36	49.15
629.51	142.77
629.66	32.77
629.81	70.22
629.96	93.62
630.11	65.54
630.26	72.56
630.41	60.85
630.56	91.28
630.71	44.47
630.86	100.64
631.01	35.11
631.16	42.13
631.31	79.58
631.46	65.54
631.61	117.03
631.76	98.30
631.91	110.01
632.06	53.83
632.21	84.26
632.36	107.66
632.51	49.15
632.66	65.54
632.81	88.94
632.96	0.00
633.10	49.15
633.25	79.58
633.40	56.17
633.55	11.70
633.70	56.17
633.85	93.62
634.00	30.43
634.15	88.94
634.30	112.35
634.45	53.83
634.60	74.90
634.75	25.75
634.90	105.32
635.05	30.43
635.19	0.00
635.34	79.58
635.49	79.58
635.64	0.00
635.79	11.70
635.94	124.05
636.09	79.58
636.24	32.77
636.39	119.37
636.53	18.72
636.68	121.71
636.83	119.37
636.98	88.94
637.13	79.58
637.28	25.75
637.43	95.96
637.57	37.45
637.72	91.28
637.87	114.69
638.02	7.02
638.17	72.56
638.32	28.09
638.46	88.94
638.61	105.32
638.76	49.15
638.91	42.13
639.06	128.73
639.20	23.41
639.35	95.96
639.50	51.49
639.65	42.13
639.80	53.83
639.94	37.45
640.09	72.56
640.24	67.88
640.39	63.19
640.54	124.05
640.68	138.09
640.83	70.22
640.98	35.11
641.13	70.22
641.27	88.94
641.42	98.30
641.57	84.26
641.72	49.15
641.86	79.58
642.01	60.85
642.16	0.00
642.31	0.00
642.45	9.36
642.60	70.22
642.75	16.38
642.90	58.51
643.04	0.00
643.19	25.75
643.34	63.19
643.48	51.49
643.63	60.85
643.78	67.88
643.93	21.06
644.07	37.45
644.22	70.22
644.37	58.51
644.51	86.60
644.66	35.11
644.81	51.49
644.95	32.77
645.10	2.34
645.25	77.24
645.39	65.54
645.54	16.38
645.69	39.79
645.83	14.04
645.98	51.49
646.13	77.24
646.27	95.96
646.42	117.03
646.57	42.13
646.71	49.15
646.86	56.17
647.00	60.85
647.15	70.22
647.30	100.64
647.44	46.81
647.59	81.92
647.74	72.56
647.88	14.04
648.03	124.05
648.17	81.92
648.32	72.56
648.47	77.24
648.61	39.79
648.76	25.75
648.90	72.56
649.05	37.45
649.20	58.51
649.34	35.11
649.49	39.79
649.63	105.32
649.78	9.36
649.92	30.43
650.07	70.22
650.21	46.81
650.36	30.43
650.51	58.51
650.65	44.47
650.80	46.81
650.94	9.36
651.09	2.34
651.23	65.54
651.38	81.92
651.52	14.04
651.67	70.22
651.81	86.60
651.96	46.81
652.10	28.09
652.25	0.00
652.39	56.17
652.54	18.72
652.68	70.22
652.83	74.90
652.97	170.86
653.12	149.79
653.26	100.64
653.41	56.17
653.55	42.13
653.70	77.24
653.84	32.77
653.99	70.22
654.13	32.77
654.27	44.47
654.42	53.83
654.56	14.04
654.71	86.60
654.85	23.41
655.00	9.36
655.14	63.19
655.29	25.75
655.43	18.72
655.57	98.30
655.72	35.11
655.86	56.17
656.01	0.00
656.15	67.88
656.30	2.34
656.44	39.79
656.58	117.03
656.73	14.04
656.87	14.04
657.01	2.34
657.16	63.19
657.30	25.75
657.45	35.11
657.59	16.38
657.73	0.00
657.88	32.77
658.02	175.54
658.16	102.98
658.31	16.38
658.45	9.36
658.60	84.26
658.74	56.17
658.88	32.77
659.03	60.85
659.17	32.77
659.31	28.09
659.46	53.83
659.60	46.81
659.74	70.22
659.89	84.26
660.03	11.70
660.17	4.68
660.32	51.49
660.46	42.13
660.60	58.51
660.74	0.00
660.89	102.98
661.03	30.43
661.17	16.38
661.32	88.94
661.46	58.51
661.60	23.41
661.74	28.09
661.89	56.17
662.03	112.35
662.17	28.09
662.31	56.17
662.46	91.28
662.60	32.77
662.74	35.11
662.88	56.17
663.03	72.56
663.17	60.85
663.31	21.06
663.45	42.13
663.60	91.28
663.74	93.62
663.88	56.17
664.02	67.88
664.17	67.88
664.31	46.81
664.45	60.85
664.59	77.24
664.73	56.17
664.88	37.45
665.02	128.73
665.16	105.32
665.30	72.56
665.44	72.56
665.59	60.85
665.73	88.94
665.87	74.90
666.01	58.51
666.15	88.94
666.29	46.81
666.44	86.60
666.58	53.83
666.72	16.38
666.86	23.41
667.00	21.06
667.14	23.41
667.28	60.85
667.43	67.88
667.57	110.01
667.71	86.60
667.85	93.62
667.99	39.79
668.13	98.30
668.27	95.96
668.41	63.19
668.56	119.37
668.70	81.92
668.84	18.72
668.98	86.60
669.12	95.96
669.26	63.19
669.40	46.81
669.54	32.77
669.68	74.90
669.82	102.98
669.96	79.58
670.10	79.58
670.25	74.90
670.39	0.00
670.53	77.24
670.67	67.88
670.81	21.06
670.95	86.60
671.09	9.36
671.23	23.41
671.37	14.04
671.51	0.00
671.65	11.70
671.79	112.35
671.93	58.51
672.07	58.51
672.21	42.13
672.35	7.02
672.49	0.00
672.63	14.04
672.77	30.43
672.91	0.00
673.05	23.41
673.19	93.62
673.33	102.98
673.47	28.09
673.61	65.54
673.75	46.81
673.89	16.38
674.03	124.05
674.17	46.81
674.31	60.85
674.45	86.60
674.59	67.88
674.73	37.45
674.87	63.19
675.01	42.13
675.15	44.47
675.29	9.36
675.43	32.77
675.56	140.43
675.70	0.00
675.84	25.75
675.98	88.94
676.12	86.60
676.26	16.38
676.40	67.88
676.54	84.26
676.68	44.47
676.82	56.17
676.96	30.43
677.10	39.79
677.23	51.49
677.37	23.41
677.51	30.43
677.65	100.64
677.79	60.85
677.93	65.54
678.07	65.54
678.21	21.06
678.34	42.13
678.48	9.36
678.62	140.43
678.76	84.26
678.90	60.85
679.04	0.00
679.18	72.56
679.31	44.47
679.45	81.92
679.59	79.58
679.73	65.54
679.87	25.75
680.00	84.26
680.14	4.68
680.28	0.00
680.42	28.09
680.56	110.01
680.70	23.41
680.83	25.75
680.97	0.00
681.11	21.06
681.25	51.49
681.39	25.75
681.52	49.15
681.66	23.41
681.80	44.47
681.94	28.09
682.07	72.56
682.21	46.81
682.35	0.00
682.49	53.83
682.62	77.24
682.76	14.04
682.90	53.83
683.04	77.24
683.17	32.77
683.31	46.81
683.45	70.22
683.59	74.90
683.72	0.00
683.86	44.47
684.00	67.88
684.13	117.03
684.27	124.05
684.41	42.13
684.55	112.35
684.68	84.26
684.82	32.77
684.96	35.11
685.09	18.72
685.23	25.75
685.37	28.09
685.50	42.13
685.64	23.41
685.78	102.98
685.91	42.13
686.05	39.79
686.19	74.90
686.32	0.00
686.46	30.43
686.60	53.83
686.73	14.04
686.87	0.00
687.01	0.00
687.14	14.04
687.28	81.92
687.42	51.49
687.55	11.70
687.69	4.68
687.82	0.00
687.96	23.41
688.10	70.22
688.23	14.04
688.37	114.69
688.50	86.60
688.64	11.70
688.78	44.47
688.91	105.32
689.05	51.49
689.18	88.94
689.32	65.54
689.46	88.94
689.59	35.11
689.73	39.79
689.86	58.51
690.00	79.58
690.13	49.15
690.27	0.00
690.41	37.45
690.54	58.51
690.68	0.00
690.81	21.06
690.95	28.09
691.08	4.68
691.22	0.00
691.35	60.85
691.49	0.00
691.62	44.47
691.76	72.56
691.89	74.90
692.03	0.00
692.16	0.00
692.30	65.54
692.43	53.83
692.57	0.00
692.70	0.00
692.84	58.51
692.97	0.00
693.11	51.49
693.24	65.54
693.38	9.36
693.51	51.49
693.65	58.51
693.78	0.00
693.92	37.45
694.05	112.35
694.19	42.13
694.32	58.51
694.45	79.58
694.59	0.00
694.72	60.85
694.86	25.75
694.99	67.88
695.13	49.15
695.26	30.43
695.39	18.72
695.53	128.73
695.66	4.68
695.80	0.00
695.93	72.56
696.07	58.51
696.20	35.11
696.33	16.38
696.47	51.49
696.60	25.75
696.73	2.34
696.87	49.15
697.00	30.43
697.14	23.41
697.27	77.24
697.40	16.38
697.54	112.35
697.67	18.72
697.80	23.41
697.94	49.15
698.07	35.11
698.21	44.47
698.34	88.94
698.47	0.00
698.61	35.11
698.74	11.70
698.87	44.47
699.01	42.13
699.14	18.72
699.27	30.43
699.40	72.56
699.54	28.09
699.67	21.06
699.80	0.00
699.94	77.24
700.07	21.06
700.20	79.58
700.34	0.00
700.47	42.13
700.60	0.00
700.73	0.00
700.87	7.02
701.00	42.13
701.13	0.00
701.26	30.43
701.40	77.24
701.53	0.00
701.66	0.00
701.79	9.36
701.93	65.54
702.06	58.51
702.19	25.75
702.32	9.36
702.46	23.41
702.59	14.04
702.72	67.88
702.85	88.94
702.99	56.17
703.12	88.94
703.25	53.83
703.38	39.79
703.51	23.41
703.65	35.11
703.78	51.49
703.91	39.79
704.04	30.43
704.17	11.70
704.31	21.06
704.44	11.70
704.57	21.06
704.70	25.75
704.83	44.47
704.96	0.00
705.10	107.66
705.23	67.88
>>>>>End Processed Spectral Data<<<<<
