SpectraSuite Data File
++++++++++++++++++++++++++++++++++++
Date: Fri Oct 04 12:13:35 GMT-05:00 2013
User: price-jones
Dark Spectrum Present: No
Reference Spectrum Present: No
Number of Sampled Component Spectra: 1
Spectrometers: USB2+H05261
Integration Time (usec): 10000 (USB2+H05261)
Spectra Averaged: 1 (USB2+H05261)
Boxcar Smoothing: 0 (USB2+H05261)
Correct for Electrical Dark: No (USB2+H05261)
Strobe/Lamp Enabled: No (USB2+H05261)
Correct for Detector Non-linearity: No (USB2+H05261)
Correct for Stray Light: No (USB2+H05261)
Number of Pixels in Processed Spectrum: 2048
>>>>>Begin Processed Spectral Data<<<<<
365.73	0.00
365.92	0.00
366.12	0.00
366.32	0.00
366.52	0.00
366.72	0.00
366.91	0.00
367.11	0.00
367.31	0.00
367.51	0.00
367.70	0.00
367.90	0.00
368.10	0.00
368.30	0.00
368.49	0.00
368.69	0.00
368.89	0.00
369.09	0.00
369.28	0.00
369.48	0.00
369.68	0.00
369.87	0.00
370.07	0.00
370.27	0.00
370.47	0.00
370.66	0.00
370.86	0.00
371.06	0.00
371.25	0.00
371.45	0.00
371.65	0.00
371.84	18.72
372.04	0.00
372.24	0.00
372.44	9.36
372.63	0.00
372.83	77.24
373.03	0.00
373.22	11.70
373.42	2.34
373.62	42.13
373.81	11.70
374.01	0.00
374.21	16.38
374.40	53.83
374.60	0.00
374.79	16.38
374.99	0.00
375.19	46.81
375.38	98.30
375.58	56.17
375.78	70.22
375.97	18.72
376.17	9.36
376.37	95.96
376.56	42.13
376.76	9.36
376.95	35.11
377.15	14.04
377.35	49.15
377.54	58.51
377.74	46.81
377.93	56.17
378.13	32.77
378.33	0.00
378.52	0.00
378.72	0.00
378.91	7.02
379.11	44.47
379.31	32.77
379.50	46.81
379.70	67.88
379.89	37.45
380.09	4.68
380.28	9.36
380.48	0.00
380.68	30.43
380.87	39.79
381.07	0.00
381.26	0.00
381.46	39.79
381.65	0.00
381.85	53.83
382.04	28.09
382.24	60.85
382.43	39.79
382.63	42.13
382.83	0.00
383.02	25.75
383.22	0.00
383.41	0.00
383.61	0.00
383.80	46.81
384.00	0.00
384.19	0.00
384.39	35.11
384.58	67.88
384.78	0.00
384.97	25.75
385.17	93.62
385.36	58.51
385.56	0.00
385.75	0.00
385.95	21.06
386.14	39.79
386.34	0.00
386.53	56.17
386.72	0.00
386.92	25.75
387.11	0.00
387.31	46.81
387.50	0.00
387.70	23.41
387.89	0.00
388.09	46.81
388.28	25.75
388.48	16.38
388.67	2.34
388.86	53.83
389.06	0.00
389.25	25.75
389.45	9.36
389.64	9.36
389.84	0.00
390.03	0.00
390.22	39.79
390.42	35.11
390.61	14.04
390.81	46.81
391.00	74.90
391.19	0.00
391.39	60.85
391.58	42.13
391.78	98.30
391.97	56.17
392.16	81.92
392.36	88.94
392.55	4.68
392.75	72.56
392.94	37.45
393.13	21.06
393.33	51.49
393.52	28.09
393.71	0.00
393.91	39.79
394.10	117.03
394.29	30.43
394.49	79.58
394.68	0.00
394.88	70.22
395.07	0.00
395.26	67.88
395.46	0.00
395.65	32.77
395.84	35.11
396.04	11.70
396.23	0.00
396.42	28.09
396.62	100.64
396.81	0.00
397.00	11.70
397.19	35.11
397.39	42.13
397.58	0.00
397.77	72.56
397.97	0.00
398.16	51.49
398.35	0.00
398.55	0.00
398.74	65.54
398.93	46.81
399.12	44.47
399.32	4.68
399.51	7.02
399.70	28.09
399.90	0.00
400.09	46.81
400.28	16.38
400.47	46.81
400.67	42.13
400.86	25.75
401.05	51.49
401.24	25.75
401.44	70.22
401.63	53.83
401.82	67.88
402.01	0.00
402.21	18.72
402.40	63.19
402.59	0.00
402.78	53.83
402.97	0.00
403.17	79.58
403.36	0.00
403.55	49.15
403.74	0.00
403.93	0.00
404.13	7.02
404.32	18.72
404.51	2.34
404.70	14.04
404.89	110.01
405.09	0.00
405.28	91.28
405.47	42.13
405.66	65.54
405.85	0.00
406.05	32.77
406.24	18.72
406.43	18.72
406.62	0.00
406.81	44.47
407.00	0.00
407.20	39.79
407.39	49.15
407.58	2.34
407.77	110.01
407.96	25.75
408.15	81.92
408.34	21.06
408.54	42.13
408.73	30.43
408.92	58.51
409.11	79.58
409.30	37.45
409.49	0.00
409.68	67.88
409.87	77.24
410.07	93.62
410.26	0.00
410.45	102.98
410.64	86.60
410.83	21.06
411.02	32.77
411.21	28.09
411.40	21.06
411.59	9.36
411.78	9.36
411.98	49.15
412.17	102.98
412.36	98.30
412.55	51.49
412.74	37.45
412.93	51.49
413.12	98.30
413.31	0.00
413.50	35.11
413.69	72.56
413.88	70.22
414.07	79.58
414.26	70.22
414.45	28.09
414.64	14.04
414.83	18.72
415.02	67.88
415.22	100.64
415.41	9.36
415.60	30.43
415.79	7.02
415.98	28.09
416.17	0.00
416.36	14.04
416.55	60.85
416.74	107.66
416.93	7.02
417.12	53.83
417.31	30.43
417.50	16.38
417.69	0.00
417.88	79.58
418.07	0.00
418.26	4.68
418.45	37.45
418.64	79.58
418.83	37.45
419.02	58.51
419.21	35.11
419.39	56.17
419.58	84.26
419.77	18.72
419.96	88.94
420.15	72.56
420.34	9.36
420.53	28.09
420.72	42.13
420.91	39.79
421.10	67.88
421.29	44.47
421.48	11.70
421.67	0.00
421.86	53.83
422.05	35.11
422.24	86.60
422.43	44.47
422.61	51.49
422.80	11.70
422.99	21.06
423.18	72.56
423.37	39.79
423.56	60.85
423.75	0.00
423.94	53.83
424.13	32.77
424.32	81.92
424.50	86.60
424.69	11.70
424.88	4.68
425.07	79.58
425.26	53.83
425.45	32.77
425.64	0.00
425.83	30.43
426.01	35.11
426.20	16.38
426.39	16.38
426.58	0.00
426.77	67.88
426.96	72.56
427.15	0.00
427.33	16.38
427.52	30.43
427.71	25.75
427.90	51.49
428.09	107.66
428.28	30.43
428.46	30.43
428.65	39.79
428.84	21.06
429.03	21.06
429.22	65.54
429.40	32.77
429.59	84.26
429.78	93.62
429.97	67.88
430.16	7.02
430.34	23.41
430.53	21.06
430.72	4.68
430.91	63.19
431.10	0.00
431.28	0.00
431.47	2.34
431.66	37.45
431.85	0.00
432.03	32.77
432.22	60.85
432.41	16.38
432.60	65.54
432.79	56.17
432.97	72.56
433.16	77.24
433.35	0.00
433.54	16.38
433.72	81.92
433.91	2.34
434.10	23.41
434.28	0.00
434.47	72.56
434.66	81.92
434.85	70.22
435.03	51.49
435.22	42.13
435.41	11.70
435.59	51.49
435.78	51.49
435.97	58.51
436.16	74.90
436.34	46.81
436.53	49.15
436.72	18.72
436.90	0.00
437.09	88.94
437.28	107.66
437.46	114.69
437.65	65.54
437.84	9.36
438.02	0.00
438.21	32.77
438.40	81.92
438.58	0.00
438.77	65.54
438.96	60.85
439.14	4.68
439.33	70.22
439.52	7.02
439.70	7.02
439.89	0.00
440.08	25.75
440.26	39.79
440.45	25.75
440.63	102.98
440.82	23.41
441.01	91.28
441.19	121.71
441.38	63.19
441.57	0.00
441.75	0.00
441.94	140.43
442.12	37.45
442.31	28.09
442.50	124.05
442.68	35.11
442.87	37.45
443.05	32.77
443.24	2.34
443.43	23.41
443.61	105.32
443.80	28.09
443.98	74.90
444.17	63.19
444.35	46.81
444.54	63.19
444.73	14.04
444.91	42.13
445.10	51.49
445.28	14.04
445.47	74.90
445.65	65.54
445.84	77.24
446.02	91.28
446.21	18.72
446.39	63.19
446.58	0.00
446.77	86.60
446.95	37.45
447.14	53.83
447.32	0.00
447.51	18.72
447.69	14.04
447.88	63.19
448.06	30.43
448.25	28.09
448.43	67.88
448.62	72.56
448.80	37.45
448.99	25.75
449.17	124.05
449.36	72.56
449.54	72.56
449.73	51.49
449.91	21.06
450.10	51.49
450.28	37.45
450.46	81.92
450.65	63.19
450.83	119.37
451.02	102.98
451.20	63.19
451.39	53.83
451.57	4.68
451.76	11.70
451.94	53.83
452.13	30.43
452.31	39.79
452.49	0.00
452.68	56.17
452.86	39.79
453.05	0.00
453.23	65.54
453.42	63.19
453.60	67.88
453.78	28.09
453.97	79.58
454.15	0.00
454.34	46.81
454.52	63.19
454.70	67.88
454.89	25.75
455.07	30.43
455.26	100.64
455.44	51.49
455.62	56.17
455.81	9.36
455.99	72.56
456.17	51.49
456.36	39.79
456.54	74.90
456.73	7.02
456.91	0.00
457.09	105.32
457.28	88.94
457.46	25.75
457.64	28.09
457.83	32.77
458.01	110.01
458.19	65.54
458.38	65.54
458.56	42.13
458.74	51.49
458.93	30.43
459.11	46.81
459.29	63.19
459.48	46.81
459.66	86.60
459.84	81.92
460.03	84.26
460.21	81.92
460.39	117.03
460.57	4.68
460.76	23.41
460.94	21.06
461.12	112.35
461.31	128.73
461.49	100.64
461.67	23.41
461.85	63.19
462.04	117.03
462.22	86.60
462.40	74.90
462.59	39.79
462.77	84.26
462.95	60.85
463.13	79.58
463.32	37.45
463.50	0.00
463.68	60.85
463.86	23.41
464.05	0.00
464.23	25.75
464.41	88.94
464.59	39.79
464.78	32.77
464.96	107.66
465.14	18.72
465.32	39.79
465.50	56.17
465.69	156.82
465.87	28.09
466.05	35.11
466.23	67.88
466.41	72.56
466.60	0.00
466.78	25.75
466.96	63.19
467.14	60.85
467.32	67.88
467.51	100.64
467.69	14.04
467.87	65.54
468.05	88.94
468.23	114.69
468.41	51.49
468.60	28.09
468.78	23.41
468.96	25.75
469.14	21.06
469.32	44.47
469.50	37.45
469.69	0.00
469.87	63.19
470.05	121.71
470.23	0.00
470.41	95.96
470.59	23.41
470.77	14.04
470.95	0.00
471.14	72.56
471.32	30.43
471.50	74.90
471.68	63.19
471.86	121.71
472.04	60.85
472.22	42.13
472.40	56.17
472.58	51.49
472.77	63.19
472.95	42.13
473.13	91.28
473.31	72.56
473.49	0.00
473.67	58.51
473.85	114.69
474.03	112.35
474.21	18.72
474.39	72.56
474.57	28.09
474.75	18.72
474.93	128.73
475.12	18.72
475.30	77.24
475.48	77.24
475.66	21.06
475.84	39.79
476.02	23.41
476.20	46.81
476.38	58.51
476.56	79.58
476.74	30.43
476.92	60.85
477.10	84.26
477.28	74.90
477.46	56.17
477.64	163.84
477.82	39.79
478.00	0.00
478.18	0.00
478.36	18.72
478.54	84.26
478.72	46.81
478.90	16.38
479.08	21.06
479.26	95.96
479.44	67.88
479.62	93.62
479.80	91.28
479.98	30.43
480.16	79.58
480.34	67.88
480.52	42.13
480.70	121.71
480.88	51.49
481.06	60.85
481.24	95.96
481.41	18.72
481.59	49.15
481.77	98.30
481.95	42.13
482.13	79.58
482.31	91.28
482.49	114.69
482.67	49.15
482.85	128.73
483.03	21.06
483.21	37.45
483.39	42.13
483.57	65.54
483.74	37.45
483.92	100.64
484.10	77.24
484.28	9.36
484.46	21.06
484.64	39.79
484.82	44.47
485.00	65.54
485.18	9.36
485.35	16.38
485.53	42.13
485.71	86.60
485.89	11.70
486.07	0.00
486.25	95.96
486.43	65.54
486.61	60.85
486.78	51.49
486.96	46.81
487.14	32.77
487.32	65.54
487.50	112.35
487.68	86.60
487.85	110.01
488.03	152.13
488.21	88.94
488.39	51.49
488.57	131.07
488.75	91.28
488.92	53.83
489.10	91.28
489.28	81.92
489.46	79.58
489.64	126.39
489.81	88.94
489.99	53.83
490.17	86.60
490.35	25.75
490.53	79.58
490.70	135.75
490.88	79.58
491.06	14.04
491.24	67.88
491.41	77.24
491.59	46.81
491.77	30.43
491.95	51.49
492.13	100.64
492.30	105.32
492.48	58.51
492.66	56.17
492.84	91.28
493.01	105.32
493.19	93.62
493.37	25.75
493.54	46.81
493.72	149.79
493.90	81.92
494.08	86.60
494.25	98.30
494.43	74.90
494.61	14.04
494.79	88.94
494.96	30.43
495.14	112.35
495.32	86.60
495.49	79.58
495.67	145.11
495.85	98.30
496.02	124.05
496.20	44.47
496.38	95.96
496.55	105.32
496.73	110.01
496.91	135.75
497.09	112.35
497.26	147.45
497.44	86.60
497.62	56.17
497.79	14.04
497.97	74.90
498.14	39.79
498.32	72.56
498.50	142.77
498.67	88.94
498.85	28.09
499.03	86.60
499.20	79.58
499.38	93.62
499.56	23.41
499.73	86.60
499.91	77.24
500.08	0.00
500.26	16.38
500.44	28.09
500.61	128.73
500.79	51.49
500.97	37.45
501.14	28.09
501.32	58.51
501.49	70.22
501.67	74.90
501.84	77.24
502.02	98.30
502.20	117.03
502.37	81.92
502.55	51.49
502.72	102.98
502.90	93.62
503.07	53.83
503.25	42.13
503.43	72.56
503.60	58.51
503.78	63.19
503.95	51.49
504.13	124.05
504.30	72.56
504.48	51.49
504.65	126.39
504.83	88.94
505.01	65.54
505.18	21.06
505.36	88.94
505.53	112.35
505.71	112.35
505.88	49.15
506.06	91.28
506.23	67.88
506.41	105.32
506.58	37.45
506.76	98.30
506.93	46.81
507.11	81.92
507.28	86.60
507.46	81.92
507.63	117.03
507.81	0.00
507.98	30.43
508.16	23.41
508.33	70.22
508.50	86.60
508.68	74.90
508.85	37.45
509.03	56.17
509.20	119.37
509.38	107.66
509.55	56.17
509.73	95.96
509.90	58.51
510.08	117.03
510.25	32.77
510.42	93.62
510.60	81.92
510.77	58.51
510.95	0.00
511.12	110.01
511.30	46.81
511.47	100.64
511.64	84.26
511.82	72.56
511.99	35.11
512.17	145.11
512.34	39.79
512.51	28.09
512.69	124.05
512.86	84.26
513.04	60.85
513.21	100.64
513.38	110.01
513.56	51.49
513.73	30.43
513.90	98.30
514.08	67.88
514.25	91.28
514.43	105.32
514.60	30.43
514.77	35.11
514.95	21.06
515.12	102.98
515.29	138.09
515.47	98.30
515.64	79.58
515.81	93.62
515.99	60.85
516.16	44.47
516.33	93.62
516.51	49.15
516.68	2.34
516.85	91.28
517.03	126.39
517.20	67.88
517.37	91.28
517.54	140.43
517.72	152.13
517.89	114.69
518.06	4.68
518.24	74.90
518.41	112.35
518.58	93.62
518.75	140.43
518.93	173.20
519.10	138.09
519.27	56.17
519.45	102.98
519.62	51.49
519.79	72.56
519.96	63.19
520.14	112.35
520.31	133.41
520.48	70.22
520.65	112.35
520.83	63.19
521.00	182.56
521.17	84.26
521.34	100.64
521.52	91.28
521.69	84.26
521.86	70.22
522.03	37.45
522.20	18.72
522.38	74.90
522.55	56.17
522.72	77.24
522.89	93.62
523.07	93.62
523.24	77.24
523.41	84.26
523.58	119.37
523.75	145.11
523.92	100.64
524.10	98.30
524.27	88.94
524.44	121.71
524.61	58.51
524.78	30.43
524.96	67.88
525.13	81.92
525.30	0.00
525.47	95.96
525.64	86.60
525.81	100.64
525.98	14.04
526.16	60.85
526.33	145.11
526.50	39.79
526.67	88.94
526.84	107.66
527.01	65.54
527.18	56.17
527.36	110.01
527.53	23.41
527.70	53.83
527.87	88.94
528.04	79.58
528.21	42.13
528.38	42.13
528.55	114.69
528.72	67.88
528.89	159.16
529.07	128.73
529.24	107.66
529.41	58.51
529.58	70.22
529.75	46.81
529.92	74.90
530.09	35.11
530.26	32.77
530.43	114.69
530.60	65.54
530.77	77.24
530.94	88.94
531.11	100.64
531.28	63.19
531.46	128.73
531.63	70.22
531.80	86.60
531.97	0.00
532.14	32.77
532.31	98.30
532.48	133.41
532.65	46.81
532.82	49.15
532.99	119.37
533.16	84.26
533.33	142.77
533.50	105.32
533.67	91.28
533.84	72.56
534.01	58.51
534.18	67.88
534.35	95.96
534.52	60.85
534.69	107.66
534.86	70.22
535.03	53.83
535.20	107.66
535.37	74.90
535.54	81.92
535.71	0.00
535.88	93.62
536.05	49.15
536.22	119.37
536.38	65.54
536.55	77.24
536.72	128.73
536.89	105.32
537.06	88.94
537.23	56.17
537.40	100.64
537.57	119.37
537.74	11.70
537.91	63.19
538.08	79.58
538.25	39.79
538.42	23.41
538.59	102.98
538.75	79.58
538.92	67.88
539.09	9.36
539.26	159.16
539.43	70.22
539.60	77.24
539.77	84.26
539.94	91.28
540.11	98.30
540.28	163.84
540.44	117.03
540.61	98.30
540.78	100.64
540.95	142.77
541.12	51.49
541.29	114.69
541.46	11.70
541.62	88.94
541.79	63.19
541.96	95.96
542.13	46.81
542.30	74.90
542.47	100.64
542.63	107.66
542.80	107.66
542.97	60.85
543.14	95.96
543.31	51.49
543.48	63.19
543.64	51.49
543.81	128.73
543.98	93.62
544.15	32.77
544.32	9.36
544.48	112.35
544.65	51.49
544.82	105.32
544.99	133.41
545.16	124.05
545.32	51.49
545.49	93.62
545.66	81.92
545.83	117.03
546.00	145.11
546.16	93.62
546.33	0.00
546.50	100.64
546.67	128.73
546.83	63.19
547.00	72.56
547.17	30.43
547.34	126.39
547.50	70.22
547.67	70.22
547.84	56.17
548.00	93.62
548.17	133.41
548.34	105.32
548.51	51.49
548.67	107.66
548.84	112.35
549.01	135.75
549.18	91.28
549.34	124.05
549.51	107.66
549.68	37.45
549.84	70.22
550.01	110.01
550.18	140.43
550.34	138.09
550.51	93.62
550.68	119.37
550.84	39.79
551.01	65.54
551.18	98.30
551.34	110.01
551.51	79.58
551.68	0.00
551.84	67.88
552.01	56.17
552.18	9.36
552.34	16.38
552.51	65.54
552.68	102.98
552.84	119.37
553.01	117.03
553.18	30.43
553.34	93.62
553.51	72.56
553.67	147.45
553.84	44.47
554.01	11.70
554.17	152.13
554.34	117.03
554.51	70.22
554.67	51.49
554.84	105.32
555.00	100.64
555.17	140.43
555.33	114.69
555.50	56.17
555.67	98.30
555.83	102.98
556.00	49.15
556.16	58.51
556.33	63.19
556.50	39.79
556.66	114.69
556.83	74.90
556.99	32.77
557.16	105.32
557.32	51.49
557.49	128.73
557.65	102.98
557.82	70.22
557.98	100.64
558.15	110.01
558.32	91.28
558.48	72.56
558.65	140.43
558.81	37.45
558.98	70.22
559.14	110.01
559.31	84.26
559.47	21.06
559.64	95.96
559.80	37.45
559.97	35.11
560.13	46.81
560.30	51.49
560.46	107.66
560.63	58.51
560.79	81.92
560.96	72.56
561.12	65.54
561.29	51.49
561.45	63.19
561.61	88.94
561.78	84.26
561.94	72.56
562.11	51.49
562.27	37.45
562.44	49.15
562.60	93.62
562.77	93.62
562.93	114.69
563.10	124.05
563.26	53.83
563.42	60.85
563.59	100.64
563.75	98.30
563.92	100.64
564.08	84.26
564.24	88.94
564.41	131.07
564.57	95.96
564.74	86.60
564.90	67.88
565.07	126.39
565.23	117.03
565.39	166.18
565.56	79.58
565.72	39.79
565.88	25.75
566.05	51.49
566.21	30.43
566.38	72.56
566.54	77.24
566.70	67.88
566.87	124.05
567.03	135.75
567.19	84.26
567.36	126.39
567.52	114.69
567.68	131.07
567.85	170.86
568.01	25.75
568.17	58.51
568.34	9.36
568.50	91.28
568.66	79.58
568.83	81.92
568.99	117.03
569.15	98.30
569.32	72.56
569.48	88.94
569.64	100.64
569.81	74.90
569.97	67.88
570.13	112.35
570.30	70.22
570.46	28.09
570.62	105.32
570.78	81.92
570.95	39.79
571.11	0.00
571.27	91.28
571.43	39.79
571.60	161.50
571.76	9.36
571.92	42.13
572.09	65.54
572.25	105.32
572.41	88.94
572.57	35.11
572.74	77.24
572.90	35.11
573.06	135.75
573.22	53.83
573.38	39.79
573.55	105.32
573.71	0.00
573.87	93.62
574.03	39.79
574.20	21.06
574.36	135.75
574.52	79.58
574.68	81.92
574.84	70.22
575.01	72.56
575.17	25.75
575.33	81.92
575.49	72.56
575.65	72.56
575.82	79.58
575.98	88.94
576.14	121.71
576.30	84.26
576.46	142.77
576.62	58.51
576.79	98.30
576.95	49.15
577.11	65.54
577.27	77.24
577.43	110.01
577.59	88.94
577.75	88.94
577.92	102.98
578.08	102.98
578.24	152.13
578.40	168.52
578.56	105.32
578.72	42.13
578.88	0.00
579.04	65.54
579.21	112.35
579.37	114.69
579.53	32.77
579.69	126.39
579.85	49.15
580.01	39.79
580.17	49.15
580.33	98.30
580.49	112.35
580.65	9.36
580.82	100.64
580.98	65.54
581.14	32.77
581.30	65.54
581.46	32.77
581.62	42.13
581.78	46.81
581.94	74.90
582.10	51.49
582.26	44.47
582.42	81.92
582.58	53.83
582.74	102.98
582.90	128.73
583.06	65.54
583.22	93.62
583.38	11.70
583.54	84.26
583.70	51.49
583.86	126.39
584.02	25.75
584.18	86.60
584.34	100.64
584.50	117.03
584.66	39.79
584.82	32.77
584.98	72.56
585.14	60.85
585.30	88.94
585.46	91.28
585.62	117.03
585.78	28.09
585.94	35.11
586.10	63.19
586.26	46.81
586.42	63.19
586.58	28.09
586.74	77.24
586.90	117.03
587.06	79.58
587.22	95.96
587.38	70.22
587.54	46.81
587.70	110.01
587.86	70.22
588.02	77.24
588.18	70.22
588.34	46.81
588.49	53.83
588.65	9.36
588.81	30.43
588.97	46.81
589.13	7.02
589.29	30.43
589.45	42.13
589.61	88.94
589.77	58.51
589.93	39.79
590.08	39.79
590.24	81.92
590.40	53.83
590.56	65.54
590.72	46.81
590.88	30.43
591.04	37.45
591.20	77.24
591.35	51.49
591.51	51.49
591.67	98.30
591.83	37.45
591.99	63.19
592.15	28.09
592.31	100.64
592.46	0.00
592.62	88.94
592.78	63.19
592.94	112.35
593.10	42.13
593.26	32.77
593.41	72.56
593.57	93.62
593.73	98.30
593.89	0.00
594.05	67.88
594.20	37.45
594.36	25.75
594.52	112.35
594.68	133.41
594.84	21.06
594.99	72.56
595.15	53.83
595.31	88.94
595.47	91.28
595.62	79.58
595.78	107.66
595.94	30.43
596.10	11.70
596.25	63.19
596.41	58.51
596.57	23.41
596.73	37.45
596.88	51.49
597.04	152.13
597.20	100.64
597.36	32.77
597.51	60.85
597.67	32.77
597.83	9.36
597.99	65.54
598.14	65.54
598.30	42.13
598.46	77.24
598.61	42.13
598.77	65.54
598.93	21.06
599.09	77.24
599.24	46.81
599.40	79.58
599.56	65.54
599.71	81.92
599.87	117.03
600.03	51.49
600.18	95.96
600.34	100.64
600.50	84.26
600.65	70.22
600.81	11.70
600.97	65.54
601.12	79.58
601.28	95.96
601.44	18.72
601.59	86.60
601.75	114.69
601.91	98.30
602.06	131.07
602.22	49.15
602.37	98.30
602.53	72.56
602.69	39.79
602.84	128.73
603.00	58.51
603.16	88.94
603.31	145.11
603.47	74.90
603.62	93.62
603.78	105.32
603.94	93.62
604.09	102.98
604.25	74.90
604.40	65.54
604.56	70.22
604.71	95.96
604.87	0.00
605.03	63.19
605.18	88.94
605.34	42.13
605.49	70.22
605.65	112.35
605.80	4.68
605.96	100.64
606.12	32.77
606.27	37.45
606.43	72.56
606.58	16.38
606.74	102.98
606.89	128.73
607.05	7.02
607.20	67.88
607.36	135.75
607.51	70.22
607.67	21.06
607.82	65.54
607.98	53.83
608.13	0.00
608.29	0.00
608.44	30.43
608.60	23.41
608.75	100.64
608.91	63.19
609.06	39.79
609.22	65.54
609.37	65.54
609.53	16.38
609.68	16.38
609.84	72.56
609.99	58.51
610.15	86.60
610.30	128.73
610.46	152.13
610.61	63.19
610.76	110.01
610.92	42.13
611.07	79.58
611.23	72.56
611.38	58.51
611.54	46.81
611.69	42.13
611.84	58.51
612.00	35.11
612.15	58.51
612.31	28.09
612.46	39.79
612.62	77.24
612.77	46.81
612.92	0.00
613.08	65.54
613.23	58.51
613.39	88.94
613.54	102.98
613.69	74.90
613.85	79.58
614.00	86.60
614.15	18.72
614.31	14.04
614.46	37.45
614.62	32.77
614.77	32.77
614.92	114.69
615.08	42.13
615.23	86.60
615.38	4.68
615.54	124.05
615.69	102.98
615.84	63.19
616.00	128.73
616.15	72.56
616.30	44.47
616.46	35.11
616.61	70.22
616.76	39.79
616.92	39.79
617.07	124.05
617.22	30.43
617.37	91.28
617.53	63.19
617.68	0.00
617.83	16.38
617.99	9.36
618.14	30.43
618.29	37.45
618.45	46.81
618.60	63.19
618.75	32.77
618.90	32.77
619.06	37.45
619.21	35.11
619.36	107.66
619.51	28.09
619.67	70.22
619.82	35.11
619.97	53.83
620.12	25.75
620.28	72.56
620.43	107.66
620.58	72.56
620.73	72.56
620.89	53.83
621.04	35.11
621.19	46.81
621.34	102.98
621.49	126.39
621.65	107.66
621.80	98.30
621.95	88.94
622.10	56.17
622.25	77.24
622.41	37.45
622.56	86.60
622.71	63.19
622.86	100.64
623.01	81.92
623.16	65.54
623.32	28.09
623.47	0.00
623.62	107.66
623.77	110.01
623.92	53.83
624.07	117.03
624.23	86.60
624.38	49.15
624.53	9.36
624.68	0.00
624.83	35.11
624.98	72.56
625.13	35.11
625.29	25.75
625.44	44.47
625.59	25.75
625.74	102.98
625.89	72.56
626.04	93.62
626.19	0.00
626.34	37.45
626.49	35.11
626.65	88.94
626.80	18.72
626.95	88.94
627.10	28.09
627.25	28.09
627.40	112.35
627.55	98.30
627.70	58.51
627.85	46.81
628.00	18.72
628.15	63.19
628.30	30.43
628.45	77.24
628.60	60.85
628.76	44.47
628.91	14.04
629.06	44.47
629.21	30.43
629.36	72.56
629.51	44.47
629.66	56.17
629.81	105.32
629.96	126.39
630.11	18.72
630.26	65.54
630.41	11.70
630.56	63.19
630.71	11.70
630.86	58.51
631.01	32.77
631.16	56.17
631.31	114.69
631.46	74.90
631.61	91.28
631.76	81.92
631.91	46.81
632.06	46.81
632.21	100.64
632.36	49.15
632.51	51.49
632.66	72.56
632.81	14.04
632.96	16.38
633.10	37.45
633.25	86.60
633.40	60.85
633.55	28.09
633.70	32.77
633.85	51.49
634.00	74.90
634.15	72.56
634.30	138.09
634.45	91.28
634.60	70.22
634.75	102.98
634.90	49.15
635.05	72.56
635.19	86.60
635.34	0.00
635.49	46.81
635.64	98.30
635.79	72.56
635.94	70.22
636.09	14.04
636.24	65.54
636.39	58.51
636.53	9.36
636.68	49.15
636.83	77.24
636.98	86.60
637.13	44.47
637.28	9.36
637.43	65.54
637.57	98.30
637.72	0.00
637.87	126.39
638.02	56.17
638.17	58.51
638.32	56.17
638.46	30.43
638.61	32.77
638.76	86.60
638.91	126.39
639.06	60.85
639.20	28.09
639.35	81.92
639.50	58.51
639.65	23.41
639.80	0.00
639.94	58.51
640.09	86.60
640.24	74.90
640.39	91.28
640.54	63.19
640.68	86.60
640.83	107.66
640.98	58.51
641.13	63.19
641.27	42.13
641.42	135.75
641.57	58.51
641.72	51.49
641.86	37.45
642.01	39.79
642.16	95.96
642.31	23.41
642.45	65.54
642.60	84.26
642.75	0.00
642.90	74.90
643.04	25.75
643.19	51.49
643.34	51.49
643.48	18.72
643.63	131.07
643.78	9.36
643.93	42.13
644.07	112.35
644.22	93.62
644.37	4.68
644.51	67.88
644.66	32.77
644.81	98.30
644.95	91.28
645.10	135.75
645.25	28.09
645.39	112.35
645.54	32.77
645.69	39.79
645.83	60.85
645.98	67.88
646.13	42.13
646.27	30.43
646.42	79.58
646.57	53.83
646.71	42.13
646.86	44.47
647.00	100.64
647.15	65.54
647.30	102.98
647.44	63.19
647.59	51.49
647.74	46.81
647.88	91.28
648.03	42.13
648.17	49.15
648.32	39.79
648.47	65.54
648.61	51.49
648.76	32.77
648.90	74.90
649.05	37.45
649.20	30.43
649.34	56.17
649.49	32.77
649.63	0.00
649.78	42.13
649.92	72.56
650.07	88.94
650.21	67.88
650.36	74.90
650.51	18.72
650.65	37.45
650.80	23.41
650.94	152.13
651.09	44.47
651.23	72.56
651.38	56.17
651.52	37.45
651.67	30.43
651.81	0.00
651.96	44.47
652.10	88.94
652.25	86.60
652.39	121.71
652.54	21.06
652.68	93.62
652.83	44.47
652.97	39.79
653.12	60.85
653.26	60.85
653.41	23.41
653.55	105.32
653.70	18.72
653.84	0.00
653.99	93.62
654.13	86.60
654.27	51.49
654.42	112.35
654.56	53.83
654.71	95.96
654.85	79.58
655.00	49.15
655.14	4.68
655.29	32.77
655.43	25.75
655.57	60.85
655.72	25.75
655.86	42.13
656.01	81.92
656.15	49.15
656.30	0.00
656.44	46.81
656.58	35.11
656.73	49.15
656.87	9.36
657.01	74.90
657.16	23.41
657.30	88.94
657.45	79.58
657.59	56.17
657.73	46.81
657.88	7.02
658.02	60.85
658.16	28.09
658.31	72.56
658.45	37.45
658.60	84.26
658.74	0.00
658.88	53.83
659.03	79.58
659.17	49.15
659.31	7.02
659.46	46.81
659.60	42.13
659.74	21.06
659.89	77.24
660.03	39.79
660.17	35.11
660.32	21.06
660.46	74.90
660.60	67.88
660.74	42.13
660.89	63.19
661.03	49.15
661.17	93.62
661.32	100.64
661.46	93.62
661.60	58.51
661.74	70.22
661.89	102.98
662.03	42.13
662.17	0.00
662.31	42.13
662.46	14.04
662.60	58.51
662.74	67.88
662.88	39.79
663.03	44.47
663.17	35.11
663.31	16.38
663.45	58.51
663.60	30.43
663.74	11.70
663.88	77.24
664.02	51.49
664.17	23.41
664.31	77.24
664.45	28.09
664.59	30.43
664.73	67.88
664.88	119.37
665.02	117.03
665.16	7.02
665.30	32.77
665.44	107.66
665.59	53.83
665.73	67.88
665.87	30.43
666.01	112.35
666.15	60.85
666.29	0.00
666.44	63.19
666.58	42.13
666.72	56.17
666.86	84.26
667.00	0.00
667.14	32.77
667.28	4.68
667.43	30.43
667.57	140.43
667.71	98.30
667.85	42.13
667.99	0.00
668.13	63.19
668.27	44.47
668.41	84.26
668.56	98.30
668.70	93.62
668.84	44.47
668.98	44.47
669.12	70.22
669.26	81.92
669.40	79.58
669.54	49.15
669.68	77.24
669.82	0.00
669.96	84.26
670.10	77.24
670.25	28.09
670.39	91.28
670.53	25.75
670.67	25.75
670.81	77.24
670.95	70.22
671.09	72.56
671.23	98.30
671.37	30.43
671.51	74.90
671.65	114.69
671.79	11.70
671.93	42.13
672.07	98.30
672.21	0.00
672.35	44.47
672.49	7.02
672.63	51.49
672.77	58.51
672.91	16.38
673.05	2.34
673.19	0.00
673.33	11.70
673.47	37.45
673.61	65.54
673.75	77.24
673.89	0.00
674.03	51.49
674.17	58.51
674.31	77.24
674.45	14.04
674.59	9.36
674.73	39.79
674.87	65.54
675.01	0.00
675.15	42.13
675.29	44.47
675.43	60.85
675.56	100.64
675.70	58.51
675.84	35.11
675.98	35.11
676.12	4.68
676.26	32.77
676.40	102.98
676.54	42.13
676.68	77.24
676.82	77.24
676.96	79.58
677.10	39.79
677.23	25.75
677.37	39.79
677.51	9.36
677.65	46.81
677.79	60.85
677.93	42.13
678.07	44.47
678.21	4.68
678.34	51.49
678.48	63.19
678.62	11.70
678.76	102.98
678.90	79.58
679.04	39.79
679.18	0.00
679.31	53.83
679.45	110.01
679.59	86.60
679.73	21.06
679.87	30.43
680.00	42.13
680.14	46.81
680.28	149.79
680.42	0.00
680.56	23.41
680.70	65.54
680.83	0.00
680.97	18.72
681.11	25.75
681.25	65.54
681.39	77.24
681.52	93.62
681.66	112.35
681.80	77.24
681.94	51.49
682.07	0.00
682.21	58.51
682.35	51.49
682.49	114.69
682.62	74.90
682.76	46.81
682.90	21.06
683.04	100.64
683.17	18.72
683.31	14.04
683.45	37.45
683.59	23.41
683.72	21.06
683.86	56.17
684.00	30.43
684.13	98.30
684.27	2.34
684.41	37.45
684.55	39.79
684.68	14.04
684.82	35.11
684.96	58.51
685.09	39.79
685.23	18.72
685.37	70.22
685.50	44.47
685.64	0.00
685.78	53.83
685.91	105.32
686.05	37.45
686.19	37.45
686.32	25.75
686.46	53.83
686.60	0.00
686.73	32.77
686.87	4.68
687.01	18.72
687.14	4.68
687.28	16.38
687.42	42.13
687.55	88.94
687.69	39.79
687.82	72.56
687.96	0.00
688.10	88.94
688.23	77.24
688.37	46.81
688.50	65.54
688.64	51.49
688.78	0.00
688.91	79.58
689.05	35.11
689.18	42.13
689.32	0.00
689.46	84.26
689.59	39.79
689.73	37.45
689.86	0.00
690.00	60.85
690.13	21.06
690.27	102.98
690.41	72.56
690.54	60.85
690.68	37.45
690.81	21.06
690.95	58.51
691.08	60.85
691.22	28.09
691.35	63.19
691.49	18.72
691.62	32.77
691.76	44.47
691.89	95.96
692.03	32.77
692.16	58.51
692.30	16.38
692.43	30.43
692.57	49.15
692.70	131.07
692.84	39.79
692.97	0.00
693.11	0.00
693.24	0.00
693.38	60.85
693.51	0.00
693.65	86.60
693.78	39.79
693.92	2.34
694.05	9.36
694.19	18.72
694.32	39.79
694.45	0.00
694.59	0.00
694.72	0.00
694.86	7.02
694.99	9.36
695.13	0.00
695.26	86.60
695.39	51.49
695.53	0.00
695.66	32.77
695.80	28.09
695.93	72.56
696.07	0.00
696.20	0.00
696.33	0.00
696.47	0.00
696.60	72.56
696.73	0.00
696.87	51.49
697.00	39.79
697.14	18.72
697.27	0.00
697.40	0.00
697.54	0.00
697.67	58.51
697.80	65.54
697.94	70.22
698.07	35.11
698.21	30.43
698.34	0.00
698.47	11.70
698.61	0.00
698.74	77.24
698.87	23.41
699.01	0.00
699.14	37.45
699.27	0.00
699.40	60.85
699.54	0.00
699.67	58.51
699.80	84.26
699.94	72.56
700.07	32.77
700.20	44.47
700.34	9.36
700.47	37.45
700.60	67.88
700.73	56.17
700.87	46.81
701.00	60.85
701.13	9.36
701.26	0.00
701.40	9.36
701.53	4.68
701.66	88.94
701.79	16.38
701.93	0.00
702.06	79.58
702.19	28.09
702.32	37.45
702.46	0.00
702.59	30.43
702.72	25.75
702.85	28.09
702.99	21.06
703.12	7.02
703.25	39.79
703.38	23.41
703.51	93.62
703.65	102.98
703.78	0.00
703.91	14.04
704.04	23.41
704.17	0.00
704.31	0.00
704.44	39.79
704.57	58.51
704.70	81.92
704.83	105.32
704.96	0.00
705.10	11.70
705.23	0.00
>>>>>End Processed Spectral Data<<<<<
