SpectraSuite Data File
++++++++++++++++++++++++++++++++++++
Date: Fri Oct 04 12:13:33 GMT-05:00 2013
User: price-jones
Dark Spectrum Present: No
Reference Spectrum Present: No
Number of Sampled Component Spectra: 1
Spectrometers: USB2+H05261
Integration Time (usec): 10000 (USB2+H05261)
Spectra Averaged: 1 (USB2+H05261)
Boxcar Smoothing: 0 (USB2+H05261)
Correct for Electrical Dark: No (USB2+H05261)
Strobe/Lamp Enabled: No (USB2+H05261)
Correct for Detector Non-linearity: No (USB2+H05261)
Correct for Stray Light: No (USB2+H05261)
Number of Pixels in Processed Spectrum: 2048
>>>>>Begin Processed Spectral Data<<<<<
365.73	23.41
365.92	23.41
366.12	23.41
366.32	0.00
366.52	0.00
366.72	0.00
366.91	0.00
367.11	0.00
367.31	0.00
367.51	0.00
367.70	0.00
367.90	0.00
368.10	0.00
368.30	0.00
368.49	0.00
368.69	0.00
368.89	0.00
369.09	0.00
369.28	0.00
369.48	0.00
369.68	0.00
369.87	0.00
370.07	0.00
370.27	0.00
370.47	0.00
370.66	21.06
370.86	0.00
371.06	11.70
371.25	0.00
371.45	4.68
371.65	0.00
371.84	16.38
372.04	2.34
372.24	32.77
372.44	51.49
372.63	4.68
372.83	25.75
373.03	56.17
373.22	23.41
373.42	0.00
373.62	51.49
373.81	23.41
374.01	37.45
374.21	72.56
374.40	25.75
374.60	39.79
374.79	37.45
374.99	16.38
375.19	84.26
375.38	21.06
375.58	0.00
375.78	30.43
375.97	72.56
376.17	21.06
376.37	0.00
376.56	56.17
376.76	14.04
376.95	21.06
377.15	0.00
377.35	18.72
377.54	21.06
377.74	72.56
377.93	0.00
378.13	0.00
378.33	18.72
378.52	0.00
378.72	42.13
378.91	0.00
379.11	4.68
379.31	0.00
379.50	0.00
379.70	18.72
379.89	30.43
380.09	30.43
380.28	0.00
380.48	32.77
380.68	0.00
380.87	21.06
381.07	0.00
381.26	4.68
381.46	0.00
381.65	42.13
381.85	0.00
382.04	25.75
382.24	0.00
382.43	60.85
382.63	0.00
382.83	9.36
383.02	16.38
383.22	88.94
383.41	46.81
383.61	0.00
383.80	18.72
384.00	0.00
384.19	0.00
384.39	28.09
384.58	7.02
384.78	67.88
384.97	0.00
385.17	58.51
385.36	0.00
385.56	30.43
385.75	98.30
385.95	9.36
386.14	0.00
386.34	65.54
386.53	7.02
386.72	0.00
386.92	37.45
387.11	0.00
387.31	0.00
387.50	0.00
387.70	51.49
387.89	0.00
388.09	2.34
388.28	2.34
388.48	0.00
388.67	0.00
388.86	46.81
389.06	0.00
389.25	0.00
389.45	0.00
389.64	35.11
389.84	0.00
390.03	0.00
390.22	16.38
390.42	42.13
390.61	72.56
390.81	67.88
391.00	7.02
391.19	28.09
391.39	0.00
391.58	21.06
391.78	16.38
391.97	0.00
392.16	32.77
392.36	2.34
392.55	53.83
392.75	37.45
392.94	0.00
393.13	0.00
393.33	14.04
393.52	67.88
393.71	14.04
393.91	0.00
394.10	84.26
394.29	23.41
394.49	30.43
394.68	21.06
394.88	65.54
395.07	138.09
395.26	0.00
395.46	53.83
395.65	0.00
395.84	4.68
396.04	65.54
396.23	65.54
396.42	28.09
396.62	32.77
396.81	32.77
397.00	11.70
397.19	79.58
397.39	56.17
397.58	42.13
397.77	35.11
397.97	124.05
398.16	0.00
398.35	95.96
398.55	0.00
398.74	14.04
398.93	0.00
399.12	0.00
399.32	14.04
399.51	0.00
399.70	23.41
399.90	0.00
400.09	11.70
400.28	46.81
400.47	0.00
400.67	56.17
400.86	37.45
401.05	0.00
401.24	23.41
401.44	9.36
401.63	44.47
401.82	32.77
402.01	14.04
402.21	0.00
402.40	21.06
402.59	2.34
402.78	72.56
402.97	18.72
403.17	77.24
403.36	44.47
403.55	46.81
403.74	0.00
403.93	67.88
404.13	32.77
404.32	0.00
404.51	0.00
404.70	72.56
404.89	60.85
405.09	86.60
405.28	0.00
405.47	0.00
405.66	51.49
405.85	0.00
406.05	46.81
406.24	28.09
406.43	44.47
406.62	32.77
406.81	124.05
407.00	21.06
407.20	0.00
407.39	23.41
407.58	7.02
407.77	81.92
407.96	39.79
408.15	44.47
408.34	37.45
408.54	7.02
408.73	32.77
408.92	4.68
409.11	72.56
409.30	21.06
409.49	39.79
409.68	21.06
409.87	0.00
410.07	0.00
410.26	0.00
410.45	30.43
410.64	0.00
410.83	70.22
411.02	53.83
411.21	16.38
411.40	58.51
411.59	0.00
411.78	32.77
411.98	14.04
412.17	0.00
412.36	60.85
412.55	0.00
412.74	30.43
412.93	91.28
413.12	25.75
413.31	51.49
413.50	53.83
413.69	4.68
413.88	30.43
414.07	102.98
414.26	44.47
414.45	16.38
414.64	74.90
414.83	60.85
415.02	53.83
415.22	7.02
415.41	35.11
415.60	53.83
415.79	37.45
415.98	51.49
416.17	79.58
416.36	7.02
416.55	42.13
416.74	32.77
416.93	112.35
417.12	37.45
417.31	4.68
417.50	51.49
417.69	51.49
417.88	44.47
418.07	35.11
418.26	32.77
418.45	42.13
418.64	32.77
418.83	0.00
419.02	0.00
419.21	65.54
419.39	35.11
419.58	35.11
419.77	39.79
419.96	44.47
420.15	0.00
420.34	35.11
420.53	30.43
420.72	74.90
420.91	91.28
421.10	28.09
421.29	16.38
421.48	21.06
421.67	102.98
421.86	58.51
422.05	21.06
422.24	79.58
422.43	51.49
422.61	56.17
422.80	74.90
422.99	9.36
423.18	74.90
423.37	37.45
423.56	51.49
423.75	51.49
423.94	63.19
424.13	58.51
424.32	0.00
424.50	32.77
424.69	0.00
424.88	53.83
425.07	30.43
425.26	0.00
425.45	0.00
425.64	49.15
425.83	49.15
426.01	23.41
426.20	28.09
426.39	58.51
426.58	58.51
426.77	70.22
426.96	7.02
427.15	46.81
427.33	46.81
427.52	4.68
427.71	0.00
427.90	30.43
428.09	74.90
428.28	23.41
428.46	9.36
428.65	67.88
428.84	63.19
429.03	0.00
429.22	7.02
429.40	72.56
429.59	49.15
429.78	28.09
429.97	60.85
430.16	32.77
430.34	58.51
430.53	0.00
430.72	58.51
430.91	35.11
431.10	0.00
431.28	4.68
431.47	35.11
431.66	7.02
431.85	16.38
432.03	107.66
432.22	74.90
432.41	74.90
432.60	0.00
432.79	37.45
432.97	0.00
433.16	0.00
433.35	44.47
433.54	0.00
433.72	0.00
433.91	9.36
434.10	44.47
434.28	32.77
434.47	35.11
434.66	63.19
434.85	0.00
435.03	58.51
435.22	4.68
435.41	0.00
435.59	58.51
435.78	18.72
435.97	23.41
436.16	0.00
436.34	18.72
436.53	51.49
436.72	35.11
436.90	88.94
437.09	28.09
437.28	35.11
437.46	37.45
437.65	0.00
437.84	67.88
438.02	0.00
438.21	0.00
438.40	65.54
438.58	21.06
438.77	51.49
438.96	44.47
439.14	86.60
439.33	0.00
439.52	42.13
439.70	14.04
439.89	0.00
440.08	51.49
440.26	51.49
440.45	105.32
440.63	21.06
440.82	2.34
441.01	77.24
441.19	93.62
441.38	79.58
441.57	39.79
441.75	32.77
441.94	14.04
442.12	0.00
442.31	0.00
442.50	25.75
442.68	18.72
442.87	44.47
443.05	16.38
443.24	42.13
443.43	28.09
443.61	28.09
443.80	107.66
443.98	65.54
444.17	70.22
444.35	37.45
444.54	84.26
444.73	11.70
444.91	102.98
445.10	72.56
445.28	58.51
445.47	32.77
445.65	51.49
445.84	114.69
446.02	124.05
446.21	60.85
446.39	0.00
446.58	7.02
446.77	18.72
446.95	79.58
447.14	49.15
447.32	28.09
447.51	21.06
447.69	21.06
447.88	98.30
448.06	67.88
448.25	77.24
448.43	21.06
448.62	0.00
448.80	0.00
448.99	49.15
449.17	60.85
449.36	32.77
449.54	0.00
449.73	0.00
449.91	77.24
450.10	28.09
450.28	39.79
450.46	16.38
450.65	4.68
450.83	124.05
451.02	86.60
451.20	21.06
451.39	0.00
451.57	79.58
451.76	98.30
451.94	32.77
452.13	100.64
452.31	39.79
452.49	44.47
452.68	46.81
452.86	58.51
453.05	16.38
453.23	4.68
453.42	100.64
453.60	63.19
453.78	37.45
453.97	51.49
454.15	0.00
454.34	0.00
454.52	46.81
454.70	0.00
454.89	56.17
455.07	16.38
455.26	16.38
455.44	37.45
455.62	58.51
455.81	0.00
455.99	105.32
456.17	49.15
456.36	46.81
456.54	100.64
456.73	51.49
456.91	56.17
457.09	0.00
457.28	81.92
457.46	72.56
457.64	95.96
457.83	21.06
458.01	0.00
458.19	77.24
458.38	0.00
458.56	110.01
458.74	0.00
458.93	0.00
459.11	74.90
459.29	11.70
459.48	0.00
459.66	0.00
459.84	121.71
460.03	79.58
460.21	14.04
460.39	32.77
460.57	32.77
460.76	126.39
460.94	35.11
461.12	46.81
461.31	39.79
461.49	7.02
461.67	35.11
461.85	58.51
462.04	16.38
462.22	110.01
462.40	4.68
462.59	107.66
462.77	60.85
462.95	42.13
463.13	110.01
463.32	14.04
463.50	35.11
463.68	86.60
463.86	0.00
464.05	14.04
464.23	39.79
464.41	77.24
464.59	0.00
464.78	56.17
464.96	39.79
465.14	25.75
465.32	42.13
465.50	18.72
465.69	58.51
465.87	37.45
466.05	11.70
466.23	51.49
466.41	30.43
466.60	23.41
466.78	88.94
466.96	65.54
467.14	0.00
467.32	0.00
467.51	14.04
467.69	35.11
467.87	42.13
468.05	2.34
468.23	18.72
468.41	7.02
468.60	53.83
468.78	65.54
468.96	21.06
469.14	56.17
469.32	42.13
469.50	65.54
469.69	30.43
469.87	28.09
470.05	102.98
470.23	49.15
470.41	53.83
470.59	0.00
470.77	56.17
470.95	51.49
471.14	49.15
471.32	58.51
471.50	51.49
471.68	2.34
471.86	30.43
472.04	0.00
472.22	60.85
472.40	63.19
472.58	35.11
472.77	30.43
472.95	51.49
473.13	49.15
473.31	124.05
473.49	67.88
473.67	91.28
473.85	88.94
474.03	42.13
474.21	16.38
474.39	42.13
474.57	42.13
474.75	32.77
474.93	30.43
475.12	65.54
475.30	53.83
475.48	53.83
475.66	44.47
475.84	74.90
476.02	0.00
476.20	0.00
476.38	63.19
476.56	88.94
476.74	0.00
476.92	37.45
477.10	23.41
477.28	32.77
477.46	0.00
477.64	49.15
477.82	18.72
478.00	4.68
478.18	72.56
478.36	0.00
478.54	28.09
478.72	30.43
478.90	0.00
479.08	135.75
479.26	0.00
479.44	30.43
479.62	14.04
479.80	42.13
479.98	16.38
480.16	37.45
480.34	95.96
480.52	35.11
480.70	0.00
480.88	58.51
481.06	131.07
481.24	46.81
481.41	0.00
481.59	35.11
481.77	51.49
481.95	0.00
482.13	23.41
482.31	98.30
482.49	0.00
482.67	23.41
482.85	0.00
483.03	0.00
483.21	44.47
483.39	51.49
483.57	84.26
483.74	21.06
483.92	0.00
484.10	46.81
484.28	25.75
484.46	44.47
484.64	9.36
484.82	37.45
485.00	11.70
485.18	0.00
485.35	32.77
485.53	0.00
485.71	0.00
485.89	51.49
486.07	60.85
486.25	2.34
486.43	32.77
486.61	46.81
486.78	28.09
486.96	11.70
487.14	46.81
487.32	63.19
487.50	23.41
487.68	107.66
487.85	49.15
488.03	37.45
488.21	128.73
488.39	79.58
488.57	49.15
488.75	98.30
488.92	65.54
489.10	56.17
489.28	11.70
489.46	23.41
489.64	0.00
489.81	124.05
489.99	60.85
490.17	53.83
490.35	84.26
490.53	84.26
490.70	18.72
490.88	65.54
491.06	30.43
491.24	46.81
491.41	37.45
491.59	56.17
491.77	0.00
491.95	84.26
492.13	65.54
492.30	65.54
492.48	187.24
492.66	18.72
492.84	16.38
493.01	37.45
493.19	39.79
493.37	91.28
493.54	46.81
493.72	110.01
493.90	30.43
494.08	0.00
494.25	0.00
494.43	32.77
494.61	23.41
494.79	0.00
494.96	88.94
495.14	25.75
495.32	28.09
495.49	79.58
495.67	72.56
495.85	51.49
496.02	93.62
496.20	49.15
496.38	23.41
496.55	53.83
496.73	18.72
496.91	70.22
497.09	84.26
497.26	72.56
497.44	9.36
497.62	35.11
497.79	126.39
497.97	53.83
498.14	84.26
498.32	46.81
498.50	70.22
498.67	0.00
498.85	30.43
499.03	39.79
499.20	72.56
499.38	0.00
499.56	53.83
499.73	65.54
499.91	58.51
500.08	46.81
500.26	91.28
500.44	42.13
500.61	63.19
500.79	37.45
500.97	95.96
501.14	53.83
501.32	98.30
501.49	30.43
501.67	0.00
501.84	58.51
502.02	91.28
502.20	53.83
502.37	88.94
502.55	0.00
502.72	63.19
502.90	91.28
503.07	58.51
503.25	114.69
503.43	72.56
503.60	60.85
503.78	46.81
503.95	84.26
504.13	11.70
504.30	18.72
504.48	65.54
504.65	63.19
504.83	119.37
505.01	0.00
505.18	37.45
505.36	32.77
505.53	0.00
505.71	37.45
505.88	86.60
506.06	58.51
506.23	105.32
506.41	11.70
506.58	39.79
506.76	53.83
506.93	0.00
507.11	77.24
507.28	88.94
507.46	44.47
507.63	0.00
507.81	2.34
507.98	154.48
508.16	91.28
508.33	107.66
508.50	70.22
508.68	23.41
508.85	63.19
509.03	0.00
509.20	0.00
509.38	0.00
509.55	23.41
509.73	67.88
509.90	46.81
510.08	53.83
510.25	107.66
510.42	9.36
510.60	70.22
510.77	81.92
510.95	51.49
511.12	53.83
511.30	0.00
511.47	0.00
511.64	56.17
511.82	98.30
511.99	72.56
512.17	51.49
512.34	9.36
512.51	11.70
512.69	42.13
512.86	0.00
513.04	37.45
513.21	4.68
513.38	65.54
513.56	42.13
513.73	16.38
513.90	9.36
514.08	0.00
514.25	56.17
514.43	18.72
514.60	37.45
514.77	28.09
514.95	16.38
515.12	32.77
515.29	21.06
515.47	4.68
515.64	91.28
515.81	56.17
515.99	25.75
516.16	0.00
516.33	25.75
516.51	11.70
516.68	74.90
516.85	84.26
517.03	81.92
517.20	32.77
517.37	93.62
517.54	70.22
517.72	49.15
517.89	0.00
518.06	39.79
518.24	131.07
518.41	58.51
518.58	37.45
518.75	98.30
518.93	7.02
519.10	30.43
519.27	44.47
519.45	60.85
519.62	28.09
519.79	46.81
519.96	91.28
520.14	11.70
520.31	18.72
520.48	58.51
520.65	35.11
520.83	49.15
521.00	91.28
521.17	18.72
521.34	98.30
521.52	72.56
521.69	67.88
521.86	49.15
522.03	42.13
522.20	16.38
522.38	46.81
522.55	32.77
522.72	53.83
522.89	70.22
523.07	32.77
523.24	9.36
523.41	42.13
523.58	74.90
523.75	91.28
523.92	0.00
524.10	53.83
524.27	46.81
524.44	30.43
524.61	65.54
524.78	21.06
524.96	77.24
525.13	67.88
525.30	35.11
525.47	21.06
525.64	18.72
525.81	67.88
525.98	30.43
526.16	114.69
526.33	77.24
526.50	7.02
526.67	39.79
526.84	0.00
527.01	39.79
527.18	2.34
527.36	72.56
527.53	74.90
527.70	84.26
527.87	16.38
528.04	98.30
528.21	95.96
528.38	56.17
528.55	2.34
528.72	60.85
528.89	39.79
529.07	0.00
529.24	2.34
529.41	37.45
529.58	77.24
529.75	25.75
529.92	67.88
530.09	126.39
530.26	58.51
530.43	23.41
530.60	0.00
530.77	112.35
530.94	58.51
531.11	79.58
531.28	53.83
531.46	49.15
531.63	18.72
531.80	126.39
531.97	105.32
532.14	65.54
532.31	4.68
532.48	100.64
532.65	51.49
532.82	58.51
532.99	105.32
533.16	81.92
533.33	84.26
533.50	30.43
533.67	0.00
533.84	95.96
534.01	88.94
534.18	37.45
534.35	77.24
534.52	44.47
534.69	21.06
534.86	49.15
535.03	30.43
535.20	44.47
535.37	63.19
535.54	30.43
535.71	39.79
535.88	49.15
536.05	58.51
536.22	58.51
536.38	28.09
536.55	58.51
536.72	35.11
536.89	35.11
537.06	39.79
537.23	98.30
537.40	53.83
537.57	28.09
537.74	63.19
537.91	72.56
538.08	32.77
538.25	79.58
538.42	145.11
538.59	56.17
538.75	0.00
538.92	35.11
539.09	56.17
539.26	105.32
539.43	58.51
539.60	74.90
539.77	23.41
539.94	37.45
540.11	46.81
540.28	51.49
540.44	32.77
540.61	72.56
540.78	51.49
540.95	63.19
541.12	65.54
541.29	74.90
541.46	70.22
541.62	72.56
541.79	77.24
541.96	77.24
542.13	35.11
542.30	77.24
542.47	98.30
542.63	65.54
542.80	9.36
542.97	35.11
543.14	56.17
543.31	18.72
543.48	88.94
543.64	77.24
543.81	11.70
543.98	77.24
544.15	91.28
544.32	44.47
544.48	72.56
544.65	84.26
544.82	77.24
544.99	58.51
545.16	30.43
545.32	0.00
545.49	63.19
545.66	88.94
545.83	35.11
546.00	49.15
546.16	11.70
546.33	42.13
546.50	14.04
546.67	65.54
546.83	79.58
547.00	124.05
547.17	86.60
547.34	98.30
547.50	49.15
547.67	39.79
547.84	100.64
548.00	91.28
548.17	21.06
548.34	67.88
548.51	114.69
548.67	25.75
548.84	81.92
549.01	53.83
549.18	14.04
549.34	0.00
549.51	102.98
549.68	93.62
549.84	30.43
550.01	0.00
550.18	105.32
550.34	11.70
550.51	140.43
550.68	4.68
550.84	74.90
551.01	46.81
551.18	21.06
551.34	0.00
551.51	53.83
551.68	51.49
551.84	44.47
552.01	32.77
552.18	60.85
552.34	28.09
552.51	70.22
552.68	105.32
552.84	65.54
553.01	91.28
553.18	84.26
553.34	0.00
553.51	81.92
553.67	14.04
553.84	114.69
554.01	110.01
554.17	18.72
554.34	28.09
554.51	0.00
554.67	42.13
554.84	2.34
555.00	9.36
555.17	32.77
555.33	88.94
555.50	32.77
555.67	21.06
555.83	84.26
556.00	72.56
556.16	39.79
556.33	77.24
556.50	0.00
556.66	39.79
556.83	56.17
556.99	0.00
557.16	0.00
557.32	23.41
557.49	53.83
557.65	72.56
557.82	21.06
557.98	91.28
558.15	117.03
558.32	70.22
558.48	53.83
558.65	9.36
558.81	37.45
558.98	70.22
559.14	110.01
559.31	88.94
559.47	4.68
559.64	84.26
559.80	14.04
559.97	88.94
560.13	93.62
560.30	60.85
560.46	46.81
560.63	72.56
560.79	37.45
560.96	79.58
561.12	93.62
561.29	37.45
561.45	35.11
561.61	58.51
561.78	67.88
561.94	63.19
562.11	39.79
562.27	65.54
562.44	0.00
562.60	0.00
562.77	56.17
562.93	25.75
563.10	126.39
563.26	49.15
563.42	25.75
563.59	35.11
563.75	32.77
563.92	46.81
564.08	72.56
564.24	0.00
564.41	79.58
564.57	84.26
564.74	49.15
564.90	56.17
565.07	74.90
565.23	98.30
565.39	0.00
565.56	28.09
565.72	65.54
565.88	42.13
566.05	42.13
566.21	18.72
566.38	30.43
566.54	74.90
566.70	63.19
566.87	100.64
567.03	18.72
567.19	42.13
567.36	49.15
567.52	49.15
567.68	39.79
567.85	93.62
568.01	70.22
568.17	98.30
568.34	60.85
568.50	30.43
568.66	0.00
568.83	72.56
568.99	84.26
569.15	88.94
569.32	88.94
569.48	74.90
569.64	37.45
569.81	60.85
569.97	79.58
570.13	63.19
570.30	149.79
570.46	18.72
570.62	42.13
570.78	14.04
570.95	23.41
571.11	18.72
571.27	39.79
571.43	0.00
571.60	0.00
571.76	14.04
571.92	37.45
572.09	77.24
572.25	2.34
572.41	100.64
572.57	18.72
572.74	30.43
572.90	21.06
573.06	60.85
573.22	16.38
573.38	46.81
573.55	0.00
573.71	60.85
573.87	58.51
574.03	49.15
574.20	0.00
574.36	86.60
574.52	44.47
574.68	30.43
574.84	42.13
575.01	51.49
575.17	42.13
575.33	56.17
575.49	21.06
575.65	58.51
575.82	7.02
575.98	67.88
576.14	56.17
576.30	53.83
576.46	35.11
576.62	14.04
576.79	18.72
576.95	86.60
577.11	102.98
577.27	39.79
577.43	0.00
577.59	77.24
577.75	0.00
577.92	32.77
578.08	4.68
578.24	4.68
578.40	56.17
578.56	30.43
578.72	14.04
578.88	32.77
579.04	72.56
579.21	91.28
579.37	0.00
579.53	79.58
579.69	84.26
579.85	67.88
580.01	93.62
580.17	56.17
580.33	46.81
580.49	53.83
580.65	18.72
580.82	88.94
580.98	58.51
581.14	0.00
581.30	32.77
581.46	30.43
581.62	30.43
581.78	4.68
581.94	56.17
582.10	102.98
582.26	9.36
582.42	98.30
582.58	100.64
582.74	72.56
582.90	84.26
583.06	65.54
583.22	16.38
583.38	84.26
583.54	37.45
583.70	2.34
583.86	0.00
584.02	161.50
584.18	49.15
584.34	7.02
584.50	39.79
584.66	25.75
584.82	88.94
584.98	0.00
585.14	56.17
585.30	28.09
585.46	56.17
585.62	23.41
585.78	35.11
585.94	37.45
586.10	51.49
586.26	93.62
586.42	35.11
586.58	93.62
586.74	81.92
586.90	74.90
587.06	25.75
587.22	30.43
587.38	42.13
587.54	0.00
587.70	4.68
587.86	84.26
588.02	102.98
588.18	11.70
588.34	49.15
588.49	65.54
588.65	86.60
588.81	107.66
588.97	44.47
589.13	37.45
589.29	46.81
589.45	102.98
589.61	2.34
589.77	23.41
589.93	4.68
590.08	56.17
590.24	9.36
590.40	0.00
590.56	70.22
590.72	81.92
590.88	0.00
591.04	42.13
591.20	56.17
591.35	110.01
591.51	63.19
591.67	0.00
591.83	58.51
591.99	53.83
592.15	70.22
592.31	63.19
592.46	4.68
592.62	35.11
592.78	42.13
592.94	72.56
593.10	0.00
593.26	14.04
593.41	63.19
593.57	63.19
593.73	84.26
593.89	58.51
594.05	18.72
594.20	0.00
594.36	25.75
594.52	18.72
594.68	39.79
594.84	37.45
594.99	79.58
595.15	79.58
595.31	42.13
595.47	23.41
595.62	7.02
595.78	14.04
595.94	105.32
596.10	0.00
596.25	4.68
596.41	0.00
596.57	21.06
596.73	117.03
596.88	42.13
597.04	67.88
597.20	44.47
597.36	53.83
597.51	100.64
597.67	30.43
597.83	23.41
597.99	39.79
598.14	65.54
598.30	2.34
598.46	14.04
598.61	114.69
598.77	67.88
598.93	79.58
599.09	2.34
599.24	58.51
599.40	0.00
599.56	114.69
599.71	39.79
599.87	93.62
600.03	44.47
600.18	32.77
600.34	133.41
600.50	105.32
600.65	84.26
600.81	25.75
600.97	0.00
601.12	107.66
601.28	0.00
601.44	0.00
601.59	16.38
601.75	39.79
601.91	159.16
602.06	23.41
602.22	58.51
602.37	84.26
602.53	39.79
602.69	63.19
602.84	67.88
603.00	124.05
603.16	0.00
603.31	44.47
603.47	42.13
603.62	100.64
603.78	32.77
603.94	56.17
604.09	88.94
604.25	25.75
604.40	28.09
604.56	37.45
604.71	77.24
604.87	102.98
605.03	63.19
605.18	46.81
605.34	79.58
605.49	2.34
605.65	4.68
605.80	32.77
605.96	42.13
606.12	32.77
606.27	0.00
606.43	0.00
606.58	53.83
606.74	0.00
606.89	37.45
607.05	79.58
607.20	16.38
607.36	58.51
607.51	32.77
607.67	77.24
607.82	4.68
607.98	0.00
608.13	0.00
608.29	0.00
608.44	84.26
608.60	23.41
608.75	0.00
608.91	7.02
609.06	0.00
609.22	79.58
609.37	65.54
609.53	4.68
609.68	30.43
609.84	0.00
609.99	16.38
610.15	32.77
610.30	51.49
610.46	53.83
610.61	58.51
610.76	56.17
610.92	4.68
611.07	9.36
611.23	37.45
611.38	126.39
611.54	7.02
611.69	18.72
611.84	60.85
612.00	42.13
612.15	0.00
612.31	81.92
612.46	21.06
612.62	18.72
612.77	119.37
612.92	0.00
613.08	79.58
613.23	51.49
613.39	81.92
613.54	79.58
613.69	65.54
613.85	39.79
614.00	46.81
614.15	58.51
614.31	4.68
614.46	112.35
614.62	0.00
614.77	0.00
614.92	0.00
615.08	21.06
615.23	0.00
615.38	37.45
615.54	16.38
615.69	9.36
615.84	42.13
616.00	58.51
616.15	30.43
616.30	0.00
616.46	37.45
616.61	58.51
616.76	4.68
616.92	72.56
617.07	58.51
617.22	93.62
617.37	4.68
617.53	112.35
617.68	42.13
617.83	102.98
617.99	14.04
618.14	79.58
618.29	37.45
618.45	46.81
618.60	70.22
618.75	0.00
618.90	37.45
619.06	0.00
619.21	114.69
619.36	30.43
619.51	51.49
619.67	84.26
619.82	0.00
619.97	88.94
620.12	44.47
620.28	74.90
620.43	81.92
620.58	14.04
620.73	35.11
620.89	51.49
621.04	86.60
621.19	11.70
621.34	86.60
621.49	114.69
621.65	81.92
621.80	72.56
621.95	110.01
622.10	72.56
622.25	63.19
622.41	0.00
622.56	28.09
622.71	102.98
622.86	42.13
623.01	65.54
623.16	51.49
623.32	44.47
623.47	21.06
623.62	60.85
623.77	37.45
623.92	16.38
624.07	81.92
624.23	63.19
624.38	77.24
624.53	28.09
624.68	0.00
624.83	18.72
624.98	2.34
625.13	74.90
625.29	23.41
625.44	28.09
625.59	65.54
625.74	79.58
625.89	23.41
626.04	0.00
626.19	42.13
626.34	77.24
626.49	37.45
626.65	42.13
626.80	21.06
626.95	49.15
627.10	35.11
627.25	39.79
627.40	30.43
627.55	42.13
627.70	53.83
627.85	35.11
628.00	30.43
628.15	65.54
628.30	119.37
628.45	37.45
628.60	32.77
628.76	67.88
628.91	28.09
629.06	79.58
629.21	21.06
629.36	32.77
629.51	67.88
629.66	74.90
629.81	70.22
629.96	91.28
630.11	23.41
630.26	84.26
630.41	4.68
630.56	102.98
630.71	65.54
630.86	0.00
631.01	49.15
631.16	63.19
631.31	32.77
631.46	42.13
631.61	81.92
631.76	93.62
631.91	14.04
632.06	0.00
632.21	95.96
632.36	7.02
632.51	49.15
632.66	70.22
632.81	18.72
632.96	0.00
633.10	0.00
633.25	30.43
633.40	84.26
633.55	0.00
633.70	77.24
633.85	49.15
634.00	79.58
634.15	56.17
634.30	60.85
634.45	37.45
634.60	56.17
634.75	21.06
634.90	72.56
635.05	32.77
635.19	23.41
635.34	0.00
635.49	53.83
635.64	49.15
635.79	16.38
635.94	102.98
636.09	117.03
636.24	53.83
636.39	95.96
636.53	14.04
636.68	28.09
636.83	39.79
636.98	140.43
637.13	42.13
637.28	32.77
637.43	110.01
637.57	25.75
637.72	39.79
637.87	58.51
638.02	0.00
638.17	37.45
638.32	32.77
638.46	84.26
638.61	77.24
638.76	39.79
638.91	51.49
639.06	56.17
639.20	4.68
639.35	30.43
639.50	11.70
639.65	58.51
639.80	25.75
639.94	93.62
640.09	0.00
640.24	98.30
640.39	44.47
640.54	16.38
640.68	42.13
640.83	42.13
640.98	51.49
641.13	39.79
641.27	4.68
641.42	74.90
641.57	70.22
641.72	32.77
641.86	58.51
642.01	18.72
642.16	67.88
642.31	25.75
642.45	46.81
642.60	46.81
642.75	65.54
642.90	0.00
643.04	23.41
643.19	84.26
643.34	16.38
643.48	53.83
643.63	53.83
643.78	35.11
643.93	0.00
644.07	60.85
644.22	9.36
644.37	112.35
644.51	37.45
644.66	37.45
644.81	49.15
644.95	74.90
645.10	95.96
645.25	0.00
645.39	32.77
645.54	11.70
645.69	100.64
645.83	67.88
645.98	51.49
646.13	46.81
646.27	72.56
646.42	25.75
646.57	28.09
646.71	0.00
646.86	60.85
647.00	23.41
647.15	28.09
647.30	16.38
647.44	28.09
647.59	67.88
647.74	7.02
647.88	7.02
648.03	23.41
648.17	23.41
648.32	65.54
648.47	74.90
648.61	44.47
648.76	32.77
648.90	0.00
649.05	44.47
649.20	16.38
649.34	72.56
649.49	16.38
649.63	44.47
649.78	81.92
649.92	60.85
650.07	49.15
650.21	37.45
650.36	0.00
650.51	84.26
650.65	25.75
650.80	28.09
650.94	0.00
651.09	32.77
651.23	4.68
651.38	42.13
651.52	74.90
651.67	77.24
651.81	84.26
651.96	51.49
652.10	149.79
652.25	100.64
652.39	51.49
652.54	4.68
652.68	42.13
652.83	30.43
652.97	98.30
653.12	74.90
653.26	58.51
653.41	100.64
653.55	60.85
653.70	0.00
653.84	58.51
653.99	0.00
654.13	56.17
654.27	86.60
654.42	88.94
654.56	25.75
654.71	46.81
654.85	11.70
655.00	37.45
655.14	46.81
655.29	42.13
655.43	67.88
655.57	51.49
655.72	77.24
655.86	70.22
656.01	67.88
656.15	0.00
656.30	25.75
656.44	25.75
656.58	60.85
656.73	112.35
656.87	60.85
657.01	58.51
657.16	39.79
657.30	18.72
657.45	70.22
657.59	28.09
657.73	72.56
657.88	0.00
658.02	0.00
658.16	23.41
658.31	105.32
658.45	9.36
658.60	0.00
658.74	81.92
658.88	60.85
659.03	93.62
659.17	107.66
659.31	0.00
659.46	7.02
659.60	86.60
659.74	4.68
659.89	25.75
660.03	0.00
660.17	81.92
660.32	86.60
660.46	14.04
660.60	11.70
660.74	49.15
660.89	30.43
661.03	100.64
661.17	44.47
661.32	37.45
661.46	14.04
661.60	0.00
661.74	32.77
661.89	23.41
662.03	79.58
662.17	0.00
662.31	72.56
662.46	25.75
662.60	84.26
662.74	28.09
662.88	39.79
663.03	0.00
663.17	18.72
663.31	0.00
663.45	23.41
663.60	124.05
663.74	11.70
663.88	46.81
664.02	44.47
664.17	16.38
664.31	42.13
664.45	53.83
664.59	23.41
664.73	23.41
664.88	46.81
665.02	32.77
665.16	42.13
665.30	79.58
665.44	28.09
665.59	9.36
665.73	84.26
665.87	35.11
666.01	67.88
666.15	37.45
666.29	32.77
666.44	0.00
666.58	32.77
666.72	39.79
666.86	16.38
667.00	44.47
667.14	107.66
667.28	53.83
667.43	67.88
667.57	30.43
667.71	72.56
667.85	0.00
667.99	67.88
668.13	25.75
668.27	70.22
668.41	0.00
668.56	32.77
668.70	53.83
668.84	0.00
668.98	16.38
669.12	21.06
669.26	32.77
669.40	46.81
669.54	4.68
669.68	14.04
669.82	39.79
669.96	49.15
670.10	53.83
670.25	37.45
670.39	95.96
670.53	0.00
670.67	98.30
670.81	56.17
670.95	110.01
671.09	95.96
671.23	28.09
671.37	77.24
671.51	95.96
671.65	0.00
671.79	0.00
671.93	18.72
672.07	37.45
672.21	65.54
672.35	0.00
672.49	21.06
672.63	4.68
672.77	0.00
672.91	51.49
673.05	74.90
673.19	0.00
673.33	56.17
673.47	60.85
673.61	63.19
673.75	32.77
673.89	60.85
674.03	67.88
674.17	63.19
674.31	121.71
674.45	72.56
674.59	42.13
674.73	28.09
674.87	49.15
675.01	9.36
675.15	44.47
675.29	18.72
675.43	63.19
675.56	51.49
675.70	44.47
675.84	0.00
675.98	65.54
676.12	0.00
676.26	25.75
676.40	0.00
676.54	63.19
676.68	37.45
676.82	67.88
676.96	81.92
677.10	35.11
677.23	2.34
677.37	23.41
677.51	49.15
677.65	161.50
677.79	98.30
677.93	79.58
678.07	60.85
678.21	42.13
678.34	18.72
678.48	49.15
678.62	23.41
678.76	65.54
678.90	7.02
679.04	53.83
679.18	37.45
679.31	60.85
679.45	42.13
679.59	39.79
679.73	25.75
679.87	30.43
680.00	18.72
680.14	16.38
680.28	53.83
680.42	72.56
680.56	32.77
680.70	42.13
680.83	30.43
680.97	51.49
681.11	81.92
681.25	49.15
681.39	7.02
681.52	25.75
681.66	32.77
681.80	0.00
681.94	28.09
682.07	49.15
682.21	49.15
682.35	21.06
682.49	0.00
682.62	65.54
682.76	74.90
682.90	51.49
683.04	0.00
683.17	0.00
683.31	0.00
683.45	81.92
683.59	14.04
683.72	70.22
683.86	77.24
684.00	32.77
684.13	72.56
684.27	14.04
684.41	72.56
684.55	18.72
684.68	58.51
684.82	0.00
684.96	0.00
685.09	4.68
685.23	32.77
685.37	16.38
685.50	0.00
685.64	9.36
685.78	53.83
685.91	58.51
686.05	42.13
686.19	39.79
686.32	0.00
686.46	25.75
686.60	0.00
686.73	53.83
686.87	42.13
687.01	9.36
687.14	117.03
687.28	63.19
687.42	91.28
687.55	0.00
687.69	88.94
687.82	18.72
687.96	14.04
688.10	84.26
688.23	0.00
688.37	56.17
688.50	88.94
688.64	0.00
688.78	9.36
688.91	60.85
689.05	86.60
689.18	18.72
689.32	0.00
689.46	37.45
689.59	28.09
689.73	0.00
689.86	32.77
690.00	35.11
690.13	0.00
690.27	16.38
690.41	81.92
690.54	63.19
690.68	14.04
690.81	23.41
690.95	28.09
691.08	4.68
691.22	32.77
691.35	0.00
691.49	44.47
691.62	32.77
691.76	0.00
691.89	70.22
692.03	126.39
692.16	0.00
692.30	39.79
692.43	25.75
692.57	58.51
692.70	88.94
692.84	14.04
692.97	46.81
693.11	63.19
693.24	0.00
693.38	0.00
693.51	23.41
693.65	72.56
693.78	7.02
693.92	9.36
694.05	2.34
694.19	23.41
694.32	44.47
694.45	56.17
694.59	0.00
694.72	88.94
694.86	32.77
694.99	105.32
695.13	23.41
695.26	67.88
695.39	0.00
695.53	39.79
695.66	16.38
695.80	7.02
695.93	0.00
696.07	32.77
696.20	16.38
696.33	51.49
696.47	30.43
696.60	28.09
696.73	93.62
696.87	23.41
697.00	25.75
697.14	28.09
697.27	49.15
697.40	88.94
697.54	37.45
697.67	0.00
697.80	30.43
697.94	9.36
698.07	46.81
698.21	42.13
698.34	18.72
698.47	16.38
698.61	0.00
698.74	4.68
698.87	18.72
699.01	88.94
699.14	4.68
699.27	23.41
699.40	79.58
699.54	4.68
699.67	32.77
699.80	0.00
699.94	70.22
700.07	32.77
700.20	112.35
700.34	0.00
700.47	53.83
700.60	53.83
700.73	79.58
700.87	42.13
701.00	11.70
701.13	0.00
701.26	42.13
701.40	21.06
701.53	65.54
701.66	28.09
701.79	37.45
701.93	37.45
702.06	0.00
702.19	9.36
702.32	14.04
702.46	2.34
702.59	0.00
702.72	93.62
702.85	0.00
702.99	7.02
703.12	2.34
703.25	0.00
703.38	51.49
703.51	2.34
703.65	107.66
703.78	0.00
703.91	65.54
704.04	0.00
704.17	0.00
704.31	49.15
704.44	72.56
704.57	65.54
704.70	11.70
704.83	30.43
704.96	46.81
705.10	11.70
705.23	60.85
>>>>>End Processed Spectral Data<<<<<
