SpectraSuite Data File
++++++++++++++++++++++++++++++++++++
Date: Fri Oct 04 12:13:32 GMT-05:00 2013
User: price-jones
Dark Spectrum Present: No
Reference Spectrum Present: No
Number of Sampled Component Spectra: 1
Spectrometers: USB2+H05261
Integration Time (usec): 10000 (USB2+H05261)
Spectra Averaged: 1 (USB2+H05261)
Boxcar Smoothing: 0 (USB2+H05261)
Correct for Electrical Dark: No (USB2+H05261)
Strobe/Lamp Enabled: No (USB2+H05261)
Correct for Detector Non-linearity: No (USB2+H05261)
Correct for Stray Light: No (USB2+H05261)
Number of Pixels in Processed Spectrum: 2048
>>>>>Begin Processed Spectral Data<<<<<
365.73	0.00
365.92	0.00
366.12	0.00
366.32	0.00
366.52	0.00
366.72	0.00
366.91	0.00
367.11	0.00
367.31	0.00
367.51	0.00
367.70	0.00
367.90	0.00
368.10	0.00
368.30	0.00
368.49	0.00
368.69	0.00
368.89	0.00
369.09	0.00
369.28	0.00
369.48	0.00
369.68	0.00
369.87	0.00
370.07	0.00
370.27	0.00
370.47	0.00
370.66	0.00
370.86	0.00
371.06	0.00
371.25	0.00
371.45	0.00
371.65	0.00
371.84	0.00
372.04	37.45
372.24	0.00
372.44	0.00
372.63	0.00
372.83	0.00
373.03	0.00
373.22	67.88
373.42	0.00
373.62	0.00
373.81	0.00
374.01	9.36
374.21	25.75
374.40	74.90
374.60	51.49
374.79	21.06
374.99	65.54
375.19	0.00
375.38	0.00
375.58	42.13
375.78	81.92
375.97	32.77
376.17	107.66
376.37	35.11
376.56	18.72
376.76	0.00
376.95	4.68
377.15	0.00
377.35	53.83
377.54	23.41
377.74	51.49
377.93	32.77
378.13	0.00
378.33	2.34
378.52	4.68
378.72	30.43
378.91	23.41
379.11	77.24
379.31	58.51
379.50	49.15
379.70	30.43
379.89	18.72
380.09	28.09
380.28	51.49
380.48	56.17
380.68	0.00
380.87	0.00
381.07	102.98
381.26	28.09
381.46	16.38
381.65	39.79
381.85	0.00
382.04	0.00
382.24	9.36
382.43	37.45
382.63	44.47
382.83	42.13
383.02	56.17
383.22	0.00
383.41	30.43
383.61	0.00
383.80	35.11
384.00	0.00
384.19	18.72
384.39	63.19
384.58	56.17
384.78	0.00
384.97	9.36
385.17	0.00
385.36	28.09
385.56	0.00
385.75	32.77
385.95	9.36
386.14	0.00
386.34	9.36
386.53	65.54
386.72	67.88
386.92	0.00
387.11	0.00
387.31	25.75
387.50	28.09
387.70	7.02
387.89	0.00
388.09	30.43
388.28	28.09
388.48	0.00
388.67	11.70
388.86	58.51
389.06	7.02
389.25	14.04
389.45	0.00
389.64	39.79
389.84	0.00
390.03	0.00
390.22	0.00
390.42	23.41
390.61	32.77
390.81	28.09
391.00	28.09
391.19	16.38
391.39	9.36
391.58	70.22
391.78	44.47
391.97	4.68
392.16	25.75
392.36	70.22
392.55	21.06
392.75	102.98
392.94	21.06
393.13	46.81
393.33	35.11
393.52	11.70
393.71	0.00
393.91	0.00
394.10	0.00
394.29	23.41
394.49	74.90
394.68	0.00
394.88	23.41
395.07	7.02
395.26	65.54
395.46	0.00
395.65	42.13
395.84	0.00
396.04	18.72
396.23	0.00
396.42	23.41
396.62	49.15
396.81	0.00
397.00	25.75
397.19	9.36
397.39	37.45
397.58	32.77
397.77	77.24
397.97	56.17
398.16	23.41
398.35	25.75
398.55	21.06
398.74	0.00
398.93	0.00
399.12	56.17
399.32	72.56
399.51	11.70
399.70	0.00
399.90	0.00
400.09	51.49
400.28	0.00
400.47	63.19
400.67	7.02
400.86	37.45
401.05	79.58
401.24	0.00
401.44	65.54
401.63	0.00
401.82	0.00
402.01	0.00
402.21	49.15
402.40	0.00
402.59	0.00
402.78	11.70
402.97	0.00
403.17	0.00
403.36	0.00
403.55	0.00
403.74	0.00
403.93	0.00
404.13	9.36
404.32	0.00
404.51	42.13
404.70	0.00
404.89	21.06
405.09	46.81
405.28	0.00
405.47	32.77
405.66	0.00
405.85	11.70
406.05	63.19
406.24	93.62
406.43	60.85
406.62	37.45
406.81	30.43
407.00	72.56
407.20	0.00
407.39	25.75
407.58	44.47
407.77	7.02
407.96	0.00
408.15	11.70
408.34	21.06
408.54	35.11
408.73	28.09
408.92	42.13
409.11	0.00
409.30	0.00
409.49	37.45
409.68	70.22
409.87	63.19
410.07	35.11
410.26	4.68
410.45	65.54
410.64	0.00
410.83	56.17
411.02	25.75
411.21	58.51
411.40	9.36
411.59	0.00
411.78	49.15
411.98	77.24
412.17	25.75
412.36	0.00
412.55	70.22
412.74	46.81
412.93	37.45
413.12	35.11
413.31	0.00
413.50	0.00
413.69	0.00
413.88	23.41
414.07	0.00
414.26	0.00
414.45	0.00
414.64	28.09
414.83	14.04
415.02	32.77
415.22	18.72
415.41	0.00
415.60	44.47
415.79	21.06
415.98	9.36
416.17	32.77
416.36	0.00
416.55	28.09
416.74	30.43
416.93	35.11
417.12	11.70
417.31	16.38
417.50	112.35
417.69	7.02
417.88	84.26
418.07	11.70
418.26	32.77
418.45	58.51
418.64	0.00
418.83	49.15
419.02	30.43
419.21	21.06
419.39	16.38
419.58	11.70
419.77	0.00
419.96	56.17
420.15	11.70
420.34	74.90
420.53	65.54
420.72	93.62
420.91	58.51
421.10	14.04
421.29	32.77
421.48	70.22
421.67	91.28
421.86	49.15
422.05	11.70
422.24	102.98
422.43	9.36
422.61	23.41
422.80	51.49
422.99	4.68
423.18	0.00
423.37	0.00
423.56	0.00
423.75	7.02
423.94	23.41
424.13	58.51
424.32	0.00
424.50	30.43
424.69	65.54
424.88	0.00
425.07	84.26
425.26	46.81
425.45	0.00
425.64	79.58
425.83	53.83
426.01	11.70
426.20	65.54
426.39	30.43
426.58	18.72
426.77	70.22
426.96	11.70
427.15	0.00
427.33	21.06
427.52	72.56
427.71	0.00
427.90	44.47
428.09	77.24
428.28	63.19
428.46	65.54
428.65	56.17
428.84	65.54
429.03	102.98
429.22	58.51
429.40	7.02
429.59	21.06
429.78	56.17
429.97	0.00
430.16	7.02
430.34	86.60
430.53	72.56
430.72	53.83
430.91	51.49
431.10	0.00
431.28	0.00
431.47	0.00
431.66	58.51
431.85	0.00
432.03	91.28
432.22	9.36
432.41	49.15
432.60	4.68
432.79	42.13
432.97	67.88
433.16	4.68
433.35	18.72
433.54	0.00
433.72	18.72
433.91	11.70
434.10	39.79
434.28	0.00
434.47	0.00
434.66	117.03
434.85	65.54
435.03	44.47
435.22	63.19
435.41	7.02
435.59	21.06
435.78	0.00
435.97	0.00
436.16	16.38
436.34	23.41
436.53	35.11
436.72	14.04
436.90	72.56
437.09	7.02
437.28	0.00
437.46	0.00
437.65	65.54
437.84	0.00
438.02	0.00
438.21	39.79
438.40	2.34
438.58	0.00
438.77	4.68
438.96	14.04
439.14	0.00
439.33	74.90
439.52	28.09
439.70	86.60
439.89	56.17
440.08	0.00
440.26	58.51
440.45	23.41
440.63	44.47
440.82	86.60
441.01	79.58
441.19	0.00
441.38	0.00
441.57	23.41
441.75	65.54
441.94	0.00
442.12	0.00
442.31	0.00
442.50	49.15
442.68	0.00
442.87	35.11
443.05	25.75
443.24	0.00
443.43	51.49
443.61	67.88
443.80	0.00
443.98	25.75
444.17	0.00
444.35	74.90
444.54	56.17
444.73	0.00
444.91	0.00
445.10	0.00
445.28	23.41
445.47	0.00
445.65	0.00
445.84	23.41
446.02	53.83
446.21	117.03
446.39	32.77
446.58	0.00
446.77	72.56
446.95	39.79
447.14	53.83
447.32	14.04
447.51	42.13
447.69	60.85
447.88	42.13
448.06	49.15
448.25	42.13
448.43	4.68
448.62	46.81
448.80	70.22
448.99	51.49
449.17	39.79
449.36	28.09
449.54	0.00
449.73	84.26
449.91	49.15
450.10	0.00
450.28	63.19
450.46	11.70
450.65	65.54
450.83	46.81
451.02	0.00
451.20	105.32
451.39	30.43
451.57	0.00
451.76	0.00
451.94	7.02
452.13	11.70
452.31	21.06
452.49	49.15
452.68	102.98
452.86	53.83
453.05	11.70
453.23	77.24
453.42	51.49
453.60	39.79
453.78	32.77
453.97	30.43
454.15	51.49
454.34	0.00
454.52	28.09
454.70	21.06
454.89	58.51
455.07	0.00
455.26	25.75
455.44	77.24
455.62	58.51
455.81	81.92
455.99	65.54
456.17	42.13
456.36	51.49
456.54	32.77
456.73	0.00
456.91	70.22
457.09	44.47
457.28	72.56
457.46	0.00
457.64	14.04
457.83	58.51
458.01	39.79
458.19	0.00
458.38	32.77
458.56	74.90
458.74	32.77
458.93	30.43
459.11	86.60
459.29	58.51
459.48	74.90
459.66	86.60
459.84	0.00
460.03	16.38
460.21	86.60
460.39	9.36
460.57	21.06
460.76	7.02
460.94	53.83
461.12	110.01
461.31	18.72
461.49	74.90
461.67	25.75
461.85	98.30
462.04	37.45
462.22	46.81
462.40	28.09
462.59	39.79
462.77	0.00
462.95	49.15
463.13	9.36
463.32	18.72
463.50	32.77
463.68	7.02
463.86	67.88
464.05	9.36
464.23	53.83
464.41	0.00
464.59	74.90
464.78	23.41
464.96	70.22
465.14	0.00
465.32	44.47
465.50	63.19
465.69	0.00
465.87	4.68
466.05	44.47
466.23	4.68
466.41	18.72
466.60	4.68
466.78	9.36
466.96	0.00
467.14	110.01
467.32	9.36
467.51	28.09
467.69	42.13
467.87	51.49
468.05	51.49
468.23	63.19
468.41	0.00
468.60	2.34
468.78	25.75
468.96	23.41
469.14	25.75
469.32	0.00
469.50	0.00
469.69	14.04
469.87	126.39
470.05	23.41
470.23	56.17
470.41	4.68
470.59	102.98
470.77	77.24
470.95	18.72
471.14	0.00
471.32	0.00
471.50	63.19
471.68	30.43
471.86	0.00
472.04	7.02
472.22	0.00
472.40	35.11
472.58	35.11
472.77	0.00
472.95	46.81
473.13	39.79
473.31	35.11
473.49	65.54
473.67	70.22
473.85	30.43
474.03	14.04
474.21	18.72
474.39	51.49
474.57	30.43
474.75	60.85
474.93	56.17
475.12	65.54
475.30	18.72
475.48	53.83
475.66	32.77
475.84	0.00
476.02	58.51
476.20	32.77
476.38	0.00
476.56	16.38
476.74	4.68
476.92	46.81
477.10	11.70
477.28	105.32
477.46	51.49
477.64	0.00
477.82	49.15
478.00	32.77
478.18	18.72
478.36	63.19
478.54	46.81
478.72	58.51
478.90	0.00
479.08	11.70
479.26	39.79
479.44	44.47
479.62	0.00
479.80	84.26
479.98	35.11
480.16	0.00
480.34	77.24
480.52	0.00
480.70	25.75
480.88	49.15
481.06	63.19
481.24	25.75
481.41	9.36
481.59	23.41
481.77	28.09
481.95	100.64
482.13	67.88
482.31	53.83
482.49	46.81
482.67	7.02
482.85	18.72
483.03	49.15
483.21	18.72
483.39	91.28
483.57	100.64
483.74	65.54
483.92	86.60
484.10	0.00
484.28	21.06
484.46	30.43
484.64	0.00
484.82	0.00
485.00	65.54
485.18	25.75
485.35	53.83
485.53	32.77
485.71	21.06
485.89	32.77
486.07	0.00
486.25	35.11
486.43	58.51
486.61	0.00
486.78	14.04
486.96	63.19
487.14	25.75
487.32	30.43
487.50	32.77
487.68	77.24
487.85	42.13
488.03	140.43
488.21	21.06
488.39	30.43
488.57	84.26
488.75	37.45
488.92	63.19
489.10	16.38
489.28	23.41
489.46	21.06
489.64	105.32
489.81	25.75
489.99	21.06
490.17	11.70
490.35	0.00
490.53	79.58
490.70	23.41
490.88	102.98
491.06	56.17
491.24	91.28
491.41	0.00
491.59	44.47
491.77	77.24
491.95	70.22
492.13	18.72
492.30	21.06
492.48	32.77
492.66	21.06
492.84	88.94
493.01	72.56
493.19	32.77
493.37	2.34
493.54	7.02
493.72	51.49
493.90	51.49
494.08	44.47
494.25	110.01
494.43	23.41
494.61	16.38
494.79	0.00
494.96	0.00
495.14	0.00
495.32	11.70
495.49	74.90
495.67	37.45
495.85	21.06
496.02	0.00
496.20	72.56
496.38	42.13
496.55	53.83
496.73	30.43
496.91	105.32
497.09	51.49
497.26	14.04
497.44	86.60
497.62	32.77
497.79	0.00
497.97	67.88
498.14	44.47
498.32	23.41
498.50	58.51
498.67	35.11
498.85	63.19
499.03	23.41
499.20	37.45
499.38	9.36
499.56	70.22
499.73	135.75
499.91	0.00
500.08	39.79
500.26	16.38
500.44	9.36
500.61	4.68
500.79	9.36
500.97	28.09
501.14	110.01
501.32	128.73
501.49	70.22
501.67	74.90
501.84	110.01
502.02	51.49
502.20	35.11
502.37	0.00
502.55	72.56
502.72	114.69
502.90	25.75
503.07	100.64
503.25	30.43
503.43	60.85
503.60	58.51
503.78	65.54
503.95	60.85
504.13	60.85
504.30	32.77
504.48	39.79
504.65	0.00
504.83	25.75
505.01	60.85
505.18	0.00
505.36	9.36
505.53	23.41
505.71	0.00
505.88	14.04
506.06	23.41
506.23	51.49
506.41	21.06
506.58	149.79
506.76	32.77
506.93	60.85
507.11	51.49
507.28	46.81
507.46	53.83
507.63	42.13
507.81	49.15
507.98	32.77
508.16	0.00
508.33	39.79
508.50	93.62
508.68	25.75
508.85	142.77
509.03	14.04
509.20	58.51
509.38	4.68
509.55	4.68
509.73	42.13
509.90	0.00
510.08	67.88
510.25	32.77
510.42	35.11
510.60	32.77
510.77	28.09
510.95	51.49
511.12	70.22
511.30	23.41
511.47	86.60
511.64	100.64
511.82	77.24
511.99	51.49
512.17	11.70
512.34	44.47
512.51	63.19
512.69	23.41
512.86	42.13
513.04	23.41
513.21	11.70
513.38	28.09
513.56	28.09
513.73	46.81
513.90	16.38
514.08	14.04
514.25	0.00
514.43	0.00
514.60	28.09
514.77	81.92
514.95	88.94
515.12	44.47
515.29	0.00
515.47	42.13
515.64	77.24
515.81	14.04
515.99	21.06
516.16	32.77
516.33	53.83
516.51	21.06
516.68	84.26
516.85	39.79
517.03	105.32
517.20	35.11
517.37	88.94
517.54	49.15
517.72	7.02
517.89	7.02
518.06	28.09
518.24	93.62
518.41	49.15
518.58	39.79
518.75	0.00
518.93	9.36
519.10	105.32
519.27	95.96
519.45	39.79
519.62	32.77
519.79	79.58
519.96	105.32
520.14	0.00
520.31	0.00
520.48	0.00
520.65	0.00
520.83	21.06
521.00	0.00
521.17	16.38
521.34	86.60
521.52	72.56
521.69	74.90
521.86	46.81
522.03	51.49
522.20	0.00
522.38	0.00
522.55	0.00
522.72	18.72
522.89	11.70
523.07	0.00
523.24	32.77
523.41	46.81
523.58	46.81
523.75	11.70
523.92	11.70
524.10	49.15
524.27	0.00
524.44	79.58
524.61	93.62
524.78	16.38
524.96	53.83
525.13	67.88
525.30	23.41
525.47	72.56
525.64	53.83
525.81	58.51
525.98	63.19
526.16	0.00
526.33	0.00
526.50	16.38
526.67	0.00
526.84	16.38
527.01	51.49
527.18	46.81
527.36	88.94
527.53	21.06
527.70	44.47
527.87	0.00
528.04	30.43
528.21	86.60
528.38	56.17
528.55	51.49
528.72	7.02
528.89	114.69
529.07	81.92
529.24	32.77
529.41	2.34
529.58	49.15
529.75	74.90
529.92	88.94
530.09	32.77
530.26	67.88
530.43	21.06
530.60	51.49
530.77	74.90
530.94	142.77
531.11	86.60
531.28	28.09
531.46	0.00
531.63	7.02
531.80	60.85
531.97	105.32
532.14	51.49
532.31	0.00
532.48	0.00
532.65	18.72
532.82	86.60
532.99	88.94
533.16	63.19
533.33	0.00
533.50	0.00
533.67	0.00
533.84	0.00
534.01	95.96
534.18	0.00
534.35	2.34
534.52	63.19
534.69	44.47
534.86	16.38
535.03	112.35
535.20	72.56
535.37	0.00
535.54	9.36
535.71	70.22
535.88	72.56
536.05	28.09
536.22	14.04
536.38	0.00
536.55	51.49
536.72	23.41
536.89	46.81
537.06	46.81
537.23	21.06
537.40	21.06
537.57	11.70
537.74	74.90
537.91	18.72
538.08	23.41
538.25	16.38
538.42	2.34
538.59	32.77
538.75	42.13
538.92	58.51
539.09	60.85
539.26	35.11
539.43	0.00
539.60	44.47
539.77	30.43
539.94	49.15
540.11	72.56
540.28	0.00
540.44	42.13
540.61	0.00
540.78	58.51
540.95	121.71
541.12	63.19
541.29	39.79
541.46	37.45
541.62	18.72
541.79	0.00
541.96	79.58
542.13	142.77
542.30	42.13
542.47	0.00
542.63	0.00
542.80	21.06
542.97	86.60
543.14	11.70
543.31	0.00
543.48	0.00
543.64	67.88
543.81	49.15
543.98	14.04
544.15	88.94
544.32	72.56
544.48	63.19
544.65	39.79
544.82	72.56
544.99	7.02
545.16	49.15
545.32	21.06
545.49	0.00
545.66	65.54
545.83	58.51
546.00	16.38
546.16	51.49
546.33	46.81
546.50	0.00
546.67	0.00
546.83	16.38
547.00	0.00
547.17	58.51
547.34	0.00
547.50	0.00
547.67	65.54
547.84	65.54
548.00	23.41
548.17	74.90
548.34	98.30
548.51	70.22
548.67	23.41
548.84	28.09
549.01	63.19
549.18	117.03
549.34	14.04
549.51	74.90
549.68	84.26
549.84	18.72
550.01	110.01
550.18	105.32
550.34	49.15
550.51	67.88
550.68	86.60
550.84	46.81
551.01	81.92
551.18	28.09
551.34	39.79
551.51	121.71
551.68	0.00
551.84	21.06
552.01	42.13
552.18	74.90
552.34	67.88
552.51	42.13
552.68	124.05
552.84	100.64
553.01	81.92
553.18	58.51
553.34	84.26
553.51	9.36
553.67	4.68
553.84	72.56
554.01	46.81
554.17	49.15
554.34	102.98
554.51	100.64
554.67	93.62
554.84	0.00
555.00	65.54
555.17	84.26
555.33	30.43
555.50	9.36
555.67	0.00
555.83	25.75
556.00	46.81
556.16	32.77
556.33	18.72
556.50	0.00
556.66	140.43
556.83	0.00
556.99	0.00
557.16	81.92
557.32	74.90
557.49	135.75
557.65	102.98
557.82	133.41
557.98	58.51
558.15	58.51
558.32	7.02
558.48	0.00
558.65	0.00
558.81	44.47
558.98	0.00
559.14	9.36
559.31	42.13
559.47	70.22
559.64	9.36
559.80	67.88
559.97	56.17
560.13	42.13
560.30	0.00
560.46	49.15
560.63	58.51
560.79	72.56
560.96	16.38
561.12	117.03
561.29	0.00
561.45	0.00
561.61	0.00
561.78	32.77
561.94	11.70
562.11	44.47
562.27	7.02
562.44	44.47
562.60	42.13
562.77	39.79
562.93	18.72
563.10	0.00
563.26	35.11
563.42	25.75
563.59	25.75
563.75	30.43
563.92	79.58
564.08	11.70
564.24	58.51
564.41	65.54
564.57	60.85
564.74	7.02
564.90	0.00
565.07	16.38
565.23	128.73
565.39	91.28
565.56	58.51
565.72	53.83
565.88	30.43
566.05	32.77
566.21	35.11
566.38	0.00
566.54	49.15
566.70	16.38
566.87	44.47
567.03	0.00
567.19	23.41
567.36	79.58
567.52	23.41
567.68	0.00
567.85	0.00
568.01	88.94
568.17	23.41
568.34	16.38
568.50	0.00
568.66	7.02
568.83	72.56
568.99	25.75
569.15	21.06
569.32	32.77
569.48	16.38
569.64	39.79
569.81	56.17
569.97	60.85
570.13	0.00
570.30	0.00
570.46	7.02
570.62	121.71
570.78	70.22
570.95	0.00
571.11	44.47
571.27	11.70
571.43	25.75
571.60	81.92
571.76	0.00
571.92	0.00
572.09	49.15
572.25	0.00
572.41	60.85
572.57	4.68
572.74	35.11
572.90	0.00
573.06	14.04
573.22	18.72
573.38	114.69
573.55	39.79
573.71	23.41
573.87	32.77
574.03	102.98
574.20	21.06
574.36	23.41
574.52	2.34
574.68	86.60
574.84	0.00
575.01	70.22
575.17	4.68
575.33	67.88
575.49	72.56
575.65	44.47
575.82	86.60
575.98	32.77
576.14	7.02
576.30	16.38
576.46	18.72
576.62	18.72
576.79	0.00
576.95	84.26
577.11	67.88
577.27	0.00
577.43	0.00
577.59	44.47
577.75	84.26
577.92	93.62
578.08	37.45
578.24	0.00
578.40	51.49
578.56	126.39
578.72	46.81
578.88	0.00
579.04	32.77
579.21	51.49
579.37	0.00
579.53	49.15
579.69	56.17
579.85	49.15
580.01	0.00
580.17	0.00
580.33	35.11
580.49	2.34
580.65	0.00
580.82	102.98
580.98	86.60
581.14	79.58
581.30	0.00
581.46	37.45
581.62	65.54
581.78	21.06
581.94	0.00
582.10	0.00
582.26	46.81
582.42	0.00
582.58	49.15
582.74	0.00
582.90	28.09
583.06	0.00
583.22	53.83
583.38	44.47
583.54	42.13
583.70	70.22
583.86	16.38
584.02	0.00
584.18	21.06
584.34	81.92
584.50	53.83
584.66	46.81
584.82	67.88
584.98	0.00
585.14	58.51
585.30	70.22
585.46	53.83
585.62	0.00
585.78	35.11
585.94	56.17
586.10	81.92
586.26	21.06
586.42	0.00
586.58	39.79
586.74	4.68
586.90	91.28
587.06	60.85
587.22	21.06
587.38	11.70
587.54	16.38
587.70	86.60
587.86	21.06
588.02	9.36
588.18	67.88
588.34	53.83
588.49	84.26
588.65	58.51
588.81	0.00
588.97	21.06
589.13	35.11
589.29	37.45
589.45	42.13
589.61	30.43
589.77	119.37
589.93	0.00
590.08	49.15
590.24	102.98
590.40	0.00
590.56	44.47
590.72	25.75
590.88	16.38
591.04	39.79
591.20	93.62
591.35	67.88
591.51	58.51
591.67	35.11
591.83	25.75
591.99	28.09
592.15	88.94
592.31	46.81
592.46	74.90
592.62	58.51
592.78	37.45
592.94	46.81
593.10	93.62
593.26	25.75
593.41	65.54
593.57	0.00
593.73	42.13
593.89	23.41
594.05	32.77
594.20	0.00
594.36	0.00
594.52	0.00
594.68	42.13
594.84	35.11
594.99	14.04
595.15	21.06
595.31	28.09
595.47	14.04
595.62	35.11
595.78	42.13
595.94	53.83
596.10	9.36
596.25	23.41
596.41	77.24
596.57	58.51
596.73	0.00
596.88	11.70
597.04	0.00
597.20	14.04
597.36	23.41
597.51	77.24
597.67	4.68
597.83	0.00
597.99	88.94
598.14	63.19
598.30	32.77
598.46	35.11
598.61	35.11
598.77	70.22
598.93	72.56
599.09	0.00
599.24	21.06
599.40	0.00
599.56	11.70
599.71	16.38
599.87	32.77
600.03	39.79
600.18	60.85
600.34	32.77
600.50	0.00
600.65	28.09
600.81	0.00
600.97	11.70
601.12	0.00
601.28	32.77
601.44	35.11
601.59	37.45
601.75	30.43
601.91	9.36
602.06	56.17
602.22	53.83
602.37	0.00
602.53	37.45
602.69	30.43
602.84	23.41
603.00	53.83
603.16	11.70
603.31	49.15
603.47	49.15
603.62	81.92
603.78	4.68
603.94	0.00
604.09	11.70
604.25	0.00
604.40	0.00
604.56	37.45
604.71	49.15
604.87	77.24
605.03	0.00
605.18	16.38
605.34	23.41
605.49	81.92
605.65	135.75
605.80	81.92
605.96	32.77
606.12	44.47
606.27	0.00
606.43	72.56
606.58	32.77
606.74	0.00
606.89	56.17
607.05	63.19
607.20	58.51
607.36	81.92
607.51	44.47
607.67	30.43
607.82	53.83
607.98	42.13
608.13	37.45
608.29	30.43
608.44	49.15
608.60	39.79
608.75	0.00
608.91	37.45
609.06	0.00
609.22	28.09
609.37	72.56
609.53	81.92
609.68	23.41
609.84	0.00
609.99	21.06
610.15	81.92
610.30	53.83
610.46	74.90
610.61	49.15
610.76	28.09
610.92	74.90
611.07	0.00
611.23	21.06
611.38	84.26
611.54	65.54
611.69	30.43
611.84	4.68
612.00	16.38
612.15	0.00
612.31	98.30
612.46	51.49
612.62	98.30
612.77	88.94
612.92	67.88
613.08	49.15
613.23	51.49
613.39	11.70
613.54	58.51
613.69	39.79
613.85	72.56
614.00	0.00
614.15	93.62
614.31	35.11
614.46	18.72
614.62	35.11
614.77	49.15
614.92	0.00
615.08	37.45
615.23	0.00
615.38	63.19
615.54	37.45
615.69	67.88
615.84	0.00
616.00	60.85
616.15	14.04
616.30	37.45
616.46	44.47
616.61	37.45
616.76	30.43
616.92	63.19
617.07	86.60
617.22	84.26
617.37	86.60
617.53	105.32
617.68	28.09
617.83	37.45
617.99	110.01
618.14	16.38
618.29	128.73
618.45	79.58
618.60	37.45
618.75	63.19
618.90	74.90
619.06	18.72
619.21	70.22
619.36	70.22
619.51	39.79
619.67	0.00
619.82	100.64
619.97	93.62
620.12	25.75
620.28	25.75
620.43	46.81
620.58	35.11
620.73	0.00
620.89	100.64
621.04	56.17
621.19	9.36
621.34	110.01
621.49	37.45
621.65	77.24
621.80	11.70
621.95	0.00
622.10	44.47
622.25	58.51
622.41	0.00
622.56	56.17
622.71	18.72
622.86	51.49
623.01	28.09
623.16	9.36
623.32	70.22
623.47	28.09
623.62	21.06
623.77	51.49
623.92	60.85
624.07	23.41
624.23	0.00
624.38	14.04
624.53	56.17
624.68	23.41
624.83	18.72
624.98	0.00
625.13	58.51
625.29	72.56
625.44	51.49
625.59	14.04
625.74	39.79
625.89	95.96
626.04	18.72
626.19	28.09
626.34	58.51
626.49	0.00
626.65	51.49
626.80	23.41
626.95	23.41
627.10	51.49
627.25	86.60
627.40	112.35
627.55	4.68
627.70	11.70
627.85	56.17
628.00	28.09
628.15	49.15
628.30	7.02
628.45	0.00
628.60	14.04
628.76	42.13
628.91	107.66
629.06	7.02
629.21	0.00
629.36	37.45
629.51	11.70
629.66	67.88
629.81	84.26
629.96	56.17
630.11	0.00
630.26	65.54
630.41	32.77
630.56	28.09
630.71	135.75
630.86	65.54
631.01	0.00
631.16	16.38
631.31	131.07
631.46	2.34
631.61	0.00
631.76	53.83
631.91	14.04
632.06	46.81
632.21	84.26
632.36	0.00
632.51	0.00
632.66	16.38
632.81	0.00
632.96	51.49
633.10	60.85
633.25	65.54
633.40	65.54
633.55	4.68
633.70	93.62
633.85	0.00
634.00	4.68
634.15	86.60
634.30	0.00
634.45	32.77
634.60	93.62
634.75	25.75
634.90	49.15
635.05	86.60
635.19	14.04
635.34	4.68
635.49	11.70
635.64	72.56
635.79	135.75
635.94	4.68
636.09	7.02
636.24	25.75
636.39	2.34
636.53	35.11
636.68	0.00
636.83	42.13
636.98	18.72
637.13	35.11
637.28	39.79
637.43	16.38
637.57	0.00
637.72	0.00
637.87	0.00
638.02	0.00
638.17	72.56
638.32	46.81
638.46	37.45
638.61	0.00
638.76	28.09
638.91	28.09
639.06	30.43
639.20	74.90
639.35	28.09
639.50	49.15
639.65	63.19
639.80	32.77
639.94	0.00
640.09	60.85
640.24	2.34
640.39	0.00
640.54	32.77
640.68	7.02
640.83	25.75
640.98	0.00
641.13	0.00
641.27	0.00
641.42	49.15
641.57	18.72
641.72	88.94
641.86	21.06
642.01	70.22
642.16	88.94
642.31	107.66
642.45	32.77
642.60	39.79
642.75	117.03
642.90	9.36
643.04	0.00
643.19	0.00
643.34	65.54
643.48	0.00
643.63	7.02
643.78	35.11
643.93	9.36
644.07	84.26
644.22	67.88
644.37	42.13
644.51	88.94
644.66	77.24
644.81	58.51
644.95	32.77
645.10	74.90
645.25	91.28
645.39	65.54
645.54	0.00
645.69	35.11
645.83	11.70
645.98	72.56
646.13	44.47
646.27	39.79
646.42	30.43
646.57	53.83
646.71	0.00
646.86	46.81
647.00	77.24
647.15	88.94
647.30	0.00
647.44	0.00
647.59	0.00
647.74	0.00
647.88	30.43
648.03	49.15
648.17	2.34
648.32	0.00
648.47	9.36
648.61	14.04
648.76	0.00
648.90	35.11
649.05	88.94
649.20	102.98
649.34	4.68
649.49	110.01
649.63	0.00
649.78	16.38
649.92	0.00
650.07	117.03
650.21	49.15
650.36	58.51
650.51	44.47
650.65	65.54
650.80	0.00
650.94	107.66
651.09	0.00
651.23	0.00
651.38	28.09
651.52	14.04
651.67	23.41
651.81	58.51
651.96	28.09
652.10	42.13
652.25	37.45
652.39	0.00
652.54	39.79
652.68	2.34
652.83	46.81
652.97	14.04
653.12	0.00
653.26	28.09
653.41	21.06
653.55	18.72
653.70	2.34
653.84	7.02
653.99	4.68
654.13	0.00
654.27	110.01
654.42	42.13
654.56	65.54
654.71	49.15
654.85	46.81
655.00	98.30
655.14	42.13
655.29	2.34
655.43	70.22
655.57	72.56
655.72	28.09
655.86	46.81
656.01	65.54
656.15	84.26
656.30	42.13
656.44	0.00
656.58	72.56
656.73	100.64
656.87	70.22
657.01	21.06
657.16	4.68
657.30	51.49
657.45	0.00
657.59	4.68
657.73	18.72
657.88	18.72
658.02	84.26
658.16	16.38
658.31	81.92
658.45	28.09
658.60	11.70
658.74	9.36
658.88	32.77
659.03	39.79
659.17	65.54
659.31	70.22
659.46	65.54
659.60	91.28
659.74	30.43
659.89	110.01
660.03	0.00
660.17	0.00
660.32	39.79
660.46	0.00
660.60	18.72
660.74	0.00
660.89	44.47
661.03	79.58
661.17	2.34
661.32	0.00
661.46	18.72
661.60	77.24
661.74	58.51
661.89	49.15
662.03	49.15
662.17	0.00
662.31	77.24
662.46	25.75
662.60	0.00
662.74	44.47
662.88	32.77
663.03	0.00
663.17	37.45
663.31	23.41
663.45	65.54
663.60	21.06
663.74	67.88
663.88	60.85
664.02	84.26
664.17	70.22
664.31	16.38
664.45	63.19
664.59	0.00
664.73	56.17
664.88	124.05
665.02	14.04
665.16	7.02
665.30	0.00
665.44	0.00
665.59	0.00
665.73	11.70
665.87	28.09
666.01	63.19
666.15	46.81
666.29	65.54
666.44	39.79
666.58	18.72
666.72	0.00
666.86	37.45
667.00	0.00
667.14	63.19
667.28	65.54
667.43	128.73
667.57	37.45
667.71	7.02
667.85	23.41
667.99	14.04
668.13	2.34
668.27	35.11
668.41	14.04
668.56	46.81
668.70	7.02
668.84	42.13
668.98	58.51
669.12	84.26
669.26	23.41
669.40	30.43
669.54	0.00
669.68	0.00
669.82	39.79
669.96	16.38
670.10	98.30
670.25	37.45
670.39	39.79
670.53	0.00
670.67	2.34
670.81	53.83
670.95	58.51
671.09	0.00
671.23	28.09
671.37	21.06
671.51	0.00
671.65	42.13
671.79	42.13
671.93	28.09
672.07	51.49
672.21	112.35
672.35	0.00
672.49	65.54
672.63	63.19
672.77	46.81
672.91	93.62
673.05	67.88
673.19	88.94
673.33	28.09
673.47	4.68
673.61	39.79
673.75	0.00
673.89	21.06
674.03	128.73
674.17	84.26
674.31	56.17
674.45	18.72
674.59	49.15
674.73	65.54
674.87	25.75
675.01	0.00
675.15	23.41
675.29	0.00
675.43	0.00
675.56	16.38
675.70	11.70
675.84	63.19
675.98	74.90
676.12	74.90
676.26	21.06
676.40	37.45
676.54	58.51
676.68	30.43
676.82	0.00
676.96	65.54
677.10	21.06
677.23	18.72
677.37	51.49
677.51	0.00
677.65	23.41
677.79	21.06
677.93	72.56
678.07	0.00
678.21	49.15
678.34	4.68
678.48	2.34
678.62	0.00
678.76	0.00
678.90	0.00
679.04	49.15
679.18	44.47
679.31	53.83
679.45	18.72
679.59	4.68
679.73	28.09
679.87	11.70
680.00	18.72
680.14	100.64
680.28	107.66
680.42	0.00
680.56	0.00
680.70	74.90
680.83	0.00
680.97	84.26
681.11	84.26
681.25	0.00
681.39	46.81
681.52	9.36
681.66	21.06
681.80	0.00
681.94	39.79
682.07	0.00
682.21	56.17
682.35	53.83
682.49	110.01
682.62	86.60
682.76	0.00
682.90	58.51
683.04	0.00
683.17	100.64
683.31	23.41
683.45	30.43
683.59	60.85
683.72	42.13
683.86	4.68
684.00	4.68
684.13	60.85
684.27	74.90
684.41	0.00
684.55	4.68
684.68	0.00
684.82	0.00
684.96	0.00
685.09	84.26
685.23	11.70
685.37	0.00
685.50	21.06
685.64	0.00
685.78	0.00
685.91	44.47
686.05	7.02
686.19	9.36
686.32	16.38
686.46	60.85
686.60	32.77
686.73	95.96
686.87	0.00
687.01	32.77
687.14	51.49
687.28	0.00
687.42	25.75
687.55	39.79
687.69	93.62
687.82	35.11
687.96	46.81
688.10	58.51
688.23	0.00
688.37	30.43
688.50	51.49
688.64	21.06
688.78	42.13
688.91	56.17
689.05	0.00
689.18	39.79
689.32	7.02
689.46	0.00
689.59	70.22
689.73	112.35
689.86	30.43
690.00	51.49
690.13	23.41
690.27	32.77
690.41	0.00
690.54	0.00
690.68	11.70
690.81	0.00
690.95	0.00
691.08	28.09
691.22	51.49
691.35	60.85
691.49	0.00
691.62	84.26
691.76	21.06
691.89	25.75
692.03	46.81
692.16	0.00
692.30	0.00
692.43	14.04
692.57	107.66
692.70	44.47
692.84	7.02
692.97	42.13
693.11	18.72
693.24	65.54
693.38	4.68
693.51	58.51
693.65	28.09
693.78	42.13
693.92	0.00
694.05	86.60
694.19	88.94
694.32	16.38
694.45	0.00
694.59	49.15
694.72	0.00
694.86	53.83
694.99	51.49
695.13	35.11
695.26	0.00
695.39	18.72
695.53	56.17
695.66	0.00
695.80	79.58
695.93	11.70
696.07	9.36
696.20	39.79
696.33	39.79
696.47	0.00
696.60	37.45
696.73	16.38
696.87	93.62
697.00	16.38
697.14	0.00
697.27	70.22
697.40	0.00
697.54	39.79
697.67	77.24
697.80	30.43
697.94	9.36
698.07	56.17
698.21	21.06
698.34	28.09
698.47	28.09
698.61	18.72
698.74	18.72
698.87	7.02
699.01	16.38
699.14	25.75
699.27	0.00
699.40	30.43
699.54	37.45
699.67	0.00
699.80	67.88
699.94	79.58
700.07	37.45
700.20	0.00
700.34	67.88
700.47	56.17
700.60	0.00
700.73	42.13
700.87	0.00
701.00	0.00
701.13	28.09
701.26	42.13
701.40	0.00
701.53	112.35
701.66	100.64
701.79	63.19
701.93	46.81
702.06	51.49
702.19	14.04
702.32	16.38
702.46	14.04
702.59	42.13
702.72	46.81
702.85	30.43
702.99	0.00
703.12	42.13
703.25	25.75
703.38	77.24
703.51	107.66
703.65	0.00
703.78	21.06
703.91	35.11
704.04	30.43
704.17	23.41
704.31	4.68
704.44	70.22
704.57	53.83
704.70	58.51
704.83	112.35
704.96	51.49
705.10	84.26
705.23	0.00
>>>>>End Processed Spectral Data<<<<<
