SpectraSuite Data File
++++++++++++++++++++++++++++++++++++
Date: Fri Oct 04 12:13:41 GMT-05:00 2013
User: price-jones
Dark Spectrum Present: No
Reference Spectrum Present: No
Number of Sampled Component Spectra: 1
Spectrometers: USB2+H05261
Integration Time (usec): 10000 (USB2+H05261)
Spectra Averaged: 1 (USB2+H05261)
Boxcar Smoothing: 0 (USB2+H05261)
Correct for Electrical Dark: No (USB2+H05261)
Strobe/Lamp Enabled: No (USB2+H05261)
Correct for Detector Non-linearity: No (USB2+H05261)
Correct for Stray Light: No (USB2+H05261)
Number of Pixels in Processed Spectrum: 2048
>>>>>Begin Processed Spectral Data<<<<<
365.73	0.00
365.92	0.00
366.12	0.00
366.32	0.00
366.52	0.00
366.72	0.00
366.91	0.00
367.11	0.00
367.31	0.00
367.51	0.00
367.70	0.00
367.90	0.00
368.10	0.00
368.30	0.00
368.49	0.00
368.69	0.00
368.89	0.00
369.09	0.00
369.28	0.00
369.48	0.00
369.68	0.00
369.87	0.00
370.07	0.00
370.27	0.00
370.47	0.00
370.66	0.00
370.86	0.00
371.06	0.00
371.25	0.00
371.45	0.00
371.65	0.00
371.84	35.11
372.04	0.00
372.24	14.04
372.44	14.04
372.63	53.83
372.83	63.19
373.03	42.13
373.22	65.54
373.42	21.06
373.62	86.60
373.81	79.58
374.01	30.43
374.21	79.58
374.40	70.22
374.60	0.00
374.79	86.60
374.99	16.38
375.19	16.38
375.38	16.38
375.58	77.24
375.78	74.90
375.97	0.00
376.17	0.00
376.37	0.00
376.56	0.00
376.76	74.90
376.95	51.49
377.15	56.17
377.35	84.26
377.54	0.00
377.74	14.04
377.93	11.70
378.13	14.04
378.33	0.00
378.52	46.81
378.72	67.88
378.91	21.06
379.11	2.34
379.31	4.68
379.50	7.02
379.70	0.00
379.89	9.36
380.09	32.77
380.28	117.03
380.48	0.00
380.68	25.75
380.87	98.30
381.07	0.00
381.26	72.56
381.46	32.77
381.65	58.51
381.85	70.22
382.04	0.00
382.24	0.00
382.43	0.00
382.63	16.38
382.83	72.56
383.02	58.51
383.22	107.66
383.41	0.00
383.61	9.36
383.80	9.36
384.00	42.13
384.19	107.66
384.39	0.00
384.58	72.56
384.78	0.00
384.97	32.77
385.17	32.77
385.36	21.06
385.56	18.72
385.75	0.00
385.95	21.06
386.14	79.58
386.34	7.02
386.53	0.00
386.72	0.00
386.92	60.85
387.11	42.13
387.31	16.38
387.50	0.00
387.70	0.00
387.89	4.68
388.09	0.00
388.28	0.00
388.48	49.15
388.67	63.19
388.86	0.00
389.06	63.19
389.25	56.17
389.45	25.75
389.64	0.00
389.84	0.00
390.03	53.83
390.22	2.34
390.42	9.36
390.61	39.79
390.81	81.92
391.00	39.79
391.19	49.15
391.39	14.04
391.58	32.77
391.78	0.00
391.97	0.00
392.16	32.77
392.36	56.17
392.55	7.02
392.75	0.00
392.94	0.00
393.13	30.43
393.33	0.00
393.52	63.19
393.71	37.45
393.91	0.00
394.10	51.49
394.29	39.79
394.49	2.34
394.68	0.00
394.88	32.77
395.07	0.00
395.26	56.17
395.46	79.58
395.65	0.00
395.84	21.06
396.04	74.90
396.23	21.06
396.42	77.24
396.62	28.09
396.81	2.34
397.00	42.13
397.19	30.43
397.39	67.88
397.58	63.19
397.77	14.04
397.97	37.45
398.16	72.56
398.35	44.47
398.55	0.00
398.74	7.02
398.93	0.00
399.12	58.51
399.32	74.90
399.51	42.13
399.70	65.54
399.90	98.30
400.09	79.58
400.28	32.77
400.47	70.22
400.67	0.00
400.86	51.49
401.05	21.06
401.24	37.45
401.44	39.79
401.63	46.81
401.82	7.02
402.01	0.00
402.21	53.83
402.40	46.81
402.59	35.11
402.78	0.00
402.97	0.00
403.17	65.54
403.36	77.24
403.55	0.00
403.74	9.36
403.93	81.92
404.13	53.83
404.32	42.13
404.51	84.26
404.70	110.01
404.89	58.51
405.09	37.45
405.28	58.51
405.47	0.00
405.66	70.22
405.85	46.81
406.05	28.09
406.24	72.56
406.43	93.62
406.62	0.00
406.81	0.00
407.00	16.38
407.20	39.79
407.39	18.72
407.58	49.15
407.77	44.47
407.96	0.00
408.15	98.30
408.34	35.11
408.54	30.43
408.73	79.58
408.92	46.81
409.11	77.24
409.30	23.41
409.49	37.45
409.68	32.77
409.87	0.00
410.07	2.34
410.26	28.09
410.45	51.49
410.64	42.13
410.83	72.56
411.02	42.13
411.21	56.17
411.40	86.60
411.59	42.13
411.78	0.00
411.98	25.75
412.17	91.28
412.36	124.05
412.55	0.00
412.74	102.98
412.93	84.26
413.12	4.68
413.31	25.75
413.50	81.92
413.69	0.00
413.88	37.45
414.07	58.51
414.26	49.15
414.45	9.36
414.64	35.11
414.83	70.22
415.02	0.00
415.22	28.09
415.41	32.77
415.60	37.45
415.79	53.83
415.98	35.11
416.17	0.00
416.36	0.00
416.55	0.00
416.74	77.24
416.93	105.32
417.12	72.56
417.31	46.81
417.50	65.54
417.69	44.47
417.88	0.00
418.07	46.81
418.26	60.85
418.45	7.02
418.64	70.22
418.83	0.00
419.02	53.83
419.21	21.06
419.39	32.77
419.58	0.00
419.77	102.98
419.96	21.06
420.15	4.68
420.34	23.41
420.53	21.06
420.72	42.13
420.91	42.13
421.10	49.15
421.29	25.75
421.48	32.77
421.67	30.43
421.86	133.41
422.05	37.45
422.24	79.58
422.43	0.00
422.61	60.85
422.80	84.26
422.99	21.06
423.18	81.92
423.37	0.00
423.56	53.83
423.75	72.56
423.94	84.26
424.13	7.02
424.32	4.68
424.50	70.22
424.69	42.13
424.88	28.09
425.07	0.00
425.26	58.51
425.45	100.64
425.64	51.49
425.83	23.41
426.01	51.49
426.20	16.38
426.39	74.90
426.58	49.15
426.77	28.09
426.96	0.00
427.15	86.60
427.33	124.05
427.52	0.00
427.71	44.47
427.90	100.64
428.09	77.24
428.28	2.34
428.46	42.13
428.65	25.75
428.84	58.51
429.03	23.41
429.22	37.45
429.40	49.15
429.59	42.13
429.78	18.72
429.97	72.56
430.16	0.00
430.34	9.36
430.53	51.49
430.72	58.51
430.91	58.51
431.10	60.85
431.28	51.49
431.47	42.13
431.66	56.17
431.85	49.15
432.03	39.79
432.22	100.64
432.41	53.83
432.60	112.35
432.79	100.64
432.97	30.43
433.16	205.97
433.35	0.00
433.54	65.54
433.72	0.00
433.91	25.75
434.10	11.70
434.28	58.51
434.47	46.81
434.66	46.81
434.85	18.72
435.03	44.47
435.22	67.88
435.41	98.30
435.59	100.64
435.78	4.68
435.97	39.79
436.16	37.45
436.34	37.45
436.53	86.60
436.72	56.17
436.90	7.02
437.09	28.09
437.28	91.28
437.46	84.26
437.65	37.45
437.84	28.09
438.02	0.00
438.21	35.11
438.40	88.94
438.58	63.19
438.77	0.00
438.96	102.98
439.14	112.35
439.33	16.38
439.52	51.49
439.70	49.15
439.89	98.30
440.08	93.62
440.26	25.75
440.45	0.00
440.63	67.88
440.82	0.00
441.01	60.85
441.19	7.02
441.38	0.00
441.57	42.13
441.75	21.06
441.94	60.85
442.12	86.60
442.31	16.38
442.50	79.58
442.68	74.90
442.87	2.34
443.05	44.47
443.24	35.11
443.43	46.81
443.61	0.00
443.80	16.38
443.98	93.62
444.17	63.19
444.35	14.04
444.54	35.11
444.73	128.73
444.91	49.15
445.10	0.00
445.28	86.60
445.47	35.11
445.65	2.34
445.84	9.36
446.02	21.06
446.21	32.77
446.39	49.15
446.58	63.19
446.77	56.17
446.95	49.15
447.14	63.19
447.32	53.83
447.51	53.83
447.69	77.24
447.88	32.77
448.06	46.81
448.25	0.00
448.43	32.77
448.62	53.83
448.80	39.79
448.99	44.47
449.17	95.96
449.36	25.75
449.54	79.58
449.73	35.11
449.91	56.17
450.10	44.47
450.28	44.47
450.46	140.43
450.65	74.90
450.83	65.54
451.02	65.54
451.20	0.00
451.39	53.83
451.57	65.54
451.76	35.11
451.94	93.62
452.13	72.56
452.31	84.26
452.49	70.22
452.68	42.13
452.86	7.02
453.05	91.28
453.23	16.38
453.42	114.69
453.60	28.09
453.78	74.90
453.97	35.11
454.15	60.85
454.34	0.00
454.52	11.70
454.70	95.96
454.89	7.02
455.07	70.22
455.26	105.32
455.44	42.13
455.62	84.26
455.81	18.72
455.99	0.00
456.17	30.43
456.36	11.70
456.54	60.85
456.73	58.51
456.91	58.51
457.09	63.19
457.28	79.58
457.46	51.49
457.64	91.28
457.83	84.26
458.01	86.60
458.19	98.30
458.38	0.00
458.56	23.41
458.74	42.13
458.93	110.01
459.11	28.09
459.29	35.11
459.48	28.09
459.66	32.77
459.84	7.02
460.03	7.02
460.21	56.17
460.39	32.77
460.57	112.35
460.76	95.96
460.94	105.32
461.12	84.26
461.31	112.35
461.49	88.94
461.67	65.54
461.85	51.49
462.04	11.70
462.22	63.19
462.40	37.45
462.59	46.81
462.77	70.22
462.95	105.32
463.13	110.01
463.32	72.56
463.50	163.84
463.68	98.30
463.86	44.47
464.05	63.19
464.23	77.24
464.41	77.24
464.59	131.07
464.78	86.60
464.96	0.00
465.14	79.58
465.32	84.26
465.50	70.22
465.69	30.43
465.87	60.85
466.05	84.26
466.23	21.06
466.41	70.22
466.60	67.88
466.78	98.30
466.96	39.79
467.14	67.88
467.32	126.39
467.51	77.24
467.69	91.28
467.87	0.00
468.05	25.75
468.23	70.22
468.41	72.56
468.60	65.54
468.78	0.00
468.96	44.47
469.14	107.66
469.32	70.22
469.50	49.15
469.69	0.00
469.87	119.37
470.05	23.41
470.23	65.54
470.41	88.94
470.59	81.92
470.77	37.45
470.95	30.43
471.14	53.83
471.32	42.13
471.50	9.36
471.68	25.75
471.86	37.45
472.04	86.60
472.22	28.09
472.40	4.68
472.58	42.13
472.77	91.28
472.95	124.05
473.13	138.09
473.31	84.26
473.49	81.92
473.67	0.00
473.85	93.62
474.03	35.11
474.21	53.83
474.39	0.00
474.57	63.19
474.75	86.60
474.93	0.00
475.12	72.56
475.30	9.36
475.48	65.54
475.66	60.85
475.84	0.00
476.02	133.41
476.20	105.32
476.38	0.00
476.56	152.13
476.74	11.70
476.92	77.24
477.10	14.04
477.28	51.49
477.46	11.70
477.64	86.60
477.82	7.02
478.00	56.17
478.18	28.09
478.36	30.43
478.54	56.17
478.72	60.85
478.90	128.73
479.08	128.73
479.26	56.17
479.44	74.90
479.62	91.28
479.80	91.28
479.98	28.09
480.16	56.17
480.34	98.30
480.52	65.54
480.70	65.54
480.88	131.07
481.06	42.13
481.24	70.22
481.41	79.58
481.59	72.56
481.77	65.54
481.95	74.90
482.13	81.92
482.31	81.92
482.49	112.35
482.67	4.68
482.85	49.15
483.03	53.83
483.21	63.19
483.39	98.30
483.57	147.45
483.74	133.41
483.92	4.68
484.10	67.88
484.28	77.24
484.46	95.96
484.64	56.17
484.82	35.11
485.00	131.07
485.18	107.66
485.35	28.09
485.53	30.43
485.71	88.94
485.89	32.77
486.07	7.02
486.25	102.98
486.43	95.96
486.61	79.58
486.78	70.22
486.96	107.66
487.14	84.26
487.32	131.07
487.50	133.41
487.68	53.83
487.85	49.15
488.03	105.32
488.21	112.35
488.39	35.11
488.57	131.07
488.75	102.98
488.92	72.56
489.10	124.05
489.28	79.58
489.46	91.28
489.64	91.28
489.81	51.49
489.99	88.94
490.17	65.54
490.35	25.75
490.53	93.62
490.70	39.79
490.88	25.75
491.06	74.90
491.24	98.30
491.41	79.58
491.59	79.58
491.77	72.56
491.95	4.68
492.13	142.77
492.30	35.11
492.48	49.15
492.66	56.17
492.84	79.58
493.01	117.03
493.19	133.41
493.37	72.56
493.54	119.37
493.72	84.26
493.90	28.09
494.08	56.17
494.25	72.56
494.43	46.81
494.61	86.60
494.79	72.56
494.96	121.71
495.14	70.22
495.32	32.77
495.49	117.03
495.67	23.41
495.85	112.35
496.02	35.11
496.20	53.83
496.38	63.19
496.55	119.37
496.73	128.73
496.91	107.66
497.09	25.75
497.26	67.88
497.44	88.94
497.62	49.15
497.79	65.54
497.97	86.60
498.14	112.35
498.32	65.54
498.50	154.48
498.67	67.88
498.85	131.07
499.03	70.22
499.20	63.19
499.38	77.24
499.56	46.81
499.73	28.09
499.91	39.79
500.08	88.94
500.26	53.83
500.44	70.22
500.61	7.02
500.79	72.56
500.97	25.75
501.14	84.26
501.32	119.37
501.49	11.70
501.67	30.43
501.84	121.71
502.02	147.45
502.20	107.66
502.37	93.62
502.55	70.22
502.72	60.85
502.90	119.37
503.07	117.03
503.25	133.41
503.43	74.90
503.60	44.47
503.78	42.13
503.95	121.71
504.13	112.35
504.30	138.09
504.48	53.83
504.65	93.62
504.83	105.32
505.01	112.35
505.18	65.54
505.36	72.56
505.53	77.24
505.71	42.13
505.88	77.24
506.06	46.81
506.23	42.13
506.41	119.37
506.58	86.60
506.76	14.04
506.93	102.98
507.11	79.58
507.28	58.51
507.46	114.69
507.63	58.51
507.81	81.92
507.98	79.58
508.16	107.66
508.33	65.54
508.50	121.71
508.68	79.58
508.85	91.28
509.03	63.19
509.20	28.09
509.38	133.41
509.55	25.75
509.73	81.92
509.90	98.30
510.08	124.05
510.25	74.90
510.42	72.56
510.60	23.41
510.77	91.28
510.95	65.54
511.12	72.56
511.30	30.43
511.47	117.03
511.64	67.88
511.82	105.32
511.99	74.90
512.17	77.24
512.34	72.56
512.51	102.98
512.69	30.43
512.86	18.72
513.04	84.26
513.21	60.85
513.38	131.07
513.56	74.90
513.73	98.30
513.90	114.69
514.08	119.37
514.25	152.13
514.43	121.71
514.60	81.92
514.77	163.84
514.95	77.24
515.12	93.62
515.29	140.43
515.47	28.09
515.64	39.79
515.81	86.60
515.99	25.75
516.16	114.69
516.33	91.28
516.51	58.51
516.68	105.32
516.85	72.56
517.03	124.05
517.20	119.37
517.37	32.77
517.54	124.05
517.72	124.05
517.89	107.66
518.06	117.03
518.24	91.28
518.41	58.51
518.58	18.72
518.75	81.92
518.93	42.13
519.10	58.51
519.27	49.15
519.45	107.66
519.62	72.56
519.79	135.75
519.96	32.77
520.14	79.58
520.31	16.38
520.48	98.30
520.65	154.48
520.83	32.77
521.00	84.26
521.17	105.32
521.34	84.26
521.52	86.60
521.69	93.62
521.86	95.96
522.03	93.62
522.20	95.96
522.38	93.62
522.55	117.03
522.72	14.04
522.89	72.56
523.07	112.35
523.24	65.54
523.41	124.05
523.58	79.58
523.75	110.01
523.92	14.04
524.10	46.81
524.27	131.07
524.44	56.17
524.61	63.19
524.78	56.17
524.96	86.60
525.13	23.41
525.30	65.54
525.47	63.19
525.64	49.15
525.81	91.28
525.98	81.92
526.16	16.38
526.33	42.13
526.50	67.88
526.67	93.62
526.84	79.58
527.01	23.41
527.18	74.90
527.36	37.45
527.53	100.64
527.70	110.01
527.87	77.24
528.04	91.28
528.21	53.83
528.38	32.77
528.55	91.28
528.72	60.85
528.89	18.72
529.07	16.38
529.24	42.13
529.41	100.64
529.58	65.54
529.75	35.11
529.92	152.13
530.09	79.58
530.26	84.26
530.43	93.62
530.60	65.54
530.77	88.94
530.94	100.64
531.11	100.64
531.28	110.01
531.46	70.22
531.63	23.41
531.80	79.58
531.97	112.35
532.14	51.49
532.31	114.69
532.48	91.28
532.65	138.09
532.82	119.37
532.99	79.58
533.16	102.98
533.33	140.43
533.50	91.28
533.67	42.13
533.84	60.85
534.01	128.73
534.18	60.85
534.35	119.37
534.52	67.88
534.69	119.37
534.86	77.24
535.03	100.64
535.20	56.17
535.37	124.05
535.54	95.96
535.71	63.19
535.88	133.41
536.05	84.26
536.22	98.30
536.38	70.22
536.55	79.58
536.72	131.07
536.89	0.00
537.06	107.66
537.23	117.03
537.40	93.62
537.57	86.60
537.74	16.38
537.91	117.03
538.08	100.64
538.25	70.22
538.42	65.54
538.59	140.43
538.75	128.73
538.92	84.26
539.09	86.60
539.26	74.90
539.43	25.75
539.60	142.77
539.77	117.03
539.94	65.54
540.11	91.28
540.28	58.51
540.44	51.49
540.61	58.51
540.78	91.28
540.95	56.17
541.12	124.05
541.29	119.37
541.46	60.85
541.62	117.03
541.79	131.07
541.96	140.43
542.13	84.26
542.30	114.69
542.47	88.94
542.63	117.03
542.80	138.09
542.97	88.94
543.14	107.66
543.31	0.00
543.48	58.51
543.64	100.64
543.81	67.88
543.98	67.88
544.15	70.22
544.32	107.66
544.48	124.05
544.65	98.30
544.82	105.32
544.99	58.51
545.16	114.69
545.32	128.73
545.49	95.96
545.66	128.73
545.83	124.05
546.00	142.77
546.16	60.85
546.33	49.15
546.50	114.69
546.67	79.58
546.83	102.98
547.00	65.54
547.17	86.60
547.34	23.41
547.50	84.26
547.67	53.83
547.84	72.56
548.00	81.92
548.17	154.48
548.34	107.66
548.51	93.62
548.67	102.98
548.84	74.90
549.01	126.39
549.18	49.15
549.34	49.15
549.51	74.90
549.68	133.41
549.84	44.47
550.01	2.34
550.18	147.45
550.34	154.48
550.51	126.39
550.68	102.98
550.84	88.94
551.01	121.71
551.18	39.79
551.34	32.77
551.51	105.32
551.68	86.60
551.84	63.19
552.01	107.66
552.18	79.58
552.34	121.71
552.51	84.26
552.68	114.69
552.84	65.54
553.01	100.64
553.18	81.92
553.34	46.81
553.51	93.62
553.67	63.19
553.84	135.75
554.01	95.96
554.17	88.94
554.34	72.56
554.51	53.83
554.67	72.56
554.84	138.09
555.00	21.06
555.17	100.64
555.33	142.77
555.50	44.47
555.67	32.77
555.83	79.58
556.00	100.64
556.16	56.17
556.33	46.81
556.50	93.62
556.66	46.81
556.83	67.88
556.99	95.96
557.16	4.68
557.32	42.13
557.49	67.88
557.65	177.88
557.82	37.45
557.98	105.32
558.15	114.69
558.32	63.19
558.48	93.62
558.65	58.51
558.81	142.77
558.98	119.37
559.14	37.45
559.31	46.81
559.47	152.13
559.64	58.51
559.80	35.11
559.97	124.05
560.13	77.24
560.30	56.17
560.46	142.77
560.63	98.30
560.79	79.58
560.96	128.73
561.12	100.64
561.29	117.03
561.45	121.71
561.61	70.22
561.78	42.13
561.94	86.60
562.11	110.01
562.27	74.90
562.44	100.64
562.60	65.54
562.77	63.19
562.93	51.49
563.10	98.30
563.26	119.37
563.42	46.81
563.59	86.60
563.75	88.94
563.92	98.30
564.08	95.96
564.24	100.64
564.41	119.37
564.57	56.17
564.74	56.17
564.90	42.13
565.07	74.90
565.23	117.03
565.39	28.09
565.56	14.04
565.72	135.75
565.88	74.90
566.05	110.01
566.21	102.98
566.38	46.81
566.54	70.22
566.70	95.96
566.87	91.28
567.03	84.26
567.19	156.82
567.36	70.22
567.52	56.17
567.68	114.69
567.85	98.30
568.01	42.13
568.17	2.34
568.34	86.60
568.50	107.66
568.66	28.09
568.83	128.73
568.99	0.00
569.15	44.47
569.32	100.64
569.48	67.88
569.64	91.28
569.81	0.00
569.97	100.64
570.13	110.01
570.30	81.92
570.46	67.88
570.62	79.58
570.78	119.37
570.95	14.04
571.11	67.88
571.27	49.15
571.43	84.26
571.60	70.22
571.76	110.01
571.92	88.94
572.09	81.92
572.25	65.54
572.41	95.96
572.57	93.62
572.74	65.54
572.90	65.54
573.06	46.81
573.22	42.13
573.38	98.30
573.55	63.19
573.71	107.66
573.87	16.38
574.03	65.54
574.20	100.64
574.36	88.94
574.52	72.56
574.68	0.00
574.84	60.85
575.01	37.45
575.17	51.49
575.33	95.96
575.49	35.11
575.65	154.48
575.82	0.00
575.98	91.28
576.14	28.09
576.30	138.09
576.46	67.88
576.62	63.19
576.79	65.54
576.95	112.35
577.11	79.58
577.27	32.77
577.43	77.24
577.59	65.54
577.75	74.90
577.92	74.90
578.08	84.26
578.24	67.88
578.40	70.22
578.56	100.64
578.72	72.56
578.88	100.64
579.04	67.88
579.21	98.30
579.37	51.49
579.53	32.77
579.69	16.38
579.85	95.96
580.01	100.64
580.17	67.88
580.33	121.71
580.49	81.92
580.65	119.37
580.82	65.54
580.98	56.17
581.14	53.83
581.30	95.96
581.46	44.47
581.62	65.54
581.78	35.11
581.94	128.73
582.10	124.05
582.26	65.54
582.42	67.88
582.58	81.92
582.74	100.64
582.90	126.39
583.06	84.26
583.22	95.96
583.38	142.77
583.54	105.32
583.70	86.60
583.86	51.49
584.02	56.17
584.18	105.32
584.34	74.90
584.50	124.05
584.66	44.47
584.82	21.06
584.98	126.39
585.14	117.03
585.30	4.68
585.46	49.15
585.62	67.88
585.78	91.28
585.94	81.92
586.10	112.35
586.26	84.26
586.42	93.62
586.58	84.26
586.74	2.34
586.90	91.28
587.06	35.11
587.22	65.54
587.38	18.72
587.54	84.26
587.70	44.47
587.86	67.88
588.02	46.81
588.18	126.39
588.34	138.09
588.49	81.92
588.65	70.22
588.81	0.00
588.97	63.19
589.13	102.98
589.29	32.77
589.45	131.07
589.61	100.64
589.77	86.60
589.93	0.00
590.08	100.64
590.24	16.38
590.40	105.32
590.56	77.24
590.72	65.54
590.88	49.15
591.04	53.83
591.20	79.58
591.35	91.28
591.51	81.92
591.67	60.85
591.83	95.96
591.99	30.43
592.15	105.32
592.31	72.56
592.46	110.01
592.62	9.36
592.78	39.79
592.94	65.54
593.10	102.98
593.26	67.88
593.41	119.37
593.57	77.24
593.73	70.22
593.89	107.66
594.05	39.79
594.20	23.41
594.36	88.94
594.52	91.28
594.68	117.03
594.84	88.94
594.99	58.51
595.15	0.00
595.31	32.77
595.47	65.54
595.62	72.56
595.78	105.32
595.94	49.15
596.10	4.68
596.25	44.47
596.41	117.03
596.57	138.09
596.73	14.04
596.88	79.58
597.04	58.51
597.20	112.35
597.36	105.32
597.51	100.64
597.67	79.58
597.83	44.47
597.99	100.64
598.14	79.58
598.30	98.30
598.46	44.47
598.61	121.71
598.77	133.41
598.93	63.19
599.09	121.71
599.24	56.17
599.40	149.79
599.56	135.75
599.71	117.03
599.87	42.13
600.03	46.81
600.18	102.98
600.34	60.85
600.50	42.13
600.65	77.24
600.81	86.60
600.97	0.00
601.12	70.22
601.28	86.60
601.44	0.00
601.59	46.81
601.75	39.79
601.91	95.96
602.06	53.83
602.22	93.62
602.37	0.00
602.53	51.49
602.69	133.41
602.84	140.43
603.00	119.37
603.16	53.83
603.31	86.60
603.47	74.90
603.62	84.26
603.78	74.90
603.94	37.45
604.09	81.92
604.25	11.70
604.40	102.98
604.56	70.22
604.71	133.41
604.87	70.22
605.03	42.13
605.18	35.11
605.34	110.01
605.49	23.41
605.65	56.17
605.80	112.35
605.96	49.15
606.12	161.50
606.27	0.00
606.43	35.11
606.58	105.32
606.74	2.34
606.89	42.13
607.05	37.45
607.20	0.00
607.36	49.15
607.51	121.71
607.67	63.19
607.82	133.41
607.98	86.60
608.13	95.96
608.29	74.90
608.44	65.54
608.60	60.85
608.75	67.88
608.91	95.96
609.06	105.32
609.22	0.00
609.37	145.11
609.53	2.34
609.68	81.92
609.84	93.62
609.99	0.00
610.15	21.06
610.30	0.00
610.46	0.00
610.61	95.96
610.76	110.01
610.92	56.17
611.07	49.15
611.23	37.45
611.38	11.70
611.54	42.13
611.69	70.22
611.84	114.69
612.00	79.58
612.15	65.54
612.31	21.06
612.46	35.11
612.62	53.83
612.77	110.01
612.92	25.75
613.08	131.07
613.23	112.35
613.39	7.02
613.54	46.81
613.69	74.90
613.85	91.28
614.00	56.17
614.15	35.11
614.31	65.54
614.46	145.11
614.62	63.19
614.77	88.94
614.92	51.49
615.08	86.60
615.23	98.30
615.38	53.83
615.54	126.39
615.69	23.41
615.84	77.24
616.00	21.06
616.15	2.34
616.30	107.66
616.46	84.26
616.61	126.39
616.76	67.88
616.92	117.03
617.07	77.24
617.22	18.72
617.37	58.51
617.53	67.88
617.68	70.22
617.83	21.06
617.99	67.88
618.14	93.62
618.29	28.09
618.45	44.47
618.60	77.24
618.75	46.81
618.90	39.79
619.06	81.92
619.21	79.58
619.36	23.41
619.51	58.51
619.67	21.06
619.82	0.00
619.97	32.77
620.12	42.13
620.28	88.94
620.43	74.90
620.58	56.17
620.73	124.05
620.89	93.62
621.04	63.19
621.19	60.85
621.34	140.43
621.49	105.32
621.65	32.77
621.80	77.24
621.95	72.56
622.10	0.00
622.25	53.83
622.41	23.41
622.56	49.15
622.71	11.70
622.86	46.81
623.01	58.51
623.16	93.62
623.32	105.32
623.47	51.49
623.62	46.81
623.77	91.28
623.92	86.60
624.07	72.56
624.23	35.11
624.38	67.88
624.53	65.54
624.68	30.43
624.83	72.56
624.98	44.47
625.13	95.96
625.29	67.88
625.44	81.92
625.59	84.26
625.74	79.58
625.89	2.34
626.04	79.58
626.19	49.15
626.34	67.88
626.49	37.45
626.65	0.00
626.80	74.90
626.95	0.00
627.10	56.17
627.25	79.58
627.40	131.07
627.55	70.22
627.70	56.17
627.85	37.45
628.00	32.77
628.15	44.47
628.30	70.22
628.45	18.72
628.60	44.47
628.76	95.96
628.91	51.49
629.06	30.43
629.21	49.15
629.36	74.90
629.51	112.35
629.66	126.39
629.81	23.41
629.96	112.35
630.11	0.00
630.26	93.62
630.41	102.98
630.56	11.70
630.71	70.22
630.86	0.00
631.01	74.90
631.16	39.79
631.31	4.68
631.46	110.01
631.61	126.39
631.76	44.47
631.91	46.81
632.06	63.19
632.21	53.83
632.36	21.06
632.51	63.19
632.66	81.92
632.81	105.32
632.96	28.09
633.10	77.24
633.25	60.85
633.40	21.06
633.55	79.58
633.70	39.79
633.85	37.45
634.00	81.92
634.15	0.00
634.30	25.75
634.45	14.04
634.60	16.38
634.75	11.70
634.90	58.51
635.05	14.04
635.19	44.47
635.34	65.54
635.49	18.72
635.64	42.13
635.79	32.77
635.94	117.03
636.09	14.04
636.24	25.75
636.39	0.00
636.53	74.90
636.68	39.79
636.83	44.47
636.98	84.26
637.13	37.45
637.28	37.45
637.43	39.79
637.57	72.56
637.72	119.37
637.87	53.83
638.02	79.58
638.17	14.04
638.32	46.81
638.46	70.22
638.61	7.02
638.76	32.77
638.91	46.81
639.06	2.34
639.20	23.41
639.35	95.96
639.50	46.81
639.65	95.96
639.80	0.00
639.94	58.51
640.09	30.43
640.24	28.09
640.39	128.73
640.54	25.75
640.68	46.81
640.83	100.64
640.98	86.60
641.13	86.60
641.27	77.24
641.42	102.98
641.57	84.26
641.72	42.13
641.86	16.38
642.01	30.43
642.16	93.62
642.31	65.54
642.45	11.70
642.60	60.85
642.75	98.30
642.90	16.38
643.04	79.58
643.19	98.30
643.34	23.41
643.48	53.83
643.63	58.51
643.78	11.70
643.93	119.37
644.07	93.62
644.22	58.51
644.37	58.51
644.51	88.94
644.66	138.09
644.81	60.85
644.95	93.62
645.10	23.41
645.25	51.49
645.39	56.17
645.54	9.36
645.69	98.30
645.83	37.45
645.98	44.47
646.13	91.28
646.27	65.54
646.42	32.77
646.57	67.88
646.71	53.83
646.86	0.00
647.00	65.54
647.15	88.94
647.30	0.00
647.44	0.00
647.59	7.02
647.74	14.04
647.88	28.09
648.03	23.41
648.17	70.22
648.32	86.60
648.47	93.62
648.61	23.41
648.76	16.38
648.90	30.43
649.05	49.15
649.20	56.17
649.34	79.58
649.49	18.72
649.63	56.17
649.78	21.06
649.92	81.92
650.07	63.19
650.21	42.13
650.36	37.45
650.51	51.49
650.65	51.49
650.80	16.38
650.94	105.32
651.09	95.96
651.23	0.00
651.38	0.00
651.52	100.64
651.67	91.28
651.81	79.58
651.96	65.54
652.10	28.09
652.25	23.41
652.39	93.62
652.54	0.00
652.68	28.09
652.83	74.90
652.97	60.85
653.12	86.60
653.26	53.83
653.41	100.64
653.55	0.00
653.70	4.68
653.84	46.81
653.99	0.00
654.13	11.70
654.27	35.11
654.42	39.79
654.56	39.79
654.71	0.00
654.85	51.49
655.00	72.56
655.14	0.00
655.29	0.00
655.43	42.13
655.57	60.85
655.72	74.90
655.86	37.45
656.01	30.43
656.15	53.83
656.30	37.45
656.44	4.68
656.58	14.04
656.73	21.06
656.87	95.96
657.01	32.77
657.16	81.92
657.30	35.11
657.45	0.00
657.59	0.00
657.73	16.38
657.88	88.94
658.02	51.49
658.16	112.35
658.31	11.70
658.45	30.43
658.60	56.17
658.74	16.38
658.88	32.77
659.03	51.49
659.17	63.19
659.31	77.24
659.46	46.81
659.60	11.70
659.74	0.00
659.89	114.69
660.03	16.38
660.17	4.68
660.32	39.79
660.46	0.00
660.60	93.62
660.74	46.81
660.89	4.68
661.03	63.19
661.17	63.19
661.32	11.70
661.46	58.51
661.60	0.00
661.74	93.62
661.89	44.47
662.03	23.41
662.17	25.75
662.31	58.51
662.46	74.90
662.60	0.00
662.74	18.72
662.88	56.17
663.03	102.98
663.17	67.88
663.31	91.28
663.45	53.83
663.60	86.60
663.74	42.13
663.88	46.81
664.02	56.17
664.17	7.02
664.31	65.54
664.45	72.56
664.59	60.85
664.73	53.83
664.88	84.26
665.02	46.81
665.16	14.04
665.30	56.17
665.44	95.96
665.59	46.81
665.73	65.54
665.87	84.26
666.01	30.43
666.15	4.68
666.29	0.00
666.44	0.00
666.58	46.81
666.72	65.54
666.86	65.54
667.00	42.13
667.14	28.09
667.28	100.64
667.43	105.32
667.57	37.45
667.71	79.58
667.85	11.70
667.99	56.17
668.13	44.47
668.27	53.83
668.41	81.92
668.56	30.43
668.70	58.51
668.84	28.09
668.98	70.22
669.12	70.22
669.26	0.00
669.40	74.90
669.54	16.38
669.68	30.43
669.82	49.15
669.96	77.24
670.10	81.92
670.25	18.72
670.39	39.79
670.53	0.00
670.67	51.49
670.81	35.11
670.95	11.70
671.09	74.90
671.23	65.54
671.37	14.04
671.51	30.43
671.65	21.06
671.79	35.11
671.93	35.11
672.07	117.03
672.21	56.17
672.35	53.83
672.49	11.70
672.63	77.24
672.77	63.19
672.91	102.98
673.05	30.43
673.19	4.68
673.33	65.54
673.47	32.77
673.61	0.00
673.75	4.68
673.89	0.00
674.03	77.24
674.17	30.43
674.31	93.62
674.45	65.54
674.59	9.36
674.73	30.43
674.87	79.58
675.01	110.01
675.15	0.00
675.29	44.47
675.43	18.72
675.56	72.56
675.70	79.58
675.84	63.19
675.98	9.36
676.12	74.90
676.26	14.04
676.40	93.62
676.54	49.15
676.68	0.00
676.82	58.51
676.96	25.75
677.10	81.92
677.23	100.64
677.37	16.38
677.51	81.92
677.65	128.73
677.79	79.58
677.93	53.83
678.07	18.72
678.21	110.01
678.34	23.41
678.48	2.34
678.62	56.17
678.76	84.26
678.90	0.00
679.04	56.17
679.18	37.45
679.31	46.81
679.45	49.15
679.59	70.22
679.73	16.38
679.87	23.41
680.00	0.00
680.14	37.45
680.28	126.39
680.42	7.02
680.56	67.88
680.70	51.49
680.83	35.11
680.97	0.00
681.11	74.90
681.25	0.00
681.39	0.00
681.52	28.09
681.66	0.00
681.80	9.36
681.94	0.00
682.07	72.56
682.21	51.49
682.35	114.69
682.49	100.64
682.62	0.00
682.76	58.51
682.90	9.36
683.04	11.70
683.17	117.03
683.31	37.45
683.45	93.62
683.59	102.98
683.72	37.45
683.86	0.00
684.00	14.04
684.13	25.75
684.27	58.51
684.41	121.71
684.55	86.60
684.68	0.00
684.82	65.54
684.96	39.79
685.09	11.70
685.23	9.36
685.37	0.00
685.50	44.47
685.64	65.54
685.78	44.47
685.91	35.11
686.05	65.54
686.19	16.38
686.32	70.22
686.46	28.09
686.60	30.43
686.73	4.68
686.87	60.85
687.01	58.51
687.14	0.00
687.28	42.13
687.42	0.00
687.55	53.83
687.69	0.00
687.82	28.09
687.96	32.77
688.10	4.68
688.23	65.54
688.37	2.34
688.50	42.13
688.64	51.49
688.78	42.13
688.91	63.19
689.05	7.02
689.18	0.00
689.32	65.54
689.46	0.00
689.59	21.06
689.73	112.35
689.86	65.54
690.00	44.47
690.13	7.02
690.27	51.49
690.41	21.06
690.54	14.04
690.68	58.51
690.81	79.58
690.95	121.71
691.08	16.38
691.22	0.00
691.35	60.85
691.49	14.04
691.62	16.38
691.76	35.11
691.89	65.54
692.03	51.49
692.16	35.11
692.30	32.77
692.43	58.51
692.57	60.85
692.70	42.13
692.84	74.90
692.97	0.00
693.11	9.36
693.24	30.43
693.38	53.83
693.51	79.58
693.65	23.41
693.78	86.60
693.92	95.96
694.05	9.36
694.19	84.26
694.32	86.60
694.45	46.81
694.59	49.15
694.72	28.09
694.86	44.47
694.99	49.15
695.13	44.47
695.26	0.00
695.39	0.00
695.53	81.92
695.66	4.68
695.80	112.35
695.93	65.54
696.07	51.49
696.20	35.11
696.33	28.09
696.47	7.02
696.60	74.90
696.73	14.04
696.87	67.88
697.00	28.09
697.14	18.72
697.27	0.00
697.40	28.09
697.54	84.26
697.67	49.15
697.80	0.00
697.94	86.60
698.07	32.77
698.21	95.96
698.34	35.11
698.47	32.77
698.61	4.68
698.74	0.00
698.87	91.28
699.01	107.66
699.14	56.17
699.27	86.60
699.40	0.00
699.54	42.13
699.67	28.09
699.80	16.38
699.94	0.00
700.07	39.79
700.20	0.00
700.34	0.00
700.47	0.00
700.60	11.70
700.73	65.54
700.87	93.62
701.00	0.00
701.13	25.75
701.26	84.26
701.40	0.00
701.53	0.00
701.66	42.13
701.79	23.41
701.93	60.85
702.06	14.04
702.19	58.51
702.32	0.00
702.46	25.75
702.59	0.00
702.72	14.04
702.85	2.34
702.99	32.77
703.12	39.79
703.25	112.35
703.38	0.00
703.51	53.83
703.65	0.00
703.78	70.22
703.91	0.00
704.04	0.00
704.17	16.38
704.31	0.00
704.44	49.15
704.57	14.04
704.70	0.00
704.83	28.09
704.96	2.34
705.10	0.00
705.23	7.02
>>>>>End Processed Spectral Data<<<<<
