SpectraSuite Data File
++++++++++++++++++++++++++++++++++++
Date: Fri Oct 04 12:13:31 GMT-05:00 2013
User: price-jones
Dark Spectrum Present: No
Reference Spectrum Present: No
Number of Sampled Component Spectra: 1
Spectrometers: USB2+H05261
Integration Time (usec): 10000 (USB2+H05261)
Spectra Averaged: 1 (USB2+H05261)
Boxcar Smoothing: 0 (USB2+H05261)
Correct for Electrical Dark: No (USB2+H05261)
Strobe/Lamp Enabled: No (USB2+H05261)
Correct for Detector Non-linearity: No (USB2+H05261)
Correct for Stray Light: No (USB2+H05261)
Number of Pixels in Processed Spectrum: 2048
>>>>>Begin Processed Spectral Data<<<<<
365.73	0.00
365.92	0.00
366.12	0.00
366.32	0.00
366.52	0.00
366.72	0.00
366.91	0.00
367.11	0.00
367.31	0.00
367.51	0.00
367.70	0.00
367.90	0.00
368.10	0.00
368.30	0.00
368.49	0.00
368.69	0.00
368.89	0.00
369.09	0.00
369.28	0.00
369.48	0.00
369.68	0.00
369.87	0.00
370.07	0.00
370.27	0.00
370.47	0.00
370.66	0.00
370.86	0.00
371.06	0.00
371.25	0.00
371.45	0.00
371.65	0.00
371.84	0.00
372.04	37.45
372.24	30.43
372.44	21.06
372.63	4.68
372.83	35.11
373.03	0.00
373.22	32.77
373.42	46.81
373.62	0.00
373.81	0.00
374.01	35.11
374.21	0.00
374.40	9.36
374.60	4.68
374.79	44.47
374.99	0.00
375.19	0.00
375.38	39.79
375.58	16.38
375.78	81.92
375.97	53.83
376.17	0.00
376.37	39.79
376.56	35.11
376.76	35.11
376.95	0.00
377.15	21.06
377.35	11.70
377.54	28.09
377.74	46.81
377.93	51.49
378.13	9.36
378.33	37.45
378.52	28.09
378.72	21.06
378.91	70.22
379.11	9.36
379.31	58.51
379.50	9.36
379.70	30.43
379.89	28.09
380.09	7.02
380.28	0.00
380.48	70.22
380.68	2.34
380.87	0.00
381.07	32.77
381.26	0.00
381.46	2.34
381.65	56.17
381.85	32.77
382.04	72.56
382.24	53.83
382.43	2.34
382.63	0.00
382.83	28.09
383.02	0.00
383.22	35.11
383.41	21.06
383.61	0.00
383.80	0.00
384.00	0.00
384.19	0.00
384.39	14.04
384.58	23.41
384.78	42.13
384.97	0.00
385.17	30.43
385.36	18.72
385.56	7.02
385.75	25.75
385.95	21.06
386.14	53.83
386.34	58.51
386.53	0.00
386.72	14.04
386.92	23.41
387.11	46.81
387.31	23.41
387.50	42.13
387.70	23.41
387.89	0.00
388.09	32.77
388.28	21.06
388.48	35.11
388.67	16.38
388.86	2.34
389.06	9.36
389.25	30.43
389.45	18.72
389.64	42.13
389.84	35.11
390.03	51.49
390.22	56.17
390.42	37.45
390.61	0.00
390.81	0.00
391.00	32.77
391.19	16.38
391.39	16.38
391.58	16.38
391.78	14.04
391.97	0.00
392.16	67.88
392.36	35.11
392.55	0.00
392.75	100.64
392.94	39.79
393.13	25.75
393.33	49.15
393.52	35.11
393.71	23.41
393.91	44.47
394.10	0.00
394.29	107.66
394.49	14.04
394.68	58.51
394.88	14.04
395.07	0.00
395.26	95.96
395.46	14.04
395.65	37.45
395.84	4.68
396.04	9.36
396.23	25.75
396.42	11.70
396.62	77.24
396.81	7.02
397.00	7.02
397.19	28.09
397.39	70.22
397.58	9.36
397.77	84.26
397.97	60.85
398.16	16.38
398.35	0.00
398.55	53.83
398.74	28.09
398.93	16.38
399.12	28.09
399.32	0.00
399.51	9.36
399.70	95.96
399.90	58.51
400.09	0.00
400.28	18.72
400.47	25.75
400.67	0.00
400.86	7.02
401.05	32.77
401.24	63.19
401.44	0.00
401.63	39.79
401.82	67.88
402.01	28.09
402.21	25.75
402.40	46.81
402.59	0.00
402.78	46.81
402.97	18.72
403.17	74.90
403.36	35.11
403.55	65.54
403.74	88.94
403.93	0.00
404.13	35.11
404.32	0.00
404.51	79.58
404.70	30.43
404.89	51.49
405.09	56.17
405.28	0.00
405.47	53.83
405.66	37.45
405.85	0.00
406.05	39.79
406.24	0.00
406.43	63.19
406.62	25.75
406.81	91.28
407.00	11.70
407.20	11.70
407.39	0.00
407.58	37.45
407.77	0.00
407.96	98.30
408.15	0.00
408.34	11.70
408.54	56.17
408.73	91.28
408.92	25.75
409.11	0.00
409.30	0.00
409.49	23.41
409.68	0.00
409.87	67.88
410.07	23.41
410.26	49.15
410.45	0.00
410.64	0.00
410.83	0.00
411.02	32.77
411.21	58.51
411.40	81.92
411.59	81.92
411.78	0.00
411.98	53.83
412.17	51.49
412.36	25.75
412.55	0.00
412.74	28.09
412.93	0.00
413.12	37.45
413.31	56.17
413.50	9.36
413.69	65.54
413.88	37.45
414.07	25.75
414.26	0.00
414.45	11.70
414.64	0.00
414.83	93.62
415.02	70.22
415.22	25.75
415.41	58.51
415.60	35.11
415.79	65.54
415.98	140.43
416.17	102.98
416.36	86.60
416.55	0.00
416.74	23.41
416.93	37.45
417.12	70.22
417.31	4.68
417.50	0.00
417.69	42.13
417.88	28.09
418.07	39.79
418.26	21.06
418.45	79.58
418.64	0.00
418.83	9.36
419.02	138.09
419.21	70.22
419.39	42.13
419.58	86.60
419.77	39.79
419.96	56.17
420.15	0.00
420.34	7.02
420.53	56.17
420.72	9.36
420.91	4.68
421.10	46.81
421.29	37.45
421.48	28.09
421.67	37.45
421.86	39.79
422.05	49.15
422.24	0.00
422.43	0.00
422.61	0.00
422.80	51.49
422.99	11.70
423.18	14.04
423.37	23.41
423.56	0.00
423.75	58.51
423.94	0.00
424.13	0.00
424.32	0.00
424.50	49.15
424.69	23.41
424.88	63.19
425.07	21.06
425.26	35.11
425.45	28.09
425.64	58.51
425.83	72.56
426.01	74.90
426.20	4.68
426.39	0.00
426.58	84.26
426.77	56.17
426.96	28.09
427.15	58.51
427.33	11.70
427.52	102.98
427.71	53.83
427.90	0.00
428.09	35.11
428.28	46.81
428.46	0.00
428.65	0.00
428.84	0.00
429.03	86.60
429.22	23.41
429.40	51.49
429.59	53.83
429.78	44.47
429.97	49.15
430.16	32.77
430.34	9.36
430.53	0.00
430.72	37.45
430.91	63.19
431.10	0.00
431.28	35.11
431.47	7.02
431.66	65.54
431.85	0.00
432.03	44.47
432.22	37.45
432.41	79.58
432.60	60.85
432.79	79.58
432.97	53.83
433.16	84.26
433.35	0.00
433.54	0.00
433.72	100.64
433.91	56.17
434.10	46.81
434.28	16.38
434.47	0.00
434.66	77.24
434.85	60.85
435.03	18.72
435.22	35.11
435.41	65.54
435.59	44.47
435.78	23.41
435.97	4.68
436.16	0.00
436.34	56.17
436.53	56.17
436.72	0.00
436.90	0.00
437.09	0.00
437.28	44.47
437.46	42.13
437.65	98.30
437.84	21.06
438.02	42.13
438.21	35.11
438.40	0.00
438.58	0.00
438.77	0.00
438.96	65.54
439.14	56.17
439.33	39.79
439.52	0.00
439.70	58.51
439.89	84.26
440.08	131.07
440.26	4.68
440.45	7.02
440.63	74.90
440.82	16.38
441.01	138.09
441.19	37.45
441.38	0.00
441.57	30.43
441.75	23.41
441.94	11.70
442.12	42.13
442.31	49.15
442.50	35.11
442.68	0.00
442.87	56.17
443.05	74.90
443.24	0.00
443.43	86.60
443.61	32.77
443.80	49.15
443.98	58.51
444.17	72.56
444.35	77.24
444.54	60.85
444.73	0.00
444.91	21.06
445.10	14.04
445.28	28.09
445.47	74.90
445.65	16.38
445.84	21.06
446.02	58.51
446.21	44.47
446.39	72.56
446.58	91.28
446.77	37.45
446.95	4.68
447.14	67.88
447.32	88.94
447.51	0.00
447.69	72.56
447.88	25.75
448.06	121.71
448.25	60.85
448.43	56.17
448.62	35.11
448.80	93.62
448.99	35.11
449.17	49.15
449.36	23.41
449.54	56.17
449.73	4.68
449.91	16.38
450.10	37.45
450.28	86.60
450.46	28.09
450.65	16.38
450.83	39.79
451.02	14.04
451.20	4.68
451.39	35.11
451.57	86.60
451.76	37.45
451.94	49.15
452.13	7.02
452.31	44.47
452.49	84.26
452.68	74.90
452.86	35.11
453.05	79.58
453.23	58.51
453.42	67.88
453.60	4.68
453.78	30.43
453.97	23.41
454.15	28.09
454.34	4.68
454.52	63.19
454.70	0.00
454.89	60.85
455.07	133.41
455.26	56.17
455.44	49.15
455.62	0.00
455.81	0.00
455.99	46.81
456.17	35.11
456.36	0.00
456.54	0.00
456.73	42.13
456.91	91.28
457.09	39.79
457.28	74.90
457.46	49.15
457.64	72.56
457.83	16.38
458.01	98.30
458.19	32.77
458.38	93.62
458.56	91.28
458.74	21.06
458.93	88.94
459.11	14.04
459.29	0.00
459.48	30.43
459.66	0.00
459.84	100.64
460.03	30.43
460.21	56.17
460.39	35.11
460.57	84.26
460.76	28.09
460.94	32.77
461.12	35.11
461.31	44.47
461.49	72.56
461.67	65.54
461.85	0.00
462.04	88.94
462.22	100.64
462.40	65.54
462.59	30.43
462.77	16.38
462.95	63.19
463.13	65.54
463.32	67.88
463.50	49.15
463.68	105.32
463.86	110.01
464.05	79.58
464.23	65.54
464.41	105.32
464.59	23.41
464.78	0.00
464.96	58.51
465.14	51.49
465.32	16.38
465.50	74.90
465.69	2.34
465.87	95.96
466.05	35.11
466.23	23.41
466.41	0.00
466.60	35.11
466.78	100.64
466.96	0.00
467.14	30.43
467.32	9.36
467.51	51.49
467.69	67.88
467.87	44.47
468.05	28.09
468.23	25.75
468.41	63.19
468.60	2.34
468.78	81.92
468.96	107.66
469.14	16.38
469.32	21.06
469.50	39.79
469.69	81.92
469.87	0.00
470.05	35.11
470.23	0.00
470.41	56.17
470.59	88.94
470.77	98.30
470.95	72.56
471.14	49.15
471.32	53.83
471.50	81.92
471.68	72.56
471.86	70.22
472.04	14.04
472.22	14.04
472.40	11.70
472.58	56.17
472.77	98.30
472.95	49.15
473.13	35.11
473.31	72.56
473.49	77.24
473.67	16.38
473.85	25.75
474.03	42.13
474.21	46.81
474.39	56.17
474.57	121.71
474.75	42.13
474.93	0.00
475.12	39.79
475.30	14.04
475.48	0.00
475.66	21.06
475.84	0.00
476.02	53.83
476.20	21.06
476.38	44.47
476.56	51.49
476.74	18.72
476.92	32.77
477.10	14.04
477.28	98.30
477.46	25.75
477.64	16.38
477.82	63.19
478.00	0.00
478.18	88.94
478.36	0.00
478.54	32.77
478.72	44.47
478.90	46.81
479.08	88.94
479.26	25.75
479.44	2.34
479.62	79.58
479.80	58.51
479.98	46.81
480.16	0.00
480.34	16.38
480.52	21.06
480.70	65.54
480.88	25.75
481.06	65.54
481.24	65.54
481.41	74.90
481.59	30.43
481.77	23.41
481.95	67.88
482.13	14.04
482.31	65.54
482.49	39.79
482.67	28.09
482.85	84.26
483.03	0.00
483.21	4.68
483.39	0.00
483.57	0.00
483.74	105.32
483.92	44.47
484.10	28.09
484.28	44.47
484.46	0.00
484.64	63.19
484.82	2.34
485.00	44.47
485.18	23.41
485.35	0.00
485.53	0.00
485.71	58.51
485.89	39.79
486.07	110.01
486.25	63.19
486.43	53.83
486.61	91.28
486.78	65.54
486.96	119.37
487.14	44.47
487.32	86.60
487.50	63.19
487.68	23.41
487.85	0.00
488.03	14.04
488.21	42.13
488.39	63.19
488.57	30.43
488.75	0.00
488.92	35.11
489.10	0.00
489.28	95.96
489.46	77.24
489.64	91.28
489.81	58.51
489.99	16.38
490.17	133.41
490.35	30.43
490.53	46.81
490.70	88.94
490.88	0.00
491.06	0.00
491.24	65.54
491.41	51.49
491.59	84.26
491.77	37.45
491.95	70.22
492.13	30.43
492.30	0.00
492.48	65.54
492.66	53.83
492.84	4.68
493.01	51.49
493.19	65.54
493.37	93.62
493.54	0.00
493.72	16.38
493.90	58.51
494.08	42.13
494.25	9.36
494.43	39.79
494.61	16.38
494.79	91.28
494.96	0.00
495.14	0.00
495.32	100.64
495.49	23.41
495.67	39.79
495.85	72.56
496.02	16.38
496.20	32.77
496.38	11.70
496.55	128.73
496.73	70.22
496.91	44.47
497.09	0.00
497.26	63.19
497.44	95.96
497.62	0.00
497.79	0.00
497.97	91.28
498.14	0.00
498.32	49.15
498.50	21.06
498.67	105.32
498.85	28.09
499.03	28.09
499.20	81.92
499.38	16.38
499.56	44.47
499.73	28.09
499.91	58.51
500.08	91.28
500.26	56.17
500.44	58.51
500.61	53.83
500.79	51.49
500.97	0.00
501.14	49.15
501.32	0.00
501.49	44.47
501.67	21.06
501.84	77.24
502.02	42.13
502.20	56.17
502.37	16.38
502.55	0.00
502.72	32.77
502.90	53.83
503.07	51.49
503.25	11.70
503.43	0.00
503.60	28.09
503.78	60.85
503.95	65.54
504.13	7.02
504.30	39.79
504.48	46.81
504.65	39.79
504.83	77.24
505.01	0.00
505.18	56.17
505.36	70.22
505.53	46.81
505.71	49.15
505.88	70.22
506.06	58.51
506.23	49.15
506.41	65.54
506.58	39.79
506.76	51.49
506.93	35.11
507.11	42.13
507.28	16.38
507.46	21.06
507.63	0.00
507.81	95.96
507.98	53.83
508.16	67.88
508.33	58.51
508.50	30.43
508.68	0.00
508.85	65.54
509.03	0.00
509.20	91.28
509.38	0.00
509.55	81.92
509.73	63.19
509.90	81.92
510.08	39.79
510.25	49.15
510.42	56.17
510.60	65.54
510.77	117.03
510.95	37.45
511.12	46.81
511.30	74.90
511.47	77.24
511.64	74.90
511.82	25.75
511.99	65.54
512.17	42.13
512.34	56.17
512.51	14.04
512.69	98.30
512.86	32.77
513.04	60.85
513.21	46.81
513.38	58.51
513.56	74.90
513.73	42.13
513.90	35.11
514.08	42.13
514.25	133.41
514.43	16.38
514.60	65.54
514.77	72.56
514.95	0.00
515.12	39.79
515.29	65.54
515.47	72.56
515.64	0.00
515.81	30.43
515.99	79.58
516.16	0.00
516.33	0.00
516.51	0.00
516.68	21.06
516.85	100.64
517.03	7.02
517.20	46.81
517.37	51.49
517.54	72.56
517.72	98.30
517.89	25.75
518.06	35.11
518.24	30.43
518.41	86.60
518.58	0.00
518.75	70.22
518.93	74.90
519.10	16.38
519.27	128.73
519.45	7.02
519.62	32.77
519.79	81.92
519.96	51.49
520.14	46.81
520.31	70.22
520.48	7.02
520.65	70.22
520.83	56.17
521.00	0.00
521.17	35.11
521.34	37.45
521.52	16.38
521.69	91.28
521.86	2.34
522.03	16.38
522.20	51.49
522.38	11.70
522.55	0.00
522.72	135.75
522.89	32.77
523.07	0.00
523.24	30.43
523.41	133.41
523.58	0.00
523.75	42.13
523.92	2.34
524.10	65.54
524.27	81.92
524.44	42.13
524.61	18.72
524.78	35.11
524.96	21.06
525.13	93.62
525.30	67.88
525.47	63.19
525.64	77.24
525.81	79.58
525.98	39.79
526.16	84.26
526.33	14.04
526.50	56.17
526.67	49.15
526.84	0.00
527.01	72.56
527.18	7.02
527.36	0.00
527.53	18.72
527.70	74.90
527.87	51.49
528.04	7.02
528.21	0.00
528.38	0.00
528.55	42.13
528.72	35.11
528.89	0.00
529.07	84.26
529.24	49.15
529.41	39.79
529.58	23.41
529.75	110.01
529.92	79.58
530.09	100.64
530.26	0.00
530.43	14.04
530.60	23.41
530.77	128.73
530.94	2.34
531.11	65.54
531.28	16.38
531.46	65.54
531.63	67.88
531.80	39.79
531.97	49.15
532.14	51.49
532.31	93.62
532.48	98.30
532.65	23.41
532.82	2.34
532.99	74.90
533.16	65.54
533.33	70.22
533.50	0.00
533.67	79.58
533.84	23.41
534.01	77.24
534.18	102.98
534.35	98.30
534.52	72.56
534.69	58.51
534.86	32.77
535.03	95.96
535.20	79.58
535.37	49.15
535.54	70.22
535.71	70.22
535.88	56.17
536.05	32.77
536.22	100.64
536.38	37.45
536.55	91.28
536.72	77.24
536.89	95.96
537.06	63.19
537.23	23.41
537.40	46.81
537.57	9.36
537.74	28.09
537.91	37.45
538.08	98.30
538.25	30.43
538.42	0.00
538.59	63.19
538.75	42.13
538.92	30.43
539.09	84.26
539.26	91.28
539.43	98.30
539.60	28.09
539.77	56.17
539.94	25.75
540.11	84.26
540.28	32.77
540.44	35.11
540.61	9.36
540.78	0.00
540.95	39.79
541.12	49.15
541.29	28.09
541.46	11.70
541.62	23.41
541.79	0.00
541.96	0.00
542.13	2.34
542.30	81.92
542.47	51.49
542.63	72.56
542.80	32.77
542.97	53.83
543.14	18.72
543.31	39.79
543.48	2.34
543.64	0.00
543.81	88.94
543.98	77.24
544.15	74.90
544.32	2.34
544.48	0.00
544.65	30.43
544.82	0.00
544.99	9.36
545.16	53.83
545.32	60.85
545.49	23.41
545.66	0.00
545.83	35.11
546.00	79.58
546.16	58.51
546.33	44.47
546.50	58.51
546.67	53.83
546.83	0.00
547.00	58.51
547.17	39.79
547.34	30.43
547.50	0.00
547.67	37.45
547.84	7.02
548.00	21.06
548.17	37.45
548.34	35.11
548.51	114.69
548.67	100.64
548.84	49.15
549.01	72.56
549.18	30.43
549.34	35.11
549.51	39.79
549.68	35.11
549.84	72.56
550.01	0.00
550.18	30.43
550.34	16.38
550.51	77.24
550.68	0.00
550.84	30.43
551.01	14.04
551.18	7.02
551.34	39.79
551.51	100.64
551.68	65.54
551.84	98.30
552.01	53.83
552.18	93.62
552.34	102.98
552.51	49.15
552.68	88.94
552.84	58.51
553.01	95.96
553.18	0.00
553.34	84.26
553.51	37.45
553.67	58.51
553.84	117.03
554.01	65.54
554.17	65.54
554.34	44.47
554.51	100.64
554.67	23.41
554.84	44.47
555.00	18.72
555.17	0.00
555.33	42.13
555.50	18.72
555.67	32.77
555.83	0.00
556.00	0.00
556.16	23.41
556.33	44.47
556.50	2.34
556.66	4.68
556.83	39.79
556.99	51.49
557.16	42.13
557.32	30.43
557.49	37.45
557.65	28.09
557.82	37.45
557.98	88.94
558.15	39.79
558.32	37.45
558.48	81.92
558.65	63.19
558.81	30.43
558.98	79.58
559.14	25.75
559.31	9.36
559.47	21.06
559.64	4.68
559.80	37.45
559.97	0.00
560.13	49.15
560.30	14.04
560.46	56.17
560.63	39.79
560.79	51.49
560.96	156.82
561.12	77.24
561.29	60.85
561.45	32.77
561.61	18.72
561.78	42.13
561.94	25.75
562.11	65.54
562.27	131.07
562.44	60.85
562.60	32.77
562.77	0.00
562.93	16.38
563.10	0.00
563.26	88.94
563.42	72.56
563.59	23.41
563.75	60.85
563.92	28.09
564.08	51.49
564.24	0.00
564.41	79.58
564.57	88.94
564.74	98.30
564.90	0.00
565.07	23.41
565.23	0.00
565.39	9.36
565.56	25.75
565.72	114.69
565.88	28.09
566.05	100.64
566.21	65.54
566.38	63.19
566.54	11.70
566.70	44.47
566.87	58.51
567.03	58.51
567.19	23.41
567.36	2.34
567.52	0.00
567.68	30.43
567.85	114.69
568.01	28.09
568.17	0.00
568.34	49.15
568.50	23.41
568.66	72.56
568.83	18.72
568.99	32.77
569.15	42.13
569.32	7.02
569.48	0.00
569.64	46.81
569.81	18.72
569.97	49.15
570.13	0.00
570.30	7.02
570.46	56.17
570.62	56.17
570.78	107.66
570.95	70.22
571.11	0.00
571.27	9.36
571.43	110.01
571.60	88.94
571.76	81.92
571.92	18.72
572.09	58.51
572.25	32.77
572.41	0.00
572.57	23.41
572.74	14.04
572.90	60.85
573.06	46.81
573.22	58.51
573.38	14.04
573.55	46.81
573.71	14.04
573.87	14.04
574.03	0.00
574.20	0.00
574.36	56.17
574.52	9.36
574.68	18.72
574.84	30.43
575.01	46.81
575.17	23.41
575.33	23.41
575.49	42.13
575.65	0.00
575.82	16.38
575.98	72.56
576.14	56.17
576.30	51.49
576.46	51.49
576.62	30.43
576.79	81.92
576.95	70.22
577.11	152.13
577.27	0.00
577.43	77.24
577.59	100.64
577.75	58.51
577.92	114.69
578.08	4.68
578.24	0.00
578.40	93.62
578.56	70.22
578.72	152.13
578.88	14.04
579.04	63.19
579.21	46.81
579.37	32.77
579.53	60.85
579.69	32.77
579.85	72.56
580.01	35.11
580.17	42.13
580.33	65.54
580.49	49.15
580.65	67.88
580.82	23.41
580.98	105.32
581.14	142.77
581.30	0.00
581.46	32.77
581.62	93.62
581.78	63.19
581.94	28.09
582.10	74.90
582.26	14.04
582.42	74.90
582.58	21.06
582.74	74.90
582.90	18.72
583.06	72.56
583.22	91.28
583.38	67.88
583.54	42.13
583.70	0.00
583.86	77.24
584.02	51.49
584.18	88.94
584.34	42.13
584.50	91.28
584.66	622.58
584.82	1188.99
584.98	1371.55
585.14	1022.81
585.30	711.52
585.46	503.22
585.62	262.14
585.78	112.35
585.94	79.58
586.10	51.49
586.26	102.98
586.42	63.19
586.58	184.90
586.74	23.41
586.90	56.17
587.06	11.70
587.22	93.62
587.38	51.49
587.54	84.26
587.70	88.94
587.86	133.41
588.02	102.98
588.18	86.60
588.34	46.81
588.49	42.13
588.65	91.28
588.81	30.43
588.97	0.00
589.13	23.41
589.29	56.17
589.45	4.68
589.61	0.00
589.77	84.26
589.93	67.88
590.08	35.11
590.24	32.77
590.40	21.06
590.56	63.19
590.72	60.85
590.88	95.96
591.04	28.09
591.20	14.04
591.35	0.00
591.51	14.04
591.67	35.11
591.83	2.34
591.99	0.00
592.15	53.83
592.31	44.47
592.46	21.06
592.62	9.36
592.78	18.72
592.94	0.00
593.10	0.00
593.26	51.49
593.41	51.49
593.57	7.02
593.73	39.79
593.89	147.45
594.05	152.13
594.20	184.90
594.36	229.37
594.52	63.19
594.68	117.03
594.84	42.13
594.99	114.69
595.15	0.00
595.31	23.41
595.47	0.00
595.62	14.04
595.78	44.47
595.94	93.62
596.10	0.00
596.25	0.00
596.41	30.43
596.57	79.58
596.73	0.00
596.88	53.83
597.04	49.15
597.20	49.15
597.36	46.81
597.51	126.39
597.67	28.09
597.83	25.75
597.99	35.11
598.14	35.11
598.30	0.00
598.46	46.81
598.61	58.51
598.77	23.41
598.93	63.19
599.09	74.90
599.24	51.49
599.40	60.85
599.56	58.51
599.71	44.47
599.87	51.49
600.03	74.90
600.18	44.47
600.34	7.02
600.50	0.00
600.65	74.90
600.81	35.11
600.97	25.75
601.12	107.66
601.28	53.83
601.44	91.28
601.59	60.85
601.75	46.81
601.91	0.00
602.06	11.70
602.22	18.72
602.37	35.11
602.53	126.39
602.69	117.03
602.84	124.05
603.00	126.39
603.16	74.90
603.31	117.03
603.47	124.05
603.62	72.56
603.78	0.00
603.94	44.47
604.09	9.36
604.25	51.49
604.40	56.17
604.56	49.15
604.71	0.00
604.87	23.41
605.03	35.11
605.18	39.79
605.34	91.28
605.49	126.39
605.65	0.00
605.80	11.70
605.96	18.72
606.12	0.00
606.27	21.06
606.43	0.00
606.58	37.45
606.74	63.19
606.89	128.73
607.05	163.84
607.20	156.82
607.36	135.75
607.51	91.28
607.67	81.92
607.82	67.88
607.98	81.92
608.13	63.19
608.29	65.54
608.44	131.07
608.60	9.36
608.75	56.17
608.91	81.92
609.06	156.82
609.22	238.73
609.37	313.63
609.53	168.52
609.68	196.60
609.84	93.62
609.99	142.77
610.15	145.11
610.30	44.47
610.46	51.49
610.61	42.13
610.76	35.11
610.92	79.58
611.07	11.70
611.23	25.75
611.38	44.47
611.54	74.90
611.69	0.00
611.84	65.54
612.00	21.06
612.15	39.79
612.31	30.43
612.46	0.00
612.62	9.36
612.77	93.62
612.92	0.00
613.08	14.04
613.23	77.24
613.39	37.45
613.54	46.81
613.69	180.22
613.85	337.04
614.00	400.23
614.15	311.29
614.31	273.84
614.46	201.29
614.62	205.97
614.77	67.88
614.92	11.70
615.08	49.15
615.23	58.51
615.38	30.43
615.54	0.00
615.69	79.58
615.84	63.19
616.00	105.32
616.15	220.01
616.30	93.62
616.46	145.11
616.61	37.45
616.76	35.11
616.92	11.70
617.07	11.70
617.22	102.98
617.37	7.02
617.53	32.77
617.68	0.00
617.83	23.41
617.99	79.58
618.14	23.41
618.29	77.24
618.45	0.00
618.60	0.00
618.75	35.11
618.90	14.04
619.06	32.77
619.21	39.79
619.36	35.11
619.51	77.24
619.67	0.00
619.82	9.36
619.97	58.51
620.12	0.00
620.28	0.00
620.43	25.75
620.58	9.36
620.73	46.81
620.89	53.83
621.04	93.62
621.19	112.35
621.34	77.24
621.49	88.94
621.65	72.56
621.80	60.85
621.95	11.70
622.10	51.49
622.25	53.83
622.41	21.06
622.56	0.00
622.71	46.81
622.86	11.70
623.01	74.90
623.16	42.13
623.32	37.45
623.47	14.04
623.62	0.00
623.77	25.75
623.92	0.00
624.07	44.47
624.23	0.00
624.38	63.19
624.53	60.85
624.68	0.00
624.83	0.00
624.98	16.38
625.13	56.17
625.29	42.13
625.44	4.68
625.59	18.72
625.74	51.49
625.89	30.43
626.04	124.05
626.19	142.77
626.34	194.26
626.49	271.50
626.65	238.73
626.80	177.88
626.95	124.05
627.10	131.07
627.25	9.36
627.40	58.51
627.55	70.22
627.70	39.79
627.85	32.77
628.00	74.90
628.15	32.77
628.30	51.49
628.45	49.15
628.60	56.17
628.76	0.00
628.91	32.77
629.06	88.94
629.21	51.49
629.36	93.62
629.51	28.09
629.66	37.45
629.81	63.19
629.96	28.09
630.11	86.60
630.26	95.96
630.41	79.58
630.56	23.41
630.71	65.54
630.86	91.28
631.01	0.00
631.16	88.94
631.31	14.04
631.46	60.85
631.61	11.70
631.76	63.19
631.91	110.01
632.06	23.41
632.21	60.85
632.36	60.85
632.51	0.00
632.66	51.49
632.81	84.26
632.96	145.11
633.10	184.90
633.25	191.92
633.40	182.56
633.55	166.18
633.70	35.11
633.85	91.28
634.00	105.32
634.15	37.45
634.30	117.03
634.45	0.00
634.60	67.88
634.75	0.00
634.90	0.00
635.05	46.81
635.19	0.00
635.34	49.15
635.49	88.94
635.64	0.00
635.79	51.49
635.94	49.15
636.09	74.90
636.24	28.09
636.39	11.70
636.53	11.70
636.68	42.13
636.83	0.00
636.98	49.15
637.13	58.51
637.28	0.00
637.43	39.79
637.57	42.13
637.72	86.60
637.87	184.90
638.02	280.86
638.17	339.38
638.32	161.50
638.46	133.41
638.61	74.90
638.76	145.11
638.91	124.05
639.06	0.00
639.20	114.69
639.35	46.81
639.50	51.49
639.65	124.05
639.80	327.68
639.94	496.19
640.09	365.12
640.24	297.25
640.39	252.78
640.54	145.11
640.68	126.39
640.83	0.00
640.98	37.45
641.13	46.81
641.27	21.06
641.42	46.81
641.57	2.34
641.72	0.00
641.86	42.13
642.01	84.26
642.16	65.54
642.31	39.79
642.45	51.49
642.60	77.24
642.75	67.88
642.90	39.79
643.04	67.88
643.19	72.56
643.34	49.15
643.48	14.04
643.63	98.30
643.78	23.41
643.93	0.00
644.07	67.88
644.22	0.00
644.37	42.13
644.51	32.77
644.66	84.26
644.81	39.79
644.95	72.56
645.10	91.28
645.25	42.13
645.39	35.11
645.54	11.70
645.69	9.36
645.83	46.81
645.98	56.17
646.13	107.66
646.27	16.38
646.42	0.00
646.57	46.81
646.71	42.13
646.86	0.00
647.00	0.00
647.15	42.13
647.30	49.15
647.44	81.92
647.59	72.56
647.74	67.88
647.88	0.00
648.03	58.51
648.17	37.45
648.32	58.51
648.47	42.13
648.61	2.34
648.76	0.00
648.90	25.75
649.05	39.79
649.20	65.54
649.34	28.09
649.49	51.49
649.63	2.34
649.78	25.75
649.92	28.09
650.07	107.66
650.21	114.69
650.36	205.97
650.51	257.46
650.65	159.16
650.80	182.56
650.94	107.66
651.09	2.34
651.23	51.49
651.38	32.77
651.52	105.32
651.67	44.47
651.81	46.81
651.96	0.00
652.10	0.00
652.25	23.41
652.39	7.02
652.54	58.51
652.68	46.81
652.83	93.62
652.97	124.05
653.12	124.05
653.26	72.56
653.41	30.43
653.55	86.60
653.70	25.75
653.84	0.00
653.99	95.96
654.13	23.41
654.27	44.47
654.42	79.58
654.56	11.70
654.71	0.00
654.85	67.88
655.00	46.81
655.14	4.68
655.29	16.38
655.43	42.13
655.57	84.26
655.72	39.79
655.86	74.90
656.01	81.92
656.15	0.00
656.30	63.19
656.44	84.26
656.58	0.00
656.73	56.17
656.87	49.15
657.01	42.13
657.16	63.19
657.30	0.00
657.45	14.04
657.59	30.43
657.73	67.88
657.88	16.38
658.02	0.00
658.16	46.81
658.31	14.04
658.45	53.83
658.60	51.49
658.74	67.88
658.88	63.19
659.03	0.00
659.17	0.00
659.31	67.88
659.46	88.94
659.60	126.39
659.74	91.28
659.89	124.05
660.03	77.24
660.17	149.79
660.32	72.56
660.46	28.09
660.60	77.24
660.74	14.04
660.89	30.43
661.03	35.11
661.17	65.54
661.32	72.56
661.46	35.11
661.60	56.17
661.74	0.00
661.89	60.85
662.03	11.70
662.17	0.00
662.31	42.13
662.46	42.13
662.60	56.17
662.74	30.43
662.88	51.49
663.03	16.38
663.17	84.26
663.31	0.00
663.45	0.00
663.60	86.60
663.74	58.51
663.88	102.98
664.02	37.45
664.17	9.36
664.31	4.68
664.45	149.79
664.59	124.05
664.73	121.71
664.88	9.36
665.02	49.15
665.16	0.00
665.30	25.75
665.44	0.00
665.59	63.19
665.73	46.81
665.87	0.00
666.01	84.26
666.15	77.24
666.29	65.54
666.44	7.02
666.58	86.60
666.72	56.17
666.86	39.79
667.00	67.88
667.14	49.15
667.28	81.92
667.43	140.43
667.57	182.56
667.71	177.88
667.85	142.77
667.99	161.50
668.13	121.71
668.27	79.58
668.41	67.88
668.56	88.94
668.70	65.54
668.84	21.06
668.98	25.75
669.12	72.56
669.26	14.04
669.40	79.58
669.54	35.11
669.68	21.06
669.82	42.13
669.96	63.19
670.10	25.75
670.25	63.19
670.39	37.45
670.53	32.77
670.67	58.51
670.81	0.00
670.95	23.41
671.09	35.11
671.23	126.39
671.37	142.77
671.51	131.07
671.65	147.45
671.79	145.11
671.93	110.01
672.07	93.62
672.21	4.68
672.35	0.00
672.49	42.13
672.63	35.11
672.77	9.36
672.91	0.00
673.05	58.51
673.19	0.00
673.33	63.19
673.47	0.00
673.61	117.03
673.75	21.06
673.89	0.00
674.03	35.11
674.17	126.39
674.31	0.00
674.45	0.00
674.59	46.81
674.73	63.19
674.87	39.79
675.01	42.13
675.15	65.54
675.29	4.68
675.43	0.00
675.56	72.56
675.70	23.41
675.84	0.00
675.98	63.19
676.12	84.26
676.26	0.00
676.40	39.79
676.54	30.43
676.68	60.85
676.82	18.72
676.96	0.00
677.10	72.56
677.23	11.70
677.37	0.00
677.51	25.75
677.65	77.24
677.79	51.49
677.93	0.00
678.07	0.00
678.21	4.68
678.34	42.13
678.48	79.58
678.62	86.60
678.76	0.00
678.90	21.06
679.04	14.04
679.18	58.51
679.31	65.54
679.45	23.41
679.59	0.00
679.73	39.79
679.87	39.79
680.00	32.77
680.14	30.43
680.28	100.64
680.42	53.83
680.56	84.26
680.70	39.79
680.83	98.30
680.97	63.19
681.11	30.43
681.25	30.43
681.39	46.81
681.52	30.43
681.66	135.75
681.80	16.38
681.94	72.56
682.07	14.04
682.21	51.49
682.35	77.24
682.49	14.04
682.62	51.49
682.76	0.00
682.90	18.72
683.04	44.47
683.17	65.54
683.31	95.96
683.45	25.75
683.59	42.13
683.72	56.17
683.86	0.00
684.00	46.81
684.13	42.13
684.27	51.49
684.41	4.68
684.55	65.54
684.68	44.47
684.82	65.54
684.96	0.00
685.09	9.36
685.23	0.00
685.37	0.00
685.50	16.38
685.64	7.02
685.78	88.94
685.91	4.68
686.05	14.04
686.19	0.00
686.32	86.60
686.46	0.00
686.60	23.41
686.73	0.00
686.87	0.00
687.01	32.77
687.14	23.41
687.28	0.00
687.42	37.45
687.55	4.68
687.69	44.47
687.82	32.77
687.96	81.92
688.10	56.17
688.23	39.79
688.37	18.72
688.50	0.00
688.64	11.70
688.78	140.43
688.91	51.49
689.05	14.04
689.18	56.17
689.32	39.79
689.46	4.68
689.59	88.94
689.73	2.34
689.86	0.00
690.00	70.22
690.13	49.15
690.27	65.54
690.41	91.28
690.54	93.62
690.68	0.00
690.81	74.90
690.95	88.94
691.08	0.00
691.22	0.00
691.35	39.79
691.49	86.60
691.62	51.49
691.76	60.85
691.89	23.41
692.03	4.68
692.16	98.30
692.30	14.04
692.43	39.79
692.57	95.96
692.70	72.56
692.84	126.39
692.97	77.24
693.11	100.64
693.24	65.54
693.38	37.45
693.51	56.17
693.65	18.72
693.78	30.43
693.92	91.28
694.05	77.24
694.19	4.68
694.32	4.68
694.45	77.24
694.59	49.15
694.72	14.04
694.86	42.13
694.99	60.85
695.13	0.00
695.26	28.09
695.39	0.00
695.53	72.56
695.66	4.68
695.80	0.00
695.93	77.24
696.07	46.81
696.20	0.00
696.33	70.22
696.47	0.00
696.60	44.47
696.73	49.15
696.87	107.66
697.00	28.09
697.14	9.36
697.27	0.00
697.40	79.58
697.54	28.09
697.67	65.54
697.80	0.00
697.94	18.72
698.07	60.85
698.21	86.60
698.34	46.81
698.47	98.30
698.61	0.00
698.74	30.43
698.87	0.00
699.01	32.77
699.14	175.54
699.27	28.09
699.40	84.26
699.54	39.79
699.67	63.19
699.80	107.66
699.94	37.45
700.07	32.77
700.20	14.04
700.34	86.60
700.47	4.68
700.60	100.64
700.73	0.00
700.87	4.68
701.00	18.72
701.13	23.41
701.26	35.11
701.40	25.75
701.53	16.38
701.66	30.43
701.79	28.09
701.93	25.75
702.06	67.88
702.19	67.88
702.32	0.00
702.46	67.88
702.59	74.90
702.72	28.09
702.85	63.19
702.99	138.09
703.12	124.05
703.25	156.82
703.38	98.30
703.51	98.30
703.65	91.28
703.78	72.56
703.91	46.81
704.04	49.15
704.17	60.85
704.31	0.00
704.44	39.79
704.57	77.24
704.70	0.00
704.83	16.38
704.96	2.34
705.10	0.00
705.23	14.04
>>>>>End Processed Spectral Data<<<<<
