SpectraSuite Data File
++++++++++++++++++++++++++++++++++++
Date: Fri Oct 04 12:13:29 GMT-05:00 2013
User: price-jones
Dark Spectrum Present: No
Reference Spectrum Present: No
Number of Sampled Component Spectra: 1
Spectrometers: USB2+H05261
Integration Time (usec): 10000 (USB2+H05261)
Spectra Averaged: 1 (USB2+H05261)
Boxcar Smoothing: 0 (USB2+H05261)
Correct for Electrical Dark: No (USB2+H05261)
Strobe/Lamp Enabled: No (USB2+H05261)
Correct for Detector Non-linearity: No (USB2+H05261)
Correct for Stray Light: No (USB2+H05261)
Number of Pixels in Processed Spectrum: 2048
>>>>>Begin Processed Spectral Data<<<<<
365.73	49.15
365.92	49.15
366.12	49.15
366.32	0.00
366.52	0.00
366.72	0.00
366.91	0.00
367.11	0.00
367.31	0.00
367.51	0.00
367.70	0.00
367.90	0.00
368.10	0.00
368.30	0.00
368.49	0.00
368.69	0.00
368.89	0.00
369.09	0.00
369.28	0.00
369.48	0.00
369.68	0.00
369.87	0.00
370.07	0.00
370.27	0.00
370.47	0.00
370.66	0.00
370.86	0.00
371.06	0.00
371.25	0.00
371.45	0.00
371.65	25.75
371.84	0.00
372.04	0.00
372.24	0.00
372.44	9.36
372.63	0.00
372.83	0.00
373.03	0.00
373.22	30.43
373.42	0.00
373.62	14.04
373.81	7.02
374.01	42.13
374.21	0.00
374.40	37.45
374.60	2.34
374.79	0.00
374.99	25.75
375.19	51.49
375.38	16.38
375.58	28.09
375.78	14.04
375.97	53.83
376.17	72.56
376.37	44.47
376.56	46.81
376.76	18.72
376.95	42.13
377.15	44.47
377.35	56.17
377.54	74.90
377.74	0.00
377.93	88.94
378.13	60.85
378.33	161.50
378.52	100.64
378.72	0.00
378.91	18.72
379.11	0.00
379.31	0.00
379.50	0.00
379.70	0.00
379.89	42.13
380.09	21.06
380.28	7.02
380.48	81.92
380.68	7.02
380.87	9.36
381.07	0.00
381.26	84.26
381.46	7.02
381.65	4.68
381.85	16.38
382.04	49.15
382.24	0.00
382.43	0.00
382.63	4.68
382.83	37.45
383.02	0.00
383.22	23.41
383.41	0.00
383.61	49.15
383.80	0.00
384.00	0.00
384.19	37.45
384.39	72.56
384.58	58.51
384.78	42.13
384.97	0.00
385.17	0.00
385.36	0.00
385.56	28.09
385.75	42.13
385.95	37.45
386.14	9.36
386.34	21.06
386.53	0.00
386.72	0.00
386.92	65.54
387.11	11.70
387.31	16.38
387.50	46.81
387.70	9.36
387.89	2.34
388.09	0.00
388.28	18.72
388.48	0.00
388.67	70.22
388.86	32.77
389.06	39.79
389.25	65.54
389.45	11.70
389.64	0.00
389.84	30.43
390.03	18.72
390.22	23.41
390.42	9.36
390.61	0.00
390.81	53.83
391.00	0.00
391.19	67.88
391.39	46.81
391.58	25.75
391.78	42.13
391.97	4.68
392.16	0.00
392.36	0.00
392.55	0.00
392.75	77.24
392.94	4.68
393.13	42.13
393.33	25.75
393.52	0.00
393.71	42.13
393.91	0.00
394.10	107.66
394.29	39.79
394.49	11.70
394.68	11.70
394.88	37.45
395.07	46.81
395.26	0.00
395.46	70.22
395.65	11.70
395.84	46.81
396.04	4.68
396.23	60.85
396.42	16.38
396.62	39.79
396.81	56.17
397.00	14.04
397.19	37.45
397.39	30.43
397.58	28.09
397.77	23.41
397.97	23.41
398.16	16.38
398.35	0.00
398.55	56.17
398.74	0.00
398.93	93.62
399.12	49.15
399.32	51.49
399.51	32.77
399.70	60.85
399.90	0.00
400.09	0.00
400.28	4.68
400.47	53.83
400.67	32.77
400.86	14.04
401.05	35.11
401.24	35.11
401.44	0.00
401.63	16.38
401.82	95.96
402.01	23.41
402.21	9.36
402.40	18.72
402.59	0.00
402.78	0.00
402.97	0.00
403.17	0.00
403.36	51.49
403.55	32.77
403.74	7.02
403.93	67.88
404.13	30.43
404.32	30.43
404.51	18.72
404.70	44.47
404.89	46.81
405.09	25.75
405.28	0.00
405.47	77.24
405.66	9.36
405.85	7.02
406.05	51.49
406.24	25.75
406.43	30.43
406.62	46.81
406.81	44.47
407.00	32.77
407.20	25.75
407.39	32.77
407.58	11.70
407.77	56.17
407.96	2.34
408.15	72.56
408.34	37.45
408.54	32.77
408.73	0.00
408.92	28.09
409.11	11.70
409.30	46.81
409.49	23.41
409.68	9.36
409.87	0.00
410.07	53.83
410.26	0.00
410.45	67.88
410.64	49.15
410.83	21.06
411.02	0.00
411.21	0.00
411.40	35.11
411.59	0.00
411.78	18.72
411.98	32.77
412.17	14.04
412.36	21.06
412.55	2.34
412.74	0.00
412.93	0.00
413.12	42.13
413.31	18.72
413.50	49.15
413.69	18.72
413.88	28.09
414.07	44.47
414.26	88.94
414.45	0.00
414.64	44.47
414.83	63.19
415.02	60.85
415.22	0.00
415.41	65.54
415.60	2.34
415.79	30.43
415.98	4.68
416.17	51.49
416.36	49.15
416.55	30.43
416.74	0.00
416.93	35.11
417.12	18.72
417.31	58.51
417.50	14.04
417.69	86.60
417.88	49.15
418.07	70.22
418.26	51.49
418.45	35.11
418.64	11.70
418.83	0.00
419.02	16.38
419.21	46.81
419.39	23.41
419.58	46.81
419.77	44.47
419.96	0.00
420.15	11.70
420.34	0.00
420.53	37.45
420.72	105.32
420.91	0.00
421.10	0.00
421.29	51.49
421.48	72.56
421.67	67.88
421.86	46.81
422.05	0.00
422.24	11.70
422.43	105.32
422.61	42.13
422.80	14.04
422.99	0.00
423.18	7.02
423.37	39.79
423.56	4.68
423.75	9.36
423.94	32.77
424.13	70.22
424.32	39.79
424.50	65.54
424.69	18.72
424.88	30.43
425.07	18.72
425.26	9.36
425.45	81.92
425.64	95.96
425.83	53.83
426.01	28.09
426.20	0.00
426.39	28.09
426.58	11.70
426.77	0.00
426.96	16.38
427.15	67.88
427.33	51.49
427.52	16.38
427.71	21.06
427.90	46.81
428.09	25.75
428.28	42.13
428.46	67.88
428.65	74.90
428.84	42.13
429.03	91.28
429.22	7.02
429.40	0.00
429.59	67.88
429.78	32.77
429.97	28.09
430.16	16.38
430.34	32.77
430.53	98.30
430.72	42.13
430.91	35.11
431.10	0.00
431.28	39.79
431.47	58.51
431.66	91.28
431.85	39.79
432.03	35.11
432.22	70.22
432.41	28.09
432.60	0.00
432.79	67.88
432.97	7.02
433.16	86.60
433.35	16.38
433.54	72.56
433.72	9.36
433.91	7.02
434.10	30.43
434.28	28.09
434.47	70.22
434.66	0.00
434.85	86.60
435.03	46.81
435.22	39.79
435.41	16.38
435.59	49.15
435.78	72.56
435.97	23.41
436.16	0.00
436.34	0.00
436.53	0.00
436.72	46.81
436.90	0.00
437.09	30.43
437.28	9.36
437.46	25.75
437.65	42.13
437.84	23.41
438.02	65.54
438.21	21.06
438.40	81.92
438.58	9.36
438.77	0.00
438.96	23.41
439.14	110.01
439.33	63.19
439.52	39.79
439.70	28.09
439.89	35.11
440.08	21.06
440.26	14.04
440.45	65.54
440.63	74.90
440.82	16.38
441.01	0.00
441.19	70.22
441.38	11.70
441.57	0.00
441.75	0.00
441.94	0.00
442.12	0.00
442.31	25.75
442.50	46.81
442.68	117.03
442.87	14.04
443.05	0.00
443.24	72.56
443.43	46.81
443.61	63.19
443.80	0.00
443.98	79.58
444.17	28.09
444.35	0.00
444.54	81.92
444.73	0.00
444.91	81.92
445.10	0.00
445.28	53.83
445.47	100.64
445.65	0.00
445.84	35.11
446.02	4.68
446.21	60.85
446.39	42.13
446.58	32.77
446.77	53.83
446.95	0.00
447.14	95.96
447.32	0.00
447.51	39.79
447.69	49.15
447.88	37.45
448.06	2.34
448.25	21.06
448.43	4.68
448.62	37.45
448.80	25.75
448.99	0.00
449.17	65.54
449.36	37.45
449.54	14.04
449.73	149.79
449.91	51.49
450.10	7.02
450.28	49.15
450.46	46.81
450.65	16.38
450.83	16.38
451.02	0.00
451.20	28.09
451.39	53.83
451.57	56.17
451.76	14.04
451.94	0.00
452.13	121.71
452.31	84.26
452.49	49.15
452.68	0.00
452.86	74.90
453.05	0.00
453.23	44.47
453.42	0.00
453.60	0.00
453.78	63.19
453.97	2.34
454.15	79.58
454.34	18.72
454.52	56.17
454.70	91.28
454.89	35.11
455.07	23.41
455.26	107.66
455.44	16.38
455.62	18.72
455.81	4.68
455.99	63.19
456.17	81.92
456.36	39.79
456.54	46.81
456.73	60.85
456.91	110.01
457.09	16.38
457.28	11.70
457.46	42.13
457.64	100.64
457.83	0.00
458.01	44.47
458.19	28.09
458.38	21.06
458.56	88.94
458.74	49.15
458.93	60.85
459.11	58.51
459.29	30.43
459.48	93.62
459.66	35.11
459.84	98.30
460.03	0.00
460.21	0.00
460.39	84.26
460.57	77.24
460.76	7.02
460.94	0.00
461.12	60.85
461.31	9.36
461.49	0.00
461.67	28.09
461.85	0.00
462.04	30.43
462.22	88.94
462.40	72.56
462.59	105.32
462.77	79.58
462.95	44.47
463.13	0.00
463.32	4.68
463.50	0.00
463.68	81.92
463.86	23.41
464.05	0.00
464.23	46.81
464.41	0.00
464.59	14.04
464.78	30.43
464.96	23.41
465.14	4.68
465.32	44.47
465.50	79.58
465.69	46.81
465.87	77.24
466.05	37.45
466.23	70.22
466.41	9.36
466.60	56.17
466.78	4.68
466.96	65.54
467.14	46.81
467.32	9.36
467.51	9.36
467.69	28.09
467.87	4.68
468.05	39.79
468.23	23.41
468.41	51.49
468.60	2.34
468.78	60.85
468.96	16.38
469.14	35.11
469.32	149.79
469.50	124.05
469.69	84.26
469.87	0.00
470.05	46.81
470.23	0.00
470.41	21.06
470.59	56.17
470.77	74.90
470.95	11.70
471.14	21.06
471.32	28.09
471.50	37.45
471.68	53.83
471.86	25.75
472.04	53.83
472.22	86.60
472.40	25.75
472.58	0.00
472.77	28.09
472.95	60.85
473.13	60.85
473.31	53.83
473.49	112.35
473.67	72.56
473.85	74.90
474.03	0.00
474.21	0.00
474.39	0.00
474.57	35.11
474.75	114.69
474.93	28.09
475.12	98.30
475.30	63.19
475.48	18.72
475.66	86.60
475.84	100.64
476.02	4.68
476.20	46.81
476.38	0.00
476.56	51.49
476.74	18.72
476.92	0.00
477.10	0.00
477.28	58.51
477.46	98.30
477.64	4.68
477.82	65.54
478.00	56.17
478.18	32.77
478.36	0.00
478.54	88.94
478.72	58.51
478.90	51.49
479.08	0.00
479.26	51.49
479.44	81.92
479.62	35.11
479.80	0.00
479.98	72.56
480.16	65.54
480.34	18.72
480.52	37.45
480.70	58.51
480.88	93.62
481.06	51.49
481.24	21.06
481.41	56.17
481.59	7.02
481.77	46.81
481.95	46.81
482.13	98.30
482.31	0.00
482.49	56.17
482.67	0.00
482.85	0.00
483.03	35.11
483.21	98.30
483.39	28.09
483.57	53.83
483.74	60.85
483.92	32.77
484.10	32.77
484.28	93.62
484.46	0.00
484.64	0.00
484.82	58.51
485.00	88.94
485.18	60.85
485.35	79.58
485.53	23.41
485.71	30.43
485.89	9.36
486.07	39.79
486.25	0.00
486.43	53.83
486.61	9.36
486.78	60.85
486.96	37.45
487.14	18.72
487.32	0.00
487.50	98.30
487.68	32.77
487.85	53.83
488.03	79.58
488.21	0.00
488.39	32.77
488.57	37.45
488.75	60.85
488.92	88.94
489.10	74.90
489.28	79.58
489.46	0.00
489.64	32.77
489.81	51.49
489.99	95.96
490.17	0.00
490.35	46.81
490.53	65.54
490.70	0.00
490.88	0.00
491.06	51.49
491.24	74.90
491.41	72.56
491.59	37.45
491.77	60.85
491.95	44.47
492.13	53.83
492.30	39.79
492.48	46.81
492.66	72.56
492.84	42.13
493.01	60.85
493.19	0.00
493.37	35.11
493.54	23.41
493.72	84.26
493.90	79.58
494.08	30.43
494.25	0.00
494.43	77.24
494.61	28.09
494.79	28.09
494.96	30.43
495.14	46.81
495.32	44.47
495.49	88.94
495.67	4.68
495.85	0.00
496.02	4.68
496.20	37.45
496.38	81.92
496.55	81.92
496.73	56.17
496.91	0.00
497.09	35.11
497.26	105.32
497.44	4.68
497.62	0.00
497.79	93.62
497.97	44.47
498.14	23.41
498.32	0.00
498.50	51.49
498.67	46.81
498.85	11.70
499.03	44.47
499.20	46.81
499.38	0.00
499.56	72.56
499.73	93.62
499.91	0.00
500.08	60.85
500.26	35.11
500.44	21.06
500.61	32.77
500.79	77.24
500.97	72.56
501.14	14.04
501.32	0.00
501.49	63.19
501.67	60.85
501.84	44.47
502.02	7.02
502.20	91.28
502.37	107.66
502.55	0.00
502.72	21.06
502.90	4.68
503.07	9.36
503.25	65.54
503.43	14.04
503.60	46.81
503.78	18.72
503.95	46.81
504.13	32.77
504.30	30.43
504.48	39.79
504.65	30.43
504.83	39.79
505.01	46.81
505.18	93.62
505.36	23.41
505.53	56.17
505.71	9.36
505.88	112.35
506.06	25.75
506.23	39.79
506.41	18.72
506.58	58.51
506.76	30.43
506.93	32.77
507.11	46.81
507.28	25.75
507.46	0.00
507.63	86.60
507.81	0.00
507.98	46.81
508.16	60.85
508.33	51.49
508.50	32.77
508.68	77.24
508.85	11.70
509.03	25.75
509.20	14.04
509.38	21.06
509.55	7.02
509.73	56.17
509.90	70.22
510.08	46.81
510.25	25.75
510.42	72.56
510.60	0.00
510.77	37.45
510.95	0.00
511.12	81.92
511.30	51.49
511.47	2.34
511.64	0.00
511.82	88.94
511.99	0.00
512.17	37.45
512.34	11.70
512.51	77.24
512.69	84.26
512.86	0.00
513.04	37.45
513.21	58.51
513.38	65.54
513.56	49.15
513.73	16.38
513.90	18.72
514.08	0.00
514.25	51.49
514.43	98.30
514.60	37.45
514.77	30.43
514.95	32.77
515.12	74.90
515.29	51.49
515.47	42.13
515.64	35.11
515.81	21.06
515.99	25.75
516.16	63.19
516.33	70.22
516.51	42.13
516.68	67.88
516.85	44.47
517.03	121.71
517.20	0.00
517.37	74.90
517.54	0.00
517.72	67.88
517.89	25.75
518.06	49.15
518.24	72.56
518.41	98.30
518.58	53.83
518.75	32.77
518.93	72.56
519.10	35.11
519.27	0.00
519.45	11.70
519.62	0.00
519.79	28.09
519.96	21.06
520.14	46.81
520.31	58.51
520.48	23.41
520.65	39.79
520.83	28.09
521.00	25.75
521.17	0.00
521.34	14.04
521.52	86.60
521.69	0.00
521.86	0.00
522.03	42.13
522.20	35.11
522.38	11.70
522.55	0.00
522.72	65.54
522.89	63.19
523.07	58.51
523.24	60.85
523.41	37.45
523.58	18.72
523.75	65.54
523.92	58.51
524.10	51.49
524.27	86.60
524.44	0.00
524.61	98.30
524.78	14.04
524.96	91.28
525.13	18.72
525.30	18.72
525.47	81.92
525.64	0.00
525.81	32.77
525.98	65.54
526.16	0.00
526.33	74.90
526.50	14.04
526.67	0.00
526.84	39.79
527.01	25.75
527.18	42.13
527.36	58.51
527.53	7.02
527.70	11.70
527.87	77.24
528.04	98.30
528.21	49.15
528.38	88.94
528.55	32.77
528.72	63.19
528.89	105.32
529.07	0.00
529.24	23.41
529.41	91.28
529.58	28.09
529.75	91.28
529.92	53.83
530.09	67.88
530.26	28.09
530.43	107.66
530.60	67.88
530.77	44.47
530.94	9.36
531.11	42.13
531.28	35.11
531.46	0.00
531.63	0.00
531.80	0.00
531.97	88.94
532.14	110.01
532.31	32.77
532.48	11.70
532.65	21.06
532.82	56.17
532.99	79.58
533.16	11.70
533.33	44.47
533.50	46.81
533.67	84.26
533.84	51.49
534.01	28.09
534.18	77.24
534.35	37.45
534.52	117.03
534.69	46.81
534.86	25.75
535.03	28.09
535.20	56.17
535.37	70.22
535.54	114.69
535.71	21.06
535.88	32.77
536.05	46.81
536.22	11.70
536.38	25.75
536.55	49.15
536.72	25.75
536.89	88.94
537.06	21.06
537.23	49.15
537.40	72.56
537.57	37.45
537.74	81.92
537.91	42.13
538.08	37.45
538.25	35.11
538.42	128.73
538.59	46.81
538.75	0.00
538.92	30.43
539.09	56.17
539.26	32.77
539.43	95.96
539.60	72.56
539.77	100.64
539.94	126.39
540.11	72.56
540.28	21.06
540.44	35.11
540.61	35.11
540.78	28.09
540.95	102.98
541.12	98.30
541.29	74.90
541.46	65.54
541.62	21.06
541.79	0.00
541.96	91.28
542.13	28.09
542.30	0.00
542.47	65.54
542.63	39.79
542.80	84.26
542.97	110.01
543.14	9.36
543.31	32.77
543.48	14.04
543.64	16.38
543.81	53.83
543.98	88.94
544.15	63.19
544.32	0.00
544.48	77.24
544.65	23.41
544.82	23.41
544.99	51.49
545.16	86.60
545.32	79.58
545.49	42.13
545.66	88.94
545.83	86.60
546.00	42.13
546.16	131.07
546.33	79.58
546.50	0.00
546.67	67.88
546.83	23.41
547.00	28.09
547.17	84.26
547.34	9.36
547.50	0.00
547.67	18.72
547.84	86.60
548.00	65.54
548.17	119.37
548.34	32.77
548.51	32.77
548.67	98.30
548.84	0.00
549.01	58.51
549.18	58.51
549.34	60.85
549.51	0.00
549.68	9.36
549.84	7.02
550.01	39.79
550.18	58.51
550.34	86.60
550.51	65.54
550.68	16.38
550.84	72.56
551.01	44.47
551.18	0.00
551.34	88.94
551.51	42.13
551.68	16.38
551.84	72.56
552.01	0.00
552.18	0.00
552.34	46.81
552.51	53.83
552.68	16.38
552.84	0.00
553.01	28.09
553.18	16.38
553.34	65.54
553.51	49.15
553.67	74.90
553.84	53.83
554.01	56.17
554.17	56.17
554.34	46.81
554.51	81.92
554.67	86.60
554.84	32.77
555.00	9.36
555.17	14.04
555.33	37.45
555.50	84.26
555.67	84.26
555.83	56.17
556.00	25.75
556.16	30.43
556.33	21.06
556.50	0.00
556.66	51.49
556.83	107.66
556.99	32.77
557.16	88.94
557.32	18.72
557.49	46.81
557.65	4.68
557.82	77.24
557.98	56.17
558.15	72.56
558.32	0.00
558.48	65.54
558.65	49.15
558.81	21.06
558.98	16.38
559.14	14.04
559.31	86.60
559.47	70.22
559.64	49.15
559.80	107.66
559.97	51.49
560.13	35.11
560.30	0.00
560.46	9.36
560.63	11.70
560.79	2.34
560.96	11.70
561.12	42.13
561.29	84.26
561.45	56.17
561.61	0.00
561.78	30.43
561.94	67.88
562.11	7.02
562.27	0.00
562.44	39.79
562.60	95.96
562.77	51.49
562.93	107.66
563.10	49.15
563.26	0.00
563.42	84.26
563.59	46.81
563.75	14.04
563.92	63.19
564.08	49.15
564.24	28.09
564.41	39.79
564.57	67.88
564.74	7.02
564.90	11.70
565.07	107.66
565.23	42.13
565.39	100.64
565.56	30.43
565.72	74.90
565.88	35.11
566.05	135.75
566.21	4.68
566.38	0.00
566.54	70.22
566.70	81.92
566.87	32.77
567.03	0.00
567.19	63.19
567.36	32.77
567.52	67.88
567.68	37.45
567.85	37.45
568.01	37.45
568.17	56.17
568.34	77.24
568.50	30.43
568.66	49.15
568.83	53.83
568.99	170.86
569.15	35.11
569.32	70.22
569.48	79.58
569.64	60.85
569.81	67.88
569.97	25.75
570.13	65.54
570.30	53.83
570.46	0.00
570.62	23.41
570.78	114.69
570.95	67.88
571.11	0.00
571.27	16.38
571.43	65.54
571.60	25.75
571.76	100.64
571.92	46.81
572.09	42.13
572.25	2.34
572.41	77.24
572.57	0.00
572.74	0.00
572.90	84.26
573.06	124.05
573.22	100.64
573.38	42.13
573.55	112.35
573.71	18.72
573.87	74.90
574.03	39.79
574.20	0.00
574.36	63.19
574.52	49.15
574.68	23.41
574.84	112.35
575.01	46.81
575.17	44.47
575.33	11.70
575.49	30.43
575.65	28.09
575.82	88.94
575.98	121.71
576.14	91.28
576.30	67.88
576.46	0.00
576.62	102.98
576.79	114.69
576.95	4.68
577.11	30.43
577.27	32.77
577.43	4.68
577.59	0.00
577.75	74.90
577.92	63.19
578.08	67.88
578.24	23.41
578.40	60.85
578.56	30.43
578.72	0.00
578.88	74.90
579.04	9.36
579.21	70.22
579.37	0.00
579.53	84.26
579.69	95.96
579.85	58.51
580.01	42.13
580.17	0.00
580.33	72.56
580.49	51.49
580.65	44.47
580.82	23.41
580.98	114.69
581.14	32.77
581.30	25.75
581.46	112.35
581.62	56.17
581.78	128.73
581.94	56.17
582.10	44.47
582.26	2.34
582.42	32.77
582.58	28.09
582.74	91.28
582.90	0.00
583.06	25.75
583.22	74.90
583.38	131.07
583.54	95.96
583.70	0.00
583.86	23.41
584.02	159.16
584.18	95.96
584.34	110.01
584.50	337.04
584.66	2040.95
584.82	4440.00
584.98	6296.04
585.14	5380.89
585.30	3332.92
585.46	2134.57
585.62	1261.55
585.78	592.16
585.94	334.70
586.10	152.13
586.26	79.58
586.42	105.32
586.58	72.56
586.74	100.64
586.90	32.77
587.06	128.73
587.22	51.49
587.38	84.26
587.54	175.54
587.70	306.61
587.86	397.89
588.02	451.72
588.18	327.68
588.34	191.92
588.49	198.95
588.65	60.85
588.81	93.62
588.97	79.58
589.13	79.58
589.29	21.06
589.45	84.26
589.61	7.02
589.77	16.38
589.93	39.79
590.08	79.58
590.24	0.00
590.40	93.62
590.56	42.13
590.72	117.03
590.88	25.75
591.04	23.41
591.20	53.83
591.35	0.00
591.51	56.17
591.67	70.22
591.83	63.19
591.99	67.88
592.15	0.00
592.31	14.04
592.46	46.81
592.62	49.15
592.78	79.58
592.94	81.92
593.10	67.88
593.26	84.26
593.41	21.06
593.57	102.98
593.73	112.35
593.89	224.69
594.05	526.62
594.20	814.51
594.36	784.08
594.52	517.26
594.68	283.20
594.84	250.44
594.99	168.52
595.15	84.26
595.31	21.06
595.47	46.81
595.62	65.54
595.78	0.00
595.94	7.02
596.10	56.17
596.25	63.19
596.41	0.00
596.57	2.34
596.73	44.47
596.88	100.64
597.04	135.75
597.20	142.77
597.36	276.18
597.51	187.24
597.67	145.11
597.83	84.26
597.99	28.09
598.14	70.22
598.30	74.90
598.46	14.04
598.61	58.51
598.77	79.58
598.93	63.19
599.09	9.36
599.24	0.00
599.40	79.58
599.56	14.04
599.71	51.49
599.87	18.72
600.03	93.62
600.18	79.58
600.34	51.49
600.50	65.54
600.65	25.75
600.81	74.90
600.97	58.51
601.12	88.94
601.28	11.70
601.44	72.56
601.59	107.66
601.75	53.83
601.91	0.00
602.06	88.94
602.22	53.83
602.37	79.58
602.53	201.29
602.69	255.12
602.84	280.86
603.00	86.60
603.16	131.07
603.31	107.66
603.47	9.36
603.62	110.01
603.78	170.86
603.94	9.36
604.09	84.26
604.25	0.00
604.40	56.17
604.56	11.70
604.71	0.00
604.87	67.88
605.03	46.81
605.18	51.49
605.34	110.01
605.49	67.88
605.65	44.47
605.80	105.32
605.96	84.26
606.12	140.43
606.27	67.88
606.43	84.26
606.58	65.54
606.74	142.77
606.89	322.99
607.05	552.37
607.20	704.50
607.36	519.60
607.51	463.43
607.67	280.86
607.82	166.18
607.98	70.22
608.13	67.88
608.29	93.62
608.44	161.50
608.60	107.66
608.75	28.09
608.91	131.07
609.06	491.51
609.22	964.30
609.37	1137.50
609.53	947.92
609.68	791.10
609.84	428.32
609.99	315.97
610.15	145.11
610.30	46.81
610.46	21.06
610.61	2.34
610.76	79.58
610.92	86.60
611.07	0.00
611.23	49.15
611.38	25.75
611.54	32.77
611.69	58.51
611.84	25.75
612.00	91.28
612.15	0.00
612.31	35.11
612.46	25.75
612.62	37.45
612.77	107.66
612.92	74.90
613.08	18.72
613.23	79.58
613.39	44.47
613.54	74.90
613.69	524.28
613.85	1289.64
614.00	1781.15
614.15	1963.71
614.31	1313.04
614.46	919.83
614.62	575.77
614.77	388.53
614.92	128.73
615.08	58.51
615.23	110.01
615.38	138.09
615.54	79.58
615.69	114.69
615.84	196.60
616.00	386.19
616.15	517.26
616.30	404.91
616.46	304.27
616.61	145.11
616.76	161.50
616.92	98.30
617.07	39.79
617.22	77.24
617.37	9.36
617.53	65.54
617.68	49.15
617.83	53.83
617.99	53.83
618.14	46.81
618.29	72.56
618.45	28.09
618.60	65.54
618.75	51.49
618.90	60.85
619.06	32.77
619.21	156.82
619.36	74.90
619.51	23.41
619.67	65.54
619.82	112.35
619.97	107.66
620.12	86.60
620.28	0.00
620.43	28.09
620.58	14.04
620.73	60.85
620.89	35.11
621.04	81.92
621.19	102.98
621.34	215.33
621.49	276.18
621.65	332.36
621.80	234.05
621.95	191.92
622.10	138.09
622.25	65.54
622.41	86.60
622.56	53.83
622.71	91.28
622.86	32.77
623.01	81.92
623.16	0.00
623.32	0.00
623.47	18.72
623.62	79.58
623.77	91.28
623.92	4.68
624.07	14.04
624.23	21.06
624.38	39.79
624.53	70.22
624.68	46.81
624.83	102.98
624.98	0.00
625.13	77.24
625.29	0.00
625.44	77.24
625.59	0.00
625.74	110.01
625.89	46.81
626.04	215.33
626.19	664.71
626.34	889.40
626.49	976.00
626.65	739.61
626.80	526.62
626.95	409.59
627.10	234.05
627.25	98.30
627.40	53.83
627.55	58.51
627.70	28.09
627.85	110.01
628.00	72.56
628.15	0.00
628.30	35.11
628.45	42.13
628.60	32.77
628.76	39.79
628.91	0.00
629.06	21.06
629.21	56.17
629.36	105.32
629.51	28.09
629.66	67.88
629.81	51.49
629.96	107.66
630.11	205.97
630.26	262.14
630.41	201.29
630.56	84.26
630.71	124.05
630.86	121.71
631.01	58.51
631.16	84.26
631.31	42.13
631.46	117.03
631.61	0.00
631.76	18.72
631.91	32.77
632.06	65.54
632.21	65.54
632.36	28.09
632.51	56.17
632.66	49.15
632.81	114.69
632.96	348.74
633.10	526.62
633.25	720.88
633.40	564.07
633.55	409.59
633.70	273.84
633.85	140.43
634.00	105.32
634.15	63.19
634.30	46.81
634.45	93.62
634.60	42.13
634.75	44.47
634.90	51.49
635.05	74.90
635.19	37.45
635.34	63.19
635.49	74.90
635.64	14.04
635.79	0.00
635.94	32.77
636.09	112.35
636.24	0.00
636.39	18.72
636.53	56.17
636.68	14.04
636.83	46.81
636.98	0.00
637.13	14.04
637.28	25.75
637.43	77.24
637.57	98.30
637.72	379.17
637.87	823.87
638.02	1135.16
638.17	1235.80
638.32	922.17
638.46	660.03
638.61	440.02
638.76	229.37
638.91	262.14
639.06	53.83
639.20	18.72
639.35	74.90
639.50	114.69
639.65	521.94
639.80	1149.20
639.94	1806.89
640.09	1933.28
640.24	1497.94
640.39	999.41
640.54	683.44
640.68	407.25
640.83	238.73
640.98	86.60
641.13	79.58
641.27	0.00
641.42	131.07
641.57	23.41
641.72	0.00
641.86	102.98
642.01	46.81
642.16	11.70
642.31	63.19
642.45	44.47
642.60	32.77
642.75	25.75
642.90	0.00
643.04	25.75
643.19	56.17
643.34	0.00
643.48	23.41
643.63	74.90
643.78	37.45
643.93	95.96
644.07	95.96
644.22	32.77
644.37	28.09
644.51	44.47
644.66	44.47
644.81	23.41
644.95	56.17
645.10	58.51
645.25	147.45
645.39	14.04
645.54	138.09
645.69	51.49
645.83	2.34
645.98	0.00
646.13	74.90
646.27	65.54
646.42	30.43
646.57	11.70
646.71	67.88
646.86	0.00
647.00	0.00
647.15	0.00
647.30	98.30
647.44	18.72
647.59	16.38
647.74	77.24
647.88	30.43
648.03	0.00
648.17	14.04
648.32	0.00
648.47	30.43
648.61	53.83
648.76	0.00
648.90	67.88
649.05	18.72
649.20	60.85
649.34	56.17
649.49	58.51
649.63	110.01
649.78	0.00
649.92	44.47
650.07	156.82
650.21	468.11
650.36	875.36
650.51	1057.92
650.65	791.10
650.80	648.33
650.94	435.34
651.09	220.01
651.23	145.11
651.38	70.22
651.52	28.09
651.67	72.56
651.81	37.45
651.96	91.28
652.10	4.68
652.25	79.58
652.39	84.26
652.54	58.51
652.68	14.04
652.83	196.60
652.97	271.50
653.12	397.89
653.26	341.72
653.41	266.82
653.55	212.99
653.70	7.02
653.84	70.22
653.99	86.60
654.13	53.83
654.27	65.54
654.42	42.13
654.56	0.00
654.71	67.88
654.85	4.68
655.00	11.70
655.14	46.81
655.29	0.00
655.43	98.30
655.57	35.11
655.72	39.79
655.86	46.81
656.01	39.79
656.15	53.83
656.30	42.13
656.44	9.36
656.58	88.94
656.73	16.38
656.87	72.56
657.01	18.72
657.16	37.45
657.30	44.47
657.45	60.85
657.59	46.81
657.73	39.79
657.88	77.24
658.02	0.00
658.16	0.00
658.31	58.51
658.45	39.79
658.60	46.81
658.74	0.00
658.88	49.15
659.03	30.43
659.17	23.41
659.31	84.26
659.46	290.23
659.60	325.33
659.74	538.32
659.89	409.59
660.03	376.83
660.17	273.84
660.32	145.11
660.46	124.05
660.60	81.92
660.74	79.58
660.89	7.02
661.03	91.28
661.17	18.72
661.32	16.38
661.46	77.24
661.60	23.41
661.74	58.51
661.89	0.00
662.03	77.24
662.17	63.19
662.31	131.07
662.46	30.43
662.60	35.11
662.74	42.13
662.88	51.49
663.03	93.62
663.17	39.79
663.31	9.36
663.45	32.77
663.60	35.11
663.74	65.54
663.88	0.00
664.02	0.00
664.17	0.00
664.31	63.19
664.45	112.35
664.59	23.41
664.73	35.11
664.88	58.51
665.02	18.72
665.16	49.15
665.30	46.81
665.44	39.79
665.59	126.39
665.73	100.64
665.87	23.41
666.01	11.70
666.15	32.77
666.29	0.00
666.44	42.13
666.58	88.94
666.72	51.49
666.86	0.00
667.00	72.56
667.14	16.38
667.28	166.18
667.43	437.68
667.57	837.91
667.71	784.08
667.85	753.65
667.99	524.28
668.13	315.97
668.27	248.10
668.41	159.16
668.56	131.07
668.70	2.34
668.84	121.71
668.98	21.06
669.12	49.15
669.26	23.41
669.40	42.13
669.54	0.00
669.68	88.94
669.82	0.00
669.96	30.43
670.10	0.00
670.25	84.26
670.39	0.00
670.53	49.15
670.67	0.00
670.81	16.38
670.95	84.26
671.09	18.72
671.23	170.86
671.37	292.57
671.51	557.05
671.65	500.87
671.79	379.17
671.93	346.40
672.07	126.39
672.21	98.30
672.35	124.05
672.49	56.17
672.63	46.81
672.77	51.49
672.91	72.56
673.05	23.41
673.19	72.56
673.33	112.35
673.47	58.51
673.61	49.15
673.75	21.06
673.89	30.43
674.03	42.13
674.17	145.11
674.31	56.17
674.45	18.72
674.59	88.94
674.73	30.43
674.87	0.00
675.01	9.36
675.15	46.81
675.29	37.45
675.43	98.30
675.56	65.54
675.70	14.04
675.84	25.75
675.98	7.02
676.12	60.85
676.26	9.36
676.40	56.17
676.54	51.49
676.68	14.04
676.82	79.58
676.96	9.36
677.10	44.47
677.23	77.24
677.37	32.77
677.51	60.85
677.65	79.58
677.79	72.56
677.93	79.58
678.07	44.47
678.21	51.49
678.34	14.04
678.48	65.54
678.62	9.36
678.76	0.00
678.90	32.77
679.04	88.94
679.18	23.41
679.31	39.79
679.45	49.15
679.59	0.00
679.73	44.47
679.87	0.00
680.00	42.13
680.14	51.49
680.28	18.72
680.42	42.13
680.56	23.41
680.70	35.11
680.83	56.17
680.97	21.06
681.11	32.77
681.25	67.88
681.39	0.00
681.52	67.88
681.66	53.83
681.80	44.47
681.94	0.00
682.07	23.41
682.21	0.00
682.35	0.00
682.49	18.72
682.62	53.83
682.76	58.51
682.90	67.88
683.04	77.24
683.17	65.54
683.31	25.75
683.45	23.41
683.59	39.79
683.72	0.00
683.86	25.75
684.00	70.22
684.13	37.45
684.27	81.92
684.41	37.45
684.55	84.26
684.68	23.41
684.82	65.54
684.96	74.90
685.09	65.54
685.23	86.60
685.37	79.58
685.50	0.00
685.64	11.70
685.78	18.72
685.91	95.96
686.05	28.09
686.19	49.15
686.32	2.34
686.46	0.00
686.60	21.06
686.73	0.00
686.87	77.24
687.01	0.00
687.14	28.09
687.28	35.11
687.42	39.79
687.55	11.70
687.69	91.28
687.82	23.41
687.96	63.19
688.10	77.24
688.23	16.38
688.37	30.43
688.50	9.36
688.64	93.62
688.78	25.75
688.91	2.34
689.05	88.94
689.18	21.06
689.32	0.00
689.46	70.22
689.59	63.19
689.73	14.04
689.86	35.11
690.00	81.92
690.13	0.00
690.27	49.15
690.41	7.02
690.54	128.73
690.68	60.85
690.81	46.81
690.95	0.00
691.08	39.79
691.22	23.41
691.35	72.56
691.49	56.17
691.62	91.28
691.76	0.00
691.89	28.09
692.03	0.00
692.16	14.04
692.30	0.00
692.43	91.28
692.57	149.79
692.70	390.87
692.84	421.30
692.97	346.40
693.11	276.18
693.24	180.22
693.38	154.48
693.51	159.16
693.65	102.98
693.78	67.88
693.92	56.17
694.05	110.01
694.19	74.90
694.32	11.70
694.45	53.83
694.59	65.54
694.72	37.45
694.86	18.72
694.99	42.13
695.13	42.13
695.26	53.83
695.39	65.54
695.53	0.00
695.66	21.06
695.80	28.09
695.93	70.22
696.07	21.06
696.20	114.69
696.33	0.00
696.47	56.17
696.60	0.00
696.73	23.41
696.87	0.00
697.00	74.90
697.14	42.13
697.27	0.00
697.40	49.15
697.54	39.79
697.67	21.06
697.80	0.00
697.94	65.54
698.07	51.49
698.21	93.62
698.34	60.85
698.47	65.54
698.61	81.92
698.74	7.02
698.87	56.17
699.01	77.24
699.14	67.88
699.27	42.13
699.40	21.06
699.54	58.51
699.67	23.41
699.80	53.83
699.94	65.54
700.07	23.41
700.20	0.00
700.34	4.68
700.47	2.34
700.60	37.45
700.73	0.00
700.87	32.77
701.00	65.54
701.13	39.79
701.26	16.38
701.40	44.47
701.53	70.22
701.66	11.70
701.79	70.22
701.93	77.24
702.06	28.09
702.19	67.88
702.32	0.00
702.46	58.51
702.59	98.30
702.72	128.73
702.85	271.50
702.99	559.39
703.12	699.82
703.25	753.65
703.38	681.10
703.51	552.37
703.65	374.49
703.78	297.25
703.91	114.69
704.04	145.11
704.17	11.70
704.31	114.69
704.44	107.66
704.57	39.79
704.70	23.41
704.83	49.15
704.96	114.69
705.10	32.77
705.23	46.81
>>>>>End Processed Spectral Data<<<<<
