SpectraSuite Data File
++++++++++++++++++++++++++++++++++++
Date: Fri Oct 04 12:13:30 GMT-05:00 2013
User: price-jones
Dark Spectrum Present: No
Reference Spectrum Present: No
Number of Sampled Component Spectra: 1
Spectrometers: USB2+H05261
Integration Time (usec): 10000 (USB2+H05261)
Spectra Averaged: 1 (USB2+H05261)
Boxcar Smoothing: 0 (USB2+H05261)
Correct for Electrical Dark: No (USB2+H05261)
Strobe/Lamp Enabled: No (USB2+H05261)
Correct for Detector Non-linearity: No (USB2+H05261)
Correct for Stray Light: No (USB2+H05261)
Number of Pixels in Processed Spectrum: 2048
>>>>>Begin Processed Spectral Data<<<<<
365.73	0.00
365.92	0.00
366.12	0.00
366.32	0.00
366.52	0.00
366.72	0.00
366.91	0.00
367.11	0.00
367.31	0.00
367.51	0.00
367.70	0.00
367.90	0.00
368.10	0.00
368.30	0.00
368.49	0.00
368.69	0.00
368.89	0.00
369.09	0.00
369.28	0.00
369.48	0.00
369.68	0.00
369.87	0.00
370.07	0.00
370.27	0.00
370.47	0.00
370.66	0.00
370.86	0.00
371.06	4.68
371.25	18.72
371.45	23.41
371.65	0.00
371.84	0.00
372.04	0.00
372.24	28.09
372.44	0.00
372.63	4.68
372.83	0.00
373.03	0.00
373.22	0.00
373.42	0.00
373.62	4.68
373.81	63.19
374.01	60.85
374.21	37.45
374.40	37.45
374.60	14.04
374.79	46.81
374.99	124.05
375.19	32.77
375.38	86.60
375.58	14.04
375.78	58.51
375.97	9.36
376.17	0.00
376.37	30.43
376.56	51.49
376.76	18.72
376.95	2.34
377.15	42.13
377.35	21.06
377.54	51.49
377.74	58.51
377.93	44.47
378.13	18.72
378.33	0.00
378.52	0.00
378.72	14.04
378.91	23.41
379.11	51.49
379.31	0.00
379.50	0.00
379.70	25.75
379.89	0.00
380.09	84.26
380.28	0.00
380.48	0.00
380.68	37.45
380.87	0.00
381.07	86.60
381.26	0.00
381.46	65.54
381.65	25.75
381.85	0.00
382.04	49.15
382.24	2.34
382.43	0.00
382.63	30.43
382.83	53.83
383.02	4.68
383.22	0.00
383.41	18.72
383.61	2.34
383.80	2.34
384.00	0.00
384.19	16.38
384.39	4.68
384.58	2.34
384.78	23.41
384.97	0.00
385.17	42.13
385.36	2.34
385.56	14.04
385.75	0.00
385.95	14.04
386.14	2.34
386.34	63.19
386.53	72.56
386.72	0.00
386.92	65.54
387.11	7.02
387.31	67.88
387.50	81.92
387.70	4.68
387.89	0.00
388.09	67.88
388.28	0.00
388.48	0.00
388.67	0.00
388.86	60.85
389.06	28.09
389.25	0.00
389.45	58.51
389.64	14.04
389.84	18.72
390.03	56.17
390.22	65.54
390.42	21.06
390.61	4.68
390.81	44.47
391.00	9.36
391.19	49.15
391.39	2.34
391.58	0.00
391.78	0.00
391.97	11.70
392.16	0.00
392.36	25.75
392.55	51.49
392.75	0.00
392.94	16.38
393.13	0.00
393.33	0.00
393.52	7.02
393.71	65.54
393.91	0.00
394.10	37.45
394.29	25.75
394.49	0.00
394.68	49.15
394.88	42.13
395.07	9.36
395.26	39.79
395.46	18.72
395.65	39.79
395.84	21.06
396.04	35.11
396.23	0.00
396.42	25.75
396.62	37.45
396.81	95.96
397.00	74.90
397.19	21.06
397.39	53.83
397.58	42.13
397.77	2.34
397.97	23.41
398.16	23.41
398.35	0.00
398.55	0.00
398.74	56.17
398.93	0.00
399.12	0.00
399.32	11.70
399.51	58.51
399.70	88.94
399.90	4.68
400.09	44.47
400.28	18.72
400.47	46.81
400.67	30.43
400.86	58.51
401.05	14.04
401.24	9.36
401.44	21.06
401.63	0.00
401.82	32.77
402.01	4.68
402.21	0.00
402.40	2.34
402.59	9.36
402.78	107.66
402.97	91.28
403.17	53.83
403.36	0.00
403.55	39.79
403.74	23.41
403.93	14.04
404.13	44.47
404.32	37.45
404.51	60.85
404.70	63.19
404.89	7.02
405.09	65.54
405.28	56.17
405.47	9.36
405.66	49.15
405.85	0.00
406.05	95.96
406.24	16.38
406.43	0.00
406.62	7.02
406.81	0.00
407.00	14.04
407.20	56.17
407.39	0.00
407.58	0.00
407.77	0.00
407.96	60.85
408.15	53.83
408.34	112.35
408.54	30.43
408.73	0.00
408.92	2.34
409.11	16.38
409.30	56.17
409.49	72.56
409.68	11.70
409.87	16.38
410.07	46.81
410.26	39.79
410.45	44.47
410.64	0.00
410.83	4.68
411.02	30.43
411.21	0.00
411.40	0.00
411.59	37.45
411.78	4.68
411.98	67.88
412.17	70.22
412.36	53.83
412.55	2.34
412.74	53.83
412.93	30.43
413.12	77.24
413.31	49.15
413.50	32.77
413.69	98.30
413.88	70.22
414.07	9.36
414.26	51.49
414.45	18.72
414.64	14.04
414.83	72.56
415.02	63.19
415.22	67.88
415.41	28.09
415.60	107.66
415.79	21.06
415.98	37.45
416.17	0.00
416.36	39.79
416.55	70.22
416.74	18.72
416.93	93.62
417.12	70.22
417.31	42.13
417.50	9.36
417.69	72.56
417.88	53.83
418.07	2.34
418.26	25.75
418.45	32.77
418.64	42.13
418.83	11.70
419.02	58.51
419.21	23.41
419.39	0.00
419.58	0.00
419.77	102.98
419.96	0.00
420.15	51.49
420.34	51.49
420.53	70.22
420.72	0.00
420.91	58.51
421.10	23.41
421.29	65.54
421.48	16.38
421.67	28.09
421.86	46.81
422.05	51.49
422.24	30.43
422.43	0.00
422.61	0.00
422.80	100.64
422.99	49.15
423.18	67.88
423.37	72.56
423.56	93.62
423.75	0.00
423.94	25.75
424.13	39.79
424.32	0.00
424.50	49.15
424.69	65.54
424.88	25.75
425.07	93.62
425.26	58.51
425.45	4.68
425.64	74.90
425.83	4.68
426.01	0.00
426.20	70.22
426.39	53.83
426.58	0.00
426.77	51.49
426.96	42.13
427.15	18.72
427.33	4.68
427.52	30.43
427.71	14.04
427.90	11.70
428.09	74.90
428.28	4.68
428.46	88.94
428.65	0.00
428.84	77.24
429.03	2.34
429.22	21.06
429.40	93.62
429.59	23.41
429.78	74.90
429.97	88.94
430.16	30.43
430.34	32.77
430.53	65.54
430.72	46.81
430.91	21.06
431.10	28.09
431.28	30.43
431.47	37.45
431.66	88.94
431.85	9.36
432.03	0.00
432.22	0.00
432.41	4.68
432.60	14.04
432.79	30.43
432.97	23.41
433.16	23.41
433.35	30.43
433.54	0.00
433.72	56.17
433.91	39.79
434.10	49.15
434.28	46.81
434.47	53.83
434.66	0.00
434.85	30.43
435.03	0.00
435.22	79.58
435.41	35.11
435.59	37.45
435.78	0.00
435.97	46.81
436.16	25.75
436.34	60.85
436.53	37.45
436.72	37.45
436.90	81.92
437.09	21.06
437.28	32.77
437.46	58.51
437.65	37.45
437.84	18.72
438.02	0.00
438.21	39.79
438.40	60.85
438.58	4.68
438.77	46.81
438.96	0.00
439.14	14.04
439.33	65.54
439.52	23.41
439.70	51.49
439.89	65.54
440.08	9.36
440.26	95.96
440.45	56.17
440.63	0.00
440.82	58.51
441.01	65.54
441.19	81.92
441.38	44.47
441.57	0.00
441.75	37.45
441.94	23.41
442.12	79.58
442.31	56.17
442.50	0.00
442.68	88.94
442.87	77.24
443.05	9.36
443.24	11.70
443.43	32.77
443.61	0.00
443.80	39.79
443.98	67.88
444.17	0.00
444.35	4.68
444.54	53.83
444.73	0.00
444.91	56.17
445.10	0.00
445.28	98.30
445.47	93.62
445.65	53.83
445.84	133.41
446.02	30.43
446.21	23.41
446.39	51.49
446.58	32.77
446.77	21.06
446.95	102.98
447.14	0.00
447.32	77.24
447.51	32.77
447.69	23.41
447.88	35.11
448.06	0.00
448.25	37.45
448.43	0.00
448.62	0.00
448.80	16.38
448.99	25.75
449.17	0.00
449.36	74.90
449.54	84.26
449.73	7.02
449.91	32.77
450.10	100.64
450.28	25.75
450.46	65.54
450.65	67.88
450.83	9.36
451.02	77.24
451.20	74.90
451.39	0.00
451.57	14.04
451.76	60.85
451.94	53.83
452.13	32.77
452.31	0.00
452.49	35.11
452.68	0.00
452.86	63.19
453.05	14.04
453.23	56.17
453.42	16.38
453.60	44.47
453.78	81.92
453.97	93.62
454.15	42.13
454.34	0.00
454.52	2.34
454.70	0.00
454.89	0.00
455.07	14.04
455.26	42.13
455.44	46.81
455.62	16.38
455.81	0.00
455.99	84.26
456.17	0.00
456.36	0.00
456.54	39.79
456.73	51.49
456.91	0.00
457.09	14.04
457.28	37.45
457.46	2.34
457.64	110.01
457.83	11.70
458.01	49.15
458.19	0.00
458.38	53.83
458.56	7.02
458.74	0.00
458.93	51.49
459.11	126.39
459.29	84.26
459.48	0.00
459.66	98.30
459.84	51.49
460.03	0.00
460.21	23.41
460.39	0.00
460.57	77.24
460.76	46.81
460.94	32.77
461.12	63.19
461.31	28.09
461.49	58.51
461.67	65.54
461.85	65.54
462.04	32.77
462.22	140.43
462.40	53.83
462.59	44.47
462.77	56.17
462.95	0.00
463.13	16.38
463.32	140.43
463.50	79.58
463.68	28.09
463.86	95.96
464.05	18.72
464.23	74.90
464.41	44.47
464.59	77.24
464.78	11.70
464.96	21.06
465.14	32.77
465.32	44.47
465.50	51.49
465.69	93.62
465.87	32.77
466.05	0.00
466.23	42.13
466.41	37.45
466.60	16.38
466.78	0.00
466.96	18.72
467.14	112.35
467.32	84.26
467.51	9.36
467.69	51.49
467.87	126.39
468.05	67.88
468.23	98.30
468.41	67.88
468.60	110.01
468.78	72.56
468.96	0.00
469.14	56.17
469.32	65.54
469.50	58.51
469.69	46.81
469.87	39.79
470.05	14.04
470.23	51.49
470.41	60.85
470.59	72.56
470.77	0.00
470.95	72.56
471.14	32.77
471.32	18.72
471.50	102.98
471.68	121.71
471.86	0.00
472.04	60.85
472.22	56.17
472.40	23.41
472.58	65.54
472.77	53.83
472.95	0.00
473.13	35.11
473.31	25.75
473.49	79.58
473.67	72.56
473.85	0.00
474.03	67.88
474.21	74.90
474.39	0.00
474.57	58.51
474.75	0.00
474.93	58.51
475.12	65.54
475.30	63.19
475.48	100.64
475.66	14.04
475.84	0.00
476.02	16.38
476.20	16.38
476.38	58.51
476.56	44.47
476.74	18.72
476.92	95.96
477.10	42.13
477.28	58.51
477.46	60.85
477.64	88.94
477.82	88.94
478.00	18.72
478.18	65.54
478.36	0.00
478.54	0.00
478.72	0.00
478.90	0.00
479.08	0.00
479.26	11.70
479.44	39.79
479.62	16.38
479.80	35.11
479.98	77.24
480.16	51.49
480.34	32.77
480.52	32.77
480.70	30.43
480.88	4.68
481.06	37.45
481.24	77.24
481.41	84.26
481.59	67.88
481.77	91.28
481.95	11.70
482.13	81.92
482.31	0.00
482.49	100.64
482.67	46.81
482.85	0.00
483.03	81.92
483.21	100.64
483.39	16.38
483.57	37.45
483.74	4.68
483.92	56.17
484.10	0.00
484.28	53.83
484.46	4.68
484.64	67.88
484.82	44.47
485.00	39.79
485.18	9.36
485.35	25.75
485.53	44.47
485.71	37.45
485.89	0.00
486.07	0.00
486.25	9.36
486.43	60.85
486.61	28.09
486.78	7.02
486.96	16.38
487.14	37.45
487.32	95.96
487.50	14.04
487.68	86.60
487.85	51.49
488.03	16.38
488.21	0.00
488.39	4.68
488.57	11.70
488.75	0.00
488.92	44.47
489.10	30.43
489.28	79.58
489.46	28.09
489.64	74.90
489.81	91.28
489.99	18.72
490.17	126.39
490.35	21.06
490.53	60.85
490.70	25.75
490.88	42.13
491.06	32.77
491.24	46.81
491.41	44.47
491.59	107.66
491.77	0.00
491.95	58.51
492.13	37.45
492.30	49.15
492.48	0.00
492.66	79.58
492.84	32.77
493.01	4.68
493.19	21.06
493.37	25.75
493.54	32.77
493.72	0.00
493.90	49.15
494.08	86.60
494.25	84.26
494.43	0.00
494.61	39.79
494.79	58.51
494.96	88.94
495.14	53.83
495.32	0.00
495.49	11.70
495.67	23.41
495.85	81.92
496.02	53.83
496.20	28.09
496.38	11.70
496.55	18.72
496.73	124.05
496.91	79.58
497.09	102.98
497.26	0.00
497.44	16.38
497.62	46.81
497.79	49.15
497.97	28.09
498.14	105.32
498.32	49.15
498.50	23.41
498.67	77.24
498.85	51.49
499.03	0.00
499.20	0.00
499.38	74.90
499.56	49.15
499.73	72.56
499.91	114.69
500.08	14.04
500.26	4.68
500.44	23.41
500.61	23.41
500.79	42.13
500.97	70.22
501.14	72.56
501.32	39.79
501.49	25.75
501.67	46.81
501.84	4.68
502.02	25.75
502.20	4.68
502.37	53.83
502.55	9.36
502.72	18.72
502.90	102.98
503.07	0.00
503.25	0.00
503.43	9.36
503.60	56.17
503.78	14.04
503.95	42.13
504.13	35.11
504.30	46.81
504.48	53.83
504.65	0.00
504.83	23.41
505.01	0.00
505.18	39.79
505.36	42.13
505.53	51.49
505.71	77.24
505.88	0.00
506.06	67.88
506.23	65.54
506.41	91.28
506.58	28.09
506.76	58.51
506.93	72.56
507.11	21.06
507.28	18.72
507.46	135.75
507.63	11.70
507.81	16.38
507.98	16.38
508.16	9.36
508.33	28.09
508.50	14.04
508.68	79.58
508.85	25.75
509.03	0.00
509.20	107.66
509.38	128.73
509.55	0.00
509.73	37.45
509.90	28.09
510.08	0.00
510.25	21.06
510.42	11.70
510.60	88.94
510.77	58.51
510.95	14.04
511.12	11.70
511.30	0.00
511.47	79.58
511.64	37.45
511.82	2.34
511.99	4.68
512.17	30.43
512.34	0.00
512.51	16.38
512.69	51.49
512.86	7.02
513.04	91.28
513.21	7.02
513.38	9.36
513.56	16.38
513.73	0.00
513.90	7.02
514.08	56.17
514.25	60.85
514.43	93.62
514.60	32.77
514.77	21.06
514.95	77.24
515.12	46.81
515.29	70.22
515.47	32.77
515.64	72.56
515.81	95.96
515.99	46.81
516.16	46.81
516.33	0.00
516.51	23.41
516.68	46.81
516.85	39.79
517.03	2.34
517.20	77.24
517.37	51.49
517.54	46.81
517.72	49.15
517.89	95.96
518.06	60.85
518.24	51.49
518.41	25.75
518.58	72.56
518.75	100.64
518.93	0.00
519.10	39.79
519.27	35.11
519.45	77.24
519.62	32.77
519.79	44.47
519.96	25.75
520.14	56.17
520.31	37.45
520.48	84.26
520.65	35.11
520.83	53.83
521.00	42.13
521.17	63.19
521.34	49.15
521.52	32.77
521.69	84.26
521.86	11.70
522.03	14.04
522.20	37.45
522.38	35.11
522.55	60.85
522.72	37.45
522.89	74.90
523.07	74.90
523.24	28.09
523.41	119.37
523.58	60.85
523.75	23.41
523.92	46.81
524.10	72.56
524.27	32.77
524.44	91.28
524.61	16.38
524.78	42.13
524.96	0.00
525.13	28.09
525.30	18.72
525.47	84.26
525.64	44.47
525.81	119.37
525.98	128.73
526.16	42.13
526.33	0.00
526.50	51.49
526.67	0.00
526.84	32.77
527.01	67.88
527.18	28.09
527.36	0.00
527.53	0.00
527.70	70.22
527.87	46.81
528.04	88.94
528.21	11.70
528.38	44.47
528.55	0.00
528.72	86.60
528.89	2.34
529.07	114.69
529.24	65.54
529.41	51.49
529.58	72.56
529.75	0.00
529.92	28.09
530.09	35.11
530.26	9.36
530.43	0.00
530.60	63.19
530.77	65.54
530.94	0.00
531.11	0.00
531.28	110.01
531.46	60.85
531.63	70.22
531.80	63.19
531.97	28.09
532.14	0.00
532.31	0.00
532.48	4.68
532.65	18.72
532.82	0.00
532.99	0.00
533.16	53.83
533.33	72.56
533.50	56.17
533.67	32.77
533.84	46.81
534.01	95.96
534.18	84.26
534.35	21.06
534.52	70.22
534.69	14.04
534.86	88.94
535.03	18.72
535.20	67.88
535.37	53.83
535.54	35.11
535.71	4.68
535.88	44.47
536.05	0.00
536.22	9.36
536.38	72.56
536.55	81.92
536.72	44.47
536.89	42.13
537.06	21.06
537.23	23.41
537.40	32.77
537.57	58.51
537.74	25.75
537.91	88.94
538.08	110.01
538.25	25.75
538.42	42.13
538.59	39.79
538.75	58.51
538.92	16.38
539.09	72.56
539.26	28.09
539.43	72.56
539.60	100.64
539.77	138.09
539.94	126.39
540.11	37.45
540.28	51.49
540.44	91.28
540.61	0.00
540.78	53.83
540.95	37.45
541.12	93.62
541.29	58.51
541.46	30.43
541.62	42.13
541.79	58.51
541.96	30.43
542.13	42.13
542.30	65.54
542.47	16.38
542.63	79.58
542.80	0.00
542.97	21.06
543.14	0.00
543.31	28.09
543.48	56.17
543.64	23.41
543.81	32.77
543.98	56.17
544.15	30.43
544.32	124.05
544.48	67.88
544.65	173.20
544.82	35.11
544.99	42.13
545.16	63.19
545.32	67.88
545.49	0.00
545.66	37.45
545.83	44.47
546.00	74.90
546.16	53.83
546.33	30.43
546.50	32.77
546.67	46.81
546.83	70.22
547.00	18.72
547.17	39.79
547.34	58.51
547.50	25.75
547.67	93.62
547.84	44.47
548.00	11.70
548.17	32.77
548.34	49.15
548.51	37.45
548.67	0.00
548.84	58.51
549.01	124.05
549.18	0.00
549.34	74.90
549.51	0.00
549.68	0.00
549.84	93.62
550.01	70.22
550.18	56.17
550.34	65.54
550.51	112.35
550.68	65.54
550.84	86.60
551.01	42.13
551.18	0.00
551.34	51.49
551.51	0.00
551.68	9.36
551.84	86.60
552.01	32.77
552.18	0.00
552.34	49.15
552.51	0.00
552.68	23.41
552.84	30.43
553.01	44.47
553.18	74.90
553.34	16.38
553.51	2.34
553.67	25.75
553.84	42.13
554.01	16.38
554.17	11.70
554.34	126.39
554.51	49.15
554.67	74.90
554.84	51.49
555.00	93.62
555.17	95.96
555.33	16.38
555.50	95.96
555.67	0.00
555.83	67.88
556.00	0.00
556.16	18.72
556.33	58.51
556.50	74.90
556.66	37.45
556.83	74.90
556.99	30.43
557.16	28.09
557.32	28.09
557.49	58.51
557.65	30.43
557.82	7.02
557.98	23.41
558.15	25.75
558.32	56.17
558.48	0.00
558.65	60.85
558.81	63.19
558.98	4.68
559.14	35.11
559.31	0.00
559.47	9.36
559.64	117.03
559.80	37.45
559.97	46.81
560.13	105.32
560.30	0.00
560.46	4.68
560.63	65.54
560.79	0.00
560.96	56.17
561.12	63.19
561.29	53.83
561.45	86.60
561.61	77.24
561.78	16.38
561.94	53.83
562.11	63.19
562.27	63.19
562.44	49.15
562.60	11.70
562.77	0.00
562.93	86.60
563.10	72.56
563.26	0.00
563.42	65.54
563.59	16.38
563.75	28.09
563.92	2.34
564.08	30.43
564.24	84.26
564.41	39.79
564.57	2.34
564.74	30.43
564.90	4.68
565.07	77.24
565.23	7.02
565.39	0.00
565.56	58.51
565.72	7.02
565.88	39.79
566.05	7.02
566.21	2.34
566.38	0.00
566.54	124.05
566.70	100.64
566.87	112.35
567.03	4.68
567.19	58.51
567.36	18.72
567.52	21.06
567.68	2.34
567.85	0.00
568.01	63.19
568.17	0.00
568.34	39.79
568.50	32.77
568.66	84.26
568.83	25.75
568.99	42.13
569.15	42.13
569.32	30.43
569.48	81.92
569.64	142.77
569.81	0.00
569.97	0.00
570.13	81.92
570.30	53.83
570.46	53.83
570.62	51.49
570.78	44.47
570.95	51.49
571.11	112.35
571.27	30.43
571.43	32.77
571.60	42.13
571.76	35.11
571.92	53.83
572.09	39.79
572.25	35.11
572.41	23.41
572.57	7.02
572.74	0.00
572.90	0.00
573.06	72.56
573.22	53.83
573.38	0.00
573.55	93.62
573.71	105.32
573.87	42.13
574.03	2.34
574.20	74.90
574.36	44.47
574.52	65.54
574.68	100.64
574.84	86.60
575.01	0.00
575.17	32.77
575.33	0.00
575.49	72.56
575.65	0.00
575.82	16.38
575.98	23.41
576.14	58.51
576.30	0.00
576.46	93.62
576.62	138.09
576.79	18.72
576.95	131.07
577.11	0.00
577.27	39.79
577.43	53.83
577.59	65.54
577.75	56.17
577.92	100.64
578.08	110.01
578.24	65.54
578.40	25.75
578.56	81.92
578.72	32.77
578.88	117.03
579.04	60.85
579.21	25.75
579.37	95.96
579.53	21.06
579.69	0.00
579.85	7.02
580.01	77.24
580.17	28.09
580.33	2.34
580.49	0.00
580.65	32.77
580.82	53.83
580.98	0.00
581.14	70.22
581.30	32.77
581.46	14.04
581.62	98.30
581.78	60.85
581.94	0.00
582.10	4.68
582.26	14.04
582.42	117.03
582.58	25.75
582.74	74.90
582.90	30.43
583.06	0.00
583.22	70.22
583.38	49.15
583.54	102.98
583.70	46.81
583.86	65.54
584.02	56.17
584.18	35.11
584.34	98.30
584.50	154.48
584.66	767.70
584.82	1652.42
584.98	2165.00
585.14	1746.04
585.30	1186.65
585.46	753.65
585.62	521.94
585.78	273.84
585.94	107.66
586.10	102.98
586.26	23.41
586.42	0.00
586.58	0.00
586.74	60.85
586.90	56.17
587.06	107.66
587.22	74.90
587.38	86.60
587.54	30.43
587.70	102.98
587.86	208.31
588.02	220.01
588.18	124.05
588.34	142.77
588.49	107.66
588.65	114.69
588.81	32.77
588.97	0.00
589.13	84.26
589.29	84.26
589.45	102.98
589.61	39.79
589.77	53.83
589.93	49.15
590.08	0.00
590.24	0.00
590.40	70.22
590.56	0.00
590.72	51.49
590.88	60.85
591.04	32.77
591.20	23.41
591.35	7.02
591.51	28.09
591.67	93.62
591.83	0.00
591.99	37.45
592.15	105.32
592.31	32.77
592.46	0.00
592.62	93.62
592.78	107.66
592.94	37.45
593.10	81.92
593.26	70.22
593.41	11.70
593.57	44.47
593.73	102.98
593.89	154.48
594.05	290.23
594.20	355.76
594.36	287.89
594.52	227.03
594.68	105.32
594.84	79.58
594.99	67.88
595.15	42.13
595.31	30.43
595.47	51.49
595.62	79.58
595.78	30.43
595.94	88.94
596.10	100.64
596.25	91.28
596.41	65.54
596.57	18.72
596.73	53.83
596.88	44.47
597.04	142.77
597.20	163.84
597.36	72.56
597.51	114.69
597.67	95.96
597.83	56.17
597.99	32.77
598.14	60.85
598.30	74.90
598.46	23.41
598.61	37.45
598.77	7.02
598.93	114.69
599.09	46.81
599.24	72.56
599.40	77.24
599.56	114.69
599.71	49.15
599.87	4.68
600.03	79.58
600.18	51.49
600.34	35.11
600.50	56.17
600.65	86.60
600.81	35.11
600.97	77.24
601.12	23.41
601.28	67.88
601.44	39.79
601.59	32.77
601.75	81.92
601.91	60.85
602.06	58.51
602.22	39.79
602.37	79.58
602.53	77.24
602.69	67.88
602.84	95.96
603.00	67.88
603.16	81.92
603.31	28.09
603.47	30.43
603.62	16.38
603.78	28.09
603.94	37.45
604.09	49.15
604.25	72.56
604.40	60.85
604.56	28.09
604.71	0.00
604.87	23.41
605.03	60.85
605.18	4.68
605.34	49.15
605.49	28.09
605.65	16.38
605.80	65.54
605.96	21.06
606.12	65.54
606.27	0.00
606.43	28.09
606.58	16.38
606.74	39.79
606.89	65.54
607.05	220.01
607.20	285.55
607.36	245.76
607.51	168.52
607.67	37.45
607.82	77.24
607.98	77.24
608.13	0.00
608.29	53.83
608.44	114.69
608.60	53.83
608.75	107.66
608.91	100.64
609.06	278.52
609.22	407.25
609.37	414.27
609.53	351.08
609.68	276.18
609.84	210.65
609.99	138.09
610.15	86.60
610.30	79.58
610.46	44.47
610.61	117.03
610.76	35.11
610.92	84.26
611.07	0.00
611.23	42.13
611.38	0.00
611.54	18.72
611.69	81.92
611.84	65.54
612.00	110.01
612.15	95.96
612.31	53.83
612.46	32.77
612.62	46.81
612.77	30.43
612.92	58.51
613.08	49.15
613.23	74.90
613.39	25.75
613.54	84.26
613.69	189.58
613.85	491.51
614.00	575.77
614.15	636.63
614.31	454.06
614.46	367.46
614.62	210.65
614.77	152.13
614.92	84.26
615.08	91.28
615.23	25.75
615.38	60.85
615.54	51.49
615.69	39.79
615.84	142.77
616.00	222.35
616.15	152.13
616.30	224.69
616.46	77.24
616.61	42.13
616.76	95.96
616.92	95.96
617.07	86.60
617.22	14.04
617.37	21.06
617.53	126.39
617.68	39.79
617.83	63.19
617.99	44.47
618.14	0.00
618.29	2.34
618.45	0.00
618.60	14.04
618.75	37.45
618.90	35.11
619.06	14.04
619.21	70.22
619.36	65.54
619.51	0.00
619.67	25.75
619.82	74.90
619.97	72.56
620.12	39.79
620.28	23.41
620.43	65.54
620.58	23.41
620.73	53.83
620.89	30.43
621.04	58.51
621.19	30.43
621.34	91.28
621.49	121.71
621.65	49.15
621.80	77.24
621.95	58.51
622.10	93.62
622.25	58.51
622.41	39.79
622.56	77.24
622.71	70.22
622.86	16.38
623.01	74.90
623.16	30.43
623.32	70.22
623.47	77.24
623.62	74.90
623.77	35.11
623.92	28.09
624.07	46.81
624.23	53.83
624.38	25.75
624.53	14.04
624.68	44.47
624.83	2.34
624.98	35.11
625.13	46.81
625.29	0.00
625.44	100.64
625.59	2.34
625.74	114.69
625.89	112.35
626.04	98.30
626.19	290.23
626.34	306.61
626.49	374.49
626.65	299.59
626.80	147.45
626.95	110.01
627.10	70.22
627.25	102.98
627.40	0.00
627.55	42.13
627.70	28.09
627.85	25.75
628.00	0.00
628.15	32.77
628.30	51.49
628.45	11.70
628.60	86.60
628.76	21.06
628.91	42.13
629.06	105.32
629.21	28.09
629.36	79.58
629.51	32.77
629.66	100.64
629.81	37.45
629.96	53.83
630.11	112.35
630.26	180.22
630.41	159.16
630.56	142.77
630.71	42.13
630.86	53.83
631.01	60.85
631.16	72.56
631.31	0.00
631.46	110.01
631.61	84.26
631.76	46.81
631.91	0.00
632.06	18.72
632.21	9.36
632.36	28.09
632.51	65.54
632.66	70.22
632.81	32.77
632.96	138.09
633.10	215.33
633.25	269.16
633.40	205.97
633.55	163.84
633.70	110.01
633.85	65.54
634.00	65.54
634.15	58.51
634.30	63.19
634.45	11.70
634.60	91.28
634.75	2.34
634.90	0.00
635.05	0.00
635.19	60.85
635.34	4.68
635.49	0.00
635.64	53.83
635.79	0.00
635.94	79.58
636.09	9.36
636.24	37.45
636.39	25.75
636.53	14.04
636.68	35.11
636.83	25.75
636.98	30.43
637.13	44.47
637.28	0.00
637.43	77.24
637.57	98.30
637.72	131.07
637.87	304.27
638.02	379.17
638.17	421.30
638.32	372.15
638.46	243.42
638.61	147.45
638.76	142.77
638.91	60.85
639.06	39.79
639.20	30.43
639.35	32.77
639.50	126.39
639.65	264.48
639.80	540.66
639.94	683.44
640.09	734.93
640.24	528.96
640.39	365.12
640.54	271.50
640.68	177.88
640.83	145.11
640.98	84.26
641.13	23.41
641.27	60.85
641.42	95.96
641.57	0.00
641.72	32.77
641.86	60.85
642.01	0.00
642.16	105.32
642.31	2.34
642.45	65.54
642.60	124.05
642.75	18.72
642.90	74.90
643.04	105.32
643.19	67.88
643.34	0.00
643.48	0.00
643.63	16.38
643.78	46.81
643.93	39.79
644.07	9.36
644.22	88.94
644.37	21.06
644.51	23.41
644.66	14.04
644.81	23.41
644.95	35.11
645.10	16.38
645.25	18.72
645.39	53.83
645.54	126.39
645.69	0.00
645.83	65.54
645.98	0.00
646.13	18.72
646.27	0.00
646.42	4.68
646.57	91.28
646.71	11.70
646.86	112.35
647.00	117.03
647.15	35.11
647.30	0.00
647.44	30.43
647.59	23.41
647.74	42.13
647.88	16.38
648.03	98.30
648.17	46.81
648.32	60.85
648.47	30.43
648.61	0.00
648.76	16.38
648.90	51.49
649.05	98.30
649.20	53.83
649.34	65.54
649.49	77.24
649.63	37.45
649.78	53.83
649.92	81.92
650.07	110.01
650.21	173.20
650.36	290.23
650.51	428.32
650.65	283.20
650.80	227.03
650.94	182.56
651.09	131.07
651.23	65.54
651.38	74.90
651.52	39.79
651.67	58.51
651.81	49.15
651.96	51.49
652.10	28.09
652.25	35.11
652.39	9.36
652.54	35.11
652.68	60.85
652.83	140.43
652.97	177.88
653.12	163.84
653.26	170.86
653.41	173.20
653.55	65.54
653.70	72.56
653.84	63.19
653.99	56.17
654.13	44.47
654.27	51.49
654.42	58.51
654.56	2.34
654.71	53.83
654.85	88.94
655.00	95.96
655.14	14.04
655.29	0.00
655.43	0.00
655.57	58.51
655.72	23.41
655.86	37.45
656.01	95.96
656.15	58.51
656.30	37.45
656.44	77.24
656.58	86.60
656.73	21.06
656.87	95.96
657.01	32.77
657.16	0.00
657.30	95.96
657.45	39.79
657.59	105.32
657.73	0.00
657.88	46.81
658.02	30.43
658.16	30.43
658.31	88.94
658.45	42.13
658.60	70.22
658.74	25.75
658.88	98.30
659.03	72.56
659.17	0.00
659.31	63.19
659.46	107.66
659.60	180.22
659.74	128.73
659.89	224.69
660.03	168.52
660.17	131.07
660.32	81.92
660.46	121.71
660.60	56.17
660.74	0.00
660.89	39.79
661.03	14.04
661.17	28.09
661.32	49.15
661.46	72.56
661.60	67.88
661.74	67.88
661.89	9.36
662.03	58.51
662.17	4.68
662.31	28.09
662.46	28.09
662.60	84.26
662.74	11.70
662.88	37.45
663.03	110.01
663.17	53.83
663.31	0.00
663.45	72.56
663.60	58.51
663.74	37.45
663.88	65.54
664.02	60.85
664.17	42.13
664.31	63.19
664.45	0.00
664.59	84.26
664.73	0.00
664.88	126.39
665.02	51.49
665.16	30.43
665.30	23.41
665.44	0.00
665.59	63.19
665.73	18.72
665.87	72.56
666.01	16.38
666.15	9.36
666.29	77.24
666.44	32.77
666.58	70.22
666.72	72.56
666.86	18.72
667.00	44.47
667.14	56.17
667.28	88.94
667.43	187.24
667.57	201.29
667.71	315.97
667.85	241.08
667.99	205.97
668.13	117.03
668.27	159.16
668.41	77.24
668.56	14.04
668.70	25.75
668.84	11.70
668.98	46.81
669.12	11.70
669.26	63.19
669.40	16.38
669.54	37.45
669.68	35.11
669.82	56.17
669.96	74.90
670.10	9.36
670.25	14.04
670.39	0.00
670.53	18.72
670.67	7.02
670.81	11.70
670.95	42.13
671.09	95.96
671.23	105.32
671.37	107.66
671.51	224.69
671.65	184.90
671.79	250.44
671.93	95.96
672.07	119.37
672.21	0.00
672.35	145.11
672.49	0.00
672.63	39.79
672.77	46.81
672.91	42.13
673.05	4.68
673.19	67.88
673.33	32.77
673.47	23.41
673.61	0.00
673.75	25.75
673.89	37.45
674.03	44.47
674.17	93.62
674.31	0.00
674.45	65.54
674.59	81.92
674.73	9.36
674.87	74.90
675.01	0.00
675.15	53.83
675.29	9.36
675.43	58.51
675.56	0.00
675.70	77.24
675.84	77.24
675.98	58.51
676.12	58.51
676.26	67.88
676.40	77.24
676.54	135.75
676.68	14.04
676.82	11.70
676.96	93.62
677.10	14.04
677.23	28.09
677.37	0.00
677.51	79.58
677.65	86.60
677.79	35.11
677.93	88.94
678.07	37.45
678.21	67.88
678.34	65.54
678.48	7.02
678.62	9.36
678.76	86.60
678.90	67.88
679.04	9.36
679.18	7.02
679.31	0.00
679.45	28.09
679.59	88.94
679.73	63.19
679.87	25.75
680.00	79.58
680.14	91.28
680.28	107.66
680.42	28.09
680.56	16.38
680.70	25.75
680.83	2.34
680.97	14.04
681.11	42.13
681.25	72.56
681.39	28.09
681.52	18.72
681.66	32.77
681.80	44.47
681.94	51.49
682.07	0.00
682.21	0.00
682.35	7.02
682.49	9.36
682.62	49.15
682.76	70.22
682.90	37.45
683.04	77.24
683.17	56.17
683.31	105.32
683.45	28.09
683.59	32.77
683.72	21.06
683.86	16.38
684.00	72.56
684.13	60.85
684.27	30.43
684.41	25.75
684.55	4.68
684.68	39.79
684.82	0.00
684.96	56.17
685.09	77.24
685.23	56.17
685.37	46.81
685.50	49.15
685.64	37.45
685.78	51.49
685.91	0.00
686.05	0.00
686.19	28.09
686.32	58.51
686.46	51.49
686.60	32.77
686.73	44.47
686.87	0.00
687.01	2.34
687.14	46.81
687.28	0.00
687.42	84.26
687.55	25.75
687.69	28.09
687.82	67.88
687.96	56.17
688.10	49.15
688.23	63.19
688.37	21.06
688.50	42.13
688.64	81.92
688.78	35.11
688.91	35.11
689.05	56.17
689.18	49.15
689.32	18.72
689.46	0.00
689.59	35.11
689.73	23.41
689.86	65.54
690.00	23.41
690.13	7.02
690.27	84.26
690.41	11.70
690.54	102.98
690.68	9.36
690.81	67.88
690.95	4.68
691.08	21.06
691.22	16.38
691.35	60.85
691.49	39.79
691.62	21.06
691.76	16.38
691.89	0.00
692.03	51.49
692.16	42.13
692.30	0.00
692.43	56.17
692.57	135.75
692.70	88.94
692.84	159.16
692.97	203.63
693.11	74.90
693.24	79.58
693.38	79.58
693.51	81.92
693.65	95.96
693.78	0.00
693.92	46.81
694.05	88.94
694.19	0.00
694.32	70.22
694.45	58.51
694.59	56.17
694.72	23.41
694.86	0.00
694.99	0.00
695.13	0.00
695.26	0.00
695.39	18.72
695.53	0.00
695.66	0.00
695.80	32.77
695.93	11.70
696.07	67.88
696.20	53.83
696.33	112.35
696.47	51.49
696.60	81.92
696.73	49.15
696.87	4.68
697.00	79.58
697.14	74.90
697.27	91.28
697.40	77.24
697.54	30.43
697.67	0.00
697.80	0.00
697.94	49.15
698.07	74.90
698.21	84.26
698.34	0.00
698.47	58.51
698.61	14.04
698.74	14.04
698.87	0.00
699.01	42.13
699.14	44.47
699.27	44.47
699.40	35.11
699.54	11.70
699.67	0.00
699.80	32.77
699.94	51.49
700.07	51.49
700.20	44.47
700.34	32.77
700.47	0.00
700.60	46.81
700.73	72.56
700.87	58.51
701.00	84.26
701.13	0.00
701.26	70.22
701.40	28.09
701.53	79.58
701.66	30.43
701.79	14.04
701.93	9.36
702.06	91.28
702.19	39.79
702.32	30.43
702.46	53.83
702.59	0.00
702.72	51.49
702.85	100.64
702.99	215.33
703.12	299.59
703.25	327.68
703.38	243.42
703.51	245.76
703.65	147.45
703.78	159.16
703.91	77.24
704.04	58.51
704.17	56.17
704.31	67.88
704.44	0.00
704.57	16.38
704.70	67.88
704.83	77.24
704.96	44.47
705.10	77.24
705.23	11.70
>>>>>End Processed Spectral Data<<<<<
