SpectraSuite Data File
++++++++++++++++++++++++++++++++++++
Date: Fri Oct 04 12:13:36 GMT-05:00 2013
User: price-jones
Dark Spectrum Present: No
Reference Spectrum Present: No
Number of Sampled Component Spectra: 1
Spectrometers: USB2+H05261
Integration Time (usec): 10000 (USB2+H05261)
Spectra Averaged: 1 (USB2+H05261)
Boxcar Smoothing: 0 (USB2+H05261)
Correct for Electrical Dark: No (USB2+H05261)
Strobe/Lamp Enabled: No (USB2+H05261)
Correct for Detector Non-linearity: No (USB2+H05261)
Correct for Stray Light: No (USB2+H05261)
Number of Pixels in Processed Spectrum: 2048
>>>>>Begin Processed Spectral Data<<<<<
365.73	23.41
365.92	23.41
366.12	23.41
366.32	0.00
366.52	0.00
366.72	0.00
366.91	0.00
367.11	0.00
367.31	0.00
367.51	0.00
367.70	0.00
367.90	0.00
368.10	0.00
368.30	0.00
368.49	0.00
368.69	0.00
368.89	0.00
369.09	0.00
369.28	0.00
369.48	0.00
369.68	0.00
369.87	0.00
370.07	0.00
370.27	0.00
370.47	0.00
370.66	0.00
370.86	0.00
371.06	16.38
371.25	0.00
371.45	0.00
371.65	0.00
371.84	0.00
372.04	4.68
372.24	60.85
372.44	58.51
372.63	44.47
372.83	56.17
373.03	46.81
373.22	42.13
373.42	0.00
373.62	0.00
373.81	32.77
374.01	18.72
374.21	70.22
374.40	35.11
374.60	105.32
374.79	42.13
374.99	32.77
375.19	16.38
375.38	2.34
375.58	0.00
375.78	21.06
375.97	0.00
376.17	44.47
376.37	51.49
376.56	25.75
376.76	42.13
376.95	32.77
377.15	44.47
377.35	79.58
377.54	93.62
377.74	0.00
377.93	81.92
378.13	100.64
378.33	63.19
378.52	11.70
378.72	46.81
378.91	53.83
379.11	0.00
379.31	37.45
379.50	0.00
379.70	7.02
379.89	100.64
380.09	110.01
380.28	35.11
380.48	0.00
380.68	51.49
380.87	0.00
381.07	0.00
381.26	25.75
381.46	0.00
381.65	37.45
381.85	44.47
382.04	32.77
382.24	102.98
382.43	0.00
382.63	37.45
382.83	0.00
383.02	0.00
383.22	0.00
383.41	16.38
383.61	67.88
383.80	0.00
384.00	58.51
384.19	28.09
384.39	9.36
384.58	0.00
384.78	81.92
384.97	53.83
385.17	42.13
385.36	30.43
385.56	37.45
385.75	58.51
385.95	30.43
386.14	53.83
386.34	63.19
386.53	0.00
386.72	28.09
386.92	0.00
387.11	18.72
387.31	28.09
387.50	11.70
387.70	25.75
387.89	25.75
388.09	7.02
388.28	2.34
388.48	23.41
388.67	42.13
388.86	56.17
389.06	70.22
389.25	35.11
389.45	0.00
389.64	21.06
389.84	0.00
390.03	37.45
390.22	25.75
390.42	0.00
390.61	9.36
390.81	18.72
391.00	0.00
391.19	0.00
391.39	37.45
391.58	39.79
391.78	60.85
391.97	56.17
392.16	72.56
392.36	0.00
392.55	14.04
392.75	0.00
392.94	74.90
393.13	25.75
393.33	74.90
393.52	35.11
393.71	49.15
393.91	39.79
394.10	0.00
394.29	21.06
394.49	72.56
394.68	9.36
394.88	65.54
395.07	7.02
395.26	37.45
395.46	14.04
395.65	0.00
395.84	16.38
396.04	110.01
396.23	65.54
396.42	11.70
396.62	0.00
396.81	67.88
397.00	23.41
397.19	11.70
397.39	67.88
397.58	4.68
397.77	60.85
397.97	7.02
398.16	0.00
398.35	37.45
398.55	39.79
398.74	30.43
398.93	0.00
399.12	51.49
399.32	63.19
399.51	32.77
399.70	0.00
399.90	4.68
400.09	0.00
400.28	39.79
400.47	0.00
400.67	79.58
400.86	70.22
401.05	72.56
401.24	0.00
401.44	0.00
401.63	28.09
401.82	60.85
402.01	0.00
402.21	49.15
402.40	28.09
402.59	28.09
402.78	93.62
402.97	46.81
403.17	70.22
403.36	16.38
403.55	0.00
403.74	0.00
403.93	51.49
404.13	28.09
404.32	32.77
404.51	42.13
404.70	23.41
404.89	49.15
405.09	138.09
405.28	72.56
405.47	72.56
405.66	11.70
405.85	14.04
406.05	58.51
406.24	25.75
406.43	44.47
406.62	93.62
406.81	21.06
407.00	32.77
407.20	39.79
407.39	60.85
407.58	60.85
407.77	7.02
407.96	58.51
408.15	63.19
408.34	35.11
408.54	35.11
408.73	9.36
408.92	56.17
409.11	21.06
409.30	81.92
409.49	65.54
409.68	9.36
409.87	25.75
410.07	44.47
410.26	58.51
410.45	86.60
410.64	95.96
410.83	98.30
411.02	14.04
411.21	11.70
411.40	88.94
411.59	70.22
411.78	51.49
411.98	0.00
412.17	25.75
412.36	42.13
412.55	0.00
412.74	37.45
412.93	51.49
413.12	0.00
413.31	7.02
413.50	7.02
413.69	21.06
413.88	37.45
414.07	0.00
414.26	58.51
414.45	28.09
414.64	0.00
414.83	70.22
415.02	58.51
415.22	138.09
415.41	46.81
415.60	42.13
415.79	39.79
415.98	0.00
416.17	126.39
416.36	4.68
416.55	28.09
416.74	65.54
416.93	9.36
417.12	4.68
417.31	0.00
417.50	51.49
417.69	35.11
417.88	2.34
418.07	11.70
418.26	18.72
418.45	51.49
418.64	56.17
418.83	23.41
419.02	0.00
419.21	51.49
419.39	42.13
419.58	25.75
419.77	44.47
419.96	112.35
420.15	58.51
420.34	42.13
420.53	0.00
420.72	84.26
420.91	32.77
421.10	44.47
421.29	56.17
421.48	25.75
421.67	46.81
421.86	14.04
422.05	72.56
422.24	56.17
422.43	14.04
422.61	23.41
422.80	56.17
422.99	28.09
423.18	70.22
423.37	0.00
423.56	0.00
423.75	49.15
423.94	93.62
424.13	93.62
424.32	86.60
424.50	44.47
424.69	88.94
424.88	23.41
425.07	11.70
425.26	60.85
425.45	135.75
425.64	16.38
425.83	0.00
426.01	88.94
426.20	53.83
426.39	30.43
426.58	51.49
426.77	60.85
426.96	25.75
427.15	30.43
427.33	70.22
427.52	0.00
427.71	11.70
427.90	70.22
428.09	21.06
428.28	67.88
428.46	28.09
428.65	46.81
428.84	0.00
429.03	65.54
429.22	81.92
429.40	65.54
429.59	0.00
429.78	11.70
429.97	58.51
430.16	39.79
430.34	74.90
430.53	63.19
430.72	32.77
430.91	7.02
431.10	84.26
431.28	93.62
431.47	39.79
431.66	30.43
431.85	0.00
432.03	56.17
432.22	70.22
432.41	14.04
432.60	49.15
432.79	4.68
432.97	112.35
433.16	56.17
433.35	32.77
433.54	56.17
433.72	58.51
433.91	37.45
434.10	107.66
434.28	53.83
434.47	91.28
434.66	112.35
434.85	56.17
435.03	7.02
435.22	56.17
435.41	37.45
435.59	7.02
435.78	154.48
435.97	121.71
436.16	9.36
436.34	79.58
436.53	46.81
436.72	0.00
436.90	91.28
437.09	65.54
437.28	0.00
437.46	81.92
437.65	84.26
437.84	79.58
438.02	32.77
438.21	7.02
438.40	11.70
438.58	60.85
438.77	23.41
438.96	56.17
439.14	70.22
439.33	56.17
439.52	14.04
439.70	7.02
439.89	0.00
440.08	39.79
440.26	74.90
440.45	77.24
440.63	18.72
440.82	9.36
441.01	0.00
441.19	60.85
441.38	46.81
441.57	74.90
441.75	46.81
441.94	53.83
442.12	25.75
442.31	25.75
442.50	70.22
442.68	39.79
442.87	18.72
443.05	79.58
443.24	49.15
443.43	51.49
443.61	39.79
443.80	46.81
443.98	91.28
444.17	18.72
444.35	42.13
444.54	114.69
444.73	60.85
444.91	67.88
445.10	56.17
445.28	60.85
445.47	14.04
445.65	0.00
445.84	112.35
446.02	74.90
446.21	37.45
446.39	60.85
446.58	42.13
446.77	74.90
446.95	67.88
447.14	49.15
447.32	84.26
447.51	42.13
447.69	39.79
447.88	49.15
448.06	58.51
448.25	63.19
448.43	154.48
448.62	37.45
448.80	56.17
448.99	58.51
449.17	63.19
449.36	60.85
449.54	21.06
449.73	72.56
449.91	152.13
450.10	0.00
450.28	93.62
450.46	77.24
450.65	0.00
450.83	121.71
451.02	32.77
451.20	37.45
451.39	60.85
451.57	88.94
451.76	100.64
451.94	114.69
452.13	58.51
452.31	0.00
452.49	84.26
452.68	18.72
452.86	30.43
453.05	39.79
453.23	0.00
453.42	91.28
453.60	37.45
453.78	0.00
453.97	81.92
454.15	58.51
454.34	0.00
454.52	88.94
454.70	0.00
454.89	63.19
455.07	72.56
455.26	110.01
455.44	28.09
455.62	100.64
455.81	30.43
455.99	28.09
456.17	63.19
456.36	9.36
456.54	58.51
456.73	72.56
456.91	53.83
457.09	93.62
457.28	44.47
457.46	28.09
457.64	79.58
457.83	30.43
458.01	4.68
458.19	84.26
458.38	98.30
458.56	4.68
458.74	74.90
458.93	86.60
459.11	56.17
459.29	56.17
459.48	100.64
459.66	72.56
459.84	112.35
460.03	53.83
460.21	25.75
460.39	11.70
460.57	30.43
460.76	18.72
460.94	161.50
461.12	88.94
461.31	60.85
461.49	107.66
461.67	18.72
461.85	32.77
462.04	7.02
462.22	72.56
462.40	121.71
462.59	65.54
462.77	32.77
462.95	53.83
463.13	121.71
463.32	98.30
463.50	49.15
463.68	74.90
463.86	126.39
464.05	72.56
464.23	18.72
464.41	0.00
464.59	39.79
464.78	0.00
464.96	44.47
465.14	60.85
465.32	30.43
465.50	37.45
465.69	58.51
465.87	67.88
466.05	107.66
466.23	0.00
466.41	95.96
466.60	14.04
466.78	105.32
466.96	53.83
467.14	79.58
467.32	56.17
467.51	0.00
467.69	2.34
467.87	77.24
468.05	25.75
468.23	0.00
468.41	25.75
468.60	7.02
468.78	60.85
468.96	81.92
469.14	18.72
469.32	0.00
469.50	35.11
469.69	107.66
469.87	110.01
470.05	4.68
470.23	16.38
470.41	65.54
470.59	16.38
470.77	23.41
470.95	100.64
471.14	32.77
471.32	91.28
471.50	67.88
471.68	0.00
471.86	9.36
472.04	93.62
472.22	117.03
472.40	30.43
472.58	93.62
472.77	44.47
472.95	65.54
473.13	79.58
473.31	11.70
473.49	93.62
473.67	28.09
473.85	16.38
474.03	60.85
474.21	126.39
474.39	114.69
474.57	0.00
474.75	67.88
474.93	67.88
475.12	117.03
475.30	91.28
475.48	77.24
475.66	39.79
475.84	9.36
476.02	133.41
476.20	58.51
476.38	58.51
476.56	117.03
476.74	49.15
476.92	35.11
477.10	23.41
477.28	21.06
477.46	98.30
477.64	30.43
477.82	39.79
478.00	21.06
478.18	44.47
478.36	32.77
478.54	74.90
478.72	0.00
478.90	32.77
479.08	114.69
479.26	65.54
479.44	32.77
479.62	81.92
479.80	49.15
479.98	91.28
480.16	35.11
480.34	0.00
480.52	28.09
480.70	65.54
480.88	49.15
481.06	35.11
481.24	154.48
481.41	25.75
481.59	93.62
481.77	60.85
481.95	39.79
482.13	81.92
482.31	119.37
482.49	16.38
482.67	30.43
482.85	112.35
483.03	98.30
483.21	0.00
483.39	44.47
483.57	63.19
483.74	100.64
483.92	63.19
484.10	42.13
484.28	98.30
484.46	81.92
484.64	91.28
484.82	74.90
485.00	81.92
485.18	35.11
485.35	28.09
485.53	46.81
485.71	95.96
485.89	53.83
486.07	37.45
486.25	74.90
486.43	0.00
486.61	18.72
486.78	35.11
486.96	72.56
487.14	21.06
487.32	23.41
487.50	28.09
487.68	56.17
487.85	86.60
488.03	79.58
488.21	25.75
488.39	35.11
488.57	131.07
488.75	138.09
488.92	81.92
489.10	65.54
489.28	65.54
489.46	58.51
489.64	42.13
489.81	51.49
489.99	84.26
490.17	70.22
490.35	63.19
490.53	60.85
490.70	72.56
490.88	70.22
491.06	46.81
491.24	46.81
491.41	77.24
491.59	74.90
491.77	49.15
491.95	39.79
492.13	23.41
492.30	84.26
492.48	74.90
492.66	72.56
492.84	117.03
493.01	128.73
493.19	39.79
493.37	51.49
493.54	124.05
493.72	98.30
493.90	131.07
494.08	42.13
494.25	77.24
494.43	63.19
494.61	140.43
494.79	110.01
494.96	117.03
495.14	51.49
495.32	70.22
495.49	91.28
495.67	152.13
495.85	67.88
496.02	110.01
496.20	112.35
496.38	49.15
496.55	67.88
496.73	84.26
496.91	152.13
497.09	49.15
497.26	135.75
497.44	117.03
497.62	60.85
497.79	93.62
497.97	56.17
498.14	0.00
498.32	7.02
498.50	58.51
498.67	60.85
498.85	30.43
499.03	16.38
499.20	86.60
499.38	21.06
499.56	65.54
499.73	72.56
499.91	110.01
500.08	119.37
500.26	35.11
500.44	39.79
500.61	135.75
500.79	95.96
500.97	70.22
501.14	0.00
501.32	39.79
501.49	114.69
501.67	81.92
501.84	86.60
502.02	88.94
502.20	131.07
502.37	140.43
502.55	86.60
502.72	100.64
502.90	51.49
503.07	131.07
503.25	42.13
503.43	93.62
503.60	37.45
503.78	60.85
503.95	175.54
504.13	98.30
504.30	117.03
504.48	51.49
504.65	58.51
504.83	110.01
505.01	63.19
505.18	135.75
505.36	79.58
505.53	102.98
505.71	67.88
505.88	100.64
506.06	16.38
506.23	88.94
506.41	121.71
506.58	124.05
506.76	56.17
506.93	98.30
507.11	63.19
507.28	44.47
507.46	39.79
507.63	81.92
507.81	95.96
507.98	60.85
508.16	30.43
508.33	98.30
508.50	51.49
508.68	105.32
508.85	35.11
509.03	77.24
509.20	93.62
509.38	23.41
509.55	11.70
509.73	30.43
509.90	140.43
510.08	128.73
510.25	32.77
510.42	0.00
510.60	46.81
510.77	88.94
510.95	117.03
511.12	142.77
511.30	86.60
511.47	142.77
511.64	84.26
511.82	91.28
511.99	37.45
512.17	44.47
512.34	98.30
512.51	72.56
512.69	145.11
512.86	133.41
513.04	21.06
513.21	100.64
513.38	91.28
513.56	56.17
513.73	58.51
513.90	51.49
514.08	46.81
514.25	70.22
514.43	100.64
514.60	79.58
514.77	105.32
514.95	39.79
515.12	128.73
515.29	74.90
515.47	56.17
515.64	67.88
515.81	65.54
515.99	91.28
516.16	86.60
516.33	100.64
516.51	159.16
516.68	72.56
516.85	67.88
517.03	39.79
517.20	88.94
517.37	53.83
517.54	93.62
517.72	79.58
517.89	56.17
518.06	53.83
518.24	25.75
518.41	170.86
518.58	46.81
518.75	124.05
518.93	100.64
519.10	93.62
519.27	65.54
519.45	70.22
519.62	81.92
519.79	74.90
519.96	46.81
520.14	124.05
520.31	70.22
520.48	56.17
520.65	81.92
520.83	142.77
521.00	110.01
521.17	91.28
521.34	135.75
521.52	28.09
521.69	112.35
521.86	114.69
522.03	53.83
522.20	79.58
522.38	95.96
522.55	138.09
522.72	110.01
522.89	0.00
523.07	32.77
523.24	161.50
523.41	107.66
523.58	149.79
523.75	77.24
523.92	65.54
524.10	91.28
524.27	107.66
524.44	102.98
524.61	93.62
524.78	105.32
524.96	105.32
525.13	72.56
525.30	91.28
525.47	65.54
525.64	152.13
525.81	126.39
525.98	100.64
526.16	37.45
526.33	117.03
526.50	60.85
526.67	46.81
526.84	42.13
527.01	86.60
527.18	84.26
527.36	107.66
527.53	112.35
527.70	63.19
527.87	117.03
528.04	105.32
528.21	81.92
528.38	49.15
528.55	86.60
528.72	88.94
528.89	84.26
529.07	7.02
529.24	67.88
529.41	88.94
529.58	142.77
529.75	121.71
529.92	95.96
530.09	88.94
530.26	35.11
530.43	58.51
530.60	70.22
530.77	70.22
530.94	79.58
531.11	46.81
531.28	189.58
531.46	124.05
531.63	65.54
531.80	77.24
531.97	102.98
532.14	72.56
532.31	21.06
532.48	23.41
532.65	35.11
532.82	91.28
532.99	63.19
533.16	35.11
533.33	145.11
533.50	91.28
533.67	93.62
533.84	0.00
534.01	21.06
534.18	88.94
534.35	67.88
534.52	84.26
534.69	117.03
534.86	135.75
535.03	91.28
535.20	98.30
535.37	152.13
535.54	133.41
535.71	37.45
535.88	98.30
536.05	77.24
536.22	0.00
536.38	39.79
536.55	79.58
536.72	49.15
536.89	128.73
537.06	124.05
537.23	98.30
537.40	119.37
537.57	74.90
537.74	95.96
537.91	56.17
538.08	91.28
538.25	86.60
538.42	65.54
538.59	72.56
538.75	98.30
538.92	121.71
539.09	135.75
539.26	86.60
539.43	46.81
539.60	74.90
539.77	91.28
539.94	131.07
540.11	72.56
540.28	72.56
540.44	84.26
540.61	79.58
540.78	25.75
540.95	65.54
541.12	25.75
541.29	51.49
541.46	114.69
541.62	42.13
541.79	0.00
541.96	58.51
542.13	86.60
542.30	53.83
542.47	51.49
542.63	95.96
542.80	44.47
542.97	51.49
543.14	58.51
543.31	107.66
543.48	77.24
543.64	142.77
543.81	124.05
543.98	88.94
544.15	70.22
544.32	67.88
544.48	65.54
544.65	84.26
544.82	79.58
544.99	30.43
545.16	70.22
545.32	95.96
545.49	35.11
545.66	37.45
545.83	2.34
546.00	119.37
546.16	79.58
546.33	105.32
546.50	91.28
546.67	88.94
546.83	124.05
547.00	88.94
547.17	65.54
547.34	102.98
547.50	124.05
547.67	46.81
547.84	119.37
548.00	79.58
548.17	79.58
548.34	39.79
548.51	95.96
548.67	93.62
548.84	149.79
549.01	107.66
549.18	32.77
549.34	147.45
549.51	70.22
549.68	58.51
549.84	63.19
550.01	105.32
550.18	107.66
550.34	135.75
550.51	44.47
550.68	74.90
550.84	25.75
551.01	56.17
551.18	100.64
551.34	77.24
551.51	110.01
551.68	93.62
551.84	51.49
552.01	37.45
552.18	81.92
552.34	98.30
552.51	28.09
552.68	88.94
552.84	30.43
553.01	93.62
553.18	126.39
553.34	93.62
553.51	124.05
553.67	74.90
553.84	142.77
554.01	91.28
554.17	60.85
554.34	88.94
554.51	49.15
554.67	84.26
554.84	112.35
555.00	58.51
555.17	84.26
555.33	95.96
555.50	128.73
555.67	84.26
555.83	63.19
556.00	60.85
556.16	133.41
556.33	56.17
556.50	128.73
556.66	124.05
556.83	110.01
556.99	147.45
557.16	161.50
557.32	86.60
557.49	74.90
557.65	102.98
557.82	70.22
557.98	53.83
558.15	114.69
558.32	72.56
558.48	42.13
558.65	56.17
558.81	25.75
558.98	84.26
559.14	32.77
559.31	81.92
559.47	95.96
559.64	32.77
559.80	23.41
559.97	107.66
560.13	81.92
560.30	56.17
560.46	156.82
560.63	25.75
560.79	49.15
560.96	112.35
561.12	81.92
561.29	142.77
561.45	72.56
561.61	107.66
561.78	102.98
561.94	72.56
562.11	58.51
562.27	88.94
562.44	93.62
562.60	35.11
562.77	119.37
562.93	140.43
563.10	49.15
563.26	112.35
563.42	81.92
563.59	147.45
563.75	44.47
563.92	39.79
564.08	114.69
564.24	44.47
564.41	53.83
564.57	86.60
564.74	30.43
564.90	67.88
565.07	126.39
565.23	0.00
565.39	30.43
565.56	46.81
565.72	112.35
565.88	81.92
566.05	70.22
566.21	58.51
566.38	124.05
566.54	93.62
566.70	100.64
566.87	53.83
567.03	72.56
567.19	32.77
567.36	131.07
567.52	44.47
567.68	84.26
567.85	74.90
568.01	110.01
568.17	110.01
568.34	70.22
568.50	100.64
568.66	35.11
568.83	77.24
568.99	42.13
569.15	39.79
569.32	98.30
569.48	133.41
569.64	63.19
569.81	44.47
569.97	18.72
570.13	65.54
570.30	60.85
570.46	63.19
570.62	46.81
570.78	21.06
570.95	102.98
571.11	114.69
571.27	58.51
571.43	98.30
571.60	100.64
571.76	60.85
571.92	65.54
572.09	44.47
572.25	107.66
572.41	44.47
572.57	91.28
572.74	44.47
572.90	121.71
573.06	100.64
573.22	81.92
573.38	60.85
573.55	74.90
573.71	140.43
573.87	84.26
574.03	142.77
574.20	53.83
574.36	91.28
574.52	72.56
574.68	74.90
574.84	60.85
575.01	142.77
575.17	84.26
575.33	56.17
575.49	135.75
575.65	77.24
575.82	119.37
575.98	93.62
576.14	51.49
576.30	119.37
576.46	112.35
576.62	58.51
576.79	81.92
576.95	44.47
577.11	93.62
577.27	117.03
577.43	37.45
577.59	56.17
577.75	117.03
577.92	79.58
578.08	14.04
578.24	184.90
578.40	39.79
578.56	42.13
578.72	28.09
578.88	77.24
579.04	72.56
579.21	112.35
579.37	140.43
579.53	131.07
579.69	0.00
579.85	105.32
580.01	44.47
580.17	14.04
580.33	88.94
580.49	58.51
580.65	100.64
580.82	35.11
580.98	30.43
581.14	4.68
581.30	67.88
581.46	126.39
581.62	65.54
581.78	23.41
581.94	79.58
582.10	0.00
582.26	117.03
582.42	77.24
582.58	56.17
582.74	74.90
582.90	110.01
583.06	63.19
583.22	32.77
583.38	74.90
583.54	88.94
583.70	56.17
583.86	84.26
584.02	168.52
584.18	105.32
584.34	102.98
584.50	16.38
584.66	138.09
584.82	98.30
584.98	81.92
585.14	37.45
585.30	35.11
585.46	95.96
585.62	37.45
585.78	63.19
585.94	14.04
586.10	72.56
586.26	67.88
586.42	93.62
586.58	25.75
586.74	110.01
586.90	112.35
587.06	70.22
587.22	98.30
587.38	114.69
587.54	149.79
587.70	0.00
587.86	100.64
588.02	67.88
588.18	98.30
588.34	28.09
588.49	7.02
588.65	37.45
588.81	39.79
588.97	9.36
589.13	88.94
589.29	11.70
589.45	46.81
589.61	0.00
589.77	105.32
589.93	112.35
590.08	95.96
590.24	91.28
590.40	140.43
590.56	14.04
590.72	56.17
590.88	60.85
591.04	79.58
591.20	65.54
591.35	56.17
591.51	2.34
591.67	39.79
591.83	58.51
591.99	77.24
592.15	53.83
592.31	74.90
592.46	21.06
592.62	117.03
592.78	74.90
592.94	95.96
593.10	128.73
593.26	65.54
593.41	58.51
593.57	18.72
593.73	79.58
593.89	77.24
594.05	49.15
594.20	72.56
594.36	147.45
594.52	79.58
594.68	110.01
594.84	84.26
594.99	18.72
595.15	88.94
595.31	56.17
595.47	98.30
595.62	98.30
595.78	67.88
595.94	98.30
596.10	14.04
596.25	65.54
596.41	49.15
596.57	16.38
596.73	11.70
596.88	112.35
597.04	65.54
597.20	72.56
597.36	16.38
597.51	88.94
597.67	49.15
597.83	79.58
597.99	21.06
598.14	100.64
598.30	49.15
598.46	18.72
598.61	35.11
598.77	44.47
598.93	142.77
599.09	65.54
599.24	107.66
599.40	9.36
599.56	67.88
599.71	86.60
599.87	133.41
600.03	46.81
600.18	63.19
600.34	138.09
600.50	79.58
600.65	98.30
600.81	21.06
600.97	44.47
601.12	28.09
601.28	114.69
601.44	53.83
601.59	131.07
601.75	16.38
601.91	37.45
602.06	49.15
602.22	67.88
602.37	140.43
602.53	28.09
602.69	119.37
602.84	121.71
603.00	112.35
603.16	67.88
603.31	0.00
603.47	88.94
603.62	102.98
603.78	114.69
603.94	100.64
604.09	0.00
604.25	72.56
604.40	114.69
604.56	121.71
604.71	88.94
604.87	60.85
605.03	128.73
605.18	65.54
605.34	112.35
605.49	32.77
605.65	81.92
605.80	133.41
605.96	0.00
606.12	60.85
606.27	18.72
606.43	81.92
606.58	88.94
606.74	46.81
606.89	142.77
607.05	79.58
607.20	44.47
607.36	112.35
607.51	81.92
607.67	37.45
607.82	95.96
607.98	91.28
608.13	14.04
608.29	117.03
608.44	124.05
608.60	51.49
608.75	168.52
608.91	128.73
609.06	63.19
609.22	84.26
609.37	147.45
609.53	32.77
609.68	100.64
609.84	11.70
609.99	112.35
610.15	119.37
610.30	67.88
610.46	49.15
610.61	51.49
610.76	51.49
610.92	105.32
611.07	114.69
611.23	86.60
611.38	39.79
611.54	30.43
611.69	9.36
611.84	0.00
612.00	72.56
612.15	58.51
612.31	95.96
612.46	56.17
612.62	88.94
612.77	51.49
612.92	0.00
613.08	63.19
613.23	95.96
613.39	77.24
613.54	67.88
613.69	37.45
613.85	25.75
614.00	32.77
614.15	100.64
614.31	117.03
614.46	11.70
614.62	79.58
614.77	79.58
614.92	51.49
615.08	107.66
615.23	95.96
615.38	53.83
615.54	65.54
615.69	93.62
615.84	91.28
616.00	81.92
616.15	53.83
616.30	135.75
616.46	91.28
616.61	14.04
616.76	98.30
616.92	58.51
617.07	60.85
617.22	53.83
617.37	102.98
617.53	79.58
617.68	28.09
617.83	44.47
617.99	60.85
618.14	25.75
618.29	159.16
618.45	63.19
618.60	86.60
618.75	18.72
618.90	67.88
619.06	77.24
619.21	112.35
619.36	44.47
619.51	4.68
619.67	63.19
619.82	51.49
619.97	72.56
620.12	91.28
620.28	119.37
620.43	135.75
620.58	67.88
620.73	112.35
620.89	72.56
621.04	46.81
621.19	74.90
621.34	21.06
621.49	72.56
621.65	56.17
621.80	112.35
621.95	140.43
622.10	58.51
622.25	51.49
622.41	65.54
622.56	28.09
622.71	110.01
622.86	0.00
623.01	95.96
623.16	91.28
623.32	32.77
623.47	84.26
623.62	100.64
623.77	2.34
623.92	98.30
624.07	44.47
624.23	95.96
624.38	23.41
624.53	100.64
624.68	9.36
624.83	0.00
624.98	67.88
625.13	74.90
625.29	79.58
625.44	35.11
625.59	105.32
625.74	133.41
625.89	100.64
626.04	51.49
626.19	117.03
626.34	65.54
626.49	91.28
626.65	23.41
626.80	53.83
626.95	32.77
627.10	95.96
627.25	0.00
627.40	23.41
627.55	56.17
627.70	46.81
627.85	46.81
628.00	0.00
628.15	72.56
628.30	86.60
628.45	65.54
628.60	102.98
628.76	23.41
628.91	25.75
629.06	117.03
629.21	32.77
629.36	35.11
629.51	49.15
629.66	81.92
629.81	72.56
629.96	53.83
630.11	70.22
630.26	42.13
630.41	72.56
630.56	95.96
630.71	0.00
630.86	49.15
631.01	67.88
631.16	53.83
631.31	124.05
631.46	46.81
631.61	25.75
631.76	2.34
631.91	84.26
632.06	81.92
632.21	72.56
632.36	21.06
632.51	37.45
632.66	53.83
632.81	46.81
632.96	58.51
633.10	0.00
633.25	0.00
633.40	63.19
633.55	100.64
633.70	46.81
633.85	32.77
634.00	42.13
634.15	126.39
634.30	16.38
634.45	60.85
634.60	21.06
634.75	70.22
634.90	77.24
635.05	53.83
635.19	14.04
635.34	58.51
635.49	37.45
635.64	67.88
635.79	133.41
635.94	46.81
636.09	0.00
636.24	56.17
636.39	35.11
636.53	86.60
636.68	131.07
636.83	79.58
636.98	105.32
637.13	28.09
637.28	91.28
637.43	72.56
637.57	60.85
637.72	74.90
637.87	56.17
638.02	81.92
638.17	35.11
638.32	28.09
638.46	79.58
638.61	93.62
638.76	91.28
638.91	44.47
639.06	72.56
639.20	74.90
639.35	81.92
639.50	70.22
639.65	65.54
639.80	79.58
639.94	77.24
640.09	95.96
640.24	67.88
640.39	58.51
640.54	39.79
640.68	70.22
640.83	117.03
640.98	72.56
641.13	56.17
641.27	28.09
641.42	81.92
641.57	30.43
641.72	70.22
641.86	105.32
642.01	32.77
642.16	16.38
642.31	86.60
642.45	70.22
642.60	72.56
642.75	46.81
642.90	51.49
643.04	81.92
643.19	131.07
643.34	44.47
643.48	63.19
643.63	37.45
643.78	91.28
643.93	81.92
644.07	7.02
644.22	67.88
644.37	21.06
644.51	72.56
644.66	51.49
644.81	117.03
644.95	65.54
645.10	0.00
645.25	37.45
645.39	84.26
645.54	79.58
645.69	35.11
645.83	72.56
645.98	51.49
646.13	14.04
646.27	58.51
646.42	4.68
646.57	81.92
646.71	91.28
646.86	46.81
647.00	56.17
647.15	30.43
647.30	77.24
647.44	58.51
647.59	60.85
647.74	28.09
647.88	112.35
648.03	74.90
648.17	112.35
648.32	44.47
648.47	65.54
648.61	60.85
648.76	70.22
648.90	102.98
649.05	81.92
649.20	72.56
649.34	21.06
649.49	4.68
649.63	79.58
649.78	35.11
649.92	63.19
650.07	46.81
650.21	63.19
650.36	35.11
650.51	88.94
650.65	44.47
650.80	14.04
650.94	51.49
651.09	51.49
651.23	30.43
651.38	100.64
651.52	44.47
651.67	49.15
651.81	56.17
651.96	0.00
652.10	63.19
652.25	32.77
652.39	110.01
652.54	44.47
652.68	25.75
652.83	58.51
652.97	23.41
653.12	102.98
653.26	37.45
653.41	51.49
653.55	72.56
653.70	11.70
653.84	46.81
653.99	98.30
654.13	37.45
654.27	79.58
654.42	28.09
654.56	63.19
654.71	53.83
654.85	32.77
655.00	91.28
655.14	67.88
655.29	93.62
655.43	9.36
655.57	93.62
655.72	46.81
655.86	44.47
656.01	72.56
656.15	77.24
656.30	100.64
656.44	49.15
656.58	49.15
656.73	4.68
656.87	21.06
657.01	23.41
657.16	131.07
657.30	46.81
657.45	49.15
657.59	4.68
657.73	56.17
657.88	79.58
658.02	140.43
658.16	58.51
658.31	53.83
658.45	35.11
658.60	117.03
658.74	135.75
658.88	65.54
659.03	0.00
659.17	84.26
659.31	74.90
659.46	11.70
659.60	56.17
659.74	63.19
659.89	46.81
660.03	67.88
660.17	63.19
660.32	42.13
660.46	74.90
660.60	7.02
660.74	32.77
660.89	28.09
661.03	35.11
661.17	49.15
661.32	30.43
661.46	32.77
661.60	44.47
661.74	28.09
661.89	35.11
662.03	95.96
662.17	42.13
662.31	74.90
662.46	25.75
662.60	74.90
662.74	88.94
662.88	53.83
663.03	58.51
663.17	23.41
663.31	63.19
663.45	65.54
663.60	35.11
663.74	0.00
663.88	58.51
664.02	16.38
664.17	60.85
664.31	39.79
664.45	0.00
664.59	51.49
664.73	81.92
664.88	117.03
665.02	9.36
665.16	60.85
665.30	28.09
665.44	44.47
665.59	72.56
665.73	63.19
665.87	44.47
666.01	98.30
666.15	18.72
666.29	56.17
666.44	60.85
666.58	67.88
666.72	58.51
666.86	0.00
667.00	0.00
667.14	56.17
667.28	110.01
667.43	0.00
667.57	25.75
667.71	7.02
667.85	67.88
667.99	0.00
668.13	0.00
668.27	18.72
668.41	46.81
668.56	65.54
668.70	72.56
668.84	0.00
668.98	35.11
669.12	9.36
669.26	51.49
669.40	98.30
669.54	42.13
669.68	177.88
669.82	70.22
669.96	84.26
670.10	110.01
670.25	53.83
670.39	67.88
670.53	56.17
670.67	0.00
670.81	67.88
670.95	39.79
671.09	42.13
671.23	60.85
671.37	0.00
671.51	60.85
671.65	119.37
671.79	16.38
671.93	70.22
672.07	79.58
672.21	42.13
672.35	44.47
672.49	53.83
672.63	49.15
672.77	25.75
672.91	79.58
673.05	49.15
673.19	88.94
673.33	65.54
673.47	53.83
673.61	4.68
673.75	35.11
673.89	32.77
674.03	44.47
674.17	32.77
674.31	30.43
674.45	72.56
674.59	0.00
674.73	7.02
674.87	0.00
675.01	23.41
675.15	46.81
675.29	65.54
675.43	18.72
675.56	67.88
675.70	74.90
675.84	98.30
675.98	58.51
676.12	46.81
676.26	21.06
676.40	23.41
676.54	58.51
676.68	18.72
676.82	0.00
676.96	105.32
677.10	39.79
677.23	39.79
677.37	21.06
677.51	67.88
677.65	58.51
677.79	63.19
677.93	39.79
678.07	0.00
678.21	35.11
678.34	37.45
678.48	14.04
678.62	32.77
678.76	88.94
678.90	79.58
679.04	11.70
679.18	0.00
679.31	23.41
679.45	35.11
679.59	102.98
679.73	77.24
679.87	0.00
680.00	0.00
680.14	88.94
680.28	2.34
680.42	79.58
680.56	39.79
680.70	21.06
680.83	25.75
680.97	42.13
681.11	11.70
681.25	70.22
681.39	0.00
681.52	44.47
681.66	77.24
681.80	32.77
681.94	0.00
682.07	30.43
682.21	11.70
682.35	0.00
682.49	124.05
682.62	42.13
682.76	0.00
682.90	56.17
683.04	44.47
683.17	56.17
683.31	23.41
683.45	60.85
683.59	65.54
683.72	32.77
683.86	2.34
684.00	58.51
684.13	28.09
684.27	35.11
684.41	42.13
684.55	51.49
684.68	88.94
684.82	60.85
684.96	35.11
685.09	39.79
685.23	30.43
685.37	49.15
685.50	25.75
685.64	0.00
685.78	23.41
685.91	51.49
686.05	58.51
686.19	124.05
686.32	119.37
686.46	18.72
686.60	84.26
686.73	23.41
686.87	0.00
687.01	11.70
687.14	65.54
687.28	28.09
687.42	32.77
687.55	0.00
687.69	0.00
687.82	51.49
687.96	32.77
688.10	100.64
688.23	42.13
688.37	32.77
688.50	37.45
688.64	0.00
688.78	23.41
688.91	18.72
689.05	0.00
689.18	37.45
689.32	112.35
689.46	102.98
689.59	56.17
689.73	46.81
689.86	67.88
690.00	93.62
690.13	0.00
690.27	42.13
690.41	49.15
690.54	30.43
690.68	0.00
690.81	37.45
690.95	16.38
691.08	0.00
691.22	32.77
691.35	11.70
691.49	65.54
691.62	39.79
691.76	95.96
691.89	84.26
692.03	32.77
692.16	65.54
692.30	0.00
692.43	16.38
692.57	107.66
692.70	58.51
692.84	0.00
692.97	63.19
693.11	131.07
693.24	112.35
693.38	88.94
693.51	0.00
693.65	46.81
693.78	65.54
693.92	35.11
694.05	28.09
694.19	28.09
694.32	37.45
694.45	39.79
694.59	7.02
694.72	86.60
694.86	0.00
694.99	0.00
695.13	9.36
695.26	46.81
695.39	30.43
695.53	112.35
695.66	65.54
695.80	16.38
695.93	74.90
696.07	21.06
696.20	4.68
696.33	0.00
696.47	42.13
696.60	39.79
696.73	23.41
696.87	0.00
697.00	74.90
697.14	46.81
697.27	0.00
697.40	23.41
697.54	0.00
697.67	74.90
697.80	70.22
697.94	21.06
698.07	18.72
698.21	70.22
698.34	0.00
698.47	9.36
698.61	117.03
698.74	44.47
698.87	37.45
699.01	0.00
699.14	28.09
699.27	0.00
699.40	74.90
699.54	7.02
699.67	0.00
699.80	32.77
699.94	21.06
700.07	4.68
700.20	0.00
700.34	23.41
700.47	0.00
700.60	53.83
700.73	28.09
700.87	4.68
701.00	86.60
701.13	65.54
701.26	23.41
701.40	77.24
701.53	67.88
701.66	11.70
701.79	21.06
701.93	46.81
702.06	49.15
702.19	42.13
702.32	25.75
702.46	67.88
702.59	53.83
702.72	16.38
702.85	35.11
702.99	32.77
703.12	74.90
703.25	0.00
703.38	65.54
703.51	51.49
703.65	32.77
703.78	4.68
703.91	86.60
704.04	7.02
704.17	114.69
704.31	23.41
704.44	11.70
704.57	0.00
704.70	67.88
704.83	2.34
704.96	35.11
705.10	53.83
705.23	25.75
>>>>>End Processed Spectral Data<<<<<
