SpectraSuite Data File
++++++++++++++++++++++++++++++++++++
Date: Fri Oct 04 12:13:25 GMT-05:00 2013
User: price-jones
Dark Spectrum Present: No
Reference Spectrum Present: No
Number of Sampled Component Spectra: 1
Spectrometers: USB2+H05261
Integration Time (usec): 10000 (USB2+H05261)
Spectra Averaged: 1 (USB2+H05261)
Boxcar Smoothing: 0 (USB2+H05261)
Correct for Electrical Dark: No (USB2+H05261)
Strobe/Lamp Enabled: No (USB2+H05261)
Correct for Detector Non-linearity: No (USB2+H05261)
Correct for Stray Light: No (USB2+H05261)
Number of Pixels in Processed Spectrum: 2048
>>>>>Begin Processed Spectral Data<<<<<
365.73	0.00
365.92	0.00
366.12	0.00
366.32	0.00
366.52	0.00
366.72	0.00
366.91	0.00
367.11	0.00
367.31	0.00
367.51	0.00
367.70	0.00
367.90	0.00
368.10	0.00
368.30	0.00
368.49	0.00
368.69	0.00
368.89	0.00
369.09	0.00
369.28	0.00
369.48	0.00
369.68	0.00
369.87	0.00
370.07	0.00
370.27	0.00
370.47	0.00
370.66	0.00
370.86	0.00
371.06	16.38
371.25	0.00
371.45	0.00
371.65	0.00
371.84	0.00
372.04	44.47
372.24	0.00
372.44	77.24
372.63	0.00
372.83	9.36
373.03	35.11
373.22	32.77
373.42	42.13
373.62	56.17
373.81	25.75
374.01	4.68
374.21	16.38
374.40	37.45
374.60	0.00
374.79	21.06
374.99	0.00
375.19	49.15
375.38	77.24
375.58	2.34
375.78	77.24
375.97	42.13
376.17	98.30
376.37	0.00
376.56	28.09
376.76	84.26
376.95	91.28
377.15	9.36
377.35	46.81
377.54	18.72
377.74	0.00
377.93	91.28
378.13	30.43
378.33	18.72
378.52	51.49
378.72	60.85
378.91	0.00
379.11	0.00
379.31	9.36
379.50	0.00
379.70	49.15
379.89	4.68
380.09	25.75
380.28	7.02
380.48	0.00
380.68	0.00
380.87	0.00
381.07	63.19
381.26	0.00
381.46	23.41
381.65	44.47
381.85	4.68
382.04	37.45
382.24	84.26
382.43	9.36
382.63	49.15
382.83	84.26
383.02	4.68
383.22	0.00
383.41	28.09
383.61	32.77
383.80	7.02
384.00	0.00
384.19	102.98
384.39	67.88
384.58	0.00
384.78	0.00
384.97	21.06
385.17	74.90
385.36	0.00
385.56	51.49
385.75	46.81
385.95	4.68
386.14	49.15
386.34	72.56
386.53	70.22
386.72	39.79
386.92	18.72
387.11	86.60
387.31	0.00
387.50	0.00
387.70	14.04
387.89	35.11
388.09	2.34
388.28	7.02
388.48	28.09
388.67	0.00
388.86	0.00
389.06	18.72
389.25	53.83
389.45	25.75
389.64	79.58
389.84	0.00
390.03	0.00
390.22	51.49
390.42	102.98
390.61	0.00
390.81	11.70
391.00	14.04
391.19	30.43
391.39	0.00
391.58	9.36
391.78	11.70
391.97	14.04
392.16	0.00
392.36	128.73
392.55	11.70
392.75	0.00
392.94	23.41
393.13	14.04
393.33	72.56
393.52	58.51
393.71	0.00
393.91	74.90
394.10	53.83
394.29	14.04
394.49	0.00
394.68	0.00
394.88	51.49
395.07	0.00
395.26	18.72
395.46	37.45
395.65	37.45
395.84	0.00
396.04	0.00
396.23	0.00
396.42	30.43
396.62	46.81
396.81	30.43
397.00	30.43
397.19	39.79
397.39	0.00
397.58	14.04
397.77	95.96
397.97	86.60
398.16	23.41
398.35	11.70
398.55	25.75
398.74	81.92
398.93	37.45
399.12	0.00
399.32	14.04
399.51	28.09
399.70	21.06
399.90	0.00
400.09	0.00
400.28	0.00
400.47	95.96
400.67	9.36
400.86	14.04
401.05	16.38
401.24	0.00
401.44	9.36
401.63	18.72
401.82	9.36
402.01	0.00
402.21	30.43
402.40	53.83
402.59	23.41
402.78	23.41
402.97	42.13
403.17	37.45
403.36	11.70
403.55	28.09
403.74	46.81
403.93	0.00
404.13	0.00
404.32	11.70
404.51	58.51
404.70	46.81
404.89	0.00
405.09	46.81
405.28	39.79
405.47	0.00
405.66	30.43
405.85	0.00
406.05	0.00
406.24	58.51
406.43	21.06
406.62	46.81
406.81	46.81
407.00	23.41
407.20	21.06
407.39	35.11
407.58	32.77
407.77	53.83
407.96	0.00
408.15	0.00
408.34	14.04
408.54	86.60
408.73	0.00
408.92	2.34
409.11	32.77
409.30	67.88
409.49	4.68
409.68	11.70
409.87	32.77
410.07	63.19
410.26	0.00
410.45	0.00
410.64	0.00
410.83	0.00
411.02	0.00
411.21	39.79
411.40	0.00
411.59	21.06
411.78	107.66
411.98	93.62
412.17	0.00
412.36	67.88
412.55	37.45
412.74	70.22
412.93	0.00
413.12	4.68
413.31	67.88
413.50	67.88
413.69	49.15
413.88	25.75
414.07	124.05
414.26	70.22
414.45	25.75
414.64	28.09
414.83	23.41
415.02	4.68
415.22	32.77
415.41	25.75
415.60	21.06
415.79	65.54
415.98	14.04
416.17	0.00
416.36	110.01
416.55	81.92
416.74	93.62
416.93	16.38
417.12	0.00
417.31	0.00
417.50	0.00
417.69	0.00
417.88	0.00
418.07	51.49
418.26	14.04
418.45	11.70
418.64	30.43
418.83	32.77
419.02	32.77
419.21	0.00
419.39	53.83
419.58	0.00
419.77	21.06
419.96	46.81
420.15	11.70
420.34	32.77
420.53	81.92
420.72	21.06
420.91	39.79
421.10	35.11
421.29	42.13
421.48	74.90
421.67	67.88
421.86	67.88
422.05	23.41
422.24	14.04
422.43	63.19
422.61	65.54
422.80	65.54
422.99	60.85
423.18	63.19
423.37	0.00
423.56	9.36
423.75	49.15
423.94	0.00
424.13	58.51
424.32	39.79
424.50	0.00
424.69	0.00
424.88	84.26
425.07	4.68
425.26	2.34
425.45	0.00
425.64	4.68
425.83	0.00
426.01	18.72
426.20	0.00
426.39	23.41
426.58	124.05
426.77	0.00
426.96	21.06
427.15	77.24
427.33	65.54
427.52	7.02
427.71	2.34
427.90	44.47
428.09	0.00
428.28	53.83
428.46	63.19
428.65	42.13
428.84	28.09
429.03	35.11
429.22	0.00
429.40	23.41
429.59	11.70
429.78	0.00
429.97	53.83
430.16	4.68
430.34	42.13
430.53	39.79
430.72	16.38
430.91	23.41
431.10	58.51
431.28	25.75
431.47	37.45
431.66	42.13
431.85	32.77
432.03	81.92
432.22	74.90
432.41	0.00
432.60	49.15
432.79	44.47
432.97	44.47
433.16	49.15
433.35	14.04
433.54	4.68
433.72	18.72
433.91	18.72
434.10	77.24
434.28	51.49
434.47	84.26
434.66	0.00
434.85	23.41
435.03	56.17
435.22	0.00
435.41	0.00
435.59	7.02
435.78	0.00
435.97	0.00
436.16	42.13
436.34	28.09
436.53	63.19
436.72	0.00
436.90	0.00
437.09	11.70
437.28	86.60
437.46	35.11
437.65	77.24
437.84	21.06
438.02	53.83
438.21	0.00
438.40	0.00
438.58	16.38
438.77	2.34
438.96	0.00
439.14	9.36
439.33	28.09
439.52	0.00
439.70	25.75
439.89	16.38
440.08	39.79
440.26	77.24
440.45	32.77
440.63	16.38
440.82	84.26
441.01	93.62
441.19	93.62
441.38	0.00
441.57	67.88
441.75	65.54
441.94	30.43
442.12	81.92
442.31	30.43
442.50	0.00
442.68	56.17
442.87	37.45
443.05	42.13
443.24	35.11
443.43	46.81
443.61	67.88
443.80	0.00
443.98	16.38
444.17	28.09
444.35	0.00
444.54	79.58
444.73	30.43
444.91	67.88
445.10	25.75
445.28	14.04
445.47	53.83
445.65	23.41
445.84	18.72
446.02	35.11
446.21	128.73
446.39	28.09
446.58	46.81
446.77	56.17
446.95	44.47
447.14	4.68
447.32	23.41
447.51	81.92
447.69	102.98
447.88	4.68
448.06	37.45
448.25	28.09
448.43	51.49
448.62	0.00
448.80	0.00
448.99	53.83
449.17	70.22
449.36	18.72
449.54	86.60
449.73	11.70
449.91	0.00
450.10	0.00
450.28	84.26
450.46	14.04
450.65	60.85
450.83	0.00
451.02	28.09
451.20	25.75
451.39	105.32
451.57	39.79
451.76	56.17
451.94	18.72
452.13	58.51
452.31	112.35
452.49	9.36
452.68	35.11
452.86	25.75
453.05	44.47
453.23	0.00
453.42	56.17
453.60	51.49
453.78	49.15
453.97	60.85
454.15	32.77
454.34	28.09
454.52	35.11
454.70	30.43
454.89	2.34
455.07	23.41
455.26	18.72
455.44	16.38
455.62	51.49
455.81	63.19
455.99	65.54
456.17	51.49
456.36	25.75
456.54	0.00
456.73	117.03
456.91	23.41
457.09	16.38
457.28	11.70
457.46	107.66
457.64	4.68
457.83	74.90
458.01	79.58
458.19	39.79
458.38	42.13
458.56	37.45
458.74	23.41
458.93	0.00
459.11	0.00
459.29	0.00
459.48	0.00
459.66	16.38
459.84	4.68
460.03	53.83
460.21	42.13
460.39	44.47
460.57	0.00
460.76	16.38
460.94	70.22
461.12	49.15
461.31	0.00
461.49	9.36
461.67	105.32
461.85	86.60
462.04	9.36
462.22	145.11
462.40	18.72
462.59	49.15
462.77	63.19
462.95	44.47
463.13	46.81
463.32	16.38
463.50	63.19
463.68	32.77
463.86	84.26
464.05	2.34
464.23	107.66
464.41	23.41
464.59	81.92
464.78	25.75
464.96	51.49
465.14	18.72
465.32	88.94
465.50	0.00
465.69	4.68
465.87	25.75
466.05	46.81
466.23	42.13
466.41	4.68
466.60	93.62
466.78	77.24
466.96	65.54
467.14	63.19
467.32	79.58
467.51	39.79
467.69	86.60
467.87	53.83
468.05	46.81
468.23	51.49
468.41	14.04
468.60	0.00
468.78	0.00
468.96	51.49
469.14	53.83
469.32	2.34
469.50	37.45
469.69	39.79
469.87	0.00
470.05	60.85
470.23	37.45
470.41	53.83
470.59	0.00
470.77	0.00
470.95	67.88
471.14	42.13
471.32	88.94
471.50	0.00
471.68	21.06
471.86	0.00
472.04	49.15
472.22	0.00
472.40	2.34
472.58	56.17
472.77	0.00
472.95	46.81
473.13	0.00
473.31	0.00
473.49	65.54
473.67	46.81
473.85	0.00
474.03	18.72
474.21	98.30
474.39	0.00
474.57	58.51
474.75	18.72
474.93	39.79
475.12	42.13
475.30	42.13
475.48	42.13
475.66	49.15
475.84	0.00
476.02	81.92
476.20	0.00
476.38	86.60
476.56	53.83
476.74	77.24
476.92	81.92
477.10	51.49
477.28	14.04
477.46	65.54
477.64	39.79
477.82	0.00
478.00	0.00
478.18	91.28
478.36	42.13
478.54	18.72
478.72	53.83
478.90	0.00
479.08	0.00
479.26	37.45
479.44	21.06
479.62	32.77
479.80	18.72
479.98	42.13
480.16	32.77
480.34	0.00
480.52	79.58
480.70	110.01
480.88	0.00
481.06	2.34
481.24	0.00
481.41	49.15
481.59	51.49
481.77	28.09
481.95	51.49
482.13	79.58
482.31	37.45
482.49	72.56
482.67	9.36
482.85	91.28
483.03	0.00
483.21	28.09
483.39	53.83
483.57	0.00
483.74	46.81
483.92	53.83
484.10	0.00
484.28	86.60
484.46	70.22
484.64	18.72
484.82	51.49
485.00	42.13
485.18	74.90
485.35	51.49
485.53	42.13
485.71	0.00
485.89	72.56
486.07	37.45
486.25	91.28
486.43	16.38
486.61	88.94
486.78	102.98
486.96	0.00
487.14	42.13
487.32	44.47
487.50	0.00
487.68	51.49
487.85	44.47
488.03	42.13
488.21	32.77
488.39	0.00
488.57	7.02
488.75	32.77
488.92	42.13
489.10	42.13
489.28	51.49
489.46	32.77
489.64	91.28
489.81	60.85
489.99	35.11
490.17	25.75
490.35	67.88
490.53	72.56
490.70	56.17
490.88	18.72
491.06	0.00
491.24	30.43
491.41	0.00
491.59	0.00
491.77	46.81
491.95	70.22
492.13	51.49
492.30	39.79
492.48	91.28
492.66	0.00
492.84	86.60
493.01	23.41
493.19	0.00
493.37	0.00
493.54	42.13
493.72	39.79
493.90	72.56
494.08	46.81
494.25	30.43
494.43	0.00
494.61	60.85
494.79	67.88
494.96	81.92
495.14	25.75
495.32	37.45
495.49	30.43
495.67	74.90
495.85	28.09
496.02	14.04
496.20	98.30
496.38	63.19
496.55	121.71
496.73	2.34
496.91	23.41
497.09	0.00
497.26	46.81
497.44	88.94
497.62	131.07
497.79	56.17
497.97	21.06
498.14	9.36
498.32	0.00
498.50	21.06
498.67	112.35
498.85	72.56
499.03	44.47
499.20	32.77
499.38	16.38
499.56	35.11
499.73	28.09
499.91	30.43
500.08	14.04
500.26	0.00
500.44	39.79
500.61	77.24
500.79	30.43
500.97	37.45
501.14	9.36
501.32	58.51
501.49	14.04
501.67	7.02
501.84	0.00
502.02	58.51
502.20	18.72
502.37	0.00
502.55	0.00
502.72	60.85
502.90	56.17
503.07	4.68
503.25	49.15
503.43	0.00
503.60	0.00
503.78	37.45
503.95	0.00
504.13	14.04
504.30	16.38
504.48	0.00
504.65	98.30
504.83	32.77
505.01	0.00
505.18	16.38
505.36	67.88
505.53	28.09
505.71	60.85
505.88	42.13
506.06	100.64
506.23	37.45
506.41	35.11
506.58	72.56
506.76	46.81
506.93	44.47
507.11	0.00
507.28	63.19
507.46	32.77
507.63	14.04
507.81	84.26
507.98	0.00
508.16	77.24
508.33	58.51
508.50	67.88
508.68	9.36
508.85	14.04
509.03	37.45
509.20	30.43
509.38	28.09
509.55	60.85
509.73	56.17
509.90	126.39
510.08	65.54
510.25	49.15
510.42	23.41
510.60	46.81
510.77	79.58
510.95	0.00
511.12	44.47
511.30	98.30
511.47	28.09
511.64	18.72
511.82	67.88
511.99	58.51
512.17	14.04
512.34	95.96
512.51	46.81
512.69	42.13
512.86	53.83
513.04	63.19
513.21	0.00
513.38	7.02
513.56	81.92
513.73	23.41
513.90	110.01
514.08	44.47
514.25	35.11
514.43	9.36
514.60	11.70
514.77	42.13
514.95	60.85
515.12	79.58
515.29	37.45
515.47	39.79
515.64	30.43
515.81	0.00
515.99	35.11
516.16	63.19
516.33	35.11
516.51	93.62
516.68	70.22
516.85	14.04
517.03	21.06
517.20	58.51
517.37	51.49
517.54	93.62
517.72	16.38
517.89	44.47
518.06	23.41
518.24	23.41
518.41	51.49
518.58	9.36
518.75	49.15
518.93	0.00
519.10	79.58
519.27	58.51
519.45	53.83
519.62	42.13
519.79	105.32
519.96	44.47
520.14	30.43
520.31	11.70
520.48	72.56
520.65	0.00
520.83	102.98
521.00	28.09
521.17	4.68
521.34	51.49
521.52	72.56
521.69	84.26
521.86	51.49
522.03	65.54
522.20	0.00
522.38	18.72
522.55	0.00
522.72	102.98
522.89	39.79
523.07	74.90
523.24	37.45
523.41	63.19
523.58	46.81
523.75	0.00
523.92	53.83
524.10	9.36
524.27	0.00
524.44	88.94
524.61	16.38
524.78	72.56
524.96	77.24
525.13	0.00
525.30	0.00
525.47	37.45
525.64	0.00
525.81	93.62
525.98	44.47
526.16	46.81
526.33	93.62
526.50	60.85
526.67	0.00
526.84	39.79
527.01	72.56
527.18	21.06
527.36	88.94
527.53	63.19
527.70	30.43
527.87	58.51
528.04	49.15
528.21	65.54
528.38	67.88
528.55	63.19
528.72	95.96
528.89	84.26
529.07	14.04
529.24	65.54
529.41	77.24
529.58	14.04
529.75	60.85
529.92	18.72
530.09	39.79
530.26	0.00
530.43	114.69
530.60	67.88
530.77	0.00
530.94	21.06
531.11	18.72
531.28	51.49
531.46	0.00
531.63	18.72
531.80	63.19
531.97	119.37
532.14	53.83
532.31	32.77
532.48	77.24
532.65	2.34
532.82	60.85
532.99	91.28
533.16	35.11
533.33	23.41
533.50	79.58
533.67	46.81
533.84	16.38
534.01	32.77
534.18	60.85
534.35	51.49
534.52	23.41
534.69	53.83
534.86	32.77
535.03	98.30
535.20	70.22
535.37	86.60
535.54	23.41
535.71	0.00
535.88	98.30
536.05	0.00
536.22	9.36
536.38	74.90
536.55	14.04
536.72	35.11
536.89	58.51
537.06	93.62
537.23	25.75
537.40	16.38
537.57	79.58
537.74	60.85
537.91	42.13
538.08	67.88
538.25	93.62
538.42	23.41
538.59	21.06
538.75	39.79
538.92	11.70
539.09	49.15
539.26	46.81
539.43	16.38
539.60	0.00
539.77	60.85
539.94	84.26
540.11	81.92
540.28	65.54
540.44	53.83
540.61	65.54
540.78	16.38
540.95	11.70
541.12	0.00
541.29	21.06
541.46	49.15
541.62	30.43
541.79	70.22
541.96	25.75
542.13	30.43
542.30	9.36
542.47	9.36
542.63	9.36
542.80	23.41
542.97	95.96
543.14	102.98
543.31	65.54
543.48	107.66
543.64	49.15
543.81	58.51
543.98	2.34
544.15	51.49
544.32	74.90
544.48	58.51
544.65	14.04
544.82	32.77
544.99	46.81
545.16	65.54
545.32	65.54
545.49	16.38
545.66	16.38
545.83	110.01
546.00	93.62
546.16	16.38
546.33	84.26
546.50	4.68
546.67	67.88
546.83	23.41
547.00	81.92
547.17	39.79
547.34	25.75
547.50	49.15
547.67	9.36
547.84	0.00
548.00	53.83
548.17	63.19
548.34	0.00
548.51	58.51
548.67	44.47
548.84	0.00
549.01	37.45
549.18	53.83
549.34	112.35
549.51	95.96
549.68	49.15
549.84	44.47
550.01	7.02
550.18	39.79
550.34	0.00
550.51	7.02
550.68	35.11
550.84	49.15
551.01	46.81
551.18	0.00
551.34	53.83
551.51	0.00
551.68	44.47
551.84	9.36
552.01	25.75
552.18	91.28
552.34	95.96
552.51	39.79
552.68	16.38
552.84	35.11
553.01	95.96
553.18	58.51
553.34	93.62
553.51	91.28
553.67	0.00
553.84	25.75
554.01	42.13
554.17	93.62
554.34	39.79
554.51	39.79
554.67	63.19
554.84	9.36
555.00	86.60
555.17	65.54
555.33	51.49
555.50	51.49
555.67	23.41
555.83	39.79
556.00	46.81
556.16	25.75
556.33	42.13
556.50	51.49
556.66	25.75
556.83	86.60
556.99	44.47
557.16	37.45
557.32	4.68
557.49	18.72
557.65	60.85
557.82	51.49
557.98	53.83
558.15	35.11
558.32	79.58
558.48	28.09
558.65	16.38
558.81	16.38
558.98	14.04
559.14	21.06
559.31	37.45
559.47	53.83
559.64	42.13
559.80	9.36
559.97	46.81
560.13	56.17
560.30	0.00
560.46	51.49
560.63	35.11
560.79	30.43
560.96	51.49
561.12	119.37
561.29	70.22
561.45	0.00
561.61	81.92
561.78	63.19
561.94	74.90
562.11	16.38
562.27	81.92
562.44	0.00
562.60	21.06
562.77	105.32
562.93	39.79
563.10	14.04
563.26	63.19
563.42	60.85
563.59	30.43
563.75	58.51
563.92	23.41
564.08	84.26
564.24	77.24
564.41	88.94
564.57	95.96
564.74	53.83
564.90	84.26
565.07	88.94
565.23	51.49
565.39	91.28
565.56	0.00
565.72	0.00
565.88	72.56
566.05	28.09
566.21	25.75
566.38	65.54
566.54	79.58
566.70	81.92
566.87	42.13
567.03	53.83
567.19	21.06
567.36	49.15
567.52	74.90
567.68	0.00
567.85	49.15
568.01	44.47
568.17	53.83
568.34	56.17
568.50	67.88
568.66	0.00
568.83	39.79
568.99	39.79
569.15	84.26
569.32	88.94
569.48	81.92
569.64	0.00
569.81	91.28
569.97	35.11
570.13	70.22
570.30	51.49
570.46	72.56
570.62	95.96
570.78	58.51
570.95	51.49
571.11	18.72
571.27	84.26
571.43	16.38
571.60	98.30
571.76	21.06
571.92	18.72
572.09	63.19
572.25	0.00
572.41	102.98
572.57	84.26
572.74	95.96
572.90	100.64
573.06	28.09
573.22	11.70
573.38	35.11
573.55	58.51
573.71	25.75
573.87	0.00
574.03	0.00
574.20	18.72
574.36	126.39
574.52	102.98
574.68	81.92
574.84	0.00
575.01	65.54
575.17	65.54
575.33	93.62
575.49	58.51
575.65	107.66
575.82	0.00
575.98	0.00
576.14	7.02
576.30	18.72
576.46	58.51
576.62	14.04
576.79	23.41
576.95	14.04
577.11	56.17
577.27	42.13
577.43	84.26
577.59	2.34
577.75	72.56
577.92	28.09
578.08	93.62
578.24	98.30
578.40	16.38
578.56	28.09
578.72	91.28
578.88	21.06
579.04	84.26
579.21	14.04
579.37	112.35
579.53	46.81
579.69	21.06
579.85	51.49
580.01	0.00
580.17	51.49
580.33	23.41
580.49	23.41
580.65	42.13
580.82	100.64
580.98	7.02
581.14	0.00
581.30	25.75
581.46	18.72
581.62	37.45
581.78	21.06
581.94	74.90
582.10	79.58
582.26	39.79
582.42	49.15
582.58	23.41
582.74	25.75
582.90	65.54
583.06	39.79
583.22	105.32
583.38	46.81
583.54	63.19
583.70	37.45
583.86	30.43
584.02	18.72
584.18	49.15
584.34	18.72
584.50	95.96
584.66	39.79
584.82	4.68
584.98	46.81
585.14	51.49
585.30	35.11
585.46	0.00
585.62	2.34
585.78	25.75
585.94	84.26
586.10	98.30
586.26	46.81
586.42	65.54
586.58	60.85
586.74	14.04
586.90	21.06
587.06	91.28
587.22	25.75
587.38	21.06
587.54	53.83
587.70	0.00
587.86	32.77
588.02	0.00
588.18	0.00
588.34	0.00
588.49	0.00
588.65	18.72
588.81	30.43
588.97	18.72
589.13	49.15
589.29	0.00
589.45	56.17
589.61	0.00
589.77	79.58
589.93	0.00
590.08	51.49
590.24	30.43
590.40	0.00
590.56	30.43
590.72	84.26
590.88	25.75
591.04	51.49
591.20	35.11
591.35	44.47
591.51	11.70
591.67	0.00
591.83	79.58
591.99	30.43
592.15	0.00
592.31	63.19
592.46	44.47
592.62	18.72
592.78	23.41
592.94	28.09
593.10	65.54
593.26	25.75
593.41	28.09
593.57	0.00
593.73	9.36
593.89	65.54
594.05	44.47
594.20	86.60
594.36	119.37
594.52	42.13
594.68	35.11
594.84	21.06
594.99	77.24
595.15	21.06
595.31	2.34
595.47	63.19
595.62	44.47
595.78	16.38
595.94	0.00
596.10	0.00
596.25	23.41
596.41	0.00
596.57	37.45
596.73	65.54
596.88	110.01
597.04	86.60
597.20	0.00
597.36	70.22
597.51	39.79
597.67	84.26
597.83	16.38
597.99	79.58
598.14	77.24
598.30	28.09
598.46	72.56
598.61	0.00
598.77	18.72
598.93	28.09
599.09	72.56
599.24	88.94
599.40	56.17
599.56	25.75
599.71	7.02
599.87	35.11
600.03	105.32
600.18	32.77
600.34	18.72
600.50	42.13
600.65	7.02
600.81	35.11
600.97	30.43
601.12	81.92
601.28	149.79
601.44	51.49
601.59	44.47
601.75	9.36
601.91	23.41
602.06	0.00
602.22	0.00
602.37	11.70
602.53	79.58
602.69	37.45
602.84	7.02
603.00	117.03
603.16	2.34
603.31	42.13
603.47	16.38
603.62	11.70
603.78	0.00
603.94	0.00
604.09	14.04
604.25	0.00
604.40	42.13
604.56	30.43
604.71	93.62
604.87	53.83
605.03	28.09
605.18	51.49
605.34	9.36
605.49	0.00
605.65	4.68
605.80	35.11
605.96	25.75
606.12	23.41
606.27	126.39
606.43	0.00
606.58	0.00
606.74	84.26
606.89	44.47
607.05	67.88
607.20	9.36
607.36	18.72
607.51	4.68
607.67	42.13
607.82	30.43
607.98	51.49
608.13	0.00
608.29	0.00
608.44	0.00
608.60	98.30
608.75	51.49
608.91	35.11
609.06	56.17
609.22	67.88
609.37	21.06
609.53	39.79
609.68	74.90
609.84	91.28
609.99	70.22
610.15	25.75
610.30	14.04
610.46	0.00
610.61	35.11
610.76	9.36
610.92	42.13
611.07	88.94
611.23	81.92
611.38	0.00
611.54	7.02
611.69	25.75
611.84	0.00
612.00	86.60
612.15	0.00
612.31	25.75
612.46	28.09
612.62	105.32
612.77	60.85
612.92	11.70
613.08	14.04
613.23	56.17
613.39	0.00
613.54	0.00
613.69	98.30
613.85	95.96
614.00	0.00
614.15	0.00
614.31	0.00
614.46	0.00
614.62	7.02
614.77	98.30
614.92	58.51
615.08	128.73
615.23	35.11
615.38	0.00
615.54	72.56
615.69	7.02
615.84	67.88
616.00	32.77
616.15	0.00
616.30	37.45
616.46	0.00
616.61	11.70
616.76	88.94
616.92	37.45
617.07	67.88
617.22	88.94
617.37	72.56
617.53	11.70
617.68	30.43
617.83	4.68
617.99	9.36
618.14	67.88
618.29	32.77
618.45	7.02
618.60	18.72
618.75	0.00
618.90	65.54
619.06	28.09
619.21	2.34
619.36	46.81
619.51	44.47
619.67	0.00
619.82	4.68
619.97	2.34
620.12	49.15
620.28	4.68
620.43	18.72
620.58	60.85
620.73	65.54
620.89	0.00
621.04	105.32
621.19	67.88
621.34	0.00
621.49	65.54
621.65	44.47
621.80	58.51
621.95	0.00
622.10	46.81
622.25	63.19
622.41	44.47
622.56	18.72
622.71	72.56
622.86	79.58
623.01	49.15
623.16	91.28
623.32	18.72
623.47	65.54
623.62	60.85
623.77	79.58
623.92	60.85
624.07	0.00
624.23	49.15
624.38	25.75
624.53	0.00
624.68	0.00
624.83	28.09
624.98	23.41
625.13	42.13
625.29	7.02
625.44	51.49
625.59	67.88
625.74	79.58
625.89	56.17
626.04	0.00
626.19	21.06
626.34	0.00
626.49	0.00
626.65	0.00
626.80	72.56
626.95	53.83
627.10	63.19
627.25	37.45
627.40	121.71
627.55	23.41
627.70	2.34
627.85	28.09
628.00	86.60
628.15	0.00
628.30	35.11
628.45	21.06
628.60	4.68
628.76	39.79
628.91	9.36
629.06	0.00
629.21	102.98
629.36	56.17
629.51	37.45
629.66	58.51
629.81	46.81
629.96	63.19
630.11	56.17
630.26	58.51
630.41	21.06
630.56	30.43
630.71	84.26
630.86	42.13
631.01	44.47
631.16	135.75
631.31	0.00
631.46	37.45
631.61	74.90
631.76	67.88
631.91	21.06
632.06	44.47
632.21	32.77
632.36	63.19
632.51	91.28
632.66	44.47
632.81	35.11
632.96	2.34
633.10	74.90
633.25	60.85
633.40	21.06
633.55	39.79
633.70	14.04
633.85	21.06
634.00	42.13
634.15	49.15
634.30	0.00
634.45	32.77
634.60	49.15
634.75	77.24
634.90	60.85
635.05	74.90
635.19	72.56
635.34	30.43
635.49	39.79
635.64	74.90
635.79	32.77
635.94	14.04
636.09	37.45
636.24	14.04
636.39	28.09
636.53	32.77
636.68	0.00
636.83	11.70
636.98	4.68
637.13	42.13
637.28	0.00
637.43	0.00
637.57	67.88
637.72	91.28
637.87	0.00
638.02	51.49
638.17	25.75
638.32	70.22
638.46	32.77
638.61	46.81
638.76	11.70
638.91	18.72
639.06	30.43
639.20	21.06
639.35	0.00
639.50	11.70
639.65	4.68
639.80	100.64
639.94	72.56
640.09	65.54
640.24	28.09
640.39	25.75
640.54	4.68
640.68	14.04
640.83	0.00
640.98	60.85
641.13	46.81
641.27	46.81
641.42	37.45
641.57	0.00
641.72	0.00
641.86	49.15
642.01	32.77
642.16	9.36
642.31	46.81
642.45	49.15
642.60	9.36
642.75	0.00
642.90	25.75
643.04	25.75
643.19	2.34
643.34	21.06
643.48	0.00
643.63	51.49
643.78	81.92
643.93	124.05
644.07	42.13
644.22	18.72
644.37	67.88
644.51	30.43
644.66	44.47
644.81	42.13
644.95	53.83
645.10	35.11
645.25	0.00
645.39	39.79
645.54	72.56
645.69	84.26
645.83	0.00
645.98	58.51
646.13	44.47
646.27	60.85
646.42	14.04
646.57	42.13
646.71	46.81
646.86	14.04
647.00	37.45
647.15	0.00
647.30	0.00
647.44	0.00
647.59	23.41
647.74	0.00
647.88	51.49
648.03	0.00
648.17	0.00
648.32	84.26
648.47	37.45
648.61	11.70
648.76	0.00
648.90	11.70
649.05	0.00
649.20	0.00
649.34	35.11
649.49	39.79
649.63	7.02
649.78	32.77
649.92	18.72
650.07	60.85
650.21	58.51
650.36	32.77
650.51	63.19
650.65	42.13
650.80	77.24
650.94	124.05
651.09	60.85
651.23	65.54
651.38	65.54
651.52	25.75
651.67	53.83
651.81	39.79
651.96	39.79
652.10	30.43
652.25	35.11
652.39	0.00
652.54	37.45
652.68	0.00
652.83	16.38
652.97	28.09
653.12	25.75
653.26	23.41
653.41	49.15
653.55	0.00
653.70	56.17
653.84	0.00
653.99	35.11
654.13	0.00
654.27	35.11
654.42	0.00
654.56	77.24
654.71	65.54
654.85	9.36
655.00	0.00
655.14	58.51
655.29	0.00
655.43	30.43
655.57	35.11
655.72	74.90
655.86	0.00
656.01	7.02
656.15	16.38
656.30	21.06
656.44	65.54
656.58	2.34
656.73	58.51
656.87	25.75
657.01	37.45
657.16	35.11
657.30	67.88
657.45	105.32
657.59	14.04
657.73	0.00
657.88	58.51
658.02	0.00
658.16	42.13
658.31	46.81
658.45	81.92
658.60	0.00
658.74	35.11
658.88	37.45
659.03	23.41
659.17	0.00
659.31	30.43
659.46	42.13
659.60	46.81
659.74	79.58
659.89	9.36
660.03	32.77
660.17	70.22
660.32	25.75
660.46	74.90
660.60	49.15
660.74	102.98
660.89	86.60
661.03	53.83
661.17	30.43
661.32	60.85
661.46	21.06
661.60	86.60
661.74	11.70
661.89	25.75
662.03	86.60
662.17	60.85
662.31	30.43
662.46	67.88
662.60	32.77
662.74	60.85
662.88	35.11
663.03	81.92
663.17	77.24
663.31	70.22
663.45	39.79
663.60	25.75
663.74	35.11
663.88	21.06
664.02	37.45
664.17	23.41
664.31	81.92
664.45	42.13
664.59	14.04
664.73	25.75
664.88	21.06
665.02	23.41
665.16	0.00
665.30	53.83
665.44	18.72
665.59	21.06
665.73	0.00
665.87	25.75
666.01	9.36
666.15	11.70
666.29	21.06
666.44	67.88
666.58	7.02
666.72	0.00
666.86	72.56
667.00	44.47
667.14	2.34
667.28	28.09
667.43	0.00
667.57	14.04
667.71	44.47
667.85	18.72
667.99	42.13
668.13	4.68
668.27	60.85
668.41	58.51
668.56	58.51
668.70	105.32
668.84	100.64
668.98	7.02
669.12	0.00
669.26	11.70
669.40	4.68
669.54	46.81
669.68	110.01
669.82	0.00
669.96	51.49
670.10	65.54
670.25	86.60
670.39	44.47
670.53	79.58
670.67	21.06
670.81	11.70
670.95	60.85
671.09	49.15
671.23	86.60
671.37	56.17
671.51	0.00
671.65	0.00
671.79	70.22
671.93	42.13
672.07	11.70
672.21	0.00
672.35	84.26
672.49	4.68
672.63	0.00
672.77	0.00
672.91	46.81
673.05	70.22
673.19	11.70
673.33	7.02
673.47	70.22
673.61	0.00
673.75	0.00
673.89	0.00
674.03	0.00
674.17	81.92
674.31	0.00
674.45	58.51
674.59	49.15
674.73	14.04
674.87	84.26
675.01	0.00
675.15	53.83
675.29	53.83
675.43	23.41
675.56	100.64
675.70	60.85
675.84	42.13
675.98	39.79
676.12	0.00
676.26	30.43
676.40	32.77
676.54	56.17
676.68	0.00
676.82	0.00
676.96	42.13
677.10	81.92
677.23	39.79
677.37	37.45
677.51	11.70
677.65	53.83
677.79	70.22
677.93	32.77
678.07	0.00
678.21	0.00
678.34	93.62
678.48	46.81
678.62	100.64
678.76	56.17
678.90	56.17
679.04	16.38
679.18	0.00
679.31	18.72
679.45	14.04
679.59	0.00
679.73	0.00
679.87	39.79
680.00	84.26
680.14	2.34
680.28	77.24
680.42	18.72
680.56	60.85
680.70	39.79
680.83	112.35
680.97	4.68
681.11	4.68
681.25	2.34
681.39	100.64
681.52	0.00
681.66	0.00
681.80	51.49
681.94	98.30
682.07	18.72
682.21	126.39
682.35	79.58
682.49	86.60
682.62	56.17
682.76	49.15
682.90	11.70
683.04	4.68
683.17	105.32
683.31	44.47
683.45	51.49
683.59	28.09
683.72	65.54
683.86	28.09
684.00	0.00
684.13	14.04
684.27	9.36
684.41	0.00
684.55	32.77
684.68	105.32
684.82	37.45
684.96	0.00
685.09	0.00
685.23	39.79
685.37	37.45
685.50	14.04
685.64	0.00
685.78	91.28
685.91	28.09
686.05	0.00
686.19	35.11
686.32	23.41
686.46	28.09
686.60	18.72
686.73	110.01
686.87	11.70
687.01	14.04
687.14	42.13
687.28	63.19
687.42	0.00
687.55	60.85
687.69	79.58
687.82	65.54
687.96	14.04
688.10	42.13
688.23	42.13
688.37	53.83
688.50	51.49
688.64	35.11
688.78	30.43
688.91	72.56
689.05	49.15
689.18	9.36
689.32	0.00
689.46	81.92
689.59	23.41
689.73	51.49
689.86	35.11
690.00	39.79
690.13	100.64
690.27	46.81
690.41	46.81
690.54	84.26
690.68	2.34
690.81	51.49
690.95	56.17
691.08	0.00
691.22	16.38
691.35	28.09
691.49	32.77
691.62	9.36
691.76	63.19
691.89	11.70
692.03	28.09
692.16	81.92
692.30	39.79
692.43	60.85
692.57	53.83
692.70	37.45
692.84	46.81
692.97	84.26
693.11	0.00
693.24	58.51
693.38	67.88
693.51	0.00
693.65	37.45
693.78	23.41
693.92	51.49
694.05	56.17
694.19	58.51
694.32	51.49
694.45	0.00
694.59	42.13
694.72	39.79
694.86	0.00
694.99	4.68
695.13	58.51
695.26	0.00
695.39	4.68
695.53	65.54
695.66	9.36
695.80	0.00
695.93	21.06
696.07	100.64
696.20	65.54
696.33	35.11
696.47	0.00
696.60	11.70
696.73	79.58
696.87	0.00
697.00	4.68
697.14	0.00
697.27	124.05
697.40	0.00
697.54	0.00
697.67	56.17
697.80	0.00
697.94	0.00
698.07	18.72
698.21	46.81
698.34	74.90
698.47	46.81
698.61	0.00
698.74	49.15
698.87	28.09
699.01	18.72
699.14	0.00
699.27	44.47
699.40	95.96
699.54	39.79
699.67	14.04
699.80	0.00
699.94	0.00
700.07	63.19
700.20	0.00
700.34	25.75
700.47	42.13
700.60	11.70
700.73	25.75
700.87	0.00
701.00	65.54
701.13	74.90
701.26	53.83
701.40	51.49
701.53	35.11
701.66	25.75
701.79	51.49
701.93	49.15
702.06	11.70
702.19	56.17
702.32	39.79
702.46	7.02
702.59	102.98
702.72	21.06
702.85	32.77
702.99	32.77
703.12	14.04
703.25	35.11
703.38	14.04
703.51	44.47
703.65	25.75
703.78	58.51
703.91	0.00
704.04	0.00
704.17	16.38
704.31	44.47
704.44	0.00
704.57	37.45
704.70	0.00
704.83	18.72
704.96	30.43
705.10	35.11
705.23	0.00
>>>>>End Processed Spectral Data<<<<<
