SpectraSuite Data File
++++++++++++++++++++++++++++++++++++
Date: Fri Oct 04 12:13:46 GMT-05:00 2013
User: price-jones
Dark Spectrum Present: No
Reference Spectrum Present: No
Number of Sampled Component Spectra: 1
Spectrometers: USB2+H05261
Integration Time (usec): 10000 (USB2+H05261)
Spectra Averaged: 1 (USB2+H05261)
Boxcar Smoothing: 0 (USB2+H05261)
Correct for Electrical Dark: No (USB2+H05261)
Strobe/Lamp Enabled: No (USB2+H05261)
Correct for Detector Non-linearity: No (USB2+H05261)
Correct for Stray Light: No (USB2+H05261)
Number of Pixels in Processed Spectrum: 2048
>>>>>Begin Processed Spectral Data<<<<<
365.73	0.00
365.92	0.00
366.12	0.00
366.32	0.00
366.52	0.00
366.72	0.00
366.91	0.00
367.11	0.00
367.31	0.00
367.51	0.00
367.70	0.00
367.90	0.00
368.10	0.00
368.30	0.00
368.49	0.00
368.69	0.00
368.89	0.00
369.09	0.00
369.28	0.00
369.48	0.00
369.68	0.00
369.87	0.00
370.07	0.00
370.27	0.00
370.47	0.00
370.66	0.00
370.86	0.00
371.06	0.00
371.25	0.00
371.45	0.00
371.65	0.00
371.84	0.00
372.04	0.00
372.24	0.00
372.44	0.00
372.63	0.00
372.83	58.51
373.03	105.32
373.22	42.13
373.42	35.11
373.62	74.90
373.81	35.11
374.01	39.79
374.21	60.85
374.40	32.77
374.60	9.36
374.79	0.00
374.99	74.90
375.19	0.00
375.38	0.00
375.58	86.60
375.78	30.43
375.97	0.00
376.17	23.41
376.37	28.09
376.56	35.11
376.76	56.17
376.95	4.68
377.15	7.02
377.35	14.04
377.54	0.00
377.74	0.00
377.93	28.09
378.13	14.04
378.33	0.00
378.52	0.00
378.72	95.96
378.91	63.19
379.11	0.00
379.31	72.56
379.50	0.00
379.70	135.75
379.89	0.00
380.09	21.06
380.28	51.49
380.48	4.68
380.68	37.45
380.87	23.41
381.07	4.68
381.26	53.83
381.46	114.69
381.65	7.02
381.85	11.70
382.04	4.68
382.24	42.13
382.43	9.36
382.63	25.75
382.83	14.04
383.02	2.34
383.22	88.94
383.41	53.83
383.61	4.68
383.80	0.00
384.00	46.81
384.19	0.00
384.39	7.02
384.58	23.41
384.78	42.13
384.97	0.00
385.17	4.68
385.36	0.00
385.56	124.05
385.75	46.81
385.95	0.00
386.14	30.43
386.34	23.41
386.53	28.09
386.72	4.68
386.92	74.90
387.11	0.00
387.31	18.72
387.50	0.00
387.70	18.72
387.89	65.54
388.09	0.00
388.28	53.83
388.48	0.00
388.67	25.75
388.86	0.00
389.06	7.02
389.25	63.19
389.45	0.00
389.64	0.00
389.84	18.72
390.03	18.72
390.22	77.24
390.42	7.02
390.61	72.56
390.81	0.00
391.00	35.11
391.19	0.00
391.39	11.70
391.58	74.90
391.78	39.79
391.97	0.00
392.16	0.00
392.36	42.13
392.55	4.68
392.75	16.38
392.94	39.79
393.13	0.00
393.33	0.00
393.52	70.22
393.71	84.26
393.91	49.15
394.10	30.43
394.29	0.00
394.49	28.09
394.68	0.00
394.88	11.70
395.07	4.68
395.26	0.00
395.46	32.77
395.65	0.00
395.84	0.00
396.04	25.75
396.23	56.17
396.42	0.00
396.62	72.56
396.81	28.09
397.00	28.09
397.19	39.79
397.39	0.00
397.58	28.09
397.77	39.79
397.97	32.77
398.16	0.00
398.35	0.00
398.55	0.00
398.74	102.98
398.93	39.79
399.12	0.00
399.32	0.00
399.51	51.49
399.70	39.79
399.90	107.66
400.09	42.13
400.28	56.17
400.47	14.04
400.67	0.00
400.86	42.13
401.05	30.43
401.24	63.19
401.44	11.70
401.63	86.60
401.82	56.17
402.01	16.38
402.21	30.43
402.40	0.00
402.59	0.00
402.78	0.00
402.97	2.34
403.17	18.72
403.36	0.00
403.55	0.00
403.74	49.15
403.93	79.58
404.13	58.51
404.32	77.24
404.51	35.11
404.70	39.79
404.89	30.43
405.09	21.06
405.28	9.36
405.47	70.22
405.66	39.79
405.85	119.37
406.05	42.13
406.24	0.00
406.43	0.00
406.62	0.00
406.81	32.77
407.00	121.71
407.20	4.68
407.39	28.09
407.58	74.90
407.77	21.06
407.96	7.02
408.15	63.19
408.34	21.06
408.54	53.83
408.73	0.00
408.92	0.00
409.11	60.85
409.30	110.01
409.49	0.00
409.68	70.22
409.87	53.83
410.07	37.45
410.26	46.81
410.45	88.94
410.64	44.47
410.83	67.88
411.02	67.88
411.21	35.11
411.40	107.66
411.59	0.00
411.78	0.00
411.98	49.15
412.17	67.88
412.36	0.00
412.55	70.22
412.74	0.00
412.93	32.77
413.12	56.17
413.31	21.06
413.50	37.45
413.69	0.00
413.88	37.45
414.07	46.81
414.26	58.51
414.45	30.43
414.64	30.43
414.83	74.90
415.02	119.37
415.22	56.17
415.41	0.00
415.60	7.02
415.79	37.45
415.98	88.94
416.17	30.43
416.36	53.83
416.55	70.22
416.74	37.45
416.93	21.06
417.12	81.92
417.31	60.85
417.50	0.00
417.69	23.41
417.88	14.04
418.07	53.83
418.26	91.28
418.45	11.70
418.64	9.36
418.83	28.09
419.02	35.11
419.21	84.26
419.39	16.38
419.58	65.54
419.77	4.68
419.96	60.85
420.15	11.70
420.34	16.38
420.53	4.68
420.72	91.28
420.91	21.06
421.10	67.88
421.29	39.79
421.48	37.45
421.67	21.06
421.86	65.54
422.05	21.06
422.24	0.00
422.43	32.77
422.61	58.51
422.80	81.92
422.99	18.72
423.18	65.54
423.37	23.41
423.56	37.45
423.75	65.54
423.94	9.36
424.13	28.09
424.32	35.11
424.50	39.79
424.69	102.98
424.88	84.26
425.07	53.83
425.26	56.17
425.45	25.75
425.64	25.75
425.83	32.77
426.01	0.00
426.20	114.69
426.39	7.02
426.58	0.00
426.77	0.00
426.96	72.56
427.15	25.75
427.33	18.72
427.52	9.36
427.71	23.41
427.90	63.19
428.09	0.00
428.28	0.00
428.46	39.79
428.65	51.49
428.84	102.98
429.03	23.41
429.22	11.70
429.40	23.41
429.59	72.56
429.78	28.09
429.97	84.26
430.16	46.81
430.34	35.11
430.53	11.70
430.72	18.72
430.91	0.00
431.10	14.04
431.28	23.41
431.47	28.09
431.66	42.13
431.85	51.49
432.03	39.79
432.22	28.09
432.41	32.77
432.60	2.34
432.79	32.77
432.97	67.88
433.16	18.72
433.35	25.75
433.54	9.36
433.72	63.19
433.91	0.00
434.10	0.00
434.28	63.19
434.47	35.11
434.66	88.94
434.85	25.75
435.03	21.06
435.22	18.72
435.41	91.28
435.59	42.13
435.78	46.81
435.97	16.38
436.16	39.79
436.34	9.36
436.53	0.00
436.72	44.47
436.90	35.11
437.09	60.85
437.28	0.00
437.46	0.00
437.65	63.19
437.84	0.00
438.02	0.00
438.21	30.43
438.40	58.51
438.58	9.36
438.77	7.02
438.96	58.51
439.14	30.43
439.33	0.00
439.52	35.11
439.70	81.92
439.89	42.13
440.08	0.00
440.26	23.41
440.45	44.47
440.63	39.79
440.82	65.54
441.01	2.34
441.19	25.75
441.38	30.43
441.57	93.62
441.75	0.00
441.94	30.43
442.12	51.49
442.31	44.47
442.50	37.45
442.68	49.15
442.87	9.36
443.05	30.43
443.24	93.62
443.43	0.00
443.61	16.38
443.80	28.09
443.98	0.00
444.17	16.38
444.35	46.81
444.54	63.19
444.73	53.83
444.91	11.70
445.10	77.24
445.28	105.32
445.47	0.00
445.65	49.15
445.84	18.72
446.02	81.92
446.21	7.02
446.39	46.81
446.58	0.00
446.77	44.47
446.95	70.22
447.14	65.54
447.32	16.38
447.51	39.79
447.69	119.37
447.88	14.04
448.06	0.00
448.25	21.06
448.43	32.77
448.62	86.60
448.80	46.81
448.99	42.13
449.17	23.41
449.36	65.54
449.54	35.11
449.73	23.41
449.91	60.85
450.10	4.68
450.28	72.56
450.46	44.47
450.65	21.06
450.83	32.77
451.02	18.72
451.20	79.58
451.39	49.15
451.57	49.15
451.76	37.45
451.94	32.77
452.13	67.88
452.31	39.79
452.49	49.15
452.68	0.00
452.86	16.38
453.05	37.45
453.23	0.00
453.42	16.38
453.60	0.00
453.78	114.69
453.97	44.47
454.15	91.28
454.34	44.47
454.52	53.83
454.70	93.62
454.89	16.38
455.07	49.15
455.26	86.60
455.44	7.02
455.62	81.92
455.81	51.49
455.99	74.90
456.17	60.85
456.36	53.83
456.54	74.90
456.73	100.64
456.91	2.34
457.09	0.00
457.28	11.70
457.46	95.96
457.64	32.77
457.83	117.03
458.01	58.51
458.19	53.83
458.38	0.00
458.56	0.00
458.74	86.60
458.93	32.77
459.11	42.13
459.29	4.68
459.48	23.41
459.66	21.06
459.84	49.15
460.03	0.00
460.21	30.43
460.39	18.72
460.57	32.77
460.76	93.62
460.94	14.04
461.12	100.64
461.31	88.94
461.49	0.00
461.67	72.56
461.85	77.24
462.04	46.81
462.22	131.07
462.40	0.00
462.59	7.02
462.77	25.75
462.95	28.09
463.13	74.90
463.32	95.96
463.50	21.06
463.68	28.09
463.86	0.00
464.05	51.49
464.23	100.64
464.41	42.13
464.59	25.75
464.78	32.77
464.96	37.45
465.14	0.00
465.32	18.72
465.50	0.00
465.69	65.54
465.87	86.60
466.05	9.36
466.23	0.00
466.41	0.00
466.60	0.00
466.78	56.17
466.96	70.22
467.14	0.00
467.32	67.88
467.51	11.70
467.69	0.00
467.87	51.49
468.05	63.19
468.23	63.19
468.41	39.79
468.60	7.02
468.78	39.79
468.96	32.77
469.14	107.66
469.32	16.38
469.50	0.00
469.69	84.26
469.87	0.00
470.05	16.38
470.23	0.00
470.41	60.85
470.59	7.02
470.77	51.49
470.95	51.49
471.14	79.58
471.32	65.54
471.50	0.00
471.68	32.77
471.86	14.04
472.04	91.28
472.22	81.92
472.40	0.00
472.58	86.60
472.77	91.28
472.95	72.56
473.13	98.30
473.31	46.81
473.49	121.71
473.67	67.88
473.85	95.96
474.03	65.54
474.21	49.15
474.39	67.88
474.57	32.77
474.75	53.83
474.93	37.45
475.12	0.00
475.30	46.81
475.48	60.85
475.66	11.70
475.84	63.19
476.02	11.70
476.20	18.72
476.38	37.45
476.56	67.88
476.74	63.19
476.92	7.02
477.10	49.15
477.28	7.02
477.46	128.73
477.64	4.68
477.82	39.79
478.00	42.13
478.18	9.36
478.36	9.36
478.54	93.62
478.72	72.56
478.90	77.24
479.08	58.51
479.26	88.94
479.44	117.03
479.62	18.72
479.80	30.43
479.98	53.83
480.16	74.90
480.34	37.45
480.52	72.56
480.70	23.41
480.88	0.00
481.06	86.60
481.24	93.62
481.41	4.68
481.59	18.72
481.77	58.51
481.95	49.15
482.13	93.62
482.31	56.17
482.49	117.03
482.67	0.00
482.85	98.30
483.03	37.45
483.21	39.79
483.39	91.28
483.57	70.22
483.74	9.36
483.92	93.62
484.10	81.92
484.28	0.00
484.46	53.83
484.64	0.00
484.82	32.77
485.00	16.38
485.18	56.17
485.35	112.35
485.53	77.24
485.71	88.94
485.89	0.00
486.07	60.85
486.25	32.77
486.43	74.90
486.61	58.51
486.78	32.77
486.96	0.00
487.14	28.09
487.32	63.19
487.50	51.49
487.68	58.51
487.85	21.06
488.03	23.41
488.21	79.58
488.39	16.38
488.57	35.11
488.75	42.13
488.92	58.51
489.10	46.81
489.28	30.43
489.46	46.81
489.64	39.79
489.81	58.51
489.99	72.56
490.17	7.02
490.35	4.68
490.53	49.15
490.70	77.24
490.88	98.30
491.06	88.94
491.24	56.17
491.41	46.81
491.59	49.15
491.77	37.45
491.95	67.88
492.13	28.09
492.30	51.49
492.48	84.26
492.66	37.45
492.84	110.01
493.01	46.81
493.19	72.56
493.37	121.71
493.54	88.94
493.72	11.70
493.90	117.03
494.08	138.09
494.25	25.75
494.43	72.56
494.61	30.43
494.79	42.13
494.96	0.00
495.14	0.00
495.32	9.36
495.49	49.15
495.67	28.09
495.85	105.32
496.02	25.75
496.20	72.56
496.38	46.81
496.55	70.22
496.73	60.85
496.91	28.09
497.09	0.00
497.26	60.85
497.44	35.11
497.62	42.13
497.79	84.26
497.97	35.11
498.14	23.41
498.32	81.92
498.50	32.77
498.67	60.85
498.85	84.26
499.03	63.19
499.20	79.58
499.38	95.96
499.56	53.83
499.73	0.00
499.91	16.38
500.08	107.66
500.26	98.30
500.44	51.49
500.61	86.60
500.79	112.35
500.97	91.28
501.14	121.71
501.32	21.06
501.49	53.83
501.67	88.94
501.84	147.45
502.02	86.60
502.20	74.90
502.37	49.15
502.55	14.04
502.72	98.30
502.90	60.85
503.07	44.47
503.25	37.45
503.43	37.45
503.60	51.49
503.78	72.56
503.95	135.75
504.13	98.30
504.30	105.32
504.48	102.98
504.65	133.41
504.83	46.81
505.01	70.22
505.18	14.04
505.36	107.66
505.53	65.54
505.71	67.88
505.88	95.96
506.06	77.24
506.23	114.69
506.41	79.58
506.58	138.09
506.76	53.83
506.93	105.32
507.11	107.66
507.28	16.38
507.46	30.43
507.63	28.09
507.81	18.72
507.98	100.64
508.16	11.70
508.33	53.83
508.50	30.43
508.68	58.51
508.85	74.90
509.03	37.45
509.20	65.54
509.38	107.66
509.55	42.13
509.73	44.47
509.90	70.22
510.08	28.09
510.25	56.17
510.42	32.77
510.60	114.69
510.77	25.75
510.95	72.56
511.12	72.56
511.30	81.92
511.47	152.13
511.64	86.60
511.82	30.43
511.99	88.94
512.17	14.04
512.34	67.88
512.51	86.60
512.69	11.70
512.86	88.94
513.04	74.90
513.21	72.56
513.38	121.71
513.56	91.28
513.73	51.49
513.90	91.28
514.08	67.88
514.25	79.58
514.43	35.11
514.60	84.26
514.77	30.43
514.95	114.69
515.12	49.15
515.29	37.45
515.47	51.49
515.64	107.66
515.81	72.56
515.99	42.13
516.16	110.01
516.33	0.00
516.51	60.85
516.68	93.62
516.85	7.02
517.03	65.54
517.20	0.00
517.37	65.54
517.54	37.45
517.72	46.81
517.89	79.58
518.06	84.26
518.24	65.54
518.41	67.88
518.58	140.43
518.75	70.22
518.93	84.26
519.10	79.58
519.27	93.62
519.45	77.24
519.62	72.56
519.79	79.58
519.96	42.13
520.14	51.49
520.31	39.79
520.48	98.30
520.65	102.98
520.83	42.13
521.00	102.98
521.17	11.70
521.34	117.03
521.52	42.13
521.69	7.02
521.86	88.94
522.03	81.92
522.20	18.72
522.38	46.81
522.55	100.64
522.72	65.54
522.89	70.22
523.07	95.96
523.24	124.05
523.41	49.15
523.58	11.70
523.75	98.30
523.92	91.28
524.10	49.15
524.27	110.01
524.44	77.24
524.61	100.64
524.78	84.26
524.96	28.09
525.13	23.41
525.30	100.64
525.47	67.88
525.64	9.36
525.81	16.38
525.98	60.85
526.16	39.79
526.33	102.98
526.50	39.79
526.67	18.72
526.84	42.13
527.01	0.00
527.18	51.49
527.36	49.15
527.53	53.83
527.70	32.77
527.87	32.77
528.04	95.96
528.21	67.88
528.38	110.01
528.55	93.62
528.72	100.64
528.89	18.72
529.07	95.96
529.24	7.02
529.41	79.58
529.58	95.96
529.75	14.04
529.92	23.41
530.09	79.58
530.26	93.62
530.43	53.83
530.60	79.58
530.77	25.75
530.94	67.88
531.11	100.64
531.28	142.77
531.46	67.88
531.63	105.32
531.80	67.88
531.97	67.88
532.14	79.58
532.31	42.13
532.48	14.04
532.65	60.85
532.82	60.85
532.99	58.51
533.16	67.88
533.33	30.43
533.50	46.81
533.67	0.00
533.84	23.41
534.01	72.56
534.18	91.28
534.35	37.45
534.52	58.51
534.69	51.49
534.86	44.47
535.03	0.00
535.20	63.19
535.37	140.43
535.54	44.47
535.71	102.98
535.88	107.66
536.05	46.81
536.22	28.09
536.38	23.41
536.55	21.06
536.72	51.49
536.89	88.94
537.06	44.47
537.23	0.00
537.40	11.70
537.57	53.83
537.74	39.79
537.91	42.13
538.08	51.49
538.25	46.81
538.42	60.85
538.59	35.11
538.75	35.11
538.92	121.71
539.09	74.90
539.26	0.00
539.43	23.41
539.60	21.06
539.77	49.15
539.94	88.94
540.11	28.09
540.28	0.00
540.44	58.51
540.61	65.54
540.78	51.49
540.95	133.41
541.12	91.28
541.29	60.85
541.46	44.47
541.62	0.00
541.79	72.56
541.96	23.41
542.13	46.81
542.30	37.45
542.47	11.70
542.63	77.24
542.80	110.01
542.97	105.32
543.14	42.13
543.31	91.28
543.48	23.41
543.64	67.88
543.81	163.84
543.98	16.38
544.15	63.19
544.32	46.81
544.48	88.94
544.65	25.75
544.82	18.72
544.99	74.90
545.16	114.69
545.32	28.09
545.49	25.75
545.66	107.66
545.83	53.83
546.00	28.09
546.16	25.75
546.33	77.24
546.50	140.43
546.67	42.13
546.83	51.49
547.00	30.43
547.17	100.64
547.34	7.02
547.50	81.92
547.67	79.58
547.84	46.81
548.00	42.13
548.17	67.88
548.34	25.75
548.51	4.68
548.67	18.72
548.84	72.56
549.01	84.26
549.18	28.09
549.34	79.58
549.51	32.77
549.68	0.00
549.84	140.43
550.01	28.09
550.18	51.49
550.34	91.28
550.51	93.62
550.68	37.45
550.84	42.13
551.01	0.00
551.18	39.79
551.34	51.49
551.51	65.54
551.68	32.77
551.84	81.92
552.01	70.22
552.18	51.49
552.34	0.00
552.51	60.85
552.68	37.45
552.84	44.47
553.01	2.34
553.18	119.37
553.34	79.58
553.51	58.51
553.67	23.41
553.84	95.96
554.01	63.19
554.17	35.11
554.34	105.32
554.51	72.56
554.67	117.03
554.84	32.77
555.00	93.62
555.17	39.79
555.33	74.90
555.50	88.94
555.67	39.79
555.83	23.41
556.00	81.92
556.16	58.51
556.33	100.64
556.50	84.26
556.66	16.38
556.83	37.45
556.99	110.01
557.16	107.66
557.32	0.00
557.49	133.41
557.65	77.24
557.82	63.19
557.98	46.81
558.15	39.79
558.32	60.85
558.48	49.15
558.65	88.94
558.81	70.22
558.98	44.47
559.14	91.28
559.31	81.92
559.47	44.47
559.64	21.06
559.80	28.09
559.97	72.56
560.13	126.39
560.30	91.28
560.46	112.35
560.63	63.19
560.79	35.11
560.96	105.32
561.12	84.26
561.29	35.11
561.45	49.15
561.61	35.11
561.78	21.06
561.94	42.13
562.11	72.56
562.27	86.60
562.44	81.92
562.60	84.26
562.77	32.77
562.93	88.94
563.10	0.00
563.26	154.48
563.42	100.64
563.59	91.28
563.75	88.94
563.92	14.04
564.08	110.01
564.24	60.85
564.41	51.49
564.57	102.98
564.74	95.96
564.90	98.30
565.07	60.85
565.23	46.81
565.39	100.64
565.56	100.64
565.72	58.51
565.88	98.30
566.05	53.83
566.21	100.64
566.38	25.75
566.54	70.22
566.70	81.92
566.87	46.81
567.03	81.92
567.19	0.00
567.36	35.11
567.52	86.60
567.68	70.22
567.85	53.83
568.01	46.81
568.17	102.98
568.34	100.64
568.50	135.75
568.66	70.22
568.83	70.22
568.99	0.00
569.15	135.75
569.32	37.45
569.48	11.70
569.64	91.28
569.81	44.47
569.97	102.98
570.13	110.01
570.30	70.22
570.46	25.75
570.62	107.66
570.78	53.83
570.95	56.17
571.11	102.98
571.27	30.43
571.43	65.54
571.60	0.00
571.76	37.45
571.92	98.30
572.09	18.72
572.25	28.09
572.41	7.02
572.57	60.85
572.74	0.00
572.90	154.48
573.06	112.35
573.22	0.00
573.38	0.00
573.55	110.01
573.71	65.54
573.87	72.56
574.03	42.13
574.20	121.71
574.36	56.17
574.52	46.81
574.68	60.85
574.84	131.07
575.01	95.96
575.17	42.13
575.33	91.28
575.49	100.64
575.65	49.15
575.82	105.32
575.98	105.32
576.14	81.92
576.30	56.17
576.46	119.37
576.62	65.54
576.79	35.11
576.95	102.98
577.11	74.90
577.27	28.09
577.43	159.16
577.59	42.13
577.75	72.56
577.92	117.03
578.08	67.88
578.24	121.71
578.40	142.77
578.56	0.00
578.72	67.88
578.88	58.51
579.04	0.00
579.21	35.11
579.37	44.47
579.53	95.96
579.69	70.22
579.85	140.43
580.01	65.54
580.17	51.49
580.33	84.26
580.49	51.49
580.65	46.81
580.82	93.62
580.98	28.09
581.14	58.51
581.30	88.94
581.46	65.54
581.62	42.13
581.78	67.88
581.94	53.83
582.10	135.75
582.26	49.15
582.42	49.15
582.58	100.64
582.74	88.94
582.90	95.96
583.06	0.00
583.22	21.06
583.38	110.01
583.54	70.22
583.70	14.04
583.86	56.17
584.02	51.49
584.18	105.32
584.34	93.62
584.50	37.45
584.66	72.56
584.82	0.00
584.98	67.88
585.14	119.37
585.30	98.30
585.46	32.77
585.62	0.00
585.78	72.56
585.94	65.54
586.10	105.32
586.26	56.17
586.42	37.45
586.58	65.54
586.74	53.83
586.90	0.00
587.06	163.84
587.22	32.77
587.38	100.64
587.54	21.06
587.70	53.83
587.86	49.15
588.02	39.79
588.18	91.28
588.34	65.54
588.49	58.51
588.65	0.00
588.81	58.51
588.97	2.34
589.13	77.24
589.29	84.26
589.45	46.81
589.61	0.00
589.77	46.81
589.93	93.62
590.08	53.83
590.24	86.60
590.40	70.22
590.56	112.35
590.72	65.54
590.88	35.11
591.04	23.41
591.20	37.45
591.35	128.73
591.51	63.19
591.67	44.47
591.83	65.54
591.99	67.88
592.15	23.41
592.31	0.00
592.46	88.94
592.62	0.00
592.78	28.09
592.94	74.90
593.10	58.51
593.26	16.38
593.41	0.00
593.57	65.54
593.73	63.19
593.89	18.72
594.05	0.00
594.20	4.68
594.36	70.22
594.52	126.39
594.68	79.58
594.84	81.92
594.99	70.22
595.15	102.98
595.31	72.56
595.47	4.68
595.62	21.06
595.78	0.00
595.94	91.28
596.10	32.77
596.25	0.00
596.41	100.64
596.57	91.28
596.73	131.07
596.88	95.96
597.04	98.30
597.20	32.77
597.36	131.07
597.51	39.79
597.67	35.11
597.83	32.77
597.99	49.15
598.14	84.26
598.30	81.92
598.46	28.09
598.61	28.09
598.77	42.13
598.93	16.38
599.09	56.17
599.24	140.43
599.40	56.17
599.56	9.36
599.71	56.17
599.87	100.64
600.03	74.90
600.18	79.58
600.34	37.45
600.50	84.26
600.65	53.83
600.81	88.94
600.97	128.73
601.12	53.83
601.28	28.09
601.44	16.38
601.59	0.00
601.75	42.13
601.91	77.24
602.06	72.56
602.22	42.13
602.37	32.77
602.53	42.13
602.69	77.24
602.84	42.13
603.00	86.60
603.16	58.51
603.31	42.13
603.47	88.94
603.62	79.58
603.78	65.54
603.94	49.15
604.09	65.54
604.25	70.22
604.40	28.09
604.56	117.03
604.71	72.56
604.87	35.11
605.03	81.92
605.18	107.66
605.34	77.24
605.49	53.83
605.65	93.62
605.80	100.64
605.96	81.92
606.12	131.07
606.27	23.41
606.43	51.49
606.58	77.24
606.74	70.22
606.89	131.07
607.05	67.88
607.20	102.98
607.36	49.15
607.51	32.77
607.67	0.00
607.82	28.09
607.98	53.83
608.13	70.22
608.29	21.06
608.44	14.04
608.60	49.15
608.75	60.85
608.91	46.81
609.06	140.43
609.22	63.19
609.37	60.85
609.53	42.13
609.68	30.43
609.84	28.09
609.99	0.00
610.15	0.00
610.30	58.51
610.46	49.15
610.61	42.13
610.76	77.24
610.92	77.24
611.07	88.94
611.23	58.51
611.38	11.70
611.54	25.75
611.69	18.72
611.84	28.09
612.00	46.81
612.15	53.83
612.31	30.43
612.46	0.00
612.62	81.92
612.77	7.02
612.92	42.13
613.08	9.36
613.23	58.51
613.39	145.11
613.54	53.83
613.69	16.38
613.85	56.17
614.00	112.35
614.15	0.00
614.31	51.49
614.46	37.45
614.62	79.58
614.77	49.15
614.92	60.85
615.08	114.69
615.23	14.04
615.38	72.56
615.54	16.38
615.69	91.28
615.84	60.85
616.00	30.43
616.15	44.47
616.30	21.06
616.46	30.43
616.61	28.09
616.76	63.19
616.92	25.75
617.07	39.79
617.22	79.58
617.37	70.22
617.53	79.58
617.68	65.54
617.83	60.85
617.99	37.45
618.14	126.39
618.29	70.22
618.45	100.64
618.60	51.49
618.75	14.04
618.90	30.43
619.06	95.96
619.21	44.47
619.36	0.00
619.51	2.34
619.67	53.83
619.82	74.90
619.97	16.38
620.12	30.43
620.28	30.43
620.43	65.54
620.58	0.00
620.73	79.58
620.89	46.81
621.04	88.94
621.19	39.79
621.34	107.66
621.49	60.85
621.65	117.03
621.80	0.00
621.95	81.92
622.10	23.41
622.25	81.92
622.41	0.00
622.56	56.17
622.71	77.24
622.86	46.81
623.01	60.85
623.16	35.11
623.32	16.38
623.47	0.00
623.62	46.81
623.77	30.43
623.92	65.54
624.07	18.72
624.23	84.26
624.38	25.75
624.53	0.00
624.68	42.13
624.83	0.00
624.98	67.88
625.13	70.22
625.29	72.56
625.44	28.09
625.59	84.26
625.74	23.41
625.89	16.38
626.04	25.75
626.19	0.00
626.34	21.06
626.49	63.19
626.65	32.77
626.80	51.49
626.95	74.90
627.10	0.00
627.25	9.36
627.40	14.04
627.55	11.70
627.70	100.64
627.85	21.06
628.00	25.75
628.15	11.70
628.30	9.36
628.45	23.41
628.60	58.51
628.76	51.49
628.91	53.83
629.06	42.13
629.21	0.00
629.36	44.47
629.51	23.41
629.66	88.94
629.81	23.41
629.96	60.85
630.11	126.39
630.26	67.88
630.41	49.15
630.56	46.81
630.71	0.00
630.86	102.98
631.01	74.90
631.16	93.62
631.31	70.22
631.46	114.69
631.61	30.43
631.76	23.41
631.91	79.58
632.06	65.54
632.21	65.54
632.36	56.17
632.51	86.60
632.66	0.00
632.81	0.00
632.96	53.83
633.10	16.38
633.25	35.11
633.40	77.24
633.55	74.90
633.70	110.01
633.85	0.00
634.00	11.70
634.15	4.68
634.30	63.19
634.45	70.22
634.60	79.58
634.75	46.81
634.90	11.70
635.05	51.49
635.19	51.49
635.34	0.00
635.49	0.00
635.64	30.43
635.79	77.24
635.94	67.88
636.09	124.05
636.24	58.51
636.39	53.83
636.53	32.77
636.68	25.75
636.83	110.01
636.98	25.75
637.13	32.77
637.28	25.75
637.43	9.36
637.57	7.02
637.72	25.75
637.87	49.15
638.02	81.92
638.17	18.72
638.32	42.13
638.46	35.11
638.61	32.77
638.76	77.24
638.91	2.34
639.06	72.56
639.20	46.81
639.35	37.45
639.50	60.85
639.65	14.04
639.80	121.71
639.94	60.85
640.09	11.70
640.24	30.43
640.39	7.02
640.54	23.41
640.68	0.00
640.83	39.79
640.98	51.49
641.13	23.41
641.27	4.68
641.42	93.62
641.57	16.38
641.72	91.28
641.86	51.49
642.01	16.38
642.16	49.15
642.31	51.49
642.45	86.60
642.60	49.15
642.75	28.09
642.90	70.22
643.04	25.75
643.19	67.88
643.34	11.70
643.48	74.90
643.63	44.47
643.78	0.00
643.93	4.68
644.07	9.36
644.22	58.51
644.37	58.51
644.51	84.26
644.66	0.00
644.81	60.85
644.95	44.47
645.10	60.85
645.25	72.56
645.39	81.92
645.54	70.22
645.69	25.75
645.83	21.06
645.98	0.00
646.13	63.19
646.27	98.30
646.42	18.72
646.57	0.00
646.71	14.04
646.86	91.28
647.00	0.00
647.15	72.56
647.30	0.00
647.44	4.68
647.59	147.45
647.74	37.45
647.88	63.19
648.03	37.45
648.17	0.00
648.32	44.47
648.47	95.96
648.61	39.79
648.76	44.47
648.90	4.68
649.05	53.83
649.20	42.13
649.34	77.24
649.49	0.00
649.63	18.72
649.78	35.11
649.92	0.00
650.07	0.00
650.21	44.47
650.36	0.00
650.51	42.13
650.65	81.92
650.80	25.75
650.94	0.00
651.09	79.58
651.23	74.90
651.38	18.72
651.52	56.17
651.67	32.77
651.81	0.00
651.96	117.03
652.10	44.47
652.25	18.72
652.39	49.15
652.54	18.72
652.68	14.04
652.83	58.51
652.97	37.45
653.12	25.75
653.26	28.09
653.41	88.94
653.55	11.70
653.70	67.88
653.84	37.45
653.99	39.79
654.13	60.85
654.27	95.96
654.42	0.00
654.56	23.41
654.71	88.94
654.85	98.30
655.00	35.11
655.14	114.69
655.29	51.49
655.43	28.09
655.57	37.45
655.72	46.81
655.86	30.43
656.01	23.41
656.15	56.17
656.30	23.41
656.44	35.11
656.58	0.00
656.73	7.02
656.87	4.68
657.01	0.00
657.16	0.00
657.30	30.43
657.45	0.00
657.59	121.71
657.73	79.58
657.88	77.24
658.02	0.00
658.16	86.60
658.31	42.13
658.45	28.09
658.60	53.83
658.74	58.51
658.88	112.35
659.03	21.06
659.17	84.26
659.31	0.00
659.46	0.00
659.60	42.13
659.74	7.02
659.89	44.47
660.03	46.81
660.17	39.79
660.32	14.04
660.46	0.00
660.60	72.56
660.74	67.88
660.89	16.38
661.03	56.17
661.17	86.60
661.32	42.13
661.46	110.01
661.60	2.34
661.74	77.24
661.89	51.49
662.03	56.17
662.17	0.00
662.31	25.75
662.46	32.77
662.60	107.66
662.74	84.26
662.88	7.02
663.03	46.81
663.17	35.11
663.31	0.00
663.45	23.41
663.60	60.85
663.74	126.39
663.88	63.19
664.02	98.30
664.17	53.83
664.31	35.11
664.45	105.32
664.59	128.73
664.73	0.00
664.88	44.47
665.02	32.77
665.16	74.90
665.30	42.13
665.44	37.45
665.59	25.75
665.73	0.00
665.87	74.90
666.01	100.64
666.15	28.09
666.29	14.04
666.44	28.09
666.58	67.88
666.72	37.45
666.86	21.06
667.00	79.58
667.14	32.77
667.28	81.92
667.43	32.77
667.57	53.83
667.71	14.04
667.85	7.02
667.99	16.38
668.13	77.24
668.27	0.00
668.41	51.49
668.56	53.83
668.70	30.43
668.84	56.17
668.98	39.79
669.12	86.60
669.26	79.58
669.40	86.60
669.54	37.45
669.68	23.41
669.82	67.88
669.96	42.13
670.10	74.90
670.25	37.45
670.39	77.24
670.53	44.47
670.67	70.22
670.81	49.15
670.95	4.68
671.09	53.83
671.23	60.85
671.37	28.09
671.51	79.58
671.65	81.92
671.79	14.04
671.93	28.09
672.07	37.45
672.21	51.49
672.35	46.81
672.49	11.70
672.63	14.04
672.77	60.85
672.91	49.15
673.05	77.24
673.19	16.38
673.33	25.75
673.47	35.11
673.61	32.77
673.75	37.45
673.89	70.22
674.03	2.34
674.17	93.62
674.31	18.72
674.45	0.00
674.59	77.24
674.73	44.47
674.87	46.81
675.01	63.19
675.15	70.22
675.29	81.92
675.43	77.24
675.56	86.60
675.70	0.00
675.84	70.22
675.98	102.98
676.12	58.51
676.26	91.28
676.40	9.36
676.54	0.00
676.68	28.09
676.82	39.79
676.96	32.77
677.10	23.41
677.23	35.11
677.37	7.02
677.51	16.38
677.65	23.41
677.79	39.79
677.93	72.56
678.07	51.49
678.21	0.00
678.34	72.56
678.48	0.00
678.62	0.00
678.76	16.38
678.90	60.85
679.04	28.09
679.18	0.00
679.31	0.00
679.45	42.13
679.59	51.49
679.73	28.09
679.87	4.68
680.00	9.36
680.14	105.32
680.28	58.51
680.42	49.15
680.56	14.04
680.70	23.41
680.83	46.81
680.97	42.13
681.11	51.49
681.25	0.00
681.39	0.00
681.52	42.13
681.66	2.34
681.80	56.17
681.94	14.04
682.07	37.45
682.21	88.94
682.35	35.11
682.49	51.49
682.62	28.09
682.76	30.43
682.90	86.60
683.04	67.88
683.17	58.51
683.31	100.64
683.45	56.17
683.59	0.00
683.72	74.90
683.86	53.83
684.00	49.15
684.13	25.75
684.27	0.00
684.41	65.54
684.55	49.15
684.68	16.38
684.82	25.75
684.96	14.04
685.09	53.83
685.23	105.32
685.37	63.19
685.50	18.72
685.64	4.68
685.78	32.77
685.91	39.79
686.05	51.49
686.19	42.13
686.32	42.13
686.46	35.11
686.60	46.81
686.73	0.00
686.87	35.11
687.01	42.13
687.14	74.90
687.28	0.00
687.42	0.00
687.55	18.72
687.69	9.36
687.82	81.92
687.96	11.70
688.10	72.56
688.23	84.26
688.37	95.96
688.50	49.15
688.64	16.38
688.78	32.77
688.91	9.36
689.05	21.06
689.18	0.00
689.32	18.72
689.46	100.64
689.59	81.92
689.73	2.34
689.86	0.00
690.00	51.49
690.13	0.00
690.27	25.75
690.41	30.43
690.54	32.77
690.68	21.06
690.81	32.77
690.95	16.38
691.08	58.51
691.22	93.62
691.35	51.49
691.49	56.17
691.62	49.15
691.76	98.30
691.89	112.35
692.03	60.85
692.16	11.70
692.30	30.43
692.43	9.36
692.57	0.00
692.70	4.68
692.84	18.72
692.97	39.79
693.11	44.47
693.24	0.00
693.38	88.94
693.51	93.62
693.65	16.38
693.78	23.41
693.92	58.51
694.05	79.58
694.19	0.00
694.32	72.56
694.45	35.11
694.59	0.00
694.72	77.24
694.86	56.17
694.99	49.15
695.13	49.15
695.26	0.00
695.39	0.00
695.53	37.45
695.66	2.34
695.80	28.09
695.93	42.13
696.07	21.06
696.20	72.56
696.33	53.83
696.47	42.13
696.60	74.90
696.73	21.06
696.87	37.45
697.00	70.22
697.14	4.68
697.27	18.72
697.40	30.43
697.54	46.81
697.67	49.15
697.80	23.41
697.94	14.04
698.07	4.68
698.21	30.43
698.34	133.41
698.47	28.09
698.61	14.04
698.74	11.70
698.87	65.54
699.01	18.72
699.14	42.13
699.27	114.69
699.40	30.43
699.54	65.54
699.67	30.43
699.80	0.00
699.94	77.24
700.07	9.36
700.20	53.83
700.34	28.09
700.47	81.92
700.60	77.24
700.73	23.41
700.87	16.38
701.00	46.81
701.13	0.00
701.26	74.90
701.40	56.17
701.53	51.49
701.66	0.00
701.79	2.34
701.93	0.00
702.06	25.75
702.19	112.35
702.32	60.85
702.46	0.00
702.59	25.75
702.72	0.00
702.85	14.04
702.99	42.13
703.12	0.00
703.25	44.47
703.38	49.15
703.51	4.68
703.65	4.68
703.78	53.83
703.91	9.36
704.04	14.04
704.17	88.94
704.31	44.47
704.44	67.88
704.57	56.17
704.70	42.13
704.83	0.00
704.96	53.83
705.10	0.00
705.23	0.00
>>>>>End Processed Spectral Data<<<<<
