SpectraSuite Data File
++++++++++++++++++++++++++++++++++++
Date: Fri Oct 04 12:13:38 GMT-05:00 2013
User: price-jones
Dark Spectrum Present: No
Reference Spectrum Present: No
Number of Sampled Component Spectra: 1
Spectrometers: USB2+H05261
Integration Time (usec): 10000 (USB2+H05261)
Spectra Averaged: 1 (USB2+H05261)
Boxcar Smoothing: 0 (USB2+H05261)
Correct for Electrical Dark: No (USB2+H05261)
Strobe/Lamp Enabled: No (USB2+H05261)
Correct for Detector Non-linearity: No (USB2+H05261)
Correct for Stray Light: No (USB2+H05261)
Number of Pixels in Processed Spectrum: 2048
>>>>>Begin Processed Spectral Data<<<<<
365.73	0.00
365.92	0.00
366.12	0.00
366.32	0.00
366.52	0.00
366.72	0.00
366.91	0.00
367.11	0.00
367.31	0.00
367.51	0.00
367.70	0.00
367.90	0.00
368.10	0.00
368.30	0.00
368.49	0.00
368.69	0.00
368.89	0.00
369.09	0.00
369.28	0.00
369.48	0.00
369.68	0.00
369.87	0.00
370.07	0.00
370.27	0.00
370.47	0.00
370.66	0.00
370.86	0.00
371.06	0.00
371.25	0.00
371.45	0.00
371.65	0.00
371.84	0.00
372.04	37.45
372.24	0.00
372.44	0.00
372.63	11.70
372.83	42.13
373.03	112.35
373.22	28.09
373.42	7.02
373.62	0.00
373.81	7.02
374.01	86.60
374.21	0.00
374.40	0.00
374.60	102.98
374.79	0.00
374.99	51.49
375.19	21.06
375.38	53.83
375.58	7.02
375.78	2.34
375.97	79.58
376.17	0.00
376.37	74.90
376.56	0.00
376.76	25.75
376.95	93.62
377.15	63.19
377.35	14.04
377.54	37.45
377.74	65.54
377.93	0.00
378.13	7.02
378.33	4.68
378.52	53.83
378.72	0.00
378.91	0.00
379.11	32.77
379.31	42.13
379.50	0.00
379.70	65.54
379.89	9.36
380.09	18.72
380.28	7.02
380.48	16.38
380.68	0.00
380.87	7.02
381.07	9.36
381.26	0.00
381.46	14.04
381.65	81.92
381.85	72.56
382.04	0.00
382.24	35.11
382.43	14.04
382.63	0.00
382.83	9.36
383.02	0.00
383.22	11.70
383.41	0.00
383.61	21.06
383.80	23.41
384.00	4.68
384.19	21.06
384.39	0.00
384.58	21.06
384.78	0.00
384.97	0.00
385.17	88.94
385.36	110.01
385.56	32.77
385.75	2.34
385.95	14.04
386.14	65.54
386.34	0.00
386.53	86.60
386.72	93.62
386.92	25.75
387.11	46.81
387.31	0.00
387.50	0.00
387.70	0.00
387.89	56.17
388.09	23.41
388.28	0.00
388.48	0.00
388.67	4.68
388.86	0.00
389.06	21.06
389.25	2.34
389.45	39.79
389.64	0.00
389.84	84.26
390.03	58.51
390.22	49.15
390.42	21.06
390.61	16.38
390.81	11.70
391.00	72.56
391.19	88.94
391.39	44.47
391.58	7.02
391.78	72.56
391.97	0.00
392.16	0.00
392.36	11.70
392.55	72.56
392.75	25.75
392.94	49.15
393.13	0.00
393.33	18.72
393.52	53.83
393.71	11.70
393.91	0.00
394.10	60.85
394.29	37.45
394.49	18.72
394.68	32.77
394.88	30.43
395.07	70.22
395.26	9.36
395.46	2.34
395.65	0.00
395.84	30.43
396.04	32.77
396.23	23.41
396.42	18.72
396.62	0.00
396.81	0.00
397.00	30.43
397.19	39.79
397.39	0.00
397.58	0.00
397.77	0.00
397.97	58.51
398.16	14.04
398.35	98.30
398.55	79.58
398.74	42.13
398.93	84.26
399.12	7.02
399.32	2.34
399.51	0.00
399.70	70.22
399.90	0.00
400.09	25.75
400.28	65.54
400.47	18.72
400.67	0.00
400.86	0.00
401.05	0.00
401.24	23.41
401.44	79.58
401.63	0.00
401.82	14.04
402.01	35.11
402.21	63.19
402.40	51.49
402.59	107.66
402.78	86.60
402.97	21.06
403.17	63.19
403.36	95.96
403.55	0.00
403.74	77.24
403.93	81.92
404.13	11.70
404.32	51.49
404.51	0.00
404.70	77.24
404.89	2.34
405.09	67.88
405.28	44.47
405.47	42.13
405.66	81.92
405.85	37.45
406.05	0.00
406.24	67.88
406.43	2.34
406.62	67.88
406.81	30.43
407.00	72.56
407.20	14.04
407.39	4.68
407.58	16.38
407.77	4.68
407.96	86.60
408.15	110.01
408.34	23.41
408.54	16.38
408.73	25.75
408.92	37.45
409.11	2.34
409.30	35.11
409.49	16.38
409.68	0.00
409.87	0.00
410.07	25.75
410.26	84.26
410.45	23.41
410.64	70.22
410.83	63.19
411.02	49.15
411.21	0.00
411.40	25.75
411.59	79.58
411.78	86.60
411.98	86.60
412.17	70.22
412.36	9.36
412.55	0.00
412.74	25.75
412.93	63.19
413.12	72.56
413.31	44.47
413.50	0.00
413.69	0.00
413.88	67.88
414.07	16.38
414.26	11.70
414.45	42.13
414.64	79.58
414.83	0.00
415.02	49.15
415.22	28.09
415.41	7.02
415.60	67.88
415.79	63.19
415.98	0.00
416.17	37.45
416.36	72.56
416.55	32.77
416.74	49.15
416.93	25.75
417.12	98.30
417.31	37.45
417.50	0.00
417.69	49.15
417.88	28.09
418.07	86.60
418.26	86.60
418.45	91.28
418.64	30.43
418.83	58.51
419.02	30.43
419.21	28.09
419.39	46.81
419.58	4.68
419.77	44.47
419.96	0.00
420.15	0.00
420.34	56.17
420.53	14.04
420.72	4.68
420.91	4.68
421.10	21.06
421.29	58.51
421.48	74.90
421.67	56.17
421.86	77.24
422.05	58.51
422.24	53.83
422.43	39.79
422.61	16.38
422.80	56.17
422.99	77.24
423.18	39.79
423.37	86.60
423.56	35.11
423.75	9.36
423.94	49.15
424.13	0.00
424.32	28.09
424.50	124.05
424.69	28.09
424.88	51.49
425.07	81.92
425.26	44.47
425.45	72.56
425.64	81.92
425.83	74.90
426.01	53.83
426.20	70.22
426.39	56.17
426.58	65.54
426.77	25.75
426.96	142.77
427.15	79.58
427.33	14.04
427.52	39.79
427.71	23.41
427.90	35.11
428.09	72.56
428.28	74.90
428.46	74.90
428.65	91.28
428.84	72.56
429.03	86.60
429.22	30.43
429.40	35.11
429.59	51.49
429.78	102.98
429.97	7.02
430.16	67.88
430.34	63.19
430.53	117.03
430.72	11.70
430.91	21.06
431.10	56.17
431.28	60.85
431.47	4.68
431.66	21.06
431.85	65.54
432.03	53.83
432.22	0.00
432.41	25.75
432.60	9.36
432.79	42.13
432.97	79.58
433.16	77.24
433.35	88.94
433.54	88.94
433.72	11.70
433.91	21.06
434.10	56.17
434.28	44.47
434.47	30.43
434.66	18.72
434.85	28.09
435.03	0.00
435.22	102.98
435.41	58.51
435.59	9.36
435.78	35.11
435.97	25.75
436.16	63.19
436.34	32.77
436.53	84.26
436.72	0.00
436.90	56.17
437.09	39.79
437.28	65.54
437.46	39.79
437.65	74.90
437.84	49.15
438.02	126.39
438.21	0.00
438.40	4.68
438.58	16.38
438.77	100.64
438.96	77.24
439.14	14.04
439.33	14.04
439.52	30.43
439.70	0.00
439.89	16.38
440.08	56.17
440.26	58.51
440.45	67.88
440.63	128.73
440.82	58.51
441.01	0.00
441.19	25.75
441.38	30.43
441.57	65.54
441.75	74.90
441.94	28.09
442.12	112.35
442.31	25.75
442.50	53.83
442.68	156.82
442.87	32.77
443.05	58.51
443.24	37.45
443.43	0.00
443.61	53.83
443.80	128.73
443.98	60.85
444.17	67.88
444.35	58.51
444.54	84.26
444.73	67.88
444.91	88.94
445.10	46.81
445.28	74.90
445.47	9.36
445.65	60.85
445.84	53.83
446.02	14.04
446.21	14.04
446.39	72.56
446.58	21.06
446.77	70.22
446.95	84.26
447.14	60.85
447.32	25.75
447.51	44.47
447.69	100.64
447.88	107.66
448.06	28.09
448.25	35.11
448.43	65.54
448.62	60.85
448.80	93.62
448.99	102.98
449.17	81.92
449.36	0.00
449.54	32.77
449.73	46.81
449.91	46.81
450.10	77.24
450.28	91.28
450.46	51.49
450.65	163.84
450.83	53.83
451.02	39.79
451.20	74.90
451.39	107.66
451.57	93.62
451.76	53.83
451.94	30.43
452.13	86.60
452.31	42.13
452.49	91.28
452.68	18.72
452.86	84.26
453.05	74.90
453.23	86.60
453.42	77.24
453.60	63.19
453.78	65.54
453.97	70.22
454.15	42.13
454.34	53.83
454.52	30.43
454.70	95.96
454.89	77.24
455.07	70.22
455.26	30.43
455.44	51.49
455.62	86.60
455.81	63.19
455.99	0.00
456.17	46.81
456.36	93.62
456.54	51.49
456.73	91.28
456.91	74.90
457.09	53.83
457.28	81.92
457.46	98.30
457.64	84.26
457.83	49.15
458.01	49.15
458.19	0.00
458.38	138.09
458.56	86.60
458.74	32.77
458.93	0.00
459.11	49.15
459.29	93.62
459.48	63.19
459.66	154.48
459.84	11.70
460.03	119.37
460.21	63.19
460.39	28.09
460.57	74.90
460.76	37.45
460.94	98.30
461.12	0.00
461.31	51.49
461.49	84.26
461.67	67.88
461.85	63.19
462.04	46.81
462.22	154.48
462.40	16.38
462.59	72.56
462.77	0.00
462.95	60.85
463.13	74.90
463.32	56.17
463.50	0.00
463.68	56.17
463.86	67.88
464.05	49.15
464.23	51.49
464.41	14.04
464.59	42.13
464.78	88.94
464.96	42.13
465.14	4.68
465.32	28.09
465.50	126.39
465.69	147.45
465.87	93.62
466.05	49.15
466.23	65.54
466.41	107.66
466.60	56.17
466.78	168.52
466.96	32.77
467.14	124.05
467.32	30.43
467.51	93.62
467.69	65.54
467.87	84.26
468.05	67.88
468.23	119.37
468.41	0.00
468.60	0.00
468.78	51.49
468.96	67.88
469.14	77.24
469.32	65.54
469.50	11.70
469.69	77.24
469.87	133.41
470.05	39.79
470.23	56.17
470.41	35.11
470.59	51.49
470.77	14.04
470.95	0.00
471.14	51.49
471.32	60.85
471.50	91.28
471.68	100.64
471.86	14.04
472.04	0.00
472.22	7.02
472.40	72.56
472.58	2.34
472.77	9.36
472.95	0.00
473.13	79.58
473.31	88.94
473.49	51.49
473.67	79.58
473.85	49.15
474.03	18.72
474.21	39.79
474.39	131.07
474.57	86.60
474.75	95.96
474.93	63.19
475.12	30.43
475.30	53.83
475.48	102.98
475.66	49.15
475.84	18.72
476.02	72.56
476.20	63.19
476.38	30.43
476.56	112.35
476.74	93.62
476.92	46.81
477.10	56.17
477.28	102.98
477.46	53.83
477.64	100.64
477.82	105.32
478.00	98.30
478.18	131.07
478.36	16.38
478.54	21.06
478.72	28.09
478.90	37.45
479.08	117.03
479.26	49.15
479.44	0.00
479.62	105.32
479.80	44.47
479.98	53.83
480.16	21.06
480.34	93.62
480.52	67.88
480.70	63.19
480.88	81.92
481.06	0.00
481.24	100.64
481.41	81.92
481.59	86.60
481.77	102.98
481.95	35.11
482.13	0.00
482.31	79.58
482.49	14.04
482.67	53.83
482.85	18.72
483.03	53.83
483.21	95.96
483.39	112.35
483.57	110.01
483.74	79.58
483.92	91.28
484.10	77.24
484.28	60.85
484.46	77.24
484.64	0.00
484.82	63.19
485.00	79.58
485.18	46.81
485.35	60.85
485.53	32.77
485.71	140.43
485.89	112.35
486.07	119.37
486.25	121.71
486.43	63.19
486.61	79.58
486.78	53.83
486.96	60.85
487.14	70.22
487.32	32.77
487.50	180.22
487.68	149.79
487.85	126.39
488.03	46.81
488.21	42.13
488.39	74.90
488.57	30.43
488.75	37.45
488.92	135.75
489.10	67.88
489.28	88.94
489.46	56.17
489.64	56.17
489.81	79.58
489.99	142.77
490.17	72.56
490.35	93.62
490.53	0.00
490.70	105.32
490.88	140.43
491.06	72.56
491.24	44.47
491.41	88.94
491.59	77.24
491.77	110.01
491.95	60.85
492.13	72.56
492.30	74.90
492.48	58.51
492.66	107.66
492.84	124.05
493.01	100.64
493.19	72.56
493.37	140.43
493.54	124.05
493.72	121.71
493.90	119.37
494.08	51.49
494.25	112.35
494.43	77.24
494.61	30.43
494.79	145.11
494.96	53.83
495.14	93.62
495.32	58.51
495.49	105.32
495.67	117.03
495.85	58.51
496.02	67.88
496.20	145.11
496.38	67.88
496.55	11.70
496.73	67.88
496.91	91.28
497.09	77.24
497.26	95.96
497.44	149.79
497.62	77.24
497.79	142.77
497.97	86.60
498.14	170.86
498.32	0.00
498.50	84.26
498.67	91.28
498.85	35.11
499.03	77.24
499.20	110.01
499.38	67.88
499.56	21.06
499.73	84.26
499.91	95.96
500.08	32.77
500.26	58.51
500.44	79.58
500.61	25.75
500.79	102.98
500.97	35.11
501.14	0.00
501.32	46.81
501.49	65.54
501.67	58.51
501.84	107.66
502.02	65.54
502.20	107.66
502.37	91.28
502.55	58.51
502.72	2.34
502.90	56.17
503.07	126.39
503.25	121.71
503.43	187.24
503.60	131.07
503.78	35.11
503.95	49.15
504.13	117.03
504.30	72.56
504.48	42.13
504.65	72.56
504.83	131.07
505.01	107.66
505.18	133.41
505.36	30.43
505.53	79.58
505.71	56.17
505.88	77.24
506.06	133.41
506.23	126.39
506.41	91.28
506.58	102.98
506.76	93.62
506.93	84.26
507.11	39.79
507.28	72.56
507.46	63.19
507.63	37.45
507.81	74.90
507.98	37.45
508.16	56.17
508.33	42.13
508.50	60.85
508.68	60.85
508.85	161.50
509.03	25.75
509.20	79.58
509.38	112.35
509.55	107.66
509.73	56.17
509.90	65.54
510.08	86.60
510.25	140.43
510.42	112.35
510.60	7.02
510.77	105.32
510.95	46.81
511.12	42.13
511.30	46.81
511.47	30.43
511.64	56.17
511.82	88.94
511.99	110.01
512.17	77.24
512.34	37.45
512.51	110.01
512.69	114.69
512.86	60.85
513.04	0.00
513.21	126.39
513.38	72.56
513.56	81.92
513.73	91.28
513.90	18.72
514.08	63.19
514.25	4.68
514.43	91.28
514.60	58.51
514.77	49.15
514.95	98.30
515.12	124.05
515.29	100.64
515.47	105.32
515.64	100.64
515.81	114.69
515.99	42.13
516.16	37.45
516.33	166.18
516.51	95.96
516.68	128.73
516.85	100.64
517.03	95.96
517.20	14.04
517.37	84.26
517.54	91.28
517.72	110.01
517.89	56.17
518.06	42.13
518.24	42.13
518.41	67.88
518.58	60.85
518.75	18.72
518.93	79.58
519.10	44.47
519.27	28.09
519.45	79.58
519.62	93.62
519.79	46.81
519.96	88.94
520.14	107.66
520.31	46.81
520.48	86.60
520.65	67.88
520.83	100.64
521.00	81.92
521.17	30.43
521.34	77.24
521.52	161.50
521.69	86.60
521.86	65.54
522.03	44.47
522.20	121.71
522.38	107.66
522.55	86.60
522.72	51.49
522.89	58.51
523.07	110.01
523.24	124.05
523.41	86.60
523.58	91.28
523.75	126.39
523.92	79.58
524.10	35.11
524.27	93.62
524.44	81.92
524.61	84.26
524.78	102.98
524.96	110.01
525.13	70.22
525.30	46.81
525.47	65.54
525.64	102.98
525.81	124.05
525.98	140.43
526.16	98.30
526.33	105.32
526.50	86.60
526.67	63.19
526.84	49.15
527.01	9.36
527.18	184.90
527.36	79.58
527.53	100.64
527.70	42.13
527.87	74.90
528.04	49.15
528.21	42.13
528.38	65.54
528.55	30.43
528.72	65.54
528.89	84.26
529.07	65.54
529.24	46.81
529.41	119.37
529.58	60.85
529.75	84.26
529.92	126.39
530.09	58.51
530.26	67.88
530.43	30.43
530.60	91.28
530.77	72.56
530.94	117.03
531.11	117.03
531.28	53.83
531.46	25.75
531.63	77.24
531.80	81.92
531.97	49.15
532.14	133.41
532.31	72.56
532.48	37.45
532.65	60.85
532.82	46.81
532.99	77.24
533.16	30.43
533.33	100.64
533.50	110.01
533.67	154.48
533.84	56.17
534.01	63.19
534.18	133.41
534.35	126.39
534.52	88.94
534.69	107.66
534.86	163.84
535.03	32.77
535.20	124.05
535.37	25.75
535.54	93.62
535.71	95.96
535.88	23.41
536.05	128.73
536.22	135.75
536.38	63.19
536.55	114.69
536.72	0.00
536.89	107.66
537.06	98.30
537.23	100.64
537.40	67.88
537.57	0.00
537.74	79.58
537.91	35.11
538.08	88.94
538.25	131.07
538.42	91.28
538.59	142.77
538.75	74.90
538.92	51.49
539.09	95.96
539.26	58.51
539.43	60.85
539.60	98.30
539.77	98.30
539.94	86.60
540.11	70.22
540.28	84.26
540.44	100.64
540.61	112.35
540.78	100.64
540.95	91.28
541.12	58.51
541.29	0.00
541.46	63.19
541.62	35.11
541.79	46.81
541.96	65.54
542.13	46.81
542.30	79.58
542.47	107.66
542.63	18.72
542.80	119.37
542.97	105.32
543.14	98.30
543.31	77.24
543.48	56.17
543.64	114.69
543.81	51.49
543.98	79.58
544.15	56.17
544.32	51.49
544.48	117.03
544.65	86.60
544.82	149.79
544.99	37.45
545.16	86.60
545.32	18.72
545.49	91.28
545.66	100.64
545.83	100.64
546.00	102.98
546.16	95.96
546.33	46.81
546.50	58.51
546.67	117.03
546.83	100.64
547.00	112.35
547.17	49.15
547.34	102.98
547.50	44.47
547.67	74.90
547.84	112.35
548.00	60.85
548.17	23.41
548.34	81.92
548.51	121.71
548.67	70.22
548.84	60.85
549.01	98.30
549.18	79.58
549.34	88.94
549.51	49.15
549.68	46.81
549.84	70.22
550.01	72.56
550.18	114.69
550.34	114.69
550.51	88.94
550.68	117.03
550.84	21.06
551.01	112.35
551.18	110.01
551.34	107.66
551.51	81.92
551.68	135.75
551.84	100.64
552.01	145.11
552.18	131.07
552.34	95.96
552.51	72.56
552.68	133.41
552.84	126.39
553.01	128.73
553.18	60.85
553.34	67.88
553.51	79.58
553.67	44.47
553.84	79.58
554.01	135.75
554.17	56.17
554.34	88.94
554.51	86.60
554.67	84.26
554.84	79.58
555.00	95.96
555.17	100.64
555.33	0.00
555.50	77.24
555.67	107.66
555.83	63.19
556.00	65.54
556.16	93.62
556.33	112.35
556.50	74.90
556.66	95.96
556.83	135.75
556.99	67.88
557.16	74.90
557.32	56.17
557.49	4.68
557.65	81.92
557.82	81.92
557.98	53.83
558.15	0.00
558.32	86.60
558.48	44.47
558.65	84.26
558.81	60.85
558.98	91.28
559.14	86.60
559.31	35.11
559.47	159.16
559.64	51.49
559.80	98.30
559.97	84.26
560.13	23.41
560.30	39.79
560.46	51.49
560.63	131.07
560.79	156.82
560.96	51.49
561.12	100.64
561.29	93.62
561.45	88.94
561.61	117.03
561.78	63.19
561.94	21.06
562.11	32.77
562.27	9.36
562.44	49.15
562.60	63.19
562.77	60.85
562.93	56.17
563.10	25.75
563.26	91.28
563.42	0.00
563.59	23.41
563.75	93.62
563.92	131.07
564.08	112.35
564.24	98.30
564.41	51.49
564.57	65.54
564.74	74.90
564.90	35.11
565.07	28.09
565.23	72.56
565.39	88.94
565.56	100.64
565.72	63.19
565.88	35.11
566.05	39.79
566.21	74.90
566.38	65.54
566.54	74.90
566.70	42.13
566.87	88.94
567.03	126.39
567.19	149.79
567.36	25.75
567.52	30.43
567.68	98.30
567.85	51.49
568.01	56.17
568.17	81.92
568.34	60.85
568.50	49.15
568.66	168.52
568.83	49.15
568.99	84.26
569.15	168.52
569.32	60.85
569.48	86.60
569.64	131.07
569.81	0.00
569.97	46.81
570.13	135.75
570.30	56.17
570.46	100.64
570.62	51.49
570.78	149.79
570.95	100.64
571.11	93.62
571.27	110.01
571.43	100.64
571.60	102.98
571.76	42.13
571.92	79.58
572.09	42.13
572.25	46.81
572.41	67.88
572.57	93.62
572.74	124.05
572.90	100.64
573.06	21.06
573.22	56.17
573.38	98.30
573.55	65.54
573.71	39.79
573.87	58.51
574.03	49.15
574.20	35.11
574.36	84.26
574.52	105.32
574.68	93.62
574.84	86.60
575.01	56.17
575.17	51.49
575.33	77.24
575.49	119.37
575.65	56.17
575.82	72.56
575.98	88.94
576.14	46.81
576.30	32.77
576.46	124.05
576.62	28.09
576.79	44.47
576.95	32.77
577.11	84.26
577.27	51.49
577.43	102.98
577.59	131.07
577.75	95.96
577.92	102.98
578.08	35.11
578.24	46.81
578.40	39.79
578.56	51.49
578.72	53.83
578.88	67.88
579.04	128.73
579.21	28.09
579.37	53.83
579.53	46.81
579.69	91.28
579.85	105.32
580.01	74.90
580.17	44.47
580.33	58.51
580.49	105.32
580.65	72.56
580.82	37.45
580.98	39.79
581.14	65.54
581.30	72.56
581.46	46.81
581.62	56.17
581.78	32.77
581.94	35.11
582.10	93.62
582.26	121.71
582.42	53.83
582.58	23.41
582.74	86.60
582.90	79.58
583.06	84.26
583.22	91.28
583.38	112.35
583.54	138.09
583.70	14.04
583.86	58.51
584.02	23.41
584.18	124.05
584.34	84.26
584.50	63.19
584.66	42.13
584.82	23.41
584.98	0.00
585.14	100.64
585.30	107.66
585.46	28.09
585.62	58.51
585.78	105.32
585.94	32.77
586.10	135.75
586.26	65.54
586.42	11.70
586.58	56.17
586.74	67.88
586.90	35.11
587.06	114.69
587.22	110.01
587.38	42.13
587.54	79.58
587.70	72.56
587.86	0.00
588.02	95.96
588.18	35.11
588.34	60.85
588.49	67.88
588.65	51.49
588.81	0.00
588.97	65.54
589.13	14.04
589.29	63.19
589.45	74.90
589.61	16.38
589.77	81.92
589.93	25.75
590.08	23.41
590.24	51.49
590.40	51.49
590.56	58.51
590.72	95.96
590.88	100.64
591.04	56.17
591.20	88.94
591.35	51.49
591.51	53.83
591.67	39.79
591.83	35.11
591.99	102.98
592.15	46.81
592.31	39.79
592.46	21.06
592.62	65.54
592.78	42.13
592.94	152.13
593.10	102.98
593.26	114.69
593.41	79.58
593.57	37.45
593.73	58.51
593.89	77.24
594.05	0.00
594.20	53.83
594.36	138.09
594.52	65.54
594.68	56.17
594.84	81.92
594.99	126.39
595.15	0.00
595.31	67.88
595.47	100.64
595.62	114.69
595.78	21.06
595.94	79.58
596.10	72.56
596.25	84.26
596.41	23.41
596.57	119.37
596.73	147.45
596.88	37.45
597.04	102.98
597.20	58.51
597.36	77.24
597.51	0.00
597.67	93.62
597.83	58.51
597.99	39.79
598.14	44.47
598.30	131.07
598.46	30.43
598.61	110.01
598.77	56.17
598.93	65.54
599.09	93.62
599.24	37.45
599.40	72.56
599.56	74.90
599.71	98.30
599.87	166.18
600.03	114.69
600.18	65.54
600.34	88.94
600.50	32.77
600.65	133.41
600.81	131.07
600.97	88.94
601.12	88.94
601.28	72.56
601.44	9.36
601.59	23.41
601.75	93.62
601.91	102.98
602.06	100.64
602.22	60.85
602.37	95.96
602.53	72.56
602.69	133.41
602.84	23.41
603.00	42.13
603.16	124.05
603.31	91.28
603.47	126.39
603.62	124.05
603.78	63.19
603.94	51.49
604.09	30.43
604.25	102.98
604.40	152.13
604.56	58.51
604.71	102.98
604.87	32.77
605.03	23.41
605.18	93.62
605.34	44.47
605.49	128.73
605.65	110.01
605.80	98.30
605.96	77.24
606.12	37.45
606.27	65.54
606.43	145.11
606.58	112.35
606.74	53.83
606.89	107.66
607.05	21.06
607.20	9.36
607.36	79.58
607.51	14.04
607.67	93.62
607.82	18.72
607.98	28.09
608.13	51.49
608.29	70.22
608.44	65.54
608.60	93.62
608.75	65.54
608.91	84.26
609.06	51.49
609.22	30.43
609.37	88.94
609.53	112.35
609.68	53.83
609.84	88.94
609.99	49.15
610.15	81.92
610.30	46.81
610.46	72.56
610.61	53.83
610.76	84.26
610.92	98.30
611.07	102.98
611.23	65.54
611.38	91.28
611.54	128.73
611.69	98.30
611.84	49.15
612.00	81.92
612.15	95.96
612.31	72.56
612.46	133.41
612.62	110.01
612.77	110.01
612.92	9.36
613.08	0.00
613.23	14.04
613.39	138.09
613.54	42.13
613.69	119.37
613.85	42.13
614.00	81.92
614.15	32.77
614.31	35.11
614.46	72.56
614.62	0.00
614.77	70.22
614.92	51.49
615.08	14.04
615.23	86.60
615.38	28.09
615.54	51.49
615.69	65.54
615.84	105.32
616.00	95.96
616.15	86.60
616.30	44.47
616.46	44.47
616.61	95.96
616.76	72.56
616.92	117.03
617.07	37.45
617.22	23.41
617.37	44.47
617.53	23.41
617.68	77.24
617.83	32.77
617.99	51.49
618.14	72.56
618.29	100.64
618.45	145.11
618.60	84.26
618.75	70.22
618.90	84.26
619.06	35.11
619.21	30.43
619.36	112.35
619.51	77.24
619.67	102.98
619.82	21.06
619.97	93.62
620.12	91.28
620.28	51.49
620.43	21.06
620.58	81.92
620.73	79.58
620.89	9.36
621.04	79.58
621.19	56.17
621.34	46.81
621.49	46.81
621.65	16.38
621.80	74.90
621.95	58.51
622.10	86.60
622.25	30.43
622.41	112.35
622.56	53.83
622.71	100.64
622.86	100.64
623.01	23.41
623.16	0.00
623.32	25.75
623.47	28.09
623.62	28.09
623.77	4.68
623.92	4.68
624.07	163.84
624.23	0.00
624.38	44.47
624.53	49.15
624.68	49.15
624.83	42.13
624.98	67.88
625.13	93.62
625.29	84.26
625.44	56.17
625.59	51.49
625.74	67.88
625.89	67.88
626.04	11.70
626.19	70.22
626.34	79.58
626.49	147.45
626.65	0.00
626.80	79.58
626.95	65.54
627.10	0.00
627.25	42.13
627.40	28.09
627.55	100.64
627.70	28.09
627.85	2.34
628.00	53.83
628.15	30.43
628.30	65.54
628.45	140.43
628.60	39.79
628.76	81.92
628.91	11.70
629.06	72.56
629.21	70.22
629.36	32.77
629.51	72.56
629.66	0.00
629.81	131.07
629.96	91.28
630.11	67.88
630.26	84.26
630.41	28.09
630.56	21.06
630.71	88.94
630.86	77.24
631.01	0.00
631.16	84.26
631.31	0.00
631.46	44.47
631.61	11.70
631.76	28.09
631.91	49.15
632.06	138.09
632.21	0.00
632.36	93.62
632.51	124.05
632.66	11.70
632.81	100.64
632.96	0.00
633.10	28.09
633.25	49.15
633.40	37.45
633.55	14.04
633.70	0.00
633.85	98.30
634.00	95.96
634.15	0.00
634.30	98.30
634.45	147.45
634.60	74.90
634.75	100.64
634.90	30.43
635.05	28.09
635.19	117.03
635.34	0.00
635.49	79.58
635.64	53.83
635.79	105.32
635.94	84.26
636.09	121.71
636.24	44.47
636.39	86.60
636.53	44.47
636.68	30.43
636.83	88.94
636.98	37.45
637.13	46.81
637.28	11.70
637.43	21.06
637.57	138.09
637.72	51.49
637.87	42.13
638.02	39.79
638.17	63.19
638.32	30.43
638.46	7.02
638.61	74.90
638.76	86.60
638.91	30.43
639.06	60.85
639.20	100.64
639.35	74.90
639.50	81.92
639.65	110.01
639.80	65.54
639.94	14.04
640.09	51.49
640.24	93.62
640.39	46.81
640.54	107.66
640.68	79.58
640.83	46.81
640.98	25.75
641.13	86.60
641.27	51.49
641.42	21.06
641.57	79.58
641.72	37.45
641.86	70.22
642.01	67.88
642.16	56.17
642.31	30.43
642.45	67.88
642.60	39.79
642.75	44.47
642.90	56.17
643.04	88.94
643.19	100.64
643.34	25.75
643.48	2.34
643.63	91.28
643.78	56.17
643.93	7.02
644.07	46.81
644.22	0.00
644.37	32.77
644.51	114.69
644.66	56.17
644.81	4.68
644.95	67.88
645.10	0.00
645.25	163.84
645.39	42.13
645.54	23.41
645.69	65.54
645.83	18.72
645.98	11.70
646.13	0.00
646.27	93.62
646.42	114.69
646.57	58.51
646.71	35.11
646.86	72.56
647.00	39.79
647.15	74.90
647.30	11.70
647.44	105.32
647.59	95.96
647.74	0.00
647.88	79.58
648.03	65.54
648.17	93.62
648.32	14.04
648.47	23.41
648.61	18.72
648.76	102.98
648.90	11.70
649.05	67.88
649.20	46.81
649.34	11.70
649.49	58.51
649.63	35.11
649.78	16.38
649.92	11.70
650.07	65.54
650.21	58.51
650.36	72.56
650.51	51.49
650.65	72.56
650.80	32.77
650.94	37.45
651.09	37.45
651.23	14.04
651.38	100.64
651.52	74.90
651.67	100.64
651.81	110.01
651.96	67.88
652.10	100.64
652.25	37.45
652.39	25.75
652.54	121.71
652.68	32.77
652.83	28.09
652.97	105.32
653.12	14.04
653.26	32.77
653.41	53.83
653.55	77.24
653.70	0.00
653.84	81.92
653.99	0.00
654.13	16.38
654.27	35.11
654.42	25.75
654.56	46.81
654.71	2.34
654.85	63.19
655.00	63.19
655.14	117.03
655.29	133.41
655.43	25.75
655.57	23.41
655.72	63.19
655.86	0.00
656.01	23.41
656.15	0.00
656.30	84.26
656.44	81.92
656.58	107.66
656.73	9.36
656.87	58.51
657.01	100.64
657.16	128.73
657.30	65.54
657.45	0.00
657.59	0.00
657.73	7.02
657.88	79.58
658.02	32.77
658.16	14.04
658.31	124.05
658.45	30.43
658.60	63.19
658.74	32.77
658.88	56.17
659.03	21.06
659.17	81.92
659.31	42.13
659.46	30.43
659.60	44.47
659.74	65.54
659.89	37.45
660.03	23.41
660.17	11.70
660.32	74.90
660.46	77.24
660.60	117.03
660.74	65.54
660.89	7.02
661.03	105.32
661.17	110.01
661.32	0.00
661.46	93.62
661.60	65.54
661.74	0.00
661.89	32.77
662.03	79.58
662.17	121.71
662.31	173.20
662.46	117.03
662.60	0.00
662.74	91.28
662.88	53.83
663.03	117.03
663.17	117.03
663.31	58.51
663.45	67.88
663.60	60.85
663.74	4.68
663.88	63.19
664.02	91.28
664.17	56.17
664.31	58.51
664.45	25.75
664.59	93.62
664.73	88.94
664.88	23.41
665.02	49.15
665.16	4.68
665.30	77.24
665.44	51.49
665.59	4.68
665.73	49.15
665.87	16.38
666.01	70.22
666.15	23.41
666.29	56.17
666.44	128.73
666.58	77.24
666.72	58.51
666.86	16.38
667.00	37.45
667.14	105.32
667.28	112.35
667.43	56.17
667.57	18.72
667.71	84.26
667.85	98.30
667.99	98.30
668.13	53.83
668.27	51.49
668.41	37.45
668.56	51.49
668.70	42.13
668.84	21.06
668.98	0.00
669.12	0.00
669.26	0.00
669.40	81.92
669.54	74.90
669.68	28.09
669.82	0.00
669.96	133.41
670.10	119.37
670.25	21.06
670.39	53.83
670.53	0.00
670.67	7.02
670.81	14.04
670.95	88.94
671.09	102.98
671.23	72.56
671.37	28.09
671.51	72.56
671.65	44.47
671.79	84.26
671.93	11.70
672.07	35.11
672.21	51.49
672.35	35.11
672.49	46.81
672.63	44.47
672.77	79.58
672.91	44.47
673.05	72.56
673.19	0.00
673.33	105.32
673.47	11.70
673.61	58.51
673.75	95.96
673.89	0.00
674.03	100.64
674.17	14.04
674.31	0.00
674.45	77.24
674.59	0.00
674.73	0.00
674.87	70.22
675.01	46.81
675.15	32.77
675.29	49.15
675.43	30.43
675.56	46.81
675.70	102.98
675.84	28.09
675.98	58.51
676.12	86.60
676.26	95.96
676.40	42.13
676.54	60.85
676.68	77.24
676.82	100.64
676.96	98.30
677.10	105.32
677.23	46.81
677.37	0.00
677.51	16.38
677.65	28.09
677.79	0.00
677.93	79.58
678.07	70.22
678.21	51.49
678.34	42.13
678.48	0.00
678.62	35.11
678.76	28.09
678.90	63.19
679.04	58.51
679.18	0.00
679.31	21.06
679.45	70.22
679.59	81.92
679.73	16.38
679.87	98.30
680.00	60.85
680.14	23.41
680.28	67.88
680.42	77.24
680.56	70.22
680.70	72.56
680.83	65.54
680.97	121.71
681.11	0.00
681.25	91.28
681.39	107.66
681.52	60.85
681.66	37.45
681.80	93.62
681.94	110.01
682.07	37.45
682.21	39.79
682.35	0.00
682.49	21.06
682.62	0.00
682.76	102.98
682.90	65.54
683.04	18.72
683.17	37.45
683.31	53.83
683.45	18.72
683.59	37.45
683.72	30.43
683.86	63.19
684.00	91.28
684.13	77.24
684.27	107.66
684.41	28.09
684.55	0.00
684.68	14.04
684.82	60.85
684.96	49.15
685.09	4.68
685.23	63.19
685.37	0.00
685.50	35.11
685.64	56.17
685.78	35.11
685.91	0.00
686.05	0.00
686.19	25.75
686.32	23.41
686.46	30.43
686.60	30.43
686.73	56.17
686.87	56.17
687.01	51.49
687.14	56.17
687.28	98.30
687.42	46.81
687.55	0.00
687.69	21.06
687.82	107.66
687.96	46.81
688.10	65.54
688.23	46.81
688.37	93.62
688.50	0.00
688.64	30.43
688.78	0.00
688.91	77.24
689.05	0.00
689.18	49.15
689.32	74.90
689.46	67.88
689.59	23.41
689.73	0.00
689.86	60.85
690.00	46.81
690.13	102.98
690.27	25.75
690.41	0.00
690.54	70.22
690.68	14.04
690.81	79.58
690.95	0.00
691.08	51.49
691.22	25.75
691.35	0.00
691.49	74.90
691.62	81.92
691.76	63.19
691.89	35.11
692.03	72.56
692.16	60.85
692.30	0.00
692.43	35.11
692.57	0.00
692.70	18.72
692.84	63.19
692.97	4.68
693.11	18.72
693.24	81.92
693.38	32.77
693.51	2.34
693.65	0.00
693.78	56.17
693.92	0.00
694.05	23.41
694.19	39.79
694.32	0.00
694.45	18.72
694.59	63.19
694.72	25.75
694.86	0.00
694.99	30.43
695.13	0.00
695.26	91.28
695.39	44.47
695.53	77.24
695.66	37.45
695.80	67.88
695.93	7.02
696.07	56.17
696.20	44.47
696.33	32.77
696.47	86.60
696.60	23.41
696.73	16.38
696.87	28.09
697.00	49.15
697.14	7.02
697.27	51.49
697.40	0.00
697.54	18.72
697.67	39.79
697.80	18.72
697.94	77.24
698.07	0.00
698.21	49.15
698.34	23.41
698.47	49.15
698.61	74.90
698.74	95.96
698.87	51.49
699.01	105.32
699.14	65.54
699.27	35.11
699.40	18.72
699.54	49.15
699.67	60.85
699.80	72.56
699.94	30.43
700.07	51.49
700.20	107.66
700.34	16.38
700.47	39.79
700.60	60.85
700.73	84.26
700.87	39.79
701.00	0.00
701.13	7.02
701.26	49.15
701.40	70.22
701.53	107.66
701.66	14.04
701.79	0.00
701.93	4.68
702.06	0.00
702.19	56.17
702.32	84.26
702.46	4.68
702.59	81.92
702.72	30.43
702.85	44.47
702.99	23.41
703.12	0.00
703.25	0.00
703.38	84.26
703.51	44.47
703.65	14.04
703.78	0.00
703.91	72.56
704.04	67.88
704.17	39.79
704.31	0.00
704.44	49.15
704.57	0.00
704.70	16.38
704.83	25.75
704.96	4.68
705.10	9.36
705.23	51.49
>>>>>End Processed Spectral Data<<<<<
