SpectraSuite Data File
++++++++++++++++++++++++++++++++++++
Date: Fri Oct 04 12:13:42 GMT-05:00 2013
User: price-jones
Dark Spectrum Present: No
Reference Spectrum Present: No
Number of Sampled Component Spectra: 1
Spectrometers: USB2+H05261
Integration Time (usec): 10000 (USB2+H05261)
Spectra Averaged: 1 (USB2+H05261)
Boxcar Smoothing: 0 (USB2+H05261)
Correct for Electrical Dark: No (USB2+H05261)
Strobe/Lamp Enabled: No (USB2+H05261)
Correct for Detector Non-linearity: No (USB2+H05261)
Correct for Stray Light: No (USB2+H05261)
Number of Pixels in Processed Spectrum: 2048
>>>>>Begin Processed Spectral Data<<<<<
365.73	0.00
365.92	0.00
366.12	0.00
366.32	0.00
366.52	0.00
366.72	0.00
366.91	0.00
367.11	0.00
367.31	0.00
367.51	0.00
367.70	0.00
367.90	0.00
368.10	0.00
368.30	0.00
368.49	0.00
368.69	0.00
368.89	0.00
369.09	0.00
369.28	0.00
369.48	0.00
369.68	0.00
369.87	0.00
370.07	0.00
370.27	0.00
370.47	0.00
370.66	0.00
370.86	0.00
371.06	0.00
371.25	28.09
371.45	0.00
371.65	9.36
371.84	0.00
372.04	39.79
372.24	0.00
372.44	18.72
372.63	32.77
372.83	35.11
373.03	21.06
373.22	28.09
373.42	51.49
373.62	0.00
373.81	23.41
374.01	42.13
374.21	9.36
374.40	37.45
374.60	44.47
374.79	70.22
374.99	0.00
375.19	28.09
375.38	28.09
375.58	0.00
375.78	49.15
375.97	35.11
376.17	70.22
376.37	77.24
376.56	25.75
376.76	35.11
376.95	11.70
377.15	46.81
377.35	23.41
377.54	0.00
377.74	53.83
377.93	25.75
378.13	2.34
378.33	0.00
378.52	14.04
378.72	60.85
378.91	0.00
379.11	0.00
379.31	7.02
379.50	72.56
379.70	7.02
379.89	105.32
380.09	0.00
380.28	0.00
380.48	0.00
380.68	58.51
380.87	0.00
381.07	42.13
381.26	0.00
381.46	0.00
381.65	35.11
381.85	0.00
382.04	0.00
382.24	91.28
382.43	112.35
382.63	9.36
382.83	7.02
383.02	86.60
383.22	0.00
383.41	0.00
383.61	2.34
383.80	74.90
384.00	0.00
384.19	0.00
384.39	67.88
384.58	0.00
384.78	2.34
384.97	7.02
385.17	0.00
385.36	56.17
385.56	37.45
385.75	16.38
385.95	44.47
386.14	16.38
386.34	44.47
386.53	88.94
386.72	0.00
386.92	46.81
387.11	74.90
387.31	4.68
387.50	4.68
387.70	53.83
387.89	28.09
388.09	0.00
388.28	46.81
388.48	0.00
388.67	79.58
388.86	81.92
389.06	46.81
389.25	0.00
389.45	0.00
389.64	9.36
389.84	81.92
390.03	0.00
390.22	39.79
390.42	39.79
390.61	63.19
390.81	18.72
391.00	0.00
391.19	0.00
391.39	84.26
391.58	56.17
391.78	77.24
391.97	30.43
392.16	16.38
392.36	7.02
392.55	25.75
392.75	4.68
392.94	70.22
393.13	60.85
393.33	0.00
393.52	32.77
393.71	11.70
393.91	63.19
394.10	18.72
394.29	0.00
394.49	0.00
394.68	16.38
394.88	46.81
395.07	44.47
395.26	30.43
395.46	39.79
395.65	11.70
395.84	16.38
396.04	91.28
396.23	49.15
396.42	11.70
396.62	23.41
396.81	0.00
397.00	0.00
397.19	0.00
397.39	30.43
397.58	0.00
397.77	60.85
397.97	0.00
398.16	9.36
398.35	58.51
398.55	14.04
398.74	51.49
398.93	49.15
399.12	0.00
399.32	39.79
399.51	0.00
399.70	42.13
399.90	60.85
400.09	30.43
400.28	0.00
400.47	72.56
400.67	28.09
400.86	74.90
401.05	88.94
401.24	53.83
401.44	2.34
401.63	67.88
401.82	39.79
402.01	44.47
402.21	4.68
402.40	98.30
402.59	30.43
402.78	37.45
402.97	65.54
403.17	42.13
403.36	95.96
403.55	7.02
403.74	0.00
403.93	0.00
404.13	46.81
404.32	28.09
404.51	39.79
404.70	0.00
404.89	46.81
405.09	35.11
405.28	67.88
405.47	88.94
405.66	25.75
405.85	60.85
406.05	16.38
406.24	16.38
406.43	28.09
406.62	28.09
406.81	4.68
407.00	70.22
407.20	35.11
407.39	30.43
407.58	58.51
407.77	25.75
407.96	0.00
408.15	60.85
408.34	46.81
408.54	37.45
408.73	46.81
408.92	2.34
409.11	0.00
409.30	53.83
409.49	46.81
409.68	16.38
409.87	42.13
410.07	44.47
410.26	0.00
410.45	0.00
410.64	11.70
410.83	37.45
411.02	4.68
411.21	18.72
411.40	2.34
411.59	0.00
411.78	25.75
411.98	65.54
412.17	49.15
412.36	7.02
412.55	0.00
412.74	14.04
412.93	56.17
413.12	0.00
413.31	28.09
413.50	30.43
413.69	28.09
413.88	35.11
414.07	0.00
414.26	102.98
414.45	56.17
414.64	60.85
414.83	0.00
415.02	56.17
415.22	102.98
415.41	98.30
415.60	107.66
415.79	0.00
415.98	0.00
416.17	63.19
416.36	21.06
416.55	135.75
416.74	37.45
416.93	42.13
417.12	37.45
417.31	77.24
417.50	77.24
417.69	60.85
417.88	35.11
418.07	16.38
418.26	60.85
418.45	0.00
418.64	11.70
418.83	30.43
419.02	25.75
419.21	81.92
419.39	58.51
419.58	0.00
419.77	0.00
419.96	39.79
420.15	35.11
420.34	21.06
420.53	28.09
420.72	67.88
420.91	44.47
421.10	81.92
421.29	32.77
421.48	114.69
421.67	21.06
421.86	9.36
422.05	63.19
422.24	81.92
422.43	79.58
422.61	0.00
422.80	100.64
422.99	30.43
423.18	67.88
423.37	67.88
423.56	0.00
423.75	51.49
423.94	72.56
424.13	39.79
424.32	16.38
424.50	60.85
424.69	25.75
424.88	88.94
425.07	30.43
425.26	42.13
425.45	0.00
425.64	0.00
425.83	4.68
426.01	0.00
426.20	39.79
426.39	86.60
426.58	65.54
426.77	63.19
426.96	65.54
427.15	18.72
427.33	39.79
427.52	25.75
427.71	138.09
427.90	16.38
428.09	16.38
428.28	88.94
428.46	9.36
428.65	91.28
428.84	44.47
429.03	21.06
429.22	14.04
429.40	37.45
429.59	67.88
429.78	79.58
429.97	14.04
430.16	95.96
430.34	63.19
430.53	25.75
430.72	77.24
430.91	32.77
431.10	4.68
431.28	7.02
431.47	30.43
431.66	28.09
431.85	49.15
432.03	11.70
432.22	67.88
432.41	79.58
432.60	49.15
432.79	70.22
432.97	25.75
433.16	25.75
433.35	4.68
433.54	58.51
433.72	93.62
433.91	44.47
434.10	77.24
434.28	51.49
434.47	35.11
434.66	102.98
434.85	67.88
435.03	126.39
435.22	53.83
435.41	21.06
435.59	37.45
435.78	23.41
435.97	84.26
436.16	37.45
436.34	11.70
436.53	51.49
436.72	28.09
436.90	98.30
437.09	11.70
437.28	0.00
437.46	72.56
437.65	42.13
437.84	11.70
438.02	65.54
438.21	32.77
438.40	63.19
438.58	0.00
438.77	49.15
438.96	46.81
439.14	0.00
439.33	51.49
439.52	67.88
439.70	58.51
439.89	56.17
440.08	35.11
440.26	39.79
440.45	44.47
440.63	39.79
440.82	25.75
441.01	25.75
441.19	91.28
441.38	30.43
441.57	35.11
441.75	11.70
441.94	0.00
442.12	72.56
442.31	0.00
442.50	60.85
442.68	86.60
442.87	0.00
443.05	88.94
443.24	9.36
443.43	60.85
443.61	56.17
443.80	0.00
443.98	35.11
444.17	28.09
444.35	77.24
444.54	65.54
444.73	74.90
444.91	60.85
445.10	84.26
445.28	51.49
445.47	16.38
445.65	42.13
445.84	39.79
446.02	77.24
446.21	74.90
446.39	14.04
446.58	0.00
446.77	4.68
446.95	51.49
447.14	140.43
447.32	39.79
447.51	42.13
447.69	65.54
447.88	74.90
448.06	35.11
448.25	30.43
448.43	0.00
448.62	30.43
448.80	44.47
448.99	2.34
449.17	81.92
449.36	51.49
449.54	67.88
449.73	11.70
449.91	21.06
450.10	42.13
450.28	88.94
450.46	105.32
450.65	133.41
450.83	49.15
451.02	102.98
451.20	42.13
451.39	44.47
451.57	86.60
451.76	65.54
451.94	67.88
452.13	67.88
452.31	105.32
452.49	140.43
452.68	121.71
452.86	2.34
453.05	49.15
453.23	58.51
453.42	58.51
453.60	21.06
453.78	112.35
453.97	35.11
454.15	16.38
454.34	39.79
454.52	119.37
454.70	70.22
454.89	42.13
455.07	0.00
455.26	100.64
455.44	63.19
455.62	72.56
455.81	0.00
455.99	100.64
456.17	79.58
456.36	56.17
456.54	51.49
456.73	105.32
456.91	42.13
457.09	88.94
457.28	30.43
457.46	58.51
457.64	70.22
457.83	46.81
458.01	56.17
458.19	0.00
458.38	25.75
458.56	65.54
458.74	32.77
458.93	28.09
459.11	0.00
459.29	4.68
459.48	74.90
459.66	56.17
459.84	117.03
460.03	16.38
460.21	84.26
460.39	88.94
460.57	128.73
460.76	91.28
460.94	44.47
461.12	53.83
461.31	58.51
461.49	35.11
461.67	39.79
461.85	88.94
462.04	65.54
462.22	142.77
462.40	46.81
462.59	18.72
462.77	46.81
462.95	51.49
463.13	93.62
463.32	35.11
463.50	72.56
463.68	23.41
463.86	100.64
464.05	49.15
464.23	39.79
464.41	49.15
464.59	86.60
464.78	77.24
464.96	77.24
465.14	11.70
465.32	70.22
465.50	42.13
465.69	86.60
465.87	84.26
466.05	49.15
466.23	25.75
466.41	0.00
466.60	18.72
466.78	39.79
466.96	51.49
467.14	46.81
467.32	95.96
467.51	44.47
467.69	95.96
467.87	44.47
468.05	0.00
468.23	63.19
468.41	74.90
468.60	44.47
468.78	142.77
468.96	56.17
469.14	53.83
469.32	70.22
469.50	32.77
469.69	56.17
469.87	88.94
470.05	39.79
470.23	84.26
470.41	14.04
470.59	81.92
470.77	88.94
470.95	79.58
471.14	133.41
471.32	30.43
471.50	124.05
471.68	51.49
471.86	110.01
472.04	53.83
472.22	56.17
472.40	16.38
472.58	60.85
472.77	58.51
472.95	79.58
473.13	105.32
473.31	145.11
473.49	53.83
473.67	16.38
473.85	46.81
474.03	60.85
474.21	56.17
474.39	25.75
474.57	21.06
474.75	25.75
474.93	60.85
475.12	44.47
475.30	79.58
475.48	53.83
475.66	91.28
475.84	0.00
476.02	18.72
476.20	53.83
476.38	86.60
476.56	39.79
476.74	46.81
476.92	98.30
477.10	121.71
477.28	58.51
477.46	102.98
477.64	63.19
477.82	63.19
478.00	0.00
478.18	0.00
478.36	100.64
478.54	49.15
478.72	86.60
478.90	23.41
479.08	88.94
479.26	105.32
479.44	35.11
479.62	42.13
479.80	100.64
479.98	114.69
480.16	74.90
480.34	91.28
480.52	35.11
480.70	72.56
480.88	72.56
481.06	49.15
481.24	56.17
481.41	67.88
481.59	88.94
481.77	21.06
481.95	0.00
482.13	18.72
482.31	25.75
482.49	74.90
482.67	77.24
482.85	35.11
483.03	37.45
483.21	44.47
483.39	81.92
483.57	21.06
483.74	74.90
483.92	95.96
484.10	39.79
484.28	84.26
484.46	77.24
484.64	107.66
484.82	35.11
485.00	95.96
485.18	121.71
485.35	65.54
485.53	58.51
485.71	51.49
485.89	110.01
486.07	86.60
486.25	91.28
486.43	74.90
486.61	46.81
486.78	84.26
486.96	53.83
487.14	81.92
487.32	46.81
487.50	25.75
487.68	70.22
487.85	112.35
488.03	0.00
488.21	100.64
488.39	58.51
488.57	126.39
488.75	74.90
488.92	86.60
489.10	70.22
489.28	46.81
489.46	114.69
489.64	51.49
489.81	88.94
489.99	128.73
490.17	56.17
490.35	119.37
490.53	46.81
490.70	44.47
490.88	126.39
491.06	44.47
491.24	81.92
491.41	25.75
491.59	79.58
491.77	39.79
491.95	126.39
492.13	72.56
492.30	77.24
492.48	37.45
492.66	74.90
492.84	58.51
493.01	112.35
493.19	51.49
493.37	126.39
493.54	133.41
493.72	170.86
493.90	42.13
494.08	91.28
494.25	49.15
494.43	79.58
494.61	102.98
494.79	65.54
494.96	58.51
495.14	102.98
495.32	70.22
495.49	65.54
495.67	95.96
495.85	67.88
496.02	95.96
496.20	79.58
496.38	95.96
496.55	112.35
496.73	135.75
496.91	0.00
497.09	86.60
497.26	107.66
497.44	95.96
497.62	81.92
497.79	70.22
497.97	131.07
498.14	131.07
498.32	84.26
498.50	46.81
498.67	98.30
498.85	65.54
499.03	37.45
499.20	37.45
499.38	84.26
499.56	152.13
499.73	105.32
499.91	81.92
500.08	133.41
500.26	110.01
500.44	168.52
500.61	25.75
500.79	117.03
500.97	42.13
501.14	142.77
501.32	131.07
501.49	67.88
501.67	98.30
501.84	77.24
502.02	35.11
502.20	49.15
502.37	79.58
502.55	105.32
502.72	91.28
502.90	166.18
503.07	135.75
503.25	70.22
503.43	110.01
503.60	112.35
503.78	77.24
503.95	4.68
504.13	4.68
504.30	98.30
504.48	21.06
504.65	91.28
504.83	0.00
505.01	60.85
505.18	110.01
505.36	49.15
505.53	102.98
505.71	53.83
505.88	163.84
506.06	128.73
506.23	119.37
506.41	124.05
506.58	107.66
506.76	58.51
506.93	93.62
507.11	63.19
507.28	107.66
507.46	39.79
507.63	39.79
507.81	124.05
507.98	53.83
508.16	102.98
508.33	70.22
508.50	126.39
508.68	114.69
508.85	81.92
509.03	84.26
509.20	81.92
509.38	152.13
509.55	35.11
509.73	72.56
509.90	166.18
510.08	159.16
510.25	74.90
510.42	84.26
510.60	168.52
510.77	86.60
510.95	138.09
511.12	72.56
511.30	84.26
511.47	156.82
511.64	81.92
511.82	121.71
511.99	117.03
512.17	114.69
512.34	126.39
512.51	117.03
512.69	110.01
512.86	28.09
513.04	58.51
513.21	60.85
513.38	84.26
513.56	107.66
513.73	114.69
513.90	138.09
514.08	124.05
514.25	79.58
514.43	72.56
514.60	100.64
514.77	86.60
514.95	56.17
515.12	25.75
515.29	21.06
515.47	56.17
515.64	84.26
515.81	79.58
515.99	46.81
516.16	100.64
516.33	30.43
516.51	79.58
516.68	51.49
516.85	37.45
517.03	88.94
517.20	79.58
517.37	81.92
517.54	110.01
517.72	65.54
517.89	56.17
518.06	74.90
518.24	77.24
518.41	44.47
518.58	110.01
518.75	32.77
518.93	131.07
519.10	147.45
519.27	58.51
519.45	23.41
519.62	37.45
519.79	60.85
519.96	102.98
520.14	51.49
520.31	93.62
520.48	46.81
520.65	110.01
520.83	112.35
521.00	53.83
521.17	70.22
521.34	30.43
521.52	102.98
521.69	58.51
521.86	107.66
522.03	65.54
522.20	95.96
522.38	58.51
522.55	93.62
522.72	74.90
522.89	79.58
523.07	70.22
523.24	16.38
523.41	117.03
523.58	135.75
523.75	128.73
523.92	107.66
524.10	107.66
524.27	98.30
524.44	93.62
524.61	63.19
524.78	138.09
524.96	119.37
525.13	37.45
525.30	124.05
525.47	70.22
525.64	7.02
525.81	91.28
525.98	93.62
526.16	107.66
526.33	0.00
526.50	58.51
526.67	46.81
526.84	11.70
527.01	119.37
527.18	37.45
527.36	81.92
527.53	88.94
527.70	140.43
527.87	79.58
528.04	56.17
528.21	140.43
528.38	117.03
528.55	0.00
528.72	70.22
528.89	126.39
529.07	102.98
529.24	67.88
529.41	100.64
529.58	105.32
529.75	119.37
529.92	105.32
530.09	147.45
530.26	84.26
530.43	128.73
530.60	117.03
530.77	28.09
530.94	93.62
531.11	70.22
531.28	142.77
531.46	81.92
531.63	88.94
531.80	133.41
531.97	95.96
532.14	60.85
532.31	39.79
532.48	21.06
532.65	91.28
532.82	7.02
532.99	84.26
533.16	51.49
533.33	46.81
533.50	79.58
533.67	110.01
533.84	51.49
534.01	131.07
534.18	58.51
534.35	95.96
534.52	126.39
534.69	105.32
534.86	81.92
535.03	105.32
535.20	93.62
535.37	102.98
535.54	53.83
535.71	128.73
535.88	53.83
536.05	79.58
536.22	65.54
536.38	163.84
536.55	100.64
536.72	46.81
536.89	72.56
537.06	42.13
537.23	102.98
537.40	7.02
537.57	65.54
537.74	25.75
537.91	51.49
538.08	177.88
538.25	67.88
538.42	100.64
538.59	0.00
538.75	88.94
538.92	88.94
539.09	16.38
539.26	91.28
539.43	112.35
539.60	44.47
539.77	112.35
539.94	79.58
540.11	166.18
540.28	161.50
540.44	49.15
540.61	93.62
540.78	112.35
540.95	86.60
541.12	67.88
541.29	77.24
541.46	112.35
541.62	81.92
541.79	95.96
541.96	44.47
542.13	63.19
542.30	121.71
542.47	58.51
542.63	180.22
542.80	77.24
542.97	105.32
543.14	37.45
543.31	100.64
543.48	93.62
543.64	70.22
543.81	131.07
543.98	110.01
544.15	74.90
544.32	95.96
544.48	98.30
544.65	81.92
544.82	0.00
544.99	110.01
545.16	117.03
545.32	100.64
545.49	74.90
545.66	35.11
545.83	105.32
546.00	25.75
546.16	63.19
546.33	51.49
546.50	51.49
546.67	117.03
546.83	79.58
547.00	72.56
547.17	124.05
547.34	112.35
547.50	56.17
547.67	81.92
547.84	112.35
548.00	110.01
548.17	39.79
548.34	126.39
548.51	93.62
548.67	95.96
548.84	74.90
549.01	0.00
549.18	56.17
549.34	14.04
549.51	53.83
549.68	79.58
549.84	98.30
550.01	16.38
550.18	58.51
550.34	88.94
550.51	147.45
550.68	67.88
550.84	46.81
551.01	105.32
551.18	49.15
551.34	25.75
551.51	121.71
551.68	88.94
551.84	46.81
552.01	126.39
552.18	121.71
552.34	124.05
552.51	93.62
552.68	60.85
552.84	35.11
553.01	114.69
553.18	49.15
553.34	112.35
553.51	77.24
553.67	114.69
553.84	84.26
554.01	56.17
554.17	112.35
554.34	173.20
554.51	42.13
554.67	51.49
554.84	91.28
555.00	51.49
555.17	74.90
555.33	86.60
555.50	49.15
555.67	21.06
555.83	56.17
556.00	21.06
556.16	133.41
556.33	119.37
556.50	44.47
556.66	131.07
556.83	100.64
556.99	39.79
557.16	95.96
557.32	86.60
557.49	0.00
557.65	60.85
557.82	72.56
557.98	56.17
558.15	114.69
558.32	81.92
558.48	119.37
558.65	39.79
558.81	74.90
558.98	105.32
559.14	65.54
559.31	135.75
559.47	117.03
559.64	105.32
559.80	67.88
559.97	58.51
560.13	51.49
560.30	84.26
560.46	44.47
560.63	53.83
560.79	32.77
560.96	72.56
561.12	79.58
561.29	133.41
561.45	77.24
561.61	46.81
561.78	105.32
561.94	67.88
562.11	16.38
562.27	107.66
562.44	58.51
562.60	58.51
562.77	145.11
562.93	72.56
563.10	77.24
563.26	88.94
563.42	46.81
563.59	0.00
563.75	14.04
563.92	65.54
564.08	79.58
564.24	77.24
564.41	154.48
564.57	67.88
564.74	138.09
564.90	72.56
565.07	77.24
565.23	100.64
565.39	124.05
565.56	25.75
565.72	65.54
565.88	65.54
566.05	105.32
566.21	0.00
566.38	60.85
566.54	175.54
566.70	102.98
566.87	119.37
567.03	112.35
567.19	112.35
567.36	70.22
567.52	77.24
567.68	42.13
567.85	21.06
568.01	49.15
568.17	88.94
568.34	44.47
568.50	18.72
568.66	72.56
568.83	98.30
568.99	53.83
569.15	81.92
569.32	42.13
569.48	35.11
569.64	49.15
569.81	159.16
569.97	88.94
570.13	58.51
570.30	21.06
570.46	49.15
570.62	112.35
570.78	163.84
570.95	126.39
571.11	86.60
571.27	46.81
571.43	0.00
571.60	133.41
571.76	35.11
571.92	79.58
572.09	117.03
572.25	25.75
572.41	102.98
572.57	42.13
572.74	114.69
572.90	91.28
573.06	49.15
573.22	67.88
573.38	95.96
573.55	72.56
573.71	119.37
573.87	4.68
574.03	133.41
574.20	119.37
574.36	56.17
574.52	93.62
574.68	79.58
574.84	86.60
575.01	51.49
575.17	102.98
575.33	74.90
575.49	142.77
575.65	67.88
575.82	84.26
575.98	133.41
576.14	65.54
576.30	147.45
576.46	60.85
576.62	58.51
576.79	131.07
576.95	65.54
577.11	14.04
577.27	74.90
577.43	63.19
577.59	107.66
577.75	67.88
577.92	81.92
578.08	39.79
578.24	114.69
578.40	32.77
578.56	53.83
578.72	142.77
578.88	93.62
579.04	35.11
579.21	65.54
579.37	128.73
579.53	81.92
579.69	91.28
579.85	56.17
580.01	79.58
580.17	156.82
580.33	117.03
580.49	58.51
580.65	51.49
580.82	32.77
580.98	95.96
581.14	32.77
581.30	114.69
581.46	70.22
581.62	16.38
581.78	67.88
581.94	159.16
582.10	67.88
582.26	84.26
582.42	72.56
582.58	81.92
582.74	107.66
582.90	72.56
583.06	35.11
583.22	117.03
583.38	95.96
583.54	110.01
583.70	107.66
583.86	84.26
584.02	131.07
584.18	58.51
584.34	110.01
584.50	117.03
584.66	77.24
584.82	95.96
584.98	67.88
585.14	100.64
585.30	72.56
585.46	70.22
585.62	51.49
585.78	37.45
585.94	53.83
586.10	91.28
586.26	51.49
586.42	23.41
586.58	67.88
586.74	72.56
586.90	81.92
587.06	70.22
587.22	56.17
587.38	37.45
587.54	67.88
587.70	51.49
587.86	81.92
588.02	117.03
588.18	74.90
588.34	95.96
588.49	91.28
588.65	74.90
588.81	42.13
588.97	51.49
589.13	133.41
589.29	51.49
589.45	23.41
589.61	93.62
589.77	79.58
589.93	30.43
590.08	128.73
590.24	114.69
590.40	51.49
590.56	121.71
590.72	9.36
590.88	39.79
591.04	88.94
591.20	37.45
591.35	35.11
591.51	93.62
591.67	102.98
591.83	133.41
591.99	16.38
592.15	58.51
592.31	86.60
592.46	56.17
592.62	98.30
592.78	58.51
592.94	44.47
593.10	51.49
593.26	30.43
593.41	16.38
593.57	60.85
593.73	102.98
593.89	51.49
594.05	72.56
594.20	42.13
594.36	95.96
594.52	53.83
594.68	91.28
594.84	88.94
594.99	133.41
595.15	121.71
595.31	114.69
595.47	95.96
595.62	39.79
595.78	56.17
595.94	79.58
596.10	114.69
596.25	49.15
596.41	77.24
596.57	102.98
596.73	18.72
596.88	95.96
597.04	110.01
597.20	105.32
597.36	49.15
597.51	74.90
597.67	44.47
597.83	16.38
597.99	79.58
598.14	56.17
598.30	86.60
598.46	88.94
598.61	77.24
598.77	25.75
598.93	154.48
599.09	112.35
599.24	30.43
599.40	14.04
599.56	88.94
599.71	0.00
599.87	117.03
600.03	30.43
600.18	58.51
600.34	86.60
600.50	18.72
600.65	65.54
600.81	81.92
600.97	0.00
601.12	32.77
601.28	25.75
601.44	121.71
601.59	95.96
601.75	100.64
601.91	74.90
602.06	70.22
602.22	30.43
602.37	93.62
602.53	72.56
602.69	124.05
602.84	0.00
603.00	142.77
603.16	53.83
603.31	28.09
603.47	91.28
603.62	58.51
603.78	60.85
603.94	98.30
604.09	7.02
604.25	77.24
604.40	35.11
604.56	98.30
604.71	81.92
604.87	35.11
605.03	84.26
605.18	46.81
605.34	84.26
605.49	133.41
605.65	102.98
605.80	28.09
605.96	65.54
606.12	16.38
606.27	88.94
606.43	30.43
606.58	72.56
606.74	70.22
606.89	91.28
607.05	79.58
607.20	124.05
607.36	74.90
607.51	74.90
607.67	105.32
607.82	30.43
607.98	149.79
608.13	107.66
608.29	91.28
608.44	81.92
608.60	42.13
608.75	107.66
608.91	112.35
609.06	95.96
609.22	58.51
609.37	74.90
609.53	7.02
609.68	42.13
609.84	117.03
609.99	88.94
610.15	102.98
610.30	95.96
610.46	98.30
610.61	56.17
610.76	98.30
610.92	49.15
611.07	140.43
611.23	77.24
611.38	58.51
611.54	79.58
611.69	100.64
611.84	126.39
612.00	126.39
612.15	72.56
612.31	100.64
612.46	39.79
612.62	117.03
612.77	93.62
612.92	135.75
613.08	37.45
613.23	142.77
613.39	70.22
613.54	39.79
613.69	86.60
613.85	44.47
614.00	2.34
614.15	51.49
614.31	0.00
614.46	49.15
614.62	14.04
614.77	72.56
614.92	60.85
615.08	21.06
615.23	9.36
615.38	173.20
615.54	112.35
615.69	35.11
615.84	81.92
616.00	14.04
616.15	39.79
616.30	105.32
616.46	154.48
616.61	88.94
616.76	42.13
616.92	128.73
617.07	74.90
617.22	93.62
617.37	114.69
617.53	35.11
617.68	86.60
617.83	91.28
617.99	124.05
618.14	72.56
618.29	58.51
618.45	95.96
618.60	88.94
618.75	63.19
618.90	95.96
619.06	70.22
619.21	0.00
619.36	95.96
619.51	58.51
619.67	23.41
619.82	95.96
619.97	93.62
620.12	49.15
620.28	35.11
620.43	128.73
620.58	46.81
620.73	86.60
620.89	93.62
621.04	84.26
621.19	98.30
621.34	100.64
621.49	98.30
621.65	93.62
621.80	72.56
621.95	60.85
622.10	14.04
622.25	32.77
622.41	0.00
622.56	95.96
622.71	88.94
622.86	81.92
623.01	67.88
623.16	163.84
623.32	58.51
623.47	63.19
623.62	86.60
623.77	79.58
623.92	39.79
624.07	14.04
624.23	0.00
624.38	56.17
624.53	56.17
624.68	60.85
624.83	39.79
624.98	67.88
625.13	67.88
625.29	131.07
625.44	53.83
625.59	79.58
625.74	107.66
625.89	39.79
626.04	88.94
626.19	100.64
626.34	84.26
626.49	63.19
626.65	53.83
626.80	42.13
626.95	86.60
627.10	58.51
627.25	53.83
627.40	84.26
627.55	67.88
627.70	67.88
627.85	81.92
628.00	67.88
628.15	21.06
628.30	65.54
628.45	53.83
628.60	86.60
628.76	105.32
628.91	32.77
629.06	0.00
629.21	98.30
629.36	25.75
629.51	30.43
629.66	9.36
629.81	93.62
629.96	0.00
630.11	42.13
630.26	0.00
630.41	28.09
630.56	86.60
630.71	84.26
630.86	124.05
631.01	63.19
631.16	126.39
631.31	49.15
631.46	60.85
631.61	124.05
631.76	91.28
631.91	79.58
632.06	51.49
632.21	37.45
632.36	133.41
632.51	72.56
632.66	39.79
632.81	23.41
632.96	93.62
633.10	42.13
633.25	67.88
633.40	70.22
633.55	63.19
633.70	126.39
633.85	72.56
634.00	25.75
634.15	67.88
634.30	67.88
634.45	81.92
634.60	44.47
634.75	25.75
634.90	110.01
635.05	53.83
635.19	58.51
635.34	56.17
635.49	51.49
635.64	88.94
635.79	35.11
635.94	23.41
636.09	98.30
636.24	77.24
636.39	74.90
636.53	67.88
636.68	53.83
636.83	0.00
636.98	79.58
637.13	119.37
637.28	105.32
637.43	88.94
637.57	70.22
637.72	32.77
637.87	44.47
638.02	93.62
638.17	46.81
638.32	56.17
638.46	98.30
638.61	23.41
638.76	112.35
638.91	49.15
639.06	42.13
639.20	63.19
639.35	42.13
639.50	14.04
639.65	28.09
639.80	81.92
639.94	11.70
640.09	81.92
640.24	98.30
640.39	95.96
640.54	16.38
640.68	37.45
640.83	86.60
640.98	7.02
641.13	67.88
641.27	88.94
641.42	0.00
641.57	70.22
641.72	37.45
641.86	74.90
642.01	98.30
642.16	49.15
642.31	110.01
642.45	44.47
642.60	114.69
642.75	16.38
642.90	53.83
643.04	126.39
643.19	32.77
643.34	11.70
643.48	32.77
643.63	49.15
643.78	119.37
643.93	11.70
644.07	65.54
644.22	84.26
644.37	63.19
644.51	7.02
644.66	112.35
644.81	25.75
644.95	131.07
645.10	28.09
645.25	25.75
645.39	58.51
645.54	84.26
645.69	81.92
645.83	42.13
645.98	128.73
646.13	81.92
646.27	58.51
646.42	39.79
646.57	37.45
646.71	0.00
646.86	0.00
647.00	23.41
647.15	53.83
647.30	37.45
647.44	102.98
647.59	84.26
647.74	58.51
647.88	44.47
648.03	63.19
648.17	86.60
648.32	65.54
648.47	14.04
648.61	30.43
648.76	91.28
648.90	95.96
649.05	32.77
649.20	32.77
649.34	49.15
649.49	51.49
649.63	46.81
649.78	98.30
649.92	74.90
650.07	72.56
650.21	25.75
650.36	18.72
650.51	88.94
650.65	49.15
650.80	25.75
650.94	39.79
651.09	0.00
651.23	32.77
651.38	60.85
651.52	91.28
651.67	21.06
651.81	60.85
651.96	35.11
652.10	51.49
652.25	21.06
652.39	67.88
652.54	53.83
652.68	0.00
652.83	98.30
652.97	93.62
653.12	102.98
653.26	156.82
653.41	35.11
653.55	0.00
653.70	21.06
653.84	56.17
653.99	23.41
654.13	11.70
654.27	110.01
654.42	32.77
654.56	147.45
654.71	70.22
654.85	72.56
655.00	32.77
655.14	102.98
655.29	56.17
655.43	72.56
655.57	65.54
655.72	7.02
655.86	37.45
656.01	70.22
656.15	159.16
656.30	21.06
656.44	2.34
656.58	46.81
656.73	74.90
656.87	0.00
657.01	70.22
657.16	67.88
657.30	79.58
657.45	98.30
657.59	25.75
657.73	30.43
657.88	86.60
658.02	28.09
658.16	98.30
658.31	25.75
658.45	72.56
658.60	91.28
658.74	28.09
658.88	9.36
659.03	72.56
659.17	84.26
659.31	147.45
659.46	44.47
659.60	49.15
659.74	84.26
659.89	0.00
660.03	56.17
660.17	14.04
660.32	60.85
660.46	44.47
660.60	138.09
660.74	18.72
660.89	0.00
661.03	117.03
661.17	58.51
661.32	84.26
661.46	0.00
661.60	107.66
661.74	70.22
661.89	60.85
662.03	95.96
662.17	67.88
662.31	37.45
662.46	70.22
662.60	107.66
662.74	32.77
662.88	0.00
663.03	56.17
663.17	81.92
663.31	49.15
663.45	35.11
663.60	46.81
663.74	60.85
663.88	65.54
664.02	0.00
664.17	30.43
664.31	42.13
664.45	79.58
664.59	0.00
664.73	93.62
664.88	25.75
665.02	35.11
665.16	39.79
665.30	86.60
665.44	56.17
665.59	23.41
665.73	37.45
665.87	77.24
666.01	39.79
666.15	35.11
666.29	117.03
666.44	0.00
666.58	25.75
666.72	39.79
666.86	112.35
667.00	39.79
667.14	32.77
667.28	126.39
667.43	84.26
667.57	37.45
667.71	95.96
667.85	67.88
667.99	28.09
668.13	0.00
668.27	2.34
668.41	42.13
668.56	60.85
668.70	14.04
668.84	16.38
668.98	23.41
669.12	79.58
669.26	56.17
669.40	91.28
669.54	58.51
669.68	37.45
669.82	84.26
669.96	4.68
670.10	25.75
670.25	18.72
670.39	51.49
670.53	142.77
670.67	93.62
670.81	0.00
670.95	42.13
671.09	81.92
671.23	58.51
671.37	74.90
671.51	32.77
671.65	74.90
671.79	39.79
671.93	37.45
672.07	0.00
672.21	30.43
672.35	0.00
672.49	0.00
672.63	60.85
672.77	37.45
672.91	42.13
673.05	0.00
673.19	56.17
673.33	72.56
673.47	65.54
673.61	23.41
673.75	42.13
673.89	25.75
674.03	51.49
674.17	56.17
674.31	49.15
674.45	16.38
674.59	67.88
674.73	37.45
674.87	77.24
675.01	112.35
675.15	98.30
675.29	81.92
675.43	53.83
675.56	51.49
675.70	42.13
675.84	28.09
675.98	18.72
676.12	42.13
676.26	0.00
676.40	84.26
676.54	0.00
676.68	95.96
676.82	35.11
676.96	49.15
677.10	53.83
677.23	23.41
677.37	77.24
677.51	44.47
677.65	0.00
677.79	0.00
677.93	53.83
678.07	77.24
678.21	37.45
678.34	0.00
678.48	35.11
678.62	0.00
678.76	63.19
678.90	91.28
679.04	18.72
679.18	16.38
679.31	0.00
679.45	32.77
679.59	25.75
679.73	67.88
679.87	14.04
680.00	21.06
680.14	7.02
680.28	16.38
680.42	100.64
680.56	30.43
680.70	35.11
680.83	44.47
680.97	42.13
681.11	30.43
681.25	53.83
681.39	42.13
681.52	67.88
681.66	18.72
681.80	79.58
681.94	46.81
682.07	86.60
682.21	58.51
682.35	93.62
682.49	0.00
682.62	0.00
682.76	79.58
682.90	14.04
683.04	58.51
683.17	72.56
683.31	93.62
683.45	44.47
683.59	100.64
683.72	4.68
683.86	42.13
684.00	79.58
684.13	121.71
684.27	79.58
684.41	46.81
684.55	28.09
684.68	11.70
684.82	53.83
684.96	70.22
685.09	49.15
685.23	0.00
685.37	77.24
685.50	4.68
685.64	112.35
685.78	95.96
685.91	60.85
686.05	124.05
686.19	56.17
686.32	0.00
686.46	21.06
686.60	18.72
686.73	35.11
686.87	28.09
687.01	49.15
687.14	49.15
687.28	0.00
687.42	14.04
687.55	56.17
687.69	11.70
687.82	25.75
687.96	44.47
688.10	67.88
688.23	0.00
688.37	56.17
688.50	53.83
688.64	30.43
688.78	28.09
688.91	32.77
689.05	63.19
689.18	0.00
689.32	39.79
689.46	56.17
689.59	46.81
689.73	91.28
689.86	65.54
690.00	84.26
690.13	44.47
690.27	9.36
690.41	16.38
690.54	79.58
690.68	0.00
690.81	84.26
690.95	49.15
691.08	86.60
691.22	51.49
691.35	0.00
691.49	7.02
691.62	79.58
691.76	107.66
691.89	60.85
692.03	28.09
692.16	46.81
692.30	107.66
692.43	72.56
692.57	121.71
692.70	56.17
692.84	35.11
692.97	0.00
693.11	0.00
693.24	39.79
693.38	53.83
693.51	93.62
693.65	65.54
693.78	32.77
693.92	2.34
694.05	0.00
694.19	0.00
694.32	58.51
694.45	39.79
694.59	25.75
694.72	14.04
694.86	4.68
694.99	37.45
695.13	72.56
695.26	39.79
695.39	65.54
695.53	77.24
695.66	124.05
695.80	14.04
695.93	0.00
696.07	0.00
696.20	11.70
696.33	32.77
696.47	35.11
696.60	39.79
696.73	140.43
696.87	18.72
697.00	105.32
697.14	58.51
697.27	65.54
697.40	0.00
697.54	84.26
697.67	28.09
697.80	88.94
697.94	44.47
698.07	46.81
698.21	30.43
698.34	28.09
698.47	58.51
698.61	0.00
698.74	77.24
698.87	30.43
699.01	35.11
699.14	30.43
699.27	46.81
699.40	25.75
699.54	70.22
699.67	4.68
699.80	0.00
699.94	25.75
700.07	30.43
700.20	7.02
700.34	16.38
700.47	65.54
700.60	0.00
700.73	95.96
700.87	77.24
701.00	53.83
701.13	53.83
701.26	135.75
701.40	0.00
701.53	107.66
701.66	74.90
701.79	119.37
701.93	114.69
702.06	63.19
702.19	84.26
702.32	0.00
702.46	0.00
702.59	11.70
702.72	0.00
702.85	77.24
702.99	84.26
703.12	70.22
703.25	51.49
703.38	53.83
703.51	7.02
703.65	0.00
703.78	44.47
703.91	0.00
704.04	60.85
704.17	28.09
704.31	58.51
704.44	107.66
704.57	44.47
704.70	14.04
704.83	110.01
704.96	67.88
705.10	11.70
705.23	51.49
>>>>>End Processed Spectral Data<<<<<
