SpectraSuite Data File
++++++++++++++++++++++++++++++++++++
Date: Fri Oct 04 12:13:24 GMT-05:00 2013
User: price-jones
Dark Spectrum Present: No
Reference Spectrum Present: No
Number of Sampled Component Spectra: 1
Spectrometers: USB2+H05261
Integration Time (usec): 10000 (USB2+H05261)
Spectra Averaged: 1 (USB2+H05261)
Boxcar Smoothing: 0 (USB2+H05261)
Correct for Electrical Dark: No (USB2+H05261)
Strobe/Lamp Enabled: No (USB2+H05261)
Correct for Detector Non-linearity: No (USB2+H05261)
Correct for Stray Light: No (USB2+H05261)
Number of Pixels in Processed Spectrum: 2048
>>>>>Begin Processed Spectral Data<<<<<
365.73	0.00
365.92	0.00
366.12	0.00
366.32	0.00
366.52	0.00
366.72	0.00
366.91	0.00
367.11	0.00
367.31	0.00
367.51	0.00
367.70	0.00
367.90	0.00
368.10	0.00
368.30	0.00
368.49	0.00
368.69	0.00
368.89	0.00
369.09	0.00
369.28	0.00
369.48	0.00
369.68	0.00
369.87	0.00
370.07	0.00
370.27	0.00
370.47	0.00
370.66	0.00
370.86	0.00
371.06	0.00
371.25	0.00
371.45	0.00
371.65	0.00
371.84	0.00
372.04	0.00
372.24	0.00
372.44	0.00
372.63	0.00
372.83	35.11
373.03	2.34
373.22	51.49
373.42	2.34
373.62	0.00
373.81	0.00
374.01	100.64
374.21	0.00
374.40	37.45
374.60	42.13
374.79	25.75
374.99	0.00
375.19	39.79
375.38	2.34
375.58	35.11
375.78	91.28
375.97	35.11
376.17	105.32
376.37	42.13
376.56	86.60
376.76	25.75
376.95	0.00
377.15	7.02
377.35	65.54
377.54	0.00
377.74	0.00
377.93	39.79
378.13	63.19
378.33	28.09
378.52	23.41
378.72	2.34
378.91	0.00
379.11	30.43
379.31	21.06
379.50	28.09
379.70	0.00
379.89	23.41
380.09	0.00
380.28	0.00
380.48	0.00
380.68	0.00
380.87	0.00
381.07	4.68
381.26	0.00
381.46	0.00
381.65	0.00
381.85	28.09
382.04	0.00
382.24	0.00
382.43	63.19
382.63	32.77
382.83	42.13
383.02	0.00
383.22	0.00
383.41	18.72
383.61	0.00
383.80	25.75
384.00	16.38
384.19	107.66
384.39	11.70
384.58	65.54
384.78	9.36
384.97	112.35
385.17	35.11
385.36	39.79
385.56	23.41
385.75	0.00
385.95	18.72
386.14	0.00
386.34	30.43
386.53	32.77
386.72	0.00
386.92	44.47
387.11	0.00
387.31	0.00
387.50	72.56
387.70	35.11
387.89	28.09
388.09	49.15
388.28	32.77
388.48	0.00
388.67	79.58
388.86	44.47
389.06	25.75
389.25	60.85
389.45	23.41
389.64	51.49
389.84	7.02
390.03	49.15
390.22	21.06
390.42	32.77
390.61	0.00
390.81	18.72
391.00	51.49
391.19	7.02
391.39	46.81
391.58	53.83
391.78	35.11
391.97	49.15
392.16	67.88
392.36	0.00
392.55	46.81
392.75	0.00
392.94	58.51
393.13	21.06
393.33	63.19
393.52	0.00
393.71	0.00
393.91	81.92
394.10	60.85
394.29	14.04
394.49	0.00
394.68	30.43
394.88	131.07
395.07	0.00
395.26	9.36
395.46	9.36
395.65	18.72
395.84	72.56
396.04	77.24
396.23	0.00
396.42	0.00
396.62	0.00
396.81	0.00
397.00	23.41
397.19	0.00
397.39	51.49
397.58	9.36
397.77	70.22
397.97	42.13
398.16	42.13
398.35	9.36
398.55	0.00
398.74	42.13
398.93	0.00
399.12	14.04
399.32	4.68
399.51	70.22
399.70	18.72
399.90	30.43
400.09	28.09
400.28	74.90
400.47	79.58
400.67	58.51
400.86	44.47
401.05	28.09
401.24	0.00
401.44	0.00
401.63	21.06
401.82	35.11
402.01	42.13
402.21	30.43
402.40	53.83
402.59	0.00
402.78	51.49
402.97	2.34
403.17	0.00
403.36	53.83
403.55	0.00
403.74	0.00
403.93	0.00
404.13	4.68
404.32	46.81
404.51	0.00
404.70	0.00
404.89	0.00
405.09	32.77
405.28	25.75
405.47	7.02
405.66	60.85
405.85	0.00
406.05	0.00
406.24	28.09
406.43	46.81
406.62	0.00
406.81	0.00
407.00	37.45
407.20	11.70
407.39	0.00
407.58	32.77
407.77	42.13
407.96	60.85
408.15	44.47
408.34	53.83
408.54	0.00
408.73	0.00
408.92	63.19
409.11	0.00
409.30	81.92
409.49	25.75
409.68	0.00
409.87	0.00
410.07	23.41
410.26	86.60
410.45	79.58
410.64	65.54
410.83	4.68
411.02	0.00
411.21	72.56
411.40	60.85
411.59	93.62
411.78	39.79
411.98	42.13
412.17	25.75
412.36	95.96
412.55	72.56
412.74	4.68
412.93	37.45
413.12	39.79
413.31	0.00
413.50	46.81
413.69	72.56
413.88	74.90
414.07	51.49
414.26	93.62
414.45	67.88
414.64	58.51
414.83	18.72
415.02	0.00
415.22	0.00
415.41	77.24
415.60	28.09
415.79	18.72
415.98	32.77
416.17	37.45
416.36	60.85
416.55	42.13
416.74	95.96
416.93	0.00
417.12	46.81
417.31	18.72
417.50	30.43
417.69	72.56
417.88	60.85
418.07	37.45
418.26	53.83
418.45	70.22
418.64	119.37
418.83	46.81
419.02	39.79
419.21	25.75
419.39	37.45
419.58	14.04
419.77	18.72
419.96	67.88
420.15	46.81
420.34	105.32
420.53	65.54
420.72	7.02
420.91	0.00
421.10	0.00
421.29	0.00
421.48	30.43
421.67	0.00
421.86	4.68
422.05	18.72
422.24	84.26
422.43	0.00
422.61	21.06
422.80	53.83
422.99	63.19
423.18	51.49
423.37	37.45
423.56	37.45
423.75	53.83
423.94	16.38
424.13	39.79
424.32	77.24
424.50	67.88
424.69	0.00
424.88	0.00
425.07	0.00
425.26	30.43
425.45	32.77
425.64	2.34
425.83	37.45
426.01	0.00
426.20	72.56
426.39	0.00
426.58	63.19
426.77	0.00
426.96	18.72
427.15	11.70
427.33	42.13
427.52	32.77
427.71	28.09
427.90	56.17
428.09	63.19
428.28	32.77
428.46	16.38
428.65	37.45
428.84	56.17
429.03	25.75
429.22	0.00
429.40	84.26
429.59	0.00
429.78	0.00
429.97	60.85
430.16	42.13
430.34	25.75
430.53	0.00
430.72	14.04
430.91	46.81
431.10	95.96
431.28	0.00
431.47	0.00
431.66	0.00
431.85	0.00
432.03	0.00
432.22	70.22
432.41	18.72
432.60	0.00
432.79	0.00
432.97	7.02
433.16	0.00
433.35	0.00
433.54	32.77
433.72	53.83
433.91	25.75
434.10	14.04
434.28	0.00
434.47	28.09
434.66	28.09
434.85	28.09
435.03	23.41
435.22	105.32
435.41	86.60
435.59	72.56
435.78	28.09
435.97	7.02
436.16	0.00
436.34	23.41
436.53	58.51
436.72	44.47
436.90	58.51
437.09	79.58
437.28	42.13
437.46	0.00
437.65	49.15
437.84	0.00
438.02	25.75
438.21	11.70
438.40	51.49
438.58	30.43
438.77	23.41
438.96	25.75
439.14	32.77
439.33	14.04
439.52	4.68
439.70	74.90
439.89	16.38
440.08	4.68
440.26	0.00
440.45	14.04
440.63	39.79
440.82	0.00
441.01	0.00
441.19	0.00
441.38	42.13
441.57	70.22
441.75	42.13
441.94	39.79
442.12	110.01
442.31	37.45
442.50	42.13
442.68	0.00
442.87	23.41
443.05	0.00
443.24	65.54
443.43	65.54
443.61	70.22
443.80	25.75
443.98	23.41
444.17	28.09
444.35	0.00
444.54	37.45
444.73	7.02
444.91	0.00
445.10	0.00
445.28	23.41
445.47	53.83
445.65	14.04
445.84	23.41
446.02	30.43
446.21	2.34
446.39	0.00
446.58	23.41
446.77	42.13
446.95	63.19
447.14	0.00
447.32	42.13
447.51	51.49
447.69	25.75
447.88	0.00
448.06	0.00
448.25	79.58
448.43	42.13
448.62	35.11
448.80	0.00
448.99	32.77
449.17	46.81
449.36	25.75
449.54	0.00
449.73	70.22
449.91	49.15
450.10	0.00
450.28	0.00
450.46	30.43
450.65	28.09
450.83	81.92
451.02	0.00
451.20	7.02
451.39	56.17
451.57	0.00
451.76	0.00
451.94	72.56
452.13	56.17
452.31	23.41
452.49	30.43
452.68	67.88
452.86	23.41
453.05	18.72
453.23	4.68
453.42	7.02
453.60	28.09
453.78	37.45
453.97	88.94
454.15	49.15
454.34	25.75
454.52	30.43
454.70	9.36
454.89	51.49
455.07	74.90
455.26	0.00
455.44	0.00
455.62	49.15
455.81	4.68
455.99	23.41
456.17	16.38
456.36	9.36
456.54	0.00
456.73	49.15
456.91	28.09
457.09	14.04
457.28	140.43
457.46	39.79
457.64	53.83
457.83	32.77
458.01	25.75
458.19	39.79
458.38	23.41
458.56	0.00
458.74	23.41
458.93	100.64
459.11	0.00
459.29	49.15
459.48	37.45
459.66	14.04
459.84	72.56
460.03	14.04
460.21	14.04
460.39	11.70
460.57	74.90
460.76	51.49
460.94	0.00
461.12	39.79
461.31	4.68
461.49	53.83
461.67	35.11
461.85	0.00
462.04	0.00
462.22	145.11
462.40	51.49
462.59	74.90
462.77	51.49
462.95	37.45
463.13	28.09
463.32	0.00
463.50	14.04
463.68	105.32
463.86	0.00
464.05	0.00
464.23	67.88
464.41	0.00
464.59	35.11
464.78	25.75
464.96	18.72
465.14	110.01
465.32	107.66
465.50	58.51
465.69	9.36
465.87	42.13
466.05	51.49
466.23	63.19
466.41	142.77
466.60	58.51
466.78	0.00
466.96	7.02
467.14	0.00
467.32	21.06
467.51	42.13
467.69	56.17
467.87	58.51
468.05	32.77
468.23	0.00
468.41	56.17
468.60	32.77
468.78	0.00
468.96	35.11
469.14	88.94
469.32	107.66
469.50	56.17
469.69	0.00
469.87	4.68
470.05	35.11
470.23	42.13
470.41	21.06
470.59	63.19
470.77	30.43
470.95	11.70
471.14	14.04
471.32	11.70
471.50	23.41
471.68	84.26
471.86	0.00
472.04	0.00
472.22	0.00
472.40	0.00
472.58	9.36
472.77	0.00
472.95	28.09
473.13	72.56
473.31	72.56
473.49	93.62
473.67	65.54
473.85	30.43
474.03	28.09
474.21	9.36
474.39	0.00
474.57	16.38
474.75	42.13
474.93	37.45
475.12	65.54
475.30	18.72
475.48	110.01
475.66	21.06
475.84	51.49
476.02	117.03
476.20	32.77
476.38	0.00
476.56	60.85
476.74	93.62
476.92	102.98
477.10	49.15
477.28	7.02
477.46	46.81
477.64	44.47
477.82	42.13
478.00	44.47
478.18	18.72
478.36	0.00
478.54	42.13
478.72	0.00
478.90	70.22
479.08	23.41
479.26	16.38
479.44	0.00
479.62	56.17
479.80	133.41
479.98	23.41
480.16	0.00
480.34	0.00
480.52	67.88
480.70	93.62
480.88	4.68
481.06	58.51
481.24	42.13
481.41	86.60
481.59	0.00
481.77	51.49
481.95	81.92
482.13	0.00
482.31	35.11
482.49	56.17
482.67	0.00
482.85	60.85
483.03	0.00
483.21	49.15
483.39	0.00
483.57	51.49
483.74	18.72
483.92	65.54
484.10	0.00
484.28	42.13
484.46	98.30
484.64	25.75
484.82	7.02
485.00	42.13
485.18	16.38
485.35	67.88
485.53	35.11
485.71	7.02
485.89	0.00
486.07	9.36
486.25	0.00
486.43	37.45
486.61	117.03
486.78	51.49
486.96	88.94
487.14	39.79
487.32	9.36
487.50	51.49
487.68	49.15
487.85	67.88
488.03	74.90
488.21	0.00
488.39	91.28
488.57	79.58
488.75	14.04
488.92	65.54
489.10	23.41
489.28	0.00
489.46	16.38
489.64	0.00
489.81	65.54
489.99	28.09
490.17	84.26
490.35	25.75
490.53	63.19
490.70	18.72
490.88	105.32
491.06	0.00
491.24	30.43
491.41	0.00
491.59	39.79
491.77	18.72
491.95	56.17
492.13	0.00
492.30	25.75
492.48	72.56
492.66	95.96
492.84	0.00
493.01	53.83
493.19	77.24
493.37	105.32
493.54	88.94
493.72	56.17
493.90	0.00
494.08	0.00
494.25	37.45
494.43	67.88
494.61	91.28
494.79	67.88
494.96	72.56
495.14	0.00
495.32	0.00
495.49	60.85
495.67	11.70
495.85	37.45
496.02	56.17
496.20	0.00
496.38	30.43
496.55	0.00
496.73	0.00
496.91	11.70
497.09	86.60
497.26	133.41
497.44	0.00
497.62	0.00
497.79	25.75
497.97	70.22
498.14	9.36
498.32	74.90
498.50	51.49
498.67	84.26
498.85	91.28
499.03	21.06
499.20	32.77
499.38	63.19
499.56	79.58
499.73	7.02
499.91	28.09
500.08	105.32
500.26	39.79
500.44	4.68
500.61	21.06
500.79	23.41
500.97	32.77
501.14	0.00
501.32	28.09
501.49	49.15
501.67	98.30
501.84	58.51
502.02	28.09
502.20	102.98
502.37	60.85
502.55	0.00
502.72	74.90
502.90	14.04
503.07	117.03
503.25	42.13
503.43	60.85
503.60	28.09
503.78	2.34
503.95	65.54
504.13	65.54
504.30	49.15
504.48	37.45
504.65	28.09
504.83	30.43
505.01	67.88
505.18	124.05
505.36	42.13
505.53	37.45
505.71	72.56
505.88	86.60
506.06	23.41
506.23	79.58
506.41	28.09
506.58	42.13
506.76	14.04
506.93	21.06
507.11	42.13
507.28	9.36
507.46	93.62
507.63	23.41
507.81	14.04
507.98	56.17
508.16	21.06
508.33	60.85
508.50	67.88
508.68	44.47
508.85	7.02
509.03	93.62
509.20	4.68
509.38	35.11
509.55	128.73
509.73	70.22
509.90	46.81
510.08	11.70
510.25	77.24
510.42	21.06
510.60	0.00
510.77	84.26
510.95	58.51
511.12	21.06
511.30	70.22
511.47	30.43
511.64	30.43
511.82	93.62
511.99	44.47
512.17	49.15
512.34	35.11
512.51	16.38
512.69	46.81
512.86	23.41
513.04	0.00
513.21	0.00
513.38	0.00
513.56	49.15
513.73	28.09
513.90	93.62
514.08	70.22
514.25	18.72
514.43	0.00
514.60	124.05
514.77	79.58
514.95	0.00
515.12	28.09
515.29	51.49
515.47	84.26
515.64	63.19
515.81	25.75
515.99	11.70
516.16	7.02
516.33	63.19
516.51	77.24
516.68	35.11
516.85	65.54
517.03	16.38
517.20	51.49
517.37	18.72
517.54	154.48
517.72	11.70
517.89	53.83
518.06	44.47
518.24	70.22
518.41	49.15
518.58	23.41
518.75	63.19
518.93	30.43
519.10	51.49
519.27	9.36
519.45	63.19
519.62	25.75
519.79	42.13
519.96	74.90
520.14	0.00
520.31	21.06
520.48	67.88
520.65	32.77
520.83	56.17
521.00	0.00
521.17	0.00
521.34	42.13
521.52	4.68
521.69	74.90
521.86	30.43
522.03	128.73
522.20	42.13
522.38	42.13
522.55	0.00
522.72	0.00
522.89	56.17
523.07	42.13
523.24	14.04
523.41	84.26
523.58	37.45
523.75	53.83
523.92	0.00
524.10	14.04
524.27	79.58
524.44	56.17
524.61	23.41
524.78	0.00
524.96	21.06
525.13	100.64
525.30	51.49
525.47	60.85
525.64	0.00
525.81	2.34
525.98	25.75
526.16	51.49
526.33	32.77
526.50	28.09
526.67	95.96
526.84	0.00
527.01	32.77
527.18	14.04
527.36	0.00
527.53	126.39
527.70	32.77
527.87	70.22
528.04	37.45
528.21	18.72
528.38	0.00
528.55	51.49
528.72	16.38
528.89	56.17
529.07	0.00
529.24	65.54
529.41	49.15
529.58	63.19
529.75	14.04
529.92	0.00
530.09	42.13
530.26	18.72
530.43	18.72
530.60	0.00
530.77	0.00
530.94	100.64
531.11	14.04
531.28	44.47
531.46	95.96
531.63	4.68
531.80	44.47
531.97	39.79
532.14	44.47
532.31	93.62
532.48	77.24
532.65	74.90
532.82	9.36
532.99	56.17
533.16	28.09
533.33	9.36
533.50	56.17
533.67	23.41
533.84	7.02
534.01	35.11
534.18	0.00
534.35	0.00
534.52	0.00
534.69	0.00
534.86	28.09
535.03	0.00
535.20	9.36
535.37	79.58
535.54	37.45
535.71	53.83
535.88	46.81
536.05	79.58
536.22	46.81
536.38	72.56
536.55	77.24
536.72	18.72
536.89	0.00
537.06	105.32
537.23	53.83
537.40	11.70
537.57	70.22
537.74	65.54
537.91	81.92
538.08	110.01
538.25	126.39
538.42	51.49
538.59	4.68
538.75	46.81
538.92	86.60
539.09	21.06
539.26	58.51
539.43	84.26
539.60	0.00
539.77	7.02
539.94	39.79
540.11	35.11
540.28	65.54
540.44	60.85
540.61	25.75
540.78	107.66
540.95	7.02
541.12	79.58
541.29	70.22
541.46	49.15
541.62	0.00
541.79	0.00
541.96	11.70
542.13	30.43
542.30	39.79
542.47	51.49
542.63	46.81
542.80	51.49
542.97	44.47
543.14	0.00
543.31	67.88
543.48	42.13
543.64	77.24
543.81	72.56
543.98	79.58
544.15	37.45
544.32	16.38
544.48	32.77
544.65	49.15
544.82	86.60
544.99	2.34
545.16	74.90
545.32	23.41
545.49	23.41
545.66	28.09
545.83	63.19
546.00	0.00
546.16	16.38
546.33	39.79
546.50	0.00
546.67	84.26
546.83	0.00
547.00	84.26
547.17	65.54
547.34	18.72
547.50	53.83
547.67	110.01
547.84	25.75
548.00	0.00
548.17	95.96
548.34	86.60
548.51	58.51
548.67	81.92
548.84	72.56
549.01	74.90
549.18	72.56
549.34	65.54
549.51	42.13
549.68	35.11
549.84	14.04
550.01	39.79
550.18	102.98
550.34	60.85
550.51	42.13
550.68	42.13
550.84	25.75
551.01	102.98
551.18	63.19
551.34	0.00
551.51	51.49
551.68	88.94
551.84	60.85
552.01	42.13
552.18	39.79
552.34	44.47
552.51	67.88
552.68	39.79
552.84	65.54
553.01	18.72
553.18	0.00
553.34	79.58
553.51	25.75
553.67	46.81
553.84	0.00
554.01	9.36
554.17	93.62
554.34	0.00
554.51	0.00
554.67	21.06
554.84	0.00
555.00	53.83
555.17	4.68
555.33	63.19
555.50	30.43
555.67	72.56
555.83	0.00
556.00	77.24
556.16	77.24
556.33	16.38
556.50	9.36
556.66	0.00
556.83	0.00
556.99	9.36
557.16	4.68
557.32	63.19
557.49	79.58
557.65	7.02
557.82	91.28
557.98	0.00
558.15	67.88
558.32	9.36
558.48	56.17
558.65	35.11
558.81	32.77
558.98	86.60
559.14	0.00
559.31	0.00
559.47	16.38
559.64	16.38
559.80	21.06
559.97	30.43
560.13	49.15
560.30	0.00
560.46	28.09
560.63	102.98
560.79	39.79
560.96	39.79
561.12	18.72
561.29	44.47
561.45	39.79
561.61	46.81
561.78	42.13
561.94	37.45
562.11	0.00
562.27	60.85
562.44	25.75
562.60	70.22
562.77	21.06
562.93	21.06
563.10	56.17
563.26	65.54
563.42	0.00
563.59	44.47
563.75	0.00
563.92	51.49
564.08	16.38
564.24	67.88
564.41	51.49
564.57	67.88
564.74	65.54
564.90	11.70
565.07	35.11
565.23	30.43
565.39	18.72
565.56	30.43
565.72	79.58
565.88	102.98
566.05	67.88
566.21	11.70
566.38	35.11
566.54	25.75
566.70	23.41
566.87	32.77
567.03	79.58
567.19	72.56
567.36	100.64
567.52	0.00
567.68	53.83
567.85	124.05
568.01	37.45
568.17	63.19
568.34	35.11
568.50	49.15
568.66	28.09
568.83	79.58
568.99	2.34
569.15	72.56
569.32	79.58
569.48	30.43
569.64	100.64
569.81	32.77
569.97	79.58
570.13	32.77
570.30	77.24
570.46	14.04
570.62	39.79
570.78	30.43
570.95	63.19
571.11	21.06
571.27	81.92
571.43	32.77
571.60	88.94
571.76	16.38
571.92	4.68
572.09	88.94
572.25	58.51
572.41	2.34
572.57	65.54
572.74	51.49
572.90	0.00
573.06	63.19
573.22	0.00
573.38	4.68
573.55	49.15
573.71	11.70
573.87	14.04
574.03	42.13
574.20	16.38
574.36	58.51
574.52	11.70
574.68	39.79
574.84	53.83
575.01	28.09
575.17	32.77
575.33	58.51
575.49	110.01
575.65	28.09
575.82	79.58
575.98	112.35
576.14	49.15
576.30	42.13
576.46	114.69
576.62	14.04
576.79	21.06
576.95	0.00
577.11	23.41
577.27	0.00
577.43	16.38
577.59	74.90
577.75	42.13
577.92	60.85
578.08	124.05
578.24	32.77
578.40	95.96
578.56	138.09
578.72	37.45
578.88	63.19
579.04	77.24
579.21	0.00
579.37	32.77
579.53	23.41
579.69	49.15
579.85	70.22
580.01	11.70
580.17	25.75
580.33	81.92
580.49	37.45
580.65	39.79
580.82	0.00
580.98	16.38
581.14	86.60
581.30	14.04
581.46	7.02
581.62	37.45
581.78	0.00
581.94	58.51
582.10	51.49
582.26	60.85
582.42	23.41
582.58	0.00
582.74	9.36
582.90	28.09
583.06	70.22
583.22	86.60
583.38	67.88
583.54	42.13
583.70	70.22
583.86	0.00
584.02	51.49
584.18	65.54
584.34	32.77
584.50	0.00
584.66	63.19
584.82	21.06
584.98	100.64
585.14	0.00
585.30	56.17
585.46	79.58
585.62	0.00
585.78	37.45
585.94	30.43
586.10	25.75
586.26	0.00
586.42	79.58
586.58	63.19
586.74	35.11
586.90	65.54
587.06	58.51
587.22	88.94
587.38	65.54
587.54	74.90
587.70	18.72
587.86	95.96
588.02	107.66
588.18	110.01
588.34	0.00
588.49	28.09
588.65	9.36
588.81	63.19
588.97	58.51
589.13	63.19
589.29	0.00
589.45	95.96
589.61	42.13
589.77	32.77
589.93	0.00
590.08	9.36
590.24	67.88
590.40	74.90
590.56	14.04
590.72	0.00
590.88	4.68
591.04	18.72
591.20	11.70
591.35	133.41
591.51	39.79
591.67	0.00
591.83	105.32
591.99	60.85
592.15	16.38
592.31	81.92
592.46	25.75
592.62	39.79
592.78	7.02
592.94	88.94
593.10	0.00
593.26	39.79
593.41	9.36
593.57	0.00
593.73	0.00
593.89	81.92
594.05	0.00
594.20	121.71
594.36	88.94
594.52	0.00
594.68	63.19
594.84	77.24
594.99	49.15
595.15	46.81
595.31	18.72
595.47	93.62
595.62	51.49
595.78	81.92
595.94	42.13
596.10	67.88
596.25	100.64
596.41	11.70
596.57	44.47
596.73	67.88
596.88	0.00
597.04	7.02
597.20	0.00
597.36	35.11
597.51	28.09
597.67	56.17
597.83	46.81
597.99	56.17
598.14	30.43
598.30	23.41
598.46	28.09
598.61	25.75
598.77	37.45
598.93	60.85
599.09	0.00
599.24	16.38
599.40	37.45
599.56	21.06
599.71	58.51
599.87	35.11
600.03	0.00
600.18	74.90
600.34	21.06
600.50	100.64
600.65	16.38
600.81	74.90
600.97	72.56
601.12	16.38
601.28	70.22
601.44	0.00
601.59	84.26
601.75	70.22
601.91	14.04
602.06	11.70
602.22	93.62
602.37	0.00
602.53	58.51
602.69	32.77
602.84	0.00
603.00	100.64
603.16	124.05
603.31	25.75
603.47	86.60
603.62	112.35
603.78	86.60
603.94	37.45
604.09	46.81
604.25	65.54
604.40	105.32
604.56	9.36
604.71	9.36
604.87	25.75
605.03	44.47
605.18	0.00
605.34	21.06
605.49	9.36
605.65	14.04
605.80	58.51
605.96	25.75
606.12	0.00
606.27	46.81
606.43	49.15
606.58	30.43
606.74	46.81
606.89	25.75
607.05	23.41
607.20	39.79
607.36	0.00
607.51	25.75
607.67	30.43
607.82	9.36
607.98	2.34
608.13	72.56
608.29	53.83
608.44	114.69
608.60	25.75
608.75	107.66
608.91	56.17
609.06	53.83
609.22	42.13
609.37	25.75
609.53	44.47
609.68	0.00
609.84	51.49
609.99	79.58
610.15	49.15
610.30	58.51
610.46	35.11
610.61	39.79
610.76	35.11
610.92	63.19
611.07	7.02
611.23	65.54
611.38	18.72
611.54	63.19
611.69	105.32
611.84	23.41
612.00	39.79
612.15	0.00
612.31	63.19
612.46	67.88
612.62	0.00
612.77	72.56
612.92	0.00
613.08	86.60
613.23	72.56
613.39	0.00
613.54	2.34
613.69	72.56
613.85	39.79
614.00	23.41
614.15	65.54
614.31	32.77
614.46	11.70
614.62	7.02
614.77	110.01
614.92	51.49
615.08	0.00
615.23	74.90
615.38	60.85
615.54	51.49
615.69	86.60
615.84	35.11
616.00	53.83
616.15	51.49
616.30	9.36
616.46	23.41
616.61	60.85
616.76	67.88
616.92	18.72
617.07	18.72
617.22	25.75
617.37	105.32
617.53	88.94
617.68	72.56
617.83	9.36
617.99	74.90
618.14	74.90
618.29	28.09
618.45	95.96
618.60	81.92
618.75	0.00
618.90	138.09
619.06	23.41
619.21	46.81
619.36	112.35
619.51	51.49
619.67	11.70
619.82	49.15
619.97	121.71
620.12	28.09
620.28	102.98
620.43	0.00
620.58	77.24
620.73	107.66
620.89	65.54
621.04	28.09
621.19	44.47
621.34	91.28
621.49	44.47
621.65	121.71
621.80	39.79
621.95	0.00
622.10	88.94
622.25	30.43
622.41	70.22
622.56	53.83
622.71	16.38
622.86	9.36
623.01	37.45
623.16	91.28
623.32	51.49
623.47	35.11
623.62	42.13
623.77	72.56
623.92	100.64
624.07	35.11
624.23	77.24
624.38	9.36
624.53	7.02
624.68	23.41
624.83	16.38
624.98	21.06
625.13	84.26
625.29	28.09
625.44	60.85
625.59	58.51
625.74	49.15
625.89	46.81
626.04	32.77
626.19	0.00
626.34	77.24
626.49	65.54
626.65	37.45
626.80	67.88
626.95	77.24
627.10	32.77
627.25	60.85
627.40	32.77
627.55	0.00
627.70	21.06
627.85	0.00
628.00	4.68
628.15	63.19
628.30	131.07
628.45	56.17
628.60	4.68
628.76	0.00
628.91	0.00
629.06	32.77
629.21	35.11
629.36	53.83
629.51	9.36
629.66	138.09
629.81	81.92
629.96	46.81
630.11	0.00
630.26	9.36
630.41	21.06
630.56	37.45
630.71	0.00
630.86	72.56
631.01	84.26
631.16	81.92
631.31	25.75
631.46	28.09
631.61	16.38
631.76	46.81
631.91	0.00
632.06	37.45
632.21	86.60
632.36	46.81
632.51	32.77
632.66	21.06
632.81	37.45
632.96	37.45
633.10	88.94
633.25	25.75
633.40	28.09
633.55	2.34
633.70	11.70
633.85	35.11
634.00	44.47
634.15	0.00
634.30	0.00
634.45	88.94
634.60	23.41
634.75	51.49
634.90	51.49
635.05	102.98
635.19	44.47
635.34	21.06
635.49	60.85
635.64	77.24
635.79	77.24
635.94	46.81
636.09	11.70
636.24	74.90
636.39	37.45
636.53	42.13
636.68	37.45
636.83	67.88
636.98	74.90
637.13	37.45
637.28	63.19
637.43	2.34
637.57	25.75
637.72	37.45
637.87	0.00
638.02	60.85
638.17	32.77
638.32	86.60
638.46	14.04
638.61	49.15
638.76	44.47
638.91	7.02
639.06	74.90
639.20	46.81
639.35	105.32
639.50	0.00
639.65	46.81
639.80	11.70
639.94	21.06
640.09	0.00
640.24	77.24
640.39	49.15
640.54	0.00
640.68	9.36
640.83	42.13
640.98	28.09
641.13	35.11
641.27	4.68
641.42	112.35
641.57	42.13
641.72	74.90
641.86	0.00
642.01	128.73
642.16	0.00
642.31	42.13
642.45	14.04
642.60	0.00
642.75	16.38
642.90	32.77
643.04	9.36
643.19	42.13
643.34	49.15
643.48	107.66
643.63	4.68
643.78	72.56
643.93	58.51
644.07	28.09
644.22	42.13
644.37	67.88
644.51	112.35
644.66	65.54
644.81	11.70
644.95	28.09
645.10	30.43
645.25	0.00
645.39	14.04
645.54	23.41
645.69	28.09
645.83	9.36
645.98	88.94
646.13	70.22
646.27	18.72
646.42	56.17
646.57	70.22
646.71	46.81
646.86	16.38
647.00	56.17
647.15	63.19
647.30	39.79
647.44	14.04
647.59	16.38
647.74	81.92
647.88	58.51
648.03	25.75
648.17	21.06
648.32	30.43
648.47	30.43
648.61	119.37
648.76	11.70
648.90	18.72
649.05	21.06
649.20	60.85
649.34	9.36
649.49	30.43
649.63	63.19
649.78	23.41
649.92	98.30
650.07	28.09
650.21	102.98
650.36	2.34
650.51	51.49
650.65	7.02
650.80	49.15
650.94	0.00
651.09	0.00
651.23	42.13
651.38	42.13
651.52	60.85
651.67	11.70
651.81	107.66
651.96	44.47
652.10	0.00
652.25	0.00
652.39	18.72
652.54	46.81
652.68	16.38
652.83	0.00
652.97	74.90
653.12	79.58
653.26	44.47
653.41	56.17
653.55	63.19
653.70	14.04
653.84	35.11
653.99	49.15
654.13	39.79
654.27	60.85
654.42	70.22
654.56	98.30
654.71	70.22
654.85	0.00
655.00	60.85
655.14	7.02
655.29	0.00
655.43	51.49
655.57	0.00
655.72	74.90
655.86	42.13
656.01	35.11
656.15	51.49
656.30	91.28
656.44	39.79
656.58	0.00
656.73	100.64
656.87	0.00
657.01	159.16
657.16	32.77
657.30	0.00
657.45	74.90
657.59	23.41
657.73	49.15
657.88	18.72
658.02	25.75
658.16	0.00
658.31	42.13
658.45	37.45
658.60	14.04
658.74	0.00
658.88	32.77
659.03	37.45
659.17	23.41
659.31	58.51
659.46	51.49
659.60	14.04
659.74	23.41
659.89	21.06
660.03	42.13
660.17	112.35
660.32	56.17
660.46	72.56
660.60	35.11
660.74	63.19
660.89	14.04
661.03	95.96
661.17	49.15
661.32	9.36
661.46	21.06
661.60	32.77
661.74	51.49
661.89	0.00
662.03	30.43
662.17	56.17
662.31	0.00
662.46	21.06
662.60	49.15
662.74	0.00
662.88	23.41
663.03	25.75
663.17	18.72
663.31	14.04
663.45	84.26
663.60	16.38
663.74	23.41
663.88	0.00
664.02	42.13
664.17	91.28
664.31	0.00
664.45	37.45
664.59	88.94
664.73	42.13
664.88	35.11
665.02	51.49
665.16	0.00
665.30	70.22
665.44	91.28
665.59	39.79
665.73	58.51
665.87	105.32
666.01	39.79
666.15	32.77
666.29	133.41
666.44	58.51
666.58	86.60
666.72	0.00
666.86	0.00
667.00	35.11
667.14	0.00
667.28	30.43
667.43	88.94
667.57	28.09
667.71	32.77
667.85	42.13
667.99	102.98
668.13	102.98
668.27	21.06
668.41	58.51
668.56	0.00
668.70	37.45
668.84	35.11
668.98	0.00
669.12	51.49
669.26	0.00
669.40	4.68
669.54	37.45
669.68	88.94
669.82	21.06
669.96	86.60
670.10	91.28
670.25	119.37
670.39	16.38
670.53	0.00
670.67	4.68
670.81	44.47
670.95	65.54
671.09	14.04
671.23	25.75
671.37	49.15
671.51	65.54
671.65	0.00
671.79	32.77
671.93	2.34
672.07	46.81
672.21	51.49
672.35	70.22
672.49	30.43
672.63	32.77
672.77	105.32
672.91	84.26
673.05	0.00
673.19	39.79
673.33	100.64
673.47	37.45
673.61	56.17
673.75	11.70
673.89	51.49
674.03	14.04
674.17	0.00
674.31	0.00
674.45	51.49
674.59	0.00
674.73	53.83
674.87	74.90
675.01	35.11
675.15	58.51
675.29	49.15
675.43	37.45
675.56	30.43
675.70	42.13
675.84	93.62
675.98	77.24
676.12	53.83
676.26	79.58
676.40	67.88
676.54	0.00
676.68	0.00
676.82	39.79
676.96	28.09
677.10	0.00
677.23	14.04
677.37	58.51
677.51	84.26
677.65	67.88
677.79	46.81
677.93	35.11
678.07	0.00
678.21	79.58
678.34	30.43
678.48	93.62
678.62	95.96
678.76	72.56
678.90	63.19
679.04	7.02
679.18	72.56
679.31	49.15
679.45	67.88
679.59	23.41
679.73	16.38
679.87	9.36
680.00	81.92
680.14	23.41
680.28	0.00
680.42	58.51
680.56	42.13
680.70	0.00
680.83	32.77
680.97	28.09
681.11	0.00
681.25	0.00
681.39	60.85
681.52	23.41
681.66	67.88
681.80	74.90
681.94	81.92
682.07	51.49
682.21	11.70
682.35	60.85
682.49	42.13
682.62	58.51
682.76	18.72
682.90	28.09
683.04	11.70
683.17	28.09
683.31	49.15
683.45	51.49
683.59	91.28
683.72	0.00
683.86	18.72
684.00	81.92
684.13	56.17
684.27	0.00
684.41	0.00
684.55	4.68
684.68	49.15
684.82	35.11
684.96	0.00
685.09	35.11
685.23	30.43
685.37	117.03
685.50	44.47
685.64	77.24
685.78	51.49
685.91	35.11
686.05	23.41
686.19	4.68
686.32	9.36
686.46	0.00
686.60	25.75
686.73	65.54
686.87	107.66
687.01	37.45
687.14	0.00
687.28	28.09
687.42	42.13
687.55	39.79
687.69	21.06
687.82	53.83
687.96	30.43
688.10	28.09
688.23	32.77
688.37	35.11
688.50	0.00
688.64	11.70
688.78	98.30
688.91	0.00
689.05	32.77
689.18	114.69
689.32	42.13
689.46	7.02
689.59	0.00
689.73	0.00
689.86	18.72
690.00	11.70
690.13	0.00
690.27	0.00
690.41	56.17
690.54	0.00
690.68	16.38
690.81	11.70
690.95	11.70
691.08	0.00
691.22	37.45
691.35	9.36
691.49	100.64
691.62	28.09
691.76	0.00
691.89	72.56
692.03	42.13
692.16	0.00
692.30	14.04
692.43	35.11
692.57	30.43
692.70	65.54
692.84	42.13
692.97	7.02
693.11	56.17
693.24	58.51
693.38	98.30
693.51	70.22
693.65	51.49
693.78	14.04
693.92	0.00
694.05	4.68
694.19	9.36
694.32	0.00
694.45	39.79
694.59	32.77
694.72	42.13
694.86	28.09
694.99	21.06
695.13	0.00
695.26	7.02
695.39	0.00
695.53	72.56
695.66	14.04
695.80	51.49
695.93	0.00
696.07	28.09
696.20	51.49
696.33	60.85
696.47	11.70
696.60	0.00
696.73	25.75
696.87	79.58
697.00	0.00
697.14	53.83
697.27	25.75
697.40	28.09
697.54	4.68
697.67	28.09
697.80	2.34
697.94	25.75
698.07	11.70
698.21	128.73
698.34	49.15
698.47	0.00
698.61	44.47
698.74	39.79
698.87	49.15
699.01	18.72
699.14	46.81
699.27	49.15
699.40	74.90
699.54	114.69
699.67	56.17
699.80	77.24
699.94	30.43
700.07	39.79
700.20	72.56
700.34	9.36
700.47	14.04
700.60	0.00
700.73	37.45
700.87	53.83
701.00	58.51
701.13	37.45
701.26	0.00
701.40	25.75
701.53	0.00
701.66	39.79
701.79	18.72
701.93	16.38
702.06	0.00
702.19	23.41
702.32	9.36
702.46	0.00
702.59	0.00
702.72	53.83
702.85	9.36
702.99	0.00
703.12	100.64
703.25	32.77
703.38	11.70
703.51	46.81
703.65	0.00
703.78	4.68
703.91	0.00
704.04	37.45
704.17	0.00
704.31	70.22
704.44	0.00
704.57	0.00
704.70	0.00
704.83	0.00
704.96	84.26
705.10	23.41
705.23	42.13
>>>>>End Processed Spectral Data<<<<<
