SpectraSuite Data File
++++++++++++++++++++++++++++++++++++
Date: Fri Oct 04 12:13:34 GMT-05:00 2013
User: price-jones
Dark Spectrum Present: No
Reference Spectrum Present: No
Number of Sampled Component Spectra: 1
Spectrometers: USB2+H05261
Integration Time (usec): 10000 (USB2+H05261)
Spectra Averaged: 1 (USB2+H05261)
Boxcar Smoothing: 0 (USB2+H05261)
Correct for Electrical Dark: No (USB2+H05261)
Strobe/Lamp Enabled: No (USB2+H05261)
Correct for Detector Non-linearity: No (USB2+H05261)
Correct for Stray Light: No (USB2+H05261)
Number of Pixels in Processed Spectrum: 2048
>>>>>Begin Processed Spectral Data<<<<<
365.73	0.00
365.92	0.00
366.12	0.00
366.32	0.00
366.52	0.00
366.72	0.00
366.91	0.00
367.11	0.00
367.31	0.00
367.51	0.00
367.70	0.00
367.90	0.00
368.10	0.00
368.30	0.00
368.49	0.00
368.69	0.00
368.89	0.00
369.09	0.00
369.28	0.00
369.48	0.00
369.68	0.00
369.87	0.00
370.07	0.00
370.27	0.00
370.47	0.00
370.66	0.00
370.86	0.00
371.06	0.00
371.25	0.00
371.45	0.00
371.65	0.00
371.84	44.47
372.04	28.09
372.24	0.00
372.44	0.00
372.63	7.02
372.83	28.09
373.03	56.17
373.22	0.00
373.42	81.92
373.62	21.06
373.81	70.22
374.01	32.77
374.21	23.41
374.40	30.43
374.60	0.00
374.79	0.00
374.99	0.00
375.19	37.45
375.38	53.83
375.58	0.00
375.78	14.04
375.97	42.13
376.17	46.81
376.37	32.77
376.56	51.49
376.76	60.85
376.95	53.83
377.15	30.43
377.35	65.54
377.54	0.00
377.74	0.00
377.93	0.00
378.13	0.00
378.33	32.77
378.52	0.00
378.72	0.00
378.91	0.00
379.11	56.17
379.31	11.70
379.50	74.90
379.70	4.68
379.89	0.00
380.09	28.09
380.28	11.70
380.48	11.70
380.68	0.00
380.87	0.00
381.07	30.43
381.26	0.00
381.46	44.47
381.65	9.36
381.85	0.00
382.04	42.13
382.24	7.02
382.43	42.13
382.63	0.00
382.83	42.13
383.02	0.00
383.22	53.83
383.41	44.47
383.61	0.00
383.80	100.64
384.00	32.77
384.19	0.00
384.39	0.00
384.58	9.36
384.78	0.00
384.97	18.72
385.17	37.45
385.36	0.00
385.56	0.00
385.75	14.04
385.95	51.49
386.14	21.06
386.34	28.09
386.53	14.04
386.72	70.22
386.92	14.04
387.11	81.92
387.31	39.79
387.50	44.47
387.70	46.81
387.89	11.70
388.09	37.45
388.28	30.43
388.48	49.15
388.67	0.00
388.86	7.02
389.06	11.70
389.25	81.92
389.45	0.00
389.64	16.38
389.84	2.34
390.03	67.88
390.22	0.00
390.42	18.72
390.61	60.85
390.81	46.81
391.00	4.68
391.19	0.00
391.39	9.36
391.58	42.13
391.78	2.34
391.97	28.09
392.16	49.15
392.36	58.51
392.55	0.00
392.75	0.00
392.94	0.00
393.13	0.00
393.33	18.72
393.52	65.54
393.71	0.00
393.91	25.75
394.10	21.06
394.29	39.79
394.49	30.43
394.68	0.00
394.88	42.13
395.07	42.13
395.26	23.41
395.46	39.79
395.65	0.00
395.84	0.00
396.04	4.68
396.23	0.00
396.42	0.00
396.62	74.90
396.81	49.15
397.00	18.72
397.19	35.11
397.39	0.00
397.58	63.19
397.77	0.00
397.97	18.72
398.16	0.00
398.35	79.58
398.55	56.17
398.74	0.00
398.93	0.00
399.12	30.43
399.32	42.13
399.51	0.00
399.70	11.70
399.90	42.13
400.09	25.75
400.28	9.36
400.47	44.47
400.67	39.79
400.86	0.00
401.05	18.72
401.24	42.13
401.44	0.00
401.63	60.85
401.82	23.41
402.01	21.06
402.21	77.24
402.40	63.19
402.59	25.75
402.78	168.52
402.97	56.17
403.17	77.24
403.36	0.00
403.55	0.00
403.74	77.24
403.93	0.00
404.13	44.47
404.32	32.77
404.51	0.00
404.70	77.24
404.89	14.04
405.09	88.94
405.28	2.34
405.47	49.15
405.66	39.79
405.85	37.45
406.05	32.77
406.24	53.83
406.43	39.79
406.62	39.79
406.81	37.45
407.00	58.51
407.20	77.24
407.39	0.00
407.58	72.56
407.77	46.81
407.96	4.68
408.15	0.00
408.34	9.36
408.54	7.02
408.73	53.83
408.92	0.00
409.11	30.43
409.30	60.85
409.49	60.85
409.68	14.04
409.87	74.90
410.07	65.54
410.26	65.54
410.45	9.36
410.64	0.00
410.83	25.75
411.02	0.00
411.21	81.92
411.40	0.00
411.59	2.34
411.78	124.05
411.98	53.83
412.17	32.77
412.36	7.02
412.55	39.79
412.74	4.68
412.93	51.49
413.12	18.72
413.31	0.00
413.50	58.51
413.69	21.06
413.88	0.00
414.07	46.81
414.26	32.77
414.45	53.83
414.64	42.13
414.83	51.49
415.02	100.64
415.22	51.49
415.41	79.58
415.60	46.81
415.79	95.96
415.98	0.00
416.17	11.70
416.36	0.00
416.55	72.56
416.74	9.36
416.93	46.81
417.12	11.70
417.31	25.75
417.50	28.09
417.69	0.00
417.88	39.79
418.07	63.19
418.26	9.36
418.45	32.77
418.64	51.49
418.83	70.22
419.02	21.06
419.21	18.72
419.39	67.88
419.58	39.79
419.77	4.68
419.96	60.85
420.15	0.00
420.34	18.72
420.53	56.17
420.72	84.26
420.91	30.43
421.10	28.09
421.29	49.15
421.48	74.90
421.67	44.47
421.86	67.88
422.05	56.17
422.24	67.88
422.43	46.81
422.61	63.19
422.80	35.11
422.99	102.98
423.18	46.81
423.37	91.28
423.56	77.24
423.75	63.19
423.94	42.13
424.13	21.06
424.32	121.71
424.50	35.11
424.69	0.00
424.88	0.00
425.07	4.68
425.26	0.00
425.45	23.41
425.64	28.09
425.83	44.47
426.01	0.00
426.20	0.00
426.39	35.11
426.58	49.15
426.77	88.94
426.96	0.00
427.15	0.00
427.33	51.49
427.52	46.81
427.71	51.49
427.90	44.47
428.09	35.11
428.28	0.00
428.46	35.11
428.65	25.75
428.84	0.00
429.03	0.00
429.22	88.94
429.40	77.24
429.59	44.47
429.78	25.75
429.97	35.11
430.16	35.11
430.34	42.13
430.53	58.51
430.72	37.45
430.91	14.04
431.10	37.45
431.28	53.83
431.47	58.51
431.66	7.02
431.85	100.64
432.03	91.28
432.22	0.00
432.41	32.77
432.60	21.06
432.79	67.88
432.97	100.64
433.16	25.75
433.35	0.00
433.54	65.54
433.72	0.00
433.91	0.00
434.10	72.56
434.28	65.54
434.47	14.04
434.66	93.62
434.85	58.51
435.03	0.00
435.22	2.34
435.41	100.64
435.59	0.00
435.78	42.13
435.97	56.17
436.16	56.17
436.34	0.00
436.53	49.15
436.72	35.11
436.90	14.04
437.09	11.70
437.28	35.11
437.46	0.00
437.65	65.54
437.84	60.85
438.02	56.17
438.21	11.70
438.40	0.00
438.58	9.36
438.77	28.09
438.96	0.00
439.14	25.75
439.33	60.85
439.52	28.09
439.70	42.13
439.89	110.01
440.08	28.09
440.26	42.13
440.45	30.43
440.63	86.60
440.82	65.54
441.01	53.83
441.19	51.49
441.38	0.00
441.57	70.22
441.75	88.94
441.94	100.64
442.12	110.01
442.31	23.41
442.50	74.90
442.68	84.26
442.87	16.38
443.05	14.04
443.24	46.81
443.43	67.88
443.61	86.60
443.80	98.30
443.98	30.43
444.17	42.13
444.35	44.47
444.54	58.51
444.73	28.09
444.91	114.69
445.10	30.43
445.28	126.39
445.47	65.54
445.65	93.62
445.84	60.85
446.02	11.70
446.21	93.62
446.39	84.26
446.58	0.00
446.77	81.92
446.95	84.26
447.14	44.47
447.32	21.06
447.51	0.00
447.69	32.77
447.88	2.34
448.06	86.60
448.25	77.24
448.43	86.60
448.62	77.24
448.80	70.22
448.99	95.96
449.17	133.41
449.36	100.64
449.54	42.13
449.73	39.79
449.91	14.04
450.10	65.54
450.28	46.81
450.46	74.90
450.65	84.26
450.83	79.58
451.02	105.32
451.20	67.88
451.39	0.00
451.57	84.26
451.76	81.92
451.94	110.01
452.13	65.54
452.31	67.88
452.49	0.00
452.68	77.24
452.86	72.56
453.05	65.54
453.23	37.45
453.42	100.64
453.60	60.85
453.78	16.38
453.97	117.03
454.15	81.92
454.34	63.19
454.52	21.06
454.70	32.77
454.89	14.04
455.07	98.30
455.26	35.11
455.44	35.11
455.62	35.11
455.81	21.06
455.99	58.51
456.17	58.51
456.36	126.39
456.54	21.06
456.73	4.68
456.91	0.00
457.09	53.83
457.28	32.77
457.46	11.70
457.64	46.81
457.83	77.24
458.01	77.24
458.19	81.92
458.38	63.19
458.56	21.06
458.74	28.09
458.93	65.54
459.11	74.90
459.29	105.32
459.48	112.35
459.66	74.90
459.84	102.98
460.03	86.60
460.21	25.75
460.39	93.62
460.57	91.28
460.76	51.49
460.94	105.32
461.12	60.85
461.31	67.88
461.49	65.54
461.67	58.51
461.85	32.77
462.04	14.04
462.22	86.60
462.40	30.43
462.59	72.56
462.77	25.75
462.95	72.56
463.13	110.01
463.32	105.32
463.50	37.45
463.68	7.02
463.86	46.81
464.05	114.69
464.23	46.81
464.41	25.75
464.59	107.66
464.78	63.19
464.96	37.45
465.14	67.88
465.32	9.36
465.50	51.49
465.69	11.70
465.87	58.51
466.05	65.54
466.23	32.77
466.41	77.24
466.60	21.06
466.78	72.56
466.96	67.88
467.14	46.81
467.32	21.06
467.51	86.60
467.69	11.70
467.87	46.81
468.05	63.19
468.23	72.56
468.41	77.24
468.60	84.26
468.78	95.96
468.96	81.92
469.14	0.00
469.32	0.00
469.50	79.58
469.69	100.64
469.87	7.02
470.05	60.85
470.23	30.43
470.41	23.41
470.59	124.05
470.77	0.00
470.95	60.85
471.14	72.56
471.32	79.58
471.50	42.13
471.68	4.68
471.86	112.35
472.04	4.68
472.22	51.49
472.40	32.77
472.58	53.83
472.77	110.01
472.95	112.35
473.13	14.04
473.31	84.26
473.49	126.39
473.67	30.43
473.85	95.96
474.03	46.81
474.21	91.28
474.39	49.15
474.57	117.03
474.75	107.66
474.93	131.07
475.12	4.68
475.30	74.90
475.48	49.15
475.66	114.69
475.84	53.83
476.02	32.77
476.20	84.26
476.38	28.09
476.56	98.30
476.74	79.58
476.92	95.96
477.10	0.00
477.28	98.30
477.46	35.11
477.64	56.17
477.82	77.24
478.00	81.92
478.18	95.96
478.36	58.51
478.54	53.83
478.72	46.81
478.90	84.26
479.08	72.56
479.26	56.17
479.44	0.00
479.62	88.94
479.80	11.70
479.98	0.00
480.16	58.51
480.34	98.30
480.52	53.83
480.70	102.98
480.88	166.18
481.06	21.06
481.24	28.09
481.41	30.43
481.59	95.96
481.77	79.58
481.95	49.15
482.13	65.54
482.31	35.11
482.49	65.54
482.67	70.22
482.85	23.41
483.03	11.70
483.21	4.68
483.39	32.77
483.57	79.58
483.74	2.34
483.92	0.00
484.10	88.94
484.28	53.83
484.46	70.22
484.64	107.66
484.82	46.81
485.00	42.13
485.18	53.83
485.35	60.85
485.53	7.02
485.71	16.38
485.89	0.00
486.07	86.60
486.25	56.17
486.43	70.22
486.61	0.00
486.78	37.45
486.96	95.96
487.14	142.77
487.32	65.54
487.50	28.09
487.68	84.26
487.85	37.45
488.03	16.38
488.21	63.19
488.39	63.19
488.57	53.83
488.75	84.26
488.92	86.60
489.10	100.64
489.28	189.58
489.46	145.11
489.64	60.85
489.81	86.60
489.99	112.35
490.17	91.28
490.35	16.38
490.53	86.60
490.70	53.83
490.88	25.75
491.06	56.17
491.24	35.11
491.41	67.88
491.59	86.60
491.77	74.90
491.95	119.37
492.13	35.11
492.30	91.28
492.48	86.60
492.66	70.22
492.84	70.22
493.01	53.83
493.19	95.96
493.37	81.92
493.54	44.47
493.72	56.17
493.90	88.94
494.08	88.94
494.25	79.58
494.43	60.85
494.61	23.41
494.79	77.24
494.96	112.35
495.14	11.70
495.32	63.19
495.49	51.49
495.67	28.09
495.85	65.54
496.02	93.62
496.20	84.26
496.38	51.49
496.55	77.24
496.73	102.98
496.91	156.82
497.09	95.96
497.26	77.24
497.44	30.43
497.62	49.15
497.79	91.28
497.97	112.35
498.14	65.54
498.32	126.39
498.50	46.81
498.67	46.81
498.85	46.81
499.03	70.22
499.20	79.58
499.38	58.51
499.56	37.45
499.73	182.56
499.91	25.75
500.08	63.19
500.26	32.77
500.44	100.64
500.61	28.09
500.79	35.11
500.97	102.98
501.14	56.17
501.32	25.75
501.49	91.28
501.67	63.19
501.84	56.17
502.02	161.50
502.20	88.94
502.37	70.22
502.55	16.38
502.72	102.98
502.90	154.48
503.07	77.24
503.25	53.83
503.43	49.15
503.60	49.15
503.78	112.35
503.95	79.58
504.13	112.35
504.30	53.83
504.48	124.05
504.65	0.00
504.83	152.13
505.01	60.85
505.18	117.03
505.36	81.92
505.53	51.49
505.71	65.54
505.88	77.24
506.06	65.54
506.23	124.05
506.41	23.41
506.58	91.28
506.76	86.60
506.93	42.13
507.11	53.83
507.28	152.13
507.46	117.03
507.63	102.98
507.81	93.62
507.98	84.26
508.16	35.11
508.33	100.64
508.50	4.68
508.68	28.09
508.85	88.94
509.03	18.72
509.20	114.69
509.38	107.66
509.55	72.56
509.73	39.79
509.90	133.41
510.08	166.18
510.25	86.60
510.42	0.00
510.60	79.58
510.77	173.20
510.95	67.88
511.12	88.94
511.30	112.35
511.47	161.50
511.64	88.94
511.82	86.60
511.99	30.43
512.17	58.51
512.34	84.26
512.51	88.94
512.69	196.60
512.86	46.81
513.04	100.64
513.21	65.54
513.38	154.48
513.56	44.47
513.73	18.72
513.90	65.54
514.08	114.69
514.25	67.88
514.43	35.11
514.60	63.19
514.77	67.88
514.95	95.96
515.12	102.98
515.29	39.79
515.47	93.62
515.64	138.09
515.81	105.32
515.99	88.94
516.16	79.58
516.33	102.98
516.51	32.77
516.68	140.43
516.85	58.51
517.03	126.39
517.20	95.96
517.37	105.32
517.54	28.09
517.72	79.58
517.89	67.88
518.06	117.03
518.24	133.41
518.41	100.64
518.58	110.01
518.75	58.51
518.93	98.30
519.10	53.83
519.27	91.28
519.45	65.54
519.62	86.60
519.79	88.94
519.96	23.41
520.14	105.32
520.31	86.60
520.48	79.58
520.65	124.05
520.83	25.75
521.00	95.96
521.17	128.73
521.34	98.30
521.52	51.49
521.69	138.09
521.86	86.60
522.03	152.13
522.20	65.54
522.38	46.81
522.55	74.90
522.72	88.94
522.89	81.92
523.07	30.43
523.24	119.37
523.41	65.54
523.58	102.98
523.75	65.54
523.92	98.30
524.10	58.51
524.27	14.04
524.44	74.90
524.61	91.28
524.78	70.22
524.96	51.49
525.13	86.60
525.30	114.69
525.47	131.07
525.64	46.81
525.81	18.72
525.98	30.43
526.16	42.13
526.33	42.13
526.50	60.85
526.67	86.60
526.84	142.77
527.01	0.00
527.18	70.22
527.36	46.81
527.53	102.98
527.70	84.26
527.87	110.01
528.04	39.79
528.21	81.92
528.38	95.96
528.55	53.83
528.72	74.90
528.89	9.36
529.07	135.75
529.24	32.77
529.41	35.11
529.58	154.48
529.75	107.66
529.92	84.26
530.09	53.83
530.26	91.28
530.43	70.22
530.60	72.56
530.77	107.66
530.94	93.62
531.11	124.05
531.28	161.50
531.46	74.90
531.63	117.03
531.80	72.56
531.97	107.66
532.14	28.09
532.31	93.62
532.48	117.03
532.65	98.30
532.82	154.48
532.99	35.11
533.16	77.24
533.33	72.56
533.50	77.24
533.67	88.94
533.84	93.62
534.01	81.92
534.18	35.11
534.35	95.96
534.52	93.62
534.69	93.62
534.86	70.22
535.03	88.94
535.20	100.64
535.37	0.00
535.54	135.75
535.71	107.66
535.88	133.41
536.05	112.35
536.22	70.22
536.38	67.88
536.55	86.60
536.72	72.56
536.89	84.26
537.06	56.17
537.23	138.09
537.40	79.58
537.57	77.24
537.74	72.56
537.91	67.88
538.08	51.49
538.25	114.69
538.42	98.30
538.59	147.45
538.75	105.32
538.92	11.70
539.09	60.85
539.26	131.07
539.43	86.60
539.60	74.90
539.77	102.98
539.94	81.92
540.11	88.94
540.28	56.17
540.44	65.54
540.61	67.88
540.78	30.43
540.95	51.49
541.12	84.26
541.29	102.98
541.46	79.58
541.62	100.64
541.79	70.22
541.96	37.45
542.13	135.75
542.30	110.01
542.47	145.11
542.63	88.94
542.80	105.32
542.97	84.26
543.14	114.69
543.31	79.58
543.48	0.00
543.64	124.05
543.81	93.62
543.98	70.22
544.15	93.62
544.32	67.88
544.48	102.98
544.65	44.47
544.82	112.35
544.99	86.60
545.16	88.94
545.32	102.98
545.49	100.64
545.66	77.24
545.83	42.13
546.00	79.58
546.16	84.26
546.33	145.11
546.50	81.92
546.67	95.96
546.83	70.22
547.00	39.79
547.17	16.38
547.34	102.98
547.50	39.79
547.67	30.43
547.84	147.45
548.00	161.50
548.17	65.54
548.34	210.65
548.51	84.26
548.67	177.88
548.84	135.75
549.01	112.35
549.18	42.13
549.34	49.15
549.51	42.13
549.68	42.13
549.84	91.28
550.01	58.51
550.18	142.77
550.34	133.41
550.51	98.30
550.68	102.98
550.84	79.58
551.01	112.35
551.18	30.43
551.34	65.54
551.51	86.60
551.68	77.24
551.84	86.60
552.01	112.35
552.18	74.90
552.34	86.60
552.51	102.98
552.68	74.90
552.84	95.96
553.01	126.39
553.18	88.94
553.34	67.88
553.51	84.26
553.67	152.13
553.84	72.56
554.01	18.72
554.17	140.43
554.34	63.19
554.51	30.43
554.67	145.11
554.84	63.19
555.00	117.03
555.17	98.30
555.33	37.45
555.50	163.84
555.67	93.62
555.83	72.56
556.00	37.45
556.16	88.94
556.33	86.60
556.50	126.39
556.66	35.11
556.83	110.01
556.99	107.66
557.16	74.90
557.32	93.62
557.49	110.01
557.65	102.98
557.82	28.09
557.98	98.30
558.15	70.22
558.32	77.24
558.48	16.38
558.65	63.19
558.81	95.96
558.98	128.73
559.14	187.24
559.31	81.92
559.47	117.03
559.64	147.45
559.80	88.94
559.97	42.13
560.13	35.11
560.30	25.75
560.46	42.13
560.63	72.56
560.79	100.64
560.96	9.36
561.12	30.43
561.29	117.03
561.45	51.49
561.61	44.47
561.78	98.30
561.94	163.84
562.11	91.28
562.27	53.83
562.44	114.69
562.60	39.79
562.77	42.13
562.93	18.72
563.10	49.15
563.26	60.85
563.42	46.81
563.59	9.36
563.75	95.96
563.92	77.24
564.08	128.73
564.24	107.66
564.41	67.88
564.57	91.28
564.74	79.58
564.90	42.13
565.07	86.60
565.23	79.58
565.39	9.36
565.56	107.66
565.72	102.98
565.88	105.32
566.05	56.17
566.21	77.24
566.38	77.24
566.54	21.06
566.70	95.96
566.87	70.22
567.03	0.00
567.19	112.35
567.36	60.85
567.52	42.13
567.68	39.79
567.85	4.68
568.01	140.43
568.17	63.19
568.34	112.35
568.50	77.24
568.66	163.84
568.83	112.35
568.99	25.75
569.15	117.03
569.32	60.85
569.48	121.71
569.64	88.94
569.81	114.69
569.97	140.43
570.13	133.41
570.30	0.00
570.46	88.94
570.62	67.88
570.78	37.45
570.95	72.56
571.11	86.60
571.27	126.39
571.43	74.90
571.60	117.03
571.76	156.82
571.92	98.30
572.09	65.54
572.25	46.81
572.41	28.09
572.57	56.17
572.74	88.94
572.90	86.60
573.06	112.35
573.22	117.03
573.38	14.04
573.55	112.35
573.71	65.54
573.87	98.30
574.03	0.00
574.20	88.94
574.36	32.77
574.52	49.15
574.68	70.22
574.84	56.17
575.01	86.60
575.17	65.54
575.33	114.69
575.49	100.64
575.65	105.32
575.82	51.49
575.98	98.30
576.14	135.75
576.30	138.09
576.46	156.82
576.62	35.11
576.79	79.58
576.95	53.83
577.11	79.58
577.27	72.56
577.43	49.15
577.59	93.62
577.75	2.34
577.92	37.45
578.08	117.03
578.24	110.01
578.40	102.98
578.56	58.51
578.72	70.22
578.88	58.51
579.04	112.35
579.21	86.60
579.37	91.28
579.53	88.94
579.69	147.45
579.85	95.96
580.01	65.54
580.17	98.30
580.33	124.05
580.49	58.51
580.65	95.96
580.82	112.35
580.98	70.22
581.14	133.41
581.30	77.24
581.46	65.54
581.62	138.09
581.78	98.30
581.94	37.45
582.10	35.11
582.26	58.51
582.42	30.43
582.58	42.13
582.74	77.24
582.90	70.22
583.06	42.13
583.22	39.79
583.38	74.90
583.54	65.54
583.70	46.81
583.86	77.24
584.02	70.22
584.18	67.88
584.34	65.54
584.50	72.56
584.66	37.45
584.82	93.62
584.98	53.83
585.14	126.39
585.30	128.73
585.46	0.00
585.62	39.79
585.78	25.75
585.94	191.92
586.10	131.07
586.26	72.56
586.42	49.15
586.58	163.84
586.74	100.64
586.90	100.64
587.06	133.41
587.22	175.54
587.38	126.39
587.54	86.60
587.70	81.92
587.86	131.07
588.02	79.58
588.18	117.03
588.34	72.56
588.49	100.64
588.65	74.90
588.81	0.00
588.97	65.54
589.13	42.13
589.29	42.13
589.45	79.58
589.61	67.88
589.77	56.17
589.93	117.03
590.08	100.64
590.24	112.35
590.40	65.54
590.56	32.77
590.72	72.56
590.88	121.71
591.04	7.02
591.20	93.62
591.35	102.98
591.51	102.98
591.67	37.45
591.83	32.77
591.99	84.26
592.15	63.19
592.31	74.90
592.46	124.05
592.62	81.92
592.78	107.66
592.94	49.15
593.10	60.85
593.26	53.83
593.41	98.30
593.57	102.98
593.73	86.60
593.89	98.30
594.05	58.51
594.20	37.45
594.36	25.75
594.52	4.68
594.68	88.94
594.84	51.49
594.99	84.26
595.15	28.09
595.31	23.41
595.47	46.81
595.62	65.54
595.78	58.51
595.94	60.85
596.10	42.13
596.25	60.85
596.41	77.24
596.57	0.00
596.73	30.43
596.88	102.98
597.04	37.45
597.20	98.30
597.36	84.26
597.51	35.11
597.67	42.13
597.83	30.43
597.99	77.24
598.14	88.94
598.30	102.98
598.46	86.60
598.61	46.81
598.77	44.47
598.93	25.75
599.09	72.56
599.24	23.41
599.40	32.77
599.56	81.92
599.71	112.35
599.87	42.13
600.03	39.79
600.18	124.05
600.34	77.24
600.50	107.66
600.65	117.03
600.81	131.07
600.97	28.09
601.12	56.17
601.28	149.79
601.44	86.60
601.59	39.79
601.75	65.54
601.91	95.96
602.06	105.32
602.22	18.72
602.37	112.35
602.53	131.07
602.69	67.88
602.84	44.47
603.00	124.05
603.16	86.60
603.31	0.00
603.47	138.09
603.62	133.41
603.78	65.54
603.94	95.96
604.09	91.28
604.25	39.79
604.40	124.05
604.56	126.39
604.71	119.37
604.87	2.34
605.03	67.88
605.18	128.73
605.34	84.26
605.49	63.19
605.65	77.24
605.80	53.83
605.96	16.38
606.12	121.71
606.27	100.64
606.43	56.17
606.58	35.11
606.74	30.43
606.89	81.92
607.05	2.34
607.20	98.30
607.36	95.96
607.51	100.64
607.67	56.17
607.82	121.71
607.98	72.56
608.13	42.13
608.29	14.04
608.44	46.81
608.60	60.85
608.75	112.35
608.91	100.64
609.06	35.11
609.22	105.32
609.37	60.85
609.53	44.47
609.68	79.58
609.84	16.38
609.99	117.03
610.15	65.54
610.30	84.26
610.46	49.15
610.61	84.26
610.76	37.45
610.92	28.09
611.07	72.56
611.23	107.66
611.38	149.79
611.54	72.56
611.69	42.13
611.84	81.92
612.00	14.04
612.15	51.49
612.31	56.17
612.46	37.45
612.62	88.94
612.77	107.66
612.92	112.35
613.08	30.43
613.23	21.06
613.39	119.37
613.54	117.03
613.69	32.77
613.85	107.66
614.00	86.60
614.15	46.81
614.31	16.38
614.46	28.09
614.62	86.60
614.77	133.41
614.92	44.47
615.08	135.75
615.23	88.94
615.38	105.32
615.54	21.06
615.69	58.51
615.84	7.02
616.00	74.90
616.15	72.56
616.30	60.85
616.46	42.13
616.61	74.90
616.76	56.17
616.92	0.00
617.07	0.00
617.22	44.47
617.37	79.58
617.53	14.04
617.68	30.43
617.83	53.83
617.99	39.79
618.14	39.79
618.29	0.00
618.45	128.73
618.60	51.49
618.75	32.77
618.90	86.60
619.06	70.22
619.21	35.11
619.36	77.24
619.51	58.51
619.67	102.98
619.82	0.00
619.97	39.79
620.12	37.45
620.28	93.62
620.43	60.85
620.58	30.43
620.73	60.85
620.89	152.13
621.04	81.92
621.19	81.92
621.34	121.71
621.49	65.54
621.65	46.81
621.80	32.77
621.95	81.92
622.10	44.47
622.25	23.41
622.41	133.41
622.56	100.64
622.71	60.85
622.86	79.58
623.01	72.56
623.16	86.60
623.32	114.69
623.47	63.19
623.62	98.30
623.77	67.88
623.92	39.79
624.07	56.17
624.23	23.41
624.38	32.77
624.53	51.49
624.68	25.75
624.83	70.22
624.98	23.41
625.13	74.90
625.29	60.85
625.44	11.70
625.59	86.60
625.74	102.98
625.89	63.19
626.04	65.54
626.19	56.17
626.34	95.96
626.49	77.24
626.65	98.30
626.80	74.90
626.95	25.75
627.10	81.92
627.25	88.94
627.40	39.79
627.55	51.49
627.70	32.77
627.85	65.54
628.00	60.85
628.15	32.77
628.30	72.56
628.45	65.54
628.60	37.45
628.76	91.28
628.91	98.30
629.06	72.56
629.21	67.88
629.36	74.90
629.51	14.04
629.66	56.17
629.81	0.00
629.96	16.38
630.11	88.94
630.26	58.51
630.41	72.56
630.56	140.43
630.71	79.58
630.86	100.64
631.01	46.81
631.16	58.51
631.31	21.06
631.46	35.11
631.61	107.66
631.76	25.75
631.91	56.17
632.06	98.30
632.21	44.47
632.36	53.83
632.51	39.79
632.66	56.17
632.81	112.35
632.96	56.17
633.10	23.41
633.25	107.66
633.40	18.72
633.55	16.38
633.70	112.35
633.85	72.56
634.00	46.81
634.15	63.19
634.30	95.96
634.45	93.62
634.60	86.60
634.75	44.47
634.90	58.51
635.05	79.58
635.19	88.94
635.34	63.19
635.49	28.09
635.64	58.51
635.79	154.48
635.94	86.60
636.09	72.56
636.24	63.19
636.39	42.13
636.53	44.47
636.68	0.00
636.83	81.92
636.98	91.28
637.13	28.09
637.28	46.81
637.43	74.90
637.57	32.77
637.72	60.85
637.87	9.36
638.02	67.88
638.17	0.00
638.32	35.11
638.46	56.17
638.61	70.22
638.76	53.83
638.91	84.26
639.06	16.38
639.20	67.88
639.35	98.30
639.50	0.00
639.65	23.41
639.80	60.85
639.94	77.24
640.09	63.19
640.24	0.00
640.39	42.13
640.54	42.13
640.68	39.79
640.83	51.49
640.98	88.94
641.13	14.04
641.27	46.81
641.42	58.51
641.57	0.00
641.72	32.77
641.86	46.81
642.01	39.79
642.16	49.15
642.31	70.22
642.45	65.54
642.60	35.11
642.75	7.02
642.90	100.64
643.04	0.00
643.19	74.90
643.34	25.75
643.48	49.15
643.63	102.98
643.78	56.17
643.93	30.43
644.07	119.37
644.22	84.26
644.37	21.06
644.51	93.62
644.66	51.49
644.81	81.92
644.95	117.03
645.10	79.58
645.25	7.02
645.39	70.22
645.54	21.06
645.69	114.69
645.83	91.28
645.98	110.01
646.13	58.51
646.27	65.54
646.42	23.41
646.57	60.85
646.71	107.66
646.86	0.00
647.00	51.49
647.15	117.03
647.30	70.22
647.44	102.98
647.59	84.26
647.74	114.69
647.88	16.38
648.03	131.07
648.17	95.96
648.32	67.88
648.47	39.79
648.61	0.00
648.76	0.00
648.90	53.83
649.05	98.30
649.20	58.51
649.34	86.60
649.49	18.72
649.63	135.75
649.78	30.43
649.92	23.41
650.07	0.00
650.21	70.22
650.36	53.83
650.51	51.49
650.65	72.56
650.80	119.37
650.94	84.26
651.09	39.79
651.23	67.88
651.38	39.79
651.52	70.22
651.67	42.13
651.81	74.90
651.96	51.49
652.10	128.73
652.25	93.62
652.39	70.22
652.54	35.11
652.68	56.17
652.83	114.69
652.97	79.58
653.12	65.54
653.26	86.60
653.41	81.92
653.55	51.49
653.70	28.09
653.84	72.56
653.99	88.94
654.13	42.13
654.27	0.00
654.42	14.04
654.56	0.00
654.71	63.19
654.85	51.49
655.00	46.81
655.14	51.49
655.29	51.49
655.43	51.49
655.57	56.17
655.72	37.45
655.86	63.19
656.01	28.09
656.15	79.58
656.30	88.94
656.44	58.51
656.58	56.17
656.73	95.96
656.87	30.43
657.01	0.00
657.16	46.81
657.30	93.62
657.45	18.72
657.59	117.03
657.73	119.37
657.88	67.88
658.02	81.92
658.16	56.17
658.31	56.17
658.45	79.58
658.60	44.47
658.74	14.04
658.88	32.77
659.03	18.72
659.17	63.19
659.31	63.19
659.46	35.11
659.60	70.22
659.74	77.24
659.89	102.98
660.03	88.94
660.17	56.17
660.32	126.39
660.46	77.24
660.60	49.15
660.74	81.92
660.89	39.79
661.03	32.77
661.17	11.70
661.32	39.79
661.46	65.54
661.60	100.64
661.74	56.17
661.89	4.68
662.03	42.13
662.17	30.43
662.31	112.35
662.46	67.88
662.60	91.28
662.74	60.85
662.88	23.41
663.03	72.56
663.17	84.26
663.31	46.81
663.45	58.51
663.60	46.81
663.74	117.03
663.88	11.70
664.02	14.04
664.17	23.41
664.31	28.09
664.45	18.72
664.59	53.83
664.73	79.58
664.88	4.68
665.02	81.92
665.16	56.17
665.30	72.56
665.44	30.43
665.59	67.88
665.73	98.30
665.87	88.94
666.01	102.98
666.15	105.32
666.29	4.68
666.44	46.81
666.58	126.39
666.72	42.13
666.86	21.06
667.00	49.15
667.14	11.70
667.28	100.64
667.43	25.75
667.57	79.58
667.71	102.98
667.85	98.30
667.99	53.83
668.13	0.00
668.27	11.70
668.41	25.75
668.56	88.94
668.70	91.28
668.84	77.24
668.98	84.26
669.12	133.41
669.26	42.13
669.40	39.79
669.54	21.06
669.68	77.24
669.82	58.51
669.96	0.00
670.10	63.19
670.25	81.92
670.39	35.11
670.53	30.43
670.67	72.56
670.81	39.79
670.95	70.22
671.09	49.15
671.23	32.77
671.37	0.00
671.51	39.79
671.65	30.43
671.79	58.51
671.93	102.98
672.07	70.22
672.21	81.92
672.35	145.11
672.49	91.28
672.63	46.81
672.77	46.81
672.91	51.49
673.05	0.00
673.19	18.72
673.33	58.51
673.47	18.72
673.61	0.00
673.75	67.88
673.89	60.85
674.03	70.22
674.17	58.51
674.31	21.06
674.45	63.19
674.59	79.58
674.73	53.83
674.87	18.72
675.01	25.75
675.15	65.54
675.29	77.24
675.43	42.13
675.56	39.79
675.70	70.22
675.84	117.03
675.98	72.56
676.12	0.00
676.26	51.49
676.40	14.04
676.54	53.83
676.68	74.90
676.82	79.58
676.96	88.94
677.10	56.17
677.23	0.00
677.37	81.92
677.51	107.66
677.65	65.54
677.79	30.43
677.93	93.62
678.07	35.11
678.21	37.45
678.34	84.26
678.48	25.75
678.62	49.15
678.76	79.58
678.90	14.04
679.04	11.70
679.18	42.13
679.31	30.43
679.45	100.64
679.59	0.00
679.73	2.34
679.87	117.03
680.00	49.15
680.14	37.45
680.28	60.85
680.42	0.00
680.56	42.13
680.70	37.45
680.83	23.41
680.97	77.24
681.11	79.58
681.25	23.41
681.39	53.83
681.52	0.00
681.66	0.00
681.80	46.81
681.94	77.24
682.07	25.75
682.21	2.34
682.35	88.94
682.49	105.32
682.62	67.88
682.76	84.26
682.90	42.13
683.04	72.56
683.17	67.88
683.31	60.85
683.45	58.51
683.59	0.00
683.72	51.49
683.86	30.43
684.00	32.77
684.13	23.41
684.27	11.70
684.41	4.68
684.55	37.45
684.68	16.38
684.82	37.45
684.96	117.03
685.09	21.06
685.23	21.06
685.37	72.56
685.50	81.92
685.64	110.01
685.78	21.06
685.91	35.11
686.05	86.60
686.19	16.38
686.32	28.09
686.46	39.79
686.60	37.45
686.73	42.13
686.87	46.81
687.01	4.68
687.14	51.49
687.28	42.13
687.42	16.38
687.55	0.00
687.69	16.38
687.82	84.26
687.96	53.83
688.10	70.22
688.23	18.72
688.37	42.13
688.50	56.17
688.64	126.39
688.78	72.56
688.91	7.02
689.05	7.02
689.18	91.28
689.32	79.58
689.46	0.00
689.59	53.83
689.73	25.75
689.86	21.06
690.00	56.17
690.13	21.06
690.27	0.00
690.41	112.35
690.54	49.15
690.68	51.49
690.81	58.51
690.95	0.00
691.08	28.09
691.22	32.77
691.35	46.81
691.49	42.13
691.62	0.00
691.76	39.79
691.89	30.43
692.03	56.17
692.16	67.88
692.30	25.75
692.43	23.41
692.57	0.00
692.70	84.26
692.84	42.13
692.97	49.15
693.11	11.70
693.24	74.90
693.38	0.00
693.51	60.85
693.65	63.19
693.78	0.00
693.92	18.72
694.05	0.00
694.19	51.49
694.32	30.43
694.45	0.00
694.59	42.13
694.72	28.09
694.86	0.00
694.99	14.04
695.13	0.00
695.26	46.81
695.39	44.47
695.53	46.81
695.66	23.41
695.80	21.06
695.93	0.00
696.07	25.75
696.20	28.09
696.33	93.62
696.47	72.56
696.60	84.26
696.73	0.00
696.87	79.58
697.00	46.81
697.14	79.58
697.27	0.00
697.40	0.00
697.54	16.38
697.67	58.51
697.80	49.15
697.94	7.02
698.07	21.06
698.21	60.85
698.34	9.36
698.47	9.36
698.61	77.24
698.74	53.83
698.87	60.85
699.01	46.81
699.14	30.43
699.27	32.77
699.40	102.98
699.54	35.11
699.67	28.09
699.80	2.34
699.94	0.00
700.07	0.00
700.20	23.41
700.34	0.00
700.47	0.00
700.60	4.68
700.73	46.81
700.87	98.30
701.00	56.17
701.13	39.79
701.26	0.00
701.40	30.43
701.53	77.24
701.66	0.00
701.79	65.54
701.93	60.85
702.06	30.43
702.19	14.04
702.32	117.03
702.46	74.90
702.59	4.68
702.72	23.41
702.85	0.00
702.99	81.92
703.12	0.00
703.25	53.83
703.38	58.51
703.51	37.45
703.65	25.75
703.78	60.85
703.91	32.77
704.04	91.28
704.17	4.68
704.31	81.92
704.44	0.00
704.57	44.47
704.70	39.79
704.83	72.56
704.96	7.02
705.10	91.28
705.23	7.02
>>>>>End Processed Spectral Data<<<<<
