SpectraSuite Data File
++++++++++++++++++++++++++++++++++++
Date: Fri Oct 04 12:13:35 GMT-05:00 2013
User: price-jones
Dark Spectrum Present: No
Reference Spectrum Present: No
Number of Sampled Component Spectra: 1
Spectrometers: USB2+H05261
Integration Time (usec): 10000 (USB2+H05261)
Spectra Averaged: 1 (USB2+H05261)
Boxcar Smoothing: 0 (USB2+H05261)
Correct for Electrical Dark: No (USB2+H05261)
Strobe/Lamp Enabled: No (USB2+H05261)
Correct for Detector Non-linearity: No (USB2+H05261)
Correct for Stray Light: No (USB2+H05261)
Number of Pixels in Processed Spectrum: 2048
>>>>>Begin Processed Spectral Data<<<<<
365.73	14.04
365.92	14.04
366.12	14.04
366.32	0.00
366.52	0.00
366.72	0.00
366.91	0.00
367.11	0.00
367.31	0.00
367.51	0.00
367.70	0.00
367.90	0.00
368.10	0.00
368.30	0.00
368.49	0.00
368.69	0.00
368.89	0.00
369.09	0.00
369.28	0.00
369.48	0.00
369.68	0.00
369.87	0.00
370.07	0.00
370.27	0.00
370.47	0.00
370.66	0.00
370.86	0.00
371.06	0.00
371.25	0.00
371.45	0.00
371.65	0.00
371.84	2.34
372.04	0.00
372.24	0.00
372.44	44.47
372.63	0.00
372.83	32.77
373.03	0.00
373.22	14.04
373.42	0.00
373.62	77.24
373.81	84.26
374.01	0.00
374.21	60.85
374.40	37.45
374.60	21.06
374.79	117.03
374.99	16.38
375.19	9.36
375.38	79.58
375.58	58.51
375.78	51.49
375.97	9.36
376.17	65.54
376.37	23.41
376.56	51.49
376.76	14.04
376.95	63.19
377.15	49.15
377.35	81.92
377.54	28.09
377.74	44.47
377.93	23.41
378.13	46.81
378.33	56.17
378.52	56.17
378.72	37.45
378.91	39.79
379.11	72.56
379.31	0.00
379.50	0.00
379.70	53.83
379.89	0.00
380.09	0.00
380.28	37.45
380.48	65.54
380.68	56.17
380.87	70.22
381.07	0.00
381.26	9.36
381.46	0.00
381.65	67.88
381.85	32.77
382.04	35.11
382.24	65.54
382.43	0.00
382.63	23.41
382.83	14.04
383.02	30.43
383.22	25.75
383.41	46.81
383.61	18.72
383.80	0.00
384.00	74.90
384.19	117.03
384.39	9.36
384.58	56.17
384.78	51.49
384.97	9.36
385.17	0.00
385.36	0.00
385.56	67.88
385.75	0.00
385.95	0.00
386.14	65.54
386.34	0.00
386.53	46.81
386.72	2.34
386.92	11.70
387.11	0.00
387.31	35.11
387.50	105.32
387.70	7.02
387.89	53.83
388.09	0.00
388.28	0.00
388.48	0.00
388.67	58.51
388.86	60.85
389.06	39.79
389.25	44.47
389.45	11.70
389.64	0.00
389.84	74.90
390.03	88.94
390.22	16.38
390.42	32.77
390.61	56.17
390.81	35.11
391.00	0.00
391.19	53.83
391.39	25.75
391.58	58.51
391.78	51.49
391.97	74.90
392.16	46.81
392.36	0.00
392.55	18.72
392.75	0.00
392.94	4.68
393.13	60.85
393.33	53.83
393.52	9.36
393.71	46.81
393.91	35.11
394.10	46.81
394.29	0.00
394.49	18.72
394.68	49.15
394.88	0.00
395.07	11.70
395.26	30.43
395.46	18.72
395.65	0.00
395.84	4.68
396.04	81.92
396.23	4.68
396.42	23.41
396.62	11.70
396.81	39.79
397.00	11.70
397.19	4.68
397.39	0.00
397.58	0.00
397.77	60.85
397.97	0.00
398.16	16.38
398.35	39.79
398.55	65.54
398.74	79.58
398.93	0.00
399.12	0.00
399.32	11.70
399.51	39.79
399.70	4.68
399.90	74.90
400.09	60.85
400.28	70.22
400.47	53.83
400.67	0.00
400.86	39.79
401.05	0.00
401.24	0.00
401.44	0.00
401.63	0.00
401.82	0.00
402.01	67.88
402.21	67.88
402.40	28.09
402.59	37.45
402.78	67.88
402.97	0.00
403.17	14.04
403.36	95.96
403.55	86.60
403.74	32.77
403.93	0.00
404.13	21.06
404.32	7.02
404.51	16.38
404.70	28.09
404.89	46.81
405.09	0.00
405.28	88.94
405.47	37.45
405.66	72.56
405.85	79.58
406.05	0.00
406.24	63.19
406.43	9.36
406.62	53.83
406.81	2.34
407.00	93.62
407.20	14.04
407.39	7.02
407.58	91.28
407.77	131.07
407.96	44.47
408.15	42.13
408.34	35.11
408.54	32.77
408.73	0.00
408.92	23.41
409.11	0.00
409.30	53.83
409.49	18.72
409.68	56.17
409.87	51.49
410.07	16.38
410.26	70.22
410.45	0.00
410.64	37.45
410.83	44.47
411.02	0.00
411.21	91.28
411.40	84.26
411.59	35.11
411.78	32.77
411.98	0.00
412.17	2.34
412.36	77.24
412.55	37.45
412.74	95.96
412.93	42.13
413.12	32.77
413.31	0.00
413.50	49.15
413.69	23.41
413.88	100.64
414.07	0.00
414.26	28.09
414.45	42.13
414.64	28.09
414.83	0.00
415.02	77.24
415.22	9.36
415.41	4.68
415.60	46.81
415.79	0.00
415.98	4.68
416.17	56.17
416.36	53.83
416.55	93.62
416.74	2.34
416.93	79.58
417.12	0.00
417.31	63.19
417.50	39.79
417.69	77.24
417.88	9.36
418.07	30.43
418.26	56.17
418.45	49.15
418.64	0.00
418.83	53.83
419.02	0.00
419.21	37.45
419.39	0.00
419.58	84.26
419.77	42.13
419.96	32.77
420.15	37.45
420.34	28.09
420.53	112.35
420.72	70.22
420.91	30.43
421.10	16.38
421.29	25.75
421.48	56.17
421.67	63.19
421.86	37.45
422.05	4.68
422.24	72.56
422.43	79.58
422.61	0.00
422.80	16.38
422.99	0.00
423.18	28.09
423.37	0.00
423.56	53.83
423.75	39.79
423.94	79.58
424.13	0.00
424.32	74.90
424.50	81.92
424.69	77.24
424.88	79.58
425.07	37.45
425.26	60.85
425.45	86.60
425.64	28.09
425.83	0.00
426.01	86.60
426.20	51.49
426.39	0.00
426.58	95.96
426.77	56.17
426.96	28.09
427.15	53.83
427.33	65.54
427.52	0.00
427.71	0.00
427.90	23.41
428.09	65.54
428.28	0.00
428.46	102.98
428.65	11.70
428.84	46.81
429.03	35.11
429.22	58.51
429.40	49.15
429.59	0.00
429.78	0.00
429.97	14.04
430.16	63.19
430.34	0.00
430.53	0.00
430.72	0.00
430.91	44.47
431.10	9.36
431.28	35.11
431.47	56.17
431.66	60.85
431.85	60.85
432.03	0.00
432.22	46.81
432.41	74.90
432.60	46.81
432.79	0.00
432.97	16.38
433.16	39.79
433.35	42.13
433.54	0.00
433.72	9.36
433.91	35.11
434.10	93.62
434.28	16.38
434.47	91.28
434.66	100.64
434.85	39.79
435.03	23.41
435.22	2.34
435.41	0.00
435.59	16.38
435.78	28.09
435.97	133.41
436.16	84.26
436.34	77.24
436.53	18.72
436.72	163.84
436.90	44.47
437.09	0.00
437.28	46.81
437.46	63.19
437.65	58.51
437.84	70.22
438.02	70.22
438.21	88.94
438.40	60.85
438.58	0.00
438.77	49.15
438.96	46.81
439.14	42.13
439.33	88.94
439.52	67.88
439.70	58.51
439.89	0.00
440.08	58.51
440.26	56.17
440.45	60.85
440.63	53.83
440.82	11.70
441.01	30.43
441.19	9.36
441.38	0.00
441.57	0.00
441.75	63.19
441.94	25.75
442.12	30.43
442.31	70.22
442.50	58.51
442.68	18.72
442.87	51.49
443.05	102.98
443.24	11.70
443.43	0.00
443.61	74.90
443.80	25.75
443.98	14.04
444.17	0.00
444.35	42.13
444.54	88.94
444.73	56.17
444.91	0.00
445.10	32.77
445.28	16.38
445.47	77.24
445.65	72.56
445.84	60.85
446.02	25.75
446.21	16.38
446.39	117.03
446.58	65.54
446.77	95.96
446.95	117.03
447.14	63.19
447.32	18.72
447.51	16.38
447.69	23.41
447.88	63.19
448.06	51.49
448.25	98.30
448.43	72.56
448.62	60.85
448.80	51.49
448.99	147.45
449.17	53.83
449.36	56.17
449.54	39.79
449.73	21.06
449.91	0.00
450.10	91.28
450.28	86.60
450.46	0.00
450.65	65.54
450.83	32.77
451.02	91.28
451.20	60.85
451.39	114.69
451.57	60.85
451.76	53.83
451.94	74.90
452.13	63.19
452.31	0.00
452.49	30.43
452.68	100.64
452.86	60.85
453.05	23.41
453.23	7.02
453.42	95.96
453.60	86.60
453.78	0.00
453.97	11.70
454.15	0.00
454.34	44.47
454.52	53.83
454.70	84.26
454.89	65.54
455.07	21.06
455.26	51.49
455.44	93.62
455.62	51.49
455.81	74.90
455.99	30.43
456.17	93.62
456.36	37.45
456.54	37.45
456.73	81.92
456.91	74.90
457.09	37.45
457.28	88.94
457.46	100.64
457.64	16.38
457.83	37.45
458.01	0.00
458.19	16.38
458.38	114.69
458.56	84.26
458.74	88.94
458.93	79.58
459.11	58.51
459.29	0.00
459.48	14.04
459.66	7.02
459.84	0.00
460.03	42.13
460.21	37.45
460.39	133.41
460.57	63.19
460.76	11.70
460.94	14.04
461.12	4.68
461.31	9.36
461.49	65.54
461.67	121.71
461.85	63.19
462.04	46.81
462.22	37.45
462.40	37.45
462.59	53.83
462.77	0.00
462.95	18.72
463.13	65.54
463.32	4.68
463.50	18.72
463.68	107.66
463.86	51.49
464.05	23.41
464.23	21.06
464.41	0.00
464.59	58.51
464.78	53.83
464.96	39.79
465.14	0.00
465.32	0.00
465.50	46.81
465.69	110.01
465.87	0.00
466.05	30.43
466.23	4.68
466.41	18.72
466.60	93.62
466.78	4.68
466.96	72.56
467.14	65.54
467.32	131.07
467.51	67.88
467.69	0.00
467.87	102.98
468.05	0.00
468.23	9.36
468.41	0.00
468.60	21.06
468.78	49.15
468.96	65.54
469.14	88.94
469.32	16.38
469.50	23.41
469.69	42.13
469.87	72.56
470.05	81.92
470.23	35.11
470.41	42.13
470.59	58.51
470.77	84.26
470.95	42.13
471.14	67.88
471.32	35.11
471.50	88.94
471.68	86.60
471.86	105.32
472.04	107.66
472.22	23.41
472.40	14.04
472.58	35.11
472.77	16.38
472.95	126.39
473.13	4.68
473.31	70.22
473.49	70.22
473.67	16.38
473.85	72.56
474.03	95.96
474.21	119.37
474.39	67.88
474.57	39.79
474.75	25.75
474.93	30.43
475.12	0.00
475.30	30.43
475.48	65.54
475.66	53.83
475.84	28.09
476.02	74.90
476.20	138.09
476.38	2.34
476.56	4.68
476.74	51.49
476.92	23.41
477.10	56.17
477.28	112.35
477.46	110.01
477.64	53.83
477.82	51.49
478.00	11.70
478.18	35.11
478.36	53.83
478.54	18.72
478.72	0.00
478.90	86.60
479.08	121.71
479.26	98.30
479.44	46.81
479.62	65.54
479.80	100.64
479.98	105.32
480.16	39.79
480.34	98.30
480.52	65.54
480.70	46.81
480.88	100.64
481.06	46.81
481.24	35.11
481.41	53.83
481.59	84.26
481.77	30.43
481.95	88.94
482.13	35.11
482.31	39.79
482.49	65.54
482.67	0.00
482.85	32.77
483.03	72.56
483.21	60.85
483.39	37.45
483.57	58.51
483.74	102.98
483.92	88.94
484.10	114.69
484.28	60.85
484.46	39.79
484.64	9.36
484.82	42.13
485.00	63.19
485.18	128.73
485.35	0.00
485.53	51.49
485.71	65.54
485.89	56.17
486.07	114.69
486.25	58.51
486.43	70.22
486.61	74.90
486.78	81.92
486.96	51.49
487.14	11.70
487.32	107.66
487.50	56.17
487.68	102.98
487.85	74.90
488.03	58.51
488.21	133.41
488.39	77.24
488.57	79.58
488.75	107.66
488.92	60.85
489.10	65.54
489.28	102.98
489.46	35.11
489.64	93.62
489.81	88.94
489.99	88.94
490.17	95.96
490.35	14.04
490.53	119.37
490.70	110.01
490.88	0.00
491.06	79.58
491.24	65.54
491.41	84.26
491.59	77.24
491.77	56.17
491.95	32.77
492.13	91.28
492.30	95.96
492.48	53.83
492.66	74.90
492.84	0.00
493.01	86.60
493.19	79.58
493.37	112.35
493.54	70.22
493.72	23.41
493.90	37.45
494.08	53.83
494.25	35.11
494.43	37.45
494.61	63.19
494.79	25.75
494.96	95.96
495.14	114.69
495.32	46.81
495.49	105.32
495.67	72.56
495.85	44.47
496.02	70.22
496.20	67.88
496.38	77.24
496.55	79.58
496.73	56.17
496.91	46.81
497.09	18.72
497.26	11.70
497.44	102.98
497.62	56.17
497.79	37.45
497.97	37.45
498.14	46.81
498.32	100.64
498.50	126.39
498.67	39.79
498.85	88.94
499.03	65.54
499.20	128.73
499.38	63.19
499.56	70.22
499.73	32.77
499.91	140.43
500.08	9.36
500.26	86.60
500.44	124.05
500.61	159.16
500.79	98.30
500.97	70.22
501.14	67.88
501.32	11.70
501.49	102.98
501.67	28.09
501.84	56.17
502.02	145.11
502.20	56.17
502.37	100.64
502.55	16.38
502.72	63.19
502.90	133.41
503.07	79.58
503.25	21.06
503.43	138.09
503.60	21.06
503.78	23.41
503.95	44.47
504.13	60.85
504.30	88.94
504.48	53.83
504.65	133.41
504.83	81.92
505.01	72.56
505.18	110.01
505.36	121.71
505.53	44.47
505.71	21.06
505.88	110.01
506.06	81.92
506.23	72.56
506.41	63.19
506.58	46.81
506.76	9.36
506.93	86.60
507.11	114.69
507.28	58.51
507.46	70.22
507.63	49.15
507.81	49.15
507.98	56.17
508.16	49.15
508.33	128.73
508.50	79.58
508.68	63.19
508.85	70.22
509.03	100.64
509.20	23.41
509.38	44.47
509.55	60.85
509.73	93.62
509.90	74.90
510.08	63.19
510.25	105.32
510.42	124.05
510.60	88.94
510.77	63.19
510.95	63.19
511.12	117.03
511.30	133.41
511.47	49.15
511.64	56.17
511.82	70.22
511.99	32.77
512.17	112.35
512.34	112.35
512.51	112.35
512.69	81.92
512.86	88.94
513.04	23.41
513.21	37.45
513.38	46.81
513.56	147.45
513.73	126.39
513.90	100.64
514.08	142.77
514.25	14.04
514.43	65.54
514.60	79.58
514.77	98.30
514.95	53.83
515.12	42.13
515.29	63.19
515.47	39.79
515.64	86.60
515.81	133.41
515.99	65.54
516.16	60.85
516.33	63.19
516.51	70.22
516.68	42.13
516.85	77.24
517.03	49.15
517.20	93.62
517.37	128.73
517.54	140.43
517.72	107.66
517.89	91.28
518.06	72.56
518.24	67.88
518.41	98.30
518.58	112.35
518.75	81.92
518.93	86.60
519.10	51.49
519.27	126.39
519.45	63.19
519.62	70.22
519.79	46.81
519.96	23.41
520.14	88.94
520.31	91.28
520.48	84.26
520.65	93.62
520.83	65.54
521.00	70.22
521.17	51.49
521.34	53.83
521.52	63.19
521.69	0.00
521.86	28.09
522.03	93.62
522.20	72.56
522.38	79.58
522.55	86.60
522.72	39.79
522.89	51.49
523.07	79.58
523.24	60.85
523.41	18.72
523.58	107.66
523.75	81.92
523.92	119.37
524.10	65.54
524.27	128.73
524.44	86.60
524.61	53.83
524.78	102.98
524.96	112.35
525.13	72.56
525.30	102.98
525.47	117.03
525.64	145.11
525.81	84.26
525.98	93.62
526.16	79.58
526.33	81.92
526.50	126.39
526.67	58.51
526.84	86.60
527.01	0.00
527.18	70.22
527.36	117.03
527.53	67.88
527.70	138.09
527.87	110.01
528.04	121.71
528.21	42.13
528.38	107.66
528.55	74.90
528.72	142.77
528.89	117.03
529.07	161.50
529.24	32.77
529.41	140.43
529.58	124.05
529.75	51.49
529.92	91.28
530.09	107.66
530.26	114.69
530.43	110.01
530.60	110.01
530.77	46.81
530.94	147.45
531.11	37.45
531.28	46.81
531.46	60.85
531.63	107.66
531.80	88.94
531.97	114.69
532.14	42.13
532.31	58.51
532.48	74.90
532.65	39.79
532.82	100.64
532.99	121.71
533.16	88.94
533.33	93.62
533.50	126.39
533.67	93.62
533.84	105.32
534.01	70.22
534.18	93.62
534.35	112.35
534.52	77.24
534.69	102.98
534.86	42.13
535.03	23.41
535.20	86.60
535.37	121.71
535.54	84.26
535.71	49.15
535.88	110.01
536.05	72.56
536.22	126.39
536.38	112.35
536.55	105.32
536.72	152.13
536.89	67.88
537.06	168.52
537.23	60.85
537.40	25.75
537.57	105.32
537.74	100.64
537.91	67.88
538.08	49.15
538.25	88.94
538.42	100.64
538.59	93.62
538.75	30.43
538.92	81.92
539.09	107.66
539.26	95.96
539.43	95.96
539.60	124.05
539.77	168.52
539.94	0.00
540.11	0.00
540.28	70.22
540.44	42.13
540.61	65.54
540.78	133.41
540.95	56.17
541.12	81.92
541.29	138.09
541.46	91.28
541.62	128.73
541.79	91.28
541.96	16.38
542.13	98.30
542.30	79.58
542.47	105.32
542.63	44.47
542.80	79.58
542.97	56.17
543.14	100.64
543.31	56.17
543.48	105.32
543.64	4.68
543.81	63.19
543.98	86.60
544.15	56.17
544.32	126.39
544.48	119.37
544.65	46.81
544.82	84.26
544.99	32.77
545.16	44.47
545.32	70.22
545.49	91.28
545.66	58.51
545.83	84.26
546.00	98.30
546.16	95.96
546.33	135.75
546.50	42.13
546.67	95.96
546.83	91.28
547.00	37.45
547.17	0.00
547.34	93.62
547.50	51.49
547.67	49.15
547.84	79.58
548.00	117.03
548.17	2.34
548.34	81.92
548.51	84.26
548.67	135.75
548.84	49.15
549.01	119.37
549.18	44.47
549.34	93.62
549.51	124.05
549.68	51.49
549.84	126.39
550.01	177.88
550.18	119.37
550.34	105.32
550.51	88.94
550.68	60.85
550.84	142.77
551.01	112.35
551.18	49.15
551.34	77.24
551.51	112.35
551.68	91.28
551.84	28.09
552.01	91.28
552.18	44.47
552.34	126.39
552.51	126.39
552.68	93.62
552.84	72.56
553.01	72.56
553.18	25.75
553.34	100.64
553.51	126.39
553.67	124.05
553.84	126.39
554.01	65.54
554.17	44.47
554.34	149.79
554.51	51.49
554.67	124.05
554.84	28.09
555.00	88.94
555.17	131.07
555.33	67.88
555.50	58.51
555.67	72.56
555.83	121.71
556.00	44.47
556.16	133.41
556.33	133.41
556.50	72.56
556.66	65.54
556.83	95.96
556.99	84.26
557.16	74.90
557.32	152.13
557.49	119.37
557.65	72.56
557.82	53.83
557.98	16.38
558.15	63.19
558.32	86.60
558.48	58.51
558.65	14.04
558.81	72.56
558.98	67.88
559.14	86.60
559.31	4.68
559.47	107.66
559.64	32.77
559.80	100.64
559.97	112.35
560.13	124.05
560.30	65.54
560.46	114.69
560.63	135.75
560.79	114.69
560.96	88.94
561.12	102.98
561.29	72.56
561.45	70.22
561.61	28.09
561.78	110.01
561.94	77.24
562.11	53.83
562.27	107.66
562.44	46.81
562.60	98.30
562.77	117.03
562.93	95.96
563.10	119.37
563.26	98.30
563.42	156.82
563.59	98.30
563.75	32.77
563.92	114.69
564.08	65.54
564.24	91.28
564.41	126.39
564.57	46.81
564.74	7.02
564.90	138.09
565.07	77.24
565.23	135.75
565.39	112.35
565.56	117.03
565.72	145.11
565.88	105.32
566.05	168.52
566.21	100.64
566.38	21.06
566.54	53.83
566.70	11.70
566.87	37.45
567.03	79.58
567.19	131.07
567.36	65.54
567.52	88.94
567.68	117.03
567.85	102.98
568.01	44.47
568.17	42.13
568.34	91.28
568.50	28.09
568.66	35.11
568.83	128.73
568.99	117.03
569.15	53.83
569.32	79.58
569.48	107.66
569.64	81.92
569.81	9.36
569.97	72.56
570.13	110.01
570.30	74.90
570.46	56.17
570.62	110.01
570.78	124.05
570.95	110.01
571.11	79.58
571.27	119.37
571.43	67.88
571.60	100.64
571.76	154.48
571.92	39.79
572.09	79.58
572.25	65.54
572.41	72.56
572.57	81.92
572.74	72.56
572.90	119.37
573.06	49.15
573.22	91.28
573.38	152.13
573.55	112.35
573.71	91.28
573.87	98.30
574.03	56.17
574.20	121.71
574.36	49.15
574.52	0.00
574.68	56.17
574.84	84.26
575.01	119.37
575.17	30.43
575.33	14.04
575.49	105.32
575.65	79.58
575.82	77.24
575.98	121.71
576.14	44.47
576.30	35.11
576.46	39.79
576.62	21.06
576.79	9.36
576.95	53.83
577.11	65.54
577.27	93.62
577.43	51.49
577.59	140.43
577.75	72.56
577.92	25.75
578.08	25.75
578.24	93.62
578.40	100.64
578.56	114.69
578.72	70.22
578.88	84.26
579.04	70.22
579.21	51.49
579.37	70.22
579.53	140.43
579.69	16.38
579.85	77.24
580.01	35.11
580.17	112.35
580.33	88.94
580.49	100.64
580.65	159.16
580.82	117.03
580.98	58.51
581.14	131.07
581.30	84.26
581.46	67.88
581.62	56.17
581.78	107.66
581.94	72.56
582.10	42.13
582.26	44.47
582.42	100.64
582.58	117.03
582.74	49.15
582.90	72.56
583.06	25.75
583.22	58.51
583.38	86.60
583.54	140.43
583.70	37.45
583.86	140.43
584.02	98.30
584.18	100.64
584.34	16.38
584.50	79.58
584.66	65.54
584.82	79.58
584.98	56.17
585.14	2.34
585.30	86.60
585.46	63.19
585.62	119.37
585.78	63.19
585.94	37.45
586.10	93.62
586.26	46.81
586.42	173.20
586.58	93.62
586.74	124.05
586.90	35.11
587.06	58.51
587.22	81.92
587.38	100.64
587.54	126.39
587.70	124.05
587.86	110.01
588.02	58.51
588.18	102.98
588.34	35.11
588.49	49.15
588.65	0.00
588.81	72.56
588.97	14.04
589.13	114.69
589.29	0.00
589.45	0.00
589.61	58.51
589.77	53.83
589.93	37.45
590.08	60.85
590.24	9.36
590.40	81.92
590.56	149.79
590.72	56.17
590.88	77.24
591.04	70.22
591.20	74.90
591.35	100.64
591.51	67.88
591.67	84.26
591.83	0.00
591.99	133.41
592.15	88.94
592.31	98.30
592.46	32.77
592.62	110.01
592.78	114.69
592.94	32.77
593.10	79.58
593.26	107.66
593.41	53.83
593.57	28.09
593.73	86.60
593.89	23.41
594.05	18.72
594.20	32.77
594.36	39.79
594.52	110.01
594.68	100.64
594.84	140.43
594.99	72.56
595.15	110.01
595.31	105.32
595.47	30.43
595.62	30.43
595.78	110.01
595.94	110.01
596.10	16.38
596.25	9.36
596.41	98.30
596.57	0.00
596.73	42.13
596.88	51.49
597.04	70.22
597.20	77.24
597.36	58.51
597.51	0.00
597.67	9.36
597.83	56.17
597.99	4.68
598.14	35.11
598.30	138.09
598.46	46.81
598.61	11.70
598.77	23.41
598.93	84.26
599.09	166.18
599.24	107.66
599.40	25.75
599.56	53.83
599.71	32.77
599.87	77.24
600.03	74.90
600.18	53.83
600.34	175.54
600.50	86.60
600.65	70.22
600.81	65.54
600.97	126.39
601.12	60.85
601.28	126.39
601.44	128.73
601.59	88.94
601.75	46.81
601.91	70.22
602.06	30.43
602.22	86.60
602.37	9.36
602.53	124.05
602.69	42.13
602.84	56.17
603.00	93.62
603.16	77.24
603.31	95.96
603.47	86.60
603.62	44.47
603.78	32.77
603.94	86.60
604.09	37.45
604.25	39.79
604.40	74.90
604.56	117.03
604.71	88.94
604.87	51.49
605.03	51.49
605.18	25.75
605.34	58.51
605.49	70.22
605.65	133.41
605.80	25.75
605.96	67.88
606.12	28.09
606.27	81.92
606.43	11.70
606.58	25.75
606.74	51.49
606.89	67.88
607.05	100.64
607.20	81.92
607.36	56.17
607.51	91.28
607.67	39.79
607.82	105.32
607.98	117.03
608.13	16.38
608.29	91.28
608.44	84.26
608.60	49.15
608.75	65.54
608.91	128.73
609.06	39.79
609.22	0.00
609.37	112.35
609.53	30.43
609.68	7.02
609.84	93.62
609.99	77.24
610.15	67.88
610.30	95.96
610.46	56.17
610.61	93.62
610.76	51.49
610.92	100.64
611.07	72.56
611.23	67.88
611.38	79.58
611.54	53.83
611.69	70.22
611.84	51.49
612.00	37.45
612.15	77.24
612.31	60.85
612.46	98.30
612.62	63.19
612.77	84.26
612.92	49.15
613.08	124.05
613.23	98.30
613.39	32.77
613.54	140.43
613.69	107.66
613.85	81.92
614.00	56.17
614.15	72.56
614.31	98.30
614.46	0.00
614.62	77.24
614.77	105.32
614.92	65.54
615.08	124.05
615.23	114.69
615.38	119.37
615.54	44.47
615.69	25.75
615.84	79.58
616.00	53.83
616.15	84.26
616.30	53.83
616.46	42.13
616.61	2.34
616.76	37.45
616.92	77.24
617.07	46.81
617.22	53.83
617.37	58.51
617.53	79.58
617.68	39.79
617.83	126.39
617.99	128.73
618.14	0.00
618.29	35.11
618.45	72.56
618.60	72.56
618.75	44.47
618.90	51.49
619.06	95.96
619.21	7.02
619.36	70.22
619.51	37.45
619.67	65.54
619.82	9.36
619.97	18.72
620.12	49.15
620.28	72.56
620.43	102.98
620.58	175.54
620.73	131.07
620.89	156.82
621.04	49.15
621.19	49.15
621.34	51.49
621.49	0.00
621.65	152.13
621.80	70.22
621.95	42.13
622.10	35.11
622.25	112.35
622.41	46.81
622.56	117.03
622.71	53.83
622.86	140.43
623.01	74.90
623.16	74.90
623.32	77.24
623.47	18.72
623.62	93.62
623.77	25.75
623.92	37.45
624.07	28.09
624.23	51.49
624.38	46.81
624.53	23.41
624.68	16.38
624.83	4.68
624.98	95.96
625.13	32.77
625.29	44.47
625.44	14.04
625.59	44.47
625.74	0.00
625.89	53.83
626.04	107.66
626.19	53.83
626.34	7.02
626.49	37.45
626.65	67.88
626.80	124.05
626.95	88.94
627.10	58.51
627.25	14.04
627.40	0.00
627.55	30.43
627.70	23.41
627.85	28.09
628.00	16.38
628.15	30.43
628.30	0.00
628.45	107.66
628.60	79.58
628.76	49.15
628.91	32.77
629.06	2.34
629.21	63.19
629.36	21.06
629.51	18.72
629.66	79.58
629.81	102.98
629.96	60.85
630.11	39.79
630.26	56.17
630.41	23.41
630.56	23.41
630.71	140.43
630.86	77.24
631.01	84.26
631.16	74.90
631.31	58.51
631.46	65.54
631.61	74.90
631.76	81.92
631.91	63.19
632.06	88.94
632.21	91.28
632.36	119.37
632.51	7.02
632.66	91.28
632.81	49.15
632.96	21.06
633.10	30.43
633.25	77.24
633.40	84.26
633.55	107.66
633.70	51.49
633.85	86.60
634.00	67.88
634.15	79.58
634.30	58.51
634.45	60.85
634.60	18.72
634.75	53.83
634.90	84.26
635.05	60.85
635.19	56.17
635.34	0.00
635.49	39.79
635.64	16.38
635.79	142.77
635.94	14.04
636.09	72.56
636.24	11.70
636.39	124.05
636.53	95.96
636.68	7.02
636.83	74.90
636.98	72.56
637.13	67.88
637.28	53.83
637.43	14.04
637.57	131.07
637.72	58.51
637.87	72.56
638.02	0.00
638.17	117.03
638.32	98.30
638.46	77.24
638.61	0.00
638.76	91.28
638.91	95.96
639.06	63.19
639.20	37.45
639.35	60.85
639.50	4.68
639.65	156.82
639.80	39.79
639.94	79.58
640.09	42.13
640.24	142.77
640.39	32.77
640.54	4.68
640.68	163.84
640.83	37.45
640.98	51.49
641.13	30.43
641.27	112.35
641.42	93.62
641.57	110.01
641.72	56.17
641.86	25.75
642.01	14.04
642.16	53.83
642.31	35.11
642.45	65.54
642.60	46.81
642.75	98.30
642.90	84.26
643.04	112.35
643.19	18.72
643.34	72.56
643.48	70.22
643.63	105.32
643.78	114.69
643.93	86.60
644.07	44.47
644.22	67.88
644.37	79.58
644.51	42.13
644.66	84.26
644.81	84.26
644.95	23.41
645.10	51.49
645.25	0.00
645.39	65.54
645.54	30.43
645.69	49.15
645.83	58.51
645.98	95.96
646.13	42.13
646.27	14.04
646.42	53.83
646.57	88.94
646.71	93.62
646.86	147.45
647.00	84.26
647.15	39.79
647.30	32.77
647.44	81.92
647.59	46.81
647.74	56.17
647.88	93.62
648.03	35.11
648.17	30.43
648.32	51.49
648.47	7.02
648.61	7.02
648.76	91.28
648.90	46.81
649.05	37.45
649.20	28.09
649.34	49.15
649.49	0.00
649.63	14.04
649.78	74.90
649.92	51.49
650.07	35.11
650.21	28.09
650.36	11.70
650.51	11.70
650.65	88.94
650.80	25.75
650.94	32.77
651.09	46.81
651.23	0.00
651.38	88.94
651.52	42.13
651.67	77.24
651.81	39.79
651.96	21.06
652.10	86.60
652.25	126.39
652.39	21.06
652.54	39.79
652.68	46.81
652.83	58.51
652.97	44.47
653.12	32.77
653.26	72.56
653.41	86.60
653.55	11.70
653.70	58.51
653.84	53.83
653.99	121.71
654.13	77.24
654.27	81.92
654.42	72.56
654.56	46.81
654.71	14.04
654.85	39.79
655.00	35.11
655.14	60.85
655.29	0.00
655.43	37.45
655.57	25.75
655.72	51.49
655.86	88.94
656.01	114.69
656.15	74.90
656.30	25.75
656.44	74.90
656.58	74.90
656.73	14.04
656.87	56.17
657.01	53.83
657.16	114.69
657.30	88.94
657.45	81.92
657.59	74.90
657.73	65.54
657.88	28.09
658.02	70.22
658.16	98.30
658.31	46.81
658.45	16.38
658.60	35.11
658.74	51.49
658.88	42.13
659.03	23.41
659.17	117.03
659.31	35.11
659.46	67.88
659.60	93.62
659.74	25.75
659.89	79.58
660.03	67.88
660.17	56.17
660.32	105.32
660.46	105.32
660.60	60.85
660.74	49.15
660.89	74.90
661.03	49.15
661.17	0.00
661.32	32.77
661.46	16.38
661.60	46.81
661.74	58.51
661.89	44.47
662.03	56.17
662.17	0.00
662.31	72.56
662.46	53.83
662.60	46.81
662.74	56.17
662.88	86.60
663.03	37.45
663.17	53.83
663.31	65.54
663.45	77.24
663.60	28.09
663.74	77.24
663.88	84.26
664.02	65.54
664.17	72.56
664.31	53.83
664.45	16.38
664.59	18.72
664.73	32.77
664.88	58.51
665.02	77.24
665.16	79.58
665.30	95.96
665.44	86.60
665.59	88.94
665.73	79.58
665.87	93.62
666.01	114.69
666.15	0.00
666.29	79.58
666.44	98.30
666.58	42.13
666.72	23.41
666.86	46.81
667.00	74.90
667.14	37.45
667.28	65.54
667.43	35.11
667.57	39.79
667.71	35.11
667.85	37.45
667.99	84.26
668.13	7.02
668.27	23.41
668.41	72.56
668.56	46.81
668.70	49.15
668.84	84.26
668.98	93.62
669.12	86.60
669.26	30.43
669.40	91.28
669.54	56.17
669.68	39.79
669.82	14.04
669.96	140.43
670.10	72.56
670.25	16.38
670.39	37.45
670.53	0.00
670.67	107.66
670.81	42.13
670.95	56.17
671.09	25.75
671.23	11.70
671.37	46.81
671.51	44.47
671.65	60.85
671.79	79.58
671.93	32.77
672.07	9.36
672.21	32.77
672.35	35.11
672.49	46.81
672.63	95.96
672.77	0.00
672.91	51.49
673.05	56.17
673.19	16.38
673.33	18.72
673.47	16.38
673.61	11.70
673.75	100.64
673.89	42.13
674.03	58.51
674.17	93.62
674.31	74.90
674.45	65.54
674.59	14.04
674.73	21.06
674.87	84.26
675.01	81.92
675.15	0.00
675.29	18.72
675.43	46.81
675.56	46.81
675.70	77.24
675.84	72.56
675.98	72.56
676.12	0.00
676.26	11.70
676.40	49.15
676.54	37.45
676.68	30.43
676.82	102.98
676.96	72.56
677.10	51.49
677.23	11.70
677.37	21.06
677.51	21.06
677.65	79.58
677.79	46.81
677.93	58.51
678.07	51.49
678.21	35.11
678.34	42.13
678.48	58.51
678.62	46.81
678.76	35.11
678.90	37.45
679.04	98.30
679.18	63.19
679.31	60.85
679.45	0.00
679.59	72.56
679.73	0.00
679.87	30.43
680.00	32.77
680.14	30.43
680.28	58.51
680.42	0.00
680.56	23.41
680.70	18.72
680.83	0.00
680.97	0.00
681.11	0.00
681.25	72.56
681.39	21.06
681.52	35.11
681.66	56.17
681.80	44.47
681.94	7.02
682.07	58.51
682.21	0.00
682.35	60.85
682.49	53.83
682.62	30.43
682.76	0.00
682.90	18.72
683.04	0.00
683.17	0.00
683.31	16.38
683.45	0.00
683.59	79.58
683.72	0.00
683.86	28.09
684.00	49.15
684.13	28.09
684.27	14.04
684.41	0.00
684.55	7.02
684.68	102.98
684.82	58.51
684.96	79.58
685.09	37.45
685.23	133.41
685.37	39.79
685.50	11.70
685.64	93.62
685.78	77.24
685.91	11.70
686.05	28.09
686.19	58.51
686.32	4.68
686.46	63.19
686.60	74.90
686.73	0.00
686.87	44.47
687.01	2.34
687.14	23.41
687.28	77.24
687.42	93.62
687.55	0.00
687.69	51.49
687.82	32.77
687.96	42.13
688.10	0.00
688.23	0.00
688.37	39.79
688.50	0.00
688.64	7.02
688.78	0.00
688.91	0.00
689.05	70.22
689.18	0.00
689.32	0.00
689.46	51.49
689.59	110.01
689.73	79.58
689.86	28.09
690.00	39.79
690.13	51.49
690.27	44.47
690.41	37.45
690.54	39.79
690.68	35.11
690.81	63.19
690.95	56.17
691.08	102.98
691.22	58.51
691.35	95.96
691.49	30.43
691.62	58.51
691.76	107.66
691.89	0.00
692.03	4.68
692.16	49.15
692.30	100.64
692.43	35.11
692.57	58.51
692.70	21.06
692.84	30.43
692.97	0.00
693.11	63.19
693.24	63.19
693.38	32.77
693.51	77.24
693.65	53.83
693.78	0.00
693.92	49.15
694.05	49.15
694.19	32.77
694.32	0.00
694.45	53.83
694.59	0.00
694.72	18.72
694.86	28.09
694.99	65.54
695.13	0.00
695.26	30.43
695.39	16.38
695.53	49.15
695.66	18.72
695.80	53.83
695.93	72.56
696.07	32.77
696.20	44.47
696.33	51.49
696.47	21.06
696.60	49.15
696.73	23.41
696.87	7.02
697.00	23.41
697.14	46.81
697.27	56.17
697.40	35.11
697.54	51.49
697.67	32.77
697.80	46.81
697.94	21.06
698.07	88.94
698.21	16.38
698.34	4.68
698.47	51.49
698.61	49.15
698.74	0.00
698.87	74.90
699.01	32.77
699.14	56.17
699.27	0.00
699.40	51.49
699.54	9.36
699.67	0.00
699.80	21.06
699.94	25.75
700.07	0.00
700.20	21.06
700.34	44.47
700.47	0.00
700.60	25.75
700.73	51.49
700.87	16.38
701.00	4.68
701.13	77.24
701.26	35.11
701.40	2.34
701.53	107.66
701.66	70.22
701.79	86.60
701.93	35.11
702.06	58.51
702.19	65.54
702.32	86.60
702.46	37.45
702.59	49.15
702.72	30.43
702.85	28.09
702.99	0.00
703.12	25.75
703.25	0.00
703.38	9.36
703.51	0.00
703.65	0.00
703.78	7.02
703.91	79.58
704.04	7.02
704.17	58.51
704.31	0.00
704.44	7.02
704.57	46.81
704.70	30.43
704.83	51.49
704.96	81.92
705.10	58.51
705.23	58.51
>>>>>End Processed Spectral Data<<<<<
