SpectraSuite Data File
++++++++++++++++++++++++++++++++++++
Date: Fri Oct 04 12:13:28 GMT-05:00 2013
User: price-jones
Dark Spectrum Present: No
Reference Spectrum Present: No
Number of Sampled Component Spectra: 1
Spectrometers: USB2+H05261
Integration Time (usec): 10000 (USB2+H05261)
Spectra Averaged: 1 (USB2+H05261)
Boxcar Smoothing: 0 (USB2+H05261)
Correct for Electrical Dark: No (USB2+H05261)
Strobe/Lamp Enabled: No (USB2+H05261)
Correct for Detector Non-linearity: No (USB2+H05261)
Correct for Stray Light: No (USB2+H05261)
Number of Pixels in Processed Spectrum: 2048
>>>>>Begin Processed Spectral Data<<<<<
365.73	0.00
365.92	0.00
366.12	0.00
366.32	0.00
366.52	0.00
366.72	0.00
366.91	0.00
367.11	0.00
367.31	0.00
367.51	0.00
367.70	0.00
367.90	0.00
368.10	0.00
368.30	0.00
368.49	0.00
368.69	0.00
368.89	0.00
369.09	0.00
369.28	0.00
369.48	0.00
369.68	0.00
369.87	0.00
370.07	0.00
370.27	0.00
370.47	0.00
370.66	0.00
370.86	0.00
371.06	0.00
371.25	0.00
371.45	0.00
371.65	0.00
371.84	0.00
372.04	0.00
372.24	0.00
372.44	0.00
372.63	0.00
372.83	7.02
373.03	44.47
373.22	0.00
373.42	30.43
373.62	0.00
373.81	0.00
374.01	0.00
374.21	0.00
374.40	56.17
374.60	9.36
374.79	32.77
374.99	63.19
375.19	65.54
375.38	46.81
375.58	18.72
375.78	0.00
375.97	14.04
376.17	117.03
376.37	9.36
376.56	79.58
376.76	0.00
376.95	79.58
377.15	0.00
377.35	79.58
377.54	32.77
377.74	0.00
377.93	0.00
378.13	18.72
378.33	0.00
378.52	14.04
378.72	28.09
378.91	0.00
379.11	37.45
379.31	25.75
379.50	0.00
379.70	0.00
379.89	77.24
380.09	11.70
380.28	4.68
380.48	0.00
380.68	0.00
380.87	42.13
381.07	0.00
381.26	16.38
381.46	0.00
381.65	35.11
381.85	18.72
382.04	2.34
382.24	16.38
382.43	0.00
382.63	7.02
382.83	0.00
383.02	0.00
383.22	2.34
383.41	0.00
383.61	0.00
383.80	0.00
384.00	18.72
384.19	39.79
384.39	7.02
384.58	0.00
384.78	44.47
384.97	4.68
385.17	0.00
385.36	0.00
385.56	4.68
385.75	16.38
385.95	51.49
386.14	30.43
386.34	0.00
386.53	70.22
386.72	0.00
386.92	4.68
387.11	18.72
387.31	18.72
387.50	0.00
387.70	9.36
387.89	35.11
388.09	28.09
388.28	7.02
388.48	0.00
388.67	14.04
388.86	77.24
389.06	39.79
389.25	25.75
389.45	39.79
389.64	0.00
389.84	44.47
390.03	51.49
390.22	0.00
390.42	44.47
390.61	84.26
390.81	21.06
391.00	46.81
391.19	58.51
391.39	0.00
391.58	14.04
391.78	0.00
391.97	9.36
392.16	91.28
392.36	14.04
392.55	72.56
392.75	25.75
392.94	121.71
393.13	25.75
393.33	0.00
393.52	91.28
393.71	37.45
393.91	0.00
394.10	2.34
394.29	0.00
394.49	9.36
394.68	79.58
394.88	51.49
395.07	0.00
395.26	32.77
395.46	0.00
395.65	18.72
395.84	21.06
396.04	16.38
396.23	49.15
396.42	4.68
396.62	37.45
396.81	49.15
397.00	51.49
397.19	39.79
397.39	56.17
397.58	37.45
397.77	95.96
397.97	0.00
398.16	53.83
398.35	72.56
398.55	28.09
398.74	98.30
398.93	25.75
399.12	42.13
399.32	9.36
399.51	42.13
399.70	16.38
399.90	21.06
400.09	37.45
400.28	49.15
400.47	23.41
400.67	37.45
400.86	88.94
401.05	65.54
401.24	0.00
401.44	56.17
401.63	53.83
401.82	63.19
402.01	98.30
402.21	0.00
402.40	0.00
402.59	4.68
402.78	0.00
402.97	2.34
403.17	0.00
403.36	7.02
403.55	74.90
403.74	51.49
403.93	0.00
404.13	88.94
404.32	32.77
404.51	56.17
404.70	11.70
404.89	11.70
405.09	126.39
405.28	28.09
405.47	32.77
405.66	21.06
405.85	0.00
406.05	7.02
406.24	60.85
406.43	63.19
406.62	0.00
406.81	30.43
407.00	25.75
407.20	37.45
407.39	42.13
407.58	0.00
407.77	28.09
407.96	70.22
408.15	0.00
408.34	25.75
408.54	23.41
408.73	74.90
408.92	28.09
409.11	51.49
409.30	35.11
409.49	74.90
409.68	56.17
409.87	11.70
410.07	60.85
410.26	37.45
410.45	35.11
410.64	58.51
410.83	9.36
411.02	16.38
411.21	2.34
411.40	0.00
411.59	0.00
411.78	9.36
411.98	14.04
412.17	44.47
412.36	0.00
412.55	0.00
412.74	18.72
412.93	79.58
413.12	65.54
413.31	0.00
413.50	0.00
413.69	0.00
413.88	46.81
414.07	11.70
414.26	2.34
414.45	65.54
414.64	84.26
414.83	35.11
415.02	42.13
415.22	0.00
415.41	14.04
415.60	56.17
415.79	2.34
415.98	0.00
416.17	0.00
416.36	0.00
416.55	42.13
416.74	2.34
416.93	65.54
417.12	58.51
417.31	39.79
417.50	0.00
417.69	53.83
417.88	28.09
418.07	30.43
418.26	18.72
418.45	16.38
418.64	77.24
418.83	72.56
419.02	42.13
419.21	37.45
419.39	46.81
419.58	2.34
419.77	30.43
419.96	2.34
420.15	53.83
420.34	42.13
420.53	0.00
420.72	42.13
420.91	30.43
421.10	28.09
421.29	0.00
421.48	114.69
421.67	79.58
421.86	0.00
422.05	86.60
422.24	14.04
422.43	0.00
422.61	16.38
422.80	0.00
422.99	0.00
423.18	46.81
423.37	30.43
423.56	37.45
423.75	0.00
423.94	4.68
424.13	60.85
424.32	58.51
424.50	65.54
424.69	11.70
424.88	0.00
425.07	32.77
425.26	25.75
425.45	0.00
425.64	63.19
425.83	0.00
426.01	32.77
426.20	9.36
426.39	0.00
426.58	35.11
426.77	51.49
426.96	0.00
427.15	79.58
427.33	23.41
427.52	0.00
427.71	49.15
427.90	98.30
428.09	65.54
428.28	14.04
428.46	30.43
428.65	53.83
428.84	7.02
429.03	0.00
429.22	67.88
429.40	93.62
429.59	0.00
429.78	56.17
429.97	4.68
430.16	14.04
430.34	56.17
430.53	0.00
430.72	25.75
430.91	30.43
431.10	56.17
431.28	49.15
431.47	35.11
431.66	0.00
431.85	0.00
432.03	32.77
432.22	39.79
432.41	42.13
432.60	60.85
432.79	0.00
432.97	2.34
433.16	95.96
433.35	0.00
433.54	67.88
433.72	4.68
433.91	56.17
434.10	0.00
434.28	84.26
434.47	67.88
434.66	32.77
434.85	23.41
435.03	51.49
435.22	2.34
435.41	18.72
435.59	39.79
435.78	51.49
435.97	42.13
436.16	21.06
436.34	65.54
436.53	46.81
436.72	51.49
436.90	60.85
437.09	7.02
437.28	32.77
437.46	23.41
437.65	65.54
437.84	2.34
438.02	4.68
438.21	23.41
438.40	77.24
438.58	21.06
438.77	110.01
438.96	42.13
439.14	65.54
439.33	37.45
439.52	81.92
439.70	102.98
439.89	18.72
440.08	81.92
440.26	74.90
440.45	28.09
440.63	0.00
440.82	0.00
441.01	0.00
441.19	46.81
441.38	44.47
441.57	0.00
441.75	0.00
441.94	23.41
442.12	0.00
442.31	7.02
442.50	46.81
442.68	91.28
442.87	88.94
443.05	60.85
443.24	0.00
443.43	28.09
443.61	0.00
443.80	107.66
443.98	0.00
444.17	58.51
444.35	37.45
444.54	0.00
444.73	0.00
444.91	49.15
445.10	30.43
445.28	70.22
445.47	70.22
445.65	7.02
445.84	9.36
446.02	7.02
446.21	51.49
446.39	44.47
446.58	9.36
446.77	21.06
446.95	21.06
447.14	39.79
447.32	39.79
447.51	0.00
447.69	16.38
447.88	84.26
448.06	67.88
448.25	51.49
448.43	30.43
448.62	9.36
448.80	93.62
448.99	88.94
449.17	39.79
449.36	49.15
449.54	14.04
449.73	0.00
449.91	53.83
450.10	42.13
450.28	0.00
450.46	51.49
450.65	70.22
450.83	0.00
451.02	25.75
451.20	30.43
451.39	65.54
451.57	16.38
451.76	72.56
451.94	0.00
452.13	53.83
452.31	28.09
452.49	4.68
452.68	18.72
452.86	7.02
453.05	65.54
453.23	98.30
453.42	44.47
453.60	4.68
453.78	74.90
453.97	119.37
454.15	56.17
454.34	32.77
454.52	0.00
454.70	0.00
454.89	25.75
455.07	0.00
455.26	53.83
455.44	46.81
455.62	0.00
455.81	37.45
455.99	46.81
456.17	23.41
456.36	67.88
456.54	35.11
456.73	84.26
456.91	25.75
457.09	0.00
457.28	37.45
457.46	7.02
457.64	0.00
457.83	0.00
458.01	51.49
458.19	18.72
458.38	23.41
458.56	14.04
458.74	7.02
458.93	7.02
459.11	0.00
459.29	2.34
459.48	67.88
459.66	131.07
459.84	51.49
460.03	28.09
460.21	7.02
460.39	72.56
460.57	46.81
460.76	0.00
460.94	28.09
461.12	14.04
461.31	0.00
461.49	53.83
461.67	91.28
461.85	16.38
462.04	11.70
462.22	98.30
462.40	0.00
462.59	72.56
462.77	21.06
462.95	44.47
463.13	2.34
463.32	138.09
463.50	23.41
463.68	37.45
463.86	0.00
464.05	9.36
464.23	18.72
464.41	53.83
464.59	0.00
464.78	49.15
464.96	9.36
465.14	25.75
465.32	11.70
465.50	42.13
465.69	37.45
465.87	0.00
466.05	70.22
466.23	39.79
466.41	60.85
466.60	21.06
466.78	25.75
466.96	79.58
467.14	70.22
467.32	37.45
467.51	102.98
467.69	7.02
467.87	21.06
468.05	30.43
468.23	60.85
468.41	0.00
468.60	72.56
468.78	72.56
468.96	0.00
469.14	42.13
469.32	23.41
469.50	0.00
469.69	11.70
469.87	37.45
470.05	93.62
470.23	46.81
470.41	4.68
470.59	46.81
470.77	74.90
470.95	7.02
471.14	7.02
471.32	18.72
471.50	46.81
471.68	58.51
471.86	88.94
472.04	11.70
472.22	0.00
472.40	4.68
472.58	67.88
472.77	35.11
472.95	4.68
473.13	30.43
473.31	39.79
473.49	79.58
473.67	35.11
473.85	9.36
474.03	0.00
474.21	4.68
474.39	53.83
474.57	42.13
474.75	77.24
474.93	23.41
475.12	30.43
475.30	0.00
475.48	21.06
475.66	81.92
475.84	39.79
476.02	32.77
476.20	51.49
476.38	51.49
476.56	53.83
476.74	23.41
476.92	16.38
477.10	11.70
477.28	44.47
477.46	11.70
477.64	0.00
477.82	0.00
478.00	0.00
478.18	0.00
478.36	98.30
478.54	49.15
478.72	11.70
478.90	58.51
479.08	0.00
479.26	9.36
479.44	56.17
479.62	4.68
479.80	63.19
479.98	49.15
480.16	60.85
480.34	0.00
480.52	0.00
480.70	0.00
480.88	63.19
481.06	39.79
481.24	0.00
481.41	81.92
481.59	32.77
481.77	28.09
481.95	44.47
482.13	88.94
482.31	70.22
482.49	0.00
482.67	67.88
482.85	0.00
483.03	44.47
483.21	72.56
483.39	65.54
483.57	16.38
483.74	112.35
483.92	39.79
484.10	28.09
484.28	18.72
484.46	63.19
484.64	135.75
484.82	138.09
485.00	63.19
485.18	37.45
485.35	63.19
485.53	42.13
485.71	37.45
485.89	25.75
486.07	42.13
486.25	32.77
486.43	32.77
486.61	0.00
486.78	0.00
486.96	49.15
487.14	0.00
487.32	25.75
487.50	32.77
487.68	53.83
487.85	0.00
488.03	0.00
488.21	72.56
488.39	28.09
488.57	0.00
488.75	32.77
488.92	95.96
489.10	35.11
489.28	44.47
489.46	0.00
489.64	42.13
489.81	7.02
489.99	49.15
490.17	23.41
490.35	7.02
490.53	74.90
490.70	2.34
490.88	37.45
491.06	102.98
491.24	49.15
491.41	58.51
491.59	35.11
491.77	2.34
491.95	46.81
492.13	86.60
492.30	56.17
492.48	42.13
492.66	0.00
492.84	53.83
493.01	7.02
493.19	79.58
493.37	56.17
493.54	49.15
493.72	2.34
493.90	39.79
494.08	18.72
494.25	32.77
494.43	39.79
494.61	0.00
494.79	30.43
494.96	0.00
495.14	0.00
495.32	23.41
495.49	72.56
495.67	98.30
495.85	0.00
496.02	0.00
496.20	65.54
496.38	100.64
496.55	14.04
496.73	9.36
496.91	21.06
497.09	21.06
497.26	35.11
497.44	107.66
497.62	18.72
497.79	39.79
497.97	42.13
498.14	4.68
498.32	51.49
498.50	95.96
498.67	0.00
498.85	2.34
499.03	37.45
499.20	44.47
499.38	9.36
499.56	58.51
499.73	44.47
499.91	0.00
500.08	7.02
500.26	44.47
500.44	37.45
500.61	0.00
500.79	72.56
500.97	16.38
501.14	30.43
501.32	0.00
501.49	44.47
501.67	7.02
501.84	42.13
502.02	95.96
502.20	37.45
502.37	138.09
502.55	28.09
502.72	0.00
502.90	37.45
503.07	53.83
503.25	51.49
503.43	91.28
503.60	79.58
503.78	0.00
503.95	56.17
504.13	0.00
504.30	25.75
504.48	16.38
504.65	46.81
504.83	84.26
505.01	46.81
505.18	14.04
505.36	53.83
505.53	86.60
505.71	72.56
505.88	49.15
506.06	39.79
506.23	25.75
506.41	39.79
506.58	37.45
506.76	49.15
506.93	102.98
507.11	18.72
507.28	32.77
507.46	77.24
507.63	28.09
507.81	53.83
507.98	23.41
508.16	0.00
508.33	65.54
508.50	16.38
508.68	2.34
508.85	0.00
509.03	86.60
509.20	11.70
509.38	56.17
509.55	102.98
509.73	67.88
509.90	0.00
510.08	79.58
510.25	46.81
510.42	2.34
510.60	84.26
510.77	32.77
510.95	28.09
511.12	95.96
511.30	56.17
511.47	46.81
511.64	51.49
511.82	9.36
511.99	84.26
512.17	60.85
512.34	44.47
512.51	79.58
512.69	124.05
512.86	70.22
513.04	14.04
513.21	112.35
513.38	4.68
513.56	37.45
513.73	35.11
513.90	91.28
514.08	0.00
514.25	0.00
514.43	25.75
514.60	100.64
514.77	0.00
514.95	70.22
515.12	65.54
515.29	46.81
515.47	35.11
515.64	37.45
515.81	25.75
515.99	0.00
516.16	28.09
516.33	72.56
516.51	30.43
516.68	0.00
516.85	42.13
517.03	23.41
517.20	23.41
517.37	46.81
517.54	11.70
517.72	63.19
517.89	74.90
518.06	84.26
518.24	7.02
518.41	44.47
518.58	93.62
518.75	28.09
518.93	67.88
519.10	65.54
519.27	53.83
519.45	11.70
519.62	37.45
519.79	60.85
519.96	16.38
520.14	42.13
520.31	16.38
520.48	0.00
520.65	42.13
520.83	49.15
521.00	91.28
521.17	21.06
521.34	39.79
521.52	30.43
521.69	28.09
521.86	35.11
522.03	39.79
522.20	65.54
522.38	51.49
522.55	56.17
522.72	53.83
522.89	23.41
523.07	0.00
523.24	37.45
523.41	58.51
523.58	25.75
523.75	117.03
523.92	42.13
524.10	49.15
524.27	4.68
524.44	91.28
524.61	84.26
524.78	35.11
524.96	63.19
525.13	9.36
525.30	39.79
525.47	93.62
525.64	60.85
525.81	95.96
525.98	21.06
526.16	60.85
526.33	14.04
526.50	16.38
526.67	100.64
526.84	21.06
527.01	0.00
527.18	0.00
527.36	0.00
527.53	44.47
527.70	91.28
527.87	65.54
528.04	49.15
528.21	35.11
528.38	77.24
528.55	37.45
528.72	67.88
528.89	32.77
529.07	4.68
529.24	21.06
529.41	7.02
529.58	107.66
529.75	0.00
529.92	58.51
530.09	0.00
530.26	0.00
530.43	28.09
530.60	107.66
530.77	65.54
530.94	30.43
531.11	84.26
531.28	42.13
531.46	16.38
531.63	0.00
531.80	35.11
531.97	28.09
532.14	79.58
532.31	63.19
532.48	65.54
532.65	51.49
532.82	112.35
532.99	81.92
533.16	102.98
533.33	98.30
533.50	0.00
533.67	51.49
533.84	60.85
534.01	63.19
534.18	39.79
534.35	0.00
534.52	28.09
534.69	60.85
534.86	72.56
535.03	16.38
535.20	0.00
535.37	84.26
535.54	60.85
535.71	14.04
535.88	100.64
536.05	63.19
536.22	18.72
536.38	67.88
536.55	60.85
536.72	49.15
536.89	44.47
537.06	65.54
537.23	42.13
537.40	25.75
537.57	46.81
537.74	126.39
537.91	30.43
538.08	0.00
538.25	53.83
538.42	77.24
538.59	88.94
538.75	0.00
538.92	65.54
539.09	95.96
539.26	44.47
539.43	0.00
539.60	161.50
539.77	198.95
539.94	145.11
540.11	114.69
540.28	81.92
540.44	72.56
540.61	4.68
540.78	49.15
540.95	30.43
541.12	53.83
541.29	49.15
541.46	95.96
541.62	16.38
541.79	84.26
541.96	42.13
542.13	0.00
542.30	35.11
542.47	110.01
542.63	46.81
542.80	102.98
542.97	65.54
543.14	32.77
543.31	0.00
543.48	30.43
543.64	42.13
543.81	46.81
543.98	86.60
544.15	0.00
544.32	4.68
544.48	0.00
544.65	21.06
544.82	56.17
544.99	28.09
545.16	2.34
545.32	4.68
545.49	72.56
545.66	2.34
545.83	0.00
546.00	107.66
546.16	28.09
546.33	49.15
546.50	0.00
546.67	44.47
546.83	77.24
547.00	56.17
547.17	56.17
547.34	67.88
547.50	46.81
547.67	0.00
547.84	42.13
548.00	58.51
548.17	53.83
548.34	58.51
548.51	46.81
548.67	0.00
548.84	86.60
549.01	0.00
549.18	70.22
549.34	72.56
549.51	0.00
549.68	88.94
549.84	53.83
550.01	0.00
550.18	42.13
550.34	46.81
550.51	35.11
550.68	79.58
550.84	7.02
551.01	39.79
551.18	14.04
551.34	0.00
551.51	18.72
551.68	63.19
551.84	65.54
552.01	49.15
552.18	35.11
552.34	72.56
552.51	49.15
552.68	39.79
552.84	32.77
553.01	67.88
553.18	2.34
553.34	23.41
553.51	56.17
553.67	30.43
553.84	0.00
554.01	30.43
554.17	79.58
554.34	39.79
554.51	7.02
554.67	7.02
554.84	46.81
555.00	44.47
555.17	0.00
555.33	14.04
555.50	93.62
555.67	60.85
555.83	0.00
556.00	58.51
556.16	67.88
556.33	56.17
556.50	0.00
556.66	4.68
556.83	63.19
556.99	63.19
557.16	39.79
557.32	0.00
557.49	25.75
557.65	25.75
557.82	74.90
557.98	53.83
558.15	42.13
558.32	63.19
558.48	56.17
558.65	7.02
558.81	0.00
558.98	49.15
559.14	4.68
559.31	0.00
559.47	0.00
559.64	14.04
559.80	46.81
559.97	42.13
560.13	35.11
560.30	39.79
560.46	42.13
560.63	25.75
560.79	51.49
560.96	7.02
561.12	124.05
561.29	42.13
561.45	46.81
561.61	70.22
561.78	37.45
561.94	0.00
562.11	67.88
562.27	0.00
562.44	9.36
562.60	35.11
562.77	35.11
562.93	44.47
563.10	14.04
563.26	35.11
563.42	21.06
563.59	65.54
563.75	32.77
563.92	65.54
564.08	65.54
564.24	46.81
564.41	58.51
564.57	23.41
564.74	77.24
564.90	0.00
565.07	14.04
565.23	2.34
565.39	0.00
565.56	0.00
565.72	0.00
565.88	67.88
566.05	21.06
566.21	44.47
566.38	23.41
566.54	58.51
566.70	30.43
566.87	53.83
567.03	18.72
567.19	74.90
567.36	65.54
567.52	42.13
567.68	63.19
567.85	142.77
568.01	25.75
568.17	32.77
568.34	0.00
568.50	53.83
568.66	32.77
568.83	4.68
568.99	131.07
569.15	11.70
569.32	11.70
569.48	56.17
569.64	49.15
569.81	46.81
569.97	21.06
570.13	67.88
570.30	74.90
570.46	11.70
570.62	107.66
570.78	53.83
570.95	65.54
571.11	72.56
571.27	42.13
571.43	11.70
571.60	14.04
571.76	119.37
571.92	7.02
572.09	98.30
572.25	44.47
572.41	58.51
572.57	39.79
572.74	25.75
572.90	46.81
573.06	0.00
573.22	2.34
573.38	67.88
573.55	37.45
573.71	18.72
573.87	0.00
574.03	88.94
574.20	21.06
574.36	0.00
574.52	0.00
574.68	37.45
574.84	32.77
575.01	77.24
575.17	0.00
575.33	79.58
575.49	0.00
575.65	51.49
575.82	18.72
575.98	98.30
576.14	105.32
576.30	18.72
576.46	25.75
576.62	39.79
576.79	32.77
576.95	91.28
577.11	98.30
577.27	35.11
577.43	25.75
577.59	65.54
577.75	0.00
577.92	0.00
578.08	37.45
578.24	14.04
578.40	72.56
578.56	86.60
578.72	72.56
578.88	53.83
579.04	23.41
579.21	32.77
579.37	51.49
579.53	4.68
579.69	7.02
579.85	119.37
580.01	9.36
580.17	70.22
580.33	74.90
580.49	23.41
580.65	9.36
580.82	0.00
580.98	114.69
581.14	56.17
581.30	81.92
581.46	4.68
581.62	30.43
581.78	11.70
581.94	44.47
582.10	28.09
582.26	51.49
582.42	53.83
582.58	67.88
582.74	72.56
582.90	0.00
583.06	110.01
583.22	4.68
583.38	0.00
583.54	74.90
583.70	79.58
583.86	65.54
584.02	7.02
584.18	156.82
584.34	135.75
584.50	362.78
584.66	1989.46
584.82	4765.33
584.98	6469.24
585.14	5708.57
585.30	3536.55
585.46	2298.41
585.62	1334.11
585.78	709.18
585.94	278.52
586.10	126.39
586.26	72.56
586.42	53.83
586.58	112.35
586.74	65.54
586.90	91.28
587.06	14.04
587.22	110.01
587.38	126.39
587.54	124.05
587.70	273.84
587.86	461.09
588.02	477.47
588.18	351.08
588.34	222.35
588.49	180.22
588.65	121.71
588.81	35.11
588.97	70.22
589.13	74.90
589.29	53.83
589.45	91.28
589.61	110.01
589.77	30.43
589.93	21.06
590.08	42.13
590.24	14.04
590.40	44.47
590.56	37.45
590.72	79.58
590.88	23.41
591.04	70.22
591.20	0.00
591.35	23.41
591.51	0.00
591.67	0.00
591.83	51.49
591.99	18.72
592.15	72.56
592.31	51.49
592.46	46.81
592.62	56.17
592.78	44.47
592.94	23.41
593.10	84.26
593.26	53.83
593.41	81.92
593.57	16.38
593.73	98.30
593.89	313.63
594.05	653.01
594.20	863.66
594.36	704.50
594.52	526.62
594.68	367.46
594.84	311.29
594.99	187.24
595.15	0.00
595.31	32.77
595.47	74.90
595.62	84.26
595.78	88.94
595.94	84.26
596.10	98.30
596.25	67.88
596.41	7.02
596.57	9.36
596.73	11.70
596.88	44.47
597.04	107.66
597.20	147.45
597.36	259.80
597.51	189.58
597.67	135.75
597.83	63.19
597.99	35.11
598.14	79.58
598.30	93.62
598.46	25.75
598.61	0.00
598.77	0.00
598.93	46.81
599.09	25.75
599.24	49.15
599.40	149.79
599.56	39.79
599.71	30.43
599.87	35.11
600.03	39.79
600.18	23.41
600.34	100.64
600.50	63.19
600.65	84.26
600.81	16.38
600.97	11.70
601.12	37.45
601.28	91.28
601.44	25.75
601.59	53.83
601.75	11.70
601.91	102.98
602.06	42.13
602.22	32.77
602.37	30.43
602.53	152.13
602.69	241.08
602.84	220.01
603.00	107.66
603.16	184.90
603.31	81.92
603.47	93.62
603.62	39.79
603.78	72.56
603.94	95.96
604.09	16.38
604.25	67.88
604.40	91.28
604.56	70.22
604.71	65.54
604.87	44.47
605.03	117.03
605.18	67.88
605.34	42.13
605.49	30.43
605.65	2.34
605.80	58.51
605.96	53.83
606.12	14.04
606.27	35.11
606.43	72.56
606.58	32.77
606.74	65.54
606.89	362.78
607.05	582.79
607.20	650.67
607.36	587.47
607.51	456.40
607.67	290.23
607.82	212.99
607.98	117.03
608.13	77.24
608.29	93.62
608.44	56.17
608.60	77.24
608.75	37.45
608.91	131.07
609.06	475.13
609.22	873.02
609.37	1109.41
609.53	1001.75
609.68	807.48
609.84	456.40
609.99	395.55
610.15	205.97
610.30	98.30
610.46	86.60
610.61	23.41
610.76	72.56
610.92	79.58
611.07	39.79
611.23	16.38
611.38	51.49
611.54	72.56
611.69	65.54
611.84	53.83
612.00	88.94
612.15	74.90
612.31	0.00
612.46	53.83
612.62	95.96
612.77	39.79
612.92	11.70
613.08	77.24
613.23	117.03
613.39	140.43
613.54	98.30
613.69	482.15
613.85	1224.10
614.00	1795.19
614.15	1954.35
614.31	1359.85
614.46	896.43
614.62	540.66
614.77	353.42
614.92	182.56
615.08	126.39
615.23	74.90
615.38	86.60
615.54	84.26
615.69	147.45
615.84	215.33
616.00	407.25
616.15	491.51
616.30	430.66
616.46	325.33
616.61	208.31
616.76	231.71
616.92	60.85
617.07	56.17
617.22	58.51
617.37	65.54
617.53	84.26
617.68	67.88
617.83	56.17
617.99	49.15
618.14	28.09
618.29	0.00
618.45	63.19
618.60	32.77
618.75	63.19
618.90	56.17
619.06	30.43
619.21	70.22
619.36	56.17
619.51	86.60
619.67	35.11
619.82	0.00
619.97	44.47
620.12	81.92
620.28	18.72
620.43	70.22
620.58	32.77
620.73	84.26
620.89	32.77
621.04	65.54
621.19	177.88
621.34	271.50
621.49	344.06
621.65	301.93
621.80	248.10
621.95	184.90
622.10	133.41
622.25	37.45
622.41	2.34
622.56	28.09
622.71	30.43
622.86	72.56
623.01	56.17
623.16	0.00
623.32	51.49
623.47	30.43
623.62	44.47
623.77	21.06
623.92	39.79
624.07	0.00
624.23	0.00
624.38	58.51
624.53	37.45
624.68	9.36
624.83	86.60
624.98	30.43
625.13	49.15
625.29	0.00
625.44	42.13
625.59	128.73
625.74	11.70
625.89	7.02
626.04	255.12
626.19	554.71
626.34	903.45
626.49	961.96
626.65	788.76
626.80	510.24
626.95	341.72
627.10	217.67
627.25	124.05
627.40	117.03
627.55	105.32
627.70	112.35
627.85	32.77
628.00	0.00
628.15	0.00
628.30	46.81
628.45	39.79
628.60	63.19
628.76	16.38
628.91	60.85
629.06	53.83
629.21	32.77
629.36	35.11
629.51	30.43
629.66	56.17
629.81	9.36
629.96	145.11
630.11	269.16
630.26	250.44
630.41	170.86
630.56	131.07
630.71	189.58
630.86	105.32
631.01	128.73
631.16	60.85
631.31	70.22
631.46	74.90
631.61	70.22
631.76	32.77
631.91	30.43
632.06	0.00
632.21	126.39
632.36	14.04
632.51	51.49
632.66	91.28
632.81	168.52
632.96	409.59
633.10	533.64
633.25	709.18
633.40	587.47
633.55	344.06
633.70	325.33
633.85	224.69
634.00	117.03
634.15	60.85
634.30	63.19
634.45	88.94
634.60	11.70
634.75	63.19
634.90	0.00
635.05	58.51
635.19	95.96
635.34	30.43
635.49	53.83
635.64	58.51
635.79	39.79
635.94	0.00
636.09	28.09
636.24	25.75
636.39	42.13
636.53	117.03
636.68	35.11
636.83	35.11
636.98	25.75
637.13	60.85
637.28	0.00
637.43	81.92
637.57	84.26
637.72	271.50
637.87	854.30
638.02	1240.48
638.17	1263.89
638.32	898.77
638.46	613.22
638.61	386.19
638.76	311.29
638.91	166.18
639.06	46.81
639.20	86.60
639.35	56.17
639.50	79.58
639.65	531.30
639.80	1163.25
639.94	1717.95
640.09	1886.47
640.24	1394.96
640.39	1046.22
640.54	732.59
640.68	397.89
640.83	189.58
640.98	102.98
641.13	81.92
641.27	93.62
641.42	102.98
641.57	60.85
641.72	110.01
641.86	67.88
642.01	44.47
642.16	0.00
642.31	142.77
642.45	42.13
642.60	70.22
642.75	58.51
642.90	77.24
643.04	46.81
643.19	46.81
643.34	91.28
643.48	39.79
643.63	0.00
643.78	53.83
643.93	70.22
644.07	4.68
644.22	37.45
644.37	21.06
644.51	46.81
644.66	84.26
644.81	56.17
644.95	0.00
645.10	0.00
645.25	84.26
645.39	65.54
645.54	74.90
645.69	53.83
645.83	28.09
645.98	93.62
646.13	39.79
646.27	0.00
646.42	0.00
646.57	51.49
646.71	0.00
646.86	42.13
647.00	25.75
647.15	37.45
647.30	28.09
647.44	7.02
647.59	0.00
647.74	0.00
647.88	7.02
648.03	67.88
648.17	0.00
648.32	67.88
648.47	21.06
648.61	28.09
648.76	0.00
648.90	53.83
649.05	49.15
649.20	14.04
649.34	14.04
649.49	7.02
649.63	77.24
649.78	44.47
649.92	70.22
650.07	175.54
650.21	484.49
650.36	924.51
650.51	964.30
650.65	884.72
650.80	645.99
650.94	383.85
651.09	259.80
651.23	184.90
651.38	84.26
651.52	84.26
651.67	39.79
651.81	28.09
651.96	37.45
652.10	30.43
652.25	4.68
652.39	46.81
652.54	65.54
652.68	56.17
652.83	217.67
652.97	374.49
653.12	374.49
653.26	280.86
653.41	203.63
653.55	70.22
653.70	135.75
653.84	86.60
653.99	18.72
654.13	72.56
654.27	37.45
654.42	93.62
654.56	53.83
654.71	56.17
654.85	28.09
655.00	44.47
655.14	35.11
655.29	2.34
655.43	39.79
655.57	25.75
655.72	35.11
655.86	9.36
656.01	0.00
656.15	4.68
656.30	0.00
656.44	77.24
656.58	58.51
656.73	35.11
656.87	0.00
657.01	49.15
657.16	51.49
657.30	0.00
657.45	30.43
657.59	11.70
657.73	44.47
657.88	11.70
658.02	39.79
658.16	154.48
658.31	0.00
658.45	32.77
658.60	51.49
658.74	65.54
658.88	100.64
659.03	67.88
659.17	105.32
659.31	93.62
659.46	273.84
659.60	451.72
659.74	528.96
659.89	395.55
660.03	379.17
660.17	210.65
660.32	205.97
660.46	110.01
660.60	93.62
660.74	9.36
660.89	23.41
661.03	37.45
661.17	0.00
661.32	16.38
661.46	91.28
661.60	77.24
661.74	51.49
661.89	16.38
662.03	0.00
662.17	0.00
662.31	44.47
662.46	18.72
662.60	42.13
662.74	53.83
662.88	37.45
663.03	42.13
663.17	49.15
663.31	11.70
663.45	23.41
663.60	0.00
663.74	95.96
663.88	0.00
664.02	51.49
664.17	135.75
664.31	44.47
664.45	58.51
664.59	46.81
664.73	53.83
664.88	23.41
665.02	51.49
665.16	51.49
665.30	11.70
665.44	77.24
665.59	46.81
665.73	32.77
665.87	81.92
666.01	4.68
666.15	7.02
666.29	0.00
666.44	0.00
666.58	21.06
666.72	28.09
666.86	0.00
667.00	63.19
667.14	32.77
667.28	180.22
667.43	500.87
667.57	741.95
667.71	945.58
667.85	716.20
667.99	613.22
668.13	381.51
668.27	205.97
668.41	100.64
668.56	42.13
668.70	21.06
668.84	0.00
668.98	81.92
669.12	44.47
669.26	51.49
669.40	11.70
669.54	56.17
669.68	72.56
669.82	60.85
669.96	121.71
670.10	60.85
670.25	37.45
670.39	28.09
670.53	91.28
670.67	102.98
670.81	9.36
670.95	49.15
671.09	30.43
671.23	271.50
671.37	407.25
671.51	517.26
671.65	528.96
671.79	430.66
671.93	294.91
672.07	159.16
672.21	95.96
672.35	49.15
672.49	74.90
672.63	81.92
672.77	56.17
672.91	23.41
673.05	18.72
673.19	60.85
673.33	56.17
673.47	39.79
673.61	14.04
673.75	21.06
673.89	105.32
674.03	42.13
674.17	23.41
674.31	0.00
674.45	46.81
674.59	7.02
674.73	58.51
674.87	46.81
675.01	51.49
675.15	56.17
675.29	105.32
675.43	0.00
675.56	0.00
675.70	46.81
675.84	79.58
675.98	46.81
676.12	14.04
676.26	60.85
676.40	14.04
676.54	49.15
676.68	65.54
676.82	0.00
676.96	102.98
677.10	0.00
677.23	65.54
677.37	88.94
677.51	42.13
677.65	88.94
677.79	91.28
677.93	25.75
678.07	0.00
678.21	0.00
678.34	0.00
678.48	56.17
678.62	105.32
678.76	60.85
678.90	49.15
679.04	28.09
679.18	0.00
679.31	0.00
679.45	9.36
679.59	0.00
679.73	77.24
679.87	35.11
680.00	77.24
680.14	53.83
680.28	0.00
680.42	112.35
680.56	65.54
680.70	39.79
680.83	37.45
680.97	28.09
681.11	53.83
681.25	9.36
681.39	23.41
681.52	88.94
681.66	79.58
681.80	18.72
681.94	42.13
682.07	37.45
682.21	0.00
682.35	58.51
682.49	0.00
682.62	37.45
682.76	0.00
682.90	44.47
683.04	93.62
683.17	44.47
683.31	70.22
683.45	102.98
683.59	16.38
683.72	51.49
683.86	0.00
684.00	37.45
684.13	65.54
684.27	0.00
684.41	14.04
684.55	53.83
684.68	0.00
684.82	30.43
684.96	7.02
685.09	18.72
685.23	0.00
685.37	46.81
685.50	51.49
685.64	42.13
685.78	28.09
685.91	16.38
686.05	95.96
686.19	0.00
686.32	79.58
686.46	7.02
686.60	60.85
686.73	23.41
686.87	2.34
687.01	65.54
687.14	77.24
687.28	53.83
687.42	18.72
687.55	49.15
687.69	0.00
687.82	37.45
687.96	28.09
688.10	23.41
688.23	14.04
688.37	0.00
688.50	84.26
688.64	105.32
688.78	0.00
688.91	98.30
689.05	32.77
689.18	37.45
689.32	0.00
689.46	42.13
689.59	18.72
689.73	110.01
689.86	37.45
690.00	7.02
690.13	39.79
690.27	28.09
690.41	63.19
690.54	88.94
690.68	30.43
690.81	14.04
690.95	0.00
691.08	7.02
691.22	28.09
691.35	23.41
691.49	93.62
691.62	51.49
691.76	60.85
691.89	95.96
692.03	35.11
692.16	4.68
692.30	30.43
692.43	70.22
692.57	203.63
692.70	339.38
692.84	425.98
692.97	322.99
693.11	297.25
693.24	198.95
693.38	173.20
693.51	163.84
693.65	84.26
693.78	93.62
693.92	0.00
694.05	0.00
694.19	0.00
694.32	86.60
694.45	30.43
694.59	14.04
694.72	18.72
694.86	0.00
694.99	0.00
695.13	37.45
695.26	58.51
695.39	56.17
695.53	18.72
695.66	25.75
695.80	184.90
695.93	58.51
696.07	0.00
696.20	84.26
696.33	53.83
696.47	70.22
696.60	60.85
696.73	32.77
696.87	49.15
697.00	53.83
697.14	149.79
697.27	0.00
697.40	25.75
697.54	0.00
697.67	79.58
697.80	84.26
697.94	53.83
698.07	25.75
698.21	0.00
698.34	91.28
698.47	65.54
698.61	0.00
698.74	0.00
698.87	30.43
699.01	37.45
699.14	25.75
699.27	0.00
699.40	67.88
699.54	102.98
699.67	0.00
699.80	56.17
699.94	4.68
700.07	49.15
700.20	0.00
700.34	70.22
700.47	0.00
700.60	16.38
700.73	86.60
700.87	53.83
701.00	56.17
701.13	53.83
701.26	25.75
701.40	0.00
701.53	37.45
701.66	18.72
701.79	39.79
701.93	0.00
702.06	37.45
702.19	49.15
702.32	46.81
702.46	93.62
702.59	72.56
702.72	124.05
702.85	362.78
702.99	524.28
703.12	702.16
703.25	716.20
703.38	699.82
703.51	526.62
703.65	400.23
703.78	285.55
703.91	173.20
704.04	107.66
704.17	44.47
704.31	95.96
704.44	60.85
704.57	58.51
704.70	2.34
704.83	44.47
704.96	107.66
705.10	79.58
705.23	93.62
>>>>>End Processed Spectral Data<<<<<
