SpectraSuite Data File
++++++++++++++++++++++++++++++++++++
Date: Fri Oct 04 12:13:30 GMT-05:00 2013
User: price-jones
Dark Spectrum Present: No
Reference Spectrum Present: No
Number of Sampled Component Spectra: 1
Spectrometers: USB2+H05261
Integration Time (usec): 10000 (USB2+H05261)
Spectra Averaged: 1 (USB2+H05261)
Boxcar Smoothing: 0 (USB2+H05261)
Correct for Electrical Dark: No (USB2+H05261)
Strobe/Lamp Enabled: No (USB2+H05261)
Correct for Detector Non-linearity: No (USB2+H05261)
Correct for Stray Light: No (USB2+H05261)
Number of Pixels in Processed Spectrum: 2048
>>>>>Begin Processed Spectral Data<<<<<
365.73	53.83
365.92	53.83
366.12	53.83
366.32	0.00
366.52	0.00
366.72	0.00
366.91	0.00
367.11	0.00
367.31	0.00
367.51	0.00
367.70	0.00
367.90	0.00
368.10	0.00
368.30	0.00
368.49	0.00
368.69	0.00
368.89	0.00
369.09	0.00
369.28	0.00
369.48	0.00
369.68	0.00
369.87	0.00
370.07	0.00
370.27	0.00
370.47	0.00
370.66	0.00
370.86	0.00
371.06	0.00
371.25	4.68
371.45	2.34
371.65	0.00
371.84	4.68
372.04	23.41
372.24	32.77
372.44	0.00
372.63	0.00
372.83	0.00
373.03	0.00
373.22	9.36
373.42	21.06
373.62	32.77
373.81	51.49
374.01	0.00
374.21	56.17
374.40	25.75
374.60	0.00
374.79	30.43
374.99	0.00
375.19	25.75
375.38	0.00
375.58	42.13
375.78	37.45
375.97	70.22
376.17	35.11
376.37	37.45
376.56	65.54
376.76	21.06
376.95	0.00
377.15	56.17
377.35	60.85
377.54	42.13
377.74	28.09
377.93	65.54
378.13	0.00
378.33	0.00
378.52	0.00
378.72	0.00
378.91	0.00
379.11	16.38
379.31	0.00
379.50	0.00
379.70	21.06
379.89	37.45
380.09	21.06
380.28	46.81
380.48	58.51
380.68	30.43
380.87	49.15
381.07	0.00
381.26	0.00
381.46	42.13
381.65	0.00
381.85	0.00
382.04	18.72
382.24	44.47
382.43	63.19
382.63	79.58
382.83	0.00
383.02	0.00
383.22	0.00
383.41	21.06
383.61	4.68
383.80	18.72
384.00	0.00
384.19	30.43
384.39	21.06
384.58	56.17
384.78	0.00
384.97	46.81
385.17	0.00
385.36	0.00
385.56	42.13
385.75	4.68
385.95	0.00
386.14	86.60
386.34	30.43
386.53	44.47
386.72	0.00
386.92	30.43
387.11	9.36
387.31	0.00
387.50	42.13
387.70	37.45
387.89	46.81
388.09	0.00
388.28	16.38
388.48	51.49
388.67	0.00
388.86	16.38
389.06	56.17
389.25	63.19
389.45	0.00
389.64	4.68
389.84	0.00
390.03	0.00
390.22	119.37
390.42	0.00
390.61	0.00
390.81	11.70
391.00	119.37
391.19	67.88
391.39	0.00
391.58	81.92
391.78	44.47
391.97	0.00
392.16	0.00
392.36	39.79
392.55	0.00
392.75	46.81
392.94	44.47
393.13	84.26
393.33	0.00
393.52	0.00
393.71	9.36
393.91	32.77
394.10	4.68
394.29	0.00
394.49	53.83
394.68	25.75
394.88	9.36
395.07	18.72
395.26	58.51
395.46	11.70
395.65	0.00
395.84	42.13
396.04	14.04
396.23	0.00
396.42	0.00
396.62	42.13
396.81	0.00
397.00	0.00
397.19	30.43
397.39	0.00
397.58	0.00
397.77	0.00
397.97	95.96
398.16	2.34
398.35	25.75
398.55	58.51
398.74	0.00
398.93	11.70
399.12	46.81
399.32	42.13
399.51	88.94
399.70	21.06
399.90	0.00
400.09	67.88
400.28	7.02
400.47	11.70
400.67	53.83
400.86	18.72
401.05	0.00
401.24	72.56
401.44	23.41
401.63	4.68
401.82	0.00
402.01	0.00
402.21	14.04
402.40	4.68
402.59	21.06
402.78	0.00
402.97	7.02
403.17	35.11
403.36	0.00
403.55	70.22
403.74	58.51
403.93	65.54
404.13	0.00
404.32	0.00
404.51	0.00
404.70	42.13
404.89	88.94
405.09	0.00
405.28	32.77
405.47	107.66
405.66	21.06
405.85	32.77
406.05	25.75
406.24	35.11
406.43	16.38
406.62	0.00
406.81	21.06
407.00	0.00
407.20	23.41
407.39	37.45
407.58	81.92
407.77	81.92
407.96	0.00
408.15	28.09
408.34	25.75
408.54	72.56
408.73	95.96
408.92	35.11
409.11	42.13
409.30	49.15
409.49	11.70
409.68	0.00
409.87	0.00
410.07	7.02
410.26	0.00
410.45	39.79
410.64	25.75
410.83	23.41
411.02	39.79
411.21	58.51
411.40	25.75
411.59	63.19
411.78	9.36
411.98	0.00
412.17	14.04
412.36	49.15
412.55	60.85
412.74	49.15
412.93	0.00
413.12	32.77
413.31	58.51
413.50	32.77
413.69	0.00
413.88	4.68
414.07	0.00
414.26	9.36
414.45	42.13
414.64	44.47
414.83	0.00
415.02	14.04
415.22	28.09
415.41	11.70
415.60	46.81
415.79	42.13
415.98	51.49
416.17	0.00
416.36	39.79
416.55	56.17
416.74	93.62
416.93	0.00
417.12	30.43
417.31	0.00
417.50	46.81
417.69	0.00
417.88	21.06
418.07	56.17
418.26	81.92
418.45	25.75
418.64	46.81
418.83	0.00
419.02	16.38
419.21	16.38
419.39	28.09
419.58	23.41
419.77	51.49
419.96	0.00
420.15	60.85
420.34	7.02
420.53	0.00
420.72	21.06
420.91	56.17
421.10	0.00
421.29	28.09
421.48	28.09
421.67	119.37
421.86	0.00
422.05	14.04
422.24	37.45
422.43	42.13
422.61	9.36
422.80	88.94
422.99	23.41
423.18	0.00
423.37	56.17
423.56	18.72
423.75	7.02
423.94	9.36
424.13	18.72
424.32	0.00
424.50	98.30
424.69	7.02
424.88	0.00
425.07	67.88
425.26	77.24
425.45	11.70
425.64	0.00
425.83	74.90
426.01	30.43
426.20	46.81
426.39	16.38
426.58	46.81
426.77	77.24
426.96	18.72
427.15	81.92
427.33	28.09
427.52	0.00
427.71	67.88
427.90	0.00
428.09	37.45
428.28	72.56
428.46	23.41
428.65	14.04
428.84	23.41
429.03	0.00
429.22	107.66
429.40	42.13
429.59	0.00
429.78	37.45
429.97	4.68
430.16	67.88
430.34	18.72
430.53	39.79
430.72	0.00
430.91	0.00
431.10	0.00
431.28	32.77
431.47	46.81
431.66	39.79
431.85	93.62
432.03	0.00
432.22	77.24
432.41	9.36
432.60	100.64
432.79	7.02
432.97	0.00
433.16	53.83
433.35	100.64
433.54	14.04
433.72	51.49
433.91	30.43
434.10	0.00
434.28	46.81
434.47	11.70
434.66	60.85
434.85	39.79
435.03	30.43
435.22	0.00
435.41	35.11
435.59	9.36
435.78	4.68
435.97	16.38
436.16	0.00
436.34	18.72
436.53	42.13
436.72	77.24
436.90	35.11
437.09	58.51
437.28	7.02
437.46	23.41
437.65	51.49
437.84	53.83
438.02	39.79
438.21	0.00
438.40	39.79
438.58	0.00
438.77	70.22
438.96	95.96
439.14	18.72
439.33	25.75
439.52	42.13
439.70	0.00
439.89	21.06
440.08	0.00
440.26	16.38
440.45	35.11
440.63	0.00
440.82	37.45
441.01	0.00
441.19	23.41
441.38	0.00
441.57	0.00
441.75	0.00
441.94	86.60
442.12	0.00
442.31	63.19
442.50	16.38
442.68	107.66
442.87	70.22
443.05	58.51
443.24	21.06
443.43	7.02
443.61	53.83
443.80	0.00
443.98	44.47
444.17	0.00
444.35	0.00
444.54	7.02
444.73	58.51
444.91	0.00
445.10	72.56
445.28	11.70
445.47	25.75
445.65	95.96
445.84	0.00
446.02	0.00
446.21	21.06
446.39	44.47
446.58	0.00
446.77	25.75
446.95	28.09
447.14	72.56
447.32	93.62
447.51	60.85
447.69	2.34
447.88	25.75
448.06	23.41
448.25	7.02
448.43	65.54
448.62	21.06
448.80	44.47
448.99	58.51
449.17	37.45
449.36	9.36
449.54	79.58
449.73	107.66
449.91	0.00
450.10	46.81
450.28	14.04
450.46	0.00
450.65	0.00
450.83	49.15
451.02	7.02
451.20	0.00
451.39	0.00
451.57	25.75
451.76	0.00
451.94	35.11
452.13	0.00
452.31	35.11
452.49	0.00
452.68	18.72
452.86	0.00
453.05	23.41
453.23	81.92
453.42	51.49
453.60	4.68
453.78	86.60
453.97	67.88
454.15	0.00
454.34	58.51
454.52	0.00
454.70	51.49
454.89	67.88
455.07	44.47
455.26	42.13
455.44	9.36
455.62	2.34
455.81	0.00
455.99	105.32
456.17	58.51
456.36	77.24
456.54	53.83
456.73	107.66
456.91	72.56
457.09	60.85
457.28	51.49
457.46	58.51
457.64	46.81
457.83	37.45
458.01	0.00
458.19	49.15
458.38	42.13
458.56	58.51
458.74	14.04
458.93	49.15
459.11	21.06
459.29	14.04
459.48	46.81
459.66	49.15
459.84	70.22
460.03	32.77
460.21	32.77
460.39	0.00
460.57	56.17
460.76	23.41
460.94	37.45
461.12	35.11
461.31	93.62
461.49	81.92
461.67	0.00
461.85	65.54
462.04	88.94
462.22	56.17
462.40	49.15
462.59	2.34
462.77	28.09
462.95	60.85
463.13	14.04
463.32	0.00
463.50	51.49
463.68	51.49
463.86	25.75
464.05	46.81
464.23	39.79
464.41	88.94
464.59	53.83
464.78	25.75
464.96	30.43
465.14	39.79
465.32	42.13
465.50	28.09
465.69	42.13
465.87	42.13
466.05	53.83
466.23	86.60
466.41	0.00
466.60	32.77
466.78	18.72
466.96	63.19
467.14	46.81
467.32	23.41
467.51	44.47
467.69	0.00
467.87	37.45
468.05	2.34
468.23	16.38
468.41	105.32
468.60	4.68
468.78	0.00
468.96	42.13
469.14	51.49
469.32	11.70
469.50	49.15
469.69	35.11
469.87	11.70
470.05	0.00
470.23	35.11
470.41	23.41
470.59	16.38
470.77	53.83
470.95	14.04
471.14	18.72
471.32	18.72
471.50	65.54
471.68	79.58
471.86	79.58
472.04	51.49
472.22	0.00
472.40	21.06
472.58	23.41
472.77	91.28
472.95	44.47
473.13	0.00
473.31	18.72
473.49	91.28
473.67	0.00
473.85	30.43
474.03	21.06
474.21	86.60
474.39	79.58
474.57	79.58
474.75	35.11
474.93	39.79
475.12	35.11
475.30	49.15
475.48	32.77
475.66	74.90
475.84	0.00
476.02	46.81
476.20	14.04
476.38	39.79
476.56	0.00
476.74	25.75
476.92	21.06
477.10	32.77
477.28	0.00
477.46	49.15
477.64	30.43
477.82	35.11
478.00	63.19
478.18	46.81
478.36	16.38
478.54	0.00
478.72	23.41
478.90	63.19
479.08	30.43
479.26	9.36
479.44	58.51
479.62	32.77
479.80	46.81
479.98	60.85
480.16	60.85
480.34	70.22
480.52	0.00
480.70	0.00
480.88	70.22
481.06	30.43
481.24	14.04
481.41	58.51
481.59	49.15
481.77	32.77
481.95	58.51
482.13	0.00
482.31	0.00
482.49	53.83
482.67	0.00
482.85	84.26
483.03	70.22
483.21	100.64
483.39	107.66
483.57	28.09
483.74	95.96
483.92	65.54
484.10	77.24
484.28	11.70
484.46	28.09
484.64	0.00
484.82	42.13
485.00	140.43
485.18	0.00
485.35	0.00
485.53	58.51
485.71	30.43
485.89	56.17
486.07	28.09
486.25	9.36
486.43	0.00
486.61	0.00
486.78	35.11
486.96	4.68
487.14	84.26
487.32	7.02
487.50	0.00
487.68	51.49
487.85	56.17
488.03	135.75
488.21	21.06
488.39	35.11
488.57	72.56
488.75	23.41
488.92	95.96
489.10	0.00
489.28	23.41
489.46	51.49
489.64	72.56
489.81	44.47
489.99	63.19
490.17	9.36
490.35	81.92
490.53	77.24
490.70	44.47
490.88	35.11
491.06	4.68
491.24	4.68
491.41	4.68
491.59	2.34
491.77	93.62
491.95	37.45
492.13	35.11
492.30	7.02
492.48	88.94
492.66	49.15
492.84	53.83
493.01	58.51
493.19	39.79
493.37	28.09
493.54	21.06
493.72	84.26
493.90	63.19
494.08	23.41
494.25	0.00
494.43	0.00
494.61	105.32
494.79	65.54
494.96	86.60
495.14	49.15
495.32	37.45
495.49	84.26
495.67	51.49
495.85	28.09
496.02	0.00
496.20	7.02
496.38	28.09
496.55	56.17
496.73	81.92
496.91	21.06
497.09	77.24
497.26	0.00
497.44	46.81
497.62	11.70
497.79	42.13
497.97	100.64
498.14	11.70
498.32	63.19
498.50	39.79
498.67	0.00
498.85	72.56
499.03	65.54
499.20	0.00
499.38	37.45
499.56	11.70
499.73	25.75
499.91	0.00
500.08	63.19
500.26	32.77
500.44	11.70
500.61	18.72
500.79	107.66
500.97	0.00
501.14	81.92
501.32	70.22
501.49	46.81
501.67	4.68
501.84	49.15
502.02	119.37
502.20	2.34
502.37	14.04
502.55	102.98
502.72	58.51
502.90	35.11
503.07	21.06
503.25	100.64
503.43	0.00
503.60	49.15
503.78	91.28
503.95	46.81
504.13	11.70
504.30	0.00
504.48	0.00
504.65	35.11
504.83	35.11
505.01	98.30
505.18	42.13
505.36	72.56
505.53	0.00
505.71	23.41
505.88	49.15
506.06	0.00
506.23	79.58
506.41	128.73
506.58	58.51
506.76	49.15
506.93	35.11
507.11	72.56
507.28	11.70
507.46	70.22
507.63	16.38
507.81	0.00
507.98	56.17
508.16	35.11
508.33	49.15
508.50	79.58
508.68	60.85
508.85	51.49
509.03	23.41
509.20	63.19
509.38	58.51
509.55	107.66
509.73	58.51
509.90	14.04
510.08	11.70
510.25	60.85
510.42	65.54
510.60	102.98
510.77	63.19
510.95	67.88
511.12	21.06
511.30	0.00
511.47	74.90
511.64	28.09
511.82	107.66
511.99	74.90
512.17	37.45
512.34	72.56
512.51	46.81
512.69	37.45
512.86	2.34
513.04	14.04
513.21	65.54
513.38	35.11
513.56	93.62
513.73	81.92
513.90	44.47
514.08	56.17
514.25	7.02
514.43	65.54
514.60	0.00
514.77	88.94
514.95	16.38
515.12	79.58
515.29	117.03
515.47	39.79
515.64	18.72
515.81	32.77
515.99	63.19
516.16	84.26
516.33	98.30
516.51	72.56
516.68	30.43
516.85	37.45
517.03	58.51
517.20	32.77
517.37	37.45
517.54	0.00
517.72	0.00
517.89	23.41
518.06	37.45
518.24	70.22
518.41	14.04
518.58	91.28
518.75	14.04
518.93	39.79
519.10	110.01
519.27	35.11
519.45	21.06
519.62	77.24
519.79	46.81
519.96	0.00
520.14	14.04
520.31	11.70
520.48	98.30
520.65	72.56
520.83	9.36
521.00	46.81
521.17	37.45
521.34	0.00
521.52	16.38
521.69	70.22
521.86	51.49
522.03	16.38
522.20	21.06
522.38	18.72
522.55	0.00
522.72	21.06
522.89	63.19
523.07	0.00
523.24	67.88
523.41	0.00
523.58	0.00
523.75	131.07
523.92	60.85
524.10	0.00
524.27	16.38
524.44	159.16
524.61	60.85
524.78	23.41
524.96	16.38
525.13	9.36
525.30	107.66
525.47	91.28
525.64	84.26
525.81	88.94
525.98	2.34
526.16	32.77
526.33	11.70
526.50	74.90
526.67	46.81
526.84	49.15
527.01	0.00
527.18	32.77
527.36	91.28
527.53	67.88
527.70	102.98
527.87	72.56
528.04	0.00
528.21	0.00
528.38	30.43
528.55	86.60
528.72	16.38
528.89	0.00
529.07	44.47
529.24	0.00
529.41	39.79
529.58	25.75
529.75	0.00
529.92	11.70
530.09	0.00
530.26	4.68
530.43	42.13
530.60	46.81
530.77	98.30
530.94	56.17
531.11	28.09
531.28	21.06
531.46	67.88
531.63	37.45
531.80	42.13
531.97	21.06
532.14	84.26
532.31	32.77
532.48	37.45
532.65	18.72
532.82	102.98
532.99	14.04
533.16	30.43
533.33	77.24
533.50	51.49
533.67	39.79
533.84	23.41
534.01	14.04
534.18	56.17
534.35	121.71
534.52	11.70
534.69	42.13
534.86	32.77
535.03	32.77
535.20	35.11
535.37	77.24
535.54	56.17
535.71	79.58
535.88	21.06
536.05	65.54
536.22	72.56
536.38	53.83
536.55	100.64
536.72	9.36
536.89	63.19
537.06	0.00
537.23	25.75
537.40	46.81
537.57	114.69
537.74	131.07
537.91	51.49
538.08	107.66
538.25	81.92
538.42	0.00
538.59	32.77
538.75	9.36
538.92	0.00
539.09	30.43
539.26	86.60
539.43	16.38
539.60	58.51
539.77	58.51
539.94	28.09
540.11	53.83
540.28	79.58
540.44	0.00
540.61	25.75
540.78	7.02
540.95	0.00
541.12	84.26
541.29	70.22
541.46	28.09
541.62	63.19
541.79	149.79
541.96	67.88
542.13	70.22
542.30	37.45
542.47	0.00
542.63	18.72
542.80	0.00
542.97	93.62
543.14	102.98
543.31	0.00
543.48	46.81
543.64	37.45
543.81	65.54
543.98	42.13
544.15	58.51
544.32	35.11
544.48	93.62
544.65	37.45
544.82	23.41
544.99	65.54
545.16	44.47
545.32	0.00
545.49	51.49
545.66	39.79
545.83	23.41
546.00	93.62
546.16	51.49
546.33	98.30
546.50	23.41
546.67	56.17
546.83	7.02
547.00	9.36
547.17	138.09
547.34	35.11
547.50	23.41
547.67	39.79
547.84	28.09
548.00	88.94
548.17	32.77
548.34	77.24
548.51	0.00
548.67	51.49
548.84	63.19
549.01	23.41
549.18	0.00
549.34	0.00
549.51	35.11
549.68	18.72
549.84	35.11
550.01	14.04
550.18	11.70
550.34	39.79
550.51	16.38
550.68	95.96
550.84	53.83
551.01	0.00
551.18	0.00
551.34	60.85
551.51	49.15
551.68	28.09
551.84	51.49
552.01	81.92
552.18	74.90
552.34	35.11
552.51	21.06
552.68	11.70
552.84	9.36
553.01	0.00
553.18	46.81
553.34	147.45
553.51	28.09
553.67	39.79
553.84	133.41
554.01	117.03
554.17	35.11
554.34	72.56
554.51	63.19
554.67	28.09
554.84	0.00
555.00	39.79
555.17	0.00
555.33	21.06
555.50	39.79
555.67	7.02
555.83	56.17
556.00	44.47
556.16	53.83
556.33	42.13
556.50	39.79
556.66	4.68
556.83	35.11
556.99	42.13
557.16	14.04
557.32	53.83
557.49	28.09
557.65	0.00
557.82	79.58
557.98	7.02
558.15	18.72
558.32	154.48
558.48	23.41
558.65	16.38
558.81	107.66
558.98	23.41
559.14	14.04
559.31	37.45
559.47	14.04
559.64	44.47
559.80	18.72
559.97	0.00
560.13	39.79
560.30	98.30
560.46	0.00
560.63	51.49
560.79	88.94
560.96	16.38
561.12	0.00
561.29	74.90
561.45	7.02
561.61	81.92
561.78	65.54
561.94	2.34
562.11	18.72
562.27	32.77
562.44	16.38
562.60	93.62
562.77	53.83
562.93	32.77
563.10	140.43
563.26	46.81
563.42	53.83
563.59	28.09
563.75	0.00
563.92	77.24
564.08	86.60
564.24	0.00
564.41	88.94
564.57	44.47
564.74	0.00
564.90	18.72
565.07	77.24
565.23	32.77
565.39	58.51
565.56	72.56
565.72	30.43
565.88	30.43
566.05	86.60
566.21	16.38
566.38	0.00
566.54	37.45
566.70	56.17
566.87	35.11
567.03	100.64
567.19	86.60
567.36	18.72
567.52	4.68
567.68	77.24
567.85	39.79
568.01	0.00
568.17	98.30
568.34	16.38
568.50	42.13
568.66	0.00
568.83	46.81
568.99	98.30
569.15	72.56
569.32	70.22
569.48	67.88
569.64	42.13
569.81	30.43
569.97	44.47
570.13	86.60
570.30	0.00
570.46	0.00
570.62	51.49
570.78	39.79
570.95	21.06
571.11	28.09
571.27	11.70
571.43	65.54
571.60	44.47
571.76	30.43
571.92	51.49
572.09	49.15
572.25	46.81
572.41	0.00
572.57	60.85
572.74	42.13
572.90	58.51
573.06	25.75
573.22	77.24
573.38	0.00
573.55	28.09
573.71	81.92
573.87	28.09
574.03	44.47
574.20	35.11
574.36	60.85
574.52	63.19
574.68	0.00
574.84	9.36
575.01	95.96
575.17	0.00
575.33	0.00
575.49	21.06
575.65	0.00
575.82	67.88
575.98	53.83
576.14	63.19
576.30	35.11
576.46	37.45
576.62	102.98
576.79	4.68
576.95	23.41
577.11	25.75
577.27	25.75
577.43	25.75
577.59	25.75
577.75	7.02
577.92	67.88
578.08	14.04
578.24	74.90
578.40	44.47
578.56	56.17
578.72	49.15
578.88	0.00
579.04	2.34
579.21	44.47
579.37	0.00
579.53	14.04
579.69	30.43
579.85	46.81
580.01	28.09
580.17	0.00
580.33	14.04
580.49	30.43
580.65	49.15
580.82	51.49
580.98	37.45
581.14	98.30
581.30	102.98
581.46	67.88
581.62	67.88
581.78	74.90
581.94	84.26
582.10	81.92
582.26	25.75
582.42	14.04
582.58	60.85
582.74	16.38
582.90	107.66
583.06	28.09
583.22	30.43
583.38	35.11
583.54	117.03
583.70	65.54
583.86	37.45
584.02	0.00
584.18	37.45
584.34	46.81
584.50	107.66
584.66	692.80
584.82	1549.43
584.98	1998.82
585.14	1732.00
585.30	1158.57
585.46	709.18
585.62	468.11
585.78	212.99
585.94	67.88
586.10	74.90
586.26	25.75
586.42	23.41
586.58	60.85
586.74	98.30
586.90	23.41
587.06	53.83
587.22	42.13
587.38	119.37
587.54	81.92
587.70	161.50
587.86	140.43
588.02	145.11
588.18	119.37
588.34	156.82
588.49	102.98
588.65	35.11
588.81	0.00
588.97	0.00
589.13	28.09
589.29	18.72
589.45	56.17
589.61	46.81
589.77	11.70
589.93	30.43
590.08	30.43
590.24	9.36
590.40	102.98
590.56	21.06
590.72	56.17
590.88	30.43
591.04	14.04
591.20	35.11
591.35	63.19
591.51	79.58
591.67	23.41
591.83	28.09
591.99	18.72
592.15	32.77
592.31	67.88
592.46	72.56
592.62	91.28
592.78	37.45
592.94	44.47
593.10	0.00
593.26	63.19
593.41	0.00
593.57	42.13
593.73	79.58
593.89	88.94
594.05	217.67
594.20	306.61
594.36	224.69
594.52	184.90
594.68	107.66
594.84	173.20
594.99	49.15
595.15	65.54
595.31	18.72
595.47	63.19
595.62	46.81
595.78	77.24
595.94	46.81
596.10	0.00
596.25	7.02
596.41	63.19
596.57	44.47
596.73	53.83
596.88	37.45
597.04	128.73
597.20	112.35
597.36	110.01
597.51	72.56
597.67	91.28
597.83	16.38
597.99	51.49
598.14	0.00
598.30	98.30
598.46	0.00
598.61	49.15
598.77	30.43
598.93	35.11
599.09	0.00
599.24	14.04
599.40	86.60
599.56	44.47
599.71	46.81
599.87	60.85
600.03	72.56
600.18	4.68
600.34	0.00
600.50	4.68
600.65	0.00
600.81	84.26
600.97	37.45
601.12	32.77
601.28	51.49
601.44	0.00
601.59	32.77
601.75	95.96
601.91	86.60
602.06	74.90
602.22	37.45
602.37	74.90
602.53	95.96
602.69	128.73
602.84	95.96
603.00	42.13
603.16	18.72
603.31	79.58
603.47	2.34
603.62	0.00
603.78	42.13
603.94	14.04
604.09	67.88
604.25	0.00
604.40	28.09
604.56	79.58
604.71	21.06
604.87	93.62
605.03	88.94
605.18	91.28
605.34	42.13
605.49	91.28
605.65	18.72
605.80	105.32
605.96	14.04
606.12	0.00
606.27	18.72
606.43	81.92
606.58	11.70
606.74	51.49
606.89	126.39
607.05	266.82
607.20	227.03
607.36	241.08
607.51	182.56
607.67	65.54
607.82	18.72
607.98	0.00
608.13	86.60
608.29	53.83
608.44	4.68
608.60	0.00
608.75	30.43
608.91	117.03
609.06	255.12
609.22	306.61
609.37	365.12
609.53	367.46
609.68	311.29
609.84	159.16
609.99	56.17
610.15	133.41
610.30	14.04
610.46	44.47
610.61	42.13
610.76	91.28
610.92	56.17
611.07	14.04
611.23	21.06
611.38	37.45
611.54	65.54
611.69	11.70
611.84	0.00
612.00	79.58
612.15	0.00
612.31	102.98
612.46	58.51
612.62	35.11
612.77	46.81
612.92	117.03
613.08	4.68
613.23	0.00
613.39	53.83
613.54	25.75
613.69	189.58
613.85	433.00
614.00	622.58
614.15	650.67
614.31	491.51
614.46	337.04
614.62	149.79
614.77	154.48
614.92	46.81
615.08	95.96
615.23	21.06
615.38	110.01
615.54	95.96
615.69	25.75
615.84	81.92
616.00	149.79
616.15	177.88
616.30	133.41
616.46	91.28
616.61	42.13
616.76	102.98
616.92	9.36
617.07	37.45
617.22	21.06
617.37	46.81
617.53	65.54
617.68	74.90
617.83	30.43
617.99	4.68
618.14	0.00
618.29	30.43
618.45	9.36
618.60	65.54
618.75	16.38
618.90	51.49
619.06	0.00
619.21	16.38
619.36	42.13
619.51	58.51
619.67	39.79
619.82	37.45
619.97	0.00
620.12	77.24
620.28	4.68
620.43	67.88
620.58	39.79
620.73	56.17
620.89	14.04
621.04	28.09
621.19	91.28
621.34	126.39
621.49	107.66
621.65	67.88
621.80	44.47
621.95	81.92
622.10	128.73
622.25	46.81
622.41	95.96
622.56	30.43
622.71	91.28
622.86	30.43
623.01	0.00
623.16	23.41
623.32	0.00
623.47	30.43
623.62	53.83
623.77	107.66
623.92	9.36
624.07	9.36
624.23	98.30
624.38	51.49
624.53	72.56
624.68	25.75
624.83	121.71
624.98	70.22
625.13	49.15
625.29	42.13
625.44	0.00
625.59	18.72
625.74	0.00
625.89	63.19
626.04	121.71
626.19	325.33
626.34	285.55
626.49	344.06
626.65	297.25
626.80	196.60
626.95	119.37
627.10	121.71
627.25	86.60
627.40	42.13
627.55	70.22
627.70	58.51
627.85	0.00
628.00	86.60
628.15	88.94
628.30	23.41
628.45	105.32
628.60	9.36
628.76	32.77
628.91	86.60
629.06	42.13
629.21	21.06
629.36	11.70
629.51	0.00
629.66	74.90
629.81	42.13
629.96	86.60
630.11	119.37
630.26	156.82
630.41	138.09
630.56	65.54
630.71	65.54
630.86	32.77
631.01	30.43
631.16	42.13
631.31	128.73
631.46	21.06
631.61	0.00
631.76	70.22
631.91	16.38
632.06	98.30
632.21	86.60
632.36	51.49
632.51	25.75
632.66	77.24
632.81	65.54
632.96	163.84
633.10	266.82
633.25	273.84
633.40	257.46
633.55	133.41
633.70	170.86
633.85	102.98
634.00	67.88
634.15	79.58
634.30	37.45
634.45	60.85
634.60	65.54
634.75	79.58
634.90	42.13
635.05	2.34
635.19	23.41
635.34	72.56
635.49	0.00
635.64	72.56
635.79	56.17
635.94	53.83
636.09	18.72
636.24	16.38
636.39	28.09
636.53	44.47
636.68	81.92
636.83	0.00
636.98	56.17
637.13	56.17
637.28	79.58
637.43	65.54
637.57	44.47
637.72	133.41
637.87	287.89
638.02	442.36
638.17	451.72
638.32	318.31
638.46	276.18
638.61	140.43
638.76	121.71
638.91	32.77
639.06	0.00
639.20	32.77
639.35	49.15
639.50	81.92
639.65	215.33
639.80	451.72
639.94	568.75
640.09	690.46
640.24	526.62
640.39	334.70
640.54	250.44
640.68	187.24
640.83	35.11
640.98	70.22
641.13	51.49
641.27	53.83
641.42	0.00
641.57	37.45
641.72	49.15
641.86	28.09
642.01	32.77
642.16	0.00
642.31	0.00
642.45	60.85
642.60	58.51
642.75	2.34
642.90	25.75
643.04	72.56
643.19	0.00
643.34	25.75
643.48	72.56
643.63	49.15
643.78	39.79
643.93	23.41
644.07	81.92
644.22	135.75
644.37	28.09
644.51	42.13
644.66	56.17
644.81	0.00
644.95	98.30
645.10	93.62
645.25	65.54
645.39	56.17
645.54	42.13
645.69	25.75
645.83	86.60
645.98	51.49
646.13	51.49
646.27	67.88
646.42	0.00
646.57	44.47
646.71	91.28
646.86	67.88
647.00	0.00
647.15	4.68
647.30	53.83
647.44	60.85
647.59	23.41
647.74	51.49
647.88	2.34
648.03	65.54
648.17	49.15
648.32	67.88
648.47	42.13
648.61	0.00
648.76	21.06
648.90	11.70
649.05	25.75
649.20	67.88
649.34	0.00
649.49	124.05
649.63	23.41
649.78	0.00
649.92	37.45
650.07	42.13
650.21	210.65
650.36	411.93
650.51	369.80
650.65	346.40
650.80	243.42
650.94	173.20
651.09	67.88
651.23	117.03
651.38	77.24
651.52	23.41
651.67	16.38
651.81	58.51
651.96	77.24
652.10	23.41
652.25	0.00
652.39	46.81
652.54	18.72
652.68	0.00
652.83	65.54
652.97	145.11
653.12	173.20
653.26	110.01
653.41	166.18
653.55	70.22
653.70	51.49
653.84	7.02
653.99	77.24
654.13	0.00
654.27	0.00
654.42	56.17
654.56	46.81
654.71	60.85
654.85	0.00
655.00	67.88
655.14	21.06
655.29	0.00
655.43	53.83
655.57	37.45
655.72	32.77
655.86	25.75
656.01	60.85
656.15	100.64
656.30	0.00
656.44	46.81
656.58	0.00
656.73	28.09
656.87	16.38
657.01	4.68
657.16	135.75
657.30	44.47
657.45	60.85
657.59	46.81
657.73	0.00
657.88	53.83
658.02	53.83
658.16	44.47
658.31	0.00
658.45	7.02
658.60	21.06
658.74	49.15
658.88	0.00
659.03	30.43
659.17	56.17
659.31	32.77
659.46	154.48
659.60	110.01
659.74	194.26
659.89	133.41
660.03	102.98
660.17	147.45
660.32	112.35
660.46	42.13
660.60	49.15
660.74	23.41
660.89	16.38
661.03	51.49
661.17	67.88
661.32	18.72
661.46	0.00
661.60	0.00
661.74	53.83
661.89	49.15
662.03	51.49
662.17	65.54
662.31	44.47
662.46	14.04
662.60	51.49
662.74	51.49
662.88	32.77
663.03	56.17
663.17	25.75
663.31	9.36
663.45	7.02
663.60	100.64
663.74	37.45
663.88	21.06
664.02	18.72
664.17	49.15
664.31	23.41
664.45	44.47
664.59	67.88
664.73	140.43
664.88	14.04
665.02	35.11
665.16	81.92
665.30	25.75
665.44	60.85
665.59	0.00
665.73	14.04
665.87	91.28
666.01	105.32
666.15	0.00
666.29	4.68
666.44	53.83
666.58	51.49
666.72	21.06
666.86	86.60
667.00	114.69
667.14	18.72
667.28	51.49
667.43	220.01
667.57	320.65
667.71	327.68
667.85	236.39
667.99	191.92
668.13	140.43
668.27	140.43
668.41	56.17
668.56	56.17
668.70	4.68
668.84	117.03
668.98	72.56
669.12	42.13
669.26	60.85
669.40	35.11
669.54	88.94
669.68	51.49
669.82	23.41
669.96	65.54
670.10	72.56
670.25	16.38
670.39	32.77
670.53	0.00
670.67	18.72
670.81	23.41
670.95	23.41
671.09	72.56
671.23	77.24
671.37	142.77
671.51	156.82
671.65	231.71
671.79	177.88
671.93	180.22
672.07	145.11
672.21	63.19
672.35	37.45
672.49	60.85
672.63	0.00
672.77	0.00
672.91	56.17
673.05	30.43
673.19	18.72
673.33	32.77
673.47	51.49
673.61	11.70
673.75	39.79
673.89	0.00
674.03	0.00
674.17	79.58
674.31	0.00
674.45	58.51
674.59	25.75
674.73	81.92
674.87	67.88
675.01	77.24
675.15	32.77
675.29	18.72
675.43	0.00
675.56	56.17
675.70	25.75
675.84	46.81
675.98	44.47
676.12	25.75
676.26	0.00
676.40	25.75
676.54	39.79
676.68	51.49
676.82	16.38
676.96	56.17
677.10	7.02
677.23	0.00
677.37	0.00
677.51	105.32
677.65	98.30
677.79	65.54
677.93	0.00
678.07	56.17
678.21	65.54
678.34	11.70
678.48	88.94
678.62	39.79
678.76	0.00
678.90	44.47
679.04	14.04
679.18	0.00
679.31	107.66
679.45	0.00
679.59	32.77
679.73	39.79
679.87	18.72
680.00	60.85
680.14	110.01
680.28	72.56
680.42	0.00
680.56	39.79
680.70	0.00
680.83	44.47
680.97	81.92
681.11	86.60
681.25	4.68
681.39	23.41
681.52	32.77
681.66	63.19
681.80	18.72
681.94	0.00
682.07	25.75
682.21	0.00
682.35	79.58
682.49	7.02
682.62	0.00
682.76	65.54
682.90	53.83
683.04	21.06
683.17	44.47
683.31	28.09
683.45	30.43
683.59	28.09
683.72	77.24
683.86	84.26
684.00	81.92
684.13	70.22
684.27	72.56
684.41	84.26
684.55	46.81
684.68	2.34
684.82	7.02
684.96	28.09
685.09	0.00
685.23	86.60
685.37	46.81
685.50	21.06
685.64	100.64
685.78	53.83
685.91	77.24
686.05	51.49
686.19	0.00
686.32	0.00
686.46	42.13
686.60	91.28
686.73	56.17
686.87	112.35
687.01	70.22
687.14	30.43
687.28	0.00
687.42	21.06
687.55	14.04
687.69	44.47
687.82	16.38
687.96	44.47
688.10	65.54
688.23	30.43
688.37	0.00
688.50	0.00
688.64	70.22
688.78	14.04
688.91	67.88
689.05	0.00
689.18	51.49
689.32	70.22
689.46	0.00
689.59	35.11
689.73	11.70
689.86	0.00
690.00	37.45
690.13	77.24
690.27	0.00
690.41	81.92
690.54	0.00
690.68	56.17
690.81	56.17
690.95	84.26
691.08	88.94
691.22	2.34
691.35	60.85
691.49	0.00
691.62	74.90
691.76	16.38
691.89	60.85
692.03	25.75
692.16	2.34
692.30	46.81
692.43	28.09
692.57	149.79
692.70	145.11
692.84	154.48
692.97	124.05
693.11	84.26
693.24	117.03
693.38	23.41
693.51	65.54
693.65	16.38
693.78	105.32
693.92	0.00
694.05	28.09
694.19	0.00
694.32	100.64
694.45	114.69
694.59	28.09
694.72	4.68
694.86	30.43
694.99	25.75
695.13	30.43
695.26	124.05
695.39	35.11
695.53	51.49
695.66	11.70
695.80	7.02
695.93	63.19
696.07	107.66
696.20	74.90
696.33	14.04
696.47	42.13
696.60	32.77
696.73	4.68
696.87	37.45
697.00	86.60
697.14	28.09
697.27	60.85
697.40	42.13
697.54	49.15
697.67	133.41
697.80	0.00
697.94	70.22
698.07	44.47
698.21	58.51
698.34	39.79
698.47	0.00
698.61	53.83
698.74	42.13
698.87	0.00
699.01	2.34
699.14	91.28
699.27	102.98
699.40	67.88
699.54	67.88
699.67	49.15
699.80	74.90
699.94	0.00
700.07	58.51
700.20	0.00
700.34	0.00
700.47	39.79
700.60	53.83
700.73	25.75
700.87	0.00
701.00	25.75
701.13	70.22
701.26	28.09
701.40	28.09
701.53	16.38
701.66	7.02
701.79	9.36
701.93	0.00
702.06	37.45
702.19	93.62
702.32	72.56
702.46	74.90
702.59	9.36
702.72	77.24
702.85	121.71
702.99	163.84
703.12	229.37
703.25	325.33
703.38	189.58
703.51	180.22
703.65	91.28
703.78	86.60
703.91	133.41
704.04	32.77
704.17	53.83
704.31	67.88
704.44	49.15
704.57	0.00
704.70	70.22
704.83	67.88
704.96	39.79
705.10	88.94
705.23	58.51
>>>>>End Processed Spectral Data<<<<<
