SpectraSuite Data File
++++++++++++++++++++++++++++++++++++
Date: Fri Oct 04 12:13:26 GMT-05:00 2013
User: price-jones
Dark Spectrum Present: No
Reference Spectrum Present: No
Number of Sampled Component Spectra: 1
Spectrometers: USB2+H05261
Integration Time (usec): 10000 (USB2+H05261)
Spectra Averaged: 1 (USB2+H05261)
Boxcar Smoothing: 0 (USB2+H05261)
Correct for Electrical Dark: No (USB2+H05261)
Strobe/Lamp Enabled: No (USB2+H05261)
Correct for Detector Non-linearity: No (USB2+H05261)
Correct for Stray Light: No (USB2+H05261)
Number of Pixels in Processed Spectrum: 2048
>>>>>Begin Processed Spectral Data<<<<<
365.73	70.22
365.92	70.22
366.12	70.22
366.32	0.00
366.52	0.00
366.72	0.00
366.91	0.00
367.11	0.00
367.31	0.00
367.51	0.00
367.70	0.00
367.90	0.00
368.10	0.00
368.30	0.00
368.49	0.00
368.69	0.00
368.89	0.00
369.09	0.00
369.28	0.00
369.48	0.00
369.68	0.00
369.87	0.00
370.07	0.00
370.27	0.00
370.47	0.00
370.66	0.00
370.86	0.00
371.06	0.00
371.25	0.00
371.45	0.00
371.65	0.00
371.84	0.00
372.04	0.00
372.24	23.41
372.44	0.00
372.63	53.83
372.83	35.11
373.03	91.28
373.22	16.38
373.42	105.32
373.62	42.13
373.81	42.13
374.01	0.00
374.21	142.77
374.40	46.81
374.60	63.19
374.79	4.68
374.99	49.15
375.19	0.00
375.38	51.49
375.58	11.70
375.78	39.79
375.97	0.00
376.17	42.13
376.37	28.09
376.56	0.00
376.76	4.68
376.95	46.81
377.15	32.77
377.35	16.38
377.54	16.38
377.74	37.45
377.93	0.00
378.13	21.06
378.33	65.54
378.52	65.54
378.72	0.00
378.91	46.81
379.11	63.19
379.31	37.45
379.50	42.13
379.70	4.68
379.89	0.00
380.09	9.36
380.28	0.00
380.48	46.81
380.68	16.38
380.87	0.00
381.07	0.00
381.26	0.00
381.46	0.00
381.65	72.56
381.85	9.36
382.04	0.00
382.24	0.00
382.43	4.68
382.63	0.00
382.83	4.68
383.02	0.00
383.22	16.38
383.41	81.92
383.61	0.00
383.80	39.79
384.00	51.49
384.19	0.00
384.39	77.24
384.58	30.43
384.78	49.15
384.97	28.09
385.17	32.77
385.36	0.00
385.56	49.15
385.75	37.45
385.95	53.83
386.14	7.02
386.34	0.00
386.53	0.00
386.72	0.00
386.92	46.81
387.11	0.00
387.31	23.41
387.50	9.36
387.70	30.43
387.89	25.75
388.09	0.00
388.28	60.85
388.48	0.00
388.67	30.43
388.86	0.00
389.06	0.00
389.25	23.41
389.45	0.00
389.64	32.77
389.84	0.00
390.03	30.43
390.22	32.77
390.42	25.75
390.61	0.00
390.81	0.00
391.00	56.17
391.19	44.47
391.39	4.68
391.58	42.13
391.78	138.09
391.97	16.38
392.16	39.79
392.36	65.54
392.55	58.51
392.75	79.58
392.94	0.00
393.13	18.72
393.33	0.00
393.52	88.94
393.71	0.00
393.91	0.00
394.10	77.24
394.29	0.00
394.49	11.70
394.68	53.83
394.88	0.00
395.07	67.88
395.26	30.43
395.46	0.00
395.65	4.68
395.84	30.43
396.04	0.00
396.23	0.00
396.42	46.81
396.62	51.49
396.81	91.28
397.00	0.00
397.19	7.02
397.39	30.43
397.58	16.38
397.77	74.90
397.97	0.00
398.16	2.34
398.35	16.38
398.55	53.83
398.74	16.38
398.93	0.00
399.12	0.00
399.32	0.00
399.51	0.00
399.70	0.00
399.90	25.75
400.09	63.19
400.28	0.00
400.47	25.75
400.67	0.00
400.86	44.47
401.05	42.13
401.24	0.00
401.44	44.47
401.63	7.02
401.82	23.41
402.01	0.00
402.21	0.00
402.40	107.66
402.59	28.09
402.78	0.00
402.97	44.47
403.17	9.36
403.36	39.79
403.55	11.70
403.74	51.49
403.93	4.68
404.13	0.00
404.32	35.11
404.51	65.54
404.70	44.47
404.89	0.00
405.09	56.17
405.28	102.98
405.47	53.83
405.66	98.30
405.85	11.70
406.05	0.00
406.24	11.70
406.43	53.83
406.62	30.43
406.81	72.56
407.00	35.11
407.20	0.00
407.39	14.04
407.58	9.36
407.77	23.41
407.96	58.51
408.15	39.79
408.34	7.02
408.54	44.47
408.73	39.79
408.92	23.41
409.11	2.34
409.30	7.02
409.49	0.00
409.68	2.34
409.87	70.22
410.07	30.43
410.26	0.00
410.45	46.81
410.64	9.36
410.83	0.00
411.02	0.00
411.21	0.00
411.40	49.15
411.59	95.96
411.78	93.62
411.98	72.56
412.17	0.00
412.36	0.00
412.55	0.00
412.74	16.38
412.93	35.11
413.12	18.72
413.31	23.41
413.50	0.00
413.69	30.43
413.88	21.06
414.07	11.70
414.26	46.81
414.45	39.79
414.64	0.00
414.83	0.00
415.02	0.00
415.22	18.72
415.41	2.34
415.60	56.17
415.79	37.45
415.98	0.00
416.17	11.70
416.36	35.11
416.55	0.00
416.74	46.81
416.93	42.13
417.12	11.70
417.31	0.00
417.50	77.24
417.69	28.09
417.88	0.00
418.07	0.00
418.26	72.56
418.45	72.56
418.64	28.09
418.83	21.06
419.02	60.85
419.21	0.00
419.39	9.36
419.58	86.60
419.77	0.00
419.96	63.19
420.15	56.17
420.34	37.45
420.53	39.79
420.72	51.49
420.91	51.49
421.10	84.26
421.29	70.22
421.48	35.11
421.67	30.43
421.86	91.28
422.05	23.41
422.24	18.72
422.43	67.88
422.61	0.00
422.80	14.04
422.99	25.75
423.18	39.79
423.37	9.36
423.56	0.00
423.75	0.00
423.94	0.00
424.13	0.00
424.32	51.49
424.50	25.75
424.69	77.24
424.88	30.43
425.07	39.79
425.26	63.19
425.45	72.56
425.64	46.81
425.83	49.15
426.01	21.06
426.20	0.00
426.39	49.15
426.58	23.41
426.77	51.49
426.96	35.11
427.15	51.49
427.33	37.45
427.52	42.13
427.71	0.00
427.90	93.62
428.09	11.70
428.28	30.43
428.46	51.49
428.65	9.36
428.84	0.00
429.03	11.70
429.22	0.00
429.40	23.41
429.59	49.15
429.78	98.30
429.97	110.01
430.16	72.56
430.34	63.19
430.53	56.17
430.72	18.72
430.91	0.00
431.10	0.00
431.28	18.72
431.47	77.24
431.66	11.70
431.85	7.02
432.03	70.22
432.22	39.79
432.41	53.83
432.60	60.85
432.79	0.00
432.97	37.45
433.16	84.26
433.35	39.79
433.54	72.56
433.72	37.45
433.91	2.34
434.10	74.90
434.28	7.02
434.47	11.70
434.66	37.45
434.85	28.09
435.03	67.88
435.22	51.49
435.41	4.68
435.59	0.00
435.78	37.45
435.97	46.81
436.16	30.43
436.34	0.00
436.53	0.00
436.72	16.38
436.90	51.49
437.09	44.47
437.28	0.00
437.46	119.37
437.65	142.77
437.84	37.45
438.02	35.11
438.21	63.19
438.40	63.19
438.58	37.45
438.77	0.00
438.96	0.00
439.14	18.72
439.33	0.00
439.52	44.47
439.70	44.47
439.89	37.45
440.08	0.00
440.26	0.00
440.45	102.98
440.63	70.22
440.82	0.00
441.01	72.56
441.19	14.04
441.38	0.00
441.57	0.00
441.75	14.04
441.94	91.28
442.12	0.00
442.31	72.56
442.50	23.41
442.68	37.45
442.87	16.38
443.05	9.36
443.24	30.43
443.43	0.00
443.61	77.24
443.80	0.00
443.98	58.51
444.17	23.41
444.35	37.45
444.54	67.88
444.73	23.41
444.91	25.75
445.10	18.72
445.28	0.00
445.47	0.00
445.65	86.60
445.84	0.00
446.02	11.70
446.21	18.72
446.39	46.81
446.58	44.47
446.77	49.15
446.95	16.38
447.14	30.43
447.32	4.68
447.51	2.34
447.69	4.68
447.88	30.43
448.06	88.94
448.25	70.22
448.43	44.47
448.62	0.00
448.80	58.51
448.99	65.54
449.17	67.88
449.36	14.04
449.54	18.72
449.73	0.00
449.91	18.72
450.10	37.45
450.28	0.00
450.46	7.02
450.65	39.79
450.83	9.36
451.02	84.26
451.20	21.06
451.39	21.06
451.57	35.11
451.76	35.11
451.94	16.38
452.13	42.13
452.31	42.13
452.49	9.36
452.68	39.79
452.86	35.11
453.05	14.04
453.23	23.41
453.42	63.19
453.60	81.92
453.78	28.09
453.97	0.00
454.15	0.00
454.34	0.00
454.52	117.03
454.70	81.92
454.89	0.00
455.07	2.34
455.26	21.06
455.44	37.45
455.62	28.09
455.81	14.04
455.99	39.79
456.17	2.34
456.36	74.90
456.54	51.49
456.73	0.00
456.91	0.00
457.09	63.19
457.28	63.19
457.46	9.36
457.64	56.17
457.83	0.00
458.01	0.00
458.19	128.73
458.38	28.09
458.56	65.54
458.74	60.85
458.93	46.81
459.11	46.81
459.29	16.38
459.48	51.49
459.66	56.17
459.84	16.38
460.03	25.75
460.21	9.36
460.39	53.83
460.57	37.45
460.76	0.00
460.94	7.02
461.12	0.00
461.31	16.38
461.49	65.54
461.67	0.00
461.85	30.43
462.04	79.58
462.22	105.32
462.40	18.72
462.59	53.83
462.77	37.45
462.95	63.19
463.13	86.60
463.32	32.77
463.50	4.68
463.68	60.85
463.86	88.94
464.05	49.15
464.23	51.49
464.41	72.56
464.59	0.00
464.78	0.00
464.96	56.17
465.14	30.43
465.32	145.11
465.50	56.17
465.69	30.43
465.87	63.19
466.05	32.77
466.23	67.88
466.41	84.26
466.60	91.28
466.78	7.02
466.96	30.43
467.14	42.13
467.32	58.51
467.51	0.00
467.69	2.34
467.87	4.68
468.05	0.00
468.23	9.36
468.41	81.92
468.60	60.85
468.78	74.90
468.96	18.72
469.14	16.38
469.32	0.00
469.50	0.00
469.69	65.54
469.87	35.11
470.05	0.00
470.23	35.11
470.41	81.92
470.59	0.00
470.77	0.00
470.95	0.00
471.14	11.70
471.32	7.02
471.50	14.04
471.68	86.60
471.86	14.04
472.04	39.79
472.22	14.04
472.40	126.39
472.58	21.06
472.77	121.71
472.95	11.70
473.13	21.06
473.31	0.00
473.49	7.02
473.67	95.96
473.85	39.79
474.03	79.58
474.21	86.60
474.39	0.00
474.57	74.90
474.75	102.98
474.93	23.41
475.12	60.85
475.30	42.13
475.48	0.00
475.66	65.54
475.84	74.90
476.02	79.58
476.20	16.38
476.38	86.60
476.56	60.85
476.74	21.06
476.92	56.17
477.10	18.72
477.28	65.54
477.46	0.00
477.64	0.00
477.82	0.00
478.00	4.68
478.18	0.00
478.36	91.28
478.54	18.72
478.72	23.41
478.90	0.00
479.08	30.43
479.26	23.41
479.44	81.92
479.62	18.72
479.80	32.77
479.98	32.77
480.16	67.88
480.34	0.00
480.52	21.06
480.70	32.77
480.88	53.83
481.06	7.02
481.24	0.00
481.41	0.00
481.59	37.45
481.77	0.00
481.95	0.00
482.13	44.47
482.31	14.04
482.49	9.36
482.67	0.00
482.85	39.79
483.03	0.00
483.21	70.22
483.39	0.00
483.57	70.22
483.74	42.13
483.92	0.00
484.10	2.34
484.28	70.22
484.46	44.47
484.64	0.00
484.82	0.00
485.00	18.72
485.18	0.00
485.35	0.00
485.53	0.00
485.71	67.88
485.89	51.49
486.07	86.60
486.25	60.85
486.43	35.11
486.61	79.58
486.78	112.35
486.96	53.83
487.14	16.38
487.32	63.19
487.50	86.60
487.68	7.02
487.85	102.98
488.03	21.06
488.21	58.51
488.39	0.00
488.57	35.11
488.75	0.00
488.92	30.43
489.10	67.88
489.28	0.00
489.46	77.24
489.64	100.64
489.81	9.36
489.99	53.83
490.17	7.02
490.35	70.22
490.53	23.41
490.70	60.85
490.88	79.58
491.06	0.00
491.24	28.09
491.41	14.04
491.59	93.62
491.77	51.49
491.95	93.62
492.13	37.45
492.30	128.73
492.48	25.75
492.66	16.38
492.84	53.83
493.01	7.02
493.19	0.00
493.37	51.49
493.54	9.36
493.72	58.51
493.90	81.92
494.08	84.26
494.25	0.00
494.43	21.06
494.61	30.43
494.79	49.15
494.96	0.00
495.14	21.06
495.32	42.13
495.49	56.17
495.67	0.00
495.85	88.94
496.02	39.79
496.20	0.00
496.38	35.11
496.55	42.13
496.73	42.13
496.91	51.49
497.09	60.85
497.26	65.54
497.44	65.54
497.62	18.72
497.79	0.00
497.97	46.81
498.14	18.72
498.32	32.77
498.50	4.68
498.67	0.00
498.85	63.19
499.03	49.15
499.20	0.00
499.38	63.19
499.56	0.00
499.73	51.49
499.91	0.00
500.08	25.75
500.26	11.70
500.44	37.45
500.61	0.00
500.79	65.54
500.97	14.04
501.14	0.00
501.32	4.68
501.49	58.51
501.67	11.70
501.84	46.81
502.02	2.34
502.20	0.00
502.37	35.11
502.55	35.11
502.72	79.58
502.90	0.00
503.07	39.79
503.25	86.60
503.43	86.60
503.60	44.47
503.78	0.00
503.95	180.22
504.13	81.92
504.30	32.77
504.48	60.85
504.65	86.60
504.83	23.41
505.01	18.72
505.18	51.49
505.36	0.00
505.53	23.41
505.71	0.00
505.88	42.13
506.06	72.56
506.23	0.00
506.41	0.00
506.58	74.90
506.76	77.24
506.93	86.60
507.11	25.75
507.28	0.00
507.46	39.79
507.63	14.04
507.81	65.54
507.98	2.34
508.16	28.09
508.33	0.00
508.50	72.56
508.68	58.51
508.85	51.49
509.03	37.45
509.20	0.00
509.38	0.00
509.55	11.70
509.73	28.09
509.90	93.62
510.08	21.06
510.25	37.45
510.42	28.09
510.60	98.30
510.77	16.38
510.95	30.43
511.12	28.09
511.30	81.92
511.47	30.43
511.64	67.88
511.82	49.15
511.99	110.01
512.17	4.68
512.34	58.51
512.51	2.34
512.69	39.79
512.86	112.35
513.04	60.85
513.21	16.38
513.38	53.83
513.56	23.41
513.73	70.22
513.90	46.81
514.08	2.34
514.25	49.15
514.43	74.90
514.60	46.81
514.77	42.13
514.95	14.04
515.12	51.49
515.29	35.11
515.47	14.04
515.64	32.77
515.81	2.34
515.99	42.13
516.16	11.70
516.33	35.11
516.51	105.32
516.68	37.45
516.85	37.45
517.03	16.38
517.20	0.00
517.37	25.75
517.54	0.00
517.72	53.83
517.89	60.85
518.06	102.98
518.24	46.81
518.41	74.90
518.58	21.06
518.75	23.41
518.93	135.75
519.10	58.51
519.27	0.00
519.45	63.19
519.62	110.01
519.79	37.45
519.96	14.04
520.14	11.70
520.31	4.68
520.48	30.43
520.65	28.09
520.83	70.22
521.00	65.54
521.17	11.70
521.34	11.70
521.52	93.62
521.69	49.15
521.86	49.15
522.03	49.15
522.20	84.26
522.38	70.22
522.55	42.13
522.72	0.00
522.89	28.09
523.07	46.81
523.24	11.70
523.41	37.45
523.58	32.77
523.75	0.00
523.92	23.41
524.10	18.72
524.27	0.00
524.44	28.09
524.61	14.04
524.78	0.00
524.96	0.00
525.13	42.13
525.30	95.96
525.47	23.41
525.64	25.75
525.81	39.79
525.98	39.79
526.16	65.54
526.33	16.38
526.50	7.02
526.67	0.00
526.84	77.24
527.01	0.00
527.18	60.85
527.36	0.00
527.53	102.98
527.70	28.09
527.87	0.00
528.04	0.00
528.21	79.58
528.38	14.04
528.55	60.85
528.72	11.70
528.89	60.85
529.07	0.00
529.24	53.83
529.41	25.75
529.58	91.28
529.75	58.51
529.92	28.09
530.09	53.83
530.26	0.00
530.43	0.00
530.60	72.56
530.77	0.00
530.94	53.83
531.11	7.02
531.28	14.04
531.46	32.77
531.63	30.43
531.80	30.43
531.97	28.09
532.14	21.06
532.31	14.04
532.48	138.09
532.65	11.70
532.82	114.69
532.99	46.81
533.16	42.13
533.33	60.85
533.50	0.00
533.67	0.00
533.84	37.45
534.01	72.56
534.18	23.41
534.35	37.45
534.52	102.98
534.69	28.09
534.86	53.83
535.03	0.00
535.20	28.09
535.37	0.00
535.54	77.24
535.71	23.41
535.88	37.45
536.05	49.15
536.22	42.13
536.38	25.75
536.55	0.00
536.72	65.54
536.89	53.83
537.06	14.04
537.23	117.03
537.40	112.35
537.57	70.22
537.74	32.77
537.91	88.94
538.08	25.75
538.25	72.56
538.42	16.38
538.59	56.17
538.75	30.43
538.92	51.49
539.09	44.47
539.26	51.49
539.43	63.19
539.60	86.60
539.77	2.34
539.94	86.60
540.11	60.85
540.28	35.11
540.44	63.19
540.61	58.51
540.78	39.79
540.95	79.58
541.12	81.92
541.29	37.45
541.46	9.36
541.62	0.00
541.79	0.00
541.96	0.00
542.13	35.11
542.30	121.71
542.47	77.24
542.63	84.26
542.80	39.79
542.97	0.00
543.14	39.79
543.31	4.68
543.48	86.60
543.64	0.00
543.81	28.09
543.98	30.43
544.15	9.36
544.32	37.45
544.48	21.06
544.65	77.24
544.82	53.83
544.99	32.77
545.16	14.04
545.32	35.11
545.49	44.47
545.66	37.45
545.83	14.04
546.00	32.77
546.16	124.05
546.33	25.75
546.50	37.45
546.67	65.54
546.83	0.00
547.00	14.04
547.17	0.00
547.34	77.24
547.50	28.09
547.67	11.70
547.84	18.72
548.00	72.56
548.17	67.88
548.34	21.06
548.51	23.41
548.67	9.36
548.84	7.02
549.01	77.24
549.18	0.00
549.34	0.00
549.51	0.00
549.68	37.45
549.84	0.00
550.01	49.15
550.18	25.75
550.34	74.90
550.51	25.75
550.68	32.77
550.84	51.49
551.01	18.72
551.18	28.09
551.34	32.77
551.51	25.75
551.68	9.36
551.84	23.41
552.01	58.51
552.18	18.72
552.34	0.00
552.51	51.49
552.68	81.92
552.84	58.51
553.01	37.45
553.18	28.09
553.34	23.41
553.51	18.72
553.67	44.47
553.84	16.38
554.01	25.75
554.17	46.81
554.34	21.06
554.51	39.79
554.67	46.81
554.84	53.83
555.00	0.00
555.17	4.68
555.33	74.90
555.50	44.47
555.67	42.13
555.83	49.15
556.00	42.13
556.16	14.04
556.33	39.79
556.50	63.19
556.66	32.77
556.83	0.00
556.99	67.88
557.16	70.22
557.32	60.85
557.49	86.60
557.65	0.00
557.82	0.00
557.98	44.47
558.15	0.00
558.32	0.00
558.48	16.38
558.65	37.45
558.81	79.58
558.98	60.85
559.14	32.77
559.31	0.00
559.47	7.02
559.64	46.81
559.80	67.88
559.97	93.62
560.13	28.09
560.30	65.54
560.46	9.36
560.63	91.28
560.79	72.56
560.96	9.36
561.12	30.43
561.29	35.11
561.45	0.00
561.61	18.72
561.78	0.00
561.94	145.11
562.11	56.17
562.27	32.77
562.44	0.00
562.60	81.92
562.77	25.75
562.93	121.71
563.10	72.56
563.26	107.66
563.42	25.75
563.59	46.81
563.75	2.34
563.92	2.34
564.08	18.72
564.24	35.11
564.41	91.28
564.57	11.70
564.74	74.90
564.90	79.58
565.07	0.00
565.23	9.36
565.39	0.00
565.56	39.79
565.72	4.68
565.88	0.00
566.05	98.30
566.21	0.00
566.38	74.90
566.54	88.94
566.70	23.41
566.87	32.77
567.03	67.88
567.19	114.69
567.36	142.77
567.52	0.00
567.68	16.38
567.85	28.09
568.01	79.58
568.17	37.45
568.34	18.72
568.50	77.24
568.66	23.41
568.83	16.38
568.99	32.77
569.15	30.43
569.32	65.54
569.48	88.94
569.64	9.36
569.81	70.22
569.97	65.54
570.13	2.34
570.30	44.47
570.46	23.41
570.62	67.88
570.78	79.58
570.95	14.04
571.11	28.09
571.27	14.04
571.43	7.02
571.60	42.13
571.76	0.00
571.92	39.79
572.09	65.54
572.25	0.00
572.41	35.11
572.57	91.28
572.74	98.30
572.90	79.58
573.06	67.88
573.22	7.02
573.38	95.96
573.55	60.85
573.71	81.92
573.87	60.85
574.03	60.85
574.20	49.15
574.36	56.17
574.52	74.90
574.68	67.88
574.84	79.58
575.01	16.38
575.17	70.22
575.33	100.64
575.49	4.68
575.65	32.77
575.82	60.85
575.98	32.77
576.14	39.79
576.30	25.75
576.46	65.54
576.62	79.58
576.79	63.19
576.95	49.15
577.11	11.70
577.27	11.70
577.43	56.17
577.59	65.54
577.75	28.09
577.92	46.81
578.08	46.81
578.24	46.81
578.40	51.49
578.56	42.13
578.72	60.85
578.88	28.09
579.04	67.88
579.21	16.38
579.37	14.04
579.53	91.28
579.69	65.54
579.85	25.75
580.01	16.38
580.17	46.81
580.33	51.49
580.49	67.88
580.65	44.47
580.82	86.60
580.98	37.45
581.14	60.85
581.30	21.06
581.46	49.15
581.62	44.47
581.78	77.24
581.94	53.83
582.10	58.51
582.26	35.11
582.42	86.60
582.58	16.38
582.74	32.77
582.90	39.79
583.06	53.83
583.22	32.77
583.38	0.00
583.54	58.51
583.70	0.00
583.86	0.00
584.02	0.00
584.18	77.24
584.34	37.45
584.50	56.17
584.66	301.93
584.82	821.53
584.98	1048.56
585.14	856.64
585.30	603.86
585.46	428.32
585.62	215.33
585.78	60.85
585.94	112.35
586.10	135.75
586.26	0.00
586.42	51.49
586.58	49.15
586.74	77.24
586.90	2.34
587.06	0.00
587.22	81.92
587.38	70.22
587.54	0.00
587.70	86.60
587.86	95.96
588.02	86.60
588.18	102.98
588.34	25.75
588.49	18.72
588.65	86.60
588.81	0.00
588.97	88.94
589.13	0.00
589.29	84.26
589.45	32.77
589.61	0.00
589.77	16.38
589.93	84.26
590.08	53.83
590.24	4.68
590.40	0.00
590.56	74.90
590.72	49.15
590.88	9.36
591.04	79.58
591.20	0.00
591.35	0.00
591.51	63.19
591.67	67.88
591.83	65.54
591.99	42.13
592.15	0.00
592.31	58.51
592.46	39.79
592.62	74.90
592.78	60.85
592.94	42.13
593.10	39.79
593.26	86.60
593.41	0.00
593.57	0.00
593.73	81.92
593.89	112.35
594.05	86.60
594.20	187.24
594.36	187.24
594.52	133.41
594.68	126.39
594.84	32.77
594.99	126.39
595.15	18.72
595.31	42.13
595.47	0.00
595.62	0.00
595.78	9.36
595.94	93.62
596.10	28.09
596.25	21.06
596.41	77.24
596.57	56.17
596.73	9.36
596.88	46.81
597.04	11.70
597.20	51.49
597.36	95.96
597.51	37.45
597.67	42.13
597.83	49.15
597.99	23.41
598.14	14.04
598.30	114.69
598.46	0.00
598.61	107.66
598.77	16.38
598.93	21.06
599.09	65.54
599.24	0.00
599.40	0.00
599.56	77.24
599.71	0.00
599.87	21.06
600.03	18.72
600.18	35.11
600.34	77.24
600.50	23.41
600.65	58.51
600.81	9.36
600.97	21.06
601.12	51.49
601.28	74.90
601.44	21.06
601.59	49.15
601.75	58.51
601.91	49.15
602.06	0.00
602.22	9.36
602.37	67.88
602.53	79.58
602.69	98.30
602.84	138.09
603.00	72.56
603.16	21.06
603.31	51.49
603.47	0.00
603.62	53.83
603.78	18.72
603.94	32.77
604.09	95.96
604.25	53.83
604.40	0.00
604.56	32.77
604.71	67.88
604.87	44.47
605.03	0.00
605.18	23.41
605.34	39.79
605.49	39.79
605.65	18.72
605.80	107.66
605.96	65.54
606.12	28.09
606.27	77.24
606.43	4.68
606.58	58.51
606.74	102.98
606.89	37.45
607.05	112.35
607.20	112.35
607.36	121.71
607.51	60.85
607.67	77.24
607.82	51.49
607.98	86.60
608.13	7.02
608.29	0.00
608.44	0.00
608.60	91.28
608.75	79.58
608.91	91.28
609.06	91.28
609.22	201.29
609.37	294.91
609.53	245.76
609.68	119.37
609.84	105.32
609.99	117.03
610.15	0.00
610.30	93.62
610.46	70.22
610.61	44.47
610.76	91.28
610.92	74.90
611.07	32.77
611.23	30.43
611.38	0.00
611.54	28.09
611.69	51.49
611.84	28.09
612.00	81.92
612.15	65.54
612.31	0.00
612.46	74.90
612.62	53.83
612.77	37.45
612.92	0.00
613.08	0.00
613.23	56.17
613.39	72.56
613.54	77.24
613.69	30.43
613.85	236.39
614.00	280.86
614.15	327.68
614.31	168.52
614.46	121.71
614.62	152.13
614.77	112.35
614.92	51.49
615.08	21.06
615.23	16.38
615.38	30.43
615.54	7.02
615.69	35.11
615.84	63.19
616.00	100.64
616.15	126.39
616.30	56.17
616.46	95.96
616.61	42.13
616.76	56.17
616.92	86.60
617.07	23.41
617.22	32.77
617.37	0.00
617.53	79.58
617.68	11.70
617.83	58.51
617.99	60.85
618.14	14.04
618.29	7.02
618.45	112.35
618.60	18.72
618.75	154.48
618.90	2.34
619.06	46.81
619.21	37.45
619.36	28.09
619.51	37.45
619.67	42.13
619.82	51.49
619.97	30.43
620.12	9.36
620.28	44.47
620.43	65.54
620.58	0.00
620.73	21.06
620.89	9.36
621.04	86.60
621.19	39.79
621.34	84.26
621.49	128.73
621.65	86.60
621.80	2.34
621.95	0.00
622.10	28.09
622.25	77.24
622.41	77.24
622.56	25.75
622.71	58.51
622.86	46.81
623.01	9.36
623.16	0.00
623.32	11.70
623.47	0.00
623.62	14.04
623.77	30.43
623.92	72.56
624.07	58.51
624.23	0.00
624.38	32.77
624.53	28.09
624.68	79.58
624.83	49.15
624.98	51.49
625.13	58.51
625.29	0.00
625.44	0.00
625.59	63.19
625.74	18.72
625.89	23.41
626.04	81.92
626.19	93.62
626.34	243.42
626.49	217.67
626.65	149.79
626.80	154.48
626.95	32.77
627.10	11.70
627.25	79.58
627.40	67.88
627.55	77.24
627.70	16.38
627.85	0.00
628.00	72.56
628.15	0.00
628.30	67.88
628.45	30.43
628.60	2.34
628.76	30.43
628.91	0.00
629.06	11.70
629.21	42.13
629.36	14.04
629.51	53.83
629.66	0.00
629.81	32.77
629.96	25.75
630.11	14.04
630.26	98.30
630.41	18.72
630.56	9.36
630.71	21.06
630.86	88.94
631.01	58.51
631.16	32.77
631.31	35.11
631.46	67.88
631.61	67.88
631.76	91.28
631.91	39.79
632.06	0.00
632.21	35.11
632.36	102.98
632.51	0.00
632.66	77.24
632.81	49.15
632.96	126.39
633.10	161.50
633.25	147.45
633.40	86.60
633.55	163.84
633.70	135.75
633.85	133.41
634.00	93.62
634.15	0.00
634.30	25.75
634.45	0.00
634.60	35.11
634.75	91.28
634.90	16.38
635.05	0.00
635.19	84.26
635.34	0.00
635.49	72.56
635.64	70.22
635.79	0.00
635.94	53.83
636.09	9.36
636.24	18.72
636.39	70.22
636.53	63.19
636.68	14.04
636.83	21.06
636.98	81.92
637.13	46.81
637.28	0.00
637.43	81.92
637.57	7.02
637.72	0.00
637.87	147.45
638.02	124.05
638.17	236.39
638.32	161.50
638.46	124.05
638.61	191.92
638.76	93.62
638.91	65.54
639.06	0.00
639.20	53.83
639.35	67.88
639.50	58.51
639.65	72.56
639.80	217.67
639.94	369.80
640.09	400.23
640.24	287.89
640.39	191.92
640.54	166.18
640.68	70.22
640.83	84.26
640.98	30.43
641.13	0.00
641.27	44.47
641.42	0.00
641.57	0.00
641.72	0.00
641.86	23.41
642.01	60.85
642.16	21.06
642.31	49.15
642.45	21.06
642.60	21.06
642.75	28.09
642.90	37.45
643.04	23.41
643.19	21.06
643.34	25.75
643.48	14.04
643.63	14.04
643.78	37.45
643.93	7.02
644.07	63.19
644.22	0.00
644.37	100.64
644.51	51.49
644.66	49.15
644.81	18.72
644.95	63.19
645.10	0.00
645.25	30.43
645.39	81.92
645.54	21.06
645.69	11.70
645.83	86.60
645.98	14.04
646.13	0.00
646.27	0.00
646.42	86.60
646.57	53.83
646.71	14.04
646.86	0.00
647.00	105.32
647.15	11.70
647.30	14.04
647.44	25.75
647.59	32.77
647.74	21.06
647.88	32.77
648.03	39.79
648.17	39.79
648.32	67.88
648.47	0.00
648.61	49.15
648.76	93.62
648.90	0.00
649.05	0.00
649.20	46.81
649.34	0.00
649.49	30.43
649.63	16.38
649.78	98.30
649.92	32.77
650.07	51.49
650.21	147.45
650.36	182.56
650.51	173.20
650.65	131.07
650.80	72.56
650.94	70.22
651.09	81.92
651.23	86.60
651.38	23.41
651.52	72.56
651.67	58.51
651.81	0.00
651.96	7.02
652.10	79.58
652.25	0.00
652.39	44.47
652.54	9.36
652.68	91.28
652.83	102.98
652.97	53.83
653.12	65.54
653.26	49.15
653.41	107.66
653.55	74.90
653.70	18.72
653.84	49.15
653.99	95.96
654.13	25.75
654.27	42.13
654.42	0.00
654.56	2.34
654.71	0.00
654.85	72.56
655.00	44.47
655.14	93.62
655.29	32.77
655.43	51.49
655.57	72.56
655.72	70.22
655.86	23.41
656.01	21.06
656.15	0.00
656.30	74.90
656.44	79.58
656.58	51.49
656.73	32.77
656.87	79.58
657.01	39.79
657.16	42.13
657.30	0.00
657.45	0.00
657.59	49.15
657.73	0.00
657.88	23.41
658.02	30.43
658.16	18.72
658.31	51.49
658.45	11.70
658.60	0.00
658.74	51.49
658.88	102.98
659.03	42.13
659.17	30.43
659.31	0.00
659.46	86.60
659.60	25.75
659.74	81.92
659.89	177.88
660.03	126.39
660.17	163.84
660.32	44.47
660.46	58.51
660.60	65.54
660.74	84.26
660.89	0.00
661.03	0.00
661.17	0.00
661.32	53.83
661.46	9.36
661.60	25.75
661.74	32.77
661.89	30.43
662.03	0.00
662.17	28.09
662.31	39.79
662.46	25.75
662.60	0.00
662.74	25.75
662.88	42.13
663.03	0.00
663.17	91.28
663.31	46.81
663.45	46.81
663.60	49.15
663.74	67.88
663.88	0.00
664.02	2.34
664.17	0.00
664.31	42.13
664.45	81.92
664.59	32.77
664.73	7.02
664.88	23.41
665.02	53.83
665.16	70.22
665.30	7.02
665.44	0.00
665.59	79.58
665.73	77.24
665.87	0.00
666.01	0.00
666.15	16.38
666.29	0.00
666.44	2.34
666.58	0.00
666.72	25.75
666.86	74.90
667.00	70.22
667.14	0.00
667.28	0.00
667.43	133.41
667.57	91.28
667.71	147.45
667.85	119.37
667.99	133.41
668.13	65.54
668.27	49.15
668.41	93.62
668.56	65.54
668.70	46.81
668.84	37.45
668.98	98.30
669.12	0.00
669.26	14.04
669.40	42.13
669.54	88.94
669.68	9.36
669.82	86.60
669.96	70.22
670.10	16.38
670.25	23.41
670.39	28.09
670.53	63.19
670.67	0.00
670.81	49.15
670.95	2.34
671.09	23.41
671.23	42.13
671.37	119.37
671.51	117.03
671.65	131.07
671.79	72.56
671.93	93.62
672.07	7.02
672.21	88.94
672.35	49.15
672.49	28.09
672.63	53.83
672.77	0.00
672.91	11.70
673.05	23.41
673.19	18.72
673.33	0.00
673.47	112.35
673.61	28.09
673.75	11.70
673.89	58.51
674.03	53.83
674.17	114.69
674.31	77.24
674.45	53.83
674.59	51.49
674.73	18.72
674.87	35.11
675.01	0.00
675.15	0.00
675.29	2.34
675.43	11.70
675.56	0.00
675.70	44.47
675.84	107.66
675.98	60.85
676.12	28.09
676.26	56.17
676.40	77.24
676.54	0.00
676.68	32.77
676.82	51.49
676.96	9.36
677.10	0.00
677.23	0.00
677.37	91.28
677.51	4.68
677.65	0.00
677.79	0.00
677.93	0.00
678.07	28.09
678.21	0.00
678.34	79.58
678.48	77.24
678.62	28.09
678.76	46.81
678.90	28.09
679.04	58.51
679.18	72.56
679.31	79.58
679.45	32.77
679.59	37.45
679.73	7.02
679.87	114.69
680.00	14.04
680.14	63.19
680.28	107.66
680.42	7.02
680.56	28.09
680.70	9.36
680.83	18.72
680.97	37.45
681.11	11.70
681.25	58.51
681.39	14.04
681.52	28.09
681.66	49.15
681.80	51.49
681.94	0.00
682.07	110.01
682.21	86.60
682.35	72.56
682.49	2.34
682.62	25.75
682.76	30.43
682.90	28.09
683.04	9.36
683.17	28.09
683.31	16.38
683.45	32.77
683.59	2.34
683.72	18.72
683.86	37.45
684.00	0.00
684.13	0.00
684.27	0.00
684.41	67.88
684.55	39.79
684.68	0.00
684.82	0.00
684.96	4.68
685.09	0.00
685.23	23.41
685.37	46.81
685.50	0.00
685.64	74.90
685.78	107.66
685.91	51.49
686.05	67.88
686.19	14.04
686.32	4.68
686.46	0.00
686.60	81.92
686.73	46.81
686.87	0.00
687.01	35.11
687.14	39.79
687.28	0.00
687.42	21.06
687.55	46.81
687.69	86.60
687.82	0.00
687.96	14.04
688.10	72.56
688.23	2.34
688.37	42.13
688.50	7.02
688.64	28.09
688.78	21.06
688.91	0.00
689.05	53.83
689.18	39.79
689.32	39.79
689.46	51.49
689.59	0.00
689.73	25.75
689.86	0.00
690.00	39.79
690.13	18.72
690.27	65.54
690.41	0.00
690.54	49.15
690.68	0.00
690.81	58.51
690.95	58.51
691.08	39.79
691.22	0.00
691.35	49.15
691.49	0.00
691.62	77.24
691.76	53.83
691.89	30.43
692.03	53.83
692.16	9.36
692.30	65.54
692.43	0.00
692.57	112.35
692.70	14.04
692.84	72.56
692.97	0.00
693.11	79.58
693.24	14.04
693.38	39.79
693.51	67.88
693.65	42.13
693.78	42.13
693.92	14.04
694.05	0.00
694.19	46.81
694.32	37.45
694.45	70.22
694.59	32.77
694.72	65.54
694.86	124.05
694.99	39.79
695.13	23.41
695.26	14.04
695.39	0.00
695.53	32.77
695.66	39.79
695.80	7.02
695.93	42.13
696.07	60.85
696.20	28.09
696.33	72.56
696.47	74.90
696.60	63.19
696.73	0.00
696.87	37.45
697.00	0.00
697.14	0.00
697.27	0.00
697.40	25.75
697.54	39.79
697.67	28.09
697.80	0.00
697.94	23.41
698.07	84.26
698.21	46.81
698.34	0.00
698.47	9.36
698.61	23.41
698.74	39.79
698.87	0.00
699.01	81.92
699.14	14.04
699.27	53.83
699.40	25.75
699.54	60.85
699.67	74.90
699.80	72.56
699.94	30.43
700.07	53.83
700.20	0.00
700.34	28.09
700.47	0.00
700.60	86.60
700.73	0.00
700.87	60.85
701.00	0.00
701.13	0.00
701.26	0.00
701.40	60.85
701.53	30.43
701.66	70.22
701.79	46.81
701.93	23.41
702.06	51.49
702.19	93.62
702.32	0.00
702.46	37.45
702.59	30.43
702.72	70.22
702.85	65.54
702.99	105.32
703.12	142.77
703.25	117.03
703.38	121.71
703.51	142.77
703.65	16.38
703.78	56.17
703.91	44.47
704.04	44.47
704.17	42.13
704.31	23.41
704.44	35.11
704.57	18.72
704.70	4.68
704.83	0.00
704.96	18.72
705.10	30.43
705.23	0.00
>>>>>End Processed Spectral Data<<<<<
