SpectraSuite Data File
++++++++++++++++++++++++++++++++++++
Date: Fri Oct 04 12:13:27 GMT-05:00 2013
User: price-jones
Dark Spectrum Present: No
Reference Spectrum Present: No
Number of Sampled Component Spectra: 1
Spectrometers: USB2+H05261
Integration Time (usec): 10000 (USB2+H05261)
Spectra Averaged: 1 (USB2+H05261)
Boxcar Smoothing: 0 (USB2+H05261)
Correct for Electrical Dark: No (USB2+H05261)
Strobe/Lamp Enabled: No (USB2+H05261)
Correct for Detector Non-linearity: No (USB2+H05261)
Correct for Stray Light: No (USB2+H05261)
Number of Pixels in Processed Spectrum: 2048
>>>>>Begin Processed Spectral Data<<<<<
365.73	0.00
365.92	0.00
366.12	0.00
366.32	0.00
366.52	0.00
366.72	0.00
366.91	0.00
367.11	0.00
367.31	0.00
367.51	0.00
367.70	0.00
367.90	0.00
368.10	0.00
368.30	0.00
368.49	0.00
368.69	0.00
368.89	0.00
369.09	0.00
369.28	0.00
369.48	0.00
369.68	0.00
369.87	0.00
370.07	0.00
370.27	0.00
370.47	0.00
370.66	0.00
370.86	0.00
371.06	0.00
371.25	0.00
371.45	0.00
371.65	0.00
371.84	18.72
372.04	0.00
372.24	0.00
372.44	65.54
372.63	14.04
372.83	39.79
373.03	0.00
373.22	0.00
373.42	0.00
373.62	4.68
373.81	0.00
374.01	65.54
374.21	39.79
374.40	51.49
374.60	0.00
374.79	30.43
374.99	42.13
375.19	0.00
375.38	0.00
375.58	23.41
375.78	39.79
375.97	23.41
376.17	7.02
376.37	77.24
376.56	30.43
376.76	0.00
376.95	0.00
377.15	39.79
377.35	11.70
377.54	74.90
377.74	93.62
377.93	53.83
378.13	0.00
378.33	7.02
378.52	0.00
378.72	86.60
378.91	63.19
379.11	7.02
379.31	79.58
379.50	18.72
379.70	0.00
379.89	0.00
380.09	0.00
380.28	28.09
380.48	4.68
380.68	0.00
380.87	44.47
381.07	23.41
381.26	18.72
381.46	0.00
381.65	67.88
381.85	0.00
382.04	0.00
382.24	46.81
382.43	30.43
382.63	0.00
382.83	0.00
383.02	0.00
383.22	0.00
383.41	23.41
383.61	0.00
383.80	0.00
384.00	58.51
384.19	121.71
384.39	44.47
384.58	11.70
384.78	63.19
384.97	25.75
385.17	0.00
385.36	28.09
385.56	0.00
385.75	2.34
385.95	58.51
386.14	14.04
386.34	51.49
386.53	0.00
386.72	39.79
386.92	0.00
387.11	53.83
387.31	9.36
387.50	39.79
387.70	28.09
387.89	0.00
388.09	63.19
388.28	39.79
388.48	23.41
388.67	0.00
388.86	42.13
389.06	32.77
389.25	39.79
389.45	0.00
389.64	18.72
389.84	16.38
390.03	81.92
390.22	35.11
390.42	25.75
390.61	0.00
390.81	14.04
391.00	49.15
391.19	0.00
391.39	65.54
391.58	65.54
391.78	30.43
391.97	11.70
392.16	77.24
392.36	42.13
392.55	4.68
392.75	35.11
392.94	39.79
393.13	9.36
393.33	0.00
393.52	49.15
393.71	0.00
393.91	70.22
394.10	0.00
394.29	84.26
394.49	0.00
394.68	0.00
394.88	16.38
395.07	93.62
395.26	2.34
395.46	21.06
395.65	30.43
395.84	30.43
396.04	2.34
396.23	58.51
396.42	0.00
396.62	77.24
396.81	0.00
397.00	30.43
397.19	2.34
397.39	65.54
397.58	25.75
397.77	23.41
397.97	0.00
398.16	0.00
398.35	0.00
398.55	0.00
398.74	16.38
398.93	84.26
399.12	0.00
399.32	0.00
399.51	18.72
399.70	37.45
399.90	37.45
400.09	0.00
400.28	39.79
400.47	53.83
400.67	0.00
400.86	23.41
401.05	23.41
401.24	74.90
401.44	0.00
401.63	4.68
401.82	86.60
402.01	0.00
402.21	37.45
402.40	7.02
402.59	14.04
402.78	42.13
402.97	14.04
403.17	30.43
403.36	2.34
403.55	30.43
403.74	28.09
403.93	18.72
404.13	21.06
404.32	7.02
404.51	107.66
404.70	0.00
404.89	16.38
405.09	0.00
405.28	142.77
405.47	7.02
405.66	14.04
405.85	14.04
406.05	9.36
406.24	18.72
406.43	53.83
406.62	49.15
406.81	102.98
407.00	39.79
407.20	4.68
407.39	51.49
407.58	0.00
407.77	100.64
407.96	14.04
408.15	65.54
408.34	0.00
408.54	119.37
408.73	74.90
408.92	16.38
409.11	32.77
409.30	16.38
409.49	0.00
409.68	91.28
409.87	9.36
410.07	30.43
410.26	0.00
410.45	14.04
410.64	65.54
410.83	0.00
411.02	9.36
411.21	9.36
411.40	88.94
411.59	2.34
411.78	44.47
411.98	35.11
412.17	30.43
412.36	4.68
412.55	0.00
412.74	51.49
412.93	37.45
413.12	28.09
413.31	110.01
413.50	25.75
413.69	32.77
413.88	119.37
414.07	35.11
414.26	32.77
414.45	4.68
414.64	0.00
414.83	72.56
415.02	16.38
415.22	70.22
415.41	39.79
415.60	44.47
415.79	65.54
415.98	86.60
416.17	88.94
416.36	74.90
416.55	4.68
416.74	0.00
416.93	65.54
417.12	23.41
417.31	16.38
417.50	39.79
417.69	63.19
417.88	16.38
418.07	42.13
418.26	79.58
418.45	53.83
418.64	25.75
418.83	0.00
419.02	74.90
419.21	42.13
419.39	9.36
419.58	44.47
419.77	32.77
419.96	44.47
420.15	21.06
420.34	81.92
420.53	39.79
420.72	37.45
420.91	11.70
421.10	63.19
421.29	28.09
421.48	0.00
421.67	28.09
421.86	42.13
422.05	42.13
422.24	0.00
422.43	77.24
422.61	32.77
422.80	46.81
422.99	42.13
423.18	14.04
423.37	65.54
423.56	30.43
423.75	81.92
423.94	35.11
424.13	39.79
424.32	23.41
424.50	9.36
424.69	21.06
424.88	28.09
425.07	18.72
425.26	28.09
425.45	32.77
425.64	56.17
425.83	39.79
426.01	72.56
426.20	14.04
426.39	28.09
426.58	14.04
426.77	4.68
426.96	63.19
427.15	67.88
427.33	58.51
427.52	0.00
427.71	21.06
427.90	25.75
428.09	53.83
428.28	58.51
428.46	98.30
428.65	21.06
428.84	18.72
429.03	37.45
429.22	86.60
429.40	18.72
429.59	16.38
429.78	9.36
429.97	51.49
430.16	42.13
430.34	32.77
430.53	49.15
430.72	11.70
430.91	18.72
431.10	16.38
431.28	42.13
431.47	32.77
431.66	79.58
431.85	21.06
432.03	56.17
432.22	56.17
432.41	0.00
432.60	14.04
432.79	0.00
432.97	72.56
433.16	23.41
433.35	79.58
433.54	30.43
433.72	7.02
433.91	44.47
434.10	102.98
434.28	42.13
434.47	44.47
434.66	60.85
434.85	70.22
435.03	0.00
435.22	51.49
435.41	0.00
435.59	51.49
435.78	88.94
435.97	93.62
436.16	11.70
436.34	30.43
436.53	0.00
436.72	11.70
436.90	46.81
437.09	30.43
437.28	39.79
437.46	0.00
437.65	16.38
437.84	37.45
438.02	44.47
438.21	16.38
438.40	32.77
438.58	4.68
438.77	23.41
438.96	14.04
439.14	11.70
439.33	46.81
439.52	58.51
439.70	39.79
439.89	35.11
440.08	70.22
440.26	32.77
440.45	0.00
440.63	30.43
440.82	77.24
441.01	0.00
441.19	53.83
441.38	0.00
441.57	0.00
441.75	60.85
441.94	42.13
442.12	56.17
442.31	70.22
442.50	0.00
442.68	58.51
442.87	56.17
443.05	28.09
443.24	49.15
443.43	67.88
443.61	32.77
443.80	25.75
443.98	60.85
444.17	0.00
444.35	51.49
444.54	0.00
444.73	65.54
444.91	32.77
445.10	0.00
445.28	105.32
445.47	4.68
445.65	49.15
445.84	23.41
446.02	35.11
446.21	65.54
446.39	58.51
446.58	51.49
446.77	39.79
446.95	0.00
447.14	128.73
447.32	11.70
447.51	0.00
447.69	53.83
447.88	74.90
448.06	0.00
448.25	77.24
448.43	58.51
448.62	0.00
448.80	74.90
448.99	0.00
449.17	81.92
449.36	7.02
449.54	0.00
449.73	63.19
449.91	42.13
450.10	0.00
450.28	2.34
450.46	0.00
450.65	67.88
450.83	39.79
451.02	16.38
451.20	25.75
451.39	98.30
451.57	88.94
451.76	0.00
451.94	0.00
452.13	49.15
452.31	32.77
452.49	53.83
452.68	37.45
452.86	11.70
453.05	0.00
453.23	42.13
453.42	9.36
453.60	46.81
453.78	58.51
453.97	28.09
454.15	51.49
454.34	18.72
454.52	51.49
454.70	79.58
454.89	0.00
455.07	46.81
455.26	0.00
455.44	11.70
455.62	42.13
455.81	74.90
455.99	21.06
456.17	42.13
456.36	58.51
456.54	0.00
456.73	46.81
456.91	14.04
457.09	0.00
457.28	0.00
457.46	37.45
457.64	7.02
457.83	84.26
458.01	0.00
458.19	72.56
458.38	28.09
458.56	46.81
458.74	58.51
458.93	0.00
459.11	39.79
459.29	32.77
459.48	11.70
459.66	70.22
459.84	37.45
460.03	93.62
460.21	67.88
460.39	30.43
460.57	16.38
460.76	0.00
460.94	58.51
461.12	32.77
461.31	63.19
461.49	28.09
461.67	51.49
461.85	16.38
462.04	65.54
462.22	107.66
462.40	0.00
462.59	23.41
462.77	51.49
462.95	0.00
463.13	11.70
463.32	18.72
463.50	16.38
463.68	84.26
463.86	65.54
464.05	65.54
464.23	4.68
464.41	60.85
464.59	100.64
464.78	53.83
464.96	0.00
465.14	4.68
465.32	0.00
465.50	0.00
465.69	100.64
465.87	9.36
466.05	0.00
466.23	72.56
466.41	7.02
466.60	56.17
466.78	0.00
466.96	4.68
467.14	0.00
467.32	37.45
467.51	23.41
467.69	0.00
467.87	44.47
468.05	23.41
468.23	60.85
468.41	112.35
468.60	28.09
468.78	0.00
468.96	32.77
469.14	0.00
469.32	21.06
469.50	2.34
469.69	44.47
469.87	9.36
470.05	35.11
470.23	53.83
470.41	0.00
470.59	93.62
470.77	107.66
470.95	35.11
471.14	88.94
471.32	53.83
471.50	14.04
471.68	0.00
471.86	14.04
472.04	49.15
472.22	0.00
472.40	72.56
472.58	0.00
472.77	72.56
472.95	44.47
473.13	32.77
473.31	53.83
473.49	7.02
473.67	28.09
473.85	0.00
474.03	37.45
474.21	2.34
474.39	0.00
474.57	0.00
474.75	21.06
474.93	30.43
475.12	119.37
475.30	11.70
475.48	53.83
475.66	58.51
475.84	30.43
476.02	0.00
476.20	9.36
476.38	63.19
476.56	39.79
476.74	60.85
476.92	70.22
477.10	35.11
477.28	51.49
477.46	37.45
477.64	74.90
477.82	25.75
478.00	9.36
478.18	0.00
478.36	53.83
478.54	14.04
478.72	0.00
478.90	9.36
479.08	0.00
479.26	7.02
479.44	65.54
479.62	60.85
479.80	67.88
479.98	0.00
480.16	91.28
480.34	0.00
480.52	25.75
480.70	21.06
480.88	46.81
481.06	58.51
481.24	77.24
481.41	4.68
481.59	63.19
481.77	74.90
481.95	30.43
482.13	0.00
482.31	72.56
482.49	77.24
482.67	49.15
482.85	56.17
483.03	84.26
483.21	93.62
483.39	0.00
483.57	58.51
483.74	0.00
483.92	16.38
484.10	0.00
484.28	70.22
484.46	35.11
484.64	88.94
484.82	56.17
485.00	0.00
485.18	35.11
485.35	30.43
485.53	42.13
485.71	42.13
485.89	35.11
486.07	53.83
486.25	42.13
486.43	88.94
486.61	42.13
486.78	93.62
486.96	35.11
487.14	14.04
487.32	14.04
487.50	28.09
487.68	0.00
487.85	14.04
488.03	112.35
488.21	56.17
488.39	14.04
488.57	72.56
488.75	42.13
488.92	72.56
489.10	51.49
489.28	72.56
489.46	25.75
489.64	95.96
489.81	32.77
489.99	21.06
490.17	81.92
490.35	51.49
490.53	25.75
490.70	23.41
490.88	102.98
491.06	28.09
491.24	65.54
491.41	7.02
491.59	0.00
491.77	49.15
491.95	102.98
492.13	46.81
492.30	18.72
492.48	37.45
492.66	74.90
492.84	56.17
493.01	42.13
493.19	30.43
493.37	25.75
493.54	35.11
493.72	60.85
493.90	0.00
494.08	46.81
494.25	37.45
494.43	39.79
494.61	39.79
494.79	53.83
494.96	88.94
495.14	63.19
495.32	107.66
495.49	14.04
495.67	18.72
495.85	49.15
496.02	0.00
496.20	42.13
496.38	37.45
496.55	0.00
496.73	0.00
496.91	65.54
497.09	44.47
497.26	28.09
497.44	30.43
497.62	25.75
497.79	63.19
497.97	4.68
498.14	60.85
498.32	138.09
498.50	56.17
498.67	35.11
498.85	0.00
499.03	35.11
499.20	39.79
499.38	9.36
499.56	30.43
499.73	39.79
499.91	0.00
500.08	0.00
500.26	74.90
500.44	0.00
500.61	72.56
500.79	2.34
500.97	7.02
501.14	56.17
501.32	63.19
501.49	56.17
501.67	77.24
501.84	0.00
502.02	28.09
502.20	25.75
502.37	72.56
502.55	23.41
502.72	131.07
502.90	46.81
503.07	135.75
503.25	42.13
503.43	0.00
503.60	42.13
503.78	74.90
503.95	117.03
504.13	88.94
504.30	18.72
504.48	4.68
504.65	102.98
504.83	9.36
505.01	39.79
505.18	65.54
505.36	65.54
505.53	70.22
505.71	72.56
505.88	117.03
506.06	0.00
506.23	0.00
506.41	0.00
506.58	18.72
506.76	53.83
506.93	11.70
507.11	0.00
507.28	84.26
507.46	67.88
507.63	14.04
507.81	46.81
507.98	102.98
508.16	2.34
508.33	0.00
508.50	42.13
508.68	131.07
508.85	2.34
509.03	11.70
509.20	128.73
509.38	32.77
509.55	21.06
509.73	0.00
509.90	39.79
510.08	32.77
510.25	35.11
510.42	44.47
510.60	0.00
510.77	77.24
510.95	30.43
511.12	2.34
511.30	46.81
511.47	30.43
511.64	74.90
511.82	30.43
511.99	0.00
512.17	37.45
512.34	39.79
512.51	35.11
512.69	9.36
512.86	42.13
513.04	35.11
513.21	65.54
513.38	51.49
513.56	0.00
513.73	25.75
513.90	0.00
514.08	70.22
514.25	0.00
514.43	4.68
514.60	46.81
514.77	0.00
514.95	39.79
515.12	32.77
515.29	46.81
515.47	60.85
515.64	102.98
515.81	74.90
515.99	58.51
516.16	79.58
516.33	0.00
516.51	32.77
516.68	72.56
516.85	74.90
517.03	65.54
517.20	95.96
517.37	7.02
517.54	133.41
517.72	0.00
517.89	39.79
518.06	49.15
518.24	79.58
518.41	56.17
518.58	28.09
518.75	37.45
518.93	28.09
519.10	0.00
519.27	16.38
519.45	9.36
519.62	0.00
519.79	70.22
519.96	49.15
520.14	0.00
520.31	88.94
520.48	44.47
520.65	14.04
520.83	56.17
521.00	0.00
521.17	77.24
521.34	70.22
521.52	42.13
521.69	23.41
521.86	51.49
522.03	110.01
522.20	88.94
522.38	63.19
522.55	46.81
522.72	91.28
522.89	0.00
523.07	37.45
523.24	107.66
523.41	86.60
523.58	63.19
523.75	42.13
523.92	74.90
524.10	72.56
524.27	18.72
524.44	21.06
524.61	51.49
524.78	0.00
524.96	39.79
525.13	37.45
525.30	2.34
525.47	42.13
525.64	0.00
525.81	77.24
525.98	39.79
526.16	58.51
526.33	21.06
526.50	44.47
526.67	46.81
526.84	49.15
527.01	14.04
527.18	16.38
527.36	0.00
527.53	44.47
527.70	65.54
527.87	0.00
528.04	37.45
528.21	126.39
528.38	51.49
528.55	53.83
528.72	105.32
528.89	53.83
529.07	16.38
529.24	0.00
529.41	86.60
529.58	100.64
529.75	21.06
529.92	23.41
530.09	51.49
530.26	32.77
530.43	51.49
530.60	67.88
530.77	88.94
530.94	42.13
531.11	25.75
531.28	0.00
531.46	39.79
531.63	46.81
531.80	58.51
531.97	23.41
532.14	63.19
532.31	37.45
532.48	81.92
532.65	0.00
532.82	74.90
532.99	51.49
533.16	9.36
533.33	11.70
533.50	72.56
533.67	4.68
533.84	56.17
534.01	14.04
534.18	60.85
534.35	102.98
534.52	35.11
534.69	35.11
534.86	35.11
535.03	30.43
535.20	208.31
535.37	30.43
535.54	95.96
535.71	2.34
535.88	0.00
536.05	67.88
536.22	98.30
536.38	25.75
536.55	11.70
536.72	58.51
536.89	21.06
537.06	74.90
537.23	42.13
537.40	23.41
537.57	74.90
537.74	37.45
537.91	53.83
538.08	86.60
538.25	49.15
538.42	23.41
538.59	100.64
538.75	37.45
538.92	49.15
539.09	67.88
539.26	79.58
539.43	16.38
539.60	44.47
539.77	44.47
539.94	93.62
540.11	44.47
540.28	105.32
540.44	37.45
540.61	51.49
540.78	93.62
540.95	14.04
541.12	30.43
541.29	30.43
541.46	56.17
541.62	37.45
541.79	23.41
541.96	81.92
542.13	56.17
542.30	25.75
542.47	0.00
542.63	63.19
542.80	140.43
542.97	53.83
543.14	93.62
543.31	51.49
543.48	60.85
543.64	2.34
543.81	142.77
543.98	14.04
544.15	2.34
544.32	0.00
544.48	14.04
544.65	11.70
544.82	14.04
544.99	23.41
545.16	91.28
545.32	56.17
545.49	51.49
545.66	25.75
545.83	114.69
546.00	79.58
546.16	4.68
546.33	63.19
546.50	0.00
546.67	0.00
546.83	91.28
547.00	63.19
547.17	51.49
547.34	81.92
547.50	49.15
547.67	63.19
547.84	72.56
548.00	46.81
548.17	37.45
548.34	95.96
548.51	70.22
548.67	114.69
548.84	44.47
549.01	21.06
549.18	77.24
549.34	67.88
549.51	9.36
549.68	42.13
549.84	56.17
550.01	93.62
550.18	145.11
550.34	63.19
550.51	14.04
550.68	65.54
550.84	16.38
551.01	23.41
551.18	44.47
551.34	58.51
551.51	46.81
551.68	67.88
551.84	16.38
552.01	56.17
552.18	25.75
552.34	14.04
552.51	18.72
552.68	0.00
552.84	0.00
553.01	35.11
553.18	35.11
553.34	60.85
553.51	56.17
553.67	39.79
553.84	42.13
554.01	0.00
554.17	84.26
554.34	14.04
554.51	91.28
554.67	65.54
554.84	42.13
555.00	44.47
555.17	28.09
555.33	14.04
555.50	60.85
555.67	93.62
555.83	32.77
556.00	49.15
556.16	91.28
556.33	86.60
556.50	46.81
556.66	0.00
556.83	44.47
556.99	53.83
557.16	0.00
557.32	84.26
557.49	53.83
557.65	149.79
557.82	39.79
557.98	88.94
558.15	35.11
558.32	23.41
558.48	95.96
558.65	81.92
558.81	49.15
558.98	21.06
559.14	4.68
559.31	51.49
559.47	56.17
559.64	14.04
559.80	53.83
559.97	77.24
560.13	0.00
560.30	28.09
560.46	58.51
560.63	72.56
560.79	81.92
560.96	0.00
561.12	37.45
561.29	0.00
561.45	51.49
561.61	72.56
561.78	135.75
561.94	81.92
562.11	53.83
562.27	0.00
562.44	0.00
562.60	18.72
562.77	44.47
562.93	70.22
563.10	23.41
563.26	49.15
563.42	0.00
563.59	56.17
563.75	28.09
563.92	0.00
564.08	32.77
564.24	30.43
564.41	35.11
564.57	2.34
564.74	49.15
564.90	2.34
565.07	65.54
565.23	0.00
565.39	0.00
565.56	51.49
565.72	56.17
565.88	88.94
566.05	63.19
566.21	35.11
566.38	65.54
566.54	0.00
566.70	63.19
566.87	110.01
567.03	74.90
567.19	18.72
567.36	2.34
567.52	46.81
567.68	18.72
567.85	0.00
568.01	0.00
568.17	0.00
568.34	0.00
568.50	35.11
568.66	84.26
568.83	72.56
568.99	21.06
569.15	74.90
569.32	121.71
569.48	7.02
569.64	84.26
569.81	28.09
569.97	0.00
570.13	30.43
570.30	39.79
570.46	74.90
570.62	77.24
570.78	35.11
570.95	56.17
571.11	28.09
571.27	21.06
571.43	49.15
571.60	0.00
571.76	32.77
571.92	25.75
572.09	35.11
572.25	0.00
572.41	74.90
572.57	93.62
572.74	14.04
572.90	18.72
573.06	25.75
573.22	98.30
573.38	60.85
573.55	0.00
573.71	16.38
573.87	58.51
574.03	46.81
574.20	23.41
574.36	60.85
574.52	67.88
574.68	98.30
574.84	77.24
575.01	44.47
575.17	7.02
575.33	56.17
575.49	77.24
575.65	42.13
575.82	35.11
575.98	37.45
576.14	84.26
576.30	46.81
576.46	74.90
576.62	67.88
576.79	4.68
576.95	79.58
577.11	114.69
577.27	0.00
577.43	53.83
577.59	0.00
577.75	58.51
577.92	72.56
578.08	9.36
578.24	107.66
578.40	100.64
578.56	21.06
578.72	42.13
578.88	67.88
579.04	49.15
579.21	70.22
579.37	32.77
579.53	44.47
579.69	56.17
579.85	14.04
580.01	63.19
580.17	58.51
580.33	93.62
580.49	23.41
580.65	4.68
580.82	28.09
580.98	63.19
581.14	81.92
581.30	25.75
581.46	46.81
581.62	53.83
581.78	53.83
581.94	91.28
582.10	86.60
582.26	35.11
582.42	49.15
582.58	49.15
582.74	86.60
582.90	46.81
583.06	88.94
583.22	46.81
583.38	14.04
583.54	42.13
583.70	35.11
583.86	65.54
584.02	93.62
584.18	107.66
584.34	53.83
584.50	217.67
584.66	1020.47
584.82	2424.80
584.98	3070.78
585.14	2562.89
585.30	1575.18
585.46	999.41
585.62	692.80
585.78	320.65
585.94	119.37
586.10	91.28
586.26	60.85
586.42	84.26
586.58	25.75
586.74	100.64
586.90	63.19
587.06	114.69
587.22	53.83
587.38	28.09
587.54	79.58
587.70	166.18
587.86	227.03
588.02	280.86
588.18	245.76
588.34	119.37
588.49	70.22
588.65	86.60
588.81	114.69
588.97	0.00
589.13	91.28
589.29	32.77
589.45	58.51
589.61	93.62
589.77	142.77
589.93	14.04
590.08	14.04
590.24	77.24
590.40	0.00
590.56	72.56
590.72	9.36
590.88	88.94
591.04	79.58
591.20	63.19
591.35	44.47
591.51	0.00
591.67	4.68
591.83	28.09
591.99	63.19
592.15	44.47
592.31	32.77
592.46	91.28
592.62	46.81
592.78	39.79
592.94	65.54
593.10	51.49
593.26	67.88
593.41	16.38
593.57	44.47
593.73	70.22
593.89	184.90
594.05	379.17
594.20	458.74
594.36	379.17
594.52	285.55
594.68	224.69
594.84	163.84
594.99	84.26
595.15	107.66
595.31	79.58
595.47	74.90
595.62	77.24
595.78	28.09
595.94	16.38
596.10	86.60
596.25	0.00
596.41	11.70
596.57	2.34
596.73	0.00
596.88	46.81
597.04	67.88
597.20	121.71
597.36	28.09
597.51	135.75
597.67	117.03
597.83	88.94
597.99	60.85
598.14	0.00
598.30	58.51
598.46	84.26
598.61	91.28
598.77	95.96
598.93	32.77
599.09	16.38
599.24	39.79
599.40	0.00
599.56	67.88
599.71	44.47
599.87	0.00
600.03	11.70
600.18	0.00
600.34	0.00
600.50	14.04
600.65	65.54
600.81	35.11
600.97	0.00
601.12	0.00
601.28	42.13
601.44	16.38
601.59	7.02
601.75	77.24
601.91	0.00
602.06	7.02
602.22	28.09
602.37	37.45
602.53	138.09
602.69	159.16
602.84	198.95
603.00	102.98
603.16	0.00
603.31	35.11
603.47	81.92
603.62	51.49
603.78	0.00
603.94	93.62
604.09	84.26
604.25	67.88
604.40	0.00
604.56	18.72
604.71	16.38
604.87	18.72
605.03	0.00
605.18	65.54
605.34	58.51
605.49	46.81
605.65	65.54
605.80	88.94
605.96	7.02
606.12	58.51
606.27	0.00
606.43	37.45
606.58	39.79
606.74	79.58
606.89	128.73
607.05	341.72
607.20	339.38
607.36	341.72
607.51	290.23
607.67	217.67
607.82	119.37
607.98	37.45
608.13	23.41
608.29	63.19
608.44	60.85
608.60	93.62
608.75	114.69
608.91	63.19
609.06	234.05
609.22	514.92
609.37	578.11
609.53	507.90
609.68	344.06
609.84	220.01
609.99	140.43
610.15	142.77
610.30	30.43
610.46	28.09
610.61	114.69
610.76	0.00
610.92	14.04
611.07	0.00
611.23	16.38
611.38	79.58
611.54	58.51
611.69	0.00
611.84	0.00
612.00	25.75
612.15	56.17
612.31	25.75
612.46	46.81
612.62	70.22
612.77	42.13
612.92	74.90
613.08	88.94
613.23	14.04
613.39	32.77
613.54	49.15
613.69	222.35
613.85	692.80
614.00	922.17
614.15	880.04
614.31	662.37
614.46	400.23
614.62	294.91
614.77	238.73
614.92	161.50
615.08	67.88
615.23	0.00
615.38	32.77
615.54	53.83
615.69	51.49
615.84	210.65
616.00	315.97
616.15	234.05
616.30	201.29
616.46	184.90
616.61	112.35
616.76	105.32
616.92	67.88
617.07	88.94
617.22	2.34
617.37	53.83
617.53	77.24
617.68	4.68
617.83	81.92
617.99	56.17
618.14	39.79
618.29	107.66
618.45	37.45
618.60	88.94
618.75	23.41
618.90	32.77
619.06	37.45
619.21	72.56
619.36	67.88
619.51	28.09
619.67	72.56
619.82	93.62
619.97	23.41
620.12	0.00
620.28	0.00
620.43	49.15
620.58	58.51
620.73	124.05
620.89	72.56
621.04	30.43
621.19	119.37
621.34	152.13
621.49	180.22
621.65	220.01
621.80	149.79
621.95	91.28
622.10	100.64
622.25	81.92
622.41	67.88
622.56	0.00
622.71	0.00
622.86	110.01
623.01	39.79
623.16	56.17
623.32	53.83
623.47	42.13
623.62	70.22
623.77	42.13
623.92	58.51
624.07	14.04
624.23	0.00
624.38	0.00
624.53	39.79
624.68	0.00
624.83	30.43
624.98	70.22
625.13	63.19
625.29	51.49
625.44	0.00
625.59	60.85
625.74	16.38
625.89	107.66
626.04	133.41
626.19	355.76
626.34	477.47
626.49	484.49
626.65	414.27
626.80	280.86
626.95	145.11
627.10	72.56
627.25	37.45
627.40	58.51
627.55	0.00
627.70	4.68
627.85	14.04
628.00	7.02
628.15	42.13
628.30	63.19
628.45	7.02
628.60	16.38
628.76	44.47
628.91	0.00
629.06	30.43
629.21	32.77
629.36	30.43
629.51	32.77
629.66	16.38
629.81	74.90
629.96	117.03
630.11	133.41
630.26	154.48
630.41	93.62
630.56	67.88
630.71	95.96
630.86	124.05
631.01	67.88
631.16	25.75
631.31	46.81
631.46	30.43
631.61	81.92
631.76	49.15
631.91	77.24
632.06	53.83
632.21	30.43
632.36	44.47
632.51	98.30
632.66	0.00
632.81	7.02
632.96	259.80
633.10	248.10
633.25	308.95
633.40	379.17
633.55	229.37
633.70	168.52
633.85	46.81
634.00	44.47
634.15	63.19
634.30	0.00
634.45	42.13
634.60	42.13
634.75	0.00
634.90	21.06
635.05	81.92
635.19	16.38
635.34	14.04
635.49	0.00
635.64	7.02
635.79	67.88
635.94	86.60
636.09	49.15
636.24	58.51
636.39	14.04
636.53	0.00
636.68	23.41
636.83	72.56
636.98	4.68
637.13	46.81
637.28	53.83
637.43	77.24
637.57	112.35
637.72	156.82
637.87	409.59
638.02	662.37
638.17	657.69
638.32	484.49
638.46	287.89
638.61	236.39
638.76	156.82
638.91	140.43
639.06	58.51
639.20	9.36
639.35	44.47
639.50	77.24
639.65	257.46
639.80	631.94
639.94	901.11
640.09	1046.22
640.24	688.12
640.39	447.04
640.54	339.38
640.68	182.56
640.83	102.98
640.98	88.94
641.13	46.81
641.27	28.09
641.42	39.79
641.57	98.30
641.72	128.73
641.86	0.00
642.01	79.58
642.16	58.51
642.31	0.00
642.45	105.32
642.60	51.49
642.75	98.30
642.90	63.19
643.04	0.00
643.19	18.72
643.34	28.09
643.48	37.45
643.63	7.02
643.78	100.64
643.93	133.41
644.07	23.41
644.22	86.60
644.37	0.00
644.51	14.04
644.66	88.94
644.81	67.88
644.95	37.45
645.10	88.94
645.25	72.56
645.39	53.83
645.54	70.22
645.69	46.81
645.83	56.17
645.98	58.51
646.13	49.15
646.27	114.69
646.42	21.06
646.57	28.09
646.71	4.68
646.86	0.00
647.00	44.47
647.15	77.24
647.30	2.34
647.44	60.85
647.59	25.75
647.74	42.13
647.88	93.62
648.03	0.00
648.17	37.45
648.32	98.30
648.47	53.83
648.61	0.00
648.76	70.22
648.90	77.24
649.05	2.34
649.20	53.83
649.34	0.00
649.49	0.00
649.63	23.41
649.78	30.43
649.92	60.85
650.07	161.50
650.21	250.44
650.36	482.15
650.51	486.83
650.65	372.15
650.80	308.95
650.94	194.26
651.09	215.33
651.23	112.35
651.38	46.81
651.52	4.68
651.67	49.15
651.81	60.85
651.96	23.41
652.10	51.49
652.25	35.11
652.39	72.56
652.54	84.26
652.68	107.66
652.83	152.13
652.97	168.52
653.12	234.05
653.26	107.66
653.41	138.09
653.55	93.62
653.70	93.62
653.84	16.38
653.99	98.30
654.13	0.00
654.27	46.81
654.42	9.36
654.56	35.11
654.71	11.70
654.85	72.56
655.00	9.36
655.14	60.85
655.29	0.00
655.43	88.94
655.57	0.00
655.72	35.11
655.86	53.83
656.01	74.90
656.15	51.49
656.30	0.00
656.44	72.56
656.58	0.00
656.73	72.56
656.87	0.00
657.01	0.00
657.16	23.41
657.30	86.60
657.45	88.94
657.59	72.56
657.73	44.47
657.88	28.09
658.02	51.49
658.16	9.36
658.31	35.11
658.45	0.00
658.60	51.49
658.74	74.90
658.88	42.13
659.03	102.98
659.17	84.26
659.31	114.69
659.46	110.01
659.60	276.18
659.74	269.16
659.89	231.71
660.03	152.13
660.17	112.35
660.32	140.43
660.46	21.06
660.60	79.58
660.74	49.15
660.89	21.06
661.03	0.00
661.17	49.15
661.32	42.13
661.46	63.19
661.60	65.54
661.74	56.17
661.89	0.00
662.03	42.13
662.17	0.00
662.31	102.98
662.46	0.00
662.60	81.92
662.74	32.77
662.88	72.56
663.03	25.75
663.17	0.00
663.31	21.06
663.45	0.00
663.60	95.96
663.74	46.81
663.88	23.41
664.02	11.70
664.17	91.28
664.31	25.75
664.45	56.17
664.59	2.34
664.73	51.49
664.88	65.54
665.02	14.04
665.16	102.98
665.30	58.51
665.44	37.45
665.59	9.36
665.73	58.51
665.87	93.62
666.01	7.02
666.15	16.38
666.29	30.43
666.44	168.52
666.58	65.54
666.72	105.32
666.86	30.43
667.00	63.19
667.14	49.15
667.28	30.43
667.43	259.80
667.57	374.49
667.71	358.10
667.85	311.29
667.99	339.38
668.13	107.66
668.27	133.41
668.41	91.28
668.56	60.85
668.70	79.58
668.84	72.56
668.98	42.13
669.12	0.00
669.26	56.17
669.40	88.94
669.54	114.69
669.68	42.13
669.82	46.81
669.96	0.00
670.10	49.15
670.25	84.26
670.39	53.83
670.53	0.00
670.67	42.13
670.81	42.13
670.95	65.54
671.09	30.43
671.23	124.05
671.37	191.92
671.51	285.55
671.65	348.74
671.79	276.18
671.93	224.69
672.07	196.60
672.21	81.92
672.35	102.98
672.49	56.17
672.63	84.26
672.77	93.62
672.91	0.00
673.05	58.51
673.19	44.47
673.33	0.00
673.47	0.00
673.61	14.04
673.75	9.36
673.89	28.09
674.03	23.41
674.17	42.13
674.31	0.00
674.45	9.36
674.59	88.94
674.73	142.77
674.87	77.24
675.01	39.79
675.15	44.47
675.29	39.79
675.43	51.49
675.56	23.41
675.70	56.17
675.84	86.60
675.98	72.56
676.12	84.26
676.26	39.79
676.40	14.04
676.54	28.09
676.68	14.04
676.82	0.00
676.96	42.13
677.10	18.72
677.23	65.54
677.37	51.49
677.51	60.85
677.65	11.70
677.79	23.41
677.93	72.56
678.07	51.49
678.21	25.75
678.34	7.02
678.48	49.15
678.62	81.92
678.76	51.49
678.90	79.58
679.04	39.79
679.18	30.43
679.31	0.00
679.45	56.17
679.59	25.75
679.73	37.45
679.87	21.06
680.00	126.39
680.14	37.45
680.28	16.38
680.42	0.00
680.56	0.00
680.70	0.00
680.83	67.88
680.97	21.06
681.11	58.51
681.25	56.17
681.39	117.03
681.52	91.28
681.66	18.72
681.80	72.56
681.94	25.75
682.07	37.45
682.21	67.88
682.35	56.17
682.49	49.15
682.62	39.79
682.76	9.36
682.90	60.85
683.04	30.43
683.17	93.62
683.31	32.77
683.45	88.94
683.59	16.38
683.72	91.28
683.86	0.00
684.00	4.68
684.13	0.00
684.27	18.72
684.41	35.11
684.55	25.75
684.68	0.00
684.82	0.00
684.96	58.51
685.09	30.43
685.23	65.54
685.37	51.49
685.50	60.85
685.64	70.22
685.78	32.77
685.91	0.00
686.05	0.00
686.19	2.34
686.32	49.15
686.46	11.70
686.60	0.00
686.73	0.00
686.87	21.06
687.01	46.81
687.14	51.49
687.28	49.15
687.42	2.34
687.55	0.00
687.69	42.13
687.82	35.11
687.96	65.54
688.10	46.81
688.23	11.70
688.37	2.34
688.50	0.00
688.64	0.00
688.78	86.60
688.91	39.79
689.05	58.51
689.18	65.54
689.32	21.06
689.46	44.47
689.59	0.00
689.73	2.34
689.86	0.00
690.00	72.56
690.13	98.30
690.27	18.72
690.41	58.51
690.54	0.00
690.68	30.43
690.81	0.00
690.95	0.00
691.08	9.36
691.22	58.51
691.35	0.00
691.49	39.79
691.62	53.83
691.76	0.00
691.89	147.45
692.03	49.15
692.16	25.75
692.30	0.00
692.43	42.13
692.57	187.24
692.70	210.65
692.84	198.95
692.97	222.35
693.11	152.13
693.24	102.98
693.38	156.82
693.51	128.73
693.65	63.19
693.78	65.54
693.92	30.43
694.05	49.15
694.19	56.17
694.32	0.00
694.45	0.00
694.59	46.81
694.72	11.70
694.86	51.49
694.99	23.41
695.13	32.77
695.26	110.01
695.39	44.47
695.53	42.13
695.66	32.77
695.80	42.13
695.93	0.00
696.07	37.45
696.20	28.09
696.33	107.66
696.47	70.22
696.60	49.15
696.73	21.06
696.87	14.04
697.00	28.09
697.14	18.72
697.27	32.77
697.40	63.19
697.54	11.70
697.67	2.34
697.80	28.09
697.94	14.04
698.07	67.88
698.21	37.45
698.34	79.58
698.47	65.54
698.61	25.75
698.74	30.43
698.87	53.83
699.01	0.00
699.14	0.00
699.27	56.17
699.40	67.88
699.54	32.77
699.67	30.43
699.80	44.47
699.94	0.00
700.07	86.60
700.20	49.15
700.34	18.72
700.47	51.49
700.60	56.17
700.73	0.00
700.87	0.00
701.00	0.00
701.13	0.00
701.26	18.72
701.40	0.00
701.53	51.49
701.66	23.41
701.79	56.17
701.93	30.43
702.06	14.04
702.19	65.54
702.32	49.15
702.46	46.81
702.59	9.36
702.72	58.51
702.85	166.18
702.99	234.05
703.12	360.44
703.25	425.98
703.38	337.04
703.51	238.73
703.65	231.71
703.78	198.95
703.91	100.64
704.04	126.39
704.17	86.60
704.31	32.77
704.44	56.17
704.57	0.00
704.70	35.11
704.83	37.45
704.96	0.00
705.10	21.06
705.23	0.00
>>>>>End Processed Spectral Data<<<<<
