SpectraSuite Data File
++++++++++++++++++++++++++++++++++++
Date: Fri Oct 04 12:13:33 GMT-05:00 2013
User: price-jones
Dark Spectrum Present: No
Reference Spectrum Present: No
Number of Sampled Component Spectra: 1
Spectrometers: USB2+H05261
Integration Time (usec): 10000 (USB2+H05261)
Spectra Averaged: 1 (USB2+H05261)
Boxcar Smoothing: 0 (USB2+H05261)
Correct for Electrical Dark: No (USB2+H05261)
Strobe/Lamp Enabled: No (USB2+H05261)
Correct for Detector Non-linearity: No (USB2+H05261)
Correct for Stray Light: No (USB2+H05261)
Number of Pixels in Processed Spectrum: 2048
>>>>>Begin Processed Spectral Data<<<<<
365.73	0.00
365.92	0.00
366.12	0.00
366.32	0.00
366.52	0.00
366.72	0.00
366.91	0.00
367.11	0.00
367.31	0.00
367.51	0.00
367.70	0.00
367.90	0.00
368.10	0.00
368.30	0.00
368.49	0.00
368.69	0.00
368.89	0.00
369.09	0.00
369.28	0.00
369.48	0.00
369.68	0.00
369.87	0.00
370.07	0.00
370.27	0.00
370.47	0.00
370.66	0.00
370.86	0.00
371.06	11.70
371.25	0.00
371.45	0.00
371.65	51.49
371.84	25.75
372.04	0.00
372.24	30.43
372.44	42.13
372.63	0.00
372.83	16.38
373.03	0.00
373.22	21.06
373.42	30.43
373.62	7.02
373.81	72.56
374.01	0.00
374.21	0.00
374.40	72.56
374.60	77.24
374.79	37.45
374.99	39.79
375.19	53.83
375.38	25.75
375.58	0.00
375.78	4.68
375.97	30.43
376.17	63.19
376.37	77.24
376.56	11.70
376.76	58.51
376.95	149.79
377.15	32.77
377.35	67.88
377.54	28.09
377.74	2.34
377.93	63.19
378.13	56.17
378.33	28.09
378.52	0.00
378.72	16.38
378.91	39.79
379.11	74.90
379.31	77.24
379.50	0.00
379.70	28.09
379.89	30.43
380.09	11.70
380.28	23.41
380.48	30.43
380.68	0.00
380.87	0.00
381.07	16.38
381.26	37.45
381.46	0.00
381.65	0.00
381.85	0.00
382.04	18.72
382.24	0.00
382.43	0.00
382.63	4.68
382.83	14.04
383.02	0.00
383.22	0.00
383.41	53.83
383.61	42.13
383.80	51.49
384.00	28.09
384.19	37.45
384.39	37.45
384.58	21.06
384.78	14.04
384.97	28.09
385.17	9.36
385.36	9.36
385.56	30.43
385.75	39.79
385.95	23.41
386.14	46.81
386.34	0.00
386.53	51.49
386.72	42.13
386.92	0.00
387.11	0.00
387.31	11.70
387.50	21.06
387.70	16.38
387.89	16.38
388.09	9.36
388.28	0.00
388.48	0.00
388.67	0.00
388.86	53.83
389.06	0.00
389.25	58.51
389.45	56.17
389.64	79.58
389.84	25.75
390.03	14.04
390.22	14.04
390.42	16.38
390.61	35.11
390.81	9.36
391.00	63.19
391.19	18.72
391.39	39.79
391.58	42.13
391.78	14.04
391.97	30.43
392.16	14.04
392.36	18.72
392.55	11.70
392.75	28.09
392.94	56.17
393.13	0.00
393.33	37.45
393.52	0.00
393.71	60.85
393.91	53.83
394.10	11.70
394.29	28.09
394.49	124.05
394.68	37.45
394.88	4.68
395.07	23.41
395.26	0.00
395.46	58.51
395.65	86.60
395.84	46.81
396.04	0.00
396.23	46.81
396.42	0.00
396.62	46.81
396.81	39.79
397.00	16.38
397.19	124.05
397.39	49.15
397.58	0.00
397.77	9.36
397.97	70.22
398.16	4.68
398.35	42.13
398.55	11.70
398.74	11.70
398.93	58.51
399.12	42.13
399.32	74.90
399.51	67.88
399.70	44.47
399.90	0.00
400.09	32.77
400.28	25.75
400.47	11.70
400.67	16.38
400.86	0.00
401.05	42.13
401.24	2.34
401.44	14.04
401.63	0.00
401.82	0.00
402.01	39.79
402.21	72.56
402.40	37.45
402.59	30.43
402.78	11.70
402.97	42.13
403.17	63.19
403.36	0.00
403.55	0.00
403.74	4.68
403.93	23.41
404.13	53.83
404.32	117.03
404.51	0.00
404.70	0.00
404.89	35.11
405.09	0.00
405.28	0.00
405.47	7.02
405.66	0.00
405.85	28.09
406.05	9.36
406.24	0.00
406.43	46.81
406.62	0.00
406.81	49.15
407.00	60.85
407.20	42.13
407.39	0.00
407.58	18.72
407.77	81.92
407.96	65.54
408.15	21.06
408.34	37.45
408.54	11.70
408.73	67.88
408.92	0.00
409.11	0.00
409.30	0.00
409.49	72.56
409.68	28.09
409.87	72.56
410.07	0.00
410.26	0.00
410.45	39.79
410.64	91.28
410.83	44.47
411.02	0.00
411.21	0.00
411.40	9.36
411.59	0.00
411.78	4.68
411.98	0.00
412.17	23.41
412.36	95.96
412.55	7.02
412.74	0.00
412.93	0.00
413.12	23.41
413.31	0.00
413.50	16.38
413.69	93.62
413.88	23.41
414.07	37.45
414.26	0.00
414.45	0.00
414.64	37.45
414.83	9.36
415.02	32.77
415.22	9.36
415.41	0.00
415.60	46.81
415.79	14.04
415.98	23.41
416.17	86.60
416.36	0.00
416.55	60.85
416.74	135.75
416.93	67.88
417.12	35.11
417.31	37.45
417.50	37.45
417.69	42.13
417.88	37.45
418.07	51.49
418.26	0.00
418.45	135.75
418.64	42.13
418.83	44.47
419.02	7.02
419.21	0.00
419.39	72.56
419.58	0.00
419.77	63.19
419.96	0.00
420.15	30.43
420.34	16.38
420.53	4.68
420.72	0.00
420.91	30.43
421.10	65.54
421.29	37.45
421.48	0.00
421.67	25.75
421.86	2.34
422.05	4.68
422.24	30.43
422.43	21.06
422.61	46.81
422.80	72.56
422.99	0.00
423.18	42.13
423.37	56.17
423.56	49.15
423.75	32.77
423.94	63.19
424.13	86.60
424.32	0.00
424.50	39.79
424.69	70.22
424.88	14.04
425.07	51.49
425.26	53.83
425.45	58.51
425.64	25.75
425.83	32.77
426.01	0.00
426.20	70.22
426.39	18.72
426.58	60.85
426.77	46.81
426.96	46.81
427.15	32.77
427.33	88.94
427.52	28.09
427.71	0.00
427.90	11.70
428.09	86.60
428.28	63.19
428.46	14.04
428.65	53.83
428.84	9.36
429.03	65.54
429.22	72.56
429.40	0.00
429.59	28.09
429.78	131.07
429.97	4.68
430.16	93.62
430.34	102.98
430.53	0.00
430.72	53.83
430.91	25.75
431.10	0.00
431.28	9.36
431.47	16.38
431.66	11.70
431.85	0.00
432.03	37.45
432.22	23.41
432.41	4.68
432.60	67.88
432.79	0.00
432.97	0.00
433.16	42.13
433.35	56.17
433.54	14.04
433.72	35.11
433.91	72.56
434.10	72.56
434.28	28.09
434.47	7.02
434.66	63.19
434.85	32.77
435.03	35.11
435.22	2.34
435.41	21.06
435.59	21.06
435.78	42.13
435.97	0.00
436.16	21.06
436.34	7.02
436.53	30.43
436.72	44.47
436.90	63.19
437.09	42.13
437.28	21.06
437.46	4.68
437.65	0.00
437.84	37.45
438.02	0.00
438.21	46.81
438.40	65.54
438.58	72.56
438.77	49.15
438.96	49.15
439.14	4.68
439.33	0.00
439.52	105.32
439.70	0.00
439.89	81.92
440.08	74.90
440.26	30.43
440.45	145.11
440.63	86.60
440.82	44.47
441.01	39.79
441.19	14.04
441.38	0.00
441.57	53.83
441.75	63.19
441.94	14.04
442.12	65.54
442.31	28.09
442.50	46.81
442.68	0.00
442.87	0.00
443.05	39.79
443.24	7.02
443.43	0.00
443.61	53.83
443.80	11.70
443.98	14.04
444.17	49.15
444.35	35.11
444.54	0.00
444.73	7.02
444.91	30.43
445.10	98.30
445.28	81.92
445.47	98.30
445.65	84.26
445.84	100.64
446.02	25.75
446.21	0.00
446.39	65.54
446.58	95.96
446.77	11.70
446.95	9.36
447.14	0.00
447.32	25.75
447.51	0.00
447.69	4.68
447.88	0.00
448.06	0.00
448.25	0.00
448.43	21.06
448.62	35.11
448.80	58.51
448.99	0.00
449.17	58.51
449.36	65.54
449.54	46.81
449.73	4.68
449.91	60.85
450.10	42.13
450.28	117.03
450.46	110.01
450.65	14.04
450.83	0.00
451.02	23.41
451.20	35.11
451.39	98.30
451.57	23.41
451.76	0.00
451.94	0.00
452.13	0.00
452.31	9.36
452.49	0.00
452.68	7.02
452.86	58.51
453.05	49.15
453.23	23.41
453.42	74.90
453.60	0.00
453.78	56.17
453.97	32.77
454.15	0.00
454.34	7.02
454.52	28.09
454.70	18.72
454.89	0.00
455.07	7.02
455.26	81.92
455.44	0.00
455.62	81.92
455.81	42.13
455.99	25.75
456.17	0.00
456.36	70.22
456.54	30.43
456.73	65.54
456.91	35.11
457.09	11.70
457.28	0.00
457.46	107.66
457.64	35.11
457.83	72.56
458.01	4.68
458.19	88.94
458.38	65.54
458.56	0.00
458.74	39.79
458.93	16.38
459.11	0.00
459.29	84.26
459.48	23.41
459.66	58.51
459.84	0.00
460.03	2.34
460.21	42.13
460.39	79.58
460.57	0.00
460.76	0.00
460.94	39.79
461.12	79.58
461.31	42.13
461.49	74.90
461.67	32.77
461.85	51.49
462.04	49.15
462.22	95.96
462.40	105.32
462.59	39.79
462.77	60.85
462.95	21.06
463.13	56.17
463.32	79.58
463.50	65.54
463.68	16.38
463.86	23.41
464.05	49.15
464.23	119.37
464.41	51.49
464.59	39.79
464.78	72.56
464.96	11.70
465.14	0.00
465.32	63.19
465.50	37.45
465.69	81.92
465.87	0.00
466.05	46.81
466.23	60.85
466.41	49.15
466.60	39.79
466.78	42.13
466.96	56.17
467.14	16.38
467.32	23.41
467.51	0.00
467.69	23.41
467.87	81.92
468.05	30.43
468.23	11.70
468.41	44.47
468.60	56.17
468.78	44.47
468.96	63.19
469.14	65.54
469.32	140.43
469.50	16.38
469.69	4.68
469.87	0.00
470.05	35.11
470.23	30.43
470.41	0.00
470.59	95.96
470.77	67.88
470.95	0.00
471.14	98.30
471.32	65.54
471.50	37.45
471.68	7.02
471.86	98.30
472.04	2.34
472.22	2.34
472.40	91.28
472.58	49.15
472.77	44.47
472.95	93.62
473.13	21.06
473.31	32.77
473.49	145.11
473.67	53.83
473.85	60.85
474.03	42.13
474.21	49.15
474.39	86.60
474.57	23.41
474.75	0.00
474.93	51.49
475.12	44.47
475.30	42.13
475.48	70.22
475.66	42.13
475.84	37.45
476.02	51.49
476.20	81.92
476.38	72.56
476.56	0.00
476.74	53.83
476.92	67.88
477.10	7.02
477.28	28.09
477.46	105.32
477.64	86.60
477.82	32.77
478.00	35.11
478.18	0.00
478.36	107.66
478.54	42.13
478.72	30.43
478.90	58.51
479.08	0.00
479.26	16.38
479.44	0.00
479.62	4.68
479.80	32.77
479.98	84.26
480.16	30.43
480.34	53.83
480.52	107.66
480.70	93.62
480.88	32.77
481.06	53.83
481.24	84.26
481.41	37.45
481.59	58.51
481.77	32.77
481.95	44.47
482.13	74.90
482.31	30.43
482.49	25.75
482.67	81.92
482.85	46.81
483.03	44.47
483.21	53.83
483.39	44.47
483.57	35.11
483.74	46.81
483.92	0.00
484.10	67.88
484.28	70.22
484.46	93.62
484.64	86.60
484.82	93.62
485.00	93.62
485.18	35.11
485.35	46.81
485.53	2.34
485.71	35.11
485.89	98.30
486.07	18.72
486.25	42.13
486.43	0.00
486.61	81.92
486.78	56.17
486.96	44.47
487.14	98.30
487.32	49.15
487.50	14.04
487.68	37.45
487.85	67.88
488.03	0.00
488.21	44.47
488.39	32.77
488.57	7.02
488.75	60.85
488.92	135.75
489.10	23.41
489.28	35.11
489.46	0.00
489.64	49.15
489.81	0.00
489.99	0.00
490.17	32.77
490.35	65.54
490.53	91.28
490.70	135.75
490.88	56.17
491.06	91.28
491.24	117.03
491.41	0.00
491.59	67.88
491.77	102.98
491.95	121.71
492.13	42.13
492.30	70.22
492.48	74.90
492.66	95.96
492.84	60.85
493.01	56.17
493.19	81.92
493.37	67.88
493.54	67.88
493.72	9.36
493.90	23.41
494.08	0.00
494.25	60.85
494.43	46.81
494.61	49.15
494.79	74.90
494.96	46.81
495.14	0.00
495.32	46.81
495.49	42.13
495.67	102.98
495.85	32.77
496.02	86.60
496.20	79.58
496.38	18.72
496.55	63.19
496.73	60.85
496.91	23.41
497.09	42.13
497.26	81.92
497.44	53.83
497.62	30.43
497.79	16.38
497.97	2.34
498.14	65.54
498.32	65.54
498.50	35.11
498.67	51.49
498.85	9.36
499.03	32.77
499.20	0.00
499.38	72.56
499.56	28.09
499.73	79.58
499.91	16.38
500.08	114.69
500.26	67.88
500.44	9.36
500.61	4.68
500.79	42.13
500.97	42.13
501.14	18.72
501.32	49.15
501.49	4.68
501.67	16.38
501.84	21.06
502.02	42.13
502.20	18.72
502.37	51.49
502.55	53.83
502.72	49.15
502.90	23.41
503.07	58.51
503.25	124.05
503.43	51.49
503.60	28.09
503.78	23.41
503.95	0.00
504.13	74.90
504.30	114.69
504.48	32.77
504.65	86.60
504.83	60.85
505.01	0.00
505.18	65.54
505.36	46.81
505.53	42.13
505.71	23.41
505.88	30.43
506.06	58.51
506.23	35.11
506.41	86.60
506.58	4.68
506.76	49.15
506.93	72.56
507.11	72.56
507.28	46.81
507.46	56.17
507.63	51.49
507.81	42.13
507.98	0.00
508.16	65.54
508.33	65.54
508.50	18.72
508.68	39.79
508.85	98.30
509.03	60.85
509.20	124.05
509.38	46.81
509.55	28.09
509.73	81.92
509.90	44.47
510.08	0.00
510.25	0.00
510.42	14.04
510.60	42.13
510.77	60.85
510.95	67.88
511.12	0.00
511.30	4.68
511.47	105.32
511.64	154.48
511.82	56.17
511.99	9.36
512.17	4.68
512.34	42.13
512.51	126.39
512.69	88.94
512.86	11.70
513.04	0.00
513.21	32.77
513.38	77.24
513.56	0.00
513.73	28.09
513.90	49.15
514.08	60.85
514.25	32.77
514.43	77.24
514.60	56.17
514.77	49.15
514.95	42.13
515.12	56.17
515.29	0.00
515.47	70.22
515.64	2.34
515.81	18.72
515.99	133.41
516.16	30.43
516.33	56.17
516.51	58.51
516.68	14.04
516.85	0.00
517.03	77.24
517.20	49.15
517.37	32.77
517.54	93.62
517.72	128.73
517.89	0.00
518.06	51.49
518.24	84.26
518.41	56.17
518.58	84.26
518.75	63.19
518.93	0.00
519.10	42.13
519.27	53.83
519.45	35.11
519.62	44.47
519.79	84.26
519.96	53.83
520.14	28.09
520.31	0.00
520.48	72.56
520.65	28.09
520.83	105.32
521.00	58.51
521.17	58.51
521.34	91.28
521.52	95.96
521.69	112.35
521.86	58.51
522.03	121.71
522.20	42.13
522.38	46.81
522.55	145.11
522.72	37.45
522.89	105.32
523.07	51.49
523.24	81.92
523.41	131.07
523.58	11.70
523.75	60.85
523.92	77.24
524.10	56.17
524.27	56.17
524.44	60.85
524.61	30.43
524.78	117.03
524.96	2.34
525.13	56.17
525.30	42.13
525.47	131.07
525.64	39.79
525.81	28.09
525.98	25.75
526.16	18.72
526.33	105.32
526.50	58.51
526.67	56.17
526.84	77.24
527.01	37.45
527.18	39.79
527.36	67.88
527.53	0.00
527.70	0.00
527.87	2.34
528.04	65.54
528.21	46.81
528.38	2.34
528.55	60.85
528.72	72.56
528.89	9.36
529.07	65.54
529.24	11.70
529.41	44.47
529.58	74.90
529.75	18.72
529.92	0.00
530.09	39.79
530.26	70.22
530.43	53.83
530.60	84.26
530.77	81.92
530.94	67.88
531.11	58.51
531.28	30.43
531.46	9.36
531.63	121.71
531.80	72.56
531.97	30.43
532.14	23.41
532.31	32.77
532.48	7.02
532.65	63.19
532.82	0.00
532.99	133.41
533.16	70.22
533.33	79.58
533.50	81.92
533.67	0.00
533.84	65.54
534.01	77.24
534.18	39.79
534.35	35.11
534.52	23.41
534.69	65.54
534.86	0.00
535.03	9.36
535.20	79.58
535.37	98.30
535.54	140.43
535.71	107.66
535.88	105.32
536.05	46.81
536.22	39.79
536.38	18.72
536.55	74.90
536.72	72.56
536.89	37.45
537.06	65.54
537.23	114.69
537.40	35.11
537.57	42.13
537.74	53.83
537.91	58.51
538.08	51.49
538.25	105.32
538.42	138.09
538.59	30.43
538.75	30.43
538.92	23.41
539.09	102.98
539.26	0.00
539.43	46.81
539.60	37.45
539.77	7.02
539.94	72.56
540.11	0.00
540.28	60.85
540.44	149.79
540.61	79.58
540.78	56.17
540.95	44.47
541.12	42.13
541.29	65.54
541.46	35.11
541.62	32.77
541.79	7.02
541.96	67.88
542.13	53.83
542.30	131.07
542.47	67.88
542.63	35.11
542.80	46.81
542.97	60.85
543.14	65.54
543.31	65.54
543.48	142.77
543.64	81.92
543.81	46.81
543.98	74.90
544.15	23.41
544.32	81.92
544.48	74.90
544.65	16.38
544.82	35.11
544.99	42.13
545.16	0.00
545.32	21.06
545.49	166.18
545.66	23.41
545.83	98.30
546.00	60.85
546.16	42.13
546.33	42.13
546.50	60.85
546.67	67.88
546.83	42.13
547.00	37.45
547.17	102.98
547.34	107.66
547.50	60.85
547.67	9.36
547.84	42.13
548.00	0.00
548.17	53.83
548.34	133.41
548.51	39.79
548.67	60.85
548.84	93.62
549.01	65.54
549.18	46.81
549.34	67.88
549.51	0.00
549.68	0.00
549.84	37.45
550.01	74.90
550.18	14.04
550.34	21.06
550.51	23.41
550.68	98.30
550.84	53.83
551.01	60.85
551.18	51.49
551.34	32.77
551.51	4.68
551.68	63.19
551.84	49.15
552.01	14.04
552.18	16.38
552.34	42.13
552.51	77.24
552.68	142.77
552.84	81.92
553.01	28.09
553.18	86.60
553.34	18.72
553.51	74.90
553.67	121.71
553.84	32.77
554.01	98.30
554.17	91.28
554.34	30.43
554.51	35.11
554.67	84.26
554.84	49.15
555.00	21.06
555.17	60.85
555.33	42.13
555.50	23.41
555.67	58.51
555.83	28.09
556.00	67.88
556.16	88.94
556.33	44.47
556.50	67.88
556.66	58.51
556.83	44.47
556.99	91.28
557.16	102.98
557.32	74.90
557.49	53.83
557.65	49.15
557.82	21.06
557.98	2.34
558.15	44.47
558.32	35.11
558.48	72.56
558.65	53.83
558.81	21.06
558.98	49.15
559.14	72.56
559.31	42.13
559.47	42.13
559.64	16.38
559.80	65.54
559.97	4.68
560.13	9.36
560.30	32.77
560.46	86.60
560.63	86.60
560.79	77.24
560.96	46.81
561.12	2.34
561.29	0.00
561.45	28.09
561.61	63.19
561.78	16.38
561.94	107.66
562.11	16.38
562.27	32.77
562.44	46.81
562.60	72.56
562.77	37.45
562.93	65.54
563.10	100.64
563.26	74.90
563.42	79.58
563.59	35.11
563.75	74.90
563.92	0.00
564.08	32.77
564.24	60.85
564.41	4.68
564.57	53.83
564.74	88.94
564.90	91.28
565.07	65.54
565.23	60.85
565.39	88.94
565.56	51.49
565.72	28.09
565.88	51.49
566.05	112.35
566.21	88.94
566.38	105.32
566.54	98.30
566.70	74.90
566.87	23.41
567.03	35.11
567.19	46.81
567.36	49.15
567.52	32.77
567.68	51.49
567.85	0.00
568.01	56.17
568.17	44.47
568.34	114.69
568.50	0.00
568.66	7.02
568.83	0.00
568.99	105.32
569.15	11.70
569.32	46.81
569.48	28.09
569.64	98.30
569.81	56.17
569.97	9.36
570.13	86.60
570.30	37.45
570.46	21.06
570.62	30.43
570.78	21.06
570.95	56.17
571.11	14.04
571.27	4.68
571.43	72.56
571.60	0.00
571.76	39.79
571.92	79.58
572.09	39.79
572.25	56.17
572.41	16.38
572.57	60.85
572.74	25.75
572.90	7.02
573.06	105.32
573.22	0.00
573.38	28.09
573.55	0.00
573.71	23.41
573.87	81.92
574.03	67.88
574.20	70.22
574.36	107.66
574.52	58.51
574.68	46.81
574.84	42.13
575.01	70.22
575.17	79.58
575.33	11.70
575.49	0.00
575.65	42.13
575.82	65.54
575.98	84.26
576.14	42.13
576.30	91.28
576.46	70.22
576.62	88.94
576.79	72.56
576.95	133.41
577.11	39.79
577.27	74.90
577.43	65.54
577.59	60.85
577.75	60.85
577.92	51.49
578.08	2.34
578.24	86.60
578.40	72.56
578.56	67.88
578.72	86.60
578.88	51.49
579.04	65.54
579.21	53.83
579.37	81.92
579.53	81.92
579.69	65.54
579.85	37.45
580.01	60.85
580.17	65.54
580.33	72.56
580.49	37.45
580.65	2.34
580.82	60.85
580.98	4.68
581.14	44.47
581.30	112.35
581.46	32.77
581.62	63.19
581.78	25.75
581.94	121.71
582.10	7.02
582.26	117.03
582.42	67.88
582.58	0.00
582.74	84.26
582.90	91.28
583.06	51.49
583.22	51.49
583.38	0.00
583.54	9.36
583.70	84.26
583.86	56.17
584.02	30.43
584.18	81.92
584.34	44.47
584.50	63.19
584.66	7.02
584.82	37.45
584.98	32.77
585.14	70.22
585.30	21.06
585.46	42.13
585.62	30.43
585.78	46.81
585.94	42.13
586.10	25.75
586.26	95.96
586.42	37.45
586.58	35.11
586.74	44.47
586.90	84.26
587.06	11.70
587.22	42.13
587.38	131.07
587.54	0.00
587.70	37.45
587.86	88.94
588.02	2.34
588.18	88.94
588.34	51.49
588.49	81.92
588.65	100.64
588.81	74.90
588.97	88.94
589.13	93.62
589.29	32.77
589.45	60.85
589.61	84.26
589.77	0.00
589.93	25.75
590.08	63.19
590.24	2.34
590.40	56.17
590.56	35.11
590.72	21.06
590.88	58.51
591.04	60.85
591.20	32.77
591.35	110.01
591.51	0.00
591.67	0.00
591.83	46.81
591.99	81.92
592.15	67.88
592.31	72.56
592.46	107.66
592.62	49.15
592.78	25.75
592.94	77.24
593.10	16.38
593.26	51.49
593.41	56.17
593.57	79.58
593.73	35.11
593.89	67.88
594.05	63.19
594.20	0.00
594.36	0.00
594.52	0.00
594.68	56.17
594.84	46.81
594.99	49.15
595.15	67.88
595.31	65.54
595.47	93.62
595.62	128.73
595.78	16.38
595.94	21.06
596.10	114.69
596.25	88.94
596.41	58.51
596.57	58.51
596.73	32.77
596.88	0.00
597.04	51.49
597.20	0.00
597.36	39.79
597.51	42.13
597.67	93.62
597.83	23.41
597.99	18.72
598.14	25.75
598.30	4.68
598.46	67.88
598.61	56.17
598.77	28.09
598.93	32.77
599.09	65.54
599.24	145.11
599.40	63.19
599.56	35.11
599.71	21.06
599.87	0.00
600.03	46.81
600.18	88.94
600.34	9.36
600.50	42.13
600.65	0.00
600.81	39.79
600.97	37.45
601.12	25.75
601.28	39.79
601.44	58.51
601.59	14.04
601.75	11.70
601.91	14.04
602.06	51.49
602.22	102.98
602.37	42.13
602.53	0.00
602.69	135.75
602.84	32.77
603.00	44.47
603.16	53.83
603.31	53.83
603.47	4.68
603.62	56.17
603.78	39.79
603.94	35.11
604.09	91.28
604.25	95.96
604.40	79.58
604.56	39.79
604.71	42.13
604.87	51.49
605.03	0.00
605.18	60.85
605.34	21.06
605.49	67.88
605.65	95.96
605.80	102.98
605.96	91.28
606.12	37.45
606.27	44.47
606.43	56.17
606.58	81.92
606.74	93.62
606.89	128.73
607.05	102.98
607.20	140.43
607.36	100.64
607.51	46.81
607.67	18.72
607.82	0.00
607.98	0.00
608.13	0.00
608.29	28.09
608.44	49.15
608.60	53.83
608.75	32.77
608.91	51.49
609.06	60.85
609.22	88.94
609.37	37.45
609.53	30.43
609.68	65.54
609.84	67.88
609.99	56.17
610.15	46.81
610.30	16.38
610.46	84.26
610.61	70.22
610.76	14.04
610.92	65.54
611.07	46.81
611.23	70.22
611.38	88.94
611.54	93.62
611.69	88.94
611.84	145.11
612.00	16.38
612.15	30.43
612.31	0.00
612.46	35.11
612.62	72.56
612.77	56.17
612.92	60.85
613.08	60.85
613.23	65.54
613.39	95.96
613.54	35.11
613.69	46.81
613.85	4.68
614.00	46.81
614.15	42.13
614.31	112.35
614.46	30.43
614.62	58.51
614.77	65.54
614.92	58.51
615.08	11.70
615.23	4.68
615.38	18.72
615.54	67.88
615.69	14.04
615.84	4.68
616.00	4.68
616.15	70.22
616.30	72.56
616.46	119.37
616.61	14.04
616.76	63.19
616.92	21.06
617.07	7.02
617.22	51.49
617.37	65.54
617.53	91.28
617.68	4.68
617.83	42.13
617.99	102.98
618.14	102.98
618.29	30.43
618.45	44.47
618.60	35.11
618.75	72.56
618.90	30.43
619.06	35.11
619.21	86.60
619.36	86.60
619.51	7.02
619.67	88.94
619.82	110.01
619.97	81.92
620.12	63.19
620.28	25.75
620.43	7.02
620.58	28.09
620.73	0.00
620.89	16.38
621.04	86.60
621.19	0.00
621.34	0.00
621.49	35.11
621.65	37.45
621.80	53.83
621.95	42.13
622.10	67.88
622.25	35.11
622.41	7.02
622.56	28.09
622.71	0.00
622.86	37.45
623.01	0.00
623.16	35.11
623.32	56.17
623.47	81.92
623.62	56.17
623.77	37.45
623.92	84.26
624.07	63.19
624.23	21.06
624.38	0.00
624.53	23.41
624.68	0.00
624.83	23.41
624.98	0.00
625.13	79.58
625.29	11.70
625.44	49.15
625.59	28.09
625.74	25.75
625.89	44.47
626.04	28.09
626.19	16.38
626.34	14.04
626.49	9.36
626.65	95.96
626.80	46.81
626.95	42.13
627.10	39.79
627.25	37.45
627.40	14.04
627.55	14.04
627.70	0.00
627.85	72.56
628.00	70.22
628.15	114.69
628.30	30.43
628.45	49.15
628.60	30.43
628.76	37.45
628.91	35.11
629.06	42.13
629.21	35.11
629.36	0.00
629.51	51.49
629.66	100.64
629.81	44.47
629.96	70.22
630.11	32.77
630.26	9.36
630.41	0.00
630.56	46.81
630.71	60.85
630.86	16.38
631.01	23.41
631.16	74.90
631.31	74.90
631.46	86.60
631.61	74.90
631.76	77.24
631.91	72.56
632.06	28.09
632.21	44.47
632.36	86.60
632.51	39.79
632.66	93.62
632.81	35.11
632.96	126.39
633.10	77.24
633.25	72.56
633.40	98.30
633.55	0.00
633.70	65.54
633.85	91.28
634.00	56.17
634.15	67.88
634.30	46.81
634.45	30.43
634.60	140.43
634.75	44.47
634.90	77.24
635.05	110.01
635.19	0.00
635.34	98.30
635.49	30.43
635.64	46.81
635.79	56.17
635.94	49.15
636.09	7.02
636.24	58.51
636.39	56.17
636.53	79.58
636.68	44.47
636.83	39.79
636.98	21.06
637.13	53.83
637.28	46.81
637.43	72.56
637.57	46.81
637.72	100.64
637.87	88.94
638.02	25.75
638.17	70.22
638.32	18.72
638.46	102.98
638.61	9.36
638.76	44.47
638.91	102.98
639.06	58.51
639.20	28.09
639.35	65.54
639.50	44.47
639.65	44.47
639.80	23.41
639.94	60.85
640.09	0.00
640.24	98.30
640.39	74.90
640.54	9.36
640.68	117.03
640.83	79.58
640.98	63.19
641.13	86.60
641.27	11.70
641.42	39.79
641.57	58.51
641.72	0.00
641.86	39.79
642.01	44.47
642.16	0.00
642.31	11.70
642.45	49.15
642.60	42.13
642.75	4.68
642.90	23.41
643.04	63.19
643.19	53.83
643.34	88.94
643.48	35.11
643.63	126.39
643.78	70.22
643.93	72.56
644.07	23.41
644.22	23.41
644.37	95.96
644.51	91.28
644.66	112.35
644.81	0.00
644.95	56.17
645.10	0.00
645.25	23.41
645.39	28.09
645.54	0.00
645.69	37.45
645.83	4.68
645.98	51.49
646.13	11.70
646.27	25.75
646.42	56.17
646.57	14.04
646.71	32.77
646.86	0.00
647.00	35.11
647.15	95.96
647.30	11.70
647.44	49.15
647.59	119.37
647.74	0.00
647.88	65.54
648.03	0.00
648.17	93.62
648.32	23.41
648.47	46.81
648.61	112.35
648.76	39.79
648.90	23.41
649.05	9.36
649.20	51.49
649.34	58.51
649.49	46.81
649.63	74.90
649.78	72.56
649.92	0.00
650.07	28.09
650.21	58.51
650.36	63.19
650.51	0.00
650.65	14.04
650.80	100.64
650.94	46.81
651.09	51.49
651.23	60.85
651.38	117.03
651.52	35.11
651.67	9.36
651.81	42.13
651.96	128.73
652.10	23.41
652.25	88.94
652.39	35.11
652.54	46.81
652.68	91.28
652.83	21.06
652.97	117.03
653.12	0.00
653.26	42.13
653.41	39.79
653.55	70.22
653.70	84.26
653.84	16.38
653.99	21.06
654.13	84.26
654.27	7.02
654.42	0.00
654.56	72.56
654.71	60.85
654.85	79.58
655.00	79.58
655.14	53.83
655.29	152.13
655.43	112.35
655.57	0.00
655.72	0.00
655.86	49.15
656.01	35.11
656.15	11.70
656.30	0.00
656.44	37.45
656.58	23.41
656.73	25.75
656.87	58.51
657.01	7.02
657.16	28.09
657.30	0.00
657.45	42.13
657.59	44.47
657.73	51.49
657.88	77.24
658.02	0.00
658.16	35.11
658.31	44.47
658.45	42.13
658.60	60.85
658.74	23.41
658.88	32.77
659.03	21.06
659.17	77.24
659.31	77.24
659.46	37.45
659.60	74.90
659.74	74.90
659.89	53.83
660.03	35.11
660.17	72.56
660.32	53.83
660.46	21.06
660.60	2.34
660.74	67.88
660.89	25.75
661.03	51.49
661.17	46.81
661.32	100.64
661.46	18.72
661.60	60.85
661.74	30.43
661.89	30.43
662.03	53.83
662.17	63.19
662.31	0.00
662.46	72.56
662.60	53.83
662.74	56.17
662.88	93.62
663.03	39.79
663.17	0.00
663.31	65.54
663.45	0.00
663.60	67.88
663.74	105.32
663.88	32.77
664.02	25.75
664.17	25.75
664.31	86.60
664.45	0.00
664.59	28.09
664.73	0.00
664.88	60.85
665.02	9.36
665.16	39.79
665.30	60.85
665.44	114.69
665.59	11.70
665.73	16.38
665.87	0.00
666.01	9.36
666.15	0.00
666.29	9.36
666.44	28.09
666.58	72.56
666.72	18.72
666.86	42.13
667.00	84.26
667.14	7.02
667.28	102.98
667.43	0.00
667.57	7.02
667.71	0.00
667.85	93.62
667.99	25.75
668.13	21.06
668.27	65.54
668.41	16.38
668.56	70.22
668.70	91.28
668.84	32.77
668.98	25.75
669.12	18.72
669.26	88.94
669.40	18.72
669.54	95.96
669.68	23.41
669.82	56.17
669.96	11.70
670.10	79.58
670.25	70.22
670.39	53.83
670.53	28.09
670.67	95.96
670.81	14.04
670.95	60.85
671.09	18.72
671.23	42.13
671.37	81.92
671.51	93.62
671.65	11.70
671.79	0.00
671.93	86.60
672.07	30.43
672.21	7.02
672.35	37.45
672.49	0.00
672.63	72.56
672.77	18.72
672.91	35.11
673.05	0.00
673.19	58.51
673.33	42.13
673.47	81.92
673.61	16.38
673.75	9.36
673.89	14.04
674.03	70.22
674.17	114.69
674.31	0.00
674.45	30.43
674.59	46.81
674.73	25.75
674.87	0.00
675.01	124.05
675.15	46.81
675.29	0.00
675.43	0.00
675.56	60.85
675.70	88.94
675.84	91.28
675.98	35.11
676.12	86.60
676.26	79.58
676.40	37.45
676.54	79.58
676.68	93.62
676.82	102.98
676.96	63.19
677.10	39.79
677.23	16.38
677.37	112.35
677.51	65.54
677.65	39.79
677.79	25.75
677.93	39.79
678.07	39.79
678.21	2.34
678.34	53.83
678.48	23.41
678.62	32.77
678.76	53.83
678.90	44.47
679.04	21.06
679.18	65.54
679.31	42.13
679.45	63.19
679.59	51.49
679.73	30.43
679.87	9.36
680.00	0.00
680.14	14.04
680.28	0.00
680.42	49.15
680.56	0.00
680.70	65.54
680.83	42.13
680.97	32.77
681.11	60.85
681.25	49.15
681.39	0.00
681.52	35.11
681.66	11.70
681.80	79.58
681.94	86.60
682.07	107.66
682.21	4.68
682.35	72.56
682.49	11.70
682.62	63.19
682.76	0.00
682.90	77.24
683.04	84.26
683.17	70.22
683.31	53.83
683.45	4.68
683.59	63.19
683.72	2.34
683.86	37.45
684.00	0.00
684.13	56.17
684.27	44.47
684.41	0.00
684.55	0.00
684.68	4.68
684.82	100.64
684.96	79.58
685.09	91.28
685.23	60.85
685.37	42.13
685.50	21.06
685.64	0.00
685.78	0.00
685.91	7.02
686.05	28.09
686.19	51.49
686.32	39.79
686.46	7.02
686.60	42.13
686.73	37.45
686.87	56.17
687.01	0.00
687.14	79.58
687.28	14.04
687.42	86.60
687.55	77.24
687.69	46.81
687.82	58.51
687.96	21.06
688.10	4.68
688.23	18.72
688.37	88.94
688.50	23.41
688.64	81.92
688.78	98.30
688.91	0.00
689.05	49.15
689.18	0.00
689.32	11.70
689.46	0.00
689.59	16.38
689.73	72.56
689.86	0.00
690.00	0.00
690.13	60.85
690.27	42.13
690.41	25.75
690.54	23.41
690.68	42.13
690.81	70.22
690.95	49.15
691.08	23.41
691.22	46.81
691.35	63.19
691.49	42.13
691.62	49.15
691.76	51.49
691.89	42.13
692.03	16.38
692.16	91.28
692.30	16.38
692.43	46.81
692.57	4.68
692.70	25.75
692.84	0.00
692.97	51.49
693.11	16.38
693.24	65.54
693.38	56.17
693.51	2.34
693.65	124.05
693.78	81.92
693.92	16.38
694.05	81.92
694.19	114.69
694.32	51.49
694.45	16.38
694.59	56.17
694.72	0.00
694.86	60.85
694.99	39.79
695.13	70.22
695.26	28.09
695.39	58.51
695.53	42.13
695.66	72.56
695.80	65.54
695.93	42.13
696.07	84.26
696.20	0.00
696.33	0.00
696.47	0.00
696.60	23.41
696.73	11.70
696.87	65.54
697.00	23.41
697.14	0.00
697.27	4.68
697.40	42.13
697.54	0.00
697.67	9.36
697.80	44.47
697.94	93.62
698.07	0.00
698.21	0.00
698.34	0.00
698.47	9.36
698.61	91.28
698.74	39.79
698.87	86.60
699.01	21.06
699.14	32.77
699.27	51.49
699.40	65.54
699.54	18.72
699.67	0.00
699.80	67.88
699.94	0.00
700.07	51.49
700.20	7.02
700.34	0.00
700.47	91.28
700.60	23.41
700.73	30.43
700.87	44.47
701.00	16.38
701.13	0.00
701.26	0.00
701.40	53.83
701.53	37.45
701.66	0.00
701.79	23.41
701.93	65.54
702.06	46.81
702.19	32.77
702.32	42.13
702.46	49.15
702.59	37.45
702.72	65.54
702.85	35.11
702.99	14.04
703.12	42.13
703.25	124.05
703.38	67.88
703.51	32.77
703.65	18.72
703.78	86.60
703.91	60.85
704.04	35.11
704.17	35.11
704.31	7.02
704.44	56.17
704.57	0.00
704.70	63.19
704.83	37.45
704.96	18.72
705.10	58.51
705.23	84.26
>>>>>End Processed Spectral Data<<<<<
