SpectraSuite Data File
++++++++++++++++++++++++++++++++++++
Date: Fri Oct 04 12:13:29 GMT-05:00 2013
User: price-jones
Dark Spectrum Present: No
Reference Spectrum Present: No
Number of Sampled Component Spectra: 1
Spectrometers: USB2+H05261
Integration Time (usec): 10000 (USB2+H05261)
Spectra Averaged: 1 (USB2+H05261)
Boxcar Smoothing: 0 (USB2+H05261)
Correct for Electrical Dark: No (USB2+H05261)
Strobe/Lamp Enabled: No (USB2+H05261)
Correct for Detector Non-linearity: No (USB2+H05261)
Correct for Stray Light: No (USB2+H05261)
Number of Pixels in Processed Spectrum: 2048
>>>>>Begin Processed Spectral Data<<<<<
365.73	30.43
365.92	30.43
366.12	30.43
366.32	0.00
366.52	0.00
366.72	0.00
366.91	0.00
367.11	0.00
367.31	0.00
367.51	0.00
367.70	0.00
367.90	0.00
368.10	0.00
368.30	0.00
368.49	0.00
368.69	0.00
368.89	0.00
369.09	0.00
369.28	0.00
369.48	0.00
369.68	0.00
369.87	0.00
370.07	0.00
370.27	0.00
370.47	0.00
370.66	0.00
370.86	0.00
371.06	0.00
371.25	35.11
371.45	2.34
371.65	0.00
371.84	18.72
372.04	4.68
372.24	2.34
372.44	0.00
372.63	18.72
372.83	46.81
373.03	30.43
373.22	0.00
373.42	0.00
373.62	14.04
373.81	4.68
374.01	35.11
374.21	58.51
374.40	11.70
374.60	107.66
374.79	46.81
374.99	46.81
375.19	23.41
375.38	46.81
375.58	0.00
375.78	2.34
375.97	7.02
376.17	25.75
376.37	42.13
376.56	46.81
376.76	0.00
376.95	46.81
377.15	7.02
377.35	0.00
377.54	46.81
377.74	77.24
377.93	60.85
378.13	0.00
378.33	0.00
378.52	42.13
378.72	51.49
378.91	18.72
379.11	39.79
379.31	93.62
379.50	46.81
379.70	18.72
379.89	0.00
380.09	14.04
380.28	25.75
380.48	42.13
380.68	0.00
380.87	30.43
381.07	21.06
381.26	4.68
381.46	0.00
381.65	0.00
381.85	0.00
382.04	0.00
382.24	35.11
382.43	70.22
382.63	72.56
382.83	44.47
383.02	105.32
383.22	30.43
383.41	35.11
383.61	28.09
383.80	0.00
384.00	25.75
384.19	7.02
384.39	49.15
384.58	0.00
384.78	21.06
384.97	63.19
385.17	77.24
385.36	14.04
385.56	0.00
385.75	2.34
385.95	67.88
386.14	21.06
386.34	0.00
386.53	0.00
386.72	25.75
386.92	0.00
387.11	63.19
387.31	0.00
387.50	42.13
387.70	63.19
387.89	67.88
388.09	14.04
388.28	4.68
388.48	65.54
388.67	0.00
388.86	25.75
389.06	18.72
389.25	88.94
389.45	46.81
389.64	0.00
389.84	23.41
390.03	0.00
390.22	60.85
390.42	0.00
390.61	39.79
390.81	28.09
391.00	25.75
391.19	72.56
391.39	7.02
391.58	4.68
391.78	0.00
391.97	16.38
392.16	77.24
392.36	0.00
392.55	79.58
392.75	7.02
392.94	11.70
393.13	72.56
393.33	23.41
393.52	28.09
393.71	77.24
393.91	0.00
394.10	25.75
394.29	28.09
394.49	39.79
394.68	0.00
394.88	0.00
395.07	0.00
395.26	9.36
395.46	39.79
395.65	21.06
395.84	37.45
396.04	0.00
396.23	23.41
396.42	23.41
396.62	42.13
396.81	35.11
397.00	39.79
397.19	11.70
397.39	124.05
397.58	9.36
397.77	0.00
397.97	0.00
398.16	0.00
398.35	4.68
398.55	79.58
398.74	39.79
398.93	11.70
399.12	0.00
399.32	39.79
399.51	16.38
399.70	39.79
399.90	4.68
400.09	0.00
400.28	37.45
400.47	0.00
400.67	0.00
400.86	14.04
401.05	32.77
401.24	23.41
401.44	35.11
401.63	0.00
401.82	9.36
402.01	0.00
402.21	0.00
402.40	63.19
402.59	53.83
402.78	91.28
402.97	46.81
403.17	9.36
403.36	9.36
403.55	11.70
403.74	7.02
403.93	81.92
404.13	42.13
404.32	0.00
404.51	58.51
404.70	35.11
404.89	0.00
405.09	42.13
405.28	42.13
405.47	28.09
405.66	49.15
405.85	32.77
406.05	0.00
406.24	0.00
406.43	25.75
406.62	9.36
406.81	53.83
407.00	0.00
407.20	35.11
407.39	7.02
407.58	32.77
407.77	0.00
407.96	81.92
408.15	79.58
408.34	0.00
408.54	11.70
408.73	0.00
408.92	0.00
409.11	37.45
409.30	49.15
409.49	14.04
409.68	14.04
409.87	0.00
410.07	39.79
410.26	35.11
410.45	14.04
410.64	56.17
410.83	0.00
411.02	53.83
411.21	60.85
411.40	30.43
411.59	63.19
411.78	7.02
411.98	0.00
412.17	2.34
412.36	56.17
412.55	84.26
412.74	93.62
412.93	74.90
413.12	30.43
413.31	4.68
413.50	0.00
413.69	18.72
413.88	0.00
414.07	58.51
414.26	49.15
414.45	32.77
414.64	9.36
414.83	79.58
415.02	0.00
415.22	42.13
415.41	46.81
415.60	0.00
415.79	42.13
415.98	67.88
416.17	32.77
416.36	56.17
416.55	7.02
416.74	0.00
416.93	30.43
417.12	0.00
417.31	102.98
417.50	7.02
417.69	37.45
417.88	0.00
418.07	18.72
418.26	0.00
418.45	56.17
418.64	23.41
418.83	2.34
419.02	25.75
419.21	51.49
419.39	39.79
419.58	63.19
419.77	86.60
419.96	0.00
420.15	25.75
420.34	37.45
420.53	117.03
420.72	30.43
420.91	9.36
421.10	0.00
421.29	9.36
421.48	14.04
421.67	56.17
421.86	53.83
422.05	0.00
422.24	35.11
422.43	9.36
422.61	39.79
422.80	56.17
422.99	56.17
423.18	63.19
423.37	37.45
423.56	63.19
423.75	9.36
423.94	107.66
424.13	49.15
424.32	0.00
424.50	0.00
424.69	53.83
424.88	14.04
425.07	0.00
425.26	25.75
425.45	72.56
425.64	63.19
425.83	32.77
426.01	35.11
426.20	51.49
426.39	63.19
426.58	0.00
426.77	53.83
426.96	0.00
427.15	18.72
427.33	4.68
427.52	39.79
427.71	72.56
427.90	60.85
428.09	16.38
428.28	28.09
428.46	98.30
428.65	0.00
428.84	32.77
429.03	0.00
429.22	53.83
429.40	77.24
429.59	49.15
429.78	58.51
429.97	56.17
430.16	0.00
430.34	0.00
430.53	4.68
430.72	30.43
430.91	32.77
431.10	14.04
431.28	46.81
431.47	74.90
431.66	35.11
431.85	0.00
432.03	0.00
432.22	70.22
432.41	7.02
432.60	39.79
432.79	30.43
432.97	72.56
433.16	51.49
433.35	95.96
433.54	0.00
433.72	11.70
433.91	30.43
434.10	46.81
434.28	16.38
434.47	0.00
434.66	7.02
434.85	37.45
435.03	21.06
435.22	0.00
435.41	58.51
435.59	28.09
435.78	0.00
435.97	53.83
436.16	0.00
436.34	35.11
436.53	175.54
436.72	53.83
436.90	65.54
437.09	39.79
437.28	21.06
437.46	39.79
437.65	46.81
437.84	21.06
438.02	11.70
438.21	37.45
438.40	0.00
438.58	16.38
438.77	65.54
438.96	25.75
439.14	53.83
439.33	74.90
439.52	0.00
439.70	0.00
439.89	49.15
440.08	32.77
440.26	7.02
440.45	35.11
440.63	25.75
440.82	74.90
441.01	23.41
441.19	16.38
441.38	107.66
441.57	2.34
441.75	49.15
441.94	7.02
442.12	23.41
442.31	7.02
442.50	28.09
442.68	105.32
442.87	95.96
443.05	46.81
443.24	58.51
443.43	11.70
443.61	0.00
443.80	28.09
443.98	37.45
444.17	30.43
444.35	37.45
444.54	49.15
444.73	35.11
444.91	0.00
445.10	0.00
445.28	72.56
445.47	30.43
445.65	0.00
445.84	42.13
446.02	84.26
446.21	102.98
446.39	65.54
446.58	74.90
446.77	74.90
446.95	53.83
447.14	35.11
447.32	21.06
447.51	30.43
447.69	9.36
447.88	37.45
448.06	0.00
448.25	112.35
448.43	23.41
448.62	25.75
448.80	81.92
448.99	0.00
449.17	35.11
449.36	0.00
449.54	49.15
449.73	58.51
449.91	0.00
450.10	4.68
450.28	32.77
450.46	9.36
450.65	21.06
450.83	14.04
451.02	25.75
451.20	56.17
451.39	9.36
451.57	77.24
451.76	32.77
451.94	11.70
452.13	9.36
452.31	14.04
452.49	0.00
452.68	0.00
452.86	128.73
453.05	72.56
453.23	23.41
453.42	58.51
453.60	0.00
453.78	0.00
453.97	58.51
454.15	95.96
454.34	95.96
454.52	77.24
454.70	18.72
454.89	11.70
455.07	4.68
455.26	0.00
455.44	72.56
455.62	32.77
455.81	25.75
455.99	0.00
456.17	25.75
456.36	39.79
456.54	0.00
456.73	0.00
456.91	14.04
457.09	93.62
457.28	88.94
457.46	30.43
457.64	37.45
457.83	56.17
458.01	74.90
458.19	32.77
458.38	11.70
458.56	0.00
458.74	0.00
458.93	0.00
459.11	21.06
459.29	72.56
459.48	53.83
459.66	58.51
459.84	35.11
460.03	4.68
460.21	0.00
460.39	11.70
460.57	0.00
460.76	72.56
460.94	49.15
461.12	28.09
461.31	88.94
461.49	65.54
461.67	4.68
461.85	42.13
462.04	53.83
462.22	131.07
462.40	35.11
462.59	21.06
462.77	86.60
462.95	0.00
463.13	44.47
463.32	86.60
463.50	14.04
463.68	28.09
463.86	39.79
464.05	65.54
464.23	0.00
464.41	63.19
464.59	21.06
464.78	0.00
464.96	0.00
465.14	46.81
465.32	0.00
465.50	9.36
465.69	28.09
465.87	70.22
466.05	70.22
466.23	39.79
466.41	56.17
466.60	37.45
466.78	67.88
466.96	32.77
467.14	0.00
467.32	105.32
467.51	0.00
467.69	18.72
467.87	14.04
468.05	49.15
468.23	2.34
468.41	58.51
468.60	0.00
468.78	46.81
468.96	53.83
469.14	4.68
469.32	88.94
469.50	0.00
469.69	51.49
469.87	0.00
470.05	65.54
470.23	65.54
470.41	35.11
470.59	14.04
470.77	0.00
470.95	63.19
471.14	112.35
471.32	88.94
471.50	42.13
471.68	0.00
471.86	18.72
472.04	37.45
472.22	58.51
472.40	18.72
472.58	44.47
472.77	9.36
472.95	65.54
473.13	0.00
473.31	39.79
473.49	0.00
473.67	58.51
473.85	79.58
474.03	0.00
474.21	60.85
474.39	11.70
474.57	28.09
474.75	58.51
474.93	77.24
475.12	7.02
475.30	16.38
475.48	70.22
475.66	18.72
475.84	53.83
476.02	18.72
476.20	11.70
476.38	18.72
476.56	30.43
476.74	51.49
476.92	70.22
477.10	56.17
477.28	25.75
477.46	0.00
477.64	25.75
477.82	7.02
478.00	49.15
478.18	49.15
478.36	35.11
478.54	37.45
478.72	4.68
478.90	4.68
479.08	7.02
479.26	32.77
479.44	0.00
479.62	53.83
479.80	74.90
479.98	30.43
480.16	28.09
480.34	0.00
480.52	49.15
480.70	30.43
480.88	39.79
481.06	42.13
481.24	0.00
481.41	16.38
481.59	53.83
481.77	42.13
481.95	53.83
482.13	9.36
482.31	18.72
482.49	42.13
482.67	44.47
482.85	117.03
483.03	100.64
483.21	58.51
483.39	60.85
483.57	46.81
483.74	28.09
483.92	18.72
484.10	0.00
484.28	0.00
484.46	35.11
484.64	0.00
484.82	0.00
485.00	74.90
485.18	0.00
485.35	79.58
485.53	0.00
485.71	23.41
485.89	30.43
486.07	91.28
486.25	37.45
486.43	16.38
486.61	63.19
486.78	70.22
486.96	42.13
487.14	70.22
487.32	37.45
487.50	0.00
487.68	16.38
487.85	70.22
488.03	77.24
488.21	65.54
488.39	86.60
488.57	35.11
488.75	2.34
488.92	131.07
489.10	74.90
489.28	18.72
489.46	28.09
489.64	37.45
489.81	42.13
489.99	84.26
490.17	124.05
490.35	0.00
490.53	0.00
490.70	32.77
490.88	81.92
491.06	65.54
491.24	53.83
491.41	72.56
491.59	117.03
491.77	46.81
491.95	0.00
492.13	32.77
492.30	21.06
492.48	23.41
492.66	11.70
492.84	21.06
493.01	16.38
493.19	30.43
493.37	46.81
493.54	53.83
493.72	9.36
493.90	53.83
494.08	0.00
494.25	77.24
494.43	0.00
494.61	86.60
494.79	25.75
494.96	37.45
495.14	32.77
495.32	7.02
495.49	53.83
495.67	4.68
495.85	60.85
496.02	21.06
496.20	105.32
496.38	21.06
496.55	14.04
496.73	74.90
496.91	60.85
497.09	0.00
497.26	0.00
497.44	0.00
497.62	74.90
497.79	58.51
497.97	16.38
498.14	53.83
498.32	166.18
498.50	51.49
498.67	79.58
498.85	84.26
499.03	56.17
499.20	51.49
499.38	4.68
499.56	42.13
499.73	77.24
499.91	79.58
500.08	53.83
500.26	42.13
500.44	77.24
500.61	74.90
500.79	46.81
500.97	51.49
501.14	21.06
501.32	32.77
501.49	70.22
501.67	46.81
501.84	46.81
502.02	91.28
502.20	11.70
502.37	84.26
502.55	0.00
502.72	46.81
502.90	58.51
503.07	44.47
503.25	0.00
503.43	88.94
503.60	46.81
503.78	46.81
503.95	51.49
504.13	72.56
504.30	102.98
504.48	9.36
504.65	7.02
504.83	49.15
505.01	107.66
505.18	0.00
505.36	72.56
505.53	14.04
505.71	105.32
505.88	63.19
506.06	23.41
506.23	60.85
506.41	21.06
506.58	39.79
506.76	58.51
506.93	37.45
507.11	21.06
507.28	100.64
507.46	37.45
507.63	72.56
507.81	0.00
507.98	51.49
508.16	37.45
508.33	0.00
508.50	0.00
508.68	32.77
508.85	67.88
509.03	65.54
509.20	86.60
509.38	0.00
509.55	0.00
509.73	0.00
509.90	4.68
510.08	58.51
510.25	91.28
510.42	70.22
510.60	23.41
510.77	112.35
510.95	14.04
511.12	0.00
511.30	53.83
511.47	84.26
511.64	28.09
511.82	51.49
511.99	91.28
512.17	72.56
512.34	0.00
512.51	65.54
512.69	0.00
512.86	81.92
513.04	16.38
513.21	0.00
513.38	0.00
513.56	49.15
513.73	0.00
513.90	44.47
514.08	28.09
514.25	91.28
514.43	16.38
514.60	0.00
514.77	18.72
514.95	74.90
515.12	0.00
515.29	46.81
515.47	18.72
515.64	65.54
515.81	32.77
515.99	56.17
516.16	65.54
516.33	100.64
516.51	95.96
516.68	44.47
516.85	42.13
517.03	0.00
517.20	51.49
517.37	58.51
517.54	21.06
517.72	91.28
517.89	74.90
518.06	25.75
518.24	44.47
518.41	95.96
518.58	49.15
518.75	51.49
518.93	0.00
519.10	72.56
519.27	28.09
519.45	0.00
519.62	32.77
519.79	42.13
519.96	74.90
520.14	0.00
520.31	124.05
520.48	0.00
520.65	28.09
520.83	77.24
521.00	42.13
521.17	0.00
521.34	77.24
521.52	28.09
521.69	30.43
521.86	42.13
522.03	0.00
522.20	23.41
522.38	46.81
522.55	28.09
522.72	79.58
522.89	63.19
523.07	23.41
523.24	46.81
523.41	74.90
523.58	7.02
523.75	21.06
523.92	37.45
524.10	49.15
524.27	70.22
524.44	0.00
524.61	23.41
524.78	32.77
524.96	42.13
525.13	0.00
525.30	44.47
525.47	53.83
525.64	102.98
525.81	25.75
525.98	0.00
526.16	21.06
526.33	35.11
526.50	28.09
526.67	14.04
526.84	0.00
527.01	0.00
527.18	11.70
527.36	0.00
527.53	4.68
527.70	7.02
527.87	58.51
528.04	42.13
528.21	121.71
528.38	35.11
528.55	30.43
528.72	60.85
528.89	4.68
529.07	60.85
529.24	21.06
529.41	100.64
529.58	53.83
529.75	79.58
529.92	72.56
530.09	0.00
530.26	117.03
530.43	21.06
530.60	39.79
530.77	18.72
530.94	30.43
531.11	9.36
531.28	14.04
531.46	28.09
531.63	0.00
531.80	23.41
531.97	14.04
532.14	0.00
532.31	67.88
532.48	4.68
532.65	30.43
532.82	98.30
532.99	77.24
533.16	70.22
533.33	0.00
533.50	23.41
533.67	28.09
533.84	53.83
534.01	105.32
534.18	49.15
534.35	102.98
534.52	16.38
534.69	0.00
534.86	105.32
535.03	11.70
535.20	51.49
535.37	67.88
535.54	16.38
535.71	46.81
535.88	53.83
536.05	46.81
536.22	0.00
536.38	9.36
536.55	95.96
536.72	63.19
536.89	35.11
537.06	67.88
537.23	39.79
537.40	7.02
537.57	63.19
537.74	32.77
537.91	70.22
538.08	9.36
538.25	72.56
538.42	0.00
538.59	81.92
538.75	11.70
538.92	49.15
539.09	23.41
539.26	105.32
539.43	79.58
539.60	145.11
539.77	124.05
539.94	126.39
540.11	142.77
540.28	39.79
540.44	53.83
540.61	18.72
540.78	35.11
540.95	0.00
541.12	32.77
541.29	9.36
541.46	49.15
541.62	98.30
541.79	35.11
541.96	21.06
542.13	0.00
542.30	70.22
542.47	0.00
542.63	107.66
542.80	16.38
542.97	0.00
543.14	16.38
543.31	0.00
543.48	35.11
543.64	81.92
543.81	100.64
543.98	42.13
544.15	100.64
544.32	105.32
544.48	32.77
544.65	42.13
544.82	7.02
544.99	0.00
545.16	81.92
545.32	0.00
545.49	79.58
545.66	21.06
545.83	58.51
546.00	42.13
546.16	51.49
546.33	60.85
546.50	30.43
546.67	7.02
546.83	105.32
547.00	37.45
547.17	72.56
547.34	65.54
547.50	53.83
547.67	81.92
547.84	91.28
548.00	72.56
548.17	18.72
548.34	0.00
548.51	30.43
548.67	14.04
548.84	88.94
549.01	98.30
549.18	32.77
549.34	0.00
549.51	21.06
549.68	16.38
549.84	0.00
550.01	60.85
550.18	0.00
550.34	53.83
550.51	79.58
550.68	0.00
550.84	51.49
551.01	21.06
551.18	56.17
551.34	39.79
551.51	0.00
551.68	18.72
551.84	0.00
552.01	81.92
552.18	2.34
552.34	84.26
552.51	14.04
552.68	81.92
552.84	67.88
553.01	63.19
553.18	46.81
553.34	21.06
553.51	46.81
553.67	14.04
553.84	58.51
554.01	42.13
554.17	53.83
554.34	11.70
554.51	28.09
554.67	44.47
554.84	46.81
555.00	18.72
555.17	74.90
555.33	84.26
555.50	28.09
555.67	46.81
555.83	32.77
556.00	63.19
556.16	126.39
556.33	0.00
556.50	28.09
556.66	81.92
556.83	79.58
556.99	28.09
557.16	0.00
557.32	63.19
557.49	16.38
557.65	42.13
557.82	9.36
557.98	72.56
558.15	25.75
558.32	60.85
558.48	18.72
558.65	32.77
558.81	107.66
558.98	100.64
559.14	0.00
559.31	91.28
559.47	18.72
559.64	37.45
559.80	37.45
559.97	65.54
560.13	60.85
560.30	23.41
560.46	58.51
560.63	30.43
560.79	67.88
560.96	63.19
561.12	74.90
561.29	51.49
561.45	56.17
561.61	39.79
561.78	51.49
561.94	70.22
562.11	60.85
562.27	0.00
562.44	7.02
562.60	0.00
562.77	32.77
562.93	86.60
563.10	67.88
563.26	44.47
563.42	51.49
563.59	0.00
563.75	46.81
563.92	2.34
564.08	14.04
564.24	39.79
564.41	37.45
564.57	14.04
564.74	35.11
564.90	14.04
565.07	60.85
565.23	21.06
565.39	86.60
565.56	2.34
565.72	11.70
565.88	79.58
566.05	32.77
566.21	58.51
566.38	25.75
566.54	7.02
566.70	79.58
566.87	35.11
567.03	67.88
567.19	102.98
567.36	0.00
567.52	35.11
567.68	35.11
567.85	88.94
568.01	4.68
568.17	18.72
568.34	79.58
568.50	110.01
568.66	93.62
568.83	119.37
568.99	0.00
569.15	37.45
569.32	46.81
569.48	39.79
569.64	25.75
569.81	51.49
569.97	30.43
570.13	77.24
570.30	4.68
570.46	72.56
570.62	37.45
570.78	79.58
570.95	28.09
571.11	84.26
571.27	25.75
571.43	30.43
571.60	37.45
571.76	35.11
571.92	91.28
572.09	58.51
572.25	18.72
572.41	0.00
572.57	39.79
572.74	56.17
572.90	35.11
573.06	7.02
573.22	60.85
573.38	9.36
573.55	74.90
573.71	18.72
573.87	7.02
574.03	11.70
574.20	28.09
574.36	21.06
574.52	28.09
574.68	21.06
574.84	30.43
575.01	84.26
575.17	56.17
575.33	14.04
575.49	37.45
575.65	72.56
575.82	51.49
575.98	128.73
576.14	74.90
576.30	100.64
576.46	124.05
576.62	91.28
576.79	135.75
576.95	56.17
577.11	58.51
577.27	49.15
577.43	18.72
577.59	58.51
577.75	46.81
577.92	95.96
578.08	63.19
578.24	35.11
578.40	0.00
578.56	37.45
578.72	49.15
578.88	77.24
579.04	23.41
579.21	91.28
579.37	39.79
579.53	56.17
579.69	51.49
579.85	39.79
580.01	58.51
580.17	70.22
580.33	0.00
580.49	42.13
580.65	114.69
580.82	63.19
580.98	2.34
581.14	0.00
581.30	14.04
581.46	39.79
581.62	60.85
581.78	49.15
581.94	70.22
582.10	42.13
582.26	72.56
582.42	67.88
582.58	51.49
582.74	42.13
582.90	25.75
583.06	53.83
583.22	79.58
583.38	28.09
583.54	58.51
583.70	93.62
583.86	107.66
584.02	51.49
584.18	102.98
584.34	128.73
584.50	287.89
584.66	2017.54
584.82	4723.20
584.98	6443.49
585.14	5563.45
585.30	3438.25
585.46	2038.61
585.62	1331.76
585.78	582.79
585.94	325.33
586.10	180.22
586.26	128.73
586.42	100.64
586.58	102.98
586.74	117.03
586.90	84.26
587.06	98.30
587.22	112.35
587.38	74.90
587.54	117.03
587.70	311.29
587.86	458.74
588.02	433.00
588.18	360.44
588.34	315.97
588.49	191.92
588.65	177.88
588.81	102.98
588.97	14.04
589.13	18.72
589.29	53.83
589.45	91.28
589.61	0.00
589.77	133.41
589.93	49.15
590.08	42.13
590.24	138.09
590.40	0.00
590.56	124.05
590.72	65.54
590.88	37.45
591.04	42.13
591.20	72.56
591.35	11.70
591.51	63.19
591.67	16.38
591.83	37.45
591.99	46.81
592.15	128.73
592.31	74.90
592.46	30.43
592.62	16.38
592.78	58.51
592.94	56.17
593.10	2.34
593.26	42.13
593.41	37.45
593.57	44.47
593.73	49.15
593.89	257.46
594.05	550.03
594.20	809.83
594.36	763.01
594.52	524.28
594.68	360.44
594.84	227.03
594.99	128.73
595.15	117.03
595.31	37.45
595.47	21.06
595.62	77.24
595.78	51.49
595.94	56.17
596.10	42.13
596.25	37.45
596.41	81.92
596.57	67.88
596.73	42.13
596.88	72.56
597.04	114.69
597.20	224.69
597.36	231.71
597.51	205.97
597.67	121.71
597.83	93.62
597.99	142.77
598.14	145.11
598.30	51.49
598.46	11.70
598.61	18.72
598.77	14.04
598.93	65.54
599.09	74.90
599.24	0.00
599.40	42.13
599.56	39.79
599.71	70.22
599.87	37.45
600.03	65.54
600.18	42.13
600.34	30.43
600.50	16.38
600.65	46.81
600.81	65.54
600.97	102.98
601.12	16.38
601.28	9.36
601.44	93.62
601.59	0.00
601.75	14.04
601.91	65.54
602.06	25.75
602.22	28.09
602.37	121.71
602.53	177.88
602.69	255.12
602.84	252.78
603.00	168.52
603.16	112.35
603.31	147.45
603.47	60.85
603.62	60.85
603.78	7.02
603.94	37.45
604.09	65.54
604.25	53.83
604.40	0.00
604.56	21.06
604.71	0.00
604.87	42.13
605.03	46.81
605.18	56.17
605.34	42.13
605.49	70.22
605.65	23.41
605.80	0.00
605.96	44.47
606.12	0.00
606.27	25.75
606.43	58.51
606.58	74.90
606.74	145.11
606.89	320.65
607.05	561.73
607.20	741.95
607.36	608.54
607.51	461.09
607.67	257.46
607.82	147.45
607.98	133.41
608.13	4.68
608.29	53.83
608.44	110.01
608.60	18.72
608.75	81.92
608.91	126.39
609.06	500.87
609.22	1015.79
609.37	1170.27
609.53	1041.54
609.68	788.76
609.84	482.15
609.99	332.36
610.15	166.18
610.30	124.05
610.46	91.28
610.61	28.09
610.76	9.36
610.92	23.41
611.07	60.85
611.23	42.13
611.38	16.38
611.54	0.00
611.69	32.77
611.84	77.24
612.00	30.43
612.15	105.32
612.31	77.24
612.46	102.98
612.62	84.26
612.77	28.09
612.92	4.68
613.08	67.88
613.23	72.56
613.39	65.54
613.54	93.62
613.69	468.11
613.85	1259.21
614.00	1881.79
614.15	1811.57
614.31	1310.70
614.46	847.27
614.62	587.47
614.77	428.32
614.92	102.98
615.08	107.66
615.23	49.15
615.38	74.90
615.54	65.54
615.69	145.11
615.84	149.79
616.00	388.53
616.15	512.58
616.30	472.79
616.46	313.63
616.61	259.80
616.76	142.77
616.92	128.73
617.07	53.83
617.22	30.43
617.37	0.00
617.53	7.02
617.68	44.47
617.83	95.96
617.99	79.58
618.14	7.02
618.29	44.47
618.45	93.62
618.60	60.85
618.75	18.72
618.90	81.92
619.06	0.00
619.21	65.54
619.36	16.38
619.51	60.85
619.67	28.09
619.82	67.88
619.97	35.11
620.12	74.90
620.28	60.85
620.43	44.47
620.58	18.72
620.73	56.17
620.89	0.00
621.04	131.07
621.19	107.66
621.34	248.10
621.49	369.80
621.65	231.71
621.80	180.22
621.95	121.71
622.10	236.39
622.25	60.85
622.41	53.83
622.56	60.85
622.71	37.45
622.86	86.60
623.01	46.81
623.16	30.43
623.32	60.85
623.47	79.58
623.62	0.00
623.77	67.88
623.92	14.04
624.07	18.72
624.23	11.70
624.38	0.00
624.53	107.66
624.68	67.88
624.83	77.24
624.98	74.90
625.13	100.64
625.29	0.00
625.44	77.24
625.59	0.00
625.74	4.68
625.89	70.22
626.04	266.82
626.19	596.84
626.34	814.51
626.49	1027.50
626.65	812.17
626.80	568.75
626.95	334.70
627.10	248.10
627.25	95.96
627.40	42.13
627.55	67.88
627.70	51.49
627.85	110.01
628.00	56.17
628.15	112.35
628.30	21.06
628.45	72.56
628.60	84.26
628.76	0.00
628.91	39.79
629.06	65.54
629.21	25.75
629.36	67.88
629.51	30.43
629.66	51.49
629.81	51.49
629.96	196.60
630.11	161.50
630.26	255.12
630.41	222.35
630.56	180.22
630.71	135.75
630.86	156.82
631.01	63.19
631.16	42.13
631.31	60.85
631.46	37.45
631.61	18.72
631.76	0.00
631.91	0.00
632.06	21.06
632.21	0.00
632.36	2.34
632.51	0.00
632.66	39.79
632.81	105.32
632.96	353.42
633.10	521.94
633.25	660.03
633.40	648.33
633.55	414.27
633.70	283.20
633.85	154.48
634.00	84.26
634.15	51.49
634.30	91.28
634.45	53.83
634.60	39.79
634.75	35.11
634.90	42.13
635.05	39.79
635.19	86.60
635.34	77.24
635.49	77.24
635.64	84.26
635.79	0.00
635.94	9.36
636.09	9.36
636.24	86.60
636.39	37.45
636.53	23.41
636.68	81.92
636.83	51.49
636.98	53.83
637.13	0.00
637.28	46.81
637.43	46.81
637.57	114.69
637.72	297.25
637.87	830.89
638.02	1170.27
638.17	1299.00
638.32	875.36
638.46	648.33
638.61	521.94
638.76	255.12
638.91	138.09
639.06	93.62
639.20	100.64
639.35	105.32
639.50	138.09
639.65	510.24
639.80	1261.55
639.94	1734.34
640.09	1989.46
640.24	1481.56
640.39	992.39
640.54	645.99
640.68	430.66
640.83	182.56
640.98	135.75
641.13	60.85
641.27	60.85
641.42	51.49
641.57	49.15
641.72	135.75
641.86	53.83
642.01	18.72
642.16	51.49
642.31	70.22
642.45	35.11
642.60	4.68
642.75	65.54
642.90	2.34
643.04	53.83
643.19	0.00
643.34	16.38
643.48	30.43
643.63	88.94
643.78	67.88
643.93	124.05
644.07	58.51
644.22	0.00
644.37	0.00
644.51	7.02
644.66	28.09
644.81	16.38
644.95	91.28
645.10	37.45
645.25	88.94
645.39	124.05
645.54	4.68
645.69	39.79
645.83	0.00
645.98	0.00
646.13	4.68
646.27	46.81
646.42	0.00
646.57	84.26
646.71	100.64
646.86	30.43
647.00	25.75
647.15	72.56
647.30	60.85
647.44	44.47
647.59	0.00
647.74	35.11
647.88	0.00
648.03	0.00
648.17	25.75
648.32	16.38
648.47	46.81
648.61	88.94
648.76	81.92
648.90	23.41
649.05	56.17
649.20	21.06
649.34	77.24
649.49	86.60
649.63	53.83
649.78	0.00
649.92	63.19
650.07	283.20
650.21	589.82
650.36	894.08
650.51	936.21
650.65	866.00
650.80	554.71
650.94	418.96
651.09	248.10
651.23	128.73
651.38	65.54
651.52	4.68
651.67	37.45
651.81	72.56
651.96	65.54
652.10	53.83
652.25	114.69
652.39	131.07
652.54	51.49
652.68	79.58
652.83	187.24
652.97	393.21
653.12	362.78
653.26	337.04
653.41	252.78
653.55	126.39
653.70	67.88
653.84	16.38
653.99	67.88
654.13	102.98
654.27	0.00
654.42	44.47
654.56	21.06
654.71	14.04
654.85	35.11
655.00	74.90
655.14	77.24
655.29	39.79
655.43	28.09
655.57	107.66
655.72	32.77
655.86	21.06
656.01	28.09
656.15	79.58
656.30	60.85
656.44	23.41
656.58	9.36
656.73	42.13
656.87	67.88
657.01	39.79
657.16	100.64
657.30	9.36
657.45	91.28
657.59	84.26
657.73	23.41
657.88	58.51
658.02	72.56
658.16	51.49
658.31	56.17
658.45	72.56
658.60	46.81
658.74	4.68
658.88	65.54
659.03	9.36
659.17	100.64
659.31	114.69
659.46	278.52
659.60	425.98
659.74	395.55
659.89	348.74
660.03	306.61
660.17	236.39
660.32	91.28
660.46	74.90
660.60	95.96
660.74	98.30
660.89	28.09
661.03	32.77
661.17	46.81
661.32	30.43
661.46	32.77
661.60	51.49
661.74	11.70
661.89	117.03
662.03	51.49
662.17	53.83
662.31	46.81
662.46	63.19
662.60	32.77
662.74	7.02
662.88	28.09
663.03	56.17
663.17	16.38
663.31	84.26
663.45	98.30
663.60	67.88
663.74	79.58
663.88	2.34
664.02	56.17
664.17	39.79
664.31	58.51
664.45	56.17
664.59	46.81
664.73	18.72
664.88	32.77
665.02	72.56
665.16	58.51
665.30	32.77
665.44	32.77
665.59	30.43
665.73	0.00
665.87	18.72
666.01	9.36
666.15	2.34
666.29	0.00
666.44	77.24
666.58	88.94
666.72	28.09
666.86	44.47
667.00	0.00
667.14	70.22
667.28	184.90
667.43	390.87
667.57	718.54
667.71	936.21
667.85	844.93
667.99	531.30
668.13	393.21
668.27	182.56
668.41	77.24
668.56	4.68
668.70	70.22
668.84	0.00
668.98	49.15
669.12	98.30
669.26	53.83
669.40	42.13
669.54	81.92
669.68	0.00
669.82	88.94
669.96	39.79
670.10	0.00
670.25	0.00
670.39	2.34
670.53	77.24
670.67	0.00
670.81	58.51
670.95	16.38
671.09	32.77
671.23	196.60
671.37	449.38
671.51	580.45
671.65	580.45
671.79	418.96
671.93	280.86
672.07	243.42
672.21	131.07
672.35	35.11
672.49	0.00
672.63	37.45
672.77	0.00
672.91	23.41
673.05	21.06
673.19	77.24
673.33	49.15
673.47	0.00
673.61	18.72
673.75	14.04
673.89	0.00
674.03	0.00
674.17	46.81
674.31	67.88
674.45	0.00
674.59	18.72
674.73	35.11
674.87	32.77
675.01	42.13
675.15	4.68
675.29	81.92
675.43	51.49
675.56	65.54
675.70	67.88
675.84	28.09
675.98	11.70
676.12	35.11
676.26	0.00
676.40	53.83
676.54	0.00
676.68	7.02
676.82	95.96
676.96	39.79
677.10	14.04
677.23	28.09
677.37	56.17
677.51	32.77
677.65	63.19
677.79	67.88
677.93	74.90
678.07	91.28
678.21	51.49
678.34	37.45
678.48	32.77
678.62	51.49
678.76	72.56
678.90	35.11
679.04	0.00
679.18	95.96
679.31	18.72
679.45	0.00
679.59	35.11
679.73	58.51
679.87	39.79
680.00	30.43
680.14	93.62
680.28	86.60
680.42	25.75
680.56	0.00
680.70	23.41
680.83	0.00
680.97	46.81
681.11	53.83
681.25	7.02
681.39	49.15
681.52	0.00
681.66	2.34
681.80	28.09
681.94	11.70
682.07	0.00
682.21	95.96
682.35	0.00
682.49	0.00
682.62	53.83
682.76	0.00
682.90	63.19
683.04	91.28
683.17	81.92
683.31	35.11
683.45	9.36
683.59	0.00
683.72	60.85
683.86	42.13
684.00	0.00
684.13	16.38
684.27	28.09
684.41	0.00
684.55	51.49
684.68	18.72
684.82	7.02
684.96	25.75
685.09	56.17
685.23	67.88
685.37	65.54
685.50	60.85
685.64	0.00
685.78	0.00
685.91	39.79
686.05	7.02
686.19	0.00
686.32	32.77
686.46	60.85
686.60	70.22
686.73	77.24
686.87	23.41
687.01	14.04
687.14	0.00
687.28	16.38
687.42	35.11
687.55	42.13
687.69	0.00
687.82	0.00
687.96	0.00
688.10	49.15
688.23	18.72
688.37	86.60
688.50	0.00
688.64	60.85
688.78	0.00
688.91	32.77
689.05	11.70
689.18	67.88
689.32	39.79
689.46	0.00
689.59	28.09
689.73	37.45
689.86	0.00
690.00	65.54
690.13	88.94
690.27	0.00
690.41	58.51
690.54	44.47
690.68	21.06
690.81	67.88
690.95	65.54
691.08	44.47
691.22	56.17
691.35	0.00
691.49	44.47
691.62	49.15
691.76	0.00
691.89	119.37
692.03	77.24
692.16	63.19
692.30	0.00
692.43	124.05
692.57	259.80
692.70	322.99
692.84	358.10
692.97	402.57
693.11	318.31
693.24	159.16
693.38	70.22
693.51	114.69
693.65	114.69
693.78	91.28
693.92	37.45
694.05	58.51
694.19	7.02
694.32	72.56
694.45	58.51
694.59	39.79
694.72	0.00
694.86	81.92
694.99	0.00
695.13	79.58
695.26	28.09
695.39	0.00
695.53	88.94
695.66	74.90
695.80	39.79
695.93	46.81
696.07	9.36
696.20	93.62
696.33	65.54
696.47	70.22
696.60	102.98
696.73	72.56
696.87	11.70
697.00	63.19
697.14	63.19
697.27	65.54
697.40	56.17
697.54	0.00
697.67	14.04
697.80	16.38
697.94	58.51
698.07	102.98
698.21	100.64
698.34	14.04
698.47	63.19
698.61	0.00
698.74	35.11
698.87	2.34
699.01	0.00
699.14	32.77
699.27	21.06
699.40	9.36
699.54	44.47
699.67	65.54
699.80	0.00
699.94	56.17
700.07	32.77
700.20	0.00
700.34	39.79
700.47	9.36
700.60	44.47
700.73	39.79
700.87	46.81
701.00	9.36
701.13	86.60
701.26	30.43
701.40	67.88
701.53	65.54
701.66	81.92
701.79	72.56
701.93	21.06
702.06	0.00
702.19	16.38
702.32	124.05
702.46	7.02
702.59	67.88
702.72	49.15
702.85	297.25
702.99	571.09
703.12	587.47
703.25	809.83
703.38	669.39
703.51	458.74
703.65	374.49
703.78	234.05
703.91	203.63
704.04	156.82
704.17	58.51
704.31	46.81
704.44	42.13
704.57	42.13
704.70	23.41
704.83	7.02
704.96	0.00
705.10	28.09
705.23	65.54
>>>>>End Processed Spectral Data<<<<<
