SpectraSuite Data File
++++++++++++++++++++++++++++++++++++
Date: Fri Oct 04 12:13:39 GMT-05:00 2013
User: price-jones
Dark Spectrum Present: No
Reference Spectrum Present: No
Number of Sampled Component Spectra: 1
Spectrometers: USB2+H05261
Integration Time (usec): 10000 (USB2+H05261)
Spectra Averaged: 1 (USB2+H05261)
Boxcar Smoothing: 0 (USB2+H05261)
Correct for Electrical Dark: No (USB2+H05261)
Strobe/Lamp Enabled: No (USB2+H05261)
Correct for Detector Non-linearity: No (USB2+H05261)
Correct for Stray Light: No (USB2+H05261)
Number of Pixels in Processed Spectrum: 2048
>>>>>Begin Processed Spectral Data<<<<<
365.73	0.00
365.92	0.00
366.12	0.00
366.32	0.00
366.52	0.00
366.72	0.00
366.91	0.00
367.11	0.00
367.31	0.00
367.51	0.00
367.70	0.00
367.90	0.00
368.10	0.00
368.30	0.00
368.49	0.00
368.69	0.00
368.89	0.00
369.09	0.00
369.28	0.00
369.48	0.00
369.68	0.00
369.87	0.00
370.07	0.00
370.27	0.00
370.47	0.00
370.66	0.00
370.86	0.00
371.06	0.00
371.25	0.00
371.45	44.47
371.65	14.04
371.84	39.79
372.04	28.09
372.24	0.00
372.44	0.00
372.63	21.06
372.83	32.77
373.03	58.51
373.22	0.00
373.42	0.00
373.62	23.41
373.81	56.17
374.01	7.02
374.21	30.43
374.40	18.72
374.60	9.36
374.79	37.45
374.99	0.00
375.19	21.06
375.38	11.70
375.58	25.75
375.78	77.24
375.97	51.49
376.17	60.85
376.37	81.92
376.56	0.00
376.76	65.54
376.95	46.81
377.15	74.90
377.35	39.79
377.54	0.00
377.74	23.41
377.93	56.17
378.13	42.13
378.33	0.00
378.52	0.00
378.72	16.38
378.91	46.81
379.11	18.72
379.31	30.43
379.50	65.54
379.70	18.72
379.89	11.70
380.09	46.81
380.28	39.79
380.48	21.06
380.68	0.00
380.87	63.19
381.07	23.41
381.26	84.26
381.46	0.00
381.65	67.88
381.85	2.34
382.04	0.00
382.24	25.75
382.43	18.72
382.63	11.70
382.83	39.79
383.02	44.47
383.22	0.00
383.41	37.45
383.61	58.51
383.80	42.13
384.00	58.51
384.19	0.00
384.39	0.00
384.58	79.58
384.78	44.47
384.97	25.75
385.17	65.54
385.36	0.00
385.56	0.00
385.75	42.13
385.95	42.13
386.14	0.00
386.34	56.17
386.53	37.45
386.72	0.00
386.92	0.00
387.11	0.00
387.31	16.38
387.50	11.70
387.70	60.85
387.89	0.00
388.09	51.49
388.28	32.77
388.48	56.17
388.67	0.00
388.86	16.38
389.06	30.43
389.25	72.56
389.45	70.22
389.64	51.49
389.84	0.00
390.03	37.45
390.22	95.96
390.42	0.00
390.61	42.13
390.81	0.00
391.00	49.15
391.19	11.70
391.39	39.79
391.58	93.62
391.78	16.38
391.97	4.68
392.16	0.00
392.36	0.00
392.55	28.09
392.75	70.22
392.94	2.34
393.13	7.02
393.33	9.36
393.52	0.00
393.71	28.09
393.91	53.83
394.10	93.62
394.29	4.68
394.49	79.58
394.68	23.41
394.88	93.62
395.07	51.49
395.26	0.00
395.46	0.00
395.65	0.00
395.84	0.00
396.04	0.00
396.23	39.79
396.42	0.00
396.62	44.47
396.81	93.62
397.00	0.00
397.19	21.06
397.39	7.02
397.58	58.51
397.77	0.00
397.97	77.24
398.16	46.81
398.35	42.13
398.55	18.72
398.74	32.77
398.93	53.83
399.12	86.60
399.32	0.00
399.51	14.04
399.70	65.54
399.90	44.47
400.09	53.83
400.28	0.00
400.47	16.38
400.67	32.77
400.86	4.68
401.05	9.36
401.24	0.00
401.44	0.00
401.63	11.70
401.82	11.70
402.01	0.00
402.21	42.13
402.40	0.00
402.59	0.00
402.78	7.02
402.97	0.00
403.17	32.77
403.36	0.00
403.55	0.00
403.74	9.36
403.93	70.22
404.13	46.81
404.32	0.00
404.51	9.36
404.70	28.09
404.89	140.43
405.09	79.58
405.28	23.41
405.47	107.66
405.66	119.37
405.85	63.19
406.05	23.41
406.24	0.00
406.43	32.77
406.62	112.35
406.81	0.00
407.00	74.90
407.20	39.79
407.39	72.56
407.58	35.11
407.77	58.51
407.96	67.88
408.15	0.00
408.34	42.13
408.54	14.04
408.73	81.92
408.92	51.49
409.11	0.00
409.30	112.35
409.49	63.19
409.68	28.09
409.87	0.00
410.07	49.15
410.26	35.11
410.45	100.64
410.64	81.92
410.83	9.36
411.02	7.02
411.21	67.88
411.40	114.69
411.59	42.13
411.78	100.64
411.98	0.00
412.17	67.88
412.36	65.54
412.55	72.56
412.74	0.00
412.93	0.00
413.12	0.00
413.31	0.00
413.50	56.17
413.69	70.22
413.88	0.00
414.07	18.72
414.26	53.83
414.45	105.32
414.64	14.04
414.83	2.34
415.02	0.00
415.22	28.09
415.41	133.41
415.60	30.43
415.79	35.11
415.98	91.28
416.17	21.06
416.36	21.06
416.55	91.28
416.74	46.81
416.93	51.49
417.12	35.11
417.31	98.30
417.50	0.00
417.69	81.92
417.88	63.19
418.07	84.26
418.26	100.64
418.45	63.19
418.64	65.54
418.83	32.77
419.02	14.04
419.21	18.72
419.39	72.56
419.58	53.83
419.77	86.60
419.96	0.00
420.15	7.02
420.34	0.00
420.53	30.43
420.72	70.22
420.91	0.00
421.10	7.02
421.29	28.09
421.48	32.77
421.67	0.00
421.86	42.13
422.05	37.45
422.24	0.00
422.43	0.00
422.61	51.49
422.80	23.41
422.99	74.90
423.18	0.00
423.37	21.06
423.56	44.47
423.75	44.47
423.94	21.06
424.13	0.00
424.32	30.43
424.50	9.36
424.69	46.81
424.88	37.45
425.07	56.17
425.26	58.51
425.45	9.36
425.64	42.13
425.83	46.81
426.01	49.15
426.20	84.26
426.39	23.41
426.58	49.15
426.77	79.58
426.96	18.72
427.15	105.32
427.33	67.88
427.52	84.26
427.71	42.13
427.90	0.00
428.09	18.72
428.28	53.83
428.46	67.88
428.65	65.54
428.84	49.15
429.03	16.38
429.22	72.56
429.40	28.09
429.59	18.72
429.78	79.58
429.97	60.85
430.16	65.54
430.34	7.02
430.53	39.79
430.72	32.77
430.91	0.00
431.10	7.02
431.28	25.75
431.47	49.15
431.66	4.68
431.85	18.72
432.03	0.00
432.22	72.56
432.41	21.06
432.60	60.85
432.79	138.09
432.97	79.58
433.16	95.96
433.35	25.75
433.54	65.54
433.72	35.11
433.91	32.77
434.10	23.41
434.28	0.00
434.47	72.56
434.66	72.56
434.85	70.22
435.03	0.00
435.22	70.22
435.41	49.15
435.59	0.00
435.78	18.72
435.97	84.26
436.16	79.58
436.34	65.54
436.53	35.11
436.72	37.45
436.90	16.38
437.09	51.49
437.28	28.09
437.46	70.22
437.65	42.13
437.84	11.70
438.02	42.13
438.21	7.02
438.40	30.43
438.58	42.13
438.77	0.00
438.96	102.98
439.14	88.94
439.33	42.13
439.52	56.17
439.70	114.69
439.89	30.43
440.08	32.77
440.26	28.09
440.45	56.17
440.63	70.22
440.82	35.11
441.01	70.22
441.19	37.45
441.38	58.51
441.57	28.09
441.75	0.00
441.94	9.36
442.12	112.35
442.31	95.96
442.50	67.88
442.68	95.96
442.87	21.06
443.05	93.62
443.24	74.90
443.43	102.98
443.61	58.51
443.80	25.75
443.98	110.01
444.17	28.09
444.35	60.85
444.54	39.79
444.73	81.92
444.91	70.22
445.10	81.92
445.28	93.62
445.47	30.43
445.65	65.54
445.84	30.43
446.02	79.58
446.21	32.77
446.39	86.60
446.58	14.04
446.77	37.45
446.95	46.81
447.14	88.94
447.32	11.70
447.51	28.09
447.69	44.47
447.88	105.32
448.06	93.62
448.25	60.85
448.43	16.38
448.62	46.81
448.80	0.00
448.99	18.72
449.17	18.72
449.36	42.13
449.54	128.73
449.73	39.79
449.91	42.13
450.10	53.83
450.28	86.60
450.46	35.11
450.65	77.24
450.83	88.94
451.02	77.24
451.20	72.56
451.39	79.58
451.57	112.35
451.76	9.36
451.94	84.26
452.13	138.09
452.31	0.00
452.49	98.30
452.68	72.56
452.86	74.90
453.05	88.94
453.23	39.79
453.42	0.00
453.60	37.45
453.78	49.15
453.97	42.13
454.15	0.00
454.34	60.85
454.52	46.81
454.70	110.01
454.89	121.71
455.07	44.47
455.26	42.13
455.44	74.90
455.62	49.15
455.81	42.13
455.99	56.17
456.17	72.56
456.36	142.77
456.54	72.56
456.73	35.11
456.91	42.13
457.09	53.83
457.28	0.00
457.46	67.88
457.64	117.03
457.83	51.49
458.01	25.75
458.19	16.38
458.38	131.07
458.56	28.09
458.74	30.43
458.93	0.00
459.11	0.00
459.29	95.96
459.48	119.37
459.66	56.17
459.84	114.69
460.03	105.32
460.21	74.90
460.39	98.30
460.57	63.19
460.76	58.51
460.94	56.17
461.12	58.51
461.31	72.56
461.49	14.04
461.67	0.00
461.85	81.92
462.04	84.26
462.22	93.62
462.40	67.88
462.59	86.60
462.77	65.54
462.95	0.00
463.13	58.51
463.32	28.09
463.50	37.45
463.68	65.54
463.86	0.00
464.05	42.13
464.23	56.17
464.41	67.88
464.59	46.81
464.78	30.43
464.96	72.56
465.14	49.15
465.32	93.62
465.50	98.30
465.69	23.41
465.87	14.04
466.05	25.75
466.23	67.88
466.41	0.00
466.60	30.43
466.78	0.00
466.96	56.17
467.14	46.81
467.32	72.56
467.51	86.60
467.69	0.00
467.87	65.54
468.05	46.81
468.23	53.83
468.41	81.92
468.60	37.45
468.78	84.26
468.96	67.88
469.14	21.06
469.32	37.45
469.50	11.70
469.69	84.26
469.87	16.38
470.05	51.49
470.23	70.22
470.41	95.96
470.59	28.09
470.77	0.00
470.95	14.04
471.14	56.17
471.32	119.37
471.50	58.51
471.68	16.38
471.86	58.51
472.04	117.03
472.22	39.79
472.40	39.79
472.58	0.00
472.77	49.15
472.95	67.88
473.13	56.17
473.31	74.90
473.49	42.13
473.67	67.88
473.85	63.19
474.03	44.47
474.21	49.15
474.39	21.06
474.57	63.19
474.75	30.43
474.93	81.92
475.12	16.38
475.30	72.56
475.48	170.86
475.66	79.58
475.84	65.54
476.02	74.90
476.20	77.24
476.38	14.04
476.56	65.54
476.74	88.94
476.92	70.22
477.10	18.72
477.28	67.88
477.46	93.62
477.64	53.83
477.82	18.72
478.00	63.19
478.18	84.26
478.36	81.92
478.54	2.34
478.72	42.13
478.90	88.94
479.08	46.81
479.26	208.31
479.44	93.62
479.62	95.96
479.80	25.75
479.98	37.45
480.16	60.85
480.34	126.39
480.52	74.90
480.70	53.83
480.88	9.36
481.06	25.75
481.24	21.06
481.41	44.47
481.59	95.96
481.77	72.56
481.95	67.88
482.13	65.54
482.31	21.06
482.49	28.09
482.67	18.72
482.85	7.02
483.03	58.51
483.21	72.56
483.39	105.32
483.57	49.15
483.74	74.90
483.92	63.19
484.10	18.72
484.28	49.15
484.46	0.00
484.64	18.72
484.82	60.85
485.00	11.70
485.18	28.09
485.35	110.01
485.53	23.41
485.71	72.56
485.89	32.77
486.07	74.90
486.25	102.98
486.43	4.68
486.61	84.26
486.78	112.35
486.96	63.19
487.14	32.77
487.32	51.49
487.50	30.43
487.68	21.06
487.85	32.77
488.03	79.58
488.21	56.17
488.39	49.15
488.57	65.54
488.75	147.45
488.92	131.07
489.10	25.75
489.28	119.37
489.46	86.60
489.64	72.56
489.81	51.49
489.99	107.66
490.17	42.13
490.35	119.37
490.53	37.45
490.70	4.68
490.88	203.63
491.06	67.88
491.24	84.26
491.41	11.70
491.59	63.19
491.77	53.83
491.95	98.30
492.13	105.32
492.30	65.54
492.48	14.04
492.66	44.47
492.84	23.41
493.01	79.58
493.19	67.88
493.37	53.83
493.54	11.70
493.72	93.62
493.90	65.54
494.08	53.83
494.25	18.72
494.43	39.79
494.61	65.54
494.79	51.49
494.96	0.00
495.14	128.73
495.32	74.90
495.49	105.32
495.67	18.72
495.85	67.88
496.02	0.00
496.20	56.17
496.38	51.49
496.55	49.15
496.73	49.15
496.91	135.75
497.09	30.43
497.26	46.81
497.44	88.94
497.62	100.64
497.79	49.15
497.97	74.90
498.14	2.34
498.32	56.17
498.50	107.66
498.67	44.47
498.85	79.58
499.03	102.98
499.20	95.96
499.38	58.51
499.56	107.66
499.73	37.45
499.91	74.90
500.08	98.30
500.26	72.56
500.44	56.17
500.61	65.54
500.79	60.85
500.97	112.35
501.14	107.66
501.32	44.47
501.49	63.19
501.67	28.09
501.84	128.73
502.02	16.38
502.20	98.30
502.37	145.11
502.55	65.54
502.72	67.88
502.90	91.28
503.07	84.26
503.25	88.94
503.43	51.49
503.60	102.98
503.78	70.22
503.95	58.51
504.13	112.35
504.30	91.28
504.48	74.90
504.65	81.92
504.83	79.58
505.01	18.72
505.18	25.75
505.36	77.24
505.53	2.34
505.71	0.00
505.88	138.09
506.06	21.06
506.23	56.17
506.41	63.19
506.58	117.03
506.76	133.41
506.93	58.51
507.11	121.71
507.28	9.36
507.46	28.09
507.63	119.37
507.81	121.71
507.98	91.28
508.16	11.70
508.33	37.45
508.50	98.30
508.68	98.30
508.85	102.98
509.03	37.45
509.20	70.22
509.38	107.66
509.55	170.86
509.73	42.13
509.90	117.03
510.08	67.88
510.25	84.26
510.42	9.36
510.60	58.51
510.77	42.13
510.95	86.60
511.12	79.58
511.30	86.60
511.47	107.66
511.64	107.66
511.82	32.77
511.99	0.00
512.17	72.56
512.34	56.17
512.51	72.56
512.69	126.39
512.86	51.49
513.04	58.51
513.21	152.13
513.38	107.66
513.56	58.51
513.73	37.45
513.90	84.26
514.08	65.54
514.25	37.45
514.43	67.88
514.60	147.45
514.77	98.30
514.95	0.00
515.12	110.01
515.29	60.85
515.47	107.66
515.64	63.19
515.81	84.26
515.99	124.05
516.16	51.49
516.33	72.56
516.51	93.62
516.68	81.92
516.85	58.51
517.03	98.30
517.20	30.43
517.37	100.64
517.54	93.62
517.72	126.39
517.89	100.64
518.06	91.28
518.24	56.17
518.41	56.17
518.58	126.39
518.75	119.37
518.93	21.06
519.10	32.77
519.27	18.72
519.45	39.79
519.62	100.64
519.79	37.45
519.96	128.73
520.14	98.30
520.31	86.60
520.48	170.86
520.65	95.96
520.83	102.98
521.00	72.56
521.17	156.82
521.34	37.45
521.52	30.43
521.69	53.83
521.86	56.17
522.03	63.19
522.20	98.30
522.38	60.85
522.55	166.18
522.72	86.60
522.89	133.41
523.07	0.00
523.24	46.81
523.41	67.88
523.58	112.35
523.75	77.24
523.92	121.71
524.10	77.24
524.27	95.96
524.44	91.28
524.61	65.54
524.78	46.81
524.96	102.98
525.13	114.69
525.30	63.19
525.47	84.26
525.64	32.77
525.81	98.30
525.98	102.98
526.16	102.98
526.33	93.62
526.50	93.62
526.67	124.05
526.84	58.51
527.01	121.71
527.18	11.70
527.36	58.51
527.53	95.96
527.70	30.43
527.87	67.88
528.04	126.39
528.21	74.90
528.38	93.62
528.55	135.75
528.72	149.79
528.89	133.41
529.07	95.96
529.24	72.56
529.41	114.69
529.58	93.62
529.75	56.17
529.92	180.22
530.09	56.17
530.26	105.32
530.43	124.05
530.60	63.19
530.77	152.13
530.94	110.01
531.11	42.13
531.28	159.16
531.46	95.96
531.63	72.56
531.80	79.58
531.97	63.19
532.14	67.88
532.31	121.71
532.48	102.98
532.65	152.13
532.82	35.11
532.99	95.96
533.16	110.01
533.33	107.66
533.50	51.49
533.67	110.01
533.84	102.98
534.01	0.00
534.18	49.15
534.35	46.81
534.52	105.32
534.69	23.41
534.86	93.62
535.03	4.68
535.20	9.36
535.37	114.69
535.54	49.15
535.71	44.47
535.88	79.58
536.05	70.22
536.22	70.22
536.38	49.15
536.55	81.92
536.72	107.66
536.89	98.30
537.06	124.05
537.23	72.56
537.40	77.24
537.57	60.85
537.74	91.28
537.91	77.24
538.08	100.64
538.25	110.01
538.42	30.43
538.59	138.09
538.75	86.60
538.92	32.77
539.09	86.60
539.26	81.92
539.43	95.96
539.60	81.92
539.77	77.24
539.94	81.92
540.11	140.43
540.28	131.07
540.44	14.04
540.61	63.19
540.78	102.98
540.95	77.24
541.12	35.11
541.29	88.94
541.46	0.00
541.62	44.47
541.79	14.04
541.96	107.66
542.13	102.98
542.30	67.88
542.47	77.24
542.63	121.71
542.80	77.24
542.97	60.85
543.14	42.13
543.31	135.75
543.48	70.22
543.64	138.09
543.81	21.06
543.98	100.64
544.15	117.03
544.32	0.00
544.48	46.81
544.65	21.06
544.82	95.96
544.99	58.51
545.16	49.15
545.32	67.88
545.49	110.01
545.66	4.68
545.83	81.92
546.00	67.88
546.16	56.17
546.33	133.41
546.50	100.64
546.67	128.73
546.83	98.30
547.00	49.15
547.17	49.15
547.34	100.64
547.50	175.54
547.67	91.28
547.84	86.60
548.00	95.96
548.17	110.01
548.34	11.70
548.51	37.45
548.67	88.94
548.84	35.11
549.01	49.15
549.18	100.64
549.34	65.54
549.51	60.85
549.68	117.03
549.84	95.96
550.01	86.60
550.18	79.58
550.34	79.58
550.51	126.39
550.68	42.13
550.84	105.32
551.01	119.37
551.18	88.94
551.34	93.62
551.51	46.81
551.68	110.01
551.84	84.26
552.01	51.49
552.18	46.81
552.34	84.26
552.51	124.05
552.68	91.28
552.84	56.17
553.01	74.90
553.18	140.43
553.34	39.79
553.51	42.13
553.67	42.13
553.84	14.04
554.01	79.58
554.17	147.45
554.34	168.52
554.51	53.83
554.67	105.32
554.84	93.62
555.00	91.28
555.17	79.58
555.33	117.03
555.50	39.79
555.67	42.13
555.83	154.48
556.00	117.03
556.16	84.26
556.33	63.19
556.50	65.54
556.66	74.90
556.83	30.43
556.99	102.98
557.16	95.96
557.32	124.05
557.49	65.54
557.65	42.13
557.82	133.41
557.98	46.81
558.15	58.51
558.32	23.41
558.48	35.11
558.65	21.06
558.81	95.96
558.98	37.45
559.14	14.04
559.31	81.92
559.47	100.64
559.64	117.03
559.80	95.96
559.97	58.51
560.13	23.41
560.30	67.88
560.46	154.48
560.63	56.17
560.79	79.58
560.96	121.71
561.12	112.35
561.29	77.24
561.45	170.86
561.61	93.62
561.78	163.84
561.94	14.04
562.11	53.83
562.27	145.11
562.44	74.90
562.60	37.45
562.77	77.24
562.93	58.51
563.10	7.02
563.26	142.77
563.42	35.11
563.59	119.37
563.75	135.75
563.92	81.92
564.08	100.64
564.24	0.00
564.41	77.24
564.57	86.60
564.74	138.09
564.90	126.39
565.07	70.22
565.23	72.56
565.39	58.51
565.56	140.43
565.72	135.75
565.88	49.15
566.05	79.58
566.21	53.83
566.38	102.98
566.54	14.04
566.70	56.17
566.87	126.39
567.03	152.13
567.19	124.05
567.36	51.49
567.52	0.00
567.68	60.85
567.85	95.96
568.01	74.90
568.17	49.15
568.34	81.92
568.50	79.58
568.66	86.60
568.83	77.24
568.99	84.26
569.15	138.09
569.32	126.39
569.48	88.94
569.64	81.92
569.81	74.90
569.97	121.71
570.13	60.85
570.30	51.49
570.46	98.30
570.62	51.49
570.78	100.64
570.95	81.92
571.11	32.77
571.27	72.56
571.43	67.88
571.60	107.66
571.76	46.81
571.92	95.96
572.09	84.26
572.25	4.68
572.41	72.56
572.57	84.26
572.74	58.51
572.90	72.56
573.06	56.17
573.22	159.16
573.38	112.35
573.55	77.24
573.71	7.02
573.87	88.94
574.03	93.62
574.20	81.92
574.36	93.62
574.52	72.56
574.68	88.94
574.84	119.37
575.01	114.69
575.17	110.01
575.33	163.84
575.49	149.79
575.65	131.07
575.82	86.60
575.98	4.68
576.14	23.41
576.30	49.15
576.46	58.51
576.62	98.30
576.79	72.56
576.95	74.90
577.11	107.66
577.27	51.49
577.43	84.26
577.59	98.30
577.75	93.62
577.92	95.96
578.08	159.16
578.24	53.83
578.40	0.00
578.56	98.30
578.72	67.88
578.88	121.71
579.04	98.30
579.21	88.94
579.37	88.94
579.53	147.45
579.69	63.19
579.85	91.28
580.01	102.98
580.17	9.36
580.33	93.62
580.49	133.41
580.65	49.15
580.82	114.69
580.98	112.35
581.14	91.28
581.30	128.73
581.46	102.98
581.62	107.66
581.78	107.66
581.94	98.30
582.10	46.81
582.26	46.81
582.42	67.88
582.58	63.19
582.74	79.58
582.90	166.18
583.06	98.30
583.22	91.28
583.38	128.73
583.54	60.85
583.70	105.32
583.86	107.66
584.02	56.17
584.18	72.56
584.34	53.83
584.50	56.17
584.66	119.37
584.82	51.49
584.98	11.70
585.14	42.13
585.30	93.62
585.46	102.98
585.62	105.32
585.78	28.09
585.94	93.62
586.10	114.69
586.26	70.22
586.42	42.13
586.58	18.72
586.74	110.01
586.90	42.13
587.06	100.64
587.22	32.77
587.38	100.64
587.54	51.49
587.70	58.51
587.86	84.26
588.02	35.11
588.18	46.81
588.34	98.30
588.49	32.77
588.65	11.70
588.81	35.11
588.97	39.79
589.13	74.90
589.29	53.83
589.45	72.56
589.61	98.30
589.77	32.77
589.93	86.60
590.08	98.30
590.24	67.88
590.40	44.47
590.56	86.60
590.72	42.13
590.88	79.58
591.04	63.19
591.20	107.66
591.35	16.38
591.51	131.07
591.67	16.38
591.83	84.26
591.99	100.64
592.15	102.98
592.31	105.32
592.46	60.85
592.62	56.17
592.78	60.85
592.94	81.92
593.10	70.22
593.26	30.43
593.41	72.56
593.57	124.05
593.73	86.60
593.89	170.86
594.05	58.51
594.20	77.24
594.36	72.56
594.52	0.00
594.68	72.56
594.84	46.81
594.99	49.15
595.15	35.11
595.31	79.58
595.47	88.94
595.62	18.72
595.78	86.60
595.94	135.75
596.10	51.49
596.25	84.26
596.41	65.54
596.57	102.98
596.73	81.92
596.88	37.45
597.04	93.62
597.20	39.79
597.36	112.35
597.51	107.66
597.67	102.98
597.83	67.88
597.99	23.41
598.14	79.58
598.30	128.73
598.46	0.00
598.61	16.38
598.77	60.85
598.93	81.92
599.09	95.96
599.24	119.37
599.40	39.79
599.56	74.90
599.71	0.00
599.87	88.94
600.03	32.77
600.18	128.73
600.34	39.79
600.50	18.72
600.65	63.19
600.81	23.41
600.97	84.26
601.12	65.54
601.28	4.68
601.44	72.56
601.59	124.05
601.75	88.94
601.91	67.88
602.06	63.19
602.22	79.58
602.37	25.75
602.53	16.38
602.69	35.11
602.84	65.54
603.00	49.15
603.16	42.13
603.31	88.94
603.47	182.56
603.62	107.66
603.78	147.45
603.94	74.90
604.09	16.38
604.25	16.38
604.40	14.04
604.56	98.30
604.71	58.51
604.87	56.17
605.03	39.79
605.18	46.81
605.34	149.79
605.49	84.26
605.65	74.90
605.80	39.79
605.96	112.35
606.12	72.56
606.27	86.60
606.43	28.09
606.58	173.20
606.74	166.18
606.89	11.70
607.05	39.79
607.20	65.54
607.36	58.51
607.51	65.54
607.67	25.75
607.82	112.35
607.98	28.09
608.13	2.34
608.29	86.60
608.44	95.96
608.60	56.17
608.75	128.73
608.91	124.05
609.06	102.98
609.22	16.38
609.37	93.62
609.53	4.68
609.68	133.41
609.84	107.66
609.99	42.13
610.15	58.51
610.30	0.00
610.46	39.79
610.61	46.81
610.76	37.45
610.92	23.41
611.07	105.32
611.23	98.30
611.38	35.11
611.54	72.56
611.69	70.22
611.84	0.00
612.00	25.75
612.15	53.83
612.31	28.09
612.46	11.70
612.62	25.75
612.77	70.22
612.92	42.13
613.08	65.54
613.23	51.49
613.39	14.04
613.54	65.54
613.69	65.54
613.85	74.90
614.00	56.17
614.15	44.47
614.31	98.30
614.46	79.58
614.62	25.75
614.77	121.71
614.92	49.15
615.08	98.30
615.23	32.77
615.38	51.49
615.54	16.38
615.69	51.49
615.84	105.32
616.00	18.72
616.15	49.15
616.30	56.17
616.46	49.15
616.61	128.73
616.76	49.15
616.92	110.01
617.07	60.85
617.22	72.56
617.37	51.49
617.53	84.26
617.68	93.62
617.83	49.15
617.99	65.54
618.14	81.92
618.29	79.58
618.45	84.26
618.60	142.77
618.75	60.85
618.90	100.64
619.06	91.28
619.21	112.35
619.36	105.32
619.51	53.83
619.67	145.11
619.82	98.30
619.97	44.47
620.12	39.79
620.28	67.88
620.43	105.32
620.58	102.98
620.73	91.28
620.89	74.90
621.04	88.94
621.19	67.88
621.34	119.37
621.49	72.56
621.65	51.49
621.80	44.47
621.95	86.60
622.10	63.19
622.25	60.85
622.41	67.88
622.56	70.22
622.71	114.69
622.86	51.49
623.01	168.52
623.16	53.83
623.32	63.19
623.47	105.32
623.62	124.05
623.77	16.38
623.92	42.13
624.07	16.38
624.23	70.22
624.38	74.90
624.53	14.04
624.68	81.92
624.83	67.88
624.98	11.70
625.13	28.09
625.29	0.00
625.44	14.04
625.59	7.02
625.74	37.45
625.89	44.47
626.04	107.66
626.19	56.17
626.34	84.26
626.49	35.11
626.65	88.94
626.80	65.54
626.95	28.09
627.10	51.49
627.25	49.15
627.40	70.22
627.55	93.62
627.70	58.51
627.85	32.77
628.00	25.75
628.15	49.15
628.30	74.90
628.45	102.98
628.60	32.77
628.76	49.15
628.91	51.49
629.06	30.43
629.21	25.75
629.36	51.49
629.51	0.00
629.66	58.51
629.81	0.00
629.96	16.38
630.11	56.17
630.26	49.15
630.41	70.22
630.56	49.15
630.71	81.92
630.86	53.83
631.01	91.28
631.16	70.22
631.31	67.88
631.46	60.85
631.61	46.81
631.76	35.11
631.91	30.43
632.06	46.81
632.21	0.00
632.36	93.62
632.51	56.17
632.66	0.00
632.81	0.00
632.96	4.68
633.10	95.96
633.25	39.79
633.40	9.36
633.55	81.92
633.70	100.64
633.85	28.09
634.00	135.75
634.15	0.00
634.30	4.68
634.45	79.58
634.60	63.19
634.75	56.17
634.90	0.00
635.05	23.41
635.19	79.58
635.34	28.09
635.49	88.94
635.64	84.26
635.79	133.41
635.94	81.92
636.09	88.94
636.24	131.07
636.39	88.94
636.53	49.15
636.68	32.77
636.83	25.75
636.98	4.68
637.13	30.43
637.28	93.62
637.43	79.58
637.57	70.22
637.72	0.00
637.87	23.41
638.02	60.85
638.17	74.90
638.32	81.92
638.46	35.11
638.61	53.83
638.76	28.09
638.91	0.00
639.06	95.96
639.20	70.22
639.35	140.43
639.50	23.41
639.65	63.19
639.80	95.96
639.94	44.47
640.09	77.24
640.24	70.22
640.39	44.47
640.54	91.28
640.68	56.17
640.83	46.81
640.98	58.51
641.13	95.96
641.27	42.13
641.42	93.62
641.57	84.26
641.72	44.47
641.86	16.38
642.01	138.09
642.16	32.77
642.31	67.88
642.45	95.96
642.60	39.79
642.75	60.85
642.90	81.92
643.04	0.00
643.19	37.45
643.34	63.19
643.48	9.36
643.63	49.15
643.78	9.36
643.93	74.90
644.07	93.62
644.22	77.24
644.37	79.58
644.51	32.77
644.66	93.62
644.81	51.49
644.95	77.24
645.10	100.64
645.25	81.92
645.39	25.75
645.54	72.56
645.69	16.38
645.83	32.77
645.98	21.06
646.13	51.49
646.27	65.54
646.42	0.00
646.57	74.90
646.71	70.22
646.86	77.24
647.00	65.54
647.15	42.13
647.30	67.88
647.44	65.54
647.59	67.88
647.74	0.00
647.88	42.13
648.03	16.38
648.17	44.47
648.32	81.92
648.47	25.75
648.61	63.19
648.76	39.79
648.90	67.88
649.05	44.47
649.20	0.00
649.34	98.30
649.49	58.51
649.63	95.96
649.78	56.17
649.92	49.15
650.07	39.79
650.21	14.04
650.36	86.60
650.51	84.26
650.65	30.43
650.80	86.60
650.94	65.54
651.09	77.24
651.23	63.19
651.38	32.77
651.52	107.66
651.67	72.56
651.81	51.49
651.96	39.79
652.10	121.71
652.25	30.43
652.39	79.58
652.54	65.54
652.68	79.58
652.83	23.41
652.97	67.88
653.12	23.41
653.26	110.01
653.41	63.19
653.55	79.58
653.70	105.32
653.84	126.39
653.99	7.02
654.13	98.30
654.27	37.45
654.42	84.26
654.56	42.13
654.71	95.96
654.85	105.32
655.00	74.90
655.14	49.15
655.29	58.51
655.43	0.00
655.57	25.75
655.72	32.77
655.86	37.45
656.01	110.01
656.15	79.58
656.30	84.26
656.44	70.22
656.58	74.90
656.73	0.00
656.87	25.75
657.01	25.75
657.16	84.26
657.30	37.45
657.45	18.72
657.59	58.51
657.73	16.38
657.88	42.13
658.02	25.75
658.16	46.81
658.31	39.79
658.45	0.00
658.60	28.09
658.74	63.19
658.88	30.43
659.03	56.17
659.17	102.98
659.31	53.83
659.46	7.02
659.60	39.79
659.74	91.28
659.89	79.58
660.03	93.62
660.17	0.00
660.32	4.68
660.46	30.43
660.60	84.26
660.74	44.47
660.89	60.85
661.03	0.00
661.17	53.83
661.32	42.13
661.46	74.90
661.60	46.81
661.74	93.62
661.89	65.54
662.03	44.47
662.17	0.00
662.31	18.72
662.46	77.24
662.60	42.13
662.74	53.83
662.88	95.96
663.03	46.81
663.17	60.85
663.31	39.79
663.45	72.56
663.60	65.54
663.74	105.32
663.88	4.68
664.02	49.15
664.17	0.00
664.31	72.56
664.45	72.56
664.59	0.00
664.73	37.45
664.88	107.66
665.02	51.49
665.16	53.83
665.30	74.90
665.44	91.28
665.59	37.45
665.73	0.00
665.87	77.24
666.01	49.15
666.15	81.92
666.29	102.98
666.44	88.94
666.58	72.56
666.72	119.37
666.86	65.54
667.00	39.79
667.14	42.13
667.28	11.70
667.43	65.54
667.57	18.72
667.71	4.68
667.85	0.00
667.99	65.54
668.13	7.02
668.27	91.28
668.41	88.94
668.56	9.36
668.70	0.00
668.84	63.19
668.98	0.00
669.12	72.56
669.26	0.00
669.40	119.37
669.54	23.41
669.68	46.81
669.82	49.15
669.96	49.15
670.10	100.64
670.25	23.41
670.39	131.07
670.53	67.88
670.67	4.68
670.81	0.00
670.95	0.00
671.09	37.45
671.23	67.88
671.37	51.49
671.51	39.79
671.65	28.09
671.79	39.79
671.93	112.35
672.07	16.38
672.21	49.15
672.35	72.56
672.49	49.15
672.63	70.22
672.77	35.11
672.91	145.11
673.05	42.13
673.19	7.02
673.33	114.69
673.47	74.90
673.61	49.15
673.75	110.01
673.89	133.41
674.03	0.00
674.17	7.02
674.31	23.41
674.45	56.17
674.59	51.49
674.73	84.26
674.87	28.09
675.01	30.43
675.15	93.62
675.29	23.41
675.43	44.47
675.56	117.03
675.70	25.75
675.84	35.11
675.98	77.24
676.12	72.56
676.26	51.49
676.40	74.90
676.54	110.01
676.68	56.17
676.82	46.81
676.96	138.09
677.10	63.19
677.23	2.34
677.37	14.04
677.51	81.92
677.65	49.15
677.79	72.56
677.93	46.81
678.07	112.35
678.21	0.00
678.34	51.49
678.48	107.66
678.62	81.92
678.76	0.00
678.90	51.49
679.04	30.43
679.18	2.34
679.31	65.54
679.45	35.11
679.59	84.26
679.73	49.15
679.87	67.88
680.00	56.17
680.14	28.09
680.28	44.47
680.42	72.56
680.56	91.28
680.70	100.64
680.83	53.83
680.97	2.34
681.11	49.15
681.25	77.24
681.39	0.00
681.52	28.09
681.66	16.38
681.80	49.15
681.94	42.13
682.07	37.45
682.21	28.09
682.35	37.45
682.49	51.49
682.62	84.26
682.76	65.54
682.90	30.43
683.04	42.13
683.17	44.47
683.31	44.47
683.45	28.09
683.59	35.11
683.72	2.34
683.86	46.81
684.00	79.58
684.13	35.11
684.27	0.00
684.41	95.96
684.55	102.98
684.68	0.00
684.82	28.09
684.96	2.34
685.09	102.98
685.23	65.54
685.37	60.85
685.50	72.56
685.64	49.15
685.78	4.68
685.91	63.19
686.05	98.30
686.19	30.43
686.32	30.43
686.46	49.15
686.60	63.19
686.73	44.47
686.87	86.60
687.01	56.17
687.14	0.00
687.28	25.75
687.42	28.09
687.55	2.34
687.69	35.11
687.82	14.04
687.96	65.54
688.10	86.60
688.23	42.13
688.37	42.13
688.50	67.88
688.64	79.58
688.78	4.68
688.91	72.56
689.05	86.60
689.18	114.69
689.32	0.00
689.46	0.00
689.59	46.81
689.73	81.92
689.86	46.81
690.00	88.94
690.13	58.51
690.27	0.00
690.41	9.36
690.54	44.47
690.68	14.04
690.81	0.00
690.95	60.85
691.08	30.43
691.22	42.13
691.35	53.83
691.49	53.83
691.62	35.11
691.76	39.79
691.89	0.00
692.03	32.77
692.16	9.36
692.30	105.32
692.43	35.11
692.57	23.41
692.70	53.83
692.84	0.00
692.97	37.45
693.11	65.54
693.24	44.47
693.38	65.54
693.51	49.15
693.65	72.56
693.78	79.58
693.92	65.54
694.05	0.00
694.19	42.13
694.32	16.38
694.45	0.00
694.59	32.77
694.72	35.11
694.86	56.17
694.99	4.68
695.13	7.02
695.26	9.36
695.39	95.96
695.53	39.79
695.66	77.24
695.80	88.94
695.93	35.11
696.07	25.75
696.20	0.00
696.33	14.04
696.47	0.00
696.60	0.00
696.73	81.92
696.87	117.03
697.00	9.36
697.14	21.06
697.27	74.90
697.40	0.00
697.54	28.09
697.67	14.04
697.80	74.90
697.94	32.77
698.07	44.47
698.21	95.96
698.34	16.38
698.47	58.51
698.61	25.75
698.74	60.85
698.87	25.75
699.01	32.77
699.14	84.26
699.27	7.02
699.40	95.96
699.54	53.83
699.67	2.34
699.80	35.11
699.94	0.00
700.07	0.00
700.20	49.15
700.34	2.34
700.47	21.06
700.60	42.13
700.73	42.13
700.87	37.45
701.00	46.81
701.13	16.38
701.26	39.79
701.40	30.43
701.53	102.98
701.66	39.79
701.79	88.94
701.93	49.15
702.06	0.00
702.19	49.15
702.32	63.19
702.46	39.79
702.59	63.19
702.72	23.41
702.85	21.06
702.99	49.15
703.12	51.49
703.25	23.41
703.38	51.49
703.51	107.66
703.65	30.43
703.78	53.83
703.91	7.02
704.04	37.45
704.17	0.00
704.31	65.54
704.44	28.09
704.57	70.22
704.70	0.00
704.83	49.15
704.96	11.70
705.10	98.30
705.23	65.54
>>>>>End Processed Spectral Data<<<<<
