SpectraSuite Data File
++++++++++++++++++++++++++++++++++++
Date: Fri Oct 04 12:13:29 GMT-05:00 2013
User: price-jones
Dark Spectrum Present: No
Reference Spectrum Present: No
Number of Sampled Component Spectra: 1
Spectrometers: USB2+H05261
Integration Time (usec): 10000 (USB2+H05261)
Spectra Averaged: 1 (USB2+H05261)
Boxcar Smoothing: 0 (USB2+H05261)
Correct for Electrical Dark: No (USB2+H05261)
Strobe/Lamp Enabled: No (USB2+H05261)
Correct for Detector Non-linearity: No (USB2+H05261)
Correct for Stray Light: No (USB2+H05261)
Number of Pixels in Processed Spectrum: 2048
>>>>>Begin Processed Spectral Data<<<<<
365.73	0.00
365.92	0.00
366.12	0.00
366.32	0.00
366.52	0.00
366.72	0.00
366.91	0.00
367.11	0.00
367.31	0.00
367.51	0.00
367.70	0.00
367.90	0.00
368.10	0.00
368.30	0.00
368.49	0.00
368.69	0.00
368.89	0.00
369.09	0.00
369.28	0.00
369.48	0.00
369.68	0.00
369.87	0.00
370.07	0.00
370.27	0.00
370.47	0.00
370.66	0.00
370.86	0.00
371.06	0.00
371.25	0.00
371.45	0.00
371.65	63.19
371.84	0.00
372.04	0.00
372.24	0.00
372.44	4.68
372.63	0.00
372.83	42.13
373.03	51.49
373.22	56.17
373.42	86.60
373.62	0.00
373.81	23.41
374.01	0.00
374.21	0.00
374.40	72.56
374.60	63.19
374.79	28.09
374.99	86.60
375.19	0.00
375.38	11.70
375.58	0.00
375.78	86.60
375.97	0.00
376.17	4.68
376.37	53.83
376.56	65.54
376.76	28.09
376.95	98.30
377.15	56.17
377.35	65.54
377.54	86.60
377.74	0.00
377.93	32.77
378.13	7.02
378.33	0.00
378.52	102.98
378.72	77.24
378.91	9.36
379.11	2.34
379.31	0.00
379.50	39.79
379.70	95.96
379.89	42.13
380.09	0.00
380.28	49.15
380.48	32.77
380.68	0.00
380.87	0.00
381.07	7.02
381.26	72.56
381.46	53.83
381.65	39.79
381.85	23.41
382.04	23.41
382.24	0.00
382.43	37.45
382.63	60.85
382.83	0.00
383.02	2.34
383.22	35.11
383.41	0.00
383.61	0.00
383.80	0.00
384.00	11.70
384.19	9.36
384.39	0.00
384.58	9.36
384.78	32.77
384.97	0.00
385.17	28.09
385.36	70.22
385.56	56.17
385.75	44.47
385.95	0.00
386.14	56.17
386.34	0.00
386.53	18.72
386.72	63.19
386.92	30.43
387.11	0.00
387.31	0.00
387.50	4.68
387.70	0.00
387.89	9.36
388.09	44.47
388.28	4.68
388.48	28.09
388.67	0.00
388.86	0.00
389.06	0.00
389.25	63.19
389.45	39.79
389.64	95.96
389.84	25.75
390.03	72.56
390.22	28.09
390.42	37.45
390.61	25.75
390.81	18.72
391.00	4.68
391.19	0.00
391.39	0.00
391.58	35.11
391.78	65.54
391.97	37.45
392.16	25.75
392.36	0.00
392.55	56.17
392.75	0.00
392.94	74.90
393.13	37.45
393.33	7.02
393.52	0.00
393.71	86.60
393.91	32.77
394.10	0.00
394.29	0.00
394.49	0.00
394.68	0.00
394.88	21.06
395.07	91.28
395.26	49.15
395.46	0.00
395.65	58.51
395.84	14.04
396.04	65.54
396.23	0.00
396.42	77.24
396.62	0.00
396.81	9.36
397.00	30.43
397.19	35.11
397.39	70.22
397.58	0.00
397.77	79.58
397.97	53.83
398.16	79.58
398.35	51.49
398.55	28.09
398.74	0.00
398.93	39.79
399.12	0.00
399.32	46.81
399.51	72.56
399.70	44.47
399.90	0.00
400.09	58.51
400.28	32.77
400.47	46.81
400.67	0.00
400.86	49.15
401.05	58.51
401.24	39.79
401.44	25.75
401.63	18.72
401.82	30.43
402.01	28.09
402.21	32.77
402.40	25.75
402.59	107.66
402.78	35.11
402.97	88.94
403.17	67.88
403.36	0.00
403.55	2.34
403.74	0.00
403.93	49.15
404.13	9.36
404.32	0.00
404.51	28.09
404.70	107.66
404.89	37.45
405.09	49.15
405.28	63.19
405.47	0.00
405.66	93.62
405.85	86.60
406.05	67.88
406.24	44.47
406.43	67.88
406.62	0.00
406.81	44.47
407.00	0.00
407.20	23.41
407.39	7.02
407.58	65.54
407.77	37.45
407.96	35.11
408.15	63.19
408.34	4.68
408.54	0.00
408.73	0.00
408.92	14.04
409.11	11.70
409.30	25.75
409.49	0.00
409.68	25.75
409.87	32.77
410.07	9.36
410.26	21.06
410.45	4.68
410.64	0.00
410.83	14.04
411.02	0.00
411.21	4.68
411.40	70.22
411.59	14.04
411.78	98.30
411.98	49.15
412.17	14.04
412.36	91.28
412.55	65.54
412.74	0.00
412.93	35.11
413.12	28.09
413.31	42.13
413.50	0.00
413.69	0.00
413.88	65.54
414.07	0.00
414.26	14.04
414.45	70.22
414.64	81.92
414.83	46.81
415.02	18.72
415.22	0.00
415.41	0.00
415.60	28.09
415.79	32.77
415.98	79.58
416.17	25.75
416.36	23.41
416.55	23.41
416.74	49.15
416.93	30.43
417.12	67.88
417.31	0.00
417.50	42.13
417.69	67.88
417.88	28.09
418.07	28.09
418.26	21.06
418.45	44.47
418.64	11.70
418.83	14.04
419.02	44.47
419.21	84.26
419.39	72.56
419.58	138.09
419.77	0.00
419.96	72.56
420.15	95.96
420.34	60.85
420.53	23.41
420.72	42.13
420.91	65.54
421.10	56.17
421.29	21.06
421.48	14.04
421.67	16.38
421.86	16.38
422.05	42.13
422.24	0.00
422.43	0.00
422.61	0.00
422.80	67.88
422.99	7.02
423.18	2.34
423.37	9.36
423.56	9.36
423.75	21.06
423.94	72.56
424.13	23.41
424.32	30.43
424.50	28.09
424.69	44.47
424.88	49.15
425.07	39.79
425.26	32.77
425.45	0.00
425.64	0.00
425.83	0.00
426.01	46.81
426.20	102.98
426.39	70.22
426.58	65.54
426.77	56.17
426.96	39.79
427.15	0.00
427.33	86.60
427.52	25.75
427.71	21.06
427.90	56.17
428.09	21.06
428.28	67.88
428.46	21.06
428.65	37.45
428.84	32.77
429.03	2.34
429.22	21.06
429.40	25.75
429.59	11.70
429.78	60.85
429.97	23.41
430.16	18.72
430.34	51.49
430.53	46.81
430.72	70.22
430.91	0.00
431.10	100.64
431.28	25.75
431.47	95.96
431.66	58.51
431.85	4.68
432.03	18.72
432.22	51.49
432.41	18.72
432.60	98.30
432.79	4.68
432.97	30.43
433.16	37.45
433.35	7.02
433.54	74.90
433.72	9.36
433.91	0.00
434.10	32.77
434.28	58.51
434.47	4.68
434.66	107.66
434.85	30.43
435.03	0.00
435.22	18.72
435.41	93.62
435.59	0.00
435.78	49.15
435.97	32.77
436.16	7.02
436.34	28.09
436.53	77.24
436.72	30.43
436.90	28.09
437.09	7.02
437.28	79.58
437.46	11.70
437.65	23.41
437.84	51.49
438.02	0.00
438.21	51.49
438.40	37.45
438.58	4.68
438.77	42.13
438.96	77.24
439.14	0.00
439.33	44.47
439.52	0.00
439.70	0.00
439.89	0.00
440.08	21.06
440.26	28.09
440.45	70.22
440.63	9.36
440.82	42.13
441.01	16.38
441.19	60.85
441.38	21.06
441.57	0.00
441.75	67.88
441.94	37.45
442.12	23.41
442.31	16.38
442.50	30.43
442.68	28.09
442.87	63.19
443.05	0.00
443.24	4.68
443.43	112.35
443.61	58.51
443.80	35.11
443.98	21.06
444.17	4.68
444.35	25.75
444.54	16.38
444.73	21.06
444.91	81.92
445.10	0.00
445.28	9.36
445.47	49.15
445.65	0.00
445.84	46.81
446.02	14.04
446.21	18.72
446.39	56.17
446.58	4.68
446.77	72.56
446.95	25.75
447.14	9.36
447.32	25.75
447.51	58.51
447.69	44.47
447.88	60.85
448.06	44.47
448.25	88.94
448.43	74.90
448.62	86.60
448.80	0.00
448.99	44.47
449.17	35.11
449.36	39.79
449.54	28.09
449.73	93.62
449.91	14.04
450.10	32.77
450.28	0.00
450.46	0.00
450.65	32.77
450.83	46.81
451.02	37.45
451.20	58.51
451.39	23.41
451.57	37.45
451.76	11.70
451.94	28.09
452.13	4.68
452.31	18.72
452.49	49.15
452.68	0.00
452.86	21.06
453.05	0.00
453.23	81.92
453.42	56.17
453.60	0.00
453.78	0.00
453.97	4.68
454.15	21.06
454.34	77.24
454.52	60.85
454.70	88.94
454.89	32.77
455.07	95.96
455.26	102.98
455.44	16.38
455.62	46.81
455.81	16.38
455.99	0.00
456.17	86.60
456.36	25.75
456.54	23.41
456.73	51.49
456.91	25.75
457.09	0.00
457.28	84.26
457.46	0.00
457.64	58.51
457.83	0.00
458.01	51.49
458.19	88.94
458.38	0.00
458.56	14.04
458.74	35.11
458.93	42.13
459.11	79.58
459.29	25.75
459.48	39.79
459.66	56.17
459.84	100.64
460.03	60.85
460.21	28.09
460.39	51.49
460.57	18.72
460.76	16.38
460.94	30.43
461.12	39.79
461.31	46.81
461.49	18.72
461.67	42.13
461.85	14.04
462.04	53.83
462.22	72.56
462.40	0.00
462.59	0.00
462.77	0.00
462.95	16.38
463.13	79.58
463.32	9.36
463.50	39.79
463.68	0.00
463.86	30.43
464.05	0.00
464.23	102.98
464.41	51.49
464.59	11.70
464.78	2.34
464.96	0.00
465.14	0.00
465.32	79.58
465.50	63.19
465.69	74.90
465.87	84.26
466.05	32.77
466.23	0.00
466.41	84.26
466.60	119.37
466.78	14.04
466.96	37.45
467.14	110.01
467.32	21.06
467.51	21.06
467.69	0.00
467.87	0.00
468.05	23.41
468.23	30.43
468.41	0.00
468.60	2.34
468.78	0.00
468.96	0.00
469.14	0.00
469.32	9.36
469.50	84.26
469.69	4.68
469.87	7.02
470.05	32.77
470.23	7.02
470.41	49.15
470.59	46.81
470.77	21.06
470.95	60.85
471.14	37.45
471.32	11.70
471.50	14.04
471.68	70.22
471.86	98.30
472.04	35.11
472.22	98.30
472.40	112.35
472.58	18.72
472.77	25.75
472.95	35.11
473.13	60.85
473.31	0.00
473.49	0.00
473.67	32.77
473.85	30.43
474.03	0.00
474.21	0.00
474.39	0.00
474.57	39.79
474.75	81.92
474.93	14.04
475.12	86.60
475.30	133.41
475.48	32.77
475.66	60.85
475.84	39.79
476.02	30.43
476.20	93.62
476.38	88.94
476.56	0.00
476.74	0.00
476.92	11.70
477.10	0.00
477.28	39.79
477.46	77.24
477.64	65.54
477.82	42.13
478.00	44.47
478.18	35.11
478.36	21.06
478.54	23.41
478.72	0.00
478.90	21.06
479.08	0.00
479.26	56.17
479.44	7.02
479.62	77.24
479.80	18.72
479.98	11.70
480.16	70.22
480.34	37.45
480.52	86.60
480.70	0.00
480.88	14.04
481.06	60.85
481.24	2.34
481.41	86.60
481.59	117.03
481.77	37.45
481.95	28.09
482.13	86.60
482.31	161.50
482.49	0.00
482.67	77.24
482.85	7.02
483.03	79.58
483.21	86.60
483.39	28.09
483.57	4.68
483.74	4.68
483.92	79.58
484.10	44.47
484.28	46.81
484.46	7.02
484.64	51.49
484.82	46.81
485.00	39.79
485.18	49.15
485.35	39.79
485.53	18.72
485.71	95.96
485.89	67.88
486.07	53.83
486.25	70.22
486.43	72.56
486.61	21.06
486.78	86.60
486.96	65.54
487.14	16.38
487.32	42.13
487.50	49.15
487.68	0.00
487.85	49.15
488.03	56.17
488.21	21.06
488.39	58.51
488.57	0.00
488.75	16.38
488.92	95.96
489.10	117.03
489.28	30.43
489.46	18.72
489.64	0.00
489.81	56.17
489.99	14.04
490.17	23.41
490.35	53.83
490.53	18.72
490.70	102.98
490.88	53.83
491.06	4.68
491.24	70.22
491.41	81.92
491.59	67.88
491.77	25.75
491.95	11.70
492.13	46.81
492.30	11.70
492.48	35.11
492.66	30.43
492.84	23.41
493.01	60.85
493.19	53.83
493.37	23.41
493.54	81.92
493.72	39.79
493.90	32.77
494.08	18.72
494.25	74.90
494.43	58.51
494.61	11.70
494.79	51.49
494.96	42.13
495.14	9.36
495.32	98.30
495.49	7.02
495.67	18.72
495.85	7.02
496.02	0.00
496.20	28.09
496.38	53.83
496.55	53.83
496.73	42.13
496.91	0.00
497.09	74.90
497.26	79.58
497.44	0.00
497.62	23.41
497.79	49.15
497.97	7.02
498.14	0.00
498.32	14.04
498.50	77.24
498.67	32.77
498.85	4.68
499.03	23.41
499.20	28.09
499.38	11.70
499.56	56.17
499.73	21.06
499.91	39.79
500.08	14.04
500.26	37.45
500.44	44.47
500.61	56.17
500.79	0.00
500.97	4.68
501.14	32.77
501.32	16.38
501.49	81.92
501.67	0.00
501.84	37.45
502.02	58.51
502.20	81.92
502.37	23.41
502.55	14.04
502.72	0.00
502.90	95.96
503.07	28.09
503.25	30.43
503.43	53.83
503.60	21.06
503.78	0.00
503.95	23.41
504.13	72.56
504.30	56.17
504.48	91.28
504.65	58.51
504.83	81.92
505.01	32.77
505.18	0.00
505.36	91.28
505.53	39.79
505.71	9.36
505.88	98.30
506.06	126.39
506.23	56.17
506.41	42.13
506.58	9.36
506.76	42.13
506.93	0.00
507.11	37.45
507.28	0.00
507.46	0.00
507.63	58.51
507.81	14.04
507.98	72.56
508.16	9.36
508.33	0.00
508.50	35.11
508.68	0.00
508.85	79.58
509.03	58.51
509.20	0.00
509.38	4.68
509.55	32.77
509.73	9.36
509.90	58.51
510.08	0.00
510.25	0.00
510.42	49.15
510.60	65.54
510.77	77.24
510.95	0.00
511.12	72.56
511.30	91.28
511.47	49.15
511.64	7.02
511.82	56.17
511.99	7.02
512.17	42.13
512.34	14.04
512.51	56.17
512.69	35.11
512.86	72.56
513.04	95.96
513.21	35.11
513.38	0.00
513.56	0.00
513.73	53.83
513.90	63.19
514.08	46.81
514.25	7.02
514.43	56.17
514.60	25.75
514.77	49.15
514.95	0.00
515.12	39.79
515.29	53.83
515.47	9.36
515.64	28.09
515.81	74.90
515.99	100.64
516.16	81.92
516.33	105.32
516.51	56.17
516.68	0.00
516.85	9.36
517.03	72.56
517.20	25.75
517.37	14.04
517.54	21.06
517.72	0.00
517.89	56.17
518.06	23.41
518.24	49.15
518.41	51.49
518.58	4.68
518.75	86.60
518.93	37.45
519.10	37.45
519.27	72.56
519.45	105.32
519.62	60.85
519.79	72.56
519.96	11.70
520.14	42.13
520.31	23.41
520.48	18.72
520.65	0.00
520.83	81.92
521.00	39.79
521.17	88.94
521.34	63.19
521.52	110.01
521.69	28.09
521.86	67.88
522.03	14.04
522.20	46.81
522.38	98.30
522.55	7.02
522.72	32.77
522.89	14.04
523.07	23.41
523.24	145.11
523.41	32.77
523.58	18.72
523.75	74.90
523.92	30.43
524.10	9.36
524.27	9.36
524.44	63.19
524.61	30.43
524.78	30.43
524.96	0.00
525.13	53.83
525.30	21.06
525.47	93.62
525.64	37.45
525.81	11.70
525.98	16.38
526.16	42.13
526.33	65.54
526.50	65.54
526.67	84.26
526.84	11.70
527.01	93.62
527.18	0.00
527.36	0.00
527.53	14.04
527.70	4.68
527.87	37.45
528.04	23.41
528.21	0.00
528.38	18.72
528.55	53.83
528.72	0.00
528.89	46.81
529.07	16.38
529.24	58.51
529.41	39.79
529.58	23.41
529.75	18.72
529.92	46.81
530.09	0.00
530.26	0.00
530.43	79.58
530.60	128.73
530.77	14.04
530.94	70.22
531.11	30.43
531.28	23.41
531.46	42.13
531.63	42.13
531.80	53.83
531.97	39.79
532.14	23.41
532.31	42.13
532.48	58.51
532.65	67.88
532.82	86.60
532.99	9.36
533.16	0.00
533.33	0.00
533.50	100.64
533.67	53.83
533.84	63.19
534.01	25.75
534.18	51.49
534.35	0.00
534.52	42.13
534.69	65.54
534.86	14.04
535.03	0.00
535.20	37.45
535.37	42.13
535.54	65.54
535.71	49.15
535.88	32.77
536.05	0.00
536.22	14.04
536.38	21.06
536.55	23.41
536.72	21.06
536.89	44.47
537.06	51.49
537.23	14.04
537.40	39.79
537.57	0.00
537.74	9.36
537.91	0.00
538.08	42.13
538.25	14.04
538.42	58.51
538.59	28.09
538.75	56.17
538.92	14.04
539.09	4.68
539.26	53.83
539.43	39.79
539.60	60.85
539.77	102.98
539.94	21.06
540.11	37.45
540.28	72.56
540.44	65.54
540.61	49.15
540.78	86.60
540.95	14.04
541.12	18.72
541.29	37.45
541.46	67.88
541.62	70.22
541.79	0.00
541.96	81.92
542.13	0.00
542.30	39.79
542.47	58.51
542.63	135.75
542.80	79.58
542.97	56.17
543.14	81.92
543.31	84.26
543.48	9.36
543.64	28.09
543.81	46.81
543.98	0.00
544.15	56.17
544.32	4.68
544.48	81.92
544.65	0.00
544.82	0.00
544.99	95.96
545.16	93.62
545.32	0.00
545.49	0.00
545.66	23.41
545.83	28.09
546.00	42.13
546.16	0.00
546.33	4.68
546.50	23.41
546.67	14.04
546.83	42.13
547.00	46.81
547.17	16.38
547.34	51.49
547.50	95.96
547.67	4.68
547.84	58.51
548.00	72.56
548.17	102.98
548.34	42.13
548.51	4.68
548.67	58.51
548.84	72.56
549.01	53.83
549.18	0.00
549.34	39.79
549.51	81.92
549.68	42.13
549.84	128.73
550.01	84.26
550.18	67.88
550.34	100.64
550.51	53.83
550.68	110.01
550.84	28.09
551.01	0.00
551.18	42.13
551.34	0.00
551.51	0.00
551.68	4.68
551.84	0.00
552.01	0.00
552.18	46.81
552.34	4.68
552.51	39.79
552.68	60.85
552.84	63.19
553.01	110.01
553.18	42.13
553.34	37.45
553.51	16.38
553.67	0.00
553.84	14.04
554.01	14.04
554.17	65.54
554.34	135.75
554.51	60.85
554.67	70.22
554.84	77.24
555.00	30.43
555.17	18.72
555.33	0.00
555.50	0.00
555.67	51.49
555.83	60.85
556.00	16.38
556.16	46.81
556.33	9.36
556.50	49.15
556.66	0.00
556.83	72.56
556.99	67.88
557.16	70.22
557.32	46.81
557.49	30.43
557.65	2.34
557.82	11.70
557.98	7.02
558.15	0.00
558.32	23.41
558.48	9.36
558.65	18.72
558.81	42.13
558.98	23.41
559.14	25.75
559.31	18.72
559.47	86.60
559.64	28.09
559.80	51.49
559.97	0.00
560.13	53.83
560.30	32.77
560.46	53.83
560.63	30.43
560.79	72.56
560.96	77.24
561.12	46.81
561.29	67.88
561.45	16.38
561.61	0.00
561.78	117.03
561.94	42.13
562.11	0.00
562.27	79.58
562.44	79.58
562.60	0.00
562.77	53.83
562.93	100.64
563.10	44.47
563.26	65.54
563.42	170.86
563.59	37.45
563.75	114.69
563.92	25.75
564.08	46.81
564.24	77.24
564.41	37.45
564.57	44.47
564.74	117.03
564.90	60.85
565.07	72.56
565.23	7.02
565.39	0.00
565.56	63.19
565.72	117.03
565.88	30.43
566.05	49.15
566.21	81.92
566.38	21.06
566.54	53.83
566.70	74.90
566.87	0.00
567.03	0.00
567.19	79.58
567.36	9.36
567.52	37.45
567.68	18.72
567.85	21.06
568.01	37.45
568.17	9.36
568.34	9.36
568.50	44.47
568.66	49.15
568.83	23.41
568.99	58.51
569.15	53.83
569.32	23.41
569.48	88.94
569.64	28.09
569.81	58.51
569.97	58.51
570.13	18.72
570.30	25.75
570.46	44.47
570.62	0.00
570.78	107.66
570.95	0.00
571.11	58.51
571.27	81.92
571.43	49.15
571.60	46.81
571.76	11.70
571.92	25.75
572.09	37.45
572.25	67.88
572.41	0.00
572.57	28.09
572.74	63.19
572.90	49.15
573.06	32.77
573.22	58.51
573.38	86.60
573.55	79.58
573.71	53.83
573.87	65.54
574.03	112.35
574.20	0.00
574.36	126.39
574.52	0.00
574.68	91.28
574.84	23.41
575.01	58.51
575.17	0.00
575.33	102.98
575.49	21.06
575.65	121.71
575.82	42.13
575.98	77.24
576.14	23.41
576.30	21.06
576.46	9.36
576.62	35.11
576.79	51.49
576.95	42.13
577.11	32.77
577.27	93.62
577.43	37.45
577.59	63.19
577.75	30.43
577.92	16.38
578.08	58.51
578.24	65.54
578.40	74.90
578.56	117.03
578.72	91.28
578.88	79.58
579.04	9.36
579.21	0.00
579.37	25.75
579.53	81.92
579.69	46.81
579.85	72.56
580.01	44.47
580.17	51.49
580.33	42.13
580.49	11.70
580.65	0.00
580.82	49.15
580.98	0.00
581.14	37.45
581.30	67.88
581.46	60.85
581.62	0.00
581.78	0.00
581.94	18.72
582.10	25.75
582.26	67.88
582.42	49.15
582.58	70.22
582.74	77.24
582.90	37.45
583.06	46.81
583.22	11.70
583.38	4.68
583.54	63.19
583.70	14.04
583.86	42.13
584.02	28.09
584.18	88.94
584.34	37.45
584.50	138.09
584.66	402.57
584.82	983.02
584.98	1235.80
585.14	1090.69
585.30	781.74
585.46	528.96
585.62	348.74
585.78	114.69
585.94	110.01
586.10	105.32
586.26	21.06
586.42	65.54
586.58	63.19
586.74	23.41
586.90	91.28
587.06	72.56
587.22	42.13
587.38	0.00
587.54	21.06
587.70	86.60
587.86	252.78
588.02	142.77
588.18	149.79
588.34	63.19
588.49	56.17
588.65	37.45
588.81	72.56
588.97	65.54
589.13	72.56
589.29	133.41
589.45	72.56
589.61	67.88
589.77	37.45
589.93	88.94
590.08	42.13
590.24	32.77
590.40	63.19
590.56	51.49
590.72	46.81
590.88	49.15
591.04	74.90
591.20	30.43
591.35	14.04
591.51	98.30
591.67	18.72
591.83	23.41
591.99	0.00
592.15	0.00
592.31	18.72
592.46	70.22
592.62	53.83
592.78	0.00
592.94	49.15
593.10	37.45
593.26	0.00
593.41	91.28
593.57	93.62
593.73	18.72
593.89	79.58
594.05	117.03
594.20	257.46
594.36	175.54
594.52	142.77
594.68	84.26
594.84	58.51
594.99	35.11
595.15	0.00
595.31	37.45
595.47	0.00
595.62	0.00
595.78	2.34
595.94	140.43
596.10	39.79
596.25	14.04
596.41	0.00
596.57	42.13
596.73	0.00
596.88	65.54
597.04	53.83
597.20	39.79
597.36	18.72
597.51	93.62
597.67	32.77
597.83	49.15
597.99	100.64
598.14	0.00
598.30	16.38
598.46	0.00
598.61	44.47
598.77	56.17
598.93	28.09
599.09	81.92
599.24	35.11
599.40	44.47
599.56	21.06
599.71	65.54
599.87	67.88
600.03	35.11
600.18	25.75
600.34	49.15
600.50	0.00
600.65	16.38
600.81	2.34
600.97	49.15
601.12	18.72
601.28	14.04
601.44	30.43
601.59	30.43
601.75	72.56
601.91	9.36
602.06	46.81
602.22	21.06
602.37	0.00
602.53	84.26
602.69	110.01
602.84	79.58
603.00	95.96
603.16	114.69
603.31	18.72
603.47	93.62
603.62	39.79
603.78	95.96
603.94	56.17
604.09	39.79
604.25	25.75
604.40	30.43
604.56	51.49
604.71	95.96
604.87	0.00
605.03	58.51
605.18	0.00
605.34	86.60
605.49	14.04
605.65	25.75
605.80	60.85
605.96	53.83
606.12	65.54
606.27	67.88
606.43	98.30
606.58	0.00
606.74	105.32
606.89	135.75
607.05	105.32
607.20	163.84
607.36	147.45
607.51	81.92
607.67	58.51
607.82	37.45
607.98	70.22
608.13	65.54
608.29	42.13
608.44	88.94
608.60	58.51
608.75	70.22
608.91	14.04
609.06	175.54
609.22	248.10
609.37	250.44
609.53	163.84
609.68	243.42
609.84	128.73
609.99	28.09
610.15	70.22
610.30	51.49
610.46	28.09
610.61	105.32
610.76	0.00
610.92	86.60
611.07	63.19
611.23	0.00
611.38	42.13
611.54	53.83
611.69	32.77
611.84	86.60
612.00	70.22
612.15	0.00
612.31	60.85
612.46	53.83
612.62	28.09
612.77	110.01
612.92	42.13
613.08	138.09
613.23	60.85
613.39	14.04
613.54	95.96
613.69	84.26
613.85	220.01
614.00	409.59
614.15	440.02
614.31	334.70
614.46	210.65
614.62	112.35
614.77	124.05
614.92	32.77
615.08	0.00
615.23	16.38
615.38	0.00
615.54	51.49
615.69	140.43
615.84	112.35
616.00	152.13
616.15	140.43
616.30	142.77
616.46	114.69
616.61	65.54
616.76	39.79
616.92	39.79
617.07	39.79
617.22	7.02
617.37	72.56
617.53	56.17
617.68	0.00
617.83	63.19
617.99	60.85
618.14	35.11
618.29	28.09
618.45	159.16
618.60	30.43
618.75	131.07
618.90	25.75
619.06	11.70
619.21	44.47
619.36	0.00
619.51	16.38
619.67	77.24
619.82	21.06
619.97	11.70
620.12	0.00
620.28	14.04
620.43	32.77
620.58	2.34
620.73	63.19
620.89	0.00
621.04	32.77
621.19	74.90
621.34	91.28
621.49	37.45
621.65	81.92
621.80	124.05
621.95	65.54
622.10	11.70
622.25	0.00
622.41	39.79
622.56	32.77
622.71	23.41
622.86	84.26
623.01	72.56
623.16	51.49
623.32	0.00
623.47	65.54
623.62	70.22
623.77	39.79
623.92	58.51
624.07	79.58
624.23	2.34
624.38	88.94
624.53	42.13
624.68	18.72
624.83	42.13
624.98	58.51
625.13	77.24
625.29	21.06
625.44	25.75
625.59	30.43
625.74	21.06
625.89	37.45
626.04	39.79
626.19	117.03
626.34	245.76
626.49	201.29
626.65	133.41
626.80	156.82
626.95	65.54
627.10	44.47
627.25	79.58
627.40	9.36
627.55	81.92
627.70	0.00
627.85	0.00
628.00	95.96
628.15	117.03
628.30	49.15
628.45	7.02
628.60	67.88
628.76	63.19
628.91	91.28
629.06	4.68
629.21	67.88
629.36	35.11
629.51	0.00
629.66	53.83
629.81	0.00
629.96	0.00
630.11	37.45
630.26	42.13
630.41	121.71
630.56	107.66
630.71	114.69
630.86	49.15
631.01	35.11
631.16	49.15
631.31	60.85
631.46	0.00
631.61	28.09
631.76	39.79
631.91	9.36
632.06	0.00
632.21	9.36
632.36	0.00
632.51	67.88
632.66	28.09
632.81	16.38
632.96	42.13
633.10	161.50
633.25	138.09
633.40	131.07
633.55	93.62
633.70	140.43
633.85	95.96
634.00	42.13
634.15	42.13
634.30	25.75
634.45	30.43
634.60	0.00
634.75	30.43
634.90	0.00
635.05	23.41
635.19	9.36
635.34	98.30
635.49	95.96
635.64	44.47
635.79	21.06
635.94	46.81
636.09	0.00
636.24	105.32
636.39	72.56
636.53	11.70
636.68	0.00
636.83	0.00
636.98	63.19
637.13	18.72
637.28	32.77
637.43	18.72
637.57	11.70
637.72	37.45
637.87	107.66
638.02	269.16
638.17	325.33
638.32	152.13
638.46	117.03
638.61	133.41
638.76	74.90
638.91	32.77
639.06	37.45
639.20	9.36
639.35	21.06
639.50	107.66
639.65	166.18
639.80	248.10
639.94	437.68
640.09	339.38
640.24	322.99
640.39	161.50
640.54	168.52
640.68	107.66
640.83	91.28
640.98	67.88
641.13	11.70
641.27	0.00
641.42	49.15
641.57	0.00
641.72	98.30
641.86	28.09
642.01	74.90
642.16	21.06
642.31	44.47
642.45	98.30
642.60	86.60
642.75	23.41
642.90	42.13
643.04	0.00
643.19	14.04
643.34	23.41
643.48	0.00
643.63	67.88
643.78	0.00
643.93	35.11
644.07	51.49
644.22	70.22
644.37	37.45
644.51	35.11
644.66	23.41
644.81	58.51
644.95	56.17
645.10	0.00
645.25	39.79
645.39	63.19
645.54	32.77
645.69	44.47
645.83	25.75
645.98	30.43
646.13	70.22
646.27	67.88
646.42	25.75
646.57	30.43
646.71	58.51
646.86	28.09
647.00	91.28
647.15	0.00
647.30	28.09
647.44	30.43
647.59	58.51
647.74	0.00
647.88	25.75
648.03	4.68
648.17	53.83
648.32	2.34
648.47	0.00
648.61	0.00
648.76	35.11
648.90	0.00
649.05	14.04
649.20	0.00
649.34	14.04
649.49	63.19
649.63	0.00
649.78	9.36
649.92	32.77
650.07	107.66
650.21	187.24
650.36	212.99
650.51	212.99
650.65	184.90
650.80	191.92
650.94	98.30
651.09	77.24
651.23	77.24
651.38	18.72
651.52	88.94
651.67	93.62
651.81	18.72
651.96	35.11
652.10	44.47
652.25	51.49
652.39	37.45
652.54	58.51
652.68	77.24
652.83	63.19
652.97	79.58
653.12	126.39
653.26	102.98
653.41	147.45
653.55	128.73
653.70	42.13
653.84	114.69
653.99	0.00
654.13	53.83
654.27	37.45
654.42	53.83
654.56	0.00
654.71	7.02
654.85	9.36
655.00	2.34
655.14	0.00
655.29	4.68
655.43	65.54
655.57	91.28
655.72	2.34
655.86	0.00
656.01	11.70
656.15	32.77
656.30	81.92
656.44	91.28
656.58	42.13
656.73	0.00
656.87	0.00
657.01	77.24
657.16	25.75
657.30	117.03
657.45	0.00
657.59	49.15
657.73	44.47
657.88	72.56
658.02	53.83
658.16	93.62
658.31	44.47
658.45	0.00
658.60	7.02
658.74	49.15
658.88	79.58
659.03	4.68
659.17	42.13
659.31	30.43
659.46	98.30
659.60	95.96
659.74	189.58
659.89	177.88
660.03	70.22
660.17	170.86
660.32	0.00
660.46	0.00
660.60	42.13
660.74	0.00
660.89	0.00
661.03	91.28
661.17	70.22
661.32	0.00
661.46	14.04
661.60	16.38
661.74	56.17
661.89	37.45
662.03	72.56
662.17	30.43
662.31	84.26
662.46	53.83
662.60	46.81
662.74	63.19
662.88	42.13
663.03	0.00
663.17	11.70
663.31	0.00
663.45	74.90
663.60	63.19
663.74	14.04
663.88	7.02
664.02	46.81
664.17	16.38
664.31	51.49
664.45	53.83
664.59	0.00
664.73	53.83
664.88	7.02
665.02	0.00
665.16	0.00
665.30	0.00
665.44	63.19
665.59	28.09
665.73	37.45
665.87	25.75
666.01	51.49
666.15	0.00
666.29	39.79
666.44	0.00
666.58	70.22
666.72	2.34
666.86	25.75
667.00	35.11
667.14	86.60
667.28	98.30
667.43	161.50
667.57	149.79
667.71	243.42
667.85	138.09
667.99	163.84
668.13	102.98
668.27	67.88
668.41	42.13
668.56	91.28
668.70	23.41
668.84	21.06
668.98	11.70
669.12	9.36
669.26	0.00
669.40	121.71
669.54	67.88
669.68	0.00
669.82	42.13
669.96	0.00
670.10	0.00
670.25	9.36
670.39	51.49
670.53	0.00
670.67	32.77
670.81	0.00
670.95	4.68
671.09	35.11
671.23	37.45
671.37	63.19
671.51	156.82
671.65	142.77
671.79	81.92
671.93	194.26
672.07	58.51
672.21	100.64
672.35	81.92
672.49	7.02
672.63	95.96
672.77	7.02
672.91	32.77
673.05	32.77
673.19	88.94
673.33	14.04
673.47	46.81
673.61	49.15
673.75	35.11
673.89	42.13
674.03	37.45
674.17	35.11
674.31	7.02
674.45	11.70
674.59	51.49
674.73	9.36
674.87	60.85
675.01	49.15
675.15	21.06
675.29	0.00
675.43	0.00
675.56	58.51
675.70	21.06
675.84	60.85
675.98	25.75
676.12	58.51
676.26	44.47
676.40	65.54
676.54	25.75
676.68	67.88
676.82	147.45
676.96	11.70
677.10	0.00
677.23	105.32
677.37	14.04
677.51	58.51
677.65	65.54
677.79	4.68
677.93	44.47
678.07	0.00
678.21	0.00
678.34	21.06
678.48	7.02
678.62	53.83
678.76	60.85
678.90	0.00
679.04	42.13
679.18	58.51
679.31	0.00
679.45	30.43
679.59	0.00
679.73	4.68
679.87	70.22
680.00	0.00
680.14	42.13
680.28	77.24
680.42	39.79
680.56	0.00
680.70	63.19
680.83	39.79
680.97	0.00
681.11	39.79
681.25	56.17
681.39	0.00
681.52	121.71
681.66	0.00
681.80	14.04
681.94	0.00
682.07	28.09
682.21	28.09
682.35	0.00
682.49	58.51
682.62	42.13
682.76	42.13
682.90	30.43
683.04	23.41
683.17	11.70
683.31	0.00
683.45	7.02
683.59	0.00
683.72	32.77
683.86	81.92
684.00	14.04
684.13	0.00
684.27	46.81
684.41	46.81
684.55	49.15
684.68	72.56
684.82	0.00
684.96	7.02
685.09	84.26
685.23	93.62
685.37	77.24
685.50	88.94
685.64	30.43
685.78	42.13
685.91	30.43
686.05	44.47
686.19	46.81
686.32	11.70
686.46	37.45
686.60	0.00
686.73	21.06
686.87	32.77
687.01	37.45
687.14	0.00
687.28	0.00
687.42	0.00
687.55	9.36
687.69	42.13
687.82	0.00
687.96	56.17
688.10	14.04
688.23	56.17
688.37	16.38
688.50	53.83
688.64	0.00
688.78	53.83
688.91	39.79
689.05	0.00
689.18	70.22
689.32	0.00
689.46	0.00
689.59	30.43
689.73	67.88
689.86	9.36
690.00	11.70
690.13	30.43
690.27	84.26
690.41	23.41
690.54	16.38
690.68	0.00
690.81	46.81
690.95	11.70
691.08	0.00
691.22	23.41
691.35	4.68
691.49	102.98
691.62	37.45
691.76	23.41
691.89	0.00
692.03	30.43
692.16	98.30
692.30	28.09
692.43	86.60
692.57	88.94
692.70	77.24
692.84	124.05
692.97	81.92
693.11	95.96
693.24	81.92
693.38	0.00
693.51	79.58
693.65	58.51
693.78	0.00
693.92	0.00
694.05	0.00
694.19	91.28
694.32	23.41
694.45	0.00
694.59	14.04
694.72	0.00
694.86	49.15
694.99	72.56
695.13	30.43
695.26	32.77
695.39	0.00
695.53	44.47
695.66	86.60
695.80	35.11
695.93	11.70
696.07	0.00
696.20	51.49
696.33	93.62
696.47	93.62
696.60	35.11
696.73	51.49
696.87	86.60
697.00	9.36
697.14	95.96
697.27	51.49
697.40	72.56
697.54	51.49
697.67	72.56
697.80	42.13
697.94	32.77
698.07	7.02
698.21	30.43
698.34	25.75
698.47	35.11
698.61	30.43
698.74	21.06
698.87	0.00
699.01	0.00
699.14	35.11
699.27	81.92
699.40	79.58
699.54	49.15
699.67	14.04
699.80	51.49
699.94	7.02
700.07	18.72
700.20	0.00
700.34	35.11
700.47	25.75
700.60	23.41
700.73	0.00
700.87	49.15
701.00	100.64
701.13	16.38
701.26	65.54
701.40	32.77
701.53	81.92
701.66	42.13
701.79	35.11
701.93	72.56
702.06	39.79
702.19	18.72
702.32	23.41
702.46	9.36
702.59	30.43
702.72	81.92
702.85	152.13
702.99	156.82
703.12	161.50
703.25	131.07
703.38	175.54
703.51	145.11
703.65	100.64
703.78	81.92
703.91	98.30
704.04	39.79
704.17	86.60
704.31	18.72
704.44	0.00
704.57	14.04
704.70	0.00
704.83	93.62
704.96	28.09
705.10	56.17
705.23	37.45
>>>>>End Processed Spectral Data<<<<<
