SpectraSuite Data File
++++++++++++++++++++++++++++++++++++
Date: Fri Oct 04 12:13:41 GMT-05:00 2013
User: price-jones
Dark Spectrum Present: No
Reference Spectrum Present: No
Number of Sampled Component Spectra: 1
Spectrometers: USB2+H05261
Integration Time (usec): 10000 (USB2+H05261)
Spectra Averaged: 1 (USB2+H05261)
Boxcar Smoothing: 0 (USB2+H05261)
Correct for Electrical Dark: No (USB2+H05261)
Strobe/Lamp Enabled: No (USB2+H05261)
Correct for Detector Non-linearity: No (USB2+H05261)
Correct for Stray Light: No (USB2+H05261)
Number of Pixels in Processed Spectrum: 2048
>>>>>Begin Processed Spectral Data<<<<<
365.73	0.00
365.92	0.00
366.12	0.00
366.32	0.00
366.52	0.00
366.72	0.00
366.91	0.00
367.11	0.00
367.31	0.00
367.51	0.00
367.70	0.00
367.90	0.00
368.10	0.00
368.30	0.00
368.49	0.00
368.69	0.00
368.89	0.00
369.09	0.00
369.28	0.00
369.48	0.00
369.68	0.00
369.87	0.00
370.07	0.00
370.27	0.00
370.47	0.00
370.66	0.00
370.86	0.00
371.06	0.00
371.25	0.00
371.45	0.00
371.65	0.00
371.84	0.00
372.04	63.19
372.24	0.00
372.44	0.00
372.63	53.83
372.83	28.09
373.03	23.41
373.22	0.00
373.42	9.36
373.62	2.34
373.81	49.15
374.01	23.41
374.21	0.00
374.40	7.02
374.60	25.75
374.79	74.90
374.99	53.83
375.19	42.13
375.38	60.85
375.58	9.36
375.78	46.81
375.97	16.38
376.17	25.75
376.37	0.00
376.56	56.17
376.76	72.56
376.95	9.36
377.15	46.81
377.35	18.72
377.54	53.83
377.74	0.00
377.93	35.11
378.13	16.38
378.33	14.04
378.52	23.41
378.72	63.19
378.91	0.00
379.11	14.04
379.31	0.00
379.50	0.00
379.70	44.47
379.89	7.02
380.09	0.00
380.28	100.64
380.48	77.24
380.68	53.83
380.87	39.79
381.07	0.00
381.26	25.75
381.46	67.88
381.65	0.00
381.85	9.36
382.04	35.11
382.24	51.49
382.43	0.00
382.63	9.36
382.83	0.00
383.02	11.70
383.22	35.11
383.41	25.75
383.61	0.00
383.80	4.68
384.00	39.79
384.19	53.83
384.39	0.00
384.58	35.11
384.78	35.11
384.97	25.75
385.17	30.43
385.36	0.00
385.56	98.30
385.75	0.00
385.95	0.00
386.14	28.09
386.34	77.24
386.53	0.00
386.72	0.00
386.92	35.11
387.11	0.00
387.31	0.00
387.50	11.70
387.70	0.00
387.89	0.00
388.09	4.68
388.28	56.17
388.48	9.36
388.67	35.11
388.86	25.75
389.06	0.00
389.25	0.00
389.45	37.45
389.64	65.54
389.84	0.00
390.03	60.85
390.22	93.62
390.42	58.51
390.61	42.13
390.81	42.13
391.00	28.09
391.19	0.00
391.39	0.00
391.58	2.34
391.78	77.24
391.97	72.56
392.16	56.17
392.36	0.00
392.55	4.68
392.75	28.09
392.94	58.51
393.13	2.34
393.33	23.41
393.52	0.00
393.71	58.51
393.91	35.11
394.10	0.00
394.29	30.43
394.49	11.70
394.68	0.00
394.88	0.00
395.07	49.15
395.26	30.43
395.46	14.04
395.65	63.19
395.84	18.72
396.04	0.00
396.23	11.70
396.42	56.17
396.62	23.41
396.81	35.11
397.00	63.19
397.19	18.72
397.39	21.06
397.58	23.41
397.77	44.47
397.97	0.00
398.16	42.13
398.35	23.41
398.55	65.54
398.74	18.72
398.93	74.90
399.12	65.54
399.32	44.47
399.51	21.06
399.70	42.13
399.90	65.54
400.09	42.13
400.28	0.00
400.47	28.09
400.67	67.88
400.86	25.75
401.05	42.13
401.24	95.96
401.44	51.49
401.63	42.13
401.82	0.00
402.01	93.62
402.21	9.36
402.40	56.17
402.59	11.70
402.78	21.06
402.97	93.62
403.17	86.60
403.36	0.00
403.55	9.36
403.74	11.70
403.93	95.96
404.13	0.00
404.32	23.41
404.51	11.70
404.70	63.19
404.89	42.13
405.09	28.09
405.28	28.09
405.47	0.00
405.66	44.47
405.85	4.68
406.05	0.00
406.24	11.70
406.43	91.28
406.62	11.70
406.81	51.49
407.00	0.00
407.20	18.72
407.39	72.56
407.58	39.79
407.77	2.34
407.96	14.04
408.15	0.00
408.34	88.94
408.54	72.56
408.73	0.00
408.92	70.22
409.11	88.94
409.30	42.13
409.49	42.13
409.68	42.13
409.87	0.00
410.07	39.79
410.26	0.00
410.45	35.11
410.64	53.83
410.83	93.62
411.02	2.34
411.21	67.88
411.40	65.54
411.59	14.04
411.78	35.11
411.98	28.09
412.17	114.69
412.36	51.49
412.55	46.81
412.74	107.66
412.93	84.26
413.12	25.75
413.31	60.85
413.50	0.00
413.69	53.83
413.88	56.17
414.07	49.15
414.26	86.60
414.45	0.00
414.64	58.51
414.83	7.02
415.02	63.19
415.22	42.13
415.41	28.09
415.60	28.09
415.79	4.68
415.98	4.68
416.17	28.09
416.36	70.22
416.55	98.30
416.74	25.75
416.93	110.01
417.12	93.62
417.31	37.45
417.50	49.15
417.69	72.56
417.88	0.00
418.07	72.56
418.26	0.00
418.45	0.00
418.64	88.94
418.83	49.15
419.02	35.11
419.21	0.00
419.39	98.30
419.58	0.00
419.77	79.58
419.96	51.49
420.15	51.49
420.34	30.43
420.53	74.90
420.72	35.11
420.91	28.09
421.10	0.00
421.29	21.06
421.48	107.66
421.67	30.43
421.86	51.49
422.05	35.11
422.24	58.51
422.43	81.92
422.61	23.41
422.80	95.96
422.99	67.88
423.18	0.00
423.37	56.17
423.56	63.19
423.75	0.00
423.94	37.45
424.13	35.11
424.32	25.75
424.50	0.00
424.69	30.43
424.88	65.54
425.07	44.47
425.26	37.45
425.45	14.04
425.64	58.51
425.83	100.64
426.01	72.56
426.20	32.77
426.39	9.36
426.58	28.09
426.77	110.01
426.96	74.90
427.15	32.77
427.33	32.77
427.52	18.72
427.71	53.83
427.90	18.72
428.09	79.58
428.28	93.62
428.46	9.36
428.65	53.83
428.84	72.56
429.03	60.85
429.22	65.54
429.40	11.70
429.59	86.60
429.78	112.35
429.97	18.72
430.16	18.72
430.34	42.13
430.53	11.70
430.72	86.60
430.91	18.72
431.10	42.13
431.28	28.09
431.47	114.69
431.66	63.19
431.85	0.00
432.03	25.75
432.22	86.60
432.41	46.81
432.60	37.45
432.79	91.28
432.97	9.36
433.16	60.85
433.35	86.60
433.54	32.77
433.72	121.71
433.91	56.17
434.10	107.66
434.28	53.83
434.47	100.64
434.66	100.64
434.85	16.38
435.03	72.56
435.22	21.06
435.41	114.69
435.59	91.28
435.78	84.26
435.97	0.00
436.16	18.72
436.34	60.85
436.53	95.96
436.72	18.72
436.90	49.15
437.09	56.17
437.28	70.22
437.46	16.38
437.65	105.32
437.84	53.83
438.02	58.51
438.21	56.17
438.40	0.00
438.58	95.96
438.77	95.96
438.96	77.24
439.14	84.26
439.33	110.01
439.52	70.22
439.70	21.06
439.89	0.00
440.08	84.26
440.26	23.41
440.45	0.00
440.63	18.72
440.82	42.13
441.01	81.92
441.19	46.81
441.38	88.94
441.57	28.09
441.75	49.15
441.94	102.98
442.12	25.75
442.31	53.83
442.50	67.88
442.68	72.56
442.87	42.13
443.05	49.15
443.24	67.88
443.43	86.60
443.61	25.75
443.80	11.70
443.98	42.13
444.17	42.13
444.35	46.81
444.54	58.51
444.73	56.17
444.91	110.01
445.10	72.56
445.28	51.49
445.47	58.51
445.65	4.68
445.84	84.26
446.02	102.98
446.21	0.00
446.39	79.58
446.58	117.03
446.77	98.30
446.95	21.06
447.14	51.49
447.32	65.54
447.51	56.17
447.69	98.30
447.88	102.98
448.06	95.96
448.25	77.24
448.43	42.13
448.62	105.32
448.80	7.02
448.99	56.17
449.17	63.19
449.36	2.34
449.54	49.15
449.73	65.54
449.91	81.92
450.10	81.92
450.28	72.56
450.46	81.92
450.65	91.28
450.83	25.75
451.02	91.28
451.20	67.88
451.39	28.09
451.57	32.77
451.76	35.11
451.94	39.79
452.13	117.03
452.31	65.54
452.49	72.56
452.68	98.30
452.86	67.88
453.05	63.19
453.23	86.60
453.42	72.56
453.60	21.06
453.78	65.54
453.97	77.24
454.15	0.00
454.34	35.11
454.52	77.24
454.70	72.56
454.89	28.09
455.07	14.04
455.26	35.11
455.44	91.28
455.62	9.36
455.81	18.72
455.99	65.54
456.17	28.09
456.36	81.92
456.54	11.70
456.73	42.13
456.91	39.79
457.09	51.49
457.28	37.45
457.46	42.13
457.64	65.54
457.83	110.01
458.01	0.00
458.19	39.79
458.38	0.00
458.56	81.92
458.74	67.88
458.93	18.72
459.11	39.79
459.29	9.36
459.48	0.00
459.66	49.15
459.84	9.36
460.03	21.06
460.21	84.26
460.39	0.00
460.57	128.73
460.76	86.60
460.94	102.98
461.12	107.66
461.31	81.92
461.49	84.26
461.67	0.00
461.85	65.54
462.04	74.90
462.22	110.01
462.40	28.09
462.59	102.98
462.77	138.09
462.95	60.85
463.13	32.77
463.32	53.83
463.50	2.34
463.68	74.90
463.86	56.17
464.05	53.83
464.23	35.11
464.41	72.56
464.59	145.11
464.78	46.81
464.96	74.90
465.14	42.13
465.32	102.98
465.50	18.72
465.69	0.00
465.87	65.54
466.05	81.92
466.23	81.92
466.41	93.62
466.60	11.70
466.78	72.56
466.96	100.64
467.14	28.09
467.32	37.45
467.51	30.43
467.69	39.79
467.87	84.26
468.05	18.72
468.23	18.72
468.41	114.69
468.60	0.00
468.78	35.11
468.96	35.11
469.14	93.62
469.32	63.19
469.50	0.00
469.69	58.51
469.87	88.94
470.05	124.05
470.23	9.36
470.41	44.47
470.59	74.90
470.77	56.17
470.95	25.75
471.14	51.49
471.32	14.04
471.50	11.70
471.68	58.51
471.86	46.81
472.04	79.58
472.22	117.03
472.40	58.51
472.58	30.43
472.77	81.92
472.95	102.98
473.13	0.00
473.31	23.41
473.49	126.39
473.67	30.43
473.85	117.03
474.03	88.94
474.21	105.32
474.39	14.04
474.57	72.56
474.75	63.19
474.93	30.43
475.12	112.35
475.30	81.92
475.48	51.49
475.66	72.56
475.84	2.34
476.02	98.30
476.20	60.85
476.38	65.54
476.56	28.09
476.74	25.75
476.92	102.98
477.10	110.01
477.28	88.94
477.46	91.28
477.64	105.32
477.82	88.94
478.00	88.94
478.18	112.35
478.36	77.24
478.54	39.79
478.72	49.15
478.90	72.56
479.08	58.51
479.26	0.00
479.44	100.64
479.62	124.05
479.80	95.96
479.98	79.58
480.16	21.06
480.34	53.83
480.52	0.00
480.70	35.11
480.88	37.45
481.06	72.56
481.24	65.54
481.41	98.30
481.59	63.19
481.77	56.17
481.95	70.22
482.13	98.30
482.31	124.05
482.49	98.30
482.67	65.54
482.85	4.68
483.03	60.85
483.21	42.13
483.39	51.49
483.57	16.38
483.74	93.62
483.92	56.17
484.10	81.92
484.28	117.03
484.46	79.58
484.64	161.50
484.82	9.36
485.00	21.06
485.18	42.13
485.35	16.38
485.53	86.60
485.71	7.02
485.89	32.77
486.07	131.07
486.25	23.41
486.43	79.58
486.61	67.88
486.78	53.83
486.96	58.51
487.14	60.85
487.32	37.45
487.50	114.69
487.68	88.94
487.85	84.26
488.03	53.83
488.21	77.24
488.39	79.58
488.57	25.75
488.75	63.19
488.92	105.32
489.10	63.19
489.28	81.92
489.46	117.03
489.64	81.92
489.81	74.90
489.99	84.26
490.17	81.92
490.35	65.54
490.53	93.62
490.70	166.18
490.88	67.88
491.06	58.51
491.24	60.85
491.41	140.43
491.59	60.85
491.77	70.22
491.95	23.41
492.13	77.24
492.30	107.66
492.48	84.26
492.66	79.58
492.84	126.39
493.01	86.60
493.19	65.54
493.37	79.58
493.54	79.58
493.72	46.81
493.90	72.56
494.08	63.19
494.25	135.75
494.43	86.60
494.61	60.85
494.79	117.03
494.96	23.41
495.14	49.15
495.32	84.26
495.49	77.24
495.67	25.75
495.85	63.19
496.02	60.85
496.20	18.72
496.38	159.16
496.55	100.64
496.73	138.09
496.91	112.35
497.09	63.19
497.26	72.56
497.44	30.43
497.62	124.05
497.79	81.92
497.97	142.77
498.14	128.73
498.32	86.60
498.50	98.30
498.67	107.66
498.85	39.79
499.03	121.71
499.20	77.24
499.38	95.96
499.56	100.64
499.73	138.09
499.91	46.81
500.08	37.45
500.26	35.11
500.44	46.81
500.61	42.13
500.79	53.83
500.97	37.45
501.14	60.85
501.32	72.56
501.49	51.49
501.67	105.32
501.84	74.90
502.02	51.49
502.20	110.01
502.37	131.07
502.55	86.60
502.72	86.60
502.90	21.06
503.07	21.06
503.25	126.39
503.43	131.07
503.60	124.05
503.78	128.73
503.95	58.51
504.13	74.90
504.30	105.32
504.48	58.51
504.65	35.11
504.83	79.58
505.01	70.22
505.18	128.73
505.36	63.19
505.53	58.51
505.71	91.28
505.88	4.68
506.06	53.83
506.23	112.35
506.41	117.03
506.58	98.30
506.76	107.66
506.93	46.81
507.11	88.94
507.28	51.49
507.46	84.26
507.63	65.54
507.81	18.72
507.98	63.19
508.16	88.94
508.33	51.49
508.50	81.92
508.68	32.77
508.85	58.51
509.03	105.32
509.20	133.41
509.38	93.62
509.55	81.92
509.73	74.90
509.90	81.92
510.08	25.75
510.25	100.64
510.42	88.94
510.60	140.43
510.77	140.43
510.95	65.54
511.12	117.03
511.30	124.05
511.47	79.58
511.64	114.69
511.82	98.30
511.99	65.54
512.17	51.49
512.34	67.88
512.51	0.00
512.69	60.85
512.86	105.32
513.04	81.92
513.21	105.32
513.38	138.09
513.56	16.38
513.73	117.03
513.90	39.79
514.08	117.03
514.25	133.41
514.43	49.15
514.60	56.17
514.77	119.37
514.95	145.11
515.12	58.51
515.29	49.15
515.47	51.49
515.64	86.60
515.81	70.22
515.99	72.56
516.16	44.47
516.33	72.56
516.51	37.45
516.68	135.75
516.85	107.66
517.03	110.01
517.20	44.47
517.37	79.58
517.54	53.83
517.72	72.56
517.89	100.64
518.06	98.30
518.24	152.13
518.41	105.32
518.58	58.51
518.75	46.81
518.93	35.11
519.10	63.19
519.27	81.92
519.45	91.28
519.62	72.56
519.79	133.41
519.96	25.75
520.14	74.90
520.31	74.90
520.48	100.64
520.65	70.22
520.83	65.54
521.00	91.28
521.17	21.06
521.34	98.30
521.52	42.13
521.69	65.54
521.86	86.60
522.03	67.88
522.20	72.56
522.38	30.43
522.55	35.11
522.72	60.85
522.89	128.73
523.07	70.22
523.24	49.15
523.41	105.32
523.58	133.41
523.75	128.73
523.92	124.05
524.10	88.94
524.27	133.41
524.44	117.03
524.61	152.13
524.78	74.90
524.96	124.05
525.13	35.11
525.30	180.22
525.47	28.09
525.64	100.64
525.81	98.30
525.98	110.01
526.16	100.64
526.33	58.51
526.50	58.51
526.67	91.28
526.84	91.28
527.01	107.66
527.18	98.30
527.36	105.32
527.53	131.07
527.70	58.51
527.87	77.24
528.04	140.43
528.21	86.60
528.38	98.30
528.55	67.88
528.72	60.85
528.89	133.41
529.07	126.39
529.24	72.56
529.41	28.09
529.58	44.47
529.75	142.77
529.92	142.77
530.09	0.00
530.26	152.13
530.43	81.92
530.60	88.94
530.77	114.69
530.94	37.45
531.11	39.79
531.28	112.35
531.46	107.66
531.63	95.96
531.80	112.35
531.97	32.77
532.14	131.07
532.31	28.09
532.48	58.51
532.65	56.17
532.82	88.94
532.99	67.88
533.16	70.22
533.33	102.98
533.50	119.37
533.67	159.16
533.84	63.19
534.01	60.85
534.18	86.60
534.35	110.01
534.52	74.90
534.69	110.01
534.86	98.30
535.03	63.19
535.20	107.66
535.37	39.79
535.54	147.45
535.71	154.48
535.88	119.37
536.05	88.94
536.22	86.60
536.38	117.03
536.55	135.75
536.72	67.88
536.89	112.35
537.06	63.19
537.23	93.62
537.40	114.69
537.57	25.75
537.74	49.15
537.91	53.83
538.08	110.01
538.25	39.79
538.42	166.18
538.59	154.48
538.75	70.22
538.92	88.94
539.09	37.45
539.26	142.77
539.43	72.56
539.60	81.92
539.77	84.26
539.94	84.26
540.11	110.01
540.28	84.26
540.44	140.43
540.61	74.90
540.78	112.35
540.95	84.26
541.12	163.84
541.29	49.15
541.46	72.56
541.62	77.24
541.79	72.56
541.96	145.11
542.13	65.54
542.30	147.45
542.47	135.75
542.63	14.04
542.80	100.64
542.97	18.72
543.14	72.56
543.31	110.01
543.48	114.69
543.64	72.56
543.81	140.43
543.98	77.24
544.15	28.09
544.32	72.56
544.48	81.92
544.65	79.58
544.82	110.01
544.99	49.15
545.16	70.22
545.32	56.17
545.49	21.06
545.66	114.69
545.83	152.13
546.00	126.39
546.16	67.88
546.33	44.47
546.50	114.69
546.67	37.45
546.83	72.56
547.00	138.09
547.17	72.56
547.34	98.30
547.50	56.17
547.67	67.88
547.84	88.94
548.00	91.28
548.17	114.69
548.34	79.58
548.51	138.09
548.67	46.81
548.84	32.77
549.01	49.15
549.18	93.62
549.34	95.96
549.51	79.58
549.68	91.28
549.84	114.69
550.01	95.96
550.18	98.30
550.34	77.24
550.51	56.17
550.68	49.15
550.84	124.05
551.01	117.03
551.18	86.60
551.34	105.32
551.51	0.00
551.68	74.90
551.84	44.47
552.01	32.77
552.18	110.01
552.34	72.56
552.51	110.01
552.68	39.79
552.84	131.07
553.01	84.26
553.18	77.24
553.34	177.88
553.51	107.66
553.67	110.01
553.84	77.24
554.01	60.85
554.17	49.15
554.34	65.54
554.51	7.02
554.67	107.66
554.84	56.17
555.00	72.56
555.17	44.47
555.33	32.77
555.50	88.94
555.67	128.73
555.83	25.75
556.00	9.36
556.16	79.58
556.33	81.92
556.50	98.30
556.66	79.58
556.83	102.98
556.99	114.69
557.16	124.05
557.32	81.92
557.49	131.07
557.65	81.92
557.82	14.04
557.98	135.75
558.15	105.32
558.32	93.62
558.48	135.75
558.65	102.98
558.81	88.94
558.98	84.26
559.14	60.85
559.31	21.06
559.47	9.36
559.64	67.88
559.80	91.28
559.97	0.00
560.13	58.51
560.30	72.56
560.46	86.60
560.63	91.28
560.79	100.64
560.96	124.05
561.12	112.35
561.29	65.54
561.45	46.81
561.61	23.41
561.78	102.98
561.94	65.54
562.11	91.28
562.27	88.94
562.44	91.28
562.60	81.92
562.77	58.51
562.93	107.66
563.10	98.30
563.26	86.60
563.42	53.83
563.59	124.05
563.75	128.73
563.92	35.11
564.08	119.37
564.24	102.98
564.41	107.66
564.57	60.85
564.74	63.19
564.90	81.92
565.07	2.34
565.23	63.19
565.39	133.41
565.56	135.75
565.72	77.24
565.88	91.28
566.05	119.37
566.21	28.09
566.38	56.17
566.54	110.01
566.70	98.30
566.87	126.39
567.03	135.75
567.19	0.00
567.36	51.49
567.52	91.28
567.68	37.45
567.85	21.06
568.01	107.66
568.17	74.90
568.34	65.54
568.50	72.56
568.66	119.37
568.83	60.85
568.99	28.09
569.15	77.24
569.32	53.83
569.48	49.15
569.64	0.00
569.81	95.96
569.97	79.58
570.13	60.85
570.30	49.15
570.46	131.07
570.62	30.43
570.78	81.92
570.95	119.37
571.11	60.85
571.27	121.71
571.43	81.92
571.60	51.49
571.76	86.60
571.92	51.49
572.09	91.28
572.25	72.56
572.41	51.49
572.57	91.28
572.74	131.07
572.90	49.15
573.06	56.17
573.22	102.98
573.38	156.82
573.55	65.54
573.71	74.90
573.87	86.60
574.03	117.03
574.20	9.36
574.36	107.66
574.52	53.83
574.68	88.94
574.84	21.06
575.01	84.26
575.17	23.41
575.33	126.39
575.49	114.69
575.65	95.96
575.82	93.62
575.98	74.90
576.14	126.39
576.30	65.54
576.46	65.54
576.62	88.94
576.79	70.22
576.95	84.26
577.11	32.77
577.27	88.94
577.43	58.51
577.59	102.98
577.75	60.85
577.92	42.13
578.08	70.22
578.24	21.06
578.40	42.13
578.56	100.64
578.72	72.56
578.88	81.92
579.04	105.32
579.21	77.24
579.37	114.69
579.53	18.72
579.69	70.22
579.85	51.49
580.01	88.94
580.17	67.88
580.33	86.60
580.49	95.96
580.65	81.92
580.82	9.36
580.98	95.96
581.14	112.35
581.30	67.88
581.46	126.39
581.62	95.96
581.78	35.11
581.94	74.90
582.10	112.35
582.26	93.62
582.42	65.54
582.58	93.62
582.74	86.60
582.90	81.92
583.06	86.60
583.22	100.64
583.38	93.62
583.54	60.85
583.70	128.73
583.86	72.56
584.02	46.81
584.18	86.60
584.34	51.49
584.50	170.86
584.66	23.41
584.82	112.35
584.98	51.49
585.14	79.58
585.30	84.26
585.46	65.54
585.62	77.24
585.78	102.98
585.94	88.94
586.10	46.81
586.26	63.19
586.42	102.98
586.58	128.73
586.74	79.58
586.90	95.96
587.06	95.96
587.22	100.64
587.38	138.09
587.54	77.24
587.70	98.30
587.86	42.13
588.02	28.09
588.18	93.62
588.34	152.13
588.49	100.64
588.65	46.81
588.81	88.94
588.97	51.49
589.13	72.56
589.29	88.94
589.45	128.73
589.61	84.26
589.77	81.92
589.93	37.45
590.08	142.77
590.24	112.35
590.40	72.56
590.56	105.32
590.72	70.22
590.88	88.94
591.04	74.90
591.20	16.38
591.35	9.36
591.51	51.49
591.67	21.06
591.83	65.54
591.99	67.88
592.15	95.96
592.31	102.98
592.46	121.71
592.62	72.56
592.78	58.51
592.94	84.26
593.10	53.83
593.26	49.15
593.41	88.94
593.57	79.58
593.73	42.13
593.89	67.88
594.05	72.56
594.20	56.17
594.36	72.56
594.52	86.60
594.68	81.92
594.84	63.19
594.99	112.35
595.15	56.17
595.31	138.09
595.47	58.51
595.62	63.19
595.78	72.56
595.94	30.43
596.10	70.22
596.25	35.11
596.41	44.47
596.57	126.39
596.73	37.45
596.88	70.22
597.04	74.90
597.20	81.92
597.36	112.35
597.51	35.11
597.67	156.82
597.83	4.68
597.99	72.56
598.14	147.45
598.30	35.11
598.46	67.88
598.61	84.26
598.77	9.36
598.93	88.94
599.09	84.26
599.24	119.37
599.40	46.81
599.56	9.36
599.71	77.24
599.87	84.26
600.03	86.60
600.18	135.75
600.34	0.00
600.50	98.30
600.65	58.51
600.81	49.15
600.97	131.07
601.12	35.11
601.28	95.96
601.44	110.01
601.59	23.41
601.75	28.09
601.91	105.32
602.06	30.43
602.22	88.94
602.37	30.43
602.53	86.60
602.69	74.90
602.84	23.41
603.00	98.30
603.16	112.35
603.31	93.62
603.47	98.30
603.62	72.56
603.78	63.19
603.94	84.26
604.09	86.60
604.25	86.60
604.40	117.03
604.56	88.94
604.71	58.51
604.87	56.17
605.03	81.92
605.18	70.22
605.34	100.64
605.49	88.94
605.65	100.64
605.80	74.90
605.96	65.54
606.12	91.28
606.27	28.09
606.43	110.01
606.58	84.26
606.74	86.60
606.89	67.88
607.05	53.83
607.20	102.98
607.36	84.26
607.51	88.94
607.67	67.88
607.82	77.24
607.98	117.03
608.13	44.47
608.29	100.64
608.44	56.17
608.60	84.26
608.75	79.58
608.91	95.96
609.06	88.94
609.22	51.49
609.37	74.90
609.53	102.98
609.68	79.58
609.84	67.88
609.99	77.24
610.15	56.17
610.30	74.90
610.46	35.11
610.61	100.64
610.76	67.88
610.92	51.49
611.07	60.85
611.23	32.77
611.38	32.77
611.54	42.13
611.69	74.90
611.84	49.15
612.00	58.51
612.15	51.49
612.31	28.09
612.46	138.09
612.62	105.32
612.77	95.96
612.92	28.09
613.08	42.13
613.23	112.35
613.39	9.36
613.54	60.85
613.69	28.09
613.85	0.00
614.00	30.43
614.15	88.94
614.31	91.28
614.46	58.51
614.62	100.64
614.77	65.54
614.92	84.26
615.08	77.24
615.23	105.32
615.38	32.77
615.54	161.50
615.69	86.60
615.84	154.48
616.00	110.01
616.15	49.15
616.30	102.98
616.46	72.56
616.61	119.37
616.76	0.00
616.92	28.09
617.07	58.51
617.22	2.34
617.37	58.51
617.53	93.62
617.68	166.18
617.83	37.45
617.99	56.17
618.14	49.15
618.29	126.39
618.45	124.05
618.60	39.79
618.75	107.66
618.90	58.51
619.06	91.28
619.21	91.28
619.36	77.24
619.51	42.13
619.67	0.00
619.82	46.81
619.97	0.00
620.12	67.88
620.28	84.26
620.43	9.36
620.58	46.81
620.73	81.92
620.89	107.66
621.04	107.66
621.19	117.03
621.34	67.88
621.49	98.30
621.65	16.38
621.80	117.03
621.95	145.11
622.10	72.56
622.25	51.49
622.41	63.19
622.56	35.11
622.71	46.81
622.86	81.92
623.01	63.19
623.16	77.24
623.32	0.00
623.47	56.17
623.62	86.60
623.77	37.45
623.92	72.56
624.07	138.09
624.23	21.06
624.38	42.13
624.53	81.92
624.68	0.00
624.83	70.22
624.98	35.11
625.13	35.11
625.29	25.75
625.44	88.94
625.59	32.77
625.74	65.54
625.89	70.22
626.04	28.09
626.19	0.00
626.34	53.83
626.49	46.81
626.65	161.50
626.80	60.85
626.95	100.64
627.10	63.19
627.25	65.54
627.40	84.26
627.55	35.11
627.70	46.81
627.85	0.00
628.00	11.70
628.15	21.06
628.30	42.13
628.45	44.47
628.60	86.60
628.76	39.79
628.91	53.83
629.06	112.35
629.21	49.15
629.36	60.85
629.51	44.47
629.66	88.94
629.81	32.77
629.96	93.62
630.11	16.38
630.26	49.15
630.41	51.49
630.56	105.32
630.71	0.00
630.86	35.11
631.01	49.15
631.16	23.41
631.31	88.94
631.46	100.64
631.61	72.56
631.76	56.17
631.91	84.26
632.06	28.09
632.21	145.11
632.36	35.11
632.51	25.75
632.66	58.51
632.81	39.79
632.96	51.49
633.10	56.17
633.25	42.13
633.40	60.85
633.55	72.56
633.70	60.85
633.85	79.58
634.00	56.17
634.15	74.90
634.30	60.85
634.45	18.72
634.60	49.15
634.75	0.00
634.90	35.11
635.05	70.22
635.19	72.56
635.34	0.00
635.49	95.96
635.64	91.28
635.79	67.88
635.94	25.75
636.09	95.96
636.24	46.81
636.39	117.03
636.53	39.79
636.68	86.60
636.83	28.09
636.98	98.30
637.13	0.00
637.28	0.00
637.43	81.92
637.57	72.56
637.72	70.22
637.87	51.49
638.02	53.83
638.17	21.06
638.32	23.41
638.46	133.41
638.61	58.51
638.76	77.24
638.91	81.92
639.06	110.01
639.20	46.81
639.35	65.54
639.50	67.88
639.65	91.28
639.80	107.66
639.94	53.83
640.09	0.00
640.24	32.77
640.39	28.09
640.54	0.00
640.68	0.00
640.83	39.79
640.98	46.81
641.13	67.88
641.27	51.49
641.42	138.09
641.57	44.47
641.72	42.13
641.86	44.47
642.01	0.00
642.16	30.43
642.31	25.75
642.45	28.09
642.60	72.56
642.75	100.64
642.90	28.09
643.04	91.28
643.19	74.90
643.34	9.36
643.48	58.51
643.63	30.43
643.78	74.90
643.93	53.83
644.07	63.19
644.22	77.24
644.37	63.19
644.51	67.88
644.66	119.37
644.81	53.83
644.95	131.07
645.10	32.77
645.25	84.26
645.39	77.24
645.54	72.56
645.69	65.54
645.83	46.81
645.98	63.19
646.13	14.04
646.27	37.45
646.42	65.54
646.57	72.56
646.71	63.19
646.86	128.73
647.00	51.49
647.15	35.11
647.30	37.45
647.44	42.13
647.59	37.45
647.74	35.11
647.88	9.36
648.03	11.70
648.17	77.24
648.32	56.17
648.47	65.54
648.61	25.75
648.76	77.24
648.90	0.00
649.05	72.56
649.20	37.45
649.34	79.58
649.49	81.92
649.63	49.15
649.78	102.98
649.92	51.49
650.07	44.47
650.21	95.96
650.36	25.75
650.51	11.70
650.65	63.19
650.80	32.77
650.94	39.79
651.09	35.11
651.23	95.96
651.38	58.51
651.52	93.62
651.67	70.22
651.81	4.68
651.96	53.83
652.10	53.83
652.25	16.38
652.39	30.43
652.54	67.88
652.68	0.00
652.83	79.58
652.97	46.81
653.12	37.45
653.26	0.00
653.41	35.11
653.55	49.15
653.70	56.17
653.84	65.54
653.99	95.96
654.13	42.13
654.27	128.73
654.42	65.54
654.56	77.24
654.71	49.15
654.85	72.56
655.00	110.01
655.14	95.96
655.29	25.75
655.43	100.64
655.57	9.36
655.72	100.64
655.86	46.81
656.01	105.32
656.15	0.00
656.30	124.05
656.44	58.51
656.58	0.00
656.73	23.41
656.87	0.00
657.01	46.81
657.16	65.54
657.30	0.00
657.45	0.00
657.59	56.17
657.73	91.28
657.88	88.94
658.02	42.13
658.16	0.00
658.31	60.85
658.45	77.24
658.60	37.45
658.74	121.71
658.88	100.64
659.03	14.04
659.17	51.49
659.31	39.79
659.46	16.38
659.60	53.83
659.74	63.19
659.89	21.06
660.03	133.41
660.17	105.32
660.32	42.13
660.46	63.19
660.60	51.49
660.74	49.15
660.89	51.49
661.03	79.58
661.17	81.92
661.32	53.83
661.46	110.01
661.60	0.00
661.74	9.36
661.89	131.07
662.03	11.70
662.17	67.88
662.31	79.58
662.46	135.75
662.60	86.60
662.74	23.41
662.88	25.75
663.03	79.58
663.17	9.36
663.31	95.96
663.45	88.94
663.60	60.85
663.74	37.45
663.88	16.38
664.02	72.56
664.17	58.51
664.31	72.56
664.45	112.35
664.59	107.66
664.73	121.71
664.88	67.88
665.02	107.66
665.16	93.62
665.30	110.01
665.44	114.69
665.59	42.13
665.73	70.22
665.87	107.66
666.01	93.62
666.15	70.22
666.29	18.72
666.44	56.17
666.58	81.92
666.72	67.88
666.86	63.19
667.00	70.22
667.14	53.83
667.28	32.77
667.43	70.22
667.57	39.79
667.71	53.83
667.85	70.22
667.99	0.00
668.13	4.68
668.27	56.17
668.41	74.90
668.56	21.06
668.70	35.11
668.84	46.81
668.98	46.81
669.12	81.92
669.26	93.62
669.40	49.15
669.54	46.81
669.68	0.00
669.82	65.54
669.96	60.85
670.10	65.54
670.25	37.45
670.39	30.43
670.53	95.96
670.67	86.60
670.81	30.43
670.95	23.41
671.09	16.38
671.23	102.98
671.37	0.00
671.51	81.92
671.65	98.30
671.79	37.45
671.93	58.51
672.07	95.96
672.21	88.94
672.35	21.06
672.49	0.00
672.63	121.71
672.77	44.47
672.91	39.79
673.05	74.90
673.19	18.72
673.33	23.41
673.47	63.19
673.61	30.43
673.75	60.85
673.89	77.24
674.03	77.24
674.17	42.13
674.31	0.00
674.45	0.00
674.59	42.13
674.73	35.11
674.87	18.72
675.01	58.51
675.15	23.41
675.29	58.51
675.43	30.43
675.56	42.13
675.70	0.00
675.84	28.09
675.98	2.34
676.12	25.75
676.26	63.19
676.40	23.41
676.54	91.28
676.68	35.11
676.82	25.75
676.96	102.98
677.10	30.43
677.23	0.00
677.37	100.64
677.51	39.79
677.65	63.19
677.79	74.90
677.93	0.00
678.07	53.83
678.21	32.77
678.34	58.51
678.48	72.56
678.62	0.00
678.76	32.77
678.90	23.41
679.04	25.75
679.18	28.09
679.31	42.13
679.45	39.79
679.59	18.72
679.73	0.00
679.87	77.24
680.00	67.88
680.14	79.58
680.28	58.51
680.42	112.35
680.56	60.85
680.70	86.60
680.83	79.58
680.97	86.60
681.11	88.94
681.25	21.06
681.39	51.49
681.52	42.13
681.66	72.56
681.80	51.49
681.94	32.77
682.07	7.02
682.21	65.54
682.35	70.22
682.49	0.00
682.62	112.35
682.76	9.36
682.90	4.68
683.04	56.17
683.17	49.15
683.31	37.45
683.45	70.22
683.59	0.00
683.72	23.41
683.86	18.72
684.00	11.70
684.13	65.54
684.27	2.34
684.41	32.77
684.55	30.43
684.68	21.06
684.82	0.00
684.96	18.72
685.09	25.75
685.23	18.72
685.37	67.88
685.50	44.47
685.64	37.45
685.78	0.00
685.91	28.09
686.05	70.22
686.19	35.11
686.32	25.75
686.46	49.15
686.60	42.13
686.73	32.77
686.87	77.24
687.01	35.11
687.14	2.34
687.28	28.09
687.42	23.41
687.55	49.15
687.69	51.49
687.82	72.56
687.96	53.83
688.10	51.49
688.23	46.81
688.37	23.41
688.50	0.00
688.64	7.02
688.78	4.68
688.91	51.49
689.05	7.02
689.18	65.54
689.32	0.00
689.46	77.24
689.59	44.47
689.73	51.49
689.86	98.30
690.00	18.72
690.13	42.13
690.27	72.56
690.41	44.47
690.54	21.06
690.68	18.72
690.81	98.30
690.95	53.83
691.08	0.00
691.22	44.47
691.35	4.68
691.49	35.11
691.62	21.06
691.76	42.13
691.89	49.15
692.03	58.51
692.16	42.13
692.30	28.09
692.43	53.83
692.57	119.37
692.70	91.28
692.84	67.88
692.97	65.54
693.11	23.41
693.24	42.13
693.38	7.02
693.51	46.81
693.65	0.00
693.78	53.83
693.92	102.98
694.05	30.43
694.19	0.00
694.32	0.00
694.45	0.00
694.59	37.45
694.72	4.68
694.86	63.19
694.99	9.36
695.13	7.02
695.26	49.15
695.39	16.38
695.53	63.19
695.66	98.30
695.80	0.00
695.93	14.04
696.07	25.75
696.20	7.02
696.33	74.90
696.47	49.15
696.60	9.36
696.73	91.28
696.87	49.15
697.00	110.01
697.14	53.83
697.27	79.58
697.40	0.00
697.54	56.17
697.67	0.00
697.80	16.38
697.94	91.28
698.07	107.66
698.21	11.70
698.34	21.06
698.47	39.79
698.61	67.88
698.74	51.49
698.87	107.66
699.01	32.77
699.14	60.85
699.27	9.36
699.40	51.49
699.54	30.43
699.67	23.41
699.80	35.11
699.94	63.19
700.07	84.26
700.20	0.00
700.34	44.47
700.47	58.51
700.60	98.30
700.73	79.58
700.87	0.00
701.00	65.54
701.13	56.17
701.26	49.15
701.40	74.90
701.53	77.24
701.66	0.00
701.79	0.00
701.93	58.51
702.06	25.75
702.19	18.72
702.32	2.34
702.46	86.60
702.59	51.49
702.72	60.85
702.85	44.47
702.99	16.38
703.12	9.36
703.25	0.00
703.38	74.90
703.51	16.38
703.65	35.11
703.78	95.96
703.91	37.45
704.04	56.17
704.17	25.75
704.31	32.77
704.44	23.41
704.57	21.06
704.70	72.56
704.83	88.94
704.96	91.28
705.10	11.70
705.23	11.70
>>>>>End Processed Spectral Data<<<<<
