SpectraSuite Data File
++++++++++++++++++++++++++++++++++++
Date: Fri Oct 04 12:13:40 GMT-05:00 2013
User: price-jones
Dark Spectrum Present: No
Reference Spectrum Present: No
Number of Sampled Component Spectra: 1
Spectrometers: USB2+H05261
Integration Time (usec): 10000 (USB2+H05261)
Spectra Averaged: 1 (USB2+H05261)
Boxcar Smoothing: 0 (USB2+H05261)
Correct for Electrical Dark: No (USB2+H05261)
Strobe/Lamp Enabled: No (USB2+H05261)
Correct for Detector Non-linearity: No (USB2+H05261)
Correct for Stray Light: No (USB2+H05261)
Number of Pixels in Processed Spectrum: 2048
>>>>>Begin Processed Spectral Data<<<<<
365.73	11.70
365.92	11.70
366.12	11.70
366.32	0.00
366.52	0.00
366.72	0.00
366.91	0.00
367.11	0.00
367.31	0.00
367.51	0.00
367.70	0.00
367.90	0.00
368.10	0.00
368.30	0.00
368.49	0.00
368.69	0.00
368.89	0.00
369.09	0.00
369.28	0.00
369.48	0.00
369.68	0.00
369.87	0.00
370.07	0.00
370.27	0.00
370.47	0.00
370.66	0.00
370.86	0.00
371.06	0.00
371.25	0.00
371.45	0.00
371.65	0.00
371.84	44.47
372.04	0.00
372.24	0.00
372.44	28.09
372.63	23.41
372.83	23.41
373.03	39.79
373.22	74.90
373.42	37.45
373.62	28.09
373.81	18.72
374.01	0.00
374.21	56.17
374.40	60.85
374.60	65.54
374.79	93.62
374.99	100.64
375.19	49.15
375.38	35.11
375.58	42.13
375.78	25.75
375.97	42.13
376.17	42.13
376.37	77.24
376.56	39.79
376.76	91.28
376.95	65.54
377.15	0.00
377.35	58.51
377.54	23.41
377.74	63.19
377.93	0.00
378.13	32.77
378.33	98.30
378.52	60.85
378.72	39.79
378.91	0.00
379.11	0.00
379.31	70.22
379.50	93.62
379.70	35.11
379.89	0.00
380.09	72.56
380.28	32.77
380.48	0.00
380.68	16.38
380.87	9.36
381.07	70.22
381.26	32.77
381.46	91.28
381.65	70.22
381.85	93.62
382.04	21.06
382.24	53.83
382.43	44.47
382.63	0.00
382.83	0.00
383.02	28.09
383.22	56.17
383.41	0.00
383.61	0.00
383.80	0.00
384.00	39.79
384.19	23.41
384.39	79.58
384.58	37.45
384.78	0.00
384.97	0.00
385.17	0.00
385.36	0.00
385.56	53.83
385.75	30.43
385.95	9.36
386.14	114.69
386.34	37.45
386.53	72.56
386.72	0.00
386.92	42.13
387.11	46.81
387.31	0.00
387.50	37.45
387.70	58.51
387.89	39.79
388.09	42.13
388.28	63.19
388.48	49.15
388.67	0.00
388.86	49.15
389.06	65.54
389.25	63.19
389.45	35.11
389.64	14.04
389.84	79.58
390.03	0.00
390.22	25.75
390.42	51.49
390.61	60.85
390.81	0.00
391.00	39.79
391.19	18.72
391.39	42.13
391.58	0.00
391.78	0.00
391.97	0.00
392.16	42.13
392.36	70.22
392.55	28.09
392.75	56.17
392.94	4.68
393.13	86.60
393.33	88.94
393.52	0.00
393.71	51.49
393.91	44.47
394.10	30.43
394.29	0.00
394.49	0.00
394.68	0.00
394.88	56.17
395.07	21.06
395.26	0.00
395.46	18.72
395.65	35.11
395.84	37.45
396.04	0.00
396.23	65.54
396.42	67.88
396.62	0.00
396.81	0.00
397.00	32.77
397.19	39.79
397.39	79.58
397.58	67.88
397.77	0.00
397.97	30.43
398.16	0.00
398.35	56.17
398.55	39.79
398.74	0.00
398.93	67.88
399.12	79.58
399.32	4.68
399.51	25.75
399.70	7.02
399.90	18.72
400.09	79.58
400.28	86.60
400.47	0.00
400.67	58.51
400.86	21.06
401.05	0.00
401.24	7.02
401.44	35.11
401.63	79.58
401.82	77.24
402.01	0.00
402.21	86.60
402.40	0.00
402.59	112.35
402.78	23.41
402.97	37.45
403.17	16.38
403.36	2.34
403.55	93.62
403.74	77.24
403.93	63.19
404.13	67.88
404.32	25.75
404.51	9.36
404.70	11.70
404.89	18.72
405.09	44.47
405.28	42.13
405.47	32.77
405.66	44.47
405.85	77.24
406.05	77.24
406.24	39.79
406.43	28.09
406.62	2.34
406.81	9.36
407.00	4.68
407.20	49.15
407.39	67.88
407.58	37.45
407.77	44.47
407.96	60.85
408.15	53.83
408.34	4.68
408.54	70.22
408.73	30.43
408.92	0.00
409.11	65.54
409.30	32.77
409.49	37.45
409.68	0.00
409.87	44.47
410.07	49.15
410.26	25.75
410.45	91.28
410.64	14.04
410.83	39.79
411.02	11.70
411.21	0.00
411.40	18.72
411.59	16.38
411.78	63.19
411.98	114.69
412.17	16.38
412.36	114.69
412.55	39.79
412.74	0.00
412.93	51.49
413.12	42.13
413.31	58.51
413.50	65.54
413.69	60.85
413.88	0.00
414.07	51.49
414.26	46.81
414.45	21.06
414.64	0.00
414.83	0.00
415.02	39.79
415.22	42.13
415.41	60.85
415.60	32.77
415.79	0.00
415.98	46.81
416.17	30.43
416.36	46.81
416.55	88.94
416.74	39.79
416.93	18.72
417.12	46.81
417.31	91.28
417.50	0.00
417.69	0.00
417.88	11.70
418.07	28.09
418.26	21.06
418.45	91.28
418.64	95.96
418.83	4.68
419.02	0.00
419.21	49.15
419.39	35.11
419.58	11.70
419.77	35.11
419.96	25.75
420.15	23.41
420.34	72.56
420.53	112.35
420.72	46.81
420.91	37.45
421.10	7.02
421.29	0.00
421.48	4.68
421.67	0.00
421.86	25.75
422.05	42.13
422.24	39.79
422.43	0.00
422.61	32.77
422.80	39.79
422.99	53.83
423.18	51.49
423.37	35.11
423.56	114.69
423.75	102.98
423.94	25.75
424.13	58.51
424.32	16.38
424.50	56.17
424.69	37.45
424.88	77.24
425.07	77.24
425.26	0.00
425.45	25.75
425.64	65.54
425.83	67.88
426.01	72.56
426.20	119.37
426.39	88.94
426.58	53.83
426.77	79.58
426.96	58.51
427.15	11.70
427.33	11.70
427.52	14.04
427.71	11.70
427.90	51.49
428.09	14.04
428.28	14.04
428.46	30.43
428.65	46.81
428.84	30.43
429.03	53.83
429.22	0.00
429.40	14.04
429.59	21.06
429.78	9.36
429.97	7.02
430.16	84.26
430.34	98.30
430.53	0.00
430.72	95.96
430.91	30.43
431.10	138.09
431.28	107.66
431.47	91.28
431.66	91.28
431.85	105.32
432.03	60.85
432.22	0.00
432.41	23.41
432.60	100.64
432.79	7.02
432.97	39.79
433.16	77.24
433.35	49.15
433.54	30.43
433.72	28.09
433.91	39.79
434.10	7.02
434.28	39.79
434.47	0.00
434.66	21.06
434.85	79.58
435.03	32.77
435.22	49.15
435.41	4.68
435.59	42.13
435.78	51.49
435.97	14.04
436.16	0.00
436.34	0.00
436.53	39.79
436.72	0.00
436.90	4.68
437.09	11.70
437.28	126.39
437.46	88.94
437.65	65.54
437.84	100.64
438.02	77.24
438.21	0.00
438.40	107.66
438.58	32.77
438.77	0.00
438.96	37.45
439.14	44.47
439.33	58.51
439.52	39.79
439.70	25.75
439.89	46.81
440.08	49.15
440.26	28.09
440.45	142.77
440.63	51.49
440.82	16.38
441.01	0.00
441.19	23.41
441.38	0.00
441.57	131.07
441.75	67.88
441.94	28.09
442.12	112.35
442.31	16.38
442.50	39.79
442.68	0.00
442.87	65.54
443.05	65.54
443.24	35.11
443.43	28.09
443.61	9.36
443.80	0.00
443.98	98.30
444.17	58.51
444.35	46.81
444.54	21.06
444.73	58.51
444.91	30.43
445.10	100.64
445.28	65.54
445.47	51.49
445.65	95.96
445.84	84.26
446.02	0.00
446.21	58.51
446.39	93.62
446.58	74.90
446.77	102.98
446.95	39.79
447.14	51.49
447.32	88.94
447.51	140.43
447.69	60.85
447.88	9.36
448.06	95.96
448.25	53.83
448.43	86.60
448.62	2.34
448.80	42.13
448.99	65.54
449.17	18.72
449.36	65.54
449.54	65.54
449.73	2.34
449.91	77.24
450.10	56.17
450.28	74.90
450.46	74.90
450.65	35.11
450.83	11.70
451.02	51.49
451.20	30.43
451.39	67.88
451.57	56.17
451.76	70.22
451.94	42.13
452.13	37.45
452.31	117.03
452.49	37.45
452.68	60.85
452.86	0.00
453.05	65.54
453.23	145.11
453.42	58.51
453.60	16.38
453.78	67.88
453.97	67.88
454.15	53.83
454.34	95.96
454.52	53.83
454.70	28.09
454.89	81.92
455.07	58.51
455.26	28.09
455.44	70.22
455.62	7.02
455.81	60.85
455.99	0.00
456.17	72.56
456.36	7.02
456.54	42.13
456.73	67.88
456.91	28.09
457.09	77.24
457.28	25.75
457.46	49.15
457.64	16.38
457.83	16.38
458.01	30.43
458.19	86.60
458.38	81.92
458.56	53.83
458.74	56.17
458.93	110.01
459.11	72.56
459.29	81.92
459.48	18.72
459.66	25.75
459.84	18.72
460.03	7.02
460.21	84.26
460.39	93.62
460.57	58.51
460.76	42.13
460.94	60.85
461.12	124.05
461.31	74.90
461.49	67.88
461.67	81.92
461.85	86.60
462.04	32.77
462.22	39.79
462.40	0.00
462.59	32.77
462.77	25.75
462.95	100.64
463.13	56.17
463.32	98.30
463.50	49.15
463.68	98.30
463.86	32.77
464.05	4.68
464.23	16.38
464.41	25.75
464.59	56.17
464.78	51.49
464.96	42.13
465.14	79.58
465.32	0.00
465.50	35.11
465.69	4.68
465.87	70.22
466.05	32.77
466.23	77.24
466.41	11.70
466.60	88.94
466.78	46.81
466.96	14.04
467.14	131.07
467.32	18.72
467.51	37.45
467.69	18.72
467.87	65.54
468.05	72.56
468.23	70.22
468.41	77.24
468.60	0.00
468.78	28.09
468.96	53.83
469.14	42.13
469.32	32.77
469.50	23.41
469.69	77.24
469.87	39.79
470.05	53.83
470.23	2.34
470.41	98.30
470.59	84.26
470.77	81.92
470.95	119.37
471.14	0.00
471.32	28.09
471.50	74.90
471.68	14.04
471.86	37.45
472.04	25.75
472.22	56.17
472.40	74.90
472.58	58.51
472.77	46.81
472.95	74.90
473.13	23.41
473.31	70.22
473.49	74.90
473.67	93.62
473.85	65.54
474.03	86.60
474.21	84.26
474.39	63.19
474.57	35.11
474.75	95.96
474.93	30.43
475.12	77.24
475.30	39.79
475.48	0.00
475.66	51.49
475.84	21.06
476.02	60.85
476.20	32.77
476.38	0.00
476.56	91.28
476.74	70.22
476.92	86.60
477.10	84.26
477.28	95.96
477.46	0.00
477.64	0.00
477.82	70.22
478.00	74.90
478.18	53.83
478.36	23.41
478.54	2.34
478.72	100.64
478.90	107.66
479.08	32.77
479.26	28.09
479.44	77.24
479.62	30.43
479.80	67.88
479.98	74.90
480.16	102.98
480.34	32.77
480.52	37.45
480.70	49.15
480.88	98.30
481.06	23.41
481.24	79.58
481.41	11.70
481.59	35.11
481.77	86.60
481.95	42.13
482.13	14.04
482.31	56.17
482.49	51.49
482.67	65.54
482.85	98.30
483.03	7.02
483.21	124.05
483.39	25.75
483.57	51.49
483.74	117.03
483.92	81.92
484.10	32.77
484.28	51.49
484.46	121.71
484.64	102.98
484.82	11.70
485.00	107.66
485.18	67.88
485.35	60.85
485.53	72.56
485.71	98.30
485.89	102.98
486.07	102.98
486.25	105.32
486.43	67.88
486.61	140.43
486.78	30.43
486.96	100.64
487.14	105.32
487.32	74.90
487.50	72.56
487.68	63.19
487.85	81.92
488.03	18.72
488.21	79.58
488.39	70.22
488.57	14.04
488.75	56.17
488.92	124.05
489.10	65.54
489.28	114.69
489.46	72.56
489.64	74.90
489.81	56.17
489.99	112.35
490.17	98.30
490.35	63.19
490.53	79.58
490.70	100.64
490.88	46.81
491.06	128.73
491.24	72.56
491.41	117.03
491.59	37.45
491.77	77.24
491.95	53.83
492.13	65.54
492.30	49.15
492.48	63.19
492.66	56.17
492.84	98.30
493.01	7.02
493.19	4.68
493.37	88.94
493.54	100.64
493.72	56.17
493.90	95.96
494.08	70.22
494.25	84.26
494.43	126.39
494.61	135.75
494.79	18.72
494.96	70.22
495.14	79.58
495.32	93.62
495.49	72.56
495.67	67.88
495.85	56.17
496.02	208.31
496.20	84.26
496.38	58.51
496.55	77.24
496.73	81.92
496.91	88.94
497.09	39.79
497.26	14.04
497.44	93.62
497.62	79.58
497.79	126.39
497.97	93.62
498.14	74.90
498.32	98.30
498.50	100.64
498.67	84.26
498.85	133.41
499.03	107.66
499.20	121.71
499.38	161.50
499.56	145.11
499.73	208.31
499.91	84.26
500.08	95.96
500.26	88.94
500.44	93.62
500.61	140.43
500.79	138.09
500.97	28.09
501.14	126.39
501.32	77.24
501.49	110.01
501.67	35.11
501.84	63.19
502.02	25.75
502.20	30.43
502.37	126.39
502.55	72.56
502.72	60.85
502.90	84.26
503.07	51.49
503.25	91.28
503.43	112.35
503.60	72.56
503.78	72.56
503.95	42.13
504.13	133.41
504.30	81.92
504.48	65.54
504.65	138.09
504.83	42.13
505.01	121.71
505.18	110.01
505.36	42.13
505.53	63.19
505.71	0.00
505.88	91.28
506.06	110.01
506.23	81.92
506.41	11.70
506.58	133.41
506.76	53.83
506.93	70.22
507.11	152.13
507.28	86.60
507.46	65.54
507.63	44.47
507.81	110.01
507.98	95.96
508.16	58.51
508.33	110.01
508.50	91.28
508.68	51.49
508.85	124.05
509.03	51.49
509.20	39.79
509.38	16.38
509.55	93.62
509.73	51.49
509.90	100.64
510.08	51.49
510.25	9.36
510.42	138.09
510.60	56.17
510.77	128.73
510.95	93.62
511.12	53.83
511.30	88.94
511.47	117.03
511.64	156.82
511.82	37.45
511.99	79.58
512.17	63.19
512.34	53.83
512.51	72.56
512.69	161.50
512.86	112.35
513.04	9.36
513.21	74.90
513.38	84.26
513.56	95.96
513.73	77.24
513.90	107.66
514.08	79.58
514.25	60.85
514.43	107.66
514.60	105.32
514.77	93.62
514.95	114.69
515.12	93.62
515.29	102.98
515.47	100.64
515.64	121.71
515.81	107.66
515.99	95.96
516.16	88.94
516.33	79.58
516.51	110.01
516.68	58.51
516.85	65.54
517.03	60.85
517.20	39.79
517.37	0.00
517.54	88.94
517.72	72.56
517.89	98.30
518.06	84.26
518.24	128.73
518.41	77.24
518.58	100.64
518.75	28.09
518.93	84.26
519.10	72.56
519.27	77.24
519.45	131.07
519.62	140.43
519.79	114.69
519.96	98.30
520.14	0.00
520.31	70.22
520.48	65.54
520.65	86.60
520.83	60.85
521.00	81.92
521.17	60.85
521.34	11.70
521.52	11.70
521.69	102.98
521.86	112.35
522.03	39.79
522.20	16.38
522.38	98.30
522.55	95.96
522.72	105.32
522.89	56.17
523.07	28.09
523.24	159.16
523.41	46.81
523.58	112.35
523.75	70.22
523.92	42.13
524.10	124.05
524.27	53.83
524.44	65.54
524.61	56.17
524.78	124.05
524.96	18.72
525.13	81.92
525.30	102.98
525.47	53.83
525.64	60.85
525.81	93.62
525.98	112.35
526.16	74.90
526.33	84.26
526.50	42.13
526.67	95.96
526.84	49.15
527.01	95.96
527.18	88.94
527.36	112.35
527.53	70.22
527.70	84.26
527.87	102.98
528.04	0.00
528.21	114.69
528.38	53.83
528.55	147.45
528.72	173.20
528.89	107.66
529.07	119.37
529.24	81.92
529.41	88.94
529.58	149.79
529.75	51.49
529.92	114.69
530.09	114.69
530.26	135.75
530.43	159.16
530.60	149.79
530.77	67.88
530.94	133.41
531.11	58.51
531.28	100.64
531.46	114.69
531.63	77.24
531.80	70.22
531.97	107.66
532.14	84.26
532.31	95.96
532.48	86.60
532.65	7.02
532.82	114.69
532.99	163.84
533.16	53.83
533.33	63.19
533.50	74.90
533.67	95.96
533.84	110.01
534.01	65.54
534.18	105.32
534.35	124.05
534.52	117.03
534.69	114.69
534.86	72.56
535.03	70.22
535.20	65.54
535.37	81.92
535.54	46.81
535.71	81.92
535.88	110.01
536.05	98.30
536.22	102.98
536.38	42.13
536.55	102.98
536.72	105.32
536.89	42.13
537.06	0.00
537.23	91.28
537.40	121.71
537.57	128.73
537.74	79.58
537.91	100.64
538.08	119.37
538.25	46.81
538.42	72.56
538.59	110.01
538.75	121.71
538.92	95.96
539.09	81.92
539.26	147.45
539.43	88.94
539.60	86.60
539.77	131.07
539.94	0.00
540.11	65.54
540.28	131.07
540.44	60.85
540.61	93.62
540.78	133.41
540.95	140.43
541.12	114.69
541.29	65.54
541.46	105.32
541.62	72.56
541.79	93.62
541.96	142.77
542.13	98.30
542.30	81.92
542.47	58.51
542.63	74.90
542.80	79.58
542.97	65.54
543.14	44.47
543.31	93.62
543.48	98.30
543.64	140.43
543.81	77.24
543.98	39.79
544.15	58.51
544.32	149.79
544.48	44.47
544.65	63.19
544.82	74.90
544.99	60.85
545.16	79.58
545.32	42.13
545.49	110.01
545.66	93.62
545.83	121.71
546.00	46.81
546.16	110.01
546.33	77.24
546.50	63.19
546.67	44.47
546.83	102.98
547.00	140.43
547.17	70.22
547.34	63.19
547.50	44.47
547.67	67.88
547.84	117.03
548.00	95.96
548.17	105.32
548.34	126.39
548.51	58.51
548.67	107.66
548.84	98.30
549.01	102.98
549.18	58.51
549.34	98.30
549.51	84.26
549.68	58.51
549.84	107.66
550.01	77.24
550.18	149.79
550.34	84.26
550.51	100.64
550.68	121.71
550.84	98.30
551.01	110.01
551.18	91.28
551.34	79.58
551.51	105.32
551.68	63.19
551.84	25.75
552.01	112.35
552.18	142.77
552.34	81.92
552.51	9.36
552.68	51.49
552.84	84.26
553.01	65.54
553.18	72.56
553.34	102.98
553.51	119.37
553.67	95.96
553.84	93.62
554.01	98.30
554.17	102.98
554.34	56.17
554.51	65.54
554.67	84.26
554.84	140.43
555.00	63.19
555.17	21.06
555.33	63.19
555.50	105.32
555.67	147.45
555.83	79.58
556.00	37.45
556.16	79.58
556.33	88.94
556.50	131.07
556.66	98.30
556.83	60.85
556.99	149.79
557.16	67.88
557.32	128.73
557.49	102.98
557.65	67.88
557.82	81.92
557.98	102.98
558.15	110.01
558.32	65.54
558.48	105.32
558.65	74.90
558.81	77.24
558.98	91.28
559.14	100.64
559.31	42.13
559.47	98.30
559.64	102.98
559.80	51.49
559.97	98.30
560.13	72.56
560.30	110.01
560.46	56.17
560.63	84.26
560.79	91.28
560.96	105.32
561.12	121.71
561.29	159.16
561.45	53.83
561.61	95.96
561.78	0.00
561.94	81.92
562.11	74.90
562.27	84.26
562.44	0.00
562.60	60.85
562.77	37.45
562.93	21.06
563.10	117.03
563.26	44.47
563.42	93.62
563.59	67.88
563.75	84.26
563.92	56.17
564.08	100.64
564.24	95.96
564.41	124.05
564.57	63.19
564.74	86.60
564.90	161.50
565.07	72.56
565.23	21.06
565.39	65.54
565.56	112.35
565.72	35.11
565.88	49.15
566.05	51.49
566.21	39.79
566.38	95.96
566.54	72.56
566.70	91.28
566.87	93.62
567.03	46.81
567.19	117.03
567.36	77.24
567.52	100.64
567.68	60.85
567.85	60.85
568.01	98.30
568.17	32.77
568.34	56.17
568.50	18.72
568.66	60.85
568.83	107.66
568.99	44.47
569.15	105.32
569.32	131.07
569.48	117.03
569.64	65.54
569.81	51.49
569.97	56.17
570.13	77.24
570.30	16.38
570.46	95.96
570.62	105.32
570.78	147.45
570.95	124.05
571.11	119.37
571.27	67.88
571.43	72.56
571.60	30.43
571.76	126.39
571.92	63.19
572.09	53.83
572.25	180.22
572.41	128.73
572.57	67.88
572.74	63.19
572.90	79.58
573.06	56.17
573.22	86.60
573.38	53.83
573.55	77.24
573.71	93.62
573.87	14.04
574.03	39.79
574.20	63.19
574.36	81.92
574.52	72.56
574.68	67.88
574.84	98.30
575.01	53.83
575.17	0.00
575.33	67.88
575.49	30.43
575.65	107.66
575.82	110.01
575.98	88.94
576.14	102.98
576.30	67.88
576.46	84.26
576.62	126.39
576.79	81.92
576.95	53.83
577.11	74.90
577.27	95.96
577.43	77.24
577.59	88.94
577.75	65.54
577.92	100.64
578.08	145.11
578.24	42.13
578.40	100.64
578.56	117.03
578.72	102.98
578.88	70.22
579.04	53.83
579.21	98.30
579.37	131.07
579.53	77.24
579.69	114.69
579.85	88.94
580.01	100.64
580.17	58.51
580.33	21.06
580.49	39.79
580.65	49.15
580.82	53.83
580.98	112.35
581.14	65.54
581.30	14.04
581.46	110.01
581.62	77.24
581.78	81.92
581.94	102.98
582.10	77.24
582.26	39.79
582.42	91.28
582.58	79.58
582.74	124.05
582.90	56.17
583.06	114.69
583.22	88.94
583.38	14.04
583.54	60.85
583.70	65.54
583.86	51.49
584.02	147.45
584.18	102.98
584.34	35.11
584.50	88.94
584.66	65.54
584.82	14.04
584.98	0.00
585.14	39.79
585.30	117.03
585.46	0.00
585.62	79.58
585.78	84.26
585.94	88.94
586.10	152.13
586.26	91.28
586.42	126.39
586.58	28.09
586.74	67.88
586.90	56.17
587.06	49.15
587.22	51.49
587.38	147.45
587.54	58.51
587.70	117.03
587.86	79.58
588.02	16.38
588.18	53.83
588.34	0.00
588.49	2.34
588.65	58.51
588.81	0.00
588.97	112.35
589.13	102.98
589.29	84.26
589.45	93.62
589.61	84.26
589.77	25.75
589.93	37.45
590.08	44.47
590.24	56.17
590.40	67.88
590.56	63.19
590.72	72.56
590.88	30.43
591.04	67.88
591.20	39.79
591.35	49.15
591.51	91.28
591.67	105.32
591.83	58.51
591.99	35.11
592.15	100.64
592.31	112.35
592.46	88.94
592.62	56.17
592.78	0.00
592.94	58.51
593.10	39.79
593.26	102.98
593.41	81.92
593.57	93.62
593.73	35.11
593.89	102.98
594.05	107.66
594.20	98.30
594.36	46.81
594.52	0.00
594.68	42.13
594.84	98.30
594.99	91.28
595.15	51.49
595.31	63.19
595.47	4.68
595.62	100.64
595.78	142.77
595.94	91.28
596.10	42.13
596.25	70.22
596.41	110.01
596.57	79.58
596.73	88.94
596.88	21.06
597.04	28.09
597.20	105.32
597.36	88.94
597.51	49.15
597.67	91.28
597.83	14.04
597.99	84.26
598.14	124.05
598.30	67.88
598.46	32.77
598.61	77.24
598.77	84.26
598.93	98.30
599.09	107.66
599.24	81.92
599.40	88.94
599.56	35.11
599.71	133.41
599.87	46.81
600.03	16.38
600.18	126.39
600.34	65.54
600.50	81.92
600.65	100.64
600.81	138.09
600.97	86.60
601.12	37.45
601.28	60.85
601.44	161.50
601.59	72.56
601.75	79.58
601.91	67.88
602.06	30.43
602.22	117.03
602.37	70.22
602.53	93.62
602.69	67.88
602.84	93.62
603.00	63.19
603.16	9.36
603.31	74.90
603.47	28.09
603.62	72.56
603.78	39.79
603.94	46.81
604.09	44.47
604.25	70.22
604.40	39.79
604.56	72.56
604.71	100.64
604.87	0.00
605.03	39.79
605.18	39.79
605.34	63.19
605.49	0.00
605.65	74.90
605.80	18.72
605.96	39.79
606.12	46.81
606.27	58.51
606.43	39.79
606.58	70.22
606.74	4.68
606.89	37.45
607.05	4.68
607.20	88.94
607.36	70.22
607.51	51.49
607.67	95.96
607.82	95.96
607.98	112.35
608.13	67.88
608.29	154.48
608.44	77.24
608.60	124.05
608.75	74.90
608.91	140.43
609.06	95.96
609.22	7.02
609.37	35.11
609.53	49.15
609.68	74.90
609.84	72.56
609.99	60.85
610.15	65.54
610.30	0.00
610.46	102.98
610.61	72.56
610.76	84.26
610.92	51.49
611.07	88.94
611.23	60.85
611.38	98.30
611.54	42.13
611.69	37.45
611.84	49.15
612.00	100.64
612.15	117.03
612.31	138.09
612.46	51.49
612.62	95.96
612.77	30.43
612.92	79.58
613.08	70.22
613.23	30.43
613.39	135.75
613.54	63.19
613.69	0.00
613.85	46.81
614.00	39.79
614.15	74.90
614.31	35.11
614.46	39.79
614.62	79.58
614.77	46.81
614.92	39.79
615.08	32.77
615.23	67.88
615.38	46.81
615.54	65.54
615.69	79.58
615.84	63.19
616.00	86.60
616.15	67.88
616.30	51.49
616.46	95.96
616.61	124.05
616.76	84.26
616.92	18.72
617.07	0.00
617.22	131.07
617.37	44.47
617.53	84.26
617.68	37.45
617.83	42.13
617.99	140.43
618.14	58.51
618.29	63.19
618.45	14.04
618.60	14.04
618.75	49.15
618.90	7.02
619.06	0.00
619.21	49.15
619.36	42.13
619.51	53.83
619.67	79.58
619.82	51.49
619.97	84.26
620.12	100.64
620.28	86.60
620.43	58.51
620.58	93.62
620.73	32.77
620.89	16.38
621.04	79.58
621.19	18.72
621.34	72.56
621.49	58.51
621.65	25.75
621.80	60.85
621.95	32.77
622.10	35.11
622.25	37.45
622.41	28.09
622.56	14.04
622.71	46.81
622.86	46.81
623.01	110.01
623.16	110.01
623.32	65.54
623.47	91.28
623.62	9.36
623.77	53.83
623.92	53.83
624.07	49.15
624.23	70.22
624.38	21.06
624.53	79.58
624.68	63.19
624.83	49.15
624.98	126.39
625.13	46.81
625.29	56.17
625.44	32.77
625.59	0.00
625.74	138.09
625.89	131.07
626.04	81.92
626.19	60.85
626.34	42.13
626.49	98.30
626.65	44.47
626.80	18.72
626.95	56.17
627.10	2.34
627.25	110.01
627.40	107.66
627.55	30.43
627.70	100.64
627.85	0.00
628.00	2.34
628.15	11.70
628.30	21.06
628.45	25.75
628.60	35.11
628.76	98.30
628.91	72.56
629.06	49.15
629.21	100.64
629.36	32.77
629.51	56.17
629.66	16.38
629.81	14.04
629.96	74.90
630.11	72.56
630.26	44.47
630.41	51.49
630.56	93.62
630.71	65.54
630.86	42.13
631.01	21.06
631.16	98.30
631.31	98.30
631.46	77.24
631.61	100.64
631.76	117.03
631.91	93.62
632.06	39.79
632.21	65.54
632.36	86.60
632.51	67.88
632.66	88.94
632.81	70.22
632.96	79.58
633.10	56.17
633.25	18.72
633.40	95.96
633.55	46.81
633.70	72.56
633.85	37.45
634.00	51.49
634.15	70.22
634.30	100.64
634.45	70.22
634.60	30.43
634.75	46.81
634.90	42.13
635.05	35.11
635.19	14.04
635.34	0.00
635.49	28.09
635.64	56.17
635.79	65.54
635.94	49.15
636.09	72.56
636.24	35.11
636.39	23.41
636.53	98.30
636.68	21.06
636.83	42.13
636.98	14.04
637.13	79.58
637.28	63.19
637.43	25.75
637.57	0.00
637.72	16.38
637.87	65.54
638.02	79.58
638.17	93.62
638.32	35.11
638.46	39.79
638.61	18.72
638.76	60.85
638.91	0.00
639.06	46.81
639.20	65.54
639.35	60.85
639.50	67.88
639.65	42.13
639.80	14.04
639.94	39.79
640.09	119.37
640.24	56.17
640.39	53.83
640.54	23.41
640.68	98.30
640.83	84.26
640.98	25.75
641.13	79.58
641.27	79.58
641.42	9.36
641.57	44.47
641.72	72.56
641.86	105.32
642.01	102.98
642.16	49.15
642.31	46.81
642.45	72.56
642.60	60.85
642.75	63.19
642.90	58.51
643.04	121.71
643.19	46.81
643.34	53.83
643.48	79.58
643.63	46.81
643.78	9.36
643.93	63.19
644.07	0.00
644.22	35.11
644.37	37.45
644.51	81.92
644.66	79.58
644.81	74.90
644.95	149.79
645.10	128.73
645.25	72.56
645.39	142.77
645.54	0.00
645.69	63.19
645.83	25.75
645.98	121.71
646.13	86.60
646.27	84.26
646.42	42.13
646.57	112.35
646.71	88.94
646.86	77.24
647.00	60.85
647.15	88.94
647.30	9.36
647.44	30.43
647.59	102.98
647.74	70.22
647.88	30.43
648.03	28.09
648.17	63.19
648.32	28.09
648.47	0.00
648.61	32.77
648.76	42.13
648.90	72.56
649.05	42.13
649.20	107.66
649.34	39.79
649.49	25.75
649.63	18.72
649.78	63.19
649.92	42.13
650.07	9.36
650.21	9.36
650.36	25.75
650.51	142.77
650.65	56.17
650.80	21.06
650.94	49.15
651.09	46.81
651.23	35.11
651.38	84.26
651.52	46.81
651.67	42.13
651.81	21.06
651.96	49.15
652.10	88.94
652.25	0.00
652.39	65.54
652.54	0.00
652.68	95.96
652.83	84.26
652.97	60.85
653.12	74.90
653.26	93.62
653.41	77.24
653.55	60.85
653.70	37.45
653.84	112.35
653.99	95.96
654.13	91.28
654.27	14.04
654.42	70.22
654.56	28.09
654.71	25.75
654.85	42.13
655.00	74.90
655.14	18.72
655.29	18.72
655.43	46.81
655.57	18.72
655.72	7.02
655.86	46.81
656.01	35.11
656.15	67.88
656.30	23.41
656.44	49.15
656.58	23.41
656.73	88.94
656.87	145.11
657.01	79.58
657.16	110.01
657.30	39.79
657.45	25.75
657.59	46.81
657.73	37.45
657.88	21.06
658.02	63.19
658.16	18.72
658.31	60.85
658.45	4.68
658.60	21.06
658.74	4.68
658.88	74.90
659.03	49.15
659.17	67.88
659.31	44.47
659.46	0.00
659.60	51.49
659.74	56.17
659.89	81.92
660.03	56.17
660.17	7.02
660.32	4.68
660.46	67.88
660.60	86.60
660.74	91.28
660.89	18.72
661.03	25.75
661.17	21.06
661.32	9.36
661.46	95.96
661.60	77.24
661.74	25.75
661.89	70.22
662.03	2.34
662.17	84.26
662.31	58.51
662.46	39.79
662.60	98.30
662.74	0.00
662.88	49.15
663.03	49.15
663.17	9.36
663.31	74.90
663.45	84.26
663.60	79.58
663.74	58.51
663.88	42.13
664.02	16.38
664.17	77.24
664.31	58.51
664.45	79.58
664.59	44.47
664.73	42.13
664.88	0.00
665.02	25.75
665.16	11.70
665.30	9.36
665.44	30.43
665.59	35.11
665.73	9.36
665.87	74.90
666.01	63.19
666.15	25.75
666.29	32.77
666.44	67.88
666.58	28.09
666.72	105.32
666.86	81.92
667.00	81.92
667.14	58.51
667.28	23.41
667.43	77.24
667.57	30.43
667.71	98.30
667.85	91.28
667.99	81.92
668.13	74.90
668.27	81.92
668.41	39.79
668.56	112.35
668.70	98.30
668.84	110.01
668.98	53.83
669.12	0.00
669.26	0.00
669.40	86.60
669.54	32.77
669.68	23.41
669.82	0.00
669.96	4.68
670.10	77.24
670.25	58.51
670.39	126.39
670.53	91.28
670.67	35.11
670.81	0.00
670.95	58.51
671.09	67.88
671.23	35.11
671.37	128.73
671.51	35.11
671.65	60.85
671.79	0.00
671.93	35.11
672.07	0.00
672.21	86.60
672.35	86.60
672.49	23.41
672.63	74.90
672.77	74.90
672.91	39.79
673.05	32.77
673.19	49.15
673.33	32.77
673.47	49.15
673.61	42.13
673.75	60.85
673.89	63.19
674.03	21.06
674.17	42.13
674.31	91.28
674.45	32.77
674.59	37.45
674.73	23.41
674.87	16.38
675.01	42.13
675.15	44.47
675.29	25.75
675.43	0.00
675.56	79.58
675.70	107.66
675.84	51.49
675.98	23.41
676.12	74.90
676.26	56.17
676.40	86.60
676.54	42.13
676.68	42.13
676.82	51.49
676.96	65.54
677.10	42.13
677.23	86.60
677.37	51.49
677.51	23.41
677.65	37.45
677.79	81.92
677.93	23.41
678.07	0.00
678.21	23.41
678.34	77.24
678.48	98.30
678.62	49.15
678.76	81.92
678.90	30.43
679.04	58.51
679.18	35.11
679.31	0.00
679.45	18.72
679.59	60.85
679.73	44.47
679.87	37.45
680.00	51.49
680.14	105.32
680.28	0.00
680.42	88.94
680.56	74.90
680.70	86.60
680.83	72.56
680.97	74.90
681.11	0.00
681.25	0.00
681.39	51.49
681.52	23.41
681.66	114.69
681.80	49.15
681.94	30.43
682.07	25.75
682.21	65.54
682.35	4.68
682.49	79.58
682.62	25.75
682.76	0.00
682.90	49.15
683.04	65.54
683.17	37.45
683.31	70.22
683.45	18.72
683.59	35.11
683.72	46.81
683.86	23.41
684.00	44.47
684.13	28.09
684.27	30.43
684.41	4.68
684.55	9.36
684.68	23.41
684.82	30.43
684.96	49.15
685.09	72.56
685.23	77.24
685.37	18.72
685.50	37.45
685.64	18.72
685.78	2.34
685.91	32.77
686.05	86.60
686.19	72.56
686.32	60.85
686.46	86.60
686.60	42.13
686.73	46.81
686.87	49.15
687.01	30.43
687.14	0.00
687.28	53.83
687.42	58.51
687.55	51.49
687.69	32.77
687.82	35.11
687.96	60.85
688.10	0.00
688.23	30.43
688.37	121.71
688.50	0.00
688.64	11.70
688.78	56.17
688.91	105.32
689.05	42.13
689.18	56.17
689.32	58.51
689.46	18.72
689.59	32.77
689.73	84.26
689.86	88.94
690.00	23.41
690.13	49.15
690.27	21.06
690.41	42.13
690.54	140.43
690.68	91.28
690.81	4.68
690.95	46.81
691.08	0.00
691.22	0.00
691.35	74.90
691.49	63.19
691.62	93.62
691.76	37.45
691.89	145.11
692.03	37.45
692.16	56.17
692.30	0.00
692.43	51.49
692.57	18.72
692.70	93.62
692.84	11.70
692.97	56.17
693.11	0.00
693.24	42.13
693.38	30.43
693.51	79.58
693.65	60.85
693.78	23.41
693.92	32.77
694.05	35.11
694.19	0.00
694.32	58.51
694.45	0.00
694.59	58.51
694.72	84.26
694.86	0.00
694.99	39.79
695.13	70.22
695.26	58.51
695.39	0.00
695.53	53.83
695.66	86.60
695.80	21.06
695.93	46.81
696.07	32.77
696.20	39.79
696.33	86.60
696.47	42.13
696.60	0.00
696.73	16.38
696.87	0.00
697.00	14.04
697.14	56.17
697.27	14.04
697.40	7.02
697.54	39.79
697.67	65.54
697.80	0.00
697.94	18.72
698.07	49.15
698.21	39.79
698.34	0.00
698.47	25.75
698.61	18.72
698.74	67.88
698.87	28.09
699.01	30.43
699.14	14.04
699.27	0.00
699.40	74.90
699.54	0.00
699.67	39.79
699.80	30.43
699.94	46.81
700.07	16.38
700.20	56.17
700.34	35.11
700.47	56.17
700.60	0.00
700.73	100.64
700.87	128.73
701.00	0.00
701.13	0.00
701.26	35.11
701.40	25.75
701.53	58.51
701.66	14.04
701.79	7.02
701.93	142.77
702.06	46.81
702.19	30.43
702.32	4.68
702.46	88.94
702.59	21.06
702.72	53.83
702.85	30.43
702.99	81.92
703.12	49.15
703.25	23.41
703.38	0.00
703.51	0.00
703.65	35.11
703.78	0.00
703.91	74.90
704.04	56.17
704.17	42.13
704.31	23.41
704.44	88.94
704.57	72.56
704.70	88.94
704.83	44.47
704.96	44.47
705.10	98.30
705.23	37.45
>>>>>End Processed Spectral Data<<<<<
