SpectraSuite Data File
++++++++++++++++++++++++++++++++++++
Date: Fri Oct 04 12:13:43 GMT-05:00 2013
User: price-jones
Dark Spectrum Present: No
Reference Spectrum Present: No
Number of Sampled Component Spectra: 1
Spectrometers: USB2+H05261
Integration Time (usec): 10000 (USB2+H05261)
Spectra Averaged: 1 (USB2+H05261)
Boxcar Smoothing: 0 (USB2+H05261)
Correct for Electrical Dark: No (USB2+H05261)
Strobe/Lamp Enabled: No (USB2+H05261)
Correct for Detector Non-linearity: No (USB2+H05261)
Correct for Stray Light: No (USB2+H05261)
Number of Pixels in Processed Spectrum: 2048
>>>>>Begin Processed Spectral Data<<<<<
365.73	0.00
365.92	0.00
366.12	0.00
366.32	0.00
366.52	0.00
366.72	0.00
366.91	0.00
367.11	0.00
367.31	0.00
367.51	0.00
367.70	0.00
367.90	0.00
368.10	0.00
368.30	0.00
368.49	0.00
368.69	0.00
368.89	0.00
369.09	0.00
369.28	0.00
369.48	0.00
369.68	0.00
369.87	0.00
370.07	0.00
370.27	0.00
370.47	0.00
370.66	0.00
370.86	0.00
371.06	0.00
371.25	0.00
371.45	42.13
371.65	0.00
371.84	21.06
372.04	30.43
372.24	0.00
372.44	51.49
372.63	0.00
372.83	39.79
373.03	4.68
373.22	18.72
373.42	0.00
373.62	30.43
373.81	91.28
374.01	46.81
374.21	74.90
374.40	70.22
374.60	65.54
374.79	53.83
374.99	0.00
375.19	58.51
375.38	0.00
375.58	30.43
375.78	0.00
375.97	77.24
376.17	25.75
376.37	0.00
376.56	58.51
376.76	70.22
376.95	0.00
377.15	9.36
377.35	21.06
377.54	21.06
377.74	37.45
377.93	28.09
378.13	51.49
378.33	63.19
378.52	65.54
378.72	0.00
378.91	0.00
379.11	14.04
379.31	39.79
379.50	16.38
379.70	2.34
379.89	0.00
380.09	0.00
380.28	86.60
380.48	9.36
380.68	0.00
380.87	0.00
381.07	88.94
381.26	56.17
381.46	14.04
381.65	67.88
381.85	32.77
382.04	28.09
382.24	0.00
382.43	35.11
382.63	21.06
382.83	32.77
383.02	98.30
383.22	30.43
383.41	0.00
383.61	0.00
383.80	0.00
384.00	16.38
384.19	0.00
384.39	14.04
384.58	53.83
384.78	67.88
384.97	0.00
385.17	79.58
385.36	18.72
385.56	0.00
385.75	0.00
385.95	0.00
386.14	0.00
386.34	21.06
386.53	0.00
386.72	46.81
386.92	60.85
387.11	9.36
387.31	56.17
387.50	18.72
387.70	21.06
387.89	74.90
388.09	2.34
388.28	0.00
388.48	0.00
388.67	0.00
388.86	42.13
389.06	51.49
389.25	18.72
389.45	18.72
389.64	46.81
389.84	7.02
390.03	46.81
390.22	0.00
390.42	16.38
390.61	0.00
390.81	53.83
391.00	32.77
391.19	39.79
391.39	42.13
391.58	11.70
391.78	107.66
391.97	98.30
392.16	0.00
392.36	2.34
392.55	14.04
392.75	0.00
392.94	0.00
393.13	58.51
393.33	37.45
393.52	0.00
393.71	56.17
393.91	0.00
394.10	58.51
394.29	51.49
394.49	0.00
394.68	0.00
394.88	23.41
395.07	0.00
395.26	49.15
395.46	0.00
395.65	28.09
395.84	0.00
396.04	32.77
396.23	2.34
396.42	0.00
396.62	32.77
396.81	56.17
397.00	44.47
397.19	32.77
397.39	0.00
397.58	56.17
397.77	32.77
397.97	32.77
398.16	44.47
398.35	58.51
398.55	0.00
398.74	0.00
398.93	53.83
399.12	63.19
399.32	53.83
399.51	28.09
399.70	60.85
399.90	25.75
400.09	67.88
400.28	42.13
400.47	11.70
400.67	65.54
400.86	60.85
401.05	72.56
401.24	14.04
401.44	30.43
401.63	39.79
401.82	18.72
402.01	0.00
402.21	42.13
402.40	51.49
402.59	42.13
402.78	0.00
402.97	46.81
403.17	14.04
403.36	11.70
403.55	21.06
403.74	86.60
403.93	44.47
404.13	0.00
404.32	28.09
404.51	32.77
404.70	79.58
404.89	28.09
405.09	0.00
405.28	21.06
405.47	42.13
405.66	49.15
405.85	56.17
406.05	14.04
406.24	25.75
406.43	25.75
406.62	51.49
406.81	84.26
407.00	0.00
407.20	81.92
407.39	88.94
407.58	0.00
407.77	67.88
407.96	23.41
408.15	58.51
408.34	0.00
408.54	46.81
408.73	91.28
408.92	21.06
409.11	142.77
409.30	42.13
409.49	58.51
409.68	44.47
409.87	56.17
410.07	0.00
410.26	35.11
410.45	0.00
410.64	53.83
410.83	46.81
411.02	60.85
411.21	81.92
411.40	70.22
411.59	9.36
411.78	67.88
411.98	70.22
412.17	28.09
412.36	100.64
412.55	58.51
412.74	53.83
412.93	11.70
413.12	37.45
413.31	70.22
413.50	70.22
413.69	25.75
413.88	4.68
414.07	21.06
414.26	28.09
414.45	0.00
414.64	14.04
414.83	98.30
415.02	0.00
415.22	74.90
415.41	0.00
415.60	49.15
415.79	18.72
415.98	14.04
416.17	93.62
416.36	16.38
416.55	58.51
416.74	7.02
416.93	77.24
417.12	0.00
417.31	53.83
417.50	11.70
417.69	28.09
417.88	30.43
418.07	0.00
418.26	32.77
418.45	110.01
418.64	49.15
418.83	67.88
419.02	4.68
419.21	14.04
419.39	105.32
419.58	100.64
419.77	91.28
419.96	70.22
420.15	25.75
420.34	0.00
420.53	4.68
420.72	70.22
420.91	72.56
421.10	42.13
421.29	0.00
421.48	37.45
421.67	51.49
421.86	32.77
422.05	107.66
422.24	88.94
422.43	16.38
422.61	44.47
422.80	53.83
422.99	88.94
423.18	42.13
423.37	86.60
423.56	56.17
423.75	56.17
423.94	9.36
424.13	39.79
424.32	46.81
424.50	0.00
424.69	4.68
424.88	16.38
425.07	79.58
425.26	0.00
425.45	37.45
425.64	25.75
425.83	21.06
426.01	23.41
426.20	65.54
426.39	81.92
426.58	0.00
426.77	65.54
426.96	98.30
427.15	0.00
427.33	11.70
427.52	77.24
427.71	37.45
427.90	86.60
428.09	65.54
428.28	0.00
428.46	37.45
428.65	53.83
428.84	7.02
429.03	74.90
429.22	49.15
429.40	117.03
429.59	95.96
429.78	11.70
429.97	37.45
430.16	81.92
430.34	0.00
430.53	110.01
430.72	51.49
430.91	18.72
431.10	58.51
431.28	112.35
431.47	105.32
431.66	124.05
431.85	102.98
432.03	65.54
432.22	93.62
432.41	74.90
432.60	53.83
432.79	65.54
432.97	37.45
433.16	86.60
433.35	117.03
433.54	53.83
433.72	39.79
433.91	110.01
434.10	28.09
434.28	2.34
434.47	0.00
434.66	46.81
434.85	79.58
435.03	0.00
435.22	72.56
435.41	0.00
435.59	70.22
435.78	35.11
435.97	30.43
436.16	14.04
436.34	46.81
436.53	46.81
436.72	32.77
436.90	28.09
437.09	91.28
437.28	11.70
437.46	67.88
437.65	0.00
437.84	37.45
438.02	4.68
438.21	0.00
438.40	119.37
438.58	168.52
438.77	49.15
438.96	105.32
439.14	86.60
439.33	21.06
439.52	32.77
439.70	42.13
439.89	37.45
440.08	51.49
440.26	70.22
440.45	93.62
440.63	35.11
440.82	74.90
441.01	35.11
441.19	9.36
441.38	32.77
441.57	86.60
441.75	18.72
441.94	84.26
442.12	39.79
442.31	37.45
442.50	28.09
442.68	25.75
442.87	102.98
443.05	91.28
443.24	63.19
443.43	72.56
443.61	98.30
443.80	107.66
443.98	4.68
444.17	46.81
444.35	79.58
444.54	60.85
444.73	72.56
444.91	35.11
445.10	121.71
445.28	44.47
445.47	0.00
445.65	44.47
445.84	91.28
446.02	77.24
446.21	51.49
446.39	0.00
446.58	100.64
446.77	42.13
446.95	0.00
447.14	0.00
447.32	44.47
447.51	63.19
447.69	39.79
447.88	42.13
448.06	65.54
448.25	105.32
448.43	63.19
448.62	25.75
448.80	0.00
448.99	28.09
449.17	46.81
449.36	70.22
449.54	91.28
449.73	67.88
449.91	107.66
450.10	28.09
450.28	93.62
450.46	79.58
450.65	95.96
450.83	98.30
451.02	81.92
451.20	105.32
451.39	133.41
451.57	112.35
451.76	18.72
451.94	79.58
452.13	67.88
452.31	0.00
452.49	35.11
452.68	72.56
452.86	58.51
453.05	46.81
453.23	53.83
453.42	74.90
453.60	86.60
453.78	67.88
453.97	56.17
454.15	11.70
454.34	114.69
454.52	60.85
454.70	91.28
454.89	2.34
455.07	65.54
455.26	44.47
455.44	0.00
455.62	93.62
455.81	70.22
455.99	23.41
456.17	124.05
456.36	39.79
456.54	46.81
456.73	28.09
456.91	77.24
457.09	86.60
457.28	74.90
457.46	117.03
457.64	114.69
457.83	28.09
458.01	49.15
458.19	63.19
458.38	74.90
458.56	98.30
458.74	65.54
458.93	63.19
459.11	39.79
459.29	0.00
459.48	25.75
459.66	88.94
459.84	98.30
460.03	53.83
460.21	44.47
460.39	72.56
460.57	25.75
460.76	53.83
460.94	100.64
461.12	58.51
461.31	121.71
461.49	72.56
461.67	98.30
461.85	86.60
462.04	39.79
462.22	121.71
462.40	58.51
462.59	110.01
462.77	53.83
462.95	72.56
463.13	51.49
463.32	166.18
463.50	46.81
463.68	49.15
463.86	25.75
464.05	81.92
464.23	91.28
464.41	63.19
464.59	70.22
464.78	114.69
464.96	138.09
465.14	37.45
465.32	56.17
465.50	100.64
465.69	102.98
465.87	23.41
466.05	102.98
466.23	16.38
466.41	58.51
466.60	84.26
466.78	49.15
466.96	4.68
467.14	11.70
467.32	117.03
467.51	126.39
467.69	16.38
467.87	51.49
468.05	117.03
468.23	84.26
468.41	21.06
468.60	46.81
468.78	98.30
468.96	70.22
469.14	18.72
469.32	135.75
469.50	46.81
469.69	128.73
469.87	133.41
470.05	63.19
470.23	117.03
470.41	53.83
470.59	102.98
470.77	74.90
470.95	25.75
471.14	58.51
471.32	32.77
471.50	63.19
471.68	105.32
471.86	95.96
472.04	16.38
472.22	51.49
472.40	58.51
472.58	23.41
472.77	84.26
472.95	124.05
473.13	117.03
473.31	72.56
473.49	21.06
473.67	28.09
473.85	39.79
474.03	112.35
474.21	79.58
474.39	9.36
474.57	51.49
474.75	95.96
474.93	42.13
475.12	72.56
475.30	81.92
475.48	105.32
475.66	93.62
475.84	4.68
476.02	93.62
476.20	74.90
476.38	86.60
476.56	110.01
476.74	77.24
476.92	56.17
477.10	100.64
477.28	70.22
477.46	67.88
477.64	30.43
477.82	77.24
478.00	30.43
478.18	102.98
478.36	35.11
478.54	46.81
478.72	91.28
478.90	0.00
479.08	95.96
479.26	81.92
479.44	135.75
479.62	58.51
479.80	37.45
479.98	121.71
480.16	100.64
480.34	163.84
480.52	124.05
480.70	102.98
480.88	102.98
481.06	93.62
481.24	60.85
481.41	140.43
481.59	53.83
481.77	46.81
481.95	30.43
482.13	77.24
482.31	100.64
482.49	88.94
482.67	42.13
482.85	145.11
483.03	100.64
483.21	119.37
483.39	86.60
483.57	32.77
483.74	46.81
483.92	65.54
484.10	23.41
484.28	58.51
484.46	110.01
484.64	0.00
484.82	70.22
485.00	67.88
485.18	121.71
485.35	81.92
485.53	84.26
485.71	0.00
485.89	46.81
486.07	98.30
486.25	65.54
486.43	70.22
486.61	84.26
486.78	9.36
486.96	114.69
487.14	9.36
487.32	121.71
487.50	72.56
487.68	86.60
487.85	74.90
488.03	133.41
488.21	119.37
488.39	14.04
488.57	100.64
488.75	72.56
488.92	70.22
489.10	126.39
489.28	63.19
489.46	88.94
489.64	84.26
489.81	86.60
489.99	67.88
490.17	88.94
490.35	100.64
490.53	79.58
490.70	42.13
490.88	67.88
491.06	63.19
491.24	14.04
491.41	37.45
491.59	37.45
491.77	7.02
491.95	121.71
492.13	42.13
492.30	114.69
492.48	140.43
492.66	63.19
492.84	74.90
493.01	77.24
493.19	46.81
493.37	91.28
493.54	119.37
493.72	67.88
493.90	173.20
494.08	147.45
494.25	39.79
494.43	119.37
494.61	60.85
494.79	65.54
494.96	117.03
495.14	44.47
495.32	107.66
495.49	95.96
495.67	114.69
495.85	63.19
496.02	11.70
496.20	124.05
496.38	67.88
496.55	70.22
496.73	65.54
496.91	79.58
497.09	91.28
497.26	119.37
497.44	93.62
497.62	72.56
497.79	131.07
497.97	114.69
498.14	81.92
498.32	86.60
498.50	42.13
498.67	138.09
498.85	93.62
499.03	39.79
499.20	37.45
499.38	67.88
499.56	95.96
499.73	154.48
499.91	32.77
500.08	91.28
500.26	84.26
500.44	60.85
500.61	100.64
500.79	166.18
500.97	133.41
501.14	60.85
501.32	117.03
501.49	0.00
501.67	98.30
501.84	30.43
502.02	70.22
502.20	70.22
502.37	102.98
502.55	65.54
502.72	51.49
502.90	91.28
503.07	65.54
503.25	156.82
503.43	81.92
503.60	30.43
503.78	35.11
503.95	23.41
504.13	84.26
504.30	124.05
504.48	72.56
504.65	86.60
504.83	65.54
505.01	142.77
505.18	124.05
505.36	107.66
505.53	53.83
505.71	37.45
505.88	102.98
506.06	72.56
506.23	65.54
506.41	119.37
506.58	79.58
506.76	135.75
506.93	46.81
507.11	46.81
507.28	93.62
507.46	72.56
507.63	112.35
507.81	56.17
507.98	56.17
508.16	117.03
508.33	131.07
508.50	44.47
508.68	60.85
508.85	86.60
509.03	74.90
509.20	44.47
509.38	81.92
509.55	84.26
509.73	95.96
509.90	88.94
510.08	88.94
510.25	32.77
510.42	105.32
510.60	91.28
510.77	100.64
510.95	145.11
511.12	121.71
511.30	79.58
511.47	100.64
511.64	53.83
511.82	110.01
511.99	72.56
512.17	117.03
512.34	105.32
512.51	145.11
512.69	95.96
512.86	65.54
513.04	170.86
513.21	79.58
513.38	124.05
513.56	70.22
513.73	51.49
513.90	121.71
514.08	119.37
514.25	107.66
514.43	131.07
514.60	121.71
514.77	42.13
514.95	30.43
515.12	107.66
515.29	142.77
515.47	142.77
515.64	44.47
515.81	145.11
515.99	81.92
516.16	105.32
516.33	14.04
516.51	37.45
516.68	91.28
516.85	93.62
517.03	81.92
517.20	37.45
517.37	16.38
517.54	114.69
517.72	60.85
517.89	88.94
518.06	56.17
518.24	107.66
518.41	74.90
518.58	79.58
518.75	117.03
518.93	114.69
519.10	91.28
519.27	18.72
519.45	32.77
519.62	81.92
519.79	110.01
519.96	67.88
520.14	4.68
520.31	11.70
520.48	88.94
520.65	149.79
520.83	126.39
521.00	51.49
521.17	86.60
521.34	70.22
521.52	126.39
521.69	58.51
521.86	0.00
522.03	67.88
522.20	142.77
522.38	93.62
522.55	98.30
522.72	168.52
522.89	93.62
523.07	102.98
523.24	138.09
523.41	135.75
523.58	102.98
523.75	72.56
523.92	112.35
524.10	65.54
524.27	133.41
524.44	102.98
524.61	91.28
524.78	126.39
524.96	95.96
525.13	79.58
525.30	77.24
525.47	142.77
525.64	105.32
525.81	168.52
525.98	79.58
526.16	117.03
526.33	70.22
526.50	37.45
526.67	145.11
526.84	135.75
527.01	53.83
527.18	102.98
527.36	105.32
527.53	145.11
527.70	53.83
527.87	32.77
528.04	67.88
528.21	79.58
528.38	74.90
528.55	58.51
528.72	163.84
528.89	166.18
529.07	117.03
529.24	133.41
529.41	121.71
529.58	49.15
529.75	77.24
529.92	105.32
530.09	67.88
530.26	126.39
530.43	93.62
530.60	135.75
530.77	145.11
530.94	117.03
531.11	138.09
531.28	65.54
531.46	4.68
531.63	84.26
531.80	102.98
531.97	145.11
532.14	91.28
532.31	79.58
532.48	25.75
532.65	98.30
532.82	32.77
532.99	32.77
533.16	149.79
533.33	56.17
533.50	121.71
533.67	119.37
533.84	74.90
534.01	65.54
534.18	91.28
534.35	86.60
534.52	77.24
534.69	98.30
534.86	39.79
535.03	86.60
535.20	102.98
535.37	65.54
535.54	95.96
535.71	60.85
535.88	159.16
536.05	93.62
536.22	114.69
536.38	142.77
536.55	79.58
536.72	133.41
536.89	86.60
537.06	98.30
537.23	126.39
537.40	159.16
537.57	91.28
537.74	79.58
537.91	138.09
538.08	88.94
538.25	51.49
538.42	119.37
538.59	121.71
538.75	93.62
538.92	140.43
539.09	159.16
539.26	91.28
539.43	124.05
539.60	128.73
539.77	154.48
539.94	102.98
540.11	93.62
540.28	16.38
540.44	93.62
540.61	65.54
540.78	117.03
540.95	100.64
541.12	145.11
541.29	84.26
541.46	95.96
541.62	170.86
541.79	112.35
541.96	95.96
542.13	107.66
542.30	107.66
542.47	131.07
542.63	74.90
542.80	102.98
542.97	39.79
543.14	95.96
543.31	138.09
543.48	58.51
543.64	145.11
543.81	60.85
543.98	93.62
544.15	166.18
544.32	133.41
544.48	70.22
544.65	67.88
544.82	114.69
544.99	60.85
545.16	110.01
545.32	63.19
545.49	124.05
545.66	114.69
545.83	145.11
546.00	39.79
546.16	133.41
546.33	147.45
546.50	110.01
546.67	56.17
546.83	112.35
547.00	107.66
547.17	133.41
547.34	35.11
547.50	60.85
547.67	84.26
547.84	88.94
548.00	63.19
548.17	112.35
548.34	102.98
548.51	86.60
548.67	159.16
548.84	117.03
549.01	51.49
549.18	95.96
549.34	84.26
549.51	149.79
549.68	70.22
549.84	107.66
550.01	117.03
550.18	81.92
550.34	102.98
550.51	107.66
550.68	112.35
550.84	88.94
551.01	112.35
551.18	81.92
551.34	119.37
551.51	203.63
551.68	79.58
551.84	126.39
552.01	119.37
552.18	37.45
552.34	4.68
552.51	152.13
552.68	32.77
552.84	119.37
553.01	98.30
553.18	46.81
553.34	110.01
553.51	114.69
553.67	110.01
553.84	131.07
554.01	212.99
554.17	161.50
554.34	100.64
554.51	42.13
554.67	95.96
554.84	142.77
555.00	79.58
555.17	140.43
555.33	72.56
555.50	44.47
555.67	67.88
555.83	152.13
556.00	105.32
556.16	110.01
556.33	112.35
556.50	88.94
556.66	84.26
556.83	67.88
556.99	133.41
557.16	56.17
557.32	107.66
557.49	86.60
557.65	88.94
557.82	121.71
557.98	145.11
558.15	51.49
558.32	124.05
558.48	81.92
558.65	65.54
558.81	79.58
558.98	145.11
559.14	42.13
559.31	140.43
559.47	60.85
559.64	53.83
559.80	98.30
559.97	67.88
560.13	105.32
560.30	35.11
560.46	105.32
560.63	168.52
560.79	49.15
560.96	135.75
561.12	70.22
561.29	152.13
561.45	107.66
561.61	28.09
561.78	93.62
561.94	98.30
562.11	98.30
562.27	107.66
562.44	100.64
562.60	72.56
562.77	77.24
562.93	88.94
563.10	74.90
563.26	126.39
563.42	119.37
563.59	117.03
563.75	63.19
563.92	117.03
564.08	112.35
564.24	88.94
564.41	117.03
564.57	46.81
564.74	84.26
564.90	79.58
565.07	84.26
565.23	131.07
565.39	63.19
565.56	25.75
565.72	98.30
565.88	84.26
566.05	102.98
566.21	128.73
566.38	126.39
566.54	79.58
566.70	60.85
566.87	138.09
567.03	95.96
567.19	70.22
567.36	86.60
567.52	93.62
567.68	88.94
567.85	124.05
568.01	126.39
568.17	149.79
568.34	119.37
568.50	91.28
568.66	131.07
568.83	35.11
568.99	44.47
569.15	4.68
569.32	105.32
569.48	154.48
569.64	88.94
569.81	91.28
569.97	86.60
570.13	81.92
570.30	65.54
570.46	70.22
570.62	46.81
570.78	133.41
570.95	63.19
571.11	93.62
571.27	49.15
571.43	44.47
571.60	124.05
571.76	117.03
571.92	114.69
572.09	128.73
572.25	93.62
572.41	58.51
572.57	44.47
572.74	53.83
572.90	107.66
573.06	60.85
573.22	58.51
573.38	117.03
573.55	95.96
573.71	135.75
573.87	88.94
574.03	2.34
574.20	72.56
574.36	67.88
574.52	128.73
574.68	28.09
574.84	44.47
575.01	149.79
575.17	107.66
575.33	35.11
575.49	105.32
575.65	114.69
575.82	44.47
575.98	140.43
576.14	147.45
576.30	105.32
576.46	30.43
576.62	53.83
576.79	46.81
576.95	63.19
577.11	51.49
577.27	100.64
577.43	135.75
577.59	147.45
577.75	74.90
577.92	93.62
578.08	170.86
578.24	16.38
578.40	88.94
578.56	67.88
578.72	56.17
578.88	110.01
579.04	60.85
579.21	117.03
579.37	49.15
579.53	117.03
579.69	70.22
579.85	30.43
580.01	60.85
580.17	65.54
580.33	77.24
580.49	107.66
580.65	112.35
580.82	70.22
580.98	67.88
581.14	133.41
581.30	131.07
581.46	152.13
581.62	105.32
581.78	117.03
581.94	102.98
582.10	91.28
582.26	117.03
582.42	121.71
582.58	28.09
582.74	25.75
582.90	67.88
583.06	84.26
583.22	74.90
583.38	60.85
583.54	46.81
583.70	110.01
583.86	51.49
584.02	117.03
584.18	128.73
584.34	180.22
584.50	138.09
584.66	84.26
584.82	84.26
584.98	131.07
585.14	67.88
585.30	77.24
585.46	53.83
585.62	105.32
585.78	44.47
585.94	67.88
586.10	32.77
586.26	67.88
586.42	159.16
586.58	51.49
586.74	88.94
586.90	91.28
587.06	77.24
587.22	25.75
587.38	0.00
587.54	95.96
587.70	170.86
587.86	56.17
588.02	173.20
588.18	86.60
588.34	74.90
588.49	65.54
588.65	42.13
588.81	93.62
588.97	95.96
589.13	128.73
589.29	44.47
589.45	128.73
589.61	37.45
589.77	77.24
589.93	56.17
590.08	86.60
590.24	53.83
590.40	98.30
590.56	74.90
590.72	72.56
590.88	95.96
591.04	63.19
591.20	105.32
591.35	105.32
591.51	128.73
591.67	42.13
591.83	72.56
591.99	74.90
592.15	102.98
592.31	84.26
592.46	77.24
592.62	110.01
592.78	91.28
592.94	95.96
593.10	79.58
593.26	65.54
593.41	51.49
593.57	105.32
593.73	42.13
593.89	39.79
594.05	42.13
594.20	84.26
594.36	53.83
594.52	23.41
594.68	91.28
594.84	84.26
594.99	119.37
595.15	46.81
595.31	114.69
595.47	86.60
595.62	60.85
595.78	35.11
595.94	126.39
596.10	53.83
596.25	46.81
596.41	56.17
596.57	105.32
596.73	180.22
596.88	91.28
597.04	147.45
597.20	79.58
597.36	100.64
597.51	161.50
597.67	88.94
597.83	98.30
597.99	145.11
598.14	105.32
598.30	107.66
598.46	23.41
598.61	110.01
598.77	63.19
598.93	37.45
599.09	65.54
599.24	67.88
599.40	138.09
599.56	126.39
599.71	98.30
599.87	65.54
600.03	32.77
600.18	84.26
600.34	117.03
600.50	95.96
600.65	37.45
600.81	63.19
600.97	86.60
601.12	93.62
601.28	121.71
601.44	98.30
601.59	35.11
601.75	77.24
601.91	53.83
602.06	0.00
602.22	105.32
602.37	86.60
602.53	84.26
602.69	79.58
602.84	49.15
603.00	53.83
603.16	32.77
603.31	124.05
603.47	0.00
603.62	56.17
603.78	11.70
603.94	93.62
604.09	100.64
604.25	53.83
604.40	56.17
604.56	79.58
604.71	88.94
604.87	138.09
605.03	117.03
605.18	56.17
605.34	53.83
605.49	30.43
605.65	95.96
605.80	65.54
605.96	95.96
606.12	81.92
606.27	63.19
606.43	72.56
606.58	112.35
606.74	37.45
606.89	152.13
607.05	51.49
607.20	72.56
607.36	72.56
607.51	95.96
607.67	131.07
607.82	28.09
607.98	81.92
608.13	142.77
608.29	91.28
608.44	126.39
608.60	79.58
608.75	77.24
608.91	107.66
609.06	32.77
609.22	102.98
609.37	49.15
609.53	70.22
609.68	60.85
609.84	93.62
609.99	138.09
610.15	128.73
610.30	53.83
610.46	30.43
610.61	0.00
610.76	88.94
610.92	131.07
611.07	88.94
611.23	16.38
611.38	51.49
611.54	95.96
611.69	4.68
611.84	93.62
612.00	39.79
612.15	70.22
612.31	124.05
612.46	126.39
612.62	102.98
612.77	49.15
612.92	138.09
613.08	98.30
613.23	166.18
613.39	110.01
613.54	63.19
613.69	18.72
613.85	44.47
614.00	79.58
614.15	51.49
614.31	53.83
614.46	11.70
614.62	65.54
614.77	51.49
614.92	110.01
615.08	149.79
615.23	98.30
615.38	51.49
615.54	81.92
615.69	77.24
615.84	58.51
616.00	128.73
616.15	0.00
616.30	65.54
616.46	58.51
616.61	60.85
616.76	84.26
616.92	72.56
617.07	107.66
617.22	86.60
617.37	86.60
617.53	72.56
617.68	91.28
617.83	100.64
617.99	44.47
618.14	126.39
618.29	72.56
618.45	98.30
618.60	51.49
618.75	16.38
618.90	49.15
619.06	86.60
619.21	93.62
619.36	58.51
619.51	56.17
619.67	100.64
619.82	46.81
619.97	28.09
620.12	110.01
620.28	72.56
620.43	53.83
620.58	74.90
620.73	128.73
620.89	119.37
621.04	93.62
621.19	86.60
621.34	93.62
621.49	102.98
621.65	100.64
621.80	21.06
621.95	70.22
622.10	121.71
622.25	16.38
622.41	70.22
622.56	124.05
622.71	72.56
622.86	74.90
623.01	60.85
623.16	37.45
623.32	42.13
623.47	42.13
623.62	102.98
623.77	95.96
623.92	30.43
624.07	49.15
624.23	124.05
624.38	98.30
624.53	35.11
624.68	53.83
624.83	86.60
624.98	93.62
625.13	67.88
625.29	105.32
625.44	84.26
625.59	166.18
625.74	84.26
625.89	49.15
626.04	74.90
626.19	9.36
626.34	56.17
626.49	0.00
626.65	84.26
626.80	84.26
626.95	21.06
627.10	56.17
627.25	74.90
627.40	105.32
627.55	23.41
627.70	72.56
627.85	124.05
628.00	25.75
628.15	95.96
628.30	11.70
628.45	39.79
628.60	39.79
628.76	53.83
628.91	86.60
629.06	98.30
629.21	105.32
629.36	95.96
629.51	16.38
629.66	56.17
629.81	16.38
629.96	16.38
630.11	65.54
630.26	79.58
630.41	65.54
630.56	49.15
630.71	100.64
630.86	63.19
631.01	39.79
631.16	114.69
631.31	60.85
631.46	0.00
631.61	16.38
631.76	35.11
631.91	65.54
632.06	51.49
632.21	39.79
632.36	128.73
632.51	0.00
632.66	23.41
632.81	110.01
632.96	121.71
633.10	42.13
633.25	72.56
633.40	49.15
633.55	74.90
633.70	9.36
633.85	44.47
634.00	70.22
634.15	114.69
634.30	93.62
634.45	49.15
634.60	42.13
634.75	117.03
634.90	124.05
635.05	51.49
635.19	0.00
635.34	79.58
635.49	105.32
635.64	60.85
635.79	67.88
635.94	88.94
636.09	98.30
636.24	0.00
636.39	84.26
636.53	93.62
636.68	74.90
636.83	35.11
636.98	63.19
637.13	58.51
637.28	67.88
637.43	112.35
637.57	25.75
637.72	114.69
637.87	95.96
638.02	86.60
638.17	51.49
638.32	44.47
638.46	53.83
638.61	100.64
638.76	53.83
638.91	117.03
639.06	46.81
639.20	42.13
639.35	51.49
639.50	65.54
639.65	51.49
639.80	72.56
639.94	77.24
640.09	39.79
640.24	86.60
640.39	42.13
640.54	145.11
640.68	112.35
640.83	98.30
640.98	58.51
641.13	140.43
641.27	58.51
641.42	42.13
641.57	42.13
641.72	133.41
641.86	60.85
642.01	32.77
642.16	86.60
642.31	67.88
642.45	79.58
642.60	72.56
642.75	107.66
642.90	56.17
643.04	39.79
643.19	74.90
643.34	86.60
643.48	93.62
643.63	0.00
643.78	39.79
643.93	67.88
644.07	72.56
644.22	88.94
644.37	30.43
644.51	84.26
644.66	58.51
644.81	39.79
644.95	65.54
645.10	49.15
645.25	18.72
645.39	32.77
645.54	23.41
645.69	95.96
645.83	18.72
645.98	49.15
646.13	49.15
646.27	56.17
646.42	60.85
646.57	0.00
646.71	46.81
646.86	86.60
647.00	117.03
647.15	81.92
647.30	28.09
647.44	28.09
647.59	42.13
647.74	86.60
647.88	16.38
648.03	86.60
648.17	18.72
648.32	0.00
648.47	9.36
648.61	79.58
648.76	58.51
648.90	88.94
649.05	70.22
649.20	49.15
649.34	51.49
649.49	145.11
649.63	42.13
649.78	63.19
649.92	86.60
650.07	30.43
650.21	65.54
650.36	58.51
650.51	39.79
650.65	67.88
650.80	49.15
650.94	119.37
651.09	44.47
651.23	49.15
651.38	84.26
651.52	30.43
651.67	39.79
651.81	18.72
651.96	60.85
652.10	46.81
652.25	25.75
652.39	95.96
652.54	51.49
652.68	0.00
652.83	77.24
652.97	30.43
653.12	65.54
653.26	56.17
653.41	65.54
653.55	30.43
653.70	121.71
653.84	23.41
653.99	72.56
654.13	23.41
654.27	0.00
654.42	100.64
654.56	53.83
654.71	79.58
654.85	110.01
655.00	65.54
655.14	79.58
655.29	88.94
655.43	84.26
655.57	72.56
655.72	72.56
655.86	107.66
656.01	58.51
656.15	67.88
656.30	67.88
656.44	46.81
656.58	72.56
656.73	93.62
656.87	46.81
657.01	77.24
657.16	60.85
657.30	91.28
657.45	102.98
657.59	32.77
657.73	53.83
657.88	49.15
658.02	23.41
658.16	14.04
658.31	44.47
658.45	58.51
658.60	42.13
658.74	93.62
658.88	119.37
659.03	58.51
659.17	23.41
659.31	72.56
659.46	0.00
659.60	98.30
659.74	138.09
659.89	133.41
660.03	49.15
660.17	166.18
660.32	133.41
660.46	56.17
660.60	42.13
660.74	107.66
660.89	194.26
661.03	72.56
661.17	91.28
661.32	93.62
661.46	30.43
661.60	49.15
661.74	21.06
661.89	60.85
662.03	100.64
662.17	4.68
662.31	46.81
662.46	21.06
662.60	70.22
662.74	44.47
662.88	56.17
663.03	63.19
663.17	112.35
663.31	21.06
663.45	70.22
663.60	126.39
663.74	46.81
663.88	28.09
664.02	105.32
664.17	0.00
664.31	35.11
664.45	91.28
664.59	42.13
664.73	49.15
664.88	77.24
665.02	46.81
665.16	0.00
665.30	37.45
665.44	9.36
665.59	112.35
665.73	44.47
665.87	88.94
666.01	112.35
666.15	37.45
666.29	44.47
666.44	49.15
666.58	72.56
666.72	49.15
666.86	0.00
667.00	95.96
667.14	70.22
667.28	84.26
667.43	114.69
667.57	107.66
667.71	63.19
667.85	14.04
667.99	84.26
668.13	102.98
668.27	0.00
668.41	42.13
668.56	81.92
668.70	7.02
668.84	56.17
668.98	32.77
669.12	14.04
669.26	117.03
669.40	110.01
669.54	86.60
669.68	100.64
669.82	37.45
669.96	51.49
670.10	135.75
670.25	84.26
670.39	46.81
670.53	95.96
670.67	81.92
670.81	39.79
670.95	105.32
671.09	18.72
671.23	30.43
671.37	28.09
671.51	93.62
671.65	91.28
671.79	56.17
671.93	149.79
672.07	138.09
672.21	46.81
672.35	65.54
672.49	32.77
672.63	65.54
672.77	60.85
672.91	9.36
673.05	102.98
673.19	70.22
673.33	35.11
673.47	79.58
673.61	18.72
673.75	42.13
673.89	39.79
674.03	0.00
674.17	11.70
674.31	95.96
674.45	11.70
674.59	2.34
674.73	95.96
674.87	56.17
675.01	79.58
675.15	53.83
675.29	14.04
675.43	42.13
675.56	70.22
675.70	95.96
675.84	86.60
675.98	72.56
676.12	0.00
676.26	44.47
676.40	2.34
676.54	37.45
676.68	0.00
676.82	0.00
676.96	0.00
677.10	77.24
677.23	25.75
677.37	63.19
677.51	25.75
677.65	42.13
677.79	60.85
677.93	7.02
678.07	77.24
678.21	81.92
678.34	9.36
678.48	14.04
678.62	100.64
678.76	131.07
678.90	105.32
679.04	84.26
679.18	74.90
679.31	23.41
679.45	63.19
679.59	53.83
679.73	32.77
679.87	42.13
680.00	23.41
680.14	28.09
680.28	23.41
680.42	53.83
680.56	65.54
680.70	0.00
680.83	65.54
680.97	84.26
681.11	72.56
681.25	105.32
681.39	42.13
681.52	2.34
681.66	65.54
681.80	93.62
681.94	0.00
682.07	28.09
682.21	39.79
682.35	42.13
682.49	16.38
682.62	42.13
682.76	112.35
682.90	65.54
683.04	46.81
683.17	98.30
683.31	56.17
683.45	11.70
683.59	0.00
683.72	28.09
683.86	72.56
684.00	51.49
684.13	114.69
684.27	9.36
684.41	49.15
684.55	102.98
684.68	37.45
684.82	72.56
684.96	77.24
685.09	81.92
685.23	16.38
685.37	25.75
685.50	60.85
685.64	35.11
685.78	0.00
685.91	74.90
686.05	95.96
686.19	0.00
686.32	77.24
686.46	81.92
686.60	49.15
686.73	23.41
686.87	0.00
687.01	117.03
687.14	81.92
687.28	51.49
687.42	60.85
687.55	0.00
687.69	37.45
687.82	4.68
687.96	110.01
688.10	102.98
688.23	44.47
688.37	30.43
688.50	2.34
688.64	65.54
688.78	21.06
688.91	30.43
689.05	42.13
689.18	60.85
689.32	51.49
689.46	42.13
689.59	18.72
689.73	107.66
689.86	91.28
690.00	0.00
690.13	32.77
690.27	16.38
690.41	65.54
690.54	119.37
690.68	88.94
690.81	23.41
690.95	53.83
691.08	46.81
691.22	63.19
691.35	100.64
691.49	0.00
691.62	30.43
691.76	51.49
691.89	39.79
692.03	9.36
692.16	39.79
692.30	0.00
692.43	49.15
692.57	28.09
692.70	0.00
692.84	53.83
692.97	46.81
693.11	0.00
693.24	0.00
693.38	126.39
693.51	0.00
693.65	30.43
693.78	93.62
693.92	81.92
694.05	42.13
694.19	0.00
694.32	58.51
694.45	30.43
694.59	4.68
694.72	53.83
694.86	105.32
694.99	42.13
695.13	77.24
695.26	25.75
695.39	32.77
695.53	0.00
695.66	0.00
695.80	0.00
695.93	46.81
696.07	11.70
696.20	0.00
696.33	0.00
696.47	32.77
696.60	58.51
696.73	42.13
696.87	0.00
697.00	46.81
697.14	56.17
697.27	77.24
697.40	100.64
697.54	28.09
697.67	81.92
697.80	60.85
697.94	46.81
698.07	23.41
698.21	53.83
698.34	4.68
698.47	0.00
698.61	58.51
698.74	46.81
698.87	70.22
699.01	37.45
699.14	51.49
699.27	37.45
699.40	63.19
699.54	70.22
699.67	63.19
699.80	0.00
699.94	0.00
700.07	67.88
700.20	46.81
700.34	72.56
700.47	0.00
700.60	4.68
700.73	0.00
700.87	81.92
701.00	9.36
701.13	37.45
701.26	21.06
701.40	42.13
701.53	102.98
701.66	14.04
701.79	32.77
701.93	49.15
702.06	42.13
702.19	37.45
702.32	58.51
702.46	25.75
702.59	51.49
702.72	32.77
702.85	28.09
702.99	2.34
703.12	35.11
703.25	0.00
703.38	70.22
703.51	58.51
703.65	28.09
703.78	14.04
703.91	44.47
704.04	39.79
704.17	49.15
704.31	49.15
704.44	60.85
704.57	56.17
704.70	0.00
704.83	63.19
704.96	51.49
705.10	65.54
705.23	32.77
>>>>>End Processed Spectral Data<<<<<
