SpectraSuite Data File
++++++++++++++++++++++++++++++++++++
Date: Fri Oct 04 12:13:38 GMT-05:00 2013
User: price-jones
Dark Spectrum Present: No
Reference Spectrum Present: No
Number of Sampled Component Spectra: 1
Spectrometers: USB2+H05261
Integration Time (usec): 10000 (USB2+H05261)
Spectra Averaged: 1 (USB2+H05261)
Boxcar Smoothing: 0 (USB2+H05261)
Correct for Electrical Dark: No (USB2+H05261)
Strobe/Lamp Enabled: No (USB2+H05261)
Correct for Detector Non-linearity: No (USB2+H05261)
Correct for Stray Light: No (USB2+H05261)
Number of Pixels in Processed Spectrum: 2048
>>>>>Begin Processed Spectral Data<<<<<
365.73	0.00
365.92	0.00
366.12	0.00
366.32	0.00
366.52	0.00
366.72	0.00
366.91	0.00
367.11	0.00
367.31	0.00
367.51	0.00
367.70	0.00
367.90	0.00
368.10	0.00
368.30	0.00
368.49	0.00
368.69	0.00
368.89	0.00
369.09	0.00
369.28	0.00
369.48	0.00
369.68	0.00
369.87	0.00
370.07	0.00
370.27	0.00
370.47	0.00
370.66	0.00
370.86	0.00
371.06	0.00
371.25	0.00
371.45	0.00
371.65	0.00
371.84	11.70
372.04	7.02
372.24	0.00
372.44	0.00
372.63	0.00
372.83	30.43
373.03	0.00
373.22	0.00
373.42	37.45
373.62	0.00
373.81	0.00
374.01	7.02
374.21	0.00
374.40	7.02
374.60	60.85
374.79	0.00
374.99	0.00
375.19	0.00
375.38	0.00
375.58	0.00
375.78	39.79
375.97	72.56
376.17	14.04
376.37	42.13
376.56	14.04
376.76	65.54
376.95	32.77
377.15	74.90
377.35	49.15
377.54	0.00
377.74	0.00
377.93	35.11
378.13	0.00
378.33	32.77
378.52	72.56
378.72	2.34
378.91	0.00
379.11	42.13
379.31	46.81
379.50	58.51
379.70	0.00
379.89	0.00
380.09	2.34
380.28	51.49
380.48	37.45
380.68	4.68
380.87	37.45
381.07	58.51
381.26	102.98
381.46	23.41
381.65	51.49
381.85	7.02
382.04	30.43
382.24	56.17
382.43	46.81
382.63	4.68
382.83	35.11
383.02	25.75
383.22	35.11
383.41	9.36
383.61	60.85
383.80	23.41
384.00	9.36
384.19	74.90
384.39	18.72
384.58	51.49
384.78	51.49
384.97	18.72
385.17	2.34
385.36	72.56
385.56	70.22
385.75	18.72
385.95	0.00
386.14	46.81
386.34	67.88
386.53	18.72
386.72	0.00
386.92	4.68
387.11	11.70
387.31	0.00
387.50	21.06
387.70	18.72
387.89	25.75
388.09	0.00
388.28	11.70
388.48	9.36
388.67	0.00
388.86	23.41
389.06	65.54
389.25	32.77
389.45	49.15
389.64	65.54
389.84	0.00
390.03	35.11
390.22	67.88
390.42	4.68
390.61	25.75
390.81	18.72
391.00	4.68
391.19	53.83
391.39	16.38
391.58	14.04
391.78	14.04
391.97	16.38
392.16	67.88
392.36	37.45
392.55	53.83
392.75	14.04
392.94	0.00
393.13	23.41
393.33	4.68
393.52	67.88
393.71	21.06
393.91	0.00
394.10	0.00
394.29	0.00
394.49	28.09
394.68	51.49
394.88	35.11
395.07	0.00
395.26	32.77
395.46	18.72
395.65	2.34
395.84	0.00
396.04	0.00
396.23	9.36
396.42	7.02
396.62	9.36
396.81	88.94
397.00	56.17
397.19	9.36
397.39	60.85
397.58	0.00
397.77	37.45
397.97	28.09
398.16	9.36
398.35	44.47
398.55	98.30
398.74	4.68
398.93	53.83
399.12	9.36
399.32	0.00
399.51	44.47
399.70	67.88
399.90	0.00
400.09	32.77
400.28	72.56
400.47	0.00
400.67	56.17
400.86	102.98
401.05	2.34
401.24	28.09
401.44	0.00
401.63	23.41
401.82	37.45
402.01	0.00
402.21	72.56
402.40	11.70
402.59	0.00
402.78	0.00
402.97	51.49
403.17	0.00
403.36	35.11
403.55	14.04
403.74	0.00
403.93	0.00
404.13	35.11
404.32	0.00
404.51	11.70
404.70	98.30
404.89	49.15
405.09	67.88
405.28	39.79
405.47	42.13
405.66	51.49
405.85	21.06
406.05	23.41
406.24	35.11
406.43	86.60
406.62	42.13
406.81	11.70
407.00	0.00
407.20	0.00
407.39	44.47
407.58	51.49
407.77	25.75
407.96	39.79
408.15	0.00
408.34	65.54
408.54	9.36
408.73	49.15
408.92	9.36
409.11	0.00
409.30	30.43
409.49	0.00
409.68	35.11
409.87	65.54
410.07	23.41
410.26	56.17
410.45	21.06
410.64	63.19
410.83	21.06
411.02	46.81
411.21	0.00
411.40	74.90
411.59	42.13
411.78	0.00
411.98	0.00
412.17	105.32
412.36	0.00
412.55	53.83
412.74	4.68
412.93	37.45
413.12	77.24
413.31	46.81
413.50	32.77
413.69	95.96
413.88	49.15
414.07	30.43
414.26	86.60
414.45	0.00
414.64	37.45
414.83	88.94
415.02	9.36
415.22	9.36
415.41	114.69
415.60	30.43
415.79	51.49
415.98	0.00
416.17	9.36
416.36	56.17
416.55	65.54
416.74	56.17
416.93	65.54
417.12	23.41
417.31	21.06
417.50	65.54
417.69	51.49
417.88	102.98
418.07	44.47
418.26	86.60
418.45	16.38
418.64	65.54
418.83	28.09
419.02	81.92
419.21	9.36
419.39	11.70
419.58	93.62
419.77	0.00
419.96	35.11
420.15	0.00
420.34	72.56
420.53	0.00
420.72	102.98
420.91	44.47
421.10	67.88
421.29	63.19
421.48	60.85
421.67	16.38
421.86	0.00
422.05	77.24
422.24	95.96
422.43	46.81
422.61	16.38
422.80	18.72
422.99	70.22
423.18	67.88
423.37	11.70
423.56	51.49
423.75	18.72
423.94	58.51
424.13	37.45
424.32	0.00
424.50	110.01
424.69	4.68
424.88	7.02
425.07	0.00
425.26	58.51
425.45	0.00
425.64	49.15
425.83	0.00
426.01	51.49
426.20	0.00
426.39	39.79
426.58	16.38
426.77	18.72
426.96	11.70
427.15	11.70
427.33	0.00
427.52	0.00
427.71	46.81
427.90	72.56
428.09	126.39
428.28	23.41
428.46	44.47
428.65	14.04
428.84	23.41
429.03	95.96
429.22	72.56
429.40	14.04
429.59	51.49
429.78	0.00
429.97	32.77
430.16	37.45
430.34	37.45
430.53	51.49
430.72	51.49
430.91	37.45
431.10	28.09
431.28	110.01
431.47	23.41
431.66	53.83
431.85	93.62
432.03	51.49
432.22	11.70
432.41	56.17
432.60	9.36
432.79	67.88
432.97	56.17
433.16	98.30
433.35	42.13
433.54	79.58
433.72	30.43
433.91	58.51
434.10	4.68
434.28	77.24
434.47	30.43
434.66	74.90
434.85	98.30
435.03	0.00
435.22	63.19
435.41	39.79
435.59	0.00
435.78	23.41
435.97	37.45
436.16	37.45
436.34	42.13
436.53	32.77
436.72	21.06
436.90	107.66
437.09	44.47
437.28	93.62
437.46	112.35
437.65	0.00
437.84	114.69
438.02	65.54
438.21	23.41
438.40	7.02
438.58	65.54
438.77	56.17
438.96	4.68
439.14	53.83
439.33	112.35
439.52	74.90
439.70	145.11
439.89	46.81
440.08	7.02
440.26	51.49
440.45	100.64
440.63	32.77
440.82	117.03
441.01	65.54
441.19	131.07
441.38	42.13
441.57	93.62
441.75	107.66
441.94	11.70
442.12	77.24
442.31	39.79
442.50	44.47
442.68	4.68
442.87	16.38
443.05	46.81
443.24	0.00
443.43	28.09
443.61	4.68
443.80	74.90
443.98	0.00
444.17	0.00
444.35	0.00
444.54	53.83
444.73	91.28
444.91	2.34
445.10	9.36
445.28	65.54
445.47	67.88
445.65	30.43
445.84	0.00
446.02	11.70
446.21	0.00
446.39	0.00
446.58	0.00
446.77	49.15
446.95	21.06
447.14	35.11
447.32	88.94
447.51	44.47
447.69	16.38
447.88	0.00
448.06	0.00
448.25	72.56
448.43	84.26
448.62	0.00
448.80	74.90
448.99	18.72
449.17	100.64
449.36	49.15
449.54	110.01
449.73	11.70
449.91	81.92
450.10	39.79
450.28	86.60
450.46	49.15
450.65	14.04
450.83	74.90
451.02	100.64
451.20	65.54
451.39	56.17
451.57	18.72
451.76	86.60
451.94	105.32
452.13	9.36
452.31	4.68
452.49	91.28
452.68	18.72
452.86	121.71
453.05	63.19
453.23	0.00
453.42	51.49
453.60	60.85
453.78	93.62
453.97	46.81
454.15	37.45
454.34	39.79
454.52	58.51
454.70	105.32
454.89	56.17
455.07	30.43
455.26	28.09
455.44	51.49
455.62	60.85
455.81	49.15
455.99	51.49
456.17	86.60
456.36	161.50
456.54	44.47
456.73	7.02
456.91	72.56
457.09	16.38
457.28	11.70
457.46	44.47
457.64	112.35
457.83	32.77
458.01	0.00
458.19	14.04
458.38	60.85
458.56	49.15
458.74	2.34
458.93	0.00
459.11	100.64
459.29	4.68
459.48	98.30
459.66	35.11
459.84	72.56
460.03	91.28
460.21	49.15
460.39	98.30
460.57	51.49
460.76	81.92
460.94	51.49
461.12	86.60
461.31	0.00
461.49	60.85
461.67	30.43
461.85	42.13
462.04	51.49
462.22	112.35
462.40	74.90
462.59	95.96
462.77	65.54
462.95	35.11
463.13	14.04
463.32	35.11
463.50	4.68
463.68	84.26
463.86	100.64
464.05	58.51
464.23	30.43
464.41	56.17
464.59	39.79
464.78	49.15
464.96	30.43
465.14	28.09
465.32	86.60
465.50	49.15
465.69	18.72
465.87	53.83
466.05	63.19
466.23	88.94
466.41	32.77
466.60	70.22
466.78	0.00
466.96	51.49
467.14	58.51
467.32	88.94
467.51	9.36
467.69	0.00
467.87	4.68
468.05	117.03
468.23	119.37
468.41	18.72
468.60	133.41
468.78	145.11
468.96	58.51
469.14	67.88
469.32	84.26
469.50	18.72
469.69	63.19
469.87	79.58
470.05	51.49
470.23	77.24
470.41	39.79
470.59	42.13
470.77	39.79
470.95	49.15
471.14	173.20
471.32	9.36
471.50	32.77
471.68	77.24
471.86	21.06
472.04	0.00
472.22	86.60
472.40	39.79
472.58	35.11
472.77	74.90
472.95	65.54
473.13	51.49
473.31	72.56
473.49	7.02
473.67	88.94
473.85	16.38
474.03	79.58
474.21	30.43
474.39	49.15
474.57	35.11
474.75	65.54
474.93	0.00
475.12	49.15
475.30	28.09
475.48	114.69
475.66	84.26
475.84	44.47
476.02	0.00
476.20	53.83
476.38	67.88
476.56	65.54
476.74	46.81
476.92	11.70
477.10	100.64
477.28	49.15
477.46	53.83
477.64	67.88
477.82	58.51
478.00	98.30
478.18	42.13
478.36	23.41
478.54	100.64
478.72	142.77
478.90	58.51
479.08	46.81
479.26	88.94
479.44	81.92
479.62	53.83
479.80	74.90
479.98	88.94
480.16	51.49
480.34	56.17
480.52	23.41
480.70	37.45
480.88	70.22
481.06	131.07
481.24	0.00
481.41	58.51
481.59	21.06
481.77	0.00
481.95	0.00
482.13	110.01
482.31	98.30
482.49	91.28
482.67	63.19
482.85	21.06
483.03	84.26
483.21	67.88
483.39	51.49
483.57	81.92
483.74	4.68
483.92	63.19
484.10	117.03
484.28	81.92
484.46	86.60
484.64	124.05
484.82	131.07
485.00	39.79
485.18	102.98
485.35	138.09
485.53	32.77
485.71	81.92
485.89	93.62
486.07	21.06
486.25	53.83
486.43	67.88
486.61	67.88
486.78	93.62
486.96	32.77
487.14	0.00
487.32	14.04
487.50	28.09
487.68	35.11
487.85	81.92
488.03	51.49
488.21	121.71
488.39	0.00
488.57	28.09
488.75	0.00
488.92	93.62
489.10	95.96
489.28	131.07
489.46	117.03
489.64	88.94
489.81	93.62
489.99	74.90
490.17	91.28
490.35	114.69
490.53	112.35
490.70	51.49
490.88	60.85
491.06	28.09
491.24	88.94
491.41	93.62
491.59	30.43
491.77	14.04
491.95	65.54
492.13	112.35
492.30	86.60
492.48	23.41
492.66	11.70
492.84	53.83
493.01	110.01
493.19	140.43
493.37	32.77
493.54	131.07
493.72	93.62
493.90	30.43
494.08	49.15
494.25	49.15
494.43	79.58
494.61	140.43
494.79	102.98
494.96	11.70
495.14	56.17
495.32	135.75
495.49	46.81
495.67	56.17
495.85	107.66
496.02	7.02
496.20	49.15
496.38	100.64
496.55	88.94
496.73	63.19
496.91	0.00
497.09	102.98
497.26	58.51
497.44	105.32
497.62	67.88
497.79	28.09
497.97	93.62
498.14	70.22
498.32	39.79
498.50	67.88
498.67	60.85
498.85	74.90
499.03	93.62
499.20	25.75
499.38	105.32
499.56	102.98
499.73	114.69
499.91	37.45
500.08	0.00
500.26	112.35
500.44	138.09
500.61	65.54
500.79	121.71
500.97	58.51
501.14	58.51
501.32	84.26
501.49	88.94
501.67	35.11
501.84	77.24
502.02	56.17
502.20	105.32
502.37	138.09
502.55	72.56
502.72	67.88
502.90	102.98
503.07	37.45
503.25	84.26
503.43	84.26
503.60	0.00
503.78	124.05
503.95	79.58
504.13	107.66
504.30	117.03
504.48	110.01
504.65	88.94
504.83	154.48
505.01	72.56
505.18	121.71
505.36	63.19
505.53	37.45
505.71	39.79
505.88	107.66
506.06	70.22
506.23	11.70
506.41	95.96
506.58	67.88
506.76	37.45
506.93	93.62
507.11	72.56
507.28	74.90
507.46	44.47
507.63	30.43
507.81	100.64
507.98	88.94
508.16	131.07
508.33	86.60
508.50	159.16
508.68	105.32
508.85	65.54
509.03	119.37
509.20	138.09
509.38	114.69
509.55	60.85
509.73	119.37
509.90	114.69
510.08	86.60
510.25	44.47
510.42	100.64
510.60	114.69
510.77	46.81
510.95	88.94
511.12	91.28
511.30	58.51
511.47	135.75
511.64	88.94
511.82	51.49
511.99	182.56
512.17	18.72
512.34	28.09
512.51	65.54
512.69	65.54
512.86	70.22
513.04	86.60
513.21	79.58
513.38	121.71
513.56	74.90
513.73	74.90
513.90	128.73
514.08	42.13
514.25	124.05
514.43	0.00
514.60	67.88
514.77	105.32
514.95	112.35
515.12	60.85
515.29	107.66
515.47	88.94
515.64	117.03
515.81	14.04
515.99	124.05
516.16	11.70
516.33	58.51
516.51	91.28
516.68	91.28
516.85	110.01
517.03	30.43
517.20	58.51
517.37	119.37
517.54	60.85
517.72	100.64
517.89	98.30
518.06	2.34
518.24	138.09
518.41	42.13
518.58	70.22
518.75	30.43
518.93	119.37
519.10	93.62
519.27	100.64
519.45	95.96
519.62	67.88
519.79	14.04
519.96	74.90
520.14	91.28
520.31	67.88
520.48	72.56
520.65	117.03
520.83	98.30
521.00	154.48
521.17	145.11
521.34	88.94
521.52	93.62
521.69	149.79
521.86	112.35
522.03	79.58
522.20	86.60
522.38	0.00
522.55	14.04
522.72	14.04
522.89	70.22
523.07	194.26
523.24	30.43
523.41	58.51
523.58	107.66
523.75	46.81
523.92	98.30
524.10	147.45
524.27	60.85
524.44	95.96
524.61	77.24
524.78	70.22
524.96	63.19
525.13	46.81
525.30	110.01
525.47	114.69
525.64	102.98
525.81	86.60
525.98	77.24
526.16	100.64
526.33	107.66
526.50	84.26
526.67	72.56
526.84	95.96
527.01	81.92
527.18	117.03
527.36	126.39
527.53	0.00
527.70	65.54
527.87	124.05
528.04	110.01
528.21	30.43
528.38	79.58
528.55	86.60
528.72	102.98
528.89	102.98
529.07	60.85
529.24	121.71
529.41	98.30
529.58	95.96
529.75	86.60
529.92	114.69
530.09	102.98
530.26	72.56
530.43	147.45
530.60	72.56
530.77	107.66
530.94	93.62
531.11	121.71
531.28	67.88
531.46	84.26
531.63	102.98
531.80	84.26
531.97	128.73
532.14	121.71
532.31	60.85
532.48	91.28
532.65	107.66
532.82	11.70
532.99	81.92
533.16	72.56
533.33	86.60
533.50	37.45
533.67	63.19
533.84	72.56
534.01	58.51
534.18	56.17
534.35	86.60
534.52	74.90
534.69	79.58
534.86	81.92
535.03	58.51
535.20	98.30
535.37	114.69
535.54	46.81
535.71	98.30
535.88	0.00
536.05	100.64
536.22	149.79
536.38	35.11
536.55	112.35
536.72	65.54
536.89	42.13
537.06	93.62
537.23	95.96
537.40	114.69
537.57	32.77
537.74	191.92
537.91	93.62
538.08	102.98
538.25	4.68
538.42	145.11
538.59	70.22
538.75	110.01
538.92	72.56
539.09	42.13
539.26	65.54
539.43	142.77
539.60	149.79
539.77	2.34
539.94	91.28
540.11	93.62
540.28	112.35
540.44	119.37
540.61	51.49
540.78	100.64
540.95	140.43
541.12	117.03
541.29	63.19
541.46	65.54
541.62	149.79
541.79	39.79
541.96	30.43
542.13	107.66
542.30	74.90
542.47	72.56
542.63	77.24
542.80	25.75
542.97	46.81
543.14	51.49
543.31	42.13
543.48	53.83
543.64	102.98
543.81	84.26
543.98	100.64
544.15	166.18
544.32	88.94
544.48	74.90
544.65	86.60
544.82	46.81
544.99	30.43
545.16	65.54
545.32	79.58
545.49	95.96
545.66	119.37
545.83	58.51
546.00	81.92
546.16	98.30
546.33	79.58
546.50	67.88
546.67	126.39
546.83	138.09
547.00	77.24
547.17	70.22
547.34	131.07
547.50	86.60
547.67	95.96
547.84	74.90
548.00	117.03
548.17	91.28
548.34	42.13
548.51	84.26
548.67	147.45
548.84	88.94
549.01	46.81
549.18	35.11
549.34	93.62
549.51	65.54
549.68	63.19
549.84	180.22
550.01	142.77
550.18	95.96
550.34	79.58
550.51	65.54
550.68	140.43
550.84	35.11
551.01	84.26
551.18	102.98
551.34	100.64
551.51	49.15
551.68	67.88
551.84	102.98
552.01	0.00
552.18	39.79
552.34	88.94
552.51	60.85
552.68	121.71
552.84	126.39
553.01	21.06
553.18	93.62
553.34	107.66
553.51	46.81
553.67	91.28
553.84	95.96
554.01	25.75
554.17	110.01
554.34	67.88
554.51	77.24
554.67	77.24
554.84	119.37
555.00	149.79
555.17	39.79
555.33	131.07
555.50	119.37
555.67	93.62
555.83	128.73
556.00	58.51
556.16	93.62
556.33	93.62
556.50	58.51
556.66	102.98
556.83	65.54
556.99	110.01
557.16	65.54
557.32	119.37
557.49	84.26
557.65	30.43
557.82	56.17
557.98	72.56
558.15	65.54
558.32	28.09
558.48	49.15
558.65	117.03
558.81	119.37
558.98	114.69
559.14	81.92
559.31	46.81
559.47	93.62
559.64	88.94
559.80	152.13
559.97	53.83
560.13	25.75
560.30	63.19
560.46	107.66
560.63	58.51
560.79	53.83
560.96	4.68
561.12	105.32
561.29	110.01
561.45	114.69
561.61	35.11
561.78	16.38
561.94	84.26
562.11	98.30
562.27	100.64
562.44	42.13
562.60	72.56
562.77	133.41
562.93	152.13
563.10	35.11
563.26	11.70
563.42	72.56
563.59	65.54
563.75	72.56
563.92	81.92
564.08	159.16
564.24	84.26
564.41	107.66
564.57	65.54
564.74	0.00
564.90	0.00
565.07	84.26
565.23	21.06
565.39	65.54
565.56	74.90
565.72	60.85
565.88	39.79
566.05	63.19
566.21	98.30
566.38	100.64
566.54	163.84
566.70	121.71
566.87	72.56
567.03	84.26
567.19	42.13
567.36	107.66
567.52	175.54
567.68	98.30
567.85	35.11
568.01	14.04
568.17	100.64
568.34	100.64
568.50	84.26
568.66	84.26
568.83	65.54
568.99	56.17
569.15	16.38
569.32	51.49
569.48	58.51
569.64	21.06
569.81	77.24
569.97	77.24
570.13	105.32
570.30	51.49
570.46	100.64
570.62	133.41
570.78	110.01
570.95	39.79
571.11	51.49
571.27	112.35
571.43	119.37
571.60	152.13
571.76	72.56
571.92	49.15
572.09	53.83
572.25	91.28
572.41	131.07
572.57	46.81
572.74	124.05
572.90	124.05
573.06	100.64
573.22	93.62
573.38	107.66
573.55	44.47
573.71	100.64
573.87	93.62
574.03	112.35
574.20	32.77
574.36	79.58
574.52	77.24
574.68	42.13
574.84	156.82
575.01	79.58
575.17	131.07
575.33	49.15
575.49	102.98
575.65	28.09
575.82	65.54
575.98	84.26
576.14	126.39
576.30	49.15
576.46	37.45
576.62	65.54
576.79	53.83
576.95	107.66
577.11	117.03
577.27	77.24
577.43	128.73
577.59	98.30
577.75	100.64
577.92	4.68
578.08	39.79
578.24	63.19
578.40	79.58
578.56	112.35
578.72	119.37
578.88	93.62
579.04	110.01
579.21	39.79
579.37	86.60
579.53	74.90
579.69	86.60
579.85	32.77
580.01	121.71
580.17	159.16
580.33	37.45
580.49	67.88
580.65	117.03
580.82	60.85
580.98	35.11
581.14	70.22
581.30	102.98
581.46	114.69
581.62	107.66
581.78	84.26
581.94	147.45
582.10	107.66
582.26	98.30
582.42	72.56
582.58	37.45
582.74	77.24
582.90	72.56
583.06	74.90
583.22	93.62
583.38	77.24
583.54	65.54
583.70	49.15
583.86	77.24
584.02	95.96
584.18	84.26
584.34	142.77
584.50	81.92
584.66	140.43
584.82	81.92
584.98	44.47
585.14	105.32
585.30	70.22
585.46	9.36
585.62	131.07
585.78	107.66
585.94	114.69
586.10	72.56
586.26	131.07
586.42	91.28
586.58	46.81
586.74	30.43
586.90	72.56
587.06	37.45
587.22	98.30
587.38	161.50
587.54	81.92
587.70	65.54
587.86	39.79
588.02	72.56
588.18	84.26
588.34	110.01
588.49	81.92
588.65	93.62
588.81	4.68
588.97	88.94
589.13	28.09
589.29	65.54
589.45	35.11
589.61	91.28
589.77	86.60
589.93	4.68
590.08	79.58
590.24	84.26
590.40	53.83
590.56	74.90
590.72	60.85
590.88	84.26
591.04	93.62
591.20	100.64
591.35	182.56
591.51	53.83
591.67	51.49
591.83	84.26
591.99	114.69
592.15	70.22
592.31	23.41
592.46	28.09
592.62	81.92
592.78	145.11
592.94	147.45
593.10	65.54
593.26	14.04
593.41	51.49
593.57	0.00
593.73	56.17
593.89	0.00
594.05	79.58
594.20	2.34
594.36	79.58
594.52	77.24
594.68	35.11
594.84	9.36
594.99	74.90
595.15	77.24
595.31	117.03
595.47	77.24
595.62	79.58
595.78	21.06
595.94	0.00
596.10	84.26
596.25	100.64
596.41	95.96
596.57	18.72
596.73	79.58
596.88	67.88
597.04	39.79
597.20	67.88
597.36	0.00
597.51	42.13
597.67	56.17
597.83	51.49
597.99	114.69
598.14	0.00
598.30	135.75
598.46	91.28
598.61	124.05
598.77	93.62
598.93	91.28
599.09	9.36
599.24	28.09
599.40	138.09
599.56	84.26
599.71	35.11
599.87	91.28
600.03	46.81
600.18	81.92
600.34	117.03
600.50	46.81
600.65	58.51
600.81	63.19
600.97	110.01
601.12	67.88
601.28	67.88
601.44	105.32
601.59	79.58
601.75	105.32
601.91	102.98
602.06	77.24
602.22	91.28
602.37	11.70
602.53	121.71
602.69	138.09
602.84	18.72
603.00	77.24
603.16	81.92
603.31	23.41
603.47	138.09
603.62	102.98
603.78	28.09
603.94	110.01
604.09	88.94
604.25	145.11
604.40	93.62
604.56	121.71
604.71	23.41
604.87	42.13
605.03	56.17
605.18	49.15
605.34	175.54
605.49	37.45
605.65	51.49
605.80	65.54
605.96	37.45
606.12	60.85
606.27	107.66
606.43	84.26
606.58	21.06
606.74	93.62
606.89	117.03
607.05	51.49
607.20	93.62
607.36	79.58
607.51	14.04
607.67	42.13
607.82	91.28
607.98	35.11
608.13	114.69
608.29	100.64
608.44	42.13
608.60	142.77
608.75	7.02
608.91	117.03
609.06	65.54
609.22	23.41
609.37	138.09
609.53	39.79
609.68	93.62
609.84	117.03
609.99	67.88
610.15	56.17
610.30	93.62
610.46	95.96
610.61	91.28
610.76	86.60
610.92	42.13
611.07	74.90
611.23	28.09
611.38	4.68
611.54	65.54
611.69	105.32
611.84	42.13
612.00	119.37
612.15	100.64
612.31	175.54
612.46	56.17
612.62	65.54
612.77	21.06
612.92	128.73
613.08	65.54
613.23	81.92
613.39	21.06
613.54	21.06
613.69	77.24
613.85	105.32
614.00	11.70
614.15	93.62
614.31	44.47
614.46	58.51
614.62	42.13
614.77	121.71
614.92	74.90
615.08	112.35
615.23	65.54
615.38	37.45
615.54	30.43
615.69	107.66
615.84	9.36
616.00	28.09
616.15	91.28
616.30	93.62
616.46	79.58
616.61	77.24
616.76	46.81
616.92	110.01
617.07	42.13
617.22	46.81
617.37	121.71
617.53	63.19
617.68	7.02
617.83	21.06
617.99	46.81
618.14	100.64
618.29	93.62
618.45	53.83
618.60	86.60
618.75	53.83
618.90	49.15
619.06	98.30
619.21	91.28
619.36	21.06
619.51	91.28
619.67	72.56
619.82	65.54
619.97	91.28
620.12	93.62
620.28	121.71
620.43	100.64
620.58	72.56
620.73	11.70
620.89	16.38
621.04	65.54
621.19	35.11
621.34	119.37
621.49	16.38
621.65	100.64
621.80	28.09
621.95	44.47
622.10	77.24
622.25	32.77
622.41	98.30
622.56	86.60
622.71	67.88
622.86	23.41
623.01	91.28
623.16	91.28
623.32	46.81
623.47	42.13
623.62	21.06
623.77	51.49
623.92	112.35
624.07	63.19
624.23	65.54
624.38	11.70
624.53	65.54
624.68	14.04
624.83	63.19
624.98	65.54
625.13	63.19
625.29	74.90
625.44	70.22
625.59	42.13
625.74	53.83
625.89	72.56
626.04	9.36
626.19	56.17
626.34	16.38
626.49	110.01
626.65	58.51
626.80	65.54
626.95	93.62
627.10	110.01
627.25	46.81
627.40	105.32
627.55	84.26
627.70	44.47
627.85	51.49
628.00	16.38
628.15	42.13
628.30	37.45
628.45	37.45
628.60	14.04
628.76	14.04
628.91	23.41
629.06	37.45
629.21	67.88
629.36	18.72
629.51	16.38
629.66	39.79
629.81	154.48
629.96	86.60
630.11	102.98
630.26	56.17
630.41	18.72
630.56	44.47
630.71	30.43
630.86	23.41
631.01	70.22
631.16	65.54
631.31	2.34
631.46	42.13
631.61	35.11
631.76	18.72
631.91	14.04
632.06	51.49
632.21	18.72
632.36	4.68
632.51	30.43
632.66	16.38
632.81	42.13
632.96	131.07
633.10	28.09
633.25	51.49
633.40	51.49
633.55	51.49
633.70	93.62
633.85	30.43
634.00	56.17
634.15	86.60
634.30	51.49
634.45	39.79
634.60	49.15
634.75	25.75
634.90	149.79
635.05	72.56
635.19	117.03
635.34	53.83
635.49	131.07
635.64	126.39
635.79	0.00
635.94	18.72
636.09	152.13
636.24	102.98
636.39	86.60
636.53	25.75
636.68	60.85
636.83	74.90
636.98	44.47
637.13	37.45
637.28	16.38
637.43	93.62
637.57	88.94
637.72	56.17
637.87	100.64
638.02	131.07
638.17	121.71
638.32	98.30
638.46	60.85
638.61	74.90
638.76	74.90
638.91	72.56
639.06	65.54
639.20	53.83
639.35	70.22
639.50	14.04
639.65	74.90
639.80	79.58
639.94	105.32
640.09	65.54
640.24	44.47
640.39	110.01
640.54	88.94
640.68	49.15
640.83	93.62
640.98	30.43
641.13	93.62
641.27	0.00
641.42	23.41
641.57	63.19
641.72	28.09
641.86	60.85
642.01	30.43
642.16	14.04
642.31	72.56
642.45	126.39
642.60	56.17
642.75	53.83
642.90	67.88
643.04	46.81
643.19	84.26
643.34	88.94
643.48	46.81
643.63	79.58
643.78	74.90
643.93	133.41
644.07	81.92
644.22	0.00
644.37	49.15
644.51	84.26
644.66	91.28
644.81	56.17
644.95	67.88
645.10	42.13
645.25	105.32
645.39	44.47
645.54	105.32
645.69	25.75
645.83	72.56
645.98	39.79
646.13	74.90
646.27	74.90
646.42	81.92
646.57	46.81
646.71	102.98
646.86	77.24
647.00	70.22
647.15	56.17
647.30	56.17
647.44	49.15
647.59	56.17
647.74	65.54
647.88	0.00
648.03	84.26
648.17	30.43
648.32	25.75
648.47	67.88
648.61	88.94
648.76	35.11
648.90	81.92
649.05	88.94
649.20	28.09
649.34	60.85
649.49	88.94
649.63	79.58
649.78	32.77
649.92	84.26
650.07	72.56
650.21	23.41
650.36	65.54
650.51	74.90
650.65	77.24
650.80	21.06
650.94	35.11
651.09	65.54
651.23	42.13
651.38	0.00
651.52	39.79
651.67	65.54
651.81	46.81
651.96	46.81
652.10	60.85
652.25	32.77
652.39	107.66
652.54	56.17
652.68	88.94
652.83	23.41
652.97	30.43
653.12	42.13
653.26	105.32
653.41	35.11
653.55	56.17
653.70	9.36
653.84	91.28
653.99	70.22
654.13	56.17
654.27	32.77
654.42	63.19
654.56	74.90
654.71	56.17
654.85	74.90
655.00	74.90
655.14	112.35
655.29	95.96
655.43	88.94
655.57	4.68
655.72	42.13
655.86	84.26
656.01	14.04
656.15	0.00
656.30	84.26
656.44	67.88
656.58	88.94
656.73	44.47
656.87	79.58
657.01	74.90
657.16	65.54
657.30	95.96
657.45	56.17
657.59	72.56
657.73	11.70
657.88	74.90
658.02	0.00
658.16	14.04
658.31	32.77
658.45	37.45
658.60	16.38
658.74	70.22
658.88	88.94
659.03	88.94
659.17	21.06
659.31	53.83
659.46	42.13
659.60	0.00
659.74	49.15
659.89	72.56
660.03	37.45
660.17	32.77
660.32	70.22
660.46	67.88
660.60	0.00
660.74	25.75
660.89	28.09
661.03	37.45
661.17	95.96
661.32	100.64
661.46	91.28
661.60	0.00
661.74	107.66
661.89	56.17
662.03	63.19
662.17	4.68
662.31	46.81
662.46	44.47
662.60	95.96
662.74	49.15
662.88	42.13
663.03	0.00
663.17	42.13
663.31	51.49
663.45	28.09
663.60	77.24
663.74	0.00
663.88	58.51
664.02	49.15
664.17	39.79
664.31	128.73
664.45	37.45
664.59	70.22
664.73	35.11
664.88	0.00
665.02	121.71
665.16	25.75
665.30	0.00
665.44	67.88
665.59	159.16
665.73	14.04
665.87	0.00
666.01	21.06
666.15	84.26
666.29	98.30
666.44	30.43
666.58	65.54
666.72	23.41
666.86	42.13
667.00	9.36
667.14	32.77
667.28	46.81
667.43	39.79
667.57	0.00
667.71	21.06
667.85	25.75
667.99	16.38
668.13	2.34
668.27	16.38
668.41	16.38
668.56	23.41
668.70	105.32
668.84	0.00
668.98	60.85
669.12	56.17
669.26	32.77
669.40	72.56
669.54	98.30
669.68	58.51
669.82	0.00
669.96	124.05
670.10	72.56
670.25	9.36
670.39	88.94
670.53	46.81
670.67	49.15
670.81	88.94
670.95	81.92
671.09	42.13
671.23	7.02
671.37	60.85
671.51	0.00
671.65	9.36
671.79	42.13
671.93	0.00
672.07	42.13
672.21	11.70
672.35	126.39
672.49	91.28
672.63	0.00
672.77	32.77
672.91	14.04
673.05	14.04
673.19	28.09
673.33	58.51
673.47	30.43
673.61	93.62
673.75	35.11
673.89	51.49
674.03	11.70
674.17	79.58
674.31	0.00
674.45	53.83
674.59	30.43
674.73	0.00
674.87	30.43
675.01	74.90
675.15	98.30
675.29	25.75
675.43	42.13
675.56	21.06
675.70	25.75
675.84	37.45
675.98	28.09
676.12	51.49
676.26	58.51
676.40	56.17
676.54	23.41
676.68	51.49
676.82	44.47
676.96	51.49
677.10	60.85
677.23	79.58
677.37	63.19
677.51	63.19
677.65	16.38
677.79	23.41
677.93	37.45
678.07	65.54
678.21	77.24
678.34	14.04
678.48	30.43
678.62	7.02
678.76	0.00
678.90	7.02
679.04	63.19
679.18	30.43
679.31	74.90
679.45	91.28
679.59	49.15
679.73	0.00
679.87	77.24
680.00	51.49
680.14	0.00
680.28	16.38
680.42	9.36
680.56	32.77
680.70	16.38
680.83	32.77
680.97	114.69
681.11	32.77
681.25	0.00
681.39	46.81
681.52	25.75
681.66	84.26
681.80	95.96
681.94	0.00
682.07	32.77
682.21	0.00
682.35	67.88
682.49	46.81
682.62	9.36
682.76	18.72
682.90	63.19
683.04	25.75
683.17	107.66
683.31	4.68
683.45	0.00
683.59	49.15
683.72	0.00
683.86	42.13
684.00	21.06
684.13	0.00
684.27	63.19
684.41	11.70
684.55	0.00
684.68	21.06
684.82	56.17
684.96	0.00
685.09	28.09
685.23	21.06
685.37	18.72
685.50	110.01
685.64	25.75
685.78	0.00
685.91	25.75
686.05	42.13
686.19	0.00
686.32	67.88
686.46	81.92
686.60	0.00
686.73	42.13
686.87	77.24
687.01	58.51
687.14	51.49
687.28	28.09
687.42	11.70
687.55	39.79
687.69	14.04
687.82	77.24
687.96	9.36
688.10	23.41
688.23	65.54
688.37	60.85
688.50	49.15
688.64	107.66
688.78	28.09
688.91	42.13
689.05	30.43
689.18	91.28
689.32	93.62
689.46	65.54
689.59	65.54
689.73	88.94
689.86	0.00
690.00	95.96
690.13	2.34
690.27	4.68
690.41	58.51
690.54	0.00
690.68	56.17
690.81	18.72
690.95	0.00
691.08	74.90
691.22	0.00
691.35	25.75
691.49	4.68
691.62	16.38
691.76	58.51
691.89	117.03
692.03	88.94
692.16	86.60
692.30	51.49
692.43	7.02
692.57	25.75
692.70	53.83
692.84	18.72
692.97	32.77
693.11	46.81
693.24	102.98
693.38	14.04
693.51	49.15
693.65	32.77
693.78	0.00
693.92	21.06
694.05	28.09
694.19	23.41
694.32	23.41
694.45	56.17
694.59	0.00
694.72	0.00
694.86	0.00
694.99	4.68
695.13	58.51
695.26	9.36
695.39	58.51
695.53	105.32
695.66	23.41
695.80	79.58
695.93	9.36
696.07	14.04
696.20	30.43
696.33	9.36
696.47	58.51
696.60	30.43
696.73	67.88
696.87	44.47
697.00	58.51
697.14	18.72
697.27	0.00
697.40	98.30
697.54	44.47
697.67	44.47
697.80	56.17
697.94	0.00
698.07	67.88
698.21	0.00
698.34	60.85
698.47	11.70
698.61	0.00
698.74	39.79
698.87	28.09
699.01	2.34
699.14	35.11
699.27	11.70
699.40	14.04
699.54	14.04
699.67	51.49
699.80	14.04
699.94	72.56
700.07	37.45
700.20	74.90
700.34	74.90
700.47	60.85
700.60	49.15
700.73	74.90
700.87	44.47
701.00	2.34
701.13	0.00
701.26	81.92
701.40	135.75
701.53	11.70
701.66	16.38
701.79	128.73
701.93	49.15
702.06	28.09
702.19	70.22
702.32	0.00
702.46	46.81
702.59	65.54
702.72	72.56
702.85	65.54
702.99	23.41
703.12	65.54
703.25	44.47
703.38	53.83
703.51	0.00
703.65	21.06
703.78	0.00
703.91	95.96
704.04	44.47
704.17	0.00
704.31	39.79
704.44	32.77
704.57	37.45
704.70	79.58
704.83	4.68
704.96	0.00
705.10	16.38
705.23	0.00
>>>>>End Processed Spectral Data<<<<<
