SpectraSuite Data File
++++++++++++++++++++++++++++++++++++
Date: Fri Oct 04 12:13:29 GMT-05:00 2013
User: price-jones
Dark Spectrum Present: No
Reference Spectrum Present: No
Number of Sampled Component Spectra: 1
Spectrometers: USB2+H05261
Integration Time (usec): 10000 (USB2+H05261)
Spectra Averaged: 1 (USB2+H05261)
Boxcar Smoothing: 0 (USB2+H05261)
Correct for Electrical Dark: No (USB2+H05261)
Strobe/Lamp Enabled: No (USB2+H05261)
Correct for Detector Non-linearity: No (USB2+H05261)
Correct for Stray Light: No (USB2+H05261)
Number of Pixels in Processed Spectrum: 2048
>>>>>Begin Processed Spectral Data<<<<<
365.73	0.00
365.92	0.00
366.12	0.00
366.32	0.00
366.52	0.00
366.72	0.00
366.91	0.00
367.11	0.00
367.31	0.00
367.51	0.00
367.70	0.00
367.90	0.00
368.10	0.00
368.30	0.00
368.49	0.00
368.69	0.00
368.89	0.00
369.09	0.00
369.28	0.00
369.48	0.00
369.68	0.00
369.87	0.00
370.07	0.00
370.27	0.00
370.47	0.00
370.66	0.00
370.86	0.00
371.06	0.00
371.25	0.00
371.45	53.83
371.65	0.00
371.84	0.00
372.04	0.00
372.24	0.00
372.44	0.00
372.63	30.43
372.83	16.38
373.03	0.00
373.22	51.49
373.42	9.36
373.62	53.83
373.81	126.39
374.01	0.00
374.21	28.09
374.40	39.79
374.60	44.47
374.79	49.15
374.99	42.13
375.19	18.72
375.38	4.68
375.58	0.00
375.78	110.01
375.97	44.47
376.17	100.64
376.37	49.15
376.56	0.00
376.76	46.81
376.95	67.88
377.15	44.47
377.35	28.09
377.54	56.17
377.74	74.90
377.93	0.00
378.13	65.54
378.33	0.00
378.52	77.24
378.72	25.75
378.91	0.00
379.11	0.00
379.31	37.45
379.50	7.02
379.70	86.60
379.89	0.00
380.09	4.68
380.28	32.77
380.48	35.11
380.68	0.00
380.87	2.34
381.07	0.00
381.26	21.06
381.46	42.13
381.65	44.47
381.85	2.34
382.04	21.06
382.24	0.00
382.43	11.70
382.63	2.34
382.83	0.00
383.02	67.88
383.22	30.43
383.41	35.11
383.61	32.77
383.80	0.00
384.00	0.00
384.19	39.79
384.39	53.83
384.58	35.11
384.78	9.36
384.97	44.47
385.17	0.00
385.36	23.41
385.56	49.15
385.75	7.02
385.95	0.00
386.14	0.00
386.34	44.47
386.53	7.02
386.72	25.75
386.92	14.04
387.11	91.28
387.31	44.47
387.50	21.06
387.70	0.00
387.89	28.09
388.09	53.83
388.28	0.00
388.48	51.49
388.67	21.06
388.86	0.00
389.06	53.83
389.25	63.19
389.45	0.00
389.64	2.34
389.84	0.00
390.03	0.00
390.22	0.00
390.42	16.38
390.61	18.72
390.81	0.00
391.00	0.00
391.19	0.00
391.39	0.00
391.58	32.77
391.78	0.00
391.97	18.72
392.16	0.00
392.36	58.51
392.55	56.17
392.75	44.47
392.94	37.45
393.13	0.00
393.33	25.75
393.52	37.45
393.71	88.94
393.91	30.43
394.10	44.47
394.29	58.51
394.49	2.34
394.68	7.02
394.88	42.13
395.07	79.58
395.26	18.72
395.46	16.38
395.65	51.49
395.84	7.02
396.04	25.75
396.23	0.00
396.42	25.75
396.62	11.70
396.81	2.34
397.00	23.41
397.19	0.00
397.39	0.00
397.58	67.88
397.77	91.28
397.97	0.00
398.16	60.85
398.35	0.00
398.55	0.00
398.74	35.11
398.93	0.00
399.12	102.98
399.32	0.00
399.51	0.00
399.70	0.00
399.90	16.38
400.09	25.75
400.28	60.85
400.47	44.47
400.67	0.00
400.86	112.35
401.05	0.00
401.24	0.00
401.44	77.24
401.63	65.54
401.82	32.77
402.01	0.00
402.21	2.34
402.40	14.04
402.59	9.36
402.78	42.13
402.97	35.11
403.17	23.41
403.36	0.00
403.55	0.00
403.74	0.00
403.93	18.72
404.13	32.77
404.32	7.02
404.51	51.49
404.70	79.58
404.89	32.77
405.09	53.83
405.28	0.00
405.47	39.79
405.66	2.34
405.85	32.77
406.05	51.49
406.24	0.00
406.43	25.75
406.62	91.28
406.81	63.19
407.00	11.70
407.20	21.06
407.39	14.04
407.58	0.00
407.77	16.38
407.96	56.17
408.15	51.49
408.34	16.38
408.54	35.11
408.73	23.41
408.92	23.41
409.11	72.56
409.30	0.00
409.49	18.72
409.68	14.04
409.87	0.00
410.07	0.00
410.26	0.00
410.45	0.00
410.64	9.36
410.83	9.36
411.02	30.43
411.21	56.17
411.40	0.00
411.59	0.00
411.78	51.49
411.98	37.45
412.17	39.79
412.36	100.64
412.55	42.13
412.74	0.00
412.93	74.90
413.12	35.11
413.31	67.88
413.50	37.45
413.69	51.49
413.88	42.13
414.07	7.02
414.26	16.38
414.45	53.83
414.64	58.51
414.83	63.19
415.02	30.43
415.22	74.90
415.41	14.04
415.60	100.64
415.79	0.00
415.98	35.11
416.17	16.38
416.36	39.79
416.55	0.00
416.74	0.00
416.93	140.43
417.12	18.72
417.31	0.00
417.50	60.85
417.69	60.85
417.88	81.92
418.07	72.56
418.26	7.02
418.45	65.54
418.64	88.94
418.83	0.00
419.02	93.62
419.21	30.43
419.39	56.17
419.58	7.02
419.77	9.36
419.96	51.49
420.15	37.45
420.34	0.00
420.53	37.45
420.72	0.00
420.91	49.15
421.10	39.79
421.29	105.32
421.48	0.00
421.67	9.36
421.86	77.24
422.05	0.00
422.24	121.71
422.43	86.60
422.61	0.00
422.80	0.00
422.99	0.00
423.18	46.81
423.37	0.00
423.56	0.00
423.75	58.51
423.94	30.43
424.13	74.90
424.32	28.09
424.50	105.32
424.69	11.70
424.88	9.36
425.07	9.36
425.26	0.00
425.45	46.81
425.64	35.11
425.83	56.17
426.01	0.00
426.20	81.92
426.39	49.15
426.58	44.47
426.77	49.15
426.96	60.85
427.15	21.06
427.33	0.00
427.52	42.13
427.71	30.43
427.90	60.85
428.09	14.04
428.28	70.22
428.46	30.43
428.65	9.36
428.84	0.00
429.03	49.15
429.22	16.38
429.40	28.09
429.59	44.47
429.78	0.00
429.97	46.81
430.16	70.22
430.34	0.00
430.53	9.36
430.72	67.88
430.91	105.32
431.10	9.36
431.28	91.28
431.47	30.43
431.66	58.51
431.85	84.26
432.03	56.17
432.22	28.09
432.41	18.72
432.60	25.75
432.79	44.47
432.97	7.02
433.16	46.81
433.35	0.00
433.54	46.81
433.72	11.70
433.91	100.64
434.10	42.13
434.28	7.02
434.47	53.83
434.66	23.41
434.85	0.00
435.03	67.88
435.22	0.00
435.41	60.85
435.59	32.77
435.78	30.43
435.97	74.90
436.16	0.00
436.34	23.41
436.53	23.41
436.72	0.00
436.90	42.13
437.09	2.34
437.28	79.58
437.46	0.00
437.65	56.17
437.84	0.00
438.02	28.09
438.21	44.47
438.40	14.04
438.58	32.77
438.77	0.00
438.96	16.38
439.14	11.70
439.33	44.47
439.52	25.75
439.70	67.88
439.89	21.06
440.08	72.56
440.26	105.32
440.45	0.00
440.63	56.17
440.82	72.56
441.01	79.58
441.19	16.38
441.38	53.83
441.57	0.00
441.75	42.13
441.94	0.00
442.12	44.47
442.31	4.68
442.50	0.00
442.68	56.17
442.87	58.51
443.05	21.06
443.24	2.34
443.43	18.72
443.61	18.72
443.80	44.47
443.98	56.17
444.17	30.43
444.35	49.15
444.54	37.45
444.73	0.00
444.91	0.00
445.10	35.11
445.28	51.49
445.47	67.88
445.65	0.00
445.84	23.41
446.02	49.15
446.21	23.41
446.39	0.00
446.58	74.90
446.77	0.00
446.95	2.34
447.14	0.00
447.32	84.26
447.51	72.56
447.69	23.41
447.88	53.83
448.06	0.00
448.25	7.02
448.43	42.13
448.62	79.58
448.80	72.56
448.99	11.70
449.17	39.79
449.36	51.49
449.54	0.00
449.73	0.00
449.91	60.85
450.10	88.94
450.28	30.43
450.46	37.45
450.65	44.47
450.83	79.58
451.02	18.72
451.20	39.79
451.39	0.00
451.57	72.56
451.76	77.24
451.94	30.43
452.13	16.38
452.31	0.00
452.49	0.00
452.68	86.60
452.86	0.00
453.05	28.09
453.23	70.22
453.42	16.38
453.60	23.41
453.78	60.85
453.97	28.09
454.15	0.00
454.34	25.75
454.52	42.13
454.70	32.77
454.89	14.04
455.07	84.26
455.26	9.36
455.44	0.00
455.62	32.77
455.81	51.49
455.99	14.04
456.17	49.15
456.36	0.00
456.54	16.38
456.73	0.00
456.91	0.00
457.09	60.85
457.28	21.06
457.46	95.96
457.64	28.09
457.83	0.00
458.01	0.00
458.19	7.02
458.38	28.09
458.56	0.00
458.74	2.34
458.93	0.00
459.11	2.34
459.29	9.36
459.48	37.45
459.66	81.92
459.84	0.00
460.03	0.00
460.21	53.83
460.39	56.17
460.57	51.49
460.76	98.30
460.94	21.06
461.12	98.30
461.31	42.13
461.49	60.85
461.67	35.11
461.85	60.85
462.04	32.77
462.22	100.64
462.40	14.04
462.59	9.36
462.77	11.70
462.95	0.00
463.13	46.81
463.32	56.17
463.50	0.00
463.68	117.03
463.86	72.56
464.05	4.68
464.23	53.83
464.41	0.00
464.59	16.38
464.78	2.34
464.96	79.58
465.14	0.00
465.32	44.47
465.50	58.51
465.69	30.43
465.87	37.45
466.05	0.00
466.23	39.79
466.41	58.51
466.60	72.56
466.78	0.00
466.96	39.79
467.14	37.45
467.32	30.43
467.51	18.72
467.69	23.41
467.87	91.28
468.05	14.04
468.23	21.06
468.41	0.00
468.60	16.38
468.78	0.00
468.96	35.11
469.14	72.56
469.32	28.09
469.50	7.02
469.69	4.68
469.87	49.15
470.05	0.00
470.23	0.00
470.41	93.62
470.59	95.96
470.77	65.54
470.95	21.06
471.14	49.15
471.32	49.15
471.50	14.04
471.68	0.00
471.86	14.04
472.04	53.83
472.22	30.43
472.40	44.47
472.58	63.19
472.77	23.41
472.95	4.68
473.13	25.75
473.31	0.00
473.49	84.26
473.67	16.38
473.85	0.00
474.03	121.71
474.21	107.66
474.39	35.11
474.57	16.38
474.75	49.15
474.93	18.72
475.12	46.81
475.30	11.70
475.48	0.00
475.66	9.36
475.84	18.72
476.02	77.24
476.20	72.56
476.38	39.79
476.56	84.26
476.74	0.00
476.92	0.00
477.10	4.68
477.28	7.02
477.46	21.06
477.64	81.92
477.82	58.51
478.00	7.02
478.18	102.98
478.36	67.88
478.54	30.43
478.72	42.13
478.90	11.70
479.08	0.00
479.26	0.00
479.44	46.81
479.62	35.11
479.80	39.79
479.98	86.60
480.16	0.00
480.34	49.15
480.52	0.00
480.70	93.62
480.88	112.35
481.06	4.68
481.24	39.79
481.41	9.36
481.59	11.70
481.77	18.72
481.95	93.62
482.13	0.00
482.31	35.11
482.49	86.60
482.67	74.90
482.85	23.41
483.03	74.90
483.21	44.47
483.39	0.00
483.57	18.72
483.74	112.35
483.92	23.41
484.10	84.26
484.28	30.43
484.46	30.43
484.64	23.41
484.82	81.92
485.00	21.06
485.18	28.09
485.35	32.77
485.53	39.79
485.71	30.43
485.89	0.00
486.07	65.54
486.25	0.00
486.43	0.00
486.61	0.00
486.78	0.00
486.96	58.51
487.14	65.54
487.32	16.38
487.50	30.43
487.68	60.85
487.85	9.36
488.03	42.13
488.21	86.60
488.39	95.96
488.57	84.26
488.75	107.66
488.92	49.15
489.10	7.02
489.28	0.00
489.46	30.43
489.64	39.79
489.81	0.00
489.99	25.75
490.17	70.22
490.35	84.26
490.53	30.43
490.70	9.36
490.88	9.36
491.06	51.49
491.24	37.45
491.41	0.00
491.59	74.90
491.77	86.60
491.95	114.69
492.13	65.54
492.30	25.75
492.48	25.75
492.66	0.00
492.84	81.92
493.01	70.22
493.19	79.58
493.37	49.15
493.54	84.26
493.72	93.62
493.90	135.75
494.08	2.34
494.25	42.13
494.43	37.45
494.61	9.36
494.79	9.36
494.96	0.00
495.14	37.45
495.32	18.72
495.49	88.94
495.67	11.70
495.85	0.00
496.02	91.28
496.20	0.00
496.38	58.51
496.55	49.15
496.73	18.72
496.91	42.13
497.09	30.43
497.26	60.85
497.44	21.06
497.62	46.81
497.79	14.04
497.97	53.83
498.14	0.00
498.32	4.68
498.50	32.77
498.67	42.13
498.85	74.90
499.03	81.92
499.20	79.58
499.38	63.19
499.56	11.70
499.73	102.98
499.91	67.88
500.08	100.64
500.26	81.92
500.44	9.36
500.61	9.36
500.79	51.49
500.97	32.77
501.14	77.24
501.32	30.43
501.49	39.79
501.67	53.83
501.84	102.98
502.02	0.00
502.20	65.54
502.37	53.83
502.55	0.00
502.72	46.81
502.90	0.00
503.07	0.00
503.25	79.58
503.43	84.26
503.60	79.58
503.78	35.11
503.95	56.17
504.13	60.85
504.30	44.47
504.48	112.35
504.65	21.06
504.83	93.62
505.01	32.77
505.18	18.72
505.36	32.77
505.53	35.11
505.71	44.47
505.88	35.11
506.06	14.04
506.23	35.11
506.41	117.03
506.58	63.19
506.76	65.54
506.93	23.41
507.11	0.00
507.28	42.13
507.46	23.41
507.63	0.00
507.81	102.98
507.98	51.49
508.16	77.24
508.33	81.92
508.50	32.77
508.68	7.02
508.85	77.24
509.03	42.13
509.20	70.22
509.38	74.90
509.55	126.39
509.73	60.85
509.90	25.75
510.08	18.72
510.25	35.11
510.42	81.92
510.60	81.92
510.77	86.60
510.95	51.49
511.12	63.19
511.30	14.04
511.47	98.30
511.64	32.77
511.82	72.56
511.99	119.37
512.17	119.37
512.34	56.17
512.51	0.00
512.69	58.51
512.86	25.75
513.04	46.81
513.21	114.69
513.38	37.45
513.56	107.66
513.73	74.90
513.90	86.60
514.08	44.47
514.25	14.04
514.43	117.03
514.60	23.41
514.77	0.00
514.95	81.92
515.12	28.09
515.29	0.00
515.47	65.54
515.64	46.81
515.81	72.56
515.99	25.75
516.16	9.36
516.33	93.62
516.51	58.51
516.68	58.51
516.85	28.09
517.03	23.41
517.20	39.79
517.37	32.77
517.54	105.32
517.72	72.56
517.89	46.81
518.06	39.79
518.24	95.96
518.41	4.68
518.58	56.17
518.75	72.56
518.93	42.13
519.10	81.92
519.27	39.79
519.45	42.13
519.62	30.43
519.79	16.38
519.96	35.11
520.14	0.00
520.31	37.45
520.48	44.47
520.65	42.13
520.83	28.09
521.00	107.66
521.17	86.60
521.34	11.70
521.52	58.51
521.69	44.47
521.86	0.00
522.03	16.38
522.20	18.72
522.38	7.02
522.55	100.64
522.72	53.83
522.89	77.24
523.07	30.43
523.24	70.22
523.41	0.00
523.58	2.34
523.75	49.15
523.92	58.51
524.10	0.00
524.27	91.28
524.44	81.92
524.61	25.75
524.78	23.41
524.96	18.72
525.13	11.70
525.30	112.35
525.47	98.30
525.64	128.73
525.81	117.03
525.98	18.72
526.16	95.96
526.33	25.75
526.50	65.54
526.67	46.81
526.84	30.43
527.01	70.22
527.18	51.49
527.36	14.04
527.53	0.00
527.70	39.79
527.87	0.00
528.04	32.77
528.21	51.49
528.38	0.00
528.55	140.43
528.72	30.43
528.89	9.36
529.07	102.98
529.24	58.51
529.41	25.75
529.58	56.17
529.75	65.54
529.92	23.41
530.09	11.70
530.26	44.47
530.43	86.60
530.60	86.60
530.77	39.79
530.94	56.17
531.11	9.36
531.28	21.06
531.46	51.49
531.63	42.13
531.80	72.56
531.97	63.19
532.14	79.58
532.31	9.36
532.48	60.85
532.65	67.88
532.82	7.02
532.99	110.01
533.16	60.85
533.33	77.24
533.50	37.45
533.67	79.58
533.84	110.01
534.01	49.15
534.18	18.72
534.35	46.81
534.52	18.72
534.69	39.79
534.86	23.41
535.03	53.83
535.20	70.22
535.37	0.00
535.54	14.04
535.71	9.36
535.88	49.15
536.05	39.79
536.22	25.75
536.38	32.77
536.55	35.11
536.72	30.43
536.89	86.60
537.06	58.51
537.23	11.70
537.40	46.81
537.57	0.00
537.74	35.11
537.91	53.83
538.08	56.17
538.25	133.41
538.42	53.83
538.59	0.00
538.75	0.00
538.92	39.79
539.09	0.00
539.26	77.24
539.43	51.49
539.60	154.48
539.77	133.41
539.94	77.24
540.11	79.58
540.28	154.48
540.44	81.92
540.61	70.22
540.78	37.45
540.95	23.41
541.12	56.17
541.29	32.77
541.46	86.60
541.62	53.83
541.79	102.98
541.96	63.19
542.13	46.81
542.30	70.22
542.47	0.00
542.63	28.09
542.80	84.26
542.97	14.04
543.14	84.26
543.31	42.13
543.48	28.09
543.64	46.81
543.81	42.13
543.98	0.00
544.15	46.81
544.32	58.51
544.48	49.15
544.65	77.24
544.82	23.41
544.99	37.45
545.16	91.28
545.32	63.19
545.49	63.19
545.66	37.45
545.83	70.22
546.00	18.72
546.16	16.38
546.33	58.51
546.50	46.81
546.67	91.28
546.83	32.77
547.00	14.04
547.17	81.92
547.34	23.41
547.50	7.02
547.67	0.00
547.84	0.00
548.00	44.47
548.17	98.30
548.34	117.03
548.51	37.45
548.67	53.83
548.84	11.70
549.01	79.58
549.18	44.47
549.34	84.26
549.51	84.26
549.68	18.72
549.84	37.45
550.01	81.92
550.18	32.77
550.34	74.90
550.51	37.45
550.68	9.36
550.84	60.85
551.01	88.94
551.18	74.90
551.34	0.00
551.51	105.32
551.68	74.90
551.84	49.15
552.01	63.19
552.18	63.19
552.34	21.06
552.51	35.11
552.68	0.00
552.84	0.00
553.01	74.90
553.18	4.68
553.34	0.00
553.51	14.04
553.67	0.00
553.84	86.60
554.01	67.88
554.17	53.83
554.34	63.19
554.51	67.88
554.67	0.00
554.84	49.15
555.00	74.90
555.17	4.68
555.33	58.51
555.50	70.22
555.67	77.24
555.83	70.22
556.00	74.90
556.16	44.47
556.33	0.00
556.50	21.06
556.66	53.83
556.83	65.54
556.99	37.45
557.16	93.62
557.32	56.17
557.49	16.38
557.65	18.72
557.82	9.36
557.98	58.51
558.15	0.00
558.32	49.15
558.48	126.39
558.65	23.41
558.81	32.77
558.98	23.41
559.14	18.72
559.31	30.43
559.47	44.47
559.64	9.36
559.80	21.06
559.97	4.68
560.13	37.45
560.30	53.83
560.46	0.00
560.63	124.05
560.79	51.49
560.96	21.06
561.12	74.90
561.29	0.00
561.45	79.58
561.61	72.56
561.78	16.38
561.94	11.70
562.11	0.00
562.27	25.75
562.44	124.05
562.60	30.43
562.77	16.38
562.93	4.68
563.10	44.47
563.26	9.36
563.42	77.24
563.59	72.56
563.75	28.09
563.92	56.17
564.08	0.00
564.24	39.79
564.41	16.38
564.57	0.00
564.74	32.77
564.90	0.00
565.07	0.00
565.23	0.00
565.39	56.17
565.56	110.01
565.72	35.11
565.88	51.49
566.05	65.54
566.21	70.22
566.38	88.94
566.54	63.19
566.70	84.26
566.87	21.06
567.03	23.41
567.19	21.06
567.36	74.90
567.52	53.83
567.68	88.94
567.85	91.28
568.01	56.17
568.17	42.13
568.34	77.24
568.50	49.15
568.66	53.83
568.83	93.62
568.99	67.88
569.15	14.04
569.32	74.90
569.48	84.26
569.64	53.83
569.81	56.17
569.97	63.19
570.13	67.88
570.30	63.19
570.46	0.00
570.62	0.00
570.78	81.92
570.95	25.75
571.11	142.77
571.27	84.26
571.43	67.88
571.60	7.02
571.76	60.85
571.92	51.49
572.09	0.00
572.25	25.75
572.41	81.92
572.57	2.34
572.74	11.70
572.90	0.00
573.06	44.47
573.22	21.06
573.38	0.00
573.55	77.24
573.71	37.45
573.87	0.00
574.03	32.77
574.20	35.11
574.36	39.79
574.52	2.34
574.68	32.77
574.84	86.60
575.01	44.47
575.17	0.00
575.33	70.22
575.49	37.45
575.65	35.11
575.82	0.00
575.98	30.43
576.14	0.00
576.30	42.13
576.46	74.90
576.62	7.02
576.79	74.90
576.95	14.04
577.11	21.06
577.27	77.24
577.43	25.75
577.59	0.00
577.75	11.70
577.92	154.48
578.08	51.49
578.24	4.68
578.40	28.09
578.56	100.64
578.72	56.17
578.88	0.00
579.04	63.19
579.21	37.45
579.37	56.17
579.53	23.41
579.69	0.00
579.85	56.17
580.01	23.41
580.17	70.22
580.33	70.22
580.49	58.51
580.65	16.38
580.82	39.79
580.98	84.26
581.14	30.43
581.30	28.09
581.46	65.54
581.62	42.13
581.78	105.32
581.94	63.19
582.10	63.19
582.26	114.69
582.42	46.81
582.58	77.24
582.74	107.66
582.90	63.19
583.06	25.75
583.22	67.88
583.38	126.39
583.54	126.39
583.70	37.45
583.86	16.38
584.02	107.66
584.18	25.75
584.34	70.22
584.50	297.25
584.66	1797.53
584.82	4109.98
584.98	5685.16
585.14	4910.44
585.30	3101.21
585.46	1837.32
585.62	1315.38
585.78	540.66
585.94	227.03
586.10	175.54
586.26	95.96
586.42	93.62
586.58	88.94
586.74	77.24
586.90	131.07
587.06	63.19
587.22	14.04
587.38	46.81
587.54	138.09
587.70	299.59
587.86	430.66
588.02	383.85
588.18	362.78
588.34	203.63
588.49	152.13
588.65	93.62
588.81	28.09
588.97	9.36
589.13	9.36
589.29	124.05
589.45	0.00
589.61	72.56
589.77	58.51
589.93	0.00
590.08	0.00
590.24	70.22
590.40	16.38
590.56	63.19
590.72	35.11
590.88	65.54
591.04	9.36
591.20	86.60
591.35	14.04
591.51	0.00
591.67	30.43
591.83	46.81
591.99	163.84
592.15	58.51
592.31	0.00
592.46	25.75
592.62	53.83
592.78	72.56
592.94	21.06
593.10	42.13
593.26	60.85
593.41	49.15
593.57	0.00
593.73	4.68
593.89	257.46
594.05	552.37
594.20	809.83
594.36	774.72
594.52	519.60
594.68	330.02
594.84	236.39
594.99	140.43
595.15	105.32
595.31	49.15
595.47	9.36
595.62	23.41
595.78	60.85
595.94	39.79
596.10	42.13
596.25	32.77
596.41	79.58
596.57	60.85
596.73	46.81
596.88	112.35
597.04	124.05
597.20	229.37
597.36	215.33
597.51	273.84
597.67	119.37
597.83	56.17
597.99	11.70
598.14	60.85
598.30	42.13
598.46	42.13
598.61	2.34
598.77	39.79
598.93	142.77
599.09	28.09
599.24	35.11
599.40	37.45
599.56	81.92
599.71	0.00
599.87	112.35
600.03	0.00
600.18	63.19
600.34	11.70
600.50	98.30
600.65	56.17
600.81	79.58
600.97	53.83
601.12	70.22
601.28	81.92
601.44	30.43
601.59	63.19
601.75	65.54
601.91	32.77
602.06	0.00
602.22	16.38
602.37	110.01
602.53	142.77
602.69	170.86
602.84	229.37
603.00	220.01
603.16	98.30
603.31	77.24
603.47	63.19
603.62	95.96
603.78	53.83
603.94	67.88
604.09	70.22
604.25	14.04
604.40	25.75
604.56	58.51
604.71	23.41
604.87	98.30
605.03	30.43
605.18	63.19
605.34	30.43
605.49	11.70
605.65	65.54
605.80	60.85
605.96	81.92
606.12	0.00
606.27	0.00
606.43	9.36
606.58	14.04
606.74	37.45
606.89	245.76
607.05	444.70
607.20	718.54
607.36	552.37
607.51	369.80
607.67	273.84
607.82	205.97
607.98	53.83
608.13	51.49
608.29	100.64
608.44	91.28
608.60	93.62
608.75	25.75
608.91	124.05
609.06	437.68
609.22	926.85
609.37	1078.99
609.53	924.51
609.68	636.63
609.84	440.02
609.99	355.76
610.15	189.58
610.30	84.26
610.46	0.00
610.61	74.90
610.76	18.72
610.92	84.26
611.07	42.13
611.23	14.04
611.38	37.45
611.54	114.69
611.69	91.28
611.84	18.72
612.00	35.11
612.15	46.81
612.31	46.81
612.46	112.35
612.62	49.15
612.77	65.54
612.92	98.30
613.08	102.98
613.23	117.03
613.39	93.62
613.54	135.75
613.69	360.44
613.85	1034.52
614.00	1614.97
614.15	1802.21
614.31	1188.99
614.46	856.64
614.62	514.92
614.77	344.06
614.92	177.88
615.08	30.43
615.23	74.90
615.38	105.32
615.54	56.17
615.69	95.96
615.84	248.10
616.00	346.40
616.15	444.70
616.30	447.04
616.46	285.55
616.61	166.18
616.76	117.03
616.92	63.19
617.07	53.83
617.22	18.72
617.37	14.04
617.53	53.83
617.68	63.19
617.83	32.77
617.99	56.17
618.14	56.17
618.29	23.41
618.45	114.69
618.60	107.66
618.75	16.38
618.90	100.64
619.06	0.00
619.21	65.54
619.36	44.47
619.51	28.09
619.67	14.04
619.82	11.70
619.97	88.94
620.12	25.75
620.28	91.28
620.43	102.98
620.58	32.77
620.73	35.11
620.89	39.79
621.04	51.49
621.19	203.63
621.34	180.22
621.49	271.50
621.65	269.16
621.80	142.77
621.95	154.48
622.10	107.66
622.25	23.41
622.41	37.45
622.56	51.49
622.71	23.41
622.86	53.83
623.01	70.22
623.16	23.41
623.32	72.56
623.47	4.68
623.62	110.01
623.77	0.00
623.92	58.51
624.07	95.96
624.23	72.56
624.38	11.70
624.53	51.49
624.68	46.81
624.83	30.43
624.98	21.06
625.13	0.00
625.29	0.00
625.44	91.28
625.59	0.00
625.74	0.00
625.89	77.24
626.04	205.97
626.19	521.94
626.34	830.89
626.49	898.77
626.65	711.52
626.80	505.56
626.95	400.23
627.10	224.69
627.25	128.73
627.40	32.77
627.55	0.00
627.70	51.49
627.85	79.58
628.00	14.04
628.15	39.79
628.30	72.56
628.45	14.04
628.60	4.68
628.76	70.22
628.91	21.06
629.06	95.96
629.21	25.75
629.36	70.22
629.51	56.17
629.66	11.70
629.81	112.35
629.96	126.39
630.11	161.50
630.26	217.67
630.41	241.08
630.56	128.73
630.71	93.62
630.86	81.92
631.01	30.43
631.16	23.41
631.31	0.00
631.46	58.51
631.61	4.68
631.76	77.24
631.91	28.09
632.06	70.22
632.21	14.04
632.36	39.79
632.51	44.47
632.66	77.24
632.81	74.90
632.96	273.84
633.10	519.60
633.25	636.63
633.40	472.79
633.55	311.29
633.70	198.95
633.85	126.39
634.00	156.82
634.15	86.60
634.30	0.00
634.45	37.45
634.60	25.75
634.75	65.54
634.90	37.45
635.05	21.06
635.19	0.00
635.34	16.38
635.49	58.51
635.64	44.47
635.79	67.88
635.94	0.00
636.09	42.13
636.24	112.35
636.39	21.06
636.53	124.05
636.68	0.00
636.83	37.45
636.98	53.83
637.13	30.43
637.28	112.35
637.43	124.05
637.57	93.62
637.72	245.76
637.87	727.91
638.02	1027.50
638.17	1125.80
638.32	999.41
638.46	645.99
638.61	449.38
638.76	278.52
638.91	182.56
639.06	60.85
639.20	51.49
639.35	86.60
639.50	51.49
639.65	444.70
639.80	1088.35
639.94	1664.12
640.09	1753.06
640.24	1416.02
640.39	912.81
640.54	610.88
640.68	416.62
640.83	194.26
640.98	72.56
641.13	93.62
641.27	65.54
641.42	56.17
641.57	70.22
641.72	28.09
641.86	60.85
642.01	63.19
642.16	2.34
642.31	0.00
642.45	42.13
642.60	39.79
642.75	67.88
642.90	67.88
643.04	21.06
643.19	42.13
643.34	0.00
643.48	0.00
643.63	74.90
643.78	35.11
643.93	9.36
644.07	39.79
644.22	14.04
644.37	25.75
644.51	56.17
644.66	49.15
644.81	0.00
644.95	79.58
645.10	44.47
645.25	0.00
645.39	0.00
645.54	28.09
645.69	28.09
645.83	4.68
645.98	56.17
646.13	35.11
646.27	39.79
646.42	91.28
646.57	70.22
646.71	84.26
646.86	51.49
647.00	0.00
647.15	63.19
647.30	37.45
647.44	67.88
647.59	14.04
647.74	30.43
647.88	4.68
648.03	35.11
648.17	51.49
648.32	0.00
648.47	42.13
648.61	53.83
648.76	9.36
648.90	39.79
649.05	91.28
649.20	72.56
649.34	0.00
649.49	77.24
649.63	0.00
649.78	56.17
649.92	79.58
650.07	212.99
650.21	461.09
650.36	746.63
650.51	950.26
650.65	779.40
650.80	533.64
650.94	402.57
651.09	255.12
651.23	168.52
651.38	14.04
651.52	65.54
651.67	37.45
651.81	63.19
651.96	25.75
652.10	44.47
652.25	0.00
652.39	0.00
652.54	67.88
652.68	131.07
652.83	142.77
652.97	308.95
653.12	334.70
653.26	320.65
653.41	278.52
653.55	161.50
653.70	84.26
653.84	49.15
653.99	98.30
654.13	95.96
654.27	56.17
654.42	35.11
654.56	105.32
654.71	114.69
654.85	35.11
655.00	25.75
655.14	70.22
655.29	51.49
655.43	44.47
655.57	2.34
655.72	0.00
655.86	124.05
656.01	0.00
656.15	4.68
656.30	39.79
656.44	56.17
656.58	53.83
656.73	39.79
656.87	67.88
657.01	56.17
657.16	79.58
657.30	7.02
657.45	88.94
657.59	0.00
657.73	25.75
657.88	37.45
658.02	58.51
658.16	0.00
658.31	65.54
658.45	25.75
658.60	58.51
658.74	14.04
658.88	51.49
659.03	0.00
659.17	23.41
659.31	51.49
659.46	334.70
659.60	444.70
659.74	496.19
659.89	416.62
660.03	273.84
660.17	264.48
660.32	124.05
660.46	170.86
660.60	110.01
660.74	44.47
660.89	46.81
661.03	35.11
661.17	4.68
661.32	63.19
661.46	2.34
661.60	23.41
661.74	23.41
661.89	35.11
662.03	21.06
662.17	67.88
662.31	4.68
662.46	25.75
662.60	81.92
662.74	44.47
662.88	11.70
663.03	2.34
663.17	0.00
663.31	42.13
663.45	86.60
663.60	0.00
663.74	0.00
663.88	42.13
664.02	18.72
664.17	11.70
664.31	46.81
664.45	56.17
664.59	0.00
664.73	0.00
664.88	0.00
665.02	72.56
665.16	51.49
665.30	46.81
665.44	21.06
665.59	30.43
665.73	28.09
665.87	72.56
666.01	30.43
666.15	53.83
666.29	7.02
666.44	0.00
666.58	74.90
666.72	18.72
666.86	18.72
667.00	154.48
667.14	166.18
667.28	131.07
667.43	425.98
667.57	685.78
667.71	784.08
667.85	674.07
667.99	482.15
668.13	327.68
668.27	238.73
668.41	117.03
668.56	28.09
668.70	100.64
668.84	51.49
668.98	65.54
669.12	4.68
669.26	11.70
669.40	70.22
669.54	4.68
669.68	58.51
669.82	23.41
669.96	25.75
670.10	0.00
670.25	32.77
670.39	37.45
670.53	0.00
670.67	14.04
670.81	53.83
670.95	37.45
671.09	100.64
671.23	224.69
671.37	379.17
671.51	514.92
671.65	456.40
671.79	451.72
671.93	255.12
672.07	177.88
672.21	93.62
672.35	117.03
672.49	107.66
672.63	42.13
672.77	51.49
672.91	0.00
673.05	39.79
673.19	63.19
673.33	25.75
673.47	86.60
673.61	4.68
673.75	60.85
673.89	79.58
674.03	4.68
674.17	72.56
674.31	37.45
674.45	30.43
674.59	0.00
674.73	37.45
674.87	49.15
675.01	9.36
675.15	30.43
675.29	74.90
675.43	56.17
675.56	95.96
675.70	28.09
675.84	9.36
675.98	21.06
676.12	35.11
676.26	16.38
676.40	77.24
676.54	63.19
676.68	91.28
676.82	28.09
676.96	30.43
677.10	7.02
677.23	0.00
677.37	0.00
677.51	46.81
677.65	58.51
677.79	0.00
677.93	60.85
678.07	28.09
678.21	0.00
678.34	0.00
678.48	0.00
678.62	28.09
678.76	32.77
678.90	2.34
679.04	44.47
679.18	37.45
679.31	56.17
679.45	23.41
679.59	63.19
679.73	0.00
679.87	11.70
680.00	46.81
680.14	0.00
680.28	53.83
680.42	77.24
680.56	79.58
680.70	46.81
680.83	4.68
680.97	18.72
681.11	16.38
681.25	91.28
681.39	65.54
681.52	39.79
681.66	74.90
681.80	9.36
681.94	18.72
682.07	95.96
682.21	79.58
682.35	81.92
682.49	32.77
682.62	0.00
682.76	49.15
682.90	51.49
683.04	56.17
683.17	65.54
683.31	4.68
683.45	44.47
683.59	2.34
683.72	35.11
683.86	168.52
684.00	0.00
684.13	0.00
684.27	30.43
684.41	56.17
684.55	2.34
684.68	11.70
684.82	35.11
684.96	81.92
685.09	60.85
685.23	0.00
685.37	74.90
685.50	102.98
685.64	0.00
685.78	110.01
685.91	58.51
686.05	0.00
686.19	67.88
686.32	56.17
686.46	51.49
686.60	60.85
686.73	9.36
686.87	23.41
687.01	37.45
687.14	63.19
687.28	65.54
687.42	67.88
687.55	37.45
687.69	86.60
687.82	23.41
687.96	25.75
688.10	63.19
688.23	9.36
688.37	2.34
688.50	23.41
688.64	65.54
688.78	53.83
688.91	60.85
689.05	32.77
689.18	16.38
689.32	0.00
689.46	0.00
689.59	0.00
689.73	30.43
689.86	39.79
690.00	51.49
690.13	0.00
690.27	0.00
690.41	11.70
690.54	95.96
690.68	28.09
690.81	77.24
690.95	42.13
691.08	46.81
691.22	7.02
691.35	32.77
691.49	21.06
691.62	32.77
691.76	9.36
691.89	11.70
692.03	77.24
692.16	49.15
692.30	14.04
692.43	39.79
692.57	138.09
692.70	264.48
692.84	404.91
692.97	341.72
693.11	170.86
693.24	156.82
693.38	124.05
693.51	70.22
693.65	53.83
693.78	65.54
693.92	84.26
694.05	28.09
694.19	21.06
694.32	35.11
694.45	23.41
694.59	44.47
694.72	32.77
694.86	0.00
694.99	72.56
695.13	39.79
695.26	44.47
695.39	117.03
695.53	35.11
695.66	72.56
695.80	23.41
695.93	9.36
696.07	0.00
696.20	18.72
696.33	79.58
696.47	11.70
696.60	30.43
696.73	72.56
696.87	72.56
697.00	110.01
697.14	63.19
697.27	56.17
697.40	0.00
697.54	0.00
697.67	63.19
697.80	63.19
697.94	0.00
698.07	25.75
698.21	81.92
698.34	56.17
698.47	9.36
698.61	56.17
698.74	0.00
698.87	70.22
699.01	4.68
699.14	0.00
699.27	0.00
699.40	44.47
699.54	32.77
699.67	77.24
699.80	49.15
699.94	46.81
700.07	0.00
700.20	0.00
700.34	42.13
700.47	74.90
700.60	81.92
700.73	0.00
700.87	93.62
701.00	18.72
701.13	42.13
701.26	95.96
701.40	60.85
701.53	79.58
701.66	42.13
701.79	18.72
701.93	18.72
702.06	25.75
702.19	28.09
702.32	98.30
702.46	138.09
702.59	37.45
702.72	100.64
702.85	210.65
702.99	456.40
703.12	540.66
703.25	709.18
703.38	692.80
703.51	489.17
703.65	388.53
703.78	266.82
703.91	131.07
704.04	91.28
704.17	138.09
704.31	81.92
704.44	114.69
704.57	88.94
704.70	112.35
704.83	79.58
704.96	28.09
705.10	95.96
705.23	37.45
>>>>>End Processed Spectral Data<<<<<
