SpectraSuite Data File
++++++++++++++++++++++++++++++++++++
Date: Fri Oct 04 12:13:40 GMT-05:00 2013
User: price-jones
Dark Spectrum Present: No
Reference Spectrum Present: No
Number of Sampled Component Spectra: 1
Spectrometers: USB2+H05261
Integration Time (usec): 10000 (USB2+H05261)
Spectra Averaged: 1 (USB2+H05261)
Boxcar Smoothing: 0 (USB2+H05261)
Correct for Electrical Dark: No (USB2+H05261)
Strobe/Lamp Enabled: No (USB2+H05261)
Correct for Detector Non-linearity: No (USB2+H05261)
Correct for Stray Light: No (USB2+H05261)
Number of Pixels in Processed Spectrum: 2048
>>>>>Begin Processed Spectral Data<<<<<
365.73	2.34
365.92	2.34
366.12	2.34
366.32	0.00
366.52	0.00
366.72	0.00
366.91	0.00
367.11	0.00
367.31	0.00
367.51	0.00
367.70	0.00
367.90	0.00
368.10	0.00
368.30	0.00
368.49	0.00
368.69	0.00
368.89	0.00
369.09	0.00
369.28	0.00
369.48	0.00
369.68	0.00
369.87	0.00
370.07	0.00
370.27	0.00
370.47	0.00
370.66	0.00
370.86	0.00
371.06	0.00
371.25	0.00
371.45	0.00
371.65	0.00
371.84	23.41
372.04	9.36
372.24	18.72
372.44	21.06
372.63	21.06
372.83	81.92
373.03	0.00
373.22	53.83
373.42	11.70
373.62	46.81
373.81	28.09
374.01	0.00
374.21	30.43
374.40	42.13
374.60	0.00
374.79	0.00
374.99	2.34
375.19	58.51
375.38	72.56
375.58	51.49
375.78	53.83
375.97	0.00
376.17	88.94
376.37	7.02
376.56	23.41
376.76	0.00
376.95	9.36
377.15	46.81
377.35	58.51
377.54	53.83
377.74	42.13
377.93	21.06
378.13	84.26
378.33	9.36
378.52	4.68
378.72	51.49
378.91	32.77
379.11	0.00
379.31	32.77
379.50	0.00
379.70	0.00
379.89	0.00
380.09	0.00
380.28	0.00
380.48	0.00
380.68	0.00
380.87	67.88
381.07	11.70
381.26	32.77
381.46	9.36
381.65	79.58
381.85	0.00
382.04	0.00
382.24	0.00
382.43	0.00
382.63	39.79
382.83	0.00
383.02	93.62
383.22	79.58
383.41	70.22
383.61	42.13
383.80	0.00
384.00	39.79
384.19	42.13
384.39	0.00
384.58	23.41
384.78	39.79
384.97	37.45
385.17	91.28
385.36	0.00
385.56	23.41
385.75	2.34
385.95	0.00
386.14	37.45
386.34	0.00
386.53	0.00
386.72	25.75
386.92	77.24
387.11	30.43
387.31	0.00
387.50	25.75
387.70	77.24
387.89	9.36
388.09	30.43
388.28	9.36
388.48	23.41
388.67	0.00
388.86	0.00
389.06	70.22
389.25	0.00
389.45	46.81
389.64	0.00
389.84	4.68
390.03	49.15
390.22	0.00
390.42	28.09
390.61	0.00
390.81	63.19
391.00	18.72
391.19	0.00
391.39	0.00
391.58	0.00
391.78	56.17
391.97	18.72
392.16	51.49
392.36	0.00
392.55	42.13
392.75	39.79
392.94	67.88
393.13	16.38
393.33	105.32
393.52	18.72
393.71	0.00
393.91	77.24
394.10	32.77
394.29	0.00
394.49	30.43
394.68	28.09
394.88	51.49
395.07	0.00
395.26	72.56
395.46	100.64
395.65	7.02
395.84	28.09
396.04	49.15
396.23	65.54
396.42	58.51
396.62	0.00
396.81	44.47
397.00	67.88
397.19	42.13
397.39	37.45
397.58	30.43
397.77	63.19
397.97	0.00
398.16	44.47
398.35	79.58
398.55	53.83
398.74	25.75
398.93	0.00
399.12	56.17
399.32	0.00
399.51	44.47
399.70	37.45
399.90	21.06
400.09	56.17
400.28	100.64
400.47	9.36
400.67	9.36
400.86	0.00
401.05	95.96
401.24	0.00
401.44	107.66
401.63	25.75
401.82	2.34
402.01	39.79
402.21	28.09
402.40	51.49
402.59	51.49
402.78	77.24
402.97	18.72
403.17	56.17
403.36	18.72
403.55	11.70
403.74	14.04
403.93	42.13
404.13	44.47
404.32	4.68
404.51	30.43
404.70	0.00
404.89	100.64
405.09	56.17
405.28	46.81
405.47	25.75
405.66	0.00
405.85	16.38
406.05	0.00
406.24	18.72
406.43	0.00
406.62	32.77
406.81	81.92
407.00	39.79
407.20	49.15
407.39	23.41
407.58	23.41
407.77	46.81
407.96	0.00
408.15	14.04
408.34	9.36
408.54	28.09
408.73	67.88
408.92	4.68
409.11	11.70
409.30	18.72
409.49	2.34
409.68	0.00
409.87	28.09
410.07	0.00
410.26	11.70
410.45	44.47
410.64	42.13
410.83	0.00
411.02	0.00
411.21	37.45
411.40	4.68
411.59	0.00
411.78	32.77
411.98	44.47
412.17	16.38
412.36	91.28
412.55	79.58
412.74	79.58
412.93	39.79
413.12	67.88
413.31	44.47
413.50	11.70
413.69	28.09
413.88	0.00
414.07	95.96
414.26	44.47
414.45	91.28
414.64	14.04
414.83	16.38
415.02	35.11
415.22	35.11
415.41	0.00
415.60	0.00
415.79	0.00
415.98	58.51
416.17	63.19
416.36	37.45
416.55	0.00
416.74	49.15
416.93	9.36
417.12	0.00
417.31	0.00
417.50	105.32
417.69	152.13
417.88	32.77
418.07	88.94
418.26	28.09
418.45	18.72
418.64	0.00
418.83	58.51
419.02	25.75
419.21	37.45
419.39	18.72
419.58	70.22
419.77	18.72
419.96	49.15
420.15	51.49
420.34	35.11
420.53	74.90
420.72	0.00
420.91	0.00
421.10	46.81
421.29	77.24
421.48	30.43
421.67	16.38
421.86	0.00
422.05	70.22
422.24	35.11
422.43	21.06
422.61	0.00
422.80	35.11
422.99	114.69
423.18	67.88
423.37	42.13
423.56	18.72
423.75	72.56
423.94	25.75
424.13	0.00
424.32	35.11
424.50	0.00
424.69	0.00
424.88	30.43
425.07	2.34
425.26	67.88
425.45	84.26
425.64	0.00
425.83	53.83
426.01	9.36
426.20	11.70
426.39	0.00
426.58	9.36
426.77	44.47
426.96	51.49
427.15	79.58
427.33	42.13
427.52	79.58
427.71	135.75
427.90	0.00
428.09	23.41
428.28	23.41
428.46	74.90
428.65	70.22
428.84	0.00
429.03	81.92
429.22	9.36
429.40	0.00
429.59	58.51
429.78	23.41
429.97	16.38
430.16	32.77
430.34	18.72
430.53	77.24
430.72	63.19
430.91	30.43
431.10	9.36
431.28	23.41
431.47	30.43
431.66	9.36
431.85	53.83
432.03	2.34
432.22	2.34
432.41	4.68
432.60	79.58
432.79	51.49
432.97	51.49
433.16	49.15
433.35	63.19
433.54	44.47
433.72	23.41
433.91	56.17
434.10	81.92
434.28	105.32
434.47	49.15
434.66	0.00
434.85	46.81
435.03	67.88
435.22	44.47
435.41	14.04
435.59	23.41
435.78	32.77
435.97	67.88
436.16	58.51
436.34	72.56
436.53	18.72
436.72	46.81
436.90	0.00
437.09	14.04
437.28	58.51
437.46	49.15
437.65	21.06
437.84	23.41
438.02	74.90
438.21	60.85
438.40	46.81
438.58	0.00
438.77	0.00
438.96	21.06
439.14	23.41
439.33	58.51
439.52	145.11
439.70	44.47
439.89	77.24
440.08	53.83
440.26	51.49
440.45	23.41
440.63	0.00
440.82	21.06
441.01	0.00
441.19	88.94
441.38	100.64
441.57	84.26
441.75	100.64
441.94	166.18
442.12	51.49
442.31	0.00
442.50	77.24
442.68	149.79
442.87	7.02
443.05	37.45
443.24	121.71
443.43	93.62
443.61	74.90
443.80	107.66
443.98	23.41
444.17	58.51
444.35	28.09
444.54	23.41
444.73	67.88
444.91	25.75
445.10	42.13
445.28	79.58
445.47	49.15
445.65	0.00
445.84	21.06
446.02	84.26
446.21	32.77
446.39	112.35
446.58	7.02
446.77	79.58
446.95	23.41
447.14	0.00
447.32	25.75
447.51	93.62
447.69	30.43
447.88	25.75
448.06	32.77
448.25	28.09
448.43	128.73
448.62	166.18
448.80	56.17
448.99	63.19
449.17	91.28
449.36	114.69
449.54	51.49
449.73	70.22
449.91	124.05
450.10	67.88
450.28	28.09
450.46	67.88
450.65	79.58
450.83	67.88
451.02	0.00
451.20	0.00
451.39	105.32
451.57	44.47
451.76	131.07
451.94	0.00
452.13	91.28
452.31	42.13
452.49	67.88
452.68	21.06
452.86	86.60
453.05	63.19
453.23	98.30
453.42	46.81
453.60	77.24
453.78	79.58
453.97	63.19
454.15	93.62
454.34	14.04
454.52	72.56
454.70	25.75
454.89	81.92
455.07	60.85
455.26	88.94
455.44	51.49
455.62	39.79
455.81	23.41
455.99	100.64
456.17	37.45
456.36	53.83
456.54	37.45
456.73	51.49
456.91	93.62
457.09	42.13
457.28	67.88
457.46	79.58
457.64	98.30
457.83	56.17
458.01	4.68
458.19	63.19
458.38	0.00
458.56	0.00
458.74	98.30
458.93	60.85
459.11	42.13
459.29	30.43
459.48	30.43
459.66	0.00
459.84	107.66
460.03	93.62
460.21	35.11
460.39	105.32
460.57	63.19
460.76	42.13
460.94	74.90
461.12	9.36
461.31	98.30
461.49	39.79
461.67	23.41
461.85	95.96
462.04	56.17
462.22	70.22
462.40	42.13
462.59	37.45
462.77	39.79
462.95	21.06
463.13	9.36
463.32	74.90
463.50	44.47
463.68	16.38
463.86	32.77
464.05	0.00
464.23	100.64
464.41	4.68
464.59	21.06
464.78	102.98
464.96	102.98
465.14	21.06
465.32	42.13
465.50	21.06
465.69	51.49
465.87	70.22
466.05	51.49
466.23	14.04
466.41	72.56
466.60	98.30
466.78	37.45
466.96	53.83
467.14	107.66
467.32	32.77
467.51	28.09
467.69	0.00
467.87	30.43
468.05	0.00
468.23	51.49
468.41	42.13
468.60	119.37
468.78	39.79
468.96	49.15
469.14	88.94
469.32	39.79
469.50	100.64
469.69	11.70
469.87	81.92
470.05	58.51
470.23	70.22
470.41	112.35
470.59	14.04
470.77	98.30
470.95	91.28
471.14	35.11
471.32	7.02
471.50	4.68
471.68	58.51
471.86	30.43
472.04	77.24
472.22	49.15
472.40	53.83
472.58	51.49
472.77	72.56
472.95	93.62
473.13	88.94
473.31	32.77
473.49	32.77
473.67	18.72
473.85	0.00
474.03	107.66
474.21	121.71
474.39	60.85
474.57	93.62
474.75	100.64
474.93	107.66
475.12	39.79
475.30	117.03
475.48	63.19
475.66	0.00
475.84	46.81
476.02	72.56
476.20	65.54
476.38	39.79
476.56	105.32
476.74	28.09
476.92	4.68
477.10	74.90
477.28	63.19
477.46	84.26
477.64	25.75
477.82	58.51
478.00	46.81
478.18	28.09
478.36	32.77
478.54	0.00
478.72	39.79
478.90	51.49
479.08	70.22
479.26	65.54
479.44	77.24
479.62	88.94
479.80	23.41
479.98	42.13
480.16	128.73
480.34	84.26
480.52	0.00
480.70	67.88
480.88	39.79
481.06	42.13
481.24	88.94
481.41	65.54
481.59	65.54
481.77	88.94
481.95	42.13
482.13	110.01
482.31	35.11
482.49	91.28
482.67	0.00
482.85	110.01
483.03	74.90
483.21	53.83
483.39	53.83
483.57	95.96
483.74	114.69
483.92	65.54
484.10	25.75
484.28	28.09
484.46	135.75
484.64	65.54
484.82	107.66
485.00	77.24
485.18	63.19
485.35	100.64
485.53	84.26
485.71	37.45
485.89	25.75
486.07	21.06
486.25	53.83
486.43	79.58
486.61	86.60
486.78	18.72
486.96	56.17
487.14	28.09
487.32	35.11
487.50	72.56
487.68	32.77
487.85	77.24
488.03	84.26
488.21	112.35
488.39	67.88
488.57	56.17
488.75	60.85
488.92	37.45
489.10	91.28
489.28	152.13
489.46	110.01
489.64	37.45
489.81	63.19
489.99	102.98
490.17	70.22
490.35	28.09
490.53	100.64
490.70	91.28
490.88	30.43
491.06	51.49
491.24	32.77
491.41	51.49
491.59	35.11
491.77	35.11
491.95	58.51
492.13	70.22
492.30	102.98
492.48	102.98
492.66	14.04
492.84	65.54
493.01	77.24
493.19	46.81
493.37	67.88
493.54	49.15
493.72	53.83
493.90	2.34
494.08	133.41
494.25	58.51
494.43	0.00
494.61	91.28
494.79	79.58
494.96	91.28
495.14	124.05
495.32	53.83
495.49	39.79
495.67	88.94
495.85	44.47
496.02	51.49
496.20	117.03
496.38	81.92
496.55	49.15
496.73	77.24
496.91	81.92
497.09	74.90
497.26	25.75
497.44	67.88
497.62	65.54
497.79	77.24
497.97	100.64
498.14	72.56
498.32	74.90
498.50	56.17
498.67	84.26
498.85	88.94
499.03	65.54
499.20	51.49
499.38	128.73
499.56	74.90
499.73	112.35
499.91	105.32
500.08	42.13
500.26	46.81
500.44	100.64
500.61	37.45
500.79	44.47
500.97	93.62
501.14	140.43
501.32	9.36
501.49	126.39
501.67	72.56
501.84	9.36
502.02	16.38
502.20	79.58
502.37	30.43
502.55	49.15
502.72	81.92
502.90	28.09
503.07	25.75
503.25	56.17
503.43	131.07
503.60	88.94
503.78	107.66
503.95	67.88
504.13	88.94
504.30	114.69
504.48	126.39
504.65	67.88
504.83	84.26
505.01	107.66
505.18	79.58
505.36	72.56
505.53	119.37
505.71	175.54
505.88	100.64
506.06	93.62
506.23	147.45
506.41	4.68
506.58	128.73
506.76	100.64
506.93	37.45
507.11	140.43
507.28	46.81
507.46	65.54
507.63	74.90
507.81	79.58
507.98	35.11
508.16	88.94
508.33	145.11
508.50	93.62
508.68	114.69
508.85	63.19
509.03	138.09
509.20	117.03
509.38	9.36
509.55	107.66
509.73	79.58
509.90	119.37
510.08	67.88
510.25	4.68
510.42	142.77
510.60	35.11
510.77	88.94
510.95	98.30
511.12	79.58
511.30	28.09
511.47	70.22
511.64	65.54
511.82	128.73
511.99	100.64
512.17	37.45
512.34	67.88
512.51	28.09
512.69	30.43
512.86	112.35
513.04	79.58
513.21	88.94
513.38	102.98
513.56	23.41
513.73	46.81
513.90	25.75
514.08	56.17
514.25	110.01
514.43	81.92
514.60	110.01
514.77	135.75
514.95	42.13
515.12	91.28
515.29	121.71
515.47	86.60
515.64	161.50
515.81	128.73
515.99	117.03
516.16	91.28
516.33	81.92
516.51	67.88
516.68	86.60
516.85	77.24
517.03	100.64
517.20	86.60
517.37	91.28
517.54	35.11
517.72	110.01
517.89	79.58
518.06	135.75
518.24	72.56
518.41	126.39
518.58	154.48
518.75	114.69
518.93	117.03
519.10	46.81
519.27	58.51
519.45	110.01
519.62	110.01
519.79	86.60
519.96	53.83
520.14	14.04
520.31	100.64
520.48	114.69
520.65	30.43
520.83	81.92
521.00	79.58
521.17	121.71
521.34	112.35
521.52	117.03
521.69	86.60
521.86	124.05
522.03	53.83
522.20	131.07
522.38	70.22
522.55	98.30
522.72	138.09
522.89	86.60
523.07	0.00
523.24	110.01
523.41	105.32
523.58	81.92
523.75	86.60
523.92	70.22
524.10	70.22
524.27	9.36
524.44	77.24
524.61	25.75
524.78	159.16
524.96	177.88
525.13	126.39
525.30	58.51
525.47	46.81
525.64	124.05
525.81	86.60
525.98	74.90
526.16	98.30
526.33	147.45
526.50	72.56
526.67	16.38
526.84	107.66
527.01	95.96
527.18	86.60
527.36	49.15
527.53	112.35
527.70	119.37
527.87	81.92
528.04	95.96
528.21	9.36
528.38	84.26
528.55	91.28
528.72	117.03
528.89	42.13
529.07	124.05
529.24	88.94
529.41	7.02
529.58	84.26
529.75	91.28
529.92	112.35
530.09	91.28
530.26	63.19
530.43	84.26
530.60	100.64
530.77	88.94
530.94	42.13
531.11	42.13
531.28	102.98
531.46	126.39
531.63	74.90
531.80	81.92
531.97	114.69
532.14	74.90
532.31	46.81
532.48	65.54
532.65	114.69
532.82	72.56
532.99	102.98
533.16	107.66
533.33	114.69
533.50	126.39
533.67	0.00
533.84	25.75
534.01	39.79
534.18	100.64
534.35	84.26
534.52	95.96
534.69	30.43
534.86	110.01
535.03	95.96
535.20	93.62
535.37	135.75
535.54	46.81
535.71	81.92
535.88	53.83
536.05	70.22
536.22	74.90
536.38	65.54
536.55	84.26
536.72	70.22
536.89	56.17
537.06	117.03
537.23	105.32
537.40	105.32
537.57	65.54
537.74	53.83
537.91	79.58
538.08	110.01
538.25	117.03
538.42	117.03
538.59	37.45
538.75	84.26
538.92	70.22
539.09	42.13
539.26	100.64
539.43	135.75
539.60	102.98
539.77	81.92
539.94	56.17
540.11	37.45
540.28	46.81
540.44	42.13
540.61	114.69
540.78	95.96
540.95	88.94
541.12	58.51
541.29	131.07
541.46	72.56
541.62	124.05
541.79	60.85
541.96	95.96
542.13	46.81
542.30	56.17
542.47	11.70
542.63	189.58
542.80	79.58
542.97	65.54
543.14	95.96
543.31	81.92
543.48	121.71
543.64	70.22
543.81	49.15
543.98	86.60
544.15	117.03
544.32	23.41
544.48	25.75
544.65	100.64
544.82	42.13
544.99	105.32
545.16	95.96
545.32	35.11
545.49	93.62
545.66	42.13
545.83	11.70
546.00	46.81
546.16	46.81
546.33	114.69
546.50	60.85
546.67	70.22
546.83	98.30
547.00	91.28
547.17	105.32
547.34	131.07
547.50	42.13
547.67	135.75
547.84	42.13
548.00	117.03
548.17	53.83
548.34	121.71
548.51	88.94
548.67	70.22
548.84	77.24
549.01	124.05
549.18	138.09
549.34	63.19
549.51	67.88
549.68	58.51
549.84	133.41
550.01	49.15
550.18	128.73
550.34	114.69
550.51	74.90
550.68	63.19
550.84	100.64
551.01	67.88
551.18	88.94
551.34	56.17
551.51	32.77
551.68	102.98
551.84	152.13
552.01	79.58
552.18	105.32
552.34	138.09
552.51	37.45
552.68	70.22
552.84	65.54
553.01	67.88
553.18	102.98
553.34	86.60
553.51	21.06
553.67	91.28
553.84	81.92
554.01	72.56
554.17	107.66
554.34	39.79
554.51	114.69
554.67	81.92
554.84	133.41
555.00	65.54
555.17	53.83
555.33	112.35
555.50	21.06
555.67	53.83
555.83	39.79
556.00	79.58
556.16	126.39
556.33	79.58
556.50	114.69
556.66	9.36
556.83	0.00
556.99	105.32
557.16	114.69
557.32	63.19
557.49	81.92
557.65	102.98
557.82	44.47
557.98	95.96
558.15	142.77
558.32	63.19
558.48	39.79
558.65	65.54
558.81	65.54
558.98	119.37
559.14	93.62
559.31	93.62
559.47	72.56
559.64	25.75
559.80	114.69
559.97	25.75
560.13	81.92
560.30	128.73
560.46	51.49
560.63	91.28
560.79	98.30
560.96	100.64
561.12	32.77
561.29	63.19
561.45	74.90
561.61	86.60
561.78	102.98
561.94	65.54
562.11	95.96
562.27	63.19
562.44	14.04
562.60	102.98
562.77	95.96
562.93	84.26
563.10	70.22
563.26	81.92
563.42	95.96
563.59	79.58
563.75	138.09
563.92	86.60
564.08	95.96
564.24	51.49
564.41	70.22
564.57	49.15
564.74	112.35
564.90	133.41
565.07	72.56
565.23	42.13
565.39	91.28
565.56	60.85
565.72	124.05
565.88	30.43
566.05	93.62
566.21	35.11
566.38	117.03
566.54	88.94
566.70	0.00
566.87	131.07
567.03	79.58
567.19	110.01
567.36	74.90
567.52	49.15
567.68	110.01
567.85	91.28
568.01	51.49
568.17	112.35
568.34	46.81
568.50	53.83
568.66	77.24
568.83	56.17
568.99	49.15
569.15	49.15
569.32	56.17
569.48	70.22
569.64	70.22
569.81	70.22
569.97	56.17
570.13	39.79
570.30	44.47
570.46	35.11
570.62	114.69
570.78	53.83
570.95	16.38
571.11	23.41
571.27	23.41
571.43	128.73
571.60	18.72
571.76	93.62
571.92	126.39
572.09	67.88
572.25	142.77
572.41	51.49
572.57	100.64
572.74	135.75
572.90	93.62
573.06	39.79
573.22	102.98
573.38	100.64
573.55	93.62
573.71	84.26
573.87	100.64
574.03	102.98
574.20	107.66
574.36	65.54
574.52	42.13
574.68	18.72
574.84	126.39
575.01	107.66
575.17	121.71
575.33	91.28
575.49	95.96
575.65	124.05
575.82	67.88
575.98	58.51
576.14	86.60
576.30	0.00
576.46	161.50
576.62	60.85
576.79	138.09
576.95	135.75
577.11	119.37
577.27	166.18
577.43	114.69
577.59	63.19
577.75	67.88
577.92	140.43
578.08	65.54
578.24	18.72
578.40	21.06
578.56	63.19
578.72	23.41
578.88	105.32
579.04	32.77
579.21	65.54
579.37	2.34
579.53	173.20
579.69	70.22
579.85	37.45
580.01	74.90
580.17	70.22
580.33	119.37
580.49	126.39
580.65	110.01
580.82	98.30
580.98	70.22
581.14	110.01
581.30	105.32
581.46	84.26
581.62	44.47
581.78	67.88
581.94	128.73
582.10	74.90
582.26	32.77
582.42	35.11
582.58	65.54
582.74	74.90
582.90	105.32
583.06	77.24
583.22	30.43
583.38	79.58
583.54	51.49
583.70	79.58
583.86	117.03
584.02	107.66
584.18	100.64
584.34	67.88
584.50	63.19
584.66	88.94
584.82	135.75
584.98	107.66
585.14	65.54
585.30	32.77
585.46	86.60
585.62	84.26
585.78	49.15
585.94	65.54
586.10	88.94
586.26	18.72
586.42	126.39
586.58	74.90
586.74	91.28
586.90	84.26
587.06	39.79
587.22	74.90
587.38	112.35
587.54	81.92
587.70	72.56
587.86	147.45
588.02	74.90
588.18	100.64
588.34	58.51
588.49	21.06
588.65	74.90
588.81	112.35
588.97	93.62
589.13	53.83
589.29	74.90
589.45	77.24
589.61	44.47
589.77	77.24
589.93	23.41
590.08	56.17
590.24	25.75
590.40	44.47
590.56	70.22
590.72	0.00
590.88	53.83
591.04	65.54
591.20	135.75
591.35	18.72
591.51	44.47
591.67	86.60
591.83	37.45
591.99	42.13
592.15	44.47
592.31	77.24
592.46	102.98
592.62	133.41
592.78	51.49
592.94	49.15
593.10	63.19
593.26	14.04
593.41	98.30
593.57	32.77
593.73	32.77
593.89	7.02
594.05	53.83
594.20	112.35
594.36	23.41
594.52	93.62
594.68	72.56
594.84	46.81
594.99	23.41
595.15	63.19
595.31	63.19
595.47	14.04
595.62	65.54
595.78	58.51
595.94	86.60
596.10	100.64
596.25	67.88
596.41	77.24
596.57	32.77
596.73	98.30
596.88	9.36
597.04	35.11
597.20	58.51
597.36	65.54
597.51	74.90
597.67	70.22
597.83	0.00
597.99	60.85
598.14	56.17
598.30	88.94
598.46	16.38
598.61	46.81
598.77	102.98
598.93	28.09
599.09	39.79
599.24	102.98
599.40	0.00
599.56	93.62
599.71	39.79
599.87	67.88
600.03	84.26
600.18	51.49
600.34	25.75
600.50	16.38
600.65	65.54
600.81	4.68
600.97	0.00
601.12	105.32
601.28	70.22
601.44	105.32
601.59	65.54
601.75	74.90
601.91	112.35
602.06	88.94
602.22	53.83
602.37	81.92
602.53	60.85
602.69	107.66
602.84	65.54
603.00	16.38
603.16	7.02
603.31	39.79
603.47	86.60
603.62	2.34
603.78	0.00
603.94	98.30
604.09	0.00
604.25	91.28
604.40	32.77
604.56	42.13
604.71	77.24
604.87	25.75
605.03	60.85
605.18	98.30
605.34	79.58
605.49	0.00
605.65	65.54
605.80	74.90
605.96	70.22
606.12	84.26
606.27	117.03
606.43	11.70
606.58	119.37
606.74	121.71
606.89	70.22
607.05	11.70
607.20	86.60
607.36	65.54
607.51	60.85
607.67	56.17
607.82	60.85
607.98	110.01
608.13	117.03
608.29	58.51
608.44	67.88
608.60	152.13
608.75	110.01
608.91	72.56
609.06	117.03
609.22	107.66
609.37	67.88
609.53	126.39
609.68	63.19
609.84	63.19
609.99	110.01
610.15	63.19
610.30	79.58
610.46	2.34
610.61	46.81
610.76	114.69
610.92	0.00
611.07	58.51
611.23	72.56
611.38	79.58
611.54	112.35
611.69	49.15
611.84	86.60
612.00	0.00
612.15	77.24
612.31	105.32
612.46	49.15
612.62	152.13
612.77	110.01
612.92	46.81
613.08	30.43
613.23	105.32
613.39	79.58
613.54	81.92
613.69	163.84
613.85	102.98
614.00	9.36
614.15	53.83
614.31	105.32
614.46	44.47
614.62	74.90
614.77	84.26
614.92	63.19
615.08	46.81
615.23	93.62
615.38	32.77
615.54	16.38
615.69	42.13
615.84	46.81
616.00	16.38
616.15	79.58
616.30	53.83
616.46	37.45
616.61	32.77
616.76	110.01
616.92	56.17
617.07	93.62
617.22	126.39
617.37	93.62
617.53	60.85
617.68	128.73
617.83	21.06
617.99	88.94
618.14	58.51
618.29	46.81
618.45	93.62
618.60	58.51
618.75	11.70
618.90	74.90
619.06	42.13
619.21	70.22
619.36	124.05
619.51	70.22
619.67	58.51
619.82	98.30
619.97	65.54
620.12	112.35
620.28	46.81
620.43	0.00
620.58	126.39
620.73	42.13
620.89	65.54
621.04	0.00
621.19	81.92
621.34	65.54
621.49	86.60
621.65	21.06
621.80	11.70
621.95	63.19
622.10	77.24
622.25	65.54
622.41	86.60
622.56	65.54
622.71	18.72
622.86	35.11
623.01	58.51
623.16	63.19
623.32	72.56
623.47	51.49
623.62	4.68
623.77	37.45
623.92	84.26
624.07	140.43
624.23	56.17
624.38	30.43
624.53	117.03
624.68	44.47
624.83	65.54
624.98	39.79
625.13	156.82
625.29	93.62
625.44	128.73
625.59	105.32
625.74	93.62
625.89	56.17
626.04	67.88
626.19	117.03
626.34	84.26
626.49	51.49
626.65	79.58
626.80	37.45
626.95	46.81
627.10	46.81
627.25	65.54
627.40	84.26
627.55	49.15
627.70	128.73
627.85	28.09
628.00	74.90
628.15	35.11
628.30	39.79
628.45	0.00
628.60	65.54
628.76	81.92
628.91	88.94
629.06	84.26
629.21	112.35
629.36	49.15
629.51	0.00
629.66	32.77
629.81	65.54
629.96	49.15
630.11	18.72
630.26	91.28
630.41	114.69
630.56	67.88
630.71	0.00
630.86	44.47
631.01	28.09
631.16	58.51
631.31	16.38
631.46	91.28
631.61	35.11
631.76	35.11
631.91	86.60
632.06	91.28
632.21	58.51
632.36	84.26
632.51	51.49
632.66	77.24
632.81	84.26
632.96	74.90
633.10	88.94
633.25	63.19
633.40	86.60
633.55	49.15
633.70	30.43
633.85	65.54
634.00	53.83
634.15	86.60
634.30	25.75
634.45	65.54
634.60	63.19
634.75	65.54
634.90	58.51
635.05	42.13
635.19	84.26
635.34	107.66
635.49	56.17
635.64	88.94
635.79	32.77
635.94	86.60
636.09	65.54
636.24	42.13
636.39	4.68
636.53	32.77
636.68	49.15
636.83	86.60
636.98	53.83
637.13	42.13
637.28	119.37
637.43	140.43
637.57	124.05
637.72	72.56
637.87	0.00
638.02	30.43
638.17	44.47
638.32	7.02
638.46	28.09
638.61	84.26
638.76	84.26
638.91	79.58
639.06	81.92
639.20	65.54
639.35	58.51
639.50	49.15
639.65	46.81
639.80	105.32
639.94	49.15
640.09	32.77
640.24	91.28
640.39	86.60
640.54	0.00
640.68	86.60
640.83	138.09
640.98	119.37
641.13	135.75
641.27	42.13
641.42	37.45
641.57	18.72
641.72	35.11
641.86	58.51
642.01	102.98
642.16	126.39
642.31	37.45
642.45	112.35
642.60	44.47
642.75	70.22
642.90	63.19
643.04	0.00
643.19	53.83
643.34	170.86
643.48	81.92
643.63	53.83
643.78	35.11
643.93	70.22
644.07	98.30
644.22	49.15
644.37	56.17
644.51	77.24
644.66	30.43
644.81	25.75
644.95	107.66
645.10	86.60
645.25	74.90
645.39	110.01
645.54	46.81
645.69	131.07
645.83	70.22
645.98	65.54
646.13	86.60
646.27	65.54
646.42	67.88
646.57	70.22
646.71	32.77
646.86	51.49
647.00	35.11
647.15	0.00
647.30	42.13
647.44	107.66
647.59	63.19
647.74	86.60
647.88	28.09
648.03	60.85
648.17	0.00
648.32	42.13
648.47	16.38
648.61	51.49
648.76	60.85
648.90	46.81
649.05	56.17
649.20	79.58
649.34	65.54
649.49	114.69
649.63	11.70
649.78	46.81
649.92	126.39
650.07	105.32
650.21	119.37
650.36	44.47
650.51	74.90
650.65	93.62
650.80	100.64
650.94	51.49
651.09	30.43
651.23	0.00
651.38	37.45
651.52	79.58
651.67	65.54
651.81	77.24
651.96	37.45
652.10	105.32
652.25	42.13
652.39	110.01
652.54	18.72
652.68	60.85
652.83	18.72
652.97	105.32
653.12	65.54
653.26	107.66
653.41	46.81
653.55	0.00
653.70	67.88
653.84	58.51
653.99	32.77
654.13	46.81
654.27	0.00
654.42	21.06
654.56	46.81
654.71	30.43
654.85	49.15
655.00	107.66
655.14	35.11
655.29	70.22
655.43	72.56
655.57	114.69
655.72	60.85
655.86	44.47
656.01	44.47
656.15	7.02
656.30	37.45
656.44	21.06
656.58	126.39
656.73	2.34
656.87	65.54
657.01	63.19
657.16	9.36
657.30	53.83
657.45	70.22
657.59	39.79
657.73	0.00
657.88	53.83
658.02	102.98
658.16	0.00
658.31	51.49
658.45	35.11
658.60	42.13
658.74	4.68
658.88	110.01
659.03	44.47
659.17	0.00
659.31	35.11
659.46	28.09
659.60	14.04
659.74	37.45
659.89	60.85
660.03	18.72
660.17	100.64
660.32	0.00
660.46	2.34
660.60	4.68
660.74	53.83
660.89	18.72
661.03	14.04
661.17	53.83
661.32	63.19
661.46	42.13
661.60	95.96
661.74	58.51
661.89	46.81
662.03	65.54
662.17	98.30
662.31	72.56
662.46	56.17
662.60	28.09
662.74	81.92
662.88	86.60
663.03	0.00
663.17	25.75
663.31	105.32
663.45	100.64
663.60	0.00
663.74	0.00
663.88	23.41
664.02	56.17
664.17	121.71
664.31	49.15
664.45	91.28
664.59	88.94
664.73	72.56
664.88	30.43
665.02	74.90
665.16	39.79
665.30	117.03
665.44	131.07
665.59	60.85
665.73	42.13
665.87	23.41
666.01	114.69
666.15	44.47
666.29	56.17
666.44	49.15
666.58	67.88
666.72	51.49
666.86	98.30
667.00	42.13
667.14	70.22
667.28	21.06
667.43	70.22
667.57	77.24
667.71	72.56
667.85	88.94
667.99	58.51
668.13	46.81
668.27	11.70
668.41	46.81
668.56	35.11
668.70	88.94
668.84	28.09
668.98	23.41
669.12	58.51
669.26	110.01
669.40	72.56
669.54	51.49
669.68	93.62
669.82	58.51
669.96	44.47
670.10	0.00
670.25	9.36
670.39	0.00
670.53	23.41
670.67	72.56
670.81	154.48
670.95	72.56
671.09	39.79
671.23	117.03
671.37	0.00
671.51	63.19
671.65	0.00
671.79	0.00
671.93	44.47
672.07	16.38
672.21	0.00
672.35	39.79
672.49	98.30
672.63	77.24
672.77	67.88
672.91	110.01
673.05	0.00
673.19	65.54
673.33	11.70
673.47	44.47
673.61	72.56
673.75	44.47
673.89	77.24
674.03	74.90
674.17	21.06
674.31	102.98
674.45	131.07
674.59	53.83
674.73	46.81
674.87	72.56
675.01	63.19
675.15	49.15
675.29	72.56
675.43	44.47
675.56	46.81
675.70	44.47
675.84	35.11
675.98	42.13
676.12	44.47
676.26	25.75
676.40	0.00
676.54	88.94
676.68	63.19
676.82	46.81
676.96	67.88
677.10	79.58
677.23	107.66
677.37	84.26
677.51	42.13
677.65	133.41
677.79	28.09
677.93	70.22
678.07	16.38
678.21	51.49
678.34	0.00
678.48	37.45
678.62	60.85
678.76	86.60
678.90	21.06
679.04	86.60
679.18	79.58
679.31	0.00
679.45	58.51
679.59	0.00
679.73	42.13
679.87	0.00
680.00	30.43
680.14	98.30
680.28	53.83
680.42	35.11
680.56	9.36
680.70	110.01
680.83	105.32
680.97	65.54
681.11	93.62
681.25	11.70
681.39	7.02
681.52	46.81
681.66	32.77
681.80	91.28
681.94	65.54
682.07	35.11
682.21	30.43
682.35	25.75
682.49	11.70
682.62	51.49
682.76	4.68
682.90	42.13
683.04	42.13
683.17	72.56
683.31	4.68
683.45	0.00
683.59	4.68
683.72	124.05
683.86	0.00
684.00	44.47
684.13	30.43
684.27	7.02
684.41	79.58
684.55	84.26
684.68	67.88
684.82	35.11
684.96	81.92
685.09	53.83
685.23	39.79
685.37	60.85
685.50	0.00
685.64	51.49
685.78	32.77
685.91	86.60
686.05	0.00
686.19	16.38
686.32	23.41
686.46	95.96
686.60	135.75
686.73	91.28
686.87	16.38
687.01	0.00
687.14	0.00
687.28	32.77
687.42	0.00
687.55	18.72
687.69	74.90
687.82	11.70
687.96	11.70
688.10	0.00
688.23	49.15
688.37	14.04
688.50	74.90
688.64	60.85
688.78	63.19
688.91	9.36
689.05	37.45
689.18	60.85
689.32	91.28
689.46	0.00
689.59	56.17
689.73	4.68
689.86	35.11
690.00	135.75
690.13	46.81
690.27	7.02
690.41	0.00
690.54	4.68
690.68	35.11
690.81	44.47
690.95	0.00
691.08	0.00
691.22	56.17
691.35	63.19
691.49	72.56
691.62	84.26
691.76	21.06
691.89	23.41
692.03	0.00
692.16	0.00
692.30	28.09
692.43	58.51
692.57	81.92
692.70	0.00
692.84	51.49
692.97	56.17
693.11	51.49
693.24	42.13
693.38	35.11
693.51	53.83
693.65	18.72
693.78	56.17
693.92	51.49
694.05	0.00
694.19	44.47
694.32	53.83
694.45	56.17
694.59	0.00
694.72	37.45
694.86	7.02
694.99	65.54
695.13	49.15
695.26	63.19
695.39	53.83
695.53	114.69
695.66	79.58
695.80	100.64
695.93	0.00
696.07	56.17
696.20	0.00
696.33	25.75
696.47	44.47
696.60	51.49
696.73	0.00
696.87	0.00
697.00	0.00
697.14	9.36
697.27	49.15
697.40	74.90
697.54	18.72
697.67	7.02
697.80	42.13
697.94	72.56
698.07	98.30
698.21	14.04
698.34	0.00
698.47	102.98
698.61	91.28
698.74	18.72
698.87	107.66
699.01	86.60
699.14	25.75
699.27	58.51
699.40	91.28
699.54	88.94
699.67	67.88
699.80	53.83
699.94	42.13
700.07	28.09
700.20	35.11
700.34	74.90
700.47	0.00
700.60	84.26
700.73	53.83
700.87	102.98
701.00	44.47
701.13	32.77
701.26	0.00
701.40	72.56
701.53	65.54
701.66	28.09
701.79	30.43
701.93	42.13
702.06	53.83
702.19	14.04
702.32	32.77
702.46	16.38
702.59	77.24
702.72	72.56
702.85	49.15
702.99	7.02
703.12	46.81
703.25	28.09
703.38	0.00
703.51	46.81
703.65	7.02
703.78	25.75
703.91	4.68
704.04	53.83
704.17	63.19
704.31	9.36
704.44	63.19
704.57	56.17
704.70	58.51
704.83	16.38
704.96	9.36
705.10	28.09
705.23	98.30
>>>>>End Processed Spectral Data<<<<<
