SpectraSuite Data File
++++++++++++++++++++++++++++++++++++
Date: Fri Oct 04 12:13:34 GMT-05:00 2013
User: price-jones
Dark Spectrum Present: No
Reference Spectrum Present: No
Number of Sampled Component Spectra: 1
Spectrometers: USB2+H05261
Integration Time (usec): 10000 (USB2+H05261)
Spectra Averaged: 1 (USB2+H05261)
Boxcar Smoothing: 0 (USB2+H05261)
Correct for Electrical Dark: No (USB2+H05261)
Strobe/Lamp Enabled: No (USB2+H05261)
Correct for Detector Non-linearity: No (USB2+H05261)
Correct for Stray Light: No (USB2+H05261)
Number of Pixels in Processed Spectrum: 2048
>>>>>Begin Processed Spectral Data<<<<<
365.73	28.09
365.92	28.09
366.12	28.09
366.32	0.00
366.52	0.00
366.72	0.00
366.91	0.00
367.11	0.00
367.31	0.00
367.51	0.00
367.70	0.00
367.90	0.00
368.10	0.00
368.30	0.00
368.49	0.00
368.69	0.00
368.89	0.00
369.09	0.00
369.28	0.00
369.48	0.00
369.68	0.00
369.87	0.00
370.07	0.00
370.27	0.00
370.47	0.00
370.66	0.00
370.86	0.00
371.06	0.00
371.25	0.00
371.45	0.00
371.65	0.00
371.84	0.00
372.04	14.04
372.24	0.00
372.44	0.00
372.63	14.04
372.83	0.00
373.03	0.00
373.22	0.00
373.42	32.77
373.62	65.54
373.81	0.00
374.01	49.15
374.21	21.06
374.40	14.04
374.60	0.00
374.79	49.15
374.99	2.34
375.19	11.70
375.38	86.60
375.58	28.09
375.78	49.15
375.97	44.47
376.17	9.36
376.37	49.15
376.56	51.49
376.76	91.28
376.95	9.36
377.15	14.04
377.35	30.43
377.54	32.77
377.74	74.90
377.93	84.26
378.13	35.11
378.33	53.83
378.52	0.00
378.72	0.00
378.91	0.00
379.11	102.98
379.31	23.41
379.50	18.72
379.70	11.70
379.89	0.00
380.09	32.77
380.28	0.00
380.48	35.11
380.68	51.49
380.87	0.00
381.07	79.58
381.26	7.02
381.46	18.72
381.65	51.49
381.85	30.43
382.04	35.11
382.24	0.00
382.43	2.34
382.63	0.00
382.83	0.00
383.02	49.15
383.22	93.62
383.41	0.00
383.61	0.00
383.80	18.72
384.00	105.32
384.19	0.00
384.39	0.00
384.58	65.54
384.78	88.94
384.97	14.04
385.17	0.00
385.36	4.68
385.56	9.36
385.75	39.79
385.95	0.00
386.14	23.41
386.34	28.09
386.53	0.00
386.72	32.77
386.92	46.81
387.11	0.00
387.31	0.00
387.50	60.85
387.70	0.00
387.89	9.36
388.09	42.13
388.28	70.22
388.48	102.98
388.67	9.36
388.86	0.00
389.06	0.00
389.25	0.00
389.45	0.00
389.64	25.75
389.84	0.00
390.03	0.00
390.22	0.00
390.42	60.85
390.61	39.79
390.81	25.75
391.00	16.38
391.19	28.09
391.39	30.43
391.58	0.00
391.78	0.00
391.97	105.32
392.16	51.49
392.36	35.11
392.55	28.09
392.75	11.70
392.94	0.00
393.13	32.77
393.33	0.00
393.52	18.72
393.71	32.77
393.91	0.00
394.10	18.72
394.29	53.83
394.49	25.75
394.68	67.88
394.88	91.28
395.07	65.54
395.26	46.81
395.46	42.13
395.65	14.04
395.84	39.79
396.04	0.00
396.23	51.49
396.42	0.00
396.62	0.00
396.81	28.09
397.00	9.36
397.19	0.00
397.39	81.92
397.58	0.00
397.77	35.11
397.97	0.00
398.16	21.06
398.35	91.28
398.55	56.17
398.74	93.62
398.93	88.94
399.12	51.49
399.32	81.92
399.51	39.79
399.70	72.56
399.90	14.04
400.09	63.19
400.28	25.75
400.47	93.62
400.67	58.51
400.86	18.72
401.05	114.69
401.24	9.36
401.44	4.68
401.63	21.06
401.82	81.92
402.01	51.49
402.21	0.00
402.40	28.09
402.59	0.00
402.78	30.43
402.97	0.00
403.17	14.04
403.36	49.15
403.55	0.00
403.74	0.00
403.93	0.00
404.13	81.92
404.32	32.77
404.51	18.72
404.70	9.36
404.89	67.88
405.09	63.19
405.28	77.24
405.47	28.09
405.66	16.38
405.85	51.49
406.05	32.77
406.24	35.11
406.43	39.79
406.62	117.03
406.81	98.30
407.00	16.38
407.20	35.11
407.39	0.00
407.58	35.11
407.77	2.34
407.96	7.02
408.15	23.41
408.34	67.88
408.54	65.54
408.73	25.75
408.92	56.17
409.11	86.60
409.30	84.26
409.49	0.00
409.68	0.00
409.87	14.04
410.07	81.92
410.26	0.00
410.45	0.00
410.64	72.56
410.83	58.51
411.02	77.24
411.21	23.41
411.40	23.41
411.59	0.00
411.78	21.06
411.98	21.06
412.17	0.00
412.36	0.00
412.55	51.49
412.74	58.51
412.93	72.56
413.12	46.81
413.31	39.79
413.50	2.34
413.69	53.83
413.88	14.04
414.07	9.36
414.26	56.17
414.45	98.30
414.64	9.36
414.83	60.85
415.02	23.41
415.22	53.83
415.41	39.79
415.60	42.13
415.79	30.43
415.98	9.36
416.17	37.45
416.36	91.28
416.55	25.75
416.74	0.00
416.93	25.75
417.12	65.54
417.31	53.83
417.50	21.06
417.69	79.58
417.88	49.15
418.07	30.43
418.26	51.49
418.45	7.02
418.64	72.56
418.83	0.00
419.02	77.24
419.21	65.54
419.39	81.92
419.58	56.17
419.77	16.38
419.96	0.00
420.15	60.85
420.34	46.81
420.53	0.00
420.72	37.45
420.91	32.77
421.10	58.51
421.29	44.47
421.48	28.09
421.67	0.00
421.86	65.54
422.05	49.15
422.24	56.17
422.43	51.49
422.61	65.54
422.80	53.83
422.99	100.64
423.18	46.81
423.37	0.00
423.56	25.75
423.75	7.02
423.94	32.77
424.13	9.36
424.32	21.06
424.50	9.36
424.69	49.15
424.88	16.38
425.07	0.00
425.26	49.15
425.45	100.64
425.64	88.94
425.83	23.41
426.01	65.54
426.20	0.00
426.39	30.43
426.58	51.49
426.77	0.00
426.96	0.00
427.15	0.00
427.33	77.24
427.52	11.70
427.71	0.00
427.90	0.00
428.09	72.56
428.28	46.81
428.46	7.02
428.65	56.17
428.84	44.47
429.03	0.00
429.22	56.17
429.40	0.00
429.59	44.47
429.78	14.04
429.97	42.13
430.16	21.06
430.34	0.00
430.53	18.72
430.72	51.49
430.91	4.68
431.10	11.70
431.28	28.09
431.47	56.17
431.66	67.88
431.85	35.11
432.03	35.11
432.22	14.04
432.41	11.70
432.60	7.02
432.79	58.51
432.97	37.45
433.16	65.54
433.35	9.36
433.54	7.02
433.72	53.83
433.91	67.88
434.10	25.75
434.28	44.47
434.47	74.90
434.66	70.22
434.85	42.13
435.03	0.00
435.22	77.24
435.41	30.43
435.59	56.17
435.78	70.22
435.97	0.00
436.16	7.02
436.34	84.26
436.53	39.79
436.72	0.00
436.90	23.41
437.09	84.26
437.28	49.15
437.46	53.83
437.65	46.81
437.84	107.66
438.02	28.09
438.21	100.64
438.40	32.77
438.58	124.05
438.77	79.58
438.96	107.66
439.14	63.19
439.33	30.43
439.52	77.24
439.70	42.13
439.89	70.22
440.08	100.64
440.26	28.09
440.45	35.11
440.63	93.62
440.82	11.70
441.01	39.79
441.19	72.56
441.38	114.69
441.57	4.68
441.75	28.09
441.94	35.11
442.12	128.73
442.31	74.90
442.50	32.77
442.68	23.41
442.87	44.47
443.05	39.79
443.24	35.11
443.43	18.72
443.61	131.07
443.80	42.13
443.98	88.94
444.17	51.49
444.35	32.77
444.54	37.45
444.73	0.00
444.91	42.13
445.10	81.92
445.28	44.47
445.47	30.43
445.65	112.35
445.84	49.15
446.02	95.96
446.21	100.64
446.39	53.83
446.58	65.54
446.77	105.32
446.95	63.19
447.14	39.79
447.32	7.02
447.51	51.49
447.69	18.72
447.88	37.45
448.06	88.94
448.25	23.41
448.43	91.28
448.62	9.36
448.80	107.66
448.99	53.83
449.17	77.24
449.36	51.49
449.54	16.38
449.73	67.88
449.91	126.39
450.10	18.72
450.28	7.02
450.46	0.00
450.65	60.85
450.83	63.19
451.02	112.35
451.20	14.04
451.39	0.00
451.57	44.47
451.76	67.88
451.94	21.06
452.13	95.96
452.31	72.56
452.49	21.06
452.68	86.60
452.86	0.00
453.05	98.30
453.23	63.19
453.42	42.13
453.60	39.79
453.78	30.43
453.97	88.94
454.15	30.43
454.34	86.60
454.52	56.17
454.70	0.00
454.89	77.24
455.07	9.36
455.26	98.30
455.44	39.79
455.62	124.05
455.81	72.56
455.99	74.90
456.17	95.96
456.36	0.00
456.54	60.85
456.73	18.72
456.91	128.73
457.09	0.00
457.28	60.85
457.46	35.11
457.64	0.00
457.83	72.56
458.01	35.11
458.19	77.24
458.38	56.17
458.56	84.26
458.74	93.62
458.93	0.00
459.11	128.73
459.29	107.66
459.48	0.00
459.66	51.49
459.84	2.34
460.03	91.28
460.21	65.54
460.39	11.70
460.57	124.05
460.76	16.38
460.94	65.54
461.12	44.47
461.31	39.79
461.49	84.26
461.67	79.58
461.85	60.85
462.04	14.04
462.22	126.39
462.40	65.54
462.59	44.47
462.77	93.62
462.95	25.75
463.13	42.13
463.32	0.00
463.50	74.90
463.68	18.72
463.86	95.96
464.05	70.22
464.23	0.00
464.41	81.92
464.59	0.00
464.78	49.15
464.96	21.06
465.14	56.17
465.32	107.66
465.50	56.17
465.69	102.98
465.87	138.09
466.05	79.58
466.23	49.15
466.41	0.00
466.60	65.54
466.78	65.54
466.96	154.48
467.14	58.51
467.32	53.83
467.51	46.81
467.69	37.45
467.87	32.77
468.05	0.00
468.23	58.51
468.41	67.88
468.60	93.62
468.78	49.15
468.96	74.90
469.14	95.96
469.32	121.71
469.50	67.88
469.69	63.19
469.87	51.49
470.05	58.51
470.23	0.00
470.41	112.35
470.59	81.92
470.77	86.60
470.95	86.60
471.14	0.00
471.32	2.34
471.50	30.43
471.68	16.38
471.86	51.49
472.04	37.45
472.22	100.64
472.40	110.01
472.58	32.77
472.77	102.98
472.95	51.49
473.13	70.22
473.31	30.43
473.49	86.60
473.67	16.38
473.85	79.58
474.03	0.00
474.21	9.36
474.39	2.34
474.57	84.26
474.75	88.94
474.93	56.17
475.12	65.54
475.30	11.70
475.48	95.96
475.66	74.90
475.84	72.56
476.02	93.62
476.20	35.11
476.38	56.17
476.56	77.24
476.74	44.47
476.92	58.51
477.10	114.69
477.28	74.90
477.46	91.28
477.64	18.72
477.82	28.09
478.00	65.54
478.18	0.00
478.36	25.75
478.54	7.02
478.72	18.72
478.90	30.43
479.08	53.83
479.26	95.96
479.44	0.00
479.62	30.43
479.80	44.47
479.98	21.06
480.16	23.41
480.34	23.41
480.52	0.00
480.70	107.66
480.88	65.54
481.06	72.56
481.24	35.11
481.41	91.28
481.59	84.26
481.77	81.92
481.95	72.56
482.13	58.51
482.31	79.58
482.49	18.72
482.67	14.04
482.85	67.88
483.03	56.17
483.21	63.19
483.39	79.58
483.57	98.30
483.74	18.72
483.92	67.88
484.10	53.83
484.28	11.70
484.46	18.72
484.64	42.13
484.82	93.62
485.00	42.13
485.18	9.36
485.35	81.92
485.53	30.43
485.71	81.92
485.89	56.17
486.07	65.54
486.25	86.60
486.43	56.17
486.61	25.75
486.78	135.75
486.96	84.26
487.14	30.43
487.32	0.00
487.50	81.92
487.68	114.69
487.85	11.70
488.03	102.98
488.21	63.19
488.39	65.54
488.57	112.35
488.75	35.11
488.92	58.51
489.10	60.85
489.28	98.30
489.46	42.13
489.64	42.13
489.81	58.51
489.99	56.17
490.17	88.94
490.35	28.09
490.53	77.24
490.70	98.30
490.88	86.60
491.06	107.66
491.24	58.51
491.41	100.64
491.59	81.92
491.77	88.94
491.95	37.45
492.13	56.17
492.30	95.96
492.48	105.32
492.66	100.64
492.84	91.28
493.01	124.05
493.19	51.49
493.37	0.00
493.54	70.22
493.72	98.30
493.90	124.05
494.08	177.88
494.25	135.75
494.43	16.38
494.61	23.41
494.79	58.51
494.96	77.24
495.14	51.49
495.32	53.83
495.49	35.11
495.67	81.92
495.85	81.92
496.02	44.47
496.20	37.45
496.38	35.11
496.55	91.28
496.73	173.20
496.91	131.07
497.09	51.49
497.26	86.60
497.44	84.26
497.62	65.54
497.79	84.26
497.97	112.35
498.14	30.43
498.32	46.81
498.50	0.00
498.67	72.56
498.85	72.56
499.03	119.37
499.20	93.62
499.38	72.56
499.56	44.47
499.73	25.75
499.91	65.54
500.08	81.92
500.26	91.28
500.44	102.98
500.61	170.86
500.79	56.17
500.97	88.94
501.14	32.77
501.32	93.62
501.49	88.94
501.67	53.83
501.84	98.30
502.02	30.43
502.20	84.26
502.37	53.83
502.55	39.79
502.72	67.88
502.90	154.48
503.07	135.75
503.25	51.49
503.43	84.26
503.60	0.00
503.78	86.60
503.95	107.66
504.13	35.11
504.30	72.56
504.48	88.94
504.65	28.09
504.83	44.47
505.01	95.96
505.18	72.56
505.36	72.56
505.53	67.88
505.71	105.32
505.88	126.39
506.06	91.28
506.23	91.28
506.41	79.58
506.58	131.07
506.76	70.22
506.93	107.66
507.11	98.30
507.28	98.30
507.46	107.66
507.63	91.28
507.81	105.32
507.98	93.62
508.16	98.30
508.33	128.73
508.50	21.06
508.68	121.71
508.85	121.71
509.03	74.90
509.20	147.45
509.38	131.07
509.55	46.81
509.73	56.17
509.90	39.79
510.08	72.56
510.25	114.69
510.42	95.96
510.60	93.62
510.77	77.24
510.95	121.71
511.12	156.82
511.30	98.30
511.47	133.41
511.64	98.30
511.82	98.30
511.99	98.30
512.17	2.34
512.34	107.66
512.51	63.19
512.69	51.49
512.86	60.85
513.04	112.35
513.21	46.81
513.38	100.64
513.56	72.56
513.73	119.37
513.90	77.24
514.08	14.04
514.25	44.47
514.43	93.62
514.60	74.90
514.77	46.81
514.95	51.49
515.12	30.43
515.29	98.30
515.47	21.06
515.64	112.35
515.81	79.58
515.99	91.28
516.16	72.56
516.33	42.13
516.51	30.43
516.68	95.96
516.85	37.45
517.03	98.30
517.20	39.79
517.37	35.11
517.54	93.62
517.72	105.32
517.89	46.81
518.06	67.88
518.24	112.35
518.41	44.47
518.58	98.30
518.75	28.09
518.93	79.58
519.10	117.03
519.27	16.38
519.45	100.64
519.62	25.75
519.79	70.22
519.96	37.45
520.14	46.81
520.31	114.69
520.48	60.85
520.65	77.24
520.83	79.58
521.00	105.32
521.17	63.19
521.34	30.43
521.52	35.11
521.69	70.22
521.86	133.41
522.03	102.98
522.20	53.83
522.38	30.43
522.55	77.24
522.72	93.62
522.89	168.52
523.07	58.51
523.24	77.24
523.41	2.34
523.58	79.58
523.75	67.88
523.92	81.92
524.10	105.32
524.27	124.05
524.44	107.66
524.61	74.90
524.78	98.30
524.96	107.66
525.13	2.34
525.30	93.62
525.47	70.22
525.64	102.98
525.81	102.98
525.98	105.32
526.16	105.32
526.33	117.03
526.50	77.24
526.67	0.00
526.84	121.71
527.01	91.28
527.18	72.56
527.36	49.15
527.53	84.26
527.70	56.17
527.87	112.35
528.04	88.94
528.21	133.41
528.38	126.39
528.55	114.69
528.72	86.60
528.89	149.79
529.07	145.11
529.24	60.85
529.41	21.06
529.58	119.37
529.75	102.98
529.92	107.66
530.09	98.30
530.26	91.28
530.43	42.13
530.60	86.60
530.77	119.37
530.94	98.30
531.11	65.54
531.28	2.34
531.46	25.75
531.63	112.35
531.80	102.98
531.97	105.32
532.14	107.66
532.31	135.75
532.48	74.90
532.65	60.85
532.82	58.51
532.99	86.60
533.16	70.22
533.33	100.64
533.50	135.75
533.67	63.19
533.84	37.45
534.01	72.56
534.18	138.09
534.35	102.98
534.52	93.62
534.69	32.77
534.86	86.60
535.03	56.17
535.20	156.82
535.37	114.69
535.54	93.62
535.71	133.41
535.88	121.71
536.05	51.49
536.22	72.56
536.38	110.01
536.55	86.60
536.72	72.56
536.89	46.81
537.06	84.26
537.23	25.75
537.40	35.11
537.57	102.98
537.74	110.01
537.91	98.30
538.08	39.79
538.25	81.92
538.42	112.35
538.59	91.28
538.75	91.28
538.92	100.64
539.09	98.30
539.26	44.47
539.43	95.96
539.60	145.11
539.77	117.03
539.94	7.02
540.11	65.54
540.28	53.83
540.44	11.70
540.61	49.15
540.78	93.62
540.95	124.05
541.12	133.41
541.29	67.88
541.46	51.49
541.62	107.66
541.79	88.94
541.96	79.58
542.13	56.17
542.30	124.05
542.47	93.62
542.63	77.24
542.80	100.64
542.97	42.13
543.14	86.60
543.31	86.60
543.48	86.60
543.64	77.24
543.81	63.19
543.98	74.90
544.15	0.00
544.32	70.22
544.48	74.90
544.65	79.58
544.82	56.17
544.99	95.96
545.16	114.69
545.32	58.51
545.49	51.49
545.66	51.49
545.83	51.49
546.00	117.03
546.16	91.28
546.33	65.54
546.50	35.11
546.67	121.71
546.83	37.45
547.00	98.30
547.17	56.17
547.34	28.09
547.50	49.15
547.67	79.58
547.84	142.77
548.00	173.20
548.17	119.37
548.34	46.81
548.51	70.22
548.67	124.05
548.84	72.56
549.01	65.54
549.18	107.66
549.34	58.51
549.51	60.85
549.68	133.41
549.84	86.60
550.01	133.41
550.18	58.51
550.34	93.62
550.51	95.96
550.68	60.85
550.84	81.92
551.01	107.66
551.18	131.07
551.34	65.54
551.51	9.36
551.68	30.43
551.84	58.51
552.01	81.92
552.18	70.22
552.34	77.24
552.51	98.30
552.68	131.07
552.84	131.07
553.01	37.45
553.18	88.94
553.34	51.49
553.51	51.49
553.67	21.06
553.84	60.85
554.01	91.28
554.17	147.45
554.34	147.45
554.51	182.56
554.67	44.47
554.84	149.79
555.00	74.90
555.17	35.11
555.33	114.69
555.50	79.58
555.67	100.64
555.83	84.26
556.00	112.35
556.16	117.03
556.33	70.22
556.50	42.13
556.66	39.79
556.83	117.03
556.99	119.37
557.16	63.19
557.32	79.58
557.49	121.71
557.65	156.82
557.82	65.54
557.98	35.11
558.15	72.56
558.32	25.75
558.48	147.45
558.65	88.94
558.81	2.34
558.98	135.75
559.14	110.01
559.31	84.26
559.47	74.90
559.64	86.60
559.80	93.62
559.97	56.17
560.13	53.83
560.30	105.32
560.46	86.60
560.63	88.94
560.79	9.36
560.96	11.70
561.12	86.60
561.29	91.28
561.45	65.54
561.61	149.79
561.78	117.03
561.94	0.00
562.11	93.62
562.27	37.45
562.44	65.54
562.60	131.07
562.77	124.05
562.93	147.45
563.10	56.17
563.26	88.94
563.42	119.37
563.59	88.94
563.75	110.01
563.92	135.75
564.08	16.38
564.24	77.24
564.41	56.17
564.57	18.72
564.74	51.49
564.90	46.81
565.07	131.07
565.23	7.02
565.39	117.03
565.56	49.15
565.72	56.17
565.88	133.41
566.05	131.07
566.21	175.54
566.38	88.94
566.54	49.15
566.70	74.90
566.87	56.17
567.03	100.64
567.19	107.66
567.36	51.49
567.52	79.58
567.68	56.17
567.85	60.85
568.01	91.28
568.17	98.30
568.34	72.56
568.50	58.51
568.66	79.58
568.83	98.30
568.99	7.02
569.15	49.15
569.32	37.45
569.48	51.49
569.64	84.26
569.81	100.64
569.97	91.28
570.13	14.04
570.30	32.77
570.46	56.17
570.62	86.60
570.78	51.49
570.95	60.85
571.11	81.92
571.27	140.43
571.43	100.64
571.60	49.15
571.76	98.30
571.92	21.06
572.09	79.58
572.25	86.60
572.41	67.88
572.57	72.56
572.74	140.43
572.90	91.28
573.06	46.81
573.22	70.22
573.38	67.88
573.55	23.41
573.71	114.69
573.87	100.64
574.03	32.77
574.20	107.66
574.36	63.19
574.52	60.85
574.68	51.49
574.84	95.96
575.01	121.71
575.17	28.09
575.33	138.09
575.49	131.07
575.65	42.13
575.82	124.05
575.98	14.04
576.14	65.54
576.30	112.35
576.46	46.81
576.62	112.35
576.79	95.96
576.95	86.60
577.11	119.37
577.27	81.92
577.43	21.06
577.59	100.64
577.75	154.48
577.92	23.41
578.08	93.62
578.24	46.81
578.40	84.26
578.56	9.36
578.72	86.60
578.88	102.98
579.04	88.94
579.21	65.54
579.37	65.54
579.53	56.17
579.69	42.13
579.85	77.24
580.01	105.32
580.17	86.60
580.33	70.22
580.49	25.75
580.65	152.13
580.82	60.85
580.98	84.26
581.14	0.00
581.30	14.04
581.46	28.09
581.62	65.54
581.78	88.94
581.94	79.58
582.10	95.96
582.26	81.92
582.42	84.26
582.58	100.64
582.74	0.00
582.90	107.66
583.06	2.34
583.22	35.11
583.38	72.56
583.54	84.26
583.70	81.92
583.86	119.37
584.02	60.85
584.18	128.73
584.34	98.30
584.50	84.26
584.66	91.28
584.82	70.22
584.98	60.85
585.14	44.47
585.30	142.77
585.46	74.90
585.62	23.41
585.78	18.72
585.94	46.81
586.10	117.03
586.26	67.88
586.42	131.07
586.58	138.09
586.74	77.24
586.90	23.41
587.06	74.90
587.22	7.02
587.38	74.90
587.54	100.64
587.70	93.62
587.86	0.00
588.02	0.00
588.18	21.06
588.34	67.88
588.49	86.60
588.65	35.11
588.81	74.90
588.97	60.85
589.13	114.69
589.29	95.96
589.45	9.36
589.61	77.24
589.77	53.83
589.93	0.00
590.08	51.49
590.24	98.30
590.40	86.60
590.56	102.98
590.72	37.45
590.88	124.05
591.04	100.64
591.20	53.83
591.35	84.26
591.51	49.15
591.67	7.02
591.83	23.41
591.99	86.60
592.15	49.15
592.31	58.51
592.46	42.13
592.62	30.43
592.78	128.73
592.94	112.35
593.10	131.07
593.26	70.22
593.41	77.24
593.57	0.00
593.73	53.83
593.89	32.77
594.05	72.56
594.20	102.98
594.36	25.75
594.52	9.36
594.68	77.24
594.84	86.60
594.99	51.49
595.15	72.56
595.31	102.98
595.47	63.19
595.62	124.05
595.78	88.94
595.94	110.01
596.10	112.35
596.25	131.07
596.41	93.62
596.57	182.56
596.73	46.81
596.88	100.64
597.04	37.45
597.20	105.32
597.36	107.66
597.51	63.19
597.67	107.66
597.83	84.26
597.99	58.51
598.14	65.54
598.30	93.62
598.46	81.92
598.61	102.98
598.77	56.17
598.93	25.75
599.09	44.47
599.24	126.39
599.40	91.28
599.56	0.00
599.71	86.60
599.87	77.24
600.03	56.17
600.18	117.03
600.34	63.19
600.50	56.17
600.65	126.39
600.81	105.32
600.97	42.13
601.12	98.30
601.28	91.28
601.44	30.43
601.59	35.11
601.75	121.71
601.91	84.26
602.06	28.09
602.22	74.90
602.37	23.41
602.53	110.01
602.69	28.09
602.84	0.00
603.00	51.49
603.16	100.64
603.31	102.98
603.47	110.01
603.62	49.15
603.78	67.88
603.94	70.22
604.09	42.13
604.25	93.62
604.40	0.00
604.56	0.00
604.71	84.26
604.87	58.51
605.03	32.77
605.18	11.70
605.34	93.62
605.49	39.79
605.65	135.75
605.80	102.98
605.96	0.00
606.12	58.51
606.27	63.19
606.43	53.83
606.58	70.22
606.74	72.56
606.89	79.58
607.05	74.90
607.20	95.96
607.36	88.94
607.51	131.07
607.67	28.09
607.82	154.48
607.98	74.90
608.13	63.19
608.29	79.58
608.44	84.26
608.60	91.28
608.75	2.34
608.91	56.17
609.06	65.54
609.22	102.98
609.37	9.36
609.53	86.60
609.68	35.11
609.84	46.81
609.99	131.07
610.15	93.62
610.30	53.83
610.46	56.17
610.61	28.09
610.76	70.22
610.92	0.00
611.07	0.00
611.23	88.94
611.38	37.45
611.54	49.15
611.69	100.64
611.84	79.58
612.00	46.81
612.15	0.00
612.31	53.83
612.46	112.35
612.62	49.15
612.77	7.02
612.92	126.39
613.08	91.28
613.23	28.09
613.39	74.90
613.54	95.96
613.69	30.43
613.85	105.32
614.00	49.15
614.15	65.54
614.31	102.98
614.46	163.84
614.62	32.77
614.77	86.60
614.92	25.75
615.08	70.22
615.23	25.75
615.38	58.51
615.54	49.15
615.69	51.49
615.84	86.60
616.00	14.04
616.15	53.83
616.30	114.69
616.46	53.83
616.61	32.77
616.76	98.30
616.92	88.94
617.07	79.58
617.22	100.64
617.37	21.06
617.53	42.13
617.68	95.96
617.83	84.26
617.99	53.83
618.14	149.79
618.29	56.17
618.45	4.68
618.60	88.94
618.75	14.04
618.90	58.51
619.06	51.49
619.21	18.72
619.36	7.02
619.51	39.79
619.67	7.02
619.82	112.35
619.97	63.19
620.12	117.03
620.28	74.90
620.43	65.54
620.58	18.72
620.73	44.47
620.89	0.00
621.04	86.60
621.19	37.45
621.34	74.90
621.49	56.17
621.65	49.15
621.80	39.79
621.95	37.45
622.10	58.51
622.25	16.38
622.41	0.00
622.56	51.49
622.71	0.00
622.86	32.77
623.01	4.68
623.16	112.35
623.32	98.30
623.47	56.17
623.62	49.15
623.77	124.05
623.92	81.92
624.07	14.04
624.23	67.88
624.38	49.15
624.53	100.64
624.68	0.00
624.83	21.06
624.98	100.64
625.13	88.94
625.29	88.94
625.44	21.06
625.59	32.77
625.74	74.90
625.89	56.17
626.04	72.56
626.19	0.00
626.34	60.85
626.49	51.49
626.65	81.92
626.80	91.28
626.95	51.49
627.10	63.19
627.25	51.49
627.40	39.79
627.55	51.49
627.70	88.94
627.85	112.35
628.00	98.30
628.15	4.68
628.30	102.98
628.45	51.49
628.60	126.39
628.76	30.43
628.91	98.30
629.06	42.13
629.21	70.22
629.36	63.19
629.51	53.83
629.66	58.51
629.81	102.98
629.96	30.43
630.11	79.58
630.26	88.94
630.41	14.04
630.56	53.83
630.71	21.06
630.86	44.47
631.01	58.51
631.16	46.81
631.31	11.70
631.46	56.17
631.61	79.58
631.76	0.00
631.91	44.47
632.06	30.43
632.21	117.03
632.36	63.19
632.51	9.36
632.66	32.77
632.81	16.38
632.96	58.51
633.10	102.98
633.25	93.62
633.40	112.35
633.55	84.26
633.70	60.85
633.85	56.17
634.00	25.75
634.15	117.03
634.30	79.58
634.45	138.09
634.60	32.77
634.75	25.75
634.90	70.22
635.05	74.90
635.19	60.85
635.34	14.04
635.49	49.15
635.64	126.39
635.79	53.83
635.94	70.22
636.09	124.05
636.24	46.81
636.39	74.90
636.53	119.37
636.68	56.17
636.83	51.49
636.98	70.22
637.13	46.81
637.28	100.64
637.43	0.00
637.57	98.30
637.72	56.17
637.87	77.24
638.02	46.81
638.17	88.94
638.32	86.60
638.46	81.92
638.61	42.13
638.76	105.32
638.91	39.79
639.06	102.98
639.20	93.62
639.35	100.64
639.50	91.28
639.65	21.06
639.80	67.88
639.94	56.17
640.09	107.66
640.24	28.09
640.39	35.11
640.54	0.00
640.68	67.88
640.83	46.81
640.98	42.13
641.13	72.56
641.27	14.04
641.42	28.09
641.57	35.11
641.72	88.94
641.86	100.64
642.01	56.17
642.16	74.90
642.31	88.94
642.45	53.83
642.60	53.83
642.75	72.56
642.90	135.75
643.04	0.00
643.19	53.83
643.34	53.83
643.48	86.60
643.63	84.26
643.78	42.13
643.93	49.15
644.07	117.03
644.22	88.94
644.37	42.13
644.51	88.94
644.66	9.36
644.81	53.83
644.95	135.75
645.10	42.13
645.25	84.26
645.39	0.00
645.54	74.90
645.69	81.92
645.83	70.22
645.98	46.81
646.13	28.09
646.27	110.01
646.42	0.00
646.57	77.24
646.71	0.00
646.86	0.00
647.00	77.24
647.15	60.85
647.30	58.51
647.44	81.92
647.59	44.47
647.74	14.04
647.88	65.54
648.03	25.75
648.17	98.30
648.32	142.77
648.47	67.88
648.61	58.51
648.76	30.43
648.90	70.22
649.05	86.60
649.20	58.51
649.34	63.19
649.49	44.47
649.63	42.13
649.78	65.54
649.92	107.66
650.07	32.77
650.21	35.11
650.36	51.49
650.51	67.88
650.65	2.34
650.80	35.11
650.94	65.54
651.09	0.00
651.23	37.45
651.38	0.00
651.52	37.45
651.67	72.56
651.81	21.06
651.96	37.45
652.10	42.13
652.25	100.64
652.39	84.26
652.54	53.83
652.68	72.56
652.83	9.36
652.97	56.17
653.12	63.19
653.26	39.79
653.41	0.00
653.55	84.26
653.70	4.68
653.84	51.49
653.99	30.43
654.13	102.98
654.27	105.32
654.42	79.58
654.56	72.56
654.71	51.49
654.85	74.90
655.00	128.73
655.14	25.75
655.29	0.00
655.43	7.02
655.57	77.24
655.72	74.90
655.86	35.11
656.01	74.90
656.15	0.00
656.30	56.17
656.44	56.17
656.58	51.49
656.73	86.60
656.87	42.13
657.01	81.92
657.16	32.77
657.30	49.15
657.45	35.11
657.59	51.49
657.73	14.04
657.88	14.04
658.02	51.49
658.16	39.79
658.31	93.62
658.45	18.72
658.60	72.56
658.74	32.77
658.88	63.19
659.03	91.28
659.17	86.60
659.31	0.00
659.46	28.09
659.60	91.28
659.74	74.90
659.89	44.47
660.03	18.72
660.17	37.45
660.32	102.98
660.46	72.56
660.60	0.00
660.74	32.77
660.89	95.96
661.03	23.41
661.17	46.81
661.32	86.60
661.46	32.77
661.60	35.11
661.74	25.75
661.89	0.00
662.03	74.90
662.17	79.58
662.31	117.03
662.46	37.45
662.60	114.69
662.74	2.34
662.88	67.88
663.03	32.77
663.17	0.00
663.31	11.70
663.45	74.90
663.60	60.85
663.74	135.75
663.88	79.58
664.02	49.15
664.17	14.04
664.31	32.77
664.45	30.43
664.59	51.49
664.73	70.22
664.88	51.49
665.02	91.28
665.16	60.85
665.30	93.62
665.44	65.54
665.59	86.60
665.73	91.28
665.87	30.43
666.01	84.26
666.15	100.64
666.29	67.88
666.44	65.54
666.58	28.09
666.72	58.51
666.86	21.06
667.00	91.28
667.14	67.88
667.28	98.30
667.43	63.19
667.57	0.00
667.71	124.05
667.85	51.49
667.99	74.90
668.13	7.02
668.27	37.45
668.41	93.62
668.56	0.00
668.70	65.54
668.84	56.17
668.98	0.00
669.12	0.00
669.26	21.06
669.40	42.13
669.54	0.00
669.68	11.70
669.82	53.83
669.96	23.41
670.10	35.11
670.25	0.00
670.39	100.64
670.53	72.56
670.67	49.15
670.81	112.35
670.95	46.81
671.09	56.17
671.23	37.45
671.37	0.00
671.51	0.00
671.65	79.58
671.79	18.72
671.93	72.56
672.07	93.62
672.21	49.15
672.35	18.72
672.49	42.13
672.63	74.90
672.77	44.47
672.91	37.45
673.05	14.04
673.19	35.11
673.33	0.00
673.47	44.47
673.61	0.00
673.75	0.00
673.89	72.56
674.03	58.51
674.17	74.90
674.31	14.04
674.45	77.24
674.59	79.58
674.73	58.51
674.87	32.77
675.01	35.11
675.15	23.41
675.29	7.02
675.43	21.06
675.56	51.49
675.70	56.17
675.84	86.60
675.98	0.00
676.12	2.34
676.26	102.98
676.40	53.83
676.54	107.66
676.68	58.51
676.82	56.17
676.96	53.83
677.10	46.81
677.23	65.54
677.37	0.00
677.51	67.88
677.65	86.60
677.79	30.43
677.93	49.15
678.07	35.11
678.21	0.00
678.34	0.00
678.48	65.54
678.62	39.79
678.76	37.45
678.90	37.45
679.04	60.85
679.18	67.88
679.31	100.64
679.45	28.09
679.59	0.00
679.73	74.90
679.87	81.92
680.00	60.85
680.14	30.43
680.28	131.07
680.42	18.72
680.56	4.68
680.70	44.47
680.83	30.43
680.97	0.00
681.11	0.00
681.25	79.58
681.39	51.49
681.52	37.45
681.66	0.00
681.80	117.03
681.94	44.47
682.07	63.19
682.21	88.94
682.35	4.68
682.49	32.77
682.62	74.90
682.76	63.19
682.90	4.68
683.04	70.22
683.17	70.22
683.31	79.58
683.45	11.70
683.59	0.00
683.72	72.56
683.86	0.00
684.00	32.77
684.13	63.19
684.27	49.15
684.41	72.56
684.55	39.79
684.68	25.75
684.82	42.13
684.96	100.64
685.09	79.58
685.23	0.00
685.37	100.64
685.50	79.58
685.64	93.62
685.78	25.75
685.91	0.00
686.05	25.75
686.19	86.60
686.32	67.88
686.46	11.70
686.60	0.00
686.73	58.51
686.87	4.68
687.01	0.00
687.14	30.43
687.28	51.49
687.42	4.68
687.55	84.26
687.69	30.43
687.82	0.00
687.96	44.47
688.10	4.68
688.23	51.49
688.37	72.56
688.50	65.54
688.64	93.62
688.78	0.00
688.91	11.70
689.05	21.06
689.18	49.15
689.32	25.75
689.46	88.94
689.59	60.85
689.73	25.75
689.86	32.77
690.00	23.41
690.13	49.15
690.27	58.51
690.41	42.13
690.54	7.02
690.68	11.70
690.81	23.41
690.95	0.00
691.08	53.83
691.22	0.00
691.35	46.81
691.49	18.72
691.62	93.62
691.76	84.26
691.89	70.22
692.03	25.75
692.16	65.54
692.30	0.00
692.43	37.45
692.57	0.00
692.70	9.36
692.84	0.00
692.97	63.19
693.11	58.51
693.24	65.54
693.38	102.98
693.51	0.00
693.65	32.77
693.78	91.28
693.92	0.00
694.05	0.00
694.19	42.13
694.32	81.92
694.45	7.02
694.59	16.38
694.72	23.41
694.86	32.77
694.99	0.00
695.13	32.77
695.26	2.34
695.39	51.49
695.53	58.51
695.66	119.37
695.80	39.79
695.93	23.41
696.07	30.43
696.20	114.69
696.33	74.90
696.47	25.75
696.60	9.36
696.73	67.88
696.87	63.19
697.00	84.26
697.14	51.49
697.27	42.13
697.40	67.88
697.54	4.68
697.67	46.81
697.80	98.30
697.94	58.51
698.07	107.66
698.21	49.15
698.34	14.04
698.47	53.83
698.61	56.17
698.74	46.81
698.87	23.41
699.01	0.00
699.14	0.00
699.27	25.75
699.40	21.06
699.54	81.92
699.67	67.88
699.80	2.34
699.94	39.79
700.07	14.04
700.20	28.09
700.34	142.77
700.47	0.00
700.60	4.68
700.73	46.81
700.87	84.26
701.00	30.43
701.13	39.79
701.26	74.90
701.40	56.17
701.53	42.13
701.66	0.00
701.79	53.83
701.93	35.11
702.06	44.47
702.19	30.43
702.32	0.00
702.46	25.75
702.59	14.04
702.72	37.45
702.85	53.83
702.99	30.43
703.12	84.26
703.25	0.00
703.38	105.32
703.51	79.58
703.65	9.36
703.78	51.49
703.91	81.92
704.04	65.54
704.17	53.83
704.31	0.00
704.44	7.02
704.57	49.15
704.70	32.77
704.83	65.54
704.96	37.45
705.10	9.36
705.23	105.32
>>>>>End Processed Spectral Data<<<<<
