SpectraSuite Data File
++++++++++++++++++++++++++++++++++++
Date: Fri Oct 04 12:13:32 GMT-05:00 2013
User: price-jones
Dark Spectrum Present: No
Reference Spectrum Present: No
Number of Sampled Component Spectra: 1
Spectrometers: USB2+H05261
Integration Time (usec): 10000 (USB2+H05261)
Spectra Averaged: 1 (USB2+H05261)
Boxcar Smoothing: 0 (USB2+H05261)
Correct for Electrical Dark: No (USB2+H05261)
Strobe/Lamp Enabled: No (USB2+H05261)
Correct for Detector Non-linearity: No (USB2+H05261)
Correct for Stray Light: No (USB2+H05261)
Number of Pixels in Processed Spectrum: 2048
>>>>>Begin Processed Spectral Data<<<<<
365.73	0.00
365.92	0.00
366.12	0.00
366.32	0.00
366.52	0.00
366.72	0.00
366.91	0.00
367.11	0.00
367.31	0.00
367.51	0.00
367.70	0.00
367.90	0.00
368.10	0.00
368.30	0.00
368.49	0.00
368.69	0.00
368.89	0.00
369.09	0.00
369.28	0.00
369.48	0.00
369.68	0.00
369.87	0.00
370.07	0.00
370.27	0.00
370.47	0.00
370.66	0.00
370.86	0.00
371.06	0.00
371.25	0.00
371.45	0.00
371.65	0.00
371.84	11.70
372.04	14.04
372.24	7.02
372.44	14.04
372.63	0.00
372.83	84.26
373.03	21.06
373.22	30.43
373.42	16.38
373.62	9.36
373.81	28.09
374.01	18.72
374.21	0.00
374.40	14.04
374.60	65.54
374.79	32.77
374.99	21.06
375.19	11.70
375.38	0.00
375.58	58.51
375.78	56.17
375.97	65.54
376.17	44.47
376.37	30.43
376.56	28.09
376.76	32.77
376.95	4.68
377.15	88.94
377.35	16.38
377.54	53.83
377.74	51.49
377.93	18.72
378.13	0.00
378.33	21.06
378.52	65.54
378.72	16.38
378.91	0.00
379.11	30.43
379.31	11.70
379.50	63.19
379.70	0.00
379.89	46.81
380.09	18.72
380.28	4.68
380.48	0.00
380.68	86.60
380.87	0.00
381.07	4.68
381.26	18.72
381.46	0.00
381.65	0.00
381.85	56.17
382.04	67.88
382.24	49.15
382.43	0.00
382.63	32.77
382.83	0.00
383.02	0.00
383.22	93.62
383.41	28.09
383.61	88.94
383.80	0.00
384.00	0.00
384.19	14.04
384.39	2.34
384.58	0.00
384.78	0.00
384.97	30.43
385.17	11.70
385.36	93.62
385.56	0.00
385.75	0.00
385.95	21.06
386.14	37.45
386.34	37.45
386.53	25.75
386.72	67.88
386.92	32.77
387.11	39.79
387.31	4.68
387.50	23.41
387.70	39.79
387.89	56.17
388.09	0.00
388.28	58.51
388.48	35.11
388.67	0.00
388.86	37.45
389.06	60.85
389.25	67.88
389.45	37.45
389.64	46.81
389.84	88.94
390.03	11.70
390.22	56.17
390.42	30.43
390.61	30.43
390.81	0.00
391.00	86.60
391.19	9.36
391.39	23.41
391.58	79.58
391.78	0.00
391.97	79.58
392.16	56.17
392.36	0.00
392.55	0.00
392.75	0.00
392.94	0.00
393.13	49.15
393.33	0.00
393.52	74.90
393.71	28.09
393.91	28.09
394.10	7.02
394.29	77.24
394.49	0.00
394.68	74.90
394.88	7.02
395.07	25.75
395.26	58.51
395.46	25.75
395.65	0.00
395.84	16.38
396.04	0.00
396.23	2.34
396.42	0.00
396.62	32.77
396.81	0.00
397.00	37.45
397.19	21.06
397.39	84.26
397.58	32.77
397.77	2.34
397.97	7.02
398.16	58.51
398.35	53.83
398.55	0.00
398.74	0.00
398.93	67.88
399.12	2.34
399.32	67.88
399.51	70.22
399.70	9.36
399.90	53.83
400.09	0.00
400.28	32.77
400.47	49.15
400.67	0.00
400.86	39.79
401.05	37.45
401.24	42.13
401.44	49.15
401.63	0.00
401.82	23.41
402.01	0.00
402.21	2.34
402.40	21.06
402.59	0.00
402.78	25.75
402.97	0.00
403.17	2.34
403.36	0.00
403.55	0.00
403.74	28.09
403.93	0.00
404.13	0.00
404.32	44.47
404.51	70.22
404.70	63.19
404.89	32.77
405.09	37.45
405.28	53.83
405.47	16.38
405.66	49.15
405.85	28.09
406.05	56.17
406.24	0.00
406.43	18.72
406.62	0.00
406.81	25.75
407.00	28.09
407.20	0.00
407.39	30.43
407.58	72.56
407.77	7.02
407.96	16.38
408.15	81.92
408.34	49.15
408.54	16.38
408.73	51.49
408.92	4.68
409.11	23.41
409.30	0.00
409.49	0.00
409.68	4.68
409.87	0.00
410.07	35.11
410.26	16.38
410.45	0.00
410.64	58.51
410.83	72.56
411.02	0.00
411.21	42.13
411.40	7.02
411.59	65.54
411.78	37.45
411.98	23.41
412.17	65.54
412.36	35.11
412.55	16.38
412.74	18.72
412.93	0.00
413.12	14.04
413.31	2.34
413.50	65.54
413.69	9.36
413.88	0.00
414.07	0.00
414.26	23.41
414.45	46.81
414.64	30.43
414.83	67.88
415.02	14.04
415.22	7.02
415.41	0.00
415.60	81.92
415.79	0.00
415.98	49.15
416.17	0.00
416.36	7.02
416.55	7.02
416.74	9.36
416.93	0.00
417.12	0.00
417.31	32.77
417.50	0.00
417.69	0.00
417.88	39.79
418.07	11.70
418.26	21.06
418.45	25.75
418.64	42.13
418.83	0.00
419.02	37.45
419.21	0.00
419.39	0.00
419.58	0.00
419.77	0.00
419.96	37.45
420.15	63.19
420.34	18.72
420.53	93.62
420.72	7.02
420.91	0.00
421.10	0.00
421.29	18.72
421.48	74.90
421.67	39.79
421.86	30.43
422.05	51.49
422.24	37.45
422.43	35.11
422.61	49.15
422.80	11.70
422.99	0.00
423.18	35.11
423.37	46.81
423.56	37.45
423.75	30.43
423.94	16.38
424.13	11.70
424.32	42.13
424.50	32.77
424.69	56.17
424.88	25.75
425.07	81.92
425.26	35.11
425.45	7.02
425.64	0.00
425.83	32.77
426.01	0.00
426.20	51.49
426.39	28.09
426.58	21.06
426.77	0.00
426.96	0.00
427.15	100.64
427.33	51.49
427.52	37.45
427.71	58.51
427.90	72.56
428.09	18.72
428.28	30.43
428.46	37.45
428.65	0.00
428.84	56.17
429.03	23.41
429.22	0.00
429.40	0.00
429.59	79.58
429.78	0.00
429.97	0.00
430.16	0.00
430.34	0.00
430.53	95.96
430.72	46.81
430.91	0.00
431.10	28.09
431.28	0.00
431.47	9.36
431.66	0.00
431.85	25.75
432.03	51.49
432.22	58.51
432.41	46.81
432.60	56.17
432.79	53.83
432.97	11.70
433.16	60.85
433.35	0.00
433.54	0.00
433.72	60.85
433.91	18.72
434.10	86.60
434.28	0.00
434.47	53.83
434.66	35.11
434.85	14.04
435.03	0.00
435.22	0.00
435.41	0.00
435.59	35.11
435.78	81.92
435.97	18.72
436.16	42.13
436.34	0.00
436.53	0.00
436.72	0.00
436.90	37.45
437.09	98.30
437.28	25.75
437.46	53.83
437.65	42.13
437.84	30.43
438.02	14.04
438.21	7.02
438.40	79.58
438.58	0.00
438.77	35.11
438.96	0.00
439.14	23.41
439.33	81.92
439.52	0.00
439.70	4.68
439.89	37.45
440.08	46.81
440.26	86.60
440.45	0.00
440.63	39.79
440.82	63.19
441.01	14.04
441.19	28.09
441.38	51.49
441.57	25.75
441.75	9.36
441.94	25.75
442.12	0.00
442.31	25.75
442.50	44.47
442.68	67.88
442.87	49.15
443.05	18.72
443.24	49.15
443.43	0.00
443.61	11.70
443.80	0.00
443.98	53.83
444.17	42.13
444.35	14.04
444.54	37.45
444.73	28.09
444.91	58.51
445.10	0.00
445.28	88.94
445.47	0.00
445.65	32.77
445.84	42.13
446.02	88.94
446.21	51.49
446.39	0.00
446.58	42.13
446.77	46.81
446.95	77.24
447.14	60.85
447.32	53.83
447.51	44.47
447.69	93.62
447.88	44.47
448.06	7.02
448.25	72.56
448.43	28.09
448.62	0.00
448.80	0.00
448.99	23.41
449.17	58.51
449.36	0.00
449.54	42.13
449.73	11.70
449.91	0.00
450.10	0.00
450.28	18.72
450.46	60.85
450.65	53.83
450.83	42.13
451.02	28.09
451.20	46.81
451.39	63.19
451.57	44.47
451.76	32.77
451.94	0.00
452.13	39.79
452.31	23.41
452.49	156.82
452.68	0.00
452.86	21.06
453.05	30.43
453.23	0.00
453.42	32.77
453.60	14.04
453.78	49.15
453.97	0.00
454.15	0.00
454.34	49.15
454.52	112.35
454.70	0.00
454.89	65.54
455.07	0.00
455.26	67.88
455.44	81.92
455.62	0.00
455.81	65.54
455.99	0.00
456.17	0.00
456.36	100.64
456.54	44.47
456.73	21.06
456.91	65.54
457.09	0.00
457.28	14.04
457.46	74.90
457.64	70.22
457.83	2.34
458.01	35.11
458.19	0.00
458.38	49.15
458.56	42.13
458.74	65.54
458.93	30.43
459.11	21.06
459.29	44.47
459.48	56.17
459.66	65.54
459.84	37.45
460.03	86.60
460.21	114.69
460.39	58.51
460.57	7.02
460.76	124.05
460.94	58.51
461.12	18.72
461.31	70.22
461.49	81.92
461.67	25.75
461.85	70.22
462.04	60.85
462.22	88.94
462.40	9.36
462.59	67.88
462.77	60.85
462.95	49.15
463.13	0.00
463.32	79.58
463.50	0.00
463.68	18.72
463.86	44.47
464.05	60.85
464.23	53.83
464.41	0.00
464.59	0.00
464.78	67.88
464.96	81.92
465.14	4.68
465.32	14.04
465.50	72.56
465.69	0.00
465.87	0.00
466.05	0.00
466.23	56.17
466.41	18.72
466.60	37.45
466.78	25.75
466.96	37.45
467.14	39.79
467.32	23.41
467.51	63.19
467.69	16.38
467.87	53.83
468.05	60.85
468.23	42.13
468.41	44.47
468.60	81.92
468.78	70.22
468.96	56.17
469.14	30.43
469.32	2.34
469.50	42.13
469.69	0.00
469.87	14.04
470.05	58.51
470.23	53.83
470.41	21.06
470.59	91.28
470.77	79.58
470.95	0.00
471.14	0.00
471.32	53.83
471.50	14.04
471.68	14.04
471.86	35.11
472.04	39.79
472.22	16.38
472.40	18.72
472.58	0.00
472.77	39.79
472.95	9.36
473.13	25.75
473.31	28.09
473.49	2.34
473.67	28.09
473.85	4.68
474.03	28.09
474.21	60.85
474.39	16.38
474.57	88.94
474.75	30.43
474.93	0.00
475.12	32.77
475.30	14.04
475.48	32.77
475.66	39.79
475.84	42.13
476.02	0.00
476.20	23.41
476.38	0.00
476.56	30.43
476.74	110.01
476.92	88.94
477.10	37.45
477.28	0.00
477.46	35.11
477.64	21.06
477.82	23.41
478.00	23.41
478.18	0.00
478.36	35.11
478.54	84.26
478.72	91.28
478.90	16.38
479.08	25.75
479.26	51.49
479.44	2.34
479.62	0.00
479.80	58.51
479.98	9.36
480.16	28.09
480.34	30.43
480.52	58.51
480.70	77.24
480.88	32.77
481.06	60.85
481.24	0.00
481.41	0.00
481.59	39.79
481.77	0.00
481.95	42.13
482.13	98.30
482.31	74.90
482.49	0.00
482.67	25.75
482.85	16.38
483.03	7.02
483.21	46.81
483.39	88.94
483.57	11.70
483.74	0.00
483.92	95.96
484.10	39.79
484.28	77.24
484.46	0.00
484.64	2.34
484.82	110.01
485.00	98.30
485.18	56.17
485.35	72.56
485.53	51.49
485.71	0.00
485.89	25.75
486.07	98.30
486.25	60.85
486.43	49.15
486.61	63.19
486.78	63.19
486.96	0.00
487.14	18.72
487.32	112.35
487.50	86.60
487.68	0.00
487.85	46.81
488.03	23.41
488.21	53.83
488.39	0.00
488.57	107.66
488.75	74.90
488.92	72.56
489.10	37.45
489.28	93.62
489.46	21.06
489.64	39.79
489.81	65.54
489.99	128.73
490.17	79.58
490.35	51.49
490.53	51.49
490.70	58.51
490.88	79.58
491.06	7.02
491.24	67.88
491.41	35.11
491.59	58.51
491.77	70.22
491.95	25.75
492.13	28.09
492.30	46.81
492.48	37.45
492.66	63.19
492.84	44.47
493.01	42.13
493.19	32.77
493.37	39.79
493.54	58.51
493.72	107.66
493.90	0.00
494.08	72.56
494.25	16.38
494.43	91.28
494.61	14.04
494.79	4.68
494.96	51.49
495.14	0.00
495.32	0.00
495.49	14.04
495.67	65.54
495.85	102.98
496.02	84.26
496.20	0.00
496.38	114.69
496.55	0.00
496.73	107.66
496.91	4.68
497.09	95.96
497.26	98.30
497.44	18.72
497.62	42.13
497.79	44.47
497.97	2.34
498.14	51.49
498.32	0.00
498.50	14.04
498.67	81.92
498.85	44.47
499.03	58.51
499.20	21.06
499.38	49.15
499.56	2.34
499.73	72.56
499.91	105.32
500.08	93.62
500.26	35.11
500.44	30.43
500.61	65.54
500.79	58.51
500.97	65.54
501.14	7.02
501.32	25.75
501.49	0.00
501.67	81.92
501.84	2.34
502.02	77.24
502.20	63.19
502.37	23.41
502.55	30.43
502.72	86.60
502.90	39.79
503.07	72.56
503.25	0.00
503.43	84.26
503.60	2.34
503.78	60.85
503.95	51.49
504.13	53.83
504.30	74.90
504.48	114.69
504.65	81.92
504.83	49.15
505.01	58.51
505.18	39.79
505.36	18.72
505.53	102.98
505.71	30.43
505.88	128.73
506.06	56.17
506.23	28.09
506.41	23.41
506.58	39.79
506.76	72.56
506.93	0.00
507.11	63.19
507.28	56.17
507.46	14.04
507.63	84.26
507.81	84.26
507.98	25.75
508.16	51.49
508.33	0.00
508.50	0.00
508.68	84.26
508.85	42.13
509.03	0.00
509.20	46.81
509.38	46.81
509.55	16.38
509.73	74.90
509.90	140.43
510.08	81.92
510.25	65.54
510.42	42.13
510.60	14.04
510.77	39.79
510.95	0.00
511.12	16.38
511.30	95.96
511.47	18.72
511.64	0.00
511.82	51.49
511.99	9.36
512.17	93.62
512.34	16.38
512.51	46.81
512.69	28.09
512.86	14.04
513.04	56.17
513.21	56.17
513.38	16.38
513.56	14.04
513.73	18.72
513.90	37.45
514.08	49.15
514.25	56.17
514.43	35.11
514.60	0.00
514.77	14.04
514.95	16.38
515.12	49.15
515.29	44.47
515.47	79.58
515.64	28.09
515.81	0.00
515.99	23.41
516.16	14.04
516.33	30.43
516.51	0.00
516.68	0.00
516.85	46.81
517.03	0.00
517.20	32.77
517.37	0.00
517.54	53.83
517.72	46.81
517.89	56.17
518.06	63.19
518.24	107.66
518.41	32.77
518.58	35.11
518.75	11.70
518.93	70.22
519.10	44.47
519.27	39.79
519.45	18.72
519.62	0.00
519.79	42.13
519.96	11.70
520.14	105.32
520.31	91.28
520.48	42.13
520.65	0.00
520.83	58.51
521.00	91.28
521.17	21.06
521.34	58.51
521.52	44.47
521.69	39.79
521.86	0.00
522.03	58.51
522.20	32.77
522.38	44.47
522.55	39.79
522.72	30.43
522.89	21.06
523.07	37.45
523.24	102.98
523.41	114.69
523.58	56.17
523.75	56.17
523.92	88.94
524.10	119.37
524.27	0.00
524.44	23.41
524.61	9.36
524.78	46.81
524.96	49.15
525.13	21.06
525.30	0.00
525.47	51.49
525.64	0.00
525.81	7.02
525.98	18.72
526.16	2.34
526.33	51.49
526.50	60.85
526.67	74.90
526.84	21.06
527.01	53.83
527.18	126.39
527.36	21.06
527.53	39.79
527.70	21.06
527.87	32.77
528.04	49.15
528.21	9.36
528.38	35.11
528.55	32.77
528.72	63.19
528.89	11.70
529.07	28.09
529.24	9.36
529.41	77.24
529.58	46.81
529.75	72.56
529.92	100.64
530.09	21.06
530.26	2.34
530.43	0.00
530.60	2.34
530.77	16.38
530.94	56.17
531.11	42.13
531.28	81.92
531.46	11.70
531.63	0.00
531.80	56.17
531.97	93.62
532.14	51.49
532.31	77.24
532.48	42.13
532.65	88.94
532.82	105.32
532.99	0.00
533.16	23.41
533.33	32.77
533.50	25.75
533.67	18.72
533.84	77.24
534.01	0.00
534.18	0.00
534.35	56.17
534.52	30.43
534.69	21.06
534.86	86.60
535.03	51.49
535.20	72.56
535.37	16.38
535.54	53.83
535.71	0.00
535.88	39.79
536.05	21.06
536.22	51.49
536.38	79.58
536.55	140.43
536.72	88.94
536.89	30.43
537.06	23.41
537.23	39.79
537.40	0.00
537.57	35.11
537.74	95.96
537.91	0.00
538.08	4.68
538.25	42.13
538.42	30.43
538.59	72.56
538.75	9.36
538.92	60.85
539.09	60.85
539.26	65.54
539.43	70.22
539.60	128.73
539.77	0.00
539.94	32.77
540.11	0.00
540.28	70.22
540.44	28.09
540.61	44.47
540.78	18.72
540.95	30.43
541.12	0.00
541.29	81.92
541.46	72.56
541.62	25.75
541.79	72.56
541.96	42.13
542.13	119.37
542.30	37.45
542.47	0.00
542.63	42.13
542.80	35.11
542.97	110.01
543.14	86.60
543.31	77.24
543.48	16.38
543.64	16.38
543.81	0.00
543.98	4.68
544.15	58.51
544.32	91.28
544.48	72.56
544.65	4.68
544.82	0.00
544.99	23.41
545.16	0.00
545.32	77.24
545.49	18.72
545.66	30.43
545.83	53.83
546.00	4.68
546.16	0.00
546.33	4.68
546.50	58.51
546.67	39.79
546.83	46.81
547.00	25.75
547.17	30.43
547.34	23.41
547.50	39.79
547.67	91.28
547.84	51.49
548.00	39.79
548.17	95.96
548.34	25.75
548.51	46.81
548.67	28.09
548.84	16.38
549.01	32.77
549.18	44.47
549.34	37.45
549.51	16.38
549.68	126.39
549.84	119.37
550.01	84.26
550.18	0.00
550.34	7.02
550.51	25.75
550.68	100.64
550.84	42.13
551.01	39.79
551.18	51.49
551.34	46.81
551.51	60.85
551.68	72.56
551.84	53.83
552.01	58.51
552.18	28.09
552.34	60.85
552.51	72.56
552.68	21.06
552.84	72.56
553.01	56.17
553.18	56.17
553.34	30.43
553.51	49.15
553.67	0.00
553.84	16.38
554.01	39.79
554.17	0.00
554.34	0.00
554.51	14.04
554.67	56.17
554.84	98.30
555.00	18.72
555.17	0.00
555.33	49.15
555.50	14.04
555.67	14.04
555.83	39.79
556.00	98.30
556.16	58.51
556.33	7.02
556.50	18.72
556.66	42.13
556.83	60.85
556.99	11.70
557.16	49.15
557.32	60.85
557.49	35.11
557.65	93.62
557.82	46.81
557.98	0.00
558.15	0.00
558.32	0.00
558.48	16.38
558.65	56.17
558.81	0.00
558.98	0.00
559.14	86.60
559.31	46.81
559.47	46.81
559.64	39.79
559.80	42.13
559.97	0.00
560.13	0.00
560.30	9.36
560.46	30.43
560.63	39.79
560.79	44.47
560.96	9.36
561.12	0.00
561.29	112.35
561.45	65.54
561.61	21.06
561.78	86.60
561.94	0.00
562.11	25.75
562.27	0.00
562.44	14.04
562.60	32.77
562.77	0.00
562.93	53.83
563.10	0.00
563.26	42.13
563.42	72.56
563.59	21.06
563.75	4.68
563.92	14.04
564.08	70.22
564.24	0.00
564.41	0.00
564.57	95.96
564.74	23.41
564.90	32.77
565.07	0.00
565.23	32.77
565.39	7.02
565.56	53.83
565.72	0.00
565.88	0.00
566.05	28.09
566.21	49.15
566.38	114.69
566.54	42.13
566.70	0.00
566.87	14.04
567.03	11.70
567.19	25.75
567.36	65.54
567.52	46.81
567.68	32.77
567.85	53.83
568.01	86.60
568.17	0.00
568.34	0.00
568.50	51.49
568.66	0.00
568.83	93.62
568.99	25.75
569.15	30.43
569.32	18.72
569.48	7.02
569.64	28.09
569.81	21.06
569.97	9.36
570.13	0.00
570.30	7.02
570.46	95.96
570.62	56.17
570.78	42.13
570.95	112.35
571.11	42.13
571.27	42.13
571.43	0.00
571.60	49.15
571.76	14.04
571.92	18.72
572.09	0.00
572.25	23.41
572.41	58.51
572.57	95.96
572.74	74.90
572.90	70.22
573.06	0.00
573.22	91.28
573.38	70.22
573.55	0.00
573.71	56.17
573.87	67.88
574.03	84.26
574.20	44.47
574.36	25.75
574.52	9.36
574.68	81.92
574.84	0.00
575.01	58.51
575.17	72.56
575.33	11.70
575.49	60.85
575.65	28.09
575.82	28.09
575.98	0.00
576.14	60.85
576.30	0.00
576.46	9.36
576.62	53.83
576.79	0.00
576.95	32.77
577.11	0.00
577.27	74.90
577.43	74.90
577.59	0.00
577.75	74.90
577.92	32.77
578.08	0.00
578.24	44.47
578.40	0.00
578.56	21.06
578.72	28.09
578.88	0.00
579.04	42.13
579.21	88.94
579.37	70.22
579.53	86.60
579.69	35.11
579.85	102.98
580.01	0.00
580.17	37.45
580.33	0.00
580.49	25.75
580.65	63.19
580.82	42.13
580.98	70.22
581.14	37.45
581.30	105.32
581.46	60.85
581.62	7.02
581.78	21.06
581.94	67.88
582.10	67.88
582.26	58.51
582.42	0.00
582.58	18.72
582.74	42.13
582.90	53.83
583.06	0.00
583.22	18.72
583.38	25.75
583.54	21.06
583.70	0.00
583.86	56.17
584.02	67.88
584.18	100.64
584.34	81.92
584.50	18.72
584.66	37.45
584.82	11.70
584.98	0.00
585.14	100.64
585.30	35.11
585.46	46.81
585.62	49.15
585.78	0.00
585.94	37.45
586.10	95.96
586.26	74.90
586.42	21.06
586.58	74.90
586.74	11.70
586.90	74.90
587.06	30.43
587.22	35.11
587.38	16.38
587.54	58.51
587.70	35.11
587.86	65.54
588.02	70.22
588.18	79.58
588.34	37.45
588.49	51.49
588.65	7.02
588.81	28.09
588.97	0.00
589.13	117.03
589.29	49.15
589.45	35.11
589.61	46.81
589.77	56.17
589.93	11.70
590.08	9.36
590.24	53.83
590.40	0.00
590.56	56.17
590.72	0.00
590.88	46.81
591.04	9.36
591.20	30.43
591.35	2.34
591.51	93.62
591.67	46.81
591.83	0.00
591.99	11.70
592.15	44.47
592.31	84.26
592.46	0.00
592.62	56.17
592.78	0.00
592.94	70.22
593.10	42.13
593.26	35.11
593.41	60.85
593.57	0.00
593.73	0.00
593.89	0.00
594.05	2.34
594.20	70.22
594.36	67.88
594.52	107.66
594.68	23.41
594.84	32.77
594.99	25.75
595.15	0.00
595.31	7.02
595.47	74.90
595.62	88.94
595.78	0.00
595.94	0.00
596.10	70.22
596.25	32.77
596.41	53.83
596.57	60.85
596.73	30.43
596.88	0.00
597.04	119.37
597.20	60.85
597.36	30.43
597.51	60.85
597.67	70.22
597.83	7.02
597.99	46.81
598.14	72.56
598.30	72.56
598.46	37.45
598.61	0.00
598.77	0.00
598.93	86.60
599.09	23.41
599.24	25.75
599.40	105.32
599.56	42.13
599.71	0.00
599.87	56.17
600.03	0.00
600.18	49.15
600.34	0.00
600.50	51.49
600.65	0.00
600.81	72.56
600.97	23.41
601.12	0.00
601.28	2.34
601.44	44.47
601.59	56.17
601.75	9.36
601.91	42.13
602.06	58.51
602.22	63.19
602.37	7.02
602.53	39.79
602.69	0.00
602.84	39.79
603.00	30.43
603.16	107.66
603.31	0.00
603.47	74.90
603.62	0.00
603.78	11.70
603.94	0.00
604.09	21.06
604.25	23.41
604.40	0.00
604.56	0.00
604.71	58.51
604.87	63.19
605.03	35.11
605.18	32.77
605.34	39.79
605.49	4.68
605.65	46.81
605.80	39.79
605.96	23.41
606.12	0.00
606.27	88.94
606.43	30.43
606.58	11.70
606.74	0.00
606.89	11.70
607.05	42.13
607.20	46.81
607.36	70.22
607.51	23.41
607.67	74.90
607.82	0.00
607.98	60.85
608.13	58.51
608.29	0.00
608.44	88.94
608.60	93.62
608.75	28.09
608.91	18.72
609.06	63.19
609.22	72.56
609.37	28.09
609.53	100.64
609.68	16.38
609.84	63.19
609.99	70.22
610.15	14.04
610.30	98.30
610.46	30.43
610.61	14.04
610.76	25.75
610.92	81.92
611.07	7.02
611.23	28.09
611.38	53.83
611.54	173.20
611.69	63.19
611.84	0.00
612.00	23.41
612.15	28.09
612.31	86.60
612.46	0.00
612.62	86.60
612.77	79.58
612.92	63.19
613.08	91.28
613.23	16.38
613.39	67.88
613.54	0.00
613.69	72.56
613.85	32.77
614.00	4.68
614.15	0.00
614.31	56.17
614.46	95.96
614.62	51.49
614.77	37.45
614.92	32.77
615.08	84.26
615.23	11.70
615.38	88.94
615.54	70.22
615.69	28.09
615.84	30.43
616.00	30.43
616.15	112.35
616.30	0.00
616.46	30.43
616.61	11.70
616.76	18.72
616.92	42.13
617.07	25.75
617.22	56.17
617.37	79.58
617.53	0.00
617.68	0.00
617.83	2.34
617.99	49.15
618.14	81.92
618.29	100.64
618.45	21.06
618.60	16.38
618.75	53.83
618.90	28.09
619.06	102.98
619.21	72.56
619.36	77.24
619.51	23.41
619.67	72.56
619.82	32.77
619.97	11.70
620.12	51.49
620.28	25.75
620.43	105.32
620.58	30.43
620.73	102.98
620.89	39.79
621.04	39.79
621.19	7.02
621.34	58.51
621.49	74.90
621.65	11.70
621.80	53.83
621.95	49.15
622.10	86.60
622.25	105.32
622.41	28.09
622.56	42.13
622.71	44.47
622.86	51.49
623.01	42.13
623.16	46.81
623.32	2.34
623.47	0.00
623.62	16.38
623.77	2.34
623.92	11.70
624.07	53.83
624.23	93.62
624.38	0.00
624.53	14.04
624.68	14.04
624.83	28.09
624.98	49.15
625.13	51.49
625.29	51.49
625.44	23.41
625.59	0.00
625.74	37.45
625.89	16.38
626.04	0.00
626.19	18.72
626.34	21.06
626.49	0.00
626.65	0.00
626.80	39.79
626.95	91.28
627.10	37.45
627.25	28.09
627.40	79.58
627.55	77.24
627.70	2.34
627.85	11.70
628.00	4.68
628.15	14.04
628.30	0.00
628.45	0.00
628.60	67.88
628.76	0.00
628.91	9.36
629.06	49.15
629.21	14.04
629.36	53.83
629.51	67.88
629.66	35.11
629.81	0.00
629.96	0.00
630.11	16.38
630.26	35.11
630.41	58.51
630.56	93.62
630.71	58.51
630.86	9.36
631.01	65.54
631.16	58.51
631.31	4.68
631.46	32.77
631.61	37.45
631.76	14.04
631.91	56.17
632.06	21.06
632.21	65.54
632.36	88.94
632.51	0.00
632.66	121.71
632.81	35.11
632.96	0.00
633.10	4.68
633.25	58.51
633.40	46.81
633.55	44.47
633.70	79.58
633.85	0.00
634.00	0.00
634.15	4.68
634.30	16.38
634.45	60.85
634.60	93.62
634.75	0.00
634.90	28.09
635.05	84.26
635.19	67.88
635.34	58.51
635.49	0.00
635.64	74.90
635.79	35.11
635.94	133.41
636.09	28.09
636.24	53.83
636.39	30.43
636.53	49.15
636.68	44.47
636.83	51.49
636.98	0.00
637.13	37.45
637.28	35.11
637.43	16.38
637.57	7.02
637.72	72.56
637.87	28.09
638.02	16.38
638.17	65.54
638.32	0.00
638.46	0.00
638.61	9.36
638.76	25.75
638.91	49.15
639.06	37.45
639.20	46.81
639.35	23.41
639.50	21.06
639.65	0.00
639.80	35.11
639.94	72.56
640.09	35.11
640.24	21.06
640.39	77.24
640.54	18.72
640.68	0.00
640.83	25.75
640.98	51.49
641.13	70.22
641.27	11.70
641.42	25.75
641.57	0.00
641.72	4.68
641.86	25.75
642.01	46.81
642.16	25.75
642.31	63.19
642.45	65.54
642.60	0.00
642.75	70.22
642.90	2.34
643.04	51.49
643.19	74.90
643.34	53.83
643.48	0.00
643.63	14.04
643.78	84.26
643.93	58.51
644.07	30.43
644.22	60.85
644.37	84.26
644.51	21.06
644.66	30.43
644.81	44.47
644.95	0.00
645.10	39.79
645.25	44.47
645.39	88.94
645.54	42.13
645.69	49.15
645.83	32.77
645.98	0.00
646.13	28.09
646.27	2.34
646.42	18.72
646.57	21.06
646.71	30.43
646.86	0.00
647.00	0.00
647.15	23.41
647.30	21.06
647.44	30.43
647.59	79.58
647.74	84.26
647.88	42.13
648.03	14.04
648.17	74.90
648.32	0.00
648.47	9.36
648.61	53.83
648.76	84.26
648.90	35.11
649.05	126.39
649.20	0.00
649.34	4.68
649.49	63.19
649.63	35.11
649.78	42.13
649.92	53.83
650.07	0.00
650.21	42.13
650.36	60.85
650.51	131.07
650.65	77.24
650.80	37.45
650.94	58.51
651.09	0.00
651.23	65.54
651.38	84.26
651.52	67.88
651.67	49.15
651.81	44.47
651.96	9.36
652.10	42.13
652.25	53.83
652.39	0.00
652.54	70.22
652.68	0.00
652.83	14.04
652.97	44.47
653.12	58.51
653.26	39.79
653.41	124.05
653.55	67.88
653.70	44.47
653.84	0.00
653.99	0.00
654.13	51.49
654.27	37.45
654.42	2.34
654.56	39.79
654.71	37.45
654.85	72.56
655.00	0.00
655.14	44.47
655.29	7.02
655.43	37.45
655.57	32.77
655.72	53.83
655.86	58.51
656.01	86.60
656.15	35.11
656.30	0.00
656.44	32.77
656.58	95.96
656.73	79.58
656.87	124.05
657.01	4.68
657.16	11.70
657.30	74.90
657.45	44.47
657.59	32.77
657.73	42.13
657.88	25.75
658.02	0.00
658.16	58.51
658.31	30.43
658.45	0.00
658.60	32.77
658.74	37.45
658.88	98.30
659.03	102.98
659.17	77.24
659.31	32.77
659.46	25.75
659.60	21.06
659.74	25.75
659.89	0.00
660.03	0.00
660.17	70.22
660.32	56.17
660.46	39.79
660.60	56.17
660.74	4.68
660.89	30.43
661.03	56.17
661.17	14.04
661.32	11.70
661.46	42.13
661.60	32.77
661.74	65.54
661.89	100.64
662.03	9.36
662.17	0.00
662.31	21.06
662.46	39.79
662.60	32.77
662.74	0.00
662.88	79.58
663.03	51.49
663.17	37.45
663.31	0.00
663.45	77.24
663.60	72.56
663.74	23.41
663.88	25.75
664.02	39.79
664.17	44.47
664.31	7.02
664.45	49.15
664.59	70.22
664.73	39.79
664.88	0.00
665.02	98.30
665.16	35.11
665.30	60.85
665.44	7.02
665.59	65.54
665.73	9.36
665.87	18.72
666.01	0.00
666.15	0.00
666.29	4.68
666.44	23.41
666.58	58.51
666.72	14.04
666.86	37.45
667.00	42.13
667.14	0.00
667.28	35.11
667.43	86.60
667.57	56.17
667.71	11.70
667.85	0.00
667.99	25.75
668.13	0.00
668.27	42.13
668.41	28.09
668.56	21.06
668.70	11.70
668.84	14.04
668.98	84.26
669.12	0.00
669.26	49.15
669.40	93.62
669.54	79.58
669.68	11.70
669.82	4.68
669.96	9.36
670.10	16.38
670.25	39.79
670.39	39.79
670.53	0.00
670.67	16.38
670.81	0.00
670.95	0.00
671.09	0.00
671.23	30.43
671.37	9.36
671.51	63.19
671.65	4.68
671.79	39.79
671.93	14.04
672.07	74.90
672.21	53.83
672.35	0.00
672.49	28.09
672.63	70.22
672.77	18.72
672.91	65.54
673.05	14.04
673.19	51.49
673.33	58.51
673.47	0.00
673.61	21.06
673.75	0.00
673.89	124.05
674.03	25.75
674.17	4.68
674.31	51.49
674.45	0.00
674.59	0.00
674.73	23.41
674.87	121.71
675.01	16.38
675.15	25.75
675.29	35.11
675.43	51.49
675.56	112.35
675.70	72.56
675.84	56.17
675.98	0.00
676.12	46.81
676.26	77.24
676.40	21.06
676.54	58.51
676.68	49.15
676.82	0.00
676.96	65.54
677.10	37.45
677.23	39.79
677.37	0.00
677.51	49.15
677.65	0.00
677.79	72.56
677.93	0.00
678.07	60.85
678.21	65.54
678.34	0.00
678.48	0.00
678.62	42.13
678.76	32.77
678.90	16.38
679.04	18.72
679.18	0.00
679.31	121.71
679.45	4.68
679.59	0.00
679.73	42.13
679.87	53.83
680.00	30.43
680.14	0.00
680.28	23.41
680.42	2.34
680.56	7.02
680.70	23.41
680.83	91.28
680.97	44.47
681.11	81.92
681.25	53.83
681.39	7.02
681.52	53.83
681.66	30.43
681.80	0.00
681.94	0.00
682.07	44.47
682.21	95.96
682.35	0.00
682.49	72.56
682.62	98.30
682.76	81.92
682.90	56.17
683.04	0.00
683.17	14.04
683.31	0.00
683.45	44.47
683.59	42.13
683.72	23.41
683.86	37.45
684.00	0.00
684.13	35.11
684.27	112.35
684.41	35.11
684.55	44.47
684.68	39.79
684.82	23.41
684.96	23.41
685.09	39.79
685.23	72.56
685.37	7.02
685.50	23.41
685.64	46.81
685.78	0.00
685.91	65.54
686.05	81.92
686.19	28.09
686.32	16.38
686.46	63.19
686.60	70.22
686.73	4.68
686.87	0.00
687.01	53.83
687.14	7.02
687.28	0.00
687.42	7.02
687.55	21.06
687.69	0.00
687.82	0.00
687.96	53.83
688.10	0.00
688.23	44.47
688.37	60.85
688.50	0.00
688.64	63.19
688.78	124.05
688.91	0.00
689.05	72.56
689.18	0.00
689.32	14.04
689.46	0.00
689.59	42.13
689.73	35.11
689.86	2.34
690.00	0.00
690.13	7.02
690.27	23.41
690.41	53.83
690.54	14.04
690.68	23.41
690.81	14.04
690.95	51.49
691.08	0.00
691.22	0.00
691.35	11.70
691.49	11.70
691.62	9.36
691.76	0.00
691.89	39.79
692.03	9.36
692.16	79.58
692.30	0.00
692.43	65.54
692.57	74.90
692.70	23.41
692.84	65.54
692.97	86.60
693.11	0.00
693.24	28.09
693.38	0.00
693.51	44.47
693.65	32.77
693.78	7.02
693.92	35.11
694.05	0.00
694.19	65.54
694.32	30.43
694.45	0.00
694.59	0.00
694.72	51.49
694.86	14.04
694.99	67.88
695.13	70.22
695.26	44.47
695.39	9.36
695.53	0.00
695.66	119.37
695.80	28.09
695.93	23.41
696.07	23.41
696.20	2.34
696.33	11.70
696.47	0.00
696.60	0.00
696.73	0.00
696.87	0.00
697.00	0.00
697.14	0.00
697.27	4.68
697.40	7.02
697.54	77.24
697.67	67.88
697.80	60.85
697.94	79.58
698.07	49.15
698.21	60.85
698.34	9.36
698.47	0.00
698.61	0.00
698.74	35.11
698.87	23.41
699.01	37.45
699.14	7.02
699.27	42.13
699.40	98.30
699.54	70.22
699.67	102.98
699.80	14.04
699.94	0.00
700.07	0.00
700.20	14.04
700.34	32.77
700.47	0.00
700.60	18.72
700.73	23.41
700.87	30.43
701.00	86.60
701.13	28.09
701.26	21.06
701.40	0.00
701.53	0.00
701.66	49.15
701.79	0.00
701.93	51.49
702.06	42.13
702.19	39.79
702.32	0.00
702.46	0.00
702.59	14.04
702.72	53.83
702.85	77.24
702.99	14.04
703.12	28.09
703.25	16.38
703.38	30.43
703.51	16.38
703.65	77.24
703.78	23.41
703.91	86.60
704.04	0.00
704.17	56.17
704.31	16.38
704.44	79.58
704.57	9.36
704.70	18.72
704.83	37.45
704.96	11.70
705.10	18.72
705.23	25.75
>>>>>End Processed Spectral Data<<<<<
