SpectraSuite Data File
++++++++++++++++++++++++++++++++++++
Date: Fri Oct 04 12:13:30 GMT-05:00 2013
User: price-jones
Dark Spectrum Present: No
Reference Spectrum Present: No
Number of Sampled Component Spectra: 1
Spectrometers: USB2+H05261
Integration Time (usec): 10000 (USB2+H05261)
Spectra Averaged: 1 (USB2+H05261)
Boxcar Smoothing: 0 (USB2+H05261)
Correct for Electrical Dark: No (USB2+H05261)
Strobe/Lamp Enabled: No (USB2+H05261)
Correct for Detector Non-linearity: No (USB2+H05261)
Correct for Stray Light: No (USB2+H05261)
Number of Pixels in Processed Spectrum: 2048
>>>>>Begin Processed Spectral Data<<<<<
365.73	0.00
365.92	0.00
366.12	0.00
366.32	0.00
366.52	0.00
366.72	0.00
366.91	0.00
367.11	0.00
367.31	0.00
367.51	0.00
367.70	0.00
367.90	0.00
368.10	0.00
368.30	0.00
368.49	0.00
368.69	0.00
368.89	0.00
369.09	0.00
369.28	0.00
369.48	0.00
369.68	0.00
369.87	0.00
370.07	0.00
370.27	0.00
370.47	0.00
370.66	0.00
370.86	0.00
371.06	9.36
371.25	37.45
371.45	28.09
371.65	9.36
371.84	0.00
372.04	0.00
372.24	0.00
372.44	0.00
372.63	46.81
372.83	21.06
373.03	25.75
373.22	0.00
373.42	65.54
373.62	23.41
373.81	7.02
374.01	39.79
374.21	70.22
374.40	60.85
374.60	18.72
374.79	91.28
374.99	67.88
375.19	51.49
375.38	9.36
375.58	0.00
375.78	51.49
375.97	60.85
376.17	42.13
376.37	28.09
376.56	42.13
376.76	49.15
376.95	49.15
377.15	65.54
377.35	4.68
377.54	37.45
377.74	42.13
377.93	35.11
378.13	42.13
378.33	7.02
378.52	46.81
378.72	46.81
378.91	30.43
379.11	0.00
379.31	0.00
379.50	14.04
379.70	0.00
379.89	44.47
380.09	21.06
380.28	0.00
380.48	0.00
380.68	63.19
380.87	35.11
381.07	21.06
381.26	81.92
381.46	0.00
381.65	0.00
381.85	0.00
382.04	0.00
382.24	63.19
382.43	0.00
382.63	0.00
382.83	51.49
383.02	49.15
383.22	23.41
383.41	65.54
383.61	72.56
383.80	37.45
384.00	77.24
384.19	42.13
384.39	70.22
384.58	42.13
384.78	44.47
384.97	30.43
385.17	4.68
385.36	65.54
385.56	14.04
385.75	7.02
385.95	16.38
386.14	39.79
386.34	51.49
386.53	0.00
386.72	0.00
386.92	0.00
387.11	2.34
387.31	11.70
387.50	30.43
387.70	95.96
387.89	53.83
388.09	0.00
388.28	0.00
388.48	58.51
388.67	0.00
388.86	21.06
389.06	46.81
389.25	0.00
389.45	28.09
389.64	0.00
389.84	0.00
390.03	2.34
390.22	0.00
390.42	14.04
390.61	0.00
390.81	44.47
391.00	51.49
391.19	0.00
391.39	32.77
391.58	28.09
391.78	0.00
391.97	56.17
392.16	0.00
392.36	0.00
392.55	28.09
392.75	14.04
392.94	65.54
393.13	63.19
393.33	4.68
393.52	60.85
393.71	28.09
393.91	46.81
394.10	0.00
394.29	0.00
394.49	0.00
394.68	0.00
394.88	23.41
395.07	58.51
395.26	44.47
395.46	44.47
395.65	86.60
395.84	7.02
396.04	35.11
396.23	0.00
396.42	0.00
396.62	42.13
396.81	37.45
397.00	46.81
397.19	0.00
397.39	18.72
397.58	23.41
397.77	0.00
397.97	51.49
398.16	9.36
398.35	0.00
398.55	37.45
398.74	18.72
398.93	0.00
399.12	35.11
399.32	112.35
399.51	0.00
399.70	21.06
399.90	30.43
400.09	16.38
400.28	0.00
400.47	0.00
400.67	42.13
400.86	65.54
401.05	0.00
401.24	0.00
401.44	46.81
401.63	58.51
401.82	60.85
402.01	14.04
402.21	0.00
402.40	49.15
402.59	32.77
402.78	0.00
402.97	0.00
403.17	67.88
403.36	16.38
403.55	0.00
403.74	32.77
403.93	0.00
404.13	0.00
404.32	0.00
404.51	58.51
404.70	145.11
404.89	0.00
405.09	21.06
405.28	14.04
405.47	21.06
405.66	30.43
405.85	0.00
406.05	58.51
406.24	39.79
406.43	0.00
406.62	44.47
406.81	0.00
407.00	0.00
407.20	63.19
407.39	63.19
407.58	84.26
407.77	60.85
407.96	74.90
408.15	51.49
408.34	39.79
408.54	18.72
408.73	0.00
408.92	9.36
409.11	30.43
409.30	42.13
409.49	18.72
409.68	102.98
409.87	58.51
410.07	0.00
410.26	7.02
410.45	53.83
410.64	14.04
410.83	25.75
411.02	0.00
411.21	72.56
411.40	39.79
411.59	0.00
411.78	21.06
411.98	44.47
412.17	23.41
412.36	0.00
412.55	4.68
412.74	91.28
412.93	84.26
413.12	60.85
413.31	16.38
413.50	4.68
413.69	14.04
413.88	65.54
414.07	56.17
414.26	95.96
414.45	0.00
414.64	30.43
414.83	2.34
415.02	0.00
415.22	0.00
415.41	37.45
415.60	86.60
415.79	53.83
415.98	14.04
416.17	39.79
416.36	86.60
416.55	0.00
416.74	39.79
416.93	23.41
417.12	58.51
417.31	0.00
417.50	16.38
417.69	18.72
417.88	42.13
418.07	67.88
418.26	35.11
418.45	0.00
418.64	21.06
418.83	0.00
419.02	77.24
419.21	18.72
419.39	44.47
419.58	0.00
419.77	49.15
419.96	0.00
420.15	16.38
420.34	7.02
420.53	56.17
420.72	35.11
420.91	16.38
421.10	28.09
421.29	0.00
421.48	28.09
421.67	0.00
421.86	65.54
422.05	2.34
422.24	98.30
422.43	65.54
422.61	0.00
422.80	49.15
422.99	58.51
423.18	0.00
423.37	18.72
423.56	0.00
423.75	79.58
423.94	0.00
424.13	32.77
424.32	46.81
424.50	39.79
424.69	58.51
424.88	7.02
425.07	25.75
425.26	21.06
425.45	84.26
425.64	88.94
425.83	46.81
426.01	77.24
426.20	21.06
426.39	14.04
426.58	0.00
426.77	42.13
426.96	37.45
427.15	49.15
427.33	58.51
427.52	42.13
427.71	0.00
427.90	2.34
428.09	32.77
428.28	0.00
428.46	32.77
428.65	44.47
428.84	0.00
429.03	42.13
429.22	7.02
429.40	0.00
429.59	0.00
429.78	77.24
429.97	51.49
430.16	77.24
430.34	0.00
430.53	110.01
430.72	0.00
430.91	0.00
431.10	44.47
431.28	21.06
431.47	0.00
431.66	0.00
431.85	4.68
432.03	32.77
432.22	0.00
432.41	7.02
432.60	32.77
432.79	74.90
432.97	77.24
433.16	37.45
433.35	23.41
433.54	9.36
433.72	65.54
433.91	124.05
434.10	0.00
434.28	67.88
434.47	0.00
434.66	77.24
434.85	112.35
435.03	35.11
435.22	110.01
435.41	91.28
435.59	35.11
435.78	0.00
435.97	11.70
436.16	11.70
436.34	30.43
436.53	28.09
436.72	0.00
436.90	44.47
437.09	7.02
437.28	2.34
437.46	44.47
437.65	51.49
437.84	44.47
438.02	28.09
438.21	65.54
438.40	67.88
438.58	0.00
438.77	32.77
438.96	25.75
439.14	46.81
439.33	65.54
439.52	0.00
439.70	18.72
439.89	65.54
440.08	91.28
440.26	51.49
440.45	11.70
440.63	88.94
440.82	53.83
441.01	60.85
441.19	58.51
441.38	32.77
441.57	46.81
441.75	56.17
441.94	28.09
442.12	14.04
442.31	9.36
442.50	84.26
442.68	39.79
442.87	60.85
443.05	65.54
443.24	9.36
443.43	74.90
443.61	60.85
443.80	70.22
443.98	74.90
444.17	53.83
444.35	0.00
444.54	7.02
444.73	35.11
444.91	32.77
445.10	91.28
445.28	30.43
445.47	53.83
445.65	11.70
445.84	42.13
446.02	18.72
446.21	0.00
446.39	81.92
446.58	65.54
446.77	42.13
446.95	9.36
447.14	49.15
447.32	25.75
447.51	100.64
447.69	39.79
447.88	21.06
448.06	23.41
448.25	28.09
448.43	0.00
448.62	56.17
448.80	0.00
448.99	77.24
449.17	70.22
449.36	86.60
449.54	60.85
449.73	0.00
449.91	72.56
450.10	30.43
450.28	58.51
450.46	16.38
450.65	32.77
450.83	46.81
451.02	21.06
451.20	0.00
451.39	107.66
451.57	49.15
451.76	0.00
451.94	49.15
452.13	0.00
452.31	0.00
452.49	49.15
452.68	11.70
452.86	51.49
453.05	28.09
453.23	11.70
453.42	70.22
453.60	11.70
453.78	30.43
453.97	9.36
454.15	95.96
454.34	21.06
454.52	0.00
454.70	4.68
454.89	63.19
455.07	107.66
455.26	98.30
455.44	35.11
455.62	0.00
455.81	102.98
455.99	49.15
456.17	16.38
456.36	0.00
456.54	2.34
456.73	67.88
456.91	65.54
457.09	88.94
457.28	117.03
457.46	21.06
457.64	72.56
457.83	4.68
458.01	23.41
458.19	86.60
458.38	0.00
458.56	28.09
458.74	67.88
458.93	0.00
459.11	11.70
459.29	0.00
459.48	25.75
459.66	0.00
459.84	0.00
460.03	72.56
460.21	51.49
460.39	51.49
460.57	0.00
460.76	18.72
460.94	0.00
461.12	81.92
461.31	58.51
461.49	9.36
461.67	56.17
461.85	56.17
462.04	53.83
462.22	39.79
462.40	42.13
462.59	70.22
462.77	77.24
462.95	72.56
463.13	4.68
463.32	46.81
463.50	37.45
463.68	58.51
463.86	30.43
464.05	21.06
464.23	53.83
464.41	2.34
464.59	0.00
464.78	0.00
464.96	56.17
465.14	39.79
465.32	88.94
465.50	77.24
465.69	88.94
465.87	4.68
466.05	65.54
466.23	21.06
466.41	53.83
466.60	58.51
466.78	84.26
466.96	95.96
467.14	98.30
467.32	0.00
467.51	11.70
467.69	0.00
467.87	74.90
468.05	0.00
468.23	58.51
468.41	84.26
468.60	37.45
468.78	95.96
468.96	42.13
469.14	28.09
469.32	0.00
469.50	56.17
469.69	56.17
469.87	28.09
470.05	65.54
470.23	0.00
470.41	35.11
470.59	0.00
470.77	37.45
470.95	0.00
471.14	23.41
471.32	0.00
471.50	16.38
471.68	77.24
471.86	2.34
472.04	44.47
472.22	28.09
472.40	0.00
472.58	4.68
472.77	0.00
472.95	0.00
473.13	63.19
473.31	77.24
473.49	79.58
473.67	28.09
473.85	0.00
474.03	30.43
474.21	4.68
474.39	14.04
474.57	107.66
474.75	37.45
474.93	25.75
475.12	42.13
475.30	0.00
475.48	21.06
475.66	32.77
475.84	49.15
476.02	63.19
476.20	65.54
476.38	44.47
476.56	32.77
476.74	93.62
476.92	25.75
477.10	25.75
477.28	0.00
477.46	72.56
477.64	42.13
477.82	30.43
478.00	4.68
478.18	37.45
478.36	11.70
478.54	18.72
478.72	77.24
478.90	84.26
479.08	65.54
479.26	0.00
479.44	0.00
479.62	46.81
479.80	0.00
479.98	35.11
480.16	98.30
480.34	51.49
480.52	4.68
480.70	44.47
480.88	88.94
481.06	18.72
481.24	46.81
481.41	77.24
481.59	124.05
481.77	112.35
481.95	46.81
482.13	30.43
482.31	32.77
482.49	42.13
482.67	93.62
482.85	56.17
483.03	0.00
483.21	2.34
483.39	110.01
483.57	37.45
483.74	28.09
483.92	4.68
484.10	58.51
484.28	0.00
484.46	91.28
484.64	56.17
484.82	63.19
485.00	7.02
485.18	81.92
485.35	79.58
485.53	63.19
485.71	93.62
485.89	11.70
486.07	28.09
486.25	65.54
486.43	35.11
486.61	65.54
486.78	0.00
486.96	42.13
487.14	124.05
487.32	56.17
487.50	51.49
487.68	81.92
487.85	11.70
488.03	67.88
488.21	105.32
488.39	63.19
488.57	46.81
488.75	4.68
488.92	100.64
489.10	35.11
489.28	100.64
489.46	0.00
489.64	81.92
489.81	32.77
489.99	110.01
490.17	0.00
490.35	14.04
490.53	65.54
490.70	72.56
490.88	0.00
491.06	0.00
491.24	79.58
491.41	53.83
491.59	77.24
491.77	25.75
491.95	44.47
492.13	84.26
492.30	30.43
492.48	56.17
492.66	77.24
492.84	51.49
493.01	21.06
493.19	25.75
493.37	42.13
493.54	117.03
493.72	93.62
493.90	51.49
494.08	2.34
494.25	105.32
494.43	42.13
494.61	72.56
494.79	70.22
494.96	42.13
495.14	121.71
495.32	58.51
495.49	70.22
495.67	9.36
495.85	58.51
496.02	81.92
496.20	49.15
496.38	14.04
496.55	58.51
496.73	77.24
496.91	84.26
497.09	0.00
497.26	23.41
497.44	70.22
497.62	42.13
497.79	16.38
497.97	18.72
498.14	67.88
498.32	11.70
498.50	18.72
498.67	0.00
498.85	2.34
499.03	72.56
499.20	81.92
499.38	72.56
499.56	37.45
499.73	58.51
499.91	53.83
500.08	28.09
500.26	0.00
500.44	49.15
500.61	0.00
500.79	102.98
500.97	44.47
501.14	28.09
501.32	21.06
501.49	0.00
501.67	0.00
501.84	9.36
502.02	37.45
502.20	9.36
502.37	84.26
502.55	32.77
502.72	28.09
502.90	14.04
503.07	0.00
503.25	0.00
503.43	56.17
503.60	56.17
503.78	0.00
503.95	84.26
504.13	88.94
504.30	23.41
504.48	11.70
504.65	49.15
504.83	93.62
505.01	67.88
505.18	35.11
505.36	0.00
505.53	16.38
505.71	11.70
505.88	4.68
506.06	0.00
506.23	0.00
506.41	35.11
506.58	32.77
506.76	16.38
506.93	0.00
507.11	0.00
507.28	23.41
507.46	0.00
507.63	0.00
507.81	42.13
507.98	86.60
508.16	16.38
508.33	32.77
508.50	0.00
508.68	39.79
508.85	28.09
509.03	18.72
509.20	0.00
509.38	128.73
509.55	30.43
509.73	28.09
509.90	119.37
510.08	63.19
510.25	42.13
510.42	0.00
510.60	0.00
510.77	37.45
510.95	53.83
511.12	51.49
511.30	2.34
511.47	0.00
511.64	110.01
511.82	42.13
511.99	67.88
512.17	0.00
512.34	46.81
512.51	7.02
512.69	37.45
512.86	67.88
513.04	51.49
513.21	0.00
513.38	102.98
513.56	44.47
513.73	11.70
513.90	14.04
514.08	124.05
514.25	37.45
514.43	56.17
514.60	102.98
514.77	100.64
514.95	58.51
515.12	39.79
515.29	51.49
515.47	0.00
515.64	35.11
515.81	46.81
515.99	44.47
516.16	100.64
516.33	30.43
516.51	35.11
516.68	21.06
516.85	16.38
517.03	79.58
517.20	0.00
517.37	35.11
517.54	63.19
517.72	32.77
517.89	0.00
518.06	86.60
518.24	58.51
518.41	32.77
518.58	9.36
518.75	21.06
518.93	100.64
519.10	39.79
519.27	98.30
519.45	39.79
519.62	7.02
519.79	79.58
519.96	39.79
520.14	81.92
520.31	51.49
520.48	91.28
520.65	93.62
520.83	70.22
521.00	35.11
521.17	0.00
521.34	67.88
521.52	32.77
521.69	0.00
521.86	0.00
522.03	44.47
522.20	51.49
522.38	11.70
522.55	32.77
522.72	72.56
522.89	30.43
523.07	18.72
523.24	21.06
523.41	58.51
523.58	0.00
523.75	7.02
523.92	18.72
524.10	77.24
524.27	37.45
524.44	28.09
524.61	56.17
524.78	4.68
524.96	28.09
525.13	63.19
525.30	9.36
525.47	58.51
525.64	79.58
525.81	23.41
525.98	18.72
526.16	9.36
526.33	0.00
526.50	49.15
526.67	51.49
526.84	49.15
527.01	58.51
527.18	72.56
527.36	58.51
527.53	53.83
527.70	72.56
527.87	28.09
528.04	42.13
528.21	0.00
528.38	4.68
528.55	161.50
528.72	70.22
528.89	84.26
529.07	7.02
529.24	72.56
529.41	65.54
529.58	35.11
529.75	23.41
529.92	35.11
530.09	44.47
530.26	39.79
530.43	84.26
530.60	142.77
530.77	107.66
530.94	0.00
531.11	4.68
531.28	2.34
531.46	37.45
531.63	100.64
531.80	79.58
531.97	53.83
532.14	37.45
532.31	37.45
532.48	21.06
532.65	28.09
532.82	60.85
532.99	147.45
533.16	135.75
533.33	81.92
533.50	39.79
533.67	117.03
533.84	37.45
534.01	0.00
534.18	28.09
534.35	74.90
534.52	44.47
534.69	56.17
534.86	95.96
535.03	74.90
535.20	49.15
535.37	25.75
535.54	74.90
535.71	86.60
535.88	70.22
536.05	21.06
536.22	93.62
536.38	72.56
536.55	49.15
536.72	86.60
536.89	77.24
537.06	77.24
537.23	23.41
537.40	77.24
537.57	46.81
537.74	72.56
537.91	30.43
538.08	25.75
538.25	0.00
538.42	58.51
538.59	28.09
538.75	9.36
538.92	16.38
539.09	72.56
539.26	0.00
539.43	14.04
539.60	121.71
539.77	84.26
539.94	95.96
540.11	63.19
540.28	42.13
540.44	39.79
540.61	49.15
540.78	42.13
540.95	58.51
541.12	65.54
541.29	16.38
541.46	16.38
541.62	23.41
541.79	9.36
541.96	107.66
542.13	93.62
542.30	60.85
542.47	4.68
542.63	9.36
542.80	39.79
542.97	77.24
543.14	35.11
543.31	39.79
543.48	0.00
543.64	70.22
543.81	7.02
543.98	32.77
544.15	35.11
544.32	21.06
544.48	58.51
544.65	65.54
544.82	100.64
544.99	74.90
545.16	16.38
545.32	65.54
545.49	44.47
545.66	63.19
545.83	0.00
546.00	11.70
546.16	37.45
546.33	0.00
546.50	53.83
546.67	65.54
546.83	30.43
547.00	53.83
547.17	74.90
547.34	51.49
547.50	37.45
547.67	0.00
547.84	53.83
548.00	63.19
548.17	51.49
548.34	23.41
548.51	35.11
548.67	98.30
548.84	4.68
549.01	0.00
549.18	0.00
549.34	42.13
549.51	23.41
549.68	44.47
549.84	44.47
550.01	2.34
550.18	79.58
550.34	72.56
550.51	67.88
550.68	51.49
550.84	86.60
551.01	37.45
551.18	23.41
551.34	56.17
551.51	121.71
551.68	49.15
551.84	105.32
552.01	35.11
552.18	21.06
552.34	0.00
552.51	23.41
552.68	49.15
552.84	63.19
553.01	49.15
553.18	0.00
553.34	98.30
553.51	63.19
553.67	16.38
553.84	53.83
554.01	9.36
554.17	72.56
554.34	0.00
554.51	70.22
554.67	72.56
554.84	0.00
555.00	42.13
555.17	95.96
555.33	14.04
555.50	49.15
555.67	0.00
555.83	2.34
556.00	46.81
556.16	0.00
556.33	65.54
556.50	0.00
556.66	51.49
556.83	23.41
556.99	23.41
557.16	23.41
557.32	18.72
557.49	51.49
557.65	9.36
557.82	0.00
557.98	7.02
558.15	53.83
558.32	42.13
558.48	42.13
558.65	25.75
558.81	46.81
558.98	30.43
559.14	21.06
559.31	28.09
559.47	51.49
559.64	35.11
559.80	51.49
559.97	124.05
560.13	30.43
560.30	14.04
560.46	11.70
560.63	39.79
560.79	0.00
560.96	30.43
561.12	37.45
561.29	114.69
561.45	16.38
561.61	18.72
561.78	0.00
561.94	44.47
562.11	25.75
562.27	67.88
562.44	77.24
562.60	44.47
562.77	51.49
562.93	53.83
563.10	0.00
563.26	21.06
563.42	18.72
563.59	21.06
563.75	60.85
563.92	0.00
564.08	30.43
564.24	74.90
564.41	77.24
564.57	46.81
564.74	67.88
564.90	114.69
565.07	74.90
565.23	37.45
565.39	112.35
565.56	77.24
565.72	21.06
565.88	67.88
566.05	37.45
566.21	37.45
566.38	21.06
566.54	49.15
566.70	44.47
566.87	100.64
567.03	74.90
567.19	16.38
567.36	65.54
567.52	0.00
567.68	23.41
567.85	46.81
568.01	28.09
568.17	44.47
568.34	79.58
568.50	42.13
568.66	25.75
568.83	81.92
568.99	30.43
569.15	18.72
569.32	25.75
569.48	102.98
569.64	44.47
569.81	35.11
569.97	0.00
570.13	16.38
570.30	44.47
570.46	102.98
570.62	98.30
570.78	30.43
570.95	98.30
571.11	84.26
571.27	67.88
571.43	0.00
571.60	88.94
571.76	81.92
571.92	44.47
572.09	65.54
572.25	126.39
572.41	42.13
572.57	86.60
572.74	91.28
572.90	46.81
573.06	39.79
573.22	100.64
573.38	14.04
573.55	84.26
573.71	56.17
573.87	0.00
574.03	49.15
574.20	35.11
574.36	0.00
574.52	37.45
574.68	84.26
574.84	39.79
575.01	21.06
575.17	0.00
575.33	0.00
575.49	37.45
575.65	23.41
575.82	16.38
575.98	86.60
576.14	63.19
576.30	51.49
576.46	67.88
576.62	53.83
576.79	56.17
576.95	18.72
577.11	65.54
577.27	30.43
577.43	16.38
577.59	0.00
577.75	67.88
577.92	28.09
578.08	16.38
578.24	49.15
578.40	25.75
578.56	4.68
578.72	53.83
578.88	84.26
579.04	51.49
579.21	65.54
579.37	37.45
579.53	42.13
579.69	23.41
579.85	110.01
580.01	88.94
580.17	86.60
580.33	53.83
580.49	53.83
580.65	58.51
580.82	46.81
580.98	77.24
581.14	72.56
581.30	53.83
581.46	46.81
581.62	4.68
581.78	88.94
581.94	72.56
582.10	53.83
582.26	60.85
582.42	72.56
582.58	60.85
582.74	93.62
582.90	67.88
583.06	58.51
583.22	0.00
583.38	110.01
583.54	0.00
583.70	93.62
583.86	32.77
584.02	35.11
584.18	39.79
584.34	28.09
584.50	149.79
584.66	774.72
584.82	1792.85
584.98	2354.58
585.14	1973.07
585.30	1338.79
585.46	765.36
585.62	503.22
585.78	259.80
585.94	177.88
586.10	112.35
586.26	65.54
586.42	53.83
586.58	7.02
586.74	23.41
586.90	98.30
587.06	18.72
587.22	79.58
587.38	63.19
587.54	77.24
587.70	163.84
587.86	142.77
588.02	227.03
588.18	119.37
588.34	105.32
588.49	63.19
588.65	21.06
588.81	49.15
588.97	0.00
589.13	23.41
589.29	44.47
589.45	100.64
589.61	49.15
589.77	0.00
589.93	25.75
590.08	91.28
590.24	0.00
590.40	44.47
590.56	110.01
590.72	23.41
590.88	32.77
591.04	53.83
591.20	72.56
591.35	0.00
591.51	0.00
591.67	67.88
591.83	35.11
591.99	91.28
592.15	28.09
592.31	11.70
592.46	23.41
592.62	23.41
592.78	0.00
592.94	51.49
593.10	74.90
593.26	0.00
593.41	37.45
593.57	0.00
593.73	0.00
593.89	170.86
594.05	196.60
594.20	344.06
594.36	351.08
594.52	227.03
594.68	128.73
594.84	121.71
594.99	53.83
595.15	98.30
595.31	4.68
595.47	51.49
595.62	21.06
595.78	63.19
595.94	9.36
596.10	84.26
596.25	0.00
596.41	49.15
596.57	21.06
596.73	32.77
596.88	133.41
597.04	42.13
597.20	91.28
597.36	114.69
597.51	35.11
597.67	11.70
597.83	95.96
597.99	44.47
598.14	72.56
598.30	21.06
598.46	51.49
598.61	67.88
598.77	42.13
598.93	60.85
599.09	39.79
599.24	18.72
599.40	0.00
599.56	35.11
599.71	0.00
599.87	88.94
600.03	53.83
600.18	81.92
600.34	25.75
600.50	56.17
600.65	58.51
600.81	84.26
600.97	79.58
601.12	93.62
601.28	39.79
601.44	72.56
601.59	117.03
601.75	21.06
601.91	0.00
602.06	67.88
602.22	79.58
602.37	42.13
602.53	70.22
602.69	65.54
602.84	135.75
603.00	11.70
603.16	128.73
603.31	93.62
603.47	56.17
603.62	77.24
603.78	2.34
603.94	60.85
604.09	44.47
604.25	30.43
604.40	49.15
604.56	42.13
604.71	131.07
604.87	0.00
605.03	25.75
605.18	77.24
605.34	65.54
605.49	58.51
605.65	0.00
605.80	11.70
605.96	56.17
606.12	49.15
606.27	77.24
606.43	18.72
606.58	51.49
606.74	49.15
606.89	184.90
607.05	210.65
607.20	280.86
607.36	180.22
607.51	149.79
607.67	156.82
607.82	91.28
607.98	128.73
608.13	51.49
608.29	65.54
608.44	0.00
608.60	14.04
608.75	56.17
608.91	88.94
609.06	184.90
609.22	456.40
609.37	447.04
609.53	442.36
609.68	163.84
609.84	280.86
609.99	149.79
610.15	91.28
610.30	114.69
610.46	0.00
610.61	102.98
610.76	63.19
610.92	81.92
611.07	23.41
611.23	14.04
611.38	63.19
611.54	65.54
611.69	51.49
611.84	42.13
612.00	81.92
612.15	119.37
612.31	88.94
612.46	35.11
612.62	74.90
612.77	138.09
612.92	53.83
613.08	0.00
613.23	65.54
613.39	35.11
613.54	49.15
613.69	196.60
613.85	493.85
614.00	650.67
614.15	725.57
614.31	496.19
614.46	308.95
614.62	227.03
614.77	152.13
614.92	72.56
615.08	56.17
615.23	23.41
615.38	131.07
615.54	72.56
615.69	32.77
615.84	170.86
616.00	245.76
616.15	210.65
616.30	147.45
616.46	117.03
616.61	56.17
616.76	18.72
616.92	30.43
617.07	0.00
617.22	44.47
617.37	67.88
617.53	4.68
617.68	0.00
617.83	46.81
617.99	0.00
618.14	0.00
618.29	39.79
618.45	0.00
618.60	21.06
618.75	56.17
618.90	42.13
619.06	0.00
619.21	53.83
619.36	53.83
619.51	21.06
619.67	65.54
619.82	7.02
619.97	74.90
620.12	0.00
620.28	0.00
620.43	21.06
620.58	0.00
620.73	14.04
620.89	39.79
621.04	98.30
621.19	49.15
621.34	145.11
621.49	102.98
621.65	60.85
621.80	112.35
621.95	42.13
622.10	58.51
622.25	35.11
622.41	0.00
622.56	53.83
622.71	95.96
622.86	42.13
623.01	0.00
623.16	0.00
623.32	2.34
623.47	42.13
623.62	7.02
623.77	65.54
623.92	28.09
624.07	70.22
624.23	149.79
624.38	110.01
624.53	100.64
624.68	14.04
624.83	67.88
624.98	4.68
625.13	4.68
625.29	30.43
625.44	79.58
625.59	37.45
625.74	56.17
625.89	67.88
626.04	163.84
626.19	257.46
626.34	449.38
626.49	428.32
626.65	290.23
626.80	315.97
626.95	173.20
627.10	67.88
627.25	100.64
627.40	95.96
627.55	77.24
627.70	49.15
627.85	35.11
628.00	56.17
628.15	0.00
628.30	23.41
628.45	7.02
628.60	37.45
628.76	9.36
628.91	14.04
629.06	0.00
629.21	35.11
629.36	28.09
629.51	18.72
629.66	39.79
629.81	0.00
629.96	86.60
630.11	110.01
630.26	102.98
630.41	98.30
630.56	81.92
630.71	56.17
630.86	72.56
631.01	37.45
631.16	0.00
631.31	67.88
631.46	0.00
631.61	84.26
631.76	14.04
631.91	32.77
632.06	53.83
632.21	63.19
632.36	56.17
632.51	23.41
632.66	7.02
632.81	49.15
632.96	203.63
633.10	273.84
633.25	301.93
633.40	238.73
633.55	205.97
633.70	117.03
633.85	105.32
634.00	65.54
634.15	16.38
634.30	0.00
634.45	60.85
634.60	0.00
634.75	32.77
634.90	72.56
635.05	44.47
635.19	11.70
635.34	56.17
635.49	79.58
635.64	79.58
635.79	37.45
635.94	4.68
636.09	65.54
636.24	30.43
636.39	25.75
636.53	53.83
636.68	79.58
636.83	93.62
636.98	74.90
637.13	70.22
637.28	70.22
637.43	86.60
637.57	88.94
637.72	133.41
637.87	318.31
638.02	470.45
638.17	465.77
638.32	430.66
638.46	304.27
638.61	220.01
638.76	149.79
638.91	107.66
639.06	95.96
639.20	60.85
639.35	60.85
639.50	39.79
639.65	184.90
639.80	470.45
639.94	706.84
640.09	676.41
640.24	580.45
640.39	444.70
640.54	259.80
640.68	191.92
640.83	163.84
640.98	28.09
641.13	37.45
641.27	7.02
641.42	74.90
641.57	112.35
641.72	11.70
641.86	98.30
642.01	70.22
642.16	0.00
642.31	72.56
642.45	32.77
642.60	0.00
642.75	70.22
642.90	0.00
643.04	65.54
643.19	63.19
643.34	11.70
643.48	35.11
643.63	46.81
643.78	16.38
643.93	30.43
644.07	95.96
644.22	0.00
644.37	95.96
644.51	23.41
644.66	37.45
644.81	63.19
644.95	39.79
645.10	0.00
645.25	49.15
645.39	30.43
645.54	9.36
645.69	46.81
645.83	58.51
645.98	49.15
646.13	65.54
646.27	56.17
646.42	114.69
646.57	16.38
646.71	0.00
646.86	16.38
647.00	32.77
647.15	79.58
647.30	49.15
647.44	23.41
647.59	77.24
647.74	21.06
647.88	0.00
648.03	49.15
648.17	49.15
648.32	28.09
648.47	0.00
648.61	46.81
648.76	11.70
648.90	53.83
649.05	0.00
649.20	21.06
649.34	65.54
649.49	60.85
649.63	23.41
649.78	28.09
649.92	42.13
650.07	163.84
650.21	191.92
650.36	327.68
650.51	423.64
650.65	344.06
650.80	252.78
650.94	159.16
651.09	112.35
651.23	77.24
651.38	23.41
651.52	63.19
651.67	4.68
651.81	21.06
651.96	30.43
652.10	0.00
652.25	95.96
652.39	18.72
652.54	53.83
652.68	67.88
652.83	74.90
652.97	117.03
653.12	154.48
653.26	191.92
653.41	56.17
653.55	121.71
653.70	25.75
653.84	114.69
653.99	7.02
654.13	0.00
654.27	18.72
654.42	32.77
654.56	53.83
654.71	0.00
654.85	18.72
655.00	35.11
655.14	70.22
655.29	0.00
655.43	0.00
655.57	7.02
655.72	65.54
655.86	88.94
656.01	46.81
656.15	0.00
656.30	58.51
656.44	95.96
656.58	49.15
656.73	35.11
656.87	7.02
657.01	84.26
657.16	11.70
657.30	81.92
657.45	0.00
657.59	91.28
657.73	0.00
657.88	18.72
658.02	84.26
658.16	25.75
658.31	67.88
658.45	72.56
658.60	18.72
658.74	0.00
658.88	37.45
659.03	46.81
659.17	30.43
659.31	60.85
659.46	133.41
659.60	156.82
659.74	262.14
659.89	145.11
660.03	117.03
660.17	126.39
660.32	91.28
660.46	53.83
660.60	11.70
660.74	4.68
660.89	51.49
661.03	14.04
661.17	72.56
661.32	0.00
661.46	46.81
661.60	0.00
661.74	44.47
661.89	18.72
662.03	124.05
662.17	28.09
662.31	23.41
662.46	0.00
662.60	44.47
662.74	56.17
662.88	53.83
663.03	74.90
663.17	44.47
663.31	72.56
663.45	30.43
663.60	65.54
663.74	0.00
663.88	42.13
664.02	37.45
664.17	0.00
664.31	0.00
664.45	16.38
664.59	44.47
664.73	0.00
664.88	30.43
665.02	67.88
665.16	0.00
665.30	25.75
665.44	56.17
665.59	70.22
665.73	11.70
665.87	51.49
666.01	63.19
666.15	58.51
666.29	28.09
666.44	0.00
666.58	39.79
666.72	21.06
666.86	23.41
667.00	0.00
667.14	28.09
667.28	105.32
667.43	234.05
667.57	273.84
667.71	290.23
667.85	290.23
667.99	212.99
668.13	248.10
668.27	117.03
668.41	25.75
668.56	114.69
668.70	0.00
668.84	56.17
668.98	60.85
669.12	37.45
669.26	28.09
669.40	105.32
669.54	42.13
669.68	37.45
669.82	46.81
669.96	25.75
670.10	51.49
670.25	49.15
670.39	25.75
670.53	98.30
670.67	67.88
670.81	18.72
670.95	0.00
671.09	63.19
671.23	112.35
671.37	138.09
671.51	205.97
671.65	205.97
671.79	189.58
671.93	147.45
672.07	72.56
672.21	95.96
672.35	81.92
672.49	51.49
672.63	102.98
672.77	81.92
672.91	37.45
673.05	72.56
673.19	37.45
673.33	0.00
673.47	67.88
673.61	21.06
673.75	37.45
673.89	32.77
674.03	49.15
674.17	51.49
674.31	18.72
674.45	60.85
674.59	37.45
674.73	0.00
674.87	100.64
675.01	84.26
675.15	77.24
675.29	72.56
675.43	74.90
675.56	72.56
675.70	53.83
675.84	91.28
675.98	35.11
676.12	60.85
676.26	117.03
676.40	79.58
676.54	21.06
676.68	23.41
676.82	67.88
676.96	30.43
677.10	4.68
677.23	0.00
677.37	9.36
677.51	65.54
677.65	102.98
677.79	49.15
677.93	56.17
678.07	0.00
678.21	7.02
678.34	0.00
678.48	4.68
678.62	0.00
678.76	30.43
678.90	95.96
679.04	0.00
679.18	2.34
679.31	30.43
679.45	65.54
679.59	79.58
679.73	9.36
679.87	56.17
680.00	49.15
680.14	16.38
680.28	9.36
680.42	51.49
680.56	72.56
680.70	0.00
680.83	81.92
680.97	63.19
681.11	72.56
681.25	51.49
681.39	0.00
681.52	35.11
681.66	30.43
681.80	63.19
681.94	32.77
682.07	91.28
682.21	65.54
682.35	9.36
682.49	37.45
682.62	2.34
682.76	32.77
682.90	32.77
683.04	9.36
683.17	39.79
683.31	0.00
683.45	35.11
683.59	42.13
683.72	23.41
683.86	2.34
684.00	21.06
684.13	39.79
684.27	23.41
684.41	46.81
684.55	0.00
684.68	0.00
684.82	16.38
684.96	18.72
685.09	60.85
685.23	18.72
685.37	74.90
685.50	0.00
685.64	9.36
685.78	16.38
685.91	39.79
686.05	30.43
686.19	58.51
686.32	58.51
686.46	70.22
686.60	42.13
686.73	93.62
686.87	65.54
687.01	0.00
687.14	2.34
687.28	42.13
687.42	30.43
687.55	72.56
687.69	46.81
687.82	32.77
687.96	30.43
688.10	60.85
688.23	14.04
688.37	32.77
688.50	4.68
688.64	65.54
688.78	35.11
688.91	100.64
689.05	0.00
689.18	18.72
689.32	105.32
689.46	53.83
689.59	16.38
689.73	30.43
689.86	16.38
690.00	11.70
690.13	56.17
690.27	0.00
690.41	0.00
690.54	25.75
690.68	32.77
690.81	35.11
690.95	49.15
691.08	4.68
691.22	42.13
691.35	0.00
691.49	0.00
691.62	0.00
691.76	0.00
691.89	28.09
692.03	32.77
692.16	30.43
692.30	39.79
692.43	14.04
692.57	114.69
692.70	114.69
692.84	236.39
692.97	105.32
693.11	74.90
693.24	67.88
693.38	81.92
693.51	121.71
693.65	39.79
693.78	77.24
693.92	84.26
694.05	18.72
694.19	56.17
694.32	51.49
694.45	30.43
694.59	4.68
694.72	44.47
694.86	30.43
694.99	100.64
695.13	42.13
695.26	11.70
695.39	0.00
695.53	32.77
695.66	0.00
695.80	72.56
695.93	60.85
696.07	11.70
696.20	67.88
696.33	56.17
696.47	67.88
696.60	0.00
696.73	56.17
696.87	0.00
697.00	53.83
697.14	4.68
697.27	0.00
697.40	72.56
697.54	42.13
697.67	7.02
697.80	42.13
697.94	53.83
698.07	28.09
698.21	11.70
698.34	11.70
698.47	11.70
698.61	117.03
698.74	23.41
698.87	0.00
699.01	37.45
699.14	18.72
699.27	42.13
699.40	51.49
699.54	49.15
699.67	0.00
699.80	70.22
699.94	63.19
700.07	32.77
700.20	30.43
700.34	42.13
700.47	21.06
700.60	23.41
700.73	0.00
700.87	25.75
701.00	46.81
701.13	0.00
701.26	51.49
701.40	74.90
701.53	102.98
701.66	35.11
701.79	0.00
701.93	30.43
702.06	32.77
702.19	84.26
702.32	51.49
702.46	77.24
702.59	98.30
702.72	56.17
702.85	175.54
702.99	215.33
703.12	231.71
703.25	372.15
703.38	327.68
703.51	163.84
703.65	149.79
703.78	128.73
703.91	91.28
704.04	60.85
704.17	84.26
704.31	0.00
704.44	28.09
704.57	14.04
704.70	30.43
704.83	42.13
704.96	21.06
705.10	0.00
705.23	4.68
>>>>>End Processed Spectral Data<<<<<
