SpectraSuite Data File
++++++++++++++++++++++++++++++++++++
Date: Fri Oct 04 12:13:25 GMT-05:00 2013
User: price-jones
Dark Spectrum Present: No
Reference Spectrum Present: No
Number of Sampled Component Spectra: 1
Spectrometers: USB2+H05261
Integration Time (usec): 10000 (USB2+H05261)
Spectra Averaged: 1 (USB2+H05261)
Boxcar Smoothing: 0 (USB2+H05261)
Correct for Electrical Dark: No (USB2+H05261)
Strobe/Lamp Enabled: No (USB2+H05261)
Correct for Detector Non-linearity: No (USB2+H05261)
Correct for Stray Light: No (USB2+H05261)
Number of Pixels in Processed Spectrum: 2048
>>>>>Begin Processed Spectral Data<<<<<
365.73	0.00
365.92	0.00
366.12	0.00
366.32	0.00
366.52	0.00
366.72	0.00
366.91	0.00
367.11	0.00
367.31	0.00
367.51	0.00
367.70	0.00
367.90	0.00
368.10	0.00
368.30	0.00
368.49	0.00
368.69	0.00
368.89	0.00
369.09	0.00
369.28	0.00
369.48	0.00
369.68	0.00
369.87	0.00
370.07	0.00
370.27	0.00
370.47	0.00
370.66	0.00
370.86	0.00
371.06	0.00
371.25	0.00
371.45	0.00
371.65	7.02
371.84	0.00
372.04	0.00
372.24	0.00
372.44	25.75
372.63	4.68
372.83	23.41
373.03	9.36
373.22	49.15
373.42	25.75
373.62	46.81
373.81	25.75
374.01	0.00
374.21	0.00
374.40	37.45
374.60	25.75
374.79	67.88
374.99	25.75
375.19	91.28
375.38	95.96
375.58	0.00
375.78	0.00
375.97	39.79
376.17	51.49
376.37	2.34
376.56	42.13
376.76	2.34
376.95	37.45
377.15	35.11
377.35	35.11
377.54	32.77
377.74	35.11
377.93	39.79
378.13	0.00
378.33	51.49
378.52	35.11
378.72	4.68
378.91	28.09
379.11	46.81
379.31	28.09
379.50	28.09
379.70	35.11
379.89	0.00
380.09	25.75
380.28	0.00
380.48	4.68
380.68	58.51
380.87	14.04
381.07	72.56
381.26	81.92
381.46	35.11
381.65	0.00
381.85	46.81
382.04	23.41
382.24	77.24
382.43	18.72
382.63	77.24
382.83	100.64
383.02	51.49
383.22	0.00
383.41	58.51
383.61	11.70
383.80	21.06
384.00	0.00
384.19	0.00
384.39	30.43
384.58	18.72
384.78	7.02
384.97	11.70
385.17	4.68
385.36	23.41
385.56	60.85
385.75	0.00
385.95	11.70
386.14	9.36
386.34	4.68
386.53	37.45
386.72	32.77
386.92	46.81
387.11	58.51
387.31	18.72
387.50	39.79
387.70	21.06
387.89	0.00
388.09	58.51
388.28	0.00
388.48	18.72
388.67	30.43
388.86	0.00
389.06	0.00
389.25	0.00
389.45	0.00
389.64	81.92
389.84	0.00
390.03	0.00
390.22	0.00
390.42	0.00
390.61	0.00
390.81	32.77
391.00	0.00
391.19	7.02
391.39	0.00
391.58	4.68
391.78	98.30
391.97	72.56
392.16	7.02
392.36	60.85
392.55	88.94
392.75	51.49
392.94	0.00
393.13	0.00
393.33	0.00
393.52	0.00
393.71	79.58
393.91	0.00
394.10	0.00
394.29	0.00
394.49	9.36
394.68	30.43
394.88	42.13
395.07	21.06
395.26	23.41
395.46	32.77
395.65	0.00
395.84	39.79
396.04	70.22
396.23	9.36
396.42	14.04
396.62	14.04
396.81	32.77
397.00	11.70
397.19	16.38
397.39	25.75
397.58	72.56
397.77	93.62
397.97	51.49
398.16	35.11
398.35	42.13
398.55	25.75
398.74	9.36
398.93	25.75
399.12	7.02
399.32	0.00
399.51	0.00
399.70	56.17
399.90	0.00
400.09	60.85
400.28	42.13
400.47	58.51
400.67	23.41
400.86	0.00
401.05	7.02
401.24	0.00
401.44	65.54
401.63	91.28
401.82	28.09
402.01	9.36
402.21	23.41
402.40	0.00
402.59	42.13
402.78	79.58
402.97	0.00
403.17	42.13
403.36	9.36
403.55	0.00
403.74	60.85
403.93	14.04
404.13	9.36
404.32	46.81
404.51	42.13
404.70	2.34
404.89	72.56
405.09	9.36
405.28	7.02
405.47	11.70
405.66	18.72
405.85	53.83
406.05	0.00
406.24	65.54
406.43	67.88
406.62	0.00
406.81	0.00
407.00	46.81
407.20	4.68
407.39	28.09
407.58	16.38
407.77	63.19
407.96	95.96
408.15	18.72
408.34	28.09
408.54	93.62
408.73	88.94
408.92	37.45
409.11	32.77
409.30	32.77
409.49	28.09
409.68	65.54
409.87	91.28
410.07	30.43
410.26	65.54
410.45	23.41
410.64	0.00
410.83	23.41
411.02	0.00
411.21	42.13
411.40	42.13
411.59	70.22
411.78	0.00
411.98	88.94
412.17	0.00
412.36	37.45
412.55	0.00
412.74	51.49
412.93	16.38
413.12	117.03
413.31	0.00
413.50	51.49
413.69	30.43
413.88	72.56
414.07	32.77
414.26	88.94
414.45	28.09
414.64	49.15
414.83	79.58
415.02	72.56
415.22	53.83
415.41	4.68
415.60	9.36
415.79	126.39
415.98	67.88
416.17	11.70
416.36	30.43
416.55	74.90
416.74	2.34
416.93	0.00
417.12	63.19
417.31	0.00
417.50	0.00
417.69	4.68
417.88	67.88
418.07	0.00
418.26	37.45
418.45	42.13
418.64	53.83
418.83	81.92
419.02	4.68
419.21	58.51
419.39	58.51
419.58	18.72
419.77	4.68
419.96	51.49
420.15	56.17
420.34	51.49
420.53	9.36
420.72	44.47
420.91	32.77
421.10	63.19
421.29	0.00
421.48	79.58
421.67	11.70
421.86	77.24
422.05	9.36
422.24	67.88
422.43	32.77
422.61	0.00
422.80	0.00
422.99	56.17
423.18	51.49
423.37	46.81
423.56	21.06
423.75	23.41
423.94	30.43
424.13	53.83
424.32	44.47
424.50	21.06
424.69	21.06
424.88	25.75
425.07	58.51
425.26	9.36
425.45	0.00
425.64	25.75
425.83	0.00
426.01	49.15
426.20	67.88
426.39	28.09
426.58	0.00
426.77	30.43
426.96	16.38
427.15	42.13
427.33	28.09
427.52	112.35
427.71	0.00
427.90	0.00
428.09	42.13
428.28	44.47
428.46	14.04
428.65	84.26
428.84	21.06
429.03	18.72
429.22	95.96
429.40	23.41
429.59	23.41
429.78	35.11
429.97	60.85
430.16	58.51
430.34	14.04
430.53	9.36
430.72	11.70
430.91	9.36
431.10	72.56
431.28	42.13
431.47	51.49
431.66	60.85
431.85	14.04
432.03	74.90
432.22	0.00
432.41	65.54
432.60	51.49
432.79	56.17
432.97	28.09
433.16	0.00
433.35	9.36
433.54	63.19
433.72	37.45
433.91	30.43
434.10	72.56
434.28	70.22
434.47	18.72
434.66	56.17
434.85	49.15
435.03	39.79
435.22	28.09
435.41	18.72
435.59	42.13
435.78	35.11
435.97	39.79
436.16	67.88
436.34	7.02
436.53	53.83
436.72	63.19
436.90	42.13
437.09	95.96
437.28	79.58
437.46	2.34
437.65	37.45
437.84	93.62
438.02	0.00
438.21	35.11
438.40	65.54
438.58	93.62
438.77	91.28
438.96	0.00
439.14	32.77
439.33	7.02
439.52	28.09
439.70	51.49
439.89	60.85
440.08	0.00
440.26	11.70
440.45	70.22
440.63	98.30
440.82	0.00
441.01	2.34
441.19	77.24
441.38	30.43
441.57	42.13
441.75	56.17
441.94	95.96
442.12	35.11
442.31	35.11
442.50	0.00
442.68	65.54
442.87	46.81
443.05	39.79
443.24	0.00
443.43	74.90
443.61	37.45
443.80	18.72
443.98	98.30
444.17	65.54
444.35	18.72
444.54	72.56
444.73	0.00
444.91	74.90
445.10	39.79
445.28	58.51
445.47	35.11
445.65	0.00
445.84	28.09
446.02	51.49
446.21	53.83
446.39	0.00
446.58	30.43
446.77	42.13
446.95	28.09
447.14	58.51
447.32	37.45
447.51	42.13
447.69	42.13
447.88	67.88
448.06	67.88
448.25	35.11
448.43	14.04
448.62	53.83
448.80	58.51
448.99	23.41
449.17	0.00
449.36	65.54
449.54	72.56
449.73	2.34
449.91	0.00
450.10	49.15
450.28	2.34
450.46	93.62
450.65	42.13
450.83	58.51
451.02	11.70
451.20	25.75
451.39	39.79
451.57	9.36
451.76	2.34
451.94	0.00
452.13	0.00
452.31	0.00
452.49	46.81
452.68	0.00
452.86	105.32
453.05	46.81
453.23	14.04
453.42	23.41
453.60	28.09
453.78	37.45
453.97	0.00
454.15	0.00
454.34	77.24
454.52	9.36
454.70	18.72
454.89	84.26
455.07	9.36
455.26	0.00
455.44	44.47
455.62	60.85
455.81	0.00
455.99	25.75
456.17	44.47
456.36	0.00
456.54	0.00
456.73	32.77
456.91	0.00
457.09	14.04
457.28	39.79
457.46	79.58
457.64	42.13
457.83	9.36
458.01	42.13
458.19	9.36
458.38	72.56
458.56	7.02
458.74	51.49
458.93	53.83
459.11	0.00
459.29	0.00
459.48	18.72
459.66	49.15
459.84	53.83
460.03	0.00
460.21	56.17
460.39	56.17
460.57	7.02
460.76	11.70
460.94	0.00
461.12	0.00
461.31	37.45
461.49	9.36
461.67	35.11
461.85	0.00
462.04	28.09
462.22	117.03
462.40	21.06
462.59	0.00
462.77	95.96
462.95	0.00
463.13	72.56
463.32	28.09
463.50	25.75
463.68	0.00
463.86	0.00
464.05	32.77
464.23	63.19
464.41	72.56
464.59	0.00
464.78	23.41
464.96	42.13
465.14	32.77
465.32	0.00
465.50	84.26
465.69	100.64
465.87	44.47
466.05	37.45
466.23	53.83
466.41	11.70
466.60	2.34
466.78	37.45
466.96	0.00
467.14	0.00
467.32	2.34
467.51	0.00
467.69	56.17
467.87	2.34
468.05	37.45
468.23	21.06
468.41	35.11
468.60	0.00
468.78	124.05
468.96	9.36
469.14	70.22
469.32	0.00
469.50	14.04
469.69	79.58
469.87	72.56
470.05	44.47
470.23	25.75
470.41	58.51
470.59	21.06
470.77	4.68
470.95	140.43
471.14	30.43
471.32	39.79
471.50	49.15
471.68	44.47
471.86	110.01
472.04	112.35
472.22	0.00
472.40	39.79
472.58	0.00
472.77	7.02
472.95	0.00
473.13	42.13
473.31	84.26
473.49	72.56
473.67	7.02
473.85	53.83
474.03	0.00
474.21	0.00
474.39	21.06
474.57	46.81
474.75	58.51
474.93	49.15
475.12	81.92
475.30	81.92
475.48	28.09
475.66	86.60
475.84	35.11
476.02	56.17
476.20	4.68
476.38	46.81
476.56	2.34
476.74	53.83
476.92	49.15
477.10	56.17
477.28	0.00
477.46	42.13
477.64	18.72
477.82	56.17
478.00	2.34
478.18	37.45
478.36	95.96
478.54	46.81
478.72	51.49
478.90	25.75
479.08	65.54
479.26	56.17
479.44	49.15
479.62	0.00
479.80	37.45
479.98	124.05
480.16	42.13
480.34	23.41
480.52	11.70
480.70	0.00
480.88	65.54
481.06	11.70
481.24	88.94
481.41	21.06
481.59	63.19
481.77	23.41
481.95	63.19
482.13	28.09
482.31	35.11
482.49	30.43
482.67	37.45
482.85	0.00
483.03	11.70
483.21	49.15
483.39	49.15
483.57	51.49
483.74	39.79
483.92	79.58
484.10	4.68
484.28	30.43
484.46	25.75
484.64	0.00
484.82	56.17
485.00	63.19
485.18	60.85
485.35	16.38
485.53	32.77
485.71	63.19
485.89	16.38
486.07	53.83
486.25	25.75
486.43	46.81
486.61	86.60
486.78	65.54
486.96	4.68
487.14	37.45
487.32	16.38
487.50	49.15
487.68	88.94
487.85	14.04
488.03	37.45
488.21	63.19
488.39	74.90
488.57	9.36
488.75	42.13
488.92	100.64
489.10	16.38
489.28	21.06
489.46	42.13
489.64	58.51
489.81	0.00
489.99	51.49
490.17	7.02
490.35	37.45
490.53	21.06
490.70	9.36
490.88	0.00
491.06	21.06
491.24	63.19
491.41	23.41
491.59	58.51
491.77	14.04
491.95	28.09
492.13	67.88
492.30	42.13
492.48	102.98
492.66	16.38
492.84	86.60
493.01	70.22
493.19	37.45
493.37	35.11
493.54	53.83
493.72	63.19
493.90	2.34
494.08	21.06
494.25	44.47
494.43	32.77
494.61	56.17
494.79	58.51
494.96	28.09
495.14	58.51
495.32	63.19
495.49	25.75
495.67	28.09
495.85	37.45
496.02	23.41
496.20	0.00
496.38	56.17
496.55	88.94
496.73	46.81
496.91	11.70
497.09	18.72
497.26	67.88
497.44	18.72
497.62	39.79
497.79	4.68
497.97	63.19
498.14	37.45
498.32	58.51
498.50	53.83
498.67	0.00
498.85	32.77
499.03	35.11
499.20	14.04
499.38	72.56
499.56	93.62
499.73	0.00
499.91	21.06
500.08	49.15
500.26	86.60
500.44	14.04
500.61	46.81
500.79	23.41
500.97	0.00
501.14	70.22
501.32	0.00
501.49	18.72
501.67	135.75
501.84	9.36
502.02	21.06
502.20	70.22
502.37	42.13
502.55	0.00
502.72	9.36
502.90	23.41
503.07	25.75
503.25	0.00
503.43	44.47
503.60	49.15
503.78	46.81
503.95	91.28
504.13	74.90
504.30	16.38
504.48	51.49
504.65	44.47
504.83	32.77
505.01	4.68
505.18	65.54
505.36	32.77
505.53	49.15
505.71	0.00
505.88	0.00
506.06	74.90
506.23	16.38
506.41	74.90
506.58	23.41
506.76	0.00
506.93	42.13
507.11	102.98
507.28	0.00
507.46	7.02
507.63	84.26
507.81	60.85
507.98	42.13
508.16	0.00
508.33	105.32
508.50	42.13
508.68	79.58
508.85	0.00
509.03	30.43
509.20	107.66
509.38	4.68
509.55	0.00
509.73	95.96
509.90	91.28
510.08	37.45
510.25	56.17
510.42	0.00
510.60	44.47
510.77	35.11
510.95	9.36
511.12	42.13
511.30	63.19
511.47	4.68
511.64	70.22
511.82	14.04
511.99	7.02
512.17	0.00
512.34	65.54
512.51	53.83
512.69	63.19
512.86	0.00
513.04	35.11
513.21	42.13
513.38	28.09
513.56	105.32
513.73	56.17
513.90	49.15
514.08	0.00
514.25	4.68
514.43	126.39
514.60	21.06
514.77	44.47
514.95	42.13
515.12	46.81
515.29	93.62
515.47	0.00
515.64	63.19
515.81	0.00
515.99	0.00
516.16	25.75
516.33	30.43
516.51	9.36
516.68	28.09
516.85	79.58
517.03	23.41
517.20	0.00
517.37	2.34
517.54	72.56
517.72	102.98
517.89	39.79
518.06	42.13
518.24	42.13
518.41	14.04
518.58	0.00
518.75	0.00
518.93	0.00
519.10	16.38
519.27	46.81
519.45	88.94
519.62	0.00
519.79	25.75
519.96	0.00
520.14	37.45
520.31	77.24
520.48	70.22
520.65	74.90
520.83	2.34
521.00	49.15
521.17	67.88
521.34	67.88
521.52	21.06
521.69	0.00
521.86	11.70
522.03	51.49
522.20	18.72
522.38	0.00
522.55	133.41
522.72	0.00
522.89	70.22
523.07	39.79
523.24	88.94
523.41	81.92
523.58	60.85
523.75	79.58
523.92	0.00
524.10	124.05
524.27	18.72
524.44	14.04
524.61	0.00
524.78	86.60
524.96	70.22
525.13	0.00
525.30	44.47
525.47	60.85
525.64	14.04
525.81	30.43
525.98	53.83
526.16	98.30
526.33	21.06
526.50	0.00
526.67	44.47
526.84	56.17
527.01	46.81
527.18	44.47
527.36	16.38
527.53	0.00
527.70	58.51
527.87	32.77
528.04	91.28
528.21	0.00
528.38	51.49
528.55	39.79
528.72	95.96
528.89	0.00
529.07	2.34
529.24	0.00
529.41	37.45
529.58	39.79
529.75	0.00
529.92	121.71
530.09	0.00
530.26	86.60
530.43	56.17
530.60	119.37
530.77	46.81
530.94	102.98
531.11	102.98
531.28	63.19
531.46	23.41
531.63	58.51
531.80	0.00
531.97	23.41
532.14	0.00
532.31	14.04
532.48	77.24
532.65	30.43
532.82	53.83
532.99	81.92
533.16	65.54
533.33	131.07
533.50	21.06
533.67	11.70
533.84	63.19
534.01	30.43
534.18	21.06
534.35	49.15
534.52	7.02
534.69	35.11
534.86	46.81
535.03	79.58
535.20	0.00
535.37	9.36
535.54	0.00
535.71	9.36
535.88	95.96
536.05	25.75
536.22	142.77
536.38	77.24
536.55	42.13
536.72	149.79
536.89	4.68
537.06	0.00
537.23	102.98
537.40	35.11
537.57	67.88
537.74	56.17
537.91	86.60
538.08	14.04
538.25	39.79
538.42	0.00
538.59	30.43
538.75	37.45
538.92	9.36
539.09	0.00
539.26	37.45
539.43	114.69
539.60	4.68
539.77	63.19
539.94	23.41
540.11	32.77
540.28	72.56
540.44	25.75
540.61	0.00
540.78	81.92
540.95	39.79
541.12	51.49
541.29	133.41
541.46	56.17
541.62	0.00
541.79	65.54
541.96	72.56
542.13	95.96
542.30	121.71
542.47	30.43
542.63	79.58
542.80	51.49
542.97	53.83
543.14	102.98
543.31	25.75
543.48	63.19
543.64	21.06
543.81	49.15
543.98	37.45
544.15	46.81
544.32	42.13
544.48	93.62
544.65	0.00
544.82	0.00
544.99	51.49
545.16	0.00
545.32	30.43
545.49	35.11
545.66	42.13
545.83	53.83
546.00	32.77
546.16	53.83
546.33	67.88
546.50	4.68
546.67	117.03
546.83	81.92
547.00	49.15
547.17	18.72
547.34	53.83
547.50	51.49
547.67	23.41
547.84	0.00
548.00	18.72
548.17	74.90
548.34	119.37
548.51	72.56
548.67	0.00
548.84	16.38
549.01	72.56
549.18	44.47
549.34	93.62
549.51	65.54
549.68	35.11
549.84	30.43
550.01	18.72
550.18	91.28
550.34	30.43
550.51	35.11
550.68	72.56
550.84	46.81
551.01	65.54
551.18	44.47
551.34	56.17
551.51	39.79
551.68	23.41
551.84	98.30
552.01	7.02
552.18	0.00
552.34	0.00
552.51	35.11
552.68	32.77
552.84	4.68
553.01	9.36
553.18	21.06
553.34	28.09
553.51	35.11
553.67	0.00
553.84	67.88
554.01	84.26
554.17	49.15
554.34	84.26
554.51	77.24
554.67	77.24
554.84	84.26
555.00	37.45
555.17	9.36
555.33	28.09
555.50	65.54
555.67	11.70
555.83	107.66
556.00	67.88
556.16	11.70
556.33	67.88
556.50	67.88
556.66	60.85
556.83	93.62
556.99	0.00
557.16	63.19
557.32	16.38
557.49	117.03
557.65	42.13
557.82	121.71
557.98	74.90
558.15	65.54
558.32	126.39
558.48	98.30
558.65	0.00
558.81	30.43
558.98	16.38
559.14	42.13
559.31	42.13
559.47	16.38
559.64	46.81
559.80	0.00
559.97	60.85
560.13	67.88
560.30	112.35
560.46	53.83
560.63	53.83
560.79	4.68
560.96	0.00
561.12	98.30
561.29	42.13
561.45	100.64
561.61	32.77
561.78	7.02
561.94	0.00
562.11	11.70
562.27	60.85
562.44	84.26
562.60	0.00
562.77	77.24
562.93	44.47
563.10	0.00
563.26	81.92
563.42	0.00
563.59	32.77
563.75	21.06
563.92	51.49
564.08	117.03
564.24	39.79
564.41	25.75
564.57	32.77
564.74	67.88
564.90	2.34
565.07	0.00
565.23	7.02
565.39	21.06
565.56	25.75
565.72	53.83
565.88	53.83
566.05	0.00
566.21	58.51
566.38	2.34
566.54	28.09
566.70	58.51
566.87	70.22
567.03	25.75
567.19	105.32
567.36	49.15
567.52	49.15
567.68	65.54
567.85	18.72
568.01	35.11
568.17	23.41
568.34	70.22
568.50	37.45
568.66	70.22
568.83	42.13
568.99	91.28
569.15	74.90
569.32	58.51
569.48	44.47
569.64	51.49
569.81	88.94
569.97	70.22
570.13	0.00
570.30	28.09
570.46	88.94
570.62	56.17
570.78	51.49
570.95	110.01
571.11	72.56
571.27	65.54
571.43	25.75
571.60	102.98
571.76	56.17
571.92	18.72
572.09	16.38
572.25	18.72
572.41	42.13
572.57	14.04
572.74	39.79
572.90	37.45
573.06	11.70
573.22	84.26
573.38	58.51
573.55	79.58
573.71	51.49
573.87	0.00
574.03	7.02
574.20	88.94
574.36	70.22
574.52	42.13
574.68	44.47
574.84	39.79
575.01	25.75
575.17	37.45
575.33	35.11
575.49	0.00
575.65	0.00
575.82	9.36
575.98	60.85
576.14	67.88
576.30	16.38
576.46	49.15
576.62	21.06
576.79	53.83
576.95	74.90
577.11	21.06
577.27	0.00
577.43	7.02
577.59	2.34
577.75	65.54
577.92	88.94
578.08	44.47
578.24	72.56
578.40	44.47
578.56	84.26
578.72	30.43
578.88	63.19
579.04	11.70
579.21	128.73
579.37	32.77
579.53	102.98
579.69	37.45
579.85	46.81
580.01	32.77
580.17	39.79
580.33	18.72
580.49	72.56
580.65	56.17
580.82	74.90
580.98	0.00
581.14	14.04
581.30	74.90
581.46	32.77
581.62	51.49
581.78	4.68
581.94	0.00
582.10	0.00
582.26	14.04
582.42	0.00
582.58	2.34
582.74	51.49
582.90	81.92
583.06	98.30
583.22	0.00
583.38	9.36
583.54	0.00
583.70	95.96
583.86	67.88
584.02	74.90
584.18	98.30
584.34	63.19
584.50	44.47
584.66	0.00
584.82	39.79
584.98	32.77
585.14	21.06
585.30	67.88
585.46	0.00
585.62	0.00
585.78	67.88
585.94	46.81
586.10	79.58
586.26	37.45
586.42	58.51
586.58	67.88
586.74	30.43
586.90	44.47
587.06	23.41
587.22	74.90
587.38	35.11
587.54	35.11
587.70	0.00
587.86	56.17
588.02	23.41
588.18	0.00
588.34	51.49
588.49	0.00
588.65	9.36
588.81	135.75
588.97	0.00
589.13	0.00
589.29	84.26
589.45	9.36
589.61	4.68
589.77	93.62
589.93	11.70
590.08	44.47
590.24	9.36
590.40	37.45
590.56	16.38
590.72	84.26
590.88	84.26
591.04	35.11
591.20	98.30
591.35	0.00
591.51	0.00
591.67	18.72
591.83	77.24
591.99	32.77
592.15	67.88
592.31	60.85
592.46	51.49
592.62	25.75
592.78	2.34
592.94	72.56
593.10	2.34
593.26	0.00
593.41	39.79
593.57	74.90
593.73	28.09
593.89	65.54
594.05	0.00
594.20	44.47
594.36	0.00
594.52	65.54
594.68	58.51
594.84	112.35
594.99	79.58
595.15	60.85
595.31	7.02
595.47	67.88
595.62	7.02
595.78	93.62
595.94	23.41
596.10	0.00
596.25	0.00
596.41	86.60
596.57	37.45
596.73	14.04
596.88	0.00
597.04	42.13
597.20	37.45
597.36	95.96
597.51	35.11
597.67	42.13
597.83	102.98
597.99	0.00
598.14	79.58
598.30	39.79
598.46	7.02
598.61	37.45
598.77	93.62
598.93	86.60
599.09	70.22
599.24	70.22
599.40	53.83
599.56	0.00
599.71	56.17
599.87	18.72
600.03	30.43
600.18	21.06
600.34	46.81
600.50	11.70
600.65	42.13
600.81	53.83
600.97	65.54
601.12	70.22
601.28	53.83
601.44	23.41
601.59	23.41
601.75	49.15
601.91	46.81
602.06	88.94
602.22	72.56
602.37	86.60
602.53	39.79
602.69	28.09
602.84	79.58
603.00	14.04
603.16	21.06
603.31	42.13
603.47	32.77
603.62	86.60
603.78	56.17
603.94	91.28
604.09	110.01
604.25	67.88
604.40	11.70
604.56	67.88
604.71	112.35
604.87	74.90
605.03	58.51
605.18	86.60
605.34	14.04
605.49	7.02
605.65	30.43
605.80	145.11
605.96	98.30
606.12	0.00
606.27	49.15
606.43	63.19
606.58	30.43
606.74	46.81
606.89	84.26
607.05	86.60
607.20	131.07
607.36	93.62
607.51	0.00
607.67	81.92
607.82	42.13
607.98	0.00
608.13	21.06
608.29	42.13
608.44	91.28
608.60	39.79
608.75	25.75
608.91	0.00
609.06	95.96
609.22	32.77
609.37	58.51
609.53	35.11
609.68	0.00
609.84	28.09
609.99	42.13
610.15	65.54
610.30	46.81
610.46	112.35
610.61	25.75
610.76	42.13
610.92	53.83
611.07	39.79
611.23	86.60
611.38	65.54
611.54	98.30
611.69	65.54
611.84	42.13
612.00	37.45
612.15	53.83
612.31	58.51
612.46	23.41
612.62	88.94
612.77	72.56
612.92	18.72
613.08	25.75
613.23	70.22
613.39	46.81
613.54	58.51
613.69	126.39
613.85	86.60
614.00	0.00
614.15	2.34
614.31	0.00
614.46	39.79
614.62	0.00
614.77	72.56
614.92	46.81
615.08	0.00
615.23	7.02
615.38	58.51
615.54	74.90
615.69	39.79
615.84	32.77
616.00	79.58
616.15	53.83
616.30	0.00
616.46	138.09
616.61	14.04
616.76	72.56
616.92	65.54
617.07	0.00
617.22	14.04
617.37	88.94
617.53	0.00
617.68	7.02
617.83	0.00
617.99	0.00
618.14	93.62
618.29	0.00
618.45	32.77
618.60	21.06
618.75	0.00
618.90	4.68
619.06	60.85
619.21	42.13
619.36	44.47
619.51	74.90
619.67	86.60
619.82	7.02
619.97	35.11
620.12	67.88
620.28	0.00
620.43	37.45
620.58	21.06
620.73	72.56
620.89	93.62
621.04	60.85
621.19	28.09
621.34	46.81
621.49	0.00
621.65	2.34
621.80	23.41
621.95	25.75
622.10	112.35
622.25	53.83
622.41	46.81
622.56	4.68
622.71	0.00
622.86	25.75
623.01	49.15
623.16	4.68
623.32	86.60
623.47	0.00
623.62	67.88
623.77	14.04
623.92	49.15
624.07	35.11
624.23	79.58
624.38	0.00
624.53	14.04
624.68	25.75
624.83	37.45
624.98	28.09
625.13	0.00
625.29	35.11
625.44	30.43
625.59	18.72
625.74	16.38
625.89	46.81
626.04	18.72
626.19	0.00
626.34	86.60
626.49	86.60
626.65	4.68
626.80	25.75
626.95	11.70
627.10	37.45
627.25	39.79
627.40	0.00
627.55	23.41
627.70	53.83
627.85	0.00
628.00	0.00
628.15	49.15
628.30	53.83
628.45	138.09
628.60	25.75
628.76	86.60
628.91	58.51
629.06	65.54
629.21	11.70
629.36	0.00
629.51	67.88
629.66	44.47
629.81	93.62
629.96	35.11
630.11	107.66
630.26	51.49
630.41	37.45
630.56	84.26
630.71	14.04
630.86	56.17
631.01	49.15
631.16	30.43
631.31	39.79
631.46	60.85
631.61	74.90
631.76	65.54
631.91	39.79
632.06	28.09
632.21	0.00
632.36	81.92
632.51	58.51
632.66	0.00
632.81	9.36
632.96	60.85
633.10	14.04
633.25	91.28
633.40	0.00
633.55	0.00
633.70	124.05
633.85	58.51
634.00	32.77
634.15	53.83
634.30	53.83
634.45	7.02
634.60	28.09
634.75	32.77
634.90	0.00
635.05	67.88
635.19	51.49
635.34	77.24
635.49	0.00
635.64	44.47
635.79	46.81
635.94	51.49
636.09	42.13
636.24	16.38
636.39	63.19
636.53	21.06
636.68	28.09
636.83	14.04
636.98	0.00
637.13	56.17
637.28	7.02
637.43	58.51
637.57	0.00
637.72	30.43
637.87	84.26
638.02	21.06
638.17	0.00
638.32	4.68
638.46	7.02
638.61	46.81
638.76	11.70
638.91	21.06
639.06	0.00
639.20	14.04
639.35	138.09
639.50	0.00
639.65	51.49
639.80	32.77
639.94	0.00
640.09	39.79
640.24	23.41
640.39	79.58
640.54	0.00
640.68	28.09
640.83	60.85
640.98	0.00
641.13	46.81
641.27	21.06
641.42	56.17
641.57	44.47
641.72	2.34
641.86	74.90
642.01	86.60
642.16	84.26
642.31	49.15
642.45	39.79
642.60	0.00
642.75	18.72
642.90	44.47
643.04	14.04
643.19	0.00
643.34	51.49
643.48	42.13
643.63	23.41
643.78	23.41
643.93	79.58
644.07	21.06
644.22	53.83
644.37	25.75
644.51	0.00
644.66	0.00
644.81	51.49
644.95	0.00
645.10	4.68
645.25	65.54
645.39	39.79
645.54	44.47
645.69	49.15
645.83	91.28
645.98	67.88
646.13	37.45
646.27	44.47
646.42	56.17
646.57	35.11
646.71	74.90
646.86	30.43
647.00	23.41
647.15	0.00
647.30	0.00
647.44	39.79
647.59	0.00
647.74	18.72
647.88	60.85
648.03	18.72
648.17	28.09
648.32	0.00
648.47	18.72
648.61	9.36
648.76	39.79
648.90	74.90
649.05	39.79
649.20	0.00
649.34	77.24
649.49	46.81
649.63	32.77
649.78	23.41
649.92	0.00
650.07	56.17
650.21	35.11
650.36	25.75
650.51	4.68
650.65	119.37
650.80	0.00
650.94	102.98
651.09	0.00
651.23	21.06
651.38	21.06
651.52	74.90
651.67	0.00
651.81	28.09
651.96	79.58
652.10	84.26
652.25	72.56
652.39	25.75
652.54	67.88
652.68	0.00
652.83	44.47
652.97	56.17
653.12	16.38
653.26	0.00
653.41	84.26
653.55	49.15
653.70	60.85
653.84	60.85
653.99	39.79
654.13	11.70
654.27	21.06
654.42	39.79
654.56	4.68
654.71	11.70
654.85	16.38
655.00	42.13
655.14	7.02
655.29	133.41
655.43	65.54
655.57	21.06
655.72	23.41
655.86	53.83
656.01	67.88
656.15	77.24
656.30	23.41
656.44	0.00
656.58	60.85
656.73	16.38
656.87	84.26
657.01	56.17
657.16	35.11
657.30	14.04
657.45	67.88
657.59	0.00
657.73	14.04
657.88	77.24
658.02	4.68
658.16	14.04
658.31	21.06
658.45	14.04
658.60	39.79
658.74	0.00
658.88	0.00
659.03	0.00
659.17	65.54
659.31	23.41
659.46	25.75
659.60	4.68
659.74	65.54
659.89	18.72
660.03	9.36
660.17	58.51
660.32	21.06
660.46	32.77
660.60	81.92
660.74	53.83
660.89	28.09
661.03	0.00
661.17	0.00
661.32	0.00
661.46	42.13
661.60	67.88
661.74	0.00
661.89	32.77
662.03	11.70
662.17	32.77
662.31	2.34
662.46	0.00
662.60	100.64
662.74	0.00
662.88	35.11
663.03	9.36
663.17	88.94
663.31	112.35
663.45	23.41
663.60	23.41
663.74	21.06
663.88	0.00
664.02	70.22
664.17	2.34
664.31	79.58
664.45	0.00
664.59	0.00
664.73	9.36
664.88	65.54
665.02	0.00
665.16	25.75
665.30	21.06
665.44	4.68
665.59	37.45
665.73	46.81
665.87	35.11
666.01	88.94
666.15	42.13
666.29	0.00
666.44	63.19
666.58	30.43
666.72	0.00
666.86	0.00
667.00	67.88
667.14	51.49
667.28	67.88
667.43	32.77
667.57	86.60
667.71	0.00
667.85	16.38
667.99	60.85
668.13	93.62
668.27	21.06
668.41	0.00
668.56	0.00
668.70	0.00
668.84	95.96
668.98	0.00
669.12	0.00
669.26	110.01
669.40	30.43
669.54	25.75
669.68	28.09
669.82	7.02
669.96	28.09
670.10	2.34
670.25	49.15
670.39	70.22
670.53	28.09
670.67	37.45
670.81	79.58
670.95	0.00
671.09	72.56
671.23	0.00
671.37	53.83
671.51	0.00
671.65	84.26
671.79	23.41
671.93	0.00
672.07	39.79
672.21	49.15
672.35	0.00
672.49	9.36
672.63	23.41
672.77	58.51
672.91	9.36
673.05	79.58
673.19	16.38
673.33	0.00
673.47	25.75
673.61	42.13
673.75	32.77
673.89	9.36
674.03	35.11
674.17	14.04
674.31	74.90
674.45	53.83
674.59	0.00
674.73	53.83
674.87	79.58
675.01	23.41
675.15	37.45
675.29	72.56
675.43	25.75
675.56	0.00
675.70	0.00
675.84	63.19
675.98	65.54
676.12	42.13
676.26	7.02
676.40	35.11
676.54	63.19
676.68	21.06
676.82	35.11
676.96	42.13
677.10	46.81
677.23	46.81
677.37	0.00
677.51	0.00
677.65	30.43
677.79	28.09
677.93	72.56
678.07	25.75
678.21	11.70
678.34	93.62
678.48	42.13
678.62	0.00
678.76	11.70
678.90	28.09
679.04	0.00
679.18	23.41
679.31	18.72
679.45	21.06
679.59	53.83
679.73	37.45
679.87	0.00
680.00	30.43
680.14	60.85
680.28	16.38
680.42	65.54
680.56	49.15
680.70	0.00
680.83	0.00
680.97	11.70
681.11	70.22
681.25	46.81
681.39	53.83
681.52	30.43
681.66	0.00
681.80	37.45
681.94	77.24
682.07	0.00
682.21	4.68
682.35	2.34
682.49	11.70
682.62	49.15
682.76	11.70
682.90	72.56
683.04	39.79
683.17	7.02
683.31	0.00
683.45	14.04
683.59	84.26
683.72	39.79
683.86	77.24
684.00	9.36
684.13	0.00
684.27	7.02
684.41	53.83
684.55	56.17
684.68	42.13
684.82	70.22
684.96	25.75
685.09	11.70
685.23	0.00
685.37	25.75
685.50	14.04
685.64	93.62
685.78	74.90
685.91	16.38
686.05	0.00
686.19	37.45
686.32	72.56
686.46	7.02
686.60	4.68
686.73	16.38
686.87	51.49
687.01	0.00
687.14	44.47
687.28	16.38
687.42	65.54
687.55	4.68
687.69	28.09
687.82	117.03
687.96	60.85
688.10	63.19
688.23	23.41
688.37	58.51
688.50	46.81
688.64	14.04
688.78	0.00
688.91	30.43
689.05	25.75
689.18	7.02
689.32	0.00
689.46	14.04
689.59	0.00
689.73	35.11
689.86	35.11
690.00	21.06
690.13	37.45
690.27	44.47
690.41	60.85
690.54	0.00
690.68	28.09
690.81	39.79
690.95	60.85
691.08	0.00
691.22	53.83
691.35	9.36
691.49	37.45
691.62	51.49
691.76	0.00
691.89	28.09
692.03	4.68
692.16	102.98
692.30	16.38
692.43	88.94
692.57	91.28
692.70	53.83
692.84	18.72
692.97	0.00
693.11	37.45
693.24	30.43
693.38	0.00
693.51	77.24
693.65	0.00
693.78	93.62
693.92	30.43
694.05	53.83
694.19	21.06
694.32	0.00
694.45	0.00
694.59	67.88
694.72	23.41
694.86	7.02
694.99	0.00
695.13	16.38
695.26	37.45
695.39	0.00
695.53	0.00
695.66	0.00
695.80	37.45
695.93	39.79
696.07	0.00
696.20	0.00
696.33	56.17
696.47	25.75
696.60	58.51
696.73	49.15
696.87	0.00
697.00	23.41
697.14	51.49
697.27	44.47
697.40	56.17
697.54	46.81
697.67	49.15
697.80	16.38
697.94	0.00
698.07	77.24
698.21	60.85
698.34	0.00
698.47	0.00
698.61	0.00
698.74	84.26
698.87	11.70
699.01	35.11
699.14	9.36
699.27	7.02
699.40	0.00
699.54	14.04
699.67	25.75
699.80	4.68
699.94	21.06
700.07	37.45
700.20	32.77
700.34	63.19
700.47	23.41
700.60	0.00
700.73	23.41
700.87	58.51
701.00	42.13
701.13	70.22
701.26	65.54
701.40	37.45
701.53	44.47
701.66	18.72
701.79	14.04
701.93	77.24
702.06	30.43
702.19	39.79
702.32	21.06
702.46	0.00
702.59	9.36
702.72	0.00
702.85	14.04
702.99	46.81
703.12	28.09
703.25	35.11
703.38	0.00
703.51	0.00
703.65	0.00
703.78	0.00
703.91	28.09
704.04	0.00
704.17	0.00
704.31	0.00
704.44	105.32
704.57	51.49
704.70	16.38
704.83	0.00
704.96	0.00
705.10	0.00
705.23	79.58
>>>>>End Processed Spectral Data<<<<<
