SpectraSuite Data File
++++++++++++++++++++++++++++++++++++
Date: Fri Oct 04 12:13:36 GMT-05:00 2013
User: price-jones
Dark Spectrum Present: No
Reference Spectrum Present: No
Number of Sampled Component Spectra: 1
Spectrometers: USB2+H05261
Integration Time (usec): 10000 (USB2+H05261)
Spectra Averaged: 1 (USB2+H05261)
Boxcar Smoothing: 0 (USB2+H05261)
Correct for Electrical Dark: No (USB2+H05261)
Strobe/Lamp Enabled: No (USB2+H05261)
Correct for Detector Non-linearity: No (USB2+H05261)
Correct for Stray Light: No (USB2+H05261)
Number of Pixels in Processed Spectrum: 2048
>>>>>Begin Processed Spectral Data<<<<<
365.73	46.81
365.92	46.81
366.12	46.81
366.32	0.00
366.52	0.00
366.72	0.00
366.91	0.00
367.11	0.00
367.31	0.00
367.51	0.00
367.70	0.00
367.90	0.00
368.10	0.00
368.30	0.00
368.49	0.00
368.69	0.00
368.89	0.00
369.09	0.00
369.28	0.00
369.48	0.00
369.68	0.00
369.87	0.00
370.07	0.00
370.27	0.00
370.47	0.00
370.66	46.81
370.86	0.00
371.06	0.00
371.25	0.00
371.45	0.00
371.65	0.00
371.84	30.43
372.04	0.00
372.24	0.00
372.44	0.00
372.63	25.75
372.83	18.72
373.03	7.02
373.22	23.41
373.42	0.00
373.62	0.00
373.81	9.36
374.01	44.47
374.21	0.00
374.40	74.90
374.60	58.51
374.79	30.43
374.99	63.19
375.19	37.45
375.38	0.00
375.58	25.75
375.78	100.64
375.97	0.00
376.17	32.77
376.37	88.94
376.56	46.81
376.76	32.77
376.95	0.00
377.15	14.04
377.35	37.45
377.54	79.58
377.74	0.00
377.93	39.79
378.13	0.00
378.33	49.15
378.52	0.00
378.72	0.00
378.91	18.72
379.11	77.24
379.31	23.41
379.50	42.13
379.70	0.00
379.89	77.24
380.09	14.04
380.28	4.68
380.48	18.72
380.68	37.45
380.87	60.85
381.07	56.17
381.26	63.19
381.46	67.88
381.65	0.00
381.85	53.83
382.04	44.47
382.24	0.00
382.43	42.13
382.63	9.36
382.83	44.47
383.02	95.96
383.22	0.00
383.41	23.41
383.61	28.09
383.80	0.00
384.00	25.75
384.19	42.13
384.39	25.75
384.58	16.38
384.78	49.15
384.97	63.19
385.17	42.13
385.36	0.00
385.56	35.11
385.75	0.00
385.95	23.41
386.14	16.38
386.34	0.00
386.53	0.00
386.72	23.41
386.92	2.34
387.11	44.47
387.31	9.36
387.50	39.79
387.70	39.79
387.89	0.00
388.09	30.43
388.28	42.13
388.48	18.72
388.67	9.36
388.86	77.24
389.06	7.02
389.25	74.90
389.45	21.06
389.64	23.41
389.84	0.00
390.03	56.17
390.22	0.00
390.42	44.47
390.61	53.83
390.81	37.45
391.00	63.19
391.19	21.06
391.39	81.92
391.58	9.36
391.78	0.00
391.97	49.15
392.16	7.02
392.36	28.09
392.55	0.00
392.75	0.00
392.94	0.00
393.13	9.36
393.33	0.00
393.52	25.75
393.71	67.88
393.91	58.51
394.10	0.00
394.29	42.13
394.49	58.51
394.68	23.41
394.88	9.36
395.07	23.41
395.26	0.00
395.46	7.02
395.65	51.49
395.84	67.88
396.04	28.09
396.23	2.34
396.42	51.49
396.62	0.00
396.81	25.75
397.00	0.00
397.19	25.75
397.39	0.00
397.58	77.24
397.77	4.68
397.97	70.22
398.16	117.03
398.35	0.00
398.55	0.00
398.74	14.04
398.93	18.72
399.12	46.81
399.32	70.22
399.51	7.02
399.70	119.37
399.90	30.43
400.09	70.22
400.28	42.13
400.47	2.34
400.67	16.38
400.86	16.38
401.05	9.36
401.24	49.15
401.44	72.56
401.63	39.79
401.82	42.13
402.01	51.49
402.21	0.00
402.40	0.00
402.59	60.85
402.78	0.00
402.97	60.85
403.17	0.00
403.36	4.68
403.55	93.62
403.74	0.00
403.93	18.72
404.13	0.00
404.32	18.72
404.51	2.34
404.70	18.72
404.89	51.49
405.09	49.15
405.28	0.00
405.47	46.81
405.66	0.00
405.85	7.02
406.05	0.00
406.24	42.13
406.43	23.41
406.62	0.00
406.81	28.09
407.00	39.79
407.20	67.88
407.39	91.28
407.58	0.00
407.77	9.36
407.96	16.38
408.15	56.17
408.34	77.24
408.54	42.13
408.73	98.30
408.92	121.71
409.11	56.17
409.30	0.00
409.49	0.00
409.68	37.45
409.87	72.56
410.07	35.11
410.26	91.28
410.45	53.83
410.64	56.17
410.83	51.49
411.02	102.98
411.21	70.22
411.40	32.77
411.59	0.00
411.78	0.00
411.98	28.09
412.17	39.79
412.36	65.54
412.55	46.81
412.74	49.15
412.93	74.90
413.12	21.06
413.31	44.47
413.50	35.11
413.69	14.04
413.88	32.77
414.07	63.19
414.26	28.09
414.45	37.45
414.64	21.06
414.83	11.70
415.02	32.77
415.22	44.47
415.41	53.83
415.60	0.00
415.79	46.81
415.98	46.81
416.17	56.17
416.36	63.19
416.55	14.04
416.74	98.30
416.93	18.72
417.12	0.00
417.31	0.00
417.50	0.00
417.69	77.24
417.88	44.47
418.07	105.32
418.26	37.45
418.45	81.92
418.64	28.09
418.83	0.00
419.02	44.47
419.21	58.51
419.39	58.51
419.58	4.68
419.77	44.47
419.96	72.56
420.15	35.11
420.34	98.30
420.53	58.51
420.72	79.58
420.91	93.62
421.10	131.07
421.29	4.68
421.48	49.15
421.67	0.00
421.86	35.11
422.05	77.24
422.24	0.00
422.43	77.24
422.61	42.13
422.80	63.19
422.99	35.11
423.18	67.88
423.37	14.04
423.56	37.45
423.75	60.85
423.94	0.00
424.13	32.77
424.32	9.36
424.50	51.49
424.69	32.77
424.88	0.00
425.07	0.00
425.26	0.00
425.45	95.96
425.64	107.66
425.83	49.15
426.01	30.43
426.20	135.75
426.39	74.90
426.58	63.19
426.77	53.83
426.96	100.64
427.15	65.54
427.33	35.11
427.52	88.94
427.71	46.81
427.90	58.51
428.09	56.17
428.28	0.00
428.46	30.43
428.65	49.15
428.84	18.72
429.03	49.15
429.22	46.81
429.40	128.73
429.59	65.54
429.78	16.38
429.97	0.00
430.16	65.54
430.34	14.04
430.53	65.54
430.72	9.36
430.91	42.13
431.10	84.26
431.28	98.30
431.47	2.34
431.66	21.06
431.85	0.00
432.03	14.04
432.22	0.00
432.41	46.81
432.60	32.77
432.79	72.56
432.97	145.11
433.16	4.68
433.35	11.70
433.54	86.60
433.72	145.11
433.91	86.60
434.10	74.90
434.28	42.13
434.47	0.00
434.66	79.58
434.85	11.70
435.03	84.26
435.22	44.47
435.41	39.79
435.59	9.36
435.78	42.13
435.97	72.56
436.16	11.70
436.34	51.49
436.53	60.85
436.72	2.34
436.90	135.75
437.09	46.81
437.28	25.75
437.46	70.22
437.65	39.79
437.84	51.49
438.02	21.06
438.21	100.64
438.40	77.24
438.58	25.75
438.77	0.00
438.96	0.00
439.14	0.00
439.33	28.09
439.52	70.22
439.70	58.51
439.89	2.34
440.08	0.00
440.26	84.26
440.45	7.02
440.63	49.15
440.82	28.09
441.01	58.51
441.19	53.83
441.38	56.17
441.57	28.09
441.75	74.90
441.94	145.11
442.12	67.88
442.31	18.72
442.50	25.75
442.68	16.38
442.87	56.17
443.05	72.56
443.24	117.03
443.43	9.36
443.61	105.32
443.80	0.00
443.98	58.51
444.17	0.00
444.35	67.88
444.54	44.47
444.73	35.11
444.91	37.45
445.10	56.17
445.28	65.54
445.47	28.09
445.65	0.00
445.84	2.34
446.02	21.06
446.21	39.79
446.39	51.49
446.58	14.04
446.77	58.51
446.95	114.69
447.14	98.30
447.32	0.00
447.51	4.68
447.69	70.22
447.88	114.69
448.06	145.11
448.25	56.17
448.43	56.17
448.62	67.88
448.80	53.83
448.99	11.70
449.17	16.38
449.36	0.00
449.54	84.26
449.73	25.75
449.91	39.79
450.10	102.98
450.28	102.98
450.46	23.41
450.65	77.24
450.83	60.85
451.02	7.02
451.20	53.83
451.39	53.83
451.57	105.32
451.76	49.15
451.94	42.13
452.13	23.41
452.31	0.00
452.49	18.72
452.68	135.75
452.86	25.75
453.05	53.83
453.23	16.38
453.42	58.51
453.60	49.15
453.78	9.36
453.97	42.13
454.15	25.75
454.34	0.00
454.52	91.28
454.70	30.43
454.89	0.00
455.07	37.45
455.26	23.41
455.44	107.66
455.62	46.81
455.81	0.00
455.99	60.85
456.17	42.13
456.36	42.13
456.54	74.90
456.73	51.49
456.91	84.26
457.09	93.62
457.28	98.30
457.46	32.77
457.64	0.00
457.83	88.94
458.01	70.22
458.19	112.35
458.38	28.09
458.56	28.09
458.74	58.51
458.93	60.85
459.11	0.00
459.29	30.43
459.48	91.28
459.66	114.69
459.84	32.77
460.03	37.45
460.21	9.36
460.39	53.83
460.57	9.36
460.76	0.00
460.94	102.98
461.12	79.58
461.31	72.56
461.49	21.06
461.67	49.15
461.85	77.24
462.04	4.68
462.22	133.41
462.40	0.00
462.59	32.77
462.77	63.19
462.95	84.26
463.13	28.09
463.32	4.68
463.50	23.41
463.68	23.41
463.86	72.56
464.05	14.04
464.23	81.92
464.41	74.90
464.59	9.36
464.78	42.13
464.96	65.54
465.14	7.02
465.32	86.60
465.50	14.04
465.69	81.92
465.87	0.00
466.05	30.43
466.23	112.35
466.41	9.36
466.60	56.17
466.78	0.00
466.96	65.54
467.14	72.56
467.32	91.28
467.51	135.75
467.69	77.24
467.87	95.96
468.05	60.85
468.23	42.13
468.41	60.85
468.60	131.07
468.78	53.83
468.96	51.49
469.14	46.81
469.32	42.13
469.50	18.72
469.69	98.30
469.87	42.13
470.05	77.24
470.23	65.54
470.41	65.54
470.59	81.92
470.77	35.11
470.95	28.09
471.14	32.77
471.32	112.35
471.50	56.17
471.68	32.77
471.86	7.02
472.04	135.75
472.22	32.77
472.40	46.81
472.58	70.22
472.77	28.09
472.95	81.92
473.13	112.35
473.31	0.00
473.49	39.79
473.67	0.00
473.85	23.41
474.03	11.70
474.21	74.90
474.39	140.43
474.57	74.90
474.75	0.00
474.93	58.51
475.12	58.51
475.30	39.79
475.48	39.79
475.66	16.38
475.84	53.83
476.02	74.90
476.20	56.17
476.38	93.62
476.56	53.83
476.74	60.85
476.92	35.11
477.10	0.00
477.28	37.45
477.46	107.66
477.64	95.96
477.82	65.54
478.00	58.51
478.18	46.81
478.36	112.35
478.54	32.77
478.72	72.56
478.90	53.83
479.08	60.85
479.26	7.02
479.44	42.13
479.62	91.28
479.80	37.45
479.98	58.51
480.16	63.19
480.34	16.38
480.52	77.24
480.70	56.17
480.88	88.94
481.06	37.45
481.24	105.32
481.41	72.56
481.59	95.96
481.77	56.17
481.95	88.94
482.13	49.15
482.31	58.51
482.49	39.79
482.67	84.26
482.85	21.06
483.03	56.17
483.21	16.38
483.39	56.17
483.57	72.56
483.74	67.88
483.92	0.00
484.10	46.81
484.28	46.81
484.46	0.00
484.64	72.56
484.82	81.92
485.00	105.32
485.18	25.75
485.35	49.15
485.53	70.22
485.71	86.60
485.89	147.45
486.07	63.19
486.25	18.72
486.43	42.13
486.61	28.09
486.78	35.11
486.96	51.49
487.14	98.30
487.32	0.00
487.50	25.75
487.68	119.37
487.85	58.51
488.03	79.58
488.21	0.00
488.39	84.26
488.57	70.22
488.75	124.05
488.92	110.01
489.10	23.41
489.28	88.94
489.46	77.24
489.64	147.45
489.81	60.85
489.99	53.83
490.17	91.28
490.35	67.88
490.53	121.71
490.70	39.79
490.88	67.88
491.06	77.24
491.24	70.22
491.41	110.01
491.59	30.43
491.77	51.49
491.95	131.07
492.13	11.70
492.30	16.38
492.48	0.00
492.66	112.35
492.84	131.07
493.01	23.41
493.19	58.51
493.37	51.49
493.54	53.83
493.72	88.94
493.90	77.24
494.08	88.94
494.25	117.03
494.43	11.70
494.61	30.43
494.79	86.60
494.96	107.66
495.14	72.56
495.32	49.15
495.49	72.56
495.67	79.58
495.85	77.24
496.02	0.00
496.20	0.00
496.38	98.30
496.55	72.56
496.73	14.04
496.91	65.54
497.09	53.83
497.26	84.26
497.44	11.70
497.62	95.96
497.79	128.73
497.97	105.32
498.14	81.92
498.32	60.85
498.50	56.17
498.67	58.51
498.85	39.79
499.03	107.66
499.20	25.75
499.38	11.70
499.56	56.17
499.73	86.60
499.91	51.49
500.08	0.00
500.26	72.56
500.44	102.98
500.61	74.90
500.79	114.69
500.97	126.39
501.14	93.62
501.32	100.64
501.49	63.19
501.67	67.88
501.84	98.30
502.02	84.26
502.20	121.71
502.37	70.22
502.55	105.32
502.72	147.45
502.90	70.22
503.07	2.34
503.25	117.03
503.43	51.49
503.60	102.98
503.78	114.69
503.95	56.17
504.13	65.54
504.30	37.45
504.48	140.43
504.65	128.73
504.83	79.58
505.01	121.71
505.18	133.41
505.36	39.79
505.53	44.47
505.71	11.70
505.88	93.62
506.06	63.19
506.23	42.13
506.41	70.22
506.58	60.85
506.76	110.01
506.93	0.00
507.11	44.47
507.28	119.37
507.46	25.75
507.63	35.11
507.81	81.92
507.98	58.51
508.16	95.96
508.33	56.17
508.50	77.24
508.68	58.51
508.85	32.77
509.03	72.56
509.20	117.03
509.38	81.92
509.55	100.64
509.73	121.71
509.90	117.03
510.08	102.98
510.25	25.75
510.42	84.26
510.60	39.79
510.77	72.56
510.95	98.30
511.12	107.66
511.30	93.62
511.47	93.62
511.64	128.73
511.82	44.47
511.99	16.38
512.17	58.51
512.34	95.96
512.51	112.35
512.69	51.49
512.86	107.66
513.04	110.01
513.21	110.01
513.38	86.60
513.56	79.58
513.73	93.62
513.90	142.77
514.08	67.88
514.25	79.58
514.43	7.02
514.60	67.88
514.77	105.32
514.95	105.32
515.12	79.58
515.29	51.49
515.47	107.66
515.64	56.17
515.81	18.72
515.99	149.79
516.16	4.68
516.33	88.94
516.51	107.66
516.68	98.30
516.85	46.81
517.03	30.43
517.20	53.83
517.37	74.90
517.54	49.15
517.72	79.58
517.89	81.92
518.06	49.15
518.24	32.77
518.41	86.60
518.58	121.71
518.75	84.26
518.93	102.98
519.10	37.45
519.27	70.22
519.45	74.90
519.62	67.88
519.79	7.02
519.96	70.22
520.14	56.17
520.31	67.88
520.48	72.56
520.65	65.54
520.83	0.00
521.00	79.58
521.17	95.96
521.34	77.24
521.52	37.45
521.69	53.83
521.86	105.32
522.03	79.58
522.20	65.54
522.38	21.06
522.55	88.94
522.72	98.30
522.89	63.19
523.07	98.30
523.24	95.96
523.41	102.98
523.58	67.88
523.75	32.77
523.92	88.94
524.10	65.54
524.27	121.71
524.44	70.22
524.61	114.69
524.78	72.56
524.96	102.98
525.13	60.85
525.30	0.00
525.47	84.26
525.64	128.73
525.81	128.73
525.98	70.22
526.16	124.05
526.33	88.94
526.50	70.22
526.67	56.17
526.84	107.66
527.01	72.56
527.18	98.30
527.36	67.88
527.53	114.69
527.70	88.94
527.87	58.51
528.04	0.00
528.21	49.15
528.38	112.35
528.55	102.98
528.72	112.35
528.89	95.96
529.07	56.17
529.24	14.04
529.41	46.81
529.58	112.35
529.75	102.98
529.92	135.75
530.09	114.69
530.26	126.39
530.43	56.17
530.60	35.11
530.77	44.47
530.94	86.60
531.11	74.90
531.28	100.64
531.46	67.88
531.63	154.48
531.80	149.79
531.97	74.90
532.14	72.56
532.31	84.26
532.48	112.35
532.65	35.11
532.82	79.58
532.99	91.28
533.16	140.43
533.33	84.26
533.50	70.22
533.67	86.60
533.84	112.35
534.01	14.04
534.18	37.45
534.35	70.22
534.52	98.30
534.69	79.58
534.86	128.73
535.03	42.13
535.20	46.81
535.37	58.51
535.54	49.15
535.71	149.79
535.88	58.51
536.05	74.90
536.22	119.37
536.38	105.32
536.55	128.73
536.72	98.30
536.89	86.60
537.06	81.92
537.23	86.60
537.40	25.75
537.57	98.30
537.74	28.09
537.91	39.79
538.08	49.15
538.25	81.92
538.42	91.28
538.59	93.62
538.75	102.98
538.92	98.30
539.09	128.73
539.26	131.07
539.43	110.01
539.60	93.62
539.77	74.90
539.94	39.79
540.11	60.85
540.28	114.69
540.44	70.22
540.61	79.58
540.78	84.26
540.95	67.88
541.12	100.64
541.29	98.30
541.46	65.54
541.62	133.41
541.79	72.56
541.96	67.88
542.13	110.01
542.30	84.26
542.47	86.60
542.63	51.49
542.80	65.54
542.97	112.35
543.14	91.28
543.31	28.09
543.48	131.07
543.64	86.60
543.81	138.09
543.98	100.64
544.15	70.22
544.32	100.64
544.48	79.58
544.65	81.92
544.82	56.17
544.99	63.19
545.16	131.07
545.32	91.28
545.49	161.50
545.66	135.75
545.83	105.32
546.00	152.13
546.16	102.98
546.33	0.00
546.50	0.00
546.67	49.15
546.83	110.01
547.00	53.83
547.17	46.81
547.34	131.07
547.50	0.00
547.67	91.28
547.84	95.96
548.00	79.58
548.17	49.15
548.34	126.39
548.51	84.26
548.67	93.62
548.84	72.56
549.01	93.62
549.18	53.83
549.34	142.77
549.51	72.56
549.68	138.09
549.84	117.03
550.01	77.24
550.18	21.06
550.34	81.92
550.51	81.92
550.68	77.24
550.84	0.00
551.01	79.58
551.18	117.03
551.34	100.64
551.51	42.13
551.68	42.13
551.84	63.19
552.01	91.28
552.18	112.35
552.34	131.07
552.51	63.19
552.68	46.81
552.84	93.62
553.01	156.82
553.18	107.66
553.34	142.77
553.51	63.19
553.67	91.28
553.84	60.85
554.01	60.85
554.17	60.85
554.34	107.66
554.51	39.79
554.67	102.98
554.84	98.30
555.00	91.28
555.17	67.88
555.33	91.28
555.50	32.77
555.67	91.28
555.83	98.30
556.00	105.32
556.16	112.35
556.33	81.92
556.50	140.43
556.66	60.85
556.83	95.96
556.99	0.00
557.16	91.28
557.32	79.58
557.49	149.79
557.65	37.45
557.82	81.92
557.98	79.58
558.15	168.52
558.32	49.15
558.48	30.43
558.65	114.69
558.81	25.75
558.98	11.70
559.14	42.13
559.31	91.28
559.47	105.32
559.64	77.24
559.80	180.22
559.97	95.96
560.13	102.98
560.30	77.24
560.46	56.17
560.63	86.60
560.79	91.28
560.96	163.84
561.12	138.09
561.29	60.85
561.45	32.77
561.61	112.35
561.78	105.32
561.94	88.94
562.11	51.49
562.27	119.37
562.44	65.54
562.60	100.64
562.77	119.37
562.93	79.58
563.10	107.66
563.26	65.54
563.42	72.56
563.59	77.24
563.75	133.41
563.92	147.45
564.08	65.54
564.24	49.15
564.41	95.96
564.57	65.54
564.74	131.07
564.90	140.43
565.07	49.15
565.23	102.98
565.39	28.09
565.56	124.05
565.72	107.66
565.88	119.37
566.05	67.88
566.21	126.39
566.38	138.09
566.54	105.32
566.70	93.62
566.87	121.71
567.03	110.01
567.19	53.83
567.36	49.15
567.52	91.28
567.68	100.64
567.85	110.01
568.01	70.22
568.17	18.72
568.34	7.02
568.50	98.30
568.66	35.11
568.83	88.94
568.99	128.73
569.15	49.15
569.32	180.22
569.48	49.15
569.64	140.43
569.81	37.45
569.97	44.47
570.13	49.15
570.30	30.43
570.46	72.56
570.62	67.88
570.78	102.98
570.95	0.00
571.11	105.32
571.27	84.26
571.43	37.45
571.60	95.96
571.76	93.62
571.92	63.19
572.09	93.62
572.25	81.92
572.41	107.66
572.57	32.77
572.74	67.88
572.90	102.98
573.06	39.79
573.22	23.41
573.38	53.83
573.55	114.69
573.71	121.71
573.87	81.92
574.03	63.19
574.20	74.90
574.36	56.17
574.52	28.09
574.68	138.09
574.84	84.26
575.01	58.51
575.17	14.04
575.33	63.19
575.49	91.28
575.65	60.85
575.82	49.15
575.98	44.47
576.14	74.90
576.30	60.85
576.46	81.92
576.62	102.98
576.79	65.54
576.95	112.35
577.11	133.41
577.27	51.49
577.43	42.13
577.59	72.56
577.75	37.45
577.92	51.49
578.08	112.35
578.24	114.69
578.40	145.11
578.56	42.13
578.72	72.56
578.88	131.07
579.04	21.06
579.21	100.64
579.37	21.06
579.53	51.49
579.69	126.39
579.85	32.77
580.01	28.09
580.17	67.88
580.33	79.58
580.49	133.41
580.65	42.13
580.82	102.98
580.98	84.26
581.14	65.54
581.30	9.36
581.46	58.51
581.62	35.11
581.78	79.58
581.94	56.17
582.10	77.24
582.26	46.81
582.42	0.00
582.58	126.39
582.74	39.79
582.90	128.73
583.06	84.26
583.22	72.56
583.38	28.09
583.54	60.85
583.70	37.45
583.86	60.85
584.02	9.36
584.18	60.85
584.34	102.98
584.50	86.60
584.66	119.37
584.82	121.71
584.98	51.49
585.14	121.71
585.30	46.81
585.46	58.51
585.62	121.71
585.78	93.62
585.94	65.54
586.10	32.77
586.26	126.39
586.42	86.60
586.58	46.81
586.74	93.62
586.90	49.15
587.06	91.28
587.22	100.64
587.38	107.66
587.54	39.79
587.70	95.96
587.86	77.24
588.02	110.01
588.18	131.07
588.34	95.96
588.49	74.90
588.65	74.90
588.81	107.66
588.97	30.43
589.13	98.30
589.29	65.54
589.45	49.15
589.61	88.94
589.77	63.19
589.93	35.11
590.08	79.58
590.24	98.30
590.40	67.88
590.56	25.75
590.72	58.51
590.88	46.81
591.04	84.26
591.20	0.00
591.35	86.60
591.51	72.56
591.67	53.83
591.83	28.09
591.99	126.39
592.15	126.39
592.31	51.49
592.46	39.79
592.62	74.90
592.78	102.98
592.94	23.41
593.10	49.15
593.26	102.98
593.41	74.90
593.57	98.30
593.73	81.92
593.89	60.85
594.05	86.60
594.20	56.17
594.36	98.30
594.52	91.28
594.68	126.39
594.84	35.11
594.99	49.15
595.15	74.90
595.31	44.47
595.47	77.24
595.62	46.81
595.78	81.92
595.94	60.85
596.10	131.07
596.25	30.43
596.41	58.51
596.57	56.17
596.73	46.81
596.88	128.73
597.04	74.90
597.20	42.13
597.36	140.43
597.51	23.41
597.67	21.06
597.83	79.58
597.99	37.45
598.14	58.51
598.30	105.32
598.46	77.24
598.61	0.00
598.77	107.66
598.93	79.58
599.09	114.69
599.24	70.22
599.40	110.01
599.56	112.35
599.71	16.38
599.87	100.64
600.03	35.11
600.18	77.24
600.34	86.60
600.50	117.03
600.65	112.35
600.81	95.96
600.97	42.13
601.12	110.01
601.28	77.24
601.44	21.06
601.59	79.58
601.75	126.39
601.91	67.88
602.06	72.56
602.22	32.77
602.37	138.09
602.53	67.88
602.69	30.43
602.84	72.56
603.00	74.90
603.16	70.22
603.31	0.00
603.47	70.22
603.62	49.15
603.78	131.07
603.94	49.15
604.09	14.04
604.25	7.02
604.40	58.51
604.56	0.00
604.71	49.15
604.87	84.26
605.03	42.13
605.18	7.02
605.34	21.06
605.49	21.06
605.65	63.19
605.80	35.11
605.96	77.24
606.12	105.32
606.27	100.64
606.43	63.19
606.58	72.56
606.74	105.32
606.89	72.56
607.05	112.35
607.20	105.32
607.36	9.36
607.51	70.22
607.67	18.72
607.82	42.13
607.98	72.56
608.13	70.22
608.29	25.75
608.44	30.43
608.60	23.41
608.75	131.07
608.91	63.19
609.06	42.13
609.22	65.54
609.37	93.62
609.53	39.79
609.68	119.37
609.84	72.56
609.99	72.56
610.15	42.13
610.30	124.05
610.46	100.64
610.61	0.00
610.76	35.11
610.92	35.11
611.07	65.54
611.23	51.49
611.38	0.00
611.54	56.17
611.69	93.62
611.84	25.75
612.00	35.11
612.15	30.43
612.31	98.30
612.46	100.64
612.62	79.58
612.77	4.68
612.92	81.92
613.08	46.81
613.23	84.26
613.39	126.39
613.54	35.11
613.69	16.38
613.85	21.06
614.00	67.88
614.15	44.47
614.31	86.60
614.46	107.66
614.62	0.00
614.77	114.69
614.92	81.92
615.08	23.41
615.23	100.64
615.38	53.83
615.54	88.94
615.69	114.69
615.84	84.26
616.00	42.13
616.15	117.03
616.30	60.85
616.46	0.00
616.61	58.51
616.76	56.17
616.92	44.47
617.07	14.04
617.22	114.69
617.37	91.28
617.53	42.13
617.68	117.03
617.83	0.00
617.99	72.56
618.14	145.11
618.29	86.60
618.45	56.17
618.60	23.41
618.75	65.54
618.90	23.41
619.06	0.00
619.21	49.15
619.36	67.88
619.51	86.60
619.67	95.96
619.82	70.22
619.97	21.06
620.12	56.17
620.28	95.96
620.43	140.43
620.58	14.04
620.73	91.28
620.89	107.66
621.04	42.13
621.19	0.00
621.34	142.77
621.49	77.24
621.65	81.92
621.80	79.58
621.95	110.01
622.10	124.05
622.25	105.32
622.41	93.62
622.56	37.45
622.71	0.00
622.86	93.62
623.01	84.26
623.16	102.98
623.32	53.83
623.47	100.64
623.62	14.04
623.77	0.00
623.92	91.28
624.07	110.01
624.23	65.54
624.38	28.09
624.53	39.79
624.68	105.32
624.83	91.28
624.98	39.79
625.13	107.66
625.29	42.13
625.44	77.24
625.59	65.54
625.74	44.47
625.89	32.77
626.04	42.13
626.19	138.09
626.34	128.73
626.49	70.22
626.65	74.90
626.80	37.45
626.95	100.64
627.10	60.85
627.25	0.00
627.40	46.81
627.55	93.62
627.70	77.24
627.85	102.98
628.00	65.54
628.15	14.04
628.30	32.77
628.45	28.09
628.60	51.49
628.76	32.77
628.91	0.00
629.06	0.00
629.21	35.11
629.36	100.64
629.51	95.96
629.66	63.19
629.81	21.06
629.96	128.73
630.11	112.35
630.26	4.68
630.41	0.00
630.56	95.96
630.71	44.47
630.86	100.64
631.01	11.70
631.16	70.22
631.31	98.30
631.46	119.37
631.61	53.83
631.76	30.43
631.91	88.94
632.06	56.17
632.21	112.35
632.36	0.00
632.51	51.49
632.66	0.00
632.81	0.00
632.96	128.73
633.10	63.19
633.25	60.85
633.40	74.90
633.55	7.02
633.70	72.56
633.85	117.03
634.00	67.88
634.15	60.85
634.30	49.15
634.45	81.92
634.60	51.49
634.75	93.62
634.90	81.92
635.05	81.92
635.19	79.58
635.34	25.75
635.49	56.17
635.64	44.47
635.79	91.28
635.94	49.15
636.09	100.64
636.24	67.88
636.39	72.56
636.53	67.88
636.68	72.56
636.83	124.05
636.98	28.09
637.13	81.92
637.28	58.51
637.43	37.45
637.57	49.15
637.72	81.92
637.87	21.06
638.02	0.00
638.17	14.04
638.32	161.50
638.46	25.75
638.61	65.54
638.76	32.77
638.91	49.15
639.06	70.22
639.20	79.58
639.35	56.17
639.50	60.85
639.65	98.30
639.80	42.13
639.94	9.36
640.09	0.00
640.24	25.75
640.39	79.58
640.54	49.15
640.68	58.51
640.83	74.90
640.98	77.24
641.13	53.83
641.27	23.41
641.42	53.83
641.57	4.68
641.72	84.26
641.86	0.00
642.01	25.75
642.16	131.07
642.31	23.41
642.45	126.39
642.60	42.13
642.75	0.00
642.90	18.72
643.04	100.64
643.19	81.92
643.34	9.36
643.48	81.92
643.63	11.70
643.78	9.36
643.93	74.90
644.07	56.17
644.22	51.49
644.37	35.11
644.51	16.38
644.66	14.04
644.81	114.69
644.95	51.49
645.10	63.19
645.25	121.71
645.39	51.49
645.54	7.02
645.69	110.01
645.83	56.17
645.98	112.35
646.13	32.77
646.27	46.81
646.42	107.66
646.57	44.47
646.71	70.22
646.86	46.81
647.00	86.60
647.15	16.38
647.30	74.90
647.44	112.35
647.59	39.79
647.74	30.43
647.88	58.51
648.03	70.22
648.17	42.13
648.32	18.72
648.47	28.09
648.61	30.43
648.76	30.43
648.90	72.56
649.05	53.83
649.20	107.66
649.34	84.26
649.49	32.77
649.63	93.62
649.78	133.41
649.92	28.09
650.07	44.47
650.21	37.45
650.36	88.94
650.51	25.75
650.65	46.81
650.80	21.06
650.94	16.38
651.09	39.79
651.23	42.13
651.38	67.88
651.52	56.17
651.67	25.75
651.81	0.00
651.96	16.38
652.10	49.15
652.25	79.58
652.39	37.45
652.54	70.22
652.68	88.94
652.83	44.47
652.97	65.54
653.12	56.17
653.26	0.00
653.41	58.51
653.55	110.01
653.70	35.11
653.84	102.98
653.99	49.15
654.13	60.85
654.27	0.00
654.42	51.49
654.56	30.43
654.71	39.79
654.85	37.45
655.00	7.02
655.14	65.54
655.29	56.17
655.43	0.00
655.57	42.13
655.72	93.62
655.86	32.77
656.01	37.45
656.15	56.17
656.30	58.51
656.44	84.26
656.58	14.04
656.73	0.00
656.87	53.83
657.01	46.81
657.16	30.43
657.30	56.17
657.45	65.54
657.59	0.00
657.73	0.00
657.88	88.94
658.02	44.47
658.16	9.36
658.31	42.13
658.45	67.88
658.60	11.70
658.74	51.49
658.88	30.43
659.03	0.00
659.17	102.98
659.31	21.06
659.46	0.00
659.60	21.06
659.74	37.45
659.89	112.35
660.03	65.54
660.17	2.34
660.32	21.06
660.46	4.68
660.60	0.00
660.74	28.09
660.89	0.00
661.03	60.85
661.17	60.85
661.32	23.41
661.46	98.30
661.60	39.79
661.74	84.26
661.89	37.45
662.03	32.77
662.17	79.58
662.31	35.11
662.46	81.92
662.60	7.02
662.74	107.66
662.88	23.41
663.03	51.49
663.17	37.45
663.31	56.17
663.45	30.43
663.60	25.75
663.74	39.79
663.88	74.90
664.02	56.17
664.17	0.00
664.31	84.26
664.45	98.30
664.59	46.81
664.73	39.79
664.88	65.54
665.02	105.32
665.16	0.00
665.30	49.15
665.44	23.41
665.59	63.19
665.73	58.51
665.87	37.45
666.01	84.26
666.15	16.38
666.29	32.77
666.44	81.92
666.58	51.49
666.72	7.02
666.86	65.54
667.00	32.77
667.14	67.88
667.28	49.15
667.43	37.45
667.57	53.83
667.71	23.41
667.85	21.06
667.99	79.58
668.13	145.11
668.27	51.49
668.41	42.13
668.56	51.49
668.70	70.22
668.84	32.77
668.98	23.41
669.12	79.58
669.26	124.05
669.40	70.22
669.54	16.38
669.68	95.96
669.82	49.15
669.96	39.79
670.10	42.13
670.25	18.72
670.39	72.56
670.53	88.94
670.67	67.88
670.81	28.09
670.95	0.00
671.09	11.70
671.23	93.62
671.37	11.70
671.51	56.17
671.65	37.45
671.79	9.36
671.93	32.77
672.07	60.85
672.21	42.13
672.35	23.41
672.49	0.00
672.63	18.72
672.77	49.15
672.91	107.66
673.05	0.00
673.19	0.00
673.33	53.83
673.47	77.24
673.61	70.22
673.75	35.11
673.89	77.24
674.03	37.45
674.17	16.38
674.31	42.13
674.45	35.11
674.59	53.83
674.73	51.49
674.87	49.15
675.01	81.92
675.15	105.32
675.29	100.64
675.43	112.35
675.56	112.35
675.70	86.60
675.84	25.75
675.98	60.85
676.12	32.77
676.26	0.00
676.40	32.77
676.54	117.03
676.68	126.39
676.82	65.54
676.96	21.06
677.10	14.04
677.23	9.36
677.37	11.70
677.51	0.00
677.65	77.24
677.79	91.28
677.93	98.30
678.07	25.75
678.21	39.79
678.34	37.45
678.48	30.43
678.62	79.58
678.76	30.43
678.90	67.88
679.04	37.45
679.18	91.28
679.31	0.00
679.45	79.58
679.59	7.02
679.73	7.02
679.87	28.09
680.00	138.09
680.14	98.30
680.28	11.70
680.42	74.90
680.56	51.49
680.70	35.11
680.83	63.19
680.97	25.75
681.11	37.45
681.25	7.02
681.39	32.77
681.52	35.11
681.66	88.94
681.80	0.00
681.94	86.60
682.07	16.38
682.21	63.19
682.35	0.00
682.49	0.00
682.62	49.15
682.76	0.00
682.90	42.13
683.04	0.00
683.17	11.70
683.31	100.64
683.45	70.22
683.59	119.37
683.72	86.60
683.86	72.56
684.00	53.83
684.13	0.00
684.27	154.48
684.41	7.02
684.55	102.98
684.68	112.35
684.82	72.56
684.96	65.54
685.09	72.56
685.23	14.04
685.37	74.90
685.50	119.37
685.64	91.28
685.78	0.00
685.91	42.13
686.05	0.00
686.19	58.51
686.32	32.77
686.46	72.56
686.60	0.00
686.73	86.60
686.87	14.04
687.01	11.70
687.14	37.45
687.28	0.00
687.42	51.49
687.55	28.09
687.69	44.47
687.82	102.98
687.96	58.51
688.10	42.13
688.23	67.88
688.37	84.26
688.50	23.41
688.64	86.60
688.78	46.81
688.91	46.81
689.05	70.22
689.18	72.56
689.32	0.00
689.46	16.38
689.59	23.41
689.73	105.32
689.86	70.22
690.00	16.38
690.13	86.60
690.27	44.47
690.41	9.36
690.54	56.17
690.68	72.56
690.81	42.13
690.95	88.94
691.08	42.13
691.22	46.81
691.35	105.32
691.49	70.22
691.62	25.75
691.76	53.83
691.89	58.51
692.03	60.85
692.16	44.47
692.30	28.09
692.43	18.72
692.57	42.13
692.70	84.26
692.84	23.41
692.97	91.28
693.11	44.47
693.24	67.88
693.38	39.79
693.51	53.83
693.65	37.45
693.78	18.72
693.92	25.75
694.05	0.00
694.19	18.72
694.32	107.66
694.45	42.13
694.59	0.00
694.72	46.81
694.86	79.58
694.99	28.09
695.13	16.38
695.26	35.11
695.39	81.92
695.53	37.45
695.66	86.60
695.80	84.26
695.93	81.92
696.07	84.26
696.20	11.70
696.33	7.02
696.47	60.85
696.60	81.92
696.73	14.04
696.87	53.83
697.00	9.36
697.14	63.19
697.27	16.38
697.40	21.06
697.54	51.49
697.67	0.00
697.80	46.81
697.94	35.11
698.07	72.56
698.21	0.00
698.34	2.34
698.47	65.54
698.61	65.54
698.74	0.00
698.87	107.66
699.01	53.83
699.14	53.83
699.27	91.28
699.40	28.09
699.54	0.00
699.67	35.11
699.80	84.26
699.94	32.77
700.07	60.85
700.20	51.49
700.34	63.19
700.47	30.43
700.60	18.72
700.73	70.22
700.87	84.26
701.00	21.06
701.13	84.26
701.26	49.15
701.40	18.72
701.53	0.00
701.66	46.81
701.79	11.70
701.93	67.88
702.06	56.17
702.19	0.00
702.32	21.06
702.46	7.02
702.59	53.83
702.72	74.90
702.85	86.60
702.99	70.22
703.12	51.49
703.25	102.98
703.38	14.04
703.51	18.72
703.65	65.54
703.78	49.15
703.91	49.15
704.04	35.11
704.17	0.00
704.31	0.00
704.44	0.00
704.57	0.00
704.70	28.09
704.83	39.79
704.96	0.00
705.10	63.19
705.23	39.79
>>>>>End Processed Spectral Data<<<<<
