SpectraSuite Data File
++++++++++++++++++++++++++++++++++++
Date: Fri Oct 04 12:13:43 GMT-05:00 2013
User: price-jones
Dark Spectrum Present: No
Reference Spectrum Present: No
Number of Sampled Component Spectra: 1
Spectrometers: USB2+H05261
Integration Time (usec): 10000 (USB2+H05261)
Spectra Averaged: 1 (USB2+H05261)
Boxcar Smoothing: 0 (USB2+H05261)
Correct for Electrical Dark: No (USB2+H05261)
Strobe/Lamp Enabled: No (USB2+H05261)
Correct for Detector Non-linearity: No (USB2+H05261)
Correct for Stray Light: No (USB2+H05261)
Number of Pixels in Processed Spectrum: 2048
>>>>>Begin Processed Spectral Data<<<<<
365.73	0.00
365.92	0.00
366.12	0.00
366.32	0.00
366.52	0.00
366.72	0.00
366.91	0.00
367.11	0.00
367.31	0.00
367.51	0.00
367.70	0.00
367.90	0.00
368.10	0.00
368.30	0.00
368.49	0.00
368.69	0.00
368.89	0.00
369.09	0.00
369.28	0.00
369.48	0.00
369.68	0.00
369.87	0.00
370.07	0.00
370.27	0.00
370.47	0.00
370.66	0.00
370.86	0.00
371.06	23.41
371.25	21.06
371.45	84.26
371.65	0.00
371.84	0.00
372.04	0.00
372.24	0.00
372.44	0.00
372.63	0.00
372.83	63.19
373.03	0.00
373.22	7.02
373.42	102.98
373.62	16.38
373.81	0.00
374.01	0.00
374.21	98.30
374.40	51.49
374.60	0.00
374.79	72.56
374.99	0.00
375.19	2.34
375.38	18.72
375.58	53.83
375.78	25.75
375.97	30.43
376.17	56.17
376.37	58.51
376.56	37.45
376.76	112.35
376.95	126.39
377.15	11.70
377.35	0.00
377.54	30.43
377.74	0.00
377.93	37.45
378.13	42.13
378.33	32.77
378.52	44.47
378.72	46.81
378.91	0.00
379.11	0.00
379.31	0.00
379.50	0.00
379.70	32.77
379.89	11.70
380.09	0.00
380.28	9.36
380.48	18.72
380.68	0.00
380.87	4.68
381.07	42.13
381.26	28.09
381.46	18.72
381.65	0.00
381.85	0.00
382.04	2.34
382.24	86.60
382.43	11.70
382.63	21.06
382.83	42.13
383.02	0.00
383.22	0.00
383.41	0.00
383.61	18.72
383.80	9.36
384.00	28.09
384.19	56.17
384.39	60.85
384.58	60.85
384.78	0.00
384.97	2.34
385.17	28.09
385.36	23.41
385.56	21.06
385.75	51.49
385.95	56.17
386.14	21.06
386.34	0.00
386.53	23.41
386.72	58.51
386.92	4.68
387.11	37.45
387.31	9.36
387.50	18.72
387.70	2.34
387.89	9.36
388.09	0.00
388.28	0.00
388.48	14.04
388.67	117.03
388.86	0.00
389.06	14.04
389.25	18.72
389.45	21.06
389.64	0.00
389.84	0.00
390.03	0.00
390.22	56.17
390.42	0.00
390.61	21.06
390.81	0.00
391.00	0.00
391.19	16.38
391.39	2.34
391.58	0.00
391.78	9.36
391.97	100.64
392.16	77.24
392.36	74.90
392.55	0.00
392.75	42.13
392.94	0.00
393.13	0.00
393.33	18.72
393.52	0.00
393.71	0.00
393.91	42.13
394.10	18.72
394.29	9.36
394.49	0.00
394.68	53.83
394.88	117.03
395.07	23.41
395.26	0.00
395.46	0.00
395.65	30.43
395.84	35.11
396.04	0.00
396.23	2.34
396.42	16.38
396.62	0.00
396.81	0.00
397.00	0.00
397.19	39.79
397.39	0.00
397.58	0.00
397.77	0.00
397.97	18.72
398.16	16.38
398.35	16.38
398.55	18.72
398.74	30.43
398.93	2.34
399.12	32.77
399.32	25.75
399.51	0.00
399.70	2.34
399.90	16.38
400.09	0.00
400.28	51.49
400.47	0.00
400.67	14.04
400.86	0.00
401.05	35.11
401.24	0.00
401.44	21.06
401.63	0.00
401.82	0.00
402.01	4.68
402.21	39.79
402.40	102.98
402.59	28.09
402.78	37.45
402.97	65.54
403.17	100.64
403.36	0.00
403.55	44.47
403.74	37.45
403.93	37.45
404.13	18.72
404.32	0.00
404.51	7.02
404.70	0.00
404.89	16.38
405.09	39.79
405.28	72.56
405.47	0.00
405.66	53.83
405.85	30.43
406.05	49.15
406.24	56.17
406.43	0.00
406.62	30.43
406.81	18.72
407.00	0.00
407.20	0.00
407.39	46.81
407.58	21.06
407.77	14.04
407.96	0.00
408.15	23.41
408.34	28.09
408.54	44.47
408.73	0.00
408.92	49.15
409.11	37.45
409.30	60.85
409.49	39.79
409.68	0.00
409.87	0.00
410.07	25.75
410.26	42.13
410.45	46.81
410.64	28.09
410.83	9.36
411.02	4.68
411.21	0.00
411.40	0.00
411.59	14.04
411.78	74.90
411.98	0.00
412.17	0.00
412.36	79.58
412.55	32.77
412.74	28.09
412.93	32.77
413.12	51.49
413.31	51.49
413.50	81.92
413.69	0.00
413.88	53.83
414.07	44.47
414.26	0.00
414.45	14.04
414.64	0.00
414.83	11.70
415.02	0.00
415.22	102.98
415.41	0.00
415.60	0.00
415.79	91.28
415.98	16.38
416.17	0.00
416.36	18.72
416.55	39.79
416.74	72.56
416.93	30.43
417.12	11.70
417.31	7.02
417.50	0.00
417.69	37.45
417.88	14.04
418.07	14.04
418.26	28.09
418.45	56.17
418.64	74.90
418.83	0.00
419.02	0.00
419.21	37.45
419.39	28.09
419.58	4.68
419.77	35.11
419.96	65.54
420.15	60.85
420.34	58.51
420.53	42.13
420.72	25.75
420.91	9.36
421.10	23.41
421.29	0.00
421.48	16.38
421.67	39.79
421.86	46.81
422.05	30.43
422.24	0.00
422.43	25.75
422.61	60.85
422.80	0.00
422.99	60.85
423.18	14.04
423.37	7.02
423.56	0.00
423.75	0.00
423.94	42.13
424.13	23.41
424.32	46.81
424.50	21.06
424.69	14.04
424.88	37.45
425.07	0.00
425.26	0.00
425.45	0.00
425.64	77.24
425.83	32.77
426.01	4.68
426.20	0.00
426.39	42.13
426.58	0.00
426.77	23.41
426.96	0.00
427.15	0.00
427.33	93.62
427.52	0.00
427.71	0.00
427.90	58.51
428.09	16.38
428.28	18.72
428.46	4.68
428.65	23.41
428.84	21.06
429.03	0.00
429.22	51.49
429.40	0.00
429.59	65.54
429.78	21.06
429.97	95.96
430.16	51.49
430.34	4.68
430.53	0.00
430.72	39.79
430.91	21.06
431.10	37.45
431.28	11.70
431.47	23.41
431.66	74.90
431.85	25.75
432.03	46.81
432.22	0.00
432.41	0.00
432.60	7.02
432.79	30.43
432.97	53.83
433.16	88.94
433.35	16.38
433.54	21.06
433.72	0.00
433.91	39.79
434.10	0.00
434.28	56.17
434.47	35.11
434.66	21.06
434.85	44.47
435.03	9.36
435.22	0.00
435.41	58.51
435.59	0.00
435.78	32.77
435.97	18.72
436.16	46.81
436.34	44.47
436.53	16.38
436.72	18.72
436.90	58.51
437.09	63.19
437.28	110.01
437.46	58.51
437.65	37.45
437.84	0.00
438.02	25.75
438.21	79.58
438.40	14.04
438.58	98.30
438.77	16.38
438.96	35.11
439.14	4.68
439.33	53.83
439.52	0.00
439.70	0.00
439.89	42.13
440.08	21.06
440.26	0.00
440.45	30.43
440.63	67.88
440.82	42.13
441.01	0.00
441.19	16.38
441.38	0.00
441.57	74.90
441.75	63.19
441.94	39.79
442.12	42.13
442.31	28.09
442.50	7.02
442.68	53.83
442.87	35.11
443.05	44.47
443.24	30.43
443.43	23.41
443.61	49.15
443.80	16.38
443.98	7.02
444.17	25.75
444.35	0.00
444.54	14.04
444.73	88.94
444.91	14.04
445.10	30.43
445.28	49.15
445.47	56.17
445.65	4.68
445.84	30.43
446.02	42.13
446.21	91.28
446.39	35.11
446.58	67.88
446.77	44.47
446.95	39.79
447.14	0.00
447.32	0.00
447.51	0.00
447.69	102.98
447.88	72.56
448.06	21.06
448.25	67.88
448.43	23.41
448.62	0.00
448.80	0.00
448.99	11.70
449.17	23.41
449.36	79.58
449.54	93.62
449.73	39.79
449.91	51.49
450.10	23.41
450.28	49.15
450.46	46.81
450.65	14.04
450.83	46.81
451.02	86.60
451.20	21.06
451.39	102.98
451.57	0.00
451.76	35.11
451.94	30.43
452.13	0.00
452.31	44.47
452.49	56.17
452.68	4.68
452.86	42.13
453.05	58.51
453.23	14.04
453.42	0.00
453.60	0.00
453.78	23.41
453.97	77.24
454.15	23.41
454.34	93.62
454.52	79.58
454.70	53.83
454.89	23.41
455.07	25.75
455.26	14.04
455.44	0.00
455.62	37.45
455.81	63.19
455.99	53.83
456.17	2.34
456.36	37.45
456.54	98.30
456.73	18.72
456.91	0.00
457.09	0.00
457.28	46.81
457.46	0.00
457.64	67.88
457.83	84.26
458.01	42.13
458.19	70.22
458.38	16.38
458.56	88.94
458.74	110.01
458.93	18.72
459.11	42.13
459.29	0.00
459.48	98.30
459.66	7.02
459.84	0.00
460.03	93.62
460.21	102.98
460.39	0.00
460.57	42.13
460.76	30.43
460.94	60.85
461.12	23.41
461.31	37.45
461.49	37.45
461.67	72.56
461.85	39.79
462.04	0.00
462.22	93.62
462.40	56.17
462.59	152.13
462.77	18.72
462.95	53.83
463.13	56.17
463.32	35.11
463.50	84.26
463.68	56.17
463.86	86.60
464.05	11.70
464.23	30.43
464.41	65.54
464.59	2.34
464.78	0.00
464.96	46.81
465.14	65.54
465.32	11.70
465.50	105.32
465.69	0.00
465.87	0.00
466.05	88.94
466.23	0.00
466.41	63.19
466.60	46.81
466.78	46.81
466.96	0.00
467.14	70.22
467.32	56.17
467.51	0.00
467.69	46.81
467.87	49.15
468.05	14.04
468.23	74.90
468.41	49.15
468.60	0.00
468.78	9.36
468.96	95.96
469.14	70.22
469.32	53.83
469.50	72.56
469.69	67.88
469.87	21.06
470.05	0.00
470.23	18.72
470.41	53.83
470.59	21.06
470.77	72.56
470.95	21.06
471.14	60.85
471.32	4.68
471.50	32.77
471.68	91.28
471.86	72.56
472.04	16.38
472.22	14.04
472.40	81.92
472.58	44.47
472.77	28.09
472.95	18.72
473.13	70.22
473.31	53.83
473.49	23.41
473.67	95.96
473.85	37.45
474.03	0.00
474.21	0.00
474.39	74.90
474.57	65.54
474.75	35.11
474.93	49.15
475.12	44.47
475.30	28.09
475.48	32.77
475.66	74.90
475.84	0.00
476.02	0.00
476.20	79.58
476.38	81.92
476.56	37.45
476.74	67.88
476.92	117.03
477.10	14.04
477.28	39.79
477.46	0.00
477.64	28.09
477.82	51.49
478.00	72.56
478.18	21.06
478.36	67.88
478.54	60.85
478.72	56.17
478.90	0.00
479.08	51.49
479.26	51.49
479.44	25.75
479.62	102.98
479.80	46.81
479.98	107.66
480.16	39.79
480.34	119.37
480.52	25.75
480.70	70.22
480.88	79.58
481.06	70.22
481.24	72.56
481.41	35.11
481.59	23.41
481.77	44.47
481.95	35.11
482.13	46.81
482.31	70.22
482.49	77.24
482.67	53.83
482.85	42.13
483.03	37.45
483.21	18.72
483.39	65.54
483.57	39.79
483.74	0.00
483.92	79.58
484.10	44.47
484.28	44.47
484.46	28.09
484.64	93.62
484.82	14.04
485.00	53.83
485.18	79.58
485.35	51.49
485.53	60.85
485.71	0.00
485.89	0.00
486.07	21.06
486.25	60.85
486.43	0.00
486.61	0.00
486.78	0.00
486.96	4.68
487.14	30.43
487.32	53.83
487.50	63.19
487.68	21.06
487.85	46.81
488.03	51.49
488.21	9.36
488.39	56.17
488.57	0.00
488.75	63.19
488.92	128.73
489.10	88.94
489.28	51.49
489.46	37.45
489.64	9.36
489.81	4.68
489.99	102.98
490.17	9.36
490.35	0.00
490.53	56.17
490.70	70.22
490.88	46.81
491.06	9.36
491.24	0.00
491.41	42.13
491.59	51.49
491.77	0.00
491.95	0.00
492.13	28.09
492.30	63.19
492.48	79.58
492.66	67.88
492.84	0.00
493.01	86.60
493.19	112.35
493.37	42.13
493.54	35.11
493.72	84.26
493.90	81.92
494.08	67.88
494.25	35.11
494.43	63.19
494.61	79.58
494.79	95.96
494.96	37.45
495.14	0.00
495.32	81.92
495.49	39.79
495.67	23.41
495.85	35.11
496.02	21.06
496.20	23.41
496.38	65.54
496.55	84.26
496.73	56.17
496.91	0.00
497.09	72.56
497.26	63.19
497.44	91.28
497.62	51.49
497.79	28.09
497.97	23.41
498.14	51.49
498.32	0.00
498.50	81.92
498.67	23.41
498.85	56.17
499.03	0.00
499.20	58.51
499.38	74.90
499.56	11.70
499.73	51.49
499.91	18.72
500.08	51.49
500.26	67.88
500.44	0.00
500.61	30.43
500.79	11.70
500.97	65.54
501.14	0.00
501.32	7.02
501.49	28.09
501.67	23.41
501.84	16.38
502.02	58.51
502.20	9.36
502.37	21.06
502.55	72.56
502.72	81.92
502.90	44.47
503.07	81.92
503.25	51.49
503.43	0.00
503.60	133.41
503.78	0.00
503.95	11.70
504.13	44.47
504.30	46.81
504.48	121.71
504.65	100.64
504.83	32.77
505.01	117.03
505.18	44.47
505.36	0.00
505.53	58.51
505.71	44.47
505.88	46.81
506.06	11.70
506.23	25.75
506.41	0.00
506.58	35.11
506.76	42.13
506.93	39.79
507.11	63.19
507.28	42.13
507.46	23.41
507.63	39.79
507.81	7.02
507.98	98.30
508.16	60.85
508.33	91.28
508.50	0.00
508.68	88.94
508.85	30.43
509.03	58.51
509.20	74.90
509.38	30.43
509.55	0.00
509.73	42.13
509.90	79.58
510.08	23.41
510.25	81.92
510.42	9.36
510.60	72.56
510.77	35.11
510.95	81.92
511.12	14.04
511.30	105.32
511.47	18.72
511.64	0.00
511.82	93.62
511.99	37.45
512.17	93.62
512.34	56.17
512.51	44.47
512.69	81.92
512.86	81.92
513.04	16.38
513.21	100.64
513.38	25.75
513.56	0.00
513.73	81.92
513.90	84.26
514.08	14.04
514.25	86.60
514.43	44.47
514.60	42.13
514.77	28.09
514.95	28.09
515.12	44.47
515.29	32.77
515.47	51.49
515.64	30.43
515.81	21.06
515.99	81.92
516.16	60.85
516.33	79.58
516.51	28.09
516.68	58.51
516.85	0.00
517.03	70.22
517.20	51.49
517.37	88.94
517.54	21.06
517.72	0.00
517.89	72.56
518.06	32.77
518.24	7.02
518.41	65.54
518.58	114.69
518.75	14.04
518.93	131.07
519.10	44.47
519.27	51.49
519.45	32.77
519.62	30.43
519.79	51.49
519.96	0.00
520.14	53.83
520.31	100.64
520.48	60.85
520.65	51.49
520.83	0.00
521.00	53.83
521.17	35.11
521.34	18.72
521.52	0.00
521.69	32.77
521.86	98.30
522.03	56.17
522.20	18.72
522.38	32.77
522.55	32.77
522.72	105.32
522.89	14.04
523.07	42.13
523.24	0.00
523.41	49.15
523.58	142.77
523.75	49.15
523.92	56.17
524.10	58.51
524.27	0.00
524.44	25.75
524.61	67.88
524.78	35.11
524.96	60.85
525.13	25.75
525.30	53.83
525.47	35.11
525.64	35.11
525.81	126.39
525.98	93.62
526.16	49.15
526.33	124.05
526.50	93.62
526.67	25.75
526.84	63.19
527.01	0.00
527.18	18.72
527.36	23.41
527.53	14.04
527.70	91.28
527.87	79.58
528.04	0.00
528.21	21.06
528.38	42.13
528.55	0.00
528.72	98.30
528.89	93.62
529.07	105.32
529.24	16.38
529.41	44.47
529.58	86.60
529.75	32.77
529.92	42.13
530.09	117.03
530.26	11.70
530.43	67.88
530.60	58.51
530.77	0.00
530.94	9.36
531.11	4.68
531.28	60.85
531.46	39.79
531.63	46.81
531.80	77.24
531.97	53.83
532.14	35.11
532.31	0.00
532.48	7.02
532.65	49.15
532.82	32.77
532.99	16.38
533.16	74.90
533.33	74.90
533.50	102.98
533.67	28.09
533.84	11.70
534.01	60.85
534.18	67.88
534.35	110.01
534.52	95.96
534.69	86.60
534.86	42.13
535.03	11.70
535.20	21.06
535.37	0.00
535.54	0.00
535.71	72.56
535.88	79.58
536.05	32.77
536.22	49.15
536.38	32.77
536.55	110.01
536.72	58.51
536.89	112.35
537.06	74.90
537.23	70.22
537.40	25.75
537.57	58.51
537.74	126.39
537.91	121.71
538.08	44.47
538.25	44.47
538.42	112.35
538.59	72.56
538.75	77.24
538.92	58.51
539.09	72.56
539.26	18.72
539.43	18.72
539.60	86.60
539.77	32.77
539.94	28.09
540.11	42.13
540.28	0.00
540.44	23.41
540.61	7.02
540.78	88.94
540.95	7.02
541.12	25.75
541.29	53.83
541.46	28.09
541.62	0.00
541.79	65.54
541.96	32.77
542.13	65.54
542.30	58.51
542.47	25.75
542.63	74.90
542.80	0.00
542.97	0.00
543.14	53.83
543.31	88.94
543.48	81.92
543.64	0.00
543.81	35.11
543.98	56.17
544.15	53.83
544.32	126.39
544.48	74.90
544.65	117.03
544.82	37.45
544.99	86.60
545.16	37.45
545.32	21.06
545.49	7.02
545.66	46.81
545.83	11.70
546.00	16.38
546.16	100.64
546.33	72.56
546.50	84.26
546.67	42.13
546.83	0.00
547.00	46.81
547.17	131.07
547.34	0.00
547.50	53.83
547.67	46.81
547.84	11.70
548.00	16.38
548.17	0.00
548.34	114.69
548.51	110.01
548.67	9.36
548.84	67.88
549.01	16.38
549.18	74.90
549.34	30.43
549.51	77.24
549.68	72.56
549.84	65.54
550.01	0.00
550.18	21.06
550.34	121.71
550.51	16.38
550.68	84.26
550.84	98.30
551.01	30.43
551.18	98.30
551.34	0.00
551.51	39.79
551.68	0.00
551.84	102.98
552.01	79.58
552.18	25.75
552.34	37.45
552.51	30.43
552.68	91.28
552.84	53.83
553.01	7.02
553.18	30.43
553.34	49.15
553.51	88.94
553.67	72.56
553.84	53.83
554.01	63.19
554.17	72.56
554.34	32.77
554.51	70.22
554.67	18.72
554.84	16.38
555.00	79.58
555.17	60.85
555.33	44.47
555.50	114.69
555.67	91.28
555.83	98.30
556.00	84.26
556.16	18.72
556.33	74.90
556.50	37.45
556.66	53.83
556.83	49.15
556.99	0.00
557.16	23.41
557.32	51.49
557.49	102.98
557.65	105.32
557.82	18.72
557.98	0.00
558.15	0.00
558.32	0.00
558.48	86.60
558.65	0.00
558.81	53.83
558.98	77.24
559.14	79.58
559.31	14.04
559.47	81.92
559.64	0.00
559.80	56.17
559.97	0.00
560.13	18.72
560.30	0.00
560.46	28.09
560.63	42.13
560.79	42.13
560.96	23.41
561.12	30.43
561.29	159.16
561.45	72.56
561.61	0.00
561.78	46.81
561.94	0.00
562.11	28.09
562.27	39.79
562.44	11.70
562.60	28.09
562.77	46.81
562.93	0.00
563.10	65.54
563.26	25.75
563.42	77.24
563.59	46.81
563.75	88.94
563.92	60.85
564.08	63.19
564.24	51.49
564.41	9.36
564.57	0.00
564.74	91.28
564.90	86.60
565.07	88.94
565.23	63.19
565.39	4.68
565.56	72.56
565.72	7.02
565.88	23.41
566.05	0.00
566.21	32.77
566.38	25.75
566.54	84.26
566.70	70.22
566.87	11.70
567.03	0.00
567.19	63.19
567.36	117.03
567.52	53.83
567.68	32.77
567.85	51.49
568.01	21.06
568.17	11.70
568.34	56.17
568.50	70.22
568.66	49.15
568.83	42.13
568.99	32.77
569.15	42.13
569.32	51.49
569.48	0.00
569.64	42.13
569.81	70.22
569.97	86.60
570.13	79.58
570.30	91.28
570.46	37.45
570.62	44.47
570.78	56.17
570.95	46.81
571.11	42.13
571.27	67.88
571.43	30.43
571.60	35.11
571.76	56.17
571.92	67.88
572.09	30.43
572.25	30.43
572.41	49.15
572.57	0.00
572.74	21.06
572.90	39.79
573.06	32.77
573.22	23.41
573.38	11.70
573.55	49.15
573.71	56.17
573.87	37.45
574.03	131.07
574.20	60.85
574.36	128.73
574.52	35.11
574.68	30.43
574.84	11.70
575.01	53.83
575.17	14.04
575.33	51.49
575.49	0.00
575.65	100.64
575.82	70.22
575.98	35.11
576.14	28.09
576.30	37.45
576.46	49.15
576.62	0.00
576.79	4.68
576.95	7.02
577.11	112.35
577.27	131.07
577.43	63.19
577.59	72.56
577.75	21.06
577.92	7.02
578.08	18.72
578.24	67.88
578.40	18.72
578.56	35.11
578.72	0.00
578.88	0.00
579.04	44.47
579.21	42.13
579.37	100.64
579.53	79.58
579.69	0.00
579.85	60.85
580.01	35.11
580.17	21.06
580.33	60.85
580.49	2.34
580.65	35.11
580.82	0.00
580.98	0.00
581.14	98.30
581.30	0.00
581.46	44.47
581.62	16.38
581.78	56.17
581.94	9.36
582.10	65.54
582.26	39.79
582.42	18.72
582.58	100.64
582.74	70.22
582.90	25.75
583.06	44.47
583.22	84.26
583.38	0.00
583.54	98.30
583.70	65.54
583.86	2.34
584.02	42.13
584.18	72.56
584.34	65.54
584.50	77.24
584.66	42.13
584.82	7.02
584.98	67.88
585.14	2.34
585.30	25.75
585.46	133.41
585.62	9.36
585.78	42.13
585.94	86.60
586.10	93.62
586.26	58.51
586.42	23.41
586.58	49.15
586.74	0.00
586.90	53.83
587.06	35.11
587.22	56.17
587.38	11.70
587.54	21.06
587.70	51.49
587.86	37.45
588.02	51.49
588.18	4.68
588.34	14.04
588.49	9.36
588.65	65.54
588.81	18.72
588.97	0.00
589.13	37.45
589.29	32.77
589.45	30.43
589.61	65.54
589.77	18.72
589.93	44.47
590.08	0.00
590.24	51.49
590.40	53.83
590.56	53.83
590.72	37.45
590.88	0.00
591.04	0.00
591.20	25.75
591.35	37.45
591.51	39.79
591.67	21.06
591.83	37.45
591.99	0.00
592.15	65.54
592.31	49.15
592.46	46.81
592.62	4.68
592.78	56.17
592.94	53.83
593.10	16.38
593.26	28.09
593.41	28.09
593.57	56.17
593.73	0.00
593.89	16.38
594.05	2.34
594.20	0.00
594.36	25.75
594.52	42.13
594.68	79.58
594.84	11.70
594.99	30.43
595.15	0.00
595.31	39.79
595.47	58.51
595.62	110.01
595.78	25.75
595.94	18.72
596.10	67.88
596.25	14.04
596.41	42.13
596.57	56.17
596.73	46.81
596.88	42.13
597.04	23.41
597.20	56.17
597.36	4.68
597.51	58.51
597.67	39.79
597.83	74.90
597.99	28.09
598.14	18.72
598.30	88.94
598.46	58.51
598.61	107.66
598.77	21.06
598.93	93.62
599.09	56.17
599.24	67.88
599.40	44.47
599.56	0.00
599.71	95.96
599.87	49.15
600.03	74.90
600.18	84.26
600.34	46.81
600.50	65.54
600.65	0.00
600.81	74.90
600.97	63.19
601.12	0.00
601.28	9.36
601.44	0.00
601.59	39.79
601.75	84.26
601.91	14.04
602.06	30.43
602.22	30.43
602.37	0.00
602.53	25.75
602.69	77.24
602.84	0.00
603.00	86.60
603.16	9.36
603.31	9.36
603.47	2.34
603.62	42.13
603.78	28.09
603.94	37.45
604.09	32.77
604.25	9.36
604.40	42.13
604.56	28.09
604.71	44.47
604.87	110.01
605.03	0.00
605.18	46.81
605.34	23.41
605.49	7.02
605.65	0.00
605.80	9.36
605.96	0.00
606.12	0.00
606.27	7.02
606.43	42.13
606.58	56.17
606.74	28.09
606.89	0.00
607.05	11.70
607.20	86.60
607.36	107.66
607.51	0.00
607.67	56.17
607.82	0.00
607.98	72.56
608.13	23.41
608.29	56.17
608.44	0.00
608.60	39.79
608.75	110.01
608.91	44.47
609.06	56.17
609.22	60.85
609.37	102.98
609.53	98.30
609.68	74.90
609.84	0.00
609.99	0.00
610.15	28.09
610.30	91.28
610.46	79.58
610.61	58.51
610.76	0.00
610.92	16.38
611.07	70.22
611.23	58.51
611.38	46.81
611.54	46.81
611.69	11.70
611.84	39.79
612.00	0.00
612.15	0.00
612.31	58.51
612.46	42.13
612.62	56.17
612.77	67.88
612.92	95.96
613.08	56.17
613.23	56.17
613.39	0.00
613.54	65.54
613.69	0.00
613.85	9.36
614.00	0.00
614.15	65.54
614.31	56.17
614.46	67.88
614.62	70.22
614.77	0.00
614.92	39.79
615.08	63.19
615.23	72.56
615.38	51.49
615.54	32.77
615.69	51.49
615.84	79.58
616.00	46.81
616.15	60.85
616.30	16.38
616.46	42.13
616.61	28.09
616.76	58.51
616.92	18.72
617.07	7.02
617.22	58.51
617.37	21.06
617.53	16.38
617.68	9.36
617.83	30.43
617.99	30.43
618.14	70.22
618.29	70.22
618.45	14.04
618.60	16.38
618.75	4.68
618.90	23.41
619.06	58.51
619.21	42.13
619.36	53.83
619.51	70.22
619.67	86.60
619.82	46.81
619.97	0.00
620.12	32.77
620.28	16.38
620.43	67.88
620.58	51.49
620.73	72.56
620.89	77.24
621.04	16.38
621.19	9.36
621.34	0.00
621.49	23.41
621.65	93.62
621.80	49.15
621.95	53.83
622.10	7.02
622.25	77.24
622.41	51.49
622.56	35.11
622.71	7.02
622.86	56.17
623.01	49.15
623.16	28.09
623.32	63.19
623.47	18.72
623.62	0.00
623.77	56.17
623.92	67.88
624.07	4.68
624.23	2.34
624.38	0.00
624.53	16.38
624.68	28.09
624.83	0.00
624.98	88.94
625.13	0.00
625.29	23.41
625.44	30.43
625.59	30.43
625.74	23.41
625.89	28.09
626.04	53.83
626.19	16.38
626.34	21.06
626.49	18.72
626.65	30.43
626.80	0.00
626.95	25.75
627.10	14.04
627.25	0.00
627.40	42.13
627.55	53.83
627.70	39.79
627.85	42.13
628.00	0.00
628.15	91.28
628.30	4.68
628.45	21.06
628.60	56.17
628.76	77.24
628.91	65.54
629.06	18.72
629.21	0.00
629.36	21.06
629.51	9.36
629.66	14.04
629.81	44.47
629.96	79.58
630.11	53.83
630.26	2.34
630.41	51.49
630.56	35.11
630.71	79.58
630.86	60.85
631.01	53.83
631.16	117.03
631.31	102.98
631.46	39.79
631.61	46.81
631.76	21.06
631.91	53.83
632.06	0.00
632.21	30.43
632.36	81.92
632.51	67.88
632.66	74.90
632.81	30.43
632.96	4.68
633.10	56.17
633.25	88.94
633.40	0.00
633.55	18.72
633.70	84.26
633.85	81.92
634.00	56.17
634.15	37.45
634.30	23.41
634.45	21.06
634.60	0.00
634.75	93.62
634.90	0.00
635.05	0.00
635.19	0.00
635.34	4.68
635.49	0.00
635.64	16.38
635.79	88.94
635.94	51.49
636.09	42.13
636.24	53.83
636.39	35.11
636.53	56.17
636.68	11.70
636.83	0.00
636.98	35.11
637.13	53.83
637.28	98.30
637.43	98.30
637.57	95.96
637.72	32.77
637.87	25.75
638.02	44.47
638.17	95.96
638.32	0.00
638.46	0.00
638.61	58.51
638.76	32.77
638.91	91.28
639.06	49.15
639.20	110.01
639.35	14.04
639.50	0.00
639.65	42.13
639.80	30.43
639.94	63.19
640.09	35.11
640.24	49.15
640.39	35.11
640.54	44.47
640.68	42.13
640.83	39.79
640.98	0.00
641.13	70.22
641.27	42.13
641.42	49.15
641.57	79.58
641.72	112.35
641.86	70.22
642.01	28.09
642.16	0.00
642.31	53.83
642.45	16.38
642.60	60.85
642.75	58.51
642.90	53.83
643.04	23.41
643.19	9.36
643.34	81.92
643.48	9.36
643.63	49.15
643.78	46.81
643.93	21.06
644.07	21.06
644.22	49.15
644.37	93.62
644.51	49.15
644.66	65.54
644.81	35.11
644.95	44.47
645.10	70.22
645.25	42.13
645.39	7.02
645.54	42.13
645.69	102.98
645.83	46.81
645.98	23.41
646.13	23.41
646.27	28.09
646.42	0.00
646.57	30.43
646.71	0.00
646.86	42.13
647.00	18.72
647.15	46.81
647.30	0.00
647.44	30.43
647.59	56.17
647.74	65.54
647.88	9.36
648.03	98.30
648.17	0.00
648.32	0.00
648.47	30.43
648.61	58.51
648.76	0.00
648.90	44.47
649.05	56.17
649.20	35.11
649.34	42.13
649.49	0.00
649.63	14.04
649.78	46.81
649.92	21.06
650.07	42.13
650.21	53.83
650.36	81.92
650.51	14.04
650.65	56.17
650.80	0.00
650.94	25.75
651.09	51.49
651.23	0.00
651.38	37.45
651.52	32.77
651.67	0.00
651.81	30.43
651.96	0.00
652.10	79.58
652.25	16.38
652.39	23.41
652.54	0.00
652.68	4.68
652.83	18.72
652.97	0.00
653.12	16.38
653.26	7.02
653.41	42.13
653.55	0.00
653.70	53.83
653.84	16.38
653.99	25.75
654.13	23.41
654.27	0.00
654.42	4.68
654.56	0.00
654.71	7.02
654.85	58.51
655.00	81.92
655.14	14.04
655.29	44.47
655.43	28.09
655.57	35.11
655.72	84.26
655.86	63.19
656.01	79.58
656.15	18.72
656.30	0.00
656.44	44.47
656.58	56.17
656.73	25.75
656.87	70.22
657.01	23.41
657.16	0.00
657.30	46.81
657.45	60.85
657.59	21.06
657.73	30.43
657.88	79.58
658.02	9.36
658.16	16.38
658.31	100.64
658.45	14.04
658.60	7.02
658.74	42.13
658.88	4.68
659.03	0.00
659.17	42.13
659.31	65.54
659.46	25.75
659.60	72.56
659.74	63.19
659.89	23.41
660.03	39.79
660.17	30.43
660.32	42.13
660.46	16.38
660.60	0.00
660.74	53.83
660.89	14.04
661.03	0.00
661.17	0.00
661.32	2.34
661.46	39.79
661.60	0.00
661.74	39.79
661.89	0.00
662.03	0.00
662.17	0.00
662.31	46.81
662.46	0.00
662.60	25.75
662.74	0.00
662.88	16.38
663.03	110.01
663.17	2.34
663.31	0.00
663.45	51.49
663.60	65.54
663.74	14.04
663.88	49.15
664.02	16.38
664.17	63.19
664.31	0.00
664.45	18.72
664.59	70.22
664.73	46.81
664.88	102.98
665.02	28.09
665.16	0.00
665.30	65.54
665.44	28.09
665.59	7.02
665.73	9.36
665.87	37.45
666.01	56.17
666.15	51.49
666.29	37.45
666.44	81.92
666.58	60.85
666.72	16.38
666.86	42.13
667.00	0.00
667.14	28.09
667.28	0.00
667.43	30.43
667.57	21.06
667.71	74.90
667.85	32.77
667.99	0.00
668.13	7.02
668.27	70.22
668.41	0.00
668.56	42.13
668.70	23.41
668.84	2.34
668.98	65.54
669.12	0.00
669.26	74.90
669.40	25.75
669.54	16.38
669.68	23.41
669.82	79.58
669.96	0.00
670.10	0.00
670.25	9.36
670.39	58.51
670.53	65.54
670.67	63.19
670.81	65.54
670.95	9.36
671.09	0.00
671.23	25.75
671.37	7.02
671.51	16.38
671.65	28.09
671.79	42.13
671.93	14.04
672.07	18.72
672.21	21.06
672.35	0.00
672.49	4.68
672.63	0.00
672.77	44.47
672.91	0.00
673.05	9.36
673.19	16.38
673.33	42.13
673.47	0.00
673.61	58.51
673.75	60.85
673.89	105.32
674.03	16.38
674.17	14.04
674.31	2.34
674.45	74.90
674.59	53.83
674.73	35.11
674.87	60.85
675.01	0.00
675.15	28.09
675.29	28.09
675.43	14.04
675.56	28.09
675.70	70.22
675.84	0.00
675.98	81.92
676.12	30.43
676.26	18.72
676.40	98.30
676.54	42.13
676.68	37.45
676.82	2.34
676.96	60.85
677.10	56.17
677.23	42.13
677.37	72.56
677.51	42.13
677.65	28.09
677.79	0.00
677.93	32.77
678.07	2.34
678.21	0.00
678.34	0.00
678.48	23.41
678.62	84.26
678.76	2.34
678.90	102.98
679.04	4.68
679.18	25.75
679.31	74.90
679.45	58.51
679.59	28.09
679.73	67.88
679.87	56.17
680.00	28.09
680.14	46.81
680.28	84.26
680.42	0.00
680.56	46.81
680.70	0.00
680.83	21.06
680.97	49.15
681.11	110.01
681.25	42.13
681.39	72.56
681.52	30.43
681.66	67.88
681.80	102.98
681.94	28.09
682.07	63.19
682.21	14.04
682.35	42.13
682.49	42.13
682.62	0.00
682.76	4.68
682.90	39.79
683.04	0.00
683.17	42.13
683.31	42.13
683.45	46.81
683.59	65.54
683.72	16.38
683.86	2.34
684.00	0.00
684.13	42.13
684.27	0.00
684.41	91.28
684.55	28.09
684.68	72.56
684.82	102.98
684.96	39.79
685.09	65.54
685.23	4.68
685.37	72.56
685.50	37.45
685.64	25.75
685.78	37.45
685.91	63.19
686.05	0.00
686.19	39.79
686.32	46.81
686.46	0.00
686.60	53.83
686.73	2.34
686.87	0.00
687.01	0.00
687.14	16.38
687.28	30.43
687.42	102.98
687.55	53.83
687.69	0.00
687.82	63.19
687.96	46.81
688.10	81.92
688.23	67.88
688.37	58.51
688.50	28.09
688.64	0.00
688.78	72.56
688.91	7.02
689.05	44.47
689.18	81.92
689.32	4.68
689.46	44.47
689.59	84.26
689.73	28.09
689.86	25.75
690.00	0.00
690.13	0.00
690.27	0.00
690.41	74.90
690.54	49.15
690.68	4.68
690.81	0.00
690.95	30.43
691.08	39.79
691.22	23.41
691.35	72.56
691.49	18.72
691.62	91.28
691.76	107.66
691.89	18.72
692.03	53.83
692.16	0.00
692.30	44.47
692.43	67.88
692.57	0.00
692.70	114.69
692.84	77.24
692.97	81.92
693.11	18.72
693.24	37.45
693.38	37.45
693.51	0.00
693.65	0.00
693.78	53.83
693.92	0.00
694.05	49.15
694.19	0.00
694.32	126.39
694.45	11.70
694.59	37.45
694.72	0.00
694.86	42.13
694.99	37.45
695.13	30.43
695.26	0.00
695.39	16.38
695.53	0.00
695.66	0.00
695.80	91.28
695.93	11.70
696.07	9.36
696.20	9.36
696.33	23.41
696.47	16.38
696.60	0.00
696.73	88.94
696.87	25.75
697.00	4.68
697.14	0.00
697.27	11.70
697.40	95.96
697.54	25.75
697.67	0.00
697.80	23.41
697.94	0.00
698.07	2.34
698.21	18.72
698.34	7.02
698.47	0.00
698.61	9.36
698.74	21.06
698.87	28.09
699.01	46.81
699.14	0.00
699.27	81.92
699.40	39.79
699.54	49.15
699.67	0.00
699.80	14.04
699.94	30.43
700.07	14.04
700.20	14.04
700.34	39.79
700.47	37.45
700.60	37.45
700.73	4.68
700.87	9.36
701.00	7.02
701.13	16.38
701.26	0.00
701.40	0.00
701.53	4.68
701.66	18.72
701.79	58.51
701.93	0.00
702.06	58.51
702.19	63.19
702.32	14.04
702.46	14.04
702.59	65.54
702.72	0.00
702.85	65.54
702.99	0.00
703.12	37.45
703.25	16.38
703.38	25.75
703.51	56.17
703.65	65.54
703.78	51.49
703.91	0.00
704.04	44.47
704.17	16.38
704.31	0.00
704.44	0.00
704.57	35.11
704.70	25.75
704.83	0.00
704.96	91.28
705.10	16.38
705.23	53.83
>>>>>End Processed Spectral Data<<<<<
