SpectraSuite Data File
++++++++++++++++++++++++++++++++++++
Date: Fri Oct 04 12:13:35 GMT-05:00 2013
User: price-jones
Dark Spectrum Present: No
Reference Spectrum Present: No
Number of Sampled Component Spectra: 1
Spectrometers: USB2+H05261
Integration Time (usec): 10000 (USB2+H05261)
Spectra Averaged: 1 (USB2+H05261)
Boxcar Smoothing: 0 (USB2+H05261)
Correct for Electrical Dark: No (USB2+H05261)
Strobe/Lamp Enabled: No (USB2+H05261)
Correct for Detector Non-linearity: No (USB2+H05261)
Correct for Stray Light: No (USB2+H05261)
Number of Pixels in Processed Spectrum: 2048
>>>>>Begin Processed Spectral Data<<<<<
365.73	4.68
365.92	4.68
366.12	4.68
366.32	0.00
366.52	0.00
366.72	0.00
366.91	0.00
367.11	0.00
367.31	0.00
367.51	0.00
367.70	0.00
367.90	0.00
368.10	0.00
368.30	0.00
368.49	0.00
368.69	0.00
368.89	0.00
369.09	0.00
369.28	0.00
369.48	0.00
369.68	0.00
369.87	0.00
370.07	0.00
370.27	0.00
370.47	0.00
370.66	0.00
370.86	0.00
371.06	0.00
371.25	11.70
371.45	39.79
371.65	0.00
371.84	0.00
372.04	7.02
372.24	0.00
372.44	49.15
372.63	56.17
372.83	2.34
373.03	0.00
373.22	49.15
373.42	39.79
373.62	23.41
373.81	39.79
374.01	60.85
374.21	11.70
374.40	0.00
374.60	51.49
374.79	44.47
374.99	0.00
375.19	44.47
375.38	95.96
375.58	53.83
375.78	11.70
375.97	42.13
376.17	7.02
376.37	77.24
376.56	70.22
376.76	77.24
376.95	7.02
377.15	0.00
377.35	53.83
377.54	0.00
377.74	0.00
377.93	35.11
378.13	28.09
378.33	0.00
378.52	28.09
378.72	0.00
378.91	30.43
379.11	4.68
379.31	0.00
379.50	25.75
379.70	30.43
379.89	9.36
380.09	18.72
380.28	39.79
380.48	0.00
380.68	0.00
380.87	21.06
381.07	0.00
381.26	25.75
381.46	0.00
381.65	0.00
381.85	81.92
382.04	81.92
382.24	72.56
382.43	0.00
382.63	0.00
382.83	56.17
383.02	0.00
383.22	14.04
383.41	0.00
383.61	18.72
383.80	4.68
384.00	28.09
384.19	44.47
384.39	35.11
384.58	49.15
384.78	0.00
384.97	14.04
385.17	35.11
385.36	95.96
385.56	30.43
385.75	77.24
385.95	35.11
386.14	37.45
386.34	84.26
386.53	9.36
386.72	11.70
386.92	72.56
387.11	0.00
387.31	7.02
387.50	21.06
387.70	0.00
387.89	30.43
388.09	72.56
388.28	0.00
388.48	0.00
388.67	84.26
388.86	0.00
389.06	72.56
389.25	16.38
389.45	60.85
389.64	0.00
389.84	23.41
390.03	0.00
390.22	4.68
390.42	0.00
390.61	0.00
390.81	0.00
391.00	58.51
391.19	9.36
391.39	0.00
391.58	58.51
391.78	79.58
391.97	0.00
392.16	65.54
392.36	9.36
392.55	14.04
392.75	72.56
392.94	32.77
393.13	110.01
393.33	0.00
393.52	21.06
393.71	18.72
393.91	0.00
394.10	0.00
394.29	0.00
394.49	4.68
394.68	4.68
394.88	0.00
395.07	32.77
395.26	16.38
395.46	105.32
395.65	0.00
395.84	9.36
396.04	37.45
396.23	25.75
396.42	121.71
396.62	0.00
396.81	42.13
397.00	35.11
397.19	44.47
397.39	0.00
397.58	0.00
397.77	7.02
397.97	0.00
398.16	18.72
398.35	18.72
398.55	67.88
398.74	0.00
398.93	84.26
399.12	39.79
399.32	4.68
399.51	0.00
399.70	0.00
399.90	46.81
400.09	4.68
400.28	0.00
400.47	37.45
400.67	14.04
400.86	98.30
401.05	0.00
401.24	65.54
401.44	56.17
401.63	93.62
401.82	4.68
402.01	72.56
402.21	14.04
402.40	4.68
402.59	0.00
402.78	9.36
402.97	11.70
403.17	79.58
403.36	0.00
403.55	0.00
403.74	4.68
403.93	18.72
404.13	0.00
404.32	25.75
404.51	28.09
404.70	65.54
404.89	65.54
405.09	25.75
405.28	2.34
405.47	32.77
405.66	28.09
405.85	35.11
406.05	0.00
406.24	74.90
406.43	35.11
406.62	0.00
406.81	65.54
407.00	58.51
407.20	63.19
407.39	23.41
407.58	0.00
407.77	0.00
407.96	21.06
408.15	65.54
408.34	53.83
408.54	0.00
408.73	4.68
408.92	32.77
409.11	49.15
409.30	28.09
409.49	0.00
409.68	11.70
409.87	65.54
410.07	18.72
410.26	7.02
410.45	11.70
410.64	21.06
410.83	0.00
411.02	30.43
411.21	23.41
411.40	70.22
411.59	9.36
411.78	16.38
411.98	0.00
412.17	53.83
412.36	25.75
412.55	14.04
412.74	0.00
412.93	67.88
413.12	23.41
413.31	0.00
413.50	16.38
413.69	37.45
413.88	49.15
414.07	91.28
414.26	4.68
414.45	49.15
414.64	0.00
414.83	0.00
415.02	39.79
415.22	119.37
415.41	79.58
415.60	28.09
415.79	32.77
415.98	81.92
416.17	0.00
416.36	23.41
416.55	28.09
416.74	21.06
416.93	42.13
417.12	2.34
417.31	51.49
417.50	74.90
417.69	16.38
417.88	46.81
418.07	18.72
418.26	63.19
418.45	21.06
418.64	42.13
418.83	0.00
419.02	21.06
419.21	14.04
419.39	0.00
419.58	0.00
419.77	74.90
419.96	58.51
420.15	58.51
420.34	70.22
420.53	14.04
420.72	0.00
420.91	110.01
421.10	65.54
421.29	72.56
421.48	0.00
421.67	58.51
421.86	91.28
422.05	67.88
422.24	35.11
422.43	0.00
422.61	25.75
422.80	0.00
422.99	39.79
423.18	30.43
423.37	32.77
423.56	72.56
423.75	121.71
423.94	70.22
424.13	0.00
424.32	0.00
424.50	112.35
424.69	11.70
424.88	35.11
425.07	35.11
425.26	4.68
425.45	72.56
425.64	16.38
425.83	60.85
426.01	119.37
426.20	84.26
426.39	32.77
426.58	39.79
426.77	32.77
426.96	21.06
427.15	44.47
427.33	0.00
427.52	0.00
427.71	25.75
427.90	35.11
428.09	14.04
428.28	53.83
428.46	91.28
428.65	25.75
428.84	84.26
429.03	88.94
429.22	91.28
429.40	49.15
429.59	102.98
429.78	131.07
429.97	63.19
430.16	32.77
430.34	65.54
430.53	35.11
430.72	63.19
430.91	9.36
431.10	30.43
431.28	25.75
431.47	37.45
431.66	39.79
431.85	21.06
432.03	56.17
432.22	42.13
432.41	105.32
432.60	138.09
432.79	0.00
432.97	72.56
433.16	46.81
433.35	35.11
433.54	0.00
433.72	49.15
433.91	0.00
434.10	0.00
434.28	32.77
434.47	100.64
434.66	70.22
434.85	135.75
435.03	42.13
435.22	58.51
435.41	65.54
435.59	56.17
435.78	49.15
435.97	7.02
436.16	7.02
436.34	74.90
436.53	30.43
436.72	28.09
436.90	95.96
437.09	95.96
437.28	168.52
437.46	49.15
437.65	0.00
437.84	0.00
438.02	7.02
438.21	107.66
438.40	0.00
438.58	79.58
438.77	44.47
438.96	30.43
439.14	58.51
439.33	0.00
439.52	46.81
439.70	28.09
439.89	28.09
440.08	74.90
440.26	79.58
440.45	77.24
440.63	16.38
440.82	60.85
441.01	37.45
441.19	0.00
441.38	14.04
441.57	0.00
441.75	56.17
441.94	0.00
442.12	7.02
442.31	60.85
442.50	74.90
442.68	0.00
442.87	44.47
443.05	112.35
443.24	79.58
443.43	37.45
443.61	23.41
443.80	51.49
443.98	133.41
444.17	67.88
444.35	39.79
444.54	93.62
444.73	42.13
444.91	110.01
445.10	79.58
445.28	53.83
445.47	18.72
445.65	44.47
445.84	51.49
446.02	51.49
446.21	44.47
446.39	0.00
446.58	18.72
446.77	67.88
446.95	100.64
447.14	0.00
447.32	35.11
447.51	77.24
447.69	16.38
447.88	11.70
448.06	32.77
448.25	49.15
448.43	58.51
448.62	0.00
448.80	42.13
448.99	131.07
449.17	81.92
449.36	86.60
449.54	39.79
449.73	35.11
449.91	53.83
450.10	138.09
450.28	60.85
450.46	95.96
450.65	60.85
450.83	37.45
451.02	56.17
451.20	21.06
451.39	119.37
451.57	63.19
451.76	98.30
451.94	39.79
452.13	0.00
452.31	102.98
452.49	37.45
452.68	28.09
452.86	79.58
453.05	74.90
453.23	0.00
453.42	93.62
453.60	88.94
453.78	51.49
453.97	0.00
454.15	112.35
454.34	9.36
454.52	18.72
454.70	65.54
454.89	0.00
455.07	100.64
455.26	91.28
455.44	21.06
455.62	88.94
455.81	135.75
455.99	117.03
456.17	58.51
456.36	0.00
456.54	51.49
456.73	30.43
456.91	30.43
457.09	74.90
457.28	56.17
457.46	51.49
457.64	72.56
457.83	0.00
458.01	42.13
458.19	39.79
458.38	16.38
458.56	67.88
458.74	23.41
458.93	0.00
459.11	37.45
459.29	0.00
459.48	93.62
459.66	30.43
459.84	23.41
460.03	131.07
460.21	74.90
460.39	39.79
460.57	77.24
460.76	74.90
460.94	51.49
461.12	86.60
461.31	60.85
461.49	2.34
461.67	39.79
461.85	51.49
462.04	21.06
462.22	107.66
462.40	88.94
462.59	72.56
462.77	51.49
462.95	119.37
463.13	39.79
463.32	0.00
463.50	100.64
463.68	0.00
463.86	95.96
464.05	70.22
464.23	70.22
464.41	74.90
464.59	39.79
464.78	93.62
464.96	42.13
465.14	18.72
465.32	126.39
465.50	91.28
465.69	72.56
465.87	16.38
466.05	35.11
466.23	32.77
466.41	2.34
466.60	16.38
466.78	88.94
466.96	37.45
467.14	81.92
467.32	81.92
467.51	51.49
467.69	79.58
467.87	117.03
468.05	2.34
468.23	72.56
468.41	35.11
468.60	114.69
468.78	56.17
468.96	133.41
469.14	63.19
469.32	16.38
469.50	51.49
469.69	70.22
469.87	95.96
470.05	11.70
470.23	74.90
470.41	53.83
470.59	30.43
470.77	67.88
470.95	102.98
471.14	58.51
471.32	63.19
471.50	102.98
471.68	67.88
471.86	56.17
472.04	84.26
472.22	70.22
472.40	60.85
472.58	65.54
472.77	110.01
472.95	9.36
473.13	14.04
473.31	65.54
473.49	67.88
473.67	124.05
473.85	32.77
474.03	42.13
474.21	117.03
474.39	4.68
474.57	21.06
474.75	63.19
474.93	112.35
475.12	21.06
475.30	65.54
475.48	39.79
475.66	102.98
475.84	70.22
476.02	46.81
476.20	128.73
476.38	81.92
476.56	7.02
476.74	51.49
476.92	124.05
477.10	39.79
477.28	30.43
477.46	18.72
477.64	51.49
477.82	70.22
478.00	67.88
478.18	81.92
478.36	11.70
478.54	35.11
478.72	32.77
478.90	84.26
479.08	133.41
479.26	30.43
479.44	32.77
479.62	42.13
479.80	0.00
479.98	117.03
480.16	74.90
480.34	79.58
480.52	72.56
480.70	67.88
480.88	37.45
481.06	110.01
481.24	58.51
481.41	35.11
481.59	135.75
481.77	149.79
481.95	60.85
482.13	37.45
482.31	0.00
482.49	84.26
482.67	37.45
482.85	63.19
483.03	46.81
483.21	30.43
483.39	4.68
483.57	79.58
483.74	46.81
483.92	65.54
484.10	0.00
484.28	124.05
484.46	93.62
484.64	86.60
484.82	91.28
485.00	79.58
485.18	42.13
485.35	70.22
485.53	77.24
485.71	102.98
485.89	14.04
486.07	58.51
486.25	79.58
486.43	86.60
486.61	53.83
486.78	70.22
486.96	65.54
487.14	16.38
487.32	70.22
487.50	46.81
487.68	67.88
487.85	51.49
488.03	112.35
488.21	65.54
488.39	95.96
488.57	98.30
488.75	16.38
488.92	131.07
489.10	112.35
489.28	28.09
489.46	51.49
489.64	95.96
489.81	107.66
489.99	93.62
490.17	102.98
490.35	107.66
490.53	72.56
490.70	84.26
490.88	112.35
491.06	93.62
491.24	14.04
491.41	161.50
491.59	98.30
491.77	72.56
491.95	58.51
492.13	159.16
492.30	126.39
492.48	91.28
492.66	86.60
492.84	46.81
493.01	77.24
493.19	95.96
493.37	23.41
493.54	28.09
493.72	56.17
493.90	9.36
494.08	100.64
494.25	140.43
494.43	86.60
494.61	107.66
494.79	18.72
494.96	23.41
495.14	133.41
495.32	124.05
495.49	91.28
495.67	88.94
495.85	67.88
496.02	72.56
496.20	42.13
496.38	56.17
496.55	77.24
496.73	25.75
496.91	18.72
497.09	37.45
497.26	70.22
497.44	49.15
497.62	79.58
497.79	98.30
497.97	84.26
498.14	114.69
498.32	49.15
498.50	70.22
498.67	51.49
498.85	51.49
499.03	138.09
499.20	124.05
499.38	77.24
499.56	131.07
499.73	91.28
499.91	58.51
500.08	107.66
500.26	60.85
500.44	56.17
500.61	65.54
500.79	39.79
500.97	63.19
501.14	112.35
501.32	154.48
501.49	58.51
501.67	67.88
501.84	65.54
502.02	65.54
502.20	53.83
502.37	0.00
502.55	98.30
502.72	84.26
502.90	102.98
503.07	60.85
503.25	98.30
503.43	60.85
503.60	79.58
503.78	58.51
503.95	46.81
504.13	128.73
504.30	7.02
504.48	133.41
504.65	58.51
504.83	67.88
505.01	81.92
505.18	105.32
505.36	79.58
505.53	70.22
505.71	58.51
505.88	102.98
506.06	170.86
506.23	114.69
506.41	65.54
506.58	51.49
506.76	35.11
506.93	70.22
507.11	84.26
507.28	35.11
507.46	60.85
507.63	65.54
507.81	98.30
507.98	79.58
508.16	84.26
508.33	105.32
508.50	131.07
508.68	107.66
508.85	72.56
509.03	88.94
509.20	30.43
509.38	88.94
509.55	37.45
509.73	39.79
509.90	35.11
510.08	23.41
510.25	79.58
510.42	102.98
510.60	58.51
510.77	112.35
510.95	168.52
511.12	107.66
511.30	105.32
511.47	152.13
511.64	65.54
511.82	49.15
511.99	112.35
512.17	67.88
512.34	74.90
512.51	105.32
512.69	84.26
512.86	65.54
513.04	42.13
513.21	18.72
513.38	58.51
513.56	65.54
513.73	25.75
513.90	88.94
514.08	126.39
514.25	131.07
514.43	0.00
514.60	46.81
514.77	51.49
514.95	72.56
515.12	79.58
515.29	95.96
515.47	2.34
515.64	166.18
515.81	88.94
515.99	117.03
516.16	105.32
516.33	70.22
516.51	32.77
516.68	46.81
516.85	58.51
517.03	140.43
517.20	37.45
517.37	11.70
517.54	102.98
517.72	4.68
517.89	37.45
518.06	65.54
518.24	49.15
518.41	56.17
518.58	107.66
518.75	81.92
518.93	77.24
519.10	72.56
519.27	63.19
519.45	56.17
519.62	95.96
519.79	21.06
519.96	81.92
520.14	112.35
520.31	86.60
520.48	81.92
520.65	100.64
520.83	74.90
521.00	152.13
521.17	102.98
521.34	105.32
521.52	100.64
521.69	74.90
521.86	112.35
522.03	70.22
522.20	170.86
522.38	121.71
522.55	105.32
522.72	81.92
522.89	65.54
523.07	39.79
523.24	117.03
523.41	70.22
523.58	91.28
523.75	18.72
523.92	81.92
524.10	145.11
524.27	79.58
524.44	44.47
524.61	28.09
524.78	110.01
524.96	84.26
525.13	124.05
525.30	0.00
525.47	138.09
525.64	105.32
525.81	126.39
525.98	98.30
526.16	56.17
526.33	53.83
526.50	84.26
526.67	107.66
526.84	51.49
527.01	95.96
527.18	70.22
527.36	154.48
527.53	98.30
527.70	88.94
527.87	49.15
528.04	95.96
528.21	44.47
528.38	56.17
528.55	0.00
528.72	107.66
528.89	28.09
529.07	51.49
529.24	95.96
529.41	142.77
529.58	60.85
529.75	35.11
529.92	81.92
530.09	65.54
530.26	117.03
530.43	105.32
530.60	32.77
530.77	39.79
530.94	58.51
531.11	49.15
531.28	74.90
531.46	93.62
531.63	39.79
531.80	93.62
531.97	142.77
532.14	156.82
532.31	135.75
532.48	65.54
532.65	81.92
532.82	128.73
532.99	0.00
533.16	51.49
533.33	56.17
533.50	88.94
533.67	84.26
533.84	105.32
534.01	84.26
534.18	49.15
534.35	98.30
534.52	63.19
534.69	100.64
534.86	128.73
535.03	102.98
535.20	77.24
535.37	65.54
535.54	51.49
535.71	121.71
535.88	93.62
536.05	102.98
536.22	133.41
536.38	70.22
536.55	30.43
536.72	138.09
536.89	56.17
537.06	46.81
537.23	98.30
537.40	102.98
537.57	107.66
537.74	84.26
537.91	84.26
538.08	131.07
538.25	100.64
538.42	142.77
538.59	93.62
538.75	175.54
538.92	53.83
539.09	100.64
539.26	121.71
539.43	72.56
539.60	63.19
539.77	81.92
539.94	81.92
540.11	84.26
540.28	102.98
540.44	126.39
540.61	131.07
540.78	60.85
540.95	88.94
541.12	86.60
541.29	142.77
541.46	37.45
541.62	98.30
541.79	170.86
541.96	28.09
542.13	114.69
542.30	149.79
542.47	112.35
542.63	138.09
542.80	46.81
542.97	67.88
543.14	117.03
543.31	79.58
543.48	107.66
543.64	72.56
543.81	42.13
543.98	107.66
544.15	51.49
544.32	56.17
544.48	53.83
544.65	102.98
544.82	74.90
544.99	23.41
545.16	63.19
545.32	42.13
545.49	102.98
545.66	100.64
545.83	84.26
546.00	119.37
546.16	114.69
546.33	142.77
546.50	131.07
546.67	100.64
546.83	100.64
547.00	30.43
547.17	74.90
547.34	81.92
547.50	93.62
547.67	46.81
547.84	67.88
548.00	60.85
548.17	81.92
548.34	145.11
548.51	175.54
548.67	37.45
548.84	114.69
549.01	81.92
549.18	86.60
549.34	124.05
549.51	138.09
549.68	77.24
549.84	18.72
550.01	110.01
550.18	65.54
550.34	46.81
550.51	91.28
550.68	44.47
550.84	95.96
551.01	95.96
551.18	117.03
551.34	86.60
551.51	117.03
551.68	51.49
551.84	60.85
552.01	105.32
552.18	42.13
552.34	49.15
552.51	70.22
552.68	114.69
552.84	70.22
553.01	46.81
553.18	23.41
553.34	51.49
553.51	42.13
553.67	77.24
553.84	88.94
554.01	70.22
554.17	51.49
554.34	93.62
554.51	119.37
554.67	105.32
554.84	133.41
555.00	79.58
555.17	56.17
555.33	63.19
555.50	79.58
555.67	128.73
555.83	72.56
556.00	102.98
556.16	102.98
556.33	49.15
556.50	53.83
556.66	70.22
556.83	107.66
556.99	91.28
557.16	100.64
557.32	121.71
557.49	42.13
557.65	58.51
557.82	77.24
557.98	53.83
558.15	53.83
558.32	91.28
558.48	63.19
558.65	81.92
558.81	74.90
558.98	110.01
559.14	35.11
559.31	149.79
559.47	79.58
559.64	84.26
559.80	98.30
559.97	110.01
560.13	79.58
560.30	142.77
560.46	49.15
560.63	65.54
560.79	138.09
560.96	105.32
561.12	135.75
561.29	60.85
561.45	95.96
561.61	147.45
561.78	107.66
561.94	65.54
562.11	77.24
562.27	58.51
562.44	112.35
562.60	39.79
562.77	79.58
562.93	131.07
563.10	138.09
563.26	81.92
563.42	112.35
563.59	70.22
563.75	121.71
563.92	30.43
564.08	77.24
564.24	154.48
564.41	49.15
564.57	84.26
564.74	107.66
564.90	100.64
565.07	42.13
565.23	28.09
565.39	81.92
565.56	30.43
565.72	28.09
565.88	32.77
566.05	117.03
566.21	72.56
566.38	100.64
566.54	145.11
566.70	131.07
566.87	60.85
567.03	25.75
567.19	11.70
567.36	98.30
567.52	14.04
567.68	81.92
567.85	114.69
568.01	58.51
568.17	16.38
568.34	30.43
568.50	25.75
568.66	42.13
568.83	35.11
568.99	74.90
569.15	44.47
569.32	121.71
569.48	51.49
569.64	77.24
569.81	177.88
569.97	49.15
570.13	32.77
570.30	100.64
570.46	58.51
570.62	77.24
570.78	145.11
570.95	100.64
571.11	51.49
571.27	91.28
571.43	102.98
571.60	98.30
571.76	67.88
571.92	131.07
572.09	91.28
572.25	84.26
572.41	14.04
572.57	32.77
572.74	114.69
572.90	0.00
573.06	39.79
573.22	138.09
573.38	84.26
573.55	53.83
573.71	49.15
573.87	114.69
574.03	98.30
574.20	32.77
574.36	102.98
574.52	142.77
574.68	49.15
574.84	77.24
575.01	124.05
575.17	77.24
575.33	93.62
575.49	74.90
575.65	93.62
575.82	0.00
575.98	135.75
576.14	133.41
576.30	35.11
576.46	56.17
576.62	18.72
576.79	49.15
576.95	84.26
577.11	102.98
577.27	88.94
577.43	95.96
577.59	84.26
577.75	51.49
577.92	77.24
578.08	102.98
578.24	42.13
578.40	0.00
578.56	70.22
578.72	35.11
578.88	117.03
579.04	51.49
579.21	100.64
579.37	173.20
579.53	56.17
579.69	91.28
579.85	9.36
580.01	112.35
580.17	0.00
580.33	72.56
580.49	102.98
580.65	117.03
580.82	46.81
580.98	67.88
581.14	126.39
581.30	93.62
581.46	112.35
581.62	117.03
581.78	70.22
581.94	70.22
582.10	65.54
582.26	67.88
582.42	95.96
582.58	100.64
582.74	81.92
582.90	102.98
583.06	84.26
583.22	32.77
583.38	102.98
583.54	114.69
583.70	70.22
583.86	9.36
584.02	46.81
584.18	88.94
584.34	70.22
584.50	72.56
584.66	74.90
584.82	30.43
584.98	63.19
585.14	112.35
585.30	140.43
585.46	58.51
585.62	98.30
585.78	140.43
585.94	39.79
586.10	49.15
586.26	95.96
586.42	60.85
586.58	74.90
586.74	126.39
586.90	95.96
587.06	21.06
587.22	60.85
587.38	60.85
587.54	95.96
587.70	49.15
587.86	81.92
588.02	32.77
588.18	18.72
588.34	81.92
588.49	72.56
588.65	107.66
588.81	65.54
588.97	121.71
589.13	9.36
589.29	46.81
589.45	65.54
589.61	95.96
589.77	72.56
589.93	86.60
590.08	105.32
590.24	77.24
590.40	70.22
590.56	63.19
590.72	84.26
590.88	133.41
591.04	39.79
591.20	88.94
591.35	65.54
591.51	28.09
591.67	11.70
591.83	107.66
591.99	107.66
592.15	65.54
592.31	46.81
592.46	42.13
592.62	102.98
592.78	67.88
592.94	0.00
593.10	84.26
593.26	74.90
593.41	60.85
593.57	63.19
593.73	11.70
593.89	23.41
594.05	53.83
594.20	18.72
594.36	77.24
594.52	100.64
594.68	18.72
594.84	65.54
594.99	42.13
595.15	77.24
595.31	49.15
595.47	65.54
595.62	84.26
595.78	42.13
595.94	56.17
596.10	86.60
596.25	74.90
596.41	79.58
596.57	53.83
596.73	79.58
596.88	67.88
597.04	93.62
597.20	7.02
597.36	49.15
597.51	100.64
597.67	88.94
597.83	102.98
597.99	72.56
598.14	112.35
598.30	131.07
598.46	56.17
598.61	60.85
598.77	72.56
598.93	98.30
599.09	91.28
599.24	77.24
599.40	65.54
599.56	32.77
599.71	63.19
599.87	81.92
600.03	46.81
600.18	23.41
600.34	105.32
600.50	100.64
600.65	107.66
600.81	58.51
600.97	14.04
601.12	0.00
601.28	49.15
601.44	117.03
601.59	93.62
601.75	114.69
601.91	100.64
602.06	0.00
602.22	131.07
602.37	100.64
602.53	42.13
602.69	147.45
602.84	124.05
603.00	138.09
603.16	65.54
603.31	72.56
603.47	77.24
603.62	84.26
603.78	30.43
603.94	49.15
604.09	145.11
604.25	93.62
604.40	93.62
604.56	58.51
604.71	58.51
604.87	0.00
605.03	65.54
605.18	98.30
605.34	44.47
605.49	81.92
605.65	117.03
605.80	39.79
605.96	105.32
606.12	88.94
606.27	77.24
606.43	77.24
606.58	98.30
606.74	107.66
606.89	102.98
607.05	53.83
607.20	0.00
607.36	72.56
607.51	145.11
607.67	65.54
607.82	117.03
607.98	152.13
608.13	67.88
608.29	112.35
608.44	114.69
608.60	56.17
608.75	112.35
608.91	84.26
609.06	126.39
609.22	51.49
609.37	53.83
609.53	131.07
609.68	112.35
609.84	154.48
609.99	88.94
610.15	100.64
610.30	51.49
610.46	14.04
610.61	65.54
610.76	84.26
610.92	25.75
611.07	65.54
611.23	140.43
611.38	0.00
611.54	46.81
611.69	39.79
611.84	44.47
612.00	18.72
612.15	84.26
612.31	51.49
612.46	114.69
612.62	0.00
612.77	107.66
612.92	72.56
613.08	63.19
613.23	67.88
613.39	37.45
613.54	93.62
613.69	112.35
613.85	2.34
614.00	70.22
614.15	86.60
614.31	79.58
614.46	77.24
614.62	42.13
614.77	81.92
614.92	60.85
615.08	49.15
615.23	81.92
615.38	105.32
615.54	16.38
615.69	72.56
615.84	67.88
616.00	14.04
616.15	53.83
616.30	81.92
616.46	58.51
616.61	18.72
616.76	0.00
616.92	72.56
617.07	28.09
617.22	72.56
617.37	23.41
617.53	72.56
617.68	95.96
617.83	98.30
617.99	63.19
618.14	49.15
618.29	30.43
618.45	35.11
618.60	88.94
618.75	88.94
618.90	2.34
619.06	107.66
619.21	74.90
619.36	9.36
619.51	44.47
619.67	32.77
619.82	0.00
619.97	58.51
620.12	37.45
620.28	23.41
620.43	44.47
620.58	18.72
620.73	37.45
620.89	119.37
621.04	23.41
621.19	110.01
621.34	91.28
621.49	107.66
621.65	86.60
621.80	93.62
621.95	0.00
622.10	32.77
622.25	46.81
622.41	79.58
622.56	161.50
622.71	37.45
622.86	0.00
623.01	21.06
623.16	95.96
623.32	7.02
623.47	32.77
623.62	74.90
623.77	32.77
623.92	117.03
624.07	128.73
624.23	112.35
624.38	39.79
624.53	67.88
624.68	67.88
624.83	25.75
624.98	70.22
625.13	0.00
625.29	21.06
625.44	42.13
625.59	81.92
625.74	65.54
625.89	23.41
626.04	30.43
626.19	25.75
626.34	46.81
626.49	119.37
626.65	42.13
626.80	49.15
626.95	4.68
627.10	60.85
627.25	79.58
627.40	51.49
627.55	110.01
627.70	16.38
627.85	56.17
628.00	79.58
628.15	35.11
628.30	0.00
628.45	0.00
628.60	0.00
628.76	39.79
628.91	56.17
629.06	142.77
629.21	21.06
629.36	35.11
629.51	56.17
629.66	142.77
629.81	53.83
629.96	46.81
630.11	128.73
630.26	63.19
630.41	135.75
630.56	63.19
630.71	98.30
630.86	53.83
631.01	0.00
631.16	56.17
631.31	46.81
631.46	74.90
631.61	0.00
631.76	0.00
631.91	32.77
632.06	117.03
632.21	81.92
632.36	65.54
632.51	56.17
632.66	9.36
632.81	72.56
632.96	42.13
633.10	95.96
633.25	72.56
633.40	51.49
633.55	58.51
633.70	32.77
633.85	7.02
634.00	4.68
634.15	16.38
634.30	88.94
634.45	28.09
634.60	70.22
634.75	37.45
634.90	0.00
635.05	0.00
635.19	74.90
635.34	86.60
635.49	77.24
635.64	79.58
635.79	138.09
635.94	49.15
636.09	81.92
636.24	53.83
636.39	25.75
636.53	0.00
636.68	44.47
636.83	30.43
636.98	79.58
637.13	140.43
637.28	0.00
637.43	42.13
637.57	35.11
637.72	21.06
637.87	53.83
638.02	126.39
638.17	56.17
638.32	53.83
638.46	4.68
638.61	25.75
638.76	46.81
638.91	67.88
639.06	0.00
639.20	88.94
639.35	65.54
639.50	72.56
639.65	32.77
639.80	46.81
639.94	84.26
640.09	81.92
640.24	49.15
640.39	65.54
640.54	7.02
640.68	39.79
640.83	72.56
640.98	46.81
641.13	91.28
641.27	18.72
641.42	107.66
641.57	42.13
641.72	105.32
641.86	107.66
642.01	53.83
642.16	35.11
642.31	32.77
642.45	35.11
642.60	0.00
642.75	35.11
642.90	67.88
643.04	93.62
643.19	91.28
643.34	25.75
643.48	0.00
643.63	91.28
643.78	135.75
643.93	63.19
644.07	147.45
644.22	102.98
644.37	30.43
644.51	9.36
644.66	91.28
644.81	112.35
644.95	81.92
645.10	86.60
645.25	81.92
645.39	60.85
645.54	110.01
645.69	91.28
645.83	0.00
645.98	86.60
646.13	60.85
646.27	128.73
646.42	32.77
646.57	11.70
646.71	79.58
646.86	88.94
647.00	30.43
647.15	107.66
647.30	100.64
647.44	177.88
647.59	30.43
647.74	30.43
647.88	42.13
648.03	72.56
648.17	70.22
648.32	42.13
648.47	49.15
648.61	70.22
648.76	102.98
648.90	42.13
649.05	49.15
649.20	70.22
649.34	28.09
649.49	72.56
649.63	25.75
649.78	9.36
649.92	30.43
650.07	16.38
650.21	35.11
650.36	16.38
650.51	60.85
650.65	72.56
650.80	37.45
650.94	93.62
651.09	105.32
651.23	112.35
651.38	32.77
651.52	74.90
651.67	16.38
651.81	49.15
651.96	25.75
652.10	42.13
652.25	93.62
652.39	51.49
652.54	23.41
652.68	28.09
652.83	65.54
652.97	79.58
653.12	44.47
653.26	25.75
653.41	49.15
653.55	4.68
653.70	35.11
653.84	58.51
653.99	28.09
654.13	58.51
654.27	46.81
654.42	79.58
654.56	102.98
654.71	95.96
654.85	79.58
655.00	79.58
655.14	84.26
655.29	49.15
655.43	81.92
655.57	112.35
655.72	0.00
655.86	65.54
656.01	51.49
656.15	105.32
656.30	30.43
656.44	25.75
656.58	30.43
656.73	18.72
656.87	70.22
657.01	21.06
657.16	0.00
657.30	65.54
657.45	105.32
657.59	112.35
657.73	114.69
657.88	51.49
658.02	37.45
658.16	53.83
658.31	39.79
658.45	18.72
658.60	98.30
658.74	30.43
658.88	39.79
659.03	63.19
659.17	14.04
659.31	11.70
659.46	49.15
659.60	32.77
659.74	88.94
659.89	23.41
660.03	98.30
660.17	35.11
660.32	67.88
660.46	128.73
660.60	30.43
660.74	7.02
660.89	102.98
661.03	77.24
661.17	32.77
661.32	81.92
661.46	46.81
661.60	74.90
661.74	25.75
661.89	58.51
662.03	79.58
662.17	131.07
662.31	0.00
662.46	67.88
662.60	28.09
662.74	16.38
662.88	46.81
663.03	18.72
663.17	35.11
663.31	32.77
663.45	56.17
663.60	128.73
663.74	39.79
663.88	21.06
664.02	91.28
664.17	72.56
664.31	28.09
664.45	0.00
664.59	51.49
664.73	7.02
664.88	18.72
665.02	25.75
665.16	84.26
665.30	102.98
665.44	0.00
665.59	102.98
665.73	60.85
665.87	56.17
666.01	18.72
666.15	63.19
666.29	102.98
666.44	4.68
666.58	63.19
666.72	39.79
666.86	105.32
667.00	42.13
667.14	46.81
667.28	44.47
667.43	0.00
667.57	30.43
667.71	84.26
667.85	70.22
667.99	110.01
668.13	42.13
668.27	88.94
668.41	126.39
668.56	49.15
668.70	100.64
668.84	98.30
668.98	67.88
669.12	100.64
669.26	81.92
669.40	110.01
669.54	37.45
669.68	65.54
669.82	91.28
669.96	93.62
670.10	112.35
670.25	39.79
670.39	128.73
670.53	102.98
670.67	18.72
670.81	46.81
670.95	65.54
671.09	0.00
671.23	53.83
671.37	0.00
671.51	25.75
671.65	100.64
671.79	93.62
671.93	86.60
672.07	37.45
672.21	9.36
672.35	30.43
672.49	35.11
672.63	42.13
672.77	0.00
672.91	42.13
673.05	67.88
673.19	28.09
673.33	88.94
673.47	58.51
673.61	79.58
673.75	65.54
673.89	56.17
674.03	91.28
674.17	44.47
674.31	56.17
674.45	105.32
674.59	70.22
674.73	98.30
674.87	0.00
675.01	112.35
675.15	74.90
675.29	4.68
675.43	49.15
675.56	49.15
675.70	42.13
675.84	84.26
675.98	14.04
676.12	84.26
676.26	0.00
676.40	58.51
676.54	28.09
676.68	21.06
676.82	14.04
676.96	28.09
677.10	42.13
677.23	100.64
677.37	63.19
677.51	42.13
677.65	0.00
677.79	23.41
677.93	7.02
678.07	35.11
678.21	21.06
678.34	16.38
678.48	56.17
678.62	32.77
678.76	28.09
678.90	21.06
679.04	11.70
679.18	100.64
679.31	72.56
679.45	65.54
679.59	4.68
679.73	77.24
679.87	84.26
680.00	28.09
680.14	72.56
680.28	37.45
680.42	39.79
680.56	91.28
680.70	51.49
680.83	18.72
680.97	16.38
681.11	0.00
681.25	65.54
681.39	4.68
681.52	91.28
681.66	58.51
681.80	74.90
681.94	124.05
682.07	4.68
682.21	16.38
682.35	98.30
682.49	0.00
682.62	25.75
682.76	7.02
682.90	107.66
683.04	58.51
683.17	0.00
683.31	60.85
683.45	114.69
683.59	0.00
683.72	63.19
683.86	72.56
684.00	77.24
684.13	72.56
684.27	102.98
684.41	128.73
684.55	39.79
684.68	121.71
684.82	102.98
684.96	77.24
685.09	58.51
685.23	0.00
685.37	35.11
685.50	81.92
685.64	63.19
685.78	51.49
685.91	67.88
686.05	42.13
686.19	49.15
686.32	91.28
686.46	0.00
686.60	11.70
686.73	32.77
686.87	25.75
687.01	0.00
687.14	49.15
687.28	56.17
687.42	84.26
687.55	124.05
687.69	35.11
687.82	0.00
687.96	11.70
688.10	56.17
688.23	63.19
688.37	9.36
688.50	25.75
688.64	28.09
688.78	0.00
688.91	4.68
689.05	44.47
689.18	0.00
689.32	86.60
689.46	86.60
689.59	84.26
689.73	0.00
689.86	4.68
690.00	91.28
690.13	30.43
690.27	46.81
690.41	0.00
690.54	0.00
690.68	63.19
690.81	0.00
690.95	16.38
691.08	9.36
691.22	53.83
691.35	0.00
691.49	7.02
691.62	0.00
691.76	67.88
691.89	65.54
692.03	0.00
692.16	21.06
692.30	0.00
692.43	86.60
692.57	4.68
692.70	107.66
692.84	84.26
692.97	16.38
693.11	0.00
693.24	21.06
693.38	11.70
693.51	0.00
693.65	46.81
693.78	79.58
693.92	0.00
694.05	18.72
694.19	18.72
694.32	16.38
694.45	0.00
694.59	60.85
694.72	25.75
694.86	18.72
694.99	63.19
695.13	46.81
695.26	16.38
695.39	46.81
695.53	81.92
695.66	161.50
695.80	72.56
695.93	65.54
696.07	18.72
696.20	72.56
696.33	32.77
696.47	58.51
696.60	9.36
696.73	28.09
696.87	35.11
697.00	93.62
697.14	46.81
697.27	35.11
697.40	28.09
697.54	46.81
697.67	0.00
697.80	0.00
697.94	74.90
698.07	23.41
698.21	53.83
698.34	53.83
698.47	35.11
698.61	0.00
698.74	46.81
698.87	77.24
699.01	30.43
699.14	0.00
699.27	32.77
699.40	0.00
699.54	25.75
699.67	63.19
699.80	2.34
699.94	18.72
700.07	0.00
700.20	0.00
700.34	77.24
700.47	70.22
700.60	30.43
700.73	35.11
700.87	35.11
701.00	0.00
701.13	93.62
701.26	81.92
701.40	58.51
701.53	14.04
701.66	39.79
701.79	65.54
701.93	42.13
702.06	0.00
702.19	14.04
702.32	46.81
702.46	53.83
702.59	9.36
702.72	11.70
702.85	42.13
702.99	0.00
703.12	58.51
703.25	32.77
703.38	37.45
703.51	7.02
703.65	0.00
703.78	74.90
703.91	28.09
704.04	30.43
704.17	77.24
704.31	0.00
704.44	25.75
704.57	35.11
704.70	42.13
704.83	18.72
704.96	86.60
705.10	46.81
705.23	56.17
>>>>>End Processed Spectral Data<<<<<
