SpectraSuite Data File
++++++++++++++++++++++++++++++++++++
Date: Fri Oct 04 12:13:31 GMT-05:00 2013
User: price-jones
Dark Spectrum Present: No
Reference Spectrum Present: No
Number of Sampled Component Spectra: 1
Spectrometers: USB2+H05261
Integration Time (usec): 10000 (USB2+H05261)
Spectra Averaged: 1 (USB2+H05261)
Boxcar Smoothing: 0 (USB2+H05261)
Correct for Electrical Dark: No (USB2+H05261)
Strobe/Lamp Enabled: No (USB2+H05261)
Correct for Detector Non-linearity: No (USB2+H05261)
Correct for Stray Light: No (USB2+H05261)
Number of Pixels in Processed Spectrum: 2048
>>>>>Begin Processed Spectral Data<<<<<
365.73	51.49
365.92	51.49
366.12	51.49
366.32	0.00
366.52	0.00
366.72	0.00
366.91	0.00
367.11	0.00
367.31	0.00
367.51	0.00
367.70	0.00
367.90	0.00
368.10	0.00
368.30	0.00
368.49	0.00
368.69	0.00
368.89	0.00
369.09	0.00
369.28	0.00
369.48	0.00
369.68	0.00
369.87	0.00
370.07	0.00
370.27	0.00
370.47	0.00
370.66	0.00
370.86	0.00
371.06	0.00
371.25	0.00
371.45	0.00
371.65	0.00
371.84	0.00
372.04	0.00
372.24	0.00
372.44	7.02
372.63	0.00
372.83	35.11
373.03	16.38
373.22	0.00
373.42	14.04
373.62	37.45
373.81	49.15
374.01	0.00
374.21	39.79
374.40	77.24
374.60	46.81
374.79	0.00
374.99	21.06
375.19	58.51
375.38	46.81
375.58	30.43
375.78	35.11
375.97	0.00
376.17	81.92
376.37	21.06
376.56	60.85
376.76	28.09
376.95	2.34
377.15	25.75
377.35	0.00
377.54	42.13
377.74	0.00
377.93	74.90
378.13	65.54
378.33	67.88
378.52	30.43
378.72	0.00
378.91	0.00
379.11	4.68
379.31	25.75
379.50	18.72
379.70	84.26
379.89	44.47
380.09	58.51
380.28	30.43
380.48	16.38
380.68	32.77
380.87	9.36
381.07	60.85
381.26	0.00
381.46	58.51
381.65	0.00
381.85	14.04
382.04	0.00
382.24	25.75
382.43	16.38
382.63	32.77
382.83	88.94
383.02	9.36
383.22	58.51
383.41	0.00
383.61	0.00
383.80	7.02
384.00	28.09
384.19	0.00
384.39	7.02
384.58	21.06
384.78	35.11
384.97	0.00
385.17	44.47
385.36	14.04
385.56	0.00
385.75	0.00
385.95	74.90
386.14	4.68
386.34	28.09
386.53	58.51
386.72	30.43
386.92	32.77
387.11	28.09
387.31	28.09
387.50	7.02
387.70	70.22
387.89	25.75
388.09	0.00
388.28	102.98
388.48	35.11
388.67	7.02
388.86	28.09
389.06	0.00
389.25	0.00
389.45	25.75
389.64	0.00
389.84	0.00
390.03	28.09
390.22	9.36
390.42	49.15
390.61	46.81
390.81	37.45
391.00	0.00
391.19	56.17
391.39	95.96
391.58	35.11
391.78	44.47
391.97	0.00
392.16	7.02
392.36	30.43
392.55	0.00
392.75	44.47
392.94	9.36
393.13	51.49
393.33	0.00
393.52	46.81
393.71	72.56
393.91	11.70
394.10	11.70
394.29	14.04
394.49	0.00
394.68	18.72
394.88	44.47
395.07	70.22
395.26	53.83
395.46	72.56
395.65	0.00
395.84	0.00
396.04	53.83
396.23	18.72
396.42	63.19
396.62	32.77
396.81	105.32
397.00	0.00
397.19	39.79
397.39	56.17
397.58	79.58
397.77	95.96
397.97	0.00
398.16	0.00
398.35	0.00
398.55	0.00
398.74	67.88
398.93	0.00
399.12	2.34
399.32	0.00
399.51	2.34
399.70	44.47
399.90	21.06
400.09	0.00
400.28	18.72
400.47	0.00
400.67	0.00
400.86	53.83
401.05	77.24
401.24	51.49
401.44	23.41
401.63	28.09
401.82	0.00
402.01	32.77
402.21	23.41
402.40	42.13
402.59	58.51
402.78	28.09
402.97	23.41
403.17	28.09
403.36	110.01
403.55	28.09
403.74	86.60
403.93	0.00
404.13	63.19
404.32	105.32
404.51	0.00
404.70	117.03
404.89	39.79
405.09	56.17
405.28	4.68
405.47	9.36
405.66	37.45
405.85	0.00
406.05	0.00
406.24	14.04
406.43	16.38
406.62	51.49
406.81	30.43
407.00	16.38
407.20	112.35
407.39	53.83
407.58	42.13
407.77	0.00
407.96	0.00
408.15	23.41
408.34	77.24
408.54	0.00
408.73	70.22
408.92	60.85
409.11	37.45
409.30	53.83
409.49	14.04
409.68	67.88
409.87	28.09
410.07	21.06
410.26	39.79
410.45	74.90
410.64	0.00
410.83	32.77
411.02	58.51
411.21	21.06
411.40	2.34
411.59	0.00
411.78	21.06
411.98	7.02
412.17	42.13
412.36	51.49
412.55	46.81
412.74	28.09
412.93	25.75
413.12	32.77
413.31	0.00
413.50	42.13
413.69	105.32
413.88	0.00
414.07	0.00
414.26	63.19
414.45	32.77
414.64	49.15
414.83	9.36
415.02	16.38
415.22	42.13
415.41	98.30
415.60	0.00
415.79	25.75
415.98	30.43
416.17	0.00
416.36	42.13
416.55	14.04
416.74	4.68
416.93	70.22
417.12	86.60
417.31	70.22
417.50	11.70
417.69	0.00
417.88	9.36
418.07	14.04
418.26	65.54
418.45	16.38
418.64	4.68
418.83	49.15
419.02	46.81
419.21	18.72
419.39	14.04
419.58	11.70
419.77	11.70
419.96	56.17
420.15	53.83
420.34	0.00
420.53	4.68
420.72	56.17
420.91	0.00
421.10	0.00
421.29	56.17
421.48	88.94
421.67	37.45
421.86	63.19
422.05	35.11
422.24	0.00
422.43	25.75
422.61	44.47
422.80	0.00
422.99	42.13
423.18	0.00
423.37	21.06
423.56	21.06
423.75	16.38
423.94	56.17
424.13	39.79
424.32	70.22
424.50	0.00
424.69	58.51
424.88	0.00
425.07	0.00
425.26	16.38
425.45	4.68
425.64	18.72
425.83	0.00
426.01	11.70
426.20	0.00
426.39	0.00
426.58	0.00
426.77	0.00
426.96	0.00
427.15	16.38
427.33	11.70
427.52	0.00
427.71	0.00
427.90	44.47
428.09	30.43
428.28	9.36
428.46	49.15
428.65	46.81
428.84	39.79
429.03	23.41
429.22	16.38
429.40	44.47
429.59	30.43
429.78	70.22
429.97	18.72
430.16	53.83
430.34	25.75
430.53	49.15
430.72	88.94
430.91	63.19
431.10	4.68
431.28	28.09
431.47	0.00
431.66	23.41
431.85	60.85
432.03	58.51
432.22	0.00
432.41	16.38
432.60	49.15
432.79	107.66
432.97	58.51
433.16	58.51
433.35	65.54
433.54	0.00
433.72	95.96
433.91	14.04
434.10	100.64
434.28	2.34
434.47	0.00
434.66	25.75
434.85	16.38
435.03	0.00
435.22	30.43
435.41	37.45
435.59	21.06
435.78	0.00
435.97	39.79
436.16	0.00
436.34	18.72
436.53	0.00
436.72	42.13
436.90	63.19
437.09	16.38
437.28	65.54
437.46	0.00
437.65	9.36
437.84	65.54
438.02	95.96
438.21	11.70
438.40	63.19
438.58	4.68
438.77	67.88
438.96	28.09
439.14	18.72
439.33	30.43
439.52	0.00
439.70	23.41
439.89	0.00
440.08	37.45
440.26	32.77
440.45	79.58
440.63	74.90
440.82	100.64
441.01	0.00
441.19	114.69
441.38	46.81
441.57	25.75
441.75	67.88
441.94	42.13
442.12	0.00
442.31	16.38
442.50	0.00
442.68	0.00
442.87	49.15
443.05	102.98
443.24	0.00
443.43	81.92
443.61	117.03
443.80	42.13
443.98	77.24
444.17	28.09
444.35	23.41
444.54	37.45
444.73	79.58
444.91	35.11
445.10	2.34
445.28	32.77
445.47	18.72
445.65	88.94
445.84	44.47
446.02	95.96
446.21	0.00
446.39	84.26
446.58	0.00
446.77	25.75
446.95	49.15
447.14	0.00
447.32	2.34
447.51	4.68
447.69	0.00
447.88	39.79
448.06	32.77
448.25	67.88
448.43	84.26
448.62	0.00
448.80	28.09
448.99	49.15
449.17	67.88
449.36	51.49
449.54	0.00
449.73	0.00
449.91	53.83
450.10	0.00
450.28	51.49
450.46	0.00
450.65	86.60
450.83	84.26
451.02	39.79
451.20	56.17
451.39	51.49
451.57	0.00
451.76	2.34
451.94	0.00
452.13	65.54
452.31	35.11
452.49	70.22
452.68	0.00
452.86	32.77
453.05	72.56
453.23	32.77
453.42	60.85
453.60	23.41
453.78	35.11
453.97	100.64
454.15	0.00
454.34	0.00
454.52	11.70
454.70	0.00
454.89	86.60
455.07	4.68
455.26	46.81
455.44	56.17
455.62	51.49
455.81	39.79
455.99	39.79
456.17	46.81
456.36	63.19
456.54	16.38
456.73	0.00
456.91	44.47
457.09	32.77
457.28	102.98
457.46	44.47
457.64	46.81
457.83	88.94
458.01	105.32
458.19	105.32
458.38	9.36
458.56	0.00
458.74	4.68
458.93	0.00
459.11	9.36
459.29	67.88
459.48	4.68
459.66	11.70
459.84	16.38
460.03	0.00
460.21	0.00
460.39	32.77
460.57	42.13
460.76	37.45
460.94	60.85
461.12	39.79
461.31	105.32
461.49	32.77
461.67	0.00
461.85	0.00
462.04	9.36
462.22	67.88
462.40	56.17
462.59	51.49
462.77	133.41
462.95	37.45
463.13	56.17
463.32	23.41
463.50	0.00
463.68	81.92
463.86	65.54
464.05	21.06
464.23	88.94
464.41	28.09
464.59	4.68
464.78	44.47
464.96	35.11
465.14	14.04
465.32	0.00
465.50	58.51
465.69	25.75
465.87	0.00
466.05	58.51
466.23	14.04
466.41	37.45
466.60	63.19
466.78	23.41
466.96	0.00
467.14	7.02
467.32	0.00
467.51	0.00
467.69	4.68
467.87	35.11
468.05	18.72
468.23	18.72
468.41	0.00
468.60	65.54
468.78	51.49
468.96	0.00
469.14	25.75
469.32	0.00
469.50	16.38
469.69	42.13
469.87	98.30
470.05	65.54
470.23	65.54
470.41	84.26
470.59	32.77
470.77	46.81
470.95	42.13
471.14	77.24
471.32	79.58
471.50	79.58
471.68	0.00
471.86	42.13
472.04	30.43
472.22	37.45
472.40	49.15
472.58	28.09
472.77	65.54
472.95	39.79
473.13	58.51
473.31	51.49
473.49	72.56
473.67	9.36
473.85	0.00
474.03	53.83
474.21	60.85
474.39	65.54
474.57	14.04
474.75	7.02
474.93	56.17
475.12	65.54
475.30	0.00
475.48	56.17
475.66	53.83
475.84	53.83
476.02	9.36
476.20	18.72
476.38	72.56
476.56	44.47
476.74	93.62
476.92	49.15
477.10	23.41
477.28	30.43
477.46	81.92
477.64	30.43
477.82	18.72
478.00	28.09
478.18	51.49
478.36	84.26
478.54	0.00
478.72	42.13
478.90	63.19
479.08	16.38
479.26	37.45
479.44	56.17
479.62	28.09
479.80	53.83
479.98	25.75
480.16	4.68
480.34	58.51
480.52	4.68
480.70	56.17
480.88	0.00
481.06	42.13
481.24	70.22
481.41	74.90
481.59	72.56
481.77	84.26
481.95	0.00
482.13	7.02
482.31	72.56
482.49	25.75
482.67	2.34
482.85	16.38
483.03	79.58
483.21	46.81
483.39	0.00
483.57	110.01
483.74	107.66
483.92	60.85
484.10	79.58
484.28	88.94
484.46	0.00
484.64	0.00
484.82	56.17
485.00	46.81
485.18	16.38
485.35	11.70
485.53	28.09
485.71	14.04
485.89	86.60
486.07	2.34
486.25	9.36
486.43	28.09
486.61	81.92
486.78	49.15
486.96	11.70
487.14	0.00
487.32	32.77
487.50	72.56
487.68	0.00
487.85	21.06
488.03	23.41
488.21	53.83
488.39	84.26
488.57	49.15
488.75	39.79
488.92	0.00
489.10	77.24
489.28	0.00
489.46	0.00
489.64	39.79
489.81	46.81
489.99	98.30
490.17	25.75
490.35	0.00
490.53	0.00
490.70	11.70
490.88	14.04
491.06	74.90
491.24	44.47
491.41	65.54
491.59	81.92
491.77	7.02
491.95	35.11
492.13	21.06
492.30	49.15
492.48	37.45
492.66	14.04
492.84	39.79
493.01	67.88
493.19	58.51
493.37	72.56
493.54	16.38
493.72	88.94
493.90	4.68
494.08	18.72
494.25	124.05
494.43	14.04
494.61	49.15
494.79	23.41
494.96	21.06
495.14	4.68
495.32	79.58
495.49	0.00
495.67	63.19
495.85	56.17
496.02	0.00
496.20	58.51
496.38	28.09
496.55	77.24
496.73	23.41
496.91	23.41
497.09	70.22
497.26	79.58
497.44	79.58
497.62	11.70
497.79	93.62
497.97	14.04
498.14	42.13
498.32	25.75
498.50	16.38
498.67	0.00
498.85	4.68
499.03	0.00
499.20	53.83
499.38	91.28
499.56	18.72
499.73	100.64
499.91	0.00
500.08	88.94
500.26	91.28
500.44	51.49
500.61	0.00
500.79	86.60
500.97	49.15
501.14	84.26
501.32	112.35
501.49	49.15
501.67	72.56
501.84	7.02
502.02	0.00
502.20	28.09
502.37	0.00
502.55	42.13
502.72	67.88
502.90	49.15
503.07	51.49
503.25	74.90
503.43	81.92
503.60	28.09
503.78	58.51
503.95	0.00
504.13	0.00
504.30	4.68
504.48	30.43
504.65	84.26
504.83	58.51
505.01	51.49
505.18	60.85
505.36	119.37
505.53	86.60
505.71	63.19
505.88	28.09
506.06	128.73
506.23	28.09
506.41	67.88
506.58	0.00
506.76	58.51
506.93	28.09
507.11	53.83
507.28	86.60
507.46	18.72
507.63	25.75
507.81	32.77
507.98	67.88
508.16	119.37
508.33	49.15
508.50	72.56
508.68	0.00
508.85	28.09
509.03	56.17
509.20	0.00
509.38	23.41
509.55	32.77
509.73	58.51
509.90	49.15
510.08	18.72
510.25	79.58
510.42	124.05
510.60	65.54
510.77	88.94
510.95	42.13
511.12	72.56
511.30	0.00
511.47	88.94
511.64	56.17
511.82	4.68
511.99	0.00
512.17	70.22
512.34	0.00
512.51	56.17
512.69	44.47
512.86	23.41
513.04	0.00
513.21	0.00
513.38	0.00
513.56	65.54
513.73	0.00
513.90	91.28
514.08	0.00
514.25	30.43
514.43	14.04
514.60	0.00
514.77	0.00
514.95	44.47
515.12	37.45
515.29	131.07
515.47	63.19
515.64	18.72
515.81	0.00
515.99	46.81
516.16	112.35
516.33	102.98
516.51	44.47
516.68	4.68
516.85	4.68
517.03	53.83
517.20	0.00
517.37	58.51
517.54	37.45
517.72	60.85
517.89	84.26
518.06	16.38
518.24	63.19
518.41	58.51
518.58	79.58
518.75	0.00
518.93	65.54
519.10	93.62
519.27	119.37
519.45	32.77
519.62	105.32
519.79	25.75
519.96	46.81
520.14	2.34
520.31	70.22
520.48	70.22
520.65	30.43
520.83	46.81
521.00	46.81
521.17	30.43
521.34	51.49
521.52	70.22
521.69	86.60
521.86	21.06
522.03	70.22
522.20	110.01
522.38	56.17
522.55	0.00
522.72	0.00
522.89	28.09
523.07	58.51
523.24	60.85
523.41	63.19
523.58	30.43
523.75	53.83
523.92	0.00
524.10	51.49
524.27	0.00
524.44	51.49
524.61	44.47
524.78	88.94
524.96	11.70
525.13	0.00
525.30	16.38
525.47	67.88
525.64	91.28
525.81	39.79
525.98	14.04
526.16	128.73
526.33	84.26
526.50	124.05
526.67	0.00
526.84	35.11
527.01	65.54
527.18	88.94
527.36	42.13
527.53	0.00
527.70	0.00
527.87	58.51
528.04	72.56
528.21	49.15
528.38	84.26
528.55	44.47
528.72	53.83
528.89	18.72
529.07	9.36
529.24	16.38
529.41	18.72
529.58	0.00
529.75	9.36
529.92	138.09
530.09	32.77
530.26	95.96
530.43	95.96
530.60	79.58
530.77	18.72
530.94	70.22
531.11	72.56
531.28	98.30
531.46	16.38
531.63	23.41
531.80	42.13
531.97	39.79
532.14	0.00
532.31	0.00
532.48	42.13
532.65	56.17
532.82	14.04
532.99	42.13
533.16	51.49
533.33	93.62
533.50	32.77
533.67	147.45
533.84	16.38
534.01	46.81
534.18	88.94
534.35	23.41
534.52	93.62
534.69	72.56
534.86	56.17
535.03	126.39
535.20	81.92
535.37	11.70
535.54	37.45
535.71	84.26
535.88	95.96
536.05	9.36
536.22	25.75
536.38	72.56
536.55	70.22
536.72	23.41
536.89	74.90
537.06	60.85
537.23	65.54
537.40	25.75
537.57	2.34
537.74	14.04
537.91	86.60
538.08	9.36
538.25	0.00
538.42	49.15
538.59	39.79
538.75	58.51
538.92	32.77
539.09	25.75
539.26	46.81
539.43	86.60
539.60	133.41
539.77	198.95
539.94	126.39
540.11	114.69
540.28	121.71
540.44	30.43
540.61	35.11
540.78	0.00
540.95	95.96
541.12	107.66
541.29	140.43
541.46	63.19
541.62	100.64
541.79	117.03
541.96	95.96
542.13	93.62
542.30	28.09
542.47	70.22
542.63	65.54
542.80	70.22
542.97	21.06
543.14	98.30
543.31	60.85
543.48	39.79
543.64	133.41
543.81	79.58
543.98	18.72
544.15	39.79
544.32	147.45
544.48	21.06
544.65	23.41
544.82	42.13
544.99	56.17
545.16	28.09
545.32	102.98
545.49	0.00
545.66	70.22
545.83	35.11
546.00	30.43
546.16	84.26
546.33	0.00
546.50	65.54
546.67	37.45
546.83	37.45
547.00	23.41
547.17	0.00
547.34	23.41
547.50	23.41
547.67	51.49
547.84	2.34
548.00	60.85
548.17	35.11
548.34	58.51
548.51	53.83
548.67	86.60
548.84	70.22
549.01	58.51
549.18	0.00
549.34	105.32
549.51	117.03
549.68	72.56
549.84	0.00
550.01	0.00
550.18	53.83
550.34	70.22
550.51	79.58
550.68	0.00
550.84	37.45
551.01	119.37
551.18	0.00
551.34	63.19
551.51	32.77
551.68	131.07
551.84	0.00
552.01	74.90
552.18	0.00
552.34	0.00
552.51	7.02
552.68	63.19
552.84	65.54
553.01	11.70
553.18	0.00
553.34	74.90
553.51	67.88
553.67	23.41
553.84	18.72
554.01	9.36
554.17	0.00
554.34	0.00
554.51	21.06
554.67	46.81
554.84	42.13
555.00	56.17
555.17	35.11
555.33	60.85
555.50	63.19
555.67	46.81
555.83	18.72
556.00	0.00
556.16	56.17
556.33	58.51
556.50	9.36
556.66	4.68
556.83	0.00
556.99	95.96
557.16	14.04
557.32	30.43
557.49	39.79
557.65	105.32
557.82	170.86
557.98	42.13
558.15	56.17
558.32	39.79
558.48	49.15
558.65	42.13
558.81	0.00
558.98	0.00
559.14	72.56
559.31	0.00
559.47	32.77
559.64	35.11
559.80	119.37
559.97	51.49
560.13	0.00
560.30	91.28
560.46	0.00
560.63	84.26
560.79	16.38
560.96	107.66
561.12	39.79
561.29	84.26
561.45	63.19
561.61	23.41
561.78	0.00
561.94	37.45
562.11	16.38
562.27	25.75
562.44	117.03
562.60	0.00
562.77	18.72
562.93	0.00
563.10	23.41
563.26	14.04
563.42	18.72
563.59	28.09
563.75	86.60
563.92	63.19
564.08	11.70
564.24	100.64
564.41	14.04
564.57	37.45
564.74	4.68
564.90	35.11
565.07	35.11
565.23	110.01
565.39	35.11
565.56	95.96
565.72	18.72
565.88	39.79
566.05	53.83
566.21	28.09
566.38	9.36
566.54	16.38
566.70	77.24
566.87	11.70
567.03	53.83
567.19	39.79
567.36	51.49
567.52	32.77
567.68	53.83
567.85	67.88
568.01	63.19
568.17	77.24
568.34	25.75
568.50	23.41
568.66	77.24
568.83	0.00
568.99	0.00
569.15	42.13
569.32	25.75
569.48	67.88
569.64	35.11
569.81	16.38
569.97	28.09
570.13	25.75
570.30	42.13
570.46	30.43
570.62	58.51
570.78	67.88
570.95	79.58
571.11	0.00
571.27	21.06
571.43	0.00
571.60	60.85
571.76	39.79
571.92	23.41
572.09	51.49
572.25	0.00
572.41	35.11
572.57	58.51
572.74	91.28
572.90	53.83
573.06	81.92
573.22	46.81
573.38	0.00
573.55	39.79
573.71	32.77
573.87	37.45
574.03	51.49
574.20	121.71
574.36	63.19
574.52	32.77
574.68	46.81
574.84	142.77
575.01	124.05
575.17	4.68
575.33	30.43
575.49	63.19
575.65	42.13
575.82	51.49
575.98	65.54
576.14	74.90
576.30	117.03
576.46	88.94
576.62	23.41
576.79	60.85
576.95	37.45
577.11	65.54
577.27	46.81
577.43	86.60
577.59	46.81
577.75	7.02
577.92	84.26
578.08	65.54
578.24	35.11
578.40	95.96
578.56	25.75
578.72	30.43
578.88	88.94
579.04	37.45
579.21	28.09
579.37	37.45
579.53	81.92
579.69	88.94
579.85	37.45
580.01	65.54
580.17	77.24
580.33	81.92
580.49	32.77
580.65	30.43
580.82	35.11
580.98	37.45
581.14	39.79
581.30	93.62
581.46	105.32
581.62	93.62
581.78	114.69
581.94	95.96
582.10	117.03
582.26	102.98
582.42	110.01
582.58	84.26
582.74	32.77
582.90	37.45
583.06	93.62
583.22	117.03
583.38	65.54
583.54	105.32
583.70	107.66
583.86	23.41
584.02	72.56
584.18	102.98
584.34	166.18
584.50	301.93
584.66	2401.39
584.82	6052.63
584.98	9341.08
585.14	8505.51
585.30	5181.95
585.46	3117.59
585.62	1975.41
585.78	840.25
585.94	374.49
586.10	222.35
586.26	138.09
586.42	124.05
586.58	105.32
586.74	98.30
586.90	102.98
587.06	168.52
587.22	58.51
587.38	42.13
587.54	152.13
587.70	372.15
587.86	655.35
588.02	681.10
588.18	566.41
588.34	322.99
588.49	156.82
588.65	135.75
588.81	53.83
588.97	46.81
589.13	0.00
589.29	0.00
589.45	42.13
589.61	14.04
589.77	14.04
589.93	74.90
590.08	124.05
590.24	98.30
590.40	37.45
590.56	77.24
590.72	70.22
590.88	93.62
591.04	28.09
591.20	0.00
591.35	30.43
591.51	18.72
591.67	53.83
591.83	16.38
591.99	53.83
592.15	18.72
592.31	70.22
592.46	46.81
592.62	100.64
592.78	67.88
592.94	46.81
593.10	100.64
593.26	98.30
593.41	28.09
593.57	7.02
593.73	110.01
593.89	320.65
594.05	833.23
594.20	1249.85
594.36	1181.97
594.52	863.66
594.68	521.94
594.84	348.74
594.99	133.41
595.15	177.88
595.31	84.26
595.47	70.22
595.62	86.60
595.78	79.58
595.94	110.01
596.10	39.79
596.25	4.68
596.41	16.38
596.57	60.85
596.73	100.64
596.88	114.69
597.04	161.50
597.20	287.89
597.36	355.76
597.51	273.84
597.67	201.29
597.83	140.43
597.99	138.09
598.14	23.41
598.30	53.83
598.46	58.51
598.61	14.04
598.77	81.92
598.93	4.68
599.09	0.00
599.24	72.56
599.40	37.45
599.56	93.62
599.71	79.58
599.87	37.45
600.03	63.19
600.18	77.24
600.34	9.36
600.50	0.00
600.65	9.36
600.81	93.62
600.97	9.36
601.12	37.45
601.28	72.56
601.44	131.07
601.59	74.90
601.75	42.13
601.91	30.43
602.06	28.09
602.22	98.30
602.37	86.60
602.53	191.92
602.69	334.70
602.84	388.53
603.00	318.31
603.16	182.56
603.31	131.07
603.47	81.92
603.62	131.07
603.78	0.00
603.94	49.15
604.09	72.56
604.25	46.81
604.40	86.60
604.56	112.35
604.71	79.58
604.87	93.62
605.03	0.00
605.18	39.79
605.34	63.19
605.49	126.39
605.65	105.32
605.80	138.09
605.96	0.00
606.12	0.00
606.27	98.30
606.43	147.45
606.58	67.88
606.74	105.32
606.89	365.12
607.05	746.63
607.20	1013.45
607.36	887.06
607.51	596.84
607.67	421.30
607.82	283.20
607.98	212.99
608.13	110.01
608.29	79.58
608.44	110.01
608.60	102.98
608.75	51.49
608.91	95.96
609.06	561.73
609.22	1252.19
609.37	1853.70
609.53	1561.14
609.68	1086.01
609.84	692.80
609.99	512.58
610.15	299.59
610.30	180.22
610.46	81.92
610.61	126.39
610.76	100.64
610.92	84.26
611.07	51.49
611.23	60.85
611.38	23.41
611.54	42.13
611.69	65.54
611.84	2.34
612.00	133.41
612.15	74.90
612.31	81.92
612.46	100.64
612.62	145.11
612.77	119.37
612.92	46.81
613.08	147.45
613.23	42.13
613.39	56.17
613.54	119.37
613.69	592.16
613.85	1509.65
614.00	2527.78
614.15	2787.58
614.31	2122.87
614.46	1224.10
614.62	908.13
614.77	503.22
614.92	276.18
615.08	107.66
615.23	77.24
615.38	63.19
615.54	100.64
615.69	110.01
615.84	346.40
616.00	587.47
616.15	809.83
616.30	594.50
616.46	381.51
616.61	290.23
616.76	227.03
616.92	126.39
617.07	2.34
617.22	102.98
617.37	46.81
617.53	86.60
617.68	0.00
617.83	72.56
617.99	70.22
618.14	16.38
618.29	84.26
618.45	67.88
618.60	14.04
618.75	46.81
618.90	21.06
619.06	21.06
619.21	4.68
619.36	46.81
619.51	35.11
619.67	37.45
619.82	63.19
619.97	74.90
620.12	16.38
620.28	65.54
620.43	11.70
620.58	98.30
620.73	86.60
620.89	58.51
621.04	86.60
621.19	180.22
621.34	304.27
621.49	430.66
621.65	383.85
621.80	355.76
621.95	154.48
622.10	86.60
622.25	56.17
622.41	70.22
622.56	93.62
622.71	65.54
622.86	58.51
623.01	2.34
623.16	30.43
623.32	16.38
623.47	56.17
623.62	44.47
623.77	51.49
623.92	74.90
624.07	77.24
624.23	0.00
624.38	25.75
624.53	18.72
624.68	84.26
624.83	44.47
624.98	30.43
625.13	35.11
625.29	18.72
625.44	49.15
625.59	14.04
625.74	51.49
625.89	119.37
626.04	292.57
626.19	805.14
626.34	1378.58
626.49	1453.47
626.65	1167.93
626.80	690.46
626.95	557.05
627.10	353.42
627.25	56.17
627.40	140.43
627.55	30.43
627.70	79.58
627.85	49.15
628.00	56.17
628.15	84.26
628.30	14.04
628.45	0.00
628.60	63.19
628.76	0.00
628.91	77.24
629.06	72.56
629.21	49.15
629.36	95.96
629.51	4.68
629.66	93.62
629.81	117.03
629.96	163.84
630.11	229.37
630.26	315.97
630.41	393.21
630.56	308.95
630.71	175.54
630.86	86.60
631.01	142.77
631.16	42.13
631.31	81.92
631.46	51.49
631.61	49.15
631.76	91.28
631.91	86.60
632.06	28.09
632.21	56.17
632.36	58.51
632.51	39.79
632.66	63.19
632.81	154.48
632.96	425.98
633.10	784.08
633.25	1057.92
633.40	767.70
633.55	613.22
633.70	402.57
633.85	285.55
634.00	208.31
634.15	25.75
634.30	81.92
634.45	124.05
634.60	18.72
634.75	0.00
634.90	65.54
635.05	98.30
635.19	60.85
635.34	37.45
635.49	72.56
635.64	70.22
635.79	35.11
635.94	42.13
636.09	0.00
636.24	11.70
636.39	21.06
636.53	2.34
636.68	91.28
636.83	60.85
636.98	124.05
637.13	23.41
637.28	0.00
637.43	18.72
637.57	77.24
637.72	390.87
637.87	1076.65
638.02	1603.27
638.17	1839.66
638.32	1371.55
638.46	889.40
638.61	653.01
638.76	411.93
638.91	217.67
639.06	126.39
639.20	79.58
639.35	88.94
639.50	128.73
639.65	585.13
639.80	1558.80
639.94	2548.84
640.09	2902.26
640.24	2179.04
640.39	1460.49
640.54	1048.56
640.68	587.47
640.83	355.76
640.98	215.33
641.13	77.24
641.27	74.90
641.42	84.26
641.57	30.43
641.72	93.62
641.86	67.88
642.01	142.77
642.16	0.00
642.31	77.24
642.45	42.13
642.60	0.00
642.75	81.92
642.90	16.38
643.04	42.13
643.19	16.38
643.34	88.94
643.48	32.77
643.63	0.00
643.78	84.26
643.93	0.00
644.07	11.70
644.22	72.56
644.37	46.81
644.51	35.11
644.66	35.11
644.81	72.56
644.95	23.41
645.10	35.11
645.25	56.17
645.39	0.00
645.54	49.15
645.69	37.45
645.83	63.19
645.98	18.72
646.13	0.00
646.27	60.85
646.42	0.00
646.57	46.81
646.71	11.70
646.86	35.11
647.00	88.94
647.15	49.15
647.30	44.47
647.44	0.00
647.59	4.68
647.74	16.38
647.88	30.43
648.03	0.00
648.17	25.75
648.32	0.00
648.47	49.15
648.61	2.34
648.76	32.77
648.90	0.00
649.05	131.07
649.20	93.62
649.34	56.17
649.49	25.75
649.63	88.94
649.78	91.28
649.92	81.92
650.07	212.99
650.21	681.10
650.36	1219.42
650.51	1582.20
650.65	1334.11
650.80	894.08
650.94	624.92
651.09	393.21
651.23	243.42
651.38	194.26
651.52	77.24
651.67	67.88
651.81	16.38
651.96	42.13
652.10	110.01
652.25	114.69
652.39	81.92
652.54	72.56
652.68	114.69
652.83	215.33
652.97	372.15
653.12	543.00
653.26	454.06
653.41	304.27
653.55	245.76
653.70	138.09
653.84	114.69
653.99	107.66
654.13	42.13
654.27	91.28
654.42	46.81
654.56	79.58
654.71	42.13
654.85	46.81
655.00	7.02
655.14	0.00
655.29	51.49
655.43	39.79
655.57	35.11
655.72	4.68
655.86	56.17
656.01	11.70
656.15	49.15
656.30	84.26
656.44	51.49
656.58	0.00
656.73	81.92
656.87	14.04
657.01	56.17
657.16	53.83
657.30	4.68
657.45	7.02
657.59	58.51
657.73	25.75
657.88	49.15
658.02	0.00
658.16	91.28
658.31	93.62
658.45	16.38
658.60	11.70
658.74	0.00
658.88	51.49
659.03	49.15
659.17	46.81
659.31	107.66
659.46	287.89
659.60	573.43
659.74	737.27
659.89	692.80
660.03	491.51
660.17	339.38
660.32	259.80
660.46	86.60
660.60	37.45
660.74	9.36
660.89	98.30
661.03	98.30
661.17	58.51
661.32	0.00
661.46	25.75
661.60	25.75
661.74	37.45
661.89	23.41
662.03	39.79
662.17	0.00
662.31	14.04
662.46	30.43
662.60	28.09
662.74	25.75
662.88	0.00
663.03	60.85
663.17	44.47
663.31	46.81
663.45	49.15
663.60	63.19
663.74	60.85
663.88	30.43
664.02	0.00
664.17	32.77
664.31	37.45
664.45	49.15
664.59	16.38
664.73	25.75
664.88	35.11
665.02	28.09
665.16	39.79
665.30	4.68
665.44	35.11
665.59	58.51
665.73	46.81
665.87	86.60
666.01	72.56
666.15	100.64
666.29	25.75
666.44	93.62
666.58	0.00
666.72	0.00
666.86	0.00
667.00	0.00
667.14	65.54
667.28	252.78
667.43	557.05
667.57	1055.58
667.71	1313.04
667.85	1071.97
667.99	840.25
668.13	507.90
668.27	383.85
668.41	257.46
668.56	53.83
668.70	84.26
668.84	58.51
668.98	9.36
669.12	77.24
669.26	0.00
669.40	49.15
669.54	0.00
669.68	25.75
669.82	51.49
669.96	42.13
670.10	65.54
670.25	35.11
670.39	35.11
670.53	30.43
670.67	14.04
670.81	35.11
670.95	53.83
671.09	105.32
671.23	278.52
671.37	531.30
671.51	725.57
671.65	896.43
671.79	737.27
671.93	507.90
672.07	306.61
672.21	210.65
672.35	110.01
672.49	88.94
672.63	72.56
672.77	95.96
672.91	114.69
673.05	56.17
673.19	39.79
673.33	23.41
673.47	49.15
673.61	4.68
673.75	18.72
673.89	4.68
674.03	105.32
674.17	37.45
674.31	77.24
674.45	28.09
674.59	72.56
674.73	63.19
674.87	25.75
675.01	126.39
675.15	65.54
675.29	28.09
675.43	60.85
675.56	63.19
675.70	60.85
675.84	100.64
675.98	0.00
676.12	39.79
676.26	7.02
676.40	16.38
676.54	72.56
676.68	49.15
676.82	37.45
676.96	0.00
677.10	39.79
677.23	42.13
677.37	18.72
677.51	67.88
677.65	53.83
677.79	37.45
677.93	51.49
678.07	35.11
678.21	86.60
678.34	0.00
678.48	35.11
678.62	128.73
678.76	39.79
678.90	4.68
679.04	65.54
679.18	14.04
679.31	0.00
679.45	86.60
679.59	81.92
679.73	42.13
679.87	53.83
680.00	0.00
680.14	0.00
680.28	110.01
680.42	98.30
680.56	9.36
680.70	51.49
680.83	105.32
680.97	21.06
681.11	70.22
681.25	35.11
681.39	86.60
681.52	21.06
681.66	0.00
681.80	102.98
681.94	81.92
682.07	63.19
682.21	131.07
682.35	37.45
682.49	0.00
682.62	28.09
682.76	44.47
682.90	14.04
683.04	56.17
683.17	65.54
683.31	49.15
683.45	35.11
683.59	0.00
683.72	2.34
683.86	18.72
684.00	46.81
684.13	93.62
684.27	35.11
684.41	56.17
684.55	0.00
684.68	21.06
684.82	46.81
684.96	72.56
685.09	49.15
685.23	2.34
685.37	84.26
685.50	9.36
685.64	56.17
685.78	28.09
685.91	88.94
686.05	133.41
686.19	35.11
686.32	65.54
686.46	100.64
686.60	4.68
686.73	30.43
686.87	0.00
687.01	21.06
687.14	21.06
687.28	81.92
687.42	58.51
687.55	14.04
687.69	60.85
687.82	56.17
687.96	67.88
688.10	60.85
688.23	56.17
688.37	0.00
688.50	0.00
688.64	0.00
688.78	7.02
688.91	2.34
689.05	60.85
689.18	18.72
689.32	72.56
689.46	0.00
689.59	0.00
689.73	28.09
689.86	32.77
690.00	23.41
690.13	32.77
690.27	37.45
690.41	91.28
690.54	140.43
690.68	14.04
690.81	53.83
690.95	0.00
691.08	65.54
691.22	56.17
691.35	14.04
691.49	4.68
691.62	25.75
691.76	28.09
691.89	30.43
692.03	63.19
692.16	56.17
692.30	18.72
692.43	63.19
692.57	238.73
692.70	433.00
692.84	601.52
692.97	500.87
693.11	393.21
693.24	318.31
693.38	217.67
693.51	128.73
693.65	128.73
693.78	98.30
693.92	51.49
694.05	18.72
694.19	9.36
694.32	39.79
694.45	0.00
694.59	2.34
694.72	39.79
694.86	0.00
694.99	65.54
695.13	56.17
695.26	0.00
695.39	23.41
695.53	63.19
695.66	74.90
695.80	56.17
695.93	65.54
696.07	72.56
696.20	124.05
696.33	58.51
696.47	56.17
696.60	86.60
696.73	58.51
696.87	44.47
697.00	67.88
697.14	84.26
697.27	4.68
697.40	86.60
697.54	25.75
697.67	0.00
697.80	147.45
697.94	107.66
698.07	0.00
698.21	42.13
698.34	86.60
698.47	88.94
698.61	63.19
698.74	0.00
698.87	46.81
699.01	30.43
699.14	16.38
699.27	110.01
699.40	81.92
699.54	39.79
699.67	81.92
699.80	11.70
699.94	23.41
700.07	0.00
700.20	30.43
700.34	93.62
700.47	25.75
700.60	0.00
700.73	95.96
700.87	0.00
701.00	46.81
701.13	0.00
701.26	51.49
701.40	51.49
701.53	11.70
701.66	9.36
701.79	119.37
701.93	67.88
702.06	21.06
702.19	11.70
702.32	70.22
702.46	35.11
702.59	86.60
702.72	121.71
702.85	294.91
702.99	699.82
703.12	992.39
703.25	1125.80
703.38	1090.69
703.51	770.04
703.65	655.35
703.78	463.43
703.91	276.18
704.04	217.67
704.17	163.84
704.31	44.47
704.44	56.17
704.57	25.75
704.70	0.00
704.83	91.28
704.96	25.75
705.10	88.94
705.23	81.92
>>>>>End Processed Spectral Data<<<<<
