SpectraSuite Data File
++++++++++++++++++++++++++++++++++++
Date: Fri Oct 04 12:13:41 GMT-05:00 2013
User: price-jones
Dark Spectrum Present: No
Reference Spectrum Present: No
Number of Sampled Component Spectra: 1
Spectrometers: USB2+H05261
Integration Time (usec): 10000 (USB2+H05261)
Spectra Averaged: 1 (USB2+H05261)
Boxcar Smoothing: 0 (USB2+H05261)
Correct for Electrical Dark: No (USB2+H05261)
Strobe/Lamp Enabled: No (USB2+H05261)
Correct for Detector Non-linearity: No (USB2+H05261)
Correct for Stray Light: No (USB2+H05261)
Number of Pixels in Processed Spectrum: 2048
>>>>>Begin Processed Spectral Data<<<<<
365.73	0.00
365.92	0.00
366.12	0.00
366.32	0.00
366.52	0.00
366.72	0.00
366.91	0.00
367.11	0.00
367.31	0.00
367.51	0.00
367.70	0.00
367.90	0.00
368.10	0.00
368.30	0.00
368.49	0.00
368.69	0.00
368.89	0.00
369.09	0.00
369.28	0.00
369.48	0.00
369.68	0.00
369.87	0.00
370.07	0.00
370.27	0.00
370.47	0.00
370.66	0.00
370.86	0.00
371.06	0.00
371.25	51.49
371.45	0.00
371.65	0.00
371.84	0.00
372.04	9.36
372.24	0.00
372.44	0.00
372.63	0.00
372.83	49.15
373.03	25.75
373.22	42.13
373.42	23.41
373.62	0.00
373.81	28.09
374.01	0.00
374.21	0.00
374.40	0.00
374.60	86.60
374.79	95.96
374.99	74.90
375.19	21.06
375.38	32.77
375.58	0.00
375.78	21.06
375.97	0.00
376.17	81.92
376.37	39.79
376.56	4.68
376.76	117.03
376.95	35.11
377.15	0.00
377.35	0.00
377.54	11.70
377.74	0.00
377.93	0.00
378.13	30.43
378.33	25.75
378.52	42.13
378.72	4.68
378.91	28.09
379.11	58.51
379.31	0.00
379.50	39.79
379.70	4.68
379.89	4.68
380.09	0.00
380.28	67.88
380.48	0.00
380.68	67.88
380.87	0.00
381.07	0.00
381.26	23.41
381.46	49.15
381.65	60.85
381.85	0.00
382.04	4.68
382.24	63.19
382.43	79.58
382.63	0.00
382.83	16.38
383.02	9.36
383.22	23.41
383.41	0.00
383.61	9.36
383.80	84.26
384.00	16.38
384.19	9.36
384.39	70.22
384.58	86.60
384.78	14.04
384.97	9.36
385.17	7.02
385.36	11.70
385.56	56.17
385.75	0.00
385.95	28.09
386.14	35.11
386.34	28.09
386.53	63.19
386.72	11.70
386.92	30.43
387.11	4.68
387.31	46.81
387.50	14.04
387.70	0.00
387.89	79.58
388.09	37.45
388.28	11.70
388.48	37.45
388.67	42.13
388.86	28.09
389.06	44.47
389.25	0.00
389.45	79.58
389.64	37.45
389.84	0.00
390.03	21.06
390.22	65.54
390.42	0.00
390.61	37.45
390.81	58.51
391.00	23.41
391.19	0.00
391.39	21.06
391.58	9.36
391.78	60.85
391.97	25.75
392.16	72.56
392.36	25.75
392.55	25.75
392.75	0.00
392.94	16.38
393.13	0.00
393.33	46.81
393.52	9.36
393.71	49.15
393.91	93.62
394.10	46.81
394.29	9.36
394.49	0.00
394.68	16.38
394.88	0.00
395.07	16.38
395.26	0.00
395.46	74.90
395.65	77.24
395.84	0.00
396.04	23.41
396.23	0.00
396.42	0.00
396.62	0.00
396.81	51.49
397.00	35.11
397.19	0.00
397.39	46.81
397.58	154.48
397.77	35.11
397.97	30.43
398.16	126.39
398.35	0.00
398.55	0.00
398.74	0.00
398.93	28.09
399.12	58.51
399.32	56.17
399.51	35.11
399.70	37.45
399.90	23.41
400.09	0.00
400.28	84.26
400.47	37.45
400.67	86.60
400.86	49.15
401.05	0.00
401.24	70.22
401.44	67.88
401.63	30.43
401.82	58.51
402.01	28.09
402.21	70.22
402.40	0.00
402.59	11.70
402.78	16.38
402.97	88.94
403.17	39.79
403.36	18.72
403.55	4.68
403.74	11.70
403.93	25.75
404.13	81.92
404.32	37.45
404.51	11.70
404.70	25.75
404.89	28.09
405.09	107.66
405.28	16.38
405.47	30.43
405.66	67.88
405.85	53.83
406.05	58.51
406.24	72.56
406.43	0.00
406.62	72.56
406.81	81.92
407.00	23.41
407.20	81.92
407.39	11.70
407.58	77.24
407.77	0.00
407.96	46.81
408.15	16.38
408.34	14.04
408.54	60.85
408.73	18.72
408.92	44.47
409.11	0.00
409.30	56.17
409.49	0.00
409.68	0.00
409.87	63.19
410.07	49.15
410.26	44.47
410.45	70.22
410.64	23.41
410.83	0.00
411.02	18.72
411.21	2.34
411.40	79.58
411.59	46.81
411.78	35.11
411.98	21.06
412.17	72.56
412.36	65.54
412.55	9.36
412.74	44.47
412.93	30.43
413.12	0.00
413.31	0.00
413.50	0.00
413.69	30.43
413.88	0.00
414.07	30.43
414.26	81.92
414.45	88.94
414.64	98.30
414.83	110.01
415.02	88.94
415.22	7.02
415.41	0.00
415.60	51.49
415.79	0.00
415.98	95.96
416.17	56.17
416.36	112.35
416.55	60.85
416.74	91.28
416.93	37.45
417.12	0.00
417.31	30.43
417.50	39.79
417.69	42.13
417.88	56.17
418.07	53.83
418.26	39.79
418.45	105.32
418.64	42.13
418.83	60.85
419.02	53.83
419.21	46.81
419.39	32.77
419.58	91.28
419.77	74.90
419.96	60.85
420.15	58.51
420.34	63.19
420.53	77.24
420.72	58.51
420.91	30.43
421.10	58.51
421.29	14.04
421.48	67.88
421.67	28.09
421.86	32.77
422.05	58.51
422.24	23.41
422.43	60.85
422.61	0.00
422.80	28.09
422.99	67.88
423.18	30.43
423.37	56.17
423.56	60.85
423.75	168.52
423.94	95.96
424.13	30.43
424.32	32.77
424.50	0.00
424.69	21.06
424.88	0.00
425.07	14.04
425.26	60.85
425.45	91.28
425.64	74.90
425.83	37.45
426.01	86.60
426.20	63.19
426.39	14.04
426.58	44.47
426.77	0.00
426.96	32.77
427.15	93.62
427.33	11.70
427.52	81.92
427.71	9.36
427.90	114.69
428.09	0.00
428.28	11.70
428.46	0.00
428.65	77.24
428.84	16.38
429.03	32.77
429.22	16.38
429.40	44.47
429.59	16.38
429.78	93.62
429.97	37.45
430.16	32.77
430.34	0.00
430.53	63.19
430.72	49.15
430.91	49.15
431.10	63.19
431.28	35.11
431.47	4.68
431.66	30.43
431.85	67.88
432.03	44.47
432.22	53.83
432.41	35.11
432.60	56.17
432.79	46.81
432.97	14.04
433.16	18.72
433.35	70.22
433.54	98.30
433.72	88.94
433.91	39.79
434.10	0.00
434.28	0.00
434.47	14.04
434.66	95.96
434.85	51.49
435.03	67.88
435.22	60.85
435.41	56.17
435.59	9.36
435.78	42.13
435.97	58.51
436.16	60.85
436.34	23.41
436.53	46.81
436.72	67.88
436.90	84.26
437.09	42.13
437.28	51.49
437.46	74.90
437.65	21.06
437.84	65.54
438.02	46.81
438.21	105.32
438.40	30.43
438.58	51.49
438.77	86.60
438.96	100.64
439.14	14.04
439.33	72.56
439.52	70.22
439.70	56.17
439.89	46.81
440.08	65.54
440.26	46.81
440.45	7.02
440.63	9.36
440.82	42.13
441.01	60.85
441.19	30.43
441.38	70.22
441.57	32.77
441.75	0.00
441.94	42.13
442.12	46.81
442.31	49.15
442.50	49.15
442.68	72.56
442.87	18.72
443.05	56.17
443.24	65.54
443.43	37.45
443.61	2.34
443.80	93.62
443.98	121.71
444.17	70.22
444.35	7.02
444.54	63.19
444.73	18.72
444.91	88.94
445.10	60.85
445.28	0.00
445.47	28.09
445.65	42.13
445.84	44.47
446.02	65.54
446.21	88.94
446.39	98.30
446.58	72.56
446.77	102.98
446.95	91.28
447.14	147.45
447.32	58.51
447.51	86.60
447.69	42.13
447.88	28.09
448.06	63.19
448.25	72.56
448.43	95.96
448.62	88.94
448.80	39.79
448.99	16.38
449.17	49.15
449.36	11.70
449.54	49.15
449.73	9.36
449.91	56.17
450.10	58.51
450.28	72.56
450.46	46.81
450.65	86.60
450.83	16.38
451.02	81.92
451.20	35.11
451.39	23.41
451.57	70.22
451.76	58.51
451.94	142.77
452.13	102.98
452.31	58.51
452.49	63.19
452.68	42.13
452.86	44.47
453.05	42.13
453.23	58.51
453.42	46.81
453.60	32.77
453.78	107.66
453.97	63.19
454.15	44.47
454.34	53.83
454.52	56.17
454.70	60.85
454.89	44.47
455.07	77.24
455.26	88.94
455.44	35.11
455.62	88.94
455.81	65.54
455.99	79.58
456.17	88.94
456.36	91.28
456.54	49.15
456.73	51.49
456.91	102.98
457.09	77.24
457.28	37.45
457.46	37.45
457.64	0.00
457.83	39.79
458.01	86.60
458.19	39.79
458.38	32.77
458.56	91.28
458.74	39.79
458.93	163.84
459.11	70.22
459.29	42.13
459.48	14.04
459.66	84.26
459.84	0.00
460.03	35.11
460.21	86.60
460.39	60.85
460.57	79.58
460.76	42.13
460.94	46.81
461.12	18.72
461.31	67.88
461.49	58.51
461.67	70.22
461.85	30.43
462.04	25.75
462.22	138.09
462.40	72.56
462.59	49.15
462.77	77.24
462.95	42.13
463.13	56.17
463.32	28.09
463.50	77.24
463.68	114.69
463.86	77.24
464.05	140.43
464.23	70.22
464.41	2.34
464.59	93.62
464.78	0.00
464.96	9.36
465.14	0.00
465.32	30.43
465.50	100.64
465.69	95.96
465.87	23.41
466.05	9.36
466.23	72.56
466.41	32.77
466.60	93.62
466.78	77.24
466.96	25.75
467.14	46.81
467.32	30.43
467.51	56.17
467.69	81.92
467.87	105.32
468.05	100.64
468.23	128.73
468.41	49.15
468.60	79.58
468.78	67.88
468.96	60.85
469.14	32.77
469.32	81.92
469.50	18.72
469.69	77.24
469.87	37.45
470.05	37.45
470.23	58.51
470.41	32.77
470.59	18.72
470.77	46.81
470.95	0.00
471.14	0.00
471.32	7.02
471.50	88.94
471.68	32.77
471.86	98.30
472.04	81.92
472.22	86.60
472.40	65.54
472.58	30.43
472.77	9.36
472.95	112.35
473.13	39.79
473.31	72.56
473.49	32.77
473.67	77.24
473.85	39.79
474.03	32.77
474.21	51.49
474.39	102.98
474.57	18.72
474.75	63.19
474.93	84.26
475.12	126.39
475.30	121.71
475.48	121.71
475.66	28.09
475.84	56.17
476.02	11.70
476.20	152.13
476.38	46.81
476.56	32.77
476.74	110.01
476.92	0.00
477.10	16.38
477.28	77.24
477.46	74.90
477.64	2.34
477.82	58.51
478.00	51.49
478.18	77.24
478.36	32.77
478.54	63.19
478.72	105.32
478.90	37.45
479.08	46.81
479.26	81.92
479.44	86.60
479.62	156.82
479.80	79.58
479.98	49.15
480.16	0.00
480.34	23.41
480.52	42.13
480.70	88.94
480.88	18.72
481.06	39.79
481.24	32.77
481.41	23.41
481.59	35.11
481.77	91.28
481.95	58.51
482.13	56.17
482.31	56.17
482.49	131.07
482.67	60.85
482.85	39.79
483.03	79.58
483.21	110.01
483.39	100.64
483.57	56.17
483.74	23.41
483.92	42.13
484.10	110.01
484.28	133.41
484.46	105.32
484.64	65.54
484.82	126.39
485.00	35.11
485.18	21.06
485.35	9.36
485.53	49.15
485.71	58.51
485.89	53.83
486.07	72.56
486.25	91.28
486.43	65.54
486.61	98.30
486.78	46.81
486.96	112.35
487.14	58.51
487.32	7.02
487.50	70.22
487.68	37.45
487.85	84.26
488.03	88.94
488.21	100.64
488.39	63.19
488.57	21.06
488.75	102.98
488.92	100.64
489.10	95.96
489.28	0.00
489.46	49.15
489.64	105.32
489.81	51.49
489.99	119.37
490.17	159.16
490.35	67.88
490.53	35.11
490.70	28.09
490.88	46.81
491.06	21.06
491.24	35.11
491.41	100.64
491.59	0.00
491.77	60.85
491.95	67.88
492.13	77.24
492.30	67.88
492.48	100.64
492.66	51.49
492.84	93.62
493.01	147.45
493.19	44.47
493.37	142.77
493.54	65.54
493.72	37.45
493.90	46.81
494.08	95.96
494.25	107.66
494.43	77.24
494.61	35.11
494.79	86.60
494.96	44.47
495.14	16.38
495.32	161.50
495.49	37.45
495.67	37.45
495.85	67.88
496.02	58.51
496.20	56.17
496.38	70.22
496.55	35.11
496.73	100.64
496.91	105.32
497.09	81.92
497.26	110.01
497.44	51.49
497.62	86.60
497.79	46.81
497.97	0.00
498.14	0.00
498.32	79.58
498.50	63.19
498.67	84.26
498.85	67.88
499.03	53.83
499.20	18.72
499.38	63.19
499.56	67.88
499.73	18.72
499.91	51.49
500.08	58.51
500.26	114.69
500.44	93.62
500.61	77.24
500.79	86.60
500.97	51.49
501.14	119.37
501.32	56.17
501.49	39.79
501.67	30.43
501.84	63.19
502.02	60.85
502.20	84.26
502.37	53.83
502.55	140.43
502.72	4.68
502.90	177.88
503.07	138.09
503.25	37.45
503.43	79.58
503.60	72.56
503.78	100.64
503.95	0.00
504.13	30.43
504.30	147.45
504.48	168.52
504.65	77.24
504.83	67.88
505.01	131.07
505.18	100.64
505.36	9.36
505.53	105.32
505.71	72.56
505.88	23.41
506.06	79.58
506.23	72.56
506.41	98.30
506.58	180.22
506.76	30.43
506.93	74.90
507.11	53.83
507.28	88.94
507.46	72.56
507.63	72.56
507.81	23.41
507.98	65.54
508.16	58.51
508.33	121.71
508.50	18.72
508.68	49.15
508.85	135.75
509.03	30.43
509.20	81.92
509.38	107.66
509.55	112.35
509.73	105.32
509.90	14.04
510.08	100.64
510.25	128.73
510.42	102.98
510.60	119.37
510.77	102.98
510.95	88.94
511.12	91.28
511.30	74.90
511.47	60.85
511.64	77.24
511.82	124.05
511.99	81.92
512.17	65.54
512.34	86.60
512.51	56.17
512.69	81.92
512.86	42.13
513.04	77.24
513.21	110.01
513.38	49.15
513.56	70.22
513.73	138.09
513.90	119.37
514.08	84.26
514.25	114.69
514.43	72.56
514.60	124.05
514.77	39.79
514.95	58.51
515.12	74.90
515.29	107.66
515.47	37.45
515.64	67.88
515.81	135.75
515.99	60.85
516.16	128.73
516.33	105.32
516.51	65.54
516.68	88.94
516.85	2.34
517.03	205.97
517.20	121.71
517.37	84.26
517.54	37.45
517.72	37.45
517.89	4.68
518.06	117.03
518.24	56.17
518.41	93.62
518.58	35.11
518.75	110.01
518.93	74.90
519.10	35.11
519.27	56.17
519.45	131.07
519.62	60.85
519.79	65.54
519.96	131.07
520.14	121.71
520.31	58.51
520.48	112.35
520.65	114.69
520.83	149.79
521.00	23.41
521.17	84.26
521.34	21.06
521.52	79.58
521.69	95.96
521.86	72.56
522.03	119.37
522.20	102.98
522.38	117.03
522.55	70.22
522.72	88.94
522.89	147.45
523.07	25.75
523.24	88.94
523.41	65.54
523.58	65.54
523.75	81.92
523.92	53.83
524.10	98.30
524.27	84.26
524.44	16.38
524.61	135.75
524.78	81.92
524.96	72.56
525.13	107.66
525.30	28.09
525.47	53.83
525.64	93.62
525.81	42.13
525.98	100.64
526.16	30.43
526.33	39.79
526.50	91.28
526.67	56.17
526.84	42.13
527.01	63.19
527.18	161.50
527.36	124.05
527.53	156.82
527.70	63.19
527.87	63.19
528.04	70.22
528.21	95.96
528.38	84.26
528.55	124.05
528.72	53.83
528.89	107.66
529.07	107.66
529.24	138.09
529.41	126.39
529.58	79.58
529.75	77.24
529.92	56.17
530.09	28.09
530.26	91.28
530.43	67.88
530.60	74.90
530.77	79.58
530.94	112.35
531.11	42.13
531.28	58.51
531.46	2.34
531.63	25.75
531.80	156.82
531.97	56.17
532.14	79.58
532.31	145.11
532.48	79.58
532.65	18.72
532.82	86.60
532.99	100.64
533.16	133.41
533.33	72.56
533.50	105.32
533.67	74.90
533.84	56.17
534.01	72.56
534.18	72.56
534.35	88.94
534.52	119.37
534.69	95.96
534.86	60.85
535.03	74.90
535.20	79.58
535.37	114.69
535.54	88.94
535.71	56.17
535.88	105.32
536.05	79.58
536.22	102.98
536.38	18.72
536.55	159.16
536.72	44.47
536.89	84.26
537.06	126.39
537.23	58.51
537.40	124.05
537.57	117.03
537.74	44.47
537.91	51.49
538.08	100.64
538.25	95.96
538.42	63.19
538.59	88.94
538.75	117.03
538.92	131.07
539.09	135.75
539.26	70.22
539.43	84.26
539.60	142.77
539.77	95.96
539.94	74.90
540.11	70.22
540.28	51.49
540.44	88.94
540.61	110.01
540.78	56.17
540.95	79.58
541.12	124.05
541.29	77.24
541.46	79.58
541.62	100.64
541.79	110.01
541.96	86.60
542.13	58.51
542.30	74.90
542.47	60.85
542.63	67.88
542.80	156.82
542.97	119.37
543.14	142.77
543.31	91.28
543.48	0.00
543.64	32.77
543.81	107.66
543.98	100.64
544.15	67.88
544.32	84.26
544.48	173.20
544.65	84.26
544.82	142.77
544.99	67.88
545.16	126.39
545.32	49.15
545.49	93.62
545.66	121.71
545.83	117.03
546.00	102.98
546.16	93.62
546.33	117.03
546.50	81.92
546.67	67.88
546.83	177.88
547.00	105.32
547.17	60.85
547.34	60.85
547.50	93.62
547.67	63.19
547.84	72.56
548.00	147.45
548.17	74.90
548.34	63.19
548.51	70.22
548.67	114.69
548.84	133.41
549.01	84.26
549.18	70.22
549.34	58.51
549.51	65.54
549.68	79.58
549.84	74.90
550.01	65.54
550.18	98.30
550.34	16.38
550.51	79.58
550.68	81.92
550.84	102.98
551.01	128.73
551.18	63.19
551.34	119.37
551.51	58.51
551.68	37.45
551.84	56.17
552.01	84.26
552.18	128.73
552.34	32.77
552.51	88.94
552.68	95.96
552.84	100.64
553.01	21.06
553.18	46.81
553.34	142.77
553.51	70.22
553.67	42.13
553.84	60.85
554.01	114.69
554.17	49.15
554.34	142.77
554.51	95.96
554.67	110.01
554.84	95.96
555.00	154.48
555.17	98.30
555.33	102.98
555.50	0.00
555.67	161.50
555.83	58.51
556.00	77.24
556.16	86.60
556.33	135.75
556.50	124.05
556.66	51.49
556.83	63.19
556.99	70.22
557.16	23.41
557.32	21.06
557.49	49.15
557.65	170.86
557.82	56.17
557.98	138.09
558.15	121.71
558.32	95.96
558.48	88.94
558.65	72.56
558.81	107.66
558.98	58.51
559.14	86.60
559.31	133.41
559.47	98.30
559.64	79.58
559.80	49.15
559.97	46.81
560.13	184.90
560.30	46.81
560.46	35.11
560.63	49.15
560.79	77.24
560.96	110.01
561.12	105.32
561.29	138.09
561.45	98.30
561.61	21.06
561.78	70.22
561.94	107.66
562.11	53.83
562.27	2.34
562.44	121.71
562.60	14.04
562.77	121.71
562.93	121.71
563.10	16.38
563.26	98.30
563.42	25.75
563.59	133.41
563.75	21.06
563.92	72.56
564.08	79.58
564.24	42.13
564.41	128.73
564.57	112.35
564.74	128.73
564.90	135.75
565.07	93.62
565.23	35.11
565.39	0.00
565.56	4.68
565.72	0.00
565.88	11.70
566.05	58.51
566.21	84.26
566.38	77.24
566.54	110.01
566.70	110.01
566.87	112.35
567.03	77.24
567.19	88.94
567.36	131.07
567.52	98.30
567.68	98.30
567.85	102.98
568.01	110.01
568.17	100.64
568.34	56.17
568.50	98.30
568.66	119.37
568.83	0.00
568.99	56.17
569.15	110.01
569.32	51.49
569.48	74.90
569.64	121.71
569.81	65.54
569.97	88.94
570.13	154.48
570.30	93.62
570.46	53.83
570.62	79.58
570.78	126.39
570.95	46.81
571.11	79.58
571.27	138.09
571.43	67.88
571.60	74.90
571.76	58.51
571.92	79.58
572.09	163.84
572.25	60.85
572.41	105.32
572.57	7.02
572.74	112.35
572.90	70.22
573.06	39.79
573.22	53.83
573.38	79.58
573.55	58.51
573.71	11.70
573.87	35.11
574.03	168.52
574.20	74.90
574.36	95.96
574.52	51.49
574.68	110.01
574.84	88.94
575.01	37.45
575.17	51.49
575.33	60.85
575.49	110.01
575.65	86.60
575.82	98.30
575.98	112.35
576.14	77.24
576.30	42.13
576.46	100.64
576.62	117.03
576.79	95.96
576.95	74.90
577.11	65.54
577.27	70.22
577.43	93.62
577.59	93.62
577.75	51.49
577.92	56.17
578.08	95.96
578.24	56.17
578.40	88.94
578.56	51.49
578.72	121.71
578.88	53.83
579.04	63.19
579.21	84.26
579.37	84.26
579.53	44.47
579.69	67.88
579.85	95.96
580.01	74.90
580.17	119.37
580.33	131.07
580.49	124.05
580.65	63.19
580.82	58.51
580.98	72.56
581.14	67.88
581.30	53.83
581.46	79.58
581.62	112.35
581.78	79.58
581.94	175.54
582.10	119.37
582.26	9.36
582.42	56.17
582.58	128.73
582.74	49.15
582.90	79.58
583.06	86.60
583.22	37.45
583.38	114.69
583.54	67.88
583.70	44.47
583.86	77.24
584.02	93.62
584.18	37.45
584.34	79.58
584.50	49.15
584.66	95.96
584.82	63.19
584.98	67.88
585.14	37.45
585.30	81.92
585.46	35.11
585.62	49.15
585.78	98.30
585.94	79.58
586.10	95.96
586.26	93.62
586.42	93.62
586.58	65.54
586.74	114.69
586.90	88.94
587.06	30.43
587.22	124.05
587.38	105.32
587.54	77.24
587.70	56.17
587.86	72.56
588.02	28.09
588.18	35.11
588.34	93.62
588.49	0.00
588.65	67.88
588.81	124.05
588.97	119.37
589.13	81.92
589.29	39.79
589.45	63.19
589.61	51.49
589.77	0.00
589.93	44.47
590.08	95.96
590.24	7.02
590.40	107.66
590.56	37.45
590.72	91.28
590.88	21.06
591.04	112.35
591.20	0.00
591.35	72.56
591.51	53.83
591.67	23.41
591.83	46.81
591.99	49.15
592.15	135.75
592.31	93.62
592.46	77.24
592.62	11.70
592.78	49.15
592.94	39.79
593.10	58.51
593.26	35.11
593.41	84.26
593.57	63.19
593.73	95.96
593.89	44.47
594.05	18.72
594.20	84.26
594.36	107.66
594.52	65.54
594.68	65.54
594.84	133.41
594.99	77.24
595.15	28.09
595.31	14.04
595.47	74.90
595.62	124.05
595.78	140.43
595.94	49.15
596.10	53.83
596.25	95.96
596.41	124.05
596.57	124.05
596.73	142.77
596.88	11.70
597.04	84.26
597.20	60.85
597.36	53.83
597.51	72.56
597.67	74.90
597.83	88.94
597.99	112.35
598.14	44.47
598.30	65.54
598.46	124.05
598.61	74.90
598.77	51.49
598.93	23.41
599.09	65.54
599.24	63.19
599.40	100.64
599.56	117.03
599.71	88.94
599.87	100.64
600.03	74.90
600.18	182.56
600.34	81.92
600.50	53.83
600.65	63.19
600.81	51.49
600.97	147.45
601.12	159.16
601.28	53.83
601.44	2.34
601.59	28.09
601.75	25.75
601.91	0.00
602.06	56.17
602.22	60.85
602.37	74.90
602.53	98.30
602.69	110.01
602.84	114.69
603.00	46.81
603.16	126.39
603.31	32.77
603.47	110.01
603.62	11.70
603.78	7.02
603.94	95.96
604.09	102.98
604.25	46.81
604.40	77.24
604.56	46.81
604.71	67.88
604.87	79.58
605.03	65.54
605.18	138.09
605.34	56.17
605.49	98.30
605.65	60.85
605.80	72.56
605.96	14.04
606.12	65.54
606.27	49.15
606.43	28.09
606.58	30.43
606.74	67.88
606.89	79.58
607.05	138.09
607.20	107.66
607.36	42.13
607.51	0.00
607.67	110.01
607.82	77.24
607.98	70.22
608.13	88.94
608.29	46.81
608.44	124.05
608.60	81.92
608.75	126.39
608.91	79.58
609.06	56.17
609.22	135.75
609.37	30.43
609.53	131.07
609.68	63.19
609.84	16.38
609.99	0.00
610.15	114.69
610.30	67.88
610.46	105.32
610.61	32.77
610.76	63.19
610.92	95.96
611.07	79.58
611.23	102.98
611.38	91.28
611.54	4.68
611.69	131.07
611.84	77.24
612.00	51.49
612.15	23.41
612.31	117.03
612.46	65.54
612.62	102.98
612.77	51.49
612.92	138.09
613.08	65.54
613.23	46.81
613.39	49.15
613.54	67.88
613.69	11.70
613.85	100.64
614.00	77.24
614.15	112.35
614.31	110.01
614.46	67.88
614.62	81.92
614.77	95.96
614.92	95.96
615.08	84.26
615.23	53.83
615.38	46.81
615.54	65.54
615.69	37.45
615.84	72.56
616.00	2.34
616.15	58.51
616.30	25.75
616.46	9.36
616.61	56.17
616.76	58.51
616.92	93.62
617.07	126.39
617.22	77.24
617.37	65.54
617.53	133.41
617.68	32.77
617.83	147.45
617.99	60.85
618.14	77.24
618.29	28.09
618.45	91.28
618.60	88.94
618.75	70.22
618.90	51.49
619.06	102.98
619.21	44.47
619.36	114.69
619.51	0.00
619.67	86.60
619.82	23.41
619.97	11.70
620.12	112.35
620.28	58.51
620.43	16.38
620.58	74.90
620.73	65.54
620.89	126.39
621.04	53.83
621.19	0.00
621.34	44.47
621.49	25.75
621.65	107.66
621.80	65.54
621.95	35.11
622.10	110.01
622.25	100.64
622.41	44.47
622.56	28.09
622.71	18.72
622.86	53.83
623.01	14.04
623.16	117.03
623.32	37.45
623.47	44.47
623.62	46.81
623.77	42.13
623.92	91.28
624.07	72.56
624.23	93.62
624.38	60.85
624.53	44.47
624.68	39.79
624.83	56.17
624.98	93.62
625.13	58.51
625.29	39.79
625.44	131.07
625.59	51.49
625.74	65.54
625.89	56.17
626.04	77.24
626.19	102.98
626.34	88.94
626.49	30.43
626.65	32.77
626.80	72.56
626.95	79.58
627.10	42.13
627.25	60.85
627.40	95.96
627.55	30.43
627.70	95.96
627.85	30.43
628.00	58.51
628.15	37.45
628.30	67.88
628.45	37.45
628.60	81.92
628.76	0.00
628.91	67.88
629.06	91.28
629.21	65.54
629.36	0.00
629.51	91.28
629.66	88.94
629.81	35.11
629.96	60.85
630.11	63.19
630.26	74.90
630.41	88.94
630.56	65.54
630.71	14.04
630.86	70.22
631.01	51.49
631.16	0.00
631.31	67.88
631.46	105.32
631.61	32.77
631.76	135.75
631.91	0.00
632.06	32.77
632.21	105.32
632.36	65.54
632.51	18.72
632.66	28.09
632.81	117.03
632.96	9.36
633.10	70.22
633.25	95.96
633.40	70.22
633.55	49.15
633.70	65.54
633.85	49.15
634.00	39.79
634.15	28.09
634.30	65.54
634.45	88.94
634.60	70.22
634.75	86.60
634.90	44.47
635.05	142.77
635.19	79.58
635.34	72.56
635.49	100.64
635.64	79.58
635.79	119.37
635.94	0.00
636.09	56.17
636.24	46.81
636.39	110.01
636.53	56.17
636.68	11.70
636.83	81.92
636.98	18.72
637.13	93.62
637.28	63.19
637.43	56.17
637.57	18.72
637.72	37.45
637.87	35.11
638.02	100.64
638.17	51.49
638.32	60.85
638.46	44.47
638.61	0.00
638.76	91.28
638.91	60.85
639.06	37.45
639.20	79.58
639.35	81.92
639.50	81.92
639.65	93.62
639.80	39.79
639.94	30.43
640.09	16.38
640.24	65.54
640.39	112.35
640.54	65.54
640.68	70.22
640.83	42.13
640.98	44.47
641.13	81.92
641.27	46.81
641.42	30.43
641.57	117.03
641.72	42.13
641.86	93.62
642.01	138.09
642.16	79.58
642.31	46.81
642.45	72.56
642.60	63.19
642.75	39.79
642.90	51.49
643.04	0.00
643.19	0.00
643.34	39.79
643.48	28.09
643.63	28.09
643.78	46.81
643.93	91.28
644.07	81.92
644.22	79.58
644.37	149.79
644.51	51.49
644.66	65.54
644.81	53.83
644.95	30.43
645.10	46.81
645.25	67.88
645.39	74.90
645.54	84.26
645.69	100.64
645.83	74.90
645.98	56.17
646.13	39.79
646.27	72.56
646.42	21.06
646.57	35.11
646.71	30.43
646.86	60.85
647.00	77.24
647.15	77.24
647.30	84.26
647.44	42.13
647.59	58.51
647.74	35.11
647.88	2.34
648.03	117.03
648.17	79.58
648.32	95.96
648.47	65.54
648.61	56.17
648.76	35.11
648.90	58.51
649.05	56.17
649.20	60.85
649.34	14.04
649.49	21.06
649.63	74.90
649.78	2.34
649.92	79.58
650.07	58.51
650.21	60.85
650.36	28.09
650.51	4.68
650.65	58.51
650.80	105.32
650.94	16.38
651.09	128.73
651.23	4.68
651.38	53.83
651.52	44.47
651.67	30.43
651.81	51.49
651.96	51.49
652.10	42.13
652.25	147.45
652.39	37.45
652.54	128.73
652.68	110.01
652.83	67.88
652.97	88.94
653.12	79.58
653.26	2.34
653.41	79.58
653.55	32.77
653.70	65.54
653.84	49.15
653.99	74.90
654.13	107.66
654.27	32.77
654.42	42.13
654.56	86.60
654.71	11.70
654.85	95.96
655.00	35.11
655.14	35.11
655.29	102.98
655.43	46.81
655.57	117.03
655.72	65.54
655.86	0.00
656.01	30.43
656.15	16.38
656.30	37.45
656.44	107.66
656.58	95.96
656.73	60.85
656.87	72.56
657.01	65.54
657.16	0.00
657.30	0.00
657.45	145.11
657.59	44.47
657.73	93.62
657.88	81.92
658.02	32.77
658.16	81.92
658.31	58.51
658.45	81.92
658.60	86.60
658.74	102.98
658.88	35.11
659.03	0.00
659.17	110.01
659.31	77.24
659.46	28.09
659.60	112.35
659.74	65.54
659.89	51.49
660.03	37.45
660.17	0.00
660.32	25.75
660.46	25.75
660.60	67.88
660.74	131.07
660.89	35.11
661.03	77.24
661.17	88.94
661.32	74.90
661.46	88.94
661.60	11.70
661.74	25.75
661.89	51.49
662.03	70.22
662.17	53.83
662.31	30.43
662.46	44.47
662.60	25.75
662.74	25.75
662.88	0.00
663.03	79.58
663.17	21.06
663.31	51.49
663.45	51.49
663.60	65.54
663.74	0.00
663.88	16.38
664.02	11.70
664.17	63.19
664.31	32.77
664.45	0.00
664.59	112.35
664.73	37.45
664.88	0.00
665.02	46.81
665.16	93.62
665.30	91.28
665.44	51.49
665.59	25.75
665.73	124.05
665.87	49.15
666.01	14.04
666.15	0.00
666.29	100.64
666.44	114.69
666.58	88.94
666.72	42.13
666.86	4.68
667.00	23.41
667.14	16.38
667.28	0.00
667.43	84.26
667.57	63.19
667.71	11.70
667.85	18.72
667.99	53.83
668.13	63.19
668.27	60.85
668.41	53.83
668.56	67.88
668.70	56.17
668.84	30.43
668.98	7.02
669.12	56.17
669.26	46.81
669.40	72.56
669.54	7.02
669.68	58.51
669.82	30.43
669.96	0.00
670.10	37.45
670.25	63.19
670.39	79.58
670.53	0.00
670.67	16.38
670.81	0.00
670.95	0.00
671.09	51.49
671.23	93.62
671.37	74.90
671.51	44.47
671.65	0.00
671.79	72.56
671.93	72.56
672.07	37.45
672.21	63.19
672.35	63.19
672.49	56.17
672.63	16.38
672.77	58.51
672.91	65.54
673.05	74.90
673.19	60.85
673.33	84.26
673.47	86.60
673.61	100.64
673.75	58.51
673.89	0.00
674.03	49.15
674.17	65.54
674.31	107.66
674.45	58.51
674.59	0.00
674.73	32.77
674.87	42.13
675.01	131.07
675.15	121.71
675.29	70.22
675.43	4.68
675.56	95.96
675.70	70.22
675.84	77.24
675.98	119.37
676.12	81.92
676.26	117.03
676.40	0.00
676.54	0.00
676.68	86.60
676.82	0.00
676.96	25.75
677.10	107.66
677.23	23.41
677.37	53.83
677.51	70.22
677.65	86.60
677.79	18.72
677.93	74.90
678.07	117.03
678.21	105.32
678.34	37.45
678.48	65.54
678.62	0.00
678.76	84.26
678.90	67.88
679.04	60.85
679.18	0.00
679.31	65.54
679.45	46.81
679.59	4.68
679.73	23.41
679.87	0.00
680.00	100.64
680.14	74.90
680.28	84.26
680.42	110.01
680.56	32.77
680.70	0.00
680.83	21.06
680.97	23.41
681.11	32.77
681.25	79.58
681.39	0.00
681.52	42.13
681.66	32.77
681.80	79.58
681.94	25.75
682.07	84.26
682.21	37.45
682.35	4.68
682.49	88.94
682.62	7.02
682.76	60.85
682.90	44.47
683.04	37.45
683.17	21.06
683.31	84.26
683.45	93.62
683.59	112.35
683.72	74.90
683.86	110.01
684.00	16.38
684.13	77.24
684.27	46.81
684.41	95.96
684.55	28.09
684.68	18.72
684.82	84.26
684.96	0.00
685.09	145.11
685.23	128.73
685.37	65.54
685.50	35.11
685.64	28.09
685.78	21.06
685.91	49.15
686.05	7.02
686.19	30.43
686.32	53.83
686.46	72.56
686.60	77.24
686.73	128.73
686.87	46.81
687.01	4.68
687.14	35.11
687.28	25.75
687.42	95.96
687.55	51.49
687.69	84.26
687.82	39.79
687.96	100.64
688.10	4.68
688.23	79.58
688.37	156.82
688.50	7.02
688.64	46.81
688.78	0.00
688.91	46.81
689.05	138.09
689.18	28.09
689.32	4.68
689.46	21.06
689.59	30.43
689.73	16.38
689.86	0.00
690.00	44.47
690.13	42.13
690.27	102.98
690.41	35.11
690.54	154.48
690.68	79.58
690.81	88.94
690.95	114.69
691.08	18.72
691.22	28.09
691.35	0.00
691.49	25.75
691.62	39.79
691.76	4.68
691.89	39.79
692.03	11.70
692.16	42.13
692.30	100.64
692.43	53.83
692.57	60.85
692.70	30.43
692.84	37.45
692.97	100.64
693.11	79.58
693.24	28.09
693.38	0.00
693.51	23.41
693.65	102.98
693.78	70.22
693.92	46.81
694.05	53.83
694.19	0.00
694.32	37.45
694.45	77.24
694.59	46.81
694.72	0.00
694.86	0.00
694.99	46.81
695.13	0.00
695.26	56.17
695.39	51.49
695.53	7.02
695.66	0.00
695.80	56.17
695.93	56.17
696.07	0.00
696.20	0.00
696.33	18.72
696.47	0.00
696.60	49.15
696.73	32.77
696.87	16.38
697.00	70.22
697.14	53.83
697.27	102.98
697.40	58.51
697.54	0.00
697.67	4.68
697.80	84.26
697.94	74.90
698.07	44.47
698.21	9.36
698.34	4.68
698.47	16.38
698.61	7.02
698.74	81.92
698.87	0.00
699.01	0.00
699.14	35.11
699.27	0.00
699.40	39.79
699.54	63.19
699.67	28.09
699.80	7.02
699.94	44.47
700.07	0.00
700.20	49.15
700.34	77.24
700.47	58.51
700.60	0.00
700.73	16.38
700.87	56.17
701.00	2.34
701.13	37.45
701.26	91.28
701.40	16.38
701.53	0.00
701.66	25.75
701.79	88.94
701.93	53.83
702.06	0.00
702.19	63.19
702.32	70.22
702.46	79.58
702.59	65.54
702.72	60.85
702.85	25.75
702.99	0.00
703.12	0.00
703.25	0.00
703.38	25.75
703.51	0.00
703.65	9.36
703.78	84.26
703.91	25.75
704.04	0.00
704.17	7.02
704.31	49.15
704.44	88.94
704.57	0.00
704.70	42.13
704.83	84.26
704.96	72.56
705.10	0.00
705.23	4.68
>>>>>End Processed Spectral Data<<<<<
