SpectraSuite Data File
++++++++++++++++++++++++++++++++++++
Date: Fri Oct 04 12:13:43 GMT-05:00 2013
User: price-jones
Dark Spectrum Present: No
Reference Spectrum Present: No
Number of Sampled Component Spectra: 1
Spectrometers: USB2+H05261
Integration Time (usec): 10000 (USB2+H05261)
Spectra Averaged: 1 (USB2+H05261)
Boxcar Smoothing: 0 (USB2+H05261)
Correct for Electrical Dark: No (USB2+H05261)
Strobe/Lamp Enabled: No (USB2+H05261)
Correct for Detector Non-linearity: No (USB2+H05261)
Correct for Stray Light: No (USB2+H05261)
Number of Pixels in Processed Spectrum: 2048
>>>>>Begin Processed Spectral Data<<<<<
365.73	0.00
365.92	0.00
366.12	0.00
366.32	0.00
366.52	0.00
366.72	0.00
366.91	0.00
367.11	0.00
367.31	0.00
367.51	0.00
367.70	0.00
367.90	0.00
368.10	0.00
368.30	0.00
368.49	0.00
368.69	0.00
368.89	0.00
369.09	0.00
369.28	0.00
369.48	0.00
369.68	0.00
369.87	0.00
370.07	11.70
370.27	0.00
370.47	0.00
370.66	0.00
370.86	0.00
371.06	0.00
371.25	18.72
371.45	16.38
371.65	9.36
371.84	67.88
372.04	0.00
372.24	2.34
372.44	14.04
372.63	58.51
372.83	9.36
373.03	0.00
373.22	0.00
373.42	14.04
373.62	67.88
373.81	23.41
374.01	14.04
374.21	49.15
374.40	11.70
374.60	21.06
374.79	35.11
374.99	60.85
375.19	79.58
375.38	79.58
375.58	0.00
375.78	7.02
375.97	46.81
376.17	77.24
376.37	0.00
376.56	49.15
376.76	0.00
376.95	0.00
377.15	42.13
377.35	14.04
377.54	0.00
377.74	49.15
377.93	39.79
378.13	0.00
378.33	23.41
378.52	42.13
378.72	0.00
378.91	0.00
379.11	0.00
379.31	0.00
379.50	56.17
379.70	14.04
379.89	23.41
380.09	14.04
380.28	88.94
380.48	9.36
380.68	0.00
380.87	21.06
381.07	0.00
381.26	67.88
381.46	53.83
381.65	16.38
381.85	56.17
382.04	25.75
382.24	7.02
382.43	44.47
382.63	9.36
382.83	39.79
383.02	46.81
383.22	23.41
383.41	2.34
383.61	0.00
383.80	0.00
384.00	23.41
384.19	7.02
384.39	0.00
384.58	0.00
384.78	0.00
384.97	72.56
385.17	14.04
385.36	0.00
385.56	98.30
385.75	79.58
385.95	37.45
386.14	4.68
386.34	0.00
386.53	9.36
386.72	11.70
386.92	0.00
387.11	30.43
387.31	16.38
387.50	93.62
387.70	0.00
387.89	51.49
388.09	46.81
388.28	16.38
388.48	21.06
388.67	7.02
388.86	79.58
389.06	0.00
389.25	0.00
389.45	51.49
389.64	0.00
389.84	0.00
390.03	51.49
390.22	16.38
390.42	46.81
390.61	0.00
390.81	0.00
391.00	0.00
391.19	77.24
391.39	7.02
391.58	25.75
391.78	11.70
391.97	0.00
392.16	0.00
392.36	65.54
392.55	56.17
392.75	42.13
392.94	30.43
393.13	42.13
393.33	51.49
393.52	4.68
393.71	37.45
393.91	49.15
394.10	58.51
394.29	84.26
394.49	65.54
394.68	28.09
394.88	7.02
395.07	18.72
395.26	0.00
395.46	23.41
395.65	7.02
395.84	0.00
396.04	138.09
396.23	0.00
396.42	0.00
396.62	4.68
396.81	67.88
397.00	0.00
397.19	46.81
397.39	16.38
397.58	72.56
397.77	63.19
397.97	11.70
398.16	23.41
398.35	0.00
398.55	21.06
398.74	88.94
398.93	126.39
399.12	0.00
399.32	74.90
399.51	0.00
399.70	44.47
399.90	0.00
400.09	117.03
400.28	70.22
400.47	56.17
400.67	51.49
400.86	53.83
401.05	11.70
401.24	70.22
401.44	25.75
401.63	30.43
401.82	14.04
402.01	0.00
402.21	37.45
402.40	18.72
402.59	0.00
402.78	21.06
402.97	23.41
403.17	7.02
403.36	67.88
403.55	72.56
403.74	49.15
403.93	110.01
404.13	65.54
404.32	39.79
404.51	124.05
404.70	0.00
404.89	4.68
405.09	0.00
405.28	63.19
405.47	42.13
405.66	72.56
405.85	2.34
406.05	35.11
406.24	0.00
406.43	0.00
406.62	28.09
406.81	0.00
407.00	77.24
407.20	67.88
407.39	81.92
407.58	105.32
407.77	28.09
407.96	35.11
408.15	16.38
408.34	37.45
408.54	37.45
408.73	53.83
408.92	37.45
409.11	0.00
409.30	56.17
409.49	0.00
409.68	0.00
409.87	37.45
410.07	46.81
410.26	0.00
410.45	0.00
410.64	107.66
410.83	18.72
411.02	53.83
411.21	70.22
411.40	65.54
411.59	60.85
411.78	9.36
411.98	21.06
412.17	4.68
412.36	35.11
412.55	28.09
412.74	67.88
412.93	35.11
413.12	46.81
413.31	16.38
413.50	79.58
413.69	60.85
413.88	35.11
414.07	35.11
414.26	72.56
414.45	25.75
414.64	0.00
414.83	58.51
415.02	98.30
415.22	44.47
415.41	114.69
415.60	35.11
415.79	0.00
415.98	25.75
416.17	65.54
416.36	63.19
416.55	56.17
416.74	37.45
416.93	67.88
417.12	14.04
417.31	0.00
417.50	42.13
417.69	74.90
417.88	56.17
418.07	23.41
418.26	28.09
418.45	84.26
418.64	44.47
418.83	65.54
419.02	140.43
419.21	79.58
419.39	81.92
419.58	105.32
419.77	0.00
419.96	32.77
420.15	9.36
420.34	63.19
420.53	77.24
420.72	58.51
420.91	114.69
421.10	35.11
421.29	53.83
421.48	16.38
421.67	56.17
421.86	46.81
422.05	49.15
422.24	7.02
422.43	0.00
422.61	28.09
422.80	0.00
422.99	32.77
423.18	86.60
423.37	9.36
423.56	44.47
423.75	98.30
423.94	7.02
424.13	0.00
424.32	16.38
424.50	112.35
424.69	56.17
424.88	110.01
425.07	28.09
425.26	53.83
425.45	88.94
425.64	42.13
425.83	0.00
426.01	44.47
426.20	79.58
426.39	7.02
426.58	72.56
426.77	32.77
426.96	86.60
427.15	23.41
427.33	72.56
427.52	49.15
427.71	11.70
427.90	53.83
428.09	16.38
428.28	95.96
428.46	63.19
428.65	60.85
428.84	25.75
429.03	60.85
429.22	39.79
429.40	84.26
429.59	86.60
429.78	65.54
429.97	23.41
430.16	2.34
430.34	51.49
430.53	0.00
430.72	44.47
430.91	70.22
431.10	25.75
431.28	67.88
431.47	9.36
431.66	0.00
431.85	58.51
432.03	0.00
432.22	74.90
432.41	100.64
432.60	21.06
432.79	84.26
432.97	0.00
433.16	81.92
433.35	128.73
433.54	7.02
433.72	126.39
433.91	4.68
434.10	23.41
434.28	81.92
434.47	56.17
434.66	18.72
434.85	4.68
435.03	0.00
435.22	37.45
435.41	42.13
435.59	28.09
435.78	107.66
435.97	9.36
436.16	39.79
436.34	32.77
436.53	0.00
436.72	0.00
436.90	30.43
437.09	0.00
437.28	25.75
437.46	0.00
437.65	0.00
437.84	67.88
438.02	28.09
438.21	30.43
438.40	112.35
438.58	42.13
438.77	25.75
438.96	93.62
439.14	35.11
439.33	102.98
439.52	77.24
439.70	18.72
439.89	81.92
440.08	0.00
440.26	60.85
440.45	67.88
440.63	21.06
440.82	53.83
441.01	93.62
441.19	124.05
441.38	4.68
441.57	4.68
441.75	49.15
441.94	112.35
442.12	35.11
442.31	46.81
442.50	56.17
442.68	51.49
442.87	53.83
443.05	51.49
443.24	32.77
443.43	112.35
443.61	53.83
443.80	105.32
443.98	37.45
444.17	21.06
444.35	44.47
444.54	49.15
444.73	9.36
444.91	65.54
445.10	9.36
445.28	67.88
445.47	46.81
445.65	30.43
445.84	46.81
446.02	14.04
446.21	2.34
446.39	53.83
446.58	126.39
446.77	18.72
446.95	81.92
447.14	77.24
447.32	30.43
447.51	42.13
447.69	0.00
447.88	88.94
448.06	74.90
448.25	74.90
448.43	98.30
448.62	0.00
448.80	70.22
448.99	18.72
449.17	67.88
449.36	60.85
449.54	11.70
449.73	18.72
449.91	39.79
450.10	53.83
450.28	32.77
450.46	70.22
450.65	9.36
450.83	67.88
451.02	42.13
451.20	81.92
451.39	72.56
451.57	70.22
451.76	79.58
451.94	0.00
452.13	11.70
452.31	67.88
452.49	65.54
452.68	0.00
452.86	28.09
453.05	65.54
453.23	140.43
453.42	51.49
453.60	46.81
453.78	46.81
453.97	23.41
454.15	0.00
454.34	60.85
454.52	79.58
454.70	88.94
454.89	77.24
455.07	49.15
455.26	72.56
455.44	30.43
455.62	16.38
455.81	65.54
455.99	98.30
456.17	28.09
456.36	84.26
456.54	102.98
456.73	88.94
456.91	88.94
457.09	0.00
457.28	84.26
457.46	77.24
457.64	0.00
457.83	39.79
458.01	56.17
458.19	100.64
458.38	77.24
458.56	0.00
458.74	46.81
458.93	18.72
459.11	86.60
459.29	74.90
459.48	56.17
459.66	21.06
459.84	91.28
460.03	117.03
460.21	102.98
460.39	0.00
460.57	0.00
460.76	60.85
460.94	53.83
461.12	42.13
461.31	42.13
461.49	44.47
461.67	58.51
461.85	42.13
462.04	105.32
462.22	58.51
462.40	49.15
462.59	0.00
462.77	25.75
462.95	124.05
463.13	0.00
463.32	0.00
463.50	0.00
463.68	0.00
463.86	65.54
464.05	0.00
464.23	7.02
464.41	95.96
464.59	100.64
464.78	79.58
464.96	88.94
465.14	56.17
465.32	60.85
465.50	88.94
465.69	37.45
465.87	77.24
466.05	88.94
466.23	35.11
466.41	0.00
466.60	93.62
466.78	107.66
466.96	67.88
467.14	63.19
467.32	124.05
467.51	11.70
467.69	67.88
467.87	51.49
468.05	16.38
468.23	53.83
468.41	35.11
468.60	56.17
468.78	86.60
468.96	53.83
469.14	51.49
469.32	44.47
469.50	0.00
469.69	93.62
469.87	58.51
470.05	67.88
470.23	46.81
470.41	30.43
470.59	11.70
470.77	60.85
470.95	49.15
471.14	65.54
471.32	70.22
471.50	100.64
471.68	42.13
471.86	23.41
472.04	44.47
472.22	53.83
472.40	23.41
472.58	21.06
472.77	63.19
472.95	56.17
473.13	25.75
473.31	79.58
473.49	46.81
473.67	42.13
473.85	7.02
474.03	42.13
474.21	46.81
474.39	79.58
474.57	42.13
474.75	28.09
474.93	7.02
475.12	65.54
475.30	60.85
475.48	51.49
475.66	79.58
475.84	63.19
476.02	18.72
476.20	91.28
476.38	119.37
476.56	30.43
476.74	53.83
476.92	79.58
477.10	79.58
477.28	49.15
477.46	110.01
477.64	39.79
477.82	74.90
478.00	51.49
478.18	9.36
478.36	105.32
478.54	79.58
478.72	46.81
478.90	65.54
479.08	110.01
479.26	39.79
479.44	0.00
479.62	86.60
479.80	18.72
479.98	39.79
480.16	39.79
480.34	70.22
480.52	84.26
480.70	51.49
480.88	65.54
481.06	77.24
481.24	35.11
481.41	44.47
481.59	56.17
481.77	37.45
481.95	93.62
482.13	9.36
482.31	65.54
482.49	30.43
482.67	39.79
482.85	124.05
483.03	21.06
483.21	93.62
483.39	105.32
483.57	65.54
483.74	23.41
483.92	105.32
484.10	86.60
484.28	35.11
484.46	49.15
484.64	86.60
484.82	86.60
485.00	84.26
485.18	65.54
485.35	67.88
485.53	49.15
485.71	88.94
485.89	77.24
486.07	56.17
486.25	58.51
486.43	91.28
486.61	35.11
486.78	128.73
486.96	58.51
487.14	95.96
487.32	100.64
487.50	65.54
487.68	93.62
487.85	53.83
488.03	28.09
488.21	70.22
488.39	58.51
488.57	145.11
488.75	58.51
488.92	93.62
489.10	95.96
489.28	58.51
489.46	79.58
489.64	58.51
489.81	95.96
489.99	156.82
490.17	81.92
490.35	79.58
490.53	98.30
490.70	39.79
490.88	51.49
491.06	72.56
491.24	0.00
491.41	28.09
491.59	65.54
491.77	37.45
491.95	79.58
492.13	53.83
492.30	86.60
492.48	0.00
492.66	110.01
492.84	7.02
493.01	65.54
493.19	81.92
493.37	39.79
493.54	100.64
493.72	112.35
493.90	110.01
494.08	114.69
494.25	25.75
494.43	53.83
494.61	102.98
494.79	93.62
494.96	60.85
495.14	128.73
495.32	81.92
495.49	32.77
495.67	126.39
495.85	84.26
496.02	105.32
496.20	72.56
496.38	88.94
496.55	102.98
496.73	112.35
496.91	88.94
497.09	21.06
497.26	74.90
497.44	74.90
497.62	84.26
497.79	67.88
497.97	72.56
498.14	60.85
498.32	124.05
498.50	37.45
498.67	105.32
498.85	7.02
499.03	56.17
499.20	100.64
499.38	91.28
499.56	124.05
499.73	121.71
499.91	58.51
500.08	58.51
500.26	70.22
500.44	121.71
500.61	84.26
500.79	79.58
500.97	63.19
501.14	91.28
501.32	60.85
501.49	121.71
501.67	93.62
501.84	95.96
502.02	67.88
502.20	86.60
502.37	18.72
502.55	77.24
502.72	72.56
502.90	42.13
503.07	46.81
503.25	37.45
503.43	65.54
503.60	102.98
503.78	28.09
503.95	105.32
504.13	67.88
504.30	86.60
504.48	74.90
504.65	60.85
504.83	133.41
505.01	53.83
505.18	79.58
505.36	63.19
505.53	84.26
505.71	58.51
505.88	147.45
506.06	100.64
506.23	56.17
506.41	81.92
506.58	2.34
506.76	39.79
506.93	88.94
507.11	32.77
507.28	112.35
507.46	91.28
507.63	88.94
507.81	147.45
507.98	63.19
508.16	63.19
508.33	81.92
508.50	93.62
508.68	72.56
508.85	102.98
509.03	39.79
509.20	152.13
509.38	23.41
509.55	133.41
509.73	145.11
509.90	56.17
510.08	23.41
510.25	81.92
510.42	56.17
510.60	119.37
510.77	56.17
510.95	77.24
511.12	119.37
511.30	0.00
511.47	0.00
511.64	46.81
511.82	91.28
511.99	84.26
512.17	107.66
512.34	9.36
512.51	60.85
512.69	65.54
512.86	86.60
513.04	86.60
513.21	88.94
513.38	25.75
513.56	42.13
513.73	98.30
513.90	100.64
514.08	35.11
514.25	98.30
514.43	74.90
514.60	133.41
514.77	2.34
514.95	53.83
515.12	0.00
515.29	86.60
515.47	121.71
515.64	11.70
515.81	74.90
515.99	84.26
516.16	56.17
516.33	63.19
516.51	81.92
516.68	91.28
516.85	142.77
517.03	84.26
517.20	35.11
517.37	58.51
517.54	93.62
517.72	91.28
517.89	58.51
518.06	0.00
518.24	102.98
518.41	131.07
518.58	74.90
518.75	46.81
518.93	112.35
519.10	70.22
519.27	100.64
519.45	121.71
519.62	110.01
519.79	49.15
519.96	72.56
520.14	142.77
520.31	58.51
520.48	95.96
520.65	39.79
520.83	30.43
521.00	114.69
521.17	58.51
521.34	145.11
521.52	30.43
521.69	88.94
521.86	51.49
522.03	84.26
522.20	0.00
522.38	0.00
522.55	88.94
522.72	72.56
522.89	46.81
523.07	39.79
523.24	91.28
523.41	98.30
523.58	74.90
523.75	53.83
523.92	133.41
524.10	74.90
524.27	147.45
524.44	65.54
524.61	126.39
524.78	93.62
524.96	161.50
525.13	77.24
525.30	147.45
525.47	135.75
525.64	70.22
525.81	91.28
525.98	93.62
526.16	105.32
526.33	63.19
526.50	119.37
526.67	77.24
526.84	21.06
527.01	58.51
527.18	32.77
527.36	70.22
527.53	121.71
527.70	86.60
527.87	119.37
528.04	86.60
528.21	95.96
528.38	100.64
528.55	72.56
528.72	147.45
528.89	102.98
529.07	91.28
529.24	112.35
529.41	56.17
529.58	88.94
529.75	131.07
529.92	117.03
530.09	138.09
530.26	131.07
530.43	159.16
530.60	49.15
530.77	133.41
530.94	154.48
531.11	51.49
531.28	51.49
531.46	98.30
531.63	142.77
531.80	72.56
531.97	114.69
532.14	114.69
532.31	91.28
532.48	93.62
532.65	107.66
532.82	86.60
532.99	46.81
533.16	93.62
533.33	138.09
533.50	0.00
533.67	72.56
533.84	95.96
534.01	2.34
534.18	91.28
534.35	145.11
534.52	4.68
534.69	112.35
534.86	105.32
535.03	131.07
535.20	107.66
535.37	131.07
535.54	105.32
535.71	86.60
535.88	114.69
536.05	42.13
536.22	74.90
536.38	70.22
536.55	70.22
536.72	67.88
536.89	0.00
537.06	4.68
537.23	133.41
537.40	67.88
537.57	95.96
537.74	102.98
537.91	117.03
538.08	67.88
538.25	110.01
538.42	16.38
538.59	98.30
538.75	35.11
538.92	102.98
539.09	74.90
539.26	65.54
539.43	86.60
539.60	91.28
539.77	93.62
539.94	53.83
540.11	56.17
540.28	93.62
540.44	88.94
540.61	86.60
540.78	9.36
540.95	102.98
541.12	72.56
541.29	126.39
541.46	147.45
541.62	112.35
541.79	77.24
541.96	110.01
542.13	105.32
542.30	49.15
542.47	67.88
542.63	102.98
542.80	37.45
542.97	135.75
543.14	95.96
543.31	77.24
543.48	51.49
543.64	46.81
543.81	93.62
543.98	81.92
544.15	131.07
544.32	44.47
544.48	51.49
544.65	91.28
544.82	84.26
544.99	201.29
545.16	53.83
545.32	35.11
545.49	32.77
545.66	105.32
545.83	142.77
546.00	60.85
546.16	163.84
546.33	63.19
546.50	102.98
546.67	100.64
546.83	102.98
547.00	58.51
547.17	63.19
547.34	63.19
547.50	91.28
547.67	72.56
547.84	105.32
548.00	86.60
548.17	102.98
548.34	145.11
548.51	105.32
548.67	58.51
548.84	105.32
549.01	63.19
549.18	124.05
549.34	53.83
549.51	135.75
549.68	35.11
549.84	154.48
550.01	135.75
550.18	77.24
550.34	121.71
550.51	114.69
550.68	100.64
550.84	79.58
551.01	72.56
551.18	117.03
551.34	100.64
551.51	37.45
551.68	42.13
551.84	131.07
552.01	65.54
552.18	65.54
552.34	93.62
552.51	88.94
552.68	93.62
552.84	23.41
553.01	107.66
553.18	147.45
553.34	81.92
553.51	138.09
553.67	67.88
553.84	72.56
554.01	175.54
554.17	81.92
554.34	131.07
554.51	65.54
554.67	67.88
554.84	63.19
555.00	110.01
555.17	49.15
555.33	112.35
555.50	51.49
555.67	95.96
555.83	21.06
556.00	102.98
556.16	70.22
556.33	16.38
556.50	49.15
556.66	42.13
556.83	79.58
556.99	60.85
557.16	84.26
557.32	30.43
557.49	91.28
557.65	84.26
557.82	124.05
557.98	79.58
558.15	72.56
558.32	124.05
558.48	86.60
558.65	159.16
558.81	74.90
558.98	79.58
559.14	56.17
559.31	131.07
559.47	119.37
559.64	131.07
559.80	25.75
559.97	88.94
560.13	42.13
560.30	51.49
560.46	63.19
560.63	56.17
560.79	100.64
560.96	124.05
561.12	0.00
561.29	56.17
561.45	39.79
561.61	156.82
561.78	161.50
561.94	56.17
562.11	107.66
562.27	63.19
562.44	98.30
562.60	145.11
562.77	49.15
562.93	84.26
563.10	93.62
563.26	114.69
563.42	110.01
563.59	117.03
563.75	98.30
563.92	147.45
564.08	91.28
564.24	70.22
564.41	60.85
564.57	131.07
564.74	133.41
564.90	56.17
565.07	98.30
565.23	81.92
565.39	166.18
565.56	63.19
565.72	117.03
565.88	42.13
566.05	84.26
566.21	74.90
566.38	4.68
566.54	65.54
566.70	112.35
566.87	60.85
567.03	88.94
567.19	74.90
567.36	149.79
567.52	49.15
567.68	49.15
567.85	84.26
568.01	117.03
568.17	74.90
568.34	154.48
568.50	30.43
568.66	58.51
568.83	65.54
568.99	79.58
569.15	67.88
569.32	154.48
569.48	182.56
569.64	81.92
569.81	107.66
569.97	112.35
570.13	49.15
570.30	23.41
570.46	114.69
570.62	88.94
570.78	93.62
570.95	100.64
571.11	77.24
571.27	39.79
571.43	44.47
571.60	32.77
571.76	37.45
571.92	88.94
572.09	107.66
572.25	58.51
572.41	65.54
572.57	126.39
572.74	105.32
572.90	93.62
573.06	95.96
573.22	84.26
573.38	79.58
573.55	98.30
573.71	152.13
573.87	126.39
574.03	88.94
574.20	60.85
574.36	102.98
574.52	105.32
574.68	100.64
574.84	112.35
575.01	51.49
575.17	145.11
575.33	28.09
575.49	9.36
575.65	67.88
575.82	110.01
575.98	84.26
576.14	74.90
576.30	100.64
576.46	39.79
576.62	140.43
576.79	56.17
576.95	93.62
577.11	0.00
577.27	28.09
577.43	147.45
577.59	70.22
577.75	105.32
577.92	58.51
578.08	63.19
578.24	21.06
578.40	95.96
578.56	114.69
578.72	149.79
578.88	58.51
579.04	0.00
579.21	60.85
579.37	23.41
579.53	7.02
579.69	133.41
579.85	32.77
580.01	74.90
580.17	81.92
580.33	79.58
580.49	72.56
580.65	56.17
580.82	25.75
580.98	70.22
581.14	58.51
581.30	88.94
581.46	0.00
581.62	88.94
581.78	84.26
581.94	77.24
582.10	74.90
582.26	117.03
582.42	70.22
582.58	42.13
582.74	37.45
582.90	140.43
583.06	124.05
583.22	86.60
583.38	58.51
583.54	102.98
583.70	81.92
583.86	2.34
584.02	49.15
584.18	72.56
584.34	77.24
584.50	77.24
584.66	11.70
584.82	98.30
584.98	49.15
585.14	37.45
585.30	128.73
585.46	39.79
585.62	84.26
585.78	88.94
585.94	117.03
586.10	133.41
586.26	35.11
586.42	56.17
586.58	44.47
586.74	93.62
586.90	88.94
587.06	32.77
587.22	107.66
587.38	46.81
587.54	18.72
587.70	79.58
587.86	112.35
588.02	77.24
588.18	117.03
588.34	53.83
588.49	100.64
588.65	102.98
588.81	37.45
588.97	44.47
589.13	74.90
589.29	93.62
589.45	91.28
589.61	39.79
589.77	140.43
589.93	37.45
590.08	107.66
590.24	84.26
590.40	142.77
590.56	60.85
590.72	95.96
590.88	102.98
591.04	0.00
591.20	37.45
591.35	65.54
591.51	0.00
591.67	42.13
591.83	72.56
591.99	88.94
592.15	131.07
592.31	49.15
592.46	16.38
592.62	49.15
592.78	72.56
592.94	49.15
593.10	35.11
593.26	84.26
593.41	177.88
593.57	77.24
593.73	0.00
593.89	18.72
594.05	81.92
594.20	84.26
594.36	18.72
594.52	58.51
594.68	44.47
594.84	58.51
594.99	81.92
595.15	100.64
595.31	0.00
595.47	67.88
595.62	79.58
595.78	42.13
595.94	81.92
596.10	84.26
596.25	98.30
596.41	37.45
596.57	23.41
596.73	105.32
596.88	98.30
597.04	49.15
597.20	102.98
597.36	46.81
597.51	49.15
597.67	81.92
597.83	145.11
597.99	4.68
598.14	53.83
598.30	32.77
598.46	84.26
598.61	74.90
598.77	107.66
598.93	21.06
599.09	81.92
599.24	58.51
599.40	117.03
599.56	72.56
599.71	100.64
599.87	65.54
600.03	142.77
600.18	35.11
600.34	72.56
600.50	35.11
600.65	105.32
600.81	128.73
600.97	30.43
601.12	79.58
601.28	28.09
601.44	65.54
601.59	28.09
601.75	4.68
601.91	72.56
602.06	84.26
602.22	42.13
602.37	18.72
602.53	63.19
602.69	102.98
602.84	121.71
603.00	35.11
603.16	77.24
603.31	86.60
603.47	49.15
603.62	11.70
603.78	70.22
603.94	86.60
604.09	65.54
604.25	152.13
604.40	117.03
604.56	46.81
604.71	16.38
604.87	81.92
605.03	102.98
605.18	91.28
605.34	23.41
605.49	91.28
605.65	49.15
605.80	56.17
605.96	88.94
606.12	49.15
606.27	0.00
606.43	30.43
606.58	91.28
606.74	114.69
606.89	91.28
607.05	63.19
607.20	67.88
607.36	39.79
607.51	110.01
607.67	51.49
607.82	65.54
607.98	63.19
608.13	110.01
608.29	23.41
608.44	65.54
608.60	30.43
608.75	18.72
608.91	102.98
609.06	91.28
609.22	91.28
609.37	72.56
609.53	126.39
609.68	124.05
609.84	39.79
609.99	95.96
610.15	49.15
610.30	126.39
610.46	60.85
610.61	112.35
610.76	72.56
610.92	93.62
611.07	2.34
611.23	100.64
611.38	63.19
611.54	74.90
611.69	161.50
611.84	32.77
612.00	79.58
612.15	95.96
612.31	119.37
612.46	72.56
612.62	58.51
612.77	53.83
612.92	159.16
613.08	98.30
613.23	25.75
613.39	84.26
613.54	110.01
613.69	58.51
613.85	91.28
614.00	58.51
614.15	49.15
614.31	86.60
614.46	91.28
614.62	51.49
614.77	119.37
614.92	95.96
615.08	65.54
615.23	105.32
615.38	93.62
615.54	58.51
615.69	0.00
615.84	63.19
616.00	117.03
616.15	0.00
616.30	53.83
616.46	18.72
616.61	100.64
616.76	49.15
616.92	74.90
617.07	60.85
617.22	46.81
617.37	32.77
617.53	51.49
617.68	84.26
617.83	117.03
617.99	51.49
618.14	86.60
618.29	95.96
618.45	88.94
618.60	74.90
618.75	124.05
618.90	4.68
619.06	32.77
619.21	18.72
619.36	25.75
619.51	84.26
619.67	77.24
619.82	117.03
619.97	98.30
620.12	28.09
620.28	74.90
620.43	60.85
620.58	7.02
620.73	100.64
620.89	86.60
621.04	49.15
621.19	65.54
621.34	81.92
621.49	63.19
621.65	58.51
621.80	9.36
621.95	81.92
622.10	51.49
622.25	0.00
622.41	39.79
622.56	30.43
622.71	32.77
622.86	105.32
623.01	95.96
623.16	112.35
623.32	30.43
623.47	124.05
623.62	60.85
623.77	88.94
623.92	37.45
624.07	39.79
624.23	25.75
624.38	51.49
624.53	131.07
624.68	53.83
624.83	60.85
624.98	9.36
625.13	100.64
625.29	95.96
625.44	23.41
625.59	32.77
625.74	51.49
625.89	14.04
626.04	65.54
626.19	88.94
626.34	100.64
626.49	35.11
626.65	44.47
626.80	14.04
626.95	28.09
627.10	0.00
627.25	53.83
627.40	77.24
627.55	42.13
627.70	42.13
627.85	105.32
628.00	16.38
628.15	56.17
628.30	60.85
628.45	65.54
628.60	53.83
628.76	0.00
628.91	124.05
629.06	46.81
629.21	67.88
629.36	77.24
629.51	35.11
629.66	84.26
629.81	46.81
629.96	70.22
630.11	93.62
630.26	65.54
630.41	25.75
630.56	105.32
630.71	107.66
630.86	77.24
631.01	23.41
631.16	65.54
631.31	105.32
631.46	110.01
631.61	35.11
631.76	53.83
631.91	30.43
632.06	131.07
632.21	70.22
632.36	51.49
632.51	21.06
632.66	72.56
632.81	0.00
632.96	88.94
633.10	44.47
633.25	88.94
633.40	11.70
633.55	58.51
633.70	67.88
633.85	91.28
634.00	63.19
634.15	56.17
634.30	72.56
634.45	58.51
634.60	88.94
634.75	0.00
634.90	56.17
635.05	91.28
635.19	37.45
635.34	107.66
635.49	77.24
635.64	39.79
635.79	16.38
635.94	117.03
636.09	63.19
636.24	37.45
636.39	98.30
636.53	70.22
636.68	39.79
636.83	72.56
636.98	0.00
637.13	102.98
637.28	60.85
637.43	25.75
637.57	0.00
637.72	95.96
637.87	98.30
638.02	63.19
638.17	51.49
638.32	16.38
638.46	86.60
638.61	23.41
638.76	44.47
638.91	91.28
639.06	23.41
639.20	51.49
639.35	11.70
639.50	53.83
639.65	51.49
639.80	60.85
639.94	77.24
640.09	58.51
640.24	44.47
640.39	58.51
640.54	105.32
640.68	100.64
640.83	98.30
640.98	30.43
641.13	4.68
641.27	56.17
641.42	25.75
641.57	39.79
641.72	60.85
641.86	25.75
642.01	112.35
642.16	2.34
642.31	53.83
642.45	53.83
642.60	63.19
642.75	28.09
642.90	98.30
643.04	149.79
643.19	77.24
643.34	0.00
643.48	0.00
643.63	42.13
643.78	56.17
643.93	72.56
644.07	21.06
644.22	86.60
644.37	67.88
644.51	65.54
644.66	81.92
644.81	67.88
644.95	79.58
645.10	49.15
645.25	79.58
645.39	63.19
645.54	53.83
645.69	56.17
645.83	58.51
645.98	37.45
646.13	74.90
646.27	60.85
646.42	93.62
646.57	95.96
646.71	91.28
646.86	84.26
647.00	39.79
647.15	39.79
647.30	67.88
647.44	18.72
647.59	77.24
647.74	70.22
647.88	0.00
648.03	60.85
648.17	14.04
648.32	51.49
648.47	88.94
648.61	11.70
648.76	88.94
648.90	72.56
649.05	105.32
649.20	39.79
649.34	51.49
649.49	53.83
649.63	0.00
649.78	44.47
649.92	2.34
650.07	98.30
650.21	53.83
650.36	95.96
650.51	77.24
650.65	28.09
650.80	51.49
650.94	77.24
651.09	30.43
651.23	7.02
651.38	53.83
651.52	98.30
651.67	51.49
651.81	30.43
651.96	35.11
652.10	28.09
652.25	58.51
652.39	100.64
652.54	65.54
652.68	0.00
652.83	28.09
652.97	37.45
653.12	0.00
653.26	84.26
653.41	84.26
653.55	30.43
653.70	74.90
653.84	42.13
653.99	16.38
654.13	121.71
654.27	74.90
654.42	84.26
654.56	23.41
654.71	0.00
654.85	35.11
655.00	91.28
655.14	28.09
655.29	72.56
655.43	30.43
655.57	32.77
655.72	25.75
655.86	93.62
656.01	60.85
656.15	88.94
656.30	81.92
656.44	88.94
656.58	0.00
656.73	84.26
656.87	65.54
657.01	44.47
657.16	65.54
657.30	70.22
657.45	95.96
657.59	49.15
657.73	81.92
657.88	81.92
658.02	72.56
658.16	105.32
658.31	70.22
658.45	53.83
658.60	121.71
658.74	72.56
658.88	56.17
659.03	67.88
659.17	46.81
659.31	25.75
659.46	81.92
659.60	70.22
659.74	4.68
659.89	25.75
660.03	37.45
660.17	44.47
660.32	42.13
660.46	53.83
660.60	86.60
660.74	65.54
660.89	84.26
661.03	102.98
661.17	79.58
661.32	0.00
661.46	35.11
661.60	14.04
661.74	30.43
661.89	74.90
662.03	74.90
662.17	32.77
662.31	63.19
662.46	0.00
662.60	7.02
662.74	46.81
662.88	65.54
663.03	105.32
663.17	58.51
663.31	74.90
663.45	46.81
663.60	65.54
663.74	0.00
663.88	98.30
664.02	37.45
664.17	39.79
664.31	37.45
664.45	79.58
664.59	37.45
664.73	0.00
664.88	42.13
665.02	0.00
665.16	74.90
665.30	51.49
665.44	39.79
665.59	39.79
665.73	72.56
665.87	79.58
666.01	37.45
666.15	14.04
666.29	0.00
666.44	79.58
666.58	60.85
666.72	112.35
666.86	46.81
667.00	74.90
667.14	9.36
667.28	49.15
667.43	16.38
667.57	70.22
667.71	42.13
667.85	0.00
667.99	86.60
668.13	70.22
668.27	49.15
668.41	63.19
668.56	7.02
668.70	72.56
668.84	0.00
668.98	91.28
669.12	32.77
669.26	53.83
669.40	67.88
669.54	170.86
669.68	49.15
669.82	35.11
669.96	32.77
670.10	51.49
670.25	46.81
670.39	51.49
670.53	49.15
670.67	42.13
670.81	100.64
670.95	49.15
671.09	4.68
671.23	84.26
671.37	25.75
671.51	88.94
671.65	44.47
671.79	14.04
671.93	63.19
672.07	145.11
672.21	84.26
672.35	107.66
672.49	60.85
672.63	93.62
672.77	67.88
672.91	21.06
673.05	65.54
673.19	2.34
673.33	28.09
673.47	86.60
673.61	65.54
673.75	37.45
673.89	35.11
674.03	0.00
674.17	74.90
674.31	7.02
674.45	16.38
674.59	0.00
674.73	30.43
674.87	86.60
675.01	88.94
675.15	35.11
675.29	65.54
675.43	25.75
675.56	86.60
675.70	11.70
675.84	37.45
675.98	35.11
676.12	79.58
676.26	74.90
676.40	67.88
676.54	42.13
676.68	9.36
676.82	30.43
676.96	58.51
677.10	37.45
677.23	0.00
677.37	70.22
677.51	102.98
677.65	58.51
677.79	56.17
677.93	65.54
678.07	42.13
678.21	39.79
678.34	25.75
678.48	65.54
678.62	51.49
678.76	7.02
678.90	0.00
679.04	77.24
679.18	49.15
679.31	9.36
679.45	18.72
679.59	53.83
679.73	74.90
679.87	72.56
680.00	42.13
680.14	28.09
680.28	25.75
680.42	60.85
680.56	35.11
680.70	72.56
680.83	70.22
680.97	4.68
681.11	0.00
681.25	46.81
681.39	9.36
681.52	100.64
681.66	2.34
681.80	86.60
681.94	91.28
682.07	46.81
682.21	39.79
682.35	98.30
682.49	16.38
682.62	2.34
682.76	65.54
682.90	32.77
683.04	23.41
683.17	105.32
683.31	100.64
683.45	35.11
683.59	53.83
683.72	49.15
683.86	74.90
684.00	93.62
684.13	110.01
684.27	25.75
684.41	77.24
684.55	56.17
684.68	58.51
684.82	18.72
684.96	16.38
685.09	86.60
685.23	44.47
685.37	72.56
685.50	51.49
685.64	25.75
685.78	7.02
685.91	58.51
686.05	7.02
686.19	0.00
686.32	37.45
686.46	11.70
686.60	0.00
686.73	39.79
686.87	11.70
687.01	49.15
687.14	0.00
687.28	28.09
687.42	84.26
687.55	0.00
687.69	44.47
687.82	63.19
687.96	56.17
688.10	65.54
688.23	0.00
688.37	67.88
688.50	28.09
688.64	42.13
688.78	11.70
688.91	56.17
689.05	0.00
689.18	53.83
689.32	0.00
689.46	16.38
689.59	56.17
689.73	11.70
689.86	16.38
690.00	60.85
690.13	14.04
690.27	0.00
690.41	77.24
690.54	18.72
690.68	0.00
690.81	2.34
690.95	51.49
691.08	46.81
691.22	37.45
691.35	18.72
691.49	42.13
691.62	77.24
691.76	0.00
691.89	25.75
692.03	0.00
692.16	16.38
692.30	7.02
692.43	105.32
692.57	84.26
692.70	0.00
692.84	0.00
692.97	0.00
693.11	28.09
693.24	51.49
693.38	0.00
693.51	23.41
693.65	18.72
693.78	0.00
693.92	63.19
694.05	60.85
694.19	0.00
694.32	28.09
694.45	46.81
694.59	39.79
694.72	0.00
694.86	7.02
694.99	0.00
695.13	9.36
695.26	65.54
695.39	42.13
695.53	37.45
695.66	56.17
695.80	7.02
695.93	18.72
696.07	46.81
696.20	28.09
696.33	37.45
696.47	0.00
696.60	88.94
696.73	44.47
696.87	35.11
697.00	23.41
697.14	16.38
697.27	32.77
697.40	91.28
697.54	14.04
697.67	58.51
697.80	21.06
697.94	32.77
698.07	18.72
698.21	28.09
698.34	0.00
698.47	72.56
698.61	32.77
698.74	70.22
698.87	86.60
699.01	63.19
699.14	7.02
699.27	0.00
699.40	107.66
699.54	0.00
699.67	105.32
699.80	88.94
699.94	9.36
700.07	37.45
700.20	37.45
700.34	0.00
700.47	56.17
700.60	74.90
700.73	72.56
700.87	86.60
701.00	4.68
701.13	0.00
701.26	21.06
701.40	42.13
701.53	2.34
701.66	37.45
701.79	0.00
701.93	30.43
702.06	16.38
702.19	30.43
702.32	0.00
702.46	11.70
702.59	65.54
702.72	0.00
702.85	63.19
702.99	117.03
703.12	51.49
703.25	0.00
703.38	0.00
703.51	93.62
703.65	72.56
703.78	65.54
703.91	70.22
704.04	46.81
704.17	42.13
704.31	42.13
704.44	0.00
704.57	51.49
704.70	46.81
704.83	32.77
704.96	0.00
705.10	42.13
705.23	30.43
>>>>>End Processed Spectral Data<<<<<
