SpectraSuite Data File
++++++++++++++++++++++++++++++++++++
Date: Fri Oct 04 12:13:28 GMT-05:00 2013
User: price-jones
Dark Spectrum Present: No
Reference Spectrum Present: No
Number of Sampled Component Spectra: 1
Spectrometers: USB2+H05261
Integration Time (usec): 10000 (USB2+H05261)
Spectra Averaged: 1 (USB2+H05261)
Boxcar Smoothing: 0 (USB2+H05261)
Correct for Electrical Dark: No (USB2+H05261)
Strobe/Lamp Enabled: No (USB2+H05261)
Correct for Detector Non-linearity: No (USB2+H05261)
Correct for Stray Light: No (USB2+H05261)
Number of Pixels in Processed Spectrum: 2048
>>>>>Begin Processed Spectral Data<<<<<
365.73	0.00
365.92	0.00
366.12	0.00
366.32	0.00
366.52	0.00
366.72	0.00
366.91	0.00
367.11	0.00
367.31	0.00
367.51	0.00
367.70	0.00
367.90	0.00
368.10	0.00
368.30	0.00
368.49	0.00
368.69	0.00
368.89	0.00
369.09	0.00
369.28	0.00
369.48	0.00
369.68	0.00
369.87	0.00
370.07	0.00
370.27	0.00
370.47	0.00
370.66	0.00
370.86	0.00
371.06	0.00
371.25	0.00
371.45	0.00
371.65	0.00
371.84	0.00
372.04	0.00
372.24	0.00
372.44	0.00
372.63	21.06
372.83	56.17
373.03	23.41
373.22	2.34
373.42	0.00
373.62	4.68
373.81	37.45
374.01	51.49
374.21	21.06
374.40	0.00
374.60	23.41
374.79	21.06
374.99	4.68
375.19	7.02
375.38	79.58
375.58	53.83
375.78	23.41
375.97	42.13
376.17	9.36
376.37	46.81
376.56	2.34
376.76	4.68
376.95	0.00
377.15	25.75
377.35	51.49
377.54	39.79
377.74	51.49
377.93	0.00
378.13	37.45
378.33	25.75
378.52	60.85
378.72	0.00
378.91	30.43
379.11	32.77
379.31	23.41
379.50	9.36
379.70	0.00
379.89	0.00
380.09	32.77
380.28	102.98
380.48	23.41
380.68	28.09
380.87	39.79
381.07	0.00
381.26	0.00
381.46	28.09
381.65	53.83
381.85	21.06
382.04	63.19
382.24	56.17
382.43	0.00
382.63	0.00
382.83	0.00
383.02	51.49
383.22	74.90
383.41	0.00
383.61	2.34
383.80	0.00
384.00	2.34
384.19	0.00
384.39	53.83
384.58	0.00
384.78	53.83
384.97	9.36
385.17	0.00
385.36	42.13
385.56	44.47
385.75	49.15
385.95	0.00
386.14	25.75
386.34	0.00
386.53	84.26
386.72	11.70
386.92	25.75
387.11	21.06
387.31	23.41
387.50	63.19
387.70	23.41
387.89	56.17
388.09	4.68
388.28	79.58
388.48	0.00
388.67	9.36
388.86	0.00
389.06	79.58
389.25	58.51
389.45	0.00
389.64	58.51
389.84	53.83
390.03	0.00
390.22	39.79
390.42	46.81
390.61	14.04
390.81	0.00
391.00	58.51
391.19	0.00
391.39	32.77
391.58	9.36
391.78	65.54
391.97	63.19
392.16	30.43
392.36	28.09
392.55	88.94
392.75	25.75
392.94	0.00
393.13	0.00
393.33	0.00
393.52	53.83
393.71	46.81
393.91	0.00
394.10	42.13
394.29	0.00
394.49	11.70
394.68	0.00
394.88	21.06
395.07	0.00
395.26	0.00
395.46	0.00
395.65	110.01
395.84	9.36
396.04	51.49
396.23	28.09
396.42	0.00
396.62	28.09
396.81	9.36
397.00	39.79
397.19	58.51
397.39	9.36
397.58	23.41
397.77	0.00
397.97	0.00
398.16	25.75
398.35	107.66
398.55	37.45
398.74	65.54
398.93	39.79
399.12	28.09
399.32	16.38
399.51	18.72
399.70	65.54
399.90	35.11
400.09	0.00
400.28	79.58
400.47	9.36
400.67	0.00
400.86	0.00
401.05	0.00
401.24	0.00
401.44	67.88
401.63	65.54
401.82	65.54
402.01	86.60
402.21	79.58
402.40	11.70
402.59	28.09
402.78	42.13
402.97	60.85
403.17	39.79
403.36	0.00
403.55	14.04
403.74	0.00
403.93	63.19
404.13	18.72
404.32	42.13
404.51	60.85
404.70	21.06
404.89	0.00
405.09	88.94
405.28	74.90
405.47	49.15
405.66	44.47
405.85	32.77
406.05	0.00
406.24	0.00
406.43	4.68
406.62	60.85
406.81	11.70
407.00	23.41
407.20	0.00
407.39	74.90
407.58	74.90
407.77	0.00
407.96	35.11
408.15	44.47
408.34	4.68
408.54	0.00
408.73	14.04
408.92	11.70
409.11	14.04
409.30	21.06
409.49	30.43
409.68	16.38
409.87	0.00
410.07	67.88
410.26	77.24
410.45	56.17
410.64	0.00
410.83	0.00
411.02	84.26
411.21	65.54
411.40	56.17
411.59	49.15
411.78	37.45
411.98	84.26
412.17	72.56
412.36	79.58
412.55	0.00
412.74	18.72
412.93	124.05
413.12	58.51
413.31	107.66
413.50	4.68
413.69	91.28
413.88	0.00
414.07	63.19
414.26	18.72
414.45	0.00
414.64	79.58
414.83	35.11
415.02	63.19
415.22	79.58
415.41	25.75
415.60	25.75
415.79	25.75
415.98	28.09
416.17	16.38
416.36	18.72
416.55	46.81
416.74	14.04
416.93	53.83
417.12	0.00
417.31	16.38
417.50	51.49
417.69	23.41
417.88	63.19
418.07	79.58
418.26	28.09
418.45	37.45
418.64	63.19
418.83	53.83
419.02	72.56
419.21	14.04
419.39	28.09
419.58	77.24
419.77	11.70
419.96	0.00
420.15	0.00
420.34	18.72
420.53	32.77
420.72	63.19
420.91	0.00
421.10	16.38
421.29	86.60
421.48	60.85
421.67	60.85
421.86	4.68
422.05	0.00
422.24	35.11
422.43	0.00
422.61	35.11
422.80	0.00
422.99	0.00
423.18	28.09
423.37	67.88
423.56	44.47
423.75	9.36
423.94	65.54
424.13	0.00
424.32	0.00
424.50	0.00
424.69	63.19
424.88	51.49
425.07	0.00
425.26	16.38
425.45	53.83
425.64	0.00
425.83	105.32
426.01	28.09
426.20	35.11
426.39	44.47
426.58	25.75
426.77	0.00
426.96	79.58
427.15	25.75
427.33	46.81
427.52	2.34
427.71	42.13
427.90	25.75
428.09	51.49
428.28	88.94
428.46	0.00
428.65	37.45
428.84	70.22
429.03	30.43
429.22	49.15
429.40	37.45
429.59	16.38
429.78	32.77
429.97	28.09
430.16	0.00
430.34	0.00
430.53	46.81
430.72	21.06
430.91	18.72
431.10	0.00
431.28	98.30
431.47	46.81
431.66	28.09
431.85	21.06
432.03	53.83
432.22	37.45
432.41	53.83
432.60	81.92
432.79	63.19
432.97	21.06
433.16	0.00
433.35	70.22
433.54	42.13
433.72	60.85
433.91	35.11
434.10	102.98
434.28	16.38
434.47	60.85
434.66	0.00
434.85	23.41
435.03	0.00
435.22	46.81
435.41	112.35
435.59	21.06
435.78	0.00
435.97	0.00
436.16	0.00
436.34	14.04
436.53	7.02
436.72	0.00
436.90	0.00
437.09	2.34
437.28	0.00
437.46	37.45
437.65	39.79
437.84	0.00
438.02	25.75
438.21	32.77
438.40	70.22
438.58	9.36
438.77	30.43
438.96	23.41
439.14	0.00
439.33	25.75
439.52	0.00
439.70	7.02
439.89	39.79
440.08	2.34
440.26	30.43
440.45	2.34
440.63	0.00
440.82	14.04
441.01	37.45
441.19	0.00
441.38	0.00
441.57	67.88
441.75	53.83
441.94	32.77
442.12	18.72
442.31	21.06
442.50	14.04
442.68	25.75
442.87	0.00
443.05	0.00
443.24	49.15
443.43	21.06
443.61	25.75
443.80	23.41
443.98	46.81
444.17	0.00
444.35	37.45
444.54	77.24
444.73	63.19
444.91	100.64
445.10	98.30
445.28	0.00
445.47	0.00
445.65	25.75
445.84	95.96
446.02	0.00
446.21	51.49
446.39	0.00
446.58	16.38
446.77	0.00
446.95	21.06
447.14	7.02
447.32	0.00
447.51	58.51
447.69	0.00
447.88	39.79
448.06	42.13
448.25	39.79
448.43	65.54
448.62	21.06
448.80	49.15
448.99	49.15
449.17	32.77
449.36	42.13
449.54	0.00
449.73	28.09
449.91	0.00
450.10	46.81
450.28	0.00
450.46	0.00
450.65	2.34
450.83	67.88
451.02	60.85
451.20	79.58
451.39	30.43
451.57	42.13
451.76	67.88
451.94	60.85
452.13	37.45
452.31	105.32
452.49	86.60
452.68	0.00
452.86	14.04
453.05	35.11
453.23	60.85
453.42	0.00
453.60	42.13
453.78	42.13
453.97	84.26
454.15	58.51
454.34	23.41
454.52	21.06
454.70	0.00
454.89	0.00
455.07	9.36
455.26	25.75
455.44	0.00
455.62	30.43
455.81	32.77
455.99	25.75
456.17	44.47
456.36	28.09
456.54	0.00
456.73	79.58
456.91	7.02
457.09	28.09
457.28	32.77
457.46	9.36
457.64	0.00
457.83	18.72
458.01	16.38
458.19	2.34
458.38	28.09
458.56	16.38
458.74	14.04
458.93	60.85
459.11	91.28
459.29	0.00
459.48	67.88
459.66	77.24
459.84	60.85
460.03	112.35
460.21	70.22
460.39	79.58
460.57	35.11
460.76	14.04
460.94	18.72
461.12	65.54
461.31	37.45
461.49	35.11
461.67	72.56
461.85	23.41
462.04	7.02
462.22	102.98
462.40	14.04
462.59	44.47
462.77	46.81
462.95	0.00
463.13	28.09
463.32	21.06
463.50	37.45
463.68	81.92
463.86	0.00
464.05	58.51
464.23	77.24
464.41	9.36
464.59	0.00
464.78	0.00
464.96	53.83
465.14	51.49
465.32	39.79
465.50	42.13
465.69	0.00
465.87	58.51
466.05	2.34
466.23	0.00
466.41	0.00
466.60	32.77
466.78	42.13
466.96	79.58
467.14	9.36
467.32	67.88
467.51	4.68
467.69	63.19
467.87	21.06
468.05	32.77
468.23	25.75
468.41	35.11
468.60	58.51
468.78	65.54
468.96	58.51
469.14	95.96
469.32	0.00
469.50	72.56
469.69	79.58
469.87	23.41
470.05	72.56
470.23	88.94
470.41	0.00
470.59	21.06
470.77	0.00
470.95	0.00
471.14	39.79
471.32	44.47
471.50	51.49
471.68	28.09
471.86	14.04
472.04	58.51
472.22	39.79
472.40	39.79
472.58	0.00
472.77	0.00
472.95	11.70
473.13	46.81
473.31	0.00
473.49	32.77
473.67	16.38
473.85	58.51
474.03	23.41
474.21	0.00
474.39	0.00
474.57	11.70
474.75	42.13
474.93	37.45
475.12	51.49
475.30	21.06
475.48	63.19
475.66	60.85
475.84	65.54
476.02	70.22
476.20	9.36
476.38	63.19
476.56	110.01
476.74	32.77
476.92	49.15
477.10	72.56
477.28	98.30
477.46	7.02
477.64	30.43
477.82	56.17
478.00	0.00
478.18	0.00
478.36	2.34
478.54	0.00
478.72	67.88
478.90	74.90
479.08	0.00
479.26	79.58
479.44	84.26
479.62	2.34
479.80	0.00
479.98	88.94
480.16	21.06
480.34	110.01
480.52	49.15
480.70	28.09
480.88	16.38
481.06	14.04
481.24	46.81
481.41	107.66
481.59	32.77
481.77	42.13
481.95	42.13
482.13	18.72
482.31	44.47
482.49	53.83
482.67	37.45
482.85	56.17
483.03	21.06
483.21	60.85
483.39	53.83
483.57	2.34
483.74	0.00
483.92	0.00
484.10	0.00
484.28	23.41
484.46	56.17
484.64	16.38
484.82	28.09
485.00	0.00
485.18	30.43
485.35	70.22
485.53	79.58
485.71	0.00
485.89	0.00
486.07	39.79
486.25	65.54
486.43	0.00
486.61	0.00
486.78	2.34
486.96	16.38
487.14	18.72
487.32	18.72
487.50	14.04
487.68	14.04
487.85	51.49
488.03	39.79
488.21	63.19
488.39	86.60
488.57	65.54
488.75	0.00
488.92	79.58
489.10	70.22
489.28	16.38
489.46	14.04
489.64	14.04
489.81	65.54
489.99	0.00
490.17	11.70
490.35	25.75
490.53	35.11
490.70	0.00
490.88	77.24
491.06	0.00
491.24	98.30
491.41	84.26
491.59	32.77
491.77	86.60
491.95	53.83
492.13	28.09
492.30	44.47
492.48	56.17
492.66	39.79
492.84	11.70
493.01	74.90
493.19	53.83
493.37	46.81
493.54	42.13
493.72	86.60
493.90	49.15
494.08	11.70
494.25	0.00
494.43	35.11
494.61	16.38
494.79	11.70
494.96	51.49
495.14	60.85
495.32	42.13
495.49	35.11
495.67	46.81
495.85	88.94
496.02	84.26
496.20	0.00
496.38	4.68
496.55	37.45
496.73	35.11
496.91	84.26
497.09	25.75
497.26	23.41
497.44	187.24
497.62	49.15
497.79	28.09
497.97	79.58
498.14	44.47
498.32	4.68
498.50	35.11
498.67	56.17
498.85	11.70
499.03	44.47
499.20	53.83
499.38	128.73
499.56	112.35
499.73	51.49
499.91	25.75
500.08	9.36
500.26	30.43
500.44	37.45
500.61	67.88
500.79	0.00
500.97	7.02
501.14	4.68
501.32	42.13
501.49	0.00
501.67	51.49
501.84	56.17
502.02	0.00
502.20	0.00
502.37	18.72
502.55	25.75
502.72	70.22
502.90	65.54
503.07	65.54
503.25	32.77
503.43	44.47
503.60	11.70
503.78	9.36
503.95	74.90
504.13	95.96
504.30	7.02
504.48	77.24
504.65	18.72
504.83	0.00
505.01	91.28
505.18	44.47
505.36	0.00
505.53	14.04
505.71	79.58
505.88	63.19
506.06	32.77
506.23	0.00
506.41	65.54
506.58	25.75
506.76	37.45
506.93	56.17
507.11	35.11
507.28	46.81
507.46	0.00
507.63	0.00
507.81	81.92
507.98	11.70
508.16	0.00
508.33	121.71
508.50	0.00
508.68	0.00
508.85	30.43
509.03	21.06
509.20	16.38
509.38	0.00
509.55	18.72
509.73	0.00
509.90	100.64
510.08	14.04
510.25	44.47
510.42	7.02
510.60	105.32
510.77	35.11
510.95	88.94
511.12	84.26
511.30	58.51
511.47	9.36
511.64	77.24
511.82	14.04
511.99	60.85
512.17	39.79
512.34	35.11
512.51	0.00
512.69	42.13
512.86	23.41
513.04	58.51
513.21	35.11
513.38	44.47
513.56	60.85
513.73	2.34
513.90	0.00
514.08	28.09
514.25	14.04
514.43	32.77
514.60	23.41
514.77	42.13
514.95	58.51
515.12	46.81
515.29	100.64
515.47	65.54
515.64	28.09
515.81	0.00
515.99	0.00
516.16	18.72
516.33	14.04
516.51	49.15
516.68	0.00
516.85	0.00
517.03	0.00
517.20	72.56
517.37	77.24
517.54	95.96
517.72	16.38
517.89	74.90
518.06	49.15
518.24	28.09
518.41	28.09
518.58	128.73
518.75	9.36
518.93	30.43
519.10	9.36
519.27	35.11
519.45	56.17
519.62	7.02
519.79	39.79
519.96	25.75
520.14	58.51
520.31	98.30
520.48	0.00
520.65	7.02
520.83	119.37
521.00	49.15
521.17	77.24
521.34	91.28
521.52	0.00
521.69	53.83
521.86	25.75
522.03	44.47
522.20	60.85
522.38	77.24
522.55	49.15
522.72	65.54
522.89	0.00
523.07	23.41
523.24	98.30
523.41	49.15
523.58	0.00
523.75	16.38
523.92	100.64
524.10	14.04
524.27	84.26
524.44	53.83
524.61	86.60
524.78	42.13
524.96	60.85
525.13	77.24
525.30	9.36
525.47	95.96
525.64	0.00
525.81	84.26
525.98	74.90
526.16	30.43
526.33	16.38
526.50	35.11
526.67	98.30
526.84	86.60
527.01	16.38
527.18	0.00
527.36	51.49
527.53	11.70
527.70	0.00
527.87	117.03
528.04	39.79
528.21	11.70
528.38	70.22
528.55	72.56
528.72	44.47
528.89	35.11
529.07	98.30
529.24	51.49
529.41	51.49
529.58	0.00
529.75	105.32
529.92	86.60
530.09	14.04
530.26	56.17
530.43	93.62
530.60	28.09
530.77	4.68
530.94	53.83
531.11	0.00
531.28	46.81
531.46	91.28
531.63	16.38
531.80	16.38
531.97	0.00
532.14	42.13
532.31	0.00
532.48	42.13
532.65	84.26
532.82	37.45
532.99	88.94
533.16	93.62
533.33	102.98
533.50	23.41
533.67	60.85
533.84	138.09
534.01	100.64
534.18	77.24
534.35	14.04
534.52	35.11
534.69	18.72
534.86	9.36
535.03	63.19
535.20	28.09
535.37	28.09
535.54	53.83
535.71	100.64
535.88	25.75
536.05	105.32
536.22	39.79
536.38	53.83
536.55	16.38
536.72	49.15
536.89	98.30
537.06	81.92
537.23	56.17
537.40	39.79
537.57	42.13
537.74	105.32
537.91	53.83
538.08	84.26
538.25	63.19
538.42	63.19
538.59	37.45
538.75	25.75
538.92	124.05
539.09	46.81
539.26	84.26
539.43	105.32
539.60	147.45
539.77	189.58
539.94	196.60
540.11	154.48
540.28	100.64
540.44	110.01
540.61	14.04
540.78	28.09
540.95	0.00
541.12	67.88
541.29	53.83
541.46	42.13
541.62	124.05
541.79	91.28
541.96	58.51
542.13	117.03
542.30	0.00
542.47	28.09
542.63	0.00
542.80	49.15
542.97	35.11
543.14	88.94
543.31	121.71
543.48	74.90
543.64	7.02
543.81	49.15
543.98	124.05
544.15	0.00
544.32	30.43
544.48	14.04
544.65	7.02
544.82	28.09
544.99	21.06
545.16	0.00
545.32	11.70
545.49	9.36
545.66	4.68
545.83	0.00
546.00	21.06
546.16	88.94
546.33	67.88
546.50	65.54
546.67	51.49
546.83	23.41
547.00	65.54
547.17	25.75
547.34	86.60
547.50	0.00
547.67	35.11
547.84	14.04
548.00	23.41
548.17	67.88
548.34	30.43
548.51	0.00
548.67	91.28
548.84	91.28
549.01	58.51
549.18	42.13
549.34	4.68
549.51	56.17
549.68	0.00
549.84	79.58
550.01	42.13
550.18	37.45
550.34	72.56
550.51	152.13
550.68	88.94
550.84	0.00
551.01	0.00
551.18	2.34
551.34	58.51
551.51	25.75
551.68	131.07
551.84	135.75
552.01	56.17
552.18	16.38
552.34	58.51
552.51	0.00
552.68	58.51
552.84	25.75
553.01	0.00
553.18	32.77
553.34	88.94
553.51	88.94
553.67	63.19
553.84	60.85
554.01	98.30
554.17	93.62
554.34	4.68
554.51	37.45
554.67	9.36
554.84	37.45
555.00	88.94
555.17	88.94
555.33	46.81
555.50	79.58
555.67	128.73
555.83	0.00
556.00	70.22
556.16	117.03
556.33	37.45
556.50	46.81
556.66	18.72
556.83	28.09
556.99	0.00
557.16	102.98
557.32	107.66
557.49	98.30
557.65	49.15
557.82	0.00
557.98	72.56
558.15	0.00
558.32	124.05
558.48	0.00
558.65	35.11
558.81	0.00
558.98	60.85
559.14	42.13
559.31	35.11
559.47	32.77
559.64	0.00
559.80	74.90
559.97	30.43
560.13	42.13
560.30	65.54
560.46	18.72
560.63	77.24
560.79	133.41
560.96	0.00
561.12	0.00
561.29	23.41
561.45	56.17
561.61	58.51
561.78	9.36
561.94	51.49
562.11	16.38
562.27	9.36
562.44	42.13
562.60	32.77
562.77	11.70
562.93	7.02
563.10	84.26
563.26	28.09
563.42	65.54
563.59	37.45
563.75	28.09
563.92	0.00
564.08	119.37
564.24	74.90
564.41	25.75
564.57	72.56
564.74	30.43
564.90	70.22
565.07	63.19
565.23	28.09
565.39	18.72
565.56	58.51
565.72	56.17
565.88	72.56
566.05	56.17
566.21	42.13
566.38	32.77
566.54	28.09
566.70	56.17
566.87	49.15
567.03	23.41
567.19	79.58
567.36	58.51
567.52	0.00
567.68	23.41
567.85	0.00
568.01	0.00
568.17	67.88
568.34	49.15
568.50	11.70
568.66	63.19
568.83	9.36
568.99	35.11
569.15	56.17
569.32	28.09
569.48	25.75
569.64	46.81
569.81	4.68
569.97	65.54
570.13	72.56
570.30	30.43
570.46	46.81
570.62	63.19
570.78	107.66
570.95	46.81
571.11	9.36
571.27	51.49
571.43	86.60
571.60	46.81
571.76	63.19
571.92	72.56
572.09	18.72
572.25	60.85
572.41	35.11
572.57	35.11
572.74	46.81
572.90	28.09
573.06	107.66
573.22	51.49
573.38	95.96
573.55	58.51
573.71	0.00
573.87	9.36
574.03	30.43
574.20	70.22
574.36	37.45
574.52	0.00
574.68	49.15
574.84	35.11
575.01	42.13
575.17	30.43
575.33	39.79
575.49	67.88
575.65	0.00
575.82	67.88
575.98	93.62
576.14	110.01
576.30	187.24
576.46	4.68
576.62	86.60
576.79	0.00
576.95	51.49
577.11	0.00
577.27	140.43
577.43	37.45
577.59	42.13
577.75	14.04
577.92	28.09
578.08	37.45
578.24	74.90
578.40	58.51
578.56	74.90
578.72	93.62
578.88	11.70
579.04	42.13
579.21	42.13
579.37	86.60
579.53	23.41
579.69	18.72
579.85	0.00
580.01	23.41
580.17	0.00
580.33	11.70
580.49	70.22
580.65	74.90
580.82	30.43
580.98	110.01
581.14	63.19
581.30	56.17
581.46	93.62
581.62	117.03
581.78	88.94
581.94	135.75
582.10	70.22
582.26	91.28
582.42	58.51
582.58	168.52
582.74	16.38
582.90	110.01
583.06	46.81
583.22	74.90
583.38	105.32
583.54	105.32
583.70	79.58
583.86	51.49
584.02	177.88
584.18	140.43
584.34	191.92
584.50	496.19
584.66	3054.40
584.82	7714.41
584.98	11557.57
585.14	10258.57
585.30	6434.13
585.46	3852.52
585.62	2616.72
585.78	1245.16
585.94	510.24
586.10	236.39
586.26	177.88
586.42	131.07
586.58	65.54
586.74	77.24
586.90	138.09
587.06	56.17
587.22	23.41
587.38	4.68
587.54	203.63
587.70	468.11
587.86	802.80
588.02	877.70
588.18	638.97
588.34	421.30
588.49	276.18
588.65	145.11
588.81	60.85
588.97	46.81
589.13	4.68
589.29	70.22
589.45	60.85
589.61	7.02
589.77	72.56
589.93	84.26
590.08	70.22
590.24	72.56
590.40	46.81
590.56	42.13
590.72	49.15
590.88	86.60
591.04	39.79
591.20	28.09
591.35	53.83
591.51	60.85
591.67	51.49
591.83	0.00
591.99	35.11
592.15	16.38
592.31	72.56
592.46	88.94
592.62	67.88
592.78	35.11
592.94	46.81
593.10	102.98
593.26	44.47
593.41	60.85
593.57	0.00
593.73	37.45
593.89	400.23
594.05	943.24
594.20	1427.73
594.36	1341.13
594.52	997.07
594.68	543.00
594.84	425.98
594.99	177.88
595.15	119.37
595.31	21.06
595.47	105.32
595.62	65.54
595.78	11.70
595.94	0.00
596.10	30.43
596.25	88.94
596.41	60.85
596.57	18.72
596.73	44.47
596.88	4.68
597.04	224.69
597.20	360.44
597.36	425.98
597.51	304.27
597.67	238.73
597.83	212.99
597.99	58.51
598.14	16.38
598.30	77.24
598.46	7.02
598.61	46.81
598.77	32.77
598.93	9.36
599.09	81.92
599.24	60.85
599.40	70.22
599.56	74.90
599.71	63.19
599.87	30.43
600.03	107.66
600.18	53.83
600.34	0.00
600.50	0.00
600.65	2.34
600.81	51.49
600.97	49.15
601.12	25.75
601.28	0.00
601.44	81.92
601.59	93.62
601.75	63.19
601.91	98.30
602.06	44.47
602.22	18.72
602.37	98.30
602.53	264.48
602.69	362.78
602.84	388.53
603.00	304.27
603.16	220.01
603.31	133.41
603.47	95.96
603.62	72.56
603.78	44.47
603.94	102.98
604.09	95.96
604.25	117.03
604.40	44.47
604.56	84.26
604.71	32.77
604.87	0.00
605.03	35.11
605.18	77.24
605.34	39.79
605.49	4.68
605.65	51.49
605.80	53.83
605.96	126.39
606.12	37.45
606.27	7.02
606.43	105.32
606.58	95.96
606.74	107.66
606.89	505.56
607.05	898.77
607.20	1268.57
607.36	957.28
607.51	627.26
607.67	507.90
607.82	313.63
607.98	259.80
608.13	166.18
608.29	28.09
608.44	124.05
608.60	154.48
608.75	70.22
608.91	159.16
609.06	713.86
609.22	1547.09
609.37	2293.72
609.53	1961.37
609.68	1369.21
609.84	889.40
609.99	641.31
610.15	313.63
610.30	145.11
610.46	133.41
610.61	56.17
610.76	154.48
610.92	63.19
611.07	102.98
611.23	46.81
611.38	44.47
611.54	60.85
611.69	14.04
611.84	39.79
612.00	65.54
612.15	0.00
612.31	56.17
612.46	65.54
612.62	18.72
612.77	119.37
612.92	88.94
613.08	63.19
613.23	39.79
613.39	60.85
613.54	91.28
613.69	650.67
613.85	1947.33
614.00	3124.62
614.15	3407.82
614.31	2485.65
614.46	1542.41
614.62	1125.80
614.77	711.52
614.92	320.65
615.08	42.13
615.23	86.60
615.38	93.62
615.54	28.09
615.69	100.64
615.84	386.19
616.00	753.65
616.15	880.04
616.30	755.99
616.46	491.51
616.61	278.52
616.76	283.20
616.92	159.16
617.07	142.77
617.22	81.92
617.37	121.71
617.53	25.75
617.68	46.81
617.83	110.01
617.99	18.72
618.14	107.66
618.29	95.96
618.45	65.54
618.60	65.54
618.75	23.41
618.90	0.00
619.06	58.51
619.21	70.22
619.36	0.00
619.51	23.41
619.67	60.85
619.82	0.00
619.97	60.85
620.12	53.83
620.28	65.54
620.43	14.04
620.58	42.13
620.73	2.34
620.89	79.58
621.04	119.37
621.19	220.01
621.34	416.62
621.49	603.86
621.65	503.22
621.80	339.38
621.95	245.76
622.10	184.90
622.25	114.69
622.41	77.24
622.56	126.39
622.71	21.06
622.86	79.58
623.01	65.54
623.16	14.04
623.32	32.77
623.47	53.83
623.62	37.45
623.77	18.72
623.92	9.36
624.07	77.24
624.23	0.00
624.38	72.56
624.53	0.00
624.68	0.00
624.83	46.81
624.98	60.85
625.13	81.92
625.29	81.92
625.44	0.00
625.59	46.81
625.74	28.09
625.89	49.15
626.04	418.96
626.19	983.02
626.34	1694.55
626.49	1837.32
626.65	1329.42
626.80	889.40
626.95	662.37
627.10	421.30
627.25	156.82
627.40	35.11
627.55	44.47
627.70	72.56
627.85	0.00
628.00	49.15
628.15	25.75
628.30	18.72
628.45	91.28
628.60	70.22
628.76	88.94
628.91	81.92
629.06	44.47
629.21	21.06
629.36	70.22
629.51	30.43
629.66	11.70
629.81	131.07
629.96	238.73
630.11	332.36
630.26	493.85
630.41	482.15
630.56	273.84
630.71	177.88
630.86	91.28
631.01	74.90
631.16	18.72
631.31	53.83
631.46	51.49
631.61	86.60
631.76	25.75
631.91	112.35
632.06	93.62
632.21	18.72
632.36	28.09
632.51	74.90
632.66	117.03
632.81	152.13
632.96	613.22
633.10	957.28
633.25	1254.53
633.40	1114.10
633.55	685.78
633.70	575.77
633.85	383.85
634.00	138.09
634.15	84.26
634.30	4.68
634.45	72.56
634.60	39.79
634.75	23.41
634.90	51.49
635.05	88.94
635.19	58.51
635.34	42.13
635.49	30.43
635.64	44.47
635.79	0.00
635.94	16.38
636.09	114.69
636.24	0.00
636.39	105.32
636.53	145.11
636.68	67.88
636.83	4.68
636.98	37.45
637.13	81.92
637.28	32.77
637.43	128.73
637.57	39.79
637.72	388.53
637.87	1252.19
638.02	2052.65
638.17	2242.23
638.32	1673.48
638.46	1170.27
638.61	823.87
638.76	472.79
638.91	280.86
639.06	140.43
639.20	138.09
639.35	44.47
639.50	126.39
639.65	734.93
639.80	2001.16
639.94	3276.75
640.09	3566.98
640.24	2649.49
640.39	1736.68
640.54	1315.38
640.68	725.57
640.83	322.99
640.98	166.18
641.13	98.30
641.27	28.09
641.42	0.00
641.57	23.41
641.72	0.00
641.86	63.19
642.01	95.96
642.16	0.00
642.31	42.13
642.45	60.85
642.60	95.96
642.75	88.94
642.90	32.77
643.04	30.43
643.19	67.88
643.34	58.51
643.48	77.24
643.63	35.11
643.78	51.49
643.93	60.85
644.07	44.47
644.22	49.15
644.37	0.00
644.51	49.15
644.66	30.43
644.81	49.15
644.95	60.85
645.10	112.35
645.25	46.81
645.39	44.47
645.54	0.00
645.69	0.00
645.83	11.70
645.98	28.09
646.13	42.13
646.27	21.06
646.42	0.00
646.57	35.11
646.71	53.83
646.86	46.81
647.00	25.75
647.15	37.45
647.30	39.79
647.44	114.69
647.59	42.13
647.74	30.43
647.88	67.88
648.03	88.94
648.17	124.05
648.32	14.04
648.47	63.19
648.61	11.70
648.76	16.38
648.90	0.00
649.05	0.00
649.20	18.72
649.34	0.00
649.49	63.19
649.63	56.17
649.78	49.15
649.92	161.50
650.07	311.29
650.21	819.19
650.36	1486.24
650.51	1802.21
650.65	1579.86
650.80	1071.97
650.94	667.05
651.09	482.15
651.23	257.46
651.38	154.48
651.52	86.60
651.67	18.72
651.81	74.90
651.96	16.38
652.10	74.90
652.25	32.77
652.39	86.60
652.54	65.54
652.68	114.69
652.83	320.65
652.97	510.24
653.12	681.10
653.26	650.67
653.41	428.32
653.55	245.76
653.70	212.99
653.84	166.18
653.99	145.11
654.13	0.00
654.27	105.32
654.42	126.39
654.56	142.77
654.71	77.24
654.85	77.24
655.00	37.45
655.14	60.85
655.29	35.11
655.43	65.54
655.57	35.11
655.72	14.04
655.86	65.54
656.01	60.85
656.15	51.49
656.30	0.00
656.44	16.38
656.58	65.54
656.73	49.15
656.87	0.00
657.01	72.56
657.16	98.30
657.30	72.56
657.45	46.81
657.59	168.52
657.73	51.49
657.88	23.41
658.02	53.83
658.16	2.34
658.31	0.00
658.45	0.00
658.60	77.24
658.74	60.85
658.88	107.66
659.03	63.19
659.17	28.09
659.31	63.19
659.46	407.25
659.60	718.54
659.74	931.53
659.89	746.63
660.03	580.45
660.17	517.26
660.32	285.55
660.46	166.18
660.60	124.05
660.74	14.04
660.89	58.51
661.03	32.77
661.17	30.43
661.32	28.09
661.46	67.88
661.60	91.28
661.74	2.34
661.89	11.70
662.03	30.43
662.17	4.68
662.31	0.00
662.46	35.11
662.60	0.00
662.74	23.41
662.88	88.94
663.03	25.75
663.17	44.47
663.31	0.00
663.45	74.90
663.60	0.00
663.74	51.49
663.88	25.75
664.02	18.72
664.17	0.00
664.31	60.85
664.45	100.64
664.59	2.34
664.73	23.41
664.88	70.22
665.02	46.81
665.16	0.00
665.30	0.00
665.44	53.83
665.59	100.64
665.73	51.49
665.87	16.38
666.01	91.28
666.15	32.77
666.29	51.49
666.44	51.49
666.58	72.56
666.72	0.00
666.86	42.13
667.00	18.72
667.14	102.98
667.28	255.12
667.43	716.20
667.57	1294.32
667.71	1540.07
667.85	1460.49
667.99	1064.94
668.13	636.63
668.27	376.83
668.41	231.71
668.56	51.49
668.70	79.58
668.84	110.01
668.98	72.56
669.12	18.72
669.26	100.64
669.40	58.51
669.54	2.34
669.68	2.34
669.82	63.19
669.96	37.45
670.10	7.02
670.25	84.26
670.39	21.06
670.53	2.34
670.67	60.85
670.81	30.43
670.95	0.00
671.09	133.41
671.23	285.55
671.37	592.16
671.51	922.17
671.65	1050.90
671.79	840.25
671.93	561.73
672.07	346.40
672.21	208.31
672.35	112.35
672.49	86.60
672.63	98.30
672.77	81.92
672.91	28.09
673.05	25.75
673.19	21.06
673.33	0.00
673.47	32.77
673.61	79.58
673.75	44.47
673.89	0.00
674.03	56.17
674.17	18.72
674.31	88.94
674.45	63.19
674.59	102.98
674.73	25.75
674.87	28.09
675.01	9.36
675.15	2.34
675.29	131.07
675.43	9.36
675.56	21.06
675.70	9.36
675.84	79.58
675.98	30.43
676.12	56.17
676.26	44.47
676.40	110.01
676.54	0.00
676.68	14.04
676.82	30.43
676.96	23.41
677.10	0.00
677.23	28.09
677.37	44.47
677.51	65.54
677.65	9.36
677.79	49.15
677.93	46.81
678.07	23.41
678.21	32.77
678.34	0.00
678.48	30.43
678.62	16.38
678.76	105.32
678.90	42.13
679.04	65.54
679.18	58.51
679.31	0.00
679.45	4.68
679.59	35.11
679.73	79.58
679.87	0.00
680.00	30.43
680.14	0.00
680.28	14.04
680.42	65.54
680.56	0.00
680.70	9.36
680.83	0.00
680.97	16.38
681.11	28.09
681.25	25.75
681.39	86.60
681.52	0.00
681.66	39.79
681.80	14.04
681.94	46.81
682.07	84.26
682.21	51.49
682.35	35.11
682.49	58.51
682.62	53.83
682.76	58.51
682.90	32.77
683.04	44.47
683.17	65.54
683.31	77.24
683.45	11.70
683.59	0.00
683.72	0.00
683.86	46.81
684.00	100.64
684.13	11.70
684.27	37.45
684.41	30.43
684.55	32.77
684.68	23.41
684.82	4.68
684.96	35.11
685.09	63.19
685.23	0.00
685.37	0.00
685.50	0.00
685.64	14.04
685.78	7.02
685.91	23.41
686.05	46.81
686.19	18.72
686.32	0.00
686.46	0.00
686.60	0.00
686.73	35.11
686.87	44.47
687.01	56.17
687.14	51.49
687.28	4.68
687.42	16.38
687.55	7.02
687.69	93.62
687.82	95.96
687.96	0.00
688.10	9.36
688.23	35.11
688.37	53.83
688.50	56.17
688.64	37.45
688.78	4.68
688.91	0.00
689.05	0.00
689.18	42.13
689.32	32.77
689.46	30.43
689.59	42.13
689.73	0.00
689.86	16.38
690.00	88.94
690.13	32.77
690.27	56.17
690.41	14.04
690.54	2.34
690.68	11.70
690.81	32.77
690.95	28.09
691.08	4.68
691.22	46.81
691.35	60.85
691.49	72.56
691.62	35.11
691.76	7.02
691.89	74.90
692.03	46.81
692.16	7.02
692.30	23.41
692.43	140.43
692.57	355.76
692.70	519.60
692.84	730.25
692.97	711.52
693.11	533.64
693.24	393.21
693.38	250.44
693.51	145.11
693.65	133.41
693.78	88.94
693.92	49.15
694.05	42.13
694.19	16.38
694.32	67.88
694.45	16.38
694.59	7.02
694.72	102.98
694.86	0.00
694.99	74.90
695.13	30.43
695.26	51.49
695.39	65.54
695.53	0.00
695.66	0.00
695.80	46.81
695.93	0.00
696.07	93.62
696.20	42.13
696.33	30.43
696.47	102.98
696.60	86.60
696.73	65.54
696.87	2.34
697.00	39.79
697.14	35.11
697.27	131.07
697.40	49.15
697.54	16.38
697.67	0.00
697.80	23.41
697.94	14.04
698.07	39.79
698.21	9.36
698.34	39.79
698.47	28.09
698.61	39.79
698.74	7.02
698.87	37.45
699.01	39.79
699.14	70.22
699.27	18.72
699.40	0.00
699.54	46.81
699.67	4.68
699.80	18.72
699.94	42.13
700.07	30.43
700.20	70.22
700.34	60.85
700.47	7.02
700.60	11.70
700.73	53.83
700.87	91.28
701.00	30.43
701.13	9.36
701.26	117.03
701.40	79.58
701.53	23.41
701.66	18.72
701.79	93.62
701.93	126.39
702.06	124.05
702.19	0.00
702.32	46.81
702.46	25.75
702.59	140.43
702.72	70.22
702.85	402.57
702.99	842.59
703.12	1306.02
703.25	1329.42
703.38	1228.78
703.51	973.66
703.65	716.20
703.78	557.05
703.91	386.19
704.04	292.57
704.17	182.56
704.31	84.26
704.44	77.24
704.57	9.36
704.70	23.41
704.83	65.54
704.96	23.41
705.10	16.38
705.23	28.09
>>>>>End Processed Spectral Data<<<<<
