SpectraSuite Data File
++++++++++++++++++++++++++++++++++++
Date: Fri Oct 04 12:13:39 GMT-05:00 2013
User: price-jones
Dark Spectrum Present: No
Reference Spectrum Present: No
Number of Sampled Component Spectra: 1
Spectrometers: USB2+H05261
Integration Time (usec): 10000 (USB2+H05261)
Spectra Averaged: 1 (USB2+H05261)
Boxcar Smoothing: 0 (USB2+H05261)
Correct for Electrical Dark: No (USB2+H05261)
Strobe/Lamp Enabled: No (USB2+H05261)
Correct for Detector Non-linearity: No (USB2+H05261)
Correct for Stray Light: No (USB2+H05261)
Number of Pixels in Processed Spectrum: 2048
>>>>>Begin Processed Spectral Data<<<<<
365.73	39.79
365.92	39.79
366.12	39.79
366.32	0.00
366.52	0.00
366.72	0.00
366.91	0.00
367.11	0.00
367.31	0.00
367.51	0.00
367.70	0.00
367.90	0.00
368.10	0.00
368.30	0.00
368.49	0.00
368.69	0.00
368.89	0.00
369.09	0.00
369.28	0.00
369.48	0.00
369.68	0.00
369.87	0.00
370.07	0.00
370.27	0.00
370.47	0.00
370.66	0.00
370.86	0.00
371.06	0.00
371.25	0.00
371.45	0.00
371.65	0.00
371.84	0.00
372.04	35.11
372.24	0.00
372.44	58.51
372.63	32.77
372.83	11.70
373.03	21.06
373.22	65.54
373.42	0.00
373.62	30.43
373.81	0.00
374.01	23.41
374.21	0.00
374.40	18.72
374.60	0.00
374.79	67.88
374.99	84.26
375.19	4.68
375.38	7.02
375.58	100.64
375.78	91.28
375.97	58.51
376.17	2.34
376.37	84.26
376.56	110.01
376.76	65.54
376.95	44.47
377.15	14.04
377.35	42.13
377.54	63.19
377.74	0.00
377.93	21.06
378.13	0.00
378.33	0.00
378.52	0.00
378.72	79.58
378.91	0.00
379.11	2.34
379.31	0.00
379.50	2.34
379.70	30.43
379.89	18.72
380.09	0.00
380.28	2.34
380.48	23.41
380.68	58.51
380.87	39.79
381.07	30.43
381.26	0.00
381.46	23.41
381.65	0.00
381.85	37.45
382.04	37.45
382.24	0.00
382.43	14.04
382.63	56.17
382.83	16.38
383.02	0.00
383.22	16.38
383.41	0.00
383.61	0.00
383.80	32.77
384.00	49.15
384.19	0.00
384.39	9.36
384.58	4.68
384.78	11.70
384.97	72.56
385.17	14.04
385.36	18.72
385.56	2.34
385.75	0.00
385.95	0.00
386.14	21.06
386.34	65.54
386.53	11.70
386.72	0.00
386.92	30.43
387.11	35.11
387.31	35.11
387.50	11.70
387.70	0.00
387.89	0.00
388.09	25.75
388.28	0.00
388.48	0.00
388.67	14.04
388.86	0.00
389.06	18.72
389.25	16.38
389.45	39.79
389.64	30.43
389.84	0.00
390.03	42.13
390.22	0.00
390.42	0.00
390.61	42.13
390.81	0.00
391.00	0.00
391.19	4.68
391.39	9.36
391.58	28.09
391.78	70.22
391.97	0.00
392.16	0.00
392.36	70.22
392.55	0.00
392.75	0.00
392.94	16.38
393.13	93.62
393.33	0.00
393.52	21.06
393.71	30.43
393.91	9.36
394.10	7.02
394.29	21.06
394.49	23.41
394.68	0.00
394.88	0.00
395.07	0.00
395.26	0.00
395.46	28.09
395.65	51.49
395.84	7.02
396.04	46.81
396.23	60.85
396.42	25.75
396.62	21.06
396.81	0.00
397.00	77.24
397.19	35.11
397.39	0.00
397.58	42.13
397.77	79.58
397.97	18.72
398.16	56.17
398.35	30.43
398.55	42.13
398.74	77.24
398.93	0.00
399.12	9.36
399.32	46.81
399.51	0.00
399.70	14.04
399.90	28.09
400.09	81.92
400.28	2.34
400.47	16.38
400.67	30.43
400.86	28.09
401.05	28.09
401.24	46.81
401.44	21.06
401.63	65.54
401.82	49.15
402.01	21.06
402.21	42.13
402.40	70.22
402.59	81.92
402.78	9.36
402.97	7.02
403.17	28.09
403.36	28.09
403.55	7.02
403.74	0.00
403.93	91.28
404.13	18.72
404.32	0.00
404.51	42.13
404.70	30.43
404.89	42.13
405.09	4.68
405.28	77.24
405.47	0.00
405.66	0.00
405.85	0.00
406.05	16.38
406.24	67.88
406.43	9.36
406.62	0.00
406.81	7.02
407.00	30.43
407.20	42.13
407.39	23.41
407.58	110.01
407.77	79.58
407.96	79.58
408.15	0.00
408.34	46.81
408.54	0.00
408.73	42.13
408.92	86.60
409.11	7.02
409.30	0.00
409.49	30.43
409.68	23.41
409.87	11.70
410.07	23.41
410.26	30.43
410.45	39.79
410.64	0.00
410.83	7.02
411.02	37.45
411.21	21.06
411.40	0.00
411.59	4.68
411.78	25.75
411.98	49.15
412.17	60.85
412.36	44.47
412.55	30.43
412.74	9.36
412.93	37.45
413.12	0.00
413.31	42.13
413.50	102.98
413.69	63.19
413.88	23.41
414.07	107.66
414.26	23.41
414.45	32.77
414.64	2.34
414.83	25.75
415.02	39.79
415.22	65.54
415.41	77.24
415.60	39.79
415.79	0.00
415.98	11.70
416.17	21.06
416.36	67.88
416.55	4.68
416.74	77.24
416.93	4.68
417.12	39.79
417.31	35.11
417.50	30.43
417.69	42.13
417.88	0.00
418.07	30.43
418.26	32.77
418.45	0.00
418.64	98.30
418.83	16.38
419.02	46.81
419.21	28.09
419.39	39.79
419.58	37.45
419.77	60.85
419.96	72.56
420.15	42.13
420.34	16.38
420.53	88.94
420.72	4.68
420.91	42.13
421.10	0.00
421.29	2.34
421.48	28.09
421.67	77.24
421.86	56.17
422.05	23.41
422.24	16.38
422.43	37.45
422.61	0.00
422.80	0.00
422.99	65.54
423.18	93.62
423.37	70.22
423.56	112.35
423.75	0.00
423.94	44.47
424.13	39.79
424.32	14.04
424.50	72.56
424.69	51.49
424.88	0.00
425.07	25.75
425.26	9.36
425.45	93.62
425.64	77.24
425.83	23.41
426.01	39.79
426.20	81.92
426.39	35.11
426.58	0.00
426.77	63.19
426.96	0.00
427.15	46.81
427.33	58.51
427.52	0.00
427.71	44.47
427.90	37.45
428.09	49.15
428.28	98.30
428.46	102.98
428.65	28.09
428.84	58.51
429.03	74.90
429.22	0.00
429.40	56.17
429.59	42.13
429.78	18.72
429.97	63.19
430.16	63.19
430.34	58.51
430.53	53.83
430.72	63.19
430.91	30.43
431.10	0.00
431.28	93.62
431.47	81.92
431.66	14.04
431.85	42.13
432.03	0.00
432.22	35.11
432.41	56.17
432.60	72.56
432.79	0.00
432.97	63.19
433.16	51.49
433.35	4.68
433.54	65.54
433.72	56.17
433.91	42.13
434.10	93.62
434.28	60.85
434.47	30.43
434.66	72.56
434.85	72.56
435.03	51.49
435.22	49.15
435.41	88.94
435.59	84.26
435.78	56.17
435.97	21.06
436.16	42.13
436.34	14.04
436.53	74.90
436.72	44.47
436.90	18.72
437.09	39.79
437.28	0.00
437.46	30.43
437.65	100.64
437.84	112.35
438.02	110.01
438.21	30.43
438.40	28.09
438.58	37.45
438.77	58.51
438.96	84.26
439.14	32.77
439.33	74.90
439.52	14.04
439.70	91.28
439.89	28.09
440.08	28.09
440.26	110.01
440.45	56.17
440.63	63.19
440.82	86.60
441.01	114.69
441.19	2.34
441.38	0.00
441.57	67.88
441.75	102.98
441.94	72.56
442.12	95.96
442.31	91.28
442.50	86.60
442.68	88.94
442.87	18.72
443.05	49.15
443.24	81.92
443.43	4.68
443.61	46.81
443.80	23.41
443.98	86.60
444.17	11.70
444.35	42.13
444.54	74.90
444.73	39.79
444.91	44.47
445.10	23.41
445.28	11.70
445.47	44.47
445.65	23.41
445.84	46.81
446.02	77.24
446.21	32.77
446.39	2.34
446.58	81.92
446.77	65.54
446.95	11.70
447.14	32.77
447.32	56.17
447.51	44.47
447.69	63.19
447.88	67.88
448.06	44.47
448.25	93.62
448.43	9.36
448.62	14.04
448.80	9.36
448.99	70.22
449.17	16.38
449.36	63.19
449.54	58.51
449.73	58.51
449.91	72.56
450.10	42.13
450.28	0.00
450.46	79.58
450.65	72.56
450.83	51.49
451.02	49.15
451.20	140.43
451.39	21.06
451.57	42.13
451.76	79.58
451.94	56.17
452.13	53.83
452.31	102.98
452.49	0.00
452.68	37.45
452.86	91.28
453.05	37.45
453.23	98.30
453.42	2.34
453.60	0.00
453.78	46.81
453.97	37.45
454.15	39.79
454.34	65.54
454.52	0.00
454.70	81.92
454.89	65.54
455.07	56.17
455.26	56.17
455.44	44.47
455.62	93.62
455.81	32.77
455.99	46.81
456.17	44.47
456.36	77.24
456.54	88.94
456.73	131.07
456.91	32.77
457.09	2.34
457.28	72.56
457.46	49.15
457.64	46.81
457.83	30.43
458.01	67.88
458.19	32.77
458.38	42.13
458.56	105.32
458.74	60.85
458.93	58.51
459.11	7.02
459.29	51.49
459.48	0.00
459.66	35.11
459.84	102.98
460.03	67.88
460.21	77.24
460.39	14.04
460.57	56.17
460.76	7.02
460.94	32.77
461.12	18.72
461.31	102.98
461.49	77.24
461.67	28.09
461.85	86.60
462.04	23.41
462.22	81.92
462.40	56.17
462.59	28.09
462.77	53.83
462.95	49.15
463.13	0.00
463.32	46.81
463.50	63.19
463.68	42.13
463.86	67.88
464.05	70.22
464.23	88.94
464.41	37.45
464.59	63.19
464.78	65.54
464.96	154.48
465.14	23.41
465.32	14.04
465.50	60.85
465.69	72.56
465.87	14.04
466.05	0.00
466.23	14.04
466.41	107.66
466.60	88.94
466.78	0.00
466.96	39.79
467.14	117.03
467.32	46.81
467.51	114.69
467.69	102.98
467.87	100.64
468.05	74.90
468.23	56.17
468.41	63.19
468.60	81.92
468.78	56.17
468.96	25.75
469.14	72.56
469.32	37.45
469.50	53.83
469.69	44.47
469.87	74.90
470.05	21.06
470.23	58.51
470.41	88.94
470.59	21.06
470.77	49.15
470.95	63.19
471.14	49.15
471.32	145.11
471.50	140.43
471.68	70.22
471.86	81.92
472.04	28.09
472.22	74.90
472.40	44.47
472.58	25.75
472.77	28.09
472.95	49.15
473.13	81.92
473.31	67.88
473.49	30.43
473.67	58.51
473.85	42.13
474.03	9.36
474.21	79.58
474.39	56.17
474.57	56.17
474.75	98.30
474.93	135.75
475.12	58.51
475.30	84.26
475.48	72.56
475.66	126.39
475.84	110.01
476.02	110.01
476.20	81.92
476.38	60.85
476.56	98.30
476.74	79.58
476.92	84.26
477.10	95.96
477.28	37.45
477.46	35.11
477.64	0.00
477.82	42.13
478.00	100.64
478.18	28.09
478.36	60.85
478.54	98.30
478.72	77.24
478.90	88.94
479.08	67.88
479.26	84.26
479.44	100.64
479.62	58.51
479.80	51.49
479.98	72.56
480.16	77.24
480.34	79.58
480.52	114.69
480.70	42.13
480.88	72.56
481.06	25.75
481.24	39.79
481.41	11.70
481.59	79.58
481.77	79.58
481.95	93.62
482.13	28.09
482.31	67.88
482.49	138.09
482.67	39.79
482.85	42.13
483.03	46.81
483.21	84.26
483.39	14.04
483.57	110.01
483.74	58.51
483.92	102.98
484.10	114.69
484.28	25.75
484.46	91.28
484.64	0.00
484.82	77.24
485.00	100.64
485.18	81.92
485.35	60.85
485.53	65.54
485.71	25.75
485.89	86.60
486.07	91.28
486.25	117.03
486.43	58.51
486.61	0.00
486.78	100.64
486.96	88.94
487.14	91.28
487.32	46.81
487.50	65.54
487.68	44.47
487.85	102.98
488.03	58.51
488.21	53.83
488.39	51.49
488.57	4.68
488.75	74.90
488.92	156.82
489.10	114.69
489.28	39.79
489.46	72.56
489.64	88.94
489.81	74.90
489.99	53.83
490.17	74.90
490.35	145.11
490.53	23.41
490.70	98.30
490.88	58.51
491.06	58.51
491.24	53.83
491.41	79.58
491.59	32.77
491.77	102.98
491.95	53.83
492.13	46.81
492.30	112.35
492.48	44.47
492.66	72.56
492.84	65.54
493.01	56.17
493.19	126.39
493.37	42.13
493.54	114.69
493.72	149.79
493.90	67.88
494.08	35.11
494.25	131.07
494.43	168.52
494.61	14.04
494.79	28.09
494.96	58.51
495.14	30.43
495.32	93.62
495.49	67.88
495.67	112.35
495.85	117.03
496.02	110.01
496.20	147.45
496.38	72.56
496.55	100.64
496.73	74.90
496.91	70.22
497.09	100.64
497.26	88.94
497.44	86.60
497.62	16.38
497.79	77.24
497.97	95.96
498.14	112.35
498.32	121.71
498.50	46.81
498.67	49.15
498.85	98.30
499.03	21.06
499.20	84.26
499.38	131.07
499.56	67.88
499.73	114.69
499.91	81.92
500.08	77.24
500.26	39.79
500.44	42.13
500.61	56.17
500.79	39.79
500.97	72.56
501.14	53.83
501.32	35.11
501.49	91.28
501.67	67.88
501.84	105.32
502.02	88.94
502.20	0.00
502.37	102.98
502.55	53.83
502.72	72.56
502.90	112.35
503.07	95.96
503.25	100.64
503.43	32.77
503.60	105.32
503.78	112.35
503.95	86.60
504.13	154.48
504.30	70.22
504.48	168.52
504.65	16.38
504.83	79.58
505.01	77.24
505.18	135.75
505.36	23.41
505.53	7.02
505.71	84.26
505.88	46.81
506.06	131.07
506.23	84.26
506.41	51.49
506.58	70.22
506.76	72.56
506.93	42.13
507.11	124.05
507.28	0.00
507.46	88.94
507.63	98.30
507.81	128.73
507.98	159.16
508.16	35.11
508.33	46.81
508.50	86.60
508.68	107.66
508.85	86.60
509.03	86.60
509.20	63.19
509.38	140.43
509.55	117.03
509.73	112.35
509.90	105.32
510.08	0.00
510.25	86.60
510.42	37.45
510.60	30.43
510.77	168.52
510.95	135.75
511.12	81.92
511.30	145.11
511.47	74.90
511.64	16.38
511.82	140.43
511.99	88.94
512.17	35.11
512.34	114.69
512.51	98.30
512.69	91.28
512.86	168.52
513.04	77.24
513.21	67.88
513.38	126.39
513.56	91.28
513.73	14.04
513.90	70.22
514.08	117.03
514.25	70.22
514.43	42.13
514.60	126.39
514.77	107.66
514.95	65.54
515.12	53.83
515.29	93.62
515.47	46.81
515.64	95.96
515.81	88.94
515.99	42.13
516.16	79.58
516.33	121.71
516.51	91.28
516.68	0.00
516.85	0.00
517.03	63.19
517.20	65.54
517.37	14.04
517.54	67.88
517.72	121.71
517.89	128.73
518.06	74.90
518.24	98.30
518.41	74.90
518.58	4.68
518.75	77.24
518.93	112.35
519.10	145.11
519.27	21.06
519.45	86.60
519.62	46.81
519.79	56.17
519.96	39.79
520.14	98.30
520.31	138.09
520.48	117.03
520.65	63.19
520.83	49.15
521.00	161.50
521.17	60.85
521.34	0.00
521.52	35.11
521.69	88.94
521.86	88.94
522.03	88.94
522.20	42.13
522.38	44.47
522.55	100.64
522.72	112.35
522.89	114.69
523.07	88.94
523.24	14.04
523.41	42.13
523.58	114.69
523.75	67.88
523.92	114.69
524.10	112.35
524.27	88.94
524.44	133.41
524.61	49.15
524.78	91.28
524.96	156.82
525.13	77.24
525.30	98.30
525.47	56.17
525.64	28.09
525.81	74.90
525.98	128.73
526.16	77.24
526.33	88.94
526.50	102.98
526.67	77.24
526.84	58.51
527.01	70.22
527.18	74.90
527.36	114.69
527.53	58.51
527.70	119.37
527.87	166.18
528.04	67.88
528.21	81.92
528.38	117.03
528.55	44.47
528.72	32.77
528.89	142.77
529.07	152.13
529.24	91.28
529.41	32.77
529.58	70.22
529.75	88.94
529.92	88.94
530.09	93.62
530.26	84.26
530.43	100.64
530.60	98.30
530.77	60.85
530.94	121.71
531.11	77.24
531.28	23.41
531.46	65.54
531.63	81.92
531.80	93.62
531.97	65.54
532.14	114.69
532.31	21.06
532.48	131.07
532.65	79.58
532.82	93.62
532.99	112.35
533.16	58.51
533.33	79.58
533.50	14.04
533.67	53.83
533.84	81.92
534.01	23.41
534.18	77.24
534.35	81.92
534.52	152.13
534.69	84.26
534.86	110.01
535.03	86.60
535.20	32.77
535.37	140.43
535.54	42.13
535.71	65.54
535.88	81.92
536.05	56.17
536.22	105.32
536.38	60.85
536.55	70.22
536.72	161.50
536.89	9.36
537.06	70.22
537.23	100.64
537.40	35.11
537.57	147.45
537.74	145.11
537.91	102.98
538.08	74.90
538.25	117.03
538.42	177.88
538.59	107.66
538.75	53.83
538.92	67.88
539.09	72.56
539.26	58.51
539.43	79.58
539.60	28.09
539.77	91.28
539.94	39.79
540.11	124.05
540.28	0.00
540.44	18.72
540.61	51.49
540.78	60.85
540.95	42.13
541.12	58.51
541.29	84.26
541.46	72.56
541.62	93.62
541.79	105.32
541.96	86.60
542.13	159.16
542.30	126.39
542.47	70.22
542.63	56.17
542.80	95.96
542.97	114.69
543.14	114.69
543.31	74.90
543.48	28.09
543.64	51.49
543.81	131.07
543.98	114.69
544.15	84.26
544.32	93.62
544.48	0.00
544.65	77.24
544.82	84.26
544.99	117.03
545.16	117.03
545.32	180.22
545.49	58.51
545.66	65.54
545.83	37.45
546.00	67.88
546.16	91.28
546.33	49.15
546.50	138.09
546.67	53.83
546.83	37.45
547.00	42.13
547.17	72.56
547.34	177.88
547.50	30.43
547.67	117.03
547.84	95.96
548.00	30.43
548.17	74.90
548.34	56.17
548.51	4.68
548.67	119.37
548.84	25.75
549.01	98.30
549.18	107.66
549.34	168.52
549.51	53.83
549.68	72.56
549.84	42.13
550.01	112.35
550.18	156.82
550.34	138.09
550.51	128.73
550.68	131.07
550.84	37.45
551.01	63.19
551.18	110.01
551.34	56.17
551.51	93.62
551.68	35.11
551.84	74.90
552.01	56.17
552.18	100.64
552.34	93.62
552.51	23.41
552.68	58.51
552.84	51.49
553.01	18.72
553.18	86.60
553.34	93.62
553.51	100.64
553.67	53.83
553.84	58.51
554.01	147.45
554.17	44.47
554.34	98.30
554.51	121.71
554.67	95.96
554.84	67.88
555.00	93.62
555.17	67.88
555.33	93.62
555.50	72.56
555.67	91.28
555.83	63.19
556.00	189.58
556.16	95.96
556.33	18.72
556.50	67.88
556.66	44.47
556.83	107.66
556.99	46.81
557.16	88.94
557.32	95.96
557.49	98.30
557.65	91.28
557.82	119.37
557.98	14.04
558.15	39.79
558.32	100.64
558.48	100.64
558.65	39.79
558.81	84.26
558.98	88.94
559.14	86.60
559.31	86.60
559.47	84.26
559.64	154.48
559.80	133.41
559.97	149.79
560.13	53.83
560.30	163.84
560.46	42.13
560.63	86.60
560.79	86.60
560.96	60.85
561.12	138.09
561.29	102.98
561.45	65.54
561.61	105.32
561.78	131.07
561.94	74.90
562.11	95.96
562.27	23.41
562.44	100.64
562.60	105.32
562.77	42.13
562.93	58.51
563.10	42.13
563.26	37.45
563.42	135.75
563.59	72.56
563.75	95.96
563.92	100.64
564.08	32.77
564.24	84.26
564.41	149.79
564.57	53.83
564.74	107.66
564.90	49.15
565.07	70.22
565.23	95.96
565.39	95.96
565.56	88.94
565.72	79.58
565.88	110.01
566.05	39.79
566.21	72.56
566.38	0.00
566.54	121.71
566.70	49.15
566.87	0.00
567.03	98.30
567.19	23.41
567.36	42.13
567.52	60.85
567.68	93.62
567.85	126.39
568.01	95.96
568.17	70.22
568.34	65.54
568.50	95.96
568.66	77.24
568.83	100.64
568.99	121.71
569.15	154.48
569.32	0.00
569.48	114.69
569.64	56.17
569.81	84.26
569.97	63.19
570.13	149.79
570.30	102.98
570.46	63.19
570.62	58.51
570.78	81.92
570.95	88.94
571.11	93.62
571.27	42.13
571.43	133.41
571.60	84.26
571.76	72.56
571.92	86.60
572.09	135.75
572.25	124.05
572.41	105.32
572.57	37.45
572.74	51.49
572.90	93.62
573.06	105.32
573.22	70.22
573.38	49.15
573.55	49.15
573.71	147.45
573.87	67.88
574.03	110.01
574.20	86.60
574.36	53.83
574.52	117.03
574.68	63.19
574.84	93.62
575.01	32.77
575.17	135.75
575.33	30.43
575.49	121.71
575.65	42.13
575.82	81.92
575.98	81.92
576.14	51.49
576.30	63.19
576.46	37.45
576.62	67.88
576.79	56.17
576.95	140.43
577.11	126.39
577.27	74.90
577.43	102.98
577.59	63.19
577.75	124.05
577.92	14.04
578.08	21.06
578.24	51.49
578.40	107.66
578.56	35.11
578.72	114.69
578.88	35.11
579.04	93.62
579.21	49.15
579.37	63.19
579.53	53.83
579.69	79.58
579.85	46.81
580.01	102.98
580.17	46.81
580.33	32.77
580.49	56.17
580.65	60.85
580.82	0.00
580.98	93.62
581.14	112.35
581.30	117.03
581.46	63.19
581.62	124.05
581.78	79.58
581.94	74.90
582.10	30.43
582.26	72.56
582.42	7.02
582.58	53.83
582.74	42.13
582.90	35.11
583.06	98.30
583.22	84.26
583.38	135.75
583.54	0.00
583.70	0.00
583.86	81.92
584.02	91.28
584.18	70.22
584.34	0.00
584.50	81.92
584.66	44.47
584.82	105.32
584.98	51.49
585.14	37.45
585.30	18.72
585.46	86.60
585.62	81.92
585.78	100.64
585.94	37.45
586.10	102.98
586.26	11.70
586.42	46.81
586.58	107.66
586.74	84.26
586.90	32.77
587.06	37.45
587.22	88.94
587.38	145.11
587.54	70.22
587.70	58.51
587.86	74.90
588.02	95.96
588.18	51.49
588.34	28.09
588.49	84.26
588.65	18.72
588.81	23.41
588.97	0.00
589.13	42.13
589.29	56.17
589.45	65.54
589.61	7.02
589.77	95.96
589.93	86.60
590.08	98.30
590.24	39.79
590.40	14.04
590.56	16.38
590.72	74.90
590.88	65.54
591.04	74.90
591.20	46.81
591.35	2.34
591.51	44.47
591.67	18.72
591.83	81.92
591.99	7.02
592.15	91.28
592.31	93.62
592.46	114.69
592.62	16.38
592.78	30.43
592.94	35.11
593.10	56.17
593.26	98.30
593.41	0.00
593.57	39.79
593.73	32.77
593.89	154.48
594.05	37.45
594.20	46.81
594.36	93.62
594.52	9.36
594.68	42.13
594.84	86.60
594.99	51.49
595.15	0.00
595.31	44.47
595.47	67.88
595.62	72.56
595.78	44.47
595.94	131.07
596.10	88.94
596.25	114.69
596.41	119.37
596.57	65.54
596.73	21.06
596.88	72.56
597.04	124.05
597.20	77.24
597.36	58.51
597.51	117.03
597.67	152.13
597.83	58.51
597.99	70.22
598.14	105.32
598.30	67.88
598.46	23.41
598.61	7.02
598.77	74.90
598.93	56.17
599.09	63.19
599.24	35.11
599.40	112.35
599.56	91.28
599.71	25.75
599.87	63.19
600.03	49.15
600.18	107.66
600.34	105.32
600.50	63.19
600.65	88.94
600.81	77.24
600.97	63.19
601.12	107.66
601.28	102.98
601.44	126.39
601.59	25.75
601.75	21.06
601.91	100.64
602.06	0.00
602.22	110.01
602.37	107.66
602.53	0.00
602.69	72.56
602.84	110.01
603.00	63.19
603.16	91.28
603.31	18.72
603.47	46.81
603.62	37.45
603.78	35.11
603.94	58.51
604.09	4.68
604.25	37.45
604.40	56.17
604.56	93.62
604.71	67.88
604.87	67.88
605.03	110.01
605.18	0.00
605.34	95.96
605.49	72.56
605.65	63.19
605.80	14.04
605.96	32.77
606.12	81.92
606.27	121.71
606.43	49.15
606.58	35.11
606.74	58.51
606.89	63.19
607.05	88.94
607.20	98.30
607.36	91.28
607.51	44.47
607.67	84.26
607.82	56.17
607.98	49.15
608.13	72.56
608.29	56.17
608.44	86.60
608.60	112.35
608.75	46.81
608.91	107.66
609.06	44.47
609.22	32.77
609.37	9.36
609.53	51.49
609.68	88.94
609.84	112.35
609.99	93.62
610.15	77.24
610.30	56.17
610.46	53.83
610.61	46.81
610.76	42.13
610.92	35.11
611.07	100.64
611.23	42.13
611.38	35.11
611.54	53.83
611.69	72.56
611.84	56.17
612.00	110.01
612.15	44.47
612.31	72.56
612.46	49.15
612.62	107.66
612.77	72.56
612.92	70.22
613.08	95.96
613.23	98.30
613.39	58.51
613.54	81.92
613.69	51.49
613.85	133.41
614.00	119.37
614.15	121.71
614.31	58.51
614.46	23.41
614.62	67.88
614.77	49.15
614.92	84.26
615.08	86.60
615.23	114.69
615.38	67.88
615.54	124.05
615.69	100.64
615.84	35.11
616.00	121.71
616.15	67.88
616.30	77.24
616.46	51.49
616.61	58.51
616.76	67.88
616.92	39.79
617.07	84.26
617.22	140.43
617.37	30.43
617.53	51.49
617.68	102.98
617.83	98.30
617.99	18.72
618.14	84.26
618.29	60.85
618.45	18.72
618.60	67.88
618.75	117.03
618.90	74.90
619.06	30.43
619.21	88.94
619.36	107.66
619.51	46.81
619.67	107.66
619.82	65.54
619.97	46.81
620.12	0.00
620.28	110.01
620.43	49.15
620.58	44.47
620.73	67.88
620.89	51.49
621.04	65.54
621.19	63.19
621.34	124.05
621.49	23.41
621.65	53.83
621.80	91.28
621.95	126.39
622.10	84.26
622.25	0.00
622.41	77.24
622.56	93.62
622.71	81.92
622.86	79.58
623.01	81.92
623.16	72.56
623.32	39.79
623.47	72.56
623.62	44.47
623.77	107.66
623.92	0.00
624.07	100.64
624.23	100.64
624.38	37.45
624.53	30.43
624.68	77.24
624.83	16.38
624.98	0.00
625.13	0.00
625.29	28.09
625.44	126.39
625.59	56.17
625.74	60.85
625.89	84.26
626.04	95.96
626.19	81.92
626.34	32.77
626.49	28.09
626.65	49.15
626.80	60.85
626.95	102.98
627.10	84.26
627.25	11.70
627.40	88.94
627.55	53.83
627.70	56.17
627.85	46.81
628.00	42.13
628.15	58.51
628.30	32.77
628.45	46.81
628.60	4.68
628.76	60.85
628.91	49.15
629.06	107.66
629.21	95.96
629.36	107.66
629.51	30.43
629.66	0.00
629.81	0.00
629.96	124.05
630.11	67.88
630.26	74.90
630.41	91.28
630.56	35.11
630.71	0.00
630.86	46.81
631.01	11.70
631.16	102.98
631.31	4.68
631.46	133.41
631.61	39.79
631.76	14.04
631.91	44.47
632.06	72.56
632.21	149.79
632.36	72.56
632.51	44.47
632.66	0.00
632.81	74.90
632.96	28.09
633.10	175.54
633.25	67.88
633.40	0.00
633.55	21.06
633.70	60.85
633.85	11.70
634.00	32.77
634.15	84.26
634.30	56.17
634.45	51.49
634.60	74.90
634.75	79.58
634.90	74.90
635.05	51.49
635.19	39.79
635.34	51.49
635.49	98.30
635.64	107.66
635.79	49.15
635.94	58.51
636.09	74.90
636.24	126.39
636.39	65.54
636.53	84.26
636.68	65.54
636.83	28.09
636.98	70.22
637.13	93.62
637.28	14.04
637.43	93.62
637.57	49.15
637.72	79.58
637.87	60.85
638.02	28.09
638.17	98.30
638.32	28.09
638.46	46.81
638.61	25.75
638.76	23.41
638.91	63.19
639.06	18.72
639.20	77.24
639.35	56.17
639.50	74.90
639.65	117.03
639.80	30.43
639.94	124.05
640.09	53.83
640.24	28.09
640.39	91.28
640.54	30.43
640.68	25.75
640.83	100.64
640.98	60.85
641.13	37.45
641.27	32.77
641.42	88.94
641.57	74.90
641.72	65.54
641.86	28.09
642.01	18.72
642.16	0.00
642.31	39.79
642.45	102.98
642.60	107.66
642.75	67.88
642.90	9.36
643.04	67.88
643.19	49.15
643.34	177.88
643.48	117.03
643.63	11.70
643.78	84.26
643.93	126.39
644.07	98.30
644.22	63.19
644.37	107.66
644.51	126.39
644.66	74.90
644.81	46.81
644.95	39.79
645.10	42.13
645.25	86.60
645.39	152.13
645.54	0.00
645.69	67.88
645.83	70.22
645.98	65.54
646.13	60.85
646.27	63.19
646.42	7.02
646.57	28.09
646.71	30.43
646.86	98.30
647.00	51.49
647.15	110.01
647.30	51.49
647.44	11.70
647.59	16.38
647.74	65.54
647.88	86.60
648.03	16.38
648.17	100.64
648.32	42.13
648.47	0.00
648.61	128.73
648.76	0.00
648.90	102.98
649.05	65.54
649.20	21.06
649.34	35.11
649.49	84.26
649.63	121.71
649.78	98.30
649.92	53.83
650.07	35.11
650.21	0.00
650.36	0.00
650.51	0.00
650.65	0.00
650.80	49.15
650.94	98.30
651.09	84.26
651.23	65.54
651.38	65.54
651.52	0.00
651.67	67.88
651.81	49.15
651.96	102.98
652.10	18.72
652.25	28.09
652.39	32.77
652.54	67.88
652.68	107.66
652.83	114.69
652.97	42.13
653.12	37.45
653.26	46.81
653.41	60.85
653.55	65.54
653.70	32.77
653.84	0.00
653.99	0.00
654.13	44.47
654.27	100.64
654.42	53.83
654.56	79.58
654.71	67.88
654.85	32.77
655.00	133.41
655.14	63.19
655.29	77.24
655.43	53.83
655.57	77.24
655.72	51.49
655.86	49.15
656.01	37.45
656.15	93.62
656.30	37.45
656.44	67.88
656.58	32.77
656.73	126.39
656.87	0.00
657.01	21.06
657.16	77.24
657.30	77.24
657.45	86.60
657.59	102.98
657.73	21.06
657.88	16.38
658.02	46.81
658.16	77.24
658.31	98.30
658.45	86.60
658.60	84.26
658.74	16.38
658.88	32.77
659.03	63.19
659.17	51.49
659.31	72.56
659.46	77.24
659.60	28.09
659.74	46.81
659.89	44.47
660.03	53.83
660.17	63.19
660.32	0.00
660.46	0.00
660.60	84.26
660.74	88.94
660.89	88.94
661.03	102.98
661.17	79.58
661.32	79.58
661.46	58.51
661.60	70.22
661.74	35.11
661.89	56.17
662.03	84.26
662.17	32.77
662.31	0.00
662.46	74.90
662.60	0.00
662.74	72.56
662.88	112.35
663.03	60.85
663.17	65.54
663.31	60.85
663.45	67.88
663.60	11.70
663.74	25.75
663.88	58.51
664.02	84.26
664.17	53.83
664.31	88.94
664.45	100.64
664.59	21.06
664.73	23.41
664.88	51.49
665.02	51.49
665.16	46.81
665.30	114.69
665.44	49.15
665.59	0.00
665.73	84.26
665.87	91.28
666.01	46.81
666.15	44.47
666.29	23.41
666.44	44.47
666.58	49.15
666.72	32.77
666.86	56.17
667.00	81.92
667.14	56.17
667.28	60.85
667.43	11.70
667.57	25.75
667.71	49.15
667.85	91.28
667.99	30.43
668.13	0.00
668.27	110.01
668.41	0.00
668.56	91.28
668.70	28.09
668.84	60.85
668.98	79.58
669.12	56.17
669.26	72.56
669.40	56.17
669.54	0.00
669.68	0.00
669.82	84.26
669.96	74.90
670.10	7.02
670.25	74.90
670.39	0.00
670.53	32.77
670.67	23.41
670.81	95.96
670.95	0.00
671.09	63.19
671.23	63.19
671.37	37.45
671.51	25.75
671.65	35.11
671.79	0.00
671.93	51.49
672.07	23.41
672.21	0.00
672.35	44.47
672.49	14.04
672.63	4.68
672.77	58.51
672.91	39.79
673.05	0.00
673.19	21.06
673.33	58.51
673.47	67.88
673.61	72.56
673.75	70.22
673.89	86.60
674.03	0.00
674.17	51.49
674.31	53.83
674.45	67.88
674.59	35.11
674.73	70.22
674.87	72.56
675.01	25.75
675.15	58.51
675.29	16.38
675.43	65.54
675.56	65.54
675.70	21.06
675.84	39.79
675.98	91.28
676.12	39.79
676.26	72.56
676.40	7.02
676.54	42.13
676.68	0.00
676.82	4.68
676.96	0.00
677.10	37.45
677.23	107.66
677.37	58.51
677.51	84.26
677.65	72.56
677.79	79.58
677.93	4.68
678.07	0.00
678.21	44.47
678.34	79.58
678.48	18.72
678.62	9.36
678.76	37.45
678.90	37.45
679.04	72.56
679.18	79.58
679.31	131.07
679.45	16.38
679.59	67.88
679.73	46.81
679.87	105.32
680.00	95.96
680.14	114.69
680.28	7.02
680.42	84.26
680.56	79.58
680.70	37.45
680.83	28.09
680.97	16.38
681.11	44.47
681.25	91.28
681.39	42.13
681.52	0.00
681.66	0.00
681.80	0.00
681.94	28.09
682.07	88.94
682.21	0.00
682.35	35.11
682.49	0.00
682.62	35.11
682.76	0.00
682.90	14.04
683.04	100.64
683.17	77.24
683.31	23.41
683.45	70.22
683.59	49.15
683.72	0.00
683.86	7.02
684.00	86.60
684.13	63.19
684.27	46.81
684.41	14.04
684.55	37.45
684.68	100.64
684.82	14.04
684.96	56.17
685.09	105.32
685.23	28.09
685.37	32.77
685.50	23.41
685.64	28.09
685.78	81.92
685.91	93.62
686.05	58.51
686.19	72.56
686.32	81.92
686.46	58.51
686.60	100.64
686.73	65.54
686.87	42.13
687.01	16.38
687.14	70.22
687.28	49.15
687.42	102.98
687.55	32.77
687.69	74.90
687.82	77.24
687.96	0.00
688.10	28.09
688.23	72.56
688.37	0.00
688.50	46.81
688.64	23.41
688.78	0.00
688.91	23.41
689.05	56.17
689.18	65.54
689.32	49.15
689.46	0.00
689.59	44.47
689.73	0.00
689.86	0.00
690.00	77.24
690.13	2.34
690.27	131.07
690.41	11.70
690.54	44.47
690.68	0.00
690.81	81.92
690.95	25.75
691.08	37.45
691.22	119.37
691.35	30.43
691.49	63.19
691.62	42.13
691.76	44.47
691.89	30.43
692.03	58.51
692.16	30.43
692.30	30.43
692.43	0.00
692.57	60.85
692.70	72.56
692.84	35.11
692.97	77.24
693.11	37.45
693.24	23.41
693.38	16.38
693.51	30.43
693.65	30.43
693.78	84.26
693.92	9.36
694.05	32.77
694.19	79.58
694.32	51.49
694.45	32.77
694.59	37.45
694.72	79.58
694.86	11.70
694.99	65.54
695.13	0.00
695.26	0.00
695.39	46.81
695.53	0.00
695.66	53.83
695.80	95.96
695.93	70.22
696.07	0.00
696.20	63.19
696.33	0.00
696.47	46.81
696.60	35.11
696.73	95.96
696.87	46.81
697.00	72.56
697.14	9.36
697.27	28.09
697.40	11.70
697.54	9.36
697.67	0.00
697.80	58.51
697.94	112.35
698.07	56.17
698.21	0.00
698.34	58.51
698.47	32.77
698.61	28.09
698.74	16.38
698.87	35.11
699.01	65.54
699.14	84.26
699.27	60.85
699.40	49.15
699.54	0.00
699.67	28.09
699.80	35.11
699.94	0.00
700.07	0.00
700.20	0.00
700.34	0.00
700.47	56.17
700.60	42.13
700.73	117.03
700.87	58.51
701.00	44.47
701.13	51.49
701.26	51.49
701.40	11.70
701.53	0.00
701.66	49.15
701.79	70.22
701.93	16.38
702.06	46.81
702.19	63.19
702.32	18.72
702.46	7.02
702.59	60.85
702.72	11.70
702.85	2.34
702.99	9.36
703.12	35.11
703.25	32.77
703.38	121.71
703.51	39.79
703.65	0.00
703.78	70.22
703.91	32.77
704.04	0.00
704.17	16.38
704.31	51.49
704.44	0.00
704.57	74.90
704.70	72.56
704.83	56.17
704.96	0.00
705.10	18.72
705.23	18.72
>>>>>End Processed Spectral Data<<<<<
