SpectraSuite Data File
++++++++++++++++++++++++++++++++++++
Date: Fri Oct 04 12:13:31 GMT-05:00 2013
User: price-jones
Dark Spectrum Present: No
Reference Spectrum Present: No
Number of Sampled Component Spectra: 1
Spectrometers: USB2+H05261
Integration Time (usec): 10000 (USB2+H05261)
Spectra Averaged: 1 (USB2+H05261)
Boxcar Smoothing: 0 (USB2+H05261)
Correct for Electrical Dark: No (USB2+H05261)
Strobe/Lamp Enabled: No (USB2+H05261)
Correct for Detector Non-linearity: No (USB2+H05261)
Correct for Stray Light: No (USB2+H05261)
Number of Pixels in Processed Spectrum: 2048
>>>>>Begin Processed Spectral Data<<<<<
365.73	0.00
365.92	0.00
366.12	0.00
366.32	0.00
366.52	0.00
366.72	0.00
366.91	0.00
367.11	0.00
367.31	0.00
367.51	0.00
367.70	0.00
367.90	0.00
368.10	0.00
368.30	0.00
368.49	0.00
368.69	0.00
368.89	0.00
369.09	0.00
369.28	0.00
369.48	0.00
369.68	0.00
369.87	0.00
370.07	0.00
370.27	0.00
370.47	0.00
370.66	0.00
370.86	0.00
371.06	0.00
371.25	0.00
371.45	0.00
371.65	0.00
371.84	0.00
372.04	9.36
372.24	0.00
372.44	0.00
372.63	23.41
372.83	0.00
373.03	53.83
373.22	44.47
373.42	63.19
373.62	0.00
373.81	37.45
374.01	30.43
374.21	58.51
374.40	0.00
374.60	0.00
374.79	46.81
374.99	30.43
375.19	14.04
375.38	0.00
375.58	0.00
375.78	49.15
375.97	0.00
376.17	39.79
376.37	0.00
376.56	0.00
376.76	28.09
376.95	60.85
377.15	7.02
377.35	18.72
377.54	21.06
377.74	23.41
377.93	0.00
378.13	0.00
378.33	18.72
378.52	39.79
378.72	44.47
378.91	42.13
379.11	30.43
379.31	49.15
379.50	0.00
379.70	0.00
379.89	0.00
380.09	16.38
380.28	4.68
380.48	0.00
380.68	9.36
380.87	28.09
381.07	32.77
381.26	0.00
381.46	7.02
381.65	4.68
381.85	53.83
382.04	23.41
382.24	65.54
382.43	0.00
382.63	51.49
382.83	7.02
383.02	0.00
383.22	44.47
383.41	7.02
383.61	32.77
383.80	35.11
384.00	0.00
384.19	42.13
384.39	53.83
384.58	0.00
384.78	53.83
384.97	32.77
385.17	25.75
385.36	84.26
385.56	56.17
385.75	2.34
385.95	74.90
386.14	81.92
386.34	112.35
386.53	4.68
386.72	21.06
386.92	18.72
387.11	0.00
387.31	0.00
387.50	70.22
387.70	102.98
387.89	74.90
388.09	37.45
388.28	0.00
388.48	0.00
388.67	65.54
388.86	44.47
389.06	16.38
389.25	0.00
389.45	44.47
389.64	46.81
389.84	0.00
390.03	0.00
390.22	2.34
390.42	11.70
390.61	0.00
390.81	25.75
391.00	32.77
391.19	0.00
391.39	18.72
391.58	39.79
391.78	0.00
391.97	0.00
392.16	67.88
392.36	56.17
392.55	53.83
392.75	67.88
392.94	0.00
393.13	0.00
393.33	35.11
393.52	0.00
393.71	42.13
393.91	28.09
394.10	77.24
394.29	2.34
394.49	23.41
394.68	49.15
394.88	65.54
395.07	44.47
395.26	51.49
395.46	4.68
395.65	25.75
395.84	65.54
396.04	60.85
396.23	2.34
396.42	18.72
396.62	18.72
396.81	72.56
397.00	7.02
397.19	35.11
397.39	28.09
397.58	74.90
397.77	25.75
397.97	14.04
398.16	58.51
398.35	44.47
398.55	49.15
398.74	30.43
398.93	37.45
399.12	32.77
399.32	4.68
399.51	35.11
399.70	0.00
399.90	0.00
400.09	65.54
400.28	11.70
400.47	58.51
400.67	4.68
400.86	14.04
401.05	56.17
401.24	0.00
401.44	0.00
401.63	37.45
401.82	16.38
402.01	4.68
402.21	0.00
402.40	11.70
402.59	0.00
402.78	25.75
402.97	0.00
403.17	0.00
403.36	72.56
403.55	44.47
403.74	42.13
403.93	58.51
404.13	14.04
404.32	67.88
404.51	0.00
404.70	0.00
404.89	9.36
405.09	23.41
405.28	58.51
405.47	44.47
405.66	0.00
405.85	18.72
406.05	21.06
406.24	0.00
406.43	16.38
406.62	44.47
406.81	0.00
407.00	11.70
407.20	110.01
407.39	7.02
407.58	32.77
407.77	53.83
407.96	35.11
408.15	58.51
408.34	2.34
408.54	46.81
408.73	58.51
408.92	58.51
409.11	37.45
409.30	63.19
409.49	98.30
409.68	23.41
409.87	37.45
410.07	67.88
410.26	51.49
410.45	37.45
410.64	44.47
410.83	25.75
411.02	16.38
411.21	0.00
411.40	58.51
411.59	0.00
411.78	25.75
411.98	0.00
412.17	0.00
412.36	0.00
412.55	32.77
412.74	0.00
412.93	0.00
413.12	63.19
413.31	65.54
413.50	44.47
413.69	42.13
413.88	79.58
414.07	77.24
414.26	53.83
414.45	0.00
414.64	0.00
414.83	0.00
415.02	39.79
415.22	65.54
415.41	21.06
415.60	0.00
415.79	14.04
415.98	0.00
416.17	35.11
416.36	0.00
416.55	63.19
416.74	0.00
416.93	70.22
417.12	7.02
417.31	60.85
417.50	63.19
417.69	72.56
417.88	39.79
418.07	9.36
418.26	14.04
418.45	16.38
418.64	91.28
418.83	42.13
419.02	0.00
419.21	37.45
419.39	67.88
419.58	14.04
419.77	28.09
419.96	32.77
420.15	30.43
420.34	18.72
420.53	84.26
420.72	53.83
420.91	79.58
421.10	30.43
421.29	0.00
421.48	65.54
421.67	79.58
421.86	30.43
422.05	0.00
422.24	14.04
422.43	37.45
422.61	74.90
422.80	86.60
422.99	4.68
423.18	72.56
423.37	56.17
423.56	32.77
423.75	102.98
423.94	44.47
424.13	7.02
424.32	72.56
424.50	0.00
424.69	28.09
424.88	0.00
425.07	16.38
425.26	32.77
425.45	4.68
425.64	0.00
425.83	0.00
426.01	0.00
426.20	0.00
426.39	23.41
426.58	42.13
426.77	60.85
426.96	0.00
427.15	86.60
427.33	74.90
427.52	30.43
427.71	74.90
427.90	7.02
428.09	14.04
428.28	56.17
428.46	105.32
428.65	25.75
428.84	53.83
429.03	32.77
429.22	0.00
429.40	0.00
429.59	18.72
429.78	98.30
429.97	95.96
430.16	46.81
430.34	44.47
430.53	65.54
430.72	53.83
430.91	105.32
431.10	37.45
431.28	79.58
431.47	23.41
431.66	25.75
431.85	4.68
432.03	72.56
432.22	86.60
432.41	0.00
432.60	42.13
432.79	49.15
432.97	44.47
433.16	60.85
433.35	70.22
433.54	28.09
433.72	0.00
433.91	25.75
434.10	65.54
434.28	58.51
434.47	25.75
434.66	63.19
434.85	100.64
435.03	72.56
435.22	46.81
435.41	72.56
435.59	44.47
435.78	25.75
435.97	4.68
436.16	0.00
436.34	18.72
436.53	42.13
436.72	32.77
436.90	37.45
437.09	65.54
437.28	4.68
437.46	23.41
437.65	28.09
437.84	2.34
438.02	58.51
438.21	74.90
438.40	49.15
438.58	25.75
438.77	100.64
438.96	37.45
439.14	0.00
439.33	4.68
439.52	21.06
439.70	65.54
439.89	23.41
440.08	0.00
440.26	0.00
440.45	67.88
440.63	37.45
440.82	67.88
441.01	30.43
441.19	0.00
441.38	0.00
441.57	14.04
441.75	60.85
441.94	11.70
442.12	86.60
442.31	81.92
442.50	9.36
442.68	16.38
442.87	37.45
443.05	30.43
443.24	42.13
443.43	0.00
443.61	95.96
443.80	77.24
443.98	67.88
444.17	9.36
444.35	35.11
444.54	86.60
444.73	18.72
444.91	98.30
445.10	77.24
445.28	0.00
445.47	25.75
445.65	53.83
445.84	30.43
446.02	18.72
446.21	110.01
446.39	63.19
446.58	105.32
446.77	88.94
446.95	0.00
447.14	37.45
447.32	35.11
447.51	16.38
447.69	0.00
447.88	0.00
448.06	53.83
448.25	91.28
448.43	0.00
448.62	44.47
448.80	46.81
448.99	0.00
449.17	14.04
449.36	0.00
449.54	0.00
449.73	0.00
449.91	65.54
450.10	70.22
450.28	84.26
450.46	39.79
450.65	77.24
450.83	0.00
451.02	28.09
451.20	79.58
451.39	0.00
451.57	56.17
451.76	79.58
451.94	51.49
452.13	4.68
452.31	0.00
452.49	81.92
452.68	4.68
452.86	14.04
453.05	58.51
453.23	18.72
453.42	2.34
453.60	14.04
453.78	53.83
453.97	0.00
454.15	63.19
454.34	0.00
454.52	37.45
454.70	0.00
454.89	58.51
455.07	37.45
455.26	30.43
455.44	28.09
455.62	0.00
455.81	11.70
455.99	0.00
456.17	0.00
456.36	0.00
456.54	28.09
456.73	39.79
456.91	42.13
457.09	98.30
457.28	65.54
457.46	25.75
457.64	37.45
457.83	53.83
458.01	93.62
458.19	0.00
458.38	28.09
458.56	93.62
458.74	9.36
458.93	32.77
459.11	42.13
459.29	0.00
459.48	0.00
459.66	0.00
459.84	30.43
460.03	0.00
460.21	53.83
460.39	0.00
460.57	32.77
460.76	84.26
460.94	0.00
461.12	25.75
461.31	18.72
461.49	0.00
461.67	49.15
461.85	102.98
462.04	37.45
462.22	114.69
462.40	46.81
462.59	131.07
462.77	79.58
462.95	21.06
463.13	2.34
463.32	2.34
463.50	51.49
463.68	21.06
463.86	0.00
464.05	42.13
464.23	25.75
464.41	58.51
464.59	58.51
464.78	0.00
464.96	25.75
465.14	0.00
465.32	42.13
465.50	0.00
465.69	63.19
465.87	51.49
466.05	16.38
466.23	58.51
466.41	39.79
466.60	21.06
466.78	0.00
466.96	72.56
467.14	63.19
467.32	51.49
467.51	21.06
467.69	58.51
467.87	51.49
468.05	93.62
468.23	63.19
468.41	4.68
468.60	0.00
468.78	7.02
468.96	77.24
469.14	70.22
469.32	14.04
469.50	32.77
469.69	18.72
469.87	77.24
470.05	0.00
470.23	32.77
470.41	65.54
470.59	35.11
470.77	2.34
470.95	37.45
471.14	0.00
471.32	42.13
471.50	23.41
471.68	49.15
471.86	0.00
472.04	63.19
472.22	0.00
472.40	53.83
472.58	65.54
472.77	49.15
472.95	11.70
473.13	21.06
473.31	9.36
473.49	30.43
473.67	84.26
473.85	88.94
474.03	51.49
474.21	72.56
474.39	60.85
474.57	9.36
474.75	35.11
474.93	60.85
475.12	60.85
475.30	67.88
475.48	21.06
475.66	42.13
475.84	44.47
476.02	91.28
476.20	84.26
476.38	77.24
476.56	11.70
476.74	53.83
476.92	79.58
477.10	0.00
477.28	77.24
477.46	0.00
477.64	58.51
477.82	56.17
478.00	126.39
478.18	35.11
478.36	0.00
478.54	7.02
478.72	35.11
478.90	23.41
479.08	35.11
479.26	65.54
479.44	67.88
479.62	95.96
479.80	9.36
479.98	16.38
480.16	63.19
480.34	72.56
480.52	18.72
480.70	30.43
480.88	32.77
481.06	7.02
481.24	0.00
481.41	9.36
481.59	9.36
481.77	42.13
481.95	30.43
482.13	95.96
482.31	35.11
482.49	63.19
482.67	56.17
482.85	16.38
483.03	21.06
483.21	0.00
483.39	42.13
483.57	30.43
483.74	58.51
483.92	7.02
484.10	86.60
484.28	0.00
484.46	9.36
484.64	32.77
484.82	128.73
485.00	0.00
485.18	65.54
485.35	42.13
485.53	0.00
485.71	44.47
485.89	42.13
486.07	9.36
486.25	2.34
486.43	133.41
486.61	0.00
486.78	0.00
486.96	81.92
487.14	35.11
487.32	0.00
487.50	0.00
487.68	77.24
487.85	39.79
488.03	4.68
488.21	70.22
488.39	16.38
488.57	11.70
488.75	28.09
488.92	110.01
489.10	7.02
489.28	21.06
489.46	37.45
489.64	72.56
489.81	128.73
489.99	11.70
490.17	81.92
490.35	2.34
490.53	2.34
490.70	4.68
490.88	0.00
491.06	88.94
491.24	28.09
491.41	4.68
491.59	58.51
491.77	44.47
491.95	35.11
492.13	79.58
492.30	86.60
492.48	117.03
492.66	81.92
492.84	18.72
493.01	93.62
493.19	58.51
493.37	0.00
493.54	81.92
493.72	72.56
493.90	25.75
494.08	0.00
494.25	49.15
494.43	32.77
494.61	11.70
494.79	117.03
494.96	93.62
495.14	44.47
495.32	79.58
495.49	65.54
495.67	9.36
495.85	21.06
496.02	0.00
496.20	25.75
496.38	18.72
496.55	9.36
496.73	0.00
496.91	98.30
497.09	91.28
497.26	4.68
497.44	49.15
497.62	37.45
497.79	81.92
497.97	63.19
498.14	23.41
498.32	0.00
498.50	46.81
498.67	30.43
498.85	37.45
499.03	56.17
499.20	0.00
499.38	70.22
499.56	91.28
499.73	37.45
499.91	0.00
500.08	39.79
500.26	117.03
500.44	46.81
500.61	25.75
500.79	14.04
500.97	60.85
501.14	0.00
501.32	56.17
501.49	18.72
501.67	14.04
501.84	18.72
502.02	51.49
502.20	126.39
502.37	72.56
502.55	32.77
502.72	9.36
502.90	102.98
503.07	28.09
503.25	39.79
503.43	107.66
503.60	77.24
503.78	7.02
503.95	100.64
504.13	63.19
504.30	0.00
504.48	56.17
504.65	44.47
504.83	79.58
505.01	58.51
505.18	0.00
505.36	91.28
505.53	63.19
505.71	0.00
505.88	53.83
506.06	7.02
506.23	63.19
506.41	30.43
506.58	81.92
506.76	0.00
506.93	0.00
507.11	30.43
507.28	60.85
507.46	56.17
507.63	39.79
507.81	138.09
507.98	0.00
508.16	39.79
508.33	56.17
508.50	67.88
508.68	63.19
508.85	46.81
509.03	79.58
509.20	42.13
509.38	53.83
509.55	25.75
509.73	65.54
509.90	70.22
510.08	32.77
510.25	42.13
510.42	79.58
510.60	2.34
510.77	39.79
510.95	88.94
511.12	46.81
511.30	4.68
511.47	44.47
511.64	18.72
511.82	11.70
511.99	23.41
512.17	14.04
512.34	86.60
512.51	35.11
512.69	74.90
512.86	70.22
513.04	0.00
513.21	81.92
513.38	46.81
513.56	32.77
513.73	30.43
513.90	56.17
514.08	30.43
514.25	53.83
514.43	14.04
514.60	105.32
514.77	0.00
514.95	107.66
515.12	0.00
515.29	42.13
515.47	49.15
515.64	16.38
515.81	65.54
515.99	105.32
516.16	0.00
516.33	0.00
516.51	35.11
516.68	53.83
516.85	28.09
517.03	28.09
517.20	72.56
517.37	56.17
517.54	72.56
517.72	0.00
517.89	86.60
518.06	65.54
518.24	53.83
518.41	21.06
518.58	77.24
518.75	42.13
518.93	135.75
519.10	79.58
519.27	65.54
519.45	79.58
519.62	28.09
519.79	88.94
519.96	0.00
520.14	18.72
520.31	67.88
520.48	11.70
520.65	74.90
520.83	0.00
521.00	65.54
521.17	56.17
521.34	44.47
521.52	11.70
521.69	23.41
521.86	56.17
522.03	0.00
522.20	4.68
522.38	65.54
522.55	0.00
522.72	81.92
522.89	0.00
523.07	37.45
523.24	58.51
523.41	39.79
523.58	58.51
523.75	16.38
523.92	21.06
524.10	42.13
524.27	88.94
524.44	21.06
524.61	58.51
524.78	46.81
524.96	58.51
525.13	23.41
525.30	63.19
525.47	21.06
525.64	0.00
525.81	77.24
525.98	51.49
526.16	28.09
526.33	72.56
526.50	0.00
526.67	35.11
526.84	23.41
527.01	84.26
527.18	35.11
527.36	79.58
527.53	60.85
527.70	93.62
527.87	23.41
528.04	16.38
528.21	107.66
528.38	77.24
528.55	70.22
528.72	56.17
528.89	7.02
529.07	70.22
529.24	119.37
529.41	60.85
529.58	37.45
529.75	58.51
529.92	23.41
530.09	37.45
530.26	65.54
530.43	49.15
530.60	39.79
530.77	72.56
530.94	42.13
531.11	84.26
531.28	58.51
531.46	0.00
531.63	107.66
531.80	16.38
531.97	37.45
532.14	11.70
532.31	42.13
532.48	42.13
532.65	0.00
532.82	37.45
532.99	42.13
533.16	11.70
533.33	60.85
533.50	0.00
533.67	28.09
533.84	14.04
534.01	88.94
534.18	32.77
534.35	100.64
534.52	7.02
534.69	84.26
534.86	18.72
535.03	30.43
535.20	39.79
535.37	0.00
535.54	46.81
535.71	0.00
535.88	18.72
536.05	0.00
536.22	65.54
536.38	28.09
536.55	37.45
536.72	53.83
536.89	46.81
537.06	35.11
537.23	37.45
537.40	32.77
537.57	30.43
537.74	58.51
537.91	70.22
538.08	79.58
538.25	44.47
538.42	2.34
538.59	58.51
538.75	70.22
538.92	56.17
539.09	149.79
539.26	23.41
539.43	18.72
539.60	72.56
539.77	138.09
539.94	81.92
540.11	0.00
540.28	72.56
540.44	126.39
540.61	16.38
540.78	0.00
540.95	100.64
541.12	86.60
541.29	60.85
541.46	4.68
541.62	72.56
541.79	91.28
541.96	49.15
542.13	70.22
542.30	42.13
542.47	81.92
542.63	39.79
542.80	0.00
542.97	0.00
543.14	30.43
543.31	58.51
543.48	173.20
543.64	39.79
543.81	4.68
543.98	11.70
544.15	4.68
544.32	79.58
544.48	32.77
544.65	0.00
544.82	0.00
544.99	65.54
545.16	23.41
545.32	28.09
545.49	58.51
545.66	42.13
545.83	0.00
546.00	18.72
546.16	0.00
546.33	21.06
546.50	0.00
546.67	79.58
546.83	4.68
547.00	49.15
547.17	53.83
547.34	0.00
547.50	0.00
547.67	72.56
547.84	114.69
548.00	0.00
548.17	23.41
548.34	42.13
548.51	91.28
548.67	28.09
548.84	0.00
549.01	53.83
549.18	39.79
549.34	0.00
549.51	35.11
549.68	91.28
549.84	77.24
550.01	37.45
550.18	0.00
550.34	60.85
550.51	81.92
550.68	39.79
550.84	65.54
551.01	0.00
551.18	35.11
551.34	60.85
551.51	79.58
551.68	42.13
551.84	58.51
552.01	91.28
552.18	65.54
552.34	49.15
552.51	72.56
552.68	53.83
552.84	44.47
553.01	16.38
553.18	18.72
553.34	44.47
553.51	9.36
553.67	21.06
553.84	14.04
554.01	0.00
554.17	0.00
554.34	25.75
554.51	65.54
554.67	7.02
554.84	70.22
555.00	44.47
555.17	11.70
555.33	0.00
555.50	30.43
555.67	72.56
555.83	37.45
556.00	2.34
556.16	95.96
556.33	91.28
556.50	25.75
556.66	131.07
556.83	39.79
556.99	53.83
557.16	51.49
557.32	21.06
557.49	23.41
557.65	58.51
557.82	0.00
557.98	35.11
558.15	25.75
558.32	9.36
558.48	32.77
558.65	14.04
558.81	124.05
558.98	63.19
559.14	2.34
559.31	18.72
559.47	72.56
559.64	35.11
559.80	0.00
559.97	0.00
560.13	14.04
560.30	21.06
560.46	72.56
560.63	0.00
560.79	32.77
560.96	25.75
561.12	81.92
561.29	98.30
561.45	32.77
561.61	42.13
561.78	56.17
561.94	46.81
562.11	7.02
562.27	46.81
562.44	74.90
562.60	30.43
562.77	91.28
562.93	124.05
563.10	28.09
563.26	23.41
563.42	0.00
563.59	58.51
563.75	32.77
563.92	49.15
564.08	91.28
564.24	0.00
564.41	25.75
564.57	35.11
564.74	65.54
564.90	93.62
565.07	25.75
565.23	58.51
565.39	81.92
565.56	49.15
565.72	18.72
565.88	51.49
566.05	105.32
566.21	28.09
566.38	98.30
566.54	32.77
566.70	86.60
566.87	0.00
567.03	18.72
567.19	0.00
567.36	95.96
567.52	70.22
567.68	4.68
567.85	42.13
568.01	16.38
568.17	0.00
568.34	0.00
568.50	30.43
568.66	56.17
568.83	70.22
568.99	95.96
569.15	121.71
569.32	70.22
569.48	77.24
569.64	0.00
569.81	42.13
569.97	18.72
570.13	77.24
570.30	81.92
570.46	51.49
570.62	0.00
570.78	18.72
570.95	25.75
571.11	0.00
571.27	0.00
571.43	74.90
571.60	28.09
571.76	79.58
571.92	7.02
572.09	72.56
572.25	9.36
572.41	16.38
572.57	65.54
572.74	112.35
572.90	0.00
573.06	79.58
573.22	70.22
573.38	16.38
573.55	46.81
573.71	79.58
573.87	42.13
574.03	0.00
574.20	53.83
574.36	81.92
574.52	30.43
574.68	46.81
574.84	63.19
575.01	105.32
575.17	63.19
575.33	72.56
575.49	18.72
575.65	60.85
575.82	63.19
575.98	84.26
576.14	60.85
576.30	72.56
576.46	72.56
576.62	23.41
576.79	25.75
576.95	9.36
577.11	44.47
577.27	0.00
577.43	70.22
577.59	51.49
577.75	63.19
577.92	32.77
578.08	84.26
578.24	37.45
578.40	0.00
578.56	58.51
578.72	133.41
578.88	32.77
579.04	53.83
579.21	0.00
579.37	32.77
579.53	56.17
579.69	0.00
579.85	44.47
580.01	51.49
580.17	0.00
580.33	28.09
580.49	30.43
580.65	28.09
580.82	51.49
580.98	49.15
581.14	42.13
581.30	93.62
581.46	86.60
581.62	51.49
581.78	60.85
581.94	77.24
582.10	21.06
582.26	44.47
582.42	102.98
582.58	88.94
582.74	70.22
582.90	58.51
583.06	23.41
583.22	25.75
583.38	79.58
583.54	42.13
583.70	65.54
583.86	88.94
584.02	42.13
584.18	72.56
584.34	149.79
584.50	217.67
584.66	1341.13
584.82	2902.26
584.98	3485.06
585.14	2911.63
585.30	1849.02
585.46	1217.08
585.62	734.93
585.78	358.10
585.94	210.65
586.10	161.50
586.26	98.30
586.42	65.54
586.58	107.66
586.74	77.24
586.90	0.00
587.06	28.09
587.22	58.51
587.38	72.56
587.54	81.92
587.70	222.35
587.86	304.27
588.02	318.31
588.18	208.31
588.34	152.13
588.49	72.56
588.65	67.88
588.81	100.64
588.97	42.13
589.13	72.56
589.29	0.00
589.45	100.64
589.61	67.88
589.77	93.62
589.93	23.41
590.08	84.26
590.24	67.88
590.40	28.09
590.56	67.88
590.72	37.45
590.88	0.00
591.04	72.56
591.20	0.00
591.35	0.00
591.51	79.58
591.67	84.26
591.83	18.72
591.99	0.00
592.15	11.70
592.31	32.77
592.46	86.60
592.62	35.11
592.78	0.00
592.94	14.04
593.10	100.64
593.26	0.00
593.41	11.70
593.57	0.00
593.73	32.77
593.89	163.84
594.05	458.74
594.20	433.00
594.36	458.74
594.52	262.14
594.68	278.52
594.84	177.88
594.99	133.41
595.15	67.88
595.31	32.77
595.47	86.60
595.62	32.77
595.78	138.09
595.94	65.54
596.10	0.00
596.25	70.22
596.41	32.77
596.57	60.85
596.73	23.41
596.88	18.72
597.04	128.73
597.20	128.73
597.36	152.13
597.51	81.92
597.67	67.88
597.83	79.58
597.99	117.03
598.14	88.94
598.30	0.00
598.46	11.70
598.61	42.13
598.77	0.00
598.93	53.83
599.09	11.70
599.24	79.58
599.40	117.03
599.56	0.00
599.71	65.54
599.87	21.06
600.03	70.22
600.18	53.83
600.34	60.85
600.50	28.09
600.65	0.00
600.81	2.34
600.97	53.83
601.12	25.75
601.28	133.41
601.44	11.70
601.59	58.51
601.75	16.38
601.91	114.69
602.06	46.81
602.22	67.88
602.37	28.09
602.53	170.86
602.69	56.17
602.84	74.90
603.00	102.98
603.16	140.43
603.31	110.01
603.47	28.09
603.62	18.72
603.78	46.81
603.94	18.72
604.09	42.13
604.25	58.51
604.40	0.00
604.56	67.88
604.71	102.98
604.87	56.17
605.03	58.51
605.18	53.83
605.34	44.47
605.49	0.00
605.65	25.75
605.80	23.41
605.96	77.24
606.12	28.09
606.27	70.22
606.43	133.41
606.58	2.34
606.74	53.83
606.89	215.33
607.05	341.72
607.20	430.66
607.36	397.89
607.51	245.76
607.67	149.79
607.82	126.39
607.98	184.90
608.13	51.49
608.29	60.85
608.44	77.24
608.60	0.00
608.75	65.54
608.91	121.71
609.06	304.27
609.22	514.92
609.37	720.88
609.53	545.34
609.68	374.49
609.84	276.18
609.99	91.28
610.15	191.92
610.30	77.24
610.46	70.22
610.61	0.00
610.76	70.22
610.92	39.79
611.07	0.00
611.23	14.04
611.38	35.11
611.54	28.09
611.69	25.75
611.84	117.03
612.00	0.00
612.15	112.35
612.31	70.22
612.46	70.22
612.62	46.81
612.77	65.54
612.92	28.09
613.08	46.81
613.23	65.54
613.39	37.45
613.54	74.90
613.69	358.10
613.85	748.97
614.00	1025.15
614.15	1029.84
614.31	788.76
614.46	543.00
614.62	355.76
614.77	191.92
614.92	154.48
615.08	60.85
615.23	35.11
615.38	79.58
615.54	46.81
615.69	91.28
615.84	212.99
616.00	346.40
616.15	344.06
616.30	290.23
616.46	161.50
616.61	159.16
616.76	119.37
616.92	77.24
617.07	23.41
617.22	58.51
617.37	21.06
617.53	35.11
617.68	79.58
617.83	0.00
617.99	51.49
618.14	25.75
618.29	60.85
618.45	49.15
618.60	100.64
618.75	23.41
618.90	84.26
619.06	0.00
619.21	98.30
619.36	44.47
619.51	0.00
619.67	32.77
619.82	110.01
619.97	0.00
620.12	86.60
620.28	114.69
620.43	86.60
620.58	14.04
620.73	39.79
620.89	42.13
621.04	67.88
621.19	131.07
621.34	208.31
621.49	126.39
621.65	203.63
621.80	147.45
621.95	58.51
622.10	56.17
622.25	42.13
622.41	0.00
622.56	49.15
622.71	11.70
622.86	4.68
623.01	67.88
623.16	9.36
623.32	56.17
623.47	0.00
623.62	25.75
623.77	67.88
623.92	25.75
624.07	25.75
624.23	0.00
624.38	42.13
624.53	53.83
624.68	14.04
624.83	7.02
624.98	74.90
625.13	51.49
625.29	25.75
625.44	51.49
625.59	35.11
625.74	77.24
625.89	0.00
626.04	154.48
626.19	416.62
626.34	543.00
626.49	547.69
626.65	393.21
626.80	273.84
626.95	220.01
627.10	147.45
627.25	46.81
627.40	91.28
627.55	56.17
627.70	44.47
627.85	0.00
628.00	28.09
628.15	70.22
628.30	30.43
628.45	0.00
628.60	14.04
628.76	46.81
628.91	0.00
629.06	58.51
629.21	49.15
629.36	39.79
629.51	102.98
629.66	74.90
629.81	0.00
629.96	84.26
630.11	114.69
630.26	121.71
630.41	220.01
630.56	145.11
630.71	95.96
630.86	51.49
631.01	18.72
631.16	21.06
631.31	93.62
631.46	72.56
631.61	79.58
631.76	95.96
631.91	60.85
632.06	72.56
632.21	72.56
632.36	65.54
632.51	72.56
632.66	56.17
632.81	67.88
632.96	234.05
633.10	290.23
633.25	409.59
633.40	290.23
633.55	273.84
633.70	184.90
633.85	112.35
634.00	0.00
634.15	105.32
634.30	0.00
634.45	88.94
634.60	81.92
634.75	49.15
634.90	9.36
635.05	0.00
635.19	9.36
635.34	58.51
635.49	67.88
635.64	9.36
635.79	51.49
635.94	32.77
636.09	88.94
636.24	0.00
636.39	25.75
636.53	79.58
636.68	18.72
636.83	74.90
636.98	100.64
637.13	9.36
637.28	63.19
637.43	44.47
637.57	86.60
637.72	280.86
637.87	528.96
638.02	730.25
638.17	704.50
638.32	507.90
638.46	332.36
638.61	262.14
638.76	163.84
638.91	72.56
639.06	21.06
639.20	23.41
639.35	65.54
639.50	74.90
639.65	351.08
639.80	772.38
639.94	1048.56
640.09	1095.37
640.24	833.23
640.39	561.73
640.54	407.25
640.68	276.18
640.83	194.26
640.98	49.15
641.13	4.68
641.27	65.54
641.42	0.00
641.57	42.13
641.72	16.38
641.86	0.00
642.01	60.85
642.16	49.15
642.31	44.47
642.45	0.00
642.60	100.64
642.75	49.15
642.90	0.00
643.04	28.09
643.19	0.00
643.34	21.06
643.48	46.81
643.63	0.00
643.78	42.13
643.93	7.02
644.07	67.88
644.22	105.32
644.37	95.96
644.51	91.28
644.66	28.09
644.81	9.36
644.95	25.75
645.10	18.72
645.25	0.00
645.39	95.96
645.54	0.00
645.69	65.54
645.83	112.35
645.98	28.09
646.13	0.00
646.27	51.49
646.42	46.81
646.57	49.15
646.71	72.56
646.86	21.06
647.00	28.09
647.15	30.43
647.30	21.06
647.44	58.51
647.59	84.26
647.74	58.51
647.88	67.88
648.03	77.24
648.17	51.49
648.32	58.51
648.47	16.38
648.61	81.92
648.76	25.75
648.90	32.77
649.05	30.43
649.20	102.98
649.34	53.83
649.49	0.00
649.63	28.09
649.78	0.00
649.92	72.56
650.07	177.88
650.21	418.96
650.36	554.71
650.51	535.98
650.65	444.70
650.80	358.10
650.94	205.97
651.09	138.09
651.23	112.35
651.38	58.51
651.52	30.43
651.67	11.70
651.81	88.94
651.96	51.49
652.10	107.66
652.25	35.11
652.39	0.00
652.54	0.00
652.68	86.60
652.83	124.05
652.97	198.95
653.12	170.86
653.26	201.29
653.41	187.24
653.55	142.77
653.70	70.22
653.84	44.47
653.99	32.77
654.13	51.49
654.27	9.36
654.42	39.79
654.56	107.66
654.71	30.43
654.85	37.45
655.00	93.62
655.14	63.19
655.29	4.68
655.43	25.75
655.57	32.77
655.72	95.96
655.86	49.15
656.01	4.68
656.15	53.83
656.30	0.00
656.44	46.81
656.58	65.54
656.73	0.00
656.87	0.00
657.01	7.02
657.16	42.13
657.30	0.00
657.45	4.68
657.59	46.81
657.73	37.45
657.88	46.81
658.02	35.11
658.16	11.70
658.31	0.00
658.45	25.75
658.60	16.38
658.74	16.38
658.88	42.13
659.03	56.17
659.17	28.09
659.31	49.15
659.46	220.01
659.60	301.93
659.74	341.72
659.89	220.01
660.03	187.24
660.17	114.69
660.32	152.13
660.46	105.32
660.60	4.68
660.74	56.17
660.89	35.11
661.03	0.00
661.17	11.70
661.32	11.70
661.46	39.79
661.60	9.36
661.74	0.00
661.89	46.81
662.03	117.03
662.17	91.28
662.31	2.34
662.46	44.47
662.60	72.56
662.74	39.79
662.88	39.79
663.03	58.51
663.17	88.94
663.31	0.00
663.45	18.72
663.60	21.06
663.74	30.43
663.88	49.15
664.02	11.70
664.17	42.13
664.31	72.56
664.45	21.06
664.59	9.36
664.73	65.54
664.88	0.00
665.02	44.47
665.16	35.11
665.30	32.77
665.44	0.00
665.59	32.77
665.73	65.54
665.87	35.11
666.01	0.00
666.15	53.83
666.29	95.96
666.44	51.49
666.58	0.00
666.72	0.00
666.86	2.34
667.00	110.01
667.14	23.41
667.28	100.64
667.43	276.18
667.57	425.98
667.71	482.15
667.85	465.77
667.99	313.63
668.13	196.60
668.27	184.90
668.41	102.98
668.56	117.03
668.70	49.15
668.84	72.56
668.98	23.41
669.12	21.06
669.26	91.28
669.40	46.81
669.54	77.24
669.68	32.77
669.82	53.83
669.96	32.77
670.10	72.56
670.25	65.54
670.39	98.30
670.53	0.00
670.67	0.00
670.81	51.49
670.95	9.36
671.09	56.17
671.23	105.32
671.37	315.97
671.51	283.20
671.65	320.65
671.79	280.86
671.93	140.43
672.07	140.43
672.21	74.90
672.35	84.26
672.49	49.15
672.63	0.00
672.77	79.58
672.91	0.00
673.05	0.00
673.19	28.09
673.33	63.19
673.47	11.70
673.61	42.13
673.75	53.83
673.89	100.64
674.03	28.09
674.17	74.90
674.31	42.13
674.45	30.43
674.59	117.03
674.73	72.56
674.87	14.04
675.01	2.34
675.15	0.00
675.29	37.45
675.43	86.60
675.56	0.00
675.70	56.17
675.84	23.41
675.98	51.49
676.12	7.02
676.26	37.45
676.40	0.00
676.54	30.43
676.68	32.77
676.82	2.34
676.96	65.54
677.10	32.77
677.23	60.85
677.37	56.17
677.51	0.00
677.65	46.81
677.79	46.81
677.93	32.77
678.07	72.56
678.21	56.17
678.34	28.09
678.48	7.02
678.62	30.43
678.76	49.15
678.90	74.90
679.04	72.56
679.18	0.00
679.31	0.00
679.45	0.00
679.59	0.00
679.73	72.56
679.87	28.09
680.00	51.49
680.14	11.70
680.28	58.51
680.42	0.00
680.56	95.96
680.70	0.00
680.83	46.81
680.97	88.94
681.11	0.00
681.25	0.00
681.39	0.00
681.52	25.75
681.66	53.83
681.80	39.79
681.94	70.22
682.07	0.00
682.21	2.34
682.35	46.81
682.49	32.77
682.62	16.38
682.76	51.49
682.90	58.51
683.04	58.51
683.17	63.19
683.31	23.41
683.45	67.88
683.59	79.58
683.72	18.72
683.86	0.00
684.00	60.85
684.13	88.94
684.27	49.15
684.41	0.00
684.55	30.43
684.68	46.81
684.82	60.85
684.96	35.11
685.09	102.98
685.23	35.11
685.37	107.66
685.50	35.11
685.64	18.72
685.78	65.54
685.91	79.58
686.05	42.13
686.19	39.79
686.32	23.41
686.46	0.00
686.60	79.58
686.73	49.15
686.87	53.83
687.01	35.11
687.14	56.17
687.28	81.92
687.42	30.43
687.55	30.43
687.69	28.09
687.82	0.00
687.96	28.09
688.10	0.00
688.23	72.56
688.37	98.30
688.50	23.41
688.64	2.34
688.78	0.00
688.91	56.17
689.05	46.81
689.18	4.68
689.32	39.79
689.46	53.83
689.59	58.51
689.73	37.45
689.86	2.34
690.00	70.22
690.13	25.75
690.27	35.11
690.41	18.72
690.54	60.85
690.68	0.00
690.81	0.00
690.95	35.11
691.08	0.00
691.22	35.11
691.35	16.38
691.49	67.88
691.62	102.98
691.76	42.13
691.89	67.88
692.03	49.15
692.16	63.19
692.30	79.58
692.43	60.85
692.57	79.58
692.70	135.75
692.84	259.80
692.97	208.31
693.11	86.60
693.24	175.54
693.38	145.11
693.51	124.05
693.65	28.09
693.78	35.11
693.92	60.85
694.05	114.69
694.19	67.88
694.32	11.70
694.45	0.00
694.59	0.00
694.72	18.72
694.86	51.49
694.99	100.64
695.13	60.85
695.26	18.72
695.39	39.79
695.53	4.68
695.66	46.81
695.80	11.70
695.93	77.24
696.07	51.49
696.20	0.00
696.33	42.13
696.47	102.98
696.60	81.92
696.73	25.75
696.87	70.22
697.00	74.90
697.14	0.00
697.27	35.11
697.40	53.83
697.54	44.47
697.67	30.43
697.80	46.81
697.94	32.77
698.07	30.43
698.21	56.17
698.34	102.98
698.47	60.85
698.61	21.06
698.74	0.00
698.87	4.68
699.01	0.00
699.14	35.11
699.27	32.77
699.40	63.19
699.54	25.75
699.67	79.58
699.80	0.00
699.94	4.68
700.07	58.51
700.20	16.38
700.34	79.58
700.47	95.96
700.60	4.68
700.73	161.50
700.87	0.00
701.00	0.00
701.13	14.04
701.26	0.00
701.40	51.49
701.53	37.45
701.66	42.13
701.79	39.79
701.93	2.34
702.06	67.88
702.19	23.41
702.32	56.17
702.46	44.47
702.59	46.81
702.72	112.35
702.85	175.54
702.99	334.70
703.12	395.55
703.25	362.78
703.38	322.99
703.51	362.78
703.65	98.30
703.78	166.18
703.91	175.54
704.04	145.11
704.17	88.94
704.31	30.43
704.44	30.43
704.57	39.79
704.70	44.47
704.83	65.54
704.96	84.26
705.10	0.00
705.23	14.04
>>>>>End Processed Spectral Data<<<<<
