SpectraSuite Data File
++++++++++++++++++++++++++++++++++++
Date: Fri Oct 04 12:13:24 GMT-05:00 2013
User: price-jones
Dark Spectrum Present: No
Reference Spectrum Present: No
Number of Sampled Component Spectra: 1
Spectrometers: USB2+H05261
Integration Time (usec): 10000 (USB2+H05261)
Spectra Averaged: 1 (USB2+H05261)
Boxcar Smoothing: 0 (USB2+H05261)
Correct for Electrical Dark: No (USB2+H05261)
Strobe/Lamp Enabled: No (USB2+H05261)
Correct for Detector Non-linearity: No (USB2+H05261)
Correct for Stray Light: No (USB2+H05261)
Number of Pixels in Processed Spectrum: 2048
>>>>>Begin Processed Spectral Data<<<<<
365.73	11.70
365.92	11.70
366.12	11.70
366.32	0.00
366.52	0.00
366.72	0.00
366.91	0.00
367.11	0.00
367.31	0.00
367.51	0.00
367.70	0.00
367.90	0.00
368.10	0.00
368.30	0.00
368.49	0.00
368.69	0.00
368.89	0.00
369.09	0.00
369.28	0.00
369.48	0.00
369.68	0.00
369.87	0.00
370.07	0.00
370.27	0.00
370.47	0.00
370.66	0.00
370.86	0.00
371.06	25.75
371.25	0.00
371.45	0.00
371.65	9.36
371.84	0.00
372.04	0.00
372.24	39.79
372.44	0.00
372.63	2.34
372.83	53.83
373.03	9.36
373.22	56.17
373.42	60.85
373.62	14.04
373.81	91.28
374.01	37.45
374.21	28.09
374.40	9.36
374.60	7.02
374.79	46.81
374.99	46.81
375.19	14.04
375.38	0.00
375.58	70.22
375.78	0.00
375.97	42.13
376.17	0.00
376.37	0.00
376.56	65.54
376.76	70.22
376.95	110.01
377.15	0.00
377.35	28.09
377.54	0.00
377.74	0.00
377.93	98.30
378.13	49.15
378.33	14.04
378.52	23.41
378.72	65.54
378.91	56.17
379.11	0.00
379.31	9.36
379.50	14.04
379.70	44.47
379.89	0.00
380.09	42.13
380.28	11.70
380.48	84.26
380.68	56.17
380.87	42.13
381.07	79.58
381.26	2.34
381.46	65.54
381.65	9.36
381.85	74.90
382.04	30.43
382.24	105.32
382.43	21.06
382.63	60.85
382.83	18.72
383.02	0.00
383.22	28.09
383.41	44.47
383.61	21.06
383.80	18.72
384.00	32.77
384.19	0.00
384.39	79.58
384.58	18.72
384.78	14.04
384.97	74.90
385.17	35.11
385.36	39.79
385.56	0.00
385.75	0.00
385.95	37.45
386.14	0.00
386.34	0.00
386.53	0.00
386.72	28.09
386.92	23.41
387.11	0.00
387.31	49.15
387.50	0.00
387.70	28.09
387.89	58.51
388.09	0.00
388.28	0.00
388.48	0.00
388.67	30.43
388.86	0.00
389.06	7.02
389.25	95.96
389.45	79.58
389.64	7.02
389.84	30.43
390.03	0.00
390.22	0.00
390.42	0.00
390.61	0.00
390.81	79.58
391.00	18.72
391.19	9.36
391.39	16.38
391.58	56.17
391.78	53.83
391.97	23.41
392.16	0.00
392.36	9.36
392.55	30.43
392.75	63.19
392.94	0.00
393.13	28.09
393.33	0.00
393.52	9.36
393.71	11.70
393.91	11.70
394.10	28.09
394.29	0.00
394.49	0.00
394.68	91.28
394.88	0.00
395.07	30.43
395.26	102.98
395.46	21.06
395.65	0.00
395.84	0.00
396.04	84.26
396.23	28.09
396.42	0.00
396.62	0.00
396.81	11.70
397.00	0.00
397.19	21.06
397.39	9.36
397.58	18.72
397.77	0.00
397.97	49.15
398.16	117.03
398.35	93.62
398.55	7.02
398.74	0.00
398.93	4.68
399.12	51.49
399.32	14.04
399.51	0.00
399.70	0.00
399.90	46.81
400.09	42.13
400.28	0.00
400.47	49.15
400.67	46.81
400.86	0.00
401.05	0.00
401.24	32.77
401.44	37.45
401.63	37.45
401.82	0.00
402.01	95.96
402.21	35.11
402.40	65.54
402.59	35.11
402.78	63.19
402.97	79.58
403.17	35.11
403.36	37.45
403.55	21.06
403.74	7.02
403.93	39.79
404.13	2.34
404.32	44.47
404.51	4.68
404.70	0.00
404.89	56.17
405.09	30.43
405.28	32.77
405.47	65.54
405.66	35.11
405.85	0.00
406.05	0.00
406.24	0.00
406.43	98.30
406.62	35.11
406.81	63.19
407.00	2.34
407.20	0.00
407.39	79.58
407.58	70.22
407.77	7.02
407.96	28.09
408.15	23.41
408.34	23.41
408.54	98.30
408.73	58.51
408.92	0.00
409.11	0.00
409.30	0.00
409.49	9.36
409.68	42.13
409.87	39.79
410.07	28.09
410.26	0.00
410.45	0.00
410.64	65.54
410.83	0.00
411.02	14.04
411.21	23.41
411.40	0.00
411.59	37.45
411.78	18.72
411.98	53.83
412.17	30.43
412.36	16.38
412.55	86.60
412.74	0.00
412.93	35.11
413.12	72.56
413.31	70.22
413.50	44.47
413.69	105.32
413.88	93.62
414.07	0.00
414.26	11.70
414.45	0.00
414.64	60.85
414.83	23.41
415.02	28.09
415.22	0.00
415.41	56.17
415.60	91.28
415.79	30.43
415.98	42.13
416.17	18.72
416.36	23.41
416.55	9.36
416.74	0.00
416.93	0.00
417.12	0.00
417.31	77.24
417.50	37.45
417.69	0.00
417.88	0.00
418.07	30.43
418.26	0.00
418.45	32.77
418.64	0.00
418.83	30.43
419.02	25.75
419.21	72.56
419.39	74.90
419.58	14.04
419.77	44.47
419.96	84.26
420.15	11.70
420.34	46.81
420.53	16.38
420.72	128.73
420.91	56.17
421.10	53.83
421.29	35.11
421.48	39.79
421.67	9.36
421.86	0.00
422.05	11.70
422.24	30.43
422.43	14.04
422.61	53.83
422.80	91.28
422.99	0.00
423.18	0.00
423.37	49.15
423.56	21.06
423.75	60.85
423.94	0.00
424.13	51.49
424.32	0.00
424.50	56.17
424.69	100.64
424.88	91.28
425.07	84.26
425.26	4.68
425.45	84.26
425.64	60.85
425.83	0.00
426.01	110.01
426.20	23.41
426.39	42.13
426.58	7.02
426.77	0.00
426.96	4.68
427.15	98.30
427.33	30.43
427.52	0.00
427.71	58.51
427.90	4.68
428.09	28.09
428.28	0.00
428.46	112.35
428.65	91.28
428.84	16.38
429.03	42.13
429.22	0.00
429.40	14.04
429.59	74.90
429.78	81.92
429.97	25.75
430.16	21.06
430.34	60.85
430.53	49.15
430.72	7.02
430.91	7.02
431.10	56.17
431.28	58.51
431.47	74.90
431.66	37.45
431.85	18.72
432.03	0.00
432.22	11.70
432.41	67.88
432.60	0.00
432.79	0.00
432.97	79.58
433.16	65.54
433.35	23.41
433.54	88.94
433.72	25.75
433.91	25.75
434.10	35.11
434.28	37.45
434.47	79.58
434.66	107.66
434.85	32.77
435.03	63.19
435.22	42.13
435.41	77.24
435.59	44.47
435.78	0.00
435.97	11.70
436.16	44.47
436.34	46.81
436.53	25.75
436.72	16.38
436.90	23.41
437.09	60.85
437.28	25.75
437.46	0.00
437.65	46.81
437.84	9.36
438.02	42.13
438.21	21.06
438.40	39.79
438.58	93.62
438.77	25.75
438.96	4.68
439.14	93.62
439.33	98.30
439.52	65.54
439.70	58.51
439.89	0.00
440.08	53.83
440.26	32.77
440.45	32.77
440.63	0.00
440.82	102.98
441.01	72.56
441.19	11.70
441.38	23.41
441.57	23.41
441.75	46.81
441.94	46.81
442.12	0.00
442.31	23.41
442.50	0.00
442.68	42.13
442.87	23.41
443.05	0.00
443.24	0.00
443.43	14.04
443.61	32.77
443.80	11.70
443.98	7.02
444.17	79.58
444.35	0.00
444.54	117.03
444.73	0.00
444.91	42.13
445.10	0.00
445.28	25.75
445.47	0.00
445.65	0.00
445.84	72.56
446.02	2.34
446.21	0.00
446.39	51.49
446.58	0.00
446.77	35.11
446.95	0.00
447.14	16.38
447.32	0.00
447.51	58.51
447.69	53.83
447.88	60.85
448.06	112.35
448.25	49.15
448.43	0.00
448.62	14.04
448.80	35.11
448.99	56.17
449.17	95.96
449.36	30.43
449.54	30.43
449.73	30.43
449.91	0.00
450.10	74.90
450.28	42.13
450.46	0.00
450.65	53.83
450.83	86.60
451.02	0.00
451.20	4.68
451.39	0.00
451.57	23.41
451.76	67.88
451.94	23.41
452.13	53.83
452.31	4.68
452.49	0.00
452.68	14.04
452.86	51.49
453.05	105.32
453.23	32.77
453.42	30.43
453.60	74.90
453.78	0.00
453.97	4.68
454.15	58.51
454.34	37.45
454.52	65.54
454.70	93.62
454.89	18.72
455.07	14.04
455.26	53.83
455.44	56.17
455.62	0.00
455.81	0.00
455.99	67.88
456.17	70.22
456.36	56.17
456.54	102.98
456.73	0.00
456.91	21.06
457.09	58.51
457.28	67.88
457.46	14.04
457.64	95.96
457.83	0.00
458.01	51.49
458.19	88.94
458.38	28.09
458.56	53.83
458.74	46.81
458.93	0.00
459.11	0.00
459.29	63.19
459.48	98.30
459.66	42.13
459.84	0.00
460.03	14.04
460.21	21.06
460.39	46.81
460.57	0.00
460.76	60.85
460.94	23.41
461.12	28.09
461.31	28.09
461.49	39.79
461.67	0.00
461.85	44.47
462.04	0.00
462.22	86.60
462.40	44.47
462.59	39.79
462.77	37.45
462.95	88.94
463.13	46.81
463.32	81.92
463.50	107.66
463.68	105.32
463.86	131.07
464.05	42.13
464.23	0.00
464.41	58.51
464.59	100.64
464.78	7.02
464.96	35.11
465.14	21.06
465.32	21.06
465.50	0.00
465.69	0.00
465.87	25.75
466.05	74.90
466.23	0.00
466.41	37.45
466.60	21.06
466.78	0.00
466.96	79.58
467.14	32.77
467.32	46.81
467.51	0.00
467.69	9.36
467.87	63.19
468.05	0.00
468.23	28.09
468.41	67.88
468.60	9.36
468.78	23.41
468.96	46.81
469.14	0.00
469.32	16.38
469.50	0.00
469.69	0.00
469.87	0.00
470.05	49.15
470.23	35.11
470.41	11.70
470.59	46.81
470.77	58.51
470.95	0.00
471.14	58.51
471.32	60.85
471.50	0.00
471.68	44.47
471.86	91.28
472.04	11.70
472.22	100.64
472.40	81.92
472.58	84.26
472.77	58.51
472.95	51.49
473.13	49.15
473.31	16.38
473.49	11.70
473.67	39.79
473.85	25.75
474.03	4.68
474.21	53.83
474.39	93.62
474.57	14.04
474.75	4.68
474.93	16.38
475.12	0.00
475.30	63.19
475.48	42.13
475.66	0.00
475.84	23.41
476.02	0.00
476.20	16.38
476.38	46.81
476.56	105.32
476.74	0.00
476.92	28.09
477.10	35.11
477.28	9.36
477.46	35.11
477.64	81.92
477.82	35.11
478.00	77.24
478.18	44.47
478.36	0.00
478.54	112.35
478.72	30.43
478.90	86.60
479.08	23.41
479.26	51.49
479.44	0.00
479.62	35.11
479.80	0.00
479.98	0.00
480.16	35.11
480.34	30.43
480.52	91.28
480.70	28.09
480.88	14.04
481.06	23.41
481.24	88.94
481.41	14.04
481.59	46.81
481.77	65.54
481.95	11.70
482.13	79.58
482.31	32.77
482.49	30.43
482.67	4.68
482.85	25.75
483.03	11.70
483.21	74.90
483.39	74.90
483.57	46.81
483.74	0.00
483.92	16.38
484.10	37.45
484.28	65.54
484.46	77.24
484.64	51.49
484.82	0.00
485.00	42.13
485.18	49.15
485.35	35.11
485.53	77.24
485.71	44.47
485.89	42.13
486.07	32.77
486.25	0.00
486.43	18.72
486.61	105.32
486.78	65.54
486.96	0.00
487.14	14.04
487.32	56.17
487.50	0.00
487.68	100.64
487.85	112.35
488.03	51.49
488.21	58.51
488.39	0.00
488.57	0.00
488.75	49.15
488.92	65.54
489.10	28.09
489.28	51.49
489.46	79.58
489.64	2.34
489.81	23.41
489.99	58.51
490.17	86.60
490.35	86.60
490.53	0.00
490.70	32.77
490.88	102.98
491.06	16.38
491.24	114.69
491.41	0.00
491.59	39.79
491.77	37.45
491.95	4.68
492.13	16.38
492.30	21.06
492.48	42.13
492.66	51.49
492.84	35.11
493.01	58.51
493.19	56.17
493.37	14.04
493.54	18.72
493.72	46.81
493.90	25.75
494.08	11.70
494.25	25.75
494.43	67.88
494.61	42.13
494.79	65.54
494.96	30.43
495.14	72.56
495.32	28.09
495.49	39.79
495.67	93.62
495.85	60.85
496.02	39.79
496.20	74.90
496.38	60.85
496.55	53.83
496.73	18.72
496.91	58.51
497.09	56.17
497.26	51.49
497.44	46.81
497.62	0.00
497.79	67.88
497.97	70.22
498.14	70.22
498.32	30.43
498.50	79.58
498.67	51.49
498.85	60.85
499.03	39.79
499.20	4.68
499.38	32.77
499.56	11.70
499.73	65.54
499.91	37.45
500.08	4.68
500.26	11.70
500.44	51.49
500.61	56.17
500.79	88.94
500.97	4.68
501.14	86.60
501.32	56.17
501.49	65.54
501.67	51.49
501.84	63.19
502.02	4.68
502.20	107.66
502.37	72.56
502.55	93.62
502.72	23.41
502.90	156.82
503.07	51.49
503.25	86.60
503.43	37.45
503.60	25.75
503.78	42.13
503.95	0.00
504.13	9.36
504.30	9.36
504.48	28.09
504.65	37.45
504.83	86.60
505.01	4.68
505.18	84.26
505.36	37.45
505.53	9.36
505.71	0.00
505.88	51.49
506.06	60.85
506.23	53.83
506.41	58.51
506.58	65.54
506.76	0.00
506.93	0.00
507.11	16.38
507.28	37.45
507.46	77.24
507.63	63.19
507.81	0.00
507.98	23.41
508.16	9.36
508.33	63.19
508.50	81.92
508.68	9.36
508.85	98.30
509.03	49.15
509.20	79.58
509.38	65.54
509.55	70.22
509.73	2.34
509.90	11.70
510.08	7.02
510.25	18.72
510.42	77.24
510.60	0.00
510.77	0.00
510.95	44.47
511.12	44.47
511.30	67.88
511.47	7.02
511.64	37.45
511.82	63.19
511.99	11.70
512.17	98.30
512.34	102.98
512.51	51.49
512.69	11.70
512.86	77.24
513.04	0.00
513.21	86.60
513.38	0.00
513.56	16.38
513.73	72.56
513.90	91.28
514.08	0.00
514.25	0.00
514.43	0.00
514.60	58.51
514.77	0.00
514.95	23.41
515.12	32.77
515.29	0.00
515.47	95.96
515.64	88.94
515.81	0.00
515.99	28.09
516.16	25.75
516.33	35.11
516.51	67.88
516.68	23.41
516.85	16.38
517.03	18.72
517.20	28.09
517.37	23.41
517.54	14.04
517.72	9.36
517.89	84.26
518.06	37.45
518.24	107.66
518.41	0.00
518.58	70.22
518.75	81.92
518.93	128.73
519.10	49.15
519.27	0.00
519.45	9.36
519.62	84.26
519.79	60.85
519.96	53.83
520.14	88.94
520.31	49.15
520.48	88.94
520.65	39.79
520.83	42.13
521.00	44.47
521.17	67.88
521.34	60.85
521.52	37.45
521.69	102.98
521.86	25.75
522.03	9.36
522.20	0.00
522.38	44.47
522.55	135.75
522.72	65.54
522.89	105.32
523.07	0.00
523.24	49.15
523.41	35.11
523.58	110.01
523.75	32.77
523.92	53.83
524.10	93.62
524.27	0.00
524.44	49.15
524.61	28.09
524.78	0.00
524.96	84.26
525.13	25.75
525.30	56.17
525.47	0.00
525.64	16.38
525.81	21.06
525.98	70.22
526.16	9.36
526.33	37.45
526.50	91.28
526.67	63.19
526.84	79.58
527.01	46.81
527.18	79.58
527.36	16.38
527.53	44.47
527.70	42.13
527.87	23.41
528.04	86.60
528.21	46.81
528.38	0.00
528.55	81.92
528.72	102.98
528.89	93.62
529.07	46.81
529.24	42.13
529.41	93.62
529.58	0.00
529.75	23.41
529.92	30.43
530.09	0.00
530.26	60.85
530.43	46.81
530.60	25.75
530.77	95.96
530.94	0.00
531.11	74.90
531.28	63.19
531.46	91.28
531.63	72.56
531.80	39.79
531.97	9.36
532.14	21.06
532.31	14.04
532.48	25.75
532.65	126.39
532.82	30.43
532.99	65.54
533.16	51.49
533.33	79.58
533.50	11.70
533.67	84.26
533.84	53.83
534.01	7.02
534.18	77.24
534.35	140.43
534.52	23.41
534.69	81.92
534.86	0.00
535.03	46.81
535.20	0.00
535.37	30.43
535.54	86.60
535.71	0.00
535.88	58.51
536.05	16.38
536.22	72.56
536.38	91.28
536.55	0.00
536.72	70.22
536.89	0.00
537.06	44.47
537.23	67.88
537.40	37.45
537.57	0.00
537.74	0.00
537.91	0.00
538.08	0.00
538.25	25.75
538.42	56.17
538.59	56.17
538.75	39.79
538.92	32.77
539.09	88.94
539.26	51.49
539.43	63.19
539.60	65.54
539.77	18.72
539.94	46.81
540.11	21.06
540.28	53.83
540.44	14.04
540.61	39.79
540.78	23.41
540.95	32.77
541.12	42.13
541.29	2.34
541.46	32.77
541.62	74.90
541.79	18.72
541.96	63.19
542.13	70.22
542.30	58.51
542.47	102.98
542.63	67.88
542.80	98.30
542.97	63.19
543.14	23.41
543.31	42.13
543.48	37.45
543.64	0.00
543.81	159.16
543.98	77.24
544.15	56.17
544.32	65.54
544.48	53.83
544.65	65.54
544.82	91.28
544.99	49.15
545.16	95.96
545.32	25.75
545.49	23.41
545.66	149.79
545.83	32.77
546.00	28.09
546.16	23.41
546.33	65.54
546.50	0.00
546.67	4.68
546.83	39.79
547.00	112.35
547.17	81.92
547.34	117.03
547.50	42.13
547.67	46.81
547.84	51.49
548.00	49.15
548.17	53.83
548.34	93.62
548.51	114.69
548.67	84.26
548.84	72.56
549.01	63.19
549.18	100.64
549.34	37.45
549.51	35.11
549.68	32.77
549.84	67.88
550.01	0.00
550.18	30.43
550.34	32.77
550.51	16.38
550.68	60.85
550.84	0.00
551.01	4.68
551.18	112.35
551.34	56.17
551.51	46.81
551.68	46.81
551.84	39.79
552.01	63.19
552.18	42.13
552.34	18.72
552.51	72.56
552.68	56.17
552.84	65.54
553.01	60.85
553.18	0.00
553.34	7.02
553.51	42.13
553.67	9.36
553.84	4.68
554.01	49.15
554.17	0.00
554.34	88.94
554.51	42.13
554.67	30.43
554.84	77.24
555.00	2.34
555.17	44.47
555.33	49.15
555.50	65.54
555.67	21.06
555.83	37.45
556.00	46.81
556.16	46.81
556.33	35.11
556.50	2.34
556.66	0.00
556.83	32.77
556.99	112.35
557.16	0.00
557.32	25.75
557.49	28.09
557.65	30.43
557.82	72.56
557.98	0.00
558.15	39.79
558.32	46.81
558.48	72.56
558.65	93.62
558.81	0.00
558.98	84.26
559.14	49.15
559.31	35.11
559.47	7.02
559.64	7.02
559.80	60.85
559.97	39.79
560.13	63.19
560.30	0.00
560.46	84.26
560.63	70.22
560.79	88.94
560.96	46.81
561.12	0.00
561.29	16.38
561.45	77.24
561.61	32.77
561.78	84.26
561.94	138.09
562.11	35.11
562.27	56.17
562.44	46.81
562.60	88.94
562.77	21.06
562.93	14.04
563.10	53.83
563.26	4.68
563.42	30.43
563.59	53.83
563.75	147.45
563.92	0.00
564.08	58.51
564.24	124.05
564.41	126.39
564.57	0.00
564.74	0.00
564.90	11.70
565.07	51.49
565.23	93.62
565.39	25.75
565.56	56.17
565.72	16.38
565.88	53.83
566.05	0.00
566.21	0.00
566.38	39.79
566.54	63.19
566.70	67.88
566.87	32.77
567.03	65.54
567.19	65.54
567.36	79.58
567.52	32.77
567.68	11.70
567.85	37.45
568.01	0.00
568.17	63.19
568.34	58.51
568.50	117.03
568.66	105.32
568.83	51.49
568.99	84.26
569.15	102.98
569.32	9.36
569.48	42.13
569.64	4.68
569.81	46.81
569.97	58.51
570.13	0.00
570.30	51.49
570.46	35.11
570.62	21.06
570.78	51.49
570.95	63.19
571.11	100.64
571.27	93.62
571.43	70.22
571.60	74.90
571.76	79.58
571.92	79.58
572.09	0.00
572.25	0.00
572.41	44.47
572.57	42.13
572.74	0.00
572.90	53.83
573.06	49.15
573.22	18.72
573.38	23.41
573.55	102.98
573.71	107.66
573.87	77.24
574.03	32.77
574.20	0.00
574.36	110.01
574.52	86.60
574.68	0.00
574.84	0.00
575.01	9.36
575.17	53.83
575.33	112.35
575.49	28.09
575.65	2.34
575.82	44.47
575.98	2.34
576.14	9.36
576.30	49.15
576.46	0.00
576.62	35.11
576.79	9.36
576.95	16.38
577.11	0.00
577.27	2.34
577.43	18.72
577.59	56.17
577.75	18.72
577.92	53.83
578.08	56.17
578.24	0.00
578.40	58.51
578.56	39.79
578.72	0.00
578.88	9.36
579.04	16.38
579.21	67.88
579.37	0.00
579.53	21.06
579.69	98.30
579.85	44.47
580.01	51.49
580.17	105.32
580.33	11.70
580.49	28.09
580.65	0.00
580.82	37.45
580.98	16.38
581.14	67.88
581.30	32.77
581.46	28.09
581.62	2.34
581.78	51.49
581.94	42.13
582.10	44.47
582.26	53.83
582.42	21.06
582.58	14.04
582.74	0.00
582.90	37.45
583.06	46.81
583.22	37.45
583.38	77.24
583.54	93.62
583.70	28.09
583.86	86.60
584.02	39.79
584.18	72.56
584.34	37.45
584.50	0.00
584.66	0.00
584.82	46.81
584.98	44.47
585.14	81.92
585.30	21.06
585.46	49.15
585.62	65.54
585.78	140.43
585.94	2.34
586.10	93.62
586.26	84.26
586.42	49.15
586.58	49.15
586.74	0.00
586.90	28.09
587.06	35.11
587.22	105.32
587.38	0.00
587.54	4.68
587.70	7.02
587.86	0.00
588.02	30.43
588.18	107.66
588.34	0.00
588.49	0.00
588.65	65.54
588.81	35.11
588.97	63.19
589.13	53.83
589.29	39.79
589.45	37.45
589.61	65.54
589.77	77.24
589.93	51.49
590.08	79.58
590.24	0.00
590.40	11.70
590.56	95.96
590.72	0.00
590.88	0.00
591.04	0.00
591.20	7.02
591.35	0.00
591.51	18.72
591.67	14.04
591.83	0.00
591.99	60.85
592.15	72.56
592.31	46.81
592.46	63.19
592.62	63.19
592.78	16.38
592.94	51.49
593.10	65.54
593.26	53.83
593.41	58.51
593.57	58.51
593.73	65.54
593.89	44.47
594.05	0.00
594.20	60.85
594.36	9.36
594.52	65.54
594.68	30.43
594.84	72.56
594.99	32.77
595.15	49.15
595.31	88.94
595.47	0.00
595.62	84.26
595.78	23.41
595.94	58.51
596.10	0.00
596.25	0.00
596.41	0.00
596.57	86.60
596.73	0.00
596.88	28.09
597.04	0.00
597.20	44.47
597.36	39.79
597.51	16.38
597.67	74.90
597.83	56.17
597.99	28.09
598.14	9.36
598.30	39.79
598.46	30.43
598.61	79.58
598.77	9.36
598.93	0.00
599.09	56.17
599.24	37.45
599.40	46.81
599.56	9.36
599.71	37.45
599.87	49.15
600.03	9.36
600.18	39.79
600.34	65.54
600.50	46.81
600.65	72.56
600.81	0.00
600.97	0.00
601.12	60.85
601.28	9.36
601.44	39.79
601.59	88.94
601.75	30.43
601.91	53.83
602.06	70.22
602.22	37.45
602.37	49.15
602.53	14.04
602.69	46.81
602.84	63.19
603.00	0.00
603.16	0.00
603.31	25.75
603.47	102.98
603.62	60.85
603.78	46.81
603.94	25.75
604.09	56.17
604.25	39.79
604.40	0.00
604.56	44.47
604.71	30.43
604.87	51.49
605.03	2.34
605.18	0.00
605.34	0.00
605.49	7.02
605.65	9.36
605.80	58.51
605.96	11.70
606.12	88.94
606.27	35.11
606.43	67.88
606.58	53.83
606.74	28.09
606.89	51.49
607.05	147.45
607.20	7.02
607.36	51.49
607.51	25.75
607.67	35.11
607.82	21.06
607.98	65.54
608.13	23.41
608.29	14.04
608.44	65.54
608.60	37.45
608.75	86.60
608.91	0.00
609.06	84.26
609.22	72.56
609.37	58.51
609.53	0.00
609.68	53.83
609.84	21.06
609.99	32.77
610.15	23.41
610.30	63.19
610.46	25.75
610.61	65.54
610.76	0.00
610.92	63.19
611.07	0.00
611.23	70.22
611.38	102.98
611.54	63.19
611.69	25.75
611.84	11.70
612.00	63.19
612.15	49.15
612.31	67.88
612.46	58.51
612.62	63.19
612.77	84.26
612.92	67.88
613.08	18.72
613.23	86.60
613.39	18.72
613.54	42.13
613.69	28.09
613.85	23.41
614.00	79.58
614.15	0.00
614.31	0.00
614.46	0.00
614.62	0.00
614.77	0.00
614.92	18.72
615.08	117.03
615.23	112.35
615.38	35.11
615.54	58.51
615.69	65.54
615.84	46.81
616.00	95.96
616.15	18.72
616.30	91.28
616.46	67.88
616.61	4.68
616.76	65.54
616.92	30.43
617.07	18.72
617.22	81.92
617.37	84.26
617.53	100.64
617.68	0.00
617.83	46.81
617.99	23.41
618.14	49.15
618.29	14.04
618.45	4.68
618.60	0.00
618.75	42.13
618.90	39.79
619.06	65.54
619.21	98.30
619.36	44.47
619.51	42.13
619.67	0.00
619.82	63.19
619.97	63.19
620.12	7.02
620.28	28.09
620.43	25.75
620.58	37.45
620.73	70.22
620.89	42.13
621.04	21.06
621.19	14.04
621.34	16.38
621.49	93.62
621.65	23.41
621.80	25.75
621.95	63.19
622.10	74.90
622.25	91.28
622.41	0.00
622.56	42.13
622.71	49.15
622.86	18.72
623.01	65.54
623.16	86.60
623.32	63.19
623.47	128.73
623.62	74.90
623.77	35.11
623.92	2.34
624.07	0.00
624.23	16.38
624.38	42.13
624.53	74.90
624.68	25.75
624.83	93.62
624.98	65.54
625.13	25.75
625.29	65.54
625.44	35.11
625.59	16.38
625.74	21.06
625.89	72.56
626.04	4.68
626.19	86.60
626.34	42.13
626.49	46.81
626.65	44.47
626.80	21.06
626.95	21.06
627.10	25.75
627.25	18.72
627.40	100.64
627.55	49.15
627.70	70.22
627.85	25.75
628.00	74.90
628.15	25.75
628.30	14.04
628.45	58.51
628.60	42.13
628.76	30.43
628.91	79.58
629.06	60.85
629.21	0.00
629.36	11.70
629.51	16.38
629.66	18.72
629.81	0.00
629.96	21.06
630.11	23.41
630.26	72.56
630.41	98.30
630.56	86.60
630.71	51.49
630.86	58.51
631.01	9.36
631.16	119.37
631.31	53.83
631.46	56.17
631.61	42.13
631.76	65.54
631.91	37.45
632.06	42.13
632.21	16.38
632.36	67.88
632.51	46.81
632.66	32.77
632.81	21.06
632.96	16.38
633.10	0.00
633.25	60.85
633.40	77.24
633.55	39.79
633.70	100.64
633.85	49.15
634.00	4.68
634.15	23.41
634.30	110.01
634.45	77.24
634.60	25.75
634.75	4.68
634.90	28.09
635.05	37.45
635.19	39.79
635.34	16.38
635.49	11.70
635.64	46.81
635.79	0.00
635.94	53.83
636.09	37.45
636.24	51.49
636.39	112.35
636.53	25.75
636.68	114.69
636.83	2.34
636.98	95.96
637.13	39.79
637.28	35.11
637.43	42.13
637.57	23.41
637.72	39.79
637.87	42.13
638.02	79.58
638.17	0.00
638.32	0.00
638.46	14.04
638.61	56.17
638.76	16.38
638.91	0.00
639.06	63.19
639.20	23.41
639.35	46.81
639.50	0.00
639.65	4.68
639.80	58.51
639.94	128.73
640.09	74.90
640.24	67.88
640.39	32.77
640.54	86.60
640.68	49.15
640.83	37.45
640.98	14.04
641.13	63.19
641.27	51.49
641.42	0.00
641.57	60.85
641.72	58.51
641.86	53.83
642.01	46.81
642.16	77.24
642.31	0.00
642.45	14.04
642.60	7.02
642.75	53.83
642.90	37.45
643.04	110.01
643.19	102.98
643.34	0.00
643.48	11.70
643.63	93.62
643.78	0.00
643.93	30.43
644.07	58.51
644.22	9.36
644.37	30.43
644.51	46.81
644.66	7.02
644.81	25.75
644.95	49.15
645.10	65.54
645.25	140.43
645.39	32.77
645.54	46.81
645.69	25.75
645.83	81.92
645.98	63.19
646.13	0.00
646.27	0.00
646.42	11.70
646.57	53.83
646.71	46.81
646.86	37.45
647.00	93.62
647.15	110.01
647.30	0.00
647.44	32.77
647.59	16.38
647.74	65.54
647.88	0.00
648.03	107.66
648.17	60.85
648.32	30.43
648.47	21.06
648.61	0.00
648.76	67.88
648.90	53.83
649.05	0.00
649.20	63.19
649.34	93.62
649.49	37.45
649.63	28.09
649.78	39.79
649.92	93.62
650.07	32.77
650.21	42.13
650.36	95.96
650.51	100.64
650.65	95.96
650.80	0.00
650.94	14.04
651.09	4.68
651.23	51.49
651.38	42.13
651.52	110.01
651.67	58.51
651.81	140.43
651.96	0.00
652.10	49.15
652.25	53.83
652.39	32.77
652.54	53.83
652.68	23.41
652.83	18.72
652.97	16.38
653.12	51.49
653.26	60.85
653.41	37.45
653.55	70.22
653.70	46.81
653.84	46.81
653.99	18.72
654.13	28.09
654.27	56.17
654.42	44.47
654.56	11.70
654.71	0.00
654.85	72.56
655.00	35.11
655.14	44.47
655.29	11.70
655.43	0.00
655.57	0.00
655.72	0.00
655.86	63.19
656.01	65.54
656.15	9.36
656.30	0.00
656.44	16.38
656.58	49.15
656.73	32.77
656.87	0.00
657.01	49.15
657.16	16.38
657.30	84.26
657.45	0.00
657.59	2.34
657.73	21.06
657.88	32.77
658.02	42.13
658.16	16.38
658.31	46.81
658.45	4.68
658.60	39.79
658.74	0.00
658.88	42.13
659.03	21.06
659.17	0.00
659.31	72.56
659.46	32.77
659.60	53.83
659.74	0.00
659.89	98.30
660.03	11.70
660.17	86.60
660.32	37.45
660.46	37.45
660.60	91.28
660.74	0.00
660.89	39.79
661.03	16.38
661.17	46.81
661.32	65.54
661.46	14.04
661.60	112.35
661.74	30.43
661.89	7.02
662.03	46.81
662.17	58.51
662.31	0.00
662.46	46.81
662.60	39.79
662.74	53.83
662.88	81.92
663.03	60.85
663.17	23.41
663.31	107.66
663.45	4.68
663.60	84.26
663.74	14.04
663.88	32.77
664.02	11.70
664.17	58.51
664.31	56.17
664.45	35.11
664.59	4.68
664.73	42.13
664.88	0.00
665.02	11.70
665.16	0.00
665.30	53.83
665.44	9.36
665.59	37.45
665.73	25.75
665.87	53.83
666.01	67.88
666.15	91.28
666.29	0.00
666.44	18.72
666.58	23.41
666.72	32.77
666.86	30.43
667.00	39.79
667.14	0.00
667.28	58.51
667.43	0.00
667.57	0.00
667.71	0.00
667.85	53.83
667.99	56.17
668.13	79.58
668.27	35.11
668.41	51.49
668.56	35.11
668.70	74.90
668.84	46.81
668.98	119.37
669.12	44.47
669.26	18.72
669.40	0.00
669.54	7.02
669.68	65.54
669.82	35.11
669.96	51.49
670.10	18.72
670.25	14.04
670.39	0.00
670.53	88.94
670.67	25.75
670.81	60.85
670.95	60.85
671.09	67.88
671.23	0.00
671.37	7.02
671.51	117.03
671.65	91.28
671.79	0.00
671.93	60.85
672.07	0.00
672.21	14.04
672.35	4.68
672.49	35.11
672.63	98.30
672.77	46.81
672.91	25.75
673.05	23.41
673.19	79.58
673.33	0.00
673.47	0.00
673.61	4.68
673.75	0.00
673.89	9.36
674.03	14.04
674.17	37.45
674.31	14.04
674.45	35.11
674.59	16.38
674.73	0.00
674.87	53.83
675.01	25.75
675.15	77.24
675.29	4.68
675.43	70.22
675.56	18.72
675.70	0.00
675.84	98.30
675.98	14.04
676.12	0.00
676.26	51.49
676.40	56.17
676.54	4.68
676.68	9.36
676.82	53.83
676.96	0.00
677.10	44.47
677.23	30.43
677.37	0.00
677.51	0.00
677.65	35.11
677.79	2.34
677.93	88.94
678.07	42.13
678.21	37.45
678.34	16.38
678.48	9.36
678.62	0.00
678.76	30.43
678.90	44.47
679.04	93.62
679.18	74.90
679.31	28.09
679.45	0.00
679.59	63.19
679.73	121.71
679.87	0.00
680.00	2.34
680.14	0.00
680.28	16.38
680.42	14.04
680.56	25.75
680.70	25.75
680.83	30.43
680.97	32.77
681.11	65.54
681.25	25.75
681.39	37.45
681.52	58.51
681.66	74.90
681.80	28.09
681.94	42.13
682.07	53.83
682.21	0.00
682.35	51.49
682.49	16.38
682.62	51.49
682.76	21.06
682.90	42.13
683.04	93.62
683.17	70.22
683.31	0.00
683.45	0.00
683.59	53.83
683.72	58.51
683.86	131.07
684.00	23.41
684.13	72.56
684.27	35.11
684.41	72.56
684.55	65.54
684.68	4.68
684.82	0.00
684.96	49.15
685.09	18.72
685.23	11.70
685.37	0.00
685.50	110.01
685.64	56.17
685.78	16.38
685.91	16.38
686.05	49.15
686.19	42.13
686.32	37.45
686.46	23.41
686.60	30.43
686.73	0.00
686.87	25.75
687.01	0.00
687.14	124.05
687.28	53.83
687.42	67.88
687.55	63.19
687.69	128.73
687.82	0.00
687.96	51.49
688.10	72.56
688.23	72.56
688.37	0.00
688.50	23.41
688.64	65.54
688.78	58.51
688.91	42.13
689.05	14.04
689.18	28.09
689.32	53.83
689.46	0.00
689.59	44.47
689.73	51.49
689.86	21.06
690.00	102.98
690.13	0.00
690.27	0.00
690.41	32.77
690.54	39.79
690.68	2.34
690.81	0.00
690.95	7.02
691.08	37.45
691.22	7.02
691.35	44.47
691.49	9.36
691.62	79.58
691.76	0.00
691.89	74.90
692.03	28.09
692.16	21.06
692.30	93.62
692.43	107.66
692.57	0.00
692.70	0.00
692.84	70.22
692.97	16.38
693.11	0.00
693.24	0.00
693.38	0.00
693.51	53.83
693.65	93.62
693.78	18.72
693.92	0.00
694.05	32.77
694.19	70.22
694.32	86.60
694.45	51.49
694.59	60.85
694.72	70.22
694.86	98.30
694.99	2.34
695.13	46.81
695.26	7.02
695.39	23.41
695.53	77.24
695.66	53.83
695.80	0.00
695.93	14.04
696.07	39.79
696.20	32.77
696.33	42.13
696.47	23.41
696.60	21.06
696.73	0.00
696.87	63.19
697.00	37.45
697.14	21.06
697.27	28.09
697.40	21.06
697.54	72.56
697.67	23.41
697.80	0.00
697.94	37.45
698.07	37.45
698.21	30.43
698.34	21.06
698.47	44.47
698.61	65.54
698.74	58.51
698.87	65.54
699.01	9.36
699.14	18.72
699.27	58.51
699.40	65.54
699.54	18.72
699.67	53.83
699.80	44.47
699.94	0.00
700.07	35.11
700.20	4.68
700.34	74.90
700.47	39.79
700.60	49.15
700.73	37.45
700.87	44.47
701.00	4.68
701.13	16.38
701.26	0.00
701.40	0.00
701.53	91.28
701.66	63.19
701.79	51.49
701.93	0.00
702.06	37.45
702.19	9.36
702.32	0.00
702.46	74.90
702.59	60.85
702.72	18.72
702.85	79.58
702.99	32.77
703.12	60.85
703.25	46.81
703.38	58.51
703.51	0.00
703.65	18.72
703.78	7.02
703.91	0.00
704.04	16.38
704.17	53.83
704.31	30.43
704.44	67.88
704.57	0.00
704.70	100.64
704.83	53.83
704.96	0.00
705.10	53.83
705.23	0.00
>>>>>End Processed Spectral Data<<<<<
