SpectraSuite Data File
++++++++++++++++++++++++++++++++++++
Date: Fri Oct 04 12:13:34 GMT-05:00 2013
User: price-jones
Dark Spectrum Present: No
Reference Spectrum Present: No
Number of Sampled Component Spectra: 1
Spectrometers: USB2+H05261
Integration Time (usec): 10000 (USB2+H05261)
Spectra Averaged: 1 (USB2+H05261)
Boxcar Smoothing: 0 (USB2+H05261)
Correct for Electrical Dark: No (USB2+H05261)
Strobe/Lamp Enabled: No (USB2+H05261)
Correct for Detector Non-linearity: No (USB2+H05261)
Correct for Stray Light: No (USB2+H05261)
Number of Pixels in Processed Spectrum: 2048
>>>>>Begin Processed Spectral Data<<<<<
365.73	39.79
365.92	39.79
366.12	39.79
366.32	0.00
366.52	0.00
366.72	0.00
366.91	0.00
367.11	0.00
367.31	0.00
367.51	0.00
367.70	0.00
367.90	0.00
368.10	0.00
368.30	0.00
368.49	0.00
368.69	0.00
368.89	0.00
369.09	0.00
369.28	0.00
369.48	0.00
369.68	0.00
369.87	0.00
370.07	0.00
370.27	0.00
370.47	0.00
370.66	0.00
370.86	0.00
371.06	0.00
371.25	0.00
371.45	0.00
371.65	2.34
371.84	0.00
372.04	0.00
372.24	0.00
372.44	21.06
372.63	46.81
372.83	18.72
373.03	23.41
373.22	0.00
373.42	0.00
373.62	0.00
373.81	7.02
374.01	0.00
374.21	56.17
374.40	23.41
374.60	28.09
374.79	0.00
374.99	72.56
375.19	95.96
375.38	25.75
375.58	42.13
375.78	63.19
375.97	30.43
376.17	67.88
376.37	9.36
376.56	14.04
376.76	7.02
376.95	0.00
377.15	63.19
377.35	30.43
377.54	42.13
377.74	16.38
377.93	63.19
378.13	86.60
378.33	65.54
378.52	42.13
378.72	21.06
378.91	0.00
379.11	11.70
379.31	58.51
379.50	0.00
379.70	60.85
379.89	14.04
380.09	7.02
380.28	11.70
380.48	30.43
380.68	0.00
380.87	11.70
381.07	37.45
381.26	72.56
381.46	32.77
381.65	32.77
381.85	9.36
382.04	100.64
382.24	18.72
382.43	37.45
382.63	93.62
382.83	0.00
383.02	32.77
383.22	39.79
383.41	95.96
383.61	0.00
383.80	2.34
384.00	49.15
384.19	42.13
384.39	16.38
384.58	44.47
384.78	0.00
384.97	0.00
385.17	0.00
385.36	46.81
385.56	81.92
385.75	30.43
385.95	0.00
386.14	53.83
386.34	84.26
386.53	28.09
386.72	30.43
386.92	0.00
387.11	14.04
387.31	28.09
387.50	0.00
387.70	21.06
387.89	60.85
388.09	51.49
388.28	37.45
388.48	32.77
388.67	77.24
388.86	35.11
389.06	53.83
389.25	49.15
389.45	53.83
389.64	18.72
389.84	0.00
390.03	0.00
390.22	28.09
390.42	21.06
390.61	35.11
390.81	2.34
391.00	23.41
391.19	0.00
391.39	0.00
391.58	25.75
391.78	44.47
391.97	79.58
392.16	7.02
392.36	53.83
392.55	56.17
392.75	4.68
392.94	2.34
393.13	35.11
393.33	0.00
393.52	0.00
393.71	2.34
393.91	63.19
394.10	46.81
394.29	35.11
394.49	21.06
394.68	49.15
394.88	46.81
395.07	9.36
395.26	16.38
395.46	23.41
395.65	32.77
395.84	30.43
396.04	77.24
396.23	0.00
396.42	23.41
396.62	110.01
396.81	44.47
397.00	28.09
397.19	98.30
397.39	23.41
397.58	77.24
397.77	23.41
397.97	14.04
398.16	112.35
398.35	2.34
398.55	0.00
398.74	7.02
398.93	21.06
399.12	72.56
399.32	18.72
399.51	18.72
399.70	0.00
399.90	56.17
400.09	63.19
400.28	16.38
400.47	58.51
400.67	37.45
400.86	32.77
401.05	11.70
401.24	0.00
401.44	65.54
401.63	28.09
401.82	21.06
402.01	4.68
402.21	0.00
402.40	84.26
402.59	60.85
402.78	105.32
402.97	70.22
403.17	60.85
403.36	0.00
403.55	0.00
403.74	18.72
403.93	0.00
404.13	23.41
404.32	14.04
404.51	2.34
404.70	49.15
404.89	65.54
405.09	9.36
405.28	28.09
405.47	63.19
405.66	56.17
405.85	7.02
406.05	0.00
406.24	77.24
406.43	93.62
406.62	95.96
406.81	37.45
407.00	30.43
407.20	58.51
407.39	49.15
407.58	0.00
407.77	91.28
407.96	46.81
408.15	42.13
408.34	42.13
408.54	37.45
408.73	32.77
408.92	81.92
409.11	9.36
409.30	65.54
409.49	4.68
409.68	0.00
409.87	25.75
410.07	0.00
410.26	88.94
410.45	88.94
410.64	18.72
410.83	0.00
411.02	67.88
411.21	0.00
411.40	44.47
411.59	39.79
411.78	39.79
411.98	65.54
412.17	0.00
412.36	77.24
412.55	37.45
412.74	0.00
412.93	60.85
413.12	128.73
413.31	60.85
413.50	21.06
413.69	37.45
413.88	72.56
414.07	84.26
414.26	23.41
414.45	79.58
414.64	63.19
414.83	46.81
415.02	42.13
415.22	0.00
415.41	67.88
415.60	53.83
415.79	53.83
415.98	149.79
416.17	60.85
416.36	74.90
416.55	0.00
416.74	0.00
416.93	37.45
417.12	88.94
417.31	79.58
417.50	51.49
417.69	65.54
417.88	32.77
418.07	23.41
418.26	46.81
418.45	91.28
418.64	86.60
418.83	84.26
419.02	42.13
419.21	95.96
419.39	79.58
419.58	18.72
419.77	124.05
419.96	30.43
420.15	58.51
420.34	46.81
420.53	35.11
420.72	35.11
420.91	23.41
421.10	46.81
421.29	63.19
421.48	46.81
421.67	28.09
421.86	102.98
422.05	124.05
422.24	102.98
422.43	65.54
422.61	0.00
422.80	0.00
422.99	42.13
423.18	0.00
423.37	35.11
423.56	4.68
423.75	91.28
423.94	67.88
424.13	11.70
424.32	42.13
424.50	23.41
424.69	11.70
424.88	67.88
425.07	46.81
425.26	84.26
425.45	42.13
425.64	63.19
425.83	0.00
426.01	56.17
426.20	9.36
426.39	58.51
426.58	32.77
426.77	0.00
426.96	30.43
427.15	0.00
427.33	0.00
427.52	2.34
427.71	7.02
427.90	35.11
428.09	58.51
428.28	30.43
428.46	53.83
428.65	44.47
428.84	58.51
429.03	28.09
429.22	32.77
429.40	51.49
429.59	135.75
429.78	44.47
429.97	30.43
430.16	16.38
430.34	11.70
430.53	0.00
430.72	107.66
430.91	88.94
431.10	23.41
431.28	67.88
431.47	49.15
431.66	65.54
431.85	0.00
432.03	44.47
432.22	44.47
432.41	32.77
432.60	91.28
432.79	16.38
432.97	0.00
433.16	91.28
433.35	0.00
433.54	72.56
433.72	30.43
433.91	0.00
434.10	14.04
434.28	0.00
434.47	161.50
434.66	58.51
434.85	0.00
435.03	32.77
435.22	102.98
435.41	56.17
435.59	67.88
435.78	25.75
435.97	2.34
436.16	7.02
436.34	95.96
436.53	112.35
436.72	67.88
436.90	105.32
437.09	0.00
437.28	0.00
437.46	11.70
437.65	70.22
437.84	56.17
438.02	88.94
438.21	128.73
438.40	30.43
438.58	44.47
438.77	67.88
438.96	23.41
439.14	46.81
439.33	30.43
439.52	65.54
439.70	91.28
439.89	32.77
440.08	86.60
440.26	79.58
440.45	21.06
440.63	30.43
440.82	51.49
441.01	70.22
441.19	44.47
441.38	63.19
441.57	28.09
441.75	42.13
441.94	105.32
442.12	21.06
442.31	91.28
442.50	39.79
442.68	110.01
442.87	121.71
443.05	21.06
443.24	95.96
443.43	51.49
443.61	16.38
443.80	9.36
443.98	56.17
444.17	84.26
444.35	128.73
444.54	44.47
444.73	0.00
444.91	60.85
445.10	42.13
445.28	58.51
445.47	105.32
445.65	142.77
445.84	81.92
446.02	28.09
446.21	32.77
446.39	93.62
446.58	49.15
446.77	60.85
446.95	58.51
447.14	18.72
447.32	4.68
447.51	0.00
447.69	51.49
447.88	81.92
448.06	84.26
448.25	28.09
448.43	95.96
448.62	72.56
448.80	72.56
448.99	63.19
449.17	0.00
449.36	79.58
449.54	0.00
449.73	56.17
449.91	53.83
450.10	95.96
450.28	37.45
450.46	60.85
450.65	79.58
450.83	14.04
451.02	37.45
451.20	51.49
451.39	70.22
451.57	81.92
451.76	0.00
451.94	74.90
452.13	21.06
452.31	60.85
452.49	44.47
452.68	14.04
452.86	30.43
453.05	42.13
453.23	67.88
453.42	0.00
453.60	58.51
453.78	14.04
453.97	39.79
454.15	0.00
454.34	74.90
454.52	37.45
454.70	79.58
454.89	65.54
455.07	37.45
455.26	79.58
455.44	35.11
455.62	28.09
455.81	72.56
455.99	39.79
456.17	0.00
456.36	9.36
456.54	2.34
456.73	65.54
456.91	56.17
457.09	18.72
457.28	35.11
457.46	51.49
457.64	105.32
457.83	25.75
458.01	74.90
458.19	60.85
458.38	63.19
458.56	84.26
458.74	70.22
458.93	25.75
459.11	74.90
459.29	46.81
459.48	114.69
459.66	23.41
459.84	46.81
460.03	114.69
460.21	86.60
460.39	0.00
460.57	60.85
460.76	58.51
460.94	121.71
461.12	4.68
461.31	121.71
461.49	88.94
461.67	32.77
461.85	56.17
462.04	77.24
462.22	91.28
462.40	119.37
462.59	25.75
462.77	53.83
462.95	16.38
463.13	74.90
463.32	88.94
463.50	42.13
463.68	58.51
463.86	93.62
464.05	72.56
464.23	23.41
464.41	121.71
464.59	74.90
464.78	0.00
464.96	53.83
465.14	35.11
465.32	63.19
465.50	77.24
465.69	9.36
465.87	72.56
466.05	44.47
466.23	9.36
466.41	0.00
466.60	32.77
466.78	98.30
466.96	0.00
467.14	140.43
467.32	81.92
467.51	79.58
467.69	67.88
467.87	53.83
468.05	60.85
468.23	35.11
468.41	23.41
468.60	14.04
468.78	25.75
468.96	32.77
469.14	42.13
469.32	63.19
469.50	44.47
469.69	35.11
469.87	95.96
470.05	0.00
470.23	28.09
470.41	70.22
470.59	16.38
470.77	0.00
470.95	49.15
471.14	117.03
471.32	65.54
471.50	79.58
471.68	105.32
471.86	23.41
472.04	44.47
472.22	60.85
472.40	67.88
472.58	60.85
472.77	9.36
472.95	49.15
473.13	56.17
473.31	100.64
473.49	39.79
473.67	56.17
473.85	65.54
474.03	79.58
474.21	117.03
474.39	105.32
474.57	79.58
474.75	32.77
474.93	77.24
475.12	72.56
475.30	30.43
475.48	60.85
475.66	72.56
475.84	28.09
476.02	84.26
476.20	81.92
476.38	25.75
476.56	21.06
476.74	0.00
476.92	86.60
477.10	32.77
477.28	77.24
477.46	11.70
477.64	98.30
477.82	112.35
478.00	91.28
478.18	67.88
478.36	65.54
478.54	70.22
478.72	110.01
478.90	18.72
479.08	72.56
479.26	11.70
479.44	49.15
479.62	58.51
479.80	77.24
479.98	49.15
480.16	98.30
480.34	49.15
480.52	79.58
480.70	93.62
480.88	18.72
481.06	84.26
481.24	105.32
481.41	98.30
481.59	159.16
481.77	9.36
481.95	128.73
482.13	79.58
482.31	93.62
482.49	100.64
482.67	63.19
482.85	4.68
483.03	23.41
483.21	60.85
483.39	44.47
483.57	81.92
483.74	138.09
483.92	70.22
484.10	84.26
484.28	23.41
484.46	112.35
484.64	175.54
484.82	163.84
485.00	51.49
485.18	39.79
485.35	98.30
485.53	72.56
485.71	0.00
485.89	46.81
486.07	28.09
486.25	70.22
486.43	23.41
486.61	7.02
486.78	32.77
486.96	114.69
487.14	51.49
487.32	49.15
487.50	42.13
487.68	135.75
487.85	79.58
488.03	86.60
488.21	37.45
488.39	93.62
488.57	70.22
488.75	110.01
488.92	128.73
489.10	121.71
489.28	105.32
489.46	18.72
489.64	100.64
489.81	126.39
489.99	72.56
490.17	21.06
490.35	58.51
490.53	107.66
490.70	84.26
490.88	79.58
491.06	30.43
491.24	112.35
491.41	39.79
491.59	88.94
491.77	46.81
491.95	121.71
492.13	102.98
492.30	93.62
492.48	93.62
492.66	72.56
492.84	112.35
493.01	37.45
493.19	110.01
493.37	121.71
493.54	51.49
493.72	124.05
493.90	28.09
494.08	117.03
494.25	63.19
494.43	58.51
494.61	131.07
494.79	81.92
494.96	28.09
495.14	14.04
495.32	81.92
495.49	42.13
495.67	138.09
495.85	124.05
496.02	112.35
496.20	189.58
496.38	84.26
496.55	58.51
496.73	86.60
496.91	28.09
497.09	84.26
497.26	37.45
497.44	86.60
497.62	58.51
497.79	114.69
497.97	46.81
498.14	124.05
498.32	72.56
498.50	35.11
498.67	16.38
498.85	84.26
499.03	63.19
499.20	16.38
499.38	114.69
499.56	91.28
499.73	114.69
499.91	117.03
500.08	93.62
500.26	81.92
500.44	63.19
500.61	51.49
500.79	95.96
500.97	60.85
501.14	117.03
501.32	51.49
501.49	65.54
501.67	194.26
501.84	91.28
502.02	119.37
502.20	0.00
502.37	159.16
502.55	0.00
502.72	28.09
502.90	102.98
503.07	84.26
503.25	46.81
503.43	140.43
503.60	98.30
503.78	121.71
503.95	77.24
504.13	142.77
504.30	88.94
504.48	53.83
504.65	42.13
504.83	121.71
505.01	53.83
505.18	138.09
505.36	72.56
505.53	67.88
505.71	100.64
505.88	72.56
506.06	142.77
506.23	65.54
506.41	168.52
506.58	110.01
506.76	79.58
506.93	46.81
507.11	77.24
507.28	98.30
507.46	112.35
507.63	37.45
507.81	63.19
507.98	58.51
508.16	67.88
508.33	60.85
508.50	67.88
508.68	105.32
508.85	152.13
509.03	65.54
509.20	100.64
509.38	35.11
509.55	21.06
509.73	32.77
509.90	81.92
510.08	93.62
510.25	18.72
510.42	44.47
510.60	0.00
510.77	147.45
510.95	86.60
511.12	145.11
511.30	60.85
511.47	79.58
511.64	107.66
511.82	84.26
511.99	135.75
512.17	30.43
512.34	128.73
512.51	88.94
512.69	63.19
512.86	105.32
513.04	86.60
513.21	65.54
513.38	86.60
513.56	81.92
513.73	117.03
513.90	35.11
514.08	100.64
514.25	70.22
514.43	131.07
514.60	81.92
514.77	86.60
514.95	93.62
515.12	147.45
515.29	67.88
515.47	147.45
515.64	135.75
515.81	102.98
515.99	84.26
516.16	49.15
516.33	91.28
516.51	91.28
516.68	77.24
516.85	14.04
517.03	86.60
517.20	128.73
517.37	98.30
517.54	63.19
517.72	133.41
517.89	86.60
518.06	53.83
518.24	28.09
518.41	124.05
518.58	126.39
518.75	30.43
518.93	32.77
519.10	74.90
519.27	63.19
519.45	49.15
519.62	39.79
519.79	0.00
519.96	102.98
520.14	93.62
520.31	42.13
520.48	49.15
520.65	84.26
520.83	107.66
521.00	28.09
521.17	100.64
521.34	53.83
521.52	91.28
521.69	77.24
521.86	60.85
522.03	72.56
522.20	65.54
522.38	42.13
522.55	51.49
522.72	53.83
522.89	145.11
523.07	72.56
523.24	72.56
523.41	16.38
523.58	112.35
523.75	88.94
523.92	56.17
524.10	102.98
524.27	63.19
524.44	72.56
524.61	93.62
524.78	86.60
524.96	105.32
525.13	32.77
525.30	86.60
525.47	119.37
525.64	37.45
525.81	110.01
525.98	88.94
526.16	79.58
526.33	28.09
526.50	23.41
526.67	81.92
526.84	84.26
527.01	95.96
527.18	21.06
527.36	91.28
527.53	60.85
527.70	112.35
527.87	117.03
528.04	98.30
528.21	91.28
528.38	44.47
528.55	81.92
528.72	112.35
528.89	110.01
529.07	0.00
529.24	114.69
529.41	95.96
529.58	35.11
529.75	65.54
529.92	154.48
530.09	145.11
530.26	65.54
530.43	98.30
530.60	149.79
530.77	152.13
530.94	140.43
531.11	114.69
531.28	67.88
531.46	28.09
531.63	110.01
531.80	72.56
531.97	42.13
532.14	39.79
532.31	107.66
532.48	88.94
532.65	170.86
532.82	65.54
532.99	42.13
533.16	35.11
533.33	128.73
533.50	53.83
533.67	135.75
533.84	51.49
534.01	28.09
534.18	119.37
534.35	14.04
534.52	105.32
534.69	112.35
534.86	63.19
535.03	163.84
535.20	44.47
535.37	42.13
535.54	133.41
535.71	91.28
535.88	74.90
536.05	51.49
536.22	102.98
536.38	131.07
536.55	91.28
536.72	128.73
536.89	53.83
537.06	81.92
537.23	79.58
537.40	42.13
537.57	93.62
537.74	79.58
537.91	107.66
538.08	128.73
538.25	138.09
538.42	95.96
538.59	126.39
538.75	124.05
538.92	100.64
539.09	93.62
539.26	128.73
539.43	77.24
539.60	35.11
539.77	119.37
539.94	95.96
540.11	126.39
540.28	135.75
540.44	91.28
540.61	102.98
540.78	60.85
540.95	18.72
541.12	32.77
541.29	67.88
541.46	67.88
541.62	84.26
541.79	65.54
541.96	74.90
542.13	128.73
542.30	86.60
542.47	70.22
542.63	49.15
542.80	65.54
542.97	35.11
543.14	95.96
543.31	131.07
543.48	156.82
543.64	154.48
543.81	142.77
543.98	86.60
544.15	110.01
544.32	121.71
544.48	67.88
544.65	51.49
544.82	58.51
544.99	37.45
545.16	112.35
545.32	65.54
545.49	77.24
545.66	95.96
545.83	74.90
546.00	98.30
546.16	44.47
546.33	67.88
546.50	0.00
546.67	102.98
546.83	65.54
547.00	39.79
547.17	18.72
547.34	102.98
547.50	114.69
547.67	28.09
547.84	56.17
548.00	93.62
548.17	93.62
548.34	114.69
548.51	98.30
548.67	42.13
548.84	93.62
549.01	65.54
549.18	133.41
549.34	58.51
549.51	110.01
549.68	100.64
549.84	149.79
550.01	119.37
550.18	51.49
550.34	91.28
550.51	70.22
550.68	95.96
550.84	58.51
551.01	154.48
551.18	60.85
551.34	105.32
551.51	149.79
551.68	23.41
551.84	91.28
552.01	42.13
552.18	70.22
552.34	49.15
552.51	102.98
552.68	16.38
552.84	79.58
553.01	102.98
553.18	60.85
553.34	25.75
553.51	42.13
553.67	35.11
553.84	131.07
554.01	100.64
554.17	84.26
554.34	30.43
554.51	46.81
554.67	105.32
554.84	88.94
555.00	35.11
555.17	7.02
555.33	163.84
555.50	30.43
555.67	121.71
555.83	65.54
556.00	49.15
556.16	93.62
556.33	77.24
556.50	81.92
556.66	102.98
556.83	9.36
556.99	21.06
557.16	67.88
557.32	77.24
557.49	95.96
557.65	67.88
557.82	107.66
557.98	81.92
558.15	81.92
558.32	161.50
558.48	60.85
558.65	102.98
558.81	110.01
558.98	32.77
559.14	91.28
559.31	93.62
559.47	51.49
559.64	107.66
559.80	112.35
559.97	84.26
560.13	53.83
560.30	128.73
560.46	184.90
560.63	126.39
560.79	133.41
560.96	88.94
561.12	39.79
561.29	91.28
561.45	65.54
561.61	128.73
561.78	67.88
561.94	46.81
562.11	42.13
562.27	0.00
562.44	102.98
562.60	72.56
562.77	23.41
562.93	138.09
563.10	102.98
563.26	88.94
563.42	74.90
563.59	154.48
563.75	95.96
563.92	67.88
564.08	170.86
564.24	93.62
564.41	110.01
564.57	95.96
564.74	117.03
564.90	72.56
565.07	86.60
565.23	100.64
565.39	114.69
565.56	28.09
565.72	51.49
565.88	18.72
566.05	138.09
566.21	110.01
566.38	91.28
566.54	159.16
566.70	102.98
566.87	84.26
567.03	77.24
567.19	72.56
567.36	138.09
567.52	63.19
567.68	4.68
567.85	0.00
568.01	72.56
568.17	49.15
568.34	114.69
568.50	142.77
568.66	140.43
568.83	63.19
568.99	25.75
569.15	70.22
569.32	100.64
569.48	63.19
569.64	91.28
569.81	42.13
569.97	91.28
570.13	46.81
570.30	11.70
570.46	65.54
570.62	121.71
570.78	145.11
570.95	14.04
571.11	53.83
571.27	51.49
571.43	84.26
571.60	121.71
571.76	74.90
571.92	105.32
572.09	135.75
572.25	95.96
572.41	84.26
572.57	49.15
572.74	86.60
572.90	65.54
573.06	88.94
573.22	95.96
573.38	119.37
573.55	53.83
573.71	0.00
573.87	128.73
574.03	124.05
574.20	60.85
574.36	11.70
574.52	98.30
574.68	77.24
574.84	128.73
575.01	39.79
575.17	60.85
575.33	128.73
575.49	117.03
575.65	112.35
575.82	42.13
575.98	117.03
576.14	95.96
576.30	18.72
576.46	53.83
576.62	39.79
576.79	65.54
576.95	49.15
577.11	110.01
577.27	79.58
577.43	102.98
577.59	37.45
577.75	58.51
577.92	42.13
578.08	81.92
578.24	124.05
578.40	49.15
578.56	28.09
578.72	119.37
578.88	98.30
579.04	128.73
579.21	44.47
579.37	60.85
579.53	86.60
579.69	49.15
579.85	93.62
580.01	39.79
580.17	81.92
580.33	95.96
580.49	46.81
580.65	100.64
580.82	117.03
580.98	86.60
581.14	51.49
581.30	93.62
581.46	163.84
581.62	56.17
581.78	49.15
581.94	135.75
582.10	131.07
582.26	42.13
582.42	60.85
582.58	16.38
582.74	56.17
582.90	72.56
583.06	65.54
583.22	23.41
583.38	112.35
583.54	16.38
583.70	58.51
583.86	91.28
584.02	79.58
584.18	65.54
584.34	58.51
584.50	95.96
584.66	93.62
584.82	110.01
584.98	67.88
585.14	72.56
585.30	72.56
585.46	102.98
585.62	147.45
585.78	7.02
585.94	18.72
586.10	100.64
586.26	121.71
586.42	28.09
586.58	74.90
586.74	93.62
586.90	74.90
587.06	37.45
587.22	51.49
587.38	79.58
587.54	49.15
587.70	56.17
587.86	72.56
588.02	30.43
588.18	21.06
588.34	140.43
588.49	72.56
588.65	105.32
588.81	63.19
588.97	53.83
589.13	28.09
589.29	100.64
589.45	110.01
589.61	11.70
589.77	63.19
589.93	100.64
590.08	107.66
590.24	131.07
590.40	86.60
590.56	117.03
590.72	100.64
590.88	124.05
591.04	67.88
591.20	93.62
591.35	37.45
591.51	63.19
591.67	60.85
591.83	21.06
591.99	21.06
592.15	100.64
592.31	60.85
592.46	110.01
592.62	67.88
592.78	25.75
592.94	49.15
593.10	28.09
593.26	110.01
593.41	147.45
593.57	39.79
593.73	49.15
593.89	65.54
594.05	65.54
594.20	70.22
594.36	49.15
594.52	74.90
594.68	21.06
594.84	74.90
594.99	72.56
595.15	107.66
595.31	114.69
595.47	170.86
595.62	110.01
595.78	30.43
595.94	86.60
596.10	51.49
596.25	91.28
596.41	98.30
596.57	93.62
596.73	79.58
596.88	88.94
597.04	79.58
597.20	86.60
597.36	67.88
597.51	117.03
597.67	39.79
597.83	63.19
597.99	56.17
598.14	110.01
598.30	44.47
598.46	86.60
598.61	70.22
598.77	37.45
598.93	170.86
599.09	21.06
599.24	86.60
599.40	105.32
599.56	58.51
599.71	74.90
599.87	121.71
600.03	21.06
600.18	2.34
600.34	39.79
600.50	35.11
600.65	18.72
600.81	72.56
600.97	88.94
601.12	65.54
601.28	128.73
601.44	95.96
601.59	128.73
601.75	81.92
601.91	7.02
602.06	32.77
602.22	147.45
602.37	91.28
602.53	7.02
602.69	86.60
602.84	84.26
603.00	0.00
603.16	51.49
603.31	81.92
603.47	70.22
603.62	21.06
603.78	67.88
603.94	58.51
604.09	91.28
604.25	0.00
604.40	128.73
604.56	119.37
604.71	86.60
604.87	65.54
605.03	46.81
605.18	63.19
605.34	14.04
605.49	42.13
605.65	30.43
605.80	72.56
605.96	28.09
606.12	65.54
606.27	100.64
606.43	98.30
606.58	25.75
606.74	79.58
606.89	81.92
607.05	35.11
607.20	67.88
607.36	65.54
607.51	173.20
607.67	86.60
607.82	72.56
607.98	49.15
608.13	56.17
608.29	84.26
608.44	131.07
608.60	86.60
608.75	124.05
608.91	163.84
609.06	140.43
609.22	112.35
609.37	88.94
609.53	70.22
609.68	102.98
609.84	119.37
609.99	77.24
610.15	51.49
610.30	21.06
610.46	63.19
610.61	77.24
610.76	88.94
610.92	133.41
611.07	100.64
611.23	60.85
611.38	81.92
611.54	100.64
611.69	79.58
611.84	0.00
612.00	102.98
612.15	74.90
612.31	102.98
612.46	0.00
612.62	72.56
612.77	46.81
612.92	84.26
613.08	170.86
613.23	131.07
613.39	28.09
613.54	39.79
613.69	28.09
613.85	114.69
614.00	16.38
614.15	60.85
614.31	35.11
614.46	84.26
614.62	53.83
614.77	119.37
614.92	46.81
615.08	124.05
615.23	100.64
615.38	42.13
615.54	23.41
615.69	63.19
615.84	21.06
616.00	112.35
616.15	107.66
616.30	72.56
616.46	147.45
616.61	91.28
616.76	49.15
616.92	91.28
617.07	63.19
617.22	14.04
617.37	72.56
617.53	0.00
617.68	51.49
617.83	35.11
617.99	28.09
618.14	44.47
618.29	39.79
618.45	110.01
618.60	63.19
618.75	46.81
618.90	37.45
619.06	32.77
619.21	25.75
619.36	100.64
619.51	74.90
619.67	84.26
619.82	121.71
619.97	88.94
620.12	70.22
620.28	25.75
620.43	84.26
620.58	110.01
620.73	58.51
620.89	9.36
621.04	30.43
621.19	117.03
621.34	53.83
621.49	49.15
621.65	16.38
621.80	65.54
621.95	58.51
622.10	107.66
622.25	65.54
622.41	42.13
622.56	30.43
622.71	4.68
622.86	32.77
623.01	65.54
623.16	23.41
623.32	51.49
623.47	86.60
623.62	110.01
623.77	14.04
623.92	121.71
624.07	77.24
624.23	112.35
624.38	63.19
624.53	74.90
624.68	102.98
624.83	117.03
624.98	91.28
625.13	23.41
625.29	74.90
625.44	63.19
625.59	65.54
625.74	56.17
625.89	37.45
626.04	93.62
626.19	46.81
626.34	70.22
626.49	46.81
626.65	32.77
626.80	67.88
626.95	46.81
627.10	133.41
627.25	56.17
627.40	25.75
627.55	44.47
627.70	23.41
627.85	163.84
628.00	23.41
628.15	51.49
628.30	95.96
628.45	2.34
628.60	18.72
628.76	39.79
628.91	91.28
629.06	114.69
629.21	72.56
629.36	56.17
629.51	117.03
629.66	0.00
629.81	0.00
629.96	25.75
630.11	32.77
630.26	58.51
630.41	126.39
630.56	84.26
630.71	14.04
630.86	9.36
631.01	70.22
631.16	124.05
631.31	79.58
631.46	0.00
631.61	37.45
631.76	91.28
631.91	91.28
632.06	39.79
632.21	58.51
632.36	0.00
632.51	79.58
632.66	4.68
632.81	53.83
632.96	112.35
633.10	46.81
633.25	81.92
633.40	56.17
633.55	77.24
633.70	65.54
633.85	124.05
634.00	119.37
634.15	53.83
634.30	67.88
634.45	42.13
634.60	53.83
634.75	93.62
634.90	0.00
635.05	23.41
635.19	105.32
635.34	35.11
635.49	72.56
635.64	32.77
635.79	131.07
635.94	63.19
636.09	42.13
636.24	14.04
636.39	7.02
636.53	58.51
636.68	56.17
636.83	65.54
636.98	102.98
637.13	35.11
637.28	14.04
637.43	53.83
637.57	42.13
637.72	166.18
637.87	105.32
638.02	39.79
638.17	105.32
638.32	56.17
638.46	44.47
638.61	74.90
638.76	93.62
638.91	67.88
639.06	51.49
639.20	37.45
639.35	79.58
639.50	63.19
639.65	39.79
639.80	72.56
639.94	32.77
640.09	28.09
640.24	53.83
640.39	72.56
640.54	11.70
640.68	4.68
640.83	79.58
640.98	0.00
641.13	58.51
641.27	42.13
641.42	58.51
641.57	74.90
641.72	110.01
641.86	77.24
642.01	91.28
642.16	98.30
642.31	63.19
642.45	65.54
642.60	60.85
642.75	81.92
642.90	56.17
643.04	67.88
643.19	53.83
643.34	142.77
643.48	149.79
643.63	46.81
643.78	46.81
643.93	131.07
644.07	70.22
644.22	42.13
644.37	30.43
644.51	63.19
644.66	95.96
644.81	46.81
644.95	86.60
645.10	42.13
645.25	30.43
645.39	135.75
645.54	63.19
645.69	53.83
645.83	7.02
645.98	9.36
646.13	18.72
646.27	30.43
646.42	53.83
646.57	112.35
646.71	147.45
646.86	74.90
647.00	98.30
647.15	65.54
647.30	100.64
647.44	32.77
647.59	81.92
647.74	16.38
647.88	65.54
648.03	72.56
648.17	133.41
648.32	0.00
648.47	30.43
648.61	39.79
648.76	42.13
648.90	42.13
649.05	105.32
649.20	37.45
649.34	51.49
649.49	42.13
649.63	65.54
649.78	95.96
649.92	30.43
650.07	79.58
650.21	65.54
650.36	84.26
650.51	39.79
650.65	0.00
650.80	35.11
650.94	0.00
651.09	44.47
651.23	84.26
651.38	72.56
651.52	0.00
651.67	42.13
651.81	32.77
651.96	79.58
652.10	35.11
652.25	16.38
652.39	77.24
652.54	28.09
652.68	84.26
652.83	140.43
652.97	133.41
653.12	18.72
653.26	0.00
653.41	28.09
653.55	49.15
653.70	84.26
653.84	77.24
653.99	42.13
654.13	53.83
654.27	16.38
654.42	0.00
654.56	23.41
654.71	11.70
654.85	37.45
655.00	23.41
655.14	39.79
655.29	91.28
655.43	105.32
655.57	102.98
655.72	95.96
655.86	30.43
656.01	32.77
656.15	0.00
656.30	77.24
656.44	35.11
656.58	74.90
656.73	42.13
656.87	72.56
657.01	37.45
657.16	44.47
657.30	91.28
657.45	49.15
657.59	42.13
657.73	2.34
657.88	121.71
658.02	4.68
658.16	21.06
658.31	67.88
658.45	138.09
658.60	11.70
658.74	100.64
658.88	39.79
659.03	42.13
659.17	35.11
659.31	121.71
659.46	53.83
659.60	30.43
659.74	14.04
659.89	25.75
660.03	0.00
660.17	58.51
660.32	9.36
660.46	9.36
660.60	14.04
660.74	0.00
660.89	49.15
661.03	11.70
661.17	39.79
661.32	0.00
661.46	95.96
661.60	112.35
661.74	51.49
661.89	23.41
662.03	58.51
662.17	88.94
662.31	42.13
662.46	74.90
662.60	2.34
662.74	7.02
662.88	56.17
663.03	79.58
663.17	0.00
663.31	35.11
663.45	77.24
663.60	21.06
663.74	23.41
663.88	28.09
664.02	53.83
664.17	14.04
664.31	70.22
664.45	72.56
664.59	39.79
664.73	70.22
664.88	95.96
665.02	91.28
665.16	70.22
665.30	53.83
665.44	67.88
665.59	32.77
665.73	70.22
665.87	16.38
666.01	67.88
666.15	32.77
666.29	42.13
666.44	18.72
666.58	49.15
666.72	93.62
666.86	39.79
667.00	18.72
667.14	46.81
667.28	53.83
667.43	65.54
667.57	58.51
667.71	28.09
667.85	0.00
667.99	0.00
668.13	21.06
668.27	46.81
668.41	93.62
668.56	88.94
668.70	77.24
668.84	67.88
668.98	21.06
669.12	2.34
669.26	67.88
669.40	46.81
669.54	91.28
669.68	23.41
669.82	56.17
669.96	7.02
670.10	4.68
670.25	21.06
670.39	11.70
670.53	9.36
670.67	0.00
670.81	63.19
670.95	46.81
671.09	0.00
671.23	0.00
671.37	11.70
671.51	49.15
671.65	65.54
671.79	56.17
671.93	30.43
672.07	16.38
672.21	23.41
672.35	30.43
672.49	2.34
672.63	74.90
672.77	30.43
672.91	4.68
673.05	30.43
673.19	65.54
673.33	49.15
673.47	35.11
673.61	131.07
673.75	91.28
673.89	32.77
674.03	65.54
674.17	44.47
674.31	28.09
674.45	51.49
674.59	95.96
674.73	79.58
674.87	63.19
675.01	74.90
675.15	16.38
675.29	42.13
675.43	56.17
675.56	42.13
675.70	2.34
675.84	18.72
675.98	35.11
676.12	93.62
676.26	0.00
676.40	11.70
676.54	32.77
676.68	131.07
676.82	112.35
676.96	88.94
677.10	37.45
677.23	39.79
677.37	23.41
677.51	30.43
677.65	86.60
677.79	30.43
677.93	114.69
678.07	70.22
678.21	53.83
678.34	53.83
678.48	70.22
678.62	86.60
678.76	37.45
678.90	88.94
679.04	0.00
679.18	23.41
679.31	72.56
679.45	93.62
679.59	77.24
679.73	117.03
679.87	28.09
680.00	102.98
680.14	30.43
680.28	28.09
680.42	18.72
680.56	0.00
680.70	112.35
680.83	70.22
680.97	18.72
681.11	23.41
681.25	100.64
681.39	91.28
681.52	37.45
681.66	0.00
681.80	81.92
681.94	0.00
682.07	30.43
682.21	65.54
682.35	98.30
682.49	114.69
682.62	98.30
682.76	51.49
682.90	72.56
683.04	39.79
683.17	21.06
683.31	84.26
683.45	21.06
683.59	49.15
683.72	46.81
683.86	21.06
684.00	23.41
684.13	42.13
684.27	67.88
684.41	98.30
684.55	16.38
684.68	60.85
684.82	7.02
684.96	16.38
685.09	0.00
685.23	28.09
685.37	0.00
685.50	32.77
685.64	39.79
685.78	112.35
685.91	74.90
686.05	65.54
686.19	67.88
686.32	0.00
686.46	21.06
686.60	70.22
686.73	42.13
686.87	28.09
687.01	42.13
687.14	23.41
687.28	49.15
687.42	0.00
687.55	51.49
687.69	0.00
687.82	74.90
687.96	53.83
688.10	65.54
688.23	126.39
688.37	53.83
688.50	14.04
688.64	0.00
688.78	0.00
688.91	51.49
689.05	63.19
689.18	95.96
689.32	39.79
689.46	86.60
689.59	49.15
689.73	28.09
689.86	0.00
690.00	53.83
690.13	39.79
690.27	30.43
690.41	88.94
690.54	0.00
690.68	88.94
690.81	74.90
690.95	9.36
691.08	0.00
691.22	49.15
691.35	44.47
691.49	21.06
691.62	81.92
691.76	49.15
691.89	16.38
692.03	32.77
692.16	18.72
692.30	65.54
692.43	35.11
692.57	0.00
692.70	4.68
692.84	58.51
692.97	2.34
693.11	30.43
693.24	0.00
693.38	0.00
693.51	16.38
693.65	0.00
693.78	32.77
693.92	53.83
694.05	95.96
694.19	28.09
694.32	35.11
694.45	56.17
694.59	9.36
694.72	53.83
694.86	0.00
694.99	0.00
695.13	35.11
695.26	0.00
695.39	32.77
695.53	0.00
695.66	9.36
695.80	126.39
695.93	95.96
696.07	2.34
696.20	0.00
696.33	2.34
696.47	14.04
696.60	21.06
696.73	0.00
696.87	53.83
697.00	39.79
697.14	0.00
697.27	4.68
697.40	0.00
697.54	0.00
697.67	63.19
697.80	0.00
697.94	7.02
698.07	70.22
698.21	39.79
698.34	58.51
698.47	39.79
698.61	0.00
698.74	35.11
698.87	14.04
699.01	9.36
699.14	114.69
699.27	30.43
699.40	46.81
699.54	14.04
699.67	18.72
699.80	2.34
699.94	60.85
700.07	133.41
700.20	56.17
700.34	60.85
700.47	37.45
700.60	21.06
700.73	95.96
700.87	16.38
701.00	0.00
701.13	110.01
701.26	63.19
701.40	53.83
701.53	63.19
701.66	30.43
701.79	9.36
701.93	63.19
702.06	84.26
702.19	16.38
702.32	18.72
702.46	16.38
702.59	58.51
702.72	44.47
702.85	72.56
702.99	4.68
703.12	79.58
703.25	0.00
703.38	23.41
703.51	32.77
703.65	2.34
703.78	0.00
703.91	46.81
704.04	39.79
704.17	58.51
704.31	23.41
704.44	11.70
704.57	28.09
704.70	98.30
704.83	60.85
704.96	98.30
705.10	42.13
705.23	9.36
>>>>>End Processed Spectral Data<<<<<
