SpectraSuite Data File
++++++++++++++++++++++++++++++++++++
Date: Fri Oct 04 12:13:26 GMT-05:00 2013
User: price-jones
Dark Spectrum Present: No
Reference Spectrum Present: No
Number of Sampled Component Spectra: 1
Spectrometers: USB2+H05261
Integration Time (usec): 10000 (USB2+H05261)
Spectra Averaged: 1 (USB2+H05261)
Boxcar Smoothing: 0 (USB2+H05261)
Correct for Electrical Dark: No (USB2+H05261)
Strobe/Lamp Enabled: No (USB2+H05261)
Correct for Detector Non-linearity: No (USB2+H05261)
Correct for Stray Light: No (USB2+H05261)
Number of Pixels in Processed Spectrum: 2048
>>>>>Begin Processed Spectral Data<<<<<
365.73	28.09
365.92	28.09
366.12	28.09
366.32	0.00
366.52	0.00
366.72	0.00
366.91	0.00
367.11	0.00
367.31	0.00
367.51	0.00
367.70	0.00
367.90	0.00
368.10	0.00
368.30	0.00
368.49	0.00
368.69	0.00
368.89	0.00
369.09	0.00
369.28	0.00
369.48	0.00
369.68	0.00
369.87	0.00
370.07	0.00
370.27	0.00
370.47	0.00
370.66	0.00
370.86	0.00
371.06	0.00
371.25	0.00
371.45	0.00
371.65	0.00
371.84	0.00
372.04	0.00
372.24	0.00
372.44	28.09
372.63	0.00
372.83	7.02
373.03	9.36
373.22	30.43
373.42	72.56
373.62	110.01
373.81	74.90
374.01	0.00
374.21	14.04
374.40	9.36
374.60	32.77
374.79	72.56
374.99	49.15
375.19	16.38
375.38	35.11
375.58	65.54
375.78	0.00
375.97	25.75
376.17	49.15
376.37	56.17
376.56	0.00
376.76	4.68
376.95	0.00
377.15	79.58
377.35	74.90
377.54	25.75
377.74	21.06
377.93	70.22
378.13	37.45
378.33	46.81
378.52	84.26
378.72	53.83
378.91	77.24
379.11	21.06
379.31	86.60
379.50	0.00
379.70	0.00
379.89	2.34
380.09	72.56
380.28	0.00
380.48	42.13
380.68	9.36
380.87	32.77
381.07	46.81
381.26	0.00
381.46	0.00
381.65	4.68
381.85	0.00
382.04	0.00
382.24	0.00
382.43	0.00
382.63	28.09
382.83	11.70
383.02	9.36
383.22	35.11
383.41	65.54
383.61	18.72
383.80	58.51
384.00	0.00
384.19	23.41
384.39	74.90
384.58	0.00
384.78	18.72
384.97	51.49
385.17	9.36
385.36	56.17
385.56	0.00
385.75	0.00
385.95	0.00
386.14	51.49
386.34	9.36
386.53	32.77
386.72	28.09
386.92	0.00
387.11	18.72
387.31	9.36
387.50	42.13
387.70	18.72
387.89	60.85
388.09	21.06
388.28	0.00
388.48	0.00
388.67	65.54
388.86	39.79
389.06	0.00
389.25	131.07
389.45	0.00
389.64	16.38
389.84	0.00
390.03	37.45
390.22	0.00
390.42	32.77
390.61	37.45
390.81	11.70
391.00	49.15
391.19	0.00
391.39	0.00
391.58	28.09
391.78	14.04
391.97	0.00
392.16	0.00
392.36	0.00
392.55	70.22
392.75	32.77
392.94	84.26
393.13	32.77
393.33	0.00
393.52	0.00
393.71	49.15
393.91	32.77
394.10	0.00
394.29	0.00
394.49	23.41
394.68	0.00
394.88	0.00
395.07	37.45
395.26	9.36
395.46	37.45
395.65	95.96
395.84	0.00
396.04	23.41
396.23	28.09
396.42	0.00
396.62	0.00
396.81	0.00
397.00	49.15
397.19	28.09
397.39	39.79
397.58	28.09
397.77	147.45
397.97	21.06
398.16	11.70
398.35	0.00
398.55	37.45
398.74	49.15
398.93	84.26
399.12	0.00
399.32	14.04
399.51	0.00
399.70	18.72
399.90	77.24
400.09	110.01
400.28	49.15
400.47	0.00
400.67	0.00
400.86	0.00
401.05	9.36
401.24	4.68
401.44	0.00
401.63	16.38
401.82	0.00
402.01	30.43
402.21	0.00
402.40	81.92
402.59	35.11
402.78	35.11
402.97	58.51
403.17	4.68
403.36	0.00
403.55	0.00
403.74	4.68
403.93	28.09
404.13	18.72
404.32	0.00
404.51	35.11
404.70	0.00
404.89	0.00
405.09	21.06
405.28	0.00
405.47	0.00
405.66	74.90
405.85	95.96
406.05	63.19
406.24	21.06
406.43	28.09
406.62	0.00
406.81	39.79
407.00	21.06
407.20	39.79
407.39	30.43
407.58	0.00
407.77	79.58
407.96	39.79
408.15	51.49
408.34	18.72
408.54	0.00
408.73	105.32
408.92	0.00
409.11	79.58
409.30	4.68
409.49	9.36
409.68	28.09
409.87	39.79
410.07	131.07
410.26	0.00
410.45	0.00
410.64	25.75
410.83	49.15
411.02	39.79
411.21	46.81
411.40	102.98
411.59	32.77
411.78	49.15
411.98	0.00
412.17	105.32
412.36	53.83
412.55	53.83
412.74	58.51
412.93	14.04
413.12	35.11
413.31	0.00
413.50	0.00
413.69	28.09
413.88	11.70
414.07	4.68
414.26	37.45
414.45	65.54
414.64	56.17
414.83	46.81
415.02	28.09
415.22	84.26
415.41	60.85
415.60	18.72
415.79	0.00
415.98	30.43
416.17	63.19
416.36	46.81
416.55	18.72
416.74	32.77
416.93	32.77
417.12	44.47
417.31	32.77
417.50	0.00
417.69	0.00
417.88	53.83
418.07	0.00
418.26	58.51
418.45	49.15
418.64	0.00
418.83	102.98
419.02	60.85
419.21	84.26
419.39	100.64
419.58	44.47
419.77	11.70
419.96	56.17
420.15	0.00
420.34	9.36
420.53	51.49
420.72	86.60
420.91	102.98
421.10	28.09
421.29	46.81
421.48	65.54
421.67	9.36
421.86	9.36
422.05	0.00
422.24	49.15
422.43	39.79
422.61	0.00
422.80	39.79
422.99	42.13
423.18	2.34
423.37	7.02
423.56	42.13
423.75	0.00
423.94	0.00
424.13	46.81
424.32	18.72
424.50	0.00
424.69	0.00
424.88	9.36
425.07	0.00
425.26	32.77
425.45	18.72
425.64	100.64
425.83	25.75
426.01	9.36
426.20	0.00
426.39	23.41
426.58	0.00
426.77	14.04
426.96	28.09
427.15	39.79
427.33	0.00
427.52	0.00
427.71	9.36
427.90	0.00
428.09	86.60
428.28	49.15
428.46	49.15
428.65	44.47
428.84	9.36
429.03	0.00
429.22	65.54
429.40	49.15
429.59	2.34
429.78	30.43
429.97	46.81
430.16	18.72
430.34	0.00
430.53	46.81
430.72	25.75
430.91	42.13
431.10	0.00
431.28	56.17
431.47	16.38
431.66	46.81
431.85	53.83
432.03	0.00
432.22	74.90
432.41	7.02
432.60	21.06
432.79	51.49
432.97	46.81
433.16	11.70
433.35	79.58
433.54	95.96
433.72	95.96
433.91	39.79
434.10	84.26
434.28	0.00
434.47	98.30
434.66	65.54
434.85	46.81
435.03	0.00
435.22	0.00
435.41	0.00
435.59	42.13
435.78	0.00
435.97	2.34
436.16	84.26
436.34	35.11
436.53	0.00
436.72	39.79
436.90	98.30
437.09	32.77
437.28	14.04
437.46	0.00
437.65	0.00
437.84	0.00
438.02	2.34
438.21	9.36
438.40	60.85
438.58	39.79
438.77	28.09
438.96	65.54
439.14	0.00
439.33	11.70
439.52	95.96
439.70	58.51
439.89	93.62
440.08	9.36
440.26	28.09
440.45	74.90
440.63	77.24
440.82	56.17
441.01	0.00
441.19	39.79
441.38	110.01
441.57	100.64
441.75	79.58
441.94	37.45
442.12	67.88
442.31	0.00
442.50	0.00
442.68	0.00
442.87	46.81
443.05	58.51
443.24	58.51
443.43	0.00
443.61	32.77
443.80	0.00
443.98	28.09
444.17	11.70
444.35	23.41
444.54	4.68
444.73	16.38
444.91	65.54
445.10	39.79
445.28	42.13
445.47	11.70
445.65	60.85
445.84	18.72
446.02	42.13
446.21	0.00
446.39	0.00
446.58	53.83
446.77	0.00
446.95	28.09
447.14	53.83
447.32	49.15
447.51	84.26
447.69	30.43
447.88	119.37
448.06	102.98
448.25	21.06
448.43	16.38
448.62	0.00
448.80	53.83
448.99	65.54
449.17	44.47
449.36	0.00
449.54	67.88
449.73	84.26
449.91	7.02
450.10	9.36
450.28	37.45
450.46	81.92
450.65	44.47
450.83	42.13
451.02	0.00
451.20	37.45
451.39	32.77
451.57	9.36
451.76	32.77
451.94	11.70
452.13	0.00
452.31	30.43
452.49	0.00
452.68	70.22
452.86	46.81
453.05	39.79
453.23	65.54
453.42	42.13
453.60	35.11
453.78	72.56
453.97	70.22
454.15	28.09
454.34	74.90
454.52	98.30
454.70	28.09
454.89	28.09
455.07	35.11
455.26	86.60
455.44	21.06
455.62	18.72
455.81	42.13
455.99	0.00
456.17	42.13
456.36	44.47
456.54	105.32
456.73	70.22
456.91	51.49
457.09	32.77
457.28	32.77
457.46	0.00
457.64	35.11
457.83	51.49
458.01	67.88
458.19	2.34
458.38	0.00
458.56	0.00
458.74	7.02
458.93	0.00
459.11	0.00
459.29	16.38
459.48	42.13
459.66	23.41
459.84	9.36
460.03	95.96
460.21	44.47
460.39	0.00
460.57	72.56
460.76	0.00
460.94	23.41
461.12	7.02
461.31	11.70
461.49	30.43
461.67	37.45
461.85	2.34
462.04	16.38
462.22	74.90
462.40	49.15
462.59	11.70
462.77	0.00
462.95	14.04
463.13	25.75
463.32	0.00
463.50	67.88
463.68	46.81
463.86	35.11
464.05	25.75
464.23	9.36
464.41	67.88
464.59	81.92
464.78	0.00
464.96	74.90
465.14	81.92
465.32	9.36
465.50	14.04
465.69	21.06
465.87	21.06
466.05	0.00
466.23	4.68
466.41	16.38
466.60	0.00
466.78	35.11
466.96	23.41
467.14	7.02
467.32	0.00
467.51	23.41
467.69	95.96
467.87	0.00
468.05	95.96
468.23	25.75
468.41	0.00
468.60	0.00
468.78	30.43
468.96	86.60
469.14	0.00
469.32	0.00
469.50	14.04
469.69	0.00
469.87	95.96
470.05	28.09
470.23	138.09
470.41	56.17
470.59	30.43
470.77	133.41
470.95	0.00
471.14	60.85
471.32	58.51
471.50	42.13
471.68	39.79
471.86	102.98
472.04	63.19
472.22	84.26
472.40	32.77
472.58	51.49
472.77	18.72
472.95	72.56
473.13	84.26
473.31	91.28
473.49	11.70
473.67	74.90
473.85	65.54
474.03	42.13
474.21	14.04
474.39	23.41
474.57	86.60
474.75	88.94
474.93	11.70
475.12	28.09
475.30	32.77
475.48	0.00
475.66	9.36
475.84	93.62
476.02	91.28
476.20	21.06
476.38	28.09
476.56	9.36
476.74	124.05
476.92	56.17
477.10	49.15
477.28	77.24
477.46	0.00
477.64	114.69
477.82	42.13
478.00	91.28
478.18	42.13
478.36	18.72
478.54	81.92
478.72	86.60
478.90	0.00
479.08	110.01
479.26	63.19
479.44	7.02
479.62	9.36
479.80	63.19
479.98	28.09
480.16	30.43
480.34	37.45
480.52	18.72
480.70	0.00
480.88	9.36
481.06	60.85
481.24	58.51
481.41	32.77
481.59	7.02
481.77	65.54
481.95	63.19
482.13	25.75
482.31	11.70
482.49	77.24
482.67	28.09
482.85	18.72
483.03	9.36
483.21	67.88
483.39	32.77
483.57	30.43
483.74	44.47
483.92	46.81
484.10	67.88
484.28	0.00
484.46	72.56
484.64	0.00
484.82	39.79
485.00	56.17
485.18	35.11
485.35	0.00
485.53	28.09
485.71	65.54
485.89	56.17
486.07	0.00
486.25	0.00
486.43	44.47
486.61	18.72
486.78	35.11
486.96	11.70
487.14	65.54
487.32	25.75
487.50	18.72
487.68	67.88
487.85	56.17
488.03	46.81
488.21	21.06
488.39	56.17
488.57	65.54
488.75	74.90
488.92	84.26
489.10	81.92
489.28	0.00
489.46	72.56
489.64	119.37
489.81	23.41
489.99	25.75
490.17	0.00
490.35	44.47
490.53	9.36
490.70	14.04
490.88	0.00
491.06	16.38
491.24	42.13
491.41	30.43
491.59	46.81
491.77	0.00
491.95	81.92
492.13	67.88
492.30	21.06
492.48	35.11
492.66	25.75
492.84	79.58
493.01	0.00
493.19	93.62
493.37	37.45
493.54	0.00
493.72	0.00
493.90	65.54
494.08	28.09
494.25	112.35
494.43	32.77
494.61	51.49
494.79	58.51
494.96	16.38
495.14	70.22
495.32	7.02
495.49	0.00
495.67	28.09
495.85	44.47
496.02	65.54
496.20	58.51
496.38	0.00
496.55	88.94
496.73	23.41
496.91	53.83
497.09	63.19
497.26	21.06
497.44	44.47
497.62	0.00
497.79	49.15
497.97	0.00
498.14	23.41
498.32	74.90
498.50	32.77
498.67	0.00
498.85	42.13
499.03	30.43
499.20	37.45
499.38	102.98
499.56	0.00
499.73	4.68
499.91	67.88
500.08	46.81
500.26	23.41
500.44	114.69
500.61	23.41
500.79	46.81
500.97	25.75
501.14	86.60
501.32	72.56
501.49	4.68
501.67	65.54
501.84	49.15
502.02	112.35
502.20	65.54
502.37	58.51
502.55	28.09
502.72	0.00
502.90	0.00
503.07	0.00
503.25	0.00
503.43	63.19
503.60	65.54
503.78	9.36
503.95	25.75
504.13	37.45
504.30	58.51
504.48	37.45
504.65	46.81
504.83	65.54
505.01	35.11
505.18	63.19
505.36	42.13
505.53	37.45
505.71	95.96
505.88	0.00
506.06	18.72
506.23	42.13
506.41	21.06
506.58	16.38
506.76	9.36
506.93	32.77
507.11	25.75
507.28	46.81
507.46	105.32
507.63	77.24
507.81	63.19
507.98	30.43
508.16	16.38
508.33	35.11
508.50	30.43
508.68	4.68
508.85	60.85
509.03	0.00
509.20	65.54
509.38	7.02
509.55	0.00
509.73	42.13
509.90	18.72
510.08	46.81
510.25	23.41
510.42	72.56
510.60	28.09
510.77	39.79
510.95	0.00
511.12	93.62
511.30	0.00
511.47	81.92
511.64	107.66
511.82	49.15
511.99	117.03
512.17	58.51
512.34	23.41
512.51	67.88
512.69	51.49
512.86	51.49
513.04	25.75
513.21	18.72
513.38	16.38
513.56	2.34
513.73	35.11
513.90	0.00
514.08	28.09
514.25	0.00
514.43	0.00
514.60	74.90
514.77	16.38
514.95	110.01
515.12	84.26
515.29	53.83
515.47	18.72
515.64	67.88
515.81	86.60
515.99	56.17
516.16	16.38
516.33	51.49
516.51	11.70
516.68	30.43
516.85	4.68
517.03	14.04
517.20	23.41
517.37	18.72
517.54	53.83
517.72	39.79
517.89	72.56
518.06	23.41
518.24	2.34
518.41	37.45
518.58	4.68
518.75	65.54
518.93	18.72
519.10	79.58
519.27	28.09
519.45	51.49
519.62	44.47
519.79	0.00
519.96	25.75
520.14	28.09
520.31	21.06
520.48	37.45
520.65	49.15
520.83	0.00
521.00	21.06
521.17	63.19
521.34	39.79
521.52	7.02
521.69	0.00
521.86	32.77
522.03	46.81
522.20	28.09
522.38	46.81
522.55	124.05
522.72	77.24
522.89	119.37
523.07	58.51
523.24	65.54
523.41	79.58
523.58	28.09
523.75	9.36
523.92	77.24
524.10	84.26
524.27	9.36
524.44	49.15
524.61	0.00
524.78	0.00
524.96	60.85
525.13	95.96
525.30	18.72
525.47	0.00
525.64	102.98
525.81	91.28
525.98	42.13
526.16	84.26
526.33	46.81
526.50	37.45
526.67	88.94
526.84	44.47
527.01	0.00
527.18	74.90
527.36	14.04
527.53	28.09
527.70	58.51
527.87	23.41
528.04	32.77
528.21	7.02
528.38	74.90
528.55	93.62
528.72	18.72
528.89	32.77
529.07	39.79
529.24	81.92
529.41	35.11
529.58	0.00
529.75	56.17
529.92	77.24
530.09	63.19
530.26	14.04
530.43	119.37
530.60	25.75
530.77	60.85
530.94	11.70
531.11	100.64
531.28	30.43
531.46	35.11
531.63	63.19
531.80	67.88
531.97	28.09
532.14	23.41
532.31	39.79
532.48	67.88
532.65	16.38
532.82	21.06
532.99	2.34
533.16	44.47
533.33	39.79
533.50	0.00
533.67	60.85
533.84	81.92
534.01	102.98
534.18	46.81
534.35	0.00
534.52	46.81
534.69	0.00
534.86	42.13
535.03	30.43
535.20	0.00
535.37	93.62
535.54	18.72
535.71	39.79
535.88	81.92
536.05	7.02
536.22	0.00
536.38	39.79
536.55	128.73
536.72	7.02
536.89	35.11
537.06	46.81
537.23	0.00
537.40	14.04
537.57	49.15
537.74	0.00
537.91	0.00
538.08	0.00
538.25	65.54
538.42	21.06
538.59	44.47
538.75	0.00
538.92	0.00
539.09	0.00
539.26	39.79
539.43	70.22
539.60	81.92
539.77	117.03
539.94	191.92
540.11	154.48
540.28	102.98
540.44	21.06
540.61	74.90
540.78	16.38
540.95	28.09
541.12	84.26
541.29	0.00
541.46	32.77
541.62	0.00
541.79	37.45
541.96	42.13
542.13	51.49
542.30	42.13
542.47	37.45
542.63	21.06
542.80	32.77
542.97	0.00
543.14	30.43
543.31	0.00
543.48	2.34
543.64	74.90
543.81	74.90
543.98	32.77
544.15	0.00
544.32	42.13
544.48	0.00
544.65	23.41
544.82	49.15
544.99	84.26
545.16	88.94
545.32	121.71
545.49	58.51
545.66	79.58
545.83	42.13
546.00	67.88
546.16	44.47
546.33	46.81
546.50	4.68
546.67	28.09
546.83	58.51
547.00	28.09
547.17	0.00
547.34	0.00
547.50	51.49
547.67	23.41
547.84	79.58
548.00	42.13
548.17	11.70
548.34	30.43
548.51	35.11
548.67	0.00
548.84	30.43
549.01	14.04
549.18	37.45
549.34	58.51
549.51	9.36
549.68	0.00
549.84	16.38
550.01	42.13
550.18	21.06
550.34	42.13
550.51	0.00
550.68	60.85
550.84	37.45
551.01	30.43
551.18	39.79
551.34	23.41
551.51	32.77
551.68	72.56
551.84	46.81
552.01	30.43
552.18	58.51
552.34	0.00
552.51	14.04
552.68	63.19
552.84	114.69
553.01	81.92
553.18	23.41
553.34	35.11
553.51	42.13
553.67	79.58
553.84	11.70
554.01	72.56
554.17	28.09
554.34	56.17
554.51	67.88
554.67	88.94
554.84	63.19
555.00	44.47
555.17	65.54
555.33	28.09
555.50	2.34
555.67	63.19
555.83	49.15
556.00	74.90
556.16	79.58
556.33	0.00
556.50	60.85
556.66	0.00
556.83	18.72
556.99	0.00
557.16	35.11
557.32	21.06
557.49	56.17
557.65	51.49
557.82	30.43
557.98	0.00
558.15	46.81
558.32	63.19
558.48	46.81
558.65	23.41
558.81	86.60
558.98	51.49
559.14	32.77
559.31	86.60
559.47	9.36
559.64	30.43
559.80	7.02
559.97	32.77
560.13	51.49
560.30	81.92
560.46	39.79
560.63	77.24
560.79	30.43
560.96	18.72
561.12	0.00
561.29	56.17
561.45	114.69
561.61	2.34
561.78	105.32
561.94	37.45
562.11	0.00
562.27	14.04
562.44	58.51
562.60	107.66
562.77	0.00
562.93	58.51
563.10	0.00
563.26	63.19
563.42	93.62
563.59	53.83
563.75	84.26
563.92	30.43
564.08	28.09
564.24	65.54
564.41	46.81
564.57	88.94
564.74	93.62
564.90	77.24
565.07	133.41
565.23	4.68
565.39	46.81
565.56	0.00
565.72	88.94
565.88	65.54
566.05	28.09
566.21	0.00
566.38	63.19
566.54	86.60
566.70	79.58
566.87	60.85
567.03	30.43
567.19	30.43
567.36	18.72
567.52	0.00
567.68	0.00
567.85	42.13
568.01	18.72
568.17	58.51
568.34	102.98
568.50	4.68
568.66	32.77
568.83	119.37
568.99	9.36
569.15	67.88
569.32	86.60
569.48	51.49
569.64	28.09
569.81	67.88
569.97	86.60
570.13	7.02
570.30	107.66
570.46	35.11
570.62	14.04
570.78	98.30
570.95	67.88
571.11	56.17
571.27	39.79
571.43	0.00
571.60	11.70
571.76	65.54
571.92	46.81
572.09	39.79
572.25	21.06
572.41	70.22
572.57	107.66
572.74	65.54
572.90	11.70
573.06	11.70
573.22	65.54
573.38	53.83
573.55	93.62
573.71	117.03
573.87	25.75
574.03	77.24
574.20	0.00
574.36	35.11
574.52	32.77
574.68	72.56
574.84	14.04
575.01	58.51
575.17	18.72
575.33	0.00
575.49	35.11
575.65	7.02
575.82	35.11
575.98	39.79
576.14	84.26
576.30	91.28
576.46	131.07
576.62	77.24
576.79	114.69
576.95	56.17
577.11	42.13
577.27	65.54
577.43	70.22
577.59	49.15
577.75	11.70
577.92	53.83
578.08	56.17
578.24	60.85
578.40	16.38
578.56	0.00
578.72	42.13
578.88	44.47
579.04	42.13
579.21	7.02
579.37	46.81
579.53	16.38
579.69	44.47
579.85	0.00
580.01	46.81
580.17	46.81
580.33	0.00
580.49	121.71
580.65	88.94
580.82	63.19
580.98	32.77
581.14	79.58
581.30	65.54
581.46	140.43
581.62	58.51
581.78	46.81
581.94	72.56
582.10	23.41
582.26	25.75
582.42	14.04
582.58	74.90
582.74	35.11
582.90	32.77
583.06	35.11
583.22	65.54
583.38	44.47
583.54	77.24
583.70	91.28
583.86	67.88
584.02	65.54
584.18	56.17
584.34	79.58
584.50	205.97
584.66	1483.90
584.82	3536.55
584.98	5071.94
585.14	4791.08
585.30	2911.63
585.46	1682.85
585.62	1163.25
585.78	552.37
585.94	220.01
586.10	65.54
586.26	163.84
586.42	65.54
586.58	102.98
586.74	56.17
586.90	100.64
587.06	86.60
587.22	4.68
587.38	21.06
587.54	140.43
587.70	203.63
587.86	353.42
588.02	425.98
588.18	327.68
588.34	203.63
588.49	112.35
588.65	102.98
588.81	60.85
588.97	30.43
589.13	35.11
589.29	42.13
589.45	44.47
589.61	81.92
589.77	46.81
589.93	79.58
590.08	32.77
590.24	18.72
590.40	4.68
590.56	11.70
590.72	107.66
590.88	79.58
591.04	91.28
591.20	23.41
591.35	98.30
591.51	102.98
591.67	77.24
591.83	53.83
591.99	51.49
592.15	65.54
592.31	95.96
592.46	63.19
592.62	37.45
592.78	14.04
592.94	7.02
593.10	0.00
593.26	72.56
593.41	51.49
593.57	32.77
593.73	25.75
593.89	222.35
594.05	444.70
594.20	706.84
594.36	622.58
594.52	535.98
594.68	313.63
594.84	266.82
594.99	156.82
595.15	88.94
595.31	93.62
595.47	28.09
595.62	0.00
595.78	77.24
595.94	44.47
596.10	56.17
596.25	0.00
596.41	53.83
596.57	72.56
596.73	98.30
596.88	58.51
597.04	84.26
597.20	217.67
597.36	166.18
597.51	210.65
597.67	147.45
597.83	152.13
597.99	51.49
598.14	14.04
598.30	0.00
598.46	51.49
598.61	42.13
598.77	110.01
598.93	28.09
599.09	11.70
599.24	16.38
599.40	74.90
599.56	39.79
599.71	67.88
599.87	18.72
600.03	93.62
600.18	65.54
600.34	21.06
600.50	14.04
600.65	35.11
600.81	0.00
600.97	152.13
601.12	0.00
601.28	51.49
601.44	16.38
601.59	32.77
601.75	0.00
601.91	35.11
602.06	39.79
602.22	72.56
602.37	35.11
602.53	100.64
602.69	212.99
602.84	170.86
603.00	100.64
603.16	95.96
603.31	86.60
603.47	72.56
603.62	86.60
603.78	18.72
603.94	0.00
604.09	86.60
604.25	56.17
604.40	46.81
604.56	53.83
604.71	79.58
604.87	37.45
605.03	35.11
605.18	58.51
605.34	84.26
605.49	32.77
605.65	65.54
605.80	0.00
605.96	21.06
606.12	4.68
606.27	49.15
606.43	58.51
606.58	119.37
606.74	124.05
606.89	248.10
607.05	517.26
607.20	585.13
607.36	456.40
607.51	383.85
607.67	264.48
607.82	170.86
607.98	65.54
608.13	65.54
608.29	0.00
608.44	37.45
608.60	51.49
608.75	49.15
608.91	117.03
609.06	390.87
609.22	744.29
609.37	978.34
609.53	844.93
609.68	617.90
609.84	327.68
609.99	243.42
610.15	142.77
610.30	93.62
610.46	0.00
610.61	49.15
610.76	25.75
610.92	30.43
611.07	35.11
611.23	2.34
611.38	65.54
611.54	0.00
611.69	58.51
611.84	23.41
612.00	63.19
612.15	42.13
612.31	44.47
612.46	28.09
612.62	16.38
612.77	72.56
612.92	93.62
613.08	30.43
613.23	0.00
613.39	67.88
613.54	51.49
613.69	351.08
613.85	994.73
614.00	1486.24
614.15	1437.09
614.31	1151.54
614.46	692.80
614.62	500.87
614.77	271.50
614.92	138.09
615.08	60.85
615.23	102.98
615.38	135.75
615.54	7.02
615.69	102.98
615.84	161.50
616.00	315.97
616.15	423.64
616.30	360.44
616.46	250.44
616.61	140.43
616.76	124.05
616.92	51.49
617.07	32.77
617.22	67.88
617.37	42.13
617.53	23.41
617.68	37.45
617.83	0.00
617.99	11.70
618.14	77.24
618.29	65.54
618.45	44.47
618.60	32.77
618.75	63.19
618.90	58.51
619.06	114.69
619.21	51.49
619.36	11.70
619.51	93.62
619.67	65.54
619.82	30.43
619.97	14.04
620.12	37.45
620.28	91.28
620.43	35.11
620.58	21.06
620.73	46.81
620.89	86.60
621.04	16.38
621.19	177.88
621.34	238.73
621.49	252.78
621.65	238.73
621.80	95.96
621.95	114.69
622.10	81.92
622.25	91.28
622.41	138.09
622.56	70.22
622.71	70.22
622.86	18.72
623.01	0.00
623.16	67.88
623.32	30.43
623.47	58.51
623.62	58.51
623.77	53.83
623.92	44.47
624.07	35.11
624.23	9.36
624.38	102.98
624.53	0.00
624.68	79.58
624.83	14.04
624.98	72.56
625.13	70.22
625.29	35.11
625.44	72.56
625.59	112.35
625.74	51.49
625.89	58.51
626.04	142.77
626.19	491.51
626.34	826.21
626.49	854.30
626.65	697.48
626.80	411.93
626.95	313.63
627.10	175.54
627.25	28.09
627.40	44.47
627.55	67.88
627.70	70.22
627.85	7.02
628.00	25.75
628.15	51.49
628.30	18.72
628.45	32.77
628.60	74.90
628.76	86.60
628.91	0.00
629.06	102.98
629.21	14.04
629.36	91.28
629.51	0.00
629.66	35.11
629.81	81.92
629.96	163.84
630.11	241.08
630.26	245.76
630.41	147.45
630.56	175.54
630.71	156.82
630.86	147.45
631.01	42.13
631.16	84.26
631.31	72.56
631.46	39.79
631.61	2.34
631.76	98.30
631.91	65.54
632.06	9.36
632.21	35.11
632.36	63.19
632.51	39.79
632.66	56.17
632.81	140.43
632.96	269.16
633.10	479.81
633.25	613.22
633.40	521.94
633.55	250.44
633.70	208.31
633.85	107.66
634.00	166.18
634.15	117.03
634.30	93.62
634.45	30.43
634.60	65.54
634.75	39.79
634.90	0.00
635.05	63.19
635.19	28.09
635.34	88.94
635.49	44.47
635.64	53.83
635.79	0.00
635.94	95.96
636.09	30.43
636.24	2.34
636.39	58.51
636.53	35.11
636.68	39.79
636.83	91.28
636.98	51.49
637.13	21.06
637.28	77.24
637.43	21.06
637.57	124.05
637.72	241.08
637.87	629.60
638.02	952.60
638.17	1086.01
638.32	741.95
638.46	566.41
638.61	386.19
638.76	262.14
638.91	149.79
639.06	39.79
639.20	58.51
639.35	51.49
639.50	84.26
639.65	374.49
639.80	856.64
639.94	1486.24
640.09	1584.54
640.24	1200.69
640.39	856.64
640.54	620.24
640.68	330.02
640.83	182.56
640.98	88.94
641.13	46.81
641.27	74.90
641.42	30.43
641.57	98.30
641.72	60.85
641.86	110.01
642.01	58.51
642.16	84.26
642.31	39.79
642.45	56.17
642.60	4.68
642.75	58.51
642.90	23.41
643.04	84.26
643.19	37.45
643.34	35.11
643.48	53.83
643.63	88.94
643.78	58.51
643.93	131.07
644.07	23.41
644.22	93.62
644.37	28.09
644.51	39.79
644.66	14.04
644.81	7.02
644.95	11.70
645.10	0.00
645.25	32.77
645.39	79.58
645.54	93.62
645.69	72.56
645.83	16.38
645.98	25.75
646.13	25.75
646.27	37.45
646.42	0.00
646.57	0.00
646.71	14.04
646.86	72.56
647.00	44.47
647.15	9.36
647.30	4.68
647.44	84.26
647.59	25.75
647.74	81.92
647.88	49.15
648.03	9.36
648.17	70.22
648.32	7.02
648.47	58.51
648.61	112.35
648.76	74.90
648.90	93.62
649.05	58.51
649.20	18.72
649.34	21.06
649.49	35.11
649.63	25.75
649.78	14.04
649.92	88.94
650.07	102.98
650.21	374.49
650.36	664.71
650.51	887.06
650.65	702.16
650.80	517.26
650.94	400.23
651.09	313.63
651.23	163.84
651.38	88.94
651.52	14.04
651.67	30.43
651.81	0.00
651.96	0.00
652.10	0.00
652.25	98.30
652.39	32.77
652.54	67.88
652.68	93.62
652.83	128.73
652.97	276.18
653.12	287.89
653.26	315.97
653.41	280.86
653.55	168.52
653.70	86.60
653.84	60.85
653.99	95.96
654.13	0.00
654.27	23.41
654.42	37.45
654.56	56.17
654.71	0.00
654.85	56.17
655.00	0.00
655.14	0.00
655.29	2.34
655.43	77.24
655.57	0.00
655.72	105.32
655.86	44.47
656.01	23.41
656.15	0.00
656.30	35.11
656.44	0.00
656.58	86.60
656.73	14.04
656.87	14.04
657.01	105.32
657.16	37.45
657.30	7.02
657.45	63.19
657.59	23.41
657.73	86.60
657.88	16.38
658.02	53.83
658.16	30.43
658.31	23.41
658.45	56.17
658.60	37.45
658.74	42.13
658.88	4.68
659.03	49.15
659.17	9.36
659.31	9.36
659.46	210.65
659.60	404.91
659.74	355.76
659.89	507.90
660.03	285.55
660.17	208.31
660.32	142.77
660.46	60.85
660.60	51.49
660.74	0.00
660.89	21.06
661.03	0.00
661.17	0.00
661.32	0.00
661.46	14.04
661.60	4.68
661.74	42.13
661.89	25.75
662.03	46.81
662.17	0.00
662.31	0.00
662.46	23.41
662.60	28.09
662.74	102.98
662.88	32.77
663.03	60.85
663.17	14.04
663.31	4.68
663.45	81.92
663.60	79.58
663.74	72.56
663.88	86.60
664.02	2.34
664.17	42.13
664.31	60.85
664.45	70.22
664.59	0.00
664.73	0.00
664.88	0.00
665.02	14.04
665.16	14.04
665.30	70.22
665.44	16.38
665.59	67.88
665.73	65.54
665.87	28.09
666.01	51.49
666.15	114.69
666.29	14.04
666.44	84.26
666.58	58.51
666.72	14.04
666.86	0.00
667.00	25.75
667.14	4.68
667.28	142.77
667.43	341.72
667.57	660.03
667.71	744.29
667.85	638.97
667.99	470.45
668.13	269.16
668.27	222.35
668.41	100.64
668.56	77.24
668.70	39.79
668.84	32.77
668.98	32.77
669.12	28.09
669.26	74.90
669.40	65.54
669.54	25.75
669.68	28.09
669.82	4.68
669.96	95.96
670.10	4.68
670.25	16.38
670.39	56.17
670.53	42.13
670.67	16.38
670.81	0.00
670.95	70.22
671.09	91.28
671.23	128.73
671.37	320.65
671.51	447.04
671.65	489.17
671.79	322.99
671.93	313.63
672.07	227.03
672.21	124.05
672.35	70.22
672.49	53.83
672.63	18.72
672.77	2.34
672.91	63.19
673.05	63.19
673.19	0.00
673.33	28.09
673.47	35.11
673.61	98.30
673.75	42.13
673.89	4.68
674.03	70.22
674.17	42.13
674.31	0.00
674.45	44.47
674.59	46.81
674.73	2.34
674.87	0.00
675.01	49.15
675.15	67.88
675.29	32.77
675.43	72.56
675.56	49.15
675.70	0.00
675.84	46.81
675.98	0.00
676.12	42.13
676.26	0.00
676.40	42.13
676.54	16.38
676.68	0.00
676.82	79.58
676.96	11.70
677.10	119.37
677.23	18.72
677.37	23.41
677.51	35.11
677.65	65.54
677.79	42.13
677.93	23.41
678.07	72.56
678.21	32.77
678.34	21.06
678.48	88.94
678.62	23.41
678.76	49.15
678.90	16.38
679.04	0.00
679.18	95.96
679.31	7.02
679.45	18.72
679.59	32.77
679.73	84.26
679.87	46.81
680.00	88.94
680.14	0.00
680.28	37.45
680.42	46.81
680.56	53.83
680.70	21.06
680.83	63.19
680.97	65.54
681.11	56.17
681.25	21.06
681.39	86.60
681.52	14.04
681.66	37.45
681.80	30.43
681.94	32.77
682.07	30.43
682.21	21.06
682.35	84.26
682.49	7.02
682.62	28.09
682.76	77.24
682.90	67.88
683.04	21.06
683.17	0.00
683.31	60.85
683.45	56.17
683.59	23.41
683.72	0.00
683.86	11.70
684.00	53.83
684.13	7.02
684.27	67.88
684.41	0.00
684.55	56.17
684.68	9.36
684.82	60.85
684.96	2.34
685.09	0.00
685.23	0.00
685.37	0.00
685.50	51.49
685.64	72.56
685.78	14.04
685.91	42.13
686.05	25.75
686.19	39.79
686.32	28.09
686.46	0.00
686.60	0.00
686.73	21.06
686.87	0.00
687.01	60.85
687.14	28.09
687.28	79.58
687.42	9.36
687.55	51.49
687.69	23.41
687.82	65.54
687.96	51.49
688.10	0.00
688.23	23.41
688.37	0.00
688.50	74.90
688.64	4.68
688.78	9.36
688.91	63.19
689.05	4.68
689.18	28.09
689.32	14.04
689.46	35.11
689.59	0.00
689.73	2.34
689.86	21.06
690.00	7.02
690.13	0.00
690.27	7.02
690.41	49.15
690.54	21.06
690.68	9.36
690.81	28.09
690.95	18.72
691.08	70.22
691.22	21.06
691.35	0.00
691.49	63.19
691.62	0.00
691.76	11.70
691.89	0.00
692.03	7.02
692.16	35.11
692.30	0.00
692.43	63.19
692.57	175.54
692.70	264.48
692.84	334.70
692.97	304.27
693.11	238.73
693.24	156.82
693.38	220.01
693.51	60.85
693.65	2.34
693.78	7.02
693.92	37.45
694.05	84.26
694.19	107.66
694.32	0.00
694.45	0.00
694.59	14.04
694.72	14.04
694.86	11.70
694.99	44.47
695.13	93.62
695.26	0.00
695.39	2.34
695.53	39.79
695.66	56.17
695.80	84.26
695.93	42.13
696.07	53.83
696.20	14.04
696.33	2.34
696.47	105.32
696.60	58.51
696.73	53.83
696.87	63.19
697.00	70.22
697.14	9.36
697.27	14.04
697.40	72.56
697.54	42.13
697.67	37.45
697.80	46.81
697.94	14.04
698.07	32.77
698.21	0.00
698.34	4.68
698.47	28.09
698.61	4.68
698.74	28.09
698.87	16.38
699.01	37.45
699.14	70.22
699.27	23.41
699.40	42.13
699.54	58.51
699.67	0.00
699.80	0.00
699.94	39.79
700.07	18.72
700.20	0.00
700.34	65.54
700.47	86.60
700.60	25.75
700.73	42.13
700.87	0.00
701.00	18.72
701.13	70.22
701.26	35.11
701.40	84.26
701.53	0.00
701.66	16.38
701.79	0.00
701.93	46.81
702.06	0.00
702.19	88.94
702.32	25.75
702.46	70.22
702.59	81.92
702.72	98.30
702.85	208.31
702.99	337.04
703.12	561.73
703.25	615.56
703.38	568.75
703.51	463.43
703.65	353.42
703.78	262.14
703.91	154.48
704.04	149.79
704.17	121.71
704.31	107.66
704.44	23.41
704.57	93.62
704.70	72.56
704.83	28.09
704.96	70.22
705.10	39.79
705.23	14.04
>>>>>End Processed Spectral Data<<<<<
