SpectraSuite Data File
++++++++++++++++++++++++++++++++++++
Date: Fri Oct 04 12:13:44 GMT-05:00 2013
User: price-jones
Dark Spectrum Present: No
Reference Spectrum Present: No
Number of Sampled Component Spectra: 1
Spectrometers: USB2+H05261
Integration Time (usec): 10000 (USB2+H05261)
Spectra Averaged: 1 (USB2+H05261)
Boxcar Smoothing: 0 (USB2+H05261)
Correct for Electrical Dark: No (USB2+H05261)
Strobe/Lamp Enabled: No (USB2+H05261)
Correct for Detector Non-linearity: No (USB2+H05261)
Correct for Stray Light: No (USB2+H05261)
Number of Pixels in Processed Spectrum: 2048
>>>>>Begin Processed Spectral Data<<<<<
365.73	4.68
365.92	4.68
366.12	4.68
366.32	0.00
366.52	0.00
366.72	0.00
366.91	0.00
367.11	0.00
367.31	0.00
367.51	0.00
367.70	0.00
367.90	0.00
368.10	0.00
368.30	0.00
368.49	0.00
368.69	0.00
368.89	0.00
369.09	0.00
369.28	0.00
369.48	0.00
369.68	0.00
369.87	0.00
370.07	0.00
370.27	0.00
370.47	0.00
370.66	0.00
370.86	0.00
371.06	0.00
371.25	0.00
371.45	0.00
371.65	0.00
371.84	0.00
372.04	0.00
372.24	7.02
372.44	39.79
372.63	7.02
372.83	77.24
373.03	2.34
373.22	0.00
373.42	9.36
373.62	30.43
373.81	32.77
374.01	42.13
374.21	0.00
374.40	11.70
374.60	37.45
374.79	28.09
374.99	53.83
375.19	37.45
375.38	70.22
375.58	4.68
375.78	9.36
375.97	44.47
376.17	30.43
376.37	0.00
376.56	32.77
376.76	7.02
376.95	95.96
377.15	88.94
377.35	16.38
377.54	23.41
377.74	0.00
377.93	21.06
378.13	35.11
378.33	49.15
378.52	0.00
378.72	0.00
378.91	0.00
379.11	0.00
379.31	28.09
379.50	16.38
379.70	23.41
379.89	0.00
380.09	16.38
380.28	0.00
380.48	0.00
380.68	0.00
380.87	0.00
381.07	4.68
381.26	42.13
381.46	93.62
381.65	0.00
381.85	0.00
382.04	14.04
382.24	32.77
382.43	0.00
382.63	0.00
382.83	0.00
383.02	51.49
383.22	58.51
383.41	7.02
383.61	42.13
383.80	37.45
384.00	11.70
384.19	0.00
384.39	0.00
384.58	0.00
384.78	46.81
384.97	21.06
385.17	7.02
385.36	49.15
385.56	35.11
385.75	56.17
385.95	32.77
386.14	28.09
386.34	0.00
386.53	42.13
386.72	0.00
386.92	42.13
387.11	53.83
387.31	16.38
387.50	37.45
387.70	72.56
387.89	60.85
388.09	51.49
388.28	25.75
388.48	53.83
388.67	0.00
388.86	0.00
389.06	51.49
389.25	81.92
389.45	2.34
389.64	51.49
389.84	65.54
390.03	42.13
390.22	16.38
390.42	74.90
390.61	0.00
390.81	0.00
391.00	0.00
391.19	16.38
391.39	21.06
391.58	51.49
391.78	0.00
391.97	0.00
392.16	46.81
392.36	0.00
392.55	0.00
392.75	0.00
392.94	28.09
393.13	67.88
393.33	16.38
393.52	30.43
393.71	21.06
393.91	9.36
394.10	0.00
394.29	0.00
394.49	84.26
394.68	0.00
394.88	0.00
395.07	84.26
395.26	0.00
395.46	42.13
395.65	0.00
395.84	65.54
396.04	93.62
396.23	4.68
396.42	0.00
396.62	30.43
396.81	42.13
397.00	0.00
397.19	35.11
397.39	18.72
397.58	51.49
397.77	0.00
397.97	11.70
398.16	0.00
398.35	0.00
398.55	23.41
398.74	23.41
398.93	51.49
399.12	23.41
399.32	32.77
399.51	0.00
399.70	28.09
399.90	91.28
400.09	0.00
400.28	23.41
400.47	14.04
400.67	65.54
400.86	14.04
401.05	0.00
401.24	18.72
401.44	70.22
401.63	14.04
401.82	2.34
402.01	11.70
402.21	56.17
402.40	53.83
402.59	2.34
402.78	25.75
402.97	23.41
403.17	35.11
403.36	53.83
403.55	11.70
403.74	21.06
403.93	60.85
404.13	60.85
404.32	63.19
404.51	11.70
404.70	70.22
404.89	39.79
405.09	37.45
405.28	35.11
405.47	18.72
405.66	0.00
405.85	28.09
406.05	16.38
406.24	11.70
406.43	16.38
406.62	49.15
406.81	70.22
407.00	72.56
407.20	0.00
407.39	9.36
407.58	0.00
407.77	25.75
407.96	21.06
408.15	0.00
408.34	9.36
408.54	32.77
408.73	21.06
408.92	0.00
409.11	23.41
409.30	0.00
409.49	4.68
409.68	28.09
409.87	0.00
410.07	0.00
410.26	51.49
410.45	77.24
410.64	67.88
410.83	0.00
411.02	23.41
411.21	4.68
411.40	28.09
411.59	2.34
411.78	18.72
411.98	16.38
412.17	9.36
412.36	16.38
412.55	32.77
412.74	32.77
412.93	74.90
413.12	0.00
413.31	7.02
413.50	72.56
413.69	23.41
413.88	74.90
414.07	63.19
414.26	44.47
414.45	4.68
414.64	0.00
414.83	21.06
415.02	0.00
415.22	44.47
415.41	16.38
415.60	100.64
415.79	53.83
415.98	4.68
416.17	28.09
416.36	0.00
416.55	4.68
416.74	81.92
416.93	32.77
417.12	0.00
417.31	18.72
417.50	79.58
417.69	91.28
417.88	30.43
418.07	0.00
418.26	44.47
418.45	23.41
418.64	67.88
418.83	18.72
419.02	0.00
419.21	4.68
419.39	56.17
419.58	32.77
419.77	53.83
419.96	114.69
420.15	0.00
420.34	0.00
420.53	42.13
420.72	2.34
420.91	0.00
421.10	49.15
421.29	0.00
421.48	72.56
421.67	30.43
421.86	21.06
422.05	16.38
422.24	39.79
422.43	28.09
422.61	84.26
422.80	0.00
422.99	9.36
423.18	0.00
423.37	0.00
423.56	0.00
423.75	0.00
423.94	0.00
424.13	0.00
424.32	84.26
424.50	81.92
424.69	42.13
424.88	35.11
425.07	107.66
425.26	42.13
425.45	58.51
425.64	18.72
425.83	39.79
426.01	91.28
426.20	88.94
426.39	102.98
426.58	112.35
426.77	42.13
426.96	77.24
427.15	11.70
427.33	0.00
427.52	9.36
427.71	0.00
427.90	95.96
428.09	65.54
428.28	23.41
428.46	7.02
428.65	14.04
428.84	35.11
429.03	51.49
429.22	30.43
429.40	0.00
429.59	11.70
429.78	44.47
429.97	0.00
430.16	0.00
430.34	0.00
430.53	70.22
430.72	42.13
430.91	14.04
431.10	46.81
431.28	93.62
431.47	86.60
431.66	49.15
431.85	67.88
432.03	0.00
432.22	72.56
432.41	0.00
432.60	63.19
432.79	44.47
432.97	102.98
433.16	21.06
433.35	37.45
433.54	21.06
433.72	86.60
433.91	35.11
434.10	51.49
434.28	21.06
434.47	56.17
434.66	63.19
434.85	9.36
435.03	67.88
435.22	37.45
435.41	0.00
435.59	114.69
435.78	135.75
435.97	121.71
436.16	79.58
436.34	79.58
436.53	46.81
436.72	9.36
436.90	49.15
437.09	95.96
437.28	0.00
437.46	49.15
437.65	49.15
437.84	86.60
438.02	39.79
438.21	65.54
438.40	44.47
438.58	58.51
438.77	18.72
438.96	0.00
439.14	0.00
439.33	14.04
439.52	91.28
439.70	51.49
439.89	49.15
440.08	95.96
440.26	16.38
440.45	9.36
440.63	77.24
440.82	14.04
441.01	14.04
441.19	37.45
441.38	0.00
441.57	2.34
441.75	81.92
441.94	84.26
442.12	77.24
442.31	37.45
442.50	51.49
442.68	0.00
442.87	58.51
443.05	46.81
443.24	58.51
443.43	14.04
443.61	93.62
443.80	0.00
443.98	21.06
444.17	14.04
444.35	11.70
444.54	49.15
444.73	86.60
444.91	67.88
445.10	32.77
445.28	0.00
445.47	14.04
445.65	32.77
445.84	0.00
446.02	86.60
446.21	0.00
446.39	49.15
446.58	91.28
446.77	18.72
446.95	49.15
447.14	77.24
447.32	49.15
447.51	74.90
447.69	105.32
447.88	81.92
448.06	21.06
448.25	98.30
448.43	37.45
448.62	60.85
448.80	58.51
448.99	39.79
449.17	25.75
449.36	81.92
449.54	7.02
449.73	25.75
449.91	0.00
450.10	18.72
450.28	0.00
450.46	91.28
450.65	28.09
450.83	86.60
451.02	79.58
451.20	25.75
451.39	65.54
451.57	23.41
451.76	0.00
451.94	93.62
452.13	67.88
452.31	11.70
452.49	65.54
452.68	16.38
452.86	32.77
453.05	79.58
453.23	39.79
453.42	46.81
453.60	46.81
453.78	74.90
453.97	28.09
454.15	0.00
454.34	0.00
454.52	44.47
454.70	77.24
454.89	7.02
455.07	28.09
455.26	39.79
455.44	42.13
455.62	77.24
455.81	42.13
455.99	0.00
456.17	65.54
456.36	4.68
456.54	16.38
456.73	42.13
456.91	9.36
457.09	11.70
457.28	44.47
457.46	42.13
457.64	65.54
457.83	16.38
458.01	72.56
458.19	70.22
458.38	35.11
458.56	0.00
458.74	0.00
458.93	25.75
459.11	86.60
459.29	74.90
459.48	9.36
459.66	0.00
459.84	102.98
460.03	46.81
460.21	0.00
460.39	7.02
460.57	86.60
460.76	7.02
460.94	60.85
461.12	102.98
461.31	107.66
461.49	133.41
461.67	0.00
461.85	81.92
462.04	56.17
462.22	107.66
462.40	39.79
462.59	18.72
462.77	121.71
462.95	42.13
463.13	16.38
463.32	58.51
463.50	133.41
463.68	58.51
463.86	65.54
464.05	74.90
464.23	51.49
464.41	98.30
464.59	67.88
464.78	53.83
464.96	0.00
465.14	39.79
465.32	51.49
465.50	44.47
465.69	51.49
465.87	67.88
466.05	53.83
466.23	28.09
466.41	9.36
466.60	53.83
466.78	67.88
466.96	28.09
467.14	9.36
467.32	65.54
467.51	21.06
467.69	56.17
467.87	2.34
468.05	21.06
468.23	49.15
468.41	58.51
468.60	0.00
468.78	46.81
468.96	93.62
469.14	28.09
469.32	70.22
469.50	114.69
469.69	30.43
469.87	35.11
470.05	37.45
470.23	56.17
470.41	0.00
470.59	37.45
470.77	42.13
470.95	18.72
471.14	74.90
471.32	95.96
471.50	98.30
471.68	105.32
471.86	77.24
472.04	100.64
472.22	74.90
472.40	91.28
472.58	58.51
472.77	102.98
472.95	74.90
473.13	105.32
473.31	44.47
473.49	16.38
473.67	0.00
473.85	49.15
474.03	14.04
474.21	14.04
474.39	58.51
474.57	37.45
474.75	56.17
474.93	114.69
475.12	46.81
475.30	46.81
475.48	44.47
475.66	56.17
475.84	25.75
476.02	18.72
476.20	23.41
476.38	28.09
476.56	0.00
476.74	14.04
476.92	7.02
477.10	28.09
477.28	23.41
477.46	0.00
477.64	23.41
477.82	42.13
478.00	63.19
478.18	51.49
478.36	39.79
478.54	60.85
478.72	18.72
478.90	81.92
479.08	131.07
479.26	44.47
479.44	0.00
479.62	11.70
479.80	91.28
479.98	28.09
480.16	60.85
480.34	0.00
480.52	0.00
480.70	0.00
480.88	98.30
481.06	77.24
481.24	72.56
481.41	37.45
481.59	60.85
481.77	70.22
481.95	16.38
482.13	88.94
482.31	67.88
482.49	4.68
482.67	46.81
482.85	93.62
483.03	46.81
483.21	124.05
483.39	60.85
483.57	46.81
483.74	107.66
483.92	81.92
484.10	28.09
484.28	65.54
484.46	37.45
484.64	35.11
484.82	70.22
485.00	0.00
485.18	35.11
485.35	58.51
485.53	4.68
485.71	0.00
485.89	81.92
486.07	81.92
486.25	0.00
486.43	42.13
486.61	28.09
486.78	56.17
486.96	0.00
487.14	63.19
487.32	0.00
487.50	72.56
487.68	16.38
487.85	72.56
488.03	67.88
488.21	0.00
488.39	39.79
488.57	28.09
488.75	98.30
488.92	42.13
489.10	44.47
489.28	95.96
489.46	77.24
489.64	16.38
489.81	21.06
489.99	70.22
490.17	63.19
490.35	0.00
490.53	32.77
490.70	4.68
490.88	28.09
491.06	84.26
491.24	100.64
491.41	58.51
491.59	95.96
491.77	95.96
491.95	46.81
492.13	63.19
492.30	49.15
492.48	39.79
492.66	63.19
492.84	84.26
493.01	88.94
493.19	32.77
493.37	65.54
493.54	28.09
493.72	100.64
493.90	23.41
494.08	32.77
494.25	37.45
494.43	72.56
494.61	121.71
494.79	102.98
494.96	70.22
495.14	51.49
495.32	35.11
495.49	100.64
495.67	58.51
495.85	25.75
496.02	28.09
496.20	93.62
496.38	56.17
496.55	0.00
496.73	72.56
496.91	35.11
497.09	0.00
497.26	56.17
497.44	70.22
497.62	4.68
497.79	81.92
497.97	102.98
498.14	42.13
498.32	88.94
498.50	23.41
498.67	21.06
498.85	56.17
499.03	28.09
499.20	105.32
499.38	102.98
499.56	63.19
499.73	72.56
499.91	93.62
500.08	58.51
500.26	67.88
500.44	133.41
500.61	72.56
500.79	63.19
500.97	65.54
501.14	60.85
501.32	65.54
501.49	0.00
501.67	21.06
501.84	81.92
502.02	86.60
502.20	51.49
502.37	0.00
502.55	86.60
502.72	0.00
502.90	77.24
503.07	21.06
503.25	86.60
503.43	105.32
503.60	44.47
503.78	79.58
503.95	25.75
504.13	72.56
504.30	42.13
504.48	14.04
504.65	72.56
504.83	53.83
505.01	16.38
505.18	39.79
505.36	32.77
505.53	44.47
505.71	84.26
505.88	35.11
506.06	2.34
506.23	58.51
506.41	0.00
506.58	21.06
506.76	51.49
506.93	30.43
507.11	37.45
507.28	14.04
507.46	70.22
507.63	37.45
507.81	65.54
507.98	102.98
508.16	93.62
508.33	107.66
508.50	51.49
508.68	37.45
508.85	67.88
509.03	147.45
509.20	95.96
509.38	51.49
509.55	58.51
509.73	39.79
509.90	51.49
510.08	100.64
510.25	65.54
510.42	32.77
510.60	105.32
510.77	4.68
510.95	42.13
511.12	21.06
511.30	32.77
511.47	37.45
511.64	56.17
511.82	88.94
511.99	74.90
512.17	63.19
512.34	56.17
512.51	53.83
512.69	0.00
512.86	133.41
513.04	0.00
513.21	84.26
513.38	88.94
513.56	67.88
513.73	51.49
513.90	51.49
514.08	60.85
514.25	81.92
514.43	25.75
514.60	63.19
514.77	100.64
514.95	100.64
515.12	7.02
515.29	21.06
515.47	18.72
515.64	16.38
515.81	32.77
515.99	46.81
516.16	35.11
516.33	30.43
516.51	67.88
516.68	37.45
516.85	84.26
517.03	44.47
517.20	88.94
517.37	16.38
517.54	25.75
517.72	4.68
517.89	58.51
518.06	14.04
518.24	65.54
518.41	11.70
518.58	42.13
518.75	11.70
518.93	0.00
519.10	0.00
519.27	0.00
519.45	67.88
519.62	21.06
519.79	49.15
519.96	91.28
520.14	56.17
520.31	74.90
520.48	0.00
520.65	14.04
520.83	131.07
521.00	60.85
521.17	56.17
521.34	49.15
521.52	25.75
521.69	84.26
521.86	46.81
522.03	28.09
522.20	53.83
522.38	39.79
522.55	100.64
522.72	35.11
522.89	37.45
523.07	79.58
523.24	81.92
523.41	98.30
523.58	58.51
523.75	74.90
523.92	102.98
524.10	53.83
524.27	93.62
524.44	81.92
524.61	72.56
524.78	81.92
524.96	56.17
525.13	18.72
525.30	18.72
525.47	131.07
525.64	42.13
525.81	112.35
525.98	112.35
526.16	74.90
526.33	58.51
526.50	67.88
526.67	9.36
526.84	9.36
527.01	16.38
527.18	74.90
527.36	105.32
527.53	49.15
527.70	0.00
527.87	25.75
528.04	56.17
528.21	79.58
528.38	9.36
528.55	60.85
528.72	98.30
528.89	37.45
529.07	23.41
529.24	63.19
529.41	51.49
529.58	4.68
529.75	105.32
529.92	72.56
530.09	14.04
530.26	56.17
530.43	49.15
530.60	0.00
530.77	0.00
530.94	0.00
531.11	74.90
531.28	56.17
531.46	81.92
531.63	32.77
531.80	9.36
531.97	23.41
532.14	30.43
532.31	0.00
532.48	60.85
532.65	93.62
532.82	53.83
532.99	18.72
533.16	77.24
533.33	70.22
533.50	77.24
533.67	46.81
533.84	72.56
534.01	0.00
534.18	49.15
534.35	44.47
534.52	86.60
534.69	16.38
534.86	9.36
535.03	51.49
535.20	0.00
535.37	56.17
535.54	65.54
535.71	49.15
535.88	154.48
536.05	9.36
536.22	70.22
536.38	56.17
536.55	37.45
536.72	56.17
536.89	46.81
537.06	91.28
537.23	65.54
537.40	77.24
537.57	63.19
537.74	63.19
537.91	32.77
538.08	95.96
538.25	60.85
538.42	42.13
538.59	112.35
538.75	102.98
538.92	37.45
539.09	67.88
539.26	44.47
539.43	72.56
539.60	126.39
539.77	86.60
539.94	88.94
540.11	81.92
540.28	77.24
540.44	58.51
540.61	4.68
540.78	88.94
540.95	74.90
541.12	49.15
541.29	46.81
541.46	58.51
541.62	0.00
541.79	79.58
541.96	60.85
542.13	25.75
542.30	84.26
542.47	63.19
542.63	95.96
542.80	42.13
542.97	81.92
543.14	67.88
543.31	4.68
543.48	23.41
543.64	67.88
543.81	70.22
543.98	23.41
544.15	7.02
544.32	44.47
544.48	39.79
544.65	46.81
544.82	131.07
544.99	70.22
545.16	44.47
545.32	42.13
545.49	46.81
545.66	77.24
545.83	16.38
546.00	14.04
546.16	70.22
546.33	81.92
546.50	39.79
546.67	56.17
546.83	56.17
547.00	49.15
547.17	0.00
547.34	44.47
547.50	81.92
547.67	2.34
547.84	105.32
548.00	0.00
548.17	72.56
548.34	51.49
548.51	88.94
548.67	28.09
548.84	0.00
549.01	49.15
549.18	18.72
549.34	0.00
549.51	2.34
549.68	53.83
549.84	46.81
550.01	11.70
550.18	37.45
550.34	65.54
550.51	70.22
550.68	28.09
550.84	51.49
551.01	88.94
551.18	121.71
551.34	110.01
551.51	21.06
551.68	133.41
551.84	67.88
552.01	70.22
552.18	42.13
552.34	81.92
552.51	21.06
552.68	25.75
552.84	147.45
553.01	65.54
553.18	63.19
553.34	77.24
553.51	28.09
553.67	44.47
553.84	16.38
554.01	70.22
554.17	0.00
554.34	86.60
554.51	77.24
554.67	42.13
554.84	0.00
555.00	21.06
555.17	63.19
555.33	65.54
555.50	77.24
555.67	0.00
555.83	42.13
556.00	51.49
556.16	112.35
556.33	110.01
556.50	121.71
556.66	65.54
556.83	72.56
556.99	39.79
557.16	4.68
557.32	84.26
557.49	131.07
557.65	16.38
557.82	16.38
557.98	16.38
558.15	60.85
558.32	2.34
558.48	77.24
558.65	126.39
558.81	49.15
558.98	46.81
559.14	107.66
559.31	42.13
559.47	72.56
559.64	60.85
559.80	0.00
559.97	42.13
560.13	131.07
560.30	46.81
560.46	37.45
560.63	65.54
560.79	79.58
560.96	21.06
561.12	32.77
561.29	56.17
561.45	98.30
561.61	63.19
561.78	110.01
561.94	42.13
562.11	42.13
562.27	91.28
562.44	0.00
562.60	131.07
562.77	9.36
562.93	77.24
563.10	72.56
563.26	86.60
563.42	18.72
563.59	4.68
563.75	121.71
563.92	28.09
564.08	91.28
564.24	0.00
564.41	91.28
564.57	0.00
564.74	102.98
564.90	53.83
565.07	81.92
565.23	63.19
565.39	93.62
565.56	63.19
565.72	25.75
565.88	42.13
566.05	67.88
566.21	117.03
566.38	70.22
566.54	18.72
566.70	46.81
566.87	79.58
567.03	107.66
567.19	56.17
567.36	0.00
567.52	46.81
567.68	35.11
567.85	84.26
568.01	131.07
568.17	30.43
568.34	60.85
568.50	51.49
568.66	46.81
568.83	49.15
568.99	0.00
569.15	114.69
569.32	53.83
569.48	46.81
569.64	0.00
569.81	9.36
569.97	56.17
570.13	37.45
570.30	86.60
570.46	117.03
570.62	126.39
570.78	11.70
570.95	21.06
571.11	0.00
571.27	16.38
571.43	44.47
571.60	81.92
571.76	63.19
571.92	11.70
572.09	0.00
572.25	30.43
572.41	74.90
572.57	28.09
572.74	117.03
572.90	84.26
573.06	39.79
573.22	32.77
573.38	0.00
573.55	112.35
573.71	35.11
573.87	124.05
574.03	72.56
574.20	7.02
574.36	63.19
574.52	93.62
574.68	23.41
574.84	53.83
575.01	53.83
575.17	16.38
575.33	105.32
575.49	110.01
575.65	152.13
575.82	60.85
575.98	110.01
576.14	35.11
576.30	79.58
576.46	58.51
576.62	81.92
576.79	105.32
576.95	60.85
577.11	51.49
577.27	30.43
577.43	51.49
577.59	14.04
577.75	98.30
577.92	56.17
578.08	39.79
578.24	67.88
578.40	16.38
578.56	100.64
578.72	63.19
578.88	74.90
579.04	74.90
579.21	35.11
579.37	65.54
579.53	86.60
579.69	56.17
579.85	105.32
580.01	84.26
580.17	105.32
580.33	21.06
580.49	18.72
580.65	74.90
580.82	51.49
580.98	65.54
581.14	58.51
581.30	135.75
581.46	4.68
581.62	107.66
581.78	25.75
581.94	102.98
582.10	37.45
582.26	170.86
582.42	25.75
582.58	30.43
582.74	49.15
582.90	63.19
583.06	39.79
583.22	0.00
583.38	16.38
583.54	30.43
583.70	42.13
583.86	23.41
584.02	23.41
584.18	39.79
584.34	77.24
584.50	67.88
584.66	35.11
584.82	2.34
584.98	32.77
585.14	98.30
585.30	86.60
585.46	44.47
585.62	2.34
585.78	35.11
585.94	133.41
586.10	72.56
586.26	0.00
586.42	95.96
586.58	65.54
586.74	79.58
586.90	51.49
587.06	46.81
587.22	42.13
587.38	135.75
587.54	67.88
587.70	53.83
587.86	100.64
588.02	77.24
588.18	28.09
588.34	65.54
588.49	4.68
588.65	0.00
588.81	0.00
588.97	0.00
589.13	42.13
589.29	32.77
589.45	4.68
589.61	49.15
589.77	46.81
589.93	65.54
590.08	56.17
590.24	145.11
590.40	37.45
590.56	35.11
590.72	9.36
590.88	21.06
591.04	117.03
591.20	4.68
591.35	110.01
591.51	70.22
591.67	32.77
591.83	32.77
591.99	7.02
592.15	11.70
592.31	46.81
592.46	42.13
592.62	49.15
592.78	46.81
592.94	35.11
593.10	39.79
593.26	0.00
593.41	32.77
593.57	0.00
593.73	51.49
593.89	28.09
594.05	32.77
594.20	60.85
594.36	30.43
594.52	32.77
594.68	65.54
594.84	98.30
594.99	100.64
595.15	49.15
595.31	63.19
595.47	74.90
595.62	18.72
595.78	37.45
595.94	53.83
596.10	37.45
596.25	0.00
596.41	60.85
596.57	84.26
596.73	32.77
596.88	7.02
597.04	135.75
597.20	114.69
597.36	74.90
597.51	28.09
597.67	7.02
597.83	53.83
597.99	0.00
598.14	56.17
598.30	28.09
598.46	65.54
598.61	28.09
598.77	30.43
598.93	0.00
599.09	18.72
599.24	2.34
599.40	65.54
599.56	124.05
599.71	9.36
599.87	49.15
600.03	44.47
600.18	86.60
600.34	81.92
600.50	60.85
600.65	88.94
600.81	21.06
600.97	105.32
601.12	128.73
601.28	4.68
601.44	4.68
601.59	9.36
601.75	91.28
601.91	65.54
602.06	84.26
602.22	0.00
602.37	39.79
602.53	70.22
602.69	79.58
602.84	93.62
603.00	93.62
603.16	0.00
603.31	56.17
603.47	49.15
603.62	0.00
603.78	65.54
603.94	51.49
604.09	28.09
604.25	0.00
604.40	39.79
604.56	60.85
604.71	53.83
604.87	121.71
605.03	42.13
605.18	63.19
605.34	93.62
605.49	91.28
605.65	74.90
605.80	79.58
605.96	98.30
606.12	11.70
606.27	72.56
606.43	30.43
606.58	79.58
606.74	30.43
606.89	81.92
607.05	60.85
607.20	77.24
607.36	102.98
607.51	9.36
607.67	46.81
607.82	95.96
607.98	9.36
608.13	14.04
608.29	51.49
608.44	65.54
608.60	39.79
608.75	58.51
608.91	81.92
609.06	56.17
609.22	32.77
609.37	32.77
609.53	30.43
609.68	67.88
609.84	65.54
609.99	77.24
610.15	16.38
610.30	110.01
610.46	65.54
610.61	49.15
610.76	4.68
610.92	60.85
611.07	28.09
611.23	32.77
611.38	138.09
611.54	86.60
611.69	53.83
611.84	126.39
612.00	9.36
612.15	0.00
612.31	74.90
612.46	74.90
612.62	124.05
612.77	56.17
612.92	117.03
613.08	21.06
613.23	32.77
613.39	14.04
613.54	77.24
613.69	28.09
613.85	49.15
614.00	30.43
614.15	0.00
614.31	9.36
614.46	65.54
614.62	63.19
614.77	9.36
614.92	28.09
615.08	32.77
615.23	98.30
615.38	44.47
615.54	0.00
615.69	30.43
615.84	46.81
616.00	21.06
616.15	16.38
616.30	56.17
616.46	39.79
616.61	51.49
616.76	60.85
616.92	39.79
617.07	21.06
617.22	84.26
617.37	81.92
617.53	60.85
617.68	42.13
617.83	100.64
617.99	58.51
618.14	23.41
618.29	0.00
618.45	44.47
618.60	42.13
618.75	39.79
618.90	173.20
619.06	79.58
619.21	39.79
619.36	14.04
619.51	37.45
619.67	135.75
619.82	0.00
619.97	0.00
620.12	49.15
620.28	91.28
620.43	42.13
620.58	42.13
620.73	0.00
620.89	14.04
621.04	35.11
621.19	0.00
621.34	39.79
621.49	32.77
621.65	79.58
621.80	0.00
621.95	72.56
622.10	100.64
622.25	0.00
622.41	81.92
622.56	56.17
622.71	9.36
622.86	72.56
623.01	49.15
623.16	65.54
623.32	32.77
623.47	32.77
623.62	39.79
623.77	70.22
623.92	102.98
624.07	25.75
624.23	18.72
624.38	86.60
624.53	49.15
624.68	2.34
624.83	18.72
624.98	117.03
625.13	79.58
625.29	77.24
625.44	63.19
625.59	21.06
625.74	112.35
625.89	30.43
626.04	0.00
626.19	91.28
626.34	4.68
626.49	67.88
626.65	4.68
626.80	9.36
626.95	0.00
627.10	102.98
627.25	44.47
627.40	72.56
627.55	25.75
627.70	53.83
627.85	32.77
628.00	63.19
628.15	46.81
628.30	0.00
628.45	0.00
628.60	65.54
628.76	74.90
628.91	0.00
629.06	42.13
629.21	81.92
629.36	16.38
629.51	72.56
629.66	23.41
629.81	0.00
629.96	110.01
630.11	84.26
630.26	60.85
630.41	4.68
630.56	0.00
630.71	114.69
630.86	39.79
631.01	77.24
631.16	32.77
631.31	0.00
631.46	79.58
631.61	67.88
631.76	67.88
631.91	11.70
632.06	14.04
632.21	42.13
632.36	72.56
632.51	107.66
632.66	72.56
632.81	60.85
632.96	49.15
633.10	93.62
633.25	32.77
633.40	128.73
633.55	42.13
633.70	0.00
633.85	53.83
634.00	16.38
634.15	81.92
634.30	0.00
634.45	67.88
634.60	0.00
634.75	0.00
634.90	46.81
635.05	2.34
635.19	112.35
635.34	14.04
635.49	0.00
635.64	46.81
635.79	0.00
635.94	58.51
636.09	70.22
636.24	32.77
636.39	44.47
636.53	63.19
636.68	32.77
636.83	88.94
636.98	56.17
637.13	35.11
637.28	35.11
637.43	21.06
637.57	56.17
637.72	49.15
637.87	46.81
638.02	14.04
638.17	0.00
638.32	37.45
638.46	32.77
638.61	46.81
638.76	0.00
638.91	58.51
639.06	49.15
639.20	32.77
639.35	58.51
639.50	63.19
639.65	16.38
639.80	44.47
639.94	2.34
640.09	16.38
640.24	105.32
640.39	11.70
640.54	72.56
640.68	30.43
640.83	110.01
640.98	119.37
641.13	58.51
641.27	37.45
641.42	0.00
641.57	70.22
641.72	65.54
641.86	42.13
642.01	65.54
642.16	65.54
642.31	37.45
642.45	98.30
642.60	72.56
642.75	37.45
642.90	16.38
643.04	0.00
643.19	44.47
643.34	11.70
643.48	0.00
643.63	63.19
643.78	4.68
643.93	39.79
644.07	95.96
644.22	58.51
644.37	23.41
644.51	60.85
644.66	4.68
644.81	46.81
644.95	65.54
645.10	0.00
645.25	7.02
645.39	14.04
645.54	0.00
645.69	91.28
645.83	0.00
645.98	65.54
646.13	0.00
646.27	49.15
646.42	42.13
646.57	58.51
646.71	86.60
646.86	32.77
647.00	60.85
647.15	2.34
647.30	7.02
647.44	30.43
647.59	81.92
647.74	21.06
647.88	0.00
648.03	81.92
648.17	70.22
648.32	56.17
648.47	84.26
648.61	39.79
648.76	58.51
648.90	0.00
649.05	23.41
649.20	0.00
649.34	7.02
649.49	58.51
649.63	0.00
649.78	14.04
649.92	65.54
650.07	35.11
650.21	49.15
650.36	131.07
650.51	30.43
650.65	0.00
650.80	77.24
650.94	0.00
651.09	44.47
651.23	44.47
651.38	14.04
651.52	86.60
651.67	84.26
651.81	4.68
651.96	0.00
652.10	0.00
652.25	74.90
652.39	4.68
652.54	72.56
652.68	14.04
652.83	51.49
652.97	58.51
653.12	28.09
653.26	0.00
653.41	58.51
653.55	51.49
653.70	60.85
653.84	21.06
653.99	79.58
654.13	53.83
654.27	14.04
654.42	0.00
654.56	35.11
654.71	74.90
654.85	46.81
655.00	21.06
655.14	72.56
655.29	28.09
655.43	0.00
655.57	16.38
655.72	0.00
655.86	0.00
656.01	70.22
656.15	88.94
656.30	16.38
656.44	0.00
656.58	18.72
656.73	32.77
656.87	51.49
657.01	46.81
657.16	9.36
657.30	7.02
657.45	35.11
657.59	74.90
657.73	23.41
657.88	49.15
658.02	105.32
658.16	9.36
658.31	11.70
658.45	67.88
658.60	67.88
658.74	14.04
658.88	23.41
659.03	30.43
659.17	44.47
659.31	93.62
659.46	42.13
659.60	49.15
659.74	23.41
659.89	28.09
660.03	0.00
660.17	63.19
660.32	46.81
660.46	0.00
660.60	70.22
660.74	32.77
660.89	7.02
661.03	79.58
661.17	60.85
661.32	44.47
661.46	51.49
661.60	56.17
661.74	86.60
661.89	42.13
662.03	65.54
662.17	23.41
662.31	14.04
662.46	16.38
662.60	44.47
662.74	28.09
662.88	32.77
663.03	53.83
663.17	18.72
663.31	35.11
663.45	93.62
663.60	102.98
663.74	23.41
663.88	39.79
664.02	49.15
664.17	16.38
664.31	14.04
664.45	74.90
664.59	0.00
664.73	21.06
664.88	9.36
665.02	74.90
665.16	23.41
665.30	86.60
665.44	4.68
665.59	35.11
665.73	9.36
665.87	44.47
666.01	56.17
666.15	77.24
666.29	117.03
666.44	79.58
666.58	70.22
666.72	30.43
666.86	0.00
667.00	72.56
667.14	42.13
667.28	63.19
667.43	0.00
667.57	30.43
667.71	16.38
667.85	56.17
667.99	49.15
668.13	49.15
668.27	2.34
668.41	9.36
668.56	11.70
668.70	53.83
668.84	42.13
668.98	37.45
669.12	28.09
669.26	14.04
669.40	14.04
669.54	23.41
669.68	28.09
669.82	32.77
669.96	32.77
670.10	0.00
670.25	25.75
670.39	98.30
670.53	67.88
670.67	0.00
670.81	0.00
670.95	72.56
671.09	0.00
671.23	0.00
671.37	56.17
671.51	65.54
671.65	74.90
671.79	32.77
671.93	21.06
672.07	0.00
672.21	0.00
672.35	84.26
672.49	18.72
672.63	9.36
672.77	65.54
672.91	30.43
673.05	53.83
673.19	37.45
673.33	49.15
673.47	46.81
673.61	74.90
673.75	25.75
673.89	42.13
674.03	0.00
674.17	0.00
674.31	18.72
674.45	56.17
674.59	16.38
674.73	0.00
674.87	28.09
675.01	37.45
675.15	28.09
675.29	14.04
675.43	11.70
675.56	7.02
675.70	37.45
675.84	46.81
675.98	30.43
676.12	32.77
676.26	74.90
676.40	46.81
676.54	25.75
676.68	65.54
676.82	60.85
676.96	51.49
677.10	23.41
677.23	53.83
677.37	28.09
677.51	16.38
677.65	91.28
677.79	16.38
677.93	56.17
678.07	42.13
678.21	58.51
678.34	18.72
678.48	14.04
678.62	35.11
678.76	0.00
678.90	105.32
679.04	77.24
679.18	79.58
679.31	114.69
679.45	28.09
679.59	42.13
679.73	28.09
679.87	25.75
680.00	46.81
680.14	95.96
680.28	37.45
680.42	0.00
680.56	30.43
680.70	2.34
680.83	0.00
680.97	56.17
681.11	60.85
681.25	21.06
681.39	46.81
681.52	95.96
681.66	23.41
681.80	14.04
681.94	35.11
682.07	0.00
682.21	0.00
682.35	46.81
682.49	35.11
682.62	49.15
682.76	0.00
682.90	14.04
683.04	93.62
683.17	16.38
683.31	9.36
683.45	67.88
683.59	0.00
683.72	74.90
683.86	0.00
684.00	32.77
684.13	37.45
684.27	23.41
684.41	35.11
684.55	32.77
684.68	35.11
684.82	37.45
684.96	39.79
685.09	0.00
685.23	107.66
685.37	28.09
685.50	51.49
685.64	11.70
685.78	25.75
685.91	88.94
686.05	84.26
686.19	0.00
686.32	0.00
686.46	93.62
686.60	7.02
686.73	11.70
686.87	51.49
687.01	93.62
687.14	0.00
687.28	0.00
687.42	7.02
687.55	42.13
687.69	0.00
687.82	30.43
687.96	49.15
688.10	42.13
688.23	56.17
688.37	0.00
688.50	32.77
688.64	65.54
688.78	56.17
688.91	79.58
689.05	32.77
689.18	84.26
689.32	39.79
689.46	0.00
689.59	102.98
689.73	51.49
689.86	0.00
690.00	58.51
690.13	107.66
690.27	11.70
690.41	53.83
690.54	23.41
690.68	32.77
690.81	56.17
690.95	65.54
691.08	32.77
691.22	44.47
691.35	0.00
691.49	60.85
691.62	39.79
691.76	42.13
691.89	91.28
692.03	53.83
692.16	37.45
692.30	100.64
692.43	65.54
692.57	0.00
692.70	16.38
692.84	0.00
692.97	0.00
693.11	63.19
693.24	58.51
693.38	65.54
693.51	56.17
693.65	77.24
693.78	32.77
693.92	93.62
694.05	4.68
694.19	23.41
694.32	81.92
694.45	35.11
694.59	18.72
694.72	46.81
694.86	18.72
694.99	74.90
695.13	7.02
695.26	32.77
695.39	9.36
695.53	56.17
695.66	4.68
695.80	42.13
695.93	0.00
696.07	0.00
696.20	93.62
696.33	91.28
696.47	58.51
696.60	0.00
696.73	91.28
696.87	4.68
697.00	93.62
697.14	46.81
697.27	21.06
697.40	53.83
697.54	53.83
697.67	79.58
697.80	84.26
697.94	65.54
698.07	30.43
698.21	60.85
698.34	70.22
698.47	23.41
698.61	14.04
698.74	4.68
698.87	37.45
699.01	23.41
699.14	0.00
699.27	0.00
699.40	18.72
699.54	7.02
699.67	4.68
699.80	23.41
699.94	7.02
700.07	4.68
700.20	11.70
700.34	46.81
700.47	7.02
700.60	56.17
700.73	11.70
700.87	11.70
701.00	105.32
701.13	70.22
701.26	46.81
701.40	84.26
701.53	93.62
701.66	79.58
701.79	0.00
701.93	23.41
702.06	58.51
702.19	119.37
702.32	7.02
702.46	32.77
702.59	2.34
702.72	0.00
702.85	0.00
702.99	56.17
703.12	124.05
703.25	46.81
703.38	2.34
703.51	25.75
703.65	30.43
703.78	16.38
703.91	35.11
704.04	86.60
704.17	51.49
704.31	0.00
704.44	25.75
704.57	60.85
704.70	0.00
704.83	39.79
704.96	81.92
705.10	135.75
705.23	65.54
>>>>>End Processed Spectral Data<<<<<
