SpectraSuite Data File
++++++++++++++++++++++++++++++++++++
Date: Fri Oct 04 12:13:32 GMT-05:00 2013
User: price-jones
Dark Spectrum Present: No
Reference Spectrum Present: No
Number of Sampled Component Spectra: 1
Spectrometers: USB2+H05261
Integration Time (usec): 10000 (USB2+H05261)
Spectra Averaged: 1 (USB2+H05261)
Boxcar Smoothing: 0 (USB2+H05261)
Correct for Electrical Dark: No (USB2+H05261)
Strobe/Lamp Enabled: No (USB2+H05261)
Correct for Detector Non-linearity: No (USB2+H05261)
Correct for Stray Light: No (USB2+H05261)
Number of Pixels in Processed Spectrum: 2048
>>>>>Begin Processed Spectral Data<<<<<
365.73	0.00
365.92	0.00
366.12	0.00
366.32	0.00
366.52	0.00
366.72	0.00
366.91	0.00
367.11	0.00
367.31	0.00
367.51	0.00
367.70	0.00
367.90	0.00
368.10	0.00
368.30	0.00
368.49	0.00
368.69	0.00
368.89	0.00
369.09	0.00
369.28	0.00
369.48	0.00
369.68	0.00
369.87	0.00
370.07	0.00
370.27	0.00
370.47	0.00
370.66	0.00
370.86	0.00
371.06	0.00
371.25	4.68
371.45	0.00
371.65	0.00
371.84	0.00
372.04	11.70
372.24	0.00
372.44	0.00
372.63	0.00
372.83	0.00
373.03	28.09
373.22	16.38
373.42	21.06
373.62	30.43
373.81	56.17
374.01	67.88
374.21	23.41
374.40	0.00
374.60	4.68
374.79	30.43
374.99	56.17
375.19	46.81
375.38	0.00
375.58	4.68
375.78	53.83
375.97	37.45
376.17	30.43
376.37	98.30
376.56	70.22
376.76	91.28
376.95	72.56
377.15	35.11
377.35	4.68
377.54	0.00
377.74	39.79
377.93	49.15
378.13	77.24
378.33	7.02
378.52	32.77
378.72	7.02
378.91	37.45
379.11	0.00
379.31	32.77
379.50	14.04
379.70	42.13
379.89	11.70
380.09	0.00
380.28	0.00
380.48	58.51
380.68	37.45
380.87	0.00
381.07	81.92
381.26	98.30
381.46	30.43
381.65	18.72
381.85	0.00
382.04	0.00
382.24	9.36
382.43	21.06
382.63	46.81
382.83	0.00
383.02	11.70
383.22	0.00
383.41	28.09
383.61	42.13
383.80	7.02
384.00	11.70
384.19	65.54
384.39	0.00
384.58	112.35
384.78	49.15
384.97	0.00
385.17	21.06
385.36	46.81
385.56	91.28
385.75	93.62
385.95	53.83
386.14	0.00
386.34	49.15
386.53	14.04
386.72	25.75
386.92	0.00
387.11	18.72
387.31	63.19
387.50	0.00
387.70	74.90
387.89	9.36
388.09	30.43
388.28	0.00
388.48	28.09
388.67	39.79
388.86	32.77
389.06	0.00
389.25	65.54
389.45	56.17
389.64	98.30
389.84	30.43
390.03	0.00
390.22	58.51
390.42	74.90
390.61	0.00
390.81	0.00
391.00	0.00
391.19	63.19
391.39	42.13
391.58	51.49
391.78	0.00
391.97	0.00
392.16	0.00
392.36	72.56
392.55	51.49
392.75	0.00
392.94	60.85
393.13	44.47
393.33	28.09
393.52	58.51
393.71	63.19
393.91	11.70
394.10	18.72
394.29	14.04
394.49	0.00
394.68	7.02
394.88	0.00
395.07	74.90
395.26	16.38
395.46	44.47
395.65	7.02
395.84	0.00
396.04	14.04
396.23	35.11
396.42	53.83
396.62	0.00
396.81	0.00
397.00	81.92
397.19	32.77
397.39	0.00
397.58	0.00
397.77	0.00
397.97	21.06
398.16	0.00
398.35	23.41
398.55	0.00
398.74	0.00
398.93	39.79
399.12	0.00
399.32	28.09
399.51	37.45
399.70	0.00
399.90	14.04
400.09	0.00
400.28	0.00
400.47	0.00
400.67	74.90
400.86	39.79
401.05	0.00
401.24	32.77
401.44	63.19
401.63	37.45
401.82	60.85
402.01	0.00
402.21	44.47
402.40	30.43
402.59	30.43
402.78	37.45
402.97	0.00
403.17	42.13
403.36	0.00
403.55	28.09
403.74	28.09
403.93	65.54
404.13	2.34
404.32	42.13
404.51	16.38
404.70	0.00
404.89	37.45
405.09	16.38
405.28	21.06
405.47	0.00
405.66	0.00
405.85	0.00
406.05	67.88
406.24	56.17
406.43	0.00
406.62	16.38
406.81	74.90
407.00	72.56
407.20	0.00
407.39	0.00
407.58	11.70
407.77	0.00
407.96	56.17
408.15	0.00
408.34	32.77
408.54	0.00
408.73	28.09
408.92	79.58
409.11	65.54
409.30	0.00
409.49	98.30
409.68	60.85
409.87	28.09
410.07	9.36
410.26	0.00
410.45	11.70
410.64	25.75
410.83	98.30
411.02	53.83
411.21	53.83
411.40	39.79
411.59	37.45
411.78	21.06
411.98	21.06
412.17	14.04
412.36	25.75
412.55	0.00
412.74	70.22
412.93	42.13
413.12	63.19
413.31	4.68
413.50	49.15
413.69	74.90
413.88	30.43
414.07	16.38
414.26	0.00
414.45	28.09
414.64	0.00
414.83	0.00
415.02	72.56
415.22	0.00
415.41	56.17
415.60	30.43
415.79	0.00
415.98	0.00
416.17	67.88
416.36	35.11
416.55	49.15
416.74	28.09
416.93	88.94
417.12	42.13
417.31	0.00
417.50	0.00
417.69	18.72
417.88	0.00
418.07	16.38
418.26	11.70
418.45	44.47
418.64	18.72
418.83	16.38
419.02	25.75
419.21	65.54
419.39	42.13
419.58	11.70
419.77	0.00
419.96	72.56
420.15	67.88
420.34	53.83
420.53	18.72
420.72	51.49
420.91	110.01
421.10	91.28
421.29	21.06
421.48	58.51
421.67	67.88
421.86	0.00
422.05	0.00
422.24	23.41
422.43	9.36
422.61	0.00
422.80	32.77
422.99	21.06
423.18	32.77
423.37	23.41
423.56	32.77
423.75	23.41
423.94	23.41
424.13	25.75
424.32	9.36
424.50	25.75
424.69	30.43
424.88	4.68
425.07	0.00
425.26	39.79
425.45	63.19
425.64	53.83
425.83	65.54
426.01	2.34
426.20	42.13
426.39	28.09
426.58	46.81
426.77	25.75
426.96	128.73
427.15	32.77
427.33	18.72
427.52	46.81
427.71	37.45
427.90	86.60
428.09	14.04
428.28	0.00
428.46	65.54
428.65	72.56
428.84	42.13
429.03	46.81
429.22	25.75
429.40	60.85
429.59	37.45
429.78	44.47
429.97	18.72
430.16	11.70
430.34	0.00
430.53	0.00
430.72	77.24
430.91	60.85
431.10	0.00
431.28	91.28
431.47	2.34
431.66	25.75
431.85	51.49
432.03	65.54
432.22	63.19
432.41	14.04
432.60	81.92
432.79	30.43
432.97	60.85
433.16	58.51
433.35	37.45
433.54	65.54
433.72	25.75
433.91	67.88
434.10	4.68
434.28	32.77
434.47	74.90
434.66	4.68
434.85	63.19
435.03	14.04
435.22	0.00
435.41	32.77
435.59	2.34
435.78	0.00
435.97	14.04
436.16	0.00
436.34	74.90
436.53	0.00
436.72	70.22
436.90	44.47
437.09	16.38
437.28	39.79
437.46	21.06
437.65	0.00
437.84	18.72
438.02	18.72
438.21	81.92
438.40	44.47
438.58	67.88
438.77	86.60
438.96	0.00
439.14	0.00
439.33	9.36
439.52	0.00
439.70	95.96
439.89	74.90
440.08	0.00
440.26	53.83
440.45	84.26
440.63	46.81
440.82	9.36
441.01	53.83
441.19	7.02
441.38	28.09
441.57	28.09
441.75	28.09
441.94	53.83
442.12	32.77
442.31	49.15
442.50	72.56
442.68	46.81
442.87	9.36
443.05	0.00
443.24	72.56
443.43	4.68
443.61	0.00
443.80	9.36
443.98	35.11
444.17	65.54
444.35	23.41
444.54	49.15
444.73	53.83
444.91	74.90
445.10	60.85
445.28	98.30
445.47	11.70
445.65	0.00
445.84	51.49
446.02	67.88
446.21	91.28
446.39	35.11
446.58	93.62
446.77	58.51
446.95	28.09
447.14	0.00
447.32	0.00
447.51	102.98
447.69	44.47
447.88	16.38
448.06	60.85
448.25	23.41
448.43	14.04
448.62	0.00
448.80	44.47
448.99	88.94
449.17	21.06
449.36	35.11
449.54	0.00
449.73	18.72
449.91	0.00
450.10	140.43
450.28	14.04
450.46	51.49
450.65	72.56
450.83	9.36
451.02	37.45
451.20	44.47
451.39	11.70
451.57	0.00
451.76	18.72
451.94	112.35
452.13	0.00
452.31	11.70
452.49	65.54
452.68	53.83
452.86	28.09
453.05	126.39
453.23	7.02
453.42	28.09
453.60	56.17
453.78	72.56
453.97	18.72
454.15	42.13
454.34	25.75
454.52	0.00
454.70	28.09
454.89	42.13
455.07	0.00
455.26	105.32
455.44	51.49
455.62	0.00
455.81	0.00
455.99	35.11
456.17	42.13
456.36	74.90
456.54	0.00
456.73	23.41
456.91	30.43
457.09	44.47
457.28	98.30
457.46	63.19
457.64	25.75
457.83	0.00
458.01	65.54
458.19	11.70
458.38	16.38
458.56	4.68
458.74	63.19
458.93	56.17
459.11	30.43
459.29	4.68
459.48	65.54
459.66	70.22
459.84	18.72
460.03	95.96
460.21	18.72
460.39	28.09
460.57	79.58
460.76	0.00
460.94	58.51
461.12	0.00
461.31	21.06
461.49	0.00
461.67	84.26
461.85	28.09
462.04	9.36
462.22	110.01
462.40	0.00
462.59	74.90
462.77	91.28
462.95	53.83
463.13	46.81
463.32	7.02
463.50	28.09
463.68	16.38
463.86	56.17
464.05	14.04
464.23	67.88
464.41	9.36
464.59	58.51
464.78	51.49
464.96	9.36
465.14	74.90
465.32	88.94
465.50	0.00
465.69	23.41
465.87	105.32
466.05	16.38
466.23	0.00
466.41	4.68
466.60	35.11
466.78	30.43
466.96	98.30
467.14	0.00
467.32	65.54
467.51	110.01
467.69	35.11
467.87	44.47
468.05	56.17
468.23	21.06
468.41	28.09
468.60	49.15
468.78	93.62
468.96	16.38
469.14	0.00
469.32	0.00
469.50	37.45
469.69	11.70
469.87	42.13
470.05	0.00
470.23	0.00
470.41	53.83
470.59	21.06
470.77	25.75
470.95	0.00
471.14	39.79
471.32	98.30
471.50	53.83
471.68	72.56
471.86	9.36
472.04	0.00
472.22	4.68
472.40	93.62
472.58	11.70
472.77	0.00
472.95	86.60
473.13	56.17
473.31	46.81
473.49	42.13
473.67	25.75
473.85	49.15
474.03	53.83
474.21	42.13
474.39	39.79
474.57	9.36
474.75	46.81
474.93	7.02
475.12	0.00
475.30	77.24
475.48	70.22
475.66	46.81
475.84	0.00
476.02	30.43
476.20	91.28
476.38	28.09
476.56	0.00
476.74	46.81
476.92	4.68
477.10	0.00
477.28	46.81
477.46	65.54
477.64	46.81
477.82	0.00
478.00	77.24
478.18	39.79
478.36	4.68
478.54	98.30
478.72	51.49
478.90	58.51
479.08	0.00
479.26	60.85
479.44	0.00
479.62	51.49
479.80	60.85
479.98	58.51
480.16	25.75
480.34	0.00
480.52	28.09
480.70	74.90
480.88	14.04
481.06	25.75
481.24	70.22
481.41	42.13
481.59	56.17
481.77	81.92
481.95	133.41
482.13	102.98
482.31	16.38
482.49	0.00
482.67	23.41
482.85	18.72
483.03	11.70
483.21	44.47
483.39	74.90
483.57	23.41
483.74	0.00
483.92	0.00
484.10	21.06
484.28	56.17
484.46	35.11
484.64	42.13
484.82	37.45
485.00	88.94
485.18	86.60
485.35	16.38
485.53	53.83
485.71	30.43
485.89	0.00
486.07	11.70
486.25	0.00
486.43	16.38
486.61	0.00
486.78	32.77
486.96	51.49
487.14	37.45
487.32	0.00
487.50	53.83
487.68	2.34
487.85	0.00
488.03	18.72
488.21	70.22
488.39	39.79
488.57	65.54
488.75	72.56
488.92	70.22
489.10	79.58
489.28	88.94
489.46	11.70
489.64	86.60
489.81	77.24
489.99	70.22
490.17	63.19
490.35	53.83
490.53	117.03
490.70	0.00
490.88	0.00
491.06	14.04
491.24	23.41
491.41	28.09
491.59	14.04
491.77	0.00
491.95	58.51
492.13	65.54
492.30	63.19
492.48	105.32
492.66	51.49
492.84	53.83
493.01	58.51
493.19	28.09
493.37	11.70
493.54	32.77
493.72	0.00
493.90	9.36
494.08	25.75
494.25	35.11
494.43	142.77
494.61	0.00
494.79	88.94
494.96	11.70
495.14	0.00
495.32	37.45
495.49	0.00
495.67	72.56
495.85	0.00
496.02	11.70
496.20	77.24
496.38	79.58
496.55	18.72
496.73	58.51
496.91	56.17
497.09	21.06
497.26	0.00
497.44	58.51
497.62	0.00
497.79	53.83
497.97	16.38
498.14	37.45
498.32	0.00
498.50	35.11
498.67	25.75
498.85	51.49
499.03	23.41
499.20	56.17
499.38	60.85
499.56	39.79
499.73	70.22
499.91	39.79
500.08	0.00
500.26	46.81
500.44	53.83
500.61	39.79
500.79	86.60
500.97	65.54
501.14	21.06
501.32	70.22
501.49	91.28
501.67	72.56
501.84	84.26
502.02	37.45
502.20	39.79
502.37	14.04
502.55	30.43
502.72	72.56
502.90	0.00
503.07	11.70
503.25	0.00
503.43	53.83
503.60	0.00
503.78	18.72
503.95	105.32
504.13	9.36
504.30	51.49
504.48	35.11
504.65	51.49
504.83	42.13
505.01	0.00
505.18	9.36
505.36	110.01
505.53	11.70
505.71	49.15
505.88	25.75
506.06	105.32
506.23	60.85
506.41	49.15
506.58	39.79
506.76	72.56
506.93	42.13
507.11	0.00
507.28	16.38
507.46	79.58
507.63	81.92
507.81	16.38
507.98	91.28
508.16	72.56
508.33	42.13
508.50	0.00
508.68	11.70
508.85	56.17
509.03	25.75
509.20	44.47
509.38	0.00
509.55	28.09
509.73	53.83
509.90	67.88
510.08	0.00
510.25	0.00
510.42	53.83
510.60	93.62
510.77	135.75
510.95	100.64
511.12	95.96
511.30	14.04
511.47	7.02
511.64	11.70
511.82	44.47
511.99	0.00
512.17	37.45
512.34	117.03
512.51	0.00
512.69	58.51
512.86	42.13
513.04	51.49
513.21	154.48
513.38	67.88
513.56	21.06
513.73	60.85
513.90	11.70
514.08	2.34
514.25	39.79
514.43	114.69
514.60	14.04
514.77	72.56
514.95	0.00
515.12	0.00
515.29	131.07
515.47	77.24
515.64	58.51
515.81	95.96
515.99	42.13
516.16	23.41
516.33	51.49
516.51	35.11
516.68	21.06
516.85	28.09
517.03	51.49
517.20	0.00
517.37	65.54
517.54	0.00
517.72	0.00
517.89	18.72
518.06	0.00
518.24	42.13
518.41	44.47
518.58	0.00
518.75	4.68
518.93	42.13
519.10	21.06
519.27	63.19
519.45	14.04
519.62	37.45
519.79	4.68
519.96	16.38
520.14	88.94
520.31	30.43
520.48	14.04
520.65	0.00
520.83	65.54
521.00	131.07
521.17	0.00
521.34	60.85
521.52	37.45
521.69	95.96
521.86	28.09
522.03	44.47
522.20	0.00
522.38	58.51
522.55	39.79
522.72	65.54
522.89	98.30
523.07	0.00
523.24	56.17
523.41	0.00
523.58	74.90
523.75	25.75
523.92	42.13
524.10	53.83
524.27	56.17
524.44	23.41
524.61	37.45
524.78	65.54
524.96	53.83
525.13	16.38
525.30	25.75
525.47	65.54
525.64	0.00
525.81	91.28
525.98	18.72
526.16	88.94
526.33	11.70
526.50	84.26
526.67	25.75
526.84	30.43
527.01	30.43
527.18	35.11
527.36	46.81
527.53	9.36
527.70	39.79
527.87	37.45
528.04	0.00
528.21	79.58
528.38	0.00
528.55	0.00
528.72	0.00
528.89	28.09
529.07	42.13
529.24	0.00
529.41	51.49
529.58	39.79
529.75	100.64
529.92	70.22
530.09	105.32
530.26	86.60
530.43	25.75
530.60	88.94
530.77	25.75
530.94	88.94
531.11	0.00
531.28	67.88
531.46	46.81
531.63	0.00
531.80	18.72
531.97	53.83
532.14	58.51
532.31	63.19
532.48	56.17
532.65	35.11
532.82	37.45
532.99	79.58
533.16	14.04
533.33	18.72
533.50	72.56
533.67	88.94
533.84	77.24
534.01	67.88
534.18	46.81
534.35	9.36
534.52	4.68
534.69	72.56
534.86	0.00
535.03	37.45
535.20	4.68
535.37	39.79
535.54	77.24
535.71	28.09
535.88	86.60
536.05	42.13
536.22	18.72
536.38	21.06
536.55	88.94
536.72	14.04
536.89	37.45
537.06	42.13
537.23	58.51
537.40	0.00
537.57	74.90
537.74	28.09
537.91	63.19
538.08	0.00
538.25	32.77
538.42	28.09
538.59	70.22
538.75	100.64
538.92	49.15
539.09	14.04
539.26	28.09
539.43	74.90
539.60	42.13
539.77	0.00
539.94	95.96
540.11	0.00
540.28	42.13
540.44	86.60
540.61	16.38
540.78	65.54
540.95	25.75
541.12	28.09
541.29	30.43
541.46	53.83
541.62	7.02
541.79	100.64
541.96	88.94
542.13	16.38
542.30	117.03
542.47	0.00
542.63	16.38
542.80	56.17
542.97	0.00
543.14	46.81
543.31	58.51
543.48	0.00
543.64	74.90
543.81	0.00
543.98	18.72
544.15	102.98
544.32	65.54
544.48	42.13
544.65	65.54
544.82	0.00
544.99	0.00
545.16	9.36
545.32	42.13
545.49	25.75
545.66	14.04
545.83	46.81
546.00	37.45
546.16	16.38
546.33	63.19
546.50	32.77
546.67	0.00
546.83	79.58
547.00	70.22
547.17	67.88
547.34	49.15
547.50	25.75
547.67	0.00
547.84	63.19
548.00	65.54
548.17	81.92
548.34	107.66
548.51	51.49
548.67	53.83
548.84	49.15
549.01	44.47
549.18	79.58
549.34	72.56
549.51	21.06
549.68	84.26
549.84	7.02
550.01	4.68
550.18	14.04
550.34	18.72
550.51	44.47
550.68	23.41
550.84	7.02
551.01	58.51
551.18	53.83
551.34	0.00
551.51	53.83
551.68	32.77
551.84	32.77
552.01	110.01
552.18	42.13
552.34	67.88
552.51	67.88
552.68	117.03
552.84	30.43
553.01	44.47
553.18	11.70
553.34	107.66
553.51	44.47
553.67	63.19
553.84	74.90
554.01	0.00
554.17	60.85
554.34	84.26
554.51	4.68
554.67	56.17
554.84	49.15
555.00	117.03
555.17	46.81
555.33	32.77
555.50	86.60
555.67	46.81
555.83	28.09
556.00	0.00
556.16	65.54
556.33	18.72
556.50	30.43
556.66	74.90
556.83	49.15
556.99	7.02
557.16	65.54
557.32	53.83
557.49	67.88
557.65	42.13
557.82	74.90
557.98	23.41
558.15	0.00
558.32	44.47
558.48	56.17
558.65	25.75
558.81	56.17
558.98	0.00
559.14	56.17
559.31	51.49
559.47	9.36
559.64	16.38
559.80	42.13
559.97	46.81
560.13	65.54
560.30	21.06
560.46	0.00
560.63	9.36
560.79	23.41
560.96	49.15
561.12	42.13
561.29	70.22
561.45	11.70
561.61	0.00
561.78	72.56
561.94	70.22
562.11	14.04
562.27	119.37
562.44	0.00
562.60	95.96
562.77	81.92
562.93	72.56
563.10	60.85
563.26	53.83
563.42	95.96
563.59	88.94
563.75	42.13
563.92	0.00
564.08	42.13
564.24	0.00
564.41	98.30
564.57	0.00
564.74	77.24
564.90	56.17
565.07	72.56
565.23	53.83
565.39	72.56
565.56	11.70
565.72	112.35
565.88	65.54
566.05	67.88
566.21	0.00
566.38	44.47
566.54	56.17
566.70	84.26
566.87	37.45
567.03	0.00
567.19	9.36
567.36	60.85
567.52	25.75
567.68	39.79
567.85	7.02
568.01	70.22
568.17	93.62
568.34	42.13
568.50	51.49
568.66	60.85
568.83	37.45
568.99	16.38
569.15	7.02
569.32	25.75
569.48	114.69
569.64	63.19
569.81	2.34
569.97	0.00
570.13	81.92
570.30	35.11
570.46	53.83
570.62	39.79
570.78	117.03
570.95	49.15
571.11	67.88
571.27	42.13
571.43	42.13
571.60	0.00
571.76	37.45
571.92	37.45
572.09	14.04
572.25	81.92
572.41	0.00
572.57	65.54
572.74	0.00
572.90	65.54
573.06	70.22
573.22	175.54
573.38	86.60
573.55	98.30
573.71	72.56
573.87	14.04
574.03	37.45
574.20	49.15
574.36	21.06
574.52	39.79
574.68	9.36
574.84	44.47
575.01	21.06
575.17	23.41
575.33	23.41
575.49	23.41
575.65	44.47
575.82	0.00
575.98	11.70
576.14	56.17
576.30	30.43
576.46	35.11
576.62	44.47
576.79	91.28
576.95	70.22
577.11	53.83
577.27	93.62
577.43	77.24
577.59	53.83
577.75	98.30
577.92	65.54
578.08	30.43
578.24	91.28
578.40	32.77
578.56	0.00
578.72	49.15
578.88	44.47
579.04	79.58
579.21	14.04
579.37	51.49
579.53	23.41
579.69	0.00
579.85	7.02
580.01	79.58
580.17	32.77
580.33	32.77
580.49	37.45
580.65	37.45
580.82	35.11
580.98	79.58
581.14	39.79
581.30	0.00
581.46	74.90
581.62	32.77
581.78	53.83
581.94	74.90
582.10	0.00
582.26	21.06
582.42	2.34
582.58	30.43
582.74	25.75
582.90	53.83
583.06	0.00
583.22	0.00
583.38	93.62
583.54	46.81
583.70	84.26
583.86	39.79
584.02	0.00
584.18	18.72
584.34	0.00
584.50	81.92
584.66	114.69
584.82	60.85
584.98	0.00
585.14	49.15
585.30	2.34
585.46	28.09
585.62	32.77
585.78	42.13
585.94	25.75
586.10	70.22
586.26	0.00
586.42	46.81
586.58	25.75
586.74	7.02
586.90	23.41
587.06	51.49
587.22	95.96
587.38	79.58
587.54	51.49
587.70	58.51
587.86	0.00
588.02	49.15
588.18	58.51
588.34	30.43
588.49	63.19
588.65	119.37
588.81	65.54
588.97	2.34
589.13	37.45
589.29	7.02
589.45	42.13
589.61	25.75
589.77	0.00
589.93	0.00
590.08	9.36
590.24	0.00
590.40	0.00
590.56	0.00
590.72	63.19
590.88	58.51
591.04	23.41
591.20	0.00
591.35	74.90
591.51	35.11
591.67	65.54
591.83	7.02
591.99	9.36
592.15	65.54
592.31	0.00
592.46	117.03
592.62	42.13
592.78	53.83
592.94	46.81
593.10	11.70
593.26	0.00
593.41	65.54
593.57	9.36
593.73	79.58
593.89	81.92
594.05	37.45
594.20	0.00
594.36	4.68
594.52	18.72
594.68	110.01
594.84	11.70
594.99	25.75
595.15	0.00
595.31	7.02
595.47	67.88
595.62	100.64
595.78	14.04
595.94	21.06
596.10	35.11
596.25	32.77
596.41	37.45
596.57	32.77
596.73	14.04
596.88	21.06
597.04	23.41
597.20	39.79
597.36	16.38
597.51	30.43
597.67	28.09
597.83	51.49
597.99	16.38
598.14	58.51
598.30	0.00
598.46	0.00
598.61	63.19
598.77	16.38
598.93	84.26
599.09	30.43
599.24	0.00
599.40	2.34
599.56	93.62
599.71	25.75
599.87	56.17
600.03	58.51
600.18	63.19
600.34	42.13
600.50	14.04
600.65	67.88
600.81	93.62
600.97	65.54
601.12	35.11
601.28	35.11
601.44	18.72
601.59	0.00
601.75	21.06
601.91	16.38
602.06	84.26
602.22	91.28
602.37	25.75
602.53	23.41
602.69	56.17
602.84	72.56
603.00	53.83
603.16	95.96
603.31	67.88
603.47	37.45
603.62	21.06
603.78	58.51
603.94	95.96
604.09	0.00
604.25	49.15
604.40	37.45
604.56	37.45
604.71	2.34
604.87	77.24
605.03	7.02
605.18	2.34
605.34	9.36
605.49	51.49
605.65	18.72
605.80	9.36
605.96	53.83
606.12	86.60
606.27	91.28
606.43	0.00
606.58	35.11
606.74	65.54
606.89	0.00
607.05	28.09
607.20	88.94
607.36	28.09
607.51	14.04
607.67	56.17
607.82	86.60
607.98	30.43
608.13	42.13
608.29	16.38
608.44	0.00
608.60	35.11
608.75	21.06
608.91	0.00
609.06	49.15
609.22	67.88
609.37	72.56
609.53	4.68
609.68	18.72
609.84	0.00
609.99	18.72
610.15	53.83
610.30	102.98
610.46	58.51
610.61	0.00
610.76	58.51
610.92	37.45
611.07	46.81
611.23	0.00
611.38	4.68
611.54	23.41
611.69	0.00
611.84	56.17
612.00	117.03
612.15	35.11
612.31	0.00
612.46	7.02
612.62	0.00
612.77	65.54
612.92	102.98
613.08	16.38
613.23	72.56
613.39	25.75
613.54	0.00
613.69	37.45
613.85	21.06
614.00	14.04
614.15	154.48
614.31	72.56
614.46	60.85
614.62	42.13
614.77	11.70
614.92	0.00
615.08	53.83
615.23	42.13
615.38	51.49
615.54	72.56
615.69	16.38
615.84	0.00
616.00	25.75
616.15	88.94
616.30	42.13
616.46	44.47
616.61	126.39
616.76	28.09
616.92	98.30
617.07	88.94
617.22	0.00
617.37	0.00
617.53	81.92
617.68	16.38
617.83	0.00
617.99	4.68
618.14	49.15
618.29	28.09
618.45	77.24
618.60	35.11
618.75	63.19
618.90	88.94
619.06	23.41
619.21	28.09
619.36	79.58
619.51	18.72
619.67	7.02
619.82	135.75
619.97	23.41
620.12	18.72
620.28	39.79
620.43	77.24
620.58	21.06
620.73	70.22
620.89	14.04
621.04	14.04
621.19	2.34
621.34	44.47
621.49	0.00
621.65	30.43
621.80	51.49
621.95	100.64
622.10	0.00
622.25	46.81
622.41	42.13
622.56	21.06
622.71	25.75
622.86	86.60
623.01	86.60
623.16	32.77
623.32	32.77
623.47	44.47
623.62	0.00
623.77	0.00
623.92	28.09
624.07	49.15
624.23	84.26
624.38	70.22
624.53	39.79
624.68	21.06
624.83	51.49
624.98	49.15
625.13	44.47
625.29	53.83
625.44	46.81
625.59	37.45
625.74	49.15
625.89	0.00
626.04	4.68
626.19	21.06
626.34	28.09
626.49	60.85
626.65	18.72
626.80	30.43
626.95	44.47
627.10	110.01
627.25	77.24
627.40	63.19
627.55	39.79
627.70	39.79
627.85	53.83
628.00	0.00
628.15	49.15
628.30	4.68
628.45	0.00
628.60	2.34
628.76	32.77
628.91	0.00
629.06	32.77
629.21	0.00
629.36	88.94
629.51	56.17
629.66	79.58
629.81	28.09
629.96	4.68
630.11	44.47
630.26	28.09
630.41	79.58
630.56	51.49
630.71	74.90
630.86	11.70
631.01	0.00
631.16	18.72
631.31	60.85
631.46	58.51
631.61	95.96
631.76	14.04
631.91	2.34
632.06	56.17
632.21	0.00
632.36	128.73
632.51	0.00
632.66	126.39
632.81	25.75
632.96	0.00
633.10	21.06
633.25	14.04
633.40	67.88
633.55	9.36
633.70	23.41
633.85	0.00
634.00	65.54
634.15	84.26
634.30	32.77
634.45	0.00
634.60	112.35
634.75	72.56
634.90	25.75
635.05	28.09
635.19	14.04
635.34	37.45
635.49	58.51
635.64	23.41
635.79	79.58
635.94	14.04
636.09	25.75
636.24	0.00
636.39	39.79
636.53	37.45
636.68	0.00
636.83	42.13
636.98	72.56
637.13	65.54
637.28	100.64
637.43	30.43
637.57	7.02
637.72	30.43
637.87	58.51
638.02	16.38
638.17	49.15
638.32	30.43
638.46	51.49
638.61	25.75
638.76	79.58
638.91	21.06
639.06	14.04
639.20	142.77
639.35	25.75
639.50	0.00
639.65	44.47
639.80	2.34
639.94	140.43
640.09	42.13
640.24	0.00
640.39	81.92
640.54	18.72
640.68	11.70
640.83	46.81
640.98	58.51
641.13	0.00
641.27	79.58
641.42	23.41
641.57	93.62
641.72	37.45
641.86	58.51
642.01	37.45
642.16	84.26
642.31	70.22
642.45	30.43
642.60	18.72
642.75	72.56
642.90	74.90
643.04	53.83
643.19	44.47
643.34	25.75
643.48	11.70
643.63	2.34
643.78	0.00
643.93	58.51
644.07	30.43
644.22	18.72
644.37	49.15
644.51	16.38
644.66	37.45
644.81	16.38
644.95	53.83
645.10	49.15
645.25	39.79
645.39	32.77
645.54	51.49
645.69	86.60
645.83	67.88
645.98	32.77
646.13	0.00
646.27	42.13
646.42	11.70
646.57	65.54
646.71	0.00
646.86	28.09
647.00	135.75
647.15	56.17
647.30	63.19
647.44	49.15
647.59	16.38
647.74	28.09
647.88	39.79
648.03	0.00
648.17	0.00
648.32	39.79
648.47	0.00
648.61	35.11
648.76	84.26
648.90	63.19
649.05	60.85
649.20	46.81
649.34	42.13
649.49	32.77
649.63	53.83
649.78	70.22
649.92	91.28
650.07	16.38
650.21	60.85
650.36	11.70
650.51	95.96
650.65	21.06
650.80	60.85
650.94	23.41
651.09	18.72
651.23	25.75
651.38	74.90
651.52	0.00
651.67	25.75
651.81	35.11
651.96	16.38
652.10	0.00
652.25	0.00
652.39	39.79
652.54	4.68
652.68	0.00
652.83	28.09
652.97	56.17
653.12	14.04
653.26	74.90
653.41	0.00
653.55	72.56
653.70	0.00
653.84	100.64
653.99	4.68
654.13	0.00
654.27	67.88
654.42	84.26
654.56	49.15
654.71	88.94
654.85	4.68
655.00	9.36
655.14	74.90
655.29	0.00
655.43	0.00
655.57	72.56
655.72	32.77
655.86	88.94
656.01	14.04
656.15	60.85
656.30	49.15
656.44	0.00
656.58	56.17
656.73	39.79
656.87	72.56
657.01	37.45
657.16	79.58
657.30	91.28
657.45	49.15
657.59	42.13
657.73	0.00
657.88	18.72
658.02	18.72
658.16	9.36
658.31	21.06
658.45	16.38
658.60	2.34
658.74	84.26
658.88	65.54
659.03	14.04
659.17	51.49
659.31	18.72
659.46	25.75
659.60	7.02
659.74	0.00
659.89	0.00
660.03	4.68
660.17	58.51
660.32	37.45
660.46	0.00
660.60	51.49
660.74	49.15
660.89	51.49
661.03	84.26
661.17	35.11
661.32	77.24
661.46	63.19
661.60	11.70
661.74	81.92
661.89	32.77
662.03	58.51
662.17	58.51
662.31	91.28
662.46	119.37
662.60	56.17
662.74	23.41
662.88	60.85
663.03	18.72
663.17	0.00
663.31	49.15
663.45	30.43
663.60	23.41
663.74	0.00
663.88	93.62
664.02	65.54
664.17	37.45
664.31	56.17
664.45	25.75
664.59	46.81
664.73	51.49
664.88	18.72
665.02	16.38
665.16	0.00
665.30	0.00
665.44	51.49
665.59	117.03
665.73	93.62
665.87	0.00
666.01	39.79
666.15	53.83
666.29	44.47
666.44	0.00
666.58	37.45
666.72	72.56
666.86	0.00
667.00	14.04
667.14	0.00
667.28	53.83
667.43	37.45
667.57	32.77
667.71	0.00
667.85	0.00
667.99	0.00
668.13	44.47
668.27	67.88
668.41	58.51
668.56	9.36
668.70	42.13
668.84	0.00
668.98	9.36
669.12	25.75
669.26	16.38
669.40	25.75
669.54	49.15
669.68	60.85
669.82	0.00
669.96	0.00
670.10	56.17
670.25	53.83
670.39	56.17
670.53	56.17
670.67	21.06
670.81	28.09
670.95	60.85
671.09	42.13
671.23	16.38
671.37	60.85
671.51	46.81
671.65	35.11
671.79	18.72
671.93	28.09
672.07	32.77
672.21	16.38
672.35	72.56
672.49	42.13
672.63	74.90
672.77	0.00
672.91	0.00
673.05	9.36
673.19	0.00
673.33	0.00
673.47	0.00
673.61	32.77
673.75	67.88
673.89	0.00
674.03	81.92
674.17	42.13
674.31	14.04
674.45	46.81
674.59	30.43
674.73	58.51
674.87	121.71
675.01	28.09
675.15	0.00
675.29	138.09
675.43	46.81
675.56	37.45
675.70	0.00
675.84	42.13
675.98	11.70
676.12	39.79
676.26	53.83
676.40	2.34
676.54	42.13
676.68	28.09
676.82	0.00
676.96	65.54
677.10	65.54
677.23	7.02
677.37	9.36
677.51	46.81
677.65	0.00
677.79	93.62
677.93	32.77
678.07	30.43
678.21	0.00
678.34	14.04
678.48	39.79
678.62	0.00
678.76	18.72
678.90	16.38
679.04	0.00
679.18	4.68
679.31	28.09
679.45	42.13
679.59	21.06
679.73	16.38
679.87	0.00
680.00	44.47
680.14	63.19
680.28	0.00
680.42	0.00
680.56	16.38
680.70	0.00
680.83	21.06
680.97	37.45
681.11	0.00
681.25	16.38
681.39	44.47
681.52	4.68
681.66	32.77
681.80	0.00
681.94	84.26
682.07	56.17
682.21	49.15
682.35	88.94
682.49	77.24
682.62	14.04
682.76	42.13
682.90	2.34
683.04	23.41
683.17	16.38
683.31	18.72
683.45	9.36
683.59	74.90
683.72	51.49
683.86	37.45
684.00	0.00
684.13	72.56
684.27	7.02
684.41	88.94
684.55	23.41
684.68	84.26
684.82	16.38
684.96	0.00
685.09	4.68
685.23	32.77
685.37	74.90
685.50	37.45
685.64	93.62
685.78	35.11
685.91	51.49
686.05	25.75
686.19	28.09
686.32	0.00
686.46	0.00
686.60	63.19
686.73	0.00
686.87	35.11
687.01	58.51
687.14	63.19
687.28	0.00
687.42	2.34
687.55	25.75
687.69	28.09
687.82	32.77
687.96	58.51
688.10	0.00
688.23	14.04
688.37	67.88
688.50	42.13
688.64	110.01
688.78	0.00
688.91	60.85
689.05	14.04
689.18	35.11
689.32	56.17
689.46	110.01
689.59	65.54
689.73	18.72
689.86	0.00
690.00	18.72
690.13	0.00
690.27	35.11
690.41	58.51
690.54	65.54
690.68	0.00
690.81	35.11
690.95	23.41
691.08	0.00
691.22	0.00
691.35	0.00
691.49	16.38
691.62	72.56
691.76	46.81
691.89	25.75
692.03	77.24
692.16	23.41
692.30	70.22
692.43	32.77
692.57	11.70
692.70	0.00
692.84	49.15
692.97	0.00
693.11	35.11
693.24	0.00
693.38	35.11
693.51	28.09
693.65	88.94
693.78	9.36
693.92	60.85
694.05	42.13
694.19	0.00
694.32	7.02
694.45	32.77
694.59	0.00
694.72	0.00
694.86	39.79
694.99	65.54
695.13	23.41
695.26	84.26
695.39	16.38
695.53	133.41
695.66	0.00
695.80	42.13
695.93	14.04
696.07	0.00
696.20	0.00
696.33	0.00
696.47	0.00
696.60	25.75
696.73	95.96
696.87	0.00
697.00	23.41
697.14	67.88
697.27	25.75
697.40	32.77
697.54	39.79
697.67	44.47
697.80	4.68
697.94	0.00
698.07	49.15
698.21	44.47
698.34	44.47
698.47	0.00
698.61	23.41
698.74	0.00
698.87	14.04
699.01	65.54
699.14	0.00
699.27	0.00
699.40	37.45
699.54	21.06
699.67	0.00
699.80	56.17
699.94	56.17
700.07	21.06
700.20	65.54
700.34	23.41
700.47	46.81
700.60	18.72
700.73	131.07
700.87	30.43
701.00	32.77
701.13	84.26
701.26	0.00
701.40	0.00
701.53	0.00
701.66	9.36
701.79	60.85
701.93	7.02
702.06	46.81
702.19	18.72
702.32	0.00
702.46	44.47
702.59	30.43
702.72	0.00
702.85	0.00
702.99	32.77
703.12	70.22
703.25	79.58
703.38	35.11
703.51	35.11
703.65	79.58
703.78	16.38
703.91	0.00
704.04	35.11
704.17	0.00
704.31	56.17
704.44	105.32
704.57	25.75
704.70	0.00
704.83	32.77
704.96	4.68
705.10	107.66
705.23	14.04
>>>>>End Processed Spectral Data<<<<<
