SpectraSuite Data File
++++++++++++++++++++++++++++++++++++
Date: Fri Oct 04 12:13:34 GMT-05:00 2013
User: price-jones
Dark Spectrum Present: No
Reference Spectrum Present: No
Number of Sampled Component Spectra: 1
Spectrometers: USB2+H05261
Integration Time (usec): 10000 (USB2+H05261)
Spectra Averaged: 1 (USB2+H05261)
Boxcar Smoothing: 0 (USB2+H05261)
Correct for Electrical Dark: No (USB2+H05261)
Strobe/Lamp Enabled: No (USB2+H05261)
Correct for Detector Non-linearity: No (USB2+H05261)
Correct for Stray Light: No (USB2+H05261)
Number of Pixels in Processed Spectrum: 2048
>>>>>Begin Processed Spectral Data<<<<<
365.73	18.72
365.92	18.72
366.12	18.72
366.32	0.00
366.52	0.00
366.72	0.00
366.91	0.00
367.11	0.00
367.31	0.00
367.51	0.00
367.70	0.00
367.90	0.00
368.10	0.00
368.30	0.00
368.49	0.00
368.69	0.00
368.89	0.00
369.09	0.00
369.28	0.00
369.48	0.00
369.68	0.00
369.87	0.00
370.07	0.00
370.27	0.00
370.47	0.00
370.66	0.00
370.86	0.00
371.06	0.00
371.25	9.36
371.45	0.00
371.65	0.00
371.84	0.00
372.04	0.00
372.24	0.00
372.44	0.00
372.63	28.09
372.83	9.36
373.03	0.00
373.22	0.00
373.42	0.00
373.62	0.00
373.81	0.00
374.01	44.47
374.21	0.00
374.40	4.68
374.60	37.45
374.79	9.36
374.99	0.00
375.19	0.00
375.38	72.56
375.58	60.85
375.78	16.38
375.97	74.90
376.17	7.02
376.37	18.72
376.56	42.13
376.76	56.17
376.95	11.70
377.15	32.77
377.35	42.13
377.54	18.72
377.74	0.00
377.93	28.09
378.13	49.15
378.33	51.49
378.52	0.00
378.72	39.79
378.91	58.51
379.11	9.36
379.31	0.00
379.50	0.00
379.70	53.83
379.89	44.47
380.09	0.00
380.28	30.43
380.48	9.36
380.68	32.77
380.87	16.38
381.07	35.11
381.26	84.26
381.46	30.43
381.65	51.49
381.85	0.00
382.04	53.83
382.24	0.00
382.43	0.00
382.63	0.00
382.83	42.13
383.02	0.00
383.22	25.75
383.41	25.75
383.61	37.45
383.80	0.00
384.00	21.06
384.19	79.58
384.39	39.79
384.58	0.00
384.78	14.04
384.97	42.13
385.17	44.47
385.36	0.00
385.56	0.00
385.75	110.01
385.95	0.00
386.14	9.36
386.34	95.96
386.53	0.00
386.72	9.36
386.92	14.04
387.11	44.47
387.31	65.54
387.50	0.00
387.70	0.00
387.89	35.11
388.09	30.43
388.28	21.06
388.48	0.00
388.67	21.06
388.86	16.38
389.06	0.00
389.25	32.77
389.45	9.36
389.64	0.00
389.84	58.51
390.03	30.43
390.22	49.15
390.42	0.00
390.61	18.72
390.81	65.54
391.00	0.00
391.19	35.11
391.39	28.09
391.58	44.47
391.78	23.41
391.97	0.00
392.16	16.38
392.36	51.49
392.55	84.26
392.75	4.68
392.94	42.13
393.13	9.36
393.33	88.94
393.52	70.22
393.71	0.00
393.91	65.54
394.10	0.00
394.29	0.00
394.49	23.41
394.68	72.56
394.88	67.88
395.07	42.13
395.26	58.51
395.46	0.00
395.65	0.00
395.84	51.49
396.04	46.81
396.23	9.36
396.42	7.02
396.62	42.13
396.81	44.47
397.00	51.49
397.19	46.81
397.39	60.85
397.58	67.88
397.77	65.54
397.97	95.96
398.16	30.43
398.35	0.00
398.55	2.34
398.74	65.54
398.93	0.00
399.12	14.04
399.32	0.00
399.51	77.24
399.70	77.24
399.90	77.24
400.09	0.00
400.28	0.00
400.47	11.70
400.67	23.41
400.86	53.83
401.05	60.85
401.24	9.36
401.44	4.68
401.63	0.00
401.82	0.00
402.01	25.75
402.21	35.11
402.40	0.00
402.59	14.04
402.78	25.75
402.97	30.43
403.17	42.13
403.36	0.00
403.55	88.94
403.74	7.02
403.93	44.47
404.13	65.54
404.32	0.00
404.51	79.58
404.70	49.15
404.89	102.98
405.09	21.06
405.28	81.92
405.47	63.19
405.66	35.11
405.85	28.09
406.05	18.72
406.24	35.11
406.43	49.15
406.62	0.00
406.81	39.79
407.00	25.75
407.20	44.47
407.39	39.79
407.58	0.00
407.77	2.34
407.96	0.00
408.15	44.47
408.34	65.54
408.54	9.36
408.73	0.00
408.92	51.49
409.11	49.15
409.30	21.06
409.49	32.77
409.68	49.15
409.87	32.77
410.07	16.38
410.26	56.17
410.45	37.45
410.64	39.79
410.83	72.56
411.02	67.88
411.21	60.85
411.40	37.45
411.59	70.22
411.78	32.77
411.98	0.00
412.17	0.00
412.36	110.01
412.55	32.77
412.74	117.03
412.93	21.06
413.12	0.00
413.31	58.51
413.50	35.11
413.69	28.09
413.88	4.68
414.07	21.06
414.26	28.09
414.45	42.13
414.64	95.96
414.83	86.60
415.02	53.83
415.22	74.90
415.41	46.81
415.60	74.90
415.79	9.36
415.98	23.41
416.17	58.51
416.36	0.00
416.55	67.88
416.74	74.90
416.93	23.41
417.12	95.96
417.31	53.83
417.50	49.15
417.69	16.38
417.88	0.00
418.07	70.22
418.26	60.85
418.45	7.02
418.64	0.00
418.83	81.92
419.02	58.51
419.21	46.81
419.39	0.00
419.58	65.54
419.77	9.36
419.96	79.58
420.15	79.58
420.34	60.85
420.53	91.28
420.72	128.73
420.91	0.00
421.10	53.83
421.29	86.60
421.48	67.88
421.67	2.34
421.86	79.58
422.05	44.47
422.24	0.00
422.43	18.72
422.61	11.70
422.80	77.24
422.99	30.43
423.18	60.85
423.37	102.98
423.56	58.51
423.75	46.81
423.94	51.49
424.13	30.43
424.32	14.04
424.50	65.54
424.69	21.06
424.88	21.06
425.07	9.36
425.26	79.58
425.45	51.49
425.64	46.81
425.83	63.19
426.01	30.43
426.20	18.72
426.39	18.72
426.58	67.88
426.77	58.51
426.96	35.11
427.15	18.72
427.33	37.45
427.52	4.68
427.71	70.22
427.90	63.19
428.09	91.28
428.28	117.03
428.46	95.96
428.65	53.83
428.84	70.22
429.03	28.09
429.22	70.22
429.40	0.00
429.59	49.15
429.78	121.71
429.97	39.79
430.16	39.79
430.34	0.00
430.53	88.94
430.72	0.00
430.91	23.41
431.10	84.26
431.28	21.06
431.47	56.17
431.66	117.03
431.85	65.54
432.03	77.24
432.22	0.00
432.41	93.62
432.60	7.02
432.79	70.22
432.97	0.00
433.16	28.09
433.35	35.11
433.54	95.96
433.72	86.60
433.91	14.04
434.10	63.19
434.28	60.85
434.47	37.45
434.66	30.43
434.85	32.77
435.03	42.13
435.22	0.00
435.41	44.47
435.59	56.17
435.78	0.00
435.97	72.56
436.16	25.75
436.34	67.88
436.53	14.04
436.72	81.92
436.90	30.43
437.09	14.04
437.28	42.13
437.46	74.90
437.65	86.60
437.84	25.75
438.02	159.16
438.21	16.38
438.40	72.56
438.58	37.45
438.77	9.36
438.96	77.24
439.14	72.56
439.33	0.00
439.52	0.00
439.70	4.68
439.89	18.72
440.08	77.24
440.26	60.85
440.45	30.43
440.63	30.43
440.82	30.43
441.01	4.68
441.19	0.00
441.38	30.43
441.57	46.81
441.75	21.06
441.94	117.03
442.12	77.24
442.31	84.26
442.50	63.19
442.68	39.79
442.87	0.00
443.05	65.54
443.24	53.83
443.43	23.41
443.61	114.69
443.80	39.79
443.98	100.64
444.17	63.19
444.35	18.72
444.54	25.75
444.73	79.58
444.91	79.58
445.10	124.05
445.28	32.77
445.47	114.69
445.65	28.09
445.84	39.79
446.02	102.98
446.21	16.38
446.39	0.00
446.58	77.24
446.77	53.83
446.95	25.75
447.14	16.38
447.32	121.71
447.51	39.79
447.69	42.13
447.88	25.75
448.06	67.88
448.25	58.51
448.43	98.30
448.62	44.47
448.80	0.00
448.99	100.64
449.17	25.75
449.36	30.43
449.54	72.56
449.73	63.19
449.91	30.43
450.10	105.32
450.28	81.92
450.46	16.38
450.65	18.72
450.83	65.54
451.02	14.04
451.20	72.56
451.39	25.75
451.57	0.00
451.76	74.90
451.94	21.06
452.13	7.02
452.31	56.17
452.49	95.96
452.68	51.49
452.86	18.72
453.05	86.60
453.23	18.72
453.42	70.22
453.60	46.81
453.78	58.51
453.97	0.00
454.15	42.13
454.34	53.83
454.52	21.06
454.70	72.56
454.89	46.81
455.07	46.81
455.26	110.01
455.44	65.54
455.62	51.49
455.81	56.17
455.99	72.56
456.17	100.64
456.36	46.81
456.54	65.54
456.73	88.94
456.91	14.04
457.09	70.22
457.28	39.79
457.46	65.54
457.64	77.24
457.83	51.49
458.01	79.58
458.19	9.36
458.38	0.00
458.56	35.11
458.74	18.72
458.93	14.04
459.11	0.00
459.29	46.81
459.48	79.58
459.66	46.81
459.84	30.43
460.03	39.79
460.21	98.30
460.39	84.26
460.57	25.75
460.76	46.81
460.94	53.83
461.12	39.79
461.31	30.43
461.49	0.00
461.67	86.60
461.85	79.58
462.04	18.72
462.22	152.13
462.40	53.83
462.59	84.26
462.77	39.79
462.95	2.34
463.13	70.22
463.32	81.92
463.50	110.01
463.68	114.69
463.86	39.79
464.05	42.13
464.23	117.03
464.41	18.72
464.59	16.38
464.78	81.92
464.96	46.81
465.14	124.05
465.32	30.43
465.50	74.90
465.69	105.32
465.87	70.22
466.05	44.47
466.23	154.48
466.41	9.36
466.60	46.81
466.78	93.62
466.96	110.01
467.14	0.00
467.32	140.43
467.51	72.56
467.69	14.04
467.87	14.04
468.05	21.06
468.23	0.00
468.41	79.58
468.60	88.94
468.78	16.38
468.96	110.01
469.14	86.60
469.32	77.24
469.50	49.15
469.69	84.26
469.87	65.54
470.05	107.66
470.23	16.38
470.41	51.49
470.59	91.28
470.77	86.60
470.95	56.17
471.14	56.17
471.32	44.47
471.50	95.96
471.68	74.90
471.86	53.83
472.04	65.54
472.22	0.00
472.40	46.81
472.58	39.79
472.77	46.81
472.95	77.24
473.13	37.45
473.31	58.51
473.49	11.70
473.67	51.49
473.85	60.85
474.03	0.00
474.21	126.39
474.39	9.36
474.57	156.82
474.75	86.60
474.93	51.49
475.12	32.77
475.30	65.54
475.48	11.70
475.66	70.22
475.84	23.41
476.02	70.22
476.20	53.83
476.38	74.90
476.56	77.24
476.74	88.94
476.92	67.88
477.10	67.88
477.28	39.79
477.46	58.51
477.64	65.54
477.82	86.60
478.00	84.26
478.18	105.32
478.36	37.45
478.54	86.60
478.72	0.00
478.90	91.28
479.08	86.60
479.26	105.32
479.44	93.62
479.62	44.47
479.80	51.49
479.98	39.79
480.16	16.38
480.34	28.09
480.52	93.62
480.70	37.45
480.88	44.47
481.06	112.35
481.24	70.22
481.41	105.32
481.59	70.22
481.77	28.09
481.95	65.54
482.13	88.94
482.31	51.49
482.49	114.69
482.67	49.15
482.85	110.01
483.03	100.64
483.21	53.83
483.39	11.70
483.57	2.34
483.74	117.03
483.92	81.92
484.10	117.03
484.28	70.22
484.46	105.32
484.64	53.83
484.82	37.45
485.00	25.75
485.18	56.17
485.35	0.00
485.53	23.41
485.71	0.00
485.89	56.17
486.07	81.92
486.25	81.92
486.43	42.13
486.61	23.41
486.78	0.00
486.96	84.26
487.14	81.92
487.32	98.30
487.50	16.38
487.68	126.39
487.85	30.43
488.03	37.45
488.21	44.47
488.39	91.28
488.57	37.45
488.75	0.00
488.92	63.19
489.10	79.58
489.28	2.34
489.46	77.24
489.64	63.19
489.81	65.54
489.99	63.19
490.17	79.58
490.35	81.92
490.53	30.43
490.70	39.79
490.88	124.05
491.06	121.71
491.24	84.26
491.41	46.81
491.59	67.88
491.77	100.64
491.95	0.00
492.13	65.54
492.30	65.54
492.48	91.28
492.66	65.54
492.84	42.13
493.01	65.54
493.19	51.49
493.37	112.35
493.54	161.50
493.72	81.92
493.90	105.32
494.08	100.64
494.25	79.58
494.43	133.41
494.61	152.13
494.79	72.56
494.96	60.85
495.14	35.11
495.32	79.58
495.49	14.04
495.67	46.81
495.85	126.39
496.02	133.41
496.20	119.37
496.38	21.06
496.55	81.92
496.73	56.17
496.91	140.43
497.09	30.43
497.26	72.56
497.44	63.19
497.62	100.64
497.79	77.24
497.97	93.62
498.14	74.90
498.32	98.30
498.50	84.26
498.67	88.94
498.85	53.83
499.03	177.88
499.20	14.04
499.38	2.34
499.56	100.64
499.73	67.88
499.91	98.30
500.08	65.54
500.26	88.94
500.44	88.94
500.61	42.13
500.79	37.45
500.97	37.45
501.14	95.96
501.32	28.09
501.49	7.02
501.67	14.04
501.84	98.30
502.02	121.71
502.20	98.30
502.37	131.07
502.55	77.24
502.72	159.16
502.90	100.64
503.07	140.43
503.25	119.37
503.43	60.85
503.60	81.92
503.78	95.96
503.95	46.81
504.13	67.88
504.30	46.81
504.48	93.62
504.65	72.56
504.83	0.00
505.01	63.19
505.18	32.77
505.36	16.38
505.53	119.37
505.71	114.69
505.88	124.05
506.06	121.71
506.23	21.06
506.41	56.17
506.58	110.01
506.76	119.37
506.93	7.02
507.11	72.56
507.28	119.37
507.46	23.41
507.63	74.90
507.81	74.90
507.98	74.90
508.16	46.81
508.33	121.71
508.50	110.01
508.68	58.51
508.85	86.60
509.03	100.64
509.20	46.81
509.38	28.09
509.55	86.60
509.73	65.54
509.90	105.32
510.08	72.56
510.25	112.35
510.42	32.77
510.60	58.51
510.77	147.45
510.95	49.15
511.12	81.92
511.30	51.49
511.47	91.28
511.64	72.56
511.82	102.98
511.99	91.28
512.17	46.81
512.34	37.45
512.51	23.41
512.69	67.88
512.86	135.75
513.04	51.49
513.21	63.19
513.38	70.22
513.56	53.83
513.73	114.69
513.90	42.13
514.08	39.79
514.25	88.94
514.43	140.43
514.60	121.71
514.77	53.83
514.95	81.92
515.12	28.09
515.29	16.38
515.47	65.54
515.64	81.92
515.81	49.15
515.99	53.83
516.16	56.17
516.33	100.64
516.51	46.81
516.68	86.60
516.85	77.24
517.03	23.41
517.20	70.22
517.37	74.90
517.54	74.90
517.72	110.01
517.89	39.79
518.06	105.32
518.24	147.45
518.41	93.62
518.58	0.00
518.75	30.43
518.93	93.62
519.10	102.98
519.27	65.54
519.45	67.88
519.62	23.41
519.79	67.88
519.96	23.41
520.14	117.03
520.31	91.28
520.48	77.24
520.65	93.62
520.83	124.05
521.00	49.15
521.17	44.47
521.34	44.47
521.52	70.22
521.69	21.06
521.86	53.83
522.03	86.60
522.20	7.02
522.38	60.85
522.55	44.47
522.72	105.32
522.89	37.45
523.07	39.79
523.24	70.22
523.41	140.43
523.58	91.28
523.75	74.90
523.92	84.26
524.10	44.47
524.27	23.41
524.44	126.39
524.61	21.06
524.78	60.85
524.96	25.75
525.13	117.03
525.30	60.85
525.47	65.54
525.64	51.49
525.81	88.94
525.98	53.83
526.16	84.26
526.33	65.54
526.50	35.11
526.67	67.88
526.84	37.45
527.01	95.96
527.18	100.64
527.36	112.35
527.53	119.37
527.70	110.01
527.87	39.79
528.04	117.03
528.21	79.58
528.38	140.43
528.55	74.90
528.72	79.58
528.89	112.35
529.07	88.94
529.24	77.24
529.41	126.39
529.58	42.13
529.75	128.73
529.92	112.35
530.09	58.51
530.26	168.52
530.43	117.03
530.60	142.77
530.77	0.00
530.94	30.43
531.11	112.35
531.28	51.49
531.46	14.04
531.63	102.98
531.80	74.90
531.97	86.60
532.14	107.66
532.31	65.54
532.48	39.79
532.65	30.43
532.82	98.30
532.99	98.30
533.16	145.11
533.33	35.11
533.50	39.79
533.67	107.66
533.84	58.51
534.01	100.64
534.18	84.26
534.35	102.98
534.52	105.32
534.69	135.75
534.86	102.98
535.03	140.43
535.20	81.92
535.37	7.02
535.54	93.62
535.71	102.98
535.88	72.56
536.05	56.17
536.22	138.09
536.38	93.62
536.55	74.90
536.72	117.03
536.89	79.58
537.06	112.35
537.23	56.17
537.40	84.26
537.57	74.90
537.74	105.32
537.91	70.22
538.08	74.90
538.25	81.92
538.42	67.88
538.59	95.96
538.75	79.58
538.92	58.51
539.09	140.43
539.26	37.45
539.43	121.71
539.60	93.62
539.77	77.24
539.94	117.03
540.11	86.60
540.28	63.19
540.44	119.37
540.61	79.58
540.78	21.06
540.95	102.98
541.12	119.37
541.29	30.43
541.46	67.88
541.62	46.81
541.79	44.47
541.96	121.71
542.13	58.51
542.30	32.77
542.47	77.24
542.63	51.49
542.80	102.98
542.97	88.94
543.14	93.62
543.31	58.51
543.48	88.94
543.64	30.43
543.81	95.96
543.98	117.03
544.15	88.94
544.32	53.83
544.48	56.17
544.65	163.84
544.82	133.41
544.99	128.73
545.16	117.03
545.32	98.30
545.49	86.60
545.66	124.05
545.83	56.17
546.00	58.51
546.16	0.00
546.33	42.13
546.50	56.17
546.67	140.43
546.83	98.30
547.00	105.32
547.17	74.90
547.34	91.28
547.50	93.62
547.67	95.96
547.84	49.15
548.00	112.35
548.17	81.92
548.34	63.19
548.51	77.24
548.67	126.39
548.84	72.56
549.01	79.58
549.18	81.92
549.34	149.79
549.51	128.73
549.68	88.94
549.84	121.71
550.01	93.62
550.18	124.05
550.34	142.77
550.51	147.45
550.68	112.35
550.84	95.96
551.01	46.81
551.18	74.90
551.34	79.58
551.51	11.70
551.68	95.96
551.84	46.81
552.01	56.17
552.18	121.71
552.34	39.79
552.51	30.43
552.68	114.69
552.84	53.83
553.01	79.58
553.18	56.17
553.34	0.00
553.51	79.58
553.67	25.75
553.84	114.69
554.01	110.01
554.17	182.56
554.34	53.83
554.51	117.03
554.67	95.96
554.84	98.30
555.00	42.13
555.17	42.13
555.33	152.13
555.50	37.45
555.67	95.96
555.83	65.54
556.00	9.36
556.16	53.83
556.33	56.17
556.50	105.32
556.66	114.69
556.83	131.07
556.99	117.03
557.16	88.94
557.32	128.73
557.49	58.51
557.65	49.15
557.82	72.56
557.98	98.30
558.15	84.26
558.32	119.37
558.48	37.45
558.65	58.51
558.81	131.07
558.98	145.11
559.14	114.69
559.31	18.72
559.47	32.77
559.64	95.96
559.80	65.54
559.97	140.43
560.13	98.30
560.30	37.45
560.46	9.36
560.63	105.32
560.79	16.38
560.96	25.75
561.12	131.07
561.29	65.54
561.45	72.56
561.61	51.49
561.78	121.71
561.94	67.88
562.11	84.26
562.27	56.17
562.44	74.90
562.60	86.60
562.77	100.64
562.93	95.96
563.10	49.15
563.26	32.77
563.42	44.47
563.59	77.24
563.75	65.54
563.92	63.19
564.08	100.64
564.24	126.39
564.41	107.66
564.57	53.83
564.74	56.17
564.90	95.96
565.07	140.43
565.23	72.56
565.39	81.92
565.56	49.15
565.72	70.22
565.88	98.30
566.05	110.01
566.21	112.35
566.38	88.94
566.54	114.69
566.70	117.03
566.87	88.94
567.03	126.39
567.19	98.30
567.36	63.19
567.52	58.51
567.68	9.36
567.85	110.01
568.01	72.56
568.17	93.62
568.34	46.81
568.50	84.26
568.66	35.11
568.83	88.94
568.99	44.47
569.15	114.69
569.32	100.64
569.48	84.26
569.64	110.01
569.81	117.03
569.97	56.17
570.13	65.54
570.30	39.79
570.46	30.43
570.62	88.94
570.78	72.56
570.95	91.28
571.11	56.17
571.27	105.32
571.43	74.90
571.60	105.32
571.76	84.26
571.92	145.11
572.09	60.85
572.25	93.62
572.41	114.69
572.57	86.60
572.74	88.94
572.90	9.36
573.06	91.28
573.22	16.38
573.38	86.60
573.55	65.54
573.71	53.83
573.87	119.37
574.03	49.15
574.20	91.28
574.36	39.79
574.52	49.15
574.68	117.03
574.84	51.49
575.01	128.73
575.17	42.13
575.33	7.02
575.49	79.58
575.65	53.83
575.82	35.11
575.98	53.83
576.14	4.68
576.30	30.43
576.46	0.00
576.62	102.98
576.79	2.34
576.95	98.30
577.11	53.83
577.27	100.64
577.43	42.13
577.59	60.85
577.75	135.75
577.92	84.26
578.08	23.41
578.24	70.22
578.40	42.13
578.56	70.22
578.72	67.88
578.88	124.05
579.04	70.22
579.21	74.90
579.37	105.32
579.53	128.73
579.69	51.49
579.85	91.28
580.01	67.88
580.17	142.77
580.33	110.01
580.49	60.85
580.65	117.03
580.82	63.19
580.98	67.88
581.14	84.26
581.30	159.16
581.46	51.49
581.62	0.00
581.78	0.00
581.94	72.56
582.10	53.83
582.26	173.20
582.42	25.75
582.58	140.43
582.74	0.00
582.90	84.26
583.06	42.13
583.22	156.82
583.38	112.35
583.54	0.00
583.70	37.45
583.86	35.11
584.02	63.19
584.18	46.81
584.34	46.81
584.50	72.56
584.66	70.22
584.82	9.36
584.98	23.41
585.14	81.92
585.30	70.22
585.46	98.30
585.62	46.81
585.78	84.26
585.94	0.00
586.10	51.49
586.26	56.17
586.42	56.17
586.58	138.09
586.74	91.28
586.90	98.30
587.06	177.88
587.22	63.19
587.38	81.92
587.54	91.28
587.70	25.75
587.86	102.98
588.02	91.28
588.18	46.81
588.34	77.24
588.49	67.88
588.65	72.56
588.81	51.49
588.97	49.15
589.13	53.83
589.29	110.01
589.45	79.58
589.61	88.94
589.77	4.68
589.93	100.64
590.08	42.13
590.24	74.90
590.40	102.98
590.56	44.47
590.72	70.22
590.88	63.19
591.04	51.49
591.20	42.13
591.35	32.77
591.51	28.09
591.67	0.00
591.83	37.45
591.99	67.88
592.15	60.85
592.31	88.94
592.46	81.92
592.62	37.45
592.78	84.26
592.94	93.62
593.10	107.66
593.26	32.77
593.41	44.47
593.57	72.56
593.73	53.83
593.89	88.94
594.05	0.00
594.20	46.81
594.36	98.30
594.52	105.32
594.68	79.58
594.84	110.01
594.99	46.81
595.15	131.07
595.31	4.68
595.47	65.54
595.62	58.51
595.78	105.32
595.94	79.58
596.10	58.51
596.25	159.16
596.41	72.56
596.57	53.83
596.73	121.71
596.88	67.88
597.04	177.88
597.20	56.17
597.36	88.94
597.51	145.11
597.67	121.71
597.83	168.52
597.99	0.00
598.14	88.94
598.30	58.51
598.46	126.39
598.61	95.96
598.77	102.98
598.93	121.71
599.09	49.15
599.24	100.64
599.40	154.48
599.56	63.19
599.71	37.45
599.87	110.01
600.03	63.19
600.18	86.60
600.34	77.24
600.50	63.19
600.65	23.41
600.81	60.85
600.97	72.56
601.12	53.83
601.28	35.11
601.44	79.58
601.59	60.85
601.75	117.03
601.91	86.60
602.06	117.03
602.22	39.79
602.37	98.30
602.53	88.94
602.69	0.00
602.84	60.85
603.00	93.62
603.16	79.58
603.31	100.64
603.47	107.66
603.62	84.26
603.78	128.73
603.94	18.72
604.09	67.88
604.25	102.98
604.40	98.30
604.56	25.75
604.71	117.03
604.87	16.38
605.03	46.81
605.18	100.64
605.34	98.30
605.49	77.24
605.65	23.41
605.80	37.45
605.96	51.49
606.12	105.32
606.27	128.73
606.43	119.37
606.58	9.36
606.74	86.60
606.89	102.98
607.05	102.98
607.20	51.49
607.36	65.54
607.51	56.17
607.67	46.81
607.82	117.03
607.98	86.60
608.13	95.96
608.29	49.15
608.44	42.13
608.60	124.05
608.75	21.06
608.91	117.03
609.06	110.01
609.22	98.30
609.37	114.69
609.53	100.64
609.68	93.62
609.84	25.75
609.99	91.28
610.15	35.11
610.30	14.04
610.46	100.64
610.61	91.28
610.76	32.77
610.92	37.45
611.07	81.92
611.23	39.79
611.38	70.22
611.54	37.45
611.69	46.81
611.84	84.26
612.00	112.35
612.15	46.81
612.31	9.36
612.46	84.26
612.62	37.45
612.77	135.75
612.92	63.19
613.08	131.07
613.23	51.49
613.39	37.45
613.54	53.83
613.69	53.83
613.85	74.90
614.00	107.66
614.15	51.49
614.31	28.09
614.46	135.75
614.62	147.45
614.77	102.98
614.92	86.60
615.08	84.26
615.23	28.09
615.38	72.56
615.54	63.19
615.69	7.02
615.84	37.45
616.00	86.60
616.15	67.88
616.30	102.98
616.46	72.56
616.61	39.79
616.76	72.56
616.92	112.35
617.07	14.04
617.22	107.66
617.37	0.00
617.53	0.00
617.68	79.58
617.83	84.26
617.99	84.26
618.14	70.22
618.29	105.32
618.45	107.66
618.60	56.17
618.75	0.00
618.90	42.13
619.06	42.13
619.21	74.90
619.36	9.36
619.51	32.77
619.67	67.88
619.82	35.11
619.97	35.11
620.12	84.26
620.28	72.56
620.43	95.96
620.58	51.49
620.73	77.24
620.89	58.51
621.04	117.03
621.19	63.19
621.34	56.17
621.49	86.60
621.65	84.26
621.80	128.73
621.95	56.17
622.10	102.98
622.25	18.72
622.41	121.71
622.56	65.54
622.71	112.35
622.86	72.56
623.01	91.28
623.16	79.58
623.32	0.00
623.47	35.11
623.62	117.03
623.77	98.30
623.92	0.00
624.07	28.09
624.23	86.60
624.38	95.96
624.53	53.83
624.68	0.00
624.83	88.94
624.98	67.88
625.13	49.15
625.29	60.85
625.44	56.17
625.59	100.64
625.74	51.49
625.89	156.82
626.04	88.94
626.19	74.90
626.34	35.11
626.49	93.62
626.65	100.64
626.80	0.00
626.95	49.15
627.10	126.39
627.25	91.28
627.40	63.19
627.55	93.62
627.70	37.45
627.85	46.81
628.00	37.45
628.15	23.41
628.30	107.66
628.45	11.70
628.60	35.11
628.76	149.79
628.91	72.56
629.06	84.26
629.21	23.41
629.36	30.43
629.51	0.00
629.66	131.07
629.81	51.49
629.96	152.13
630.11	102.98
630.26	67.88
630.41	86.60
630.56	67.88
630.71	77.24
630.86	25.75
631.01	28.09
631.16	7.02
631.31	53.83
631.46	44.47
631.61	0.00
631.76	72.56
631.91	42.13
632.06	23.41
632.21	39.79
632.36	25.75
632.51	53.83
632.66	100.64
632.81	42.13
632.96	56.17
633.10	63.19
633.25	30.43
633.40	135.75
633.55	28.09
633.70	53.83
633.85	14.04
634.00	37.45
634.15	124.05
634.30	32.77
634.45	39.79
634.60	51.49
634.75	70.22
634.90	95.96
635.05	84.26
635.19	63.19
635.34	63.19
635.49	91.28
635.64	7.02
635.79	98.30
635.94	65.54
636.09	25.75
636.24	32.77
636.39	102.98
636.53	102.98
636.68	30.43
636.83	30.43
636.98	159.16
637.13	93.62
637.28	88.94
637.43	0.00
637.57	60.85
637.72	44.47
637.87	95.96
638.02	51.49
638.17	70.22
638.32	95.96
638.46	84.26
638.61	0.00
638.76	81.92
638.91	147.45
639.06	42.13
639.20	65.54
639.35	124.05
639.50	121.71
639.65	51.49
639.80	32.77
639.94	121.71
640.09	124.05
640.24	86.60
640.39	58.51
640.54	44.47
640.68	140.43
640.83	86.60
640.98	95.96
641.13	53.83
641.27	128.73
641.42	53.83
641.57	60.85
641.72	42.13
641.86	53.83
642.01	67.88
642.16	14.04
642.31	30.43
642.45	65.54
642.60	84.26
642.75	93.62
642.90	131.07
643.04	53.83
643.19	63.19
643.34	65.54
643.48	39.79
643.63	58.51
643.78	32.77
643.93	60.85
644.07	46.81
644.22	44.47
644.37	88.94
644.51	112.35
644.66	25.75
644.81	86.60
644.95	16.38
645.10	100.64
645.25	95.96
645.39	100.64
645.54	77.24
645.69	32.77
645.83	79.58
645.98	63.19
646.13	56.17
646.27	49.15
646.42	0.00
646.57	63.19
646.71	23.41
646.86	0.00
647.00	79.58
647.15	86.60
647.30	9.36
647.44	23.41
647.59	93.62
647.74	9.36
647.88	102.98
648.03	0.00
648.17	81.92
648.32	51.49
648.47	0.00
648.61	98.30
648.76	30.43
648.90	65.54
649.05	0.00
649.20	9.36
649.34	7.02
649.49	46.81
649.63	23.41
649.78	30.43
649.92	0.00
650.07	30.43
650.21	39.79
650.36	105.32
650.51	23.41
650.65	28.09
650.80	72.56
650.94	65.54
651.09	63.19
651.23	93.62
651.38	9.36
651.52	0.00
651.67	81.92
651.81	53.83
651.96	18.72
652.10	74.90
652.25	93.62
652.39	23.41
652.54	21.06
652.68	93.62
652.83	56.17
652.97	105.32
653.12	42.13
653.26	56.17
653.41	95.96
653.55	60.85
653.70	93.62
653.84	42.13
653.99	35.11
654.13	65.54
654.27	21.06
654.42	46.81
654.56	44.47
654.71	102.98
654.85	11.70
655.00	37.45
655.14	124.05
655.29	81.92
655.43	63.19
655.57	53.83
655.72	0.00
655.86	102.98
656.01	49.15
656.15	72.56
656.30	86.60
656.44	88.94
656.58	91.28
656.73	95.96
656.87	70.22
657.01	91.28
657.16	72.56
657.30	21.06
657.45	65.54
657.59	11.70
657.73	93.62
657.88	74.90
658.02	23.41
658.16	44.47
658.31	42.13
658.45	14.04
658.60	60.85
658.74	0.00
658.88	4.68
659.03	88.94
659.17	74.90
659.31	51.49
659.46	84.26
659.60	105.32
659.74	70.22
659.89	18.72
660.03	58.51
660.17	56.17
660.32	35.11
660.46	32.77
660.60	74.90
660.74	170.86
660.89	56.17
661.03	60.85
661.17	32.77
661.32	112.35
661.46	37.45
661.60	56.17
661.74	14.04
661.89	84.26
662.03	145.11
662.17	30.43
662.31	88.94
662.46	30.43
662.60	63.19
662.74	0.00
662.88	39.79
663.03	72.56
663.17	11.70
663.31	0.00
663.45	63.19
663.60	35.11
663.74	77.24
663.88	147.45
664.02	72.56
664.17	74.90
664.31	23.41
664.45	63.19
664.59	23.41
664.73	95.96
664.88	81.92
665.02	77.24
665.16	2.34
665.30	39.79
665.44	28.09
665.59	86.60
665.73	0.00
665.87	88.94
666.01	42.13
666.15	18.72
666.29	44.47
666.44	42.13
666.58	0.00
666.72	7.02
666.86	0.00
667.00	37.45
667.14	81.92
667.28	21.06
667.43	37.45
667.57	79.58
667.71	102.98
667.85	77.24
667.99	84.26
668.13	93.62
668.27	156.82
668.41	72.56
668.56	21.06
668.70	11.70
668.84	56.17
668.98	56.17
669.12	74.90
669.26	25.75
669.40	42.13
669.54	93.62
669.68	9.36
669.82	21.06
669.96	102.98
670.10	70.22
670.25	25.75
670.39	51.49
670.53	77.24
670.67	60.85
670.81	58.51
670.95	126.39
671.09	11.70
671.23	56.17
671.37	79.58
671.51	16.38
671.65	72.56
671.79	44.47
671.93	0.00
672.07	138.09
672.21	39.79
672.35	37.45
672.49	51.49
672.63	0.00
672.77	7.02
672.91	67.88
673.05	56.17
673.19	49.15
673.33	121.71
673.47	72.56
673.61	79.58
673.75	81.92
673.89	46.81
674.03	53.83
674.17	0.00
674.31	16.38
674.45	58.51
674.59	16.38
674.73	28.09
674.87	25.75
675.01	16.38
675.15	32.77
675.29	84.26
675.43	32.77
675.56	25.75
675.70	23.41
675.84	35.11
675.98	42.13
676.12	18.72
676.26	39.79
676.40	42.13
676.54	18.72
676.68	30.43
676.82	112.35
676.96	58.51
677.10	16.38
677.23	28.09
677.37	53.83
677.51	114.69
677.65	11.70
677.79	72.56
677.93	138.09
678.07	42.13
678.21	21.06
678.34	23.41
678.48	65.54
678.62	0.00
678.76	53.83
678.90	0.00
679.04	9.36
679.18	84.26
679.31	25.75
679.45	86.60
679.59	30.43
679.73	37.45
679.87	0.00
680.00	0.00
680.14	70.22
680.28	18.72
680.42	37.45
680.56	42.13
680.70	58.51
680.83	44.47
680.97	79.58
681.11	25.75
681.25	0.00
681.39	30.43
681.52	14.04
681.66	49.15
681.80	107.66
681.94	114.69
682.07	53.83
682.21	110.01
682.35	51.49
682.49	81.92
682.62	25.75
682.76	135.75
682.90	9.36
683.04	77.24
683.17	166.18
683.31	18.72
683.45	63.19
683.59	25.75
683.72	39.79
683.86	18.72
684.00	7.02
684.13	0.00
684.27	32.77
684.41	84.26
684.55	18.72
684.68	0.00
684.82	95.96
684.96	58.51
685.09	0.00
685.23	74.90
685.37	110.01
685.50	126.39
685.64	58.51
685.78	42.13
685.91	65.54
686.05	0.00
686.19	77.24
686.32	23.41
686.46	67.88
686.60	2.34
686.73	0.00
686.87	46.81
687.01	11.70
687.14	46.81
687.28	44.47
687.42	14.04
687.55	86.60
687.69	93.62
687.82	93.62
687.96	84.26
688.10	11.70
688.23	60.85
688.37	11.70
688.50	11.70
688.64	102.98
688.78	30.43
688.91	70.22
689.05	18.72
689.18	65.54
689.32	86.60
689.46	121.71
689.59	0.00
689.73	30.43
689.86	0.00
690.00	39.79
690.13	102.98
690.27	0.00
690.41	37.45
690.54	81.92
690.68	74.90
690.81	72.56
690.95	30.43
691.08	42.13
691.22	0.00
691.35	39.79
691.49	49.15
691.62	44.47
691.76	37.45
691.89	30.43
692.03	44.47
692.16	44.47
692.30	63.19
692.43	42.13
692.57	74.90
692.70	18.72
692.84	79.58
692.97	95.96
693.11	84.26
693.24	0.00
693.38	84.26
693.51	135.75
693.65	56.17
693.78	18.72
693.92	0.00
694.05	44.47
694.19	110.01
694.32	63.19
694.45	86.60
694.59	95.96
694.72	25.75
694.86	105.32
694.99	93.62
695.13	60.85
695.26	0.00
695.39	9.36
695.53	0.00
695.66	37.45
695.80	67.88
695.93	21.06
696.07	0.00
696.20	30.43
696.33	14.04
696.47	23.41
696.60	25.75
696.73	53.83
696.87	28.09
697.00	0.00
697.14	77.24
697.27	25.75
697.40	46.81
697.54	74.90
697.67	63.19
697.80	81.92
697.94	49.15
698.07	102.98
698.21	18.72
698.34	0.00
698.47	46.81
698.61	93.62
698.74	0.00
698.87	39.79
699.01	81.92
699.14	16.38
699.27	51.49
699.40	56.17
699.54	65.54
699.67	39.79
699.80	72.56
699.94	35.11
700.07	37.45
700.20	44.47
700.34	4.68
700.47	35.11
700.60	49.15
700.73	25.75
700.87	14.04
701.00	35.11
701.13	21.06
701.26	7.02
701.40	0.00
701.53	23.41
701.66	0.00
701.79	63.19
701.93	67.88
702.06	0.00
702.19	63.19
702.32	67.88
702.46	18.72
702.59	14.04
702.72	49.15
702.85	28.09
702.99	16.38
703.12	0.00
703.25	46.81
703.38	0.00
703.51	0.00
703.65	51.49
703.78	23.41
703.91	98.30
704.04	25.75
704.17	74.90
704.31	11.70
704.44	42.13
704.57	81.92
704.70	25.75
704.83	32.77
704.96	0.00
705.10	0.00
705.23	51.49
>>>>>End Processed Spectral Data<<<<<
