SpectraSuite Data File
++++++++++++++++++++++++++++++++++++
Date: Fri Oct 04 12:13:25 GMT-05:00 2013
User: price-jones
Dark Spectrum Present: No
Reference Spectrum Present: No
Number of Sampled Component Spectra: 1
Spectrometers: USB2+H05261
Integration Time (usec): 10000 (USB2+H05261)
Spectra Averaged: 1 (USB2+H05261)
Boxcar Smoothing: 0 (USB2+H05261)
Correct for Electrical Dark: No (USB2+H05261)
Strobe/Lamp Enabled: No (USB2+H05261)
Correct for Detector Non-linearity: No (USB2+H05261)
Correct for Stray Light: No (USB2+H05261)
Number of Pixels in Processed Spectrum: 2048
>>>>>Begin Processed Spectral Data<<<<<
365.73	0.00
365.92	0.00
366.12	0.00
366.32	0.00
366.52	0.00
366.72	0.00
366.91	0.00
367.11	0.00
367.31	0.00
367.51	0.00
367.70	0.00
367.90	0.00
368.10	0.00
368.30	0.00
368.49	0.00
368.69	0.00
368.89	0.00
369.09	0.00
369.28	0.00
369.48	0.00
369.68	0.00
369.87	0.00
370.07	0.00
370.27	0.00
370.47	0.00
370.66	0.00
370.86	0.00
371.06	0.00
371.25	14.04
371.45	0.00
371.65	0.00
371.84	0.00
372.04	7.02
372.24	0.00
372.44	0.00
372.63	9.36
372.83	0.00
373.03	28.09
373.22	0.00
373.42	0.00
373.62	0.00
373.81	81.92
374.01	0.00
374.21	21.06
374.40	0.00
374.60	42.13
374.79	7.02
374.99	16.38
375.19	39.79
375.38	42.13
375.58	56.17
375.78	30.43
375.97	56.17
376.17	0.00
376.37	88.94
376.56	2.34
376.76	44.47
376.95	56.17
377.15	81.92
377.35	30.43
377.54	7.02
377.74	0.00
377.93	28.09
378.13	32.77
378.33	44.47
378.52	0.00
378.72	0.00
378.91	23.41
379.11	0.00
379.31	0.00
379.50	0.00
379.70	9.36
379.89	9.36
380.09	53.83
380.28	88.94
380.48	25.75
380.68	0.00
380.87	0.00
381.07	35.11
381.26	11.70
381.46	0.00
381.65	60.85
381.85	0.00
382.04	28.09
382.24	14.04
382.43	0.00
382.63	53.83
382.83	16.38
383.02	23.41
383.22	0.00
383.41	0.00
383.61	0.00
383.80	60.85
384.00	0.00
384.19	0.00
384.39	14.04
384.58	0.00
384.78	39.79
384.97	7.02
385.17	49.15
385.36	30.43
385.56	0.00
385.75	0.00
385.95	58.51
386.14	30.43
386.34	53.83
386.53	0.00
386.72	2.34
386.92	42.13
387.11	0.00
387.31	0.00
387.50	23.41
387.70	53.83
387.89	7.02
388.09	0.00
388.28	77.24
388.48	25.75
388.67	11.70
388.86	0.00
389.06	28.09
389.25	0.00
389.45	14.04
389.64	0.00
389.84	25.75
390.03	0.00
390.22	51.49
390.42	0.00
390.61	72.56
390.81	65.54
391.00	7.02
391.19	60.85
391.39	0.00
391.58	0.00
391.78	23.41
391.97	74.90
392.16	53.83
392.36	65.54
392.55	2.34
392.75	0.00
392.94	35.11
393.13	0.00
393.33	88.94
393.52	0.00
393.71	28.09
393.91	67.88
394.10	63.19
394.29	0.00
394.49	0.00
394.68	0.00
394.88	44.47
395.07	49.15
395.26	42.13
395.46	37.45
395.65	56.17
395.84	14.04
396.04	14.04
396.23	16.38
396.42	32.77
396.62	49.15
396.81	88.94
397.00	67.88
397.19	37.45
397.39	11.70
397.58	21.06
397.77	56.17
397.97	74.90
398.16	56.17
398.35	100.64
398.55	86.60
398.74	0.00
398.93	133.41
399.12	18.72
399.32	0.00
399.51	28.09
399.70	0.00
399.90	0.00
400.09	28.09
400.28	0.00
400.47	0.00
400.67	18.72
400.86	46.81
401.05	0.00
401.24	39.79
401.44	60.85
401.63	63.19
401.82	0.00
402.01	93.62
402.21	51.49
402.40	49.15
402.59	72.56
402.78	0.00
402.97	60.85
403.17	16.38
403.36	0.00
403.55	0.00
403.74	7.02
403.93	51.49
404.13	35.11
404.32	28.09
404.51	16.38
404.70	21.06
404.89	86.60
405.09	28.09
405.28	0.00
405.47	46.81
405.66	37.45
405.85	0.00
406.05	56.17
406.24	63.19
406.43	25.75
406.62	147.45
406.81	39.79
407.00	14.04
407.20	46.81
407.39	0.00
407.58	37.45
407.77	0.00
407.96	86.60
408.15	91.28
408.34	28.09
408.54	37.45
408.73	58.51
408.92	0.00
409.11	30.43
409.30	39.79
409.49	49.15
409.68	9.36
409.87	9.36
410.07	100.64
410.26	21.06
410.45	44.47
410.64	9.36
410.83	9.36
411.02	70.22
411.21	0.00
411.40	7.02
411.59	0.00
411.78	35.11
411.98	23.41
412.17	37.45
412.36	56.17
412.55	0.00
412.74	56.17
412.93	0.00
413.12	0.00
413.31	0.00
413.50	28.09
413.69	30.43
413.88	0.00
414.07	91.28
414.26	4.68
414.45	51.49
414.64	65.54
414.83	14.04
415.02	4.68
415.22	56.17
415.41	2.34
415.60	11.70
415.79	56.17
415.98	102.98
416.17	63.19
416.36	0.00
416.55	58.51
416.74	7.02
416.93	37.45
417.12	0.00
417.31	0.00
417.50	46.81
417.69	35.11
417.88	84.26
418.07	79.58
418.26	0.00
418.45	0.00
418.64	7.02
418.83	35.11
419.02	42.13
419.21	51.49
419.39	63.19
419.58	0.00
419.77	0.00
419.96	16.38
420.15	14.04
420.34	16.38
420.53	72.56
420.72	44.47
420.91	70.22
421.10	23.41
421.29	53.83
421.48	0.00
421.67	56.17
421.86	0.00
422.05	0.00
422.24	74.90
422.43	21.06
422.61	51.49
422.80	21.06
422.99	25.75
423.18	0.00
423.37	25.75
423.56	72.56
423.75	0.00
423.94	0.00
424.13	44.47
424.32	11.70
424.50	2.34
424.69	0.00
424.88	0.00
425.07	37.45
425.26	44.47
425.45	14.04
425.64	0.00
425.83	4.68
426.01	7.02
426.20	37.45
426.39	11.70
426.58	32.77
426.77	49.15
426.96	0.00
427.15	0.00
427.33	86.60
427.52	25.75
427.71	67.88
427.90	21.06
428.09	32.77
428.28	42.13
428.46	0.00
428.65	84.26
428.84	25.75
429.03	32.77
429.22	51.49
429.40	44.47
429.59	0.00
429.78	30.43
429.97	0.00
430.16	30.43
430.34	39.79
430.53	14.04
430.72	102.98
430.91	21.06
431.10	46.81
431.28	11.70
431.47	28.09
431.66	0.00
431.85	0.00
432.03	112.35
432.22	74.90
432.41	35.11
432.60	18.72
432.79	0.00
432.97	79.58
433.16	51.49
433.35	0.00
433.54	37.45
433.72	124.05
433.91	14.04
434.10	28.09
434.28	51.49
434.47	0.00
434.66	0.00
434.85	39.79
435.03	39.79
435.22	4.68
435.41	65.54
435.59	35.11
435.78	42.13
435.97	44.47
436.16	2.34
436.34	0.00
436.53	0.00
436.72	2.34
436.90	58.51
437.09	72.56
437.28	72.56
437.46	18.72
437.65	28.09
437.84	63.19
438.02	0.00
438.21	49.15
438.40	51.49
438.58	44.47
438.77	56.17
438.96	9.36
439.14	30.43
439.33	0.00
439.52	30.43
439.70	70.22
439.89	0.00
440.08	0.00
440.26	30.43
440.45	42.13
440.63	18.72
440.82	0.00
441.01	7.02
441.19	0.00
441.38	63.19
441.57	0.00
441.75	0.00
441.94	51.49
442.12	63.19
442.31	14.04
442.50	49.15
442.68	0.00
442.87	60.85
443.05	86.60
443.24	86.60
443.43	46.81
443.61	112.35
443.80	63.19
443.98	44.47
444.17	9.36
444.35	51.49
444.54	21.06
444.73	0.00
444.91	46.81
445.10	60.85
445.28	63.19
445.47	60.85
445.65	32.77
445.84	0.00
446.02	39.79
446.21	32.77
446.39	7.02
446.58	23.41
446.77	46.81
446.95	7.02
447.14	74.90
447.32	77.24
447.51	16.38
447.69	18.72
447.88	58.51
448.06	0.00
448.25	0.00
448.43	2.34
448.62	0.00
448.80	0.00
448.99	63.19
449.17	16.38
449.36	53.83
449.54	18.72
449.73	0.00
449.91	42.13
450.10	65.54
450.28	81.92
450.46	7.02
450.65	0.00
450.83	28.09
451.02	32.77
451.20	72.56
451.39	105.32
451.57	23.41
451.76	110.01
451.94	7.02
452.13	39.79
452.31	35.11
452.49	32.77
452.68	23.41
452.86	0.00
453.05	9.36
453.23	0.00
453.42	46.81
453.60	65.54
453.78	0.00
453.97	84.26
454.15	14.04
454.34	56.17
454.52	37.45
454.70	65.54
454.89	9.36
455.07	7.02
455.26	77.24
455.44	42.13
455.62	53.83
455.81	0.00
455.99	44.47
456.17	18.72
456.36	56.17
456.54	39.79
456.73	37.45
456.91	46.81
457.09	39.79
457.28	72.56
457.46	0.00
457.64	16.38
457.83	88.94
458.01	2.34
458.19	0.00
458.38	0.00
458.56	0.00
458.74	95.96
458.93	4.68
459.11	0.00
459.29	0.00
459.48	16.38
459.66	46.81
459.84	79.58
460.03	58.51
460.21	0.00
460.39	30.43
460.57	0.00
460.76	2.34
460.94	63.19
461.12	25.75
461.31	60.85
461.49	60.85
461.67	11.70
461.85	46.81
462.04	21.06
462.22	133.41
462.40	58.51
462.59	0.00
462.77	42.13
462.95	0.00
463.13	0.00
463.32	16.38
463.50	23.41
463.68	25.75
463.86	0.00
464.05	37.45
464.23	0.00
464.41	9.36
464.59	60.85
464.78	14.04
464.96	0.00
465.14	14.04
465.32	18.72
465.50	0.00
465.69	2.34
465.87	100.64
466.05	11.70
466.23	0.00
466.41	25.75
466.60	110.01
466.78	23.41
466.96	0.00
467.14	0.00
467.32	44.47
467.51	0.00
467.69	63.19
467.87	32.77
468.05	4.68
468.23	28.09
468.41	56.17
468.60	88.94
468.78	23.41
468.96	93.62
469.14	0.00
469.32	0.00
469.50	0.00
469.69	0.00
469.87	70.22
470.05	56.17
470.23	49.15
470.41	0.00
470.59	21.06
470.77	0.00
470.95	42.13
471.14	0.00
471.32	77.24
471.50	25.75
471.68	14.04
471.86	14.04
472.04	0.00
472.22	81.92
472.40	56.17
472.58	0.00
472.77	2.34
472.95	70.22
473.13	39.79
473.31	42.13
473.49	0.00
473.67	65.54
473.85	86.60
474.03	28.09
474.21	28.09
474.39	86.60
474.57	14.04
474.75	51.49
474.93	42.13
475.12	0.00
475.30	56.17
475.48	23.41
475.66	0.00
475.84	51.49
476.02	51.49
476.20	0.00
476.38	7.02
476.56	0.00
476.74	32.77
476.92	74.90
477.10	23.41
477.28	51.49
477.46	25.75
477.64	37.45
477.82	49.15
478.00	18.72
478.18	0.00
478.36	65.54
478.54	53.83
478.72	0.00
478.90	0.00
479.08	16.38
479.26	110.01
479.44	7.02
479.62	51.49
479.80	0.00
479.98	65.54
480.16	91.28
480.34	0.00
480.52	21.06
480.70	0.00
480.88	37.45
481.06	28.09
481.24	56.17
481.41	0.00
481.59	25.75
481.77	7.02
481.95	9.36
482.13	39.79
482.31	53.83
482.49	58.51
482.67	53.83
482.85	11.70
483.03	119.37
483.21	0.00
483.39	88.94
483.57	65.54
483.74	25.75
483.92	0.00
484.10	11.70
484.28	18.72
484.46	77.24
484.64	25.75
484.82	93.62
485.00	86.60
485.18	35.11
485.35	9.36
485.53	18.72
485.71	74.90
485.89	49.15
486.07	25.75
486.25	11.70
486.43	0.00
486.61	37.45
486.78	0.00
486.96	56.17
487.14	102.98
487.32	42.13
487.50	42.13
487.68	39.79
487.85	28.09
488.03	4.68
488.21	0.00
488.39	18.72
488.57	25.75
488.75	14.04
488.92	88.94
489.10	0.00
489.28	28.09
489.46	0.00
489.64	0.00
489.81	60.85
489.99	49.15
490.17	11.70
490.35	51.49
490.53	86.60
490.70	11.70
490.88	121.71
491.06	0.00
491.24	42.13
491.41	25.75
491.59	37.45
491.77	53.83
491.95	9.36
492.13	37.45
492.30	11.70
492.48	39.79
492.66	79.58
492.84	0.00
493.01	35.11
493.19	30.43
493.37	51.49
493.54	60.85
493.72	100.64
493.90	30.43
494.08	42.13
494.25	79.58
494.43	21.06
494.61	81.92
494.79	74.90
494.96	56.17
495.14	0.00
495.32	0.00
495.49	0.00
495.67	51.49
495.85	53.83
496.02	86.60
496.20	35.11
496.38	65.54
496.55	84.26
496.73	0.00
496.91	39.79
497.09	60.85
497.26	72.56
497.44	63.19
497.62	9.36
497.79	84.26
497.97	14.04
498.14	53.83
498.32	70.22
498.50	91.28
498.67	9.36
498.85	0.00
499.03	11.70
499.20	0.00
499.38	30.43
499.56	72.56
499.73	95.96
499.91	16.38
500.08	88.94
500.26	72.56
500.44	18.72
500.61	0.00
500.79	9.36
500.97	51.49
501.14	51.49
501.32	44.47
501.49	107.66
501.67	77.24
501.84	0.00
502.02	46.81
502.20	0.00
502.37	60.85
502.55	105.32
502.72	79.58
502.90	0.00
503.07	35.11
503.25	46.81
503.43	60.85
503.60	11.70
503.78	0.00
503.95	49.15
504.13	0.00
504.30	16.38
504.48	95.96
504.65	0.00
504.83	16.38
505.01	23.41
505.18	86.60
505.36	142.77
505.53	9.36
505.71	14.04
505.88	0.00
506.06	53.83
506.23	91.28
506.41	100.64
506.58	79.58
506.76	112.35
506.93	72.56
507.11	0.00
507.28	30.43
507.46	25.75
507.63	44.47
507.81	81.92
507.98	35.11
508.16	7.02
508.33	42.13
508.50	77.24
508.68	100.64
508.85	0.00
509.03	0.00
509.20	72.56
509.38	21.06
509.55	53.83
509.73	9.36
509.90	81.92
510.08	28.09
510.25	0.00
510.42	4.68
510.60	102.98
510.77	0.00
510.95	0.00
511.12	42.13
511.30	112.35
511.47	98.30
511.64	81.92
511.82	56.17
511.99	46.81
512.17	56.17
512.34	49.15
512.51	147.45
512.69	21.06
512.86	53.83
513.04	28.09
513.21	18.72
513.38	79.58
513.56	16.38
513.73	4.68
513.90	79.58
514.08	60.85
514.25	0.00
514.43	100.64
514.60	124.05
514.77	14.04
514.95	0.00
515.12	28.09
515.29	23.41
515.47	39.79
515.64	100.64
515.81	0.00
515.99	0.00
516.16	37.45
516.33	7.02
516.51	37.45
516.68	53.83
516.85	74.90
517.03	30.43
517.20	18.72
517.37	14.04
517.54	0.00
517.72	25.75
517.89	95.96
518.06	9.36
518.24	65.54
518.41	51.49
518.58	28.09
518.75	44.47
518.93	0.00
519.10	7.02
519.27	74.90
519.45	81.92
519.62	133.41
519.79	42.13
519.96	35.11
520.14	25.75
520.31	28.09
520.48	28.09
520.65	32.77
520.83	11.70
521.00	79.58
521.17	4.68
521.34	124.05
521.52	51.49
521.69	28.09
521.86	72.56
522.03	23.41
522.20	49.15
522.38	53.83
522.55	0.00
522.72	56.17
522.89	49.15
523.07	138.09
523.24	77.24
523.41	28.09
523.58	67.88
523.75	39.79
523.92	53.83
524.10	0.00
524.27	107.66
524.44	42.13
524.61	23.41
524.78	2.34
524.96	56.17
525.13	11.70
525.30	39.79
525.47	11.70
525.64	65.54
525.81	105.32
525.98	30.43
526.16	86.60
526.33	16.38
526.50	49.15
526.67	133.41
526.84	72.56
527.01	79.58
527.18	21.06
527.36	23.41
527.53	51.49
527.70	32.77
527.87	0.00
528.04	72.56
528.21	77.24
528.38	53.83
528.55	58.51
528.72	93.62
528.89	25.75
529.07	53.83
529.24	4.68
529.41	53.83
529.58	23.41
529.75	18.72
529.92	93.62
530.09	86.60
530.26	0.00
530.43	58.51
530.60	88.94
530.77	74.90
530.94	131.07
531.11	44.47
531.28	84.26
531.46	107.66
531.63	44.47
531.80	49.15
531.97	25.75
532.14	25.75
532.31	67.88
532.48	35.11
532.65	72.56
532.82	65.54
532.99	46.81
533.16	46.81
533.33	9.36
533.50	9.36
533.67	9.36
533.84	0.00
534.01	67.88
534.18	53.83
534.35	88.94
534.52	42.13
534.69	88.94
534.86	100.64
535.03	67.88
535.20	0.00
535.37	28.09
535.54	0.00
535.71	18.72
535.88	37.45
536.05	51.49
536.22	42.13
536.38	58.51
536.55	7.02
536.72	9.36
536.89	42.13
537.06	53.83
537.23	91.28
537.40	74.90
537.57	93.62
537.74	86.60
537.91	46.81
538.08	51.49
538.25	67.88
538.42	23.41
538.59	14.04
538.75	102.98
538.92	28.09
539.09	56.17
539.26	49.15
539.43	56.17
539.60	60.85
539.77	70.22
539.94	56.17
540.11	70.22
540.28	28.09
540.44	46.81
540.61	21.06
540.78	16.38
540.95	63.19
541.12	46.81
541.29	63.19
541.46	51.49
541.62	58.51
541.79	37.45
541.96	79.58
542.13	51.49
542.30	32.77
542.47	0.00
542.63	30.43
542.80	18.72
542.97	39.79
543.14	23.41
543.31	37.45
543.48	88.94
543.64	23.41
543.81	35.11
543.98	0.00
544.15	74.90
544.32	65.54
544.48	23.41
544.65	93.62
544.82	126.39
544.99	46.81
545.16	30.43
545.32	124.05
545.49	49.15
545.66	32.77
545.83	63.19
546.00	42.13
546.16	60.85
546.33	0.00
546.50	51.49
546.67	114.69
546.83	49.15
547.00	16.38
547.17	23.41
547.34	18.72
547.50	28.09
547.67	58.51
547.84	30.43
548.00	0.00
548.17	0.00
548.34	21.06
548.51	51.49
548.67	98.30
548.84	0.00
549.01	30.43
549.18	14.04
549.34	4.68
549.51	46.81
549.68	60.85
549.84	37.45
550.01	30.43
550.18	0.00
550.34	37.45
550.51	79.58
550.68	35.11
550.84	23.41
551.01	23.41
551.18	21.06
551.34	0.00
551.51	0.00
551.68	53.83
551.84	0.00
552.01	0.00
552.18	35.11
552.34	119.37
552.51	37.45
552.68	42.13
552.84	79.58
553.01	70.22
553.18	28.09
553.34	117.03
553.51	67.88
553.67	56.17
553.84	56.17
554.01	49.15
554.17	51.49
554.34	9.36
554.51	44.47
554.67	0.00
554.84	14.04
555.00	0.00
555.17	0.00
555.33	11.70
555.50	14.04
555.67	93.62
555.83	63.19
556.00	16.38
556.16	49.15
556.33	51.49
556.50	0.00
556.66	63.19
556.83	0.00
556.99	4.68
557.16	56.17
557.32	35.11
557.49	63.19
557.65	0.00
557.82	18.72
557.98	51.49
558.15	65.54
558.32	81.92
558.48	44.47
558.65	42.13
558.81	56.17
558.98	0.00
559.14	37.45
559.31	11.70
559.47	93.62
559.64	46.81
559.80	95.96
559.97	49.15
560.13	28.09
560.30	74.90
560.46	60.85
560.63	0.00
560.79	0.00
560.96	23.41
561.12	39.79
561.29	11.70
561.45	25.75
561.61	11.70
561.78	11.70
561.94	77.24
562.11	42.13
562.27	0.00
562.44	0.00
562.60	86.60
562.77	35.11
562.93	56.17
563.10	84.26
563.26	42.13
563.42	0.00
563.59	77.24
563.75	32.77
563.92	21.06
564.08	37.45
564.24	25.75
564.41	4.68
564.57	93.62
564.74	56.17
564.90	74.90
565.07	67.88
565.23	25.75
565.39	37.45
565.56	16.38
565.72	39.79
565.88	44.47
566.05	53.83
566.21	0.00
566.38	39.79
566.54	51.49
566.70	7.02
566.87	0.00
567.03	0.00
567.19	11.70
567.36	46.81
567.52	46.81
567.68	98.30
567.85	25.75
568.01	30.43
568.17	72.56
568.34	14.04
568.50	112.35
568.66	21.06
568.83	0.00
568.99	46.81
569.15	102.98
569.32	46.81
569.48	86.60
569.64	28.09
569.81	65.54
569.97	124.05
570.13	49.15
570.30	51.49
570.46	51.49
570.62	51.49
570.78	42.13
570.95	11.70
571.11	9.36
571.27	67.88
571.43	88.94
571.60	0.00
571.76	0.00
571.92	30.43
572.09	18.72
572.25	51.49
572.41	67.88
572.57	37.45
572.74	51.49
572.90	14.04
573.06	77.24
573.22	44.47
573.38	79.58
573.55	42.13
573.71	39.79
573.87	4.68
574.03	16.38
574.20	30.43
574.36	63.19
574.52	37.45
574.68	32.77
574.84	65.54
575.01	88.94
575.17	67.88
575.33	16.38
575.49	0.00
575.65	0.00
575.82	161.50
575.98	79.58
576.14	2.34
576.30	131.07
576.46	0.00
576.62	18.72
576.79	72.56
576.95	53.83
577.11	0.00
577.27	72.56
577.43	0.00
577.59	49.15
577.75	11.70
577.92	49.15
578.08	49.15
578.24	74.90
578.40	14.04
578.56	16.38
578.72	56.17
578.88	72.56
579.04	0.00
579.21	9.36
579.37	18.72
579.53	4.68
579.69	21.06
579.85	60.85
580.01	56.17
580.17	74.90
580.33	0.00
580.49	0.00
580.65	84.26
580.82	42.13
580.98	0.00
581.14	32.77
581.30	25.75
581.46	72.56
581.62	88.94
581.78	0.00
581.94	21.06
582.10	74.90
582.26	21.06
582.42	0.00
582.58	37.45
582.74	56.17
582.90	86.60
583.06	105.32
583.22	65.54
583.38	53.83
583.54	63.19
583.70	49.15
583.86	4.68
584.02	0.00
584.18	60.85
584.34	39.79
584.50	23.41
584.66	39.79
584.82	39.79
584.98	21.06
585.14	110.01
585.30	7.02
585.46	0.00
585.62	0.00
585.78	0.00
585.94	51.49
586.10	30.43
586.26	114.69
586.42	49.15
586.58	35.11
586.74	65.54
586.90	0.00
587.06	46.81
587.22	30.43
587.38	39.79
587.54	84.26
587.70	32.77
587.86	35.11
588.02	53.83
588.18	18.72
588.34	0.00
588.49	46.81
588.65	44.47
588.81	39.79
588.97	42.13
589.13	60.85
589.29	42.13
589.45	7.02
589.61	0.00
589.77	56.17
589.93	9.36
590.08	0.00
590.24	18.72
590.40	56.17
590.56	28.09
590.72	0.00
590.88	9.36
591.04	0.00
591.20	11.70
591.35	81.92
591.51	107.66
591.67	0.00
591.83	46.81
591.99	14.04
592.15	112.35
592.31	0.00
592.46	0.00
592.62	65.54
592.78	95.96
592.94	0.00
593.10	4.68
593.26	63.19
593.41	65.54
593.57	51.49
593.73	32.77
593.89	37.45
594.05	67.88
594.20	0.00
594.36	91.28
594.52	32.77
594.68	16.38
594.84	0.00
594.99	32.77
595.15	77.24
595.31	11.70
595.47	60.85
595.62	81.92
595.78	70.22
595.94	35.11
596.10	63.19
596.25	0.00
596.41	74.90
596.57	18.72
596.73	0.00
596.88	2.34
597.04	56.17
597.20	39.79
597.36	39.79
597.51	11.70
597.67	30.43
597.83	2.34
597.99	32.77
598.14	44.47
598.30	93.62
598.46	2.34
598.61	100.64
598.77	117.03
598.93	7.02
599.09	14.04
599.24	72.56
599.40	119.37
599.56	0.00
599.71	0.00
599.87	35.11
600.03	35.11
600.18	0.00
600.34	72.56
600.50	9.36
600.65	21.06
600.81	0.00
600.97	74.90
601.12	44.47
601.28	60.85
601.44	0.00
601.59	0.00
601.75	25.75
601.91	46.81
602.06	7.02
602.22	100.64
602.37	14.04
602.53	2.34
602.69	0.00
602.84	79.58
603.00	0.00
603.16	74.90
603.31	74.90
603.47	9.36
603.62	56.17
603.78	0.00
603.94	21.06
604.09	42.13
604.25	65.54
604.40	91.28
604.56	0.00
604.71	88.94
604.87	49.15
605.03	4.68
605.18	2.34
605.34	39.79
605.49	18.72
605.65	28.09
605.80	95.96
605.96	81.92
606.12	102.98
606.27	0.00
606.43	0.00
606.58	0.00
606.74	42.13
606.89	0.00
607.05	79.58
607.20	58.51
607.36	70.22
607.51	4.68
607.67	0.00
607.82	0.00
607.98	16.38
608.13	30.43
608.29	84.26
608.44	35.11
608.60	14.04
608.75	88.94
608.91	28.09
609.06	21.06
609.22	30.43
609.37	46.81
609.53	58.51
609.68	0.00
609.84	44.47
609.99	77.24
610.15	107.66
610.30	51.49
610.46	60.85
610.61	77.24
610.76	0.00
610.92	51.49
611.07	14.04
611.23	0.00
611.38	18.72
611.54	79.58
611.69	25.75
611.84	51.49
612.00	53.83
612.15	0.00
612.31	42.13
612.46	14.04
612.62	0.00
612.77	79.58
612.92	88.94
613.08	70.22
613.23	74.90
613.39	21.06
613.54	91.28
613.69	49.15
613.85	18.72
614.00	37.45
614.15	91.28
614.31	0.00
614.46	30.43
614.62	9.36
614.77	98.30
614.92	23.41
615.08	74.90
615.23	93.62
615.38	63.19
615.54	37.45
615.69	44.47
615.84	46.81
616.00	70.22
616.15	21.06
616.30	35.11
616.46	32.77
616.61	60.85
616.76	30.43
616.92	72.56
617.07	0.00
617.22	35.11
617.37	39.79
617.53	65.54
617.68	0.00
617.83	9.36
617.99	0.00
618.14	21.06
618.29	4.68
618.45	16.38
618.60	2.34
618.75	18.72
618.90	53.83
619.06	46.81
619.21	0.00
619.36	18.72
619.51	53.83
619.67	0.00
619.82	32.77
619.97	91.28
620.12	65.54
620.28	67.88
620.43	25.75
620.58	11.70
620.73	0.00
620.89	117.03
621.04	32.77
621.19	53.83
621.34	30.43
621.49	51.49
621.65	60.85
621.80	4.68
621.95	23.41
622.10	2.34
622.25	9.36
622.41	37.45
622.56	0.00
622.71	53.83
622.86	60.85
623.01	9.36
623.16	0.00
623.32	0.00
623.47	110.01
623.62	95.96
623.77	4.68
623.92	9.36
624.07	49.15
624.23	63.19
624.38	81.92
624.53	95.96
624.68	0.00
624.83	51.49
624.98	32.77
625.13	23.41
625.29	18.72
625.44	7.02
625.59	91.28
625.74	58.51
625.89	102.98
626.04	0.00
626.19	102.98
626.34	49.15
626.49	46.81
626.65	39.79
626.80	84.26
626.95	39.79
627.10	0.00
627.25	49.15
627.40	53.83
627.55	91.28
627.70	35.11
627.85	9.36
628.00	72.56
628.15	0.00
628.30	30.43
628.45	14.04
628.60	46.81
628.76	21.06
628.91	51.49
629.06	51.49
629.21	58.51
629.36	11.70
629.51	28.09
629.66	0.00
629.81	53.83
629.96	70.22
630.11	0.00
630.26	74.90
630.41	18.72
630.56	18.72
630.71	0.00
630.86	65.54
631.01	9.36
631.16	60.85
631.31	0.00
631.46	42.13
631.61	23.41
631.76	23.41
631.91	11.70
632.06	0.00
632.21	18.72
632.36	0.00
632.51	42.13
632.66	25.75
632.81	42.13
632.96	67.88
633.10	2.34
633.25	42.13
633.40	39.79
633.55	65.54
633.70	63.19
633.85	72.56
634.00	0.00
634.15	72.56
634.30	91.28
634.45	44.47
634.60	35.11
634.75	39.79
634.90	30.43
635.05	77.24
635.19	14.04
635.34	53.83
635.49	46.81
635.64	9.36
635.79	2.34
635.94	35.11
636.09	0.00
636.24	63.19
636.39	65.54
636.53	32.77
636.68	0.00
636.83	0.00
636.98	39.79
637.13	14.04
637.28	0.00
637.43	11.70
637.57	0.00
637.72	65.54
637.87	7.02
638.02	37.45
638.17	88.94
638.32	0.00
638.46	37.45
638.61	37.45
638.76	77.24
638.91	98.30
639.06	37.45
639.20	110.01
639.35	60.85
639.50	126.39
639.65	44.47
639.80	4.68
639.94	173.20
640.09	81.92
640.24	7.02
640.39	46.81
640.54	91.28
640.68	39.79
640.83	39.79
640.98	30.43
641.13	58.51
641.27	46.81
641.42	72.56
641.57	0.00
641.72	0.00
641.86	28.09
642.01	42.13
642.16	28.09
642.31	0.00
642.45	100.64
642.60	58.51
642.75	84.26
642.90	65.54
643.04	23.41
643.19	0.00
643.34	18.72
643.48	63.19
643.63	72.56
643.78	0.00
643.93	133.41
644.07	81.92
644.22	35.11
644.37	98.30
644.51	18.72
644.66	0.00
644.81	30.43
644.95	0.00
645.10	60.85
645.25	30.43
645.39	46.81
645.54	18.72
645.69	7.02
645.83	7.02
645.98	95.96
646.13	42.13
646.27	51.49
646.42	65.54
646.57	21.06
646.71	37.45
646.86	42.13
647.00	53.83
647.15	32.77
647.30	53.83
647.44	28.09
647.59	58.51
647.74	16.38
647.88	30.43
648.03	0.00
648.17	30.43
648.32	74.90
648.47	46.81
648.61	77.24
648.76	72.56
648.90	0.00
649.05	35.11
649.20	35.11
649.34	65.54
649.49	32.77
649.63	44.47
649.78	0.00
649.92	56.17
650.07	32.77
650.21	0.00
650.36	0.00
650.51	18.72
650.65	18.72
650.80	32.77
650.94	0.00
651.09	39.79
651.23	63.19
651.38	91.28
651.52	14.04
651.67	14.04
651.81	0.00
651.96	2.34
652.10	0.00
652.25	42.13
652.39	56.17
652.54	77.24
652.68	30.43
652.83	67.88
652.97	74.90
653.12	81.92
653.26	32.77
653.41	0.00
653.55	18.72
653.70	4.68
653.84	0.00
653.99	0.00
654.13	63.19
654.27	23.41
654.42	18.72
654.56	46.81
654.71	23.41
654.85	100.64
655.00	70.22
655.14	35.11
655.29	23.41
655.43	9.36
655.57	63.19
655.72	0.00
655.86	37.45
656.01	112.35
656.15	39.79
656.30	88.94
656.44	44.47
656.58	77.24
656.73	7.02
656.87	60.85
657.01	58.51
657.16	77.24
657.30	4.68
657.45	0.00
657.59	110.01
657.73	0.00
657.88	4.68
658.02	44.47
658.16	46.81
658.31	51.49
658.45	0.00
658.60	49.15
658.74	51.49
658.88	51.49
659.03	28.09
659.17	63.19
659.31	39.79
659.46	56.17
659.60	42.13
659.74	0.00
659.89	0.00
660.03	56.17
660.17	0.00
660.32	14.04
660.46	16.38
660.60	93.62
660.74	72.56
660.89	14.04
661.03	0.00
661.17	0.00
661.32	0.00
661.46	72.56
661.60	58.51
661.74	28.09
661.89	37.45
662.03	18.72
662.17	51.49
662.31	11.70
662.46	7.02
662.60	44.47
662.74	39.79
662.88	32.77
663.03	35.11
663.17	58.51
663.31	74.90
663.45	79.58
663.60	39.79
663.74	67.88
663.88	32.77
664.02	35.11
664.17	0.00
664.31	0.00
664.45	60.85
664.59	42.13
664.73	11.70
664.88	37.45
665.02	105.32
665.16	0.00
665.30	28.09
665.44	7.02
665.59	84.26
665.73	37.45
665.87	46.81
666.01	25.75
666.15	28.09
666.29	49.15
666.44	25.75
666.58	37.45
666.72	4.68
666.86	60.85
667.00	0.00
667.14	0.00
667.28	18.72
667.43	0.00
667.57	51.49
667.71	32.77
667.85	0.00
667.99	23.41
668.13	63.19
668.27	119.37
668.41	14.04
668.56	25.75
668.70	9.36
668.84	0.00
668.98	65.54
669.12	30.43
669.26	0.00
669.40	9.36
669.54	0.00
669.68	0.00
669.82	25.75
669.96	42.13
670.10	0.00
670.25	67.88
670.39	30.43
670.53	51.49
670.67	44.47
670.81	0.00
670.95	105.32
671.09	37.45
671.23	37.45
671.37	51.49
671.51	46.81
671.65	51.49
671.79	0.00
671.93	18.72
672.07	49.15
672.21	4.68
672.35	0.00
672.49	32.77
672.63	0.00
672.77	39.79
672.91	53.83
673.05	98.30
673.19	30.43
673.33	105.32
673.47	70.22
673.61	65.54
673.75	30.43
673.89	91.28
674.03	49.15
674.17	23.41
674.31	0.00
674.45	39.79
674.59	53.83
674.73	0.00
674.87	18.72
675.01	25.75
675.15	30.43
675.29	84.26
675.43	100.64
675.56	4.68
675.70	46.81
675.84	23.41
675.98	9.36
676.12	58.51
676.26	81.92
676.40	25.75
676.54	0.00
676.68	28.09
676.82	25.75
676.96	53.83
677.10	42.13
677.23	9.36
677.37	0.00
677.51	121.71
677.65	18.72
677.79	91.28
677.93	0.00
678.07	56.17
678.21	65.54
678.34	7.02
678.48	9.36
678.62	60.85
678.76	28.09
678.90	53.83
679.04	25.75
679.18	74.90
679.31	32.77
679.45	46.81
679.59	0.00
679.73	0.00
679.87	77.24
680.00	9.36
680.14	63.19
680.28	60.85
680.42	121.71
680.56	25.75
680.70	32.77
680.83	53.83
680.97	58.51
681.11	14.04
681.25	74.90
681.39	0.00
681.52	70.22
681.66	100.64
681.80	77.24
681.94	7.02
682.07	53.83
682.21	21.06
682.35	18.72
682.49	56.17
682.62	88.94
682.76	51.49
682.90	37.45
683.04	0.00
683.17	0.00
683.31	28.09
683.45	42.13
683.59	21.06
683.72	79.58
683.86	4.68
684.00	30.43
684.13	32.77
684.27	0.00
684.41	88.94
684.55	4.68
684.68	81.92
684.82	72.56
684.96	88.94
685.09	88.94
685.23	84.26
685.37	0.00
685.50	7.02
685.64	0.00
685.78	70.22
685.91	2.34
686.05	117.03
686.19	79.58
686.32	21.06
686.46	42.13
686.60	0.00
686.73	44.47
686.87	25.75
687.01	21.06
687.14	65.54
687.28	86.60
687.42	86.60
687.55	28.09
687.69	114.69
687.82	14.04
687.96	70.22
688.10	63.19
688.23	25.75
688.37	35.11
688.50	0.00
688.64	0.00
688.78	60.85
688.91	4.68
689.05	0.00
689.18	67.88
689.32	39.79
689.46	46.81
689.59	18.72
689.73	9.36
689.86	21.06
690.00	70.22
690.13	91.28
690.27	74.90
690.41	0.00
690.54	93.62
690.68	21.06
690.81	46.81
690.95	30.43
691.08	42.13
691.22	0.00
691.35	56.17
691.49	0.00
691.62	67.88
691.76	4.68
691.89	0.00
692.03	28.09
692.16	11.70
692.30	32.77
692.43	53.83
692.57	0.00
692.70	74.90
692.84	42.13
692.97	32.77
693.11	0.00
693.24	63.19
693.38	2.34
693.51	0.00
693.65	0.00
693.78	58.51
693.92	53.83
694.05	0.00
694.19	25.75
694.32	2.34
694.45	58.51
694.59	0.00
694.72	42.13
694.86	0.00
694.99	0.00
695.13	49.15
695.26	2.34
695.39	0.00
695.53	32.77
695.66	63.19
695.80	25.75
695.93	35.11
696.07	63.19
696.20	21.06
696.33	51.49
696.47	32.77
696.60	98.30
696.73	49.15
696.87	30.43
697.00	23.41
697.14	9.36
697.27	0.00
697.40	21.06
697.54	81.92
697.67	32.77
697.80	72.56
697.94	133.41
698.07	74.90
698.21	2.34
698.34	72.56
698.47	0.00
698.61	7.02
698.74	28.09
698.87	25.75
699.01	53.83
699.14	28.09
699.27	0.00
699.40	63.19
699.54	84.26
699.67	4.68
699.80	53.83
699.94	0.00
700.07	53.83
700.20	60.85
700.34	32.77
700.47	0.00
700.60	0.00
700.73	32.77
700.87	58.51
701.00	25.75
701.13	0.00
701.26	0.00
701.40	0.00
701.53	7.02
701.66	110.01
701.79	74.90
701.93	0.00
702.06	35.11
702.19	0.00
702.32	70.22
702.46	18.72
702.59	18.72
702.72	42.13
702.85	0.00
702.99	9.36
703.12	37.45
703.25	32.77
703.38	70.22
703.51	0.00
703.65	21.06
703.78	16.38
703.91	65.54
704.04	72.56
704.17	46.81
704.31	11.70
704.44	67.88
704.57	28.09
704.70	23.41
704.83	58.51
704.96	11.70
705.10	0.00
705.23	37.45
>>>>>End Processed Spectral Data<<<<<
