SpectraSuite Data File
++++++++++++++++++++++++++++++++++++
Date: Fri Oct 04 12:13:38 GMT-05:00 2013
User: price-jones
Dark Spectrum Present: No
Reference Spectrum Present: No
Number of Sampled Component Spectra: 1
Spectrometers: USB2+H05261
Integration Time (usec): 10000 (USB2+H05261)
Spectra Averaged: 1 (USB2+H05261)
Boxcar Smoothing: 0 (USB2+H05261)
Correct for Electrical Dark: No (USB2+H05261)
Strobe/Lamp Enabled: No (USB2+H05261)
Correct for Detector Non-linearity: No (USB2+H05261)
Correct for Stray Light: No (USB2+H05261)
Number of Pixels in Processed Spectrum: 2048
>>>>>Begin Processed Spectral Data<<<<<
365.73	0.00
365.92	0.00
366.12	0.00
366.32	0.00
366.52	0.00
366.72	0.00
366.91	0.00
367.11	0.00
367.31	0.00
367.51	0.00
367.70	0.00
367.90	0.00
368.10	0.00
368.30	0.00
368.49	0.00
368.69	0.00
368.89	0.00
369.09	0.00
369.28	0.00
369.48	0.00
369.68	0.00
369.87	0.00
370.07	0.00
370.27	0.00
370.47	0.00
370.66	0.00
370.86	0.00
371.06	0.00
371.25	0.00
371.45	0.00
371.65	0.00
371.84	2.34
372.04	0.00
372.24	0.00
372.44	32.77
372.63	0.00
372.83	0.00
373.03	16.38
373.22	100.64
373.42	37.45
373.62	0.00
373.81	7.02
374.01	44.47
374.21	51.49
374.40	35.11
374.60	117.03
374.79	0.00
374.99	0.00
375.19	4.68
375.38	46.81
375.58	42.13
375.78	0.00
375.97	25.75
376.17	25.75
376.37	72.56
376.56	25.75
376.76	0.00
376.95	0.00
377.15	11.70
377.35	0.00
377.54	44.47
377.74	2.34
377.93	7.02
378.13	4.68
378.33	11.70
378.52	0.00
378.72	0.00
378.91	84.26
379.11	0.00
379.31	18.72
379.50	0.00
379.70	7.02
379.89	0.00
380.09	30.43
380.28	28.09
380.48	44.47
380.68	51.49
380.87	46.81
381.07	16.38
381.26	4.68
381.46	21.06
381.65	0.00
381.85	0.00
382.04	18.72
382.24	0.00
382.43	14.04
382.63	23.41
382.83	7.02
383.02	0.00
383.22	32.77
383.41	0.00
383.61	37.45
383.80	67.88
384.00	0.00
384.19	42.13
384.39	35.11
384.58	42.13
384.78	51.49
384.97	39.79
385.17	44.47
385.36	0.00
385.56	51.49
385.75	35.11
385.95	0.00
386.14	42.13
386.34	0.00
386.53	67.88
386.72	0.00
386.92	0.00
387.11	14.04
387.31	49.15
387.50	25.75
387.70	0.00
387.89	0.00
388.09	14.04
388.28	0.00
388.48	0.00
388.67	49.15
388.86	0.00
389.06	14.04
389.25	35.11
389.45	11.70
389.64	44.47
389.84	4.68
390.03	23.41
390.22	32.77
390.42	23.41
390.61	46.81
390.81	0.00
391.00	16.38
391.19	28.09
391.39	11.70
391.58	18.72
391.78	72.56
391.97	7.02
392.16	28.09
392.36	4.68
392.55	0.00
392.75	11.70
392.94	14.04
393.13	46.81
393.33	77.24
393.52	0.00
393.71	0.00
393.91	7.02
394.10	74.90
394.29	46.81
394.49	32.77
394.68	28.09
394.88	11.70
395.07	63.19
395.26	53.83
395.46	0.00
395.65	39.79
395.84	100.64
396.04	7.02
396.23	0.00
396.42	0.00
396.62	42.13
396.81	49.15
397.00	0.00
397.19	0.00
397.39	0.00
397.58	0.00
397.77	0.00
397.97	0.00
398.16	35.11
398.35	11.70
398.55	9.36
398.74	21.06
398.93	0.00
399.12	46.81
399.32	23.41
399.51	23.41
399.70	63.19
399.90	14.04
400.09	0.00
400.28	4.68
400.47	28.09
400.67	28.09
400.86	60.85
401.05	16.38
401.24	74.90
401.44	21.06
401.63	30.43
401.82	63.19
402.01	30.43
402.21	28.09
402.40	67.88
402.59	56.17
402.78	25.75
402.97	77.24
403.17	0.00
403.36	32.77
403.55	49.15
403.74	84.26
403.93	21.06
404.13	0.00
404.32	0.00
404.51	63.19
404.70	49.15
404.89	35.11
405.09	0.00
405.28	86.60
405.47	4.68
405.66	145.11
405.85	30.43
406.05	0.00
406.24	0.00
406.43	63.19
406.62	0.00
406.81	49.15
407.00	42.13
407.20	28.09
407.39	0.00
407.58	44.47
407.77	16.38
407.96	35.11
408.15	98.30
408.34	23.41
408.54	2.34
408.73	63.19
408.92	35.11
409.11	49.15
409.30	0.00
409.49	7.02
409.68	0.00
409.87	0.00
410.07	51.49
410.26	21.06
410.45	2.34
410.64	2.34
410.83	53.83
411.02	30.43
411.21	126.39
411.40	0.00
411.59	53.83
411.78	100.64
411.98	35.11
412.17	65.54
412.36	25.75
412.55	35.11
412.74	35.11
412.93	56.17
413.12	0.00
413.31	32.77
413.50	49.15
413.69	51.49
413.88	63.19
414.07	39.79
414.26	86.60
414.45	58.51
414.64	67.88
414.83	18.72
415.02	133.41
415.22	0.00
415.41	30.43
415.60	93.62
415.79	23.41
415.98	74.90
416.17	9.36
416.36	0.00
416.55	35.11
416.74	49.15
416.93	72.56
417.12	7.02
417.31	7.02
417.50	51.49
417.69	110.01
417.88	0.00
418.07	124.05
418.26	30.43
418.45	72.56
418.64	35.11
418.83	77.24
419.02	0.00
419.21	28.09
419.39	0.00
419.58	86.60
419.77	39.79
419.96	53.83
420.15	70.22
420.34	18.72
420.53	98.30
420.72	46.81
420.91	53.83
421.10	28.09
421.29	0.00
421.48	25.75
421.67	72.56
421.86	0.00
422.05	16.38
422.24	95.96
422.43	79.58
422.61	81.92
422.80	100.64
422.99	25.75
423.18	51.49
423.37	63.19
423.56	2.34
423.75	4.68
423.94	63.19
424.13	65.54
424.32	67.88
424.50	23.41
424.69	56.17
424.88	35.11
425.07	74.90
425.26	81.92
425.45	11.70
425.64	51.49
425.83	0.00
426.01	42.13
426.20	128.73
426.39	65.54
426.58	18.72
426.77	65.54
426.96	81.92
427.15	23.41
427.33	0.00
427.52	60.85
427.71	18.72
427.90	16.38
428.09	56.17
428.28	30.43
428.46	79.58
428.65	23.41
428.84	16.38
429.03	16.38
429.22	46.81
429.40	28.09
429.59	28.09
429.78	0.00
429.97	0.00
430.16	70.22
430.34	60.85
430.53	67.88
430.72	0.00
430.91	32.77
431.10	86.60
431.28	147.45
431.47	46.81
431.66	65.54
431.85	79.58
432.03	81.92
432.22	72.56
432.41	65.54
432.60	4.68
432.79	149.79
432.97	16.38
433.16	16.38
433.35	0.00
433.54	44.47
433.72	0.00
433.91	25.75
434.10	4.68
434.28	42.13
434.47	117.03
434.66	63.19
434.85	0.00
435.03	124.05
435.22	60.85
435.41	11.70
435.59	0.00
435.78	4.68
435.97	21.06
436.16	30.43
436.34	46.81
436.53	18.72
436.72	44.47
436.90	72.56
437.09	7.02
437.28	81.92
437.46	28.09
437.65	0.00
437.84	147.45
438.02	23.41
438.21	58.51
438.40	25.75
438.58	88.94
438.77	30.43
438.96	112.35
439.14	93.62
439.33	72.56
439.52	88.94
439.70	51.49
439.89	23.41
440.08	60.85
440.26	65.54
440.45	98.30
440.63	35.11
440.82	32.77
441.01	98.30
441.19	0.00
441.38	30.43
441.57	65.54
441.75	112.35
441.94	81.92
442.12	35.11
442.31	0.00
442.50	72.56
442.68	30.43
442.87	44.47
443.05	42.13
443.24	81.92
443.43	100.64
443.61	39.79
443.80	63.19
443.98	2.34
444.17	30.43
444.35	11.70
444.54	84.26
444.73	35.11
444.91	93.62
445.10	98.30
445.28	0.00
445.47	42.13
445.65	4.68
445.84	124.05
446.02	60.85
446.21	112.35
446.39	63.19
446.58	105.32
446.77	2.34
446.95	161.50
447.14	77.24
447.32	0.00
447.51	4.68
447.69	37.45
447.88	58.51
448.06	117.03
448.25	93.62
448.43	18.72
448.62	0.00
448.80	18.72
448.99	44.47
449.17	37.45
449.36	44.47
449.54	21.06
449.73	35.11
449.91	0.00
450.10	14.04
450.28	72.56
450.46	95.96
450.65	56.17
450.83	79.58
451.02	53.83
451.20	30.43
451.39	0.00
451.57	88.94
451.76	114.69
451.94	0.00
452.13	46.81
452.31	28.09
452.49	28.09
452.68	107.66
452.86	28.09
453.05	37.45
453.23	0.00
453.42	56.17
453.60	84.26
453.78	23.41
453.97	74.90
454.15	91.28
454.34	65.54
454.52	28.09
454.70	37.45
454.89	25.75
455.07	81.92
455.26	86.60
455.44	100.64
455.62	23.41
455.81	37.45
455.99	16.38
456.17	23.41
456.36	65.54
456.54	49.15
456.73	42.13
456.91	65.54
457.09	114.69
457.28	65.54
457.46	37.45
457.64	35.11
457.83	28.09
458.01	131.07
458.19	46.81
458.38	102.98
458.56	0.00
458.74	152.13
458.93	44.47
459.11	79.58
459.29	9.36
459.48	49.15
459.66	119.37
459.84	114.69
460.03	58.51
460.21	74.90
460.39	9.36
460.57	74.90
460.76	11.70
460.94	56.17
461.12	72.56
461.31	84.26
461.49	60.85
461.67	53.83
461.85	37.45
462.04	39.79
462.22	163.84
462.40	84.26
462.59	53.83
462.77	84.26
462.95	16.38
463.13	0.00
463.32	46.81
463.50	114.69
463.68	32.77
463.86	0.00
464.05	0.00
464.23	70.22
464.41	49.15
464.59	49.15
464.78	23.41
464.96	25.75
465.14	81.92
465.32	67.88
465.50	53.83
465.69	60.85
465.87	2.34
466.05	0.00
466.23	37.45
466.41	72.56
466.60	46.81
466.78	114.69
466.96	119.37
467.14	67.88
467.32	58.51
467.51	98.30
467.69	11.70
467.87	51.49
468.05	86.60
468.23	110.01
468.41	23.41
468.60	72.56
468.78	65.54
468.96	0.00
469.14	53.83
469.32	112.35
469.50	49.15
469.69	49.15
469.87	74.90
470.05	161.50
470.23	53.83
470.41	23.41
470.59	2.34
470.77	77.24
470.95	86.60
471.14	56.17
471.32	53.83
471.50	131.07
471.68	2.34
471.86	0.00
472.04	105.32
472.22	37.45
472.40	67.88
472.58	14.04
472.77	74.90
472.95	49.15
473.13	14.04
473.31	91.28
473.49	46.81
473.67	18.72
473.85	42.13
474.03	95.96
474.21	30.43
474.39	37.45
474.57	9.36
474.75	18.72
474.93	102.98
475.12	65.54
475.30	49.15
475.48	0.00
475.66	35.11
475.84	58.51
476.02	30.43
476.20	9.36
476.38	39.79
476.56	84.26
476.74	95.96
476.92	53.83
477.10	84.26
477.28	18.72
477.46	110.01
477.64	53.83
477.82	51.49
478.00	51.49
478.18	7.02
478.36	145.11
478.54	14.04
478.72	28.09
478.90	86.60
479.08	18.72
479.26	58.51
479.44	145.11
479.62	58.51
479.80	91.28
479.98	11.70
480.16	77.24
480.34	86.60
480.52	49.15
480.70	28.09
480.88	77.24
481.06	42.13
481.24	70.22
481.41	102.98
481.59	74.90
481.77	102.98
481.95	51.49
482.13	46.81
482.31	102.98
482.49	51.49
482.67	0.00
482.85	58.51
483.03	142.77
483.21	81.92
483.39	46.81
483.57	98.30
483.74	60.85
483.92	0.00
484.10	30.43
484.28	44.47
484.46	81.92
484.64	74.90
484.82	42.13
485.00	39.79
485.18	7.02
485.35	49.15
485.53	46.81
485.71	74.90
485.89	30.43
486.07	58.51
486.25	60.85
486.43	84.26
486.61	28.09
486.78	81.92
486.96	114.69
487.14	81.92
487.32	131.07
487.50	67.88
487.68	142.77
487.85	105.32
488.03	35.11
488.21	56.17
488.39	4.68
488.57	72.56
488.75	49.15
488.92	201.29
489.10	119.37
489.28	53.83
489.46	65.54
489.64	93.62
489.81	67.88
489.99	65.54
490.17	65.54
490.35	86.60
490.53	86.60
490.70	88.94
490.88	95.96
491.06	56.17
491.24	58.51
491.41	88.94
491.59	159.16
491.77	121.71
491.95	98.30
492.13	72.56
492.30	70.22
492.48	95.96
492.66	32.77
492.84	14.04
493.01	93.62
493.19	79.58
493.37	79.58
493.54	60.85
493.72	30.43
493.90	21.06
494.08	74.90
494.25	46.81
494.43	110.01
494.61	0.00
494.79	53.83
494.96	93.62
495.14	131.07
495.32	88.94
495.49	77.24
495.67	21.06
495.85	60.85
496.02	23.41
496.20	0.00
496.38	128.73
496.55	70.22
496.73	84.26
496.91	46.81
497.09	105.32
497.26	110.01
497.44	70.22
497.62	77.24
497.79	72.56
497.97	84.26
498.14	95.96
498.32	18.72
498.50	46.81
498.67	44.47
498.85	91.28
499.03	88.94
499.20	79.58
499.38	84.26
499.56	11.70
499.73	121.71
499.91	110.01
500.08	58.51
500.26	79.58
500.44	98.30
500.61	138.09
500.79	138.09
500.97	67.88
501.14	152.13
501.32	37.45
501.49	105.32
501.67	72.56
501.84	91.28
502.02	112.35
502.20	77.24
502.37	133.41
502.55	77.24
502.72	77.24
502.90	81.92
503.07	32.77
503.25	100.64
503.43	79.58
503.60	128.73
503.78	65.54
503.95	72.56
504.13	56.17
504.30	58.51
504.48	42.13
504.65	110.01
504.83	145.11
505.01	121.71
505.18	86.60
505.36	117.03
505.53	102.98
505.71	65.54
505.88	79.58
506.06	46.81
506.23	107.66
506.41	84.26
506.58	63.19
506.76	0.00
506.93	124.05
507.11	46.81
507.28	133.41
507.46	79.58
507.63	88.94
507.81	95.96
507.98	126.39
508.16	65.54
508.33	70.22
508.50	42.13
508.68	53.83
508.85	105.32
509.03	70.22
509.20	77.24
509.38	14.04
509.55	107.66
509.73	95.96
509.90	63.19
510.08	42.13
510.25	25.75
510.42	119.37
510.60	110.01
510.77	86.60
510.95	84.26
511.12	32.77
511.30	65.54
511.47	63.19
511.64	56.17
511.82	56.17
511.99	49.15
512.17	128.73
512.34	95.96
512.51	58.51
512.69	124.05
512.86	98.30
513.04	63.19
513.21	140.43
513.38	124.05
513.56	93.62
513.73	7.02
513.90	117.03
514.08	72.56
514.25	84.26
514.43	102.98
514.60	51.49
514.77	119.37
514.95	117.03
515.12	42.13
515.29	105.32
515.47	93.62
515.64	81.92
515.81	65.54
515.99	114.69
516.16	95.96
516.33	131.07
516.51	86.60
516.68	23.41
516.85	86.60
517.03	30.43
517.20	117.03
517.37	114.69
517.54	79.58
517.72	65.54
517.89	39.79
518.06	110.01
518.24	42.13
518.41	51.49
518.58	63.19
518.75	110.01
518.93	93.62
519.10	131.07
519.27	35.11
519.45	114.69
519.62	11.70
519.79	77.24
519.96	39.79
520.14	88.94
520.31	25.75
520.48	84.26
520.65	105.32
520.83	133.41
521.00	102.98
521.17	114.69
521.34	88.94
521.52	67.88
521.69	107.66
521.86	58.51
522.03	44.47
522.20	0.00
522.38	18.72
522.55	72.56
522.72	14.04
522.89	67.88
523.07	100.64
523.24	105.32
523.41	86.60
523.58	2.34
523.75	131.07
523.92	74.90
524.10	126.39
524.27	93.62
524.44	86.60
524.61	7.02
524.78	44.47
524.96	63.19
525.13	65.54
525.30	79.58
525.47	30.43
525.64	98.30
525.81	95.96
525.98	79.58
526.16	91.28
526.33	28.09
526.50	149.79
526.67	16.38
526.84	77.24
527.01	56.17
527.18	131.07
527.36	105.32
527.53	91.28
527.70	91.28
527.87	79.58
528.04	112.35
528.21	65.54
528.38	70.22
528.55	74.90
528.72	72.56
528.89	35.11
529.07	44.47
529.24	44.47
529.41	25.75
529.58	93.62
529.75	21.06
529.92	91.28
530.09	177.88
530.26	95.96
530.43	65.54
530.60	105.32
530.77	105.32
530.94	53.83
531.11	70.22
531.28	49.15
531.46	189.58
531.63	86.60
531.80	138.09
531.97	121.71
532.14	117.03
532.31	28.09
532.48	7.02
532.65	9.36
532.82	95.96
532.99	67.88
533.16	98.30
533.33	110.01
533.50	81.92
533.67	70.22
533.84	74.90
534.01	65.54
534.18	88.94
534.35	49.15
534.52	77.24
534.69	77.24
534.86	63.19
535.03	65.54
535.20	67.88
535.37	91.28
535.54	98.30
535.71	46.81
535.88	28.09
536.05	93.62
536.22	46.81
536.38	93.62
536.55	30.43
536.72	98.30
536.89	79.58
537.06	86.60
537.23	140.43
537.40	142.77
537.57	119.37
537.74	11.70
537.91	147.45
538.08	46.81
538.25	53.83
538.42	81.92
538.59	51.49
538.75	119.37
538.92	81.92
539.09	93.62
539.26	81.92
539.43	114.69
539.60	49.15
539.77	58.51
539.94	117.03
540.11	67.88
540.28	74.90
540.44	74.90
540.61	100.64
540.78	191.92
540.95	156.82
541.12	102.98
541.29	28.09
541.46	86.60
541.62	86.60
541.79	72.56
541.96	58.51
542.13	79.58
542.30	77.24
542.47	91.28
542.63	128.73
542.80	74.90
542.97	102.98
543.14	107.66
543.31	9.36
543.48	67.88
543.64	110.01
543.81	126.39
543.98	91.28
544.15	49.15
544.32	79.58
544.48	72.56
544.65	128.73
544.82	88.94
544.99	100.64
545.16	56.17
545.32	98.30
545.49	91.28
545.66	81.92
545.83	86.60
546.00	67.88
546.16	65.54
546.33	77.24
546.50	0.00
546.67	135.75
546.83	126.39
547.00	102.98
547.17	65.54
547.34	140.43
547.50	51.49
547.67	56.17
547.84	65.54
548.00	18.72
548.17	0.00
548.34	79.58
548.51	100.64
548.67	121.71
548.84	117.03
549.01	126.39
549.18	37.45
549.34	14.04
549.51	112.35
549.68	117.03
549.84	107.66
550.01	30.43
550.18	86.60
550.34	133.41
550.51	46.81
550.68	74.90
550.84	35.11
551.01	128.73
551.18	147.45
551.34	88.94
551.51	88.94
551.68	102.98
551.84	124.05
552.01	53.83
552.18	95.96
552.34	14.04
552.51	67.88
552.68	32.77
552.84	58.51
553.01	58.51
553.18	117.03
553.34	135.75
553.51	39.79
553.67	105.32
553.84	133.41
554.01	44.47
554.17	86.60
554.34	124.05
554.51	124.05
554.67	32.77
554.84	114.69
555.00	133.41
555.17	74.90
555.33	91.28
555.50	79.58
555.67	91.28
555.83	117.03
556.00	105.32
556.16	142.77
556.33	28.09
556.50	67.88
556.66	98.30
556.83	70.22
556.99	74.90
557.16	91.28
557.32	53.83
557.49	58.51
557.65	72.56
557.82	53.83
557.98	77.24
558.15	124.05
558.32	102.98
558.48	114.69
558.65	86.60
558.81	23.41
558.98	25.75
559.14	14.04
559.31	119.37
559.47	88.94
559.64	86.60
559.80	74.90
559.97	60.85
560.13	95.96
560.30	124.05
560.46	4.68
560.63	77.24
560.79	53.83
560.96	100.64
561.12	25.75
561.29	63.19
561.45	84.26
561.61	79.58
561.78	56.17
561.94	100.64
562.11	163.84
562.27	163.84
562.44	84.26
562.60	112.35
562.77	16.38
562.93	53.83
563.10	95.96
563.26	28.09
563.42	37.45
563.59	60.85
563.75	135.75
563.92	100.64
564.08	37.45
564.24	72.56
564.41	25.75
564.57	138.09
564.74	128.73
564.90	9.36
565.07	79.58
565.23	91.28
565.39	121.71
565.56	70.22
565.72	112.35
565.88	159.16
566.05	86.60
566.21	79.58
566.38	49.15
566.54	79.58
566.70	105.32
566.87	81.92
567.03	37.45
567.19	18.72
567.36	42.13
567.52	119.37
567.68	74.90
567.85	105.32
568.01	79.58
568.17	49.15
568.34	7.02
568.50	91.28
568.66	65.54
568.83	156.82
568.99	18.72
569.15	74.90
569.32	42.13
569.48	81.92
569.64	42.13
569.81	42.13
569.97	95.96
570.13	114.69
570.30	102.98
570.46	63.19
570.62	121.71
570.78	72.56
570.95	121.71
571.11	16.38
571.27	110.01
571.43	65.54
571.60	60.85
571.76	42.13
571.92	128.73
572.09	25.75
572.25	84.26
572.41	100.64
572.57	44.47
572.74	107.66
572.90	63.19
573.06	88.94
573.22	11.70
573.38	74.90
573.55	84.26
573.71	121.71
573.87	79.58
574.03	37.45
574.20	42.13
574.36	100.64
574.52	114.69
574.68	60.85
574.84	74.90
575.01	93.62
575.17	39.79
575.33	2.34
575.49	107.66
575.65	63.19
575.82	91.28
575.98	184.90
576.14	9.36
576.30	21.06
576.46	93.62
576.62	65.54
576.79	58.51
576.95	98.30
577.11	63.19
577.27	114.69
577.43	100.64
577.59	77.24
577.75	67.88
577.92	60.85
578.08	77.24
578.24	53.83
578.40	39.79
578.56	102.98
578.72	100.64
578.88	95.96
579.04	44.47
579.21	107.66
579.37	42.13
579.53	18.72
579.69	70.22
579.85	86.60
580.01	93.62
580.17	39.79
580.33	46.81
580.49	25.75
580.65	93.62
580.82	107.66
580.98	65.54
581.14	95.96
581.30	114.69
581.46	42.13
581.62	131.07
581.78	98.30
581.94	65.54
582.10	60.85
582.26	79.58
582.42	70.22
582.58	53.83
582.74	60.85
582.90	74.90
583.06	18.72
583.22	79.58
583.38	93.62
583.54	53.83
583.70	51.49
583.86	0.00
584.02	110.01
584.18	72.56
584.34	63.19
584.50	70.22
584.66	37.45
584.82	51.49
584.98	102.98
585.14	128.73
585.30	147.45
585.46	53.83
585.62	81.92
585.78	140.43
585.94	70.22
586.10	110.01
586.26	86.60
586.42	53.83
586.58	60.85
586.74	124.05
586.90	37.45
587.06	131.07
587.22	18.72
587.38	98.30
587.54	114.69
587.70	53.83
587.86	119.37
588.02	65.54
588.18	72.56
588.34	63.19
588.49	100.64
588.65	58.51
588.81	105.32
588.97	0.00
589.13	145.11
589.29	46.81
589.45	39.79
589.61	77.24
589.77	35.11
589.93	81.92
590.08	53.83
590.24	32.77
590.40	49.15
590.56	70.22
590.72	79.58
590.88	98.30
591.04	93.62
591.20	56.17
591.35	67.88
591.51	110.01
591.67	30.43
591.83	39.79
591.99	114.69
592.15	84.26
592.31	93.62
592.46	39.79
592.62	0.00
592.78	9.36
592.94	70.22
593.10	39.79
593.26	138.09
593.41	95.96
593.57	16.38
593.73	114.69
593.89	110.01
594.05	88.94
594.20	56.17
594.36	30.43
594.52	53.83
594.68	39.79
594.84	18.72
594.99	63.19
595.15	44.47
595.31	35.11
595.47	44.47
595.62	77.24
595.78	46.81
595.94	0.00
596.10	67.88
596.25	121.71
596.41	117.03
596.57	72.56
596.73	77.24
596.88	56.17
597.04	39.79
597.20	49.15
597.36	0.00
597.51	14.04
597.67	37.45
597.83	110.01
597.99	81.92
598.14	102.98
598.30	56.17
598.46	112.35
598.61	88.94
598.77	30.43
598.93	30.43
599.09	95.96
599.24	51.49
599.40	175.54
599.56	9.36
599.71	60.85
599.87	128.73
600.03	9.36
600.18	95.96
600.34	60.85
600.50	58.51
600.65	105.32
600.81	14.04
600.97	79.58
601.12	100.64
601.28	65.54
601.44	105.32
601.59	63.19
601.75	0.00
601.91	95.96
602.06	98.30
602.22	93.62
602.37	131.07
602.53	70.22
602.69	0.00
602.84	74.90
603.00	56.17
603.16	159.16
603.31	74.90
603.47	131.07
603.62	114.69
603.78	91.28
603.94	105.32
604.09	4.68
604.25	107.66
604.40	86.60
604.56	63.19
604.71	16.38
604.87	79.58
605.03	121.71
605.18	51.49
605.34	159.16
605.49	44.47
605.65	74.90
605.80	124.05
605.96	25.75
606.12	79.58
606.27	91.28
606.43	28.09
606.58	70.22
606.74	107.66
606.89	77.24
607.05	56.17
607.20	149.79
607.36	86.60
607.51	0.00
607.67	77.24
607.82	114.69
607.98	79.58
608.13	37.45
608.29	7.02
608.44	81.92
608.60	105.32
608.75	128.73
608.91	147.45
609.06	138.09
609.22	142.77
609.37	88.94
609.53	112.35
609.68	114.69
609.84	140.43
609.99	39.79
610.15	49.15
610.30	30.43
610.46	46.81
610.61	0.00
610.76	86.60
610.92	65.54
611.07	51.49
611.23	79.58
611.38	67.88
611.54	46.81
611.69	74.90
611.84	79.58
612.00	65.54
612.15	51.49
612.31	67.88
612.46	84.26
612.62	74.90
612.77	42.13
612.92	44.47
613.08	9.36
613.23	79.58
613.39	35.11
613.54	56.17
613.69	145.11
613.85	60.85
614.00	121.71
614.15	9.36
614.31	86.60
614.46	58.51
614.62	60.85
614.77	72.56
614.92	65.54
615.08	14.04
615.23	0.00
615.38	79.58
615.54	53.83
615.69	0.00
615.84	72.56
616.00	25.75
616.15	70.22
616.30	35.11
616.46	74.90
616.61	105.32
616.76	53.83
616.92	60.85
617.07	16.38
617.22	93.62
617.37	44.47
617.53	56.17
617.68	79.58
617.83	51.49
617.99	81.92
618.14	65.54
618.29	63.19
618.45	11.70
618.60	147.45
618.75	42.13
618.90	135.75
619.06	49.15
619.21	107.66
619.36	56.17
619.51	77.24
619.67	140.43
619.82	32.77
619.97	35.11
620.12	0.00
620.28	98.30
620.43	67.88
620.58	74.90
620.73	60.85
620.89	32.77
621.04	28.09
621.19	0.00
621.34	56.17
621.49	53.83
621.65	60.85
621.80	46.81
621.95	67.88
622.10	88.94
622.25	42.13
622.41	60.85
622.56	53.83
622.71	95.96
622.86	0.00
623.01	77.24
623.16	28.09
623.32	77.24
623.47	21.06
623.62	23.41
623.77	44.47
623.92	135.75
624.07	42.13
624.23	93.62
624.38	95.96
624.53	35.11
624.68	51.49
624.83	58.51
624.98	93.62
625.13	18.72
625.29	86.60
625.44	0.00
625.59	79.58
625.74	51.49
625.89	86.60
626.04	7.02
626.19	107.66
626.34	44.47
626.49	112.35
626.65	112.35
626.80	51.49
626.95	51.49
627.10	37.45
627.25	67.88
627.40	74.90
627.55	65.54
627.70	56.17
627.85	0.00
628.00	170.86
628.15	32.77
628.30	37.45
628.45	44.47
628.60	91.28
628.76	147.45
628.91	63.19
629.06	0.00
629.21	56.17
629.36	16.38
629.51	39.79
629.66	88.94
629.81	79.58
629.96	70.22
630.11	11.70
630.26	98.30
630.41	9.36
630.56	32.77
630.71	56.17
630.86	93.62
631.01	35.11
631.16	35.11
631.31	65.54
631.46	86.60
631.61	117.03
631.76	77.24
631.91	65.54
632.06	105.32
632.21	0.00
632.36	95.96
632.51	72.56
632.66	93.62
632.81	7.02
632.96	58.51
633.10	53.83
633.25	51.49
633.40	49.15
633.55	121.71
633.70	133.41
633.85	56.17
634.00	32.77
634.15	42.13
634.30	119.37
634.45	60.85
634.60	67.88
634.75	0.00
634.90	56.17
635.05	51.49
635.19	98.30
635.34	84.26
635.49	0.00
635.64	114.69
635.79	79.58
635.94	86.60
636.09	21.06
636.24	35.11
636.39	128.73
636.53	21.06
636.68	49.15
636.83	86.60
636.98	39.79
637.13	46.81
637.28	58.51
637.43	63.19
637.57	91.28
637.72	25.75
637.87	77.24
638.02	23.41
638.17	84.26
638.32	72.56
638.46	25.75
638.61	60.85
638.76	133.41
638.91	51.49
639.06	77.24
639.20	51.49
639.35	46.81
639.50	107.66
639.65	46.81
639.80	11.70
639.94	56.17
640.09	77.24
640.24	74.90
640.39	42.13
640.54	0.00
640.68	28.09
640.83	23.41
640.98	56.17
641.13	58.51
641.27	4.68
641.42	51.49
641.57	39.79
641.72	100.64
641.86	25.75
642.01	7.02
642.16	112.35
642.31	79.58
642.45	35.11
642.60	140.43
642.75	124.05
642.90	67.88
643.04	42.13
643.19	65.54
643.34	0.00
643.48	65.54
643.63	0.00
643.78	56.17
643.93	100.64
644.07	30.43
644.22	91.28
644.37	79.58
644.51	65.54
644.66	28.09
644.81	28.09
644.95	74.90
645.10	65.54
645.25	63.19
645.39	32.77
645.54	98.30
645.69	79.58
645.83	88.94
645.98	37.45
646.13	119.37
646.27	28.09
646.42	39.79
646.57	72.56
646.71	44.47
646.86	86.60
647.00	18.72
647.15	58.51
647.30	77.24
647.44	25.75
647.59	114.69
647.74	102.98
647.88	32.77
648.03	35.11
648.17	67.88
648.32	72.56
648.47	100.64
648.61	58.51
648.76	56.17
648.90	18.72
649.05	74.90
649.20	49.15
649.34	18.72
649.49	63.19
649.63	60.85
649.78	79.58
649.92	21.06
650.07	51.49
650.21	53.83
650.36	53.83
650.51	30.43
650.65	32.77
650.80	0.00
650.94	72.56
651.09	70.22
651.23	60.85
651.38	4.68
651.52	0.00
651.67	44.47
651.81	49.15
651.96	30.43
652.10	107.66
652.25	14.04
652.39	60.85
652.54	60.85
652.68	32.77
652.83	84.26
652.97	121.71
653.12	32.77
653.26	74.90
653.41	0.00
653.55	107.66
653.70	56.17
653.84	39.79
653.99	49.15
654.13	0.00
654.27	46.81
654.42	28.09
654.56	95.96
654.71	138.09
654.85	0.00
655.00	46.81
655.14	79.58
655.29	35.11
655.43	49.15
655.57	67.88
655.72	0.00
655.86	0.00
656.01	11.70
656.15	0.00
656.30	91.28
656.44	49.15
656.58	65.54
656.73	77.24
656.87	53.83
657.01	84.26
657.16	0.00
657.30	110.01
657.45	28.09
657.59	51.49
657.73	37.45
657.88	0.00
658.02	37.45
658.16	63.19
658.31	28.09
658.45	51.49
658.60	79.58
658.74	30.43
658.88	147.45
659.03	117.03
659.17	65.54
659.31	35.11
659.46	23.41
659.60	42.13
659.74	35.11
659.89	63.19
660.03	63.19
660.17	107.66
660.32	81.92
660.46	16.38
660.60	23.41
660.74	30.43
660.89	37.45
661.03	0.00
661.17	53.83
661.32	67.88
661.46	63.19
661.60	77.24
661.74	21.06
661.89	149.79
662.03	70.22
662.17	100.64
662.31	32.77
662.46	63.19
662.60	72.56
662.74	0.00
662.88	60.85
663.03	39.79
663.17	0.00
663.31	93.62
663.45	88.94
663.60	93.62
663.74	28.09
663.88	0.00
664.02	0.00
664.17	102.98
664.31	70.22
664.45	58.51
664.59	46.81
664.73	56.17
664.88	63.19
665.02	23.41
665.16	77.24
665.30	51.49
665.44	126.39
665.59	4.68
665.73	56.17
665.87	77.24
666.01	131.07
666.15	58.51
666.29	0.00
666.44	32.77
666.58	79.58
666.72	0.00
666.86	35.11
667.00	42.13
667.14	67.88
667.28	135.75
667.43	51.49
667.57	49.15
667.71	60.85
667.85	65.54
667.99	18.72
668.13	39.79
668.27	58.51
668.41	56.17
668.56	0.00
668.70	93.62
668.84	18.72
668.98	11.70
669.12	28.09
669.26	46.81
669.40	35.11
669.54	37.45
669.68	0.00
669.82	126.39
669.96	58.51
670.10	58.51
670.25	25.75
670.39	72.56
670.53	9.36
670.67	105.32
670.81	11.70
670.95	0.00
671.09	65.54
671.23	46.81
671.37	25.75
671.51	4.68
671.65	39.79
671.79	56.17
671.93	21.06
672.07	72.56
672.21	60.85
672.35	46.81
672.49	0.00
672.63	88.94
672.77	86.60
672.91	21.06
673.05	93.62
673.19	0.00
673.33	81.92
673.47	79.58
673.61	74.90
673.75	60.85
673.89	44.47
674.03	35.11
674.17	79.58
674.31	124.05
674.45	0.00
674.59	58.51
674.73	0.00
674.87	67.88
675.01	25.75
675.15	25.75
675.29	14.04
675.43	110.01
675.56	53.83
675.70	4.68
675.84	98.30
675.98	93.62
676.12	25.75
676.26	81.92
676.40	46.81
676.54	49.15
676.68	42.13
676.82	72.56
676.96	30.43
677.10	32.77
677.23	56.17
677.37	7.02
677.51	107.66
677.65	56.17
677.79	37.45
677.93	74.90
678.07	32.77
678.21	25.75
678.34	95.96
678.48	98.30
678.62	53.83
678.76	42.13
678.90	65.54
679.04	56.17
679.18	56.17
679.31	9.36
679.45	60.85
679.59	11.70
679.73	102.98
679.87	65.54
680.00	42.13
680.14	0.00
680.28	0.00
680.42	60.85
680.56	102.98
680.70	56.17
680.83	25.75
680.97	9.36
681.11	65.54
681.25	74.90
681.39	107.66
681.52	63.19
681.66	46.81
681.80	0.00
681.94	23.41
682.07	53.83
682.21	51.49
682.35	56.17
682.49	14.04
682.62	2.34
682.76	0.00
682.90	49.15
683.04	51.49
683.17	65.54
683.31	35.11
683.45	77.24
683.59	152.13
683.72	42.13
683.86	74.90
684.00	0.00
684.13	44.47
684.27	49.15
684.41	49.15
684.55	44.47
684.68	11.70
684.82	11.70
684.96	4.68
685.09	9.36
685.23	44.47
685.37	16.38
685.50	2.34
685.64	95.96
685.78	79.58
685.91	9.36
686.05	60.85
686.19	0.00
686.32	37.45
686.46	58.51
686.60	21.06
686.73	51.49
686.87	49.15
687.01	56.17
687.14	32.77
687.28	23.41
687.42	67.88
687.55	21.06
687.69	14.04
687.82	79.58
687.96	44.47
688.10	65.54
688.23	37.45
688.37	14.04
688.50	37.45
688.64	44.47
688.78	44.47
688.91	30.43
689.05	51.49
689.18	0.00
689.32	77.24
689.46	23.41
689.59	0.00
689.73	81.92
689.86	56.17
690.00	37.45
690.13	0.00
690.27	16.38
690.41	37.45
690.54	44.47
690.68	21.06
690.81	51.49
690.95	35.11
691.08	28.09
691.22	46.81
691.35	11.70
691.49	70.22
691.62	91.28
691.76	63.19
691.89	44.47
692.03	32.77
692.16	9.36
692.30	25.75
692.43	32.77
692.57	25.75
692.70	4.68
692.84	0.00
692.97	23.41
693.11	49.15
693.24	9.36
693.38	9.36
693.51	42.13
693.65	0.00
693.78	35.11
693.92	56.17
694.05	18.72
694.19	0.00
694.32	49.15
694.45	72.56
694.59	0.00
694.72	0.00
694.86	16.38
694.99	28.09
695.13	67.88
695.26	63.19
695.39	25.75
695.53	46.81
695.66	32.77
695.80	56.17
695.93	37.45
696.07	30.43
696.20	0.00
696.33	56.17
696.47	0.00
696.60	39.79
696.73	60.85
696.87	0.00
697.00	32.77
697.14	53.83
697.27	23.41
697.40	30.43
697.54	105.32
697.67	56.17
697.80	18.72
697.94	21.06
698.07	0.00
698.21	0.00
698.34	28.09
698.47	28.09
698.61	0.00
698.74	0.00
698.87	11.70
699.01	39.79
699.14	30.43
699.27	25.75
699.40	67.88
699.54	65.54
699.67	39.79
699.80	105.32
699.94	88.94
700.07	0.00
700.20	72.56
700.34	0.00
700.47	32.77
700.60	84.26
700.73	121.71
700.87	58.51
701.00	49.15
701.13	16.38
701.26	0.00
701.40	46.81
701.53	18.72
701.66	30.43
701.79	88.94
701.93	18.72
702.06	25.75
702.19	7.02
702.32	25.75
702.46	32.77
702.59	63.19
702.72	0.00
702.85	60.85
702.99	4.68
703.12	14.04
703.25	11.70
703.38	77.24
703.51	14.04
703.65	18.72
703.78	65.54
703.91	49.15
704.04	102.98
704.17	74.90
704.31	14.04
704.44	37.45
704.57	35.11
704.70	23.41
704.83	70.22
704.96	58.51
705.10	72.56
705.23	44.47
>>>>>End Processed Spectral Data<<<<<
