SpectraSuite Data File
++++++++++++++++++++++++++++++++++++
Date: Fri Oct 04 12:13:34 GMT-05:00 2013
User: price-jones
Dark Spectrum Present: No
Reference Spectrum Present: No
Number of Sampled Component Spectra: 1
Spectrometers: USB2+H05261
Integration Time (usec): 10000 (USB2+H05261)
Spectra Averaged: 1 (USB2+H05261)
Boxcar Smoothing: 0 (USB2+H05261)
Correct for Electrical Dark: No (USB2+H05261)
Strobe/Lamp Enabled: No (USB2+H05261)
Correct for Detector Non-linearity: No (USB2+H05261)
Correct for Stray Light: No (USB2+H05261)
Number of Pixels in Processed Spectrum: 2048
>>>>>Begin Processed Spectral Data<<<<<
365.73	0.00
365.92	0.00
366.12	0.00
366.32	0.00
366.52	0.00
366.72	0.00
366.91	0.00
367.11	0.00
367.31	0.00
367.51	0.00
367.70	0.00
367.90	0.00
368.10	0.00
368.30	0.00
368.49	0.00
368.69	0.00
368.89	0.00
369.09	0.00
369.28	0.00
369.48	0.00
369.68	0.00
369.87	0.00
370.07	0.00
370.27	0.00
370.47	0.00
370.66	0.00
370.86	0.00
371.06	0.00
371.25	0.00
371.45	0.00
371.65	0.00
371.84	0.00
372.04	16.38
372.24	16.38
372.44	56.17
372.63	35.11
372.83	30.43
373.03	35.11
373.22	14.04
373.42	63.19
373.62	0.00
373.81	11.70
374.01	7.02
374.21	60.85
374.40	0.00
374.60	46.81
374.79	39.79
374.99	37.45
375.19	2.34
375.38	84.26
375.58	32.77
375.78	23.41
375.97	35.11
376.17	35.11
376.37	37.45
376.56	0.00
376.76	42.13
376.95	0.00
377.15	35.11
377.35	72.56
377.54	53.83
377.74	46.81
377.93	49.15
378.13	98.30
378.33	70.22
378.52	60.85
378.72	7.02
378.91	42.13
379.11	0.00
379.31	0.00
379.50	25.75
379.70	39.79
379.89	0.00
380.09	0.00
380.28	0.00
380.48	0.00
380.68	16.38
380.87	0.00
381.07	32.77
381.26	0.00
381.46	58.51
381.65	0.00
381.85	7.02
382.04	32.77
382.24	9.36
382.43	65.54
382.63	7.02
382.83	72.56
383.02	0.00
383.22	93.62
383.41	44.47
383.61	53.83
383.80	86.60
384.00	28.09
384.19	9.36
384.39	9.36
384.58	0.00
384.78	28.09
384.97	28.09
385.17	51.49
385.36	44.47
385.56	18.72
385.75	67.88
385.95	0.00
386.14	56.17
386.34	0.00
386.53	16.38
386.72	7.02
386.92	39.79
387.11	4.68
387.31	28.09
387.50	7.02
387.70	51.49
387.89	25.75
388.09	0.00
388.28	53.83
388.48	84.26
388.67	25.75
388.86	11.70
389.06	37.45
389.25	91.28
389.45	67.88
389.64	51.49
389.84	49.15
390.03	0.00
390.22	37.45
390.42	4.68
390.61	18.72
390.81	28.09
391.00	0.00
391.19	51.49
391.39	14.04
391.58	23.41
391.78	49.15
391.97	81.92
392.16	79.58
392.36	18.72
392.55	0.00
392.75	0.00
392.94	46.81
393.13	0.00
393.33	14.04
393.52	30.43
393.71	18.72
393.91	88.94
394.10	37.45
394.29	93.62
394.49	39.79
394.68	51.49
394.88	72.56
395.07	32.77
395.26	0.00
395.46	25.75
395.65	37.45
395.84	23.41
396.04	0.00
396.23	72.56
396.42	60.85
396.62	11.70
396.81	0.00
397.00	0.00
397.19	81.92
397.39	0.00
397.58	25.75
397.77	0.00
397.97	23.41
398.16	0.00
398.35	28.09
398.55	35.11
398.74	88.94
398.93	37.45
399.12	23.41
399.32	93.62
399.51	0.00
399.70	56.17
399.90	86.60
400.09	0.00
400.28	0.00
400.47	56.17
400.67	51.49
400.86	30.43
401.05	84.26
401.24	25.75
401.44	70.22
401.63	0.00
401.82	0.00
402.01	56.17
402.21	7.02
402.40	14.04
402.59	14.04
402.78	0.00
402.97	42.13
403.17	60.85
403.36	77.24
403.55	63.19
403.74	4.68
403.93	84.26
404.13	88.94
404.32	110.01
404.51	9.36
404.70	0.00
404.89	0.00
405.09	0.00
405.28	9.36
405.47	37.45
405.66	60.85
405.85	86.60
406.05	63.19
406.24	23.41
406.43	14.04
406.62	11.70
406.81	37.45
407.00	18.72
407.20	58.51
407.39	0.00
407.58	44.47
407.77	46.81
407.96	32.77
408.15	4.68
408.34	56.17
408.54	25.75
408.73	60.85
408.92	32.77
409.11	14.04
409.30	119.37
409.49	79.58
409.68	107.66
409.87	51.49
410.07	42.13
410.26	0.00
410.45	60.85
410.64	133.41
410.83	0.00
411.02	9.36
411.21	0.00
411.40	46.81
411.59	32.77
411.78	93.62
411.98	0.00
412.17	0.00
412.36	46.81
412.55	110.01
412.74	2.34
412.93	88.94
413.12	30.43
413.31	21.06
413.50	49.15
413.69	32.77
413.88	70.22
414.07	53.83
414.26	56.17
414.45	65.54
414.64	53.83
414.83	28.09
415.02	46.81
415.22	23.41
415.41	39.79
415.60	86.60
415.79	16.38
415.98	51.49
416.17	0.00
416.36	67.88
416.55	72.56
416.74	23.41
416.93	21.06
417.12	0.00
417.31	98.30
417.50	44.47
417.69	77.24
417.88	32.77
418.07	93.62
418.26	4.68
418.45	128.73
418.64	0.00
418.83	112.35
419.02	23.41
419.21	72.56
419.39	28.09
419.58	42.13
419.77	7.02
419.96	25.75
420.15	65.54
420.34	23.41
420.53	14.04
420.72	35.11
420.91	88.94
421.10	77.24
421.29	16.38
421.48	56.17
421.67	79.58
421.86	65.54
422.05	23.41
422.24	14.04
422.43	39.79
422.61	0.00
422.80	35.11
422.99	46.81
423.18	42.13
423.37	0.00
423.56	60.85
423.75	86.60
423.94	95.96
424.13	0.00
424.32	18.72
424.50	23.41
424.69	51.49
424.88	72.56
425.07	0.00
425.26	2.34
425.45	21.06
425.64	2.34
425.83	81.92
426.01	91.28
426.20	53.83
426.39	51.49
426.58	14.04
426.77	49.15
426.96	39.79
427.15	53.83
427.33	25.75
427.52	21.06
427.71	18.72
427.90	0.00
428.09	159.16
428.28	7.02
428.46	16.38
428.65	53.83
428.84	37.45
429.03	51.49
429.22	0.00
429.40	14.04
429.59	16.38
429.78	56.17
429.97	49.15
430.16	0.00
430.34	32.77
430.53	37.45
430.72	18.72
430.91	56.17
431.10	93.62
431.28	25.75
431.47	23.41
431.66	25.75
431.85	23.41
432.03	46.81
432.22	9.36
432.41	95.96
432.60	21.06
432.79	23.41
432.97	35.11
433.16	72.56
433.35	16.38
433.54	0.00
433.72	0.00
433.91	70.22
434.10	102.98
434.28	2.34
434.47	63.19
434.66	49.15
434.85	77.24
435.03	39.79
435.22	4.68
435.41	93.62
435.59	105.32
435.78	39.79
435.97	53.83
436.16	51.49
436.34	86.60
436.53	42.13
436.72	95.96
436.90	53.83
437.09	28.09
437.28	21.06
437.46	67.88
437.65	79.58
437.84	93.62
438.02	70.22
438.21	98.30
438.40	42.13
438.58	32.77
438.77	102.98
438.96	100.64
439.14	56.17
439.33	58.51
439.52	91.28
439.70	53.83
439.89	32.77
440.08	74.90
440.26	72.56
440.45	84.26
440.63	28.09
440.82	51.49
441.01	23.41
441.19	42.13
441.38	105.32
441.57	44.47
441.75	77.24
441.94	56.17
442.12	70.22
442.31	28.09
442.50	37.45
442.68	67.88
442.87	42.13
443.05	58.51
443.24	51.49
443.43	42.13
443.61	7.02
443.80	74.90
443.98	117.03
444.17	72.56
444.35	0.00
444.54	16.38
444.73	79.58
444.91	23.41
445.10	102.98
445.28	74.90
445.47	0.00
445.65	4.68
445.84	58.51
446.02	65.54
446.21	32.77
446.39	72.56
446.58	4.68
446.77	39.79
446.95	9.36
447.14	63.19
447.32	93.62
447.51	110.01
447.69	4.68
447.88	44.47
448.06	25.75
448.25	0.00
448.43	0.00
448.62	84.26
448.80	53.83
448.99	84.26
449.17	60.85
449.36	51.49
449.54	77.24
449.73	74.90
449.91	42.13
450.10	112.35
450.28	84.26
450.46	25.75
450.65	72.56
450.83	0.00
451.02	21.06
451.20	7.02
451.39	42.13
451.57	16.38
451.76	21.06
451.94	88.94
452.13	35.11
452.31	11.70
452.49	21.06
452.68	28.09
452.86	44.47
453.05	60.85
453.23	0.00
453.42	88.94
453.60	95.96
453.78	35.11
453.97	119.37
454.15	95.96
454.34	67.88
454.52	0.00
454.70	70.22
454.89	86.60
455.07	16.38
455.26	131.07
455.44	0.00
455.62	0.00
455.81	65.54
455.99	67.88
456.17	53.83
456.36	91.28
456.54	0.00
456.73	51.49
456.91	7.02
457.09	67.88
457.28	84.26
457.46	44.47
457.64	30.43
457.83	28.09
458.01	21.06
458.19	74.90
458.38	44.47
458.56	42.13
458.74	42.13
458.93	86.60
459.11	110.01
459.29	70.22
459.48	0.00
459.66	56.17
459.84	63.19
460.03	23.41
460.21	51.49
460.39	74.90
460.57	49.15
460.76	42.13
460.94	49.15
461.12	23.41
461.31	56.17
461.49	74.90
461.67	0.00
461.85	67.88
462.04	77.24
462.22	49.15
462.40	37.45
462.59	32.77
462.77	102.98
462.95	56.17
463.13	63.19
463.32	67.88
463.50	140.43
463.68	0.00
463.86	23.41
464.05	79.58
464.23	44.47
464.41	37.45
464.59	37.45
464.78	107.66
464.96	84.26
465.14	112.35
465.32	65.54
465.50	39.79
465.69	56.17
465.87	4.68
466.05	23.41
466.23	67.88
466.41	117.03
466.60	46.81
466.78	16.38
466.96	117.03
467.14	23.41
467.32	39.79
467.51	63.19
467.69	37.45
467.87	32.77
468.05	60.85
468.23	53.83
468.41	0.00
468.60	105.32
468.78	84.26
468.96	18.72
469.14	49.15
469.32	16.38
469.50	23.41
469.69	70.22
469.87	60.85
470.05	100.64
470.23	35.11
470.41	84.26
470.59	46.81
470.77	0.00
470.95	49.15
471.14	72.56
471.32	114.69
471.50	39.79
471.68	2.34
471.86	51.49
472.04	0.00
472.22	74.90
472.40	67.88
472.58	95.96
472.77	9.36
472.95	93.62
473.13	107.66
473.31	117.03
473.49	21.06
473.67	53.83
473.85	70.22
474.03	86.60
474.21	42.13
474.39	154.48
474.57	51.49
474.75	51.49
474.93	32.77
475.12	119.37
475.30	56.17
475.48	60.85
475.66	14.04
475.84	86.60
476.02	35.11
476.20	65.54
476.38	72.56
476.56	58.51
476.74	74.90
476.92	53.83
477.10	67.88
477.28	79.58
477.46	65.54
477.64	77.24
477.82	42.13
478.00	105.32
478.18	63.19
478.36	170.86
478.54	163.84
478.72	154.48
478.90	63.19
479.08	77.24
479.26	60.85
479.44	98.30
479.62	100.64
479.80	44.47
479.98	32.77
480.16	135.75
480.34	23.41
480.52	77.24
480.70	79.58
480.88	32.77
481.06	58.51
481.24	58.51
481.41	42.13
481.59	37.45
481.77	74.90
481.95	79.58
482.13	110.01
482.31	42.13
482.49	42.13
482.67	60.85
482.85	35.11
483.03	138.09
483.21	0.00
483.39	42.13
483.57	91.28
483.74	58.51
483.92	88.94
484.10	35.11
484.28	74.90
484.46	16.38
484.64	67.88
484.82	60.85
485.00	2.34
485.18	72.56
485.35	93.62
485.53	110.01
485.71	30.43
485.89	81.92
486.07	74.90
486.25	9.36
486.43	16.38
486.61	51.49
486.78	117.03
486.96	30.43
487.14	98.30
487.32	114.69
487.50	60.85
487.68	30.43
487.85	0.00
488.03	72.56
488.21	25.75
488.39	77.24
488.57	81.92
488.75	0.00
488.92	42.13
489.10	110.01
489.28	98.30
489.46	79.58
489.64	32.77
489.81	110.01
489.99	53.83
490.17	56.17
490.35	95.96
490.53	138.09
490.70	79.58
490.88	35.11
491.06	67.88
491.24	102.98
491.41	32.77
491.59	53.83
491.77	79.58
491.95	0.00
492.13	67.88
492.30	81.92
492.48	77.24
492.66	0.00
492.84	63.19
493.01	84.26
493.19	98.30
493.37	147.45
493.54	44.47
493.72	28.09
493.90	44.47
494.08	9.36
494.25	39.79
494.43	44.47
494.61	67.88
494.79	126.39
494.96	81.92
495.14	107.66
495.32	60.85
495.49	100.64
495.67	105.32
495.85	91.28
496.02	30.43
496.20	67.88
496.38	86.60
496.55	117.03
496.73	16.38
496.91	88.94
497.09	56.17
497.26	88.94
497.44	117.03
497.62	102.98
497.79	56.17
497.97	0.00
498.14	51.49
498.32	107.66
498.50	98.30
498.67	9.36
498.85	53.83
499.03	39.79
499.20	14.04
499.38	86.60
499.56	30.43
499.73	107.66
499.91	126.39
500.08	149.79
500.26	2.34
500.44	0.00
500.61	53.83
500.79	65.54
500.97	91.28
501.14	63.19
501.32	30.43
501.49	88.94
501.67	117.03
501.84	138.09
502.02	23.41
502.20	117.03
502.37	88.94
502.55	98.30
502.72	58.51
502.90	70.22
503.07	53.83
503.25	117.03
503.43	51.49
503.60	86.60
503.78	98.30
503.95	95.96
504.13	42.13
504.30	77.24
504.48	84.26
504.65	86.60
504.83	74.90
505.01	74.90
505.18	81.92
505.36	46.81
505.53	72.56
505.71	32.77
505.88	11.70
506.06	98.30
506.23	53.83
506.41	70.22
506.58	98.30
506.76	46.81
506.93	110.01
507.11	72.56
507.28	32.77
507.46	91.28
507.63	112.35
507.81	65.54
507.98	74.90
508.16	163.84
508.33	28.09
508.50	133.41
508.68	95.96
508.85	25.75
509.03	112.35
509.20	91.28
509.38	147.45
509.55	117.03
509.73	121.71
509.90	67.88
510.08	163.84
510.25	70.22
510.42	70.22
510.60	65.54
510.77	154.48
510.95	84.26
511.12	119.37
511.30	93.62
511.47	133.41
511.64	102.98
511.82	117.03
511.99	88.94
512.17	60.85
512.34	145.11
512.51	107.66
512.69	107.66
512.86	25.75
513.04	102.98
513.21	44.47
513.38	30.43
513.56	49.15
513.73	91.28
513.90	91.28
514.08	72.56
514.25	102.98
514.43	35.11
514.60	70.22
514.77	51.49
514.95	49.15
515.12	39.79
515.29	63.19
515.47	88.94
515.64	102.98
515.81	84.26
515.99	65.54
516.16	105.32
516.33	102.98
516.51	65.54
516.68	23.41
516.85	51.49
517.03	65.54
517.20	9.36
517.37	77.24
517.54	105.32
517.72	105.32
517.89	121.71
518.06	14.04
518.24	74.90
518.41	30.43
518.58	161.50
518.75	114.69
518.93	56.17
519.10	65.54
519.27	46.81
519.45	77.24
519.62	42.13
519.79	72.56
519.96	72.56
520.14	25.75
520.31	88.94
520.48	79.58
520.65	105.32
520.83	100.64
521.00	128.73
521.17	49.15
521.34	95.96
521.52	138.09
521.69	126.39
521.86	121.71
522.03	95.96
522.20	67.88
522.38	126.39
522.55	119.37
522.72	60.85
522.89	81.92
523.07	70.22
523.24	98.30
523.41	49.15
523.58	100.64
523.75	126.39
523.92	51.49
524.10	102.98
524.27	110.01
524.44	74.90
524.61	126.39
524.78	32.77
524.96	77.24
525.13	49.15
525.30	70.22
525.47	102.98
525.64	145.11
525.81	63.19
525.98	53.83
526.16	79.58
526.33	60.85
526.50	95.96
526.67	86.60
526.84	147.45
527.01	72.56
527.18	100.64
527.36	102.98
527.53	124.05
527.70	95.96
527.87	102.98
528.04	35.11
528.21	105.32
528.38	51.49
528.55	2.34
528.72	191.92
528.89	112.35
529.07	77.24
529.24	98.30
529.41	44.47
529.58	105.32
529.75	74.90
529.92	67.88
530.09	105.32
530.26	49.15
530.43	65.54
530.60	35.11
530.77	81.92
530.94	98.30
531.11	49.15
531.28	39.79
531.46	102.98
531.63	191.92
531.80	114.69
531.97	67.88
532.14	65.54
532.31	46.81
532.48	46.81
532.65	7.02
532.82	131.07
532.99	124.05
533.16	51.49
533.33	114.69
533.50	152.13
533.67	110.01
533.84	86.60
534.01	145.11
534.18	119.37
534.35	88.94
534.52	100.64
534.69	93.62
534.86	124.05
535.03	91.28
535.20	119.37
535.37	107.66
535.54	124.05
535.71	142.77
535.88	56.17
536.05	77.24
536.22	79.58
536.38	51.49
536.55	131.07
536.72	98.30
536.89	117.03
537.06	114.69
537.23	72.56
537.40	70.22
537.57	77.24
537.74	88.94
537.91	84.26
538.08	147.45
538.25	128.73
538.42	102.98
538.59	133.41
538.75	131.07
538.92	140.43
539.09	0.00
539.26	74.90
539.43	107.66
539.60	117.03
539.77	91.28
539.94	37.45
540.11	56.17
540.28	77.24
540.44	152.13
540.61	95.96
540.78	77.24
540.95	86.60
541.12	81.92
541.29	117.03
541.46	117.03
541.62	81.92
541.79	117.03
541.96	58.51
542.13	121.71
542.30	128.73
542.47	79.58
542.63	88.94
542.80	119.37
542.97	60.85
543.14	25.75
543.31	51.49
543.48	67.88
543.64	110.01
543.81	81.92
543.98	65.54
544.15	102.98
544.32	147.45
544.48	60.85
544.65	21.06
544.82	84.26
544.99	81.92
545.16	63.19
545.32	46.81
545.49	152.13
545.66	7.02
545.83	124.05
546.00	163.84
546.16	53.83
546.33	93.62
546.50	60.85
546.67	95.96
546.83	84.26
547.00	107.66
547.17	98.30
547.34	58.51
547.50	112.35
547.67	67.88
547.84	0.00
548.00	46.81
548.17	91.28
548.34	42.13
548.51	9.36
548.67	49.15
548.84	72.56
549.01	131.07
549.18	14.04
549.34	65.54
549.51	98.30
549.68	128.73
549.84	138.09
550.01	65.54
550.18	81.92
550.34	25.75
550.51	37.45
550.68	60.85
550.84	154.48
551.01	119.37
551.18	91.28
551.34	173.20
551.51	44.47
551.68	46.81
551.84	70.22
552.01	51.49
552.18	60.85
552.34	58.51
552.51	53.83
552.68	63.19
552.84	124.05
553.01	58.51
553.18	86.60
553.34	126.39
553.51	159.16
553.67	95.96
553.84	0.00
554.01	65.54
554.17	67.88
554.34	98.30
554.51	133.41
554.67	86.60
554.84	67.88
555.00	58.51
555.17	105.32
555.33	128.73
555.50	49.15
555.67	21.06
555.83	102.98
556.00	95.96
556.16	91.28
556.33	135.75
556.50	72.56
556.66	70.22
556.83	147.45
556.99	77.24
557.16	100.64
557.32	16.38
557.49	105.32
557.65	65.54
557.82	14.04
557.98	79.58
558.15	70.22
558.32	65.54
558.48	110.01
558.65	77.24
558.81	128.73
558.98	42.13
559.14	49.15
559.31	39.79
559.47	25.75
559.64	72.56
559.80	32.77
559.97	77.24
560.13	56.17
560.30	46.81
560.46	77.24
560.63	163.84
560.79	88.94
560.96	49.15
561.12	81.92
561.29	39.79
561.45	121.71
561.61	138.09
561.78	105.32
561.94	124.05
562.11	60.85
562.27	39.79
562.44	60.85
562.60	84.26
562.77	152.13
562.93	53.83
563.10	114.69
563.26	145.11
563.42	51.49
563.59	126.39
563.75	60.85
563.92	105.32
564.08	88.94
564.24	114.69
564.41	67.88
564.57	105.32
564.74	44.47
564.90	133.41
565.07	49.15
565.23	93.62
565.39	46.81
565.56	28.09
565.72	84.26
565.88	49.15
566.05	70.22
566.21	107.66
566.38	95.96
566.54	114.69
566.70	67.88
566.87	35.11
567.03	133.41
567.19	177.88
567.36	65.54
567.52	58.51
567.68	58.51
567.85	98.30
568.01	70.22
568.17	105.32
568.34	65.54
568.50	60.85
568.66	4.68
568.83	121.71
568.99	114.69
569.15	58.51
569.32	74.90
569.48	102.98
569.64	117.03
569.81	84.26
569.97	84.26
570.13	63.19
570.30	58.51
570.46	121.71
570.62	112.35
570.78	25.75
570.95	81.92
571.11	98.30
571.27	156.82
571.43	114.69
571.60	79.58
571.76	84.26
571.92	46.81
572.09	72.56
572.25	79.58
572.41	95.96
572.57	114.69
572.74	105.32
572.90	93.62
573.06	30.43
573.22	72.56
573.38	126.39
573.55	110.01
573.71	112.35
573.87	126.39
574.03	77.24
574.20	37.45
574.36	30.43
574.52	95.96
574.68	74.90
574.84	124.05
575.01	77.24
575.17	119.37
575.33	72.56
575.49	0.00
575.65	74.90
575.82	67.88
575.98	102.98
576.14	70.22
576.30	46.81
576.46	11.70
576.62	56.17
576.79	53.83
576.95	60.85
577.11	32.77
577.27	7.02
577.43	67.88
577.59	84.26
577.75	128.73
577.92	67.88
578.08	60.85
578.24	39.79
578.40	35.11
578.56	2.34
578.72	65.54
578.88	91.28
579.04	39.79
579.21	65.54
579.37	67.88
579.53	124.05
579.69	72.56
579.85	25.75
580.01	88.94
580.17	91.28
580.33	74.90
580.49	46.81
580.65	91.28
580.82	84.26
580.98	79.58
581.14	65.54
581.30	124.05
581.46	35.11
581.62	53.83
581.78	65.54
581.94	37.45
582.10	88.94
582.26	0.00
582.42	65.54
582.58	11.70
582.74	95.96
582.90	117.03
583.06	121.71
583.22	107.66
583.38	67.88
583.54	140.43
583.70	93.62
583.86	93.62
584.02	0.00
584.18	46.81
584.34	72.56
584.50	100.64
584.66	114.69
584.82	60.85
584.98	60.85
585.14	53.83
585.30	131.07
585.46	114.69
585.62	100.64
585.78	102.98
585.94	79.58
586.10	16.38
586.26	44.47
586.42	147.45
586.58	93.62
586.74	86.60
586.90	107.66
587.06	35.11
587.22	18.72
587.38	107.66
587.54	86.60
587.70	32.77
587.86	72.56
588.02	98.30
588.18	0.00
588.34	35.11
588.49	60.85
588.65	44.47
588.81	51.49
588.97	11.70
589.13	81.92
589.29	30.43
589.45	100.64
589.61	37.45
589.77	79.58
589.93	0.00
590.08	65.54
590.24	79.58
590.40	67.88
590.56	88.94
590.72	49.15
590.88	77.24
591.04	0.00
591.20	37.45
591.35	79.58
591.51	49.15
591.67	0.00
591.83	72.56
591.99	100.64
592.15	42.13
592.31	98.30
592.46	74.90
592.62	37.45
592.78	39.79
592.94	117.03
593.10	74.90
593.26	88.94
593.41	30.43
593.57	28.09
593.73	84.26
593.89	30.43
594.05	28.09
594.20	79.58
594.36	35.11
594.52	56.17
594.68	77.24
594.84	21.06
594.99	35.11
595.15	42.13
595.31	58.51
595.47	67.88
595.62	49.15
595.78	23.41
595.94	86.60
596.10	0.00
596.25	77.24
596.41	63.19
596.57	44.47
596.73	70.22
596.88	117.03
597.04	46.81
597.20	84.26
597.36	86.60
597.51	102.98
597.67	77.24
597.83	70.22
597.99	32.77
598.14	60.85
598.30	74.90
598.46	23.41
598.61	23.41
598.77	65.54
598.93	35.11
599.09	67.88
599.24	91.28
599.40	56.17
599.56	42.13
599.71	32.77
599.87	58.51
600.03	58.51
600.18	28.09
600.34	95.96
600.50	28.09
600.65	138.09
600.81	72.56
600.97	81.92
601.12	70.22
601.28	11.70
601.44	2.34
601.59	49.15
601.75	114.69
601.91	37.45
602.06	91.28
602.22	102.98
602.37	128.73
602.53	72.56
602.69	124.05
602.84	114.69
603.00	65.54
603.16	138.09
603.31	72.56
603.47	67.88
603.62	28.09
603.78	65.54
603.94	51.49
604.09	65.54
604.25	0.00
604.40	46.81
604.56	114.69
604.71	44.47
604.87	44.47
605.03	74.90
605.18	32.77
605.34	49.15
605.49	70.22
605.65	21.06
605.80	95.96
605.96	63.19
606.12	39.79
606.27	53.83
606.43	142.77
606.58	14.04
606.74	42.13
606.89	110.01
607.05	32.77
607.20	49.15
607.36	30.43
607.51	30.43
607.67	35.11
607.82	0.00
607.98	0.00
608.13	28.09
608.29	107.66
608.44	42.13
608.60	51.49
608.75	102.98
608.91	93.62
609.06	72.56
609.22	135.75
609.37	39.79
609.53	93.62
609.68	30.43
609.84	9.36
609.99	65.54
610.15	44.47
610.30	95.96
610.46	93.62
610.61	70.22
610.76	44.47
610.92	35.11
611.07	65.54
611.23	35.11
611.38	58.51
611.54	121.71
611.69	102.98
611.84	86.60
612.00	114.69
612.15	7.02
612.31	11.70
612.46	98.30
612.62	28.09
612.77	100.64
612.92	7.02
613.08	67.88
613.23	23.41
613.39	95.96
613.54	32.77
613.69	84.26
613.85	88.94
614.00	131.07
614.15	56.17
614.31	79.58
614.46	46.81
614.62	4.68
614.77	63.19
614.92	88.94
615.08	58.51
615.23	77.24
615.38	42.13
615.54	107.66
615.69	70.22
615.84	39.79
616.00	30.43
616.15	88.94
616.30	0.00
616.46	28.09
616.61	4.68
616.76	86.60
616.92	51.49
617.07	63.19
617.22	93.62
617.37	74.90
617.53	135.75
617.68	110.01
617.83	65.54
617.99	0.00
618.14	23.41
618.29	95.96
618.45	11.70
618.60	147.45
618.75	46.81
618.90	49.15
619.06	84.26
619.21	117.03
619.36	95.96
619.51	0.00
619.67	46.81
619.82	72.56
619.97	70.22
620.12	84.26
620.28	39.79
620.43	42.13
620.58	35.11
620.73	25.75
620.89	112.35
621.04	11.70
621.19	25.75
621.34	30.43
621.49	117.03
621.65	84.26
621.80	100.64
621.95	14.04
622.10	32.77
622.25	51.49
622.41	81.92
622.56	0.00
622.71	0.00
622.86	63.19
623.01	0.00
623.16	0.00
623.32	0.00
623.47	91.28
623.62	77.24
623.77	32.77
623.92	112.35
624.07	163.84
624.23	74.90
624.38	16.38
624.53	107.66
624.68	79.58
624.83	102.98
624.98	88.94
625.13	25.75
625.29	30.43
625.44	9.36
625.59	119.37
625.74	23.41
625.89	147.45
626.04	53.83
626.19	23.41
626.34	49.15
626.49	67.88
626.65	63.19
626.80	9.36
626.95	72.56
627.10	65.54
627.25	98.30
627.40	14.04
627.55	93.62
627.70	93.62
627.85	77.24
628.00	30.43
628.15	0.00
628.30	0.00
628.45	0.00
628.60	124.05
628.76	16.38
628.91	21.06
629.06	84.26
629.21	98.30
629.36	86.60
629.51	63.19
629.66	114.69
629.81	9.36
629.96	23.41
630.11	93.62
630.26	35.11
630.41	14.04
630.56	25.75
630.71	44.47
630.86	25.75
631.01	84.26
631.16	110.01
631.31	37.45
631.46	110.01
631.61	11.70
631.76	77.24
631.91	93.62
632.06	56.17
632.21	0.00
632.36	70.22
632.51	51.49
632.66	9.36
632.81	7.02
632.96	35.11
633.10	42.13
633.25	42.13
633.40	110.01
633.55	46.81
633.70	72.56
633.85	39.79
634.00	72.56
634.15	53.83
634.30	37.45
634.45	79.58
634.60	30.43
634.75	56.17
634.90	112.35
635.05	42.13
635.19	79.58
635.34	0.00
635.49	0.00
635.64	21.06
635.79	2.34
635.94	70.22
636.09	0.00
636.24	72.56
636.39	0.00
636.53	84.26
636.68	63.19
636.83	86.60
636.98	37.45
637.13	81.92
637.28	44.47
637.43	79.58
637.57	44.47
637.72	110.01
637.87	126.39
638.02	4.68
638.17	53.83
638.32	72.56
638.46	18.72
638.61	42.13
638.76	32.77
638.91	126.39
639.06	100.64
639.20	81.92
639.35	140.43
639.50	72.56
639.65	30.43
639.80	79.58
639.94	53.83
640.09	91.28
640.24	107.66
640.39	112.35
640.54	84.26
640.68	37.45
640.83	112.35
640.98	112.35
641.13	72.56
641.27	16.38
641.42	107.66
641.57	91.28
641.72	98.30
641.86	147.45
642.01	107.66
642.16	14.04
642.31	11.70
642.45	37.45
642.60	42.13
642.75	23.41
642.90	105.32
643.04	21.06
643.19	9.36
643.34	65.54
643.48	25.75
643.63	39.79
643.78	7.02
643.93	28.09
644.07	72.56
644.22	21.06
644.37	95.96
644.51	42.13
644.66	81.92
644.81	0.00
644.95	0.00
645.10	9.36
645.25	70.22
645.39	98.30
645.54	102.98
645.69	39.79
645.83	114.69
645.98	145.11
646.13	14.04
646.27	37.45
646.42	0.00
646.57	74.90
646.71	53.83
646.86	42.13
647.00	79.58
647.15	28.09
647.30	25.75
647.44	65.54
647.59	72.56
647.74	16.38
647.88	21.06
648.03	35.11
648.17	72.56
648.32	60.85
648.47	44.47
648.61	100.64
648.76	91.28
648.90	79.58
649.05	114.69
649.20	28.09
649.34	39.79
649.49	91.28
649.63	131.07
649.78	35.11
649.92	18.72
650.07	53.83
650.21	70.22
650.36	93.62
650.51	51.49
650.65	25.75
650.80	93.62
650.94	51.49
651.09	32.77
651.23	86.60
651.38	14.04
651.52	81.92
651.67	86.60
651.81	100.64
651.96	63.19
652.10	100.64
652.25	88.94
652.39	86.60
652.54	58.51
652.68	35.11
652.83	16.38
652.97	105.32
653.12	51.49
653.26	30.43
653.41	0.00
653.55	100.64
653.70	0.00
653.84	65.54
653.99	0.00
654.13	18.72
654.27	56.17
654.42	91.28
654.56	4.68
654.71	14.04
654.85	18.72
655.00	21.06
655.14	39.79
655.29	35.11
655.43	9.36
655.57	0.00
655.72	46.81
655.86	58.51
656.01	117.03
656.15	88.94
656.30	16.38
656.44	0.00
656.58	58.51
656.73	65.54
656.87	63.19
657.01	37.45
657.16	4.68
657.30	114.69
657.45	37.45
657.59	28.09
657.73	63.19
657.88	58.51
658.02	112.35
658.16	159.16
658.31	67.88
658.45	112.35
658.60	16.38
658.74	79.58
658.88	77.24
659.03	14.04
659.17	63.19
659.31	21.06
659.46	0.00
659.60	14.04
659.74	81.92
659.89	88.94
660.03	49.15
660.17	37.45
660.32	0.00
660.46	39.79
660.60	88.94
660.74	107.66
660.89	39.79
661.03	44.47
661.17	60.85
661.32	70.22
661.46	138.09
661.60	21.06
661.74	0.00
661.89	91.28
662.03	23.41
662.17	37.45
662.31	100.64
662.46	100.64
662.60	168.52
662.74	107.66
662.88	16.38
663.03	4.68
663.17	110.01
663.31	70.22
663.45	56.17
663.60	0.00
663.74	7.02
663.88	74.90
664.02	0.00
664.17	25.75
664.31	70.22
664.45	0.00
664.59	0.00
664.73	58.51
664.88	35.11
665.02	161.50
665.16	0.00
665.30	0.00
665.44	107.66
665.59	9.36
665.73	56.17
665.87	121.71
666.01	18.72
666.15	42.13
666.29	37.45
666.44	21.06
666.58	51.49
666.72	86.60
666.86	0.00
667.00	102.98
667.14	84.26
667.28	0.00
667.43	56.17
667.57	23.41
667.71	7.02
667.85	30.43
667.99	49.15
668.13	23.41
668.27	42.13
668.41	39.79
668.56	58.51
668.70	0.00
668.84	46.81
668.98	110.01
669.12	37.45
669.26	35.11
669.40	110.01
669.54	60.85
669.68	0.00
669.82	91.28
669.96	16.38
670.10	105.32
670.25	39.79
670.39	9.36
670.53	46.81
670.67	2.34
670.81	21.06
670.95	39.79
671.09	23.41
671.23	100.64
671.37	18.72
671.51	140.43
671.65	0.00
671.79	0.00
671.93	91.28
672.07	51.49
672.21	53.83
672.35	67.88
672.49	4.68
672.63	84.26
672.77	46.81
672.91	58.51
673.05	30.43
673.19	0.00
673.33	81.92
673.47	28.09
673.61	7.02
673.75	86.60
673.89	95.96
674.03	25.75
674.17	84.26
674.31	65.54
674.45	72.56
674.59	4.68
674.73	65.54
674.87	16.38
675.01	0.00
675.15	124.05
675.29	93.62
675.43	79.58
675.56	0.00
675.70	21.06
675.84	42.13
675.98	21.06
676.12	21.06
676.26	25.75
676.40	30.43
676.54	77.24
676.68	74.90
676.82	49.15
676.96	16.38
677.10	124.05
677.23	11.70
677.37	0.00
677.51	0.00
677.65	42.13
677.79	100.64
677.93	0.00
678.07	51.49
678.21	67.88
678.34	39.79
678.48	23.41
678.62	14.04
678.76	14.04
678.90	65.54
679.04	81.92
679.18	65.54
679.31	0.00
679.45	49.15
679.59	56.17
679.73	9.36
679.87	0.00
680.00	67.88
680.14	25.75
680.28	147.45
680.42	65.54
680.56	16.38
680.70	0.00
680.83	86.60
680.97	107.66
681.11	7.02
681.25	88.94
681.39	60.85
681.52	58.51
681.66	39.79
681.80	0.00
681.94	84.26
682.07	16.38
682.21	23.41
682.35	18.72
682.49	0.00
682.62	46.81
682.76	0.00
682.90	79.58
683.04	25.75
683.17	35.11
683.31	67.88
683.45	44.47
683.59	46.81
683.72	42.13
683.86	0.00
684.00	98.30
684.13	110.01
684.27	67.88
684.41	79.58
684.55	0.00
684.68	35.11
684.82	28.09
684.96	11.70
685.09	0.00
685.23	25.75
685.37	23.41
685.50	65.54
685.64	65.54
685.78	0.00
685.91	95.96
686.05	105.32
686.19	30.43
686.32	0.00
686.46	117.03
686.60	65.54
686.73	0.00
686.87	2.34
687.01	7.02
687.14	0.00
687.28	105.32
687.42	23.41
687.55	21.06
687.69	21.06
687.82	0.00
687.96	21.06
688.10	42.13
688.23	70.22
688.37	11.70
688.50	25.75
688.64	53.83
688.78	58.51
688.91	0.00
689.05	39.79
689.18	28.09
689.32	32.77
689.46	60.85
689.59	51.49
689.73	21.06
689.86	16.38
690.00	0.00
690.13	18.72
690.27	0.00
690.41	0.00
690.54	39.79
690.68	98.30
690.81	65.54
690.95	42.13
691.08	70.22
691.22	0.00
691.35	46.81
691.49	72.56
691.62	37.45
691.76	77.24
691.89	72.56
692.03	0.00
692.16	28.09
692.30	4.68
692.43	11.70
692.57	35.11
692.70	58.51
692.84	0.00
692.97	18.72
693.11	121.71
693.24	74.90
693.38	114.69
693.51	91.28
693.65	42.13
693.78	0.00
693.92	58.51
694.05	70.22
694.19	37.45
694.32	91.28
694.45	0.00
694.59	67.88
694.72	0.00
694.86	88.94
694.99	32.77
695.13	77.24
695.26	79.58
695.39	56.17
695.53	14.04
695.66	46.81
695.80	131.07
695.93	102.98
696.07	11.70
696.20	0.00
696.33	56.17
696.47	39.79
696.60	18.72
696.73	37.45
696.87	102.98
697.00	16.38
697.14	42.13
697.27	74.90
697.40	107.66
697.54	56.17
697.67	9.36
697.80	0.00
697.94	91.28
698.07	67.88
698.21	98.30
698.34	25.75
698.47	2.34
698.61	32.77
698.74	16.38
698.87	51.49
699.01	37.45
699.14	39.79
699.27	37.45
699.40	56.17
699.54	74.90
699.67	21.06
699.80	14.04
699.94	91.28
700.07	0.00
700.20	0.00
700.34	2.34
700.47	0.00
700.60	0.00
700.73	79.58
700.87	133.41
701.00	44.47
701.13	9.36
701.26	32.77
701.40	0.00
701.53	0.00
701.66	14.04
701.79	39.79
701.93	65.54
702.06	58.51
702.19	91.28
702.32	72.56
702.46	0.00
702.59	65.54
702.72	84.26
702.85	56.17
702.99	46.81
703.12	21.06
703.25	0.00
703.38	39.79
703.51	72.56
703.65	9.36
703.78	58.51
703.91	0.00
704.04	84.26
704.17	35.11
704.31	107.66
704.44	79.58
704.57	77.24
704.70	9.36
704.83	16.38
704.96	18.72
705.10	0.00
705.23	16.38
>>>>>End Processed Spectral Data<<<<<
