SpectraSuite Data File
++++++++++++++++++++++++++++++++++++
Date: Fri Oct 04 12:13:24 GMT-05:00 2013
User: price-jones
Dark Spectrum Present: No
Reference Spectrum Present: No
Number of Sampled Component Spectra: 1
Spectrometers: USB2+H05261
Integration Time (usec): 10000 (USB2+H05261)
Spectra Averaged: 1 (USB2+H05261)
Boxcar Smoothing: 0 (USB2+H05261)
Correct for Electrical Dark: No (USB2+H05261)
Strobe/Lamp Enabled: No (USB2+H05261)
Correct for Detector Non-linearity: No (USB2+H05261)
Correct for Stray Light: No (USB2+H05261)
Number of Pixels in Processed Spectrum: 2048
>>>>>Begin Processed Spectral Data<<<<<
365.73	0.00
365.92	0.00
366.12	0.00
366.32	0.00
366.52	0.00
366.72	0.00
366.91	0.00
367.11	0.00
367.31	0.00
367.51	0.00
367.70	0.00
367.90	0.00
368.10	0.00
368.30	0.00
368.49	0.00
368.69	0.00
368.89	0.00
369.09	0.00
369.28	0.00
369.48	0.00
369.68	0.00
369.87	0.00
370.07	0.00
370.27	0.00
370.47	0.00
370.66	0.00
370.86	0.00
371.06	0.00
371.25	23.41
371.45	0.00
371.65	23.41
371.84	49.15
372.04	14.04
372.24	46.81
372.44	16.38
372.63	0.00
372.83	21.06
373.03	25.75
373.22	0.00
373.42	72.56
373.62	37.45
373.81	4.68
374.01	37.45
374.21	53.83
374.40	7.02
374.60	0.00
374.79	25.75
374.99	56.17
375.19	11.70
375.38	0.00
375.58	32.77
375.78	79.58
375.97	28.09
376.17	46.81
376.37	7.02
376.56	37.45
376.76	0.00
376.95	32.77
377.15	0.00
377.35	0.00
377.54	0.00
377.74	0.00
377.93	7.02
378.13	0.00
378.33	79.58
378.52	0.00
378.72	0.00
378.91	56.17
379.11	0.00
379.31	2.34
379.50	0.00
379.70	37.45
379.89	0.00
380.09	39.79
380.28	53.83
380.48	2.34
380.68	0.00
380.87	60.85
381.07	18.72
381.26	42.13
381.46	0.00
381.65	0.00
381.85	21.06
382.04	35.11
382.24	0.00
382.43	51.49
382.63	7.02
382.83	11.70
383.02	23.41
383.22	0.00
383.41	9.36
383.61	44.47
383.80	28.09
384.00	0.00
384.19	72.56
384.39	0.00
384.58	0.00
384.78	0.00
384.97	44.47
385.17	0.00
385.36	21.06
385.56	112.35
385.75	0.00
385.95	56.17
386.14	35.11
386.34	60.85
386.53	56.17
386.72	0.00
386.92	42.13
387.11	35.11
387.31	16.38
387.50	56.17
387.70	37.45
387.89	0.00
388.09	0.00
388.28	25.75
388.48	39.79
388.67	21.06
388.86	0.00
389.06	0.00
389.25	72.56
389.45	0.00
389.64	74.90
389.84	42.13
390.03	7.02
390.22	9.36
390.42	0.00
390.61	0.00
390.81	11.70
391.00	4.68
391.19	42.13
391.39	44.47
391.58	44.47
391.78	21.06
391.97	42.13
392.16	58.51
392.36	65.54
392.55	16.38
392.75	30.43
392.94	23.41
393.13	63.19
393.33	65.54
393.52	49.15
393.71	46.81
393.91	0.00
394.10	0.00
394.29	0.00
394.49	0.00
394.68	53.83
394.88	11.70
395.07	18.72
395.26	0.00
395.46	63.19
395.65	23.41
395.84	44.47
396.04	11.70
396.23	0.00
396.42	4.68
396.62	0.00
396.81	0.00
397.00	14.04
397.19	67.88
397.39	0.00
397.58	42.13
397.77	14.04
397.97	0.00
398.16	32.77
398.35	49.15
398.55	100.64
398.74	0.00
398.93	0.00
399.12	35.11
399.32	11.70
399.51	105.32
399.70	37.45
399.90	25.75
400.09	21.06
400.28	0.00
400.47	0.00
400.67	56.17
400.86	0.00
401.05	0.00
401.24	4.68
401.44	81.92
401.63	63.19
401.82	0.00
402.01	0.00
402.21	0.00
402.40	0.00
402.59	37.45
402.78	9.36
402.97	84.26
403.17	0.00
403.36	14.04
403.55	46.81
403.74	9.36
403.93	65.54
404.13	49.15
404.32	23.41
404.51	4.68
404.70	70.22
404.89	18.72
405.09	0.00
405.28	0.00
405.47	21.06
405.66	0.00
405.85	4.68
406.05	2.34
406.24	30.43
406.43	46.81
406.62	42.13
406.81	32.77
407.00	39.79
407.20	21.06
407.39	60.85
407.58	0.00
407.77	14.04
407.96	18.72
408.15	0.00
408.34	0.00
408.54	98.30
408.73	14.04
408.92	44.47
409.11	39.79
409.30	51.49
409.49	30.43
409.68	42.13
409.87	0.00
410.07	9.36
410.26	72.56
410.45	81.92
410.64	4.68
410.83	18.72
411.02	23.41
411.21	0.00
411.40	0.00
411.59	32.77
411.78	67.88
411.98	51.49
412.17	7.02
412.36	11.70
412.55	0.00
412.74	58.51
412.93	72.56
413.12	0.00
413.31	16.38
413.50	30.43
413.69	51.49
413.88	0.00
414.07	4.68
414.26	67.88
414.45	28.09
414.64	77.24
414.83	77.24
415.02	0.00
415.22	11.70
415.41	53.83
415.60	21.06
415.79	11.70
415.98	63.19
416.17	23.41
416.36	0.00
416.55	79.58
416.74	79.58
416.93	16.38
417.12	4.68
417.31	0.00
417.50	42.13
417.69	81.92
417.88	0.00
418.07	14.04
418.26	105.32
418.45	18.72
418.64	16.38
418.83	42.13
419.02	37.45
419.21	0.00
419.39	49.15
419.58	25.75
419.77	0.00
419.96	0.00
420.15	86.60
420.34	46.81
420.53	18.72
420.72	0.00
420.91	0.00
421.10	0.00
421.29	98.30
421.48	0.00
421.67	0.00
421.86	0.00
422.05	46.81
422.24	46.81
422.43	0.00
422.61	30.43
422.80	9.36
422.99	9.36
423.18	65.54
423.37	0.00
423.56	16.38
423.75	30.43
423.94	77.24
424.13	0.00
424.32	46.81
424.50	98.30
424.69	74.90
424.88	107.66
425.07	32.77
425.26	0.00
425.45	0.00
425.64	16.38
425.83	21.06
426.01	37.45
426.20	0.00
426.39	21.06
426.58	72.56
426.77	0.00
426.96	2.34
427.15	14.04
427.33	53.83
427.52	77.24
427.71	9.36
427.90	35.11
428.09	4.68
428.28	16.38
428.46	7.02
428.65	49.15
428.84	98.30
429.03	0.00
429.22	88.94
429.40	16.38
429.59	25.75
429.78	46.81
429.97	58.51
430.16	84.26
430.34	0.00
430.53	0.00
430.72	35.11
430.91	0.00
431.10	35.11
431.28	28.09
431.47	107.66
431.66	7.02
431.85	77.24
432.03	32.77
432.22	51.49
432.41	11.70
432.60	133.41
432.79	0.00
432.97	23.41
433.16	0.00
433.35	0.00
433.54	0.00
433.72	53.83
433.91	67.88
434.10	67.88
434.28	30.43
434.47	23.41
434.66	110.01
434.85	0.00
435.03	0.00
435.22	14.04
435.41	21.06
435.59	0.00
435.78	32.77
435.97	67.88
436.16	102.98
436.34	60.85
436.53	81.92
436.72	51.49
436.90	72.56
437.09	30.43
437.28	25.75
437.46	51.49
437.65	70.22
437.84	77.24
438.02	25.75
438.21	28.09
438.40	16.38
438.58	35.11
438.77	7.02
438.96	28.09
439.14	9.36
439.33	7.02
439.52	2.34
439.70	37.45
439.89	46.81
440.08	30.43
440.26	67.88
440.45	86.60
440.63	86.60
440.82	0.00
441.01	42.13
441.19	84.26
441.38	0.00
441.57	30.43
441.75	4.68
441.94	81.92
442.12	72.56
442.31	0.00
442.50	114.69
442.68	70.22
442.87	37.45
443.05	79.58
443.24	9.36
443.43	37.45
443.61	58.51
443.80	35.11
443.98	4.68
444.17	0.00
444.35	0.00
444.54	16.38
444.73	42.13
444.91	9.36
445.10	14.04
445.28	58.51
445.47	0.00
445.65	0.00
445.84	42.13
446.02	23.41
446.21	0.00
446.39	70.22
446.58	11.70
446.77	63.19
446.95	67.88
447.14	88.94
447.32	0.00
447.51	51.49
447.69	23.41
447.88	74.90
448.06	58.51
448.25	28.09
448.43	86.60
448.62	51.49
448.80	86.60
448.99	7.02
449.17	65.54
449.36	28.09
449.54	9.36
449.73	4.68
449.91	0.00
450.10	58.51
450.28	77.24
450.46	56.17
450.65	7.02
450.83	0.00
451.02	0.00
451.20	35.11
451.39	84.26
451.57	0.00
451.76	0.00
451.94	60.85
452.13	42.13
452.31	14.04
452.49	35.11
452.68	0.00
452.86	39.79
453.05	11.70
453.23	81.92
453.42	107.66
453.60	0.00
453.78	18.72
453.97	28.09
454.15	0.00
454.34	9.36
454.52	0.00
454.70	35.11
454.89	70.22
455.07	23.41
455.26	65.54
455.44	44.47
455.62	0.00
455.81	16.38
455.99	9.36
456.17	9.36
456.36	88.94
456.54	37.45
456.73	46.81
456.91	0.00
457.09	0.00
457.28	14.04
457.46	49.15
457.64	65.54
457.83	25.75
458.01	60.85
458.19	0.00
458.38	93.62
458.56	37.45
458.74	67.88
458.93	0.00
459.11	0.00
459.29	63.19
459.48	18.72
459.66	77.24
459.84	0.00
460.03	72.56
460.21	70.22
460.39	81.92
460.57	44.47
460.76	0.00
460.94	14.04
461.12	0.00
461.31	0.00
461.49	58.51
461.67	0.00
461.85	53.83
462.04	23.41
462.22	117.03
462.40	65.54
462.59	14.04
462.77	0.00
462.95	70.22
463.13	7.02
463.32	9.36
463.50	7.02
463.68	49.15
463.86	9.36
464.05	16.38
464.23	63.19
464.41	107.66
464.59	42.13
464.78	18.72
464.96	46.81
465.14	51.49
465.32	0.00
465.50	23.41
465.69	0.00
465.87	74.90
466.05	0.00
466.23	0.00
466.41	53.83
466.60	18.72
466.78	11.70
466.96	51.49
467.14	7.02
467.32	77.24
467.51	16.38
467.69	30.43
467.87	0.00
468.05	65.54
468.23	32.77
468.41	88.94
468.60	37.45
468.78	100.64
468.96	0.00
469.14	56.17
469.32	21.06
469.50	23.41
469.69	30.43
469.87	77.24
470.05	0.00
470.23	0.00
470.41	81.92
470.59	0.00
470.77	0.00
470.95	35.11
471.14	18.72
471.32	0.00
471.50	0.00
471.68	7.02
471.86	0.00
472.04	30.43
472.22	39.79
472.40	56.17
472.58	67.88
472.77	7.02
472.95	74.90
473.13	21.06
473.31	51.49
473.49	88.94
473.67	46.81
473.85	2.34
474.03	32.77
474.21	79.58
474.39	0.00
474.57	21.06
474.75	46.81
474.93	56.17
475.12	0.00
475.30	30.43
475.48	58.51
475.66	0.00
475.84	7.02
476.02	119.37
476.20	53.83
476.38	0.00
476.56	56.17
476.74	11.70
476.92	30.43
477.10	58.51
477.28	21.06
477.46	39.79
477.64	74.90
477.82	0.00
478.00	0.00
478.18	35.11
478.36	0.00
478.54	28.09
478.72	30.43
478.90	74.90
479.08	77.24
479.26	7.02
479.44	28.09
479.62	70.22
479.80	0.00
479.98	14.04
480.16	72.56
480.34	23.41
480.52	0.00
480.70	72.56
480.88	14.04
481.06	0.00
481.24	79.58
481.41	16.38
481.59	84.26
481.77	35.11
481.95	46.81
482.13	9.36
482.31	72.56
482.49	60.85
482.67	112.35
482.85	2.34
483.03	4.68
483.21	23.41
483.39	11.70
483.57	51.49
483.74	105.32
483.92	67.88
484.10	74.90
484.28	18.72
484.46	28.09
484.64	39.79
484.82	18.72
485.00	65.54
485.18	32.77
485.35	0.00
485.53	63.19
485.71	30.43
485.89	21.06
486.07	23.41
486.25	30.43
486.43	0.00
486.61	0.00
486.78	23.41
486.96	79.58
487.14	35.11
487.32	51.49
487.50	91.28
487.68	35.11
487.85	9.36
488.03	7.02
488.21	30.43
488.39	63.19
488.57	21.06
488.75	58.51
488.92	25.75
489.10	93.62
489.28	72.56
489.46	121.71
489.64	32.77
489.81	0.00
489.99	18.72
490.17	14.04
490.35	60.85
490.53	0.00
490.70	11.70
490.88	28.09
491.06	67.88
491.24	23.41
491.41	60.85
491.59	56.17
491.77	0.00
491.95	86.60
492.13	16.38
492.30	98.30
492.48	72.56
492.66	2.34
492.84	0.00
493.01	51.49
493.19	0.00
493.37	65.54
493.54	18.72
493.72	56.17
493.90	88.94
494.08	21.06
494.25	56.17
494.43	86.60
494.61	39.79
494.79	14.04
494.96	0.00
495.14	79.58
495.32	4.68
495.49	32.77
495.67	42.13
495.85	53.83
496.02	0.00
496.20	84.26
496.38	44.47
496.55	0.00
496.73	32.77
496.91	9.36
497.09	21.06
497.26	14.04
497.44	46.81
497.62	58.51
497.79	2.34
497.97	53.83
498.14	35.11
498.32	16.38
498.50	14.04
498.67	37.45
498.85	58.51
499.03	42.13
499.20	39.79
499.38	0.00
499.56	72.56
499.73	25.75
499.91	0.00
500.08	51.49
500.26	42.13
500.44	21.06
500.61	46.81
500.79	0.00
500.97	0.00
501.14	2.34
501.32	67.88
501.49	110.01
501.67	95.96
501.84	91.28
502.02	88.94
502.20	81.92
502.37	60.85
502.55	79.58
502.72	72.56
502.90	93.62
503.07	0.00
503.25	0.00
503.43	60.85
503.60	0.00
503.78	21.06
503.95	4.68
504.13	14.04
504.30	37.45
504.48	30.43
504.65	0.00
504.83	42.13
505.01	53.83
505.18	18.72
505.36	25.75
505.53	23.41
505.71	56.17
505.88	84.26
506.06	44.47
506.23	0.00
506.41	0.00
506.58	93.62
506.76	35.11
506.93	0.00
507.11	7.02
507.28	0.00
507.46	23.41
507.63	63.19
507.81	91.28
507.98	58.51
508.16	46.81
508.33	0.00
508.50	0.00
508.68	100.64
508.85	72.56
509.03	25.75
509.20	46.81
509.38	84.26
509.55	84.26
509.73	0.00
509.90	46.81
510.08	63.19
510.25	2.34
510.42	14.04
510.60	65.54
510.77	79.58
510.95	51.49
511.12	2.34
511.30	28.09
511.47	0.00
511.64	49.15
511.82	79.58
511.99	84.26
512.17	100.64
512.34	9.36
512.51	72.56
512.69	25.75
512.86	88.94
513.04	67.88
513.21	51.49
513.38	53.83
513.56	107.66
513.73	107.66
513.90	30.43
514.08	25.75
514.25	65.54
514.43	149.79
514.60	23.41
514.77	0.00
514.95	42.13
515.12	30.43
515.29	67.88
515.47	32.77
515.64	0.00
515.81	0.00
515.99	0.00
516.16	14.04
516.33	18.72
516.51	35.11
516.68	18.72
516.85	72.56
517.03	93.62
517.20	65.54
517.37	91.28
517.54	88.94
517.72	74.90
517.89	121.71
518.06	49.15
518.24	0.00
518.41	100.64
518.58	11.70
518.75	44.47
518.93	7.02
519.10	110.01
519.27	49.15
519.45	46.81
519.62	0.00
519.79	0.00
519.96	18.72
520.14	0.00
520.31	18.72
520.48	0.00
520.65	0.00
520.83	0.00
521.00	25.75
521.17	0.00
521.34	42.13
521.52	63.19
521.69	58.51
521.86	65.54
522.03	95.96
522.20	30.43
522.38	72.56
522.55	16.38
522.72	18.72
522.89	100.64
523.07	7.02
523.24	18.72
523.41	88.94
523.58	32.77
523.75	60.85
523.92	95.96
524.10	0.00
524.27	0.00
524.44	0.00
524.61	58.51
524.78	42.13
524.96	49.15
525.13	60.85
525.30	79.58
525.47	2.34
525.64	44.47
525.81	58.51
525.98	0.00
526.16	58.51
526.33	51.49
526.50	56.17
526.67	39.79
526.84	46.81
527.01	53.83
527.18	60.85
527.36	42.13
527.53	18.72
527.70	86.60
527.87	65.54
528.04	107.66
528.21	77.24
528.38	81.92
528.55	117.03
528.72	44.47
528.89	0.00
529.07	4.68
529.24	53.83
529.41	67.88
529.58	0.00
529.75	0.00
529.92	53.83
530.09	107.66
530.26	11.70
530.43	2.34
530.60	44.47
530.77	37.45
530.94	39.79
531.11	16.38
531.28	70.22
531.46	44.47
531.63	56.17
531.80	95.96
531.97	95.96
532.14	2.34
532.31	0.00
532.48	30.43
532.65	30.43
532.82	0.00
532.99	37.45
533.16	37.45
533.33	46.81
533.50	67.88
533.67	105.32
533.84	65.54
534.01	51.49
534.18	11.70
534.35	56.17
534.52	79.58
534.69	2.34
534.86	49.15
535.03	95.96
535.20	84.26
535.37	84.26
535.54	74.90
535.71	21.06
535.88	9.36
536.05	124.05
536.22	98.30
536.38	70.22
536.55	11.70
536.72	23.41
536.89	7.02
537.06	67.88
537.23	21.06
537.40	39.79
537.57	18.72
537.74	44.47
537.91	53.83
538.08	105.32
538.25	67.88
538.42	53.83
538.59	23.41
538.75	42.13
538.92	53.83
539.09	18.72
539.26	37.45
539.43	4.68
539.60	35.11
539.77	44.47
539.94	0.00
540.11	0.00
540.28	39.79
540.44	102.98
540.61	65.54
540.78	88.94
540.95	14.04
541.12	0.00
541.29	91.28
541.46	9.36
541.62	39.79
541.79	35.11
541.96	91.28
542.13	23.41
542.30	88.94
542.47	65.54
542.63	0.00
542.80	53.83
542.97	77.24
543.14	30.43
543.31	44.47
543.48	51.49
543.64	86.60
543.81	2.34
543.98	11.70
544.15	58.51
544.32	91.28
544.48	21.06
544.65	37.45
544.82	21.06
544.99	11.70
545.16	49.15
545.32	86.60
545.49	0.00
545.66	0.00
545.83	58.51
546.00	74.90
546.16	39.79
546.33	77.24
546.50	53.83
546.67	0.00
546.83	28.09
547.00	79.58
547.17	81.92
547.34	84.26
547.50	102.98
547.67	44.47
547.84	39.79
548.00	21.06
548.17	39.79
548.34	60.85
548.51	0.00
548.67	39.79
548.84	25.75
549.01	18.72
549.18	110.01
549.34	44.47
549.51	56.17
549.68	53.83
549.84	42.13
550.01	0.00
550.18	0.00
550.34	35.11
550.51	60.85
550.68	39.79
550.84	105.32
551.01	49.15
551.18	0.00
551.34	53.83
551.51	65.54
551.68	30.43
551.84	25.75
552.01	79.58
552.18	44.47
552.34	49.15
552.51	0.00
552.68	51.49
552.84	58.51
553.01	102.98
553.18	23.41
553.34	74.90
553.51	16.38
553.67	46.81
553.84	30.43
554.01	77.24
554.17	65.54
554.34	7.02
554.51	30.43
554.67	23.41
554.84	42.13
555.00	30.43
555.17	7.02
555.33	32.77
555.50	11.70
555.67	21.06
555.83	16.38
556.00	42.13
556.16	32.77
556.33	138.09
556.50	0.00
556.66	77.24
556.83	95.96
556.99	58.51
557.16	32.77
557.32	30.43
557.49	102.98
557.65	51.49
557.82	65.54
557.98	84.26
558.15	79.58
558.32	44.47
558.48	37.45
558.65	4.68
558.81	46.81
558.98	37.45
559.14	0.00
559.31	9.36
559.47	0.00
559.64	46.81
559.80	42.13
559.97	56.17
560.13	39.79
560.30	56.17
560.46	46.81
560.63	102.98
560.79	37.45
560.96	56.17
561.12	0.00
561.29	77.24
561.45	2.34
561.61	2.34
561.78	32.77
561.94	0.00
562.11	0.00
562.27	4.68
562.44	42.13
562.60	35.11
562.77	21.06
562.93	74.90
563.10	39.79
563.26	32.77
563.42	39.79
563.59	14.04
563.75	65.54
563.92	70.22
564.08	39.79
564.24	0.00
564.41	2.34
564.57	21.06
564.74	7.02
564.90	93.62
565.07	14.04
565.23	65.54
565.39	0.00
565.56	0.00
565.72	0.00
565.88	9.36
566.05	107.66
566.21	39.79
566.38	35.11
566.54	51.49
566.70	21.06
566.87	28.09
567.03	39.79
567.19	77.24
567.36	42.13
567.52	37.45
567.68	58.51
567.85	46.81
568.01	9.36
568.17	32.77
568.34	25.75
568.50	23.41
568.66	63.19
568.83	2.34
568.99	16.38
569.15	30.43
569.32	46.81
569.48	35.11
569.64	53.83
569.81	42.13
569.97	60.85
570.13	30.43
570.30	60.85
570.46	25.75
570.62	46.81
570.78	110.01
570.95	46.81
571.11	4.68
571.27	100.64
571.43	16.38
571.60	74.90
571.76	14.04
571.92	23.41
572.09	28.09
572.25	2.34
572.41	84.26
572.57	0.00
572.74	21.06
572.90	67.88
573.06	37.45
573.22	23.41
573.38	42.13
573.55	16.38
573.71	37.45
573.87	0.00
574.03	7.02
574.20	84.26
574.36	60.85
574.52	11.70
574.68	39.79
574.84	102.98
575.01	0.00
575.17	42.13
575.33	25.75
575.49	0.00
575.65	30.43
575.82	4.68
575.98	60.85
576.14	117.03
576.30	30.43
576.46	81.92
576.62	51.49
576.79	2.34
576.95	35.11
577.11	39.79
577.27	49.15
577.43	65.54
577.59	0.00
577.75	42.13
577.92	39.79
578.08	65.54
578.24	37.45
578.40	0.00
578.56	105.32
578.72	42.13
578.88	32.77
579.04	53.83
579.21	42.13
579.37	56.17
579.53	58.51
579.69	37.45
579.85	28.09
580.01	67.88
580.17	93.62
580.33	39.79
580.49	0.00
580.65	70.22
580.82	0.00
580.98	46.81
581.14	58.51
581.30	46.81
581.46	0.00
581.62	95.96
581.78	28.09
581.94	95.96
582.10	37.45
582.26	0.00
582.42	51.49
582.58	0.00
582.74	18.72
582.90	110.01
583.06	14.04
583.22	16.38
583.38	0.00
583.54	14.04
583.70	56.17
583.86	0.00
584.02	0.00
584.18	84.26
584.34	56.17
584.50	23.41
584.66	67.88
584.82	72.56
584.98	23.41
585.14	49.15
585.30	7.02
585.46	23.41
585.62	0.00
585.78	32.77
585.94	65.54
586.10	0.00
586.26	0.00
586.42	0.00
586.58	0.00
586.74	95.96
586.90	53.83
587.06	56.17
587.22	51.49
587.38	86.60
587.54	0.00
587.70	25.75
587.86	0.00
588.02	72.56
588.18	37.45
588.34	0.00
588.49	58.51
588.65	60.85
588.81	9.36
588.97	42.13
589.13	46.81
589.29	67.88
589.45	25.75
589.61	46.81
589.77	0.00
589.93	11.70
590.08	67.88
590.24	0.00
590.40	63.19
590.56	42.13
590.72	35.11
590.88	72.56
591.04	0.00
591.20	44.47
591.35	23.41
591.51	65.54
591.67	65.54
591.83	77.24
591.99	53.83
592.15	84.26
592.31	0.00
592.46	0.00
592.62	2.34
592.78	60.85
592.94	70.22
593.10	23.41
593.26	37.45
593.41	58.51
593.57	53.83
593.73	37.45
593.89	67.88
594.05	93.62
594.20	30.43
594.36	2.34
594.52	88.94
594.68	0.00
594.84	42.13
594.99	32.77
595.15	4.68
595.31	65.54
595.47	79.58
595.62	16.38
595.78	4.68
595.94	9.36
596.10	14.04
596.25	37.45
596.41	53.83
596.57	74.90
596.73	81.92
596.88	30.43
597.04	35.11
597.20	65.54
597.36	44.47
597.51	11.70
597.67	49.15
597.83	93.62
597.99	30.43
598.14	46.81
598.30	67.88
598.46	53.83
598.61	81.92
598.77	65.54
598.93	0.00
599.09	11.70
599.24	91.28
599.40	35.11
599.56	32.77
599.71	46.81
599.87	63.19
600.03	79.58
600.18	56.17
600.34	65.54
600.50	11.70
600.65	63.19
600.81	18.72
600.97	70.22
601.12	0.00
601.28	51.49
601.44	70.22
601.59	37.45
601.75	84.26
601.91	72.56
602.06	30.43
602.22	4.68
602.37	0.00
602.53	18.72
602.69	18.72
602.84	2.34
603.00	77.24
603.16	42.13
603.31	0.00
603.47	53.83
603.62	16.38
603.78	65.54
603.94	81.92
604.09	0.00
604.25	60.85
604.40	28.09
604.56	9.36
604.71	102.98
604.87	0.00
605.03	63.19
605.18	49.15
605.34	30.43
605.49	39.79
605.65	14.04
605.80	84.26
605.96	98.30
606.12	42.13
606.27	0.00
606.43	126.39
606.58	0.00
606.74	135.75
606.89	30.43
607.05	53.83
607.20	28.09
607.36	128.73
607.51	9.36
607.67	49.15
607.82	46.81
607.98	70.22
608.13	60.85
608.29	30.43
608.44	86.60
608.60	51.49
608.75	4.68
608.91	4.68
609.06	72.56
609.22	2.34
609.37	9.36
609.53	7.02
609.68	28.09
609.84	23.41
609.99	35.11
610.15	18.72
610.30	140.43
610.46	56.17
610.61	23.41
610.76	65.54
610.92	81.92
611.07	11.70
611.23	35.11
611.38	30.43
611.54	4.68
611.69	0.00
611.84	100.64
612.00	11.70
612.15	70.22
612.31	35.11
612.46	39.79
612.62	0.00
612.77	23.41
612.92	0.00
613.08	0.00
613.23	67.88
613.39	56.17
613.54	18.72
613.69	25.75
613.85	107.66
614.00	25.75
614.15	93.62
614.31	58.51
614.46	67.88
614.62	7.02
614.77	32.77
614.92	0.00
615.08	42.13
615.23	60.85
615.38	67.88
615.54	0.00
615.69	9.36
615.84	4.68
616.00	7.02
616.15	4.68
616.30	23.41
616.46	0.00
616.61	37.45
616.76	0.00
616.92	102.98
617.07	21.06
617.22	0.00
617.37	32.77
617.53	93.62
617.68	30.43
617.83	84.26
617.99	44.47
618.14	11.70
618.29	58.51
618.45	56.17
618.60	53.83
618.75	65.54
618.90	112.35
619.06	0.00
619.21	63.19
619.36	9.36
619.51	9.36
619.67	0.00
619.82	0.00
619.97	67.88
620.12	42.13
620.28	14.04
620.43	39.79
620.58	88.94
620.73	11.70
620.89	114.69
621.04	102.98
621.19	117.03
621.34	16.38
621.49	39.79
621.65	93.62
621.80	46.81
621.95	105.32
622.10	49.15
622.25	0.00
622.41	0.00
622.56	16.38
622.71	0.00
622.86	21.06
623.01	49.15
623.16	74.90
623.32	4.68
623.47	51.49
623.62	4.68
623.77	46.81
623.92	0.00
624.07	86.60
624.23	70.22
624.38	67.88
624.53	53.83
624.68	7.02
624.83	30.43
624.98	7.02
625.13	11.70
625.29	100.64
625.44	39.79
625.59	49.15
625.74	0.00
625.89	46.81
626.04	81.92
626.19	0.00
626.34	37.45
626.49	53.83
626.65	23.41
626.80	11.70
626.95	0.00
627.10	77.24
627.25	74.90
627.40	18.72
627.55	11.70
627.70	14.04
627.85	88.94
628.00	0.00
628.15	67.88
628.30	91.28
628.45	0.00
628.60	53.83
628.76	21.06
628.91	0.00
629.06	0.00
629.21	0.00
629.36	25.75
629.51	56.17
629.66	0.00
629.81	2.34
629.96	23.41
630.11	0.00
630.26	30.43
630.41	63.19
630.56	65.54
630.71	39.79
630.86	58.51
631.01	4.68
631.16	0.00
631.31	72.56
631.46	0.00
631.61	23.41
631.76	35.11
631.91	25.75
632.06	23.41
632.21	91.28
632.36	72.56
632.51	28.09
632.66	0.00
632.81	46.81
632.96	0.00
633.10	28.09
633.25	0.00
633.40	7.02
633.55	28.09
633.70	23.41
633.85	37.45
634.00	42.13
634.15	77.24
634.30	49.15
634.45	32.77
634.60	42.13
634.75	0.00
634.90	7.02
635.05	0.00
635.19	11.70
635.34	0.00
635.49	0.00
635.64	0.00
635.79	7.02
635.94	70.22
636.09	23.41
636.24	35.11
636.39	4.68
636.53	35.11
636.68	65.54
636.83	44.47
636.98	39.79
637.13	60.85
637.28	4.68
637.43	9.36
637.57	67.88
637.72	9.36
637.87	16.38
638.02	4.68
638.17	28.09
638.32	30.43
638.46	56.17
638.61	11.70
638.76	23.41
638.91	37.45
639.06	30.43
639.20	14.04
639.35	0.00
639.50	0.00
639.65	0.00
639.80	72.56
639.94	0.00
640.09	21.06
640.24	0.00
640.39	70.22
640.54	102.98
640.68	110.01
640.83	18.72
640.98	16.38
641.13	0.00
641.27	44.47
641.42	0.00
641.57	46.81
641.72	67.88
641.86	23.41
642.01	70.22
642.16	0.00
642.31	58.51
642.45	60.85
642.60	51.49
642.75	0.00
642.90	65.54
643.04	25.75
643.19	98.30
643.34	42.13
643.48	21.06
643.63	49.15
643.78	77.24
643.93	0.00
644.07	53.83
644.22	70.22
644.37	63.19
644.51	28.09
644.66	4.68
644.81	9.36
644.95	110.01
645.10	100.64
645.25	119.37
645.39	70.22
645.54	37.45
645.69	79.58
645.83	0.00
645.98	7.02
646.13	53.83
646.27	25.75
646.42	77.24
646.57	51.49
646.71	0.00
646.86	28.09
647.00	0.00
647.15	51.49
647.30	84.26
647.44	0.00
647.59	16.38
647.74	7.02
647.88	21.06
648.03	0.00
648.17	2.34
648.32	53.83
648.47	58.51
648.61	18.72
648.76	2.34
648.90	23.41
649.05	0.00
649.20	42.13
649.34	23.41
649.49	32.77
649.63	0.00
649.78	21.06
649.92	65.54
650.07	9.36
650.21	46.81
650.36	11.70
650.51	28.09
650.65	63.19
650.80	51.49
650.94	7.02
651.09	37.45
651.23	18.72
651.38	32.77
651.52	37.45
651.67	39.79
651.81	11.70
651.96	74.90
652.10	112.35
652.25	49.15
652.39	51.49
652.54	42.13
652.68	21.06
652.83	25.75
652.97	51.49
653.12	11.70
653.26	44.47
653.41	42.13
653.55	42.13
653.70	32.77
653.84	21.06
653.99	14.04
654.13	28.09
654.27	60.85
654.42	18.72
654.56	81.92
654.71	56.17
654.85	0.00
655.00	95.96
655.14	25.75
655.29	18.72
655.43	32.77
655.57	74.90
655.72	21.06
655.86	70.22
656.01	2.34
656.15	28.09
656.30	0.00
656.44	23.41
656.58	32.77
656.73	0.00
656.87	0.00
657.01	0.00
657.16	0.00
657.30	4.68
657.45	65.54
657.59	98.30
657.73	35.11
657.88	84.26
658.02	0.00
658.16	32.77
658.31	49.15
658.45	35.11
658.60	63.19
658.74	35.11
658.88	0.00
659.03	44.47
659.17	25.75
659.31	79.58
659.46	100.64
659.60	74.90
659.74	0.00
659.89	65.54
660.03	21.06
660.17	93.62
660.32	42.13
660.46	25.75
660.60	39.79
660.74	65.54
660.89	56.17
661.03	14.04
661.17	0.00
661.32	67.88
661.46	0.00
661.60	9.36
661.74	51.49
661.89	95.96
662.03	70.22
662.17	0.00
662.31	0.00
662.46	65.54
662.60	49.15
662.74	65.54
662.88	23.41
663.03	0.00
663.17	28.09
663.31	131.07
663.45	79.58
663.60	0.00
663.74	0.00
663.88	4.68
664.02	100.64
664.17	93.62
664.31	21.06
664.45	9.36
664.59	0.00
664.73	39.79
664.88	100.64
665.02	11.70
665.16	0.00
665.30	81.92
665.44	23.41
665.59	39.79
665.73	56.17
665.87	11.70
666.01	0.00
666.15	58.51
666.29	44.47
666.44	86.60
666.58	70.22
666.72	102.98
666.86	0.00
667.00	0.00
667.14	56.17
667.28	46.81
667.43	32.77
667.57	32.77
667.71	7.02
667.85	49.15
667.99	0.00
668.13	51.49
668.27	14.04
668.41	11.70
668.56	28.09
668.70	65.54
668.84	91.28
668.98	86.60
669.12	67.88
669.26	117.03
669.40	70.22
669.54	42.13
669.68	0.00
669.82	32.77
669.96	37.45
670.10	0.00
670.25	0.00
670.39	0.00
670.53	91.28
670.67	0.00
670.81	44.47
670.95	53.83
671.09	25.75
671.23	0.00
671.37	0.00
671.51	18.72
671.65	0.00
671.79	0.00
671.93	0.00
672.07	60.85
672.21	63.19
672.35	53.83
672.49	126.39
672.63	0.00
672.77	93.62
672.91	9.36
673.05	0.00
673.19	0.00
673.33	28.09
673.47	121.71
673.61	0.00
673.75	91.28
673.89	49.15
674.03	0.00
674.17	98.30
674.31	72.56
674.45	0.00
674.59	58.51
674.73	4.68
674.87	39.79
675.01	25.75
675.15	35.11
675.29	35.11
675.43	74.90
675.56	51.49
675.70	86.60
675.84	51.49
675.98	16.38
676.12	42.13
676.26	0.00
676.40	93.62
676.54	56.17
676.68	32.77
676.82	0.00
676.96	23.41
677.10	21.06
677.23	63.19
677.37	7.02
677.51	0.00
677.65	2.34
677.79	70.22
677.93	51.49
678.07	60.85
678.21	0.00
678.34	0.00
678.48	0.00
678.62	32.77
678.76	100.64
678.90	25.75
679.04	18.72
679.18	37.45
679.31	86.60
679.45	74.90
679.59	102.98
679.73	42.13
679.87	51.49
680.00	0.00
680.14	11.70
680.28	9.36
680.42	11.70
680.56	16.38
680.70	0.00
680.83	21.06
680.97	9.36
681.11	74.90
681.25	53.83
681.39	39.79
681.52	2.34
681.66	44.47
681.80	0.00
681.94	65.54
682.07	11.70
682.21	95.96
682.35	60.85
682.49	9.36
682.62	0.00
682.76	105.32
682.90	30.43
683.04	0.00
683.17	39.79
683.31	84.26
683.45	0.00
683.59	46.81
683.72	79.58
683.86	0.00
684.00	0.00
684.13	81.92
684.27	0.00
684.41	30.43
684.55	42.13
684.68	0.00
684.82	25.75
684.96	7.02
685.09	25.75
685.23	16.38
685.37	0.00
685.50	14.04
685.64	0.00
685.78	131.07
685.91	0.00
686.05	72.56
686.19	0.00
686.32	88.94
686.46	74.90
686.60	0.00
686.73	0.00
686.87	9.36
687.01	53.83
687.14	9.36
687.28	25.75
687.42	37.45
687.55	11.70
687.69	74.90
687.82	0.00
687.96	79.58
688.10	21.06
688.23	0.00
688.37	100.64
688.50	67.88
688.64	14.04
688.78	0.00
688.91	14.04
689.05	110.01
689.18	42.13
689.32	84.26
689.46	0.00
689.59	0.00
689.73	21.06
689.86	32.77
690.00	63.19
690.13	0.00
690.27	77.24
690.41	14.04
690.54	0.00
690.68	42.13
690.81	35.11
690.95	0.00
691.08	0.00
691.22	14.04
691.35	0.00
691.49	32.77
691.62	91.28
691.76	77.24
691.89	16.38
692.03	0.00
692.16	63.19
692.30	0.00
692.43	2.34
692.57	0.00
692.70	25.75
692.84	0.00
692.97	0.00
693.11	0.00
693.24	2.34
693.38	9.36
693.51	14.04
693.65	70.22
693.78	49.15
693.92	56.17
694.05	65.54
694.19	35.11
694.32	0.00
694.45	0.00
694.59	100.64
694.72	14.04
694.86	84.26
694.99	60.85
695.13	72.56
695.26	42.13
695.39	18.72
695.53	11.70
695.66	74.90
695.80	44.47
695.93	124.05
696.07	0.00
696.20	63.19
696.33	37.45
696.47	4.68
696.60	0.00
696.73	0.00
696.87	72.56
697.00	14.04
697.14	46.81
697.27	30.43
697.40	9.36
697.54	0.00
697.67	0.00
697.80	18.72
697.94	16.38
698.07	0.00
698.21	49.15
698.34	0.00
698.47	9.36
698.61	53.83
698.74	0.00
698.87	7.02
699.01	0.00
699.14	0.00
699.27	42.13
699.40	86.60
699.54	37.45
699.67	21.06
699.80	30.43
699.94	79.58
700.07	0.00
700.20	30.43
700.34	28.09
700.47	0.00
700.60	100.64
700.73	0.00
700.87	74.90
701.00	28.09
701.13	0.00
701.26	0.00
701.40	14.04
701.53	84.26
701.66	114.69
701.79	119.37
701.93	42.13
702.06	98.30
702.19	35.11
702.32	49.15
702.46	11.70
702.59	39.79
702.72	0.00
702.85	9.36
702.99	9.36
703.12	51.49
703.25	72.56
703.38	30.43
703.51	16.38
703.65	2.34
703.78	42.13
703.91	51.49
704.04	93.62
704.17	0.00
704.31	25.75
704.44	18.72
704.57	21.06
704.70	63.19
704.83	0.00
704.96	39.79
705.10	84.26
705.23	46.81
>>>>>End Processed Spectral Data<<<<<
