SpectraSuite Data File
++++++++++++++++++++++++++++++++++++
Date: Fri Oct 04 12:13:34 GMT-05:00 2013
User: price-jones
Dark Spectrum Present: No
Reference Spectrum Present: No
Number of Sampled Component Spectra: 1
Spectrometers: USB2+H05261
Integration Time (usec): 10000 (USB2+H05261)
Spectra Averaged: 1 (USB2+H05261)
Boxcar Smoothing: 0 (USB2+H05261)
Correct for Electrical Dark: No (USB2+H05261)
Strobe/Lamp Enabled: No (USB2+H05261)
Correct for Detector Non-linearity: No (USB2+H05261)
Correct for Stray Light: No (USB2+H05261)
Number of Pixels in Processed Spectrum: 2048
>>>>>Begin Processed Spectral Data<<<<<
365.73	0.00
365.92	0.00
366.12	0.00
366.32	0.00
366.52	0.00
366.72	0.00
366.91	0.00
367.11	0.00
367.31	0.00
367.51	0.00
367.70	0.00
367.90	0.00
368.10	0.00
368.30	0.00
368.49	0.00
368.69	0.00
368.89	0.00
369.09	0.00
369.28	0.00
369.48	0.00
369.68	0.00
369.87	0.00
370.07	0.00
370.27	0.00
370.47	0.00
370.66	0.00
370.86	0.00
371.06	0.00
371.25	0.00
371.45	0.00
371.65	0.00
371.84	63.19
372.04	0.00
372.24	51.49
372.44	0.00
372.63	4.68
372.83	0.00
373.03	35.11
373.22	70.22
373.42	51.49
373.62	56.17
373.81	9.36
374.01	0.00
374.21	23.41
374.40	21.06
374.60	23.41
374.79	67.88
374.99	0.00
375.19	18.72
375.38	44.47
375.58	0.00
375.78	84.26
375.97	0.00
376.17	21.06
376.37	63.19
376.56	53.83
376.76	14.04
376.95	16.38
377.15	86.60
377.35	0.00
377.54	0.00
377.74	79.58
377.93	53.83
378.13	16.38
378.33	74.90
378.52	16.38
378.72	35.11
378.91	16.38
379.11	56.17
379.31	37.45
379.50	9.36
379.70	23.41
379.89	67.88
380.09	0.00
380.28	39.79
380.48	16.38
380.68	9.36
380.87	0.00
381.07	11.70
381.26	0.00
381.46	30.43
381.65	49.15
381.85	0.00
382.04	9.36
382.24	16.38
382.43	28.09
382.63	4.68
382.83	11.70
383.02	0.00
383.22	0.00
383.41	0.00
383.61	7.02
383.80	37.45
384.00	44.47
384.19	39.79
384.39	16.38
384.58	16.38
384.78	30.43
384.97	11.70
385.17	16.38
385.36	25.75
385.56	0.00
385.75	37.45
385.95	0.00
386.14	28.09
386.34	21.06
386.53	0.00
386.72	0.00
386.92	0.00
387.11	0.00
387.31	16.38
387.50	14.04
387.70	53.83
387.89	0.00
388.09	0.00
388.28	25.75
388.48	0.00
388.67	18.72
388.86	30.43
389.06	74.90
389.25	0.00
389.45	0.00
389.64	49.15
389.84	46.81
390.03	98.30
390.22	21.06
390.42	7.02
390.61	9.36
390.81	0.00
391.00	35.11
391.19	65.54
391.39	0.00
391.58	44.47
391.78	0.00
391.97	9.36
392.16	0.00
392.36	0.00
392.55	51.49
392.75	32.77
392.94	0.00
393.13	14.04
393.33	35.11
393.52	0.00
393.71	46.81
393.91	25.75
394.10	0.00
394.29	58.51
394.49	58.51
394.68	51.49
394.88	30.43
395.07	84.26
395.26	32.77
395.46	35.11
395.65	72.56
395.84	2.34
396.04	16.38
396.23	2.34
396.42	0.00
396.62	0.00
396.81	32.77
397.00	53.83
397.19	60.85
397.39	37.45
397.58	23.41
397.77	0.00
397.97	56.17
398.16	74.90
398.35	25.75
398.55	65.54
398.74	65.54
398.93	0.00
399.12	0.00
399.32	0.00
399.51	18.72
399.70	18.72
399.90	37.45
400.09	7.02
400.28	70.22
400.47	21.06
400.67	0.00
400.86	46.81
401.05	18.72
401.24	25.75
401.44	0.00
401.63	39.79
401.82	0.00
402.01	0.00
402.21	21.06
402.40	32.77
402.59	95.96
402.78	0.00
402.97	49.15
403.17	25.75
403.36	9.36
403.55	65.54
403.74	14.04
403.93	67.88
404.13	16.38
404.32	28.09
404.51	11.70
404.70	32.77
404.89	30.43
405.09	77.24
405.28	28.09
405.47	56.17
405.66	0.00
405.85	77.24
406.05	91.28
406.24	42.13
406.43	0.00
406.62	58.51
406.81	74.90
407.00	105.32
407.20	0.00
407.39	70.22
407.58	51.49
407.77	77.24
407.96	114.69
408.15	16.38
408.34	53.83
408.54	2.34
408.73	23.41
408.92	21.06
409.11	91.28
409.30	25.75
409.49	0.00
409.68	65.54
409.87	9.36
410.07	0.00
410.26	23.41
410.45	81.92
410.64	28.09
410.83	0.00
411.02	21.06
411.21	58.51
411.40	49.15
411.59	56.17
411.78	65.54
411.98	23.41
412.17	18.72
412.36	0.00
412.55	53.83
412.74	63.19
412.93	25.75
413.12	56.17
413.31	63.19
413.50	44.47
413.69	14.04
413.88	51.49
414.07	4.68
414.26	11.70
414.45	30.43
414.64	28.09
414.83	16.38
415.02	42.13
415.22	49.15
415.41	60.85
415.60	35.11
415.79	58.51
415.98	67.88
416.17	0.00
416.36	25.75
416.55	4.68
416.74	39.79
416.93	65.54
417.12	74.90
417.31	0.00
417.50	28.09
417.69	0.00
417.88	37.45
418.07	32.77
418.26	42.13
418.45	65.54
418.64	0.00
418.83	23.41
419.02	0.00
419.21	39.79
419.39	98.30
419.58	11.70
419.77	30.43
419.96	42.13
420.15	65.54
420.34	39.79
420.53	49.15
420.72	16.38
420.91	21.06
421.10	23.41
421.29	35.11
421.48	14.04
421.67	16.38
421.86	30.43
422.05	56.17
422.24	84.26
422.43	7.02
422.61	35.11
422.80	21.06
422.99	67.88
423.18	119.37
423.37	0.00
423.56	72.56
423.75	95.96
423.94	105.32
424.13	14.04
424.32	25.75
424.50	51.49
424.69	25.75
424.88	39.79
425.07	117.03
425.26	39.79
425.45	0.00
425.64	23.41
425.83	0.00
426.01	21.06
426.20	56.17
426.39	9.36
426.58	16.38
426.77	23.41
426.96	0.00
427.15	32.77
427.33	119.37
427.52	46.81
427.71	65.54
427.90	70.22
428.09	0.00
428.28	0.00
428.46	37.45
428.65	14.04
428.84	16.38
429.03	56.17
429.22	42.13
429.40	28.09
429.59	39.79
429.78	56.17
429.97	46.81
430.16	39.79
430.34	23.41
430.53	0.00
430.72	0.00
430.91	32.77
431.10	18.72
431.28	72.56
431.47	86.60
431.66	128.73
431.85	9.36
432.03	32.77
432.22	67.88
432.41	0.00
432.60	37.45
432.79	0.00
432.97	0.00
433.16	0.00
433.35	95.96
433.54	37.45
433.72	51.49
433.91	65.54
434.10	44.47
434.28	60.85
434.47	51.49
434.66	35.11
434.85	35.11
435.03	95.96
435.22	53.83
435.41	4.68
435.59	0.00
435.78	138.09
435.97	65.54
436.16	58.51
436.34	14.04
436.53	0.00
436.72	84.26
436.90	0.00
437.09	23.41
437.28	51.49
437.46	0.00
437.65	44.47
437.84	30.43
438.02	42.13
438.21	35.11
438.40	53.83
438.58	0.00
438.77	39.79
438.96	0.00
439.14	42.13
439.33	16.38
439.52	84.26
439.70	98.30
439.89	32.77
440.08	65.54
440.26	37.45
440.45	49.15
440.63	53.83
440.82	35.11
441.01	70.22
441.19	23.41
441.38	0.00
441.57	51.49
441.75	77.24
441.94	74.90
442.12	60.85
442.31	21.06
442.50	72.56
442.68	0.00
442.87	65.54
443.05	65.54
443.24	67.88
443.43	58.51
443.61	42.13
443.80	42.13
443.98	4.68
444.17	46.81
444.35	23.41
444.54	46.81
444.73	58.51
444.91	63.19
445.10	0.00
445.28	18.72
445.47	51.49
445.65	51.49
445.84	11.70
446.02	58.51
446.21	102.98
446.39	30.43
446.58	28.09
446.77	28.09
446.95	74.90
447.14	44.47
447.32	44.47
447.51	56.17
447.69	30.43
447.88	18.72
448.06	74.90
448.25	98.30
448.43	117.03
448.62	30.43
448.80	32.77
448.99	70.22
449.17	49.15
449.36	0.00
449.54	35.11
449.73	46.81
449.91	51.49
450.10	0.00
450.28	98.30
450.46	18.72
450.65	14.04
450.83	70.22
451.02	65.54
451.20	49.15
451.39	133.41
451.57	28.09
451.76	51.49
451.94	86.60
452.13	67.88
452.31	98.30
452.49	53.83
452.68	0.00
452.86	39.79
453.05	72.56
453.23	44.47
453.42	79.58
453.60	49.15
453.78	39.79
453.97	49.15
454.15	30.43
454.34	35.11
454.52	53.83
454.70	128.73
454.89	37.45
455.07	39.79
455.26	70.22
455.44	119.37
455.62	77.24
455.81	18.72
455.99	102.98
456.17	35.11
456.36	44.47
456.54	119.37
456.73	67.88
456.91	58.51
457.09	98.30
457.28	72.56
457.46	2.34
457.64	81.92
457.83	56.17
458.01	23.41
458.19	67.88
458.38	53.83
458.56	14.04
458.74	14.04
458.93	81.92
459.11	35.11
459.29	126.39
459.48	4.68
459.66	56.17
459.84	14.04
460.03	0.00
460.21	53.83
460.39	140.43
460.57	44.47
460.76	56.17
460.94	102.98
461.12	84.26
461.31	95.96
461.49	74.90
461.67	49.15
461.85	35.11
462.04	23.41
462.22	105.32
462.40	98.30
462.59	126.39
462.77	53.83
462.95	35.11
463.13	44.47
463.32	37.45
463.50	4.68
463.68	91.28
463.86	58.51
464.05	35.11
464.23	30.43
464.41	65.54
464.59	124.05
464.78	7.02
464.96	23.41
465.14	72.56
465.32	23.41
465.50	16.38
465.69	70.22
465.87	105.32
466.05	72.56
466.23	70.22
466.41	42.13
466.60	77.24
466.78	11.70
466.96	49.15
467.14	0.00
467.32	28.09
467.51	91.28
467.69	0.00
467.87	74.90
468.05	131.07
468.23	51.49
468.41	0.00
468.60	51.49
468.78	63.19
468.96	74.90
469.14	100.64
469.32	18.72
469.50	91.28
469.69	21.06
469.87	102.98
470.05	0.00
470.23	107.66
470.41	0.00
470.59	81.92
470.77	81.92
470.95	51.49
471.14	112.35
471.32	39.79
471.50	102.98
471.68	18.72
471.86	9.36
472.04	37.45
472.22	70.22
472.40	53.83
472.58	56.17
472.77	0.00
472.95	77.24
473.13	51.49
473.31	53.83
473.49	58.51
473.67	53.83
473.85	95.96
474.03	98.30
474.21	42.13
474.39	112.35
474.57	53.83
474.75	70.22
474.93	51.49
475.12	77.24
475.30	51.49
475.48	114.69
475.66	74.90
475.84	58.51
476.02	67.88
476.20	51.49
476.38	119.37
476.56	84.26
476.74	65.54
476.92	63.19
477.10	49.15
477.28	88.94
477.46	0.00
477.64	44.47
477.82	49.15
478.00	14.04
478.18	30.43
478.36	77.24
478.54	4.68
478.72	32.77
478.90	35.11
479.08	79.58
479.26	117.03
479.44	98.30
479.62	117.03
479.80	102.98
479.98	51.49
480.16	67.88
480.34	65.54
480.52	107.66
480.70	28.09
480.88	28.09
481.06	49.15
481.24	74.90
481.41	81.92
481.59	60.85
481.77	81.92
481.95	91.28
482.13	44.47
482.31	98.30
482.49	93.62
482.67	100.64
482.85	86.60
483.03	42.13
483.21	23.41
483.39	65.54
483.57	0.00
483.74	49.15
483.92	53.83
484.10	67.88
484.28	98.30
484.46	0.00
484.64	74.90
484.82	91.28
485.00	91.28
485.18	65.54
485.35	86.60
485.53	72.56
485.71	79.58
485.89	18.72
486.07	21.06
486.25	119.37
486.43	51.49
486.61	9.36
486.78	63.19
486.96	91.28
487.14	74.90
487.32	100.64
487.50	30.43
487.68	53.83
487.85	44.47
488.03	0.00
488.21	51.49
488.39	30.43
488.57	102.98
488.75	126.39
488.92	112.35
489.10	65.54
489.28	107.66
489.46	95.96
489.64	142.77
489.81	67.88
489.99	154.48
490.17	88.94
490.35	81.92
490.53	95.96
490.70	46.81
490.88	65.54
491.06	95.96
491.24	88.94
491.41	4.68
491.59	21.06
491.77	86.60
491.95	107.66
492.13	60.85
492.30	88.94
492.48	98.30
492.66	58.51
492.84	16.38
493.01	56.17
493.19	65.54
493.37	79.58
493.54	58.51
493.72	0.00
493.90	128.73
494.08	114.69
494.25	51.49
494.43	11.70
494.61	44.47
494.79	81.92
494.96	152.13
495.14	100.64
495.32	93.62
495.49	77.24
495.67	70.22
495.85	110.01
496.02	84.26
496.20	152.13
496.38	121.71
496.55	84.26
496.73	86.60
496.91	58.51
497.09	79.58
497.26	16.38
497.44	72.56
497.62	67.88
497.79	105.32
497.97	110.01
498.14	74.90
498.32	77.24
498.50	147.45
498.67	95.96
498.85	77.24
499.03	126.39
499.20	84.26
499.38	91.28
499.56	88.94
499.73	77.24
499.91	44.47
500.08	58.51
500.26	105.32
500.44	60.85
500.61	168.52
500.79	135.75
500.97	42.13
501.14	105.32
501.32	0.00
501.49	53.83
501.67	51.49
501.84	0.00
502.02	7.02
502.20	135.75
502.37	74.90
502.55	63.19
502.72	70.22
502.90	72.56
503.07	107.66
503.25	30.43
503.43	205.97
503.60	93.62
503.78	124.05
503.95	98.30
504.13	98.30
504.30	60.85
504.48	67.88
504.65	77.24
504.83	88.94
505.01	30.43
505.18	110.01
505.36	30.43
505.53	124.05
505.71	102.98
505.88	72.56
506.06	67.88
506.23	63.19
506.41	154.48
506.58	112.35
506.76	91.28
506.93	107.66
507.11	119.37
507.28	18.72
507.46	65.54
507.63	63.19
507.81	79.58
507.98	72.56
508.16	110.01
508.33	91.28
508.50	72.56
508.68	49.15
508.85	93.62
509.03	35.11
509.20	77.24
509.38	44.47
509.55	65.54
509.73	100.64
509.90	67.88
510.08	0.00
510.25	49.15
510.42	60.85
510.60	32.77
510.77	58.51
510.95	91.28
511.12	112.35
511.30	86.60
511.47	86.60
511.64	86.60
511.82	42.13
511.99	70.22
512.17	114.69
512.34	110.01
512.51	42.13
512.69	9.36
512.86	95.96
513.04	88.94
513.21	84.26
513.38	149.79
513.56	126.39
513.73	63.19
513.90	121.71
514.08	145.11
514.25	44.47
514.43	63.19
514.60	72.56
514.77	84.26
514.95	86.60
515.12	70.22
515.29	133.41
515.47	37.45
515.64	88.94
515.81	77.24
515.99	4.68
516.16	126.39
516.33	98.30
516.51	117.03
516.68	67.88
516.85	14.04
517.03	110.01
517.20	140.43
517.37	121.71
517.54	79.58
517.72	46.81
517.89	70.22
518.06	74.90
518.24	128.73
518.41	49.15
518.58	79.58
518.75	42.13
518.93	56.17
519.10	126.39
519.27	44.47
519.45	67.88
519.62	63.19
519.79	159.16
519.96	25.75
520.14	121.71
520.31	46.81
520.48	70.22
520.65	149.79
520.83	98.30
521.00	60.85
521.17	105.32
521.34	107.66
521.52	107.66
521.69	28.09
521.86	100.64
522.03	67.88
522.20	86.60
522.38	98.30
522.55	110.01
522.72	107.66
522.89	51.49
523.07	88.94
523.24	86.60
523.41	39.79
523.58	74.90
523.75	95.96
523.92	110.01
524.10	84.26
524.27	124.05
524.44	187.24
524.61	46.81
524.78	112.35
524.96	126.39
525.13	152.13
525.30	58.51
525.47	105.32
525.64	102.98
525.81	110.01
525.98	46.81
526.16	70.22
526.33	16.38
526.50	49.15
526.67	70.22
526.84	4.68
527.01	60.85
527.18	39.79
527.36	14.04
527.53	117.03
527.70	147.45
527.87	128.73
528.04	100.64
528.21	95.96
528.38	131.07
528.55	70.22
528.72	135.75
528.89	4.68
529.07	110.01
529.24	114.69
529.41	105.32
529.58	67.88
529.75	74.90
529.92	81.92
530.09	81.92
530.26	23.41
530.43	74.90
530.60	114.69
530.77	46.81
530.94	140.43
531.11	110.01
531.28	42.13
531.46	67.88
531.63	88.94
531.80	135.75
531.97	30.43
532.14	100.64
532.31	42.13
532.48	166.18
532.65	72.56
532.82	126.39
532.99	100.64
533.16	133.41
533.33	133.41
533.50	131.07
533.67	110.01
533.84	91.28
534.01	124.05
534.18	93.62
534.35	39.79
534.52	86.60
534.69	46.81
534.86	133.41
535.03	65.54
535.20	79.58
535.37	88.94
535.54	30.43
535.71	114.69
535.88	98.30
536.05	170.86
536.22	133.41
536.38	100.64
536.55	86.60
536.72	77.24
536.89	72.56
537.06	42.13
537.23	184.90
537.40	72.56
537.57	131.07
537.74	114.69
537.91	107.66
538.08	114.69
538.25	95.96
538.42	86.60
538.59	95.96
538.75	23.41
538.92	117.03
539.09	128.73
539.26	117.03
539.43	152.13
539.60	117.03
539.77	70.22
539.94	105.32
540.11	88.94
540.28	42.13
540.44	88.94
540.61	102.98
540.78	107.66
540.95	107.66
541.12	91.28
541.29	88.94
541.46	91.28
541.62	32.77
541.79	84.26
541.96	4.68
542.13	133.41
542.30	84.26
542.47	119.37
542.63	74.90
542.80	91.28
542.97	128.73
543.14	72.56
543.31	110.01
543.48	70.22
543.64	93.62
543.81	114.69
543.98	72.56
544.15	37.45
544.32	110.01
544.48	81.92
544.65	91.28
544.82	107.66
544.99	124.05
545.16	124.05
545.32	91.28
545.49	14.04
545.66	107.66
545.83	95.96
546.00	11.70
546.16	138.09
546.33	81.92
546.50	0.00
546.67	70.22
546.83	28.09
547.00	72.56
547.17	79.58
547.34	77.24
547.50	88.94
547.67	49.15
547.84	114.69
548.00	93.62
548.17	21.06
548.34	72.56
548.51	105.32
548.67	56.17
548.84	86.60
549.01	91.28
549.18	21.06
549.34	0.00
549.51	79.58
549.68	117.03
549.84	86.60
550.01	18.72
550.18	70.22
550.34	133.41
550.51	98.30
550.68	53.83
550.84	44.47
551.01	42.13
551.18	91.28
551.34	102.98
551.51	119.37
551.68	102.98
551.84	49.15
552.01	46.81
552.18	25.75
552.34	114.69
552.51	133.41
552.68	0.00
552.84	35.11
553.01	79.58
553.18	53.83
553.34	53.83
553.51	102.98
553.67	77.24
553.84	11.70
554.01	102.98
554.17	91.28
554.34	72.56
554.51	79.58
554.67	145.11
554.84	65.54
555.00	88.94
555.17	95.96
555.33	60.85
555.50	4.68
555.67	140.43
555.83	53.83
556.00	119.37
556.16	21.06
556.33	60.85
556.50	138.09
556.66	100.64
556.83	154.48
556.99	77.24
557.16	138.09
557.32	107.66
557.49	102.98
557.65	91.28
557.82	114.69
557.98	60.85
558.15	67.88
558.32	32.77
558.48	84.26
558.65	74.90
558.81	98.30
558.98	0.00
559.14	32.77
559.31	114.69
559.47	4.68
559.64	86.60
559.80	65.54
559.97	65.54
560.13	135.75
560.30	93.62
560.46	119.37
560.63	79.58
560.79	72.56
560.96	88.94
561.12	184.90
561.29	95.96
561.45	23.41
561.61	53.83
561.78	105.32
561.94	56.17
562.11	79.58
562.27	119.37
562.44	142.77
562.60	46.81
562.77	86.60
562.93	70.22
563.10	84.26
563.26	117.03
563.42	60.85
563.59	39.79
563.75	46.81
563.92	77.24
564.08	98.30
564.24	65.54
564.41	163.84
564.57	100.64
564.74	98.30
564.90	37.45
565.07	110.01
565.23	74.90
565.39	131.07
565.56	95.96
565.72	46.81
565.88	105.32
566.05	91.28
566.21	51.49
566.38	88.94
566.54	72.56
566.70	49.15
566.87	60.85
567.03	72.56
567.19	100.64
567.36	154.48
567.52	63.19
567.68	14.04
567.85	98.30
568.01	4.68
568.17	25.75
568.34	91.28
568.50	42.13
568.66	60.85
568.83	4.68
568.99	107.66
569.15	88.94
569.32	0.00
569.48	65.54
569.64	70.22
569.81	84.26
569.97	53.83
570.13	14.04
570.30	60.85
570.46	23.41
570.62	53.83
570.78	77.24
570.95	53.83
571.11	37.45
571.27	56.17
571.43	88.94
571.60	114.69
571.76	21.06
571.92	56.17
572.09	110.01
572.25	70.22
572.41	100.64
572.57	49.15
572.74	81.92
572.90	79.58
573.06	112.35
573.22	114.69
573.38	98.30
573.55	32.77
573.71	25.75
573.87	25.75
574.03	51.49
574.20	46.81
574.36	91.28
574.52	93.62
574.68	72.56
574.84	42.13
575.01	67.88
575.17	119.37
575.33	77.24
575.49	72.56
575.65	72.56
575.82	21.06
575.98	126.39
576.14	72.56
576.30	81.92
576.46	98.30
576.62	98.30
576.79	46.81
576.95	72.56
577.11	114.69
577.27	81.92
577.43	142.77
577.59	81.92
577.75	79.58
577.92	98.30
578.08	102.98
578.24	81.92
578.40	65.54
578.56	95.96
578.72	49.15
578.88	133.41
579.04	65.54
579.21	56.17
579.37	51.49
579.53	30.43
579.69	56.17
579.85	93.62
580.01	102.98
580.17	81.92
580.33	65.54
580.49	98.30
580.65	46.81
580.82	65.54
580.98	84.26
581.14	67.88
581.30	105.32
581.46	77.24
581.62	51.49
581.78	117.03
581.94	124.05
582.10	0.00
582.26	93.62
582.42	88.94
582.58	77.24
582.74	72.56
582.90	110.01
583.06	112.35
583.22	35.11
583.38	67.88
583.54	126.39
583.70	100.64
583.86	74.90
584.02	65.54
584.18	93.62
584.34	86.60
584.50	0.00
584.66	102.98
584.82	114.69
584.98	79.58
585.14	49.15
585.30	119.37
585.46	67.88
585.62	30.43
585.78	100.64
585.94	60.85
586.10	91.28
586.26	0.00
586.42	65.54
586.58	100.64
586.74	91.28
586.90	100.64
587.06	91.28
587.22	79.58
587.38	56.17
587.54	156.82
587.70	86.60
587.86	79.58
588.02	70.22
588.18	53.83
588.34	81.92
588.49	65.54
588.65	37.45
588.81	63.19
588.97	135.75
589.13	105.32
589.29	117.03
589.45	98.30
589.61	102.98
589.77	100.64
589.93	133.41
590.08	4.68
590.24	25.75
590.40	142.77
590.56	88.94
590.72	65.54
590.88	74.90
591.04	56.17
591.20	86.60
591.35	63.19
591.51	46.81
591.67	79.58
591.83	60.85
591.99	65.54
592.15	51.49
592.31	119.37
592.46	37.45
592.62	30.43
592.78	117.03
592.94	30.43
593.10	60.85
593.26	100.64
593.41	63.19
593.57	84.26
593.73	18.72
593.89	56.17
594.05	102.98
594.20	81.92
594.36	14.04
594.52	51.49
594.68	100.64
594.84	95.96
594.99	58.51
595.15	37.45
595.31	58.51
595.47	74.90
595.62	95.96
595.78	126.39
595.94	11.70
596.10	11.70
596.25	93.62
596.41	70.22
596.57	53.83
596.73	70.22
596.88	35.11
597.04	72.56
597.20	32.77
597.36	86.60
597.51	79.58
597.67	58.51
597.83	93.62
597.99	60.85
598.14	65.54
598.30	88.94
598.46	63.19
598.61	117.03
598.77	60.85
598.93	65.54
599.09	30.43
599.24	63.19
599.40	147.45
599.56	100.64
599.71	93.62
599.87	44.47
600.03	4.68
600.18	81.92
600.34	98.30
600.50	145.11
600.65	79.58
600.81	60.85
600.97	49.15
601.12	65.54
601.28	102.98
601.44	72.56
601.59	37.45
601.75	67.88
601.91	142.77
602.06	23.41
602.22	42.13
602.37	91.28
602.53	91.28
602.69	65.54
602.84	93.62
603.00	79.58
603.16	0.00
603.31	37.45
603.47	131.07
603.62	112.35
603.78	72.56
603.94	39.79
604.09	72.56
604.25	70.22
604.40	114.69
604.56	95.96
604.71	49.15
604.87	2.34
605.03	79.58
605.18	112.35
605.34	74.90
605.49	53.83
605.65	18.72
605.80	46.81
605.96	187.24
606.12	49.15
606.27	107.66
606.43	23.41
606.58	25.75
606.74	51.49
606.89	35.11
607.05	74.90
607.20	16.38
607.36	110.01
607.51	42.13
607.67	84.26
607.82	58.51
607.98	74.90
608.13	72.56
608.29	119.37
608.44	67.88
608.60	74.90
608.75	46.81
608.91	77.24
609.06	11.70
609.22	70.22
609.37	65.54
609.53	42.13
609.68	93.62
609.84	46.81
609.99	67.88
610.15	51.49
610.30	65.54
610.46	72.56
610.61	53.83
610.76	63.19
610.92	32.77
611.07	102.98
611.23	156.82
611.38	42.13
611.54	86.60
611.69	105.32
611.84	60.85
612.00	91.28
612.15	56.17
612.31	0.00
612.46	39.79
612.62	51.49
612.77	42.13
612.92	0.00
613.08	0.00
613.23	88.94
613.39	86.60
613.54	30.43
613.69	100.64
613.85	30.43
614.00	77.24
614.15	56.17
614.31	58.51
614.46	110.01
614.62	51.49
614.77	60.85
614.92	67.88
615.08	121.71
615.23	84.26
615.38	88.94
615.54	18.72
615.69	39.79
615.84	44.47
616.00	107.66
616.15	91.28
616.30	88.94
616.46	70.22
616.61	42.13
616.76	63.19
616.92	44.47
617.07	84.26
617.22	30.43
617.37	72.56
617.53	156.82
617.68	95.96
617.83	39.79
617.99	72.56
618.14	70.22
618.29	37.45
618.45	72.56
618.60	30.43
618.75	37.45
618.90	100.64
619.06	65.54
619.21	42.13
619.36	56.17
619.51	14.04
619.67	79.58
619.82	25.75
619.97	56.17
620.12	88.94
620.28	63.19
620.43	39.79
620.58	35.11
620.73	95.96
620.89	23.41
621.04	124.05
621.19	86.60
621.34	37.45
621.49	72.56
621.65	72.56
621.80	72.56
621.95	74.90
622.10	37.45
622.25	37.45
622.41	65.54
622.56	49.15
622.71	110.01
622.86	107.66
623.01	65.54
623.16	105.32
623.32	39.79
623.47	91.28
623.62	88.94
623.77	91.28
623.92	49.15
624.07	0.00
624.23	7.02
624.38	112.35
624.53	77.24
624.68	32.77
624.83	124.05
624.98	86.60
625.13	23.41
625.29	21.06
625.44	11.70
625.59	152.13
625.74	46.81
625.89	0.00
626.04	56.17
626.19	114.69
626.34	93.62
626.49	7.02
626.65	63.19
626.80	44.47
626.95	70.22
627.10	42.13
627.25	4.68
627.40	53.83
627.55	107.66
627.70	28.09
627.85	98.30
628.00	49.15
628.15	58.51
628.30	44.47
628.45	0.00
628.60	70.22
628.76	98.30
628.91	58.51
629.06	49.15
629.21	25.75
629.36	93.62
629.51	119.37
629.66	107.66
629.81	58.51
629.96	70.22
630.11	77.24
630.26	46.81
630.41	159.16
630.56	9.36
630.71	14.04
630.86	58.51
631.01	14.04
631.16	32.77
631.31	35.11
631.46	9.36
631.61	37.45
631.76	79.58
631.91	25.75
632.06	112.35
632.21	30.43
632.36	56.17
632.51	117.03
632.66	60.85
632.81	88.94
632.96	124.05
633.10	114.69
633.25	74.90
633.40	16.38
633.55	0.00
633.70	35.11
633.85	56.17
634.00	42.13
634.15	65.54
634.30	84.26
634.45	65.54
634.60	63.19
634.75	88.94
634.90	0.00
635.05	0.00
635.19	72.56
635.34	88.94
635.49	9.36
635.64	60.85
635.79	135.75
635.94	100.64
636.09	0.00
636.24	63.19
636.39	67.88
636.53	60.85
636.68	72.56
636.83	84.26
636.98	35.11
637.13	51.49
637.28	84.26
637.43	74.90
637.57	53.83
637.72	51.49
637.87	110.01
638.02	53.83
638.17	72.56
638.32	77.24
638.46	84.26
638.61	70.22
638.76	65.54
638.91	56.17
639.06	79.58
639.20	11.70
639.35	23.41
639.50	124.05
639.65	91.28
639.80	119.37
639.94	126.39
640.09	102.98
640.24	0.00
640.39	51.49
640.54	63.19
640.68	32.77
640.83	42.13
640.98	39.79
641.13	35.11
641.27	35.11
641.42	81.92
641.57	58.51
641.72	65.54
641.86	58.51
642.01	25.75
642.16	9.36
642.31	65.54
642.45	117.03
642.60	16.38
642.75	51.49
642.90	42.13
643.04	60.85
643.19	35.11
643.34	72.56
643.48	63.19
643.63	28.09
643.78	58.51
643.93	42.13
644.07	93.62
644.22	46.81
644.37	60.85
644.51	11.70
644.66	114.69
644.81	39.79
644.95	42.13
645.10	0.00
645.25	0.00
645.39	23.41
645.54	91.28
645.69	46.81
645.83	0.00
645.98	93.62
646.13	37.45
646.27	56.17
646.42	81.92
646.57	25.75
646.71	14.04
646.86	91.28
647.00	44.47
647.15	51.49
647.30	9.36
647.44	21.06
647.59	114.69
647.74	117.03
647.88	58.51
648.03	39.79
648.17	60.85
648.32	42.13
648.47	51.49
648.61	25.75
648.76	49.15
648.90	9.36
649.05	37.45
649.20	9.36
649.34	30.43
649.49	37.45
649.63	86.60
649.78	114.69
649.92	128.73
650.07	72.56
650.21	51.49
650.36	0.00
650.51	79.58
650.65	126.39
650.80	11.70
650.94	58.51
651.09	49.15
651.23	72.56
651.38	0.00
651.52	70.22
651.67	46.81
651.81	0.00
651.96	79.58
652.10	84.26
652.25	63.19
652.39	91.28
652.54	28.09
652.68	65.54
652.83	74.90
652.97	70.22
653.12	30.43
653.26	28.09
653.41	42.13
653.55	88.94
653.70	44.47
653.84	93.62
653.99	105.32
654.13	72.56
654.27	60.85
654.42	77.24
654.56	35.11
654.71	53.83
654.85	0.00
655.00	65.54
655.14	23.41
655.29	21.06
655.43	65.54
655.57	25.75
655.72	102.98
655.86	51.49
656.01	98.30
656.15	37.45
656.30	28.09
656.44	86.60
656.58	56.17
656.73	39.79
656.87	42.13
657.01	79.58
657.16	23.41
657.30	51.49
657.45	28.09
657.59	74.90
657.73	88.94
657.88	21.06
658.02	67.88
658.16	77.24
658.31	65.54
658.45	16.38
658.60	32.77
658.74	9.36
658.88	98.30
659.03	72.56
659.17	58.51
659.31	49.15
659.46	42.13
659.60	56.17
659.74	0.00
659.89	53.83
660.03	60.85
660.17	107.66
660.32	14.04
660.46	30.43
660.60	110.01
660.74	0.00
660.89	9.36
661.03	42.13
661.17	28.09
661.32	74.90
661.46	53.83
661.60	42.13
661.74	23.41
661.89	98.30
662.03	4.68
662.17	58.51
662.31	14.04
662.46	51.49
662.60	107.66
662.74	16.38
662.88	7.02
663.03	79.58
663.17	9.36
663.31	65.54
663.45	159.16
663.60	67.88
663.74	65.54
663.88	56.17
664.02	37.45
664.17	79.58
664.31	86.60
664.45	140.43
664.59	30.43
664.73	42.13
664.88	138.09
665.02	21.06
665.16	70.22
665.30	0.00
665.44	16.38
665.59	42.13
665.73	30.43
665.87	37.45
666.01	14.04
666.15	21.06
666.29	63.19
666.44	0.00
666.58	72.56
666.72	53.83
666.86	58.51
667.00	0.00
667.14	0.00
667.28	58.51
667.43	84.26
667.57	18.72
667.71	16.38
667.85	0.00
667.99	102.98
668.13	28.09
668.27	74.90
668.41	30.43
668.56	39.79
668.70	28.09
668.84	18.72
668.98	102.98
669.12	35.11
669.26	56.17
669.40	67.88
669.54	95.96
669.68	95.96
669.82	53.83
669.96	53.83
670.10	126.39
670.25	53.83
670.39	37.45
670.53	98.30
670.67	117.03
670.81	121.71
670.95	53.83
671.09	58.51
671.23	60.85
671.37	93.62
671.51	53.83
671.65	79.58
671.79	91.28
671.93	131.07
672.07	91.28
672.21	46.81
672.35	67.88
672.49	23.41
672.63	32.77
672.77	2.34
672.91	86.60
673.05	46.81
673.19	7.02
673.33	58.51
673.47	154.48
673.61	11.70
673.75	4.68
673.89	60.85
674.03	14.04
674.17	42.13
674.31	79.58
674.45	107.66
674.59	51.49
674.73	11.70
674.87	0.00
675.01	4.68
675.15	119.37
675.29	56.17
675.43	81.92
675.56	102.98
675.70	95.96
675.84	0.00
675.98	37.45
676.12	70.22
676.26	56.17
676.40	98.30
676.54	42.13
676.68	0.00
676.82	67.88
676.96	60.85
677.10	81.92
677.23	88.94
677.37	58.51
677.51	58.51
677.65	49.15
677.79	39.79
677.93	30.43
678.07	35.11
678.21	56.17
678.34	28.09
678.48	53.83
678.62	11.70
678.76	0.00
678.90	37.45
679.04	53.83
679.18	35.11
679.31	56.17
679.45	74.90
679.59	88.94
679.73	0.00
679.87	63.19
680.00	72.56
680.14	100.64
680.28	74.90
680.42	98.30
680.56	0.00
680.70	53.83
680.83	32.77
680.97	44.47
681.11	100.64
681.25	4.68
681.39	0.00
681.52	51.49
681.66	72.56
681.80	18.72
681.94	30.43
682.07	53.83
682.21	60.85
682.35	37.45
682.49	105.32
682.62	7.02
682.76	93.62
682.90	28.09
683.04	23.41
683.17	0.00
683.31	145.11
683.45	32.77
683.59	121.71
683.72	7.02
683.86	56.17
684.00	18.72
684.13	49.15
684.27	2.34
684.41	63.19
684.55	88.94
684.68	63.19
684.82	77.24
684.96	16.38
685.09	60.85
685.23	102.98
685.37	79.58
685.50	0.00
685.64	79.58
685.78	39.79
685.91	21.06
686.05	110.01
686.19	88.94
686.32	25.75
686.46	88.94
686.60	0.00
686.73	18.72
686.87	37.45
687.01	35.11
687.14	25.75
687.28	51.49
687.42	28.09
687.55	11.70
687.69	16.38
687.82	88.94
687.96	60.85
688.10	65.54
688.23	74.90
688.37	39.79
688.50	0.00
688.64	21.06
688.78	16.38
688.91	86.60
689.05	11.70
689.18	51.49
689.32	18.72
689.46	0.00
689.59	77.24
689.73	21.06
689.86	0.00
690.00	23.41
690.13	9.36
690.27	70.22
690.41	81.92
690.54	0.00
690.68	112.35
690.81	37.45
690.95	37.45
691.08	105.32
691.22	32.77
691.35	86.60
691.49	9.36
691.62	0.00
691.76	0.00
691.89	42.13
692.03	0.00
692.16	11.70
692.30	63.19
692.43	0.00
692.57	0.00
692.70	9.36
692.84	21.06
692.97	28.09
693.11	86.60
693.24	23.41
693.38	25.75
693.51	7.02
693.65	11.70
693.78	37.45
693.92	16.38
694.05	81.92
694.19	11.70
694.32	42.13
694.45	0.00
694.59	0.00
694.72	11.70
694.86	39.79
694.99	21.06
695.13	16.38
695.26	0.00
695.39	21.06
695.53	112.35
695.66	28.09
695.80	63.19
695.93	9.36
696.07	21.06
696.20	46.81
696.33	56.17
696.47	46.81
696.60	39.79
696.73	91.28
696.87	21.06
697.00	37.45
697.14	42.13
697.27	0.00
697.40	77.24
697.54	93.62
697.67	0.00
697.80	0.00
697.94	14.04
698.07	28.09
698.21	84.26
698.34	9.36
698.47	100.64
698.61	79.58
698.74	63.19
698.87	0.00
699.01	25.75
699.14	110.01
699.27	0.00
699.40	53.83
699.54	70.22
699.67	44.47
699.80	0.00
699.94	98.30
700.07	14.04
700.20	0.00
700.34	53.83
700.47	0.00
700.60	16.38
700.73	32.77
700.87	0.00
701.00	2.34
701.13	0.00
701.26	51.49
701.40	0.00
701.53	79.58
701.66	98.30
701.79	11.70
701.93	86.60
702.06	28.09
702.19	23.41
702.32	0.00
702.46	58.51
702.59	65.54
702.72	23.41
702.85	60.85
702.99	0.00
703.12	56.17
703.25	70.22
703.38	14.04
703.51	70.22
703.65	65.54
703.78	21.06
703.91	44.47
704.04	42.13
704.17	63.19
704.31	18.72
704.44	72.56
704.57	98.30
704.70	72.56
704.83	74.90
704.96	9.36
705.10	93.62
705.23	32.77
>>>>>End Processed Spectral Data<<<<<
