SpectraSuite Data File
++++++++++++++++++++++++++++++++++++
Date: Fri Oct 04 12:13:25 GMT-05:00 2013
User: price-jones
Dark Spectrum Present: No
Reference Spectrum Present: No
Number of Sampled Component Spectra: 1
Spectrometers: USB2+H05261
Integration Time (usec): 10000 (USB2+H05261)
Spectra Averaged: 1 (USB2+H05261)
Boxcar Smoothing: 0 (USB2+H05261)
Correct for Electrical Dark: No (USB2+H05261)
Strobe/Lamp Enabled: No (USB2+H05261)
Correct for Detector Non-linearity: No (USB2+H05261)
Correct for Stray Light: No (USB2+H05261)
Number of Pixels in Processed Spectrum: 2048
>>>>>Begin Processed Spectral Data<<<<<
365.73	0.00
365.92	0.00
366.12	0.00
366.32	0.00
366.52	0.00
366.72	0.00
366.91	0.00
367.11	0.00
367.31	0.00
367.51	0.00
367.70	0.00
367.90	0.00
368.10	0.00
368.30	0.00
368.49	0.00
368.69	0.00
368.89	0.00
369.09	0.00
369.28	0.00
369.48	0.00
369.68	0.00
369.87	0.00
370.07	0.00
370.27	0.00
370.47	0.00
370.66	0.00
370.86	0.00
371.06	0.00
371.25	0.00
371.45	0.00
371.65	0.00
371.84	0.00
372.04	9.36
372.24	32.77
372.44	0.00
372.63	0.00
372.83	18.72
373.03	0.00
373.22	28.09
373.42	0.00
373.62	28.09
373.81	28.09
374.01	9.36
374.21	0.00
374.40	56.17
374.60	39.79
374.79	74.90
374.99	11.70
375.19	32.77
375.38	0.00
375.58	49.15
375.78	18.72
375.97	25.75
376.17	77.24
376.37	77.24
376.56	0.00
376.76	42.13
376.95	60.85
377.15	49.15
377.35	74.90
377.54	0.00
377.74	70.22
377.93	0.00
378.13	86.60
378.33	53.83
378.52	112.35
378.72	0.00
378.91	16.38
379.11	63.19
379.31	7.02
379.50	0.00
379.70	37.45
379.89	28.09
380.09	0.00
380.28	0.00
380.48	14.04
380.68	60.85
380.87	0.00
381.07	63.19
381.26	0.00
381.46	0.00
381.65	9.36
381.85	77.24
382.04	56.17
382.24	2.34
382.43	0.00
382.63	0.00
382.83	70.22
383.02	51.49
383.22	56.17
383.41	0.00
383.61	30.43
383.80	0.00
384.00	30.43
384.19	44.47
384.39	65.54
384.58	46.81
384.78	74.90
384.97	9.36
385.17	100.64
385.36	93.62
385.56	72.56
385.75	0.00
385.95	37.45
386.14	16.38
386.34	51.49
386.53	0.00
386.72	37.45
386.92	18.72
387.11	0.00
387.31	11.70
387.50	0.00
387.70	4.68
387.89	65.54
388.09	0.00
388.28	25.75
388.48	9.36
388.67	56.17
388.86	2.34
389.06	44.47
389.25	21.06
389.45	112.35
389.64	60.85
389.84	0.00
390.03	0.00
390.22	39.79
390.42	42.13
390.61	0.00
390.81	0.00
391.00	81.92
391.19	0.00
391.39	72.56
391.58	44.47
391.78	79.58
391.97	9.36
392.16	0.00
392.36	30.43
392.55	0.00
392.75	0.00
392.94	14.04
393.13	0.00
393.33	0.00
393.52	28.09
393.71	18.72
393.91	25.75
394.10	42.13
394.29	0.00
394.49	30.43
394.68	44.47
394.88	39.79
395.07	32.77
395.26	25.75
395.46	28.09
395.65	0.00
395.84	16.38
396.04	25.75
396.23	16.38
396.42	49.15
396.62	0.00
396.81	49.15
397.00	23.41
397.19	79.58
397.39	49.15
397.58	58.51
397.77	0.00
397.97	0.00
398.16	0.00
398.35	0.00
398.55	0.00
398.74	0.00
398.93	42.13
399.12	42.13
399.32	49.15
399.51	25.75
399.70	37.45
399.90	25.75
400.09	37.45
400.28	30.43
400.47	0.00
400.67	39.79
400.86	0.00
401.05	46.81
401.24	7.02
401.44	35.11
401.63	39.79
401.82	49.15
402.01	0.00
402.21	32.77
402.40	25.75
402.59	28.09
402.78	32.77
402.97	0.00
403.17	51.49
403.36	51.49
403.55	14.04
403.74	0.00
403.93	0.00
404.13	25.75
404.32	0.00
404.51	23.41
404.70	37.45
404.89	56.17
405.09	58.51
405.28	74.90
405.47	72.56
405.66	60.85
405.85	93.62
406.05	93.62
406.24	2.34
406.43	0.00
406.62	7.02
406.81	14.04
407.00	14.04
407.20	21.06
407.39	0.00
407.58	60.85
407.77	0.00
407.96	0.00
408.15	105.32
408.34	4.68
408.54	0.00
408.73	58.51
408.92	23.41
409.11	46.81
409.30	0.00
409.49	11.70
409.68	72.56
409.87	42.13
410.07	46.81
410.26	2.34
410.45	16.38
410.64	16.38
410.83	42.13
411.02	37.45
411.21	67.88
411.40	39.79
411.59	0.00
411.78	21.06
411.98	16.38
412.17	32.77
412.36	7.02
412.55	0.00
412.74	72.56
412.93	9.36
413.12	18.72
413.31	0.00
413.50	9.36
413.69	0.00
413.88	42.13
414.07	18.72
414.26	0.00
414.45	21.06
414.64	0.00
414.83	30.43
415.02	67.88
415.22	67.88
415.41	0.00
415.60	4.68
415.79	11.70
415.98	44.47
416.17	65.54
416.36	0.00
416.55	44.47
416.74	81.92
416.93	39.79
417.12	7.02
417.31	30.43
417.50	35.11
417.69	46.81
417.88	0.00
418.07	0.00
418.26	46.81
418.45	65.54
418.64	51.49
418.83	23.41
419.02	11.70
419.21	107.66
419.39	11.70
419.58	42.13
419.77	30.43
419.96	2.34
420.15	35.11
420.34	4.68
420.53	25.75
420.72	37.45
420.91	39.79
421.10	21.06
421.29	51.49
421.48	0.00
421.67	84.26
421.86	65.54
422.05	0.00
422.24	37.45
422.43	74.90
422.61	37.45
422.80	0.00
422.99	18.72
423.18	14.04
423.37	49.15
423.56	14.04
423.75	0.00
423.94	16.38
424.13	84.26
424.32	4.68
424.50	0.00
424.69	0.00
424.88	42.13
425.07	65.54
425.26	16.38
425.45	173.20
425.64	0.00
425.83	53.83
426.01	39.79
426.20	0.00
426.39	65.54
426.58	49.15
426.77	58.51
426.96	81.92
427.15	16.38
427.33	11.70
427.52	49.15
427.71	0.00
427.90	0.00
428.09	65.54
428.28	25.75
428.46	2.34
428.65	9.36
428.84	16.38
429.03	0.00
429.22	30.43
429.40	53.83
429.59	67.88
429.78	46.81
429.97	81.92
430.16	53.83
430.34	39.79
430.53	0.00
430.72	86.60
430.91	0.00
431.10	25.75
431.28	53.83
431.47	0.00
431.66	21.06
431.85	138.09
432.03	0.00
432.22	18.72
432.41	86.60
432.60	30.43
432.79	0.00
432.97	56.17
433.16	25.75
433.35	0.00
433.54	42.13
433.72	35.11
433.91	0.00
434.10	39.79
434.28	60.85
434.47	0.00
434.66	0.00
434.85	93.62
435.03	51.49
435.22	32.77
435.41	70.22
435.59	16.38
435.78	30.43
435.97	0.00
436.16	0.00
436.34	28.09
436.53	0.00
436.72	11.70
436.90	79.58
437.09	86.60
437.28	0.00
437.46	32.77
437.65	79.58
437.84	0.00
438.02	30.43
438.21	35.11
438.40	32.77
438.58	9.36
438.77	14.04
438.96	0.00
439.14	0.00
439.33	0.00
439.52	88.94
439.70	0.00
439.89	44.47
440.08	30.43
440.26	67.88
440.45	0.00
440.63	7.02
440.82	0.00
441.01	56.17
441.19	0.00
441.38	0.00
441.57	0.00
441.75	42.13
441.94	51.49
442.12	0.00
442.31	51.49
442.50	18.72
442.68	0.00
442.87	7.02
443.05	2.34
443.24	77.24
443.43	14.04
443.61	0.00
443.80	56.17
443.98	23.41
444.17	51.49
444.35	0.00
444.54	91.28
444.73	32.77
444.91	79.58
445.10	60.85
445.28	63.19
445.47	44.47
445.65	25.75
445.84	81.92
446.02	0.00
446.21	16.38
446.39	39.79
446.58	65.54
446.77	35.11
446.95	11.70
447.14	56.17
447.32	105.32
447.51	0.00
447.69	95.96
447.88	35.11
448.06	0.00
448.25	44.47
448.43	0.00
448.62	0.00
448.80	93.62
448.99	53.83
449.17	9.36
449.36	2.34
449.54	25.75
449.73	7.02
449.91	4.68
450.10	37.45
450.28	32.77
450.46	58.51
450.65	35.11
450.83	25.75
451.02	37.45
451.20	56.17
451.39	11.70
451.57	63.19
451.76	63.19
451.94	16.38
452.13	0.00
452.31	49.15
452.49	44.47
452.68	77.24
452.86	16.38
453.05	39.79
453.23	21.06
453.42	77.24
453.60	63.19
453.78	0.00
453.97	67.88
454.15	42.13
454.34	67.88
454.52	0.00
454.70	53.83
454.89	0.00
455.07	53.83
455.26	11.70
455.44	35.11
455.62	4.68
455.81	53.83
455.99	37.45
456.17	0.00
456.36	0.00
456.54	25.75
456.73	0.00
456.91	56.17
457.09	21.06
457.28	23.41
457.46	25.75
457.64	65.54
457.83	28.09
458.01	93.62
458.19	67.88
458.38	37.45
458.56	44.47
458.74	46.81
458.93	39.79
459.11	0.00
459.29	0.00
459.48	60.85
459.66	23.41
459.84	4.68
460.03	16.38
460.21	72.56
460.39	56.17
460.57	51.49
460.76	105.32
460.94	39.79
461.12	0.00
461.31	9.36
461.49	14.04
461.67	21.06
461.85	35.11
462.04	0.00
462.22	72.56
462.40	14.04
462.59	7.02
462.77	23.41
462.95	7.02
463.13	56.17
463.32	37.45
463.50	37.45
463.68	28.09
463.86	25.75
464.05	67.88
464.23	53.83
464.41	0.00
464.59	2.34
464.78	72.56
464.96	0.00
465.14	56.17
465.32	42.13
465.50	28.09
465.69	21.06
465.87	2.34
466.05	0.00
466.23	39.79
466.41	53.83
466.60	21.06
466.78	0.00
466.96	91.28
467.14	16.38
467.32	32.77
467.51	14.04
467.69	49.15
467.87	7.02
468.05	14.04
468.23	0.00
468.41	72.56
468.60	67.88
468.78	138.09
468.96	53.83
469.14	0.00
469.32	0.00
469.50	98.30
469.69	9.36
469.87	18.72
470.05	0.00
470.23	88.94
470.41	23.41
470.59	53.83
470.77	46.81
470.95	0.00
471.14	0.00
471.32	0.00
471.50	56.17
471.68	21.06
471.86	30.43
472.04	77.24
472.22	30.43
472.40	0.00
472.58	11.70
472.77	35.11
472.95	35.11
473.13	86.60
473.31	7.02
473.49	0.00
473.67	0.00
473.85	9.36
474.03	16.38
474.21	23.41
474.39	67.88
474.57	56.17
474.75	0.00
474.93	23.41
475.12	39.79
475.30	46.81
475.48	37.45
475.66	67.88
475.84	0.00
476.02	49.15
476.20	23.41
476.38	79.58
476.56	79.58
476.74	0.00
476.92	16.38
477.10	23.41
477.28	0.00
477.46	0.00
477.64	30.43
477.82	25.75
478.00	49.15
478.18	98.30
478.36	0.00
478.54	58.51
478.72	7.02
478.90	7.02
479.08	95.96
479.26	25.75
479.44	37.45
479.62	0.00
479.80	46.81
479.98	65.54
480.16	72.56
480.34	0.00
480.52	16.38
480.70	28.09
480.88	77.24
481.06	16.38
481.24	0.00
481.41	16.38
481.59	16.38
481.77	63.19
481.95	16.38
482.13	9.36
482.31	9.36
482.49	39.79
482.67	32.77
482.85	39.79
483.03	44.47
483.21	7.02
483.39	28.09
483.57	14.04
483.74	74.90
483.92	42.13
484.10	65.54
484.28	0.00
484.46	25.75
484.64	0.00
484.82	21.06
485.00	0.00
485.18	42.13
485.35	9.36
485.53	51.49
485.71	49.15
485.89	37.45
486.07	0.00
486.25	28.09
486.43	39.79
486.61	0.00
486.78	25.75
486.96	30.43
487.14	0.00
487.32	25.75
487.50	7.02
487.68	39.79
487.85	30.43
488.03	0.00
488.21	37.45
488.39	67.88
488.57	86.60
488.75	30.43
488.92	30.43
489.10	28.09
489.28	60.85
489.46	16.38
489.64	11.70
489.81	51.49
489.99	53.83
490.17	9.36
490.35	9.36
490.53	0.00
490.70	14.04
490.88	37.45
491.06	18.72
491.24	9.36
491.41	9.36
491.59	49.15
491.77	98.30
491.95	0.00
492.13	46.81
492.30	0.00
492.48	23.41
492.66	100.64
492.84	0.00
493.01	23.41
493.19	44.47
493.37	0.00
493.54	37.45
493.72	0.00
493.90	0.00
494.08	37.45
494.25	32.77
494.43	18.72
494.61	65.54
494.79	131.07
494.96	77.24
495.14	32.77
495.32	2.34
495.49	77.24
495.67	0.00
495.85	0.00
496.02	46.81
496.20	39.79
496.38	42.13
496.55	30.43
496.73	0.00
496.91	23.41
497.09	14.04
497.26	72.56
497.44	51.49
497.62	72.56
497.79	0.00
497.97	42.13
498.14	28.09
498.32	21.06
498.50	53.83
498.67	28.09
498.85	126.39
499.03	0.00
499.20	0.00
499.38	23.41
499.56	0.00
499.73	114.69
499.91	0.00
500.08	51.49
500.26	0.00
500.44	46.81
500.61	86.60
500.79	84.26
500.97	0.00
501.14	124.05
501.32	32.77
501.49	25.75
501.67	4.68
501.84	9.36
502.02	30.43
502.20	60.85
502.37	67.88
502.55	32.77
502.72	0.00
502.90	0.00
503.07	60.85
503.25	79.58
503.43	25.75
503.60	32.77
503.78	32.77
503.95	42.13
504.13	110.01
504.30	95.96
504.48	32.77
504.65	77.24
504.83	18.72
505.01	51.49
505.18	0.00
505.36	0.00
505.53	42.13
505.71	0.00
505.88	81.92
506.06	32.77
506.23	0.00
506.41	30.43
506.58	7.02
506.76	14.04
506.93	23.41
507.11	28.09
507.28	42.13
507.46	28.09
507.63	0.00
507.81	53.83
507.98	32.77
508.16	2.34
508.33	28.09
508.50	53.83
508.68	21.06
508.85	44.47
509.03	46.81
509.20	7.02
509.38	51.49
509.55	37.45
509.73	32.77
509.90	11.70
510.08	67.88
510.25	42.13
510.42	58.51
510.60	0.00
510.77	18.72
510.95	86.60
511.12	2.34
511.30	86.60
511.47	91.28
511.64	81.92
511.82	100.64
511.99	72.56
512.17	49.15
512.34	70.22
512.51	70.22
512.69	7.02
512.86	46.81
513.04	77.24
513.21	42.13
513.38	35.11
513.56	37.45
513.73	25.75
513.90	30.43
514.08	28.09
514.25	51.49
514.43	77.24
514.60	0.00
514.77	0.00
514.95	23.41
515.12	9.36
515.29	0.00
515.47	11.70
515.64	0.00
515.81	100.64
515.99	77.24
516.16	7.02
516.33	0.00
516.51	81.92
516.68	18.72
516.85	0.00
517.03	53.83
517.20	21.06
517.37	18.72
517.54	46.81
517.72	0.00
517.89	0.00
518.06	46.81
518.24	0.00
518.41	35.11
518.58	0.00
518.75	42.13
518.93	11.70
519.10	60.85
519.27	91.28
519.45	65.54
519.62	23.41
519.79	53.83
519.96	56.17
520.14	63.19
520.31	70.22
520.48	0.00
520.65	0.00
520.83	0.00
521.00	58.51
521.17	9.36
521.34	110.01
521.52	44.47
521.69	37.45
521.86	42.13
522.03	86.60
522.20	53.83
522.38	63.19
522.55	35.11
522.72	88.94
522.89	74.90
523.07	93.62
523.24	2.34
523.41	166.18
523.58	86.60
523.75	65.54
523.92	7.02
524.10	63.19
524.27	0.00
524.44	9.36
524.61	32.77
524.78	0.00
524.96	42.13
525.13	49.15
525.30	0.00
525.47	37.45
525.64	65.54
525.81	74.90
525.98	0.00
526.16	74.90
526.33	14.04
526.50	49.15
526.67	32.77
526.84	56.17
527.01	65.54
527.18	35.11
527.36	35.11
527.53	35.11
527.70	4.68
527.87	9.36
528.04	0.00
528.21	77.24
528.38	23.41
528.55	86.60
528.72	58.51
528.89	39.79
529.07	74.90
529.24	23.41
529.41	79.58
529.58	30.43
529.75	42.13
529.92	91.28
530.09	37.45
530.26	56.17
530.43	86.60
530.60	119.37
530.77	44.47
530.94	0.00
531.11	23.41
531.28	30.43
531.46	7.02
531.63	7.02
531.80	49.15
531.97	39.79
532.14	16.38
532.31	39.79
532.48	51.49
532.65	32.77
532.82	0.00
532.99	21.06
533.16	32.77
533.33	30.43
533.50	30.43
533.67	39.79
533.84	84.26
534.01	63.19
534.18	100.64
534.35	70.22
534.52	65.54
534.69	30.43
534.86	56.17
535.03	60.85
535.20	21.06
535.37	65.54
535.54	0.00
535.71	65.54
535.88	0.00
536.05	2.34
536.22	58.51
536.38	0.00
536.55	39.79
536.72	44.47
536.89	51.49
537.06	32.77
537.23	32.77
537.40	18.72
537.57	0.00
537.74	21.06
537.91	0.00
538.08	7.02
538.25	16.38
538.42	11.70
538.59	28.09
538.75	39.79
538.92	0.00
539.09	0.00
539.26	37.45
539.43	21.06
539.60	74.90
539.77	53.83
539.94	0.00
540.11	32.77
540.28	35.11
540.44	32.77
540.61	35.11
540.78	16.38
540.95	53.83
541.12	11.70
541.29	112.35
541.46	53.83
541.62	67.88
541.79	28.09
541.96	67.88
542.13	51.49
542.30	25.75
542.47	56.17
542.63	28.09
542.80	46.81
542.97	4.68
543.14	0.00
543.31	7.02
543.48	72.56
543.64	51.49
543.81	21.06
543.98	56.17
544.15	51.49
544.32	72.56
544.48	56.17
544.65	105.32
544.82	0.00
544.99	11.70
545.16	0.00
545.32	0.00
545.49	21.06
545.66	81.92
545.83	7.02
546.00	18.72
546.16	28.09
546.33	21.06
546.50	42.13
546.67	46.81
546.83	60.85
547.00	77.24
547.17	84.26
547.34	84.26
547.50	9.36
547.67	56.17
547.84	7.02
548.00	9.36
548.17	84.26
548.34	2.34
548.51	79.58
548.67	46.81
548.84	46.81
549.01	37.45
549.18	37.45
549.34	14.04
549.51	65.54
549.68	74.90
549.84	30.43
550.01	93.62
550.18	70.22
550.34	105.32
550.51	72.56
550.68	84.26
550.84	91.28
551.01	67.88
551.18	44.47
551.34	56.17
551.51	35.11
551.68	9.36
551.84	107.66
552.01	0.00
552.18	32.77
552.34	88.94
552.51	51.49
552.68	37.45
552.84	18.72
553.01	51.49
553.18	0.00
553.34	32.77
553.51	30.43
553.67	60.85
553.84	77.24
554.01	25.75
554.17	77.24
554.34	56.17
554.51	14.04
554.67	35.11
554.84	32.77
555.00	44.47
555.17	11.70
555.33	0.00
555.50	25.75
555.67	28.09
555.83	91.28
556.00	114.69
556.16	53.83
556.33	23.41
556.50	56.17
556.66	28.09
556.83	37.45
556.99	65.54
557.16	95.96
557.32	30.43
557.49	60.85
557.65	25.75
557.82	0.00
557.98	9.36
558.15	0.00
558.32	70.22
558.48	70.22
558.65	7.02
558.81	0.00
558.98	14.04
559.14	74.90
559.31	30.43
559.47	7.02
559.64	42.13
559.80	117.03
559.97	44.47
560.13	32.77
560.30	63.19
560.46	112.35
560.63	42.13
560.79	84.26
560.96	9.36
561.12	30.43
561.29	16.38
561.45	32.77
561.61	0.00
561.78	35.11
561.94	16.38
562.11	32.77
562.27	42.13
562.44	53.83
562.60	79.58
562.77	32.77
562.93	9.36
563.10	42.13
563.26	32.77
563.42	9.36
563.59	65.54
563.75	53.83
563.92	0.00
564.08	30.43
564.24	4.68
564.41	35.11
564.57	18.72
564.74	9.36
564.90	107.66
565.07	21.06
565.23	0.00
565.39	32.77
565.56	72.56
565.72	77.24
565.88	35.11
566.05	49.15
566.21	4.68
566.38	98.30
566.54	60.85
566.70	4.68
566.87	0.00
567.03	46.81
567.19	30.43
567.36	37.45
567.52	49.15
567.68	4.68
567.85	39.79
568.01	81.92
568.17	72.56
568.34	0.00
568.50	0.00
568.66	39.79
568.83	2.34
568.99	60.85
569.15	58.51
569.32	14.04
569.48	88.94
569.64	49.15
569.81	21.06
569.97	102.98
570.13	4.68
570.30	32.77
570.46	77.24
570.62	138.09
570.78	91.28
570.95	37.45
571.11	67.88
571.27	58.51
571.43	11.70
571.60	35.11
571.76	0.00
571.92	67.88
572.09	60.85
572.25	124.05
572.41	72.56
572.57	72.56
572.74	37.45
572.90	0.00
573.06	32.77
573.22	95.96
573.38	46.81
573.55	30.43
573.71	121.71
573.87	49.15
574.03	14.04
574.20	35.11
574.36	81.92
574.52	35.11
574.68	49.15
574.84	32.77
575.01	0.00
575.17	49.15
575.33	67.88
575.49	51.49
575.65	18.72
575.82	35.11
575.98	77.24
576.14	74.90
576.30	110.01
576.46	58.51
576.62	60.85
576.79	84.26
576.95	49.15
577.11	0.00
577.27	60.85
577.43	28.09
577.59	72.56
577.75	0.00
577.92	11.70
578.08	18.72
578.24	79.58
578.40	51.49
578.56	53.83
578.72	56.17
578.88	60.85
579.04	25.75
579.21	0.00
579.37	56.17
579.53	39.79
579.69	77.24
579.85	16.38
580.01	32.77
580.17	53.83
580.33	53.83
580.49	0.00
580.65	35.11
580.82	81.92
580.98	7.02
581.14	46.81
581.30	86.60
581.46	65.54
581.62	9.36
581.78	110.01
581.94	149.79
582.10	100.64
582.26	70.22
582.42	51.49
582.58	23.41
582.74	65.54
582.90	126.39
583.06	25.75
583.22	21.06
583.38	23.41
583.54	105.32
583.70	23.41
583.86	25.75
584.02	30.43
584.18	16.38
584.34	100.64
584.50	44.47
584.66	102.98
584.82	0.00
584.98	51.49
585.14	35.11
585.30	72.56
585.46	77.24
585.62	60.85
585.78	30.43
585.94	30.43
586.10	18.72
586.26	51.49
586.42	0.00
586.58	9.36
586.74	0.00
586.90	72.56
587.06	25.75
587.22	0.00
587.38	39.79
587.54	35.11
587.70	86.60
587.86	53.83
588.02	58.51
588.18	30.43
588.34	39.79
588.49	42.13
588.65	74.90
588.81	42.13
588.97	51.49
589.13	4.68
589.29	63.19
589.45	65.54
589.61	32.77
589.77	0.00
589.93	28.09
590.08	58.51
590.24	70.22
590.40	16.38
590.56	0.00
590.72	67.88
590.88	51.49
591.04	63.19
591.20	39.79
591.35	18.72
591.51	0.00
591.67	4.68
591.83	14.04
591.99	105.32
592.15	9.36
592.31	88.94
592.46	159.16
592.62	37.45
592.78	117.03
592.94	51.49
593.10	74.90
593.26	0.00
593.41	32.77
593.57	18.72
593.73	79.58
593.89	16.38
594.05	72.56
594.20	7.02
594.36	63.19
594.52	4.68
594.68	46.81
594.84	91.28
594.99	102.98
595.15	9.36
595.31	23.41
595.47	93.62
595.62	56.17
595.78	0.00
595.94	0.00
596.10	70.22
596.25	70.22
596.41	114.69
596.57	67.88
596.73	18.72
596.88	49.15
597.04	32.77
597.20	23.41
597.36	18.72
597.51	58.51
597.67	37.45
597.83	51.49
597.99	16.38
598.14	93.62
598.30	7.02
598.46	93.62
598.61	25.75
598.77	91.28
598.93	37.45
599.09	0.00
599.24	0.00
599.40	110.01
599.56	58.51
599.71	0.00
599.87	0.00
600.03	11.70
600.18	65.54
600.34	86.60
600.50	0.00
600.65	0.00
600.81	4.68
600.97	25.75
601.12	28.09
601.28	81.92
601.44	21.06
601.59	37.45
601.75	0.00
601.91	4.68
602.06	0.00
602.22	37.45
602.37	0.00
602.53	14.04
602.69	124.05
602.84	18.72
603.00	88.94
603.16	63.19
603.31	18.72
603.47	49.15
603.62	70.22
603.78	0.00
603.94	16.38
604.09	86.60
604.25	28.09
604.40	18.72
604.56	9.36
604.71	65.54
604.87	0.00
605.03	63.19
605.18	32.77
605.34	25.75
605.49	28.09
605.65	11.70
605.80	51.49
605.96	53.83
606.12	70.22
606.27	95.96
606.43	25.75
606.58	11.70
606.74	25.75
606.89	67.88
607.05	51.49
607.20	42.13
607.36	0.00
607.51	32.77
607.67	70.22
607.82	49.15
607.98	18.72
608.13	72.56
608.29	0.00
608.44	35.11
608.60	67.88
608.75	98.30
608.91	0.00
609.06	0.00
609.22	11.70
609.37	42.13
609.53	0.00
609.68	0.00
609.84	28.09
609.99	46.81
610.15	18.72
610.30	4.68
610.46	35.11
610.61	23.41
610.76	28.09
610.92	7.02
611.07	0.00
611.23	28.09
611.38	32.77
611.54	49.15
611.69	7.02
611.84	67.88
612.00	58.51
612.15	0.00
612.31	16.38
612.46	53.83
612.62	67.88
612.77	74.90
612.92	124.05
613.08	37.45
613.23	72.56
613.39	35.11
613.54	0.00
613.69	74.90
613.85	0.00
614.00	44.47
614.15	28.09
614.31	0.00
614.46	32.77
614.62	126.39
614.77	67.88
614.92	25.75
615.08	42.13
615.23	11.70
615.38	79.58
615.54	0.00
615.69	2.34
615.84	72.56
616.00	77.24
616.15	67.88
616.30	0.00
616.46	79.58
616.61	23.41
616.76	49.15
616.92	60.85
617.07	58.51
617.22	37.45
617.37	7.02
617.53	44.47
617.68	23.41
617.83	37.45
617.99	105.32
618.14	0.00
618.29	56.17
618.45	18.72
618.60	65.54
618.75	119.37
618.90	9.36
619.06	0.00
619.21	21.06
619.36	39.79
619.51	95.96
619.67	9.36
619.82	0.00
619.97	74.90
620.12	46.81
620.28	0.00
620.43	98.30
620.58	0.00
620.73	39.79
620.89	60.85
621.04	25.75
621.19	2.34
621.34	0.00
621.49	28.09
621.65	42.13
621.80	44.47
621.95	51.49
622.10	56.17
622.25	53.83
622.41	35.11
622.56	46.81
622.71	63.19
622.86	79.58
623.01	42.13
623.16	65.54
623.32	107.66
623.47	14.04
623.62	117.03
623.77	28.09
623.92	65.54
624.07	14.04
624.23	56.17
624.38	128.73
624.53	49.15
624.68	65.54
624.83	79.58
624.98	58.51
625.13	32.77
625.29	84.26
625.44	9.36
625.59	21.06
625.74	18.72
625.89	0.00
626.04	63.19
626.19	21.06
626.34	37.45
626.49	102.98
626.65	49.15
626.80	32.77
626.95	58.51
627.10	39.79
627.25	37.45
627.40	65.54
627.55	4.68
627.70	0.00
627.85	63.19
628.00	65.54
628.15	32.77
628.30	16.38
628.45	72.56
628.60	98.30
628.76	102.98
628.91	0.00
629.06	0.00
629.21	112.35
629.36	42.13
629.51	9.36
629.66	0.00
629.81	46.81
629.96	37.45
630.11	42.13
630.26	2.34
630.41	23.41
630.56	53.83
630.71	117.03
630.86	16.38
631.01	37.45
631.16	84.26
631.31	51.49
631.46	0.00
631.61	79.58
631.76	0.00
631.91	9.36
632.06	11.70
632.21	25.75
632.36	51.49
632.51	91.28
632.66	28.09
632.81	37.45
632.96	58.51
633.10	30.43
633.25	102.98
633.40	88.94
633.55	51.49
633.70	67.88
633.85	0.00
634.00	0.00
634.15	56.17
634.30	74.90
634.45	18.72
634.60	0.00
634.75	0.00
634.90	0.00
635.05	65.54
635.19	49.15
635.34	0.00
635.49	23.41
635.64	42.13
635.79	53.83
635.94	0.00
636.09	21.06
636.24	0.00
636.39	70.22
636.53	23.41
636.68	0.00
636.83	37.45
636.98	117.03
637.13	79.58
637.28	35.11
637.43	81.92
637.57	63.19
637.72	0.00
637.87	51.49
638.02	53.83
638.17	0.00
638.32	0.00
638.46	46.81
638.61	51.49
638.76	63.19
638.91	14.04
639.06	72.56
639.20	7.02
639.35	14.04
639.50	9.36
639.65	79.58
639.80	58.51
639.94	18.72
640.09	91.28
640.24	35.11
640.39	0.00
640.54	16.38
640.68	84.26
640.83	4.68
640.98	70.22
641.13	131.07
641.27	0.00
641.42	105.32
641.57	16.38
641.72	25.75
641.86	18.72
642.01	14.04
642.16	23.41
642.31	117.03
642.45	16.38
642.60	0.00
642.75	105.32
642.90	46.81
643.04	37.45
643.19	79.58
643.34	21.06
643.48	18.72
643.63	0.00
643.78	23.41
643.93	0.00
644.07	0.00
644.22	81.92
644.37	21.06
644.51	30.43
644.66	42.13
644.81	30.43
644.95	32.77
645.10	35.11
645.25	102.98
645.39	9.36
645.54	56.17
645.69	63.19
645.83	0.00
645.98	44.47
646.13	42.13
646.27	67.88
646.42	100.64
646.57	42.13
646.71	56.17
646.86	0.00
647.00	16.38
647.15	86.60
647.30	0.00
647.44	25.75
647.59	28.09
647.74	14.04
647.88	0.00
648.03	32.77
648.17	67.88
648.32	14.04
648.47	74.90
648.61	18.72
648.76	39.79
648.90	23.41
649.05	2.34
649.20	21.06
649.34	30.43
649.49	49.15
649.63	126.39
649.78	39.79
649.92	32.77
650.07	7.02
650.21	16.38
650.36	0.00
650.51	32.77
650.65	11.70
650.80	23.41
650.94	93.62
651.09	84.26
651.23	39.79
651.38	46.81
651.52	32.77
651.67	53.83
651.81	11.70
651.96	46.81
652.10	14.04
652.25	46.81
652.39	49.15
652.54	0.00
652.68	77.24
652.83	88.94
652.97	46.81
653.12	23.41
653.26	9.36
653.41	49.15
653.55	42.13
653.70	0.00
653.84	0.00
653.99	30.43
654.13	49.15
654.27	37.45
654.42	74.90
654.56	102.98
654.71	23.41
654.85	4.68
655.00	16.38
655.14	18.72
655.29	16.38
655.43	46.81
655.57	74.90
655.72	63.19
655.86	18.72
656.01	14.04
656.15	0.00
656.30	49.15
656.44	23.41
656.58	70.22
656.73	21.06
656.87	0.00
657.01	51.49
657.16	105.32
657.30	0.00
657.45	0.00
657.59	0.00
657.73	44.47
657.88	0.00
658.02	100.64
658.16	14.04
658.31	0.00
658.45	7.02
658.60	58.51
658.74	2.34
658.88	30.43
659.03	65.54
659.17	88.94
659.31	88.94
659.46	0.00
659.60	63.19
659.74	46.81
659.89	2.34
660.03	51.49
660.17	72.56
660.32	0.00
660.46	28.09
660.60	0.00
660.74	35.11
660.89	0.00
661.03	4.68
661.17	49.15
661.32	51.49
661.46	2.34
661.60	7.02
661.74	0.00
661.89	16.38
662.03	11.70
662.17	37.45
662.31	98.30
662.46	11.70
662.60	4.68
662.74	77.24
662.88	18.72
663.03	0.00
663.17	23.41
663.31	98.30
663.45	56.17
663.60	60.85
663.74	32.77
663.88	28.09
664.02	9.36
664.17	0.00
664.31	67.88
664.45	126.39
664.59	0.00
664.73	44.47
664.88	84.26
665.02	74.90
665.16	32.77
665.30	39.79
665.44	58.51
665.59	0.00
665.73	51.49
665.87	0.00
666.01	0.00
666.15	14.04
666.29	0.00
666.44	121.71
666.58	77.24
666.72	30.43
666.86	88.94
667.00	18.72
667.14	0.00
667.28	44.47
667.43	21.06
667.57	100.64
667.71	81.92
667.85	0.00
667.99	84.26
668.13	4.68
668.27	0.00
668.41	72.56
668.56	79.58
668.70	0.00
668.84	9.36
668.98	0.00
669.12	44.47
669.26	11.70
669.40	39.79
669.54	46.81
669.68	0.00
669.82	67.88
669.96	0.00
670.10	81.92
670.25	0.00
670.39	0.00
670.53	28.09
670.67	84.26
670.81	56.17
670.95	0.00
671.09	91.28
671.23	0.00
671.37	79.58
671.51	0.00
671.65	79.58
671.79	4.68
671.93	44.47
672.07	58.51
672.21	46.81
672.35	58.51
672.49	65.54
672.63	124.05
672.77	74.90
672.91	37.45
673.05	74.90
673.19	65.54
673.33	23.41
673.47	30.43
673.61	49.15
673.75	0.00
673.89	23.41
674.03	95.96
674.17	35.11
674.31	58.51
674.45	112.35
674.59	0.00
674.73	56.17
674.87	11.70
675.01	35.11
675.15	74.90
675.29	112.35
675.43	0.00
675.56	23.41
675.70	63.19
675.84	18.72
675.98	23.41
676.12	0.00
676.26	91.28
676.40	58.51
676.54	56.17
676.68	25.75
676.82	14.04
676.96	0.00
677.10	21.06
677.23	25.75
677.37	30.43
677.51	84.26
677.65	112.35
677.79	0.00
677.93	60.85
678.07	60.85
678.21	0.00
678.34	28.09
678.48	79.58
678.62	51.49
678.76	49.15
678.90	0.00
679.04	23.41
679.18	65.54
679.31	86.60
679.45	77.24
679.59	18.72
679.73	46.81
679.87	0.00
680.00	0.00
680.14	30.43
680.28	9.36
680.42	18.72
680.56	39.79
680.70	0.00
680.83	32.77
680.97	18.72
681.11	58.51
681.25	9.36
681.39	4.68
681.52	37.45
681.66	14.04
681.80	7.02
681.94	0.00
682.07	16.38
682.21	37.45
682.35	16.38
682.49	30.43
682.62	74.90
682.76	2.34
682.90	0.00
683.04	18.72
683.17	42.13
683.31	0.00
683.45	2.34
683.59	0.00
683.72	37.45
683.86	67.88
684.00	0.00
684.13	0.00
684.27	37.45
684.41	30.43
684.55	0.00
684.68	0.00
684.82	23.41
684.96	9.36
685.09	0.00
685.23	0.00
685.37	0.00
685.50	51.49
685.64	51.49
685.78	0.00
685.91	86.60
686.05	23.41
686.19	93.62
686.32	56.17
686.46	46.81
686.60	0.00
686.73	72.56
686.87	88.94
687.01	51.49
687.14	86.60
687.28	77.24
687.42	0.00
687.55	51.49
687.69	79.58
687.82	56.17
687.96	70.22
688.10	119.37
688.23	0.00
688.37	86.60
688.50	0.00
688.64	7.02
688.78	30.43
688.91	16.38
689.05	0.00
689.18	23.41
689.32	0.00
689.46	4.68
689.59	25.75
689.73	63.19
689.86	7.02
690.00	46.81
690.13	0.00
690.27	0.00
690.41	39.79
690.54	25.75
690.68	0.00
690.81	37.45
690.95	35.11
691.08	100.64
691.22	11.70
691.35	21.06
691.49	0.00
691.62	25.75
691.76	56.17
691.89	23.41
692.03	0.00
692.16	23.41
692.30	25.75
692.43	44.47
692.57	14.04
692.70	102.98
692.84	56.17
692.97	28.09
693.11	39.79
693.24	105.32
693.38	44.47
693.51	14.04
693.65	23.41
693.78	0.00
693.92	37.45
694.05	37.45
694.19	0.00
694.32	25.75
694.45	23.41
694.59	74.90
694.72	0.00
694.86	14.04
694.99	2.34
695.13	65.54
695.26	9.36
695.39	9.36
695.53	98.30
695.66	0.00
695.80	100.64
695.93	93.62
696.07	35.11
696.20	63.19
696.33	65.54
696.47	56.17
696.60	0.00
696.73	0.00
696.87	58.51
697.00	49.15
697.14	81.92
697.27	72.56
697.40	60.85
697.54	0.00
697.67	35.11
697.80	25.75
697.94	30.43
698.07	0.00
698.21	58.51
698.34	56.17
698.47	86.60
698.61	74.90
698.74	51.49
698.87	18.72
699.01	46.81
699.14	0.00
699.27	35.11
699.40	44.47
699.54	65.54
699.67	44.47
699.80	0.00
699.94	81.92
700.07	25.75
700.20	42.13
700.34	18.72
700.47	0.00
700.60	18.72
700.73	0.00
700.87	21.06
701.00	0.00
701.13	21.06
701.26	88.94
701.40	56.17
701.53	60.85
701.66	16.38
701.79	2.34
701.93	2.34
702.06	25.75
702.19	72.56
702.32	56.17
702.46	32.77
702.59	49.15
702.72	0.00
702.85	0.00
702.99	28.09
703.12	46.81
703.25	110.01
703.38	9.36
703.51	28.09
703.65	25.75
703.78	32.77
703.91	16.38
704.04	44.47
704.17	23.41
704.31	81.92
704.44	0.00
704.57	46.81
704.70	0.00
704.83	11.70
704.96	0.00
705.10	84.26
705.23	0.00
>>>>>End Processed Spectral Data<<<<<
