SpectraSuite Data File
++++++++++++++++++++++++++++++++++++
Date: Fri Oct 04 12:13:40 GMT-05:00 2013
User: price-jones
Dark Spectrum Present: No
Reference Spectrum Present: No
Number of Sampled Component Spectra: 1
Spectrometers: USB2+H05261
Integration Time (usec): 10000 (USB2+H05261)
Spectra Averaged: 1 (USB2+H05261)
Boxcar Smoothing: 0 (USB2+H05261)
Correct for Electrical Dark: No (USB2+H05261)
Strobe/Lamp Enabled: No (USB2+H05261)
Correct for Detector Non-linearity: No (USB2+H05261)
Correct for Stray Light: No (USB2+H05261)
Number of Pixels in Processed Spectrum: 2048
>>>>>Begin Processed Spectral Data<<<<<
365.73	46.81
365.92	46.81
366.12	46.81
366.32	0.00
366.52	0.00
366.72	0.00
366.91	0.00
367.11	0.00
367.31	0.00
367.51	0.00
367.70	0.00
367.90	0.00
368.10	0.00
368.30	0.00
368.49	0.00
368.69	0.00
368.89	0.00
369.09	0.00
369.28	0.00
369.48	0.00
369.68	0.00
369.87	0.00
370.07	0.00
370.27	0.00
370.47	0.00
370.66	0.00
370.86	0.00
371.06	0.00
371.25	0.00
371.45	4.68
371.65	2.34
371.84	0.00
372.04	0.00
372.24	0.00
372.44	0.00
372.63	21.06
372.83	25.75
373.03	0.00
373.22	32.77
373.42	37.45
373.62	28.09
373.81	30.43
374.01	56.17
374.21	7.02
374.40	21.06
374.60	30.43
374.79	16.38
374.99	2.34
375.19	93.62
375.38	0.00
375.58	0.00
375.78	0.00
375.97	2.34
376.17	63.19
376.37	37.45
376.56	88.94
376.76	0.00
376.95	46.81
377.15	93.62
377.35	51.49
377.54	11.70
377.74	42.13
377.93	2.34
378.13	18.72
378.33	7.02
378.52	32.77
378.72	35.11
378.91	70.22
379.11	0.00
379.31	81.92
379.50	0.00
379.70	28.09
379.89	58.51
380.09	39.79
380.28	53.83
380.48	46.81
380.68	0.00
380.87	32.77
381.07	79.58
381.26	9.36
381.46	53.83
381.65	49.15
381.85	9.36
382.04	16.38
382.24	0.00
382.43	4.68
382.63	16.38
382.83	44.47
383.02	18.72
383.22	30.43
383.41	16.38
383.61	37.45
383.80	0.00
384.00	79.58
384.19	0.00
384.39	53.83
384.58	0.00
384.78	42.13
384.97	56.17
385.17	0.00
385.36	0.00
385.56	0.00
385.75	51.49
385.95	105.32
386.14	37.45
386.34	74.90
386.53	51.49
386.72	28.09
386.92	32.77
387.11	14.04
387.31	11.70
387.50	35.11
387.70	37.45
387.89	79.58
388.09	18.72
388.28	21.06
388.48	0.00
388.67	14.04
388.86	86.60
389.06	21.06
389.25	32.77
389.45	7.02
389.64	0.00
389.84	0.00
390.03	16.38
390.22	0.00
390.42	4.68
390.61	0.00
390.81	35.11
391.00	60.85
391.19	56.17
391.39	9.36
391.58	39.79
391.78	11.70
391.97	21.06
392.16	67.88
392.36	70.22
392.55	58.51
392.75	91.28
392.94	0.00
393.13	42.13
393.33	30.43
393.52	37.45
393.71	18.72
393.91	2.34
394.10	51.49
394.29	35.11
394.49	42.13
394.68	16.38
394.88	0.00
395.07	0.00
395.26	18.72
395.46	0.00
395.65	65.54
395.84	0.00
396.04	0.00
396.23	14.04
396.42	53.83
396.62	65.54
396.81	32.77
397.00	67.88
397.19	39.79
397.39	72.56
397.58	42.13
397.77	30.43
397.97	67.88
398.16	49.15
398.35	72.56
398.55	18.72
398.74	56.17
398.93	28.09
399.12	70.22
399.32	0.00
399.51	46.81
399.70	0.00
399.90	0.00
400.09	16.38
400.28	14.04
400.47	58.51
400.67	39.79
400.86	56.17
401.05	0.00
401.24	53.83
401.44	35.11
401.63	63.19
401.82	49.15
402.01	0.00
402.21	86.60
402.40	60.85
402.59	28.09
402.78	14.04
402.97	70.22
403.17	70.22
403.36	25.75
403.55	4.68
403.74	0.00
403.93	37.45
404.13	35.11
404.32	0.00
404.51	18.72
404.70	21.06
404.89	0.00
405.09	32.77
405.28	14.04
405.47	0.00
405.66	84.26
405.85	35.11
406.05	58.51
406.24	0.00
406.43	0.00
406.62	0.00
406.81	28.09
407.00	37.45
407.20	95.96
407.39	39.79
407.58	16.38
407.77	0.00
407.96	0.00
408.15	23.41
408.34	46.81
408.54	32.77
408.73	7.02
408.92	21.06
409.11	32.77
409.30	2.34
409.49	0.00
409.68	9.36
409.87	35.11
410.07	0.00
410.26	67.88
410.45	124.05
410.64	100.64
410.83	16.38
411.02	72.56
411.21	42.13
411.40	42.13
411.59	11.70
411.78	37.45
411.98	7.02
412.17	28.09
412.36	0.00
412.55	0.00
412.74	119.37
412.93	30.43
413.12	4.68
413.31	16.38
413.50	2.34
413.69	42.13
413.88	18.72
414.07	74.90
414.26	7.02
414.45	4.68
414.64	70.22
414.83	65.54
415.02	110.01
415.22	7.02
415.41	74.90
415.60	39.79
415.79	42.13
415.98	28.09
416.17	67.88
416.36	81.92
416.55	60.85
416.74	21.06
416.93	0.00
417.12	0.00
417.31	58.51
417.50	0.00
417.69	23.41
417.88	42.13
418.07	18.72
418.26	37.45
418.45	0.00
418.64	37.45
418.83	21.06
419.02	21.06
419.21	102.98
419.39	102.98
419.58	58.51
419.77	124.05
419.96	77.24
420.15	63.19
420.34	39.79
420.53	23.41
420.72	65.54
420.91	77.24
421.10	124.05
421.29	74.90
421.48	32.77
421.67	95.96
421.86	0.00
422.05	42.13
422.24	58.51
422.43	100.64
422.61	51.49
422.80	140.43
422.99	56.17
423.18	91.28
423.37	70.22
423.56	0.00
423.75	79.58
423.94	25.75
424.13	84.26
424.32	107.66
424.50	4.68
424.69	32.77
424.88	67.88
425.07	0.00
425.26	32.77
425.45	65.54
425.64	49.15
425.83	67.88
426.01	0.00
426.20	7.02
426.39	4.68
426.58	0.00
426.77	110.01
426.96	91.28
427.15	114.69
427.33	98.30
427.52	21.06
427.71	86.60
427.90	67.88
428.09	35.11
428.28	21.06
428.46	35.11
428.65	32.77
428.84	58.51
429.03	11.70
429.22	42.13
429.40	11.70
429.59	11.70
429.78	46.81
429.97	0.00
430.16	0.00
430.34	67.88
430.53	0.00
430.72	0.00
430.91	0.00
431.10	32.77
431.28	46.81
431.47	16.38
431.66	93.62
431.85	46.81
432.03	30.43
432.22	91.28
432.41	42.13
432.60	28.09
432.79	0.00
432.97	70.22
433.16	72.56
433.35	53.83
433.54	37.45
433.72	9.36
433.91	14.04
434.10	84.26
434.28	0.00
434.47	39.79
434.66	37.45
434.85	28.09
435.03	18.72
435.22	0.00
435.41	0.00
435.59	53.83
435.78	25.75
435.97	2.34
436.16	23.41
436.34	42.13
436.53	107.66
436.72	49.15
436.90	88.94
437.09	95.96
437.28	39.79
437.46	4.68
437.65	37.45
437.84	49.15
438.02	25.75
438.21	65.54
438.40	70.22
438.58	0.00
438.77	23.41
438.96	35.11
439.14	81.92
439.33	35.11
439.52	79.58
439.70	14.04
439.89	70.22
440.08	35.11
440.26	84.26
440.45	0.00
440.63	74.90
440.82	63.19
441.01	32.77
441.19	77.24
441.38	126.39
441.57	14.04
441.75	51.49
441.94	107.66
442.12	112.35
442.31	44.47
442.50	81.92
442.68	95.96
442.87	51.49
443.05	63.19
443.24	79.58
443.43	25.75
443.61	77.24
443.80	91.28
443.98	23.41
444.17	51.49
444.35	11.70
444.54	2.34
444.73	7.02
444.91	100.64
445.10	42.13
445.28	0.00
445.47	53.83
445.65	56.17
445.84	0.00
446.02	37.45
446.21	105.32
446.39	81.92
446.58	42.13
446.77	77.24
446.95	105.32
447.14	74.90
447.32	42.13
447.51	70.22
447.69	25.75
447.88	114.69
448.06	0.00
448.25	32.77
448.43	11.70
448.62	100.64
448.80	72.56
448.99	51.49
449.17	98.30
449.36	42.13
449.54	58.51
449.73	14.04
449.91	74.90
450.10	77.24
450.28	133.41
450.46	105.32
450.65	21.06
450.83	21.06
451.02	39.79
451.20	105.32
451.39	32.77
451.57	9.36
451.76	133.41
451.94	102.98
452.13	70.22
452.31	4.68
452.49	51.49
452.68	30.43
452.86	18.72
453.05	46.81
453.23	60.85
453.42	21.06
453.60	39.79
453.78	0.00
453.97	53.83
454.15	86.60
454.34	44.47
454.52	93.62
454.70	0.00
454.89	67.88
455.07	58.51
455.26	56.17
455.44	0.00
455.62	65.54
455.81	35.11
455.99	0.00
456.17	51.49
456.36	58.51
456.54	4.68
456.73	51.49
456.91	25.75
457.09	0.00
457.28	0.00
457.46	63.19
457.64	93.62
457.83	117.03
458.01	117.03
458.19	93.62
458.38	74.90
458.56	39.79
458.74	37.45
458.93	58.51
459.11	18.72
459.29	100.64
459.48	23.41
459.66	21.06
459.84	35.11
460.03	84.26
460.21	72.56
460.39	88.94
460.57	112.35
460.76	79.58
460.94	77.24
461.12	67.88
461.31	70.22
461.49	117.03
461.67	60.85
461.85	16.38
462.04	37.45
462.22	152.13
462.40	21.06
462.59	84.26
462.77	98.30
462.95	30.43
463.13	18.72
463.32	51.49
463.50	74.90
463.68	102.98
463.86	37.45
464.05	77.24
464.23	84.26
464.41	0.00
464.59	32.77
464.78	79.58
464.96	88.94
465.14	53.83
465.32	7.02
465.50	100.64
465.69	32.77
465.87	18.72
466.05	65.54
466.23	0.00
466.41	16.38
466.60	46.81
466.78	79.58
466.96	110.01
467.14	63.19
467.32	46.81
467.51	102.98
467.69	9.36
467.87	65.54
468.05	60.85
468.23	56.17
468.41	114.69
468.60	35.11
468.78	30.43
468.96	16.38
469.14	58.51
469.32	39.79
469.50	0.00
469.69	0.00
469.87	18.72
470.05	46.81
470.23	93.62
470.41	84.26
470.59	65.54
470.77	42.13
470.95	0.00
471.14	46.81
471.32	18.72
471.50	28.09
471.68	67.88
471.86	51.49
472.04	42.13
472.22	117.03
472.40	44.47
472.58	46.81
472.77	37.45
472.95	21.06
473.13	77.24
473.31	98.30
473.49	32.77
473.67	98.30
473.85	28.09
474.03	42.13
474.21	60.85
474.39	0.00
474.57	112.35
474.75	42.13
474.93	21.06
475.12	39.79
475.30	58.51
475.48	51.49
475.66	37.45
475.84	114.69
476.02	63.19
476.20	105.32
476.38	112.35
476.56	37.45
476.74	37.45
476.92	23.41
477.10	67.88
477.28	0.00
477.46	56.17
477.64	0.00
477.82	60.85
478.00	0.00
478.18	60.85
478.36	142.77
478.54	0.00
478.72	14.04
478.90	42.13
479.08	7.02
479.26	121.71
479.44	84.26
479.62	77.24
479.80	131.07
479.98	23.41
480.16	65.54
480.34	119.37
480.52	0.00
480.70	93.62
480.88	72.56
481.06	30.43
481.24	0.00
481.41	58.51
481.59	7.02
481.77	70.22
481.95	95.96
482.13	110.01
482.31	88.94
482.49	39.79
482.67	56.17
482.85	95.96
483.03	114.69
483.21	0.00
483.39	65.54
483.57	58.51
483.74	39.79
483.92	114.69
484.10	112.35
484.28	81.92
484.46	42.13
484.64	23.41
484.82	42.13
485.00	70.22
485.18	0.00
485.35	21.06
485.53	107.66
485.71	58.51
485.89	128.73
486.07	53.83
486.25	135.75
486.43	35.11
486.61	105.32
486.78	25.75
486.96	0.00
487.14	58.51
487.32	0.00
487.50	23.41
487.68	39.79
487.85	51.49
488.03	42.13
488.21	60.85
488.39	18.72
488.57	95.96
488.75	128.73
488.92	77.24
489.10	56.17
489.28	117.03
489.46	56.17
489.64	77.24
489.81	74.90
489.99	121.71
490.17	133.41
490.35	7.02
490.53	28.09
490.70	133.41
490.88	77.24
491.06	46.81
491.24	79.58
491.41	98.30
491.59	11.70
491.77	0.00
491.95	4.68
492.13	65.54
492.30	107.66
492.48	100.64
492.66	100.64
492.84	88.94
493.01	49.15
493.19	53.83
493.37	58.51
493.54	65.54
493.72	102.98
493.90	79.58
494.08	65.54
494.25	156.82
494.43	67.88
494.61	58.51
494.79	128.73
494.96	53.83
495.14	135.75
495.32	74.90
495.49	102.98
495.67	86.60
495.85	149.79
496.02	91.28
496.20	79.58
496.38	67.88
496.55	67.88
496.73	98.30
496.91	53.83
497.09	18.72
497.26	114.69
497.44	88.94
497.62	23.41
497.79	74.90
497.97	110.01
498.14	60.85
498.32	67.88
498.50	65.54
498.67	114.69
498.85	65.54
499.03	56.17
499.20	74.90
499.38	124.05
499.56	63.19
499.73	93.62
499.91	2.34
500.08	112.35
500.26	133.41
500.44	49.15
500.61	119.37
500.79	56.17
500.97	30.43
501.14	42.13
501.32	56.17
501.49	7.02
501.67	42.13
501.84	28.09
502.02	56.17
502.20	72.56
502.37	35.11
502.55	110.01
502.72	131.07
502.90	88.94
503.07	102.98
503.25	102.98
503.43	81.92
503.60	49.15
503.78	72.56
503.95	35.11
504.13	135.75
504.30	72.56
504.48	56.17
504.65	117.03
504.83	74.90
505.01	93.62
505.18	0.00
505.36	166.18
505.53	70.22
505.71	86.60
505.88	65.54
506.06	0.00
506.23	0.00
506.41	46.81
506.58	93.62
506.76	88.94
506.93	105.32
507.11	74.90
507.28	126.39
507.46	46.81
507.63	93.62
507.81	93.62
507.98	98.30
508.16	98.30
508.33	91.28
508.50	84.26
508.68	67.88
508.85	112.35
509.03	44.47
509.20	39.79
509.38	93.62
509.55	60.85
509.73	112.35
509.90	88.94
510.08	84.26
510.25	4.68
510.42	84.26
510.60	77.24
510.77	91.28
510.95	86.60
511.12	88.94
511.30	65.54
511.47	58.51
511.64	63.19
511.82	88.94
511.99	56.17
512.17	88.94
512.34	70.22
512.51	154.48
512.69	166.18
512.86	117.03
513.04	77.24
513.21	39.79
513.38	44.47
513.56	37.45
513.73	84.26
513.90	81.92
514.08	81.92
514.25	86.60
514.43	70.22
514.60	0.00
514.77	63.19
514.95	138.09
515.12	84.26
515.29	79.58
515.47	110.01
515.64	49.15
515.81	93.62
515.99	56.17
516.16	117.03
516.33	117.03
516.51	98.30
516.68	88.94
516.85	133.41
517.03	107.66
517.20	114.69
517.37	42.13
517.54	86.60
517.72	124.05
517.89	39.79
518.06	102.98
518.24	128.73
518.41	70.22
518.58	93.62
518.75	98.30
518.93	135.75
519.10	114.69
519.27	100.64
519.45	56.17
519.62	60.85
519.79	119.37
519.96	67.88
520.14	126.39
520.31	135.75
520.48	149.79
520.65	93.62
520.83	81.92
521.00	72.56
521.17	102.98
521.34	163.84
521.52	32.77
521.69	102.98
521.86	60.85
522.03	79.58
522.20	63.19
522.38	100.64
522.55	53.83
522.72	63.19
522.89	63.19
523.07	142.77
523.24	110.01
523.41	49.15
523.58	74.90
523.75	63.19
523.92	138.09
524.10	124.05
524.27	126.39
524.44	46.81
524.61	32.77
524.78	98.30
524.96	56.17
525.13	58.51
525.30	65.54
525.47	100.64
525.64	60.85
525.81	159.16
525.98	60.85
526.16	72.56
526.33	84.26
526.50	46.81
526.67	32.77
526.84	53.83
527.01	11.70
527.18	79.58
527.36	0.00
527.53	79.58
527.70	100.64
527.87	46.81
528.04	74.90
528.21	119.37
528.38	117.03
528.55	86.60
528.72	81.92
528.89	100.64
529.07	49.15
529.24	107.66
529.41	4.68
529.58	72.56
529.75	98.30
529.92	88.94
530.09	49.15
530.26	35.11
530.43	88.94
530.60	39.79
530.77	60.85
530.94	9.36
531.11	74.90
531.28	81.92
531.46	102.98
531.63	81.92
531.80	56.17
531.97	95.96
532.14	142.77
532.31	154.48
532.48	42.13
532.65	46.81
532.82	37.45
532.99	112.35
533.16	117.03
533.33	72.56
533.50	53.83
533.67	72.56
533.84	74.90
534.01	79.58
534.18	53.83
534.35	49.15
534.52	72.56
534.69	72.56
534.86	67.88
535.03	70.22
535.20	98.30
535.37	88.94
535.54	110.01
535.71	84.26
535.88	142.77
536.05	112.35
536.22	67.88
536.38	37.45
536.55	35.11
536.72	46.81
536.89	53.83
537.06	53.83
537.23	128.73
537.40	51.49
537.57	114.69
537.74	30.43
537.91	161.50
538.08	142.77
538.25	63.19
538.42	65.54
538.59	74.90
538.75	112.35
538.92	44.47
539.09	117.03
539.26	49.15
539.43	133.41
539.60	74.90
539.77	110.01
539.94	117.03
540.11	65.54
540.28	0.00
540.44	88.94
540.61	4.68
540.78	53.83
540.95	49.15
541.12	93.62
541.29	100.64
541.46	126.39
541.62	107.66
541.79	65.54
541.96	35.11
542.13	65.54
542.30	95.96
542.47	35.11
542.63	126.39
542.80	121.71
542.97	84.26
543.14	65.54
543.31	98.30
543.48	119.37
543.64	86.60
543.81	37.45
543.98	102.98
544.15	63.19
544.32	100.64
544.48	65.54
544.65	112.35
544.82	56.17
544.99	72.56
545.16	81.92
545.32	67.88
545.49	88.94
545.66	63.19
545.83	88.94
546.00	7.02
546.16	46.81
546.33	107.66
546.50	145.11
546.67	98.30
546.83	95.96
547.00	107.66
547.17	119.37
547.34	37.45
547.50	72.56
547.67	74.90
547.84	51.49
548.00	105.32
548.17	49.15
548.34	110.01
548.51	91.28
548.67	70.22
548.84	128.73
549.01	145.11
549.18	79.58
549.34	177.88
549.51	119.37
549.68	138.09
549.84	140.43
550.01	72.56
550.18	119.37
550.34	107.66
550.51	37.45
550.68	124.05
550.84	102.98
551.01	46.81
551.18	46.81
551.34	117.03
551.51	93.62
551.68	79.58
551.84	74.90
552.01	88.94
552.18	65.54
552.34	67.88
552.51	88.94
552.68	128.73
552.84	100.64
553.01	88.94
553.18	98.30
553.34	91.28
553.51	149.79
553.67	70.22
553.84	112.35
554.01	81.92
554.17	84.26
554.34	51.49
554.51	60.85
554.67	110.01
554.84	49.15
555.00	95.96
555.17	117.03
555.33	126.39
555.50	119.37
555.67	58.51
555.83	133.41
556.00	135.75
556.16	163.84
556.33	9.36
556.50	30.43
556.66	11.70
556.83	114.69
556.99	126.39
557.16	93.62
557.32	117.03
557.49	81.92
557.65	30.43
557.82	77.24
557.98	70.22
558.15	32.77
558.32	46.81
558.48	53.83
558.65	30.43
558.81	44.47
558.98	102.98
559.14	81.92
559.31	102.98
559.47	88.94
559.64	119.37
559.80	77.24
559.97	121.71
560.13	0.00
560.30	110.01
560.46	74.90
560.63	53.83
560.79	60.85
560.96	124.05
561.12	51.49
561.29	102.98
561.45	107.66
561.61	70.22
561.78	156.82
561.94	11.70
562.11	39.79
562.27	105.32
562.44	110.01
562.60	35.11
562.77	0.00
562.93	77.24
563.10	138.09
563.26	149.79
563.42	126.39
563.59	60.85
563.75	98.30
563.92	67.88
564.08	44.47
564.24	14.04
564.41	51.49
564.57	100.64
564.74	65.54
564.90	102.98
565.07	95.96
565.23	88.94
565.39	131.07
565.56	112.35
565.72	124.05
565.88	74.90
566.05	138.09
566.21	53.83
566.38	86.60
566.54	74.90
566.70	0.00
566.87	16.38
567.03	65.54
567.19	112.35
567.36	95.96
567.52	58.51
567.68	58.51
567.85	74.90
568.01	72.56
568.17	93.62
568.34	77.24
568.50	65.54
568.66	81.92
568.83	124.05
568.99	70.22
569.15	44.47
569.32	84.26
569.48	79.58
569.64	128.73
569.81	67.88
569.97	81.92
570.13	23.41
570.30	81.92
570.46	117.03
570.62	93.62
570.78	84.26
570.95	56.17
571.11	77.24
571.27	189.58
571.43	126.39
571.60	119.37
571.76	117.03
571.92	105.32
572.09	93.62
572.25	72.56
572.41	51.49
572.57	79.58
572.74	9.36
572.90	9.36
573.06	88.94
573.22	77.24
573.38	56.17
573.55	16.38
573.71	77.24
573.87	77.24
574.03	95.96
574.20	30.43
574.36	65.54
574.52	70.22
574.68	121.71
574.84	11.70
575.01	2.34
575.17	114.69
575.33	100.64
575.49	110.01
575.65	102.98
575.82	126.39
575.98	25.75
576.14	16.38
576.30	35.11
576.46	86.60
576.62	93.62
576.79	110.01
576.95	140.43
577.11	91.28
577.27	39.79
577.43	65.54
577.59	107.66
577.75	32.77
577.92	72.56
578.08	32.77
578.24	93.62
578.40	128.73
578.56	98.30
578.72	126.39
578.88	81.92
579.04	126.39
579.21	81.92
579.37	65.54
579.53	74.90
579.69	51.49
579.85	110.01
580.01	67.88
580.17	51.49
580.33	44.47
580.49	30.43
580.65	18.72
580.82	74.90
580.98	77.24
581.14	60.85
581.30	117.03
581.46	60.85
581.62	79.58
581.78	88.94
581.94	46.81
582.10	39.79
582.26	91.28
582.42	35.11
582.58	63.19
582.74	119.37
582.90	72.56
583.06	133.41
583.22	189.58
583.38	81.92
583.54	32.77
583.70	119.37
583.86	60.85
584.02	18.72
584.18	100.64
584.34	70.22
584.50	30.43
584.66	74.90
584.82	51.49
584.98	105.32
585.14	91.28
585.30	72.56
585.46	65.54
585.62	58.51
585.78	86.60
585.94	74.90
586.10	28.09
586.26	37.45
586.42	37.45
586.58	44.47
586.74	84.26
586.90	16.38
587.06	100.64
587.22	28.09
587.38	88.94
587.54	114.69
587.70	95.96
587.86	56.17
588.02	0.00
588.18	70.22
588.34	28.09
588.49	100.64
588.65	51.49
588.81	11.70
588.97	14.04
589.13	42.13
589.29	9.36
589.45	60.85
589.61	53.83
589.77	72.56
589.93	53.83
590.08	0.00
590.24	112.35
590.40	56.17
590.56	56.17
590.72	70.22
590.88	65.54
591.04	133.41
591.20	63.19
591.35	70.22
591.51	70.22
591.67	18.72
591.83	81.92
591.99	16.38
592.15	0.00
592.31	98.30
592.46	65.54
592.62	72.56
592.78	16.38
592.94	53.83
593.10	60.85
593.26	18.72
593.41	23.41
593.57	63.19
593.73	42.13
593.89	72.56
594.05	23.41
594.20	39.79
594.36	39.79
594.52	86.60
594.68	124.05
594.84	86.60
594.99	67.88
595.15	56.17
595.31	42.13
595.47	21.06
595.62	51.49
595.78	7.02
595.94	81.92
596.10	70.22
596.25	0.00
596.41	28.09
596.57	70.22
596.73	46.81
596.88	0.00
597.04	0.00
597.20	51.49
597.36	37.45
597.51	0.00
597.67	0.00
597.83	93.62
597.99	67.88
598.14	63.19
598.30	51.49
598.46	44.47
598.61	100.64
598.77	135.75
598.93	95.96
599.09	23.41
599.24	140.43
599.40	95.96
599.56	46.81
599.71	63.19
599.87	119.37
600.03	102.98
600.18	28.09
600.34	16.38
600.50	117.03
600.65	63.19
600.81	21.06
600.97	142.77
601.12	238.73
601.28	147.45
601.44	35.11
601.59	72.56
601.75	102.98
601.91	107.66
602.06	49.15
602.22	117.03
602.37	67.88
602.53	135.75
602.69	44.47
602.84	70.22
603.00	72.56
603.16	93.62
603.31	7.02
603.47	102.98
603.62	32.77
603.78	67.88
603.94	39.79
604.09	74.90
604.25	131.07
604.40	58.51
604.56	72.56
604.71	77.24
604.87	138.09
605.03	44.47
605.18	77.24
605.34	140.43
605.49	86.60
605.65	7.02
605.80	67.88
605.96	23.41
606.12	74.90
606.27	74.90
606.43	100.64
606.58	107.66
606.74	88.94
606.89	0.00
607.05	58.51
607.20	30.43
607.36	49.15
607.51	112.35
607.67	93.62
607.82	30.43
607.98	42.13
608.13	49.15
608.29	0.00
608.44	18.72
608.60	60.85
608.75	16.38
608.91	65.54
609.06	72.56
609.22	86.60
609.37	77.24
609.53	63.19
609.68	88.94
609.84	117.03
609.99	74.90
610.15	107.66
610.30	58.51
610.46	37.45
610.61	84.26
610.76	56.17
610.92	91.28
611.07	74.90
611.23	168.52
611.38	72.56
611.54	11.70
611.69	70.22
611.84	149.79
612.00	72.56
612.15	79.58
612.31	105.32
612.46	30.43
612.62	140.43
612.77	4.68
612.92	105.32
613.08	9.36
613.23	81.92
613.39	7.02
613.54	63.19
613.69	105.32
613.85	21.06
614.00	84.26
614.15	21.06
614.31	11.70
614.46	0.00
614.62	67.88
614.77	114.69
614.92	30.43
615.08	30.43
615.23	81.92
615.38	79.58
615.54	124.05
615.69	77.24
615.84	114.69
616.00	37.45
616.15	93.62
616.30	60.85
616.46	32.77
616.61	9.36
616.76	58.51
616.92	84.26
617.07	74.90
617.22	65.54
617.37	51.49
617.53	102.98
617.68	79.58
617.83	49.15
617.99	102.98
618.14	0.00
618.29	56.17
618.45	86.60
618.60	35.11
618.75	93.62
618.90	51.49
619.06	63.19
619.21	25.75
619.36	53.83
619.51	114.69
619.67	65.54
619.82	88.94
619.97	46.81
620.12	18.72
620.28	91.28
620.43	60.85
620.58	126.39
620.73	56.17
620.89	95.96
621.04	135.75
621.19	70.22
621.34	65.54
621.49	51.49
621.65	0.00
621.80	124.05
621.95	77.24
622.10	84.26
622.25	0.00
622.41	67.88
622.56	63.19
622.71	63.19
622.86	114.69
623.01	70.22
623.16	84.26
623.32	21.06
623.47	35.11
623.62	77.24
623.77	63.19
623.92	138.09
624.07	56.17
624.23	53.83
624.38	0.00
624.53	35.11
624.68	56.17
624.83	121.71
624.98	98.30
625.13	0.00
625.29	98.30
625.44	63.19
625.59	16.38
625.74	44.47
625.89	63.19
626.04	60.85
626.19	0.00
626.34	30.43
626.49	63.19
626.65	93.62
626.80	51.49
626.95	51.49
627.10	49.15
627.25	88.94
627.40	88.94
627.55	63.19
627.70	0.00
627.85	112.35
628.00	51.49
628.15	72.56
628.30	72.56
628.45	53.83
628.60	7.02
628.76	98.30
628.91	56.17
629.06	32.77
629.21	32.77
629.36	42.13
629.51	84.26
629.66	88.94
629.81	23.41
629.96	74.90
630.11	100.64
630.26	84.26
630.41	84.26
630.56	117.03
630.71	11.70
630.86	49.15
631.01	56.17
631.16	86.60
631.31	51.49
631.46	39.79
631.61	67.88
631.76	65.54
631.91	16.38
632.06	14.04
632.21	46.81
632.36	53.83
632.51	46.81
632.66	35.11
632.81	0.00
632.96	51.49
633.10	79.58
633.25	121.71
633.40	23.41
633.55	35.11
633.70	117.03
633.85	49.15
634.00	58.51
634.15	67.88
634.30	77.24
634.45	32.77
634.60	84.26
634.75	112.35
634.90	46.81
635.05	88.94
635.19	44.47
635.34	49.15
635.49	46.81
635.64	53.83
635.79	67.88
635.94	49.15
636.09	58.51
636.24	0.00
636.39	63.19
636.53	126.39
636.68	105.32
636.83	32.77
636.98	30.43
637.13	46.81
637.28	46.81
637.43	107.66
637.57	63.19
637.72	2.34
637.87	77.24
638.02	79.58
638.17	114.69
638.32	0.00
638.46	23.41
638.61	0.00
638.76	74.90
638.91	84.26
639.06	46.81
639.20	21.06
639.35	72.56
639.50	65.54
639.65	95.96
639.80	63.19
639.94	60.85
640.09	98.30
640.24	74.90
640.39	119.37
640.54	77.24
640.68	88.94
640.83	93.62
640.98	0.00
641.13	28.09
641.27	56.17
641.42	0.00
641.57	93.62
641.72	53.83
641.86	100.64
642.01	23.41
642.16	63.19
642.31	21.06
642.45	56.17
642.60	63.19
642.75	21.06
642.90	102.98
643.04	70.22
643.19	9.36
643.34	49.15
643.48	7.02
643.63	72.56
643.78	67.88
643.93	105.32
644.07	65.54
644.22	86.60
644.37	25.75
644.51	70.22
644.66	86.60
644.81	16.38
644.95	112.35
645.10	39.79
645.25	44.47
645.39	21.06
645.54	30.43
645.69	121.71
645.83	18.72
645.98	56.17
646.13	102.98
646.27	18.72
646.42	37.45
646.57	79.58
646.71	72.56
646.86	44.47
647.00	58.51
647.15	32.77
647.30	72.56
647.44	72.56
647.59	51.49
647.74	74.90
647.88	81.92
648.03	23.41
648.17	95.96
648.32	74.90
648.47	0.00
648.61	16.38
648.76	102.98
648.90	28.09
649.05	37.45
649.20	0.00
649.34	56.17
649.49	32.77
649.63	84.26
649.78	0.00
649.92	7.02
650.07	128.73
650.21	7.02
650.36	77.24
650.51	56.17
650.65	84.26
650.80	46.81
650.94	16.38
651.09	28.09
651.23	67.88
651.38	74.90
651.52	0.00
651.67	70.22
651.81	100.64
651.96	65.54
652.10	88.94
652.25	105.32
652.39	77.24
652.54	14.04
652.68	100.64
652.83	30.43
652.97	63.19
653.12	74.90
653.26	46.81
653.41	0.00
653.55	98.30
653.70	131.07
653.84	23.41
653.99	25.75
654.13	42.13
654.27	23.41
654.42	44.47
654.56	28.09
654.71	84.26
654.85	28.09
655.00	32.77
655.14	58.51
655.29	81.92
655.43	18.72
655.57	60.85
655.72	18.72
655.86	0.00
656.01	23.41
656.15	51.49
656.30	14.04
656.44	74.90
656.58	65.54
656.73	72.56
656.87	86.60
657.01	74.90
657.16	51.49
657.30	9.36
657.45	0.00
657.59	0.00
657.73	98.30
657.88	4.68
658.02	56.17
658.16	102.98
658.31	81.92
658.45	53.83
658.60	102.98
658.74	88.94
658.88	7.02
659.03	0.00
659.17	79.58
659.31	100.64
659.46	121.71
659.60	18.72
659.74	93.62
659.89	42.13
660.03	28.09
660.17	51.49
660.32	0.00
660.46	23.41
660.60	39.79
660.74	0.00
660.89	4.68
661.03	14.04
661.17	72.56
661.32	16.38
661.46	77.24
661.60	63.19
661.74	46.81
661.89	42.13
662.03	23.41
662.17	84.26
662.31	18.72
662.46	56.17
662.60	9.36
662.74	51.49
662.88	81.92
663.03	119.37
663.17	30.43
663.31	0.00
663.45	70.22
663.60	138.09
663.74	37.45
663.88	93.62
664.02	30.43
664.17	91.28
664.31	98.30
664.45	88.94
664.59	105.32
664.73	74.90
664.88	51.49
665.02	77.24
665.16	98.30
665.30	4.68
665.44	56.17
665.59	37.45
665.73	30.43
665.87	46.81
666.01	32.77
666.15	60.85
666.29	187.24
666.44	173.20
666.58	39.79
666.72	0.00
666.86	0.00
667.00	37.45
667.14	84.26
667.28	23.41
667.43	42.13
667.57	58.51
667.71	88.94
667.85	77.24
667.99	124.05
668.13	16.38
668.27	53.83
668.41	0.00
668.56	42.13
668.70	39.79
668.84	44.47
668.98	49.15
669.12	46.81
669.26	46.81
669.40	149.79
669.54	0.00
669.68	44.47
669.82	28.09
669.96	21.06
670.10	42.13
670.25	37.45
670.39	0.00
670.53	49.15
670.67	42.13
670.81	67.88
670.95	65.54
671.09	133.41
671.23	81.92
671.37	93.62
671.51	70.22
671.65	32.77
671.79	46.81
671.93	0.00
672.07	7.02
672.21	51.49
672.35	74.90
672.49	86.60
672.63	74.90
672.77	32.77
672.91	93.62
673.05	30.43
673.19	42.13
673.33	100.64
673.47	4.68
673.61	53.83
673.75	28.09
673.89	0.00
674.03	79.58
674.17	77.24
674.31	72.56
674.45	25.75
674.59	51.49
674.73	30.43
674.87	72.56
675.01	28.09
675.15	0.00
675.29	0.00
675.43	95.96
675.56	86.60
675.70	44.47
675.84	70.22
675.98	100.64
676.12	53.83
676.26	77.24
676.40	9.36
676.54	25.75
676.68	107.66
676.82	84.26
676.96	110.01
677.10	0.00
677.23	65.54
677.37	67.88
677.51	44.47
677.65	39.79
677.79	105.32
677.93	67.88
678.07	46.81
678.21	18.72
678.34	56.17
678.48	70.22
678.62	70.22
678.76	56.17
678.90	42.13
679.04	84.26
679.18	70.22
679.31	53.83
679.45	49.15
679.59	37.45
679.73	0.00
679.87	14.04
680.00	7.02
680.14	30.43
680.28	63.19
680.42	11.70
680.56	0.00
680.70	35.11
680.83	32.77
680.97	58.51
681.11	56.17
681.25	49.15
681.39	51.49
681.52	0.00
681.66	44.47
681.80	49.15
681.94	56.17
682.07	23.41
682.21	93.62
682.35	53.83
682.49	37.45
682.62	21.06
682.76	28.09
682.90	9.36
683.04	32.77
683.17	35.11
683.31	74.90
683.45	91.28
683.59	105.32
683.72	63.19
683.86	65.54
684.00	56.17
684.13	0.00
684.27	28.09
684.41	18.72
684.55	53.83
684.68	58.51
684.82	72.56
684.96	28.09
685.09	70.22
685.23	60.85
685.37	74.90
685.50	28.09
685.64	9.36
685.78	79.58
685.91	46.81
686.05	0.00
686.19	49.15
686.32	39.79
686.46	11.70
686.60	63.19
686.73	70.22
686.87	4.68
687.01	0.00
687.14	21.06
687.28	32.77
687.42	0.00
687.55	72.56
687.69	65.54
687.82	32.77
687.96	21.06
688.10	60.85
688.23	79.58
688.37	110.01
688.50	44.47
688.64	0.00
688.78	53.83
688.91	107.66
689.05	35.11
689.18	105.32
689.32	56.17
689.46	30.43
689.59	39.79
689.73	63.19
689.86	42.13
690.00	53.83
690.13	14.04
690.27	86.60
690.41	0.00
690.54	25.75
690.68	79.58
690.81	95.96
690.95	56.17
691.08	0.00
691.22	49.15
691.35	18.72
691.49	2.34
691.62	74.90
691.76	18.72
691.89	2.34
692.03	56.17
692.16	35.11
692.30	25.75
692.43	65.54
692.57	56.17
692.70	44.47
692.84	0.00
692.97	42.13
693.11	14.04
693.24	88.94
693.38	51.49
693.51	35.11
693.65	0.00
693.78	0.00
693.92	60.85
694.05	53.83
694.19	133.41
694.32	0.00
694.45	70.22
694.59	7.02
694.72	56.17
694.86	30.43
694.99	25.75
695.13	56.17
695.26	0.00
695.39	56.17
695.53	23.41
695.66	39.79
695.80	44.47
695.93	14.04
696.07	30.43
696.20	16.38
696.33	23.41
696.47	2.34
696.60	81.92
696.73	0.00
696.87	46.81
697.00	9.36
697.14	7.02
697.27	0.00
697.40	46.81
697.54	93.62
697.67	14.04
697.80	81.92
697.94	0.00
698.07	30.43
698.21	30.43
698.34	156.82
698.47	135.75
698.61	60.85
698.74	110.01
698.87	25.75
699.01	72.56
699.14	2.34
699.27	28.09
699.40	70.22
699.54	49.15
699.67	0.00
699.80	65.54
699.94	86.60
700.07	18.72
700.20	56.17
700.34	63.19
700.47	74.90
700.60	35.11
700.73	32.77
700.87	25.75
701.00	32.77
701.13	30.43
701.26	16.38
701.40	60.85
701.53	60.85
701.66	25.75
701.79	70.22
701.93	79.58
702.06	37.45
702.19	23.41
702.32	0.00
702.46	46.81
702.59	105.32
702.72	0.00
702.85	11.70
702.99	39.79
703.12	4.68
703.25	65.54
703.38	23.41
703.51	53.83
703.65	7.02
703.78	14.04
703.91	4.68
704.04	65.54
704.17	74.90
704.31	46.81
704.44	0.00
704.57	16.38
704.70	0.00
704.83	0.00
704.96	60.85
705.10	42.13
705.23	4.68
>>>>>End Processed Spectral Data<<<<<
