SpectraSuite Data File
++++++++++++++++++++++++++++++++++++
Date: Fri Oct 04 12:13:35 GMT-05:00 2013
User: price-jones
Dark Spectrum Present: No
Reference Spectrum Present: No
Number of Sampled Component Spectra: 1
Spectrometers: USB2+H05261
Integration Time (usec): 10000 (USB2+H05261)
Spectra Averaged: 1 (USB2+H05261)
Boxcar Smoothing: 0 (USB2+H05261)
Correct for Electrical Dark: No (USB2+H05261)
Strobe/Lamp Enabled: No (USB2+H05261)
Correct for Detector Non-linearity: No (USB2+H05261)
Correct for Stray Light: No (USB2+H05261)
Number of Pixels in Processed Spectrum: 2048
>>>>>Begin Processed Spectral Data<<<<<
365.73	0.00
365.92	0.00
366.12	0.00
366.32	0.00
366.52	0.00
366.72	0.00
366.91	0.00
367.11	0.00
367.31	0.00
367.51	0.00
367.70	0.00
367.90	0.00
368.10	0.00
368.30	0.00
368.49	0.00
368.69	0.00
368.89	0.00
369.09	0.00
369.28	0.00
369.48	0.00
369.68	0.00
369.87	0.00
370.07	0.00
370.27	0.00
370.47	0.00
370.66	0.00
370.86	0.00
371.06	0.00
371.25	0.00
371.45	0.00
371.65	28.09
371.84	0.00
372.04	0.00
372.24	32.77
372.44	0.00
372.63	4.68
372.83	0.00
373.03	42.13
373.22	110.01
373.42	28.09
373.62	14.04
373.81	0.00
374.01	25.75
374.21	70.22
374.40	9.36
374.60	0.00
374.79	23.41
374.99	9.36
375.19	35.11
375.38	42.13
375.58	0.00
375.78	74.90
375.97	11.70
376.17	72.56
376.37	77.24
376.56	25.75
376.76	0.00
376.95	18.72
377.15	67.88
377.35	147.45
377.54	58.51
377.74	7.02
377.93	0.00
378.13	53.83
378.33	65.54
378.52	35.11
378.72	16.38
378.91	9.36
379.11	0.00
379.31	0.00
379.50	58.51
379.70	39.79
379.89	42.13
380.09	7.02
380.28	0.00
380.48	44.47
380.68	46.81
380.87	63.19
381.07	81.92
381.26	0.00
381.46	7.02
381.65	37.45
381.85	4.68
382.04	0.00
382.24	7.02
382.43	0.00
382.63	42.13
382.83	9.36
383.02	0.00
383.22	42.13
383.41	58.51
383.61	7.02
383.80	0.00
384.00	2.34
384.19	32.77
384.39	18.72
384.58	49.15
384.78	11.70
384.97	0.00
385.17	0.00
385.36	35.11
385.56	14.04
385.75	60.85
385.95	7.02
386.14	77.24
386.34	4.68
386.53	37.45
386.72	11.70
386.92	0.00
387.11	0.00
387.31	56.17
387.50	4.68
387.70	0.00
387.89	67.88
388.09	77.24
388.28	44.47
388.48	28.09
388.67	53.83
388.86	0.00
389.06	32.77
389.25	49.15
389.45	0.00
389.64	0.00
389.84	44.47
390.03	72.56
390.22	16.38
390.42	42.13
390.61	30.43
390.81	39.79
391.00	0.00
391.19	0.00
391.39	110.01
391.58	9.36
391.78	0.00
391.97	0.00
392.16	25.75
392.36	72.56
392.55	28.09
392.75	14.04
392.94	58.51
393.13	16.38
393.33	0.00
393.52	30.43
393.71	100.64
393.91	16.38
394.10	21.06
394.29	32.77
394.49	2.34
394.68	0.00
394.88	28.09
395.07	110.01
395.26	44.47
395.46	0.00
395.65	0.00
395.84	77.24
396.04	42.13
396.23	0.00
396.42	23.41
396.62	39.79
396.81	77.24
397.00	42.13
397.19	53.83
397.39	9.36
397.58	32.77
397.77	7.02
397.97	51.49
398.16	39.79
398.35	60.85
398.55	0.00
398.74	0.00
398.93	0.00
399.12	14.04
399.32	95.96
399.51	0.00
399.70	14.04
399.90	53.83
400.09	0.00
400.28	23.41
400.47	107.66
400.67	21.06
400.86	28.09
401.05	25.75
401.24	42.13
401.44	0.00
401.63	0.00
401.82	4.68
402.01	0.00
402.21	98.30
402.40	14.04
402.59	44.47
402.78	42.13
402.97	72.56
403.17	39.79
403.36	49.15
403.55	37.45
403.74	0.00
403.93	67.88
404.13	67.88
404.32	11.70
404.51	11.70
404.70	0.00
404.89	32.77
405.09	21.06
405.28	65.54
405.47	39.79
405.66	39.79
405.85	91.28
406.05	58.51
406.24	74.90
406.43	30.43
406.62	4.68
406.81	18.72
407.00	53.83
407.20	0.00
407.39	60.85
407.58	35.11
407.77	102.98
407.96	23.41
408.15	77.24
408.34	95.96
408.54	28.09
408.73	25.75
408.92	0.00
409.11	16.38
409.30	35.11
409.49	60.85
409.68	77.24
409.87	88.94
410.07	23.41
410.26	37.45
410.45	51.49
410.64	39.79
410.83	67.88
411.02	49.15
411.21	4.68
411.40	74.90
411.59	49.15
411.78	9.36
411.98	88.94
412.17	0.00
412.36	60.85
412.55	21.06
412.74	0.00
412.93	56.17
413.12	11.70
413.31	42.13
413.50	93.62
413.69	74.90
413.88	21.06
414.07	0.00
414.26	102.98
414.45	42.13
414.64	79.58
414.83	119.37
415.02	32.77
415.22	11.70
415.41	14.04
415.60	9.36
415.79	39.79
415.98	56.17
416.17	25.75
416.36	135.75
416.55	72.56
416.74	35.11
416.93	39.79
417.12	0.00
417.31	53.83
417.50	60.85
417.69	28.09
417.88	39.79
418.07	28.09
418.26	42.13
418.45	88.94
418.64	14.04
418.83	58.51
419.02	60.85
419.21	18.72
419.39	25.75
419.58	28.09
419.77	37.45
419.96	0.00
420.15	72.56
420.34	58.51
420.53	0.00
420.72	44.47
420.91	11.70
421.10	72.56
421.29	39.79
421.48	53.83
421.67	58.51
421.86	0.00
422.05	88.94
422.24	56.17
422.43	58.51
422.61	79.58
422.80	35.11
422.99	110.01
423.18	51.49
423.37	53.83
423.56	7.02
423.75	28.09
423.94	0.00
424.13	58.51
424.32	145.11
424.50	58.51
424.69	81.92
424.88	77.24
425.07	51.49
425.26	0.00
425.45	2.34
425.64	18.72
425.83	51.49
426.01	117.03
426.20	70.22
426.39	70.22
426.58	44.47
426.77	42.13
426.96	53.83
427.15	14.04
427.33	37.45
427.52	56.17
427.71	32.77
427.90	56.17
428.09	63.19
428.28	44.47
428.46	74.90
428.65	42.13
428.84	72.56
429.03	124.05
429.22	79.58
429.40	114.69
429.59	42.13
429.78	77.24
429.97	0.00
430.16	86.60
430.34	11.70
430.53	37.45
430.72	35.11
430.91	77.24
431.10	65.54
431.28	46.81
431.47	42.13
431.66	70.22
431.85	131.07
432.03	86.60
432.22	9.36
432.41	46.81
432.60	18.72
432.79	9.36
432.97	49.15
433.16	79.58
433.35	49.15
433.54	60.85
433.72	32.77
433.91	65.54
434.10	0.00
434.28	0.00
434.47	0.00
434.66	53.83
434.85	18.72
435.03	51.49
435.22	18.72
435.41	93.62
435.59	16.38
435.78	133.41
435.97	37.45
436.16	32.77
436.34	25.75
436.53	58.51
436.72	21.06
436.90	95.96
437.09	23.41
437.28	39.79
437.46	72.56
437.65	11.70
437.84	39.79
438.02	60.85
438.21	88.94
438.40	46.81
438.58	46.81
438.77	25.75
438.96	0.00
439.14	81.92
439.33	56.17
439.52	105.32
439.70	65.54
439.89	63.19
440.08	49.15
440.26	67.88
440.45	0.00
440.63	93.62
440.82	102.98
441.01	84.26
441.19	25.75
441.38	84.26
441.57	107.66
441.75	0.00
441.94	0.00
442.12	95.96
442.31	49.15
442.50	105.32
442.68	77.24
442.87	58.51
443.05	79.58
443.24	100.64
443.43	74.90
443.61	58.51
443.80	44.47
443.98	56.17
444.17	93.62
444.35	86.60
444.54	126.39
444.73	35.11
444.91	21.06
445.10	63.19
445.28	74.90
445.47	100.64
445.65	58.51
445.84	18.72
446.02	28.09
446.21	0.00
446.39	88.94
446.58	23.41
446.77	63.19
446.95	44.47
447.14	25.75
447.32	0.00
447.51	46.81
447.69	72.56
447.88	0.00
448.06	23.41
448.25	70.22
448.43	72.56
448.62	42.13
448.80	77.24
448.99	60.85
449.17	114.69
449.36	0.00
449.54	65.54
449.73	86.60
449.91	98.30
450.10	53.83
450.28	28.09
450.46	74.90
450.65	51.49
450.83	70.22
451.02	81.92
451.20	65.54
451.39	28.09
451.57	0.00
451.76	7.02
451.94	49.15
452.13	67.88
452.31	84.26
452.49	0.00
452.68	53.83
452.86	25.75
453.05	72.56
453.23	93.62
453.42	35.11
453.60	44.47
453.78	112.35
453.97	14.04
454.15	84.26
454.34	32.77
454.52	77.24
454.70	91.28
454.89	32.77
455.07	23.41
455.26	119.37
455.44	79.58
455.62	100.64
455.81	25.75
455.99	46.81
456.17	0.00
456.36	49.15
456.54	53.83
456.73	121.71
456.91	16.38
457.09	79.58
457.28	42.13
457.46	0.00
457.64	142.77
457.83	72.56
458.01	42.13
458.19	56.17
458.38	65.54
458.56	9.36
458.74	16.38
458.93	56.17
459.11	30.43
459.29	79.58
459.48	53.83
459.66	39.79
459.84	49.15
460.03	79.58
460.21	37.45
460.39	191.92
460.57	72.56
460.76	124.05
460.94	81.92
461.12	42.13
461.31	51.49
461.49	102.98
461.67	98.30
461.85	81.92
462.04	70.22
462.22	49.15
462.40	107.66
462.59	117.03
462.77	63.19
462.95	53.83
463.13	95.96
463.32	7.02
463.50	79.58
463.68	0.00
463.86	65.54
464.05	110.01
464.23	88.94
464.41	51.49
464.59	32.77
464.78	30.43
464.96	30.43
465.14	42.13
465.32	65.54
465.50	35.11
465.69	0.00
465.87	60.85
466.05	107.66
466.23	35.11
466.41	42.13
466.60	28.09
466.78	67.88
466.96	58.51
467.14	32.77
467.32	84.26
467.51	70.22
467.69	28.09
467.87	28.09
468.05	28.09
468.23	58.51
468.41	14.04
468.60	49.15
468.78	25.75
468.96	37.45
469.14	42.13
469.32	28.09
469.50	7.02
469.69	21.06
469.87	74.90
470.05	63.19
470.23	81.92
470.41	60.85
470.59	84.26
470.77	0.00
470.95	35.11
471.14	117.03
471.32	98.30
471.50	84.26
471.68	77.24
471.86	77.24
472.04	18.72
472.22	58.51
472.40	77.24
472.58	16.38
472.77	0.00
472.95	74.90
473.13	98.30
473.31	112.35
473.49	65.54
473.67	58.51
473.85	100.64
474.03	156.82
474.21	84.26
474.39	49.15
474.57	60.85
474.75	93.62
474.93	53.83
475.12	105.32
475.30	44.47
475.48	112.35
475.66	14.04
475.84	63.19
476.02	79.58
476.20	46.81
476.38	39.79
476.56	35.11
476.74	23.41
476.92	67.88
477.10	91.28
477.28	60.85
477.46	149.79
477.64	58.51
477.82	0.00
478.00	39.79
478.18	60.85
478.36	0.00
478.54	114.69
478.72	53.83
478.90	74.90
479.08	72.56
479.26	79.58
479.44	39.79
479.62	63.19
479.80	42.13
479.98	77.24
480.16	114.69
480.34	74.90
480.52	42.13
480.70	72.56
480.88	14.04
481.06	44.47
481.24	28.09
481.41	11.70
481.59	65.54
481.77	39.79
481.95	39.79
482.13	7.02
482.31	9.36
482.49	70.22
482.67	53.83
482.85	84.26
483.03	30.43
483.21	77.24
483.39	51.49
483.57	72.56
483.74	149.79
483.92	30.43
484.10	70.22
484.28	119.37
484.46	79.58
484.64	135.75
484.82	46.81
485.00	32.77
485.18	32.77
485.35	65.54
485.53	91.28
485.71	126.39
485.89	56.17
486.07	0.00
486.25	58.51
486.43	51.49
486.61	23.41
486.78	131.07
486.96	51.49
487.14	18.72
487.32	21.06
487.50	72.56
487.68	56.17
487.85	53.83
488.03	44.47
488.21	21.06
488.39	67.88
488.57	110.01
488.75	46.81
488.92	98.30
489.10	100.64
489.28	107.66
489.46	58.51
489.64	88.94
489.81	79.58
489.99	84.26
490.17	46.81
490.35	79.58
490.53	65.54
490.70	58.51
490.88	70.22
491.06	23.41
491.24	16.38
491.41	60.85
491.59	79.58
491.77	44.47
491.95	84.26
492.13	53.83
492.30	98.30
492.48	35.11
492.66	63.19
492.84	0.00
493.01	84.26
493.19	163.84
493.37	74.90
493.54	86.60
493.72	39.79
493.90	133.41
494.08	102.98
494.25	65.54
494.43	32.77
494.61	63.19
494.79	77.24
494.96	117.03
495.14	67.88
495.32	124.05
495.49	21.06
495.67	131.07
495.85	77.24
496.02	46.81
496.20	81.92
496.38	93.62
496.55	84.26
496.73	39.79
496.91	32.77
497.09	11.70
497.26	42.13
497.44	112.35
497.62	35.11
497.79	65.54
497.97	112.35
498.14	63.19
498.32	100.64
498.50	42.13
498.67	58.51
498.85	77.24
499.03	86.60
499.20	128.73
499.38	60.85
499.56	63.19
499.73	58.51
499.91	77.24
500.08	65.54
500.26	119.37
500.44	2.34
500.61	86.60
500.79	98.30
500.97	49.15
501.14	72.56
501.32	114.69
501.49	124.05
501.67	49.15
501.84	128.73
502.02	135.75
502.20	53.83
502.37	63.19
502.55	28.09
502.72	121.71
502.90	44.47
503.07	86.60
503.25	60.85
503.43	4.68
503.60	42.13
503.78	117.03
503.95	39.79
504.13	39.79
504.30	79.58
504.48	53.83
504.65	77.24
504.83	70.22
505.01	65.54
505.18	60.85
505.36	189.58
505.53	173.20
505.71	60.85
505.88	58.51
506.06	119.37
506.23	0.00
506.41	53.83
506.58	86.60
506.76	30.43
506.93	102.98
507.11	60.85
507.28	60.85
507.46	60.85
507.63	58.51
507.81	63.19
507.98	79.58
508.16	93.62
508.33	138.09
508.50	65.54
508.68	65.54
508.85	74.90
509.03	42.13
509.20	95.96
509.38	84.26
509.55	70.22
509.73	117.03
509.90	121.71
510.08	49.15
510.25	91.28
510.42	28.09
510.60	84.26
510.77	65.54
510.95	65.54
511.12	0.00
511.30	53.83
511.47	39.79
511.64	35.11
511.82	110.01
511.99	70.22
512.17	25.75
512.34	93.62
512.51	51.49
512.69	58.51
512.86	79.58
513.04	100.64
513.21	67.88
513.38	51.49
513.56	79.58
513.73	44.47
513.90	72.56
514.08	70.22
514.25	84.26
514.43	110.01
514.60	135.75
514.77	42.13
514.95	74.90
515.12	95.96
515.29	117.03
515.47	79.58
515.64	77.24
515.81	44.47
515.99	0.00
516.16	79.58
516.33	56.17
516.51	159.16
516.68	42.13
516.85	84.26
517.03	0.00
517.20	93.62
517.37	77.24
517.54	72.56
517.72	100.64
517.89	72.56
518.06	32.77
518.24	88.94
518.41	79.58
518.58	124.05
518.75	30.43
518.93	79.58
519.10	140.43
519.27	58.51
519.45	0.00
519.62	95.96
519.79	131.07
519.96	107.66
520.14	112.35
520.31	91.28
520.48	86.60
520.65	105.32
520.83	84.26
521.00	133.41
521.17	86.60
521.34	124.05
521.52	49.15
521.69	88.94
521.86	98.30
522.03	100.64
522.20	58.51
522.38	84.26
522.55	60.85
522.72	35.11
522.89	102.98
523.07	79.58
523.24	2.34
523.41	60.85
523.58	35.11
523.75	0.00
523.92	65.54
524.10	119.37
524.27	70.22
524.44	74.90
524.61	46.81
524.78	35.11
524.96	84.26
525.13	102.98
525.30	121.71
525.47	149.79
525.64	77.24
525.81	91.28
525.98	107.66
526.16	91.28
526.33	58.51
526.50	0.00
526.67	81.92
526.84	65.54
527.01	21.06
527.18	107.66
527.36	25.75
527.53	28.09
527.70	53.83
527.87	11.70
528.04	37.45
528.21	100.64
528.38	72.56
528.55	88.94
528.72	98.30
528.89	60.85
529.07	60.85
529.24	77.24
529.41	79.58
529.58	79.58
529.75	77.24
529.92	145.11
530.09	63.19
530.26	114.69
530.43	28.09
530.60	37.45
530.77	98.30
530.94	84.26
531.11	110.01
531.28	105.32
531.46	60.85
531.63	112.35
531.80	65.54
531.97	51.49
532.14	11.70
532.31	72.56
532.48	84.26
532.65	93.62
532.82	65.54
532.99	60.85
533.16	49.15
533.33	51.49
533.50	154.48
533.67	105.32
533.84	107.66
534.01	51.49
534.18	110.01
534.35	208.31
534.52	173.20
534.69	84.26
534.86	93.62
535.03	39.79
535.20	60.85
535.37	95.96
535.54	93.62
535.71	112.35
535.88	126.39
536.05	67.88
536.22	32.77
536.38	58.51
536.55	128.73
536.72	56.17
536.89	51.49
537.06	37.45
537.23	23.41
537.40	91.28
537.57	42.13
537.74	117.03
537.91	117.03
538.08	107.66
538.25	126.39
538.42	131.07
538.59	112.35
538.75	133.41
538.92	135.75
539.09	93.62
539.26	77.24
539.43	98.30
539.60	65.54
539.77	110.01
539.94	49.15
540.11	79.58
540.28	81.92
540.44	126.39
540.61	107.66
540.78	114.69
540.95	91.28
541.12	58.51
541.29	93.62
541.46	105.32
541.62	95.96
541.79	88.94
541.96	53.83
542.13	21.06
542.30	84.26
542.47	124.05
542.63	56.17
542.80	49.15
542.97	107.66
543.14	72.56
543.31	79.58
543.48	74.90
543.64	117.03
543.81	79.58
543.98	93.62
544.15	56.17
544.32	39.79
544.48	119.37
544.65	88.94
544.82	79.58
544.99	46.81
545.16	93.62
545.32	0.00
545.49	105.32
545.66	145.11
545.83	23.41
546.00	100.64
546.16	126.39
546.33	67.88
546.50	79.58
546.67	95.96
546.83	81.92
547.00	140.43
547.17	81.92
547.34	81.92
547.50	46.81
547.67	56.17
547.84	117.03
548.00	25.75
548.17	37.45
548.34	49.15
548.51	135.75
548.67	46.81
548.84	98.30
549.01	65.54
549.18	67.88
549.34	56.17
549.51	84.26
549.68	126.39
549.84	79.58
550.01	58.51
550.18	65.54
550.34	86.60
550.51	112.35
550.68	91.28
550.84	74.90
551.01	107.66
551.18	86.60
551.34	180.22
551.51	79.58
551.68	135.75
551.84	23.41
552.01	149.79
552.18	133.41
552.34	70.22
552.51	44.47
552.68	81.92
552.84	98.30
553.01	102.98
553.18	142.77
553.34	56.17
553.51	124.05
553.67	93.62
553.84	133.41
554.01	135.75
554.17	23.41
554.34	147.45
554.51	126.39
554.67	126.39
554.84	98.30
555.00	32.77
555.17	18.72
555.33	84.26
555.50	154.48
555.67	133.41
555.83	145.11
556.00	91.28
556.16	2.34
556.33	100.64
556.50	119.37
556.66	44.47
556.83	112.35
556.99	98.30
557.16	74.90
557.32	105.32
557.49	131.07
557.65	93.62
557.82	25.75
557.98	93.62
558.15	25.75
558.32	23.41
558.48	98.30
558.65	53.83
558.81	14.04
558.98	112.35
559.14	53.83
559.31	70.22
559.47	84.26
559.64	74.90
559.80	0.00
559.97	133.41
560.13	93.62
560.30	16.38
560.46	91.28
560.63	67.88
560.79	60.85
560.96	65.54
561.12	77.24
561.29	91.28
561.45	86.60
561.61	156.82
561.78	152.13
561.94	32.77
562.11	79.58
562.27	72.56
562.44	107.66
562.60	88.94
562.77	133.41
562.93	42.13
563.10	91.28
563.26	0.00
563.42	65.54
563.59	53.83
563.75	28.09
563.92	100.64
564.08	114.69
564.24	74.90
564.41	98.30
564.57	16.38
564.74	77.24
564.90	105.32
565.07	0.00
565.23	102.98
565.39	37.45
565.56	77.24
565.72	77.24
565.88	88.94
566.05	114.69
566.21	60.85
566.38	23.41
566.54	147.45
566.70	126.39
566.87	149.79
567.03	84.26
567.19	140.43
567.36	14.04
567.52	138.09
567.68	107.66
567.85	56.17
568.01	74.90
568.17	84.26
568.34	28.09
568.50	88.94
568.66	119.37
568.83	105.32
568.99	110.01
569.15	140.43
569.32	70.22
569.48	65.54
569.64	42.13
569.81	53.83
569.97	105.32
570.13	30.43
570.30	14.04
570.46	70.22
570.62	4.68
570.78	110.01
570.95	124.05
571.11	67.88
571.27	102.98
571.43	46.81
571.60	37.45
571.76	117.03
571.92	46.81
572.09	2.34
572.25	84.26
572.41	0.00
572.57	88.94
572.74	65.54
572.90	142.77
573.06	49.15
573.22	86.60
573.38	93.62
573.55	77.24
573.71	70.22
573.87	124.05
574.03	110.01
574.20	105.32
574.36	98.30
574.52	28.09
574.68	11.70
574.84	51.49
575.01	140.43
575.17	95.96
575.33	91.28
575.49	81.92
575.65	58.51
575.82	60.85
575.98	37.45
576.14	74.90
576.30	70.22
576.46	63.19
576.62	86.60
576.79	86.60
576.95	65.54
577.11	86.60
577.27	44.47
577.43	81.92
577.59	126.39
577.75	149.79
577.92	18.72
578.08	84.26
578.24	30.43
578.40	100.64
578.56	159.16
578.72	131.07
578.88	58.51
579.04	49.15
579.21	60.85
579.37	0.00
579.53	88.94
579.69	81.92
579.85	149.79
580.01	46.81
580.17	72.56
580.33	105.32
580.49	67.88
580.65	124.05
580.82	126.39
580.98	74.90
581.14	88.94
581.30	105.32
581.46	88.94
581.62	74.90
581.78	25.75
581.94	77.24
582.10	102.98
582.26	23.41
582.42	88.94
582.58	100.64
582.74	67.88
582.90	67.88
583.06	0.00
583.22	119.37
583.38	81.92
583.54	70.22
583.70	51.49
583.86	49.15
584.02	51.49
584.18	58.51
584.34	86.60
584.50	60.85
584.66	142.77
584.82	42.13
584.98	114.69
585.14	147.45
585.30	72.56
585.46	77.24
585.62	0.00
585.78	39.79
585.94	44.47
586.10	46.81
586.26	0.00
586.42	95.96
586.58	100.64
586.74	140.43
586.90	170.86
587.06	124.05
587.22	86.60
587.38	70.22
587.54	37.45
587.70	37.45
587.86	114.69
588.02	65.54
588.18	53.83
588.34	4.68
588.49	56.17
588.65	77.24
588.81	63.19
588.97	102.98
589.13	46.81
589.29	49.15
589.45	53.83
589.61	67.88
589.77	60.85
589.93	65.54
590.08	72.56
590.24	46.81
590.40	138.09
590.56	112.35
590.72	102.98
590.88	107.66
591.04	30.43
591.20	25.75
591.35	67.88
591.51	32.77
591.67	166.18
591.83	23.41
591.99	77.24
592.15	9.36
592.31	95.96
592.46	121.71
592.62	32.77
592.78	72.56
592.94	102.98
593.10	77.24
593.26	56.17
593.41	65.54
593.57	49.15
593.73	53.83
593.89	81.92
594.05	100.64
594.20	95.96
594.36	60.85
594.52	81.92
594.68	51.49
594.84	0.00
594.99	79.58
595.15	0.00
595.31	0.00
595.47	133.41
595.62	74.90
595.78	102.98
595.94	60.85
596.10	107.66
596.25	14.04
596.41	95.96
596.57	77.24
596.73	79.58
596.88	105.32
597.04	119.37
597.20	77.24
597.36	53.83
597.51	42.13
597.67	42.13
597.83	112.35
597.99	86.60
598.14	63.19
598.30	74.90
598.46	53.83
598.61	138.09
598.77	16.38
598.93	44.47
599.09	88.94
599.24	95.96
599.40	7.02
599.56	9.36
599.71	53.83
599.87	102.98
600.03	81.92
600.18	135.75
600.34	88.94
600.50	60.85
600.65	25.75
600.81	0.00
600.97	86.60
601.12	79.58
601.28	86.60
601.44	11.70
601.59	166.18
601.75	91.28
601.91	77.24
602.06	77.24
602.22	114.69
602.37	112.35
602.53	72.56
602.69	39.79
602.84	51.49
603.00	84.26
603.16	46.81
603.31	81.92
603.47	0.00
603.62	72.56
603.78	16.38
603.94	126.39
604.09	37.45
604.25	74.90
604.40	84.26
604.56	107.66
604.71	60.85
604.87	135.75
605.03	112.35
605.18	67.88
605.34	18.72
605.49	14.04
605.65	44.47
605.80	60.85
605.96	194.26
606.12	74.90
606.27	102.98
606.43	72.56
606.58	95.96
606.74	72.56
606.89	117.03
607.05	100.64
607.20	93.62
607.36	53.83
607.51	88.94
607.67	28.09
607.82	30.43
607.98	72.56
608.13	53.83
608.29	51.49
608.44	30.43
608.60	46.81
608.75	77.24
608.91	32.77
609.06	133.41
609.22	114.69
609.37	161.50
609.53	56.17
609.68	14.04
609.84	102.98
609.99	56.17
610.15	65.54
610.30	114.69
610.46	39.79
610.61	98.30
610.76	49.15
610.92	117.03
611.07	79.58
611.23	100.64
611.38	63.19
611.54	105.32
611.69	58.51
611.84	91.28
612.00	9.36
612.15	4.68
612.31	74.90
612.46	93.62
612.62	25.75
612.77	175.54
612.92	18.72
613.08	32.77
613.23	58.51
613.39	53.83
613.54	107.66
613.69	102.98
613.85	39.79
614.00	16.38
614.15	49.15
614.31	131.07
614.46	51.49
614.62	37.45
614.77	14.04
614.92	74.90
615.08	56.17
615.23	46.81
615.38	51.49
615.54	95.96
615.69	56.17
615.84	23.41
616.00	112.35
616.15	37.45
616.30	0.00
616.46	53.83
616.61	112.35
616.76	56.17
616.92	0.00
617.07	60.85
617.22	53.83
617.37	84.26
617.53	124.05
617.68	37.45
617.83	65.54
617.99	51.49
618.14	128.73
618.29	154.48
618.45	98.30
618.60	84.26
618.75	14.04
618.90	14.04
619.06	30.43
619.21	93.62
619.36	16.38
619.51	30.43
619.67	65.54
619.82	0.00
619.97	56.17
620.12	112.35
620.28	70.22
620.43	88.94
620.58	117.03
620.73	65.54
620.89	35.11
621.04	53.83
621.19	84.26
621.34	63.19
621.49	166.18
621.65	84.26
621.80	95.96
621.95	49.15
622.10	35.11
622.25	70.22
622.41	0.00
622.56	23.41
622.71	44.47
622.86	67.88
623.01	65.54
623.16	100.64
623.32	72.56
623.47	105.32
623.62	100.64
623.77	175.54
623.92	23.41
624.07	7.02
624.23	114.69
624.38	112.35
624.53	35.11
624.68	37.45
624.83	28.09
624.98	51.49
625.13	77.24
625.29	56.17
625.44	32.77
625.59	51.49
625.74	51.49
625.89	91.28
626.04	11.70
626.19	2.34
626.34	58.51
626.49	79.58
626.65	147.45
626.80	21.06
626.95	16.38
627.10	79.58
627.25	91.28
627.40	2.34
627.55	56.17
627.70	49.15
627.85	95.96
628.00	51.49
628.15	32.77
628.30	128.73
628.45	86.60
628.60	32.77
628.76	135.75
628.91	114.69
629.06	18.72
629.21	156.82
629.36	18.72
629.51	63.19
629.66	72.56
629.81	0.00
629.96	9.36
630.11	74.90
630.26	58.51
630.41	32.77
630.56	72.56
630.71	95.96
630.86	39.79
631.01	81.92
631.16	63.19
631.31	86.60
631.46	84.26
631.61	30.43
631.76	23.41
631.91	112.35
632.06	65.54
632.21	72.56
632.36	0.00
632.51	70.22
632.66	46.81
632.81	32.77
632.96	4.68
633.10	67.88
633.25	81.92
633.40	25.75
633.55	58.51
633.70	28.09
633.85	39.79
634.00	102.98
634.15	84.26
634.30	14.04
634.45	105.32
634.60	117.03
634.75	23.41
634.90	95.96
635.05	44.47
635.19	58.51
635.34	65.54
635.49	0.00
635.64	102.98
635.79	72.56
635.94	49.15
636.09	95.96
636.24	32.77
636.39	16.38
636.53	105.32
636.68	32.77
636.83	53.83
636.98	142.77
637.13	72.56
637.28	60.85
637.43	70.22
637.57	77.24
637.72	126.39
637.87	98.30
638.02	0.00
638.17	9.36
638.32	131.07
638.46	81.92
638.61	11.70
638.76	30.43
638.91	49.15
639.06	56.17
639.20	28.09
639.35	0.00
639.50	32.77
639.65	14.04
639.80	16.38
639.94	98.30
640.09	53.83
640.24	53.83
640.39	30.43
640.54	70.22
640.68	0.00
640.83	11.70
640.98	11.70
641.13	60.85
641.27	60.85
641.42	39.79
641.57	0.00
641.72	100.64
641.86	30.43
642.01	39.79
642.16	46.81
642.31	51.49
642.45	28.09
642.60	14.04
642.75	30.43
642.90	32.77
643.04	67.88
643.19	32.77
643.34	0.00
643.48	21.06
643.63	49.15
643.78	91.28
643.93	51.49
644.07	7.02
644.22	21.06
644.37	91.28
644.51	114.69
644.66	60.85
644.81	63.19
644.95	35.11
645.10	95.96
645.25	63.19
645.39	49.15
645.54	30.43
645.69	39.79
645.83	114.69
645.98	67.88
646.13	37.45
646.27	39.79
646.42	95.96
646.57	49.15
646.71	18.72
646.86	91.28
647.00	105.32
647.15	30.43
647.30	37.45
647.44	25.75
647.59	74.90
647.74	131.07
647.88	51.49
648.03	70.22
648.17	67.88
648.32	58.51
648.47	42.13
648.61	86.60
648.76	70.22
648.90	58.51
649.05	46.81
649.20	84.26
649.34	42.13
649.49	0.00
649.63	95.96
649.78	65.54
649.92	4.68
650.07	56.17
650.21	28.09
650.36	84.26
650.51	70.22
650.65	163.84
650.80	81.92
650.94	16.38
651.09	56.17
651.23	51.49
651.38	28.09
651.52	30.43
651.67	16.38
651.81	9.36
651.96	79.58
652.10	0.00
652.25	0.00
652.39	35.11
652.54	42.13
652.68	98.30
652.83	7.02
652.97	63.19
653.12	49.15
653.26	58.51
653.41	46.81
653.55	67.88
653.70	51.49
653.84	32.77
653.99	58.51
654.13	100.64
654.27	39.79
654.42	58.51
654.56	44.47
654.71	86.60
654.85	63.19
655.00	11.70
655.14	79.58
655.29	49.15
655.43	67.88
655.57	74.90
655.72	84.26
655.86	93.62
656.01	14.04
656.15	32.77
656.30	88.94
656.44	95.96
656.58	77.24
656.73	46.81
656.87	11.70
657.01	74.90
657.16	198.95
657.30	2.34
657.45	93.62
657.59	88.94
657.73	67.88
657.88	0.00
658.02	39.79
658.16	25.75
658.31	84.26
658.45	35.11
658.60	107.66
658.74	140.43
658.88	67.88
659.03	58.51
659.17	9.36
659.31	0.00
659.46	93.62
659.60	65.54
659.74	21.06
659.89	79.58
660.03	63.19
660.17	65.54
660.32	7.02
660.46	93.62
660.60	56.17
660.74	49.15
660.89	67.88
661.03	56.17
661.17	30.43
661.32	28.09
661.46	100.64
661.60	91.28
661.74	152.13
661.89	37.45
662.03	77.24
662.17	39.79
662.31	74.90
662.46	74.90
662.60	53.83
662.74	28.09
662.88	81.92
663.03	39.79
663.17	16.38
663.31	58.51
663.45	70.22
663.60	0.00
663.74	30.43
663.88	100.64
664.02	7.02
664.17	91.28
664.31	117.03
664.45	42.13
664.59	56.17
664.73	9.36
664.88	93.62
665.02	16.38
665.16	28.09
665.30	2.34
665.44	81.92
665.59	70.22
665.73	37.45
665.87	30.43
666.01	4.68
666.15	81.92
666.29	44.47
666.44	98.30
666.58	18.72
666.72	110.01
666.86	16.38
667.00	60.85
667.14	81.92
667.28	16.38
667.43	131.07
667.57	72.56
667.71	25.75
667.85	110.01
667.99	63.19
668.13	35.11
668.27	93.62
668.41	0.00
668.56	21.06
668.70	58.51
668.84	58.51
668.98	16.38
669.12	124.05
669.26	105.32
669.40	70.22
669.54	60.85
669.68	35.11
669.82	18.72
669.96	63.19
670.10	37.45
670.25	21.06
670.39	4.68
670.53	100.64
670.67	23.41
670.81	72.56
670.95	16.38
671.09	0.00
671.23	0.00
671.37	49.15
671.51	0.00
671.65	0.00
671.79	0.00
671.93	70.22
672.07	81.92
672.21	112.35
672.35	60.85
672.49	28.09
672.63	93.62
672.77	42.13
672.91	23.41
673.05	65.54
673.19	35.11
673.33	67.88
673.47	37.45
673.61	77.24
673.75	0.00
673.89	91.28
674.03	79.58
674.17	100.64
674.31	39.79
674.45	0.00
674.59	58.51
674.73	39.79
674.87	77.24
675.01	65.54
675.15	23.41
675.29	112.35
675.43	81.92
675.56	74.90
675.70	86.60
675.84	44.47
675.98	84.26
676.12	30.43
676.26	58.51
676.40	93.62
676.54	67.88
676.68	21.06
676.82	63.19
676.96	42.13
677.10	95.96
677.23	53.83
677.37	42.13
677.51	23.41
677.65	93.62
677.79	56.17
677.93	23.41
678.07	84.26
678.21	25.75
678.34	86.60
678.48	32.77
678.62	30.43
678.76	28.09
678.90	39.79
679.04	65.54
679.18	81.92
679.31	72.56
679.45	0.00
679.59	37.45
679.73	70.22
679.87	0.00
680.00	65.54
680.14	0.00
680.28	23.41
680.42	51.49
680.56	56.17
680.70	21.06
680.83	39.79
680.97	105.32
681.11	14.04
681.25	44.47
681.39	79.58
681.52	0.00
681.66	44.47
681.80	9.36
681.94	0.00
682.07	67.88
682.21	28.09
682.35	60.85
682.49	77.24
682.62	135.75
682.76	79.58
682.90	21.06
683.04	42.13
683.17	14.04
683.31	28.09
683.45	77.24
683.59	70.22
683.72	4.68
683.86	23.41
684.00	0.00
684.13	84.26
684.27	42.13
684.41	49.15
684.55	0.00
684.68	142.77
684.82	37.45
684.96	84.26
685.09	25.75
685.23	39.79
685.37	44.47
685.50	4.68
685.64	86.60
685.78	0.00
685.91	67.88
686.05	72.56
686.19	105.32
686.32	7.02
686.46	88.94
686.60	58.51
686.73	23.41
686.87	93.62
687.01	56.17
687.14	0.00
687.28	51.49
687.42	0.00
687.55	4.68
687.69	9.36
687.82	0.00
687.96	0.00
688.10	107.66
688.23	72.56
688.37	14.04
688.50	30.43
688.64	23.41
688.78	25.75
688.91	0.00
689.05	46.81
689.18	23.41
689.32	28.09
689.46	23.41
689.59	0.00
689.73	0.00
689.86	84.26
690.00	25.75
690.13	46.81
690.27	60.85
690.41	49.15
690.54	25.75
690.68	67.88
690.81	4.68
690.95	72.56
691.08	37.45
691.22	28.09
691.35	14.04
691.49	16.38
691.62	25.75
691.76	42.13
691.89	0.00
692.03	100.64
692.16	37.45
692.30	46.81
692.43	0.00
692.57	14.04
692.70	30.43
692.84	44.47
692.97	18.72
693.11	14.04
693.24	49.15
693.38	0.00
693.51	95.96
693.65	44.47
693.78	63.19
693.92	67.88
694.05	11.70
694.19	39.79
694.32	42.13
694.45	95.96
694.59	63.19
694.72	63.19
694.86	70.22
694.99	93.62
695.13	51.49
695.26	39.79
695.39	77.24
695.53	58.51
695.66	30.43
695.80	37.45
695.93	49.15
696.07	56.17
696.20	2.34
696.33	81.92
696.47	81.92
696.60	25.75
696.73	28.09
696.87	49.15
697.00	30.43
697.14	16.38
697.27	74.90
697.40	0.00
697.54	39.79
697.67	14.04
697.80	0.00
697.94	72.56
698.07	79.58
698.21	37.45
698.34	72.56
698.47	63.19
698.61	0.00
698.74	37.45
698.87	18.72
699.01	86.60
699.14	0.00
699.27	0.00
699.40	0.00
699.54	11.70
699.67	84.26
699.80	44.47
699.94	77.24
700.07	35.11
700.20	0.00
700.34	0.00
700.47	58.51
700.60	0.00
700.73	0.00
700.87	0.00
701.00	0.00
701.13	0.00
701.26	4.68
701.40	37.45
701.53	28.09
701.66	39.79
701.79	35.11
701.93	35.11
702.06	0.00
702.19	35.11
702.32	23.41
702.46	39.79
702.59	74.90
702.72	0.00
702.85	21.06
702.99	58.51
703.12	39.79
703.25	56.17
703.38	91.28
703.51	0.00
703.65	100.64
703.78	0.00
703.91	42.13
704.04	98.30
704.17	58.51
704.31	14.04
704.44	9.36
704.57	44.47
704.70	32.77
704.83	51.49
704.96	0.00
705.10	9.36
705.23	0.00
>>>>>End Processed Spectral Data<<<<<
