SpectraSuite Data File
++++++++++++++++++++++++++++++++++++
Date: Fri Oct 04 12:13:39 GMT-05:00 2013
User: price-jones
Dark Spectrum Present: No
Reference Spectrum Present: No
Number of Sampled Component Spectra: 1
Spectrometers: USB2+H05261
Integration Time (usec): 10000 (USB2+H05261)
Spectra Averaged: 1 (USB2+H05261)
Boxcar Smoothing: 0 (USB2+H05261)
Correct for Electrical Dark: No (USB2+H05261)
Strobe/Lamp Enabled: No (USB2+H05261)
Correct for Detector Non-linearity: No (USB2+H05261)
Correct for Stray Light: No (USB2+H05261)
Number of Pixels in Processed Spectrum: 2048
>>>>>Begin Processed Spectral Data<<<<<
365.73	0.00
365.92	0.00
366.12	0.00
366.32	0.00
366.52	0.00
366.72	0.00
366.91	0.00
367.11	0.00
367.31	0.00
367.51	0.00
367.70	0.00
367.90	0.00
368.10	0.00
368.30	0.00
368.49	0.00
368.69	0.00
368.89	0.00
369.09	0.00
369.28	0.00
369.48	0.00
369.68	0.00
369.87	0.00
370.07	0.00
370.27	0.00
370.47	0.00
370.66	0.00
370.86	0.00
371.06	0.00
371.25	0.00
371.45	0.00
371.65	0.00
371.84	67.88
372.04	0.00
372.24	0.00
372.44	0.00
372.63	0.00
372.83	18.72
373.03	67.88
373.22	28.09
373.42	51.49
373.62	65.54
373.81	46.81
374.01	9.36
374.21	44.47
374.40	35.11
374.60	49.15
374.79	0.00
374.99	58.51
375.19	11.70
375.38	58.51
375.58	0.00
375.78	4.68
375.97	25.75
376.17	30.43
376.37	25.75
376.56	7.02
376.76	2.34
376.95	4.68
377.15	28.09
377.35	0.00
377.54	32.77
377.74	9.36
377.93	0.00
378.13	18.72
378.33	32.77
378.52	0.00
378.72	42.13
378.91	0.00
379.11	25.75
379.31	0.00
379.50	42.13
379.70	4.68
379.89	63.19
380.09	14.04
380.28	30.43
380.48	58.51
380.68	7.02
380.87	0.00
381.07	0.00
381.26	0.00
381.46	0.00
381.65	0.00
381.85	7.02
382.04	56.17
382.24	21.06
382.43	51.49
382.63	37.45
382.83	39.79
383.02	53.83
383.22	21.06
383.41	0.00
383.61	9.36
383.80	35.11
384.00	0.00
384.19	11.70
384.39	28.09
384.58	42.13
384.78	0.00
384.97	32.77
385.17	21.06
385.36	37.45
385.56	56.17
385.75	0.00
385.95	23.41
386.14	14.04
386.34	14.04
386.53	21.06
386.72	23.41
386.92	0.00
387.11	25.75
387.31	39.79
387.50	32.77
387.70	0.00
387.89	56.17
388.09	4.68
388.28	7.02
388.48	0.00
388.67	21.06
388.86	21.06
389.06	16.38
389.25	16.38
389.45	81.92
389.64	0.00
389.84	0.00
390.03	0.00
390.22	28.09
390.42	93.62
390.61	44.47
390.81	42.13
391.00	37.45
391.19	65.54
391.39	30.43
391.58	0.00
391.78	9.36
391.97	25.75
392.16	72.56
392.36	51.49
392.55	4.68
392.75	102.98
392.94	30.43
393.13	0.00
393.33	0.00
393.52	0.00
393.71	9.36
393.91	0.00
394.10	23.41
394.29	16.38
394.49	39.79
394.68	44.47
394.88	18.72
395.07	21.06
395.26	28.09
395.46	0.00
395.65	0.00
395.84	35.11
396.04	42.13
396.23	65.54
396.42	28.09
396.62	7.02
396.81	39.79
397.00	51.49
397.19	46.81
397.39	37.45
397.58	60.85
397.77	23.41
397.97	51.49
398.16	44.47
398.35	117.03
398.55	56.17
398.74	65.54
398.93	88.94
399.12	14.04
399.32	16.38
399.51	0.00
399.70	0.00
399.90	46.81
400.09	0.00
400.28	0.00
400.47	60.85
400.67	0.00
400.86	4.68
401.05	53.83
401.24	30.43
401.44	28.09
401.63	0.00
401.82	39.79
402.01	42.13
402.21	70.22
402.40	21.06
402.59	39.79
402.78	91.28
402.97	32.77
403.17	0.00
403.36	0.00
403.55	77.24
403.74	77.24
403.93	32.77
404.13	51.49
404.32	77.24
404.51	30.43
404.70	0.00
404.89	25.75
405.09	32.77
405.28	53.83
405.47	93.62
405.66	21.06
405.85	21.06
406.05	91.28
406.24	86.60
406.43	0.00
406.62	9.36
406.81	0.00
407.00	7.02
407.20	53.83
407.39	51.49
407.58	49.15
407.77	21.06
407.96	18.72
408.15	51.49
408.34	60.85
408.54	35.11
408.73	56.17
408.92	25.75
409.11	65.54
409.30	18.72
409.49	7.02
409.68	37.45
409.87	81.92
410.07	72.56
410.26	0.00
410.45	14.04
410.64	32.77
410.83	37.45
411.02	4.68
411.21	60.85
411.40	51.49
411.59	14.04
411.78	0.00
411.98	46.81
412.17	32.77
412.36	32.77
412.55	65.54
412.74	42.13
412.93	2.34
413.12	51.49
413.31	32.77
413.50	44.47
413.69	63.19
413.88	93.62
414.07	44.47
414.26	9.36
414.45	135.75
414.64	25.75
414.83	30.43
415.02	23.41
415.22	0.00
415.41	46.81
415.60	18.72
415.79	9.36
415.98	39.79
416.17	21.06
416.36	4.68
416.55	7.02
416.74	39.79
416.93	46.81
417.12	23.41
417.31	70.22
417.50	28.09
417.69	7.02
417.88	72.56
418.07	84.26
418.26	35.11
418.45	86.60
418.64	14.04
418.83	9.36
419.02	42.13
419.21	9.36
419.39	32.77
419.58	98.30
419.77	23.41
419.96	9.36
420.15	86.60
420.34	0.00
420.53	46.81
420.72	56.17
420.91	0.00
421.10	30.43
421.29	100.64
421.48	25.75
421.67	9.36
421.86	72.56
422.05	65.54
422.24	0.00
422.43	0.00
422.61	18.72
422.80	0.00
422.99	105.32
423.18	51.49
423.37	46.81
423.56	58.51
423.75	58.51
423.94	79.58
424.13	126.39
424.32	28.09
424.50	58.51
424.69	30.43
424.88	88.94
425.07	58.51
425.26	60.85
425.45	58.51
425.64	25.75
425.83	35.11
426.01	67.88
426.20	107.66
426.39	14.04
426.58	98.30
426.77	0.00
426.96	72.56
427.15	67.88
427.33	88.94
427.52	7.02
427.71	0.00
427.90	0.00
428.09	70.22
428.28	91.28
428.46	72.56
428.65	81.92
428.84	49.15
429.03	0.00
429.22	110.01
429.40	14.04
429.59	88.94
429.78	93.62
429.97	2.34
430.16	49.15
430.34	60.85
430.53	72.56
430.72	81.92
430.91	14.04
431.10	0.00
431.28	0.00
431.47	93.62
431.66	0.00
431.85	18.72
432.03	77.24
432.22	0.00
432.41	16.38
432.60	16.38
432.79	25.75
432.97	7.02
433.16	0.00
433.35	37.45
433.54	77.24
433.72	21.06
433.91	74.90
434.10	131.07
434.28	46.81
434.47	0.00
434.66	7.02
434.85	72.56
435.03	7.02
435.22	70.22
435.41	35.11
435.59	67.88
435.78	14.04
435.97	21.06
436.16	23.41
436.34	39.79
436.53	93.62
436.72	0.00
436.90	9.36
437.09	51.49
437.28	23.41
437.46	9.36
437.65	53.83
437.84	74.90
438.02	0.00
438.21	23.41
438.40	35.11
438.58	63.19
438.77	77.24
438.96	0.00
439.14	95.96
439.33	65.54
439.52	88.94
439.70	44.47
439.89	135.75
440.08	23.41
440.26	21.06
440.45	93.62
440.63	65.54
440.82	60.85
441.01	0.00
441.19	74.90
441.38	0.00
441.57	56.17
441.75	65.54
441.94	79.58
442.12	39.79
442.31	119.37
442.50	77.24
442.68	49.15
442.87	32.77
443.05	133.41
443.24	0.00
443.43	112.35
443.61	51.49
443.80	14.04
443.98	4.68
444.17	74.90
444.35	98.30
444.54	16.38
444.73	0.00
444.91	46.81
445.10	0.00
445.28	30.43
445.47	4.68
445.65	11.70
445.84	81.92
446.02	35.11
446.21	44.47
446.39	37.45
446.58	84.26
446.77	77.24
446.95	51.49
447.14	86.60
447.32	110.01
447.51	7.02
447.69	65.54
447.88	28.09
448.06	30.43
448.25	42.13
448.43	72.56
448.62	44.47
448.80	119.37
448.99	7.02
449.17	72.56
449.36	4.68
449.54	81.92
449.73	86.60
449.91	53.83
450.10	14.04
450.28	93.62
450.46	32.77
450.65	58.51
450.83	18.72
451.02	35.11
451.20	100.64
451.39	53.83
451.57	77.24
451.76	0.00
451.94	65.54
452.13	105.32
452.31	56.17
452.49	63.19
452.68	28.09
452.86	32.77
453.05	44.47
453.23	70.22
453.42	14.04
453.60	81.92
453.78	60.85
453.97	18.72
454.15	60.85
454.34	53.83
454.52	126.39
454.70	67.88
454.89	93.62
455.07	65.54
455.26	74.90
455.44	60.85
455.62	37.45
455.81	79.58
455.99	53.83
456.17	23.41
456.36	60.85
456.54	28.09
456.73	18.72
456.91	63.19
457.09	9.36
457.28	114.69
457.46	86.60
457.64	84.26
457.83	7.02
458.01	28.09
458.19	60.85
458.38	53.83
458.56	0.00
458.74	9.36
458.93	81.92
459.11	79.58
459.29	44.47
459.48	32.77
459.66	65.54
459.84	0.00
460.03	72.56
460.21	77.24
460.39	79.58
460.57	60.85
460.76	14.04
460.94	46.81
461.12	95.96
461.31	23.41
461.49	46.81
461.67	56.17
461.85	23.41
462.04	95.96
462.22	98.30
462.40	72.56
462.59	0.00
462.77	98.30
462.95	39.79
463.13	51.49
463.32	11.70
463.50	0.00
463.68	0.00
463.86	16.38
464.05	4.68
464.23	32.77
464.41	86.60
464.59	42.13
464.78	74.90
464.96	91.28
465.14	63.19
465.32	65.54
465.50	49.15
465.69	124.05
465.87	30.43
466.05	119.37
466.23	105.32
466.41	0.00
466.60	98.30
466.78	95.96
466.96	30.43
467.14	25.75
467.32	105.32
467.51	35.11
467.69	46.81
467.87	0.00
468.05	46.81
468.23	105.32
468.41	93.62
468.60	35.11
468.78	77.24
468.96	58.51
469.14	67.88
469.32	25.75
469.50	46.81
469.69	25.75
469.87	65.54
470.05	119.37
470.23	65.54
470.41	86.60
470.59	58.51
470.77	0.00
470.95	28.09
471.14	98.30
471.32	42.13
471.50	102.98
471.68	124.05
471.86	53.83
472.04	51.49
472.22	81.92
472.40	51.49
472.58	46.81
472.77	42.13
472.95	86.60
473.13	4.68
473.31	37.45
473.49	35.11
473.67	58.51
473.85	70.22
474.03	98.30
474.21	35.11
474.39	0.00
474.57	138.09
474.75	60.85
474.93	60.85
475.12	60.85
475.30	0.00
475.48	58.51
475.66	63.19
475.84	42.13
476.02	60.85
476.20	107.66
476.38	168.52
476.56	77.24
476.74	149.79
476.92	86.60
477.10	138.09
477.28	119.37
477.46	65.54
477.64	86.60
477.82	63.19
478.00	49.15
478.18	79.58
478.36	65.54
478.54	77.24
478.72	63.19
478.90	16.38
479.08	56.17
479.26	39.79
479.44	25.75
479.62	16.38
479.80	67.88
479.98	133.41
480.16	46.81
480.34	16.38
480.52	32.77
480.70	42.13
480.88	84.26
481.06	88.94
481.24	23.41
481.41	42.13
481.59	56.17
481.77	53.83
481.95	79.58
482.13	124.05
482.31	93.62
482.49	84.26
482.67	28.09
482.85	81.92
483.03	23.41
483.21	91.28
483.39	58.51
483.57	46.81
483.74	74.90
483.92	32.77
484.10	91.28
484.28	18.72
484.46	65.54
484.64	42.13
484.82	39.79
485.00	67.88
485.18	110.01
485.35	58.51
485.53	49.15
485.71	35.11
485.89	133.41
486.07	121.71
486.25	79.58
486.43	56.17
486.61	74.90
486.78	63.19
486.96	124.05
487.14	67.88
487.32	102.98
487.50	63.19
487.68	84.26
487.85	49.15
488.03	11.70
488.21	30.43
488.39	28.09
488.57	86.60
488.75	30.43
488.92	95.96
489.10	88.94
489.28	110.01
489.46	72.56
489.64	67.88
489.81	60.85
489.99	98.30
490.17	18.72
490.35	60.85
490.53	100.64
490.70	70.22
490.88	81.92
491.06	63.19
491.24	65.54
491.41	81.92
491.59	4.68
491.77	53.83
491.95	114.69
492.13	72.56
492.30	51.49
492.48	88.94
492.66	70.22
492.84	124.05
493.01	53.83
493.19	70.22
493.37	86.60
493.54	37.45
493.72	86.60
493.90	81.92
494.08	93.62
494.25	51.49
494.43	107.66
494.61	98.30
494.79	140.43
494.96	65.54
495.14	0.00
495.32	102.98
495.49	114.69
495.67	110.01
495.85	67.88
496.02	65.54
496.20	51.49
496.38	60.85
496.55	88.94
496.73	56.17
496.91	58.51
497.09	112.35
497.26	140.43
497.44	23.41
497.62	30.43
497.79	81.92
497.97	79.58
498.14	63.19
498.32	88.94
498.50	105.32
498.67	9.36
498.85	147.45
499.03	0.00
499.20	51.49
499.38	98.30
499.56	91.28
499.73	65.54
499.91	91.28
500.08	100.64
500.26	39.79
500.44	124.05
500.61	14.04
500.79	119.37
500.97	77.24
501.14	70.22
501.32	63.19
501.49	18.72
501.67	117.03
501.84	46.81
502.02	102.98
502.20	114.69
502.37	131.07
502.55	16.38
502.72	56.17
502.90	74.90
503.07	159.16
503.25	117.03
503.43	16.38
503.60	11.70
503.78	98.30
503.95	74.90
504.13	39.79
504.30	112.35
504.48	91.28
504.65	98.30
504.83	102.98
505.01	180.22
505.18	37.45
505.36	44.47
505.53	133.41
505.71	81.92
505.88	107.66
506.06	112.35
506.23	58.51
506.41	28.09
506.58	44.47
506.76	117.03
506.93	93.62
507.11	112.35
507.28	142.77
507.46	72.56
507.63	124.05
507.81	84.26
507.98	131.07
508.16	86.60
508.33	74.90
508.50	63.19
508.68	60.85
508.85	67.88
509.03	131.07
509.20	79.58
509.38	39.79
509.55	128.73
509.73	88.94
509.90	102.98
510.08	100.64
510.25	88.94
510.42	95.96
510.60	105.32
510.77	67.88
510.95	63.19
511.12	23.41
511.30	58.51
511.47	84.26
511.64	88.94
511.82	2.34
511.99	145.11
512.17	119.37
512.34	77.24
512.51	86.60
512.69	88.94
512.86	121.71
513.04	63.19
513.21	133.41
513.38	168.52
513.56	91.28
513.73	56.17
513.90	117.03
514.08	124.05
514.25	93.62
514.43	114.69
514.60	121.71
514.77	39.79
514.95	98.30
515.12	53.83
515.29	70.22
515.47	138.09
515.64	74.90
515.81	131.07
515.99	42.13
516.16	81.92
516.33	95.96
516.51	95.96
516.68	56.17
516.85	91.28
517.03	35.11
517.20	128.73
517.37	81.92
517.54	60.85
517.72	53.83
517.89	16.38
518.06	95.96
518.24	102.98
518.41	131.07
518.58	77.24
518.75	114.69
518.93	63.19
519.10	98.30
519.27	42.13
519.45	117.03
519.62	142.77
519.79	30.43
519.96	51.49
520.14	81.92
520.31	30.43
520.48	25.75
520.65	58.51
520.83	81.92
521.00	84.26
521.17	70.22
521.34	107.66
521.52	152.13
521.69	102.98
521.86	60.85
522.03	154.48
522.20	187.24
522.38	102.98
522.55	128.73
522.72	51.49
522.89	135.75
523.07	98.30
523.24	70.22
523.41	114.69
523.58	95.96
523.75	149.79
523.92	161.50
524.10	117.03
524.27	56.17
524.44	37.45
524.61	74.90
524.78	67.88
524.96	95.96
525.13	86.60
525.30	124.05
525.47	32.77
525.64	0.00
525.81	93.62
525.98	107.66
526.16	42.13
526.33	121.71
526.50	114.69
526.67	98.30
526.84	77.24
527.01	51.49
527.18	42.13
527.36	93.62
527.53	7.02
527.70	114.69
527.87	81.92
528.04	53.83
528.21	39.79
528.38	110.01
528.55	81.92
528.72	11.70
528.89	58.51
529.07	159.16
529.24	107.66
529.41	98.30
529.58	42.13
529.75	58.51
529.92	30.43
530.09	121.71
530.26	166.18
530.43	95.96
530.60	102.98
530.77	142.77
530.94	56.17
531.11	65.54
531.28	102.98
531.46	79.58
531.63	93.62
531.80	138.09
531.97	81.92
532.14	72.56
532.31	100.64
532.48	140.43
532.65	37.45
532.82	93.62
532.99	84.26
533.16	77.24
533.33	102.98
533.50	67.88
533.67	124.05
533.84	81.92
534.01	81.92
534.18	28.09
534.35	28.09
534.52	131.07
534.69	112.35
534.86	84.26
535.03	86.60
535.20	37.45
535.37	100.64
535.54	81.92
535.71	88.94
535.88	37.45
536.05	121.71
536.22	9.36
536.38	4.68
536.55	107.66
536.72	145.11
536.89	63.19
537.06	74.90
537.23	49.15
537.40	51.49
537.57	79.58
537.74	37.45
537.91	81.92
538.08	114.69
538.25	37.45
538.42	95.96
538.59	84.26
538.75	60.85
538.92	39.79
539.09	91.28
539.26	30.43
539.43	56.17
539.60	65.54
539.77	81.92
539.94	98.30
540.11	18.72
540.28	84.26
540.44	56.17
540.61	23.41
540.78	63.19
540.95	74.90
541.12	49.15
541.29	49.15
541.46	28.09
541.62	131.07
541.79	86.60
541.96	86.60
542.13	100.64
542.30	131.07
542.47	79.58
542.63	110.01
542.80	35.11
542.97	128.73
543.14	107.66
543.31	30.43
543.48	63.19
543.64	142.77
543.81	128.73
543.98	119.37
544.15	56.17
544.32	44.47
544.48	56.17
544.65	56.17
544.82	126.39
544.99	42.13
545.16	42.13
545.32	37.45
545.49	154.48
545.66	77.24
545.83	159.16
546.00	32.77
546.16	74.90
546.33	95.96
546.50	93.62
546.67	119.37
546.83	93.62
547.00	65.54
547.17	53.83
547.34	60.85
547.50	133.41
547.67	46.81
547.84	88.94
548.00	142.77
548.17	63.19
548.34	128.73
548.51	105.32
548.67	88.94
548.84	60.85
549.01	138.09
549.18	110.01
549.34	88.94
549.51	72.56
549.68	37.45
549.84	18.72
550.01	86.60
550.18	102.98
550.34	35.11
550.51	18.72
550.68	119.37
550.84	102.98
551.01	88.94
551.18	70.22
551.34	51.49
551.51	98.30
551.68	84.26
551.84	39.79
552.01	114.69
552.18	121.71
552.34	100.64
552.51	60.85
552.68	79.58
552.84	117.03
553.01	121.71
553.18	74.90
553.34	138.09
553.51	81.92
553.67	77.24
553.84	37.45
554.01	11.70
554.17	117.03
554.34	25.75
554.51	67.88
554.67	72.56
554.84	51.49
555.00	72.56
555.17	147.45
555.33	70.22
555.50	58.51
555.67	126.39
555.83	42.13
556.00	7.02
556.16	81.92
556.33	70.22
556.50	117.03
556.66	18.72
556.83	119.37
556.99	79.58
557.16	156.82
557.32	100.64
557.49	9.36
557.65	53.83
557.82	149.79
557.98	39.79
558.15	67.88
558.32	72.56
558.48	124.05
558.65	112.35
558.81	124.05
558.98	65.54
559.14	128.73
559.31	42.13
559.47	133.41
559.64	72.56
559.80	86.60
559.97	86.60
560.13	39.79
560.30	49.15
560.46	107.66
560.63	95.96
560.79	121.71
560.96	79.58
561.12	70.22
561.29	46.81
561.45	79.58
561.61	46.81
561.78	98.30
561.94	72.56
562.11	56.17
562.27	37.45
562.44	100.64
562.60	32.77
562.77	32.77
562.93	126.39
563.10	39.79
563.26	98.30
563.42	163.84
563.59	95.96
563.75	128.73
563.92	60.85
564.08	140.43
564.24	128.73
564.41	95.96
564.57	145.11
564.74	74.90
564.90	81.92
565.07	70.22
565.23	170.86
565.39	112.35
565.56	72.56
565.72	142.77
565.88	2.34
566.05	88.94
566.21	95.96
566.38	77.24
566.54	35.11
566.70	79.58
566.87	131.07
567.03	124.05
567.19	0.00
567.36	79.58
567.52	126.39
567.68	79.58
567.85	56.17
568.01	98.30
568.17	91.28
568.34	142.77
568.50	95.96
568.66	98.30
568.83	63.19
568.99	74.90
569.15	23.41
569.32	154.48
569.48	74.90
569.64	93.62
569.81	86.60
569.97	121.71
570.13	119.37
570.30	63.19
570.46	70.22
570.62	28.09
570.78	74.90
570.95	84.26
571.11	107.66
571.27	46.81
571.43	16.38
571.60	117.03
571.76	110.01
571.92	119.37
572.09	70.22
572.25	112.35
572.41	102.98
572.57	32.77
572.74	56.17
572.90	60.85
573.06	100.64
573.22	93.62
573.38	77.24
573.55	56.17
573.71	77.24
573.87	65.54
574.03	84.26
574.20	79.58
574.36	60.85
574.52	74.90
574.68	70.22
574.84	0.00
575.01	107.66
575.17	86.60
575.33	95.96
575.49	77.24
575.65	70.22
575.82	121.71
575.98	147.45
576.14	56.17
576.30	42.13
576.46	23.41
576.62	0.00
576.79	74.90
576.95	124.05
577.11	30.43
577.27	117.03
577.43	51.49
577.59	67.88
577.75	67.88
577.92	72.56
578.08	74.90
578.24	81.92
578.40	107.66
578.56	81.92
578.72	32.77
578.88	79.58
579.04	91.28
579.21	67.88
579.37	124.05
579.53	0.00
579.69	35.11
579.85	107.66
580.01	30.43
580.17	72.56
580.33	67.88
580.49	58.51
580.65	131.07
580.82	84.26
580.98	58.51
581.14	23.41
581.30	72.56
581.46	14.04
581.62	149.79
581.78	81.92
581.94	84.26
582.10	37.45
582.26	44.47
582.42	37.45
582.58	84.26
582.74	124.05
582.90	102.98
583.06	58.51
583.22	102.98
583.38	65.54
583.54	16.38
583.70	39.79
583.86	72.56
584.02	65.54
584.18	105.32
584.34	138.09
584.50	112.35
584.66	0.00
584.82	84.26
584.98	37.45
585.14	91.28
585.30	51.49
585.46	72.56
585.62	98.30
585.78	84.26
585.94	42.13
586.10	21.06
586.26	86.60
586.42	133.41
586.58	121.71
586.74	37.45
586.90	119.37
587.06	37.45
587.22	114.69
587.38	105.32
587.54	140.43
587.70	86.60
587.86	112.35
588.02	86.60
588.18	28.09
588.34	39.79
588.49	93.62
588.65	56.17
588.81	51.49
588.97	95.96
589.13	30.43
589.29	0.00
589.45	93.62
589.61	91.28
589.77	117.03
589.93	58.51
590.08	30.43
590.24	53.83
590.40	133.41
590.56	81.92
590.72	30.43
590.88	67.88
591.04	16.38
591.20	81.92
591.35	42.13
591.51	58.51
591.67	98.30
591.83	37.45
591.99	30.43
592.15	74.90
592.31	28.09
592.46	84.26
592.62	100.64
592.78	46.81
592.94	51.49
593.10	70.22
593.26	81.92
593.41	81.92
593.57	77.24
593.73	163.84
593.89	49.15
594.05	53.83
594.20	63.19
594.36	35.11
594.52	39.79
594.68	2.34
594.84	53.83
594.99	35.11
595.15	42.13
595.31	74.90
595.47	60.85
595.62	100.64
595.78	56.17
595.94	110.01
596.10	39.79
596.25	60.85
596.41	23.41
596.57	42.13
596.73	32.77
596.88	100.64
597.04	58.51
597.20	0.00
597.36	49.15
597.51	16.38
597.67	121.71
597.83	0.00
597.99	131.07
598.14	37.45
598.30	51.49
598.46	88.94
598.61	37.45
598.77	84.26
598.93	91.28
599.09	25.75
599.24	128.73
599.40	39.79
599.56	56.17
599.71	110.01
599.87	110.01
600.03	9.36
600.18	154.48
600.34	81.92
600.50	56.17
600.65	95.96
600.81	44.47
600.97	77.24
601.12	107.66
601.28	126.39
601.44	105.32
601.59	51.49
601.75	88.94
601.91	30.43
602.06	25.75
602.22	9.36
602.37	60.85
602.53	105.32
602.69	14.04
602.84	81.92
603.00	131.07
603.16	23.41
603.31	11.70
603.47	117.03
603.62	112.35
603.78	63.19
603.94	21.06
604.09	124.05
604.25	51.49
604.40	56.17
604.56	72.56
604.71	25.75
604.87	56.17
605.03	58.51
605.18	49.15
605.34	70.22
605.49	105.32
605.65	133.41
605.80	86.60
605.96	60.85
606.12	58.51
606.27	95.96
606.43	35.11
606.58	110.01
606.74	58.51
606.89	16.38
607.05	4.68
607.20	32.77
607.36	35.11
607.51	74.90
607.67	42.13
607.82	25.75
607.98	14.04
608.13	35.11
608.29	93.62
608.44	56.17
608.60	77.24
608.75	51.49
608.91	91.28
609.06	25.75
609.22	32.77
609.37	79.58
609.53	77.24
609.68	95.96
609.84	56.17
609.99	102.98
610.15	102.98
610.30	65.54
610.46	81.92
610.61	74.90
610.76	56.17
610.92	32.77
611.07	53.83
611.23	91.28
611.38	124.05
611.54	58.51
611.69	88.94
611.84	81.92
612.00	67.88
612.15	145.11
612.31	11.70
612.46	18.72
612.62	110.01
612.77	88.94
612.92	37.45
613.08	32.77
613.23	16.38
613.39	42.13
613.54	95.96
613.69	60.85
613.85	70.22
614.00	56.17
614.15	72.56
614.31	39.79
614.46	14.04
614.62	67.88
614.77	60.85
614.92	58.51
615.08	44.47
615.23	0.00
615.38	53.83
615.54	77.24
615.69	110.01
615.84	30.43
616.00	49.15
616.15	58.51
616.30	95.96
616.46	58.51
616.61	72.56
616.76	114.69
616.92	63.19
617.07	49.15
617.22	88.94
617.37	53.83
617.53	39.79
617.68	11.70
617.83	114.69
617.99	51.49
618.14	67.88
618.29	100.64
618.45	100.64
618.60	105.32
618.75	67.88
618.90	91.28
619.06	93.62
619.21	98.30
619.36	44.47
619.51	152.13
619.67	65.54
619.82	117.03
619.97	28.09
620.12	67.88
620.28	28.09
620.43	25.75
620.58	119.37
620.73	53.83
620.89	86.60
621.04	119.37
621.19	112.35
621.34	63.19
621.49	95.96
621.65	70.22
621.80	51.49
621.95	117.03
622.10	74.90
622.25	84.26
622.41	102.98
622.56	28.09
622.71	105.32
622.86	100.64
623.01	91.28
623.16	124.05
623.32	49.15
623.47	46.81
623.62	42.13
623.77	39.79
623.92	30.43
624.07	110.01
624.23	77.24
624.38	9.36
624.53	0.00
624.68	21.06
624.83	77.24
624.98	42.13
625.13	4.68
625.29	100.64
625.44	42.13
625.59	37.45
625.74	112.35
625.89	74.90
626.04	37.45
626.19	39.79
626.34	70.22
626.49	60.85
626.65	67.88
626.80	60.85
626.95	77.24
627.10	0.00
627.25	58.51
627.40	42.13
627.55	58.51
627.70	0.00
627.85	32.77
628.00	25.75
628.15	60.85
628.30	110.01
628.45	88.94
628.60	46.81
628.76	86.60
628.91	88.94
629.06	110.01
629.21	98.30
629.36	154.48
629.51	51.49
629.66	56.17
629.81	121.71
629.96	0.00
630.11	23.41
630.26	56.17
630.41	51.49
630.56	70.22
630.71	147.45
630.86	70.22
631.01	95.96
631.16	28.09
631.31	72.56
631.46	49.15
631.61	93.62
631.76	91.28
631.91	58.51
632.06	46.81
632.21	35.11
632.36	35.11
632.51	0.00
632.66	56.17
632.81	42.13
632.96	131.07
633.10	37.45
633.25	119.37
633.40	58.51
633.55	49.15
633.70	46.81
633.85	74.90
634.00	70.22
634.15	16.38
634.30	9.36
634.45	95.96
634.60	46.81
634.75	16.38
634.90	51.49
635.05	156.82
635.19	46.81
635.34	79.58
635.49	67.88
635.64	0.00
635.79	79.58
635.94	9.36
636.09	58.51
636.24	102.98
636.39	67.88
636.53	58.51
636.68	112.35
636.83	18.72
636.98	60.85
637.13	110.01
637.28	70.22
637.43	74.90
637.57	44.47
637.72	112.35
637.87	32.77
638.02	23.41
638.17	117.03
638.32	67.88
638.46	84.26
638.61	58.51
638.76	42.13
638.91	86.60
639.06	93.62
639.20	119.37
639.35	44.47
639.50	72.56
639.65	0.00
639.80	49.15
639.94	0.00
640.09	32.77
640.24	124.05
640.39	35.11
640.54	79.58
640.68	135.75
640.83	60.85
640.98	46.81
641.13	42.13
641.27	11.70
641.42	0.00
641.57	74.90
641.72	107.66
641.86	102.98
642.01	77.24
642.16	67.88
642.31	7.02
642.45	72.56
642.60	65.54
642.75	110.01
642.90	39.79
643.04	79.58
643.19	79.58
643.34	65.54
643.48	56.17
643.63	60.85
643.78	95.96
643.93	81.92
644.07	79.58
644.22	0.00
644.37	11.70
644.51	51.49
644.66	77.24
644.81	100.64
644.95	42.13
645.10	16.38
645.25	70.22
645.39	35.11
645.54	93.62
645.69	18.72
645.83	88.94
645.98	84.26
646.13	51.49
646.27	105.32
646.42	95.96
646.57	95.96
646.71	49.15
646.86	124.05
647.00	126.39
647.15	77.24
647.30	46.81
647.44	65.54
647.59	0.00
647.74	23.41
647.88	30.43
648.03	67.88
648.17	65.54
648.32	95.96
648.47	0.00
648.61	11.70
648.76	65.54
648.90	74.90
649.05	67.88
649.20	86.60
649.34	131.07
649.49	14.04
649.63	65.54
649.78	32.77
649.92	11.70
650.07	105.32
650.21	53.83
650.36	49.15
650.51	42.13
650.65	56.17
650.80	0.00
650.94	81.92
651.09	86.60
651.23	30.43
651.38	56.17
651.52	56.17
651.67	49.15
651.81	58.51
651.96	51.49
652.10	93.62
652.25	23.41
652.39	117.03
652.54	14.04
652.68	28.09
652.83	63.19
652.97	0.00
653.12	30.43
653.26	79.58
653.41	32.77
653.55	60.85
653.70	93.62
653.84	100.64
653.99	79.58
654.13	53.83
654.27	65.54
654.42	74.90
654.56	30.43
654.71	86.60
654.85	58.51
655.00	0.00
655.14	65.54
655.29	21.06
655.43	70.22
655.57	65.54
655.72	37.45
655.86	58.51
656.01	65.54
656.15	0.00
656.30	0.00
656.44	0.00
656.58	42.13
656.73	7.02
656.87	32.77
657.01	70.22
657.16	110.01
657.30	46.81
657.45	107.66
657.59	51.49
657.73	32.77
657.88	18.72
658.02	16.38
658.16	4.68
658.31	37.45
658.45	37.45
658.60	11.70
658.74	95.96
658.88	84.26
659.03	56.17
659.17	70.22
659.31	21.06
659.46	30.43
659.60	37.45
659.74	63.19
659.89	0.00
660.03	18.72
660.17	44.47
660.32	14.04
660.46	65.54
660.60	44.47
660.74	23.41
660.89	49.15
661.03	0.00
661.17	44.47
661.32	58.51
661.46	58.51
661.60	46.81
661.74	60.85
661.89	117.03
662.03	32.77
662.17	18.72
662.31	86.60
662.46	84.26
662.60	0.00
662.74	53.83
662.88	58.51
663.03	58.51
663.17	49.15
663.31	72.56
663.45	70.22
663.60	53.83
663.74	0.00
663.88	79.58
664.02	88.94
664.17	0.00
664.31	0.00
664.45	46.81
664.59	65.54
664.73	0.00
664.88	100.64
665.02	35.11
665.16	35.11
665.30	67.88
665.44	11.70
665.59	35.11
665.73	21.06
665.87	81.92
666.01	91.28
666.15	18.72
666.29	63.19
666.44	88.94
666.58	28.09
666.72	51.49
666.86	70.22
667.00	74.90
667.14	110.01
667.28	77.24
667.43	32.77
667.57	81.92
667.71	84.26
667.85	56.17
667.99	53.83
668.13	14.04
668.27	145.11
668.41	102.98
668.56	21.06
668.70	0.00
668.84	9.36
668.98	60.85
669.12	84.26
669.26	51.49
669.40	124.05
669.54	46.81
669.68	32.77
669.82	56.17
669.96	86.60
670.10	9.36
670.25	84.26
670.39	58.51
670.53	114.69
670.67	32.77
670.81	79.58
670.95	32.77
671.09	70.22
671.23	58.51
671.37	91.28
671.51	110.01
671.65	84.26
671.79	91.28
671.93	11.70
672.07	16.38
672.21	110.01
672.35	35.11
672.49	39.79
672.63	0.00
672.77	30.43
672.91	74.90
673.05	63.19
673.19	32.77
673.33	79.58
673.47	114.69
673.61	0.00
673.75	58.51
673.89	105.32
674.03	14.04
674.17	0.00
674.31	65.54
674.45	60.85
674.59	39.79
674.73	95.96
674.87	70.22
675.01	28.09
675.15	70.22
675.29	107.66
675.43	65.54
675.56	95.96
675.70	107.66
675.84	53.83
675.98	53.83
676.12	16.38
676.26	7.02
676.40	79.58
676.54	56.17
676.68	70.22
676.82	2.34
676.96	32.77
677.10	9.36
677.23	74.90
677.37	42.13
677.51	7.02
677.65	0.00
677.79	67.88
677.93	25.75
678.07	56.17
678.21	0.00
678.34	65.54
678.48	81.92
678.62	72.56
678.76	42.13
678.90	49.15
679.04	79.58
679.18	60.85
679.31	44.47
679.45	0.00
679.59	74.90
679.73	35.11
679.87	14.04
680.00	32.77
680.14	23.41
680.28	9.36
680.42	37.45
680.56	51.49
680.70	65.54
680.83	42.13
680.97	11.70
681.11	0.00
681.25	28.09
681.39	42.13
681.52	95.96
681.66	86.60
681.80	100.64
681.94	28.09
682.07	46.81
682.21	16.38
682.35	56.17
682.49	93.62
682.62	25.75
682.76	65.54
682.90	0.00
683.04	84.26
683.17	51.49
683.31	70.22
683.45	65.54
683.59	51.49
683.72	9.36
683.86	0.00
684.00	0.00
684.13	35.11
684.27	7.02
684.41	0.00
684.55	2.34
684.68	46.81
684.82	79.58
684.96	70.22
685.09	114.69
685.23	18.72
685.37	21.06
685.50	35.11
685.64	2.34
685.78	91.28
685.91	44.47
686.05	70.22
686.19	56.17
686.32	18.72
686.46	0.00
686.60	32.77
686.73	30.43
686.87	100.64
687.01	58.51
687.14	0.00
687.28	7.02
687.42	14.04
687.55	39.79
687.69	0.00
687.82	58.51
687.96	79.58
688.10	107.66
688.23	0.00
688.37	81.92
688.50	28.09
688.64	51.49
688.78	60.85
688.91	65.54
689.05	63.19
689.18	51.49
689.32	0.00
689.46	46.81
689.59	67.88
689.73	0.00
689.86	72.56
690.00	46.81
690.13	18.72
690.27	65.54
690.41	44.47
690.54	65.54
690.68	35.11
690.81	25.75
690.95	32.77
691.08	56.17
691.22	11.70
691.35	18.72
691.49	42.13
691.62	42.13
691.76	65.54
691.89	23.41
692.03	21.06
692.16	32.77
692.30	46.81
692.43	11.70
692.57	0.00
692.70	44.47
692.84	65.54
692.97	72.56
693.11	88.94
693.24	0.00
693.38	4.68
693.51	11.70
693.65	0.00
693.78	60.85
693.92	56.17
694.05	28.09
694.19	49.15
694.32	9.36
694.45	51.49
694.59	0.00
694.72	2.34
694.86	51.49
694.99	39.79
695.13	58.51
695.26	0.00
695.39	42.13
695.53	18.72
695.66	91.28
695.80	84.26
695.93	18.72
696.07	0.00
696.20	0.00
696.33	110.01
696.47	88.94
696.60	16.38
696.73	25.75
696.87	46.81
697.00	49.15
697.14	28.09
697.27	37.45
697.40	0.00
697.54	88.94
697.67	58.51
697.80	21.06
697.94	32.77
698.07	25.75
698.21	0.00
698.34	98.30
698.47	114.69
698.61	11.70
698.74	46.81
698.87	25.75
699.01	0.00
699.14	23.41
699.27	77.24
699.40	44.47
699.54	72.56
699.67	74.90
699.80	95.96
699.94	88.94
700.07	0.00
700.20	56.17
700.34	79.58
700.47	56.17
700.60	70.22
700.73	28.09
700.87	9.36
701.00	32.77
701.13	77.24
701.26	77.24
701.40	32.77
701.53	0.00
701.66	7.02
701.79	44.47
701.93	74.90
702.06	74.90
702.19	119.37
702.32	14.04
702.46	46.81
702.59	72.56
702.72	39.79
702.85	46.81
702.99	81.92
703.12	39.79
703.25	102.98
703.38	0.00
703.51	86.60
703.65	23.41
703.78	152.13
703.91	114.69
704.04	0.00
704.17	65.54
704.31	2.34
704.44	58.51
704.57	42.13
704.70	21.06
704.83	9.36
704.96	21.06
705.10	11.70
705.23	42.13
>>>>>End Processed Spectral Data<<<<<
