SpectraSuite Data File
++++++++++++++++++++++++++++++++++++
Date: Fri Oct 04 12:13:37 GMT-05:00 2013
User: price-jones
Dark Spectrum Present: No
Reference Spectrum Present: No
Number of Sampled Component Spectra: 1
Spectrometers: USB2+H05261
Integration Time (usec): 10000 (USB2+H05261)
Spectra Averaged: 1 (USB2+H05261)
Boxcar Smoothing: 0 (USB2+H05261)
Correct for Electrical Dark: No (USB2+H05261)
Strobe/Lamp Enabled: No (USB2+H05261)
Correct for Detector Non-linearity: No (USB2+H05261)
Correct for Stray Light: No (USB2+H05261)
Number of Pixels in Processed Spectrum: 2048
>>>>>Begin Processed Spectral Data<<<<<
365.73	16.38
365.92	16.38
366.12	16.38
366.32	0.00
366.52	0.00
366.72	0.00
366.91	0.00
367.11	0.00
367.31	0.00
367.51	0.00
367.70	0.00
367.90	0.00
368.10	0.00
368.30	0.00
368.49	0.00
368.69	0.00
368.89	0.00
369.09	0.00
369.28	0.00
369.48	0.00
369.68	0.00
369.87	0.00
370.07	0.00
370.27	0.00
370.47	0.00
370.66	0.00
370.86	0.00
371.06	0.00
371.25	2.34
371.45	0.00
371.65	0.00
371.84	0.00
372.04	14.04
372.24	25.75
372.44	0.00
372.63	11.70
372.83	2.34
373.03	0.00
373.22	49.15
373.42	56.17
373.62	63.19
373.81	58.51
374.01	18.72
374.21	53.83
374.40	0.00
374.60	30.43
374.79	42.13
374.99	72.56
375.19	67.88
375.38	0.00
375.58	0.00
375.78	79.58
375.97	44.47
376.17	0.00
376.37	42.13
376.56	46.81
376.76	16.38
376.95	63.19
377.15	14.04
377.35	21.06
377.54	0.00
377.74	0.00
377.93	37.45
378.13	0.00
378.33	0.00
378.52	53.83
378.72	32.77
378.91	0.00
379.11	4.68
379.31	28.09
379.50	9.36
379.70	2.34
379.89	9.36
380.09	53.83
380.28	7.02
380.48	0.00
380.68	23.41
380.87	21.06
381.07	0.00
381.26	0.00
381.46	0.00
381.65	35.11
381.85	7.02
382.04	37.45
382.24	0.00
382.43	0.00
382.63	37.45
382.83	74.90
383.02	0.00
383.22	100.64
383.41	0.00
383.61	0.00
383.80	11.70
384.00	84.26
384.19	7.02
384.39	51.49
384.58	53.83
384.78	30.43
384.97	49.15
385.17	32.77
385.36	0.00
385.56	67.88
385.75	0.00
385.95	0.00
386.14	39.79
386.34	0.00
386.53	39.79
386.72	0.00
386.92	0.00
387.11	14.04
387.31	60.85
387.50	28.09
387.70	23.41
387.89	0.00
388.09	0.00
388.28	21.06
388.48	21.06
388.67	0.00
388.86	0.00
389.06	25.75
389.25	98.30
389.45	0.00
389.64	25.75
389.84	0.00
390.03	100.64
390.22	9.36
390.42	14.04
390.61	35.11
390.81	74.90
391.00	25.75
391.19	44.47
391.39	67.88
391.58	0.00
391.78	0.00
391.97	81.92
392.16	28.09
392.36	37.45
392.55	30.43
392.75	25.75
392.94	0.00
393.13	16.38
393.33	44.47
393.52	58.51
393.71	0.00
393.91	21.06
394.10	28.09
394.29	28.09
394.49	30.43
394.68	16.38
394.88	30.43
395.07	0.00
395.26	0.00
395.46	28.09
395.65	2.34
395.84	14.04
396.04	51.49
396.23	74.90
396.42	37.45
396.62	51.49
396.81	0.00
397.00	98.30
397.19	25.75
397.39	35.11
397.58	44.47
397.77	21.06
397.97	28.09
398.16	65.54
398.35	32.77
398.55	60.85
398.74	51.49
398.93	51.49
399.12	0.00
399.32	0.00
399.51	0.00
399.70	46.81
399.90	4.68
400.09	100.64
400.28	88.94
400.47	51.49
400.67	35.11
400.86	58.51
401.05	35.11
401.24	51.49
401.44	25.75
401.63	0.00
401.82	60.85
402.01	7.02
402.21	70.22
402.40	21.06
402.59	60.85
402.78	9.36
402.97	93.62
403.17	35.11
403.36	0.00
403.55	21.06
403.74	60.85
403.93	39.79
404.13	37.45
404.32	0.00
404.51	0.00
404.70	25.75
404.89	0.00
405.09	0.00
405.28	72.56
405.47	16.38
405.66	18.72
405.85	51.49
406.05	39.79
406.24	67.88
406.43	110.01
406.62	60.85
406.81	58.51
407.00	30.43
407.20	60.85
407.39	51.49
407.58	72.56
407.77	53.83
407.96	32.77
408.15	37.45
408.34	0.00
408.54	7.02
408.73	21.06
408.92	42.13
409.11	88.94
409.30	32.77
409.49	79.58
409.68	28.09
409.87	0.00
410.07	28.09
410.26	49.15
410.45	42.13
410.64	51.49
410.83	37.45
411.02	93.62
411.21	44.47
411.40	0.00
411.59	0.00
411.78	23.41
411.98	86.60
412.17	7.02
412.36	79.58
412.55	63.19
412.74	9.36
412.93	56.17
413.12	39.79
413.31	58.51
413.50	0.00
413.69	35.11
413.88	30.43
414.07	35.11
414.26	28.09
414.45	30.43
414.64	37.45
414.83	88.94
415.02	39.79
415.22	16.38
415.41	49.15
415.60	98.30
415.79	63.19
415.98	4.68
416.17	0.00
416.36	30.43
416.55	37.45
416.74	42.13
416.93	35.11
417.12	70.22
417.31	0.00
417.50	84.26
417.69	28.09
417.88	7.02
418.07	74.90
418.26	49.15
418.45	107.66
418.64	74.90
418.83	56.17
419.02	28.09
419.21	18.72
419.39	67.88
419.58	98.30
419.77	0.00
419.96	42.13
420.15	100.64
420.34	51.49
420.53	28.09
420.72	30.43
420.91	25.75
421.10	0.00
421.29	21.06
421.48	23.41
421.67	35.11
421.86	60.85
422.05	16.38
422.24	65.54
422.43	88.94
422.61	37.45
422.80	18.72
422.99	119.37
423.18	9.36
423.37	79.58
423.56	25.75
423.75	53.83
423.94	18.72
424.13	53.83
424.32	53.83
424.50	11.70
424.69	42.13
424.88	58.51
425.07	4.68
425.26	32.77
425.45	138.09
425.64	11.70
425.83	35.11
426.01	65.54
426.20	107.66
426.39	37.45
426.58	53.83
426.77	72.56
426.96	105.32
427.15	58.51
427.33	0.00
427.52	0.00
427.71	93.62
427.90	32.77
428.09	11.70
428.28	91.28
428.46	65.54
428.65	65.54
428.84	39.79
429.03	42.13
429.22	0.00
429.40	46.81
429.59	16.38
429.78	79.58
429.97	86.60
430.16	44.47
430.34	18.72
430.53	0.00
430.72	0.00
430.91	0.00
431.10	63.19
431.28	0.00
431.47	63.19
431.66	46.81
431.85	9.36
432.03	25.75
432.22	28.09
432.41	28.09
432.60	44.47
432.79	0.00
432.97	53.83
433.16	107.66
433.35	9.36
433.54	14.04
433.72	124.05
433.91	39.79
434.10	77.24
434.28	32.77
434.47	46.81
434.66	138.09
434.85	49.15
435.03	44.47
435.22	25.75
435.41	42.13
435.59	25.75
435.78	79.58
435.97	74.90
436.16	0.00
436.34	37.45
436.53	4.68
436.72	18.72
436.90	28.09
437.09	70.22
437.28	86.60
437.46	23.41
437.65	53.83
437.84	37.45
438.02	9.36
438.21	88.94
438.40	58.51
438.58	84.26
438.77	114.69
438.96	81.92
439.14	49.15
439.33	51.49
439.52	60.85
439.70	35.11
439.89	18.72
440.08	25.75
440.26	77.24
440.45	46.81
440.63	35.11
440.82	28.09
441.01	0.00
441.19	0.00
441.38	53.83
441.57	42.13
441.75	93.62
441.94	32.77
442.12	28.09
442.31	67.88
442.50	81.92
442.68	117.03
442.87	42.13
443.05	25.75
443.24	138.09
443.43	4.68
443.61	86.60
443.80	65.54
443.98	14.04
444.17	0.00
444.35	0.00
444.54	37.45
444.73	39.79
444.91	56.17
445.10	88.94
445.28	0.00
445.47	0.00
445.65	91.28
445.84	84.26
446.02	30.43
446.21	81.92
446.39	91.28
446.58	128.73
446.77	0.00
446.95	0.00
447.14	46.81
447.32	0.00
447.51	93.62
447.69	23.41
447.88	100.64
448.06	28.09
448.25	46.81
448.43	35.11
448.62	21.06
448.80	44.47
448.99	9.36
449.17	0.00
449.36	63.19
449.54	16.38
449.73	42.13
449.91	86.60
450.10	0.00
450.28	39.79
450.46	46.81
450.65	77.24
450.83	65.54
451.02	9.36
451.20	0.00
451.39	53.83
451.57	0.00
451.76	49.15
451.94	51.49
452.13	53.83
452.31	37.45
452.49	93.62
452.68	0.00
452.86	30.43
453.05	0.00
453.23	42.13
453.42	100.64
453.60	79.58
453.78	25.75
453.97	0.00
454.15	60.85
454.34	46.81
454.52	93.62
454.70	14.04
454.89	46.81
455.07	49.15
455.26	46.81
455.44	67.88
455.62	14.04
455.81	28.09
455.99	112.35
456.17	44.47
456.36	0.00
456.54	86.60
456.73	65.54
456.91	63.19
457.09	21.06
457.28	0.00
457.46	39.79
457.64	51.49
457.83	25.75
458.01	0.00
458.19	51.49
458.38	63.19
458.56	30.43
458.74	23.41
458.93	74.90
459.11	21.06
459.29	28.09
459.48	77.24
459.66	67.88
459.84	72.56
460.03	0.00
460.21	49.15
460.39	49.15
460.57	74.90
460.76	32.77
460.94	18.72
461.12	35.11
461.31	65.54
461.49	23.41
461.67	9.36
461.85	65.54
462.04	18.72
462.22	138.09
462.40	72.56
462.59	16.38
462.77	114.69
462.95	25.75
463.13	77.24
463.32	16.38
463.50	23.41
463.68	65.54
463.86	44.47
464.05	107.66
464.23	16.38
464.41	65.54
464.59	56.17
464.78	35.11
464.96	42.13
465.14	21.06
465.32	95.96
465.50	18.72
465.69	14.04
465.87	4.68
466.05	44.47
466.23	51.49
466.41	70.22
466.60	79.58
466.78	138.09
466.96	149.79
467.14	16.38
467.32	7.02
467.51	88.94
467.69	0.00
467.87	28.09
468.05	65.54
468.23	91.28
468.41	79.58
468.60	25.75
468.78	51.49
468.96	0.00
469.14	81.92
469.32	51.49
469.50	2.34
469.69	77.24
469.87	119.37
470.05	60.85
470.23	44.47
470.41	16.38
470.59	74.90
470.77	56.17
470.95	60.85
471.14	11.70
471.32	70.22
471.50	56.17
471.68	28.09
471.86	117.03
472.04	16.38
472.22	65.54
472.40	102.98
472.58	46.81
472.77	56.17
472.95	98.30
473.13	58.51
473.31	32.77
473.49	93.62
473.67	60.85
473.85	119.37
474.03	95.96
474.21	95.96
474.39	35.11
474.57	93.62
474.75	128.73
474.93	51.49
475.12	2.34
475.30	58.51
475.48	119.37
475.66	65.54
475.84	72.56
476.02	14.04
476.20	25.75
476.38	140.43
476.56	112.35
476.74	56.17
476.92	42.13
477.10	42.13
477.28	56.17
477.46	63.19
477.64	23.41
477.82	18.72
478.00	88.94
478.18	133.41
478.36	81.92
478.54	110.01
478.72	105.32
478.90	56.17
479.08	88.94
479.26	88.94
479.44	119.37
479.62	39.79
479.80	4.68
479.98	32.77
480.16	112.35
480.34	119.37
480.52	11.70
480.70	35.11
480.88	81.92
481.06	14.04
481.24	37.45
481.41	145.11
481.59	84.26
481.77	4.68
481.95	119.37
482.13	156.82
482.31	77.24
482.49	67.88
482.67	88.94
482.85	49.15
483.03	32.77
483.21	98.30
483.39	67.88
483.57	23.41
483.74	67.88
483.92	25.75
484.10	0.00
484.28	56.17
484.46	182.56
484.64	16.38
484.82	37.45
485.00	60.85
485.18	42.13
485.35	70.22
485.53	51.49
485.71	18.72
485.89	30.43
486.07	93.62
486.25	58.51
486.43	44.47
486.61	11.70
486.78	16.38
486.96	114.69
487.14	18.72
487.32	100.64
487.50	159.16
487.68	35.11
487.85	51.49
488.03	23.41
488.21	95.96
488.39	0.00
488.57	42.13
488.75	88.94
488.92	142.77
489.10	51.49
489.28	110.01
489.46	23.41
489.64	72.56
489.81	37.45
489.99	25.75
490.17	88.94
490.35	110.01
490.53	56.17
490.70	98.30
490.88	95.96
491.06	168.52
491.24	95.96
491.41	112.35
491.59	72.56
491.77	51.49
491.95	95.96
492.13	70.22
492.30	51.49
492.48	60.85
492.66	44.47
492.84	0.00
493.01	21.06
493.19	84.26
493.37	53.83
493.54	77.24
493.72	39.79
493.90	79.58
494.08	102.98
494.25	138.09
494.43	42.13
494.61	39.79
494.79	110.01
494.96	72.56
495.14	37.45
495.32	67.88
495.49	121.71
495.67	102.98
495.85	74.90
496.02	117.03
496.20	117.03
496.38	79.58
496.55	145.11
496.73	11.70
496.91	102.98
497.09	53.83
497.26	168.52
497.44	67.88
497.62	44.47
497.79	60.85
497.97	39.79
498.14	21.06
498.32	51.49
498.50	42.13
498.67	37.45
498.85	16.38
499.03	135.75
499.20	121.71
499.38	18.72
499.56	67.88
499.73	86.60
499.91	84.26
500.08	112.35
500.26	135.75
500.44	95.96
500.61	46.81
500.79	16.38
500.97	84.26
501.14	95.96
501.32	63.19
501.49	107.66
501.67	124.05
501.84	107.66
502.02	58.51
502.20	88.94
502.37	93.62
502.55	30.43
502.72	93.62
502.90	84.26
503.07	98.30
503.25	117.03
503.43	98.30
503.60	110.01
503.78	56.17
503.95	60.85
504.13	4.68
504.30	44.47
504.48	107.66
504.65	91.28
504.83	110.01
505.01	81.92
505.18	102.98
505.36	121.71
505.53	39.79
505.71	77.24
505.88	145.11
506.06	77.24
506.23	102.98
506.41	35.11
506.58	95.96
506.76	128.73
506.93	44.47
507.11	44.47
507.28	53.83
507.46	60.85
507.63	163.84
507.81	124.05
507.98	102.98
508.16	0.00
508.33	91.28
508.50	98.30
508.68	25.75
508.85	93.62
509.03	114.69
509.20	88.94
509.38	93.62
509.55	32.77
509.73	107.66
509.90	58.51
510.08	117.03
510.25	102.98
510.42	126.39
510.60	25.75
510.77	14.04
510.95	84.26
511.12	135.75
511.30	53.83
511.47	124.05
511.64	117.03
511.82	16.38
511.99	67.88
512.17	72.56
512.34	32.77
512.51	65.54
512.69	95.96
512.86	102.98
513.04	60.85
513.21	126.39
513.38	30.43
513.56	16.38
513.73	63.19
513.90	84.26
514.08	35.11
514.25	67.88
514.43	95.96
514.60	65.54
514.77	74.90
514.95	114.69
515.12	77.24
515.29	91.28
515.47	138.09
515.64	105.32
515.81	77.24
515.99	16.38
516.16	42.13
516.33	42.13
516.51	37.45
516.68	49.15
516.85	126.39
517.03	81.92
517.20	51.49
517.37	53.83
517.54	145.11
517.72	46.81
517.89	39.79
518.06	70.22
518.24	91.28
518.41	117.03
518.58	163.84
518.75	65.54
518.93	166.18
519.10	79.58
519.27	42.13
519.45	7.02
519.62	2.34
519.79	56.17
519.96	35.11
520.14	2.34
520.31	77.24
520.48	39.79
520.65	95.96
520.83	72.56
521.00	93.62
521.17	117.03
521.34	163.84
521.52	39.79
521.69	124.05
521.86	112.35
522.03	0.00
522.20	112.35
522.38	70.22
522.55	67.88
522.72	4.68
522.89	133.41
523.07	72.56
523.24	105.32
523.41	107.66
523.58	105.32
523.75	72.56
523.92	128.73
524.10	91.28
524.27	124.05
524.44	128.73
524.61	86.60
524.78	114.69
524.96	63.19
525.13	58.51
525.30	100.64
525.47	42.13
525.64	63.19
525.81	91.28
525.98	77.24
526.16	107.66
526.33	131.07
526.50	105.32
526.67	147.45
526.84	56.17
527.01	56.17
527.18	72.56
527.36	81.92
527.53	70.22
527.70	133.41
527.87	93.62
528.04	135.75
528.21	28.09
528.38	86.60
528.55	142.77
528.72	56.17
528.89	135.75
529.07	81.92
529.24	131.07
529.41	147.45
529.58	84.26
529.75	107.66
529.92	119.37
530.09	133.41
530.26	100.64
530.43	105.32
530.60	102.98
530.77	77.24
530.94	72.56
531.11	102.98
531.28	93.62
531.46	145.11
531.63	44.47
531.80	110.01
531.97	93.62
532.14	23.41
532.31	91.28
532.48	30.43
532.65	39.79
532.82	124.05
532.99	51.49
533.16	0.00
533.33	35.11
533.50	100.64
533.67	88.94
533.84	32.77
534.01	121.71
534.18	53.83
534.35	98.30
534.52	93.62
534.69	53.83
534.86	70.22
535.03	79.58
535.20	114.69
535.37	91.28
535.54	65.54
535.71	100.64
535.88	42.13
536.05	74.90
536.22	51.49
536.38	63.19
536.55	156.82
536.72	112.35
536.89	56.17
537.06	65.54
537.23	49.15
537.40	58.51
537.57	110.01
537.74	86.60
537.91	102.98
538.08	133.41
538.25	67.88
538.42	126.39
538.59	147.45
538.75	91.28
538.92	65.54
539.09	84.26
539.26	117.03
539.43	58.51
539.60	86.60
539.77	28.09
539.94	79.58
540.11	42.13
540.28	79.58
540.44	119.37
540.61	102.98
540.78	65.54
540.95	88.94
541.12	79.58
541.29	21.06
541.46	81.92
541.62	23.41
541.79	74.90
541.96	128.73
542.13	124.05
542.30	145.11
542.47	25.75
542.63	74.90
542.80	107.66
542.97	91.28
543.14	100.64
543.31	51.49
543.48	58.51
543.64	107.66
543.81	154.48
543.98	110.01
544.15	117.03
544.32	53.83
544.48	133.41
544.65	28.09
544.82	16.38
544.99	16.38
545.16	65.54
545.32	112.35
545.49	60.85
545.66	145.11
545.83	126.39
546.00	142.77
546.16	49.15
546.33	79.58
546.50	145.11
546.67	79.58
546.83	152.13
547.00	51.49
547.17	86.60
547.34	77.24
547.50	79.58
547.67	98.30
547.84	84.26
548.00	39.79
548.17	74.90
548.34	44.47
548.51	37.45
548.67	46.81
548.84	156.82
549.01	142.77
549.18	140.43
549.34	46.81
549.51	49.15
549.68	0.00
549.84	84.26
550.01	98.30
550.18	95.96
550.34	84.26
550.51	93.62
550.68	70.22
550.84	107.66
551.01	74.90
551.18	177.88
551.34	84.26
551.51	30.43
551.68	56.17
551.84	91.28
552.01	65.54
552.18	21.06
552.34	107.66
552.51	81.92
552.68	0.00
552.84	110.01
553.01	44.47
553.18	140.43
553.34	39.79
553.51	81.92
553.67	58.51
553.84	32.77
554.01	46.81
554.17	86.60
554.34	79.58
554.51	60.85
554.67	42.13
554.84	70.22
555.00	35.11
555.17	72.56
555.33	93.62
555.50	14.04
555.67	100.64
555.83	135.75
556.00	119.37
556.16	60.85
556.33	105.32
556.50	86.60
556.66	77.24
556.83	60.85
556.99	60.85
557.16	25.75
557.32	60.85
557.49	21.06
557.65	93.62
557.82	28.09
557.98	44.47
558.15	0.00
558.32	119.37
558.48	131.07
558.65	81.92
558.81	42.13
558.98	105.32
559.14	95.96
559.31	51.49
559.47	63.19
559.64	56.17
559.80	117.03
559.97	4.68
560.13	44.47
560.30	105.32
560.46	74.90
560.63	28.09
560.79	79.58
560.96	77.24
561.12	4.68
561.29	91.28
561.45	77.24
561.61	74.90
561.78	107.66
561.94	133.41
562.11	119.37
562.27	51.49
562.44	44.47
562.60	60.85
562.77	72.56
562.93	23.41
563.10	23.41
563.26	77.24
563.42	102.98
563.59	77.24
563.75	63.19
563.92	46.81
564.08	142.77
564.24	81.92
564.41	105.32
564.57	93.62
564.74	56.17
564.90	49.15
565.07	70.22
565.23	74.90
565.39	39.79
565.56	74.90
565.72	53.83
565.88	119.37
566.05	58.51
566.21	95.96
566.38	91.28
566.54	135.75
566.70	86.60
566.87	107.66
567.03	51.49
567.19	60.85
567.36	72.56
567.52	166.18
567.68	56.17
567.85	112.35
568.01	105.32
568.17	21.06
568.34	72.56
568.50	46.81
568.66	88.94
568.83	131.07
568.99	117.03
569.15	105.32
569.32	117.03
569.48	23.41
569.64	9.36
569.81	67.88
569.97	0.00
570.13	126.39
570.30	114.69
570.46	49.15
570.62	44.47
570.78	65.54
570.95	81.92
571.11	98.30
571.27	51.49
571.43	72.56
571.60	53.83
571.76	131.07
571.92	98.30
572.09	63.19
572.25	124.05
572.41	60.85
572.57	119.37
572.74	56.17
572.90	65.54
573.06	63.19
573.22	107.66
573.38	145.11
573.55	65.54
573.71	60.85
573.87	77.24
574.03	107.66
574.20	86.60
574.36	18.72
574.52	86.60
574.68	0.00
574.84	21.06
575.01	67.88
575.17	86.60
575.33	4.68
575.49	67.88
575.65	21.06
575.82	63.19
575.98	51.49
576.14	84.26
576.30	18.72
576.46	105.32
576.62	138.09
576.79	91.28
576.95	126.39
577.11	74.90
577.27	16.38
577.43	67.88
577.59	91.28
577.75	72.56
577.92	0.00
578.08	74.90
578.24	65.54
578.40	117.03
578.56	74.90
578.72	88.94
578.88	70.22
579.04	67.88
579.21	79.58
579.37	110.01
579.53	49.15
579.69	105.32
579.85	119.37
580.01	53.83
580.17	74.90
580.33	53.83
580.49	46.81
580.65	74.90
580.82	53.83
580.98	51.49
581.14	79.58
581.30	39.79
581.46	65.54
581.62	112.35
581.78	88.94
581.94	46.81
582.10	63.19
582.26	37.45
582.42	126.39
582.58	107.66
582.74	74.90
582.90	39.79
583.06	77.24
583.22	0.00
583.38	70.22
583.54	79.58
583.70	63.19
583.86	121.71
584.02	114.69
584.18	95.96
584.34	51.49
584.50	2.34
584.66	49.15
584.82	79.58
584.98	126.39
585.14	84.26
585.30	46.81
585.46	23.41
585.62	84.26
585.78	86.60
585.94	46.81
586.10	93.62
586.26	100.64
586.42	72.56
586.58	65.54
586.74	30.43
586.90	65.54
587.06	91.28
587.22	124.05
587.38	100.64
587.54	56.17
587.70	49.15
587.86	114.69
588.02	88.94
588.18	4.68
588.34	32.77
588.49	58.51
588.65	93.62
588.81	74.90
588.97	79.58
589.13	32.77
589.29	58.51
589.45	39.79
589.61	91.28
589.77	79.58
589.93	51.49
590.08	49.15
590.24	30.43
590.40	46.81
590.56	91.28
590.72	105.32
590.88	91.28
591.04	51.49
591.20	0.00
591.35	39.79
591.51	37.45
591.67	81.92
591.83	72.56
591.99	53.83
592.15	65.54
592.31	170.86
592.46	60.85
592.62	93.62
592.78	39.79
592.94	46.81
593.10	117.03
593.26	16.38
593.41	60.85
593.57	65.54
593.73	46.81
593.89	65.54
594.05	0.00
594.20	65.54
594.36	53.83
594.52	30.43
594.68	124.05
594.84	100.64
594.99	32.77
595.15	91.28
595.31	140.43
595.47	46.81
595.62	102.98
595.78	107.66
595.94	102.98
596.10	114.69
596.25	39.79
596.41	23.41
596.57	140.43
596.73	102.98
596.88	35.11
597.04	51.49
597.20	72.56
597.36	77.24
597.51	58.51
597.67	35.11
597.83	53.83
597.99	72.56
598.14	124.05
598.30	32.77
598.46	79.58
598.61	70.22
598.77	81.92
598.93	65.54
599.09	32.77
599.24	65.54
599.40	49.15
599.56	98.30
599.71	37.45
599.87	100.64
600.03	65.54
600.18	74.90
600.34	114.69
600.50	77.24
600.65	23.41
600.81	25.75
600.97	37.45
601.12	25.75
601.28	30.43
601.44	102.98
601.59	91.28
601.75	49.15
601.91	135.75
602.06	49.15
602.22	124.05
602.37	119.37
602.53	32.77
602.69	93.62
602.84	49.15
603.00	56.17
603.16	63.19
603.31	84.26
603.47	72.56
603.62	14.04
603.78	53.83
603.94	49.15
604.09	18.72
604.25	119.37
604.40	7.02
604.56	81.92
604.71	51.49
604.87	49.15
605.03	119.37
605.18	102.98
605.34	67.88
605.49	114.69
605.65	98.30
605.80	44.47
605.96	4.68
606.12	95.96
606.27	11.70
606.43	23.41
606.58	37.45
606.74	67.88
606.89	74.90
607.05	135.75
607.20	32.77
607.36	77.24
607.51	53.83
607.67	56.17
607.82	102.98
607.98	60.85
608.13	37.45
608.29	81.92
608.44	25.75
608.60	65.54
608.75	119.37
608.91	86.60
609.06	102.98
609.22	51.49
609.37	119.37
609.53	42.13
609.68	7.02
609.84	91.28
609.99	39.79
610.15	149.79
610.30	135.75
610.46	86.60
610.61	147.45
610.76	63.19
610.92	67.88
611.07	126.39
611.23	91.28
611.38	0.00
611.54	25.75
611.69	0.00
611.84	95.96
612.00	107.66
612.15	49.15
612.31	114.69
612.46	81.92
612.62	49.15
612.77	84.26
612.92	154.48
613.08	77.24
613.23	65.54
613.39	67.88
613.54	51.49
613.69	37.45
613.85	46.81
614.00	46.81
614.15	53.83
614.31	114.69
614.46	53.83
614.62	35.11
614.77	117.03
614.92	98.30
615.08	119.37
615.23	74.90
615.38	79.58
615.54	56.17
615.69	81.92
615.84	46.81
616.00	4.68
616.15	58.51
616.30	72.56
616.46	46.81
616.61	70.22
616.76	166.18
616.92	49.15
617.07	81.92
617.22	77.24
617.37	37.45
617.53	63.19
617.68	93.62
617.83	110.01
617.99	95.96
618.14	67.88
618.29	105.32
618.45	79.58
618.60	79.58
618.75	16.38
618.90	56.17
619.06	39.79
619.21	53.83
619.36	77.24
619.51	58.51
619.67	72.56
619.82	79.58
619.97	135.75
620.12	7.02
620.28	63.19
620.43	44.47
620.58	84.26
620.73	88.94
620.89	70.22
621.04	98.30
621.19	84.26
621.34	112.35
621.49	56.17
621.65	46.81
621.80	51.49
621.95	119.37
622.10	138.09
622.25	37.45
622.41	70.22
622.56	86.60
622.71	23.41
622.86	70.22
623.01	84.26
623.16	112.35
623.32	131.07
623.47	81.92
623.62	11.70
623.77	72.56
623.92	67.88
624.07	107.66
624.23	86.60
624.38	56.17
624.53	53.83
624.68	88.94
624.83	0.00
624.98	56.17
625.13	147.45
625.29	23.41
625.44	77.24
625.59	46.81
625.74	84.26
625.89	91.28
626.04	49.15
626.19	35.11
626.34	98.30
626.49	65.54
626.65	98.30
626.80	110.01
626.95	39.79
627.10	21.06
627.25	0.00
627.40	110.01
627.55	65.54
627.70	16.38
627.85	44.47
628.00	51.49
628.15	131.07
628.30	93.62
628.45	0.00
628.60	0.00
628.76	11.70
628.91	42.13
629.06	126.39
629.21	63.19
629.36	81.92
629.51	84.26
629.66	23.41
629.81	81.92
629.96	58.51
630.11	21.06
630.26	14.04
630.41	65.54
630.56	84.26
630.71	0.00
630.86	107.66
631.01	117.03
631.16	30.43
631.31	88.94
631.46	7.02
631.61	49.15
631.76	77.24
631.91	51.49
632.06	81.92
632.21	81.92
632.36	67.88
632.51	23.41
632.66	63.19
632.81	35.11
632.96	65.54
633.10	14.04
633.25	74.90
633.40	37.45
633.55	65.54
633.70	51.49
633.85	42.13
634.00	46.81
634.15	72.56
634.30	93.62
634.45	60.85
634.60	0.00
634.75	49.15
634.90	63.19
635.05	58.51
635.19	56.17
635.34	131.07
635.49	119.37
635.64	23.41
635.79	46.81
635.94	72.56
636.09	107.66
636.24	84.26
636.39	119.37
636.53	58.51
636.68	60.85
636.83	56.17
636.98	81.92
637.13	0.00
637.28	49.15
637.43	53.83
637.57	0.00
637.72	60.85
637.87	79.58
638.02	42.13
638.17	0.00
638.32	65.54
638.46	152.13
638.61	107.66
638.76	74.90
638.91	77.24
639.06	42.13
639.20	86.60
639.35	152.13
639.50	16.38
639.65	72.56
639.80	46.81
639.94	65.54
640.09	42.13
640.24	77.24
640.39	65.54
640.54	7.02
640.68	28.09
640.83	28.09
640.98	77.24
641.13	9.36
641.27	18.72
641.42	51.49
641.57	23.41
641.72	91.28
641.86	46.81
642.01	49.15
642.16	126.39
642.31	102.98
642.45	44.47
642.60	93.62
642.75	86.60
642.90	107.66
643.04	84.26
643.19	65.54
643.34	56.17
643.48	35.11
643.63	56.17
643.78	63.19
643.93	14.04
644.07	18.72
644.22	77.24
644.37	51.49
644.51	65.54
644.66	0.00
644.81	28.09
644.95	63.19
645.10	60.85
645.25	107.66
645.39	21.06
645.54	0.00
645.69	140.43
645.83	4.68
645.98	79.58
646.13	107.66
646.27	102.98
646.42	28.09
646.57	100.64
646.71	124.05
646.86	124.05
647.00	70.22
647.15	51.49
647.30	11.70
647.44	35.11
647.59	56.17
647.74	0.00
647.88	25.75
648.03	70.22
648.17	0.00
648.32	18.72
648.47	67.88
648.61	25.75
648.76	86.60
648.90	51.49
649.05	51.49
649.20	95.96
649.34	23.41
649.49	58.51
649.63	112.35
649.78	7.02
649.92	35.11
650.07	124.05
650.21	124.05
650.36	42.13
650.51	0.00
650.65	56.17
650.80	32.77
650.94	60.85
651.09	56.17
651.23	7.02
651.38	25.75
651.52	16.38
651.67	110.01
651.81	170.86
651.96	18.72
652.10	86.60
652.25	91.28
652.39	133.41
652.54	63.19
652.68	128.73
652.83	65.54
652.97	49.15
653.12	14.04
653.26	7.02
653.41	119.37
653.55	65.54
653.70	63.19
653.84	30.43
653.99	67.88
654.13	28.09
654.27	16.38
654.42	25.75
654.56	14.04
654.71	0.00
654.85	60.85
655.00	39.79
655.14	56.17
655.29	35.11
655.43	74.90
655.57	42.13
655.72	9.36
655.86	56.17
656.01	60.85
656.15	0.00
656.30	39.79
656.44	105.32
656.58	60.85
656.73	51.49
656.87	23.41
657.01	72.56
657.16	88.94
657.30	14.04
657.45	0.00
657.59	28.09
657.73	93.62
657.88	72.56
658.02	4.68
658.16	32.77
658.31	65.54
658.45	72.56
658.60	21.06
658.74	70.22
658.88	44.47
659.03	42.13
659.17	44.47
659.31	67.88
659.46	74.90
659.60	98.30
659.74	70.22
659.89	28.09
660.03	42.13
660.17	91.28
660.32	65.54
660.46	46.81
660.60	53.83
660.74	0.00
660.89	58.51
661.03	53.83
661.17	37.45
661.32	0.00
661.46	23.41
661.60	121.71
661.74	28.09
661.89	44.47
662.03	14.04
662.17	32.77
662.31	2.34
662.46	0.00
662.60	51.49
662.74	53.83
662.88	28.09
663.03	74.90
663.17	58.51
663.31	81.92
663.45	86.60
663.60	58.51
663.74	11.70
663.88	77.24
664.02	86.60
664.17	88.94
664.31	86.60
664.45	65.54
664.59	91.28
664.73	79.58
664.88	110.01
665.02	21.06
665.16	46.81
665.30	32.77
665.44	16.38
665.59	56.17
665.73	128.73
665.87	70.22
666.01	65.54
666.15	67.88
666.29	63.19
666.44	79.58
666.58	32.77
666.72	9.36
666.86	67.88
667.00	23.41
667.14	53.83
667.28	44.47
667.43	84.26
667.57	65.54
667.71	23.41
667.85	72.56
667.99	25.75
668.13	124.05
668.27	42.13
668.41	53.83
668.56	39.79
668.70	25.75
668.84	95.96
668.98	32.77
669.12	91.28
669.26	35.11
669.40	23.41
669.54	44.47
669.68	72.56
669.82	39.79
669.96	35.11
670.10	79.58
670.25	72.56
670.39	18.72
670.53	70.22
670.67	72.56
670.81	0.00
670.95	67.88
671.09	44.47
671.23	93.62
671.37	95.96
671.51	25.75
671.65	51.49
671.79	28.09
671.93	58.51
672.07	88.94
672.21	14.04
672.35	56.17
672.49	0.00
672.63	7.02
672.77	91.28
672.91	79.58
673.05	81.92
673.19	88.94
673.33	58.51
673.47	11.70
673.61	30.43
673.75	23.41
673.89	67.88
674.03	53.83
674.17	81.92
674.31	51.49
674.45	30.43
674.59	63.19
674.73	65.54
674.87	88.94
675.01	25.75
675.15	67.88
675.29	74.90
675.43	2.34
675.56	60.85
675.70	93.62
675.84	18.72
675.98	28.09
676.12	32.77
676.26	140.43
676.40	18.72
676.54	74.90
676.68	152.13
676.82	67.88
676.96	100.64
677.10	44.47
677.23	77.24
677.37	84.26
677.51	16.38
677.65	28.09
677.79	18.72
677.93	28.09
678.07	16.38
678.21	70.22
678.34	23.41
678.48	9.36
678.62	72.56
678.76	70.22
678.90	53.83
679.04	11.70
679.18	86.60
679.31	0.00
679.45	0.00
679.59	79.58
679.73	79.58
679.87	23.41
680.00	28.09
680.14	28.09
680.28	60.85
680.42	23.41
680.56	18.72
680.70	65.54
680.83	0.00
680.97	86.60
681.11	67.88
681.25	35.11
681.39	65.54
681.52	2.34
681.66	0.00
681.80	110.01
681.94	0.00
682.07	131.07
682.21	39.79
682.35	72.56
682.49	0.00
682.62	100.64
682.76	44.47
682.90	4.68
683.04	98.30
683.17	84.26
683.31	58.51
683.45	23.41
683.59	91.28
683.72	49.15
683.86	102.98
684.00	46.81
684.13	42.13
684.27	16.38
684.41	7.02
684.55	44.47
684.68	16.38
684.82	79.58
684.96	63.19
685.09	42.13
685.23	35.11
685.37	60.85
685.50	37.45
685.64	35.11
685.78	110.01
685.91	51.49
686.05	53.83
686.19	35.11
686.32	37.45
686.46	30.43
686.60	79.58
686.73	37.45
686.87	4.68
687.01	46.81
687.14	0.00
687.28	4.68
687.42	60.85
687.55	58.51
687.69	42.13
687.82	35.11
687.96	46.81
688.10	79.58
688.23	56.17
688.37	65.54
688.50	121.71
688.64	58.51
688.78	51.49
688.91	42.13
689.05	46.81
689.18	100.64
689.32	42.13
689.46	42.13
689.59	60.85
689.73	25.75
689.86	30.43
690.00	86.60
690.13	37.45
690.27	58.51
690.41	37.45
690.54	42.13
690.68	53.83
690.81	11.70
690.95	128.73
691.08	23.41
691.22	11.70
691.35	51.49
691.49	42.13
691.62	0.00
691.76	100.64
691.89	14.04
692.03	32.77
692.16	79.58
692.30	51.49
692.43	60.85
692.57	0.00
692.70	28.09
692.84	49.15
692.97	84.26
693.11	102.98
693.24	42.13
693.38	79.58
693.51	0.00
693.65	138.09
693.78	107.66
693.92	110.01
694.05	84.26
694.19	84.26
694.32	49.15
694.45	84.26
694.59	67.88
694.72	2.34
694.86	70.22
694.99	56.17
695.13	98.30
695.26	53.83
695.39	67.88
695.53	37.45
695.66	30.43
695.80	95.96
695.93	0.00
696.07	30.43
696.20	39.79
696.33	0.00
696.47	72.56
696.60	0.00
696.73	30.43
696.87	44.47
697.00	105.32
697.14	100.64
697.27	30.43
697.40	86.60
697.54	37.45
697.67	32.77
697.80	9.36
697.94	21.06
698.07	0.00
698.21	60.85
698.34	79.58
698.47	65.54
698.61	32.77
698.74	53.83
698.87	0.00
699.01	9.36
699.14	60.85
699.27	72.56
699.40	100.64
699.54	91.28
699.67	93.62
699.80	0.00
699.94	11.70
700.07	0.00
700.20	49.15
700.34	23.41
700.47	49.15
700.60	0.00
700.73	39.79
700.87	102.98
701.00	46.81
701.13	159.16
701.26	0.00
701.40	98.30
701.53	28.09
701.66	9.36
701.79	25.75
701.93	0.00
702.06	0.00
702.19	0.00
702.32	0.00
702.46	9.36
702.59	124.05
702.72	95.96
702.85	0.00
702.99	42.13
703.12	79.58
703.25	84.26
703.38	0.00
703.51	49.15
703.65	0.00
703.78	28.09
703.91	0.00
704.04	65.54
704.17	49.15
704.31	65.54
704.44	49.15
704.57	28.09
704.70	23.41
704.83	21.06
704.96	9.36
705.10	58.51
705.23	74.90
>>>>>End Processed Spectral Data<<<<<
