SpectraSuite Data File
++++++++++++++++++++++++++++++++++++
Date: Fri Oct 04 12:13:26 GMT-05:00 2013
User: price-jones
Dark Spectrum Present: No
Reference Spectrum Present: No
Number of Sampled Component Spectra: 1
Spectrometers: USB2+H05261
Integration Time (usec): 10000 (USB2+H05261)
Spectra Averaged: 1 (USB2+H05261)
Boxcar Smoothing: 0 (USB2+H05261)
Correct for Electrical Dark: No (USB2+H05261)
Strobe/Lamp Enabled: No (USB2+H05261)
Correct for Detector Non-linearity: No (USB2+H05261)
Correct for Stray Light: No (USB2+H05261)
Number of Pixels in Processed Spectrum: 2048
>>>>>Begin Processed Spectral Data<<<<<
365.73	0.00
365.92	0.00
366.12	0.00
366.32	0.00
366.52	0.00
366.72	0.00
366.91	0.00
367.11	0.00
367.31	0.00
367.51	0.00
367.70	0.00
367.90	0.00
368.10	0.00
368.30	0.00
368.49	0.00
368.69	0.00
368.89	0.00
369.09	0.00
369.28	0.00
369.48	0.00
369.68	0.00
369.87	0.00
370.07	0.00
370.27	0.00
370.47	0.00
370.66	0.00
370.86	0.00
371.06	0.00
371.25	0.00
371.45	0.00
371.65	0.00
371.84	0.00
372.04	0.00
372.24	65.54
372.44	81.92
372.63	7.02
372.83	4.68
373.03	7.02
373.22	44.47
373.42	23.41
373.62	42.13
373.81	23.41
374.01	0.00
374.21	30.43
374.40	65.54
374.60	0.00
374.79	65.54
374.99	44.47
375.19	32.77
375.38	0.00
375.58	25.75
375.78	18.72
375.97	14.04
376.17	0.00
376.37	0.00
376.56	0.00
376.76	0.00
376.95	16.38
377.15	11.70
377.35	0.00
377.54	28.09
377.74	49.15
377.93	0.00
378.13	4.68
378.33	32.77
378.52	0.00
378.72	63.19
378.91	30.43
379.11	0.00
379.31	4.68
379.50	0.00
379.70	46.81
379.89	21.06
380.09	0.00
380.28	16.38
380.48	46.81
380.68	28.09
380.87	67.88
381.07	11.70
381.26	30.43
381.46	0.00
381.65	21.06
381.85	0.00
382.04	2.34
382.24	11.70
382.43	0.00
382.63	46.81
382.83	0.00
383.02	39.79
383.22	14.04
383.41	28.09
383.61	16.38
383.80	39.79
384.00	46.81
384.19	2.34
384.39	0.00
384.58	0.00
384.78	44.47
384.97	0.00
385.17	88.94
385.36	4.68
385.56	16.38
385.75	74.90
385.95	0.00
386.14	67.88
386.34	16.38
386.53	35.11
386.72	58.51
386.92	23.41
387.11	32.77
387.31	49.15
387.50	23.41
387.70	93.62
387.89	14.04
388.09	46.81
388.28	0.00
388.48	0.00
388.67	65.54
388.86	117.03
389.06	46.81
389.25	23.41
389.45	0.00
389.64	0.00
389.84	0.00
390.03	0.00
390.22	18.72
390.42	21.06
390.61	9.36
390.81	56.17
391.00	46.81
391.19	65.54
391.39	0.00
391.58	42.13
391.78	23.41
391.97	46.81
392.16	0.00
392.36	51.49
392.55	37.45
392.75	0.00
392.94	0.00
393.13	70.22
393.33	30.43
393.52	0.00
393.71	14.04
393.91	0.00
394.10	49.15
394.29	53.83
394.49	42.13
394.68	0.00
394.88	28.09
395.07	44.47
395.26	0.00
395.46	21.06
395.65	35.11
395.84	28.09
396.04	86.60
396.23	18.72
396.42	49.15
396.62	18.72
396.81	0.00
397.00	0.00
397.19	18.72
397.39	77.24
397.58	28.09
397.77	72.56
397.97	42.13
398.16	60.85
398.35	0.00
398.55	4.68
398.74	18.72
398.93	0.00
399.12	7.02
399.32	35.11
399.51	60.85
399.70	35.11
399.90	84.26
400.09	23.41
400.28	30.43
400.47	39.79
400.67	72.56
400.86	32.77
401.05	7.02
401.24	42.13
401.44	23.41
401.63	0.00
401.82	0.00
402.01	0.00
402.21	0.00
402.40	0.00
402.59	93.62
402.78	0.00
402.97	0.00
403.17	0.00
403.36	72.56
403.55	77.24
403.74	0.00
403.93	0.00
404.13	44.47
404.32	79.58
404.51	28.09
404.70	51.49
404.89	0.00
405.09	42.13
405.28	32.77
405.47	49.15
405.66	39.79
405.85	42.13
406.05	56.17
406.24	21.06
406.43	44.47
406.62	42.13
406.81	72.56
407.00	9.36
407.20	32.77
407.39	74.90
407.58	86.60
407.77	11.70
407.96	51.49
408.15	32.77
408.34	0.00
408.54	32.77
408.73	58.51
408.92	56.17
409.11	0.00
409.30	44.47
409.49	56.17
409.68	53.83
409.87	25.75
410.07	39.79
410.26	67.88
410.45	53.83
410.64	0.00
410.83	14.04
411.02	0.00
411.21	14.04
411.40	0.00
411.59	32.77
411.78	16.38
411.98	58.51
412.17	21.06
412.36	28.09
412.55	0.00
412.74	7.02
412.93	2.34
413.12	7.02
413.31	32.77
413.50	25.75
413.69	42.13
413.88	0.00
414.07	0.00
414.26	7.02
414.45	0.00
414.64	32.77
414.83	35.11
415.02	44.47
415.22	63.19
415.41	0.00
415.60	56.17
415.79	46.81
415.98	0.00
416.17	14.04
416.36	0.00
416.55	0.00
416.74	11.70
416.93	46.81
417.12	16.38
417.31	32.77
417.50	7.02
417.69	4.68
417.88	0.00
418.07	44.47
418.26	0.00
418.45	72.56
418.64	74.90
418.83	77.24
419.02	23.41
419.21	72.56
419.39	35.11
419.58	9.36
419.77	98.30
419.96	37.45
420.15	0.00
420.34	14.04
420.53	0.00
420.72	60.85
420.91	0.00
421.10	4.68
421.29	18.72
421.48	18.72
421.67	28.09
421.86	65.54
422.05	86.60
422.24	9.36
422.43	0.00
422.61	0.00
422.80	2.34
422.99	0.00
423.18	0.00
423.37	44.47
423.56	37.45
423.75	16.38
423.94	30.43
424.13	63.19
424.32	7.02
424.50	37.45
424.69	14.04
424.88	114.69
425.07	0.00
425.26	11.70
425.45	0.00
425.64	60.85
425.83	25.75
426.01	25.75
426.20	0.00
426.39	0.00
426.58	0.00
426.77	70.22
426.96	28.09
427.15	32.77
427.33	7.02
427.52	0.00
427.71	37.45
427.90	16.38
428.09	42.13
428.28	49.15
428.46	74.90
428.65	14.04
428.84	102.98
429.03	56.17
429.22	23.41
429.40	0.00
429.59	2.34
429.78	58.51
429.97	23.41
430.16	0.00
430.34	2.34
430.53	28.09
430.72	21.06
430.91	67.88
431.10	39.79
431.28	37.45
431.47	39.79
431.66	4.68
431.85	32.77
432.03	98.30
432.22	58.51
432.41	112.35
432.60	42.13
432.79	0.00
432.97	14.04
433.16	25.75
433.35	44.47
433.54	98.30
433.72	74.90
433.91	53.83
434.10	11.70
434.28	23.41
434.47	2.34
434.66	16.38
434.85	42.13
435.03	30.43
435.22	51.49
435.41	42.13
435.59	14.04
435.78	32.77
435.97	39.79
436.16	124.05
436.34	42.13
436.53	86.60
436.72	42.13
436.90	0.00
437.09	21.06
437.28	16.38
437.46	0.00
437.65	63.19
437.84	42.13
438.02	46.81
438.21	56.17
438.40	84.26
438.58	0.00
438.77	0.00
438.96	0.00
439.14	53.83
439.33	2.34
439.52	0.00
439.70	46.81
439.89	77.24
440.08	35.11
440.26	37.45
440.45	21.06
440.63	0.00
440.82	51.49
441.01	37.45
441.19	98.30
441.38	37.45
441.57	32.77
441.75	46.81
441.94	77.24
442.12	18.72
442.31	30.43
442.50	18.72
442.68	9.36
442.87	74.90
443.05	42.13
443.24	70.22
443.43	25.75
443.61	58.51
443.80	9.36
443.98	32.77
444.17	39.79
444.35	102.98
444.54	72.56
444.73	11.70
444.91	60.85
445.10	18.72
445.28	14.04
445.47	65.54
445.65	79.58
445.84	93.62
446.02	14.04
446.21	4.68
446.39	16.38
446.58	77.24
446.77	67.88
446.95	0.00
447.14	30.43
447.32	18.72
447.51	65.54
447.69	39.79
447.88	117.03
448.06	60.85
448.25	25.75
448.43	46.81
448.62	23.41
448.80	2.34
448.99	11.70
449.17	42.13
449.36	0.00
449.54	46.81
449.73	51.49
449.91	39.79
450.10	0.00
450.28	0.00
450.46	39.79
450.65	67.88
450.83	0.00
451.02	4.68
451.20	65.54
451.39	51.49
451.57	51.49
451.76	79.58
451.94	79.58
452.13	49.15
452.31	28.09
452.49	21.06
452.68	51.49
452.86	11.70
453.05	21.06
453.23	46.81
453.42	100.64
453.60	93.62
453.78	67.88
453.97	16.38
454.15	53.83
454.34	42.13
454.52	18.72
454.70	70.22
454.89	0.00
455.07	9.36
455.26	105.32
455.44	4.68
455.62	60.85
455.81	23.41
455.99	4.68
456.17	0.00
456.36	11.70
456.54	63.19
456.73	4.68
456.91	0.00
457.09	0.00
457.28	91.28
457.46	51.49
457.64	0.00
457.83	81.92
458.01	44.47
458.19	51.49
458.38	58.51
458.56	77.24
458.74	51.49
458.93	91.28
459.11	30.43
459.29	16.38
459.48	23.41
459.66	81.92
459.84	79.58
460.03	81.92
460.21	88.94
460.39	100.64
460.57	14.04
460.76	32.77
460.94	79.58
461.12	0.00
461.31	35.11
461.49	7.02
461.67	0.00
461.85	28.09
462.04	0.00
462.22	65.54
462.40	0.00
462.59	35.11
462.77	14.04
462.95	65.54
463.13	98.30
463.32	81.92
463.50	11.70
463.68	37.45
463.86	7.02
464.05	72.56
464.23	102.98
464.41	0.00
464.59	0.00
464.78	56.17
464.96	11.70
465.14	0.00
465.32	0.00
465.50	44.47
465.69	63.19
465.87	86.60
466.05	0.00
466.23	4.68
466.41	0.00
466.60	18.72
466.78	30.43
466.96	0.00
467.14	42.13
467.32	0.00
467.51	0.00
467.69	37.45
467.87	9.36
468.05	23.41
468.23	0.00
468.41	32.77
468.60	35.11
468.78	2.34
468.96	0.00
469.14	53.83
469.32	49.15
469.50	18.72
469.69	39.79
469.87	25.75
470.05	32.77
470.23	39.79
470.41	21.06
470.59	81.92
470.77	37.45
470.95	63.19
471.14	18.72
471.32	77.24
471.50	63.19
471.68	107.66
471.86	42.13
472.04	102.98
472.22	0.00
472.40	25.75
472.58	53.83
472.77	37.45
472.95	49.15
473.13	18.72
473.31	0.00
473.49	0.00
473.67	156.82
473.85	56.17
474.03	60.85
474.21	16.38
474.39	49.15
474.57	35.11
474.75	44.47
474.93	91.28
475.12	81.92
475.30	49.15
475.48	7.02
475.66	18.72
475.84	37.45
476.02	100.64
476.20	49.15
476.38	28.09
476.56	42.13
476.74	0.00
476.92	53.83
477.10	88.94
477.28	74.90
477.46	39.79
477.64	124.05
477.82	28.09
478.00	0.00
478.18	91.28
478.36	74.90
478.54	23.41
478.72	0.00
478.90	37.45
479.08	0.00
479.26	88.94
479.44	86.60
479.62	67.88
479.80	35.11
479.98	18.72
480.16	37.45
480.34	0.00
480.52	4.68
480.70	28.09
480.88	0.00
481.06	23.41
481.24	67.88
481.41	9.36
481.59	0.00
481.77	2.34
481.95	70.22
482.13	56.17
482.31	9.36
482.49	0.00
482.67	67.88
482.85	53.83
483.03	0.00
483.21	37.45
483.39	67.88
483.57	56.17
483.74	93.62
483.92	131.07
484.10	39.79
484.28	46.81
484.46	63.19
484.64	25.75
484.82	0.00
485.00	49.15
485.18	42.13
485.35	18.72
485.53	46.81
485.71	11.70
485.89	16.38
486.07	30.43
486.25	63.19
486.43	0.00
486.61	11.70
486.78	23.41
486.96	0.00
487.14	0.00
487.32	67.88
487.50	77.24
487.68	0.00
487.85	42.13
488.03	37.45
488.21	46.81
488.39	60.85
488.57	74.90
488.75	28.09
488.92	72.56
489.10	95.96
489.28	70.22
489.46	0.00
489.64	42.13
489.81	11.70
489.99	35.11
490.17	46.81
490.35	30.43
490.53	95.96
490.70	65.54
490.88	65.54
491.06	117.03
491.24	60.85
491.41	67.88
491.59	126.39
491.77	0.00
491.95	16.38
492.13	30.43
492.30	0.00
492.48	23.41
492.66	0.00
492.84	23.41
493.01	14.04
493.19	67.88
493.37	2.34
493.54	23.41
493.72	39.79
493.90	11.70
494.08	63.19
494.25	0.00
494.43	0.00
494.61	72.56
494.79	0.00
494.96	23.41
495.14	102.98
495.32	9.36
495.49	7.02
495.67	35.11
495.85	0.00
496.02	0.00
496.20	84.26
496.38	77.24
496.55	0.00
496.73	14.04
496.91	60.85
497.09	0.00
497.26	91.28
497.44	51.49
497.62	51.49
497.79	0.00
497.97	32.77
498.14	133.41
498.32	39.79
498.50	0.00
498.67	0.00
498.85	93.62
499.03	0.00
499.20	39.79
499.38	25.75
499.56	30.43
499.73	145.11
499.91	0.00
500.08	42.13
500.26	32.77
500.44	0.00
500.61	88.94
500.79	46.81
500.97	67.88
501.14	0.00
501.32	56.17
501.49	25.75
501.67	7.02
501.84	39.79
502.02	14.04
502.20	28.09
502.37	74.90
502.55	28.09
502.72	51.49
502.90	77.24
503.07	7.02
503.25	11.70
503.43	74.90
503.60	70.22
503.78	91.28
503.95	0.00
504.13	7.02
504.30	11.70
504.48	98.30
504.65	14.04
504.83	23.41
505.01	72.56
505.18	4.68
505.36	0.00
505.53	0.00
505.71	72.56
505.88	58.51
506.06	44.47
506.23	74.90
506.41	60.85
506.58	23.41
506.76	37.45
506.93	56.17
507.11	0.00
507.28	53.83
507.46	14.04
507.63	0.00
507.81	39.79
507.98	110.01
508.16	39.79
508.33	16.38
508.50	88.94
508.68	46.81
508.85	37.45
509.03	0.00
509.20	11.70
509.38	30.43
509.55	23.41
509.73	0.00
509.90	70.22
510.08	11.70
510.25	126.39
510.42	37.45
510.60	32.77
510.77	0.00
510.95	46.81
511.12	49.15
511.30	51.49
511.47	77.24
511.64	0.00
511.82	37.45
511.99	30.43
512.17	67.88
512.34	44.47
512.51	37.45
512.69	65.54
512.86	105.32
513.04	0.00
513.21	14.04
513.38	32.77
513.56	39.79
513.73	0.00
513.90	7.02
514.08	51.49
514.25	51.49
514.43	23.41
514.60	23.41
514.77	0.00
514.95	0.00
515.12	86.60
515.29	84.26
515.47	30.43
515.64	110.01
515.81	56.17
515.99	46.81
516.16	74.90
516.33	46.81
516.51	67.88
516.68	124.05
516.85	25.75
517.03	0.00
517.20	88.94
517.37	39.79
517.54	77.24
517.72	70.22
517.89	4.68
518.06	44.47
518.24	58.51
518.41	21.06
518.58	91.28
518.75	0.00
518.93	84.26
519.10	2.34
519.27	39.79
519.45	9.36
519.62	18.72
519.79	65.54
519.96	0.00
520.14	0.00
520.31	0.00
520.48	56.17
520.65	21.06
520.83	0.00
521.00	51.49
521.17	21.06
521.34	56.17
521.52	14.04
521.69	2.34
521.86	67.88
522.03	32.77
522.20	63.19
522.38	65.54
522.55	72.56
522.72	16.38
522.89	49.15
523.07	91.28
523.24	51.49
523.41	0.00
523.58	25.75
523.75	9.36
523.92	60.85
524.10	58.51
524.27	110.01
524.44	2.34
524.61	11.70
524.78	53.83
524.96	58.51
525.13	0.00
525.30	11.70
525.47	70.22
525.64	30.43
525.81	14.04
525.98	42.13
526.16	60.85
526.33	18.72
526.50	2.34
526.67	72.56
526.84	0.00
527.01	91.28
527.18	60.85
527.36	21.06
527.53	32.77
527.70	88.94
527.87	114.69
528.04	56.17
528.21	0.00
528.38	58.51
528.55	77.24
528.72	30.43
528.89	7.02
529.07	21.06
529.24	44.47
529.41	53.83
529.58	86.60
529.75	65.54
529.92	77.24
530.09	37.45
530.26	110.01
530.43	0.00
530.60	67.88
530.77	58.51
530.94	79.58
531.11	53.83
531.28	14.04
531.46	9.36
531.63	28.09
531.80	0.00
531.97	0.00
532.14	46.81
532.31	9.36
532.48	21.06
532.65	65.54
532.82	67.88
532.99	128.73
533.16	9.36
533.33	23.41
533.50	0.00
533.67	32.77
533.84	14.04
534.01	42.13
534.18	86.60
534.35	37.45
534.52	0.00
534.69	14.04
534.86	28.09
535.03	51.49
535.20	51.49
535.37	102.98
535.54	16.38
535.71	32.77
535.88	74.90
536.05	63.19
536.22	60.85
536.38	72.56
536.55	25.75
536.72	39.79
536.89	46.81
537.06	14.04
537.23	0.00
537.40	9.36
537.57	98.30
537.74	0.00
537.91	0.00
538.08	0.00
538.25	65.54
538.42	32.77
538.59	0.00
538.75	30.43
538.92	53.83
539.09	77.24
539.26	39.79
539.43	44.47
539.60	0.00
539.77	72.56
539.94	60.85
540.11	58.51
540.28	23.41
540.44	88.94
540.61	7.02
540.78	14.04
540.95	0.00
541.12	49.15
541.29	56.17
541.46	46.81
541.62	44.47
541.79	0.00
541.96	0.00
542.13	44.47
542.30	0.00
542.47	86.60
542.63	32.77
542.80	18.72
542.97	102.98
543.14	93.62
543.31	95.96
543.48	70.22
543.64	32.77
543.81	58.51
543.98	25.75
544.15	37.45
544.32	0.00
544.48	0.00
544.65	102.98
544.82	4.68
544.99	39.79
545.16	72.56
545.32	11.70
545.49	28.09
545.66	72.56
545.83	0.00
546.00	60.85
546.16	0.00
546.33	60.85
546.50	63.19
546.67	56.17
546.83	49.15
547.00	0.00
547.17	2.34
547.34	39.79
547.50	56.17
547.67	4.68
547.84	7.02
548.00	79.58
548.17	74.90
548.34	11.70
548.51	0.00
548.67	70.22
548.84	0.00
549.01	44.47
549.18	2.34
549.34	0.00
549.51	65.54
549.68	53.83
549.84	60.85
550.01	0.00
550.18	77.24
550.34	18.72
550.51	58.51
550.68	138.09
550.84	60.85
551.01	84.26
551.18	63.19
551.34	51.49
551.51	0.00
551.68	60.85
551.84	30.43
552.01	0.00
552.18	51.49
552.34	46.81
552.51	102.98
552.68	35.11
552.84	42.13
553.01	0.00
553.18	51.49
553.34	0.00
553.51	46.81
553.67	81.92
553.84	35.11
554.01	42.13
554.17	0.00
554.34	53.83
554.51	65.54
554.67	74.90
554.84	21.06
555.00	7.02
555.17	56.17
555.33	49.15
555.50	49.15
555.67	44.47
555.83	58.51
556.00	16.38
556.16	51.49
556.33	46.81
556.50	21.06
556.66	77.24
556.83	4.68
556.99	100.64
557.16	2.34
557.32	72.56
557.49	9.36
557.65	23.41
557.82	112.35
557.98	49.15
558.15	32.77
558.32	56.17
558.48	0.00
558.65	86.60
558.81	35.11
558.98	102.98
559.14	88.94
559.31	140.43
559.47	28.09
559.64	77.24
559.80	65.54
559.97	14.04
560.13	21.06
560.30	0.00
560.46	30.43
560.63	46.81
560.79	58.51
560.96	21.06
561.12	2.34
561.29	114.69
561.45	0.00
561.61	23.41
561.78	39.79
561.94	53.83
562.11	14.04
562.27	0.00
562.44	30.43
562.60	0.00
562.77	0.00
562.93	39.79
563.10	58.51
563.26	0.00
563.42	51.49
563.59	131.07
563.75	63.19
563.92	21.06
564.08	131.07
564.24	105.32
564.41	79.58
564.57	16.38
564.74	37.45
564.90	11.70
565.07	32.77
565.23	0.00
565.39	67.88
565.56	110.01
565.72	23.41
565.88	81.92
566.05	25.75
566.21	119.37
566.38	32.77
566.54	37.45
566.70	56.17
566.87	100.64
567.03	42.13
567.19	72.56
567.36	28.09
567.52	42.13
567.68	60.85
567.85	0.00
568.01	161.50
568.17	35.11
568.34	30.43
568.50	28.09
568.66	0.00
568.83	9.36
568.99	11.70
569.15	0.00
569.32	37.45
569.48	37.45
569.64	30.43
569.81	102.98
569.97	0.00
570.13	0.00
570.30	2.34
570.46	21.06
570.62	70.22
570.78	39.79
570.95	0.00
571.11	72.56
571.27	0.00
571.43	42.13
571.60	81.92
571.76	32.77
571.92	30.43
572.09	0.00
572.25	37.45
572.41	49.15
572.57	74.90
572.74	98.30
572.90	79.58
573.06	30.43
573.22	4.68
573.38	37.45
573.55	14.04
573.71	63.19
573.87	4.68
574.03	16.38
574.20	63.19
574.36	88.94
574.52	23.41
574.68	0.00
574.84	4.68
575.01	114.69
575.17	21.06
575.33	46.81
575.49	56.17
575.65	4.68
575.82	0.00
575.98	56.17
576.14	21.06
576.30	0.00
576.46	67.88
576.62	11.70
576.79	105.32
576.95	81.92
577.11	32.77
577.27	81.92
577.43	28.09
577.59	25.75
577.75	51.49
577.92	23.41
578.08	0.00
578.24	0.00
578.40	4.68
578.56	65.54
578.72	35.11
578.88	70.22
579.04	60.85
579.21	9.36
579.37	84.26
579.53	39.79
579.69	23.41
579.85	42.13
580.01	35.11
580.17	0.00
580.33	35.11
580.49	25.75
580.65	65.54
580.82	35.11
580.98	56.17
581.14	9.36
581.30	0.00
581.46	51.49
581.62	49.15
581.78	0.00
581.94	0.00
582.10	14.04
582.26	14.04
582.42	0.00
582.58	39.79
582.74	49.15
582.90	53.83
583.06	77.24
583.22	105.32
583.38	51.49
583.54	37.45
583.70	4.68
583.86	86.60
584.02	4.68
584.18	63.19
584.34	65.54
584.50	9.36
584.66	121.71
584.82	198.95
584.98	259.80
585.14	210.65
585.30	180.22
585.46	65.54
585.62	145.11
585.78	100.64
585.94	56.17
586.10	25.75
586.26	51.49
586.42	11.70
586.58	37.45
586.74	16.38
586.90	63.19
587.06	74.90
587.22	70.22
587.38	28.09
587.54	42.13
587.70	79.58
587.86	114.69
588.02	18.72
588.18	49.15
588.34	49.15
588.49	9.36
588.65	63.19
588.81	77.24
588.97	7.02
589.13	53.83
589.29	0.00
589.45	88.94
589.61	0.00
589.77	32.77
589.93	30.43
590.08	53.83
590.24	49.15
590.40	30.43
590.56	107.66
590.72	58.51
590.88	81.92
591.04	37.45
591.20	42.13
591.35	53.83
591.51	37.45
591.67	18.72
591.83	86.60
591.99	51.49
592.15	138.09
592.31	35.11
592.46	39.79
592.62	0.00
592.78	74.90
592.94	42.13
593.10	0.00
593.26	49.15
593.41	14.04
593.57	74.90
593.73	53.83
593.89	9.36
594.05	72.56
594.20	107.66
594.36	4.68
594.52	135.75
594.68	74.90
594.84	93.62
594.99	28.09
595.15	23.41
595.31	65.54
595.47	0.00
595.62	58.51
595.78	70.22
595.94	32.77
596.10	30.43
596.25	30.43
596.41	9.36
596.57	14.04
596.73	16.38
596.88	39.79
597.04	110.01
597.20	32.77
597.36	58.51
597.51	25.75
597.67	21.06
597.83	23.41
597.99	63.19
598.14	63.19
598.30	0.00
598.46	0.00
598.61	53.83
598.77	51.49
598.93	44.47
599.09	0.00
599.24	88.94
599.40	63.19
599.56	65.54
599.71	86.60
599.87	42.13
600.03	21.06
600.18	51.49
600.34	79.58
600.50	14.04
600.65	65.54
600.81	16.38
600.97	37.45
601.12	0.00
601.28	84.26
601.44	23.41
601.59	74.90
601.75	0.00
601.91	2.34
602.06	30.43
602.22	0.00
602.37	65.54
602.53	30.43
602.69	102.98
602.84	81.92
603.00	0.00
603.16	105.32
603.31	56.17
603.47	0.00
603.62	70.22
603.78	44.47
603.94	53.83
604.09	28.09
604.25	60.85
604.40	91.28
604.56	39.79
604.71	28.09
604.87	30.43
605.03	0.00
605.18	9.36
605.34	42.13
605.49	70.22
605.65	14.04
605.80	0.00
605.96	53.83
606.12	16.38
606.27	30.43
606.43	32.77
606.58	84.26
606.74	49.15
606.89	65.54
607.05	28.09
607.20	0.00
607.36	28.09
607.51	21.06
607.67	9.36
607.82	81.92
607.98	37.45
608.13	51.49
608.29	70.22
608.44	58.51
608.60	0.00
608.75	46.81
608.91	32.77
609.06	44.47
609.22	67.88
609.37	117.03
609.53	198.95
609.68	65.54
609.84	58.51
609.99	21.06
610.15	49.15
610.30	79.58
610.46	32.77
610.61	72.56
610.76	46.81
610.92	18.72
611.07	0.00
611.23	65.54
611.38	49.15
611.54	0.00
611.69	0.00
611.84	84.26
612.00	60.85
612.15	4.68
612.31	9.36
612.46	37.45
612.62	7.02
612.77	42.13
612.92	30.43
613.08	28.09
613.23	25.75
613.39	100.64
613.54	39.79
613.69	63.19
613.85	63.19
614.00	70.22
614.15	159.16
614.31	74.90
614.46	49.15
614.62	121.71
614.77	70.22
614.92	84.26
615.08	49.15
615.23	53.83
615.38	51.49
615.54	14.04
615.69	11.70
615.84	79.58
616.00	63.19
616.15	142.77
616.30	7.02
616.46	0.00
616.61	81.92
616.76	35.11
616.92	9.36
617.07	0.00
617.22	16.38
617.37	9.36
617.53	0.00
617.68	18.72
617.83	4.68
617.99	91.28
618.14	42.13
618.29	51.49
618.45	65.54
618.60	42.13
618.75	81.92
618.90	14.04
619.06	56.17
619.21	18.72
619.36	25.75
619.51	28.09
619.67	102.98
619.82	25.75
619.97	37.45
620.12	107.66
620.28	14.04
620.43	72.56
620.58	44.47
620.73	88.94
620.89	28.09
621.04	28.09
621.19	35.11
621.34	0.00
621.49	46.81
621.65	49.15
621.80	100.64
621.95	67.88
622.10	37.45
622.25	0.00
622.41	81.92
622.56	23.41
622.71	46.81
622.86	67.88
623.01	67.88
623.16	30.43
623.32	37.45
623.47	7.02
623.62	25.75
623.77	58.51
623.92	30.43
624.07	0.00
624.23	86.60
624.38	53.83
624.53	9.36
624.68	79.58
624.83	28.09
624.98	46.81
625.13	100.64
625.29	46.81
625.44	39.79
625.59	42.13
625.74	65.54
625.89	4.68
626.04	28.09
626.19	18.72
626.34	102.98
626.49	63.19
626.65	11.70
626.80	18.72
626.95	91.28
627.10	100.64
627.25	0.00
627.40	74.90
627.55	4.68
627.70	56.17
627.85	112.35
628.00	30.43
628.15	14.04
628.30	16.38
628.45	67.88
628.60	72.56
628.76	79.58
628.91	4.68
629.06	0.00
629.21	44.47
629.36	35.11
629.51	58.51
629.66	72.56
629.81	56.17
629.96	35.11
630.11	0.00
630.26	56.17
630.41	51.49
630.56	60.85
630.71	58.51
630.86	107.66
631.01	42.13
631.16	4.68
631.31	60.85
631.46	37.45
631.61	11.70
631.76	25.75
631.91	74.90
632.06	0.00
632.21	107.66
632.36	39.79
632.51	18.72
632.66	35.11
632.81	0.00
632.96	70.22
633.10	91.28
633.25	95.96
633.40	86.60
633.55	46.81
633.70	88.94
633.85	51.49
634.00	84.26
634.15	0.00
634.30	23.41
634.45	32.77
634.60	86.60
634.75	60.85
634.90	23.41
635.05	28.09
635.19	37.45
635.34	86.60
635.49	0.00
635.64	7.02
635.79	0.00
635.94	0.00
636.09	49.15
636.24	35.11
636.39	42.13
636.53	30.43
636.68	42.13
636.83	124.05
636.98	65.54
637.13	93.62
637.28	32.77
637.43	63.19
637.57	0.00
637.72	11.70
637.87	0.00
638.02	35.11
638.17	112.35
638.32	112.35
638.46	14.04
638.61	63.19
638.76	0.00
638.91	7.02
639.06	44.47
639.20	60.85
639.35	23.41
639.50	0.00
639.65	7.02
639.80	161.50
639.94	117.03
640.09	93.62
640.24	86.60
640.39	77.24
640.54	56.17
640.68	21.06
640.83	0.00
640.98	56.17
641.13	56.17
641.27	44.47
641.42	14.04
641.57	25.75
641.72	18.72
641.86	30.43
642.01	93.62
642.16	44.47
642.31	35.11
642.45	42.13
642.60	14.04
642.75	65.54
642.90	25.75
643.04	53.83
643.19	44.47
643.34	42.13
643.48	4.68
643.63	81.92
643.78	88.94
643.93	32.77
644.07	49.15
644.22	23.41
644.37	11.70
644.51	2.34
644.66	39.79
644.81	67.88
644.95	42.13
645.10	65.54
645.25	9.36
645.39	39.79
645.54	0.00
645.69	0.00
645.83	11.70
645.98	25.75
646.13	51.49
646.27	60.85
646.42	30.43
646.57	65.54
646.71	0.00
646.86	37.45
647.00	32.77
647.15	77.24
647.30	4.68
647.44	35.11
647.59	46.81
647.74	46.81
647.88	39.79
648.03	30.43
648.17	0.00
648.32	0.00
648.47	7.02
648.61	0.00
648.76	16.38
648.90	16.38
649.05	133.41
649.20	23.41
649.34	0.00
649.49	42.13
649.63	16.38
649.78	81.92
649.92	37.45
650.07	16.38
650.21	95.96
650.36	95.96
650.51	44.47
650.65	81.92
650.80	0.00
650.94	37.45
651.09	70.22
651.23	67.88
651.38	32.77
651.52	9.36
651.67	72.56
651.81	14.04
651.96	51.49
652.10	37.45
652.25	79.58
652.39	0.00
652.54	77.24
652.68	9.36
652.83	11.70
652.97	30.43
653.12	44.47
653.26	98.30
653.41	77.24
653.55	32.77
653.70	72.56
653.84	42.13
653.99	9.36
654.13	60.85
654.27	53.83
654.42	35.11
654.56	88.94
654.71	37.45
654.85	0.00
655.00	49.15
655.14	65.54
655.29	95.96
655.43	0.00
655.57	63.19
655.72	0.00
655.86	0.00
656.01	46.81
656.15	7.02
656.30	37.45
656.44	56.17
656.58	30.43
656.73	23.41
656.87	0.00
657.01	63.19
657.16	107.66
657.30	93.62
657.45	72.56
657.59	23.41
657.73	21.06
657.88	30.43
658.02	107.66
658.16	14.04
658.31	58.51
658.45	58.51
658.60	49.15
658.74	46.81
658.88	25.75
659.03	0.00
659.17	51.49
659.31	0.00
659.46	107.66
659.60	0.00
659.74	91.28
659.89	28.09
660.03	9.36
660.17	91.28
660.32	84.26
660.46	102.98
660.60	35.11
660.74	44.47
660.89	11.70
661.03	79.58
661.17	112.35
661.32	37.45
661.46	0.00
661.60	11.70
661.74	0.00
661.89	0.00
662.03	44.47
662.17	49.15
662.31	0.00
662.46	63.19
662.60	58.51
662.74	117.03
662.88	9.36
663.03	32.77
663.17	0.00
663.31	0.00
663.45	2.34
663.60	11.70
663.74	102.98
663.88	95.96
664.02	25.75
664.17	42.13
664.31	30.43
664.45	0.00
664.59	70.22
664.73	28.09
664.88	39.79
665.02	32.77
665.16	18.72
665.30	11.70
665.44	0.00
665.59	0.00
665.73	28.09
665.87	37.45
666.01	21.06
666.15	0.00
666.29	7.02
666.44	53.83
666.58	37.45
666.72	70.22
666.86	23.41
667.00	2.34
667.14	0.00
667.28	44.47
667.43	0.00
667.57	65.54
667.71	60.85
667.85	32.77
667.99	107.66
668.13	67.88
668.27	0.00
668.41	100.64
668.56	70.22
668.70	63.19
668.84	93.62
668.98	74.90
669.12	81.92
669.26	56.17
669.40	2.34
669.54	35.11
669.68	30.43
669.82	42.13
669.96	4.68
670.10	84.26
670.25	0.00
670.39	124.05
670.53	9.36
670.67	0.00
670.81	9.36
670.95	32.77
671.09	67.88
671.23	117.03
671.37	159.16
671.51	51.49
671.65	60.85
671.79	42.13
671.93	105.32
672.07	102.98
672.21	58.51
672.35	53.83
672.49	56.17
672.63	14.04
672.77	30.43
672.91	0.00
673.05	37.45
673.19	0.00
673.33	18.72
673.47	51.49
673.61	0.00
673.75	98.30
673.89	0.00
674.03	25.75
674.17	35.11
674.31	21.06
674.45	44.47
674.59	0.00
674.73	39.79
674.87	14.04
675.01	49.15
675.15	63.19
675.29	65.54
675.43	32.77
675.56	56.17
675.70	7.02
675.84	42.13
675.98	105.32
676.12	114.69
676.26	51.49
676.40	37.45
676.54	18.72
676.68	14.04
676.82	9.36
676.96	49.15
677.10	7.02
677.23	46.81
677.37	44.47
677.51	51.49
677.65	91.28
677.79	60.85
677.93	25.75
678.07	21.06
678.21	37.45
678.34	9.36
678.48	21.06
678.62	58.51
678.76	0.00
678.90	39.79
679.04	42.13
679.18	30.43
679.31	0.00
679.45	37.45
679.59	35.11
679.73	11.70
679.87	39.79
680.00	11.70
680.14	0.00
680.28	0.00
680.42	112.35
680.56	63.19
680.70	49.15
680.83	2.34
680.97	0.00
681.11	32.77
681.25	114.69
681.39	25.75
681.52	4.68
681.66	23.41
681.80	4.68
681.94	30.43
682.07	42.13
682.21	63.19
682.35	51.49
682.49	35.11
682.62	88.94
682.76	0.00
682.90	0.00
683.04	51.49
683.17	0.00
683.31	84.26
683.45	18.72
683.59	112.35
683.72	79.58
683.86	46.81
684.00	72.56
684.13	91.28
684.27	86.60
684.41	70.22
684.55	32.77
684.68	46.81
684.82	44.47
684.96	28.09
685.09	25.75
685.23	11.70
685.37	44.47
685.50	0.00
685.64	72.56
685.78	14.04
685.91	117.03
686.05	67.88
686.19	0.00
686.32	86.60
686.46	72.56
686.60	0.00
686.73	23.41
686.87	16.38
687.01	0.00
687.14	63.19
687.28	18.72
687.42	0.00
687.55	4.68
687.69	25.75
687.82	4.68
687.96	35.11
688.10	74.90
688.23	0.00
688.37	56.17
688.50	46.81
688.64	28.09
688.78	14.04
688.91	25.75
689.05	35.11
689.18	0.00
689.32	63.19
689.46	16.38
689.59	16.38
689.73	56.17
689.86	37.45
690.00	0.00
690.13	0.00
690.27	16.38
690.41	74.90
690.54	4.68
690.68	9.36
690.81	35.11
690.95	0.00
691.08	37.45
691.22	0.00
691.35	44.47
691.49	53.83
691.62	0.00
691.76	16.38
691.89	30.43
692.03	42.13
692.16	58.51
692.30	0.00
692.43	0.00
692.57	0.00
692.70	35.11
692.84	32.77
692.97	16.38
693.11	51.49
693.24	42.13
693.38	0.00
693.51	21.06
693.65	32.77
693.78	25.75
693.92	9.36
694.05	35.11
694.19	16.38
694.32	16.38
694.45	0.00
694.59	14.04
694.72	0.00
694.86	60.85
694.99	42.13
695.13	32.77
695.26	112.35
695.39	23.41
695.53	0.00
695.66	39.79
695.80	72.56
695.93	35.11
696.07	7.02
696.20	21.06
696.33	35.11
696.47	0.00
696.60	16.38
696.73	4.68
696.87	2.34
697.00	77.24
697.14	0.00
697.27	28.09
697.40	9.36
697.54	49.15
697.67	39.79
697.80	124.05
697.94	88.94
698.07	79.58
698.21	67.88
698.34	0.00
698.47	35.11
698.61	30.43
698.74	0.00
698.87	39.79
699.01	39.79
699.14	11.70
699.27	65.54
699.40	91.28
699.54	42.13
699.67	58.51
699.80	93.62
699.94	63.19
700.07	0.00
700.20	32.77
700.34	91.28
700.47	67.88
700.60	9.36
700.73	32.77
700.87	23.41
701.00	4.68
701.13	63.19
701.26	91.28
701.40	0.00
701.53	0.00
701.66	42.13
701.79	9.36
701.93	28.09
702.06	18.72
702.19	0.00
702.32	79.58
702.46	37.45
702.59	0.00
702.72	0.00
702.85	25.75
702.99	0.00
703.12	117.03
703.25	84.26
703.38	70.22
703.51	37.45
703.65	30.43
703.78	51.49
703.91	4.68
704.04	23.41
704.17	70.22
704.31	46.81
704.44	0.00
704.57	28.09
704.70	42.13
704.83	58.51
704.96	9.36
705.10	9.36
705.23	0.00
>>>>>End Processed Spectral Data<<<<<
