SpectraSuite Data File
++++++++++++++++++++++++++++++++++++
Date: Fri Oct 04 12:13:45 GMT-05:00 2013
User: price-jones
Dark Spectrum Present: No
Reference Spectrum Present: No
Number of Sampled Component Spectra: 1
Spectrometers: USB2+H05261
Integration Time (usec): 10000 (USB2+H05261)
Spectra Averaged: 1 (USB2+H05261)
Boxcar Smoothing: 0 (USB2+H05261)
Correct for Electrical Dark: No (USB2+H05261)
Strobe/Lamp Enabled: No (USB2+H05261)
Correct for Detector Non-linearity: No (USB2+H05261)
Correct for Stray Light: No (USB2+H05261)
Number of Pixels in Processed Spectrum: 2048
>>>>>Begin Processed Spectral Data<<<<<
365.73	25.75
365.92	25.75
366.12	25.75
366.32	0.00
366.52	0.00
366.72	0.00
366.91	0.00
367.11	0.00
367.31	0.00
367.51	0.00
367.70	0.00
367.90	0.00
368.10	0.00
368.30	0.00
368.49	0.00
368.69	0.00
368.89	0.00
369.09	0.00
369.28	0.00
369.48	0.00
369.68	0.00
369.87	0.00
370.07	0.00
370.27	0.00
370.47	0.00
370.66	0.00
370.86	0.00
371.06	0.00
371.25	0.00
371.45	0.00
371.65	0.00
371.84	0.00
372.04	25.75
372.24	35.11
372.44	0.00
372.63	28.09
372.83	51.49
373.03	35.11
373.22	30.43
373.42	16.38
373.62	86.60
373.81	25.75
374.01	30.43
374.21	0.00
374.40	86.60
374.60	42.13
374.79	74.90
374.99	56.17
375.19	67.88
375.38	53.83
375.58	4.68
375.78	100.64
375.97	56.17
376.17	46.81
376.37	65.54
376.56	39.79
376.76	42.13
376.95	67.88
377.15	72.56
377.35	100.64
377.54	0.00
377.74	16.38
377.93	0.00
378.13	0.00
378.33	9.36
378.52	56.17
378.72	49.15
378.91	0.00
379.11	21.06
379.31	21.06
379.50	0.00
379.70	28.09
379.89	16.38
380.09	114.69
380.28	39.79
380.48	0.00
380.68	28.09
380.87	0.00
381.07	95.96
381.26	39.79
381.46	0.00
381.65	0.00
381.85	46.81
382.04	0.00
382.24	18.72
382.43	53.83
382.63	25.75
382.83	0.00
383.02	42.13
383.22	25.75
383.41	51.49
383.61	56.17
383.80	9.36
384.00	56.17
384.19	0.00
384.39	2.34
384.58	0.00
384.78	0.00
384.97	39.79
385.17	0.00
385.36	70.22
385.56	32.77
385.75	0.00
385.95	0.00
386.14	7.02
386.34	102.98
386.53	0.00
386.72	0.00
386.92	30.43
387.11	23.41
387.31	51.49
387.50	39.79
387.70	9.36
387.89	46.81
388.09	16.38
388.28	16.38
388.48	44.47
388.67	23.41
388.86	53.83
389.06	18.72
389.25	37.45
389.45	42.13
389.64	18.72
389.84	49.15
390.03	77.24
390.22	56.17
390.42	0.00
390.61	0.00
390.81	28.09
391.00	0.00
391.19	11.70
391.39	9.36
391.58	7.02
391.78	37.45
391.97	0.00
392.16	25.75
392.36	0.00
392.55	44.47
392.75	0.00
392.94	0.00
393.13	14.04
393.33	28.09
393.52	28.09
393.71	51.49
393.91	28.09
394.10	0.00
394.29	28.09
394.49	46.81
394.68	51.49
394.88	0.00
395.07	28.09
395.26	0.00
395.46	42.13
395.65	88.94
395.84	74.90
396.04	0.00
396.23	74.90
396.42	37.45
396.62	0.00
396.81	0.00
397.00	0.00
397.19	0.00
397.39	37.45
397.58	28.09
397.77	42.13
397.97	86.60
398.16	25.75
398.35	56.17
398.55	53.83
398.74	0.00
398.93	2.34
399.12	46.81
399.32	46.81
399.51	44.47
399.70	53.83
399.90	49.15
400.09	0.00
400.28	0.00
400.47	23.41
400.67	91.28
400.86	35.11
401.05	65.54
401.24	0.00
401.44	21.06
401.63	42.13
401.82	98.30
402.01	0.00
402.21	93.62
402.40	30.43
402.59	25.75
402.78	39.79
402.97	46.81
403.17	74.90
403.36	21.06
403.55	18.72
403.74	21.06
403.93	65.54
404.13	30.43
404.32	79.58
404.51	0.00
404.70	65.54
404.89	53.83
405.09	51.49
405.28	67.88
405.47	77.24
405.66	0.00
405.85	42.13
406.05	72.56
406.24	65.54
406.43	56.17
406.62	39.79
406.81	28.09
407.00	42.13
407.20	51.49
407.39	25.75
407.58	14.04
407.77	0.00
407.96	0.00
408.15	0.00
408.34	79.58
408.54	0.00
408.73	37.45
408.92	11.70
409.11	7.02
409.30	84.26
409.49	0.00
409.68	0.00
409.87	119.37
410.07	30.43
410.26	18.72
410.45	14.04
410.64	0.00
410.83	9.36
411.02	56.17
411.21	30.43
411.40	11.70
411.59	37.45
411.78	0.00
411.98	7.02
412.17	70.22
412.36	0.00
412.55	58.51
412.74	0.00
412.93	0.00
413.12	0.00
413.31	7.02
413.50	67.88
413.69	98.30
413.88	44.47
414.07	42.13
414.26	39.79
414.45	86.60
414.64	0.00
414.83	72.56
415.02	30.43
415.22	0.00
415.41	28.09
415.60	0.00
415.79	21.06
415.98	46.81
416.17	46.81
416.36	16.38
416.55	0.00
416.74	11.70
416.93	77.24
417.12	2.34
417.31	0.00
417.50	18.72
417.69	42.13
417.88	23.41
418.07	65.54
418.26	14.04
418.45	7.02
418.64	21.06
418.83	4.68
419.02	79.58
419.21	28.09
419.39	0.00
419.58	2.34
419.77	44.47
419.96	14.04
420.15	28.09
420.34	44.47
420.53	18.72
420.72	25.75
420.91	0.00
421.10	0.00
421.29	0.00
421.48	91.28
421.67	65.54
421.86	39.79
422.05	0.00
422.24	42.13
422.43	84.26
422.61	42.13
422.80	9.36
422.99	117.03
423.18	23.41
423.37	4.68
423.56	28.09
423.75	46.81
423.94	65.54
424.13	25.75
424.32	49.15
424.50	14.04
424.69	0.00
424.88	42.13
425.07	32.77
425.26	112.35
425.45	9.36
425.64	0.00
425.83	0.00
426.01	0.00
426.20	30.43
426.39	91.28
426.58	28.09
426.77	67.88
426.96	16.38
427.15	42.13
427.33	30.43
427.52	93.62
427.71	44.47
427.90	84.26
428.09	56.17
428.28	51.49
428.46	44.47
428.65	65.54
428.84	0.00
429.03	0.00
429.22	63.19
429.40	81.92
429.59	60.85
429.78	58.51
429.97	0.00
430.16	0.00
430.34	44.47
430.53	37.45
430.72	0.00
430.91	65.54
431.10	0.00
431.28	0.00
431.47	65.54
431.66	65.54
431.85	0.00
432.03	51.49
432.22	100.64
432.41	14.04
432.60	91.28
432.79	58.51
432.97	53.83
433.16	42.13
433.35	67.88
433.54	16.38
433.72	51.49
433.91	56.17
434.10	51.49
434.28	37.45
434.47	0.00
434.66	30.43
434.85	0.00
435.03	18.72
435.22	23.41
435.41	2.34
435.59	25.75
435.78	58.51
435.97	0.00
436.16	4.68
436.34	58.51
436.53	0.00
436.72	11.70
436.90	0.00
437.09	39.79
437.28	0.00
437.46	18.72
437.65	72.56
437.84	0.00
438.02	4.68
438.21	46.81
438.40	0.00
438.58	58.51
438.77	35.11
438.96	53.83
439.14	2.34
439.33	0.00
439.52	0.00
439.70	0.00
439.89	9.36
440.08	28.09
440.26	72.56
440.45	53.83
440.63	70.22
440.82	84.26
441.01	86.60
441.19	102.98
441.38	56.17
441.57	72.56
441.75	42.13
441.94	25.75
442.12	18.72
442.31	0.00
442.50	72.56
442.68	60.85
442.87	86.60
443.05	25.75
443.24	39.79
443.43	42.13
443.61	44.47
443.80	44.47
443.98	21.06
444.17	11.70
444.35	95.96
444.54	23.41
444.73	0.00
444.91	44.47
445.10	30.43
445.28	77.24
445.47	0.00
445.65	56.17
445.84	65.54
446.02	23.41
446.21	0.00
446.39	67.88
446.58	11.70
446.77	35.11
446.95	30.43
447.14	0.00
447.32	70.22
447.51	37.45
447.69	0.00
447.88	2.34
448.06	32.77
448.25	93.62
448.43	77.24
448.62	23.41
448.80	0.00
448.99	4.68
449.17	9.36
449.36	4.68
449.54	63.19
449.73	147.45
449.91	14.04
450.10	37.45
450.28	46.81
450.46	65.54
450.65	110.01
450.83	98.30
451.02	4.68
451.20	74.90
451.39	77.24
451.57	35.11
451.76	4.68
451.94	51.49
452.13	84.26
452.31	0.00
452.49	23.41
452.68	60.85
452.86	93.62
453.05	51.49
453.23	51.49
453.42	0.00
453.60	35.11
453.78	21.06
453.97	7.02
454.15	2.34
454.34	53.83
454.52	39.79
454.70	32.77
454.89	32.77
455.07	51.49
455.26	98.30
455.44	0.00
455.62	14.04
455.81	18.72
455.99	86.60
456.17	7.02
456.36	53.83
456.54	60.85
456.73	81.92
456.91	0.00
457.09	0.00
457.28	37.45
457.46	18.72
457.64	7.02
457.83	0.00
458.01	53.83
458.19	117.03
458.38	32.77
458.56	0.00
458.74	0.00
458.93	23.41
459.11	39.79
459.29	0.00
459.48	11.70
459.66	65.54
459.84	95.96
460.03	25.75
460.21	0.00
460.39	28.09
460.57	86.60
460.76	56.17
460.94	81.92
461.12	70.22
461.31	53.83
461.49	81.92
461.67	18.72
461.85	0.00
462.04	30.43
462.22	107.66
462.40	0.00
462.59	72.56
462.77	51.49
462.95	88.94
463.13	107.66
463.32	0.00
463.50	53.83
463.68	30.43
463.86	16.38
464.05	14.04
464.23	77.24
464.41	42.13
464.59	11.70
464.78	0.00
464.96	86.60
465.14	37.45
465.32	60.85
465.50	44.47
465.69	46.81
465.87	35.11
466.05	14.04
466.23	37.45
466.41	9.36
466.60	32.77
466.78	98.30
466.96	37.45
467.14	102.98
467.32	9.36
467.51	16.38
467.69	0.00
467.87	67.88
468.05	44.47
468.23	67.88
468.41	0.00
468.60	79.58
468.78	25.75
468.96	49.15
469.14	7.02
469.32	18.72
469.50	56.17
469.69	0.00
469.87	14.04
470.05	16.38
470.23	7.02
470.41	91.28
470.59	53.83
470.77	4.68
470.95	4.68
471.14	0.00
471.32	35.11
471.50	58.51
471.68	70.22
471.86	0.00
472.04	23.41
472.22	63.19
472.40	51.49
472.58	44.47
472.77	46.81
472.95	39.79
473.13	25.75
473.31	0.00
473.49	0.00
473.67	16.38
473.85	30.43
474.03	84.26
474.21	11.70
474.39	32.77
474.57	70.22
474.75	74.90
474.93	37.45
475.12	30.43
475.30	2.34
475.48	0.00
475.66	0.00
475.84	23.41
476.02	0.00
476.20	25.75
476.38	42.13
476.56	58.51
476.74	44.47
476.92	49.15
477.10	79.58
477.28	16.38
477.46	56.17
477.64	81.92
477.82	0.00
478.00	58.51
478.18	9.36
478.36	58.51
478.54	9.36
478.72	105.32
478.90	67.88
479.08	58.51
479.26	37.45
479.44	0.00
479.62	79.58
479.80	0.00
479.98	30.43
480.16	37.45
480.34	11.70
480.52	25.75
480.70	21.06
480.88	32.77
481.06	70.22
481.24	93.62
481.41	51.49
481.59	14.04
481.77	72.56
481.95	0.00
482.13	46.81
482.31	16.38
482.49	72.56
482.67	11.70
482.85	74.90
483.03	0.00
483.21	9.36
483.39	63.19
483.57	0.00
483.74	42.13
483.92	0.00
484.10	18.72
484.28	56.17
484.46	72.56
484.64	39.79
484.82	44.47
485.00	30.43
485.18	56.17
485.35	14.04
485.53	30.43
485.71	60.85
485.89	0.00
486.07	7.02
486.25	37.45
486.43	0.00
486.61	37.45
486.78	32.77
486.96	37.45
487.14	21.06
487.32	32.77
487.50	42.13
487.68	58.51
487.85	39.79
488.03	39.79
488.21	0.00
488.39	7.02
488.57	35.11
488.75	11.70
488.92	25.75
489.10	28.09
489.28	0.00
489.46	35.11
489.64	21.06
489.81	32.77
489.99	11.70
490.17	67.88
490.35	84.26
490.53	0.00
490.70	32.77
490.88	65.54
491.06	42.13
491.24	42.13
491.41	53.83
491.59	77.24
491.77	18.72
491.95	65.54
492.13	49.15
492.30	28.09
492.48	56.17
492.66	21.06
492.84	0.00
493.01	58.51
493.19	95.96
493.37	25.75
493.54	23.41
493.72	0.00
493.90	70.22
494.08	0.00
494.25	0.00
494.43	28.09
494.61	37.45
494.79	30.43
494.96	72.56
495.14	21.06
495.32	44.47
495.49	30.43
495.67	28.09
495.85	16.38
496.02	58.51
496.20	44.47
496.38	77.24
496.55	16.38
496.73	32.77
496.91	30.43
497.09	44.47
497.26	93.62
497.44	51.49
497.62	98.30
497.79	56.17
497.97	46.81
498.14	77.24
498.32	53.83
498.50	53.83
498.67	86.60
498.85	21.06
499.03	35.11
499.20	63.19
499.38	95.96
499.56	0.00
499.73	0.00
499.91	37.45
500.08	7.02
500.26	91.28
500.44	18.72
500.61	72.56
500.79	65.54
500.97	49.15
501.14	70.22
501.32	37.45
501.49	74.90
501.67	114.69
501.84	74.90
502.02	0.00
502.20	37.45
502.37	11.70
502.55	0.00
502.72	46.81
502.90	46.81
503.07	16.38
503.25	44.47
503.43	28.09
503.60	18.72
503.78	11.70
503.95	0.00
504.13	11.70
504.30	88.94
504.48	0.00
504.65	81.92
504.83	0.00
505.01	28.09
505.18	84.26
505.36	30.43
505.53	23.41
505.71	65.54
505.88	81.92
506.06	2.34
506.23	28.09
506.41	60.85
506.58	72.56
506.76	74.90
506.93	95.96
507.11	63.19
507.28	0.00
507.46	72.56
507.63	100.64
507.81	0.00
507.98	56.17
508.16	79.58
508.33	2.34
508.50	79.58
508.68	58.51
508.85	14.04
509.03	2.34
509.20	44.47
509.38	53.83
509.55	0.00
509.73	7.02
509.90	72.56
510.08	42.13
510.25	0.00
510.42	11.70
510.60	74.90
510.77	30.43
510.95	77.24
511.12	60.85
511.30	42.13
511.47	39.79
511.64	102.98
511.82	0.00
511.99	63.19
512.17	0.00
512.34	11.70
512.51	39.79
512.69	77.24
512.86	79.58
513.04	35.11
513.21	37.45
513.38	0.00
513.56	25.75
513.73	42.13
513.90	88.94
514.08	77.24
514.25	0.00
514.43	42.13
514.60	60.85
514.77	16.38
514.95	128.73
515.12	77.24
515.29	79.58
515.47	51.49
515.64	77.24
515.81	0.00
515.99	46.81
516.16	53.83
516.33	28.09
516.51	65.54
516.68	65.54
516.85	2.34
517.03	25.75
517.20	14.04
517.37	60.85
517.54	32.77
517.72	74.90
517.89	11.70
518.06	42.13
518.24	14.04
518.41	98.30
518.58	9.36
518.75	114.69
518.93	93.62
519.10	25.75
519.27	51.49
519.45	100.64
519.62	107.66
519.79	98.30
519.96	102.98
520.14	51.49
520.31	46.81
520.48	42.13
520.65	133.41
520.83	67.88
521.00	16.38
521.17	86.60
521.34	65.54
521.52	23.41
521.69	81.92
521.86	65.54
522.03	0.00
522.20	63.19
522.38	67.88
522.55	81.92
522.72	11.70
522.89	74.90
523.07	44.47
523.24	25.75
523.41	28.09
523.58	4.68
523.75	53.83
523.92	25.75
524.10	0.00
524.27	32.77
524.44	0.00
524.61	14.04
524.78	25.75
524.96	0.00
525.13	0.00
525.30	65.54
525.47	65.54
525.64	4.68
525.81	39.79
525.98	16.38
526.16	0.00
526.33	18.72
526.50	0.00
526.67	23.41
526.84	0.00
527.01	142.77
527.18	44.47
527.36	9.36
527.53	79.58
527.70	56.17
527.87	49.15
528.04	107.66
528.21	65.54
528.38	60.85
528.55	30.43
528.72	60.85
528.89	58.51
529.07	16.38
529.24	28.09
529.41	2.34
529.58	91.28
529.75	2.34
529.92	4.68
530.09	46.81
530.26	28.09
530.43	58.51
530.60	72.56
530.77	58.51
530.94	70.22
531.11	49.15
531.28	56.17
531.46	0.00
531.63	53.83
531.80	49.15
531.97	0.00
532.14	51.49
532.31	53.83
532.48	0.00
532.65	121.71
532.82	86.60
532.99	0.00
533.16	44.47
533.33	88.94
533.50	21.06
533.67	51.49
533.84	23.41
534.01	173.20
534.18	58.51
534.35	138.09
534.52	51.49
534.69	14.04
534.86	74.90
535.03	105.32
535.20	23.41
535.37	37.45
535.54	0.00
535.71	84.26
535.88	42.13
536.05	65.54
536.22	28.09
536.38	60.85
536.55	37.45
536.72	56.17
536.89	32.77
537.06	0.00
537.23	51.49
537.40	149.79
537.57	49.15
537.74	42.13
537.91	0.00
538.08	154.48
538.25	100.64
538.42	35.11
538.59	37.45
538.75	53.83
538.92	25.75
539.09	86.60
539.26	105.32
539.43	44.47
539.60	77.24
539.77	79.58
539.94	23.41
540.11	21.06
540.28	51.49
540.44	0.00
540.61	0.00
540.78	67.88
540.95	65.54
541.12	28.09
541.29	0.00
541.46	79.58
541.62	44.47
541.79	56.17
541.96	32.77
542.13	21.06
542.30	53.83
542.47	23.41
542.63	39.79
542.80	0.00
542.97	30.43
543.14	14.04
543.31	37.45
543.48	81.92
543.64	107.66
543.81	63.19
543.98	14.04
544.15	70.22
544.32	63.19
544.48	70.22
544.65	60.85
544.82	2.34
544.99	56.17
545.16	42.13
545.32	56.17
545.49	16.38
545.66	0.00
545.83	42.13
546.00	0.00
546.16	35.11
546.33	39.79
546.50	88.94
546.67	126.39
546.83	11.70
547.00	18.72
547.17	28.09
547.34	0.00
547.50	0.00
547.67	72.56
547.84	72.56
548.00	53.83
548.17	18.72
548.34	23.41
548.51	35.11
548.67	95.96
548.84	18.72
549.01	0.00
549.18	23.41
549.34	67.88
549.51	44.47
549.68	63.19
549.84	35.11
550.01	39.79
550.18	67.88
550.34	49.15
550.51	18.72
550.68	46.81
550.84	28.09
551.01	14.04
551.18	149.79
551.34	44.47
551.51	51.49
551.68	0.00
551.84	30.43
552.01	23.41
552.18	58.51
552.34	128.73
552.51	35.11
552.68	37.45
552.84	7.02
553.01	67.88
553.18	126.39
553.34	0.00
553.51	42.13
553.67	74.90
553.84	60.85
554.01	65.54
554.17	39.79
554.34	67.88
554.51	37.45
554.67	74.90
554.84	140.43
555.00	53.83
555.17	11.70
555.33	0.00
555.50	14.04
555.67	56.17
555.83	11.70
556.00	23.41
556.16	67.88
556.33	32.77
556.50	25.75
556.66	63.19
556.83	37.45
556.99	2.34
557.16	79.58
557.32	14.04
557.49	39.79
557.65	56.17
557.82	0.00
557.98	49.15
558.15	0.00
558.32	88.94
558.48	21.06
558.65	91.28
558.81	91.28
558.98	105.32
559.14	74.90
559.31	0.00
559.47	32.77
559.64	86.60
559.80	11.70
559.97	70.22
560.13	42.13
560.30	65.54
560.46	58.51
560.63	98.30
560.79	135.75
560.96	23.41
561.12	74.90
561.29	11.70
561.45	81.92
561.61	0.00
561.78	46.81
561.94	14.04
562.11	0.00
562.27	74.90
562.44	72.56
562.60	39.79
562.77	79.58
562.93	107.66
563.10	35.11
563.26	25.75
563.42	126.39
563.59	58.51
563.75	131.07
563.92	7.02
564.08	25.75
564.24	112.35
564.41	49.15
564.57	93.62
564.74	53.83
564.90	7.02
565.07	16.38
565.23	39.79
565.39	58.51
565.56	14.04
565.72	44.47
565.88	95.96
566.05	2.34
566.21	53.83
566.38	98.30
566.54	35.11
566.70	53.83
566.87	74.90
567.03	4.68
567.19	0.00
567.36	9.36
567.52	21.06
567.68	70.22
567.85	7.02
568.01	35.11
568.17	32.77
568.34	84.26
568.50	23.41
568.66	0.00
568.83	70.22
568.99	14.04
569.15	58.51
569.32	60.85
569.48	42.13
569.64	49.15
569.81	77.24
569.97	95.96
570.13	56.17
570.30	42.13
570.46	42.13
570.62	98.30
570.78	63.19
570.95	0.00
571.11	0.00
571.27	28.09
571.43	42.13
571.60	0.00
571.76	67.88
571.92	28.09
572.09	56.17
572.25	58.51
572.41	72.56
572.57	114.69
572.74	163.84
572.90	23.41
573.06	70.22
573.22	9.36
573.38	35.11
573.55	67.88
573.71	72.56
573.87	74.90
574.03	39.79
574.20	51.49
574.36	42.13
574.52	74.90
574.68	60.85
574.84	46.81
575.01	39.79
575.17	56.17
575.33	65.54
575.49	37.45
575.65	49.15
575.82	44.47
575.98	4.68
576.14	49.15
576.30	14.04
576.46	56.17
576.62	128.73
576.79	56.17
576.95	0.00
577.11	28.09
577.27	0.00
577.43	42.13
577.59	74.90
577.75	0.00
577.92	0.00
578.08	0.00
578.24	30.43
578.40	46.81
578.56	18.72
578.72	65.54
578.88	58.51
579.04	107.66
579.21	124.05
579.37	91.28
579.53	67.88
579.69	81.92
579.85	18.72
580.01	44.47
580.17	42.13
580.33	2.34
580.49	16.38
580.65	35.11
580.82	9.36
580.98	11.70
581.14	21.06
581.30	95.96
581.46	0.00
581.62	0.00
581.78	93.62
581.94	95.96
582.10	21.06
582.26	25.75
582.42	77.24
582.58	44.47
582.74	51.49
582.90	9.36
583.06	0.00
583.22	14.04
583.38	93.62
583.54	51.49
583.70	7.02
583.86	35.11
584.02	32.77
584.18	0.00
584.34	2.34
584.50	49.15
584.66	49.15
584.82	0.00
584.98	44.47
585.14	0.00
585.30	32.77
585.46	9.36
585.62	81.92
585.78	46.81
585.94	56.17
586.10	53.83
586.26	21.06
586.42	67.88
586.58	14.04
586.74	2.34
586.90	77.24
587.06	65.54
587.22	77.24
587.38	0.00
587.54	53.83
587.70	65.54
587.86	39.79
588.02	28.09
588.18	124.05
588.34	21.06
588.49	58.51
588.65	119.37
588.81	70.22
588.97	46.81
589.13	0.00
589.29	0.00
589.45	46.81
589.61	32.77
589.77	28.09
589.93	35.11
590.08	18.72
590.24	53.83
590.40	39.79
590.56	0.00
590.72	49.15
590.88	16.38
591.04	0.00
591.20	91.28
591.35	28.09
591.51	67.88
591.67	70.22
591.83	30.43
591.99	14.04
592.15	4.68
592.31	58.51
592.46	124.05
592.62	72.56
592.78	105.32
592.94	25.75
593.10	42.13
593.26	0.00
593.41	0.00
593.57	23.41
593.73	72.56
593.89	81.92
594.05	49.15
594.20	28.09
594.36	53.83
594.52	70.22
594.68	42.13
594.84	21.06
594.99	18.72
595.15	0.00
595.31	0.00
595.47	44.47
595.62	56.17
595.78	81.92
595.94	56.17
596.10	23.41
596.25	49.15
596.41	4.68
596.57	25.75
596.73	4.68
596.88	16.38
597.04	81.92
597.20	51.49
597.36	35.11
597.51	63.19
597.67	110.01
597.83	35.11
597.99	77.24
598.14	67.88
598.30	37.45
598.46	28.09
598.61	74.90
598.77	81.92
598.93	4.68
599.09	58.51
599.24	81.92
599.40	2.34
599.56	4.68
599.71	77.24
599.87	14.04
600.03	2.34
600.18	7.02
600.34	44.47
600.50	0.00
600.65	39.79
600.81	65.54
600.97	0.00
601.12	21.06
601.28	88.94
601.44	23.41
601.59	46.81
601.75	0.00
601.91	100.64
602.06	126.39
602.22	124.05
602.37	21.06
602.53	0.00
602.69	25.75
602.84	88.94
603.00	51.49
603.16	28.09
603.31	0.00
603.47	42.13
603.62	16.38
603.78	77.24
603.94	32.77
604.09	79.58
604.25	44.47
604.40	25.75
604.56	32.77
604.71	42.13
604.87	16.38
605.03	44.47
605.18	9.36
605.34	67.88
605.49	0.00
605.65	30.43
605.80	65.54
605.96	25.75
606.12	60.85
606.27	23.41
606.43	37.45
606.58	84.26
606.74	102.98
606.89	21.06
607.05	60.85
607.20	51.49
607.36	70.22
607.51	51.49
607.67	25.75
607.82	63.19
607.98	114.69
608.13	16.38
608.29	56.17
608.44	67.88
608.60	65.54
608.75	74.90
608.91	16.38
609.06	9.36
609.22	21.06
609.37	98.30
609.53	0.00
609.68	49.15
609.84	63.19
609.99	39.79
610.15	30.43
610.30	16.38
610.46	138.09
610.61	60.85
610.76	58.51
610.92	105.32
611.07	93.62
611.23	70.22
611.38	79.58
611.54	23.41
611.69	60.85
611.84	21.06
612.00	37.45
612.15	35.11
612.31	28.09
612.46	56.17
612.62	11.70
612.77	70.22
612.92	2.34
613.08	70.22
613.23	0.00
613.39	86.60
613.54	14.04
613.69	9.36
613.85	21.06
614.00	9.36
614.15	46.81
614.31	0.00
614.46	35.11
614.62	7.02
614.77	44.47
614.92	84.26
615.08	156.82
615.23	35.11
615.38	39.79
615.54	16.38
615.69	23.41
615.84	65.54
616.00	102.98
616.15	9.36
616.30	65.54
616.46	0.00
616.61	49.15
616.76	93.62
616.92	60.85
617.07	53.83
617.22	42.13
617.37	37.45
617.53	79.58
617.68	42.13
617.83	21.06
617.99	11.70
618.14	0.00
618.29	44.47
618.45	65.54
618.60	0.00
618.75	28.09
618.90	32.77
619.06	4.68
619.21	67.88
619.36	32.77
619.51	21.06
619.67	18.72
619.82	35.11
619.97	67.88
620.12	7.02
620.28	79.58
620.43	60.85
620.58	7.02
620.73	32.77
620.89	35.11
621.04	21.06
621.19	58.51
621.34	117.03
621.49	2.34
621.65	23.41
621.80	72.56
621.95	16.38
622.10	28.09
622.25	84.26
622.41	67.88
622.56	37.45
622.71	63.19
622.86	21.06
623.01	9.36
623.16	32.77
623.32	25.75
623.47	28.09
623.62	70.22
623.77	23.41
623.92	4.68
624.07	4.68
624.23	21.06
624.38	14.04
624.53	44.47
624.68	79.58
624.83	65.54
624.98	0.00
625.13	58.51
625.29	0.00
625.44	0.00
625.59	121.71
625.74	39.79
625.89	9.36
626.04	53.83
626.19	9.36
626.34	44.47
626.49	0.00
626.65	70.22
626.80	0.00
626.95	4.68
627.10	0.00
627.25	0.00
627.40	30.43
627.55	58.51
627.70	32.77
627.85	53.83
628.00	35.11
628.15	49.15
628.30	0.00
628.45	46.81
628.60	25.75
628.76	0.00
628.91	0.00
629.06	56.17
629.21	0.00
629.36	114.69
629.51	21.06
629.66	0.00
629.81	11.70
629.96	21.06
630.11	0.00
630.26	79.58
630.41	16.38
630.56	56.17
630.71	84.26
630.86	21.06
631.01	0.00
631.16	9.36
631.31	56.17
631.46	105.32
631.61	7.02
631.76	51.49
631.91	49.15
632.06	79.58
632.21	21.06
632.36	42.13
632.51	51.49
632.66	65.54
632.81	72.56
632.96	126.39
633.10	88.94
633.25	28.09
633.40	37.45
633.55	42.13
633.70	28.09
633.85	0.00
634.00	58.51
634.15	60.85
634.30	88.94
634.45	67.88
634.60	28.09
634.75	23.41
634.90	42.13
635.05	0.00
635.19	63.19
635.34	23.41
635.49	42.13
635.64	98.30
635.79	49.15
635.94	42.13
636.09	56.17
636.24	56.17
636.39	21.06
636.53	11.70
636.68	39.79
636.83	32.77
636.98	35.11
637.13	2.34
637.28	21.06
637.43	42.13
637.57	11.70
637.72	74.90
637.87	9.36
638.02	77.24
638.17	65.54
638.32	0.00
638.46	7.02
638.61	49.15
638.76	42.13
638.91	44.47
639.06	0.00
639.20	86.60
639.35	0.00
639.50	53.83
639.65	14.04
639.80	0.00
639.94	0.00
640.09	65.54
640.24	23.41
640.39	95.96
640.54	95.96
640.68	37.45
640.83	63.19
640.98	67.88
641.13	0.00
641.27	67.88
641.42	63.19
641.57	77.24
641.72	32.77
641.86	56.17
642.01	0.00
642.16	0.00
642.31	0.00
642.45	86.60
642.60	14.04
642.75	112.35
642.90	37.45
643.04	58.51
643.19	93.62
643.34	77.24
643.48	18.72
643.63	70.22
643.78	63.19
643.93	72.56
644.07	56.17
644.22	23.41
644.37	0.00
644.51	79.58
644.66	44.47
644.81	42.13
644.95	16.38
645.10	0.00
645.25	0.00
645.39	25.75
645.54	4.68
645.69	0.00
645.83	0.00
645.98	4.68
646.13	44.47
646.27	0.00
646.42	0.00
646.57	30.43
646.71	72.56
646.86	0.00
647.00	4.68
647.15	46.81
647.30	74.90
647.44	0.00
647.59	35.11
647.74	39.79
647.88	53.83
648.03	9.36
648.17	58.51
648.32	53.83
648.47	65.54
648.61	70.22
648.76	0.00
648.90	4.68
649.05	74.90
649.20	28.09
649.34	18.72
649.49	7.02
649.63	42.13
649.78	25.75
649.92	11.70
650.07	11.70
650.21	7.02
650.36	44.47
650.51	65.54
650.65	70.22
650.80	42.13
650.94	0.00
651.09	114.69
651.23	63.19
651.38	0.00
651.52	0.00
651.67	11.70
651.81	65.54
651.96	0.00
652.10	23.41
652.25	23.41
652.39	58.51
652.54	51.49
652.68	14.04
652.83	39.79
652.97	0.00
653.12	18.72
653.26	107.66
653.41	14.04
653.55	23.41
653.70	0.00
653.84	0.00
653.99	98.30
654.13	0.00
654.27	39.79
654.42	67.88
654.56	35.11
654.71	46.81
654.85	16.38
655.00	39.79
655.14	0.00
655.29	44.47
655.43	25.75
655.57	25.75
655.72	25.75
655.86	32.77
656.01	51.49
656.15	0.00
656.30	58.51
656.44	0.00
656.58	0.00
656.73	70.22
656.87	93.62
657.01	16.38
657.16	63.19
657.30	21.06
657.45	28.09
657.59	86.60
657.73	65.54
657.88	0.00
658.02	67.88
658.16	72.56
658.31	58.51
658.45	21.06
658.60	49.15
658.74	42.13
658.88	0.00
659.03	67.88
659.17	39.79
659.31	0.00
659.46	23.41
659.60	74.90
659.74	0.00
659.89	42.13
660.03	35.11
660.17	32.77
660.32	53.83
660.46	0.00
660.60	98.30
660.74	23.41
660.89	65.54
661.03	102.98
661.17	102.98
661.32	102.98
661.46	0.00
661.60	7.02
661.74	86.60
661.89	53.83
662.03	30.43
662.17	88.94
662.31	16.38
662.46	63.19
662.60	0.00
662.74	49.15
662.88	49.15
663.03	77.24
663.17	93.62
663.31	0.00
663.45	7.02
663.60	14.04
663.74	51.49
663.88	0.00
664.02	0.00
664.17	56.17
664.31	30.43
664.45	4.68
664.59	23.41
664.73	16.38
664.88	70.22
665.02	42.13
665.16	0.00
665.30	4.68
665.44	49.15
665.59	37.45
665.73	42.13
665.87	11.70
666.01	51.49
666.15	58.51
666.29	49.15
666.44	39.79
666.58	56.17
666.72	30.43
666.86	44.47
667.00	63.19
667.14	56.17
667.28	56.17
667.43	0.00
667.57	124.05
667.71	0.00
667.85	30.43
667.99	93.62
668.13	60.85
668.27	16.38
668.41	16.38
668.56	53.83
668.70	0.00
668.84	53.83
668.98	142.77
669.12	16.38
669.26	0.00
669.40	42.13
669.54	77.24
669.68	0.00
669.82	9.36
669.96	0.00
670.10	91.28
670.25	37.45
670.39	32.77
670.53	25.75
670.67	53.83
670.81	0.00
670.95	58.51
671.09	21.06
671.23	0.00
671.37	0.00
671.51	18.72
671.65	0.00
671.79	46.81
671.93	95.96
672.07	9.36
672.21	79.58
672.35	46.81
672.49	0.00
672.63	72.56
672.77	0.00
672.91	28.09
673.05	72.56
673.19	16.38
673.33	0.00
673.47	84.26
673.61	49.15
673.75	37.45
673.89	30.43
674.03	11.70
674.17	9.36
674.31	93.62
674.45	32.77
674.59	30.43
674.73	28.09
674.87	65.54
675.01	46.81
675.15	72.56
675.29	51.49
675.43	84.26
675.56	37.45
675.70	32.77
675.84	0.00
675.98	46.81
676.12	93.62
676.26	88.94
676.40	28.09
676.54	44.47
676.68	16.38
676.82	0.00
676.96	30.43
677.10	65.54
677.23	56.17
677.37	16.38
677.51	0.00
677.65	0.00
677.79	28.09
677.93	0.00
678.07	16.38
678.21	58.51
678.34	53.83
678.48	0.00
678.62	35.11
678.76	4.68
678.90	42.13
679.04	23.41
679.18	32.77
679.31	37.45
679.45	53.83
679.59	56.17
679.73	88.94
679.87	30.43
680.00	53.83
680.14	39.79
680.28	0.00
680.42	9.36
680.56	88.94
680.70	0.00
680.83	37.45
680.97	86.60
681.11	67.88
681.25	51.49
681.39	0.00
681.52	67.88
681.66	11.70
681.80	2.34
681.94	44.47
682.07	107.66
682.21	49.15
682.35	44.47
682.49	37.45
682.62	32.77
682.76	93.62
682.90	51.49
683.04	30.43
683.17	35.11
683.31	39.79
683.45	102.98
683.59	28.09
683.72	0.00
683.86	49.15
684.00	0.00
684.13	49.15
684.27	70.22
684.41	93.62
684.55	49.15
684.68	4.68
684.82	58.51
684.96	67.88
685.09	51.49
685.23	25.75
685.37	18.72
685.50	49.15
685.64	30.43
685.78	107.66
685.91	60.85
686.05	18.72
686.19	28.09
686.32	42.13
686.46	9.36
686.60	7.02
686.73	128.73
686.87	60.85
687.01	124.05
687.14	35.11
687.28	21.06
687.42	0.00
687.55	0.00
687.69	0.00
687.82	100.64
687.96	14.04
688.10	37.45
688.23	86.60
688.37	0.00
688.50	72.56
688.64	0.00
688.78	39.79
688.91	70.22
689.05	53.83
689.18	60.85
689.32	21.06
689.46	79.58
689.59	30.43
689.73	49.15
689.86	42.13
690.00	67.88
690.13	32.77
690.27	53.83
690.41	25.75
690.54	79.58
690.68	0.00
690.81	0.00
690.95	30.43
691.08	28.09
691.22	0.00
691.35	0.00
691.49	0.00
691.62	42.13
691.76	21.06
691.89	32.77
692.03	60.85
692.16	81.92
692.30	0.00
692.43	0.00
692.57	53.83
692.70	42.13
692.84	53.83
692.97	37.45
693.11	60.85
693.24	100.64
693.38	32.77
693.51	30.43
693.65	51.49
693.78	70.22
693.92	84.26
694.05	39.79
694.19	65.54
694.32	11.70
694.45	0.00
694.59	7.02
694.72	95.96
694.86	23.41
694.99	0.00
695.13	44.47
695.26	0.00
695.39	0.00
695.53	11.70
695.66	53.83
695.80	32.77
695.93	0.00
696.07	0.00
696.20	18.72
696.33	0.00
696.47	51.49
696.60	9.36
696.73	44.47
696.87	91.28
697.00	67.88
697.14	0.00
697.27	56.17
697.40	44.47
697.54	0.00
697.67	39.79
697.80	11.70
697.94	65.54
698.07	46.81
698.21	93.62
698.34	42.13
698.47	63.19
698.61	0.00
698.74	4.68
698.87	0.00
699.01	4.68
699.14	18.72
699.27	0.00
699.40	88.94
699.54	37.45
699.67	53.83
699.80	0.00
699.94	0.00
700.07	60.85
700.20	65.54
700.34	79.58
700.47	37.45
700.60	9.36
700.73	39.79
700.87	72.56
701.00	0.00
701.13	0.00
701.26	11.70
701.40	39.79
701.53	67.88
701.66	42.13
701.79	79.58
701.93	23.41
702.06	0.00
702.19	44.47
702.32	30.43
702.46	0.00
702.59	56.17
702.72	18.72
702.85	74.90
702.99	4.68
703.12	16.38
703.25	32.77
703.38	95.96
703.51	23.41
703.65	30.43
703.78	42.13
703.91	7.02
704.04	14.04
704.17	23.41
704.31	0.00
704.44	0.00
704.57	0.00
704.70	42.13
704.83	0.00
704.96	0.00
705.10	72.56
705.23	63.19
>>>>>End Processed Spectral Data<<<<<
