SpectraSuite Data File
++++++++++++++++++++++++++++++++++++
Date: Fri Oct 04 12:13:36 GMT-05:00 2013
User: price-jones
Dark Spectrum Present: No
Reference Spectrum Present: No
Number of Sampled Component Spectra: 1
Spectrometers: USB2+H05261
Integration Time (usec): 10000 (USB2+H05261)
Spectra Averaged: 1 (USB2+H05261)
Boxcar Smoothing: 0 (USB2+H05261)
Correct for Electrical Dark: No (USB2+H05261)
Strobe/Lamp Enabled: No (USB2+H05261)
Correct for Detector Non-linearity: No (USB2+H05261)
Correct for Stray Light: No (USB2+H05261)
Number of Pixels in Processed Spectrum: 2048
>>>>>Begin Processed Spectral Data<<<<<
365.73	0.00
365.92	0.00
366.12	0.00
366.32	0.00
366.52	0.00
366.72	0.00
366.91	0.00
367.11	0.00
367.31	0.00
367.51	0.00
367.70	0.00
367.90	0.00
368.10	0.00
368.30	0.00
368.49	0.00
368.69	0.00
368.89	0.00
369.09	0.00
369.28	0.00
369.48	0.00
369.68	0.00
369.87	0.00
370.07	0.00
370.27	0.00
370.47	2.34
370.66	0.00
370.86	0.00
371.06	0.00
371.25	0.00
371.45	11.70
371.65	23.41
371.84	0.00
372.04	0.00
372.24	53.83
372.44	14.04
372.63	0.00
372.83	0.00
373.03	16.38
373.22	0.00
373.42	56.17
373.62	79.58
373.81	0.00
374.01	70.22
374.21	14.04
374.40	37.45
374.60	25.75
374.79	28.09
374.99	28.09
375.19	67.88
375.38	0.00
375.58	44.47
375.78	0.00
375.97	42.13
376.17	21.06
376.37	30.43
376.56	18.72
376.76	53.83
376.95	46.81
377.15	35.11
377.35	0.00
377.54	42.13
377.74	14.04
377.93	25.75
378.13	0.00
378.33	4.68
378.52	25.75
378.72	14.04
378.91	0.00
379.11	0.00
379.31	65.54
379.50	0.00
379.70	0.00
379.89	51.49
380.09	0.00
380.28	44.47
380.48	9.36
380.68	25.75
380.87	0.00
381.07	0.00
381.26	0.00
381.46	4.68
381.65	0.00
381.85	0.00
382.04	0.00
382.24	0.00
382.43	0.00
382.63	79.58
382.83	67.88
383.02	0.00
383.22	46.81
383.41	7.02
383.61	23.41
383.80	16.38
384.00	46.81
384.19	39.79
384.39	39.79
384.58	18.72
384.78	11.70
384.97	0.00
385.17	23.41
385.36	0.00
385.56	14.04
385.75	58.51
385.95	39.79
386.14	88.94
386.34	25.75
386.53	16.38
386.72	37.45
386.92	0.00
387.11	35.11
387.31	72.56
387.50	49.15
387.70	23.41
387.89	39.79
388.09	79.58
388.28	30.43
388.48	0.00
388.67	0.00
388.86	4.68
389.06	74.90
389.25	39.79
389.45	67.88
389.64	25.75
389.84	72.56
390.03	58.51
390.22	0.00
390.42	0.00
390.61	25.75
390.81	37.45
391.00	58.51
391.19	0.00
391.39	37.45
391.58	2.34
391.78	4.68
391.97	25.75
392.16	0.00
392.36	28.09
392.55	49.15
392.75	0.00
392.94	53.83
393.13	0.00
393.33	0.00
393.52	21.06
393.71	4.68
393.91	0.00
394.10	126.39
394.29	30.43
394.49	9.36
394.68	0.00
394.88	63.19
395.07	0.00
395.26	93.62
395.46	16.38
395.65	4.68
395.84	65.54
396.04	67.88
396.23	35.11
396.42	74.90
396.62	39.79
396.81	65.54
397.00	21.06
397.19	21.06
397.39	72.56
397.58	46.81
397.77	7.02
397.97	49.15
398.16	0.00
398.35	98.30
398.55	39.79
398.74	28.09
398.93	14.04
399.12	72.56
399.32	51.49
399.51	21.06
399.70	0.00
399.90	0.00
400.09	0.00
400.28	65.54
400.47	0.00
400.67	25.75
400.86	65.54
401.05	35.11
401.24	2.34
401.44	65.54
401.63	46.81
401.82	9.36
402.01	91.28
402.21	25.75
402.40	0.00
402.59	63.19
402.78	0.00
402.97	32.77
403.17	0.00
403.36	77.24
403.55	0.00
403.74	23.41
403.93	67.88
404.13	2.34
404.32	79.58
404.51	39.79
404.70	37.45
404.89	44.47
405.09	77.24
405.28	51.49
405.47	102.98
405.66	23.41
405.85	21.06
406.05	28.09
406.24	42.13
406.43	0.00
406.62	11.70
406.81	0.00
407.00	0.00
407.20	65.54
407.39	86.60
407.58	0.00
407.77	107.66
407.96	63.19
408.15	0.00
408.34	88.94
408.54	28.09
408.73	67.88
408.92	44.47
409.11	65.54
409.30	79.58
409.49	18.72
409.68	21.06
409.87	0.00
410.07	9.36
410.26	58.51
410.45	39.79
410.64	88.94
410.83	0.00
411.02	37.45
411.21	42.13
411.40	58.51
411.59	2.34
411.78	30.43
411.98	46.81
412.17	2.34
412.36	0.00
412.55	37.45
412.74	16.38
412.93	60.85
413.12	21.06
413.31	128.73
413.50	21.06
413.69	21.06
413.88	110.01
414.07	35.11
414.26	30.43
414.45	35.11
414.64	21.06
414.83	67.88
415.02	102.98
415.22	53.83
415.41	88.94
415.60	0.00
415.79	21.06
415.98	18.72
416.17	74.90
416.36	11.70
416.55	51.49
416.74	37.45
416.93	0.00
417.12	46.81
417.31	16.38
417.50	28.09
417.69	49.15
417.88	60.85
418.07	0.00
418.26	28.09
418.45	7.02
418.64	79.58
418.83	100.64
419.02	0.00
419.21	86.60
419.39	70.22
419.58	0.00
419.77	70.22
419.96	37.45
420.15	11.70
420.34	16.38
420.53	0.00
420.72	0.00
420.91	42.13
421.10	84.26
421.29	39.79
421.48	0.00
421.67	51.49
421.86	23.41
422.05	42.13
422.24	93.62
422.43	44.47
422.61	14.04
422.80	21.06
422.99	9.36
423.18	124.05
423.37	18.72
423.56	23.41
423.75	28.09
423.94	42.13
424.13	35.11
424.32	58.51
424.50	14.04
424.69	0.00
424.88	37.45
425.07	49.15
425.26	39.79
425.45	0.00
425.64	11.70
425.83	53.83
426.01	30.43
426.20	46.81
426.39	79.58
426.58	46.81
426.77	21.06
426.96	37.45
427.15	51.49
427.33	28.09
427.52	30.43
427.71	0.00
427.90	42.13
428.09	91.28
428.28	0.00
428.46	152.13
428.65	37.45
428.84	42.13
429.03	79.58
429.22	65.54
429.40	58.51
429.59	79.58
429.78	65.54
429.97	44.47
430.16	70.22
430.34	107.66
430.53	0.00
430.72	102.98
430.91	35.11
431.10	9.36
431.28	56.17
431.47	21.06
431.66	117.03
431.85	32.77
432.03	58.51
432.22	9.36
432.41	110.01
432.60	0.00
432.79	51.49
432.97	51.49
433.16	0.00
433.35	39.79
433.54	28.09
433.72	63.19
433.91	79.58
434.10	53.83
434.28	39.79
434.47	0.00
434.66	0.00
434.85	21.06
435.03	32.77
435.22	98.30
435.41	49.15
435.59	16.38
435.78	81.92
435.97	60.85
436.16	42.13
436.34	44.47
436.53	81.92
436.72	28.09
436.90	0.00
437.09	124.05
437.28	0.00
437.46	35.11
437.65	93.62
437.84	105.32
438.02	121.71
438.21	0.00
438.40	0.00
438.58	58.51
438.77	49.15
438.96	18.72
439.14	84.26
439.33	51.49
439.52	46.81
439.70	28.09
439.89	110.01
440.08	37.45
440.26	39.79
440.45	79.58
440.63	67.88
440.82	51.49
441.01	79.58
441.19	60.85
441.38	28.09
441.57	49.15
441.75	121.71
441.94	51.49
442.12	67.88
442.31	39.79
442.50	11.70
442.68	0.00
442.87	53.83
443.05	2.34
443.24	32.77
443.43	81.92
443.61	0.00
443.80	74.90
443.98	100.64
444.17	25.75
444.35	49.15
444.54	86.60
444.73	79.58
444.91	117.03
445.10	91.28
445.28	131.07
445.47	77.24
445.65	49.15
445.84	72.56
446.02	32.77
446.21	32.77
446.39	58.51
446.58	77.24
446.77	86.60
446.95	107.66
447.14	79.58
447.32	60.85
447.51	112.35
447.69	9.36
447.88	0.00
448.06	63.19
448.25	37.45
448.43	72.56
448.62	60.85
448.80	51.49
448.99	95.96
449.17	91.28
449.36	35.11
449.54	0.00
449.73	58.51
449.91	46.81
450.10	112.35
450.28	39.79
450.46	88.94
450.65	35.11
450.83	74.90
451.02	0.00
451.20	42.13
451.39	11.70
451.57	84.26
451.76	37.45
451.94	9.36
452.13	39.79
452.31	14.04
452.49	56.17
452.68	128.73
452.86	49.15
453.05	0.00
453.23	63.19
453.42	60.85
453.60	86.60
453.78	145.11
453.97	4.68
454.15	100.64
454.34	65.54
454.52	100.64
454.70	46.81
454.89	51.49
455.07	42.13
455.26	28.09
455.44	65.54
455.62	14.04
455.81	98.30
455.99	18.72
456.17	35.11
456.36	86.60
456.54	102.98
456.73	53.83
456.91	102.98
457.09	30.43
457.28	110.01
457.46	121.71
457.64	7.02
457.83	70.22
458.01	60.85
458.19	0.00
458.38	0.00
458.56	67.88
458.74	16.38
458.93	84.26
459.11	124.05
459.29	63.19
459.48	77.24
459.66	30.43
459.84	56.17
460.03	91.28
460.21	98.30
460.39	44.47
460.57	72.56
460.76	56.17
460.94	72.56
461.12	44.47
461.31	81.92
461.49	79.58
461.67	53.83
461.85	51.49
462.04	102.98
462.22	100.64
462.40	67.88
462.59	74.90
462.77	114.69
462.95	32.77
463.13	105.32
463.32	81.92
463.50	95.96
463.68	95.96
463.86	0.00
464.05	112.35
464.23	63.19
464.41	0.00
464.59	0.00
464.78	79.58
464.96	0.00
465.14	72.56
465.32	14.04
465.50	135.75
465.69	42.13
465.87	37.45
466.05	0.00
466.23	110.01
466.41	32.77
466.60	9.36
466.78	32.77
466.96	114.69
467.14	16.38
467.32	4.68
467.51	81.92
467.69	0.00
467.87	2.34
468.05	86.60
468.23	25.75
468.41	21.06
468.60	72.56
468.78	0.00
468.96	35.11
469.14	98.30
469.32	51.49
469.50	58.51
469.69	0.00
469.87	51.49
470.05	91.28
470.23	44.47
470.41	70.22
470.59	23.41
470.77	32.77
470.95	11.70
471.14	0.00
471.32	93.62
471.50	39.79
471.68	110.01
471.86	58.51
472.04	60.85
472.22	95.96
472.40	28.09
472.58	77.24
472.77	0.00
472.95	149.79
473.13	77.24
473.31	30.43
473.49	107.66
473.67	37.45
473.85	18.72
474.03	77.24
474.21	9.36
474.39	28.09
474.57	63.19
474.75	28.09
474.93	70.22
475.12	56.17
475.30	28.09
475.48	25.75
475.66	0.00
475.84	51.49
476.02	72.56
476.20	60.85
476.38	37.45
476.56	77.24
476.74	11.70
476.92	67.88
477.10	58.51
477.28	0.00
477.46	21.06
477.64	32.77
477.82	124.05
478.00	58.51
478.18	72.56
478.36	53.83
478.54	32.77
478.72	11.70
478.90	16.38
479.08	60.85
479.26	81.92
479.44	63.19
479.62	128.73
479.80	53.83
479.98	74.90
480.16	23.41
480.34	51.49
480.52	9.36
480.70	63.19
480.88	0.00
481.06	23.41
481.24	11.70
481.41	42.13
481.59	84.26
481.77	0.00
481.95	91.28
482.13	142.77
482.31	4.68
482.49	56.17
482.67	0.00
482.85	88.94
483.03	28.09
483.21	51.49
483.39	74.90
483.57	98.30
483.74	114.69
483.92	18.72
484.10	79.58
484.28	49.15
484.46	37.45
484.64	2.34
484.82	133.41
485.00	46.81
485.18	60.85
485.35	65.54
485.53	65.54
485.71	51.49
485.89	70.22
486.07	9.36
486.25	0.00
486.43	35.11
486.61	72.56
486.78	9.36
486.96	93.62
487.14	86.60
487.32	105.32
487.50	63.19
487.68	81.92
487.85	14.04
488.03	21.06
488.21	35.11
488.39	0.00
488.57	46.81
488.75	49.15
488.92	74.90
489.10	107.66
489.28	138.09
489.46	70.22
489.64	142.77
489.81	65.54
489.99	98.30
490.17	72.56
490.35	81.92
490.53	91.28
490.70	133.41
490.88	138.09
491.06	65.54
491.24	114.69
491.41	51.49
491.59	63.19
491.77	0.00
491.95	100.64
492.13	95.96
492.30	86.60
492.48	93.62
492.66	58.51
492.84	46.81
493.01	140.43
493.19	88.94
493.37	37.45
493.54	95.96
493.72	142.77
493.90	98.30
494.08	58.51
494.25	110.01
494.43	30.43
494.61	81.92
494.79	65.54
494.96	74.90
495.14	60.85
495.32	58.51
495.49	32.77
495.67	46.81
495.85	0.00
496.02	95.96
496.20	25.75
496.38	46.81
496.55	70.22
496.73	28.09
496.91	72.56
497.09	42.13
497.26	100.64
497.44	79.58
497.62	81.92
497.79	46.81
497.97	138.09
498.14	86.60
498.32	91.28
498.50	0.00
498.67	60.85
498.85	53.83
499.03	100.64
499.20	77.24
499.38	79.58
499.56	100.64
499.73	42.13
499.91	53.83
500.08	56.17
500.26	86.60
500.44	86.60
500.61	14.04
500.79	42.13
500.97	60.85
501.14	65.54
501.32	124.05
501.49	114.69
501.67	110.01
501.84	91.28
502.02	84.26
502.20	84.26
502.37	74.90
502.55	107.66
502.72	49.15
502.90	102.98
503.07	107.66
503.25	110.01
503.43	67.88
503.60	79.58
503.78	128.73
503.95	142.77
504.13	16.38
504.30	16.38
504.48	23.41
504.65	35.11
504.83	110.01
505.01	53.83
505.18	53.83
505.36	58.51
505.53	58.51
505.71	56.17
505.88	159.16
506.06	107.66
506.23	81.92
506.41	128.73
506.58	107.66
506.76	88.94
506.93	74.90
507.11	149.79
507.28	49.15
507.46	65.54
507.63	53.83
507.81	58.51
507.98	128.73
508.16	28.09
508.33	77.24
508.50	58.51
508.68	49.15
508.85	88.94
509.03	81.92
509.20	67.88
509.38	49.15
509.55	53.83
509.73	107.66
509.90	131.07
510.08	30.43
510.25	91.28
510.42	86.60
510.60	102.98
510.77	30.43
510.95	86.60
511.12	44.47
511.30	128.73
511.47	147.45
511.64	121.71
511.82	117.03
511.99	112.35
512.17	95.96
512.34	56.17
512.51	81.92
512.69	0.00
512.86	72.56
513.04	152.13
513.21	74.90
513.38	39.79
513.56	63.19
513.73	98.30
513.90	142.77
514.08	91.28
514.25	0.00
514.43	105.32
514.60	42.13
514.77	60.85
514.95	32.77
515.12	98.30
515.29	65.54
515.47	23.41
515.64	93.62
515.81	72.56
515.99	102.98
516.16	53.83
516.33	81.92
516.51	98.30
516.68	81.92
516.85	110.01
517.03	0.00
517.20	46.81
517.37	67.88
517.54	65.54
517.72	105.32
517.89	65.54
518.06	170.86
518.24	32.77
518.41	77.24
518.58	56.17
518.75	0.00
518.93	81.92
519.10	79.58
519.27	126.39
519.45	110.01
519.62	147.45
519.79	131.07
519.96	77.24
520.14	86.60
520.31	128.73
520.48	86.60
520.65	46.81
520.83	74.90
521.00	119.37
521.17	110.01
521.34	114.69
521.52	67.88
521.69	58.51
521.86	117.03
522.03	110.01
522.20	74.90
522.38	49.15
522.55	131.07
522.72	18.72
522.89	100.64
523.07	58.51
523.24	81.92
523.41	46.81
523.58	98.30
523.75	79.58
523.92	70.22
524.10	65.54
524.27	58.51
524.44	121.71
524.61	100.64
524.78	72.56
524.96	0.00
525.13	102.98
525.30	105.32
525.47	93.62
525.64	81.92
525.81	95.96
525.98	79.58
526.16	67.88
526.33	159.16
526.50	0.00
526.67	46.81
526.84	93.62
527.01	112.35
527.18	126.39
527.36	63.19
527.53	98.30
527.70	72.56
527.87	105.32
528.04	102.98
528.21	88.94
528.38	70.22
528.55	70.22
528.72	138.09
528.89	60.85
529.07	72.56
529.24	53.83
529.41	173.20
529.58	95.96
529.75	65.54
529.92	72.56
530.09	88.94
530.26	21.06
530.43	110.01
530.60	114.69
530.77	46.81
530.94	37.45
531.11	86.60
531.28	42.13
531.46	30.43
531.63	72.56
531.80	112.35
531.97	124.05
532.14	70.22
532.31	79.58
532.48	86.60
532.65	72.56
532.82	114.69
532.99	35.11
533.16	114.69
533.33	42.13
533.50	18.72
533.67	84.26
533.84	53.83
534.01	86.60
534.18	91.28
534.35	98.30
534.52	74.90
534.69	86.60
534.86	93.62
535.03	46.81
535.20	117.03
535.37	79.58
535.54	91.28
535.71	117.03
535.88	163.84
536.05	60.85
536.22	102.98
536.38	131.07
536.55	39.79
536.72	51.49
536.89	81.92
537.06	72.56
537.23	114.69
537.40	53.83
537.57	72.56
537.74	28.09
537.91	114.69
538.08	42.13
538.25	44.47
538.42	72.56
538.59	81.92
538.75	119.37
538.92	74.90
539.09	32.77
539.26	65.54
539.43	39.79
539.60	100.64
539.77	63.19
539.94	49.15
540.11	23.41
540.28	114.69
540.44	98.30
540.61	88.94
540.78	35.11
540.95	102.98
541.12	95.96
541.29	98.30
541.46	95.96
541.62	72.56
541.79	39.79
541.96	74.90
542.13	0.00
542.30	42.13
542.47	74.90
542.63	35.11
542.80	95.96
542.97	114.69
543.14	51.49
543.31	65.54
543.48	93.62
543.64	72.56
543.81	58.51
543.98	53.83
544.15	102.98
544.32	35.11
544.48	56.17
544.65	128.73
544.82	102.98
544.99	95.96
545.16	86.60
545.32	133.41
545.49	131.07
545.66	72.56
545.83	128.73
546.00	28.09
546.16	105.32
546.33	79.58
546.50	100.64
546.67	91.28
546.83	84.26
547.00	63.19
547.17	84.26
547.34	98.30
547.50	67.88
547.67	65.54
547.84	91.28
548.00	39.79
548.17	51.49
548.34	74.90
548.51	110.01
548.67	56.17
548.84	49.15
549.01	67.88
549.18	16.38
549.34	133.41
549.51	49.15
549.68	53.83
549.84	56.17
550.01	60.85
550.18	102.98
550.34	37.45
550.51	58.51
550.68	105.32
550.84	49.15
551.01	42.13
551.18	95.96
551.34	117.03
551.51	70.22
551.68	138.09
551.84	65.54
552.01	65.54
552.18	81.92
552.34	110.01
552.51	98.30
552.68	51.49
552.84	114.69
553.01	105.32
553.18	11.70
553.34	112.35
553.51	56.17
553.67	79.58
553.84	74.90
554.01	93.62
554.17	84.26
554.34	114.69
554.51	79.58
554.67	161.50
554.84	91.28
555.00	112.35
555.17	72.56
555.33	35.11
555.50	110.01
555.67	114.69
555.83	154.48
556.00	49.15
556.16	53.83
556.33	117.03
556.50	102.98
556.66	124.05
556.83	72.56
556.99	98.30
557.16	49.15
557.32	72.56
557.49	72.56
557.65	74.90
557.82	86.60
557.98	84.26
558.15	32.77
558.32	121.71
558.48	112.35
558.65	79.58
558.81	51.49
558.98	46.81
559.14	67.88
559.31	79.58
559.47	35.11
559.64	60.85
559.80	79.58
559.97	110.01
560.13	98.30
560.30	67.88
560.46	86.60
560.63	105.32
560.79	114.69
560.96	53.83
561.12	133.41
561.29	88.94
561.45	107.66
561.61	98.30
561.78	37.45
561.94	98.30
562.11	49.15
562.27	53.83
562.44	60.85
562.60	28.09
562.77	30.43
562.93	184.90
563.10	161.50
563.26	105.32
563.42	105.32
563.59	42.13
563.75	58.51
563.92	93.62
564.08	58.51
564.24	53.83
564.41	74.90
564.57	124.05
564.74	98.30
564.90	138.09
565.07	44.47
565.23	100.64
565.39	58.51
565.56	145.11
565.72	67.88
565.88	110.01
566.05	77.24
566.21	88.94
566.38	72.56
566.54	53.83
566.70	7.02
566.87	93.62
567.03	65.54
567.19	84.26
567.36	25.75
567.52	124.05
567.68	79.58
567.85	35.11
568.01	49.15
568.17	98.30
568.34	91.28
568.50	39.79
568.66	37.45
568.83	126.39
568.99	110.01
569.15	86.60
569.32	37.45
569.48	102.98
569.64	79.58
569.81	124.05
569.97	74.90
570.13	28.09
570.30	23.41
570.46	91.28
570.62	51.49
570.78	81.92
570.95	46.81
571.11	107.66
571.27	7.02
571.43	23.41
571.60	58.51
571.76	56.17
571.92	159.16
572.09	72.56
572.25	65.54
572.41	4.68
572.57	102.98
572.74	86.60
572.90	44.47
573.06	56.17
573.22	74.90
573.38	98.30
573.55	86.60
573.71	79.58
573.87	110.01
574.03	42.13
574.20	7.02
574.36	117.03
574.52	114.69
574.68	58.51
574.84	46.81
575.01	112.35
575.17	163.84
575.33	70.22
575.49	42.13
575.65	37.45
575.82	114.69
575.98	49.15
576.14	124.05
576.30	79.58
576.46	88.94
576.62	67.88
576.79	35.11
576.95	86.60
577.11	46.81
577.27	58.51
577.43	60.85
577.59	102.98
577.75	60.85
577.92	58.51
578.08	72.56
578.24	65.54
578.40	117.03
578.56	84.26
578.72	121.71
578.88	110.01
579.04	114.69
579.21	84.26
579.37	58.51
579.53	23.41
579.69	88.94
579.85	72.56
580.01	133.41
580.17	11.70
580.33	44.47
580.49	58.51
580.65	32.77
580.82	121.71
580.98	100.64
581.14	56.17
581.30	72.56
581.46	114.69
581.62	112.35
581.78	60.85
581.94	93.62
582.10	81.92
582.26	88.94
582.42	117.03
582.58	56.17
582.74	88.94
582.90	105.32
583.06	88.94
583.22	86.60
583.38	56.17
583.54	60.85
583.70	21.06
583.86	105.32
584.02	135.75
584.18	67.88
584.34	70.22
584.50	100.64
584.66	107.66
584.82	60.85
584.98	46.81
585.14	74.90
585.30	14.04
585.46	79.58
585.62	0.00
585.78	0.00
585.94	95.96
586.10	79.58
586.26	51.49
586.42	49.15
586.58	84.26
586.74	58.51
586.90	63.19
587.06	128.73
587.22	51.49
587.38	114.69
587.54	28.09
587.70	44.47
587.86	95.96
588.02	56.17
588.18	156.82
588.34	60.85
588.49	0.00
588.65	11.70
588.81	42.13
588.97	42.13
589.13	25.75
589.29	49.15
589.45	105.32
589.61	63.19
589.77	56.17
589.93	100.64
590.08	0.00
590.24	138.09
590.40	0.00
590.56	86.60
590.72	0.00
590.88	77.24
591.04	56.17
591.20	65.54
591.35	88.94
591.51	91.28
591.67	51.49
591.83	114.69
591.99	63.19
592.15	37.45
592.31	72.56
592.46	70.22
592.62	56.17
592.78	88.94
592.94	67.88
593.10	84.26
593.26	44.47
593.41	28.09
593.57	0.00
593.73	81.92
593.89	46.81
594.05	74.90
594.20	72.56
594.36	28.09
594.52	79.58
594.68	0.00
594.84	79.58
594.99	91.28
595.15	32.77
595.31	51.49
595.47	35.11
595.62	30.43
595.78	110.01
595.94	11.70
596.10	60.85
596.25	28.09
596.41	44.47
596.57	98.30
596.73	46.81
596.88	58.51
597.04	110.01
597.20	56.17
597.36	67.88
597.51	18.72
597.67	100.64
597.83	0.00
597.99	119.37
598.14	147.45
598.30	46.81
598.46	35.11
598.61	142.77
598.77	23.41
598.93	21.06
599.09	53.83
599.24	100.64
599.40	63.19
599.56	93.62
599.71	72.56
599.87	0.00
600.03	32.77
600.18	0.00
600.34	77.24
600.50	161.50
600.65	110.01
600.81	67.88
600.97	65.54
601.12	28.09
601.28	60.85
601.44	81.92
601.59	51.49
601.75	42.13
601.91	81.92
602.06	81.92
602.22	100.64
602.37	63.19
602.53	58.51
602.69	58.51
602.84	21.06
603.00	170.86
603.16	91.28
603.31	30.43
603.47	0.00
603.62	44.47
603.78	100.64
603.94	93.62
604.09	77.24
604.25	119.37
604.40	25.75
604.56	0.00
604.71	0.00
604.87	67.88
605.03	91.28
605.18	53.83
605.34	63.19
605.49	0.00
605.65	65.54
605.80	49.15
605.96	98.30
606.12	77.24
606.27	0.00
606.43	53.83
606.58	112.35
606.74	63.19
606.89	67.88
607.05	105.32
607.20	84.26
607.36	72.56
607.51	18.72
607.67	84.26
607.82	91.28
607.98	91.28
608.13	142.77
608.29	107.66
608.44	86.60
608.60	81.92
608.75	37.45
608.91	114.69
609.06	18.72
609.22	49.15
609.37	39.79
609.53	72.56
609.68	112.35
609.84	42.13
609.99	28.09
610.15	81.92
610.30	102.98
610.46	98.30
610.61	100.64
610.76	119.37
610.92	98.30
611.07	0.00
611.23	56.17
611.38	0.00
611.54	128.73
611.69	91.28
611.84	65.54
612.00	121.71
612.15	21.06
612.31	28.09
612.46	117.03
612.62	131.07
612.77	77.24
612.92	56.17
613.08	114.69
613.23	67.88
613.39	46.81
613.54	7.02
613.69	100.64
613.85	7.02
614.00	49.15
614.15	23.41
614.31	53.83
614.46	49.15
614.62	93.62
614.77	102.98
614.92	42.13
615.08	0.00
615.23	25.75
615.38	77.24
615.54	63.19
615.69	128.73
615.84	79.58
616.00	49.15
616.15	105.32
616.30	81.92
616.46	28.09
616.61	32.77
616.76	107.66
616.92	93.62
617.07	88.94
617.22	110.01
617.37	63.19
617.53	72.56
617.68	67.88
617.83	49.15
617.99	88.94
618.14	25.75
618.29	21.06
618.45	21.06
618.60	86.60
618.75	86.60
618.90	35.11
619.06	70.22
619.21	49.15
619.36	105.32
619.51	67.88
619.67	0.00
619.82	0.00
619.97	51.49
620.12	46.81
620.28	93.62
620.43	74.90
620.58	46.81
620.73	84.26
620.89	79.58
621.04	98.30
621.19	93.62
621.34	21.06
621.49	67.88
621.65	74.90
621.80	107.66
621.95	53.83
622.10	161.50
622.25	88.94
622.41	42.13
622.56	35.11
622.71	81.92
622.86	112.35
623.01	56.17
623.16	0.00
623.32	42.13
623.47	86.60
623.62	100.64
623.77	81.92
623.92	121.71
624.07	30.43
624.23	14.04
624.38	114.69
624.53	46.81
624.68	28.09
624.83	63.19
624.98	39.79
625.13	93.62
625.29	72.56
625.44	18.72
625.59	58.51
625.74	77.24
625.89	74.90
626.04	81.92
626.19	56.17
626.34	28.09
626.49	112.35
626.65	63.19
626.80	37.45
626.95	0.00
627.10	21.06
627.25	39.79
627.40	98.30
627.55	49.15
627.70	81.92
627.85	128.73
628.00	49.15
628.15	79.58
628.30	121.71
628.45	42.13
628.60	65.54
628.76	18.72
628.91	51.49
629.06	0.00
629.21	49.15
629.36	56.17
629.51	0.00
629.66	128.73
629.81	44.47
629.96	49.15
630.11	32.77
630.26	56.17
630.41	53.83
630.56	49.15
630.71	58.51
630.86	86.60
631.01	11.70
631.16	53.83
631.31	0.00
631.46	0.00
631.61	39.79
631.76	0.00
631.91	0.00
632.06	28.09
632.21	60.85
632.36	49.15
632.51	30.43
632.66	81.92
632.81	44.47
632.96	114.69
633.10	140.43
633.25	114.69
633.40	95.96
633.55	72.56
633.70	21.06
633.85	49.15
634.00	44.47
634.15	58.51
634.30	37.45
634.45	84.26
634.60	79.58
634.75	74.90
634.90	35.11
635.05	53.83
635.19	79.58
635.34	39.79
635.49	49.15
635.64	74.90
635.79	23.41
635.94	0.00
636.09	35.11
636.24	117.03
636.39	95.96
636.53	65.54
636.68	16.38
636.83	53.83
636.98	105.32
637.13	102.98
637.28	18.72
637.43	93.62
637.57	18.72
637.72	72.56
637.87	39.79
638.02	44.47
638.17	49.15
638.32	112.35
638.46	0.00
638.61	21.06
638.76	126.39
638.91	42.13
639.06	95.96
639.20	30.43
639.35	39.79
639.50	91.28
639.65	7.02
639.80	107.66
639.94	67.88
640.09	18.72
640.24	84.26
640.39	0.00
640.54	63.19
640.68	53.83
640.83	95.96
640.98	112.35
641.13	14.04
641.27	35.11
641.42	21.06
641.57	77.24
641.72	0.00
641.86	65.54
642.01	0.00
642.16	28.09
642.31	88.94
642.45	121.71
642.60	21.06
642.75	14.04
642.90	23.41
643.04	21.06
643.19	98.30
643.34	110.01
643.48	81.92
643.63	4.68
643.78	49.15
643.93	77.24
644.07	95.96
644.22	21.06
644.37	86.60
644.51	4.68
644.66	63.19
644.81	65.54
644.95	37.45
645.10	84.26
645.25	44.47
645.39	18.72
645.54	81.92
645.69	51.49
645.83	84.26
645.98	67.88
646.13	0.00
646.27	58.51
646.42	0.00
646.57	102.98
646.71	145.11
646.86	39.79
647.00	88.94
647.15	35.11
647.30	37.45
647.44	91.28
647.59	74.90
647.74	70.22
647.88	0.00
648.03	91.28
648.17	65.54
648.32	88.94
648.47	42.13
648.61	39.79
648.76	53.83
648.90	44.47
649.05	70.22
649.20	63.19
649.34	39.79
649.49	93.62
649.63	35.11
649.78	53.83
649.92	77.24
650.07	98.30
650.21	135.75
650.36	25.75
650.51	32.77
650.65	98.30
650.80	60.85
650.94	79.58
651.09	79.58
651.23	131.07
651.38	30.43
651.52	0.00
651.67	56.17
651.81	72.56
651.96	91.28
652.10	46.81
652.25	37.45
652.39	86.60
652.54	49.15
652.68	114.69
652.83	65.54
652.97	91.28
653.12	147.45
653.26	63.19
653.41	63.19
653.55	11.70
653.70	0.00
653.84	32.77
653.99	72.56
654.13	110.01
654.27	4.68
654.42	100.64
654.56	110.01
654.71	74.90
654.85	70.22
655.00	35.11
655.14	32.77
655.29	84.26
655.43	58.51
655.57	39.79
655.72	49.15
655.86	28.09
656.01	110.01
656.15	4.68
656.30	42.13
656.44	39.79
656.58	37.45
656.73	67.88
656.87	58.51
657.01	28.09
657.16	30.43
657.30	14.04
657.45	32.77
657.59	0.00
657.73	49.15
657.88	44.47
658.02	28.09
658.16	21.06
658.31	60.85
658.45	91.28
658.60	56.17
658.74	37.45
658.88	81.92
659.03	63.19
659.17	67.88
659.31	63.19
659.46	56.17
659.60	25.75
659.74	25.75
659.89	28.09
660.03	0.00
660.17	2.34
660.32	72.56
660.46	14.04
660.60	37.45
660.74	16.38
660.89	53.83
661.03	51.49
661.17	154.48
661.32	0.00
661.46	51.49
661.60	46.81
661.74	0.00
661.89	56.17
662.03	25.75
662.17	60.85
662.31	39.79
662.46	79.58
662.60	4.68
662.74	0.00
662.88	0.00
663.03	16.38
663.17	86.60
663.31	58.51
663.45	28.09
663.60	44.47
663.74	56.17
663.88	67.88
664.02	77.24
664.17	18.72
664.31	37.45
664.45	91.28
664.59	77.24
664.73	37.45
664.88	105.32
665.02	100.64
665.16	98.30
665.30	74.90
665.44	16.38
665.59	37.45
665.73	18.72
665.87	56.17
666.01	67.88
666.15	16.38
666.29	0.00
666.44	65.54
666.58	79.58
666.72	67.88
666.86	0.00
667.00	46.81
667.14	51.49
667.28	0.00
667.43	67.88
667.57	11.70
667.71	0.00
667.85	102.98
667.99	93.62
668.13	91.28
668.27	63.19
668.41	9.36
668.56	30.43
668.70	9.36
668.84	0.00
668.98	0.00
669.12	42.13
669.26	21.06
669.40	11.70
669.54	39.79
669.68	53.83
669.82	35.11
669.96	4.68
670.10	39.79
670.25	70.22
670.39	60.85
670.53	32.77
670.67	65.54
670.81	53.83
670.95	88.94
671.09	44.47
671.23	35.11
671.37	51.49
671.51	0.00
671.65	0.00
671.79	25.75
671.93	39.79
672.07	81.92
672.21	46.81
672.35	91.28
672.49	49.15
672.63	42.13
672.77	9.36
672.91	23.41
673.05	77.24
673.19	149.79
673.33	65.54
673.47	28.09
673.61	46.81
673.75	37.45
673.89	72.56
674.03	70.22
674.17	0.00
674.31	0.00
674.45	23.41
674.59	65.54
674.73	88.94
674.87	117.03
675.01	32.77
675.15	95.96
675.29	35.11
675.43	2.34
675.56	67.88
675.70	74.90
675.84	56.17
675.98	30.43
676.12	32.77
676.26	84.26
676.40	42.13
676.54	65.54
676.68	60.85
676.82	23.41
676.96	56.17
677.10	4.68
677.23	0.00
677.37	23.41
677.51	67.88
677.65	0.00
677.79	42.13
677.93	72.56
678.07	79.58
678.21	23.41
678.34	37.45
678.48	37.45
678.62	112.35
678.76	18.72
678.90	60.85
679.04	138.09
679.18	0.00
679.31	9.36
679.45	18.72
679.59	14.04
679.73	46.81
679.87	63.19
680.00	23.41
680.14	72.56
680.28	37.45
680.42	0.00
680.56	65.54
680.70	74.90
680.83	39.79
680.97	88.94
681.11	21.06
681.25	56.17
681.39	0.00
681.52	16.38
681.66	0.00
681.80	9.36
681.94	79.58
682.07	28.09
682.21	30.43
682.35	0.00
682.49	35.11
682.62	16.38
682.76	56.17
682.90	39.79
683.04	0.00
683.17	44.47
683.31	63.19
683.45	39.79
683.59	49.15
683.72	63.19
683.86	11.70
684.00	30.43
684.13	0.00
684.27	56.17
684.41	79.58
684.55	58.51
684.68	70.22
684.82	30.43
684.96	0.00
685.09	133.41
685.23	25.75
685.37	98.30
685.50	65.54
685.64	53.83
685.78	63.19
685.91	32.77
686.05	42.13
686.19	42.13
686.32	67.88
686.46	32.77
686.60	39.79
686.73	0.00
686.87	86.60
687.01	9.36
687.14	39.79
687.28	44.47
687.42	42.13
687.55	0.00
687.69	23.41
687.82	46.81
687.96	2.34
688.10	81.92
688.23	18.72
688.37	0.00
688.50	21.06
688.64	0.00
688.78	53.83
688.91	65.54
689.05	95.96
689.18	72.56
689.32	11.70
689.46	18.72
689.59	65.54
689.73	23.41
689.86	88.94
690.00	100.64
690.13	49.15
690.27	102.98
690.41	0.00
690.54	23.41
690.68	49.15
690.81	37.45
690.95	2.34
691.08	44.47
691.22	0.00
691.35	72.56
691.49	28.09
691.62	39.79
691.76	65.54
691.89	32.77
692.03	23.41
692.16	37.45
692.30	0.00
692.43	0.00
692.57	11.70
692.70	0.00
692.84	18.72
692.97	21.06
693.11	4.68
693.24	25.75
693.38	46.81
693.51	35.11
693.65	39.79
693.78	0.00
693.92	0.00
694.05	42.13
694.19	0.00
694.32	72.56
694.45	72.56
694.59	9.36
694.72	88.94
694.86	0.00
694.99	4.68
695.13	0.00
695.26	7.02
695.39	65.54
695.53	21.06
695.66	49.15
695.80	0.00
695.93	0.00
696.07	105.32
696.20	46.81
696.33	0.00
696.47	23.41
696.60	60.85
696.73	30.43
696.87	70.22
697.00	0.00
697.14	0.00
697.27	124.05
697.40	0.00
697.54	14.04
697.67	88.94
697.80	79.58
697.94	63.19
698.07	98.30
698.21	53.83
698.34	2.34
698.47	7.02
698.61	39.79
698.74	9.36
698.87	0.00
699.01	23.41
699.14	39.79
699.27	25.75
699.40	28.09
699.54	21.06
699.67	77.24
699.80	0.00
699.94	0.00
700.07	0.00
700.20	7.02
700.34	9.36
700.47	0.00
700.60	0.00
700.73	88.94
700.87	49.15
701.00	46.81
701.13	0.00
701.26	2.34
701.40	60.85
701.53	30.43
701.66	0.00
701.79	0.00
701.93	135.75
702.06	63.19
702.19	32.77
702.32	35.11
702.46	58.51
702.59	28.09
702.72	0.00
702.85	0.00
702.99	42.13
703.12	72.56
703.25	30.43
703.38	30.43
703.51	53.83
703.65	37.45
703.78	23.41
703.91	0.00
704.04	65.54
704.17	110.01
704.31	0.00
704.44	56.17
704.57	7.02
704.70	0.00
704.83	0.00
704.96	56.17
705.10	18.72
705.23	86.60
>>>>>End Processed Spectral Data<<<<<
