SpectraSuite Data File
++++++++++++++++++++++++++++++++++++
Date: Fri Oct 04 12:13:40 GMT-05:00 2013
User: price-jones
Dark Spectrum Present: No
Reference Spectrum Present: No
Number of Sampled Component Spectra: 1
Spectrometers: USB2+H05261
Integration Time (usec): 10000 (USB2+H05261)
Spectra Averaged: 1 (USB2+H05261)
Boxcar Smoothing: 0 (USB2+H05261)
Correct for Electrical Dark: No (USB2+H05261)
Strobe/Lamp Enabled: No (USB2+H05261)
Correct for Detector Non-linearity: No (USB2+H05261)
Correct for Stray Light: No (USB2+H05261)
Number of Pixels in Processed Spectrum: 2048
>>>>>Begin Processed Spectral Data<<<<<
365.73	0.00
365.92	0.00
366.12	0.00
366.32	0.00
366.52	0.00
366.72	0.00
366.91	0.00
367.11	0.00
367.31	0.00
367.51	0.00
367.70	0.00
367.90	0.00
368.10	0.00
368.30	0.00
368.49	0.00
368.69	0.00
368.89	0.00
369.09	0.00
369.28	0.00
369.48	0.00
369.68	0.00
369.87	0.00
370.07	0.00
370.27	0.00
370.47	0.00
370.66	0.00
370.86	0.00
371.06	0.00
371.25	21.06
371.45	0.00
371.65	0.00
371.84	0.00
372.04	0.00
372.24	23.41
372.44	0.00
372.63	0.00
372.83	30.43
373.03	0.00
373.22	4.68
373.42	42.13
373.62	21.06
373.81	0.00
374.01	42.13
374.21	86.60
374.40	51.49
374.60	42.13
374.79	23.41
374.99	25.75
375.19	28.09
375.38	51.49
375.58	4.68
375.78	0.00
375.97	79.58
376.17	9.36
376.37	0.00
376.56	53.83
376.76	0.00
376.95	74.90
377.15	28.09
377.35	30.43
377.54	0.00
377.74	58.51
377.93	81.92
378.13	60.85
378.33	67.88
378.52	51.49
378.72	23.41
378.91	107.66
379.11	51.49
379.31	44.47
379.50	37.45
379.70	18.72
379.89	30.43
380.09	56.17
380.28	77.24
380.48	0.00
380.68	30.43
380.87	18.72
381.07	53.83
381.26	0.00
381.46	2.34
381.65	2.34
381.85	28.09
382.04	70.22
382.24	21.06
382.43	42.13
382.63	0.00
382.83	0.00
383.02	74.90
383.22	9.36
383.41	18.72
383.61	0.00
383.80	100.64
384.00	14.04
384.19	0.00
384.39	11.70
384.58	49.15
384.78	0.00
384.97	65.54
385.17	0.00
385.36	0.00
385.56	42.13
385.75	0.00
385.95	0.00
386.14	86.60
386.34	114.69
386.53	18.72
386.72	0.00
386.92	65.54
387.11	44.47
387.31	7.02
387.50	25.75
387.70	0.00
387.89	28.09
388.09	46.81
388.28	30.43
388.48	42.13
388.67	25.75
388.86	0.00
389.06	23.41
389.25	79.58
389.45	14.04
389.64	0.00
389.84	4.68
390.03	60.85
390.22	0.00
390.42	86.60
390.61	18.72
390.81	65.54
391.00	58.51
391.19	46.81
391.39	39.79
391.58	4.68
391.78	46.81
391.97	0.00
392.16	65.54
392.36	23.41
392.55	44.47
392.75	46.81
392.94	2.34
393.13	14.04
393.33	11.70
393.52	51.49
393.71	37.45
393.91	51.49
394.10	42.13
394.29	39.79
394.49	56.17
394.68	35.11
394.88	0.00
395.07	11.70
395.26	0.00
395.46	88.94
395.65	44.47
395.84	0.00
396.04	37.45
396.23	0.00
396.42	11.70
396.62	35.11
396.81	4.68
397.00	9.36
397.19	11.70
397.39	79.58
397.58	0.00
397.77	28.09
397.97	51.49
398.16	0.00
398.35	0.00
398.55	0.00
398.74	21.06
398.93	70.22
399.12	49.15
399.32	95.96
399.51	67.88
399.70	39.79
399.90	0.00
400.09	0.00
400.28	37.45
400.47	23.41
400.67	21.06
400.86	0.00
401.05	35.11
401.24	0.00
401.44	11.70
401.63	42.13
401.82	32.77
402.01	0.00
402.21	32.77
402.40	60.85
402.59	0.00
402.78	39.79
402.97	25.75
403.17	0.00
403.36	65.54
403.55	0.00
403.74	42.13
403.93	0.00
404.13	0.00
404.32	60.85
404.51	77.24
404.70	42.13
404.89	28.09
405.09	51.49
405.28	49.15
405.47	95.96
405.66	9.36
405.85	14.04
406.05	37.45
406.24	14.04
406.43	18.72
406.62	74.90
406.81	0.00
407.00	37.45
407.20	39.79
407.39	21.06
407.58	18.72
407.77	18.72
407.96	65.54
408.15	63.19
408.34	11.70
408.54	9.36
408.73	102.98
408.92	18.72
409.11	37.45
409.30	53.83
409.49	25.75
409.68	86.60
409.87	53.83
410.07	0.00
410.26	30.43
410.45	0.00
410.64	37.45
410.83	74.90
411.02	93.62
411.21	42.13
411.40	0.00
411.59	53.83
411.78	63.19
411.98	105.32
412.17	0.00
412.36	0.00
412.55	72.56
412.74	44.47
412.93	0.00
413.12	0.00
413.31	16.38
413.50	100.64
413.69	35.11
413.88	117.03
414.07	70.22
414.26	67.88
414.45	0.00
414.64	9.36
414.83	65.54
415.02	72.56
415.22	28.09
415.41	28.09
415.60	77.24
415.79	70.22
415.98	88.94
416.17	16.38
416.36	0.00
416.55	0.00
416.74	60.85
416.93	67.88
417.12	93.62
417.31	65.54
417.50	74.90
417.69	44.47
417.88	81.92
418.07	16.38
418.26	56.17
418.45	49.15
418.64	95.96
418.83	60.85
419.02	16.38
419.21	21.06
419.39	63.19
419.58	107.66
419.77	77.24
419.96	30.43
420.15	56.17
420.34	0.00
420.53	107.66
420.72	0.00
420.91	9.36
421.10	131.07
421.29	28.09
421.48	56.17
421.67	0.00
421.86	77.24
422.05	81.92
422.24	74.90
422.43	14.04
422.61	0.00
422.80	4.68
422.99	74.90
423.18	44.47
423.37	28.09
423.56	30.43
423.75	0.00
423.94	21.06
424.13	91.28
424.32	23.41
424.50	42.13
424.69	39.79
424.88	67.88
425.07	58.51
425.26	14.04
425.45	49.15
425.64	91.28
425.83	74.90
426.01	0.00
426.20	100.64
426.39	86.60
426.58	63.19
426.77	58.51
426.96	88.94
427.15	42.13
427.33	70.22
427.52	58.51
427.71	4.68
427.90	63.19
428.09	0.00
428.28	11.70
428.46	110.01
428.65	16.38
428.84	72.56
429.03	49.15
429.22	0.00
429.40	102.98
429.59	11.70
429.78	56.17
429.97	18.72
430.16	44.47
430.34	121.71
430.53	44.47
430.72	28.09
430.91	35.11
431.10	98.30
431.28	46.81
431.47	18.72
431.66	16.38
431.85	53.83
432.03	98.30
432.22	98.30
432.41	81.92
432.60	25.75
432.79	0.00
432.97	9.36
433.16	0.00
433.35	42.13
433.54	86.60
433.72	23.41
433.91	67.88
434.10	0.00
434.28	105.32
434.47	32.77
434.66	35.11
434.85	46.81
435.03	7.02
435.22	0.00
435.41	18.72
435.59	9.36
435.78	74.90
435.97	23.41
436.16	79.58
436.34	56.17
436.53	91.28
436.72	44.47
436.90	49.15
437.09	60.85
437.28	86.60
437.46	84.26
437.65	70.22
437.84	49.15
438.02	28.09
438.21	86.60
438.40	25.75
438.58	0.00
438.77	4.68
438.96	23.41
439.14	60.85
439.33	58.51
439.52	14.04
439.70	28.09
439.89	98.30
440.08	35.11
440.26	0.00
440.45	16.38
440.63	98.30
440.82	25.75
441.01	23.41
441.19	14.04
441.38	0.00
441.57	0.00
441.75	70.22
441.94	86.60
442.12	25.75
442.31	37.45
442.50	21.06
442.68	25.75
442.87	18.72
443.05	42.13
443.24	77.24
443.43	53.83
443.61	65.54
443.80	65.54
443.98	72.56
444.17	35.11
444.35	140.43
444.54	60.85
444.73	74.90
444.91	53.83
445.10	4.68
445.28	53.83
445.47	72.56
445.65	7.02
445.84	28.09
446.02	105.32
446.21	138.09
446.39	58.51
446.58	23.41
446.77	37.45
446.95	110.01
447.14	14.04
447.32	79.58
447.51	72.56
447.69	44.47
447.88	39.79
448.06	51.49
448.25	70.22
448.43	18.72
448.62	46.81
448.80	81.92
448.99	56.17
449.17	65.54
449.36	32.77
449.54	131.07
449.73	58.51
449.91	39.79
450.10	77.24
450.28	21.06
450.46	25.75
450.65	86.60
450.83	65.54
451.02	63.19
451.20	86.60
451.39	0.00
451.57	7.02
451.76	14.04
451.94	42.13
452.13	16.38
452.31	9.36
452.49	0.00
452.68	21.06
452.86	56.17
453.05	7.02
453.23	37.45
453.42	2.34
453.60	7.02
453.78	145.11
453.97	39.79
454.15	37.45
454.34	70.22
454.52	95.96
454.70	114.69
454.89	23.41
455.07	72.56
455.26	95.96
455.44	70.22
455.62	86.60
455.81	60.85
455.99	163.84
456.17	67.88
456.36	16.38
456.54	49.15
456.73	37.45
456.91	95.96
457.09	53.83
457.28	49.15
457.46	35.11
457.64	156.82
457.83	44.47
458.01	2.34
458.19	32.77
458.38	46.81
458.56	67.88
458.74	93.62
458.93	72.56
459.11	0.00
459.29	21.06
459.48	56.17
459.66	67.88
459.84	67.88
460.03	84.26
460.21	110.01
460.39	95.96
460.57	56.17
460.76	86.60
460.94	56.17
461.12	14.04
461.31	58.51
461.49	56.17
461.67	112.35
461.85	91.28
462.04	72.56
462.22	60.85
462.40	98.30
462.59	65.54
462.77	53.83
462.95	14.04
463.13	49.15
463.32	88.94
463.50	98.30
463.68	51.49
463.86	7.02
464.05	58.51
464.23	86.60
464.41	67.88
464.59	100.64
464.78	44.47
464.96	14.04
465.14	131.07
465.32	58.51
465.50	9.36
465.69	67.88
465.87	49.15
466.05	56.17
466.23	81.92
466.41	140.43
466.60	100.64
466.78	35.11
466.96	72.56
467.14	60.85
467.32	49.15
467.51	60.85
467.69	110.01
467.87	25.75
468.05	23.41
468.23	86.60
468.41	25.75
468.60	42.13
468.78	32.77
468.96	0.00
469.14	53.83
469.32	35.11
469.50	102.98
469.69	117.03
469.87	37.45
470.05	81.92
470.23	0.00
470.41	84.26
470.59	98.30
470.77	14.04
470.95	133.41
471.14	37.45
471.32	107.66
471.50	105.32
471.68	51.49
471.86	37.45
472.04	51.49
472.22	58.51
472.40	74.90
472.58	91.28
472.77	42.13
472.95	56.17
473.13	16.38
473.31	4.68
473.49	70.22
473.67	74.90
473.85	58.51
474.03	25.75
474.21	39.79
474.39	79.58
474.57	67.88
474.75	124.05
474.93	105.32
475.12	95.96
475.30	0.00
475.48	37.45
475.66	32.77
475.84	46.81
476.02	23.41
476.20	51.49
476.38	91.28
476.56	60.85
476.74	84.26
476.92	112.35
477.10	46.81
477.28	77.24
477.46	154.48
477.64	53.83
477.82	58.51
478.00	102.98
478.18	140.43
478.36	114.69
478.54	159.16
478.72	49.15
478.90	25.75
479.08	35.11
479.26	149.79
479.44	65.54
479.62	16.38
479.80	49.15
479.98	86.60
480.16	95.96
480.34	65.54
480.52	112.35
480.70	72.56
480.88	37.45
481.06	128.73
481.24	25.75
481.41	46.81
481.59	35.11
481.77	79.58
481.95	86.60
482.13	30.43
482.31	39.79
482.49	32.77
482.67	30.43
482.85	98.30
483.03	107.66
483.21	0.00
483.39	124.05
483.57	42.13
483.74	77.24
483.92	88.94
484.10	95.96
484.28	39.79
484.46	135.75
484.64	21.06
484.82	28.09
485.00	56.17
485.18	124.05
485.35	44.47
485.53	88.94
485.71	14.04
485.89	67.88
486.07	42.13
486.25	77.24
486.43	4.68
486.61	124.05
486.78	65.54
486.96	72.56
487.14	81.92
487.32	23.41
487.50	124.05
487.68	107.66
487.85	63.19
488.03	37.45
488.21	67.88
488.39	84.26
488.57	98.30
488.75	126.39
488.92	72.56
489.10	42.13
489.28	37.45
489.46	46.81
489.64	95.96
489.81	0.00
489.99	124.05
490.17	7.02
490.35	35.11
490.53	46.81
490.70	142.77
490.88	60.85
491.06	39.79
491.24	49.15
491.41	72.56
491.59	81.92
491.77	102.98
491.95	117.03
492.13	86.60
492.30	81.92
492.48	65.54
492.66	98.30
492.84	88.94
493.01	58.51
493.19	91.28
493.37	100.64
493.54	95.96
493.72	53.83
493.90	86.60
494.08	72.56
494.25	124.05
494.43	72.56
494.61	138.09
494.79	11.70
494.96	46.81
495.14	117.03
495.32	91.28
495.49	60.85
495.67	107.66
495.85	0.00
496.02	39.79
496.20	23.41
496.38	102.98
496.55	42.13
496.73	65.54
496.91	58.51
497.09	112.35
497.26	95.96
497.44	0.00
497.62	88.94
497.79	98.30
497.97	72.56
498.14	39.79
498.32	84.26
498.50	79.58
498.67	42.13
498.85	0.00
499.03	44.47
499.20	42.13
499.38	128.73
499.56	53.83
499.73	23.41
499.91	156.82
500.08	119.37
500.26	30.43
500.44	72.56
500.61	91.28
500.79	95.96
500.97	77.24
501.14	4.68
501.32	112.35
501.49	0.00
501.67	100.64
501.84	126.39
502.02	56.17
502.20	30.43
502.37	21.06
502.55	37.45
502.72	95.96
502.90	102.98
503.07	112.35
503.25	128.73
503.43	105.32
503.60	67.88
503.78	114.69
503.95	79.58
504.13	51.49
504.30	67.88
504.48	70.22
504.65	70.22
504.83	88.94
505.01	93.62
505.18	93.62
505.36	56.17
505.53	74.90
505.71	42.13
505.88	63.19
506.06	135.75
506.23	49.15
506.41	25.75
506.58	53.83
506.76	51.49
506.93	56.17
507.11	51.49
507.28	58.51
507.46	77.24
507.63	42.13
507.81	86.60
507.98	88.94
508.16	70.22
508.33	28.09
508.50	91.28
508.68	88.94
508.85	152.13
509.03	74.90
509.20	70.22
509.38	102.98
509.55	81.92
509.73	28.09
509.90	98.30
510.08	72.56
510.25	177.88
510.42	46.81
510.60	74.90
510.77	100.64
510.95	107.66
511.12	100.64
511.30	110.01
511.47	147.45
511.64	100.64
511.82	84.26
511.99	37.45
512.17	7.02
512.34	58.51
512.51	105.32
512.69	49.15
512.86	110.01
513.04	53.83
513.21	70.22
513.38	93.62
513.56	91.28
513.73	86.60
513.90	30.43
514.08	72.56
514.25	53.83
514.43	110.01
514.60	84.26
514.77	84.26
514.95	142.77
515.12	105.32
515.29	56.17
515.47	100.64
515.64	119.37
515.81	117.03
515.99	88.94
516.16	133.41
516.33	121.71
516.51	21.06
516.68	53.83
516.85	14.04
517.03	98.30
517.20	100.64
517.37	42.13
517.54	25.75
517.72	0.00
517.89	60.85
518.06	44.47
518.24	74.90
518.41	44.47
518.58	126.39
518.75	128.73
518.93	95.96
519.10	72.56
519.27	95.96
519.45	133.41
519.62	100.64
519.79	112.35
519.96	107.66
520.14	56.17
520.31	84.26
520.48	46.81
520.65	142.77
520.83	74.90
521.00	145.11
521.17	100.64
521.34	42.13
521.52	79.58
521.69	35.11
521.86	44.47
522.03	124.05
522.20	142.77
522.38	147.45
522.55	114.69
522.72	102.98
522.89	91.28
523.07	16.38
523.24	100.64
523.41	56.17
523.58	95.96
523.75	67.88
523.92	110.01
524.10	102.98
524.27	119.37
524.44	91.28
524.61	114.69
524.78	28.09
524.96	140.43
525.13	88.94
525.30	67.88
525.47	117.03
525.64	16.38
525.81	117.03
525.98	79.58
526.16	102.98
526.33	107.66
526.50	74.90
526.67	49.15
526.84	77.24
527.01	53.83
527.18	105.32
527.36	140.43
527.53	51.49
527.70	79.58
527.87	105.32
528.04	37.45
528.21	110.01
528.38	84.26
528.55	63.19
528.72	65.54
528.89	77.24
529.07	95.96
529.24	105.32
529.41	126.39
529.58	77.24
529.75	86.60
529.92	93.62
530.09	2.34
530.26	93.62
530.43	159.16
530.60	84.26
530.77	14.04
530.94	112.35
531.11	93.62
531.28	189.58
531.46	70.22
531.63	72.56
531.80	51.49
531.97	56.17
532.14	56.17
532.31	100.64
532.48	93.62
532.65	133.41
532.82	67.88
532.99	37.45
533.16	65.54
533.33	46.81
533.50	67.88
533.67	88.94
533.84	114.69
534.01	100.64
534.18	23.41
534.35	102.98
534.52	102.98
534.69	58.51
534.86	84.26
535.03	23.41
535.20	39.79
535.37	142.77
535.54	77.24
535.71	81.92
535.88	81.92
536.05	110.01
536.22	51.49
536.38	81.92
536.55	112.35
536.72	42.13
536.89	35.11
537.06	119.37
537.23	133.41
537.40	81.92
537.57	70.22
537.74	112.35
537.91	110.01
538.08	86.60
538.25	56.17
538.42	86.60
538.59	60.85
538.75	0.00
538.92	135.75
539.09	100.64
539.26	65.54
539.43	84.26
539.60	98.30
539.77	65.54
539.94	28.09
540.11	32.77
540.28	100.64
540.44	84.26
540.61	74.90
540.78	72.56
540.95	95.96
541.12	39.79
541.29	79.58
541.46	88.94
541.62	70.22
541.79	81.92
541.96	77.24
542.13	112.35
542.30	65.54
542.47	138.09
542.63	79.58
542.80	60.85
542.97	0.00
543.14	86.60
543.31	37.45
543.48	79.58
543.64	88.94
543.81	42.13
543.98	67.88
544.15	81.92
544.32	100.64
544.48	51.49
544.65	39.79
544.82	32.77
544.99	58.51
545.16	124.05
545.32	175.54
545.49	77.24
545.66	107.66
545.83	44.47
546.00	32.77
546.16	0.00
546.33	44.47
546.50	18.72
546.67	86.60
546.83	63.19
547.00	88.94
547.17	39.79
547.34	81.92
547.50	79.58
547.67	65.54
547.84	16.38
548.00	21.06
548.17	72.56
548.34	84.26
548.51	98.30
548.67	91.28
548.84	121.71
549.01	98.30
549.18	58.51
549.34	51.49
549.51	133.41
549.68	21.06
549.84	112.35
550.01	84.26
550.18	39.79
550.34	70.22
550.51	46.81
550.68	156.82
550.84	32.77
551.01	79.58
551.18	49.15
551.34	93.62
551.51	88.94
551.68	35.11
551.84	142.77
552.01	119.37
552.18	79.58
552.34	58.51
552.51	110.01
552.68	95.96
552.84	100.64
553.01	30.43
553.18	86.60
553.34	91.28
553.51	114.69
553.67	107.66
553.84	98.30
554.01	51.49
554.17	147.45
554.34	152.13
554.51	95.96
554.67	163.84
554.84	88.94
555.00	166.18
555.17	72.56
555.33	81.92
555.50	74.90
555.67	110.01
555.83	35.11
556.00	95.96
556.16	18.72
556.33	107.66
556.50	65.54
556.66	84.26
556.83	105.32
556.99	44.47
557.16	60.85
557.32	0.00
557.49	46.81
557.65	9.36
557.82	88.94
557.98	81.92
558.15	23.41
558.32	67.88
558.48	88.94
558.65	86.60
558.81	81.92
558.98	58.51
559.14	74.90
559.31	117.03
559.47	39.79
559.64	81.92
559.80	58.51
559.97	49.15
560.13	63.19
560.30	77.24
560.46	88.94
560.63	135.75
560.79	163.84
560.96	142.77
561.12	81.92
561.29	74.90
561.45	65.54
561.61	9.36
561.78	119.37
561.94	49.15
562.11	58.51
562.27	56.17
562.44	124.05
562.60	93.62
562.77	35.11
562.93	131.07
563.10	117.03
563.26	2.34
563.42	42.13
563.59	18.72
563.75	102.98
563.92	65.54
564.08	95.96
564.24	131.07
564.41	128.73
564.57	42.13
564.74	95.96
564.90	124.05
565.07	44.47
565.23	114.69
565.39	0.00
565.56	95.96
565.72	35.11
565.88	98.30
566.05	39.79
566.21	72.56
566.38	84.26
566.54	42.13
566.70	102.98
566.87	77.24
567.03	56.17
567.19	79.58
567.36	2.34
567.52	121.71
567.68	91.28
567.85	53.83
568.01	46.81
568.17	0.00
568.34	105.32
568.50	166.18
568.66	77.24
568.83	166.18
568.99	88.94
569.15	74.90
569.32	49.15
569.48	121.71
569.64	0.00
569.81	91.28
569.97	51.49
570.13	46.81
570.30	110.01
570.46	65.54
570.62	74.90
570.78	156.82
570.95	2.34
571.11	74.90
571.27	58.51
571.43	182.56
571.60	30.43
571.76	79.58
571.92	77.24
572.09	65.54
572.25	126.39
572.41	145.11
572.57	74.90
572.74	105.32
572.90	88.94
573.06	95.96
573.22	114.69
573.38	67.88
573.55	11.70
573.71	77.24
573.87	88.94
574.03	74.90
574.20	67.88
574.36	44.47
574.52	70.22
574.68	65.54
574.84	91.28
575.01	74.90
575.17	37.45
575.33	11.70
575.49	84.26
575.65	56.17
575.82	117.03
575.98	180.22
576.14	53.83
576.30	72.56
576.46	135.75
576.62	93.62
576.79	77.24
576.95	84.26
577.11	138.09
577.27	110.01
577.43	121.71
577.59	32.77
577.75	110.01
577.92	79.58
578.08	79.58
578.24	42.13
578.40	124.05
578.56	124.05
578.72	42.13
578.88	70.22
579.04	140.43
579.21	114.69
579.37	58.51
579.53	142.77
579.69	53.83
579.85	67.88
580.01	72.56
580.17	35.11
580.33	30.43
580.49	67.88
580.65	100.64
580.82	95.96
580.98	117.03
581.14	86.60
581.30	60.85
581.46	56.17
581.62	28.09
581.78	39.79
581.94	98.30
582.10	77.24
582.26	65.54
582.42	86.60
582.58	147.45
582.74	84.26
582.90	149.79
583.06	72.56
583.22	32.77
583.38	63.19
583.54	42.13
583.70	46.81
583.86	84.26
584.02	93.62
584.18	74.90
584.34	117.03
584.50	138.09
584.66	37.45
584.82	60.85
584.98	74.90
585.14	93.62
585.30	133.41
585.46	74.90
585.62	51.49
585.78	56.17
585.94	53.83
586.10	53.83
586.26	58.51
586.42	135.75
586.58	102.98
586.74	84.26
586.90	67.88
587.06	46.81
587.22	37.45
587.38	0.00
587.54	53.83
587.70	81.92
587.86	67.88
588.02	91.28
588.18	0.00
588.34	30.43
588.49	131.07
588.65	44.47
588.81	14.04
588.97	0.00
589.13	77.24
589.29	105.32
589.45	60.85
589.61	37.45
589.77	51.49
589.93	93.62
590.08	51.49
590.24	7.02
590.40	58.51
590.56	74.90
590.72	77.24
590.88	30.43
591.04	39.79
591.20	91.28
591.35	138.09
591.51	35.11
591.67	79.58
591.83	67.88
591.99	72.56
592.15	39.79
592.31	93.62
592.46	65.54
592.62	51.49
592.78	42.13
592.94	105.32
593.10	39.79
593.26	67.88
593.41	93.62
593.57	30.43
593.73	0.00
593.89	74.90
594.05	65.54
594.20	18.72
594.36	51.49
594.52	79.58
594.68	28.09
594.84	140.43
594.99	124.05
595.15	14.04
595.31	44.47
595.47	51.49
595.62	32.77
595.78	74.90
595.94	72.56
596.10	100.64
596.25	49.15
596.41	110.01
596.57	30.43
596.73	93.62
596.88	93.62
597.04	86.60
597.20	65.54
597.36	35.11
597.51	58.51
597.67	63.19
597.83	77.24
597.99	63.19
598.14	119.37
598.30	23.41
598.46	2.34
598.61	23.41
598.77	0.00
598.93	49.15
599.09	88.94
599.24	88.94
599.40	58.51
599.56	72.56
599.71	79.58
599.87	42.13
600.03	9.36
600.18	60.85
600.34	72.56
600.50	39.79
600.65	60.85
600.81	46.81
600.97	28.09
601.12	72.56
601.28	23.41
601.44	56.17
601.59	102.98
601.75	100.64
601.91	42.13
602.06	98.30
602.22	131.07
602.37	35.11
602.53	84.26
602.69	105.32
602.84	110.01
603.00	145.11
603.16	42.13
603.31	32.77
603.47	86.60
603.62	74.90
603.78	77.24
603.94	42.13
604.09	107.66
604.25	152.13
604.40	105.32
604.56	58.51
604.71	110.01
604.87	39.79
605.03	58.51
605.18	88.94
605.34	4.68
605.49	81.92
605.65	67.88
605.80	84.26
605.96	46.81
606.12	72.56
606.27	11.70
606.43	53.83
606.58	51.49
606.74	98.30
606.89	105.32
607.05	98.30
607.20	0.00
607.36	32.77
607.51	105.32
607.67	138.09
607.82	86.60
607.98	46.81
608.13	39.79
608.29	65.54
608.44	95.96
608.60	30.43
608.75	65.54
608.91	74.90
609.06	79.58
609.22	102.98
609.37	70.22
609.53	30.43
609.68	93.62
609.84	44.47
609.99	51.49
610.15	128.73
610.30	86.60
610.46	86.60
610.61	117.03
610.76	39.79
610.92	35.11
611.07	67.88
611.23	39.79
611.38	91.28
611.54	35.11
611.69	32.77
611.84	142.77
612.00	53.83
612.15	126.39
612.31	67.88
612.46	135.75
612.62	44.47
612.77	42.13
612.92	112.35
613.08	23.41
613.23	79.58
613.39	95.96
613.54	86.60
613.69	67.88
613.85	67.88
614.00	58.51
614.15	28.09
614.31	30.43
614.46	51.49
614.62	95.96
614.77	72.56
614.92	0.00
615.08	49.15
615.23	0.00
615.38	91.28
615.54	72.56
615.69	91.28
615.84	81.92
616.00	74.90
616.15	77.24
616.30	121.71
616.46	138.09
616.61	72.56
616.76	91.28
616.92	35.11
617.07	81.92
617.22	67.88
617.37	37.45
617.53	63.19
617.68	98.30
617.83	42.13
617.99	18.72
618.14	51.49
618.29	46.81
618.45	88.94
618.60	53.83
618.75	147.45
618.90	107.66
619.06	51.49
619.21	46.81
619.36	7.02
619.51	51.49
619.67	114.69
619.82	49.15
619.97	70.22
620.12	51.49
620.28	2.34
620.43	39.79
620.58	98.30
620.73	126.39
620.89	25.75
621.04	67.88
621.19	86.60
621.34	105.32
621.49	163.84
621.65	49.15
621.80	67.88
621.95	21.06
622.10	67.88
622.25	79.58
622.41	53.83
622.56	30.43
622.71	39.79
622.86	91.28
623.01	95.96
623.16	145.11
623.32	46.81
623.47	72.56
623.62	93.62
623.77	30.43
623.92	110.01
624.07	140.43
624.23	65.54
624.38	56.17
624.53	30.43
624.68	0.00
624.83	77.24
624.98	60.85
625.13	60.85
625.29	51.49
625.44	56.17
625.59	117.03
625.74	81.92
625.89	77.24
626.04	107.66
626.19	93.62
626.34	79.58
626.49	98.30
626.65	105.32
626.80	32.77
626.95	2.34
627.10	44.47
627.25	23.41
627.40	117.03
627.55	56.17
627.70	0.00
627.85	93.62
628.00	42.13
628.15	46.81
628.30	79.58
628.45	67.88
628.60	11.70
628.76	110.01
628.91	70.22
629.06	53.83
629.21	9.36
629.36	100.64
629.51	44.47
629.66	77.24
629.81	79.58
629.96	11.70
630.11	9.36
630.26	154.48
630.41	37.45
630.56	0.00
630.71	35.11
630.86	138.09
631.01	28.09
631.16	58.51
631.31	60.85
631.46	70.22
631.61	114.69
631.76	56.17
631.91	79.58
632.06	65.54
632.21	51.49
632.36	112.35
632.51	81.92
632.66	100.64
632.81	28.09
632.96	102.98
633.10	25.75
633.25	95.96
633.40	14.04
633.55	86.60
633.70	56.17
633.85	81.92
634.00	60.85
634.15	11.70
634.30	46.81
634.45	46.81
634.60	60.85
634.75	30.43
634.90	51.49
635.05	138.09
635.19	95.96
635.34	95.96
635.49	63.19
635.64	35.11
635.79	58.51
635.94	67.88
636.09	86.60
636.24	84.26
636.39	121.71
636.53	46.81
636.68	117.03
636.83	105.32
636.98	74.90
637.13	70.22
637.28	74.90
637.43	46.81
637.57	0.00
637.72	72.56
637.87	16.38
638.02	53.83
638.17	88.94
638.32	79.58
638.46	16.38
638.61	74.90
638.76	39.79
638.91	39.79
639.06	77.24
639.20	128.73
639.35	21.06
639.50	39.79
639.65	67.88
639.80	93.62
639.94	32.77
640.09	67.88
640.24	74.90
640.39	28.09
640.54	81.92
640.68	65.54
640.83	23.41
640.98	72.56
641.13	77.24
641.27	44.47
641.42	44.47
641.57	11.70
641.72	88.94
641.86	110.01
642.01	182.56
642.16	44.47
642.31	0.00
642.45	2.34
642.60	44.47
642.75	105.32
642.90	0.00
643.04	65.54
643.19	14.04
643.34	0.00
643.48	93.62
643.63	23.41
643.78	16.38
643.93	44.47
644.07	51.49
644.22	88.94
644.37	0.00
644.51	72.56
644.66	117.03
644.81	84.26
644.95	42.13
645.10	105.32
645.25	70.22
645.39	70.22
645.54	91.28
645.69	30.43
645.83	79.58
645.98	42.13
646.13	18.72
646.27	0.00
646.42	70.22
646.57	28.09
646.71	79.58
646.86	70.22
647.00	72.56
647.15	65.54
647.30	42.13
647.44	28.09
647.59	74.90
647.74	0.00
647.88	30.43
648.03	74.90
648.17	107.66
648.32	105.32
648.47	65.54
648.61	102.98
648.76	51.49
648.90	46.81
649.05	63.19
649.20	37.45
649.34	112.35
649.49	16.38
649.63	25.75
649.78	117.03
649.92	67.88
650.07	42.13
650.21	70.22
650.36	60.85
650.51	0.00
650.65	65.54
650.80	0.00
650.94	60.85
651.09	25.75
651.23	88.94
651.38	63.19
651.52	42.13
651.67	56.17
651.81	51.49
651.96	0.00
652.10	25.75
652.25	0.00
652.39	56.17
652.54	117.03
652.68	107.66
652.83	37.45
652.97	32.77
653.12	44.47
653.26	0.00
653.41	39.79
653.55	84.26
653.70	35.11
653.84	81.92
653.99	112.35
654.13	9.36
654.27	86.60
654.42	77.24
654.56	63.19
654.71	0.00
654.85	84.26
655.00	14.04
655.14	93.62
655.29	56.17
655.43	70.22
655.57	98.30
655.72	67.88
655.86	35.11
656.01	51.49
656.15	93.62
656.30	0.00
656.44	65.54
656.58	56.17
656.73	39.79
656.87	32.77
657.01	77.24
657.16	0.00
657.30	77.24
657.45	84.26
657.59	72.56
657.73	35.11
657.88	63.19
658.02	56.17
658.16	2.34
658.31	16.38
658.45	44.47
658.60	46.81
658.74	23.41
658.88	25.75
659.03	63.19
659.17	65.54
659.31	67.88
659.46	77.24
659.60	25.75
659.74	149.79
659.89	133.41
660.03	119.37
660.17	95.96
660.32	91.28
660.46	84.26
660.60	65.54
660.74	77.24
660.89	124.05
661.03	65.54
661.17	70.22
661.32	0.00
661.46	42.13
661.60	18.72
661.74	88.94
661.89	0.00
662.03	93.62
662.17	39.79
662.31	72.56
662.46	67.88
662.60	9.36
662.74	100.64
662.88	46.81
663.03	60.85
663.17	51.49
663.31	74.90
663.45	2.34
663.60	49.15
663.74	49.15
663.88	58.51
664.02	88.94
664.17	42.13
664.31	37.45
664.45	51.49
664.59	56.17
664.73	67.88
664.88	28.09
665.02	84.26
665.16	81.92
665.30	39.79
665.44	32.77
665.59	77.24
665.73	53.83
665.87	168.52
666.01	21.06
666.15	0.00
666.29	18.72
666.44	107.66
666.58	102.98
666.72	112.35
666.86	105.32
667.00	72.56
667.14	93.62
667.28	58.51
667.43	7.02
667.57	0.00
667.71	42.13
667.85	63.19
667.99	18.72
668.13	30.43
668.27	60.85
668.41	0.00
668.56	128.73
668.70	67.88
668.84	65.54
668.98	70.22
669.12	67.88
669.26	65.54
669.40	39.79
669.54	14.04
669.68	81.92
669.82	102.98
669.96	110.01
670.10	86.60
670.25	14.04
670.39	42.13
670.53	67.88
670.67	37.45
670.81	28.09
670.95	0.00
671.09	32.77
671.23	28.09
671.37	0.00
671.51	42.13
671.65	4.68
671.79	23.41
671.93	39.79
672.07	0.00
672.21	44.47
672.35	100.64
672.49	100.64
672.63	0.00
672.77	79.58
672.91	0.00
673.05	21.06
673.19	18.72
673.33	147.45
673.47	51.49
673.61	110.01
673.75	98.30
673.89	49.15
674.03	0.00
674.17	44.47
674.31	0.00
674.45	56.17
674.59	16.38
674.73	39.79
674.87	9.36
675.01	35.11
675.15	7.02
675.29	51.49
675.43	58.51
675.56	42.13
675.70	44.47
675.84	28.09
675.98	42.13
676.12	0.00
676.26	37.45
676.40	39.79
676.54	88.94
676.68	114.69
676.82	67.88
676.96	53.83
677.10	16.38
677.23	30.43
677.37	67.88
677.51	58.51
677.65	44.47
677.79	35.11
677.93	88.94
678.07	102.98
678.21	53.83
678.34	49.15
678.48	67.88
678.62	11.70
678.76	53.83
678.90	58.51
679.04	0.00
679.18	0.00
679.31	11.70
679.45	11.70
679.59	51.49
679.73	117.03
679.87	56.17
680.00	56.17
680.14	93.62
680.28	67.88
680.42	63.19
680.56	37.45
680.70	63.19
680.83	58.51
680.97	0.00
681.11	37.45
681.25	28.09
681.39	11.70
681.52	37.45
681.66	21.06
681.80	128.73
681.94	149.79
682.07	79.58
682.21	84.26
682.35	42.13
682.49	51.49
682.62	86.60
682.76	21.06
682.90	18.72
683.04	32.77
683.17	0.00
683.31	49.15
683.45	30.43
683.59	98.30
683.72	95.96
683.86	0.00
684.00	70.22
684.13	7.02
684.27	35.11
684.41	42.13
684.55	14.04
684.68	91.28
684.82	0.00
684.96	0.00
685.09	2.34
685.23	46.81
685.37	11.70
685.50	77.24
685.64	77.24
685.78	56.17
685.91	74.90
686.05	56.17
686.19	60.85
686.32	49.15
686.46	39.79
686.60	39.79
686.73	39.79
686.87	39.79
687.01	0.00
687.14	0.00
687.28	30.43
687.42	42.13
687.55	98.30
687.69	60.85
687.82	0.00
687.96	39.79
688.10	102.98
688.23	74.90
688.37	67.88
688.50	49.15
688.64	70.22
688.78	60.85
688.91	53.83
689.05	70.22
689.18	42.13
689.32	93.62
689.46	0.00
689.59	30.43
689.73	28.09
689.86	93.62
690.00	60.85
690.13	14.04
690.27	9.36
690.41	60.85
690.54	30.43
690.68	37.45
690.81	67.88
690.95	39.79
691.08	9.36
691.22	23.41
691.35	14.04
691.49	18.72
691.62	112.35
691.76	9.36
691.89	37.45
692.03	0.00
692.16	0.00
692.30	46.81
692.43	42.13
692.57	30.43
692.70	0.00
692.84	102.98
692.97	58.51
693.11	25.75
693.24	84.26
693.38	0.00
693.51	58.51
693.65	23.41
693.78	0.00
693.92	58.51
694.05	49.15
694.19	0.00
694.32	0.00
694.45	0.00
694.59	2.34
694.72	60.85
694.86	35.11
694.99	0.00
695.13	91.28
695.26	11.70
695.39	0.00
695.53	100.64
695.66	93.62
695.80	46.81
695.93	112.35
696.07	46.81
696.20	11.70
696.33	7.02
696.47	21.06
696.60	11.70
696.73	28.09
696.87	23.41
697.00	16.38
697.14	56.17
697.27	88.94
697.40	30.43
697.54	74.90
697.67	51.49
697.80	46.81
697.94	49.15
698.07	28.09
698.21	16.38
698.34	0.00
698.47	0.00
698.61	0.00
698.74	28.09
698.87	0.00
699.01	65.54
699.14	32.77
699.27	0.00
699.40	95.96
699.54	18.72
699.67	88.94
699.80	37.45
699.94	0.00
700.07	23.41
700.20	70.22
700.34	0.00
700.47	72.56
700.60	88.94
700.73	46.81
700.87	60.85
701.00	56.17
701.13	0.00
701.26	81.92
701.40	0.00
701.53	14.04
701.66	46.81
701.79	11.70
701.93	16.38
702.06	0.00
702.19	0.00
702.32	39.79
702.46	98.30
702.59	114.69
702.72	7.02
702.85	95.96
702.99	11.70
703.12	32.77
703.25	7.02
703.38	49.15
703.51	53.83
703.65	60.85
703.78	56.17
703.91	51.49
704.04	35.11
704.17	11.70
704.31	49.15
704.44	77.24
704.57	0.00
704.70	42.13
704.83	32.77
704.96	37.45
705.10	23.41
705.23	44.47
>>>>>End Processed Spectral Data<<<<<
