SpectraSuite Data File
++++++++++++++++++++++++++++++++++++
Date: Fri Oct 04 12:13:31 GMT-05:00 2013
User: price-jones
Dark Spectrum Present: No
Reference Spectrum Present: No
Number of Sampled Component Spectra: 1
Spectrometers: USB2+H05261
Integration Time (usec): 10000 (USB2+H05261)
Spectra Averaged: 1 (USB2+H05261)
Boxcar Smoothing: 0 (USB2+H05261)
Correct for Electrical Dark: No (USB2+H05261)
Strobe/Lamp Enabled: No (USB2+H05261)
Correct for Detector Non-linearity: No (USB2+H05261)
Correct for Stray Light: No (USB2+H05261)
Number of Pixels in Processed Spectrum: 2048
>>>>>Begin Processed Spectral Data<<<<<
365.73	0.00
365.92	0.00
366.12	0.00
366.32	0.00
366.52	0.00
366.72	0.00
366.91	0.00
367.11	0.00
367.31	0.00
367.51	0.00
367.70	0.00
367.90	0.00
368.10	0.00
368.30	0.00
368.49	0.00
368.69	0.00
368.89	0.00
369.09	0.00
369.28	0.00
369.48	0.00
369.68	0.00
369.87	0.00
370.07	0.00
370.27	0.00
370.47	0.00
370.66	0.00
370.86	0.00
371.06	7.02
371.25	0.00
371.45	0.00
371.65	0.00
371.84	0.00
372.04	25.75
372.24	0.00
372.44	79.58
372.63	0.00
372.83	21.06
373.03	9.36
373.22	0.00
373.42	70.22
373.62	18.72
373.81	49.15
374.01	39.79
374.21	30.43
374.40	0.00
374.60	0.00
374.79	7.02
374.99	18.72
375.19	16.38
375.38	93.62
375.58	72.56
375.78	42.13
375.97	30.43
376.17	30.43
376.37	44.47
376.56	14.04
376.76	0.00
376.95	32.77
377.15	63.19
377.35	0.00
377.54	23.41
377.74	58.51
377.93	0.00
378.13	79.58
378.33	70.22
378.52	0.00
378.72	25.75
378.91	2.34
379.11	0.00
379.31	16.38
379.50	44.47
379.70	28.09
379.89	42.13
380.09	0.00
380.28	11.70
380.48	0.00
380.68	0.00
380.87	16.38
381.07	0.00
381.26	14.04
381.46	74.90
381.65	0.00
381.85	58.51
382.04	32.77
382.24	0.00
382.43	32.77
382.63	18.72
382.83	11.70
383.02	0.00
383.22	0.00
383.41	9.36
383.61	14.04
383.80	86.60
384.00	32.77
384.19	0.00
384.39	0.00
384.58	28.09
384.78	60.85
384.97	0.00
385.17	0.00
385.36	14.04
385.56	0.00
385.75	0.00
385.95	25.75
386.14	44.47
386.34	16.38
386.53	28.09
386.72	81.92
386.92	0.00
387.11	32.77
387.31	0.00
387.50	0.00
387.70	63.19
387.89	60.85
388.09	42.13
388.28	84.26
388.48	42.13
388.67	0.00
388.86	0.00
389.06	25.75
389.25	21.06
389.45	14.04
389.64	37.45
389.84	44.47
390.03	117.03
390.22	0.00
390.42	7.02
390.61	0.00
390.81	60.85
391.00	65.54
391.19	72.56
391.39	65.54
391.58	32.77
391.78	51.49
391.97	16.38
392.16	4.68
392.36	79.58
392.55	0.00
392.75	67.88
392.94	7.02
393.13	21.06
393.33	81.92
393.52	0.00
393.71	32.77
393.91	0.00
394.10	0.00
394.29	35.11
394.49	18.72
394.68	4.68
394.88	65.54
395.07	39.79
395.26	46.81
395.46	0.00
395.65	0.00
395.84	0.00
396.04	4.68
396.23	39.79
396.42	86.60
396.62	0.00
396.81	4.68
397.00	70.22
397.19	49.15
397.39	0.00
397.58	44.47
397.77	28.09
397.97	28.09
398.16	0.00
398.35	39.79
398.55	18.72
398.74	79.58
398.93	79.58
399.12	63.19
399.32	49.15
399.51	21.06
399.70	35.11
399.90	79.58
400.09	49.15
400.28	0.00
400.47	0.00
400.67	0.00
400.86	0.00
401.05	14.04
401.24	0.00
401.44	2.34
401.63	0.00
401.82	14.04
402.01	0.00
402.21	28.09
402.40	88.94
402.59	49.15
402.78	32.77
402.97	14.04
403.17	23.41
403.36	44.47
403.55	0.00
403.74	0.00
403.93	4.68
404.13	56.17
404.32	37.45
404.51	88.94
404.70	4.68
404.89	0.00
405.09	35.11
405.28	42.13
405.47	63.19
405.66	86.60
405.85	84.26
406.05	86.60
406.24	30.43
406.43	46.81
406.62	35.11
406.81	4.68
407.00	70.22
407.20	100.64
407.39	56.17
407.58	0.00
407.77	7.02
407.96	0.00
408.15	18.72
408.34	0.00
408.54	0.00
408.73	37.45
408.92	58.51
409.11	32.77
409.30	14.04
409.49	79.58
409.68	46.81
409.87	56.17
410.07	9.36
410.26	23.41
410.45	81.92
410.64	2.34
410.83	42.13
411.02	0.00
411.21	0.00
411.40	0.00
411.59	53.83
411.78	7.02
411.98	0.00
412.17	0.00
412.36	49.15
412.55	0.00
412.74	44.47
412.93	44.47
413.12	0.00
413.31	0.00
413.50	0.00
413.69	63.19
413.88	0.00
414.07	21.06
414.26	25.75
414.45	79.58
414.64	35.11
414.83	32.77
415.02	102.98
415.22	0.00
415.41	9.36
415.60	63.19
415.79	65.54
415.98	0.00
416.17	63.19
416.36	60.85
416.55	67.88
416.74	63.19
416.93	0.00
417.12	23.41
417.31	4.68
417.50	42.13
417.69	14.04
417.88	0.00
418.07	21.06
418.26	95.96
418.45	84.26
418.64	39.79
418.83	0.00
419.02	0.00
419.21	0.00
419.39	18.72
419.58	0.00
419.77	0.00
419.96	81.92
420.15	18.72
420.34	42.13
420.53	0.00
420.72	67.88
420.91	14.04
421.10	53.83
421.29	9.36
421.48	32.77
421.67	67.88
421.86	0.00
422.05	0.00
422.24	93.62
422.43	42.13
422.61	88.94
422.80	16.38
422.99	32.77
423.18	51.49
423.37	65.54
423.56	72.56
423.75	0.00
423.94	0.00
424.13	0.00
424.32	0.00
424.50	25.75
424.69	0.00
424.88	32.77
425.07	7.02
425.26	23.41
425.45	9.36
425.64	0.00
425.83	35.11
426.01	0.00
426.20	18.72
426.39	21.06
426.58	0.00
426.77	37.45
426.96	79.58
427.15	49.15
427.33	86.60
427.52	65.54
427.71	4.68
427.90	11.70
428.09	35.11
428.28	18.72
428.46	0.00
428.65	67.88
428.84	72.56
429.03	0.00
429.22	9.36
429.40	102.98
429.59	14.04
429.78	39.79
429.97	16.38
430.16	42.13
430.34	0.00
430.53	44.47
430.72	25.75
430.91	0.00
431.10	4.68
431.28	16.38
431.47	58.51
431.66	77.24
431.85	9.36
432.03	65.54
432.22	18.72
432.41	21.06
432.60	81.92
432.79	30.43
432.97	0.00
433.16	93.62
433.35	51.49
433.54	44.47
433.72	63.19
433.91	74.90
434.10	0.00
434.28	0.00
434.47	44.47
434.66	56.17
434.85	39.79
435.03	37.45
435.22	44.47
435.41	0.00
435.59	0.00
435.78	0.00
435.97	60.85
436.16	0.00
436.34	0.00
436.53	67.88
436.72	37.45
436.90	35.11
437.09	0.00
437.28	30.43
437.46	4.68
437.65	67.88
437.84	16.38
438.02	53.83
438.21	0.00
438.40	18.72
438.58	56.17
438.77	7.02
438.96	86.60
439.14	0.00
439.33	58.51
439.52	44.47
439.70	18.72
439.89	0.00
440.08	23.41
440.26	14.04
440.45	0.00
440.63	0.00
440.82	28.09
441.01	86.60
441.19	60.85
441.38	0.00
441.57	23.41
441.75	0.00
441.94	58.51
442.12	74.90
442.31	39.79
442.50	39.79
442.68	9.36
442.87	100.64
443.05	70.22
443.24	65.54
443.43	42.13
443.61	0.00
443.80	70.22
443.98	0.00
444.17	63.19
444.35	67.88
444.54	18.72
444.73	58.51
444.91	51.49
445.10	53.83
445.28	0.00
445.47	37.45
445.65	0.00
445.84	4.68
446.02	18.72
446.21	0.00
446.39	2.34
446.58	23.41
446.77	124.05
446.95	51.49
447.14	51.49
447.32	119.37
447.51	44.47
447.69	9.36
447.88	21.06
448.06	35.11
448.25	25.75
448.43	4.68
448.62	0.00
448.80	114.69
448.99	74.90
449.17	16.38
449.36	107.66
449.54	88.94
449.73	49.15
449.91	42.13
450.10	4.68
450.28	37.45
450.46	37.45
450.65	25.75
450.83	42.13
451.02	11.70
451.20	42.13
451.39	23.41
451.57	0.00
451.76	102.98
451.94	25.75
452.13	2.34
452.31	9.36
452.49	35.11
452.68	28.09
452.86	7.02
453.05	32.77
453.23	72.56
453.42	32.77
453.60	16.38
453.78	28.09
453.97	11.70
454.15	131.07
454.34	0.00
454.52	11.70
454.70	23.41
454.89	4.68
455.07	56.17
455.26	67.88
455.44	65.54
455.62	107.66
455.81	30.43
455.99	46.81
456.17	42.13
456.36	37.45
456.54	72.56
456.73	16.38
456.91	4.68
457.09	88.94
457.28	35.11
457.46	23.41
457.64	2.34
457.83	37.45
458.01	44.47
458.19	70.22
458.38	46.81
458.56	56.17
458.74	67.88
458.93	63.19
459.11	23.41
459.29	58.51
459.48	0.00
459.66	35.11
459.84	53.83
460.03	63.19
460.21	53.83
460.39	30.43
460.57	46.81
460.76	25.75
460.94	23.41
461.12	2.34
461.31	11.70
461.49	9.36
461.67	70.22
461.85	9.36
462.04	39.79
462.22	102.98
462.40	18.72
462.59	32.77
462.77	25.75
462.95	86.60
463.13	0.00
463.32	9.36
463.50	0.00
463.68	0.00
463.86	28.09
464.05	46.81
464.23	72.56
464.41	14.04
464.59	11.70
464.78	100.64
464.96	30.43
465.14	14.04
465.32	79.58
465.50	42.13
465.69	21.06
465.87	105.32
466.05	53.83
466.23	21.06
466.41	0.00
466.60	2.34
466.78	74.90
466.96	65.54
467.14	56.17
467.32	51.49
467.51	0.00
467.69	60.85
467.87	39.79
468.05	0.00
468.23	53.83
468.41	42.13
468.60	93.62
468.78	65.54
468.96	0.00
469.14	58.51
469.32	56.17
469.50	0.00
469.69	49.15
469.87	35.11
470.05	65.54
470.23	51.49
470.41	2.34
470.59	18.72
470.77	56.17
470.95	86.60
471.14	51.49
471.32	105.32
471.50	128.73
471.68	46.81
471.86	30.43
472.04	0.00
472.22	70.22
472.40	0.00
472.58	98.30
472.77	58.51
472.95	37.45
473.13	0.00
473.31	42.13
473.49	107.66
473.67	67.88
473.85	7.02
474.03	42.13
474.21	67.88
474.39	0.00
474.57	49.15
474.75	81.92
474.93	32.77
475.12	0.00
475.30	39.79
475.48	30.43
475.66	77.24
475.84	51.49
476.02	58.51
476.20	0.00
476.38	53.83
476.56	58.51
476.74	30.43
476.92	88.94
477.10	2.34
477.28	0.00
477.46	21.06
477.64	9.36
477.82	14.04
478.00	67.88
478.18	53.83
478.36	70.22
478.54	0.00
478.72	16.38
478.90	58.51
479.08	77.24
479.26	28.09
479.44	0.00
479.62	32.77
479.80	11.70
479.98	86.60
480.16	9.36
480.34	44.47
480.52	11.70
480.70	0.00
480.88	30.43
481.06	14.04
481.24	110.01
481.41	0.00
481.59	16.38
481.77	23.41
481.95	16.38
482.13	28.09
482.31	11.70
482.49	35.11
482.67	46.81
482.85	9.36
483.03	70.22
483.21	37.45
483.39	60.85
483.57	11.70
483.74	0.00
483.92	23.41
484.10	0.00
484.28	9.36
484.46	42.13
484.64	81.92
484.82	46.81
485.00	39.79
485.18	81.92
485.35	44.47
485.53	0.00
485.71	9.36
485.89	35.11
486.07	9.36
486.25	37.45
486.43	0.00
486.61	0.00
486.78	79.58
486.96	145.11
487.14	84.26
487.32	86.60
487.50	46.81
487.68	25.75
487.85	0.00
488.03	0.00
488.21	105.32
488.39	28.09
488.57	37.45
488.75	9.36
488.92	70.22
489.10	42.13
489.28	65.54
489.46	0.00
489.64	53.83
489.81	2.34
489.99	72.56
490.17	21.06
490.35	0.00
490.53	37.45
490.70	0.00
490.88	119.37
491.06	35.11
491.24	21.06
491.41	30.43
491.59	67.88
491.77	18.72
491.95	98.30
492.13	39.79
492.30	53.83
492.48	84.26
492.66	11.70
492.84	16.38
493.01	0.00
493.19	93.62
493.37	46.81
493.54	0.00
493.72	53.83
493.90	100.64
494.08	0.00
494.25	28.09
494.43	86.60
494.61	37.45
494.79	7.02
494.96	21.06
495.14	81.92
495.32	84.26
495.49	7.02
495.67	86.60
495.85	79.58
496.02	0.00
496.20	56.17
496.38	46.81
496.55	46.81
496.73	46.81
496.91	112.35
497.09	30.43
497.26	0.00
497.44	30.43
497.62	53.83
497.79	21.06
497.97	0.00
498.14	63.19
498.32	14.04
498.50	77.24
498.67	0.00
498.85	44.47
499.03	37.45
499.20	30.43
499.38	0.00
499.56	56.17
499.73	21.06
499.91	0.00
500.08	86.60
500.26	0.00
500.44	18.72
500.61	0.00
500.79	74.90
500.97	9.36
501.14	44.47
501.32	70.22
501.49	86.60
501.67	14.04
501.84	42.13
502.02	0.00
502.20	42.13
502.37	67.88
502.55	21.06
502.72	14.04
502.90	65.54
503.07	23.41
503.25	77.24
503.43	98.30
503.60	46.81
503.78	28.09
503.95	70.22
504.13	58.51
504.30	42.13
504.48	14.04
504.65	56.17
504.83	14.04
505.01	16.38
505.18	42.13
505.36	70.22
505.53	152.13
505.71	39.79
505.88	18.72
506.06	0.00
506.23	35.11
506.41	37.45
506.58	46.81
506.76	105.32
506.93	9.36
507.11	35.11
507.28	35.11
507.46	79.58
507.63	49.15
507.81	46.81
507.98	25.75
508.16	51.49
508.33	16.38
508.50	46.81
508.68	42.13
508.85	14.04
509.03	28.09
509.20	0.00
509.38	0.00
509.55	21.06
509.73	0.00
509.90	60.85
510.08	9.36
510.25	28.09
510.42	39.79
510.60	35.11
510.77	32.77
510.95	112.35
511.12	0.00
511.30	7.02
511.47	79.58
511.64	128.73
511.82	21.06
511.99	25.75
512.17	35.11
512.34	79.58
512.51	0.00
512.69	84.26
512.86	30.43
513.04	44.47
513.21	21.06
513.38	77.24
513.56	0.00
513.73	0.00
513.90	28.09
514.08	58.51
514.25	72.56
514.43	0.00
514.60	58.51
514.77	60.85
514.95	7.02
515.12	0.00
515.29	0.00
515.47	16.38
515.64	32.77
515.81	81.92
515.99	21.06
516.16	14.04
516.33	49.15
516.51	16.38
516.68	51.49
516.85	16.38
517.03	2.34
517.20	39.79
517.37	42.13
517.54	11.70
517.72	37.45
517.89	58.51
518.06	0.00
518.24	42.13
518.41	74.90
518.58	35.11
518.75	65.54
518.93	44.47
519.10	0.00
519.27	0.00
519.45	32.77
519.62	49.15
519.79	4.68
519.96	18.72
520.14	44.47
520.31	0.00
520.48	0.00
520.65	35.11
520.83	42.13
521.00	53.83
521.17	72.56
521.34	37.45
521.52	25.75
521.69	51.49
521.86	35.11
522.03	42.13
522.20	37.45
522.38	72.56
522.55	39.79
522.72	18.72
522.89	37.45
523.07	84.26
523.24	74.90
523.41	93.62
523.58	51.49
523.75	79.58
523.92	0.00
524.10	28.09
524.27	0.00
524.44	77.24
524.61	119.37
524.78	28.09
524.96	93.62
525.13	0.00
525.30	0.00
525.47	35.11
525.64	67.88
525.81	81.92
525.98	37.45
526.16	56.17
526.33	72.56
526.50	56.17
526.67	37.45
526.84	0.00
527.01	56.17
527.18	51.49
527.36	25.75
527.53	18.72
527.70	21.06
527.87	28.09
528.04	72.56
528.21	42.13
528.38	28.09
528.55	60.85
528.72	60.85
528.89	112.35
529.07	77.24
529.24	67.88
529.41	102.98
529.58	32.77
529.75	11.70
529.92	35.11
530.09	21.06
530.26	74.90
530.43	84.26
530.60	53.83
530.77	14.04
530.94	25.75
531.11	16.38
531.28	79.58
531.46	58.51
531.63	135.75
531.80	70.22
531.97	65.54
532.14	39.79
532.31	51.49
532.48	88.94
532.65	0.00
532.82	25.75
532.99	23.41
533.16	23.41
533.33	9.36
533.50	35.11
533.67	0.00
533.84	53.83
534.01	32.77
534.18	100.64
534.35	93.62
534.52	0.00
534.69	42.13
534.86	0.00
535.03	14.04
535.20	60.85
535.37	30.43
535.54	49.15
535.71	42.13
535.88	0.00
536.05	84.26
536.22	0.00
536.38	44.47
536.55	44.47
536.72	70.22
536.89	77.24
537.06	72.56
537.23	49.15
537.40	16.38
537.57	63.19
537.74	93.62
537.91	95.96
538.08	135.75
538.25	56.17
538.42	58.51
538.59	0.00
538.75	58.51
538.92	37.45
539.09	0.00
539.26	0.00
539.43	84.26
539.60	21.06
539.77	93.62
539.94	98.30
540.11	124.05
540.28	53.83
540.44	7.02
540.61	14.04
540.78	0.00
540.95	42.13
541.12	9.36
541.29	124.05
541.46	30.43
541.62	25.75
541.79	0.00
541.96	0.00
542.13	0.00
542.30	70.22
542.47	58.51
542.63	81.92
542.80	0.00
542.97	2.34
543.14	18.72
543.31	95.96
543.48	4.68
543.64	0.00
543.81	46.81
543.98	0.00
544.15	4.68
544.32	32.77
544.48	28.09
544.65	23.41
544.82	65.54
544.99	18.72
545.16	30.43
545.32	44.47
545.49	28.09
545.66	0.00
545.83	51.49
546.00	46.81
546.16	2.34
546.33	88.94
546.50	28.09
546.67	58.51
546.83	28.09
547.00	2.34
547.17	0.00
547.34	105.32
547.50	119.37
547.67	7.02
547.84	23.41
548.00	72.56
548.17	30.43
548.34	0.00
548.51	11.70
548.67	42.13
548.84	53.83
549.01	102.98
549.18	14.04
549.34	88.94
549.51	37.45
549.68	60.85
549.84	0.00
550.01	51.49
550.18	128.73
550.34	46.81
550.51	28.09
550.68	37.45
550.84	60.85
551.01	0.00
551.18	93.62
551.34	72.56
551.51	35.11
551.68	46.81
551.84	18.72
552.01	0.00
552.18	102.98
552.34	16.38
552.51	7.02
552.68	0.00
552.84	23.41
553.01	25.75
553.18	67.88
553.34	46.81
553.51	44.47
553.67	4.68
553.84	51.49
554.01	30.43
554.17	126.39
554.34	119.37
554.51	51.49
554.67	86.60
554.84	86.60
555.00	60.85
555.17	28.09
555.33	0.00
555.50	37.45
555.67	28.09
555.83	32.77
556.00	74.90
556.16	51.49
556.33	142.77
556.50	28.09
556.66	58.51
556.83	70.22
556.99	37.45
557.16	51.49
557.32	95.96
557.49	0.00
557.65	44.47
557.82	0.00
557.98	14.04
558.15	58.51
558.32	25.75
558.48	0.00
558.65	37.45
558.81	35.11
558.98	67.88
559.14	30.43
559.31	18.72
559.47	25.75
559.64	128.73
559.80	86.60
559.97	65.54
560.13	44.47
560.30	74.90
560.46	25.75
560.63	16.38
560.79	42.13
560.96	9.36
561.12	0.00
561.29	93.62
561.45	42.13
561.61	0.00
561.78	42.13
561.94	37.45
562.11	21.06
562.27	63.19
562.44	93.62
562.60	70.22
562.77	58.51
562.93	72.56
563.10	49.15
563.26	58.51
563.42	28.09
563.59	98.30
563.75	25.75
563.92	95.96
564.08	156.82
564.24	37.45
564.41	70.22
564.57	0.00
564.74	79.58
564.90	65.54
565.07	0.00
565.23	67.88
565.39	35.11
565.56	0.00
565.72	44.47
565.88	18.72
566.05	0.00
566.21	46.81
566.38	93.62
566.54	100.64
566.70	0.00
566.87	7.02
567.03	0.00
567.19	112.35
567.36	4.68
567.52	39.79
567.68	30.43
567.85	65.54
568.01	77.24
568.17	23.41
568.34	107.66
568.50	46.81
568.66	2.34
568.83	70.22
568.99	25.75
569.15	93.62
569.32	95.96
569.48	77.24
569.64	72.56
569.81	56.17
569.97	2.34
570.13	0.00
570.30	21.06
570.46	0.00
570.62	77.24
570.78	46.81
570.95	39.79
571.11	0.00
571.27	28.09
571.43	74.90
571.60	0.00
571.76	11.70
571.92	30.43
572.09	30.43
572.25	105.32
572.41	0.00
572.57	39.79
572.74	32.77
572.90	44.47
573.06	49.15
573.22	39.79
573.38	37.45
573.55	77.24
573.71	0.00
573.87	16.38
574.03	4.68
574.20	0.00
574.36	4.68
574.52	18.72
574.68	53.83
574.84	154.48
575.01	60.85
575.17	35.11
575.33	46.81
575.49	56.17
575.65	70.22
575.82	42.13
575.98	77.24
576.14	7.02
576.30	16.38
576.46	32.77
576.62	46.81
576.79	9.36
576.95	79.58
577.11	0.00
577.27	23.41
577.43	77.24
577.59	14.04
577.75	65.54
577.92	39.79
578.08	102.98
578.24	25.75
578.40	63.19
578.56	81.92
578.72	0.00
578.88	0.00
579.04	86.60
579.21	46.81
579.37	25.75
579.53	84.26
579.69	60.85
579.85	23.41
580.01	30.43
580.17	56.17
580.33	0.00
580.49	42.13
580.65	0.00
580.82	2.34
580.98	88.94
581.14	53.83
581.30	72.56
581.46	37.45
581.62	44.47
581.78	107.66
581.94	77.24
582.10	23.41
582.26	0.00
582.42	30.43
582.58	25.75
582.74	35.11
582.90	7.02
583.06	0.00
583.22	79.58
583.38	51.49
583.54	77.24
583.70	60.85
583.86	39.79
584.02	16.38
584.18	65.54
584.34	39.79
584.50	0.00
584.66	220.01
584.82	248.10
584.98	292.57
585.14	290.23
585.30	318.31
585.46	133.41
585.62	135.75
585.78	98.30
585.94	81.92
586.10	39.79
586.26	0.00
586.42	4.68
586.58	42.13
586.74	39.79
586.90	81.92
587.06	70.22
587.22	23.41
587.38	102.98
587.54	60.85
587.70	46.81
587.86	9.36
588.02	37.45
588.18	86.60
588.34	105.32
588.49	0.00
588.65	46.81
588.81	0.00
588.97	9.36
589.13	11.70
589.29	30.43
589.45	16.38
589.61	9.36
589.77	7.02
589.93	0.00
590.08	0.00
590.24	0.00
590.40	0.00
590.56	67.88
590.72	60.85
590.88	30.43
591.04	63.19
591.20	74.90
591.35	46.81
591.51	79.58
591.67	32.77
591.83	74.90
591.99	58.51
592.15	70.22
592.31	58.51
592.46	49.15
592.62	0.00
592.78	77.24
592.94	56.17
593.10	67.88
593.26	23.41
593.41	49.15
593.57	65.54
593.73	42.13
593.89	0.00
594.05	56.17
594.20	98.30
594.36	156.82
594.52	37.45
594.68	56.17
594.84	28.09
594.99	32.77
595.15	39.79
595.31	63.19
595.47	37.45
595.62	7.02
595.78	25.75
595.94	105.32
596.10	42.13
596.25	60.85
596.41	4.68
596.57	0.00
596.73	53.83
596.88	7.02
597.04	81.92
597.20	0.00
597.36	51.49
597.51	56.17
597.67	23.41
597.83	0.00
597.99	21.06
598.14	25.75
598.30	46.81
598.46	25.75
598.61	70.22
598.77	39.79
598.93	46.81
599.09	131.07
599.24	32.77
599.40	65.54
599.56	21.06
599.71	117.03
599.87	23.41
600.03	4.68
600.18	74.90
600.34	65.54
600.50	7.02
600.65	65.54
600.81	60.85
600.97	86.60
601.12	2.34
601.28	25.75
601.44	0.00
601.59	39.79
601.75	88.94
601.91	0.00
602.06	70.22
602.22	67.88
602.37	30.43
602.53	0.00
602.69	70.22
602.84	28.09
603.00	23.41
603.16	0.00
603.31	102.98
603.47	77.24
603.62	46.81
603.78	98.30
603.94	0.00
604.09	51.49
604.25	0.00
604.40	91.28
604.56	0.00
604.71	16.38
604.87	2.34
605.03	0.00
605.18	18.72
605.34	72.56
605.49	49.15
605.65	0.00
605.80	42.13
605.96	0.00
606.12	72.56
606.27	46.81
606.43	2.34
606.58	0.00
606.74	93.62
606.89	79.58
607.05	63.19
607.20	147.45
607.36	53.83
607.51	37.45
607.67	16.38
607.82	112.35
607.98	72.56
608.13	56.17
608.29	16.38
608.44	0.00
608.60	77.24
608.75	0.00
608.91	95.96
609.06	46.81
609.22	79.58
609.37	72.56
609.53	39.79
609.68	44.47
609.84	74.90
609.99	51.49
610.15	98.30
610.30	56.17
610.46	0.00
610.61	0.00
610.76	11.70
610.92	60.85
611.07	56.17
611.23	23.41
611.38	0.00
611.54	0.00
611.69	0.00
611.84	42.13
612.00	56.17
612.15	35.11
612.31	72.56
612.46	14.04
612.62	65.54
612.77	32.77
612.92	9.36
613.08	11.70
613.23	93.62
613.39	51.49
613.54	49.15
613.69	135.75
613.85	70.22
614.00	93.62
614.15	88.94
614.31	63.19
614.46	117.03
614.62	117.03
614.77	39.79
614.92	46.81
615.08	49.15
615.23	32.77
615.38	67.88
615.54	35.11
615.69	58.51
615.84	11.70
616.00	53.83
616.15	58.51
616.30	74.90
616.46	16.38
616.61	95.96
616.76	128.73
616.92	84.26
617.07	25.75
617.22	21.06
617.37	0.00
617.53	9.36
617.68	0.00
617.83	42.13
617.99	4.68
618.14	18.72
618.29	0.00
618.45	58.51
618.60	32.77
618.75	28.09
618.90	0.00
619.06	37.45
619.21	60.85
619.36	28.09
619.51	30.43
619.67	23.41
619.82	18.72
619.97	58.51
620.12	44.47
620.28	37.45
620.43	74.90
620.58	42.13
620.73	79.58
620.89	9.36
621.04	0.00
621.19	138.09
621.34	100.64
621.49	37.45
621.65	53.83
621.80	49.15
621.95	56.17
622.10	44.47
622.25	63.19
622.41	56.17
622.56	18.72
622.71	4.68
622.86	58.51
623.01	77.24
623.16	51.49
623.32	53.83
623.47	4.68
623.62	30.43
623.77	37.45
623.92	56.17
624.07	37.45
624.23	81.92
624.38	0.00
624.53	28.09
624.68	21.06
624.83	58.51
624.98	93.62
625.13	0.00
625.29	46.81
625.44	60.85
625.59	28.09
625.74	28.09
625.89	35.11
626.04	56.17
626.19	74.90
626.34	93.62
626.49	35.11
626.65	119.37
626.80	53.83
626.95	72.56
627.10	51.49
627.25	30.43
627.40	30.43
627.55	42.13
627.70	18.72
627.85	77.24
628.00	79.58
628.15	0.00
628.30	49.15
628.45	58.51
628.60	14.04
628.76	4.68
628.91	77.24
629.06	0.00
629.21	74.90
629.36	72.56
629.51	0.00
629.66	2.34
629.81	49.15
629.96	0.00
630.11	42.13
630.26	32.77
630.41	16.38
630.56	100.64
630.71	30.43
630.86	0.00
631.01	42.13
631.16	93.62
631.31	56.17
631.46	2.34
631.61	98.30
631.76	81.92
631.91	4.68
632.06	16.38
632.21	18.72
632.36	60.85
632.51	42.13
632.66	72.56
632.81	81.92
632.96	98.30
633.10	49.15
633.25	152.13
633.40	65.54
633.55	0.00
633.70	58.51
633.85	100.64
634.00	32.77
634.15	84.26
634.30	74.90
634.45	98.30
634.60	39.79
634.75	98.30
634.90	140.43
635.05	0.00
635.19	9.36
635.34	81.92
635.49	58.51
635.64	49.15
635.79	18.72
635.94	74.90
636.09	23.41
636.24	114.69
636.39	117.03
636.53	14.04
636.68	72.56
636.83	30.43
636.98	42.13
637.13	44.47
637.28	21.06
637.43	42.13
637.57	0.00
637.72	0.00
637.87	119.37
638.02	124.05
638.17	128.73
638.32	93.62
638.46	117.03
638.61	65.54
638.76	30.43
638.91	56.17
639.06	42.13
639.20	14.04
639.35	21.06
639.50	35.11
639.65	117.03
639.80	133.41
639.94	86.60
640.09	84.26
640.24	72.56
640.39	37.45
640.54	63.19
640.68	100.64
640.83	0.00
640.98	0.00
641.13	0.00
641.27	32.77
641.42	18.72
641.57	0.00
641.72	28.09
641.86	86.60
642.01	7.02
642.16	63.19
642.31	67.88
642.45	4.68
642.60	42.13
642.75	77.24
642.90	42.13
643.04	49.15
643.19	60.85
643.34	60.85
643.48	86.60
643.63	60.85
643.78	63.19
643.93	58.51
644.07	42.13
644.22	28.09
644.37	44.47
644.51	0.00
644.66	44.47
644.81	37.45
644.95	39.79
645.10	2.34
645.25	65.54
645.39	30.43
645.54	25.75
645.69	18.72
645.83	30.43
645.98	4.68
646.13	14.04
646.27	14.04
646.42	117.03
646.57	86.60
646.71	72.56
646.86	79.58
647.00	4.68
647.15	46.81
647.30	0.00
647.44	39.79
647.59	18.72
647.74	0.00
647.88	0.00
648.03	28.09
648.17	46.81
648.32	0.00
648.47	58.51
648.61	7.02
648.76	51.49
648.90	51.49
649.05	25.75
649.20	44.47
649.34	16.38
649.49	4.68
649.63	0.00
649.78	0.00
649.92	35.11
650.07	37.45
650.21	0.00
650.36	95.96
650.51	77.24
650.65	154.48
650.80	86.60
650.94	18.72
651.09	107.66
651.23	51.49
651.38	70.22
651.52	56.17
651.67	70.22
651.81	23.41
651.96	67.88
652.10	0.00
652.25	0.00
652.39	119.37
652.54	74.90
652.68	7.02
652.83	0.00
652.97	39.79
653.12	14.04
653.26	25.75
653.41	91.28
653.55	67.88
653.70	0.00
653.84	79.58
653.99	39.79
654.13	32.77
654.27	32.77
654.42	35.11
654.56	37.45
654.71	25.75
654.85	44.47
655.00	79.58
655.14	28.09
655.29	84.26
655.43	105.32
655.57	0.00
655.72	60.85
655.86	84.26
656.01	0.00
656.15	91.28
656.30	107.66
656.44	35.11
656.58	2.34
656.73	11.70
656.87	0.00
657.01	23.41
657.16	0.00
657.30	21.06
657.45	11.70
657.59	4.68
657.73	0.00
657.88	9.36
658.02	35.11
658.16	14.04
658.31	49.15
658.45	0.00
658.60	32.77
658.74	0.00
658.88	70.22
659.03	21.06
659.17	9.36
659.31	79.58
659.46	119.37
659.60	44.47
659.74	79.58
659.89	44.47
660.03	121.71
660.17	0.00
660.32	0.00
660.46	95.96
660.60	0.00
660.74	21.06
660.89	9.36
661.03	39.79
661.17	58.51
661.32	84.26
661.46	67.88
661.60	60.85
661.74	0.00
661.89	51.49
662.03	16.38
662.17	25.75
662.31	42.13
662.46	11.70
662.60	0.00
662.74	0.00
662.88	16.38
663.03	0.00
663.17	70.22
663.31	0.00
663.45	14.04
663.60	0.00
663.74	0.00
663.88	9.36
664.02	14.04
664.17	39.79
664.31	21.06
664.45	4.68
664.59	79.58
664.73	46.81
664.88	49.15
665.02	49.15
665.16	49.15
665.30	44.47
665.44	0.00
665.59	65.54
665.73	53.83
665.87	51.49
666.01	39.79
666.15	0.00
666.29	23.41
666.44	18.72
666.58	72.56
666.72	65.54
666.86	51.49
667.00	0.00
667.14	4.68
667.28	35.11
667.43	42.13
667.57	65.54
667.71	70.22
667.85	79.58
667.99	79.58
668.13	0.00
668.27	42.13
668.41	18.72
668.56	72.56
668.70	0.00
668.84	0.00
668.98	14.04
669.12	4.68
669.26	9.36
669.40	21.06
669.54	35.11
669.68	0.00
669.82	56.17
669.96	0.00
670.10	21.06
670.25	35.11
670.39	65.54
670.53	84.26
670.67	84.26
670.81	0.00
670.95	14.04
671.09	39.79
671.23	74.90
671.37	60.85
671.51	37.45
671.65	84.26
671.79	67.88
671.93	9.36
672.07	0.00
672.21	32.77
672.35	124.05
672.49	49.15
672.63	77.24
672.77	0.00
672.91	35.11
673.05	39.79
673.19	35.11
673.33	42.13
673.47	81.92
673.61	51.49
673.75	2.34
673.89	37.45
674.03	81.92
674.17	42.13
674.31	4.68
674.45	21.06
674.59	16.38
674.73	114.69
674.87	4.68
675.01	0.00
675.15	9.36
675.29	58.51
675.43	25.75
675.56	0.00
675.70	39.79
675.84	0.00
675.98	16.38
676.12	0.00
676.26	49.15
676.40	0.00
676.54	25.75
676.68	42.13
676.82	72.56
676.96	42.13
677.10	81.92
677.23	28.09
677.37	0.00
677.51	0.00
677.65	30.43
677.79	23.41
677.93	42.13
678.07	0.00
678.21	39.79
678.34	65.54
678.48	58.51
678.62	9.36
678.76	42.13
678.90	63.19
679.04	9.36
679.18	86.60
679.31	77.24
679.45	53.83
679.59	0.00
679.73	53.83
679.87	18.72
680.00	37.45
680.14	70.22
680.28	58.51
680.42	56.17
680.56	2.34
680.70	39.79
680.83	46.81
680.97	16.38
681.11	58.51
681.25	95.96
681.39	28.09
681.52	53.83
681.66	0.00
681.80	0.00
681.94	56.17
682.07	51.49
682.21	0.00
682.35	0.00
682.49	37.45
682.62	0.00
682.76	0.00
682.90	37.45
683.04	9.36
683.17	9.36
683.31	0.00
683.45	0.00
683.59	11.70
683.72	7.02
683.86	91.28
684.00	23.41
684.13	21.06
684.27	102.98
684.41	93.62
684.55	30.43
684.68	28.09
684.82	14.04
684.96	65.54
685.09	39.79
685.23	91.28
685.37	37.45
685.50	0.00
685.64	39.79
685.78	65.54
685.91	16.38
686.05	0.00
686.19	0.00
686.32	37.45
686.46	102.98
686.60	4.68
686.73	0.00
686.87	77.24
687.01	16.38
687.14	0.00
687.28	51.49
687.42	42.13
687.55	44.47
687.69	110.01
687.82	28.09
687.96	0.00
688.10	0.00
688.23	14.04
688.37	0.00
688.50	70.22
688.64	35.11
688.78	39.79
688.91	0.00
689.05	9.36
689.18	49.15
689.32	37.45
689.46	0.00
689.59	0.00
689.73	25.75
689.86	0.00
690.00	0.00
690.13	18.72
690.27	133.41
690.41	42.13
690.54	14.04
690.68	51.49
690.81	0.00
690.95	32.77
691.08	35.11
691.22	37.45
691.35	4.68
691.49	28.09
691.62	0.00
691.76	14.04
691.89	93.62
692.03	77.24
692.16	0.00
692.30	4.68
692.43	49.15
692.57	39.79
692.70	37.45
692.84	32.77
692.97	0.00
693.11	63.19
693.24	44.47
693.38	21.06
693.51	72.56
693.65	23.41
693.78	0.00
693.92	0.00
694.05	18.72
694.19	42.13
694.32	0.00
694.45	0.00
694.59	65.54
694.72	4.68
694.86	74.90
694.99	56.17
695.13	0.00
695.26	16.38
695.39	0.00
695.53	11.70
695.66	32.77
695.80	46.81
695.93	21.06
696.07	53.83
696.20	14.04
696.33	18.72
696.47	0.00
696.60	28.09
696.73	16.38
696.87	28.09
697.00	60.85
697.14	79.58
697.27	58.51
697.40	37.45
697.54	53.83
697.67	0.00
697.80	18.72
697.94	7.02
698.07	0.00
698.21	49.15
698.34	70.22
698.47	0.00
698.61	14.04
698.74	0.00
698.87	0.00
699.01	72.56
699.14	63.19
699.27	30.43
699.40	0.00
699.54	0.00
699.67	28.09
699.80	70.22
699.94	42.13
700.07	18.72
700.20	49.15
700.34	9.36
700.47	51.49
700.60	44.47
700.73	98.30
700.87	0.00
701.00	7.02
701.13	53.83
701.26	51.49
701.40	0.00
701.53	35.11
701.66	18.72
701.79	49.15
701.93	91.28
702.06	21.06
702.19	0.00
702.32	30.43
702.46	0.00
702.59	23.41
702.72	4.68
702.85	21.06
702.99	30.43
703.12	72.56
703.25	53.83
703.38	72.56
703.51	60.85
703.65	0.00
703.78	56.17
703.91	0.00
704.04	0.00
704.17	0.00
704.31	30.43
704.44	0.00
704.57	11.70
704.70	7.02
704.83	0.00
704.96	25.75
705.10	23.41
705.23	42.13
>>>>>End Processed Spectral Data<<<<<
