SpectraSuite Data File
++++++++++++++++++++++++++++++++++++
Date: Fri Oct 04 12:13:44 GMT-05:00 2013
User: price-jones
Dark Spectrum Present: No
Reference Spectrum Present: No
Number of Sampled Component Spectra: 1
Spectrometers: USB2+H05261
Integration Time (usec): 10000 (USB2+H05261)
Spectra Averaged: 1 (USB2+H05261)
Boxcar Smoothing: 0 (USB2+H05261)
Correct for Electrical Dark: No (USB2+H05261)
Strobe/Lamp Enabled: No (USB2+H05261)
Correct for Detector Non-linearity: No (USB2+H05261)
Correct for Stray Light: No (USB2+H05261)
Number of Pixels in Processed Spectrum: 2048
>>>>>Begin Processed Spectral Data<<<<<
365.73	0.00
365.92	0.00
366.12	0.00
366.32	0.00
366.52	0.00
366.72	0.00
366.91	0.00
367.11	0.00
367.31	0.00
367.51	0.00
367.70	0.00
367.90	0.00
368.10	0.00
368.30	0.00
368.49	0.00
368.69	0.00
368.89	0.00
369.09	0.00
369.28	0.00
369.48	0.00
369.68	0.00
369.87	0.00
370.07	0.00
370.27	0.00
370.47	0.00
370.66	0.00
370.86	16.38
371.06	0.00
371.25	0.00
371.45	0.00
371.65	0.00
371.84	23.41
372.04	0.00
372.24	0.00
372.44	14.04
372.63	35.11
372.83	58.51
373.03	93.62
373.22	81.92
373.42	102.98
373.62	67.88
373.81	14.04
374.01	0.00
374.21	39.79
374.40	88.94
374.60	0.00
374.79	51.49
374.99	4.68
375.19	0.00
375.38	9.36
375.58	0.00
375.78	0.00
375.97	4.68
376.17	30.43
376.37	67.88
376.56	67.88
376.76	49.15
376.95	30.43
377.15	81.92
377.35	32.77
377.54	110.01
377.74	0.00
377.93	51.49
378.13	4.68
378.33	107.66
378.52	0.00
378.72	11.70
378.91	9.36
379.11	65.54
379.31	72.56
379.50	42.13
379.70	51.49
379.89	0.00
380.09	39.79
380.28	32.77
380.48	35.11
380.68	18.72
380.87	0.00
381.07	0.00
381.26	0.00
381.46	58.51
381.65	0.00
381.85	0.00
382.04	2.34
382.24	0.00
382.43	14.04
382.63	46.81
382.83	79.58
383.02	0.00
383.22	0.00
383.41	18.72
383.61	28.09
383.80	23.41
384.00	11.70
384.19	53.83
384.39	25.75
384.58	35.11
384.78	0.00
384.97	37.45
385.17	0.00
385.36	0.00
385.56	0.00
385.75	16.38
385.95	16.38
386.14	65.54
386.34	0.00
386.53	0.00
386.72	0.00
386.92	0.00
387.11	95.96
387.31	0.00
387.50	7.02
387.70	46.81
387.89	0.00
388.09	44.47
388.28	25.75
388.48	30.43
388.67	14.04
388.86	0.00
389.06	39.79
389.25	74.90
389.45	0.00
389.64	0.00
389.84	23.41
390.03	0.00
390.22	0.00
390.42	0.00
390.61	25.75
390.81	0.00
391.00	37.45
391.19	30.43
391.39	81.92
391.58	35.11
391.78	0.00
391.97	67.88
392.16	21.06
392.36	39.79
392.55	0.00
392.75	63.19
392.94	0.00
393.13	93.62
393.33	53.83
393.52	30.43
393.71	4.68
393.91	23.41
394.10	74.90
394.29	0.00
394.49	77.24
394.68	42.13
394.88	0.00
395.07	2.34
395.26	53.83
395.46	0.00
395.65	39.79
395.84	86.60
396.04	0.00
396.23	32.77
396.42	51.49
396.62	95.96
396.81	23.41
397.00	0.00
397.19	4.68
397.39	37.45
397.58	32.77
397.77	49.15
397.97	9.36
398.16	0.00
398.35	0.00
398.55	23.41
398.74	58.51
398.93	0.00
399.12	32.77
399.32	0.00
399.51	0.00
399.70	0.00
399.90	70.22
400.09	79.58
400.28	0.00
400.47	28.09
400.67	100.64
400.86	72.56
401.05	70.22
401.24	77.24
401.44	49.15
401.63	25.75
401.82	67.88
402.01	74.90
402.21	0.00
402.40	25.75
402.59	0.00
402.78	0.00
402.97	42.13
403.17	42.13
403.36	39.79
403.55	72.56
403.74	39.79
403.93	0.00
404.13	30.43
404.32	91.28
404.51	67.88
404.70	35.11
404.89	9.36
405.09	46.81
405.28	77.24
405.47	11.70
405.66	35.11
405.85	25.75
406.05	58.51
406.24	0.00
406.43	49.15
406.62	46.81
406.81	0.00
407.00	16.38
407.20	39.79
407.39	100.64
407.58	51.49
407.77	67.88
407.96	88.94
408.15	60.85
408.34	14.04
408.54	18.72
408.73	11.70
408.92	21.06
409.11	0.00
409.30	77.24
409.49	2.34
409.68	84.26
409.87	14.04
410.07	0.00
410.26	58.51
410.45	56.17
410.64	42.13
410.83	63.19
411.02	51.49
411.21	39.79
411.40	18.72
411.59	0.00
411.78	30.43
411.98	88.94
412.17	128.73
412.36	0.00
412.55	72.56
412.74	56.17
412.93	91.28
413.12	28.09
413.31	77.24
413.50	0.00
413.69	56.17
413.88	23.41
414.07	30.43
414.26	30.43
414.45	46.81
414.64	63.19
414.83	49.15
415.02	63.19
415.22	84.26
415.41	72.56
415.60	39.79
415.79	60.85
415.98	65.54
416.17	58.51
416.36	86.60
416.55	70.22
416.74	0.00
416.93	44.47
417.12	30.43
417.31	7.02
417.50	65.54
417.69	39.79
417.88	14.04
418.07	126.39
418.26	0.00
418.45	0.00
418.64	30.43
418.83	65.54
419.02	65.54
419.21	86.60
419.39	23.41
419.58	18.72
419.77	0.00
419.96	23.41
420.15	28.09
420.34	16.38
420.53	0.00
420.72	18.72
420.91	7.02
421.10	21.06
421.29	7.02
421.48	28.09
421.67	74.90
421.86	51.49
422.05	37.45
422.24	23.41
422.43	2.34
422.61	46.81
422.80	74.90
422.99	0.00
423.18	49.15
423.37	39.79
423.56	100.64
423.75	72.56
423.94	70.22
424.13	63.19
424.32	0.00
424.50	98.30
424.69	18.72
424.88	49.15
425.07	65.54
425.26	77.24
425.45	18.72
425.64	0.00
425.83	14.04
426.01	63.19
426.20	28.09
426.39	114.69
426.58	91.28
426.77	9.36
426.96	32.77
427.15	51.49
427.33	30.43
427.52	58.51
427.71	77.24
427.90	74.90
428.09	84.26
428.28	0.00
428.46	51.49
428.65	42.13
428.84	63.19
429.03	11.70
429.22	11.70
429.40	4.68
429.59	91.28
429.78	28.09
429.97	4.68
430.16	79.58
430.34	30.43
430.53	88.94
430.72	0.00
430.91	9.36
431.10	46.81
431.28	4.68
431.47	30.43
431.66	4.68
431.85	86.60
432.03	63.19
432.22	81.92
432.41	67.88
432.60	42.13
432.79	74.90
432.97	81.92
433.16	60.85
433.35	35.11
433.54	88.94
433.72	88.94
433.91	95.96
434.10	51.49
434.28	56.17
434.47	88.94
434.66	9.36
434.85	88.94
435.03	21.06
435.22	14.04
435.41	121.71
435.59	70.22
435.78	65.54
435.97	16.38
436.16	88.94
436.34	35.11
436.53	0.00
436.72	35.11
436.90	95.96
437.09	0.00
437.28	39.79
437.46	74.90
437.65	46.81
437.84	98.30
438.02	23.41
438.21	0.00
438.40	21.06
438.58	93.62
438.77	44.47
438.96	67.88
439.14	46.81
439.33	46.81
439.52	7.02
439.70	72.56
439.89	9.36
440.08	21.06
440.26	28.09
440.45	0.00
440.63	60.85
440.82	4.68
441.01	46.81
441.19	46.81
441.38	0.00
441.57	0.00
441.75	0.00
441.94	81.92
442.12	42.13
442.31	67.88
442.50	84.26
442.68	63.19
442.87	18.72
443.05	28.09
443.24	39.79
443.43	74.90
443.61	28.09
443.80	28.09
443.98	131.07
444.17	37.45
444.35	77.24
444.54	7.02
444.73	70.22
444.91	0.00
445.10	11.70
445.28	16.38
445.47	100.64
445.65	114.69
445.84	53.83
446.02	44.47
446.21	58.51
446.39	14.04
446.58	74.90
446.77	49.15
446.95	0.00
447.14	37.45
447.32	18.72
447.51	58.51
447.69	0.00
447.88	46.81
448.06	93.62
448.25	56.17
448.43	9.36
448.62	72.56
448.80	35.11
448.99	11.70
449.17	39.79
449.36	72.56
449.54	37.45
449.73	105.32
449.91	84.26
450.10	114.69
450.28	58.51
450.46	117.03
450.65	81.92
450.83	65.54
451.02	53.83
451.20	65.54
451.39	30.43
451.57	93.62
451.76	79.58
451.94	0.00
452.13	67.88
452.31	4.68
452.49	21.06
452.68	37.45
452.86	21.06
453.05	100.64
453.23	74.90
453.42	60.85
453.60	72.56
453.78	25.75
453.97	70.22
454.15	35.11
454.34	18.72
454.52	65.54
454.70	107.66
454.89	86.60
455.07	74.90
455.26	84.26
455.44	105.32
455.62	0.00
455.81	14.04
455.99	79.58
456.17	63.19
456.36	65.54
456.54	77.24
456.73	0.00
456.91	91.28
457.09	25.75
457.28	58.51
457.46	51.49
457.64	0.00
457.83	86.60
458.01	28.09
458.19	77.24
458.38	60.85
458.56	32.77
458.74	0.00
458.93	84.26
459.11	91.28
459.29	0.00
459.48	23.41
459.66	53.83
459.84	53.83
460.03	9.36
460.21	95.96
460.39	0.00
460.57	72.56
460.76	35.11
460.94	56.17
461.12	0.00
461.31	14.04
461.49	65.54
461.67	98.30
461.85	119.37
462.04	0.00
462.22	81.92
462.40	28.09
462.59	67.88
462.77	37.45
462.95	16.38
463.13	131.07
463.32	81.92
463.50	67.88
463.68	70.22
463.86	37.45
464.05	77.24
464.23	67.88
464.41	81.92
464.59	16.38
464.78	53.83
464.96	37.45
465.14	133.41
465.32	102.98
465.50	42.13
465.69	0.00
465.87	0.00
466.05	131.07
466.23	65.54
466.41	79.58
466.60	56.17
466.78	32.77
466.96	25.75
467.14	39.79
467.32	51.49
467.51	0.00
467.69	46.81
467.87	102.98
468.05	88.94
468.23	14.04
468.41	49.15
468.60	25.75
468.78	100.64
468.96	44.47
469.14	102.98
469.32	81.92
469.50	93.62
469.69	16.38
469.87	49.15
470.05	44.47
470.23	32.77
470.41	88.94
470.59	79.58
470.77	9.36
470.95	2.34
471.14	0.00
471.32	67.88
471.50	23.41
471.68	0.00
471.86	74.90
472.04	35.11
472.22	23.41
472.40	65.54
472.58	93.62
472.77	84.26
472.95	107.66
473.13	21.06
473.31	9.36
473.49	30.43
473.67	154.48
473.85	74.90
474.03	56.17
474.21	21.06
474.39	53.83
474.57	44.47
474.75	77.24
474.93	63.19
475.12	4.68
475.30	0.00
475.48	2.34
475.66	86.60
475.84	124.05
476.02	53.83
476.20	58.51
476.38	9.36
476.56	119.37
476.74	56.17
476.92	93.62
477.10	117.03
477.28	74.90
477.46	77.24
477.64	37.45
477.82	4.68
478.00	28.09
478.18	105.32
478.36	95.96
478.54	30.43
478.72	32.77
478.90	0.00
479.08	2.34
479.26	21.06
479.44	39.79
479.62	49.15
479.80	46.81
479.98	0.00
480.16	0.00
480.34	65.54
480.52	77.24
480.70	56.17
480.88	23.41
481.06	51.49
481.24	65.54
481.41	0.00
481.59	0.00
481.77	9.36
481.95	21.06
482.13	53.83
482.31	65.54
482.49	39.79
482.67	0.00
482.85	65.54
483.03	72.56
483.21	23.41
483.39	119.37
483.57	74.90
483.74	88.94
483.92	98.30
484.10	18.72
484.28	74.90
484.46	9.36
484.64	74.90
484.82	112.35
485.00	79.58
485.18	56.17
485.35	0.00
485.53	25.75
485.71	11.70
485.89	18.72
486.07	28.09
486.25	152.13
486.43	44.47
486.61	30.43
486.78	0.00
486.96	93.62
487.14	86.60
487.32	0.00
487.50	25.75
487.68	0.00
487.85	60.85
488.03	16.38
488.21	35.11
488.39	95.96
488.57	74.90
488.75	18.72
488.92	60.85
489.10	0.00
489.28	112.35
489.46	131.07
489.64	18.72
489.81	46.81
489.99	79.58
490.17	100.64
490.35	88.94
490.53	14.04
490.70	93.62
490.88	9.36
491.06	93.62
491.24	11.70
491.41	72.56
491.59	100.64
491.77	74.90
491.95	65.54
492.13	117.03
492.30	107.66
492.48	149.79
492.66	98.30
492.84	65.54
493.01	67.88
493.19	88.94
493.37	77.24
493.54	81.92
493.72	16.38
493.90	65.54
494.08	72.56
494.25	42.13
494.43	138.09
494.61	121.71
494.79	42.13
494.96	86.60
495.14	35.11
495.32	25.75
495.49	63.19
495.67	58.51
495.85	149.79
496.02	18.72
496.20	84.26
496.38	53.83
496.55	70.22
496.73	93.62
496.91	79.58
497.09	56.17
497.26	51.49
497.44	86.60
497.62	107.66
497.79	30.43
497.97	84.26
498.14	91.28
498.32	44.47
498.50	65.54
498.67	42.13
498.85	0.00
499.03	70.22
499.20	110.01
499.38	79.58
499.56	9.36
499.73	44.47
499.91	37.45
500.08	114.69
500.26	56.17
500.44	74.90
500.61	49.15
500.79	119.37
500.97	51.49
501.14	18.72
501.32	93.62
501.49	81.92
501.67	84.26
501.84	16.38
502.02	4.68
502.20	74.90
502.37	95.96
502.55	35.11
502.72	77.24
502.90	124.05
503.07	98.30
503.25	53.83
503.43	0.00
503.60	102.98
503.78	79.58
503.95	51.49
504.13	0.00
504.30	147.45
504.48	149.79
504.65	88.94
504.83	51.49
505.01	70.22
505.18	93.62
505.36	4.68
505.53	105.32
505.71	35.11
505.88	107.66
506.06	95.96
506.23	88.94
506.41	67.88
506.58	0.00
506.76	51.49
506.93	74.90
507.11	93.62
507.28	110.01
507.46	51.49
507.63	44.47
507.81	51.49
507.98	18.72
508.16	121.71
508.33	63.19
508.50	93.62
508.68	140.43
508.85	65.54
509.03	35.11
509.20	79.58
509.38	95.96
509.55	100.64
509.73	142.77
509.90	44.47
510.08	7.02
510.25	49.15
510.42	58.51
510.60	60.85
510.77	149.79
510.95	32.77
511.12	65.54
511.30	93.62
511.47	35.11
511.64	105.32
511.82	16.38
511.99	42.13
512.17	84.26
512.34	100.64
512.51	32.77
512.69	39.79
512.86	119.37
513.04	135.75
513.21	84.26
513.38	9.36
513.56	53.83
513.73	81.92
513.90	102.98
514.08	49.15
514.25	135.75
514.43	25.75
514.60	91.28
514.77	4.68
514.95	117.03
515.12	21.06
515.29	131.07
515.47	56.17
515.64	119.37
515.81	147.45
515.99	30.43
516.16	79.58
516.33	65.54
516.51	77.24
516.68	16.38
516.85	79.58
517.03	107.66
517.20	60.85
517.37	105.32
517.54	58.51
517.72	65.54
517.89	81.92
518.06	72.56
518.24	63.19
518.41	98.30
518.58	107.66
518.75	70.22
518.93	77.24
519.10	70.22
519.27	56.17
519.45	77.24
519.62	53.83
519.79	46.81
519.96	65.54
520.14	21.06
520.31	128.73
520.48	91.28
520.65	63.19
520.83	72.56
521.00	131.07
521.17	102.98
521.34	70.22
521.52	65.54
521.69	142.77
521.86	63.19
522.03	121.71
522.20	28.09
522.38	30.43
522.55	110.01
522.72	88.94
522.89	119.37
523.07	49.15
523.24	30.43
523.41	131.07
523.58	39.79
523.75	98.30
523.92	74.90
524.10	145.11
524.27	81.92
524.44	56.17
524.61	74.90
524.78	70.22
524.96	177.88
525.13	51.49
525.30	63.19
525.47	65.54
525.64	60.85
525.81	140.43
525.98	60.85
526.16	74.90
526.33	91.28
526.50	70.22
526.67	84.26
526.84	21.06
527.01	91.28
527.18	98.30
527.36	0.00
527.53	28.09
527.70	60.85
527.87	49.15
528.04	126.39
528.21	105.32
528.38	84.26
528.55	42.13
528.72	14.04
528.89	126.39
529.07	49.15
529.24	16.38
529.41	49.15
529.58	88.94
529.75	84.26
529.92	84.26
530.09	63.19
530.26	98.30
530.43	107.66
530.60	23.41
530.77	39.79
530.94	46.81
531.11	119.37
531.28	84.26
531.46	65.54
531.63	51.49
531.80	86.60
531.97	25.75
532.14	30.43
532.31	102.98
532.48	37.45
532.65	77.24
532.82	32.77
532.99	100.64
533.16	72.56
533.33	119.37
533.50	58.51
533.67	147.45
533.84	58.51
534.01	70.22
534.18	23.41
534.35	0.00
534.52	28.09
534.69	42.13
534.86	72.56
535.03	16.38
535.20	105.32
535.37	112.35
535.54	86.60
535.71	74.90
535.88	51.49
536.05	32.77
536.22	102.98
536.38	65.54
536.55	72.56
536.72	100.64
536.89	86.60
537.06	93.62
537.23	53.83
537.40	88.94
537.57	74.90
537.74	88.94
537.91	14.04
538.08	4.68
538.25	44.47
538.42	84.26
538.59	84.26
538.75	70.22
538.92	84.26
539.09	88.94
539.26	42.13
539.43	79.58
539.60	142.77
539.77	86.60
539.94	91.28
540.11	14.04
540.28	46.81
540.44	86.60
540.61	0.00
540.78	131.07
540.95	32.77
541.12	70.22
541.29	49.15
541.46	121.71
541.62	86.60
541.79	119.37
541.96	0.00
542.13	60.85
542.30	16.38
542.47	95.96
542.63	58.51
542.80	74.90
542.97	32.77
543.14	18.72
543.31	37.45
543.48	98.30
543.64	16.38
543.81	161.50
543.98	67.88
544.15	72.56
544.32	86.60
544.48	35.11
544.65	126.39
544.82	159.16
544.99	42.13
545.16	84.26
545.32	95.96
545.49	95.96
545.66	9.36
545.83	65.54
546.00	56.17
546.16	63.19
546.33	119.37
546.50	79.58
546.67	14.04
546.83	135.75
547.00	156.82
547.17	98.30
547.34	30.43
547.50	63.19
547.67	0.00
547.84	37.45
548.00	30.43
548.17	126.39
548.34	81.92
548.51	126.39
548.67	72.56
548.84	65.54
549.01	93.62
549.18	60.85
549.34	65.54
549.51	35.11
549.68	51.49
549.84	0.00
550.01	53.83
550.18	91.28
550.34	102.98
550.51	81.92
550.68	133.41
550.84	67.88
551.01	102.98
551.18	7.02
551.34	135.75
551.51	67.88
551.68	21.06
551.84	65.54
552.01	42.13
552.18	81.92
552.34	77.24
552.51	93.62
552.68	35.11
552.84	25.75
553.01	14.04
553.18	72.56
553.34	72.56
553.51	117.03
553.67	95.96
553.84	91.28
554.01	37.45
554.17	2.34
554.34	84.26
554.51	159.16
554.67	110.01
554.84	32.77
555.00	79.58
555.17	79.58
555.33	49.15
555.50	46.81
555.67	77.24
555.83	65.54
556.00	140.43
556.16	135.75
556.33	88.94
556.50	154.48
556.66	70.22
556.83	58.51
556.99	70.22
557.16	110.01
557.32	28.09
557.49	70.22
557.65	28.09
557.82	114.69
557.98	70.22
558.15	58.51
558.32	53.83
558.48	149.79
558.65	42.13
558.81	42.13
558.98	93.62
559.14	39.79
559.31	131.07
559.47	102.98
559.64	72.56
559.80	72.56
559.97	72.56
560.13	72.56
560.30	28.09
560.46	131.07
560.63	149.79
560.79	81.92
560.96	154.48
561.12	25.75
561.29	65.54
561.45	95.96
561.61	133.41
561.78	93.62
561.94	100.64
562.11	53.83
562.27	126.39
562.44	131.07
562.60	86.60
562.77	149.79
562.93	128.73
563.10	102.98
563.26	0.00
563.42	63.19
563.59	133.41
563.75	67.88
563.92	147.45
564.08	138.09
564.24	91.28
564.41	84.26
564.57	100.64
564.74	35.11
564.90	60.85
565.07	112.35
565.23	32.77
565.39	49.15
565.56	46.81
565.72	70.22
565.88	70.22
566.05	84.26
566.21	9.36
566.38	135.75
566.54	79.58
566.70	49.15
566.87	39.79
567.03	84.26
567.19	7.02
567.36	37.45
567.52	65.54
567.68	100.64
567.85	51.49
568.01	88.94
568.17	128.73
568.34	114.69
568.50	56.17
568.66	56.17
568.83	53.83
568.99	112.35
569.15	2.34
569.32	46.81
569.48	46.81
569.64	53.83
569.81	28.09
569.97	18.72
570.13	163.84
570.30	93.62
570.46	42.13
570.62	2.34
570.78	70.22
570.95	0.00
571.11	81.92
571.27	117.03
571.43	32.77
571.60	30.43
571.76	81.92
571.92	110.01
572.09	187.24
572.25	0.00
572.41	72.56
572.57	11.70
572.74	70.22
572.90	51.49
573.06	93.62
573.22	23.41
573.38	44.47
573.55	105.32
573.71	44.47
573.87	14.04
574.03	53.83
574.20	63.19
574.36	30.43
574.52	63.19
574.68	0.00
574.84	42.13
575.01	98.30
575.17	107.66
575.33	100.64
575.49	9.36
575.65	126.39
575.82	44.47
575.98	18.72
576.14	170.86
576.30	110.01
576.46	95.96
576.62	46.81
576.79	67.88
576.95	95.96
577.11	23.41
577.27	149.79
577.43	14.04
577.59	93.62
577.75	98.30
577.92	58.51
578.08	114.69
578.24	49.15
578.40	32.77
578.56	79.58
578.72	56.17
578.88	35.11
579.04	44.47
579.21	72.56
579.37	44.47
579.53	147.45
579.69	67.88
579.85	58.51
580.01	72.56
580.17	30.43
580.33	46.81
580.49	46.81
580.65	84.26
580.82	131.07
580.98	14.04
581.14	81.92
581.30	46.81
581.46	72.56
581.62	88.94
581.78	124.05
581.94	119.37
582.10	67.88
582.26	56.17
582.42	77.24
582.58	79.58
582.74	72.56
582.90	117.03
583.06	102.98
583.22	117.03
583.38	58.51
583.54	86.60
583.70	67.88
583.86	93.62
584.02	37.45
584.18	0.00
584.34	9.36
584.50	121.71
584.66	138.09
584.82	95.96
584.98	110.01
585.14	119.37
585.30	60.85
585.46	51.49
585.62	72.56
585.78	88.94
585.94	81.92
586.10	42.13
586.26	67.88
586.42	110.01
586.58	67.88
586.74	56.17
586.90	105.32
587.06	39.79
587.22	102.98
587.38	0.00
587.54	0.00
587.70	14.04
587.86	93.62
588.02	18.72
588.18	114.69
588.34	81.92
588.49	32.77
588.65	23.41
588.81	39.79
588.97	16.38
589.13	0.00
589.29	32.77
589.45	65.54
589.61	49.15
589.77	30.43
589.93	53.83
590.08	21.06
590.24	53.83
590.40	9.36
590.56	28.09
590.72	105.32
590.88	119.37
591.04	79.58
591.20	0.00
591.35	79.58
591.51	0.00
591.67	70.22
591.83	37.45
591.99	7.02
592.15	49.15
592.31	124.05
592.46	86.60
592.62	98.30
592.78	18.72
592.94	14.04
593.10	100.64
593.26	46.81
593.41	91.28
593.57	107.66
593.73	72.56
593.89	98.30
594.05	77.24
594.20	14.04
594.36	0.00
594.52	2.34
594.68	70.22
594.84	58.51
594.99	156.82
595.15	70.22
595.31	74.90
595.47	35.11
595.62	95.96
595.78	147.45
595.94	77.24
596.10	25.75
596.25	49.15
596.41	51.49
596.57	51.49
596.73	70.22
596.88	63.19
597.04	11.70
597.20	16.38
597.36	49.15
597.51	7.02
597.67	70.22
597.83	42.13
597.99	14.04
598.14	74.90
598.30	93.62
598.46	53.83
598.61	42.13
598.77	37.45
598.93	18.72
599.09	0.00
599.24	74.90
599.40	74.90
599.56	0.00
599.71	30.43
599.87	37.45
600.03	63.19
600.18	91.28
600.34	46.81
600.50	58.51
600.65	81.92
600.81	65.54
600.97	74.90
601.12	4.68
601.28	149.79
601.44	23.41
601.59	7.02
601.75	58.51
601.91	84.26
602.06	91.28
602.22	32.77
602.37	46.81
602.53	88.94
602.69	0.00
602.84	49.15
603.00	95.96
603.16	70.22
603.31	60.85
603.47	60.85
603.62	0.00
603.78	56.17
603.94	58.51
604.09	110.01
604.25	25.75
604.40	102.98
604.56	28.09
604.71	119.37
604.87	65.54
605.03	70.22
605.18	25.75
605.34	42.13
605.49	44.47
605.65	56.17
605.80	51.49
605.96	131.07
606.12	98.30
606.27	63.19
606.43	9.36
606.58	102.98
606.74	86.60
606.89	30.43
607.05	44.47
607.20	126.39
607.36	65.54
607.51	65.54
607.67	14.04
607.82	0.00
607.98	93.62
608.13	63.19
608.29	84.26
608.44	63.19
608.60	14.04
608.75	2.34
608.91	114.69
609.06	49.15
609.22	72.56
609.37	18.72
609.53	95.96
609.68	42.13
609.84	93.62
609.99	65.54
610.15	72.56
610.30	74.90
610.46	110.01
610.61	53.83
610.76	16.38
610.92	114.69
611.07	91.28
611.23	117.03
611.38	74.90
611.54	131.07
611.69	0.00
611.84	49.15
612.00	0.00
612.15	86.60
612.31	72.56
612.46	42.13
612.62	7.02
612.77	16.38
612.92	70.22
613.08	7.02
613.23	84.26
613.39	14.04
613.54	14.04
613.69	74.90
613.85	65.54
614.00	30.43
614.15	60.85
614.31	42.13
614.46	49.15
614.62	77.24
614.77	67.88
614.92	0.00
615.08	16.38
615.23	28.09
615.38	60.85
615.54	86.60
615.69	56.17
615.84	51.49
616.00	53.83
616.15	7.02
616.30	21.06
616.46	46.81
616.61	135.75
616.76	46.81
616.92	49.15
617.07	58.51
617.22	7.02
617.37	70.22
617.53	88.94
617.68	58.51
617.83	39.79
617.99	32.77
618.14	93.62
618.29	7.02
618.45	37.45
618.60	0.00
618.75	56.17
618.90	70.22
619.06	77.24
619.21	102.98
619.36	70.22
619.51	81.92
619.67	58.51
619.82	0.00
619.97	70.22
620.12	44.47
620.28	56.17
620.43	39.79
620.58	42.13
620.73	112.35
620.89	30.43
621.04	35.11
621.19	70.22
621.34	25.75
621.49	0.00
621.65	7.02
621.80	7.02
621.95	65.54
622.10	42.13
622.25	60.85
622.41	42.13
622.56	37.45
622.71	63.19
622.86	53.83
623.01	51.49
623.16	74.90
623.32	100.64
623.47	46.81
623.62	117.03
623.77	112.35
623.92	86.60
624.07	95.96
624.23	65.54
624.38	88.94
624.53	60.85
624.68	102.98
624.83	60.85
624.98	0.00
625.13	46.81
625.29	25.75
625.44	51.49
625.59	102.98
625.74	37.45
625.89	65.54
626.04	91.28
626.19	79.58
626.34	98.30
626.49	60.85
626.65	37.45
626.80	16.38
626.95	58.51
627.10	18.72
627.25	81.92
627.40	53.83
627.55	7.02
627.70	37.45
627.85	39.79
628.00	44.47
628.15	0.00
628.30	37.45
628.45	124.05
628.60	77.24
628.76	25.75
628.91	35.11
629.06	58.51
629.21	67.88
629.36	49.15
629.51	35.11
629.66	28.09
629.81	51.49
629.96	18.72
630.11	65.54
630.26	46.81
630.41	35.11
630.56	98.30
630.71	51.49
630.86	77.24
631.01	0.00
631.16	60.85
631.31	46.81
631.46	0.00
631.61	58.51
631.76	49.15
631.91	119.37
632.06	51.49
632.21	74.90
632.36	70.22
632.51	0.00
632.66	95.96
632.81	58.51
632.96	58.51
633.10	74.90
633.25	74.90
633.40	63.19
633.55	74.90
633.70	30.43
633.85	0.00
634.00	77.24
634.15	4.68
634.30	72.56
634.45	44.47
634.60	7.02
634.75	65.54
634.90	60.85
635.05	51.49
635.19	37.45
635.34	39.79
635.49	114.69
635.64	18.72
635.79	110.01
635.94	51.49
636.09	51.49
636.24	102.98
636.39	86.60
636.53	98.30
636.68	72.56
636.83	56.17
636.98	98.30
637.13	72.56
637.28	126.39
637.43	2.34
637.57	98.30
637.72	67.88
637.87	49.15
638.02	53.83
638.17	2.34
638.32	77.24
638.46	58.51
638.61	107.66
638.76	126.39
638.91	79.58
639.06	53.83
639.20	0.00
639.35	114.69
639.50	74.90
639.65	121.71
639.80	67.88
639.94	44.47
640.09	65.54
640.24	0.00
640.39	53.83
640.54	0.00
640.68	84.26
640.83	56.17
640.98	124.05
641.13	79.58
641.27	93.62
641.42	88.94
641.57	105.32
641.72	72.56
641.86	63.19
642.01	0.00
642.16	91.28
642.31	58.51
642.45	0.00
642.60	11.70
642.75	81.92
642.90	32.77
643.04	46.81
643.19	74.90
643.34	42.13
643.48	65.54
643.63	84.26
643.78	37.45
643.93	81.92
644.07	0.00
644.22	4.68
644.37	42.13
644.51	117.03
644.66	63.19
644.81	0.00
644.95	65.54
645.10	88.94
645.25	65.54
645.39	49.15
645.54	105.32
645.69	11.70
645.83	0.00
645.98	56.17
646.13	110.01
646.27	81.92
646.42	0.00
646.57	107.66
646.71	42.13
646.86	98.30
647.00	35.11
647.15	21.06
647.30	65.54
647.44	98.30
647.59	72.56
647.74	86.60
647.88	72.56
648.03	84.26
648.17	56.17
648.32	74.90
648.47	0.00
648.61	84.26
648.76	30.43
648.90	91.28
649.05	49.15
649.20	4.68
649.34	70.22
649.49	21.06
649.63	39.79
649.78	56.17
649.92	60.85
650.07	91.28
650.21	74.90
650.36	7.02
650.51	39.79
650.65	84.26
650.80	105.32
650.94	35.11
651.09	56.17
651.23	81.92
651.38	110.01
651.52	58.51
651.67	44.47
651.81	58.51
651.96	65.54
652.10	16.38
652.25	30.43
652.39	18.72
652.54	58.51
652.68	32.77
652.83	110.01
652.97	77.24
653.12	72.56
653.26	72.56
653.41	0.00
653.55	11.70
653.70	42.13
653.84	7.02
653.99	37.45
654.13	39.79
654.27	32.77
654.42	74.90
654.56	63.19
654.71	0.00
654.85	58.51
655.00	21.06
655.14	14.04
655.29	67.88
655.43	58.51
655.57	93.62
655.72	100.64
655.86	112.35
656.01	37.45
656.15	88.94
656.30	77.24
656.44	93.62
656.58	0.00
656.73	30.43
656.87	49.15
657.01	72.56
657.16	42.13
657.30	14.04
657.45	98.30
657.59	32.77
657.73	46.81
657.88	42.13
658.02	0.00
658.16	70.22
658.31	65.54
658.45	28.09
658.60	30.43
658.74	72.56
658.88	74.90
659.03	37.45
659.17	51.49
659.31	95.96
659.46	11.70
659.60	98.30
659.74	0.00
659.89	30.43
660.03	63.19
660.17	39.79
660.32	0.00
660.46	86.60
660.60	49.15
660.74	86.60
660.89	88.94
661.03	39.79
661.17	30.43
661.32	56.17
661.46	56.17
661.60	65.54
661.74	42.13
661.89	44.47
662.03	51.49
662.17	14.04
662.31	35.11
662.46	79.58
662.60	11.70
662.74	72.56
662.88	98.30
663.03	51.49
663.17	49.15
663.31	72.56
663.45	21.06
663.60	30.43
663.74	72.56
663.88	131.07
664.02	37.45
664.17	72.56
664.31	72.56
664.45	51.49
664.59	28.09
664.73	51.49
664.88	42.13
665.02	21.06
665.16	4.68
665.30	21.06
665.44	72.56
665.59	65.54
665.73	119.37
665.87	77.24
666.01	65.54
666.15	53.83
666.29	77.24
666.44	46.81
666.58	7.02
666.72	0.00
666.86	30.43
667.00	74.90
667.14	44.47
667.28	58.51
667.43	32.77
667.57	93.62
667.71	0.00
667.85	100.64
667.99	4.68
668.13	102.98
668.27	32.77
668.41	67.88
668.56	0.00
668.70	58.51
668.84	32.77
668.98	58.51
669.12	51.49
669.26	70.22
669.40	88.94
669.54	58.51
669.68	46.81
669.82	30.43
669.96	46.81
670.10	0.00
670.25	44.47
670.39	112.35
670.53	0.00
670.67	58.51
670.81	0.00
670.95	86.60
671.09	18.72
671.23	53.83
671.37	65.54
671.51	67.88
671.65	16.38
671.79	53.83
671.93	70.22
672.07	7.02
672.21	42.13
672.35	60.85
672.49	37.45
672.63	42.13
672.77	91.28
672.91	79.58
673.05	56.17
673.19	30.43
673.33	65.54
673.47	28.09
673.61	18.72
673.75	51.49
673.89	35.11
674.03	37.45
674.17	30.43
674.31	46.81
674.45	67.88
674.59	100.64
674.73	65.54
674.87	23.41
675.01	102.98
675.15	65.54
675.29	28.09
675.43	7.02
675.56	44.47
675.70	49.15
675.84	74.90
675.98	49.15
676.12	46.81
676.26	37.45
676.40	18.72
676.54	21.06
676.68	0.00
676.82	39.79
676.96	91.28
677.10	0.00
677.23	30.43
677.37	2.34
677.51	4.68
677.65	102.98
677.79	23.41
677.93	0.00
678.07	60.85
678.21	23.41
678.34	37.45
678.48	37.45
678.62	35.11
678.76	30.43
678.90	0.00
679.04	0.00
679.18	84.26
679.31	32.77
679.45	28.09
679.59	72.56
679.73	74.90
679.87	60.85
680.00	95.96
680.14	58.51
680.28	0.00
680.42	18.72
680.56	51.49
680.70	0.00
680.83	4.68
680.97	9.36
681.11	51.49
681.25	0.00
681.39	77.24
681.52	2.34
681.66	67.88
681.80	0.00
681.94	37.45
682.07	0.00
682.21	0.00
682.35	67.88
682.49	30.43
682.62	42.13
682.76	11.70
682.90	56.17
683.04	91.28
683.17	44.47
683.31	0.00
683.45	11.70
683.59	56.17
683.72	32.77
683.86	18.72
684.00	77.24
684.13	51.49
684.27	84.26
684.41	77.24
684.55	49.15
684.68	23.41
684.82	11.70
684.96	100.64
685.09	114.69
685.23	63.19
685.37	65.54
685.50	56.17
685.64	39.79
685.78	32.77
685.91	23.41
686.05	16.38
686.19	56.17
686.32	91.28
686.46	30.43
686.60	42.13
686.73	37.45
686.87	63.19
687.01	30.43
687.14	0.00
687.28	42.13
687.42	0.00
687.55	65.54
687.69	37.45
687.82	14.04
687.96	0.00
688.10	35.11
688.23	42.13
688.37	28.09
688.50	39.79
688.64	21.06
688.78	0.00
688.91	25.75
689.05	46.81
689.18	0.00
689.32	0.00
689.46	56.17
689.59	0.00
689.73	46.81
689.86	0.00
690.00	60.85
690.13	81.92
690.27	16.38
690.41	67.88
690.54	49.15
690.68	32.77
690.81	56.17
690.95	4.68
691.08	98.30
691.22	86.60
691.35	7.02
691.49	81.92
691.62	91.28
691.76	35.11
691.89	16.38
692.03	32.77
692.16	18.72
692.30	58.51
692.43	42.13
692.57	0.00
692.70	63.19
692.84	21.06
692.97	49.15
693.11	35.11
693.24	86.60
693.38	49.15
693.51	0.00
693.65	7.02
693.78	100.64
693.92	16.38
694.05	0.00
694.19	32.77
694.32	77.24
694.45	32.77
694.59	23.41
694.72	37.45
694.86	28.09
694.99	49.15
695.13	72.56
695.26	81.92
695.39	4.68
695.53	30.43
695.66	0.00
695.80	32.77
695.93	46.81
696.07	60.85
696.20	98.30
696.33	0.00
696.47	51.49
696.60	21.06
696.73	65.54
696.87	4.68
697.00	107.66
697.14	60.85
697.27	0.00
697.40	77.24
697.54	11.70
697.67	79.58
697.80	56.17
697.94	44.47
698.07	72.56
698.21	18.72
698.34	0.00
698.47	4.68
698.61	0.00
698.74	49.15
698.87	18.72
699.01	18.72
699.14	98.30
699.27	0.00
699.40	7.02
699.54	84.26
699.67	98.30
699.80	91.28
699.94	21.06
700.07	51.49
700.20	18.72
700.34	51.49
700.47	77.24
700.60	25.75
700.73	58.51
700.87	67.88
701.00	0.00
701.13	42.13
701.26	70.22
701.40	79.58
701.53	53.83
701.66	58.51
701.79	56.17
701.93	0.00
702.06	28.09
702.19	2.34
702.32	53.83
702.46	70.22
702.59	28.09
702.72	7.02
702.85	9.36
702.99	0.00
703.12	30.43
703.25	72.56
703.38	53.83
703.51	23.41
703.65	44.47
703.78	72.56
703.91	51.49
704.04	102.98
704.17	44.47
704.31	0.00
704.44	58.51
704.57	21.06
704.70	23.41
704.83	67.88
704.96	51.49
705.10	42.13
705.23	49.15
>>>>>End Processed Spectral Data<<<<<
