SpectraSuite Data File
++++++++++++++++++++++++++++++++++++
Date: Fri Oct 04 12:13:27 GMT-05:00 2013
User: price-jones
Dark Spectrum Present: No
Reference Spectrum Present: No
Number of Sampled Component Spectra: 1
Spectrometers: USB2+H05261
Integration Time (usec): 10000 (USB2+H05261)
Spectra Averaged: 1 (USB2+H05261)
Boxcar Smoothing: 0 (USB2+H05261)
Correct for Electrical Dark: No (USB2+H05261)
Strobe/Lamp Enabled: No (USB2+H05261)
Correct for Detector Non-linearity: No (USB2+H05261)
Correct for Stray Light: No (USB2+H05261)
Number of Pixels in Processed Spectrum: 2048
>>>>>Begin Processed Spectral Data<<<<<
365.73	35.11
365.92	35.11
366.12	35.11
366.32	0.00
366.52	0.00
366.72	0.00
366.91	0.00
367.11	0.00
367.31	0.00
367.51	0.00
367.70	0.00
367.90	0.00
368.10	0.00
368.30	0.00
368.49	0.00
368.69	0.00
368.89	0.00
369.09	0.00
369.28	0.00
369.48	0.00
369.68	0.00
369.87	0.00
370.07	0.00
370.27	0.00
370.47	0.00
370.66	0.00
370.86	0.00
371.06	0.00
371.25	11.70
371.45	0.00
371.65	2.34
371.84	0.00
372.04	44.47
372.24	0.00
372.44	0.00
372.63	88.94
372.83	51.49
373.03	16.38
373.22	70.22
373.42	21.06
373.62	46.81
373.81	0.00
374.01	0.00
374.21	0.00
374.40	58.51
374.60	42.13
374.79	0.00
374.99	100.64
375.19	16.38
375.38	51.49
375.58	63.19
375.78	0.00
375.97	0.00
376.17	2.34
376.37	37.45
376.56	35.11
376.76	42.13
376.95	0.00
377.15	79.58
377.35	21.06
377.54	0.00
377.74	0.00
377.93	51.49
378.13	21.06
378.33	0.00
378.52	79.58
378.72	35.11
378.91	0.00
379.11	46.81
379.31	0.00
379.50	14.04
379.70	74.90
379.89	11.70
380.09	25.75
380.28	56.17
380.48	49.15
380.68	18.72
380.87	39.79
381.07	9.36
381.26	53.83
381.46	37.45
381.65	0.00
381.85	70.22
382.04	0.00
382.24	51.49
382.43	58.51
382.63	18.72
382.83	4.68
383.02	39.79
383.22	0.00
383.41	0.00
383.61	58.51
383.80	35.11
384.00	9.36
384.19	58.51
384.39	7.02
384.58	21.06
384.78	86.60
384.97	117.03
385.17	117.03
385.36	28.09
385.56	39.79
385.75	7.02
385.95	4.68
386.14	0.00
386.34	60.85
386.53	0.00
386.72	0.00
386.92	9.36
387.11	0.00
387.31	51.49
387.50	0.00
387.70	7.02
387.89	0.00
388.09	11.70
388.28	14.04
388.48	74.90
388.67	4.68
388.86	0.00
389.06	0.00
389.25	14.04
389.45	53.83
389.64	7.02
389.84	67.88
390.03	2.34
390.22	60.85
390.42	42.13
390.61	0.00
390.81	30.43
391.00	65.54
391.19	56.17
391.39	0.00
391.58	51.49
391.78	23.41
391.97	9.36
392.16	46.81
392.36	9.36
392.55	18.72
392.75	28.09
392.94	42.13
393.13	95.96
393.33	0.00
393.52	44.47
393.71	77.24
393.91	25.75
394.10	46.81
394.29	53.83
394.49	74.90
394.68	46.81
394.88	30.43
395.07	35.11
395.26	39.79
395.46	35.11
395.65	18.72
395.84	0.00
396.04	0.00
396.23	0.00
396.42	0.00
396.62	65.54
396.81	56.17
397.00	126.39
397.19	56.17
397.39	23.41
397.58	49.15
397.77	37.45
397.97	49.15
398.16	79.58
398.35	0.00
398.55	7.02
398.74	0.00
398.93	65.54
399.12	0.00
399.32	0.00
399.51	72.56
399.70	18.72
399.90	63.19
400.09	7.02
400.28	65.54
400.47	46.81
400.67	39.79
400.86	11.70
401.05	46.81
401.24	74.90
401.44	0.00
401.63	56.17
401.82	14.04
402.01	0.00
402.21	35.11
402.40	37.45
402.59	65.54
402.78	42.13
402.97	28.09
403.17	53.83
403.36	30.43
403.55	25.75
403.74	16.38
403.93	105.32
404.13	7.02
404.32	14.04
404.51	30.43
404.70	14.04
404.89	44.47
405.09	0.00
405.28	16.38
405.47	0.00
405.66	42.13
405.85	49.15
406.05	23.41
406.24	39.79
406.43	63.19
406.62	23.41
406.81	0.00
407.00	42.13
407.20	74.90
407.39	35.11
407.58	37.45
407.77	0.00
407.96	37.45
408.15	25.75
408.34	42.13
408.54	60.85
408.73	0.00
408.92	23.41
409.11	28.09
409.30	35.11
409.49	14.04
409.68	35.11
409.87	28.09
410.07	0.00
410.26	46.81
410.45	91.28
410.64	46.81
410.83	18.72
411.02	51.49
411.21	21.06
411.40	11.70
411.59	11.70
411.78	32.77
411.98	23.41
412.17	84.26
412.36	25.75
412.55	53.83
412.74	35.11
412.93	100.64
413.12	21.06
413.31	42.13
413.50	35.11
413.69	23.41
413.88	44.47
414.07	21.06
414.26	0.00
414.45	11.70
414.64	91.28
414.83	18.72
415.02	39.79
415.22	30.43
415.41	0.00
415.60	0.00
415.79	16.38
415.98	9.36
416.17	18.72
416.36	0.00
416.55	0.00
416.74	7.02
416.93	46.81
417.12	21.06
417.31	0.00
417.50	28.09
417.69	44.47
417.88	0.00
418.07	7.02
418.26	23.41
418.45	28.09
418.64	74.90
418.83	74.90
419.02	39.79
419.21	32.77
419.39	0.00
419.58	30.43
419.77	70.22
419.96	110.01
420.15	63.19
420.34	4.68
420.53	42.13
420.72	0.00
420.91	70.22
421.10	25.75
421.29	100.64
421.48	72.56
421.67	37.45
421.86	28.09
422.05	0.00
422.24	0.00
422.43	121.71
422.61	74.90
422.80	0.00
422.99	7.02
423.18	86.60
423.37	0.00
423.56	0.00
423.75	0.00
423.94	77.24
424.13	46.81
424.32	44.47
424.50	18.72
424.69	0.00
424.88	39.79
425.07	0.00
425.26	35.11
425.45	16.38
425.64	32.77
425.83	60.85
426.01	35.11
426.20	39.79
426.39	9.36
426.58	65.54
426.77	102.98
426.96	9.36
427.15	30.43
427.33	23.41
427.52	67.88
427.71	11.70
427.90	0.00
428.09	53.83
428.28	0.00
428.46	0.00
428.65	112.35
428.84	16.38
429.03	0.00
429.22	77.24
429.40	46.81
429.59	0.00
429.78	14.04
429.97	84.26
430.16	56.17
430.34	35.11
430.53	51.49
430.72	28.09
430.91	58.51
431.10	9.36
431.28	18.72
431.47	58.51
431.66	0.00
431.85	124.05
432.03	4.68
432.22	9.36
432.41	84.26
432.60	21.06
432.79	93.62
432.97	65.54
433.16	30.43
433.35	42.13
433.54	0.00
433.72	60.85
433.91	51.49
434.10	44.47
434.28	0.00
434.47	81.92
434.66	56.17
434.85	65.54
435.03	0.00
435.22	63.19
435.41	58.51
435.59	39.79
435.78	35.11
435.97	91.28
436.16	14.04
436.34	37.45
436.53	79.58
436.72	88.94
436.90	46.81
437.09	4.68
437.28	65.54
437.46	4.68
437.65	0.00
437.84	58.51
438.02	74.90
438.21	51.49
438.40	16.38
438.58	0.00
438.77	42.13
438.96	42.13
439.14	2.34
439.33	84.26
439.52	0.00
439.70	56.17
439.89	0.00
440.08	0.00
440.26	11.70
440.45	0.00
440.63	16.38
440.82	37.45
441.01	0.00
441.19	0.00
441.38	53.83
441.57	0.00
441.75	14.04
441.94	4.68
442.12	42.13
442.31	88.94
442.50	44.47
442.68	49.15
442.87	4.68
443.05	42.13
443.24	107.66
443.43	46.81
443.61	84.26
443.80	46.81
443.98	58.51
444.17	0.00
444.35	28.09
444.54	32.77
444.73	72.56
444.91	56.17
445.10	23.41
445.28	56.17
445.47	49.15
445.65	51.49
445.84	44.47
446.02	0.00
446.21	70.22
446.39	0.00
446.58	16.38
446.77	35.11
446.95	0.00
447.14	58.51
447.32	28.09
447.51	30.43
447.69	14.04
447.88	67.88
448.06	74.90
448.25	67.88
448.43	46.81
448.62	0.00
448.80	0.00
448.99	44.47
449.17	14.04
449.36	23.41
449.54	86.60
449.73	67.88
449.91	86.60
450.10	44.47
450.28	67.88
450.46	11.70
450.65	7.02
450.83	95.96
451.02	11.70
451.20	14.04
451.39	0.00
451.57	21.06
451.76	35.11
451.94	2.34
452.13	23.41
452.31	37.45
452.49	0.00
452.68	46.81
452.86	49.15
453.05	16.38
453.23	56.17
453.42	0.00
453.60	56.17
453.78	37.45
453.97	60.85
454.15	16.38
454.34	42.13
454.52	65.54
454.70	51.49
454.89	37.45
455.07	0.00
455.26	7.02
455.44	0.00
455.62	14.04
455.81	42.13
455.99	77.24
456.17	56.17
456.36	0.00
456.54	65.54
456.73	37.45
456.91	0.00
457.09	28.09
457.28	0.00
457.46	60.85
457.64	0.00
457.83	28.09
458.01	0.00
458.19	100.64
458.38	28.09
458.56	51.49
458.74	30.43
458.93	0.00
459.11	30.43
459.29	53.83
459.48	39.79
459.66	35.11
459.84	35.11
460.03	0.00
460.21	14.04
460.39	9.36
460.57	7.02
460.76	14.04
460.94	0.00
461.12	56.17
461.31	110.01
461.49	0.00
461.67	0.00
461.85	46.81
462.04	18.72
462.22	4.68
462.40	0.00
462.59	16.38
462.77	0.00
462.95	65.54
463.13	0.00
463.32	0.00
463.50	131.07
463.68	44.47
463.86	23.41
464.05	0.00
464.23	49.15
464.41	102.98
464.59	25.75
464.78	0.00
464.96	84.26
465.14	0.00
465.32	21.06
465.50	32.77
465.69	2.34
465.87	28.09
466.05	0.00
466.23	2.34
466.41	0.00
466.60	23.41
466.78	37.45
466.96	105.32
467.14	28.09
467.32	63.19
467.51	0.00
467.69	44.47
467.87	28.09
468.05	0.00
468.23	0.00
468.41	0.00
468.60	30.43
468.78	4.68
468.96	51.49
469.14	0.00
469.32	53.83
469.50	4.68
469.69	72.56
469.87	88.94
470.05	21.06
470.23	44.47
470.41	39.79
470.59	0.00
470.77	16.38
470.95	88.94
471.14	70.22
471.32	7.02
471.50	25.75
471.68	14.04
471.86	72.56
472.04	88.94
472.22	49.15
472.40	0.00
472.58	98.30
472.77	72.56
472.95	23.41
473.13	81.92
473.31	0.00
473.49	105.32
473.67	49.15
473.85	21.06
474.03	60.85
474.21	35.11
474.39	14.04
474.57	39.79
474.75	32.77
474.93	114.69
475.12	88.94
475.30	56.17
475.48	0.00
475.66	70.22
475.84	39.79
476.02	121.71
476.20	0.00
476.38	9.36
476.56	0.00
476.74	56.17
476.92	65.54
477.10	95.96
477.28	58.51
477.46	25.75
477.64	35.11
477.82	2.34
478.00	0.00
478.18	39.79
478.36	49.15
478.54	60.85
478.72	9.36
478.90	0.00
479.08	91.28
479.26	44.47
479.44	23.41
479.62	28.09
479.80	23.41
479.98	72.56
480.16	44.47
480.34	79.58
480.52	60.85
480.70	88.94
480.88	60.85
481.06	2.34
481.24	0.00
481.41	21.06
481.59	16.38
481.77	0.00
481.95	98.30
482.13	81.92
482.31	53.83
482.49	0.00
482.67	112.35
482.85	32.77
483.03	51.49
483.21	86.60
483.39	11.70
483.57	0.00
483.74	7.02
483.92	0.00
484.10	21.06
484.28	91.28
484.46	63.19
484.64	63.19
484.82	0.00
485.00	60.85
485.18	0.00
485.35	65.54
485.53	56.17
485.71	72.56
485.89	56.17
486.07	91.28
486.25	0.00
486.43	39.79
486.61	32.77
486.78	0.00
486.96	0.00
487.14	42.13
487.32	14.04
487.50	9.36
487.68	11.70
487.85	0.00
488.03	65.54
488.21	18.72
488.39	18.72
488.57	4.68
488.75	9.36
488.92	100.64
489.10	11.70
489.28	39.79
489.46	28.09
489.64	46.81
489.81	11.70
489.99	86.60
490.17	32.77
490.35	63.19
490.53	46.81
490.70	32.77
490.88	16.38
491.06	25.75
491.24	23.41
491.41	23.41
491.59	65.54
491.77	56.17
491.95	56.17
492.13	35.11
492.30	60.85
492.48	4.68
492.66	44.47
492.84	102.98
493.01	46.81
493.19	74.90
493.37	37.45
493.54	23.41
493.72	63.19
493.90	11.70
494.08	32.77
494.25	0.00
494.43	44.47
494.61	35.11
494.79	110.01
494.96	58.51
495.14	25.75
495.32	60.85
495.49	49.15
495.67	49.15
495.85	32.77
496.02	9.36
496.20	60.85
496.38	79.58
496.55	88.94
496.73	53.83
496.91	18.72
497.09	4.68
497.26	0.00
497.44	30.43
497.62	86.60
497.79	51.49
497.97	35.11
498.14	0.00
498.32	56.17
498.50	28.09
498.67	18.72
498.85	53.83
499.03	74.90
499.20	49.15
499.38	81.92
499.56	44.47
499.73	0.00
499.91	0.00
500.08	16.38
500.26	63.19
500.44	37.45
500.61	42.13
500.79	70.22
500.97	18.72
501.14	37.45
501.32	37.45
501.49	37.45
501.67	110.01
501.84	112.35
502.02	30.43
502.20	98.30
502.37	53.83
502.55	9.36
502.72	63.19
502.90	35.11
503.07	49.15
503.25	30.43
503.43	72.56
503.60	14.04
503.78	42.13
503.95	46.81
504.13	67.88
504.30	35.11
504.48	23.41
504.65	37.45
504.83	67.88
505.01	53.83
505.18	51.49
505.36	53.83
505.53	63.19
505.71	4.68
505.88	32.77
506.06	16.38
506.23	39.79
506.41	65.54
506.58	37.45
506.76	72.56
506.93	46.81
507.11	84.26
507.28	60.85
507.46	44.47
507.63	110.01
507.81	88.94
507.98	35.11
508.16	51.49
508.33	84.26
508.50	32.77
508.68	72.56
508.85	0.00
509.03	32.77
509.20	46.81
509.38	37.45
509.55	25.75
509.73	0.00
509.90	0.00
510.08	95.96
510.25	131.07
510.42	0.00
510.60	56.17
510.77	21.06
510.95	2.34
511.12	42.13
511.30	79.58
511.47	133.41
511.64	0.00
511.82	60.85
511.99	32.77
512.17	95.96
512.34	60.85
512.51	39.79
512.69	63.19
512.86	0.00
513.04	23.41
513.21	79.58
513.38	35.11
513.56	0.00
513.73	14.04
513.90	98.30
514.08	7.02
514.25	102.98
514.43	79.58
514.60	30.43
514.77	58.51
514.95	25.75
515.12	74.90
515.29	81.92
515.47	77.24
515.64	37.45
515.81	0.00
515.99	18.72
516.16	49.15
516.33	23.41
516.51	18.72
516.68	77.24
516.85	46.81
517.03	70.22
517.20	56.17
517.37	107.66
517.54	58.51
517.72	0.00
517.89	112.35
518.06	56.17
518.24	63.19
518.41	56.17
518.58	79.58
518.75	0.00
518.93	0.00
519.10	67.88
519.27	32.77
519.45	0.00
519.62	42.13
519.79	77.24
519.96	65.54
520.14	58.51
520.31	0.00
520.48	77.24
520.65	65.54
520.83	95.96
521.00	112.35
521.17	35.11
521.34	63.19
521.52	63.19
521.69	67.88
521.86	35.11
522.03	49.15
522.20	42.13
522.38	63.19
522.55	14.04
522.72	72.56
522.89	42.13
523.07	28.09
523.24	79.58
523.41	0.00
523.58	4.68
523.75	16.38
523.92	0.00
524.10	21.06
524.27	77.24
524.44	30.43
524.61	37.45
524.78	88.94
524.96	81.92
525.13	112.35
525.30	65.54
525.47	105.32
525.64	30.43
525.81	14.04
525.98	53.83
526.16	86.60
526.33	9.36
526.50	0.00
526.67	23.41
526.84	0.00
527.01	30.43
527.18	0.00
527.36	46.81
527.53	0.00
527.70	53.83
527.87	56.17
528.04	23.41
528.21	49.15
528.38	16.38
528.55	0.00
528.72	53.83
528.89	60.85
529.07	0.00
529.24	63.19
529.41	2.34
529.58	7.02
529.75	58.51
529.92	51.49
530.09	0.00
530.26	28.09
530.43	23.41
530.60	65.54
530.77	0.00
530.94	37.45
531.11	0.00
531.28	14.04
531.46	18.72
531.63	9.36
531.80	49.15
531.97	49.15
532.14	0.00
532.31	18.72
532.48	14.04
532.65	77.24
532.82	0.00
532.99	11.70
533.16	39.79
533.33	72.56
533.50	93.62
533.67	67.88
533.84	56.17
534.01	79.58
534.18	91.28
534.35	100.64
534.52	37.45
534.69	42.13
534.86	95.96
535.03	58.51
535.20	42.13
535.37	65.54
535.54	0.00
535.71	84.26
535.88	35.11
536.05	93.62
536.22	0.00
536.38	0.00
536.55	53.83
536.72	60.85
536.89	100.64
537.06	16.38
537.23	0.00
537.40	56.17
537.57	112.35
537.74	67.88
537.91	63.19
538.08	65.54
538.25	67.88
538.42	100.64
538.59	56.17
538.75	114.69
538.92	11.70
539.09	84.26
539.26	28.09
539.43	93.62
539.60	154.48
539.77	278.52
539.94	280.86
540.11	220.01
540.28	152.13
540.44	77.24
540.61	42.13
540.78	4.68
540.95	16.38
541.12	30.43
541.29	35.11
541.46	74.90
541.62	53.83
541.79	70.22
541.96	79.58
542.13	42.13
542.30	25.75
542.47	65.54
542.63	0.00
542.80	28.09
542.97	74.90
543.14	0.00
543.31	86.60
543.48	51.49
543.64	39.79
543.81	28.09
543.98	67.88
544.15	79.58
544.32	53.83
544.48	74.90
544.65	0.00
544.82	0.00
544.99	42.13
545.16	163.84
545.32	81.92
545.49	60.85
545.66	23.41
545.83	107.66
546.00	110.01
546.16	30.43
546.33	42.13
546.50	46.81
546.67	14.04
546.83	81.92
547.00	70.22
547.17	63.19
547.34	67.88
547.50	2.34
547.67	32.77
547.84	46.81
548.00	9.36
548.17	28.09
548.34	0.00
548.51	49.15
548.67	126.39
548.84	84.26
549.01	7.02
549.18	30.43
549.34	79.58
549.51	37.45
549.68	0.00
549.84	67.88
550.01	32.77
550.18	46.81
550.34	79.58
550.51	53.83
550.68	18.72
550.84	51.49
551.01	49.15
551.18	60.85
551.34	51.49
551.51	77.24
551.68	86.60
551.84	28.09
552.01	32.77
552.18	0.00
552.34	25.75
552.51	0.00
552.68	37.45
552.84	0.00
553.01	0.00
553.18	0.00
553.34	21.06
553.51	60.85
553.67	14.04
553.84	39.79
554.01	0.00
554.17	117.03
554.34	14.04
554.51	56.17
554.67	0.00
554.84	0.00
555.00	0.00
555.17	0.00
555.33	70.22
555.50	44.47
555.67	0.00
555.83	63.19
556.00	98.30
556.16	21.06
556.33	30.43
556.50	14.04
556.66	72.56
556.83	0.00
556.99	44.47
557.16	0.00
557.32	63.19
557.49	0.00
557.65	28.09
557.82	88.94
557.98	32.77
558.15	25.75
558.32	0.00
558.48	42.13
558.65	23.41
558.81	2.34
558.98	88.94
559.14	44.47
559.31	30.43
559.47	53.83
559.64	77.24
559.80	35.11
559.97	37.45
560.13	53.83
560.30	63.19
560.46	0.00
560.63	46.81
560.79	63.19
560.96	72.56
561.12	23.41
561.29	32.77
561.45	28.09
561.61	35.11
561.78	18.72
561.94	65.54
562.11	39.79
562.27	53.83
562.44	0.00
562.60	74.90
562.77	37.45
562.93	63.19
563.10	16.38
563.26	9.36
563.42	112.35
563.59	79.58
563.75	67.88
563.92	74.90
564.08	18.72
564.24	51.49
564.41	25.75
564.57	0.00
564.74	14.04
564.90	67.88
565.07	58.51
565.23	0.00
565.39	18.72
565.56	0.00
565.72	25.75
565.88	35.11
566.05	44.47
566.21	84.26
566.38	0.00
566.54	14.04
566.70	18.72
566.87	28.09
567.03	2.34
567.19	0.00
567.36	63.19
567.52	49.15
567.68	53.83
567.85	44.47
568.01	53.83
568.17	46.81
568.34	65.54
568.50	42.13
568.66	67.88
568.83	65.54
568.99	46.81
569.15	14.04
569.32	46.81
569.48	18.72
569.64	72.56
569.81	16.38
569.97	30.43
570.13	39.79
570.30	16.38
570.46	32.77
570.62	0.00
570.78	35.11
570.95	18.72
571.11	51.49
571.27	14.04
571.43	21.06
571.60	0.00
571.76	70.22
571.92	0.00
572.09	14.04
572.25	37.45
572.41	37.45
572.57	0.00
572.74	56.17
572.90	4.68
573.06	105.32
573.22	0.00
573.38	30.43
573.55	77.24
573.71	39.79
573.87	30.43
574.03	37.45
574.20	44.47
574.36	46.81
574.52	0.00
574.68	53.83
574.84	77.24
575.01	35.11
575.17	30.43
575.33	86.60
575.49	51.49
575.65	0.00
575.82	72.56
575.98	114.69
576.14	152.13
576.30	163.84
576.46	49.15
576.62	79.58
576.79	159.16
576.95	95.96
577.11	53.83
577.27	79.58
577.43	11.70
577.59	16.38
577.75	98.30
577.92	77.24
578.08	88.94
578.24	42.13
578.40	46.81
578.56	65.54
578.72	67.88
578.88	49.15
579.04	16.38
579.21	98.30
579.37	67.88
579.53	58.51
579.69	35.11
579.85	95.96
580.01	28.09
580.17	81.92
580.33	60.85
580.49	35.11
580.65	58.51
580.82	121.71
580.98	79.58
581.14	4.68
581.30	72.56
581.46	67.88
581.62	102.98
581.78	142.77
581.94	163.84
582.10	126.39
582.26	112.35
582.42	0.00
582.58	56.17
582.74	77.24
582.90	112.35
583.06	63.19
583.22	86.60
583.38	25.75
583.54	63.19
583.70	100.64
583.86	88.94
584.02	121.71
584.18	128.73
584.34	142.77
584.50	596.84
584.66	4140.41
584.82	10263.25
584.98	15365.62
585.14	13493.19
585.30	8215.28
585.46	4828.53
585.62	3166.74
585.78	1493.26
585.94	629.60
586.10	287.89
586.26	170.86
586.42	126.39
586.58	102.98
586.74	147.45
586.90	180.22
587.06	49.15
587.22	84.26
587.38	72.56
587.54	234.05
587.70	664.71
587.86	957.28
588.02	1064.94
588.18	751.31
588.34	540.66
588.49	334.70
588.65	180.22
588.81	117.03
588.97	74.90
589.13	86.60
589.29	65.54
589.45	51.49
589.61	7.02
589.77	100.64
589.93	56.17
590.08	117.03
590.24	53.83
590.40	84.26
590.56	114.69
590.72	32.77
590.88	46.81
591.04	46.81
591.20	11.70
591.35	0.00
591.51	121.71
591.67	51.49
591.83	145.11
591.99	65.54
592.15	95.96
592.31	105.32
592.46	56.17
592.62	44.47
592.78	32.77
592.94	4.68
593.10	14.04
593.26	0.00
593.41	100.64
593.57	23.41
593.73	93.62
593.89	524.28
594.05	1273.25
594.20	1860.73
594.36	1839.66
594.52	1226.44
594.68	732.59
594.84	458.74
594.99	273.84
595.15	39.79
595.31	53.83
595.47	37.45
595.62	32.77
595.78	35.11
595.94	63.19
596.10	86.60
596.25	74.90
596.41	135.75
596.57	72.56
596.73	28.09
596.88	88.94
597.04	205.97
597.20	369.80
597.36	533.64
597.51	313.63
597.67	224.69
597.83	140.43
597.99	70.22
598.14	37.45
598.30	102.98
598.46	72.56
598.61	100.64
598.77	142.77
598.93	88.94
599.09	65.54
599.24	51.49
599.40	42.13
599.56	21.06
599.71	65.54
599.87	18.72
600.03	42.13
600.18	35.11
600.34	100.64
600.50	60.85
600.65	53.83
600.81	77.24
600.97	9.36
601.12	44.47
601.28	14.04
601.44	16.38
601.59	56.17
601.75	46.81
601.91	30.43
602.06	37.45
602.22	131.07
602.37	79.58
602.53	311.29
602.69	447.04
602.84	472.79
603.00	353.42
603.16	227.03
603.31	168.52
603.47	79.58
603.62	23.41
603.78	58.51
603.94	65.54
604.09	93.62
604.25	39.79
604.40	65.54
604.56	32.77
604.71	60.85
604.87	28.09
605.03	0.00
605.18	84.26
605.34	133.41
605.49	79.58
605.65	63.19
605.80	37.45
605.96	32.77
606.12	121.71
606.27	86.60
606.43	95.96
606.58	72.56
606.74	175.54
606.89	667.05
607.05	1214.74
607.20	1638.38
607.36	1366.87
607.51	901.11
607.67	589.82
607.82	393.21
607.98	229.37
608.13	173.20
608.29	81.92
608.44	70.22
608.60	88.94
608.75	88.94
608.91	177.88
609.06	983.02
609.22	2022.22
609.37	2743.11
609.53	2385.01
609.68	1713.27
609.84	1053.24
609.99	725.57
610.15	346.40
610.30	234.05
610.46	105.32
610.61	91.28
610.76	2.34
610.92	145.11
611.07	51.49
611.23	88.94
611.38	79.58
611.54	23.41
611.69	0.00
611.84	81.92
612.00	16.38
612.15	0.00
612.31	44.47
612.46	156.82
612.62	201.29
612.77	124.05
612.92	105.32
613.08	102.98
613.23	117.03
613.39	105.32
613.54	212.99
613.69	945.58
613.85	2466.92
614.00	4217.65
614.15	4521.92
614.31	3229.94
614.46	2094.78
614.62	1362.19
614.77	851.96
614.92	491.51
615.08	189.58
615.23	105.32
615.38	70.22
615.54	58.51
615.69	203.63
615.84	519.60
616.00	861.32
616.15	1146.86
616.30	961.96
616.46	739.61
616.61	388.53
616.76	280.86
616.92	107.66
617.07	37.45
617.22	42.13
617.37	86.60
617.53	32.77
617.68	58.51
617.83	74.90
617.99	81.92
618.14	131.07
618.29	100.64
618.45	86.60
618.60	84.26
618.75	32.77
618.90	0.00
619.06	0.00
619.21	77.24
619.36	49.15
619.51	2.34
619.67	0.00
619.82	65.54
619.97	16.38
620.12	37.45
620.28	37.45
620.43	32.77
620.58	102.98
620.73	28.09
620.89	0.00
621.04	81.92
621.19	306.61
621.34	461.09
621.49	692.80
621.65	594.50
621.80	428.32
621.95	367.46
622.10	224.69
622.25	93.62
622.41	107.66
622.56	112.35
622.71	0.00
622.86	49.15
623.01	74.90
623.16	37.45
623.32	86.60
623.47	128.73
623.62	53.83
623.77	63.19
623.92	65.54
624.07	37.45
624.23	28.09
624.38	46.81
624.53	11.70
624.68	65.54
624.83	23.41
624.98	53.83
625.13	53.83
625.29	42.13
625.44	100.64
625.59	58.51
625.74	21.06
625.89	135.75
626.04	472.79
626.19	1249.85
626.34	1973.07
626.49	2342.88
626.65	1757.74
626.80	1196.01
626.95	786.42
627.10	498.53
627.25	205.97
627.40	166.18
627.55	91.28
627.70	77.24
627.85	14.04
628.00	49.15
628.15	32.77
628.30	124.05
628.45	42.13
628.60	49.15
628.76	79.58
628.91	79.58
629.06	7.02
629.21	53.83
629.36	60.85
629.51	84.26
629.66	58.51
629.81	35.11
629.96	255.12
630.11	425.98
630.26	643.65
630.41	435.34
630.56	341.72
630.71	252.78
630.86	227.03
631.01	84.26
631.16	81.92
631.31	23.41
631.46	0.00
631.61	23.41
631.76	49.15
631.91	14.04
632.06	0.00
632.21	131.07
632.36	84.26
632.51	63.19
632.66	53.83
632.81	198.95
632.96	641.31
633.10	1277.93
633.25	1664.12
633.40	1306.02
633.55	910.47
633.70	603.86
633.85	514.92
634.00	201.29
634.15	95.96
634.30	110.01
634.45	81.92
634.60	112.35
634.75	131.07
634.90	60.85
635.05	0.00
635.19	74.90
635.34	44.47
635.49	102.98
635.64	81.92
635.79	51.49
635.94	28.09
636.09	25.75
636.24	107.66
636.39	25.75
636.53	81.92
636.68	35.11
636.83	18.72
636.98	84.26
637.13	79.58
637.28	2.34
637.43	133.41
637.57	170.86
637.72	683.44
637.87	1650.08
638.02	2593.31
638.17	2904.60
638.32	2162.66
638.46	1561.14
638.61	1039.20
638.76	650.67
638.91	304.27
639.06	182.56
639.20	138.09
639.35	88.94
639.50	245.76
639.65	978.34
639.80	2445.86
639.94	3962.53
640.09	4561.70
640.24	3581.02
640.39	2279.68
640.54	1629.01
640.68	896.43
640.83	402.57
640.98	187.24
641.13	74.90
641.27	93.62
641.42	102.98
641.57	107.66
641.72	102.98
641.86	102.98
642.01	91.28
642.16	49.15
642.31	4.68
642.45	84.26
642.60	65.54
642.75	91.28
642.90	72.56
643.04	107.66
643.19	28.09
643.34	28.09
643.48	23.41
643.63	4.68
643.78	35.11
643.93	60.85
644.07	105.32
644.22	25.75
644.37	119.37
644.51	30.43
644.66	100.64
644.81	2.34
644.95	145.11
645.10	84.26
645.25	46.81
645.39	79.58
645.54	0.00
645.69	7.02
645.83	30.43
645.98	25.75
646.13	60.85
646.27	37.45
646.42	77.24
646.57	56.17
646.71	72.56
646.86	0.00
647.00	16.38
647.15	72.56
647.30	93.62
647.44	84.26
647.59	53.83
647.74	65.54
647.88	58.51
648.03	9.36
648.17	42.13
648.32	0.00
648.47	56.17
648.61	44.47
648.76	0.00
648.90	9.36
649.05	56.17
649.20	88.94
649.34	11.70
649.49	7.02
649.63	42.13
649.78	49.15
649.92	16.38
650.07	306.61
650.21	1067.28
650.36	1940.30
650.51	2506.71
650.65	2059.67
650.80	1409.00
650.94	784.08
651.09	615.56
651.23	294.91
651.38	124.05
651.52	74.90
651.67	42.13
651.81	105.32
651.96	0.00
652.10	4.68
652.25	56.17
652.39	88.94
652.54	46.81
652.68	98.30
652.83	348.74
652.97	741.95
653.12	812.17
653.26	737.27
653.41	608.54
653.55	465.77
653.70	245.76
653.84	121.71
653.99	53.83
654.13	77.24
654.27	58.51
654.42	30.43
654.56	70.22
654.71	18.72
654.85	0.00
655.00	98.30
655.14	0.00
655.29	0.00
655.43	4.68
655.57	28.09
655.72	42.13
655.86	100.64
656.01	98.30
656.15	37.45
656.30	23.41
656.44	23.41
656.58	49.15
656.73	58.51
656.87	70.22
657.01	0.00
657.16	23.41
657.30	9.36
657.45	37.45
657.59	9.36
657.73	39.79
657.88	0.00
658.02	84.26
658.16	81.92
658.31	42.13
658.45	70.22
658.60	56.17
658.74	79.58
658.88	79.58
659.03	30.43
659.17	39.79
659.31	161.50
659.46	533.64
659.60	926.85
659.74	1146.86
659.89	978.34
660.03	784.08
660.17	461.09
660.32	346.40
660.46	201.29
660.60	112.35
660.74	51.49
660.89	102.98
661.03	70.22
661.17	42.13
661.32	0.00
661.46	67.88
661.60	114.69
661.74	65.54
661.89	56.17
662.03	37.45
662.17	0.00
662.31	32.77
662.46	0.00
662.60	0.00
662.74	28.09
662.88	58.51
663.03	88.94
663.17	63.19
663.31	81.92
663.45	0.00
663.60	14.04
663.74	86.60
663.88	44.47
664.02	93.62
664.17	14.04
664.31	51.49
664.45	0.00
664.59	18.72
664.73	46.81
664.88	81.92
665.02	0.00
665.16	18.72
665.30	16.38
665.44	23.41
665.59	21.06
665.73	0.00
665.87	60.85
666.01	0.00
666.15	30.43
666.29	53.83
666.44	79.58
666.58	51.49
666.72	18.72
666.86	0.00
667.00	18.72
667.14	65.54
667.28	376.83
667.43	898.77
667.57	1633.69
667.71	2057.33
667.85	1760.08
667.99	1301.34
668.13	851.96
668.27	496.19
668.41	297.25
668.56	224.69
668.70	79.58
668.84	102.98
668.98	2.34
669.12	84.26
669.26	128.73
669.40	39.79
669.54	63.19
669.68	23.41
669.82	63.19
669.96	84.26
670.10	72.56
670.25	67.88
670.39	16.38
670.53	42.13
670.67	51.49
670.81	18.72
670.95	16.38
671.09	126.39
671.23	365.12
671.37	718.54
671.51	1179.63
671.65	1338.79
671.79	980.68
671.93	720.88
672.07	437.68
672.21	259.80
672.35	173.20
672.49	98.30
672.63	65.54
672.77	0.00
672.91	51.49
673.05	35.11
673.19	145.11
673.33	35.11
673.47	39.79
673.61	39.79
673.75	0.00
673.89	32.77
674.03	30.43
674.17	2.34
674.31	42.13
674.45	4.68
674.59	51.49
674.73	0.00
674.87	60.85
675.01	7.02
675.15	44.47
675.29	46.81
675.43	63.19
675.56	77.24
675.70	84.26
675.84	74.90
675.98	79.58
676.12	23.41
676.26	4.68
676.40	44.47
676.54	44.47
676.68	110.01
676.82	67.88
676.96	0.00
677.10	42.13
677.23	79.58
677.37	42.13
677.51	9.36
677.65	42.13
677.79	0.00
677.93	42.13
678.07	51.49
678.21	51.49
678.34	23.41
678.48	39.79
678.62	77.24
678.76	2.34
678.90	16.38
679.04	0.00
679.18	16.38
679.31	0.00
679.45	23.41
679.59	42.13
679.73	11.70
679.87	65.54
680.00	25.75
680.14	44.47
680.28	42.13
680.42	30.43
680.56	49.15
680.70	65.54
680.83	56.17
680.97	88.94
681.11	58.51
681.25	30.43
681.39	0.00
681.52	25.75
681.66	46.81
681.80	32.77
681.94	67.88
682.07	30.43
682.21	58.51
682.35	53.83
682.49	23.41
682.62	117.03
682.76	56.17
682.90	21.06
683.04	42.13
683.17	67.88
683.31	72.56
683.45	0.00
683.59	46.81
683.72	25.75
683.86	60.85
684.00	56.17
684.13	14.04
684.27	25.75
684.41	46.81
684.55	0.00
684.68	51.49
684.82	44.47
684.96	79.58
685.09	67.88
685.23	0.00
685.37	0.00
685.50	60.85
685.64	9.36
685.78	11.70
685.91	37.45
686.05	84.26
686.19	72.56
686.32	53.83
686.46	0.00
686.60	30.43
686.73	49.15
686.87	63.19
687.01	35.11
687.14	30.43
687.28	42.13
687.42	63.19
687.55	49.15
687.69	35.11
687.82	46.81
687.96	0.00
688.10	0.00
688.23	37.45
688.37	39.79
688.50	0.00
688.64	0.00
688.78	14.04
688.91	67.88
689.05	65.54
689.18	93.62
689.32	42.13
689.46	0.00
689.59	30.43
689.73	93.62
689.86	0.00
690.00	60.85
690.13	0.00
690.27	0.00
690.41	77.24
690.54	98.30
690.68	2.34
690.81	35.11
690.95	65.54
691.08	72.56
691.22	100.64
691.35	119.37
691.49	21.06
691.62	4.68
691.76	37.45
691.89	32.77
692.03	58.51
692.16	2.34
692.30	67.88
692.43	86.60
692.57	456.40
692.70	671.73
692.84	861.32
692.97	866.00
693.11	667.05
693.24	500.87
693.38	304.27
693.51	173.20
693.65	145.11
693.78	98.30
693.92	81.92
694.05	42.13
694.19	67.88
694.32	51.49
694.45	110.01
694.59	58.51
694.72	25.75
694.86	51.49
694.99	37.45
695.13	18.72
695.26	30.43
695.39	0.00
695.53	4.68
695.66	2.34
695.80	37.45
695.93	51.49
696.07	56.17
696.20	77.24
696.33	65.54
696.47	0.00
696.60	4.68
696.73	30.43
696.87	107.66
697.00	35.11
697.14	37.45
697.27	11.70
697.40	44.47
697.54	63.19
697.67	56.17
697.80	23.41
697.94	58.51
698.07	0.00
698.21	32.77
698.34	49.15
698.47	9.36
698.61	0.00
698.74	14.04
698.87	53.83
699.01	37.45
699.14	4.68
699.27	18.72
699.40	46.81
699.54	4.68
699.67	0.00
699.80	0.00
699.94	35.11
700.07	0.00
700.20	51.49
700.34	4.68
700.47	35.11
700.60	60.85
700.73	0.00
700.87	93.62
701.00	11.70
701.13	110.01
701.26	39.79
701.40	11.70
701.53	42.13
701.66	9.36
701.79	37.45
701.93	44.47
702.06	18.72
702.19	161.50
702.32	65.54
702.46	81.92
702.59	44.47
702.72	161.50
702.85	514.92
702.99	1032.18
703.12	1514.33
703.25	1872.43
703.38	1519.01
703.51	1343.47
703.65	880.04
703.78	634.29
703.91	496.19
704.04	374.49
704.17	166.18
704.31	112.35
704.44	119.37
704.57	79.58
704.70	25.75
704.83	100.64
704.96	65.54
705.10	81.92
705.23	42.13
>>>>>End Processed Spectral Data<<<<<
