SpectraSuite Data File
++++++++++++++++++++++++++++++++++++
Date: Fri Oct 04 12:13:27 GMT-05:00 2013
User: price-jones
Dark Spectrum Present: No
Reference Spectrum Present: No
Number of Sampled Component Spectra: 1
Spectrometers: USB2+H05261
Integration Time (usec): 10000 (USB2+H05261)
Spectra Averaged: 1 (USB2+H05261)
Boxcar Smoothing: 0 (USB2+H05261)
Correct for Electrical Dark: No (USB2+H05261)
Strobe/Lamp Enabled: No (USB2+H05261)
Correct for Detector Non-linearity: No (USB2+H05261)
Correct for Stray Light: No (USB2+H05261)
Number of Pixels in Processed Spectrum: 2048
>>>>>Begin Processed Spectral Data<<<<<
365.73	37.45
365.92	37.45
366.12	37.45
366.32	0.00
366.52	0.00
366.72	0.00
366.91	0.00
367.11	0.00
367.31	0.00
367.51	0.00
367.70	0.00
367.90	0.00
368.10	0.00
368.30	0.00
368.49	0.00
368.69	0.00
368.89	0.00
369.09	0.00
369.28	0.00
369.48	0.00
369.68	0.00
369.87	0.00
370.07	0.00
370.27	0.00
370.47	23.41
370.66	0.00
370.86	0.00
371.06	4.68
371.25	0.00
371.45	0.00
371.65	9.36
371.84	0.00
372.04	0.00
372.24	0.00
372.44	0.00
372.63	39.79
372.83	0.00
373.03	0.00
373.22	0.00
373.42	35.11
373.62	88.94
373.81	58.51
374.01	95.96
374.21	121.71
374.40	14.04
374.60	0.00
374.79	77.24
374.99	11.70
375.19	35.11
375.38	77.24
375.58	72.56
375.78	49.15
375.97	16.38
376.17	2.34
376.37	60.85
376.56	25.75
376.76	32.77
376.95	9.36
377.15	77.24
377.35	28.09
377.54	18.72
377.74	0.00
377.93	60.85
378.13	0.00
378.33	39.79
378.52	23.41
378.72	46.81
378.91	9.36
379.11	32.77
379.31	21.06
379.50	0.00
379.70	0.00
379.89	16.38
380.09	4.68
380.28	0.00
380.48	51.49
380.68	0.00
380.87	7.02
381.07	0.00
381.26	0.00
381.46	0.00
381.65	72.56
381.85	2.34
382.04	70.22
382.24	53.83
382.43	9.36
382.63	0.00
382.83	37.45
383.02	28.09
383.22	67.88
383.41	18.72
383.61	49.15
383.80	0.00
384.00	9.36
384.19	16.38
384.39	60.85
384.58	18.72
384.78	35.11
384.97	37.45
385.17	0.00
385.36	23.41
385.56	0.00
385.75	35.11
385.95	39.79
386.14	0.00
386.34	60.85
386.53	0.00
386.72	16.38
386.92	9.36
387.11	0.00
387.31	0.00
387.50	58.51
387.70	32.77
387.89	0.00
388.09	0.00
388.28	0.00
388.48	11.70
388.67	49.15
388.86	14.04
389.06	74.90
389.25	42.13
389.45	0.00
389.64	0.00
389.84	51.49
390.03	79.58
390.22	77.24
390.42	56.17
390.61	30.43
390.81	0.00
391.00	37.45
391.19	49.15
391.39	51.49
391.58	0.00
391.78	46.81
391.97	0.00
392.16	18.72
392.36	58.51
392.55	14.04
392.75	23.41
392.94	16.38
393.13	44.47
393.33	0.00
393.52	18.72
393.71	49.15
393.91	44.47
394.10	60.85
394.29	0.00
394.49	56.17
394.68	11.70
394.88	58.51
395.07	42.13
395.26	4.68
395.46	0.00
395.65	14.04
395.84	0.00
396.04	0.00
396.23	0.00
396.42	88.94
396.62	0.00
396.81	67.88
397.00	4.68
397.19	0.00
397.39	60.85
397.58	23.41
397.77	0.00
397.97	30.43
398.16	49.15
398.35	60.85
398.55	2.34
398.74	23.41
398.93	0.00
399.12	0.00
399.32	35.11
399.51	18.72
399.70	32.77
399.90	0.00
400.09	58.51
400.28	16.38
400.47	60.85
400.67	0.00
400.86	18.72
401.05	67.88
401.24	65.54
401.44	28.09
401.63	0.00
401.82	32.77
402.01	46.81
402.21	0.00
402.40	37.45
402.59	30.43
402.78	49.15
402.97	65.54
403.17	0.00
403.36	60.85
403.55	23.41
403.74	0.00
403.93	0.00
404.13	32.77
404.32	56.17
404.51	42.13
404.70	28.09
404.89	58.51
405.09	0.00
405.28	102.98
405.47	21.06
405.66	35.11
405.85	46.81
406.05	14.04
406.24	0.00
406.43	0.00
406.62	14.04
406.81	84.26
407.00	49.15
407.20	0.00
407.39	18.72
407.58	0.00
407.77	65.54
407.96	86.60
408.15	35.11
408.34	44.47
408.54	21.06
408.73	28.09
408.92	49.15
409.11	35.11
409.30	28.09
409.49	42.13
409.68	121.71
409.87	84.26
410.07	30.43
410.26	49.15
410.45	28.09
410.64	0.00
410.83	9.36
411.02	42.13
411.21	0.00
411.40	11.70
411.59	74.90
411.78	0.00
411.98	11.70
412.17	23.41
412.36	0.00
412.55	42.13
412.74	0.00
412.93	0.00
413.12	25.75
413.31	0.00
413.50	9.36
413.69	0.00
413.88	4.68
414.07	0.00
414.26	77.24
414.45	32.77
414.64	46.81
414.83	46.81
415.02	63.19
415.22	84.26
415.41	58.51
415.60	77.24
415.79	39.79
415.98	56.17
416.17	0.00
416.36	32.77
416.55	16.38
416.74	42.13
416.93	0.00
417.12	49.15
417.31	0.00
417.50	0.00
417.69	51.49
417.88	0.00
418.07	11.70
418.26	49.15
418.45	51.49
418.64	74.90
418.83	63.19
419.02	14.04
419.21	60.85
419.39	65.54
419.58	65.54
419.77	30.43
419.96	0.00
420.15	53.83
420.34	7.02
420.53	28.09
420.72	32.77
420.91	25.75
421.10	84.26
421.29	0.00
421.48	0.00
421.67	0.00
421.86	0.00
422.05	16.38
422.24	51.49
422.43	9.36
422.61	0.00
422.80	74.90
422.99	117.03
423.18	14.04
423.37	11.70
423.56	0.00
423.75	60.85
423.94	0.00
424.13	30.43
424.32	35.11
424.50	28.09
424.69	79.58
424.88	30.43
425.07	37.45
425.26	9.36
425.45	18.72
425.64	44.47
425.83	0.00
426.01	30.43
426.20	128.73
426.39	0.00
426.58	79.58
426.77	28.09
426.96	0.00
427.15	0.00
427.33	81.92
427.52	46.81
427.71	4.68
427.90	56.17
428.09	4.68
428.28	0.00
428.46	44.47
428.65	53.83
428.84	79.58
429.03	18.72
429.22	14.04
429.40	11.70
429.59	0.00
429.78	93.62
429.97	11.70
430.16	4.68
430.34	7.02
430.53	74.90
430.72	63.19
430.91	0.00
431.10	56.17
431.28	42.13
431.47	46.81
431.66	0.00
431.85	14.04
432.03	44.47
432.22	105.32
432.41	67.88
432.60	0.00
432.79	32.77
432.97	63.19
433.16	51.49
433.35	23.41
433.54	67.88
433.72	44.47
433.91	42.13
434.10	46.81
434.28	65.54
434.47	0.00
434.66	0.00
434.85	32.77
435.03	37.45
435.22	0.00
435.41	14.04
435.59	44.47
435.78	84.26
435.97	56.17
436.16	88.94
436.34	72.56
436.53	65.54
436.72	67.88
436.90	79.58
437.09	77.24
437.28	72.56
437.46	0.00
437.65	9.36
437.84	0.00
438.02	9.36
438.21	7.02
438.40	2.34
438.58	4.68
438.77	49.15
438.96	30.43
439.14	0.00
439.33	28.09
439.52	0.00
439.70	11.70
439.89	51.49
440.08	32.77
440.26	58.51
440.45	56.17
440.63	42.13
440.82	58.51
441.01	56.17
441.19	0.00
441.38	9.36
441.57	67.88
441.75	0.00
441.94	21.06
442.12	21.06
442.31	0.00
442.50	60.85
442.68	67.88
442.87	51.49
443.05	53.83
443.24	14.04
443.43	77.24
443.61	72.56
443.80	91.28
443.98	9.36
444.17	37.45
444.35	23.41
444.54	0.00
444.73	53.83
444.91	63.19
445.10	0.00
445.28	53.83
445.47	4.68
445.65	35.11
445.84	0.00
446.02	25.75
446.21	44.47
446.39	44.47
446.58	4.68
446.77	25.75
446.95	25.75
447.14	81.92
447.32	44.47
447.51	32.77
447.69	72.56
447.88	133.41
448.06	77.24
448.25	23.41
448.43	65.54
448.62	86.60
448.80	0.00
448.99	0.00
449.17	81.92
449.36	95.96
449.54	42.13
449.73	0.00
449.91	121.71
450.10	23.41
450.28	67.88
450.46	51.49
450.65	9.36
450.83	30.43
451.02	23.41
451.20	0.00
451.39	60.85
451.57	32.77
451.76	21.06
451.94	93.62
452.13	11.70
452.31	30.43
452.49	18.72
452.68	0.00
452.86	58.51
453.05	2.34
453.23	0.00
453.42	86.60
453.60	0.00
453.78	14.04
453.97	58.51
454.15	4.68
454.34	107.66
454.52	58.51
454.70	56.17
454.89	39.79
455.07	32.77
455.26	35.11
455.44	30.43
455.62	23.41
455.81	0.00
455.99	67.88
456.17	9.36
456.36	46.81
456.54	72.56
456.73	16.38
456.91	46.81
457.09	0.00
457.28	18.72
457.46	46.81
457.64	98.30
457.83	42.13
458.01	35.11
458.19	28.09
458.38	0.00
458.56	25.75
458.74	7.02
458.93	77.24
459.11	58.51
459.29	28.09
459.48	23.41
459.66	14.04
459.84	60.85
460.03	0.00
460.21	0.00
460.39	0.00
460.57	37.45
460.76	7.02
460.94	0.00
461.12	0.00
461.31	16.38
461.49	4.68
461.67	0.00
461.85	4.68
462.04	88.94
462.22	86.60
462.40	70.22
462.59	124.05
462.77	102.98
462.95	63.19
463.13	58.51
463.32	0.00
463.50	18.72
463.68	42.13
463.86	46.81
464.05	77.24
464.23	25.75
464.41	63.19
464.59	46.81
464.78	4.68
464.96	65.54
465.14	28.09
465.32	95.96
465.50	95.96
465.69	7.02
465.87	58.51
466.05	39.79
466.23	91.28
466.41	18.72
466.60	39.79
466.78	7.02
466.96	25.75
467.14	0.00
467.32	4.68
467.51	98.30
467.69	79.58
467.87	72.56
468.05	46.81
468.23	0.00
468.41	28.09
468.60	14.04
468.78	56.17
468.96	0.00
469.14	30.43
469.32	63.19
469.50	44.47
469.69	37.45
469.87	18.72
470.05	39.79
470.23	67.88
470.41	14.04
470.59	30.43
470.77	0.00
470.95	70.22
471.14	0.00
471.32	65.54
471.50	63.19
471.68	0.00
471.86	35.11
472.04	46.81
472.22	4.68
472.40	39.79
472.58	39.79
472.77	16.38
472.95	37.45
473.13	14.04
473.31	11.70
473.49	0.00
473.67	0.00
473.85	79.58
474.03	39.79
474.21	107.66
474.39	44.47
474.57	9.36
474.75	32.77
474.93	79.58
475.12	65.54
475.30	56.17
475.48	44.47
475.66	23.41
475.84	0.00
476.02	93.62
476.20	23.41
476.38	51.49
476.56	98.30
476.74	9.36
476.92	7.02
477.10	25.75
477.28	0.00
477.46	60.85
477.64	23.41
477.82	7.02
478.00	0.00
478.18	60.85
478.36	39.79
478.54	28.09
478.72	46.81
478.90	42.13
479.08	91.28
479.26	14.04
479.44	30.43
479.62	74.90
479.80	53.83
479.98	32.77
480.16	18.72
480.34	0.00
480.52	0.00
480.70	84.26
480.88	102.98
481.06	23.41
481.24	0.00
481.41	30.43
481.59	49.15
481.77	56.17
481.95	102.98
482.13	105.32
482.31	30.43
482.49	0.00
482.67	72.56
482.85	16.38
483.03	37.45
483.21	107.66
483.39	35.11
483.57	65.54
483.74	16.38
483.92	28.09
484.10	81.92
484.28	81.92
484.46	100.64
484.64	124.05
484.82	49.15
485.00	0.00
485.18	72.56
485.35	112.35
485.53	30.43
485.71	14.04
485.89	46.81
486.07	11.70
486.25	77.24
486.43	32.77
486.61	32.77
486.78	28.09
486.96	14.04
487.14	63.19
487.32	2.34
487.50	81.92
487.68	37.45
487.85	72.56
488.03	84.26
488.21	88.94
488.39	58.51
488.57	60.85
488.75	18.72
488.92	63.19
489.10	39.79
489.28	9.36
489.46	44.47
489.64	30.43
489.81	4.68
489.99	32.77
490.17	30.43
490.35	81.92
490.53	0.00
490.70	65.54
490.88	79.58
491.06	53.83
491.24	60.85
491.41	119.37
491.59	14.04
491.77	30.43
491.95	9.36
492.13	53.83
492.30	4.68
492.48	39.79
492.66	25.75
492.84	18.72
493.01	58.51
493.19	2.34
493.37	16.38
493.54	63.19
493.72	4.68
493.90	0.00
494.08	0.00
494.25	9.36
494.43	30.43
494.61	30.43
494.79	23.41
494.96	0.00
495.14	42.13
495.32	0.00
495.49	95.96
495.67	42.13
495.85	44.47
496.02	35.11
496.20	16.38
496.38	37.45
496.55	7.02
496.73	11.70
496.91	0.00
497.09	30.43
497.26	74.90
497.44	91.28
497.62	65.54
497.79	44.47
497.97	11.70
498.14	79.58
498.32	37.45
498.50	44.47
498.67	51.49
498.85	74.90
499.03	32.77
499.20	30.43
499.38	28.09
499.56	0.00
499.73	128.73
499.91	81.92
500.08	81.92
500.26	46.81
500.44	0.00
500.61	91.28
500.79	37.45
500.97	95.96
501.14	58.51
501.32	86.60
501.49	7.02
501.67	63.19
501.84	0.00
502.02	18.72
502.20	23.41
502.37	9.36
502.55	0.00
502.72	46.81
502.90	32.77
503.07	14.04
503.25	124.05
503.43	102.98
503.60	28.09
503.78	53.83
503.95	58.51
504.13	9.36
504.30	53.83
504.48	60.85
504.65	65.54
504.83	60.85
505.01	25.75
505.18	30.43
505.36	53.83
505.53	70.22
505.71	18.72
505.88	110.01
506.06	35.11
506.23	65.54
506.41	56.17
506.58	44.47
506.76	44.47
506.93	18.72
507.11	63.19
507.28	0.00
507.46	0.00
507.63	72.56
507.81	67.88
507.98	46.81
508.16	56.17
508.33	70.22
508.50	0.00
508.68	14.04
508.85	67.88
509.03	23.41
509.20	72.56
509.38	79.58
509.55	65.54
509.73	53.83
509.90	0.00
510.08	63.19
510.25	4.68
510.42	46.81
510.60	53.83
510.77	46.81
510.95	28.09
511.12	67.88
511.30	44.47
511.47	44.47
511.64	39.79
511.82	67.88
511.99	16.38
512.17	32.77
512.34	79.58
512.51	0.00
512.69	11.70
512.86	0.00
513.04	0.00
513.21	0.00
513.38	46.81
513.56	25.75
513.73	84.26
513.90	77.24
514.08	110.01
514.25	53.83
514.43	74.90
514.60	32.77
514.77	46.81
514.95	0.00
515.12	0.00
515.29	30.43
515.47	28.09
515.64	65.54
515.81	53.83
515.99	49.15
516.16	0.00
516.33	42.13
516.51	16.38
516.68	42.13
516.85	7.02
517.03	81.92
517.20	28.09
517.37	4.68
517.54	2.34
517.72	25.75
517.89	14.04
518.06	4.68
518.24	2.34
518.41	0.00
518.58	77.24
518.75	32.77
518.93	56.17
519.10	7.02
519.27	58.51
519.45	35.11
519.62	46.81
519.79	7.02
519.96	42.13
520.14	21.06
520.31	95.96
520.48	84.26
520.65	67.88
520.83	30.43
521.00	70.22
521.17	37.45
521.34	65.54
521.52	135.75
521.69	74.90
521.86	39.79
522.03	63.19
522.20	93.62
522.38	77.24
522.55	77.24
522.72	25.75
522.89	37.45
523.07	11.70
523.24	28.09
523.41	63.19
523.58	60.85
523.75	21.06
523.92	72.56
524.10	37.45
524.27	0.00
524.44	0.00
524.61	21.06
524.78	0.00
524.96	35.11
525.13	63.19
525.30	25.75
525.47	0.00
525.64	35.11
525.81	0.00
525.98	79.58
526.16	84.26
526.33	21.06
526.50	105.32
526.67	56.17
526.84	11.70
527.01	0.00
527.18	56.17
527.36	7.02
527.53	11.70
527.70	37.45
527.87	0.00
528.04	98.30
528.21	9.36
528.38	0.00
528.55	25.75
528.72	35.11
528.89	53.83
529.07	42.13
529.24	0.00
529.41	95.96
529.58	2.34
529.75	56.17
529.92	98.30
530.09	35.11
530.26	86.60
530.43	86.60
530.60	39.79
530.77	119.37
530.94	9.36
531.11	21.06
531.28	53.83
531.46	53.83
531.63	25.75
531.80	18.72
531.97	0.00
532.14	126.39
532.31	84.26
532.48	30.43
532.65	42.13
532.82	44.47
532.99	18.72
533.16	117.03
533.33	91.28
533.50	18.72
533.67	28.09
533.84	23.41
534.01	100.64
534.18	154.48
534.35	44.47
534.52	156.82
534.69	65.54
534.86	65.54
535.03	0.00
535.20	30.43
535.37	7.02
535.54	9.36
535.71	72.56
535.88	58.51
536.05	65.54
536.22	11.70
536.38	49.15
536.55	102.98
536.72	18.72
536.89	46.81
537.06	37.45
537.23	105.32
537.40	63.19
537.57	142.77
537.74	93.62
537.91	0.00
538.08	70.22
538.25	95.96
538.42	51.49
538.59	0.00
538.75	11.70
538.92	39.79
539.09	0.00
539.26	51.49
539.43	95.96
539.60	217.67
539.77	248.10
539.94	236.39
540.11	170.86
540.28	161.50
540.44	51.49
540.61	32.77
540.78	0.00
540.95	39.79
541.12	18.72
541.29	0.00
541.46	16.38
541.62	102.98
541.79	84.26
541.96	0.00
542.13	86.60
542.30	51.49
542.47	11.70
542.63	53.83
542.80	32.77
542.97	0.00
543.14	81.92
543.31	81.92
543.48	53.83
543.64	25.75
543.81	30.43
543.98	70.22
544.15	7.02
544.32	0.00
544.48	84.26
544.65	39.79
544.82	18.72
544.99	65.54
545.16	14.04
545.32	95.96
545.49	65.54
545.66	11.70
545.83	86.60
546.00	2.34
546.16	81.92
546.33	58.51
546.50	70.22
546.67	124.05
546.83	51.49
547.00	9.36
547.17	65.54
547.34	70.22
547.50	60.85
547.67	28.09
547.84	58.51
548.00	93.62
548.17	65.54
548.34	53.83
548.51	18.72
548.67	0.00
548.84	88.94
549.01	93.62
549.18	39.79
549.34	0.00
549.51	0.00
549.68	21.06
549.84	25.75
550.01	4.68
550.18	28.09
550.34	102.98
550.51	39.79
550.68	42.13
550.84	51.49
551.01	11.70
551.18	11.70
551.34	70.22
551.51	79.58
551.68	65.54
551.84	42.13
552.01	0.00
552.18	39.79
552.34	58.51
552.51	0.00
552.68	51.49
552.84	39.79
553.01	25.75
553.18	49.15
553.34	53.83
553.51	95.96
553.67	42.13
553.84	7.02
554.01	0.00
554.17	84.26
554.34	60.85
554.51	0.00
554.67	0.00
554.84	84.26
555.00	0.00
555.17	23.41
555.33	49.15
555.50	28.09
555.67	11.70
555.83	72.56
556.00	79.58
556.16	105.32
556.33	42.13
556.50	74.90
556.66	93.62
556.83	0.00
556.99	35.11
557.16	65.54
557.32	81.92
557.49	58.51
557.65	77.24
557.82	79.58
557.98	105.32
558.15	35.11
558.32	4.68
558.48	70.22
558.65	98.30
558.81	63.19
558.98	37.45
559.14	60.85
559.31	42.13
559.47	4.68
559.64	72.56
559.80	67.88
559.97	2.34
560.13	107.66
560.30	23.41
560.46	42.13
560.63	53.83
560.79	86.60
560.96	11.70
561.12	18.72
561.29	63.19
561.45	67.88
561.61	28.09
561.78	16.38
561.94	91.28
562.11	74.90
562.27	0.00
562.44	105.32
562.60	72.56
562.77	65.54
562.93	72.56
563.10	86.60
563.26	32.77
563.42	35.11
563.59	58.51
563.75	11.70
563.92	51.49
564.08	63.19
564.24	51.49
564.41	77.24
564.57	32.77
564.74	21.06
564.90	88.94
565.07	128.73
565.23	88.94
565.39	35.11
565.56	7.02
565.72	0.00
565.88	0.00
566.05	77.24
566.21	0.00
566.38	39.79
566.54	9.36
566.70	0.00
566.87	30.43
567.03	16.38
567.19	25.75
567.36	63.19
567.52	25.75
567.68	39.79
567.85	58.51
568.01	58.51
568.17	58.51
568.34	0.00
568.50	53.83
568.66	14.04
568.83	56.17
568.99	28.09
569.15	16.38
569.32	72.56
569.48	0.00
569.64	7.02
569.81	42.13
569.97	53.83
570.13	58.51
570.30	42.13
570.46	91.28
570.62	53.83
570.78	0.00
570.95	51.49
571.11	49.15
571.27	37.45
571.43	65.54
571.60	37.45
571.76	21.06
571.92	0.00
572.09	30.43
572.25	0.00
572.41	39.79
572.57	93.62
572.74	86.60
572.90	37.45
573.06	105.32
573.22	0.00
573.38	88.94
573.55	49.15
573.71	65.54
573.87	51.49
574.03	56.17
574.20	44.47
574.36	42.13
574.52	28.09
574.68	142.77
574.84	9.36
575.01	65.54
575.17	60.85
575.33	35.11
575.49	30.43
575.65	30.43
575.82	56.17
575.98	156.82
576.14	107.66
576.30	234.05
576.46	70.22
576.62	84.26
576.79	79.58
576.95	60.85
577.11	37.45
577.27	42.13
577.43	72.56
577.59	100.64
577.75	102.98
577.92	32.77
578.08	0.00
578.24	56.17
578.40	14.04
578.56	98.30
578.72	32.77
578.88	49.15
579.04	58.51
579.21	32.77
579.37	42.13
579.53	60.85
579.69	49.15
579.85	63.19
580.01	49.15
580.17	74.90
580.33	49.15
580.49	16.38
580.65	0.00
580.82	44.47
580.98	0.00
581.14	0.00
581.30	100.64
581.46	105.32
581.62	112.35
581.78	154.48
581.94	98.30
582.10	135.75
582.26	25.75
582.42	63.19
582.58	46.81
582.74	46.81
582.90	32.77
583.06	88.94
583.22	72.56
583.38	140.43
583.54	28.09
583.70	119.37
583.86	156.82
584.02	180.22
584.18	175.54
584.34	252.78
584.50	678.76
584.66	4313.61
584.82	11204.14
584.98	16636.53
585.14	14569.83
585.30	9287.25
585.46	5448.77
585.62	3323.56
585.78	1638.38
585.94	566.41
586.10	173.20
586.26	196.60
586.42	30.43
586.58	32.77
586.74	126.39
586.90	74.90
587.06	135.75
587.22	124.05
587.38	100.64
587.54	189.58
587.70	601.52
587.86	1076.65
588.02	1203.04
588.18	732.59
588.34	500.87
588.49	362.78
588.65	217.67
588.81	156.82
588.97	60.85
589.13	16.38
589.29	56.17
589.45	88.94
589.61	79.58
589.77	58.51
589.93	51.49
590.08	51.49
590.24	173.20
590.40	91.28
590.56	39.79
590.72	56.17
590.88	0.00
591.04	46.81
591.20	135.75
591.35	77.24
591.51	21.06
591.67	56.17
591.83	91.28
591.99	42.13
592.15	112.35
592.31	7.02
592.46	74.90
592.62	88.94
592.78	126.39
592.94	25.75
593.10	72.56
593.26	42.13
593.41	51.49
593.57	58.51
593.73	124.05
593.89	543.00
594.05	1336.45
594.20	2029.24
594.36	1935.62
594.52	1308.36
594.68	774.72
594.84	500.87
594.99	308.95
595.15	161.50
595.31	110.01
595.47	32.77
595.62	25.75
595.78	77.24
595.94	74.90
596.10	102.98
596.25	42.13
596.41	65.54
596.57	49.15
596.73	0.00
596.88	135.75
597.04	290.23
597.20	393.21
597.36	585.13
597.51	442.36
597.67	205.97
597.83	196.60
597.99	135.75
598.14	49.15
598.30	23.41
598.46	91.28
598.61	18.72
598.77	65.54
598.93	0.00
599.09	44.47
599.24	23.41
599.40	0.00
599.56	51.49
599.71	4.68
599.87	14.04
600.03	0.00
600.18	42.13
600.34	23.41
600.50	126.39
600.65	14.04
600.81	70.22
600.97	77.24
601.12	58.51
601.28	74.90
601.44	70.22
601.59	0.00
601.75	23.41
601.91	70.22
602.06	0.00
602.22	102.98
602.37	161.50
602.53	337.04
602.69	510.24
602.84	571.09
603.00	390.87
603.16	266.82
603.31	184.90
603.47	163.84
603.62	49.15
603.78	102.98
603.94	14.04
604.09	63.19
604.25	49.15
604.40	81.92
604.56	39.79
604.71	35.11
604.87	44.47
605.03	81.92
605.18	56.17
605.34	84.26
605.49	23.41
605.65	84.26
605.80	88.94
605.96	102.98
606.12	18.72
606.27	56.17
606.43	7.02
606.58	0.00
606.74	117.03
606.89	683.44
607.05	1324.74
607.20	1743.70
607.36	1540.07
607.51	1067.28
607.67	564.07
607.82	465.77
607.98	159.16
608.13	177.88
608.29	117.03
608.44	84.26
608.60	63.19
608.75	119.37
608.91	276.18
609.06	1029.84
609.22	2211.81
609.37	3080.14
609.53	2516.08
609.68	1865.41
609.84	1188.99
609.99	746.63
610.15	440.02
610.30	231.71
610.46	98.30
610.61	88.94
610.76	72.56
610.92	60.85
611.07	105.32
611.23	114.69
611.38	44.47
611.54	63.19
611.69	51.49
611.84	28.09
612.00	7.02
612.15	84.26
612.31	28.09
612.46	107.66
612.62	191.92
612.77	138.09
612.92	65.54
613.08	79.58
613.23	65.54
613.39	84.26
613.54	191.92
613.69	968.98
613.85	2703.32
614.00	4437.66
614.15	4858.95
614.31	3438.25
614.46	2134.57
614.62	1472.20
614.77	830.89
614.92	444.70
615.08	133.41
615.23	168.52
615.38	18.72
615.54	124.05
615.69	100.64
615.84	496.19
616.00	968.98
616.15	1277.93
616.30	1048.56
616.46	655.35
616.61	444.70
616.76	397.89
616.92	180.22
617.07	32.77
617.22	93.62
617.37	65.54
617.53	0.00
617.68	51.49
617.83	93.62
617.99	44.47
618.14	114.69
618.29	56.17
618.45	39.79
618.60	0.00
618.75	32.77
618.90	53.83
619.06	32.77
619.21	9.36
619.36	79.58
619.51	2.34
619.67	56.17
619.82	4.68
619.97	32.77
620.12	44.47
620.28	0.00
620.43	39.79
620.58	65.54
620.73	18.72
620.89	37.45
621.04	42.13
621.19	315.97
621.34	571.09
621.49	746.63
621.65	671.73
621.80	510.24
621.95	306.61
622.10	234.05
622.25	126.39
622.41	60.85
622.56	42.13
622.71	95.96
622.86	42.13
623.01	0.00
623.16	93.62
623.32	18.72
623.47	0.00
623.62	0.00
623.77	0.00
623.92	53.83
624.07	0.00
624.23	63.19
624.38	67.88
624.53	63.19
624.68	79.58
624.83	51.49
624.98	16.38
625.13	0.00
625.29	25.75
625.44	98.30
625.59	39.79
625.74	77.24
625.89	98.30
626.04	599.18
626.19	1425.39
626.34	2225.85
626.49	2588.63
626.65	1830.30
626.80	1268.57
626.95	821.53
627.10	472.79
627.25	280.86
627.40	170.86
627.55	74.90
627.70	81.92
627.85	51.49
628.00	58.51
628.15	18.72
628.30	84.26
628.45	67.88
628.60	9.36
628.76	0.00
628.91	30.43
629.06	110.01
629.21	70.22
629.36	56.17
629.51	51.49
629.66	0.00
629.81	44.47
629.96	227.03
630.11	451.72
630.26	617.90
630.41	559.39
630.56	390.87
630.71	294.91
630.86	210.65
631.01	128.73
631.16	138.09
631.31	42.13
631.46	39.79
631.61	0.00
631.76	32.77
631.91	79.58
632.06	74.90
632.21	0.00
632.36	72.56
632.51	35.11
632.66	100.64
632.81	299.59
632.96	795.78
633.10	1376.24
633.25	1736.68
633.40	1504.96
633.55	1001.75
633.70	674.07
633.85	468.11
634.00	220.01
634.15	191.92
634.30	18.72
634.45	30.43
634.60	86.60
634.75	7.02
634.90	105.32
635.05	95.96
635.19	60.85
635.34	30.43
635.49	58.51
635.64	28.09
635.79	77.24
635.94	107.66
636.09	105.32
636.24	131.07
636.39	21.06
636.53	32.77
636.68	35.11
636.83	0.00
636.98	46.81
637.13	152.13
637.28	77.24
637.43	60.85
637.57	140.43
637.72	601.52
637.87	1689.87
638.02	2799.28
638.17	3197.17
638.32	2445.86
638.46	1640.72
638.61	1123.46
638.76	622.58
638.91	330.02
639.06	212.99
639.20	133.41
639.35	126.39
639.50	149.79
639.65	994.73
639.80	2789.92
639.94	4479.79
640.09	5097.69
640.24	3763.58
640.39	2459.90
640.54	1643.06
640.68	1025.15
640.83	545.34
640.98	196.60
641.13	159.16
641.27	161.50
641.42	11.70
641.57	44.47
641.72	65.54
641.86	65.54
642.01	114.69
642.16	81.92
642.31	79.58
642.45	37.45
642.60	42.13
642.75	128.73
642.90	30.43
643.04	44.47
643.19	65.54
643.34	56.17
643.48	21.06
643.63	88.94
643.78	0.00
643.93	95.96
644.07	25.75
644.22	98.30
644.37	63.19
644.51	0.00
644.66	0.00
644.81	25.75
644.95	0.00
645.10	0.00
645.25	18.72
645.39	0.00
645.54	0.00
645.69	0.00
645.83	11.70
645.98	0.00
646.13	37.45
646.27	28.09
646.42	4.68
646.57	0.00
646.71	39.79
646.86	58.51
647.00	0.00
647.15	30.43
647.30	21.06
647.44	79.58
647.59	32.77
647.74	56.17
647.88	42.13
648.03	23.41
648.17	58.51
648.32	21.06
648.47	18.72
648.61	37.45
648.76	25.75
648.90	39.79
649.05	67.88
649.20	18.72
649.34	9.36
649.49	14.04
649.63	100.64
649.78	58.51
649.92	88.94
650.07	423.64
650.21	1135.16
650.36	2155.63
650.51	2612.04
650.65	2179.04
650.80	1528.37
650.94	1050.90
651.09	573.43
651.23	388.53
651.38	152.13
651.52	63.19
651.67	72.56
651.81	49.15
651.96	149.79
652.10	117.03
652.25	44.47
652.39	67.88
652.54	18.72
652.68	67.88
652.83	404.91
652.97	702.16
653.12	999.41
653.26	828.55
653.41	599.18
653.55	402.57
653.70	250.44
653.84	65.54
653.99	102.98
654.13	65.54
654.27	58.51
654.42	37.45
654.56	18.72
654.71	28.09
654.85	9.36
655.00	46.81
655.14	88.94
655.29	56.17
655.43	35.11
655.57	56.17
655.72	42.13
655.86	98.30
656.01	51.49
656.15	37.45
656.30	42.13
656.44	60.85
656.58	86.60
656.73	74.90
656.87	42.13
657.01	70.22
657.16	35.11
657.30	0.00
657.45	102.98
657.59	0.00
657.73	0.00
657.88	46.81
658.02	14.04
658.16	140.43
658.31	119.37
658.45	51.49
658.60	37.45
658.74	35.11
658.88	0.00
659.03	131.07
659.17	72.56
659.31	227.03
659.46	552.37
659.60	1039.20
659.74	1345.81
659.89	1186.65
660.03	814.51
660.17	629.60
660.32	339.38
660.46	184.90
660.60	112.35
660.74	79.58
660.89	21.06
661.03	42.13
661.17	105.32
661.32	0.00
661.46	0.00
661.60	56.17
661.74	7.02
661.89	14.04
662.03	81.92
662.17	39.79
662.31	86.60
662.46	49.15
662.60	44.47
662.74	16.38
662.88	0.00
663.03	44.47
663.17	65.54
663.31	86.60
663.45	28.09
663.60	51.49
663.74	18.72
663.88	124.05
664.02	0.00
664.17	91.28
664.31	63.19
664.45	56.17
664.59	25.75
664.73	0.00
664.88	37.45
665.02	11.70
665.16	39.79
665.30	44.47
665.44	4.68
665.59	56.17
665.73	23.41
665.87	88.94
666.01	35.11
666.15	25.75
666.29	65.54
666.44	51.49
666.58	65.54
666.72	44.47
666.86	23.41
667.00	56.17
667.14	86.60
667.28	393.21
667.43	1069.62
667.57	1682.85
667.71	2221.17
667.85	1963.71
667.99	1458.15
668.13	915.15
668.27	559.39
668.41	315.97
668.56	231.71
668.70	147.45
668.84	65.54
668.98	70.22
669.12	9.36
669.26	124.05
669.40	72.56
669.54	9.36
669.68	58.51
669.82	0.00
669.96	7.02
670.10	65.54
670.25	42.13
670.39	88.94
670.53	86.60
670.67	46.81
670.81	0.00
670.95	51.49
671.09	93.62
671.23	292.57
671.37	880.04
671.51	1266.23
671.65	1432.41
671.79	1046.22
671.93	758.33
672.07	519.60
672.21	320.65
672.35	77.24
672.49	60.85
672.63	65.54
672.77	49.15
672.91	30.43
673.05	67.88
673.19	0.00
673.33	21.06
673.47	30.43
673.61	39.79
673.75	0.00
673.89	14.04
674.03	84.26
674.17	18.72
674.31	35.11
674.45	44.47
674.59	30.43
674.73	77.24
674.87	21.06
675.01	63.19
675.15	2.34
675.29	102.98
675.43	70.22
675.56	63.19
675.70	81.92
675.84	7.02
675.98	0.00
676.12	2.34
676.26	23.41
676.40	11.70
676.54	88.94
676.68	35.11
676.82	30.43
676.96	0.00
677.10	35.11
677.23	9.36
677.37	72.56
677.51	60.85
677.65	30.43
677.79	37.45
677.93	14.04
678.07	46.81
678.21	46.81
678.34	100.64
678.48	56.17
678.62	35.11
678.76	65.54
678.90	0.00
679.04	42.13
679.18	42.13
679.31	58.51
679.45	0.00
679.59	88.94
679.73	51.49
679.87	39.79
680.00	11.70
680.14	2.34
680.28	0.00
680.42	53.83
680.56	35.11
680.70	98.30
680.83	16.38
680.97	126.39
681.11	7.02
681.25	0.00
681.39	2.34
681.52	28.09
681.66	49.15
681.80	39.79
681.94	35.11
682.07	23.41
682.21	35.11
682.35	0.00
682.49	39.79
682.62	23.41
682.76	9.36
682.90	2.34
683.04	53.83
683.17	46.81
683.31	16.38
683.45	42.13
683.59	95.96
683.72	32.77
683.86	46.81
684.00	53.83
684.13	28.09
684.27	79.58
684.41	4.68
684.55	39.79
684.68	93.62
684.82	70.22
684.96	49.15
685.09	42.13
685.23	37.45
685.37	21.06
685.50	65.54
685.64	65.54
685.78	49.15
685.91	25.75
686.05	16.38
686.19	0.00
686.32	0.00
686.46	4.68
686.60	18.72
686.73	0.00
686.87	0.00
687.01	42.13
687.14	58.51
687.28	88.94
687.42	25.75
687.55	58.51
687.69	100.64
687.82	93.62
687.96	102.98
688.10	56.17
688.23	9.36
688.37	95.96
688.50	46.81
688.64	63.19
688.78	0.00
688.91	35.11
689.05	42.13
689.18	23.41
689.32	0.00
689.46	67.88
689.59	63.19
689.73	46.81
689.86	0.00
690.00	9.36
690.13	49.15
690.27	0.00
690.41	60.85
690.54	30.43
690.68	9.36
690.81	51.49
690.95	30.43
691.08	63.19
691.22	0.00
691.35	49.15
691.49	14.04
691.62	0.00
691.76	60.85
691.89	23.41
692.03	23.41
692.16	0.00
692.30	37.45
692.43	95.96
692.57	489.17
692.70	823.87
692.84	910.47
692.97	917.49
693.11	814.51
693.24	475.13
693.38	388.53
693.51	222.35
693.65	227.03
693.78	161.50
693.92	65.54
694.05	53.83
694.19	0.00
694.32	42.13
694.45	53.83
694.59	2.34
694.72	102.98
694.86	81.92
694.99	91.28
695.13	4.68
695.26	0.00
695.39	0.00
695.53	9.36
695.66	51.49
695.80	9.36
695.93	63.19
696.07	74.90
696.20	0.00
696.33	107.66
696.47	156.82
696.60	159.16
696.73	105.32
696.87	58.51
697.00	63.19
697.14	4.68
697.27	18.72
697.40	21.06
697.54	0.00
697.67	23.41
697.80	0.00
697.94	0.00
698.07	23.41
698.21	56.17
698.34	81.92
698.47	63.19
698.61	16.38
698.74	25.75
698.87	37.45
699.01	37.45
699.14	39.79
699.27	46.81
699.40	0.00
699.54	32.77
699.67	11.70
699.80	16.38
699.94	28.09
700.07	74.90
700.20	37.45
700.34	72.56
700.47	51.49
700.60	0.00
700.73	0.00
700.87	16.38
701.00	60.85
701.13	70.22
701.26	53.83
701.40	72.56
701.53	88.94
701.66	63.19
701.79	0.00
701.93	51.49
702.06	51.49
702.19	63.19
702.32	67.88
702.46	81.92
702.59	79.58
702.72	194.26
702.85	528.96
702.99	1170.27
703.12	1762.42
703.25	1989.46
703.38	1710.93
703.51	1245.16
703.65	1116.44
703.78	753.65
703.91	358.10
704.04	332.36
704.17	170.86
704.31	100.64
704.44	93.62
704.57	114.69
704.70	58.51
704.83	88.94
704.96	42.13
705.10	93.62
705.23	117.03
>>>>>End Processed Spectral Data<<<<<
