SpectraSuite Data File
++++++++++++++++++++++++++++++++++++
Date: Fri Oct 04 12:13:32 GMT-05:00 2013
User: price-jones
Dark Spectrum Present: No
Reference Spectrum Present: No
Number of Sampled Component Spectra: 1
Spectrometers: USB2+H05261
Integration Time (usec): 10000 (USB2+H05261)
Spectra Averaged: 1 (USB2+H05261)
Boxcar Smoothing: 0 (USB2+H05261)
Correct for Electrical Dark: No (USB2+H05261)
Strobe/Lamp Enabled: No (USB2+H05261)
Correct for Detector Non-linearity: No (USB2+H05261)
Correct for Stray Light: No (USB2+H05261)
Number of Pixels in Processed Spectrum: 2048
>>>>>Begin Processed Spectral Data<<<<<
365.73	0.00
365.92	0.00
366.12	0.00
366.32	0.00
366.52	0.00
366.72	0.00
366.91	0.00
367.11	0.00
367.31	0.00
367.51	0.00
367.70	0.00
367.90	0.00
368.10	0.00
368.30	0.00
368.49	0.00
368.69	0.00
368.89	0.00
369.09	0.00
369.28	0.00
369.48	0.00
369.68	0.00
369.87	0.00
370.07	0.00
370.27	4.68
370.47	7.02
370.66	0.00
370.86	0.00
371.06	7.02
371.25	16.38
371.45	0.00
371.65	35.11
371.84	35.11
372.04	4.68
372.24	49.15
372.44	18.72
372.63	56.17
372.83	32.77
373.03	46.81
373.22	0.00
373.42	0.00
373.62	4.68
373.81	0.00
374.01	63.19
374.21	9.36
374.40	9.36
374.60	67.88
374.79	25.75
374.99	7.02
375.19	42.13
375.38	2.34
375.58	0.00
375.78	51.49
375.97	56.17
376.17	37.45
376.37	0.00
376.56	60.85
376.76	0.00
376.95	18.72
377.15	0.00
377.35	14.04
377.54	0.00
377.74	44.47
377.93	93.62
378.13	0.00
378.33	0.00
378.52	0.00
378.72	58.51
378.91	42.13
379.11	0.00
379.31	21.06
379.50	51.49
379.70	35.11
379.89	0.00
380.09	0.00
380.28	14.04
380.48	28.09
380.68	25.75
380.87	0.00
381.07	7.02
381.26	0.00
381.46	21.06
381.65	53.83
381.85	0.00
382.04	0.00
382.24	11.70
382.43	21.06
382.63	11.70
382.83	16.38
383.02	28.09
383.22	11.70
383.41	4.68
383.61	0.00
383.80	42.13
384.00	86.60
384.19	16.38
384.39	0.00
384.58	0.00
384.78	4.68
384.97	7.02
385.17	0.00
385.36	0.00
385.56	58.51
385.75	0.00
385.95	11.70
386.14	35.11
386.34	0.00
386.53	91.28
386.72	86.60
386.92	0.00
387.11	124.05
387.31	0.00
387.50	44.47
387.70	0.00
387.89	79.58
388.09	7.02
388.28	70.22
388.48	0.00
388.67	0.00
388.86	0.00
389.06	25.75
389.25	0.00
389.45	16.38
389.64	74.90
389.84	65.54
390.03	11.70
390.22	0.00
390.42	0.00
390.61	49.15
390.81	44.47
391.00	18.72
391.19	21.06
391.39	63.19
391.58	4.68
391.78	30.43
391.97	128.73
392.16	65.54
392.36	23.41
392.55	2.34
392.75	30.43
392.94	7.02
393.13	21.06
393.33	0.00
393.52	30.43
393.71	65.54
393.91	72.56
394.10	56.17
394.29	4.68
394.49	14.04
394.68	32.77
394.88	46.81
395.07	39.79
395.26	30.43
395.46	23.41
395.65	28.09
395.84	0.00
396.04	9.36
396.23	23.41
396.42	67.88
396.62	86.60
396.81	42.13
397.00	28.09
397.19	7.02
397.39	0.00
397.58	0.00
397.77	70.22
397.97	44.47
398.16	32.77
398.35	32.77
398.55	39.79
398.74	72.56
398.93	0.00
399.12	21.06
399.32	14.04
399.51	44.47
399.70	0.00
399.90	7.02
400.09	25.75
400.28	0.00
400.47	0.00
400.67	9.36
400.86	28.09
401.05	0.00
401.24	28.09
401.44	7.02
401.63	0.00
401.82	7.02
402.01	0.00
402.21	4.68
402.40	81.92
402.59	2.34
402.78	11.70
402.97	7.02
403.17	53.83
403.36	0.00
403.55	11.70
403.74	9.36
403.93	0.00
404.13	0.00
404.32	35.11
404.51	21.06
404.70	0.00
404.89	21.06
405.09	32.77
405.28	0.00
405.47	23.41
405.66	0.00
405.85	0.00
406.05	0.00
406.24	51.49
406.43	84.26
406.62	21.06
406.81	49.15
407.00	32.77
407.20	30.43
407.39	18.72
407.58	0.00
407.77	30.43
407.96	0.00
408.15	21.06
408.34	14.04
408.54	51.49
408.73	60.85
408.92	42.13
409.11	18.72
409.30	60.85
409.49	7.02
409.68	16.38
409.87	23.41
410.07	21.06
410.26	28.09
410.45	0.00
410.64	4.68
410.83	44.47
411.02	23.41
411.21	60.85
411.40	14.04
411.59	0.00
411.78	9.36
411.98	0.00
412.17	65.54
412.36	16.38
412.55	14.04
412.74	32.77
412.93	0.00
413.12	0.00
413.31	49.15
413.50	0.00
413.69	2.34
413.88	28.09
414.07	2.34
414.26	98.30
414.45	77.24
414.64	18.72
414.83	0.00
415.02	32.77
415.22	72.56
415.41	63.19
415.60	9.36
415.79	77.24
415.98	51.49
416.17	11.70
416.36	72.56
416.55	21.06
416.74	21.06
416.93	95.96
417.12	0.00
417.31	65.54
417.50	30.43
417.69	0.00
417.88	0.00
418.07	0.00
418.26	21.06
418.45	53.83
418.64	39.79
418.83	72.56
419.02	0.00
419.21	74.90
419.39	21.06
419.58	67.88
419.77	51.49
419.96	0.00
420.15	91.28
420.34	0.00
420.53	51.49
420.72	93.62
420.91	79.58
421.10	18.72
421.29	2.34
421.48	23.41
421.67	65.54
421.86	63.19
422.05	0.00
422.24	0.00
422.43	0.00
422.61	0.00
422.80	32.77
422.99	53.83
423.18	21.06
423.37	81.92
423.56	49.15
423.75	63.19
423.94	42.13
424.13	65.54
424.32	0.00
424.50	28.09
424.69	14.04
424.88	39.79
425.07	30.43
425.26	0.00
425.45	18.72
425.64	7.02
425.83	32.77
426.01	42.13
426.20	30.43
426.39	4.68
426.58	16.38
426.77	70.22
426.96	16.38
427.15	0.00
427.33	0.00
427.52	0.00
427.71	4.68
427.90	0.00
428.09	58.51
428.28	37.45
428.46	23.41
428.65	70.22
428.84	65.54
429.03	23.41
429.22	49.15
429.40	95.96
429.59	44.47
429.78	16.38
429.97	0.00
430.16	30.43
430.34	21.06
430.53	28.09
430.72	0.00
430.91	0.00
431.10	0.00
431.28	67.88
431.47	95.96
431.66	14.04
431.85	44.47
432.03	30.43
432.22	16.38
432.41	67.88
432.60	74.90
432.79	4.68
432.97	0.00
433.16	51.49
433.35	0.00
433.54	0.00
433.72	0.00
433.91	49.15
434.10	16.38
434.28	42.13
434.47	91.28
434.66	37.45
434.85	56.17
435.03	39.79
435.22	2.34
435.41	39.79
435.59	0.00
435.78	0.00
435.97	0.00
436.16	0.00
436.34	72.56
436.53	11.70
436.72	46.81
436.90	4.68
437.09	51.49
437.28	4.68
437.46	74.90
437.65	44.47
437.84	0.00
438.02	32.77
438.21	114.69
438.40	79.58
438.58	28.09
438.77	0.00
438.96	7.02
439.14	11.70
439.33	16.38
439.52	28.09
439.70	14.04
439.89	0.00
440.08	39.79
440.26	4.68
440.45	35.11
440.63	0.00
440.82	53.83
441.01	39.79
441.19	0.00
441.38	56.17
441.57	0.00
441.75	16.38
441.94	0.00
442.12	86.60
442.31	35.11
442.50	37.45
442.68	37.45
442.87	58.51
443.05	0.00
443.24	0.00
443.43	11.70
443.61	84.26
443.80	0.00
443.98	60.85
444.17	30.43
444.35	74.90
444.54	37.45
444.73	0.00
444.91	79.58
445.10	46.81
445.28	37.45
445.47	0.00
445.65	0.00
445.84	14.04
446.02	0.00
446.21	49.15
446.39	39.79
446.58	32.77
446.77	49.15
446.95	65.54
447.14	28.09
447.32	77.24
447.51	30.43
447.69	9.36
447.88	18.72
448.06	23.41
448.25	51.49
448.43	39.79
448.62	14.04
448.80	107.66
448.99	0.00
449.17	11.70
449.36	46.81
449.54	0.00
449.73	49.15
449.91	46.81
450.10	53.83
450.28	70.22
450.46	21.06
450.65	11.70
450.83	53.83
451.02	35.11
451.20	84.26
451.39	18.72
451.57	98.30
451.76	14.04
451.94	0.00
452.13	102.98
452.31	0.00
452.49	84.26
452.68	23.41
452.86	25.75
453.05	46.81
453.23	49.15
453.42	44.47
453.60	46.81
453.78	37.45
453.97	49.15
454.15	49.15
454.34	49.15
454.52	72.56
454.70	0.00
454.89	37.45
455.07	4.68
455.26	0.00
455.44	4.68
455.62	60.85
455.81	28.09
455.99	51.49
456.17	32.77
456.36	72.56
456.54	67.88
456.73	35.11
456.91	0.00
457.09	0.00
457.28	28.09
457.46	67.88
457.64	0.00
457.83	9.36
458.01	44.47
458.19	58.51
458.38	56.17
458.56	23.41
458.74	49.15
458.93	93.62
459.11	2.34
459.29	37.45
459.48	11.70
459.66	0.00
459.84	21.06
460.03	16.38
460.21	58.51
460.39	21.06
460.57	86.60
460.76	0.00
460.94	39.79
461.12	53.83
461.31	74.90
461.49	9.36
461.67	23.41
461.85	30.43
462.04	4.68
462.22	42.13
462.40	2.34
462.59	72.56
462.77	58.51
462.95	93.62
463.13	77.24
463.32	2.34
463.50	7.02
463.68	16.38
463.86	51.49
464.05	84.26
464.23	14.04
464.41	7.02
464.59	39.79
464.78	0.00
464.96	0.00
465.14	23.41
465.32	74.90
465.50	60.85
465.69	67.88
465.87	77.24
466.05	35.11
466.23	4.68
466.41	0.00
466.60	11.70
466.78	0.00
466.96	53.83
467.14	0.00
467.32	65.54
467.51	18.72
467.69	11.70
467.87	0.00
468.05	30.43
468.23	0.00
468.41	53.83
468.60	0.00
468.78	0.00
468.96	7.02
469.14	72.56
469.32	65.54
469.50	0.00
469.69	18.72
469.87	53.83
470.05	7.02
470.23	0.00
470.41	32.77
470.59	95.96
470.77	79.58
470.95	30.43
471.14	2.34
471.32	23.41
471.50	2.34
471.68	0.00
471.86	79.58
472.04	4.68
472.22	11.70
472.40	44.47
472.58	0.00
472.77	44.47
472.95	11.70
473.13	21.06
473.31	35.11
473.49	7.02
473.67	9.36
473.85	28.09
474.03	49.15
474.21	67.88
474.39	0.00
474.57	30.43
474.75	37.45
474.93	16.38
475.12	0.00
475.30	9.36
475.48	16.38
475.66	21.06
475.84	0.00
476.02	14.04
476.20	7.02
476.38	56.17
476.56	30.43
476.74	0.00
476.92	16.38
477.10	39.79
477.28	0.00
477.46	0.00
477.64	11.70
477.82	0.00
478.00	18.72
478.18	91.28
478.36	63.19
478.54	44.47
478.72	0.00
478.90	58.51
479.08	95.96
479.26	53.83
479.44	77.24
479.62	16.38
479.80	23.41
479.98	49.15
480.16	4.68
480.34	79.58
480.52	4.68
480.70	11.70
480.88	70.22
481.06	7.02
481.24	49.15
481.41	42.13
481.59	0.00
481.77	4.68
481.95	98.30
482.13	65.54
482.31	84.26
482.49	0.00
482.67	53.83
482.85	44.47
483.03	91.28
483.21	60.85
483.39	18.72
483.57	2.34
483.74	67.88
483.92	42.13
484.10	9.36
484.28	60.85
484.46	16.38
484.64	4.68
484.82	4.68
485.00	28.09
485.18	46.81
485.35	0.00
485.53	14.04
485.71	53.83
485.89	0.00
486.07	53.83
486.25	51.49
486.43	74.90
486.61	18.72
486.78	81.92
486.96	9.36
487.14	28.09
487.32	4.68
487.50	0.00
487.68	0.00
487.85	0.00
488.03	58.51
488.21	65.54
488.39	65.54
488.57	9.36
488.75	28.09
488.92	0.00
489.10	25.75
489.28	0.00
489.46	2.34
489.64	72.56
489.81	0.00
489.99	0.00
490.17	42.13
490.35	114.69
490.53	67.88
490.70	0.00
490.88	74.90
491.06	81.92
491.24	11.70
491.41	16.38
491.59	14.04
491.77	28.09
491.95	46.81
492.13	0.00
492.30	21.06
492.48	46.81
492.66	0.00
492.84	0.00
493.01	37.45
493.19	18.72
493.37	56.17
493.54	7.02
493.72	37.45
493.90	37.45
494.08	25.75
494.25	9.36
494.43	0.00
494.61	39.79
494.79	70.22
494.96	102.98
495.14	67.88
495.32	0.00
495.49	28.09
495.67	0.00
495.85	32.77
496.02	32.77
496.20	35.11
496.38	30.43
496.55	30.43
496.73	14.04
496.91	25.75
497.09	18.72
497.26	16.38
497.44	110.01
497.62	0.00
497.79	0.00
497.97	60.85
498.14	42.13
498.32	65.54
498.50	46.81
498.67	4.68
498.85	37.45
499.03	49.15
499.20	23.41
499.38	2.34
499.56	0.00
499.73	35.11
499.91	140.43
500.08	18.72
500.26	107.66
500.44	126.39
500.61	56.17
500.79	25.75
500.97	60.85
501.14	0.00
501.32	18.72
501.49	88.94
501.67	100.64
501.84	102.98
502.02	30.43
502.20	2.34
502.37	2.34
502.55	63.19
502.72	0.00
502.90	0.00
503.07	58.51
503.25	32.77
503.43	46.81
503.60	39.79
503.78	0.00
503.95	49.15
504.13	28.09
504.30	70.22
504.48	0.00
504.65	0.00
504.83	98.30
505.01	79.58
505.18	0.00
505.36	39.79
505.53	28.09
505.71	124.05
505.88	0.00
506.06	7.02
506.23	112.35
506.41	65.54
506.58	9.36
506.76	86.60
506.93	84.26
507.11	112.35
507.28	72.56
507.46	18.72
507.63	7.02
507.81	14.04
507.98	25.75
508.16	30.43
508.33	16.38
508.50	70.22
508.68	128.73
508.85	23.41
509.03	51.49
509.20	44.47
509.38	65.54
509.55	30.43
509.73	28.09
509.90	65.54
510.08	0.00
510.25	56.17
510.42	84.26
510.60	0.00
510.77	98.30
510.95	79.58
511.12	49.15
511.30	23.41
511.47	30.43
511.64	16.38
511.82	14.04
511.99	32.77
512.17	86.60
512.34	0.00
512.51	18.72
512.69	35.11
512.86	0.00
513.04	37.45
513.21	23.41
513.38	53.83
513.56	65.54
513.73	7.02
513.90	60.85
514.08	7.02
514.25	98.30
514.43	79.58
514.60	30.43
514.77	98.30
514.95	79.58
515.12	88.94
515.29	42.13
515.47	37.45
515.64	25.75
515.81	16.38
515.99	77.24
516.16	77.24
516.33	4.68
516.51	56.17
516.68	25.75
516.85	35.11
517.03	0.00
517.20	98.30
517.37	42.13
517.54	63.19
517.72	46.81
517.89	0.00
518.06	49.15
518.24	0.00
518.41	0.00
518.58	35.11
518.75	0.00
518.93	39.79
519.10	0.00
519.27	7.02
519.45	2.34
519.62	30.43
519.79	53.83
519.96	46.81
520.14	44.47
520.31	21.06
520.48	14.04
520.65	42.13
520.83	0.00
521.00	32.77
521.17	44.47
521.34	30.43
521.52	25.75
521.69	9.36
521.86	0.00
522.03	14.04
522.20	79.58
522.38	46.81
522.55	0.00
522.72	14.04
522.89	0.00
523.07	56.17
523.24	70.22
523.41	53.83
523.58	23.41
523.75	0.00
523.92	51.49
524.10	2.34
524.27	53.83
524.44	49.15
524.61	0.00
524.78	42.13
524.96	49.15
525.13	18.72
525.30	114.69
525.47	39.79
525.64	93.62
525.81	16.38
525.98	58.51
526.16	0.00
526.33	88.94
526.50	30.43
526.67	4.68
526.84	117.03
527.01	0.00
527.18	56.17
527.36	9.36
527.53	117.03
527.70	39.79
527.87	63.19
528.04	77.24
528.21	0.00
528.38	7.02
528.55	49.15
528.72	35.11
528.89	60.85
529.07	98.30
529.24	16.38
529.41	46.81
529.58	63.19
529.75	21.06
529.92	23.41
530.09	67.88
530.26	72.56
530.43	2.34
530.60	23.41
530.77	67.88
530.94	79.58
531.11	58.51
531.28	30.43
531.46	37.45
531.63	35.11
531.80	65.54
531.97	28.09
532.14	79.58
532.31	39.79
532.48	100.64
532.65	51.49
532.82	0.00
532.99	58.51
533.16	4.68
533.33	72.56
533.50	16.38
533.67	37.45
533.84	32.77
534.01	30.43
534.18	65.54
534.35	11.70
534.52	14.04
534.69	56.17
534.86	56.17
535.03	0.00
535.20	53.83
535.37	63.19
535.54	9.36
535.71	16.38
535.88	42.13
536.05	2.34
536.22	49.15
536.38	72.56
536.55	4.68
536.72	112.35
536.89	35.11
537.06	7.02
537.23	98.30
537.40	21.06
537.57	67.88
537.74	39.79
537.91	74.90
538.08	86.60
538.25	30.43
538.42	28.09
538.59	74.90
538.75	74.90
538.92	11.70
539.09	53.83
539.26	39.79
539.43	65.54
539.60	51.49
539.77	107.66
539.94	77.24
540.11	81.92
540.28	21.06
540.44	35.11
540.61	84.26
540.78	91.28
540.95	28.09
541.12	58.51
541.29	0.00
541.46	63.19
541.62	0.00
541.79	0.00
541.96	9.36
542.13	30.43
542.30	46.81
542.47	53.83
542.63	11.70
542.80	42.13
542.97	0.00
543.14	117.03
543.31	32.77
543.48	51.49
543.64	0.00
543.81	60.85
543.98	0.00
544.15	53.83
544.32	37.45
544.48	0.00
544.65	0.00
544.82	74.90
544.99	84.26
545.16	88.94
545.32	16.38
545.49	42.13
545.66	147.45
545.83	32.77
546.00	25.75
546.16	93.62
546.33	86.60
546.50	49.15
546.67	42.13
546.83	18.72
547.00	67.88
547.17	44.47
547.34	9.36
547.50	32.77
547.67	49.15
547.84	88.94
548.00	44.47
548.17	35.11
548.34	42.13
548.51	16.38
548.67	0.00
548.84	58.51
549.01	16.38
549.18	86.60
549.34	44.47
549.51	86.60
549.68	44.47
549.84	70.22
550.01	11.70
550.18	32.77
550.34	95.96
550.51	67.88
550.68	74.90
550.84	23.41
551.01	0.00
551.18	86.60
551.34	0.00
551.51	56.17
551.68	35.11
551.84	37.45
552.01	25.75
552.18	14.04
552.34	58.51
552.51	79.58
552.68	105.32
552.84	74.90
553.01	42.13
553.18	60.85
553.34	65.54
553.51	0.00
553.67	93.62
553.84	25.75
554.01	0.00
554.17	11.70
554.34	0.00
554.51	25.75
554.67	42.13
554.84	112.35
555.00	28.09
555.17	7.02
555.33	42.13
555.50	84.26
555.67	32.77
555.83	65.54
556.00	0.00
556.16	28.09
556.33	2.34
556.50	18.72
556.66	42.13
556.83	63.19
556.99	46.81
557.16	51.49
557.32	16.38
557.49	9.36
557.65	100.64
557.82	16.38
557.98	4.68
558.15	0.00
558.32	49.15
558.48	56.17
558.65	42.13
558.81	79.58
558.98	70.22
559.14	44.47
559.31	65.54
559.47	0.00
559.64	49.15
559.80	70.22
559.97	16.38
560.13	35.11
560.30	2.34
560.46	56.17
560.63	0.00
560.79	140.43
560.96	0.00
561.12	23.41
561.29	58.51
561.45	46.81
561.61	28.09
561.78	25.75
561.94	72.56
562.11	63.19
562.27	58.51
562.44	30.43
562.60	51.49
562.77	67.88
562.93	0.00
563.10	42.13
563.26	9.36
563.42	7.02
563.59	60.85
563.75	46.81
563.92	102.98
564.08	65.54
564.24	53.83
564.41	0.00
564.57	42.13
564.74	7.02
564.90	0.00
565.07	28.09
565.23	39.79
565.39	32.77
565.56	39.79
565.72	32.77
565.88	28.09
566.05	0.00
566.21	42.13
566.38	84.26
566.54	35.11
566.70	37.45
566.87	46.81
567.03	91.28
567.19	42.13
567.36	56.17
567.52	74.90
567.68	77.24
567.85	74.90
568.01	60.85
568.17	63.19
568.34	70.22
568.50	11.70
568.66	0.00
568.83	93.62
568.99	39.79
569.15	4.68
569.32	25.75
569.48	60.85
569.64	0.00
569.81	58.51
569.97	51.49
570.13	65.54
570.30	88.94
570.46	21.06
570.62	4.68
570.78	28.09
570.95	46.81
571.11	39.79
571.27	0.00
571.43	58.51
571.60	58.51
571.76	70.22
571.92	51.49
572.09	46.81
572.25	0.00
572.41	16.38
572.57	77.24
572.74	4.68
572.90	30.43
573.06	56.17
573.22	60.85
573.38	72.56
573.55	35.11
573.71	63.19
573.87	124.05
574.03	77.24
574.20	0.00
574.36	105.32
574.52	79.58
574.68	0.00
574.84	42.13
575.01	56.17
575.17	28.09
575.33	39.79
575.49	30.43
575.65	51.49
575.82	77.24
575.98	21.06
576.14	42.13
576.30	51.49
576.46	35.11
576.62	25.75
576.79	0.00
576.95	35.11
577.11	46.81
577.27	0.00
577.43	42.13
577.59	63.19
577.75	114.69
577.92	7.02
578.08	44.47
578.24	35.11
578.40	65.54
578.56	18.72
578.72	95.96
578.88	44.47
579.04	0.00
579.21	16.38
579.37	35.11
579.53	14.04
579.69	35.11
579.85	44.47
580.01	79.58
580.17	49.15
580.33	0.00
580.49	28.09
580.65	56.17
580.82	56.17
580.98	37.45
581.14	49.15
581.30	51.49
581.46	74.90
581.62	72.56
581.78	86.60
581.94	63.19
582.10	16.38
582.26	86.60
582.42	58.51
582.58	23.41
582.74	67.88
582.90	2.34
583.06	86.60
583.22	100.64
583.38	91.28
583.54	9.36
583.70	9.36
583.86	35.11
584.02	42.13
584.18	30.43
584.34	53.83
584.50	18.72
584.66	0.00
584.82	0.00
584.98	7.02
585.14	18.72
585.30	25.75
585.46	23.41
585.62	77.24
585.78	7.02
585.94	74.90
586.10	70.22
586.26	49.15
586.42	100.64
586.58	35.11
586.74	56.17
586.90	37.45
587.06	42.13
587.22	58.51
587.38	91.28
587.54	81.92
587.70	74.90
587.86	0.00
588.02	16.38
588.18	77.24
588.34	42.13
588.49	0.00
588.65	37.45
588.81	74.90
588.97	60.85
589.13	93.62
589.29	58.51
589.45	74.90
589.61	110.01
589.77	28.09
589.93	93.62
590.08	72.56
590.24	60.85
590.40	30.43
590.56	100.64
590.72	49.15
590.88	28.09
591.04	18.72
591.20	18.72
591.35	74.90
591.51	145.11
591.67	0.00
591.83	30.43
591.99	0.00
592.15	35.11
592.31	7.02
592.46	56.17
592.62	46.81
592.78	86.60
592.94	105.32
593.10	58.51
593.26	65.54
593.41	107.66
593.57	0.00
593.73	44.47
593.89	0.00
594.05	0.00
594.20	65.54
594.36	81.92
594.52	53.83
594.68	91.28
594.84	107.66
594.99	14.04
595.15	37.45
595.31	121.71
595.47	70.22
595.62	58.51
595.78	39.79
595.94	28.09
596.10	79.58
596.25	37.45
596.41	0.00
596.57	0.00
596.73	14.04
596.88	84.26
597.04	0.00
597.20	44.47
597.36	0.00
597.51	35.11
597.67	0.00
597.83	9.36
597.99	32.77
598.14	77.24
598.30	63.19
598.46	46.81
598.61	35.11
598.77	11.70
598.93	21.06
599.09	49.15
599.24	65.54
599.40	63.19
599.56	37.45
599.71	32.77
599.87	7.02
600.03	0.00
600.18	91.28
600.34	39.79
600.50	16.38
600.65	9.36
600.81	18.72
600.97	37.45
601.12	35.11
601.28	0.00
601.44	25.75
601.59	28.09
601.75	0.00
601.91	72.56
602.06	58.51
602.22	0.00
602.37	107.66
602.53	117.03
602.69	23.41
602.84	74.90
603.00	70.22
603.16	93.62
603.31	81.92
603.47	32.77
603.62	32.77
603.78	28.09
603.94	51.49
604.09	98.30
604.25	65.54
604.40	42.13
604.56	56.17
604.71	37.45
604.87	18.72
605.03	28.09
605.18	2.34
605.34	28.09
605.49	32.77
605.65	11.70
605.80	11.70
605.96	44.47
606.12	0.00
606.27	72.56
606.43	91.28
606.58	63.19
606.74	0.00
606.89	39.79
607.05	30.43
607.20	39.79
607.36	53.83
607.51	72.56
607.67	32.77
607.82	77.24
607.98	39.79
608.13	44.47
608.29	7.02
608.44	0.00
608.60	67.88
608.75	86.60
608.91	0.00
609.06	79.58
609.22	35.11
609.37	44.47
609.53	74.90
609.68	32.77
609.84	0.00
609.99	0.00
610.15	84.26
610.30	67.88
610.46	9.36
610.61	42.13
610.76	84.26
610.92	0.00
611.07	28.09
611.23	30.43
611.38	56.17
611.54	56.17
611.69	67.88
611.84	21.06
612.00	37.45
612.15	81.92
612.31	39.79
612.46	0.00
612.62	79.58
612.77	56.17
612.92	98.30
613.08	65.54
613.23	42.13
613.39	46.81
613.54	70.22
613.69	95.96
613.85	49.15
614.00	28.09
614.15	30.43
614.31	30.43
614.46	63.19
614.62	14.04
614.77	11.70
614.92	0.00
615.08	51.49
615.23	74.90
615.38	46.81
615.54	28.09
615.69	60.85
615.84	86.60
616.00	35.11
616.15	0.00
616.30	53.83
616.46	49.15
616.61	56.17
616.76	46.81
616.92	0.00
617.07	42.13
617.22	11.70
617.37	0.00
617.53	21.06
617.68	39.79
617.83	28.09
617.99	100.64
618.14	58.51
618.29	79.58
618.45	4.68
618.60	65.54
618.75	91.28
618.90	60.85
619.06	7.02
619.21	98.30
619.36	0.00
619.51	23.41
619.67	39.79
619.82	37.45
619.97	0.00
620.12	91.28
620.28	0.00
620.43	18.72
620.58	4.68
620.73	0.00
620.89	9.36
621.04	25.75
621.19	91.28
621.34	72.56
621.49	0.00
621.65	88.94
621.80	84.26
621.95	51.49
622.10	44.47
622.25	16.38
622.41	0.00
622.56	0.00
622.71	46.81
622.86	105.32
623.01	0.00
623.16	56.17
623.32	81.92
623.47	58.51
623.62	32.77
623.77	0.00
623.92	35.11
624.07	46.81
624.23	0.00
624.38	0.00
624.53	58.51
624.68	44.47
624.83	86.60
624.98	88.94
625.13	37.45
625.29	79.58
625.44	4.68
625.59	58.51
625.74	32.77
625.89	53.83
626.04	0.00
626.19	11.70
626.34	4.68
626.49	88.94
626.65	4.68
626.80	79.58
626.95	56.17
627.10	0.00
627.25	70.22
627.40	0.00
627.55	4.68
627.70	37.45
627.85	51.49
628.00	79.58
628.15	37.45
628.30	21.06
628.45	51.49
628.60	14.04
628.76	0.00
628.91	60.85
629.06	63.19
629.21	4.68
629.36	0.00
629.51	65.54
629.66	114.69
629.81	128.73
629.96	98.30
630.11	65.54
630.26	63.19
630.41	9.36
630.56	30.43
630.71	72.56
630.86	0.00
631.01	25.75
631.16	39.79
631.31	0.00
631.46	0.00
631.61	23.41
631.76	0.00
631.91	51.49
632.06	0.00
632.21	32.77
632.36	2.34
632.51	2.34
632.66	4.68
632.81	23.41
632.96	77.24
633.10	67.88
633.25	49.15
633.40	28.09
633.55	0.00
633.70	49.15
633.85	65.54
634.00	79.58
634.15	16.38
634.30	0.00
634.45	42.13
634.60	0.00
634.75	60.85
634.90	7.02
635.05	28.09
635.19	58.51
635.34	39.79
635.49	77.24
635.64	60.85
635.79	16.38
635.94	0.00
636.09	18.72
636.24	53.83
636.39	32.77
636.53	53.83
636.68	58.51
636.83	60.85
636.98	60.85
637.13	91.28
637.28	44.47
637.43	39.79
637.57	44.47
637.72	18.72
637.87	32.77
638.02	16.38
638.17	0.00
638.32	18.72
638.46	0.00
638.61	32.77
638.76	2.34
638.91	95.96
639.06	67.88
639.20	53.83
639.35	0.00
639.50	0.00
639.65	25.75
639.80	0.00
639.94	16.38
640.09	16.38
640.24	21.06
640.39	63.19
640.54	0.00
640.68	0.00
640.83	67.88
640.98	0.00
641.13	28.09
641.27	58.51
641.42	18.72
641.57	2.34
641.72	86.60
641.86	74.90
642.01	0.00
642.16	28.09
642.31	131.07
642.45	49.15
642.60	4.68
642.75	0.00
642.90	74.90
643.04	65.54
643.19	18.72
643.34	60.85
643.48	0.00
643.63	0.00
643.78	4.68
643.93	0.00
644.07	32.77
644.22	14.04
644.37	0.00
644.51	70.22
644.66	30.43
644.81	28.09
644.95	63.19
645.10	32.77
645.25	72.56
645.39	0.00
645.54	51.49
645.69	23.41
645.83	23.41
645.98	2.34
646.13	70.22
646.27	11.70
646.42	53.83
646.57	16.38
646.71	0.00
646.86	72.56
647.00	72.56
647.15	102.98
647.30	9.36
647.44	0.00
647.59	46.81
647.74	30.43
647.88	74.90
648.03	0.00
648.17	7.02
648.32	70.22
648.47	58.51
648.61	56.17
648.76	70.22
648.90	0.00
649.05	0.00
649.20	30.43
649.34	35.11
649.49	42.13
649.63	35.11
649.78	11.70
649.92	39.79
650.07	37.45
650.21	0.00
650.36	9.36
650.51	112.35
650.65	35.11
650.80	25.75
650.94	77.24
651.09	32.77
651.23	30.43
651.38	114.69
651.52	51.49
651.67	0.00
651.81	39.79
651.96	11.70
652.10	0.00
652.25	56.17
652.39	72.56
652.54	37.45
652.68	51.49
652.83	35.11
652.97	79.58
653.12	0.00
653.26	0.00
653.41	51.49
653.55	0.00
653.70	0.00
653.84	0.00
653.99	46.81
654.13	81.92
654.27	0.00
654.42	65.54
654.56	77.24
654.71	49.15
654.85	51.49
655.00	0.00
655.14	72.56
655.29	42.13
655.43	0.00
655.57	60.85
655.72	0.00
655.86	21.06
656.01	51.49
656.15	72.56
656.30	72.56
656.44	0.00
656.58	67.88
656.73	0.00
656.87	93.62
657.01	51.49
657.16	70.22
657.30	72.56
657.45	60.85
657.59	65.54
657.73	46.81
657.88	0.00
658.02	65.54
658.16	18.72
658.31	35.11
658.45	42.13
658.60	0.00
658.74	42.13
658.88	32.77
659.03	0.00
659.17	98.30
659.31	72.56
659.46	58.51
659.60	70.22
659.74	46.81
659.89	0.00
660.03	46.81
660.17	23.41
660.32	37.45
660.46	0.00
660.60	23.41
660.74	9.36
660.89	30.43
661.03	79.58
661.17	44.47
661.32	0.00
661.46	0.00
661.60	72.56
661.74	28.09
661.89	42.13
662.03	86.60
662.17	95.96
662.31	51.49
662.46	0.00
662.60	0.00
662.74	0.00
662.88	9.36
663.03	81.92
663.17	91.28
663.31	91.28
663.45	95.96
663.60	37.45
663.74	0.00
663.88	16.38
664.02	58.51
664.17	16.38
664.31	32.77
664.45	49.15
664.59	21.06
664.73	18.72
664.88	93.62
665.02	30.43
665.16	0.00
665.30	0.00
665.44	86.60
665.59	39.79
665.73	0.00
665.87	67.88
666.01	11.70
666.15	39.79
666.29	4.68
666.44	30.43
666.58	0.00
666.72	39.79
666.86	0.00
667.00	32.77
667.14	25.75
667.28	0.00
667.43	0.00
667.57	58.51
667.71	18.72
667.85	0.00
667.99	77.24
668.13	9.36
668.27	0.00
668.41	79.58
668.56	74.90
668.70	67.88
668.84	107.66
668.98	25.75
669.12	28.09
669.26	21.06
669.40	0.00
669.54	4.68
669.68	30.43
669.82	0.00
669.96	0.00
670.10	67.88
670.25	16.38
670.39	102.98
670.53	51.49
670.67	32.77
670.81	30.43
670.95	56.17
671.09	28.09
671.23	65.54
671.37	72.56
671.51	7.02
671.65	39.79
671.79	51.49
671.93	2.34
672.07	25.75
672.21	39.79
672.35	32.77
672.49	32.77
672.63	51.49
672.77	30.43
672.91	44.47
673.05	58.51
673.19	18.72
673.33	49.15
673.47	18.72
673.61	70.22
673.75	25.75
673.89	53.83
674.03	11.70
674.17	53.83
674.31	46.81
674.45	56.17
674.59	93.62
674.73	16.38
674.87	23.41
675.01	35.11
675.15	14.04
675.29	84.26
675.43	93.62
675.56	0.00
675.70	39.79
675.84	23.41
675.98	25.75
676.12	58.51
676.26	32.77
676.40	9.36
676.54	77.24
676.68	84.26
676.82	0.00
676.96	74.90
677.10	16.38
677.23	21.06
677.37	107.66
677.51	0.00
677.65	152.13
677.79	0.00
677.93	25.75
678.07	53.83
678.21	9.36
678.34	0.00
678.48	0.00
678.62	58.51
678.76	4.68
678.90	2.34
679.04	42.13
679.18	0.00
679.31	53.83
679.45	14.04
679.59	0.00
679.73	9.36
679.87	16.38
680.00	93.62
680.14	2.34
680.28	67.88
680.42	0.00
680.56	0.00
680.70	30.43
680.83	63.19
680.97	21.06
681.11	88.94
681.25	23.41
681.39	53.83
681.52	49.15
681.66	105.32
681.80	0.00
681.94	0.00
682.07	91.28
682.21	25.75
682.35	53.83
682.49	0.00
682.62	0.00
682.76	0.00
682.90	0.00
683.04	65.54
683.17	67.88
683.31	51.49
683.45	28.09
683.59	7.02
683.72	37.45
683.86	25.75
684.00	32.77
684.13	77.24
684.27	14.04
684.41	35.11
684.55	46.81
684.68	0.00
684.82	0.00
684.96	25.75
685.09	30.43
685.23	0.00
685.37	23.41
685.50	0.00
685.64	39.79
685.78	14.04
685.91	56.17
686.05	39.79
686.19	18.72
686.32	0.00
686.46	21.06
686.60	0.00
686.73	28.09
686.87	88.94
687.01	11.70
687.14	2.34
687.28	0.00
687.42	28.09
687.55	53.83
687.69	0.00
687.82	23.41
687.96	84.26
688.10	0.00
688.23	0.00
688.37	0.00
688.50	49.15
688.64	44.47
688.78	0.00
688.91	0.00
689.05	67.88
689.18	56.17
689.32	56.17
689.46	35.11
689.59	58.51
689.73	0.00
689.86	46.81
690.00	79.58
690.13	67.88
690.27	0.00
690.41	2.34
690.54	0.00
690.68	98.30
690.81	9.36
690.95	21.06
691.08	39.79
691.22	0.00
691.35	79.58
691.49	0.00
691.62	0.00
691.76	49.15
691.89	60.85
692.03	7.02
692.16	0.00
692.30	42.13
692.43	46.81
692.57	32.77
692.70	0.00
692.84	7.02
692.97	2.34
693.11	0.00
693.24	32.77
693.38	32.77
693.51	9.36
693.65	0.00
693.78	0.00
693.92	0.00
694.05	74.90
694.19	0.00
694.32	58.51
694.45	53.83
694.59	0.00
694.72	18.72
694.86	0.00
694.99	67.88
695.13	0.00
695.26	0.00
695.39	0.00
695.53	23.41
695.66	65.54
695.80	0.00
695.93	0.00
696.07	28.09
696.20	0.00
696.33	0.00
696.47	0.00
696.60	0.00
696.73	53.83
696.87	28.09
697.00	28.09
697.14	39.79
697.27	0.00
697.40	18.72
697.54	65.54
697.67	32.77
697.80	21.06
697.94	39.79
698.07	4.68
698.21	7.02
698.34	14.04
698.47	18.72
698.61	16.38
698.74	65.54
698.87	37.45
699.01	0.00
699.14	4.68
699.27	28.09
699.40	2.34
699.54	46.81
699.67	46.81
699.80	72.56
699.94	0.00
700.07	32.77
700.20	88.94
700.34	11.70
700.47	37.45
700.60	0.00
700.73	11.70
700.87	28.09
701.00	79.58
701.13	0.00
701.26	18.72
701.40	46.81
701.53	56.17
701.66	39.79
701.79	14.04
701.93	18.72
702.06	0.00
702.19	105.32
702.32	63.19
702.46	21.06
702.59	4.68
702.72	11.70
702.85	0.00
702.99	30.43
703.12	0.00
703.25	35.11
703.38	18.72
703.51	14.04
703.65	0.00
703.78	60.85
703.91	39.79
704.04	35.11
704.17	51.49
704.31	0.00
704.44	53.83
704.57	0.00
704.70	0.00
704.83	16.38
704.96	46.81
705.10	86.60
705.23	0.00
>>>>>End Processed Spectral Data<<<<<
