SpectraSuite Data File
++++++++++++++++++++++++++++++++++++
Date: Fri Oct 04 12:13:33 GMT-05:00 2013
User: price-jones
Dark Spectrum Present: No
Reference Spectrum Present: No
Number of Sampled Component Spectra: 1
Spectrometers: USB2+H05261
Integration Time (usec): 10000 (USB2+H05261)
Spectra Averaged: 1 (USB2+H05261)
Boxcar Smoothing: 0 (USB2+H05261)
Correct for Electrical Dark: No (USB2+H05261)
Strobe/Lamp Enabled: No (USB2+H05261)
Correct for Detector Non-linearity: No (USB2+H05261)
Correct for Stray Light: No (USB2+H05261)
Number of Pixels in Processed Spectrum: 2048
>>>>>Begin Processed Spectral Data<<<<<
365.73	0.00
365.92	0.00
366.12	0.00
366.32	0.00
366.52	0.00
366.72	0.00
366.91	0.00
367.11	0.00
367.31	0.00
367.51	0.00
367.70	0.00
367.90	0.00
368.10	0.00
368.30	0.00
368.49	0.00
368.69	0.00
368.89	0.00
369.09	0.00
369.28	0.00
369.48	0.00
369.68	0.00
369.87	0.00
370.07	0.00
370.27	0.00
370.47	0.00
370.66	0.00
370.86	0.00
371.06	0.00
371.25	0.00
371.45	0.00
371.65	0.00
371.84	0.00
372.04	51.49
372.24	67.88
372.44	0.00
372.63	0.00
372.83	0.00
373.03	42.13
373.22	0.00
373.42	42.13
373.62	0.00
373.81	14.04
374.01	0.00
374.21	0.00
374.40	0.00
374.60	53.83
374.79	9.36
374.99	18.72
375.19	46.81
375.38	44.47
375.58	72.56
375.78	37.45
375.97	2.34
376.17	65.54
376.37	21.06
376.56	74.90
376.76	25.75
376.95	0.00
377.15	14.04
377.35	18.72
377.54	53.83
377.74	65.54
377.93	44.47
378.13	0.00
378.33	0.00
378.52	0.00
378.72	0.00
378.91	44.47
379.11	0.00
379.31	114.69
379.50	21.06
379.70	35.11
379.89	21.06
380.09	28.09
380.28	37.45
380.48	0.00
380.68	88.94
380.87	49.15
381.07	0.00
381.26	0.00
381.46	14.04
381.65	0.00
381.85	32.77
382.04	67.88
382.24	46.81
382.43	28.09
382.63	0.00
382.83	7.02
383.02	67.88
383.22	72.56
383.41	21.06
383.61	9.36
383.80	0.00
384.00	0.00
384.19	72.56
384.39	0.00
384.58	0.00
384.78	0.00
384.97	4.68
385.17	53.83
385.36	16.38
385.56	16.38
385.75	86.60
385.95	0.00
386.14	32.77
386.34	30.43
386.53	0.00
386.72	32.77
386.92	65.54
387.11	58.51
387.31	42.13
387.50	0.00
387.70	0.00
387.89	121.71
388.09	30.43
388.28	42.13
388.48	0.00
388.67	65.54
388.86	21.06
389.06	16.38
389.25	84.26
389.45	37.45
389.64	23.41
389.84	0.00
390.03	79.58
390.22	11.70
390.42	0.00
390.61	0.00
390.81	0.00
391.00	0.00
391.19	30.43
391.39	0.00
391.58	77.24
391.78	65.54
391.97	63.19
392.16	4.68
392.36	4.68
392.55	32.77
392.75	4.68
392.94	9.36
393.13	14.04
393.33	32.77
393.52	63.19
393.71	0.00
393.91	11.70
394.10	51.49
394.29	18.72
394.49	46.81
394.68	39.79
394.88	0.00
395.07	91.28
395.26	0.00
395.46	4.68
395.65	84.26
395.84	84.26
396.04	91.28
396.23	95.96
396.42	0.00
396.62	16.38
396.81	4.68
397.00	42.13
397.19	18.72
397.39	2.34
397.58	30.43
397.77	51.49
397.97	18.72
398.16	81.92
398.35	21.06
398.55	18.72
398.74	0.00
398.93	30.43
399.12	25.75
399.32	11.70
399.51	46.81
399.70	0.00
399.90	88.94
400.09	72.56
400.28	0.00
400.47	23.41
400.67	30.43
400.86	9.36
401.05	7.02
401.24	2.34
401.44	0.00
401.63	88.94
401.82	65.54
402.01	4.68
402.21	21.06
402.40	63.19
402.59	67.88
402.78	11.70
402.97	39.79
403.17	25.75
403.36	14.04
403.55	0.00
403.74	0.00
403.93	0.00
404.13	0.00
404.32	0.00
404.51	60.85
404.70	0.00
404.89	32.77
405.09	23.41
405.28	37.45
405.47	21.06
405.66	0.00
405.85	32.77
406.05	0.00
406.24	0.00
406.43	11.70
406.62	70.22
406.81	23.41
407.00	0.00
407.20	37.45
407.39	44.47
407.58	37.45
407.77	0.00
407.96	0.00
408.15	0.00
408.34	28.09
408.54	18.72
408.73	0.00
408.92	4.68
409.11	0.00
409.30	14.04
409.49	9.36
409.68	77.24
409.87	0.00
410.07	25.75
410.26	18.72
410.45	0.00
410.64	28.09
410.83	32.77
411.02	30.43
411.21	74.90
411.40	63.19
411.59	51.49
411.78	28.09
411.98	74.90
412.17	21.06
412.36	0.00
412.55	11.70
412.74	56.17
412.93	37.45
413.12	25.75
413.31	21.06
413.50	63.19
413.69	70.22
413.88	18.72
414.07	65.54
414.26	7.02
414.45	44.47
414.64	56.17
414.83	46.81
415.02	9.36
415.22	16.38
415.41	0.00
415.60	4.68
415.79	30.43
415.98	46.81
416.17	18.72
416.36	4.68
416.55	32.77
416.74	51.49
416.93	100.64
417.12	0.00
417.31	28.09
417.50	7.02
417.69	0.00
417.88	56.17
418.07	124.05
418.26	37.45
418.45	53.83
418.64	0.00
418.83	70.22
419.02	25.75
419.21	60.85
419.39	70.22
419.58	84.26
419.77	23.41
419.96	39.79
420.15	32.77
420.34	100.64
420.53	4.68
420.72	42.13
420.91	58.51
421.10	14.04
421.29	4.68
421.48	42.13
421.67	74.90
421.86	18.72
422.05	0.00
422.24	0.00
422.43	32.77
422.61	21.06
422.80	39.79
422.99	51.49
423.18	0.00
423.37	0.00
423.56	0.00
423.75	0.00
423.94	49.15
424.13	63.19
424.32	110.01
424.50	46.81
424.69	51.49
424.88	16.38
425.07	25.75
425.26	35.11
425.45	25.75
425.64	9.36
425.83	0.00
426.01	28.09
426.20	65.54
426.39	0.00
426.58	70.22
426.77	0.00
426.96	30.43
427.15	28.09
427.33	0.00
427.52	65.54
427.71	25.75
427.90	0.00
428.09	56.17
428.28	32.77
428.46	0.00
428.65	2.34
428.84	2.34
429.03	35.11
429.22	46.81
429.40	35.11
429.59	0.00
429.78	32.77
429.97	0.00
430.16	70.22
430.34	53.83
430.53	0.00
430.72	51.49
430.91	79.58
431.10	28.09
431.28	114.69
431.47	60.85
431.66	0.00
431.85	74.90
432.03	58.51
432.22	21.06
432.41	79.58
432.60	16.38
432.79	44.47
432.97	30.43
433.16	9.36
433.35	14.04
433.54	23.41
433.72	4.68
433.91	107.66
434.10	70.22
434.28	63.19
434.47	0.00
434.66	60.85
434.85	35.11
435.03	35.11
435.22	35.11
435.41	0.00
435.59	0.00
435.78	58.51
435.97	53.83
436.16	56.17
436.34	58.51
436.53	74.90
436.72	51.49
436.90	11.70
437.09	42.13
437.28	28.09
437.46	14.04
437.65	28.09
437.84	30.43
438.02	23.41
438.21	30.43
438.40	60.85
438.58	2.34
438.77	102.98
438.96	9.36
439.14	37.45
439.33	0.00
439.52	18.72
439.70	0.00
439.89	14.04
440.08	53.83
440.26	60.85
440.45	49.15
440.63	35.11
440.82	42.13
441.01	14.04
441.19	0.00
441.38	25.75
441.57	37.45
441.75	0.00
441.94	81.92
442.12	56.17
442.31	0.00
442.50	32.77
442.68	0.00
442.87	46.81
443.05	11.70
443.24	63.19
443.43	107.66
443.61	0.00
443.80	86.60
443.98	46.81
444.17	74.90
444.35	0.00
444.54	58.51
444.73	23.41
444.91	65.54
445.10	28.09
445.28	23.41
445.47	0.00
445.65	0.00
445.84	4.68
446.02	0.00
446.21	65.54
446.39	53.83
446.58	67.88
446.77	42.13
446.95	60.85
447.14	39.79
447.32	30.43
447.51	44.47
447.69	11.70
447.88	70.22
448.06	53.83
448.25	77.24
448.43	30.43
448.62	32.77
448.80	46.81
448.99	72.56
449.17	60.85
449.36	28.09
449.54	14.04
449.73	18.72
449.91	88.94
450.10	23.41
450.28	0.00
450.46	16.38
450.65	0.00
450.83	18.72
451.02	46.81
451.20	0.00
451.39	28.09
451.57	0.00
451.76	11.70
451.94	28.09
452.13	32.77
452.31	70.22
452.49	42.13
452.68	65.54
452.86	0.00
453.05	35.11
453.23	53.83
453.42	25.75
453.60	30.43
453.78	67.88
453.97	60.85
454.15	0.00
454.34	51.49
454.52	18.72
454.70	49.15
454.89	72.56
455.07	42.13
455.26	46.81
455.44	28.09
455.62	49.15
455.81	81.92
455.99	119.37
456.17	37.45
456.36	0.00
456.54	21.06
456.73	32.77
456.91	35.11
457.09	25.75
457.28	65.54
457.46	0.00
457.64	79.58
457.83	39.79
458.01	30.43
458.19	32.77
458.38	39.79
458.56	49.15
458.74	23.41
458.93	2.34
459.11	0.00
459.29	39.79
459.48	44.47
459.66	0.00
459.84	14.04
460.03	0.00
460.21	0.00
460.39	25.75
460.57	0.00
460.76	30.43
460.94	0.00
461.12	86.60
461.31	67.88
461.49	98.30
461.67	44.47
461.85	11.70
462.04	28.09
462.22	44.47
462.40	0.00
462.59	0.00
462.77	91.28
462.95	0.00
463.13	53.83
463.32	65.54
463.50	14.04
463.68	32.77
463.86	30.43
464.05	67.88
464.23	81.92
464.41	23.41
464.59	37.45
464.78	14.04
464.96	44.47
465.14	42.13
465.32	0.00
465.50	74.90
465.69	46.81
465.87	0.00
466.05	35.11
466.23	65.54
466.41	51.49
466.60	74.90
466.78	0.00
466.96	28.09
467.14	14.04
467.32	0.00
467.51	25.75
467.69	58.51
467.87	23.41
468.05	23.41
468.23	4.68
468.41	7.02
468.60	77.24
468.78	16.38
468.96	49.15
469.14	42.13
469.32	0.00
469.50	0.00
469.69	37.45
469.87	23.41
470.05	49.15
470.23	16.38
470.41	58.51
470.59	7.02
470.77	67.88
470.95	67.88
471.14	58.51
471.32	60.85
471.50	0.00
471.68	0.00
471.86	32.77
472.04	49.15
472.22	0.00
472.40	35.11
472.58	63.19
472.77	25.75
472.95	28.09
473.13	18.72
473.31	18.72
473.49	46.81
473.67	56.17
473.85	35.11
474.03	86.60
474.21	14.04
474.39	0.00
474.57	46.81
474.75	11.70
474.93	42.13
475.12	25.75
475.30	51.49
475.48	0.00
475.66	72.56
475.84	84.26
476.02	63.19
476.20	53.83
476.38	0.00
476.56	58.51
476.74	23.41
476.92	0.00
477.10	0.00
477.28	0.00
477.46	0.00
477.64	37.45
477.82	102.98
478.00	9.36
478.18	23.41
478.36	58.51
478.54	79.58
478.72	21.06
478.90	18.72
479.08	58.51
479.26	18.72
479.44	21.06
479.62	0.00
479.80	88.94
479.98	65.54
480.16	86.60
480.34	21.06
480.52	79.58
480.70	81.92
480.88	51.49
481.06	44.47
481.24	0.00
481.41	0.00
481.59	49.15
481.77	44.47
481.95	79.58
482.13	46.81
482.31	0.00
482.49	81.92
482.67	117.03
482.85	58.51
483.03	84.26
483.21	77.24
483.39	32.77
483.57	124.05
483.74	65.54
483.92	44.47
484.10	42.13
484.28	4.68
484.46	46.81
484.64	42.13
484.82	4.68
485.00	0.00
485.18	32.77
485.35	18.72
485.53	4.68
485.71	81.92
485.89	93.62
486.07	74.90
486.25	28.09
486.43	0.00
486.61	88.94
486.78	79.58
486.96	0.00
487.14	84.26
487.32	79.58
487.50	37.45
487.68	46.81
487.85	42.13
488.03	53.83
488.21	18.72
488.39	56.17
488.57	102.98
488.75	9.36
488.92	91.28
489.10	11.70
489.28	0.00
489.46	9.36
489.64	14.04
489.81	0.00
489.99	56.17
490.17	65.54
490.35	74.90
490.53	30.43
490.70	102.98
490.88	46.81
491.06	74.90
491.24	114.69
491.41	0.00
491.59	74.90
491.77	32.77
491.95	0.00
492.13	0.00
492.30	11.70
492.48	39.79
492.66	77.24
492.84	74.90
493.01	30.43
493.19	0.00
493.37	60.85
493.54	58.51
493.72	53.83
493.90	28.09
494.08	110.01
494.25	46.81
494.43	53.83
494.61	35.11
494.79	11.70
494.96	0.00
495.14	107.66
495.32	2.34
495.49	35.11
495.67	46.81
495.85	37.45
496.02	49.15
496.20	9.36
496.38	23.41
496.55	65.54
496.73	74.90
496.91	58.51
497.09	35.11
497.26	79.58
497.44	0.00
497.62	60.85
497.79	91.28
497.97	58.51
498.14	11.70
498.32	93.62
498.50	21.06
498.67	39.79
498.85	63.19
499.03	88.94
499.20	39.79
499.38	0.00
499.56	25.75
499.73	72.56
499.91	98.30
500.08	21.06
500.26	7.02
500.44	91.28
500.61	42.13
500.79	16.38
500.97	84.26
501.14	51.49
501.32	4.68
501.49	7.02
501.67	95.96
501.84	44.47
502.02	14.04
502.20	117.03
502.37	81.92
502.55	23.41
502.72	0.00
502.90	67.88
503.07	56.17
503.25	2.34
503.43	9.36
503.60	100.64
503.78	18.72
503.95	133.41
504.13	42.13
504.30	28.09
504.48	70.22
504.65	77.24
504.83	23.41
505.01	100.64
505.18	72.56
505.36	77.24
505.53	25.75
505.71	44.47
505.88	91.28
506.06	93.62
506.23	42.13
506.41	35.11
506.58	37.45
506.76	0.00
506.93	58.51
507.11	77.24
507.28	98.30
507.46	79.58
507.63	25.75
507.81	37.45
507.98	117.03
508.16	32.77
508.33	128.73
508.50	51.49
508.68	107.66
508.85	35.11
509.03	28.09
509.20	25.75
509.38	56.17
509.55	9.36
509.73	16.38
509.90	2.34
510.08	46.81
510.25	79.58
510.42	18.72
510.60	42.13
510.77	67.88
510.95	63.19
511.12	63.19
511.30	39.79
511.47	53.83
511.64	35.11
511.82	0.00
511.99	105.32
512.17	4.68
512.34	49.15
512.51	67.88
512.69	88.94
512.86	0.00
513.04	46.81
513.21	30.43
513.38	28.09
513.56	84.26
513.73	0.00
513.90	32.77
514.08	74.90
514.25	84.26
514.43	53.83
514.60	35.11
514.77	67.88
514.95	37.45
515.12	117.03
515.29	46.81
515.47	42.13
515.64	44.47
515.81	72.56
515.99	58.51
516.16	42.13
516.33	65.54
516.51	88.94
516.68	37.45
516.85	35.11
517.03	65.54
517.20	49.15
517.37	98.30
517.54	0.00
517.72	74.90
517.89	79.58
518.06	25.75
518.24	58.51
518.41	72.56
518.58	28.09
518.75	81.92
518.93	67.88
519.10	63.19
519.27	58.51
519.45	67.88
519.62	88.94
519.79	56.17
519.96	32.77
520.14	4.68
520.31	42.13
520.48	44.47
520.65	102.98
520.83	51.49
521.00	70.22
521.17	86.60
521.34	93.62
521.52	110.01
521.69	86.60
521.86	65.54
522.03	74.90
522.20	37.45
522.38	88.94
522.55	58.51
522.72	46.81
522.89	0.00
523.07	32.77
523.24	25.75
523.41	154.48
523.58	25.75
523.75	0.00
523.92	18.72
524.10	105.32
524.27	124.05
524.44	98.30
524.61	74.90
524.78	16.38
524.96	58.51
525.13	9.36
525.30	32.77
525.47	128.73
525.64	0.00
525.81	84.26
525.98	53.83
526.16	110.01
526.33	58.51
526.50	9.36
526.67	0.00
526.84	0.00
527.01	35.11
527.18	107.66
527.36	105.32
527.53	46.81
527.70	102.98
527.87	56.17
528.04	53.83
528.21	79.58
528.38	74.90
528.55	46.81
528.72	46.81
528.89	98.30
529.07	65.54
529.24	56.17
529.41	32.77
529.58	0.00
529.75	37.45
529.92	51.49
530.09	21.06
530.26	77.24
530.43	0.00
530.60	77.24
530.77	23.41
530.94	44.47
531.11	77.24
531.28	74.90
531.46	105.32
531.63	14.04
531.80	18.72
531.97	56.17
532.14	30.43
532.31	42.13
532.48	126.39
532.65	25.75
532.82	30.43
532.99	51.49
533.16	72.56
533.33	23.41
533.50	18.72
533.67	60.85
533.84	0.00
534.01	37.45
534.18	23.41
534.35	58.51
534.52	112.35
534.69	56.17
534.86	30.43
535.03	0.00
535.20	49.15
535.37	95.96
535.54	56.17
535.71	74.90
535.88	18.72
536.05	51.49
536.22	65.54
536.38	18.72
536.55	51.49
536.72	7.02
536.89	112.35
537.06	140.43
537.23	79.58
537.40	32.77
537.57	88.94
537.74	56.17
537.91	16.38
538.08	56.17
538.25	77.24
538.42	0.00
538.59	42.13
538.75	67.88
538.92	58.51
539.09	60.85
539.26	35.11
539.43	56.17
539.60	35.11
539.77	2.34
539.94	0.00
540.11	51.49
540.28	105.32
540.44	49.15
540.61	72.56
540.78	23.41
540.95	84.26
541.12	39.79
541.29	72.56
541.46	16.38
541.62	2.34
541.79	0.00
541.96	35.11
542.13	95.96
542.30	44.47
542.47	84.26
542.63	105.32
542.80	39.79
542.97	88.94
543.14	21.06
543.31	53.83
543.48	98.30
543.64	28.09
543.81	102.98
543.98	25.75
544.15	49.15
544.32	37.45
544.48	77.24
544.65	63.19
544.82	23.41
544.99	51.49
545.16	65.54
545.32	9.36
545.49	88.94
545.66	93.62
545.83	81.92
546.00	16.38
546.16	63.19
546.33	11.70
546.50	81.92
546.67	60.85
546.83	112.35
547.00	30.43
547.17	46.81
547.34	74.90
547.50	0.00
547.67	56.17
547.84	67.88
548.00	70.22
548.17	42.13
548.34	28.09
548.51	70.22
548.67	42.13
548.84	39.79
549.01	63.19
549.18	60.85
549.34	56.17
549.51	58.51
549.68	37.45
549.84	25.75
550.01	0.00
550.18	9.36
550.34	14.04
550.51	84.26
550.68	51.49
550.84	30.43
551.01	53.83
551.18	84.26
551.34	18.72
551.51	63.19
551.68	21.06
551.84	56.17
552.01	53.83
552.18	0.00
552.34	112.35
552.51	56.17
552.68	30.43
552.84	44.47
553.01	39.79
553.18	81.92
553.34	86.60
553.51	35.11
553.67	0.00
553.84	100.64
554.01	0.00
554.17	65.54
554.34	42.13
554.51	81.92
554.67	65.54
554.84	2.34
555.00	0.00
555.17	2.34
555.33	25.75
555.50	46.81
555.67	53.83
555.83	21.06
556.00	30.43
556.16	91.28
556.33	60.85
556.50	65.54
556.66	95.96
556.83	72.56
556.99	30.43
557.16	35.11
557.32	42.13
557.49	65.54
557.65	100.64
557.82	51.49
557.98	9.36
558.15	37.45
558.32	117.03
558.48	0.00
558.65	21.06
558.81	37.45
558.98	4.68
559.14	0.00
559.31	81.92
559.47	70.22
559.64	18.72
559.80	2.34
559.97	0.00
560.13	0.00
560.30	63.19
560.46	0.00
560.63	23.41
560.79	7.02
560.96	79.58
561.12	86.60
561.29	35.11
561.45	65.54
561.61	0.00
561.78	23.41
561.94	18.72
562.11	135.75
562.27	77.24
562.44	63.19
562.60	65.54
562.77	70.22
562.93	74.90
563.10	93.62
563.26	28.09
563.42	0.00
563.59	84.26
563.75	56.17
563.92	79.58
564.08	58.51
564.24	93.62
564.41	0.00
564.57	14.04
564.74	49.15
564.90	11.70
565.07	51.49
565.23	42.13
565.39	42.13
565.56	95.96
565.72	49.15
565.88	32.77
566.05	0.00
566.21	23.41
566.38	98.30
566.54	14.04
566.70	7.02
566.87	93.62
567.03	72.56
567.19	56.17
567.36	39.79
567.52	0.00
567.68	21.06
567.85	51.49
568.01	25.75
568.17	84.26
568.34	4.68
568.50	53.83
568.66	39.79
568.83	56.17
568.99	63.19
569.15	28.09
569.32	98.30
569.48	23.41
569.64	0.00
569.81	98.30
569.97	49.15
570.13	14.04
570.30	35.11
570.46	42.13
570.62	60.85
570.78	65.54
570.95	9.36
571.11	79.58
571.27	65.54
571.43	46.81
571.60	58.51
571.76	28.09
571.92	0.00
572.09	74.90
572.25	98.30
572.41	74.90
572.57	23.41
572.74	21.06
572.90	39.79
573.06	51.49
573.22	0.00
573.38	112.35
573.55	88.94
573.71	77.24
573.87	65.54
574.03	23.41
574.20	11.70
574.36	74.90
574.52	25.75
574.68	53.83
574.84	49.15
575.01	11.70
575.17	0.00
575.33	70.22
575.49	49.15
575.65	70.22
575.82	53.83
575.98	18.72
576.14	42.13
576.30	65.54
576.46	35.11
576.62	28.09
576.79	7.02
576.95	32.77
577.11	9.36
577.27	77.24
577.43	0.00
577.59	37.45
577.75	2.34
577.92	124.05
578.08	44.47
578.24	105.32
578.40	98.30
578.56	0.00
578.72	37.45
578.88	32.77
579.04	0.00
579.21	58.51
579.37	0.00
579.53	9.36
579.69	93.62
579.85	58.51
580.01	46.81
580.17	37.45
580.33	16.38
580.49	16.38
580.65	16.38
580.82	63.19
580.98	32.77
581.14	0.00
581.30	21.06
581.46	56.17
581.62	67.88
581.78	65.54
581.94	63.19
582.10	49.15
582.26	7.02
582.42	60.85
582.58	81.92
582.74	49.15
582.90	30.43
583.06	32.77
583.22	11.70
583.38	32.77
583.54	0.00
583.70	86.60
583.86	49.15
584.02	86.60
584.18	79.58
584.34	79.58
584.50	0.00
584.66	28.09
584.82	114.69
584.98	7.02
585.14	86.60
585.30	65.54
585.46	44.47
585.62	51.49
585.78	9.36
585.94	51.49
586.10	67.88
586.26	72.56
586.42	14.04
586.58	56.17
586.74	100.64
586.90	0.00
587.06	58.51
587.22	46.81
587.38	44.47
587.54	0.00
587.70	7.02
587.86	0.00
588.02	65.54
588.18	88.94
588.34	44.47
588.49	0.00
588.65	39.79
588.81	23.41
588.97	70.22
589.13	37.45
589.29	44.47
589.45	35.11
589.61	30.43
589.77	0.00
589.93	74.90
590.08	63.19
590.24	74.90
590.40	60.85
590.56	86.60
590.72	79.58
590.88	0.00
591.04	14.04
591.20	60.85
591.35	46.81
591.51	58.51
591.67	23.41
591.83	25.75
591.99	32.77
592.15	86.60
592.31	35.11
592.46	74.90
592.62	42.13
592.78	39.79
592.94	11.70
593.10	88.94
593.26	63.19
593.41	65.54
593.57	0.00
593.73	42.13
593.89	93.62
594.05	37.45
594.20	0.00
594.36	0.00
594.52	14.04
594.68	23.41
594.84	56.17
594.99	67.88
595.15	102.98
595.31	53.83
595.47	46.81
595.62	0.00
595.78	58.51
595.94	16.38
596.10	9.36
596.25	46.81
596.41	84.26
596.57	0.00
596.73	65.54
596.88	37.45
597.04	30.43
597.20	21.06
597.36	0.00
597.51	37.45
597.67	14.04
597.83	65.54
597.99	112.35
598.14	74.90
598.30	25.75
598.46	91.28
598.61	65.54
598.77	98.30
598.93	14.04
599.09	25.75
599.24	37.45
599.40	0.00
599.56	70.22
599.71	28.09
599.87	102.98
600.03	65.54
600.18	58.51
600.34	30.43
600.50	56.17
600.65	9.36
600.81	53.83
600.97	39.79
601.12	2.34
601.28	37.45
601.44	32.77
601.59	53.83
601.75	58.51
601.91	35.11
602.06	28.09
602.22	25.75
602.37	79.58
602.53	63.19
602.69	70.22
602.84	60.85
603.00	0.00
603.16	74.90
603.31	65.54
603.47	170.86
603.62	95.96
603.78	98.30
603.94	105.32
604.09	18.72
604.25	30.43
604.40	65.54
604.56	14.04
604.71	42.13
604.87	81.92
605.03	28.09
605.18	65.54
605.34	63.19
605.49	124.05
605.65	86.60
605.80	32.77
605.96	28.09
606.12	63.19
606.27	77.24
606.43	0.00
606.58	18.72
606.74	77.24
606.89	42.13
607.05	63.19
607.20	21.06
607.36	138.09
607.51	60.85
607.67	60.85
607.82	18.72
607.98	65.54
608.13	25.75
608.29	58.51
608.44	35.11
608.60	117.03
608.75	23.41
608.91	0.00
609.06	152.13
609.22	0.00
609.37	37.45
609.53	98.30
609.68	14.04
609.84	0.00
609.99	65.54
610.15	67.88
610.30	28.09
610.46	51.49
610.61	51.49
610.76	16.38
610.92	60.85
611.07	56.17
611.23	65.54
611.38	21.06
611.54	79.58
611.69	37.45
611.84	0.00
612.00	37.45
612.15	74.90
612.31	70.22
612.46	112.35
612.62	0.00
612.77	25.75
612.92	42.13
613.08	56.17
613.23	11.70
613.39	84.26
613.54	65.54
613.69	0.00
613.85	0.00
614.00	53.83
614.15	0.00
614.31	86.60
614.46	0.00
614.62	14.04
614.77	16.38
614.92	35.11
615.08	39.79
615.23	28.09
615.38	0.00
615.54	7.02
615.69	0.00
615.84	88.94
616.00	65.54
616.15	0.00
616.30	46.81
616.46	63.19
616.61	46.81
616.76	14.04
616.92	0.00
617.07	42.13
617.22	0.00
617.37	93.62
617.53	74.90
617.68	65.54
617.83	65.54
617.99	0.00
618.14	51.49
618.29	37.45
618.45	7.02
618.60	37.45
618.75	14.04
618.90	18.72
619.06	16.38
619.21	79.58
619.36	11.70
619.51	77.24
619.67	21.06
619.82	30.43
619.97	21.06
620.12	72.56
620.28	42.13
620.43	30.43
620.58	2.34
620.73	49.15
620.89	72.56
621.04	0.00
621.19	60.85
621.34	58.51
621.49	35.11
621.65	72.56
621.80	21.06
621.95	16.38
622.10	32.77
622.25	95.96
622.41	95.96
622.56	95.96
622.71	0.00
622.86	79.58
623.01	46.81
623.16	35.11
623.32	0.00
623.47	18.72
623.62	0.00
623.77	77.24
623.92	42.13
624.07	95.96
624.23	77.24
624.38	60.85
624.53	42.13
624.68	74.90
624.83	53.83
624.98	37.45
625.13	79.58
625.29	100.64
625.44	107.66
625.59	28.09
625.74	74.90
625.89	91.28
626.04	4.68
626.19	60.85
626.34	44.47
626.49	81.92
626.65	7.02
626.80	100.64
626.95	44.47
627.10	0.00
627.25	11.70
627.40	81.92
627.55	0.00
627.70	51.49
627.85	51.49
628.00	25.75
628.15	21.06
628.30	79.58
628.45	51.49
628.60	30.43
628.76	0.00
628.91	67.88
629.06	32.77
629.21	56.17
629.36	98.30
629.51	39.79
629.66	39.79
629.81	0.00
629.96	23.41
630.11	74.90
630.26	32.77
630.41	28.09
630.56	105.32
630.71	28.09
630.86	18.72
631.01	4.68
631.16	70.22
631.31	0.00
631.46	37.45
631.61	14.04
631.76	23.41
631.91	107.66
632.06	100.64
632.21	58.51
632.36	37.45
632.51	7.02
632.66	70.22
632.81	46.81
632.96	9.36
633.10	107.66
633.25	23.41
633.40	191.92
633.55	86.60
633.70	28.09
633.85	53.83
634.00	79.58
634.15	28.09
634.30	79.58
634.45	60.85
634.60	39.79
634.75	98.30
634.90	0.00
635.05	0.00
635.19	25.75
635.34	56.17
635.49	0.00
635.64	35.11
635.79	9.36
635.94	60.85
636.09	0.00
636.24	25.75
636.39	25.75
636.53	58.51
636.68	51.49
636.83	70.22
636.98	51.49
637.13	28.09
637.28	70.22
637.43	25.75
637.57	7.02
637.72	14.04
637.87	0.00
638.02	0.00
638.17	51.49
638.32	105.32
638.46	21.06
638.61	28.09
638.76	14.04
638.91	81.92
639.06	60.85
639.20	0.00
639.35	60.85
639.50	0.00
639.65	79.58
639.80	37.45
639.94	18.72
640.09	25.75
640.24	72.56
640.39	7.02
640.54	37.45
640.68	53.83
640.83	30.43
640.98	98.30
641.13	56.17
641.27	56.17
641.42	0.00
641.57	25.75
641.72	60.85
641.86	51.49
642.01	46.81
642.16	4.68
642.31	30.43
642.45	67.88
642.60	18.72
642.75	7.02
642.90	72.56
643.04	0.00
643.19	0.00
643.34	53.83
643.48	46.81
643.63	0.00
643.78	0.00
643.93	35.11
644.07	21.06
644.22	79.58
644.37	67.88
644.51	42.13
644.66	32.77
644.81	28.09
644.95	65.54
645.10	53.83
645.25	74.90
645.39	126.39
645.54	67.88
645.69	98.30
645.83	42.13
645.98	105.32
646.13	30.43
646.27	35.11
646.42	9.36
646.57	7.02
646.71	121.71
646.86	49.15
647.00	14.04
647.15	35.11
647.30	9.36
647.44	91.28
647.59	7.02
647.74	53.83
647.88	42.13
648.03	74.90
648.17	35.11
648.32	7.02
648.47	102.98
648.61	49.15
648.76	25.75
648.90	0.00
649.05	53.83
649.20	0.00
649.34	9.36
649.49	0.00
649.63	0.00
649.78	72.56
649.92	11.70
650.07	46.81
650.21	11.70
650.36	0.00
650.51	107.66
650.65	110.01
650.80	0.00
650.94	25.75
651.09	81.92
651.23	0.00
651.38	11.70
651.52	77.24
651.67	21.06
651.81	77.24
651.96	42.13
652.10	60.85
652.25	23.41
652.39	60.85
652.54	39.79
652.68	32.77
652.83	100.64
652.97	14.04
653.12	46.81
653.26	11.70
653.41	9.36
653.55	44.47
653.70	117.03
653.84	58.51
653.99	70.22
654.13	56.17
654.27	0.00
654.42	70.22
654.56	93.62
654.71	18.72
654.85	11.70
655.00	88.94
655.14	102.98
655.29	23.41
655.43	21.06
655.57	86.60
655.72	21.06
655.86	60.85
656.01	30.43
656.15	2.34
656.30	79.58
656.44	35.11
656.58	60.85
656.73	23.41
656.87	56.17
657.01	42.13
657.16	91.28
657.30	56.17
657.45	86.60
657.59	67.88
657.73	51.49
657.88	126.39
658.02	39.79
658.16	65.54
658.31	70.22
658.45	21.06
658.60	21.06
658.74	9.36
658.88	23.41
659.03	37.45
659.17	14.04
659.31	21.06
659.46	112.35
659.60	35.11
659.74	56.17
659.89	23.41
660.03	0.00
660.17	39.79
660.32	39.79
660.46	58.51
660.60	0.00
660.74	7.02
660.89	124.05
661.03	63.19
661.17	16.38
661.32	11.70
661.46	53.83
661.60	18.72
661.74	21.06
661.89	49.15
662.03	67.88
662.17	0.00
662.31	58.51
662.46	63.19
662.60	18.72
662.74	46.81
662.88	25.75
663.03	21.06
663.17	63.19
663.31	25.75
663.45	60.85
663.60	28.09
663.74	84.26
663.88	67.88
664.02	9.36
664.17	28.09
664.31	74.90
664.45	9.36
664.59	72.56
664.73	0.00
664.88	0.00
665.02	7.02
665.16	39.79
665.30	23.41
665.44	28.09
665.59	11.70
665.73	77.24
665.87	7.02
666.01	23.41
666.15	30.43
666.29	42.13
666.44	105.32
666.58	0.00
666.72	100.64
666.86	49.15
667.00	11.70
667.14	9.36
667.28	4.68
667.43	23.41
667.57	0.00
667.71	46.81
667.85	25.75
667.99	21.06
668.13	74.90
668.27	140.43
668.41	67.88
668.56	49.15
668.70	72.56
668.84	25.75
668.98	0.00
669.12	42.13
669.26	23.41
669.40	53.83
669.54	32.77
669.68	98.30
669.82	4.68
669.96	0.00
670.10	63.19
670.25	95.96
670.39	60.85
670.53	0.00
670.67	91.28
670.81	0.00
670.95	0.00
671.09	81.92
671.23	23.41
671.37	124.05
671.51	16.38
671.65	65.54
671.79	60.85
671.93	110.01
672.07	23.41
672.21	0.00
672.35	74.90
672.49	67.88
672.63	28.09
672.77	0.00
672.91	84.26
673.05	35.11
673.19	0.00
673.33	42.13
673.47	30.43
673.61	95.96
673.75	0.00
673.89	30.43
674.03	49.15
674.17	84.26
674.31	56.17
674.45	0.00
674.59	39.79
674.73	23.41
674.87	70.22
675.01	119.37
675.15	25.75
675.29	56.17
675.43	42.13
675.56	72.56
675.70	0.00
675.84	53.83
675.98	77.24
676.12	0.00
676.26	23.41
676.40	60.85
676.54	4.68
676.68	44.47
676.82	46.81
676.96	18.72
677.10	35.11
677.23	72.56
677.37	53.83
677.51	42.13
677.65	46.81
677.79	9.36
677.93	56.17
678.07	7.02
678.21	58.51
678.34	93.62
678.48	7.02
678.62	30.43
678.76	18.72
678.90	23.41
679.04	98.30
679.18	56.17
679.31	25.75
679.45	93.62
679.59	28.09
679.73	60.85
679.87	58.51
680.00	60.85
680.14	32.77
680.28	63.19
680.42	30.43
680.56	32.77
680.70	0.00
680.83	46.81
680.97	16.38
681.11	32.77
681.25	28.09
681.39	60.85
681.52	0.00
681.66	107.66
681.80	32.77
681.94	0.00
682.07	0.00
682.21	49.15
682.35	7.02
682.49	11.70
682.62	35.11
682.76	63.19
682.90	88.94
683.04	79.58
683.17	37.45
683.31	35.11
683.45	77.24
683.59	72.56
683.72	42.13
683.86	23.41
684.00	18.72
684.13	46.81
684.27	0.00
684.41	65.54
684.55	58.51
684.68	56.17
684.82	35.11
684.96	23.41
685.09	42.13
685.23	23.41
685.37	72.56
685.50	23.41
685.64	107.66
685.78	65.54
685.91	79.58
686.05	81.92
686.19	21.06
686.32	84.26
686.46	16.38
686.60	117.03
686.73	7.02
686.87	0.00
687.01	35.11
687.14	21.06
687.28	77.24
687.42	100.64
687.55	46.81
687.69	44.47
687.82	28.09
687.96	23.41
688.10	53.83
688.23	11.70
688.37	14.04
688.50	58.51
688.64	0.00
688.78	51.49
688.91	53.83
689.05	35.11
689.18	35.11
689.32	0.00
689.46	2.34
689.59	32.77
689.73	0.00
689.86	56.17
690.00	0.00
690.13	21.06
690.27	0.00
690.41	0.00
690.54	0.00
690.68	51.49
690.81	35.11
690.95	77.24
691.08	93.62
691.22	70.22
691.35	79.58
691.49	44.47
691.62	46.81
691.76	39.79
691.89	46.81
692.03	0.00
692.16	14.04
692.30	0.00
692.43	28.09
692.57	44.47
692.70	32.77
692.84	39.79
692.97	39.79
693.11	0.00
693.24	51.49
693.38	25.75
693.51	100.64
693.65	110.01
693.78	79.58
693.92	63.19
694.05	2.34
694.19	14.04
694.32	30.43
694.45	67.88
694.59	0.00
694.72	35.11
694.86	9.36
694.99	79.58
695.13	86.60
695.26	0.00
695.39	25.75
695.53	0.00
695.66	60.85
695.80	9.36
695.93	53.83
696.07	93.62
696.20	0.00
696.33	0.00
696.47	58.51
696.60	23.41
696.73	81.92
696.87	58.51
697.00	0.00
697.14	98.30
697.27	37.45
697.40	0.00
697.54	49.15
697.67	18.72
697.80	42.13
697.94	0.00
698.07	110.01
698.21	2.34
698.34	86.60
698.47	35.11
698.61	70.22
698.74	0.00
698.87	0.00
699.01	42.13
699.14	63.19
699.27	25.75
699.40	14.04
699.54	42.13
699.67	51.49
699.80	44.47
699.94	124.05
700.07	44.47
700.20	30.43
700.34	74.90
700.47	18.72
700.60	0.00
700.73	51.49
700.87	7.02
701.00	0.00
701.13	21.06
701.26	58.51
701.40	91.28
701.53	42.13
701.66	117.03
701.79	23.41
701.93	102.98
702.06	51.49
702.19	49.15
702.32	23.41
702.46	0.00
702.59	0.00
702.72	28.09
702.85	49.15
702.99	37.45
703.12	0.00
703.25	112.35
703.38	0.00
703.51	77.24
703.65	35.11
703.78	58.51
703.91	51.49
704.04	7.02
704.17	53.83
704.31	0.00
704.44	67.88
704.57	65.54
704.70	95.96
704.83	35.11
704.96	0.00
705.10	28.09
705.23	37.45
>>>>>End Processed Spectral Data<<<<<
