SpectraSuite Data File
++++++++++++++++++++++++++++++++++++
Date: Fri Oct 04 12:13:27 GMT-05:00 2013
User: price-jones
Dark Spectrum Present: No
Reference Spectrum Present: No
Number of Sampled Component Spectra: 1
Spectrometers: USB2+H05261
Integration Time (usec): 10000 (USB2+H05261)
Spectra Averaged: 1 (USB2+H05261)
Boxcar Smoothing: 0 (USB2+H05261)
Correct for Electrical Dark: No (USB2+H05261)
Strobe/Lamp Enabled: No (USB2+H05261)
Correct for Detector Non-linearity: No (USB2+H05261)
Correct for Stray Light: No (USB2+H05261)
Number of Pixels in Processed Spectrum: 2048
>>>>>Begin Processed Spectral Data<<<<<
365.73	0.00
365.92	0.00
366.12	0.00
366.32	0.00
366.52	0.00
366.72	0.00
366.91	0.00
367.11	0.00
367.31	0.00
367.51	0.00
367.70	0.00
367.90	0.00
368.10	0.00
368.30	0.00
368.49	0.00
368.69	0.00
368.89	0.00
369.09	0.00
369.28	0.00
369.48	0.00
369.68	0.00
369.87	0.00
370.07	0.00
370.27	0.00
370.47	0.00
370.66	0.00
370.86	0.00
371.06	65.54
371.25	0.00
371.45	0.00
371.65	0.00
371.84	4.68
372.04	25.75
372.24	18.72
372.44	49.15
372.63	11.70
372.83	51.49
373.03	0.00
373.22	0.00
373.42	32.77
373.62	170.86
373.81	23.41
374.01	67.88
374.21	77.24
374.40	11.70
374.60	58.51
374.79	0.00
374.99	14.04
375.19	0.00
375.38	37.45
375.58	0.00
375.78	0.00
375.97	25.75
376.17	72.56
376.37	11.70
376.56	30.43
376.76	0.00
376.95	0.00
377.15	0.00
377.35	7.02
377.54	49.15
377.74	2.34
377.93	67.88
378.13	65.54
378.33	53.83
378.52	2.34
378.72	28.09
378.91	0.00
379.11	4.68
379.31	30.43
379.50	0.00
379.70	95.96
379.89	74.90
380.09	0.00
380.28	23.41
380.48	23.41
380.68	77.24
380.87	100.64
381.07	14.04
381.26	112.35
381.46	0.00
381.65	70.22
381.85	56.17
382.04	0.00
382.24	35.11
382.43	16.38
382.63	14.04
382.83	0.00
383.02	0.00
383.22	0.00
383.41	23.41
383.61	42.13
383.80	58.51
384.00	0.00
384.19	0.00
384.39	100.64
384.58	32.77
384.78	58.51
384.97	0.00
385.17	51.49
385.36	7.02
385.56	86.60
385.75	42.13
385.95	0.00
386.14	44.47
386.34	21.06
386.53	42.13
386.72	35.11
386.92	0.00
387.11	0.00
387.31	23.41
387.50	117.03
387.70	0.00
387.89	0.00
388.09	18.72
388.28	39.79
388.48	72.56
388.67	35.11
388.86	23.41
389.06	9.36
389.25	49.15
389.45	42.13
389.64	0.00
389.84	23.41
390.03	49.15
390.22	98.30
390.42	72.56
390.61	0.00
390.81	42.13
391.00	35.11
391.19	16.38
391.39	0.00
391.58	28.09
391.78	46.81
391.97	0.00
392.16	58.51
392.36	0.00
392.55	0.00
392.75	21.06
392.94	25.75
393.13	14.04
393.33	74.90
393.52	14.04
393.71	0.00
393.91	65.54
394.10	0.00
394.29	30.43
394.49	18.72
394.68	0.00
394.88	42.13
395.07	65.54
395.26	28.09
395.46	4.68
395.65	46.81
395.84	0.00
396.04	9.36
396.23	0.00
396.42	51.49
396.62	37.45
396.81	0.00
397.00	0.00
397.19	28.09
397.39	49.15
397.58	4.68
397.77	51.49
397.97	0.00
398.16	9.36
398.35	51.49
398.55	49.15
398.74	46.81
398.93	35.11
399.12	46.81
399.32	42.13
399.51	81.92
399.70	60.85
399.90	37.45
400.09	39.79
400.28	37.45
400.47	0.00
400.67	2.34
400.86	0.00
401.05	0.00
401.24	16.38
401.44	0.00
401.63	65.54
401.82	0.00
402.01	0.00
402.21	102.98
402.40	21.06
402.59	65.54
402.78	0.00
402.97	35.11
403.17	32.77
403.36	16.38
403.55	0.00
403.74	81.92
403.93	14.04
404.13	14.04
404.32	37.45
404.51	37.45
404.70	32.77
404.89	21.06
405.09	46.81
405.28	37.45
405.47	0.00
405.66	35.11
405.85	42.13
406.05	25.75
406.24	56.17
406.43	44.47
406.62	23.41
406.81	0.00
407.00	37.45
407.20	28.09
407.39	42.13
407.58	39.79
407.77	56.17
407.96	7.02
408.15	2.34
408.34	30.43
408.54	60.85
408.73	44.47
408.92	88.94
409.11	25.75
409.30	28.09
409.49	70.22
409.68	0.00
409.87	53.83
410.07	0.00
410.26	42.13
410.45	0.00
410.64	23.41
410.83	0.00
411.02	0.00
411.21	14.04
411.40	124.05
411.59	23.41
411.78	58.51
411.98	65.54
412.17	21.06
412.36	51.49
412.55	0.00
412.74	63.19
412.93	4.68
413.12	77.24
413.31	28.09
413.50	56.17
413.69	53.83
413.88	81.92
414.07	30.43
414.26	65.54
414.45	0.00
414.64	37.45
414.83	37.45
415.02	0.00
415.22	0.00
415.41	49.15
415.60	14.04
415.79	0.00
415.98	4.68
416.17	0.00
416.36	44.47
416.55	0.00
416.74	0.00
416.93	46.81
417.12	0.00
417.31	72.56
417.50	0.00
417.69	63.19
417.88	0.00
418.07	95.96
418.26	49.15
418.45	7.02
418.64	0.00
418.83	0.00
419.02	0.00
419.21	98.30
419.39	0.00
419.58	0.00
419.77	0.00
419.96	51.49
420.15	11.70
420.34	4.68
420.53	25.75
420.72	32.77
420.91	0.00
421.10	35.11
421.29	16.38
421.48	60.85
421.67	53.83
421.86	18.72
422.05	44.47
422.24	4.68
422.43	37.45
422.61	60.85
422.80	70.22
422.99	53.83
423.18	60.85
423.37	37.45
423.56	23.41
423.75	0.00
423.94	0.00
424.13	37.45
424.32	16.38
424.50	23.41
424.69	117.03
424.88	14.04
425.07	0.00
425.26	0.00
425.45	0.00
425.64	9.36
425.83	0.00
426.01	49.15
426.20	98.30
426.39	91.28
426.58	21.06
426.77	84.26
426.96	72.56
427.15	18.72
427.33	28.09
427.52	9.36
427.71	46.81
427.90	42.13
428.09	21.06
428.28	60.85
428.46	88.94
428.65	35.11
428.84	0.00
429.03	42.13
429.22	11.70
429.40	0.00
429.59	44.47
429.78	51.49
429.97	0.00
430.16	114.69
430.34	46.81
430.53	4.68
430.72	100.64
430.91	7.02
431.10	0.00
431.28	25.75
431.47	39.79
431.66	30.43
431.85	25.75
432.03	53.83
432.22	63.19
432.41	79.58
432.60	11.70
432.79	0.00
432.97	88.94
433.16	147.45
433.35	84.26
433.54	56.17
433.72	9.36
433.91	0.00
434.10	58.51
434.28	72.56
434.47	25.75
434.66	51.49
434.85	0.00
435.03	49.15
435.22	60.85
435.41	16.38
435.59	42.13
435.78	0.00
435.97	53.83
436.16	11.70
436.34	25.75
436.53	35.11
436.72	0.00
436.90	51.49
437.09	0.00
437.28	2.34
437.46	7.02
437.65	37.45
437.84	14.04
438.02	11.70
438.21	42.13
438.40	11.70
438.58	4.68
438.77	32.77
438.96	44.47
439.14	51.49
439.33	35.11
439.52	0.00
439.70	63.19
439.89	74.90
440.08	65.54
440.26	18.72
440.45	0.00
440.63	39.79
440.82	49.15
441.01	7.02
441.19	58.51
441.38	4.68
441.57	46.81
441.75	39.79
441.94	37.45
442.12	65.54
442.31	42.13
442.50	0.00
442.68	0.00
442.87	35.11
443.05	35.11
443.24	0.00
443.43	58.51
443.61	128.73
443.80	72.56
443.98	0.00
444.17	9.36
444.35	0.00
444.54	9.36
444.73	21.06
444.91	0.00
445.10	0.00
445.28	35.11
445.47	28.09
445.65	0.00
445.84	0.00
446.02	98.30
446.21	84.26
446.39	107.66
446.58	39.79
446.77	30.43
446.95	14.04
447.14	11.70
447.32	53.83
447.51	53.83
447.69	58.51
447.88	0.00
448.06	84.26
448.25	0.00
448.43	11.70
448.62	42.13
448.80	0.00
448.99	25.75
449.17	14.04
449.36	0.00
449.54	23.41
449.73	11.70
449.91	86.60
450.10	16.38
450.28	0.00
450.46	0.00
450.65	91.28
450.83	42.13
451.02	11.70
451.20	0.00
451.39	9.36
451.57	7.02
451.76	53.83
451.94	81.92
452.13	39.79
452.31	7.02
452.49	56.17
452.68	84.26
452.86	35.11
453.05	32.77
453.23	0.00
453.42	0.00
453.60	0.00
453.78	7.02
453.97	0.00
454.15	0.00
454.34	84.26
454.52	0.00
454.70	16.38
454.89	0.00
455.07	49.15
455.26	0.00
455.44	95.96
455.62	11.70
455.81	110.01
455.99	25.75
456.17	46.81
456.36	37.45
456.54	128.73
456.73	37.45
456.91	37.45
457.09	0.00
457.28	7.02
457.46	60.85
457.64	21.06
457.83	16.38
458.01	0.00
458.19	35.11
458.38	11.70
458.56	79.58
458.74	23.41
458.93	91.28
459.11	0.00
459.29	95.96
459.48	70.22
459.66	23.41
459.84	0.00
460.03	32.77
460.21	14.04
460.39	0.00
460.57	44.47
460.76	88.94
460.94	16.38
461.12	9.36
461.31	51.49
461.49	28.09
461.67	81.92
461.85	114.69
462.04	0.00
462.22	121.71
462.40	44.47
462.59	42.13
462.77	18.72
462.95	100.64
463.13	14.04
463.32	53.83
463.50	0.00
463.68	42.13
463.86	32.77
464.05	98.30
464.23	25.75
464.41	23.41
464.59	72.56
464.78	7.02
464.96	32.77
465.14	53.83
465.32	0.00
465.50	7.02
465.69	2.34
465.87	56.17
466.05	18.72
466.23	2.34
466.41	0.00
466.60	35.11
466.78	37.45
466.96	53.83
467.14	30.43
467.32	0.00
467.51	16.38
467.69	0.00
467.87	42.13
468.05	49.15
468.23	2.34
468.41	0.00
468.60	18.72
468.78	74.90
468.96	81.92
469.14	23.41
469.32	0.00
469.50	0.00
469.69	16.38
469.87	0.00
470.05	35.11
470.23	0.00
470.41	37.45
470.59	4.68
470.77	0.00
470.95	0.00
471.14	0.00
471.32	0.00
471.50	35.11
471.68	88.94
471.86	37.45
472.04	46.81
472.22	44.47
472.40	37.45
472.58	4.68
472.77	117.03
472.95	0.00
473.13	16.38
473.31	0.00
473.49	126.39
473.67	16.38
473.85	42.13
474.03	21.06
474.21	4.68
474.39	70.22
474.57	21.06
474.75	42.13
474.93	18.72
475.12	2.34
475.30	18.72
475.48	42.13
475.66	93.62
475.84	23.41
476.02	0.00
476.20	60.85
476.38	32.77
476.56	67.88
476.74	42.13
476.92	2.34
477.10	28.09
477.28	0.00
477.46	65.54
477.64	32.77
477.82	0.00
478.00	67.88
478.18	0.00
478.36	81.92
478.54	51.49
478.72	18.72
478.90	44.47
479.08	65.54
479.26	74.90
479.44	9.36
479.62	58.51
479.80	46.81
479.98	53.83
480.16	0.00
480.34	4.68
480.52	0.00
480.70	39.79
480.88	53.83
481.06	51.49
481.24	9.36
481.41	60.85
481.59	110.01
481.77	11.70
481.95	21.06
482.13	21.06
482.31	35.11
482.49	63.19
482.67	60.85
482.85	9.36
483.03	30.43
483.21	51.49
483.39	0.00
483.57	42.13
483.74	84.26
483.92	16.38
484.10	7.02
484.28	2.34
484.46	16.38
484.64	32.77
484.82	0.00
485.00	9.36
485.18	0.00
485.35	46.81
485.53	98.30
485.71	0.00
485.89	9.36
486.07	51.49
486.25	65.54
486.43	35.11
486.61	133.41
486.78	11.70
486.96	4.68
487.14	39.79
487.32	117.03
487.50	44.47
487.68	39.79
487.85	21.06
488.03	67.88
488.21	63.19
488.39	0.00
488.57	77.24
488.75	65.54
488.92	84.26
489.10	21.06
489.28	67.88
489.46	25.75
489.64	25.75
489.81	14.04
489.99	42.13
490.17	81.92
490.35	86.60
490.53	14.04
490.70	7.02
490.88	51.49
491.06	42.13
491.24	142.77
491.41	0.00
491.59	72.56
491.77	98.30
491.95	25.75
492.13	56.17
492.30	35.11
492.48	0.00
492.66	60.85
492.84	35.11
493.01	86.60
493.19	35.11
493.37	0.00
493.54	9.36
493.72	42.13
493.90	25.75
494.08	23.41
494.25	16.38
494.43	65.54
494.61	93.62
494.79	0.00
494.96	23.41
495.14	2.34
495.32	0.00
495.49	39.79
495.67	72.56
495.85	0.00
496.02	0.00
496.20	0.00
496.38	79.58
496.55	16.38
496.73	18.72
496.91	72.56
497.09	46.81
497.26	44.47
497.44	30.43
497.62	74.90
497.79	0.00
497.97	7.02
498.14	42.13
498.32	49.15
498.50	107.66
498.67	9.36
498.85	18.72
499.03	35.11
499.20	56.17
499.38	42.13
499.56	23.41
499.73	81.92
499.91	30.43
500.08	49.15
500.26	37.45
500.44	4.68
500.61	72.56
500.79	74.90
500.97	77.24
501.14	105.32
501.32	81.92
501.49	28.09
501.67	28.09
501.84	58.51
502.02	0.00
502.20	0.00
502.37	88.94
502.55	0.00
502.72	18.72
502.90	32.77
503.07	37.45
503.25	0.00
503.43	72.56
503.60	102.98
503.78	18.72
503.95	18.72
504.13	4.68
504.30	0.00
504.48	79.58
504.65	72.56
504.83	98.30
505.01	30.43
505.18	4.68
505.36	7.02
505.53	0.00
505.71	56.17
505.88	9.36
506.06	95.96
506.23	9.36
506.41	56.17
506.58	0.00
506.76	42.13
506.93	0.00
507.11	28.09
507.28	0.00
507.46	30.43
507.63	25.75
507.81	2.34
507.98	98.30
508.16	49.15
508.33	53.83
508.50	35.11
508.68	32.77
508.85	2.34
509.03	25.75
509.20	77.24
509.38	56.17
509.55	81.92
509.73	46.81
509.90	72.56
510.08	0.00
510.25	28.09
510.42	56.17
510.60	42.13
510.77	74.90
510.95	0.00
511.12	35.11
511.30	37.45
511.47	23.41
511.64	110.01
511.82	63.19
511.99	81.92
512.17	0.00
512.34	0.00
512.51	60.85
512.69	93.62
512.86	28.09
513.04	65.54
513.21	53.83
513.38	0.00
513.56	72.56
513.73	102.98
513.90	63.19
514.08	16.38
514.25	105.32
514.43	21.06
514.60	14.04
514.77	56.17
514.95	91.28
515.12	16.38
515.29	70.22
515.47	25.75
515.64	39.79
515.81	124.05
515.99	0.00
516.16	16.38
516.33	44.47
516.51	81.92
516.68	28.09
516.85	0.00
517.03	0.00
517.20	49.15
517.37	42.13
517.54	0.00
517.72	49.15
517.89	60.85
518.06	25.75
518.24	49.15
518.41	11.70
518.58	23.41
518.75	0.00
518.93	67.88
519.10	2.34
519.27	0.00
519.45	58.51
519.62	58.51
519.79	44.47
519.96	14.04
520.14	2.34
520.31	74.90
520.48	39.79
520.65	11.70
520.83	16.38
521.00	51.49
521.17	18.72
521.34	51.49
521.52	21.06
521.69	58.51
521.86	18.72
522.03	39.79
522.20	14.04
522.38	0.00
522.55	53.83
522.72	37.45
522.89	74.90
523.07	28.09
523.24	51.49
523.41	72.56
523.58	0.00
523.75	21.06
523.92	30.43
524.10	21.06
524.27	86.60
524.44	0.00
524.61	88.94
524.78	65.54
524.96	42.13
525.13	128.73
525.30	117.03
525.47	58.51
525.64	42.13
525.81	63.19
525.98	49.15
526.16	21.06
526.33	0.00
526.50	63.19
526.67	23.41
526.84	0.00
527.01	28.09
527.18	35.11
527.36	79.58
527.53	107.66
527.70	65.54
527.87	28.09
528.04	0.00
528.21	0.00
528.38	49.15
528.55	95.96
528.72	30.43
528.89	37.45
529.07	0.00
529.24	88.94
529.41	53.83
529.58	63.19
529.75	53.83
529.92	51.49
530.09	28.09
530.26	77.24
530.43	7.02
530.60	0.00
530.77	86.60
530.94	65.54
531.11	46.81
531.28	79.58
531.46	77.24
531.63	21.06
531.80	30.43
531.97	0.00
532.14	16.38
532.31	58.51
532.48	84.26
532.65	105.32
532.82	102.98
532.99	9.36
533.16	32.77
533.33	30.43
533.50	0.00
533.67	0.00
533.84	91.28
534.01	30.43
534.18	105.32
534.35	37.45
534.52	72.56
534.69	98.30
534.86	14.04
535.03	32.77
535.20	16.38
535.37	74.90
535.54	42.13
535.71	2.34
535.88	18.72
536.05	91.28
536.22	126.39
536.38	23.41
536.55	72.56
536.72	18.72
536.89	65.54
537.06	0.00
537.23	9.36
537.40	51.49
537.57	28.09
537.74	35.11
537.91	56.17
538.08	67.88
538.25	67.88
538.42	37.45
538.59	21.06
538.75	72.56
538.92	84.26
539.09	67.88
539.26	0.00
539.43	37.45
539.60	100.64
539.77	145.11
539.94	161.50
540.11	84.26
540.28	60.85
540.44	79.58
540.61	14.04
540.78	0.00
540.95	16.38
541.12	14.04
541.29	74.90
541.46	35.11
541.62	65.54
541.79	23.41
541.96	23.41
542.13	60.85
542.30	114.69
542.47	102.98
542.63	46.81
542.80	9.36
542.97	63.19
543.14	23.41
543.31	32.77
543.48	124.05
543.64	110.01
543.81	0.00
543.98	93.62
544.15	86.60
544.32	21.06
544.48	51.49
544.65	14.04
544.82	42.13
544.99	114.69
545.16	79.58
545.32	49.15
545.49	25.75
545.66	81.92
545.83	49.15
546.00	25.75
546.16	42.13
546.33	133.41
546.50	35.11
546.67	60.85
546.83	81.92
547.00	14.04
547.17	44.47
547.34	0.00
547.50	58.51
547.67	133.41
547.84	37.45
548.00	88.94
548.17	0.00
548.34	56.17
548.51	23.41
548.67	4.68
548.84	53.83
549.01	4.68
549.18	21.06
549.34	65.54
549.51	49.15
549.68	84.26
549.84	53.83
550.01	16.38
550.18	107.66
550.34	37.45
550.51	65.54
550.68	58.51
550.84	56.17
551.01	44.47
551.18	70.22
551.34	32.77
551.51	37.45
551.68	0.00
551.84	4.68
552.01	4.68
552.18	18.72
552.34	9.36
552.51	37.45
552.68	44.47
552.84	65.54
553.01	0.00
553.18	2.34
553.34	56.17
553.51	58.51
553.67	56.17
553.84	0.00
554.01	4.68
554.17	46.81
554.34	105.32
554.51	32.77
554.67	53.83
554.84	53.83
555.00	0.00
555.17	42.13
555.33	67.88
555.50	79.58
555.67	16.38
555.83	0.00
556.00	98.30
556.16	77.24
556.33	74.90
556.50	46.81
556.66	39.79
556.83	23.41
556.99	46.81
557.16	51.49
557.32	14.04
557.49	35.11
557.65	28.09
557.82	0.00
557.98	86.60
558.15	88.94
558.32	49.15
558.48	0.00
558.65	60.85
558.81	65.54
558.98	4.68
559.14	0.00
559.31	0.00
559.47	77.24
559.64	79.58
559.80	18.72
559.97	77.24
560.13	39.79
560.30	93.62
560.46	23.41
560.63	0.00
560.79	7.02
560.96	42.13
561.12	0.00
561.29	51.49
561.45	42.13
561.61	67.88
561.78	18.72
561.94	114.69
562.11	14.04
562.27	60.85
562.44	56.17
562.60	32.77
562.77	23.41
562.93	35.11
563.10	25.75
563.26	44.47
563.42	72.56
563.59	65.54
563.75	14.04
563.92	16.38
564.08	98.30
564.24	9.36
564.41	16.38
564.57	53.83
564.74	28.09
564.90	53.83
565.07	30.43
565.23	65.54
565.39	72.56
565.56	51.49
565.72	18.72
565.88	23.41
566.05	28.09
566.21	60.85
566.38	84.26
566.54	0.00
566.70	0.00
566.87	7.02
567.03	37.45
567.19	112.35
567.36	16.38
567.52	37.45
567.68	126.39
567.85	46.81
568.01	74.90
568.17	0.00
568.34	2.34
568.50	0.00
568.66	0.00
568.83	74.90
568.99	46.81
569.15	11.70
569.32	32.77
569.48	30.43
569.64	18.72
569.81	23.41
569.97	81.92
570.13	39.79
570.30	0.00
570.46	42.13
570.62	60.85
570.78	121.71
570.95	11.70
571.11	51.49
571.27	28.09
571.43	46.81
571.60	79.58
571.76	32.77
571.92	4.68
572.09	4.68
572.25	70.22
572.41	60.85
572.57	9.36
572.74	0.00
572.90	14.04
573.06	30.43
573.22	84.26
573.38	46.81
573.55	74.90
573.71	35.11
573.87	95.96
574.03	0.00
574.20	0.00
574.36	0.00
574.52	0.00
574.68	0.00
574.84	28.09
575.01	25.75
575.17	23.41
575.33	70.22
575.49	46.81
575.65	0.00
575.82	28.09
575.98	49.15
576.14	30.43
576.30	58.51
576.46	65.54
576.62	51.49
576.79	79.58
576.95	63.19
577.11	9.36
577.27	0.00
577.43	86.60
577.59	74.90
577.75	0.00
577.92	81.92
578.08	107.66
578.24	30.43
578.40	11.70
578.56	74.90
578.72	81.92
578.88	4.68
579.04	56.17
579.21	18.72
579.37	0.00
579.53	21.06
579.69	30.43
579.85	37.45
580.01	30.43
580.17	70.22
580.33	72.56
580.49	7.02
580.65	32.77
580.82	30.43
580.98	0.00
581.14	79.58
581.30	39.79
581.46	95.96
581.62	21.06
581.78	0.00
581.94	60.85
582.10	28.09
582.26	88.94
582.42	93.62
582.58	67.88
582.74	79.58
582.90	114.69
583.06	44.47
583.22	70.22
583.38	67.88
583.54	60.85
583.70	39.79
583.86	56.17
584.02	93.62
584.18	95.96
584.34	128.73
584.50	447.04
584.66	2382.67
584.82	5811.55
584.98	8222.30
585.14	7155.02
585.30	4447.02
585.46	2700.98
585.62	1703.91
585.78	816.85
585.94	322.99
586.10	161.50
586.26	131.07
586.42	28.09
586.58	42.13
586.74	105.32
586.90	163.84
587.06	18.72
587.22	9.36
587.38	100.64
587.54	140.43
587.70	421.30
587.86	580.45
588.02	634.29
588.18	491.51
588.34	341.72
588.49	105.32
588.65	131.07
588.81	110.01
588.97	49.15
589.13	49.15
589.29	25.75
589.45	32.77
589.61	93.62
589.77	0.00
589.93	14.04
590.08	46.81
590.24	67.88
590.40	74.90
590.56	51.49
590.72	35.11
590.88	28.09
591.04	74.90
591.20	79.58
591.35	49.15
591.51	81.92
591.67	42.13
591.83	11.70
591.99	67.88
592.15	84.26
592.31	77.24
592.46	121.71
592.62	72.56
592.78	53.83
592.94	65.54
593.10	0.00
593.26	44.47
593.41	102.98
593.57	124.05
593.73	35.11
593.89	308.95
594.05	791.10
594.20	1107.07
594.36	1034.52
594.52	660.03
594.68	390.87
594.84	353.42
594.99	198.95
595.15	84.26
595.31	77.24
595.47	0.00
595.62	53.83
595.78	0.00
595.94	28.09
596.10	51.49
596.25	0.00
596.41	11.70
596.57	0.00
596.73	0.00
596.88	60.85
597.04	88.94
597.20	271.50
597.36	220.01
597.51	229.37
597.67	60.85
597.83	102.98
597.99	86.60
598.14	0.00
598.30	107.66
598.46	0.00
598.61	46.81
598.77	63.19
598.93	93.62
599.09	60.85
599.24	16.38
599.40	9.36
599.56	0.00
599.71	79.58
599.87	0.00
600.03	35.11
600.18	35.11
600.34	18.72
600.50	63.19
600.65	0.00
600.81	49.15
600.97	39.79
601.12	70.22
601.28	91.28
601.44	28.09
601.59	25.75
601.75	28.09
601.91	60.85
602.06	63.19
602.22	102.98
602.37	63.19
602.53	163.84
602.69	304.27
602.84	210.65
603.00	227.03
603.16	147.45
603.31	119.37
603.47	93.62
603.62	42.13
603.78	86.60
603.94	21.06
604.09	63.19
604.25	35.11
604.40	42.13
604.56	18.72
604.71	44.47
604.87	37.45
605.03	81.92
605.18	44.47
605.34	28.09
605.49	81.92
605.65	0.00
605.80	16.38
605.96	0.00
606.12	60.85
606.27	70.22
606.43	35.11
606.58	88.94
606.74	173.20
606.89	447.04
607.05	704.50
607.20	910.47
607.36	720.88
607.51	543.00
607.67	315.97
607.82	252.78
607.98	131.07
608.13	131.07
608.29	56.17
608.44	32.77
608.60	16.38
608.75	23.41
608.91	220.01
609.06	589.82
609.22	1158.57
609.37	1540.07
609.53	1322.40
609.68	929.19
609.84	531.30
609.99	409.59
610.15	215.33
610.30	166.18
610.46	105.32
610.61	16.38
610.76	74.90
610.92	37.45
611.07	67.88
611.23	84.26
611.38	67.88
611.54	46.81
611.69	18.72
611.84	25.75
612.00	117.03
612.15	37.45
612.31	30.43
612.46	88.94
612.62	91.28
612.77	100.64
612.92	84.26
613.08	126.39
613.23	117.03
613.39	121.71
613.54	119.37
613.69	580.45
613.85	1511.99
614.00	2275.00
614.15	2363.94
614.31	1724.97
614.46	1217.08
614.62	734.93
614.77	500.87
614.92	266.82
615.08	161.50
615.23	72.56
615.38	42.13
615.54	18.72
615.69	70.22
615.84	189.58
616.00	519.60
616.15	606.20
616.30	554.71
616.46	332.36
616.61	304.27
616.76	208.31
616.92	65.54
617.07	30.43
617.22	35.11
617.37	72.56
617.53	74.90
617.68	77.24
617.83	9.36
617.99	2.34
618.14	35.11
618.29	95.96
618.45	95.96
618.60	0.00
618.75	46.81
618.90	149.79
619.06	46.81
619.21	81.92
619.36	46.81
619.51	0.00
619.67	30.43
619.82	35.11
619.97	63.19
620.12	30.43
620.28	51.49
620.43	23.41
620.58	0.00
620.73	4.68
620.89	18.72
621.04	9.36
621.19	161.50
621.34	222.35
621.49	440.02
621.65	362.78
621.80	304.27
621.95	182.56
622.10	135.75
622.25	74.90
622.41	65.54
622.56	84.26
622.71	21.06
622.86	46.81
623.01	0.00
623.16	23.41
623.32	9.36
623.47	72.56
623.62	58.51
623.77	58.51
623.92	23.41
624.07	88.94
624.23	0.00
624.38	0.00
624.53	95.96
624.68	102.98
624.83	0.00
624.98	119.37
625.13	0.00
625.29	0.00
625.44	128.73
625.59	30.43
625.74	46.81
625.89	72.56
626.04	243.42
626.19	716.20
626.34	1062.60
626.49	1254.53
626.65	987.71
626.80	704.50
626.95	411.93
627.10	297.25
627.25	124.05
627.40	117.03
627.55	100.64
627.70	105.32
627.85	14.04
628.00	23.41
628.15	60.85
628.30	0.00
628.45	0.00
628.60	37.45
628.76	84.26
628.91	63.19
629.06	49.15
629.21	74.90
629.36	28.09
629.51	46.81
629.66	72.56
629.81	131.07
629.96	222.35
630.11	334.70
630.26	325.33
630.41	215.33
630.56	189.58
630.71	140.43
630.86	175.54
631.01	53.83
631.16	0.00
631.31	30.43
631.46	30.43
631.61	44.47
631.76	42.13
631.91	0.00
632.06	79.58
632.21	93.62
632.36	51.49
632.51	32.77
632.66	107.66
632.81	142.77
632.96	479.81
633.10	758.33
633.25	894.08
633.40	746.63
633.55	603.86
633.70	339.38
633.85	191.92
634.00	159.16
634.15	23.41
634.30	21.06
634.45	119.37
634.60	131.07
634.75	88.94
634.90	114.69
635.05	51.49
635.19	30.43
635.34	112.35
635.49	84.26
635.64	74.90
635.79	44.47
635.94	72.56
636.09	70.22
636.24	72.56
636.39	0.00
636.53	25.75
636.68	86.60
636.83	37.45
636.98	28.09
637.13	51.49
637.28	86.60
637.43	11.70
637.57	100.64
637.72	393.21
637.87	926.85
638.02	1504.96
638.17	1586.88
638.32	1254.53
638.46	828.55
638.61	550.03
638.76	285.55
638.91	173.20
639.06	23.41
639.20	124.05
639.35	51.49
639.50	124.05
639.65	543.00
639.80	1519.01
639.94	2317.13
640.09	2511.39
640.24	1867.75
640.39	1256.87
640.54	912.81
640.68	479.81
640.83	313.63
640.98	121.71
641.13	128.73
641.27	11.70
641.42	53.83
641.57	74.90
641.72	0.00
641.86	65.54
642.01	60.85
642.16	0.00
642.31	65.54
642.45	42.13
642.60	58.51
642.75	72.56
642.90	81.92
643.04	70.22
643.19	42.13
643.34	0.00
643.48	37.45
643.63	88.94
643.78	4.68
643.93	23.41
644.07	72.56
644.22	98.30
644.37	51.49
644.51	25.75
644.66	0.00
644.81	30.43
644.95	74.90
645.10	51.49
645.25	56.17
645.39	9.36
645.54	37.45
645.69	32.77
645.83	0.00
645.98	0.00
646.13	37.45
646.27	67.88
646.42	4.68
646.57	44.47
646.71	0.00
646.86	84.26
647.00	11.70
647.15	32.77
647.30	49.15
647.44	39.79
647.59	51.49
647.74	18.72
647.88	4.68
648.03	23.41
648.17	65.54
648.32	44.47
648.47	0.00
648.61	79.58
648.76	42.13
648.90	51.49
649.05	86.60
649.20	74.90
649.34	37.45
649.49	14.04
649.63	56.17
649.78	51.49
649.92	56.17
650.07	198.95
650.21	706.84
650.36	1128.14
650.51	1317.72
650.65	1090.69
650.80	746.63
650.94	512.58
651.09	386.19
651.23	224.69
651.38	119.37
651.52	65.54
651.67	67.88
651.81	53.83
651.96	0.00
652.10	30.43
652.25	63.19
652.39	35.11
652.54	77.24
652.68	74.90
652.83	166.18
652.97	395.55
653.12	535.98
653.26	479.81
653.41	334.70
653.55	205.97
653.70	182.56
653.84	77.24
653.99	30.43
654.13	35.11
654.27	67.88
654.42	32.77
654.56	0.00
654.71	46.81
654.85	23.41
655.00	0.00
655.14	77.24
655.29	11.70
655.43	35.11
655.57	63.19
655.72	51.49
655.86	39.79
656.01	117.03
656.15	88.94
656.30	35.11
656.44	0.00
656.58	37.45
656.73	70.22
656.87	21.06
657.01	23.41
657.16	58.51
657.30	25.75
657.45	21.06
657.59	42.13
657.73	28.09
657.88	0.00
658.02	32.77
658.16	0.00
658.31	70.22
658.45	44.47
658.60	0.00
658.74	77.24
658.88	51.49
659.03	25.75
659.17	0.00
659.31	138.09
659.46	273.84
659.60	533.64
659.74	664.71
659.89	545.34
660.03	456.40
660.17	337.04
660.32	175.54
660.46	149.79
660.60	21.06
660.74	9.36
660.89	77.24
661.03	105.32
661.17	18.72
661.32	74.90
661.46	70.22
661.60	88.94
661.74	39.79
661.89	81.92
662.03	49.15
662.17	46.81
662.31	0.00
662.46	0.00
662.60	46.81
662.74	46.81
662.88	42.13
663.03	39.79
663.17	49.15
663.31	95.96
663.45	51.49
663.60	2.34
663.74	58.51
663.88	37.45
664.02	51.49
664.17	63.19
664.31	32.77
664.45	60.85
664.59	51.49
664.73	60.85
664.88	93.62
665.02	0.00
665.16	65.54
665.30	35.11
665.44	46.81
665.59	7.02
665.73	23.41
665.87	0.00
666.01	98.30
666.15	79.58
666.29	7.02
666.44	0.00
666.58	100.64
666.72	81.92
666.86	42.13
667.00	35.11
667.14	93.62
667.28	208.31
667.43	568.75
667.57	947.92
667.71	1153.88
667.85	929.19
667.99	723.23
668.13	442.36
668.27	229.37
668.41	184.90
668.56	175.54
668.70	18.72
668.84	81.92
668.98	21.06
669.12	0.00
669.26	44.47
669.40	56.17
669.54	0.00
669.68	14.04
669.82	30.43
669.96	32.77
670.10	14.04
670.25	21.06
670.39	93.62
670.53	0.00
670.67	7.02
670.81	79.58
670.95	79.58
671.09	28.09
671.23	224.69
671.37	500.87
671.51	683.44
671.65	755.99
671.79	493.85
671.93	358.10
672.07	201.29
672.21	133.41
672.35	135.75
672.49	112.35
672.63	51.49
672.77	74.90
672.91	60.85
673.05	42.13
673.19	25.75
673.33	30.43
673.47	30.43
673.61	44.47
673.75	70.22
673.89	0.00
674.03	7.02
674.17	30.43
674.31	0.00
674.45	0.00
674.59	25.75
674.73	35.11
674.87	98.30
675.01	77.24
675.15	65.54
675.29	74.90
675.43	7.02
675.56	91.28
675.70	93.62
675.84	84.26
675.98	79.58
676.12	102.98
676.26	2.34
676.40	16.38
676.54	46.81
676.68	0.00
676.82	44.47
676.96	84.26
677.10	30.43
677.23	4.68
677.37	0.00
677.51	74.90
677.65	37.45
677.79	67.88
677.93	86.60
678.07	14.04
678.21	74.90
678.34	0.00
678.48	86.60
678.62	14.04
678.76	86.60
678.90	32.77
679.04	39.79
679.18	102.98
679.31	9.36
679.45	0.00
679.59	60.85
679.73	112.35
679.87	28.09
680.00	58.51
680.14	70.22
680.28	35.11
680.42	0.00
680.56	35.11
680.70	11.70
680.83	7.02
680.97	32.77
681.11	0.00
681.25	65.54
681.39	0.00
681.52	28.09
681.66	79.58
681.80	81.92
681.94	25.75
682.07	9.36
682.21	110.01
682.35	0.00
682.49	32.77
682.62	11.70
682.76	35.11
682.90	56.17
683.04	46.81
683.17	56.17
683.31	0.00
683.45	91.28
683.59	67.88
683.72	0.00
683.86	0.00
684.00	70.22
684.13	46.81
684.27	77.24
684.41	0.00
684.55	37.45
684.68	14.04
684.82	51.49
684.96	28.09
685.09	0.00
685.23	72.56
685.37	35.11
685.50	30.43
685.64	65.54
685.78	4.68
685.91	42.13
686.05	21.06
686.19	0.00
686.32	16.38
686.46	0.00
686.60	102.98
686.73	65.54
686.87	37.45
687.01	72.56
687.14	102.98
687.28	0.00
687.42	44.47
687.55	32.77
687.69	35.11
687.82	0.00
687.96	32.77
688.10	105.32
688.23	63.19
688.37	28.09
688.50	46.81
688.64	23.41
688.78	0.00
688.91	0.00
689.05	35.11
689.18	49.15
689.32	0.00
689.46	0.00
689.59	74.90
689.73	74.90
689.86	16.38
690.00	0.00
690.13	16.38
690.27	49.15
690.41	0.00
690.54	0.00
690.68	46.81
690.81	7.02
690.95	28.09
691.08	35.11
691.22	35.11
691.35	70.22
691.49	37.45
691.62	0.00
691.76	53.83
691.89	42.13
692.03	102.98
692.16	0.00
692.30	60.85
692.43	117.03
692.57	264.48
692.70	409.59
692.84	554.71
692.97	500.87
693.11	308.95
693.24	264.48
693.38	147.45
693.51	191.92
693.65	121.71
693.78	77.24
693.92	25.75
694.05	60.85
694.19	0.00
694.32	67.88
694.45	39.79
694.59	23.41
694.72	0.00
694.86	51.49
694.99	56.17
695.13	39.79
695.26	9.36
695.39	42.13
695.53	128.73
695.66	42.13
695.80	72.56
695.93	18.72
696.07	56.17
696.20	84.26
696.33	9.36
696.47	81.92
696.60	105.32
696.73	84.26
696.87	95.96
697.00	53.83
697.14	37.45
697.27	0.00
697.40	25.75
697.54	63.19
697.67	81.92
697.80	44.47
697.94	0.00
698.07	39.79
698.21	37.45
698.34	58.51
698.47	102.98
698.61	35.11
698.74	7.02
698.87	0.00
699.01	39.79
699.14	0.00
699.27	28.09
699.40	32.77
699.54	9.36
699.67	21.06
699.80	107.66
699.94	42.13
700.07	11.70
700.20	49.15
700.34	18.72
700.47	18.72
700.60	77.24
700.73	53.83
700.87	0.00
701.00	51.49
701.13	105.32
701.26	16.38
701.40	0.00
701.53	60.85
701.66	79.58
701.79	4.68
701.93	74.90
702.06	0.00
702.19	32.77
702.32	21.06
702.46	67.88
702.59	86.60
702.72	182.56
702.85	341.72
702.99	582.79
703.12	819.19
703.25	976.00
703.38	800.46
703.51	702.16
703.65	521.94
703.78	367.46
703.91	205.97
704.04	252.78
704.17	93.62
704.31	65.54
704.44	81.92
704.57	4.68
704.70	67.88
704.83	86.60
704.96	7.02
705.10	35.11
705.23	28.09
>>>>>End Processed Spectral Data<<<<<
