SpectraSuite Data File
++++++++++++++++++++++++++++++++++++
Date: Fri Oct 04 12:13:30 GMT-05:00 2013
User: price-jones
Dark Spectrum Present: No
Reference Spectrum Present: No
Number of Sampled Component Spectra: 1
Spectrometers: USB2+H05261
Integration Time (usec): 10000 (USB2+H05261)
Spectra Averaged: 1 (USB2+H05261)
Boxcar Smoothing: 0 (USB2+H05261)
Correct for Electrical Dark: No (USB2+H05261)
Strobe/Lamp Enabled: No (USB2+H05261)
Correct for Detector Non-linearity: No (USB2+H05261)
Correct for Stray Light: No (USB2+H05261)
Number of Pixels in Processed Spectrum: 2048
>>>>>Begin Processed Spectral Data<<<<<
365.73	35.11
365.92	35.11
366.12	35.11
366.32	0.00
366.52	0.00
366.72	0.00
366.91	0.00
367.11	0.00
367.31	0.00
367.51	0.00
367.70	0.00
367.90	0.00
368.10	0.00
368.30	0.00
368.49	0.00
368.69	0.00
368.89	0.00
369.09	0.00
369.28	0.00
369.48	0.00
369.68	0.00
369.87	0.00
370.07	0.00
370.27	0.00
370.47	0.00
370.66	0.00
370.86	0.00
371.06	0.00
371.25	0.00
371.45	0.00
371.65	0.00
371.84	0.00
372.04	0.00
372.24	28.09
372.44	51.49
372.63	58.51
372.83	0.00
373.03	7.02
373.22	0.00
373.42	30.43
373.62	0.00
373.81	46.81
374.01	23.41
374.21	25.75
374.40	51.49
374.60	39.79
374.79	0.00
374.99	91.28
375.19	58.51
375.38	21.06
375.58	49.15
375.78	60.85
375.97	91.28
376.17	0.00
376.37	0.00
376.56	7.02
376.76	67.88
376.95	60.85
377.15	128.73
377.35	0.00
377.54	0.00
377.74	133.41
377.93	49.15
378.13	0.00
378.33	11.70
378.52	65.54
378.72	91.28
378.91	11.70
379.11	0.00
379.31	72.56
379.50	18.72
379.70	28.09
379.89	0.00
380.09	28.09
380.28	0.00
380.48	49.15
380.68	30.43
380.87	0.00
381.07	51.49
381.26	86.60
381.46	49.15
381.65	28.09
381.85	67.88
382.04	0.00
382.24	0.00
382.43	0.00
382.63	7.02
382.83	0.00
383.02	0.00
383.22	0.00
383.41	4.68
383.61	0.00
383.80	0.00
384.00	32.77
384.19	37.45
384.39	18.72
384.58	0.00
384.78	2.34
384.97	39.79
385.17	46.81
385.36	39.79
385.56	0.00
385.75	11.70
385.95	51.49
386.14	7.02
386.34	39.79
386.53	77.24
386.72	60.85
386.92	25.75
387.11	0.00
387.31	14.04
387.50	7.02
387.70	7.02
387.89	0.00
388.09	35.11
388.28	30.43
388.48	23.41
388.67	42.13
388.86	0.00
389.06	2.34
389.25	91.28
389.45	49.15
389.64	9.36
389.84	35.11
390.03	35.11
390.22	30.43
390.42	4.68
390.61	0.00
390.81	0.00
391.00	32.77
391.19	44.47
391.39	14.04
391.58	112.35
391.78	11.70
391.97	0.00
392.16	70.22
392.36	0.00
392.55	4.68
392.75	0.00
392.94	35.11
393.13	0.00
393.33	70.22
393.52	35.11
393.71	0.00
393.91	14.04
394.10	21.06
394.29	0.00
394.49	86.60
394.68	0.00
394.88	0.00
395.07	0.00
395.26	14.04
395.46	0.00
395.65	93.62
395.84	16.38
396.04	28.09
396.23	25.75
396.42	30.43
396.62	0.00
396.81	56.17
397.00	35.11
397.19	63.19
397.39	21.06
397.58	58.51
397.77	16.38
397.97	74.90
398.16	0.00
398.35	67.88
398.55	7.02
398.74	0.00
398.93	0.00
399.12	63.19
399.32	9.36
399.51	112.35
399.70	42.13
399.90	37.45
400.09	58.51
400.28	44.47
400.47	0.00
400.67	0.00
400.86	39.79
401.05	23.41
401.24	18.72
401.44	37.45
401.63	0.00
401.82	65.54
402.01	63.19
402.21	105.32
402.40	42.13
402.59	74.90
402.78	14.04
402.97	44.47
403.17	58.51
403.36	77.24
403.55	79.58
403.74	37.45
403.93	11.70
404.13	39.79
404.32	23.41
404.51	21.06
404.70	0.00
404.89	4.68
405.09	2.34
405.28	37.45
405.47	79.58
405.66	0.00
405.85	4.68
406.05	16.38
406.24	70.22
406.43	0.00
406.62	11.70
406.81	49.15
407.00	46.81
407.20	0.00
407.39	0.00
407.58	18.72
407.77	91.28
407.96	105.32
408.15	2.34
408.34	0.00
408.54	65.54
408.73	0.00
408.92	0.00
409.11	39.79
409.30	0.00
409.49	0.00
409.68	81.92
409.87	35.11
410.07	37.45
410.26	7.02
410.45	25.75
410.64	7.02
410.83	74.90
411.02	72.56
411.21	37.45
411.40	32.77
411.59	44.47
411.78	11.70
411.98	0.00
412.17	0.00
412.36	51.49
412.55	49.15
412.74	46.81
412.93	0.00
413.12	32.77
413.31	0.00
413.50	2.34
413.69	0.00
413.88	9.36
414.07	0.00
414.26	14.04
414.45	0.00
414.64	49.15
414.83	56.17
415.02	2.34
415.22	25.75
415.41	70.22
415.60	35.11
415.79	79.58
415.98	0.00
416.17	7.02
416.36	37.45
416.55	91.28
416.74	35.11
416.93	7.02
417.12	37.45
417.31	0.00
417.50	42.13
417.69	0.00
417.88	81.92
418.07	0.00
418.26	0.00
418.45	51.49
418.64	0.00
418.83	60.85
419.02	49.15
419.21	21.06
419.39	35.11
419.58	14.04
419.77	0.00
419.96	60.85
420.15	72.56
420.34	0.00
420.53	9.36
420.72	60.85
420.91	72.56
421.10	46.81
421.29	0.00
421.48	51.49
421.67	70.22
421.86	0.00
422.05	4.68
422.24	79.58
422.43	0.00
422.61	37.45
422.80	0.00
422.99	81.92
423.18	0.00
423.37	112.35
423.56	65.54
423.75	0.00
423.94	30.43
424.13	21.06
424.32	0.00
424.50	0.00
424.69	49.15
424.88	25.75
425.07	44.47
425.26	0.00
425.45	44.47
425.64	51.49
425.83	46.81
426.01	14.04
426.20	23.41
426.39	60.85
426.58	0.00
426.77	0.00
426.96	14.04
427.15	53.83
427.33	95.96
427.52	56.17
427.71	58.51
427.90	63.19
428.09	42.13
428.28	39.79
428.46	16.38
428.65	37.45
428.84	4.68
429.03	35.11
429.22	0.00
429.40	0.00
429.59	58.51
429.78	0.00
429.97	4.68
430.16	0.00
430.34	60.85
430.53	0.00
430.72	2.34
430.91	0.00
431.10	58.51
431.28	28.09
431.47	7.02
431.66	0.00
431.85	42.13
432.03	32.77
432.22	0.00
432.41	74.90
432.60	56.17
432.79	65.54
432.97	42.13
433.16	0.00
433.35	23.41
433.54	63.19
433.72	46.81
433.91	28.09
434.10	0.00
434.28	18.72
434.47	0.00
434.66	25.75
434.85	91.28
435.03	0.00
435.22	79.58
435.41	44.47
435.59	21.06
435.78	86.60
435.97	0.00
436.16	32.77
436.34	58.51
436.53	11.70
436.72	9.36
436.90	56.17
437.09	37.45
437.28	32.77
437.46	23.41
437.65	63.19
437.84	0.00
438.02	14.04
438.21	28.09
438.40	0.00
438.58	25.75
438.77	60.85
438.96	56.17
439.14	0.00
439.33	77.24
439.52	25.75
439.70	60.85
439.89	21.06
440.08	81.92
440.26	21.06
440.45	2.34
440.63	0.00
440.82	23.41
441.01	44.47
441.19	18.72
441.38	42.13
441.57	58.51
441.75	51.49
441.94	0.00
442.12	46.81
442.31	0.00
442.50	93.62
442.68	0.00
442.87	0.00
443.05	74.90
443.24	32.77
443.43	0.00
443.61	35.11
443.80	16.38
443.98	53.83
444.17	32.77
444.35	51.49
444.54	53.83
444.73	30.43
444.91	14.04
445.10	42.13
445.28	35.11
445.47	70.22
445.65	32.77
445.84	11.70
446.02	2.34
446.21	30.43
446.39	37.45
446.58	91.28
446.77	0.00
446.95	14.04
447.14	72.56
447.32	2.34
447.51	0.00
447.69	32.77
447.88	21.06
448.06	51.49
448.25	39.79
448.43	11.70
448.62	81.92
448.80	23.41
448.99	0.00
449.17	67.88
449.36	86.60
449.54	0.00
449.73	105.32
449.91	23.41
450.10	49.15
450.28	32.77
450.46	58.51
450.65	30.43
450.83	16.38
451.02	11.70
451.20	37.45
451.39	84.26
451.57	51.49
451.76	0.00
451.94	21.06
452.13	44.47
452.31	37.45
452.49	32.77
452.68	0.00
452.86	88.94
453.05	4.68
453.23	21.06
453.42	32.77
453.60	0.00
453.78	93.62
453.97	70.22
454.15	56.17
454.34	0.00
454.52	56.17
454.70	107.66
454.89	0.00
455.07	74.90
455.26	60.85
455.44	39.79
455.62	28.09
455.81	14.04
455.99	70.22
456.17	49.15
456.36	95.96
456.54	65.54
456.73	28.09
456.91	21.06
457.09	35.11
457.28	63.19
457.46	51.49
457.64	91.28
457.83	9.36
458.01	44.47
458.19	37.45
458.38	39.79
458.56	121.71
458.74	100.64
458.93	16.38
459.11	0.00
459.29	0.00
459.48	9.36
459.66	37.45
459.84	28.09
460.03	77.24
460.21	0.00
460.39	102.98
460.57	21.06
460.76	18.72
460.94	30.43
461.12	2.34
461.31	32.77
461.49	79.58
461.67	30.43
461.85	23.41
462.04	56.17
462.22	105.32
462.40	58.51
462.59	67.88
462.77	37.45
462.95	126.39
463.13	51.49
463.32	7.02
463.50	0.00
463.68	23.41
463.86	9.36
464.05	14.04
464.23	0.00
464.41	4.68
464.59	35.11
464.78	72.56
464.96	0.00
465.14	25.75
465.32	9.36
465.50	56.17
465.69	100.64
465.87	32.77
466.05	42.13
466.23	25.75
466.41	11.70
466.60	4.68
466.78	4.68
466.96	0.00
467.14	65.54
467.32	95.96
467.51	4.68
467.69	14.04
467.87	16.38
468.05	14.04
468.23	42.13
468.41	72.56
468.60	0.00
468.78	63.19
468.96	84.26
469.14	30.43
469.32	0.00
469.50	0.00
469.69	0.00
469.87	44.47
470.05	28.09
470.23	60.85
470.41	0.00
470.59	42.13
470.77	25.75
470.95	23.41
471.14	23.41
471.32	30.43
471.50	0.00
471.68	67.88
471.86	77.24
472.04	51.49
472.22	86.60
472.40	0.00
472.58	51.49
472.77	35.11
472.95	16.38
473.13	102.98
473.31	74.90
473.49	0.00
473.67	44.47
473.85	28.09
474.03	39.79
474.21	32.77
474.39	42.13
474.57	42.13
474.75	58.51
474.93	95.96
475.12	0.00
475.30	58.51
475.48	32.77
475.66	44.47
475.84	32.77
476.02	44.47
476.20	60.85
476.38	44.47
476.56	86.60
476.74	4.68
476.92	9.36
477.10	60.85
477.28	32.77
477.46	0.00
477.64	14.04
477.82	30.43
478.00	67.88
478.18	0.00
478.36	60.85
478.54	65.54
478.72	32.77
478.90	74.90
479.08	74.90
479.26	25.75
479.44	25.75
479.62	53.83
479.80	0.00
479.98	84.26
480.16	25.75
480.34	74.90
480.52	60.85
480.70	23.41
480.88	84.26
481.06	11.70
481.24	88.94
481.41	60.85
481.59	0.00
481.77	0.00
481.95	81.92
482.13	30.43
482.31	84.26
482.49	60.85
482.67	18.72
482.85	0.00
483.03	23.41
483.21	0.00
483.39	0.00
483.57	11.70
483.74	65.54
483.92	42.13
484.10	60.85
484.28	79.58
484.46	46.81
484.64	0.00
484.82	14.04
485.00	79.58
485.18	23.41
485.35	37.45
485.53	44.47
485.71	105.32
485.89	9.36
486.07	49.15
486.25	4.68
486.43	0.00
486.61	65.54
486.78	67.88
486.96	46.81
487.14	28.09
487.32	60.85
487.50	39.79
487.68	79.58
487.85	0.00
488.03	18.72
488.21	51.49
488.39	30.43
488.57	86.60
488.75	91.28
488.92	0.00
489.10	74.90
489.28	105.32
489.46	70.22
489.64	84.26
489.81	2.34
489.99	117.03
490.17	42.13
490.35	11.70
490.53	42.13
490.70	0.00
490.88	63.19
491.06	18.72
491.24	49.15
491.41	0.00
491.59	32.77
491.77	0.00
491.95	0.00
492.13	65.54
492.30	79.58
492.48	51.49
492.66	79.58
492.84	37.45
493.01	32.77
493.19	51.49
493.37	18.72
493.54	44.47
493.72	70.22
493.90	28.09
494.08	0.00
494.25	81.92
494.43	21.06
494.61	30.43
494.79	0.00
494.96	88.94
495.14	65.54
495.32	16.38
495.49	35.11
495.67	49.15
495.85	0.00
496.02	77.24
496.20	88.94
496.38	32.77
496.55	51.49
496.73	37.45
496.91	14.04
497.09	95.96
497.26	37.45
497.44	11.70
497.62	35.11
497.79	9.36
497.97	4.68
498.14	0.00
498.32	23.41
498.50	35.11
498.67	0.00
498.85	32.77
499.03	39.79
499.20	51.49
499.38	32.77
499.56	74.90
499.73	35.11
499.91	0.00
500.08	77.24
500.26	23.41
500.44	117.03
500.61	42.13
500.79	107.66
500.97	112.35
501.14	51.49
501.32	44.47
501.49	46.81
501.67	35.11
501.84	25.75
502.02	18.72
502.20	74.90
502.37	0.00
502.55	65.54
502.72	63.19
502.90	72.56
503.07	58.51
503.25	56.17
503.43	114.69
503.60	51.49
503.78	32.77
503.95	4.68
504.13	63.19
504.30	0.00
504.48	0.00
504.65	46.81
504.83	21.06
505.01	9.36
505.18	28.09
505.36	77.24
505.53	25.75
505.71	74.90
505.88	53.83
506.06	0.00
506.23	28.09
506.41	42.13
506.58	51.49
506.76	44.47
506.93	86.60
507.11	32.77
507.28	39.79
507.46	46.81
507.63	11.70
507.81	30.43
507.98	11.70
508.16	79.58
508.33	11.70
508.50	70.22
508.68	16.38
508.85	72.56
509.03	39.79
509.20	86.60
509.38	21.06
509.55	102.98
509.73	30.43
509.90	23.41
510.08	46.81
510.25	46.81
510.42	49.15
510.60	32.77
510.77	128.73
510.95	0.00
511.12	0.00
511.30	63.19
511.47	100.64
511.64	72.56
511.82	28.09
511.99	60.85
512.17	0.00
512.34	21.06
512.51	23.41
512.69	74.90
512.86	77.24
513.04	56.17
513.21	39.79
513.38	0.00
513.56	65.54
513.73	42.13
513.90	0.00
514.08	9.36
514.25	65.54
514.43	63.19
514.60	79.58
514.77	79.58
514.95	46.81
515.12	35.11
515.29	42.13
515.47	58.51
515.64	11.70
515.81	65.54
515.99	67.88
516.16	14.04
516.33	70.22
516.51	0.00
516.68	128.73
516.85	16.38
517.03	56.17
517.20	9.36
517.37	16.38
517.54	0.00
517.72	51.49
517.89	25.75
518.06	2.34
518.24	63.19
518.41	67.88
518.58	30.43
518.75	65.54
518.93	14.04
519.10	0.00
519.27	21.06
519.45	42.13
519.62	21.06
519.79	21.06
519.96	14.04
520.14	46.81
520.31	67.88
520.48	16.38
520.65	58.51
520.83	65.54
521.00	25.75
521.17	28.09
521.34	84.26
521.52	2.34
521.69	37.45
521.86	42.13
522.03	32.77
522.20	32.77
522.38	35.11
522.55	32.77
522.72	16.38
522.89	72.56
523.07	86.60
523.24	60.85
523.41	0.00
523.58	0.00
523.75	0.00
523.92	30.43
524.10	30.43
524.27	4.68
524.44	0.00
524.61	39.79
524.78	42.13
524.96	37.45
525.13	84.26
525.30	0.00
525.47	23.41
525.64	7.02
525.81	79.58
525.98	28.09
526.16	56.17
526.33	16.38
526.50	86.60
526.67	23.41
526.84	23.41
527.01	60.85
527.18	16.38
527.36	65.54
527.53	63.19
527.70	0.00
527.87	18.72
528.04	93.62
528.21	14.04
528.38	0.00
528.55	7.02
528.72	74.90
528.89	53.83
529.07	28.09
529.24	0.00
529.41	91.28
529.58	91.28
529.75	0.00
529.92	44.47
530.09	16.38
530.26	0.00
530.43	84.26
530.60	58.51
530.77	37.45
530.94	88.94
531.11	46.81
531.28	39.79
531.46	86.60
531.63	42.13
531.80	63.19
531.97	18.72
532.14	79.58
532.31	79.58
532.48	42.13
532.65	23.41
532.82	79.58
532.99	28.09
533.16	25.75
533.33	0.00
533.50	65.54
533.67	142.77
533.84	77.24
534.01	18.72
534.18	0.00
534.35	53.83
534.52	44.47
534.69	67.88
534.86	117.03
535.03	161.50
535.20	58.51
535.37	100.64
535.54	58.51
535.71	0.00
535.88	23.41
536.05	67.88
536.22	32.77
536.38	0.00
536.55	74.90
536.72	11.70
536.89	65.54
537.06	51.49
537.23	44.47
537.40	60.85
537.57	56.17
537.74	30.43
537.91	88.94
538.08	63.19
538.25	39.79
538.42	60.85
538.59	9.36
538.75	21.06
538.92	30.43
539.09	0.00
539.26	9.36
539.43	32.77
539.60	9.36
539.77	91.28
539.94	46.81
540.11	0.00
540.28	72.56
540.44	23.41
540.61	32.77
540.78	51.49
540.95	32.77
541.12	14.04
541.29	35.11
541.46	28.09
541.62	72.56
541.79	65.54
541.96	16.38
542.13	49.15
542.30	28.09
542.47	0.00
542.63	0.00
542.80	32.77
542.97	79.58
543.14	60.85
543.31	107.66
543.48	42.13
543.64	11.70
543.81	11.70
543.98	39.79
544.15	30.43
544.32	102.98
544.48	70.22
544.65	32.77
544.82	63.19
544.99	86.60
545.16	100.64
545.32	21.06
545.49	32.77
545.66	0.00
545.83	16.38
546.00	14.04
546.16	72.56
546.33	65.54
546.50	77.24
546.67	9.36
546.83	42.13
547.00	86.60
547.17	74.90
547.34	46.81
547.50	44.47
547.67	35.11
547.84	63.19
548.00	42.13
548.17	84.26
548.34	32.77
548.51	2.34
548.67	58.51
548.84	65.54
549.01	84.26
549.18	88.94
549.34	72.56
549.51	98.30
549.68	0.00
549.84	0.00
550.01	63.19
550.18	67.88
550.34	95.96
550.51	102.98
550.68	63.19
550.84	16.38
551.01	0.00
551.18	95.96
551.34	28.09
551.51	0.00
551.68	70.22
551.84	25.75
552.01	49.15
552.18	51.49
552.34	91.28
552.51	86.60
552.68	79.58
552.84	63.19
553.01	39.79
553.18	79.58
553.34	2.34
553.51	65.54
553.67	42.13
553.84	138.09
554.01	60.85
554.17	37.45
554.34	25.75
554.51	98.30
554.67	0.00
554.84	25.75
555.00	0.00
555.17	7.02
555.33	14.04
555.50	58.51
555.67	60.85
555.83	11.70
556.00	35.11
556.16	30.43
556.33	84.26
556.50	70.22
556.66	140.43
556.83	21.06
556.99	39.79
557.16	81.92
557.32	14.04
557.49	67.88
557.65	88.94
557.82	53.83
557.98	79.58
558.15	65.54
558.32	0.00
558.48	49.15
558.65	74.90
558.81	72.56
558.98	93.62
559.14	114.69
559.31	60.85
559.47	25.75
559.64	23.41
559.80	44.47
559.97	77.24
560.13	28.09
560.30	100.64
560.46	74.90
560.63	0.00
560.79	56.17
560.96	0.00
561.12	110.01
561.29	0.00
561.45	102.98
561.61	56.17
561.78	23.41
561.94	49.15
562.11	11.70
562.27	56.17
562.44	0.00
562.60	51.49
562.77	0.00
562.93	16.38
563.10	70.22
563.26	14.04
563.42	58.51
563.59	0.00
563.75	65.54
563.92	117.03
564.08	65.54
564.24	88.94
564.41	39.79
564.57	70.22
564.74	35.11
564.90	126.39
565.07	65.54
565.23	16.38
565.39	65.54
565.56	21.06
565.72	32.77
565.88	88.94
566.05	102.98
566.21	0.00
566.38	37.45
566.54	18.72
566.70	100.64
566.87	77.24
567.03	11.70
567.19	65.54
567.36	35.11
567.52	49.15
567.68	39.79
567.85	91.28
568.01	88.94
568.17	77.24
568.34	39.79
568.50	4.68
568.66	91.28
568.83	53.83
568.99	67.88
569.15	72.56
569.32	39.79
569.48	119.37
569.64	65.54
569.81	0.00
569.97	67.88
570.13	9.36
570.30	114.69
570.46	0.00
570.62	28.09
570.78	14.04
570.95	39.79
571.11	14.04
571.27	0.00
571.43	37.45
571.60	58.51
571.76	32.77
571.92	0.00
572.09	63.19
572.25	39.79
572.41	56.17
572.57	51.49
572.74	63.19
572.90	42.13
573.06	65.54
573.22	42.13
573.38	107.66
573.55	56.17
573.71	67.88
573.87	98.30
574.03	37.45
574.20	42.13
574.36	58.51
574.52	98.30
574.68	0.00
574.84	56.17
575.01	60.85
575.17	53.83
575.33	35.11
575.49	23.41
575.65	37.45
575.82	0.00
575.98	30.43
576.14	37.45
576.30	35.11
576.46	79.58
576.62	25.75
576.79	81.92
576.95	18.72
577.11	30.43
577.27	60.85
577.43	23.41
577.59	46.81
577.75	60.85
577.92	32.77
578.08	63.19
578.24	23.41
578.40	44.47
578.56	2.34
578.72	46.81
578.88	35.11
579.04	49.15
579.21	0.00
579.37	23.41
579.53	65.54
579.69	4.68
579.85	0.00
580.01	0.00
580.17	53.83
580.33	88.94
580.49	0.00
580.65	25.75
580.82	65.54
580.98	0.00
581.14	58.51
581.30	14.04
581.46	81.92
581.62	21.06
581.78	72.56
581.94	51.49
582.10	2.34
582.26	14.04
582.42	117.03
582.58	84.26
582.74	74.90
582.90	0.00
583.06	98.30
583.22	25.75
583.38	9.36
583.54	93.62
583.70	58.51
583.86	81.92
584.02	30.43
584.18	112.35
584.34	58.51
584.50	159.16
584.66	491.51
584.82	861.32
584.98	1214.74
585.14	1200.69
585.30	744.29
585.46	442.36
585.62	313.63
585.78	138.09
585.94	51.49
586.10	35.11
586.26	112.35
586.42	9.36
586.58	46.81
586.74	30.43
586.90	21.06
587.06	39.79
587.22	32.77
587.38	77.24
587.54	44.47
587.70	105.32
587.86	124.05
588.02	124.05
588.18	152.13
588.34	30.43
588.49	58.51
588.65	65.54
588.81	7.02
588.97	42.13
589.13	32.77
589.29	65.54
589.45	56.17
589.61	51.49
589.77	53.83
589.93	44.47
590.08	28.09
590.24	39.79
590.40	14.04
590.56	51.49
590.72	53.83
590.88	18.72
591.04	63.19
591.20	16.38
591.35	42.13
591.51	65.54
591.67	4.68
591.83	42.13
591.99	67.88
592.15	42.13
592.31	79.58
592.46	70.22
592.62	21.06
592.78	11.70
592.94	100.64
593.10	53.83
593.26	0.00
593.41	21.06
593.57	0.00
593.73	0.00
593.89	93.62
594.05	142.77
594.20	196.60
594.36	163.84
594.52	177.88
594.68	32.77
594.84	98.30
594.99	107.66
595.15	42.13
595.31	16.38
595.47	35.11
595.62	7.02
595.78	28.09
595.94	60.85
596.10	16.38
596.25	9.36
596.41	9.36
596.57	35.11
596.73	14.04
596.88	37.45
597.04	25.75
597.20	44.47
597.36	65.54
597.51	32.77
597.67	60.85
597.83	56.17
597.99	18.72
598.14	100.64
598.30	44.47
598.46	49.15
598.61	98.30
598.77	86.60
598.93	49.15
599.09	60.85
599.24	28.09
599.40	9.36
599.56	51.49
599.71	70.22
599.87	0.00
600.03	58.51
600.18	44.47
600.34	74.90
600.50	42.13
600.65	32.77
600.81	65.54
600.97	79.58
601.12	72.56
601.28	0.00
601.44	44.47
601.59	65.54
601.75	35.11
601.91	11.70
602.06	0.00
602.22	63.19
602.37	131.07
602.53	65.54
602.69	35.11
602.84	119.37
603.00	95.96
603.16	0.00
603.31	0.00
603.47	63.19
603.62	77.24
603.78	56.17
603.94	58.51
604.09	30.43
604.25	44.47
604.40	60.85
604.56	0.00
604.71	35.11
604.87	74.90
605.03	0.00
605.18	4.68
605.34	86.60
605.49	91.28
605.65	35.11
605.80	23.41
605.96	53.83
606.12	110.01
606.27	46.81
606.43	56.17
606.58	0.00
606.74	131.07
606.89	88.94
607.05	107.66
607.20	154.48
607.36	215.33
607.51	112.35
607.67	93.62
607.82	72.56
607.98	0.00
608.13	110.01
608.29	44.47
608.44	37.45
608.60	23.41
608.75	18.72
608.91	93.62
609.06	124.05
609.22	248.10
609.37	156.82
609.53	238.73
609.68	224.69
609.84	56.17
609.99	161.50
610.15	42.13
610.30	65.54
610.46	77.24
610.61	51.49
610.76	0.00
610.92	32.77
611.07	7.02
611.23	58.51
611.38	67.88
611.54	0.00
611.69	28.09
611.84	42.13
612.00	44.47
612.15	21.06
612.31	81.92
612.46	35.11
612.62	88.94
612.77	51.49
612.92	56.17
613.08	0.00
613.23	0.00
613.39	95.96
613.54	4.68
613.69	117.03
613.85	238.73
614.00	339.38
614.15	348.74
614.31	341.72
614.46	245.76
614.62	126.39
614.77	131.07
614.92	32.77
615.08	56.17
615.23	25.75
615.38	0.00
615.54	133.41
615.69	30.43
615.84	58.51
616.00	93.62
616.15	102.98
616.30	140.43
616.46	93.62
616.61	46.81
616.76	98.30
616.92	37.45
617.07	30.43
617.22	23.41
617.37	49.15
617.53	0.00
617.68	0.00
617.83	25.75
617.99	63.19
618.14	67.88
618.29	46.81
618.45	4.68
618.60	4.68
618.75	37.45
618.90	74.90
619.06	23.41
619.21	37.45
619.36	16.38
619.51	0.00
619.67	0.00
619.82	39.79
619.97	28.09
620.12	30.43
620.28	86.60
620.43	58.51
620.58	117.03
620.73	0.00
620.89	0.00
621.04	56.17
621.19	88.94
621.34	112.35
621.49	95.96
621.65	112.35
621.80	88.94
621.95	84.26
622.10	63.19
622.25	49.15
622.41	14.04
622.56	46.81
622.71	42.13
622.86	91.28
623.01	65.54
623.16	60.85
623.32	91.28
623.47	16.38
623.62	86.60
623.77	0.00
623.92	81.92
624.07	58.51
624.23	0.00
624.38	70.22
624.53	0.00
624.68	65.54
624.83	60.85
624.98	0.00
625.13	2.34
625.29	0.00
625.44	0.00
625.59	32.77
625.74	44.47
625.89	70.22
626.04	42.13
626.19	133.41
626.34	184.90
626.49	297.25
626.65	191.92
626.80	220.01
626.95	135.75
627.10	46.81
627.25	2.34
627.40	16.38
627.55	2.34
627.70	98.30
627.85	67.88
628.00	56.17
628.15	67.88
628.30	74.90
628.45	25.75
628.60	0.00
628.76	53.83
628.91	58.51
629.06	23.41
629.21	63.19
629.36	37.45
629.51	0.00
629.66	9.36
629.81	32.77
629.96	30.43
630.11	86.60
630.26	81.92
630.41	81.92
630.56	60.85
630.71	32.77
630.86	39.79
631.01	81.92
631.16	32.77
631.31	0.00
631.46	105.32
631.61	0.00
631.76	9.36
631.91	9.36
632.06	46.81
632.21	86.60
632.36	18.72
632.51	44.47
632.66	18.72
632.81	58.51
632.96	154.48
633.10	229.37
633.25	203.63
633.40	191.92
633.55	112.35
633.70	42.13
633.85	9.36
634.00	142.77
634.15	72.56
634.30	7.02
634.45	63.19
634.60	0.00
634.75	42.13
634.90	25.75
635.05	63.19
635.19	0.00
635.34	42.13
635.49	81.92
635.64	46.81
635.79	114.69
635.94	0.00
636.09	0.00
636.24	0.00
636.39	35.11
636.53	23.41
636.68	60.85
636.83	23.41
636.98	114.69
637.13	65.54
637.28	70.22
637.43	28.09
637.57	65.54
637.72	147.45
637.87	201.29
638.02	287.89
638.17	304.27
638.32	180.22
638.46	114.69
638.61	133.41
638.76	147.45
638.91	46.81
639.06	74.90
639.20	25.75
639.35	28.09
639.50	39.79
639.65	210.65
639.80	229.37
639.94	475.13
640.09	416.62
640.24	360.44
640.39	259.80
640.54	212.99
640.68	107.66
640.83	65.54
640.98	67.88
641.13	23.41
641.27	0.00
641.42	72.56
641.57	91.28
641.72	25.75
641.86	65.54
642.01	9.36
642.16	0.00
642.31	2.34
642.45	37.45
642.60	46.81
642.75	58.51
642.90	30.43
643.04	16.38
643.19	74.90
643.34	2.34
643.48	67.88
643.63	0.00
643.78	0.00
643.93	72.56
644.07	0.00
644.22	46.81
644.37	95.96
644.51	0.00
644.66	39.79
644.81	21.06
644.95	46.81
645.10	39.79
645.25	32.77
645.39	9.36
645.54	4.68
645.69	37.45
645.83	14.04
645.98	84.26
646.13	44.47
646.27	0.00
646.42	53.83
646.57	35.11
646.71	37.45
646.86	0.00
647.00	44.47
647.15	37.45
647.30	16.38
647.44	18.72
647.59	102.98
647.74	23.41
647.88	14.04
648.03	2.34
648.17	112.35
648.32	9.36
648.47	2.34
648.61	58.51
648.76	0.00
648.90	117.03
649.05	65.54
649.20	28.09
649.34	37.45
649.49	37.45
649.63	7.02
649.78	35.11
649.92	0.00
650.07	63.19
650.21	65.54
650.36	154.48
650.51	212.99
650.65	182.56
650.80	194.26
650.94	112.35
651.09	84.26
651.23	84.26
651.38	63.19
651.52	2.34
651.67	42.13
651.81	56.17
651.96	9.36
652.10	2.34
652.25	100.64
652.39	7.02
652.54	0.00
652.68	14.04
652.83	70.22
652.97	84.26
653.12	114.69
653.26	18.72
653.41	98.30
653.55	91.28
653.70	0.00
653.84	46.81
653.99	72.56
654.13	0.00
654.27	46.81
654.42	53.83
654.56	93.62
654.71	21.06
654.85	0.00
655.00	18.72
655.14	0.00
655.29	46.81
655.43	37.45
655.57	84.26
655.72	2.34
655.86	65.54
656.01	42.13
656.15	0.00
656.30	30.43
656.44	49.15
656.58	42.13
656.73	37.45
656.87	32.77
657.01	46.81
657.16	67.88
657.30	9.36
657.45	70.22
657.59	0.00
657.73	51.49
657.88	67.88
658.02	42.13
658.16	0.00
658.31	53.83
658.45	9.36
658.60	4.68
658.74	0.00
658.88	23.41
659.03	30.43
659.17	58.51
659.31	30.43
659.46	91.28
659.60	91.28
659.74	128.73
659.89	138.09
660.03	154.48
660.17	67.88
660.32	0.00
660.46	86.60
660.60	67.88
660.74	32.77
660.89	0.00
661.03	4.68
661.17	0.00
661.32	0.00
661.46	37.45
661.60	11.70
661.74	37.45
661.89	23.41
662.03	7.02
662.17	0.00
662.31	51.49
662.46	58.51
662.60	0.00
662.74	0.00
662.88	18.72
663.03	0.00
663.17	23.41
663.31	0.00
663.45	49.15
663.60	70.22
663.74	9.36
663.88	65.54
664.02	65.54
664.17	133.41
664.31	53.83
664.45	0.00
664.59	23.41
664.73	7.02
664.88	25.75
665.02	86.60
665.16	53.83
665.30	65.54
665.44	9.36
665.59	67.88
665.73	0.00
665.87	9.36
666.01	0.00
666.15	0.00
666.29	0.00
666.44	51.49
666.58	77.24
666.72	49.15
666.86	11.70
667.00	21.06
667.14	18.72
667.28	93.62
667.43	135.75
667.57	145.11
667.71	180.22
667.85	124.05
667.99	121.71
668.13	133.41
668.27	72.56
668.41	0.00
668.56	23.41
668.70	39.79
668.84	42.13
668.98	28.09
669.12	51.49
669.26	21.06
669.40	9.36
669.54	65.54
669.68	28.09
669.82	28.09
669.96	35.11
670.10	35.11
670.25	100.64
670.39	35.11
670.53	18.72
670.67	74.90
670.81	28.09
670.95	0.00
671.09	18.72
671.23	18.72
671.37	163.84
671.51	135.75
671.65	203.63
671.79	124.05
671.93	51.49
672.07	37.45
672.21	77.24
672.35	56.17
672.49	23.41
672.63	86.60
672.77	79.58
672.91	0.00
673.05	25.75
673.19	53.83
673.33	63.19
673.47	60.85
673.61	56.17
673.75	117.03
673.89	32.77
674.03	142.77
674.17	58.51
674.31	44.47
674.45	39.79
674.59	0.00
674.73	42.13
674.87	44.47
675.01	18.72
675.15	0.00
675.29	81.92
675.43	2.34
675.56	63.19
675.70	46.81
675.84	46.81
675.98	0.00
676.12	16.38
676.26	4.68
676.40	72.56
676.54	74.90
676.68	46.81
676.82	0.00
676.96	91.28
677.10	39.79
677.23	23.41
677.37	9.36
677.51	0.00
677.65	2.34
677.79	0.00
677.93	23.41
678.07	77.24
678.21	37.45
678.34	0.00
678.48	35.11
678.62	2.34
678.76	49.15
678.90	4.68
679.04	56.17
679.18	0.00
679.31	63.19
679.45	32.77
679.59	72.56
679.73	0.00
679.87	74.90
680.00	60.85
680.14	0.00
680.28	39.79
680.42	23.41
680.56	86.60
680.70	35.11
680.83	25.75
680.97	63.19
681.11	72.56
681.25	23.41
681.39	35.11
681.52	46.81
681.66	0.00
681.80	56.17
681.94	0.00
682.07	0.00
682.21	42.13
682.35	42.13
682.49	32.77
682.62	42.13
682.76	23.41
682.90	28.09
683.04	35.11
683.17	60.85
683.31	49.15
683.45	9.36
683.59	0.00
683.72	7.02
683.86	0.00
684.00	46.81
684.13	81.92
684.27	53.83
684.41	35.11
684.55	16.38
684.68	65.54
684.82	9.36
684.96	49.15
685.09	0.00
685.23	0.00
685.37	32.77
685.50	51.49
685.64	44.47
685.78	4.68
685.91	0.00
686.05	0.00
686.19	0.00
686.32	0.00
686.46	0.00
686.60	21.06
686.73	21.06
686.87	35.11
687.01	0.00
687.14	14.04
687.28	51.49
687.42	53.83
687.55	32.77
687.69	0.00
687.82	0.00
687.96	49.15
688.10	37.45
688.23	9.36
688.37	102.98
688.50	53.83
688.64	21.06
688.78	18.72
688.91	0.00
689.05	42.13
689.18	0.00
689.32	0.00
689.46	0.00
689.59	0.00
689.73	42.13
689.86	70.22
690.00	44.47
690.13	25.75
690.27	88.94
690.41	37.45
690.54	16.38
690.68	0.00
690.81	77.24
690.95	11.70
691.08	32.77
691.22	58.51
691.35	4.68
691.49	30.43
691.62	0.00
691.76	49.15
691.89	88.94
692.03	32.77
692.16	51.49
692.30	0.00
692.43	42.13
692.57	49.15
692.70	51.49
692.84	93.62
692.97	28.09
693.11	126.39
693.24	105.32
693.38	0.00
693.51	0.00
693.65	65.54
693.78	56.17
693.92	9.36
694.05	42.13
694.19	60.85
694.32	70.22
694.45	56.17
694.59	49.15
694.72	0.00
694.86	16.38
694.99	4.68
695.13	0.00
695.26	0.00
695.39	56.17
695.53	28.09
695.66	0.00
695.80	39.79
695.93	39.79
696.07	9.36
696.20	65.54
696.33	65.54
696.47	35.11
696.60	49.15
696.73	25.75
696.87	9.36
697.00	0.00
697.14	0.00
697.27	0.00
697.40	107.66
697.54	91.28
697.67	0.00
697.80	58.51
697.94	72.56
698.07	100.64
698.21	0.00
698.34	0.00
698.47	81.92
698.61	35.11
698.74	0.00
698.87	37.45
699.01	72.56
699.14	4.68
699.27	46.81
699.40	7.02
699.54	0.00
699.67	0.00
699.80	23.41
699.94	25.75
700.07	117.03
700.20	53.83
700.34	51.49
700.47	11.70
700.60	14.04
700.73	14.04
700.87	0.00
701.00	37.45
701.13	70.22
701.26	4.68
701.40	11.70
701.53	56.17
701.66	67.88
701.79	28.09
701.93	79.58
702.06	39.79
702.19	16.38
702.32	0.00
702.46	63.19
702.59	37.45
702.72	77.24
702.85	100.64
702.99	100.64
703.12	128.73
703.25	180.22
703.38	117.03
703.51	161.50
703.65	138.09
703.78	105.32
703.91	25.75
704.04	25.75
704.17	58.51
704.31	0.00
704.44	25.75
704.57	0.00
704.70	0.00
704.83	63.19
704.96	0.00
705.10	7.02
705.23	112.35
>>>>>End Processed Spectral Data<<<<<
