SpectraSuite Data File
++++++++++++++++++++++++++++++++++++
Date: Fri Oct 04 12:13:31 GMT-05:00 2013
User: price-jones
Dark Spectrum Present: No
Reference Spectrum Present: No
Number of Sampled Component Spectra: 1
Spectrometers: USB2+H05261
Integration Time (usec): 10000 (USB2+H05261)
Spectra Averaged: 1 (USB2+H05261)
Boxcar Smoothing: 0 (USB2+H05261)
Correct for Electrical Dark: No (USB2+H05261)
Strobe/Lamp Enabled: No (USB2+H05261)
Correct for Detector Non-linearity: No (USB2+H05261)
Correct for Stray Light: No (USB2+H05261)
Number of Pixels in Processed Spectrum: 2048
>>>>>Begin Processed Spectral Data<<<<<
365.73	51.49
365.92	51.49
366.12	51.49
366.32	0.00
366.52	0.00
366.72	0.00
366.91	0.00
367.11	0.00
367.31	0.00
367.51	0.00
367.70	0.00
367.90	0.00
368.10	0.00
368.30	0.00
368.49	0.00
368.69	0.00
368.89	0.00
369.09	0.00
369.28	0.00
369.48	0.00
369.68	0.00
369.87	0.00
370.07	0.00
370.27	0.00
370.47	4.68
370.66	0.00
370.86	0.00
371.06	0.00
371.25	0.00
371.45	0.00
371.65	0.00
371.84	0.00
372.04	0.00
372.24	37.45
372.44	0.00
372.63	9.36
372.83	84.26
373.03	4.68
373.22	0.00
373.42	0.00
373.62	30.43
373.81	93.62
374.01	0.00
374.21	18.72
374.40	56.17
374.60	25.75
374.79	63.19
374.99	70.22
375.19	63.19
375.38	56.17
375.58	79.58
375.78	0.00
375.97	110.01
376.17	0.00
376.37	39.79
376.56	30.43
376.76	86.60
376.95	0.00
377.15	37.45
377.35	51.49
377.54	95.96
377.74	0.00
377.93	81.92
378.13	23.41
378.33	0.00
378.52	0.00
378.72	18.72
378.91	0.00
379.11	65.54
379.31	63.19
379.50	30.43
379.70	49.15
379.89	23.41
380.09	7.02
380.28	0.00
380.48	51.49
380.68	30.43
380.87	51.49
381.07	14.04
381.26	79.58
381.46	58.51
381.65	0.00
381.85	0.00
382.04	42.13
382.24	23.41
382.43	42.13
382.63	37.45
382.83	67.88
383.02	0.00
383.22	0.00
383.41	16.38
383.61	35.11
383.80	44.47
384.00	0.00
384.19	0.00
384.39	16.38
384.58	16.38
384.78	56.17
384.97	58.51
385.17	35.11
385.36	9.36
385.56	67.88
385.75	0.00
385.95	0.00
386.14	56.17
386.34	0.00
386.53	56.17
386.72	9.36
386.92	0.00
387.11	0.00
387.31	0.00
387.50	74.90
387.70	28.09
387.89	30.43
388.09	32.77
388.28	46.81
388.48	21.06
388.67	35.11
388.86	37.45
389.06	32.77
389.25	35.11
389.45	21.06
389.64	35.11
389.84	0.00
390.03	42.13
390.22	0.00
390.42	0.00
390.61	2.34
390.81	28.09
391.00	30.43
391.19	74.90
391.39	2.34
391.58	0.00
391.78	9.36
391.97	58.51
392.16	14.04
392.36	32.77
392.55	32.77
392.75	46.81
392.94	46.81
393.13	9.36
393.33	0.00
393.52	35.11
393.71	9.36
393.91	32.77
394.10	0.00
394.29	58.51
394.49	88.94
394.68	74.90
394.88	11.70
395.07	58.51
395.26	60.85
395.46	11.70
395.65	51.49
395.84	119.37
396.04	23.41
396.23	79.58
396.42	39.79
396.62	74.90
396.81	60.85
397.00	58.51
397.19	0.00
397.39	53.83
397.58	53.83
397.77	9.36
397.97	79.58
398.16	0.00
398.35	0.00
398.55	0.00
398.74	58.51
398.93	23.41
399.12	0.00
399.32	65.54
399.51	25.75
399.70	23.41
399.90	14.04
400.09	49.15
400.28	28.09
400.47	0.00
400.67	35.11
400.86	53.83
401.05	0.00
401.24	25.75
401.44	28.09
401.63	14.04
401.82	117.03
402.01	44.47
402.21	44.47
402.40	0.00
402.59	9.36
402.78	65.54
402.97	0.00
403.17	46.81
403.36	0.00
403.55	25.75
403.74	7.02
403.93	21.06
404.13	30.43
404.32	58.51
404.51	42.13
404.70	65.54
404.89	16.38
405.09	114.69
405.28	72.56
405.47	16.38
405.66	0.00
405.85	53.83
406.05	30.43
406.24	16.38
406.43	44.47
406.62	0.00
406.81	0.00
407.00	14.04
407.20	53.83
407.39	21.06
407.58	11.70
407.77	28.09
407.96	0.00
408.15	46.81
408.34	63.19
408.54	53.83
408.73	23.41
408.92	51.49
409.11	79.58
409.30	44.47
409.49	30.43
409.68	32.77
409.87	0.00
410.07	0.00
410.26	46.81
410.45	9.36
410.64	30.43
410.83	18.72
411.02	67.88
411.21	0.00
411.40	28.09
411.59	117.03
411.78	0.00
411.98	35.11
412.17	11.70
412.36	28.09
412.55	0.00
412.74	21.06
412.93	44.47
413.12	63.19
413.31	46.81
413.50	35.11
413.69	37.45
413.88	60.85
414.07	65.54
414.26	46.81
414.45	0.00
414.64	25.75
414.83	63.19
415.02	53.83
415.22	0.00
415.41	56.17
415.60	42.13
415.79	49.15
415.98	63.19
416.17	14.04
416.36	46.81
416.55	44.47
416.74	67.88
416.93	63.19
417.12	37.45
417.31	35.11
417.50	0.00
417.69	46.81
417.88	14.04
418.07	0.00
418.26	42.13
418.45	28.09
418.64	42.13
418.83	32.77
419.02	0.00
419.21	70.22
419.39	70.22
419.58	0.00
419.77	124.05
419.96	0.00
420.15	84.26
420.34	49.15
420.53	0.00
420.72	21.06
420.91	0.00
421.10	53.83
421.29	14.04
421.48	91.28
421.67	37.45
421.86	30.43
422.05	51.49
422.24	70.22
422.43	16.38
422.61	2.34
422.80	25.75
422.99	65.54
423.18	72.56
423.37	0.00
423.56	32.77
423.75	9.36
423.94	102.98
424.13	49.15
424.32	42.13
424.50	0.00
424.69	53.83
424.88	37.45
425.07	25.75
425.26	0.00
425.45	86.60
425.64	0.00
425.83	67.88
426.01	0.00
426.20	72.56
426.39	28.09
426.58	0.00
426.77	44.47
426.96	0.00
427.15	37.45
427.33	28.09
427.52	58.51
427.71	35.11
427.90	0.00
428.09	0.00
428.28	28.09
428.46	98.30
428.65	16.38
428.84	44.47
429.03	51.49
429.22	0.00
429.40	110.01
429.59	105.32
429.78	44.47
429.97	30.43
430.16	0.00
430.34	49.15
430.53	0.00
430.72	0.00
430.91	0.00
431.10	0.00
431.28	44.47
431.47	4.68
431.66	0.00
431.85	0.00
432.03	65.54
432.22	91.28
432.41	65.54
432.60	21.06
432.79	0.00
432.97	25.75
433.16	110.01
433.35	39.79
433.54	53.83
433.72	0.00
433.91	51.49
434.10	105.32
434.28	0.00
434.47	39.79
434.66	0.00
434.85	7.02
435.03	51.49
435.22	65.54
435.41	14.04
435.59	32.77
435.78	93.62
435.97	56.17
436.16	9.36
436.34	58.51
436.53	63.19
436.72	37.45
436.90	65.54
437.09	39.79
437.28	32.77
437.46	28.09
437.65	0.00
437.84	0.00
438.02	9.36
438.21	25.75
438.40	0.00
438.58	72.56
438.77	49.15
438.96	42.13
439.14	63.19
439.33	56.17
439.52	0.00
439.70	16.38
439.89	0.00
440.08	88.94
440.26	35.11
440.45	23.41
440.63	25.75
440.82	81.92
441.01	91.28
441.19	39.79
441.38	0.00
441.57	42.13
441.75	9.36
441.94	0.00
442.12	53.83
442.31	81.92
442.50	49.15
442.68	46.81
442.87	107.66
443.05	56.17
443.24	49.15
443.43	105.32
443.61	30.43
443.80	44.47
443.98	88.94
444.17	46.81
444.35	42.13
444.54	23.41
444.73	60.85
444.91	0.00
445.10	16.38
445.28	72.56
445.47	23.41
445.65	93.62
445.84	70.22
446.02	37.45
446.21	37.45
446.39	44.47
446.58	25.75
446.77	44.47
446.95	44.47
447.14	0.00
447.32	42.13
447.51	0.00
447.69	0.00
447.88	42.13
448.06	28.09
448.25	58.51
448.43	46.81
448.62	2.34
448.80	23.41
448.99	93.62
449.17	56.17
449.36	51.49
449.54	42.13
449.73	4.68
449.91	74.90
450.10	16.38
450.28	39.79
450.46	9.36
450.65	91.28
450.83	49.15
451.02	14.04
451.20	65.54
451.39	42.13
451.57	77.24
451.76	2.34
451.94	21.06
452.13	23.41
452.31	0.00
452.49	35.11
452.68	25.75
452.86	60.85
453.05	51.49
453.23	0.00
453.42	56.17
453.60	56.17
453.78	51.49
453.97	37.45
454.15	81.92
454.34	18.72
454.52	44.47
454.70	21.06
454.89	0.00
455.07	0.00
455.26	0.00
455.44	86.60
455.62	84.26
455.81	30.43
455.99	51.49
456.17	11.70
456.36	49.15
456.54	56.17
456.73	9.36
456.91	67.88
457.09	4.68
457.28	100.64
457.46	32.77
457.64	67.88
457.83	42.13
458.01	44.47
458.19	88.94
458.38	0.00
458.56	60.85
458.74	39.79
458.93	0.00
459.11	63.19
459.29	18.72
459.48	14.04
459.66	18.72
459.84	23.41
460.03	65.54
460.21	37.45
460.39	39.79
460.57	2.34
460.76	51.49
460.94	67.88
461.12	60.85
461.31	0.00
461.49	39.79
461.67	81.92
461.85	30.43
462.04	0.00
462.22	67.88
462.40	0.00
462.59	81.92
462.77	25.75
462.95	39.79
463.13	30.43
463.32	0.00
463.50	0.00
463.68	72.56
463.86	35.11
464.05	44.47
464.23	49.15
464.41	56.17
464.59	30.43
464.78	74.90
464.96	35.11
465.14	30.43
465.32	65.54
465.50	32.77
465.69	0.00
465.87	70.22
466.05	9.36
466.23	42.13
466.41	65.54
466.60	65.54
466.78	63.19
466.96	16.38
467.14	79.58
467.32	18.72
467.51	63.19
467.69	60.85
467.87	107.66
468.05	21.06
468.23	7.02
468.41	51.49
468.60	77.24
468.78	14.04
468.96	0.00
469.14	37.45
469.32	121.71
469.50	0.00
469.69	110.01
469.87	0.00
470.05	124.05
470.23	72.56
470.41	28.09
470.59	51.49
470.77	32.77
470.95	23.41
471.14	65.54
471.32	46.81
471.50	70.22
471.68	58.51
471.86	39.79
472.04	0.00
472.22	0.00
472.40	81.92
472.58	30.43
472.77	63.19
472.95	0.00
473.13	65.54
473.31	44.47
473.49	88.94
473.67	107.66
473.85	9.36
474.03	23.41
474.21	4.68
474.39	0.00
474.57	16.38
474.75	32.77
474.93	4.68
475.12	7.02
475.30	0.00
475.48	16.38
475.66	42.13
475.84	18.72
476.02	105.32
476.20	2.34
476.38	98.30
476.56	0.00
476.74	49.15
476.92	35.11
477.10	91.28
477.28	16.38
477.46	0.00
477.64	9.36
477.82	0.00
478.00	72.56
478.18	42.13
478.36	79.58
478.54	35.11
478.72	63.19
478.90	0.00
479.08	0.00
479.26	105.32
479.44	28.09
479.62	28.09
479.80	67.88
479.98	0.00
480.16	28.09
480.34	0.00
480.52	16.38
480.70	100.64
480.88	53.83
481.06	2.34
481.24	35.11
481.41	9.36
481.59	60.85
481.77	56.17
481.95	65.54
482.13	28.09
482.31	56.17
482.49	79.58
482.67	63.19
482.85	56.17
483.03	9.36
483.21	0.00
483.39	0.00
483.57	121.71
483.74	63.19
483.92	46.81
484.10	2.34
484.28	63.19
484.46	28.09
484.64	0.00
484.82	0.00
485.00	0.00
485.18	70.22
485.35	72.56
485.53	14.04
485.71	49.15
485.89	39.79
486.07	16.38
486.25	67.88
486.43	0.00
486.61	7.02
486.78	0.00
486.96	70.22
487.14	7.02
487.32	35.11
487.50	42.13
487.68	58.51
487.85	18.72
488.03	14.04
488.21	79.58
488.39	37.45
488.57	100.64
488.75	7.02
488.92	35.11
489.10	79.58
489.28	72.56
489.46	39.79
489.64	0.00
489.81	42.13
489.99	63.19
490.17	2.34
490.35	39.79
490.53	49.15
490.70	28.09
490.88	102.98
491.06	23.41
491.24	23.41
491.41	74.90
491.59	46.81
491.77	53.83
491.95	44.47
492.13	25.75
492.30	0.00
492.48	25.75
492.66	65.54
492.84	107.66
493.01	23.41
493.19	51.49
493.37	0.00
493.54	79.58
493.72	16.38
493.90	25.75
494.08	72.56
494.25	65.54
494.43	0.00
494.61	0.00
494.79	81.92
494.96	39.79
495.14	56.17
495.32	25.75
495.49	9.36
495.67	0.00
495.85	102.98
496.02	23.41
496.20	86.60
496.38	79.58
496.55	110.01
496.73	30.43
496.91	9.36
497.09	9.36
497.26	86.60
497.44	44.47
497.62	86.60
497.79	60.85
497.97	84.26
498.14	91.28
498.32	0.00
498.50	35.11
498.67	65.54
498.85	18.72
499.03	30.43
499.20	25.75
499.38	72.56
499.56	0.00
499.73	0.00
499.91	28.09
500.08	18.72
500.26	39.79
500.44	0.00
500.61	0.00
500.79	0.00
500.97	49.15
501.14	44.47
501.32	56.17
501.49	16.38
501.67	30.43
501.84	67.88
502.02	16.38
502.20	21.06
502.37	147.45
502.55	21.06
502.72	35.11
502.90	93.62
503.07	11.70
503.25	56.17
503.43	28.09
503.60	28.09
503.78	14.04
503.95	44.47
504.13	23.41
504.30	30.43
504.48	28.09
504.65	39.79
504.83	58.51
505.01	0.00
505.18	74.90
505.36	35.11
505.53	74.90
505.71	18.72
505.88	0.00
506.06	39.79
506.23	0.00
506.41	32.77
506.58	112.35
506.76	25.75
506.93	0.00
507.11	93.62
507.28	39.79
507.46	46.81
507.63	35.11
507.81	16.38
507.98	0.00
508.16	88.94
508.33	0.00
508.50	18.72
508.68	44.47
508.85	16.38
509.03	53.83
509.20	28.09
509.38	25.75
509.55	147.45
509.73	91.28
509.90	51.49
510.08	46.81
510.25	18.72
510.42	49.15
510.60	37.45
510.77	63.19
510.95	53.83
511.12	42.13
511.30	102.98
511.47	86.60
511.64	46.81
511.82	65.54
511.99	35.11
512.17	18.72
512.34	0.00
512.51	0.00
512.69	58.51
512.86	60.85
513.04	72.56
513.21	93.62
513.38	42.13
513.56	95.96
513.73	88.94
513.90	70.22
514.08	58.51
514.25	32.77
514.43	37.45
514.60	112.35
514.77	28.09
514.95	60.85
515.12	44.47
515.29	49.15
515.47	72.56
515.64	98.30
515.81	56.17
515.99	67.88
516.16	107.66
516.33	105.32
516.51	56.17
516.68	11.70
516.85	46.81
517.03	28.09
517.20	126.39
517.37	0.00
517.54	28.09
517.72	0.00
517.89	39.79
518.06	51.49
518.24	74.90
518.41	107.66
518.58	63.19
518.75	25.75
518.93	16.38
519.10	21.06
519.27	72.56
519.45	25.75
519.62	49.15
519.79	58.51
519.96	51.49
520.14	77.24
520.31	35.11
520.48	53.83
520.65	46.81
520.83	72.56
521.00	18.72
521.17	32.77
521.34	23.41
521.52	72.56
521.69	63.19
521.86	0.00
522.03	58.51
522.20	30.43
522.38	32.77
522.55	0.00
522.72	58.51
522.89	74.90
523.07	18.72
523.24	60.85
523.41	28.09
523.58	56.17
523.75	88.94
523.92	112.35
524.10	30.43
524.27	51.49
524.44	42.13
524.61	105.32
524.78	9.36
524.96	28.09
525.13	39.79
525.30	91.28
525.47	35.11
525.64	53.83
525.81	23.41
525.98	70.22
526.16	88.94
526.33	9.36
526.50	46.81
526.67	79.58
526.84	28.09
527.01	21.06
527.18	44.47
527.36	86.60
527.53	0.00
527.70	11.70
527.87	77.24
528.04	86.60
528.21	74.90
528.38	58.51
528.55	60.85
528.72	37.45
528.89	2.34
529.07	67.88
529.24	9.36
529.41	51.49
529.58	39.79
529.75	70.22
529.92	49.15
530.09	0.00
530.26	51.49
530.43	63.19
530.60	67.88
530.77	63.19
530.94	77.24
531.11	79.58
531.28	14.04
531.46	81.92
531.63	72.56
531.80	51.49
531.97	86.60
532.14	70.22
532.31	16.38
532.48	70.22
532.65	49.15
532.82	70.22
532.99	65.54
533.16	65.54
533.33	25.75
533.50	58.51
533.67	44.47
533.84	30.43
534.01	51.49
534.18	25.75
534.35	30.43
534.52	117.03
534.69	67.88
534.86	28.09
535.03	114.69
535.20	53.83
535.37	25.75
535.54	0.00
535.71	0.00
535.88	7.02
536.05	53.83
536.22	81.92
536.38	53.83
536.55	65.54
536.72	56.17
536.89	0.00
537.06	7.02
537.23	46.81
537.40	35.11
537.57	107.66
537.74	37.45
537.91	14.04
538.08	25.75
538.25	65.54
538.42	112.35
538.59	37.45
538.75	4.68
538.92	65.54
539.09	124.05
539.26	74.90
539.43	51.49
539.60	131.07
539.77	138.09
539.94	142.77
540.11	107.66
540.28	63.19
540.44	21.06
540.61	58.51
540.78	0.00
540.95	98.30
541.12	23.41
541.29	4.68
541.46	84.26
541.62	0.00
541.79	53.83
541.96	124.05
542.13	51.49
542.30	49.15
542.47	65.54
542.63	63.19
542.80	44.47
542.97	51.49
543.14	63.19
543.31	53.83
543.48	86.60
543.64	28.09
543.81	18.72
543.98	18.72
544.15	65.54
544.32	44.47
544.48	28.09
544.65	79.58
544.82	65.54
544.99	37.45
545.16	79.58
545.32	35.11
545.49	35.11
545.66	79.58
545.83	88.94
546.00	60.85
546.16	16.38
546.33	74.90
546.50	9.36
546.67	100.64
546.83	32.77
547.00	0.00
547.17	49.15
547.34	74.90
547.50	18.72
547.67	65.54
547.84	74.90
548.00	105.32
548.17	91.28
548.34	42.13
548.51	0.00
548.67	18.72
548.84	11.70
549.01	51.49
549.18	63.19
549.34	39.79
549.51	14.04
549.68	58.51
549.84	74.90
550.01	9.36
550.18	14.04
550.34	0.00
550.51	93.62
550.68	65.54
550.84	18.72
551.01	46.81
551.18	0.00
551.34	0.00
551.51	65.54
551.68	16.38
551.84	72.56
552.01	67.88
552.18	88.94
552.34	14.04
552.51	124.05
552.68	91.28
552.84	60.85
553.01	100.64
553.18	25.75
553.34	51.49
553.51	67.88
553.67	35.11
553.84	28.09
554.01	42.13
554.17	138.09
554.34	21.06
554.51	49.15
554.67	60.85
554.84	84.26
555.00	35.11
555.17	51.49
555.33	32.77
555.50	35.11
555.67	117.03
555.83	9.36
556.00	0.00
556.16	60.85
556.33	25.75
556.50	86.60
556.66	37.45
556.83	16.38
556.99	0.00
557.16	88.94
557.32	18.72
557.49	72.56
557.65	56.17
557.82	9.36
557.98	0.00
558.15	60.85
558.32	25.75
558.48	0.00
558.65	0.00
558.81	79.58
558.98	35.11
559.14	28.09
559.31	4.68
559.47	0.00
559.64	4.68
559.80	0.00
559.97	81.92
560.13	58.51
560.30	25.75
560.46	56.17
560.63	46.81
560.79	37.45
560.96	0.00
561.12	21.06
561.29	23.41
561.45	0.00
561.61	42.13
561.78	32.77
561.94	67.88
562.11	74.90
562.27	16.38
562.44	23.41
562.60	65.54
562.77	58.51
562.93	35.11
563.10	102.98
563.26	35.11
563.42	60.85
563.59	0.00
563.75	93.62
563.92	65.54
564.08	135.75
564.24	0.00
564.41	65.54
564.57	51.49
564.74	28.09
564.90	79.58
565.07	72.56
565.23	70.22
565.39	14.04
565.56	100.64
565.72	21.06
565.88	37.45
566.05	79.58
566.21	16.38
566.38	91.28
566.54	46.81
566.70	67.88
566.87	0.00
567.03	77.24
567.19	0.00
567.36	0.00
567.52	56.17
567.68	105.32
567.85	14.04
568.01	74.90
568.17	35.11
568.34	0.00
568.50	56.17
568.66	46.81
568.83	0.00
568.99	0.00
569.15	81.92
569.32	0.00
569.48	77.24
569.64	95.96
569.81	28.09
569.97	37.45
570.13	39.79
570.30	77.24
570.46	37.45
570.62	28.09
570.78	0.00
570.95	25.75
571.11	0.00
571.27	4.68
571.43	51.49
571.60	65.54
571.76	35.11
571.92	58.51
572.09	51.49
572.25	4.68
572.41	49.15
572.57	35.11
572.74	126.39
572.90	35.11
573.06	58.51
573.22	0.00
573.38	32.77
573.55	9.36
573.71	42.13
573.87	39.79
574.03	35.11
574.20	0.00
574.36	42.13
574.52	46.81
574.68	119.37
574.84	53.83
575.01	0.00
575.17	0.00
575.33	91.28
575.49	9.36
575.65	49.15
575.82	0.00
575.98	35.11
576.14	110.01
576.30	95.96
576.46	56.17
576.62	0.00
576.79	65.54
576.95	2.34
577.11	28.09
577.27	63.19
577.43	67.88
577.59	58.51
577.75	126.39
577.92	86.60
578.08	91.28
578.24	0.00
578.40	51.49
578.56	37.45
578.72	88.94
578.88	14.04
579.04	133.41
579.21	72.56
579.37	35.11
579.53	9.36
579.69	23.41
579.85	21.06
580.01	25.75
580.17	81.92
580.33	135.75
580.49	100.64
580.65	135.75
580.82	42.13
580.98	0.00
581.14	23.41
581.30	46.81
581.46	35.11
581.62	77.24
581.78	25.75
581.94	44.47
582.10	102.98
582.26	67.88
582.42	37.45
582.58	18.72
582.74	2.34
582.90	0.00
583.06	112.35
583.22	39.79
583.38	84.26
583.54	58.51
583.70	79.58
583.86	84.26
584.02	105.32
584.18	79.58
584.34	51.49
584.50	306.61
584.66	1991.80
584.82	4959.60
584.98	7199.49
585.14	6729.04
585.30	4269.14
585.46	2466.92
585.62	1558.80
585.78	688.12
585.94	367.46
586.10	217.67
586.26	163.84
586.42	74.90
586.58	100.64
586.74	86.60
586.90	72.56
587.06	42.13
587.22	58.51
587.38	81.92
587.54	105.32
587.70	358.10
587.86	554.71
588.02	531.30
588.18	341.72
588.34	280.86
588.49	201.29
588.65	112.35
588.81	105.32
588.97	56.17
589.13	4.68
589.29	79.58
589.45	88.94
589.61	46.81
589.77	91.28
589.93	56.17
590.08	91.28
590.24	88.94
590.40	77.24
590.56	0.00
590.72	72.56
590.88	49.15
591.04	135.75
591.20	49.15
591.35	91.28
591.51	37.45
591.67	63.19
591.83	46.81
591.99	53.83
592.15	0.00
592.31	60.85
592.46	84.26
592.62	70.22
592.78	32.77
592.94	0.00
593.10	128.73
593.26	28.09
593.41	4.68
593.57	65.54
593.73	88.94
593.89	273.84
594.05	627.26
594.20	873.02
594.36	919.83
594.52	664.71
594.68	409.59
594.84	280.86
594.99	264.48
595.15	58.51
595.31	53.83
595.47	44.47
595.62	0.00
595.78	44.47
595.94	93.62
596.10	93.62
596.25	0.00
596.41	4.68
596.57	0.00
596.73	18.72
596.88	44.47
597.04	201.29
597.20	255.12
597.36	203.63
597.51	264.48
597.67	128.73
597.83	86.60
597.99	147.45
598.14	32.77
598.30	102.98
598.46	156.82
598.61	88.94
598.77	86.60
598.93	18.72
599.09	35.11
599.24	70.22
599.40	102.98
599.56	65.54
599.71	37.45
599.87	0.00
600.03	0.00
600.18	16.38
600.34	56.17
600.50	72.56
600.65	67.88
600.81	11.70
600.97	35.11
601.12	46.81
601.28	23.41
601.44	79.58
601.59	0.00
601.75	37.45
601.91	0.00
602.06	32.77
602.22	4.68
602.37	114.69
602.53	215.33
602.69	255.12
602.84	325.33
603.00	201.29
603.16	98.30
603.31	74.90
603.47	154.48
603.62	30.43
603.78	44.47
603.94	4.68
604.09	93.62
604.25	39.79
604.40	58.51
604.56	21.06
604.71	30.43
604.87	79.58
605.03	65.54
605.18	81.92
605.34	14.04
605.49	58.51
605.65	14.04
605.80	60.85
605.96	63.19
606.12	42.13
606.27	49.15
606.43	77.24
606.58	70.22
606.74	175.54
606.89	299.59
607.05	573.43
607.20	784.08
607.36	765.36
607.51	543.00
607.67	330.02
607.82	220.01
607.98	110.01
608.13	39.79
608.29	58.51
608.44	100.64
608.60	102.98
608.75	35.11
608.91	100.64
609.06	489.17
609.22	1004.09
609.37	1502.62
609.53	1270.91
609.68	851.96
609.84	568.75
609.99	376.83
610.15	220.01
610.30	159.16
610.46	81.92
610.61	88.94
610.76	21.06
610.92	63.19
611.07	46.81
611.23	84.26
611.38	51.49
611.54	114.69
611.69	86.60
611.84	0.00
612.00	51.49
612.15	46.81
612.31	93.62
612.46	0.00
612.62	88.94
612.77	49.15
612.92	53.83
613.08	67.88
613.23	95.96
613.39	114.69
613.54	79.58
613.69	489.17
613.85	1317.72
614.00	2045.63
614.15	2136.91
614.31	1652.42
614.46	1060.26
614.62	725.57
614.77	472.79
614.92	222.35
615.08	140.43
615.23	28.09
615.38	88.94
615.54	98.30
615.69	72.56
615.84	227.03
616.00	552.37
616.15	596.84
616.30	559.39
616.46	315.97
616.61	243.42
616.76	163.84
616.92	102.98
617.07	65.54
617.22	95.96
617.37	44.47
617.53	86.60
617.68	0.00
617.83	74.90
617.99	81.92
618.14	81.92
618.29	65.54
618.45	44.47
618.60	25.75
618.75	46.81
618.90	23.41
619.06	46.81
619.21	37.45
619.36	14.04
619.51	79.58
619.67	100.64
619.82	63.19
619.97	88.94
620.12	23.41
620.28	25.75
620.43	7.02
620.58	0.00
620.73	56.17
620.89	46.81
621.04	74.90
621.19	203.63
621.34	327.68
621.49	369.80
621.65	341.72
621.80	245.76
621.95	252.78
622.10	107.66
622.25	56.17
622.41	23.41
622.56	4.68
622.71	49.15
622.86	53.83
623.01	42.13
623.16	58.51
623.32	70.22
623.47	39.79
623.62	58.51
623.77	18.72
623.92	25.75
624.07	0.00
624.23	72.56
624.38	53.83
624.53	0.00
624.68	46.81
624.83	7.02
624.98	16.38
625.13	0.00
625.29	88.94
625.44	0.00
625.59	11.70
625.74	72.56
625.89	65.54
626.04	224.69
626.19	568.75
626.34	1100.05
626.49	1273.25
626.65	933.87
626.80	545.34
626.95	425.98
627.10	217.67
627.25	93.62
627.40	93.62
627.55	142.77
627.70	88.94
627.85	28.09
628.00	93.62
628.15	91.28
628.30	117.03
628.45	44.47
628.60	7.02
628.76	49.15
628.91	4.68
629.06	42.13
629.21	18.72
629.36	0.00
629.51	46.81
629.66	46.81
629.81	56.17
629.96	102.98
630.11	259.80
630.26	411.93
630.41	241.08
630.56	238.73
630.71	135.75
630.86	110.01
631.01	0.00
631.16	58.51
631.31	39.79
631.46	37.45
631.61	25.75
631.76	25.75
631.91	0.00
632.06	63.19
632.21	44.47
632.36	44.47
632.51	49.15
632.66	79.58
632.81	166.18
632.96	411.93
633.10	608.54
633.25	987.71
633.40	791.10
633.55	414.27
633.70	320.65
633.85	259.80
634.00	65.54
634.15	135.75
634.30	4.68
634.45	51.49
634.60	28.09
634.75	37.45
634.90	77.24
635.05	67.88
635.19	58.51
635.34	28.09
635.49	63.19
635.64	60.85
635.79	98.30
635.94	0.00
636.09	4.68
636.24	156.82
636.39	84.26
636.53	86.60
636.68	39.79
636.83	42.13
636.98	0.00
637.13	0.00
637.28	4.68
637.43	95.96
637.57	91.28
637.72	337.04
637.87	786.42
638.02	1390.28
638.17	1514.33
638.32	1186.65
638.46	718.54
638.61	479.81
638.76	327.68
638.91	175.54
639.06	147.45
639.20	35.11
639.35	102.98
639.50	105.32
639.65	489.17
639.80	1284.95
639.94	2017.54
640.09	2345.22
640.24	1755.40
640.39	1226.44
640.54	833.23
640.68	521.94
640.83	208.31
640.98	93.62
641.13	30.43
641.27	70.22
641.42	49.15
641.57	100.64
641.72	39.79
641.86	0.00
642.01	72.56
642.16	110.01
642.31	30.43
642.45	0.00
642.60	46.81
642.75	74.90
642.90	0.00
643.04	23.41
643.19	100.64
643.34	49.15
643.48	0.00
643.63	32.77
643.78	49.15
643.93	65.54
644.07	0.00
644.22	0.00
644.37	42.13
644.51	49.15
644.66	25.75
644.81	74.90
644.95	107.66
645.10	42.13
645.25	18.72
645.39	145.11
645.54	11.70
645.69	25.75
645.83	0.00
645.98	88.94
646.13	18.72
646.27	35.11
646.42	93.62
646.57	16.38
646.71	63.19
646.86	18.72
647.00	23.41
647.15	58.51
647.30	56.17
647.44	0.00
647.59	39.79
647.74	0.00
647.88	0.00
648.03	44.47
648.17	72.56
648.32	0.00
648.47	51.49
648.61	107.66
648.76	53.83
648.90	0.00
649.05	21.06
649.20	65.54
649.34	124.05
649.49	37.45
649.63	0.00
649.78	86.60
649.92	93.62
650.07	196.60
650.21	517.26
650.36	1020.47
650.51	1188.99
650.65	1032.18
650.80	709.18
650.94	507.90
651.09	397.89
651.23	170.86
651.38	105.32
651.52	86.60
651.67	44.47
651.81	16.38
651.96	86.60
652.10	79.58
652.25	9.36
652.39	37.45
652.54	53.83
652.68	14.04
652.83	191.92
652.97	337.04
653.12	437.68
653.26	313.63
653.41	294.91
653.55	248.10
653.70	147.45
653.84	60.85
653.99	25.75
654.13	51.49
654.27	39.79
654.42	65.54
654.56	32.77
654.71	0.00
654.85	0.00
655.00	98.30
655.14	21.06
655.29	2.34
655.43	91.28
655.57	49.15
655.72	0.00
655.86	32.77
656.01	37.45
656.15	128.73
656.30	32.77
656.44	67.88
656.58	28.09
656.73	7.02
656.87	44.47
657.01	65.54
657.16	51.49
657.30	42.13
657.45	159.16
657.59	81.92
657.73	0.00
657.88	23.41
658.02	11.70
658.16	56.17
658.31	126.39
658.45	107.66
658.60	30.43
658.74	18.72
658.88	0.00
659.03	84.26
659.17	77.24
659.31	53.83
659.46	273.84
659.60	524.28
659.74	557.05
659.89	489.17
660.03	433.00
660.17	315.97
660.32	149.79
660.46	110.01
660.60	126.39
660.74	37.45
660.89	25.75
661.03	42.13
661.17	21.06
661.32	63.19
661.46	117.03
661.60	84.26
661.74	32.77
661.89	63.19
662.03	72.56
662.17	70.22
662.31	58.51
662.46	58.51
662.60	77.24
662.74	14.04
662.88	0.00
663.03	0.00
663.17	0.00
663.31	0.00
663.45	32.77
663.60	30.43
663.74	0.00
663.88	84.26
664.02	49.15
664.17	70.22
664.31	2.34
664.45	39.79
664.59	56.17
664.73	0.00
664.88	74.90
665.02	23.41
665.16	28.09
665.30	35.11
665.44	2.34
665.59	100.64
665.73	28.09
665.87	42.13
666.01	65.54
666.15	67.88
666.29	107.66
666.44	18.72
666.58	140.43
666.72	67.88
666.86	21.06
667.00	140.43
667.14	117.03
667.28	194.26
667.43	465.77
667.57	802.80
667.71	1029.84
667.85	987.71
667.99	627.26
668.13	367.46
668.27	210.65
668.41	163.84
668.56	77.24
668.70	58.51
668.84	95.96
668.98	46.81
669.12	32.77
669.26	30.43
669.40	0.00
669.54	100.64
669.68	60.85
669.82	0.00
669.96	28.09
670.10	30.43
670.25	51.49
670.39	23.41
670.53	72.56
670.67	70.22
670.81	56.17
670.95	77.24
671.09	93.62
671.23	124.05
671.37	379.17
671.51	603.86
671.65	667.05
671.79	634.29
671.93	484.49
672.07	217.67
672.21	84.26
672.35	32.77
672.49	60.85
672.63	30.43
672.77	44.47
672.91	0.00
673.05	30.43
673.19	46.81
673.33	0.00
673.47	56.17
673.61	44.47
673.75	0.00
673.89	63.19
674.03	51.49
674.17	32.77
674.31	60.85
674.45	93.62
674.59	0.00
674.73	42.13
674.87	133.41
675.01	0.00
675.15	2.34
675.29	107.66
675.43	9.36
675.56	42.13
675.70	105.32
675.84	72.56
675.98	91.28
676.12	16.38
676.26	30.43
676.40	18.72
676.54	23.41
676.68	86.60
676.82	23.41
676.96	44.47
677.10	16.38
677.23	0.00
677.37	0.00
677.51	32.77
677.65	44.47
677.79	18.72
677.93	23.41
678.07	51.49
678.21	42.13
678.34	67.88
678.48	28.09
678.62	105.32
678.76	9.36
678.90	28.09
679.04	0.00
679.18	60.85
679.31	21.06
679.45	56.17
679.59	93.62
679.73	93.62
679.87	18.72
680.00	18.72
680.14	0.00
680.28	21.06
680.42	60.85
680.56	32.77
680.70	49.15
680.83	0.00
680.97	16.38
681.11	53.83
681.25	49.15
681.39	0.00
681.52	49.15
681.66	39.79
681.80	65.54
681.94	37.45
682.07	51.49
682.21	11.70
682.35	0.00
682.49	37.45
682.62	32.77
682.76	0.00
682.90	23.41
683.04	51.49
683.17	65.54
683.31	42.13
683.45	21.06
683.59	9.36
683.72	21.06
683.86	58.51
684.00	0.00
684.13	86.60
684.27	0.00
684.41	58.51
684.55	53.83
684.68	16.38
684.82	60.85
684.96	42.13
685.09	46.81
685.23	28.09
685.37	79.58
685.50	65.54
685.64	25.75
685.78	35.11
685.91	63.19
686.05	67.88
686.19	53.83
686.32	4.68
686.46	65.54
686.60	46.81
686.73	42.13
686.87	53.83
687.01	9.36
687.14	23.41
687.28	37.45
687.42	72.56
687.55	14.04
687.69	2.34
687.82	67.88
687.96	23.41
688.10	67.88
688.23	77.24
688.37	0.00
688.50	60.85
688.64	84.26
688.78	0.00
688.91	0.00
689.05	9.36
689.18	30.43
689.32	0.00
689.46	0.00
689.59	42.13
689.73	74.90
689.86	51.49
690.00	37.45
690.13	42.13
690.27	86.60
690.41	49.15
690.54	0.00
690.68	46.81
690.81	46.81
690.95	77.24
691.08	35.11
691.22	0.00
691.35	0.00
691.49	42.13
691.62	0.00
691.76	37.45
691.89	14.04
692.03	35.11
692.16	46.81
692.30	44.47
692.43	117.03
692.57	269.16
692.70	341.72
692.84	444.70
692.97	475.13
693.11	339.38
693.24	327.68
693.38	170.86
693.51	114.69
693.65	114.69
693.78	88.94
693.92	70.22
694.05	91.28
694.19	2.34
694.32	9.36
694.45	42.13
694.59	2.34
694.72	81.92
694.86	0.00
694.99	86.60
695.13	46.81
695.26	65.54
695.39	9.36
695.53	7.02
695.66	65.54
695.80	30.43
695.93	77.24
696.07	42.13
696.20	100.64
696.33	18.72
696.47	112.35
696.60	53.83
696.73	39.79
696.87	81.92
697.00	72.56
697.14	0.00
697.27	65.54
697.40	42.13
697.54	0.00
697.67	30.43
697.80	35.11
697.94	79.58
698.07	46.81
698.21	0.00
698.34	7.02
698.47	46.81
698.61	32.77
698.74	0.00
698.87	35.11
699.01	28.09
699.14	91.28
699.27	56.17
699.40	74.90
699.54	39.79
699.67	84.26
699.80	0.00
699.94	35.11
700.07	16.38
700.20	14.04
700.34	32.77
700.47	95.96
700.60	77.24
700.73	21.06
700.87	32.77
701.00	70.22
701.13	0.00
701.26	107.66
701.40	0.00
701.53	25.75
701.66	35.11
701.79	28.09
701.93	25.75
702.06	100.64
702.19	37.45
702.32	105.32
702.46	88.94
702.59	0.00
702.72	124.05
702.85	299.59
702.99	503.22
703.12	770.04
703.25	896.43
703.38	821.53
703.51	657.69
703.65	533.64
703.78	353.42
703.91	243.42
704.04	184.90
704.17	93.62
704.31	98.30
704.44	51.49
704.57	37.45
704.70	35.11
704.83	58.51
704.96	37.45
705.10	0.00
705.23	74.90
>>>>>End Processed Spectral Data<<<<<
