SpectraSuite Data File
++++++++++++++++++++++++++++++++++++
Date: Fri Oct 04 12:13:28 GMT-05:00 2013
User: price-jones
Dark Spectrum Present: No
Reference Spectrum Present: No
Number of Sampled Component Spectra: 1
Spectrometers: USB2+H05261
Integration Time (usec): 10000 (USB2+H05261)
Spectra Averaged: 1 (USB2+H05261)
Boxcar Smoothing: 0 (USB2+H05261)
Correct for Electrical Dark: No (USB2+H05261)
Strobe/Lamp Enabled: No (USB2+H05261)
Correct for Detector Non-linearity: No (USB2+H05261)
Correct for Stray Light: No (USB2+H05261)
Number of Pixels in Processed Spectrum: 2048
>>>>>Begin Processed Spectral Data<<<<<
365.73	0.00
365.92	0.00
366.12	0.00
366.32	0.00
366.52	0.00
366.72	0.00
366.91	0.00
367.11	0.00
367.31	0.00
367.51	0.00
367.70	0.00
367.90	0.00
368.10	0.00
368.30	0.00
368.49	0.00
368.69	0.00
368.89	0.00
369.09	0.00
369.28	0.00
369.48	0.00
369.68	0.00
369.87	0.00
370.07	0.00
370.27	0.00
370.47	0.00
370.66	0.00
370.86	0.00
371.06	0.00
371.25	0.00
371.45	32.77
371.65	0.00
371.84	0.00
372.04	0.00
372.24	0.00
372.44	0.00
372.63	42.13
372.83	39.79
373.03	0.00
373.22	56.17
373.42	37.45
373.62	0.00
373.81	9.36
374.01	44.47
374.21	23.41
374.40	51.49
374.60	51.49
374.79	91.28
374.99	77.24
375.19	32.77
375.38	9.36
375.58	18.72
375.78	11.70
375.97	100.64
376.17	32.77
376.37	0.00
376.56	0.00
376.76	51.49
376.95	4.68
377.15	30.43
377.35	42.13
377.54	95.96
377.74	81.92
377.93	53.83
378.13	9.36
378.33	0.00
378.52	93.62
378.72	0.00
378.91	42.13
379.11	16.38
379.31	88.94
379.50	11.70
379.70	0.00
379.89	0.00
380.09	0.00
380.28	39.79
380.48	0.00
380.68	32.77
380.87	0.00
381.07	0.00
381.26	18.72
381.46	0.00
381.65	9.36
381.85	0.00
382.04	0.00
382.24	30.43
382.43	0.00
382.63	39.79
382.83	0.00
383.02	21.06
383.22	0.00
383.41	42.13
383.61	0.00
383.80	39.79
384.00	0.00
384.19	49.15
384.39	0.00
384.58	28.09
384.78	0.00
384.97	126.39
385.17	0.00
385.36	28.09
385.56	25.75
385.75	23.41
385.95	11.70
386.14	0.00
386.34	95.96
386.53	72.56
386.72	56.17
386.92	0.00
387.11	70.22
387.31	79.58
387.50	37.45
387.70	56.17
387.89	74.90
388.09	0.00
388.28	7.02
388.48	49.15
388.67	110.01
388.86	0.00
389.06	70.22
389.25	65.54
389.45	0.00
389.64	0.00
389.84	7.02
390.03	0.00
390.22	0.00
390.42	14.04
390.61	58.51
390.81	114.69
391.00	0.00
391.19	102.98
391.39	2.34
391.58	0.00
391.78	14.04
391.97	0.00
392.16	0.00
392.36	23.41
392.55	0.00
392.75	0.00
392.94	46.81
393.13	14.04
393.33	37.45
393.52	46.81
393.71	0.00
393.91	0.00
394.10	18.72
394.29	14.04
394.49	56.17
394.68	0.00
394.88	60.85
395.07	0.00
395.26	0.00
395.46	42.13
395.65	39.79
395.84	14.04
396.04	58.51
396.23	2.34
396.42	14.04
396.62	74.90
396.81	98.30
397.00	4.68
397.19	63.19
397.39	0.00
397.58	72.56
397.77	30.43
397.97	42.13
398.16	7.02
398.35	0.00
398.55	0.00
398.74	56.17
398.93	119.37
399.12	0.00
399.32	46.81
399.51	0.00
399.70	0.00
399.90	25.75
400.09	25.75
400.28	16.38
400.47	0.00
400.67	4.68
400.86	2.34
401.05	86.60
401.24	46.81
401.44	16.38
401.63	32.77
401.82	7.02
402.01	0.00
402.21	37.45
402.40	0.00
402.59	74.90
402.78	2.34
402.97	0.00
403.17	11.70
403.36	74.90
403.55	67.88
403.74	23.41
403.93	0.00
404.13	53.83
404.32	16.38
404.51	49.15
404.70	39.79
404.89	56.17
405.09	81.92
405.28	79.58
405.47	72.56
405.66	63.19
405.85	79.58
406.05	58.51
406.24	51.49
406.43	42.13
406.62	37.45
406.81	70.22
407.00	0.00
407.20	65.54
407.39	21.06
407.58	126.39
407.77	16.38
407.96	135.75
408.15	11.70
408.34	53.83
408.54	39.79
408.73	32.77
408.92	23.41
409.11	2.34
409.30	37.45
409.49	35.11
409.68	18.72
409.87	23.41
410.07	37.45
410.26	23.41
410.45	28.09
410.64	72.56
410.83	51.49
411.02	44.47
411.21	72.56
411.40	0.00
411.59	46.81
411.78	0.00
411.98	16.38
412.17	0.00
412.36	32.77
412.55	0.00
412.74	0.00
412.93	0.00
413.12	9.36
413.31	23.41
413.50	0.00
413.69	102.98
413.88	77.24
414.07	37.45
414.26	0.00
414.45	51.49
414.64	14.04
414.83	105.32
415.02	32.77
415.22	42.13
415.41	0.00
415.60	110.01
415.79	58.51
415.98	14.04
416.17	0.00
416.36	81.92
416.55	44.47
416.74	81.92
416.93	0.00
417.12	0.00
417.31	0.00
417.50	37.45
417.69	79.58
417.88	2.34
418.07	21.06
418.26	49.15
418.45	32.77
418.64	79.58
418.83	4.68
419.02	51.49
419.21	53.83
419.39	0.00
419.58	70.22
419.77	0.00
419.96	81.92
420.15	7.02
420.34	53.83
420.53	46.81
420.72	74.90
420.91	7.02
421.10	0.00
421.29	0.00
421.48	0.00
421.67	39.79
421.86	11.70
422.05	9.36
422.24	14.04
422.43	18.72
422.61	56.17
422.80	86.60
422.99	117.03
423.18	0.00
423.37	49.15
423.56	0.00
423.75	60.85
423.94	0.00
424.13	11.70
424.32	72.56
424.50	72.56
424.69	37.45
424.88	35.11
425.07	28.09
425.26	93.62
425.45	49.15
425.64	9.36
425.83	58.51
426.01	35.11
426.20	74.90
426.39	37.45
426.58	0.00
426.77	28.09
426.96	67.88
427.15	65.54
427.33	0.00
427.52	63.19
427.71	21.06
427.90	11.70
428.09	28.09
428.28	42.13
428.46	0.00
428.65	0.00
428.84	126.39
429.03	9.36
429.22	84.26
429.40	53.83
429.59	56.17
429.78	53.83
429.97	23.41
430.16	23.41
430.34	42.13
430.53	37.45
430.72	14.04
430.91	18.72
431.10	42.13
431.28	0.00
431.47	0.00
431.66	9.36
431.85	28.09
432.03	0.00
432.22	46.81
432.41	25.75
432.60	117.03
432.79	60.85
432.97	28.09
433.16	67.88
433.35	91.28
433.54	39.79
433.72	11.70
433.91	0.00
434.10	112.35
434.28	42.13
434.47	28.09
434.66	74.90
434.85	53.83
435.03	46.81
435.22	4.68
435.41	46.81
435.59	0.00
435.78	49.15
435.97	56.17
436.16	79.58
436.34	46.81
436.53	65.54
436.72	46.81
436.90	0.00
437.09	39.79
437.28	60.85
437.46	0.00
437.65	18.72
437.84	67.88
438.02	58.51
438.21	21.06
438.40	95.96
438.58	4.68
438.77	16.38
438.96	0.00
439.14	42.13
439.33	0.00
439.52	72.56
439.70	100.64
439.89	119.37
440.08	49.15
440.26	0.00
440.45	49.15
440.63	53.83
440.82	100.64
441.01	98.30
441.19	39.79
441.38	56.17
441.57	65.54
441.75	63.19
441.94	39.79
442.12	67.88
442.31	37.45
442.50	58.51
442.68	37.45
442.87	2.34
443.05	0.00
443.24	7.02
443.43	67.88
443.61	0.00
443.80	44.47
443.98	63.19
444.17	112.35
444.35	35.11
444.54	2.34
444.73	81.92
444.91	65.54
445.10	98.30
445.28	65.54
445.47	65.54
445.65	2.34
445.84	0.00
446.02	35.11
446.21	14.04
446.39	11.70
446.58	2.34
446.77	0.00
446.95	0.00
447.14	0.00
447.32	25.75
447.51	0.00
447.69	0.00
447.88	0.00
448.06	0.00
448.25	0.00
448.43	37.45
448.62	51.49
448.80	46.81
448.99	0.00
449.17	0.00
449.36	42.13
449.54	30.43
449.73	49.15
449.91	51.49
450.10	0.00
450.28	0.00
450.46	0.00
450.65	32.77
450.83	28.09
451.02	114.69
451.20	0.00
451.39	65.54
451.57	84.26
451.76	117.03
451.94	44.47
452.13	121.71
452.31	60.85
452.49	42.13
452.68	70.22
452.86	56.17
453.05	49.15
453.23	51.49
453.42	44.47
453.60	0.00
453.78	39.79
453.97	0.00
454.15	74.90
454.34	35.11
454.52	42.13
454.70	98.30
454.89	42.13
455.07	32.77
455.26	44.47
455.44	56.17
455.62	91.28
455.81	53.83
455.99	51.49
456.17	70.22
456.36	93.62
456.54	18.72
456.73	37.45
456.91	131.07
457.09	16.38
457.28	65.54
457.46	9.36
457.64	0.00
457.83	25.75
458.01	77.24
458.19	63.19
458.38	28.09
458.56	37.45
458.74	67.88
458.93	42.13
459.11	79.58
459.29	32.77
459.48	46.81
459.66	58.51
459.84	79.58
460.03	67.88
460.21	42.13
460.39	23.41
460.57	25.75
460.76	60.85
460.94	65.54
461.12	42.13
461.31	4.68
461.49	121.71
461.67	4.68
461.85	14.04
462.04	2.34
462.22	39.79
462.40	91.28
462.59	91.28
462.77	39.79
462.95	42.13
463.13	23.41
463.32	46.81
463.50	93.62
463.68	42.13
463.86	93.62
464.05	23.41
464.23	65.54
464.41	32.77
464.59	35.11
464.78	32.77
464.96	79.58
465.14	0.00
465.32	14.04
465.50	91.28
465.69	67.88
465.87	42.13
466.05	35.11
466.23	56.17
466.41	79.58
466.60	44.47
466.78	37.45
466.96	0.00
467.14	60.85
467.32	77.24
467.51	58.51
467.69	0.00
467.87	4.68
468.05	14.04
468.23	81.92
468.41	60.85
468.60	0.00
468.78	56.17
468.96	21.06
469.14	0.00
469.32	46.81
469.50	23.41
469.69	0.00
469.87	14.04
470.05	0.00
470.23	44.47
470.41	53.83
470.59	0.00
470.77	56.17
470.95	2.34
471.14	0.00
471.32	16.38
471.50	0.00
471.68	74.90
471.86	53.83
472.04	70.22
472.22	126.39
472.40	25.75
472.58	0.00
472.77	63.19
472.95	16.38
473.13	42.13
473.31	44.47
473.49	86.60
473.67	46.81
473.85	63.19
474.03	86.60
474.21	7.02
474.39	0.00
474.57	70.22
474.75	37.45
474.93	0.00
475.12	51.49
475.30	32.77
475.48	32.77
475.66	30.43
475.84	88.94
476.02	65.54
476.20	74.90
476.38	46.81
476.56	0.00
476.74	2.34
476.92	65.54
477.10	0.00
477.28	39.79
477.46	35.11
477.64	35.11
477.82	35.11
478.00	42.13
478.18	0.00
478.36	32.77
478.54	60.85
478.72	60.85
478.90	74.90
479.08	60.85
479.26	51.49
479.44	65.54
479.62	72.56
479.80	81.92
479.98	79.58
480.16	67.88
480.34	35.11
480.52	21.06
480.70	30.43
480.88	42.13
481.06	23.41
481.24	7.02
481.41	65.54
481.59	30.43
481.77	88.94
481.95	0.00
482.13	35.11
482.31	37.45
482.49	11.70
482.67	39.79
482.85	53.83
483.03	77.24
483.21	0.00
483.39	11.70
483.57	7.02
483.74	53.83
483.92	100.64
484.10	81.92
484.28	35.11
484.46	121.71
484.64	25.75
484.82	74.90
485.00	124.05
485.18	117.03
485.35	53.83
485.53	28.09
485.71	4.68
485.89	72.56
486.07	60.85
486.25	0.00
486.43	39.79
486.61	65.54
486.78	102.98
486.96	0.00
487.14	23.41
487.32	9.36
487.50	0.00
487.68	49.15
487.85	7.02
488.03	18.72
488.21	74.90
488.39	16.38
488.57	166.18
488.75	11.70
488.92	91.28
489.10	86.60
489.28	0.00
489.46	0.00
489.64	25.75
489.81	84.26
489.99	21.06
490.17	16.38
490.35	35.11
490.53	53.83
490.70	39.79
490.88	0.00
491.06	0.00
491.24	21.06
491.41	4.68
491.59	0.00
491.77	56.17
491.95	51.49
492.13	37.45
492.30	67.88
492.48	0.00
492.66	0.00
492.84	0.00
493.01	0.00
493.19	39.79
493.37	117.03
493.54	18.72
493.72	53.83
493.90	60.85
494.08	0.00
494.25	32.77
494.43	46.81
494.61	105.32
494.79	9.36
494.96	25.75
495.14	37.45
495.32	14.04
495.49	135.75
495.67	0.00
495.85	91.28
496.02	0.00
496.20	79.58
496.38	63.19
496.55	79.58
496.73	9.36
496.91	0.00
497.09	32.77
497.26	11.70
497.44	32.77
497.62	63.19
497.79	35.11
497.97	67.88
498.14	39.79
498.32	2.34
498.50	23.41
498.67	42.13
498.85	0.00
499.03	49.15
499.20	46.81
499.38	44.47
499.56	9.36
499.73	11.70
499.91	67.88
500.08	21.06
500.26	67.88
500.44	9.36
500.61	35.11
500.79	84.26
500.97	42.13
501.14	18.72
501.32	0.00
501.49	39.79
501.67	67.88
501.84	11.70
502.02	49.15
502.20	28.09
502.37	35.11
502.55	79.58
502.72	91.28
502.90	65.54
503.07	91.28
503.25	23.41
503.43	21.06
503.60	2.34
503.78	60.85
503.95	0.00
504.13	65.54
504.30	37.45
504.48	18.72
504.65	39.79
504.83	44.47
505.01	4.68
505.18	86.60
505.36	21.06
505.53	18.72
505.71	53.83
505.88	53.83
506.06	70.22
506.23	51.49
506.41	9.36
506.58	11.70
506.76	35.11
506.93	0.00
507.11	28.09
507.28	95.96
507.46	72.56
507.63	7.02
507.81	46.81
507.98	35.11
508.16	23.41
508.33	100.64
508.50	30.43
508.68	86.60
508.85	88.94
509.03	67.88
509.20	63.19
509.38	46.81
509.55	0.00
509.73	0.00
509.90	0.00
510.08	16.38
510.25	39.79
510.42	102.98
510.60	84.26
510.77	107.66
510.95	53.83
511.12	30.43
511.30	128.73
511.47	119.37
511.64	28.09
511.82	74.90
511.99	86.60
512.17	107.66
512.34	32.77
512.51	39.79
512.69	44.47
512.86	117.03
513.04	32.77
513.21	2.34
513.38	51.49
513.56	35.11
513.73	42.13
513.90	30.43
514.08	16.38
514.25	23.41
514.43	9.36
514.60	35.11
514.77	65.54
514.95	39.79
515.12	18.72
515.29	51.49
515.47	67.88
515.64	46.81
515.81	0.00
515.99	42.13
516.16	18.72
516.33	70.22
516.51	16.38
516.68	0.00
516.85	70.22
517.03	25.75
517.20	152.13
517.37	56.17
517.54	14.04
517.72	72.56
517.89	35.11
518.06	0.00
518.24	23.41
518.41	0.00
518.58	131.07
518.75	9.36
518.93	79.58
519.10	35.11
519.27	0.00
519.45	67.88
519.62	102.98
519.79	35.11
519.96	128.73
520.14	58.51
520.31	0.00
520.48	74.90
520.65	25.75
520.83	32.77
521.00	39.79
521.17	0.00
521.34	0.00
521.52	51.49
521.69	79.58
521.86	23.41
522.03	51.49
522.20	0.00
522.38	35.11
522.55	53.83
522.72	70.22
522.89	58.51
523.07	30.43
523.24	25.75
523.41	11.70
523.58	0.00
523.75	0.00
523.92	23.41
524.10	102.98
524.27	0.00
524.44	0.00
524.61	42.13
524.78	7.02
524.96	44.47
525.13	67.88
525.30	107.66
525.47	42.13
525.64	91.28
525.81	65.54
525.98	0.00
526.16	11.70
526.33	0.00
526.50	14.04
526.67	0.00
526.84	0.00
527.01	11.70
527.18	107.66
527.36	105.32
527.53	28.09
527.70	91.28
527.87	23.41
528.04	44.47
528.21	51.49
528.38	121.71
528.55	81.92
528.72	35.11
528.89	65.54
529.07	0.00
529.24	65.54
529.41	79.58
529.58	67.88
529.75	37.45
529.92	4.68
530.09	58.51
530.26	11.70
530.43	60.85
530.60	21.06
530.77	74.90
530.94	72.56
531.11	11.70
531.28	18.72
531.46	7.02
531.63	32.77
531.80	21.06
531.97	91.28
532.14	110.01
532.31	0.00
532.48	51.49
532.65	32.77
532.82	18.72
532.99	0.00
533.16	86.60
533.33	56.17
533.50	84.26
533.67	42.13
533.84	58.51
534.01	67.88
534.18	53.83
534.35	91.28
534.52	37.45
534.69	67.88
534.86	86.60
535.03	63.19
535.20	128.73
535.37	51.49
535.54	60.85
535.71	9.36
535.88	0.00
536.05	18.72
536.22	28.09
536.38	44.47
536.55	32.77
536.72	0.00
536.89	53.83
537.06	70.22
537.23	35.11
537.40	37.45
537.57	74.90
537.74	11.70
537.91	56.17
538.08	42.13
538.25	51.49
538.42	56.17
538.59	0.00
538.75	56.17
538.92	28.09
539.09	39.79
539.26	0.00
539.43	35.11
539.60	98.30
539.77	191.92
539.94	210.65
540.11	203.63
540.28	126.39
540.44	119.37
540.61	58.51
540.78	86.60
540.95	28.09
541.12	58.51
541.29	63.19
541.46	81.92
541.62	0.00
541.79	100.64
541.96	53.83
542.13	126.39
542.30	74.90
542.47	39.79
542.63	58.51
542.80	44.47
542.97	70.22
543.14	131.07
543.31	14.04
543.48	39.79
543.64	11.70
543.81	0.00
543.98	51.49
544.15	23.41
544.32	81.92
544.48	65.54
544.65	0.00
544.82	49.15
544.99	58.51
545.16	0.00
545.32	0.00
545.49	56.17
545.66	77.24
545.83	30.43
546.00	16.38
546.16	42.13
546.33	37.45
546.50	37.45
546.67	0.00
546.83	28.09
547.00	9.36
547.17	65.54
547.34	53.83
547.50	56.17
547.67	0.00
547.84	131.07
548.00	0.00
548.17	0.00
548.34	37.45
548.51	81.92
548.67	28.09
548.84	16.38
549.01	72.56
549.18	0.00
549.34	0.00
549.51	105.32
549.68	72.56
549.84	11.70
550.01	44.47
550.18	114.69
550.34	70.22
550.51	11.70
550.68	42.13
550.84	21.06
551.01	102.98
551.18	72.56
551.34	79.58
551.51	81.92
551.68	42.13
551.84	0.00
552.01	86.60
552.18	91.28
552.34	51.49
552.51	49.15
552.68	84.26
552.84	63.19
553.01	18.72
553.18	18.72
553.34	23.41
553.51	7.02
553.67	49.15
553.84	51.49
554.01	88.94
554.17	79.58
554.34	39.79
554.51	95.96
554.67	0.00
554.84	42.13
555.00	72.56
555.17	0.00
555.33	126.39
555.50	65.54
555.67	0.00
555.83	16.38
556.00	30.43
556.16	0.00
556.33	46.81
556.50	46.81
556.66	4.68
556.83	79.58
556.99	14.04
557.16	21.06
557.32	18.72
557.49	0.00
557.65	18.72
557.82	28.09
557.98	4.68
558.15	100.64
558.32	42.13
558.48	0.00
558.65	77.24
558.81	30.43
558.98	39.79
559.14	86.60
559.31	81.92
559.47	30.43
559.64	46.81
559.80	0.00
559.97	51.49
560.13	37.45
560.30	0.00
560.46	7.02
560.63	46.81
560.79	25.75
560.96	35.11
561.12	23.41
561.29	32.77
561.45	56.17
561.61	4.68
561.78	84.26
561.94	100.64
562.11	30.43
562.27	107.66
562.44	58.51
562.60	79.58
562.77	49.15
562.93	58.51
563.10	25.75
563.26	37.45
563.42	14.04
563.59	65.54
563.75	0.00
563.92	30.43
564.08	37.45
564.24	35.11
564.41	9.36
564.57	28.09
564.74	37.45
564.90	74.90
565.07	30.43
565.23	35.11
565.39	60.85
565.56	42.13
565.72	72.56
565.88	91.28
566.05	51.49
566.21	72.56
566.38	72.56
566.54	25.75
566.70	88.94
566.87	21.06
567.03	65.54
567.19	56.17
567.36	16.38
567.52	0.00
567.68	35.11
567.85	0.00
568.01	0.00
568.17	93.62
568.34	65.54
568.50	23.41
568.66	84.26
568.83	14.04
568.99	70.22
569.15	58.51
569.32	0.00
569.48	39.79
569.64	0.00
569.81	60.85
569.97	93.62
570.13	42.13
570.30	0.00
570.46	58.51
570.62	18.72
570.78	0.00
570.95	112.35
571.11	63.19
571.27	18.72
571.43	53.83
571.60	72.56
571.76	44.47
571.92	37.45
572.09	9.36
572.25	7.02
572.41	58.51
572.57	53.83
572.74	56.17
572.90	14.04
573.06	46.81
573.22	107.66
573.38	56.17
573.55	39.79
573.71	81.92
573.87	35.11
574.03	28.09
574.20	35.11
574.36	18.72
574.52	51.49
574.68	32.77
574.84	32.77
575.01	79.58
575.17	42.13
575.33	88.94
575.49	18.72
575.65	0.00
575.82	91.28
575.98	30.43
576.14	112.35
576.30	131.07
576.46	114.69
576.62	110.01
576.79	63.19
576.95	102.98
577.11	105.32
577.27	16.38
577.43	42.13
577.59	88.94
577.75	0.00
577.92	56.17
578.08	0.00
578.24	42.13
578.40	49.15
578.56	67.88
578.72	21.06
578.88	35.11
579.04	0.00
579.21	65.54
579.37	18.72
579.53	39.79
579.69	72.56
579.85	39.79
580.01	35.11
580.17	145.11
580.33	51.49
580.49	0.00
580.65	98.30
580.82	105.32
580.98	16.38
581.14	65.54
581.30	114.69
581.46	67.88
581.62	63.19
581.78	110.01
581.94	100.64
582.10	35.11
582.26	72.56
582.42	95.96
582.58	30.43
582.74	42.13
582.90	16.38
583.06	79.58
583.22	49.15
583.38	131.07
583.54	131.07
583.70	30.43
583.86	147.45
584.02	32.77
584.18	135.75
584.34	177.88
584.50	395.55
584.66	2747.79
584.82	6951.39
584.98	10036.22
585.14	8830.84
585.30	5523.66
585.46	3501.44
585.62	2193.08
585.78	1064.94
585.94	442.36
586.10	252.78
586.26	67.88
586.42	227.03
586.58	72.56
586.74	100.64
586.90	51.49
587.06	95.96
587.22	35.11
587.38	58.51
587.54	114.69
587.70	491.51
587.86	676.41
588.02	858.98
588.18	489.17
588.34	388.53
588.49	227.03
588.65	128.73
588.81	49.15
588.97	25.75
589.13	98.30
589.29	105.32
589.45	2.34
589.61	98.30
589.77	91.28
589.93	39.79
590.08	74.90
590.24	35.11
590.40	32.77
590.56	53.83
590.72	63.19
590.88	21.06
591.04	58.51
591.20	0.00
591.35	30.43
591.51	65.54
591.67	88.94
591.83	0.00
591.99	86.60
592.15	0.00
592.31	0.00
592.46	93.62
592.62	84.26
592.78	70.22
592.94	88.94
593.10	7.02
593.26	65.54
593.41	4.68
593.57	37.45
593.73	30.43
593.89	365.12
594.05	854.30
594.20	1329.42
594.36	1165.59
594.52	795.78
594.68	547.69
594.84	397.89
594.99	250.44
595.15	98.30
595.31	168.52
595.47	84.26
595.62	72.56
595.78	32.77
595.94	65.54
596.10	35.11
596.25	63.19
596.41	93.62
596.57	0.00
596.73	21.06
596.88	138.09
597.04	198.95
597.20	255.12
597.36	411.93
597.51	231.71
597.67	177.88
597.83	138.09
597.99	74.90
598.14	140.43
598.30	0.00
598.46	0.00
598.61	131.07
598.77	53.83
598.93	91.28
599.09	84.26
599.24	11.70
599.40	145.11
599.56	35.11
599.71	0.00
599.87	28.09
600.03	93.62
600.18	81.92
600.34	30.43
600.50	77.24
600.65	142.77
600.81	88.94
600.97	60.85
601.12	28.09
601.28	79.58
601.44	42.13
601.59	60.85
601.75	58.51
601.91	18.72
602.06	37.45
602.22	67.88
602.37	147.45
602.53	287.89
602.69	306.61
602.84	430.66
603.00	191.92
603.16	147.45
603.31	110.01
603.47	117.03
603.62	72.56
603.78	74.90
603.94	30.43
604.09	60.85
604.25	9.36
604.40	128.73
604.56	28.09
604.71	35.11
604.87	51.49
605.03	133.41
605.18	51.49
605.34	70.22
605.49	56.17
605.65	0.00
605.80	72.56
605.96	14.04
606.12	16.38
606.27	63.19
606.43	0.00
606.58	77.24
606.74	110.01
606.89	381.51
607.05	777.06
607.20	1050.90
607.36	954.94
607.51	601.52
607.67	454.06
607.82	287.89
607.98	121.71
608.13	121.71
608.29	35.11
608.44	63.19
608.60	56.17
608.75	35.11
608.91	128.73
609.06	716.20
609.22	1385.60
609.37	1837.32
609.53	1629.01
609.68	1095.37
609.84	758.33
609.99	456.40
610.15	308.95
610.30	154.48
610.46	133.41
610.61	53.83
610.76	16.38
610.92	28.09
611.07	70.22
611.23	25.75
611.38	72.56
611.54	51.49
611.69	124.05
611.84	100.64
612.00	11.70
612.15	91.28
612.31	93.62
612.46	79.58
612.62	72.56
612.77	21.06
612.92	72.56
613.08	72.56
613.23	11.70
613.39	107.66
613.54	110.01
613.69	662.37
613.85	1795.19
614.00	2881.20
614.15	2878.86
614.31	2054.99
614.46	1350.49
614.62	938.55
614.77	594.50
614.92	327.68
615.08	102.98
615.23	42.13
615.38	70.22
615.54	114.69
615.69	198.95
615.84	423.64
616.00	669.39
616.15	863.66
616.30	655.35
616.46	440.02
616.61	266.82
616.76	222.35
616.92	184.90
617.07	9.36
617.22	35.11
617.37	37.45
617.53	0.00
617.68	39.79
617.83	63.19
617.99	126.39
618.14	77.24
618.29	39.79
618.45	23.41
618.60	86.60
618.75	7.02
618.90	11.70
619.06	28.09
619.21	0.00
619.36	63.19
619.51	58.51
619.67	49.15
619.82	42.13
619.97	88.94
620.12	46.81
620.28	39.79
620.43	53.83
620.58	0.00
620.73	53.83
620.89	32.77
621.04	74.90
621.19	177.88
621.34	428.32
621.49	416.62
621.65	395.55
621.80	271.50
621.95	191.92
622.10	215.33
622.25	147.45
622.41	112.35
622.56	49.15
622.71	102.98
622.86	18.72
623.01	70.22
623.16	16.38
623.32	70.22
623.47	95.96
623.62	42.13
623.77	35.11
623.92	28.09
624.07	9.36
624.23	63.19
624.38	81.92
624.53	4.68
624.68	105.32
624.83	72.56
624.98	58.51
625.13	112.35
625.29	0.00
625.44	72.56
625.59	37.45
625.74	23.41
625.89	46.81
626.04	318.31
626.19	924.51
626.34	1474.54
626.49	1540.07
626.65	1093.03
626.80	786.42
626.95	559.39
627.10	341.72
627.25	159.16
627.40	88.94
627.55	53.83
627.70	65.54
627.85	44.47
628.00	63.19
628.15	35.11
628.30	63.19
628.45	88.94
628.60	2.34
628.76	74.90
628.91	9.36
629.06	0.00
629.21	74.90
629.36	42.13
629.51	0.00
629.66	95.96
629.81	14.04
629.96	161.50
630.11	301.93
630.26	339.38
630.41	341.72
630.56	257.46
630.71	201.29
630.86	149.79
631.01	81.92
631.16	72.56
631.31	23.41
631.46	44.47
631.61	67.88
631.76	0.00
631.91	49.15
632.06	56.17
632.21	77.24
632.36	21.06
632.51	128.73
632.66	173.20
632.81	187.24
632.96	442.36
633.10	968.98
633.25	1088.35
633.40	952.60
633.55	566.41
633.70	404.91
633.85	278.52
634.00	203.63
634.15	100.64
634.30	74.90
634.45	91.28
634.60	28.09
634.75	138.09
634.90	117.03
635.05	23.41
635.19	88.94
635.34	46.81
635.49	51.49
635.64	49.15
635.79	0.00
635.94	39.79
636.09	100.64
636.24	44.47
636.39	91.28
636.53	0.00
636.68	105.32
636.83	44.47
636.98	0.00
637.13	42.13
637.28	152.13
637.43	37.45
637.57	145.11
637.72	482.15
637.87	1214.74
638.02	1952.01
638.17	1977.75
638.32	1519.01
638.46	1008.77
638.61	720.88
638.76	407.25
638.91	191.92
639.06	93.62
639.20	112.35
639.35	105.32
639.50	126.39
639.65	589.82
639.80	1647.74
639.94	2836.73
640.09	3059.08
640.24	2352.24
640.39	1488.58
640.54	1020.47
640.68	599.18
640.83	369.80
640.98	140.43
641.13	98.30
641.27	126.39
641.42	58.51
641.57	16.38
641.72	105.32
641.86	72.56
642.01	42.13
642.16	72.56
642.31	42.13
642.45	72.56
642.60	65.54
642.75	0.00
642.90	46.81
643.04	81.92
643.19	46.81
643.34	95.96
643.48	112.35
643.63	44.47
643.78	72.56
643.93	114.69
644.07	63.19
644.22	49.15
644.37	112.35
644.51	117.03
644.66	30.43
644.81	0.00
644.95	51.49
645.10	21.06
645.25	16.38
645.39	60.85
645.54	28.09
645.69	23.41
645.83	21.06
645.98	91.28
646.13	23.41
646.27	42.13
646.42	37.45
646.57	0.00
646.71	35.11
646.86	0.00
647.00	32.77
647.15	0.00
647.30	9.36
647.44	56.17
647.59	39.79
647.74	49.15
647.88	21.06
648.03	44.47
648.17	51.49
648.32	56.17
648.47	11.70
648.61	35.11
648.76	0.00
648.90	32.77
649.05	25.75
649.20	49.15
649.34	46.81
649.49	77.24
649.63	42.13
649.78	39.79
649.92	42.13
650.07	250.44
650.21	809.83
650.36	1341.13
650.51	1603.27
650.65	1296.66
650.80	961.96
650.94	664.71
651.09	425.98
651.23	159.16
651.38	86.60
651.52	56.17
651.67	9.36
651.81	32.77
651.96	88.94
652.10	105.32
652.25	98.30
652.39	121.71
652.54	84.26
652.68	149.79
652.83	229.37
652.97	414.27
653.12	620.24
653.26	507.90
653.41	386.19
653.55	252.78
653.70	112.35
653.84	149.79
653.99	77.24
654.13	14.04
654.27	0.00
654.42	0.00
654.56	2.34
654.71	4.68
654.85	53.83
655.00	0.00
655.14	91.28
655.29	42.13
655.43	0.00
655.57	11.70
655.72	16.38
655.86	4.68
656.01	102.98
656.15	28.09
656.30	56.17
656.44	30.43
656.58	44.47
656.73	7.02
656.87	0.00
657.01	53.83
657.16	39.79
657.30	25.75
657.45	81.92
657.59	32.77
657.73	49.15
657.88	14.04
658.02	39.79
658.16	74.90
658.31	65.54
658.45	9.36
658.60	39.79
658.74	35.11
658.88	28.09
659.03	28.09
659.17	67.88
659.31	86.60
659.46	374.49
659.60	650.67
659.74	802.80
659.89	727.91
660.03	507.90
660.17	348.74
660.32	212.99
660.46	95.96
660.60	7.02
660.74	65.54
660.89	18.72
661.03	7.02
661.17	0.00
661.32	79.58
661.46	91.28
661.60	58.51
661.74	60.85
661.89	25.75
662.03	23.41
662.17	35.11
662.31	30.43
662.46	0.00
662.60	35.11
662.74	51.49
662.88	0.00
663.03	51.49
663.17	16.38
663.31	0.00
663.45	44.47
663.60	0.00
663.74	65.54
663.88	105.32
664.02	35.11
664.17	4.68
664.31	0.00
664.45	18.72
664.59	0.00
664.73	18.72
664.88	138.09
665.02	23.41
665.16	58.51
665.30	18.72
665.44	16.38
665.59	128.73
665.73	74.90
665.87	0.00
666.01	14.04
666.15	0.00
666.29	60.85
666.44	51.49
666.58	42.13
666.72	0.00
666.86	9.36
667.00	0.00
667.14	102.98
667.28	252.78
667.43	636.63
667.57	1130.48
667.71	1315.38
667.85	1214.74
667.99	966.64
668.13	702.16
668.27	290.23
668.41	290.23
668.56	117.03
668.70	147.45
668.84	0.00
668.98	42.13
669.12	44.47
669.26	37.45
669.40	37.45
669.54	74.90
669.68	88.94
669.82	77.24
669.96	70.22
670.10	95.96
670.25	42.13
670.39	77.24
670.53	70.22
670.67	152.13
670.81	65.54
670.95	42.13
671.09	74.90
671.23	269.16
671.37	624.92
671.51	814.51
671.65	915.15
671.79	744.29
671.93	517.26
672.07	266.82
672.21	187.24
672.35	142.77
672.49	84.26
672.63	53.83
672.77	42.13
672.91	21.06
673.05	0.00
673.19	102.98
673.33	2.34
673.47	65.54
673.61	18.72
673.75	0.00
673.89	79.58
674.03	0.00
674.17	51.49
674.31	63.19
674.45	49.15
674.59	37.45
674.73	0.00
674.87	14.04
675.01	25.75
675.15	4.68
675.29	16.38
675.43	86.60
675.56	95.96
675.70	51.49
675.84	74.90
675.98	0.00
676.12	44.47
676.26	35.11
676.40	25.75
676.54	65.54
676.68	23.41
676.82	30.43
676.96	60.85
677.10	0.00
677.23	51.49
677.37	21.06
677.51	81.92
677.65	56.17
677.79	28.09
677.93	74.90
678.07	32.77
678.21	49.15
678.34	63.19
678.48	58.51
678.62	21.06
678.76	28.09
678.90	49.15
679.04	0.00
679.18	4.68
679.31	67.88
679.45	42.13
679.59	37.45
679.73	0.00
679.87	2.34
680.00	7.02
680.14	56.17
680.28	74.90
680.42	46.81
680.56	88.94
680.70	2.34
680.83	0.00
680.97	0.00
681.11	53.83
681.25	95.96
681.39	30.43
681.52	81.92
681.66	46.81
681.80	0.00
681.94	28.09
682.07	16.38
682.21	28.09
682.35	37.45
682.49	18.72
682.62	56.17
682.76	25.75
682.90	44.47
683.04	44.47
683.17	11.70
683.31	21.06
683.45	53.83
683.59	21.06
683.72	0.00
683.86	0.00
684.00	42.13
684.13	74.90
684.27	60.85
684.41	16.38
684.55	51.49
684.68	23.41
684.82	28.09
684.96	46.81
685.09	18.72
685.23	51.49
685.37	11.70
685.50	18.72
685.64	95.96
685.78	56.17
685.91	51.49
686.05	0.00
686.19	56.17
686.32	0.00
686.46	39.79
686.60	112.35
686.73	100.64
686.87	53.83
687.01	32.77
687.14	91.28
687.28	74.90
687.42	46.81
687.55	18.72
687.69	46.81
687.82	25.75
687.96	9.36
688.10	63.19
688.23	63.19
688.37	56.17
688.50	14.04
688.64	0.00
688.78	42.13
688.91	21.06
689.05	79.58
689.18	74.90
689.32	30.43
689.46	49.15
689.59	37.45
689.73	58.51
689.86	124.05
690.00	63.19
690.13	35.11
690.27	18.72
690.41	63.19
690.54	88.94
690.68	72.56
690.81	32.77
690.95	0.00
691.08	28.09
691.22	65.54
691.35	46.81
691.49	32.77
691.62	16.38
691.76	72.56
691.89	44.47
692.03	84.26
692.16	0.00
692.30	0.00
692.43	58.51
692.57	266.82
692.70	533.64
692.84	622.58
692.97	547.69
693.11	397.89
693.24	322.99
693.38	191.92
693.51	100.64
693.65	88.94
693.78	74.90
693.92	56.17
694.05	51.49
694.19	56.17
694.32	0.00
694.45	51.49
694.59	35.11
694.72	0.00
694.86	121.71
694.99	30.43
695.13	0.00
695.26	79.58
695.39	74.90
695.53	72.56
695.66	0.00
695.80	37.45
695.93	79.58
696.07	0.00
696.20	0.00
696.33	91.28
696.47	114.69
696.60	74.90
696.73	63.19
696.87	86.60
697.00	51.49
697.14	14.04
697.27	0.00
697.40	23.41
697.54	4.68
697.67	58.51
697.80	72.56
697.94	51.49
698.07	28.09
698.21	25.75
698.34	39.79
698.47	30.43
698.61	18.72
698.74	44.47
698.87	77.24
699.01	35.11
699.14	0.00
699.27	51.49
699.40	0.00
699.54	0.00
699.67	9.36
699.80	18.72
699.94	9.36
700.07	0.00
700.20	21.06
700.34	0.00
700.47	23.41
700.60	72.56
700.73	9.36
700.87	98.30
701.00	4.68
701.13	49.15
701.26	0.00
701.40	0.00
701.53	18.72
701.66	11.70
701.79	35.11
701.93	25.75
702.06	11.70
702.19	67.88
702.32	168.52
702.46	53.83
702.59	86.60
702.72	63.19
702.85	353.42
702.99	711.52
703.12	1039.20
703.25	1233.46
703.38	1057.92
703.51	880.04
703.65	596.84
703.78	507.90
703.91	276.18
704.04	161.50
704.17	135.75
704.31	91.28
704.44	37.45
704.57	65.54
704.70	0.00
704.83	35.11
704.96	102.98
705.10	4.68
705.23	35.11
>>>>>End Processed Spectral Data<<<<<
