SpectraSuite Data File
++++++++++++++++++++++++++++++++++++
Date: Fri Oct 04 12:13:33 GMT-05:00 2013
User: price-jones
Dark Spectrum Present: No
Reference Spectrum Present: No
Number of Sampled Component Spectra: 1
Spectrometers: USB2+H05261
Integration Time (usec): 10000 (USB2+H05261)
Spectra Averaged: 1 (USB2+H05261)
Boxcar Smoothing: 0 (USB2+H05261)
Correct for Electrical Dark: No (USB2+H05261)
Strobe/Lamp Enabled: No (USB2+H05261)
Correct for Detector Non-linearity: No (USB2+H05261)
Correct for Stray Light: No (USB2+H05261)
Number of Pixels in Processed Spectrum: 2048
>>>>>Begin Processed Spectral Data<<<<<
365.73	18.72
365.92	18.72
366.12	18.72
366.32	0.00
366.52	0.00
366.72	0.00
366.91	0.00
367.11	0.00
367.31	0.00
367.51	0.00
367.70	0.00
367.90	0.00
368.10	0.00
368.30	0.00
368.49	0.00
368.69	0.00
368.89	0.00
369.09	0.00
369.28	0.00
369.48	0.00
369.68	0.00
369.87	0.00
370.07	0.00
370.27	0.00
370.47	0.00
370.66	0.00
370.86	7.02
371.06	0.00
371.25	0.00
371.45	0.00
371.65	0.00
371.84	0.00
372.04	0.00
372.24	0.00
372.44	9.36
372.63	7.02
372.83	0.00
373.03	44.47
373.22	23.41
373.42	46.81
373.62	37.45
373.81	53.83
374.01	16.38
374.21	44.47
374.40	7.02
374.60	49.15
374.79	79.58
374.99	49.15
375.19	0.00
375.38	65.54
375.58	91.28
375.78	25.75
375.97	30.43
376.17	25.75
376.37	14.04
376.56	0.00
376.76	39.79
376.95	21.06
377.15	9.36
377.35	9.36
377.54	37.45
377.74	18.72
377.93	23.41
378.13	9.36
378.33	37.45
378.52	32.77
378.72	7.02
378.91	44.47
379.11	30.43
379.31	46.81
379.50	16.38
379.70	0.00
379.89	28.09
380.09	4.68
380.28	0.00
380.48	0.00
380.68	0.00
380.87	30.43
381.07	0.00
381.26	77.24
381.46	51.49
381.65	0.00
381.85	49.15
382.04	0.00
382.24	56.17
382.43	0.00
382.63	28.09
382.83	0.00
383.02	4.68
383.22	39.79
383.41	32.77
383.61	11.70
383.80	56.17
384.00	0.00
384.19	39.79
384.39	105.32
384.58	37.45
384.78	11.70
384.97	44.47
385.17	0.00
385.36	25.75
385.56	0.00
385.75	0.00
385.95	56.17
386.14	67.88
386.34	0.00
386.53	30.43
386.72	28.09
386.92	28.09
387.11	0.00
387.31	0.00
387.50	16.38
387.70	21.06
387.89	60.85
388.09	84.26
388.28	53.83
388.48	72.56
388.67	0.00
388.86	37.45
389.06	35.11
389.25	51.49
389.45	93.62
389.64	74.90
389.84	0.00
390.03	25.75
390.22	23.41
390.42	35.11
390.61	63.19
390.81	60.85
391.00	7.02
391.19	11.70
391.39	0.00
391.58	0.00
391.78	44.47
391.97	100.64
392.16	0.00
392.36	84.26
392.55	14.04
392.75	0.00
392.94	32.77
393.13	0.00
393.33	18.72
393.52	30.43
393.71	11.70
393.91	16.38
394.10	37.45
394.29	28.09
394.49	0.00
394.68	42.13
394.88	77.24
395.07	0.00
395.26	51.49
395.46	51.49
395.65	77.24
395.84	49.15
396.04	7.02
396.23	74.90
396.42	9.36
396.62	56.17
396.81	0.00
397.00	81.92
397.19	53.83
397.39	65.54
397.58	39.79
397.77	72.56
397.97	35.11
398.16	77.24
398.35	4.68
398.55	35.11
398.74	0.00
398.93	0.00
399.12	51.49
399.32	0.00
399.51	88.94
399.70	93.62
399.90	51.49
400.09	60.85
400.28	25.75
400.47	0.00
400.67	9.36
400.86	37.45
401.05	0.00
401.24	7.02
401.44	37.45
401.63	39.79
401.82	18.72
402.01	0.00
402.21	25.75
402.40	0.00
402.59	14.04
402.78	152.13
402.97	63.19
403.17	0.00
403.36	9.36
403.55	42.13
403.74	0.00
403.93	37.45
404.13	32.77
404.32	14.04
404.51	0.00
404.70	28.09
404.89	21.06
405.09	9.36
405.28	79.58
405.47	16.38
405.66	77.24
405.85	21.06
406.05	60.85
406.24	11.70
406.43	0.00
406.62	0.00
406.81	56.17
407.00	77.24
407.20	65.54
407.39	0.00
407.58	0.00
407.77	51.49
407.96	4.68
408.15	49.15
408.34	51.49
408.54	88.94
408.73	0.00
408.92	42.13
409.11	37.45
409.30	0.00
409.49	67.88
409.68	0.00
409.87	14.04
410.07	88.94
410.26	9.36
410.45	16.38
410.64	4.68
410.83	49.15
411.02	72.56
411.21	0.00
411.40	0.00
411.59	102.98
411.78	7.02
411.98	60.85
412.17	32.77
412.36	0.00
412.55	0.00
412.74	25.75
412.93	98.30
413.12	93.62
413.31	7.02
413.50	23.41
413.69	42.13
413.88	0.00
414.07	0.00
414.26	39.79
414.45	0.00
414.64	79.58
414.83	7.02
415.02	81.92
415.22	56.17
415.41	0.00
415.60	18.72
415.79	60.85
415.98	0.00
416.17	0.00
416.36	49.15
416.55	7.02
416.74	51.49
416.93	35.11
417.12	0.00
417.31	58.51
417.50	0.00
417.69	0.00
417.88	16.38
418.07	63.19
418.26	11.70
418.45	7.02
418.64	46.81
418.83	49.15
419.02	0.00
419.21	0.00
419.39	2.34
419.58	65.54
419.77	53.83
419.96	58.51
420.15	0.00
420.34	18.72
420.53	53.83
420.72	44.47
420.91	0.00
421.10	16.38
421.29	30.43
421.48	4.68
421.67	0.00
421.86	0.00
422.05	0.00
422.24	58.51
422.43	37.45
422.61	56.17
422.80	30.43
422.99	23.41
423.18	11.70
423.37	91.28
423.56	0.00
423.75	32.77
423.94	4.68
424.13	39.79
424.32	37.45
424.50	0.00
424.69	77.24
424.88	51.49
425.07	0.00
425.26	9.36
425.45	32.77
425.64	37.45
425.83	60.85
426.01	86.60
426.20	44.47
426.39	0.00
426.58	60.85
426.77	93.62
426.96	18.72
427.15	0.00
427.33	0.00
427.52	37.45
427.71	0.00
427.90	79.58
428.09	0.00
428.28	74.90
428.46	30.43
428.65	0.00
428.84	56.17
429.03	23.41
429.22	0.00
429.40	81.92
429.59	91.28
429.78	35.11
429.97	58.51
430.16	7.02
430.34	18.72
430.53	30.43
430.72	58.51
430.91	9.36
431.10	67.88
431.28	74.90
431.47	84.26
431.66	18.72
431.85	60.85
432.03	79.58
432.22	18.72
432.41	0.00
432.60	25.75
432.79	2.34
432.97	67.88
433.16	100.64
433.35	53.83
433.54	51.49
433.72	11.70
433.91	39.79
434.10	65.54
434.28	0.00
434.47	2.34
434.66	7.02
434.85	72.56
435.03	46.81
435.22	23.41
435.41	32.77
435.59	0.00
435.78	2.34
435.97	7.02
436.16	42.13
436.34	0.00
436.53	0.00
436.72	0.00
436.90	9.36
437.09	7.02
437.28	0.00
437.46	49.15
437.65	46.81
437.84	37.45
438.02	0.00
438.21	7.02
438.40	14.04
438.58	0.00
438.77	0.00
438.96	37.45
439.14	25.75
439.33	126.39
439.52	30.43
439.70	0.00
439.89	53.83
440.08	28.09
440.26	44.47
440.45	42.13
440.63	28.09
440.82	28.09
441.01	30.43
441.19	63.19
441.38	42.13
441.57	0.00
441.75	21.06
441.94	95.96
442.12	2.34
442.31	23.41
442.50	63.19
442.68	86.60
442.87	2.34
443.05	30.43
443.24	11.70
443.43	11.70
443.61	18.72
443.80	65.54
443.98	28.09
444.17	16.38
444.35	0.00
444.54	0.00
444.73	60.85
444.91	16.38
445.10	65.54
445.28	0.00
445.47	60.85
445.65	46.81
445.84	16.38
446.02	16.38
446.21	7.02
446.39	119.37
446.58	28.09
446.77	0.00
446.95	53.83
447.14	49.15
447.32	44.47
447.51	49.15
447.69	25.75
447.88	21.06
448.06	18.72
448.25	37.45
448.43	32.77
448.62	44.47
448.80	88.94
448.99	23.41
449.17	53.83
449.36	18.72
449.54	37.45
449.73	0.00
449.91	16.38
450.10	0.00
450.28	0.00
450.46	23.41
450.65	39.79
450.83	23.41
451.02	56.17
451.20	58.51
451.39	112.35
451.57	49.15
451.76	23.41
451.94	42.13
452.13	0.00
452.31	0.00
452.49	72.56
452.68	0.00
452.86	0.00
453.05	0.00
453.23	37.45
453.42	16.38
453.60	16.38
453.78	84.26
453.97	86.60
454.15	65.54
454.34	9.36
454.52	23.41
454.70	0.00
454.89	0.00
455.07	46.81
455.26	119.37
455.44	21.06
455.62	0.00
455.81	72.56
455.99	42.13
456.17	49.15
456.36	14.04
456.54	25.75
456.73	30.43
456.91	9.36
457.09	7.02
457.28	44.47
457.46	117.03
457.64	74.90
457.83	51.49
458.01	0.00
458.19	0.00
458.38	23.41
458.56	56.17
458.74	16.38
458.93	39.79
459.11	7.02
459.29	0.00
459.48	86.60
459.66	11.70
459.84	67.88
460.03	44.47
460.21	25.75
460.39	16.38
460.57	72.56
460.76	32.77
460.94	32.77
461.12	28.09
461.31	0.00
461.49	49.15
461.67	0.00
461.85	100.64
462.04	0.00
462.22	46.81
462.40	81.92
462.59	63.19
462.77	0.00
462.95	63.19
463.13	11.70
463.32	49.15
463.50	0.00
463.68	44.47
463.86	46.81
464.05	23.41
464.23	107.66
464.41	88.94
464.59	39.79
464.78	74.90
464.96	7.02
465.14	63.19
465.32	11.70
465.50	2.34
465.69	79.58
465.87	51.49
466.05	124.05
466.23	23.41
466.41	39.79
466.60	16.38
466.78	0.00
466.96	28.09
467.14	74.90
467.32	51.49
467.51	98.30
467.69	18.72
467.87	11.70
468.05	4.68
468.23	37.45
468.41	4.68
468.60	0.00
468.78	84.26
468.96	53.83
469.14	49.15
469.32	0.00
469.50	0.00
469.69	44.47
469.87	60.85
470.05	72.56
470.23	9.36
470.41	42.13
470.59	84.26
470.77	0.00
470.95	37.45
471.14	100.64
471.32	67.88
471.50	84.26
471.68	0.00
471.86	18.72
472.04	0.00
472.22	0.00
472.40	107.66
472.58	93.62
472.77	42.13
472.95	35.11
473.13	56.17
473.31	98.30
473.49	56.17
473.67	72.56
473.85	35.11
474.03	7.02
474.21	0.00
474.39	119.37
474.57	25.75
474.75	70.22
474.93	7.02
475.12	110.01
475.30	25.75
475.48	42.13
475.66	65.54
475.84	42.13
476.02	18.72
476.20	0.00
476.38	70.22
476.56	42.13
476.74	44.47
476.92	112.35
477.10	16.38
477.28	11.70
477.46	58.51
477.64	65.54
477.82	60.85
478.00	42.13
478.18	0.00
478.36	112.35
478.54	81.92
478.72	39.79
478.90	7.02
479.08	32.77
479.26	107.66
479.44	7.02
479.62	39.79
479.80	0.00
479.98	46.81
480.16	56.17
480.34	0.00
480.52	60.85
480.70	86.60
480.88	39.79
481.06	11.70
481.24	28.09
481.41	28.09
481.59	93.62
481.77	65.54
481.95	74.90
482.13	11.70
482.31	0.00
482.49	21.06
482.67	0.00
482.85	9.36
483.03	4.68
483.21	2.34
483.39	32.77
483.57	35.11
483.74	0.00
483.92	14.04
484.10	105.32
484.28	81.92
484.46	77.24
484.64	18.72
484.82	0.00
485.00	16.38
485.18	30.43
485.35	86.60
485.53	39.79
485.71	46.81
485.89	2.34
486.07	56.17
486.25	21.06
486.43	39.79
486.61	84.26
486.78	77.24
486.96	11.70
487.14	39.79
487.32	70.22
487.50	60.85
487.68	37.45
487.85	79.58
488.03	37.45
488.21	11.70
488.39	14.04
488.57	70.22
488.75	9.36
488.92	79.58
489.10	0.00
489.28	44.47
489.46	56.17
489.64	16.38
489.81	28.09
489.99	72.56
490.17	4.68
490.35	18.72
490.53	0.00
490.70	86.60
490.88	102.98
491.06	44.47
491.24	65.54
491.41	25.75
491.59	100.64
491.77	93.62
491.95	58.51
492.13	0.00
492.30	46.81
492.48	0.00
492.66	119.37
492.84	93.62
493.01	49.15
493.19	18.72
493.37	28.09
493.54	88.94
493.72	56.17
493.90	25.75
494.08	65.54
494.25	0.00
494.43	7.02
494.61	30.43
494.79	0.00
494.96	51.49
495.14	133.41
495.32	79.58
495.49	53.83
495.67	42.13
495.85	37.45
496.02	23.41
496.20	44.47
496.38	95.96
496.55	93.62
496.73	65.54
496.91	0.00
497.09	46.81
497.26	39.79
497.44	18.72
497.62	37.45
497.79	42.13
497.97	51.49
498.14	58.51
498.32	107.66
498.50	114.69
498.67	56.17
498.85	18.72
499.03	37.45
499.20	84.26
499.38	102.98
499.56	28.09
499.73	42.13
499.91	0.00
500.08	39.79
500.26	0.00
500.44	84.26
500.61	88.94
500.79	74.90
500.97	121.71
501.14	138.09
501.32	46.81
501.49	65.54
501.67	98.30
501.84	100.64
502.02	35.11
502.20	114.69
502.37	98.30
502.55	14.04
502.72	39.79
502.90	0.00
503.07	81.92
503.25	117.03
503.43	63.19
503.60	114.69
503.78	0.00
503.95	91.28
504.13	0.00
504.30	145.11
504.48	74.90
504.65	60.85
504.83	0.00
505.01	51.49
505.18	44.47
505.36	0.00
505.53	14.04
505.71	91.28
505.88	0.00
506.06	65.54
506.23	32.77
506.41	35.11
506.58	53.83
506.76	49.15
506.93	72.56
507.11	7.02
507.28	23.41
507.46	46.81
507.63	135.75
507.81	46.81
507.98	0.00
508.16	30.43
508.33	56.17
508.50	37.45
508.68	60.85
508.85	23.41
509.03	105.32
509.20	49.15
509.38	39.79
509.55	86.60
509.73	63.19
509.90	77.24
510.08	58.51
510.25	23.41
510.42	7.02
510.60	56.17
510.77	95.96
510.95	95.96
511.12	42.13
511.30	44.47
511.47	105.32
511.64	84.26
511.82	98.30
511.99	65.54
512.17	74.90
512.34	9.36
512.51	0.00
512.69	53.83
512.86	56.17
513.04	67.88
513.21	0.00
513.38	21.06
513.56	37.45
513.73	67.88
513.90	56.17
514.08	72.56
514.25	14.04
514.43	37.45
514.60	42.13
514.77	39.79
514.95	0.00
515.12	67.88
515.29	56.17
515.47	56.17
515.64	0.00
515.81	35.11
515.99	86.60
516.16	65.54
516.33	84.26
516.51	51.49
516.68	67.88
516.85	28.09
517.03	112.35
517.20	65.54
517.37	35.11
517.54	49.15
517.72	21.06
517.89	74.90
518.06	46.81
518.24	23.41
518.41	42.13
518.58	70.22
518.75	32.77
518.93	105.32
519.10	42.13
519.27	72.56
519.45	35.11
519.62	16.38
519.79	23.41
519.96	77.24
520.14	58.51
520.31	9.36
520.48	49.15
520.65	84.26
520.83	51.49
521.00	86.60
521.17	70.22
521.34	44.47
521.52	28.09
521.69	39.79
521.86	74.90
522.03	58.51
522.20	58.51
522.38	32.77
522.55	79.58
522.72	81.92
522.89	58.51
523.07	100.64
523.24	11.70
523.41	58.51
523.58	0.00
523.75	46.81
523.92	112.35
524.10	56.17
524.27	39.79
524.44	46.81
524.61	21.06
524.78	70.22
524.96	28.09
525.13	112.35
525.30	9.36
525.47	53.83
525.64	32.77
525.81	63.19
525.98	30.43
526.16	0.00
526.33	37.45
526.50	23.41
526.67	63.19
526.84	11.70
527.01	30.43
527.18	105.32
527.36	0.00
527.53	42.13
527.70	81.92
527.87	95.96
528.04	124.05
528.21	25.75
528.38	98.30
528.55	37.45
528.72	0.00
528.89	0.00
529.07	14.04
529.24	0.00
529.41	30.43
529.58	65.54
529.75	88.94
529.92	56.17
530.09	23.41
530.26	126.39
530.43	25.75
530.60	168.52
530.77	72.56
530.94	81.92
531.11	49.15
531.28	63.19
531.46	49.15
531.63	32.77
531.80	35.11
531.97	74.90
532.14	70.22
532.31	72.56
532.48	39.79
532.65	9.36
532.82	81.92
532.99	9.36
533.16	175.54
533.33	63.19
533.50	0.00
533.67	2.34
533.84	25.75
534.01	0.00
534.18	23.41
534.35	88.94
534.52	56.17
534.69	60.85
534.86	44.47
535.03	28.09
535.20	7.02
535.37	42.13
535.54	72.56
535.71	81.92
535.88	60.85
536.05	16.38
536.22	53.83
536.38	70.22
536.55	98.30
536.72	32.77
536.89	93.62
537.06	105.32
537.23	39.79
537.40	9.36
537.57	16.38
537.74	39.79
537.91	102.98
538.08	0.00
538.25	42.13
538.42	51.49
538.59	95.96
538.75	81.92
538.92	0.00
539.09	60.85
539.26	42.13
539.43	79.58
539.60	30.43
539.77	37.45
539.94	0.00
540.11	98.30
540.28	21.06
540.44	86.60
540.61	63.19
540.78	84.26
540.95	37.45
541.12	86.60
541.29	30.43
541.46	114.69
541.62	0.00
541.79	84.26
541.96	44.47
542.13	100.64
542.30	56.17
542.47	86.60
542.63	119.37
542.80	46.81
542.97	135.75
543.14	56.17
543.31	67.88
543.48	18.72
543.64	112.35
543.81	105.32
543.98	58.51
544.15	93.62
544.32	9.36
544.48	46.81
544.65	77.24
544.82	4.68
544.99	60.85
545.16	79.58
545.32	67.88
545.49	81.92
545.66	81.92
545.83	53.83
546.00	72.56
546.16	86.60
546.33	70.22
546.50	56.17
546.67	0.00
546.83	65.54
547.00	44.47
547.17	30.43
547.34	53.83
547.50	128.73
547.67	53.83
547.84	0.00
548.00	0.00
548.17	56.17
548.34	72.56
548.51	42.13
548.67	0.00
548.84	28.09
549.01	42.13
549.18	44.47
549.34	53.83
549.51	30.43
549.68	0.00
549.84	35.11
550.01	51.49
550.18	18.72
550.34	67.88
550.51	60.85
550.68	46.81
550.84	117.03
551.01	98.30
551.18	84.26
551.34	32.77
551.51	88.94
551.68	84.26
551.84	56.17
552.01	14.04
552.18	105.32
552.34	65.54
552.51	28.09
552.68	112.35
552.84	88.94
553.01	77.24
553.18	95.96
553.34	91.28
553.51	46.81
553.67	58.51
553.84	49.15
554.01	86.60
554.17	14.04
554.34	60.85
554.51	21.06
554.67	58.51
554.84	114.69
555.00	58.51
555.17	0.00
555.33	25.75
555.50	51.49
555.67	79.58
555.83	72.56
556.00	140.43
556.16	74.90
556.33	128.73
556.50	35.11
556.66	149.79
556.83	79.58
556.99	11.70
557.16	60.85
557.32	25.75
557.49	37.45
557.65	28.09
557.82	42.13
557.98	58.51
558.15	51.49
558.32	121.71
558.48	63.19
558.65	39.79
558.81	63.19
558.98	0.00
559.14	86.60
559.31	14.04
559.47	28.09
559.64	53.83
559.80	0.00
559.97	7.02
560.13	44.47
560.30	70.22
560.46	2.34
560.63	67.88
560.79	0.00
560.96	0.00
561.12	65.54
561.29	14.04
561.45	53.83
561.61	14.04
561.78	51.49
561.94	67.88
562.11	81.92
562.27	46.81
562.44	102.98
562.60	25.75
562.77	98.30
562.93	60.85
563.10	18.72
563.26	4.68
563.42	0.00
563.59	56.17
563.75	11.70
563.92	91.28
564.08	0.00
564.24	28.09
564.41	65.54
564.57	0.00
564.74	60.85
564.90	9.36
565.07	91.28
565.23	9.36
565.39	32.77
565.56	42.13
565.72	79.58
565.88	25.75
566.05	98.30
566.21	14.04
566.38	0.00
566.54	93.62
566.70	44.47
566.87	23.41
567.03	46.81
567.19	63.19
567.36	28.09
567.52	4.68
567.68	7.02
567.85	14.04
568.01	14.04
568.17	51.49
568.34	0.00
568.50	51.49
568.66	0.00
568.83	14.04
568.99	79.58
569.15	25.75
569.32	32.77
569.48	88.94
569.64	88.94
569.81	25.75
569.97	46.81
570.13	58.51
570.30	84.26
570.46	60.85
570.62	37.45
570.78	56.17
570.95	79.58
571.11	102.98
571.27	28.09
571.43	14.04
571.60	86.60
571.76	65.54
571.92	39.79
572.09	18.72
572.25	42.13
572.41	35.11
572.57	49.15
572.74	32.77
572.90	49.15
573.06	42.13
573.22	16.38
573.38	14.04
573.55	0.00
573.71	98.30
573.87	98.30
574.03	25.75
574.20	44.47
574.36	0.00
574.52	35.11
574.68	60.85
574.84	67.88
575.01	0.00
575.17	28.09
575.33	11.70
575.49	7.02
575.65	51.49
575.82	42.13
575.98	100.64
576.14	16.38
576.30	37.45
576.46	53.83
576.62	42.13
576.79	72.56
576.95	32.77
577.11	30.43
577.27	77.24
577.43	161.50
577.59	72.56
577.75	100.64
577.92	56.17
578.08	42.13
578.24	56.17
578.40	46.81
578.56	74.90
578.72	95.96
578.88	23.41
579.04	44.47
579.21	32.77
579.37	60.85
579.53	32.77
579.69	56.17
579.85	60.85
580.01	60.85
580.17	0.00
580.33	0.00
580.49	140.43
580.65	53.83
580.82	14.04
580.98	9.36
581.14	0.00
581.30	39.79
581.46	30.43
581.62	44.47
581.78	70.22
581.94	32.77
582.10	51.49
582.26	72.56
582.42	2.34
582.58	28.09
582.74	42.13
582.90	18.72
583.06	91.28
583.22	49.15
583.38	102.98
583.54	95.96
583.70	86.60
583.86	56.17
584.02	7.02
584.18	35.11
584.34	124.05
584.50	58.51
584.66	72.56
584.82	84.26
584.98	42.13
585.14	72.56
585.30	30.43
585.46	21.06
585.62	23.41
585.78	0.00
585.94	121.71
586.10	100.64
586.26	30.43
586.42	72.56
586.58	51.49
586.74	0.00
586.90	32.77
587.06	0.00
587.22	25.75
587.38	91.28
587.54	67.88
587.70	32.77
587.86	65.54
588.02	30.43
588.18	46.81
588.34	58.51
588.49	67.88
588.65	46.81
588.81	32.77
588.97	30.43
589.13	72.56
589.29	25.75
589.45	58.51
589.61	0.00
589.77	112.35
589.93	53.83
590.08	63.19
590.24	44.47
590.40	14.04
590.56	49.15
590.72	0.00
590.88	46.81
591.04	88.94
591.20	63.19
591.35	95.96
591.51	21.06
591.67	95.96
591.83	0.00
591.99	42.13
592.15	30.43
592.31	56.17
592.46	107.66
592.62	79.58
592.78	149.79
592.94	28.09
593.10	0.00
593.26	77.24
593.41	35.11
593.57	65.54
593.73	25.75
593.89	37.45
594.05	18.72
594.20	42.13
594.36	63.19
594.52	107.66
594.68	35.11
594.84	58.51
594.99	72.56
595.15	0.00
595.31	46.81
595.47	49.15
595.62	79.58
595.78	53.83
595.94	18.72
596.10	9.36
596.25	14.04
596.41	0.00
596.57	0.00
596.73	9.36
596.88	49.15
597.04	91.28
597.20	81.92
597.36	56.17
597.51	35.11
597.67	42.13
597.83	0.00
597.99	7.02
598.14	49.15
598.30	32.77
598.46	46.81
598.61	46.81
598.77	72.56
598.93	81.92
599.09	23.41
599.24	49.15
599.40	86.60
599.56	65.54
599.71	35.11
599.87	60.85
600.03	95.96
600.18	81.92
600.34	0.00
600.50	42.13
600.65	42.13
600.81	46.81
600.97	77.24
601.12	91.28
601.28	112.35
601.44	100.64
601.59	88.94
601.75	117.03
601.91	65.54
602.06	86.60
602.22	4.68
602.37	0.00
602.53	39.79
602.69	51.49
602.84	72.56
603.00	100.64
603.16	0.00
603.31	84.26
603.47	105.32
603.62	74.90
603.78	0.00
603.94	21.06
604.09	117.03
604.25	46.81
604.40	39.79
604.56	7.02
604.71	100.64
604.87	67.88
605.03	0.00
605.18	65.54
605.34	39.79
605.49	0.00
605.65	0.00
605.80	91.28
605.96	23.41
606.12	39.79
606.27	65.54
606.43	53.83
606.58	44.47
606.74	51.49
606.89	0.00
607.05	46.81
607.20	147.45
607.36	42.13
607.51	11.70
607.67	7.02
607.82	131.07
607.98	88.94
608.13	70.22
608.29	102.98
608.44	53.83
608.60	72.56
608.75	74.90
608.91	23.41
609.06	23.41
609.22	53.83
609.37	65.54
609.53	44.47
609.68	0.00
609.84	0.00
609.99	37.45
610.15	65.54
610.30	16.38
610.46	65.54
610.61	77.24
610.76	32.77
610.92	28.09
611.07	25.75
611.23	0.00
611.38	0.00
611.54	42.13
611.69	0.00
611.84	14.04
612.00	119.37
612.15	67.88
612.31	0.00
612.46	77.24
612.62	39.79
612.77	9.36
612.92	65.54
613.08	28.09
613.23	46.81
613.39	74.90
613.54	7.02
613.69	49.15
613.85	28.09
614.00	21.06
614.15	0.00
614.31	79.58
614.46	133.41
614.62	11.70
614.77	4.68
614.92	79.58
615.08	65.54
615.23	44.47
615.38	79.58
615.54	35.11
615.69	30.43
615.84	79.58
616.00	135.75
616.15	21.06
616.30	0.00
616.46	0.00
616.61	14.04
616.76	44.47
616.92	74.90
617.07	51.49
617.22	21.06
617.37	63.19
617.53	79.58
617.68	30.43
617.83	0.00
617.99	2.34
618.14	32.77
618.29	32.77
618.45	49.15
618.60	25.75
618.75	0.00
618.90	39.79
619.06	0.00
619.21	25.75
619.36	128.73
619.51	4.68
619.67	4.68
619.82	65.54
619.97	9.36
620.12	51.49
620.28	67.88
620.43	131.07
620.58	0.00
620.73	51.49
620.89	44.47
621.04	9.36
621.19	32.77
621.34	0.00
621.49	79.58
621.65	7.02
621.80	84.26
621.95	100.64
622.10	126.39
622.25	0.00
622.41	0.00
622.56	88.94
622.71	23.41
622.86	18.72
623.01	58.51
623.16	79.58
623.32	56.17
623.47	72.56
623.62	58.51
623.77	51.49
623.92	51.49
624.07	88.94
624.23	2.34
624.38	84.26
624.53	0.00
624.68	53.83
624.83	9.36
624.98	21.06
625.13	88.94
625.29	30.43
625.44	124.05
625.59	0.00
625.74	84.26
625.89	39.79
626.04	23.41
626.19	37.45
626.34	14.04
626.49	140.43
626.65	11.70
626.80	9.36
626.95	95.96
627.10	67.88
627.25	72.56
627.40	58.51
627.55	0.00
627.70	84.26
627.85	16.38
628.00	32.77
628.15	72.56
628.30	72.56
628.45	32.77
628.60	58.51
628.76	72.56
628.91	51.49
629.06	63.19
629.21	0.00
629.36	81.92
629.51	37.45
629.66	28.09
629.81	0.00
629.96	25.75
630.11	39.79
630.26	14.04
630.41	102.98
630.56	0.00
630.71	63.19
630.86	0.00
631.01	81.92
631.16	16.38
631.31	28.09
631.46	21.06
631.61	0.00
631.76	23.41
631.91	60.85
632.06	53.83
632.21	30.43
632.36	79.58
632.51	46.81
632.66	23.41
632.81	0.00
632.96	72.56
633.10	30.43
633.25	16.38
633.40	70.22
633.55	7.02
633.70	11.70
633.85	0.00
634.00	7.02
634.15	46.81
634.30	56.17
634.45	25.75
634.60	53.83
634.75	0.00
634.90	53.83
635.05	0.00
635.19	42.13
635.34	60.85
635.49	91.28
635.64	0.00
635.79	138.09
635.94	58.51
636.09	105.32
636.24	63.19
636.39	0.00
636.53	105.32
636.68	0.00
636.83	51.49
636.98	56.17
637.13	67.88
637.28	67.88
637.43	51.49
637.57	0.00
637.72	21.06
637.87	0.00
638.02	74.90
638.17	88.94
638.32	0.00
638.46	88.94
638.61	0.00
638.76	93.62
638.91	11.70
639.06	44.47
639.20	21.06
639.35	60.85
639.50	110.01
639.65	60.85
639.80	37.45
639.94	0.00
640.09	0.00
640.24	32.77
640.39	14.04
640.54	63.19
640.68	67.88
640.83	0.00
640.98	0.00
641.13	56.17
641.27	0.00
641.42	56.17
641.57	60.85
641.72	58.51
641.86	25.75
642.01	56.17
642.16	46.81
642.31	86.60
642.45	4.68
642.60	42.13
642.75	11.70
642.90	112.35
643.04	58.51
643.19	0.00
643.34	105.32
643.48	46.81
643.63	70.22
643.78	25.75
643.93	91.28
644.07	37.45
644.22	35.11
644.37	79.58
644.51	100.64
644.66	21.06
644.81	117.03
644.95	72.56
645.10	0.00
645.25	25.75
645.39	32.77
645.54	14.04
645.69	67.88
645.83	25.75
645.98	49.15
646.13	56.17
646.27	4.68
646.42	2.34
646.57	93.62
646.71	49.15
646.86	56.17
647.00	152.13
647.15	21.06
647.30	49.15
647.44	35.11
647.59	114.69
647.74	0.00
647.88	49.15
648.03	49.15
648.17	16.38
648.32	18.72
648.47	14.04
648.61	88.94
648.76	14.04
648.90	79.58
649.05	0.00
649.20	119.37
649.34	70.22
649.49	53.83
649.63	65.54
649.78	63.19
649.92	107.66
650.07	35.11
650.21	32.77
650.36	18.72
650.51	4.68
650.65	72.56
650.80	25.75
650.94	93.62
651.09	58.51
651.23	56.17
651.38	0.00
651.52	49.15
651.67	161.50
651.81	14.04
651.96	18.72
652.10	49.15
652.25	49.15
652.39	18.72
652.54	35.11
652.68	39.79
652.83	0.00
652.97	7.02
653.12	42.13
653.26	39.79
653.41	9.36
653.55	39.79
653.70	18.72
653.84	30.43
653.99	0.00
654.13	4.68
654.27	58.51
654.42	21.06
654.56	53.83
654.71	49.15
654.85	0.00
655.00	72.56
655.14	30.43
655.29	7.02
655.43	39.79
655.57	63.19
655.72	100.64
655.86	93.62
656.01	105.32
656.15	37.45
656.30	11.70
656.44	100.64
656.58	51.49
656.73	53.83
656.87	46.81
657.01	46.81
657.16	51.49
657.30	23.41
657.45	60.85
657.59	49.15
657.73	81.92
657.88	0.00
658.02	70.22
658.16	0.00
658.31	51.49
658.45	0.00
658.60	100.64
658.74	35.11
658.88	60.85
659.03	46.81
659.17	95.96
659.31	60.85
659.46	11.70
659.60	0.00
659.74	37.45
659.89	60.85
660.03	14.04
660.17	42.13
660.32	46.81
660.46	91.28
660.60	32.77
660.74	30.43
660.89	0.00
661.03	63.19
661.17	58.51
661.32	0.00
661.46	0.00
661.60	53.83
661.74	88.94
661.89	58.51
662.03	51.49
662.17	63.19
662.31	35.11
662.46	11.70
662.60	42.13
662.74	32.77
662.88	0.00
663.03	98.30
663.17	58.51
663.31	0.00
663.45	42.13
663.60	46.81
663.74	42.13
663.88	21.06
664.02	79.58
664.17	23.41
664.31	37.45
664.45	37.45
664.59	72.56
664.73	4.68
664.88	30.43
665.02	65.54
665.16	0.00
665.30	95.96
665.44	42.13
665.59	0.00
665.73	35.11
665.87	60.85
666.01	0.00
666.15	39.79
666.29	4.68
666.44	0.00
666.58	112.35
666.72	0.00
666.86	4.68
667.00	2.34
667.14	63.19
667.28	14.04
667.43	39.79
667.57	84.26
667.71	28.09
667.85	56.17
667.99	56.17
668.13	44.47
668.27	7.02
668.41	9.36
668.56	7.02
668.70	51.49
668.84	2.34
668.98	70.22
669.12	46.81
669.26	42.13
669.40	30.43
669.54	70.22
669.68	74.90
669.82	79.58
669.96	0.00
670.10	0.00
670.25	46.81
670.39	32.77
670.53	0.00
670.67	88.94
670.81	88.94
670.95	42.13
671.09	21.06
671.23	14.04
671.37	0.00
671.51	67.88
671.65	63.19
671.79	60.85
671.93	56.17
672.07	67.88
672.21	11.70
672.35	16.38
672.49	11.70
672.63	28.09
672.77	81.92
672.91	67.88
673.05	86.60
673.19	67.88
673.33	39.79
673.47	49.15
673.61	77.24
673.75	4.68
673.89	9.36
674.03	70.22
674.17	72.56
674.31	91.28
674.45	4.68
674.59	0.00
674.73	4.68
674.87	0.00
675.01	9.36
675.15	14.04
675.29	0.00
675.43	86.60
675.56	25.75
675.70	11.70
675.84	56.17
675.98	86.60
676.12	65.54
676.26	46.81
676.40	14.04
676.54	16.38
676.68	21.06
676.82	2.34
676.96	0.00
677.10	28.09
677.23	46.81
677.37	0.00
677.51	35.11
677.65	105.32
677.79	30.43
677.93	51.49
678.07	16.38
678.21	93.62
678.34	7.02
678.48	44.47
678.62	79.58
678.76	51.49
678.90	14.04
679.04	46.81
679.18	0.00
679.31	32.77
679.45	81.92
679.59	88.94
679.73	28.09
679.87	0.00
680.00	16.38
680.14	58.51
680.28	16.38
680.42	30.43
680.56	30.43
680.70	11.70
680.83	0.00
680.97	42.13
681.11	0.00
681.25	16.38
681.39	91.28
681.52	65.54
681.66	110.01
681.80	58.51
681.94	30.43
682.07	84.26
682.21	35.11
682.35	9.36
682.49	0.00
682.62	0.00
682.76	53.83
682.90	30.43
683.04	28.09
683.17	67.88
683.31	28.09
683.45	60.85
683.59	58.51
683.72	46.81
683.86	37.45
684.00	100.64
684.13	14.04
684.27	32.77
684.41	9.36
684.55	0.00
684.68	0.00
684.82	7.02
684.96	100.64
685.09	65.54
685.23	23.41
685.37	86.60
685.50	39.79
685.64	2.34
685.78	84.26
685.91	70.22
686.05	60.85
686.19	49.15
686.32	11.70
686.46	51.49
686.60	0.00
686.73	65.54
686.87	77.24
687.01	16.38
687.14	0.00
687.28	0.00
687.42	42.13
687.55	79.58
687.69	44.47
687.82	86.60
687.96	105.32
688.10	49.15
688.23	56.17
688.37	58.51
688.50	44.47
688.64	60.85
688.78	0.00
688.91	42.13
689.05	18.72
689.18	16.38
689.32	18.72
689.46	0.00
689.59	42.13
689.73	9.36
689.86	84.26
690.00	44.47
690.13	0.00
690.27	88.94
690.41	60.85
690.54	77.24
690.68	16.38
690.81	28.09
690.95	23.41
691.08	0.00
691.22	49.15
691.35	28.09
691.49	0.00
691.62	28.09
691.76	0.00
691.89	0.00
692.03	35.11
692.16	32.77
692.30	0.00
692.43	23.41
692.57	25.75
692.70	65.54
692.84	56.17
692.97	0.00
693.11	7.02
693.24	0.00
693.38	117.03
693.51	74.90
693.65	23.41
693.78	60.85
693.92	46.81
694.05	93.62
694.19	30.43
694.32	21.06
694.45	0.00
694.59	105.32
694.72	53.83
694.86	51.49
694.99	37.45
695.13	32.77
695.26	0.00
695.39	86.60
695.53	18.72
695.66	28.09
695.80	79.58
695.93	46.81
696.07	0.00
696.20	11.70
696.33	9.36
696.47	21.06
696.60	0.00
696.73	0.00
696.87	35.11
697.00	53.83
697.14	0.00
697.27	39.79
697.40	28.09
697.54	44.47
697.67	0.00
697.80	0.00
697.94	23.41
698.07	0.00
698.21	74.90
698.34	72.56
698.47	28.09
698.61	9.36
698.74	25.75
698.87	72.56
699.01	42.13
699.14	81.92
699.27	49.15
699.40	65.54
699.54	58.51
699.67	16.38
699.80	37.45
699.94	74.90
700.07	105.32
700.20	72.56
700.34	25.75
700.47	81.92
700.60	67.88
700.73	11.70
700.87	0.00
701.00	16.38
701.13	53.83
701.26	0.00
701.40	30.43
701.53	16.38
701.66	0.00
701.79	67.88
701.93	42.13
702.06	39.79
702.19	0.00
702.32	30.43
702.46	131.07
702.59	14.04
702.72	86.60
702.85	0.00
702.99	0.00
703.12	4.68
703.25	37.45
703.38	56.17
703.51	79.58
703.65	7.02
703.78	58.51
703.91	56.17
704.04	110.01
704.17	42.13
704.31	84.26
704.44	0.00
704.57	4.68
704.70	84.26
704.83	72.56
704.96	0.00
705.10	0.00
705.23	60.85
>>>>>End Processed Spectral Data<<<<<
