SpectraSuite Data File
++++++++++++++++++++++++++++++++++++
Date: Fri Oct 04 12:13:45 GMT-05:00 2013
User: price-jones
Dark Spectrum Present: No
Reference Spectrum Present: No
Number of Sampled Component Spectra: 1
Spectrometers: USB2+H05261
Integration Time (usec): 10000 (USB2+H05261)
Spectra Averaged: 1 (USB2+H05261)
Boxcar Smoothing: 0 (USB2+H05261)
Correct for Electrical Dark: No (USB2+H05261)
Strobe/Lamp Enabled: No (USB2+H05261)
Correct for Detector Non-linearity: No (USB2+H05261)
Correct for Stray Light: No (USB2+H05261)
Number of Pixels in Processed Spectrum: 2048
>>>>>Begin Processed Spectral Data<<<<<
365.73	107.66
365.92	107.66
366.12	107.66
366.32	0.00
366.52	0.00
366.72	0.00
366.91	0.00
367.11	0.00
367.31	0.00
367.51	0.00
367.70	0.00
367.90	0.00
368.10	0.00
368.30	0.00
368.49	0.00
368.69	0.00
368.89	0.00
369.09	0.00
369.28	0.00
369.48	0.00
369.68	0.00
369.87	0.00
370.07	0.00
370.27	0.00
370.47	0.00
370.66	0.00
370.86	0.00
371.06	0.00
371.25	32.77
371.45	0.00
371.65	105.32
371.84	0.00
372.04	25.75
372.24	0.00
372.44	23.41
372.63	0.00
372.83	0.00
373.03	25.75
373.22	21.06
373.42	49.15
373.62	25.75
373.81	0.00
374.01	102.98
374.21	23.41
374.40	0.00
374.60	23.41
374.79	86.60
374.99	56.17
375.19	0.00
375.38	39.79
375.58	70.22
375.78	39.79
375.97	0.00
376.17	14.04
376.37	37.45
376.56	0.00
376.76	63.19
376.95	42.13
377.15	72.56
377.35	0.00
377.54	42.13
377.74	16.38
377.93	84.26
378.13	28.09
378.33	9.36
378.52	0.00
378.72	0.00
378.91	0.00
379.11	100.64
379.31	32.77
379.50	0.00
379.70	0.00
379.89	0.00
380.09	53.83
380.28	72.56
380.48	0.00
380.68	0.00
380.87	63.19
381.07	84.26
381.26	4.68
381.46	67.88
381.65	16.38
381.85	79.58
382.04	7.02
382.24	14.04
382.43	0.00
382.63	0.00
382.83	11.70
383.02	0.00
383.22	63.19
383.41	60.85
383.61	21.06
383.80	49.15
384.00	63.19
384.19	28.09
384.39	0.00
384.58	44.47
384.78	0.00
384.97	0.00
385.17	44.47
385.36	16.38
385.56	44.47
385.75	70.22
385.95	0.00
386.14	30.43
386.34	0.00
386.53	2.34
386.72	35.11
386.92	25.75
387.11	133.41
387.31	42.13
387.50	93.62
387.70	7.02
387.89	51.49
388.09	23.41
388.28	70.22
388.48	0.00
388.67	0.00
388.86	18.72
389.06	58.51
389.25	21.06
389.45	53.83
389.64	0.00
389.84	117.03
390.03	0.00
390.22	28.09
390.42	70.22
390.61	16.38
390.81	2.34
391.00	0.00
391.19	42.13
391.39	74.90
391.58	58.51
391.78	14.04
391.97	67.88
392.16	0.00
392.36	0.00
392.55	0.00
392.75	0.00
392.94	21.06
393.13	49.15
393.33	32.77
393.52	42.13
393.71	0.00
393.91	0.00
394.10	44.47
394.29	51.49
394.49	14.04
394.68	11.70
394.88	18.72
395.07	23.41
395.26	81.92
395.46	9.36
395.65	23.41
395.84	35.11
396.04	77.24
396.23	0.00
396.42	0.00
396.62	53.83
396.81	32.77
397.00	0.00
397.19	58.51
397.39	60.85
397.58	46.81
397.77	51.49
397.97	18.72
398.16	28.09
398.35	39.79
398.55	2.34
398.74	56.17
398.93	0.00
399.12	25.75
399.32	18.72
399.51	77.24
399.70	11.70
399.90	53.83
400.09	37.45
400.28	0.00
400.47	98.30
400.67	0.00
400.86	32.77
401.05	0.00
401.24	9.36
401.44	11.70
401.63	42.13
401.82	21.06
402.01	21.06
402.21	25.75
402.40	39.79
402.59	0.00
402.78	49.15
402.97	18.72
403.17	56.17
403.36	56.17
403.55	14.04
403.74	72.56
403.93	65.54
404.13	58.51
404.32	0.00
404.51	0.00
404.70	74.90
404.89	21.06
405.09	53.83
405.28	46.81
405.47	2.34
405.66	23.41
405.85	30.43
406.05	28.09
406.24	65.54
406.43	30.43
406.62	7.02
406.81	16.38
407.00	39.79
407.20	0.00
407.39	7.02
407.58	32.77
407.77	14.04
407.96	58.51
408.15	11.70
408.34	23.41
408.54	46.81
408.73	18.72
408.92	16.38
409.11	39.79
409.30	32.77
409.49	25.75
409.68	35.11
409.87	35.11
410.07	32.77
410.26	16.38
410.45	23.41
410.64	49.15
410.83	42.13
411.02	0.00
411.21	93.62
411.40	114.69
411.59	28.09
411.78	7.02
411.98	58.51
412.17	30.43
412.36	93.62
412.55	0.00
412.74	0.00
412.93	67.88
413.12	0.00
413.31	53.83
413.50	32.77
413.69	28.09
413.88	0.00
414.07	39.79
414.26	70.22
414.45	28.09
414.64	77.24
414.83	60.85
415.02	98.30
415.22	67.88
415.41	0.00
415.60	56.17
415.79	18.72
415.98	16.38
416.17	42.13
416.36	32.77
416.55	53.83
416.74	28.09
416.93	0.00
417.12	70.22
417.31	23.41
417.50	107.66
417.69	93.62
417.88	70.22
418.07	32.77
418.26	2.34
418.45	9.36
418.64	30.43
418.83	0.00
419.02	4.68
419.21	32.77
419.39	18.72
419.58	67.88
419.77	7.02
419.96	14.04
420.15	114.69
420.34	77.24
420.53	30.43
420.72	65.54
420.91	88.94
421.10	23.41
421.29	0.00
421.48	4.68
421.67	0.00
421.86	4.68
422.05	0.00
422.24	95.96
422.43	0.00
422.61	0.00
422.80	21.06
422.99	11.70
423.18	0.00
423.37	37.45
423.56	70.22
423.75	21.06
423.94	74.90
424.13	91.28
424.32	30.43
424.50	2.34
424.69	42.13
424.88	16.38
425.07	4.68
425.26	42.13
425.45	70.22
425.64	42.13
425.83	0.00
426.01	44.47
426.20	0.00
426.39	7.02
426.58	11.70
426.77	18.72
426.96	53.83
427.15	21.06
427.33	67.88
427.52	0.00
427.71	100.64
427.90	32.77
428.09	30.43
428.28	117.03
428.46	46.81
428.65	0.00
428.84	42.13
429.03	105.32
429.22	23.41
429.40	81.92
429.59	0.00
429.78	28.09
429.97	0.00
430.16	11.70
430.34	4.68
430.53	46.81
430.72	44.47
430.91	28.09
431.10	74.90
431.28	56.17
431.47	28.09
431.66	65.54
431.85	14.04
432.03	0.00
432.22	32.77
432.41	4.68
432.60	58.51
432.79	32.77
432.97	70.22
433.16	37.45
433.35	42.13
433.54	0.00
433.72	2.34
433.91	77.24
434.10	16.38
434.28	0.00
434.47	32.77
434.66	28.09
434.85	0.00
435.03	35.11
435.22	81.92
435.41	9.36
435.59	0.00
435.78	28.09
435.97	7.02
436.16	60.85
436.34	72.56
436.53	0.00
436.72	60.85
436.90	32.77
437.09	72.56
437.28	72.56
437.46	0.00
437.65	0.00
437.84	30.43
438.02	72.56
438.21	35.11
438.40	35.11
438.58	7.02
438.77	42.13
438.96	44.47
439.14	46.81
439.33	16.38
439.52	23.41
439.70	42.13
439.89	30.43
440.08	35.11
440.26	0.00
440.45	0.00
440.63	63.19
440.82	9.36
441.01	60.85
441.19	0.00
441.38	74.90
441.57	9.36
441.75	0.00
441.94	23.41
442.12	77.24
442.31	93.62
442.50	65.54
442.68	0.00
442.87	16.38
443.05	81.92
443.24	63.19
443.43	58.51
443.61	37.45
443.80	0.00
443.98	49.15
444.17	70.22
444.35	14.04
444.54	93.62
444.73	86.60
444.91	0.00
445.10	0.00
445.28	0.00
445.47	65.54
445.65	53.83
445.84	0.00
446.02	51.49
446.21	11.70
446.39	23.41
446.58	74.90
446.77	14.04
446.95	37.45
447.14	39.79
447.32	0.00
447.51	42.13
447.69	110.01
447.88	74.90
448.06	37.45
448.25	0.00
448.43	72.56
448.62	58.51
448.80	21.06
448.99	0.00
449.17	63.19
449.36	88.94
449.54	46.81
449.73	58.51
449.91	49.15
450.10	60.85
450.28	51.49
450.46	44.47
450.65	56.17
450.83	4.68
451.02	39.79
451.20	0.00
451.39	110.01
451.57	21.06
451.76	42.13
451.94	0.00
452.13	0.00
452.31	32.77
452.49	53.83
452.68	58.51
452.86	0.00
453.05	63.19
453.23	37.45
453.42	21.06
453.60	16.38
453.78	70.22
453.97	72.56
454.15	49.15
454.34	72.56
454.52	9.36
454.70	74.90
454.89	0.00
455.07	0.00
455.26	72.56
455.44	114.69
455.62	39.79
455.81	30.43
455.99	21.06
456.17	84.26
456.36	110.01
456.54	100.64
456.73	35.11
456.91	93.62
457.09	65.54
457.28	32.77
457.46	46.81
457.64	51.49
457.83	60.85
458.01	0.00
458.19	37.45
458.38	86.60
458.56	65.54
458.74	53.83
458.93	53.83
459.11	4.68
459.29	0.00
459.48	28.09
459.66	98.30
459.84	37.45
460.03	72.56
460.21	49.15
460.39	0.00
460.57	11.70
460.76	23.41
460.94	74.90
461.12	65.54
461.31	37.45
461.49	28.09
461.67	16.38
461.85	2.34
462.04	72.56
462.22	110.01
462.40	46.81
462.59	11.70
462.77	46.81
462.95	28.09
463.13	14.04
463.32	53.83
463.50	72.56
463.68	16.38
463.86	67.88
464.05	79.58
464.23	56.17
464.41	0.00
464.59	23.41
464.78	32.77
464.96	4.68
465.14	11.70
465.32	63.19
465.50	0.00
465.69	30.43
465.87	60.85
466.05	25.75
466.23	74.90
466.41	39.79
466.60	42.13
466.78	67.88
466.96	32.77
467.14	21.06
467.32	0.00
467.51	25.75
467.69	0.00
467.87	74.90
468.05	16.38
468.23	44.47
468.41	25.75
468.60	25.75
468.78	51.49
468.96	60.85
469.14	63.19
469.32	74.90
469.50	60.85
469.69	100.64
469.87	14.04
470.05	88.94
470.23	7.02
470.41	25.75
470.59	93.62
470.77	105.32
470.95	93.62
471.14	65.54
471.32	25.75
471.50	42.13
471.68	53.83
471.86	28.09
472.04	0.00
472.22	51.49
472.40	16.38
472.58	4.68
472.77	49.15
472.95	0.00
473.13	86.60
473.31	51.49
473.49	58.51
473.67	16.38
473.85	4.68
474.03	56.17
474.21	42.13
474.39	88.94
474.57	14.04
474.75	63.19
474.93	0.00
475.12	0.00
475.30	0.00
475.48	0.00
475.66	51.49
475.84	23.41
476.02	7.02
476.20	49.15
476.38	23.41
476.56	42.13
476.74	0.00
476.92	93.62
477.10	63.19
477.28	0.00
477.46	114.69
477.64	25.75
477.82	18.72
478.00	79.58
478.18	32.77
478.36	2.34
478.54	0.00
478.72	35.11
478.90	46.81
479.08	77.24
479.26	39.79
479.44	0.00
479.62	98.30
479.80	86.60
479.98	77.24
480.16	0.00
480.34	18.72
480.52	0.00
480.70	56.17
480.88	30.43
481.06	63.19
481.24	0.00
481.41	49.15
481.59	37.45
481.77	72.56
481.95	91.28
482.13	16.38
482.31	53.83
482.49	0.00
482.67	72.56
482.85	30.43
483.03	0.00
483.21	28.09
483.39	42.13
483.57	70.22
483.74	39.79
483.92	53.83
484.10	21.06
484.28	35.11
484.46	51.49
484.64	126.39
484.82	86.60
485.00	79.58
485.18	98.30
485.35	42.13
485.53	0.00
485.71	63.19
485.89	0.00
486.07	14.04
486.25	51.49
486.43	2.34
486.61	46.81
486.78	0.00
486.96	0.00
487.14	16.38
487.32	53.83
487.50	105.32
487.68	77.24
487.85	100.64
488.03	74.90
488.21	65.54
488.39	37.45
488.57	25.75
488.75	21.06
488.92	98.30
489.10	46.81
489.28	107.66
489.46	42.13
489.64	112.35
489.81	4.68
489.99	37.45
490.17	0.00
490.35	100.64
490.53	14.04
490.70	46.81
490.88	0.00
491.06	39.79
491.24	11.70
491.41	60.85
491.59	0.00
491.77	0.00
491.95	0.00
492.13	0.00
492.30	42.13
492.48	46.81
492.66	0.00
492.84	16.38
493.01	32.77
493.19	0.00
493.37	65.54
493.54	65.54
493.72	0.00
493.90	16.38
494.08	0.00
494.25	46.81
494.43	25.75
494.61	23.41
494.79	25.75
494.96	65.54
495.14	51.49
495.32	2.34
495.49	79.58
495.67	28.09
495.85	77.24
496.02	60.85
496.20	11.70
496.38	0.00
496.55	16.38
496.73	28.09
496.91	60.85
497.09	9.36
497.26	60.85
497.44	88.94
497.62	44.47
497.79	117.03
497.97	70.22
498.14	117.03
498.32	37.45
498.50	14.04
498.67	51.49
498.85	35.11
499.03	58.51
499.20	18.72
499.38	93.62
499.56	133.41
499.73	0.00
499.91	0.00
500.08	98.30
500.26	28.09
500.44	35.11
500.61	28.09
500.79	58.51
500.97	46.81
501.14	16.38
501.32	25.75
501.49	70.22
501.67	77.24
501.84	93.62
502.02	60.85
502.20	49.15
502.37	63.19
502.55	49.15
502.72	0.00
502.90	35.11
503.07	0.00
503.25	37.45
503.43	74.90
503.60	0.00
503.78	72.56
503.95	95.96
504.13	35.11
504.30	84.26
504.48	112.35
504.65	46.81
504.83	72.56
505.01	58.51
505.18	35.11
505.36	105.32
505.53	58.51
505.71	86.60
505.88	37.45
506.06	105.32
506.23	79.58
506.41	84.26
506.58	30.43
506.76	18.72
506.93	39.79
507.11	49.15
507.28	46.81
507.46	44.47
507.63	67.88
507.81	72.56
507.98	42.13
508.16	119.37
508.33	65.54
508.50	102.98
508.68	42.13
508.85	21.06
509.03	91.28
509.20	58.51
509.38	28.09
509.55	35.11
509.73	4.68
509.90	14.04
510.08	0.00
510.25	72.56
510.42	58.51
510.60	14.04
510.77	79.58
510.95	81.92
511.12	53.83
511.30	86.60
511.47	100.64
511.64	91.28
511.82	7.02
511.99	60.85
512.17	63.19
512.34	39.79
512.51	95.96
512.69	102.98
512.86	77.24
513.04	100.64
513.21	0.00
513.38	39.79
513.56	72.56
513.73	81.92
513.90	30.43
514.08	0.00
514.25	142.77
514.43	124.05
514.60	46.81
514.77	72.56
514.95	0.00
515.12	67.88
515.29	0.00
515.47	25.75
515.64	4.68
515.81	77.24
515.99	51.49
516.16	28.09
516.33	23.41
516.51	18.72
516.68	0.00
516.85	39.79
517.03	0.00
517.20	37.45
517.37	0.00
517.54	7.02
517.72	77.24
517.89	23.41
518.06	0.00
518.24	93.62
518.41	74.90
518.58	30.43
518.75	70.22
518.93	74.90
519.10	37.45
519.27	98.30
519.45	65.54
519.62	44.47
519.79	42.13
519.96	77.24
520.14	0.00
520.31	84.26
520.48	53.83
520.65	0.00
520.83	16.38
521.00	58.51
521.17	16.38
521.34	37.45
521.52	88.94
521.69	67.88
521.86	46.81
522.03	39.79
522.20	0.00
522.38	56.17
522.55	39.79
522.72	0.00
522.89	63.19
523.07	46.81
523.24	77.24
523.41	2.34
523.58	86.60
523.75	112.35
523.92	79.58
524.10	0.00
524.27	49.15
524.44	0.00
524.61	79.58
524.78	51.49
524.96	95.96
525.13	16.38
525.30	74.90
525.47	0.00
525.64	77.24
525.81	72.56
525.98	30.43
526.16	4.68
526.33	32.77
526.50	28.09
526.67	46.81
526.84	23.41
527.01	35.11
527.18	46.81
527.36	56.17
527.53	9.36
527.70	0.00
527.87	145.11
528.04	0.00
528.21	72.56
528.38	63.19
528.55	58.51
528.72	25.75
528.89	11.70
529.07	112.35
529.24	77.24
529.41	81.92
529.58	119.37
529.75	42.13
529.92	65.54
530.09	91.28
530.26	88.94
530.43	70.22
530.60	70.22
530.77	86.60
530.94	51.49
531.11	72.56
531.28	44.47
531.46	72.56
531.63	35.11
531.80	0.00
531.97	60.85
532.14	135.75
532.31	37.45
532.48	21.06
532.65	39.79
532.82	77.24
532.99	23.41
533.16	114.69
533.33	58.51
533.50	23.41
533.67	0.00
533.84	37.45
534.01	23.41
534.18	28.09
534.35	56.17
534.52	77.24
534.69	63.19
534.86	32.77
535.03	0.00
535.20	105.32
535.37	35.11
535.54	51.49
535.71	0.00
535.88	0.00
536.05	32.77
536.22	35.11
536.38	14.04
536.55	51.49
536.72	60.85
536.89	53.83
537.06	2.34
537.23	93.62
537.40	23.41
537.57	72.56
537.74	4.68
537.91	0.00
538.08	72.56
538.25	2.34
538.42	74.90
538.59	30.43
538.75	84.26
538.92	35.11
539.09	86.60
539.26	11.70
539.43	14.04
539.60	70.22
539.77	65.54
539.94	79.58
540.11	32.77
540.28	0.00
540.44	25.75
540.61	37.45
540.78	14.04
540.95	44.47
541.12	0.00
541.29	53.83
541.46	72.56
541.62	42.13
541.79	67.88
541.96	9.36
542.13	77.24
542.30	49.15
542.47	28.09
542.63	25.75
542.80	21.06
542.97	39.79
543.14	42.13
543.31	0.00
543.48	65.54
543.64	88.94
543.81	51.49
543.98	16.38
544.15	65.54
544.32	88.94
544.48	11.70
544.65	42.13
544.82	65.54
544.99	65.54
545.16	56.17
545.32	70.22
545.49	107.66
545.66	35.11
545.83	39.79
546.00	11.70
546.16	0.00
546.33	95.96
546.50	9.36
546.67	0.00
546.83	114.69
547.00	91.28
547.17	14.04
547.34	23.41
547.50	128.73
547.67	0.00
547.84	37.45
548.00	14.04
548.17	72.56
548.34	16.38
548.51	37.45
548.67	56.17
548.84	70.22
549.01	42.13
549.18	95.96
549.34	51.49
549.51	112.35
549.68	44.47
549.84	30.43
550.01	32.77
550.18	58.51
550.34	37.45
550.51	14.04
550.68	23.41
550.84	28.09
551.01	0.00
551.18	7.02
551.34	53.83
551.51	21.06
551.68	145.11
551.84	88.94
552.01	79.58
552.18	86.60
552.34	25.75
552.51	70.22
552.68	32.77
552.84	121.71
553.01	49.15
553.18	7.02
553.34	37.45
553.51	42.13
553.67	18.72
553.84	32.77
554.01	0.00
554.17	0.00
554.34	58.51
554.51	79.58
554.67	39.79
554.84	28.09
555.00	23.41
555.17	60.85
555.33	102.98
555.50	88.94
555.67	77.24
555.83	28.09
556.00	74.90
556.16	93.62
556.33	11.70
556.50	44.47
556.66	0.00
556.83	67.88
556.99	63.19
557.16	35.11
557.32	0.00
557.49	0.00
557.65	65.54
557.82	32.77
557.98	95.96
558.15	74.90
558.32	126.39
558.48	102.98
558.65	88.94
558.81	23.41
558.98	14.04
559.14	7.02
559.31	14.04
559.47	100.64
559.64	121.71
559.80	124.05
559.97	84.26
560.13	0.00
560.30	58.51
560.46	51.49
560.63	88.94
560.79	56.17
560.96	30.43
561.12	51.49
561.29	93.62
561.45	42.13
561.61	11.70
561.78	60.85
561.94	72.56
562.11	0.00
562.27	91.28
562.44	72.56
562.60	23.41
562.77	25.75
562.93	70.22
563.10	9.36
563.26	79.58
563.42	98.30
563.59	49.15
563.75	70.22
563.92	39.79
564.08	30.43
564.24	9.36
564.41	42.13
564.57	79.58
564.74	44.47
564.90	58.51
565.07	105.32
565.23	44.47
565.39	77.24
565.56	30.43
565.72	37.45
565.88	21.06
566.05	65.54
566.21	0.00
566.38	23.41
566.54	39.79
566.70	117.03
566.87	0.00
567.03	21.06
567.19	56.17
567.36	37.45
567.52	74.90
567.68	58.51
567.85	0.00
568.01	58.51
568.17	124.05
568.34	11.70
568.50	25.75
568.66	88.94
568.83	46.81
568.99	37.45
569.15	32.77
569.32	77.24
569.48	0.00
569.64	119.37
569.81	65.54
569.97	0.00
570.13	35.11
570.30	25.75
570.46	72.56
570.62	49.15
570.78	0.00
570.95	14.04
571.11	42.13
571.27	63.19
571.43	23.41
571.60	58.51
571.76	23.41
571.92	25.75
572.09	0.00
572.25	9.36
572.41	32.77
572.57	0.00
572.74	32.77
572.90	84.26
573.06	37.45
573.22	0.00
573.38	100.64
573.55	44.47
573.71	107.66
573.87	70.22
574.03	14.04
574.20	18.72
574.36	72.56
574.52	0.00
574.68	0.00
574.84	21.06
575.01	0.00
575.17	67.88
575.33	0.00
575.49	72.56
575.65	28.09
575.82	0.00
575.98	84.26
576.14	7.02
576.30	37.45
576.46	39.79
576.62	39.79
576.79	46.81
576.95	18.72
577.11	56.17
577.27	9.36
577.43	77.24
577.59	0.00
577.75	72.56
577.92	25.75
578.08	0.00
578.24	25.75
578.40	2.34
578.56	53.83
578.72	79.58
578.88	58.51
579.04	67.88
579.21	7.02
579.37	18.72
579.53	46.81
579.69	21.06
579.85	44.47
580.01	53.83
580.17	70.22
580.33	0.00
580.49	126.39
580.65	21.06
580.82	39.79
580.98	51.49
581.14	0.00
581.30	32.77
581.46	14.04
581.62	46.81
581.78	35.11
581.94	11.70
582.10	79.58
582.26	0.00
582.42	56.17
582.58	105.32
582.74	77.24
582.90	49.15
583.06	18.72
583.22	23.41
583.38	102.98
583.54	124.05
583.70	42.13
583.86	30.43
584.02	98.30
584.18	18.72
584.34	14.04
584.50	32.77
584.66	72.56
584.82	58.51
584.98	21.06
585.14	28.09
585.30	63.19
585.46	84.26
585.62	74.90
585.78	39.79
585.94	63.19
586.10	84.26
586.26	58.51
586.42	0.00
586.58	0.00
586.74	67.88
586.90	2.34
587.06	42.13
587.22	72.56
587.38	28.09
587.54	84.26
587.70	60.85
587.86	30.43
588.02	9.36
588.18	51.49
588.34	32.77
588.49	51.49
588.65	25.75
588.81	72.56
588.97	56.17
589.13	42.13
589.29	46.81
589.45	30.43
589.61	72.56
589.77	14.04
589.93	65.54
590.08	37.45
590.24	25.75
590.40	0.00
590.56	112.35
590.72	37.45
590.88	91.28
591.04	77.24
591.20	67.88
591.35	30.43
591.51	46.81
591.67	0.00
591.83	0.00
591.99	112.35
592.15	42.13
592.31	46.81
592.46	18.72
592.62	67.88
592.78	0.00
592.94	0.00
593.10	42.13
593.26	14.04
593.41	37.45
593.57	14.04
593.73	32.77
593.89	37.45
594.05	65.54
594.20	0.00
594.36	35.11
594.52	81.92
594.68	46.81
594.84	51.49
594.99	93.62
595.15	42.13
595.31	77.24
595.47	100.64
595.62	49.15
595.78	16.38
595.94	42.13
596.10	86.60
596.25	0.00
596.41	35.11
596.57	44.47
596.73	14.04
596.88	72.56
597.04	32.77
597.20	39.79
597.36	0.00
597.51	32.77
597.67	18.72
597.83	11.70
597.99	7.02
598.14	93.62
598.30	7.02
598.46	18.72
598.61	4.68
598.77	91.28
598.93	42.13
599.09	32.77
599.24	25.75
599.40	86.60
599.56	30.43
599.71	49.15
599.87	56.17
600.03	91.28
600.18	25.75
600.34	0.00
600.50	0.00
600.65	56.17
600.81	56.17
600.97	0.00
601.12	0.00
601.28	0.00
601.44	0.00
601.59	25.75
601.75	28.09
601.91	9.36
602.06	51.49
602.22	11.70
602.37	0.00
602.53	0.00
602.69	49.15
602.84	63.19
603.00	98.30
603.16	58.51
603.31	156.82
603.47	18.72
603.62	63.19
603.78	46.81
603.94	30.43
604.09	51.49
604.25	23.41
604.40	114.69
604.56	44.47
604.71	72.56
604.87	95.96
605.03	46.81
605.18	74.90
605.34	86.60
605.49	0.00
605.65	30.43
605.80	84.26
605.96	0.00
606.12	32.77
606.27	56.17
606.43	72.56
606.58	37.45
606.74	4.68
606.89	77.24
607.05	65.54
607.20	23.41
607.36	126.39
607.51	0.00
607.67	60.85
607.82	35.11
607.98	70.22
608.13	60.85
608.29	56.17
608.44	46.81
608.60	58.51
608.75	42.13
608.91	30.43
609.06	67.88
609.22	63.19
609.37	37.45
609.53	0.00
609.68	114.69
609.84	18.72
609.99	58.51
610.15	46.81
610.30	93.62
610.46	53.83
610.61	0.00
610.76	58.51
610.92	35.11
611.07	51.49
611.23	7.02
611.38	35.11
611.54	49.15
611.69	37.45
611.84	63.19
612.00	107.66
612.15	37.45
612.31	72.56
612.46	0.00
612.62	32.77
612.77	67.88
612.92	46.81
613.08	58.51
613.23	128.73
613.39	42.13
613.54	81.92
613.69	35.11
613.85	53.83
614.00	39.79
614.15	53.83
614.31	58.51
614.46	88.94
614.62	21.06
614.77	63.19
614.92	95.96
615.08	35.11
615.23	16.38
615.38	25.75
615.54	117.03
615.69	95.96
615.84	42.13
616.00	98.30
616.15	51.49
616.30	42.13
616.46	93.62
616.61	11.70
616.76	4.68
616.92	9.36
617.07	23.41
617.22	21.06
617.37	53.83
617.53	44.47
617.68	53.83
617.83	58.51
617.99	11.70
618.14	37.45
618.29	35.11
618.45	117.03
618.60	9.36
618.75	100.64
618.90	49.15
619.06	138.09
619.21	16.38
619.36	0.00
619.51	56.17
619.67	0.00
619.82	56.17
619.97	7.02
620.12	86.60
620.28	46.81
620.43	63.19
620.58	39.79
620.73	37.45
620.89	0.00
621.04	65.54
621.19	4.68
621.34	0.00
621.49	112.35
621.65	25.75
621.80	105.32
621.95	53.83
622.10	16.38
622.25	7.02
622.41	51.49
622.56	58.51
622.71	4.68
622.86	39.79
623.01	0.00
623.16	42.13
623.32	60.85
623.47	49.15
623.62	23.41
623.77	53.83
623.92	28.09
624.07	21.06
624.23	102.98
624.38	81.92
624.53	53.83
624.68	28.09
624.83	65.54
624.98	42.13
625.13	32.77
625.29	39.79
625.44	98.30
625.59	53.83
625.74	16.38
625.89	67.88
626.04	70.22
626.19	4.68
626.34	67.88
626.49	16.38
626.65	70.22
626.80	0.00
626.95	25.75
627.10	21.06
627.25	60.85
627.40	110.01
627.55	67.88
627.70	30.43
627.85	53.83
628.00	46.81
628.15	0.00
628.30	91.28
628.45	88.94
628.60	4.68
628.76	67.88
628.91	25.75
629.06	28.09
629.21	44.47
629.36	35.11
629.51	77.24
629.66	58.51
629.81	4.68
629.96	46.81
630.11	56.17
630.26	7.02
630.41	7.02
630.56	25.75
630.71	9.36
630.86	14.04
631.01	58.51
631.16	60.85
631.31	25.75
631.46	35.11
631.61	100.64
631.76	42.13
631.91	42.13
632.06	4.68
632.21	7.02
632.36	79.58
632.51	67.88
632.66	49.15
632.81	14.04
632.96	81.92
633.10	58.51
633.25	58.51
633.40	37.45
633.55	18.72
633.70	58.51
633.85	28.09
634.00	51.49
634.15	16.38
634.30	56.17
634.45	25.75
634.60	21.06
634.75	67.88
634.90	7.02
635.05	65.54
635.19	4.68
635.34	28.09
635.49	39.79
635.64	4.68
635.79	81.92
635.94	60.85
636.09	0.00
636.24	74.90
636.39	74.90
636.53	4.68
636.68	39.79
636.83	0.00
636.98	2.34
637.13	60.85
637.28	63.19
637.43	95.96
637.57	53.83
637.72	60.85
637.87	58.51
638.02	0.00
638.17	105.32
638.32	49.15
638.46	0.00
638.61	65.54
638.76	77.24
638.91	39.79
639.06	51.49
639.20	51.49
639.35	53.83
639.50	39.79
639.65	81.92
639.80	4.68
639.94	74.90
640.09	35.11
640.24	0.00
640.39	18.72
640.54	60.85
640.68	25.75
640.83	46.81
640.98	65.54
641.13	35.11
641.27	58.51
641.42	0.00
641.57	56.17
641.72	35.11
641.86	0.00
642.01	44.47
642.16	16.38
642.31	74.90
642.45	0.00
642.60	60.85
642.75	0.00
642.90	18.72
643.04	65.54
643.19	65.54
643.34	0.00
643.48	74.90
643.63	65.54
643.78	16.38
643.93	56.17
644.07	25.75
644.22	0.00
644.37	88.94
644.51	30.43
644.66	11.70
644.81	53.83
644.95	65.54
645.10	28.09
645.25	105.32
645.39	32.77
645.54	49.15
645.69	9.36
645.83	65.54
645.98	16.38
646.13	84.26
646.27	102.98
646.42	2.34
646.57	23.41
646.71	67.88
646.86	72.56
647.00	32.77
647.15	9.36
647.30	79.58
647.44	44.47
647.59	14.04
647.74	37.45
647.88	42.13
648.03	65.54
648.17	16.38
648.32	42.13
648.47	114.69
648.61	7.02
648.76	121.71
648.90	67.88
649.05	49.15
649.20	0.00
649.34	42.13
649.49	0.00
649.63	58.51
649.78	46.81
649.92	16.38
650.07	0.00
650.21	0.00
650.36	86.60
650.51	25.75
650.65	25.75
650.80	16.38
650.94	56.17
651.09	23.41
651.23	51.49
651.38	42.13
651.52	0.00
651.67	93.62
651.81	0.00
651.96	72.56
652.10	23.41
652.25	49.15
652.39	63.19
652.54	42.13
652.68	37.45
652.83	32.77
652.97	84.26
653.12	0.00
653.26	11.70
653.41	74.90
653.55	0.00
653.70	72.56
653.84	93.62
653.99	49.15
654.13	77.24
654.27	32.77
654.42	79.58
654.56	30.43
654.71	0.00
654.85	107.66
655.00	0.00
655.14	23.41
655.29	53.83
655.43	98.30
655.57	0.00
655.72	65.54
655.86	30.43
656.01	16.38
656.15	44.47
656.30	67.88
656.44	7.02
656.58	16.38
656.73	0.00
656.87	4.68
657.01	58.51
657.16	28.09
657.30	56.17
657.45	51.49
657.59	0.00
657.73	0.00
657.88	95.96
658.02	112.35
658.16	4.68
658.31	30.43
658.45	44.47
658.60	46.81
658.74	93.62
658.88	16.38
659.03	0.00
659.17	98.30
659.31	49.15
659.46	21.06
659.60	11.70
659.74	42.13
659.89	102.98
660.03	95.96
660.17	4.68
660.32	9.36
660.46	133.41
660.60	37.45
660.74	0.00
660.89	46.81
661.03	0.00
661.17	77.24
661.32	0.00
661.46	84.26
661.60	102.98
661.74	84.26
661.89	0.00
662.03	77.24
662.17	95.96
662.31	56.17
662.46	30.43
662.60	39.79
662.74	46.81
662.88	67.88
663.03	51.49
663.17	60.85
663.31	0.00
663.45	58.51
663.60	95.96
663.74	0.00
663.88	42.13
664.02	39.79
664.17	72.56
664.31	102.98
664.45	0.00
664.59	0.00
664.73	21.06
664.88	49.15
665.02	9.36
665.16	2.34
665.30	0.00
665.44	37.45
665.59	21.06
665.73	44.47
665.87	67.88
666.01	32.77
666.15	16.38
666.29	44.47
666.44	0.00
666.58	39.79
666.72	28.09
666.86	30.43
667.00	60.85
667.14	98.30
667.28	65.54
667.43	56.17
667.57	46.81
667.71	30.43
667.85	72.56
667.99	28.09
668.13	67.88
668.27	70.22
668.41	56.17
668.56	16.38
668.70	30.43
668.84	35.11
668.98	56.17
669.12	23.41
669.26	63.19
669.40	70.22
669.54	56.17
669.68	44.47
669.82	86.60
669.96	11.70
670.10	30.43
670.25	0.00
670.39	0.00
670.53	14.04
670.67	46.81
670.81	28.09
670.95	39.79
671.09	23.41
671.23	53.83
671.37	56.17
671.51	37.45
671.65	91.28
671.79	37.45
671.93	53.83
672.07	53.83
672.21	25.75
672.35	25.75
672.49	39.79
672.63	95.96
672.77	32.77
672.91	63.19
673.05	117.03
673.19	39.79
673.33	70.22
673.47	0.00
673.61	77.24
673.75	84.26
673.89	53.83
674.03	42.13
674.17	0.00
674.31	156.82
674.45	0.00
674.59	4.68
674.73	0.00
674.87	18.72
675.01	2.34
675.15	0.00
675.29	74.90
675.43	0.00
675.56	18.72
675.70	51.49
675.84	0.00
675.98	51.49
676.12	46.81
676.26	39.79
676.40	0.00
676.54	72.56
676.68	0.00
676.82	7.02
676.96	56.17
677.10	79.58
677.23	70.22
677.37	74.90
677.51	0.00
677.65	35.11
677.79	37.45
677.93	58.51
678.07	25.75
678.21	30.43
678.34	44.47
678.48	0.00
678.62	0.00
678.76	35.11
678.90	53.83
679.04	32.77
679.18	28.09
679.31	107.66
679.45	7.02
679.59	53.83
679.73	58.51
679.87	9.36
680.00	23.41
680.14	79.58
680.28	30.43
680.42	11.70
680.56	39.79
680.70	60.85
680.83	2.34
680.97	42.13
681.11	25.75
681.25	72.56
681.39	0.00
681.52	7.02
681.66	51.49
681.80	14.04
681.94	63.19
682.07	56.17
682.21	23.41
682.35	58.51
682.49	37.45
682.62	0.00
682.76	51.49
682.90	21.06
683.04	42.13
683.17	4.68
683.31	65.54
683.45	91.28
683.59	105.32
683.72	28.09
683.86	112.35
684.00	30.43
684.13	16.38
684.27	28.09
684.41	14.04
684.55	0.00
684.68	65.54
684.82	72.56
684.96	7.02
685.09	25.75
685.23	51.49
685.37	44.47
685.50	16.38
685.64	74.90
685.78	32.77
685.91	67.88
686.05	95.96
686.19	44.47
686.32	84.26
686.46	23.41
686.60	30.43
686.73	60.85
686.87	49.15
687.01	28.09
687.14	25.75
687.28	0.00
687.42	2.34
687.55	0.00
687.69	86.60
687.82	100.64
687.96	0.00
688.10	16.38
688.23	0.00
688.37	0.00
688.50	124.05
688.64	70.22
688.78	39.79
688.91	79.58
689.05	0.00
689.18	21.06
689.32	0.00
689.46	60.85
689.59	16.38
689.73	53.83
689.86	0.00
690.00	49.15
690.13	9.36
690.27	46.81
690.41	74.90
690.54	14.04
690.68	11.70
690.81	16.38
690.95	0.00
691.08	28.09
691.22	53.83
691.35	98.30
691.49	21.06
691.62	60.85
691.76	2.34
691.89	7.02
692.03	53.83
692.16	35.11
692.30	42.13
692.43	0.00
692.57	44.47
692.70	11.70
692.84	23.41
692.97	56.17
693.11	0.00
693.24	37.45
693.38	4.68
693.51	28.09
693.65	102.98
693.78	58.51
693.92	21.06
694.05	25.75
694.19	39.79
694.32	0.00
694.45	58.51
694.59	14.04
694.72	0.00
694.86	25.75
694.99	0.00
695.13	74.90
695.26	58.51
695.39	0.00
695.53	23.41
695.66	0.00
695.80	39.79
695.93	56.17
696.07	23.41
696.20	30.43
696.33	44.47
696.47	39.79
696.60	2.34
696.73	70.22
696.87	18.72
697.00	95.96
697.14	0.00
697.27	7.02
697.40	0.00
697.54	0.00
697.67	16.38
697.80	37.45
697.94	49.15
698.07	39.79
698.21	32.77
698.34	0.00
698.47	23.41
698.61	28.09
698.74	0.00
698.87	102.98
699.01	0.00
699.14	2.34
699.27	117.03
699.40	0.00
699.54	25.75
699.67	23.41
699.80	23.41
699.94	72.56
700.07	65.54
700.20	18.72
700.34	9.36
700.47	0.00
700.60	35.11
700.73	11.70
700.87	37.45
701.00	7.02
701.13	21.06
701.26	53.83
701.40	16.38
701.53	18.72
701.66	65.54
701.79	0.00
701.93	67.88
702.06	81.92
702.19	58.51
702.32	30.43
702.46	11.70
702.59	21.06
702.72	32.77
702.85	23.41
702.99	18.72
703.12	74.90
703.25	65.54
703.38	107.66
703.51	95.96
703.65	28.09
703.78	0.00
703.91	9.36
704.04	14.04
704.17	32.77
704.31	0.00
704.44	56.17
704.57	0.00
704.70	23.41
704.83	25.75
704.96	0.00
705.10	0.00
705.23	21.06
>>>>>End Processed Spectral Data<<<<<
