SpectraSuite Data File
++++++++++++++++++++++++++++++++++++
Date: Fri Oct 04 12:13:38 GMT-05:00 2013
User: price-jones
Dark Spectrum Present: No
Reference Spectrum Present: No
Number of Sampled Component Spectra: 1
Spectrometers: USB2+H05261
Integration Time (usec): 10000 (USB2+H05261)
Spectra Averaged: 1 (USB2+H05261)
Boxcar Smoothing: 0 (USB2+H05261)
Correct for Electrical Dark: No (USB2+H05261)
Strobe/Lamp Enabled: No (USB2+H05261)
Correct for Detector Non-linearity: No (USB2+H05261)
Correct for Stray Light: No (USB2+H05261)
Number of Pixels in Processed Spectrum: 2048
>>>>>Begin Processed Spectral Data<<<<<
365.73	46.81
365.92	46.81
366.12	46.81
366.32	0.00
366.52	0.00
366.72	0.00
366.91	0.00
367.11	0.00
367.31	0.00
367.51	0.00
367.70	0.00
367.90	0.00
368.10	0.00
368.30	0.00
368.49	0.00
368.69	0.00
368.89	0.00
369.09	0.00
369.28	0.00
369.48	0.00
369.68	0.00
369.87	0.00
370.07	0.00
370.27	0.00
370.47	0.00
370.66	0.00
370.86	0.00
371.06	0.00
371.25	0.00
371.45	0.00
371.65	23.41
371.84	28.09
372.04	7.02
372.24	65.54
372.44	39.79
372.63	28.09
372.83	0.00
373.03	32.77
373.22	42.13
373.42	32.77
373.62	72.56
373.81	7.02
374.01	7.02
374.21	18.72
374.40	39.79
374.60	18.72
374.79	0.00
374.99	0.00
375.19	84.26
375.38	126.39
375.58	46.81
375.78	51.49
375.97	39.79
376.17	63.19
376.37	44.47
376.56	60.85
376.76	100.64
376.95	0.00
377.15	0.00
377.35	2.34
377.54	58.51
377.74	11.70
377.93	9.36
378.13	44.47
378.33	9.36
378.52	23.41
378.72	30.43
378.91	32.77
379.11	35.11
379.31	42.13
379.50	65.54
379.70	60.85
379.89	9.36
380.09	16.38
380.28	0.00
380.48	28.09
380.68	37.45
380.87	0.00
381.07	23.41
381.26	32.77
381.46	11.70
381.65	0.00
381.85	25.75
382.04	35.11
382.24	28.09
382.43	25.75
382.63	16.38
382.83	11.70
383.02	126.39
383.22	7.02
383.41	51.49
383.61	0.00
383.80	84.26
384.00	14.04
384.19	9.36
384.39	0.00
384.58	44.47
384.78	65.54
384.97	60.85
385.17	0.00
385.36	35.11
385.56	9.36
385.75	0.00
385.95	21.06
386.14	25.75
386.34	9.36
386.53	0.00
386.72	77.24
386.92	74.90
387.11	0.00
387.31	16.38
387.50	0.00
387.70	25.75
387.89	42.13
388.09	79.58
388.28	65.54
388.48	0.00
388.67	9.36
388.86	39.79
389.06	16.38
389.25	0.00
389.45	95.96
389.64	16.38
389.84	93.62
390.03	79.58
390.22	37.45
390.42	91.28
390.61	39.79
390.81	0.00
391.00	9.36
391.19	11.70
391.39	2.34
391.58	14.04
391.78	30.43
391.97	23.41
392.16	0.00
392.36	107.66
392.55	4.68
392.75	44.47
392.94	93.62
393.13	53.83
393.33	0.00
393.52	58.51
393.71	0.00
393.91	32.77
394.10	11.70
394.29	4.68
394.49	16.38
394.68	49.15
394.88	70.22
395.07	35.11
395.26	32.77
395.46	11.70
395.65	32.77
395.84	0.00
396.04	21.06
396.23	11.70
396.42	0.00
396.62	98.30
396.81	14.04
397.00	11.70
397.19	44.47
397.39	0.00
397.58	0.00
397.77	58.51
397.97	16.38
398.16	23.41
398.35	42.13
398.55	35.11
398.74	32.77
398.93	4.68
399.12	60.85
399.32	0.00
399.51	95.96
399.70	30.43
399.90	28.09
400.09	63.19
400.28	14.04
400.47	81.92
400.67	74.90
400.86	18.72
401.05	86.60
401.24	32.77
401.44	14.04
401.63	79.58
401.82	37.45
402.01	0.00
402.21	0.00
402.40	30.43
402.59	53.83
402.78	0.00
402.97	9.36
403.17	11.70
403.36	39.79
403.55	18.72
403.74	95.96
403.93	23.41
404.13	46.81
404.32	46.81
404.51	32.77
404.70	0.00
404.89	60.85
405.09	25.75
405.28	16.38
405.47	60.85
405.66	105.32
405.85	0.00
406.05	25.75
406.24	0.00
406.43	44.47
406.62	95.96
406.81	42.13
407.00	0.00
407.20	0.00
407.39	102.98
407.58	53.83
407.77	16.38
407.96	98.30
408.15	65.54
408.34	65.54
408.54	84.26
408.73	42.13
408.92	11.70
409.11	77.24
409.30	46.81
409.49	51.49
409.68	65.54
409.87	0.00
410.07	25.75
410.26	37.45
410.45	44.47
410.64	2.34
410.83	18.72
411.02	77.24
411.21	14.04
411.40	28.09
411.59	32.77
411.78	18.72
411.98	70.22
412.17	77.24
412.36	32.77
412.55	51.49
412.74	81.92
412.93	32.77
413.12	42.13
413.31	0.00
413.50	49.15
413.69	91.28
413.88	28.09
414.07	0.00
414.26	0.00
414.45	44.47
414.64	28.09
414.83	84.26
415.02	0.00
415.22	16.38
415.41	81.92
415.60	16.38
415.79	30.43
415.98	79.58
416.17	14.04
416.36	0.00
416.55	0.00
416.74	46.81
416.93	25.75
417.12	2.34
417.31	30.43
417.50	53.83
417.69	56.17
417.88	65.54
418.07	14.04
418.26	30.43
418.45	51.49
418.64	2.34
418.83	98.30
419.02	21.06
419.21	100.64
419.39	72.56
419.58	58.51
419.77	32.77
419.96	58.51
420.15	98.30
420.34	30.43
420.53	60.85
420.72	11.70
420.91	35.11
421.10	14.04
421.29	49.15
421.48	14.04
421.67	79.58
421.86	2.34
422.05	131.07
422.24	79.58
422.43	114.69
422.61	60.85
422.80	88.94
422.99	0.00
423.18	4.68
423.37	91.28
423.56	46.81
423.75	30.43
423.94	88.94
424.13	63.19
424.32	14.04
424.50	37.45
424.69	25.75
424.88	30.43
425.07	84.26
425.26	65.54
425.45	42.13
425.64	60.85
425.83	0.00
426.01	32.77
426.20	7.02
426.39	74.90
426.58	21.06
426.77	37.45
426.96	65.54
427.15	100.64
427.33	28.09
427.52	0.00
427.71	53.83
427.90	0.00
428.09	0.00
428.28	2.34
428.46	74.90
428.65	56.17
428.84	25.75
429.03	72.56
429.22	37.45
429.40	0.00
429.59	58.51
429.78	2.34
429.97	0.00
430.16	49.15
430.34	93.62
430.53	74.90
430.72	46.81
430.91	46.81
431.10	84.26
431.28	53.83
431.47	32.77
431.66	0.00
431.85	44.47
432.03	98.30
432.22	0.00
432.41	91.28
432.60	74.90
432.79	0.00
432.97	7.02
433.16	23.41
433.35	0.00
433.54	67.88
433.72	110.01
433.91	74.90
434.10	114.69
434.28	37.45
434.47	77.24
434.66	161.50
434.85	126.39
435.03	110.01
435.22	56.17
435.41	65.54
435.59	37.45
435.78	98.30
435.97	25.75
436.16	9.36
436.34	81.92
436.53	124.05
436.72	25.75
436.90	49.15
437.09	0.00
437.28	25.75
437.46	51.49
437.65	37.45
437.84	4.68
438.02	86.60
438.21	30.43
438.40	39.79
438.58	72.56
438.77	30.43
438.96	102.98
439.14	39.79
439.33	105.32
439.52	39.79
439.70	37.45
439.89	93.62
440.08	98.30
440.26	86.60
440.45	58.51
440.63	98.30
440.82	46.81
441.01	2.34
441.19	63.19
441.38	95.96
441.57	25.75
441.75	30.43
441.94	65.54
442.12	28.09
442.31	46.81
442.50	51.49
442.68	53.83
442.87	70.22
443.05	0.00
443.24	32.77
443.43	49.15
443.61	65.54
443.80	84.26
443.98	112.35
444.17	53.83
444.35	77.24
444.54	86.60
444.73	51.49
444.91	95.96
445.10	98.30
445.28	4.68
445.47	88.94
445.65	58.51
445.84	49.15
446.02	42.13
446.21	98.30
446.39	37.45
446.58	44.47
446.77	21.06
446.95	42.13
447.14	30.43
447.32	98.30
447.51	51.49
447.69	35.11
447.88	63.19
448.06	28.09
448.25	72.56
448.43	63.19
448.62	32.77
448.80	140.43
448.99	98.30
449.17	18.72
449.36	65.54
449.54	9.36
449.73	81.92
449.91	0.00
450.10	86.60
450.28	14.04
450.46	152.13
450.65	72.56
450.83	39.79
451.02	105.32
451.20	81.92
451.39	18.72
451.57	4.68
451.76	98.30
451.94	46.81
452.13	0.00
452.31	46.81
452.49	81.92
452.68	37.45
452.86	35.11
453.05	79.58
453.23	16.38
453.42	93.62
453.60	0.00
453.78	131.07
453.97	51.49
454.15	63.19
454.34	42.13
454.52	98.30
454.70	60.85
454.89	79.58
455.07	159.16
455.26	84.26
455.44	25.75
455.62	49.15
455.81	121.71
455.99	65.54
456.17	42.13
456.36	49.15
456.54	79.58
456.73	0.00
456.91	65.54
457.09	65.54
457.28	67.88
457.46	58.51
457.64	14.04
457.83	51.49
458.01	112.35
458.19	14.04
458.38	44.47
458.56	56.17
458.74	18.72
458.93	77.24
459.11	25.75
459.29	0.00
459.48	117.03
459.66	44.47
459.84	72.56
460.03	81.92
460.21	0.00
460.39	28.09
460.57	42.13
460.76	2.34
460.94	56.17
461.12	72.56
461.31	32.77
461.49	49.15
461.67	39.79
461.85	67.88
462.04	44.47
462.22	147.45
462.40	142.77
462.59	7.02
462.77	0.00
462.95	11.70
463.13	7.02
463.32	65.54
463.50	44.47
463.68	51.49
463.86	88.94
464.05	49.15
464.23	86.60
464.41	60.85
464.59	0.00
464.78	72.56
464.96	88.94
465.14	37.45
465.32	107.66
465.50	93.62
465.69	32.77
465.87	102.98
466.05	74.90
466.23	25.75
466.41	102.98
466.60	39.79
466.78	70.22
466.96	88.94
467.14	95.96
467.32	95.96
467.51	56.17
467.69	25.75
467.87	46.81
468.05	65.54
468.23	39.79
468.41	173.20
468.60	16.38
468.78	81.92
468.96	35.11
469.14	32.77
469.32	21.06
469.50	18.72
469.69	53.83
469.87	49.15
470.05	56.17
470.23	44.47
470.41	58.51
470.59	102.98
470.77	121.71
470.95	35.11
471.14	14.04
471.32	42.13
471.50	44.47
471.68	63.19
471.86	18.72
472.04	72.56
472.22	28.09
472.40	37.45
472.58	7.02
472.77	46.81
472.95	102.98
473.13	60.85
473.31	98.30
473.49	23.41
473.67	0.00
473.85	72.56
474.03	81.92
474.21	32.77
474.39	58.51
474.57	102.98
474.75	4.68
474.93	107.66
475.12	58.51
475.30	70.22
475.48	51.49
475.66	25.75
475.84	23.41
476.02	60.85
476.20	51.49
476.38	25.75
476.56	135.75
476.74	60.85
476.92	0.00
477.10	46.81
477.28	126.39
477.46	100.64
477.64	44.47
477.82	56.17
478.00	98.30
478.18	44.47
478.36	86.60
478.54	49.15
478.72	2.34
478.90	93.62
479.08	86.60
479.26	42.13
479.44	84.26
479.62	28.09
479.80	0.00
479.98	16.38
480.16	84.26
480.34	56.17
480.52	74.90
480.70	53.83
480.88	44.47
481.06	67.88
481.24	32.77
481.41	95.96
481.59	88.94
481.77	93.62
481.95	58.51
482.13	42.13
482.31	44.47
482.49	32.77
482.67	46.81
482.85	58.51
483.03	56.17
483.21	65.54
483.39	60.85
483.57	46.81
483.74	119.37
483.92	16.38
484.10	35.11
484.28	95.96
484.46	84.26
484.64	63.19
484.82	110.01
485.00	74.90
485.18	56.17
485.35	63.19
485.53	135.75
485.71	23.41
485.89	86.60
486.07	51.49
486.25	84.26
486.43	84.26
486.61	91.28
486.78	51.49
486.96	91.28
487.14	35.11
487.32	128.73
487.50	93.62
487.68	30.43
487.85	91.28
488.03	124.05
488.21	32.77
488.39	79.58
488.57	56.17
488.75	51.49
488.92	46.81
489.10	93.62
489.28	135.75
489.46	70.22
489.64	35.11
489.81	77.24
489.99	88.94
490.17	102.98
490.35	86.60
490.53	133.41
490.70	72.56
490.88	88.94
491.06	51.49
491.24	0.00
491.41	79.58
491.59	98.30
491.77	77.24
491.95	60.85
492.13	88.94
492.30	126.39
492.48	119.37
492.66	53.83
492.84	84.26
493.01	56.17
493.19	84.26
493.37	107.66
493.54	51.49
493.72	72.56
493.90	100.64
494.08	51.49
494.25	32.77
494.43	65.54
494.61	84.26
494.79	93.62
494.96	74.90
495.14	105.32
495.32	107.66
495.49	46.81
495.67	163.84
495.85	86.60
496.02	46.81
496.20	124.05
496.38	147.45
496.55	102.98
496.73	79.58
496.91	84.26
497.09	107.66
497.26	86.60
497.44	147.45
497.62	149.79
497.79	107.66
497.97	102.98
498.14	114.69
498.32	72.56
498.50	100.64
498.67	126.39
498.85	131.07
499.03	74.90
499.20	72.56
499.38	23.41
499.56	39.79
499.73	95.96
499.91	53.83
500.08	102.98
500.26	77.24
500.44	77.24
500.61	88.94
500.79	107.66
500.97	81.92
501.14	126.39
501.32	84.26
501.49	131.07
501.67	58.51
501.84	107.66
502.02	67.88
502.20	16.38
502.37	140.43
502.55	100.64
502.72	77.24
502.90	91.28
503.07	88.94
503.25	25.75
503.43	107.66
503.60	18.72
503.78	79.58
503.95	65.54
504.13	77.24
504.30	166.18
504.48	154.48
504.65	42.13
504.83	79.58
505.01	88.94
505.18	79.58
505.36	49.15
505.53	147.45
505.71	77.24
505.88	39.79
506.06	65.54
506.23	39.79
506.41	42.13
506.58	67.88
506.76	67.88
506.93	133.41
507.11	81.92
507.28	25.75
507.46	81.92
507.63	149.79
507.81	25.75
507.98	98.30
508.16	102.98
508.33	86.60
508.50	95.96
508.68	119.37
508.85	102.98
509.03	128.73
509.20	114.69
509.38	70.22
509.55	102.98
509.73	58.51
509.90	156.82
510.08	114.69
510.25	60.85
510.42	84.26
510.60	95.96
510.77	95.96
510.95	44.47
511.12	107.66
511.30	86.60
511.47	95.96
511.64	74.90
511.82	117.03
511.99	51.49
512.17	84.26
512.34	60.85
512.51	74.90
512.69	51.49
512.86	110.01
513.04	65.54
513.21	44.47
513.38	25.75
513.56	30.43
513.73	100.64
513.90	161.50
514.08	53.83
514.25	53.83
514.43	131.07
514.60	70.22
514.77	98.30
514.95	81.92
515.12	107.66
515.29	49.15
515.47	0.00
515.64	44.47
515.81	37.45
515.99	18.72
516.16	74.90
516.33	79.58
516.51	98.30
516.68	56.17
516.85	131.07
517.03	60.85
517.20	166.18
517.37	0.00
517.54	72.56
517.72	51.49
517.89	46.81
518.06	112.35
518.24	65.54
518.41	91.28
518.58	37.45
518.75	65.54
518.93	88.94
519.10	44.47
519.27	98.30
519.45	70.22
519.62	65.54
519.79	46.81
519.96	156.82
520.14	65.54
520.31	60.85
520.48	46.81
520.65	81.92
520.83	110.01
521.00	124.05
521.17	93.62
521.34	58.51
521.52	58.51
521.69	35.11
521.86	102.98
522.03	100.64
522.20	124.05
522.38	23.41
522.55	49.15
522.72	0.00
522.89	117.03
523.07	65.54
523.24	114.69
523.41	93.62
523.58	49.15
523.75	131.07
523.92	65.54
524.10	100.64
524.27	18.72
524.44	44.47
524.61	77.24
524.78	98.30
524.96	95.96
525.13	91.28
525.30	44.47
525.47	65.54
525.64	88.94
525.81	21.06
525.98	102.98
526.16	23.41
526.33	72.56
526.50	25.75
526.67	128.73
526.84	79.58
527.01	67.88
527.18	121.71
527.36	98.30
527.53	126.39
527.70	91.28
527.87	56.17
528.04	88.94
528.21	95.96
528.38	65.54
528.55	138.09
528.72	100.64
528.89	110.01
529.07	67.88
529.24	81.92
529.41	119.37
529.58	51.49
529.75	35.11
529.92	86.60
530.09	102.98
530.26	93.62
530.43	56.17
530.60	147.45
530.77	107.66
530.94	156.82
531.11	81.92
531.28	93.62
531.46	145.11
531.63	88.94
531.80	32.77
531.97	93.62
532.14	121.71
532.31	53.83
532.48	56.17
532.65	46.81
532.82	114.69
532.99	88.94
533.16	72.56
533.33	35.11
533.50	72.56
533.67	117.03
533.84	74.90
534.01	74.90
534.18	65.54
534.35	72.56
534.52	25.75
534.69	114.69
534.86	49.15
535.03	18.72
535.20	88.94
535.37	51.49
535.54	88.94
535.71	86.60
535.88	74.90
536.05	126.39
536.22	117.03
536.38	60.85
536.55	44.47
536.72	65.54
536.89	37.45
537.06	124.05
537.23	81.92
537.40	121.71
537.57	72.56
537.74	112.35
537.91	51.49
538.08	163.84
538.25	79.58
538.42	112.35
538.59	49.15
538.75	79.58
538.92	53.83
539.09	63.19
539.26	159.16
539.43	58.51
539.60	79.58
539.77	49.15
539.94	56.17
540.11	65.54
540.28	32.77
540.44	74.90
540.61	117.03
540.78	79.58
540.95	23.41
541.12	93.62
541.29	135.75
541.46	84.26
541.62	67.88
541.79	72.56
541.96	32.77
542.13	23.41
542.30	30.43
542.47	65.54
542.63	112.35
542.80	93.62
542.97	9.36
543.14	67.88
543.31	35.11
543.48	142.77
543.64	126.39
543.81	107.66
543.98	117.03
544.15	124.05
544.32	51.49
544.48	46.81
544.65	105.32
544.82	67.88
544.99	28.09
545.16	102.98
545.32	173.20
545.49	140.43
545.66	51.49
545.83	49.15
546.00	105.32
546.16	105.32
546.33	95.96
546.50	88.94
546.67	79.58
546.83	0.00
547.00	121.71
547.17	95.96
547.34	81.92
547.50	60.85
547.67	91.28
547.84	138.09
548.00	9.36
548.17	131.07
548.34	51.49
548.51	107.66
548.67	102.98
548.84	102.98
549.01	102.98
549.18	58.51
549.34	95.96
549.51	42.13
549.68	86.60
549.84	28.09
550.01	91.28
550.18	117.03
550.34	142.77
550.51	93.62
550.68	39.79
550.84	88.94
551.01	112.35
551.18	70.22
551.34	95.96
551.51	56.17
551.68	112.35
551.84	65.54
552.01	133.41
552.18	91.28
552.34	42.13
552.51	145.11
552.68	105.32
552.84	128.73
553.01	77.24
553.18	156.82
553.34	93.62
553.51	95.96
553.67	60.85
553.84	49.15
554.01	58.51
554.17	60.85
554.34	81.92
554.51	119.37
554.67	117.03
554.84	46.81
555.00	102.98
555.17	156.82
555.33	25.75
555.50	128.73
555.67	72.56
555.83	51.49
556.00	98.30
556.16	42.13
556.33	49.15
556.50	72.56
556.66	60.85
556.83	88.94
556.99	91.28
557.16	79.58
557.32	42.13
557.49	2.34
557.65	21.06
557.82	107.66
557.98	56.17
558.15	56.17
558.32	70.22
558.48	60.85
558.65	138.09
558.81	70.22
558.98	51.49
559.14	77.24
559.31	112.35
559.47	77.24
559.64	93.62
559.80	51.49
559.97	0.00
560.13	84.26
560.30	117.03
560.46	107.66
560.63	79.58
560.79	53.83
560.96	110.01
561.12	79.58
561.29	119.37
561.45	42.13
561.61	70.22
561.78	117.03
561.94	77.24
562.11	65.54
562.27	95.96
562.44	60.85
562.60	74.90
562.77	140.43
562.93	79.58
563.10	114.69
563.26	84.26
563.42	175.54
563.59	23.41
563.75	60.85
563.92	42.13
564.08	163.84
564.24	117.03
564.41	77.24
564.57	126.39
564.74	114.69
564.90	70.22
565.07	95.96
565.23	42.13
565.39	58.51
565.56	0.00
565.72	58.51
565.88	37.45
566.05	79.58
566.21	39.79
566.38	131.07
566.54	100.64
566.70	4.68
566.87	131.07
567.03	119.37
567.19	105.32
567.36	30.43
567.52	46.81
567.68	51.49
567.85	37.45
568.01	124.05
568.17	95.96
568.34	131.07
568.50	124.05
568.66	67.88
568.83	102.98
568.99	72.56
569.15	65.54
569.32	74.90
569.48	77.24
569.64	30.43
569.81	32.77
569.97	11.70
570.13	46.81
570.30	88.94
570.46	86.60
570.62	124.05
570.78	74.90
570.95	0.00
571.11	65.54
571.27	21.06
571.43	63.19
571.60	65.54
571.76	102.98
571.92	91.28
572.09	84.26
572.25	28.09
572.41	100.64
572.57	70.22
572.74	49.15
572.90	63.19
573.06	56.17
573.22	114.69
573.38	65.54
573.55	98.30
573.71	46.81
573.87	32.77
574.03	110.01
574.20	152.13
574.36	72.56
574.52	86.60
574.68	72.56
574.84	98.30
575.01	88.94
575.17	154.48
575.33	49.15
575.49	135.75
575.65	98.30
575.82	84.26
575.98	105.32
576.14	98.30
576.30	100.64
576.46	81.92
576.62	124.05
576.79	60.85
576.95	102.98
577.11	124.05
577.27	51.49
577.43	11.70
577.59	58.51
577.75	159.16
577.92	77.24
578.08	140.43
578.24	79.58
578.40	35.11
578.56	93.62
578.72	72.56
578.88	44.47
579.04	91.28
579.21	91.28
579.37	100.64
579.53	77.24
579.69	93.62
579.85	21.06
580.01	81.92
580.17	110.01
580.33	126.39
580.49	28.09
580.65	42.13
580.82	112.35
580.98	37.45
581.14	156.82
581.30	86.60
581.46	142.77
581.62	91.28
581.78	84.26
581.94	37.45
582.10	81.92
582.26	121.71
582.42	51.49
582.58	93.62
582.74	70.22
582.90	74.90
583.06	58.51
583.22	124.05
583.38	60.85
583.54	93.62
583.70	0.00
583.86	60.85
584.02	100.64
584.18	25.75
584.34	100.64
584.50	95.96
584.66	35.11
584.82	77.24
584.98	126.39
585.14	9.36
585.30	0.00
585.46	91.28
585.62	63.19
585.78	42.13
585.94	49.15
586.10	74.90
586.26	138.09
586.42	35.11
586.58	79.58
586.74	145.11
586.90	32.77
587.06	107.66
587.22	56.17
587.38	74.90
587.54	81.92
587.70	51.49
587.86	126.39
588.02	49.15
588.18	0.00
588.34	53.83
588.49	107.66
588.65	65.54
588.81	0.00
588.97	70.22
589.13	53.83
589.29	95.96
589.45	65.54
589.61	35.11
589.77	77.24
589.93	84.26
590.08	63.19
590.24	21.06
590.40	173.20
590.56	100.64
590.72	39.79
590.88	84.26
591.04	37.45
591.20	16.38
591.35	44.47
591.51	23.41
591.67	77.24
591.83	63.19
591.99	145.11
592.15	49.15
592.31	58.51
592.46	42.13
592.62	58.51
592.78	56.17
592.94	119.37
593.10	63.19
593.26	72.56
593.41	14.04
593.57	60.85
593.73	117.03
593.89	44.47
594.05	65.54
594.20	56.17
594.36	60.85
594.52	91.28
594.68	25.75
594.84	84.26
594.99	49.15
595.15	128.73
595.31	21.06
595.47	49.15
595.62	93.62
595.78	147.45
595.94	81.92
596.10	67.88
596.25	79.58
596.41	65.54
596.57	117.03
596.73	32.77
596.88	70.22
597.04	77.24
597.20	60.85
597.36	112.35
597.51	198.95
597.67	77.24
597.83	91.28
597.99	67.88
598.14	77.24
598.30	72.56
598.46	65.54
598.61	138.09
598.77	105.32
598.93	53.83
599.09	35.11
599.24	72.56
599.40	32.77
599.56	93.62
599.71	77.24
599.87	11.70
600.03	21.06
600.18	49.15
600.34	51.49
600.50	56.17
600.65	105.32
600.81	140.43
600.97	74.90
601.12	56.17
601.28	126.39
601.44	72.56
601.59	119.37
601.75	35.11
601.91	81.92
602.06	39.79
602.22	121.71
602.37	30.43
602.53	79.58
602.69	74.90
602.84	37.45
603.00	18.72
603.16	79.58
603.31	77.24
603.47	102.98
603.62	49.15
603.78	46.81
603.94	49.15
604.09	84.26
604.25	79.58
604.40	65.54
604.56	72.56
604.71	39.79
604.87	117.03
605.03	77.24
605.18	65.54
605.34	138.09
605.49	49.15
605.65	119.37
605.80	65.54
605.96	65.54
606.12	133.41
606.27	25.75
606.43	65.54
606.58	42.13
606.74	67.88
606.89	95.96
607.05	79.58
607.20	28.09
607.36	39.79
607.51	98.30
607.67	84.26
607.82	72.56
607.98	98.30
608.13	135.75
608.29	142.77
608.44	63.19
608.60	0.00
608.75	56.17
608.91	56.17
609.06	74.90
609.22	49.15
609.37	98.30
609.53	93.62
609.68	79.58
609.84	16.38
609.99	114.69
610.15	42.13
610.30	67.88
610.46	23.41
610.61	112.35
610.76	98.30
610.92	138.09
611.07	70.22
611.23	81.92
611.38	49.15
611.54	32.77
611.69	49.15
611.84	51.49
612.00	86.60
612.15	95.96
612.31	23.41
612.46	121.71
612.62	18.72
612.77	65.54
612.92	110.01
613.08	126.39
613.23	74.90
613.39	93.62
613.54	72.56
613.69	35.11
613.85	100.64
614.00	98.30
614.15	42.13
614.31	0.00
614.46	124.05
614.62	74.90
614.77	77.24
614.92	46.81
615.08	112.35
615.23	86.60
615.38	107.66
615.54	88.94
615.69	56.17
615.84	46.81
616.00	79.58
616.15	74.90
616.30	28.09
616.46	0.00
616.61	56.17
616.76	51.49
616.92	102.98
617.07	65.54
617.22	74.90
617.37	42.13
617.53	28.09
617.68	86.60
617.83	81.92
617.99	56.17
618.14	100.64
618.29	53.83
618.45	2.34
618.60	51.49
618.75	65.54
618.90	46.81
619.06	44.47
619.21	156.82
619.36	72.56
619.51	30.43
619.67	56.17
619.82	147.45
619.97	107.66
620.12	84.26
620.28	81.92
620.43	100.64
620.58	67.88
620.73	79.58
620.89	4.68
621.04	32.77
621.19	98.30
621.34	35.11
621.49	49.15
621.65	84.26
621.80	81.92
621.95	81.92
622.10	107.66
622.25	81.92
622.41	72.56
622.56	65.54
622.71	35.11
622.86	79.58
623.01	86.60
623.16	70.22
623.32	84.26
623.47	60.85
623.62	86.60
623.77	93.62
623.92	79.58
624.07	0.00
624.23	53.83
624.38	119.37
624.53	131.07
624.68	44.47
624.83	49.15
624.98	74.90
625.13	0.00
625.29	84.26
625.44	0.00
625.59	9.36
625.74	14.04
625.89	28.09
626.04	138.09
626.19	74.90
626.34	37.45
626.49	53.83
626.65	77.24
626.80	51.49
626.95	105.32
627.10	86.60
627.25	131.07
627.40	65.54
627.55	107.66
627.70	0.00
627.85	9.36
628.00	98.30
628.15	107.66
628.30	84.26
628.45	56.17
628.60	77.24
628.76	63.19
628.91	86.60
629.06	51.49
629.21	91.28
629.36	32.77
629.51	49.15
629.66	53.83
629.81	28.09
629.96	32.77
630.11	42.13
630.26	51.49
630.41	30.43
630.56	53.83
630.71	60.85
630.86	140.43
631.01	105.32
631.16	60.85
631.31	84.26
631.46	67.88
631.61	0.00
631.76	72.56
631.91	112.35
632.06	65.54
632.21	46.81
632.36	49.15
632.51	37.45
632.66	131.07
632.81	88.94
632.96	46.81
633.10	35.11
633.25	114.69
633.40	25.75
633.55	128.73
633.70	21.06
633.85	44.47
634.00	84.26
634.15	49.15
634.30	102.98
634.45	0.00
634.60	67.88
634.75	56.17
634.90	46.81
635.05	63.19
635.19	0.00
635.34	39.79
635.49	140.43
635.64	65.54
635.79	53.83
635.94	0.00
636.09	70.22
636.24	53.83
636.39	67.88
636.53	46.81
636.68	44.47
636.83	0.00
636.98	39.79
637.13	63.19
637.28	121.71
637.43	105.32
637.57	37.45
637.72	44.47
637.87	0.00
638.02	53.83
638.17	30.43
638.32	39.79
638.46	74.90
638.61	81.92
638.76	2.34
638.91	72.56
639.06	16.38
639.20	16.38
639.35	58.51
639.50	4.68
639.65	58.51
639.80	16.38
639.94	11.70
640.09	117.03
640.24	95.96
640.39	93.62
640.54	88.94
640.68	35.11
640.83	65.54
640.98	77.24
641.13	30.43
641.27	70.22
641.42	56.17
641.57	49.15
641.72	63.19
641.86	107.66
642.01	131.07
642.16	105.32
642.31	18.72
642.45	46.81
642.60	107.66
642.75	58.51
642.90	74.90
643.04	42.13
643.19	67.88
643.34	21.06
643.48	53.83
643.63	37.45
643.78	37.45
643.93	56.17
644.07	14.04
644.22	74.90
644.37	39.79
644.51	30.43
644.66	88.94
644.81	49.15
644.95	51.49
645.10	9.36
645.25	154.48
645.39	42.13
645.54	74.90
645.69	91.28
645.83	18.72
645.98	25.75
646.13	70.22
646.27	0.00
646.42	42.13
646.57	32.77
646.71	128.73
646.86	32.77
647.00	0.00
647.15	114.69
647.30	74.90
647.44	65.54
647.59	100.64
647.74	60.85
647.88	4.68
648.03	42.13
648.17	81.92
648.32	53.83
648.47	56.17
648.61	60.85
648.76	72.56
648.90	51.49
649.05	21.06
649.20	81.92
649.34	30.43
649.49	25.75
649.63	79.58
649.78	95.96
649.92	70.22
650.07	0.00
650.21	32.77
650.36	79.58
650.51	102.98
650.65	112.35
650.80	56.17
650.94	53.83
651.09	37.45
651.23	44.47
651.38	63.19
651.52	51.49
651.67	25.75
651.81	0.00
651.96	0.00
652.10	119.37
652.25	58.51
652.39	79.58
652.54	65.54
652.68	30.43
652.83	67.88
652.97	0.00
653.12	32.77
653.26	4.68
653.41	53.83
653.55	77.24
653.70	18.72
653.84	58.51
653.99	91.28
654.13	18.72
654.27	51.49
654.42	112.35
654.56	30.43
654.71	21.06
654.85	110.01
655.00	93.62
655.14	110.01
655.29	23.41
655.43	49.15
655.57	72.56
655.72	37.45
655.86	23.41
656.01	11.70
656.15	105.32
656.30	58.51
656.44	16.38
656.58	86.60
656.73	53.83
656.87	37.45
657.01	53.83
657.16	60.85
657.30	37.45
657.45	67.88
657.59	35.11
657.73	35.11
657.88	11.70
658.02	60.85
658.16	63.19
658.31	63.19
658.45	70.22
658.60	79.58
658.74	110.01
658.88	7.02
659.03	39.79
659.17	42.13
659.31	81.92
659.46	77.24
659.60	65.54
659.74	42.13
659.89	30.43
660.03	0.00
660.17	102.98
660.32	23.41
660.46	133.41
660.60	16.38
660.74	42.13
660.89	30.43
661.03	53.83
661.17	74.90
661.32	72.56
661.46	14.04
661.60	30.43
661.74	0.00
661.89	65.54
662.03	88.94
662.17	35.11
662.31	60.85
662.46	72.56
662.60	32.77
662.74	124.05
662.88	67.88
663.03	51.49
663.17	102.98
663.31	32.77
663.45	112.35
663.60	28.09
663.74	49.15
663.88	95.96
664.02	58.51
664.17	0.00
664.31	74.90
664.45	42.13
664.59	14.04
664.73	56.17
664.88	23.41
665.02	98.30
665.16	67.88
665.30	117.03
665.44	18.72
665.59	65.54
665.73	102.98
665.87	42.13
666.01	0.00
666.15	79.58
666.29	32.77
666.44	46.81
666.58	25.75
666.72	74.90
666.86	84.26
667.00	0.00
667.14	121.71
667.28	35.11
667.43	84.26
667.57	46.81
667.71	16.38
667.85	11.70
667.99	39.79
668.13	58.51
668.27	16.38
668.41	88.94
668.56	30.43
668.70	93.62
668.84	126.39
668.98	110.01
669.12	37.45
669.26	95.96
669.40	70.22
669.54	74.90
669.68	84.26
669.82	14.04
669.96	44.47
670.10	70.22
670.25	58.51
670.39	0.00
670.53	9.36
670.67	53.83
670.81	81.92
670.95	2.34
671.09	7.02
671.23	35.11
671.37	37.45
671.51	79.58
671.65	53.83
671.79	58.51
671.93	39.79
672.07	60.85
672.21	28.09
672.35	32.77
672.49	88.94
672.63	58.51
672.77	77.24
672.91	56.17
673.05	0.00
673.19	0.00
673.33	53.83
673.47	86.60
673.61	110.01
673.75	70.22
673.89	28.09
674.03	79.58
674.17	23.41
674.31	51.49
674.45	49.15
674.59	42.13
674.73	65.54
674.87	110.01
675.01	65.54
675.15	56.17
675.29	37.45
675.43	77.24
675.56	65.54
675.70	44.47
675.84	28.09
675.98	39.79
676.12	0.00
676.26	81.92
676.40	32.77
676.54	28.09
676.68	49.15
676.82	21.06
676.96	95.96
677.10	121.71
677.23	46.81
677.37	37.45
677.51	56.17
677.65	60.85
677.79	100.64
677.93	67.88
678.07	60.85
678.21	58.51
678.34	70.22
678.48	9.36
678.62	23.41
678.76	65.54
678.90	2.34
679.04	0.00
679.18	44.47
679.31	0.00
679.45	56.17
679.59	37.45
679.73	81.92
679.87	0.00
680.00	0.00
680.14	39.79
680.28	14.04
680.42	49.15
680.56	77.24
680.70	46.81
680.83	32.77
680.97	37.45
681.11	28.09
681.25	46.81
681.39	91.28
681.52	9.36
681.66	56.17
681.80	4.68
681.94	0.00
682.07	53.83
682.21	39.79
682.35	81.92
682.49	39.79
682.62	70.22
682.76	14.04
682.90	16.38
683.04	124.05
683.17	32.77
683.31	60.85
683.45	98.30
683.59	70.22
683.72	0.00
683.86	56.17
684.00	105.32
684.13	65.54
684.27	0.00
684.41	35.11
684.55	0.00
684.68	79.58
684.82	14.04
684.96	93.62
685.09	70.22
685.23	72.56
685.37	56.17
685.50	98.30
685.64	46.81
685.78	11.70
685.91	88.94
686.05	7.02
686.19	119.37
686.32	60.85
686.46	0.00
686.60	60.85
686.73	63.19
686.87	4.68
687.01	56.17
687.14	25.75
687.28	14.04
687.42	72.56
687.55	74.90
687.69	81.92
687.82	4.68
687.96	0.00
688.10	21.06
688.23	102.98
688.37	9.36
688.50	0.00
688.64	35.11
688.78	35.11
688.91	70.22
689.05	46.81
689.18	65.54
689.32	35.11
689.46	86.60
689.59	58.51
689.73	63.19
689.86	46.81
690.00	112.35
690.13	65.54
690.27	37.45
690.41	30.43
690.54	4.68
690.68	21.06
690.81	37.45
690.95	0.00
691.08	28.09
691.22	51.49
691.35	110.01
691.49	49.15
691.62	67.88
691.76	49.15
691.89	0.00
692.03	49.15
692.16	60.85
692.30	0.00
692.43	93.62
692.57	28.09
692.70	39.79
692.84	0.00
692.97	51.49
693.11	60.85
693.24	77.24
693.38	0.00
693.51	72.56
693.65	65.54
693.78	28.09
693.92	63.19
694.05	28.09
694.19	70.22
694.32	60.85
694.45	37.45
694.59	46.81
694.72	49.15
694.86	23.41
694.99	28.09
695.13	37.45
695.26	79.58
695.39	16.38
695.53	44.47
695.66	72.56
695.80	98.30
695.93	0.00
696.07	0.00
696.20	0.00
696.33	21.06
696.47	0.00
696.60	0.00
696.73	77.24
696.87	49.15
697.00	79.58
697.14	65.54
697.27	42.13
697.40	14.04
697.54	65.54
697.67	53.83
697.80	0.00
697.94	39.79
698.07	63.19
698.21	121.71
698.34	67.88
698.47	37.45
698.61	37.45
698.74	28.09
698.87	16.38
699.01	58.51
699.14	42.13
699.27	0.00
699.40	63.19
699.54	70.22
699.67	53.83
699.80	72.56
699.94	51.49
700.07	30.43
700.20	37.45
700.34	0.00
700.47	53.83
700.60	23.41
700.73	51.49
700.87	0.00
701.00	65.54
701.13	79.58
701.26	32.77
701.40	18.72
701.53	16.38
701.66	14.04
701.79	18.72
701.93	44.47
702.06	28.09
702.19	86.60
702.32	32.77
702.46	0.00
702.59	25.75
702.72	67.88
702.85	11.70
702.99	16.38
703.12	84.26
703.25	86.60
703.38	100.64
703.51	25.75
703.65	32.77
703.78	0.00
703.91	0.00
704.04	67.88
704.17	84.26
704.31	7.02
704.44	58.51
704.57	32.77
704.70	72.56
704.83	0.00
704.96	112.35
705.10	72.56
705.23	37.45
>>>>>End Processed Spectral Data<<<<<
