SpectraSuite Data File
++++++++++++++++++++++++++++++++++++
Date: Fri Oct 04 12:13:24 GMT-05:00 2013
User: price-jones
Dark Spectrum Present: No
Reference Spectrum Present: No
Number of Sampled Component Spectra: 1
Spectrometers: USB2+H05261
Integration Time (usec): 10000 (USB2+H05261)
Spectra Averaged: 1 (USB2+H05261)
Boxcar Smoothing: 0 (USB2+H05261)
Correct for Electrical Dark: No (USB2+H05261)
Strobe/Lamp Enabled: No (USB2+H05261)
Correct for Detector Non-linearity: No (USB2+H05261)
Correct for Stray Light: No (USB2+H05261)
Number of Pixels in Processed Spectrum: 2048
>>>>>Begin Processed Spectral Data<<<<<
365.73	0.00
365.92	0.00
366.12	0.00
366.32	0.00
366.52	0.00
366.72	0.00
366.91	0.00
367.11	0.00
367.31	0.00
367.51	0.00
367.70	0.00
367.90	0.00
368.10	0.00
368.30	0.00
368.49	0.00
368.69	0.00
368.89	0.00
369.09	0.00
369.28	0.00
369.48	0.00
369.68	0.00
369.87	0.00
370.07	0.00
370.27	0.00
370.47	0.00
370.66	0.00
370.86	0.00
371.06	0.00
371.25	0.00
371.45	0.00
371.65	2.34
371.84	0.00
372.04	0.00
372.24	0.00
372.44	46.81
372.63	0.00
372.83	32.77
373.03	60.85
373.22	67.88
373.42	35.11
373.62	44.47
373.81	46.81
374.01	35.11
374.21	35.11
374.40	0.00
374.60	11.70
374.79	93.62
374.99	70.22
375.19	32.77
375.38	0.00
375.58	0.00
375.78	23.41
375.97	28.09
376.17	39.79
376.37	0.00
376.56	49.15
376.76	23.41
376.95	67.88
377.15	58.51
377.35	42.13
377.54	86.60
377.74	23.41
377.93	67.88
378.13	18.72
378.33	37.45
378.52	39.79
378.72	84.26
378.91	0.00
379.11	46.81
379.31	32.77
379.50	53.83
379.70	0.00
379.89	121.71
380.09	16.38
380.28	23.41
380.48	56.17
380.68	93.62
380.87	0.00
381.07	30.43
381.26	84.26
381.46	0.00
381.65	0.00
381.85	0.00
382.04	0.00
382.24	30.43
382.43	70.22
382.63	0.00
382.83	32.77
383.02	72.56
383.22	37.45
383.41	0.00
383.61	9.36
383.80	28.09
384.00	9.36
384.19	4.68
384.39	23.41
384.58	0.00
384.78	11.70
384.97	0.00
385.17	0.00
385.36	74.90
385.56	4.68
385.75	25.75
385.95	21.06
386.14	51.49
386.34	18.72
386.53	0.00
386.72	49.15
386.92	16.38
387.11	0.00
387.31	0.00
387.50	4.68
387.70	0.00
387.89	44.47
388.09	23.41
388.28	30.43
388.48	0.00
388.67	74.90
388.86	9.36
389.06	37.45
389.25	65.54
389.45	53.83
389.64	0.00
389.84	0.00
390.03	23.41
390.22	65.54
390.42	23.41
390.61	0.00
390.81	53.83
391.00	0.00
391.19	18.72
391.39	14.04
391.58	44.47
391.78	16.38
391.97	14.04
392.16	0.00
392.36	65.54
392.55	0.00
392.75	0.00
392.94	23.41
393.13	81.92
393.33	30.43
393.52	39.79
393.71	25.75
393.91	0.00
394.10	0.00
394.29	14.04
394.49	0.00
394.68	25.75
394.88	0.00
395.07	21.06
395.26	0.00
395.46	149.79
395.65	0.00
395.84	84.26
396.04	0.00
396.23	0.00
396.42	0.00
396.62	18.72
396.81	0.00
397.00	18.72
397.19	65.54
397.39	0.00
397.58	0.00
397.77	58.51
397.97	0.00
398.16	37.45
398.35	0.00
398.55	21.06
398.74	28.09
398.93	30.43
399.12	11.70
399.32	28.09
399.51	11.70
399.70	0.00
399.90	98.30
400.09	9.36
400.28	39.79
400.47	0.00
400.67	23.41
400.86	39.79
401.05	4.68
401.24	0.00
401.44	0.00
401.63	100.64
401.82	30.43
402.01	0.00
402.21	91.28
402.40	18.72
402.59	11.70
402.78	46.81
402.97	28.09
403.17	25.75
403.36	0.00
403.55	42.13
403.74	63.19
403.93	0.00
404.13	0.00
404.32	0.00
404.51	39.79
404.70	0.00
404.89	0.00
405.09	0.00
405.28	51.49
405.47	30.43
405.66	117.03
405.85	16.38
406.05	0.00
406.24	70.22
406.43	0.00
406.62	37.45
406.81	0.00
407.00	0.00
407.20	56.17
407.39	0.00
407.58	0.00
407.77	0.00
407.96	35.11
408.15	56.17
408.34	84.26
408.54	53.83
408.73	0.00
408.92	0.00
409.11	44.47
409.30	51.49
409.49	4.68
409.68	23.41
409.87	0.00
410.07	28.09
410.26	23.41
410.45	53.83
410.64	0.00
410.83	0.00
411.02	39.79
411.21	16.38
411.40	81.92
411.59	114.69
411.78	11.70
411.98	72.56
412.17	9.36
412.36	0.00
412.55	44.47
412.74	0.00
412.93	44.47
413.12	39.79
413.31	0.00
413.50	9.36
413.69	0.00
413.88	65.54
414.07	65.54
414.26	0.00
414.45	9.36
414.64	67.88
414.83	21.06
415.02	70.22
415.22	72.56
415.41	4.68
415.60	0.00
415.79	0.00
415.98	0.00
416.17	60.85
416.36	51.49
416.55	0.00
416.74	0.00
416.93	51.49
417.12	56.17
417.31	4.68
417.50	42.13
417.69	51.49
417.88	0.00
418.07	25.75
418.26	28.09
418.45	16.38
418.64	42.13
418.83	114.69
419.02	126.39
419.21	65.54
419.39	77.24
419.58	28.09
419.77	63.19
419.96	88.94
420.15	44.47
420.34	56.17
420.53	2.34
420.72	0.00
420.91	9.36
421.10	7.02
421.29	44.47
421.48	14.04
421.67	0.00
421.86	14.04
422.05	0.00
422.24	51.49
422.43	28.09
422.61	18.72
422.80	0.00
422.99	16.38
423.18	7.02
423.37	32.77
423.56	60.85
423.75	30.43
423.94	39.79
424.13	0.00
424.32	35.11
424.50	0.00
424.69	81.92
424.88	39.79
425.07	25.75
425.26	56.17
425.45	0.00
425.64	28.09
425.83	0.00
426.01	9.36
426.20	9.36
426.39	44.47
426.58	30.43
426.77	93.62
426.96	0.00
427.15	14.04
427.33	0.00
427.52	0.00
427.71	18.72
427.90	35.11
428.09	39.79
428.28	0.00
428.46	0.00
428.65	39.79
428.84	56.17
429.03	42.13
429.22	11.70
429.40	42.13
429.59	35.11
429.78	44.47
429.97	35.11
430.16	88.94
430.34	86.60
430.53	74.90
430.72	7.02
430.91	46.81
431.10	35.11
431.28	7.02
431.47	4.68
431.66	46.81
431.85	0.00
432.03	53.83
432.22	119.37
432.41	25.75
432.60	0.00
432.79	0.00
432.97	23.41
433.16	25.75
433.35	58.51
433.54	18.72
433.72	25.75
433.91	25.75
434.10	0.00
434.28	23.41
434.47	35.11
434.66	56.17
434.85	58.51
435.03	11.70
435.22	93.62
435.41	79.58
435.59	0.00
435.78	77.24
435.97	9.36
436.16	25.75
436.34	44.47
436.53	0.00
436.72	0.00
436.90	28.09
437.09	30.43
437.28	7.02
437.46	46.81
437.65	77.24
437.84	0.00
438.02	14.04
438.21	25.75
438.40	35.11
438.58	0.00
438.77	0.00
438.96	60.85
439.14	28.09
439.33	18.72
439.52	0.00
439.70	0.00
439.89	32.77
440.08	0.00
440.26	102.98
440.45	25.75
440.63	7.02
440.82	53.83
441.01	30.43
441.19	0.00
441.38	63.19
441.57	58.51
441.75	9.36
441.94	32.77
442.12	0.00
442.31	93.62
442.50	14.04
442.68	18.72
442.87	98.30
443.05	51.49
443.24	67.88
443.43	72.56
443.61	72.56
443.80	21.06
443.98	0.00
444.17	0.00
444.35	51.49
444.54	0.00
444.73	0.00
444.91	0.00
445.10	30.43
445.28	53.83
445.47	77.24
445.65	51.49
445.84	18.72
446.02	0.00
446.21	67.88
446.39	65.54
446.58	65.54
446.77	56.17
446.95	32.77
447.14	37.45
447.32	16.38
447.51	65.54
447.69	23.41
447.88	0.00
448.06	16.38
448.25	65.54
448.43	23.41
448.62	21.06
448.80	86.60
448.99	7.02
449.17	23.41
449.36	51.49
449.54	0.00
449.73	4.68
449.91	93.62
450.10	0.00
450.28	140.43
450.46	9.36
450.65	58.51
450.83	0.00
451.02	0.00
451.20	44.47
451.39	56.17
451.57	32.77
451.76	2.34
451.94	0.00
452.13	7.02
452.31	49.15
452.49	112.35
452.68	98.30
452.86	44.47
453.05	32.77
453.23	0.00
453.42	56.17
453.60	32.77
453.78	56.17
453.97	32.77
454.15	60.85
454.34	11.70
454.52	84.26
454.70	4.68
454.89	67.88
455.07	86.60
455.26	65.54
455.44	11.70
455.62	32.77
455.81	42.13
455.99	58.51
456.17	74.90
456.36	35.11
456.54	44.47
456.73	11.70
456.91	16.38
457.09	42.13
457.28	93.62
457.46	25.75
457.64	39.79
457.83	0.00
458.01	0.00
458.19	84.26
458.38	65.54
458.56	93.62
458.74	14.04
458.93	11.70
459.11	28.09
459.29	60.85
459.48	98.30
459.66	102.98
459.84	14.04
460.03	65.54
460.21	0.00
460.39	63.19
460.57	46.81
460.76	0.00
460.94	23.41
461.12	79.58
461.31	67.88
461.49	4.68
461.67	63.19
461.85	18.72
462.04	37.45
462.22	51.49
462.40	39.79
462.59	58.51
462.77	0.00
462.95	0.00
463.13	42.13
463.32	39.79
463.50	28.09
463.68	79.58
463.86	88.94
464.05	0.00
464.23	28.09
464.41	56.17
464.59	44.47
464.78	63.19
464.96	53.83
465.14	58.51
465.32	84.26
465.50	102.98
465.69	84.26
465.87	0.00
466.05	16.38
466.23	0.00
466.41	35.11
466.60	25.75
466.78	0.00
466.96	4.68
467.14	53.83
467.32	28.09
467.51	44.47
467.69	21.06
467.87	0.00
468.05	65.54
468.23	4.68
468.41	16.38
468.60	44.47
468.78	0.00
468.96	51.49
469.14	4.68
469.32	21.06
469.50	18.72
469.69	93.62
469.87	81.92
470.05	0.00
470.23	44.47
470.41	91.28
470.59	58.51
470.77	49.15
470.95	53.83
471.14	51.49
471.32	74.90
471.50	4.68
471.68	58.51
471.86	58.51
472.04	37.45
472.22	0.00
472.40	74.90
472.58	21.06
472.77	95.96
472.95	95.96
473.13	70.22
473.31	44.47
473.49	2.34
473.67	105.32
473.85	16.38
474.03	30.43
474.21	9.36
474.39	39.79
474.57	49.15
474.75	21.06
474.93	44.47
475.12	0.00
475.30	23.41
475.48	72.56
475.66	0.00
475.84	0.00
476.02	4.68
476.20	4.68
476.38	14.04
476.56	63.19
476.74	56.17
476.92	18.72
477.10	0.00
477.28	88.94
477.46	21.06
477.64	51.49
477.82	0.00
478.00	25.75
478.18	11.70
478.36	14.04
478.54	30.43
478.72	67.88
478.90	25.75
479.08	93.62
479.26	95.96
479.44	63.19
479.62	105.32
479.80	74.90
479.98	86.60
480.16	42.13
480.34	37.45
480.52	105.32
480.70	77.24
480.88	63.19
481.06	51.49
481.24	0.00
481.41	0.00
481.59	0.00
481.77	0.00
481.95	28.09
482.13	23.41
482.31	14.04
482.49	21.06
482.67	121.71
482.85	79.58
483.03	28.09
483.21	9.36
483.39	0.00
483.57	0.00
483.74	70.22
483.92	63.19
484.10	60.85
484.28	14.04
484.46	16.38
484.64	65.54
484.82	4.68
485.00	30.43
485.18	53.83
485.35	28.09
485.53	25.75
485.71	77.24
485.89	28.09
486.07	16.38
486.25	86.60
486.43	35.11
486.61	16.38
486.78	32.77
486.96	56.17
487.14	46.81
487.32	98.30
487.50	18.72
487.68	14.04
487.85	35.11
488.03	60.85
488.21	0.00
488.39	18.72
488.57	37.45
488.75	70.22
488.92	128.73
489.10	0.00
489.28	86.60
489.46	39.79
489.64	60.85
489.81	0.00
489.99	88.94
490.17	14.04
490.35	70.22
490.53	11.70
490.70	7.02
490.88	0.00
491.06	0.00
491.24	126.39
491.41	46.81
491.59	77.24
491.77	0.00
491.95	0.00
492.13	25.75
492.30	25.75
492.48	56.17
492.66	70.22
492.84	46.81
493.01	63.19
493.19	16.38
493.37	44.47
493.54	46.81
493.72	46.81
493.90	4.68
494.08	70.22
494.25	2.34
494.43	42.13
494.61	32.77
494.79	0.00
494.96	35.11
495.14	46.81
495.32	58.51
495.49	88.94
495.67	88.94
495.85	0.00
496.02	30.43
496.20	102.98
496.38	74.90
496.55	42.13
496.73	30.43
496.91	11.70
497.09	18.72
497.26	0.00
497.44	0.00
497.62	74.90
497.79	0.00
497.97	65.54
498.14	72.56
498.32	77.24
498.50	30.43
498.67	100.64
498.85	84.26
499.03	91.28
499.20	46.81
499.38	46.81
499.56	0.00
499.73	51.49
499.91	65.54
500.08	0.00
500.26	16.38
500.44	4.68
500.61	39.79
500.79	91.28
500.97	0.00
501.14	39.79
501.32	32.77
501.49	119.37
501.67	0.00
501.84	0.00
502.02	30.43
502.20	49.15
502.37	0.00
502.55	79.58
502.72	2.34
502.90	16.38
503.07	74.90
503.25	21.06
503.43	67.88
503.60	81.92
503.78	51.49
503.95	35.11
504.13	21.06
504.30	18.72
504.48	16.38
504.65	93.62
504.83	0.00
505.01	0.00
505.18	72.56
505.36	112.35
505.53	35.11
505.71	0.00
505.88	0.00
506.06	119.37
506.23	23.41
506.41	7.02
506.58	23.41
506.76	51.49
506.93	79.58
507.11	95.96
507.28	63.19
507.46	32.77
507.63	53.83
507.81	32.77
507.98	81.92
508.16	4.68
508.33	77.24
508.50	51.49
508.68	28.09
508.85	98.30
509.03	32.77
509.20	51.49
509.38	84.26
509.55	70.22
509.73	39.79
509.90	105.32
510.08	2.34
510.25	0.00
510.42	0.00
510.60	72.56
510.77	42.13
510.95	16.38
511.12	58.51
511.30	4.68
511.47	0.00
511.64	23.41
511.82	102.98
511.99	9.36
512.17	58.51
512.34	28.09
512.51	30.43
512.69	65.54
512.86	53.83
513.04	37.45
513.21	117.03
513.38	46.81
513.56	37.45
513.73	25.75
513.90	72.56
514.08	105.32
514.25	9.36
514.43	119.37
514.60	49.15
514.77	14.04
514.95	28.09
515.12	18.72
515.29	14.04
515.47	7.02
515.64	28.09
515.81	42.13
515.99	65.54
516.16	56.17
516.33	28.09
516.51	0.00
516.68	42.13
516.85	70.22
517.03	23.41
517.20	119.37
517.37	0.00
517.54	42.13
517.72	46.81
517.89	58.51
518.06	42.13
518.24	81.92
518.41	0.00
518.58	30.43
518.75	35.11
518.93	46.81
519.10	65.54
519.27	21.06
519.45	35.11
519.62	74.90
519.79	79.58
519.96	11.70
520.14	9.36
520.31	58.51
520.48	0.00
520.65	84.26
520.83	0.00
521.00	0.00
521.17	95.96
521.34	32.77
521.52	86.60
521.69	35.11
521.86	63.19
522.03	0.00
522.20	7.02
522.38	32.77
522.55	79.58
522.72	53.83
522.89	58.51
523.07	11.70
523.24	25.75
523.41	46.81
523.58	0.00
523.75	44.47
523.92	11.70
524.10	39.79
524.27	74.90
524.44	133.41
524.61	37.45
524.78	88.94
524.96	49.15
525.13	67.88
525.30	51.49
525.47	117.03
525.64	14.04
525.81	30.43
525.98	35.11
526.16	23.41
526.33	0.00
526.50	18.72
526.67	21.06
526.84	2.34
527.01	79.58
527.18	30.43
527.36	51.49
527.53	42.13
527.70	30.43
527.87	11.70
528.04	100.64
528.21	56.17
528.38	51.49
528.55	0.00
528.72	138.09
528.89	65.54
529.07	131.07
529.24	93.62
529.41	21.06
529.58	30.43
529.75	49.15
529.92	84.26
530.09	74.90
530.26	53.83
530.43	53.83
530.60	74.90
530.77	37.45
530.94	14.04
531.11	168.52
531.28	124.05
531.46	0.00
531.63	18.72
531.80	49.15
531.97	0.00
532.14	0.00
532.31	0.00
532.48	14.04
532.65	16.38
532.82	39.79
532.99	67.88
533.16	37.45
533.33	25.75
533.50	86.60
533.67	23.41
533.84	145.11
534.01	74.90
534.18	0.00
534.35	16.38
534.52	60.85
534.69	67.88
534.86	23.41
535.03	18.72
535.20	9.36
535.37	0.00
535.54	60.85
535.71	49.15
535.88	63.19
536.05	65.54
536.22	98.30
536.38	88.94
536.55	86.60
536.72	35.11
536.89	14.04
537.06	65.54
537.23	49.15
537.40	7.02
537.57	0.00
537.74	9.36
537.91	70.22
538.08	70.22
538.25	21.06
538.42	32.77
538.59	18.72
538.75	11.70
538.92	37.45
539.09	56.17
539.26	51.49
539.43	49.15
539.60	46.81
539.77	79.58
539.94	25.75
540.11	65.54
540.28	70.22
540.44	39.79
540.61	77.24
540.78	70.22
540.95	70.22
541.12	14.04
541.29	53.83
541.46	25.75
541.62	58.51
541.79	7.02
541.96	51.49
542.13	23.41
542.30	58.51
542.47	30.43
542.63	21.06
542.80	37.45
542.97	35.11
543.14	4.68
543.31	81.92
543.48	32.77
543.64	35.11
543.81	49.15
543.98	11.70
544.15	25.75
544.32	53.83
544.48	42.13
544.65	0.00
544.82	0.00
544.99	28.09
545.16	81.92
545.32	44.47
545.49	25.75
545.66	46.81
545.83	100.64
546.00	98.30
546.16	102.98
546.33	91.28
546.50	81.92
546.67	37.45
546.83	37.45
547.00	84.26
547.17	32.77
547.34	7.02
547.50	49.15
547.67	28.09
547.84	79.58
548.00	37.45
548.17	25.75
548.34	37.45
548.51	67.88
548.67	7.02
548.84	58.51
549.01	42.13
549.18	63.19
549.34	14.04
549.51	0.00
549.68	16.38
549.84	11.70
550.01	49.15
550.18	65.54
550.34	35.11
550.51	18.72
550.68	79.58
550.84	0.00
551.01	79.58
551.18	88.94
551.34	16.38
551.51	25.75
551.68	112.35
551.84	0.00
552.01	79.58
552.18	14.04
552.34	0.00
552.51	0.00
552.68	32.77
552.84	44.47
553.01	0.00
553.18	93.62
553.34	14.04
553.51	44.47
553.67	28.09
553.84	7.02
554.01	0.00
554.17	56.17
554.34	32.77
554.51	0.00
554.67	2.34
554.84	4.68
555.00	14.04
555.17	58.51
555.33	72.56
555.50	0.00
555.67	14.04
555.83	30.43
556.00	42.13
556.16	65.54
556.33	30.43
556.50	53.83
556.66	0.00
556.83	4.68
556.99	7.02
557.16	42.13
557.32	53.83
557.49	81.92
557.65	79.58
557.82	72.56
557.98	4.68
558.15	51.49
558.32	0.00
558.48	46.81
558.65	7.02
558.81	86.60
558.98	74.90
559.14	133.41
559.31	60.85
559.47	58.51
559.64	18.72
559.80	2.34
559.97	79.58
560.13	49.15
560.30	56.17
560.46	4.68
560.63	42.13
560.79	79.58
560.96	166.18
561.12	0.00
561.29	112.35
561.45	65.54
561.61	42.13
561.78	128.73
561.94	42.13
562.11	100.64
562.27	88.94
562.44	0.00
562.60	79.58
562.77	46.81
562.93	53.83
563.10	0.00
563.26	56.17
563.42	30.43
563.59	0.00
563.75	56.17
563.92	93.62
564.08	58.51
564.24	0.00
564.41	70.22
564.57	58.51
564.74	18.72
564.90	28.09
565.07	0.00
565.23	0.00
565.39	67.88
565.56	14.04
565.72	42.13
565.88	32.77
566.05	100.64
566.21	84.26
566.38	2.34
566.54	42.13
566.70	42.13
566.87	81.92
567.03	11.70
567.19	46.81
567.36	58.51
567.52	0.00
567.68	32.77
567.85	14.04
568.01	79.58
568.17	2.34
568.34	81.92
568.50	112.35
568.66	0.00
568.83	11.70
568.99	63.19
569.15	46.81
569.32	51.49
569.48	16.38
569.64	110.01
569.81	25.75
569.97	0.00
570.13	28.09
570.30	0.00
570.46	30.43
570.62	0.00
570.78	30.43
570.95	0.00
571.11	49.15
571.27	35.11
571.43	72.56
571.60	63.19
571.76	44.47
571.92	14.04
572.09	93.62
572.25	16.38
572.41	23.41
572.57	28.09
572.74	51.49
572.90	42.13
573.06	16.38
573.22	63.19
573.38	65.54
573.55	37.45
573.71	46.81
573.87	23.41
574.03	0.00
574.20	72.56
574.36	65.54
574.52	14.04
574.68	2.34
574.84	44.47
575.01	35.11
575.17	0.00
575.33	0.00
575.49	23.41
575.65	39.79
575.82	56.17
575.98	23.41
576.14	9.36
576.30	14.04
576.46	37.45
576.62	67.88
576.79	0.00
576.95	0.00
577.11	30.43
577.27	9.36
577.43	0.00
577.59	0.00
577.75	0.00
577.92	77.24
578.08	0.00
578.24	23.41
578.40	67.88
578.56	9.36
578.72	39.79
578.88	107.66
579.04	30.43
579.21	0.00
579.37	0.00
579.53	39.79
579.69	30.43
579.85	0.00
580.01	11.70
580.17	7.02
580.33	4.68
580.49	28.09
580.65	46.81
580.82	25.75
580.98	16.38
581.14	77.24
581.30	126.39
581.46	58.51
581.62	77.24
581.78	42.13
581.94	42.13
582.10	37.45
582.26	4.68
582.42	16.38
582.58	39.79
582.74	42.13
582.90	46.81
583.06	0.00
583.22	42.13
583.38	30.43
583.54	18.72
583.70	67.88
583.86	44.47
584.02	51.49
584.18	0.00
584.34	60.85
584.50	93.62
584.66	18.72
584.82	25.75
584.98	49.15
585.14	102.98
585.30	23.41
585.46	81.92
585.62	30.43
585.78	88.94
585.94	0.00
586.10	63.19
586.26	117.03
586.42	32.77
586.58	25.75
586.74	28.09
586.90	60.85
587.06	56.17
587.22	32.77
587.38	67.88
587.54	0.00
587.70	91.28
587.86	25.75
588.02	51.49
588.18	7.02
588.34	79.58
588.49	32.77
588.65	91.28
588.81	53.83
588.97	124.05
589.13	39.79
589.29	0.00
589.45	0.00
589.61	30.43
589.77	112.35
589.93	16.38
590.08	39.79
590.24	58.51
590.40	4.68
590.56	21.06
590.72	56.17
590.88	0.00
591.04	25.75
591.20	72.56
591.35	39.79
591.51	0.00
591.67	65.54
591.83	9.36
591.99	21.06
592.15	39.79
592.31	16.38
592.46	37.45
592.62	28.09
592.78	35.11
592.94	53.83
593.10	42.13
593.26	25.75
593.41	79.58
593.57	0.00
593.73	51.49
593.89	18.72
594.05	39.79
594.20	0.00
594.36	56.17
594.52	28.09
594.68	46.81
594.84	23.41
594.99	56.17
595.15	70.22
595.31	46.81
595.47	72.56
595.62	102.98
595.78	53.83
595.94	65.54
596.10	4.68
596.25	39.79
596.41	70.22
596.57	9.36
596.73	49.15
596.88	107.66
597.04	0.00
597.20	44.47
597.36	39.79
597.51	18.72
597.67	42.13
597.83	0.00
597.99	9.36
598.14	35.11
598.30	0.00
598.46	53.83
598.61	39.79
598.77	25.75
598.93	16.38
599.09	42.13
599.24	23.41
599.40	58.51
599.56	18.72
599.71	18.72
599.87	67.88
600.03	51.49
600.18	42.13
600.34	14.04
600.50	49.15
600.65	2.34
600.81	0.00
600.97	21.06
601.12	51.49
601.28	79.58
601.44	0.00
601.59	166.18
601.75	56.17
601.91	0.00
602.06	0.00
602.22	37.45
602.37	86.60
602.53	28.09
602.69	42.13
602.84	56.17
603.00	7.02
603.16	56.17
603.31	46.81
603.47	72.56
603.62	14.04
603.78	21.06
603.94	0.00
604.09	0.00
604.25	0.00
604.40	63.19
604.56	11.70
604.71	72.56
604.87	18.72
605.03	77.24
605.18	0.00
605.34	0.00
605.49	79.58
605.65	84.26
605.80	0.00
605.96	16.38
606.12	7.02
606.27	0.00
606.43	37.45
606.58	46.81
606.74	0.00
606.89	16.38
607.05	72.56
607.20	16.38
607.36	81.92
607.51	28.09
607.67	21.06
607.82	30.43
607.98	30.43
608.13	42.13
608.29	0.00
608.44	0.00
608.60	53.83
608.75	46.81
608.91	30.43
609.06	9.36
609.22	88.94
609.37	14.04
609.53	46.81
609.68	39.79
609.84	16.38
609.99	32.77
610.15	32.77
610.30	77.24
610.46	16.38
610.61	0.00
610.76	63.19
610.92	0.00
611.07	77.24
611.23	37.45
611.38	18.72
611.54	42.13
611.69	0.00
611.84	140.43
612.00	39.79
612.15	117.03
612.31	53.83
612.46	0.00
612.62	51.49
612.77	16.38
612.92	49.15
613.08	2.34
613.23	30.43
613.39	42.13
613.54	32.77
613.69	58.51
613.85	28.09
614.00	14.04
614.15	51.49
614.31	44.47
614.46	30.43
614.62	25.75
614.77	0.00
614.92	0.00
615.08	86.60
615.23	65.54
615.38	46.81
615.54	49.15
615.69	0.00
615.84	39.79
616.00	53.83
616.15	21.06
616.30	67.88
616.46	63.19
616.61	28.09
616.76	4.68
616.92	72.56
617.07	86.60
617.22	86.60
617.37	11.70
617.53	21.06
617.68	67.88
617.83	53.83
617.99	0.00
618.14	0.00
618.29	51.49
618.45	0.00
618.60	23.41
618.75	0.00
618.90	49.15
619.06	72.56
619.21	63.19
619.36	49.15
619.51	25.75
619.67	42.13
619.82	11.70
619.97	37.45
620.12	7.02
620.28	44.47
620.43	110.01
620.58	32.77
620.73	0.00
620.89	21.06
621.04	74.90
621.19	44.47
621.34	35.11
621.49	2.34
621.65	39.79
621.80	25.75
621.95	4.68
622.10	58.51
622.25	14.04
622.41	70.22
622.56	110.01
622.71	11.70
622.86	51.49
623.01	65.54
623.16	49.15
623.32	98.30
623.47	14.04
623.62	37.45
623.77	0.00
623.92	0.00
624.07	37.45
624.23	39.79
624.38	23.41
624.53	0.00
624.68	53.83
624.83	25.75
624.98	74.90
625.13	58.51
625.29	23.41
625.44	58.51
625.59	51.49
625.74	25.75
625.89	46.81
626.04	49.15
626.19	44.47
626.34	0.00
626.49	95.96
626.65	30.43
626.80	39.79
626.95	51.49
627.10	21.06
627.25	105.32
627.40	56.17
627.55	72.56
627.70	60.85
627.85	74.90
628.00	0.00
628.15	60.85
628.30	74.90
628.45	0.00
628.60	23.41
628.76	0.00
628.91	11.70
629.06	9.36
629.21	65.54
629.36	32.77
629.51	56.17
629.66	70.22
629.81	56.17
629.96	46.81
630.11	30.43
630.26	53.83
630.41	0.00
630.56	46.81
630.71	58.51
630.86	21.06
631.01	23.41
631.16	51.49
631.31	28.09
631.46	135.75
631.61	70.22
631.76	0.00
631.91	7.02
632.06	28.09
632.21	117.03
632.36	65.54
632.51	67.88
632.66	0.00
632.81	0.00
632.96	18.72
633.10	86.60
633.25	117.03
633.40	0.00
633.55	53.83
633.70	67.88
633.85	98.30
634.00	9.36
634.15	49.15
634.30	0.00
634.45	25.75
634.60	25.75
634.75	60.85
634.90	23.41
635.05	14.04
635.19	4.68
635.34	79.58
635.49	49.15
635.64	11.70
635.79	21.06
635.94	98.30
636.09	77.24
636.24	107.66
636.39	79.58
636.53	0.00
636.68	0.00
636.83	30.43
636.98	56.17
637.13	44.47
637.28	0.00
637.43	79.58
637.57	53.83
637.72	105.32
637.87	67.88
638.02	37.45
638.17	21.06
638.32	56.17
638.46	25.75
638.61	35.11
638.76	46.81
638.91	0.00
639.06	102.98
639.20	124.05
639.35	37.45
639.50	51.49
639.65	84.26
639.80	23.41
639.94	70.22
640.09	60.85
640.24	30.43
640.39	93.62
640.54	16.38
640.68	14.04
640.83	110.01
640.98	18.72
641.13	35.11
641.27	0.00
641.42	0.00
641.57	0.00
641.72	72.56
641.86	11.70
642.01	53.83
642.16	79.58
642.31	11.70
642.45	67.88
642.60	0.00
642.75	7.02
642.90	7.02
643.04	32.77
643.19	0.00
643.34	0.00
643.48	0.00
643.63	65.54
643.78	37.45
643.93	28.09
644.07	30.43
644.22	2.34
644.37	0.00
644.51	53.83
644.66	72.56
644.81	79.58
644.95	0.00
645.10	14.04
645.25	7.02
645.39	0.00
645.54	0.00
645.69	91.28
645.83	14.04
645.98	9.36
646.13	30.43
646.27	14.04
646.42	63.19
646.57	42.13
646.71	4.68
646.86	58.51
647.00	4.68
647.15	0.00
647.30	21.06
647.44	65.54
647.59	0.00
647.74	56.17
647.88	84.26
648.03	30.43
648.17	74.90
648.32	39.79
648.47	21.06
648.61	37.45
648.76	25.75
648.90	42.13
649.05	25.75
649.20	56.17
649.34	49.15
649.49	11.70
649.63	67.88
649.78	32.77
649.92	60.85
650.07	0.00
650.21	79.58
650.36	42.13
650.51	30.43
650.65	7.02
650.80	0.00
650.94	11.70
651.09	65.54
651.23	88.94
651.38	23.41
651.52	28.09
651.67	16.38
651.81	4.68
651.96	42.13
652.10	88.94
652.25	65.54
652.39	16.38
652.54	77.24
652.68	0.00
652.83	51.49
652.97	2.34
653.12	0.00
653.26	74.90
653.41	23.41
653.55	74.90
653.70	51.49
653.84	32.77
653.99	72.56
654.13	58.51
654.27	16.38
654.42	30.43
654.56	53.83
654.71	98.30
654.85	4.68
655.00	121.71
655.14	70.22
655.29	18.72
655.43	0.00
655.57	7.02
655.72	72.56
655.86	124.05
656.01	49.15
656.15	53.83
656.30	32.77
656.44	37.45
656.58	25.75
656.73	28.09
656.87	72.56
657.01	35.11
657.16	21.06
657.30	32.77
657.45	42.13
657.59	23.41
657.73	93.62
657.88	51.49
658.02	23.41
658.16	65.54
658.31	25.75
658.45	42.13
658.60	16.38
658.74	23.41
658.88	37.45
659.03	37.45
659.17	0.00
659.31	58.51
659.46	140.43
659.60	77.24
659.74	49.15
659.89	95.96
660.03	49.15
660.17	39.79
660.32	28.09
660.46	37.45
660.60	39.79
660.74	0.00
660.89	11.70
661.03	49.15
661.17	0.00
661.32	28.09
661.46	28.09
661.60	7.02
661.74	0.00
661.89	0.00
662.03	56.17
662.17	30.43
662.31	58.51
662.46	46.81
662.60	56.17
662.74	63.19
662.88	88.94
663.03	56.17
663.17	42.13
663.31	0.00
663.45	46.81
663.60	28.09
663.74	60.85
663.88	49.15
664.02	7.02
664.17	65.54
664.31	30.43
664.45	65.54
664.59	35.11
664.73	37.45
664.88	72.56
665.02	35.11
665.16	28.09
665.30	35.11
665.44	72.56
665.59	32.77
665.73	4.68
665.87	18.72
666.01	0.00
666.15	37.45
666.29	21.06
666.44	16.38
666.58	30.43
666.72	51.49
666.86	49.15
667.00	72.56
667.14	0.00
667.28	16.38
667.43	133.41
667.57	25.75
667.71	110.01
667.85	46.81
667.99	9.36
668.13	0.00
668.27	93.62
668.41	77.24
668.56	74.90
668.70	0.00
668.84	25.75
668.98	28.09
669.12	16.38
669.26	56.17
669.40	21.06
669.54	9.36
669.68	32.77
669.82	30.43
669.96	74.90
670.10	46.81
670.25	42.13
670.39	42.13
670.53	65.54
670.67	28.09
670.81	81.92
670.95	42.13
671.09	11.70
671.23	37.45
671.37	58.51
671.51	60.85
671.65	67.88
671.79	14.04
671.93	37.45
672.07	0.00
672.21	0.00
672.35	49.15
672.49	0.00
672.63	0.00
672.77	65.54
672.91	32.77
673.05	44.47
673.19	14.04
673.33	25.75
673.47	11.70
673.61	21.06
673.75	0.00
673.89	42.13
674.03	7.02
674.17	28.09
674.31	53.83
674.45	56.17
674.59	28.09
674.73	0.00
674.87	119.37
675.01	0.00
675.15	21.06
675.29	0.00
675.43	124.05
675.56	18.72
675.70	46.81
675.84	11.70
675.98	60.85
676.12	67.88
676.26	67.88
676.40	0.00
676.54	0.00
676.68	28.09
676.82	25.75
676.96	67.88
677.10	0.00
677.23	11.70
677.37	53.83
677.51	21.06
677.65	37.45
677.79	23.41
677.93	0.00
678.07	0.00
678.21	65.54
678.34	25.75
678.48	98.30
678.62	39.79
678.76	2.34
678.90	112.35
679.04	70.22
679.18	9.36
679.31	25.75
679.45	0.00
679.59	2.34
679.73	53.83
679.87	23.41
680.00	16.38
680.14	74.90
680.28	51.49
680.42	0.00
680.56	0.00
680.70	25.75
680.83	0.00
680.97	42.13
681.11	39.79
681.25	51.49
681.39	11.70
681.52	32.77
681.66	58.51
681.80	14.04
681.94	39.79
682.07	9.36
682.21	0.00
682.35	0.00
682.49	77.24
682.62	58.51
682.76	23.41
682.90	2.34
683.04	4.68
683.17	11.70
683.31	21.06
683.45	18.72
683.59	56.17
683.72	88.94
683.86	60.85
684.00	42.13
684.13	49.15
684.27	53.83
684.41	42.13
684.55	25.75
684.68	4.68
684.82	51.49
684.96	0.00
685.09	30.43
685.23	42.13
685.37	53.83
685.50	0.00
685.64	63.19
685.78	39.79
685.91	16.38
686.05	30.43
686.19	0.00
686.32	0.00
686.46	16.38
686.60	49.15
686.73	46.81
686.87	37.45
687.01	14.04
687.14	0.00
687.28	28.09
687.42	46.81
687.55	30.43
687.69	0.00
687.82	56.17
687.96	74.90
688.10	79.58
688.23	42.13
688.37	86.60
688.50	14.04
688.64	0.00
688.78	7.02
688.91	60.85
689.05	44.47
689.18	44.47
689.32	18.72
689.46	28.09
689.59	0.00
689.73	21.06
689.86	56.17
690.00	60.85
690.13	70.22
690.27	65.54
690.41	0.00
690.54	84.26
690.68	23.41
690.81	23.41
690.95	37.45
691.08	32.77
691.22	0.00
691.35	0.00
691.49	14.04
691.62	35.11
691.76	0.00
691.89	44.47
692.03	0.00
692.16	98.30
692.30	25.75
692.43	16.38
692.57	7.02
692.70	56.17
692.84	102.98
692.97	18.72
693.11	49.15
693.24	0.00
693.38	0.00
693.51	0.00
693.65	51.49
693.78	14.04
693.92	49.15
694.05	42.13
694.19	14.04
694.32	0.00
694.45	49.15
694.59	51.49
694.72	0.00
694.86	46.81
694.99	11.70
695.13	4.68
695.26	53.83
695.39	0.00
695.53	32.77
695.66	51.49
695.80	128.73
695.93	72.56
696.07	58.51
696.20	32.77
696.33	37.45
696.47	4.68
696.60	0.00
696.73	44.47
696.87	0.00
697.00	49.15
697.14	0.00
697.27	32.77
697.40	32.77
697.54	74.90
697.67	14.04
697.80	0.00
697.94	0.00
698.07	98.30
698.21	0.00
698.34	72.56
698.47	23.41
698.61	0.00
698.74	32.77
698.87	102.98
699.01	21.06
699.14	49.15
699.27	72.56
699.40	65.54
699.54	0.00
699.67	30.43
699.80	32.77
699.94	49.15
700.07	0.00
700.20	7.02
700.34	63.19
700.47	37.45
700.60	0.00
700.73	4.68
700.87	70.22
701.00	79.58
701.13	39.79
701.26	77.24
701.40	0.00
701.53	0.00
701.66	65.54
701.79	49.15
701.93	67.88
702.06	0.00
702.19	0.00
702.32	60.85
702.46	16.38
702.59	70.22
702.72	44.47
702.85	53.83
702.99	42.13
703.12	25.75
703.25	21.06
703.38	51.49
703.51	53.83
703.65	0.00
703.78	56.17
703.91	56.17
704.04	37.45
704.17	49.15
704.31	35.11
704.44	16.38
704.57	95.96
704.70	84.26
704.83	9.36
704.96	56.17
705.10	16.38
705.23	0.00
>>>>>End Processed Spectral Data<<<<<
