SpectraSuite Data File
++++++++++++++++++++++++++++++++++++
Date: Fri Oct 04 12:13:39 GMT-05:00 2013
User: price-jones
Dark Spectrum Present: No
Reference Spectrum Present: No
Number of Sampled Component Spectra: 1
Spectrometers: USB2+H05261
Integration Time (usec): 10000 (USB2+H05261)
Spectra Averaged: 1 (USB2+H05261)
Boxcar Smoothing: 0 (USB2+H05261)
Correct for Electrical Dark: No (USB2+H05261)
Strobe/Lamp Enabled: No (USB2+H05261)
Correct for Detector Non-linearity: No (USB2+H05261)
Correct for Stray Light: No (USB2+H05261)
Number of Pixels in Processed Spectrum: 2048
>>>>>Begin Processed Spectral Data<<<<<
365.73	30.43
365.92	30.43
366.12	30.43
366.32	0.00
366.52	0.00
366.72	0.00
366.91	0.00
367.11	0.00
367.31	0.00
367.51	0.00
367.70	0.00
367.90	0.00
368.10	0.00
368.30	0.00
368.49	0.00
368.69	0.00
368.89	0.00
369.09	0.00
369.28	0.00
369.48	0.00
369.68	0.00
369.87	0.00
370.07	0.00
370.27	0.00
370.47	0.00
370.66	0.00
370.86	0.00
371.06	0.00
371.25	0.00
371.45	0.00
371.65	0.00
371.84	0.00
372.04	0.00
372.24	0.00
372.44	30.43
372.63	0.00
372.83	0.00
373.03	0.00
373.22	4.68
373.42	72.56
373.62	0.00
373.81	0.00
374.01	11.70
374.21	58.51
374.40	51.49
374.60	9.36
374.79	53.83
374.99	49.15
375.19	60.85
375.38	49.15
375.58	56.17
375.78	0.00
375.97	30.43
376.17	28.09
376.37	32.77
376.56	25.75
376.76	70.22
376.95	0.00
377.15	0.00
377.35	4.68
377.54	42.13
377.74	35.11
377.93	0.00
378.13	21.06
378.33	18.72
378.52	37.45
378.72	46.81
378.91	32.77
379.11	37.45
379.31	28.09
379.50	0.00
379.70	2.34
379.89	74.90
380.09	0.00
380.28	21.06
380.48	56.17
380.68	77.24
380.87	60.85
381.07	2.34
381.26	9.36
381.46	0.00
381.65	23.41
381.85	4.68
382.04	0.00
382.24	32.77
382.43	18.72
382.63	46.81
382.83	51.49
383.02	74.90
383.22	32.77
383.41	0.00
383.61	0.00
383.80	30.43
384.00	14.04
384.19	0.00
384.39	21.06
384.58	0.00
384.78	35.11
384.97	39.79
385.17	74.90
385.36	0.00
385.56	67.88
385.75	0.00
385.95	0.00
386.14	0.00
386.34	28.09
386.53	53.83
386.72	0.00
386.92	0.00
387.11	49.15
387.31	0.00
387.50	0.00
387.70	49.15
387.89	7.02
388.09	0.00
388.28	67.88
388.48	23.41
388.67	14.04
388.86	14.04
389.06	11.70
389.25	28.09
389.45	0.00
389.64	0.00
389.84	49.15
390.03	79.58
390.22	56.17
390.42	23.41
390.61	37.45
390.81	0.00
391.00	91.28
391.19	16.38
391.39	53.83
391.58	0.00
391.78	0.00
391.97	18.72
392.16	11.70
392.36	37.45
392.55	37.45
392.75	9.36
392.94	0.00
393.13	0.00
393.33	0.00
393.52	39.79
393.71	60.85
393.91	67.88
394.10	11.70
394.29	28.09
394.49	23.41
394.68	39.79
394.88	0.00
395.07	0.00
395.26	0.00
395.46	0.00
395.65	51.49
395.84	28.09
396.04	0.00
396.23	7.02
396.42	0.00
396.62	0.00
396.81	53.83
397.00	23.41
397.19	14.04
397.39	2.34
397.58	56.17
397.77	77.24
397.97	4.68
398.16	46.81
398.35	0.00
398.55	30.43
398.74	79.58
398.93	0.00
399.12	21.06
399.32	46.81
399.51	32.77
399.70	46.81
399.90	63.19
400.09	72.56
400.28	30.43
400.47	63.19
400.67	9.36
400.86	4.68
401.05	28.09
401.24	37.45
401.44	0.00
401.63	77.24
401.82	0.00
402.01	0.00
402.21	58.51
402.40	37.45
402.59	0.00
402.78	11.70
402.97	25.75
403.17	65.54
403.36	74.90
403.55	11.70
403.74	16.38
403.93	25.75
404.13	0.00
404.32	0.00
404.51	70.22
404.70	37.45
404.89	51.49
405.09	49.15
405.28	91.28
405.47	11.70
405.66	18.72
405.85	42.13
406.05	0.00
406.24	23.41
406.43	0.00
406.62	14.04
406.81	0.00
407.00	51.49
407.20	88.94
407.39	56.17
407.58	0.00
407.77	67.88
407.96	49.15
408.15	35.11
408.34	86.60
408.54	30.43
408.73	0.00
408.92	91.28
409.11	4.68
409.30	0.00
409.49	46.81
409.68	42.13
409.87	39.79
410.07	53.83
410.26	39.79
410.45	0.00
410.64	42.13
410.83	16.38
411.02	70.22
411.21	49.15
411.40	0.00
411.59	0.00
411.78	35.11
411.98	53.83
412.17	2.34
412.36	51.49
412.55	0.00
412.74	42.13
412.93	44.47
413.12	0.00
413.31	2.34
413.50	74.90
413.69	0.00
413.88	18.72
414.07	37.45
414.26	86.60
414.45	65.54
414.64	42.13
414.83	9.36
415.02	60.85
415.22	51.49
415.41	46.81
415.60	32.77
415.79	37.45
415.98	21.06
416.17	67.88
416.36	84.26
416.55	23.41
416.74	0.00
416.93	18.72
417.12	30.43
417.31	37.45
417.50	35.11
417.69	74.90
417.88	0.00
418.07	37.45
418.26	86.60
418.45	23.41
418.64	35.11
418.83	51.49
419.02	0.00
419.21	42.13
419.39	9.36
419.58	79.58
419.77	30.43
419.96	51.49
420.15	0.00
420.34	56.17
420.53	112.35
420.72	23.41
420.91	39.79
421.10	79.58
421.29	72.56
421.48	63.19
421.67	25.75
421.86	0.00
422.05	70.22
422.24	32.77
422.43	77.24
422.61	74.90
422.80	60.85
422.99	16.38
423.18	147.45
423.37	140.43
423.56	95.96
423.75	37.45
423.94	114.69
424.13	0.00
424.32	32.77
424.50	98.30
424.69	98.30
424.88	30.43
425.07	65.54
425.26	0.00
425.45	18.72
425.64	23.41
425.83	28.09
426.01	32.77
426.20	4.68
426.39	14.04
426.58	16.38
426.77	60.85
426.96	121.71
427.15	67.88
427.33	0.00
427.52	74.90
427.71	2.34
427.90	74.90
428.09	63.19
428.28	32.77
428.46	16.38
428.65	58.51
428.84	7.02
429.03	79.58
429.22	35.11
429.40	91.28
429.59	93.62
429.78	21.06
429.97	37.45
430.16	46.81
430.34	0.00
430.53	7.02
430.72	49.15
430.91	30.43
431.10	60.85
431.28	0.00
431.47	4.68
431.66	14.04
431.85	88.94
432.03	23.41
432.22	49.15
432.41	0.00
432.60	16.38
432.79	28.09
432.97	0.00
433.16	51.49
433.35	16.38
433.54	32.77
433.72	30.43
433.91	0.00
434.10	95.96
434.28	53.83
434.47	37.45
434.66	58.51
434.85	86.60
435.03	112.35
435.22	93.62
435.41	9.36
435.59	72.56
435.78	63.19
435.97	18.72
436.16	63.19
436.34	14.04
436.53	81.92
436.72	37.45
436.90	60.85
437.09	51.49
437.28	51.49
437.46	28.09
437.65	72.56
437.84	65.54
438.02	0.00
438.21	65.54
438.40	25.75
438.58	0.00
438.77	86.60
438.96	23.41
439.14	100.64
439.33	30.43
439.52	65.54
439.70	0.00
439.89	39.79
440.08	30.43
440.26	65.54
440.45	16.38
440.63	18.72
440.82	32.77
441.01	53.83
441.19	28.09
441.38	107.66
441.57	72.56
441.75	25.75
441.94	35.11
442.12	14.04
442.31	18.72
442.50	28.09
442.68	42.13
442.87	25.75
443.05	63.19
443.24	58.51
443.43	56.17
443.61	56.17
443.80	39.79
443.98	32.77
444.17	39.79
444.35	25.75
444.54	135.75
444.73	30.43
444.91	79.58
445.10	100.64
445.28	112.35
445.47	42.13
445.65	35.11
445.84	7.02
446.02	74.90
446.21	51.49
446.39	95.96
446.58	110.01
446.77	58.51
446.95	91.28
447.14	16.38
447.32	88.94
447.51	2.34
447.69	67.88
447.88	7.02
448.06	102.98
448.25	0.00
448.43	0.00
448.62	16.38
448.80	4.68
448.99	110.01
449.17	0.00
449.36	23.41
449.54	46.81
449.73	35.11
449.91	39.79
450.10	49.15
450.28	46.81
450.46	0.00
450.65	51.49
450.83	37.45
451.02	100.64
451.20	44.47
451.39	51.49
451.57	37.45
451.76	107.66
451.94	0.00
452.13	51.49
452.31	88.94
452.49	32.77
452.68	79.58
452.86	28.09
453.05	4.68
453.23	72.56
453.42	67.88
453.60	81.92
453.78	72.56
453.97	56.17
454.15	77.24
454.34	49.15
454.52	65.54
454.70	11.70
454.89	23.41
455.07	11.70
455.26	46.81
455.44	42.13
455.62	58.51
455.81	58.51
455.99	32.77
456.17	32.77
456.36	9.36
456.54	60.85
456.73	32.77
456.91	23.41
457.09	60.85
457.28	28.09
457.46	37.45
457.64	84.26
457.83	2.34
458.01	121.71
458.19	37.45
458.38	93.62
458.56	51.49
458.74	0.00
458.93	88.94
459.11	23.41
459.29	114.69
459.48	37.45
459.66	39.79
459.84	37.45
460.03	86.60
460.21	0.00
460.39	53.83
460.57	63.19
460.76	18.72
460.94	100.64
461.12	21.06
461.31	0.00
461.49	98.30
461.67	112.35
461.85	112.35
462.04	35.11
462.22	124.05
462.40	35.11
462.59	60.85
462.77	88.94
462.95	49.15
463.13	14.04
463.32	79.58
463.50	23.41
463.68	110.01
463.86	131.07
464.05	100.64
464.23	74.90
464.41	56.17
464.59	60.85
464.78	44.47
464.96	0.00
465.14	65.54
465.32	35.11
465.50	11.70
465.69	32.77
465.87	49.15
466.05	67.88
466.23	37.45
466.41	0.00
466.60	114.69
466.78	25.75
466.96	86.60
467.14	42.13
467.32	74.90
467.51	0.00
467.69	44.47
467.87	42.13
468.05	112.35
468.23	95.96
468.41	16.38
468.60	21.06
468.78	49.15
468.96	72.56
469.14	60.85
469.32	65.54
469.50	79.58
469.69	74.90
469.87	11.70
470.05	84.26
470.23	42.13
470.41	95.96
470.59	74.90
470.77	81.92
470.95	0.00
471.14	44.47
471.32	0.00
471.50	44.47
471.68	42.13
471.86	21.06
472.04	42.13
472.22	32.77
472.40	91.28
472.58	63.19
472.77	39.79
472.95	49.15
473.13	152.13
473.31	63.19
473.49	44.47
473.67	32.77
473.85	53.83
474.03	74.90
474.21	16.38
474.39	2.34
474.57	112.35
474.75	42.13
474.93	65.54
475.12	72.56
475.30	51.49
475.48	67.88
475.66	44.47
475.84	2.34
476.02	105.32
476.20	70.22
476.38	65.54
476.56	37.45
476.74	65.54
476.92	16.38
477.10	56.17
477.28	49.15
477.46	28.09
477.64	79.58
477.82	39.79
478.00	9.36
478.18	72.56
478.36	56.17
478.54	9.36
478.72	70.22
478.90	102.98
479.08	84.26
479.26	112.35
479.44	79.58
479.62	28.09
479.80	32.77
479.98	0.00
480.16	119.37
480.34	39.79
480.52	56.17
480.70	46.81
480.88	25.75
481.06	60.85
481.24	0.00
481.41	60.85
481.59	91.28
481.77	58.51
481.95	0.00
482.13	30.43
482.31	0.00
482.49	23.41
482.67	56.17
482.85	60.85
483.03	46.81
483.21	114.69
483.39	51.49
483.57	88.94
483.74	28.09
483.92	25.75
484.10	49.15
484.28	67.88
484.46	37.45
484.64	58.51
484.82	100.64
485.00	25.75
485.18	39.79
485.35	138.09
485.53	35.11
485.71	77.24
485.89	86.60
486.07	0.00
486.25	135.75
486.43	0.00
486.61	70.22
486.78	65.54
486.96	49.15
487.14	51.49
487.32	53.83
487.50	4.68
487.68	88.94
487.85	86.60
488.03	121.71
488.21	0.00
488.39	56.17
488.57	152.13
488.75	135.75
488.92	67.88
489.10	39.79
489.28	100.64
489.46	23.41
489.64	84.26
489.81	51.49
489.99	102.98
490.17	56.17
490.35	60.85
490.53	28.09
490.70	102.98
490.88	84.26
491.06	42.13
491.24	138.09
491.41	74.90
491.59	37.45
491.77	100.64
491.95	70.22
492.13	79.58
492.30	44.47
492.48	9.36
492.66	65.54
492.84	28.09
493.01	147.45
493.19	100.64
493.37	44.47
493.54	37.45
493.72	84.26
493.90	65.54
494.08	28.09
494.25	98.30
494.43	88.94
494.61	25.75
494.79	39.79
494.96	72.56
495.14	102.98
495.32	74.90
495.49	70.22
495.67	37.45
495.85	91.28
496.02	81.92
496.20	70.22
496.38	84.26
496.55	63.19
496.73	102.98
496.91	46.81
497.09	128.73
497.26	84.26
497.44	98.30
497.62	14.04
497.79	72.56
497.97	119.37
498.14	81.92
498.32	133.41
498.50	51.49
498.67	131.07
498.85	112.35
499.03	74.90
499.20	77.24
499.38	112.35
499.56	98.30
499.73	110.01
499.91	79.58
500.08	84.26
500.26	72.56
500.44	88.94
500.61	91.28
500.79	60.85
500.97	105.32
501.14	81.92
501.32	86.60
501.49	124.05
501.67	0.00
501.84	42.13
502.02	35.11
502.20	7.02
502.37	74.90
502.55	79.58
502.72	39.79
502.90	16.38
503.07	79.58
503.25	51.49
503.43	98.30
503.60	81.92
503.78	21.06
503.95	0.00
504.13	42.13
504.30	44.47
504.48	81.92
504.65	56.17
504.83	2.34
505.01	56.17
505.18	81.92
505.36	117.03
505.53	84.26
505.71	79.58
505.88	30.43
506.06	95.96
506.23	145.11
506.41	30.43
506.58	88.94
506.76	86.60
506.93	128.73
507.11	93.62
507.28	58.51
507.46	35.11
507.63	2.34
507.81	133.41
507.98	56.17
508.16	65.54
508.33	63.19
508.50	81.92
508.68	88.94
508.85	70.22
509.03	23.41
509.20	2.34
509.38	100.64
509.55	114.69
509.73	107.66
509.90	67.88
510.08	95.96
510.25	112.35
510.42	140.43
510.60	131.07
510.77	91.28
510.95	114.69
511.12	93.62
511.30	23.41
511.47	121.71
511.64	18.72
511.82	0.00
511.99	177.88
512.17	121.71
512.34	0.00
512.51	74.90
512.69	65.54
512.86	56.17
513.04	77.24
513.21	98.30
513.38	84.26
513.56	53.83
513.73	77.24
513.90	18.72
514.08	110.01
514.25	105.32
514.43	117.03
514.60	42.13
514.77	119.37
514.95	70.22
515.12	84.26
515.29	42.13
515.47	56.17
515.64	58.51
515.81	44.47
515.99	51.49
516.16	114.69
516.33	88.94
516.51	35.11
516.68	67.88
516.85	91.28
517.03	25.75
517.20	84.26
517.37	98.30
517.54	23.41
517.72	51.49
517.89	72.56
518.06	77.24
518.24	142.77
518.41	60.85
518.58	112.35
518.75	128.73
518.93	65.54
519.10	77.24
519.27	42.13
519.45	124.05
519.62	100.64
519.79	112.35
519.96	28.09
520.14	72.56
520.31	135.75
520.48	51.49
520.65	86.60
520.83	14.04
521.00	91.28
521.17	67.88
521.34	138.09
521.52	121.71
521.69	60.85
521.86	18.72
522.03	86.60
522.20	88.94
522.38	32.77
522.55	37.45
522.72	74.90
522.89	23.41
523.07	140.43
523.24	16.38
523.41	114.69
523.58	44.47
523.75	42.13
523.92	95.96
524.10	133.41
524.27	121.71
524.44	53.83
524.61	49.15
524.78	58.51
524.96	81.92
525.13	88.94
525.30	56.17
525.47	21.06
525.64	56.17
525.81	91.28
525.98	95.96
526.16	72.56
526.33	42.13
526.50	156.82
526.67	74.90
526.84	84.26
527.01	126.39
527.18	46.81
527.36	98.30
527.53	46.81
527.70	72.56
527.87	100.64
528.04	156.82
528.21	128.73
528.38	114.69
528.55	152.13
528.72	145.11
528.89	84.26
529.07	63.19
529.24	126.39
529.41	126.39
529.58	93.62
529.75	119.37
529.92	95.96
530.09	117.03
530.26	163.84
530.43	100.64
530.60	124.05
530.77	46.81
530.94	84.26
531.11	93.62
531.28	138.09
531.46	107.66
531.63	53.83
531.80	98.30
531.97	74.90
532.14	28.09
532.31	91.28
532.48	72.56
532.65	30.43
532.82	49.15
532.99	14.04
533.16	44.47
533.33	147.45
533.50	53.83
533.67	93.62
533.84	95.96
534.01	135.75
534.18	42.13
534.35	114.69
534.52	121.71
534.69	77.24
534.86	91.28
535.03	67.88
535.20	53.83
535.37	175.54
535.54	23.41
535.71	72.56
535.88	88.94
536.05	177.88
536.22	112.35
536.38	42.13
536.55	81.92
536.72	72.56
536.89	117.03
537.06	100.64
537.23	98.30
537.40	77.24
537.57	98.30
537.74	133.41
537.91	49.15
538.08	53.83
538.25	107.66
538.42	58.51
538.59	49.15
538.75	28.09
538.92	42.13
539.09	86.60
539.26	81.92
539.43	105.32
539.60	91.28
539.77	86.60
539.94	53.83
540.11	30.43
540.28	63.19
540.44	42.13
540.61	46.81
540.78	65.54
540.95	81.92
541.12	53.83
541.29	91.28
541.46	35.11
541.62	112.35
541.79	86.60
541.96	60.85
542.13	126.39
542.30	0.00
542.47	37.45
542.63	30.43
542.80	117.03
542.97	105.32
543.14	51.49
543.31	110.01
543.48	128.73
543.64	102.98
543.81	44.47
543.98	18.72
544.15	51.49
544.32	128.73
544.48	133.41
544.65	74.90
544.82	46.81
544.99	119.37
545.16	37.45
545.32	65.54
545.49	25.75
545.66	67.88
545.83	65.54
546.00	46.81
546.16	28.09
546.33	74.90
546.50	56.17
546.67	91.28
546.83	100.64
547.00	138.09
547.17	56.17
547.34	110.01
547.50	72.56
547.67	145.11
547.84	84.26
548.00	53.83
548.17	74.90
548.34	49.15
548.51	56.17
548.67	105.32
548.84	74.90
549.01	138.09
549.18	0.00
549.34	138.09
549.51	70.22
549.68	126.39
549.84	86.60
550.01	58.51
550.18	86.60
550.34	70.22
550.51	77.24
550.68	46.81
550.84	23.41
551.01	46.81
551.18	46.81
551.34	46.81
551.51	84.26
551.68	121.71
551.84	98.30
552.01	60.85
552.18	39.79
552.34	42.13
552.51	18.72
552.68	7.02
552.84	37.45
553.01	70.22
553.18	65.54
553.34	95.96
553.51	53.83
553.67	112.35
553.84	58.51
554.01	86.60
554.17	84.26
554.34	70.22
554.51	58.51
554.67	88.94
554.84	32.77
555.00	124.05
555.17	95.96
555.33	51.49
555.50	145.11
555.67	49.15
555.83	102.98
556.00	102.98
556.16	58.51
556.33	145.11
556.50	98.30
556.66	86.60
556.83	30.43
556.99	56.17
557.16	100.64
557.32	42.13
557.49	86.60
557.65	16.38
557.82	51.49
557.98	98.30
558.15	53.83
558.32	95.96
558.48	91.28
558.65	39.79
558.81	35.11
558.98	74.90
559.14	16.38
559.31	119.37
559.47	117.03
559.64	91.28
559.80	86.60
559.97	18.72
560.13	135.75
560.30	86.60
560.46	95.96
560.63	93.62
560.79	114.69
560.96	9.36
561.12	63.19
561.29	117.03
561.45	63.19
561.61	44.47
561.78	117.03
561.94	175.54
562.11	124.05
562.27	44.47
562.44	105.32
562.60	72.56
562.77	67.88
562.93	117.03
563.10	18.72
563.26	140.43
563.42	88.94
563.59	114.69
563.75	70.22
563.92	16.38
564.08	100.64
564.24	72.56
564.41	114.69
564.57	112.35
564.74	4.68
564.90	44.47
565.07	138.09
565.23	44.47
565.39	58.51
565.56	128.73
565.72	182.56
565.88	53.83
566.05	102.98
566.21	58.51
566.38	77.24
566.54	42.13
566.70	112.35
566.87	7.02
567.03	46.81
567.19	67.88
567.36	56.17
567.52	60.85
567.68	65.54
567.85	79.58
568.01	121.71
568.17	102.98
568.34	88.94
568.50	77.24
568.66	110.01
568.83	138.09
568.99	135.75
569.15	88.94
569.32	95.96
569.48	0.00
569.64	44.47
569.81	21.06
569.97	93.62
570.13	67.88
570.30	74.90
570.46	74.90
570.62	100.64
570.78	133.41
570.95	58.51
571.11	161.50
571.27	98.30
571.43	100.64
571.60	102.98
571.76	53.83
571.92	131.07
572.09	67.88
572.25	25.75
572.41	58.51
572.57	114.69
572.74	126.39
572.90	77.24
573.06	56.17
573.22	42.13
573.38	81.92
573.55	95.96
573.71	98.30
573.87	37.45
574.03	100.64
574.20	46.81
574.36	63.19
574.52	81.92
574.68	126.39
574.84	100.64
575.01	126.39
575.17	79.58
575.33	119.37
575.49	86.60
575.65	84.26
575.82	91.28
575.98	88.94
576.14	37.45
576.30	131.07
576.46	102.98
576.62	88.94
576.79	56.17
576.95	124.05
577.11	102.98
577.27	44.47
577.43	9.36
577.59	37.45
577.75	102.98
577.92	131.07
578.08	81.92
578.24	128.73
578.40	110.01
578.56	119.37
578.72	63.19
578.88	107.66
579.04	74.90
579.21	53.83
579.37	53.83
579.53	49.15
579.69	60.85
579.85	35.11
580.01	105.32
580.17	93.62
580.33	0.00
580.49	107.66
580.65	65.54
580.82	114.69
580.98	63.19
581.14	60.85
581.30	102.98
581.46	58.51
581.62	56.17
581.78	74.90
581.94	93.62
582.10	88.94
582.26	58.51
582.42	53.83
582.58	98.30
582.74	42.13
582.90	117.03
583.06	95.96
583.22	77.24
583.38	0.00
583.54	72.56
583.70	95.96
583.86	100.64
584.02	32.77
584.18	44.47
584.34	72.56
584.50	149.79
584.66	44.47
584.82	110.01
584.98	67.88
585.14	93.62
585.30	44.47
585.46	44.47
585.62	98.30
585.78	77.24
585.94	0.00
586.10	60.85
586.26	65.54
586.42	112.35
586.58	74.90
586.74	35.11
586.90	2.34
587.06	9.36
587.22	4.68
587.38	72.56
587.54	49.15
587.70	74.90
587.86	70.22
588.02	44.47
588.18	30.43
588.34	23.41
588.49	0.00
588.65	0.00
588.81	142.77
588.97	58.51
589.13	60.85
589.29	138.09
589.45	72.56
589.61	70.22
589.77	23.41
589.93	28.09
590.08	60.85
590.24	56.17
590.40	32.77
590.56	95.96
590.72	51.49
590.88	107.66
591.04	124.05
591.20	56.17
591.35	23.41
591.51	9.36
591.67	56.17
591.83	128.73
591.99	110.01
592.15	77.24
592.31	23.41
592.46	28.09
592.62	110.01
592.78	53.83
592.94	74.90
593.10	105.32
593.26	74.90
593.41	119.37
593.57	105.32
593.73	56.17
593.89	81.92
594.05	81.92
594.20	81.92
594.36	11.70
594.52	16.38
594.68	112.35
594.84	102.98
594.99	102.98
595.15	79.58
595.31	14.04
595.47	138.09
595.62	70.22
595.78	39.79
595.94	138.09
596.10	0.00
596.25	110.01
596.41	60.85
596.57	77.24
596.73	91.28
596.88	135.75
597.04	53.83
597.20	93.62
597.36	49.15
597.51	107.66
597.67	126.39
597.83	79.58
597.99	74.90
598.14	105.32
598.30	70.22
598.46	58.51
598.61	91.28
598.77	56.17
598.93	112.35
599.09	81.92
599.24	39.79
599.40	124.05
599.56	93.62
599.71	95.96
599.87	88.94
600.03	93.62
600.18	58.51
600.34	11.70
600.50	16.38
600.65	79.58
600.81	131.07
600.97	28.09
601.12	28.09
601.28	67.88
601.44	49.15
601.59	84.26
601.75	70.22
601.91	65.54
602.06	112.35
602.22	119.37
602.37	28.09
602.53	21.06
602.69	98.30
602.84	32.77
603.00	18.72
603.16	133.41
603.31	51.49
603.47	88.94
603.62	95.96
603.78	105.32
603.94	21.06
604.09	67.88
604.25	112.35
604.40	145.11
604.56	65.54
604.71	93.62
604.87	86.60
605.03	53.83
605.18	18.72
605.34	84.26
605.49	91.28
605.65	121.71
605.80	51.49
605.96	107.66
606.12	133.41
606.27	88.94
606.43	51.49
606.58	72.56
606.74	0.00
606.89	37.45
607.05	0.00
607.20	133.41
607.36	84.26
607.51	112.35
607.67	21.06
607.82	100.64
607.98	86.60
608.13	46.81
608.29	100.64
608.44	138.09
608.60	32.77
608.75	63.19
608.91	44.47
609.06	93.62
609.22	49.15
609.37	49.15
609.53	56.17
609.68	102.98
609.84	100.64
609.99	21.06
610.15	28.09
610.30	100.64
610.46	9.36
610.61	128.73
610.76	53.83
610.92	56.17
611.07	84.26
611.23	51.49
611.38	58.51
611.54	86.60
611.69	84.26
611.84	39.79
612.00	98.30
612.15	77.24
612.31	53.83
612.46	88.94
612.62	79.58
612.77	98.30
612.92	81.92
613.08	77.24
613.23	0.00
613.39	63.19
613.54	25.75
613.69	79.58
613.85	105.32
614.00	95.96
614.15	56.17
614.31	51.49
614.46	46.81
614.62	84.26
614.77	112.35
614.92	46.81
615.08	70.22
615.23	46.81
615.38	28.09
615.54	0.00
615.69	98.30
615.84	100.64
616.00	112.35
616.15	0.00
616.30	49.15
616.46	42.13
616.61	39.79
616.76	84.26
616.92	79.58
617.07	86.60
617.22	70.22
617.37	60.85
617.53	74.90
617.68	42.13
617.83	86.60
617.99	119.37
618.14	49.15
618.29	77.24
618.45	42.13
618.60	44.47
618.75	70.22
618.90	102.98
619.06	79.58
619.21	77.24
619.36	86.60
619.51	100.64
619.67	30.43
619.82	105.32
619.97	23.41
620.12	79.58
620.28	21.06
620.43	28.09
620.58	166.18
620.73	74.90
620.89	18.72
621.04	58.51
621.19	86.60
621.34	107.66
621.49	105.32
621.65	119.37
621.80	107.66
621.95	98.30
622.10	72.56
622.25	147.45
622.41	72.56
622.56	72.56
622.71	25.75
622.86	124.05
623.01	0.00
623.16	105.32
623.32	79.58
623.47	84.26
623.62	32.77
623.77	81.92
623.92	4.68
624.07	0.00
624.23	67.88
624.38	30.43
624.53	25.75
624.68	65.54
624.83	67.88
624.98	79.58
625.13	42.13
625.29	37.45
625.44	77.24
625.59	112.35
625.74	100.64
625.89	112.35
626.04	53.83
626.19	60.85
626.34	63.19
626.49	9.36
626.65	91.28
626.80	49.15
626.95	7.02
627.10	16.38
627.25	49.15
627.40	74.90
627.55	28.09
627.70	42.13
627.85	42.13
628.00	0.00
628.15	86.60
628.30	63.19
628.45	79.58
628.60	91.28
628.76	93.62
628.91	56.17
629.06	67.88
629.21	0.00
629.36	91.28
629.51	58.51
629.66	46.81
629.81	110.01
629.96	11.70
630.11	84.26
630.26	65.54
630.41	56.17
630.56	88.94
630.71	51.49
630.86	35.11
631.01	25.75
631.16	32.77
631.31	81.92
631.46	72.56
631.61	91.28
631.76	42.13
631.91	53.83
632.06	81.92
632.21	60.85
632.36	30.43
632.51	30.43
632.66	105.32
632.81	11.70
632.96	0.00
633.10	58.51
633.25	77.24
633.40	88.94
633.55	112.35
633.70	30.43
633.85	117.03
634.00	53.83
634.15	44.47
634.30	124.05
634.45	65.54
634.60	98.30
634.75	28.09
634.90	30.43
635.05	44.47
635.19	49.15
635.34	37.45
635.49	35.11
635.64	117.03
635.79	39.79
635.94	23.41
636.09	124.05
636.24	49.15
636.39	58.51
636.53	65.54
636.68	25.75
636.83	65.54
636.98	42.13
637.13	51.49
637.28	49.15
637.43	32.77
637.57	105.32
637.72	88.94
637.87	39.79
638.02	77.24
638.17	79.58
638.32	84.26
638.46	63.19
638.61	98.30
638.76	81.92
638.91	60.85
639.06	56.17
639.20	14.04
639.35	16.38
639.50	56.17
639.65	53.83
639.80	21.06
639.94	37.45
640.09	37.45
640.24	63.19
640.39	91.28
640.54	32.77
640.68	63.19
640.83	58.51
640.98	51.49
641.13	102.98
641.27	102.98
641.42	51.49
641.57	102.98
641.72	39.79
641.86	44.47
642.01	14.04
642.16	39.79
642.31	42.13
642.45	51.49
642.60	112.35
642.75	37.45
642.90	72.56
643.04	46.81
643.19	11.70
643.34	30.43
643.48	49.15
643.63	23.41
643.78	42.13
643.93	77.24
644.07	60.85
644.22	49.15
644.37	4.68
644.51	98.30
644.66	58.51
644.81	65.54
644.95	65.54
645.10	0.00
645.25	51.49
645.39	37.45
645.54	42.13
645.69	30.43
645.83	65.54
645.98	86.60
646.13	58.51
646.27	105.32
646.42	65.54
646.57	105.32
646.71	16.38
646.86	42.13
647.00	32.77
647.15	35.11
647.30	16.38
647.44	100.64
647.59	63.19
647.74	4.68
647.88	161.50
648.03	100.64
648.17	88.94
648.32	93.62
648.47	65.54
648.61	42.13
648.76	98.30
648.90	0.00
649.05	79.58
649.20	28.09
649.34	95.96
649.49	23.41
649.63	102.98
649.78	98.30
649.92	46.81
650.07	60.85
650.21	30.43
650.36	86.60
650.51	88.94
650.65	86.60
650.80	72.56
650.94	79.58
651.09	102.98
651.23	28.09
651.38	72.56
651.52	77.24
651.67	35.11
651.81	84.26
651.96	56.17
652.10	107.66
652.25	60.85
652.39	42.13
652.54	21.06
652.68	53.83
652.83	91.28
652.97	53.83
653.12	74.90
653.26	46.81
653.41	60.85
653.55	56.17
653.70	93.62
653.84	25.75
653.99	0.00
654.13	63.19
654.27	56.17
654.42	119.37
654.56	126.39
654.71	44.47
654.85	35.11
655.00	67.88
655.14	77.24
655.29	7.02
655.43	105.32
655.57	95.96
655.72	112.35
655.86	25.75
656.01	2.34
656.15	35.11
656.30	77.24
656.44	105.32
656.58	25.75
656.73	42.13
656.87	100.64
657.01	93.62
657.16	81.92
657.30	46.81
657.45	35.11
657.59	93.62
657.73	63.19
657.88	4.68
658.02	105.32
658.16	114.69
658.31	39.79
658.45	98.30
658.60	95.96
658.74	91.28
658.88	30.43
659.03	110.01
659.17	65.54
659.31	121.71
659.46	30.43
659.60	32.77
659.74	23.41
659.89	46.81
660.03	25.75
660.17	79.58
660.32	0.00
660.46	44.47
660.60	9.36
660.74	93.62
660.89	63.19
661.03	63.19
661.17	79.58
661.32	42.13
661.46	79.58
661.60	44.47
661.74	51.49
661.89	25.75
662.03	58.51
662.17	28.09
662.31	65.54
662.46	0.00
662.60	21.06
662.74	53.83
662.88	93.62
663.03	14.04
663.17	46.81
663.31	53.83
663.45	46.81
663.60	28.09
663.74	121.71
663.88	0.00
664.02	32.77
664.17	81.92
664.31	93.62
664.45	44.47
664.59	32.77
664.73	112.35
664.88	58.51
665.02	49.15
665.16	0.00
665.30	56.17
665.44	53.83
665.59	0.00
665.73	2.34
665.87	32.77
666.01	72.56
666.15	28.09
666.29	81.92
666.44	42.13
666.58	91.28
666.72	77.24
666.86	102.98
667.00	18.72
667.14	0.00
667.28	0.00
667.43	32.77
667.57	58.51
667.71	46.81
667.85	53.83
667.99	44.47
668.13	49.15
668.27	107.66
668.41	32.77
668.56	0.00
668.70	84.26
668.84	44.47
668.98	37.45
669.12	16.38
669.26	30.43
669.40	35.11
669.54	25.75
669.68	70.22
669.82	126.39
669.96	70.22
670.10	37.45
670.25	46.81
670.39	42.13
670.53	56.17
670.67	93.62
670.81	105.32
670.95	107.66
671.09	35.11
671.23	74.90
671.37	56.17
671.51	0.00
671.65	0.00
671.79	91.28
671.93	121.71
672.07	49.15
672.21	32.77
672.35	9.36
672.49	53.83
672.63	63.19
672.77	0.00
672.91	23.41
673.05	53.83
673.19	39.79
673.33	49.15
673.47	37.45
673.61	0.00
673.75	58.51
673.89	21.06
674.03	53.83
674.17	0.00
674.31	49.15
674.45	0.00
674.59	79.58
674.73	121.71
674.87	79.58
675.01	67.88
675.15	149.79
675.29	46.81
675.43	95.96
675.56	51.49
675.70	0.00
675.84	28.09
675.98	23.41
676.12	16.38
676.26	72.56
676.40	49.15
676.54	46.81
676.68	70.22
676.82	28.09
676.96	56.17
677.10	39.79
677.23	121.71
677.37	114.69
677.51	65.54
677.65	21.06
677.79	98.30
677.93	105.32
678.07	0.00
678.21	0.00
678.34	25.75
678.48	18.72
678.62	7.02
678.76	72.56
678.90	14.04
679.04	58.51
679.18	63.19
679.31	105.32
679.45	39.79
679.59	14.04
679.73	77.24
679.87	0.00
680.00	42.13
680.14	28.09
680.28	117.03
680.42	46.81
680.56	77.24
680.70	67.88
680.83	42.13
680.97	42.13
681.11	16.38
681.25	91.28
681.39	14.04
681.52	74.90
681.66	49.15
681.80	51.49
681.94	77.24
682.07	81.92
682.21	58.51
682.35	81.92
682.49	58.51
682.62	0.00
682.76	30.43
682.90	9.36
683.04	25.75
683.17	77.24
683.31	16.38
683.45	58.51
683.59	46.81
683.72	65.54
683.86	56.17
684.00	30.43
684.13	105.32
684.27	0.00
684.41	32.77
684.55	93.62
684.68	21.06
684.82	77.24
684.96	39.79
685.09	28.09
685.23	51.49
685.37	9.36
685.50	84.26
685.64	84.26
685.78	30.43
685.91	100.64
686.05	11.70
686.19	56.17
686.32	46.81
686.46	37.45
686.60	0.00
686.73	86.60
686.87	0.00
687.01	0.00
687.14	4.68
687.28	39.79
687.42	28.09
687.55	46.81
687.69	21.06
687.82	77.24
687.96	25.75
688.10	42.13
688.23	35.11
688.37	4.68
688.50	46.81
688.64	35.11
688.78	51.49
688.91	53.83
689.05	25.75
689.18	42.13
689.32	72.56
689.46	49.15
689.59	58.51
689.73	0.00
689.86	37.45
690.00	53.83
690.13	14.04
690.27	18.72
690.41	0.00
690.54	37.45
690.68	4.68
690.81	79.58
690.95	23.41
691.08	110.01
691.22	35.11
691.35	11.70
691.49	72.56
691.62	39.79
691.76	0.00
691.89	58.51
692.03	21.06
692.16	7.02
692.30	0.00
692.43	39.79
692.57	35.11
692.70	2.34
692.84	14.04
692.97	58.51
693.11	25.75
693.24	44.47
693.38	74.90
693.51	35.11
693.65	81.92
693.78	84.26
693.92	4.68
694.05	28.09
694.19	49.15
694.32	30.43
694.45	0.00
694.59	0.00
694.72	44.47
694.86	9.36
694.99	4.68
695.13	25.75
695.26	49.15
695.39	39.79
695.53	7.02
695.66	70.22
695.80	91.28
695.93	37.45
696.07	0.00
696.20	0.00
696.33	11.70
696.47	21.06
696.60	67.88
696.73	44.47
696.87	32.77
697.00	121.71
697.14	98.30
697.27	65.54
697.40	56.17
697.54	77.24
697.67	9.36
697.80	4.68
697.94	9.36
698.07	121.71
698.21	37.45
698.34	32.77
698.47	0.00
698.61	30.43
698.74	42.13
698.87	72.56
699.01	114.69
699.14	18.72
699.27	0.00
699.40	2.34
699.54	28.09
699.67	60.85
699.80	21.06
699.94	0.00
700.07	44.47
700.20	0.00
700.34	67.88
700.47	2.34
700.60	32.77
700.73	0.00
700.87	46.81
701.00	0.00
701.13	67.88
701.26	58.51
701.40	35.11
701.53	81.92
701.66	0.00
701.79	63.19
701.93	32.77
702.06	72.56
702.19	86.60
702.32	25.75
702.46	35.11
702.59	63.19
702.72	23.41
702.85	35.11
702.99	7.02
703.12	2.34
703.25	44.47
703.38	79.58
703.51	14.04
703.65	81.92
703.78	128.73
703.91	0.00
704.04	0.00
704.17	46.81
704.31	79.58
704.44	140.43
704.57	0.00
704.70	44.47
704.83	21.06
704.96	81.92
705.10	81.92
705.23	30.43
>>>>>End Processed Spectral Data<<<<<
