SpectraSuite Data File
++++++++++++++++++++++++++++++++++++
Date: Fri Oct 04 12:13:36 GMT-05:00 2013
User: price-jones
Dark Spectrum Present: No
Reference Spectrum Present: No
Number of Sampled Component Spectra: 1
Spectrometers: USB2+H05261
Integration Time (usec): 10000 (USB2+H05261)
Spectra Averaged: 1 (USB2+H05261)
Boxcar Smoothing: 0 (USB2+H05261)
Correct for Electrical Dark: No (USB2+H05261)
Strobe/Lamp Enabled: No (USB2+H05261)
Correct for Detector Non-linearity: No (USB2+H05261)
Correct for Stray Light: No (USB2+H05261)
Number of Pixels in Processed Spectrum: 2048
>>>>>Begin Processed Spectral Data<<<<<
365.73	7.02
365.92	7.02
366.12	7.02
366.32	0.00
366.52	0.00
366.72	0.00
366.91	0.00
367.11	0.00
367.31	0.00
367.51	0.00
367.70	0.00
367.90	0.00
368.10	0.00
368.30	0.00
368.49	0.00
368.69	0.00
368.89	0.00
369.09	0.00
369.28	0.00
369.48	0.00
369.68	0.00
369.87	0.00
370.07	0.00
370.27	0.00
370.47	0.00
370.66	0.00
370.86	0.00
371.06	4.68
371.25	11.70
371.45	0.00
371.65	0.00
371.84	0.00
372.04	0.00
372.24	0.00
372.44	18.72
372.63	4.68
372.83	0.00
373.03	0.00
373.22	0.00
373.42	28.09
373.62	37.45
373.81	72.56
374.01	0.00
374.21	58.51
374.40	9.36
374.60	51.49
374.79	0.00
374.99	0.00
375.19	46.81
375.38	63.19
375.58	67.88
375.78	58.51
375.97	0.00
376.17	79.58
376.37	42.13
376.56	0.00
376.76	0.00
376.95	25.75
377.15	11.70
377.35	14.04
377.54	0.00
377.74	4.68
377.93	0.00
378.13	49.15
378.33	51.49
378.52	23.41
378.72	0.00
378.91	65.54
379.11	0.00
379.31	0.00
379.50	42.13
379.70	14.04
379.89	65.54
380.09	21.06
380.28	70.22
380.48	28.09
380.68	0.00
380.87	49.15
381.07	0.00
381.26	0.00
381.46	0.00
381.65	37.45
381.85	0.00
382.04	28.09
382.24	58.51
382.43	49.15
382.63	49.15
382.83	0.00
383.02	35.11
383.22	35.11
383.41	9.36
383.61	0.00
383.80	0.00
384.00	37.45
384.19	42.13
384.39	0.00
384.58	79.58
384.78	72.56
384.97	28.09
385.17	0.00
385.36	0.00
385.56	21.06
385.75	0.00
385.95	84.26
386.14	0.00
386.34	0.00
386.53	9.36
386.72	14.04
386.92	18.72
387.11	37.45
387.31	28.09
387.50	14.04
387.70	72.56
387.89	0.00
388.09	32.77
388.28	9.36
388.48	0.00
388.67	79.58
388.86	18.72
389.06	0.00
389.25	56.17
389.45	46.81
389.64	0.00
389.84	95.96
390.03	0.00
390.22	0.00
390.42	0.00
390.61	37.45
390.81	23.41
391.00	11.70
391.19	51.49
391.39	0.00
391.58	16.38
391.78	0.00
391.97	37.45
392.16	0.00
392.36	0.00
392.55	49.15
392.75	0.00
392.94	0.00
393.13	63.19
393.33	53.83
393.52	0.00
393.71	23.41
393.91	30.43
394.10	46.81
394.29	0.00
394.49	95.96
394.68	53.83
394.88	56.17
395.07	21.06
395.26	16.38
395.46	21.06
395.65	63.19
395.84	0.00
396.04	35.11
396.23	86.60
396.42	11.70
396.62	77.24
396.81	0.00
397.00	35.11
397.19	2.34
397.39	0.00
397.58	0.00
397.77	133.41
397.97	37.45
398.16	42.13
398.35	0.00
398.55	25.75
398.74	32.77
398.93	37.45
399.12	0.00
399.32	39.79
399.51	4.68
399.70	14.04
399.90	86.60
400.09	44.47
400.28	25.75
400.47	95.96
400.67	0.00
400.86	0.00
401.05	4.68
401.24	28.09
401.44	37.45
401.63	56.17
401.82	0.00
402.01	4.68
402.21	39.79
402.40	25.75
402.59	51.49
402.78	16.38
402.97	28.09
403.17	0.00
403.36	0.00
403.55	0.00
403.74	79.58
403.93	93.62
404.13	4.68
404.32	0.00
404.51	42.13
404.70	44.47
404.89	67.88
405.09	44.47
405.28	11.70
405.47	56.17
405.66	30.43
405.85	2.34
406.05	51.49
406.24	74.90
406.43	32.77
406.62	44.47
406.81	49.15
407.00	30.43
407.20	51.49
407.39	126.39
407.58	28.09
407.77	9.36
407.96	35.11
408.15	35.11
408.34	35.11
408.54	0.00
408.73	0.00
408.92	23.41
409.11	56.17
409.30	42.13
409.49	25.75
409.68	0.00
409.87	32.77
410.07	37.45
410.26	56.17
410.45	2.34
410.64	21.06
410.83	32.77
411.02	14.04
411.21	70.22
411.40	46.81
411.59	84.26
411.78	74.90
411.98	65.54
412.17	0.00
412.36	16.38
412.55	84.26
412.74	100.64
412.93	16.38
413.12	9.36
413.31	0.00
413.50	2.34
413.69	0.00
413.88	0.00
414.07	25.75
414.26	0.00
414.45	11.70
414.64	67.88
414.83	25.75
415.02	42.13
415.22	30.43
415.41	86.60
415.60	28.09
415.79	32.77
415.98	46.81
416.17	81.92
416.36	70.22
416.55	25.75
416.74	63.19
416.93	0.00
417.12	39.79
417.31	30.43
417.50	65.54
417.69	21.06
417.88	95.96
418.07	35.11
418.26	18.72
418.45	18.72
418.64	0.00
418.83	44.47
419.02	49.15
419.21	28.09
419.39	0.00
419.58	39.79
419.77	58.51
419.96	32.77
420.15	9.36
420.34	42.13
420.53	56.17
420.72	91.28
420.91	86.60
421.10	63.19
421.29	46.81
421.48	93.62
421.67	53.83
421.86	39.79
422.05	25.75
422.24	37.45
422.43	35.11
422.61	0.00
422.80	30.43
422.99	56.17
423.18	81.92
423.37	42.13
423.56	0.00
423.75	56.17
423.94	25.75
424.13	7.02
424.32	70.22
424.50	58.51
424.69	152.13
424.88	91.28
425.07	102.98
425.26	60.85
425.45	9.36
425.64	53.83
425.83	28.09
426.01	9.36
426.20	21.06
426.39	63.19
426.58	58.51
426.77	7.02
426.96	21.06
427.15	23.41
427.33	21.06
427.52	35.11
427.71	105.32
427.90	124.05
428.09	84.26
428.28	0.00
428.46	65.54
428.65	32.77
428.84	84.26
429.03	21.06
429.22	51.49
429.40	79.58
429.59	60.85
429.78	74.90
429.97	0.00
430.16	91.28
430.34	37.45
430.53	25.75
430.72	67.88
430.91	77.24
431.10	25.75
431.28	16.38
431.47	42.13
431.66	4.68
431.85	35.11
432.03	88.94
432.22	35.11
432.41	14.04
432.60	21.06
432.79	114.69
432.97	51.49
433.16	77.24
433.35	28.09
433.54	23.41
433.72	7.02
433.91	25.75
434.10	35.11
434.28	0.00
434.47	16.38
434.66	0.00
434.85	23.41
435.03	70.22
435.22	63.19
435.41	44.47
435.59	65.54
435.78	0.00
435.97	16.38
436.16	9.36
436.34	39.79
436.53	32.77
436.72	84.26
436.90	0.00
437.09	65.54
437.28	67.88
437.46	30.43
437.65	18.72
437.84	56.17
438.02	117.03
438.21	32.77
438.40	28.09
438.58	0.00
438.77	100.64
438.96	102.98
439.14	32.77
439.33	58.51
439.52	0.00
439.70	49.15
439.89	60.85
440.08	44.47
440.26	102.98
440.45	86.60
440.63	35.11
440.82	44.47
441.01	30.43
441.19	0.00
441.38	95.96
441.57	16.38
441.75	51.49
441.94	46.81
442.12	35.11
442.31	32.77
442.50	25.75
442.68	53.83
442.87	63.19
443.05	0.00
443.24	58.51
443.43	37.45
443.61	0.00
443.80	65.54
443.98	77.24
444.17	110.01
444.35	93.62
444.54	0.00
444.73	84.26
444.91	42.13
445.10	44.47
445.28	51.49
445.47	28.09
445.65	0.00
445.84	84.26
446.02	86.60
446.21	0.00
446.39	30.43
446.58	91.28
446.77	7.02
446.95	91.28
447.14	100.64
447.32	77.24
447.51	0.00
447.69	70.22
447.88	23.41
448.06	42.13
448.25	0.00
448.43	100.64
448.62	70.22
448.80	72.56
448.99	102.98
449.17	51.49
449.36	56.17
449.54	51.49
449.73	60.85
449.91	49.15
450.10	0.00
450.28	35.11
450.46	2.34
450.65	95.96
450.83	39.79
451.02	65.54
451.20	0.00
451.39	107.66
451.57	72.56
451.76	70.22
451.94	46.81
452.13	37.45
452.31	28.09
452.49	11.70
452.68	46.81
452.86	102.98
453.05	18.72
453.23	72.56
453.42	63.19
453.60	42.13
453.78	35.11
453.97	42.13
454.15	86.60
454.34	51.49
454.52	56.17
454.70	86.60
454.89	86.60
455.07	53.83
455.26	42.13
455.44	65.54
455.62	30.43
455.81	58.51
455.99	93.62
456.17	51.49
456.36	60.85
456.54	25.75
456.73	95.96
456.91	86.60
457.09	23.41
457.28	93.62
457.46	102.98
457.64	2.34
457.83	39.79
458.01	0.00
458.19	0.00
458.38	21.06
458.56	28.09
458.74	25.75
458.93	95.96
459.11	70.22
459.29	46.81
459.48	53.83
459.66	67.88
459.84	121.71
460.03	44.47
460.21	30.43
460.39	0.00
460.57	63.19
460.76	77.24
460.94	30.43
461.12	107.66
461.31	79.58
461.49	46.81
461.67	121.71
461.85	46.81
462.04	65.54
462.22	173.20
462.40	58.51
462.59	67.88
462.77	4.68
462.95	21.06
463.13	7.02
463.32	65.54
463.50	58.51
463.68	65.54
463.86	72.56
464.05	28.09
464.23	37.45
464.41	23.41
464.59	67.88
464.78	86.60
464.96	65.54
465.14	77.24
465.32	32.77
465.50	60.85
465.69	88.94
465.87	63.19
466.05	28.09
466.23	18.72
466.41	39.79
466.60	25.75
466.78	42.13
466.96	124.05
467.14	100.64
467.32	4.68
467.51	56.17
467.69	65.54
467.87	74.90
468.05	107.66
468.23	95.96
468.41	23.41
468.60	25.75
468.78	72.56
468.96	49.15
469.14	21.06
469.32	88.94
469.50	58.51
469.69	84.26
469.87	7.02
470.05	49.15
470.23	114.69
470.41	60.85
470.59	91.28
470.77	51.49
470.95	72.56
471.14	56.17
471.32	60.85
471.50	67.88
471.68	4.68
471.86	30.43
472.04	100.64
472.22	46.81
472.40	18.72
472.58	70.22
472.77	21.06
472.95	70.22
473.13	0.00
473.31	105.32
473.49	88.94
473.67	42.13
473.85	102.98
474.03	126.39
474.21	0.00
474.39	60.85
474.57	88.94
474.75	112.35
474.93	39.79
475.12	65.54
475.30	0.00
475.48	60.85
475.66	70.22
475.84	32.77
476.02	128.73
476.20	98.30
476.38	81.92
476.56	107.66
476.74	0.00
476.92	0.00
477.10	72.56
477.28	23.41
477.46	93.62
477.64	91.28
477.82	79.58
478.00	65.54
478.18	72.56
478.36	23.41
478.54	121.71
478.72	56.17
478.90	46.81
479.08	23.41
479.26	39.79
479.44	98.30
479.62	124.05
479.80	9.36
479.98	93.62
480.16	51.49
480.34	56.17
480.52	112.35
480.70	42.13
480.88	79.58
481.06	49.15
481.24	0.00
481.41	74.90
481.59	74.90
481.77	79.58
481.95	98.30
482.13	32.77
482.31	72.56
482.49	49.15
482.67	81.92
482.85	39.79
483.03	60.85
483.21	86.60
483.39	2.34
483.57	86.60
483.74	86.60
483.92	0.00
484.10	42.13
484.28	77.24
484.46	70.22
484.64	107.66
484.82	98.30
485.00	49.15
485.18	9.36
485.35	72.56
485.53	21.06
485.71	65.54
485.89	74.90
486.07	53.83
486.25	100.64
486.43	133.41
486.61	70.22
486.78	30.43
486.96	67.88
487.14	9.36
487.32	117.03
487.50	60.85
487.68	98.30
487.85	0.00
488.03	86.60
488.21	42.13
488.39	72.56
488.57	56.17
488.75	102.98
488.92	154.48
489.10	56.17
489.28	56.17
489.46	25.75
489.64	18.72
489.81	74.90
489.99	9.36
490.17	72.56
490.35	112.35
490.53	9.36
490.70	42.13
490.88	21.06
491.06	98.30
491.24	110.01
491.41	25.75
491.59	105.32
491.77	86.60
491.95	67.88
492.13	32.77
492.30	95.96
492.48	152.13
492.66	84.26
492.84	11.70
493.01	84.26
493.19	131.07
493.37	128.73
493.54	88.94
493.72	74.90
493.90	133.41
494.08	53.83
494.25	114.69
494.43	72.56
494.61	72.56
494.79	81.92
494.96	46.81
495.14	28.09
495.32	21.06
495.49	37.45
495.67	112.35
495.85	100.64
496.02	81.92
496.20	107.66
496.38	149.79
496.55	133.41
496.73	100.64
496.91	67.88
497.09	112.35
497.26	135.75
497.44	44.47
497.62	81.92
497.79	77.24
497.97	100.64
498.14	51.49
498.32	39.79
498.50	51.49
498.67	67.88
498.85	93.62
499.03	21.06
499.20	110.01
499.38	112.35
499.56	77.24
499.73	152.13
499.91	107.66
500.08	39.79
500.26	142.77
500.44	131.07
500.61	35.11
500.79	131.07
500.97	100.64
501.14	81.92
501.32	56.17
501.49	88.94
501.67	74.90
501.84	23.41
502.02	60.85
502.20	28.09
502.37	39.79
502.55	14.04
502.72	74.90
502.90	100.64
503.07	102.98
503.25	72.56
503.43	53.83
503.60	114.69
503.78	56.17
503.95	51.49
504.13	95.96
504.30	74.90
504.48	58.51
504.65	88.94
504.83	95.96
505.01	119.37
505.18	67.88
505.36	79.58
505.53	56.17
505.71	119.37
505.88	124.05
506.06	72.56
506.23	77.24
506.41	98.30
506.58	91.28
506.76	124.05
506.93	86.60
507.11	140.43
507.28	112.35
507.46	81.92
507.63	88.94
507.81	163.84
507.98	126.39
508.16	70.22
508.33	60.85
508.50	70.22
508.68	142.77
508.85	23.41
509.03	128.73
509.20	70.22
509.38	84.26
509.55	133.41
509.73	16.38
509.90	107.66
510.08	46.81
510.25	117.03
510.42	67.88
510.60	65.54
510.77	30.43
510.95	173.20
511.12	46.81
511.30	79.58
511.47	107.66
511.64	107.66
511.82	63.19
511.99	37.45
512.17	135.75
512.34	28.09
512.51	119.37
512.69	88.94
512.86	79.58
513.04	81.92
513.21	77.24
513.38	74.90
513.56	91.28
513.73	72.56
513.90	77.24
514.08	77.24
514.25	65.54
514.43	149.79
514.60	39.79
514.77	70.22
514.95	58.51
515.12	11.70
515.29	49.15
515.47	114.69
515.64	105.32
515.81	67.88
515.99	79.58
516.16	21.06
516.33	102.98
516.51	93.62
516.68	95.96
516.85	84.26
517.03	60.85
517.20	67.88
517.37	117.03
517.54	81.92
517.72	140.43
517.89	102.98
518.06	100.64
518.24	67.88
518.41	0.00
518.58	9.36
518.75	86.60
518.93	126.39
519.10	53.83
519.27	93.62
519.45	51.49
519.62	133.41
519.79	4.68
519.96	63.19
520.14	60.85
520.31	112.35
520.48	121.71
520.65	46.81
520.83	51.49
521.00	102.98
521.17	98.30
521.34	119.37
521.52	0.00
521.69	79.58
521.86	44.47
522.03	91.28
522.20	42.13
522.38	112.35
522.55	86.60
522.72	67.88
522.89	88.94
523.07	110.01
523.24	65.54
523.41	39.79
523.58	79.58
523.75	154.48
523.92	60.85
524.10	88.94
524.27	49.15
524.44	9.36
524.61	191.92
524.78	81.92
524.96	30.43
525.13	110.01
525.30	126.39
525.47	58.51
525.64	128.73
525.81	56.17
525.98	119.37
526.16	93.62
526.33	70.22
526.50	49.15
526.67	86.60
526.84	74.90
527.01	42.13
527.18	72.56
527.36	131.07
527.53	112.35
527.70	105.32
527.87	65.54
528.04	112.35
528.21	98.30
528.38	74.90
528.55	51.49
528.72	74.90
528.89	112.35
529.07	60.85
529.24	88.94
529.41	18.72
529.58	63.19
529.75	107.66
529.92	88.94
530.09	72.56
530.26	93.62
530.43	161.50
530.60	84.26
530.77	72.56
530.94	131.07
531.11	100.64
531.28	51.49
531.46	84.26
531.63	79.58
531.80	93.62
531.97	149.79
532.14	128.73
532.31	95.96
532.48	91.28
532.65	63.19
532.82	67.88
532.99	11.70
533.16	81.92
533.33	46.81
533.50	42.13
533.67	42.13
533.84	81.92
534.01	49.15
534.18	86.60
534.35	74.90
534.52	72.56
534.69	70.22
534.86	72.56
535.03	135.75
535.20	152.13
535.37	7.02
535.54	142.77
535.71	133.41
535.88	88.94
536.05	93.62
536.22	25.75
536.38	0.00
536.55	65.54
536.72	119.37
536.89	46.81
537.06	100.64
537.23	53.83
537.40	81.92
537.57	91.28
537.74	95.96
537.91	39.79
538.08	32.77
538.25	65.54
538.42	110.01
538.59	79.58
538.75	16.38
538.92	39.79
539.09	72.56
539.26	110.01
539.43	93.62
539.60	95.96
539.77	112.35
539.94	56.17
540.11	51.49
540.28	135.75
540.44	107.66
540.61	58.51
540.78	88.94
540.95	74.90
541.12	42.13
541.29	65.54
541.46	84.26
541.62	88.94
541.79	124.05
541.96	58.51
542.13	30.43
542.30	107.66
542.47	67.88
542.63	67.88
542.80	91.28
542.97	88.94
543.14	53.83
543.31	65.54
543.48	51.49
543.64	65.54
543.81	74.90
543.98	112.35
544.15	84.26
544.32	2.34
544.48	65.54
544.65	105.32
544.82	67.88
544.99	112.35
545.16	128.73
545.32	56.17
545.49	67.88
545.66	0.00
545.83	72.56
546.00	138.09
546.16	81.92
546.33	93.62
546.50	42.13
546.67	77.24
546.83	56.17
547.00	79.58
547.17	65.54
547.34	63.19
547.50	126.39
547.67	126.39
547.84	138.09
548.00	105.32
548.17	102.98
548.34	107.66
548.51	0.00
548.67	135.75
548.84	112.35
549.01	95.96
549.18	0.00
549.34	110.01
549.51	79.58
549.68	51.49
549.84	44.47
550.01	93.62
550.18	98.30
550.34	51.49
550.51	102.98
550.68	114.69
550.84	67.88
551.01	39.79
551.18	114.69
551.34	107.66
551.51	100.64
551.68	86.60
551.84	100.64
552.01	37.45
552.18	7.02
552.34	58.51
552.51	131.07
552.68	93.62
552.84	88.94
553.01	44.47
553.18	70.22
553.34	60.85
553.51	49.15
553.67	121.71
553.84	124.05
554.01	112.35
554.17	110.01
554.34	159.16
554.51	74.90
554.67	25.75
554.84	110.01
555.00	67.88
555.17	79.58
555.33	70.22
555.50	93.62
555.67	70.22
555.83	102.98
556.00	168.52
556.16	74.90
556.33	114.69
556.50	56.17
556.66	86.60
556.83	39.79
556.99	0.00
557.16	100.64
557.32	35.11
557.49	28.09
557.65	133.41
557.82	84.26
557.98	98.30
558.15	60.85
558.32	84.26
558.48	65.54
558.65	110.01
558.81	58.51
558.98	159.16
559.14	98.30
559.31	70.22
559.47	65.54
559.64	131.07
559.80	102.98
559.97	100.64
560.13	77.24
560.30	102.98
560.46	81.92
560.63	210.65
560.79	117.03
560.96	163.84
561.12	100.64
561.29	119.37
561.45	124.05
561.61	35.11
561.78	23.41
561.94	110.01
562.11	187.24
562.27	74.90
562.44	53.83
562.60	74.90
562.77	72.56
562.93	74.90
563.10	81.92
563.26	135.75
563.42	168.52
563.59	67.88
563.75	100.64
563.92	133.41
564.08	98.30
564.24	95.96
564.41	102.98
564.57	81.92
564.74	23.41
564.90	119.37
565.07	140.43
565.23	81.92
565.39	79.58
565.56	58.51
565.72	102.98
565.88	133.41
566.05	30.43
566.21	18.72
566.38	58.51
566.54	25.75
566.70	84.26
566.87	154.48
567.03	100.64
567.19	46.81
567.36	58.51
567.52	25.75
567.68	133.41
567.85	88.94
568.01	65.54
568.17	74.90
568.34	112.35
568.50	56.17
568.66	39.79
568.83	4.68
568.99	88.94
569.15	70.22
569.32	37.45
569.48	42.13
569.64	51.49
569.81	7.02
569.97	30.43
570.13	49.15
570.30	81.92
570.46	95.96
570.62	67.88
570.78	84.26
570.95	81.92
571.11	65.54
571.27	28.09
571.43	23.41
571.60	21.06
571.76	126.39
571.92	56.17
572.09	53.83
572.25	77.24
572.41	74.90
572.57	37.45
572.74	126.39
572.90	105.32
573.06	131.07
573.22	58.51
573.38	0.00
573.55	32.77
573.71	135.75
573.87	98.30
574.03	117.03
574.20	126.39
574.36	30.43
574.52	25.75
574.68	49.15
574.84	98.30
575.01	65.54
575.17	56.17
575.33	60.85
575.49	4.68
575.65	42.13
575.82	112.35
575.98	35.11
576.14	105.32
576.30	74.90
576.46	49.15
576.62	93.62
576.79	86.60
576.95	65.54
577.11	102.98
577.27	126.39
577.43	65.54
577.59	67.88
577.75	11.70
577.92	44.47
578.08	77.24
578.24	117.03
578.40	86.60
578.56	95.96
578.72	91.28
578.88	65.54
579.04	86.60
579.21	30.43
579.37	88.94
579.53	49.15
579.69	98.30
579.85	53.83
580.01	81.92
580.17	81.92
580.33	88.94
580.49	65.54
580.65	53.83
580.82	65.54
580.98	107.66
581.14	23.41
581.30	98.30
581.46	98.30
581.62	14.04
581.78	21.06
581.94	72.56
582.10	114.69
582.26	67.88
582.42	77.24
582.58	102.98
582.74	44.47
582.90	117.03
583.06	70.22
583.22	44.47
583.38	86.60
583.54	46.81
583.70	42.13
583.86	119.37
584.02	44.47
584.18	37.45
584.34	11.70
584.50	91.28
584.66	107.66
584.82	112.35
584.98	84.26
585.14	128.73
585.30	98.30
585.46	72.56
585.62	63.19
585.78	93.62
585.94	100.64
586.10	84.26
586.26	102.98
586.42	30.43
586.58	42.13
586.74	53.83
586.90	128.73
587.06	124.05
587.22	4.68
587.38	44.47
587.54	67.88
587.70	77.24
587.86	84.26
588.02	98.30
588.18	42.13
588.34	51.49
588.49	67.88
588.65	21.06
588.81	53.83
588.97	32.77
589.13	65.54
589.29	4.68
589.45	70.22
589.61	95.96
589.77	79.58
589.93	49.15
590.08	95.96
590.24	74.90
590.40	49.15
590.56	18.72
590.72	84.26
590.88	28.09
591.04	46.81
591.20	105.32
591.35	16.38
591.51	95.96
591.67	81.92
591.83	23.41
591.99	65.54
592.15	107.66
592.31	58.51
592.46	53.83
592.62	74.90
592.78	21.06
592.94	53.83
593.10	72.56
593.26	84.26
593.41	65.54
593.57	53.83
593.73	58.51
593.89	93.62
594.05	49.15
594.20	25.75
594.36	60.85
594.52	100.64
594.68	49.15
594.84	70.22
594.99	0.00
595.15	37.45
595.31	79.58
595.47	81.92
595.62	135.75
595.78	53.83
595.94	42.13
596.10	95.96
596.25	35.11
596.41	70.22
596.57	110.01
596.73	53.83
596.88	98.30
597.04	79.58
597.20	110.01
597.36	67.88
597.51	42.13
597.67	107.66
597.83	117.03
597.99	74.90
598.14	77.24
598.30	112.35
598.46	70.22
598.61	93.62
598.77	67.88
598.93	135.75
599.09	51.49
599.24	110.01
599.40	44.47
599.56	60.85
599.71	121.71
599.87	81.92
600.03	77.24
600.18	23.41
600.34	95.96
600.50	95.96
600.65	74.90
600.81	84.26
600.97	42.13
601.12	46.81
601.28	51.49
601.44	119.37
601.59	70.22
601.75	121.71
601.91	60.85
602.06	53.83
602.22	133.41
602.37	63.19
602.53	18.72
602.69	126.39
602.84	51.49
603.00	42.13
603.16	28.09
603.31	30.43
603.47	84.26
603.62	28.09
603.78	102.98
603.94	18.72
604.09	121.71
604.25	70.22
604.40	86.60
604.56	133.41
604.71	58.51
604.87	9.36
605.03	25.75
605.18	79.58
605.34	77.24
605.49	114.69
605.65	93.62
605.80	67.88
605.96	81.92
606.12	42.13
606.27	88.94
606.43	107.66
606.58	105.32
606.74	46.81
606.89	0.00
607.05	72.56
607.20	37.45
607.36	67.88
607.51	119.37
607.67	138.09
607.82	72.56
607.98	65.54
608.13	51.49
608.29	58.51
608.44	100.64
608.60	102.98
608.75	84.26
608.91	42.13
609.06	131.07
609.22	91.28
609.37	102.98
609.53	70.22
609.68	23.41
609.84	70.22
609.99	72.56
610.15	21.06
610.30	98.30
610.46	25.75
610.61	0.00
610.76	86.60
610.92	23.41
611.07	42.13
611.23	112.35
611.38	30.43
611.54	35.11
611.69	28.09
611.84	67.88
612.00	0.00
612.15	60.85
612.31	44.47
612.46	67.88
612.62	0.00
612.77	81.92
612.92	53.83
613.08	32.77
613.23	70.22
613.39	51.49
613.54	53.83
613.69	56.17
613.85	0.00
614.00	4.68
614.15	42.13
614.31	60.85
614.46	110.01
614.62	102.98
614.77	58.51
614.92	65.54
615.08	67.88
615.23	63.19
615.38	60.85
615.54	91.28
615.69	56.17
615.84	51.49
616.00	72.56
616.15	135.75
616.30	63.19
616.46	100.64
616.61	100.64
616.76	28.09
616.92	86.60
617.07	44.47
617.22	14.04
617.37	35.11
617.53	102.98
617.68	102.98
617.83	121.71
617.99	70.22
618.14	72.56
618.29	81.92
618.45	86.60
618.60	88.94
618.75	4.68
618.90	79.58
619.06	79.58
619.21	74.90
619.36	56.17
619.51	58.51
619.67	63.19
619.82	84.26
619.97	0.00
620.12	72.56
620.28	32.77
620.43	25.75
620.58	67.88
620.73	93.62
620.89	39.79
621.04	30.43
621.19	37.45
621.34	81.92
621.49	100.64
621.65	51.49
621.80	44.47
621.95	86.60
622.10	58.51
622.25	21.06
622.41	102.98
622.56	28.09
622.71	70.22
622.86	74.90
623.01	39.79
623.16	74.90
623.32	88.94
623.47	93.62
623.62	91.28
623.77	121.71
623.92	44.47
624.07	53.83
624.23	135.75
624.38	21.06
624.53	39.79
624.68	91.28
624.83	16.38
624.98	2.34
625.13	65.54
625.29	154.48
625.44	93.62
625.59	65.54
625.74	93.62
625.89	81.92
626.04	0.00
626.19	39.79
626.34	4.68
626.49	23.41
626.65	0.00
626.80	0.00
626.95	63.19
627.10	110.01
627.25	86.60
627.40	88.94
627.55	56.17
627.70	117.03
627.85	60.85
628.00	46.81
628.15	138.09
628.30	63.19
628.45	131.07
628.60	79.58
628.76	74.90
628.91	70.22
629.06	140.43
629.21	16.38
629.36	128.73
629.51	35.11
629.66	0.00
629.81	74.90
629.96	79.58
630.11	102.98
630.26	0.00
630.41	0.00
630.56	79.58
630.71	35.11
630.86	105.32
631.01	81.92
631.16	51.49
631.31	0.00
631.46	44.47
631.61	30.43
631.76	32.77
631.91	107.66
632.06	58.51
632.21	72.56
632.36	32.77
632.51	46.81
632.66	11.70
632.81	42.13
632.96	32.77
633.10	72.56
633.25	112.35
633.40	37.45
633.55	0.00
633.70	84.26
633.85	117.03
634.00	39.79
634.15	18.72
634.30	110.01
634.45	0.00
634.60	81.92
634.75	74.90
634.90	79.58
635.05	70.22
635.19	56.17
635.34	56.17
635.49	21.06
635.64	44.47
635.79	72.56
635.94	44.47
636.09	77.24
636.24	128.73
636.39	74.90
636.53	0.00
636.68	100.64
636.83	0.00
636.98	74.90
637.13	121.71
637.28	88.94
637.43	105.32
637.57	28.09
637.72	35.11
637.87	7.02
638.02	44.47
638.17	67.88
638.32	56.17
638.46	37.45
638.61	51.49
638.76	42.13
638.91	93.62
639.06	49.15
639.20	67.88
639.35	0.00
639.50	2.34
639.65	28.09
639.80	25.75
639.94	107.66
640.09	58.51
640.24	88.94
640.39	114.69
640.54	100.64
640.68	35.11
640.83	42.13
640.98	0.00
641.13	140.43
641.27	93.62
641.42	53.83
641.57	63.19
641.72	53.83
641.86	28.09
642.01	28.09
642.16	74.90
642.31	105.32
642.45	39.79
642.60	100.64
642.75	63.19
642.90	88.94
643.04	0.00
643.19	79.58
643.34	56.17
643.48	9.36
643.63	32.77
643.78	102.98
643.93	32.77
644.07	16.38
644.22	42.13
644.37	0.00
644.51	39.79
644.66	79.58
644.81	58.51
644.95	119.37
645.10	32.77
645.25	79.58
645.39	128.73
645.54	44.47
645.69	56.17
645.83	114.69
645.98	79.58
646.13	65.54
646.27	42.13
646.42	110.01
646.57	46.81
646.71	0.00
646.86	49.15
647.00	30.43
647.15	18.72
647.30	70.22
647.44	30.43
647.59	51.49
647.74	18.72
647.88	30.43
648.03	46.81
648.17	42.13
648.32	39.79
648.47	42.13
648.61	39.79
648.76	0.00
648.90	44.47
649.05	100.64
649.20	0.00
649.34	25.75
649.49	32.77
649.63	70.22
649.78	102.98
649.92	142.77
650.07	112.35
650.21	77.24
650.36	18.72
650.51	93.62
650.65	65.54
650.80	0.00
650.94	117.03
651.09	0.00
651.23	91.28
651.38	77.24
651.52	114.69
651.67	63.19
651.81	37.45
651.96	102.98
652.10	98.30
652.25	88.94
652.39	65.54
652.54	88.94
652.68	102.98
652.83	30.43
652.97	93.62
653.12	37.45
653.26	7.02
653.41	60.85
653.55	56.17
653.70	58.51
653.84	39.79
653.99	39.79
654.13	72.56
654.27	126.39
654.42	0.00
654.56	25.75
654.71	72.56
654.85	49.15
655.00	23.41
655.14	42.13
655.29	117.03
655.43	37.45
655.57	91.28
655.72	42.13
655.86	7.02
656.01	0.00
656.15	16.38
656.30	117.03
656.44	65.54
656.58	60.85
656.73	37.45
656.87	91.28
657.01	70.22
657.16	2.34
657.30	16.38
657.45	67.88
657.59	0.00
657.73	0.00
657.88	21.06
658.02	63.19
658.16	114.69
658.31	95.96
658.45	168.52
658.60	0.00
658.74	39.79
658.88	44.47
659.03	21.06
659.17	7.02
659.31	0.00
659.46	168.52
659.60	35.11
659.74	74.90
659.89	0.00
660.03	44.47
660.17	65.54
660.32	30.43
660.46	60.85
660.60	16.38
660.74	142.77
660.89	79.58
661.03	18.72
661.17	30.43
661.32	9.36
661.46	21.06
661.60	65.54
661.74	138.09
661.89	42.13
662.03	37.45
662.17	98.30
662.31	39.79
662.46	81.92
662.60	0.00
662.74	72.56
662.88	0.00
663.03	7.02
663.17	72.56
663.31	44.47
663.45	74.90
663.60	58.51
663.74	51.49
663.88	81.92
664.02	72.56
664.17	42.13
664.31	53.83
664.45	77.24
664.59	46.81
664.73	79.58
664.88	79.58
665.02	21.06
665.16	84.26
665.30	46.81
665.44	32.77
665.59	53.83
665.73	67.88
665.87	72.56
666.01	51.49
666.15	39.79
666.29	77.24
666.44	67.88
666.58	42.13
666.72	37.45
666.86	86.60
667.00	37.45
667.14	114.69
667.28	11.70
667.43	74.90
667.57	107.66
667.71	58.51
667.85	77.24
667.99	72.56
668.13	0.00
668.27	77.24
668.41	30.43
668.56	84.26
668.70	102.98
668.84	67.88
668.98	16.38
669.12	93.62
669.26	67.88
669.40	23.41
669.54	58.51
669.68	0.00
669.82	49.15
669.96	102.98
670.10	65.54
670.25	72.56
670.39	0.00
670.53	67.88
670.67	67.88
670.81	18.72
670.95	0.00
671.09	88.94
671.23	95.96
671.37	42.13
671.51	105.32
671.65	67.88
671.79	95.96
671.93	18.72
672.07	84.26
672.21	70.22
672.35	56.17
672.49	77.24
672.63	30.43
672.77	49.15
672.91	77.24
673.05	98.30
673.19	79.58
673.33	25.75
673.47	11.70
673.61	86.60
673.75	67.88
673.89	49.15
674.03	23.41
674.17	0.00
674.31	0.00
674.45	77.24
674.59	51.49
674.73	65.54
674.87	18.72
675.01	46.81
675.15	32.77
675.29	18.72
675.43	49.15
675.56	32.77
675.70	91.28
675.84	60.85
675.98	58.51
676.12	0.00
676.26	0.00
676.40	32.77
676.54	9.36
676.68	86.60
676.82	49.15
676.96	35.11
677.10	21.06
677.23	84.26
677.37	53.83
677.51	14.04
677.65	25.75
677.79	53.83
677.93	0.00
678.07	67.88
678.21	35.11
678.34	0.00
678.48	16.38
678.62	95.96
678.76	107.66
678.90	60.85
679.04	84.26
679.18	51.49
679.31	81.92
679.45	72.56
679.59	18.72
679.73	39.79
679.87	81.92
680.00	49.15
680.14	98.30
680.28	37.45
680.42	63.19
680.56	74.90
680.70	93.62
680.83	0.00
680.97	81.92
681.11	98.30
681.25	37.45
681.39	93.62
681.52	4.68
681.66	0.00
681.80	79.58
681.94	0.00
682.07	0.00
682.21	42.13
682.35	18.72
682.49	23.41
682.62	112.35
682.76	11.70
682.90	65.54
683.04	28.09
683.17	77.24
683.31	2.34
683.45	4.68
683.59	44.47
683.72	56.17
683.86	102.98
684.00	117.03
684.13	49.15
684.27	39.79
684.41	30.43
684.55	42.13
684.68	42.13
684.82	49.15
684.96	46.81
685.09	65.54
685.23	0.00
685.37	39.79
685.50	51.49
685.64	0.00
685.78	63.19
685.91	0.00
686.05	35.11
686.19	30.43
686.32	25.75
686.46	91.28
686.60	46.81
686.73	49.15
686.87	53.83
687.01	60.85
687.14	35.11
687.28	0.00
687.42	46.81
687.55	72.56
687.69	0.00
687.82	0.00
687.96	56.17
688.10	0.00
688.23	21.06
688.37	0.00
688.50	30.43
688.64	56.17
688.78	0.00
688.91	49.15
689.05	0.00
689.18	70.22
689.32	14.04
689.46	16.38
689.59	11.70
689.73	21.06
689.86	63.19
690.00	105.32
690.13	42.13
690.27	39.79
690.41	51.49
690.54	18.72
690.68	53.83
690.81	28.09
690.95	7.02
691.08	72.56
691.22	65.54
691.35	0.00
691.49	18.72
691.62	49.15
691.76	28.09
691.89	32.77
692.03	39.79
692.16	0.00
692.30	79.58
692.43	44.47
692.57	0.00
692.70	9.36
692.84	0.00
692.97	124.05
693.11	60.85
693.24	2.34
693.38	37.45
693.51	23.41
693.65	42.13
693.78	70.22
693.92	0.00
694.05	37.45
694.19	14.04
694.32	98.30
694.45	60.85
694.59	37.45
694.72	0.00
694.86	0.00
694.99	16.38
695.13	74.90
695.26	51.49
695.39	16.38
695.53	72.56
695.66	46.81
695.80	37.45
695.93	70.22
696.07	30.43
696.20	35.11
696.33	110.01
696.47	84.26
696.60	14.04
696.73	7.02
696.87	81.92
697.00	58.51
697.14	0.00
697.27	30.43
697.40	86.60
697.54	35.11
697.67	42.13
697.80	35.11
697.94	56.17
698.07	35.11
698.21	42.13
698.34	51.49
698.47	77.24
698.61	2.34
698.74	46.81
698.87	35.11
699.01	110.01
699.14	0.00
699.27	74.90
699.40	46.81
699.54	58.51
699.67	0.00
699.80	30.43
699.94	0.00
700.07	32.77
700.20	49.15
700.34	21.06
700.47	0.00
700.60	21.06
700.73	42.13
700.87	51.49
701.00	77.24
701.13	49.15
701.26	9.36
701.40	91.28
701.53	65.54
701.66	67.88
701.79	0.00
701.93	46.81
702.06	18.72
702.19	58.51
702.32	58.51
702.46	16.38
702.59	39.79
702.72	25.75
702.85	25.75
702.99	4.68
703.12	114.69
703.25	65.54
703.38	0.00
703.51	28.09
703.65	25.75
703.78	25.75
703.91	0.00
704.04	42.13
704.17	51.49
704.31	42.13
704.44	0.00
704.57	37.45
704.70	63.19
704.83	0.00
704.96	37.45
705.10	0.00
705.23	18.72
>>>>>End Processed Spectral Data<<<<<
