SpectraSuite Data File
++++++++++++++++++++++++++++++++++++
Date: Fri Oct 04 12:13:45 GMT-05:00 2013
User: price-jones
Dark Spectrum Present: No
Reference Spectrum Present: No
Number of Sampled Component Spectra: 1
Spectrometers: USB2+H05261
Integration Time (usec): 10000 (USB2+H05261)
Spectra Averaged: 1 (USB2+H05261)
Boxcar Smoothing: 0 (USB2+H05261)
Correct for Electrical Dark: No (USB2+H05261)
Strobe/Lamp Enabled: No (USB2+H05261)
Correct for Detector Non-linearity: No (USB2+H05261)
Correct for Stray Light: No (USB2+H05261)
Number of Pixels in Processed Spectrum: 2048
>>>>>Begin Processed Spectral Data<<<<<
365.73	0.00
365.92	0.00
366.12	0.00
366.32	0.00
366.52	0.00
366.72	0.00
366.91	0.00
367.11	0.00
367.31	0.00
367.51	0.00
367.70	0.00
367.90	0.00
368.10	0.00
368.30	0.00
368.49	0.00
368.69	0.00
368.89	0.00
369.09	0.00
369.28	0.00
369.48	0.00
369.68	0.00
369.87	0.00
370.07	0.00
370.27	0.00
370.47	0.00
370.66	0.00
370.86	0.00
371.06	0.00
371.25	2.34
371.45	0.00
371.65	44.47
371.84	0.00
372.04	60.85
372.24	2.34
372.44	0.00
372.63	0.00
372.83	23.41
373.03	0.00
373.22	79.58
373.42	42.13
373.62	32.77
373.81	16.38
374.01	9.36
374.21	39.79
374.40	100.64
374.60	2.34
374.79	0.00
374.99	110.01
375.19	23.41
375.38	42.13
375.58	49.15
375.78	60.85
375.97	79.58
376.17	23.41
376.37	4.68
376.56	9.36
376.76	0.00
376.95	49.15
377.15	51.49
377.35	2.34
377.54	0.00
377.74	25.75
377.93	51.49
378.13	23.41
378.33	14.04
378.52	0.00
378.72	11.70
378.91	70.22
379.11	65.54
379.31	63.19
379.50	63.19
379.70	0.00
379.89	0.00
380.09	9.36
380.28	0.00
380.48	7.02
380.68	0.00
380.87	0.00
381.07	0.00
381.26	30.43
381.46	102.98
381.65	0.00
381.85	2.34
382.04	88.94
382.24	0.00
382.43	0.00
382.63	42.13
382.83	23.41
383.02	18.72
383.22	28.09
383.41	23.41
383.61	0.00
383.80	0.00
384.00	0.00
384.19	0.00
384.39	88.94
384.58	0.00
384.78	0.00
384.97	0.00
385.17	0.00
385.36	16.38
385.56	0.00
385.75	65.54
385.95	0.00
386.14	51.49
386.34	39.79
386.53	0.00
386.72	32.77
386.92	28.09
387.11	70.22
387.31	35.11
387.50	25.75
387.70	7.02
387.89	39.79
388.09	0.00
388.28	4.68
388.48	7.02
388.67	0.00
388.86	0.00
389.06	0.00
389.25	35.11
389.45	0.00
389.64	21.06
389.84	65.54
390.03	23.41
390.22	0.00
390.42	16.38
390.61	0.00
390.81	0.00
391.00	0.00
391.19	58.51
391.39	0.00
391.58	14.04
391.78	0.00
391.97	44.47
392.16	0.00
392.36	7.02
392.55	79.58
392.75	18.72
392.94	28.09
393.13	32.77
393.33	11.70
393.52	35.11
393.71	86.60
393.91	0.00
394.10	0.00
394.29	0.00
394.49	28.09
394.68	14.04
394.88	0.00
395.07	9.36
395.26	0.00
395.46	21.06
395.65	51.49
395.84	18.72
396.04	44.47
396.23	0.00
396.42	0.00
396.62	42.13
396.81	18.72
397.00	88.94
397.19	105.32
397.39	86.60
397.58	46.81
397.77	32.77
397.97	84.26
398.16	42.13
398.35	0.00
398.55	0.00
398.74	44.47
398.93	0.00
399.12	0.00
399.32	18.72
399.51	37.45
399.70	9.36
399.90	4.68
400.09	11.70
400.28	67.88
400.47	42.13
400.67	23.41
400.86	23.41
401.05	53.83
401.24	42.13
401.44	0.00
401.63	14.04
401.82	84.26
402.01	0.00
402.21	84.26
402.40	7.02
402.59	46.81
402.78	0.00
402.97	2.34
403.17	0.00
403.36	42.13
403.55	0.00
403.74	0.00
403.93	0.00
404.13	70.22
404.32	30.43
404.51	2.34
404.70	88.94
404.89	37.45
405.09	0.00
405.28	14.04
405.47	0.00
405.66	46.81
405.85	0.00
406.05	37.45
406.24	37.45
406.43	44.47
406.62	18.72
406.81	70.22
407.00	0.00
407.20	0.00
407.39	65.54
407.58	0.00
407.77	30.43
407.96	4.68
408.15	42.13
408.34	74.90
408.54	84.26
408.73	100.64
408.92	81.92
409.11	0.00
409.30	11.70
409.49	107.66
409.68	37.45
409.87	72.56
410.07	63.19
410.26	28.09
410.45	51.49
410.64	65.54
410.83	0.00
411.02	65.54
411.21	39.79
411.40	32.77
411.59	21.06
411.78	58.51
411.98	16.38
412.17	16.38
412.36	23.41
412.55	0.00
412.74	74.90
412.93	0.00
413.12	39.79
413.31	65.54
413.50	42.13
413.69	23.41
413.88	77.24
414.07	28.09
414.26	21.06
414.45	86.60
414.64	42.13
414.83	0.00
415.02	37.45
415.22	32.77
415.41	93.62
415.60	44.47
415.79	14.04
415.98	18.72
416.17	35.11
416.36	39.79
416.55	21.06
416.74	32.77
416.93	42.13
417.12	32.77
417.31	14.04
417.50	25.75
417.69	9.36
417.88	51.49
418.07	39.79
418.26	65.54
418.45	95.96
418.64	7.02
418.83	74.90
419.02	91.28
419.21	2.34
419.39	112.35
419.58	60.85
419.77	81.92
419.96	86.60
420.15	42.13
420.34	65.54
420.53	16.38
420.72	42.13
420.91	18.72
421.10	0.00
421.29	23.41
421.48	42.13
421.67	0.00
421.86	42.13
422.05	30.43
422.24	2.34
422.43	44.47
422.61	56.17
422.80	0.00
422.99	81.92
423.18	21.06
423.37	0.00
423.56	30.43
423.75	60.85
423.94	46.81
424.13	18.72
424.32	21.06
424.50	11.70
424.69	18.72
424.88	63.19
425.07	4.68
425.26	86.60
425.45	42.13
425.64	14.04
425.83	0.00
426.01	30.43
426.20	86.60
426.39	0.00
426.58	63.19
426.77	60.85
426.96	0.00
427.15	67.88
427.33	46.81
427.52	14.04
427.71	30.43
427.90	23.41
428.09	9.36
428.28	0.00
428.46	37.45
428.65	9.36
428.84	37.45
429.03	28.09
429.22	35.11
429.40	18.72
429.59	30.43
429.78	0.00
429.97	0.00
430.16	0.00
430.34	32.77
430.53	30.43
430.72	42.13
430.91	117.03
431.10	0.00
431.28	72.56
431.47	0.00
431.66	42.13
431.85	35.11
432.03	35.11
432.22	102.98
432.41	21.06
432.60	84.26
432.79	0.00
432.97	7.02
433.16	46.81
433.35	35.11
433.54	42.13
433.72	0.00
433.91	60.85
434.10	53.83
434.28	63.19
434.47	100.64
434.66	79.58
434.85	65.54
435.03	0.00
435.22	0.00
435.41	44.47
435.59	42.13
435.78	0.00
435.97	11.70
436.16	0.00
436.34	37.45
436.53	11.70
436.72	42.13
436.90	0.00
437.09	58.51
437.28	0.00
437.46	49.15
437.65	49.15
437.84	9.36
438.02	28.09
438.21	16.38
438.40	7.02
438.58	0.00
438.77	16.38
438.96	42.13
439.14	74.90
439.33	63.19
439.52	56.17
439.70	35.11
439.89	7.02
440.08	65.54
440.26	119.37
440.45	28.09
440.63	0.00
440.82	25.75
441.01	60.85
441.19	23.41
441.38	0.00
441.57	72.56
441.75	30.43
441.94	77.24
442.12	25.75
442.31	25.75
442.50	49.15
442.68	37.45
442.87	0.00
443.05	39.79
443.24	53.83
443.43	131.07
443.61	7.02
443.80	9.36
443.98	60.85
444.17	93.62
444.35	4.68
444.54	37.45
444.73	72.56
444.91	25.75
445.10	0.00
445.28	53.83
445.47	0.00
445.65	0.00
445.84	0.00
446.02	28.09
446.21	105.32
446.39	39.79
446.58	79.58
446.77	0.00
446.95	100.64
447.14	56.17
447.32	0.00
447.51	49.15
447.69	39.79
447.88	18.72
448.06	0.00
448.25	91.28
448.43	4.68
448.62	49.15
448.80	11.70
448.99	102.98
449.17	46.81
449.36	58.51
449.54	131.07
449.73	25.75
449.91	28.09
450.10	11.70
450.28	49.15
450.46	0.00
450.65	0.00
450.83	60.85
451.02	65.54
451.20	28.09
451.39	58.51
451.57	46.81
451.76	11.70
451.94	67.88
452.13	46.81
452.31	11.70
452.49	0.00
452.68	74.90
452.86	0.00
453.05	51.49
453.23	51.49
453.42	49.15
453.60	67.88
453.78	11.70
453.97	0.00
454.15	21.06
454.34	9.36
454.52	0.00
454.70	72.56
454.89	91.28
455.07	0.00
455.26	133.41
455.44	44.47
455.62	7.02
455.81	86.60
455.99	77.24
456.17	56.17
456.36	107.66
456.54	49.15
456.73	67.88
456.91	28.09
457.09	65.54
457.28	51.49
457.46	107.66
457.64	51.49
457.83	9.36
458.01	0.00
458.19	32.77
458.38	72.56
458.56	51.49
458.74	0.00
458.93	32.77
459.11	74.90
459.29	44.47
459.48	81.92
459.66	81.92
459.84	0.00
460.03	95.96
460.21	42.13
460.39	46.81
460.57	30.43
460.76	77.24
460.94	11.70
461.12	0.00
461.31	77.24
461.49	32.77
461.67	46.81
461.85	46.81
462.04	79.58
462.22	72.56
462.40	0.00
462.59	0.00
462.77	4.68
462.95	2.34
463.13	51.49
463.32	7.02
463.50	16.38
463.68	124.05
463.86	56.17
464.05	0.00
464.23	23.41
464.41	58.51
464.59	67.88
464.78	51.49
464.96	0.00
465.14	79.58
465.32	0.00
465.50	23.41
465.69	72.56
465.87	0.00
466.05	95.96
466.23	35.11
466.41	4.68
466.60	70.22
466.78	53.83
466.96	56.17
467.14	14.04
467.32	72.56
467.51	35.11
467.69	74.90
467.87	49.15
468.05	14.04
468.23	79.58
468.41	0.00
468.60	23.41
468.78	30.43
468.96	114.69
469.14	63.19
469.32	0.00
469.50	23.41
469.69	51.49
469.87	49.15
470.05	7.02
470.23	28.09
470.41	67.88
470.59	0.00
470.77	60.85
470.95	63.19
471.14	39.79
471.32	51.49
471.50	39.79
471.68	74.90
471.86	35.11
472.04	0.00
472.22	93.62
472.40	9.36
472.58	2.34
472.77	74.90
472.95	49.15
473.13	58.51
473.31	63.19
473.49	11.70
473.67	35.11
473.85	32.77
474.03	0.00
474.21	70.22
474.39	18.72
474.57	0.00
474.75	9.36
474.93	0.00
475.12	42.13
475.30	74.90
475.48	74.90
475.66	32.77
475.84	84.26
476.02	0.00
476.20	14.04
476.38	100.64
476.56	105.32
476.74	4.68
476.92	51.49
477.10	9.36
477.28	67.88
477.46	0.00
477.64	18.72
477.82	79.58
478.00	2.34
478.18	30.43
478.36	60.85
478.54	58.51
478.72	0.00
478.90	91.28
479.08	37.45
479.26	28.09
479.44	44.47
479.62	74.90
479.80	30.43
479.98	37.45
480.16	88.94
480.34	49.15
480.52	0.00
480.70	37.45
480.88	39.79
481.06	93.62
481.24	70.22
481.41	100.64
481.59	0.00
481.77	63.19
481.95	21.06
482.13	37.45
482.31	4.68
482.49	46.81
482.67	46.81
482.85	95.96
483.03	35.11
483.21	18.72
483.39	84.26
483.57	21.06
483.74	84.26
483.92	28.09
484.10	23.41
484.28	0.00
484.46	23.41
484.64	4.68
484.82	95.96
485.00	0.00
485.18	58.51
485.35	30.43
485.53	77.24
485.71	0.00
485.89	16.38
486.07	0.00
486.25	25.75
486.43	11.70
486.61	70.22
486.78	0.00
486.96	0.00
487.14	4.68
487.32	74.90
487.50	11.70
487.68	46.81
487.85	25.75
488.03	4.68
488.21	56.17
488.39	16.38
488.57	63.19
488.75	4.68
488.92	56.17
489.10	0.00
489.28	53.83
489.46	58.51
489.64	7.02
489.81	46.81
489.99	2.34
490.17	51.49
490.35	77.24
490.53	46.81
490.70	98.30
490.88	58.51
491.06	42.13
491.24	84.26
491.41	60.85
491.59	14.04
491.77	81.92
491.95	72.56
492.13	9.36
492.30	21.06
492.48	14.04
492.66	11.70
492.84	112.35
493.01	105.32
493.19	30.43
493.37	46.81
493.54	44.47
493.72	67.88
493.90	0.00
494.08	65.54
494.25	0.00
494.43	46.81
494.61	58.51
494.79	100.64
494.96	58.51
495.14	95.96
495.32	65.54
495.49	86.60
495.67	0.00
495.85	23.41
496.02	60.85
496.20	2.34
496.38	42.13
496.55	81.92
496.73	44.47
496.91	7.02
497.09	65.54
497.26	37.45
497.44	35.11
497.62	44.47
497.79	56.17
497.97	28.09
498.14	42.13
498.32	18.72
498.50	86.60
498.67	25.75
498.85	67.88
499.03	88.94
499.20	105.32
499.38	67.88
499.56	60.85
499.73	0.00
499.91	39.79
500.08	28.09
500.26	56.17
500.44	67.88
500.61	23.41
500.79	49.15
500.97	0.00
501.14	0.00
501.32	25.75
501.49	46.81
501.67	42.13
501.84	74.90
502.02	91.28
502.20	39.79
502.37	58.51
502.55	11.70
502.72	32.77
502.90	53.83
503.07	0.00
503.25	11.70
503.43	39.79
503.60	60.85
503.78	51.49
503.95	0.00
504.13	46.81
504.30	84.26
504.48	79.58
504.65	84.26
504.83	9.36
505.01	67.88
505.18	58.51
505.36	53.83
505.53	58.51
505.71	0.00
505.88	110.01
506.06	93.62
506.23	53.83
506.41	0.00
506.58	0.00
506.76	44.47
506.93	70.22
507.11	65.54
507.28	39.79
507.46	14.04
507.63	70.22
507.81	23.41
507.98	25.75
508.16	35.11
508.33	49.15
508.50	44.47
508.68	79.58
508.85	0.00
509.03	70.22
509.20	91.28
509.38	44.47
509.55	44.47
509.73	60.85
509.90	67.88
510.08	28.09
510.25	30.43
510.42	93.62
510.60	63.19
510.77	14.04
510.95	30.43
511.12	42.13
511.30	100.64
511.47	119.37
511.64	140.43
511.82	140.43
511.99	161.50
512.17	79.58
512.34	23.41
512.51	0.00
512.69	49.15
512.86	70.22
513.04	79.58
513.21	0.00
513.38	46.81
513.56	4.68
513.73	65.54
513.90	0.00
514.08	65.54
514.25	18.72
514.43	39.79
514.60	67.88
514.77	0.00
514.95	14.04
515.12	23.41
515.29	42.13
515.47	124.05
515.64	60.85
515.81	86.60
515.99	30.43
516.16	35.11
516.33	88.94
516.51	51.49
516.68	67.88
516.85	72.56
517.03	9.36
517.20	25.75
517.37	56.17
517.54	100.64
517.72	81.92
517.89	9.36
518.06	81.92
518.24	88.94
518.41	46.81
518.58	77.24
518.75	110.01
518.93	112.35
519.10	72.56
519.27	74.90
519.45	60.85
519.62	91.28
519.79	65.54
519.96	100.64
520.14	60.85
520.31	91.28
520.48	88.94
520.65	0.00
520.83	44.47
521.00	67.88
521.17	28.09
521.34	88.94
521.52	23.41
521.69	60.85
521.86	110.01
522.03	65.54
522.20	77.24
522.38	2.34
522.55	86.60
522.72	0.00
522.89	0.00
523.07	0.00
523.24	72.56
523.41	86.60
523.58	77.24
523.75	58.51
523.92	9.36
524.10	84.26
524.27	81.92
524.44	142.77
524.61	138.09
524.78	63.19
524.96	72.56
525.13	51.49
525.30	37.45
525.47	138.09
525.64	58.51
525.81	70.22
525.98	51.49
526.16	58.51
526.33	60.85
526.50	65.54
526.67	53.83
526.84	79.58
527.01	18.72
527.18	86.60
527.36	105.32
527.53	37.45
527.70	42.13
527.87	100.64
528.04	72.56
528.21	135.75
528.38	51.49
528.55	81.92
528.72	95.96
528.89	63.19
529.07	58.51
529.24	60.85
529.41	70.22
529.58	0.00
529.75	72.56
529.92	4.68
530.09	23.41
530.26	39.79
530.43	63.19
530.60	117.03
530.77	98.30
530.94	102.98
531.11	100.64
531.28	0.00
531.46	46.81
531.63	74.90
531.80	91.28
531.97	30.43
532.14	9.36
532.31	84.26
532.48	100.64
532.65	39.79
532.82	9.36
532.99	67.88
533.16	46.81
533.33	93.62
533.50	0.00
533.67	72.56
533.84	117.03
534.01	112.35
534.18	74.90
534.35	46.81
534.52	58.51
534.69	39.79
534.86	58.51
535.03	124.05
535.20	58.51
535.37	79.58
535.54	0.00
535.71	65.54
535.88	100.64
536.05	51.49
536.22	23.41
536.38	140.43
536.55	100.64
536.72	0.00
536.89	56.17
537.06	72.56
537.23	18.72
537.40	84.26
537.57	0.00
537.74	4.68
537.91	98.30
538.08	58.51
538.25	72.56
538.42	121.71
538.59	72.56
538.75	100.64
538.92	133.41
539.09	18.72
539.26	56.17
539.43	74.90
539.60	84.26
539.77	53.83
539.94	70.22
540.11	32.77
540.28	53.83
540.44	18.72
540.61	58.51
540.78	35.11
540.95	56.17
541.12	74.90
541.29	84.26
541.46	58.51
541.62	0.00
541.79	53.83
541.96	30.43
542.13	51.49
542.30	121.71
542.47	133.41
542.63	44.47
542.80	105.32
542.97	74.90
543.14	9.36
543.31	23.41
543.48	91.28
543.64	25.75
543.81	37.45
543.98	18.72
544.15	23.41
544.32	74.90
544.48	79.58
544.65	56.17
544.82	0.00
544.99	51.49
545.16	67.88
545.32	60.85
545.49	102.98
545.66	70.22
545.83	102.98
546.00	37.45
546.16	23.41
546.33	23.41
546.50	95.96
546.67	119.37
546.83	53.83
547.00	39.79
547.17	28.09
547.34	32.77
547.50	112.35
547.67	65.54
547.84	18.72
548.00	63.19
548.17	0.00
548.34	63.19
548.51	84.26
548.67	51.49
548.84	91.28
549.01	63.19
549.18	56.17
549.34	74.90
549.51	70.22
549.68	77.24
549.84	44.47
550.01	0.00
550.18	72.56
550.34	46.81
550.51	0.00
550.68	0.00
550.84	70.22
551.01	70.22
551.18	105.32
551.34	81.92
551.51	30.43
551.68	32.77
551.84	23.41
552.01	84.26
552.18	79.58
552.34	128.73
552.51	58.51
552.68	56.17
552.84	56.17
553.01	2.34
553.18	46.81
553.34	25.75
553.51	95.96
553.67	4.68
553.84	56.17
554.01	21.06
554.17	14.04
554.34	56.17
554.51	63.19
554.67	56.17
554.84	21.06
555.00	117.03
555.17	37.45
555.33	77.24
555.50	86.60
555.67	77.24
555.83	0.00
556.00	53.83
556.16	74.90
556.33	60.85
556.50	42.13
556.66	44.47
556.83	86.60
556.99	84.26
557.16	49.15
557.32	138.09
557.49	0.00
557.65	51.49
557.82	77.24
557.98	79.58
558.15	81.92
558.32	21.06
558.48	0.00
558.65	51.49
558.81	51.49
558.98	14.04
559.14	81.92
559.31	25.75
559.47	72.56
559.64	42.13
559.80	0.00
559.97	28.09
560.13	28.09
560.30	35.11
560.46	0.00
560.63	23.41
560.79	14.04
560.96	65.54
561.12	154.48
561.29	133.41
561.45	0.00
561.61	0.00
561.78	142.77
561.94	84.26
562.11	49.15
562.27	126.39
562.44	28.09
562.60	35.11
562.77	88.94
562.93	30.43
563.10	51.49
563.26	32.77
563.42	58.51
563.59	93.62
563.75	74.90
563.92	4.68
564.08	67.88
564.24	60.85
564.41	77.24
564.57	124.05
564.74	11.70
564.90	91.28
565.07	119.37
565.23	58.51
565.39	0.00
565.56	56.17
565.72	28.09
565.88	81.92
566.05	67.88
566.21	74.90
566.38	63.19
566.54	56.17
566.70	16.38
566.87	46.81
567.03	70.22
567.19	51.49
567.36	25.75
567.52	0.00
567.68	32.77
567.85	74.90
568.01	112.35
568.17	70.22
568.34	70.22
568.50	117.03
568.66	28.09
568.83	25.75
568.99	86.60
569.15	44.47
569.32	42.13
569.48	60.85
569.64	114.69
569.81	95.96
569.97	44.47
570.13	67.88
570.30	60.85
570.46	91.28
570.62	77.24
570.78	30.43
570.95	77.24
571.11	98.30
571.27	39.79
571.43	65.54
571.60	0.00
571.76	65.54
571.92	7.02
572.09	77.24
572.25	58.51
572.41	35.11
572.57	53.83
572.74	0.00
572.90	0.00
573.06	53.83
573.22	11.70
573.38	58.51
573.55	11.70
573.71	35.11
573.87	63.19
574.03	77.24
574.20	21.06
574.36	81.92
574.52	65.54
574.68	11.70
574.84	77.24
575.01	84.26
575.17	18.72
575.33	32.77
575.49	93.62
575.65	79.58
575.82	23.41
575.98	79.58
576.14	18.72
576.30	58.51
576.46	65.54
576.62	7.02
576.79	46.81
576.95	79.58
577.11	124.05
577.27	14.04
577.43	0.00
577.59	14.04
577.75	35.11
577.92	46.81
578.08	14.04
578.24	77.24
578.40	4.68
578.56	81.92
578.72	65.54
578.88	112.35
579.04	37.45
579.21	42.13
579.37	0.00
579.53	0.00
579.69	4.68
579.85	46.81
580.01	32.77
580.17	21.06
580.33	53.83
580.49	16.38
580.65	49.15
580.82	0.00
580.98	32.77
581.14	0.00
581.30	0.00
581.46	28.09
581.62	0.00
581.78	0.00
581.94	56.17
582.10	77.24
582.26	149.79
582.42	58.51
582.58	11.70
582.74	53.83
582.90	16.38
583.06	65.54
583.22	60.85
583.38	126.39
583.54	88.94
583.70	95.96
583.86	56.17
584.02	105.32
584.18	65.54
584.34	18.72
584.50	95.96
584.66	37.45
584.82	37.45
584.98	23.41
585.14	9.36
585.30	63.19
585.46	79.58
585.62	79.58
585.78	77.24
585.94	98.30
586.10	35.11
586.26	37.45
586.42	84.26
586.58	46.81
586.74	21.06
586.90	18.72
587.06	60.85
587.22	102.98
587.38	98.30
587.54	88.94
587.70	46.81
587.86	77.24
588.02	60.85
588.18	32.77
588.34	23.41
588.49	7.02
588.65	72.56
588.81	25.75
588.97	28.09
589.13	105.32
589.29	65.54
589.45	65.54
589.61	86.60
589.77	37.45
589.93	58.51
590.08	39.79
590.24	39.79
590.40	117.03
590.56	100.64
590.72	28.09
590.88	16.38
591.04	16.38
591.20	60.85
591.35	14.04
591.51	112.35
591.67	58.51
591.83	53.83
591.99	77.24
592.15	0.00
592.31	0.00
592.46	23.41
592.62	72.56
592.78	28.09
592.94	35.11
593.10	42.13
593.26	0.00
593.41	86.60
593.57	39.79
593.73	72.56
593.89	72.56
594.05	28.09
594.20	39.79
594.36	28.09
594.52	56.17
594.68	4.68
594.84	0.00
594.99	84.26
595.15	63.19
595.31	70.22
595.47	18.72
595.62	84.26
595.78	25.75
595.94	95.96
596.10	42.13
596.25	49.15
596.41	124.05
596.57	11.70
596.73	86.60
596.88	91.28
597.04	32.77
597.20	0.00
597.36	9.36
597.51	21.06
597.67	44.47
597.83	39.79
597.99	30.43
598.14	63.19
598.30	81.92
598.46	37.45
598.61	37.45
598.77	65.54
598.93	0.00
599.09	72.56
599.24	32.77
599.40	79.58
599.56	44.47
599.71	35.11
599.87	74.90
600.03	77.24
600.18	63.19
600.34	32.77
600.50	88.94
600.65	152.13
600.81	23.41
600.97	0.00
601.12	7.02
601.28	0.00
601.44	72.56
601.59	53.83
601.75	107.66
601.91	46.81
602.06	0.00
602.22	70.22
602.37	58.51
602.53	30.43
602.69	51.49
602.84	32.77
603.00	35.11
603.16	88.94
603.31	0.00
603.47	58.51
603.62	18.72
603.78	84.26
603.94	56.17
604.09	0.00
604.25	81.92
604.40	56.17
604.56	30.43
604.71	58.51
604.87	86.60
605.03	44.47
605.18	9.36
605.34	32.77
605.49	0.00
605.65	25.75
605.80	11.70
605.96	46.81
606.12	32.77
606.27	51.49
606.43	0.00
606.58	86.60
606.74	53.83
606.89	81.92
607.05	117.03
607.20	46.81
607.36	56.17
607.51	88.94
607.67	0.00
607.82	44.47
607.98	74.90
608.13	37.45
608.29	56.17
608.44	21.06
608.60	110.01
608.75	63.19
608.91	117.03
609.06	79.58
609.22	11.70
609.37	56.17
609.53	44.47
609.68	37.45
609.84	56.17
609.99	28.09
610.15	77.24
610.30	112.35
610.46	53.83
610.61	0.00
610.76	16.38
610.92	84.26
611.07	7.02
611.23	46.81
611.38	98.30
611.54	60.85
611.69	16.38
611.84	79.58
612.00	51.49
612.15	88.94
612.31	4.68
612.46	77.24
612.62	98.30
612.77	56.17
612.92	32.77
613.08	28.09
613.23	117.03
613.39	44.47
613.54	79.58
613.69	25.75
613.85	0.00
614.00	25.75
614.15	25.75
614.31	79.58
614.46	9.36
614.62	0.00
614.77	49.15
614.92	72.56
615.08	100.64
615.23	9.36
615.38	84.26
615.54	51.49
615.69	37.45
615.84	58.51
616.00	0.00
616.15	42.13
616.30	0.00
616.46	86.60
616.61	32.77
616.76	37.45
616.92	65.54
617.07	0.00
617.22	25.75
617.37	37.45
617.53	0.00
617.68	74.90
617.83	74.90
617.99	49.15
618.14	39.79
618.29	63.19
618.45	46.81
618.60	32.77
618.75	35.11
618.90	39.79
619.06	23.41
619.21	0.00
619.36	42.13
619.51	42.13
619.67	28.09
619.82	0.00
619.97	46.81
620.12	70.22
620.28	9.36
620.43	35.11
620.58	0.00
620.73	25.75
620.89	72.56
621.04	30.43
621.19	53.83
621.34	44.47
621.49	0.00
621.65	60.85
621.80	70.22
621.95	100.64
622.10	32.77
622.25	0.00
622.41	0.00
622.56	51.49
622.71	0.00
622.86	42.13
623.01	53.83
623.16	28.09
623.32	46.81
623.47	42.13
623.62	114.69
623.77	72.56
623.92	70.22
624.07	72.56
624.23	42.13
624.38	74.90
624.53	37.45
624.68	46.81
624.83	42.13
624.98	100.64
625.13	42.13
625.29	138.09
625.44	110.01
625.59	28.09
625.74	121.71
625.89	46.81
626.04	0.00
626.19	32.77
626.34	0.00
626.49	67.88
626.65	37.45
626.80	70.22
626.95	81.92
627.10	51.49
627.25	16.38
627.40	9.36
627.55	46.81
627.70	25.75
627.85	0.00
628.00	32.77
628.15	49.15
628.30	0.00
628.45	81.92
628.60	0.00
628.76	138.09
628.91	81.92
629.06	44.47
629.21	98.30
629.36	21.06
629.51	7.02
629.66	72.56
629.81	32.77
629.96	102.98
630.11	56.17
630.26	39.79
630.41	9.36
630.56	81.92
630.71	2.34
630.86	84.26
631.01	0.00
631.16	0.00
631.31	0.00
631.46	16.38
631.61	23.41
631.76	0.00
631.91	7.02
632.06	14.04
632.21	4.68
632.36	67.88
632.51	21.06
632.66	70.22
632.81	16.38
632.96	46.81
633.10	32.77
633.25	67.88
633.40	51.49
633.55	14.04
633.70	32.77
633.85	110.01
634.00	56.17
634.15	49.15
634.30	30.43
634.45	46.81
634.60	72.56
634.75	25.75
634.90	37.45
635.05	46.81
635.19	0.00
635.34	86.60
635.49	42.13
635.64	49.15
635.79	0.00
635.94	30.43
636.09	11.70
636.24	53.83
636.39	49.15
636.53	65.54
636.68	58.51
636.83	25.75
636.98	25.75
637.13	23.41
637.28	84.26
637.43	14.04
637.57	11.70
637.72	60.85
637.87	25.75
638.02	0.00
638.17	0.00
638.32	51.49
638.46	21.06
638.61	35.11
638.76	51.49
638.91	14.04
639.06	2.34
639.20	30.43
639.35	98.30
639.50	42.13
639.65	28.09
639.80	86.60
639.94	65.54
640.09	72.56
640.24	35.11
640.39	16.38
640.54	25.75
640.68	58.51
640.83	11.70
640.98	7.02
641.13	72.56
641.27	67.88
641.42	0.00
641.57	30.43
641.72	44.47
641.86	11.70
642.01	0.00
642.16	0.00
642.31	49.15
642.45	0.00
642.60	30.43
642.75	67.88
642.90	25.75
643.04	7.02
643.19	42.13
643.34	51.49
643.48	60.85
643.63	58.51
643.78	0.00
643.93	74.90
644.07	0.00
644.22	7.02
644.37	107.66
644.51	67.88
644.66	32.77
644.81	0.00
644.95	72.56
645.10	44.47
645.25	0.00
645.39	44.47
645.54	0.00
645.69	70.22
645.83	0.00
645.98	25.75
646.13	88.94
646.27	0.00
646.42	0.00
646.57	23.41
646.71	39.79
646.86	2.34
647.00	56.17
647.15	9.36
647.30	4.68
647.44	0.00
647.59	0.00
647.74	65.54
647.88	7.02
648.03	56.17
648.17	30.43
648.32	0.00
648.47	39.79
648.61	30.43
648.76	51.49
648.90	0.00
649.05	32.77
649.20	88.94
649.34	7.02
649.49	74.90
649.63	0.00
649.78	0.00
649.92	42.13
650.07	23.41
650.21	9.36
650.36	16.38
650.51	98.30
650.65	74.90
650.80	51.49
650.94	126.39
651.09	25.75
651.23	18.72
651.38	0.00
651.52	28.09
651.67	91.28
651.81	0.00
651.96	44.47
652.10	0.00
652.25	58.51
652.39	53.83
652.54	44.47
652.68	46.81
652.83	70.22
652.97	112.35
653.12	51.49
653.26	112.35
653.41	72.56
653.55	0.00
653.70	77.24
653.84	60.85
653.99	2.34
654.13	74.90
654.27	0.00
654.42	23.41
654.56	18.72
654.71	32.77
654.85	72.56
655.00	56.17
655.14	0.00
655.29	2.34
655.43	86.60
655.57	32.77
655.72	30.43
655.86	16.38
656.01	58.51
656.15	77.24
656.30	72.56
656.44	0.00
656.58	98.30
656.73	49.15
656.87	30.43
657.01	39.79
657.16	9.36
657.30	65.54
657.45	98.30
657.59	42.13
657.73	35.11
657.88	16.38
658.02	0.00
658.16	30.43
658.31	0.00
658.45	53.83
658.60	4.68
658.74	51.49
658.88	102.98
659.03	2.34
659.17	53.83
659.31	0.00
659.46	49.15
659.60	9.36
659.74	65.54
659.89	32.77
660.03	42.13
660.17	4.68
660.32	0.00
660.46	79.58
660.60	74.90
660.74	0.00
660.89	23.41
661.03	32.77
661.17	28.09
661.32	16.38
661.46	11.70
661.60	37.45
661.74	35.11
661.89	37.45
662.03	44.47
662.17	0.00
662.31	49.15
662.46	35.11
662.60	28.09
662.74	0.00
662.88	117.03
663.03	53.83
663.17	0.00
663.31	58.51
663.45	72.56
663.60	23.41
663.74	46.81
663.88	0.00
664.02	65.54
664.17	0.00
664.31	86.60
664.45	23.41
664.59	0.00
664.73	28.09
664.88	18.72
665.02	0.00
665.16	74.90
665.30	65.54
665.44	67.88
665.59	60.85
665.73	60.85
665.87	30.43
666.01	30.43
666.15	70.22
666.29	46.81
666.44	77.24
666.58	84.26
666.72	91.28
666.86	7.02
667.00	4.68
667.14	53.83
667.28	32.77
667.43	21.06
667.57	63.19
667.71	30.43
667.85	56.17
667.99	63.19
668.13	67.88
668.27	77.24
668.41	56.17
668.56	16.38
668.70	67.88
668.84	72.56
668.98	88.94
669.12	0.00
669.26	7.02
669.40	70.22
669.54	46.81
669.68	0.00
669.82	91.28
669.96	11.70
670.10	18.72
670.25	0.00
670.39	63.19
670.53	74.90
670.67	72.56
670.81	23.41
670.95	0.00
671.09	67.88
671.23	93.62
671.37	65.54
671.51	11.70
671.65	39.79
671.79	39.79
671.93	58.51
672.07	142.77
672.21	0.00
672.35	28.09
672.49	42.13
672.63	28.09
672.77	30.43
672.91	2.34
673.05	16.38
673.19	11.70
673.33	86.60
673.47	102.98
673.61	49.15
673.75	112.35
673.89	49.15
674.03	51.49
674.17	53.83
674.31	16.38
674.45	42.13
674.59	14.04
674.73	86.60
674.87	0.00
675.01	28.09
675.15	23.41
675.29	0.00
675.43	88.94
675.56	4.68
675.70	39.79
675.84	0.00
675.98	16.38
676.12	0.00
676.26	72.56
676.40	74.90
676.54	98.30
676.68	32.77
676.82	30.43
676.96	56.17
677.10	70.22
677.23	95.96
677.37	0.00
677.51	16.38
677.65	86.60
677.79	9.36
677.93	126.39
678.07	67.88
678.21	7.02
678.34	133.41
678.48	63.19
678.62	51.49
678.76	79.58
678.90	53.83
679.04	70.22
679.18	67.88
679.31	25.75
679.45	23.41
679.59	0.00
679.73	25.75
679.87	63.19
680.00	0.00
680.14	53.83
680.28	102.98
680.42	18.72
680.56	70.22
680.70	49.15
680.83	32.77
680.97	11.70
681.11	21.06
681.25	37.45
681.39	37.45
681.52	58.51
681.66	0.00
681.80	14.04
681.94	39.79
682.07	18.72
682.21	51.49
682.35	121.71
682.49	74.90
682.62	30.43
682.76	30.43
682.90	25.75
683.04	0.00
683.17	28.09
683.31	46.81
683.45	30.43
683.59	58.51
683.72	86.60
683.86	0.00
684.00	0.00
684.13	30.43
684.27	58.51
684.41	21.06
684.55	25.75
684.68	30.43
684.82	65.54
684.96	81.92
685.09	112.35
685.23	42.13
685.37	70.22
685.50	35.11
685.64	42.13
685.78	42.13
685.91	0.00
686.05	23.41
686.19	84.26
686.32	4.68
686.46	102.98
686.60	51.49
686.73	60.85
686.87	65.54
687.01	4.68
687.14	56.17
687.28	58.51
687.42	84.26
687.55	0.00
687.69	14.04
687.82	0.00
687.96	25.75
688.10	2.34
688.23	126.39
688.37	7.02
688.50	14.04
688.64	60.85
688.78	23.41
688.91	18.72
689.05	35.11
689.18	37.45
689.32	9.36
689.46	79.58
689.59	35.11
689.73	0.00
689.86	42.13
690.00	21.06
690.13	42.13
690.27	0.00
690.41	0.00
690.54	49.15
690.68	14.04
690.81	44.47
690.95	53.83
691.08	9.36
691.22	44.47
691.35	81.92
691.49	0.00
691.62	9.36
691.76	0.00
691.89	58.51
692.03	60.85
692.16	72.56
692.30	49.15
692.43	0.00
692.57	0.00
692.70	0.00
692.84	0.00
692.97	2.34
693.11	60.85
693.24	51.49
693.38	0.00
693.51	60.85
693.65	0.00
693.78	18.72
693.92	30.43
694.05	2.34
694.19	81.92
694.32	58.51
694.45	0.00
694.59	86.60
694.72	56.17
694.86	2.34
694.99	60.85
695.13	11.70
695.26	21.06
695.39	93.62
695.53	128.73
695.66	51.49
695.80	100.64
695.93	63.19
696.07	4.68
696.20	23.41
696.33	14.04
696.47	65.54
696.60	18.72
696.73	11.70
696.87	18.72
697.00	46.81
697.14	44.47
697.27	42.13
697.40	74.90
697.54	14.04
697.67	30.43
697.80	49.15
697.94	16.38
698.07	51.49
698.21	44.47
698.34	0.00
698.47	46.81
698.61	11.70
698.74	65.54
698.87	23.41
699.01	0.00
699.14	2.34
699.27	49.15
699.40	0.00
699.54	46.81
699.67	9.36
699.80	0.00
699.94	14.04
700.07	44.47
700.20	0.00
700.34	74.90
700.47	0.00
700.60	53.83
700.73	37.45
700.87	35.11
701.00	7.02
701.13	86.60
701.26	39.79
701.40	32.77
701.53	4.68
701.66	0.00
701.79	65.54
701.93	37.45
702.06	84.26
702.19	70.22
702.32	0.00
702.46	0.00
702.59	51.49
702.72	74.90
702.85	0.00
702.99	11.70
703.12	51.49
703.25	46.81
703.38	21.06
703.51	32.77
703.65	23.41
703.78	35.11
703.91	86.60
704.04	14.04
704.17	70.22
704.31	84.26
704.44	0.00
704.57	18.72
704.70	49.15
704.83	46.81
704.96	53.83
705.10	25.75
705.23	37.45
>>>>>End Processed Spectral Data<<<<<
