SpectraSuite Data File
++++++++++++++++++++++++++++++++++++
Date: Fri Oct 04 12:13:42 GMT-05:00 2013
User: price-jones
Dark Spectrum Present: No
Reference Spectrum Present: No
Number of Sampled Component Spectra: 1
Spectrometers: USB2+H05261
Integration Time (usec): 10000 (USB2+H05261)
Spectra Averaged: 1 (USB2+H05261)
Boxcar Smoothing: 0 (USB2+H05261)
Correct for Electrical Dark: No (USB2+H05261)
Strobe/Lamp Enabled: No (USB2+H05261)
Correct for Detector Non-linearity: No (USB2+H05261)
Correct for Stray Light: No (USB2+H05261)
Number of Pixels in Processed Spectrum: 2048
>>>>>Begin Processed Spectral Data<<<<<
365.73	0.00
365.92	0.00
366.12	0.00
366.32	0.00
366.52	0.00
366.72	0.00
366.91	0.00
367.11	0.00
367.31	0.00
367.51	0.00
367.70	0.00
367.90	0.00
368.10	0.00
368.30	0.00
368.49	0.00
368.69	0.00
368.89	0.00
369.09	0.00
369.28	0.00
369.48	0.00
369.68	0.00
369.87	0.00
370.07	0.00
370.27	0.00
370.47	0.00
370.66	0.00
370.86	0.00
371.06	0.00
371.25	0.00
371.45	14.04
371.65	30.43
371.84	0.00
372.04	0.00
372.24	0.00
372.44	0.00
372.63	0.00
372.83	0.00
373.03	0.00
373.22	32.77
373.42	0.00
373.62	18.72
373.81	0.00
374.01	14.04
374.21	91.28
374.40	0.00
374.60	46.81
374.79	84.26
374.99	79.58
375.19	39.79
375.38	39.79
375.58	0.00
375.78	0.00
375.97	35.11
376.17	60.85
376.37	0.00
376.56	67.88
376.76	0.00
376.95	25.75
377.15	126.39
377.35	114.69
377.54	32.77
377.74	0.00
377.93	23.41
378.13	65.54
378.33	21.06
378.52	102.98
378.72	0.00
378.91	58.51
379.11	14.04
379.31	102.98
379.50	0.00
379.70	51.49
379.89	21.06
380.09	0.00
380.28	37.45
380.48	39.79
380.68	44.47
380.87	25.75
381.07	30.43
381.26	0.00
381.46	65.54
381.65	44.47
381.85	0.00
382.04	53.83
382.24	37.45
382.43	37.45
382.63	0.00
382.83	51.49
383.02	0.00
383.22	0.00
383.41	0.00
383.61	88.94
383.80	9.36
384.00	18.72
384.19	58.51
384.39	42.13
384.58	0.00
384.78	28.09
384.97	2.34
385.17	35.11
385.36	91.28
385.56	37.45
385.75	4.68
385.95	18.72
386.14	119.37
386.34	0.00
386.53	70.22
386.72	0.00
386.92	11.70
387.11	9.36
387.31	39.79
387.50	39.79
387.70	0.00
387.89	2.34
388.09	58.51
388.28	0.00
388.48	0.00
388.67	128.73
388.86	60.85
389.06	14.04
389.25	0.00
389.45	0.00
389.64	0.00
389.84	0.00
390.03	28.09
390.22	98.30
390.42	30.43
390.61	18.72
390.81	23.41
391.00	14.04
391.19	46.81
391.39	25.75
391.58	72.56
391.78	0.00
391.97	35.11
392.16	0.00
392.36	46.81
392.55	11.70
392.75	0.00
392.94	0.00
393.13	81.92
393.33	18.72
393.52	58.51
393.71	51.49
393.91	77.24
394.10	84.26
394.29	56.17
394.49	46.81
394.68	53.83
394.88	0.00
395.07	30.43
395.26	44.47
395.46	14.04
395.65	67.88
395.84	7.02
396.04	56.17
396.23	0.00
396.42	35.11
396.62	0.00
396.81	23.41
397.00	44.47
397.19	100.64
397.39	91.28
397.58	0.00
397.77	0.00
397.97	81.92
398.16	0.00
398.35	53.83
398.55	0.00
398.74	0.00
398.93	63.19
399.12	0.00
399.32	81.92
399.51	16.38
399.70	7.02
399.90	0.00
400.09	16.38
400.28	21.06
400.47	0.00
400.67	2.34
400.86	0.00
401.05	9.36
401.24	23.41
401.44	0.00
401.63	42.13
401.82	46.81
402.01	65.54
402.21	0.00
402.40	37.45
402.59	70.22
402.78	18.72
402.97	58.51
403.17	0.00
403.36	18.72
403.55	0.00
403.74	0.00
403.93	56.17
404.13	70.22
404.32	65.54
404.51	14.04
404.70	95.96
404.89	18.72
405.09	53.83
405.28	65.54
405.47	0.00
405.66	21.06
405.85	44.47
406.05	9.36
406.24	86.60
406.43	77.24
406.62	51.49
406.81	110.01
407.00	110.01
407.20	53.83
407.39	53.83
407.58	4.68
407.77	23.41
407.96	2.34
408.15	25.75
408.34	39.79
408.54	30.43
408.73	46.81
408.92	65.54
409.11	0.00
409.30	0.00
409.49	51.49
409.68	58.51
409.87	37.45
410.07	42.13
410.26	0.00
410.45	2.34
410.64	51.49
410.83	42.13
411.02	46.81
411.21	39.79
411.40	58.51
411.59	58.51
411.78	67.88
411.98	0.00
412.17	14.04
412.36	81.92
412.55	0.00
412.74	30.43
412.93	60.85
413.12	74.90
413.31	42.13
413.50	16.38
413.69	102.98
413.88	72.56
414.07	7.02
414.26	23.41
414.45	11.70
414.64	0.00
414.83	0.00
415.02	25.75
415.22	30.43
415.41	60.85
415.60	16.38
415.79	46.81
415.98	51.49
416.17	2.34
416.36	46.81
416.55	63.19
416.74	44.47
416.93	0.00
417.12	49.15
417.31	77.24
417.50	30.43
417.69	7.02
417.88	0.00
418.07	72.56
418.26	28.09
418.45	7.02
418.64	42.13
418.83	72.56
419.02	7.02
419.21	11.70
419.39	30.43
419.58	23.41
419.77	56.17
419.96	42.13
420.15	14.04
420.34	25.75
420.53	0.00
420.72	138.09
420.91	72.56
421.10	51.49
421.29	35.11
421.48	107.66
421.67	2.34
421.86	39.79
422.05	32.77
422.24	39.79
422.43	93.62
422.61	77.24
422.80	131.07
422.99	51.49
423.18	81.92
423.37	0.00
423.56	70.22
423.75	91.28
423.94	18.72
424.13	42.13
424.32	11.70
424.50	46.81
424.69	28.09
424.88	46.81
425.07	44.47
425.26	102.98
425.45	65.54
425.64	0.00
425.83	25.75
426.01	0.00
426.20	81.92
426.39	23.41
426.58	51.49
426.77	0.00
426.96	0.00
427.15	2.34
427.33	28.09
427.52	98.30
427.71	32.77
427.90	30.43
428.09	63.19
428.28	14.04
428.46	63.19
428.65	58.51
428.84	30.43
429.03	37.45
429.22	56.17
429.40	60.85
429.59	4.68
429.78	63.19
429.97	84.26
430.16	37.45
430.34	0.00
430.53	28.09
430.72	65.54
430.91	84.26
431.10	16.38
431.28	0.00
431.47	91.28
431.66	77.24
431.85	42.13
432.03	53.83
432.22	42.13
432.41	0.00
432.60	88.94
432.79	0.00
432.97	0.00
433.16	74.90
433.35	23.41
433.54	0.00
433.72	35.11
433.91	0.00
434.10	67.88
434.28	37.45
434.47	0.00
434.66	35.11
434.85	28.09
435.03	58.51
435.22	11.70
435.41	7.02
435.59	67.88
435.78	56.17
435.97	35.11
436.16	44.47
436.34	44.47
436.53	2.34
436.72	9.36
436.90	63.19
437.09	0.00
437.28	46.81
437.46	51.49
437.65	28.09
437.84	35.11
438.02	35.11
438.21	63.19
438.40	63.19
438.58	30.43
438.77	0.00
438.96	0.00
439.14	9.36
439.33	39.79
439.52	79.58
439.70	81.92
439.89	32.77
440.08	35.11
440.26	53.83
440.45	32.77
440.63	35.11
440.82	25.75
441.01	30.43
441.19	39.79
441.38	56.17
441.57	30.43
441.75	95.96
441.94	56.17
442.12	21.06
442.31	49.15
442.50	42.13
442.68	46.81
442.87	23.41
443.05	32.77
443.24	53.83
443.43	79.58
443.61	60.85
443.80	0.00
443.98	95.96
444.17	51.49
444.35	72.56
444.54	88.94
444.73	56.17
444.91	95.96
445.10	51.49
445.28	51.49
445.47	0.00
445.65	60.85
445.84	7.02
446.02	39.79
446.21	56.17
446.39	56.17
446.58	11.70
446.77	51.49
446.95	23.41
447.14	0.00
447.32	107.66
447.51	77.24
447.69	53.83
447.88	72.56
448.06	63.19
448.25	124.05
448.43	37.45
448.62	46.81
448.80	7.02
448.99	30.43
449.17	72.56
449.36	81.92
449.54	39.79
449.73	133.41
449.91	0.00
450.10	28.09
450.28	39.79
450.46	79.58
450.65	53.83
450.83	9.36
451.02	98.30
451.20	72.56
451.39	63.19
451.57	30.43
451.76	37.45
451.94	72.56
452.13	131.07
452.31	14.04
452.49	95.96
452.68	105.32
452.86	86.60
453.05	42.13
453.23	0.00
453.42	44.47
453.60	44.47
453.78	74.90
453.97	0.00
454.15	4.68
454.34	79.58
454.52	7.02
454.70	79.58
454.89	70.22
455.07	23.41
455.26	21.06
455.44	28.09
455.62	44.47
455.81	44.47
455.99	44.47
456.17	77.24
456.36	102.98
456.54	37.45
456.73	60.85
456.91	84.26
457.09	2.34
457.28	60.85
457.46	77.24
457.64	79.58
457.83	42.13
458.01	0.00
458.19	65.54
458.38	0.00
458.56	60.85
458.74	4.68
458.93	16.38
459.11	91.28
459.29	39.79
459.48	49.15
459.66	53.83
459.84	32.77
460.03	95.96
460.21	72.56
460.39	39.79
460.57	60.85
460.76	46.81
460.94	86.60
461.12	23.41
461.31	35.11
461.49	58.51
461.67	70.22
461.85	0.00
462.04	0.00
462.22	84.26
462.40	18.72
462.59	53.83
462.77	145.11
462.95	70.22
463.13	0.00
463.32	86.60
463.50	0.00
463.68	4.68
463.86	81.92
464.05	79.58
464.23	77.24
464.41	44.47
464.59	65.54
464.78	72.56
464.96	102.98
465.14	114.69
465.32	72.56
465.50	67.88
465.69	63.19
465.87	51.49
466.05	39.79
466.23	86.60
466.41	98.30
466.60	7.02
466.78	46.81
466.96	25.75
467.14	53.83
467.32	86.60
467.51	51.49
467.69	65.54
467.87	102.98
468.05	98.30
468.23	30.43
468.41	121.71
468.60	46.81
468.78	11.70
468.96	49.15
469.14	51.49
469.32	63.19
469.50	46.81
469.69	79.58
469.87	58.51
470.05	56.17
470.23	77.24
470.41	98.30
470.59	74.90
470.77	11.70
470.95	79.58
471.14	2.34
471.32	74.90
471.50	93.62
471.68	72.56
471.86	56.17
472.04	42.13
472.22	21.06
472.40	133.41
472.58	72.56
472.77	60.85
472.95	100.64
473.13	60.85
473.31	32.77
473.49	100.64
473.67	121.71
473.85	44.47
474.03	74.90
474.21	35.11
474.39	67.88
474.57	32.77
474.75	70.22
474.93	128.73
475.12	95.96
475.30	51.49
475.48	7.02
475.66	37.45
475.84	102.98
476.02	28.09
476.20	44.47
476.38	72.56
476.56	93.62
476.74	63.19
476.92	39.79
477.10	131.07
477.28	44.47
477.46	128.73
477.64	32.77
477.82	32.77
478.00	21.06
478.18	14.04
478.36	49.15
478.54	35.11
478.72	67.88
478.90	70.22
479.08	25.75
479.26	0.00
479.44	0.00
479.62	88.94
479.80	30.43
479.98	74.90
480.16	51.49
480.34	0.00
480.52	39.79
480.70	88.94
480.88	53.83
481.06	102.98
481.24	98.30
481.41	16.38
481.59	23.41
481.77	91.28
481.95	98.30
482.13	44.47
482.31	60.85
482.49	102.98
482.67	88.94
482.85	14.04
483.03	39.79
483.21	86.60
483.39	21.06
483.57	65.54
483.74	35.11
483.92	72.56
484.10	95.96
484.28	114.69
484.46	107.66
484.64	124.05
484.82	70.22
485.00	14.04
485.18	16.38
485.35	44.47
485.53	91.28
485.71	88.94
485.89	51.49
486.07	16.38
486.25	18.72
486.43	0.00
486.61	72.56
486.78	102.98
486.96	114.69
487.14	105.32
487.32	91.28
487.50	72.56
487.68	70.22
487.85	74.90
488.03	121.71
488.21	49.15
488.39	98.30
488.57	126.39
488.75	63.19
488.92	53.83
489.10	72.56
489.28	46.81
489.46	72.56
489.64	119.37
489.81	30.43
489.99	138.09
490.17	60.85
490.35	74.90
490.53	100.64
490.70	63.19
490.88	35.11
491.06	91.28
491.24	51.49
491.41	84.26
491.59	74.90
491.77	53.83
491.95	39.79
492.13	77.24
492.30	72.56
492.48	81.92
492.66	105.32
492.84	88.94
493.01	60.85
493.19	131.07
493.37	37.45
493.54	84.26
493.72	95.96
493.90	81.92
494.08	46.81
494.25	95.96
494.43	56.17
494.61	142.77
494.79	91.28
494.96	91.28
495.14	126.39
495.32	84.26
495.49	74.90
495.67	74.90
495.85	86.60
496.02	7.02
496.20	81.92
496.38	39.79
496.55	46.81
496.73	84.26
496.91	105.32
497.09	124.05
497.26	49.15
497.44	100.64
497.62	60.85
497.79	112.35
497.97	56.17
498.14	9.36
498.32	28.09
498.50	65.54
498.67	147.45
498.85	84.26
499.03	58.51
499.20	110.01
499.38	37.45
499.56	79.58
499.73	46.81
499.91	105.32
500.08	154.48
500.26	117.03
500.44	79.58
500.61	88.94
500.79	131.07
500.97	91.28
501.14	86.60
501.32	32.77
501.49	112.35
501.67	0.00
501.84	42.13
502.02	81.92
502.20	117.03
502.37	65.54
502.55	95.96
502.72	88.94
502.90	56.17
503.07	152.13
503.25	105.32
503.43	114.69
503.60	88.94
503.78	28.09
503.95	86.60
504.13	44.47
504.30	51.49
504.48	93.62
504.65	84.26
504.83	161.50
505.01	175.54
505.18	60.85
505.36	114.69
505.53	63.19
505.71	84.26
505.88	56.17
506.06	117.03
506.23	133.41
506.41	128.73
506.58	58.51
506.76	60.85
506.93	23.41
507.11	117.03
507.28	93.62
507.46	88.94
507.63	84.26
507.81	72.56
507.98	117.03
508.16	23.41
508.33	95.96
508.50	35.11
508.68	114.69
508.85	28.09
509.03	86.60
509.20	112.35
509.38	79.58
509.55	37.45
509.73	70.22
509.90	49.15
510.08	0.00
510.25	44.47
510.42	63.19
510.60	18.72
510.77	28.09
510.95	88.94
511.12	121.71
511.30	72.56
511.47	51.49
511.64	184.90
511.82	117.03
511.99	63.19
512.17	72.56
512.34	102.98
512.51	42.13
512.69	65.54
512.86	105.32
513.04	79.58
513.21	98.30
513.38	51.49
513.56	100.64
513.73	117.03
513.90	81.92
514.08	126.39
514.25	39.79
514.43	88.94
514.60	107.66
514.77	51.49
514.95	147.45
515.12	51.49
515.29	2.34
515.47	88.94
515.64	84.26
515.81	114.69
515.99	124.05
516.16	138.09
516.33	67.88
516.51	128.73
516.68	86.60
516.85	32.77
517.03	79.58
517.20	100.64
517.37	58.51
517.54	77.24
517.72	121.71
517.89	131.07
518.06	35.11
518.24	0.00
518.41	51.49
518.58	91.28
518.75	63.19
518.93	105.32
519.10	102.98
519.27	128.73
519.45	121.71
519.62	84.26
519.79	126.39
519.96	35.11
520.14	51.49
520.31	112.35
520.48	131.07
520.65	107.66
520.83	49.15
521.00	77.24
521.17	23.41
521.34	79.58
521.52	79.58
521.69	70.22
521.86	105.32
522.03	30.43
522.20	74.90
522.38	142.77
522.55	105.32
522.72	35.11
522.89	44.47
523.07	60.85
523.24	0.00
523.41	117.03
523.58	98.30
523.75	91.28
523.92	121.71
524.10	67.88
524.27	74.90
524.44	70.22
524.61	65.54
524.78	93.62
524.96	77.24
525.13	105.32
525.30	74.90
525.47	145.11
525.64	56.17
525.81	42.13
525.98	11.70
526.16	53.83
526.33	121.71
526.50	114.69
526.67	84.26
526.84	35.11
527.01	49.15
527.18	67.88
527.36	42.13
527.53	107.66
527.70	42.13
527.87	117.03
528.04	25.75
528.21	35.11
528.38	35.11
528.55	114.69
528.72	11.70
528.89	67.88
529.07	88.94
529.24	119.37
529.41	93.62
529.58	81.92
529.75	51.49
529.92	4.68
530.09	72.56
530.26	79.58
530.43	93.62
530.60	91.28
530.77	74.90
530.94	63.19
531.11	98.30
531.28	161.50
531.46	93.62
531.63	86.60
531.80	0.00
531.97	46.81
532.14	84.26
532.31	93.62
532.48	145.11
532.65	72.56
532.82	74.90
532.99	25.75
533.16	93.62
533.33	70.22
533.50	18.72
533.67	65.54
533.84	112.35
534.01	77.24
534.18	60.85
534.35	86.60
534.52	46.81
534.69	0.00
534.86	156.82
535.03	159.16
535.20	145.11
535.37	79.58
535.54	105.32
535.71	119.37
535.88	105.32
536.05	53.83
536.22	142.77
536.38	23.41
536.55	56.17
536.72	159.16
536.89	0.00
537.06	51.49
537.23	180.22
537.40	117.03
537.57	159.16
537.74	49.15
537.91	100.64
538.08	60.85
538.25	147.45
538.42	95.96
538.59	72.56
538.75	84.26
538.92	100.64
539.09	63.19
539.26	79.58
539.43	51.49
539.60	135.75
539.77	147.45
539.94	84.26
540.11	140.43
540.28	131.07
540.44	117.03
540.61	79.58
540.78	98.30
540.95	37.45
541.12	28.09
541.29	88.94
541.46	107.66
541.62	86.60
541.79	56.17
541.96	81.92
542.13	95.96
542.30	60.85
542.47	100.64
542.63	88.94
542.80	65.54
542.97	39.79
543.14	84.26
543.31	91.28
543.48	131.07
543.64	58.51
543.81	53.83
543.98	81.92
544.15	121.71
544.32	60.85
544.48	91.28
544.65	133.41
544.82	131.07
544.99	98.30
545.16	161.50
545.32	91.28
545.49	74.90
545.66	93.62
545.83	32.77
546.00	49.15
546.16	58.51
546.33	58.51
546.50	23.41
546.67	102.98
546.83	91.28
547.00	60.85
547.17	65.54
547.34	100.64
547.50	77.24
547.67	124.05
547.84	63.19
548.00	149.79
548.17	28.09
548.34	138.09
548.51	67.88
548.67	100.64
548.84	4.68
549.01	7.02
549.18	93.62
549.34	91.28
549.51	102.98
549.68	117.03
549.84	93.62
550.01	18.72
550.18	112.35
550.34	7.02
550.51	119.37
550.68	84.26
550.84	53.83
551.01	11.70
551.18	67.88
551.34	93.62
551.51	81.92
551.68	105.32
551.84	119.37
552.01	58.51
552.18	16.38
552.34	135.75
552.51	79.58
552.68	119.37
552.84	72.56
553.01	145.11
553.18	67.88
553.34	56.17
553.51	91.28
553.67	159.16
553.84	0.00
554.01	0.00
554.17	67.88
554.34	114.69
554.51	77.24
554.67	105.32
554.84	117.03
555.00	51.49
555.17	37.45
555.33	110.01
555.50	173.20
555.67	44.47
555.83	128.73
556.00	74.90
556.16	98.30
556.33	128.73
556.50	138.09
556.66	107.66
556.83	63.19
556.99	77.24
557.16	138.09
557.32	84.26
557.49	100.64
557.65	81.92
557.82	77.24
557.98	28.09
558.15	51.49
558.32	95.96
558.48	58.51
558.65	100.64
558.81	70.22
558.98	105.32
559.14	58.51
559.31	100.64
559.47	117.03
559.64	100.64
559.80	105.32
559.97	107.66
560.13	121.71
560.30	70.22
560.46	65.54
560.63	70.22
560.79	39.79
560.96	23.41
561.12	74.90
561.29	110.01
561.45	105.32
561.61	133.41
561.78	126.39
561.94	58.51
562.11	39.79
562.27	49.15
562.44	58.51
562.60	133.41
562.77	32.77
562.93	79.58
563.10	131.07
563.26	110.01
563.42	49.15
563.59	119.37
563.75	84.26
563.92	42.13
564.08	124.05
564.24	49.15
564.41	93.62
564.57	49.15
564.74	91.28
564.90	119.37
565.07	110.01
565.23	110.01
565.39	67.88
565.56	100.64
565.72	70.22
565.88	37.45
566.05	159.16
566.21	74.90
566.38	56.17
566.54	58.51
566.70	37.45
566.87	91.28
567.03	98.30
567.19	81.92
567.36	84.26
567.52	100.64
567.68	77.24
567.85	72.56
568.01	81.92
568.17	18.72
568.34	67.88
568.50	49.15
568.66	51.49
568.83	72.56
568.99	142.77
569.15	124.05
569.32	65.54
569.48	114.69
569.64	77.24
569.81	100.64
569.97	128.73
570.13	53.83
570.30	28.09
570.46	14.04
570.62	53.83
570.78	100.64
570.95	79.58
571.11	46.81
571.27	28.09
571.43	63.19
571.60	65.54
571.76	84.26
571.92	53.83
572.09	65.54
572.25	135.75
572.41	131.07
572.57	95.96
572.74	49.15
572.90	86.60
573.06	44.47
573.22	63.19
573.38	91.28
573.55	124.05
573.71	67.88
573.87	72.56
574.03	100.64
574.20	42.13
574.36	117.03
574.52	86.60
574.68	44.47
574.84	35.11
575.01	39.79
575.17	81.92
575.33	72.56
575.49	63.19
575.65	133.41
575.82	63.19
575.98	112.35
576.14	105.32
576.30	98.30
576.46	79.58
576.62	124.05
576.79	39.79
576.95	56.17
577.11	30.43
577.27	88.94
577.43	117.03
577.59	60.85
577.75	88.94
577.92	51.49
578.08	124.05
578.24	44.47
578.40	58.51
578.56	46.81
578.72	49.15
578.88	70.22
579.04	107.66
579.21	107.66
579.37	124.05
579.53	128.73
579.69	49.15
579.85	98.30
580.01	23.41
580.17	65.54
580.33	77.24
580.49	81.92
580.65	39.79
580.82	44.47
580.98	72.56
581.14	93.62
581.30	105.32
581.46	51.49
581.62	81.92
581.78	32.77
581.94	11.70
582.10	140.43
582.26	2.34
582.42	77.24
582.58	86.60
582.74	67.88
582.90	0.00
583.06	46.81
583.22	142.77
583.38	16.38
583.54	60.85
583.70	60.85
583.86	112.35
584.02	56.17
584.18	25.75
584.34	37.45
584.50	79.58
584.66	79.58
584.82	100.64
584.98	16.38
585.14	81.92
585.30	95.96
585.46	84.26
585.62	46.81
585.78	37.45
585.94	100.64
586.10	88.94
586.26	25.75
586.42	84.26
586.58	18.72
586.74	49.15
586.90	107.66
587.06	0.00
587.22	51.49
587.38	63.19
587.54	65.54
587.70	107.66
587.86	98.30
588.02	100.64
588.18	60.85
588.34	105.32
588.49	7.02
588.65	93.62
588.81	105.32
588.97	32.77
589.13	91.28
589.29	4.68
589.45	84.26
589.61	46.81
589.77	110.01
589.93	74.90
590.08	0.00
590.24	44.47
590.40	35.11
590.56	44.47
590.72	74.90
590.88	56.17
591.04	25.75
591.20	0.00
591.35	74.90
591.51	114.69
591.67	110.01
591.83	56.17
591.99	74.90
592.15	93.62
592.31	42.13
592.46	93.62
592.62	35.11
592.78	51.49
592.94	46.81
593.10	0.00
593.26	28.09
593.41	9.36
593.57	86.60
593.73	79.58
593.89	70.22
594.05	42.13
594.20	81.92
594.36	142.77
594.52	23.41
594.68	60.85
594.84	42.13
594.99	39.79
595.15	81.92
595.31	175.54
595.47	95.96
595.62	9.36
595.78	49.15
595.94	51.49
596.10	65.54
596.25	72.56
596.41	37.45
596.57	51.49
596.73	79.58
596.88	105.32
597.04	107.66
597.20	58.51
597.36	72.56
597.51	44.47
597.67	18.72
597.83	70.22
597.99	88.94
598.14	77.24
598.30	63.19
598.46	79.58
598.61	117.03
598.77	93.62
598.93	70.22
599.09	46.81
599.24	70.22
599.40	46.81
599.56	51.49
599.71	44.47
599.87	28.09
600.03	67.88
600.18	74.90
600.34	112.35
600.50	86.60
600.65	58.51
600.81	0.00
600.97	42.13
601.12	0.00
601.28	119.37
601.44	39.79
601.59	63.19
601.75	25.75
601.91	42.13
602.06	100.64
602.22	39.79
602.37	140.43
602.53	126.39
602.69	65.54
602.84	46.81
603.00	102.98
603.16	60.85
603.31	65.54
603.47	114.69
603.62	93.62
603.78	63.19
603.94	42.13
604.09	110.01
604.25	112.35
604.40	121.71
604.56	86.60
604.71	37.45
604.87	74.90
605.03	39.79
605.18	79.58
605.34	79.58
605.49	124.05
605.65	74.90
605.80	81.92
605.96	42.13
606.12	102.98
606.27	105.32
606.43	107.66
606.58	102.98
606.74	74.90
606.89	124.05
607.05	105.32
607.20	74.90
607.36	39.79
607.51	93.62
607.67	93.62
607.82	63.19
607.98	81.92
608.13	51.49
608.29	49.15
608.44	37.45
608.60	32.77
608.75	126.39
608.91	102.98
609.06	100.64
609.22	70.22
609.37	102.98
609.53	28.09
609.68	37.45
609.84	74.90
609.99	21.06
610.15	63.19
610.30	91.28
610.46	100.64
610.61	46.81
610.76	0.00
610.92	93.62
611.07	77.24
611.23	30.43
611.38	117.03
611.54	0.00
611.69	88.94
611.84	100.64
612.00	46.81
612.15	86.60
612.31	72.56
612.46	91.28
612.62	32.77
612.77	100.64
612.92	107.66
613.08	156.82
613.23	102.98
613.39	16.38
613.54	32.77
613.69	0.00
613.85	88.94
614.00	86.60
614.15	65.54
614.31	81.92
614.46	161.50
614.62	35.11
614.77	81.92
614.92	65.54
615.08	32.77
615.23	46.81
615.38	93.62
615.54	72.56
615.69	102.98
615.84	11.70
616.00	23.41
616.15	79.58
616.30	91.28
616.46	60.85
616.61	28.09
616.76	74.90
616.92	56.17
617.07	81.92
617.22	91.28
617.37	39.79
617.53	65.54
617.68	51.49
617.83	67.88
617.99	88.94
618.14	72.56
618.29	100.64
618.45	44.47
618.60	121.71
618.75	156.82
618.90	58.51
619.06	46.81
619.21	58.51
619.36	30.43
619.51	32.77
619.67	56.17
619.82	51.49
619.97	49.15
620.12	91.28
620.28	84.26
620.43	95.96
620.58	145.11
620.73	9.36
620.89	84.26
621.04	58.51
621.19	56.17
621.34	0.00
621.49	25.75
621.65	51.49
621.80	88.94
621.95	23.41
622.10	95.96
622.25	56.17
622.41	46.81
622.56	112.35
622.71	84.26
622.86	91.28
623.01	72.56
623.16	39.79
623.32	112.35
623.47	98.30
623.62	44.47
623.77	114.69
623.92	60.85
624.07	49.15
624.23	79.58
624.38	49.15
624.53	67.88
624.68	100.64
624.83	0.00
624.98	11.70
625.13	81.92
625.29	67.88
625.44	53.83
625.59	32.77
625.74	117.03
625.89	79.58
626.04	16.38
626.19	86.60
626.34	93.62
626.49	88.94
626.65	65.54
626.80	58.51
626.95	65.54
627.10	63.19
627.25	51.49
627.40	86.60
627.55	9.36
627.70	0.00
627.85	37.45
628.00	30.43
628.15	0.00
628.30	23.41
628.45	16.38
628.60	37.45
628.76	51.49
628.91	98.30
629.06	32.77
629.21	102.98
629.36	133.41
629.51	58.51
629.66	0.00
629.81	0.00
629.96	51.49
630.11	30.43
630.26	42.13
630.41	11.70
630.56	81.92
630.71	84.26
630.86	84.26
631.01	65.54
631.16	58.51
631.31	51.49
631.46	84.26
631.61	46.81
631.76	21.06
631.91	53.83
632.06	63.19
632.21	51.49
632.36	84.26
632.51	142.77
632.66	58.51
632.81	37.45
632.96	39.79
633.10	0.00
633.25	46.81
633.40	100.64
633.55	9.36
633.70	53.83
633.85	0.00
634.00	37.45
634.15	42.13
634.30	86.60
634.45	105.32
634.60	37.45
634.75	58.51
634.90	77.24
635.05	25.75
635.19	51.49
635.34	67.88
635.49	39.79
635.64	53.83
635.79	98.30
635.94	67.88
636.09	37.45
636.24	84.26
636.39	32.77
636.53	65.54
636.68	9.36
636.83	39.79
636.98	65.54
637.13	63.19
637.28	53.83
637.43	95.96
637.57	88.94
637.72	63.19
637.87	58.51
638.02	86.60
638.17	53.83
638.32	159.16
638.46	0.00
638.61	124.05
638.76	0.00
638.91	58.51
639.06	110.01
639.20	56.17
639.35	0.00
639.50	44.47
639.65	30.43
639.80	100.64
639.94	25.75
640.09	18.72
640.24	53.83
640.39	65.54
640.54	84.26
640.68	86.60
640.83	81.92
640.98	56.17
641.13	105.32
641.27	65.54
641.42	81.92
641.57	114.69
641.72	65.54
641.86	44.47
642.01	74.90
642.16	81.92
642.31	0.00
642.45	44.47
642.60	11.70
642.75	77.24
642.90	9.36
643.04	95.96
643.19	65.54
643.34	51.49
643.48	56.17
643.63	65.54
643.78	49.15
643.93	30.43
644.07	18.72
644.22	44.47
644.37	18.72
644.51	70.22
644.66	77.24
644.81	67.88
644.95	32.77
645.10	79.58
645.25	49.15
645.39	39.79
645.54	84.26
645.69	51.49
645.83	67.88
645.98	81.92
646.13	7.02
646.27	74.90
646.42	77.24
646.57	86.60
646.71	58.51
646.86	42.13
647.00	65.54
647.15	25.75
647.30	72.56
647.44	102.98
647.59	79.58
647.74	44.47
647.88	60.85
648.03	86.60
648.17	7.02
648.32	112.35
648.47	49.15
648.61	51.49
648.76	16.38
648.90	23.41
649.05	35.11
649.20	67.88
649.34	72.56
649.49	46.81
649.63	70.22
649.78	14.04
649.92	56.17
650.07	49.15
650.21	67.88
650.36	16.38
650.51	67.88
650.65	65.54
650.80	70.22
650.94	95.96
651.09	91.28
651.23	32.77
651.38	86.60
651.52	7.02
651.67	114.69
651.81	93.62
651.96	39.79
652.10	79.58
652.25	56.17
652.39	65.54
652.54	77.24
652.68	0.00
652.83	74.90
652.97	74.90
653.12	51.49
653.26	37.45
653.41	86.60
653.55	25.75
653.70	42.13
653.84	63.19
653.99	46.81
654.13	88.94
654.27	23.41
654.42	100.64
654.56	37.45
654.71	58.51
654.85	49.15
655.00	86.60
655.14	93.62
655.29	79.58
655.43	28.09
655.57	46.81
655.72	23.41
655.86	32.77
656.01	46.81
656.15	21.06
656.30	67.88
656.44	67.88
656.58	114.69
656.73	32.77
656.87	28.09
657.01	67.88
657.16	152.13
657.30	58.51
657.45	88.94
657.59	110.01
657.73	133.41
657.88	2.34
658.02	0.00
658.16	35.11
658.31	65.54
658.45	4.68
658.60	53.83
658.74	60.85
658.88	112.35
659.03	67.88
659.17	51.49
659.31	53.83
659.46	42.13
659.60	16.38
659.74	60.85
659.89	133.41
660.03	25.75
660.17	91.28
660.32	4.68
660.46	4.68
660.60	30.43
660.74	51.49
660.89	128.73
661.03	44.47
661.17	9.36
661.32	74.90
661.46	93.62
661.60	49.15
661.74	74.90
661.89	46.81
662.03	53.83
662.17	32.77
662.31	18.72
662.46	32.77
662.60	60.85
662.74	65.54
662.88	107.66
663.03	93.62
663.17	35.11
663.31	4.68
663.45	60.85
663.60	88.94
663.74	100.64
663.88	25.75
664.02	53.83
664.17	58.51
664.31	0.00
664.45	11.70
664.59	23.41
664.73	93.62
664.88	0.00
665.02	49.15
665.16	42.13
665.30	39.79
665.44	39.79
665.59	28.09
665.73	88.94
665.87	53.83
666.01	56.17
666.15	49.15
666.29	65.54
666.44	25.75
666.58	98.30
666.72	49.15
666.86	7.02
667.00	7.02
667.14	49.15
667.28	44.47
667.43	18.72
667.57	51.49
667.71	100.64
667.85	0.00
667.99	32.77
668.13	9.36
668.27	44.47
668.41	63.19
668.56	42.13
668.70	37.45
668.84	102.98
668.98	42.13
669.12	0.00
669.26	81.92
669.40	32.77
669.54	93.62
669.68	84.26
669.82	2.34
669.96	23.41
670.10	14.04
670.25	21.06
670.39	21.06
670.53	0.00
670.67	37.45
670.81	0.00
670.95	42.13
671.09	100.64
671.23	74.90
671.37	63.19
671.51	0.00
671.65	58.51
671.79	74.90
671.93	88.94
672.07	79.58
672.21	7.02
672.35	4.68
672.49	0.00
672.63	28.09
672.77	28.09
672.91	67.88
673.05	79.58
673.19	51.49
673.33	23.41
673.47	37.45
673.61	51.49
673.75	67.88
673.89	98.30
674.03	4.68
674.17	77.24
674.31	126.39
674.45	53.83
674.59	56.17
674.73	39.79
674.87	63.19
675.01	107.66
675.15	65.54
675.29	42.13
675.43	42.13
675.56	39.79
675.70	46.81
675.84	102.98
675.98	84.26
676.12	49.15
676.26	9.36
676.40	11.70
676.54	0.00
676.68	11.70
676.82	67.88
676.96	93.62
677.10	0.00
677.23	0.00
677.37	107.66
677.51	74.90
677.65	53.83
677.79	32.77
677.93	0.00
678.07	25.75
678.21	2.34
678.34	42.13
678.48	0.00
678.62	51.49
678.76	37.45
678.90	131.07
679.04	53.83
679.18	49.15
679.31	16.38
679.45	0.00
679.59	28.09
679.73	0.00
679.87	72.56
680.00	74.90
680.14	21.06
680.28	51.49
680.42	44.47
680.56	51.49
680.70	39.79
680.83	79.58
680.97	53.83
681.11	58.51
681.25	63.19
681.39	53.83
681.52	72.56
681.66	86.60
681.80	102.98
681.94	14.04
682.07	95.96
682.21	88.94
682.35	25.75
682.49	0.00
682.62	51.49
682.76	42.13
682.90	70.22
683.04	63.19
683.17	11.70
683.31	72.56
683.45	63.19
683.59	60.85
683.72	95.96
683.86	9.36
684.00	18.72
684.13	119.37
684.27	58.51
684.41	37.45
684.55	51.49
684.68	58.51
684.82	21.06
684.96	18.72
685.09	65.54
685.23	56.17
685.37	79.58
685.50	44.47
685.64	51.49
685.78	35.11
685.91	35.11
686.05	72.56
686.19	28.09
686.32	25.75
686.46	77.24
686.60	14.04
686.73	28.09
686.87	72.56
687.01	7.02
687.14	32.77
687.28	2.34
687.42	72.56
687.55	79.58
687.69	51.49
687.82	37.45
687.96	88.94
688.10	67.88
688.23	70.22
688.37	72.56
688.50	18.72
688.64	81.92
688.78	102.98
688.91	72.56
689.05	35.11
689.18	46.81
689.32	60.85
689.46	35.11
689.59	7.02
689.73	161.50
689.86	91.28
690.00	0.00
690.13	35.11
690.27	53.83
690.41	0.00
690.54	25.75
690.68	30.43
690.81	49.15
690.95	70.22
691.08	63.19
691.22	100.64
691.35	0.00
691.49	58.51
691.62	37.45
691.76	9.36
691.89	102.98
692.03	56.17
692.16	0.00
692.30	23.41
692.43	58.51
692.57	0.00
692.70	37.45
692.84	30.43
692.97	65.54
693.11	42.13
693.24	53.83
693.38	4.68
693.51	49.15
693.65	30.43
693.78	65.54
693.92	32.77
694.05	63.19
694.19	56.17
694.32	0.00
694.45	0.00
694.59	37.45
694.72	44.47
694.86	114.69
694.99	35.11
695.13	53.83
695.26	32.77
695.39	93.62
695.53	67.88
695.66	79.58
695.80	0.00
695.93	0.00
696.07	93.62
696.20	0.00
696.33	42.13
696.47	0.00
696.60	74.90
696.73	51.49
696.87	23.41
697.00	70.22
697.14	44.47
697.27	18.72
697.40	14.04
697.54	63.19
697.67	9.36
697.80	49.15
697.94	16.38
698.07	39.79
698.21	67.88
698.34	0.00
698.47	117.03
698.61	0.00
698.74	98.30
698.87	4.68
699.01	9.36
699.14	14.04
699.27	14.04
699.40	84.26
699.54	53.83
699.67	0.00
699.80	51.49
699.94	72.56
700.07	58.51
700.20	60.85
700.34	28.09
700.47	0.00
700.60	79.58
700.73	0.00
700.87	30.43
701.00	74.90
701.13	21.06
701.26	30.43
701.40	56.17
701.53	51.49
701.66	72.56
701.79	0.00
701.93	117.03
702.06	14.04
702.19	0.00
702.32	14.04
702.46	102.98
702.59	0.00
702.72	51.49
702.85	0.00
702.99	46.81
703.12	0.00
703.25	88.94
703.38	0.00
703.51	18.72
703.65	70.22
703.78	77.24
703.91	0.00
704.04	0.00
704.17	28.09
704.31	30.43
704.44	53.83
704.57	65.54
704.70	0.00
704.83	53.83
704.96	0.00
705.10	0.00
705.23	21.06
>>>>>End Processed Spectral Data<<<<<
