SpectraSuite Data File
++++++++++++++++++++++++++++++++++++
Date: Fri Oct 04 12:13:29 GMT-05:00 2013
User: price-jones
Dark Spectrum Present: No
Reference Spectrum Present: No
Number of Sampled Component Spectra: 1
Spectrometers: USB2+H05261
Integration Time (usec): 10000 (USB2+H05261)
Spectra Averaged: 1 (USB2+H05261)
Boxcar Smoothing: 0 (USB2+H05261)
Correct for Electrical Dark: No (USB2+H05261)
Strobe/Lamp Enabled: No (USB2+H05261)
Correct for Detector Non-linearity: No (USB2+H05261)
Correct for Stray Light: No (USB2+H05261)
Number of Pixels in Processed Spectrum: 2048
>>>>>Begin Processed Spectral Data<<<<<
365.73	0.00
365.92	0.00
366.12	0.00
366.32	0.00
366.52	0.00
366.72	0.00
366.91	0.00
367.11	0.00
367.31	0.00
367.51	0.00
367.70	0.00
367.90	0.00
368.10	0.00
368.30	0.00
368.49	0.00
368.69	0.00
368.89	0.00
369.09	0.00
369.28	0.00
369.48	0.00
369.68	0.00
369.87	0.00
370.07	0.00
370.27	0.00
370.47	0.00
370.66	0.00
370.86	0.00
371.06	32.77
371.25	0.00
371.45	0.00
371.65	9.36
371.84	0.00
372.04	30.43
372.24	63.19
372.44	0.00
372.63	32.77
372.83	95.96
373.03	51.49
373.22	0.00
373.42	21.06
373.62	49.15
373.81	28.09
374.01	42.13
374.21	11.70
374.40	95.96
374.60	0.00
374.79	4.68
374.99	23.41
375.19	46.81
375.38	51.49
375.58	65.54
375.78	35.11
375.97	100.64
376.17	2.34
376.37	37.45
376.56	88.94
376.76	67.88
376.95	37.45
377.15	70.22
377.35	67.88
377.54	23.41
377.74	0.00
377.93	0.00
378.13	46.81
378.33	0.00
378.52	0.00
378.72	0.00
378.91	28.09
379.11	51.49
379.31	46.81
379.50	107.66
379.70	70.22
379.89	46.81
380.09	28.09
380.28	16.38
380.48	0.00
380.68	63.19
380.87	0.00
381.07	70.22
381.26	44.47
381.46	0.00
381.65	51.49
381.85	25.75
382.04	0.00
382.24	44.47
382.43	56.17
382.63	32.77
382.83	23.41
383.02	11.70
383.22	51.49
383.41	42.13
383.61	37.45
383.80	67.88
384.00	0.00
384.19	0.00
384.39	18.72
384.58	42.13
384.78	0.00
384.97	0.00
385.17	0.00
385.36	0.00
385.56	74.90
385.75	4.68
385.95	56.17
386.14	18.72
386.34	14.04
386.53	0.00
386.72	0.00
386.92	53.83
387.11	11.70
387.31	32.77
387.50	88.94
387.70	46.81
387.89	56.17
388.09	49.15
388.28	32.77
388.48	65.54
388.67	0.00
388.86	28.09
389.06	37.45
389.25	63.19
389.45	14.04
389.64	65.54
389.84	25.75
390.03	44.47
390.22	0.00
390.42	37.45
390.61	0.00
390.81	86.60
391.00	0.00
391.19	0.00
391.39	39.79
391.58	25.75
391.78	0.00
391.97	32.77
392.16	0.00
392.36	9.36
392.55	35.11
392.75	0.00
392.94	0.00
393.13	11.70
393.33	0.00
393.52	65.54
393.71	60.85
393.91	23.41
394.10	77.24
394.29	0.00
394.49	32.77
394.68	49.15
394.88	49.15
395.07	35.11
395.26	23.41
395.46	0.00
395.65	4.68
395.84	56.17
396.04	63.19
396.23	0.00
396.42	0.00
396.62	25.75
396.81	16.38
397.00	37.45
397.19	0.00
397.39	2.34
397.58	14.04
397.77	21.06
397.97	0.00
398.16	65.54
398.35	74.90
398.55	46.81
398.74	2.34
398.93	0.00
399.12	49.15
399.32	0.00
399.51	32.77
399.70	37.45
399.90	67.88
400.09	18.72
400.28	28.09
400.47	9.36
400.67	32.77
400.86	70.22
401.05	46.81
401.24	72.56
401.44	0.00
401.63	4.68
401.82	11.70
402.01	67.88
402.21	102.98
402.40	0.00
402.59	7.02
402.78	60.85
402.97	32.77
403.17	7.02
403.36	46.81
403.55	0.00
403.74	39.79
403.93	44.47
404.13	56.17
404.32	42.13
404.51	0.00
404.70	0.00
404.89	44.47
405.09	0.00
405.28	18.72
405.47	7.02
405.66	0.00
405.85	46.81
406.05	25.75
406.24	39.79
406.43	70.22
406.62	32.77
406.81	51.49
407.00	14.04
407.20	0.00
407.39	67.88
407.58	42.13
407.77	58.51
407.96	56.17
408.15	44.47
408.34	0.00
408.54	11.70
408.73	60.85
408.92	0.00
409.11	105.32
409.30	46.81
409.49	70.22
409.68	28.09
409.87	39.79
410.07	74.90
410.26	46.81
410.45	14.04
410.64	25.75
410.83	9.36
411.02	28.09
411.21	4.68
411.40	0.00
411.59	4.68
411.78	0.00
411.98	46.81
412.17	9.36
412.36	9.36
412.55	0.00
412.74	23.41
412.93	46.81
413.12	58.51
413.31	81.92
413.50	32.77
413.69	14.04
413.88	133.41
414.07	32.77
414.26	32.77
414.45	37.45
414.64	21.06
414.83	63.19
415.02	42.13
415.22	77.24
415.41	18.72
415.60	67.88
415.79	49.15
415.98	105.32
416.17	25.75
416.36	25.75
416.55	77.24
416.74	2.34
416.93	18.72
417.12	60.85
417.31	0.00
417.50	0.00
417.69	58.51
417.88	21.06
418.07	16.38
418.26	88.94
418.45	30.43
418.64	0.00
418.83	58.51
419.02	0.00
419.21	0.00
419.39	0.00
419.58	0.00
419.77	49.15
419.96	58.51
420.15	81.92
420.34	37.45
420.53	0.00
420.72	0.00
420.91	16.38
421.10	0.00
421.29	0.00
421.48	37.45
421.67	28.09
421.86	100.64
422.05	2.34
422.24	37.45
422.43	46.81
422.61	49.15
422.80	9.36
422.99	7.02
423.18	0.00
423.37	91.28
423.56	0.00
423.75	35.11
423.94	30.43
424.13	0.00
424.32	0.00
424.50	0.00
424.69	70.22
424.88	0.00
425.07	30.43
425.26	2.34
425.45	0.00
425.64	42.13
425.83	35.11
426.01	14.04
426.20	18.72
426.39	49.15
426.58	42.13
426.77	0.00
426.96	81.92
427.15	63.19
427.33	32.77
427.52	4.68
427.71	30.43
427.90	98.30
428.09	77.24
428.28	18.72
428.46	42.13
428.65	44.47
428.84	88.94
429.03	42.13
429.22	0.00
429.40	0.00
429.59	39.79
429.78	30.43
429.97	16.38
430.16	7.02
430.34	9.36
430.53	0.00
430.72	42.13
430.91	4.68
431.10	0.00
431.28	0.00
431.47	18.72
431.66	28.09
431.85	53.83
432.03	46.81
432.22	0.00
432.41	23.41
432.60	0.00
432.79	49.15
432.97	28.09
433.16	37.45
433.35	0.00
433.54	32.77
433.72	67.88
433.91	23.41
434.10	0.00
434.28	11.70
434.47	0.00
434.66	0.00
434.85	114.69
435.03	51.49
435.22	37.45
435.41	0.00
435.59	0.00
435.78	30.43
435.97	0.00
436.16	42.13
436.34	42.13
436.53	60.85
436.72	25.75
436.90	49.15
437.09	30.43
437.28	175.54
437.46	0.00
437.65	16.38
437.84	21.06
438.02	65.54
438.21	2.34
438.40	65.54
438.58	53.83
438.77	25.75
438.96	51.49
439.14	30.43
439.33	11.70
439.52	23.41
439.70	0.00
439.89	32.77
440.08	70.22
440.26	25.75
440.45	0.00
440.63	0.00
440.82	14.04
441.01	0.00
441.19	32.77
441.38	16.38
441.57	46.81
441.75	18.72
441.94	23.41
442.12	18.72
442.31	51.49
442.50	46.81
442.68	70.22
442.87	11.70
443.05	53.83
443.24	0.00
443.43	84.26
443.61	0.00
443.80	63.19
443.98	51.49
444.17	44.47
444.35	74.90
444.54	42.13
444.73	2.34
444.91	28.09
445.10	60.85
445.28	2.34
445.47	46.81
445.65	18.72
445.84	63.19
446.02	49.15
446.21	0.00
446.39	0.00
446.58	79.58
446.77	93.62
446.95	77.24
447.14	30.43
447.32	49.15
447.51	35.11
447.69	28.09
447.88	21.06
448.06	7.02
448.25	72.56
448.43	0.00
448.62	77.24
448.80	49.15
448.99	32.77
449.17	28.09
449.36	39.79
449.54	32.77
449.73	42.13
449.91	39.79
450.10	0.00
450.28	42.13
450.46	95.96
450.65	88.94
450.83	30.43
451.02	0.00
451.20	58.51
451.39	0.00
451.57	0.00
451.76	39.79
451.94	0.00
452.13	53.83
452.31	0.00
452.49	14.04
452.68	21.06
452.86	16.38
453.05	105.32
453.23	60.85
453.42	53.83
453.60	44.47
453.78	37.45
453.97	23.41
454.15	81.92
454.34	42.13
454.52	93.62
454.70	11.70
454.89	72.56
455.07	18.72
455.26	0.00
455.44	21.06
455.62	95.96
455.81	67.88
455.99	14.04
456.17	0.00
456.36	9.36
456.54	0.00
456.73	30.43
456.91	44.47
457.09	11.70
457.28	23.41
457.46	0.00
457.64	67.88
457.83	49.15
458.01	74.90
458.19	46.81
458.38	49.15
458.56	16.38
458.74	105.32
458.93	25.75
459.11	37.45
459.29	30.43
459.48	42.13
459.66	53.83
459.84	0.00
460.03	18.72
460.21	0.00
460.39	37.45
460.57	0.00
460.76	0.00
460.94	28.09
461.12	53.83
461.31	74.90
461.49	16.38
461.67	126.39
461.85	0.00
462.04	9.36
462.22	72.56
462.40	21.06
462.59	67.88
462.77	35.11
462.95	88.94
463.13	0.00
463.32	63.19
463.50	42.13
463.68	2.34
463.86	67.88
464.05	0.00
464.23	51.49
464.41	0.00
464.59	14.04
464.78	49.15
464.96	42.13
465.14	7.02
465.32	49.15
465.50	25.75
465.69	74.90
465.87	0.00
466.05	49.15
466.23	0.00
466.41	56.17
466.60	77.24
466.78	18.72
466.96	74.90
467.14	0.00
467.32	4.68
467.51	25.75
467.69	39.79
467.87	25.75
468.05	30.43
468.23	21.06
468.41	25.75
468.60	0.00
468.78	0.00
468.96	0.00
469.14	0.00
469.32	14.04
469.50	58.51
469.69	4.68
469.87	0.00
470.05	58.51
470.23	39.79
470.41	44.47
470.59	0.00
470.77	0.00
470.95	79.58
471.14	65.54
471.32	37.45
471.50	0.00
471.68	53.83
471.86	42.13
472.04	0.00
472.22	51.49
472.40	79.58
472.58	53.83
472.77	28.09
472.95	100.64
473.13	102.98
473.31	21.06
473.49	0.00
473.67	67.88
473.85	0.00
474.03	37.45
474.21	0.00
474.39	81.92
474.57	11.70
474.75	46.81
474.93	63.19
475.12	37.45
475.30	30.43
475.48	110.01
475.66	65.54
475.84	0.00
476.02	0.00
476.20	0.00
476.38	4.68
476.56	46.81
476.74	9.36
476.92	14.04
477.10	21.06
477.28	37.45
477.46	39.79
477.64	39.79
477.82	30.43
478.00	14.04
478.18	0.00
478.36	44.47
478.54	42.13
478.72	42.13
478.90	0.00
479.08	0.00
479.26	81.92
479.44	0.00
479.62	9.36
479.80	14.04
479.98	98.30
480.16	49.15
480.34	28.09
480.52	9.36
480.70	14.04
480.88	0.00
481.06	25.75
481.24	9.36
481.41	86.60
481.59	51.49
481.77	53.83
481.95	53.83
482.13	81.92
482.31	9.36
482.49	39.79
482.67	70.22
482.85	63.19
483.03	21.06
483.21	21.06
483.39	131.07
483.57	18.72
483.74	67.88
483.92	100.64
484.10	0.00
484.28	56.17
484.46	11.70
484.64	42.13
484.82	63.19
485.00	0.00
485.18	93.62
485.35	51.49
485.53	0.00
485.71	100.64
485.89	63.19
486.07	28.09
486.25	119.37
486.43	53.83
486.61	0.00
486.78	63.19
486.96	42.13
487.14	16.38
487.32	30.43
487.50	142.77
487.68	86.60
487.85	0.00
488.03	0.00
488.21	0.00
488.39	32.77
488.57	0.00
488.75	23.41
488.92	79.58
489.10	51.49
489.28	84.26
489.46	32.77
489.64	30.43
489.81	35.11
489.99	0.00
490.17	2.34
490.35	25.75
490.53	0.00
490.70	44.47
490.88	0.00
491.06	77.24
491.24	4.68
491.41	4.68
491.59	46.81
491.77	0.00
491.95	46.81
492.13	0.00
492.30	51.49
492.48	56.17
492.66	21.06
492.84	9.36
493.01	0.00
493.19	51.49
493.37	63.19
493.54	56.17
493.72	93.62
493.90	91.28
494.08	86.60
494.25	0.00
494.43	70.22
494.61	56.17
494.79	72.56
494.96	0.00
495.14	70.22
495.32	100.64
495.49	30.43
495.67	16.38
495.85	58.51
496.02	44.47
496.20	53.83
496.38	0.00
496.55	11.70
496.73	9.36
496.91	30.43
497.09	93.62
497.26	49.15
497.44	0.00
497.62	35.11
497.79	77.24
497.97	72.56
498.14	37.45
498.32	49.15
498.50	2.34
498.67	18.72
498.85	67.88
499.03	35.11
499.20	60.85
499.38	35.11
499.56	81.92
499.73	98.30
499.91	25.75
500.08	63.19
500.26	84.26
500.44	44.47
500.61	46.81
500.79	49.15
500.97	23.41
501.14	35.11
501.32	0.00
501.49	135.75
501.67	63.19
501.84	28.09
502.02	23.41
502.20	58.51
502.37	84.26
502.55	0.00
502.72	42.13
502.90	37.45
503.07	0.00
503.25	63.19
503.43	42.13
503.60	39.79
503.78	4.68
503.95	16.38
504.13	154.48
504.30	112.35
504.48	98.30
504.65	46.81
504.83	79.58
505.01	37.45
505.18	91.28
505.36	93.62
505.53	72.56
505.71	0.00
505.88	35.11
506.06	25.75
506.23	37.45
506.41	93.62
506.58	84.26
506.76	121.71
506.93	63.19
507.11	23.41
507.28	63.19
507.46	72.56
507.63	84.26
507.81	32.77
507.98	107.66
508.16	56.17
508.33	37.45
508.50	23.41
508.68	0.00
508.85	65.54
509.03	81.92
509.20	84.26
509.38	74.90
509.55	70.22
509.73	11.70
509.90	35.11
510.08	35.11
510.25	72.56
510.42	39.79
510.60	25.75
510.77	100.64
510.95	0.00
511.12	44.47
511.30	117.03
511.47	42.13
511.64	0.00
511.82	0.00
511.99	0.00
512.17	0.00
512.34	70.22
512.51	58.51
512.69	49.15
512.86	23.41
513.04	16.38
513.21	44.47
513.38	0.00
513.56	72.56
513.73	72.56
513.90	14.04
514.08	32.77
514.25	56.17
514.43	51.49
514.60	74.90
514.77	65.54
514.95	44.47
515.12	53.83
515.29	88.94
515.47	35.11
515.64	58.51
515.81	91.28
515.99	39.79
516.16	23.41
516.33	30.43
516.51	79.58
516.68	58.51
516.85	46.81
517.03	67.88
517.20	39.79
517.37	0.00
517.54	74.90
517.72	2.34
517.89	72.56
518.06	70.22
518.24	0.00
518.41	35.11
518.58	102.98
518.75	86.60
518.93	49.15
519.10	2.34
519.27	23.41
519.45	37.45
519.62	9.36
519.79	30.43
519.96	30.43
520.14	0.00
520.31	72.56
520.48	70.22
520.65	56.17
520.83	37.45
521.00	51.49
521.17	46.81
521.34	77.24
521.52	117.03
521.69	9.36
521.86	0.00
522.03	56.17
522.20	23.41
522.38	39.79
522.55	81.92
522.72	0.00
522.89	32.77
523.07	7.02
523.24	11.70
523.41	32.77
523.58	58.51
523.75	14.04
523.92	2.34
524.10	74.90
524.27	70.22
524.44	49.15
524.61	65.54
524.78	58.51
524.96	14.04
525.13	0.00
525.30	51.49
525.47	79.58
525.64	51.49
525.81	44.47
525.98	128.73
526.16	0.00
526.33	58.51
526.50	28.09
526.67	58.51
526.84	0.00
527.01	60.85
527.18	16.38
527.36	81.92
527.53	65.54
527.70	9.36
527.87	7.02
528.04	0.00
528.21	0.00
528.38	112.35
528.55	56.17
528.72	0.00
528.89	100.64
529.07	58.51
529.24	51.49
529.41	49.15
529.58	37.45
529.75	25.75
529.92	63.19
530.09	65.54
530.26	58.51
530.43	16.38
530.60	88.94
530.77	95.96
530.94	72.56
531.11	7.02
531.28	42.13
531.46	11.70
531.63	4.68
531.80	2.34
531.97	2.34
532.14	0.00
532.31	70.22
532.48	67.88
532.65	149.79
532.82	128.73
532.99	32.77
533.16	37.45
533.33	23.41
533.50	0.00
533.67	67.88
533.84	67.88
534.01	18.72
534.18	58.51
534.35	119.37
534.52	16.38
534.69	79.58
534.86	4.68
535.03	0.00
535.20	53.83
535.37	42.13
535.54	121.71
535.71	30.43
535.88	51.49
536.05	46.81
536.22	107.66
536.38	77.24
536.55	60.85
536.72	25.75
536.89	79.58
537.06	16.38
537.23	25.75
537.40	11.70
537.57	14.04
537.74	30.43
537.91	86.60
538.08	0.00
538.25	28.09
538.42	0.00
538.59	81.92
538.75	28.09
538.92	58.51
539.09	110.01
539.26	37.45
539.43	93.62
539.60	126.39
539.77	198.95
539.94	126.39
540.11	72.56
540.28	37.45
540.44	25.75
540.61	105.32
540.78	0.00
540.95	0.00
541.12	14.04
541.29	60.85
541.46	37.45
541.62	28.09
541.79	77.24
541.96	53.83
542.13	58.51
542.30	0.00
542.47	25.75
542.63	35.11
542.80	39.79
542.97	7.02
543.14	16.38
543.31	88.94
543.48	74.90
543.64	81.92
543.81	46.81
543.98	0.00
544.15	16.38
544.32	35.11
544.48	0.00
544.65	0.00
544.82	63.19
544.99	77.24
545.16	131.07
545.32	110.01
545.49	60.85
545.66	60.85
545.83	18.72
546.00	58.51
546.16	39.79
546.33	18.72
546.50	70.22
546.67	28.09
546.83	25.75
547.00	91.28
547.17	0.00
547.34	0.00
547.50	110.01
547.67	46.81
547.84	49.15
548.00	14.04
548.17	49.15
548.34	72.56
548.51	100.64
548.67	35.11
548.84	18.72
549.01	32.77
549.18	65.54
549.34	39.79
549.51	102.98
549.68	0.00
549.84	16.38
550.01	16.38
550.18	46.81
550.34	0.00
550.51	37.45
550.68	135.75
550.84	7.02
551.01	44.47
551.18	28.09
551.34	105.32
551.51	35.11
551.68	0.00
551.84	72.56
552.01	18.72
552.18	86.60
552.34	21.06
552.51	51.49
552.68	91.28
552.84	74.90
553.01	0.00
553.18	53.83
553.34	42.13
553.51	53.83
553.67	42.13
553.84	79.58
554.01	44.47
554.17	74.90
554.34	77.24
554.51	58.51
554.67	49.15
554.84	56.17
555.00	49.15
555.17	28.09
555.33	21.06
555.50	81.92
555.67	53.83
555.83	72.56
556.00	51.49
556.16	21.06
556.33	28.09
556.50	51.49
556.66	0.00
556.83	0.00
556.99	35.11
557.16	39.79
557.32	72.56
557.49	65.54
557.65	65.54
557.82	53.83
557.98	42.13
558.15	23.41
558.32	102.98
558.48	72.56
558.65	2.34
558.81	16.38
558.98	0.00
559.14	51.49
559.31	25.75
559.47	39.79
559.64	0.00
559.80	0.00
559.97	86.60
560.13	0.00
560.30	42.13
560.46	42.13
560.63	74.90
560.79	70.22
560.96	0.00
561.12	0.00
561.29	9.36
561.45	32.77
561.61	21.06
561.78	9.36
561.94	105.32
562.11	65.54
562.27	7.02
562.44	46.81
562.60	30.43
562.77	70.22
562.93	72.56
563.10	72.56
563.26	37.45
563.42	56.17
563.59	105.32
563.75	65.54
563.92	53.83
564.08	30.43
564.24	25.75
564.41	37.45
564.57	100.64
564.74	30.43
564.90	0.00
565.07	25.75
565.23	0.00
565.39	44.47
565.56	37.45
565.72	9.36
565.88	32.77
566.05	28.09
566.21	77.24
566.38	30.43
566.54	18.72
566.70	21.06
566.87	0.00
567.03	121.71
567.19	28.09
567.36	65.54
567.52	9.36
567.68	11.70
567.85	86.60
568.01	67.88
568.17	72.56
568.34	110.01
568.50	32.77
568.66	77.24
568.83	28.09
568.99	72.56
569.15	79.58
569.32	42.13
569.48	0.00
569.64	35.11
569.81	81.92
569.97	72.56
570.13	44.47
570.30	0.00
570.46	37.45
570.62	0.00
570.78	51.49
570.95	42.13
571.11	0.00
571.27	112.35
571.43	102.98
571.60	0.00
571.76	46.81
571.92	56.17
572.09	7.02
572.25	79.58
572.41	37.45
572.57	46.81
572.74	0.00
572.90	16.38
573.06	42.13
573.22	0.00
573.38	117.03
573.55	93.62
573.71	7.02
573.87	23.41
574.03	35.11
574.20	0.00
574.36	16.38
574.52	0.00
574.68	79.58
574.84	77.24
575.01	95.96
575.17	23.41
575.33	7.02
575.49	7.02
575.65	0.00
575.82	21.06
575.98	84.26
576.14	128.73
576.30	51.49
576.46	98.30
576.62	86.60
576.79	28.09
576.95	30.43
577.11	67.88
577.27	51.49
577.43	9.36
577.59	114.69
577.75	28.09
577.92	0.00
578.08	18.72
578.24	49.15
578.40	65.54
578.56	35.11
578.72	25.75
578.88	23.41
579.04	49.15
579.21	91.28
579.37	7.02
579.53	37.45
579.69	14.04
579.85	0.00
580.01	74.90
580.17	53.83
580.33	53.83
580.49	98.30
580.65	2.34
580.82	53.83
580.98	63.19
581.14	102.98
581.30	9.36
581.46	88.94
581.62	102.98
581.78	140.43
581.94	65.54
582.10	84.26
582.26	128.73
582.42	84.26
582.58	51.49
582.74	0.00
582.90	21.06
583.06	60.85
583.22	18.72
583.38	21.06
583.54	112.35
583.70	49.15
583.86	35.11
584.02	44.47
584.18	110.01
584.34	105.32
584.50	269.16
584.66	2043.29
584.82	5444.09
584.98	7974.21
585.14	7218.21
585.30	4540.64
585.46	2827.37
585.62	1643.06
585.78	830.89
585.94	388.53
586.10	110.01
586.26	88.94
586.42	81.92
586.58	145.11
586.74	102.98
586.90	159.16
587.06	37.45
587.22	119.37
587.38	21.06
587.54	86.60
587.70	351.08
587.86	538.32
588.02	704.50
588.18	437.68
588.34	318.31
588.49	243.42
588.65	112.35
588.81	163.84
588.97	11.70
589.13	0.00
589.29	53.83
589.45	4.68
589.61	58.51
589.77	2.34
589.93	86.60
590.08	124.05
590.24	67.88
590.40	124.05
590.56	79.58
590.72	58.51
590.88	114.69
591.04	88.94
591.20	39.79
591.35	42.13
591.51	51.49
591.67	93.62
591.83	44.47
591.99	112.35
592.15	37.45
592.31	51.49
592.46	65.54
592.62	51.49
592.78	46.81
592.94	18.72
593.10	53.83
593.26	46.81
593.41	23.41
593.57	86.60
593.73	79.58
593.89	252.78
594.05	699.82
594.20	973.66
594.36	1022.81
594.52	732.59
594.68	404.91
594.84	332.36
594.99	222.35
595.15	60.85
595.31	56.17
595.47	23.41
595.62	58.51
595.78	46.81
595.94	32.77
596.10	74.90
596.25	49.15
596.41	126.39
596.57	60.85
596.73	88.94
596.88	65.54
597.04	95.96
597.20	266.82
597.36	231.71
597.51	259.80
597.67	191.92
597.83	88.94
597.99	56.17
598.14	0.00
598.30	39.79
598.46	0.00
598.61	81.92
598.77	84.26
598.93	14.04
599.09	42.13
599.24	74.90
599.40	84.26
599.56	63.19
599.71	121.71
599.87	0.00
600.03	30.43
600.18	72.56
600.34	18.72
600.50	14.04
600.65	0.00
600.81	0.00
600.97	60.85
601.12	65.54
601.28	46.81
601.44	77.24
601.59	81.92
601.75	21.06
601.91	4.68
602.06	173.20
602.22	79.58
602.37	107.66
602.53	205.97
602.69	262.14
602.84	355.76
603.00	187.24
603.16	156.82
603.31	112.35
603.47	107.66
603.62	138.09
603.78	88.94
603.94	37.45
604.09	16.38
604.25	0.00
604.40	32.77
604.56	51.49
604.71	39.79
604.87	16.38
605.03	39.79
605.18	14.04
605.34	2.34
605.49	67.88
605.65	98.30
605.80	0.00
605.96	9.36
606.12	102.98
606.27	51.49
606.43	14.04
606.58	105.32
606.74	110.01
606.89	416.62
607.05	650.67
607.20	858.98
607.36	676.41
607.51	498.53
607.67	330.02
607.82	238.73
607.98	166.18
608.13	98.30
608.29	56.17
608.44	159.16
608.60	100.64
608.75	53.83
608.91	177.88
609.06	566.41
609.22	1210.06
609.37	1575.18
609.53	1284.95
609.68	887.06
609.84	545.34
609.99	444.70
610.15	241.08
610.30	175.54
610.46	72.56
610.61	67.88
610.76	46.81
610.92	124.05
611.07	9.36
611.23	9.36
611.38	0.00
611.54	35.11
611.69	28.09
611.84	58.51
612.00	44.47
612.15	56.17
612.31	0.00
612.46	30.43
612.62	102.98
612.77	14.04
612.92	70.22
613.08	91.28
613.23	63.19
613.39	72.56
613.54	60.85
613.69	461.09
613.85	1385.60
614.00	2265.64
614.15	2375.64
614.31	1741.36
614.46	1025.15
614.62	734.93
614.77	409.59
614.92	276.18
615.08	81.92
615.23	25.75
615.38	25.75
615.54	56.17
615.69	102.98
615.84	245.76
616.00	517.26
616.15	636.63
616.30	458.74
616.46	355.76
616.61	264.48
616.76	163.84
616.92	142.77
617.07	0.00
617.22	42.13
617.37	77.24
617.53	0.00
617.68	4.68
617.83	56.17
617.99	56.17
618.14	42.13
618.29	16.38
618.45	93.62
618.60	42.13
618.75	28.09
618.90	53.83
619.06	4.68
619.21	49.15
619.36	0.00
619.51	86.60
619.67	102.98
619.82	77.24
619.97	39.79
620.12	72.56
620.28	18.72
620.43	32.77
620.58	7.02
620.73	21.06
620.89	91.28
621.04	30.43
621.19	210.65
621.34	278.52
621.49	458.74
621.65	395.55
621.80	245.76
621.95	184.90
622.10	93.62
622.25	95.96
622.41	100.64
622.56	23.41
622.71	0.00
622.86	42.13
623.01	81.92
623.16	72.56
623.32	32.77
623.47	28.09
623.62	32.77
623.77	46.81
623.92	0.00
624.07	37.45
624.23	128.73
624.38	0.00
624.53	51.49
624.68	93.62
624.83	65.54
624.98	28.09
625.13	7.02
625.29	86.60
625.44	49.15
625.59	65.54
625.74	65.54
625.89	9.36
626.04	318.31
626.19	669.39
626.34	1130.48
626.49	1210.06
626.65	882.38
626.80	650.67
626.95	472.79
627.10	294.91
627.25	191.92
627.40	84.26
627.55	32.77
627.70	0.00
627.85	23.41
628.00	30.43
628.15	93.62
628.30	0.00
628.45	14.04
628.60	46.81
628.76	37.45
628.91	39.79
629.06	4.68
629.21	14.04
629.36	67.88
629.51	65.54
629.66	56.17
629.81	74.90
629.96	147.45
630.11	273.84
630.26	374.49
630.41	290.23
630.56	236.39
630.71	128.73
630.86	177.88
631.01	74.90
631.16	44.47
631.31	77.24
631.46	65.54
631.61	0.00
631.76	91.28
631.91	0.00
632.06	46.81
632.21	14.04
632.36	51.49
632.51	0.00
632.66	21.06
632.81	177.88
632.96	442.36
633.10	704.50
633.25	868.34
633.40	688.12
633.55	498.53
633.70	325.33
633.85	383.85
634.00	168.52
634.15	110.01
634.30	56.17
634.45	28.09
634.60	79.58
634.75	65.54
634.90	9.36
635.05	58.51
635.19	21.06
635.34	37.45
635.49	39.79
635.64	39.79
635.79	14.04
635.94	135.75
636.09	51.49
636.24	46.81
636.39	114.69
636.53	49.15
636.68	0.00
636.83	49.15
636.98	0.00
637.13	58.51
637.28	37.45
637.43	37.45
637.57	126.39
637.72	416.62
637.87	915.15
638.02	1416.02
638.17	1603.27
638.32	1203.04
638.46	915.15
638.61	629.60
638.76	393.21
638.91	154.48
639.06	95.96
639.20	65.54
639.35	95.96
639.50	145.11
639.65	545.34
639.80	1385.60
639.94	2232.87
640.09	2450.54
640.24	1900.52
640.39	1240.48
640.54	816.85
640.68	538.32
640.83	205.97
640.98	154.48
641.13	112.35
641.27	67.88
641.42	70.22
641.57	88.94
641.72	16.38
641.86	63.19
642.01	0.00
642.16	102.98
642.31	18.72
642.45	18.72
642.60	77.24
642.75	0.00
642.90	39.79
643.04	0.00
643.19	63.19
643.34	21.06
643.48	9.36
643.63	35.11
643.78	35.11
643.93	0.00
644.07	4.68
644.22	67.88
644.37	0.00
644.51	0.00
644.66	37.45
644.81	91.28
644.95	14.04
645.10	44.47
645.25	58.51
645.39	37.45
645.54	77.24
645.69	65.54
645.83	18.72
645.98	95.96
646.13	91.28
646.27	53.83
646.42	42.13
646.57	84.26
646.71	14.04
646.86	2.34
647.00	46.81
647.15	16.38
647.30	25.75
647.44	0.00
647.59	51.49
647.74	46.81
647.88	7.02
648.03	70.22
648.17	56.17
648.32	30.43
648.47	21.06
648.61	32.77
648.76	0.00
648.90	53.83
649.05	56.17
649.20	65.54
649.34	44.47
649.49	58.51
649.63	56.17
649.78	72.56
649.92	79.58
650.07	344.06
650.21	608.54
650.36	1004.09
650.51	1238.14
650.65	1050.90
650.80	840.25
650.94	463.43
651.09	318.31
651.23	196.60
651.38	93.62
651.52	14.04
651.67	25.75
651.81	67.88
651.96	49.15
652.10	124.05
652.25	0.00
652.39	84.26
652.54	0.00
652.68	84.26
652.83	255.12
652.97	379.17
653.12	362.78
653.26	358.10
653.41	266.82
653.55	257.46
653.70	187.24
653.84	79.58
653.99	95.96
654.13	79.58
654.27	0.00
654.42	51.49
654.56	37.45
654.71	30.43
654.85	39.79
655.00	4.68
655.14	0.00
655.29	124.05
655.43	0.00
655.57	39.79
655.72	7.02
655.86	56.17
656.01	46.81
656.15	37.45
656.30	2.34
656.44	56.17
656.58	0.00
656.73	0.00
656.87	44.47
657.01	30.43
657.16	112.35
657.30	51.49
657.45	56.17
657.59	60.85
657.73	42.13
657.88	28.09
658.02	0.00
658.16	0.00
658.31	0.00
658.45	0.00
658.60	23.41
658.74	23.41
658.88	39.79
659.03	21.06
659.17	4.68
659.31	119.37
659.46	245.76
659.60	498.53
659.74	685.78
659.89	613.22
660.03	425.98
660.17	271.50
660.32	149.79
660.46	126.39
660.60	16.38
660.74	49.15
660.89	81.92
661.03	44.47
661.17	58.51
661.32	46.81
661.46	39.79
661.60	114.69
661.74	86.60
661.89	51.49
662.03	14.04
662.17	37.45
662.31	23.41
662.46	35.11
662.60	23.41
662.74	18.72
662.88	0.00
663.03	100.64
663.17	16.38
663.31	9.36
663.45	35.11
663.60	0.00
663.74	0.00
663.88	0.00
664.02	0.00
664.17	79.58
664.31	49.15
664.45	44.47
664.59	126.39
664.73	25.75
664.88	58.51
665.02	53.83
665.16	18.72
665.30	9.36
665.44	30.43
665.59	46.81
665.73	0.00
665.87	28.09
666.01	67.88
666.15	32.77
666.29	39.79
666.44	14.04
666.58	63.19
666.72	46.81
666.86	44.47
667.00	16.38
667.14	58.51
667.28	170.86
667.43	510.24
667.57	919.83
667.71	1100.05
667.85	992.39
667.99	746.63
668.13	440.02
668.27	332.36
668.41	173.20
668.56	112.35
668.70	117.03
668.84	11.70
668.98	60.85
669.12	39.79
669.26	37.45
669.40	0.00
669.54	58.51
669.68	0.00
669.82	23.41
669.96	35.11
670.10	44.47
670.25	44.47
670.39	42.13
670.53	51.49
670.67	63.19
670.81	4.68
670.95	107.66
671.09	70.22
671.23	287.89
671.37	538.32
671.51	667.05
671.65	648.33
671.79	578.11
671.93	458.74
672.07	273.84
672.21	177.88
672.35	98.30
672.49	32.77
672.63	114.69
672.77	70.22
672.91	49.15
673.05	67.88
673.19	28.09
673.33	7.02
673.47	56.17
673.61	77.24
673.75	70.22
673.89	70.22
674.03	11.70
674.17	0.00
674.31	102.98
674.45	81.92
674.59	74.90
674.73	65.54
674.87	32.77
675.01	0.00
675.15	14.04
675.29	79.58
675.43	51.49
675.56	37.45
675.70	0.00
675.84	58.51
675.98	0.00
676.12	77.24
676.26	16.38
676.40	0.00
676.54	7.02
676.68	11.70
676.82	58.51
676.96	84.26
677.10	53.83
677.23	0.00
677.37	91.28
677.51	28.09
677.65	84.26
677.79	32.77
677.93	67.88
678.07	18.72
678.21	79.58
678.34	86.60
678.48	53.83
678.62	46.81
678.76	37.45
678.90	95.96
679.04	105.32
679.18	65.54
679.31	0.00
679.45	4.68
679.59	49.15
679.73	63.19
679.87	23.41
680.00	70.22
680.14	0.00
680.28	18.72
680.42	0.00
680.56	51.49
680.70	14.04
680.83	18.72
680.97	0.00
681.11	72.56
681.25	0.00
681.39	21.06
681.52	25.75
681.66	23.41
681.80	4.68
681.94	30.43
682.07	0.00
682.21	70.22
682.35	51.49
682.49	63.19
682.62	39.79
682.76	49.15
682.90	42.13
683.04	37.45
683.17	30.43
683.31	44.47
683.45	70.22
683.59	46.81
683.72	21.06
683.86	35.11
684.00	56.17
684.13	0.00
684.27	28.09
684.41	0.00
684.55	0.00
684.68	28.09
684.82	53.83
684.96	18.72
685.09	28.09
685.23	2.34
685.37	65.54
685.50	44.47
685.64	9.36
685.78	0.00
685.91	9.36
686.05	74.90
686.19	37.45
686.32	28.09
686.46	53.83
686.60	67.88
686.73	102.98
686.87	16.38
687.01	95.96
687.14	21.06
687.28	91.28
687.42	0.00
687.55	28.09
687.69	49.15
687.82	18.72
687.96	4.68
688.10	11.70
688.23	7.02
688.37	72.56
688.50	0.00
688.64	51.49
688.78	0.00
688.91	74.90
689.05	4.68
689.18	65.54
689.32	32.77
689.46	53.83
689.59	72.56
689.73	74.90
689.86	25.75
690.00	21.06
690.13	7.02
690.27	0.00
690.41	126.39
690.54	0.00
690.68	0.00
690.81	16.38
690.95	32.77
691.08	0.00
691.22	0.00
691.35	67.88
691.49	9.36
691.62	49.15
691.76	28.09
691.89	39.79
692.03	46.81
692.16	0.00
692.30	100.64
692.43	98.30
692.57	262.14
692.70	351.08
692.84	496.19
692.97	400.23
693.11	334.70
693.24	259.80
693.38	177.88
693.51	105.32
693.65	98.30
693.78	93.62
693.92	138.09
694.05	21.06
694.19	67.88
694.32	4.68
694.45	60.85
694.59	46.81
694.72	63.19
694.86	46.81
694.99	4.68
695.13	2.34
695.26	23.41
695.39	0.00
695.53	46.81
695.66	0.00
695.80	67.88
695.93	25.75
696.07	56.17
696.20	44.47
696.33	37.45
696.47	105.32
696.60	51.49
696.73	46.81
696.87	58.51
697.00	18.72
697.14	14.04
697.27	60.85
697.40	30.43
697.54	53.83
697.67	44.47
697.80	44.47
697.94	0.00
698.07	63.19
698.21	37.45
698.34	67.88
698.47	14.04
698.61	32.77
698.74	44.47
698.87	60.85
699.01	18.72
699.14	63.19
699.27	7.02
699.40	42.13
699.54	0.00
699.67	0.00
699.80	32.77
699.94	0.00
700.07	53.83
700.20	30.43
700.34	16.38
700.47	0.00
700.60	0.00
700.73	77.24
700.87	0.00
701.00	4.68
701.13	14.04
701.26	0.00
701.40	58.51
701.53	14.04
701.66	25.75
701.79	56.17
701.93	74.90
702.06	63.19
702.19	72.56
702.32	110.01
702.46	126.39
702.59	91.28
702.72	180.22
702.85	285.55
702.99	589.82
703.12	823.87
703.25	922.17
703.38	837.91
703.51	669.39
703.65	564.07
703.78	374.49
703.91	217.67
704.04	175.54
704.17	79.58
704.31	159.16
704.44	77.24
704.57	98.30
704.70	88.94
704.83	70.22
704.96	2.34
705.10	77.24
705.23	18.72
>>>>>End Processed Spectral Data<<<<<
