SpectraSuite Data File
++++++++++++++++++++++++++++++++++++
Date: Fri Oct 04 12:13:36 GMT-05:00 2013
User: price-jones
Dark Spectrum Present: No
Reference Spectrum Present: No
Number of Sampled Component Spectra: 1
Spectrometers: USB2+H05261
Integration Time (usec): 10000 (USB2+H05261)
Spectra Averaged: 1 (USB2+H05261)
Boxcar Smoothing: 0 (USB2+H05261)
Correct for Electrical Dark: No (USB2+H05261)
Strobe/Lamp Enabled: No (USB2+H05261)
Correct for Detector Non-linearity: No (USB2+H05261)
Correct for Stray Light: No (USB2+H05261)
Number of Pixels in Processed Spectrum: 2048
>>>>>Begin Processed Spectral Data<<<<<
365.73	7.02
365.92	7.02
366.12	7.02
366.32	0.00
366.52	0.00
366.72	0.00
366.91	0.00
367.11	0.00
367.31	0.00
367.51	0.00
367.70	0.00
367.90	0.00
368.10	0.00
368.30	0.00
368.49	0.00
368.69	0.00
368.89	0.00
369.09	0.00
369.28	0.00
369.48	0.00
369.68	0.00
369.87	0.00
370.07	0.00
370.27	0.00
370.47	0.00
370.66	0.00
370.86	0.00
371.06	0.00
371.25	0.00
371.45	0.00
371.65	25.75
371.84	0.00
372.04	0.00
372.24	7.02
372.44	0.00
372.63	0.00
372.83	44.47
373.03	0.00
373.22	0.00
373.42	0.00
373.62	84.26
373.81	0.00
374.01	0.00
374.21	0.00
374.40	58.51
374.60	0.00
374.79	0.00
374.99	32.77
375.19	56.17
375.38	35.11
375.58	84.26
375.78	0.00
375.97	0.00
376.17	67.88
376.37	0.00
376.56	105.32
376.76	35.11
376.95	16.38
377.15	44.47
377.35	37.45
377.54	16.38
377.74	37.45
377.93	4.68
378.13	16.38
378.33	35.11
378.52	46.81
378.72	51.49
378.91	39.79
379.11	0.00
379.31	42.13
379.50	25.75
379.70	0.00
379.89	0.00
380.09	4.68
380.28	0.00
380.48	2.34
380.68	23.41
380.87	23.41
381.07	7.02
381.26	79.58
381.46	0.00
381.65	0.00
381.85	37.45
382.04	18.72
382.24	14.04
382.43	74.90
382.63	28.09
382.83	0.00
383.02	21.06
383.22	0.00
383.41	9.36
383.61	7.02
383.80	30.43
384.00	42.13
384.19	0.00
384.39	18.72
384.58	0.00
384.78	46.81
384.97	9.36
385.17	16.38
385.36	7.02
385.56	58.51
385.75	18.72
385.95	0.00
386.14	0.00
386.34	0.00
386.53	9.36
386.72	46.81
386.92	49.15
387.11	44.47
387.31	32.77
387.50	4.68
387.70	0.00
387.89	0.00
388.09	0.00
388.28	0.00
388.48	0.00
388.67	63.19
388.86	0.00
389.06	7.02
389.25	51.49
389.45	0.00
389.64	74.90
389.84	0.00
390.03	0.00
390.22	14.04
390.42	9.36
390.61	7.02
390.81	133.41
391.00	9.36
391.19	51.49
391.39	25.75
391.58	37.45
391.78	0.00
391.97	4.68
392.16	0.00
392.36	0.00
392.55	28.09
392.75	39.79
392.94	25.75
393.13	0.00
393.33	0.00
393.52	0.00
393.71	9.36
393.91	9.36
394.10	0.00
394.29	25.75
394.49	60.85
394.68	21.06
394.88	21.06
395.07	37.45
395.26	79.58
395.46	42.13
395.65	56.17
395.84	72.56
396.04	4.68
396.23	0.00
396.42	11.70
396.62	2.34
396.81	58.51
397.00	0.00
397.19	0.00
397.39	32.77
397.58	0.00
397.77	21.06
397.97	0.00
398.16	35.11
398.35	95.96
398.55	44.47
398.74	0.00
398.93	32.77
399.12	53.83
399.32	72.56
399.51	58.51
399.70	0.00
399.90	42.13
400.09	107.66
400.28	32.77
400.47	0.00
400.67	0.00
400.86	0.00
401.05	0.00
401.24	2.34
401.44	58.51
401.63	14.04
401.82	67.88
402.01	23.41
402.21	0.00
402.40	9.36
402.59	42.13
402.78	42.13
402.97	93.62
403.17	9.36
403.36	77.24
403.55	0.00
403.74	86.60
403.93	25.75
404.13	98.30
404.32	0.00
404.51	0.00
404.70	56.17
404.89	81.92
405.09	0.00
405.28	14.04
405.47	21.06
405.66	4.68
405.85	4.68
406.05	37.45
406.24	81.92
406.43	37.45
406.62	0.00
406.81	72.56
407.00	0.00
407.20	51.49
407.39	56.17
407.58	23.41
407.77	0.00
407.96	42.13
408.15	0.00
408.34	42.13
408.54	131.07
408.73	30.43
408.92	67.88
409.11	79.58
409.30	49.15
409.49	21.06
409.68	65.54
409.87	65.54
410.07	42.13
410.26	35.11
410.45	51.49
410.64	4.68
410.83	11.70
411.02	37.45
411.21	74.90
411.40	51.49
411.59	25.75
411.78	60.85
411.98	93.62
412.17	16.38
412.36	93.62
412.55	7.02
412.74	0.00
412.93	79.58
413.12	35.11
413.31	0.00
413.50	77.24
413.69	51.49
413.88	119.37
414.07	23.41
414.26	42.13
414.45	37.45
414.64	51.49
414.83	81.92
415.02	11.70
415.22	0.00
415.41	58.51
415.60	46.81
415.79	16.38
415.98	0.00
416.17	35.11
416.36	28.09
416.55	49.15
416.74	42.13
416.93	0.00
417.12	63.19
417.31	0.00
417.50	70.22
417.69	0.00
417.88	35.11
418.07	58.51
418.26	44.47
418.45	0.00
418.64	65.54
418.83	60.85
419.02	37.45
419.21	72.56
419.39	98.30
419.58	0.00
419.77	25.75
419.96	21.06
420.15	9.36
420.34	72.56
420.53	14.04
420.72	81.92
420.91	84.26
421.10	107.66
421.29	63.19
421.48	88.94
421.67	79.58
421.86	37.45
422.05	28.09
422.24	39.79
422.43	23.41
422.61	0.00
422.80	49.15
422.99	81.92
423.18	70.22
423.37	7.02
423.56	44.47
423.75	53.83
423.94	81.92
424.13	2.34
424.32	21.06
424.50	14.04
424.69	32.77
424.88	18.72
425.07	42.13
425.26	49.15
425.45	74.90
425.64	53.83
425.83	56.17
426.01	39.79
426.20	110.01
426.39	60.85
426.58	0.00
426.77	58.51
426.96	126.39
427.15	70.22
427.33	23.41
427.52	74.90
427.71	25.75
427.90	58.51
428.09	14.04
428.28	9.36
428.46	98.30
428.65	102.98
428.84	39.79
429.03	0.00
429.22	112.35
429.40	79.58
429.59	25.75
429.78	67.88
429.97	4.68
430.16	46.81
430.34	67.88
430.53	81.92
430.72	32.77
430.91	100.64
431.10	67.88
431.28	46.81
431.47	0.00
431.66	86.60
431.85	65.54
432.03	100.64
432.22	14.04
432.41	0.00
432.60	65.54
432.79	0.00
432.97	28.09
433.16	67.88
433.35	49.15
433.54	37.45
433.72	39.79
433.91	53.83
434.10	18.72
434.28	114.69
434.47	53.83
434.66	86.60
434.85	25.75
435.03	98.30
435.22	65.54
435.41	18.72
435.59	56.17
435.78	32.77
435.97	44.47
436.16	39.79
436.34	30.43
436.53	74.90
436.72	102.98
436.90	0.00
437.09	37.45
437.28	77.24
437.46	91.28
437.65	51.49
437.84	7.02
438.02	0.00
438.21	74.90
438.40	93.62
438.58	84.26
438.77	70.22
438.96	25.75
439.14	0.00
439.33	84.26
439.52	37.45
439.70	72.56
439.89	30.43
440.08	49.15
440.26	53.83
440.45	42.13
440.63	49.15
440.82	93.62
441.01	67.88
441.19	44.47
441.38	60.85
441.57	49.15
441.75	0.00
441.94	46.81
442.12	46.81
442.31	77.24
442.50	72.56
442.68	35.11
442.87	98.30
443.05	18.72
443.24	100.64
443.43	0.00
443.61	79.58
443.80	30.43
443.98	44.47
444.17	142.77
444.35	95.96
444.54	100.64
444.73	16.38
444.91	110.01
445.10	60.85
445.28	70.22
445.47	39.79
445.65	4.68
445.84	49.15
446.02	67.88
446.21	65.54
446.39	100.64
446.58	25.75
446.77	25.75
446.95	0.00
447.14	25.75
447.32	53.83
447.51	21.06
447.69	77.24
447.88	79.58
448.06	65.54
448.25	67.88
448.43	70.22
448.62	67.88
448.80	30.43
448.99	63.19
449.17	70.22
449.36	72.56
449.54	51.49
449.73	91.28
449.91	35.11
450.10	53.83
450.28	72.56
450.46	25.75
450.65	65.54
450.83	49.15
451.02	7.02
451.20	67.88
451.39	14.04
451.57	67.88
451.76	95.96
451.94	133.41
452.13	9.36
452.31	28.09
452.49	95.96
452.68	44.47
452.86	21.06
453.05	79.58
453.23	98.30
453.42	102.98
453.60	119.37
453.78	121.71
453.97	53.83
454.15	135.75
454.34	58.51
454.52	35.11
454.70	79.58
454.89	18.72
455.07	95.96
455.26	4.68
455.44	37.45
455.62	58.51
455.81	35.11
455.99	39.79
456.17	65.54
456.36	49.15
456.54	124.05
456.73	32.77
456.91	88.94
457.09	74.90
457.28	70.22
457.46	0.00
457.64	25.75
457.83	30.43
458.01	77.24
458.19	60.85
458.38	16.38
458.56	0.00
458.74	46.81
458.93	51.49
459.11	30.43
459.29	18.72
459.48	56.17
459.66	42.13
459.84	49.15
460.03	107.66
460.21	74.90
460.39	11.70
460.57	49.15
460.76	39.79
460.94	35.11
461.12	49.15
461.31	37.45
461.49	49.15
461.67	114.69
461.85	65.54
462.04	88.94
462.22	102.98
462.40	21.06
462.59	25.75
462.77	32.77
462.95	0.00
463.13	42.13
463.32	0.00
463.50	28.09
463.68	44.47
463.86	79.58
464.05	37.45
464.23	53.83
464.41	65.54
464.59	44.47
464.78	100.64
464.96	28.09
465.14	14.04
465.32	60.85
465.50	67.88
465.69	84.26
465.87	74.90
466.05	56.17
466.23	74.90
466.41	114.69
466.60	35.11
466.78	14.04
466.96	88.94
467.14	88.94
467.32	28.09
467.51	32.77
467.69	0.00
467.87	0.00
468.05	74.90
468.23	49.15
468.41	91.28
468.60	93.62
468.78	23.41
468.96	63.19
469.14	70.22
469.32	53.83
469.50	46.81
469.69	32.77
469.87	44.47
470.05	128.73
470.23	107.66
470.41	77.24
470.59	60.85
470.77	110.01
470.95	72.56
471.14	63.19
471.32	2.34
471.50	39.79
471.68	37.45
471.86	93.62
472.04	21.06
472.22	32.77
472.40	53.83
472.58	0.00
472.77	131.07
472.95	51.49
473.13	84.26
473.31	39.79
473.49	114.69
473.67	14.04
473.85	14.04
474.03	84.26
474.21	65.54
474.39	58.51
474.57	63.19
474.75	53.83
474.93	44.47
475.12	67.88
475.30	39.79
475.48	133.41
475.66	98.30
475.84	86.60
476.02	18.72
476.20	95.96
476.38	49.15
476.56	93.62
476.74	93.62
476.92	63.19
477.10	77.24
477.28	86.60
477.46	49.15
477.64	58.51
477.82	70.22
478.00	25.75
478.18	74.90
478.36	35.11
478.54	67.88
478.72	32.77
478.90	70.22
479.08	114.69
479.26	72.56
479.44	98.30
479.62	88.94
479.80	65.54
479.98	67.88
480.16	58.51
480.34	0.00
480.52	14.04
480.70	0.00
480.88	63.19
481.06	44.47
481.24	81.92
481.41	93.62
481.59	28.09
481.77	98.30
481.95	84.26
482.13	51.49
482.31	46.81
482.49	93.62
482.67	32.77
482.85	53.83
483.03	79.58
483.21	18.72
483.39	18.72
483.57	39.79
483.74	105.32
483.92	107.66
484.10	72.56
484.28	86.60
484.46	74.90
484.64	119.37
484.82	114.69
485.00	156.82
485.18	56.17
485.35	11.70
485.53	86.60
485.71	58.51
485.89	58.51
486.07	0.00
486.25	67.88
486.43	21.06
486.61	63.19
486.78	0.00
486.96	44.47
487.14	25.75
487.32	112.35
487.50	0.00
487.68	93.62
487.85	77.24
488.03	37.45
488.21	39.79
488.39	98.30
488.57	39.79
488.75	100.64
488.92	140.43
489.10	49.15
489.28	131.07
489.46	112.35
489.64	63.19
489.81	65.54
489.99	65.54
490.17	156.82
490.35	100.64
490.53	147.45
490.70	32.77
490.88	53.83
491.06	135.75
491.24	88.94
491.41	65.54
491.59	67.88
491.77	84.26
491.95	77.24
492.13	67.88
492.30	65.54
492.48	44.47
492.66	46.81
492.84	65.54
493.01	58.51
493.19	53.83
493.37	0.00
493.54	49.15
493.72	30.43
493.90	37.45
494.08	159.16
494.25	105.32
494.43	154.48
494.61	56.17
494.79	112.35
494.96	0.00
495.14	9.36
495.32	163.84
495.49	140.43
495.67	98.30
495.85	9.36
496.02	63.19
496.20	25.75
496.38	98.30
496.55	49.15
496.73	133.41
496.91	93.62
497.09	58.51
497.26	112.35
497.44	14.04
497.62	23.41
497.79	121.71
497.97	51.49
498.14	39.79
498.32	37.45
498.50	100.64
498.67	135.75
498.85	84.26
499.03	74.90
499.20	70.22
499.38	88.94
499.56	0.00
499.73	67.88
499.91	110.01
500.08	72.56
500.26	105.32
500.44	84.26
500.61	65.54
500.79	74.90
500.97	42.13
501.14	72.56
501.32	98.30
501.49	77.24
501.67	49.15
501.84	30.43
502.02	79.58
502.20	30.43
502.37	16.38
502.55	65.54
502.72	42.13
502.90	95.96
503.07	107.66
503.25	53.83
503.43	91.28
503.60	65.54
503.78	77.24
503.95	100.64
504.13	140.43
504.30	53.83
504.48	128.73
504.65	60.85
504.83	98.30
505.01	70.22
505.18	126.39
505.36	91.28
505.53	119.37
505.71	121.71
505.88	98.30
506.06	51.49
506.23	63.19
506.41	44.47
506.58	51.49
506.76	107.66
506.93	93.62
507.11	88.94
507.28	44.47
507.46	44.47
507.63	70.22
507.81	56.17
507.98	72.56
508.16	126.39
508.33	140.43
508.50	107.66
508.68	77.24
508.85	37.45
509.03	145.11
509.20	79.58
509.38	81.92
509.55	95.96
509.73	91.28
509.90	86.60
510.08	121.71
510.25	95.96
510.42	95.96
510.60	121.71
510.77	102.98
510.95	72.56
511.12	53.83
511.30	114.69
511.47	140.43
511.64	154.48
511.82	91.28
511.99	18.72
512.17	65.54
512.34	110.01
512.51	60.85
512.69	138.09
512.86	128.73
513.04	56.17
513.21	58.51
513.38	67.88
513.56	23.41
513.73	74.90
513.90	100.64
514.08	86.60
514.25	119.37
514.43	67.88
514.60	114.69
514.77	98.30
514.95	35.11
515.12	81.92
515.29	88.94
515.47	65.54
515.64	100.64
515.81	131.07
515.99	51.49
516.16	86.60
516.33	112.35
516.51	25.75
516.68	86.60
516.85	58.51
517.03	25.75
517.20	25.75
517.37	35.11
517.54	100.64
517.72	35.11
517.89	14.04
518.06	135.75
518.24	53.83
518.41	84.26
518.58	140.43
518.75	60.85
518.93	49.15
519.10	25.75
519.27	117.03
519.45	14.04
519.62	72.56
519.79	175.54
519.96	131.07
520.14	72.56
520.31	16.38
520.48	100.64
520.65	74.90
520.83	102.98
521.00	72.56
521.17	74.90
521.34	105.32
521.52	117.03
521.69	88.94
521.86	70.22
522.03	37.45
522.20	112.35
522.38	23.41
522.55	131.07
522.72	140.43
522.89	133.41
523.07	91.28
523.24	98.30
523.41	70.22
523.58	105.32
523.75	74.90
523.92	51.49
524.10	44.47
524.27	25.75
524.44	86.60
524.61	128.73
524.78	119.37
524.96	119.37
525.13	63.19
525.30	53.83
525.47	79.58
525.64	98.30
525.81	0.00
525.98	140.43
526.16	142.77
526.33	39.79
526.50	117.03
526.67	110.01
526.84	86.60
527.01	112.35
527.18	23.41
527.36	112.35
527.53	133.41
527.70	154.48
527.87	35.11
528.04	58.51
528.21	60.85
528.38	98.30
528.55	35.11
528.72	37.45
528.89	51.49
529.07	159.16
529.24	124.05
529.41	117.03
529.58	51.49
529.75	107.66
529.92	95.96
530.09	70.22
530.26	53.83
530.43	51.49
530.60	77.24
530.77	79.58
530.94	166.18
531.11	98.30
531.28	93.62
531.46	21.06
531.63	0.00
531.80	107.66
531.97	77.24
532.14	70.22
532.31	65.54
532.48	110.01
532.65	91.28
532.82	100.64
532.99	81.92
533.16	67.88
533.33	110.01
533.50	81.92
533.67	145.11
533.84	145.11
534.01	72.56
534.18	74.90
534.35	42.13
534.52	81.92
534.69	53.83
534.86	119.37
535.03	81.92
535.20	44.47
535.37	25.75
535.54	119.37
535.71	42.13
535.88	128.73
536.05	88.94
536.22	79.58
536.38	135.75
536.55	51.49
536.72	32.77
536.89	53.83
537.06	124.05
537.23	72.56
537.40	86.60
537.57	42.13
537.74	84.26
537.91	67.88
538.08	100.64
538.25	14.04
538.42	23.41
538.59	44.47
538.75	58.51
538.92	86.60
539.09	88.94
539.26	21.06
539.43	60.85
539.60	63.19
539.77	63.19
539.94	44.47
540.11	128.73
540.28	117.03
540.44	119.37
540.61	58.51
540.78	81.92
540.95	9.36
541.12	86.60
541.29	60.85
541.46	102.98
541.62	58.51
541.79	81.92
541.96	35.11
542.13	121.71
542.30	107.66
542.47	88.94
542.63	42.13
542.80	88.94
542.97	70.22
543.14	39.79
543.31	65.54
543.48	74.90
543.64	32.77
543.81	63.19
543.98	74.90
544.15	128.73
544.32	81.92
544.48	67.88
544.65	135.75
544.82	173.20
544.99	9.36
545.16	65.54
545.32	102.98
545.49	102.98
545.66	138.09
545.83	35.11
546.00	166.18
546.16	77.24
546.33	88.94
546.50	119.37
546.67	105.32
546.83	88.94
547.00	16.38
547.17	51.49
547.34	133.41
547.50	46.81
547.67	74.90
547.84	100.64
548.00	65.54
548.17	63.19
548.34	93.62
548.51	84.26
548.67	177.88
548.84	88.94
549.01	63.19
549.18	63.19
549.34	72.56
549.51	58.51
549.68	44.47
549.84	74.90
550.01	105.32
550.18	131.07
550.34	114.69
550.51	105.32
550.68	95.96
550.84	72.56
551.01	77.24
551.18	0.00
551.34	79.58
551.51	107.66
551.68	84.26
551.84	100.64
552.01	60.85
552.18	37.45
552.34	60.85
552.51	88.94
552.68	72.56
552.84	72.56
553.01	100.64
553.18	107.66
553.34	77.24
553.51	86.60
553.67	67.88
553.84	44.47
554.01	84.26
554.17	79.58
554.34	72.56
554.51	105.32
554.67	170.86
554.84	63.19
555.00	18.72
555.17	91.28
555.33	72.56
555.50	100.64
555.67	145.11
555.83	53.83
556.00	102.98
556.16	95.96
556.33	72.56
556.50	72.56
556.66	149.79
556.83	32.77
556.99	79.58
557.16	67.88
557.32	95.96
557.49	124.05
557.65	35.11
557.82	152.13
557.98	126.39
558.15	7.02
558.32	102.98
558.48	42.13
558.65	86.60
558.81	88.94
558.98	98.30
559.14	110.01
559.31	105.32
559.47	51.49
559.64	39.79
559.80	18.72
559.97	28.09
560.13	70.22
560.30	70.22
560.46	18.72
560.63	56.17
560.79	84.26
560.96	46.81
561.12	35.11
561.29	18.72
561.45	42.13
561.61	81.92
561.78	128.73
561.94	74.90
562.11	63.19
562.27	60.85
562.44	100.64
562.60	81.92
562.77	49.15
562.93	133.41
563.10	65.54
563.26	46.81
563.42	124.05
563.59	23.41
563.75	56.17
563.92	72.56
564.08	77.24
564.24	95.96
564.41	95.96
564.57	44.47
564.74	86.60
564.90	21.06
565.07	14.04
565.23	105.32
565.39	133.41
565.56	77.24
565.72	84.26
565.88	67.88
566.05	74.90
566.21	79.58
566.38	133.41
566.54	105.32
566.70	30.43
566.87	119.37
567.03	126.39
567.19	152.13
567.36	91.28
567.52	110.01
567.68	9.36
567.85	98.30
568.01	110.01
568.17	32.77
568.34	208.31
568.50	154.48
568.66	74.90
568.83	93.62
568.99	67.88
569.15	72.56
569.32	88.94
569.48	98.30
569.64	156.82
569.81	60.85
569.97	67.88
570.13	60.85
570.30	79.58
570.46	46.81
570.62	72.56
570.78	67.88
570.95	135.75
571.11	74.90
571.27	70.22
571.43	39.79
571.60	126.39
571.76	88.94
571.92	74.90
572.09	131.07
572.25	117.03
572.41	121.71
572.57	35.11
572.74	86.60
572.90	84.26
573.06	91.28
573.22	32.77
573.38	37.45
573.55	67.88
573.71	35.11
573.87	77.24
574.03	91.28
574.20	88.94
574.36	124.05
574.52	79.58
574.68	70.22
574.84	79.58
575.01	105.32
575.17	60.85
575.33	110.01
575.49	49.15
575.65	49.15
575.82	107.66
575.98	98.30
576.14	159.16
576.30	23.41
576.46	35.11
576.62	46.81
576.79	56.17
576.95	152.13
577.11	77.24
577.27	46.81
577.43	25.75
577.59	4.68
577.75	42.13
577.92	72.56
578.08	81.92
578.24	133.41
578.40	44.47
578.56	58.51
578.72	107.66
578.88	95.96
579.04	65.54
579.21	163.84
579.37	119.37
579.53	74.90
579.69	30.43
579.85	53.83
580.01	91.28
580.17	37.45
580.33	0.00
580.49	140.43
580.65	84.26
580.82	95.96
580.98	60.85
581.14	77.24
581.30	102.98
581.46	79.58
581.62	63.19
581.78	44.47
581.94	42.13
582.10	84.26
582.26	102.98
582.42	100.64
582.58	18.72
582.74	63.19
582.90	77.24
583.06	65.54
583.22	58.51
583.38	81.92
583.54	23.41
583.70	98.30
583.86	93.62
584.02	110.01
584.18	79.58
584.34	0.00
584.50	72.56
584.66	37.45
584.82	98.30
584.98	79.58
585.14	91.28
585.30	51.49
585.46	37.45
585.62	44.47
585.78	4.68
585.94	49.15
586.10	98.30
586.26	46.81
586.42	67.88
586.58	112.35
586.74	86.60
586.90	72.56
587.06	56.17
587.22	86.60
587.38	37.45
587.54	70.22
587.70	74.90
587.86	119.37
588.02	70.22
588.18	56.17
588.34	0.00
588.49	63.19
588.65	95.96
588.81	44.47
588.97	28.09
589.13	58.51
589.29	126.39
589.45	63.19
589.61	117.03
589.77	44.47
589.93	105.32
590.08	81.92
590.24	72.56
590.40	86.60
590.56	35.11
590.72	16.38
590.88	30.43
591.04	0.00
591.20	46.81
591.35	65.54
591.51	112.35
591.67	84.26
591.83	131.07
591.99	98.30
592.15	30.43
592.31	93.62
592.46	67.88
592.62	105.32
592.78	28.09
592.94	117.03
593.10	16.38
593.26	100.64
593.41	86.60
593.57	37.45
593.73	46.81
593.89	42.13
594.05	79.58
594.20	74.90
594.36	53.83
594.52	100.64
594.68	21.06
594.84	32.77
594.99	0.00
595.15	128.73
595.31	93.62
595.47	32.77
595.62	72.56
595.78	51.49
595.94	124.05
596.10	30.43
596.25	44.47
596.41	42.13
596.57	70.22
596.73	35.11
596.88	32.77
597.04	119.37
597.20	46.81
597.36	30.43
597.51	53.83
597.67	44.47
597.83	21.06
597.99	39.79
598.14	0.00
598.30	37.45
598.46	117.03
598.61	88.94
598.77	53.83
598.93	124.05
599.09	77.24
599.24	4.68
599.40	114.69
599.56	102.98
599.71	42.13
599.87	70.22
600.03	63.19
600.18	93.62
600.34	67.88
600.50	32.77
600.65	72.56
600.81	91.28
600.97	93.62
601.12	9.36
601.28	124.05
601.44	65.54
601.59	44.47
601.75	16.38
601.91	23.41
602.06	74.90
602.22	49.15
602.37	110.01
602.53	25.75
602.69	11.70
602.84	135.75
603.00	98.30
603.16	93.62
603.31	126.39
603.47	32.77
603.62	102.98
603.78	51.49
603.94	51.49
604.09	117.03
604.25	124.05
604.40	74.90
604.56	25.75
604.71	0.00
604.87	102.98
605.03	42.13
605.18	7.02
605.34	88.94
605.49	114.69
605.65	39.79
605.80	72.56
605.96	46.81
606.12	37.45
606.27	58.51
606.43	56.17
606.58	112.35
606.74	32.77
606.89	32.77
607.05	74.90
607.20	77.24
607.36	42.13
607.51	4.68
607.67	23.41
607.82	79.58
607.98	65.54
608.13	23.41
608.29	37.45
608.44	67.88
608.60	58.51
608.75	77.24
608.91	100.64
609.06	74.90
609.22	63.19
609.37	16.38
609.53	44.47
609.68	81.92
609.84	35.11
609.99	67.88
610.15	44.47
610.30	152.13
610.46	84.26
610.61	39.79
610.76	95.96
610.92	58.51
611.07	131.07
611.23	56.17
611.38	74.90
611.54	0.00
611.69	72.56
611.84	32.77
612.00	65.54
612.15	98.30
612.31	0.00
612.46	117.03
612.62	84.26
612.77	117.03
612.92	86.60
613.08	0.00
613.23	88.94
613.39	14.04
613.54	102.98
613.69	100.64
613.85	70.22
614.00	0.00
614.15	37.45
614.31	56.17
614.46	84.26
614.62	81.92
614.77	35.11
614.92	37.45
615.08	35.11
615.23	88.94
615.38	42.13
615.54	44.47
615.69	9.36
615.84	9.36
616.00	37.45
616.15	67.88
616.30	51.49
616.46	18.72
616.61	28.09
616.76	100.64
616.92	63.19
617.07	86.60
617.22	37.45
617.37	81.92
617.53	72.56
617.68	25.75
617.83	117.03
617.99	105.32
618.14	42.13
618.29	84.26
618.45	21.06
618.60	53.83
618.75	67.88
618.90	0.00
619.06	65.54
619.21	114.69
619.36	58.51
619.51	107.66
619.67	18.72
619.82	114.69
619.97	74.90
620.12	95.96
620.28	74.90
620.43	102.98
620.58	135.75
620.73	79.58
620.89	142.77
621.04	117.03
621.19	14.04
621.34	53.83
621.49	81.92
621.65	65.54
621.80	107.66
621.95	14.04
622.10	81.92
622.25	93.62
622.41	11.70
622.56	58.51
622.71	51.49
622.86	100.64
623.01	56.17
623.16	117.03
623.32	51.49
623.47	51.49
623.62	30.43
623.77	121.71
623.92	84.26
624.07	86.60
624.23	147.45
624.38	37.45
624.53	56.17
624.68	0.00
624.83	91.28
624.98	91.28
625.13	95.96
625.29	30.43
625.44	56.17
625.59	4.68
625.74	56.17
625.89	100.64
626.04	58.51
626.19	60.85
626.34	119.37
626.49	107.66
626.65	72.56
626.80	42.13
626.95	0.00
627.10	95.96
627.25	98.30
627.40	81.92
627.55	74.90
627.70	18.72
627.85	138.09
628.00	58.51
628.15	37.45
628.30	65.54
628.45	100.64
628.60	51.49
628.76	58.51
628.91	28.09
629.06	81.92
629.21	100.64
629.36	0.00
629.51	93.62
629.66	91.28
629.81	86.60
629.96	53.83
630.11	0.00
630.26	25.75
630.41	44.47
630.56	4.68
630.71	135.75
630.86	39.79
631.01	0.00
631.16	81.92
631.31	58.51
631.46	70.22
631.61	46.81
631.76	88.94
631.91	67.88
632.06	0.00
632.21	72.56
632.36	46.81
632.51	74.90
632.66	42.13
632.81	117.03
632.96	49.15
633.10	95.96
633.25	46.81
633.40	58.51
633.55	56.17
633.70	93.62
633.85	9.36
634.00	72.56
634.15	28.09
634.30	63.19
634.45	65.54
634.60	46.81
634.75	16.38
634.90	63.19
635.05	28.09
635.19	147.45
635.34	42.13
635.49	65.54
635.64	100.64
635.79	67.88
635.94	65.54
636.09	56.17
636.24	21.06
636.39	65.54
636.53	100.64
636.68	95.96
636.83	72.56
636.98	58.51
637.13	0.00
637.28	30.43
637.43	21.06
637.57	105.32
637.72	25.75
637.87	72.56
638.02	79.58
638.17	51.49
638.32	37.45
638.46	72.56
638.61	149.79
638.76	84.26
638.91	49.15
639.06	28.09
639.20	84.26
639.35	51.49
639.50	21.06
639.65	88.94
639.80	72.56
639.94	84.26
640.09	44.47
640.24	93.62
640.39	112.35
640.54	51.49
640.68	44.47
640.83	51.49
640.98	63.19
641.13	107.66
641.27	56.17
641.42	23.41
641.57	65.54
641.72	79.58
641.86	21.06
642.01	0.00
642.16	60.85
642.31	37.45
642.45	74.90
642.60	102.98
642.75	65.54
642.90	102.98
643.04	46.81
643.19	25.75
643.34	110.01
643.48	86.60
643.63	102.98
643.78	126.39
643.93	51.49
644.07	70.22
644.22	102.98
644.37	11.70
644.51	2.34
644.66	100.64
644.81	51.49
644.95	32.77
645.10	25.75
645.25	0.00
645.39	77.24
645.54	77.24
645.69	65.54
645.83	74.90
645.98	58.51
646.13	44.47
646.27	117.03
646.42	107.66
646.57	49.15
646.71	53.83
646.86	77.24
647.00	161.50
647.15	42.13
647.30	0.00
647.44	28.09
647.59	42.13
647.74	42.13
647.88	0.00
648.03	98.30
648.17	28.09
648.32	14.04
648.47	11.70
648.61	46.81
648.76	98.30
648.90	39.79
649.05	9.36
649.20	21.06
649.34	25.75
649.49	18.72
649.63	25.75
649.78	37.45
649.92	65.54
650.07	9.36
650.21	46.81
650.36	70.22
650.51	70.22
650.65	65.54
650.80	93.62
650.94	95.96
651.09	51.49
651.23	25.75
651.38	98.30
651.52	49.15
651.67	30.43
651.81	0.00
651.96	9.36
652.10	42.13
652.25	28.09
652.39	35.11
652.54	46.81
652.68	56.17
652.83	25.75
652.97	14.04
653.12	81.92
653.26	11.70
653.41	58.51
653.55	2.34
653.70	63.19
653.84	0.00
653.99	4.68
654.13	114.69
654.27	112.35
654.42	35.11
654.56	2.34
654.71	84.26
654.85	63.19
655.00	70.22
655.14	25.75
655.29	35.11
655.43	37.45
655.57	49.15
655.72	46.81
655.86	0.00
656.01	0.00
656.15	18.72
656.30	53.83
656.44	35.11
656.58	0.00
656.73	23.41
656.87	0.00
657.01	42.13
657.16	65.54
657.30	30.43
657.45	11.70
657.59	74.90
657.73	56.17
657.88	60.85
658.02	25.75
658.16	46.81
658.31	23.41
658.45	91.28
658.60	28.09
658.74	70.22
658.88	88.94
659.03	67.88
659.17	0.00
659.31	56.17
659.46	46.81
659.60	91.28
659.74	88.94
659.89	63.19
660.03	9.36
660.17	70.22
660.32	46.81
660.46	81.92
660.60	23.41
660.74	74.90
660.89	63.19
661.03	84.26
661.17	84.26
661.32	133.41
661.46	133.41
661.60	53.83
661.74	32.77
661.89	93.62
662.03	128.73
662.17	2.34
662.31	86.60
662.46	21.06
662.60	42.13
662.74	72.56
662.88	107.66
663.03	18.72
663.17	0.00
663.31	58.51
663.45	0.00
663.60	28.09
663.74	0.00
663.88	98.30
664.02	100.64
664.17	46.81
664.31	110.01
664.45	28.09
664.59	100.64
664.73	102.98
664.88	39.79
665.02	84.26
665.16	14.04
665.30	37.45
665.44	2.34
665.59	21.06
665.73	39.79
665.87	7.02
666.01	23.41
666.15	60.85
666.29	49.15
666.44	2.34
666.58	49.15
666.72	32.77
666.86	91.28
667.00	79.58
667.14	0.00
667.28	84.26
667.43	77.24
667.57	23.41
667.71	74.90
667.85	7.02
667.99	60.85
668.13	100.64
668.27	131.07
668.41	9.36
668.56	35.11
668.70	56.17
668.84	0.00
668.98	0.00
669.12	79.58
669.26	0.00
669.40	60.85
669.54	121.71
669.68	121.71
669.82	35.11
669.96	35.11
670.10	25.75
670.25	35.11
670.39	135.75
670.53	65.54
670.67	4.68
670.81	16.38
670.95	39.79
671.09	35.11
671.23	100.64
671.37	49.15
671.51	0.00
671.65	53.83
671.79	84.26
671.93	63.19
672.07	53.83
672.21	58.51
672.35	95.96
672.49	0.00
672.63	51.49
672.77	14.04
672.91	74.90
673.05	21.06
673.19	49.15
673.33	23.41
673.47	42.13
673.61	42.13
673.75	0.00
673.89	39.79
674.03	51.49
674.17	39.79
674.31	84.26
674.45	21.06
674.59	91.28
674.73	16.38
674.87	79.58
675.01	28.09
675.15	63.19
675.29	42.13
675.43	14.04
675.56	84.26
675.70	91.28
675.84	95.96
675.98	60.85
676.12	11.70
676.26	60.85
676.40	86.60
676.54	9.36
676.68	14.04
676.82	0.00
676.96	46.81
677.10	35.11
677.23	74.90
677.37	30.43
677.51	51.49
677.65	119.37
677.79	11.70
677.93	44.47
678.07	56.17
678.21	37.45
678.34	0.00
678.48	51.49
678.62	28.09
678.76	0.00
678.90	0.00
679.04	28.09
679.18	0.00
679.31	30.43
679.45	28.09
679.59	81.92
679.73	65.54
679.87	0.00
680.00	14.04
680.14	112.35
680.28	81.92
680.42	49.15
680.56	84.26
680.70	0.00
680.83	49.15
680.97	14.04
681.11	67.88
681.25	72.56
681.39	67.88
681.52	51.49
681.66	49.15
681.80	72.56
681.94	72.56
682.07	93.62
682.21	72.56
682.35	25.75
682.49	65.54
682.62	4.68
682.76	0.00
682.90	53.83
683.04	67.88
683.17	53.83
683.31	28.09
683.45	46.81
683.59	25.75
683.72	67.88
683.86	0.00
684.00	37.45
684.13	0.00
684.27	21.06
684.41	0.00
684.55	9.36
684.68	46.81
684.82	98.30
684.96	16.38
685.09	42.13
685.23	84.26
685.37	14.04
685.50	60.85
685.64	81.92
685.78	9.36
685.91	84.26
686.05	16.38
686.19	42.13
686.32	56.17
686.46	0.00
686.60	35.11
686.73	67.88
686.87	0.00
687.01	42.13
687.14	37.45
687.28	18.72
687.42	70.22
687.55	4.68
687.69	58.51
687.82	46.81
687.96	14.04
688.10	39.79
688.23	42.13
688.37	49.15
688.50	39.79
688.64	35.11
688.78	0.00
688.91	37.45
689.05	117.03
689.18	0.00
689.32	107.66
689.46	30.43
689.59	9.36
689.73	0.00
689.86	35.11
690.00	11.70
690.13	9.36
690.27	39.79
690.41	32.77
690.54	79.58
690.68	70.22
690.81	0.00
690.95	0.00
691.08	28.09
691.22	32.77
691.35	79.58
691.49	14.04
691.62	39.79
691.76	88.94
691.89	0.00
692.03	0.00
692.16	70.22
692.30	0.00
692.43	79.58
692.57	56.17
692.70	53.83
692.84	14.04
692.97	56.17
693.11	4.68
693.24	0.00
693.38	11.70
693.51	74.90
693.65	16.38
693.78	0.00
693.92	0.00
694.05	0.00
694.19	46.81
694.32	30.43
694.45	0.00
694.59	16.38
694.72	23.41
694.86	100.64
694.99	95.96
695.13	25.75
695.26	0.00
695.39	16.38
695.53	67.88
695.66	46.81
695.80	39.79
695.93	0.00
696.07	11.70
696.20	56.17
696.33	131.07
696.47	74.90
696.60	28.09
696.73	30.43
696.87	30.43
697.00	30.43
697.14	23.41
697.27	44.47
697.40	0.00
697.54	21.06
697.67	0.00
697.80	4.68
697.94	32.77
698.07	53.83
698.21	44.47
698.34	30.43
698.47	0.00
698.61	0.00
698.74	74.90
698.87	46.81
699.01	46.81
699.14	91.28
699.27	32.77
699.40	51.49
699.54	0.00
699.67	51.49
699.80	35.11
699.94	67.88
700.07	58.51
700.20	0.00
700.34	98.30
700.47	70.22
700.60	32.77
700.73	28.09
700.87	70.22
701.00	49.15
701.13	28.09
701.26	56.17
701.40	53.83
701.53	7.02
701.66	14.04
701.79	77.24
701.93	2.34
702.06	11.70
702.19	51.49
702.32	81.92
702.46	42.13
702.59	21.06
702.72	0.00
702.85	67.88
702.99	67.88
703.12	0.00
703.25	35.11
703.38	25.75
703.51	28.09
703.65	110.01
703.78	60.85
703.91	56.17
704.04	0.00
704.17	77.24
704.31	86.60
704.44	86.60
704.57	126.39
704.70	0.00
704.83	39.79
704.96	102.98
705.10	51.49
705.23	86.60
>>>>>End Processed Spectral Data<<<<<
