SpectraSuite Data File
++++++++++++++++++++++++++++++++++++
Date: Fri Oct 04 12:13:31 GMT-05:00 2013
User: price-jones
Dark Spectrum Present: No
Reference Spectrum Present: No
Number of Sampled Component Spectra: 1
Spectrometers: USB2+H05261
Integration Time (usec): 10000 (USB2+H05261)
Spectra Averaged: 1 (USB2+H05261)
Boxcar Smoothing: 0 (USB2+H05261)
Correct for Electrical Dark: No (USB2+H05261)
Strobe/Lamp Enabled: No (USB2+H05261)
Correct for Detector Non-linearity: No (USB2+H05261)
Correct for Stray Light: No (USB2+H05261)
Number of Pixels in Processed Spectrum: 2048
>>>>>Begin Processed Spectral Data<<<<<
365.73	0.00
365.92	0.00
366.12	0.00
366.32	0.00
366.52	0.00
366.72	0.00
366.91	0.00
367.11	0.00
367.31	0.00
367.51	0.00
367.70	0.00
367.90	0.00
368.10	0.00
368.30	0.00
368.49	0.00
368.69	0.00
368.89	0.00
369.09	0.00
369.28	0.00
369.48	0.00
369.68	0.00
369.87	0.00
370.07	0.00
370.27	0.00
370.47	0.00
370.66	0.00
370.86	0.00
371.06	0.00
371.25	32.77
371.45	0.00
371.65	0.00
371.84	0.00
372.04	7.02
372.24	56.17
372.44	7.02
372.63	0.00
372.83	0.00
373.03	7.02
373.22	25.75
373.42	9.36
373.62	0.00
373.81	0.00
374.01	0.00
374.21	14.04
374.40	35.11
374.60	0.00
374.79	0.00
374.99	30.43
375.19	0.00
375.38	18.72
375.58	44.47
375.78	14.04
375.97	25.75
376.17	28.09
376.37	63.19
376.56	95.96
376.76	18.72
376.95	0.00
377.15	53.83
377.35	39.79
377.54	28.09
377.74	65.54
377.93	0.00
378.13	30.43
378.33	37.45
378.52	56.17
378.72	84.26
378.91	35.11
379.11	91.28
379.31	21.06
379.50	0.00
379.70	28.09
379.89	30.43
380.09	11.70
380.28	21.06
380.48	0.00
380.68	46.81
380.87	4.68
381.07	0.00
381.26	0.00
381.46	0.00
381.65	18.72
381.85	63.19
382.04	53.83
382.24	0.00
382.43	79.58
382.63	0.00
382.83	16.38
383.02	0.00
383.22	14.04
383.41	28.09
383.61	30.43
383.80	42.13
384.00	35.11
384.19	0.00
384.39	32.77
384.58	32.77
384.78	0.00
384.97	25.75
385.17	39.79
385.36	0.00
385.56	0.00
385.75	21.06
385.95	25.75
386.14	18.72
386.34	11.70
386.53	0.00
386.72	0.00
386.92	30.43
387.11	63.19
387.31	0.00
387.50	21.06
387.70	0.00
387.89	0.00
388.09	0.00
388.28	25.75
388.48	0.00
388.67	0.00
388.86	0.00
389.06	0.00
389.25	0.00
389.45	0.00
389.64	14.04
389.84	30.43
390.03	77.24
390.22	0.00
390.42	0.00
390.61	4.68
390.81	14.04
391.00	16.38
391.19	23.41
391.39	16.38
391.58	0.00
391.78	7.02
391.97	60.85
392.16	37.45
392.36	2.34
392.55	23.41
392.75	0.00
392.94	9.36
393.13	0.00
393.33	39.79
393.52	42.13
393.71	70.22
393.91	25.75
394.10	67.88
394.29	56.17
394.49	4.68
394.68	86.60
394.88	53.83
395.07	9.36
395.26	9.36
395.46	25.75
395.65	0.00
395.84	88.94
396.04	70.22
396.23	0.00
396.42	65.54
396.62	0.00
396.81	88.94
397.00	0.00
397.19	0.00
397.39	14.04
397.58	49.15
397.77	0.00
397.97	42.13
398.16	0.00
398.35	58.51
398.55	0.00
398.74	79.58
398.93	49.15
399.12	0.00
399.32	16.38
399.51	7.02
399.70	42.13
399.90	28.09
400.09	39.79
400.28	32.77
400.47	0.00
400.67	56.17
400.86	0.00
401.05	37.45
401.24	9.36
401.44	72.56
401.63	0.00
401.82	0.00
402.01	86.60
402.21	0.00
402.40	7.02
402.59	60.85
402.78	112.35
402.97	77.24
403.17	23.41
403.36	23.41
403.55	79.58
403.74	0.00
403.93	79.58
404.13	25.75
404.32	63.19
404.51	0.00
404.70	0.00
404.89	81.92
405.09	0.00
405.28	93.62
405.47	0.00
405.66	81.92
405.85	93.62
406.05	72.56
406.24	70.22
406.43	9.36
406.62	32.77
406.81	53.83
407.00	72.56
407.20	0.00
407.39	51.49
407.58	28.09
407.77	79.58
407.96	0.00
408.15	67.88
408.34	39.79
408.54	63.19
408.73	30.43
408.92	30.43
409.11	21.06
409.30	0.00
409.49	30.43
409.68	53.83
409.87	67.88
410.07	14.04
410.26	0.00
410.45	32.77
410.64	44.47
410.83	81.92
411.02	91.28
411.21	23.41
411.40	0.00
411.59	88.94
411.78	0.00
411.98	23.41
412.17	23.41
412.36	21.06
412.55	74.90
412.74	42.13
412.93	0.00
413.12	72.56
413.31	37.45
413.50	42.13
413.69	21.06
413.88	0.00
414.07	51.49
414.26	28.09
414.45	18.72
414.64	60.85
414.83	0.00
415.02	23.41
415.22	0.00
415.41	37.45
415.60	16.38
415.79	46.81
415.98	138.09
416.17	0.00
416.36	53.83
416.55	0.00
416.74	0.00
416.93	30.43
417.12	100.64
417.31	30.43
417.50	110.01
417.69	35.11
417.88	0.00
418.07	9.36
418.26	30.43
418.45	88.94
418.64	77.24
418.83	56.17
419.02	88.94
419.21	53.83
419.39	65.54
419.58	16.38
419.77	0.00
419.96	49.15
420.15	105.32
420.34	67.88
420.53	35.11
420.72	107.66
420.91	49.15
421.10	0.00
421.29	37.45
421.48	0.00
421.67	25.75
421.86	11.70
422.05	32.77
422.24	0.00
422.43	30.43
422.61	11.70
422.80	0.00
422.99	30.43
423.18	0.00
423.37	63.19
423.56	16.38
423.75	7.02
423.94	11.70
424.13	93.62
424.32	0.00
424.50	0.00
424.69	53.83
424.88	84.26
425.07	9.36
425.26	7.02
425.45	72.56
425.64	60.85
425.83	88.94
426.01	30.43
426.20	72.56
426.39	23.41
426.58	0.00
426.77	0.00
426.96	30.43
427.15	0.00
427.33	56.17
427.52	51.49
427.71	91.28
427.90	77.24
428.09	14.04
428.28	128.73
428.46	0.00
428.65	35.11
428.84	2.34
429.03	84.26
429.22	42.13
429.40	58.51
429.59	0.00
429.78	67.88
429.97	23.41
430.16	72.56
430.34	77.24
430.53	63.19
430.72	28.09
430.91	53.83
431.10	9.36
431.28	32.77
431.47	37.45
431.66	56.17
431.85	28.09
432.03	102.98
432.22	37.45
432.41	0.00
432.60	74.90
432.79	16.38
432.97	95.96
433.16	0.00
433.35	11.70
433.54	11.70
433.72	7.02
433.91	65.54
434.10	35.11
434.28	60.85
434.47	32.77
434.66	28.09
434.85	70.22
435.03	51.49
435.22	49.15
435.41	42.13
435.59	42.13
435.78	28.09
435.97	53.83
436.16	23.41
436.34	30.43
436.53	7.02
436.72	0.00
436.90	39.79
437.09	56.17
437.28	39.79
437.46	4.68
437.65	9.36
437.84	44.47
438.02	0.00
438.21	84.26
438.40	72.56
438.58	81.92
438.77	51.49
438.96	53.83
439.14	42.13
439.33	2.34
439.52	58.51
439.70	84.26
439.89	51.49
440.08	0.00
440.26	0.00
440.45	0.00
440.63	42.13
440.82	25.75
441.01	37.45
441.19	0.00
441.38	60.85
441.57	18.72
441.75	63.19
441.94	56.17
442.12	51.49
442.31	23.41
442.50	21.06
442.68	0.00
442.87	0.00
443.05	32.77
443.24	0.00
443.43	9.36
443.61	63.19
443.80	0.00
443.98	102.98
444.17	67.88
444.35	77.24
444.54	4.68
444.73	0.00
444.91	4.68
445.10	35.11
445.28	9.36
445.47	0.00
445.65	9.36
445.84	0.00
446.02	0.00
446.21	53.83
446.39	9.36
446.58	77.24
446.77	37.45
446.95	35.11
447.14	32.77
447.32	23.41
447.51	30.43
447.69	23.41
447.88	30.43
448.06	25.75
448.25	0.00
448.43	30.43
448.62	46.81
448.80	4.68
448.99	65.54
449.17	42.13
449.36	35.11
449.54	70.22
449.73	2.34
449.91	25.75
450.10	23.41
450.28	56.17
450.46	84.26
450.65	23.41
450.83	9.36
451.02	84.26
451.20	25.75
451.39	25.75
451.57	58.51
451.76	28.09
451.94	53.83
452.13	18.72
452.31	49.15
452.49	25.75
452.68	0.00
452.86	105.32
453.05	35.11
453.23	35.11
453.42	7.02
453.60	42.13
453.78	23.41
453.97	28.09
454.15	16.38
454.34	67.88
454.52	70.22
454.70	44.47
454.89	28.09
455.07	25.75
455.26	98.30
455.44	37.45
455.62	14.04
455.81	74.90
455.99	28.09
456.17	60.85
456.36	18.72
456.54	21.06
456.73	32.77
456.91	37.45
457.09	51.49
457.28	145.11
457.46	49.15
457.64	35.11
457.83	65.54
458.01	42.13
458.19	0.00
458.38	39.79
458.56	0.00
458.74	21.06
458.93	0.00
459.11	14.04
459.29	56.17
459.48	18.72
459.66	51.49
459.84	98.30
460.03	32.77
460.21	0.00
460.39	4.68
460.57	32.77
460.76	53.83
460.94	30.43
461.12	44.47
461.31	105.32
461.49	25.75
461.67	67.88
461.85	46.81
462.04	51.49
462.22	128.73
462.40	4.68
462.59	35.11
462.77	46.81
462.95	28.09
463.13	21.06
463.32	28.09
463.50	0.00
463.68	44.47
463.86	49.15
464.05	0.00
464.23	77.24
464.41	0.00
464.59	37.45
464.78	9.36
464.96	0.00
465.14	18.72
465.32	0.00
465.50	0.00
465.69	4.68
465.87	0.00
466.05	9.36
466.23	86.60
466.41	93.62
466.60	35.11
466.78	14.04
466.96	53.83
467.14	11.70
467.32	49.15
467.51	11.70
467.69	2.34
467.87	0.00
468.05	0.00
468.23	7.02
468.41	28.09
468.60	35.11
468.78	0.00
468.96	39.79
469.14	4.68
469.32	35.11
469.50	63.19
469.69	32.77
469.87	0.00
470.05	25.75
470.23	0.00
470.41	21.06
470.59	0.00
470.77	16.38
470.95	0.00
471.14	35.11
471.32	9.36
471.50	51.49
471.68	56.17
471.86	37.45
472.04	67.88
472.22	81.92
472.40	126.39
472.58	63.19
472.77	91.28
472.95	0.00
473.13	18.72
473.31	14.04
473.49	30.43
473.67	2.34
473.85	18.72
474.03	37.45
474.21	0.00
474.39	28.09
474.57	67.88
474.75	28.09
474.93	0.00
475.12	35.11
475.30	95.96
475.48	74.90
475.66	30.43
475.84	32.77
476.02	0.00
476.20	44.47
476.38	14.04
476.56	18.72
476.74	39.79
476.92	86.60
477.10	7.02
477.28	0.00
477.46	0.00
477.64	84.26
477.82	21.06
478.00	0.00
478.18	65.54
478.36	0.00
478.54	14.04
478.72	7.02
478.90	81.92
479.08	77.24
479.26	21.06
479.44	86.60
479.62	74.90
479.80	0.00
479.98	18.72
480.16	0.00
480.34	65.54
480.52	28.09
480.70	32.77
480.88	0.00
481.06	0.00
481.24	18.72
481.41	18.72
481.59	67.88
481.77	42.13
481.95	65.54
482.13	60.85
482.31	53.83
482.49	0.00
482.67	53.83
482.85	0.00
483.03	35.11
483.21	11.70
483.39	44.47
483.57	28.09
483.74	23.41
483.92	74.90
484.10	65.54
484.28	93.62
484.46	28.09
484.64	81.92
484.82	25.75
485.00	124.05
485.18	56.17
485.35	79.58
485.53	25.75
485.71	0.00
485.89	63.19
486.07	0.00
486.25	25.75
486.43	37.45
486.61	2.34
486.78	44.47
486.96	30.43
487.14	86.60
487.32	63.19
487.50	110.01
487.68	65.54
487.85	7.02
488.03	35.11
488.21	18.72
488.39	53.83
488.57	0.00
488.75	42.13
488.92	105.32
489.10	65.54
489.28	51.49
489.46	0.00
489.64	23.41
489.81	39.79
489.99	18.72
490.17	51.49
490.35	91.28
490.53	0.00
490.70	18.72
490.88	42.13
491.06	21.06
491.24	0.00
491.41	30.43
491.59	49.15
491.77	21.06
491.95	28.09
492.13	42.13
492.30	21.06
492.48	0.00
492.66	35.11
492.84	138.09
493.01	18.72
493.19	0.00
493.37	42.13
493.54	32.77
493.72	63.19
493.90	51.49
494.08	28.09
494.25	67.88
494.43	44.47
494.61	44.47
494.79	7.02
494.96	67.88
495.14	25.75
495.32	23.41
495.49	0.00
495.67	70.22
495.85	2.34
496.02	0.00
496.20	60.85
496.38	37.45
496.55	84.26
496.73	46.81
496.91	30.43
497.09	21.06
497.26	32.77
497.44	2.34
497.62	18.72
497.79	0.00
497.97	0.00
498.14	77.24
498.32	74.90
498.50	65.54
498.67	65.54
498.85	30.43
499.03	72.56
499.20	107.66
499.38	39.79
499.56	0.00
499.73	42.13
499.91	14.04
500.08	28.09
500.26	37.45
500.44	7.02
500.61	65.54
500.79	0.00
500.97	93.62
501.14	25.75
501.32	56.17
501.49	25.75
501.67	42.13
501.84	37.45
502.02	72.56
502.20	0.00
502.37	0.00
502.55	0.00
502.72	39.79
502.90	16.38
503.07	32.77
503.25	0.00
503.43	88.94
503.60	86.60
503.78	67.88
503.95	23.41
504.13	44.47
504.30	30.43
504.48	51.49
504.65	72.56
504.83	4.68
505.01	49.15
505.18	81.92
505.36	2.34
505.53	0.00
505.71	42.13
505.88	0.00
506.06	65.54
506.23	79.58
506.41	37.45
506.58	46.81
506.76	42.13
506.93	93.62
507.11	88.94
507.28	28.09
507.46	44.47
507.63	105.32
507.81	67.88
507.98	56.17
508.16	23.41
508.33	9.36
508.50	58.51
508.68	112.35
508.85	74.90
509.03	74.90
509.20	53.83
509.38	21.06
509.55	14.04
509.73	84.26
509.90	81.92
510.08	0.00
510.25	53.83
510.42	49.15
510.60	0.00
510.77	105.32
510.95	44.47
511.12	30.43
511.30	28.09
511.47	44.47
511.64	25.75
511.82	138.09
511.99	60.85
512.17	53.83
512.34	35.11
512.51	51.49
512.69	0.00
512.86	0.00
513.04	28.09
513.21	131.07
513.38	63.19
513.56	42.13
513.73	93.62
513.90	77.24
514.08	42.13
514.25	4.68
514.43	93.62
514.60	16.38
514.77	0.00
514.95	23.41
515.12	60.85
515.29	21.06
515.47	4.68
515.64	98.30
515.81	0.00
515.99	91.28
516.16	51.49
516.33	4.68
516.51	39.79
516.68	28.09
516.85	46.81
517.03	67.88
517.20	2.34
517.37	0.00
517.54	37.45
517.72	53.83
517.89	28.09
518.06	21.06
518.24	131.07
518.41	0.00
518.58	135.75
518.75	30.43
518.93	81.92
519.10	2.34
519.27	74.90
519.45	74.90
519.62	58.51
519.79	39.79
519.96	67.88
520.14	28.09
520.31	65.54
520.48	81.92
520.65	44.47
520.83	58.51
521.00	9.36
521.17	35.11
521.34	25.75
521.52	56.17
521.69	77.24
521.86	74.90
522.03	58.51
522.20	65.54
522.38	53.83
522.55	100.64
522.72	53.83
522.89	53.83
523.07	44.47
523.24	46.81
523.41	84.26
523.58	72.56
523.75	117.03
523.92	0.00
524.10	105.32
524.27	39.79
524.44	30.43
524.61	37.45
524.78	4.68
524.96	35.11
525.13	98.30
525.30	7.02
525.47	84.26
525.64	32.77
525.81	42.13
525.98	56.17
526.16	46.81
526.33	0.00
526.50	51.49
526.67	67.88
526.84	81.92
527.01	84.26
527.18	67.88
527.36	117.03
527.53	91.28
527.70	23.41
527.87	7.02
528.04	98.30
528.21	70.22
528.38	0.00
528.55	42.13
528.72	81.92
528.89	44.47
529.07	0.00
529.24	11.70
529.41	32.77
529.58	4.68
529.75	0.00
529.92	70.22
530.09	81.92
530.26	44.47
530.43	9.36
530.60	11.70
530.77	39.79
530.94	30.43
531.11	91.28
531.28	7.02
531.46	28.09
531.63	39.79
531.80	84.26
531.97	7.02
532.14	0.00
532.31	91.28
532.48	112.35
532.65	77.24
532.82	30.43
532.99	46.81
533.16	0.00
533.33	0.00
533.50	37.45
533.67	81.92
533.84	25.75
534.01	53.83
534.18	100.64
534.35	37.45
534.52	88.94
534.69	105.32
534.86	0.00
535.03	7.02
535.20	60.85
535.37	44.47
535.54	72.56
535.71	114.69
535.88	0.00
536.05	37.45
536.22	7.02
536.38	63.19
536.55	60.85
536.72	46.81
536.89	23.41
537.06	0.00
537.23	95.96
537.40	93.62
537.57	18.72
537.74	39.79
537.91	70.22
538.08	88.94
538.25	9.36
538.42	74.90
538.59	0.00
538.75	42.13
538.92	81.92
539.09	117.03
539.26	58.51
539.43	93.62
539.60	142.77
539.77	248.10
539.94	215.33
540.11	117.03
540.28	32.77
540.44	39.79
540.61	4.68
540.78	60.85
540.95	11.70
541.12	49.15
541.29	30.43
541.46	4.68
541.62	65.54
541.79	35.11
541.96	39.79
542.13	37.45
542.30	7.02
542.47	49.15
542.63	39.79
542.80	32.77
542.97	81.92
543.14	0.00
543.31	0.00
543.48	65.54
543.64	105.32
543.81	60.85
543.98	70.22
544.15	16.38
544.32	35.11
544.48	56.17
544.65	0.00
544.82	37.45
544.99	0.00
545.16	9.36
545.32	37.45
545.49	56.17
545.66	128.73
545.83	81.92
546.00	46.81
546.16	0.00
546.33	51.49
546.50	88.94
546.67	46.81
546.83	77.24
547.00	77.24
547.17	65.54
547.34	39.79
547.50	9.36
547.67	49.15
547.84	39.79
548.00	128.73
548.17	56.17
548.34	63.19
548.51	28.09
548.67	25.75
548.84	86.60
549.01	63.19
549.18	9.36
549.34	46.81
549.51	44.47
549.68	30.43
549.84	81.92
550.01	30.43
550.18	23.41
550.34	138.09
550.51	39.79
550.68	77.24
550.84	18.72
551.01	86.60
551.18	25.75
551.34	74.90
551.51	81.92
551.68	25.75
551.84	91.28
552.01	81.92
552.18	60.85
552.34	58.51
552.51	70.22
552.68	72.56
552.84	44.47
553.01	107.66
553.18	0.00
553.34	16.38
553.51	110.01
553.67	88.94
553.84	67.88
554.01	60.85
554.17	67.88
554.34	14.04
554.51	39.79
554.67	98.30
554.84	9.36
555.00	0.00
555.17	58.51
555.33	18.72
555.50	126.39
555.67	98.30
555.83	28.09
556.00	77.24
556.16	44.47
556.33	53.83
556.50	23.41
556.66	42.13
556.83	32.77
556.99	53.83
557.16	0.00
557.32	18.72
557.49	39.79
557.65	30.43
557.82	14.04
557.98	81.92
558.15	86.60
558.32	0.00
558.48	11.70
558.65	74.90
558.81	4.68
558.98	14.04
559.14	30.43
559.31	39.79
559.47	46.81
559.64	16.38
559.80	49.15
559.97	14.04
560.13	0.00
560.30	23.41
560.46	42.13
560.63	42.13
560.79	0.00
560.96	81.92
561.12	21.06
561.29	21.06
561.45	131.07
561.61	60.85
561.78	53.83
561.94	79.58
562.11	53.83
562.27	28.09
562.44	56.17
562.60	0.00
562.77	0.00
562.93	23.41
563.10	72.56
563.26	25.75
563.42	86.60
563.59	72.56
563.75	4.68
563.92	49.15
564.08	58.51
564.24	70.22
564.41	74.90
564.57	70.22
564.74	72.56
564.90	58.51
565.07	42.13
565.23	60.85
565.39	49.15
565.56	42.13
565.72	32.77
565.88	65.54
566.05	11.70
566.21	35.11
566.38	39.79
566.54	14.04
566.70	0.00
566.87	16.38
567.03	53.83
567.19	4.68
567.36	28.09
567.52	7.02
567.68	4.68
567.85	74.90
568.01	16.38
568.17	32.77
568.34	46.81
568.50	53.83
568.66	58.51
568.83	107.66
568.99	18.72
569.15	107.66
569.32	53.83
569.48	14.04
569.64	18.72
569.81	121.71
569.97	28.09
570.13	81.92
570.30	58.51
570.46	49.15
570.62	95.96
570.78	28.09
570.95	77.24
571.11	21.06
571.27	56.17
571.43	60.85
571.60	88.94
571.76	0.00
571.92	0.00
572.09	63.19
572.25	72.56
572.41	39.79
572.57	79.58
572.74	28.09
572.90	60.85
573.06	9.36
573.22	131.07
573.38	56.17
573.55	58.51
573.71	11.70
573.87	0.00
574.03	42.13
574.20	51.49
574.36	14.04
574.52	95.96
574.68	88.94
574.84	91.28
575.01	0.00
575.17	110.01
575.33	72.56
575.49	49.15
575.65	14.04
575.82	102.98
575.98	37.45
576.14	86.60
576.30	149.79
576.46	49.15
576.62	74.90
576.79	86.60
576.95	100.64
577.11	7.02
577.27	39.79
577.43	21.06
577.59	23.41
577.75	72.56
577.92	23.41
578.08	11.70
578.24	58.51
578.40	30.43
578.56	16.38
578.72	9.36
578.88	56.17
579.04	49.15
579.21	95.96
579.37	63.19
579.53	72.56
579.69	91.28
579.85	110.01
580.01	60.85
580.17	28.09
580.33	35.11
580.49	49.15
580.65	14.04
580.82	0.00
580.98	112.35
581.14	7.02
581.30	60.85
581.46	81.92
581.62	51.49
581.78	114.69
581.94	60.85
582.10	98.30
582.26	98.30
582.42	84.26
582.58	91.28
582.74	0.00
582.90	65.54
583.06	121.71
583.22	107.66
583.38	21.06
583.54	58.51
583.70	124.05
583.86	114.69
584.02	114.69
584.18	135.75
584.34	133.41
584.50	327.68
584.66	2509.05
584.82	6300.72
584.98	10033.88
585.14	8929.14
585.30	5383.23
585.46	3353.99
585.62	2094.78
585.78	966.64
585.94	479.81
586.10	117.03
586.26	124.05
586.42	51.49
586.58	117.03
586.74	180.22
586.90	35.11
587.06	51.49
587.22	100.64
587.38	39.79
587.54	154.48
587.70	365.12
587.86	636.63
588.02	723.23
588.18	543.00
588.34	334.70
588.49	294.91
588.65	121.71
588.81	107.66
588.97	60.85
589.13	95.96
589.29	98.30
589.45	44.47
589.61	23.41
589.77	65.54
589.93	74.90
590.08	135.75
590.24	65.54
590.40	67.88
590.56	72.56
590.72	21.06
590.88	0.00
591.04	0.00
591.20	0.00
591.35	86.60
591.51	63.19
591.67	91.28
591.83	2.34
591.99	95.96
592.15	65.54
592.31	35.11
592.46	49.15
592.62	0.00
592.78	28.09
592.94	70.22
593.10	42.13
593.26	4.68
593.41	60.85
593.57	46.81
593.73	105.32
593.89	376.83
594.05	809.83
594.20	1249.85
594.36	1275.59
594.52	760.67
594.68	526.62
594.84	318.31
594.99	131.07
595.15	102.98
595.31	74.90
595.47	35.11
595.62	65.54
595.78	21.06
595.94	67.88
596.10	37.45
596.25	42.13
596.41	25.75
596.57	32.77
596.73	102.98
596.88	79.58
597.04	138.09
597.20	311.29
597.36	456.40
597.51	301.93
597.67	205.97
597.83	102.98
597.99	42.13
598.14	77.24
598.30	88.94
598.46	37.45
598.61	53.83
598.77	30.43
598.93	49.15
599.09	18.72
599.24	0.00
599.40	0.00
599.56	28.09
599.71	25.75
599.87	21.06
600.03	0.00
600.18	79.58
600.34	58.51
600.50	44.47
600.65	46.81
600.81	142.77
600.97	14.04
601.12	0.00
601.28	58.51
601.44	93.62
601.59	65.54
601.75	58.51
601.91	74.90
602.06	72.56
602.22	0.00
602.37	98.30
602.53	210.65
602.69	313.63
602.84	367.46
603.00	278.52
603.16	252.78
603.31	145.11
603.47	124.05
603.62	100.64
603.78	67.88
603.94	11.70
604.09	25.75
604.25	46.81
604.40	46.81
604.56	53.83
604.71	74.90
604.87	53.83
605.03	67.88
605.18	32.77
605.34	93.62
605.49	14.04
605.65	28.09
605.80	49.15
605.96	84.26
606.12	46.81
606.27	119.37
606.43	156.82
606.58	63.19
606.74	49.15
606.89	428.32
607.05	875.36
607.20	1048.56
607.36	894.08
607.51	629.60
607.67	463.43
607.82	252.78
607.98	156.82
608.13	51.49
608.29	30.43
608.44	93.62
608.60	77.24
608.75	42.13
608.91	149.79
609.06	660.03
609.22	1289.64
609.37	1954.35
609.53	1624.33
609.68	1198.35
609.84	697.48
609.99	528.96
610.15	290.23
610.30	121.71
610.46	128.73
610.61	81.92
610.76	77.24
610.92	39.79
611.07	18.72
611.23	23.41
611.38	49.15
611.54	18.72
611.69	81.92
611.84	63.19
612.00	88.94
612.15	114.69
612.31	93.62
612.46	79.58
612.62	110.01
612.77	70.22
612.92	100.64
613.08	95.96
613.23	0.00
613.39	11.70
613.54	58.51
613.69	599.18
613.85	1558.80
614.00	2520.76
614.15	2972.48
614.31	2059.67
614.46	1301.34
614.62	891.74
614.77	617.90
614.92	332.36
615.08	184.90
615.23	105.32
615.38	42.13
615.54	0.00
615.69	168.52
615.84	322.99
616.00	599.18
616.15	791.10
616.30	697.48
616.46	444.70
616.61	252.78
616.76	264.48
616.92	93.62
617.07	105.32
617.22	65.54
617.37	74.90
617.53	25.75
617.68	72.56
617.83	42.13
617.99	37.45
618.14	0.00
618.29	51.49
618.45	0.00
618.60	37.45
618.75	72.56
618.90	98.30
619.06	84.26
619.21	44.47
619.36	46.81
619.51	91.28
619.67	21.06
619.82	39.79
619.97	49.15
620.12	37.45
620.28	93.62
620.43	91.28
620.58	44.47
620.73	79.58
620.89	0.00
621.04	67.88
621.19	187.24
621.34	360.44
621.49	461.09
621.65	500.87
621.80	299.59
621.95	182.56
622.10	234.05
622.25	51.49
622.41	23.41
622.56	133.41
622.71	84.26
622.86	30.43
623.01	30.43
623.16	107.66
623.32	72.56
623.47	21.06
623.62	18.72
623.77	39.79
623.92	74.90
624.07	30.43
624.23	0.00
624.38	77.24
624.53	4.68
624.68	60.85
624.83	98.30
624.98	117.03
625.13	86.60
625.29	4.68
625.44	42.13
625.59	72.56
625.74	70.22
625.89	93.62
626.04	318.31
626.19	802.80
626.34	1266.23
626.49	1650.08
626.65	1142.18
626.80	741.95
626.95	533.64
627.10	203.63
627.25	107.66
627.40	72.56
627.55	37.45
627.70	25.75
627.85	42.13
628.00	51.49
628.15	53.83
628.30	81.92
628.45	35.11
628.60	65.54
628.76	44.47
628.91	98.30
629.06	51.49
629.21	86.60
629.36	142.77
629.51	60.85
629.66	56.17
629.81	117.03
629.96	133.41
630.11	285.55
630.26	425.98
630.41	430.66
630.56	283.20
630.71	140.43
630.86	124.05
631.01	72.56
631.16	49.15
631.31	168.52
631.46	28.09
631.61	95.96
631.76	0.00
631.91	4.68
632.06	0.00
632.21	77.24
632.36	49.15
632.51	95.96
632.66	23.41
632.81	135.75
632.96	418.96
633.10	875.36
633.25	1039.20
633.40	877.70
633.55	582.79
633.70	414.27
633.85	285.55
634.00	135.75
634.15	133.41
634.30	58.51
634.45	56.17
634.60	72.56
634.75	51.49
634.90	114.69
635.05	91.28
635.19	81.92
635.34	81.92
635.49	30.43
635.64	46.81
635.79	42.13
635.94	21.06
636.09	88.94
636.24	37.45
636.39	81.92
636.53	0.00
636.68	112.35
636.83	100.64
636.98	74.90
637.13	0.00
637.28	65.54
637.43	91.28
637.57	138.09
637.72	390.87
637.87	980.68
638.02	1673.48
638.17	1879.45
638.32	1533.05
638.46	1050.90
638.61	629.60
638.76	418.96
638.91	278.52
639.06	135.75
639.20	60.85
639.35	93.62
639.50	196.60
639.65	657.69
639.80	1689.87
639.94	2677.57
640.09	3087.17
640.24	2342.88
640.39	1537.73
640.54	1130.48
640.68	627.26
640.83	266.82
640.98	166.18
641.13	86.60
641.27	84.26
641.42	65.54
641.57	93.62
641.72	51.49
641.86	105.32
642.01	21.06
642.16	39.79
642.31	32.77
642.45	21.06
642.60	88.94
642.75	49.15
642.90	0.00
643.04	37.45
643.19	11.70
643.34	0.00
643.48	0.00
643.63	0.00
643.78	0.00
643.93	18.72
644.07	4.68
644.22	39.79
644.37	23.41
644.51	91.28
644.66	42.13
644.81	21.06
644.95	93.62
645.10	25.75
645.25	0.00
645.39	49.15
645.54	46.81
645.69	72.56
645.83	105.32
645.98	32.77
646.13	81.92
646.27	11.70
646.42	84.26
646.57	4.68
646.71	44.47
646.86	44.47
647.00	0.00
647.15	0.00
647.30	65.54
647.44	7.02
647.59	18.72
647.74	112.35
647.88	74.90
648.03	42.13
648.17	14.04
648.32	16.38
648.47	14.04
648.61	9.36
648.76	119.37
648.90	58.51
649.05	39.79
649.20	0.00
649.34	0.00
649.49	46.81
649.63	32.77
649.78	107.66
649.92	126.39
650.07	243.42
650.21	709.18
650.36	1226.44
650.51	1678.16
650.65	1401.98
650.80	1011.11
650.94	606.20
651.09	330.02
651.23	191.92
651.38	145.11
651.52	65.54
651.67	74.90
651.81	86.60
651.96	44.47
652.10	44.47
652.25	126.39
652.39	28.09
652.54	65.54
652.68	117.03
652.83	191.92
652.97	428.32
653.12	550.03
653.26	507.90
653.41	376.83
653.55	285.55
653.70	156.82
653.84	138.09
653.99	23.41
654.13	9.36
654.27	11.70
654.42	72.56
654.56	110.01
654.71	0.00
654.85	28.09
655.00	46.81
655.14	37.45
655.29	14.04
655.43	72.56
655.57	0.00
655.72	37.45
655.86	79.58
656.01	0.00
656.15	11.70
656.30	70.22
656.44	32.77
656.58	53.83
656.73	117.03
656.87	14.04
657.01	0.00
657.16	23.41
657.30	77.24
657.45	98.30
657.59	0.00
657.73	0.00
657.88	53.83
658.02	93.62
658.16	28.09
658.31	16.38
658.45	35.11
658.60	25.75
658.74	16.38
658.88	0.00
659.03	93.62
659.17	74.90
659.31	119.37
659.46	393.21
659.60	638.97
659.74	704.50
659.89	718.54
660.03	505.56
660.17	313.63
660.32	149.79
660.46	124.05
660.60	86.60
660.74	39.79
660.89	91.28
661.03	0.00
661.17	0.00
661.32	39.79
661.46	91.28
661.60	0.00
661.74	0.00
661.89	133.41
662.03	25.75
662.17	23.41
662.31	18.72
662.46	46.81
662.60	51.49
662.74	30.43
662.88	4.68
663.03	23.41
663.17	18.72
663.31	58.51
663.45	42.13
663.60	58.51
663.74	42.13
663.88	58.51
664.02	51.49
664.17	0.00
664.31	88.94
664.45	21.06
664.59	0.00
664.73	51.49
664.88	14.04
665.02	9.36
665.16	37.45
665.30	65.54
665.44	18.72
665.59	35.11
665.73	105.32
665.87	93.62
666.01	9.36
666.15	2.34
666.29	39.79
666.44	39.79
666.58	42.13
666.72	46.81
666.86	42.13
667.00	72.56
667.14	30.43
667.28	208.31
667.43	594.50
667.57	1022.81
667.71	1327.08
667.85	1184.31
667.99	828.55
668.13	547.69
668.27	266.82
668.41	205.97
668.56	124.05
668.70	30.43
668.84	46.81
668.98	79.58
669.12	81.92
669.26	0.00
669.40	16.38
669.54	0.00
669.68	35.11
669.82	23.41
669.96	21.06
670.10	16.38
670.25	49.15
670.39	37.45
670.53	67.88
670.67	32.77
670.81	0.00
670.95	2.34
671.09	102.98
671.23	257.46
671.37	500.87
671.51	713.86
671.65	858.98
671.79	662.37
671.93	484.49
672.07	372.15
672.21	217.67
672.35	114.69
672.49	102.98
672.63	88.94
672.77	32.77
672.91	53.83
673.05	0.00
673.19	77.24
673.33	14.04
673.47	51.49
673.61	0.00
673.75	35.11
673.89	53.83
674.03	72.56
674.17	46.81
674.31	0.00
674.45	0.00
674.59	0.00
674.73	37.45
674.87	35.11
675.01	0.00
675.15	30.43
675.29	117.03
675.43	30.43
675.56	0.00
675.70	0.00
675.84	74.90
675.98	0.00
676.12	37.45
676.26	0.00
676.40	70.22
676.54	4.68
676.68	65.54
676.82	51.49
676.96	84.26
677.10	42.13
677.23	2.34
677.37	37.45
677.51	46.81
677.65	0.00
677.79	0.00
677.93	0.00
678.07	18.72
678.21	46.81
678.34	51.49
678.48	67.88
678.62	53.83
678.76	2.34
678.90	51.49
679.04	7.02
679.18	110.01
679.31	32.77
679.45	0.00
679.59	11.70
679.73	18.72
679.87	0.00
680.00	79.58
680.14	63.19
680.28	44.47
680.42	0.00
680.56	79.58
680.70	11.70
680.83	18.72
680.97	56.17
681.11	0.00
681.25	74.90
681.39	67.88
681.52	70.22
681.66	0.00
681.80	37.45
681.94	42.13
682.07	46.81
682.21	11.70
682.35	16.38
682.49	0.00
682.62	7.02
682.76	42.13
682.90	100.64
683.04	88.94
683.17	32.77
683.31	30.43
683.45	0.00
683.59	18.72
683.72	9.36
683.86	58.51
684.00	25.75
684.13	35.11
684.27	0.00
684.41	11.70
684.55	39.79
684.68	16.38
684.82	25.75
684.96	35.11
685.09	86.60
685.23	74.90
685.37	60.85
685.50	44.47
685.64	46.81
685.78	60.85
685.91	32.77
686.05	30.43
686.19	28.09
686.32	2.34
686.46	56.17
686.60	30.43
686.73	44.47
686.87	70.22
687.01	0.00
687.14	16.38
687.28	28.09
687.42	28.09
687.55	4.68
687.69	44.47
687.82	88.94
687.96	30.43
688.10	23.41
688.23	32.77
688.37	0.00
688.50	11.70
688.64	32.77
688.78	58.51
688.91	72.56
689.05	44.47
689.18	0.00
689.32	0.00
689.46	28.09
689.59	30.43
689.73	0.00
689.86	56.17
690.00	35.11
690.13	0.00
690.27	0.00
690.41	2.34
690.54	39.79
690.68	60.85
690.81	2.34
690.95	0.00
691.08	25.75
691.22	30.43
691.35	93.62
691.49	28.09
691.62	18.72
691.76	37.45
691.89	0.00
692.03	23.41
692.16	70.22
692.30	42.13
692.43	60.85
692.57	224.69
692.70	416.62
692.84	662.37
692.97	566.41
693.11	517.26
693.24	360.44
693.38	241.08
693.51	131.07
693.65	28.09
693.78	35.11
693.92	46.81
694.05	23.41
694.19	65.54
694.32	91.28
694.45	23.41
694.59	0.00
694.72	0.00
694.86	51.49
694.99	23.41
695.13	56.17
695.26	56.17
695.39	63.19
695.53	56.17
695.66	67.88
695.80	51.49
695.93	74.90
696.07	86.60
696.20	35.11
696.33	81.92
696.47	81.92
696.60	88.94
696.73	46.81
696.87	63.19
697.00	35.11
697.14	23.41
697.27	0.00
697.40	95.96
697.54	7.02
697.67	51.49
697.80	91.28
697.94	119.37
698.07	21.06
698.21	11.70
698.34	42.13
698.47	42.13
698.61	0.00
698.74	25.75
698.87	18.72
699.01	65.54
699.14	44.47
699.27	51.49
699.40	37.45
699.54	72.56
699.67	51.49
699.80	21.06
699.94	0.00
700.07	0.00
700.20	21.06
700.34	0.00
700.47	25.75
700.60	42.13
700.73	60.85
700.87	46.81
701.00	114.69
701.13	65.54
701.26	37.45
701.40	0.00
701.53	0.00
701.66	37.45
701.79	16.38
701.93	4.68
702.06	9.36
702.19	44.47
702.32	88.94
702.46	4.68
702.59	30.43
702.72	168.52
702.85	306.61
702.99	711.52
703.12	1013.45
703.25	1214.74
703.38	1039.20
703.51	753.65
703.65	629.60
703.78	456.40
703.91	299.59
704.04	227.03
704.17	105.32
704.31	114.69
704.44	126.39
704.57	77.24
704.70	37.45
704.83	51.49
704.96	86.60
705.10	86.60
705.23	39.79
>>>>>End Processed Spectral Data<<<<<
