SpectraSuite Data File
++++++++++++++++++++++++++++++++++++
Date: Fri Oct 04 12:13:35 GMT-05:00 2013
User: price-jones
Dark Spectrum Present: No
Reference Spectrum Present: No
Number of Sampled Component Spectra: 1
Spectrometers: USB2+H05261
Integration Time (usec): 10000 (USB2+H05261)
Spectra Averaged: 1 (USB2+H05261)
Boxcar Smoothing: 0 (USB2+H05261)
Correct for Electrical Dark: No (USB2+H05261)
Strobe/Lamp Enabled: No (USB2+H05261)
Correct for Detector Non-linearity: No (USB2+H05261)
Correct for Stray Light: No (USB2+H05261)
Number of Pixels in Processed Spectrum: 2048
>>>>>Begin Processed Spectral Data<<<<<
365.73	0.00
365.92	0.00
366.12	0.00
366.32	0.00
366.52	0.00
366.72	0.00
366.91	0.00
367.11	0.00
367.31	0.00
367.51	0.00
367.70	0.00
367.90	0.00
368.10	0.00
368.30	0.00
368.49	0.00
368.69	0.00
368.89	0.00
369.09	0.00
369.28	0.00
369.48	0.00
369.68	0.00
369.87	0.00
370.07	0.00
370.27	0.00
370.47	0.00
370.66	0.00
370.86	0.00
371.06	0.00
371.25	0.00
371.45	0.00
371.65	0.00
371.84	0.00
372.04	28.09
372.24	2.34
372.44	0.00
372.63	0.00
372.83	53.83
373.03	32.77
373.22	0.00
373.42	84.26
373.62	37.45
373.81	58.51
374.01	7.02
374.21	51.49
374.40	25.75
374.60	30.43
374.79	39.79
374.99	0.00
375.19	16.38
375.38	81.92
375.58	60.85
375.78	91.28
375.97	35.11
376.17	2.34
376.37	0.00
376.56	0.00
376.76	72.56
376.95	25.75
377.15	49.15
377.35	46.81
377.54	32.77
377.74	21.06
377.93	0.00
378.13	23.41
378.33	0.00
378.52	0.00
378.72	0.00
378.91	0.00
379.11	4.68
379.31	0.00
379.50	32.77
379.70	14.04
379.89	121.71
380.09	28.09
380.28	0.00
380.48	0.00
380.68	67.88
380.87	0.00
381.07	0.00
381.26	53.83
381.46	58.51
381.65	28.09
381.85	35.11
382.04	0.00
382.24	0.00
382.43	44.47
382.63	0.00
382.83	14.04
383.02	2.34
383.22	16.38
383.41	0.00
383.61	56.17
383.80	37.45
384.00	65.54
384.19	56.17
384.39	32.77
384.58	0.00
384.78	42.13
384.97	56.17
385.17	88.94
385.36	28.09
385.56	0.00
385.75	14.04
385.95	16.38
386.14	0.00
386.34	51.49
386.53	67.88
386.72	0.00
386.92	2.34
387.11	0.00
387.31	37.45
387.50	0.00
387.70	60.85
387.89	32.77
388.09	60.85
388.28	72.56
388.48	65.54
388.67	16.38
388.86	46.81
389.06	7.02
389.25	14.04
389.45	7.02
389.64	58.51
389.84	77.24
390.03	0.00
390.22	0.00
390.42	11.70
390.61	0.00
390.81	46.81
391.00	0.00
391.19	0.00
391.39	37.45
391.58	0.00
391.78	110.01
391.97	72.56
392.16	49.15
392.36	32.77
392.55	21.06
392.75	65.54
392.94	56.17
393.13	4.68
393.33	0.00
393.52	91.28
393.71	84.26
393.91	30.43
394.10	93.62
394.29	9.36
394.49	4.68
394.68	0.00
394.88	35.11
395.07	44.47
395.26	51.49
395.46	28.09
395.65	37.45
395.84	18.72
396.04	88.94
396.23	16.38
396.42	42.13
396.62	0.00
396.81	4.68
397.00	9.36
397.19	0.00
397.39	60.85
397.58	0.00
397.77	51.49
397.97	37.45
398.16	67.88
398.35	51.49
398.55	0.00
398.74	53.83
398.93	93.62
399.12	0.00
399.32	88.94
399.51	23.41
399.70	74.90
399.90	21.06
400.09	0.00
400.28	84.26
400.47	79.58
400.67	86.60
400.86	81.92
401.05	0.00
401.24	37.45
401.44	84.26
401.63	65.54
401.82	39.79
402.01	44.47
402.21	30.43
402.40	67.88
402.59	0.00
402.78	0.00
402.97	98.30
403.17	2.34
403.36	0.00
403.55	51.49
403.74	56.17
403.93	67.88
404.13	79.58
404.32	91.28
404.51	58.51
404.70	84.26
404.89	44.47
405.09	4.68
405.28	25.75
405.47	42.13
405.66	60.85
405.85	21.06
406.05	70.22
406.24	44.47
406.43	39.79
406.62	0.00
406.81	74.90
407.00	74.90
407.20	16.38
407.39	60.85
407.58	21.06
407.77	72.56
407.96	117.03
408.15	28.09
408.34	88.94
408.54	84.26
408.73	74.90
408.92	63.19
409.11	35.11
409.30	35.11
409.49	42.13
409.68	72.56
409.87	32.77
410.07	0.00
410.26	0.00
410.45	25.75
410.64	53.83
410.83	23.41
411.02	0.00
411.21	16.38
411.40	84.26
411.59	51.49
411.78	35.11
411.98	37.45
412.17	63.19
412.36	35.11
412.55	81.92
412.74	0.00
412.93	74.90
413.12	0.00
413.31	28.09
413.50	49.15
413.69	74.90
413.88	23.41
414.07	0.00
414.26	0.00
414.45	16.38
414.64	60.85
414.83	0.00
415.02	0.00
415.22	14.04
415.41	0.00
415.60	28.09
415.79	44.47
415.98	46.81
416.17	56.17
416.36	53.83
416.55	77.24
416.74	42.13
416.93	11.70
417.12	44.47
417.31	105.32
417.50	0.00
417.69	18.72
417.88	0.00
418.07	0.00
418.26	67.88
418.45	53.83
418.64	9.36
418.83	37.45
419.02	28.09
419.21	95.96
419.39	14.04
419.58	77.24
419.77	21.06
419.96	56.17
420.15	42.13
420.34	42.13
420.53	67.88
420.72	65.54
420.91	7.02
421.10	63.19
421.29	98.30
421.48	0.00
421.67	0.00
421.86	65.54
422.05	65.54
422.24	56.17
422.43	44.47
422.61	21.06
422.80	23.41
422.99	88.94
423.18	46.81
423.37	21.06
423.56	11.70
423.75	23.41
423.94	70.22
424.13	16.38
424.32	32.77
424.50	18.72
424.69	30.43
424.88	49.15
425.07	7.02
425.26	7.02
425.45	131.07
425.64	0.00
425.83	0.00
426.01	79.58
426.20	4.68
426.39	93.62
426.58	58.51
426.77	72.56
426.96	35.11
427.15	14.04
427.33	81.92
427.52	70.22
427.71	35.11
427.90	49.15
428.09	23.41
428.28	121.71
428.46	72.56
428.65	70.22
428.84	7.02
429.03	23.41
429.22	18.72
429.40	0.00
429.59	0.00
429.78	11.70
429.97	4.68
430.16	32.77
430.34	63.19
430.53	25.75
430.72	18.72
430.91	28.09
431.10	60.85
431.28	42.13
431.47	100.64
431.66	60.85
431.85	42.13
432.03	25.75
432.22	4.68
432.41	58.51
432.60	16.38
432.79	42.13
432.97	65.54
433.16	49.15
433.35	81.92
433.54	86.60
433.72	39.79
433.91	65.54
434.10	93.62
434.28	58.51
434.47	28.09
434.66	30.43
434.85	28.09
435.03	110.01
435.22	60.85
435.41	0.00
435.59	0.00
435.78	25.75
435.97	56.17
436.16	56.17
436.34	21.06
436.53	0.00
436.72	0.00
436.90	0.00
437.09	46.81
437.28	28.09
437.46	35.11
437.65	63.19
437.84	117.03
438.02	70.22
438.21	0.00
438.40	37.45
438.58	0.00
438.77	18.72
438.96	53.83
439.14	95.96
439.33	58.51
439.52	44.47
439.70	65.54
439.89	51.49
440.08	0.00
440.26	37.45
440.45	65.54
440.63	16.38
440.82	72.56
441.01	25.75
441.19	119.37
441.38	126.39
441.57	65.54
441.75	30.43
441.94	102.98
442.12	16.38
442.31	46.81
442.50	60.85
442.68	51.49
442.87	42.13
443.05	70.22
443.24	0.00
443.43	67.88
443.61	95.96
443.80	23.41
443.98	0.00
444.17	84.26
444.35	56.17
444.54	25.75
444.73	63.19
444.91	49.15
445.10	0.00
445.28	28.09
445.47	63.19
445.65	30.43
445.84	16.38
446.02	51.49
446.21	91.28
446.39	58.51
446.58	88.94
446.77	95.96
446.95	124.05
447.14	9.36
447.32	79.58
447.51	81.92
447.69	51.49
447.88	30.43
448.06	44.47
448.25	79.58
448.43	121.71
448.62	67.88
448.80	14.04
448.99	0.00
449.17	72.56
449.36	0.00
449.54	135.75
449.73	126.39
449.91	0.00
450.10	37.45
450.28	42.13
450.46	32.77
450.65	63.19
450.83	86.60
451.02	18.72
451.20	65.54
451.39	35.11
451.57	63.19
451.76	18.72
451.94	72.56
452.13	14.04
452.31	49.15
452.49	32.77
452.68	18.72
452.86	30.43
453.05	149.79
453.23	81.92
453.42	70.22
453.60	25.75
453.78	58.51
453.97	9.36
454.15	16.38
454.34	0.00
454.52	32.77
454.70	79.58
454.89	53.83
455.07	56.17
455.26	28.09
455.44	65.54
455.62	95.96
455.81	74.90
455.99	39.79
456.17	9.36
456.36	42.13
456.54	53.83
456.73	70.22
456.91	53.83
457.09	0.00
457.28	18.72
457.46	159.16
457.64	18.72
457.83	30.43
458.01	0.00
458.19	58.51
458.38	49.15
458.56	0.00
458.74	39.79
458.93	88.94
459.11	4.68
459.29	23.41
459.48	102.98
459.66	63.19
459.84	86.60
460.03	119.37
460.21	70.22
460.39	23.41
460.57	126.39
460.76	2.34
460.94	0.00
461.12	72.56
461.31	58.51
461.49	107.66
461.67	168.52
461.85	93.62
462.04	42.13
462.22	159.16
462.40	21.06
462.59	63.19
462.77	39.79
462.95	65.54
463.13	67.88
463.32	51.49
463.50	51.49
463.68	0.00
463.86	42.13
464.05	35.11
464.23	37.45
464.41	65.54
464.59	70.22
464.78	93.62
464.96	112.35
465.14	9.36
465.32	128.73
465.50	81.92
465.69	110.01
465.87	49.15
466.05	30.43
466.23	35.11
466.41	77.24
466.60	84.26
466.78	14.04
466.96	30.43
467.14	0.00
467.32	28.09
467.51	42.13
467.69	39.79
467.87	51.49
468.05	133.41
468.23	88.94
468.41	60.85
468.60	37.45
468.78	42.13
468.96	77.24
469.14	72.56
469.32	112.35
469.50	60.85
469.69	53.83
469.87	0.00
470.05	44.47
470.23	63.19
470.41	63.19
470.59	102.98
470.77	70.22
470.95	86.60
471.14	84.26
471.32	93.62
471.50	58.51
471.68	35.11
471.86	70.22
472.04	58.51
472.22	72.56
472.40	77.24
472.58	4.68
472.77	42.13
472.95	9.36
473.13	70.22
473.31	0.00
473.49	65.54
473.67	74.90
473.85	67.88
474.03	46.81
474.21	11.70
474.39	42.13
474.57	7.02
474.75	0.00
474.93	39.79
475.12	135.75
475.30	70.22
475.48	0.00
475.66	0.00
475.84	0.00
476.02	100.64
476.20	93.62
476.38	63.19
476.56	124.05
476.74	95.96
476.92	23.41
477.10	79.58
477.28	23.41
477.46	98.30
477.64	58.51
477.82	88.94
478.00	67.88
478.18	21.06
478.36	119.37
478.54	86.60
478.72	88.94
478.90	60.85
479.08	39.79
479.26	70.22
479.44	16.38
479.62	11.70
479.80	0.00
479.98	23.41
480.16	58.51
480.34	77.24
480.52	72.56
480.70	18.72
480.88	58.51
481.06	42.13
481.24	37.45
481.41	37.45
481.59	91.28
481.77	49.15
481.95	95.96
482.13	42.13
482.31	0.00
482.49	93.62
482.67	23.41
482.85	105.32
483.03	25.75
483.21	21.06
483.39	72.56
483.57	88.94
483.74	112.35
483.92	18.72
484.10	107.66
484.28	60.85
484.46	156.82
484.64	110.01
484.82	53.83
485.00	32.77
485.18	63.19
485.35	28.09
485.53	42.13
485.71	53.83
485.89	72.56
486.07	14.04
486.25	28.09
486.43	86.60
486.61	42.13
486.78	53.83
486.96	46.81
487.14	149.79
487.32	124.05
487.50	49.15
487.68	53.83
487.85	105.32
488.03	138.09
488.21	133.41
488.39	138.09
488.57	91.28
488.75	84.26
488.92	58.51
489.10	51.49
489.28	107.66
489.46	79.58
489.64	98.30
489.81	32.77
489.99	74.90
490.17	44.47
490.35	86.60
490.53	88.94
490.70	105.32
490.88	86.60
491.06	0.00
491.24	107.66
491.41	79.58
491.59	98.30
491.77	49.15
491.95	88.94
492.13	39.79
492.30	74.90
492.48	42.13
492.66	11.70
492.84	56.17
493.01	0.00
493.19	49.15
493.37	156.82
493.54	95.96
493.72	117.03
493.90	72.56
494.08	79.58
494.25	100.64
494.43	142.77
494.61	72.56
494.79	0.00
494.96	88.94
495.14	67.88
495.32	58.51
495.49	131.07
495.67	53.83
495.85	28.09
496.02	37.45
496.20	140.43
496.38	46.81
496.55	46.81
496.73	44.47
496.91	42.13
497.09	32.77
497.26	53.83
497.44	7.02
497.62	98.30
497.79	65.54
497.97	119.37
498.14	102.98
498.32	138.09
498.50	105.32
498.67	93.62
498.85	56.17
499.03	112.35
499.20	142.77
499.38	124.05
499.56	42.13
499.73	140.43
499.91	23.41
500.08	98.30
500.26	60.85
500.44	138.09
500.61	18.72
500.79	77.24
500.97	44.47
501.14	67.88
501.32	60.85
501.49	124.05
501.67	74.90
501.84	95.96
502.02	63.19
502.20	74.90
502.37	65.54
502.55	131.07
502.72	44.47
502.90	74.90
503.07	23.41
503.25	81.92
503.43	84.26
503.60	86.60
503.78	65.54
503.95	88.94
504.13	35.11
504.30	46.81
504.48	0.00
504.65	51.49
504.83	93.62
505.01	32.77
505.18	56.17
505.36	91.28
505.53	65.54
505.71	74.90
505.88	60.85
506.06	7.02
506.23	11.70
506.41	105.32
506.58	95.96
506.76	124.05
506.93	88.94
507.11	70.22
507.28	37.45
507.46	49.15
507.63	30.43
507.81	49.15
507.98	88.94
508.16	65.54
508.33	98.30
508.50	128.73
508.68	58.51
508.85	86.60
509.03	11.70
509.20	117.03
509.38	58.51
509.55	67.88
509.73	65.54
509.90	163.84
510.08	81.92
510.25	32.77
510.42	100.64
510.60	95.96
510.77	67.88
510.95	124.05
511.12	100.64
511.30	102.98
511.47	102.98
511.64	84.26
511.82	37.45
511.99	110.01
512.17	102.98
512.34	100.64
512.51	74.90
512.69	65.54
512.86	42.13
513.04	121.71
513.21	88.94
513.38	67.88
513.56	58.51
513.73	18.72
513.90	93.62
514.08	77.24
514.25	11.70
514.43	74.90
514.60	49.15
514.77	126.39
514.95	32.77
515.12	105.32
515.29	32.77
515.47	58.51
515.64	58.51
515.81	86.60
515.99	0.00
516.16	30.43
516.33	93.62
516.51	56.17
516.68	149.79
516.85	42.13
517.03	95.96
517.20	72.56
517.37	105.32
517.54	37.45
517.72	14.04
517.89	58.51
518.06	63.19
518.24	65.54
518.41	63.19
518.58	91.28
518.75	170.86
518.93	77.24
519.10	84.26
519.27	63.19
519.45	65.54
519.62	70.22
519.79	18.72
519.96	70.22
520.14	79.58
520.31	25.75
520.48	46.81
520.65	86.60
520.83	84.26
521.00	0.00
521.17	67.88
521.34	2.34
521.52	77.24
521.69	126.39
521.86	133.41
522.03	88.94
522.20	170.86
522.38	88.94
522.55	39.79
522.72	102.98
522.89	102.98
523.07	65.54
523.24	135.75
523.41	131.07
523.58	93.62
523.75	114.69
523.92	84.26
524.10	51.49
524.27	58.51
524.44	124.05
524.61	21.06
524.78	145.11
524.96	88.94
525.13	161.50
525.30	86.60
525.47	77.24
525.64	58.51
525.81	121.71
525.98	2.34
526.16	51.49
526.33	70.22
526.50	11.70
526.67	56.17
526.84	112.35
527.01	39.79
527.18	91.28
527.36	72.56
527.53	74.90
527.70	70.22
527.87	93.62
528.04	58.51
528.21	131.07
528.38	46.81
528.55	72.56
528.72	49.15
528.89	86.60
529.07	67.88
529.24	25.75
529.41	98.30
529.58	58.51
529.75	63.19
529.92	37.45
530.09	11.70
530.26	105.32
530.43	93.62
530.60	79.58
530.77	105.32
530.94	184.90
531.11	140.43
531.28	95.96
531.46	145.11
531.63	126.39
531.80	128.73
531.97	21.06
532.14	112.35
532.31	121.71
532.48	72.56
532.65	121.71
532.82	114.69
532.99	128.73
533.16	0.00
533.33	65.54
533.50	102.98
533.67	93.62
533.84	124.05
534.01	98.30
534.18	63.19
534.35	84.26
534.52	131.07
534.69	72.56
534.86	79.58
535.03	88.94
535.20	117.03
535.37	91.28
535.54	53.83
535.71	72.56
535.88	110.01
536.05	117.03
536.22	152.13
536.38	74.90
536.55	72.56
536.72	119.37
536.89	114.69
537.06	114.69
537.23	53.83
537.40	114.69
537.57	30.43
537.74	102.98
537.91	105.32
538.08	98.30
538.25	14.04
538.42	112.35
538.59	77.24
538.75	100.64
538.92	72.56
539.09	42.13
539.26	79.58
539.43	119.37
539.60	0.00
539.77	131.07
539.94	81.92
540.11	74.90
540.28	102.98
540.44	114.69
540.61	184.90
540.78	72.56
540.95	95.96
541.12	121.71
541.29	65.54
541.46	84.26
541.62	121.71
541.79	124.05
541.96	86.60
542.13	86.60
542.30	67.88
542.47	149.79
542.63	112.35
542.80	56.17
542.97	63.19
543.14	72.56
543.31	0.00
543.48	100.64
543.64	93.62
543.81	72.56
543.98	67.88
544.15	117.03
544.32	119.37
544.48	46.81
544.65	77.24
544.82	46.81
544.99	105.32
545.16	72.56
545.32	21.06
545.49	9.36
545.66	95.96
545.83	81.92
546.00	79.58
546.16	105.32
546.33	84.26
546.50	58.51
546.67	117.03
546.83	28.09
547.00	196.60
547.17	93.62
547.34	44.47
547.50	70.22
547.67	67.88
547.84	128.73
548.00	105.32
548.17	56.17
548.34	70.22
548.51	110.01
548.67	107.66
548.84	138.09
549.01	161.50
549.18	95.96
549.34	95.96
549.51	74.90
549.68	65.54
549.84	16.38
550.01	117.03
550.18	98.30
550.34	16.38
550.51	74.90
550.68	21.06
550.84	28.09
551.01	56.17
551.18	86.60
551.34	102.98
551.51	60.85
551.68	119.37
551.84	124.05
552.01	119.37
552.18	53.83
552.34	112.35
552.51	93.62
552.68	0.00
552.84	93.62
553.01	79.58
553.18	100.64
553.34	117.03
553.51	79.58
553.67	46.81
553.84	100.64
554.01	95.96
554.17	42.13
554.34	86.60
554.51	140.43
554.67	114.69
554.84	112.35
555.00	56.17
555.17	102.98
555.33	37.45
555.50	112.35
555.67	56.17
555.83	70.22
556.00	131.07
556.16	114.69
556.33	147.45
556.50	72.56
556.66	86.60
556.83	70.22
556.99	74.90
557.16	138.09
557.32	161.50
557.49	58.51
557.65	93.62
557.82	86.60
557.98	70.22
558.15	121.71
558.32	156.82
558.48	74.90
558.65	91.28
558.81	81.92
558.98	124.05
559.14	154.48
559.31	107.66
559.47	133.41
559.64	79.58
559.80	74.90
559.97	35.11
560.13	70.22
560.30	63.19
560.46	39.79
560.63	170.86
560.79	98.30
560.96	56.17
561.12	81.92
561.29	14.04
561.45	121.71
561.61	138.09
561.78	100.64
561.94	67.88
562.11	49.15
562.27	107.66
562.44	37.45
562.60	9.36
562.77	93.62
562.93	105.32
563.10	58.51
563.26	49.15
563.42	53.83
563.59	37.45
563.75	86.60
563.92	110.01
564.08	44.47
564.24	121.71
564.41	65.54
564.57	21.06
564.74	88.94
564.90	39.79
565.07	67.88
565.23	39.79
565.39	84.26
565.56	102.98
565.72	37.45
565.88	65.54
566.05	28.09
566.21	121.71
566.38	84.26
566.54	95.96
566.70	95.96
566.87	37.45
567.03	72.56
567.19	102.98
567.36	114.69
567.52	98.30
567.68	39.79
567.85	117.03
568.01	60.85
568.17	121.71
568.34	133.41
568.50	63.19
568.66	74.90
568.83	105.32
568.99	112.35
569.15	110.01
569.32	0.00
569.48	135.75
569.64	84.26
569.81	86.60
569.97	0.00
570.13	46.81
570.30	117.03
570.46	77.24
570.62	91.28
570.78	126.39
570.95	105.32
571.11	72.56
571.27	14.04
571.43	23.41
571.60	124.05
571.76	107.66
571.92	126.39
572.09	98.30
572.25	4.68
572.41	98.30
572.57	0.00
572.74	18.72
572.90	58.51
573.06	142.77
573.22	100.64
573.38	135.75
573.55	51.49
573.71	25.75
573.87	30.43
574.03	28.09
574.20	133.41
574.36	81.92
574.52	58.51
574.68	42.13
574.84	37.45
575.01	28.09
575.17	93.62
575.33	9.36
575.49	44.47
575.65	98.30
575.82	93.62
575.98	60.85
576.14	74.90
576.30	121.71
576.46	51.49
576.62	56.17
576.79	133.41
576.95	56.17
577.11	46.81
577.27	72.56
577.43	44.47
577.59	170.86
577.75	119.37
577.92	67.88
578.08	77.24
578.24	65.54
578.40	46.81
578.56	88.94
578.72	124.05
578.88	114.69
579.04	105.32
579.21	72.56
579.37	126.39
579.53	107.66
579.69	117.03
579.85	142.77
580.01	4.68
580.17	88.94
580.33	131.07
580.49	51.49
580.65	135.75
580.82	105.32
580.98	117.03
581.14	72.56
581.30	74.90
581.46	51.49
581.62	11.70
581.78	100.64
581.94	39.79
582.10	112.35
582.26	147.45
582.42	84.26
582.58	60.85
582.74	86.60
582.90	102.98
583.06	121.71
583.22	58.51
583.38	93.62
583.54	60.85
583.70	37.45
583.86	98.30
584.02	77.24
584.18	88.94
584.34	56.17
584.50	53.83
584.66	63.19
584.82	65.54
584.98	100.64
585.14	84.26
585.30	49.15
585.46	88.94
585.62	152.13
585.78	86.60
585.94	72.56
586.10	140.43
586.26	65.54
586.42	23.41
586.58	63.19
586.74	70.22
586.90	0.00
587.06	98.30
587.22	32.77
587.38	67.88
587.54	93.62
587.70	74.90
587.86	39.79
588.02	84.26
588.18	0.00
588.34	35.11
588.49	18.72
588.65	84.26
588.81	65.54
588.97	42.13
589.13	32.77
589.29	0.00
589.45	51.49
589.61	88.94
589.77	91.28
589.93	95.96
590.08	14.04
590.24	126.39
590.40	91.28
590.56	126.39
590.72	107.66
590.88	46.81
591.04	135.75
591.20	79.58
591.35	152.13
591.51	39.79
591.67	46.81
591.83	91.28
591.99	9.36
592.15	67.88
592.31	63.19
592.46	0.00
592.62	23.41
592.78	81.92
592.94	74.90
593.10	49.15
593.26	70.22
593.41	102.98
593.57	42.13
593.73	0.00
593.89	135.75
594.05	56.17
594.20	11.70
594.36	49.15
594.52	42.13
594.68	105.32
594.84	25.75
594.99	65.54
595.15	53.83
595.31	44.47
595.47	102.98
595.62	63.19
595.78	100.64
595.94	14.04
596.10	65.54
596.25	126.39
596.41	93.62
596.57	67.88
596.73	16.38
596.88	16.38
597.04	32.77
597.20	0.00
597.36	88.94
597.51	220.01
597.67	23.41
597.83	14.04
597.99	74.90
598.14	0.00
598.30	138.09
598.46	0.00
598.61	0.00
598.77	77.24
598.93	39.79
599.09	138.09
599.24	86.60
599.40	35.11
599.56	65.54
599.71	74.90
599.87	70.22
600.03	32.77
600.18	65.54
600.34	77.24
600.50	35.11
600.65	42.13
600.81	51.49
600.97	88.94
601.12	124.05
601.28	93.62
601.44	51.49
601.59	42.13
601.75	81.92
601.91	51.49
602.06	7.02
602.22	18.72
602.37	81.92
602.53	32.77
602.69	46.81
602.84	88.94
603.00	93.62
603.16	91.28
603.31	65.54
603.47	112.35
603.62	58.51
603.78	131.07
603.94	53.83
604.09	100.64
604.25	25.75
604.40	49.15
604.56	4.68
604.71	121.71
604.87	110.01
605.03	63.19
605.18	114.69
605.34	60.85
605.49	0.00
605.65	81.92
605.80	72.56
605.96	72.56
606.12	72.56
606.27	37.45
606.43	16.38
606.58	60.85
606.74	18.72
606.89	65.54
607.05	74.90
607.20	51.49
607.36	133.41
607.51	37.45
607.67	25.75
607.82	67.88
607.98	14.04
608.13	74.90
608.29	72.56
608.44	28.09
608.60	126.39
608.75	53.83
608.91	7.02
609.06	88.94
609.22	63.19
609.37	9.36
609.53	53.83
609.68	46.81
609.84	65.54
609.99	110.01
610.15	77.24
610.30	65.54
610.46	107.66
610.61	152.13
610.76	37.45
610.92	16.38
611.07	102.98
611.23	21.06
611.38	86.60
611.54	58.51
611.69	102.98
611.84	77.24
612.00	44.47
612.15	114.69
612.31	60.85
612.46	28.09
612.62	93.62
612.77	16.38
612.92	4.68
613.08	0.00
613.23	37.45
613.39	49.15
613.54	102.98
613.69	42.13
613.85	0.00
614.00	0.00
614.15	102.98
614.31	44.47
614.46	84.26
614.62	49.15
614.77	58.51
614.92	63.19
615.08	28.09
615.23	88.94
615.38	32.77
615.54	35.11
615.69	4.68
615.84	28.09
616.00	28.09
616.15	124.05
616.30	70.22
616.46	86.60
616.61	126.39
616.76	128.73
616.92	42.13
617.07	79.58
617.22	35.11
617.37	25.75
617.53	39.79
617.68	105.32
617.83	95.96
617.99	0.00
618.14	63.19
618.29	0.00
618.45	100.64
618.60	63.19
618.75	32.77
618.90	18.72
619.06	70.22
619.21	119.37
619.36	37.45
619.51	91.28
619.67	65.54
619.82	30.43
619.97	49.15
620.12	79.58
620.28	60.85
620.43	77.24
620.58	44.47
620.73	0.00
620.89	51.49
621.04	74.90
621.19	60.85
621.34	67.88
621.49	77.24
621.65	124.05
621.80	53.83
621.95	88.94
622.10	46.81
622.25	79.58
622.41	51.49
622.56	0.00
622.71	98.30
622.86	25.75
623.01	18.72
623.16	74.90
623.32	4.68
623.47	114.69
623.62	30.43
623.77	126.39
623.92	65.54
624.07	37.45
624.23	70.22
624.38	72.56
624.53	152.13
624.68	18.72
624.83	65.54
624.98	107.66
625.13	37.45
625.29	60.85
625.44	37.45
625.59	88.94
625.74	49.15
625.89	56.17
626.04	16.38
626.19	46.81
626.34	133.41
626.49	65.54
626.65	65.54
626.80	14.04
626.95	107.66
627.10	110.01
627.25	117.03
627.40	53.83
627.55	84.26
627.70	18.72
627.85	67.88
628.00	114.69
628.15	93.62
628.30	65.54
628.45	58.51
628.60	51.49
628.76	131.07
628.91	0.00
629.06	72.56
629.21	16.38
629.36	14.04
629.51	0.00
629.66	30.43
629.81	56.17
629.96	81.92
630.11	44.47
630.26	74.90
630.41	128.73
630.56	51.49
630.71	0.00
630.86	74.90
631.01	74.90
631.16	18.72
631.31	91.28
631.46	16.38
631.61	88.94
631.76	44.47
631.91	100.64
632.06	88.94
632.21	30.43
632.36	2.34
632.51	175.54
632.66	84.26
632.81	51.49
632.96	102.98
633.10	112.35
633.25	42.13
633.40	70.22
633.55	49.15
633.70	79.58
633.85	60.85
634.00	30.43
634.15	72.56
634.30	121.71
634.45	70.22
634.60	93.62
634.75	117.03
634.90	51.49
635.05	0.00
635.19	81.92
635.34	114.69
635.49	65.54
635.64	0.00
635.79	51.49
635.94	42.13
636.09	74.90
636.24	44.47
636.39	0.00
636.53	35.11
636.68	93.62
636.83	81.92
636.98	84.26
637.13	60.85
637.28	81.92
637.43	53.83
637.57	35.11
637.72	145.11
637.87	51.49
638.02	70.22
638.17	51.49
638.32	84.26
638.46	91.28
638.61	86.60
638.76	4.68
638.91	72.56
639.06	128.73
639.20	86.60
639.35	84.26
639.50	98.30
639.65	72.56
639.80	44.47
639.94	42.13
640.09	58.51
640.24	112.35
640.39	98.30
640.54	39.79
640.68	84.26
640.83	63.19
640.98	93.62
641.13	81.92
641.27	44.47
641.42	77.24
641.57	86.60
641.72	63.19
641.86	16.38
642.01	77.24
642.16	11.70
642.31	16.38
642.45	135.75
642.60	37.45
642.75	49.15
642.90	46.81
643.04	95.96
643.19	49.15
643.34	0.00
643.48	30.43
643.63	37.45
643.78	72.56
643.93	39.79
644.07	39.79
644.22	37.45
644.37	14.04
644.51	79.58
644.66	25.75
644.81	67.88
644.95	60.85
645.10	0.00
645.25	0.00
645.39	88.94
645.54	18.72
645.69	81.92
645.83	39.79
645.98	25.75
646.13	0.00
646.27	102.98
646.42	56.17
646.57	74.90
646.71	0.00
646.86	72.56
647.00	70.22
647.15	35.11
647.30	0.00
647.44	86.60
647.59	39.79
647.74	84.26
647.88	145.11
648.03	56.17
648.17	77.24
648.32	4.68
648.47	11.70
648.61	49.15
648.76	14.04
648.90	95.96
649.05	46.81
649.20	67.88
649.34	11.70
649.49	51.49
649.63	70.22
649.78	37.45
649.92	0.00
650.07	11.70
650.21	25.75
650.36	67.88
650.51	79.58
650.65	65.54
650.80	0.00
650.94	4.68
651.09	63.19
651.23	37.45
651.38	39.79
651.52	98.30
651.67	37.45
651.81	39.79
651.96	60.85
652.10	49.15
652.25	21.06
652.39	88.94
652.54	81.92
652.68	7.02
652.83	93.62
652.97	102.98
653.12	79.58
653.26	46.81
653.41	91.28
653.55	21.06
653.70	51.49
653.84	32.77
653.99	95.96
654.13	11.70
654.27	72.56
654.42	23.41
654.56	2.34
654.71	0.00
654.85	4.68
655.00	56.17
655.14	81.92
655.29	74.90
655.43	39.79
655.57	16.38
655.72	28.09
655.86	42.13
656.01	74.90
656.15	23.41
656.30	86.60
656.44	84.26
656.58	42.13
656.73	0.00
656.87	70.22
657.01	74.90
657.16	74.90
657.30	23.41
657.45	39.79
657.59	91.28
657.73	56.17
657.88	7.02
658.02	35.11
658.16	79.58
658.31	51.49
658.45	74.90
658.60	0.00
658.74	67.88
658.88	23.41
659.03	9.36
659.17	67.88
659.31	84.26
659.46	131.07
659.60	37.45
659.74	72.56
659.89	18.72
660.03	128.73
660.17	72.56
660.32	100.64
660.46	28.09
660.60	81.92
660.74	35.11
660.89	60.85
661.03	0.00
661.17	60.85
661.32	63.19
661.46	42.13
661.60	0.00
661.74	46.81
661.89	37.45
662.03	28.09
662.17	74.90
662.31	28.09
662.46	105.32
662.60	72.56
662.74	67.88
662.88	95.96
663.03	77.24
663.17	39.79
663.31	86.60
663.45	23.41
663.60	46.81
663.74	46.81
663.88	117.03
664.02	63.19
664.17	4.68
664.31	56.17
664.45	39.79
664.59	7.02
664.73	117.03
664.88	81.92
665.02	58.51
665.16	74.90
665.30	133.41
665.44	2.34
665.59	86.60
665.73	77.24
665.87	21.06
666.01	60.85
666.15	0.00
666.29	88.94
666.44	126.39
666.58	42.13
666.72	88.94
666.86	93.62
667.00	77.24
667.14	0.00
667.28	35.11
667.43	30.43
667.57	126.39
667.71	58.51
667.85	88.94
667.99	56.17
668.13	56.17
668.27	79.58
668.41	21.06
668.56	32.77
668.70	114.69
668.84	58.51
668.98	4.68
669.12	16.38
669.26	49.15
669.40	28.09
669.54	86.60
669.68	49.15
669.82	39.79
669.96	102.98
670.10	7.02
670.25	79.58
670.39	56.17
670.53	21.06
670.67	42.13
670.81	128.73
670.95	49.15
671.09	51.49
671.23	11.70
671.37	117.03
671.51	0.00
671.65	105.32
671.79	67.88
671.93	81.92
672.07	53.83
672.21	0.00
672.35	42.13
672.49	77.24
672.63	51.49
672.77	112.35
672.91	9.36
673.05	60.85
673.19	72.56
673.33	16.38
673.47	9.36
673.61	9.36
673.75	105.32
673.89	32.77
674.03	88.94
674.17	63.19
674.31	95.96
674.45	77.24
674.59	16.38
674.73	67.88
674.87	63.19
675.01	39.79
675.15	28.09
675.29	11.70
675.43	23.41
675.56	37.45
675.70	25.75
675.84	63.19
675.98	65.54
676.12	56.17
676.26	0.00
676.40	93.62
676.54	0.00
676.68	65.54
676.82	9.36
676.96	28.09
677.10	30.43
677.23	60.85
677.37	67.88
677.51	39.79
677.65	46.81
677.79	46.81
677.93	39.79
678.07	81.92
678.21	9.36
678.34	0.00
678.48	0.00
678.62	81.92
678.76	0.00
678.90	95.96
679.04	0.00
679.18	65.54
679.31	53.83
679.45	53.83
679.59	0.00
679.73	46.81
679.87	44.47
680.00	95.96
680.14	49.15
680.28	58.51
680.42	0.00
680.56	53.83
680.70	91.28
680.83	74.90
680.97	42.13
681.11	25.75
681.25	11.70
681.39	100.64
681.52	37.45
681.66	60.85
681.80	16.38
681.94	30.43
682.07	14.04
682.21	65.54
682.35	18.72
682.49	42.13
682.62	60.85
682.76	11.70
682.90	42.13
683.04	53.83
683.17	46.81
683.31	25.75
683.45	93.62
683.59	77.24
683.72	67.88
683.86	91.28
684.00	46.81
684.13	51.49
684.27	0.00
684.41	0.00
684.55	18.72
684.68	77.24
684.82	0.00
684.96	46.81
685.09	25.75
685.23	14.04
685.37	25.75
685.50	37.45
685.64	79.58
685.78	46.81
685.91	0.00
686.05	67.88
686.19	39.79
686.32	98.30
686.46	58.51
686.60	70.22
686.73	70.22
686.87	79.58
687.01	18.72
687.14	49.15
687.28	39.79
687.42	37.45
687.55	4.68
687.69	25.75
687.82	0.00
687.96	44.47
688.10	42.13
688.23	0.00
688.37	63.19
688.50	16.38
688.64	28.09
688.78	21.06
688.91	56.17
689.05	0.00
689.18	53.83
689.32	65.54
689.46	39.79
689.59	0.00
689.73	0.00
689.86	37.45
690.00	0.00
690.13	0.00
690.27	14.04
690.41	0.00
690.54	60.85
690.68	37.45
690.81	21.06
690.95	0.00
691.08	0.00
691.22	91.28
691.35	79.58
691.49	14.04
691.62	53.83
691.76	0.00
691.89	46.81
692.03	63.19
692.16	32.77
692.30	42.13
692.43	67.88
692.57	23.41
692.70	30.43
692.84	77.24
692.97	88.94
693.11	42.13
693.24	42.13
693.38	0.00
693.51	35.11
693.65	14.04
693.78	51.49
693.92	0.00
694.05	35.11
694.19	9.36
694.32	65.54
694.45	7.02
694.59	67.88
694.72	39.79
694.86	11.70
694.99	7.02
695.13	0.00
695.26	32.77
695.39	95.96
695.53	0.00
695.66	0.00
695.80	58.51
695.93	44.47
696.07	14.04
696.20	32.77
696.33	11.70
696.47	72.56
696.60	25.75
696.73	49.15
696.87	70.22
697.00	42.13
697.14	98.30
697.27	44.47
697.40	35.11
697.54	42.13
697.67	46.81
697.80	51.49
697.94	58.51
698.07	46.81
698.21	14.04
698.34	95.96
698.47	79.58
698.61	60.85
698.74	95.96
698.87	70.22
699.01	16.38
699.14	18.72
699.27	0.00
699.40	0.00
699.54	93.62
699.67	100.64
699.80	95.96
699.94	44.47
700.07	25.75
700.20	58.51
700.34	9.36
700.47	72.56
700.60	2.34
700.73	18.72
700.87	37.45
701.00	30.43
701.13	0.00
701.26	23.41
701.40	18.72
701.53	23.41
701.66	49.15
701.79	2.34
701.93	18.72
702.06	25.75
702.19	0.00
702.32	44.47
702.46	28.09
702.59	0.00
702.72	81.92
702.85	46.81
702.99	18.72
703.12	7.02
703.25	23.41
703.38	23.41
703.51	39.79
703.65	46.81
703.78	37.45
703.91	32.77
704.04	42.13
704.17	37.45
704.31	88.94
704.44	56.17
704.57	49.15
704.70	79.58
704.83	21.06
704.96	14.04
705.10	44.47
705.23	35.11
>>>>>End Processed Spectral Data<<<<<
