SpectraSuite Data File
++++++++++++++++++++++++++++++++++++
Date: Fri Oct 04 12:13:41 GMT-05:00 2013
User: price-jones
Dark Spectrum Present: No
Reference Spectrum Present: No
Number of Sampled Component Spectra: 1
Spectrometers: USB2+H05261
Integration Time (usec): 10000 (USB2+H05261)
Spectra Averaged: 1 (USB2+H05261)
Boxcar Smoothing: 0 (USB2+H05261)
Correct for Electrical Dark: No (USB2+H05261)
Strobe/Lamp Enabled: No (USB2+H05261)
Correct for Detector Non-linearity: No (USB2+H05261)
Correct for Stray Light: No (USB2+H05261)
Number of Pixels in Processed Spectrum: 2048
>>>>>Begin Processed Spectral Data<<<<<
365.73	7.02
365.92	7.02
366.12	7.02
366.32	0.00
366.52	0.00
366.72	0.00
366.91	0.00
367.11	0.00
367.31	0.00
367.51	0.00
367.70	0.00
367.90	0.00
368.10	0.00
368.30	0.00
368.49	0.00
368.69	0.00
368.89	0.00
369.09	0.00
369.28	0.00
369.48	0.00
369.68	0.00
369.87	0.00
370.07	0.00
370.27	0.00
370.47	0.00
370.66	0.00
370.86	0.00
371.06	0.00
371.25	0.00
371.45	0.00
371.65	37.45
371.84	0.00
372.04	53.83
372.24	0.00
372.44	0.00
372.63	23.41
372.83	0.00
373.03	0.00
373.22	0.00
373.42	0.00
373.62	72.56
373.81	112.35
374.01	0.00
374.21	14.04
374.40	39.79
374.60	0.00
374.79	11.70
374.99	65.54
375.19	58.51
375.38	53.83
375.58	72.56
375.78	0.00
375.97	44.47
376.17	0.00
376.37	0.00
376.56	0.00
376.76	95.96
376.95	25.75
377.15	28.09
377.35	0.00
377.54	9.36
377.74	30.43
377.93	42.13
378.13	21.06
378.33	0.00
378.52	0.00
378.72	44.47
378.91	65.54
379.11	0.00
379.31	46.81
379.50	23.41
379.70	32.77
379.89	25.75
380.09	44.47
380.28	0.00
380.48	30.43
380.68	11.70
380.87	2.34
381.07	145.11
381.26	0.00
381.46	60.85
381.65	81.92
381.85	42.13
382.04	107.66
382.24	70.22
382.43	39.79
382.63	77.24
382.83	0.00
383.02	28.09
383.22	0.00
383.41	4.68
383.61	70.22
383.80	30.43
384.00	0.00
384.19	0.00
384.39	16.38
384.58	91.28
384.78	53.83
384.97	16.38
385.17	32.77
385.36	49.15
385.56	91.28
385.75	0.00
385.95	51.49
386.14	81.92
386.34	67.88
386.53	9.36
386.72	0.00
386.92	91.28
387.11	11.70
387.31	0.00
387.50	81.92
387.70	16.38
387.89	16.38
388.09	37.45
388.28	46.81
388.48	63.19
388.67	23.41
388.86	67.88
389.06	9.36
389.25	46.81
389.45	14.04
389.64	42.13
389.84	74.90
390.03	0.00
390.22	53.83
390.42	0.00
390.61	58.51
390.81	51.49
391.00	58.51
391.19	16.38
391.39	11.70
391.58	44.47
391.78	7.02
391.97	0.00
392.16	0.00
392.36	56.17
392.55	84.26
392.75	37.45
392.94	63.19
393.13	16.38
393.33	58.51
393.52	0.00
393.71	23.41
393.91	58.51
394.10	11.70
394.29	11.70
394.49	32.77
394.68	7.02
394.88	25.75
395.07	86.60
395.26	0.00
395.46	25.75
395.65	32.77
395.84	4.68
396.04	74.90
396.23	7.02
396.42	0.00
396.62	0.00
396.81	39.79
397.00	58.51
397.19	32.77
397.39	0.00
397.58	49.15
397.77	16.38
397.97	14.04
398.16	0.00
398.35	25.75
398.55	35.11
398.74	65.54
398.93	0.00
399.12	65.54
399.32	21.06
399.51	21.06
399.70	28.09
399.90	7.02
400.09	28.09
400.28	44.47
400.47	58.51
400.67	7.02
400.86	0.00
401.05	25.75
401.24	9.36
401.44	4.68
401.63	0.00
401.82	56.17
402.01	51.49
402.21	0.00
402.40	0.00
402.59	0.00
402.78	44.47
402.97	0.00
403.17	46.81
403.36	58.51
403.55	0.00
403.74	51.49
403.93	9.36
404.13	0.00
404.32	63.19
404.51	100.64
404.70	49.15
404.89	37.45
405.09	49.15
405.28	39.79
405.47	42.13
405.66	18.72
405.85	16.38
406.05	7.02
406.24	37.45
406.43	49.15
406.62	4.68
406.81	16.38
407.00	0.00
407.20	79.58
407.39	39.79
407.58	77.24
407.77	124.05
407.96	63.19
408.15	81.92
408.34	14.04
408.54	70.22
408.73	32.77
408.92	65.54
409.11	77.24
409.30	56.17
409.49	23.41
409.68	60.85
409.87	58.51
410.07	58.51
410.26	18.72
410.45	46.81
410.64	0.00
410.83	25.75
411.02	23.41
411.21	74.90
411.40	0.00
411.59	42.13
411.78	0.00
411.98	0.00
412.17	46.81
412.36	0.00
412.55	18.72
412.74	7.02
412.93	18.72
413.12	16.38
413.31	63.19
413.50	18.72
413.69	77.24
413.88	77.24
414.07	58.51
414.26	39.79
414.45	23.41
414.64	65.54
414.83	44.47
415.02	72.56
415.22	91.28
415.41	65.54
415.60	77.24
415.79	0.00
415.98	58.51
416.17	0.00
416.36	16.38
416.55	4.68
416.74	65.54
416.93	44.47
417.12	86.60
417.31	0.00
417.50	0.00
417.69	0.00
417.88	28.09
418.07	4.68
418.26	81.92
418.45	67.88
418.64	56.17
418.83	7.02
419.02	79.58
419.21	4.68
419.39	46.81
419.58	42.13
419.77	44.47
419.96	37.45
420.15	56.17
420.34	93.62
420.53	60.85
420.72	60.85
420.91	56.17
421.10	56.17
421.29	46.81
421.48	0.00
421.67	35.11
421.86	21.06
422.05	60.85
422.24	95.96
422.43	67.88
422.61	28.09
422.80	0.00
422.99	18.72
423.18	39.79
423.37	72.56
423.56	79.58
423.75	72.56
423.94	42.13
424.13	84.26
424.32	32.77
424.50	86.60
424.69	25.75
424.88	44.47
425.07	49.15
425.26	53.83
425.45	46.81
425.64	0.00
425.83	7.02
426.01	44.47
426.20	9.36
426.39	30.43
426.58	14.04
426.77	42.13
426.96	51.49
427.15	58.51
427.33	14.04
427.52	110.01
427.71	100.64
427.90	100.64
428.09	28.09
428.28	44.47
428.46	30.43
428.65	9.36
428.84	51.49
429.03	9.36
429.22	21.06
429.40	0.00
429.59	0.00
429.78	74.90
429.97	65.54
430.16	46.81
430.34	42.13
430.53	4.68
430.72	100.64
430.91	0.00
431.10	32.77
431.28	84.26
431.47	70.22
431.66	58.51
431.85	98.30
432.03	0.00
432.22	58.51
432.41	53.83
432.60	84.26
432.79	39.79
432.97	93.62
433.16	56.17
433.35	56.17
433.54	86.60
433.72	100.64
433.91	131.07
434.10	58.51
434.28	91.28
434.47	49.15
434.66	79.58
434.85	21.06
435.03	77.24
435.22	11.70
435.41	9.36
435.59	0.00
435.78	93.62
435.97	18.72
436.16	67.88
436.34	53.83
436.53	46.81
436.72	74.90
436.90	53.83
437.09	107.66
437.28	37.45
437.46	105.32
437.65	56.17
437.84	7.02
438.02	23.41
438.21	0.00
438.40	88.94
438.58	46.81
438.77	88.94
438.96	65.54
439.14	51.49
439.33	0.00
439.52	0.00
439.70	88.94
439.89	60.85
440.08	107.66
440.26	30.43
440.45	74.90
440.63	0.00
440.82	30.43
441.01	58.51
441.19	39.79
441.38	51.49
441.57	0.00
441.75	7.02
441.94	63.19
442.12	84.26
442.31	72.56
442.50	79.58
442.68	67.88
442.87	0.00
443.05	77.24
443.24	0.00
443.43	74.90
443.61	100.64
443.80	51.49
443.98	28.09
444.17	67.88
444.35	42.13
444.54	44.47
444.73	32.77
444.91	28.09
445.10	44.47
445.28	9.36
445.47	65.54
445.65	112.35
445.84	42.13
446.02	72.56
446.21	72.56
446.39	11.70
446.58	86.60
446.77	23.41
446.95	84.26
447.14	0.00
447.32	0.00
447.51	28.09
447.69	60.85
447.88	46.81
448.06	0.00
448.25	0.00
448.43	53.83
448.62	142.77
448.80	81.92
448.99	86.60
449.17	121.71
449.36	35.11
449.54	63.19
449.73	14.04
449.91	21.06
450.10	95.96
450.28	77.24
450.46	74.90
450.65	58.51
450.83	16.38
451.02	95.96
451.20	42.13
451.39	49.15
451.57	81.92
451.76	77.24
451.94	2.34
452.13	11.70
452.31	63.19
452.49	42.13
452.68	39.79
452.86	63.19
453.05	37.45
453.23	67.88
453.42	35.11
453.60	88.94
453.78	56.17
453.97	39.79
454.15	67.88
454.34	72.56
454.52	100.64
454.70	0.00
454.89	37.45
455.07	110.01
455.26	74.90
455.44	23.41
455.62	23.41
455.81	7.02
455.99	102.98
456.17	60.85
456.36	91.28
456.54	0.00
456.73	56.17
456.91	65.54
457.09	100.64
457.28	70.22
457.46	23.41
457.64	63.19
457.83	110.01
458.01	32.77
458.19	95.96
458.38	28.09
458.56	4.68
458.74	28.09
458.93	105.32
459.11	72.56
459.29	53.83
459.48	42.13
459.66	0.00
459.84	18.72
460.03	84.26
460.21	0.00
460.39	0.00
460.57	67.88
460.76	77.24
460.94	39.79
461.12	91.28
461.31	91.28
461.49	67.88
461.67	30.43
461.85	9.36
462.04	56.17
462.22	93.62
462.40	95.96
462.59	30.43
462.77	9.36
462.95	51.49
463.13	46.81
463.32	77.24
463.50	51.49
463.68	72.56
463.86	86.60
464.05	63.19
464.23	56.17
464.41	35.11
464.59	4.68
464.78	51.49
464.96	77.24
465.14	112.35
465.32	39.79
465.50	142.77
465.69	112.35
465.87	60.85
466.05	51.49
466.23	49.15
466.41	65.54
466.60	60.85
466.78	0.00
466.96	98.30
467.14	9.36
467.32	86.60
467.51	11.70
467.69	56.17
467.87	72.56
468.05	60.85
468.23	44.47
468.41	46.81
468.60	18.72
468.78	58.51
468.96	72.56
469.14	23.41
469.32	95.96
469.50	88.94
469.69	60.85
469.87	72.56
470.05	72.56
470.23	16.38
470.41	79.58
470.59	37.45
470.77	9.36
470.95	0.00
471.14	72.56
471.32	25.75
471.50	30.43
471.68	46.81
471.86	51.49
472.04	0.00
472.22	0.00
472.40	105.32
472.58	9.36
472.77	79.58
472.95	51.49
473.13	58.51
473.31	63.19
473.49	63.19
473.67	53.83
473.85	126.39
474.03	67.88
474.21	79.58
474.39	39.79
474.57	35.11
474.75	63.19
474.93	79.58
475.12	107.66
475.30	154.48
475.48	67.88
475.66	128.73
475.84	42.13
476.02	53.83
476.20	133.41
476.38	65.54
476.56	121.71
476.74	14.04
476.92	37.45
477.10	88.94
477.28	32.77
477.46	0.00
477.64	77.24
477.82	46.81
478.00	67.88
478.18	72.56
478.36	32.77
478.54	23.41
478.72	2.34
478.90	72.56
479.08	30.43
479.26	49.15
479.44	32.77
479.62	42.13
479.80	138.09
479.98	95.96
480.16	77.24
480.34	107.66
480.52	56.17
480.70	63.19
480.88	46.81
481.06	102.98
481.24	86.60
481.41	142.77
481.59	44.47
481.77	42.13
481.95	91.28
482.13	56.17
482.31	79.58
482.49	0.00
482.67	58.51
482.85	39.79
483.03	37.45
483.21	37.45
483.39	11.70
483.57	67.88
483.74	74.90
483.92	105.32
484.10	93.62
484.28	23.41
484.46	79.58
484.64	42.13
484.82	46.81
485.00	30.43
485.18	39.79
485.35	133.41
485.53	72.56
485.71	39.79
485.89	44.47
486.07	88.94
486.25	128.73
486.43	51.49
486.61	79.58
486.78	0.00
486.96	11.70
487.14	63.19
487.32	46.81
487.50	56.17
487.68	28.09
487.85	74.90
488.03	77.24
488.21	60.85
488.39	81.92
488.57	79.58
488.75	72.56
488.92	110.01
489.10	0.00
489.28	32.77
489.46	4.68
489.64	46.81
489.81	65.54
489.99	70.22
490.17	98.30
490.35	126.39
490.53	21.06
490.70	117.03
490.88	126.39
491.06	88.94
491.24	23.41
491.41	67.88
491.59	121.71
491.77	84.26
491.95	28.09
492.13	35.11
492.30	110.01
492.48	0.00
492.66	107.66
492.84	133.41
493.01	63.19
493.19	154.48
493.37	81.92
493.54	93.62
493.72	112.35
493.90	11.70
494.08	58.51
494.25	39.79
494.43	86.60
494.61	81.92
494.79	79.58
494.96	21.06
495.14	86.60
495.32	30.43
495.49	74.90
495.67	37.45
495.85	72.56
496.02	53.83
496.20	81.92
496.38	95.96
496.55	147.45
496.73	131.07
496.91	84.26
497.09	98.30
497.26	88.94
497.44	81.92
497.62	44.47
497.79	32.77
497.97	14.04
498.14	86.60
498.32	133.41
498.50	95.96
498.67	60.85
498.85	53.83
499.03	124.05
499.20	28.09
499.38	51.49
499.56	49.15
499.73	98.30
499.91	95.96
500.08	46.81
500.26	131.07
500.44	161.50
500.61	100.64
500.79	135.75
500.97	95.96
501.14	39.79
501.32	98.30
501.49	121.71
501.67	49.15
501.84	46.81
502.02	105.32
502.20	98.30
502.37	91.28
502.55	49.15
502.72	28.09
502.90	121.71
503.07	114.69
503.25	0.00
503.43	51.49
503.60	126.39
503.78	58.51
503.95	98.30
504.13	98.30
504.30	147.45
504.48	152.13
504.65	60.85
504.83	81.92
505.01	86.60
505.18	95.96
505.36	56.17
505.53	84.26
505.71	37.45
505.88	79.58
506.06	100.64
506.23	70.22
506.41	0.00
506.58	30.43
506.76	49.15
506.93	4.68
507.11	37.45
507.28	65.54
507.46	51.49
507.63	46.81
507.81	124.05
507.98	117.03
508.16	74.90
508.33	63.19
508.50	95.96
508.68	121.71
508.85	30.43
509.03	170.86
509.20	53.83
509.38	119.37
509.55	133.41
509.73	72.56
509.90	72.56
510.08	21.06
510.25	37.45
510.42	37.45
510.60	30.43
510.77	77.24
510.95	42.13
511.12	93.62
511.30	140.43
511.47	93.62
511.64	131.07
511.82	95.96
511.99	107.66
512.17	44.47
512.34	58.51
512.51	18.72
512.69	86.60
512.86	63.19
513.04	107.66
513.21	63.19
513.38	67.88
513.56	88.94
513.73	74.90
513.90	37.45
514.08	28.09
514.25	46.81
514.43	58.51
514.60	72.56
514.77	147.45
514.95	65.54
515.12	67.88
515.29	126.39
515.47	67.88
515.64	79.58
515.81	91.28
515.99	30.43
516.16	149.79
516.33	63.19
516.51	49.15
516.68	81.92
516.85	60.85
517.03	86.60
517.20	88.94
517.37	119.37
517.54	65.54
517.72	84.26
517.89	140.43
518.06	105.32
518.24	112.35
518.41	95.96
518.58	93.62
518.75	79.58
518.93	77.24
519.10	67.88
519.27	81.92
519.45	39.79
519.62	42.13
519.79	121.71
519.96	112.35
520.14	100.64
520.31	77.24
520.48	44.47
520.65	102.98
520.83	79.58
521.00	79.58
521.17	84.26
521.34	63.19
521.52	117.03
521.69	102.98
521.86	63.19
522.03	112.35
522.20	51.49
522.38	70.22
522.55	88.94
522.72	56.17
522.89	32.77
523.07	51.49
523.24	81.92
523.41	51.49
523.58	84.26
523.75	131.07
523.92	51.49
524.10	119.37
524.27	93.62
524.44	63.19
524.61	39.79
524.78	67.88
524.96	72.56
525.13	110.01
525.30	4.68
525.47	126.39
525.64	37.45
525.81	121.71
525.98	77.24
526.16	84.26
526.33	37.45
526.50	114.69
526.67	63.19
526.84	86.60
527.01	56.17
527.18	93.62
527.36	84.26
527.53	138.09
527.70	114.69
527.87	98.30
528.04	135.75
528.21	51.49
528.38	79.58
528.55	86.60
528.72	63.19
528.89	107.66
529.07	53.83
529.24	72.56
529.41	102.98
529.58	149.79
529.75	79.58
529.92	70.22
530.09	112.35
530.26	42.13
530.43	42.13
530.60	140.43
530.77	65.54
530.94	51.49
531.11	100.64
531.28	60.85
531.46	93.62
531.63	93.62
531.80	128.73
531.97	53.83
532.14	56.17
532.31	30.43
532.48	102.98
532.65	79.58
532.82	128.73
532.99	28.09
533.16	110.01
533.33	44.47
533.50	74.90
533.67	58.51
533.84	70.22
534.01	142.77
534.18	95.96
534.35	67.88
534.52	145.11
534.69	105.32
534.86	63.19
535.03	88.94
535.20	9.36
535.37	91.28
535.54	88.94
535.71	135.75
535.88	35.11
536.05	72.56
536.22	72.56
536.38	154.48
536.55	70.22
536.72	93.62
536.89	18.72
537.06	131.07
537.23	117.03
537.40	35.11
537.57	51.49
537.74	100.64
537.91	79.58
538.08	100.64
538.25	142.77
538.42	110.01
538.59	110.01
538.75	60.85
538.92	84.26
539.09	42.13
539.26	81.92
539.43	102.98
539.60	112.35
539.77	79.58
539.94	107.66
540.11	105.32
540.28	98.30
540.44	30.43
540.61	79.58
540.78	23.41
540.95	46.81
541.12	154.48
541.29	88.94
541.46	88.94
541.62	23.41
541.79	105.32
541.96	100.64
542.13	114.69
542.30	72.56
542.47	65.54
542.63	37.45
542.80	72.56
542.97	102.98
543.14	105.32
543.31	107.66
543.48	51.49
543.64	21.06
543.81	105.32
543.98	107.66
544.15	86.60
544.32	70.22
544.48	91.28
544.65	65.54
544.82	86.60
544.99	84.26
545.16	112.35
545.32	212.99
545.49	114.69
545.66	79.58
545.83	112.35
546.00	58.51
546.16	112.35
546.33	60.85
546.50	117.03
546.67	126.39
546.83	79.58
547.00	81.92
547.17	46.81
547.34	159.16
547.50	44.47
547.67	35.11
547.84	138.09
548.00	91.28
548.17	16.38
548.34	112.35
548.51	121.71
548.67	77.24
548.84	105.32
549.01	79.58
549.18	65.54
549.34	119.37
549.51	168.52
549.68	114.69
549.84	35.11
550.01	100.64
550.18	173.20
550.34	105.32
550.51	117.03
550.68	126.39
550.84	51.49
551.01	114.69
551.18	44.47
551.34	102.98
551.51	133.41
551.68	70.22
551.84	67.88
552.01	35.11
552.18	74.90
552.34	67.88
552.51	98.30
552.68	180.22
552.84	88.94
553.01	93.62
553.18	86.60
553.34	91.28
553.51	7.02
553.67	67.88
553.84	56.17
554.01	23.41
554.17	93.62
554.34	100.64
554.51	112.35
554.67	91.28
554.84	86.60
555.00	117.03
555.17	51.49
555.33	100.64
555.50	138.09
555.67	23.41
555.83	81.92
556.00	159.16
556.16	67.88
556.33	79.58
556.50	133.41
556.66	7.02
556.83	168.52
556.99	46.81
557.16	114.69
557.32	95.96
557.49	86.60
557.65	95.96
557.82	70.22
557.98	81.92
558.15	81.92
558.32	95.96
558.48	91.28
558.65	2.34
558.81	112.35
558.98	112.35
559.14	65.54
559.31	51.49
559.47	23.41
559.64	88.94
559.80	65.54
559.97	138.09
560.13	91.28
560.30	42.13
560.46	121.71
560.63	32.77
560.79	65.54
560.96	84.26
561.12	86.60
561.29	114.69
561.45	91.28
561.61	67.88
561.78	74.90
561.94	117.03
562.11	58.51
562.27	107.66
562.44	173.20
562.60	98.30
562.77	126.39
562.93	121.71
563.10	133.41
563.26	107.66
563.42	107.66
563.59	81.92
563.75	77.24
563.92	30.43
564.08	60.85
564.24	30.43
564.41	105.32
564.57	95.96
564.74	60.85
564.90	79.58
565.07	60.85
565.23	88.94
565.39	114.69
565.56	46.81
565.72	63.19
565.88	128.73
566.05	42.13
566.21	49.15
566.38	51.49
566.54	74.90
566.70	65.54
566.87	102.98
567.03	72.56
567.19	95.96
567.36	74.90
567.52	23.41
567.68	100.64
567.85	121.71
568.01	58.51
568.17	0.00
568.34	102.98
568.50	67.88
568.66	121.71
568.83	112.35
568.99	37.45
569.15	102.98
569.32	70.22
569.48	30.43
569.64	56.17
569.81	65.54
569.97	91.28
570.13	35.11
570.30	72.56
570.46	95.96
570.62	49.15
570.78	53.83
570.95	105.32
571.11	53.83
571.27	81.92
571.43	91.28
571.60	81.92
571.76	81.92
571.92	88.94
572.09	121.71
572.25	67.88
572.41	81.92
572.57	74.90
572.74	95.96
572.90	44.47
573.06	175.54
573.22	98.30
573.38	67.88
573.55	7.02
573.71	114.69
573.87	60.85
574.03	114.69
574.20	65.54
574.36	53.83
574.52	42.13
574.68	65.54
574.84	138.09
575.01	84.26
575.17	35.11
575.33	46.81
575.49	117.03
575.65	91.28
575.82	149.79
575.98	84.26
576.14	81.92
576.30	124.05
576.46	145.11
576.62	25.75
576.79	110.01
576.95	32.77
577.11	37.45
577.27	124.05
577.43	117.03
577.59	44.47
577.75	98.30
577.92	88.94
578.08	91.28
578.24	117.03
578.40	105.32
578.56	93.62
578.72	112.35
578.88	60.85
579.04	126.39
579.21	86.60
579.37	149.79
579.53	7.02
579.69	74.90
579.85	159.16
580.01	95.96
580.17	100.64
580.33	0.00
580.49	49.15
580.65	65.54
580.82	58.51
580.98	28.09
581.14	39.79
581.30	93.62
581.46	88.94
581.62	28.09
581.78	53.83
581.94	107.66
582.10	72.56
582.26	84.26
582.42	35.11
582.58	105.32
582.74	110.01
582.90	95.96
583.06	44.47
583.22	98.30
583.38	105.32
583.54	9.36
583.70	72.56
583.86	60.85
584.02	30.43
584.18	140.43
584.34	11.70
584.50	126.39
584.66	107.66
584.82	44.47
584.98	56.17
585.14	77.24
585.30	117.03
585.46	95.96
585.62	46.81
585.78	182.56
585.94	56.17
586.10	133.41
586.26	67.88
586.42	107.66
586.58	42.13
586.74	56.17
586.90	51.49
587.06	63.19
587.22	131.07
587.38	149.79
587.54	58.51
587.70	117.03
587.86	110.01
588.02	168.52
588.18	81.92
588.34	72.56
588.49	100.64
588.65	70.22
588.81	60.85
588.97	81.92
589.13	124.05
589.29	35.11
589.45	74.90
589.61	105.32
589.77	63.19
589.93	65.54
590.08	84.26
590.24	72.56
590.40	49.15
590.56	58.51
590.72	35.11
590.88	119.37
591.04	67.88
591.20	79.58
591.35	9.36
591.51	72.56
591.67	37.45
591.83	121.71
591.99	63.19
592.15	30.43
592.31	44.47
592.46	63.19
592.62	23.41
592.78	32.77
592.94	119.37
593.10	79.58
593.26	74.90
593.41	88.94
593.57	84.26
593.73	93.62
593.89	0.00
594.05	63.19
594.20	126.39
594.36	79.58
594.52	86.60
594.68	58.51
594.84	11.70
594.99	79.58
595.15	42.13
595.31	35.11
595.47	21.06
595.62	114.69
595.78	100.64
595.94	140.43
596.10	32.77
596.25	44.47
596.41	105.32
596.57	81.92
596.73	51.49
596.88	84.26
597.04	100.64
597.20	58.51
597.36	2.34
597.51	14.04
597.67	0.00
597.83	173.20
597.99	28.09
598.14	23.41
598.30	88.94
598.46	114.69
598.61	91.28
598.77	93.62
598.93	110.01
599.09	63.19
599.24	32.77
599.40	135.75
599.56	140.43
599.71	0.00
599.87	117.03
600.03	100.64
600.18	102.98
600.34	56.17
600.50	63.19
600.65	84.26
600.81	107.66
600.97	79.58
601.12	0.00
601.28	72.56
601.44	70.22
601.59	161.50
601.75	154.48
601.91	112.35
602.06	18.72
602.22	77.24
602.37	35.11
602.53	28.09
602.69	74.90
602.84	119.37
603.00	51.49
603.16	63.19
603.31	44.47
603.47	110.01
603.62	81.92
603.78	65.54
603.94	166.18
604.09	105.32
604.25	74.90
604.40	138.09
604.56	56.17
604.71	32.77
604.87	138.09
605.03	74.90
605.18	65.54
605.34	131.07
605.49	114.69
605.65	28.09
605.80	112.35
605.96	84.26
606.12	44.47
606.27	84.26
606.43	112.35
606.58	37.45
606.74	16.38
606.89	65.54
607.05	58.51
607.20	51.49
607.36	105.32
607.51	58.51
607.67	67.88
607.82	63.19
607.98	74.90
608.13	46.81
608.29	74.90
608.44	98.30
608.60	110.01
608.75	81.92
608.91	145.11
609.06	74.90
609.22	49.15
609.37	58.51
609.53	49.15
609.68	49.15
609.84	0.00
609.99	77.24
610.15	65.54
610.30	37.45
610.46	91.28
610.61	74.90
610.76	74.90
610.92	35.11
611.07	126.39
611.23	67.88
611.38	95.96
611.54	65.54
611.69	0.00
611.84	18.72
612.00	67.88
612.15	124.05
612.31	7.02
612.46	0.00
612.62	81.92
612.77	53.83
612.92	60.85
613.08	56.17
613.23	126.39
613.39	67.88
613.54	37.45
613.69	39.79
613.85	93.62
614.00	51.49
614.15	79.58
614.31	14.04
614.46	91.28
614.62	32.77
614.77	88.94
614.92	30.43
615.08	100.64
615.23	49.15
615.38	119.37
615.54	23.41
615.69	28.09
615.84	39.79
616.00	46.81
616.15	18.72
616.30	110.01
616.46	74.90
616.61	18.72
616.76	154.48
616.92	23.41
617.07	131.07
617.22	81.92
617.37	32.77
617.53	79.58
617.68	4.68
617.83	23.41
617.99	105.32
618.14	51.49
618.29	67.88
618.45	23.41
618.60	107.66
618.75	44.47
618.90	88.94
619.06	133.41
619.21	0.00
619.36	30.43
619.51	39.79
619.67	93.62
619.82	7.02
619.97	70.22
620.12	79.58
620.28	67.88
620.43	105.32
620.58	23.41
620.73	65.54
620.89	58.51
621.04	102.98
621.19	135.75
621.34	112.35
621.49	74.90
621.65	35.11
621.80	88.94
621.95	102.98
622.10	102.98
622.25	60.85
622.41	91.28
622.56	117.03
622.71	65.54
622.86	58.51
623.01	152.13
623.16	124.05
623.32	21.06
623.47	60.85
623.62	0.00
623.77	11.70
623.92	63.19
624.07	37.45
624.23	98.30
624.38	91.28
624.53	28.09
624.68	72.56
624.83	110.01
624.98	39.79
625.13	0.00
625.29	65.54
625.44	18.72
625.59	142.77
625.74	93.62
625.89	65.54
626.04	42.13
626.19	56.17
626.34	60.85
626.49	149.79
626.65	74.90
626.80	49.15
626.95	49.15
627.10	140.43
627.25	131.07
627.40	58.51
627.55	84.26
627.70	100.64
627.85	30.43
628.00	67.88
628.15	79.58
628.30	60.85
628.45	114.69
628.60	58.51
628.76	46.81
628.91	67.88
629.06	77.24
629.21	35.11
629.36	32.77
629.51	102.98
629.66	53.83
629.81	32.77
629.96	46.81
630.11	35.11
630.26	74.90
630.41	65.54
630.56	2.34
630.71	110.01
630.86	105.32
631.01	49.15
631.16	70.22
631.31	88.94
631.46	86.60
631.61	28.09
631.76	0.00
631.91	91.28
632.06	131.07
632.21	70.22
632.36	37.45
632.51	60.85
632.66	74.90
632.81	121.71
632.96	65.54
633.10	49.15
633.25	81.92
633.40	131.07
633.55	63.19
633.70	79.58
633.85	42.13
634.00	110.01
634.15	65.54
634.30	0.00
634.45	84.26
634.60	25.75
634.75	44.47
634.90	2.34
635.05	60.85
635.19	74.90
635.34	58.51
635.49	91.28
635.64	0.00
635.79	25.75
635.94	65.54
636.09	81.92
636.24	67.88
636.39	105.32
636.53	65.54
636.68	46.81
636.83	25.75
636.98	21.06
637.13	51.49
637.28	51.49
637.43	21.06
637.57	128.73
637.72	53.83
637.87	58.51
638.02	46.81
638.17	44.47
638.32	53.83
638.46	110.01
638.61	145.11
638.76	11.70
638.91	91.28
639.06	72.56
639.20	56.17
639.35	11.70
639.50	67.88
639.65	100.64
639.80	0.00
639.94	0.00
640.09	58.51
640.24	63.19
640.39	49.15
640.54	107.66
640.68	56.17
640.83	42.13
640.98	32.77
641.13	49.15
641.27	74.90
641.42	51.49
641.57	37.45
641.72	21.06
641.86	46.81
642.01	9.36
642.16	98.30
642.31	42.13
642.45	44.47
642.60	65.54
642.75	0.00
642.90	67.88
643.04	30.43
643.19	39.79
643.34	74.90
643.48	79.58
643.63	77.24
643.78	58.51
643.93	79.58
644.07	70.22
644.22	23.41
644.37	88.94
644.51	79.58
644.66	91.28
644.81	74.90
644.95	86.60
645.10	86.60
645.25	114.69
645.39	32.77
645.54	2.34
645.69	74.90
645.83	7.02
645.98	67.88
646.13	161.50
646.27	28.09
646.42	14.04
646.57	44.47
646.71	16.38
646.86	98.30
647.00	88.94
647.15	77.24
647.30	42.13
647.44	37.45
647.59	39.79
647.74	46.81
647.88	32.77
648.03	60.85
648.17	49.15
648.32	11.70
648.47	35.11
648.61	142.77
648.76	35.11
648.90	88.94
649.05	9.36
649.20	28.09
649.34	0.00
649.49	126.39
649.63	60.85
649.78	21.06
649.92	44.47
650.07	79.58
650.21	0.00
650.36	32.77
650.51	91.28
650.65	86.60
650.80	84.26
650.94	51.49
651.09	67.88
651.23	70.22
651.38	86.60
651.52	49.15
651.67	81.92
651.81	128.73
651.96	60.85
652.10	28.09
652.25	30.43
652.39	53.83
652.54	18.72
652.68	51.49
652.83	84.26
652.97	58.51
653.12	56.17
653.26	16.38
653.41	70.22
653.55	72.56
653.70	14.04
653.84	0.00
653.99	0.00
654.13	23.41
654.27	44.47
654.42	67.88
654.56	37.45
654.71	42.13
654.85	81.92
655.00	63.19
655.14	35.11
655.29	74.90
655.43	70.22
655.57	0.00
655.72	0.00
655.86	21.06
656.01	0.00
656.15	44.47
656.30	30.43
656.44	30.43
656.58	56.17
656.73	107.66
656.87	9.36
657.01	21.06
657.16	25.75
657.30	91.28
657.45	63.19
657.59	42.13
657.73	32.77
657.88	44.47
658.02	100.64
658.16	0.00
658.31	37.45
658.45	4.68
658.60	110.01
658.74	121.71
658.88	100.64
659.03	23.41
659.17	0.00
659.31	14.04
659.46	63.19
659.60	37.45
659.74	63.19
659.89	86.60
660.03	49.15
660.17	124.05
660.32	4.68
660.46	9.36
660.60	11.70
660.74	9.36
660.89	60.85
661.03	9.36
661.17	18.72
661.32	46.81
661.46	81.92
661.60	23.41
661.74	18.72
661.89	0.00
662.03	16.38
662.17	14.04
662.31	11.70
662.46	81.92
662.60	0.00
662.74	72.56
662.88	131.07
663.03	100.64
663.17	32.77
663.31	102.98
663.45	77.24
663.60	11.70
663.74	35.11
663.88	110.01
664.02	51.49
664.17	70.22
664.31	46.81
664.45	0.00
664.59	32.77
664.73	32.77
664.88	110.01
665.02	56.17
665.16	30.43
665.30	72.56
665.44	60.85
665.59	86.60
665.73	126.39
665.87	60.85
666.01	28.09
666.15	16.38
666.29	37.45
666.44	110.01
666.58	21.06
666.72	44.47
666.86	30.43
667.00	72.56
667.14	37.45
667.28	70.22
667.43	37.45
667.57	124.05
667.71	42.13
667.85	0.00
667.99	2.34
668.13	32.77
668.27	42.13
668.41	46.81
668.56	91.28
668.70	11.70
668.84	65.54
668.98	0.00
669.12	63.19
669.26	60.85
669.40	23.41
669.54	18.72
669.68	42.13
669.82	21.06
669.96	60.85
670.10	117.03
670.25	39.79
670.39	93.62
670.53	53.83
670.67	79.58
670.81	72.56
670.95	37.45
671.09	32.77
671.23	23.41
671.37	21.06
671.51	35.11
671.65	56.17
671.79	37.45
671.93	86.60
672.07	35.11
672.21	14.04
672.35	21.06
672.49	60.85
672.63	88.94
672.77	46.81
672.91	107.66
673.05	98.30
673.19	67.88
673.33	74.90
673.47	93.62
673.61	70.22
673.75	46.81
673.89	77.24
674.03	119.37
674.17	0.00
674.31	44.47
674.45	67.88
674.59	100.64
674.73	65.54
674.87	30.43
675.01	25.75
675.15	105.32
675.29	156.82
675.43	161.50
675.56	39.79
675.70	65.54
675.84	93.62
675.98	67.88
676.12	46.81
676.26	72.56
676.40	28.09
676.54	0.00
676.68	95.96
676.82	74.90
676.96	77.24
677.10	35.11
677.23	14.04
677.37	65.54
677.51	16.38
677.65	60.85
677.79	7.02
677.93	110.01
678.07	81.92
678.21	0.00
678.34	0.00
678.48	60.85
678.62	42.13
678.76	93.62
678.90	23.41
679.04	14.04
679.18	7.02
679.31	56.17
679.45	23.41
679.59	95.96
679.73	51.49
679.87	32.77
680.00	49.15
680.14	49.15
680.28	63.19
680.42	32.77
680.56	18.72
680.70	0.00
680.83	11.70
680.97	46.81
681.11	28.09
681.25	81.92
681.39	72.56
681.52	60.85
681.66	74.90
681.80	51.49
681.94	107.66
682.07	58.51
682.21	51.49
682.35	49.15
682.49	14.04
682.62	32.77
682.76	77.24
682.90	79.58
683.04	58.51
683.17	74.90
683.31	70.22
683.45	98.30
683.59	39.79
683.72	95.96
683.86	21.06
684.00	32.77
684.13	77.24
684.27	74.90
684.41	81.92
684.55	7.02
684.68	25.75
684.82	0.00
684.96	72.56
685.09	0.00
685.23	58.51
685.37	11.70
685.50	60.85
685.64	88.94
685.78	65.54
685.91	51.49
686.05	46.81
686.19	65.54
686.32	16.38
686.46	39.79
686.60	18.72
686.73	74.90
686.87	42.13
687.01	51.49
687.14	32.77
687.28	93.62
687.42	0.00
687.55	0.00
687.69	79.58
687.82	126.39
687.96	7.02
688.10	119.37
688.23	65.54
688.37	14.04
688.50	81.92
688.64	65.54
688.78	56.17
688.91	0.00
689.05	53.83
689.18	70.22
689.32	4.68
689.46	65.54
689.59	32.77
689.73	23.41
689.86	72.56
690.00	60.85
690.13	44.47
690.27	28.09
690.41	93.62
690.54	0.00
690.68	51.49
690.81	32.77
690.95	0.00
691.08	60.85
691.22	0.00
691.35	37.45
691.49	23.41
691.62	58.51
691.76	39.79
691.89	74.90
692.03	4.68
692.16	23.41
692.30	30.43
692.43	0.00
692.57	91.28
692.70	86.60
692.84	21.06
692.97	110.01
693.11	49.15
693.24	14.04
693.38	107.66
693.51	23.41
693.65	138.09
693.78	49.15
693.92	56.17
694.05	0.00
694.19	60.85
694.32	42.13
694.45	37.45
694.59	18.72
694.72	63.19
694.86	39.79
694.99	35.11
695.13	44.47
695.26	30.43
695.39	53.83
695.53	7.02
695.66	16.38
695.80	121.71
695.93	0.00
696.07	51.49
696.20	0.00
696.33	32.77
696.47	51.49
696.60	46.81
696.73	28.09
696.87	37.45
697.00	58.51
697.14	35.11
697.27	0.00
697.40	60.85
697.54	0.00
697.67	51.49
697.80	14.04
697.94	58.51
698.07	56.17
698.21	51.49
698.34	102.98
698.47	0.00
698.61	65.54
698.74	28.09
698.87	0.00
699.01	0.00
699.14	56.17
699.27	37.45
699.40	79.58
699.54	0.00
699.67	51.49
699.80	0.00
699.94	16.38
700.07	2.34
700.20	42.13
700.34	23.41
700.47	14.04
700.60	44.47
700.73	0.00
700.87	51.49
701.00	23.41
701.13	0.00
701.26	16.38
701.40	63.19
701.53	95.96
701.66	0.00
701.79	63.19
701.93	100.64
702.06	79.58
702.19	0.00
702.32	0.00
702.46	21.06
702.59	0.00
702.72	79.58
702.85	56.17
702.99	35.11
703.12	0.00
703.25	30.43
703.38	77.24
703.51	70.22
703.65	65.54
703.78	0.00
703.91	81.92
704.04	51.49
704.17	2.34
704.31	95.96
704.44	88.94
704.57	46.81
704.70	0.00
704.83	0.00
704.96	93.62
705.10	53.83
705.23	60.85
>>>>>End Processed Spectral Data<<<<<
