SpectraSuite Data File
++++++++++++++++++++++++++++++++++++
Date: Fri Oct 04 12:13:32 GMT-05:00 2013
User: price-jones
Dark Spectrum Present: No
Reference Spectrum Present: No
Number of Sampled Component Spectra: 1
Spectrometers: USB2+H05261
Integration Time (usec): 10000 (USB2+H05261)
Spectra Averaged: 1 (USB2+H05261)
Boxcar Smoothing: 0 (USB2+H05261)
Correct for Electrical Dark: No (USB2+H05261)
Strobe/Lamp Enabled: No (USB2+H05261)
Correct for Detector Non-linearity: No (USB2+H05261)
Correct for Stray Light: No (USB2+H05261)
Number of Pixels in Processed Spectrum: 2048
>>>>>Begin Processed Spectral Data<<<<<
365.73	0.00
365.92	0.00
366.12	0.00
366.32	0.00
366.52	0.00
366.72	0.00
366.91	0.00
367.11	0.00
367.31	0.00
367.51	0.00
367.70	0.00
367.90	0.00
368.10	0.00
368.30	0.00
368.49	0.00
368.69	0.00
368.89	0.00
369.09	0.00
369.28	0.00
369.48	0.00
369.68	0.00
369.87	0.00
370.07	0.00
370.27	0.00
370.47	0.00
370.66	0.00
370.86	0.00
371.06	35.11
371.25	0.00
371.45	0.00
371.65	0.00
371.84	37.45
372.04	0.00
372.24	28.09
372.44	0.00
372.63	0.00
372.83	7.02
373.03	0.00
373.22	0.00
373.42	142.77
373.62	35.11
373.81	63.19
374.01	0.00
374.21	23.41
374.40	44.47
374.60	112.35
374.79	0.00
374.99	0.00
375.19	35.11
375.38	28.09
375.58	86.60
375.78	88.94
375.97	0.00
376.17	72.56
376.37	63.19
376.56	79.58
376.76	37.45
376.95	44.47
377.15	0.00
377.35	37.45
377.54	105.32
377.74	32.77
377.93	0.00
378.13	16.38
378.33	79.58
378.52	0.00
378.72	16.38
378.91	7.02
379.11	0.00
379.31	51.49
379.50	93.62
379.70	44.47
379.89	0.00
380.09	0.00
380.28	0.00
380.48	30.43
380.68	0.00
380.87	42.13
381.07	21.06
381.26	39.79
381.46	0.00
381.65	0.00
381.85	11.70
382.04	51.49
382.24	0.00
382.43	32.77
382.63	0.00
382.83	0.00
383.02	37.45
383.22	16.38
383.41	9.36
383.61	18.72
383.80	46.81
384.00	28.09
384.19	0.00
384.39	18.72
384.58	0.00
384.78	46.81
384.97	18.72
385.17	0.00
385.36	0.00
385.56	0.00
385.75	25.75
385.95	30.43
386.14	70.22
386.34	16.38
386.53	4.68
386.72	39.79
386.92	0.00
387.11	88.94
387.31	35.11
387.50	35.11
387.70	39.79
387.89	7.02
388.09	0.00
388.28	9.36
388.48	60.85
388.67	18.72
388.86	53.83
389.06	42.13
389.25	51.49
389.45	0.00
389.64	0.00
389.84	11.70
390.03	16.38
390.22	2.34
390.42	11.70
390.61	30.43
390.81	0.00
391.00	0.00
391.19	16.38
391.39	0.00
391.58	14.04
391.78	39.79
391.97	0.00
392.16	0.00
392.36	37.45
392.55	84.26
392.75	25.75
392.94	121.71
393.13	16.38
393.33	0.00
393.52	0.00
393.71	0.00
393.91	0.00
394.10	0.00
394.29	81.92
394.49	46.81
394.68	35.11
394.88	11.70
395.07	121.71
395.26	65.54
395.46	67.88
395.65	11.70
395.84	63.19
396.04	44.47
396.23	0.00
396.42	18.72
396.62	18.72
396.81	9.36
397.00	88.94
397.19	65.54
397.39	84.26
397.58	28.09
397.77	0.00
397.97	74.90
398.16	0.00
398.35	0.00
398.55	51.49
398.74	53.83
398.93	14.04
399.12	0.00
399.32	44.47
399.51	25.75
399.70	46.81
399.90	7.02
400.09	0.00
400.28	4.68
400.47	86.60
400.67	16.38
400.86	58.51
401.05	70.22
401.24	0.00
401.44	42.13
401.63	2.34
401.82	32.77
402.01	0.00
402.21	42.13
402.40	86.60
402.59	32.77
402.78	35.11
402.97	0.00
403.17	53.83
403.36	21.06
403.55	49.15
403.74	0.00
403.93	42.13
404.13	11.70
404.32	0.00
404.51	0.00
404.70	95.96
404.89	0.00
405.09	23.41
405.28	0.00
405.47	121.71
405.66	30.43
405.85	0.00
406.05	0.00
406.24	84.26
406.43	53.83
406.62	9.36
406.81	30.43
407.00	46.81
407.20	42.13
407.39	60.85
407.58	42.13
407.77	23.41
407.96	0.00
408.15	51.49
408.34	74.90
408.54	0.00
408.73	60.85
408.92	4.68
409.11	86.60
409.30	0.00
409.49	9.36
409.68	4.68
409.87	42.13
410.07	25.75
410.26	63.19
410.45	21.06
410.64	0.00
410.83	7.02
411.02	84.26
411.21	53.83
411.40	88.94
411.59	14.04
411.78	11.70
411.98	56.17
412.17	72.56
412.36	72.56
412.55	0.00
412.74	0.00
412.93	2.34
413.12	0.00
413.31	81.92
413.50	0.00
413.69	32.77
413.88	0.00
414.07	70.22
414.26	0.00
414.45	0.00
414.64	35.11
414.83	23.41
415.02	49.15
415.22	14.04
415.41	25.75
415.60	0.00
415.79	0.00
415.98	117.03
416.17	9.36
416.36	0.00
416.55	16.38
416.74	23.41
416.93	0.00
417.12	35.11
417.31	39.79
417.50	18.72
417.69	0.00
417.88	32.77
418.07	42.13
418.26	0.00
418.45	0.00
418.64	39.79
418.83	9.36
419.02	0.00
419.21	0.00
419.39	30.43
419.58	25.75
419.77	11.70
419.96	2.34
420.15	86.60
420.34	110.01
420.53	0.00
420.72	37.45
420.91	51.49
421.10	30.43
421.29	67.88
421.48	0.00
421.67	77.24
421.86	0.00
422.05	0.00
422.24	30.43
422.43	70.22
422.61	23.41
422.80	63.19
422.99	0.00
423.18	124.05
423.37	30.43
423.56	0.00
423.75	0.00
423.94	32.77
424.13	0.00
424.32	18.72
424.50	0.00
424.69	49.15
424.88	30.43
425.07	11.70
425.26	93.62
425.45	0.00
425.64	28.09
425.83	23.41
426.01	51.49
426.20	32.77
426.39	0.00
426.58	70.22
426.77	60.85
426.96	0.00
427.15	86.60
427.33	23.41
427.52	32.77
427.71	16.38
427.90	49.15
428.09	11.70
428.28	11.70
428.46	0.00
428.65	0.00
428.84	35.11
429.03	32.77
429.22	44.47
429.40	0.00
429.59	32.77
429.78	2.34
429.97	21.06
430.16	49.15
430.34	30.43
430.53	0.00
430.72	44.47
430.91	35.11
431.10	0.00
431.28	63.19
431.47	67.88
431.66	49.15
431.85	37.45
432.03	51.49
432.22	14.04
432.41	42.13
432.60	2.34
432.79	70.22
432.97	35.11
433.16	70.22
433.35	21.06
433.54	32.77
433.72	11.70
433.91	70.22
434.10	51.49
434.28	49.15
434.47	0.00
434.66	0.00
434.85	18.72
435.03	0.00
435.22	11.70
435.41	91.28
435.59	21.06
435.78	46.81
435.97	7.02
436.16	46.81
436.34	0.00
436.53	60.85
436.72	117.03
436.90	65.54
437.09	53.83
437.28	100.64
437.46	88.94
437.65	9.36
437.84	30.43
438.02	25.75
438.21	37.45
438.40	16.38
438.58	0.00
438.77	18.72
438.96	39.79
439.14	42.13
439.33	0.00
439.52	0.00
439.70	16.38
439.89	35.11
440.08	21.06
440.26	25.75
440.45	18.72
440.63	0.00
440.82	16.38
441.01	32.77
441.19	0.00
441.38	117.03
441.57	35.11
441.75	42.13
441.94	49.15
442.12	44.47
442.31	53.83
442.50	0.00
442.68	28.09
442.87	0.00
443.05	18.72
443.24	23.41
443.43	105.32
443.61	49.15
443.80	49.15
443.98	2.34
444.17	0.00
444.35	16.38
444.54	0.00
444.73	2.34
444.91	35.11
445.10	18.72
445.28	16.38
445.47	14.04
445.65	67.88
445.84	32.77
446.02	25.75
446.21	0.00
446.39	0.00
446.58	107.66
446.77	88.94
446.95	32.77
447.14	37.45
447.32	9.36
447.51	0.00
447.69	44.47
447.88	0.00
448.06	4.68
448.25	44.47
448.43	100.64
448.62	0.00
448.80	0.00
448.99	18.72
449.17	63.19
449.36	35.11
449.54	23.41
449.73	77.24
449.91	18.72
450.10	93.62
450.28	0.00
450.46	32.77
450.65	0.00
450.83	37.45
451.02	46.81
451.20	2.34
451.39	11.70
451.57	0.00
451.76	0.00
451.94	9.36
452.13	0.00
452.31	21.06
452.49	53.83
452.68	53.83
452.86	51.49
453.05	93.62
453.23	11.70
453.42	18.72
453.60	91.28
453.78	25.75
453.97	0.00
454.15	72.56
454.34	18.72
454.52	0.00
454.70	37.45
454.89	58.51
455.07	35.11
455.26	32.77
455.44	131.07
455.62	0.00
455.81	32.77
455.99	18.72
456.17	4.68
456.36	44.47
456.54	7.02
456.73	18.72
456.91	98.30
457.09	18.72
457.28	77.24
457.46	0.00
457.64	77.24
457.83	60.85
458.01	9.36
458.19	35.11
458.38	117.03
458.56	28.09
458.74	0.00
458.93	21.06
459.11	14.04
459.29	77.24
459.48	46.81
459.66	58.51
459.84	16.38
460.03	49.15
460.21	39.79
460.39	0.00
460.57	86.60
460.76	14.04
460.94	11.70
461.12	0.00
461.31	21.06
461.49	67.88
461.67	39.79
461.85	7.02
462.04	21.06
462.22	39.79
462.40	72.56
462.59	4.68
462.77	133.41
462.95	28.09
463.13	0.00
463.32	0.00
463.50	60.85
463.68	25.75
463.86	0.00
464.05	74.90
464.23	91.28
464.41	72.56
464.59	49.15
464.78	49.15
464.96	4.68
465.14	4.68
465.32	30.43
465.50	21.06
465.69	0.00
465.87	56.17
466.05	18.72
466.23	93.62
466.41	4.68
466.60	37.45
466.78	14.04
466.96	102.98
467.14	84.26
467.32	49.15
467.51	21.06
467.69	14.04
467.87	44.47
468.05	0.00
468.23	0.00
468.41	0.00
468.60	0.00
468.78	21.06
468.96	32.77
469.14	2.34
469.32	30.43
469.50	37.45
469.69	0.00
469.87	14.04
470.05	11.70
470.23	39.79
470.41	0.00
470.59	91.28
470.77	44.47
470.95	23.41
471.14	0.00
471.32	35.11
471.50	63.19
471.68	0.00
471.86	32.77
472.04	28.09
472.22	77.24
472.40	74.90
472.58	21.06
472.77	0.00
472.95	35.11
473.13	44.47
473.31	79.58
473.49	81.92
473.67	46.81
473.85	63.19
474.03	51.49
474.21	35.11
474.39	7.02
474.57	65.54
474.75	18.72
474.93	74.90
475.12	0.00
475.30	65.54
475.48	91.28
475.66	4.68
475.84	0.00
476.02	21.06
476.20	93.62
476.38	72.56
476.56	56.17
476.74	72.56
476.92	88.94
477.10	25.75
477.28	46.81
477.46	60.85
477.64	0.00
477.82	98.30
478.00	51.49
478.18	32.77
478.36	39.79
478.54	32.77
478.72	18.72
478.90	67.88
479.08	0.00
479.26	0.00
479.44	42.13
479.62	32.77
479.80	28.09
479.98	32.77
480.16	21.06
480.34	37.45
480.52	16.38
480.70	0.00
480.88	42.13
481.06	72.56
481.24	32.77
481.41	32.77
481.59	128.73
481.77	23.41
481.95	4.68
482.13	53.83
482.31	0.00
482.49	65.54
482.67	42.13
482.85	60.85
483.03	18.72
483.21	70.22
483.39	81.92
483.57	79.58
483.74	70.22
483.92	53.83
484.10	119.37
484.28	95.96
484.46	72.56
484.64	4.68
484.82	51.49
485.00	49.15
485.18	37.45
485.35	0.00
485.53	37.45
485.71	65.54
485.89	91.28
486.07	112.35
486.25	0.00
486.43	44.47
486.61	42.13
486.78	4.68
486.96	46.81
487.14	58.51
487.32	25.75
487.50	91.28
487.68	65.54
487.85	14.04
488.03	0.00
488.21	44.47
488.39	18.72
488.57	0.00
488.75	53.83
488.92	79.58
489.10	49.15
489.28	53.83
489.46	30.43
489.64	91.28
489.81	0.00
489.99	28.09
490.17	0.00
490.35	42.13
490.53	23.41
490.70	28.09
490.88	0.00
491.06	35.11
491.24	84.26
491.41	39.79
491.59	11.70
491.77	44.47
491.95	79.58
492.13	21.06
492.30	4.68
492.48	42.13
492.66	0.00
492.84	44.47
493.01	25.75
493.19	0.00
493.37	95.96
493.54	51.49
493.72	4.68
493.90	28.09
494.08	77.24
494.25	53.83
494.43	39.79
494.61	63.19
494.79	42.13
494.96	77.24
495.14	107.66
495.32	74.90
495.49	0.00
495.67	39.79
495.85	30.43
496.02	42.13
496.20	58.51
496.38	39.79
496.55	37.45
496.73	67.88
496.91	37.45
497.09	105.32
497.26	60.85
497.44	35.11
497.62	14.04
497.79	0.00
497.97	11.70
498.14	0.00
498.32	0.00
498.50	77.24
498.67	79.58
498.85	88.94
499.03	74.90
499.20	30.43
499.38	25.75
499.56	32.77
499.73	60.85
499.91	112.35
500.08	9.36
500.26	16.38
500.44	77.24
500.61	42.13
500.79	25.75
500.97	0.00
501.14	42.13
501.32	0.00
501.49	23.41
501.67	0.00
501.84	63.19
502.02	67.88
502.20	18.72
502.37	0.00
502.55	0.00
502.72	46.81
502.90	35.11
503.07	4.68
503.25	86.60
503.43	30.43
503.60	56.17
503.78	35.11
503.95	84.26
504.13	42.13
504.30	0.00
504.48	0.00
504.65	11.70
504.83	30.43
505.01	46.81
505.18	53.83
505.36	51.49
505.53	56.17
505.71	86.60
505.88	77.24
506.06	72.56
506.23	42.13
506.41	0.00
506.58	7.02
506.76	81.92
506.93	0.00
507.11	0.00
507.28	0.00
507.46	58.51
507.63	44.47
507.81	60.85
507.98	16.38
508.16	14.04
508.33	18.72
508.50	91.28
508.68	0.00
508.85	51.49
509.03	9.36
509.20	63.19
509.38	95.96
509.55	39.79
509.73	32.77
509.90	74.90
510.08	0.00
510.25	65.54
510.42	95.96
510.60	35.11
510.77	14.04
510.95	77.24
511.12	84.26
511.30	44.47
511.47	46.81
511.64	88.94
511.82	46.81
511.99	42.13
512.17	79.58
512.34	42.13
512.51	11.70
512.69	0.00
512.86	18.72
513.04	0.00
513.21	53.83
513.38	42.13
513.56	0.00
513.73	93.62
513.90	79.58
514.08	0.00
514.25	56.17
514.43	51.49
514.60	4.68
514.77	0.00
514.95	14.04
515.12	84.26
515.29	126.39
515.47	79.58
515.64	9.36
515.81	126.39
515.99	105.32
516.16	58.51
516.33	63.19
516.51	44.47
516.68	18.72
516.85	30.43
517.03	67.88
517.20	72.56
517.37	117.03
517.54	42.13
517.72	58.51
517.89	0.00
518.06	11.70
518.24	0.00
518.41	4.68
518.58	11.70
518.75	0.00
518.93	0.00
519.10	0.00
519.27	72.56
519.45	86.60
519.62	4.68
519.79	117.03
519.96	126.39
520.14	42.13
520.31	37.45
520.48	86.60
520.65	46.81
520.83	84.26
521.00	133.41
521.17	70.22
521.34	110.01
521.52	18.72
521.69	37.45
521.86	28.09
522.03	28.09
522.20	74.90
522.38	65.54
522.55	53.83
522.72	70.22
522.89	0.00
523.07	65.54
523.24	72.56
523.41	37.45
523.58	44.47
523.75	39.79
523.92	51.49
524.10	37.45
524.27	0.00
524.44	0.00
524.61	0.00
524.78	0.00
524.96	37.45
525.13	105.32
525.30	70.22
525.47	0.00
525.64	110.01
525.81	86.60
525.98	88.94
526.16	49.15
526.33	11.70
526.50	44.47
526.67	35.11
526.84	49.15
527.01	0.00
527.18	49.15
527.36	77.24
527.53	2.34
527.70	25.75
527.87	142.77
528.04	0.00
528.21	18.72
528.38	84.26
528.55	35.11
528.72	18.72
528.89	11.70
529.07	58.51
529.24	56.17
529.41	46.81
529.58	60.85
529.75	56.17
529.92	93.62
530.09	14.04
530.26	65.54
530.43	0.00
530.60	65.54
530.77	18.72
530.94	49.15
531.11	88.94
531.28	58.51
531.46	70.22
531.63	39.79
531.80	56.17
531.97	63.19
532.14	35.11
532.31	2.34
532.48	0.00
532.65	84.26
532.82	51.49
532.99	58.51
533.16	0.00
533.33	67.88
533.50	18.72
533.67	0.00
533.84	30.43
534.01	25.75
534.18	23.41
534.35	44.47
534.52	4.68
534.69	42.13
534.86	23.41
535.03	70.22
535.20	0.00
535.37	140.43
535.54	25.75
535.71	35.11
535.88	58.51
536.05	77.24
536.22	21.06
536.38	100.64
536.55	91.28
536.72	67.88
536.89	79.58
537.06	0.00
537.23	4.68
537.40	56.17
537.57	11.70
537.74	93.62
537.91	58.51
538.08	58.51
538.25	25.75
538.42	0.00
538.59	72.56
538.75	49.15
538.92	0.00
539.09	53.83
539.26	70.22
539.43	9.36
539.60	51.49
539.77	18.72
539.94	51.49
540.11	0.00
540.28	65.54
540.44	107.66
540.61	72.56
540.78	86.60
540.95	91.28
541.12	53.83
541.29	0.00
541.46	49.15
541.62	56.17
541.79	32.77
541.96	18.72
542.13	60.85
542.30	0.00
542.47	88.94
542.63	0.00
542.80	23.41
542.97	105.32
543.14	95.96
543.31	0.00
543.48	58.51
543.64	77.24
543.81	28.09
543.98	72.56
544.15	65.54
544.32	35.11
544.48	25.75
544.65	18.72
544.82	49.15
544.99	35.11
545.16	46.81
545.32	58.51
545.49	0.00
545.66	0.00
545.83	0.00
546.00	18.72
546.16	39.79
546.33	93.62
546.50	84.26
546.67	0.00
546.83	72.56
547.00	21.06
547.17	25.75
547.34	70.22
547.50	23.41
547.67	23.41
547.84	53.83
548.00	11.70
548.17	65.54
548.34	0.00
548.51	0.00
548.67	0.00
548.84	21.06
549.01	53.83
549.18	21.06
549.34	84.26
549.51	56.17
549.68	0.00
549.84	100.64
550.01	58.51
550.18	60.85
550.34	35.11
550.51	23.41
550.68	0.00
550.84	60.85
551.01	46.81
551.18	16.38
551.34	18.72
551.51	11.70
551.68	0.00
551.84	35.11
552.01	30.43
552.18	16.38
552.34	79.58
552.51	0.00
552.68	0.00
552.84	25.75
553.01	14.04
553.18	32.77
553.34	44.47
553.51	74.90
553.67	23.41
553.84	14.04
554.01	65.54
554.17	72.56
554.34	105.32
554.51	65.54
554.67	49.15
554.84	70.22
555.00	42.13
555.17	39.79
555.33	49.15
555.50	32.77
555.67	44.47
555.83	0.00
556.00	53.83
556.16	49.15
556.33	25.75
556.50	44.47
556.66	53.83
556.83	63.19
556.99	21.06
557.16	79.58
557.32	18.72
557.49	9.36
557.65	11.70
557.82	105.32
557.98	53.83
558.15	28.09
558.32	0.00
558.48	11.70
558.65	16.38
558.81	4.68
558.98	46.81
559.14	60.85
559.31	14.04
559.47	0.00
559.64	28.09
559.80	65.54
559.97	98.30
560.13	63.19
560.30	25.75
560.46	70.22
560.63	88.94
560.79	44.47
560.96	18.72
561.12	18.72
561.29	0.00
561.45	16.38
561.61	0.00
561.78	51.49
561.94	25.75
562.11	56.17
562.27	0.00
562.44	67.88
562.60	28.09
562.77	0.00
562.93	2.34
563.10	30.43
563.26	58.51
563.42	70.22
563.59	32.77
563.75	86.60
563.92	84.26
564.08	58.51
564.24	65.54
564.41	51.49
564.57	49.15
564.74	63.19
564.90	21.06
565.07	77.24
565.23	67.88
565.39	18.72
565.56	100.64
565.72	35.11
565.88	30.43
566.05	0.00
566.21	18.72
566.38	21.06
566.54	63.19
566.70	53.83
566.87	51.49
567.03	86.60
567.19	0.00
567.36	25.75
567.52	30.43
567.68	117.03
567.85	0.00
568.01	46.81
568.17	0.00
568.34	84.26
568.50	63.19
568.66	18.72
568.83	81.92
568.99	7.02
569.15	30.43
569.32	14.04
569.48	60.85
569.64	60.85
569.81	16.38
569.97	128.73
570.13	58.51
570.30	30.43
570.46	105.32
570.62	105.32
570.78	35.11
570.95	35.11
571.11	0.00
571.27	11.70
571.43	0.00
571.60	37.45
571.76	23.41
571.92	18.72
572.09	35.11
572.25	37.45
572.41	0.00
572.57	25.75
572.74	74.90
572.90	39.79
573.06	0.00
573.22	65.54
573.38	128.73
573.55	112.35
573.71	42.13
573.87	81.92
574.03	44.47
574.20	79.58
574.36	88.94
574.52	49.15
574.68	53.83
574.84	0.00
575.01	0.00
575.17	21.06
575.33	79.58
575.49	0.00
575.65	53.83
575.82	63.19
575.98	32.77
576.14	84.26
576.30	70.22
576.46	93.62
576.62	25.75
576.79	39.79
576.95	56.17
577.11	23.41
577.27	4.68
577.43	23.41
577.59	44.47
577.75	67.88
577.92	56.17
578.08	72.56
578.24	28.09
578.40	21.06
578.56	28.09
578.72	110.01
578.88	0.00
579.04	4.68
579.21	0.00
579.37	11.70
579.53	7.02
579.69	60.85
579.85	35.11
580.01	91.28
580.17	30.43
580.33	32.77
580.49	18.72
580.65	18.72
580.82	0.00
580.98	35.11
581.14	98.30
581.30	35.11
581.46	51.49
581.62	0.00
581.78	72.56
581.94	72.56
582.10	46.81
582.26	51.49
582.42	0.00
582.58	37.45
582.74	0.00
582.90	79.58
583.06	16.38
583.22	32.77
583.38	46.81
583.54	42.13
583.70	74.90
583.86	25.75
584.02	88.94
584.18	77.24
584.34	16.38
584.50	11.70
584.66	23.41
584.82	70.22
584.98	60.85
585.14	65.54
585.30	2.34
585.46	46.81
585.62	0.00
585.78	114.69
585.94	37.45
586.10	0.00
586.26	0.00
586.42	28.09
586.58	0.00
586.74	0.00
586.90	18.72
587.06	65.54
587.22	63.19
587.38	7.02
587.54	0.00
587.70	4.68
587.86	37.45
588.02	32.77
588.18	28.09
588.34	0.00
588.49	46.81
588.65	14.04
588.81	42.13
588.97	0.00
589.13	9.36
589.29	88.94
589.45	16.38
589.61	30.43
589.77	21.06
589.93	49.15
590.08	81.92
590.24	65.54
590.40	0.00
590.56	2.34
590.72	37.45
590.88	32.77
591.04	0.00
591.20	84.26
591.35	30.43
591.51	18.72
591.67	14.04
591.83	18.72
591.99	0.00
592.15	63.19
592.31	63.19
592.46	0.00
592.62	133.41
592.78	16.38
592.94	4.68
593.10	0.00
593.26	37.45
593.41	0.00
593.57	25.75
593.73	60.85
593.89	32.77
594.05	0.00
594.20	91.28
594.36	9.36
594.52	37.45
594.68	60.85
594.84	42.13
594.99	0.00
595.15	67.88
595.31	42.13
595.47	0.00
595.62	105.32
595.78	30.43
595.94	0.00
596.10	39.79
596.25	30.43
596.41	46.81
596.57	98.30
596.73	0.00
596.88	88.94
597.04	30.43
597.20	77.24
597.36	30.43
597.51	51.49
597.67	67.88
597.83	28.09
597.99	60.85
598.14	44.47
598.30	42.13
598.46	16.38
598.61	79.58
598.77	39.79
598.93	98.30
599.09	56.17
599.24	72.56
599.40	7.02
599.56	0.00
599.71	30.43
599.87	28.09
600.03	0.00
600.18	0.00
600.34	56.17
600.50	28.09
600.65	0.00
600.81	21.06
600.97	42.13
601.12	4.68
601.28	63.19
601.44	28.09
601.59	35.11
601.75	0.00
601.91	102.98
602.06	11.70
602.22	0.00
602.37	7.02
602.53	0.00
602.69	37.45
602.84	65.54
603.00	28.09
603.16	77.24
603.31	21.06
603.47	39.79
603.62	0.00
603.78	25.75
603.94	67.88
604.09	7.02
604.25	30.43
604.40	86.60
604.56	37.45
604.71	4.68
604.87	35.11
605.03	77.24
605.18	42.13
605.34	65.54
605.49	9.36
605.65	84.26
605.80	98.30
605.96	9.36
606.12	53.83
606.27	42.13
606.43	91.28
606.58	18.72
606.74	0.00
606.89	65.54
607.05	63.19
607.20	65.54
607.36	28.09
607.51	46.81
607.67	95.96
607.82	0.00
607.98	67.88
608.13	11.70
608.29	28.09
608.44	67.88
608.60	0.00
608.75	0.00
608.91	2.34
609.06	70.22
609.22	0.00
609.37	4.68
609.53	88.94
609.68	46.81
609.84	84.26
609.99	58.51
610.15	142.77
610.30	0.00
610.46	77.24
610.61	67.88
610.76	30.43
610.92	86.60
611.07	0.00
611.23	88.94
611.38	25.75
611.54	88.94
611.69	60.85
611.84	18.72
612.00	93.62
612.15	30.43
612.31	42.13
612.46	88.94
612.62	0.00
612.77	37.45
612.92	23.41
613.08	9.36
613.23	37.45
613.39	42.13
613.54	56.17
613.69	67.88
613.85	70.22
614.00	25.75
614.15	72.56
614.31	28.09
614.46	63.19
614.62	0.00
614.77	46.81
614.92	9.36
615.08	11.70
615.23	58.51
615.38	2.34
615.54	30.43
615.69	72.56
615.84	65.54
616.00	53.83
616.15	65.54
616.30	46.81
616.46	0.00
616.61	16.38
616.76	133.41
616.92	86.60
617.07	18.72
617.22	65.54
617.37	7.02
617.53	32.77
617.68	0.00
617.83	9.36
617.99	46.81
618.14	0.00
618.29	0.00
618.45	0.00
618.60	46.81
618.75	60.85
618.90	30.43
619.06	32.77
619.21	37.45
619.36	0.00
619.51	0.00
619.67	16.38
619.82	114.69
619.97	0.00
620.12	42.13
620.28	37.45
620.43	0.00
620.58	14.04
620.73	28.09
620.89	105.32
621.04	74.90
621.19	30.43
621.34	21.06
621.49	11.70
621.65	0.00
621.80	77.24
621.95	49.15
622.10	56.17
622.25	65.54
622.41	44.47
622.56	49.15
622.71	0.00
622.86	65.54
623.01	63.19
623.16	25.75
623.32	4.68
623.47	35.11
623.62	0.00
623.77	53.83
623.92	0.00
624.07	7.02
624.23	16.38
624.38	56.17
624.53	37.45
624.68	28.09
624.83	44.47
624.98	74.90
625.13	0.00
625.29	0.00
625.44	84.26
625.59	63.19
625.74	49.15
625.89	0.00
626.04	16.38
626.19	35.11
626.34	21.06
626.49	70.22
626.65	70.22
626.80	51.49
626.95	28.09
627.10	65.54
627.25	0.00
627.40	51.49
627.55	37.45
627.70	79.58
627.85	79.58
628.00	0.00
628.15	63.19
628.30	14.04
628.45	25.75
628.60	42.13
628.76	74.90
628.91	18.72
629.06	0.00
629.21	32.77
629.36	72.56
629.51	30.43
629.66	0.00
629.81	86.60
629.96	42.13
630.11	51.49
630.26	0.00
630.41	25.75
630.56	70.22
630.71	4.68
630.86	11.70
631.01	30.43
631.16	0.00
631.31	0.00
631.46	79.58
631.61	44.47
631.76	23.41
631.91	0.00
632.06	0.00
632.21	21.06
632.36	0.00
632.51	98.30
632.66	32.77
632.81	0.00
632.96	11.70
633.10	84.26
633.25	72.56
633.40	21.06
633.55	18.72
633.70	30.43
633.85	7.02
634.00	77.24
634.15	23.41
634.30	84.26
634.45	39.79
634.60	28.09
634.75	32.77
634.90	37.45
635.05	0.00
635.19	0.00
635.34	63.19
635.49	11.70
635.64	14.04
635.79	25.75
635.94	91.28
636.09	51.49
636.24	46.81
636.39	42.13
636.53	53.83
636.68	30.43
636.83	63.19
636.98	32.77
637.13	0.00
637.28	39.79
637.43	28.09
637.57	25.75
637.72	23.41
637.87	42.13
638.02	0.00
638.17	11.70
638.32	23.41
638.46	0.00
638.61	4.68
638.76	16.38
638.91	9.36
639.06	65.54
639.20	0.00
639.35	0.00
639.50	0.00
639.65	2.34
639.80	0.00
639.94	16.38
640.09	63.19
640.24	88.94
640.39	121.71
640.54	37.45
640.68	0.00
640.83	7.02
640.98	42.13
641.13	4.68
641.27	0.00
641.42	0.00
641.57	0.00
641.72	23.41
641.86	44.47
642.01	32.77
642.16	72.56
642.31	110.01
642.45	72.56
642.60	56.17
642.75	53.83
642.90	0.00
643.04	0.00
643.19	28.09
643.34	0.00
643.48	0.00
643.63	56.17
643.78	60.85
643.93	70.22
644.07	53.83
644.22	53.83
644.37	72.56
644.51	14.04
644.66	14.04
644.81	16.38
644.95	91.28
645.10	91.28
645.25	0.00
645.39	49.15
645.54	0.00
645.69	79.58
645.83	0.00
645.98	138.09
646.13	0.00
646.27	72.56
646.42	2.34
646.57	30.43
646.71	63.19
646.86	0.00
647.00	0.00
647.15	39.79
647.30	0.00
647.44	30.43
647.59	0.00
647.74	37.45
647.88	16.38
648.03	84.26
648.17	91.28
648.32	58.51
648.47	44.47
648.61	58.51
648.76	2.34
648.90	37.45
649.05	21.06
649.20	53.83
649.34	56.17
649.49	0.00
649.63	67.88
649.78	35.11
649.92	25.75
650.07	74.90
650.21	35.11
650.36	49.15
650.51	0.00
650.65	79.58
650.80	93.62
650.94	98.30
651.09	53.83
651.23	28.09
651.38	0.00
651.52	0.00
651.67	79.58
651.81	9.36
651.96	42.13
652.10	0.00
652.25	93.62
652.39	14.04
652.54	0.00
652.68	72.56
652.83	49.15
652.97	114.69
653.12	11.70
653.26	63.19
653.41	37.45
653.55	58.51
653.70	56.17
653.84	0.00
653.99	51.49
654.13	44.47
654.27	77.24
654.42	14.04
654.56	79.58
654.71	51.49
654.85	72.56
655.00	42.13
655.14	4.68
655.29	14.04
655.43	56.17
655.57	0.00
655.72	0.00
655.86	0.00
656.01	84.26
656.15	21.06
656.30	35.11
656.44	49.15
656.58	70.22
656.73	16.38
656.87	51.49
657.01	18.72
657.16	37.45
657.30	79.58
657.45	0.00
657.59	70.22
657.73	86.60
657.88	60.85
658.02	56.17
658.16	28.09
658.31	65.54
658.45	72.56
658.60	7.02
658.74	16.38
658.88	0.00
659.03	0.00
659.17	0.00
659.31	42.13
659.46	0.00
659.60	79.58
659.74	0.00
659.89	4.68
660.03	30.43
660.17	2.34
660.32	9.36
660.46	91.28
660.60	67.88
660.74	30.43
660.89	16.38
661.03	53.83
661.17	86.60
661.32	0.00
661.46	0.00
661.60	0.00
661.74	0.00
661.89	70.22
662.03	152.13
662.17	7.02
662.31	51.49
662.46	63.19
662.60	37.45
662.74	0.00
662.88	42.13
663.03	53.83
663.17	42.13
663.31	28.09
663.45	49.15
663.60	56.17
663.74	65.54
663.88	72.56
664.02	35.11
664.17	67.88
664.31	0.00
664.45	56.17
664.59	77.24
664.73	0.00
664.88	74.90
665.02	77.24
665.16	25.75
665.30	0.00
665.44	58.51
665.59	37.45
665.73	0.00
665.87	53.83
666.01	32.77
666.15	7.02
666.29	21.06
666.44	25.75
666.58	37.45
666.72	93.62
666.86	53.83
667.00	70.22
667.14	0.00
667.28	14.04
667.43	58.51
667.57	86.60
667.71	81.92
667.85	42.13
667.99	95.96
668.13	4.68
668.27	81.92
668.41	65.54
668.56	16.38
668.70	11.70
668.84	58.51
668.98	30.43
669.12	49.15
669.26	9.36
669.40	77.24
669.54	32.77
669.68	74.90
669.82	72.56
669.96	4.68
670.10	0.00
670.25	0.00
670.39	25.75
670.53	60.85
670.67	44.47
670.81	28.09
670.95	65.54
671.09	0.00
671.23	39.79
671.37	25.75
671.51	67.88
671.65	0.00
671.79	0.00
671.93	35.11
672.07	11.70
672.21	93.62
672.35	30.43
672.49	51.49
672.63	51.49
672.77	0.00
672.91	65.54
673.05	0.00
673.19	21.06
673.33	46.81
673.47	9.36
673.61	58.51
673.75	0.00
673.89	63.19
674.03	119.37
674.17	84.26
674.31	53.83
674.45	107.66
674.59	46.81
674.73	0.00
674.87	58.51
675.01	72.56
675.15	9.36
675.29	35.11
675.43	67.88
675.56	0.00
675.70	23.41
675.84	56.17
675.98	95.96
676.12	11.70
676.26	9.36
676.40	0.00
676.54	28.09
676.68	0.00
676.82	2.34
676.96	49.15
677.10	112.35
677.23	4.68
677.37	25.75
677.51	72.56
677.65	14.04
677.79	0.00
677.93	4.68
678.07	42.13
678.21	67.88
678.34	124.05
678.48	67.88
678.62	2.34
678.76	28.09
678.90	21.06
679.04	23.41
679.18	84.26
679.31	70.22
679.45	4.68
679.59	49.15
679.73	0.00
679.87	39.79
680.00	88.94
680.14	30.43
680.28	7.02
680.42	14.04
680.56	63.19
680.70	16.38
680.83	39.79
680.97	0.00
681.11	0.00
681.25	25.75
681.39	100.64
681.52	7.02
681.66	63.19
681.80	9.36
681.94	0.00
682.07	39.79
682.21	0.00
682.35	72.56
682.49	72.56
682.62	11.70
682.76	21.06
682.90	105.32
683.04	37.45
683.17	0.00
683.31	53.83
683.45	0.00
683.59	0.00
683.72	74.90
683.86	7.02
684.00	30.43
684.13	39.79
684.27	121.71
684.41	0.00
684.55	0.00
684.68	25.75
684.82	58.51
684.96	32.77
685.09	0.00
685.23	65.54
685.37	7.02
685.50	35.11
685.64	35.11
685.78	0.00
685.91	42.13
686.05	21.06
686.19	72.56
686.32	42.13
686.46	0.00
686.60	2.34
686.73	56.17
686.87	49.15
687.01	23.41
687.14	0.00
687.28	21.06
687.42	4.68
687.55	86.60
687.69	114.69
687.82	79.58
687.96	58.51
688.10	0.00
688.23	16.38
688.37	2.34
688.50	49.15
688.64	9.36
688.78	58.51
688.91	51.49
689.05	81.92
689.18	0.00
689.32	0.00
689.46	0.00
689.59	11.70
689.73	49.15
689.86	39.79
690.00	4.68
690.13	0.00
690.27	2.34
690.41	35.11
690.54	39.79
690.68	98.30
690.81	28.09
690.95	0.00
691.08	86.60
691.22	4.68
691.35	30.43
691.49	49.15
691.62	4.68
691.76	21.06
691.89	102.98
692.03	51.49
692.16	88.94
692.30	0.00
692.43	74.90
692.57	0.00
692.70	60.85
692.84	7.02
692.97	72.56
693.11	32.77
693.24	63.19
693.38	72.56
693.51	39.79
693.65	9.36
693.78	84.26
693.92	18.72
694.05	32.77
694.19	91.28
694.32	0.00
694.45	23.41
694.59	16.38
694.72	81.92
694.86	44.47
694.99	100.64
695.13	7.02
695.26	67.88
695.39	51.49
695.53	7.02
695.66	11.70
695.80	16.38
695.93	0.00
696.07	51.49
696.20	42.13
696.33	35.11
696.47	14.04
696.60	11.70
696.73	93.62
696.87	60.85
697.00	58.51
697.14	0.00
697.27	28.09
697.40	46.81
697.54	88.94
697.67	30.43
697.80	39.79
697.94	0.00
698.07	37.45
698.21	93.62
698.34	63.19
698.47	60.85
698.61	0.00
698.74	0.00
698.87	37.45
699.01	0.00
699.14	32.77
699.27	0.00
699.40	0.00
699.54	23.41
699.67	0.00
699.80	42.13
699.94	11.70
700.07	28.09
700.20	9.36
700.34	35.11
700.47	30.43
700.60	0.00
700.73	49.15
700.87	46.81
701.00	16.38
701.13	37.45
701.26	23.41
701.40	84.26
701.53	0.00
701.66	9.36
701.79	28.09
701.93	11.70
702.06	14.04
702.19	0.00
702.32	32.77
702.46	0.00
702.59	49.15
702.72	0.00
702.85	51.49
702.99	53.83
703.12	21.06
703.25	39.79
703.38	53.83
703.51	42.13
703.65	53.83
703.78	28.09
703.91	72.56
704.04	18.72
704.17	0.00
704.31	98.30
704.44	11.70
704.57	14.04
704.70	84.26
704.83	42.13
704.96	0.00
705.10	37.45
705.23	49.15
>>>>>End Processed Spectral Data<<<<<
