SpectraSuite Data File
++++++++++++++++++++++++++++++++++++
Date: Fri Oct 04 12:13:35 GMT-05:00 2013
User: price-jones
Dark Spectrum Present: No
Reference Spectrum Present: No
Number of Sampled Component Spectra: 1
Spectrometers: USB2+H05261
Integration Time (usec): 10000 (USB2+H05261)
Spectra Averaged: 1 (USB2+H05261)
Boxcar Smoothing: 0 (USB2+H05261)
Correct for Electrical Dark: No (USB2+H05261)
Strobe/Lamp Enabled: No (USB2+H05261)
Correct for Detector Non-linearity: No (USB2+H05261)
Correct for Stray Light: No (USB2+H05261)
Number of Pixels in Processed Spectrum: 2048
>>>>>Begin Processed Spectral Data<<<<<
365.73	11.70
365.92	11.70
366.12	11.70
366.32	0.00
366.52	0.00
366.72	0.00
366.91	0.00
367.11	0.00
367.31	0.00
367.51	0.00
367.70	0.00
367.90	0.00
368.10	0.00
368.30	0.00
368.49	0.00
368.69	0.00
368.89	0.00
369.09	0.00
369.28	0.00
369.48	0.00
369.68	0.00
369.87	0.00
370.07	0.00
370.27	0.00
370.47	0.00
370.66	0.00
370.86	0.00
371.06	11.70
371.25	0.00
371.45	0.00
371.65	0.00
371.84	0.00
372.04	0.00
372.24	2.34
372.44	7.02
372.63	51.49
372.83	74.90
373.03	18.72
373.22	32.77
373.42	0.00
373.62	28.09
373.81	39.79
374.01	0.00
374.21	0.00
374.40	0.00
374.60	74.90
374.79	77.24
374.99	4.68
375.19	56.17
375.38	49.15
375.58	30.43
375.78	32.77
375.97	58.51
376.17	0.00
376.37	4.68
376.56	58.51
376.76	0.00
376.95	2.34
377.15	0.00
377.35	0.00
377.54	11.70
377.74	84.26
377.93	35.11
378.13	2.34
378.33	16.38
378.52	77.24
378.72	84.26
378.91	32.77
379.11	21.06
379.31	42.13
379.50	56.17
379.70	67.88
379.89	9.36
380.09	7.02
380.28	30.43
380.48	81.92
380.68	0.00
380.87	37.45
381.07	0.00
381.26	0.00
381.46	32.77
381.65	35.11
381.85	14.04
382.04	28.09
382.24	21.06
382.43	39.79
382.63	60.85
382.83	30.43
383.02	18.72
383.22	9.36
383.41	0.00
383.61	86.60
383.80	7.02
384.00	28.09
384.19	46.81
384.39	0.00
384.58	67.88
384.78	0.00
384.97	0.00
385.17	35.11
385.36	30.43
385.56	53.83
385.75	0.00
385.95	42.13
386.14	4.68
386.34	44.47
386.53	0.00
386.72	0.00
386.92	16.38
387.11	0.00
387.31	0.00
387.50	18.72
387.70	11.70
387.89	21.06
388.09	2.34
388.28	63.19
388.48	63.19
388.67	0.00
388.86	88.94
389.06	14.04
389.25	21.06
389.45	77.24
389.64	0.00
389.84	65.54
390.03	49.15
390.22	65.54
390.42	2.34
390.61	18.72
390.81	16.38
391.00	53.83
391.19	51.49
391.39	70.22
391.58	44.47
391.78	18.72
391.97	63.19
392.16	4.68
392.36	51.49
392.55	72.56
392.75	42.13
392.94	74.90
393.13	0.00
393.33	46.81
393.52	56.17
393.71	91.28
393.91	16.38
394.10	2.34
394.29	0.00
394.49	0.00
394.68	0.00
394.88	58.51
395.07	72.56
395.26	4.68
395.46	42.13
395.65	44.47
395.84	39.79
396.04	102.98
396.23	0.00
396.42	30.43
396.62	0.00
396.81	30.43
397.00	37.45
397.19	0.00
397.39	0.00
397.58	0.00
397.77	107.66
397.97	0.00
398.16	81.92
398.35	0.00
398.55	39.79
398.74	9.36
398.93	37.45
399.12	0.00
399.32	23.41
399.51	58.51
399.70	58.51
399.90	9.36
400.09	0.00
400.28	18.72
400.47	65.54
400.67	102.98
400.86	2.34
401.05	11.70
401.24	39.79
401.44	4.68
401.63	18.72
401.82	65.54
402.01	79.58
402.21	18.72
402.40	4.68
402.59	79.58
402.78	72.56
402.97	0.00
403.17	18.72
403.36	0.00
403.55	0.00
403.74	110.01
403.93	0.00
404.13	11.70
404.32	21.06
404.51	32.77
404.70	0.00
404.89	2.34
405.09	7.02
405.28	39.79
405.47	42.13
405.66	46.81
405.85	25.75
406.05	67.88
406.24	32.77
406.43	60.85
406.62	0.00
406.81	86.60
407.00	28.09
407.20	53.83
407.39	95.96
407.58	32.77
407.77	11.70
407.96	16.38
408.15	18.72
408.34	51.49
408.54	11.70
408.73	28.09
408.92	14.04
409.11	0.00
409.30	28.09
409.49	63.19
409.68	28.09
409.87	79.58
410.07	70.22
410.26	44.47
410.45	0.00
410.64	58.51
410.83	86.60
411.02	0.00
411.21	0.00
411.40	0.00
411.59	0.00
411.78	35.11
411.98	138.09
412.17	25.75
412.36	37.45
412.55	18.72
412.74	44.47
412.93	95.96
413.12	79.58
413.31	35.11
413.50	18.72
413.69	9.36
413.88	72.56
414.07	35.11
414.26	25.75
414.45	65.54
414.64	77.24
414.83	0.00
415.02	0.00
415.22	49.15
415.41	105.32
415.60	49.15
415.79	53.83
415.98	11.70
416.17	46.81
416.36	37.45
416.55	65.54
416.74	0.00
416.93	107.66
417.12	11.70
417.31	14.04
417.50	0.00
417.69	37.45
417.88	14.04
418.07	107.66
418.26	14.04
418.45	60.85
418.64	18.72
418.83	0.00
419.02	0.00
419.21	63.19
419.39	32.77
419.58	0.00
419.77	9.36
419.96	21.06
420.15	86.60
420.34	70.22
420.53	0.00
420.72	0.00
420.91	46.81
421.10	0.00
421.29	51.49
421.48	37.45
421.67	0.00
421.86	39.79
422.05	0.00
422.24	70.22
422.43	0.00
422.61	63.19
422.80	25.75
422.99	32.77
423.18	58.51
423.37	37.45
423.56	79.58
423.75	46.81
423.94	35.11
424.13	0.00
424.32	60.85
424.50	0.00
424.69	0.00
424.88	11.70
425.07	63.19
425.26	4.68
425.45	0.00
425.64	0.00
425.83	21.06
426.01	42.13
426.20	11.70
426.39	32.77
426.58	60.85
426.77	0.00
426.96	49.15
427.15	0.00
427.33	28.09
427.52	51.49
427.71	18.72
427.90	67.88
428.09	0.00
428.28	4.68
428.46	23.41
428.65	0.00
428.84	42.13
429.03	30.43
429.22	9.36
429.40	0.00
429.59	28.09
429.78	32.77
429.97	91.28
430.16	72.56
430.34	81.92
430.53	0.00
430.72	63.19
430.91	60.85
431.10	60.85
431.28	86.60
431.47	0.00
431.66	42.13
431.85	21.06
432.03	7.02
432.22	49.15
432.41	51.49
432.60	28.09
432.79	25.75
432.97	58.51
433.16	0.00
433.35	35.11
433.54	86.60
433.72	88.94
433.91	107.66
434.10	58.51
434.28	35.11
434.47	0.00
434.66	11.70
434.85	30.43
435.03	28.09
435.22	0.00
435.41	56.17
435.59	21.06
435.78	30.43
435.97	42.13
436.16	30.43
436.34	51.49
436.53	0.00
436.72	44.47
436.90	44.47
437.09	168.52
437.28	0.00
437.46	39.79
437.65	49.15
437.84	49.15
438.02	72.56
438.21	56.17
438.40	44.47
438.58	39.79
438.77	0.00
438.96	23.41
439.14	0.00
439.33	67.88
439.52	7.02
439.70	112.35
439.89	58.51
440.08	72.56
440.26	60.85
440.45	30.43
440.63	0.00
440.82	65.54
441.01	91.28
441.19	60.85
441.38	14.04
441.57	0.00
441.75	60.85
441.94	60.85
442.12	37.45
442.31	65.54
442.50	63.19
442.68	102.98
442.87	93.62
443.05	51.49
443.24	25.75
443.43	110.01
443.61	128.73
443.80	74.90
443.98	60.85
444.17	9.36
444.35	46.81
444.54	18.72
444.73	112.35
444.91	42.13
445.10	84.26
445.28	11.70
445.47	37.45
445.65	0.00
445.84	0.00
446.02	81.92
446.21	93.62
446.39	23.41
446.58	0.00
446.77	81.92
446.95	25.75
447.14	74.90
447.32	86.60
447.51	18.72
447.69	11.70
447.88	93.62
448.06	105.32
448.25	112.35
448.43	126.39
448.62	107.66
448.80	74.90
448.99	51.49
449.17	53.83
449.36	91.28
449.54	67.88
449.73	133.41
449.91	2.34
450.10	67.88
450.28	65.54
450.46	0.00
450.65	21.06
450.83	32.77
451.02	98.30
451.20	105.32
451.39	25.75
451.57	37.45
451.76	112.35
451.94	70.22
452.13	35.11
452.31	105.32
452.49	53.83
452.68	56.17
452.86	7.02
453.05	86.60
453.23	93.62
453.42	65.54
453.60	46.81
453.78	11.70
453.97	0.00
454.15	21.06
454.34	39.79
454.52	25.75
454.70	46.81
454.89	91.28
455.07	28.09
455.26	28.09
455.44	0.00
455.62	56.17
455.81	77.24
455.99	0.00
456.17	39.79
456.36	0.00
456.54	42.13
456.73	86.60
456.91	32.77
457.09	35.11
457.28	14.04
457.46	56.17
457.64	70.22
457.83	63.19
458.01	63.19
458.19	107.66
458.38	67.88
458.56	44.47
458.74	70.22
458.93	53.83
459.11	63.19
459.29	70.22
459.48	9.36
459.66	7.02
459.84	42.13
460.03	77.24
460.21	39.79
460.39	100.64
460.57	105.32
460.76	32.77
460.94	51.49
461.12	65.54
461.31	49.15
461.49	105.32
461.67	39.79
461.85	110.01
462.04	53.83
462.22	152.13
462.40	51.49
462.59	77.24
462.77	67.88
462.95	14.04
463.13	63.19
463.32	44.47
463.50	72.56
463.68	9.36
463.86	72.56
464.05	39.79
464.23	98.30
464.41	74.90
464.59	70.22
464.78	44.47
464.96	9.36
465.14	42.13
465.32	44.47
465.50	4.68
465.69	58.51
465.87	28.09
466.05	102.98
466.23	63.19
466.41	74.90
466.60	131.07
466.78	102.98
466.96	51.49
467.14	53.83
467.32	0.00
467.51	98.30
467.69	25.75
467.87	58.51
468.05	63.19
468.23	51.49
468.41	70.22
468.60	25.75
468.78	21.06
468.96	70.22
469.14	0.00
469.32	21.06
469.50	51.49
469.69	58.51
469.87	70.22
470.05	102.98
470.23	63.19
470.41	39.79
470.59	93.62
470.77	100.64
470.95	21.06
471.14	63.19
471.32	119.37
471.50	42.13
471.68	86.60
471.86	14.04
472.04	23.41
472.22	105.32
472.40	0.00
472.58	53.83
472.77	58.51
472.95	44.47
473.13	98.30
473.31	77.24
473.49	51.49
473.67	81.92
473.85	70.22
474.03	88.94
474.21	51.49
474.39	117.03
474.57	98.30
474.75	74.90
474.93	18.72
475.12	0.00
475.30	65.54
475.48	117.03
475.66	0.00
475.84	2.34
476.02	39.79
476.20	93.62
476.38	16.38
476.56	63.19
476.74	35.11
476.92	49.15
477.10	86.60
477.28	63.19
477.46	39.79
477.64	84.26
477.82	79.58
478.00	77.24
478.18	23.41
478.36	86.60
478.54	0.00
478.72	98.30
478.90	65.54
479.08	28.09
479.26	25.75
479.44	124.05
479.62	18.72
479.80	25.75
479.98	81.92
480.16	93.62
480.34	102.98
480.52	81.92
480.70	95.96
480.88	0.00
481.06	16.38
481.24	133.41
481.41	110.01
481.59	145.11
481.77	37.45
481.95	98.30
482.13	72.56
482.31	58.51
482.49	119.37
482.67	44.47
482.85	46.81
483.03	42.13
483.21	49.15
483.39	35.11
483.57	74.90
483.74	21.06
483.92	112.35
484.10	42.13
484.28	91.28
484.46	126.39
484.64	98.30
484.82	131.07
485.00	131.07
485.18	98.30
485.35	126.39
485.53	72.56
485.71	98.30
485.89	88.94
486.07	42.13
486.25	0.00
486.43	51.49
486.61	9.36
486.78	70.22
486.96	72.56
487.14	117.03
487.32	35.11
487.50	74.90
487.68	42.13
487.85	81.92
488.03	133.41
488.21	53.83
488.39	140.43
488.57	65.54
488.75	77.24
488.92	81.92
489.10	28.09
489.28	70.22
489.46	25.75
489.64	119.37
489.81	105.32
489.99	86.60
490.17	142.77
490.35	100.64
490.53	145.11
490.70	9.36
490.88	60.85
491.06	72.56
491.24	100.64
491.41	56.17
491.59	93.62
491.77	46.81
491.95	84.26
492.13	112.35
492.30	98.30
492.48	0.00
492.66	44.47
492.84	88.94
493.01	0.00
493.19	138.09
493.37	119.37
493.54	119.37
493.72	56.17
493.90	93.62
494.08	72.56
494.25	93.62
494.43	16.38
494.61	117.03
494.79	110.01
494.96	16.38
495.14	0.00
495.32	46.81
495.49	95.96
495.67	65.54
495.85	51.49
496.02	49.15
496.20	81.92
496.38	74.90
496.55	46.81
496.73	84.26
496.91	42.13
497.09	63.19
497.26	81.92
497.44	100.64
497.62	18.72
497.79	51.49
497.97	163.84
498.14	0.00
498.32	93.62
498.50	81.92
498.67	112.35
498.85	21.06
499.03	49.15
499.20	70.22
499.38	72.56
499.56	126.39
499.73	98.30
499.91	67.88
500.08	102.98
500.26	21.06
500.44	60.85
500.61	30.43
500.79	112.35
500.97	119.37
501.14	35.11
501.32	60.85
501.49	30.43
501.67	70.22
501.84	121.71
502.02	84.26
502.20	51.49
502.37	72.56
502.55	88.94
502.72	70.22
502.90	170.86
503.07	131.07
503.25	177.88
503.43	107.66
503.60	72.56
503.78	53.83
503.95	63.19
504.13	133.41
504.30	53.83
504.48	23.41
504.65	91.28
504.83	37.45
505.01	60.85
505.18	77.24
505.36	119.37
505.53	32.77
505.71	37.45
505.88	114.69
506.06	117.03
506.23	60.85
506.41	79.58
506.58	84.26
506.76	72.56
506.93	67.88
507.11	102.98
507.28	49.15
507.46	105.32
507.63	58.51
507.81	74.90
507.98	88.94
508.16	93.62
508.33	67.88
508.50	124.05
508.68	44.47
508.85	51.49
509.03	65.54
509.20	53.83
509.38	0.00
509.55	35.11
509.73	51.49
509.90	86.60
510.08	67.88
510.25	56.17
510.42	70.22
510.60	49.15
510.77	60.85
510.95	117.03
511.12	79.58
511.30	56.17
511.47	95.96
511.64	91.28
511.82	100.64
511.99	28.09
512.17	86.60
512.34	142.77
512.51	58.51
512.69	81.92
512.86	95.96
513.04	95.96
513.21	102.98
513.38	51.49
513.56	35.11
513.73	154.48
513.90	86.60
514.08	91.28
514.25	77.24
514.43	91.28
514.60	95.96
514.77	114.69
514.95	74.90
515.12	37.45
515.29	67.88
515.47	65.54
515.64	56.17
515.81	25.75
515.99	51.49
516.16	37.45
516.33	112.35
516.51	93.62
516.68	105.32
516.85	81.92
517.03	67.88
517.20	117.03
517.37	63.19
517.54	117.03
517.72	44.47
517.89	128.73
518.06	93.62
518.24	84.26
518.41	119.37
518.58	74.90
518.75	154.48
518.93	159.16
519.10	30.43
519.27	161.50
519.45	11.70
519.62	84.26
519.79	72.56
519.96	91.28
520.14	91.28
520.31	86.60
520.48	51.49
520.65	93.62
520.83	100.64
521.00	79.58
521.17	121.71
521.34	35.11
521.52	67.88
521.69	72.56
521.86	21.06
522.03	56.17
522.20	81.92
522.38	93.62
522.55	67.88
522.72	100.64
522.89	67.88
523.07	112.35
523.24	91.28
523.41	93.62
523.58	117.03
523.75	126.39
523.92	58.51
524.10	119.37
524.27	124.05
524.44	74.90
524.61	138.09
524.78	32.77
524.96	93.62
525.13	135.75
525.30	84.26
525.47	46.81
525.64	112.35
525.81	156.82
525.98	93.62
526.16	37.45
526.33	77.24
526.50	128.73
526.67	72.56
526.84	93.62
527.01	110.01
527.18	65.54
527.36	81.92
527.53	67.88
527.70	49.15
527.87	133.41
528.04	102.98
528.21	88.94
528.38	28.09
528.55	93.62
528.72	70.22
528.89	58.51
529.07	21.06
529.24	39.79
529.41	72.56
529.58	56.17
529.75	58.51
529.92	124.05
530.09	117.03
530.26	60.85
530.43	14.04
530.60	51.49
530.77	131.07
530.94	98.30
531.11	93.62
531.28	46.81
531.46	131.07
531.63	110.01
531.80	63.19
531.97	93.62
532.14	77.24
532.31	100.64
532.48	100.64
532.65	121.71
532.82	60.85
532.99	128.73
533.16	79.58
533.33	70.22
533.50	88.94
533.67	37.45
533.84	37.45
534.01	100.64
534.18	91.28
534.35	88.94
534.52	65.54
534.69	49.15
534.86	28.09
535.03	154.48
535.20	77.24
535.37	70.22
535.54	81.92
535.71	95.96
535.88	70.22
536.05	53.83
536.22	86.60
536.38	56.17
536.55	138.09
536.72	131.07
536.89	119.37
537.06	81.92
537.23	77.24
537.40	114.69
537.57	70.22
537.74	91.28
537.91	60.85
538.08	63.19
538.25	0.00
538.42	58.51
538.59	121.71
538.75	70.22
538.92	16.38
539.09	84.26
539.26	145.11
539.43	110.01
539.60	74.90
539.77	63.19
539.94	65.54
540.11	2.34
540.28	102.98
540.44	42.13
540.61	112.35
540.78	4.68
540.95	84.26
541.12	110.01
541.29	138.09
541.46	107.66
541.62	93.62
541.79	77.24
541.96	49.15
542.13	70.22
542.30	154.48
542.47	93.62
542.63	84.26
542.80	60.85
542.97	7.02
543.14	131.07
543.31	93.62
543.48	65.54
543.64	107.66
543.81	105.32
543.98	88.94
544.15	100.64
544.32	16.38
544.48	65.54
544.65	72.56
544.82	77.24
544.99	81.92
545.16	95.96
545.32	51.49
545.49	0.00
545.66	18.72
545.83	28.09
546.00	81.92
546.16	95.96
546.33	81.92
546.50	95.96
546.67	114.69
546.83	105.32
547.00	98.30
547.17	63.19
547.34	135.75
547.50	88.94
547.67	7.02
547.84	60.85
548.00	81.92
548.17	88.94
548.34	84.26
548.51	46.81
548.67	154.48
548.84	135.75
549.01	163.84
549.18	60.85
549.34	121.71
549.51	58.51
549.68	98.30
549.84	91.28
550.01	74.90
550.18	42.13
550.34	16.38
550.51	95.96
550.68	74.90
550.84	91.28
551.01	56.17
551.18	25.75
551.34	84.26
551.51	100.64
551.68	91.28
551.84	39.79
552.01	58.51
552.18	154.48
552.34	65.54
552.51	142.77
552.68	74.90
552.84	102.98
553.01	86.60
553.18	98.30
553.34	65.54
553.51	0.00
553.67	107.66
553.84	147.45
554.01	0.00
554.17	63.19
554.34	72.56
554.51	53.83
554.67	77.24
554.84	117.03
555.00	67.88
555.17	49.15
555.33	32.77
555.50	2.34
555.67	131.07
555.83	95.96
556.00	79.58
556.16	119.37
556.33	14.04
556.50	16.38
556.66	60.85
556.83	105.32
556.99	161.50
557.16	114.69
557.32	88.94
557.49	105.32
557.65	74.90
557.82	21.06
557.98	91.28
558.15	35.11
558.32	74.90
558.48	77.24
558.65	0.00
558.81	35.11
558.98	70.22
559.14	88.94
559.31	93.62
559.47	70.22
559.64	44.47
559.80	14.04
559.97	126.39
560.13	124.05
560.30	84.26
560.46	60.85
560.63	138.09
560.79	147.45
560.96	25.75
561.12	70.22
561.29	79.58
561.45	58.51
561.61	51.49
561.78	110.01
561.94	79.58
562.11	70.22
562.27	84.26
562.44	86.60
562.60	67.88
562.77	65.54
562.93	161.50
563.10	142.77
563.26	105.32
563.42	60.85
563.59	35.11
563.75	121.71
563.92	142.77
564.08	70.22
564.24	49.15
564.41	56.17
564.57	135.75
564.74	112.35
564.90	74.90
565.07	74.90
565.23	91.28
565.39	84.26
565.56	51.49
565.72	16.38
565.88	135.75
566.05	65.54
566.21	81.92
566.38	46.81
566.54	102.98
566.70	9.36
566.87	117.03
567.03	84.26
567.19	119.37
567.36	107.66
567.52	102.98
567.68	53.83
567.85	51.49
568.01	58.51
568.17	63.19
568.34	156.82
568.50	65.54
568.66	74.90
568.83	84.26
568.99	100.64
569.15	110.01
569.32	72.56
569.48	70.22
569.64	46.81
569.81	28.09
569.97	42.13
570.13	98.30
570.30	81.92
570.46	46.81
570.62	74.90
570.78	63.19
570.95	95.96
571.11	107.66
571.27	107.66
571.43	81.92
571.60	105.32
571.76	79.58
571.92	60.85
572.09	88.94
572.25	0.00
572.41	51.49
572.57	77.24
572.74	95.96
572.90	180.22
573.06	124.05
573.22	119.37
573.38	37.45
573.55	86.60
573.71	58.51
573.87	95.96
574.03	117.03
574.20	51.49
574.36	119.37
574.52	56.17
574.68	93.62
574.84	77.24
575.01	88.94
575.17	74.90
575.33	30.43
575.49	42.13
575.65	154.48
575.82	37.45
575.98	56.17
576.14	51.49
576.30	58.51
576.46	124.05
576.62	32.77
576.79	126.39
576.95	53.83
577.11	39.79
577.27	102.98
577.43	107.66
577.59	124.05
577.75	98.30
577.92	79.58
578.08	70.22
578.24	65.54
578.40	70.22
578.56	0.00
578.72	65.54
578.88	142.77
579.04	0.00
579.21	107.66
579.37	44.47
579.53	25.75
579.69	30.43
579.85	98.30
580.01	60.85
580.17	81.92
580.33	93.62
580.49	67.88
580.65	79.58
580.82	42.13
580.98	100.64
581.14	135.75
581.30	79.58
581.46	119.37
581.62	65.54
581.78	81.92
581.94	117.03
582.10	63.19
582.26	81.92
582.42	173.20
582.58	105.32
582.74	102.98
582.90	21.06
583.06	84.26
583.22	77.24
583.38	88.94
583.54	35.11
583.70	60.85
583.86	77.24
584.02	91.28
584.18	16.38
584.34	42.13
584.50	114.69
584.66	81.92
584.82	56.17
584.98	112.35
585.14	84.26
585.30	37.45
585.46	23.41
585.62	28.09
585.78	58.51
585.94	98.30
586.10	126.39
586.26	65.54
586.42	63.19
586.58	51.49
586.74	110.01
586.90	70.22
587.06	81.92
587.22	100.64
587.38	67.88
587.54	74.90
587.70	156.82
587.86	133.41
588.02	67.88
588.18	16.38
588.34	98.30
588.49	28.09
588.65	2.34
588.81	65.54
588.97	72.56
589.13	102.98
589.29	51.49
589.45	79.58
589.61	44.47
589.77	65.54
589.93	70.22
590.08	117.03
590.24	32.77
590.40	65.54
590.56	91.28
590.72	102.98
590.88	35.11
591.04	74.90
591.20	102.98
591.35	37.45
591.51	117.03
591.67	60.85
591.83	77.24
591.99	49.15
592.15	42.13
592.31	58.51
592.46	0.00
592.62	81.92
592.78	4.68
592.94	70.22
593.10	18.72
593.26	119.37
593.41	77.24
593.57	63.19
593.73	35.11
593.89	98.30
594.05	131.07
594.20	98.30
594.36	63.19
594.52	42.13
594.68	0.00
594.84	49.15
594.99	110.01
595.15	49.15
595.31	84.26
595.47	30.43
595.62	81.92
595.78	102.98
595.94	0.00
596.10	44.47
596.25	37.45
596.41	154.48
596.57	88.94
596.73	79.58
596.88	79.58
597.04	70.22
597.20	42.13
597.36	63.19
597.51	37.45
597.67	9.36
597.83	74.90
597.99	86.60
598.14	0.00
598.30	25.75
598.46	110.01
598.61	67.88
598.77	79.58
598.93	58.51
599.09	79.58
599.24	44.47
599.40	98.30
599.56	159.16
599.71	51.49
599.87	37.45
600.03	0.00
600.18	32.77
600.34	21.06
600.50	107.66
600.65	72.56
600.81	110.01
600.97	86.60
601.12	93.62
601.28	39.79
601.44	0.00
601.59	0.00
601.75	37.45
601.91	114.69
602.06	9.36
602.22	30.43
602.37	77.24
602.53	4.68
602.69	63.19
602.84	117.03
603.00	88.94
603.16	67.88
603.31	53.83
603.47	0.00
603.62	95.96
603.78	88.94
603.94	23.41
604.09	91.28
604.25	133.41
604.40	72.56
604.56	11.70
604.71	70.22
604.87	91.28
605.03	86.60
605.18	49.15
605.34	42.13
605.49	138.09
605.65	30.43
605.80	138.09
605.96	93.62
606.12	74.90
606.27	51.49
606.43	56.17
606.58	93.62
606.74	60.85
606.89	110.01
607.05	37.45
607.20	102.98
607.36	0.00
607.51	9.36
607.67	72.56
607.82	60.85
607.98	65.54
608.13	84.26
608.29	53.83
608.44	88.94
608.60	51.49
608.75	79.58
608.91	105.32
609.06	81.92
609.22	30.43
609.37	110.01
609.53	138.09
609.68	65.54
609.84	72.56
609.99	58.51
610.15	74.90
610.30	107.66
610.46	72.56
610.61	42.13
610.76	86.60
610.92	77.24
611.07	46.81
611.23	88.94
611.38	70.22
611.54	0.00
611.69	44.47
611.84	37.45
612.00	65.54
612.15	25.75
612.31	51.49
612.46	112.35
612.62	77.24
612.77	81.92
612.92	28.09
613.08	105.32
613.23	11.70
613.39	25.75
613.54	81.92
613.69	35.11
613.85	77.24
614.00	56.17
614.15	142.77
614.31	93.62
614.46	84.26
614.62	23.41
614.77	35.11
614.92	95.96
615.08	51.49
615.23	70.22
615.38	9.36
615.54	53.83
615.69	88.94
615.84	42.13
616.00	138.09
616.15	9.36
616.30	46.81
616.46	121.71
616.61	119.37
616.76	70.22
616.92	121.71
617.07	51.49
617.22	100.64
617.37	74.90
617.53	42.13
617.68	72.56
617.83	53.83
617.99	51.49
618.14	102.98
618.29	42.13
618.45	25.75
618.60	77.24
618.75	4.68
618.90	58.51
619.06	39.79
619.21	81.92
619.36	53.83
619.51	37.45
619.67	67.88
619.82	56.17
619.97	53.83
620.12	44.47
620.28	74.90
620.43	84.26
620.58	79.58
620.73	58.51
620.89	44.47
621.04	49.15
621.19	49.15
621.34	49.15
621.49	35.11
621.65	81.92
621.80	49.15
621.95	65.54
622.10	93.62
622.25	159.16
622.41	121.71
622.56	49.15
622.71	70.22
622.86	0.00
623.01	0.00
623.16	56.17
623.32	77.24
623.47	35.11
623.62	81.92
623.77	58.51
623.92	21.06
624.07	35.11
624.23	124.05
624.38	0.00
624.53	58.51
624.68	46.81
624.83	35.11
624.98	42.13
625.13	0.00
625.29	84.26
625.44	126.39
625.59	46.81
625.74	72.56
625.89	128.73
626.04	46.81
626.19	93.62
626.34	35.11
626.49	102.98
626.65	25.75
626.80	98.30
626.95	86.60
627.10	30.43
627.25	51.49
627.40	44.47
627.55	21.06
627.70	46.81
627.85	58.51
628.00	79.58
628.15	32.77
628.30	74.90
628.45	110.01
628.60	77.24
628.76	42.13
628.91	133.41
629.06	114.69
629.21	30.43
629.36	70.22
629.51	35.11
629.66	44.47
629.81	81.92
629.96	0.00
630.11	39.79
630.26	114.69
630.41	86.60
630.56	107.66
630.71	11.70
630.86	93.62
631.01	53.83
631.16	126.39
631.31	46.81
631.46	140.43
631.61	60.85
631.76	72.56
631.91	88.94
632.06	114.69
632.21	49.15
632.36	60.85
632.51	77.24
632.66	21.06
632.81	84.26
632.96	42.13
633.10	44.47
633.25	23.41
633.40	25.75
633.55	53.83
633.70	28.09
633.85	0.00
634.00	77.24
634.15	23.41
634.30	25.75
634.45	2.34
634.60	72.56
634.75	60.85
634.90	88.94
635.05	42.13
635.19	7.02
635.34	23.41
635.49	37.45
635.64	86.60
635.79	88.94
635.94	37.45
636.09	51.49
636.24	16.38
636.39	39.79
636.53	128.73
636.68	16.38
636.83	23.41
636.98	91.28
637.13	93.62
637.28	63.19
637.43	84.26
637.57	11.70
637.72	86.60
637.87	30.43
638.02	25.75
638.17	105.32
638.32	53.83
638.46	53.83
638.61	56.17
638.76	11.70
638.91	79.58
639.06	70.22
639.20	95.96
639.35	37.45
639.50	32.77
639.65	37.45
639.80	11.70
639.94	91.28
640.09	98.30
640.24	51.49
640.39	0.00
640.54	145.11
640.68	112.35
640.83	63.19
640.98	18.72
641.13	53.83
641.27	58.51
641.42	95.96
641.57	72.56
641.72	51.49
641.86	65.54
642.01	121.71
642.16	100.64
642.31	42.13
642.45	14.04
642.60	72.56
642.75	49.15
642.90	114.69
643.04	58.51
643.19	46.81
643.34	9.36
643.48	51.49
643.63	39.79
643.78	74.90
643.93	131.07
644.07	39.79
644.22	14.04
644.37	81.92
644.51	32.77
644.66	53.83
644.81	126.39
644.95	51.49
645.10	72.56
645.25	56.17
645.39	37.45
645.54	70.22
645.69	60.85
645.83	0.00
645.98	70.22
646.13	58.51
646.27	100.64
646.42	110.01
646.57	30.43
646.71	23.41
646.86	72.56
647.00	23.41
647.15	98.30
647.30	95.96
647.44	0.00
647.59	58.51
647.74	16.38
647.88	56.17
648.03	2.34
648.17	56.17
648.32	44.47
648.47	72.56
648.61	67.88
648.76	44.47
648.90	98.30
649.05	86.60
649.20	91.28
649.34	102.98
649.49	81.92
649.63	39.79
649.78	119.37
649.92	60.85
650.07	84.26
650.21	77.24
650.36	60.85
650.51	88.94
650.65	81.92
650.80	93.62
650.94	51.49
651.09	37.45
651.23	14.04
651.38	58.51
651.52	79.58
651.67	133.41
651.81	74.90
651.96	100.64
652.10	28.09
652.25	35.11
652.39	2.34
652.54	4.68
652.68	49.15
652.83	4.68
652.97	51.49
653.12	72.56
653.26	102.98
653.41	79.58
653.55	28.09
653.70	0.00
653.84	16.38
653.99	65.54
654.13	70.22
654.27	105.32
654.42	58.51
654.56	0.00
654.71	0.00
654.85	0.00
655.00	0.00
655.14	9.36
655.29	77.24
655.43	135.75
655.57	86.60
655.72	91.28
655.86	7.02
656.01	53.83
656.15	32.77
656.30	25.75
656.44	35.11
656.58	21.06
656.73	60.85
656.87	84.26
657.01	81.92
657.16	46.81
657.30	102.98
657.45	28.09
657.59	37.45
657.73	102.98
657.88	81.92
658.02	79.58
658.16	74.90
658.31	81.92
658.45	46.81
658.60	16.38
658.74	72.56
658.88	117.03
659.03	70.22
659.17	21.06
659.31	58.51
659.46	49.15
659.60	84.26
659.74	70.22
659.89	65.54
660.03	18.72
660.17	9.36
660.32	149.79
660.46	79.58
660.60	0.00
660.74	2.34
660.89	25.75
661.03	44.47
661.17	44.47
661.32	142.77
661.46	46.81
661.60	72.56
661.74	63.19
661.89	28.09
662.03	79.58
662.17	56.17
662.31	44.47
662.46	63.19
662.60	49.15
662.74	32.77
662.88	11.70
663.03	121.71
663.17	28.09
663.31	7.02
663.45	70.22
663.60	37.45
663.74	126.39
663.88	102.98
664.02	0.00
664.17	18.72
664.31	63.19
664.45	63.19
664.59	79.58
664.73	28.09
664.88	49.15
665.02	25.75
665.16	63.19
665.30	110.01
665.44	23.41
665.59	60.85
665.73	44.47
665.87	7.02
666.01	35.11
666.15	95.96
666.29	14.04
666.44	32.77
666.58	110.01
666.72	67.88
666.86	32.77
667.00	65.54
667.14	105.32
667.28	23.41
667.43	42.13
667.57	93.62
667.71	98.30
667.85	0.00
667.99	49.15
668.13	9.36
668.27	44.47
668.41	65.54
668.56	93.62
668.70	23.41
668.84	112.35
668.98	23.41
669.12	23.41
669.26	0.00
669.40	110.01
669.54	72.56
669.68	42.13
669.82	0.00
669.96	0.00
670.10	4.68
670.25	9.36
670.39	81.92
670.53	131.07
670.67	56.17
670.81	23.41
670.95	105.32
671.09	42.13
671.23	86.60
671.37	84.26
671.51	65.54
671.65	74.90
671.79	65.54
671.93	4.68
672.07	42.13
672.21	65.54
672.35	107.66
672.49	60.85
672.63	21.06
672.77	168.52
672.91	72.56
673.05	42.13
673.19	11.70
673.33	32.77
673.47	35.11
673.61	60.85
673.75	0.00
673.89	0.00
674.03	42.13
674.17	95.96
674.31	65.54
674.45	30.43
674.59	53.83
674.73	60.85
674.87	44.47
675.01	18.72
675.15	60.85
675.29	23.41
675.43	11.70
675.56	72.56
675.70	65.54
675.84	95.96
675.98	0.00
676.12	32.77
676.26	128.73
676.40	21.06
676.54	0.00
676.68	0.00
676.82	32.77
676.96	2.34
677.10	60.85
677.23	21.06
677.37	65.54
677.51	95.96
677.65	79.58
677.79	0.00
677.93	49.15
678.07	0.00
678.21	56.17
678.34	51.49
678.48	32.77
678.62	51.49
678.76	14.04
678.90	79.58
679.04	0.00
679.18	65.54
679.31	60.85
679.45	32.77
679.59	88.94
679.73	0.00
679.87	35.11
680.00	39.79
680.14	37.45
680.28	114.69
680.42	30.43
680.56	4.68
680.70	37.45
680.83	30.43
680.97	107.66
681.11	37.45
681.25	0.00
681.39	18.72
681.52	9.36
681.66	9.36
681.80	0.00
681.94	51.49
682.07	60.85
682.21	98.30
682.35	14.04
682.49	49.15
682.62	63.19
682.76	56.17
682.90	11.70
683.04	2.34
683.17	44.47
683.31	0.00
683.45	53.83
683.59	0.00
683.72	0.00
683.86	74.90
684.00	56.17
684.13	63.19
684.27	4.68
684.41	9.36
684.55	88.94
684.68	44.47
684.82	65.54
684.96	53.83
685.09	0.00
685.23	63.19
685.37	18.72
685.50	49.15
685.64	112.35
685.78	98.30
685.91	79.58
686.05	77.24
686.19	51.49
686.32	32.77
686.46	65.54
686.60	67.88
686.73	81.92
686.87	0.00
687.01	14.04
687.14	65.54
687.28	37.45
687.42	0.00
687.55	46.81
687.69	0.00
687.82	23.41
687.96	72.56
688.10	25.75
688.23	18.72
688.37	56.17
688.50	49.15
688.64	42.13
688.78	28.09
688.91	42.13
689.05	0.00
689.18	72.56
689.32	4.68
689.46	65.54
689.59	63.19
689.73	0.00
689.86	21.06
690.00	79.58
690.13	42.13
690.27	74.90
690.41	58.51
690.54	93.62
690.68	0.00
690.81	58.51
690.95	98.30
691.08	11.70
691.22	58.51
691.35	56.17
691.49	51.49
691.62	81.92
691.76	16.38
691.89	0.00
692.03	0.00
692.16	0.00
692.30	60.85
692.43	86.60
692.57	58.51
692.70	84.26
692.84	0.00
692.97	0.00
693.11	67.88
693.24	46.81
693.38	81.92
693.51	21.06
693.65	2.34
693.78	67.88
693.92	0.00
694.05	42.13
694.19	86.60
694.32	0.00
694.45	0.00
694.59	0.00
694.72	0.00
694.86	14.04
694.99	11.70
695.13	23.41
695.26	9.36
695.39	28.09
695.53	0.00
695.66	25.75
695.80	53.83
695.93	0.00
696.07	25.75
696.20	35.11
696.33	4.68
696.47	138.09
696.60	0.00
696.73	100.64
696.87	0.00
697.00	21.06
697.14	56.17
697.27	84.26
697.40	114.69
697.54	98.30
697.67	35.11
697.80	84.26
697.94	67.88
698.07	39.79
698.21	0.00
698.34	9.36
698.47	0.00
698.61	98.30
698.74	53.83
698.87	65.54
699.01	51.49
699.14	53.83
699.27	37.45
699.40	49.15
699.54	86.60
699.67	9.36
699.80	0.00
699.94	25.75
700.07	21.06
700.20	0.00
700.34	44.47
700.47	65.54
700.60	0.00
700.73	32.77
700.87	0.00
701.00	16.38
701.13	16.38
701.26	39.79
701.40	0.00
701.53	2.34
701.66	77.24
701.79	58.51
701.93	32.77
702.06	81.92
702.19	0.00
702.32	4.68
702.46	37.45
702.59	25.75
702.72	0.00
702.85	86.60
702.99	0.00
703.12	32.77
703.25	77.24
703.38	21.06
703.51	65.54
703.65	81.92
703.78	60.85
703.91	53.83
704.04	9.36
704.17	39.79
704.31	0.00
704.44	35.11
704.57	32.77
704.70	0.00
704.83	91.28
704.96	14.04
705.10	58.51
705.23	84.26
>>>>>End Processed Spectral Data<<<<<
