SpectraSuite Data File
++++++++++++++++++++++++++++++++++++
Date: Fri Oct 04 12:13:24 GMT-05:00 2013
User: price-jones
Dark Spectrum Present: No
Reference Spectrum Present: No
Number of Sampled Component Spectra: 1
Spectrometers: USB2+H05261
Integration Time (usec): 10000 (USB2+H05261)
Spectra Averaged: 1 (USB2+H05261)
Boxcar Smoothing: 0 (USB2+H05261)
Correct for Electrical Dark: No (USB2+H05261)
Strobe/Lamp Enabled: No (USB2+H05261)
Correct for Detector Non-linearity: No (USB2+H05261)
Correct for Stray Light: No (USB2+H05261)
Number of Pixels in Processed Spectrum: 2048
>>>>>Begin Processed Spectral Data<<<<<
365.73	0.00
365.92	0.00
366.12	0.00
366.32	0.00
366.52	0.00
366.72	0.00
366.91	0.00
367.11	0.00
367.31	0.00
367.51	0.00
367.70	0.00
367.90	0.00
368.10	0.00
368.30	0.00
368.49	0.00
368.69	0.00
368.89	0.00
369.09	0.00
369.28	0.00
369.48	0.00
369.68	0.00
369.87	0.00
370.07	0.00
370.27	0.00
370.47	0.00
370.66	0.00
370.86	0.00
371.06	0.00
371.25	0.00
371.45	0.00
371.65	0.00
371.84	30.43
372.04	23.41
372.24	14.04
372.44	0.00
372.63	0.00
372.83	0.00
373.03	32.77
373.22	18.72
373.42	0.00
373.62	42.13
373.81	72.56
374.01	7.02
374.21	32.77
374.40	135.75
374.60	0.00
374.79	9.36
374.99	67.88
375.19	42.13
375.38	0.00
375.58	0.00
375.78	46.81
375.97	53.83
376.17	65.54
376.37	0.00
376.56	0.00
376.76	0.00
376.95	56.17
377.15	0.00
377.35	32.77
377.54	11.70
377.74	7.02
377.93	28.09
378.13	49.15
378.33	37.45
378.52	30.43
378.72	7.02
378.91	56.17
379.11	0.00
379.31	25.75
379.50	72.56
379.70	42.13
379.89	0.00
380.09	0.00
380.28	84.26
380.48	0.00
380.68	79.58
380.87	0.00
381.07	28.09
381.26	18.72
381.46	14.04
381.65	46.81
381.85	0.00
382.04	0.00
382.24	0.00
382.43	18.72
382.63	0.00
382.83	58.51
383.02	60.85
383.22	70.22
383.41	58.51
383.61	0.00
383.80	0.00
384.00	30.43
384.19	2.34
384.39	25.75
384.58	39.79
384.78	0.00
384.97	14.04
385.17	18.72
385.36	2.34
385.56	32.77
385.75	32.77
385.95	30.43
386.14	46.81
386.34	9.36
386.53	4.68
386.72	63.19
386.92	2.34
387.11	42.13
387.31	30.43
387.50	67.88
387.70	42.13
387.89	30.43
388.09	46.81
388.28	0.00
388.48	18.72
388.67	16.38
388.86	51.49
389.06	53.83
389.25	0.00
389.45	105.32
389.64	0.00
389.84	30.43
390.03	23.41
390.22	0.00
390.42	72.56
390.61	7.02
390.81	44.47
391.00	14.04
391.19	0.00
391.39	53.83
391.58	42.13
391.78	98.30
391.97	7.02
392.16	60.85
392.36	53.83
392.55	28.09
392.75	21.06
392.94	0.00
393.13	56.17
393.33	0.00
393.52	81.92
393.71	7.02
393.91	0.00
394.10	4.68
394.29	102.98
394.49	51.49
394.68	42.13
394.88	0.00
395.07	9.36
395.26	46.81
395.46	16.38
395.65	0.00
395.84	21.06
396.04	51.49
396.23	56.17
396.42	9.36
396.62	44.47
396.81	14.04
397.00	21.06
397.19	16.38
397.39	25.75
397.58	49.15
397.77	63.19
397.97	4.68
398.16	42.13
398.35	63.19
398.55	0.00
398.74	51.49
398.93	37.45
399.12	84.26
399.32	37.45
399.51	30.43
399.70	23.41
399.90	49.15
400.09	51.49
400.28	74.90
400.47	16.38
400.67	4.68
400.86	0.00
401.05	0.00
401.24	21.06
401.44	39.79
401.63	28.09
401.82	23.41
402.01	18.72
402.21	16.38
402.40	2.34
402.59	84.26
402.78	74.90
402.97	37.45
403.17	0.00
403.36	53.83
403.55	49.15
403.74	30.43
403.93	121.71
404.13	21.06
404.32	51.49
404.51	70.22
404.70	28.09
404.89	51.49
405.09	28.09
405.28	0.00
405.47	0.00
405.66	39.79
405.85	0.00
406.05	0.00
406.24	0.00
406.43	35.11
406.62	84.26
406.81	0.00
407.00	14.04
407.20	0.00
407.39	102.98
407.58	7.02
407.77	56.17
407.96	32.77
408.15	0.00
408.34	11.70
408.54	72.56
408.73	70.22
408.92	18.72
409.11	0.00
409.30	39.79
409.49	0.00
409.68	74.90
409.87	0.00
410.07	23.41
410.26	7.02
410.45	23.41
410.64	58.51
410.83	14.04
411.02	0.00
411.21	70.22
411.40	42.13
411.59	0.00
411.78	0.00
411.98	9.36
412.17	53.83
412.36	7.02
412.55	14.04
412.74	0.00
412.93	30.43
413.12	107.66
413.31	51.49
413.50	88.94
413.69	119.37
413.88	58.51
414.07	4.68
414.26	0.00
414.45	32.77
414.64	46.81
414.83	95.96
415.02	44.47
415.22	0.00
415.41	25.75
415.60	0.00
415.79	0.00
415.98	46.81
416.17	77.24
416.36	65.54
416.55	74.90
416.74	14.04
416.93	0.00
417.12	25.75
417.31	0.00
417.50	58.51
417.69	0.00
417.88	21.06
418.07	93.62
418.26	44.47
418.45	95.96
418.64	46.81
418.83	49.15
419.02	0.00
419.21	30.43
419.39	14.04
419.58	0.00
419.77	0.00
419.96	79.58
420.15	0.00
420.34	0.00
420.53	44.47
420.72	44.47
420.91	107.66
421.10	37.45
421.29	37.45
421.48	117.03
421.67	0.00
421.86	0.00
422.05	14.04
422.24	77.24
422.43	63.19
422.61	25.75
422.80	63.19
422.99	39.79
423.18	0.00
423.37	30.43
423.56	60.85
423.75	58.51
423.94	11.70
424.13	0.00
424.32	30.43
424.50	0.00
424.69	18.72
424.88	74.90
425.07	11.70
425.26	9.36
425.45	11.70
425.64	0.00
425.83	18.72
426.01	32.77
426.20	25.75
426.39	0.00
426.58	21.06
426.77	0.00
426.96	0.00
427.15	21.06
427.33	0.00
427.52	11.70
427.71	81.92
427.90	4.68
428.09	95.96
428.28	11.70
428.46	35.11
428.65	79.58
428.84	39.79
429.03	53.83
429.22	49.15
429.40	0.00
429.59	0.00
429.78	0.00
429.97	77.24
430.16	49.15
430.34	28.09
430.53	14.04
430.72	77.24
430.91	0.00
431.10	37.45
431.28	84.26
431.47	72.56
431.66	0.00
431.85	58.51
432.03	42.13
432.22	95.96
432.41	2.34
432.60	60.85
432.79	46.81
432.97	0.00
433.16	0.00
433.35	28.09
433.54	0.00
433.72	14.04
433.91	0.00
434.10	95.96
434.28	14.04
434.47	0.00
434.66	9.36
434.85	23.41
435.03	30.43
435.22	0.00
435.41	37.45
435.59	58.51
435.78	35.11
435.97	65.54
436.16	28.09
436.34	32.77
436.53	0.00
436.72	30.43
436.90	56.17
437.09	0.00
437.28	0.00
437.46	37.45
437.65	11.70
437.84	4.68
438.02	2.34
438.21	79.58
438.40	79.58
438.58	0.00
438.77	58.51
438.96	32.77
439.14	4.68
439.33	37.45
439.52	37.45
439.70	42.13
439.89	53.83
440.08	21.06
440.26	39.79
440.45	35.11
440.63	49.15
440.82	0.00
441.01	32.77
441.19	74.90
441.38	14.04
441.57	65.54
441.75	81.92
441.94	23.41
442.12	93.62
442.31	0.00
442.50	23.41
442.68	28.09
442.87	7.02
443.05	86.60
443.24	4.68
443.43	0.00
443.61	79.58
443.80	74.90
443.98	53.83
444.17	7.02
444.35	42.13
444.54	42.13
444.73	4.68
444.91	51.49
445.10	35.11
445.28	23.41
445.47	72.56
445.65	16.38
445.84	53.83
446.02	9.36
446.21	32.77
446.39	18.72
446.58	42.13
446.77	28.09
446.95	84.26
447.14	4.68
447.32	63.19
447.51	70.22
447.69	25.75
447.88	7.02
448.06	88.94
448.25	60.85
448.43	39.79
448.62	56.17
448.80	60.85
448.99	56.17
449.17	56.17
449.36	0.00
449.54	58.51
449.73	2.34
449.91	0.00
450.10	72.56
450.28	14.04
450.46	0.00
450.65	4.68
450.83	51.49
451.02	4.68
451.20	53.83
451.39	51.49
451.57	30.43
451.76	39.79
451.94	32.77
452.13	53.83
452.31	9.36
452.49	46.81
452.68	16.38
452.86	42.13
453.05	114.69
453.23	72.56
453.42	44.47
453.60	11.70
453.78	93.62
453.97	72.56
454.15	0.00
454.34	102.98
454.52	0.00
454.70	63.19
454.89	0.00
455.07	39.79
455.26	60.85
455.44	0.00
455.62	60.85
455.81	0.00
455.99	4.68
456.17	32.77
456.36	0.00
456.54	56.17
456.73	25.75
456.91	9.36
457.09	28.09
457.28	0.00
457.46	60.85
457.64	86.60
457.83	32.77
458.01	16.38
458.19	0.00
458.38	0.00
458.56	32.77
458.74	72.56
458.93	70.22
459.11	4.68
459.29	32.77
459.48	35.11
459.66	16.38
459.84	114.69
460.03	14.04
460.21	79.58
460.39	49.15
460.57	0.00
460.76	37.45
460.94	0.00
461.12	44.47
461.31	126.39
461.49	21.06
461.67	0.00
461.85	4.68
462.04	30.43
462.22	63.19
462.40	70.22
462.59	37.45
462.77	0.00
462.95	135.75
463.13	0.00
463.32	11.70
463.50	0.00
463.68	16.38
463.86	18.72
464.05	91.28
464.23	0.00
464.41	32.77
464.59	0.00
464.78	0.00
464.96	4.68
465.14	60.85
465.32	32.77
465.50	11.70
465.69	63.19
465.87	16.38
466.05	91.28
466.23	25.75
466.41	11.70
466.60	23.41
466.78	0.00
466.96	107.66
467.14	35.11
467.32	7.02
467.51	14.04
467.69	63.19
467.87	16.38
468.05	21.06
468.23	9.36
468.41	42.13
468.60	102.98
468.78	18.72
468.96	46.81
469.14	49.15
469.32	138.09
469.50	32.77
469.69	100.64
469.87	58.51
470.05	0.00
470.23	0.00
470.41	91.28
470.59	67.88
470.77	30.43
470.95	0.00
471.14	28.09
471.32	77.24
471.50	42.13
471.68	28.09
471.86	44.47
472.04	65.54
472.22	4.68
472.40	79.58
472.58	14.04
472.77	58.51
472.95	98.30
473.13	39.79
473.31	81.92
473.49	56.17
473.67	7.02
473.85	0.00
474.03	133.41
474.21	32.77
474.39	0.00
474.57	0.00
474.75	65.54
474.93	37.45
475.12	56.17
475.30	9.36
475.48	42.13
475.66	58.51
475.84	63.19
476.02	30.43
476.20	0.00
476.38	63.19
476.56	28.09
476.74	46.81
476.92	74.90
477.10	51.49
477.28	65.54
477.46	46.81
477.64	42.13
477.82	32.77
478.00	7.02
478.18	53.83
478.36	11.70
478.54	67.88
478.72	28.09
478.90	11.70
479.08	30.43
479.26	0.00
479.44	58.51
479.62	70.22
479.80	88.94
479.98	16.38
480.16	0.00
480.34	0.00
480.52	60.85
480.70	42.13
480.88	23.41
481.06	67.88
481.24	28.09
481.41	35.11
481.59	67.88
481.77	0.00
481.95	60.85
482.13	32.77
482.31	46.81
482.49	0.00
482.67	9.36
482.85	28.09
483.03	72.56
483.21	0.00
483.39	44.47
483.57	100.64
483.74	18.72
483.92	0.00
484.10	2.34
484.28	42.13
484.46	81.92
484.64	56.17
484.82	77.24
485.00	0.00
485.18	56.17
485.35	23.41
485.53	42.13
485.71	21.06
485.89	30.43
486.07	60.85
486.25	0.00
486.43	100.64
486.61	14.04
486.78	46.81
486.96	138.09
487.14	39.79
487.32	4.68
487.50	18.72
487.68	0.00
487.85	16.38
488.03	77.24
488.21	65.54
488.39	112.35
488.57	56.17
488.75	18.72
488.92	65.54
489.10	0.00
489.28	46.81
489.46	35.11
489.64	23.41
489.81	86.60
489.99	16.38
490.17	39.79
490.35	14.04
490.53	4.68
490.70	16.38
490.88	23.41
491.06	60.85
491.24	21.06
491.41	102.98
491.59	42.13
491.77	70.22
491.95	18.72
492.13	70.22
492.30	9.36
492.48	67.88
492.66	72.56
492.84	23.41
493.01	67.88
493.19	44.47
493.37	16.38
493.54	124.05
493.72	60.85
493.90	18.72
494.08	51.49
494.25	0.00
494.43	72.56
494.61	65.54
494.79	39.79
494.96	49.15
495.14	53.83
495.32	56.17
495.49	0.00
495.67	32.77
495.85	0.00
496.02	0.00
496.20	49.15
496.38	37.45
496.55	14.04
496.73	39.79
496.91	63.19
497.09	0.00
497.26	63.19
497.44	11.70
497.62	95.96
497.79	0.00
497.97	46.81
498.14	86.60
498.32	42.13
498.50	28.09
498.67	0.00
498.85	0.00
499.03	0.00
499.20	16.38
499.38	39.79
499.56	0.00
499.73	70.22
499.91	67.88
500.08	21.06
500.26	21.06
500.44	58.51
500.61	91.28
500.79	60.85
500.97	112.35
501.14	53.83
501.32	42.13
501.49	32.77
501.67	42.13
501.84	84.26
502.02	86.60
502.20	53.83
502.37	79.58
502.55	102.98
502.72	16.38
502.90	93.62
503.07	63.19
503.25	30.43
503.43	32.77
503.60	42.13
503.78	70.22
503.95	79.58
504.13	28.09
504.30	39.79
504.48	56.17
504.65	46.81
504.83	0.00
505.01	39.79
505.18	51.49
505.36	25.75
505.53	46.81
505.71	77.24
505.88	65.54
506.06	88.94
506.23	18.72
506.41	49.15
506.58	91.28
506.76	0.00
506.93	7.02
507.11	65.54
507.28	42.13
507.46	60.85
507.63	70.22
507.81	30.43
507.98	56.17
508.16	79.58
508.33	30.43
508.50	60.85
508.68	60.85
508.85	28.09
509.03	84.26
509.20	18.72
509.38	67.88
509.55	0.00
509.73	114.69
509.90	58.51
510.08	42.13
510.25	28.09
510.42	44.47
510.60	67.88
510.77	77.24
510.95	28.09
511.12	138.09
511.30	53.83
511.47	32.77
511.64	28.09
511.82	0.00
511.99	95.96
512.17	49.15
512.34	28.09
512.51	0.00
512.69	70.22
512.86	16.38
513.04	0.00
513.21	21.06
513.38	53.83
513.56	39.79
513.73	70.22
513.90	25.75
514.08	0.00
514.25	84.26
514.43	16.38
514.60	86.60
514.77	42.13
514.95	32.77
515.12	14.04
515.29	7.02
515.47	7.02
515.64	67.88
515.81	65.54
515.99	39.79
516.16	58.51
516.33	70.22
516.51	37.45
516.68	39.79
516.85	28.09
517.03	0.00
517.20	0.00
517.37	4.68
517.54	28.09
517.72	0.00
517.89	0.00
518.06	46.81
518.24	72.56
518.41	63.19
518.58	0.00
518.75	74.90
518.93	42.13
519.10	44.47
519.27	46.81
519.45	67.88
519.62	46.81
519.79	70.22
519.96	51.49
520.14	37.45
520.31	21.06
520.48	18.72
520.65	0.00
520.83	93.62
521.00	18.72
521.17	79.58
521.34	0.00
521.52	58.51
521.69	28.09
521.86	67.88
522.03	32.77
522.20	21.06
522.38	142.77
522.55	14.04
522.72	74.90
522.89	46.81
523.07	37.45
523.24	51.49
523.41	100.64
523.58	46.81
523.75	44.47
523.92	25.75
524.10	67.88
524.27	39.79
524.44	58.51
524.61	74.90
524.78	14.04
524.96	100.64
525.13	70.22
525.30	37.45
525.47	39.79
525.64	46.81
525.81	95.96
525.98	70.22
526.16	7.02
526.33	35.11
526.50	35.11
526.67	2.34
526.84	46.81
527.01	44.47
527.18	0.00
527.36	23.41
527.53	0.00
527.70	32.77
527.87	37.45
528.04	9.36
528.21	16.38
528.38	77.24
528.55	25.75
528.72	25.75
528.89	93.62
529.07	77.24
529.24	56.17
529.41	37.45
529.58	67.88
529.75	23.41
529.92	23.41
530.09	53.83
530.26	39.79
530.43	0.00
530.60	53.83
530.77	124.05
530.94	35.11
531.11	86.60
531.28	63.19
531.46	58.51
531.63	0.00
531.80	65.54
531.97	49.15
532.14	49.15
532.31	65.54
532.48	39.79
532.65	0.00
532.82	67.88
532.99	86.60
533.16	35.11
533.33	67.88
533.50	0.00
533.67	46.81
533.84	16.38
534.01	46.81
534.18	32.77
534.35	63.19
534.52	44.47
534.69	51.49
534.86	30.43
535.03	74.90
535.20	51.49
535.37	126.39
535.54	30.43
535.71	100.64
535.88	93.62
536.05	23.41
536.22	39.79
536.38	14.04
536.55	51.49
536.72	44.47
536.89	25.75
537.06	53.83
537.23	23.41
537.40	46.81
537.57	60.85
537.74	0.00
537.91	67.88
538.08	93.62
538.25	56.17
538.42	9.36
538.59	0.00
538.75	84.26
538.92	145.11
539.09	0.00
539.26	81.92
539.43	7.02
539.60	11.70
539.77	70.22
539.94	142.77
540.11	56.17
540.28	35.11
540.44	42.13
540.61	147.45
540.78	63.19
540.95	84.26
541.12	79.58
541.29	67.88
541.46	91.28
541.62	30.43
541.79	124.05
541.96	67.88
542.13	46.81
542.30	56.17
542.47	51.49
542.63	0.00
542.80	46.81
542.97	81.92
543.14	46.81
543.31	81.92
543.48	35.11
543.64	63.19
543.81	37.45
543.98	9.36
544.15	110.01
544.32	65.54
544.48	112.35
544.65	30.43
544.82	74.90
544.99	72.56
545.16	70.22
545.32	84.26
545.49	74.90
545.66	0.00
545.83	28.09
546.00	25.75
546.16	18.72
546.33	42.13
546.50	79.58
546.67	14.04
546.83	25.75
547.00	60.85
547.17	70.22
547.34	42.13
547.50	32.77
547.67	16.38
547.84	37.45
548.00	32.77
548.17	0.00
548.34	9.36
548.51	53.83
548.67	74.90
548.84	44.47
549.01	23.41
549.18	77.24
549.34	16.38
549.51	0.00
549.68	70.22
549.84	35.11
550.01	44.47
550.18	53.83
550.34	88.94
550.51	0.00
550.68	0.00
550.84	28.09
551.01	18.72
551.18	23.41
551.34	16.38
551.51	23.41
551.68	44.47
551.84	32.77
552.01	14.04
552.18	0.00
552.34	39.79
552.51	4.68
552.68	35.11
552.84	72.56
553.01	37.45
553.18	95.96
553.34	51.49
553.51	0.00
553.67	72.56
553.84	2.34
554.01	56.17
554.17	0.00
554.34	2.34
554.51	44.47
554.67	18.72
554.84	46.81
555.00	74.90
555.17	114.69
555.33	28.09
555.50	67.88
555.67	88.94
555.83	88.94
556.00	65.54
556.16	56.17
556.33	84.26
556.50	67.88
556.66	67.88
556.83	23.41
556.99	42.13
557.16	37.45
557.32	72.56
557.49	46.81
557.65	131.07
557.82	44.47
557.98	56.17
558.15	88.94
558.32	39.79
558.48	16.38
558.65	39.79
558.81	46.81
558.98	105.32
559.14	74.90
559.31	42.13
559.47	0.00
559.64	60.85
559.80	107.66
559.97	95.96
560.13	74.90
560.30	138.09
560.46	65.54
560.63	67.88
560.79	60.85
560.96	35.11
561.12	14.04
561.29	70.22
561.45	49.15
561.61	46.81
561.78	9.36
561.94	0.00
562.11	0.00
562.27	91.28
562.44	72.56
562.60	46.81
562.77	88.94
562.93	81.92
563.10	63.19
563.26	88.94
563.42	74.90
563.59	81.92
563.75	49.15
563.92	35.11
564.08	42.13
564.24	49.15
564.41	86.60
564.57	49.15
564.74	21.06
564.90	51.49
565.07	11.70
565.23	72.56
565.39	23.41
565.56	4.68
565.72	4.68
565.88	21.06
566.05	67.88
566.21	51.49
566.38	49.15
566.54	81.92
566.70	0.00
566.87	2.34
567.03	44.47
567.19	0.00
567.36	42.13
567.52	46.81
567.68	46.81
567.85	117.03
568.01	67.88
568.17	11.70
568.34	16.38
568.50	2.34
568.66	23.41
568.83	35.11
568.99	23.41
569.15	72.56
569.32	56.17
569.48	51.49
569.64	79.58
569.81	60.85
569.97	77.24
570.13	30.43
570.30	102.98
570.46	67.88
570.62	140.43
570.78	88.94
570.95	74.90
571.11	30.43
571.27	88.94
571.43	0.00
571.60	72.56
571.76	42.13
571.92	0.00
572.09	67.88
572.25	30.43
572.41	74.90
572.57	72.56
572.74	0.00
572.90	11.70
573.06	25.75
573.22	49.15
573.38	16.38
573.55	88.94
573.71	67.88
573.87	79.58
574.03	42.13
574.20	72.56
574.36	25.75
574.52	70.22
574.68	91.28
574.84	37.45
575.01	18.72
575.17	110.01
575.33	0.00
575.49	23.41
575.65	86.60
575.82	84.26
575.98	51.49
576.14	119.37
576.30	30.43
576.46	46.81
576.62	0.00
576.79	11.70
576.95	58.51
577.11	58.51
577.27	53.83
577.43	18.72
577.59	53.83
577.75	42.13
577.92	49.15
578.08	88.94
578.24	25.75
578.40	124.05
578.56	60.85
578.72	4.68
578.88	70.22
579.04	39.79
579.21	9.36
579.37	0.00
579.53	65.54
579.69	7.02
579.85	18.72
580.01	21.06
580.17	51.49
580.33	37.45
580.49	91.28
580.65	126.39
580.82	53.83
580.98	70.22
581.14	21.06
581.30	39.79
581.46	28.09
581.62	0.00
581.78	63.19
581.94	35.11
582.10	60.85
582.26	9.36
582.42	35.11
582.58	60.85
582.74	58.51
582.90	77.24
583.06	44.47
583.22	0.00
583.38	49.15
583.54	58.51
583.70	42.13
583.86	77.24
584.02	32.77
584.18	65.54
584.34	107.66
584.50	0.00
584.66	39.79
584.82	81.92
584.98	32.77
585.14	77.24
585.30	105.32
585.46	11.70
585.62	67.88
585.78	70.22
585.94	7.02
586.10	51.49
586.26	88.94
586.42	51.49
586.58	0.00
586.74	65.54
586.90	7.02
587.06	49.15
587.22	0.00
587.38	77.24
587.54	39.79
587.70	81.92
587.86	39.79
588.02	49.15
588.18	112.35
588.34	56.17
588.49	0.00
588.65	25.75
588.81	16.38
588.97	110.01
589.13	51.49
589.29	65.54
589.45	44.47
589.61	65.54
589.77	67.88
589.93	131.07
590.08	0.00
590.24	51.49
590.40	51.49
590.56	39.79
590.72	0.00
590.88	74.90
591.04	84.26
591.20	18.72
591.35	95.96
591.51	23.41
591.67	16.38
591.83	42.13
591.99	114.69
592.15	46.81
592.31	16.38
592.46	0.00
592.62	74.90
592.78	56.17
592.94	72.56
593.10	25.75
593.26	65.54
593.41	70.22
593.57	88.94
593.73	65.54
593.89	63.19
594.05	72.56
594.20	81.92
594.36	60.85
594.52	53.83
594.68	114.69
594.84	0.00
594.99	11.70
595.15	95.96
595.31	2.34
595.47	39.79
595.62	77.24
595.78	25.75
595.94	105.32
596.10	23.41
596.25	86.60
596.41	79.58
596.57	14.04
596.73	0.00
596.88	0.00
597.04	81.92
597.20	25.75
597.36	0.00
597.51	65.54
597.67	46.81
597.83	0.00
597.99	32.77
598.14	60.85
598.30	30.43
598.46	0.00
598.61	35.11
598.77	46.81
598.93	0.00
599.09	46.81
599.24	107.66
599.40	32.77
599.56	91.28
599.71	91.28
599.87	25.75
600.03	30.43
600.18	63.19
600.34	51.49
600.50	37.45
600.65	0.00
600.81	23.41
600.97	0.00
601.12	0.00
601.28	42.13
601.44	105.32
601.59	49.15
601.75	98.30
601.91	42.13
602.06	67.88
602.22	77.24
602.37	53.83
602.53	9.36
602.69	56.17
602.84	67.88
603.00	86.60
603.16	16.38
603.31	39.79
603.47	49.15
603.62	95.96
603.78	23.41
603.94	37.45
604.09	37.45
604.25	74.90
604.40	49.15
604.56	7.02
604.71	49.15
604.87	18.72
605.03	30.43
605.18	21.06
605.34	86.60
605.49	72.56
605.65	93.62
605.80	42.13
605.96	42.13
606.12	56.17
606.27	9.36
606.43	0.00
606.58	39.79
606.74	37.45
606.89	0.00
607.05	56.17
607.20	0.00
607.36	37.45
607.51	42.13
607.67	105.32
607.82	18.72
607.98	58.51
608.13	81.92
608.29	0.00
608.44	49.15
608.60	0.00
608.75	53.83
608.91	28.09
609.06	100.64
609.22	65.54
609.37	42.13
609.53	0.00
609.68	42.13
609.84	0.00
609.99	84.26
610.15	39.79
610.30	49.15
610.46	0.00
610.61	37.45
610.76	93.62
610.92	74.90
611.07	81.92
611.23	91.28
611.38	28.09
611.54	138.09
611.69	79.58
611.84	102.98
612.00	0.00
612.15	7.02
612.31	4.68
612.46	72.56
612.62	44.47
612.77	65.54
612.92	44.47
613.08	58.51
613.23	35.11
613.39	84.26
613.54	32.77
613.69	110.01
613.85	72.56
614.00	63.19
614.15	0.00
614.31	35.11
614.46	28.09
614.62	51.49
614.77	44.47
614.92	37.45
615.08	65.54
615.23	11.70
615.38	51.49
615.54	21.06
615.69	81.92
615.84	58.51
616.00	79.58
616.15	14.04
616.30	49.15
616.46	74.90
616.61	35.11
616.76	79.58
616.92	65.54
617.07	39.79
617.22	2.34
617.37	18.72
617.53	16.38
617.68	4.68
617.83	30.43
617.99	49.15
618.14	117.03
618.29	58.51
618.45	23.41
618.60	44.47
618.75	79.58
618.90	0.00
619.06	58.51
619.21	81.92
619.36	51.49
619.51	21.06
619.67	28.09
619.82	28.09
619.97	0.00
620.12	53.83
620.28	23.41
620.43	121.71
620.58	56.17
620.73	107.66
620.89	67.88
621.04	23.41
621.19	63.19
621.34	44.47
621.49	37.45
621.65	37.45
621.80	70.22
621.95	0.00
622.10	95.96
622.25	79.58
622.41	0.00
622.56	0.00
622.71	60.85
622.86	42.13
623.01	18.72
623.16	74.90
623.32	23.41
623.47	25.75
623.62	65.54
623.77	46.81
623.92	30.43
624.07	74.90
624.23	0.00
624.38	56.17
624.53	28.09
624.68	95.96
624.83	121.71
624.98	0.00
625.13	11.70
625.29	9.36
625.44	56.17
625.59	70.22
625.74	88.94
625.89	74.90
626.04	44.47
626.19	114.69
626.34	39.79
626.49	67.88
626.65	110.01
626.80	4.68
626.95	16.38
627.10	42.13
627.25	65.54
627.40	23.41
627.55	23.41
627.70	46.81
627.85	46.81
628.00	91.28
628.15	72.56
628.30	35.11
628.45	0.00
628.60	39.79
628.76	28.09
628.91	0.00
629.06	60.85
629.21	25.75
629.36	16.38
629.51	37.45
629.66	46.81
629.81	14.04
629.96	58.51
630.11	100.64
630.26	11.70
630.41	14.04
630.56	100.64
630.71	16.38
630.86	70.22
631.01	0.00
631.16	28.09
631.31	44.47
631.46	77.24
631.61	77.24
631.76	63.19
631.91	88.94
632.06	0.00
632.21	49.15
632.36	11.70
632.51	28.09
632.66	9.36
632.81	44.47
632.96	42.13
633.10	114.69
633.25	7.02
633.40	46.81
633.55	63.19
633.70	49.15
633.85	0.00
634.00	42.13
634.15	128.73
634.30	86.60
634.45	0.00
634.60	16.38
634.75	72.56
634.90	58.51
635.05	44.47
635.19	39.79
635.34	32.77
635.49	93.62
635.64	58.51
635.79	2.34
635.94	72.56
636.09	58.51
636.24	53.83
636.39	88.94
636.53	39.79
636.68	16.38
636.83	51.49
636.98	46.81
637.13	79.58
637.28	51.49
637.43	81.92
637.57	9.36
637.72	81.92
637.87	39.79
638.02	95.96
638.17	2.34
638.32	9.36
638.46	0.00
638.61	7.02
638.76	0.00
638.91	14.04
639.06	4.68
639.20	60.85
639.35	72.56
639.50	100.64
639.65	65.54
639.80	9.36
639.94	0.00
640.09	21.06
640.24	0.00
640.39	25.75
640.54	51.49
640.68	84.26
640.83	72.56
640.98	25.75
641.13	16.38
641.27	37.45
641.42	37.45
641.57	56.17
641.72	93.62
641.86	56.17
642.01	49.15
642.16	51.49
642.31	0.00
642.45	88.94
642.60	49.15
642.75	39.79
642.90	93.62
643.04	14.04
643.19	9.36
643.34	42.13
643.48	70.22
643.63	56.17
643.78	18.72
643.93	11.70
644.07	25.75
644.22	16.38
644.37	84.26
644.51	42.13
644.66	14.04
644.81	0.00
644.95	32.77
645.10	42.13
645.25	18.72
645.39	14.04
645.54	44.47
645.69	0.00
645.83	30.43
645.98	11.70
646.13	70.22
646.27	112.35
646.42	30.43
646.57	0.00
646.71	88.94
646.86	0.00
647.00	44.47
647.15	0.00
647.30	0.00
647.44	0.00
647.59	70.22
647.74	9.36
647.88	46.81
648.03	30.43
648.17	39.79
648.32	16.38
648.47	51.49
648.61	46.81
648.76	81.92
648.90	35.11
649.05	98.30
649.20	9.36
649.34	74.90
649.49	72.56
649.63	86.60
649.78	77.24
649.92	18.72
650.07	23.41
650.21	37.45
650.36	72.56
650.51	53.83
650.65	56.17
650.80	32.77
650.94	0.00
651.09	42.13
651.23	46.81
651.38	0.00
651.52	16.38
651.67	56.17
651.81	0.00
651.96	7.02
652.10	102.98
652.25	11.70
652.39	53.83
652.54	42.13
652.68	37.45
652.83	88.94
652.97	21.06
653.12	0.00
653.26	56.17
653.41	0.00
653.55	11.70
653.70	44.47
653.84	30.43
653.99	0.00
654.13	0.00
654.27	51.49
654.42	4.68
654.56	25.75
654.71	65.54
654.85	39.79
655.00	39.79
655.14	0.00
655.29	79.58
655.43	14.04
655.57	46.81
655.72	63.19
655.86	49.15
656.01	0.00
656.15	9.36
656.30	0.00
656.44	140.43
656.58	30.43
656.73	53.83
656.87	93.62
657.01	0.00
657.16	0.00
657.30	28.09
657.45	11.70
657.59	70.22
657.73	72.56
657.88	65.54
658.02	32.77
658.16	114.69
658.31	37.45
658.45	0.00
658.60	126.39
658.74	18.72
658.88	32.77
659.03	0.00
659.17	18.72
659.31	4.68
659.46	84.26
659.60	18.72
659.74	74.90
659.89	0.00
660.03	28.09
660.17	72.56
660.32	2.34
660.46	35.11
660.60	77.24
660.74	84.26
660.89	91.28
661.03	23.41
661.17	58.51
661.32	91.28
661.46	42.13
661.60	0.00
661.74	4.68
661.89	42.13
662.03	0.00
662.17	93.62
662.31	25.75
662.46	32.77
662.60	0.00
662.74	56.17
662.88	42.13
663.03	16.38
663.17	56.17
663.31	14.04
663.45	16.38
663.60	72.56
663.74	100.64
663.88	23.41
664.02	11.70
664.17	44.47
664.31	9.36
664.45	37.45
664.59	7.02
664.73	0.00
664.88	0.00
665.02	63.19
665.16	9.36
665.30	49.15
665.44	74.90
665.59	0.00
665.73	0.00
665.87	32.77
666.01	7.02
666.15	60.85
666.29	70.22
666.44	119.37
666.58	28.09
666.72	0.00
666.86	30.43
667.00	42.13
667.14	88.94
667.28	0.00
667.43	63.19
667.57	70.22
667.71	0.00
667.85	67.88
667.99	0.00
668.13	42.13
668.27	0.00
668.41	93.62
668.56	51.49
668.70	32.77
668.84	44.47
668.98	49.15
669.12	14.04
669.26	28.09
669.40	0.00
669.54	37.45
669.68	32.77
669.82	74.90
669.96	77.24
670.10	53.83
670.25	58.51
670.39	0.00
670.53	46.81
670.67	35.11
670.81	18.72
670.95	65.54
671.09	32.77
671.23	112.35
671.37	88.94
671.51	67.88
671.65	72.56
671.79	49.15
671.93	32.77
672.07	0.00
672.21	42.13
672.35	16.38
672.49	7.02
672.63	0.00
672.77	81.92
672.91	79.58
673.05	39.79
673.19	0.00
673.33	14.04
673.47	0.00
673.61	0.00
673.75	0.00
673.89	0.00
674.03	39.79
674.17	70.22
674.31	39.79
674.45	51.49
674.59	56.17
674.73	30.43
674.87	25.75
675.01	117.03
675.15	91.28
675.29	70.22
675.43	65.54
675.56	58.51
675.70	51.49
675.84	16.38
675.98	84.26
676.12	28.09
676.26	25.75
676.40	53.83
676.54	0.00
676.68	0.00
676.82	44.47
676.96	72.56
677.10	58.51
677.23	91.28
677.37	35.11
677.51	2.34
677.65	16.38
677.79	0.00
677.93	84.26
678.07	0.00
678.21	14.04
678.34	23.41
678.48	79.58
678.62	0.00
678.76	46.81
678.90	46.81
679.04	11.70
679.18	86.60
679.31	25.75
679.45	39.79
679.59	28.09
679.73	0.00
679.87	32.77
680.00	44.47
680.14	0.00
680.28	67.88
680.42	14.04
680.56	4.68
680.70	16.38
680.83	91.28
680.97	0.00
681.11	46.81
681.25	0.00
681.39	88.94
681.52	28.09
681.66	7.02
681.80	21.06
681.94	44.47
682.07	51.49
682.21	11.70
682.35	58.51
682.49	9.36
682.62	72.56
682.76	79.58
682.90	16.38
683.04	35.11
683.17	112.35
683.31	0.00
683.45	51.49
683.59	65.54
683.72	81.92
683.86	107.66
684.00	0.00
684.13	49.15
684.27	70.22
684.41	58.51
684.55	0.00
684.68	67.88
684.82	4.68
684.96	0.00
685.09	84.26
685.23	35.11
685.37	63.19
685.50	7.02
685.64	60.85
685.78	51.49
685.91	77.24
686.05	23.41
686.19	49.15
686.32	0.00
686.46	0.00
686.60	39.79
686.73	44.47
686.87	14.04
687.01	9.36
687.14	60.85
687.28	18.72
687.42	0.00
687.55	0.00
687.69	0.00
687.82	77.24
687.96	23.41
688.10	0.00
688.23	14.04
688.37	37.45
688.50	95.96
688.64	0.00
688.78	49.15
688.91	35.11
689.05	25.75
689.18	0.00
689.32	65.54
689.46	23.41
689.59	9.36
689.73	0.00
689.86	4.68
690.00	32.77
690.13	25.75
690.27	58.51
690.41	79.58
690.54	49.15
690.68	0.00
690.81	65.54
690.95	0.00
691.08	51.49
691.22	25.75
691.35	51.49
691.49	44.47
691.62	67.88
691.76	23.41
691.89	110.01
692.03	25.75
692.16	0.00
692.30	11.70
692.43	0.00
692.57	30.43
692.70	65.54
692.84	25.75
692.97	44.47
693.11	0.00
693.24	21.06
693.38	32.77
693.51	51.49
693.65	9.36
693.78	49.15
693.92	28.09
694.05	53.83
694.19	51.49
694.32	46.81
694.45	42.13
694.59	16.38
694.72	28.09
694.86	7.02
694.99	28.09
695.13	16.38
695.26	11.70
695.39	32.77
695.53	28.09
695.66	49.15
695.80	79.58
695.93	16.38
696.07	37.45
696.20	91.28
696.33	44.47
696.47	44.47
696.60	60.85
696.73	4.68
696.87	0.00
697.00	49.15
697.14	70.22
697.27	14.04
697.40	42.13
697.54	53.83
697.67	46.81
697.80	42.13
697.94	49.15
698.07	28.09
698.21	37.45
698.34	28.09
698.47	119.37
698.61	4.68
698.74	44.47
698.87	14.04
699.01	88.94
699.14	84.26
699.27	107.66
699.40	42.13
699.54	39.79
699.67	2.34
699.80	60.85
699.94	35.11
700.07	46.81
700.20	14.04
700.34	35.11
700.47	7.02
700.60	53.83
700.73	18.72
700.87	32.77
701.00	18.72
701.13	0.00
701.26	21.06
701.40	60.85
701.53	77.24
701.66	0.00
701.79	37.45
701.93	91.28
702.06	18.72
702.19	114.69
702.32	42.13
702.46	23.41
702.59	0.00
702.72	51.49
702.85	2.34
702.99	42.13
703.12	39.79
703.25	18.72
703.38	16.38
703.51	25.75
703.65	0.00
703.78	30.43
703.91	0.00
704.04	72.56
704.17	7.02
704.31	58.51
704.44	0.00
704.57	56.17
704.70	23.41
704.83	4.68
704.96	81.92
705.10	16.38
705.23	49.15
>>>>>End Processed Spectral Data<<<<<
