SpectraSuite Data File
++++++++++++++++++++++++++++++++++++
Date: Fri Oct 04 12:13:40 GMT-05:00 2013
User: price-jones
Dark Spectrum Present: No
Reference Spectrum Present: No
Number of Sampled Component Spectra: 1
Spectrometers: USB2+H05261
Integration Time (usec): 10000 (USB2+H05261)
Spectra Averaged: 1 (USB2+H05261)
Boxcar Smoothing: 0 (USB2+H05261)
Correct for Electrical Dark: No (USB2+H05261)
Strobe/Lamp Enabled: No (USB2+H05261)
Correct for Detector Non-linearity: No (USB2+H05261)
Correct for Stray Light: No (USB2+H05261)
Number of Pixels in Processed Spectrum: 2048
>>>>>Begin Processed Spectral Data<<<<<
365.73	0.00
365.92	0.00
366.12	0.00
366.32	0.00
366.52	0.00
366.72	0.00
366.91	0.00
367.11	0.00
367.31	0.00
367.51	0.00
367.70	0.00
367.90	0.00
368.10	0.00
368.30	0.00
368.49	0.00
368.69	0.00
368.89	0.00
369.09	0.00
369.28	0.00
369.48	0.00
369.68	0.00
369.87	0.00
370.07	0.00
370.27	0.00
370.47	0.00
370.66	0.00
370.86	0.00
371.06	0.00
371.25	0.00
371.45	0.00
371.65	0.00
371.84	16.38
372.04	0.00
372.24	0.00
372.44	0.00
372.63	28.09
372.83	2.34
373.03	0.00
373.22	67.88
373.42	102.98
373.62	4.68
373.81	30.43
374.01	4.68
374.21	28.09
374.40	39.79
374.60	18.72
374.79	0.00
374.99	91.28
375.19	42.13
375.38	98.30
375.58	67.88
375.78	0.00
375.97	32.77
376.17	63.19
376.37	23.41
376.56	42.13
376.76	56.17
376.95	30.43
377.15	21.06
377.35	0.00
377.54	18.72
377.74	58.51
377.93	18.72
378.13	51.49
378.33	37.45
378.52	16.38
378.72	42.13
378.91	72.56
379.11	18.72
379.31	0.00
379.50	2.34
379.70	0.00
379.89	32.77
380.09	0.00
380.28	0.00
380.48	23.41
380.68	0.00
380.87	98.30
381.07	0.00
381.26	0.00
381.46	0.00
381.65	11.70
381.85	16.38
382.04	28.09
382.24	70.22
382.43	14.04
382.63	30.43
382.83	39.79
383.02	74.90
383.22	58.51
383.41	16.38
383.61	37.45
383.80	0.00
384.00	0.00
384.19	70.22
384.39	32.77
384.58	0.00
384.78	0.00
384.97	0.00
385.17	105.32
385.36	11.70
385.56	21.06
385.75	0.00
385.95	9.36
386.14	4.68
386.34	0.00
386.53	65.54
386.72	23.41
386.92	53.83
387.11	0.00
387.31	0.00
387.50	49.15
387.70	14.04
387.89	0.00
388.09	2.34
388.28	39.79
388.48	0.00
388.67	32.77
388.86	63.19
389.06	0.00
389.25	0.00
389.45	56.17
389.64	0.00
389.84	0.00
390.03	23.41
390.22	42.13
390.42	7.02
390.61	0.00
390.81	46.81
391.00	81.92
391.19	72.56
391.39	112.35
391.58	23.41
391.78	49.15
391.97	0.00
392.16	74.90
392.36	0.00
392.55	37.45
392.75	0.00
392.94	4.68
393.13	93.62
393.33	53.83
393.52	0.00
393.71	44.47
393.91	0.00
394.10	84.26
394.29	0.00
394.49	28.09
394.68	67.88
394.88	23.41
395.07	14.04
395.26	32.77
395.46	0.00
395.65	21.06
395.84	0.00
396.04	60.85
396.23	28.09
396.42	11.70
396.62	16.38
396.81	86.60
397.00	63.19
397.19	42.13
397.39	42.13
397.58	14.04
397.77	84.26
397.97	0.00
398.16	53.83
398.35	0.00
398.55	23.41
398.74	44.47
398.93	35.11
399.12	0.00
399.32	56.17
399.51	44.47
399.70	53.83
399.90	0.00
400.09	51.49
400.28	0.00
400.47	0.00
400.67	100.64
400.86	72.56
401.05	60.85
401.24	86.60
401.44	37.45
401.63	9.36
401.82	16.38
402.01	98.30
402.21	0.00
402.40	30.43
402.59	42.13
402.78	49.15
402.97	56.17
403.17	93.62
403.36	53.83
403.55	18.72
403.74	0.00
403.93	16.38
404.13	39.79
404.32	0.00
404.51	98.30
404.70	11.70
404.89	53.83
405.09	70.22
405.28	0.00
405.47	0.00
405.66	81.92
405.85	0.00
406.05	124.05
406.24	84.26
406.43	7.02
406.62	0.00
406.81	39.79
407.00	91.28
407.20	39.79
407.39	0.00
407.58	0.00
407.77	28.09
407.96	58.51
408.15	42.13
408.34	25.75
408.54	28.09
408.73	25.75
408.92	21.06
409.11	53.83
409.30	37.45
409.49	0.00
409.68	37.45
409.87	0.00
410.07	18.72
410.26	0.00
410.45	77.24
410.64	37.45
410.83	21.06
411.02	25.75
411.21	51.49
411.40	0.00
411.59	49.15
411.78	91.28
411.98	102.98
412.17	42.13
412.36	91.28
412.55	51.49
412.74	65.54
412.93	72.56
413.12	58.51
413.31	37.45
413.50	28.09
413.69	86.60
413.88	23.41
414.07	88.94
414.26	72.56
414.45	28.09
414.64	30.43
414.83	18.72
415.02	16.38
415.22	88.94
415.41	81.92
415.60	46.81
415.79	53.83
415.98	49.15
416.17	39.79
416.36	16.38
416.55	0.00
416.74	63.19
416.93	25.75
417.12	11.70
417.31	21.06
417.50	60.85
417.69	133.41
417.88	11.70
418.07	58.51
418.26	131.07
418.45	0.00
418.64	23.41
418.83	77.24
419.02	60.85
419.21	53.83
419.39	32.77
419.58	44.47
419.77	42.13
419.96	39.79
420.15	16.38
420.34	35.11
420.53	88.94
420.72	65.54
420.91	18.72
421.10	72.56
421.29	0.00
421.48	11.70
421.67	0.00
421.86	14.04
422.05	95.96
422.24	154.48
422.43	37.45
422.61	4.68
422.80	39.79
422.99	70.22
423.18	16.38
423.37	117.03
423.56	0.00
423.75	35.11
423.94	91.28
424.13	35.11
424.32	16.38
424.50	53.83
424.69	30.43
424.88	65.54
425.07	37.45
425.26	63.19
425.45	0.00
425.64	100.64
425.83	53.83
426.01	0.00
426.20	21.06
426.39	72.56
426.58	114.69
426.77	16.38
426.96	72.56
427.15	58.51
427.33	74.90
427.52	46.81
427.71	0.00
427.90	42.13
428.09	9.36
428.28	110.01
428.46	65.54
428.65	0.00
428.84	65.54
429.03	25.75
429.22	0.00
429.40	28.09
429.59	28.09
429.78	95.96
429.97	53.83
430.16	63.19
430.34	74.90
430.53	11.70
430.72	35.11
430.91	98.30
431.10	72.56
431.28	79.58
431.47	42.13
431.66	0.00
431.85	79.58
432.03	53.83
432.22	51.49
432.41	0.00
432.60	35.11
432.79	56.17
432.97	32.77
433.16	16.38
433.35	60.85
433.54	65.54
433.72	79.58
433.91	60.85
434.10	49.15
434.28	30.43
434.47	46.81
434.66	53.83
434.85	74.90
435.03	32.77
435.22	98.30
435.41	117.03
435.59	35.11
435.78	60.85
435.97	7.02
436.16	44.47
436.34	93.62
436.53	0.00
436.72	105.32
436.90	51.49
437.09	56.17
437.28	18.72
437.46	16.38
437.65	37.45
437.84	98.30
438.02	30.43
438.21	53.83
438.40	79.58
438.58	42.13
438.77	51.49
438.96	114.69
439.14	58.51
439.33	39.79
439.52	23.41
439.70	67.88
439.89	79.58
440.08	25.75
440.26	21.06
440.45	88.94
440.63	0.00
440.82	112.35
441.01	74.90
441.19	18.72
441.38	53.83
441.57	32.77
441.75	56.17
441.94	14.04
442.12	16.38
442.31	95.96
442.50	18.72
442.68	46.81
442.87	49.15
443.05	4.68
443.24	98.30
443.43	84.26
443.61	63.19
443.80	32.77
443.98	117.03
444.17	51.49
444.35	0.00
444.54	39.79
444.73	56.17
444.91	18.72
445.10	60.85
445.28	23.41
445.47	23.41
445.65	67.88
445.84	67.88
446.02	98.30
446.21	37.45
446.39	39.79
446.58	72.56
446.77	84.26
446.95	88.94
447.14	84.26
447.32	79.58
447.51	42.13
447.69	93.62
447.88	16.38
448.06	60.85
448.25	51.49
448.43	0.00
448.62	18.72
448.80	35.11
448.99	65.54
449.17	88.94
449.36	16.38
449.54	86.60
449.73	124.05
449.91	77.24
450.10	72.56
450.28	105.32
450.46	60.85
450.65	0.00
450.83	30.43
451.02	56.17
451.20	60.85
451.39	79.58
451.57	56.17
451.76	72.56
451.94	18.72
452.13	65.54
452.31	72.56
452.49	23.41
452.68	0.00
452.86	67.88
453.05	9.36
453.23	65.54
453.42	7.02
453.60	46.81
453.78	74.90
453.97	14.04
454.15	7.02
454.34	79.58
454.52	91.28
454.70	56.17
454.89	79.58
455.07	100.64
455.26	14.04
455.44	166.18
455.62	67.88
455.81	37.45
455.99	18.72
456.17	88.94
456.36	81.92
456.54	60.85
456.73	7.02
456.91	53.83
457.09	105.32
457.28	100.64
457.46	39.79
457.64	67.88
457.83	105.32
458.01	86.60
458.19	100.64
458.38	65.54
458.56	51.49
458.74	2.34
458.93	30.43
459.11	16.38
459.29	30.43
459.48	65.54
459.66	28.09
459.84	124.05
460.03	79.58
460.21	14.04
460.39	98.30
460.57	53.83
460.76	28.09
460.94	42.13
461.12	9.36
461.31	100.64
461.49	11.70
461.67	18.72
461.85	60.85
462.04	100.64
462.22	100.64
462.40	53.83
462.59	46.81
462.77	25.75
462.95	0.00
463.13	25.75
463.32	56.17
463.50	30.43
463.68	39.79
463.86	37.45
464.05	42.13
464.23	21.06
464.41	28.09
464.59	0.00
464.78	65.54
464.96	149.79
465.14	74.90
465.32	67.88
465.50	46.81
465.69	121.71
465.87	0.00
466.05	0.00
466.23	70.22
466.41	46.81
466.60	65.54
466.78	14.04
466.96	42.13
467.14	74.90
467.32	102.98
467.51	67.88
467.69	11.70
467.87	60.85
468.05	126.39
468.23	105.32
468.41	65.54
468.60	49.15
468.78	53.83
468.96	70.22
469.14	11.70
469.32	30.43
469.50	72.56
469.69	11.70
469.87	77.24
470.05	32.77
470.23	72.56
470.41	49.15
470.59	0.00
470.77	65.54
470.95	51.49
471.14	53.83
471.32	86.60
471.50	53.83
471.68	23.41
471.86	74.90
472.04	0.00
472.22	154.48
472.40	63.19
472.58	63.19
472.77	70.22
472.95	79.58
473.13	84.26
473.31	110.01
473.49	70.22
473.67	84.26
473.85	44.47
474.03	25.75
474.21	23.41
474.39	49.15
474.57	39.79
474.75	93.62
474.93	117.03
475.12	53.83
475.30	107.66
475.48	18.72
475.66	51.49
475.84	14.04
476.02	28.09
476.20	74.90
476.38	56.17
476.56	91.28
476.74	16.38
476.92	32.77
477.10	67.88
477.28	110.01
477.46	18.72
477.64	39.79
477.82	9.36
478.00	131.07
478.18	32.77
478.36	63.19
478.54	4.68
478.72	11.70
478.90	30.43
479.08	35.11
479.26	74.90
479.44	42.13
479.62	37.45
479.80	49.15
479.98	84.26
480.16	95.96
480.34	72.56
480.52	30.43
480.70	140.43
480.88	88.94
481.06	79.58
481.24	28.09
481.41	42.13
481.59	0.00
481.77	77.24
481.95	63.19
482.13	100.64
482.31	70.22
482.49	81.92
482.67	35.11
482.85	49.15
483.03	28.09
483.21	32.77
483.39	79.58
483.57	0.00
483.74	44.47
483.92	23.41
484.10	110.01
484.28	0.00
484.46	112.35
484.64	39.79
484.82	0.00
485.00	67.88
485.18	114.69
485.35	67.88
485.53	72.56
485.71	121.71
485.89	18.72
486.07	81.92
486.25	23.41
486.43	35.11
486.61	77.24
486.78	65.54
486.96	112.35
487.14	60.85
487.32	65.54
487.50	32.77
487.68	70.22
487.85	9.36
488.03	86.60
488.21	46.81
488.39	7.02
488.57	16.38
488.75	128.73
488.92	102.98
489.10	65.54
489.28	117.03
489.46	60.85
489.64	112.35
489.81	72.56
489.99	21.06
490.17	105.32
490.35	128.73
490.53	51.49
490.70	63.19
490.88	0.00
491.06	30.43
491.24	42.13
491.41	70.22
491.59	105.32
491.77	74.90
491.95	56.17
492.13	86.60
492.30	86.60
492.48	112.35
492.66	110.01
492.84	86.60
493.01	86.60
493.19	100.64
493.37	110.01
493.54	114.69
493.72	70.22
493.90	60.85
494.08	102.98
494.25	88.94
494.43	63.19
494.61	95.96
494.79	65.54
494.96	98.30
495.14	51.49
495.32	79.58
495.49	131.07
495.67	133.41
495.85	28.09
496.02	60.85
496.20	30.43
496.38	81.92
496.55	124.05
496.73	126.39
496.91	37.45
497.09	117.03
497.26	91.28
497.44	67.88
497.62	74.90
497.79	95.96
497.97	63.19
498.14	91.28
498.32	46.81
498.50	74.90
498.67	67.88
498.85	86.60
499.03	91.28
499.20	88.94
499.38	60.85
499.56	88.94
499.73	88.94
499.91	84.26
500.08	49.15
500.26	77.24
500.44	128.73
500.61	124.05
500.79	100.64
500.97	44.47
501.14	60.85
501.32	46.81
501.49	53.83
501.67	112.35
501.84	30.43
502.02	56.17
502.20	117.03
502.37	4.68
502.55	0.00
502.72	135.75
502.90	110.01
503.07	140.43
503.25	110.01
503.43	93.62
503.60	175.54
503.78	102.98
503.95	100.64
504.13	35.11
504.30	7.02
504.48	105.32
504.65	142.77
504.83	100.64
505.01	79.58
505.18	39.79
505.36	51.49
505.53	114.69
505.71	100.64
505.88	42.13
506.06	88.94
506.23	35.11
506.41	88.94
506.58	46.81
506.76	86.60
506.93	21.06
507.11	72.56
507.28	39.79
507.46	112.35
507.63	128.73
507.81	161.50
507.98	49.15
508.16	23.41
508.33	93.62
508.50	93.62
508.68	145.11
508.85	117.03
509.03	44.47
509.20	11.70
509.38	77.24
509.55	58.51
509.73	110.01
509.90	91.28
510.08	30.43
510.25	138.09
510.42	72.56
510.60	107.66
510.77	91.28
510.95	81.92
511.12	23.41
511.30	131.07
511.47	142.77
511.64	163.84
511.82	39.79
511.99	16.38
512.17	53.83
512.34	105.32
512.51	2.34
512.69	91.28
512.86	58.51
513.04	124.05
513.21	0.00
513.38	95.96
513.56	46.81
513.73	65.54
513.90	93.62
514.08	95.96
514.25	77.24
514.43	70.22
514.60	81.92
514.77	119.37
514.95	128.73
515.12	152.13
515.29	18.72
515.47	70.22
515.64	128.73
515.81	114.69
515.99	51.49
516.16	81.92
516.33	93.62
516.51	56.17
516.68	81.92
516.85	95.96
517.03	79.58
517.20	142.77
517.37	81.92
517.54	32.77
517.72	0.00
517.89	9.36
518.06	37.45
518.24	37.45
518.41	100.64
518.58	88.94
518.75	156.82
518.93	88.94
519.10	95.96
519.27	121.71
519.45	44.47
519.62	14.04
519.79	77.24
519.96	53.83
520.14	56.17
520.31	175.54
520.48	79.58
520.65	51.49
520.83	107.66
521.00	102.98
521.17	88.94
521.34	63.19
521.52	117.03
521.69	88.94
521.86	100.64
522.03	102.98
522.20	63.19
522.38	107.66
522.55	23.41
522.72	135.75
522.89	32.77
523.07	105.32
523.24	112.35
523.41	63.19
523.58	72.56
523.75	70.22
523.92	46.81
524.10	65.54
524.27	14.04
524.44	100.64
524.61	93.62
524.78	67.88
524.96	81.92
525.13	102.98
525.30	81.92
525.47	119.37
525.64	39.79
525.81	65.54
525.98	126.39
526.16	0.00
526.33	98.30
526.50	81.92
526.67	102.98
526.84	86.60
527.01	100.64
527.18	95.96
527.36	93.62
527.53	131.07
527.70	70.22
527.87	88.94
528.04	119.37
528.21	63.19
528.38	112.35
528.55	98.30
528.72	35.11
528.89	16.38
529.07	74.90
529.24	72.56
529.41	110.01
529.58	102.98
529.75	58.51
529.92	117.03
530.09	95.96
530.26	124.05
530.43	0.00
530.60	60.85
530.77	102.98
530.94	63.19
531.11	67.88
531.28	74.90
531.46	86.60
531.63	102.98
531.80	133.41
531.97	86.60
532.14	2.34
532.31	149.79
532.48	100.64
532.65	42.13
532.82	74.90
532.99	145.11
533.16	110.01
533.33	142.77
533.50	88.94
533.67	23.41
533.84	53.83
534.01	100.64
534.18	86.60
534.35	131.07
534.52	77.24
534.69	161.50
534.86	124.05
535.03	110.01
535.20	166.18
535.37	124.05
535.54	32.77
535.71	110.01
535.88	74.90
536.05	63.19
536.22	177.88
536.38	124.05
536.55	67.88
536.72	65.54
536.89	124.05
537.06	93.62
537.23	28.09
537.40	114.69
537.57	4.68
537.74	95.96
537.91	16.38
538.08	84.26
538.25	63.19
538.42	98.30
538.59	60.85
538.75	126.39
538.92	84.26
539.09	149.79
539.26	126.39
539.43	102.98
539.60	79.58
539.77	142.77
539.94	28.09
540.11	0.00
540.28	119.37
540.44	84.26
540.61	81.92
540.78	102.98
540.95	112.35
541.12	42.13
541.29	46.81
541.46	124.05
541.62	44.47
541.79	49.15
541.96	124.05
542.13	65.54
542.30	86.60
542.47	65.54
542.63	49.15
542.80	95.96
542.97	138.09
543.14	46.81
543.31	102.98
543.48	58.51
543.64	53.83
543.81	88.94
543.98	56.17
544.15	91.28
544.32	42.13
544.48	126.39
544.65	51.49
544.82	110.01
544.99	81.92
545.16	39.79
545.32	81.92
545.49	98.30
545.66	142.77
545.83	0.00
546.00	67.88
546.16	163.84
546.33	163.84
546.50	65.54
546.67	79.58
546.83	30.43
547.00	88.94
547.17	93.62
547.34	124.05
547.50	98.30
547.67	60.85
547.84	93.62
548.00	86.60
548.17	77.24
548.34	72.56
548.51	58.51
548.67	42.13
548.84	25.75
549.01	88.94
549.18	93.62
549.34	154.48
549.51	81.92
549.68	67.88
549.84	46.81
550.01	65.54
550.18	39.79
550.34	133.41
550.51	11.70
550.68	25.75
550.84	86.60
551.01	88.94
551.18	58.51
551.34	81.92
551.51	72.56
551.68	77.24
551.84	58.51
552.01	4.68
552.18	70.22
552.34	100.64
552.51	0.00
552.68	163.84
552.84	42.13
553.01	114.69
553.18	65.54
553.34	112.35
553.51	51.49
553.67	93.62
553.84	124.05
554.01	60.85
554.17	79.58
554.34	126.39
554.51	28.09
554.67	63.19
554.84	152.13
555.00	102.98
555.17	95.96
555.33	60.85
555.50	102.98
555.67	140.43
555.83	74.90
556.00	145.11
556.16	88.94
556.33	46.81
556.50	173.20
556.66	74.90
556.83	79.58
556.99	98.30
557.16	35.11
557.32	70.22
557.49	32.77
557.65	112.35
557.82	88.94
557.98	37.45
558.15	84.26
558.32	0.00
558.48	91.28
558.65	30.43
558.81	63.19
558.98	56.17
559.14	58.51
559.31	44.47
559.47	0.00
559.64	65.54
559.80	133.41
559.97	102.98
560.13	98.30
560.30	156.82
560.46	70.22
560.63	81.92
560.79	117.03
560.96	91.28
561.12	11.70
561.29	91.28
561.45	102.98
561.61	14.04
561.78	133.41
561.94	100.64
562.11	53.83
562.27	119.37
562.44	131.07
562.60	53.83
562.77	44.47
562.93	67.88
563.10	124.05
563.26	95.96
563.42	100.64
563.59	42.13
563.75	107.66
563.92	67.88
564.08	63.19
564.24	30.43
564.41	152.13
564.57	95.96
564.74	91.28
564.90	117.03
565.07	46.81
565.23	42.13
565.39	60.85
565.56	81.92
565.72	25.75
565.88	74.90
566.05	0.00
566.21	74.90
566.38	112.35
566.54	138.09
566.70	77.24
566.87	72.56
567.03	49.15
567.19	114.69
567.36	121.71
567.52	58.51
567.68	56.17
567.85	37.45
568.01	156.82
568.17	70.22
568.34	79.58
568.50	117.03
568.66	117.03
568.83	44.47
568.99	0.00
569.15	93.62
569.32	32.77
569.48	161.50
569.64	28.09
569.81	93.62
569.97	95.96
570.13	16.38
570.30	86.60
570.46	23.41
570.62	114.69
570.78	112.35
570.95	86.60
571.11	58.51
571.27	56.17
571.43	100.64
571.60	67.88
571.76	117.03
571.92	37.45
572.09	95.96
572.25	100.64
572.41	112.35
572.57	77.24
572.74	102.98
572.90	121.71
573.06	65.54
573.22	102.98
573.38	79.58
573.55	100.64
573.71	56.17
573.87	30.43
574.03	77.24
574.20	72.56
574.36	56.17
574.52	53.83
574.68	105.32
574.84	49.15
575.01	93.62
575.17	88.94
575.33	81.92
575.49	72.56
575.65	51.49
575.82	60.85
575.98	49.15
576.14	102.98
576.30	142.77
576.46	110.01
576.62	70.22
576.79	145.11
576.95	65.54
577.11	154.48
577.27	105.32
577.43	46.81
577.59	39.79
577.75	98.30
577.92	105.32
578.08	119.37
578.24	39.79
578.40	42.13
578.56	63.19
578.72	100.64
578.88	100.64
579.04	112.35
579.21	74.90
579.37	98.30
579.53	124.05
579.69	79.58
579.85	49.15
580.01	51.49
580.17	102.98
580.33	81.92
580.49	168.52
580.65	72.56
580.82	86.60
580.98	18.72
581.14	86.60
581.30	0.00
581.46	37.45
581.62	88.94
581.78	102.98
581.94	112.35
582.10	49.15
582.26	145.11
582.42	63.19
582.58	74.90
582.74	0.00
582.90	100.64
583.06	91.28
583.22	65.54
583.38	65.54
583.54	100.64
583.70	84.26
583.86	28.09
584.02	58.51
584.18	46.81
584.34	14.04
584.50	60.85
584.66	67.88
584.82	70.22
584.98	121.71
585.14	88.94
585.30	98.30
585.46	60.85
585.62	81.92
585.78	110.01
585.94	91.28
586.10	121.71
586.26	110.01
586.42	107.66
586.58	100.64
586.74	60.85
586.90	42.13
587.06	39.79
587.22	77.24
587.38	51.49
587.54	95.96
587.70	28.09
587.86	44.47
588.02	70.22
588.18	72.56
588.34	114.69
588.49	32.77
588.65	112.35
588.81	49.15
588.97	35.11
589.13	53.83
589.29	81.92
589.45	16.38
589.61	42.13
589.77	63.19
589.93	37.45
590.08	107.66
590.24	133.41
590.40	133.41
590.56	102.98
590.72	91.28
590.88	105.32
591.04	72.56
591.20	32.77
591.35	98.30
591.51	86.60
591.67	121.71
591.83	128.73
591.99	16.38
592.15	107.66
592.31	98.30
592.46	77.24
592.62	93.62
592.78	107.66
592.94	131.07
593.10	14.04
593.26	51.49
593.41	65.54
593.57	138.09
593.73	105.32
593.89	133.41
594.05	67.88
594.20	91.28
594.36	74.90
594.52	39.79
594.68	23.41
594.84	53.83
594.99	86.60
595.15	102.98
595.31	110.01
595.47	0.00
595.62	88.94
595.78	70.22
595.94	114.69
596.10	39.79
596.25	67.88
596.41	35.11
596.57	86.60
596.73	131.07
596.88	93.62
597.04	44.47
597.20	77.24
597.36	58.51
597.51	56.17
597.67	112.35
597.83	46.81
597.99	131.07
598.14	39.79
598.30	72.56
598.46	35.11
598.61	63.19
598.77	84.26
598.93	100.64
599.09	60.85
599.24	53.83
599.40	58.51
599.56	112.35
599.71	86.60
599.87	117.03
600.03	159.16
600.18	121.71
600.34	84.26
600.50	93.62
600.65	72.56
600.81	51.49
600.97	84.26
601.12	110.01
601.28	70.22
601.44	70.22
601.59	44.47
601.75	112.35
601.91	74.90
602.06	18.72
602.22	42.13
602.37	84.26
602.53	37.45
602.69	53.83
602.84	49.15
603.00	72.56
603.16	102.98
603.31	65.54
603.47	7.02
603.62	79.58
603.78	91.28
603.94	142.77
604.09	95.96
604.25	67.88
604.40	95.96
604.56	30.43
604.71	79.58
604.87	37.45
605.03	126.39
605.18	79.58
605.34	84.26
605.49	70.22
605.65	28.09
605.80	117.03
605.96	60.85
606.12	51.49
606.27	72.56
606.43	70.22
606.58	46.81
606.74	70.22
606.89	44.47
607.05	16.38
607.20	79.58
607.36	81.92
607.51	166.18
607.67	88.94
607.82	98.30
607.98	65.54
608.13	105.32
608.29	32.77
608.44	42.13
608.60	23.41
608.75	88.94
608.91	67.88
609.06	107.66
609.22	98.30
609.37	100.64
609.53	107.66
609.68	7.02
609.84	18.72
609.99	39.79
610.15	30.43
610.30	88.94
610.46	86.60
610.61	42.13
610.76	60.85
610.92	46.81
611.07	0.00
611.23	25.75
611.38	60.85
611.54	37.45
611.69	93.62
611.84	128.73
612.00	77.24
612.15	74.90
612.31	32.77
612.46	39.79
612.62	112.35
612.77	65.54
612.92	37.45
613.08	67.88
613.23	14.04
613.39	112.35
613.54	16.38
613.69	100.64
613.85	44.47
614.00	72.56
614.15	98.30
614.31	56.17
614.46	79.58
614.62	72.56
614.77	39.79
614.92	135.75
615.08	58.51
615.23	67.88
615.38	28.09
615.54	65.54
615.69	39.79
615.84	67.88
616.00	74.90
616.15	0.00
616.30	37.45
616.46	0.00
616.61	9.36
616.76	49.15
616.92	65.54
617.07	46.81
617.22	86.60
617.37	86.60
617.53	93.62
617.68	25.75
617.83	67.88
617.99	114.69
618.14	14.04
618.29	77.24
618.45	112.35
618.60	28.09
618.75	91.28
618.90	30.43
619.06	37.45
619.21	119.37
619.36	84.26
619.51	95.96
619.67	107.66
619.82	60.85
619.97	9.36
620.12	9.36
620.28	91.28
620.43	67.88
620.58	42.13
620.73	28.09
620.89	25.75
621.04	79.58
621.19	74.90
621.34	0.00
621.49	11.70
621.65	14.04
621.80	32.77
621.95	46.81
622.10	0.00
622.25	100.64
622.41	88.94
622.56	51.49
622.71	65.54
622.86	88.94
623.01	67.88
623.16	46.81
623.32	63.19
623.47	60.85
623.62	86.60
623.77	124.05
623.92	70.22
624.07	95.96
624.23	117.03
624.38	30.43
624.53	98.30
624.68	95.96
624.83	70.22
624.98	84.26
625.13	93.62
625.29	95.96
625.44	98.30
625.59	32.77
625.74	110.01
625.89	72.56
626.04	93.62
626.19	112.35
626.34	14.04
626.49	23.41
626.65	25.75
626.80	53.83
626.95	60.85
627.10	79.58
627.25	91.28
627.40	42.13
627.55	9.36
627.70	117.03
627.85	63.19
628.00	14.04
628.15	84.26
628.30	14.04
628.45	2.34
628.60	58.51
628.76	49.15
628.91	98.30
629.06	81.92
629.21	18.72
629.36	53.83
629.51	32.77
629.66	70.22
629.81	28.09
629.96	98.30
630.11	21.06
630.26	42.13
630.41	30.43
630.56	117.03
630.71	100.64
630.86	107.66
631.01	67.88
631.16	46.81
631.31	77.24
631.46	0.00
631.61	46.81
631.76	93.62
631.91	67.88
632.06	86.60
632.21	32.77
632.36	4.68
632.51	79.58
632.66	7.02
632.81	81.92
632.96	77.24
633.10	42.13
633.25	100.64
633.40	44.47
633.55	7.02
633.70	30.43
633.85	110.01
634.00	58.51
634.15	72.56
634.30	72.56
634.45	79.58
634.60	95.96
634.75	65.54
634.90	23.41
635.05	67.88
635.19	140.43
635.34	81.92
635.49	74.90
635.64	56.17
635.79	42.13
635.94	86.60
636.09	56.17
636.24	4.68
636.39	51.49
636.53	35.11
636.68	37.45
636.83	121.71
636.98	23.41
637.13	72.56
637.28	98.30
637.43	0.00
637.57	65.54
637.72	56.17
637.87	56.17
638.02	93.62
638.17	114.69
638.32	147.45
638.46	51.49
638.61	98.30
638.76	0.00
638.91	72.56
639.06	91.28
639.20	102.98
639.35	100.64
639.50	4.68
639.65	37.45
639.80	28.09
639.94	93.62
640.09	74.90
640.24	30.43
640.39	18.72
640.54	7.02
640.68	79.58
640.83	37.45
640.98	56.17
641.13	56.17
641.27	60.85
641.42	60.85
641.57	77.24
641.72	49.15
641.86	107.66
642.01	2.34
642.16	67.88
642.31	56.17
642.45	63.19
642.60	70.22
642.75	0.00
642.90	32.77
643.04	39.79
643.19	70.22
643.34	65.54
643.48	67.88
643.63	0.00
643.78	105.32
643.93	42.13
644.07	4.68
644.22	39.79
644.37	79.58
644.51	46.81
644.66	110.01
644.81	58.51
644.95	28.09
645.10	0.00
645.25	58.51
645.39	58.51
645.54	46.81
645.69	32.77
645.83	51.49
645.98	95.96
646.13	25.75
646.27	25.75
646.42	16.38
646.57	0.00
646.71	117.03
646.86	32.77
647.00	39.79
647.15	84.26
647.30	0.00
647.44	44.47
647.59	49.15
647.74	39.79
647.88	0.00
648.03	63.19
648.17	93.62
648.32	81.92
648.47	102.98
648.61	0.00
648.76	0.00
648.90	65.54
649.05	23.41
649.20	84.26
649.34	79.58
649.49	23.41
649.63	63.19
649.78	60.85
649.92	51.49
650.07	60.85
650.21	37.45
650.36	67.88
650.51	25.75
650.65	86.60
650.80	23.41
650.94	84.26
651.09	100.64
651.23	28.09
651.38	63.19
651.52	35.11
651.67	46.81
651.81	67.88
651.96	56.17
652.10	0.00
652.25	79.58
652.39	25.75
652.54	53.83
652.68	119.37
652.83	44.47
652.97	39.79
653.12	51.49
653.26	44.47
653.41	110.01
653.55	70.22
653.70	53.83
653.84	18.72
653.99	16.38
654.13	11.70
654.27	21.06
654.42	23.41
654.56	44.47
654.71	81.92
654.85	0.00
655.00	0.00
655.14	2.34
655.29	49.15
655.43	95.96
655.57	95.96
655.72	0.00
655.86	30.43
656.01	25.75
656.15	28.09
656.30	56.17
656.44	117.03
656.58	65.54
656.73	14.04
656.87	9.36
657.01	86.60
657.16	70.22
657.30	77.24
657.45	128.73
657.59	60.85
657.73	77.24
657.88	91.28
658.02	9.36
658.16	11.70
658.31	0.00
658.45	145.11
658.60	32.77
658.74	63.19
658.88	37.45
659.03	110.01
659.17	79.58
659.31	51.49
659.46	51.49
659.60	53.83
659.74	56.17
659.89	16.38
660.03	44.47
660.17	65.54
660.32	91.28
660.46	44.47
660.60	39.79
660.74	21.06
660.89	23.41
661.03	58.51
661.17	2.34
661.32	21.06
661.46	84.26
661.60	0.00
661.74	65.54
661.89	67.88
662.03	63.19
662.17	39.79
662.31	56.17
662.46	105.32
662.60	91.28
662.74	2.34
662.88	30.43
663.03	100.64
663.17	72.56
663.31	88.94
663.45	70.22
663.60	46.81
663.74	138.09
663.88	25.75
664.02	9.36
664.17	0.00
664.31	14.04
664.45	128.73
664.59	16.38
664.73	63.19
664.88	25.75
665.02	18.72
665.16	81.92
665.30	42.13
665.44	112.35
665.59	91.28
665.73	56.17
665.87	37.45
666.01	2.34
666.15	37.45
666.29	140.43
666.44	81.92
666.58	58.51
666.72	91.28
666.86	11.70
667.00	79.58
667.14	60.85
667.28	14.04
667.43	37.45
667.57	110.01
667.71	117.03
667.85	44.47
667.99	102.98
668.13	93.62
668.27	49.15
668.41	0.00
668.56	42.13
668.70	49.15
668.84	18.72
668.98	16.38
669.12	58.51
669.26	67.88
669.40	53.83
669.54	56.17
669.68	0.00
669.82	37.45
669.96	72.56
670.10	4.68
670.25	72.56
670.39	77.24
670.53	46.81
670.67	0.00
670.81	63.19
670.95	86.60
671.09	105.32
671.23	60.85
671.37	100.64
671.51	88.94
671.65	79.58
671.79	95.96
671.93	25.75
672.07	25.75
672.21	81.92
672.35	32.77
672.49	102.98
672.63	112.35
672.77	2.34
672.91	117.03
673.05	95.96
673.19	70.22
673.33	102.98
673.47	65.54
673.61	74.90
673.75	23.41
673.89	32.77
674.03	42.13
674.17	46.81
674.31	72.56
674.45	23.41
674.59	126.39
674.73	51.49
674.87	100.64
675.01	65.54
675.15	70.22
675.29	86.60
675.43	79.58
675.56	79.58
675.70	21.06
675.84	102.98
675.98	110.01
676.12	60.85
676.26	51.49
676.40	51.49
676.54	32.77
676.68	51.49
676.82	72.56
676.96	77.24
677.10	46.81
677.23	84.26
677.37	42.13
677.51	102.98
677.65	46.81
677.79	0.00
677.93	95.96
678.07	37.45
678.21	88.94
678.34	32.77
678.48	0.00
678.62	42.13
678.76	30.43
678.90	14.04
679.04	63.19
679.18	63.19
679.31	77.24
679.45	105.32
679.59	37.45
679.73	16.38
679.87	37.45
680.00	42.13
680.14	98.30
680.28	67.88
680.42	88.94
680.56	58.51
680.70	11.70
680.83	84.26
680.97	88.94
681.11	51.49
681.25	53.83
681.39	84.26
681.52	2.34
681.66	49.15
681.80	14.04
681.94	60.85
682.07	30.43
682.21	72.56
682.35	79.58
682.49	46.81
682.62	9.36
682.76	53.83
682.90	79.58
683.04	88.94
683.17	100.64
683.31	70.22
683.45	28.09
683.59	51.49
683.72	49.15
683.86	4.68
684.00	53.83
684.13	95.96
684.27	72.56
684.41	11.70
684.55	0.00
684.68	30.43
684.82	11.70
684.96	49.15
685.09	53.83
685.23	16.38
685.37	35.11
685.50	95.96
685.64	56.17
685.78	46.81
685.91	60.85
686.05	44.47
686.19	0.00
686.32	42.13
686.46	117.03
686.60	0.00
686.73	0.00
686.87	44.47
687.01	0.00
687.14	37.45
687.28	79.58
687.42	11.70
687.55	0.00
687.69	32.77
687.82	60.85
687.96	21.06
688.10	23.41
688.23	74.90
688.37	11.70
688.50	0.00
688.64	18.72
688.78	7.02
688.91	84.26
689.05	63.19
689.18	32.77
689.32	21.06
689.46	28.09
689.59	70.22
689.73	0.00
689.86	49.15
690.00	0.00
690.13	63.19
690.27	53.83
690.41	11.70
690.54	39.79
690.68	30.43
690.81	11.70
690.95	0.00
691.08	53.83
691.22	4.68
691.35	23.41
691.49	72.56
691.62	28.09
691.76	0.00
691.89	110.01
692.03	0.00
692.16	81.92
692.30	51.49
692.43	74.90
692.57	56.17
692.70	51.49
692.84	9.36
692.97	18.72
693.11	32.77
693.24	0.00
693.38	11.70
693.51	18.72
693.65	4.68
693.78	53.83
693.92	21.06
694.05	77.24
694.19	49.15
694.32	0.00
694.45	21.06
694.59	14.04
694.72	77.24
694.86	44.47
694.99	107.66
695.13	60.85
695.26	11.70
695.39	21.06
695.53	56.17
695.66	65.54
695.80	39.79
695.93	105.32
696.07	49.15
696.20	32.77
696.33	4.68
696.47	23.41
696.60	49.15
696.73	30.43
696.87	25.75
697.00	56.17
697.14	49.15
697.27	0.00
697.40	49.15
697.54	21.06
697.67	51.49
697.80	39.79
697.94	25.75
698.07	39.79
698.21	63.19
698.34	0.00
698.47	0.00
698.61	23.41
698.74	0.00
698.87	11.70
699.01	84.26
699.14	53.83
699.27	39.79
699.40	79.58
699.54	91.28
699.67	58.51
699.80	131.07
699.94	79.58
700.07	63.19
700.20	63.19
700.34	23.41
700.47	9.36
700.60	0.00
700.73	0.00
700.87	49.15
701.00	72.56
701.13	110.01
701.26	65.54
701.40	39.79
701.53	30.43
701.66	131.07
701.79	42.13
701.93	0.00
702.06	100.64
702.19	46.81
702.32	39.79
702.46	51.49
702.59	72.56
702.72	32.77
702.85	0.00
702.99	18.72
703.12	60.85
703.25	44.47
703.38	2.34
703.51	53.83
703.65	86.60
703.78	37.45
703.91	42.13
704.04	53.83
704.17	7.02
704.31	42.13
704.44	30.43
704.57	18.72
704.70	53.83
704.83	28.09
704.96	100.64
705.10	18.72
705.23	30.43
>>>>>End Processed Spectral Data<<<<<
