SpectraSuite Data File
++++++++++++++++++++++++++++++++++++
Date: Fri Oct 04 12:13:40 GMT-05:00 2013
User: price-jones
Dark Spectrum Present: No
Reference Spectrum Present: No
Number of Sampled Component Spectra: 1
Spectrometers: USB2+H05261
Integration Time (usec): 10000 (USB2+H05261)
Spectra Averaged: 1 (USB2+H05261)
Boxcar Smoothing: 0 (USB2+H05261)
Correct for Electrical Dark: No (USB2+H05261)
Strobe/Lamp Enabled: No (USB2+H05261)
Correct for Detector Non-linearity: No (USB2+H05261)
Correct for Stray Light: No (USB2+H05261)
Number of Pixels in Processed Spectrum: 2048
>>>>>Begin Processed Spectral Data<<<<<
365.73	77.24
365.92	77.24
366.12	77.24
366.32	0.00
366.52	0.00
366.72	0.00
366.91	0.00
367.11	0.00
367.31	0.00
367.51	0.00
367.70	0.00
367.90	0.00
368.10	0.00
368.30	0.00
368.49	0.00
368.69	0.00
368.89	0.00
369.09	0.00
369.28	0.00
369.48	0.00
369.68	0.00
369.87	0.00
370.07	0.00
370.27	0.00
370.47	0.00
370.66	0.00
370.86	0.00
371.06	0.00
371.25	0.00
371.45	16.38
371.65	0.00
371.84	0.00
372.04	0.00
372.24	0.00
372.44	0.00
372.63	0.00
372.83	0.00
373.03	23.41
373.22	58.51
373.42	42.13
373.62	21.06
373.81	0.00
374.01	35.11
374.21	124.05
374.40	72.56
374.60	72.56
374.79	74.90
374.99	9.36
375.19	16.38
375.38	44.47
375.58	79.58
375.78	44.47
375.97	46.81
376.17	46.81
376.37	35.11
376.56	9.36
376.76	37.45
376.95	51.49
377.15	21.06
377.35	88.94
377.54	37.45
377.74	37.45
377.93	16.38
378.13	0.00
378.33	23.41
378.52	79.58
378.72	46.81
378.91	0.00
379.11	0.00
379.31	0.00
379.50	30.43
379.70	0.00
379.89	86.60
380.09	28.09
380.28	56.17
380.48	0.00
380.68	0.00
380.87	35.11
381.07	42.13
381.26	51.49
381.46	23.41
381.65	9.36
381.85	0.00
382.04	18.72
382.24	51.49
382.43	4.68
382.63	37.45
382.83	0.00
383.02	32.77
383.22	98.30
383.41	0.00
383.61	91.28
383.80	37.45
384.00	88.94
384.19	67.88
384.39	56.17
384.58	0.00
384.78	91.28
384.97	0.00
385.17	0.00
385.36	70.22
385.56	42.13
385.75	51.49
385.95	51.49
386.14	77.24
386.34	0.00
386.53	49.15
386.72	4.68
386.92	88.94
387.11	95.96
387.31	88.94
387.50	18.72
387.70	0.00
387.89	44.47
388.09	58.51
388.28	4.68
388.48	28.09
388.67	18.72
388.86	11.70
389.06	16.38
389.25	58.51
389.45	93.62
389.64	16.38
389.84	81.92
390.03	70.22
390.22	0.00
390.42	0.00
390.61	53.83
390.81	72.56
391.00	35.11
391.19	58.51
391.39	14.04
391.58	0.00
391.78	25.75
391.97	58.51
392.16	0.00
392.36	21.06
392.55	21.06
392.75	23.41
392.94	30.43
393.13	18.72
393.33	58.51
393.52	16.38
393.71	0.00
393.91	4.68
394.10	0.00
394.29	0.00
394.49	37.45
394.68	0.00
394.88	14.04
395.07	65.54
395.26	42.13
395.46	91.28
395.65	23.41
395.84	7.02
396.04	42.13
396.23	0.00
396.42	37.45
396.62	35.11
396.81	9.36
397.00	84.26
397.19	0.00
397.39	84.26
397.58	37.45
397.77	39.79
397.97	9.36
398.16	51.49
398.35	30.43
398.55	16.38
398.74	67.88
398.93	114.69
399.12	16.38
399.32	42.13
399.51	28.09
399.70	0.00
399.90	0.00
400.09	60.85
400.28	37.45
400.47	4.68
400.67	81.92
400.86	23.41
401.05	105.32
401.24	11.70
401.44	0.00
401.63	0.00
401.82	32.77
402.01	16.38
402.21	74.90
402.40	60.85
402.59	30.43
402.78	28.09
402.97	42.13
403.17	4.68
403.36	16.38
403.55	0.00
403.74	112.35
403.93	30.43
404.13	51.49
404.32	9.36
404.51	67.88
404.70	16.38
404.89	2.34
405.09	86.60
405.28	9.36
405.47	84.26
405.66	60.85
405.85	131.07
406.05	56.17
406.24	25.75
406.43	16.38
406.62	2.34
406.81	18.72
407.00	16.38
407.20	0.00
407.39	16.38
407.58	0.00
407.77	11.70
407.96	65.54
408.15	63.19
408.34	0.00
408.54	30.43
408.73	25.75
408.92	0.00
409.11	42.13
409.30	53.83
409.49	70.22
409.68	37.45
409.87	7.02
410.07	110.01
410.26	0.00
410.45	32.77
410.64	39.79
410.83	0.00
411.02	0.00
411.21	0.00
411.40	14.04
411.59	0.00
411.78	9.36
411.98	63.19
412.17	9.36
412.36	72.56
412.55	28.09
412.74	142.77
412.93	2.34
413.12	49.15
413.31	0.00
413.50	28.09
413.69	56.17
413.88	56.17
414.07	44.47
414.26	35.11
414.45	18.72
414.64	0.00
414.83	58.51
415.02	35.11
415.22	70.22
415.41	0.00
415.60	25.75
415.79	18.72
415.98	7.02
416.17	7.02
416.36	91.28
416.55	28.09
416.74	77.24
416.93	74.90
417.12	7.02
417.31	112.35
417.50	25.75
417.69	79.58
417.88	7.02
418.07	53.83
418.26	11.70
418.45	0.00
418.64	21.06
418.83	74.90
419.02	25.75
419.21	53.83
419.39	0.00
419.58	32.77
419.77	63.19
419.96	7.02
420.15	79.58
420.34	70.22
420.53	86.60
420.72	42.13
420.91	42.13
421.10	46.81
421.29	81.92
421.48	60.85
421.67	23.41
421.86	93.62
422.05	88.94
422.24	0.00
422.43	60.85
422.61	121.71
422.80	21.06
422.99	100.64
423.18	74.90
423.37	0.00
423.56	51.49
423.75	88.94
423.94	46.81
424.13	51.49
424.32	16.38
424.50	28.09
424.69	107.66
424.88	30.43
425.07	30.43
425.26	79.58
425.45	0.00
425.64	46.81
425.83	44.47
426.01	11.70
426.20	2.34
426.39	0.00
426.58	32.77
426.77	67.88
426.96	67.88
427.15	0.00
427.33	35.11
427.52	100.64
427.71	37.45
427.90	44.47
428.09	53.83
428.28	11.70
428.46	56.17
428.65	0.00
428.84	63.19
429.03	28.09
429.22	42.13
429.40	86.60
429.59	58.51
429.78	79.58
429.97	32.77
430.16	21.06
430.34	0.00
430.53	70.22
430.72	56.17
430.91	21.06
431.10	88.94
431.28	0.00
431.47	0.00
431.66	23.41
431.85	14.04
432.03	44.47
432.22	30.43
432.41	0.00
432.60	23.41
432.79	0.00
432.97	0.00
433.16	30.43
433.35	42.13
433.54	7.02
433.72	51.49
433.91	70.22
434.10	79.58
434.28	18.72
434.47	21.06
434.66	0.00
434.85	53.83
435.03	91.28
435.22	65.54
435.41	128.73
435.59	42.13
435.78	60.85
435.97	0.00
436.16	35.11
436.34	0.00
436.53	51.49
436.72	39.79
436.90	58.51
437.09	93.62
437.28	53.83
437.46	84.26
437.65	35.11
437.84	4.68
438.02	0.00
438.21	58.51
438.40	81.92
438.58	58.51
438.77	79.58
438.96	58.51
439.14	44.47
439.33	77.24
439.52	9.36
439.70	0.00
439.89	32.77
440.08	14.04
440.26	9.36
440.45	18.72
440.63	95.96
440.82	46.81
441.01	11.70
441.19	81.92
441.38	0.00
441.57	49.15
441.75	114.69
441.94	88.94
442.12	58.51
442.31	42.13
442.50	74.90
442.68	110.01
442.87	74.90
443.05	58.51
443.24	56.17
443.43	11.70
443.61	58.51
443.80	81.92
443.98	25.75
444.17	0.00
444.35	58.51
444.54	84.26
444.73	25.75
444.91	93.62
445.10	74.90
445.28	67.88
445.47	32.77
445.65	65.54
445.84	32.77
446.02	21.06
446.21	0.00
446.39	65.54
446.58	51.49
446.77	37.45
446.95	49.15
447.14	51.49
447.32	51.49
447.51	39.79
447.69	110.01
447.88	25.75
448.06	70.22
448.25	32.77
448.43	81.92
448.62	63.19
448.80	51.49
448.99	112.35
449.17	168.52
449.36	86.60
449.54	60.85
449.73	23.41
449.91	56.17
450.10	60.85
450.28	51.49
450.46	70.22
450.65	98.30
450.83	63.19
451.02	53.83
451.20	81.92
451.39	110.01
451.57	0.00
451.76	46.81
451.94	0.00
452.13	9.36
452.31	72.56
452.49	30.43
452.68	63.19
452.86	110.01
453.05	131.07
453.23	28.09
453.42	86.60
453.60	42.13
453.78	23.41
453.97	0.00
454.15	0.00
454.34	70.22
454.52	32.77
454.70	46.81
454.89	9.36
455.07	84.26
455.26	2.34
455.44	23.41
455.62	95.96
455.81	37.45
455.99	67.88
456.17	25.75
456.36	70.22
456.54	70.22
456.73	84.26
456.91	65.54
457.09	9.36
457.28	23.41
457.46	147.45
457.64	49.15
457.83	35.11
458.01	39.79
458.19	156.82
458.38	72.56
458.56	30.43
458.74	28.09
458.93	72.56
459.11	35.11
459.29	42.13
459.48	0.00
459.66	53.83
459.84	58.51
460.03	25.75
460.21	63.19
460.39	60.85
460.57	112.35
460.76	74.90
460.94	49.15
461.12	60.85
461.31	124.05
461.49	110.01
461.67	51.49
461.85	65.54
462.04	100.64
462.22	159.16
462.40	72.56
462.59	30.43
462.77	18.72
462.95	65.54
463.13	35.11
463.32	37.45
463.50	53.83
463.68	35.11
463.86	32.77
464.05	70.22
464.23	84.26
464.41	51.49
464.59	37.45
464.78	42.13
464.96	37.45
465.14	93.62
465.32	79.58
465.50	35.11
465.69	117.03
465.87	84.26
466.05	60.85
466.23	56.17
466.41	102.98
466.60	18.72
466.78	65.54
466.96	102.98
467.14	138.09
467.32	65.54
467.51	9.36
467.69	91.28
467.87	56.17
468.05	93.62
468.23	105.32
468.41	84.26
468.60	23.41
468.78	11.70
468.96	37.45
469.14	0.00
469.32	35.11
469.50	7.02
469.69	42.13
469.87	93.62
470.05	93.62
470.23	60.85
470.41	44.47
470.59	107.66
470.77	25.75
470.95	35.11
471.14	44.47
471.32	0.00
471.50	79.58
471.68	25.75
471.86	60.85
472.04	25.75
472.22	28.09
472.40	65.54
472.58	81.92
472.77	70.22
472.95	37.45
473.13	16.38
473.31	7.02
473.49	23.41
473.67	117.03
473.85	60.85
474.03	74.90
474.21	84.26
474.39	39.79
474.57	119.37
474.75	110.01
474.93	23.41
475.12	58.51
475.30	91.28
475.48	11.70
475.66	37.45
475.84	88.94
476.02	51.49
476.20	14.04
476.38	18.72
476.56	86.60
476.74	60.85
476.92	0.00
477.10	44.47
477.28	42.13
477.46	4.68
477.64	60.85
477.82	107.66
478.00	23.41
478.18	121.71
478.36	4.68
478.54	30.43
478.72	119.37
478.90	56.17
479.08	0.00
479.26	74.90
479.44	51.49
479.62	39.79
479.80	88.94
479.98	70.22
480.16	72.56
480.34	74.90
480.52	91.28
480.70	35.11
480.88	44.47
481.06	63.19
481.24	9.36
481.41	105.32
481.59	84.26
481.77	72.56
481.95	65.54
482.13	121.71
482.31	51.49
482.49	37.45
482.67	102.98
482.85	72.56
483.03	21.06
483.21	86.60
483.39	63.19
483.57	63.19
483.74	79.58
483.92	14.04
484.10	58.51
484.28	70.22
484.46	74.90
484.64	70.22
484.82	88.94
485.00	124.05
485.18	63.19
485.35	100.64
485.53	70.22
485.71	95.96
485.89	70.22
486.07	67.88
486.25	84.26
486.43	72.56
486.61	84.26
486.78	112.35
486.96	74.90
487.14	98.30
487.32	72.56
487.50	25.75
487.68	14.04
487.85	79.58
488.03	72.56
488.21	117.03
488.39	9.36
488.57	77.24
488.75	58.51
488.92	0.00
489.10	53.83
489.28	91.28
489.46	84.26
489.64	56.17
489.81	46.81
489.99	49.15
490.17	23.41
490.35	23.41
490.53	128.73
490.70	67.88
490.88	49.15
491.06	121.71
491.24	77.24
491.41	77.24
491.59	72.56
491.77	49.15
491.95	88.94
492.13	81.92
492.30	84.26
492.48	100.64
492.66	77.24
492.84	70.22
493.01	110.01
493.19	81.92
493.37	63.19
493.54	23.41
493.72	42.13
493.90	21.06
494.08	44.47
494.25	70.22
494.43	72.56
494.61	110.01
494.79	91.28
494.96	14.04
495.14	100.64
495.32	49.15
495.49	114.69
495.67	121.71
495.85	4.68
496.02	39.79
496.20	9.36
496.38	121.71
496.55	60.85
496.73	88.94
496.91	135.75
497.09	95.96
497.26	121.71
497.44	77.24
497.62	63.19
497.79	7.02
497.97	0.00
498.14	67.88
498.32	133.41
498.50	58.51
498.67	95.96
498.85	81.92
499.03	35.11
499.20	128.73
499.38	110.01
499.56	37.45
499.73	107.66
499.91	72.56
500.08	88.94
500.26	32.77
500.44	107.66
500.61	105.32
500.79	95.96
500.97	84.26
501.14	51.49
501.32	114.69
501.49	88.94
501.67	23.41
501.84	23.41
502.02	49.15
502.20	65.54
502.37	77.24
502.55	77.24
502.72	81.92
502.90	91.28
503.07	152.13
503.25	81.92
503.43	0.00
503.60	42.13
503.78	44.47
503.95	77.24
504.13	51.49
504.30	56.17
504.48	42.13
504.65	88.94
504.83	168.52
505.01	154.48
505.18	51.49
505.36	140.43
505.53	79.58
505.71	53.83
505.88	53.83
506.06	119.37
506.23	107.66
506.41	88.94
506.58	81.92
506.76	63.19
506.93	30.43
507.11	124.05
507.28	98.30
507.46	117.03
507.63	114.69
507.81	126.39
507.98	23.41
508.16	51.49
508.33	93.62
508.50	25.75
508.68	67.88
508.85	53.83
509.03	117.03
509.20	88.94
509.38	180.22
509.55	131.07
509.73	110.01
509.90	77.24
510.08	14.04
510.25	67.88
510.42	51.49
510.60	79.58
510.77	56.17
510.95	142.77
511.12	72.56
511.30	74.90
511.47	81.92
511.64	35.11
511.82	119.37
511.99	63.19
512.17	72.56
512.34	81.92
512.51	84.26
512.69	91.28
512.86	91.28
513.04	117.03
513.21	114.69
513.38	112.35
513.56	63.19
513.73	95.96
513.90	98.30
514.08	112.35
514.25	81.92
514.43	28.09
514.60	84.26
514.77	86.60
514.95	51.49
515.12	42.13
515.29	58.51
515.47	117.03
515.64	147.45
515.81	154.48
515.99	140.43
516.16	42.13
516.33	140.43
516.51	86.60
516.68	0.00
516.85	63.19
517.03	67.88
517.20	159.16
517.37	65.54
517.54	110.01
517.72	28.09
517.89	86.60
518.06	53.83
518.24	30.43
518.41	105.32
518.58	117.03
518.75	0.00
518.93	65.54
519.10	44.47
519.27	112.35
519.45	79.58
519.62	79.58
519.79	72.56
519.96	133.41
520.14	44.47
520.31	98.30
520.48	39.79
520.65	86.60
520.83	107.66
521.00	114.69
521.17	39.79
521.34	98.30
521.52	53.83
521.69	100.64
521.86	110.01
522.03	67.88
522.20	86.60
522.38	4.68
522.55	42.13
522.72	81.92
522.89	98.30
523.07	128.73
523.24	63.19
523.41	128.73
523.58	170.86
523.75	98.30
523.92	4.68
524.10	88.94
524.27	124.05
524.44	100.64
524.61	35.11
524.78	126.39
524.96	95.96
525.13	42.13
525.30	81.92
525.47	112.35
525.64	102.98
525.81	142.77
525.98	4.68
526.16	56.17
526.33	53.83
526.50	154.48
526.67	93.62
526.84	154.48
527.01	102.98
527.18	58.51
527.36	131.07
527.53	60.85
527.70	119.37
527.87	0.00
528.04	72.56
528.21	114.69
528.38	37.45
528.55	70.22
528.72	112.35
528.89	79.58
529.07	74.90
529.24	42.13
529.41	4.68
529.58	180.22
529.75	53.83
529.92	63.19
530.09	53.83
530.26	107.66
530.43	173.20
530.60	30.43
530.77	93.62
530.94	93.62
531.11	112.35
531.28	100.64
531.46	107.66
531.63	114.69
531.80	58.51
531.97	49.15
532.14	84.26
532.31	65.54
532.48	102.98
532.65	51.49
532.82	95.96
532.99	65.54
533.16	18.72
533.33	53.83
533.50	95.96
533.67	51.49
533.84	56.17
534.01	28.09
534.18	98.30
534.35	98.30
534.52	11.70
534.69	86.60
534.86	107.66
535.03	117.03
535.20	72.56
535.37	70.22
535.54	23.41
535.71	18.72
535.88	65.54
536.05	86.60
536.22	74.90
536.38	114.69
536.55	32.77
536.72	84.26
536.89	49.15
537.06	79.58
537.23	79.58
537.40	93.62
537.57	74.90
537.74	0.00
537.91	60.85
538.08	112.35
538.25	135.75
538.42	30.43
538.59	37.45
538.75	88.94
538.92	105.32
539.09	86.60
539.26	102.98
539.43	138.09
539.60	98.30
539.77	107.66
539.94	56.17
540.11	56.17
540.28	117.03
540.44	77.24
540.61	35.11
540.78	11.70
540.95	126.39
541.12	56.17
541.29	42.13
541.46	152.13
541.62	117.03
541.79	32.77
541.96	65.54
542.13	86.60
542.30	30.43
542.47	84.26
542.63	72.56
542.80	98.30
542.97	138.09
543.14	56.17
543.31	145.11
543.48	93.62
543.64	81.92
543.81	91.28
543.98	58.51
544.15	18.72
544.32	124.05
544.48	102.98
544.65	110.01
544.82	102.98
544.99	46.81
545.16	60.85
545.32	79.58
545.49	37.45
545.66	44.47
545.83	112.35
546.00	86.60
546.16	39.79
546.33	63.19
546.50	16.38
546.67	65.54
546.83	105.32
547.00	44.47
547.17	37.45
547.34	65.54
547.50	124.05
547.67	102.98
547.84	4.68
548.00	110.01
548.17	100.64
548.34	110.01
548.51	65.54
548.67	49.15
548.84	152.13
549.01	44.47
549.18	42.13
549.34	28.09
549.51	102.98
549.68	98.30
549.84	100.64
550.01	91.28
550.18	110.01
550.34	79.58
550.51	159.16
550.68	77.24
550.84	58.51
551.01	112.35
551.18	70.22
551.34	112.35
551.51	37.45
551.68	35.11
551.84	58.51
552.01	32.77
552.18	0.00
552.34	131.07
552.51	107.66
552.68	16.38
552.84	9.36
553.01	39.79
553.18	46.81
553.34	131.07
553.51	72.56
553.67	117.03
553.84	91.28
554.01	110.01
554.17	140.43
554.34	93.62
554.51	84.26
554.67	63.19
554.84	30.43
555.00	138.09
555.17	51.49
555.33	131.07
555.50	72.56
555.67	161.50
555.83	74.90
556.00	161.50
556.16	107.66
556.33	77.24
556.50	49.15
556.66	91.28
556.83	67.88
556.99	49.15
557.16	100.64
557.32	72.56
557.49	56.17
557.65	110.01
557.82	74.90
557.98	37.45
558.15	81.92
558.32	58.51
558.48	72.56
558.65	93.62
558.81	35.11
558.98	46.81
559.14	49.15
559.31	65.54
559.47	138.09
559.64	112.35
559.80	79.58
559.97	74.90
560.13	72.56
560.30	147.45
560.46	32.77
560.63	91.28
560.79	131.07
560.96	88.94
561.12	53.83
561.29	110.01
561.45	117.03
561.61	37.45
561.78	124.05
561.94	102.98
562.11	138.09
562.27	175.54
562.44	74.90
562.60	105.32
562.77	147.45
562.93	117.03
563.10	91.28
563.26	100.64
563.42	170.86
563.59	107.66
563.75	46.81
563.92	117.03
564.08	168.52
564.24	74.90
564.41	156.82
564.57	133.41
564.74	152.13
564.90	145.11
565.07	51.49
565.23	100.64
565.39	119.37
565.56	84.26
565.72	63.19
565.88	117.03
566.05	60.85
566.21	86.60
566.38	65.54
566.54	67.88
566.70	107.66
566.87	121.71
567.03	131.07
567.19	110.01
567.36	63.19
567.52	98.30
567.68	79.58
567.85	107.66
568.01	168.52
568.17	74.90
568.34	21.06
568.50	72.56
568.66	63.19
568.83	93.62
568.99	42.13
569.15	44.47
569.32	91.28
569.48	35.11
569.64	79.58
569.81	86.60
569.97	30.43
570.13	91.28
570.30	39.79
570.46	77.24
570.62	58.51
570.78	100.64
570.95	32.77
571.11	98.30
571.27	49.15
571.43	58.51
571.60	28.09
571.76	98.30
571.92	124.05
572.09	98.30
572.25	107.66
572.41	65.54
572.57	72.56
572.74	53.83
572.90	67.88
573.06	70.22
573.22	60.85
573.38	37.45
573.55	100.64
573.71	67.88
573.87	107.66
574.03	147.45
574.20	46.81
574.36	58.51
574.52	84.26
574.68	133.41
574.84	32.77
575.01	88.94
575.17	100.64
575.33	114.69
575.49	81.92
575.65	166.18
575.82	88.94
575.98	81.92
576.14	37.45
576.30	114.69
576.46	60.85
576.62	23.41
576.79	100.64
576.95	72.56
577.11	74.90
577.27	0.00
577.43	149.79
577.59	79.58
577.75	159.16
577.92	32.77
578.08	145.11
578.24	39.79
578.40	28.09
578.56	37.45
578.72	105.32
578.88	98.30
579.04	39.79
579.21	32.77
579.37	63.19
579.53	56.17
579.69	37.45
579.85	84.26
580.01	107.66
580.17	84.26
580.33	149.79
580.49	112.35
580.65	142.77
580.82	114.69
580.98	182.56
581.14	107.66
581.30	18.72
581.46	18.72
581.62	28.09
581.78	112.35
581.94	121.71
582.10	91.28
582.26	32.77
582.42	18.72
582.58	107.66
582.74	91.28
582.90	88.94
583.06	60.85
583.22	126.39
583.38	60.85
583.54	0.00
583.70	49.15
583.86	23.41
584.02	93.62
584.18	91.28
584.34	51.49
584.50	53.83
584.66	58.51
584.82	72.56
584.98	126.39
585.14	39.79
585.30	21.06
585.46	67.88
585.62	88.94
585.78	138.09
585.94	79.58
586.10	21.06
586.26	16.38
586.42	63.19
586.58	23.41
586.74	79.58
586.90	39.79
587.06	107.66
587.22	126.39
587.38	74.90
587.54	91.28
587.70	81.92
587.86	138.09
588.02	145.11
588.18	28.09
588.34	107.66
588.49	35.11
588.65	23.41
588.81	72.56
588.97	0.00
589.13	53.83
589.29	63.19
589.45	79.58
589.61	81.92
589.77	95.96
589.93	65.54
590.08	81.92
590.24	88.94
590.40	21.06
590.56	65.54
590.72	88.94
590.88	124.05
591.04	81.92
591.20	49.15
591.35	77.24
591.51	117.03
591.67	32.77
591.83	70.22
591.99	35.11
592.15	84.26
592.31	100.64
592.46	119.37
592.62	70.22
592.78	79.58
592.94	119.37
593.10	67.88
593.26	117.03
593.41	42.13
593.57	60.85
593.73	63.19
593.89	60.85
594.05	37.45
594.20	88.94
594.36	88.94
594.52	30.43
594.68	16.38
594.84	77.24
594.99	25.75
595.15	93.62
595.31	35.11
595.47	88.94
595.62	11.70
595.78	42.13
595.94	70.22
596.10	100.64
596.25	110.01
596.41	98.30
596.57	124.05
596.73	95.96
596.88	58.51
597.04	72.56
597.20	42.13
597.36	51.49
597.51	88.94
597.67	74.90
597.83	117.03
597.99	32.77
598.14	86.60
598.30	128.73
598.46	107.66
598.61	67.88
598.77	30.43
598.93	105.32
599.09	32.77
599.24	63.19
599.40	63.19
599.56	98.30
599.71	105.32
599.87	35.11
600.03	16.38
600.18	42.13
600.34	23.41
600.50	72.56
600.65	154.48
600.81	88.94
600.97	42.13
601.12	49.15
601.28	79.58
601.44	44.47
601.59	70.22
601.75	124.05
601.91	0.00
602.06	70.22
602.22	77.24
602.37	74.90
602.53	86.60
602.69	49.15
602.84	49.15
603.00	100.64
603.16	63.19
603.31	95.96
603.47	65.54
603.62	56.17
603.78	56.17
603.94	105.32
604.09	28.09
604.25	84.26
604.40	67.88
604.56	60.85
604.71	32.77
604.87	98.30
605.03	63.19
605.18	46.81
605.34	88.94
605.49	65.54
605.65	70.22
605.80	140.43
605.96	23.41
606.12	112.35
606.27	63.19
606.43	126.39
606.58	91.28
606.74	86.60
606.89	37.45
607.05	100.64
607.20	63.19
607.36	37.45
607.51	110.01
607.67	77.24
607.82	74.90
607.98	56.17
608.13	180.22
608.29	39.79
608.44	49.15
608.60	21.06
608.75	63.19
608.91	35.11
609.06	18.72
609.22	0.00
609.37	124.05
609.53	16.38
609.68	88.94
609.84	81.92
609.99	114.69
610.15	110.01
610.30	21.06
610.46	25.75
610.61	107.66
610.76	37.45
610.92	95.96
611.07	65.54
611.23	39.79
611.38	67.88
611.54	42.13
611.69	67.88
611.84	21.06
612.00	110.01
612.15	25.75
612.31	42.13
612.46	16.38
612.62	53.83
612.77	21.06
612.92	70.22
613.08	156.82
613.23	0.00
613.39	119.37
613.54	18.72
613.69	28.09
613.85	21.06
614.00	86.60
614.15	49.15
614.31	112.35
614.46	67.88
614.62	2.34
614.77	42.13
614.92	51.49
615.08	95.96
615.23	63.19
615.38	46.81
615.54	25.75
615.69	0.00
615.84	126.39
616.00	72.56
616.15	142.77
616.30	88.94
616.46	100.64
616.61	91.28
616.76	107.66
616.92	9.36
617.07	126.39
617.22	39.79
617.37	25.75
617.53	42.13
617.68	77.24
617.83	145.11
617.99	23.41
618.14	58.51
618.29	126.39
618.45	93.62
618.60	70.22
618.75	65.54
618.90	60.85
619.06	30.43
619.21	81.92
619.36	93.62
619.51	63.19
619.67	79.58
619.82	0.00
619.97	49.15
620.12	95.96
620.28	72.56
620.43	81.92
620.58	44.47
620.73	70.22
620.89	23.41
621.04	95.96
621.19	86.60
621.34	163.84
621.49	56.17
621.65	114.69
621.80	46.81
621.95	98.30
622.10	37.45
622.25	117.03
622.41	74.90
622.56	28.09
622.71	28.09
622.86	25.75
623.01	63.19
623.16	84.26
623.32	51.49
623.47	112.35
623.62	95.96
623.77	53.83
623.92	0.00
624.07	72.56
624.23	84.26
624.38	91.28
624.53	4.68
624.68	67.88
624.83	16.38
624.98	4.68
625.13	21.06
625.29	2.34
625.44	49.15
625.59	88.94
625.74	74.90
625.89	21.06
626.04	187.24
626.19	16.38
626.34	98.30
626.49	91.28
626.65	70.22
626.80	140.43
626.95	46.81
627.10	86.60
627.25	37.45
627.40	93.62
627.55	93.62
627.70	126.39
627.85	102.98
628.00	58.51
628.15	53.83
628.30	79.58
628.45	74.90
628.60	95.96
628.76	112.35
628.91	39.79
629.06	7.02
629.21	23.41
629.36	0.00
629.51	49.15
629.66	77.24
629.81	84.26
629.96	42.13
630.11	119.37
630.26	72.56
630.41	67.88
630.56	81.92
630.71	44.47
630.86	0.00
631.01	7.02
631.16	65.54
631.31	49.15
631.46	77.24
631.61	72.56
631.76	107.66
631.91	72.56
632.06	91.28
632.21	95.96
632.36	60.85
632.51	72.56
632.66	91.28
632.81	49.15
632.96	86.60
633.10	84.26
633.25	67.88
633.40	14.04
633.55	119.37
633.70	81.92
633.85	98.30
634.00	77.24
634.15	35.11
634.30	56.17
634.45	28.09
634.60	74.90
634.75	175.54
634.90	138.09
635.05	25.75
635.19	53.83
635.34	81.92
635.49	86.60
635.64	70.22
635.79	2.34
635.94	53.83
636.09	67.88
636.24	84.26
636.39	37.45
636.53	16.38
636.68	28.09
636.83	0.00
636.98	0.00
637.13	9.36
637.28	58.51
637.43	9.36
637.57	23.41
637.72	95.96
637.87	25.75
638.02	93.62
638.17	114.69
638.32	126.39
638.46	46.81
638.61	65.54
638.76	0.00
638.91	21.06
639.06	65.54
639.20	86.60
639.35	39.79
639.50	9.36
639.65	70.22
639.80	39.79
639.94	7.02
640.09	72.56
640.24	124.05
640.39	93.62
640.54	110.01
640.68	135.75
640.83	114.69
640.98	67.88
641.13	121.71
641.27	102.98
641.42	46.81
641.57	46.81
641.72	46.81
641.86	30.43
642.01	105.32
642.16	67.88
642.31	72.56
642.45	35.11
642.60	32.77
642.75	102.98
642.90	60.85
643.04	0.00
643.19	88.94
643.34	79.58
643.48	11.70
643.63	42.13
643.78	88.94
643.93	35.11
644.07	81.92
644.22	79.58
644.37	37.45
644.51	7.02
644.66	117.03
644.81	56.17
644.95	14.04
645.10	0.00
645.25	42.13
645.39	98.30
645.54	2.34
645.69	105.32
645.83	18.72
645.98	105.32
646.13	124.05
646.27	25.75
646.42	46.81
646.57	49.15
646.71	30.43
646.86	9.36
647.00	18.72
647.15	58.51
647.30	84.26
647.44	86.60
647.59	7.02
647.74	0.00
647.88	72.56
648.03	21.06
648.17	37.45
648.32	28.09
648.47	72.56
648.61	28.09
648.76	25.75
648.90	121.71
649.05	7.02
649.20	46.81
649.34	7.02
649.49	35.11
649.63	60.85
649.78	28.09
649.92	49.15
650.07	46.81
650.21	53.83
650.36	0.00
650.51	86.60
650.65	56.17
650.80	46.81
650.94	14.04
651.09	0.00
651.23	46.81
651.38	105.32
651.52	84.26
651.67	56.17
651.81	63.19
651.96	72.56
652.10	77.24
652.25	9.36
652.39	63.19
652.54	110.01
652.68	84.26
652.83	44.47
652.97	67.88
653.12	28.09
653.26	0.00
653.41	16.38
653.55	2.34
653.70	51.49
653.84	9.36
653.99	49.15
654.13	30.43
654.27	28.09
654.42	58.51
654.56	44.47
654.71	65.54
654.85	133.41
655.00	0.00
655.14	88.94
655.29	56.17
655.43	37.45
655.57	32.77
655.72	72.56
655.86	0.00
656.01	18.72
656.15	91.28
656.30	44.47
656.44	110.01
656.58	93.62
656.73	35.11
656.87	102.98
657.01	28.09
657.16	16.38
657.30	2.34
657.45	70.22
657.59	46.81
657.73	39.79
657.88	7.02
658.02	56.17
658.16	0.00
658.31	30.43
658.45	42.13
658.60	28.09
658.74	23.41
658.88	63.19
659.03	0.00
659.17	0.00
659.31	84.26
659.46	30.43
659.60	58.51
659.74	98.30
659.89	147.45
660.03	93.62
660.17	30.43
660.32	35.11
660.46	9.36
660.60	0.00
660.74	105.32
660.89	58.51
661.03	35.11
661.17	53.83
661.32	105.32
661.46	72.56
661.60	65.54
661.74	93.62
661.89	91.28
662.03	42.13
662.17	56.17
662.31	74.90
662.46	107.66
662.60	56.17
662.74	25.75
662.88	7.02
663.03	46.81
663.17	35.11
663.31	53.83
663.45	65.54
663.60	44.47
663.74	133.41
663.88	56.17
664.02	88.94
664.17	0.00
664.31	0.00
664.45	53.83
664.59	63.19
664.73	67.88
664.88	63.19
665.02	28.09
665.16	16.38
665.30	23.41
665.44	67.88
665.59	88.94
665.73	16.38
665.87	53.83
666.01	86.60
666.15	25.75
666.29	42.13
666.44	74.90
666.58	44.47
666.72	30.43
666.86	81.92
667.00	42.13
667.14	2.34
667.28	124.05
667.43	0.00
667.57	42.13
667.71	23.41
667.85	9.36
667.99	79.58
668.13	91.28
668.27	102.98
668.41	81.92
668.56	67.88
668.70	53.83
668.84	44.47
668.98	63.19
669.12	16.38
669.26	23.41
669.40	93.62
669.54	88.94
669.68	58.51
669.82	93.62
669.96	65.54
670.10	32.77
670.25	28.09
670.39	70.22
670.53	39.79
670.67	4.68
670.81	32.77
670.95	112.35
671.09	112.35
671.23	107.66
671.37	51.49
671.51	72.56
671.65	35.11
671.79	44.47
671.93	65.54
672.07	77.24
672.21	56.17
672.35	51.49
672.49	25.75
672.63	79.58
672.77	98.30
672.91	28.09
673.05	72.56
673.19	105.32
673.33	100.64
673.47	88.94
673.61	42.13
673.75	53.83
673.89	58.51
674.03	9.36
674.17	51.49
674.31	72.56
674.45	65.54
674.59	28.09
674.73	77.24
674.87	0.00
675.01	44.47
675.15	72.56
675.29	49.15
675.43	88.94
675.56	84.26
675.70	32.77
675.84	35.11
675.98	21.06
676.12	39.79
676.26	14.04
676.40	14.04
676.54	49.15
676.68	46.81
676.82	124.05
676.96	58.51
677.10	91.28
677.23	44.47
677.37	77.24
677.51	9.36
677.65	84.26
677.79	44.47
677.93	0.00
678.07	0.00
678.21	70.22
678.34	0.00
678.48	11.70
678.62	65.54
678.76	0.00
678.90	4.68
679.04	70.22
679.18	42.13
679.31	60.85
679.45	51.49
679.59	28.09
679.73	84.26
679.87	72.56
680.00	72.56
680.14	0.00
680.28	49.15
680.42	23.41
680.56	58.51
680.70	49.15
680.83	44.47
680.97	84.26
681.11	18.72
681.25	14.04
681.39	23.41
681.52	25.75
681.66	23.41
681.80	88.94
681.94	32.77
682.07	117.03
682.21	35.11
682.35	0.00
682.49	39.79
682.62	72.56
682.76	16.38
682.90	86.60
683.04	37.45
683.17	77.24
683.31	9.36
683.45	138.09
683.59	58.51
683.72	86.60
683.86	23.41
684.00	70.22
684.13	51.49
684.27	63.19
684.41	0.00
684.55	0.00
684.68	39.79
684.82	11.70
684.96	0.00
685.09	16.38
685.23	0.00
685.37	95.96
685.50	58.51
685.64	35.11
685.78	58.51
685.91	79.58
686.05	30.43
686.19	0.00
686.32	37.45
686.46	77.24
686.60	35.11
686.73	67.88
686.87	37.45
687.01	21.06
687.14	32.77
687.28	60.85
687.42	53.83
687.55	63.19
687.69	21.06
687.82	0.00
687.96	77.24
688.10	32.77
688.23	65.54
688.37	74.90
688.50	58.51
688.64	60.85
688.78	119.37
688.91	28.09
689.05	18.72
689.18	56.17
689.32	84.26
689.46	25.75
689.59	42.13
689.73	16.38
689.86	11.70
690.00	18.72
690.13	0.00
690.27	0.00
690.41	2.34
690.54	56.17
690.68	28.09
690.81	44.47
690.95	93.62
691.08	0.00
691.22	56.17
691.35	16.38
691.49	0.00
691.62	46.81
691.76	72.56
691.89	60.85
692.03	42.13
692.16	81.92
692.30	0.00
692.43	46.81
692.57	32.77
692.70	105.32
692.84	14.04
692.97	37.45
693.11	44.47
693.24	35.11
693.38	42.13
693.51	128.73
693.65	28.09
693.78	23.41
693.92	11.70
694.05	0.00
694.19	86.60
694.32	35.11
694.45	7.02
694.59	147.45
694.72	110.01
694.86	0.00
694.99	42.13
695.13	32.77
695.26	51.49
695.39	51.49
695.53	0.00
695.66	88.94
695.80	70.22
695.93	0.00
696.07	16.38
696.20	11.70
696.33	93.62
696.47	74.90
696.60	42.13
696.73	0.00
696.87	56.17
697.00	60.85
697.14	53.83
697.27	39.79
697.40	72.56
697.54	2.34
697.67	74.90
697.80	65.54
697.94	0.00
698.07	32.77
698.21	0.00
698.34	91.28
698.47	0.00
698.61	21.06
698.74	70.22
698.87	98.30
699.01	18.72
699.14	142.77
699.27	112.35
699.40	37.45
699.54	0.00
699.67	74.90
699.80	42.13
699.94	58.51
700.07	84.26
700.20	46.81
700.34	114.69
700.47	60.85
700.60	11.70
700.73	67.88
700.87	79.58
701.00	42.13
701.13	39.79
701.26	84.26
701.40	9.36
701.53	49.15
701.66	91.28
701.79	2.34
701.93	16.38
702.06	23.41
702.19	28.09
702.32	0.00
702.46	35.11
702.59	0.00
702.72	4.68
702.85	84.26
702.99	37.45
703.12	77.24
703.25	2.34
703.38	53.83
703.51	25.75
703.65	4.68
703.78	0.00
703.91	37.45
704.04	53.83
704.17	46.81
704.31	65.54
704.44	25.75
704.57	86.60
704.70	11.70
704.83	39.79
704.96	100.64
705.10	35.11
705.23	42.13
>>>>>End Processed Spectral Data<<<<<
