SpectraSuite Data File
++++++++++++++++++++++++++++++++++++
Date: Fri Oct 04 12:13:31 GMT-05:00 2013
User: price-jones
Dark Spectrum Present: No
Reference Spectrum Present: No
Number of Sampled Component Spectra: 1
Spectrometers: USB2+H05261
Integration Time (usec): 10000 (USB2+H05261)
Spectra Averaged: 1 (USB2+H05261)
Boxcar Smoothing: 0 (USB2+H05261)
Correct for Electrical Dark: No (USB2+H05261)
Strobe/Lamp Enabled: No (USB2+H05261)
Correct for Detector Non-linearity: No (USB2+H05261)
Correct for Stray Light: No (USB2+H05261)
Number of Pixels in Processed Spectrum: 2048
>>>>>Begin Processed Spectral Data<<<<<
365.73	30.43
365.92	30.43
366.12	30.43
366.32	0.00
366.52	0.00
366.72	0.00
366.91	0.00
367.11	0.00
367.31	0.00
367.51	0.00
367.70	0.00
367.90	0.00
368.10	0.00
368.30	0.00
368.49	0.00
368.69	0.00
368.89	0.00
369.09	0.00
369.28	0.00
369.48	0.00
369.68	0.00
369.87	0.00
370.07	0.00
370.27	0.00
370.47	0.00
370.66	0.00
370.86	0.00
371.06	0.00
371.25	0.00
371.45	0.00
371.65	0.00
371.84	0.00
372.04	0.00
372.24	102.98
372.44	23.41
372.63	25.75
372.83	30.43
373.03	107.66
373.22	39.79
373.42	9.36
373.62	86.60
373.81	42.13
374.01	58.51
374.21	39.79
374.40	23.41
374.60	9.36
374.79	21.06
374.99	23.41
375.19	0.00
375.38	2.34
375.58	16.38
375.78	77.24
375.97	0.00
376.17	93.62
376.37	46.81
376.56	0.00
376.76	42.13
376.95	25.75
377.15	25.75
377.35	18.72
377.54	30.43
377.74	0.00
377.93	0.00
378.13	0.00
378.33	0.00
378.52	79.58
378.72	53.83
378.91	11.70
379.11	9.36
379.31	0.00
379.50	0.00
379.70	28.09
379.89	51.49
380.09	0.00
380.28	30.43
380.48	4.68
380.68	39.79
380.87	23.41
381.07	30.43
381.26	0.00
381.46	0.00
381.65	21.06
381.85	37.45
382.04	0.00
382.24	0.00
382.43	0.00
382.63	4.68
382.83	0.00
383.02	49.15
383.22	0.00
383.41	37.45
383.61	86.60
383.80	60.85
384.00	28.09
384.19	65.54
384.39	16.38
384.58	56.17
384.78	0.00
384.97	32.77
385.17	0.00
385.36	0.00
385.56	21.06
385.75	11.70
385.95	44.47
386.14	28.09
386.34	49.15
386.53	0.00
386.72	0.00
386.92	0.00
387.11	25.75
387.31	0.00
387.50	35.11
387.70	23.41
387.89	28.09
388.09	32.77
388.28	72.56
388.48	30.43
388.67	0.00
388.86	0.00
389.06	21.06
389.25	28.09
389.45	11.70
389.64	2.34
389.84	23.41
390.03	9.36
390.22	0.00
390.42	14.04
390.61	65.54
390.81	0.00
391.00	18.72
391.19	81.92
391.39	56.17
391.58	7.02
391.78	0.00
391.97	0.00
392.16	51.49
392.36	0.00
392.55	28.09
392.75	11.70
392.94	53.83
393.13	49.15
393.33	56.17
393.52	112.35
393.71	42.13
393.91	0.00
394.10	21.06
394.29	16.38
394.49	9.36
394.68	4.68
394.88	81.92
395.07	56.17
395.26	46.81
395.46	58.51
395.65	14.04
395.84	30.43
396.04	0.00
396.23	25.75
396.42	56.17
396.62	46.81
396.81	0.00
397.00	2.34
397.19	42.13
397.39	37.45
397.58	0.00
397.77	28.09
397.97	32.77
398.16	16.38
398.35	0.00
398.55	112.35
398.74	0.00
398.93	91.28
399.12	18.72
399.32	74.90
399.51	0.00
399.70	16.38
399.90	0.00
400.09	0.00
400.28	35.11
400.47	51.49
400.67	9.36
400.86	4.68
401.05	60.85
401.24	7.02
401.44	21.06
401.63	98.30
401.82	2.34
402.01	63.19
402.21	65.54
402.40	25.75
402.59	7.02
402.78	28.09
402.97	67.88
403.17	60.85
403.36	39.79
403.55	67.88
403.74	67.88
403.93	79.58
404.13	14.04
404.32	0.00
404.51	39.79
404.70	25.75
404.89	18.72
405.09	67.88
405.28	49.15
405.47	42.13
405.66	39.79
405.85	18.72
406.05	0.00
406.24	11.70
406.43	25.75
406.62	60.85
406.81	65.54
407.00	23.41
407.20	21.06
407.39	28.09
407.58	0.00
407.77	0.00
407.96	23.41
408.15	0.00
408.34	32.77
408.54	35.11
408.73	63.19
408.92	58.51
409.11	0.00
409.30	0.00
409.49	2.34
409.68	25.75
409.87	7.02
410.07	16.38
410.26	53.83
410.45	11.70
410.64	0.00
410.83	21.06
411.02	86.60
411.21	25.75
411.40	56.17
411.59	53.83
411.78	37.45
411.98	51.49
412.17	9.36
412.36	0.00
412.55	100.64
412.74	51.49
412.93	16.38
413.12	46.81
413.31	46.81
413.50	84.26
413.69	11.70
413.88	30.43
414.07	21.06
414.26	0.00
414.45	60.85
414.64	18.72
414.83	35.11
415.02	65.54
415.22	11.70
415.41	11.70
415.60	70.22
415.79	23.41
415.98	0.00
416.17	56.17
416.36	0.00
416.55	51.49
416.74	39.79
416.93	72.56
417.12	9.36
417.31	0.00
417.50	39.79
417.69	16.38
417.88	39.79
418.07	58.51
418.26	21.06
418.45	98.30
418.64	65.54
418.83	35.11
419.02	53.83
419.21	32.77
419.39	63.19
419.58	25.75
419.77	16.38
419.96	74.90
420.15	18.72
420.34	84.26
420.53	11.70
420.72	25.75
420.91	32.77
421.10	0.00
421.29	46.81
421.48	0.00
421.67	7.02
421.86	28.09
422.05	53.83
422.24	60.85
422.43	18.72
422.61	0.00
422.80	44.47
422.99	0.00
423.18	25.75
423.37	25.75
423.56	58.51
423.75	56.17
423.94	42.13
424.13	107.66
424.32	0.00
424.50	21.06
424.69	0.00
424.88	0.00
425.07	0.00
425.26	14.04
425.45	77.24
425.64	37.45
425.83	18.72
426.01	53.83
426.20	14.04
426.39	16.38
426.58	0.00
426.77	25.75
426.96	51.49
427.15	93.62
427.33	0.00
427.52	60.85
427.71	9.36
427.90	72.56
428.09	7.02
428.28	91.28
428.46	51.49
428.65	0.00
428.84	0.00
429.03	98.30
429.22	58.51
429.40	30.43
429.59	37.45
429.78	53.83
429.97	0.00
430.16	0.00
430.34	0.00
430.53	14.04
430.72	11.70
430.91	44.47
431.10	42.13
431.28	42.13
431.47	30.43
431.66	56.17
431.85	4.68
432.03	0.00
432.22	93.62
432.41	0.00
432.60	35.11
432.79	37.45
432.97	114.69
433.16	100.64
433.35	0.00
433.54	0.00
433.72	58.51
433.91	107.66
434.10	18.72
434.28	9.36
434.47	0.00
434.66	16.38
434.85	30.43
435.03	63.19
435.22	37.45
435.41	2.34
435.59	0.00
435.78	77.24
435.97	32.77
436.16	7.02
436.34	49.15
436.53	0.00
436.72	28.09
436.90	25.75
437.09	51.49
437.28	0.00
437.46	25.75
437.65	30.43
437.84	25.75
438.02	39.79
438.21	63.19
438.40	7.02
438.58	0.00
438.77	105.32
438.96	39.79
439.14	18.72
439.33	56.17
439.52	11.70
439.70	16.38
439.89	11.70
440.08	42.13
440.26	79.58
440.45	42.13
440.63	74.90
440.82	32.77
441.01	23.41
441.19	65.54
441.38	0.00
441.57	49.15
441.75	35.11
441.94	105.32
442.12	98.30
442.31	44.47
442.50	30.43
442.68	23.41
442.87	23.41
443.05	49.15
443.24	21.06
443.43	44.47
443.61	42.13
443.80	39.79
443.98	70.22
444.17	88.94
444.35	11.70
444.54	35.11
444.73	30.43
444.91	30.43
445.10	56.17
445.28	65.54
445.47	44.47
445.65	86.60
445.84	49.15
446.02	11.70
446.21	25.75
446.39	25.75
446.58	14.04
446.77	16.38
446.95	35.11
447.14	25.75
447.32	23.41
447.51	30.43
447.69	42.13
447.88	49.15
448.06	60.85
448.25	56.17
448.43	79.58
448.62	63.19
448.80	58.51
448.99	4.68
449.17	30.43
449.36	39.79
449.54	44.47
449.73	11.70
449.91	37.45
450.10	23.41
450.28	23.41
450.46	51.49
450.65	35.11
450.83	65.54
451.02	4.68
451.20	112.35
451.39	102.98
451.57	0.00
451.76	11.70
451.94	0.00
452.13	0.00
452.31	18.72
452.49	37.45
452.68	23.41
452.86	63.19
453.05	7.02
453.23	42.13
453.42	0.00
453.60	67.88
453.78	42.13
453.97	39.79
454.15	67.88
454.34	74.90
454.52	63.19
454.70	23.41
454.89	0.00
455.07	39.79
455.26	0.00
455.44	112.35
455.62	32.77
455.81	0.00
455.99	0.00
456.17	42.13
456.36	53.83
456.54	32.77
456.73	63.19
456.91	0.00
457.09	105.32
457.28	16.38
457.46	46.81
457.64	25.75
457.83	39.79
458.01	79.58
458.19	56.17
458.38	28.09
458.56	63.19
458.74	39.79
458.93	72.56
459.11	44.47
459.29	35.11
459.48	0.00
459.66	18.72
459.84	77.24
460.03	105.32
460.21	49.15
460.39	0.00
460.57	0.00
460.76	65.54
460.94	0.00
461.12	2.34
461.31	58.51
461.49	32.77
461.67	46.81
461.85	0.00
462.04	35.11
462.22	152.13
462.40	49.15
462.59	0.00
462.77	56.17
462.95	100.64
463.13	0.00
463.32	58.51
463.50	16.38
463.68	0.00
463.86	60.85
464.05	60.85
464.23	25.75
464.41	9.36
464.59	23.41
464.78	4.68
464.96	0.00
465.14	32.77
465.32	14.04
465.50	46.81
465.69	70.22
465.87	2.34
466.05	49.15
466.23	16.38
466.41	21.06
466.60	0.00
466.78	0.00
466.96	86.60
467.14	72.56
467.32	11.70
467.51	30.43
467.69	0.00
467.87	49.15
468.05	32.77
468.23	0.00
468.41	11.70
468.60	74.90
468.78	51.49
468.96	7.02
469.14	53.83
469.32	51.49
469.50	7.02
469.69	0.00
469.87	0.00
470.05	42.13
470.23	0.00
470.41	11.70
470.59	0.00
470.77	51.49
470.95	11.70
471.14	21.06
471.32	42.13
471.50	4.68
471.68	23.41
471.86	46.81
472.04	30.43
472.22	23.41
472.40	35.11
472.58	0.00
472.77	0.00
472.95	63.19
473.13	0.00
473.31	4.68
473.49	39.79
473.67	63.19
473.85	110.01
474.03	58.51
474.21	37.45
474.39	35.11
474.57	60.85
474.75	30.43
474.93	126.39
475.12	74.90
475.30	46.81
475.48	53.83
475.66	18.72
475.84	84.26
476.02	70.22
476.20	0.00
476.38	11.70
476.56	44.47
476.74	58.51
476.92	42.13
477.10	4.68
477.28	37.45
477.46	81.92
477.64	131.07
477.82	39.79
478.00	28.09
478.18	28.09
478.36	39.79
478.54	42.13
478.72	77.24
478.90	39.79
479.08	35.11
479.26	2.34
479.44	0.00
479.62	23.41
479.80	58.51
479.98	0.00
480.16	16.38
480.34	49.15
480.52	0.00
480.70	49.15
480.88	74.90
481.06	9.36
481.24	121.71
481.41	56.17
481.59	70.22
481.77	65.54
481.95	77.24
482.13	91.28
482.31	124.05
482.49	84.26
482.67	107.66
482.85	63.19
483.03	28.09
483.21	56.17
483.39	51.49
483.57	65.54
483.74	14.04
483.92	35.11
484.10	37.45
484.28	0.00
484.46	107.66
484.64	32.77
484.82	30.43
485.00	32.77
485.18	49.15
485.35	0.00
485.53	56.17
485.71	39.79
485.89	16.38
486.07	72.56
486.25	0.00
486.43	77.24
486.61	32.77
486.78	60.85
486.96	63.19
487.14	14.04
487.32	72.56
487.50	35.11
487.68	21.06
487.85	32.77
488.03	32.77
488.21	21.06
488.39	39.79
488.57	56.17
488.75	79.58
488.92	117.03
489.10	42.13
489.28	49.15
489.46	14.04
489.64	63.19
489.81	30.43
489.99	11.70
490.17	91.28
490.35	30.43
490.53	46.81
490.70	0.00
490.88	0.00
491.06	63.19
491.24	44.47
491.41	18.72
491.59	56.17
491.77	7.02
491.95	44.47
492.13	4.68
492.30	0.00
492.48	37.45
492.66	102.98
492.84	16.38
493.01	49.15
493.19	60.85
493.37	37.45
493.54	35.11
493.72	9.36
493.90	32.77
494.08	35.11
494.25	0.00
494.43	30.43
494.61	25.75
494.79	0.00
494.96	11.70
495.14	35.11
495.32	102.98
495.49	88.94
495.67	65.54
495.85	25.75
496.02	79.58
496.20	7.02
496.38	0.00
496.55	81.92
496.73	46.81
496.91	0.00
497.09	51.49
497.26	0.00
497.44	56.17
497.62	11.70
497.79	46.81
497.97	42.13
498.14	14.04
498.32	11.70
498.50	30.43
498.67	86.60
498.85	0.00
499.03	84.26
499.20	46.81
499.38	79.58
499.56	58.51
499.73	23.41
499.91	74.90
500.08	4.68
500.26	53.83
500.44	49.15
500.61	112.35
500.79	32.77
500.97	81.92
501.14	14.04
501.32	37.45
501.49	30.43
501.67	25.75
501.84	44.47
502.02	30.43
502.20	0.00
502.37	65.54
502.55	28.09
502.72	91.28
502.90	4.68
503.07	37.45
503.25	88.94
503.43	84.26
503.60	72.56
503.78	30.43
503.95	117.03
504.13	74.90
504.30	86.60
504.48	7.02
504.65	72.56
504.83	2.34
505.01	44.47
505.18	112.35
505.36	0.00
505.53	51.49
505.71	9.36
505.88	0.00
506.06	77.24
506.23	25.75
506.41	23.41
506.58	77.24
506.76	58.51
506.93	0.00
507.11	9.36
507.28	46.81
507.46	21.06
507.63	70.22
507.81	37.45
507.98	30.43
508.16	46.81
508.33	86.60
508.50	72.56
508.68	91.28
508.85	51.49
509.03	0.00
509.20	37.45
509.38	0.00
509.55	2.34
509.73	63.19
509.90	28.09
510.08	35.11
510.25	74.90
510.42	58.51
510.60	30.43
510.77	0.00
510.95	39.79
511.12	49.15
511.30	30.43
511.47	46.81
511.64	110.01
511.82	53.83
511.99	88.94
512.17	0.00
512.34	0.00
512.51	86.60
512.69	91.28
512.86	28.09
513.04	0.00
513.21	81.92
513.38	32.77
513.56	49.15
513.73	0.00
513.90	32.77
514.08	14.04
514.25	18.72
514.43	100.64
514.60	18.72
514.77	0.00
514.95	32.77
515.12	112.35
515.29	77.24
515.47	95.96
515.64	74.90
515.81	0.00
515.99	25.75
516.16	53.83
516.33	65.54
516.51	74.90
516.68	42.13
516.85	16.38
517.03	30.43
517.20	0.00
517.37	28.09
517.54	32.77
517.72	23.41
517.89	79.58
518.06	18.72
518.24	0.00
518.41	60.85
518.58	23.41
518.75	16.38
518.93	37.45
519.10	0.00
519.27	70.22
519.45	0.00
519.62	0.00
519.79	9.36
519.96	0.00
520.14	44.47
520.31	18.72
520.48	44.47
520.65	14.04
520.83	114.69
521.00	4.68
521.17	58.51
521.34	56.17
521.52	51.49
521.69	72.56
521.86	74.90
522.03	25.75
522.20	81.92
522.38	51.49
522.55	60.85
522.72	100.64
522.89	79.58
523.07	0.00
523.24	72.56
523.41	154.48
523.58	28.09
523.75	28.09
523.92	0.00
524.10	70.22
524.27	72.56
524.44	93.62
524.61	0.00
524.78	7.02
524.96	58.51
525.13	0.00
525.30	135.75
525.47	32.77
525.64	72.56
525.81	0.00
525.98	25.75
526.16	7.02
526.33	51.49
526.50	95.96
526.67	88.94
526.84	86.60
527.01	58.51
527.18	77.24
527.36	46.81
527.53	46.81
527.70	44.47
527.87	63.19
528.04	100.64
528.21	30.43
528.38	84.26
528.55	2.34
528.72	44.47
528.89	37.45
529.07	56.17
529.24	39.79
529.41	21.06
529.58	23.41
529.75	67.88
529.92	0.00
530.09	0.00
530.26	37.45
530.43	65.54
530.60	30.43
530.77	81.92
530.94	0.00
531.11	16.38
531.28	11.70
531.46	0.00
531.63	35.11
531.80	16.38
531.97	0.00
532.14	0.00
532.31	72.56
532.48	23.41
532.65	35.11
532.82	91.28
532.99	65.54
533.16	4.68
533.33	65.54
533.50	25.75
533.67	67.88
533.84	4.68
534.01	56.17
534.18	7.02
534.35	39.79
534.52	95.96
534.69	79.58
534.86	25.75
535.03	77.24
535.20	30.43
535.37	0.00
535.54	25.75
535.71	131.07
535.88	74.90
536.05	42.13
536.22	9.36
536.38	91.28
536.55	56.17
536.72	0.00
536.89	4.68
537.06	30.43
537.23	30.43
537.40	16.38
537.57	65.54
537.74	25.75
537.91	93.62
538.08	39.79
538.25	25.75
538.42	65.54
538.59	16.38
538.75	77.24
538.92	84.26
539.09	60.85
539.26	74.90
539.43	2.34
539.60	131.07
539.77	285.55
539.94	257.46
540.11	187.24
540.28	63.19
540.44	79.58
540.61	23.41
540.78	9.36
540.95	28.09
541.12	14.04
541.29	49.15
541.46	0.00
541.62	51.49
541.79	124.05
541.96	117.03
542.13	84.26
542.30	18.72
542.47	77.24
542.63	74.90
542.80	67.88
542.97	28.09
543.14	42.13
543.31	11.70
543.48	102.98
543.64	0.00
543.81	67.88
543.98	14.04
544.15	35.11
544.32	84.26
544.48	67.88
544.65	0.00
544.82	58.51
544.99	0.00
545.16	37.45
545.32	35.11
545.49	56.17
545.66	67.88
545.83	44.47
546.00	0.00
546.16	28.09
546.33	53.83
546.50	37.45
546.67	49.15
546.83	0.00
547.00	100.64
547.17	23.41
547.34	72.56
547.50	30.43
547.67	0.00
547.84	0.00
548.00	21.06
548.17	4.68
548.34	67.88
548.51	58.51
548.67	110.01
548.84	25.75
549.01	56.17
549.18	23.41
549.34	58.51
549.51	46.81
549.68	51.49
549.84	86.60
550.01	44.47
550.18	35.11
550.34	4.68
550.51	49.15
550.68	79.58
550.84	60.85
551.01	42.13
551.18	46.81
551.34	37.45
551.51	58.51
551.68	93.62
551.84	23.41
552.01	18.72
552.18	16.38
552.34	110.01
552.51	2.34
552.68	0.00
552.84	28.09
553.01	67.88
553.18	140.43
553.34	39.79
553.51	9.36
553.67	93.62
553.84	37.45
554.01	11.70
554.17	39.79
554.34	102.98
554.51	53.83
554.67	67.88
554.84	51.49
555.00	74.90
555.17	88.94
555.33	25.75
555.50	49.15
555.67	39.79
555.83	98.30
556.00	65.54
556.16	35.11
556.33	77.24
556.50	88.94
556.66	23.41
556.83	131.07
556.99	44.47
557.16	30.43
557.32	93.62
557.49	14.04
557.65	30.43
557.82	0.00
557.98	0.00
558.15	11.70
558.32	77.24
558.48	46.81
558.65	49.15
558.81	70.22
558.98	0.00
559.14	86.60
559.31	91.28
559.47	39.79
559.64	58.51
559.80	56.17
559.97	140.43
560.13	0.00
560.30	51.49
560.46	2.34
560.63	39.79
560.79	0.00
560.96	44.47
561.12	0.00
561.29	42.13
561.45	35.11
561.61	11.70
561.78	0.00
561.94	56.17
562.11	93.62
562.27	110.01
562.44	42.13
562.60	79.58
562.77	35.11
562.93	49.15
563.10	16.38
563.26	56.17
563.42	28.09
563.59	0.00
563.75	0.00
563.92	23.41
564.08	84.26
564.24	30.43
564.41	9.36
564.57	49.15
564.74	37.45
564.90	63.19
565.07	42.13
565.23	25.75
565.39	37.45
565.56	86.60
565.72	46.81
565.88	39.79
566.05	58.51
566.21	23.41
566.38	112.35
566.54	16.38
566.70	58.51
566.87	74.90
567.03	14.04
567.19	53.83
567.36	110.01
567.52	72.56
567.68	18.72
567.85	32.77
568.01	7.02
568.17	65.54
568.34	14.04
568.50	105.32
568.66	0.00
568.83	32.77
568.99	42.13
569.15	86.60
569.32	102.98
569.48	21.06
569.64	2.34
569.81	70.22
569.97	28.09
570.13	102.98
570.30	16.38
570.46	14.04
570.62	42.13
570.78	88.94
570.95	60.85
571.11	110.01
571.27	56.17
571.43	88.94
571.60	28.09
571.76	63.19
571.92	102.98
572.09	79.58
572.25	0.00
572.41	49.15
572.57	4.68
572.74	2.34
572.90	16.38
573.06	11.70
573.22	0.00
573.38	42.13
573.55	0.00
573.71	46.81
573.87	112.35
574.03	39.79
574.20	0.00
574.36	44.47
574.52	7.02
574.68	14.04
574.84	58.51
575.01	72.56
575.17	0.00
575.33	32.77
575.49	42.13
575.65	100.64
575.82	77.24
575.98	98.30
576.14	100.64
576.30	124.05
576.46	88.94
576.62	119.37
576.79	86.60
576.95	18.72
577.11	2.34
577.27	128.73
577.43	105.32
577.59	0.00
577.75	100.64
577.92	49.15
578.08	53.83
578.24	124.05
578.40	53.83
578.56	81.92
578.72	23.41
578.88	56.17
579.04	46.81
579.21	0.00
579.37	112.35
579.53	72.56
579.69	37.45
579.85	81.92
580.01	63.19
580.17	135.75
580.33	0.00
580.49	46.81
580.65	18.72
580.82	70.22
580.98	32.77
581.14	91.28
581.30	124.05
581.46	81.92
581.62	28.09
581.78	131.07
581.94	58.51
582.10	91.28
582.26	51.49
582.42	110.01
582.58	25.75
582.74	102.98
582.90	138.09
583.06	65.54
583.22	53.83
583.38	0.00
583.54	138.09
583.70	159.16
583.86	135.75
584.02	152.13
584.18	166.18
584.34	198.95
584.50	528.96
584.66	3466.33
584.82	9151.49
584.98	13696.82
585.14	12248.02
585.30	7602.06
585.46	4397.87
585.62	2731.41
585.78	1301.34
585.94	521.94
586.10	280.86
586.26	131.07
586.42	91.28
586.58	147.45
586.74	102.98
586.90	86.60
587.06	117.03
587.22	88.94
587.38	58.51
587.54	147.45
587.70	543.00
587.86	898.77
588.02	1015.79
588.18	784.08
588.34	444.70
588.49	294.91
588.65	198.95
588.81	63.19
588.97	56.17
589.13	30.43
589.29	107.66
589.45	63.19
589.61	44.47
589.77	30.43
589.93	84.26
590.08	138.09
590.24	91.28
590.40	72.56
590.56	107.66
590.72	67.88
590.88	58.51
591.04	0.00
591.20	63.19
591.35	119.37
591.51	0.00
591.67	21.06
591.83	88.94
591.99	25.75
592.15	67.88
592.31	46.81
592.46	28.09
592.62	67.88
592.78	28.09
592.94	32.77
593.10	67.88
593.26	46.81
593.41	16.38
593.57	81.92
593.73	56.17
593.89	547.69
594.05	1083.67
594.20	1703.91
594.36	1612.63
594.52	1090.69
594.68	671.73
594.84	444.70
594.99	234.05
595.15	128.73
595.31	117.03
595.47	86.60
595.62	0.00
595.78	0.00
595.94	114.69
596.10	49.15
596.25	84.26
596.41	46.81
596.57	86.60
596.73	70.22
596.88	131.07
597.04	231.71
597.20	325.33
597.36	500.87
597.51	358.10
597.67	196.60
597.83	168.52
597.99	70.22
598.14	11.70
598.30	28.09
598.46	145.11
598.61	0.00
598.77	42.13
598.93	121.71
599.09	79.58
599.24	98.30
599.40	126.39
599.56	107.66
599.71	2.34
599.87	0.00
600.03	100.64
600.18	63.19
600.34	18.72
600.50	14.04
600.65	42.13
600.81	56.17
600.97	86.60
601.12	4.68
601.28	7.02
601.44	0.00
601.59	0.00
601.75	4.68
601.91	60.85
602.06	77.24
602.22	49.15
602.37	128.73
602.53	259.80
602.69	435.34
602.84	477.47
603.00	287.89
603.16	231.71
603.31	142.77
603.47	170.86
603.62	93.62
603.78	107.66
603.94	35.11
604.09	102.98
604.25	77.24
604.40	21.06
604.56	56.17
604.71	56.17
604.87	100.64
605.03	77.24
605.18	35.11
605.34	23.41
605.49	49.15
605.65	37.45
605.80	35.11
605.96	60.85
606.12	117.03
606.27	84.26
606.43	65.54
606.58	30.43
606.74	112.35
606.89	624.92
607.05	1076.65
607.20	1486.24
607.36	1153.88
607.51	866.00
607.67	596.84
607.82	313.63
607.98	217.67
608.13	222.35
608.29	124.05
608.44	86.60
608.60	86.60
608.75	98.30
608.91	276.18
609.06	844.93
609.22	1762.42
609.37	2567.57
609.53	2165.00
609.68	1516.67
609.84	966.64
609.99	613.22
610.15	353.42
610.30	175.54
610.46	72.56
610.61	65.54
610.76	30.43
610.92	21.06
611.07	0.00
611.23	53.83
611.38	72.56
611.54	72.56
611.69	72.56
611.84	49.15
612.00	86.60
612.15	86.60
612.31	72.56
612.46	88.94
612.62	77.24
612.77	117.03
612.92	37.45
613.08	117.03
613.23	128.73
613.39	163.84
613.54	142.77
613.69	826.21
613.85	2246.91
614.00	3485.06
614.15	4018.70
614.31	2920.99
614.46	1788.17
614.62	1151.54
614.77	777.06
614.92	299.59
615.08	133.41
615.23	79.58
615.38	105.32
615.54	63.19
615.69	147.45
615.84	465.77
616.00	837.91
616.15	1081.33
616.30	788.76
616.46	561.73
616.61	379.17
616.76	327.68
616.92	154.48
617.07	149.79
617.22	74.90
617.37	37.45
617.53	53.83
617.68	28.09
617.83	32.77
617.99	7.02
618.14	42.13
618.29	32.77
618.45	67.88
618.60	46.81
618.75	56.17
618.90	110.01
619.06	39.79
619.21	28.09
619.36	105.32
619.51	107.66
619.67	72.56
619.82	18.72
619.97	74.90
620.12	46.81
620.28	4.68
620.43	86.60
620.58	32.77
620.73	107.66
620.89	46.81
621.04	117.03
621.19	243.42
621.34	465.77
621.49	606.20
621.65	561.73
621.80	369.80
621.95	236.39
622.10	180.22
622.25	173.20
622.41	39.79
622.56	77.24
622.71	30.43
622.86	0.00
623.01	0.00
623.16	0.00
623.32	7.02
623.47	86.60
623.62	14.04
623.77	0.00
623.92	84.26
624.07	7.02
624.23	65.54
624.38	91.28
624.53	0.00
624.68	77.24
624.83	39.79
624.98	39.79
625.13	0.00
625.29	51.49
625.44	39.79
625.59	63.19
625.74	46.81
625.89	46.81
626.04	416.62
626.19	1104.73
626.34	1804.55
626.49	2181.38
626.65	1537.73
626.80	1149.20
626.95	755.99
627.10	472.79
627.25	126.39
627.40	124.05
627.55	42.13
627.70	63.19
627.85	11.70
628.00	0.00
628.15	9.36
628.30	0.00
628.45	42.13
628.60	49.15
628.76	67.88
628.91	0.00
629.06	28.09
629.21	60.85
629.36	30.43
629.51	128.73
629.66	58.51
629.81	51.49
629.96	238.73
630.11	404.91
630.26	545.34
630.41	496.19
630.56	369.80
630.71	215.33
630.86	182.56
631.01	58.51
631.16	74.90
631.31	112.35
631.46	112.35
631.61	18.72
631.76	0.00
631.91	63.19
632.06	56.17
632.21	60.85
632.36	53.83
632.51	49.15
632.66	91.28
632.81	182.56
632.96	601.52
633.10	1151.54
633.25	1502.62
633.40	1177.29
633.55	849.61
633.70	543.00
633.85	407.25
634.00	273.84
634.15	117.03
634.30	84.26
634.45	72.56
634.60	0.00
634.75	51.49
634.90	2.34
635.05	60.85
635.19	30.43
635.34	44.47
635.49	0.00
635.64	39.79
635.79	0.00
635.94	51.49
636.09	60.85
636.24	14.04
636.39	9.36
636.53	98.30
636.68	60.85
636.83	35.11
636.98	63.19
637.13	135.75
637.28	18.72
637.43	77.24
637.57	163.84
637.72	601.52
637.87	1394.96
638.02	2368.62
638.17	2665.87
638.32	2026.90
638.46	1350.49
638.61	894.08
638.76	496.19
638.91	285.55
639.06	102.98
639.20	119.37
639.35	124.05
639.50	140.43
639.65	884.72
639.80	2087.76
639.94	3616.13
640.09	4117.00
640.24	2970.14
640.39	2008.18
640.54	1406.66
640.68	882.38
640.83	372.15
640.98	201.29
641.13	102.98
641.27	9.36
641.42	56.17
641.57	49.15
641.72	117.03
641.86	84.26
642.01	18.72
642.16	23.41
642.31	28.09
642.45	25.75
642.60	107.66
642.75	21.06
642.90	25.75
643.04	60.85
643.19	25.75
643.34	86.60
643.48	60.85
643.63	93.62
643.78	84.26
643.93	0.00
644.07	35.11
644.22	7.02
644.37	0.00
644.51	74.90
644.66	53.83
644.81	35.11
644.95	42.13
645.10	86.60
645.25	93.62
645.39	65.54
645.54	98.30
645.69	14.04
645.83	16.38
645.98	18.72
646.13	7.02
646.27	51.49
646.42	91.28
646.57	21.06
646.71	56.17
646.86	65.54
647.00	42.13
647.15	72.56
647.30	65.54
647.44	110.01
647.59	28.09
647.74	30.43
647.88	32.77
648.03	2.34
648.17	9.36
648.32	72.56
648.47	0.00
648.61	9.36
648.76	25.75
648.90	16.38
649.05	9.36
649.20	23.41
649.34	46.81
649.49	93.62
649.63	110.01
649.78	0.00
649.92	42.13
650.07	320.65
650.21	1013.45
650.36	1699.23
650.51	2118.18
650.65	1813.92
650.80	1299.00
650.94	763.01
651.09	561.73
651.23	248.10
651.38	156.82
651.52	149.79
651.67	72.56
651.81	32.77
651.96	51.49
652.10	65.54
652.25	56.17
652.39	53.83
652.54	7.02
652.68	88.94
652.83	297.25
652.97	582.79
653.12	734.93
653.26	744.29
653.41	510.24
653.55	346.40
653.70	259.80
653.84	161.50
653.99	102.98
654.13	81.92
654.27	30.43
654.42	18.72
654.56	0.00
654.71	70.22
654.85	42.13
655.00	30.43
655.14	0.00
655.29	72.56
655.43	0.00
655.57	9.36
655.72	35.11
655.86	32.77
656.01	35.11
656.15	23.41
656.30	46.81
656.44	0.00
656.58	60.85
656.73	21.06
656.87	28.09
657.01	56.17
657.16	63.19
657.30	0.00
657.45	0.00
657.59	21.06
657.73	65.54
657.88	30.43
658.02	70.22
658.16	44.47
658.31	86.60
658.45	53.83
658.60	0.00
658.74	21.06
658.88	79.58
659.03	32.77
659.17	35.11
659.31	95.96
659.46	416.62
659.60	791.10
659.74	1139.84
659.89	985.37
660.03	699.82
660.17	482.15
660.32	313.63
660.46	180.22
660.60	44.47
660.74	117.03
660.89	16.38
661.03	112.35
661.17	0.00
661.32	44.47
661.46	0.00
661.60	0.00
661.74	49.15
661.89	18.72
662.03	72.56
662.17	42.13
662.31	0.00
662.46	114.69
662.60	37.45
662.74	30.43
662.88	60.85
663.03	46.81
663.17	4.68
663.31	11.70
663.45	0.00
663.60	63.19
663.74	28.09
663.88	70.22
664.02	67.88
664.17	65.54
664.31	2.34
664.45	58.51
664.59	65.54
664.73	9.36
664.88	2.34
665.02	95.96
665.16	9.36
665.30	60.85
665.44	79.58
665.59	74.90
665.73	2.34
665.87	79.58
666.01	32.77
666.15	86.60
666.29	0.00
666.44	42.13
666.58	35.11
666.72	0.00
666.86	23.41
667.00	25.75
667.14	60.85
667.28	313.63
667.43	866.00
667.57	1467.52
667.71	1856.04
667.85	1626.67
667.99	1137.50
668.13	713.86
668.27	475.13
668.41	238.73
668.56	156.82
668.70	98.30
668.84	53.83
668.98	88.94
669.12	32.77
669.26	88.94
669.40	18.72
669.54	102.98
669.68	32.77
669.82	72.56
669.96	21.06
670.10	0.00
670.25	53.83
670.39	0.00
670.53	67.88
670.67	9.36
670.81	70.22
670.95	11.70
671.09	67.88
671.23	308.95
671.37	678.76
671.51	1025.15
671.65	1156.22
671.79	851.96
671.93	699.82
672.07	414.27
672.21	238.73
672.35	114.69
672.49	32.77
672.63	84.26
672.77	0.00
672.91	67.88
673.05	88.94
673.19	42.13
673.33	95.96
673.47	14.04
673.61	0.00
673.75	77.24
673.89	49.15
674.03	21.06
674.17	0.00
674.31	18.72
674.45	79.58
674.59	49.15
674.73	70.22
674.87	79.58
675.01	9.36
675.15	63.19
675.29	0.00
675.43	18.72
675.56	77.24
675.70	39.79
675.84	0.00
675.98	35.11
676.12	93.62
676.26	49.15
676.40	119.37
676.54	81.92
676.68	74.90
676.82	81.92
676.96	11.70
677.10	0.00
677.23	0.00
677.37	49.15
677.51	140.43
677.65	72.56
677.79	4.68
677.93	11.70
678.07	11.70
678.21	21.06
678.34	0.00
678.48	58.51
678.62	60.85
678.76	18.72
678.90	46.81
679.04	0.00
679.18	4.68
679.31	16.38
679.45	0.00
679.59	44.47
679.73	49.15
679.87	35.11
680.00	28.09
680.14	25.75
680.28	72.56
680.42	0.00
680.56	49.15
680.70	0.00
680.83	93.62
680.97	77.24
681.11	79.58
681.25	44.47
681.39	4.68
681.52	117.03
681.66	53.83
681.80	28.09
681.94	0.00
682.07	4.68
682.21	4.68
682.35	0.00
682.49	44.47
682.62	44.47
682.76	119.37
682.90	58.51
683.04	21.06
683.17	30.43
683.31	0.00
683.45	53.83
683.59	51.49
683.72	67.88
683.86	79.58
684.00	63.19
684.13	65.54
684.27	0.00
684.41	86.60
684.55	77.24
684.68	35.11
684.82	46.81
684.96	28.09
685.09	72.56
685.23	35.11
685.37	77.24
685.50	7.02
685.64	23.41
685.78	84.26
685.91	14.04
686.05	53.83
686.19	37.45
686.32	0.00
686.46	32.77
686.60	46.81
686.73	21.06
686.87	21.06
687.01	86.60
687.14	44.47
687.28	42.13
687.42	60.85
687.55	0.00
687.69	23.41
687.82	88.94
687.96	49.15
688.10	100.64
688.23	0.00
688.37	25.75
688.50	28.09
688.64	21.06
688.78	23.41
688.91	39.79
689.05	30.43
689.18	32.77
689.32	60.85
689.46	37.45
689.59	35.11
689.73	0.00
689.86	0.00
690.00	0.00
690.13	77.24
690.27	63.19
690.41	60.85
690.54	4.68
690.68	35.11
690.81	0.00
690.95	30.43
691.08	37.45
691.22	0.00
691.35	39.79
691.49	0.00
691.62	56.17
691.76	117.03
691.89	65.54
692.03	39.79
692.16	0.00
692.30	79.58
692.43	105.32
692.57	374.49
692.70	608.54
692.84	830.89
692.97	763.01
693.11	559.39
693.24	395.55
693.38	264.48
693.51	168.52
693.65	196.60
693.78	117.03
693.92	53.83
694.05	35.11
694.19	65.54
694.32	16.38
694.45	0.00
694.59	49.15
694.72	28.09
694.86	67.88
694.99	128.73
695.13	49.15
695.26	25.75
695.39	93.62
695.53	16.38
695.66	72.56
695.80	2.34
695.93	30.43
696.07	39.79
696.20	51.49
696.33	65.54
696.47	37.45
696.60	84.26
696.73	0.00
696.87	32.77
697.00	28.09
697.14	44.47
697.27	35.11
697.40	0.00
697.54	0.00
697.67	112.35
697.80	98.30
697.94	44.47
698.07	63.19
698.21	11.70
698.34	28.09
698.47	37.45
698.61	0.00
698.74	2.34
698.87	0.00
699.01	51.49
699.14	84.26
699.27	0.00
699.40	25.75
699.54	77.24
699.67	95.96
699.80	67.88
699.94	37.45
700.07	72.56
700.20	0.00
700.34	79.58
700.47	72.56
700.60	32.77
700.73	7.02
700.87	42.13
701.00	9.36
701.13	42.13
701.26	39.79
701.40	46.81
701.53	131.07
701.66	110.01
701.79	9.36
701.93	35.11
702.06	112.35
702.19	72.56
702.32	110.01
702.46	63.19
702.59	107.66
702.72	163.84
702.85	456.40
702.99	971.32
703.12	1472.20
703.25	1551.78
703.38	1390.28
703.51	1069.62
703.65	788.76
703.78	557.05
703.91	435.34
704.04	227.03
704.17	180.22
704.31	128.73
704.44	131.07
704.57	30.43
704.70	49.15
704.83	53.83
704.96	46.81
705.10	49.15
705.23	100.64
>>>>>End Processed Spectral Data<<<<<
