SpectraSuite Data File
++++++++++++++++++++++++++++++++++++
Date: Fri Oct 04 12:13:42 GMT-05:00 2013
User: price-jones
Dark Spectrum Present: No
Reference Spectrum Present: No
Number of Sampled Component Spectra: 1
Spectrometers: USB2+H05261
Integration Time (usec): 10000 (USB2+H05261)
Spectra Averaged: 1 (USB2+H05261)
Boxcar Smoothing: 0 (USB2+H05261)
Correct for Electrical Dark: No (USB2+H05261)
Strobe/Lamp Enabled: No (USB2+H05261)
Correct for Detector Non-linearity: No (USB2+H05261)
Correct for Stray Light: No (USB2+H05261)
Number of Pixels in Processed Spectrum: 2048
>>>>>Begin Processed Spectral Data<<<<<
365.73	32.77
365.92	32.77
366.12	32.77
366.32	0.00
366.52	0.00
366.72	0.00
366.91	0.00
367.11	0.00
367.31	0.00
367.51	0.00
367.70	0.00
367.90	0.00
368.10	0.00
368.30	0.00
368.49	0.00
368.69	0.00
368.89	0.00
369.09	0.00
369.28	0.00
369.48	0.00
369.68	0.00
369.87	0.00
370.07	0.00
370.27	0.00
370.47	0.00
370.66	0.00
370.86	0.00
371.06	0.00
371.25	0.00
371.45	0.00
371.65	0.00
371.84	0.00
372.04	74.90
372.24	0.00
372.44	0.00
372.63	0.00
372.83	0.00
373.03	4.68
373.22	42.13
373.42	0.00
373.62	30.43
373.81	23.41
374.01	51.49
374.21	18.72
374.40	72.56
374.60	7.02
374.79	0.00
374.99	100.64
375.19	86.60
375.38	0.00
375.58	28.09
375.78	4.68
375.97	58.51
376.17	65.54
376.37	0.00
376.56	0.00
376.76	16.38
376.95	42.13
377.15	32.77
377.35	63.19
377.54	46.81
377.74	0.00
377.93	28.09
378.13	65.54
378.33	81.92
378.52	14.04
378.72	32.77
378.91	39.79
379.11	70.22
379.31	16.38
379.50	44.47
379.70	93.62
379.89	30.43
380.09	0.00
380.28	39.79
380.48	0.00
380.68	21.06
380.87	32.77
381.07	0.00
381.26	39.79
381.46	39.79
381.65	32.77
381.85	53.83
382.04	21.06
382.24	9.36
382.43	44.47
382.63	53.83
382.83	56.17
383.02	0.00
383.22	58.51
383.41	14.04
383.61	0.00
383.80	63.19
384.00	18.72
384.19	35.11
384.39	4.68
384.58	72.56
384.78	0.00
384.97	0.00
385.17	67.88
385.36	0.00
385.56	65.54
385.75	88.94
385.95	51.49
386.14	70.22
386.34	42.13
386.53	23.41
386.72	0.00
386.92	86.60
387.11	16.38
387.31	0.00
387.50	117.03
387.70	0.00
387.89	9.36
388.09	18.72
388.28	72.56
388.48	39.79
388.67	18.72
388.86	88.94
389.06	0.00
389.25	2.34
389.45	32.77
389.64	21.06
389.84	65.54
390.03	14.04
390.22	0.00
390.42	0.00
390.61	63.19
390.81	16.38
391.00	0.00
391.19	14.04
391.39	46.81
391.58	70.22
391.78	0.00
391.97	0.00
392.16	21.06
392.36	0.00
392.55	0.00
392.75	72.56
392.94	51.49
393.13	42.13
393.33	53.83
393.52	25.75
393.71	0.00
393.91	67.88
394.10	70.22
394.29	67.88
394.49	0.00
394.68	37.45
394.88	0.00
395.07	93.62
395.26	46.81
395.46	49.15
395.65	0.00
395.84	18.72
396.04	9.36
396.23	39.79
396.42	25.75
396.62	63.19
396.81	14.04
397.00	0.00
397.19	0.00
397.39	0.00
397.58	35.11
397.77	32.77
397.97	0.00
398.16	4.68
398.35	88.94
398.55	23.41
398.74	9.36
398.93	7.02
399.12	37.45
399.32	28.09
399.51	81.92
399.70	42.13
399.90	0.00
400.09	11.70
400.28	9.36
400.47	0.00
400.67	39.79
400.86	0.00
401.05	60.85
401.24	51.49
401.44	18.72
401.63	44.47
401.82	60.85
402.01	14.04
402.21	0.00
402.40	25.75
402.59	25.75
402.78	51.49
402.97	11.70
403.17	0.00
403.36	67.88
403.55	0.00
403.74	37.45
403.93	0.00
404.13	32.77
404.32	51.49
404.51	0.00
404.70	98.30
404.89	84.26
405.09	49.15
405.28	100.64
405.47	14.04
405.66	53.83
405.85	11.70
406.05	32.77
406.24	0.00
406.43	0.00
406.62	4.68
406.81	30.43
407.00	14.04
407.20	58.51
407.39	39.79
407.58	28.09
407.77	30.43
407.96	65.54
408.15	74.90
408.34	0.00
408.54	0.00
408.73	58.51
408.92	70.22
409.11	51.49
409.30	74.90
409.49	32.77
409.68	23.41
409.87	25.75
410.07	0.00
410.26	74.90
410.45	0.00
410.64	65.54
410.83	58.51
411.02	102.98
411.21	18.72
411.40	91.28
411.59	70.22
411.78	77.24
411.98	7.02
412.17	25.75
412.36	110.01
412.55	35.11
412.74	44.47
412.93	14.04
413.12	2.34
413.31	53.83
413.50	37.45
413.69	0.00
413.88	112.35
414.07	88.94
414.26	88.94
414.45	88.94
414.64	30.43
414.83	21.06
415.02	0.00
415.22	39.79
415.41	56.17
415.60	11.70
415.79	74.90
415.98	14.04
416.17	30.43
416.36	39.79
416.55	0.00
416.74	11.70
416.93	16.38
417.12	56.17
417.31	0.00
417.50	2.34
417.69	60.85
417.88	0.00
418.07	0.00
418.26	28.09
418.45	107.66
418.64	102.98
418.83	0.00
419.02	0.00
419.21	70.22
419.39	30.43
419.58	18.72
419.77	32.77
419.96	46.81
420.15	23.41
420.34	14.04
420.53	81.92
420.72	42.13
420.91	28.09
421.10	56.17
421.29	60.85
421.48	44.47
421.67	0.00
421.86	25.75
422.05	25.75
422.24	74.90
422.43	49.15
422.61	35.11
422.80	0.00
422.99	28.09
423.18	74.90
423.37	14.04
423.56	30.43
423.75	46.81
423.94	93.62
424.13	58.51
424.32	65.54
424.50	0.00
424.69	42.13
424.88	84.26
425.07	88.94
425.26	21.06
425.45	4.68
425.64	37.45
425.83	67.88
426.01	9.36
426.20	79.58
426.39	81.92
426.58	63.19
426.77	53.83
426.96	2.34
427.15	60.85
427.33	39.79
427.52	14.04
427.71	0.00
427.90	18.72
428.09	56.17
428.28	32.77
428.46	0.00
428.65	7.02
428.84	4.68
429.03	44.47
429.22	72.56
429.40	2.34
429.59	53.83
429.78	21.06
429.97	21.06
430.16	44.47
430.34	23.41
430.53	0.00
430.72	0.00
430.91	72.56
431.10	102.98
431.28	0.00
431.47	9.36
431.66	60.85
431.85	0.00
432.03	30.43
432.22	98.30
432.41	25.75
432.60	35.11
432.79	23.41
432.97	16.38
433.16	46.81
433.35	72.56
433.54	18.72
433.72	56.17
433.91	49.15
434.10	21.06
434.28	0.00
434.47	124.05
434.66	88.94
434.85	74.90
435.03	51.49
435.22	18.72
435.41	32.77
435.59	37.45
435.78	95.96
435.97	35.11
436.16	60.85
436.34	70.22
436.53	74.90
436.72	131.07
436.90	37.45
437.09	37.45
437.28	23.41
437.46	70.22
437.65	28.09
437.84	86.60
438.02	14.04
438.21	98.30
438.40	88.94
438.58	0.00
438.77	0.00
438.96	25.75
439.14	51.49
439.33	0.00
439.52	0.00
439.70	194.26
439.89	70.22
440.08	42.13
440.26	0.00
440.45	37.45
440.63	0.00
440.82	107.66
441.01	53.83
441.19	11.70
441.38	67.88
441.57	91.28
441.75	28.09
441.94	81.92
442.12	2.34
442.31	0.00
442.50	56.17
442.68	35.11
442.87	11.70
443.05	49.15
443.24	58.51
443.43	53.83
443.61	37.45
443.80	135.75
443.98	35.11
444.17	35.11
444.35	49.15
444.54	44.47
444.73	42.13
444.91	49.15
445.10	18.72
445.28	0.00
445.47	0.00
445.65	39.79
445.84	44.47
446.02	18.72
446.21	119.37
446.39	0.00
446.58	35.11
446.77	88.94
446.95	72.56
447.14	35.11
447.32	77.24
447.51	0.00
447.69	65.54
447.88	14.04
448.06	28.09
448.25	32.77
448.43	60.85
448.62	65.54
448.80	72.56
448.99	37.45
449.17	14.04
449.36	91.28
449.54	32.77
449.73	21.06
449.91	30.43
450.10	81.92
450.28	46.81
450.46	53.83
450.65	0.00
450.83	46.81
451.02	0.00
451.20	21.06
451.39	72.56
451.57	67.88
451.76	70.22
451.94	42.13
452.13	67.88
452.31	0.00
452.49	37.45
452.68	39.79
452.86	77.24
453.05	44.47
453.23	28.09
453.42	16.38
453.60	63.19
453.78	23.41
453.97	91.28
454.15	0.00
454.34	28.09
454.52	32.77
454.70	84.26
454.89	37.45
455.07	49.15
455.26	119.37
455.44	37.45
455.62	86.60
455.81	4.68
455.99	60.85
456.17	77.24
456.36	0.00
456.54	161.50
456.73	51.49
456.91	0.00
457.09	74.90
457.28	30.43
457.46	133.41
457.64	93.62
457.83	35.11
458.01	9.36
458.19	98.30
458.38	51.49
458.56	30.43
458.74	72.56
458.93	39.79
459.11	46.81
459.29	30.43
459.48	81.92
459.66	77.24
459.84	28.09
460.03	88.94
460.21	91.28
460.39	37.45
460.57	74.90
460.76	93.62
460.94	4.68
461.12	30.43
461.31	28.09
461.49	11.70
461.67	93.62
461.85	77.24
462.04	18.72
462.22	152.13
462.40	63.19
462.59	37.45
462.77	102.98
462.95	74.90
463.13	81.92
463.32	39.79
463.50	95.96
463.68	74.90
463.86	84.26
464.05	112.35
464.23	67.88
464.41	28.09
464.59	35.11
464.78	79.58
464.96	37.45
465.14	0.00
465.32	105.32
465.50	4.68
465.69	32.77
465.87	32.77
466.05	32.77
466.23	0.00
466.41	79.58
466.60	11.70
466.78	53.83
466.96	119.37
467.14	91.28
467.32	32.77
467.51	56.17
467.69	21.06
467.87	44.47
468.05	86.60
468.23	126.39
468.41	60.85
468.60	63.19
468.78	84.26
468.96	44.47
469.14	56.17
469.32	91.28
469.50	53.83
469.69	30.43
469.87	56.17
470.05	39.79
470.23	77.24
470.41	7.02
470.59	0.00
470.77	95.96
470.95	117.03
471.14	35.11
471.32	49.15
471.50	72.56
471.68	4.68
471.86	0.00
472.04	88.94
472.22	95.96
472.40	18.72
472.58	114.69
472.77	39.79
472.95	77.24
473.13	88.94
473.31	25.75
473.49	0.00
473.67	72.56
473.85	107.66
474.03	72.56
474.21	44.47
474.39	28.09
474.57	84.26
474.75	72.56
474.93	25.75
475.12	74.90
475.30	114.69
475.48	14.04
475.66	112.35
475.84	32.77
476.02	124.05
476.20	18.72
476.38	102.98
476.56	110.01
476.74	32.77
476.92	84.26
477.10	84.26
477.28	70.22
477.46	35.11
477.64	28.09
477.82	56.17
478.00	77.24
478.18	9.36
478.36	0.00
478.54	93.62
478.72	81.92
478.90	135.75
479.08	124.05
479.26	46.81
479.44	77.24
479.62	0.00
479.80	23.41
479.98	28.09
480.16	0.00
480.34	32.77
480.52	124.05
480.70	16.38
480.88	16.38
481.06	98.30
481.24	84.26
481.41	42.13
481.59	60.85
481.77	56.17
481.95	65.54
482.13	46.81
482.31	14.04
482.49	42.13
482.67	72.56
482.85	74.90
483.03	51.49
483.21	18.72
483.39	86.60
483.57	135.75
483.74	105.32
483.92	166.18
484.10	7.02
484.28	0.00
484.46	77.24
484.64	86.60
484.82	81.92
485.00	105.32
485.18	44.47
485.35	105.32
485.53	23.41
485.71	37.45
485.89	7.02
486.07	44.47
486.25	67.88
486.43	51.49
486.61	56.17
486.78	112.35
486.96	51.49
487.14	51.49
487.32	2.34
487.50	102.98
487.68	95.96
487.85	86.60
488.03	81.92
488.21	28.09
488.39	56.17
488.57	65.54
488.75	114.69
488.92	126.39
489.10	67.88
489.28	67.88
489.46	49.15
489.64	91.28
489.81	39.79
489.99	74.90
490.17	81.92
490.35	88.94
490.53	14.04
490.70	124.05
490.88	102.98
491.06	32.77
491.24	91.28
491.41	81.92
491.59	121.71
491.77	131.07
491.95	95.96
492.13	100.64
492.30	67.88
492.48	56.17
492.66	95.96
492.84	79.58
493.01	58.51
493.19	98.30
493.37	53.83
493.54	49.15
493.72	63.19
493.90	58.51
494.08	37.45
494.25	81.92
494.43	46.81
494.61	79.58
494.79	117.03
494.96	117.03
495.14	107.66
495.32	124.05
495.49	58.51
495.67	79.58
495.85	32.77
496.02	126.39
496.20	14.04
496.38	105.32
496.55	95.96
496.73	112.35
496.91	70.22
497.09	140.43
497.26	37.45
497.44	84.26
497.62	77.24
497.79	49.15
497.97	88.94
498.14	149.79
498.32	35.11
498.50	60.85
498.67	77.24
498.85	0.00
499.03	119.37
499.20	110.01
499.38	51.49
499.56	72.56
499.73	86.60
499.91	112.35
500.08	46.81
500.26	81.92
500.44	74.90
500.61	67.88
500.79	23.41
500.97	79.58
501.14	65.54
501.32	30.43
501.49	77.24
501.67	65.54
501.84	46.81
502.02	77.24
502.20	58.51
502.37	25.75
502.55	63.19
502.72	58.51
502.90	74.90
503.07	53.83
503.25	98.30
503.43	30.43
503.60	23.41
503.78	32.77
503.95	53.83
504.13	81.92
504.30	30.43
504.48	110.01
504.65	44.47
504.83	105.32
505.01	81.92
505.18	30.43
505.36	124.05
505.53	7.02
505.71	133.41
505.88	84.26
506.06	79.58
506.23	117.03
506.41	53.83
506.58	91.28
506.76	135.75
506.93	81.92
507.11	102.98
507.28	63.19
507.46	74.90
507.63	9.36
507.81	58.51
507.98	93.62
508.16	35.11
508.33	44.47
508.50	88.94
508.68	126.39
508.85	114.69
509.03	117.03
509.20	46.81
509.38	77.24
509.55	72.56
509.73	67.88
509.90	44.47
510.08	110.01
510.25	102.98
510.42	124.05
510.60	88.94
510.77	44.47
510.95	63.19
511.12	110.01
511.30	88.94
511.47	88.94
511.64	63.19
511.82	32.77
511.99	16.38
512.17	46.81
512.34	81.92
512.51	110.01
512.69	93.62
512.86	100.64
513.04	110.01
513.21	14.04
513.38	154.48
513.56	30.43
513.73	32.77
513.90	91.28
514.08	70.22
514.25	88.94
514.43	93.62
514.60	149.79
514.77	63.19
514.95	110.01
515.12	95.96
515.29	63.19
515.47	100.64
515.64	23.41
515.81	100.64
515.99	79.58
516.16	60.85
516.33	100.64
516.51	74.90
516.68	18.72
516.85	39.79
517.03	100.64
517.20	51.49
517.37	70.22
517.54	81.92
517.72	126.39
517.89	56.17
518.06	72.56
518.24	88.94
518.41	37.45
518.58	154.48
518.75	110.01
518.93	32.77
519.10	49.15
519.27	53.83
519.45	67.88
519.62	95.96
519.79	98.30
519.96	56.17
520.14	44.47
520.31	84.26
520.48	128.73
520.65	67.88
520.83	7.02
521.00	114.69
521.17	147.45
521.34	60.85
521.52	121.71
521.69	110.01
521.86	135.75
522.03	131.07
522.20	46.81
522.38	117.03
522.55	39.79
522.72	67.88
522.89	77.24
523.07	84.26
523.24	37.45
523.41	91.28
523.58	107.66
523.75	86.60
523.92	46.81
524.10	84.26
524.27	100.64
524.44	37.45
524.61	110.01
524.78	72.56
524.96	112.35
525.13	91.28
525.30	107.66
525.47	81.92
525.64	56.17
525.81	28.09
525.98	63.19
526.16	88.94
526.33	156.82
526.50	56.17
526.67	72.56
526.84	100.64
527.01	95.96
527.18	124.05
527.36	81.92
527.53	126.39
527.70	93.62
527.87	154.48
528.04	58.51
528.21	98.30
528.38	100.64
528.55	88.94
528.72	112.35
528.89	152.13
529.07	84.26
529.24	77.24
529.41	107.66
529.58	81.92
529.75	44.47
529.92	107.66
530.09	93.62
530.26	74.90
530.43	114.69
530.60	91.28
530.77	93.62
530.94	145.11
531.11	110.01
531.28	95.96
531.46	98.30
531.63	74.90
531.80	42.13
531.97	100.64
532.14	98.30
532.31	60.85
532.48	65.54
532.65	81.92
532.82	102.98
532.99	133.41
533.16	131.07
533.33	91.28
533.50	173.20
533.67	128.73
533.84	198.95
534.01	154.48
534.18	112.35
534.35	28.09
534.52	53.83
534.69	128.73
534.86	100.64
535.03	117.03
535.20	149.79
535.37	72.56
535.54	9.36
535.71	44.47
535.88	79.58
536.05	56.17
536.22	74.90
536.38	42.13
536.55	46.81
536.72	53.83
536.89	114.69
537.06	161.50
537.23	37.45
537.40	124.05
537.57	159.16
537.74	65.54
537.91	44.47
538.08	128.73
538.25	117.03
538.42	133.41
538.59	110.01
538.75	67.88
538.92	72.56
539.09	128.73
539.26	124.05
539.43	98.30
539.60	63.19
539.77	46.81
539.94	72.56
540.11	119.37
540.28	49.15
540.44	198.95
540.61	39.79
540.78	56.17
540.95	0.00
541.12	11.70
541.29	49.15
541.46	44.47
541.62	159.16
541.79	81.92
541.96	28.09
542.13	67.88
542.30	32.77
542.47	91.28
542.63	110.01
542.80	128.73
542.97	102.98
543.14	102.98
543.31	177.88
543.48	191.92
543.64	86.60
543.81	105.32
543.98	93.62
544.15	100.64
544.32	74.90
544.48	105.32
544.65	138.09
544.82	79.58
544.99	124.05
545.16	135.75
545.32	91.28
545.49	121.71
545.66	51.49
545.83	63.19
546.00	100.64
546.16	102.98
546.33	110.01
546.50	37.45
546.67	60.85
546.83	30.43
547.00	138.09
547.17	46.81
547.34	140.43
547.50	152.13
547.67	44.47
547.84	88.94
548.00	154.48
548.17	72.56
548.34	93.62
548.51	84.26
548.67	93.62
548.84	44.47
549.01	135.75
549.18	67.88
549.34	74.90
549.51	100.64
549.68	128.73
549.84	67.88
550.01	53.83
550.18	72.56
550.34	51.49
550.51	37.45
550.68	98.30
550.84	46.81
551.01	81.92
551.18	37.45
551.34	88.94
551.51	18.72
551.68	74.90
551.84	140.43
552.01	79.58
552.18	119.37
552.34	77.24
552.51	79.58
552.68	51.49
552.84	140.43
553.01	60.85
553.18	0.00
553.34	98.30
553.51	39.79
553.67	25.75
553.84	46.81
554.01	56.17
554.17	128.73
554.34	25.75
554.51	126.39
554.67	0.00
554.84	53.83
555.00	93.62
555.17	70.22
555.33	117.03
555.50	70.22
555.67	98.30
555.83	175.54
556.00	77.24
556.16	114.69
556.33	56.17
556.50	140.43
556.66	0.00
556.83	81.92
556.99	84.26
557.16	70.22
557.32	114.69
557.49	86.60
557.65	81.92
557.82	72.56
557.98	67.88
558.15	70.22
558.32	81.92
558.48	88.94
558.65	107.66
558.81	173.20
558.98	135.75
559.14	149.79
559.31	63.19
559.47	93.62
559.64	72.56
559.80	72.56
559.97	86.60
560.13	77.24
560.30	121.71
560.46	112.35
560.63	86.60
560.79	84.26
560.96	105.32
561.12	77.24
561.29	110.01
561.45	49.15
561.61	81.92
561.78	128.73
561.94	70.22
562.11	35.11
562.27	105.32
562.44	112.35
562.60	110.01
562.77	81.92
562.93	58.51
563.10	84.26
563.26	49.15
563.42	51.49
563.59	46.81
563.75	44.47
563.92	79.58
564.08	131.07
564.24	126.39
564.41	79.58
564.57	93.62
564.74	0.00
564.90	128.73
565.07	65.54
565.23	154.48
565.39	70.22
565.56	98.30
565.72	46.81
565.88	60.85
566.05	88.94
566.21	70.22
566.38	72.56
566.54	79.58
566.70	86.60
566.87	112.35
567.03	112.35
567.19	39.79
567.36	105.32
567.52	124.05
567.68	107.66
567.85	114.69
568.01	117.03
568.17	114.69
568.34	46.81
568.50	140.43
568.66	88.94
568.83	9.36
568.99	58.51
569.15	88.94
569.32	49.15
569.48	100.64
569.64	49.15
569.81	67.88
569.97	0.00
570.13	21.06
570.30	88.94
570.46	18.72
570.62	154.48
570.78	79.58
570.95	77.24
571.11	156.82
571.27	30.43
571.43	131.07
571.60	16.38
571.76	138.09
571.92	95.96
572.09	0.00
572.25	84.26
572.41	119.37
572.57	67.88
572.74	70.22
572.90	93.62
573.06	70.22
573.22	112.35
573.38	126.39
573.55	105.32
573.71	56.17
573.87	32.77
574.03	98.30
574.20	124.05
574.36	110.01
574.52	79.58
574.68	7.02
574.84	39.79
575.01	23.41
575.17	18.72
575.33	114.69
575.49	32.77
575.65	58.51
575.82	142.77
575.98	100.64
576.14	35.11
576.30	105.32
576.46	0.00
576.62	67.88
576.79	58.51
576.95	28.09
577.11	63.19
577.27	60.85
577.43	53.83
577.59	72.56
577.75	58.51
577.92	107.66
578.08	98.30
578.24	60.85
578.40	65.54
578.56	30.43
578.72	72.56
578.88	91.28
579.04	25.75
579.21	107.66
579.37	65.54
579.53	91.28
579.69	133.41
579.85	0.00
580.01	124.05
580.17	74.90
580.33	23.41
580.49	72.56
580.65	86.60
580.82	114.69
580.98	135.75
581.14	30.43
581.30	25.75
581.46	49.15
581.62	93.62
581.78	114.69
581.94	131.07
582.10	35.11
582.26	44.47
582.42	46.81
582.58	18.72
582.74	98.30
582.90	72.56
583.06	79.58
583.22	86.60
583.38	119.37
583.54	81.92
583.70	77.24
583.86	110.01
584.02	119.37
584.18	119.37
584.34	25.75
584.50	35.11
584.66	91.28
584.82	81.92
584.98	77.24
585.14	86.60
585.30	173.20
585.46	58.51
585.62	35.11
585.78	70.22
585.94	18.72
586.10	51.49
586.26	60.85
586.42	126.39
586.58	42.13
586.74	46.81
586.90	56.17
587.06	70.22
587.22	32.77
587.38	53.83
587.54	74.90
587.70	117.03
587.86	70.22
588.02	98.30
588.18	65.54
588.34	100.64
588.49	0.00
588.65	110.01
588.81	44.47
588.97	18.72
589.13	81.92
589.29	32.77
589.45	91.28
589.61	79.58
589.77	23.41
589.93	32.77
590.08	42.13
590.24	37.45
590.40	95.96
590.56	117.03
590.72	84.26
590.88	35.11
591.04	14.04
591.20	0.00
591.35	93.62
591.51	65.54
591.67	44.47
591.83	63.19
591.99	37.45
592.15	91.28
592.31	124.05
592.46	58.51
592.62	70.22
592.78	105.32
592.94	117.03
593.10	114.69
593.26	74.90
593.41	58.51
593.57	0.00
593.73	81.92
593.89	79.58
594.05	95.96
594.20	88.94
594.36	70.22
594.52	25.75
594.68	0.00
594.84	107.66
594.99	72.56
595.15	84.26
595.31	91.28
595.47	58.51
595.62	70.22
595.78	7.02
595.94	35.11
596.10	72.56
596.25	53.83
596.41	72.56
596.57	72.56
596.73	95.96
596.88	105.32
597.04	79.58
597.20	63.19
597.36	72.56
597.51	98.30
597.67	23.41
597.83	65.54
597.99	91.28
598.14	35.11
598.30	98.30
598.46	93.62
598.61	49.15
598.77	77.24
598.93	88.94
599.09	74.90
599.24	65.54
599.40	93.62
599.56	58.51
599.71	67.88
599.87	98.30
600.03	21.06
600.18	112.35
600.34	65.54
600.50	42.13
600.65	121.71
600.81	60.85
600.97	140.43
601.12	53.83
601.28	74.90
601.44	51.49
601.59	16.38
601.75	79.58
601.91	91.28
602.06	23.41
602.22	30.43
602.37	163.84
602.53	91.28
602.69	53.83
602.84	42.13
603.00	81.92
603.16	84.26
603.31	56.17
603.47	35.11
603.62	77.24
603.78	88.94
603.94	86.60
604.09	67.88
604.25	81.92
604.40	25.75
604.56	42.13
604.71	67.88
604.87	49.15
605.03	42.13
605.18	110.01
605.34	51.49
605.49	100.64
605.65	88.94
605.80	88.94
605.96	124.05
606.12	23.41
606.27	46.81
606.43	21.06
606.58	42.13
606.74	84.26
606.89	114.69
607.05	58.51
607.20	23.41
607.36	88.94
607.51	117.03
607.67	84.26
607.82	56.17
607.98	95.96
608.13	98.30
608.29	11.70
608.44	126.39
608.60	126.39
608.75	81.92
608.91	147.45
609.06	81.92
609.22	9.36
609.37	72.56
609.53	105.32
609.68	58.51
609.84	79.58
609.99	79.58
610.15	51.49
610.30	138.09
610.46	70.22
610.61	37.45
610.76	79.58
610.92	81.92
611.07	56.17
611.23	81.92
611.38	23.41
611.54	126.39
611.69	60.85
611.84	93.62
612.00	70.22
612.15	67.88
612.31	25.75
612.46	79.58
612.62	79.58
612.77	32.77
612.92	166.18
613.08	77.24
613.23	7.02
613.39	133.41
613.54	56.17
613.69	28.09
613.85	77.24
614.00	166.18
614.15	67.88
614.31	95.96
614.46	53.83
614.62	4.68
614.77	21.06
614.92	18.72
615.08	32.77
615.23	58.51
615.38	67.88
615.54	56.17
615.69	173.20
615.84	105.32
616.00	56.17
616.15	67.88
616.30	79.58
616.46	72.56
616.61	46.81
616.76	0.00
616.92	72.56
617.07	65.54
617.22	16.38
617.37	21.06
617.53	14.04
617.68	51.49
617.83	30.43
617.99	91.28
618.14	91.28
618.29	102.98
618.45	72.56
618.60	9.36
618.75	102.98
618.90	79.58
619.06	67.88
619.21	124.05
619.36	88.94
619.51	58.51
619.67	107.66
619.82	102.98
619.97	86.60
620.12	124.05
620.28	91.28
620.43	159.16
620.58	63.19
620.73	112.35
620.89	37.45
621.04	28.09
621.19	30.43
621.34	98.30
621.49	100.64
621.65	105.32
621.80	0.00
621.95	72.56
622.10	53.83
622.25	77.24
622.41	46.81
622.56	7.02
622.71	2.34
622.86	65.54
623.01	51.49
623.16	100.64
623.32	72.56
623.47	32.77
623.62	70.22
623.77	93.62
623.92	30.43
624.07	107.66
624.23	11.70
624.38	44.47
624.53	105.32
624.68	9.36
624.83	44.47
624.98	25.75
625.13	46.81
625.29	49.15
625.44	39.79
625.59	98.30
625.74	42.13
625.89	44.47
626.04	140.43
626.19	79.58
626.34	86.60
626.49	95.96
626.65	0.00
626.80	117.03
626.95	72.56
627.10	79.58
627.25	30.43
627.40	25.75
627.55	63.19
627.70	37.45
627.85	56.17
628.00	93.62
628.15	86.60
628.30	70.22
628.45	51.49
628.60	107.66
628.76	9.36
628.91	86.60
629.06	166.18
629.21	42.13
629.36	0.00
629.51	84.26
629.66	51.49
629.81	56.17
629.96	131.07
630.11	25.75
630.26	4.68
630.41	46.81
630.56	63.19
630.71	86.60
630.86	77.24
631.01	93.62
631.16	28.09
631.31	14.04
631.46	11.70
631.61	0.00
631.76	74.90
631.91	0.00
632.06	56.17
632.21	95.96
632.36	9.36
632.51	81.92
632.66	93.62
632.81	42.13
632.96	39.79
633.10	81.92
633.25	77.24
633.40	93.62
633.55	30.43
633.70	77.24
633.85	63.19
634.00	42.13
634.15	14.04
634.30	72.56
634.45	46.81
634.60	140.43
634.75	58.51
634.90	21.06
635.05	30.43
635.19	91.28
635.34	51.49
635.49	16.38
635.64	100.64
635.79	23.41
635.94	60.85
636.09	11.70
636.24	65.54
636.39	39.79
636.53	4.68
636.68	107.66
636.83	100.64
636.98	9.36
637.13	84.26
637.28	74.90
637.43	58.51
637.57	46.81
637.72	100.64
637.87	58.51
638.02	21.06
638.17	30.43
638.32	28.09
638.46	56.17
638.61	65.54
638.76	72.56
638.91	138.09
639.06	95.96
639.20	56.17
639.35	53.83
639.50	81.92
639.65	95.96
639.80	35.11
639.94	0.00
640.09	35.11
640.24	117.03
640.39	51.49
640.54	0.00
640.68	102.98
640.83	21.06
640.98	58.51
641.13	32.77
641.27	110.01
641.42	91.28
641.57	77.24
641.72	7.02
641.86	9.36
642.01	95.96
642.16	107.66
642.31	86.60
642.45	49.15
642.60	65.54
642.75	23.41
642.90	128.73
643.04	49.15
643.19	86.60
643.34	63.19
643.48	35.11
643.63	35.11
643.78	128.73
643.93	133.41
644.07	60.85
644.22	58.51
644.37	56.17
644.51	46.81
644.66	100.64
644.81	58.51
644.95	21.06
645.10	23.41
645.25	63.19
645.39	93.62
645.54	58.51
645.69	67.88
645.83	44.47
645.98	25.75
646.13	72.56
646.27	11.70
646.42	49.15
646.57	63.19
646.71	133.41
646.86	9.36
647.00	42.13
647.15	35.11
647.30	14.04
647.44	110.01
647.59	4.68
647.74	63.19
647.88	35.11
648.03	18.72
648.17	53.83
648.32	46.81
648.47	30.43
648.61	51.49
648.76	56.17
648.90	133.41
649.05	65.54
649.20	30.43
649.34	32.77
649.49	0.00
649.63	51.49
649.78	35.11
649.92	46.81
650.07	98.30
650.21	102.98
650.36	11.70
650.51	72.56
650.65	79.58
650.80	11.70
650.94	35.11
651.09	21.06
651.23	63.19
651.38	28.09
651.52	37.45
651.67	70.22
651.81	110.01
651.96	39.79
652.10	126.39
652.25	46.81
652.39	105.32
652.54	84.26
652.68	60.85
652.83	93.62
652.97	147.45
653.12	42.13
653.26	65.54
653.41	180.22
653.55	70.22
653.70	72.56
653.84	63.19
653.99	107.66
654.13	0.00
654.27	51.49
654.42	84.26
654.56	84.26
654.71	35.11
654.85	35.11
655.00	18.72
655.14	63.19
655.29	0.00
655.43	86.60
655.57	0.00
655.72	11.70
655.86	39.79
656.01	51.49
656.15	7.02
656.30	88.94
656.44	18.72
656.58	44.47
656.73	65.54
656.87	7.02
657.01	37.45
657.16	42.13
657.30	81.92
657.45	77.24
657.59	84.26
657.73	42.13
657.88	0.00
658.02	84.26
658.16	46.81
658.31	91.28
658.45	79.58
658.60	21.06
658.74	114.69
658.88	21.06
659.03	63.19
659.17	18.72
659.31	28.09
659.46	46.81
659.60	25.75
659.74	42.13
659.89	0.00
660.03	0.00
660.17	77.24
660.32	74.90
660.46	23.41
660.60	56.17
660.74	46.81
660.89	56.17
661.03	30.43
661.17	53.83
661.32	70.22
661.46	56.17
661.60	58.51
661.74	0.00
661.89	0.00
662.03	14.04
662.17	53.83
662.31	53.83
662.46	51.49
662.60	51.49
662.74	35.11
662.88	74.90
663.03	23.41
663.17	28.09
663.31	44.47
663.45	65.54
663.60	86.60
663.74	100.64
663.88	102.98
664.02	46.81
664.17	72.56
664.31	9.36
664.45	4.68
664.59	124.05
664.73	105.32
664.88	49.15
665.02	0.00
665.16	37.45
665.30	0.00
665.44	30.43
665.59	30.43
665.73	72.56
665.87	98.30
666.01	4.68
666.15	9.36
666.29	7.02
666.44	100.64
666.58	51.49
666.72	105.32
666.86	28.09
667.00	30.43
667.14	49.15
667.28	7.02
667.43	53.83
667.57	135.75
667.71	98.30
667.85	42.13
667.99	95.96
668.13	60.85
668.27	0.00
668.41	60.85
668.56	0.00
668.70	7.02
668.84	0.00
668.98	65.54
669.12	46.81
669.26	39.79
669.40	7.02
669.54	77.24
669.68	98.30
669.82	131.07
669.96	0.00
670.10	81.92
670.25	39.79
670.39	140.43
670.53	0.00
670.67	23.41
670.81	35.11
670.95	23.41
671.09	42.13
671.23	0.00
671.37	88.94
671.51	56.17
671.65	79.58
671.79	58.51
671.93	121.71
672.07	0.00
672.21	0.00
672.35	72.56
672.49	84.26
672.63	86.60
672.77	56.17
672.91	81.92
673.05	4.68
673.19	95.96
673.33	72.56
673.47	39.79
673.61	0.00
673.75	25.75
673.89	25.75
674.03	91.28
674.17	77.24
674.31	74.90
674.45	70.22
674.59	65.54
674.73	58.51
674.87	30.43
675.01	35.11
675.15	28.09
675.29	124.05
675.43	30.43
675.56	51.49
675.70	72.56
675.84	107.66
675.98	65.54
676.12	46.81
676.26	18.72
676.40	88.94
676.54	117.03
676.68	51.49
676.82	77.24
676.96	60.85
677.10	32.77
677.23	14.04
677.37	16.38
677.51	25.75
677.65	0.00
677.79	53.83
677.93	0.00
678.07	58.51
678.21	46.81
678.34	65.54
678.48	84.26
678.62	42.13
678.76	11.70
678.90	21.06
679.04	51.49
679.18	58.51
679.31	84.26
679.45	14.04
679.59	0.00
679.73	32.77
679.87	58.51
680.00	60.85
680.14	23.41
680.28	51.49
680.42	9.36
680.56	23.41
680.70	74.90
680.83	56.17
680.97	30.43
681.11	77.24
681.25	72.56
681.39	170.86
681.52	42.13
681.66	4.68
681.80	58.51
681.94	42.13
682.07	77.24
682.21	0.00
682.35	0.00
682.49	60.85
682.62	121.71
682.76	0.00
682.90	4.68
683.04	32.77
683.17	28.09
683.31	35.11
683.45	39.79
683.59	9.36
683.72	2.34
683.86	18.72
684.00	39.79
684.13	42.13
684.27	93.62
684.41	46.81
684.55	105.32
684.68	98.30
684.82	0.00
684.96	74.90
685.09	49.15
685.23	42.13
685.37	28.09
685.50	49.15
685.64	77.24
685.78	9.36
685.91	44.47
686.05	21.06
686.19	70.22
686.32	4.68
686.46	35.11
686.60	32.77
686.73	56.17
686.87	72.56
687.01	72.56
687.14	79.58
687.28	84.26
687.42	25.75
687.55	0.00
687.69	39.79
687.82	51.49
687.96	18.72
688.10	112.35
688.23	107.66
688.37	56.17
688.50	98.30
688.64	35.11
688.78	32.77
688.91	35.11
689.05	28.09
689.18	37.45
689.32	37.45
689.46	72.56
689.59	14.04
689.73	35.11
689.86	51.49
690.00	70.22
690.13	60.85
690.27	23.41
690.41	7.02
690.54	81.92
690.68	67.88
690.81	72.56
690.95	14.04
691.08	53.83
691.22	0.00
691.35	88.94
691.49	42.13
691.62	46.81
691.76	81.92
691.89	35.11
692.03	63.19
692.16	42.13
692.30	102.98
692.43	23.41
692.57	63.19
692.70	0.00
692.84	0.00
692.97	65.54
693.11	60.85
693.24	74.90
693.38	0.00
693.51	102.98
693.65	56.17
693.78	0.00
693.92	14.04
694.05	0.00
694.19	0.00
694.32	0.00
694.45	46.81
694.59	65.54
694.72	28.09
694.86	49.15
694.99	56.17
695.13	28.09
695.26	46.81
695.39	102.98
695.53	0.00
695.66	0.00
695.80	0.00
695.93	42.13
696.07	16.38
696.20	84.26
696.33	56.17
696.47	37.45
696.60	16.38
696.73	35.11
696.87	16.38
697.00	39.79
697.14	135.75
697.27	35.11
697.40	21.06
697.54	0.00
697.67	14.04
697.80	16.38
697.94	86.60
698.07	30.43
698.21	56.17
698.34	4.68
698.47	21.06
698.61	21.06
698.74	60.85
698.87	11.70
699.01	7.02
699.14	9.36
699.27	23.41
699.40	56.17
699.54	0.00
699.67	84.26
699.80	60.85
699.94	7.02
700.07	7.02
700.20	79.58
700.34	35.11
700.47	65.54
700.60	21.06
700.73	0.00
700.87	86.60
701.00	30.43
701.13	51.49
701.26	60.85
701.40	72.56
701.53	91.28
701.66	0.00
701.79	0.00
701.93	21.06
702.06	60.85
702.19	11.70
702.32	60.85
702.46	51.49
702.59	42.13
702.72	0.00
702.85	0.00
702.99	0.00
703.12	98.30
703.25	60.85
703.38	88.94
703.51	74.90
703.65	0.00
703.78	32.77
703.91	16.38
704.04	30.43
704.17	44.47
704.31	32.77
704.44	0.00
704.57	84.26
704.70	44.47
704.83	7.02
704.96	0.00
705.10	30.43
705.23	16.38
>>>>>End Processed Spectral Data<<<<<
