SpectraSuite Data File
++++++++++++++++++++++++++++++++++++
Date: Fri Oct 04 12:13:33 GMT-05:00 2013
User: price-jones
Dark Spectrum Present: No
Reference Spectrum Present: No
Number of Sampled Component Spectra: 1
Spectrometers: USB2+H05261
Integration Time (usec): 10000 (USB2+H05261)
Spectra Averaged: 1 (USB2+H05261)
Boxcar Smoothing: 0 (USB2+H05261)
Correct for Electrical Dark: No (USB2+H05261)
Strobe/Lamp Enabled: No (USB2+H05261)
Correct for Detector Non-linearity: No (USB2+H05261)
Correct for Stray Light: No (USB2+H05261)
Number of Pixels in Processed Spectrum: 2048
>>>>>Begin Processed Spectral Data<<<<<
365.73	0.00
365.92	0.00
366.12	0.00
366.32	0.00
366.52	0.00
366.72	0.00
366.91	0.00
367.11	0.00
367.31	0.00
367.51	0.00
367.70	0.00
367.90	0.00
368.10	0.00
368.30	0.00
368.49	0.00
368.69	0.00
368.89	0.00
369.09	0.00
369.28	0.00
369.48	0.00
369.68	0.00
369.87	0.00
370.07	0.00
370.27	0.00
370.47	0.00
370.66	0.00
370.86	18.72
371.06	35.11
371.25	0.00
371.45	0.00
371.65	0.00
371.84	0.00
372.04	0.00
372.24	0.00
372.44	0.00
372.63	0.00
372.83	30.43
373.03	7.02
373.22	0.00
373.42	21.06
373.62	46.81
373.81	7.02
374.01	42.13
374.21	0.00
374.40	7.02
374.60	21.06
374.79	0.00
374.99	0.00
375.19	77.24
375.38	102.98
375.58	0.00
375.78	14.04
375.97	58.51
376.17	0.00
376.37	44.47
376.56	0.00
376.76	32.77
376.95	84.26
377.15	37.45
377.35	16.38
377.54	65.54
377.74	9.36
377.93	14.04
378.13	9.36
378.33	16.38
378.52	0.00
378.72	35.11
378.91	63.19
379.11	23.41
379.31	0.00
379.50	56.17
379.70	0.00
379.89	65.54
380.09	100.64
380.28	11.70
380.48	25.75
380.68	56.17
380.87	74.90
381.07	0.00
381.26	0.00
381.46	51.49
381.65	32.77
381.85	35.11
382.04	42.13
382.24	14.04
382.43	58.51
382.63	0.00
382.83	110.01
383.02	0.00
383.22	72.56
383.41	0.00
383.61	39.79
383.80	60.85
384.00	58.51
384.19	14.04
384.39	37.45
384.58	0.00
384.78	0.00
384.97	42.13
385.17	21.06
385.36	0.00
385.56	16.38
385.75	42.13
385.95	0.00
386.14	0.00
386.34	46.81
386.53	0.00
386.72	65.54
386.92	0.00
387.11	25.75
387.31	9.36
387.50	105.32
387.70	79.58
387.89	0.00
388.09	0.00
388.28	0.00
388.48	32.77
388.67	0.00
388.86	79.58
389.06	28.09
389.25	0.00
389.45	0.00
389.64	0.00
389.84	0.00
390.03	0.00
390.22	0.00
390.42	51.49
390.61	30.43
390.81	119.37
391.00	0.00
391.19	0.00
391.39	0.00
391.58	16.38
391.78	0.00
391.97	39.79
392.16	0.00
392.36	7.02
392.55	51.49
392.75	65.54
392.94	9.36
393.13	30.43
393.33	4.68
393.52	23.41
393.71	0.00
393.91	51.49
394.10	0.00
394.29	49.15
394.49	0.00
394.68	18.72
394.88	9.36
395.07	14.04
395.26	46.81
395.46	81.92
395.65	0.00
395.84	98.30
396.04	56.17
396.23	11.70
396.42	11.70
396.62	0.00
396.81	0.00
397.00	0.00
397.19	16.38
397.39	9.36
397.58	0.00
397.77	2.34
397.97	21.06
398.16	77.24
398.35	70.22
398.55	9.36
398.74	16.38
398.93	39.79
399.12	63.19
399.32	4.68
399.51	65.54
399.70	30.43
399.90	18.72
400.09	25.75
400.28	46.81
400.47	0.00
400.67	11.70
400.86	0.00
401.05	32.77
401.24	7.02
401.44	0.00
401.63	35.11
401.82	37.45
402.01	14.04
402.21	67.88
402.40	72.56
402.59	44.47
402.78	0.00
402.97	30.43
403.17	0.00
403.36	0.00
403.55	49.15
403.74	72.56
403.93	0.00
404.13	32.77
404.32	49.15
404.51	77.24
404.70	121.71
404.89	0.00
405.09	0.00
405.28	53.83
405.47	0.00
405.66	37.45
405.85	18.72
406.05	2.34
406.24	0.00
406.43	0.00
406.62	35.11
406.81	35.11
407.00	65.54
407.20	0.00
407.39	32.77
407.58	4.68
407.77	46.81
407.96	60.85
408.15	46.81
408.34	70.22
408.54	72.56
408.73	16.38
408.92	53.83
409.11	18.72
409.30	7.02
409.49	39.79
409.68	74.90
409.87	56.17
410.07	74.90
410.26	46.81
410.45	70.22
410.64	49.15
410.83	11.70
411.02	32.77
411.21	23.41
411.40	25.75
411.59	23.41
411.78	63.19
411.98	86.60
412.17	16.38
412.36	9.36
412.55	11.70
412.74	32.77
412.93	53.83
413.12	39.79
413.31	42.13
413.50	65.54
413.69	0.00
413.88	42.13
414.07	0.00
414.26	11.70
414.45	0.00
414.64	84.26
414.83	21.06
415.02	39.79
415.22	28.09
415.41	60.85
415.60	16.38
415.79	0.00
415.98	0.00
416.17	21.06
416.36	44.47
416.55	0.00
416.74	37.45
416.93	58.51
417.12	0.00
417.31	0.00
417.50	7.02
417.69	63.19
417.88	37.45
418.07	44.47
418.26	70.22
418.45	77.24
418.64	102.98
418.83	0.00
419.02	0.00
419.21	44.47
419.39	32.77
419.58	37.45
419.77	28.09
419.96	46.81
420.15	4.68
420.34	28.09
420.53	51.49
420.72	28.09
420.91	0.00
421.10	42.13
421.29	0.00
421.48	23.41
421.67	44.47
421.86	2.34
422.05	0.00
422.24	21.06
422.43	23.41
422.61	37.45
422.80	21.06
422.99	53.83
423.18	42.13
423.37	53.83
423.56	0.00
423.75	32.77
423.94	0.00
424.13	30.43
424.32	23.41
424.50	84.26
424.69	49.15
424.88	32.77
425.07	51.49
425.26	25.75
425.45	44.47
425.64	56.17
425.83	93.62
426.01	42.13
426.20	100.64
426.39	63.19
426.58	37.45
426.77	0.00
426.96	56.17
427.15	0.00
427.33	0.00
427.52	23.41
427.71	9.36
427.90	0.00
428.09	86.60
428.28	11.70
428.46	39.79
428.65	9.36
428.84	35.11
429.03	0.00
429.22	23.41
429.40	42.13
429.59	81.92
429.78	7.02
429.97	0.00
430.16	46.81
430.34	25.75
430.53	46.81
430.72	51.49
430.91	42.13
431.10	11.70
431.28	81.92
431.47	35.11
431.66	18.72
431.85	44.47
432.03	63.19
432.22	37.45
432.41	39.79
432.60	0.00
432.79	56.17
432.97	46.81
433.16	79.58
433.35	49.15
433.54	56.17
433.72	70.22
433.91	39.79
434.10	9.36
434.28	0.00
434.47	65.54
434.66	70.22
434.85	42.13
435.03	32.77
435.22	0.00
435.41	0.00
435.59	18.72
435.78	37.45
435.97	11.70
436.16	72.56
436.34	126.39
436.53	0.00
436.72	124.05
436.90	112.35
437.09	0.00
437.28	32.77
437.46	11.70
437.65	0.00
437.84	53.83
438.02	51.49
438.21	93.62
438.40	28.09
438.58	86.60
438.77	30.43
438.96	0.00
439.14	49.15
439.33	37.45
439.52	63.19
439.70	14.04
439.89	102.98
440.08	72.56
440.26	67.88
440.45	0.00
440.63	11.70
440.82	25.75
441.01	51.49
441.19	60.85
441.38	72.56
441.57	49.15
441.75	0.00
441.94	25.75
442.12	117.03
442.31	74.90
442.50	21.06
442.68	30.43
442.87	0.00
443.05	32.77
443.24	23.41
443.43	11.70
443.61	7.02
443.80	14.04
443.98	42.13
444.17	14.04
444.35	70.22
444.54	112.35
444.73	25.75
444.91	67.88
445.10	70.22
445.28	53.83
445.47	65.54
445.65	30.43
445.84	9.36
446.02	0.00
446.21	37.45
446.39	74.90
446.58	126.39
446.77	28.09
446.95	44.47
447.14	23.41
447.32	93.62
447.51	23.41
447.69	4.68
447.88	11.70
448.06	4.68
448.25	72.56
448.43	23.41
448.62	39.79
448.80	0.00
448.99	81.92
449.17	0.00
449.36	70.22
449.54	49.15
449.73	46.81
449.91	86.60
450.10	18.72
450.28	91.28
450.46	16.38
450.65	4.68
450.83	0.00
451.02	0.00
451.20	49.15
451.39	21.06
451.57	72.56
451.76	37.45
451.94	63.19
452.13	84.26
452.31	39.79
452.49	4.68
452.68	18.72
452.86	0.00
453.05	2.34
453.23	0.00
453.42	7.02
453.60	0.00
453.78	65.54
453.97	23.41
454.15	35.11
454.34	0.00
454.52	32.77
454.70	60.85
454.89	0.00
455.07	44.47
455.26	0.00
455.44	0.00
455.62	0.00
455.81	0.00
455.99	77.24
456.17	42.13
456.36	35.11
456.54	21.06
456.73	2.34
456.91	0.00
457.09	21.06
457.28	23.41
457.46	28.09
457.64	23.41
457.83	23.41
458.01	56.17
458.19	32.77
458.38	0.00
458.56	21.06
458.74	86.60
458.93	14.04
459.11	30.43
459.29	11.70
459.48	0.00
459.66	60.85
459.84	32.77
460.03	28.09
460.21	93.62
460.39	95.96
460.57	0.00
460.76	37.45
460.94	30.43
461.12	37.45
461.31	0.00
461.49	7.02
461.67	49.15
461.85	93.62
462.04	9.36
462.22	119.37
462.40	70.22
462.59	0.00
462.77	65.54
462.95	51.49
463.13	74.90
463.32	23.41
463.50	0.00
463.68	53.83
463.86	74.90
464.05	14.04
464.23	105.32
464.41	35.11
464.59	44.47
464.78	49.15
464.96	25.75
465.14	84.26
465.32	46.81
465.50	60.85
465.69	25.75
465.87	0.00
466.05	67.88
466.23	0.00
466.41	9.36
466.60	25.75
466.78	9.36
466.96	35.11
467.14	39.79
467.32	93.62
467.51	28.09
467.69	60.85
467.87	70.22
468.05	14.04
468.23	37.45
468.41	56.17
468.60	49.15
468.78	95.96
468.96	42.13
469.14	28.09
469.32	70.22
469.50	30.43
469.69	56.17
469.87	30.43
470.05	70.22
470.23	0.00
470.41	0.00
470.59	11.70
470.77	25.75
470.95	4.68
471.14	60.85
471.32	0.00
471.50	84.26
471.68	30.43
471.86	39.79
472.04	37.45
472.22	25.75
472.40	74.90
472.58	58.51
472.77	44.47
472.95	4.68
473.13	49.15
473.31	11.70
473.49	56.17
473.67	102.98
473.85	84.26
474.03	58.51
474.21	86.60
474.39	56.17
474.57	86.60
474.75	46.81
474.93	32.77
475.12	56.17
475.30	4.68
475.48	7.02
475.66	49.15
475.84	2.34
476.02	91.28
476.20	0.00
476.38	53.83
476.56	110.01
476.74	98.30
476.92	56.17
477.10	30.43
477.28	112.35
477.46	91.28
477.64	72.56
477.82	11.70
478.00	35.11
478.18	58.51
478.36	35.11
478.54	14.04
478.72	67.88
478.90	65.54
479.08	25.75
479.26	91.28
479.44	39.79
479.62	53.83
479.80	86.60
479.98	58.51
480.16	42.13
480.34	30.43
480.52	79.58
480.70	37.45
480.88	16.38
481.06	0.00
481.24	44.47
481.41	77.24
481.59	35.11
481.77	65.54
481.95	37.45
482.13	0.00
482.31	23.41
482.49	42.13
482.67	79.58
482.85	23.41
483.03	72.56
483.21	11.70
483.39	51.49
483.57	28.09
483.74	84.26
483.92	79.58
484.10	25.75
484.28	74.90
484.46	58.51
484.64	0.00
484.82	14.04
485.00	42.13
485.18	0.00
485.35	35.11
485.53	2.34
485.71	86.60
485.89	35.11
486.07	35.11
486.25	60.85
486.43	53.83
486.61	53.83
486.78	46.81
486.96	42.13
487.14	56.17
487.32	25.75
487.50	21.06
487.68	126.39
487.85	9.36
488.03	0.00
488.21	51.49
488.39	74.90
488.57	9.36
488.75	49.15
488.92	74.90
489.10	72.56
489.28	81.92
489.46	11.70
489.64	42.13
489.81	39.79
489.99	77.24
490.17	32.77
490.35	67.88
490.53	56.17
490.70	0.00
490.88	21.06
491.06	44.47
491.24	67.88
491.41	84.26
491.59	91.28
491.77	56.17
491.95	74.90
492.13	21.06
492.30	93.62
492.48	58.51
492.66	0.00
492.84	42.13
493.01	42.13
493.19	0.00
493.37	91.28
493.54	18.72
493.72	51.49
493.90	0.00
494.08	77.24
494.25	95.96
494.43	0.00
494.61	21.06
494.79	35.11
494.96	0.00
495.14	39.79
495.32	63.19
495.49	88.94
495.67	77.24
495.85	67.88
496.02	11.70
496.20	77.24
496.38	44.47
496.55	0.00
496.73	11.70
496.91	7.02
497.09	51.49
497.26	30.43
497.44	0.00
497.62	21.06
497.79	16.38
497.97	30.43
498.14	79.58
498.32	11.70
498.50	67.88
498.67	65.54
498.85	63.19
499.03	117.03
499.20	32.77
499.38	49.15
499.56	0.00
499.73	53.83
499.91	23.41
500.08	0.00
500.26	14.04
500.44	95.96
500.61	25.75
500.79	56.17
500.97	39.79
501.14	93.62
501.32	117.03
501.49	30.43
501.67	58.51
501.84	74.90
502.02	112.35
502.20	39.79
502.37	18.72
502.55	79.58
502.72	60.85
502.90	86.60
503.07	39.79
503.25	32.77
503.43	28.09
503.60	42.13
503.78	39.79
503.95	63.19
504.13	35.11
504.30	98.30
504.48	110.01
504.65	0.00
504.83	107.66
505.01	0.00
505.18	95.96
505.36	70.22
505.53	0.00
505.71	21.06
505.88	51.49
506.06	77.24
506.23	35.11
506.41	2.34
506.58	56.17
506.76	98.30
506.93	44.47
507.11	51.49
507.28	0.00
507.46	35.11
507.63	112.35
507.81	77.24
507.98	65.54
508.16	142.77
508.33	67.88
508.50	21.06
508.68	32.77
508.85	42.13
509.03	74.90
509.20	32.77
509.38	37.45
509.55	65.54
509.73	51.49
509.90	14.04
510.08	0.00
510.25	39.79
510.42	117.03
510.60	18.72
510.77	44.47
510.95	117.03
511.12	74.90
511.30	60.85
511.47	30.43
511.64	35.11
511.82	126.39
511.99	91.28
512.17	53.83
512.34	0.00
512.51	46.81
512.69	65.54
512.86	91.28
513.04	44.47
513.21	49.15
513.38	67.88
513.56	42.13
513.73	30.43
513.90	72.56
514.08	37.45
514.25	67.88
514.43	0.00
514.60	46.81
514.77	0.00
514.95	0.00
515.12	28.09
515.29	35.11
515.47	30.43
515.64	56.17
515.81	7.02
515.99	81.92
516.16	0.00
516.33	9.36
516.51	0.00
516.68	30.43
516.85	91.28
517.03	58.51
517.20	14.04
517.37	51.49
517.54	0.00
517.72	18.72
517.89	49.15
518.06	44.47
518.24	126.39
518.41	0.00
518.58	2.34
518.75	49.15
518.93	60.85
519.10	37.45
519.27	107.66
519.45	100.64
519.62	81.92
519.79	0.00
519.96	58.51
520.14	0.00
520.31	79.58
520.48	53.83
520.65	0.00
520.83	49.15
521.00	65.54
521.17	46.81
521.34	51.49
521.52	4.68
521.69	81.92
521.86	7.02
522.03	25.75
522.20	0.00
522.38	0.00
522.55	37.45
522.72	0.00
522.89	23.41
523.07	124.05
523.24	102.98
523.41	107.66
523.58	58.51
523.75	18.72
523.92	74.90
524.10	39.79
524.27	49.15
524.44	0.00
524.61	112.35
524.78	39.79
524.96	67.88
525.13	53.83
525.30	23.41
525.47	67.88
525.64	11.70
525.81	77.24
525.98	28.09
526.16	63.19
526.33	0.00
526.50	4.68
526.67	16.38
526.84	0.00
527.01	77.24
527.18	28.09
527.36	28.09
527.53	65.54
527.70	2.34
527.87	84.26
528.04	0.00
528.21	0.00
528.38	86.60
528.55	14.04
528.72	46.81
528.89	44.47
529.07	0.00
529.24	0.00
529.41	0.00
529.58	77.24
529.75	28.09
529.92	0.00
530.09	84.26
530.26	23.41
530.43	11.70
530.60	23.41
530.77	30.43
530.94	39.79
531.11	2.34
531.28	51.49
531.46	11.70
531.63	0.00
531.80	88.94
531.97	51.49
532.14	46.81
532.31	30.43
532.48	37.45
532.65	0.00
532.82	81.92
532.99	30.43
533.16	56.17
533.33	95.96
533.50	65.54
533.67	95.96
533.84	98.30
534.01	51.49
534.18	44.47
534.35	25.75
534.52	37.45
534.69	25.75
534.86	49.15
535.03	49.15
535.20	60.85
535.37	98.30
535.54	9.36
535.71	49.15
535.88	86.60
536.05	2.34
536.22	114.69
536.38	53.83
536.55	42.13
536.72	21.06
536.89	84.26
537.06	0.00
537.23	0.00
537.40	18.72
537.57	37.45
537.74	46.81
537.91	46.81
538.08	65.54
538.25	25.75
538.42	21.06
538.59	32.77
538.75	39.79
538.92	23.41
539.09	0.00
539.26	81.92
539.43	117.03
539.60	51.49
539.77	14.04
539.94	37.45
540.11	14.04
540.28	60.85
540.44	110.01
540.61	65.54
540.78	121.71
540.95	14.04
541.12	72.56
541.29	74.90
541.46	35.11
541.62	35.11
541.79	7.02
541.96	74.90
542.13	0.00
542.30	86.60
542.47	53.83
542.63	79.58
542.80	30.43
542.97	65.54
543.14	46.81
543.31	51.49
543.48	56.17
543.64	23.41
543.81	11.70
543.98	25.75
544.15	0.00
544.32	0.00
544.48	102.98
544.65	72.56
544.82	67.88
544.99	102.98
545.16	77.24
545.32	63.19
545.49	67.88
545.66	42.13
545.83	105.32
546.00	72.56
546.16	72.56
546.33	95.96
546.50	39.79
546.67	65.54
546.83	60.85
547.00	98.30
547.17	32.77
547.34	63.19
547.50	0.00
547.67	100.64
547.84	4.68
548.00	117.03
548.17	124.05
548.34	65.54
548.51	46.81
548.67	49.15
548.84	39.79
549.01	107.66
549.18	32.77
549.34	63.19
549.51	21.06
549.68	67.88
549.84	121.71
550.01	56.17
550.18	93.62
550.34	74.90
550.51	81.92
550.68	44.47
550.84	91.28
551.01	60.85
551.18	0.00
551.34	46.81
551.51	84.26
551.68	32.77
551.84	32.77
552.01	44.47
552.18	4.68
552.34	39.79
552.51	117.03
552.68	0.00
552.84	32.77
553.01	58.51
553.18	28.09
553.34	51.49
553.51	35.11
553.67	35.11
553.84	35.11
554.01	77.24
554.17	121.71
554.34	79.58
554.51	23.41
554.67	107.66
554.84	70.22
555.00	16.38
555.17	70.22
555.33	152.13
555.50	126.39
555.67	44.47
555.83	0.00
556.00	121.71
556.16	49.15
556.33	65.54
556.50	23.41
556.66	53.83
556.83	49.15
556.99	37.45
557.16	67.88
557.32	102.98
557.49	46.81
557.65	42.13
557.82	11.70
557.98	65.54
558.15	98.30
558.32	51.49
558.48	14.04
558.65	86.60
558.81	60.85
558.98	98.30
559.14	23.41
559.31	124.05
559.47	42.13
559.64	14.04
559.80	0.00
559.97	107.66
560.13	100.64
560.30	60.85
560.46	23.41
560.63	44.47
560.79	37.45
560.96	44.47
561.12	81.92
561.29	23.41
561.45	42.13
561.61	46.81
561.78	42.13
561.94	46.81
562.11	86.60
562.27	23.41
562.44	28.09
562.60	0.00
562.77	72.56
562.93	32.77
563.10	91.28
563.26	30.43
563.42	67.88
563.59	49.15
563.75	46.81
563.92	49.15
564.08	60.85
564.24	72.56
564.41	105.32
564.57	23.41
564.74	84.26
564.90	60.85
565.07	79.58
565.23	0.00
565.39	51.49
565.56	72.56
565.72	4.68
565.88	4.68
566.05	44.47
566.21	25.75
566.38	65.54
566.54	11.70
566.70	25.75
566.87	37.45
567.03	51.49
567.19	58.51
567.36	32.77
567.52	42.13
567.68	16.38
567.85	46.81
568.01	88.94
568.17	7.02
568.34	0.00
568.50	93.62
568.66	28.09
568.83	30.43
568.99	74.90
569.15	46.81
569.32	37.45
569.48	39.79
569.64	51.49
569.81	49.15
569.97	84.26
570.13	79.58
570.30	14.04
570.46	39.79
570.62	65.54
570.78	65.54
570.95	21.06
571.11	44.47
571.27	28.09
571.43	11.70
571.60	67.88
571.76	0.00
571.92	32.77
572.09	56.17
572.25	49.15
572.41	23.41
572.57	0.00
572.74	84.26
572.90	79.58
573.06	11.70
573.22	51.49
573.38	0.00
573.55	14.04
573.71	16.38
573.87	84.26
574.03	100.64
574.20	0.00
574.36	51.49
574.52	67.88
574.68	79.58
574.84	39.79
575.01	70.22
575.17	126.39
575.33	86.60
575.49	11.70
575.65	18.72
575.82	25.75
575.98	107.66
576.14	30.43
576.30	30.43
576.46	0.00
576.62	58.51
576.79	18.72
576.95	93.62
577.11	32.77
577.27	11.70
577.43	81.92
577.59	60.85
577.75	58.51
577.92	110.01
578.08	44.47
578.24	46.81
578.40	70.22
578.56	0.00
578.72	0.00
578.88	133.41
579.04	72.56
579.21	88.94
579.37	67.88
579.53	0.00
579.69	84.26
579.85	23.41
580.01	58.51
580.17	98.30
580.33	11.70
580.49	60.85
580.65	63.19
580.82	2.34
580.98	0.00
581.14	4.68
581.30	4.68
581.46	63.19
581.62	16.38
581.78	23.41
581.94	18.72
582.10	42.13
582.26	35.11
582.42	58.51
582.58	56.17
582.74	58.51
582.90	32.77
583.06	93.62
583.22	88.94
583.38	28.09
583.54	18.72
583.70	0.00
583.86	93.62
584.02	0.00
584.18	0.00
584.34	84.26
584.50	60.85
584.66	42.13
584.82	4.68
584.98	35.11
585.14	39.79
585.30	4.68
585.46	121.71
585.62	32.77
585.78	39.79
585.94	60.85
586.10	2.34
586.26	72.56
586.42	0.00
586.58	0.00
586.74	93.62
586.90	35.11
587.06	37.45
587.22	72.56
587.38	35.11
587.54	58.51
587.70	0.00
587.86	95.96
588.02	70.22
588.18	9.36
588.34	28.09
588.49	53.83
588.65	14.04
588.81	32.77
588.97	49.15
589.13	53.83
589.29	63.19
589.45	51.49
589.61	53.83
589.77	65.54
589.93	25.75
590.08	21.06
590.24	4.68
590.40	86.60
590.56	53.83
590.72	51.49
590.88	60.85
591.04	91.28
591.20	11.70
591.35	0.00
591.51	65.54
591.67	88.94
591.83	107.66
591.99	0.00
592.15	67.88
592.31	81.92
592.46	23.41
592.62	56.17
592.78	79.58
592.94	39.79
593.10	72.56
593.26	39.79
593.41	35.11
593.57	93.62
593.73	110.01
593.89	18.72
594.05	25.75
594.20	0.00
594.36	112.35
594.52	95.96
594.68	0.00
594.84	30.43
594.99	46.81
595.15	14.04
595.31	74.90
595.47	51.49
595.62	107.66
595.78	0.00
595.94	32.77
596.10	21.06
596.25	65.54
596.41	37.45
596.57	18.72
596.73	28.09
596.88	121.71
597.04	102.98
597.20	0.00
597.36	53.83
597.51	51.49
597.67	14.04
597.83	9.36
597.99	28.09
598.14	77.24
598.30	14.04
598.46	67.88
598.61	9.36
598.77	0.00
598.93	39.79
599.09	44.47
599.24	79.58
599.40	84.26
599.56	84.26
599.71	81.92
599.87	0.00
600.03	14.04
600.18	14.04
600.34	58.51
600.50	42.13
600.65	46.81
600.81	51.49
600.97	30.43
601.12	95.96
601.28	7.02
601.44	7.02
601.59	79.58
601.75	25.75
601.91	79.58
602.06	0.00
602.22	46.81
602.37	114.69
602.53	46.81
602.69	39.79
602.84	16.38
603.00	53.83
603.16	100.64
603.31	0.00
603.47	114.69
603.62	79.58
603.78	0.00
603.94	21.06
604.09	51.49
604.25	42.13
604.40	7.02
604.56	67.88
604.71	42.13
604.87	74.90
605.03	53.83
605.18	14.04
605.34	37.45
605.49	65.54
605.65	84.26
605.80	39.79
605.96	51.49
606.12	86.60
606.27	11.70
606.43	0.00
606.58	65.54
606.74	4.68
606.89	79.58
607.05	86.60
607.20	84.26
607.36	11.70
607.51	0.00
607.67	0.00
607.82	58.51
607.98	60.85
608.13	79.58
608.29	79.58
608.44	67.88
608.60	98.30
608.75	7.02
608.91	95.96
609.06	4.68
609.22	18.72
609.37	46.81
609.53	23.41
609.68	7.02
609.84	133.41
609.99	95.96
610.15	74.90
610.30	74.90
610.46	35.11
610.61	67.88
610.76	18.72
610.92	56.17
611.07	56.17
611.23	0.00
611.38	35.11
611.54	46.81
611.69	0.00
611.84	46.81
612.00	37.45
612.15	128.73
612.31	72.56
612.46	9.36
612.62	128.73
612.77	14.04
612.92	72.56
613.08	18.72
613.23	42.13
613.39	18.72
613.54	0.00
613.69	79.58
613.85	39.79
614.00	70.22
614.15	93.62
614.31	0.00
614.46	0.00
614.62	0.00
614.77	16.38
614.92	0.00
615.08	42.13
615.23	93.62
615.38	91.28
615.54	86.60
615.69	42.13
615.84	63.19
616.00	65.54
616.15	110.01
616.30	95.96
616.46	81.92
616.61	23.41
616.76	74.90
616.92	39.79
617.07	74.90
617.22	0.00
617.37	37.45
617.53	100.64
617.68	11.70
617.83	32.77
617.99	14.04
618.14	4.68
618.29	11.70
618.45	0.00
618.60	42.13
618.75	0.00
618.90	84.26
619.06	112.35
619.21	56.17
619.36	39.79
619.51	56.17
619.67	44.47
619.82	28.09
619.97	14.04
620.12	51.49
620.28	53.83
620.43	56.17
620.58	9.36
620.73	74.90
620.89	39.79
621.04	32.77
621.19	49.15
621.34	37.45
621.49	81.92
621.65	0.00
621.80	32.77
621.95	37.45
622.10	35.11
622.25	35.11
622.41	70.22
622.56	0.00
622.71	0.00
622.86	11.70
623.01	35.11
623.16	70.22
623.32	28.09
623.47	18.72
623.62	37.45
623.77	67.88
623.92	53.83
624.07	0.00
624.23	49.15
624.38	102.98
624.53	51.49
624.68	84.26
624.83	14.04
624.98	16.38
625.13	0.00
625.29	21.06
625.44	117.03
625.59	46.81
625.74	46.81
625.89	0.00
626.04	0.00
626.19	65.54
626.34	70.22
626.49	35.11
626.65	70.22
626.80	18.72
626.95	42.13
627.10	32.77
627.25	0.00
627.40	39.79
627.55	18.72
627.70	21.06
627.85	25.75
628.00	9.36
628.15	44.47
628.30	147.45
628.45	79.58
628.60	67.88
628.76	56.17
628.91	28.09
629.06	21.06
629.21	58.51
629.36	39.79
629.51	35.11
629.66	56.17
629.81	35.11
629.96	25.75
630.11	95.96
630.26	28.09
630.41	0.00
630.56	2.34
630.71	114.69
630.86	30.43
631.01	79.58
631.16	32.77
631.31	51.49
631.46	72.56
631.61	16.38
631.76	25.75
631.91	67.88
632.06	58.51
632.21	67.88
632.36	60.85
632.51	18.72
632.66	77.24
632.81	60.85
632.96	0.00
633.10	84.26
633.25	79.58
633.40	79.58
633.55	32.77
633.70	30.43
633.85	72.56
634.00	67.88
634.15	0.00
634.30	65.54
634.45	63.19
634.60	32.77
634.75	42.13
634.90	0.00
635.05	37.45
635.19	9.36
635.34	77.24
635.49	32.77
635.64	60.85
635.79	9.36
635.94	74.90
636.09	77.24
636.24	39.79
636.39	0.00
636.53	72.56
636.68	32.77
636.83	0.00
636.98	53.83
637.13	49.15
637.28	88.94
637.43	49.15
637.57	91.28
637.72	42.13
637.87	84.26
638.02	91.28
638.17	25.75
638.32	32.77
638.46	9.36
638.61	2.34
638.76	98.30
638.91	2.34
639.06	39.79
639.20	35.11
639.35	32.77
639.50	9.36
639.65	60.85
639.80	37.45
639.94	39.79
640.09	46.81
640.24	37.45
640.39	70.22
640.54	18.72
640.68	9.36
640.83	21.06
640.98	63.19
641.13	53.83
641.27	51.49
641.42	65.54
641.57	4.68
641.72	14.04
641.86	0.00
642.01	0.00
642.16	46.81
642.31	7.02
642.45	63.19
642.60	51.49
642.75	9.36
642.90	23.41
643.04	65.54
643.19	67.88
643.34	16.38
643.48	95.96
643.63	100.64
643.78	14.04
643.93	53.83
644.07	37.45
644.22	44.47
644.37	138.09
644.51	67.88
644.66	56.17
644.81	16.38
644.95	60.85
645.10	30.43
645.25	37.45
645.39	11.70
645.54	35.11
645.69	51.49
645.83	46.81
645.98	51.49
646.13	93.62
646.27	0.00
646.42	0.00
646.57	60.85
646.71	28.09
646.86	81.92
647.00	88.94
647.15	30.43
647.30	42.13
647.44	46.81
647.59	0.00
647.74	0.00
647.88	70.22
648.03	72.56
648.17	42.13
648.32	58.51
648.47	128.73
648.61	25.75
648.76	46.81
648.90	67.88
649.05	21.06
649.20	18.72
649.34	4.68
649.49	0.00
649.63	11.70
649.78	35.11
649.92	0.00
650.07	46.81
650.21	11.70
650.36	21.06
650.51	79.58
650.65	25.75
650.80	44.47
650.94	23.41
651.09	46.81
651.23	79.58
651.38	53.83
651.52	70.22
651.67	74.90
651.81	79.58
651.96	9.36
652.10	93.62
652.25	23.41
652.39	70.22
652.54	35.11
652.68	77.24
652.83	63.19
652.97	51.49
653.12	32.77
653.26	93.62
653.41	9.36
653.55	58.51
653.70	0.00
653.84	0.00
653.99	0.00
654.13	44.47
654.27	72.56
654.42	30.43
654.56	7.02
654.71	14.04
654.85	2.34
655.00	0.00
655.14	0.00
655.29	0.00
655.43	51.49
655.57	0.00
655.72	44.47
655.86	0.00
656.01	51.49
656.15	46.81
656.30	65.54
656.44	81.92
656.58	21.06
656.73	21.06
656.87	35.11
657.01	67.88
657.16	100.64
657.30	53.83
657.45	44.47
657.59	14.04
657.73	23.41
657.88	44.47
658.02	105.32
658.16	35.11
658.31	11.70
658.45	0.00
658.60	23.41
658.74	11.70
658.88	46.81
659.03	49.15
659.17	23.41
659.31	0.00
659.46	102.98
659.60	44.47
659.74	46.81
659.89	49.15
660.03	79.58
660.17	105.32
660.32	42.13
660.46	81.92
660.60	11.70
660.74	21.06
660.89	51.49
661.03	18.72
661.17	53.83
661.32	49.15
661.46	4.68
661.60	25.75
661.74	0.00
661.89	0.00
662.03	23.41
662.17	39.79
662.31	35.11
662.46	16.38
662.60	56.17
662.74	46.81
662.88	25.75
663.03	32.77
663.17	0.00
663.31	65.54
663.45	7.02
663.60	0.00
663.74	67.88
663.88	56.17
664.02	23.41
664.17	0.00
664.31	51.49
664.45	0.00
664.59	0.00
664.73	119.37
664.88	117.03
665.02	74.90
665.16	23.41
665.30	44.47
665.44	60.85
665.59	0.00
665.73	4.68
665.87	58.51
666.01	39.79
666.15	0.00
666.29	0.00
666.44	21.06
666.58	49.15
666.72	0.00
666.86	0.00
667.00	39.79
667.14	14.04
667.28	46.81
667.43	44.47
667.57	58.51
667.71	25.75
667.85	53.83
667.99	21.06
668.13	56.17
668.27	4.68
668.41	2.34
668.56	0.00
668.70	65.54
668.84	91.28
668.98	81.92
669.12	0.00
669.26	35.11
669.40	53.83
669.54	42.13
669.68	32.77
669.82	23.41
669.96	14.04
670.10	86.60
670.25	39.79
670.39	0.00
670.53	63.19
670.67	67.88
670.81	0.00
670.95	2.34
671.09	39.79
671.23	46.81
671.37	0.00
671.51	23.41
671.65	18.72
671.79	44.47
671.93	0.00
672.07	51.49
672.21	35.11
672.35	51.49
672.49	93.62
672.63	30.43
672.77	44.47
672.91	16.38
673.05	42.13
673.19	11.70
673.33	44.47
673.47	60.85
673.61	58.51
673.75	63.19
673.89	44.47
674.03	60.85
674.17	0.00
674.31	0.00
674.45	42.13
674.59	65.54
674.73	58.51
674.87	72.56
675.01	67.88
675.15	0.00
675.29	65.54
675.43	11.70
675.56	14.04
675.70	112.35
675.84	0.00
675.98	32.77
676.12	51.49
676.26	39.79
676.40	9.36
676.54	9.36
676.68	32.77
676.82	28.09
676.96	44.47
677.10	81.92
677.23	0.00
677.37	32.77
677.51	56.17
677.65	56.17
677.79	23.41
677.93	67.88
678.07	0.00
678.21	7.02
678.34	16.38
678.48	0.00
678.62	0.00
678.76	84.26
678.90	65.54
679.04	0.00
679.18	11.70
679.31	70.22
679.45	9.36
679.59	35.11
679.73	0.00
679.87	16.38
680.00	0.00
680.14	74.90
680.28	102.98
680.42	81.92
680.56	0.00
680.70	86.60
680.83	70.22
680.97	46.81
681.11	67.88
681.25	0.00
681.39	30.43
681.52	79.58
681.66	100.64
681.80	77.24
681.94	63.19
682.07	56.17
682.21	44.47
682.35	21.06
682.49	23.41
682.62	0.00
682.76	28.09
682.90	21.06
683.04	65.54
683.17	86.60
683.31	84.26
683.45	88.94
683.59	39.79
683.72	65.54
683.86	98.30
684.00	74.90
684.13	51.49
684.27	46.81
684.41	0.00
684.55	0.00
684.68	51.49
684.82	37.45
684.96	44.47
685.09	0.00
685.23	7.02
685.37	42.13
685.50	16.38
685.64	63.19
685.78	32.77
685.91	42.13
686.05	28.09
686.19	63.19
686.32	42.13
686.46	58.51
686.60	25.75
686.73	72.56
686.87	44.47
687.01	0.00
687.14	35.11
687.28	51.49
687.42	44.47
687.55	67.88
687.69	30.43
687.82	11.70
687.96	53.83
688.10	105.32
688.23	56.17
688.37	70.22
688.50	46.81
688.64	37.45
688.78	65.54
688.91	44.47
689.05	74.90
689.18	44.47
689.32	93.62
689.46	39.79
689.59	51.49
689.73	37.45
689.86	14.04
690.00	35.11
690.13	58.51
690.27	49.15
690.41	0.00
690.54	70.22
690.68	25.75
690.81	21.06
690.95	9.36
691.08	42.13
691.22	30.43
691.35	4.68
691.49	0.00
691.62	0.00
691.76	0.00
691.89	23.41
692.03	65.54
692.16	67.88
692.30	0.00
692.43	46.81
692.57	51.49
692.70	7.02
692.84	30.43
692.97	46.81
693.11	53.83
693.24	14.04
693.38	0.00
693.51	28.09
693.65	4.68
693.78	91.28
693.92	37.45
694.05	11.70
694.19	60.85
694.32	4.68
694.45	28.09
694.59	11.70
694.72	35.11
694.86	0.00
694.99	2.34
695.13	0.00
695.26	46.81
695.39	18.72
695.53	51.49
695.66	91.28
695.80	53.83
695.93	93.62
696.07	0.00
696.20	60.85
696.33	18.72
696.47	39.79
696.60	67.88
696.73	0.00
696.87	7.02
697.00	46.81
697.14	53.83
697.27	56.17
697.40	25.75
697.54	65.54
697.67	98.30
697.80	56.17
697.94	46.81
698.07	44.47
698.21	37.45
698.34	21.06
698.47	0.00
698.61	0.00
698.74	0.00
698.87	72.56
699.01	11.70
699.14	60.85
699.27	65.54
699.40	2.34
699.54	49.15
699.67	9.36
699.80	70.22
699.94	18.72
700.07	91.28
700.20	56.17
700.34	105.32
700.47	0.00
700.60	56.17
700.73	74.90
700.87	39.79
701.00	42.13
701.13	70.22
701.26	23.41
701.40	11.70
701.53	0.00
701.66	58.51
701.79	37.45
701.93	25.75
702.06	39.79
702.19	32.77
702.32	0.00
702.46	18.72
702.59	58.51
702.72	0.00
702.85	14.04
702.99	7.02
703.12	9.36
703.25	30.43
703.38	7.02
703.51	58.51
703.65	44.47
703.78	18.72
703.91	49.15
704.04	65.54
704.17	18.72
704.31	16.38
704.44	37.45
704.57	58.51
704.70	100.64
704.83	56.17
704.96	46.81
705.10	7.02
705.23	7.02
>>>>>End Processed Spectral Data<<<<<
