SpectraSuite Data File
++++++++++++++++++++++++++++++++++++
Date: Fri Oct 04 12:13:25 GMT-05:00 2013
User: price-jones
Dark Spectrum Present: No
Reference Spectrum Present: No
Number of Sampled Component Spectra: 1
Spectrometers: USB2+H05261
Integration Time (usec): 10000 (USB2+H05261)
Spectra Averaged: 1 (USB2+H05261)
Boxcar Smoothing: 0 (USB2+H05261)
Correct for Electrical Dark: No (USB2+H05261)
Strobe/Lamp Enabled: No (USB2+H05261)
Correct for Detector Non-linearity: No (USB2+H05261)
Correct for Stray Light: No (USB2+H05261)
Number of Pixels in Processed Spectrum: 2048
>>>>>Begin Processed Spectral Data<<<<<
365.73	0.00
365.92	0.00
366.12	0.00
366.32	0.00
366.52	0.00
366.72	0.00
366.91	0.00
367.11	0.00
367.31	0.00
367.51	0.00
367.70	0.00
367.90	0.00
368.10	0.00
368.30	0.00
368.49	0.00
368.69	0.00
368.89	0.00
369.09	0.00
369.28	0.00
369.48	0.00
369.68	0.00
369.87	0.00
370.07	0.00
370.27	0.00
370.47	0.00
370.66	0.00
370.86	0.00
371.06	0.00
371.25	0.00
371.45	0.00
371.65	0.00
371.84	0.00
372.04	7.02
372.24	0.00
372.44	0.00
372.63	0.00
372.83	18.72
373.03	4.68
373.22	0.00
373.42	51.49
373.62	0.00
373.81	23.41
374.01	77.24
374.21	37.45
374.40	0.00
374.60	25.75
374.79	37.45
374.99	67.88
375.19	39.79
375.38	0.00
375.58	21.06
375.78	23.41
375.97	9.36
376.17	0.00
376.37	30.43
376.56	0.00
376.76	28.09
376.95	0.00
377.15	4.68
377.35	0.00
377.54	67.88
377.74	7.02
377.93	4.68
378.13	18.72
378.33	121.71
378.52	0.00
378.72	0.00
378.91	30.43
379.11	0.00
379.31	0.00
379.50	65.54
379.70	14.04
379.89	0.00
380.09	39.79
380.28	23.41
380.48	53.83
380.68	0.00
380.87	16.38
381.07	18.72
381.26	0.00
381.46	37.45
381.65	32.77
381.85	0.00
382.04	35.11
382.24	9.36
382.43	0.00
382.63	32.77
382.83	0.00
383.02	0.00
383.22	58.51
383.41	70.22
383.61	0.00
383.80	65.54
384.00	37.45
384.19	46.81
384.39	0.00
384.58	0.00
384.78	7.02
384.97	23.41
385.17	37.45
385.36	2.34
385.56	60.85
385.75	49.15
385.95	0.00
386.14	30.43
386.34	39.79
386.53	0.00
386.72	23.41
386.92	0.00
387.11	67.88
387.31	14.04
387.50	4.68
387.70	11.70
387.89	63.19
388.09	91.28
388.28	39.79
388.48	0.00
388.67	0.00
388.86	11.70
389.06	9.36
389.25	0.00
389.45	0.00
389.64	2.34
389.84	11.70
390.03	0.00
390.22	56.17
390.42	11.70
390.61	42.13
390.81	44.47
391.00	23.41
391.19	79.58
391.39	4.68
391.58	0.00
391.78	0.00
391.97	16.38
392.16	0.00
392.36	51.49
392.55	11.70
392.75	49.15
392.94	37.45
393.13	49.15
393.33	74.90
393.52	9.36
393.71	0.00
393.91	56.17
394.10	11.70
394.29	32.77
394.49	0.00
394.68	7.02
394.88	21.06
395.07	0.00
395.26	0.00
395.46	0.00
395.65	37.45
395.84	39.79
396.04	79.58
396.23	7.02
396.42	0.00
396.62	0.00
396.81	79.58
397.00	0.00
397.19	18.72
397.39	44.47
397.58	37.45
397.77	32.77
397.97	37.45
398.16	0.00
398.35	0.00
398.55	98.30
398.74	0.00
398.93	21.06
399.12	37.45
399.32	0.00
399.51	70.22
399.70	37.45
399.90	0.00
400.09	44.47
400.28	32.77
400.47	7.02
400.67	79.58
400.86	51.49
401.05	105.32
401.24	16.38
401.44	28.09
401.63	0.00
401.82	44.47
402.01	25.75
402.21	117.03
402.40	42.13
402.59	18.72
402.78	0.00
402.97	0.00
403.17	16.38
403.36	0.00
403.55	0.00
403.74	35.11
403.93	7.02
404.13	46.81
404.32	23.41
404.51	0.00
404.70	0.00
404.89	0.00
405.09	0.00
405.28	0.00
405.47	14.04
405.66	16.38
405.85	56.17
406.05	28.09
406.24	0.00
406.43	0.00
406.62	0.00
406.81	23.41
407.00	0.00
407.20	70.22
407.39	67.88
407.58	0.00
407.77	0.00
407.96	14.04
408.15	53.83
408.34	84.26
408.54	35.11
408.73	0.00
408.92	0.00
409.11	25.75
409.30	166.18
409.49	28.09
409.68	72.56
409.87	4.68
410.07	65.54
410.26	49.15
410.45	72.56
410.64	0.00
410.83	9.36
411.02	70.22
411.21	16.38
411.40	42.13
411.59	14.04
411.78	0.00
411.98	25.75
412.17	42.13
412.36	0.00
412.55	0.00
412.74	46.81
412.93	35.11
413.12	0.00
413.31	86.60
413.50	14.04
413.69	9.36
413.88	16.38
414.07	42.13
414.26	72.56
414.45	0.00
414.64	81.92
414.83	0.00
415.02	0.00
415.22	30.43
415.41	44.47
415.60	105.32
415.79	44.47
415.98	60.85
416.17	39.79
416.36	9.36
416.55	11.70
416.74	0.00
416.93	2.34
417.12	0.00
417.31	0.00
417.50	37.45
417.69	16.38
417.88	84.26
418.07	4.68
418.26	42.13
418.45	95.96
418.64	25.75
418.83	14.04
419.02	0.00
419.21	11.70
419.39	79.58
419.58	0.00
419.77	39.79
419.96	0.00
420.15	28.09
420.34	0.00
420.53	32.77
420.72	32.77
420.91	124.05
421.10	23.41
421.29	44.47
421.48	0.00
421.67	77.24
421.86	56.17
422.05	63.19
422.24	9.36
422.43	42.13
422.61	42.13
422.80	63.19
422.99	42.13
423.18	23.41
423.37	37.45
423.56	72.56
423.75	16.38
423.94	11.70
424.13	37.45
424.32	135.75
424.50	65.54
424.69	16.38
424.88	4.68
425.07	0.00
425.26	35.11
425.45	84.26
425.64	63.19
425.83	112.35
426.01	11.70
426.20	32.77
426.39	11.70
426.58	9.36
426.77	21.06
426.96	32.77
427.15	49.15
427.33	11.70
427.52	58.51
427.71	0.00
427.90	25.75
428.09	21.06
428.28	0.00
428.46	42.13
428.65	28.09
428.84	65.54
429.03	35.11
429.22	42.13
429.40	7.02
429.59	46.81
429.78	42.13
429.97	67.88
430.16	21.06
430.34	51.49
430.53	0.00
430.72	98.30
430.91	0.00
431.10	70.22
431.28	30.43
431.47	53.83
431.66	0.00
431.85	79.58
432.03	23.41
432.22	98.30
432.41	0.00
432.60	0.00
432.79	131.07
432.97	0.00
433.16	0.00
433.35	35.11
433.54	16.38
433.72	72.56
433.91	9.36
434.10	37.45
434.28	0.00
434.47	70.22
434.66	70.22
434.85	63.19
435.03	56.17
435.22	21.06
435.41	84.26
435.59	16.38
435.78	35.11
435.97	0.00
436.16	0.00
436.34	16.38
436.53	56.17
436.72	16.38
436.90	0.00
437.09	7.02
437.28	65.54
437.46	0.00
437.65	98.30
437.84	18.72
438.02	60.85
438.21	28.09
438.40	42.13
438.58	14.04
438.77	0.00
438.96	42.13
439.14	56.17
439.33	32.77
439.52	21.06
439.70	0.00
439.89	0.00
440.08	49.15
440.26	16.38
440.45	23.41
440.63	30.43
440.82	0.00
441.01	11.70
441.19	4.68
441.38	53.83
441.57	0.00
441.75	0.00
441.94	124.05
442.12	39.79
442.31	30.43
442.50	0.00
442.68	14.04
442.87	0.00
443.05	42.13
443.24	0.00
443.43	53.83
443.61	23.41
443.80	98.30
443.98	16.38
444.17	30.43
444.35	21.06
444.54	46.81
444.73	25.75
444.91	0.00
445.10	23.41
445.28	51.49
445.47	65.54
445.65	39.79
445.84	28.09
446.02	0.00
446.21	16.38
446.39	0.00
446.58	18.72
446.77	16.38
446.95	67.88
447.14	0.00
447.32	46.81
447.51	39.79
447.69	0.00
447.88	28.09
448.06	51.49
448.25	42.13
448.43	14.04
448.62	4.68
448.80	53.83
448.99	23.41
449.17	4.68
449.36	9.36
449.54	7.02
449.73	0.00
449.91	25.75
450.10	23.41
450.28	81.92
450.46	0.00
450.65	42.13
450.83	95.96
451.02	46.81
451.20	0.00
451.39	0.00
451.57	46.81
451.76	46.81
451.94	65.54
452.13	0.00
452.31	28.09
452.49	25.75
452.68	28.09
452.86	0.00
453.05	88.94
453.23	0.00
453.42	25.75
453.60	0.00
453.78	56.17
453.97	44.47
454.15	4.68
454.34	0.00
454.52	18.72
454.70	49.15
454.89	35.11
455.07	0.00
455.26	11.70
455.44	7.02
455.62	25.75
455.81	49.15
455.99	49.15
456.17	2.34
456.36	7.02
456.54	60.85
456.73	63.19
456.91	16.38
457.09	77.24
457.28	102.98
457.46	44.47
457.64	0.00
457.83	28.09
458.01	0.00
458.19	11.70
458.38	100.64
458.56	37.45
458.74	91.28
458.93	0.00
459.11	44.47
459.29	105.32
459.48	0.00
459.66	0.00
459.84	39.79
460.03	9.36
460.21	39.79
460.39	51.49
460.57	7.02
460.76	25.75
460.94	0.00
461.12	79.58
461.31	35.11
461.49	63.19
461.67	74.90
461.85	95.96
462.04	21.06
462.22	91.28
462.40	51.49
462.59	18.72
462.77	74.90
462.95	0.00
463.13	9.36
463.32	21.06
463.50	28.09
463.68	84.26
463.86	72.56
464.05	65.54
464.23	77.24
464.41	58.51
464.59	56.17
464.78	44.47
464.96	14.04
465.14	42.13
465.32	77.24
465.50	0.00
465.69	60.85
465.87	4.68
466.05	0.00
466.23	7.02
466.41	7.02
466.60	72.56
466.78	4.68
466.96	21.06
467.14	60.85
467.32	77.24
467.51	2.34
467.69	32.77
467.87	81.92
468.05	11.70
468.23	86.60
468.41	60.85
468.60	0.00
468.78	18.72
468.96	4.68
469.14	81.92
469.32	2.34
469.50	67.88
469.69	18.72
469.87	72.56
470.05	18.72
470.23	63.19
470.41	21.06
470.59	28.09
470.77	46.81
470.95	77.24
471.14	53.83
471.32	81.92
471.50	14.04
471.68	0.00
471.86	70.22
472.04	23.41
472.22	0.00
472.40	98.30
472.58	18.72
472.77	16.38
472.95	58.51
473.13	112.35
473.31	93.62
473.49	32.77
473.67	14.04
473.85	18.72
474.03	37.45
474.21	56.17
474.39	65.54
474.57	0.00
474.75	0.00
474.93	7.02
475.12	51.49
475.30	42.13
475.48	21.06
475.66	70.22
475.84	0.00
476.02	46.81
476.20	37.45
476.38	0.00
476.56	67.88
476.74	102.98
476.92	7.02
477.10	0.00
477.28	0.00
477.46	46.81
477.64	65.54
477.82	9.36
478.00	25.75
478.18	0.00
478.36	7.02
478.54	0.00
478.72	9.36
478.90	74.90
479.08	0.00
479.26	21.06
479.44	16.38
479.62	51.49
479.80	4.68
479.98	117.03
480.16	117.03
480.34	0.00
480.52	58.51
480.70	42.13
480.88	11.70
481.06	0.00
481.24	49.15
481.41	25.75
481.59	0.00
481.77	0.00
481.95	121.71
482.13	39.79
482.31	0.00
482.49	63.19
482.67	67.88
482.85	0.00
483.03	39.79
483.21	65.54
483.39	0.00
483.57	11.70
483.74	14.04
483.92	44.47
484.10	70.22
484.28	39.79
484.46	35.11
484.64	117.03
484.82	0.00
485.00	88.94
485.18	9.36
485.35	14.04
485.53	88.94
485.71	102.98
485.89	28.09
486.07	9.36
486.25	77.24
486.43	110.01
486.61	16.38
486.78	0.00
486.96	53.83
487.14	74.90
487.32	18.72
487.50	67.88
487.68	2.34
487.85	35.11
488.03	77.24
488.21	28.09
488.39	0.00
488.57	53.83
488.75	42.13
488.92	88.94
489.10	25.75
489.28	53.83
489.46	81.92
489.64	0.00
489.81	77.24
489.99	70.22
490.17	51.49
490.35	58.51
490.53	77.24
490.70	21.06
490.88	44.47
491.06	44.47
491.24	49.15
491.41	16.38
491.59	70.22
491.77	0.00
491.95	32.77
492.13	0.00
492.30	21.06
492.48	88.94
492.66	39.79
492.84	37.45
493.01	11.70
493.19	0.00
493.37	21.06
493.54	21.06
493.72	35.11
493.90	81.92
494.08	93.62
494.25	67.88
494.43	25.75
494.61	35.11
494.79	35.11
494.96	18.72
495.14	56.17
495.32	63.19
495.49	39.79
495.67	28.09
495.85	53.83
496.02	84.26
496.20	14.04
496.38	0.00
496.55	42.13
496.73	79.58
496.91	37.45
497.09	42.13
497.26	53.83
497.44	67.88
497.62	0.00
497.79	53.83
497.97	16.38
498.14	25.75
498.32	28.09
498.50	2.34
498.67	25.75
498.85	0.00
499.03	84.26
499.20	53.83
499.38	53.83
499.56	0.00
499.73	49.15
499.91	77.24
500.08	18.72
500.26	98.30
500.44	95.96
500.61	23.41
500.79	91.28
500.97	46.81
501.14	93.62
501.32	88.94
501.49	0.00
501.67	44.47
501.84	49.15
502.02	32.77
502.20	9.36
502.37	11.70
502.55	51.49
502.72	23.41
502.90	37.45
503.07	88.94
503.25	25.75
503.43	0.00
503.60	60.85
503.78	32.77
503.95	18.72
504.13	0.00
504.30	0.00
504.48	25.75
504.65	0.00
504.83	2.34
505.01	25.75
505.18	39.79
505.36	56.17
505.53	46.81
505.71	114.69
505.88	88.94
506.06	7.02
506.23	14.04
506.41	0.00
506.58	23.41
506.76	88.94
506.93	9.36
507.11	35.11
507.28	0.00
507.46	28.09
507.63	67.88
507.81	32.77
507.98	44.47
508.16	93.62
508.33	63.19
508.50	95.96
508.68	49.15
508.85	81.92
509.03	56.17
509.20	70.22
509.38	51.49
509.55	81.92
509.73	63.19
509.90	21.06
510.08	0.00
510.25	23.41
510.42	60.85
510.60	51.49
510.77	2.34
510.95	46.81
511.12	28.09
511.30	56.17
511.47	56.17
511.64	37.45
511.82	100.64
511.99	0.00
512.17	30.43
512.34	93.62
512.51	67.88
512.69	23.41
512.86	37.45
513.04	30.43
513.21	23.41
513.38	9.36
513.56	49.15
513.73	86.60
513.90	86.60
514.08	16.38
514.25	35.11
514.43	81.92
514.60	102.98
514.77	28.09
514.95	49.15
515.12	65.54
515.29	114.69
515.47	23.41
515.64	35.11
515.81	63.19
515.99	23.41
516.16	51.49
516.33	21.06
516.51	72.56
516.68	49.15
516.85	0.00
517.03	9.36
517.20	0.00
517.37	32.77
517.54	70.22
517.72	56.17
517.89	30.43
518.06	0.00
518.24	84.26
518.41	11.70
518.58	18.72
518.75	32.77
518.93	86.60
519.10	46.81
519.27	28.09
519.45	60.85
519.62	46.81
519.79	126.39
519.96	79.58
520.14	37.45
520.31	133.41
520.48	0.00
520.65	77.24
520.83	58.51
521.00	4.68
521.17	60.85
521.34	30.43
521.52	28.09
521.69	35.11
521.86	0.00
522.03	56.17
522.20	105.32
522.38	0.00
522.55	79.58
522.72	23.41
522.89	67.88
523.07	53.83
523.24	14.04
523.41	0.00
523.58	7.02
523.75	16.38
523.92	88.94
524.10	63.19
524.27	21.06
524.44	0.00
524.61	100.64
524.78	35.11
524.96	46.81
525.13	110.01
525.30	58.51
525.47	0.00
525.64	18.72
525.81	35.11
525.98	18.72
526.16	0.00
526.33	100.64
526.50	44.47
526.67	35.11
526.84	63.19
527.01	18.72
527.18	0.00
527.36	56.17
527.53	23.41
527.70	32.77
527.87	0.00
528.04	49.15
528.21	0.00
528.38	60.85
528.55	70.22
528.72	7.02
528.89	30.43
529.07	25.75
529.24	42.13
529.41	0.00
529.58	51.49
529.75	39.79
529.92	25.75
530.09	37.45
530.26	105.32
530.43	93.62
530.60	21.06
530.77	42.13
530.94	93.62
531.11	84.26
531.28	0.00
531.46	11.70
531.63	49.15
531.80	100.64
531.97	95.96
532.14	16.38
532.31	42.13
532.48	72.56
532.65	79.58
532.82	25.75
532.99	18.72
533.16	0.00
533.33	16.38
533.50	60.85
533.67	88.94
533.84	74.90
534.01	2.34
534.18	0.00
534.35	14.04
534.52	37.45
534.69	2.34
534.86	67.88
535.03	0.00
535.20	65.54
535.37	53.83
535.54	0.00
535.71	9.36
535.88	4.68
536.05	0.00
536.22	77.24
536.38	4.68
536.55	77.24
536.72	81.92
536.89	72.56
537.06	0.00
537.23	14.04
537.40	7.02
537.57	63.19
537.74	28.09
537.91	100.64
538.08	95.96
538.25	56.17
538.42	60.85
538.59	0.00
538.75	0.00
538.92	0.00
539.09	44.47
539.26	81.92
539.43	0.00
539.60	131.07
539.77	58.51
539.94	46.81
540.11	0.00
540.28	0.00
540.44	18.72
540.61	32.77
540.78	72.56
540.95	7.02
541.12	117.03
541.29	30.43
541.46	32.77
541.62	2.34
541.79	18.72
541.96	58.51
542.13	11.70
542.30	0.00
542.47	7.02
542.63	0.00
542.80	35.11
542.97	0.00
543.14	21.06
543.31	4.68
543.48	7.02
543.64	51.49
543.81	32.77
543.98	107.66
544.15	95.96
544.32	4.68
544.48	14.04
544.65	39.79
544.82	35.11
544.99	46.81
545.16	58.51
545.32	53.83
545.49	7.02
545.66	79.58
545.83	14.04
546.00	56.17
546.16	30.43
546.33	88.94
546.50	35.11
546.67	51.49
546.83	16.38
547.00	53.83
547.17	37.45
547.34	28.09
547.50	30.43
547.67	0.00
547.84	110.01
548.00	37.45
548.17	30.43
548.34	58.51
548.51	53.83
548.67	53.83
548.84	84.26
549.01	44.47
549.18	42.13
549.34	0.00
549.51	32.77
549.68	53.83
549.84	35.11
550.01	30.43
550.18	86.60
550.34	42.13
550.51	0.00
550.68	65.54
550.84	0.00
551.01	9.36
551.18	53.83
551.34	32.77
551.51	72.56
551.68	0.00
551.84	60.85
552.01	65.54
552.18	14.04
552.34	11.70
552.51	56.17
552.68	28.09
552.84	0.00
553.01	0.00
553.18	72.56
553.34	60.85
553.51	0.00
553.67	46.81
553.84	39.79
554.01	88.94
554.17	16.38
554.34	63.19
554.51	32.77
554.67	0.00
554.84	49.15
555.00	37.45
555.17	0.00
555.33	0.00
555.50	32.77
555.67	88.94
555.83	0.00
556.00	28.09
556.16	30.43
556.33	81.92
556.50	30.43
556.66	67.88
556.83	65.54
556.99	16.38
557.16	0.00
557.32	63.19
557.49	88.94
557.65	79.58
557.82	95.96
557.98	42.13
558.15	37.45
558.32	65.54
558.48	9.36
558.65	70.22
558.81	114.69
558.98	35.11
559.14	56.17
559.31	0.00
559.47	102.98
559.64	42.13
559.80	42.13
559.97	0.00
560.13	0.00
560.30	49.15
560.46	44.47
560.63	128.73
560.79	9.36
560.96	65.54
561.12	72.56
561.29	0.00
561.45	107.66
561.61	42.13
561.78	32.77
561.94	53.83
562.11	21.06
562.27	4.68
562.44	72.56
562.60	11.70
562.77	72.56
562.93	7.02
563.10	110.01
563.26	77.24
563.42	2.34
563.59	60.85
563.75	102.98
563.92	67.88
564.08	0.00
564.24	112.35
564.41	98.30
564.57	81.92
564.74	39.79
564.90	58.51
565.07	102.98
565.23	25.75
565.39	114.69
565.56	30.43
565.72	11.70
565.88	37.45
566.05	53.83
566.21	91.28
566.38	53.83
566.54	105.32
566.70	7.02
566.87	58.51
567.03	23.41
567.19	114.69
567.36	7.02
567.52	79.58
567.68	18.72
567.85	65.54
568.01	0.00
568.17	44.47
568.34	0.00
568.50	32.77
568.66	117.03
568.83	11.70
568.99	53.83
569.15	53.83
569.32	86.60
569.48	67.88
569.64	32.77
569.81	84.26
569.97	49.15
570.13	0.00
570.30	46.81
570.46	84.26
570.62	18.72
570.78	16.38
570.95	0.00
571.11	0.00
571.27	23.41
571.43	46.81
571.60	98.30
571.76	84.26
571.92	93.62
572.09	18.72
572.25	72.56
572.41	70.22
572.57	95.96
572.74	110.01
572.90	100.64
573.06	14.04
573.22	21.06
573.38	93.62
573.55	53.83
573.71	56.17
573.87	14.04
574.03	25.75
574.20	0.00
574.36	14.04
574.52	0.00
574.68	72.56
574.84	65.54
575.01	88.94
575.17	30.43
575.33	0.00
575.49	23.41
575.65	21.06
575.82	56.17
575.98	60.85
576.14	32.77
576.30	65.54
576.46	16.38
576.62	56.17
576.79	30.43
576.95	65.54
577.11	28.09
577.27	49.15
577.43	77.24
577.59	39.79
577.75	30.43
577.92	72.56
578.08	25.75
578.24	58.51
578.40	37.45
578.56	63.19
578.72	0.00
578.88	79.58
579.04	58.51
579.21	4.68
579.37	0.00
579.53	4.68
579.69	49.15
579.85	74.90
580.01	107.66
580.17	9.36
580.33	0.00
580.49	7.02
580.65	0.00
580.82	70.22
580.98	11.70
581.14	72.56
581.30	51.49
581.46	95.96
581.62	0.00
581.78	44.47
581.94	37.45
582.10	93.62
582.26	0.00
582.42	23.41
582.58	4.68
582.74	16.38
582.90	37.45
583.06	7.02
583.22	79.58
583.38	72.56
583.54	60.85
583.70	88.94
583.86	51.49
584.02	7.02
584.18	0.00
584.34	56.17
584.50	7.02
584.66	0.00
584.82	74.90
584.98	74.90
585.14	98.30
585.30	49.15
585.46	74.90
585.62	42.13
585.78	0.00
585.94	14.04
586.10	126.39
586.26	46.81
586.42	16.38
586.58	0.00
586.74	0.00
586.90	18.72
587.06	58.51
587.22	42.13
587.38	32.77
587.54	23.41
587.70	32.77
587.86	46.81
588.02	0.00
588.18	16.38
588.34	32.77
588.49	0.00
588.65	0.00
588.81	11.70
588.97	14.04
589.13	81.92
589.29	4.68
589.45	77.24
589.61	0.00
589.77	11.70
589.93	28.09
590.08	107.66
590.24	124.05
590.40	44.47
590.56	35.11
590.72	35.11
590.88	14.04
591.04	37.45
591.20	51.49
591.35	28.09
591.51	51.49
591.67	0.00
591.83	42.13
591.99	77.24
592.15	70.22
592.31	72.56
592.46	56.17
592.62	88.94
592.78	46.81
592.94	0.00
593.10	37.45
593.26	9.36
593.41	28.09
593.57	30.43
593.73	42.13
593.89	37.45
594.05	107.66
594.20	88.94
594.36	35.11
594.52	0.00
594.68	49.15
594.84	30.43
594.99	0.00
595.15	91.28
595.31	63.19
595.47	100.64
595.62	49.15
595.78	16.38
595.94	37.45
596.10	67.88
596.25	77.24
596.41	67.88
596.57	44.47
596.73	53.83
596.88	63.19
597.04	16.38
597.20	72.56
597.36	7.02
597.51	44.47
597.67	91.28
597.83	0.00
597.99	23.41
598.14	21.06
598.30	100.64
598.46	4.68
598.61	23.41
598.77	74.90
598.93	0.00
599.09	7.02
599.24	18.72
599.40	60.85
599.56	21.06
599.71	105.32
599.87	79.58
600.03	49.15
600.18	107.66
600.34	0.00
600.50	16.38
600.65	42.13
600.81	39.79
600.97	14.04
601.12	14.04
601.28	0.00
601.44	4.68
601.59	42.13
601.75	21.06
601.91	42.13
602.06	63.19
602.22	0.00
602.37	7.02
602.53	37.45
602.69	11.70
602.84	28.09
603.00	56.17
603.16	21.06
603.31	23.41
603.47	42.13
603.62	49.15
603.78	11.70
603.94	39.79
604.09	32.77
604.25	23.41
604.40	86.60
604.56	14.04
604.71	28.09
604.87	37.45
605.03	18.72
605.18	67.88
605.34	46.81
605.49	58.51
605.65	60.85
605.80	0.00
605.96	72.56
606.12	44.47
606.27	28.09
606.43	119.37
606.58	0.00
606.74	0.00
606.89	0.00
607.05	28.09
607.20	42.13
607.36	70.22
607.51	56.17
607.67	35.11
607.82	37.45
607.98	53.83
608.13	0.00
608.29	72.56
608.44	0.00
608.60	102.98
608.75	81.92
608.91	46.81
609.06	32.77
609.22	0.00
609.37	95.96
609.53	0.00
609.68	58.51
609.84	0.00
609.99	35.11
610.15	0.00
610.30	0.00
610.46	65.54
610.61	4.68
610.76	39.79
610.92	39.79
611.07	0.00
611.23	0.00
611.38	51.49
611.54	67.88
611.69	0.00
611.84	60.85
612.00	81.92
612.15	9.36
612.31	51.49
612.46	53.83
612.62	9.36
612.77	0.00
612.92	28.09
613.08	11.70
613.23	46.81
613.39	25.75
613.54	28.09
613.69	21.06
613.85	30.43
614.00	65.54
614.15	21.06
614.31	42.13
614.46	14.04
614.62	67.88
614.77	23.41
614.92	42.13
615.08	65.54
615.23	9.36
615.38	21.06
615.54	60.85
615.69	79.58
615.84	0.00
616.00	18.72
616.15	0.00
616.30	145.11
616.46	60.85
616.61	30.43
616.76	81.92
616.92	14.04
617.07	67.88
617.22	2.34
617.37	37.45
617.53	0.00
617.68	0.00
617.83	46.81
617.99	4.68
618.14	7.02
618.29	0.00
618.45	74.90
618.60	37.45
618.75	35.11
618.90	95.96
619.06	0.00
619.21	0.00
619.36	25.75
619.51	0.00
619.67	67.88
619.82	16.38
619.97	88.94
620.12	63.19
620.28	30.43
620.43	91.28
620.58	46.81
620.73	16.38
620.89	0.00
621.04	63.19
621.19	44.47
621.34	46.81
621.49	0.00
621.65	56.17
621.80	0.00
621.95	0.00
622.10	0.00
622.25	28.09
622.41	46.81
622.56	28.09
622.71	77.24
622.86	0.00
623.01	102.98
623.16	84.26
623.32	49.15
623.47	32.77
623.62	58.51
623.77	79.58
623.92	49.15
624.07	23.41
624.23	56.17
624.38	7.02
624.53	14.04
624.68	21.06
624.83	107.66
624.98	23.41
625.13	49.15
625.29	46.81
625.44	81.92
625.59	58.51
625.74	25.75
625.89	42.13
626.04	23.41
626.19	28.09
626.34	49.15
626.49	0.00
626.65	0.00
626.80	4.68
626.95	44.47
627.10	21.06
627.25	79.58
627.40	21.06
627.55	114.69
627.70	56.17
627.85	98.30
628.00	0.00
628.15	21.06
628.30	70.22
628.45	0.00
628.60	44.47
628.76	58.51
628.91	35.11
629.06	0.00
629.21	117.03
629.36	88.94
629.51	107.66
629.66	53.83
629.81	0.00
629.96	60.85
630.11	11.70
630.26	77.24
630.41	0.00
630.56	44.47
630.71	9.36
630.86	30.43
631.01	37.45
631.16	56.17
631.31	0.00
631.46	23.41
631.61	21.06
631.76	53.83
631.91	11.70
632.06	44.47
632.21	42.13
632.36	23.41
632.51	32.77
632.66	0.00
632.81	49.15
632.96	0.00
633.10	74.90
633.25	14.04
633.40	0.00
633.55	21.06
633.70	51.49
633.85	46.81
634.00	11.70
634.15	105.32
634.30	25.75
634.45	11.70
634.60	0.00
634.75	56.17
634.90	23.41
635.05	16.38
635.19	58.51
635.34	32.77
635.49	30.43
635.64	37.45
635.79	28.09
635.94	0.00
636.09	67.88
636.24	0.00
636.39	0.00
636.53	18.72
636.68	37.45
636.83	0.00
636.98	9.36
637.13	65.54
637.28	30.43
637.43	18.72
637.57	58.51
637.72	18.72
637.87	0.00
638.02	44.47
638.17	56.17
638.32	117.03
638.46	0.00
638.61	77.24
638.76	23.41
638.91	9.36
639.06	32.77
639.20	79.58
639.35	93.62
639.50	114.69
639.65	39.79
639.80	0.00
639.94	39.79
640.09	0.00
640.24	7.02
640.39	14.04
640.54	25.75
640.68	79.58
640.83	107.66
640.98	42.13
641.13	25.75
641.27	107.66
641.42	16.38
641.57	30.43
641.72	70.22
641.86	56.17
642.01	84.26
642.16	79.58
642.31	0.00
642.45	18.72
642.60	0.00
642.75	91.28
642.90	77.24
643.04	23.41
643.19	39.79
643.34	0.00
643.48	91.28
643.63	67.88
643.78	49.15
643.93	23.41
644.07	9.36
644.22	88.94
644.37	23.41
644.51	98.30
644.66	25.75
644.81	100.64
644.95	100.64
645.10	84.26
645.25	58.51
645.39	21.06
645.54	42.13
645.69	0.00
645.83	39.79
645.98	65.54
646.13	32.77
646.27	11.70
646.42	0.00
646.57	0.00
646.71	0.00
646.86	14.04
647.00	63.19
647.15	46.81
647.30	30.43
647.44	0.00
647.59	72.56
647.74	0.00
647.88	56.17
648.03	28.09
648.17	9.36
648.32	53.83
648.47	16.38
648.61	0.00
648.76	51.49
648.90	25.75
649.05	0.00
649.20	72.56
649.34	35.11
649.49	30.43
649.63	88.94
649.78	25.75
649.92	0.00
650.07	84.26
650.21	72.56
650.36	70.22
650.51	30.43
650.65	65.54
650.80	81.92
650.94	60.85
651.09	46.81
651.23	42.13
651.38	37.45
651.52	44.47
651.67	46.81
651.81	21.06
651.96	46.81
652.10	42.13
652.25	39.79
652.39	37.45
652.54	23.41
652.68	0.00
652.83	46.81
652.97	53.83
653.12	25.75
653.26	0.00
653.41	65.54
653.55	51.49
653.70	58.51
653.84	51.49
653.99	14.04
654.13	0.00
654.27	25.75
654.42	58.51
654.56	28.09
654.71	28.09
654.85	72.56
655.00	56.17
655.14	18.72
655.29	65.54
655.43	23.41
655.57	46.81
655.72	44.47
655.86	4.68
656.01	32.77
656.15	35.11
656.30	28.09
656.44	60.85
656.58	46.81
656.73	0.00
656.87	81.92
657.01	0.00
657.16	58.51
657.30	79.58
657.45	102.98
657.59	0.00
657.73	79.58
657.88	14.04
658.02	63.19
658.16	25.75
658.31	37.45
658.45	23.41
658.60	18.72
658.74	70.22
658.88	0.00
659.03	70.22
659.17	21.06
659.31	4.68
659.46	46.81
659.60	74.90
659.74	84.26
659.89	18.72
660.03	30.43
660.17	28.09
660.32	16.38
660.46	9.36
660.60	0.00
660.74	14.04
660.89	56.17
661.03	35.11
661.17	56.17
661.32	9.36
661.46	84.26
661.60	0.00
661.74	7.02
661.89	9.36
662.03	35.11
662.17	0.00
662.31	39.79
662.46	65.54
662.60	14.04
662.74	46.81
662.88	0.00
663.03	4.68
663.17	16.38
663.31	0.00
663.45	35.11
663.60	79.58
663.74	0.00
663.88	0.00
664.02	32.77
664.17	0.00
664.31	32.77
664.45	16.38
664.59	0.00
664.73	14.04
664.88	81.92
665.02	65.54
665.16	0.00
665.30	0.00
665.44	28.09
665.59	2.34
665.73	44.47
665.87	0.00
666.01	56.17
666.15	39.79
666.29	37.45
666.44	81.92
666.58	0.00
666.72	58.51
666.86	2.34
667.00	81.92
667.14	0.00
667.28	0.00
667.43	49.15
667.57	14.04
667.71	30.43
667.85	7.02
667.99	46.81
668.13	0.00
668.27	14.04
668.41	0.00
668.56	0.00
668.70	30.43
668.84	0.00
668.98	4.68
669.12	30.43
669.26	23.41
669.40	0.00
669.54	79.58
669.68	0.00
669.82	7.02
669.96	0.00
670.10	28.09
670.25	35.11
670.39	65.54
670.53	72.56
670.67	46.81
670.81	63.19
670.95	0.00
671.09	0.00
671.23	56.17
671.37	56.17
671.51	51.49
671.65	77.24
671.79	9.36
671.93	58.51
672.07	42.13
672.21	49.15
672.35	18.72
672.49	0.00
672.63	4.68
672.77	79.58
672.91	49.15
673.05	51.49
673.19	74.90
673.33	46.81
673.47	131.07
673.61	74.90
673.75	44.47
673.89	0.00
674.03	0.00
674.17	7.02
674.31	0.00
674.45	4.68
674.59	4.68
674.73	18.72
674.87	0.00
675.01	35.11
675.15	28.09
675.29	0.00
675.43	28.09
675.56	49.15
675.70	81.92
675.84	81.92
675.98	0.00
676.12	51.49
676.26	0.00
676.40	0.00
676.54	37.45
676.68	46.81
676.82	32.77
676.96	70.22
677.10	23.41
677.23	72.56
677.37	9.36
677.51	84.26
677.65	63.19
677.79	119.37
677.93	49.15
678.07	32.77
678.21	4.68
678.34	42.13
678.48	0.00
678.62	49.15
678.76	0.00
678.90	25.75
679.04	0.00
679.18	63.19
679.31	49.15
679.45	23.41
679.59	2.34
679.73	53.83
679.87	72.56
680.00	128.73
680.14	14.04
680.28	37.45
680.42	37.45
680.56	77.24
680.70	49.15
680.83	93.62
680.97	35.11
681.11	11.70
681.25	60.85
681.39	16.38
681.52	30.43
681.66	88.94
681.80	51.49
681.94	84.26
682.07	0.00
682.21	0.00
682.35	30.43
682.49	0.00
682.62	0.00
682.76	42.13
682.90	0.00
683.04	4.68
683.17	0.00
683.31	56.17
683.45	23.41
683.59	23.41
683.72	30.43
683.86	63.19
684.00	23.41
684.13	91.28
684.27	14.04
684.41	0.00
684.55	39.79
684.68	0.00
684.82	105.32
684.96	128.73
685.09	58.51
685.23	21.06
685.37	14.04
685.50	81.92
685.64	39.79
685.78	14.04
685.91	0.00
686.05	37.45
686.19	58.51
686.32	16.38
686.46	77.24
686.60	91.28
686.73	46.81
686.87	46.81
687.01	49.15
687.14	56.17
687.28	44.47
687.42	53.83
687.55	0.00
687.69	105.32
687.82	7.02
687.96	14.04
688.10	72.56
688.23	35.11
688.37	107.66
688.50	9.36
688.64	28.09
688.78	46.81
688.91	79.58
689.05	46.81
689.18	65.54
689.32	72.56
689.46	0.00
689.59	30.43
689.73	11.70
689.86	37.45
690.00	53.83
690.13	60.85
690.27	46.81
690.41	35.11
690.54	51.49
690.68	44.47
690.81	37.45
690.95	49.15
691.08	37.45
691.22	7.02
691.35	39.79
691.49	25.75
691.62	0.00
691.76	53.83
691.89	4.68
692.03	63.19
692.16	16.38
692.30	21.06
692.43	2.34
692.57	0.00
692.70	0.00
692.84	0.00
692.97	58.51
693.11	7.02
693.24	39.79
693.38	23.41
693.51	0.00
693.65	9.36
693.78	70.22
693.92	9.36
694.05	0.00
694.19	25.75
694.32	44.47
694.45	72.56
694.59	25.75
694.72	42.13
694.86	7.02
694.99	37.45
695.13	23.41
695.26	0.00
695.39	28.09
695.53	9.36
695.66	21.06
695.80	9.36
695.93	81.92
696.07	0.00
696.20	0.00
696.33	70.22
696.47	18.72
696.60	0.00
696.73	0.00
696.87	60.85
697.00	0.00
697.14	35.11
697.27	0.00
697.40	0.00
697.54	28.09
697.67	37.45
697.80	93.62
697.94	112.35
698.07	25.75
698.21	0.00
698.34	93.62
698.47	35.11
698.61	63.19
698.74	0.00
698.87	37.45
699.01	46.81
699.14	74.90
699.27	30.43
699.40	37.45
699.54	9.36
699.67	0.00
699.80	53.83
699.94	32.77
700.07	16.38
700.20	0.00
700.34	9.36
700.47	58.51
700.60	0.00
700.73	39.79
700.87	0.00
701.00	11.70
701.13	25.75
701.26	37.45
701.40	0.00
701.53	0.00
701.66	42.13
701.79	16.38
701.93	28.09
702.06	44.47
702.19	93.62
702.32	30.43
702.46	39.79
702.59	79.58
702.72	0.00
702.85	60.85
702.99	11.70
703.12	11.70
703.25	56.17
703.38	0.00
703.51	16.38
703.65	9.36
703.78	65.54
703.91	60.85
704.04	14.04
704.17	25.75
704.31	23.41
704.44	9.36
704.57	18.72
704.70	0.00
704.83	23.41
704.96	88.94
705.10	0.00
705.23	28.09
>>>>>End Processed Spectral Data<<<<<
