SpectraSuite Data File
++++++++++++++++++++++++++++++++++++
Date: Fri Oct 04 12:13:30 GMT-05:00 2013
User: price-jones
Dark Spectrum Present: No
Reference Spectrum Present: No
Number of Sampled Component Spectra: 1
Spectrometers: USB2+H05261
Integration Time (usec): 10000 (USB2+H05261)
Spectra Averaged: 1 (USB2+H05261)
Boxcar Smoothing: 0 (USB2+H05261)
Correct for Electrical Dark: No (USB2+H05261)
Strobe/Lamp Enabled: No (USB2+H05261)
Correct for Detector Non-linearity: No (USB2+H05261)
Correct for Stray Light: No (USB2+H05261)
Number of Pixels in Processed Spectrum: 2048
>>>>>Begin Processed Spectral Data<<<<<
365.73	23.41
365.92	23.41
366.12	23.41
366.32	0.00
366.52	0.00
366.72	0.00
366.91	0.00
367.11	0.00
367.31	0.00
367.51	0.00
367.70	0.00
367.90	0.00
368.10	0.00
368.30	0.00
368.49	0.00
368.69	0.00
368.89	0.00
369.09	0.00
369.28	0.00
369.48	0.00
369.68	0.00
369.87	0.00
370.07	0.00
370.27	0.00
370.47	0.00
370.66	0.00
370.86	0.00
371.06	0.00
371.25	0.00
371.45	0.00
371.65	46.81
371.84	4.68
372.04	0.00
372.24	0.00
372.44	0.00
372.63	18.72
372.83	0.00
373.03	0.00
373.22	0.00
373.42	84.26
373.62	0.00
373.81	23.41
374.01	46.81
374.21	60.85
374.40	18.72
374.60	44.47
374.79	18.72
374.99	28.09
375.19	0.00
375.38	18.72
375.58	28.09
375.78	32.77
375.97	14.04
376.17	4.68
376.37	11.70
376.56	60.85
376.76	0.00
376.95	0.00
377.15	37.45
377.35	58.51
377.54	18.72
377.74	0.00
377.93	4.68
378.13	60.85
378.33	100.64
378.52	4.68
378.72	23.41
378.91	30.43
379.11	79.58
379.31	42.13
379.50	0.00
379.70	46.81
379.89	25.75
380.09	18.72
380.28	0.00
380.48	30.43
380.68	86.60
380.87	56.17
381.07	0.00
381.26	58.51
381.46	74.90
381.65	56.17
381.85	0.00
382.04	0.00
382.24	23.41
382.43	28.09
382.63	21.06
382.83	14.04
383.02	0.00
383.22	0.00
383.41	0.00
383.61	49.15
383.80	42.13
384.00	2.34
384.19	16.38
384.39	0.00
384.58	23.41
384.78	18.72
384.97	53.83
385.17	58.51
385.36	39.79
385.56	0.00
385.75	0.00
385.95	32.77
386.14	42.13
386.34	14.04
386.53	25.75
386.72	23.41
386.92	23.41
387.11	0.00
387.31	7.02
387.50	0.00
387.70	42.13
387.89	32.77
388.09	4.68
388.28	0.00
388.48	25.75
388.67	0.00
388.86	0.00
389.06	16.38
389.25	37.45
389.45	46.81
389.64	60.85
389.84	42.13
390.03	4.68
390.22	65.54
390.42	21.06
390.61	63.19
390.81	0.00
391.00	7.02
391.19	0.00
391.39	39.79
391.58	35.11
391.78	0.00
391.97	0.00
392.16	0.00
392.36	42.13
392.55	0.00
392.75	0.00
392.94	0.00
393.13	0.00
393.33	25.75
393.52	63.19
393.71	107.66
393.91	0.00
394.10	58.51
394.29	42.13
394.49	0.00
394.68	0.00
394.88	7.02
395.07	0.00
395.26	0.00
395.46	60.85
395.65	37.45
395.84	0.00
396.04	77.24
396.23	0.00
396.42	0.00
396.62	42.13
396.81	0.00
397.00	42.13
397.19	60.85
397.39	65.54
397.58	44.47
397.77	70.22
397.97	49.15
398.16	67.88
398.35	39.79
398.55	0.00
398.74	28.09
398.93	30.43
399.12	11.70
399.32	14.04
399.51	56.17
399.70	63.19
399.90	4.68
400.09	74.90
400.28	46.81
400.47	25.75
400.67	0.00
400.86	0.00
401.05	0.00
401.24	4.68
401.44	35.11
401.63	32.77
401.82	51.49
402.01	58.51
402.21	53.83
402.40	16.38
402.59	28.09
402.78	14.04
402.97	9.36
403.17	23.41
403.36	51.49
403.55	9.36
403.74	77.24
403.93	0.00
404.13	9.36
404.32	30.43
404.51	39.79
404.70	23.41
404.89	4.68
405.09	0.00
405.28	37.45
405.47	0.00
405.66	30.43
405.85	9.36
406.05	2.34
406.24	4.68
406.43	65.54
406.62	25.75
406.81	42.13
407.00	74.90
407.20	0.00
407.39	51.49
407.58	0.00
407.77	0.00
407.96	0.00
408.15	56.17
408.34	77.24
408.54	93.62
408.73	0.00
408.92	39.79
409.11	32.77
409.30	11.70
409.49	0.00
409.68	46.81
409.87	32.77
410.07	91.28
410.26	0.00
410.45	53.83
410.64	18.72
410.83	4.68
411.02	0.00
411.21	28.09
411.40	0.00
411.59	0.00
411.78	32.77
411.98	0.00
412.17	0.00
412.36	49.15
412.55	0.00
412.74	25.75
412.93	35.11
413.12	32.77
413.31	4.68
413.50	28.09
413.69	2.34
413.88	0.00
414.07	81.92
414.26	79.58
414.45	53.83
414.64	42.13
414.83	0.00
415.02	18.72
415.22	9.36
415.41	44.47
415.60	21.06
415.79	60.85
415.98	32.77
416.17	51.49
416.36	39.79
416.55	49.15
416.74	0.00
416.93	44.47
417.12	4.68
417.31	0.00
417.50	44.47
417.69	0.00
417.88	74.90
418.07	39.79
418.26	0.00
418.45	4.68
418.64	32.77
418.83	86.60
419.02	77.24
419.21	65.54
419.39	0.00
419.58	21.06
419.77	60.85
419.96	28.09
420.15	23.41
420.34	51.49
420.53	9.36
420.72	32.77
420.91	9.36
421.10	51.49
421.29	39.79
421.48	28.09
421.67	51.49
421.86	0.00
422.05	77.24
422.24	16.38
422.43	30.43
422.61	30.43
422.80	72.56
422.99	77.24
423.18	35.11
423.37	2.34
423.56	0.00
423.75	37.45
423.94	63.19
424.13	0.00
424.32	32.77
424.50	0.00
424.69	16.38
424.88	0.00
425.07	0.00
425.26	0.00
425.45	0.00
425.64	25.75
425.83	95.96
426.01	4.68
426.20	58.51
426.39	49.15
426.58	56.17
426.77	46.81
426.96	65.54
427.15	42.13
427.33	16.38
427.52	16.38
427.71	2.34
427.90	39.79
428.09	37.45
428.28	0.00
428.46	53.83
428.65	60.85
428.84	58.51
429.03	0.00
429.22	58.51
429.40	0.00
429.59	32.77
429.78	28.09
429.97	9.36
430.16	56.17
430.34	0.00
430.53	63.19
430.72	16.38
430.91	35.11
431.10	23.41
431.28	32.77
431.47	0.00
431.66	21.06
431.85	14.04
432.03	21.06
432.22	4.68
432.41	88.94
432.60	21.06
432.79	35.11
432.97	77.24
433.16	49.15
433.35	0.00
433.54	0.00
433.72	16.38
433.91	11.70
434.10	102.98
434.28	32.77
434.47	53.83
434.66	79.58
434.85	18.72
435.03	28.09
435.22	0.00
435.41	56.17
435.59	21.06
435.78	9.36
435.97	0.00
436.16	16.38
436.34	25.75
436.53	95.96
436.72	60.85
436.90	7.02
437.09	46.81
437.28	58.51
437.46	0.00
437.65	16.38
437.84	44.47
438.02	0.00
438.21	0.00
438.40	86.60
438.58	16.38
438.77	58.51
438.96	95.96
439.14	58.51
439.33	28.09
439.52	60.85
439.70	35.11
439.89	0.00
440.08	0.00
440.26	0.00
440.45	63.19
440.63	11.70
440.82	35.11
441.01	110.01
441.19	2.34
441.38	46.81
441.57	65.54
441.75	46.81
441.94	0.00
442.12	9.36
442.31	46.81
442.50	9.36
442.68	98.30
442.87	25.75
443.05	51.49
443.24	28.09
443.43	0.00
443.61	49.15
443.80	58.51
443.98	0.00
444.17	44.47
444.35	16.38
444.54	11.70
444.73	105.32
444.91	0.00
445.10	107.66
445.28	51.49
445.47	11.70
445.65	32.77
445.84	37.45
446.02	44.47
446.21	7.02
446.39	42.13
446.58	0.00
446.77	0.00
446.95	88.94
447.14	39.79
447.32	53.83
447.51	0.00
447.69	0.00
447.88	4.68
448.06	4.68
448.25	42.13
448.43	23.41
448.62	32.77
448.80	65.54
448.99	65.54
449.17	30.43
449.36	11.70
449.54	74.90
449.73	39.79
449.91	44.47
450.10	42.13
450.28	0.00
450.46	7.02
450.65	30.43
450.83	65.54
451.02	72.56
451.20	9.36
451.39	84.26
451.57	63.19
451.76	42.13
451.94	44.47
452.13	7.02
452.31	0.00
452.49	72.56
452.68	126.39
452.86	72.56
453.05	21.06
453.23	72.56
453.42	58.51
453.60	0.00
453.78	30.43
453.97	114.69
454.15	39.79
454.34	42.13
454.52	51.49
454.70	2.34
454.89	23.41
455.07	102.98
455.26	79.58
455.44	56.17
455.62	79.58
455.81	51.49
455.99	58.51
456.17	21.06
456.36	35.11
456.54	7.02
456.73	7.02
456.91	35.11
457.09	44.47
457.28	0.00
457.46	0.00
457.64	0.00
457.83	0.00
458.01	18.72
458.19	0.00
458.38	0.00
458.56	46.81
458.74	0.00
458.93	0.00
459.11	30.43
459.29	44.47
459.48	44.47
459.66	53.83
459.84	37.45
460.03	102.98
460.21	84.26
460.39	23.41
460.57	70.22
460.76	0.00
460.94	46.81
461.12	49.15
461.31	35.11
461.49	21.06
461.67	2.34
461.85	32.77
462.04	70.22
462.22	56.17
462.40	133.41
462.59	60.85
462.77	9.36
462.95	39.79
463.13	88.94
463.32	72.56
463.50	77.24
463.68	51.49
463.86	46.81
464.05	23.41
464.23	0.00
464.41	53.83
464.59	60.85
464.78	9.36
464.96	119.37
465.14	42.13
465.32	60.85
465.50	18.72
465.69	51.49
465.87	0.00
466.05	72.56
466.23	37.45
466.41	63.19
466.60	51.49
466.78	0.00
466.96	81.92
467.14	46.81
467.32	98.30
467.51	0.00
467.69	14.04
467.87	23.41
468.05	60.85
468.23	18.72
468.41	65.54
468.60	7.02
468.78	35.11
468.96	42.13
469.14	21.06
469.32	18.72
469.50	128.73
469.69	0.00
469.87	18.72
470.05	14.04
470.23	56.17
470.41	14.04
470.59	79.58
470.77	63.19
470.95	30.43
471.14	74.90
471.32	49.15
471.50	14.04
471.68	44.47
471.86	0.00
472.04	16.38
472.22	0.00
472.40	39.79
472.58	67.88
472.77	30.43
472.95	0.00
473.13	4.68
473.31	42.13
473.49	0.00
473.67	102.98
473.85	25.75
474.03	0.00
474.21	74.90
474.39	39.79
474.57	60.85
474.75	18.72
474.93	91.28
475.12	16.38
475.30	25.75
475.48	93.62
475.66	0.00
475.84	0.00
476.02	9.36
476.20	60.85
476.38	32.77
476.56	53.83
476.74	46.81
476.92	37.45
477.10	0.00
477.28	67.88
477.46	21.06
477.64	11.70
477.82	70.22
478.00	0.00
478.18	37.45
478.36	4.68
478.54	16.38
478.72	77.24
478.90	21.06
479.08	51.49
479.26	28.09
479.44	42.13
479.62	0.00
479.80	98.30
479.98	56.17
480.16	30.43
480.34	37.45
480.52	21.06
480.70	112.35
480.88	0.00
481.06	35.11
481.24	0.00
481.41	23.41
481.59	14.04
481.77	37.45
481.95	51.49
482.13	0.00
482.31	0.00
482.49	16.38
482.67	46.81
482.85	74.90
483.03	53.83
483.21	7.02
483.39	28.09
483.57	28.09
483.74	74.90
483.92	28.09
484.10	28.09
484.28	49.15
484.46	74.90
484.64	25.75
484.82	74.90
485.00	44.47
485.18	77.24
485.35	79.58
485.53	25.75
485.71	46.81
485.89	25.75
486.07	23.41
486.25	107.66
486.43	53.83
486.61	21.06
486.78	0.00
486.96	30.43
487.14	4.68
487.32	16.38
487.50	88.94
487.68	63.19
487.85	39.79
488.03	18.72
488.21	23.41
488.39	21.06
488.57	49.15
488.75	51.49
488.92	102.98
489.10	58.51
489.28	53.83
489.46	16.38
489.64	100.64
489.81	39.79
489.99	58.51
490.17	63.19
490.35	42.13
490.53	14.04
490.70	21.06
490.88	42.13
491.06	46.81
491.24	86.60
491.41	79.58
491.59	72.56
491.77	0.00
491.95	72.56
492.13	63.19
492.30	21.06
492.48	39.79
492.66	35.11
492.84	39.79
493.01	65.54
493.19	53.83
493.37	46.81
493.54	0.00
493.72	35.11
493.90	14.04
494.08	46.81
494.25	14.04
494.43	86.60
494.61	53.83
494.79	107.66
494.96	0.00
495.14	63.19
495.32	35.11
495.49	65.54
495.67	18.72
495.85	44.47
496.02	56.17
496.20	25.75
496.38	28.09
496.55	67.88
496.73	18.72
496.91	65.54
497.09	65.54
497.26	39.79
497.44	30.43
497.62	9.36
497.79	70.22
497.97	0.00
498.14	105.32
498.32	0.00
498.50	0.00
498.67	51.49
498.85	51.49
499.03	21.06
499.20	53.83
499.38	39.79
499.56	51.49
499.73	65.54
499.91	86.60
500.08	114.69
500.26	14.04
500.44	0.00
500.61	16.38
500.79	16.38
500.97	25.75
501.14	44.47
501.32	18.72
501.49	39.79
501.67	49.15
501.84	72.56
502.02	0.00
502.20	67.88
502.37	53.83
502.55	44.47
502.72	23.41
502.90	0.00
503.07	21.06
503.25	67.88
503.43	14.04
503.60	0.00
503.78	0.00
503.95	44.47
504.13	39.79
504.30	107.66
504.48	79.58
504.65	56.17
504.83	30.43
505.01	110.01
505.18	88.94
505.36	23.41
505.53	81.92
505.71	0.00
505.88	77.24
506.06	93.62
506.23	2.34
506.41	51.49
506.58	21.06
506.76	70.22
506.93	25.75
507.11	23.41
507.28	23.41
507.46	18.72
507.63	53.83
507.81	42.13
507.98	39.79
508.16	0.00
508.33	70.22
508.50	39.79
508.68	46.81
508.85	18.72
509.03	161.50
509.20	81.92
509.38	65.54
509.55	32.77
509.73	0.00
509.90	105.32
510.08	63.19
510.25	0.00
510.42	32.77
510.60	4.68
510.77	39.79
510.95	11.70
511.12	11.70
511.30	0.00
511.47	21.06
511.64	53.83
511.82	56.17
511.99	58.51
512.17	91.28
512.34	110.01
512.51	0.00
512.69	18.72
512.86	37.45
513.04	21.06
513.21	16.38
513.38	25.75
513.56	0.00
513.73	28.09
513.90	42.13
514.08	42.13
514.25	0.00
514.43	65.54
514.60	58.51
514.77	0.00
514.95	14.04
515.12	18.72
515.29	42.13
515.47	0.00
515.64	93.62
515.81	0.00
515.99	9.36
516.16	42.13
516.33	0.00
516.51	32.77
516.68	67.88
516.85	93.62
517.03	0.00
517.20	79.58
517.37	56.17
517.54	44.47
517.72	21.06
517.89	67.88
518.06	117.03
518.24	51.49
518.41	2.34
518.58	21.06
518.75	77.24
518.93	79.58
519.10	18.72
519.27	107.66
519.45	39.79
519.62	4.68
519.79	46.81
519.96	0.00
520.14	2.34
520.31	88.94
520.48	25.75
520.65	86.60
520.83	21.06
521.00	16.38
521.17	0.00
521.34	0.00
521.52	60.85
521.69	72.56
521.86	42.13
522.03	23.41
522.20	79.58
522.38	28.09
522.55	98.30
522.72	21.06
522.89	51.49
523.07	14.04
523.24	53.83
523.41	28.09
523.58	74.90
523.75	0.00
523.92	49.15
524.10	126.39
524.27	46.81
524.44	67.88
524.61	86.60
524.78	35.11
524.96	67.88
525.13	72.56
525.30	42.13
525.47	0.00
525.64	32.77
525.81	60.85
525.98	53.83
526.16	16.38
526.33	2.34
526.50	28.09
526.67	88.94
526.84	7.02
527.01	46.81
527.18	124.05
527.36	88.94
527.53	91.28
527.70	74.90
527.87	25.75
528.04	14.04
528.21	0.00
528.38	30.43
528.55	35.11
528.72	95.96
528.89	16.38
529.07	21.06
529.24	67.88
529.41	0.00
529.58	67.88
529.75	21.06
529.92	35.11
530.09	79.58
530.26	42.13
530.43	39.79
530.60	23.41
530.77	49.15
530.94	58.51
531.11	49.15
531.28	77.24
531.46	0.00
531.63	65.54
531.80	14.04
531.97	39.79
532.14	0.00
532.31	16.38
532.48	0.00
532.65	0.00
532.82	37.45
532.99	32.77
533.16	37.45
533.33	84.26
533.50	86.60
533.67	79.58
533.84	0.00
534.01	35.11
534.18	21.06
534.35	70.22
534.52	30.43
534.69	14.04
534.86	37.45
535.03	35.11
535.20	9.36
535.37	98.30
535.54	126.39
535.71	32.77
535.88	135.75
536.05	14.04
536.22	74.90
536.38	77.24
536.55	44.47
536.72	88.94
536.89	32.77
537.06	28.09
537.23	44.47
537.40	51.49
537.57	30.43
537.74	28.09
537.91	21.06
538.08	51.49
538.25	98.30
538.42	70.22
538.59	93.62
538.75	95.96
538.92	56.17
539.09	21.06
539.26	65.54
539.43	49.15
539.60	65.54
539.77	119.37
539.94	110.01
540.11	42.13
540.28	9.36
540.44	81.92
540.61	0.00
540.78	60.85
540.95	2.34
541.12	58.51
541.29	49.15
541.46	18.72
541.62	4.68
541.79	39.79
541.96	95.96
542.13	35.11
542.30	46.81
542.47	93.62
542.63	77.24
542.80	88.94
542.97	65.54
543.14	35.11
543.31	28.09
543.48	53.83
543.64	39.79
543.81	95.96
543.98	88.94
544.15	0.00
544.32	49.15
544.48	25.75
544.65	86.60
544.82	2.34
544.99	14.04
545.16	63.19
545.32	16.38
545.49	0.00
545.66	117.03
545.83	18.72
546.00	124.05
546.16	107.66
546.33	51.49
546.50	63.19
546.67	107.66
546.83	0.00
547.00	39.79
547.17	46.81
547.34	0.00
547.50	51.49
547.67	18.72
547.84	42.13
548.00	58.51
548.17	21.06
548.34	86.60
548.51	37.45
548.67	11.70
548.84	72.56
549.01	39.79
549.18	84.26
549.34	56.17
549.51	4.68
549.68	0.00
549.84	2.34
550.01	46.81
550.18	9.36
550.34	77.24
550.51	81.92
550.68	32.77
550.84	44.47
551.01	65.54
551.18	0.00
551.34	0.00
551.51	21.06
551.68	0.00
551.84	98.30
552.01	28.09
552.18	51.49
552.34	74.90
552.51	44.47
552.68	98.30
552.84	117.03
553.01	0.00
553.18	35.11
553.34	51.49
553.51	23.41
553.67	53.83
553.84	102.98
554.01	35.11
554.17	21.06
554.34	30.43
554.51	9.36
554.67	51.49
554.84	32.77
555.00	14.04
555.17	67.88
555.33	21.06
555.50	63.19
555.67	46.81
555.83	35.11
556.00	18.72
556.16	102.98
556.33	39.79
556.50	53.83
556.66	0.00
556.83	72.56
556.99	11.70
557.16	44.47
557.32	53.83
557.49	28.09
557.65	28.09
557.82	44.47
557.98	23.41
558.15	56.17
558.32	39.79
558.48	0.00
558.65	23.41
558.81	49.15
558.98	25.75
559.14	84.26
559.31	117.03
559.47	9.36
559.64	0.00
559.80	51.49
559.97	51.49
560.13	53.83
560.30	49.15
560.46	9.36
560.63	72.56
560.79	58.51
560.96	44.47
561.12	2.34
561.29	98.30
561.45	23.41
561.61	32.77
561.78	72.56
561.94	58.51
562.11	81.92
562.27	32.77
562.44	0.00
562.60	39.79
562.77	60.85
562.93	81.92
563.10	77.24
563.26	63.19
563.42	56.17
563.59	140.43
563.75	30.43
563.92	0.00
564.08	63.19
564.24	70.22
564.41	42.13
564.57	2.34
564.74	0.00
564.90	32.77
565.07	84.26
565.23	44.47
565.39	0.00
565.56	65.54
565.72	95.96
565.88	65.54
566.05	60.85
566.21	21.06
566.38	112.35
566.54	25.75
566.70	0.00
566.87	25.75
567.03	32.77
567.19	70.22
567.36	70.22
567.52	77.24
567.68	7.02
567.85	58.51
568.01	0.00
568.17	0.00
568.34	18.72
568.50	35.11
568.66	67.88
568.83	25.75
568.99	56.17
569.15	0.00
569.32	0.00
569.48	100.64
569.64	98.30
569.81	0.00
569.97	11.70
570.13	53.83
570.30	2.34
570.46	49.15
570.62	70.22
570.78	49.15
570.95	51.49
571.11	4.68
571.27	65.54
571.43	0.00
571.60	63.19
571.76	49.15
571.92	2.34
572.09	0.00
572.25	60.85
572.41	81.92
572.57	11.70
572.74	51.49
572.90	39.79
573.06	2.34
573.22	67.88
573.38	0.00
573.55	23.41
573.71	56.17
573.87	39.79
574.03	4.68
574.20	25.75
574.36	0.00
574.52	56.17
574.68	39.79
574.84	0.00
575.01	32.77
575.17	30.43
575.33	28.09
575.49	0.00
575.65	4.68
575.82	0.00
575.98	2.34
576.14	44.47
576.30	51.49
576.46	86.60
576.62	42.13
576.79	42.13
576.95	51.49
577.11	67.88
577.27	2.34
577.43	56.17
577.59	65.54
577.75	88.94
577.92	67.88
578.08	37.45
578.24	86.60
578.40	37.45
578.56	37.45
578.72	9.36
578.88	107.66
579.04	2.34
579.21	58.51
579.37	88.94
579.53	72.56
579.69	91.28
579.85	67.88
580.01	46.81
580.17	79.58
580.33	23.41
580.49	0.00
580.65	35.11
580.82	0.00
580.98	95.96
581.14	49.15
581.30	51.49
581.46	112.35
581.62	77.24
581.78	11.70
581.94	72.56
582.10	0.00
582.26	51.49
582.42	49.15
582.58	49.15
582.74	65.54
582.90	21.06
583.06	114.69
583.22	32.77
583.38	23.41
583.54	70.22
583.70	0.00
583.86	30.43
584.02	72.56
584.18	44.47
584.34	51.49
584.50	175.54
584.66	856.64
584.82	2101.80
584.98	2768.85
585.14	2455.22
585.30	1458.15
585.46	973.66
585.62	587.47
585.78	210.65
585.94	112.35
586.10	67.88
586.26	56.17
586.42	86.60
586.58	112.35
586.74	30.43
586.90	56.17
587.06	23.41
587.22	60.85
587.38	14.04
587.54	44.47
587.70	140.43
587.86	236.39
588.02	264.48
588.18	229.37
588.34	95.96
588.49	53.83
588.65	81.92
588.81	18.72
588.97	58.51
589.13	86.60
589.29	86.60
589.45	32.77
589.61	63.19
589.77	9.36
589.93	39.79
590.08	2.34
590.24	0.00
590.40	84.26
590.56	0.00
590.72	30.43
590.88	0.00
591.04	25.75
591.20	39.79
591.35	67.88
591.51	30.43
591.67	0.00
591.83	32.77
591.99	152.13
592.15	49.15
592.31	60.85
592.46	18.72
592.62	9.36
592.78	21.06
592.94	65.54
593.10	18.72
593.26	100.64
593.41	88.94
593.57	81.92
593.73	0.00
593.89	138.09
594.05	351.08
594.20	388.53
594.36	444.70
594.52	264.48
594.68	142.77
594.84	86.60
594.99	114.69
595.15	65.54
595.31	39.79
595.47	14.04
595.62	88.94
595.78	77.24
595.94	30.43
596.10	0.00
596.25	88.94
596.41	93.62
596.57	65.54
596.73	32.77
596.88	114.69
597.04	135.75
597.20	142.77
597.36	74.90
597.51	91.28
597.67	37.45
597.83	93.62
597.99	70.22
598.14	88.94
598.30	77.24
598.46	23.41
598.61	95.96
598.77	46.81
598.93	0.00
599.09	67.88
599.24	46.81
599.40	0.00
599.56	0.00
599.71	30.43
599.87	44.47
600.03	25.75
600.18	53.83
600.34	53.83
600.50	70.22
600.65	35.11
600.81	4.68
600.97	25.75
601.12	72.56
601.28	39.79
601.44	0.00
601.59	25.75
601.75	0.00
601.91	16.38
602.06	44.47
602.22	39.79
602.37	95.96
602.53	88.94
602.69	138.09
602.84	140.43
603.00	107.66
603.16	51.49
603.31	86.60
603.47	42.13
603.62	0.00
603.78	25.75
603.94	60.85
604.09	18.72
604.25	79.58
604.40	100.64
604.56	35.11
604.71	9.36
604.87	88.94
605.03	35.11
605.18	46.81
605.34	119.37
605.49	74.90
605.65	30.43
605.80	42.13
605.96	81.92
606.12	42.13
606.27	65.54
606.43	72.56
606.58	25.75
606.74	65.54
606.89	187.24
607.05	266.82
607.20	297.25
607.36	355.76
607.51	124.05
607.67	131.07
607.82	107.66
607.98	110.01
608.13	65.54
608.29	70.22
608.44	42.13
608.60	100.64
608.75	4.68
608.91	70.22
609.06	304.27
609.22	526.62
609.37	578.11
609.53	493.85
609.68	250.44
609.84	184.90
609.99	208.31
610.15	100.64
610.30	112.35
610.46	65.54
610.61	65.54
610.76	51.49
610.92	39.79
611.07	32.77
611.23	9.36
611.38	88.94
611.54	84.26
611.69	30.43
611.84	7.02
612.00	53.83
612.15	44.47
612.31	72.56
612.46	79.58
612.62	25.75
612.77	14.04
612.92	114.69
613.08	91.28
613.23	4.68
613.39	21.06
613.54	51.49
613.69	299.59
613.85	596.84
614.00	812.17
614.15	741.95
614.31	634.29
614.46	381.51
614.62	306.61
614.77	184.90
614.92	77.24
615.08	51.49
615.23	9.36
615.38	93.62
615.54	112.35
615.69	79.58
615.84	117.03
616.00	170.86
616.15	236.39
616.30	257.46
616.46	159.16
616.61	77.24
616.76	105.32
616.92	102.98
617.07	53.83
617.22	49.15
617.37	0.00
617.53	67.88
617.68	14.04
617.83	2.34
617.99	70.22
618.14	91.28
618.29	67.88
618.45	25.75
618.60	42.13
618.75	77.24
618.90	77.24
619.06	65.54
619.21	53.83
619.36	93.62
619.51	28.09
619.67	28.09
619.82	9.36
619.97	0.00
620.12	91.28
620.28	51.49
620.43	0.00
620.58	72.56
620.73	105.32
620.89	46.81
621.04	112.35
621.19	156.82
621.34	159.16
621.49	163.84
621.65	117.03
621.80	63.19
621.95	65.54
622.10	74.90
622.25	56.17
622.41	9.36
622.56	32.77
622.71	70.22
622.86	95.96
623.01	39.79
623.16	25.75
623.32	39.79
623.47	70.22
623.62	142.77
623.77	0.00
623.92	39.79
624.07	35.11
624.23	46.81
624.38	9.36
624.53	30.43
624.68	37.45
624.83	74.90
624.98	7.02
625.13	32.77
625.29	42.13
625.44	56.17
625.59	25.75
625.74	28.09
625.89	4.68
626.04	126.39
626.19	243.42
626.34	360.44
626.49	505.56
626.65	421.30
626.80	255.12
626.95	131.07
627.10	42.13
627.25	74.90
627.40	56.17
627.55	44.47
627.70	18.72
627.85	30.43
628.00	107.66
628.15	91.28
628.30	39.79
628.45	32.77
628.60	28.09
628.76	2.34
628.91	0.00
629.06	0.00
629.21	42.13
629.36	88.94
629.51	49.15
629.66	14.04
629.81	91.28
629.96	65.54
630.11	184.90
630.26	100.64
630.41	138.09
630.56	128.73
630.71	105.32
630.86	107.66
631.01	46.81
631.16	35.11
631.31	49.15
631.46	53.83
631.61	72.56
631.76	11.70
631.91	25.75
632.06	0.00
632.21	84.26
632.36	65.54
632.51	42.13
632.66	0.00
632.81	107.66
632.96	154.48
633.10	259.80
633.25	292.57
633.40	280.86
633.55	304.27
633.70	241.08
633.85	98.30
634.00	100.64
634.15	46.81
634.30	93.62
634.45	93.62
634.60	67.88
634.75	49.15
634.90	60.85
635.05	23.41
635.19	93.62
635.34	14.04
635.49	23.41
635.64	107.66
635.79	11.70
635.94	2.34
636.09	53.83
636.24	11.70
636.39	70.22
636.53	46.81
636.68	0.00
636.83	0.00
636.98	49.15
637.13	11.70
637.28	11.70
637.43	0.00
637.57	156.82
637.72	149.79
637.87	386.19
638.02	559.39
638.17	585.13
638.32	372.15
638.46	271.50
638.61	182.56
638.76	147.45
638.91	53.83
639.06	86.60
639.20	39.79
639.35	91.28
639.50	74.90
639.65	215.33
639.80	528.96
639.94	835.57
640.09	910.47
640.24	704.50
640.39	524.28
640.54	367.46
640.68	231.71
640.83	119.37
640.98	51.49
641.13	114.69
641.27	88.94
641.42	86.60
641.57	4.68
641.72	84.26
641.86	112.35
642.01	30.43
642.16	53.83
642.31	28.09
642.45	63.19
642.60	39.79
642.75	42.13
642.90	0.00
643.04	60.85
643.19	0.00
643.34	23.41
643.48	93.62
643.63	93.62
643.78	18.72
643.93	100.64
644.07	58.51
644.22	0.00
644.37	0.00
644.51	25.75
644.66	58.51
644.81	114.69
644.95	32.77
645.10	23.41
645.25	16.38
645.39	0.00
645.54	86.60
645.69	107.66
645.83	53.83
645.98	114.69
646.13	0.00
646.27	72.56
646.42	18.72
646.57	81.92
646.71	23.41
646.86	112.35
647.00	46.81
647.15	2.34
647.30	21.06
647.44	65.54
647.59	0.00
647.74	65.54
647.88	44.47
648.03	23.41
648.17	14.04
648.32	11.70
648.47	58.51
648.61	0.00
648.76	124.05
648.90	23.41
649.05	51.49
649.20	42.13
649.34	51.49
649.49	60.85
649.63	58.51
649.78	37.45
649.92	79.58
650.07	84.26
650.21	248.10
650.36	390.87
650.51	531.30
650.65	409.59
650.80	252.78
650.94	177.88
651.09	128.73
651.23	72.56
651.38	112.35
651.52	39.79
651.67	49.15
651.81	39.79
651.96	0.00
652.10	91.28
652.25	18.72
652.39	100.64
652.54	23.41
652.68	18.72
652.83	56.17
652.97	191.92
653.12	201.29
653.26	220.01
653.41	152.13
653.55	67.88
653.70	79.58
653.84	110.01
653.99	9.36
654.13	46.81
654.27	93.62
654.42	65.54
654.56	9.36
654.71	21.06
654.85	77.24
655.00	35.11
655.14	60.85
655.29	30.43
655.43	65.54
655.57	100.64
655.72	84.26
655.86	0.00
656.01	4.68
656.15	0.00
656.30	0.00
656.44	0.00
656.58	0.00
656.73	0.00
656.87	0.00
657.01	42.13
657.16	0.00
657.30	46.81
657.45	98.30
657.59	11.70
657.73	51.49
657.88	46.81
658.02	131.07
658.16	53.83
658.31	30.43
658.45	58.51
658.60	28.09
658.74	42.13
658.88	25.75
659.03	18.72
659.17	56.17
659.31	98.30
659.46	105.32
659.60	182.56
659.74	259.80
659.89	262.14
660.03	156.82
660.17	126.39
660.32	95.96
660.46	51.49
660.60	49.15
660.74	46.81
660.89	35.11
661.03	4.68
661.17	39.79
661.32	0.00
661.46	37.45
661.60	56.17
661.74	42.13
661.89	32.77
662.03	14.04
662.17	28.09
662.31	9.36
662.46	65.54
662.60	35.11
662.74	67.88
662.88	93.62
663.03	30.43
663.17	4.68
663.31	60.85
663.45	42.13
663.60	21.06
663.74	105.32
663.88	14.04
664.02	16.38
664.17	7.02
664.31	0.00
664.45	18.72
664.59	0.00
664.73	21.06
664.88	0.00
665.02	37.45
665.16	81.92
665.30	72.56
665.44	56.17
665.59	0.00
665.73	25.75
665.87	56.17
666.01	14.04
666.15	4.68
666.29	124.05
666.44	91.28
666.58	102.98
666.72	49.15
666.86	58.51
667.00	39.79
667.14	65.54
667.28	93.62
667.43	273.84
667.57	273.84
667.71	402.57
667.85	381.51
667.99	290.23
668.13	159.16
668.27	121.71
668.41	140.43
668.56	49.15
668.70	67.88
668.84	0.00
668.98	32.77
669.12	23.41
669.26	79.58
669.40	0.00
669.54	4.68
669.68	0.00
669.82	67.88
669.96	0.00
670.10	56.17
670.25	70.22
670.39	0.00
670.53	51.49
670.67	53.83
670.81	4.68
670.95	21.06
671.09	88.94
671.23	140.43
671.37	194.26
671.51	191.92
671.65	259.80
671.79	203.63
671.93	138.09
672.07	124.05
672.21	74.90
672.35	60.85
672.49	0.00
672.63	7.02
672.77	74.90
672.91	70.22
673.05	32.77
673.19	14.04
673.33	0.00
673.47	18.72
673.61	25.75
673.75	9.36
673.89	105.32
674.03	84.26
674.17	28.09
674.31	0.00
674.45	98.30
674.59	18.72
674.73	86.60
674.87	9.36
675.01	32.77
675.15	67.88
675.29	35.11
675.43	53.83
675.56	28.09
675.70	0.00
675.84	32.77
675.98	63.19
676.12	28.09
676.26	37.45
676.40	0.00
676.54	0.00
676.68	0.00
676.82	81.92
676.96	28.09
677.10	35.11
677.23	0.00
677.37	30.43
677.51	0.00
677.65	23.41
677.79	4.68
677.93	37.45
678.07	77.24
678.21	63.19
678.34	0.00
678.48	11.70
678.62	0.00
678.76	117.03
678.90	65.54
679.04	9.36
679.18	16.38
679.31	74.90
679.45	7.02
679.59	65.54
679.73	46.81
679.87	0.00
680.00	86.60
680.14	77.24
680.28	23.41
680.42	11.70
680.56	70.22
680.70	56.17
680.83	37.45
680.97	42.13
681.11	32.77
681.25	16.38
681.39	23.41
681.52	44.47
681.66	4.68
681.80	4.68
681.94	65.54
682.07	21.06
682.21	4.68
682.35	51.49
682.49	0.00
682.62	0.00
682.76	37.45
682.90	4.68
683.04	0.00
683.17	37.45
683.31	23.41
683.45	4.68
683.59	28.09
683.72	44.47
683.86	0.00
684.00	25.75
684.13	56.17
684.27	88.94
684.41	18.72
684.55	0.00
684.68	67.88
684.82	4.68
684.96	72.56
685.09	58.51
685.23	79.58
685.37	81.92
685.50	79.58
685.64	46.81
685.78	0.00
685.91	0.00
686.05	51.49
686.19	49.15
686.32	0.00
686.46	16.38
686.60	4.68
686.73	112.35
686.87	81.92
687.01	25.75
687.14	84.26
687.28	67.88
687.42	0.00
687.55	81.92
687.69	74.90
687.82	0.00
687.96	70.22
688.10	7.02
688.23	0.00
688.37	0.00
688.50	58.51
688.64	49.15
688.78	7.02
688.91	74.90
689.05	42.13
689.18	46.81
689.32	4.68
689.46	4.68
689.59	51.49
689.73	18.72
689.86	0.00
690.00	9.36
690.13	2.34
690.27	9.36
690.41	4.68
690.54	2.34
690.68	70.22
690.81	16.38
690.95	128.73
691.08	81.92
691.22	53.83
691.35	7.02
691.49	16.38
691.62	9.36
691.76	44.47
691.89	46.81
692.03	72.56
692.16	16.38
692.30	32.77
692.43	25.75
692.57	128.73
692.70	187.24
692.84	234.05
692.97	177.88
693.11	229.37
693.24	51.49
693.38	77.24
693.51	58.51
693.65	98.30
693.78	60.85
693.92	112.35
694.05	63.19
694.19	79.58
694.32	49.15
694.45	56.17
694.59	14.04
694.72	39.79
694.86	25.75
694.99	25.75
695.13	0.00
695.26	70.22
695.39	0.00
695.53	39.79
695.66	4.68
695.80	11.70
695.93	14.04
696.07	65.54
696.20	58.51
696.33	74.90
696.47	114.69
696.60	49.15
696.73	44.47
696.87	25.75
697.00	93.62
697.14	16.38
697.27	0.00
697.40	30.43
697.54	93.62
697.67	25.75
697.80	18.72
697.94	9.36
698.07	28.09
698.21	0.00
698.34	35.11
698.47	39.79
698.61	7.02
698.74	51.49
698.87	49.15
699.01	49.15
699.14	7.02
699.27	0.00
699.40	32.77
699.54	21.06
699.67	11.70
699.80	23.41
699.94	11.70
700.07	0.00
700.20	91.28
700.34	0.00
700.47	16.38
700.60	37.45
700.73	2.34
700.87	46.81
701.00	21.06
701.13	51.49
701.26	91.28
701.40	14.04
701.53	0.00
701.66	35.11
701.79	58.51
701.93	0.00
702.06	42.13
702.19	74.90
702.32	79.58
702.46	42.13
702.59	98.30
702.72	23.41
702.85	168.52
702.99	248.10
703.12	334.70
703.25	369.80
703.38	315.97
703.51	304.27
703.65	194.26
703.78	88.94
703.91	117.03
704.04	65.54
704.17	49.15
704.31	14.04
704.44	42.13
704.57	67.88
704.70	53.83
704.83	0.00
704.96	0.00
705.10	30.43
705.23	0.00
>>>>>End Processed Spectral Data<<<<<
