SpectraSuite Data File
++++++++++++++++++++++++++++++++++++
Date: Fri Oct 04 12:13:26 GMT-05:00 2013
User: price-jones
Dark Spectrum Present: No
Reference Spectrum Present: No
Number of Sampled Component Spectra: 1
Spectrometers: USB2+H05261
Integration Time (usec): 10000 (USB2+H05261)
Spectra Averaged: 1 (USB2+H05261)
Boxcar Smoothing: 0 (USB2+H05261)
Correct for Electrical Dark: No (USB2+H05261)
Strobe/Lamp Enabled: No (USB2+H05261)
Correct for Detector Non-linearity: No (USB2+H05261)
Correct for Stray Light: No (USB2+H05261)
Number of Pixels in Processed Spectrum: 2048
>>>>>Begin Processed Spectral Data<<<<<
365.73	16.38
365.92	16.38
366.12	16.38
366.32	0.00
366.52	0.00
366.72	0.00
366.91	0.00
367.11	0.00
367.31	0.00
367.51	0.00
367.70	0.00
367.90	0.00
368.10	0.00
368.30	0.00
368.49	0.00
368.69	0.00
368.89	0.00
369.09	0.00
369.28	0.00
369.48	0.00
369.68	0.00
369.87	0.00
370.07	0.00
370.27	0.00
370.47	0.00
370.66	0.00
370.86	0.00
371.06	0.00
371.25	0.00
371.45	23.41
371.65	0.00
371.84	0.00
372.04	0.00
372.24	0.00
372.44	23.41
372.63	56.17
372.83	0.00
373.03	0.00
373.22	25.75
373.42	0.00
373.62	25.75
373.81	35.11
374.01	25.75
374.21	21.06
374.40	53.83
374.60	0.00
374.79	16.38
374.99	0.00
375.19	42.13
375.38	105.32
375.58	9.36
375.78	100.64
375.97	0.00
376.17	35.11
376.37	81.92
376.56	30.43
376.76	30.43
376.95	70.22
377.15	23.41
377.35	49.15
377.54	37.45
377.74	0.00
377.93	21.06
378.13	0.00
378.33	65.54
378.52	30.43
378.72	77.24
378.91	56.17
379.11	56.17
379.31	0.00
379.50	88.94
379.70	0.00
379.89	72.56
380.09	51.49
380.28	4.68
380.48	0.00
380.68	11.70
380.87	35.11
381.07	0.00
381.26	30.43
381.46	11.70
381.65	30.43
381.85	9.36
382.04	25.75
382.24	0.00
382.43	53.83
382.63	0.00
382.83	0.00
383.02	21.06
383.22	0.00
383.41	37.45
383.61	63.19
383.80	49.15
384.00	56.17
384.19	51.49
384.39	0.00
384.58	63.19
384.78	0.00
384.97	60.85
385.17	35.11
385.36	56.17
385.56	23.41
385.75	51.49
385.95	0.00
386.14	21.06
386.34	67.88
386.53	18.72
386.72	105.32
386.92	77.24
387.11	0.00
387.31	37.45
387.50	53.83
387.70	0.00
387.89	30.43
388.09	25.75
388.28	18.72
388.48	0.00
388.67	9.36
388.86	0.00
389.06	0.00
389.25	65.54
389.45	63.19
389.64	88.94
389.84	25.75
390.03	49.15
390.22	0.00
390.42	56.17
390.61	0.00
390.81	0.00
391.00	11.70
391.19	21.06
391.39	0.00
391.58	0.00
391.78	0.00
391.97	0.00
392.16	70.22
392.36	30.43
392.55	0.00
392.75	0.00
392.94	72.56
393.13	21.06
393.33	28.09
393.52	0.00
393.71	4.68
393.91	53.83
394.10	11.70
394.29	74.90
394.49	2.34
394.68	11.70
394.88	42.13
395.07	74.90
395.26	0.00
395.46	4.68
395.65	0.00
395.84	28.09
396.04	0.00
396.23	16.38
396.42	70.22
396.62	7.02
396.81	23.41
397.00	0.00
397.19	79.58
397.39	0.00
397.58	16.38
397.77	0.00
397.97	46.81
398.16	25.75
398.35	21.06
398.55	0.00
398.74	0.00
398.93	49.15
399.12	51.49
399.32	0.00
399.51	37.45
399.70	0.00
399.90	4.68
400.09	46.81
400.28	30.43
400.47	37.45
400.67	21.06
400.86	0.00
401.05	0.00
401.24	0.00
401.44	37.45
401.63	28.09
401.82	0.00
402.01	0.00
402.21	0.00
402.40	49.15
402.59	18.72
402.78	0.00
402.97	60.85
403.17	46.81
403.36	7.02
403.55	60.85
403.74	0.00
403.93	14.04
404.13	32.77
404.32	0.00
404.51	35.11
404.70	9.36
404.89	28.09
405.09	44.47
405.28	16.38
405.47	39.79
405.66	39.79
405.85	42.13
406.05	23.41
406.24	84.26
406.43	0.00
406.62	9.36
406.81	14.04
407.00	37.45
407.20	42.13
407.39	44.47
407.58	56.17
407.77	4.68
407.96	46.81
408.15	51.49
408.34	74.90
408.54	0.00
408.73	46.81
408.92	63.19
409.11	46.81
409.30	65.54
409.49	21.06
409.68	21.06
409.87	65.54
410.07	14.04
410.26	72.56
410.45	37.45
410.64	18.72
410.83	21.06
411.02	21.06
411.21	25.75
411.40	86.60
411.59	53.83
411.78	14.04
411.98	0.00
412.17	0.00
412.36	11.70
412.55	117.03
412.74	32.77
412.93	2.34
413.12	0.00
413.31	23.41
413.50	30.43
413.69	63.19
413.88	32.77
414.07	0.00
414.26	60.85
414.45	0.00
414.64	9.36
414.83	0.00
415.02	9.36
415.22	124.05
415.41	46.81
415.60	53.83
415.79	44.47
415.98	107.66
416.17	44.47
416.36	77.24
416.55	49.15
416.74	65.54
416.93	9.36
417.12	42.13
417.31	11.70
417.50	0.00
417.69	0.00
417.88	30.43
418.07	32.77
418.26	11.70
418.45	63.19
418.64	0.00
418.83	28.09
419.02	0.00
419.21	16.38
419.39	28.09
419.58	0.00
419.77	0.00
419.96	25.75
420.15	0.00
420.34	58.51
420.53	105.32
420.72	23.41
420.91	4.68
421.10	11.70
421.29	28.09
421.48	56.17
421.67	37.45
421.86	21.06
422.05	102.98
422.24	56.17
422.43	86.60
422.61	67.88
422.80	51.49
422.99	0.00
423.18	42.13
423.37	11.70
423.56	35.11
423.75	30.43
423.94	9.36
424.13	39.79
424.32	70.22
424.50	77.24
424.69	79.58
424.88	65.54
425.07	25.75
425.26	23.41
425.45	0.00
425.64	44.47
425.83	70.22
426.01	0.00
426.20	21.06
426.39	37.45
426.58	23.41
426.77	81.92
426.96	37.45
427.15	2.34
427.33	39.79
427.52	28.09
427.71	0.00
427.90	32.77
428.09	67.88
428.28	51.49
428.46	4.68
428.65	0.00
428.84	23.41
429.03	0.00
429.22	0.00
429.40	28.09
429.59	16.38
429.78	2.34
429.97	56.17
430.16	81.92
430.34	77.24
430.53	23.41
430.72	0.00
430.91	23.41
431.10	0.00
431.28	49.15
431.47	88.94
431.66	58.51
431.85	28.09
432.03	0.00
432.22	53.83
432.41	18.72
432.60	70.22
432.79	0.00
432.97	39.79
433.16	51.49
433.35	81.92
433.54	84.26
433.72	77.24
433.91	0.00
434.10	60.85
434.28	0.00
434.47	72.56
434.66	0.00
434.85	2.34
435.03	100.64
435.22	65.54
435.41	93.62
435.59	46.81
435.78	67.88
435.97	65.54
436.16	0.00
436.34	21.06
436.53	44.47
436.72	23.41
436.90	9.36
437.09	67.88
437.28	25.75
437.46	0.00
437.65	4.68
437.84	11.70
438.02	0.00
438.21	21.06
438.40	60.85
438.58	42.13
438.77	46.81
438.96	18.72
439.14	4.68
439.33	25.75
439.52	0.00
439.70	60.85
439.89	42.13
440.08	0.00
440.26	51.49
440.45	72.56
440.63	2.34
440.82	0.00
441.01	0.00
441.19	128.73
441.38	0.00
441.57	56.17
441.75	32.77
441.94	30.43
442.12	60.85
442.31	14.04
442.50	0.00
442.68	30.43
442.87	35.11
443.05	63.19
443.24	14.04
443.43	0.00
443.61	32.77
443.80	0.00
443.98	42.13
444.17	56.17
444.35	70.22
444.54	51.49
444.73	39.79
444.91	67.88
445.10	0.00
445.28	63.19
445.47	16.38
445.65	2.34
445.84	7.02
446.02	0.00
446.21	60.85
446.39	4.68
446.58	95.96
446.77	0.00
446.95	23.41
447.14	0.00
447.32	0.00
447.51	84.26
447.69	4.68
447.88	37.45
448.06	81.92
448.25	4.68
448.43	4.68
448.62	7.02
448.80	37.45
448.99	65.54
449.17	2.34
449.36	53.83
449.54	30.43
449.73	25.75
449.91	44.47
450.10	30.43
450.28	14.04
450.46	32.77
450.65	35.11
450.83	37.45
451.02	65.54
451.20	30.43
451.39	46.81
451.57	0.00
451.76	37.45
451.94	56.17
452.13	21.06
452.31	39.79
452.49	14.04
452.68	0.00
452.86	0.00
453.05	0.00
453.23	56.17
453.42	39.79
453.60	28.09
453.78	79.58
453.97	7.02
454.15	25.75
454.34	37.45
454.52	37.45
454.70	60.85
454.89	95.96
455.07	72.56
455.26	81.92
455.44	0.00
455.62	72.56
455.81	4.68
455.99	46.81
456.17	23.41
456.36	46.81
456.54	42.13
456.73	35.11
456.91	81.92
457.09	42.13
457.28	65.54
457.46	23.41
457.64	25.75
457.83	4.68
458.01	4.68
458.19	23.41
458.38	25.75
458.56	39.79
458.74	0.00
458.93	0.00
459.11	0.00
459.29	2.34
459.48	32.77
459.66	37.45
459.84	0.00
460.03	37.45
460.21	67.88
460.39	53.83
460.57	46.81
460.76	91.28
460.94	60.85
461.12	58.51
461.31	86.60
461.49	30.43
461.67	0.00
461.85	49.15
462.04	107.66
462.22	131.07
462.40	25.75
462.59	102.98
462.77	23.41
462.95	84.26
463.13	30.43
463.32	0.00
463.50	67.88
463.68	32.77
463.86	23.41
464.05	0.00
464.23	0.00
464.41	9.36
464.59	42.13
464.78	0.00
464.96	32.77
465.14	56.17
465.32	0.00
465.50	56.17
465.69	0.00
465.87	0.00
466.05	84.26
466.23	2.34
466.41	70.22
466.60	0.00
466.78	58.51
466.96	56.17
467.14	30.43
467.32	32.77
467.51	53.83
467.69	28.09
467.87	28.09
468.05	95.96
468.23	56.17
468.41	67.88
468.60	25.75
468.78	49.15
468.96	0.00
469.14	58.51
469.32	11.70
469.50	46.81
469.69	56.17
469.87	32.77
470.05	35.11
470.23	35.11
470.41	18.72
470.59	0.00
470.77	42.13
470.95	53.83
471.14	0.00
471.32	0.00
471.50	53.83
471.68	44.47
471.86	0.00
472.04	25.75
472.22	7.02
472.40	32.77
472.58	37.45
472.77	0.00
472.95	0.00
473.13	49.15
473.31	37.45
473.49	0.00
473.67	0.00
473.85	0.00
474.03	46.81
474.21	0.00
474.39	98.30
474.57	95.96
474.75	60.85
474.93	74.90
475.12	88.94
475.30	42.13
475.48	107.66
475.66	72.56
475.84	16.38
476.02	42.13
476.20	86.60
476.38	0.00
476.56	18.72
476.74	0.00
476.92	0.00
477.10	2.34
477.28	35.11
477.46	16.38
477.64	53.83
477.82	32.77
478.00	0.00
478.18	107.66
478.36	0.00
478.54	56.17
478.72	51.49
478.90	18.72
479.08	37.45
479.26	0.00
479.44	18.72
479.62	0.00
479.80	28.09
479.98	63.19
480.16	63.19
480.34	51.49
480.52	18.72
480.70	0.00
480.88	23.41
481.06	28.09
481.24	44.47
481.41	0.00
481.59	11.70
481.77	95.96
481.95	30.43
482.13	112.35
482.31	0.00
482.49	23.41
482.67	2.34
482.85	35.11
483.03	0.00
483.21	14.04
483.39	56.17
483.57	70.22
483.74	70.22
483.92	46.81
484.10	63.19
484.28	63.19
484.46	0.00
484.64	37.45
484.82	0.00
485.00	37.45
485.18	7.02
485.35	49.15
485.53	39.79
485.71	131.07
485.89	51.49
486.07	56.17
486.25	74.90
486.43	0.00
486.61	11.70
486.78	79.58
486.96	9.36
487.14	42.13
487.32	63.19
487.50	0.00
487.68	39.79
487.85	39.79
488.03	49.15
488.21	23.41
488.39	14.04
488.57	39.79
488.75	0.00
488.92	28.09
489.10	30.43
489.28	4.68
489.46	23.41
489.64	65.54
489.81	49.15
489.99	21.06
490.17	65.54
490.35	30.43
490.53	9.36
490.70	67.88
490.88	102.98
491.06	25.75
491.24	0.00
491.41	0.00
491.59	81.92
491.77	14.04
491.95	0.00
492.13	35.11
492.30	16.38
492.48	16.38
492.66	0.00
492.84	4.68
493.01	63.19
493.19	102.98
493.37	25.75
493.54	7.02
493.72	23.41
493.90	7.02
494.08	28.09
494.25	37.45
494.43	37.45
494.61	56.17
494.79	42.13
494.96	0.00
495.14	21.06
495.32	0.00
495.49	100.64
495.67	105.32
495.85	49.15
496.02	0.00
496.20	2.34
496.38	0.00
496.55	53.83
496.73	51.49
496.91	72.56
497.09	9.36
497.26	72.56
497.44	53.83
497.62	84.26
497.79	51.49
497.97	32.77
498.14	0.00
498.32	0.00
498.50	18.72
498.67	0.00
498.85	0.00
499.03	0.00
499.20	16.38
499.38	35.11
499.56	53.83
499.73	42.13
499.91	0.00
500.08	63.19
500.26	56.17
500.44	126.39
500.61	21.06
500.79	0.00
500.97	0.00
501.14	105.32
501.32	28.09
501.49	28.09
501.67	16.38
501.84	37.45
502.02	0.00
502.20	56.17
502.37	0.00
502.55	0.00
502.72	42.13
502.90	7.02
503.07	21.06
503.25	30.43
503.43	9.36
503.60	25.75
503.78	63.19
503.95	88.94
504.13	0.00
504.30	133.41
504.48	28.09
504.65	53.83
504.83	4.68
505.01	67.88
505.18	72.56
505.36	16.38
505.53	4.68
505.71	114.69
505.88	65.54
506.06	93.62
506.23	0.00
506.41	56.17
506.58	0.00
506.76	42.13
506.93	30.43
507.11	56.17
507.28	0.00
507.46	14.04
507.63	0.00
507.81	0.00
507.98	0.00
508.16	79.58
508.33	0.00
508.50	4.68
508.68	65.54
508.85	84.26
509.03	100.64
509.20	0.00
509.38	18.72
509.55	49.15
509.73	0.00
509.90	18.72
510.08	11.70
510.25	39.79
510.42	35.11
510.60	53.83
510.77	21.06
510.95	28.09
511.12	46.81
511.30	124.05
511.47	77.24
511.64	86.60
511.82	32.77
511.99	23.41
512.17	4.68
512.34	0.00
512.51	37.45
512.69	21.06
512.86	51.49
513.04	49.15
513.21	91.28
513.38	42.13
513.56	2.34
513.73	42.13
513.90	0.00
514.08	0.00
514.25	9.36
514.43	58.51
514.60	79.58
514.77	0.00
514.95	0.00
515.12	51.49
515.29	81.92
515.47	42.13
515.64	58.51
515.81	70.22
515.99	93.62
516.16	18.72
516.33	58.51
516.51	53.83
516.68	0.00
516.85	2.34
517.03	14.04
517.20	25.75
517.37	81.92
517.54	56.17
517.72	60.85
517.89	102.98
518.06	60.85
518.24	114.69
518.41	44.47
518.58	65.54
518.75	39.79
518.93	42.13
519.10	0.00
519.27	46.81
519.45	2.34
519.62	0.00
519.79	74.90
519.96	105.32
520.14	21.06
520.31	37.45
520.48	49.15
520.65	60.85
520.83	67.88
521.00	0.00
521.17	84.26
521.34	32.77
521.52	18.72
521.69	28.09
521.86	25.75
522.03	51.49
522.20	63.19
522.38	67.88
522.55	72.56
522.72	84.26
522.89	102.98
523.07	2.34
523.24	37.45
523.41	63.19
523.58	23.41
523.75	86.60
523.92	23.41
524.10	65.54
524.27	30.43
524.44	149.79
524.61	49.15
524.78	51.49
524.96	0.00
525.13	9.36
525.30	79.58
525.47	16.38
525.64	53.83
525.81	46.81
525.98	7.02
526.16	23.41
526.33	0.00
526.50	28.09
526.67	35.11
526.84	30.43
527.01	21.06
527.18	0.00
527.36	16.38
527.53	18.72
527.70	16.38
527.87	0.00
528.04	88.94
528.21	35.11
528.38	65.54
528.55	79.58
528.72	42.13
528.89	4.68
529.07	133.41
529.24	81.92
529.41	53.83
529.58	30.43
529.75	77.24
529.92	0.00
530.09	74.90
530.26	93.62
530.43	16.38
530.60	42.13
530.77	16.38
530.94	0.00
531.11	0.00
531.28	74.90
531.46	77.24
531.63	81.92
531.80	7.02
531.97	28.09
532.14	70.22
532.31	37.45
532.48	74.90
532.65	100.64
532.82	58.51
532.99	53.83
533.16	44.47
533.33	0.00
533.50	44.47
533.67	14.04
533.84	0.00
534.01	0.00
534.18	44.47
534.35	107.66
534.52	63.19
534.69	25.75
534.86	72.56
535.03	2.34
535.20	23.41
535.37	56.17
535.54	81.92
535.71	93.62
535.88	42.13
536.05	65.54
536.22	67.88
536.38	51.49
536.55	49.15
536.72	88.94
536.89	117.03
537.06	42.13
537.23	0.00
537.40	0.00
537.57	0.00
537.74	25.75
537.91	7.02
538.08	32.77
538.25	28.09
538.42	37.45
538.59	105.32
538.75	21.06
538.92	0.00
539.09	44.47
539.26	39.79
539.43	0.00
539.60	42.13
539.77	63.19
539.94	60.85
540.11	25.75
540.28	42.13
540.44	100.64
540.61	28.09
540.78	37.45
540.95	11.70
541.12	9.36
541.29	32.77
541.46	0.00
541.62	46.81
541.79	51.49
541.96	72.56
542.13	46.81
542.30	79.58
542.47	44.47
542.63	53.83
542.80	37.45
542.97	0.00
543.14	39.79
543.31	0.00
543.48	18.72
543.64	16.38
543.81	11.70
543.98	7.02
544.15	72.56
544.32	51.49
544.48	30.43
544.65	72.56
544.82	25.75
544.99	46.81
545.16	49.15
545.32	42.13
545.49	25.75
545.66	21.06
545.83	0.00
546.00	119.37
546.16	16.38
546.33	32.77
546.50	0.00
546.67	63.19
546.83	11.70
547.00	4.68
547.17	0.00
547.34	98.30
547.50	67.88
547.67	7.02
547.84	0.00
548.00	0.00
548.17	53.83
548.34	44.47
548.51	67.88
548.67	0.00
548.84	42.13
549.01	121.71
549.18	44.47
549.34	11.70
549.51	16.38
549.68	0.00
549.84	0.00
550.01	44.47
550.18	58.51
550.34	49.15
550.51	49.15
550.68	72.56
550.84	32.77
551.01	0.00
551.18	0.00
551.34	21.06
551.51	21.06
551.68	60.85
551.84	35.11
552.01	30.43
552.18	72.56
552.34	138.09
552.51	51.49
552.68	81.92
552.84	42.13
553.01	39.79
553.18	0.00
553.34	81.92
553.51	46.81
553.67	42.13
553.84	53.83
554.01	166.18
554.17	11.70
554.34	37.45
554.51	51.49
554.67	49.15
554.84	81.92
555.00	84.26
555.17	14.04
555.33	58.51
555.50	84.26
555.67	42.13
555.83	53.83
556.00	16.38
556.16	102.98
556.33	58.51
556.50	46.81
556.66	81.92
556.83	9.36
556.99	58.51
557.16	56.17
557.32	95.96
557.49	51.49
557.65	16.38
557.82	18.72
557.98	63.19
558.15	0.00
558.32	58.51
558.48	72.56
558.65	28.09
558.81	44.47
558.98	70.22
559.14	37.45
559.31	23.41
559.47	4.68
559.64	74.90
559.80	56.17
559.97	18.72
560.13	107.66
560.30	28.09
560.46	0.00
560.63	0.00
560.79	25.75
560.96	72.56
561.12	67.88
561.29	112.35
561.45	23.41
561.61	25.75
561.78	91.28
561.94	51.49
562.11	67.88
562.27	81.92
562.44	102.98
562.60	2.34
562.77	98.30
562.93	11.70
563.10	14.04
563.26	124.05
563.42	58.51
563.59	60.85
563.75	14.04
563.92	63.19
564.08	42.13
564.24	30.43
564.41	84.26
564.57	23.41
564.74	23.41
564.90	42.13
565.07	60.85
565.23	56.17
565.39	42.13
565.56	51.49
565.72	42.13
565.88	0.00
566.05	63.19
566.21	67.88
566.38	32.77
566.54	28.09
566.70	58.51
566.87	44.47
567.03	86.60
567.19	21.06
567.36	16.38
567.52	65.54
567.68	81.92
567.85	23.41
568.01	56.17
568.17	0.00
568.34	7.02
568.50	28.09
568.66	98.30
568.83	30.43
568.99	0.00
569.15	32.77
569.32	0.00
569.48	16.38
569.64	0.00
569.81	32.77
569.97	58.51
570.13	23.41
570.30	56.17
570.46	30.43
570.62	51.49
570.78	2.34
570.95	30.43
571.11	4.68
571.27	49.15
571.43	4.68
571.60	44.47
571.76	56.17
571.92	0.00
572.09	7.02
572.25	63.19
572.41	0.00
572.57	79.58
572.74	0.00
572.90	37.45
573.06	11.70
573.22	102.98
573.38	74.90
573.55	7.02
573.71	0.00
573.87	0.00
574.03	4.68
574.20	39.79
574.36	21.06
574.52	37.45
574.68	23.41
574.84	60.85
575.01	95.96
575.17	95.96
575.33	60.85
575.49	2.34
575.65	77.24
575.82	86.60
575.98	2.34
576.14	74.90
576.30	16.38
576.46	30.43
576.62	67.88
576.79	95.96
576.95	105.32
577.11	2.34
577.27	9.36
577.43	46.81
577.59	32.77
577.75	0.00
577.92	72.56
578.08	74.90
578.24	42.13
578.40	4.68
578.56	74.90
578.72	58.51
578.88	56.17
579.04	81.92
579.21	0.00
579.37	30.43
579.53	63.19
579.69	0.00
579.85	67.88
580.01	95.96
580.17	67.88
580.33	28.09
580.49	44.47
580.65	72.56
580.82	110.01
580.98	39.79
581.14	0.00
581.30	91.28
581.46	49.15
581.62	65.54
581.78	23.41
581.94	42.13
582.10	16.38
582.26	53.83
582.42	60.85
582.58	46.81
582.74	49.15
582.90	16.38
583.06	28.09
583.22	98.30
583.38	77.24
583.54	77.24
583.70	156.82
583.86	42.13
584.02	14.04
584.18	42.13
584.34	56.17
584.50	53.83
584.66	231.71
584.82	678.76
584.98	844.93
585.14	744.29
585.30	589.82
585.46	353.42
585.62	269.16
585.78	114.69
585.94	0.00
586.10	21.06
586.26	63.19
586.42	35.11
586.58	23.41
586.74	0.00
586.90	44.47
587.06	53.83
587.22	63.19
587.38	0.00
587.54	44.47
587.70	107.66
587.86	86.60
588.02	79.58
588.18	65.54
588.34	46.81
588.49	44.47
588.65	81.92
588.81	9.36
588.97	67.88
589.13	37.45
589.29	37.45
589.45	42.13
589.61	58.51
589.77	58.51
589.93	63.19
590.08	4.68
590.24	49.15
590.40	72.56
590.56	35.11
590.72	21.06
590.88	105.32
591.04	60.85
591.20	7.02
591.35	53.83
591.51	56.17
591.67	84.26
591.83	14.04
591.99	32.77
592.15	9.36
592.31	2.34
592.46	28.09
592.62	4.68
592.78	63.19
592.94	35.11
593.10	16.38
593.26	14.04
593.41	4.68
593.57	4.68
593.73	102.98
593.89	140.43
594.05	105.32
594.20	180.22
594.36	203.63
594.52	81.92
594.68	88.94
594.84	114.69
594.99	39.79
595.15	49.15
595.31	39.79
595.47	42.13
595.62	0.00
595.78	0.00
595.94	149.79
596.10	58.51
596.25	0.00
596.41	0.00
596.57	7.02
596.73	0.00
596.88	0.00
597.04	0.00
597.20	44.47
597.36	86.60
597.51	39.79
597.67	91.28
597.83	58.51
597.99	72.56
598.14	37.45
598.30	7.02
598.46	18.72
598.61	53.83
598.77	30.43
598.93	0.00
599.09	35.11
599.24	0.00
599.40	100.64
599.56	100.64
599.71	0.00
599.87	51.49
600.03	0.00
600.18	42.13
600.34	49.15
600.50	67.88
600.65	110.01
600.81	53.83
600.97	46.81
601.12	35.11
601.28	72.56
601.44	60.85
601.59	9.36
601.75	39.79
601.91	0.00
602.06	42.13
602.22	0.00
602.37	0.00
602.53	63.19
602.69	70.22
602.84	124.05
603.00	0.00
603.16	0.00
603.31	42.13
603.47	65.54
603.62	28.09
603.78	53.83
603.94	56.17
604.09	56.17
604.25	77.24
604.40	56.17
604.56	30.43
604.71	44.47
604.87	44.47
605.03	25.75
605.18	30.43
605.34	142.77
605.49	56.17
605.65	0.00
605.80	0.00
605.96	74.90
606.12	93.62
606.27	53.83
606.43	18.72
606.58	16.38
606.74	28.09
606.89	105.32
607.05	100.64
607.20	234.05
607.36	128.73
607.51	138.09
607.67	74.90
607.82	95.96
607.98	28.09
608.13	58.51
608.29	7.02
608.44	32.77
608.60	0.00
608.75	63.19
608.91	65.54
609.06	65.54
609.22	154.48
609.37	215.33
609.53	140.43
609.68	168.52
609.84	100.64
609.99	23.41
610.15	25.75
610.30	63.19
610.46	74.90
610.61	23.41
610.76	53.83
610.92	86.60
611.07	18.72
611.23	77.24
611.38	0.00
611.54	51.49
611.69	0.00
611.84	72.56
612.00	25.75
612.15	25.75
612.31	37.45
612.46	23.41
612.62	46.81
612.77	70.22
612.92	79.58
613.08	21.06
613.23	56.17
613.39	2.34
613.54	0.00
613.69	86.60
613.85	215.33
614.00	334.70
614.15	327.68
614.31	318.31
614.46	196.60
614.62	70.22
614.77	98.30
614.92	49.15
615.08	0.00
615.23	98.30
615.38	4.68
615.54	30.43
615.69	119.37
615.84	23.41
616.00	63.19
616.15	65.54
616.30	102.98
616.46	77.24
616.61	56.17
616.76	51.49
616.92	102.98
617.07	91.28
617.22	110.01
617.37	0.00
617.53	0.00
617.68	30.43
617.83	44.47
617.99	0.00
618.14	60.85
618.29	11.70
618.45	42.13
618.60	30.43
618.75	7.02
618.90	11.70
619.06	9.36
619.21	65.54
619.36	7.02
619.51	79.58
619.67	51.49
619.82	25.75
619.97	7.02
620.12	28.09
620.28	63.19
620.43	37.45
620.58	0.00
620.73	0.00
620.89	0.00
621.04	46.81
621.19	84.26
621.34	65.54
621.49	114.69
621.65	72.56
621.80	14.04
621.95	51.49
622.10	32.77
622.25	84.26
622.41	86.60
622.56	18.72
622.71	53.83
622.86	32.77
623.01	14.04
623.16	25.75
623.32	58.51
623.47	65.54
623.62	60.85
623.77	138.09
623.92	21.06
624.07	93.62
624.23	63.19
624.38	0.00
624.53	32.77
624.68	2.34
624.83	0.00
624.98	81.92
625.13	30.43
625.29	77.24
625.44	67.88
625.59	25.75
625.74	81.92
625.89	77.24
626.04	86.60
626.19	81.92
626.34	189.58
626.49	208.31
626.65	117.03
626.80	156.82
626.95	121.71
627.10	74.90
627.25	16.38
627.40	102.98
627.55	95.96
627.70	0.00
627.85	53.83
628.00	0.00
628.15	63.19
628.30	37.45
628.45	63.19
628.60	37.45
628.76	79.58
628.91	95.96
629.06	28.09
629.21	46.81
629.36	86.60
629.51	16.38
629.66	46.81
629.81	72.56
629.96	93.62
630.11	133.41
630.26	49.15
630.41	51.49
630.56	58.51
630.71	84.26
630.86	86.60
631.01	4.68
631.16	2.34
631.31	0.00
631.46	42.13
631.61	70.22
631.76	46.81
631.91	30.43
632.06	81.92
632.21	102.98
632.36	28.09
632.51	86.60
632.66	21.06
632.81	63.19
632.96	77.24
633.10	105.32
633.25	198.95
633.40	170.86
633.55	107.66
633.70	70.22
633.85	18.72
634.00	63.19
634.15	67.88
634.30	0.00
634.45	4.68
634.60	0.00
634.75	0.00
634.90	0.00
635.05	0.00
635.19	86.60
635.34	21.06
635.49	16.38
635.64	65.54
635.79	11.70
635.94	63.19
636.09	63.19
636.24	65.54
636.39	58.51
636.53	79.58
636.68	72.56
636.83	46.81
636.98	42.13
637.13	23.41
637.28	35.11
637.43	51.49
637.57	124.05
637.72	70.22
637.87	241.08
638.02	198.95
638.17	255.12
638.32	119.37
638.46	67.88
638.61	121.71
638.76	32.77
638.91	7.02
639.06	86.60
639.20	21.06
639.35	42.13
639.50	46.81
639.65	187.24
639.80	177.88
639.94	313.63
640.09	379.17
640.24	229.37
640.39	196.60
640.54	145.11
640.68	44.47
640.83	30.43
640.98	60.85
641.13	88.94
641.27	23.41
641.42	49.15
641.57	32.77
641.72	46.81
641.86	63.19
642.01	60.85
642.16	2.34
642.31	44.47
642.45	0.00
642.60	37.45
642.75	46.81
642.90	79.58
643.04	0.00
643.19	74.90
643.34	58.51
643.48	49.15
643.63	32.77
643.78	58.51
643.93	0.00
644.07	0.00
644.22	30.43
644.37	58.51
644.51	21.06
644.66	67.88
644.81	63.19
644.95	18.72
645.10	60.85
645.25	42.13
645.39	4.68
645.54	25.75
645.69	65.54
645.83	16.38
645.98	72.56
646.13	32.77
646.27	23.41
646.42	56.17
646.57	0.00
646.71	7.02
646.86	14.04
647.00	51.49
647.15	95.96
647.30	79.58
647.44	53.83
647.59	0.00
647.74	30.43
647.88	46.81
648.03	0.00
648.17	0.00
648.32	4.68
648.47	0.00
648.61	65.54
648.76	0.00
648.90	53.83
649.05	81.92
649.20	0.00
649.34	0.00
649.49	63.19
649.63	46.81
649.78	42.13
649.92	0.00
650.07	112.35
650.21	74.90
650.36	184.90
650.51	166.18
650.65	100.64
650.80	70.22
650.94	98.30
651.09	11.70
651.23	93.62
651.38	30.43
651.52	35.11
651.67	49.15
651.81	49.15
651.96	0.00
652.10	44.47
652.25	84.26
652.39	23.41
652.54	91.28
652.68	102.98
652.83	37.45
652.97	56.17
653.12	107.66
653.26	175.54
653.41	102.98
653.55	21.06
653.70	65.54
653.84	35.11
653.99	58.51
654.13	30.43
654.27	11.70
654.42	32.77
654.56	7.02
654.71	39.79
654.85	67.88
655.00	79.58
655.14	0.00
655.29	91.28
655.43	25.75
655.57	0.00
655.72	14.04
655.86	0.00
656.01	42.13
656.15	0.00
656.30	0.00
656.44	84.26
656.58	49.15
656.73	0.00
656.87	18.72
657.01	35.11
657.16	74.90
657.30	2.34
657.45	25.75
657.59	4.68
657.73	30.43
657.88	23.41
658.02	42.13
658.16	46.81
658.31	49.15
658.45	35.11
658.60	72.56
658.74	25.75
658.88	49.15
659.03	9.36
659.17	53.83
659.31	4.68
659.46	56.17
659.60	28.09
659.74	138.09
659.89	79.58
660.03	102.98
660.17	91.28
660.32	65.54
660.46	46.81
660.60	14.04
660.74	81.92
660.89	0.00
661.03	0.00
661.17	51.49
661.32	65.54
661.46	23.41
661.60	23.41
661.74	79.58
661.89	70.22
662.03	46.81
662.17	65.54
662.31	11.70
662.46	128.73
662.60	30.43
662.74	63.19
662.88	30.43
663.03	63.19
663.17	18.72
663.31	51.49
663.45	35.11
663.60	72.56
663.74	42.13
663.88	63.19
664.02	121.71
664.17	0.00
664.31	16.38
664.45	46.81
664.59	23.41
664.73	25.75
664.88	112.35
665.02	37.45
665.16	58.51
665.30	9.36
665.44	91.28
665.59	49.15
665.73	37.45
665.87	0.00
666.01	14.04
666.15	0.00
666.29	23.41
666.44	53.83
666.58	84.26
666.72	46.81
666.86	16.38
667.00	0.00
667.14	65.54
667.28	23.41
667.43	49.15
667.57	138.09
667.71	184.90
667.85	84.26
667.99	88.94
668.13	60.85
668.27	60.85
668.41	102.98
668.56	65.54
668.70	28.09
668.84	30.43
668.98	0.00
669.12	0.00
669.26	30.43
669.40	56.17
669.54	67.88
669.68	46.81
669.82	60.85
669.96	16.38
670.10	77.24
670.25	65.54
670.39	23.41
670.53	23.41
670.67	23.41
670.81	2.34
670.95	0.00
671.09	58.51
671.23	70.22
671.37	86.60
671.51	58.51
671.65	98.30
671.79	70.22
671.93	28.09
672.07	25.75
672.21	44.47
672.35	39.79
672.49	39.79
672.63	32.77
672.77	95.96
672.91	58.51
673.05	102.98
673.19	0.00
673.33	25.75
673.47	37.45
673.61	58.51
673.75	0.00
673.89	98.30
674.03	0.00
674.17	49.15
674.31	128.73
674.45	91.28
674.59	2.34
674.73	14.04
674.87	100.64
675.01	42.13
675.15	58.51
675.29	46.81
675.43	65.54
675.56	0.00
675.70	42.13
675.84	16.38
675.98	37.45
676.12	44.47
676.26	98.30
676.40	39.79
676.54	60.85
676.68	0.00
676.82	30.43
676.96	0.00
677.10	53.83
677.23	4.68
677.37	30.43
677.51	11.70
677.65	58.51
677.79	42.13
677.93	51.49
678.07	0.00
678.21	0.00
678.34	65.54
678.48	30.43
678.62	35.11
678.76	88.94
678.90	28.09
679.04	86.60
679.18	51.49
679.31	107.66
679.45	21.06
679.59	67.88
679.73	32.77
679.87	2.34
680.00	114.69
680.14	32.77
680.28	0.00
680.42	0.00
680.56	23.41
680.70	30.43
680.83	74.90
680.97	14.04
681.11	2.34
681.25	14.04
681.39	70.22
681.52	37.45
681.66	42.13
681.80	88.94
681.94	46.81
682.07	11.70
682.21	0.00
682.35	14.04
682.49	0.00
682.62	65.54
682.76	0.00
682.90	67.88
683.04	60.85
683.17	0.00
683.31	77.24
683.45	98.30
683.59	0.00
683.72	30.43
683.86	0.00
684.00	2.34
684.13	11.70
684.27	0.00
684.41	95.96
684.55	60.85
684.68	0.00
684.82	35.11
684.96	49.15
685.09	35.11
685.23	32.77
685.37	18.72
685.50	0.00
685.64	35.11
685.78	44.47
685.91	32.77
686.05	0.00
686.19	35.11
686.32	14.04
686.46	0.00
686.60	21.06
686.73	32.77
686.87	42.13
687.01	39.79
687.14	11.70
687.28	37.45
687.42	74.90
687.55	46.81
687.69	65.54
687.82	28.09
687.96	21.06
688.10	53.83
688.23	81.92
688.37	30.43
688.50	16.38
688.64	39.79
688.78	16.38
688.91	23.41
689.05	39.79
689.18	51.49
689.32	53.83
689.46	77.24
689.59	9.36
689.73	0.00
689.86	21.06
690.00	72.56
690.13	0.00
690.27	51.49
690.41	2.34
690.54	53.83
690.68	4.68
690.81	23.41
690.95	14.04
691.08	32.77
691.22	65.54
691.35	88.94
691.49	42.13
691.62	35.11
691.76	4.68
691.89	79.58
692.03	147.45
692.16	14.04
692.30	18.72
692.43	21.06
692.57	84.26
692.70	124.05
692.84	70.22
692.97	117.03
693.11	105.32
693.24	56.17
693.38	65.54
693.51	0.00
693.65	39.79
693.78	21.06
693.92	11.70
694.05	49.15
694.19	46.81
694.32	4.68
694.45	44.47
694.59	16.38
694.72	51.49
694.86	91.28
694.99	37.45
695.13	0.00
695.26	23.41
695.39	0.00
695.53	0.00
695.66	60.85
695.80	0.00
695.93	0.00
696.07	51.49
696.20	86.60
696.33	30.43
696.47	58.51
696.60	46.81
696.73	0.00
696.87	124.05
697.00	32.77
697.14	9.36
697.27	21.06
697.40	11.70
697.54	77.24
697.67	81.92
697.80	30.43
697.94	0.00
698.07	30.43
698.21	25.75
698.34	77.24
698.47	0.00
698.61	35.11
698.74	46.81
698.87	0.00
699.01	46.81
699.14	107.66
699.27	46.81
699.40	105.32
699.54	60.85
699.67	51.49
699.80	28.09
699.94	60.85
700.07	72.56
700.20	37.45
700.34	30.43
700.47	0.00
700.60	0.00
700.73	32.77
700.87	21.06
701.00	37.45
701.13	0.00
701.26	25.75
701.40	21.06
701.53	0.00
701.66	35.11
701.79	0.00
701.93	49.15
702.06	58.51
702.19	63.19
702.32	9.36
702.46	16.38
702.59	35.11
702.72	77.24
702.85	74.90
702.99	154.48
703.12	205.97
703.25	163.84
703.38	159.16
703.51	149.79
703.65	98.30
703.78	65.54
703.91	49.15
704.04	49.15
704.17	63.19
704.31	74.90
704.44	37.45
704.57	63.19
704.70	0.00
704.83	93.62
704.96	56.17
705.10	58.51
705.23	63.19
>>>>>End Processed Spectral Data<<<<<
