SpectraSuite Data File
++++++++++++++++++++++++++++++++++++
Date: Fri Oct 04 12:13:35 GMT-05:00 2013
User: price-jones
Dark Spectrum Present: No
Reference Spectrum Present: No
Number of Sampled Component Spectra: 1
Spectrometers: USB2+H05261
Integration Time (usec): 10000 (USB2+H05261)
Spectra Averaged: 1 (USB2+H05261)
Boxcar Smoothing: 0 (USB2+H05261)
Correct for Electrical Dark: No (USB2+H05261)
Strobe/Lamp Enabled: No (USB2+H05261)
Correct for Detector Non-linearity: No (USB2+H05261)
Correct for Stray Light: No (USB2+H05261)
Number of Pixels in Processed Spectrum: 2048
>>>>>Begin Processed Spectral Data<<<<<
365.73	7.02
365.92	7.02
366.12	7.02
366.32	0.00
366.52	0.00
366.72	0.00
366.91	0.00
367.11	0.00
367.31	0.00
367.51	0.00
367.70	0.00
367.90	0.00
368.10	0.00
368.30	0.00
368.49	0.00
368.69	0.00
368.89	0.00
369.09	0.00
369.28	0.00
369.48	0.00
369.68	0.00
369.87	0.00
370.07	0.00
370.27	0.00
370.47	0.00
370.66	0.00
370.86	0.00
371.06	16.38
371.25	0.00
371.45	0.00
371.65	0.00
371.84	0.00
372.04	0.00
372.24	63.19
372.44	0.00
372.63	0.00
372.83	0.00
373.03	44.47
373.22	44.47
373.42	0.00
373.62	37.45
373.81	32.77
374.01	42.13
374.21	0.00
374.40	0.00
374.60	70.22
374.79	2.34
374.99	23.41
375.19	39.79
375.38	0.00
375.58	0.00
375.78	21.06
375.97	0.00
376.17	35.11
376.37	2.34
376.56	56.17
376.76	0.00
376.95	23.41
377.15	91.28
377.35	107.66
377.54	21.06
377.74	30.43
377.93	0.00
378.13	16.38
378.33	23.41
378.52	46.81
378.72	35.11
378.91	0.00
379.11	44.47
379.31	60.85
379.50	0.00
379.70	0.00
379.89	25.75
380.09	18.72
380.28	0.00
380.48	0.00
380.68	23.41
380.87	16.38
381.07	23.41
381.26	39.79
381.46	0.00
381.65	0.00
381.85	37.45
382.04	0.00
382.24	44.47
382.43	30.43
382.63	44.47
382.83	0.00
383.02	53.83
383.22	53.83
383.41	39.79
383.61	42.13
383.80	77.24
384.00	0.00
384.19	30.43
384.39	46.81
384.58	16.38
384.78	67.88
384.97	0.00
385.17	63.19
385.36	25.75
385.56	65.54
385.75	2.34
385.95	0.00
386.14	60.85
386.34	16.38
386.53	0.00
386.72	49.15
386.92	0.00
387.11	23.41
387.31	9.36
387.50	72.56
387.70	0.00
387.89	46.81
388.09	4.68
388.28	0.00
388.48	42.13
388.67	21.06
388.86	35.11
389.06	9.36
389.25	53.83
389.45	0.00
389.64	21.06
389.84	70.22
390.03	51.49
390.22	0.00
390.42	32.77
390.61	0.00
390.81	0.00
391.00	0.00
391.19	86.60
391.39	11.70
391.58	16.38
391.78	0.00
391.97	32.77
392.16	53.83
392.36	32.77
392.55	0.00
392.75	0.00
392.94	0.00
393.13	49.15
393.33	0.00
393.52	79.58
393.71	138.09
393.91	44.47
394.10	0.00
394.29	46.81
394.49	37.45
394.68	32.77
394.88	21.06
395.07	46.81
395.26	28.09
395.46	4.68
395.65	0.00
395.84	0.00
396.04	39.79
396.23	72.56
396.42	23.41
396.62	0.00
396.81	4.68
397.00	14.04
397.19	0.00
397.39	11.70
397.58	32.77
397.77	58.51
397.97	0.00
398.16	25.75
398.35	0.00
398.55	7.02
398.74	16.38
398.93	32.77
399.12	16.38
399.32	77.24
399.51	30.43
399.70	28.09
399.90	7.02
400.09	46.81
400.28	0.00
400.47	51.49
400.67	51.49
400.86	77.24
401.05	70.22
401.24	25.75
401.44	32.77
401.63	91.28
401.82	39.79
402.01	7.02
402.21	0.00
402.40	37.45
402.59	42.13
402.78	58.51
402.97	84.26
403.17	44.47
403.36	23.41
403.55	0.00
403.74	7.02
403.93	28.09
404.13	49.15
404.32	37.45
404.51	30.43
404.70	0.00
404.89	60.85
405.09	53.83
405.28	11.70
405.47	72.56
405.66	77.24
405.85	63.19
406.05	39.79
406.24	16.38
406.43	39.79
406.62	0.00
406.81	77.24
407.00	23.41
407.20	4.68
407.39	79.58
407.58	28.09
407.77	51.49
407.96	7.02
408.15	42.13
408.34	23.41
408.54	51.49
408.73	0.00
408.92	63.19
409.11	11.70
409.30	18.72
409.49	0.00
409.68	84.26
409.87	77.24
410.07	25.75
410.26	14.04
410.45	74.90
410.64	56.17
410.83	39.79
411.02	65.54
411.21	21.06
411.40	42.13
411.59	0.00
411.78	72.56
411.98	44.47
412.17	21.06
412.36	9.36
412.55	39.79
412.74	65.54
412.93	28.09
413.12	51.49
413.31	28.09
413.50	67.88
413.69	60.85
413.88	70.22
414.07	88.94
414.26	0.00
414.45	0.00
414.64	44.47
414.83	46.81
415.02	32.77
415.22	60.85
415.41	60.85
415.60	11.70
415.79	67.88
415.98	0.00
416.17	49.15
416.36	65.54
416.55	0.00
416.74	28.09
416.93	0.00
417.12	51.49
417.31	39.79
417.50	119.37
417.69	56.17
417.88	0.00
418.07	0.00
418.26	58.51
418.45	91.28
418.64	16.38
418.83	7.02
419.02	49.15
419.21	14.04
419.39	18.72
419.58	84.26
419.77	0.00
419.96	0.00
420.15	0.00
420.34	7.02
420.53	37.45
420.72	4.68
420.91	60.85
421.10	65.54
421.29	30.43
421.48	72.56
421.67	60.85
421.86	0.00
422.05	28.09
422.24	16.38
422.43	81.92
422.61	77.24
422.80	0.00
422.99	110.01
423.18	0.00
423.37	74.90
423.56	49.15
423.75	0.00
423.94	126.39
424.13	25.75
424.32	35.11
424.50	44.47
424.69	35.11
424.88	44.47
425.07	14.04
425.26	28.09
425.45	32.77
425.64	46.81
425.83	23.41
426.01	30.43
426.20	30.43
426.39	60.85
426.58	74.90
426.77	100.64
426.96	30.43
427.15	53.83
427.33	30.43
427.52	2.34
427.71	88.94
427.90	56.17
428.09	81.92
428.28	46.81
428.46	0.00
428.65	0.00
428.84	58.51
429.03	84.26
429.22	79.58
429.40	0.00
429.59	65.54
429.78	81.92
429.97	0.00
430.16	18.72
430.34	28.09
430.53	16.38
430.72	37.45
430.91	39.79
431.10	7.02
431.28	77.24
431.47	0.00
431.66	114.69
431.85	11.70
432.03	0.00
432.22	14.04
432.41	72.56
432.60	86.60
432.79	21.06
432.97	30.43
433.16	0.00
433.35	58.51
433.54	0.00
433.72	79.58
433.91	35.11
434.10	0.00
434.28	35.11
434.47	42.13
434.66	72.56
434.85	44.47
435.03	11.70
435.22	65.54
435.41	79.58
435.59	46.81
435.78	23.41
435.97	0.00
436.16	35.11
436.34	72.56
436.53	74.90
436.72	105.32
436.90	9.36
437.09	56.17
437.28	60.85
437.46	114.69
437.65	79.58
437.84	18.72
438.02	46.81
438.21	21.06
438.40	0.00
438.58	0.00
438.77	28.09
438.96	21.06
439.14	30.43
439.33	65.54
439.52	65.54
439.70	23.41
439.89	63.19
440.08	42.13
440.26	37.45
440.45	79.58
440.63	49.15
440.82	84.26
441.01	49.15
441.19	28.09
441.38	91.28
441.57	56.17
441.75	14.04
441.94	21.06
442.12	14.04
442.31	35.11
442.50	70.22
442.68	0.00
442.87	56.17
443.05	110.01
443.24	84.26
443.43	79.58
443.61	30.43
443.80	35.11
443.98	105.32
444.17	84.26
444.35	21.06
444.54	2.34
444.73	67.88
444.91	44.47
445.10	0.00
445.28	56.17
445.47	42.13
445.65	142.77
445.84	30.43
446.02	63.19
446.21	100.64
446.39	46.81
446.58	126.39
446.77	86.60
446.95	37.45
447.14	53.83
447.32	39.79
447.51	67.88
447.69	70.22
447.88	25.75
448.06	0.00
448.25	117.03
448.43	0.00
448.62	63.19
448.80	42.13
448.99	86.60
449.17	58.51
449.36	46.81
449.54	37.45
449.73	67.88
449.91	44.47
450.10	46.81
450.28	49.15
450.46	18.72
450.65	93.62
450.83	100.64
451.02	46.81
451.20	46.81
451.39	77.24
451.57	124.05
451.76	140.43
451.94	70.22
452.13	58.51
452.31	21.06
452.49	23.41
452.68	2.34
452.86	77.24
453.05	39.79
453.23	0.00
453.42	56.17
453.60	53.83
453.78	49.15
453.97	93.62
454.15	131.07
454.34	95.96
454.52	46.81
454.70	65.54
454.89	37.45
455.07	44.47
455.26	131.07
455.44	0.00
455.62	58.51
455.81	88.94
455.99	18.72
456.17	102.98
456.36	42.13
456.54	84.26
456.73	72.56
456.91	51.49
457.09	4.68
457.28	30.43
457.46	88.94
457.64	53.83
457.83	7.02
458.01	23.41
458.19	11.70
458.38	74.90
458.56	39.79
458.74	0.00
458.93	21.06
459.11	107.66
459.29	81.92
459.48	70.22
459.66	37.45
459.84	46.81
460.03	131.07
460.21	65.54
460.39	105.32
460.57	0.00
460.76	114.69
460.94	67.88
461.12	42.13
461.31	53.83
461.49	72.56
461.67	63.19
461.85	49.15
462.04	21.06
462.22	72.56
462.40	131.07
462.59	74.90
462.77	0.00
462.95	86.60
463.13	67.88
463.32	37.45
463.50	77.24
463.68	100.64
463.86	98.30
464.05	95.96
464.23	114.69
464.41	16.38
464.59	88.94
464.78	74.90
464.96	81.92
465.14	79.58
465.32	107.66
465.50	30.43
465.69	7.02
465.87	86.60
466.05	149.79
466.23	39.79
466.41	53.83
466.60	121.71
466.78	42.13
466.96	105.32
467.14	107.66
467.32	4.68
467.51	37.45
467.69	18.72
467.87	0.00
468.05	46.81
468.23	72.56
468.41	98.30
468.60	7.02
468.78	93.62
468.96	100.64
469.14	32.77
469.32	39.79
469.50	63.19
469.69	105.32
469.87	126.39
470.05	72.56
470.23	32.77
470.41	53.83
470.59	0.00
470.77	117.03
470.95	32.77
471.14	53.83
471.32	72.56
471.50	91.28
471.68	46.81
471.86	72.56
472.04	44.47
472.22	88.94
472.40	23.41
472.58	30.43
472.77	14.04
472.95	67.88
473.13	21.06
473.31	44.47
473.49	0.00
473.67	91.28
473.85	46.81
474.03	58.51
474.21	100.64
474.39	0.00
474.57	39.79
474.75	0.00
474.93	56.17
475.12	23.41
475.30	79.58
475.48	79.58
475.66	67.88
475.84	91.28
476.02	51.49
476.20	14.04
476.38	44.47
476.56	11.70
476.74	72.56
476.92	84.26
477.10	95.96
477.28	23.41
477.46	0.00
477.64	21.06
477.82	79.58
478.00	4.68
478.18	4.68
478.36	74.90
478.54	77.24
478.72	32.77
478.90	0.00
479.08	56.17
479.26	56.17
479.44	56.17
479.62	23.41
479.80	81.92
479.98	114.69
480.16	49.15
480.34	110.01
480.52	86.60
480.70	0.00
480.88	46.81
481.06	98.30
481.24	35.11
481.41	51.49
481.59	21.06
481.77	98.30
481.95	72.56
482.13	58.51
482.31	63.19
482.49	44.47
482.67	23.41
482.85	39.79
483.03	70.22
483.21	107.66
483.39	81.92
483.57	16.38
483.74	65.54
483.92	60.85
484.10	67.88
484.28	65.54
484.46	56.17
484.64	91.28
484.82	65.54
485.00	28.09
485.18	95.96
485.35	86.60
485.53	49.15
485.71	95.96
485.89	11.70
486.07	63.19
486.25	140.43
486.43	23.41
486.61	77.24
486.78	0.00
486.96	84.26
487.14	112.35
487.32	25.75
487.50	49.15
487.68	58.51
487.85	56.17
488.03	60.85
488.21	149.79
488.39	35.11
488.57	81.92
488.75	60.85
488.92	121.71
489.10	133.41
489.28	112.35
489.46	105.32
489.64	42.13
489.81	84.26
489.99	42.13
490.17	44.47
490.35	28.09
490.53	23.41
490.70	105.32
490.88	35.11
491.06	88.94
491.24	58.51
491.41	4.68
491.59	84.26
491.77	86.60
491.95	58.51
492.13	42.13
492.30	112.35
492.48	91.28
492.66	49.15
492.84	84.26
493.01	107.66
493.19	86.60
493.37	145.11
493.54	70.22
493.72	88.94
493.90	86.60
494.08	114.69
494.25	53.83
494.43	49.15
494.61	65.54
494.79	131.07
494.96	70.22
495.14	46.81
495.32	102.98
495.49	53.83
495.67	138.09
495.85	77.24
496.02	128.73
496.20	0.00
496.38	86.60
496.55	65.54
496.73	95.96
496.91	35.11
497.09	74.90
497.26	67.88
497.44	79.58
497.62	149.79
497.79	42.13
497.97	163.84
498.14	56.17
498.32	51.49
498.50	0.00
498.67	86.60
498.85	44.47
499.03	39.79
499.20	93.62
499.38	84.26
499.56	53.83
499.73	25.75
499.91	37.45
500.08	117.03
500.26	42.13
500.44	72.56
500.61	14.04
500.79	91.28
500.97	131.07
501.14	117.03
501.32	81.92
501.49	149.79
501.67	128.73
501.84	124.05
502.02	21.06
502.20	77.24
502.37	56.17
502.55	110.01
502.72	91.28
502.90	42.13
503.07	16.38
503.25	58.51
503.43	74.90
503.60	77.24
503.78	72.56
503.95	112.35
504.13	131.07
504.30	86.60
504.48	46.81
504.65	84.26
504.83	86.60
505.01	131.07
505.18	35.11
505.36	18.72
505.53	42.13
505.71	35.11
505.88	60.85
506.06	79.58
506.23	4.68
506.41	77.24
506.58	21.06
506.76	39.79
506.93	56.17
507.11	128.73
507.28	112.35
507.46	100.64
507.63	72.56
507.81	46.81
507.98	4.68
508.16	23.41
508.33	93.62
508.50	72.56
508.68	88.94
508.85	49.15
509.03	72.56
509.20	84.26
509.38	23.41
509.55	37.45
509.73	88.94
509.90	133.41
510.08	110.01
510.25	51.49
510.42	154.48
510.60	159.16
510.77	81.92
510.95	177.88
511.12	70.22
511.30	100.64
511.47	98.30
511.64	105.32
511.82	60.85
511.99	65.54
512.17	25.75
512.34	91.28
512.51	138.09
512.69	91.28
512.86	32.77
513.04	65.54
513.21	84.26
513.38	93.62
513.56	79.58
513.73	117.03
513.90	35.11
514.08	114.69
514.25	138.09
514.43	110.01
514.60	105.32
514.77	126.39
514.95	88.94
515.12	74.90
515.29	74.90
515.47	30.43
515.64	65.54
515.81	67.88
515.99	65.54
516.16	30.43
516.33	49.15
516.51	72.56
516.68	74.90
516.85	98.30
517.03	7.02
517.20	42.13
517.37	42.13
517.54	42.13
517.72	65.54
517.89	140.43
518.06	79.58
518.24	117.03
518.41	30.43
518.58	63.19
518.75	72.56
518.93	72.56
519.10	100.64
519.27	56.17
519.45	102.98
519.62	170.86
519.79	117.03
519.96	23.41
520.14	21.06
520.31	117.03
520.48	35.11
520.65	105.32
520.83	0.00
521.00	95.96
521.17	114.69
521.34	56.17
521.52	145.11
521.69	107.66
521.86	79.58
522.03	30.43
522.20	93.62
522.38	88.94
522.55	60.85
522.72	49.15
522.89	105.32
523.07	72.56
523.24	98.30
523.41	81.92
523.58	53.83
523.75	65.54
523.92	133.41
524.10	39.79
524.27	84.26
524.44	95.96
524.61	105.32
524.78	81.92
524.96	147.45
525.13	119.37
525.30	102.98
525.47	121.71
525.64	161.50
525.81	42.13
525.98	133.41
526.16	44.47
526.33	119.37
526.50	77.24
526.67	107.66
526.84	98.30
527.01	42.13
527.18	163.84
527.36	58.51
527.53	91.28
527.70	86.60
527.87	0.00
528.04	159.16
528.21	88.94
528.38	14.04
528.55	25.75
528.72	79.58
528.89	84.26
529.07	114.69
529.24	117.03
529.41	60.85
529.58	25.75
529.75	133.41
529.92	138.09
530.09	42.13
530.26	126.39
530.43	100.64
530.60	51.49
530.77	107.66
530.94	95.96
531.11	28.09
531.28	128.73
531.46	65.54
531.63	74.90
531.80	18.72
531.97	88.94
532.14	112.35
532.31	93.62
532.48	67.88
532.65	102.98
532.82	58.51
532.99	107.66
533.16	119.37
533.33	112.35
533.50	142.77
533.67	105.32
533.84	86.60
534.01	98.30
534.18	95.96
534.35	53.83
534.52	98.30
534.69	84.26
534.86	126.39
535.03	51.49
535.20	42.13
535.37	88.94
535.54	30.43
535.71	95.96
535.88	112.35
536.05	65.54
536.22	37.45
536.38	25.75
536.55	131.07
536.72	70.22
536.89	107.66
537.06	93.62
537.23	84.26
537.40	86.60
537.57	25.75
537.74	81.92
537.91	98.30
538.08	56.17
538.25	114.69
538.42	81.92
538.59	35.11
538.75	35.11
538.92	79.58
539.09	154.48
539.26	88.94
539.43	65.54
539.60	42.13
539.77	117.03
539.94	93.62
540.11	131.07
540.28	65.54
540.44	112.35
540.61	23.41
540.78	44.47
540.95	93.62
541.12	88.94
541.29	105.32
541.46	23.41
541.62	110.01
541.79	39.79
541.96	46.81
542.13	107.66
542.30	84.26
542.47	121.71
542.63	128.73
542.80	126.39
542.97	35.11
543.14	98.30
543.31	67.88
543.48	51.49
543.64	65.54
543.81	79.58
543.98	42.13
544.15	21.06
544.32	112.35
544.48	42.13
544.65	74.90
544.82	72.56
544.99	58.51
545.16	117.03
545.32	58.51
545.49	105.32
545.66	74.90
545.83	81.92
546.00	107.66
546.16	67.88
546.33	23.41
546.50	0.00
546.67	42.13
546.83	65.54
547.00	46.81
547.17	18.72
547.34	65.54
547.50	154.48
547.67	110.01
547.84	74.90
548.00	77.24
548.17	93.62
548.34	100.64
548.51	91.28
548.67	107.66
548.84	77.24
549.01	74.90
549.18	46.81
549.34	67.88
549.51	46.81
549.68	105.32
549.84	84.26
550.01	114.69
550.18	135.75
550.34	128.73
550.51	114.69
550.68	4.68
550.84	74.90
551.01	42.13
551.18	74.90
551.34	98.30
551.51	110.01
551.68	72.56
551.84	39.79
552.01	119.37
552.18	58.51
552.34	60.85
552.51	51.49
552.68	100.64
552.84	126.39
553.01	110.01
553.18	121.71
553.34	72.56
553.51	142.77
553.67	81.92
553.84	93.62
554.01	126.39
554.17	70.22
554.34	142.77
554.51	142.77
554.67	56.17
554.84	86.60
555.00	84.26
555.17	93.62
555.33	67.88
555.50	98.30
555.67	135.75
555.83	77.24
556.00	93.62
556.16	149.79
556.33	65.54
556.50	131.07
556.66	100.64
556.83	128.73
556.99	128.73
557.16	131.07
557.32	112.35
557.49	86.60
557.65	44.47
557.82	102.98
557.98	110.01
558.15	91.28
558.32	100.64
558.48	0.00
558.65	37.45
558.81	81.92
558.98	18.72
559.14	49.15
559.31	39.79
559.47	23.41
559.64	74.90
559.80	182.56
559.97	63.19
560.13	49.15
560.30	114.69
560.46	102.98
560.63	121.71
560.79	81.92
560.96	67.88
561.12	58.51
561.29	100.64
561.45	88.94
561.61	93.62
561.78	93.62
561.94	140.43
562.11	105.32
562.27	84.26
562.44	74.90
562.60	28.09
562.77	107.66
562.93	140.43
563.10	121.71
563.26	91.28
563.42	126.39
563.59	170.86
563.75	37.45
563.92	86.60
564.08	112.35
564.24	72.56
564.41	32.77
564.57	53.83
564.74	58.51
564.90	100.64
565.07	100.64
565.23	32.77
565.39	9.36
565.56	67.88
565.72	70.22
565.88	63.19
566.05	49.15
566.21	67.88
566.38	65.54
566.54	100.64
566.70	142.77
566.87	117.03
567.03	93.62
567.19	72.56
567.36	140.43
567.52	39.79
567.68	86.60
567.85	128.73
568.01	102.98
568.17	88.94
568.34	21.06
568.50	138.09
568.66	98.30
568.83	63.19
568.99	114.69
569.15	84.26
569.32	105.32
569.48	65.54
569.64	32.77
569.81	67.88
569.97	119.37
570.13	37.45
570.30	79.58
570.46	102.98
570.62	135.75
570.78	0.00
570.95	81.92
571.11	11.70
571.27	58.51
571.43	65.54
571.60	63.19
571.76	30.43
571.92	65.54
572.09	67.88
572.25	18.72
572.41	65.54
572.57	98.30
572.74	51.49
572.90	30.43
573.06	91.28
573.22	42.13
573.38	37.45
573.55	121.71
573.71	21.06
573.87	0.00
574.03	142.77
574.20	28.09
574.36	100.64
574.52	77.24
574.68	70.22
574.84	0.00
575.01	156.82
575.17	60.85
575.33	95.96
575.49	91.28
575.65	133.41
575.82	67.88
575.98	46.81
576.14	37.45
576.30	65.54
576.46	53.83
576.62	7.02
576.79	77.24
576.95	56.17
577.11	44.47
577.27	42.13
577.43	102.98
577.59	126.39
577.75	65.54
577.92	4.68
578.08	58.51
578.24	56.17
578.40	93.62
578.56	102.98
578.72	65.54
578.88	119.37
579.04	65.54
579.21	0.00
579.37	42.13
579.53	110.01
579.69	49.15
579.85	49.15
580.01	49.15
580.17	126.39
580.33	100.64
580.49	88.94
580.65	60.85
580.82	51.49
580.98	98.30
581.14	102.98
581.30	91.28
581.46	77.24
581.62	0.00
581.78	65.54
581.94	67.88
582.10	35.11
582.26	98.30
582.42	46.81
582.58	60.85
582.74	28.09
582.90	32.77
583.06	102.98
583.22	25.75
583.38	98.30
583.54	63.19
583.70	65.54
583.86	100.64
584.02	51.49
584.18	168.52
584.34	32.77
584.50	44.47
584.66	7.02
584.82	44.47
584.98	49.15
585.14	58.51
585.30	21.06
585.46	2.34
585.62	107.66
585.78	65.54
585.94	63.19
586.10	84.26
586.26	81.92
586.42	84.26
586.58	117.03
586.74	39.79
586.90	145.11
587.06	39.79
587.22	105.32
587.38	0.00
587.54	42.13
587.70	63.19
587.86	126.39
588.02	42.13
588.18	32.77
588.34	77.24
588.49	65.54
588.65	74.90
588.81	63.19
588.97	84.26
589.13	77.24
589.29	42.13
589.45	156.82
589.61	91.28
589.77	102.98
589.93	56.17
590.08	58.51
590.24	98.30
590.40	35.11
590.56	70.22
590.72	131.07
590.88	65.54
591.04	98.30
591.20	0.00
591.35	131.07
591.51	63.19
591.67	58.51
591.83	53.83
591.99	100.64
592.15	119.37
592.31	21.06
592.46	32.77
592.62	77.24
592.78	105.32
592.94	56.17
593.10	93.62
593.26	112.35
593.41	0.00
593.57	79.58
593.73	18.72
593.89	56.17
594.05	86.60
594.20	65.54
594.36	28.09
594.52	21.06
594.68	88.94
594.84	44.47
594.99	49.15
595.15	37.45
595.31	56.17
595.47	28.09
595.62	2.34
595.78	112.35
595.94	100.64
596.10	44.47
596.25	51.49
596.41	9.36
596.57	35.11
596.73	102.98
596.88	35.11
597.04	39.79
597.20	46.81
597.36	84.26
597.51	88.94
597.67	42.13
597.83	72.56
597.99	39.79
598.14	60.85
598.30	88.94
598.46	84.26
598.61	88.94
598.77	74.90
598.93	112.35
599.09	105.32
599.24	114.69
599.40	131.07
599.56	46.81
599.71	72.56
599.87	100.64
600.03	86.60
600.18	74.90
600.34	60.85
600.50	0.00
600.65	65.54
600.81	74.90
600.97	51.49
601.12	84.26
601.28	72.56
601.44	53.83
601.59	91.28
601.75	32.77
601.91	23.41
602.06	51.49
602.22	44.47
602.37	91.28
602.53	110.01
602.69	74.90
602.84	67.88
603.00	112.35
603.16	46.81
603.31	0.00
603.47	147.45
603.62	25.75
603.78	4.68
603.94	11.70
604.09	84.26
604.25	110.01
604.40	25.75
604.56	39.79
604.71	51.49
604.87	14.04
605.03	56.17
605.18	56.17
605.34	0.00
605.49	0.00
605.65	39.79
605.80	133.41
605.96	107.66
606.12	91.28
606.27	23.41
606.43	74.90
606.58	72.56
606.74	86.60
606.89	9.36
607.05	44.47
607.20	60.85
607.36	46.81
607.51	25.75
607.67	11.70
607.82	37.45
607.98	77.24
608.13	58.51
608.29	67.88
608.44	58.51
608.60	86.60
608.75	7.02
608.91	0.00
609.06	58.51
609.22	56.17
609.37	7.02
609.53	56.17
609.68	107.66
609.84	107.66
609.99	72.56
610.15	58.51
610.30	81.92
610.46	81.92
610.61	37.45
610.76	9.36
610.92	88.94
611.07	28.09
611.23	140.43
611.38	88.94
611.54	42.13
611.69	58.51
611.84	70.22
612.00	86.60
612.15	124.05
612.31	42.13
612.46	81.92
612.62	105.32
612.77	88.94
612.92	56.17
613.08	124.05
613.23	37.45
613.39	67.88
613.54	56.17
613.69	49.15
613.85	67.88
614.00	114.69
614.15	112.35
614.31	51.49
614.46	46.81
614.62	39.79
614.77	86.60
614.92	65.54
615.08	44.47
615.23	44.47
615.38	53.83
615.54	23.41
615.69	72.56
615.84	117.03
616.00	79.58
616.15	35.11
616.30	121.71
616.46	30.43
616.61	81.92
616.76	49.15
616.92	44.47
617.07	70.22
617.22	32.77
617.37	23.41
617.53	37.45
617.68	100.64
617.83	74.90
617.99	30.43
618.14	4.68
618.29	131.07
618.45	72.56
618.60	72.56
618.75	35.11
618.90	16.38
619.06	117.03
619.21	67.88
619.36	91.28
619.51	105.32
619.67	88.94
619.82	56.17
619.97	110.01
620.12	86.60
620.28	60.85
620.43	0.00
620.58	110.01
620.73	102.98
620.89	70.22
621.04	51.49
621.19	79.58
621.34	84.26
621.49	67.88
621.65	154.48
621.80	37.45
621.95	107.66
622.10	28.09
622.25	25.75
622.41	74.90
622.56	93.62
622.71	117.03
622.86	91.28
623.01	35.11
623.16	32.77
623.32	107.66
623.47	93.62
623.62	56.17
623.77	0.00
623.92	51.49
624.07	51.49
624.23	23.41
624.38	84.26
624.53	65.54
624.68	112.35
624.83	100.64
624.98	42.13
625.13	39.79
625.29	70.22
625.44	51.49
625.59	147.45
625.74	32.77
625.89	4.68
626.04	124.05
626.19	23.41
626.34	9.36
626.49	9.36
626.65	28.09
626.80	56.17
626.95	11.70
627.10	23.41
627.25	114.69
627.40	112.35
627.55	18.72
627.70	32.77
627.85	77.24
628.00	28.09
628.15	105.32
628.30	117.03
628.45	25.75
628.60	35.11
628.76	46.81
628.91	105.32
629.06	39.79
629.21	58.51
629.36	32.77
629.51	63.19
629.66	35.11
629.81	74.90
629.96	58.51
630.11	53.83
630.26	58.51
630.41	25.75
630.56	70.22
630.71	49.15
630.86	37.45
631.01	102.98
631.16	84.26
631.31	88.94
631.46	53.83
631.61	77.24
631.76	18.72
631.91	60.85
632.06	7.02
632.21	53.83
632.36	0.00
632.51	98.30
632.66	77.24
632.81	14.04
632.96	107.66
633.10	18.72
633.25	72.56
633.40	25.75
633.55	65.54
633.70	91.28
633.85	60.85
634.00	107.66
634.15	91.28
634.30	84.26
634.45	65.54
634.60	25.75
634.75	91.28
634.90	35.11
635.05	63.19
635.19	23.41
635.34	51.49
635.49	44.47
635.64	0.00
635.79	16.38
635.94	32.77
636.09	81.92
636.24	0.00
636.39	74.90
636.53	114.69
636.68	44.47
636.83	81.92
636.98	0.00
637.13	18.72
637.28	72.56
637.43	44.47
637.57	77.24
637.72	25.75
637.87	28.09
638.02	86.60
638.17	60.85
638.32	86.60
638.46	42.13
638.61	91.28
638.76	72.56
638.91	84.26
639.06	70.22
639.20	56.17
639.35	37.45
639.50	79.58
639.65	11.70
639.80	72.56
639.94	84.26
640.09	84.26
640.24	107.66
640.39	30.43
640.54	39.79
640.68	23.41
640.83	102.98
640.98	60.85
641.13	39.79
641.27	18.72
641.42	74.90
641.57	23.41
641.72	95.96
641.86	77.24
642.01	51.49
642.16	173.20
642.31	74.90
642.45	93.62
642.60	51.49
642.75	28.09
642.90	21.06
643.04	32.77
643.19	0.00
643.34	100.64
643.48	79.58
643.63	84.26
643.78	28.09
643.93	110.01
644.07	16.38
644.22	95.96
644.37	46.81
644.51	30.43
644.66	25.75
644.81	16.38
644.95	46.81
645.10	53.83
645.25	84.26
645.39	74.90
645.54	46.81
645.69	0.00
645.83	77.24
645.98	56.17
646.13	65.54
646.27	42.13
646.42	30.43
646.57	2.34
646.71	49.15
646.86	4.68
647.00	44.47
647.15	0.00
647.30	0.00
647.44	112.35
647.59	21.06
647.74	44.47
647.88	30.43
648.03	0.00
648.17	16.38
648.32	86.60
648.47	86.60
648.61	21.06
648.76	72.56
648.90	60.85
649.05	65.54
649.20	74.90
649.34	49.15
649.49	37.45
649.63	63.19
649.78	91.28
649.92	93.62
650.07	30.43
650.21	60.85
650.36	161.50
650.51	72.56
650.65	44.47
650.80	30.43
650.94	67.88
651.09	79.58
651.23	86.60
651.38	42.13
651.52	126.39
651.67	74.90
651.81	91.28
651.96	42.13
652.10	37.45
652.25	53.83
652.39	46.81
652.54	145.11
652.68	23.41
652.83	72.56
652.97	37.45
653.12	133.41
653.26	11.70
653.41	53.83
653.55	100.64
653.70	107.66
653.84	0.00
653.99	35.11
654.13	46.81
654.27	25.75
654.42	84.26
654.56	93.62
654.71	67.88
654.85	23.41
655.00	35.11
655.14	56.17
655.29	51.49
655.43	14.04
655.57	37.45
655.72	79.58
655.86	91.28
656.01	35.11
656.15	58.51
656.30	70.22
656.44	16.38
656.58	28.09
656.73	53.83
656.87	21.06
657.01	21.06
657.16	119.37
657.30	56.17
657.45	46.81
657.59	11.70
657.73	0.00
657.88	79.58
658.02	46.81
658.16	0.00
658.31	110.01
658.45	60.85
658.60	95.96
658.74	131.07
658.88	44.47
659.03	11.70
659.17	49.15
659.31	84.26
659.46	0.00
659.60	60.85
659.74	18.72
659.89	4.68
660.03	0.00
660.17	74.90
660.32	0.00
660.46	28.09
660.60	126.39
660.74	32.77
660.89	93.62
661.03	91.28
661.17	112.35
661.32	56.17
661.46	86.60
661.60	32.77
661.74	32.77
661.89	23.41
662.03	72.56
662.17	72.56
662.31	46.81
662.46	51.49
662.60	44.47
662.74	70.22
662.88	56.17
663.03	0.00
663.17	53.83
663.31	110.01
663.45	74.90
663.60	0.00
663.74	14.04
663.88	77.24
664.02	56.17
664.17	0.00
664.31	70.22
664.45	42.13
664.59	21.06
664.73	63.19
664.88	51.49
665.02	51.49
665.16	51.49
665.30	77.24
665.44	74.90
665.59	84.26
665.73	0.00
665.87	77.24
666.01	30.43
666.15	72.56
666.29	53.83
666.44	84.26
666.58	35.11
666.72	84.26
666.86	39.79
667.00	0.00
667.14	91.28
667.28	21.06
667.43	21.06
667.57	32.77
667.71	0.00
667.85	70.22
667.99	30.43
668.13	11.70
668.27	39.79
668.41	56.17
668.56	84.26
668.70	156.82
668.84	49.15
668.98	25.75
669.12	44.47
669.26	63.19
669.40	67.88
669.54	35.11
669.68	30.43
669.82	0.00
669.96	35.11
670.10	77.24
670.25	56.17
670.39	0.00
670.53	16.38
670.67	37.45
670.81	0.00
670.95	72.56
671.09	18.72
671.23	4.68
671.37	114.69
671.51	53.83
671.65	114.69
671.79	42.13
671.93	79.58
672.07	51.49
672.21	63.19
672.35	88.94
672.49	0.00
672.63	114.69
672.77	32.77
672.91	77.24
673.05	35.11
673.19	35.11
673.33	0.00
673.47	28.09
673.61	42.13
673.75	53.83
673.89	112.35
674.03	39.79
674.17	51.49
674.31	18.72
674.45	37.45
674.59	72.56
674.73	79.58
674.87	100.64
675.01	79.58
675.15	86.60
675.29	14.04
675.43	32.77
675.56	46.81
675.70	74.90
675.84	30.43
675.98	0.00
676.12	0.00
676.26	79.58
676.40	25.75
676.54	70.22
676.68	25.75
676.82	74.90
676.96	42.13
677.10	124.05
677.23	51.49
677.37	98.30
677.51	60.85
677.65	51.49
677.79	67.88
677.93	30.43
678.07	0.00
678.21	63.19
678.34	37.45
678.48	51.49
678.62	25.75
678.76	4.68
678.90	9.36
679.04	46.81
679.18	100.64
679.31	30.43
679.45	32.77
679.59	9.36
679.73	49.15
679.87	42.13
680.00	49.15
680.14	51.49
680.28	105.32
680.42	105.32
680.56	74.90
680.70	25.75
680.83	0.00
680.97	72.56
681.11	30.43
681.25	25.75
681.39	25.75
681.52	30.43
681.66	0.00
681.80	0.00
681.94	102.98
682.07	46.81
682.21	51.49
682.35	51.49
682.49	86.60
682.62	42.13
682.76	74.90
682.90	77.24
683.04	0.00
683.17	65.54
683.31	110.01
683.45	67.88
683.59	11.70
683.72	91.28
683.86	42.13
684.00	0.00
684.13	16.38
684.27	0.00
684.41	0.00
684.55	21.06
684.68	2.34
684.82	2.34
684.96	63.19
685.09	56.17
685.23	0.00
685.37	28.09
685.50	0.00
685.64	0.00
685.78	0.00
685.91	77.24
686.05	65.54
686.19	46.81
686.32	44.47
686.46	0.00
686.60	7.02
686.73	70.22
686.87	0.00
687.01	21.06
687.14	44.47
687.28	16.38
687.42	77.24
687.55	84.26
687.69	93.62
687.82	11.70
687.96	14.04
688.10	58.51
688.23	9.36
688.37	51.49
688.50	0.00
688.64	39.79
688.78	39.79
688.91	93.62
689.05	0.00
689.18	16.38
689.32	4.68
689.46	63.19
689.59	7.02
689.73	0.00
689.86	44.47
690.00	51.49
690.13	88.94
690.27	16.38
690.41	63.19
690.54	18.72
690.68	37.45
690.81	11.70
690.95	23.41
691.08	49.15
691.22	4.68
691.35	0.00
691.49	25.75
691.62	18.72
691.76	21.06
691.89	46.81
692.03	46.81
692.16	23.41
692.30	23.41
692.43	14.04
692.57	0.00
692.70	0.00
692.84	25.75
692.97	88.94
693.11	14.04
693.24	16.38
693.38	0.00
693.51	93.62
693.65	74.90
693.78	25.75
693.92	145.11
694.05	30.43
694.19	9.36
694.32	18.72
694.45	32.77
694.59	91.28
694.72	0.00
694.86	67.88
694.99	23.41
695.13	0.00
695.26	18.72
695.39	0.00
695.53	39.79
695.66	0.00
695.80	53.83
695.93	56.17
696.07	0.00
696.20	18.72
696.33	0.00
696.47	44.47
696.60	25.75
696.73	46.81
696.87	84.26
697.00	30.43
697.14	49.15
697.27	39.79
697.40	88.94
697.54	30.43
697.67	35.11
697.80	18.72
697.94	53.83
698.07	58.51
698.21	9.36
698.34	9.36
698.47	65.54
698.61	37.45
698.74	16.38
698.87	42.13
699.01	84.26
699.14	0.00
699.27	9.36
699.40	72.56
699.54	0.00
699.67	35.11
699.80	23.41
699.94	46.81
700.07	46.81
700.20	58.51
700.34	32.77
700.47	98.30
700.60	25.75
700.73	49.15
700.87	44.47
701.00	72.56
701.13	0.00
701.26	42.13
701.40	44.47
701.53	35.11
701.66	30.43
701.79	11.70
701.93	7.02
702.06	81.92
702.19	53.83
702.32	100.64
702.46	49.15
702.59	0.00
702.72	51.49
702.85	30.43
702.99	16.38
703.12	0.00
703.25	44.47
703.38	42.13
703.51	0.00
703.65	63.19
703.78	14.04
703.91	30.43
704.04	35.11
704.17	0.00
704.31	51.49
704.44	21.06
704.57	63.19
704.70	35.11
704.83	77.24
704.96	0.00
705.10	30.43
705.23	72.56
>>>>>End Processed Spectral Data<<<<<
