SpectraSuite Data File
++++++++++++++++++++++++++++++++++++
Date: Fri Oct 04 12:13:41 GMT-05:00 2013
User: price-jones
Dark Spectrum Present: No
Reference Spectrum Present: No
Number of Sampled Component Spectra: 1
Spectrometers: USB2+H05261
Integration Time (usec): 10000 (USB2+H05261)
Spectra Averaged: 1 (USB2+H05261)
Boxcar Smoothing: 0 (USB2+H05261)
Correct for Electrical Dark: No (USB2+H05261)
Strobe/Lamp Enabled: No (USB2+H05261)
Correct for Detector Non-linearity: No (USB2+H05261)
Correct for Stray Light: No (USB2+H05261)
Number of Pixels in Processed Spectrum: 2048
>>>>>Begin Processed Spectral Data<<<<<
365.73	0.00
365.92	0.00
366.12	0.00
366.32	0.00
366.52	0.00
366.72	0.00
366.91	0.00
367.11	0.00
367.31	0.00
367.51	0.00
367.70	0.00
367.90	0.00
368.10	0.00
368.30	0.00
368.49	0.00
368.69	0.00
368.89	0.00
369.09	0.00
369.28	0.00
369.48	0.00
369.68	0.00
369.87	0.00
370.07	0.00
370.27	0.00
370.47	0.00
370.66	0.00
370.86	0.00
371.06	32.77
371.25	0.00
371.45	0.00
371.65	0.00
371.84	11.70
372.04	0.00
372.24	0.00
372.44	42.13
372.63	51.49
372.83	77.24
373.03	25.75
373.22	7.02
373.42	37.45
373.62	16.38
373.81	58.51
374.01	117.03
374.21	11.70
374.40	67.88
374.60	35.11
374.79	53.83
374.99	37.45
375.19	14.04
375.38	14.04
375.58	39.79
375.78	30.43
375.97	56.17
376.17	72.56
376.37	0.00
376.56	30.43
376.76	18.72
376.95	0.00
377.15	14.04
377.35	32.77
377.54	35.11
377.74	0.00
377.93	0.00
378.13	46.81
378.33	39.79
378.52	51.49
378.72	7.02
378.91	0.00
379.11	0.00
379.31	35.11
379.50	0.00
379.70	21.06
379.89	42.13
380.09	0.00
380.28	79.58
380.48	25.75
380.68	65.54
380.87	37.45
381.07	25.75
381.26	2.34
381.46	21.06
381.65	9.36
381.85	0.00
382.04	0.00
382.24	91.28
382.43	35.11
382.63	0.00
382.83	0.00
383.02	63.19
383.22	0.00
383.41	0.00
383.61	67.88
383.80	0.00
384.00	0.00
384.19	0.00
384.39	0.00
384.58	23.41
384.78	0.00
384.97	0.00
385.17	0.00
385.36	7.02
385.56	0.00
385.75	39.79
385.95	81.92
386.14	0.00
386.34	91.28
386.53	0.00
386.72	11.70
386.92	23.41
387.11	9.36
387.31	0.00
387.50	4.68
387.70	102.98
387.89	51.49
388.09	11.70
388.28	0.00
388.48	4.68
388.67	0.00
388.86	14.04
389.06	0.00
389.25	23.41
389.45	49.15
389.64	65.54
389.84	46.81
390.03	28.09
390.22	0.00
390.42	135.75
390.61	0.00
390.81	70.22
391.00	39.79
391.19	14.04
391.39	58.51
391.58	42.13
391.78	44.47
391.97	39.79
392.16	44.47
392.36	0.00
392.55	0.00
392.75	46.81
392.94	4.68
393.13	0.00
393.33	0.00
393.52	21.06
393.71	65.54
393.91	2.34
394.10	0.00
394.29	44.47
394.49	28.09
394.68	18.72
394.88	7.02
395.07	39.79
395.26	0.00
395.46	21.06
395.65	49.15
395.84	32.77
396.04	23.41
396.23	49.15
396.42	39.79
396.62	28.09
396.81	0.00
397.00	86.60
397.19	53.83
397.39	0.00
397.58	51.49
397.77	9.36
397.97	53.83
398.16	0.00
398.35	32.77
398.55	32.77
398.74	0.00
398.93	18.72
399.12	70.22
399.32	35.11
399.51	39.79
399.70	25.75
399.90	14.04
400.09	37.45
400.28	0.00
400.47	0.00
400.67	0.00
400.86	98.30
401.05	0.00
401.24	28.09
401.44	42.13
401.63	0.00
401.82	14.04
402.01	0.00
402.21	42.13
402.40	18.72
402.59	72.56
402.78	44.47
402.97	0.00
403.17	46.81
403.36	46.81
403.55	84.26
403.74	2.34
403.93	63.19
404.13	42.13
404.32	46.81
404.51	117.03
404.70	14.04
404.89	28.09
405.09	0.00
405.28	53.83
405.47	23.41
405.66	37.45
405.85	105.32
406.05	11.70
406.24	0.00
406.43	30.43
406.62	7.02
406.81	0.00
407.00	18.72
407.20	63.19
407.39	128.73
407.58	0.00
407.77	58.51
407.96	86.60
408.15	46.81
408.34	21.06
408.54	49.15
408.73	28.09
408.92	49.15
409.11	133.41
409.30	11.70
409.49	0.00
409.68	58.51
409.87	58.51
410.07	0.00
410.26	0.00
410.45	4.68
410.64	0.00
410.83	46.81
411.02	37.45
411.21	0.00
411.40	0.00
411.59	42.13
411.78	102.98
411.98	0.00
412.17	25.75
412.36	21.06
412.55	74.90
412.74	16.38
412.93	28.09
413.12	0.00
413.31	21.06
413.50	0.00
413.69	72.56
413.88	39.79
414.07	0.00
414.26	0.00
414.45	84.26
414.64	0.00
414.83	98.30
415.02	100.64
415.22	51.49
415.41	91.28
415.60	14.04
415.79	49.15
415.98	49.15
416.17	91.28
416.36	84.26
416.55	39.79
416.74	100.64
416.93	37.45
417.12	30.43
417.31	0.00
417.50	72.56
417.69	49.15
417.88	51.49
418.07	53.83
418.26	67.88
418.45	14.04
418.64	79.58
418.83	2.34
419.02	49.15
419.21	79.58
419.39	0.00
419.58	25.75
419.77	53.83
419.96	32.77
420.15	21.06
420.34	23.41
420.53	16.38
420.72	72.56
420.91	21.06
421.10	16.38
421.29	60.85
421.48	0.00
421.67	23.41
421.86	0.00
422.05	25.75
422.24	79.58
422.43	0.00
422.61	0.00
422.80	88.94
422.99	7.02
423.18	0.00
423.37	44.47
423.56	23.41
423.75	53.83
423.94	39.79
424.13	53.83
424.32	30.43
424.50	11.70
424.69	107.66
424.88	72.56
425.07	56.17
425.26	21.06
425.45	9.36
425.64	9.36
425.83	16.38
426.01	32.77
426.20	58.51
426.39	46.81
426.58	53.83
426.77	30.43
426.96	131.07
427.15	7.02
427.33	37.45
427.52	93.62
427.71	21.06
427.90	44.47
428.09	0.00
428.28	86.60
428.46	58.51
428.65	0.00
428.84	72.56
429.03	42.13
429.22	0.00
429.40	25.75
429.59	67.88
429.78	4.68
429.97	16.38
430.16	0.00
430.34	46.81
430.53	2.34
430.72	79.58
430.91	25.75
431.10	30.43
431.28	70.22
431.47	14.04
431.66	88.94
431.85	0.00
432.03	28.09
432.22	28.09
432.41	28.09
432.60	95.96
432.79	7.02
432.97	102.98
433.16	37.45
433.35	11.70
433.54	95.96
433.72	46.81
433.91	14.04
434.10	117.03
434.28	56.17
434.47	72.56
434.66	51.49
434.85	44.47
435.03	16.38
435.22	161.50
435.41	7.02
435.59	65.54
435.78	44.47
435.97	72.56
436.16	30.43
436.34	88.94
436.53	74.90
436.72	107.66
436.90	42.13
437.09	74.90
437.28	84.26
437.46	23.41
437.65	65.54
437.84	32.77
438.02	77.24
438.21	91.28
438.40	14.04
438.58	46.81
438.77	16.38
438.96	0.00
439.14	58.51
439.33	53.83
439.52	56.17
439.70	9.36
439.89	21.06
440.08	65.54
440.26	53.83
440.45	100.64
440.63	107.66
440.82	74.90
441.01	65.54
441.19	46.81
441.38	79.58
441.57	74.90
441.75	100.64
441.94	7.02
442.12	100.64
442.31	79.58
442.50	124.05
442.68	0.00
442.87	77.24
443.05	2.34
443.24	0.00
443.43	44.47
443.61	25.75
443.80	49.15
443.98	21.06
444.17	37.45
444.35	23.41
444.54	117.03
444.73	0.00
444.91	72.56
445.10	16.38
445.28	0.00
445.47	16.38
445.65	25.75
445.84	2.34
446.02	11.70
446.21	107.66
446.39	81.92
446.58	14.04
446.77	25.75
446.95	74.90
447.14	0.00
447.32	58.51
447.51	67.88
447.69	110.01
447.88	74.90
448.06	32.77
448.25	53.83
448.43	107.66
448.62	63.19
448.80	107.66
448.99	35.11
449.17	65.54
449.36	74.90
449.54	67.88
449.73	0.00
449.91	0.00
450.10	58.51
450.28	74.90
450.46	44.47
450.65	100.64
450.83	98.30
451.02	114.69
451.20	23.41
451.39	133.41
451.57	25.75
451.76	0.00
451.94	42.13
452.13	51.49
452.31	72.56
452.49	49.15
452.68	0.00
452.86	63.19
453.05	74.90
453.23	28.09
453.42	95.96
453.60	53.83
453.78	11.70
453.97	77.24
454.15	56.17
454.34	11.70
454.52	18.72
454.70	0.00
454.89	18.72
455.07	88.94
455.26	0.00
455.44	84.26
455.62	60.85
455.81	140.43
455.99	93.62
456.17	42.13
456.36	21.06
456.54	58.51
456.73	35.11
456.91	98.30
457.09	88.94
457.28	51.49
457.46	30.43
457.64	25.75
457.83	133.41
458.01	18.72
458.19	72.56
458.38	0.00
458.56	117.03
458.74	95.96
458.93	93.62
459.11	93.62
459.29	102.98
459.48	156.82
459.66	67.88
459.84	0.00
460.03	63.19
460.21	49.15
460.39	102.98
460.57	51.49
460.76	21.06
460.94	11.70
461.12	81.92
461.31	117.03
461.49	51.49
461.67	56.17
461.85	39.79
462.04	102.98
462.22	63.19
462.40	56.17
462.59	81.92
462.77	46.81
462.95	35.11
463.13	37.45
463.32	35.11
463.50	72.56
463.68	42.13
463.86	86.60
464.05	86.60
464.23	0.00
464.41	84.26
464.59	42.13
464.78	21.06
464.96	98.30
465.14	70.22
465.32	18.72
465.50	81.92
465.69	91.28
465.87	2.34
466.05	23.41
466.23	30.43
466.41	28.09
466.60	2.34
466.78	0.00
466.96	72.56
467.14	86.60
467.32	100.64
467.51	23.41
467.69	91.28
467.87	0.00
468.05	7.02
468.23	74.90
468.41	0.00
468.60	4.68
468.78	102.98
468.96	23.41
469.14	102.98
469.32	18.72
469.50	53.83
469.69	30.43
469.87	58.51
470.05	0.00
470.23	28.09
470.41	0.00
470.59	44.47
470.77	100.64
470.95	0.00
471.14	18.72
471.32	28.09
471.50	49.15
471.68	91.28
471.86	53.83
472.04	88.94
472.22	56.17
472.40	81.92
472.58	53.83
472.77	35.11
472.95	51.49
473.13	0.00
473.31	18.72
473.49	105.32
473.67	65.54
473.85	18.72
474.03	110.01
474.21	60.85
474.39	46.81
474.57	107.66
474.75	7.02
474.93	37.45
475.12	60.85
475.30	28.09
475.48	46.81
475.66	67.88
475.84	84.26
476.02	46.81
476.20	11.70
476.38	60.85
476.56	0.00
476.74	9.36
476.92	53.83
477.10	70.22
477.28	44.47
477.46	44.47
477.64	44.47
477.82	105.32
478.00	102.98
478.18	39.79
478.36	4.68
478.54	112.35
478.72	105.32
478.90	53.83
479.08	2.34
479.26	70.22
479.44	79.58
479.62	2.34
479.80	65.54
479.98	7.02
480.16	65.54
480.34	0.00
480.52	32.77
480.70	84.26
480.88	28.09
481.06	58.51
481.24	81.92
481.41	107.66
481.59	42.13
481.77	95.96
481.95	56.17
482.13	21.06
482.31	81.92
482.49	93.62
482.67	77.24
482.85	135.75
483.03	63.19
483.21	98.30
483.39	112.35
483.57	65.54
483.74	91.28
483.92	74.90
484.10	67.88
484.28	46.81
484.46	102.98
484.64	58.51
484.82	4.68
485.00	51.49
485.18	32.77
485.35	88.94
485.53	84.26
485.71	18.72
485.89	77.24
486.07	4.68
486.25	128.73
486.43	58.51
486.61	91.28
486.78	77.24
486.96	30.43
487.14	112.35
487.32	51.49
487.50	74.90
487.68	0.00
487.85	37.45
488.03	16.38
488.21	65.54
488.39	23.41
488.57	9.36
488.75	110.01
488.92	42.13
489.10	23.41
489.28	107.66
489.46	79.58
489.64	46.81
489.81	70.22
489.99	140.43
490.17	105.32
490.35	140.43
490.53	135.75
490.70	51.49
490.88	2.34
491.06	51.49
491.24	11.70
491.41	65.54
491.59	51.49
491.77	28.09
491.95	70.22
492.13	0.00
492.30	81.92
492.48	102.98
492.66	60.85
492.84	67.88
493.01	81.92
493.19	25.75
493.37	37.45
493.54	42.13
493.72	105.32
493.90	53.83
494.08	159.16
494.25	93.62
494.43	102.98
494.61	63.19
494.79	67.88
494.96	28.09
495.14	79.58
495.32	95.96
495.49	88.94
495.67	49.15
495.85	23.41
496.02	107.66
496.20	98.30
496.38	91.28
496.55	84.26
496.73	149.79
496.91	126.39
497.09	84.26
497.26	35.11
497.44	98.30
497.62	124.05
497.79	105.32
497.97	18.72
498.14	93.62
498.32	7.02
498.50	95.96
498.67	63.19
498.85	100.64
499.03	53.83
499.20	58.51
499.38	102.98
499.56	93.62
499.73	44.47
499.91	112.35
500.08	131.07
500.26	46.81
500.44	72.56
500.61	72.56
500.79	39.79
500.97	25.75
501.14	100.64
501.32	117.03
501.49	56.17
501.67	74.90
501.84	14.04
502.02	79.58
502.20	67.88
502.37	105.32
502.55	110.01
502.72	2.34
502.90	84.26
503.07	72.56
503.25	147.45
503.43	119.37
503.60	95.96
503.78	88.94
503.95	25.75
504.13	53.83
504.30	25.75
504.48	67.88
504.65	42.13
504.83	51.49
505.01	74.90
505.18	51.49
505.36	49.15
505.53	135.75
505.71	7.02
505.88	39.79
506.06	93.62
506.23	60.85
506.41	0.00
506.58	77.24
506.76	7.02
506.93	0.00
507.11	51.49
507.28	107.66
507.46	32.77
507.63	60.85
507.81	49.15
507.98	18.72
508.16	30.43
508.33	86.60
508.50	100.64
508.68	177.88
508.85	77.24
509.03	72.56
509.20	58.51
509.38	72.56
509.55	63.19
509.73	91.28
509.90	117.03
510.08	107.66
510.25	86.60
510.42	77.24
510.60	152.13
510.77	7.02
510.95	37.45
511.12	39.79
511.30	58.51
511.47	91.28
511.64	60.85
511.82	112.35
511.99	88.94
512.17	93.62
512.34	91.28
512.51	79.58
512.69	81.92
512.86	117.03
513.04	128.73
513.21	72.56
513.38	79.58
513.56	56.17
513.73	65.54
513.90	37.45
514.08	53.83
514.25	93.62
514.43	28.09
514.60	60.85
514.77	53.83
514.95	124.05
515.12	74.90
515.29	51.49
515.47	117.03
515.64	56.17
515.81	46.81
515.99	133.41
516.16	112.35
516.33	79.58
516.51	79.58
516.68	91.28
516.85	65.54
517.03	51.49
517.20	74.90
517.37	133.41
517.54	65.54
517.72	49.15
517.89	72.56
518.06	114.69
518.24	79.58
518.41	32.77
518.58	35.11
518.75	86.60
518.93	49.15
519.10	79.58
519.27	112.35
519.45	88.94
519.62	93.62
519.79	152.13
519.96	156.82
520.14	56.17
520.31	56.17
520.48	77.24
520.65	114.69
520.83	30.43
521.00	79.58
521.17	58.51
521.34	81.92
521.52	46.81
521.69	39.79
521.86	154.48
522.03	86.60
522.20	128.73
522.38	65.54
522.55	79.58
522.72	135.75
522.89	56.17
523.07	86.60
523.24	58.51
523.41	42.13
523.58	67.88
523.75	133.41
523.92	49.15
524.10	58.51
524.27	39.79
524.44	56.17
524.61	177.88
524.78	135.75
524.96	14.04
525.13	128.73
525.30	51.49
525.47	9.36
525.64	102.98
525.81	114.69
525.98	86.60
526.16	0.00
526.33	98.30
526.50	140.43
526.67	65.54
526.84	51.49
527.01	86.60
527.18	11.70
527.36	67.88
527.53	93.62
527.70	0.00
527.87	102.98
528.04	110.01
528.21	44.47
528.38	159.16
528.55	105.32
528.72	110.01
528.89	84.26
529.07	74.90
529.24	124.05
529.41	79.58
529.58	102.98
529.75	77.24
529.92	124.05
530.09	67.88
530.26	124.05
530.43	177.88
530.60	93.62
530.77	67.88
530.94	16.38
531.11	119.37
531.28	100.64
531.46	77.24
531.63	91.28
531.80	46.81
531.97	7.02
532.14	84.26
532.31	74.90
532.48	86.60
532.65	37.45
532.82	91.28
532.99	98.30
533.16	0.00
533.33	93.62
533.50	105.32
533.67	70.22
533.84	84.26
534.01	67.88
534.18	138.09
534.35	77.24
534.52	72.56
534.69	168.52
534.86	91.28
535.03	35.11
535.20	39.79
535.37	140.43
535.54	117.03
535.71	100.64
535.88	131.07
536.05	65.54
536.22	46.81
536.38	135.75
536.55	77.24
536.72	98.30
536.89	56.17
537.06	100.64
537.23	81.92
537.40	37.45
537.57	112.35
537.74	91.28
537.91	84.26
538.08	86.60
538.25	102.98
538.42	18.72
538.59	147.45
538.75	88.94
538.92	86.60
539.09	53.83
539.26	51.49
539.43	37.45
539.60	65.54
539.77	105.32
539.94	63.19
540.11	72.56
540.28	126.39
540.44	95.96
540.61	88.94
540.78	58.51
540.95	79.58
541.12	37.45
541.29	119.37
541.46	44.47
541.62	93.62
541.79	32.77
541.96	100.64
542.13	79.58
542.30	79.58
542.47	128.73
542.63	70.22
542.80	72.56
542.97	51.49
543.14	72.56
543.31	46.81
543.48	121.71
543.64	91.28
543.81	154.48
543.98	79.58
544.15	35.11
544.32	86.60
544.48	117.03
544.65	2.34
544.82	124.05
544.99	124.05
545.16	168.52
545.32	51.49
545.49	124.05
545.66	63.19
545.83	32.77
546.00	81.92
546.16	37.45
546.33	56.17
546.50	131.07
546.67	161.50
546.83	105.32
547.00	16.38
547.17	88.94
547.34	81.92
547.50	105.32
547.67	114.69
547.84	81.92
548.00	63.19
548.17	44.47
548.34	72.56
548.51	30.43
548.67	72.56
548.84	77.24
549.01	124.05
549.18	107.66
549.34	88.94
549.51	58.51
549.68	91.28
549.84	112.35
550.01	74.90
550.18	117.03
550.34	124.05
550.51	56.17
550.68	81.92
550.84	67.88
551.01	121.71
551.18	105.32
551.34	105.32
551.51	67.88
551.68	121.71
551.84	117.03
552.01	67.88
552.18	65.54
552.34	128.73
552.51	39.79
552.68	77.24
552.84	42.13
553.01	110.01
553.18	126.39
553.34	91.28
553.51	0.00
553.67	65.54
553.84	63.19
554.01	63.19
554.17	81.92
554.34	77.24
554.51	163.84
554.67	114.69
554.84	124.05
555.00	133.41
555.17	107.66
555.33	114.69
555.50	56.17
555.67	102.98
555.83	133.41
556.00	23.41
556.16	102.98
556.33	112.35
556.50	58.51
556.66	93.62
556.83	39.79
556.99	84.26
557.16	74.90
557.32	105.32
557.49	28.09
557.65	21.06
557.82	70.22
557.98	110.01
558.15	37.45
558.32	23.41
558.48	65.54
558.65	112.35
558.81	67.88
558.98	124.05
559.14	42.13
559.31	117.03
559.47	81.92
559.64	60.85
559.80	46.81
559.97	121.71
560.13	79.58
560.30	102.98
560.46	25.75
560.63	100.64
560.79	84.26
560.96	131.07
561.12	39.79
561.29	88.94
561.45	37.45
561.61	131.07
561.78	86.60
561.94	77.24
562.11	60.85
562.27	44.47
562.44	70.22
562.60	91.28
562.77	121.71
562.93	67.88
563.10	81.92
563.26	30.43
563.42	105.32
563.59	63.19
563.75	53.83
563.92	51.49
564.08	140.43
564.24	93.62
564.41	114.69
564.57	124.05
564.74	91.28
564.90	35.11
565.07	98.30
565.23	135.75
565.39	49.15
565.56	140.43
565.72	46.81
565.88	117.03
566.05	81.92
566.21	56.17
566.38	72.56
566.54	140.43
566.70	112.35
566.87	49.15
567.03	100.64
567.19	142.77
567.36	163.84
567.52	142.77
567.68	77.24
567.85	95.96
568.01	51.49
568.17	110.01
568.34	86.60
568.50	0.00
568.66	112.35
568.83	42.13
568.99	84.26
569.15	28.09
569.32	46.81
569.48	67.88
569.64	114.69
569.81	42.13
569.97	98.30
570.13	58.51
570.30	95.96
570.46	63.19
570.62	91.28
570.78	95.96
570.95	56.17
571.11	56.17
571.27	91.28
571.43	46.81
571.60	112.35
571.76	74.90
571.92	175.54
572.09	91.28
572.25	100.64
572.41	86.60
572.57	93.62
572.74	0.00
572.90	51.49
573.06	51.49
573.22	70.22
573.38	84.26
573.55	81.92
573.71	74.90
573.87	140.43
574.03	39.79
574.20	88.94
574.36	77.24
574.52	100.64
574.68	112.35
574.84	77.24
575.01	107.66
575.17	105.32
575.33	100.64
575.49	35.11
575.65	23.41
575.82	117.03
575.98	56.17
576.14	100.64
576.30	79.58
576.46	95.96
576.62	72.56
576.79	16.38
576.95	81.92
577.11	56.17
577.27	175.54
577.43	74.90
577.59	93.62
577.75	117.03
577.92	30.43
578.08	56.17
578.24	117.03
578.40	110.01
578.56	77.24
578.72	86.60
578.88	88.94
579.04	84.26
579.21	46.81
579.37	56.17
579.53	119.37
579.69	81.92
579.85	35.11
580.01	105.32
580.17	117.03
580.33	58.51
580.49	60.85
580.65	191.92
580.82	84.26
580.98	84.26
581.14	70.22
581.30	124.05
581.46	81.92
581.62	156.82
581.78	51.49
581.94	112.35
582.10	119.37
582.26	88.94
582.42	91.28
582.58	56.17
582.74	11.70
582.90	67.88
583.06	95.96
583.22	56.17
583.38	110.01
583.54	142.77
583.70	60.85
583.86	93.62
584.02	107.66
584.18	58.51
584.34	98.30
584.50	79.58
584.66	72.56
584.82	93.62
584.98	44.47
585.14	63.19
585.30	86.60
585.46	88.94
585.62	49.15
585.78	81.92
585.94	51.49
586.10	30.43
586.26	63.19
586.42	140.43
586.58	86.60
586.74	131.07
586.90	63.19
587.06	77.24
587.22	98.30
587.38	121.71
587.54	67.88
587.70	93.62
587.86	74.90
588.02	46.81
588.18	25.75
588.34	95.96
588.49	110.01
588.65	98.30
588.81	16.38
588.97	81.92
589.13	39.79
589.29	58.51
589.45	86.60
589.61	49.15
589.77	110.01
589.93	39.79
590.08	95.96
590.24	70.22
590.40	2.34
590.56	91.28
590.72	86.60
590.88	56.17
591.04	67.88
591.20	95.96
591.35	35.11
591.51	81.92
591.67	32.77
591.83	70.22
591.99	44.47
592.15	0.00
592.31	35.11
592.46	18.72
592.62	0.00
592.78	39.79
592.94	56.17
593.10	77.24
593.26	53.83
593.41	0.00
593.57	42.13
593.73	77.24
593.89	110.01
594.05	128.73
594.20	77.24
594.36	102.98
594.52	105.32
594.68	63.19
594.84	114.69
594.99	67.88
595.15	81.92
595.31	107.66
595.47	86.60
595.62	107.66
595.78	53.83
595.94	63.19
596.10	39.79
596.25	81.92
596.41	88.94
596.57	138.09
596.73	81.92
596.88	67.88
597.04	49.15
597.20	114.69
597.36	65.54
597.51	67.88
597.67	107.66
597.83	121.71
597.99	60.85
598.14	44.47
598.30	77.24
598.46	49.15
598.61	100.64
598.77	81.92
598.93	77.24
599.09	9.36
599.24	128.73
599.40	53.83
599.56	14.04
599.71	77.24
599.87	166.18
600.03	60.85
600.18	28.09
600.34	93.62
600.50	42.13
600.65	84.26
600.81	86.60
600.97	51.49
601.12	46.81
601.28	23.41
601.44	95.96
601.59	25.75
601.75	74.90
601.91	117.03
602.06	49.15
602.22	25.75
602.37	117.03
602.53	60.85
602.69	14.04
602.84	93.62
603.00	93.62
603.16	117.03
603.31	39.79
603.47	95.96
603.62	18.72
603.78	117.03
603.94	70.22
604.09	102.98
604.25	93.62
604.40	72.56
604.56	65.54
604.71	42.13
604.87	79.58
605.03	37.45
605.18	98.30
605.34	84.26
605.49	18.72
605.65	37.45
605.80	67.88
605.96	84.26
606.12	70.22
606.27	56.17
606.43	65.54
606.58	21.06
606.74	95.96
606.89	30.43
607.05	102.98
607.20	107.66
607.36	70.22
607.51	131.07
607.67	112.35
607.82	58.51
607.98	81.92
608.13	42.13
608.29	131.07
608.44	32.77
608.60	81.92
608.75	51.49
608.91	51.49
609.06	86.60
609.22	4.68
609.37	86.60
609.53	81.92
609.68	49.15
609.84	72.56
609.99	32.77
610.15	46.81
610.30	88.94
610.46	145.11
610.61	37.45
610.76	117.03
610.92	7.02
611.07	114.69
611.23	67.88
611.38	79.58
611.54	0.00
611.69	30.43
611.84	114.69
612.00	100.64
612.15	65.54
612.31	58.51
612.46	79.58
612.62	44.47
612.77	23.41
612.92	91.28
613.08	28.09
613.23	51.49
613.39	77.24
613.54	72.56
613.69	49.15
613.85	51.49
614.00	39.79
614.15	84.26
614.31	56.17
614.46	65.54
614.62	91.28
614.77	2.34
614.92	49.15
615.08	70.22
615.23	46.81
615.38	0.00
615.54	32.77
615.69	93.62
615.84	95.96
616.00	63.19
616.15	14.04
616.30	46.81
616.46	126.39
616.61	63.19
616.76	117.03
616.92	42.13
617.07	81.92
617.22	44.47
617.37	88.94
617.53	25.75
617.68	53.83
617.83	0.00
617.99	39.79
618.14	70.22
618.29	70.22
618.45	70.22
618.60	0.00
618.75	98.30
618.90	124.05
619.06	28.09
619.21	79.58
619.36	93.62
619.51	11.70
619.67	117.03
619.82	93.62
619.97	35.11
620.12	72.56
620.28	60.85
620.43	93.62
620.58	0.00
620.73	46.81
620.89	65.54
621.04	67.88
621.19	95.96
621.34	84.26
621.49	77.24
621.65	51.49
621.80	81.92
621.95	18.72
622.10	107.66
622.25	51.49
622.41	37.45
622.56	86.60
622.71	30.43
622.86	63.19
623.01	110.01
623.16	56.17
623.32	56.17
623.47	72.56
623.62	128.73
623.77	142.77
623.92	98.30
624.07	30.43
624.23	46.81
624.38	49.15
624.53	102.98
624.68	67.88
624.83	117.03
624.98	102.98
625.13	4.68
625.29	44.47
625.44	63.19
625.59	91.28
625.74	39.79
625.89	98.30
626.04	72.56
626.19	49.15
626.34	51.49
626.49	0.00
626.65	86.60
626.80	11.70
626.95	37.45
627.10	46.81
627.25	81.92
627.40	86.60
627.55	88.94
627.70	60.85
627.85	58.51
628.00	65.54
628.15	107.66
628.30	0.00
628.45	51.49
628.60	126.39
628.76	135.75
628.91	100.64
629.06	58.51
629.21	28.09
629.36	58.51
629.51	112.35
629.66	100.64
629.81	114.69
629.96	25.75
630.11	112.35
630.26	35.11
630.41	35.11
630.56	91.28
630.71	42.13
630.86	77.24
631.01	53.83
631.16	42.13
631.31	25.75
631.46	74.90
631.61	72.56
631.76	16.38
631.91	60.85
632.06	63.19
632.21	51.49
632.36	28.09
632.51	35.11
632.66	42.13
632.81	131.07
632.96	30.43
633.10	70.22
633.25	81.92
633.40	93.62
633.55	18.72
633.70	119.37
633.85	91.28
634.00	133.41
634.15	95.96
634.30	0.00
634.45	21.06
634.60	46.81
634.75	128.73
634.90	74.90
635.05	173.20
635.19	46.81
635.34	30.43
635.49	28.09
635.64	98.30
635.79	63.19
635.94	70.22
636.09	91.28
636.24	32.77
636.39	91.28
636.53	18.72
636.68	56.17
636.83	53.83
636.98	53.83
637.13	86.60
637.28	0.00
637.43	114.69
637.57	9.36
637.72	74.90
637.87	49.15
638.02	74.90
638.17	60.85
638.32	0.00
638.46	37.45
638.61	2.34
638.76	16.38
638.91	56.17
639.06	72.56
639.20	0.00
639.35	30.43
639.50	32.77
639.65	79.58
639.80	67.88
639.94	42.13
640.09	0.00
640.24	67.88
640.39	65.54
640.54	37.45
640.68	110.01
640.83	25.75
640.98	56.17
641.13	44.47
641.27	84.26
641.42	102.98
641.57	51.49
641.72	98.30
641.86	77.24
642.01	86.60
642.16	74.90
642.31	42.13
642.45	25.75
642.60	23.41
642.75	44.47
642.90	53.83
643.04	46.81
643.19	107.66
643.34	9.36
643.48	110.01
643.63	63.19
643.78	49.15
643.93	21.06
644.07	95.96
644.22	44.47
644.37	74.90
644.51	110.01
644.66	145.11
644.81	25.75
644.95	74.90
645.10	84.26
645.25	44.47
645.39	112.35
645.54	23.41
645.69	9.36
645.83	86.60
645.98	37.45
646.13	21.06
646.27	35.11
646.42	9.36
646.57	7.02
646.71	32.77
646.86	28.09
647.00	0.00
647.15	46.81
647.30	35.11
647.44	91.28
647.59	63.19
647.74	77.24
647.88	53.83
648.03	23.41
648.17	25.75
648.32	102.98
648.47	72.56
648.61	58.51
648.76	67.88
648.90	53.83
649.05	63.19
649.20	28.09
649.34	35.11
649.49	79.58
649.63	23.41
649.78	53.83
649.92	49.15
650.07	0.00
650.21	39.79
650.36	100.64
650.51	77.24
650.65	53.83
650.80	51.49
650.94	72.56
651.09	65.54
651.23	35.11
651.38	37.45
651.52	14.04
651.67	14.04
651.81	70.22
651.96	30.43
652.10	79.58
652.25	51.49
652.39	0.00
652.54	53.83
652.68	70.22
652.83	72.56
652.97	0.00
653.12	49.15
653.26	100.64
653.41	140.43
653.55	39.79
653.70	35.11
653.84	65.54
653.99	9.36
654.13	74.90
654.27	95.96
654.42	21.06
654.56	51.49
654.71	0.00
654.85	0.00
655.00	58.51
655.14	72.56
655.29	65.54
655.43	7.02
655.57	65.54
655.72	35.11
655.86	58.51
656.01	84.26
656.15	100.64
656.30	0.00
656.44	42.13
656.58	72.56
656.73	11.70
656.87	107.66
657.01	84.26
657.16	30.43
657.30	98.30
657.45	18.72
657.59	9.36
657.73	131.07
657.88	21.06
658.02	79.58
658.16	53.83
658.31	65.54
658.45	53.83
658.60	60.85
658.74	37.45
658.88	23.41
659.03	49.15
659.17	102.98
659.31	44.47
659.46	100.64
659.60	9.36
659.74	37.45
659.89	0.00
660.03	46.81
660.17	102.98
660.32	7.02
660.46	63.19
660.60	0.00
660.74	46.81
660.89	18.72
661.03	42.13
661.17	42.13
661.32	63.19
661.46	39.79
661.60	86.60
661.74	42.13
661.89	18.72
662.03	77.24
662.17	84.26
662.31	77.24
662.46	65.54
662.60	77.24
662.74	14.04
662.88	112.35
663.03	74.90
663.17	56.17
663.31	100.64
663.45	53.83
663.60	98.30
663.74	119.37
663.88	107.66
664.02	126.39
664.17	32.77
664.31	28.09
664.45	44.47
664.59	0.00
664.73	91.28
664.88	42.13
665.02	72.56
665.16	44.47
665.30	42.13
665.44	0.00
665.59	0.00
665.73	77.24
665.87	23.41
666.01	16.38
666.15	4.68
666.29	58.51
666.44	65.54
666.58	28.09
666.72	67.88
666.86	2.34
667.00	74.90
667.14	117.03
667.28	30.43
667.43	37.45
667.57	95.96
667.71	110.01
667.85	102.98
667.99	102.98
668.13	42.13
668.27	84.26
668.41	145.11
668.56	67.88
668.70	119.37
668.84	0.00
668.98	77.24
669.12	30.43
669.26	4.68
669.40	67.88
669.54	84.26
669.68	2.34
669.82	53.83
669.96	72.56
670.10	21.06
670.25	28.09
670.39	0.00
670.53	39.79
670.67	9.36
670.81	56.17
670.95	42.13
671.09	25.75
671.23	18.72
671.37	7.02
671.51	7.02
671.65	18.72
671.79	98.30
671.93	14.04
672.07	79.58
672.21	74.90
672.35	84.26
672.49	53.83
672.63	23.41
672.77	133.41
672.91	53.83
673.05	46.81
673.19	46.81
673.33	28.09
673.47	58.51
673.61	88.94
673.75	44.47
673.89	14.04
674.03	67.88
674.17	0.00
674.31	112.35
674.45	37.45
674.59	88.94
674.73	81.92
674.87	0.00
675.01	37.45
675.15	39.79
675.29	28.09
675.43	77.24
675.56	93.62
675.70	0.00
675.84	35.11
675.98	4.68
676.12	58.51
676.26	18.72
676.40	4.68
676.54	28.09
676.68	35.11
676.82	58.51
676.96	105.32
677.10	11.70
677.23	70.22
677.37	23.41
677.51	37.45
677.65	93.62
677.79	58.51
677.93	67.88
678.07	39.79
678.21	37.45
678.34	37.45
678.48	0.00
678.62	72.56
678.76	51.49
678.90	65.54
679.04	0.00
679.18	16.38
679.31	0.00
679.45	4.68
679.59	0.00
679.73	46.81
679.87	56.17
680.00	95.96
680.14	14.04
680.28	0.00
680.42	46.81
680.56	35.11
680.70	2.34
680.83	53.83
680.97	30.43
681.11	39.79
681.25	32.77
681.39	86.60
681.52	91.28
681.66	4.68
681.80	91.28
681.94	63.19
682.07	81.92
682.21	79.58
682.35	21.06
682.49	37.45
682.62	95.96
682.76	0.00
682.90	37.45
683.04	21.06
683.17	84.26
683.31	98.30
683.45	63.19
683.59	74.90
683.72	72.56
683.86	70.22
684.00	49.15
684.13	81.92
684.27	42.13
684.41	65.54
684.55	74.90
684.68	23.41
684.82	51.49
684.96	79.58
685.09	14.04
685.23	32.77
685.37	14.04
685.50	16.38
685.64	30.43
685.78	72.56
685.91	95.96
686.05	0.00
686.19	77.24
686.32	63.19
686.46	32.77
686.60	32.77
686.73	0.00
686.87	74.90
687.01	121.71
687.14	0.00
687.28	30.43
687.42	63.19
687.55	37.45
687.69	0.00
687.82	11.70
687.96	42.13
688.10	32.77
688.23	91.28
688.37	21.06
688.50	0.00
688.64	44.47
688.78	0.00
688.91	35.11
689.05	23.41
689.18	0.00
689.32	63.19
689.46	0.00
689.59	44.47
689.73	11.70
689.86	70.22
690.00	32.77
690.13	49.15
690.27	0.00
690.41	53.83
690.54	93.62
690.68	58.51
690.81	42.13
690.95	42.13
691.08	72.56
691.22	46.81
691.35	88.94
691.49	58.51
691.62	0.00
691.76	65.54
691.89	0.00
692.03	37.45
692.16	0.00
692.30	74.90
692.43	0.00
692.57	0.00
692.70	53.83
692.84	51.49
692.97	65.54
693.11	70.22
693.24	30.43
693.38	49.15
693.51	28.09
693.65	18.72
693.78	72.56
693.92	2.34
694.05	79.58
694.19	58.51
694.32	65.54
694.45	63.19
694.59	102.98
694.72	37.45
694.86	44.47
694.99	0.00
695.13	32.77
695.26	2.34
695.39	0.00
695.53	131.07
695.66	91.28
695.80	79.58
695.93	0.00
696.07	32.77
696.20	70.22
696.33	0.00
696.47	0.00
696.60	0.00
696.73	0.00
696.87	0.00
697.00	67.88
697.14	49.15
697.27	39.79
697.40	58.51
697.54	88.94
697.67	95.96
697.80	81.92
697.94	77.24
698.07	37.45
698.21	51.49
698.34	72.56
698.47	86.60
698.61	63.19
698.74	28.09
698.87	18.72
699.01	147.45
699.14	14.04
699.27	30.43
699.40	18.72
699.54	35.11
699.67	0.00
699.80	84.26
699.94	0.00
700.07	0.00
700.20	56.17
700.34	42.13
700.47	23.41
700.60	30.43
700.73	70.22
700.87	11.70
701.00	35.11
701.13	11.70
701.26	0.00
701.40	138.09
701.53	46.81
701.66	16.38
701.79	4.68
701.93	93.62
702.06	32.77
702.19	0.00
702.32	18.72
702.46	49.15
702.59	23.41
702.72	63.19
702.85	23.41
702.99	39.79
703.12	2.34
703.25	9.36
703.38	95.96
703.51	63.19
703.65	35.11
703.78	49.15
703.91	86.60
704.04	0.00
704.17	58.51
704.31	30.43
704.44	25.75
704.57	49.15
704.70	44.47
704.83	0.00
704.96	79.58
705.10	0.00
705.23	21.06
>>>>>End Processed Spectral Data<<<<<
