SpectraSuite Data File
++++++++++++++++++++++++++++++++++++
Date: Fri Oct 04 12:13:43 GMT-05:00 2013
User: price-jones
Dark Spectrum Present: No
Reference Spectrum Present: No
Number of Sampled Component Spectra: 1
Spectrometers: USB2+H05261
Integration Time (usec): 10000 (USB2+H05261)
Spectra Averaged: 1 (USB2+H05261)
Boxcar Smoothing: 0 (USB2+H05261)
Correct for Electrical Dark: No (USB2+H05261)
Strobe/Lamp Enabled: No (USB2+H05261)
Correct for Detector Non-linearity: No (USB2+H05261)
Correct for Stray Light: No (USB2+H05261)
Number of Pixels in Processed Spectrum: 2048
>>>>>Begin Processed Spectral Data<<<<<
365.73	23.41
365.92	23.41
366.12	23.41
366.32	0.00
366.52	0.00
366.72	0.00
366.91	0.00
367.11	0.00
367.31	0.00
367.51	0.00
367.70	0.00
367.90	0.00
368.10	0.00
368.30	0.00
368.49	0.00
368.69	0.00
368.89	0.00
369.09	0.00
369.28	0.00
369.48	0.00
369.68	0.00
369.87	0.00
370.07	0.00
370.27	0.00
370.47	0.00
370.66	0.00
370.86	0.00
371.06	21.06
371.25	18.72
371.45	30.43
371.65	0.00
371.84	21.06
372.04	0.00
372.24	35.11
372.44	0.00
372.63	63.19
372.83	49.15
373.03	0.00
373.22	77.24
373.42	0.00
373.62	18.72
373.81	0.00
374.01	4.68
374.21	11.70
374.40	0.00
374.60	25.75
374.79	23.41
374.99	72.56
375.19	18.72
375.38	30.43
375.58	98.30
375.78	67.88
375.97	9.36
376.17	77.24
376.37	25.75
376.56	53.83
376.76	0.00
376.95	0.00
377.15	18.72
377.35	23.41
377.54	39.79
377.74	25.75
377.93	0.00
378.13	46.81
378.33	35.11
378.52	0.00
378.72	28.09
378.91	81.92
379.11	65.54
379.31	0.00
379.50	0.00
379.70	28.09
379.89	0.00
380.09	25.75
380.28	0.00
380.48	67.88
380.68	0.00
380.87	16.38
381.07	70.22
381.26	81.92
381.46	11.70
381.65	53.83
381.85	14.04
382.04	32.77
382.24	0.00
382.43	39.79
382.63	23.41
382.83	16.38
383.02	28.09
383.22	56.17
383.41	28.09
383.61	7.02
383.80	58.51
384.00	60.85
384.19	37.45
384.39	0.00
384.58	32.77
384.78	0.00
384.97	16.38
385.17	0.00
385.36	0.00
385.56	67.88
385.75	9.36
385.95	28.09
386.14	67.88
386.34	0.00
386.53	9.36
386.72	0.00
386.92	0.00
387.11	35.11
387.31	74.90
387.50	14.04
387.70	21.06
387.89	60.85
388.09	4.68
388.28	0.00
388.48	9.36
388.67	4.68
388.86	16.38
389.06	28.09
389.25	21.06
389.45	35.11
389.64	25.75
389.84	9.36
390.03	25.75
390.22	88.94
390.42	0.00
390.61	0.00
390.81	9.36
391.00	35.11
391.19	28.09
391.39	56.17
391.58	21.06
391.78	60.85
391.97	0.00
392.16	112.35
392.36	0.00
392.55	0.00
392.75	39.79
392.94	0.00
393.13	0.00
393.33	58.51
393.52	0.00
393.71	37.45
393.91	0.00
394.10	0.00
394.29	46.81
394.49	0.00
394.68	39.79
394.88	39.79
395.07	2.34
395.26	70.22
395.46	0.00
395.65	86.60
395.84	35.11
396.04	25.75
396.23	0.00
396.42	67.88
396.62	9.36
396.81	7.02
397.00	0.00
397.19	0.00
397.39	0.00
397.58	0.00
397.77	56.17
397.97	65.54
398.16	95.96
398.35	0.00
398.55	23.41
398.74	0.00
398.93	4.68
399.12	0.00
399.32	98.30
399.51	0.00
399.70	70.22
399.90	72.56
400.09	37.45
400.28	0.00
400.47	23.41
400.67	0.00
400.86	53.83
401.05	60.85
401.24	2.34
401.44	53.83
401.63	11.70
401.82	58.51
402.01	23.41
402.21	2.34
402.40	18.72
402.59	0.00
402.78	0.00
402.97	95.96
403.17	0.00
403.36	0.00
403.55	44.47
403.74	39.79
403.93	0.00
404.13	4.68
404.32	42.13
404.51	81.92
404.70	67.88
404.89	98.30
405.09	51.49
405.28	2.34
405.47	74.90
405.66	77.24
405.85	0.00
406.05	117.03
406.24	0.00
406.43	49.15
406.62	53.83
406.81	56.17
407.00	42.13
407.20	0.00
407.39	65.54
407.58	53.83
407.77	84.26
407.96	0.00
408.15	51.49
408.34	46.81
408.54	4.68
408.73	7.02
408.92	23.41
409.11	91.28
409.30	102.98
409.49	7.02
409.68	37.45
409.87	72.56
410.07	72.56
410.26	77.24
410.45	65.54
410.64	16.38
410.83	23.41
411.02	95.96
411.21	9.36
411.40	28.09
411.59	32.77
411.78	56.17
411.98	86.60
412.17	53.83
412.36	14.04
412.55	42.13
412.74	56.17
412.93	0.00
413.12	93.62
413.31	32.77
413.50	46.81
413.69	16.38
413.88	35.11
414.07	79.58
414.26	91.28
414.45	16.38
414.64	60.85
414.83	0.00
415.02	84.26
415.22	88.94
415.41	39.79
415.60	53.83
415.79	114.69
415.98	58.51
416.17	39.79
416.36	107.66
416.55	74.90
416.74	79.58
416.93	42.13
417.12	28.09
417.31	28.09
417.50	70.22
417.69	37.45
417.88	58.51
418.07	93.62
418.26	105.32
418.45	63.19
418.64	53.83
418.83	30.43
419.02	51.49
419.21	72.56
419.39	32.77
419.58	56.17
419.77	44.47
419.96	105.32
420.15	98.30
420.34	0.00
420.53	18.72
420.72	18.72
420.91	46.81
421.10	4.68
421.29	51.49
421.48	79.58
421.67	114.69
421.86	65.54
422.05	46.81
422.24	58.51
422.43	81.92
422.61	81.92
422.80	32.77
422.99	44.47
423.18	119.37
423.37	49.15
423.56	65.54
423.75	18.72
423.94	37.45
424.13	65.54
424.32	60.85
424.50	0.00
424.69	159.16
424.88	70.22
425.07	149.79
425.26	0.00
425.45	30.43
425.64	56.17
425.83	4.68
426.01	0.00
426.20	65.54
426.39	4.68
426.58	28.09
426.77	32.77
426.96	0.00
427.15	74.90
427.33	14.04
427.52	0.00
427.71	49.15
427.90	11.70
428.09	9.36
428.28	72.56
428.46	18.72
428.65	0.00
428.84	51.49
429.03	35.11
429.22	56.17
429.40	35.11
429.59	14.04
429.78	25.75
429.97	72.56
430.16	23.41
430.34	105.32
430.53	93.62
430.72	0.00
430.91	46.81
431.10	117.03
431.28	112.35
431.47	32.77
431.66	86.60
431.85	51.49
432.03	0.00
432.22	65.54
432.41	105.32
432.60	63.19
432.79	23.41
432.97	74.90
433.16	56.17
433.35	88.94
433.54	0.00
433.72	0.00
433.91	0.00
434.10	18.72
434.28	51.49
434.47	77.24
434.66	28.09
434.85	23.41
435.03	39.79
435.22	58.51
435.41	81.92
435.59	91.28
435.78	131.07
435.97	63.19
436.16	23.41
436.34	2.34
436.53	44.47
436.72	70.22
436.90	79.58
437.09	25.75
437.28	93.62
437.46	30.43
437.65	100.64
437.84	49.15
438.02	65.54
438.21	32.77
438.40	79.58
438.58	42.13
438.77	91.28
438.96	70.22
439.14	105.32
439.33	56.17
439.52	39.79
439.70	58.51
439.89	9.36
440.08	95.96
440.26	77.24
440.45	25.75
440.63	49.15
440.82	49.15
441.01	67.88
441.19	4.68
441.38	42.13
441.57	67.88
441.75	112.35
441.94	0.00
442.12	93.62
442.31	84.26
442.50	37.45
442.68	11.70
442.87	0.00
443.05	58.51
443.24	56.17
443.43	39.79
443.61	18.72
443.80	81.92
443.98	63.19
444.17	72.56
444.35	28.09
444.54	21.06
444.73	70.22
444.91	72.56
445.10	39.79
445.28	67.88
445.47	4.68
445.65	7.02
445.84	35.11
446.02	60.85
446.21	70.22
446.39	72.56
446.58	18.72
446.77	65.54
446.95	65.54
447.14	28.09
447.32	112.35
447.51	102.98
447.69	46.81
447.88	0.00
448.06	70.22
448.25	60.85
448.43	0.00
448.62	35.11
448.80	46.81
448.99	63.19
449.17	0.00
449.36	9.36
449.54	110.01
449.73	9.36
449.91	70.22
450.10	79.58
450.28	159.16
450.46	84.26
450.65	42.13
450.83	74.90
451.02	70.22
451.20	25.75
451.39	18.72
451.57	107.66
451.76	35.11
451.94	0.00
452.13	93.62
452.31	86.60
452.49	0.00
452.68	44.47
452.86	74.90
453.05	37.45
453.23	32.77
453.42	81.92
453.60	46.81
453.78	79.58
453.97	30.43
454.15	42.13
454.34	7.02
454.52	107.66
454.70	14.04
454.89	46.81
455.07	28.09
455.26	37.45
455.44	74.90
455.62	81.92
455.81	39.79
455.99	35.11
456.17	11.70
456.36	46.81
456.54	0.00
456.73	65.54
456.91	65.54
457.09	51.49
457.28	14.04
457.46	67.88
457.64	23.41
457.83	0.00
458.01	56.17
458.19	23.41
458.38	86.60
458.56	70.22
458.74	121.71
458.93	32.77
459.11	72.56
459.29	11.70
459.48	98.30
459.66	23.41
459.84	51.49
460.03	110.01
460.21	102.98
460.39	67.88
460.57	25.75
460.76	65.54
460.94	77.24
461.12	126.39
461.31	44.47
461.49	42.13
461.67	35.11
461.85	60.85
462.04	18.72
462.22	159.16
462.40	93.62
462.59	112.35
462.77	121.71
462.95	4.68
463.13	124.05
463.32	88.94
463.50	46.81
463.68	42.13
463.86	77.24
464.05	65.54
464.23	2.34
464.41	18.72
464.59	56.17
464.78	107.66
464.96	0.00
465.14	2.34
465.32	93.62
465.50	102.98
465.69	7.02
465.87	46.81
466.05	60.85
466.23	0.00
466.41	9.36
466.60	65.54
466.78	0.00
466.96	58.51
467.14	88.94
467.32	7.02
467.51	11.70
467.69	28.09
467.87	77.24
468.05	60.85
468.23	0.00
468.41	18.72
468.60	28.09
468.78	32.77
468.96	63.19
469.14	112.35
469.32	91.28
469.50	56.17
469.69	28.09
469.87	88.94
470.05	81.92
470.23	49.15
470.41	93.62
470.59	84.26
470.77	79.58
470.95	63.19
471.14	84.26
471.32	25.75
471.50	53.83
471.68	46.81
471.86	88.94
472.04	0.00
472.22	88.94
472.40	79.58
472.58	72.56
472.77	53.83
472.95	70.22
473.13	102.98
473.31	93.62
473.49	0.00
473.67	60.85
473.85	95.96
474.03	86.60
474.21	81.92
474.39	49.15
474.57	0.00
474.75	58.51
474.93	81.92
475.12	124.05
475.30	58.51
475.48	51.49
475.66	56.17
475.84	79.58
476.02	72.56
476.20	28.09
476.38	63.19
476.56	91.28
476.74	21.06
476.92	117.03
477.10	51.49
477.28	98.30
477.46	102.98
477.64	39.79
477.82	86.60
478.00	91.28
478.18	21.06
478.36	18.72
478.54	100.64
478.72	0.00
478.90	18.72
479.08	44.47
479.26	77.24
479.44	51.49
479.62	112.35
479.80	51.49
479.98	56.17
480.16	56.17
480.34	65.54
480.52	49.15
480.70	39.79
480.88	88.94
481.06	95.96
481.24	102.98
481.41	63.19
481.59	21.06
481.77	72.56
481.95	51.49
482.13	72.56
482.31	28.09
482.49	91.28
482.67	175.54
482.85	88.94
483.03	58.51
483.21	86.60
483.39	74.90
483.57	18.72
483.74	112.35
483.92	21.06
484.10	58.51
484.28	32.77
484.46	79.58
484.64	70.22
484.82	95.96
485.00	63.19
485.18	32.77
485.35	46.81
485.53	63.19
485.71	114.69
485.89	102.98
486.07	135.75
486.25	79.58
486.43	0.00
486.61	65.54
486.78	51.49
486.96	110.01
487.14	84.26
487.32	70.22
487.50	65.54
487.68	56.17
487.85	0.00
488.03	44.47
488.21	16.38
488.39	74.90
488.57	46.81
488.75	9.36
488.92	114.69
489.10	51.49
489.28	70.22
489.46	67.88
489.64	93.62
489.81	100.64
489.99	63.19
490.17	39.79
490.35	126.39
490.53	133.41
490.70	98.30
490.88	72.56
491.06	0.00
491.24	117.03
491.41	63.19
491.59	117.03
491.77	114.69
491.95	4.68
492.13	30.43
492.30	98.30
492.48	138.09
492.66	81.92
492.84	114.69
493.01	98.30
493.19	105.32
493.37	79.58
493.54	98.30
493.72	14.04
493.90	74.90
494.08	35.11
494.25	21.06
494.43	70.22
494.61	84.26
494.79	117.03
494.96	126.39
495.14	91.28
495.32	95.96
495.49	9.36
495.67	42.13
495.85	70.22
496.02	140.43
496.20	86.60
496.38	114.69
496.55	0.00
496.73	35.11
496.91	28.09
497.09	128.73
497.26	98.30
497.44	161.50
497.62	135.75
497.79	63.19
497.97	110.01
498.14	63.19
498.32	60.85
498.50	58.51
498.67	119.37
498.85	107.66
499.03	107.66
499.20	51.49
499.38	133.41
499.56	42.13
499.73	67.88
499.91	16.38
500.08	107.66
500.26	126.39
500.44	107.66
500.61	91.28
500.79	37.45
500.97	114.69
501.14	63.19
501.32	28.09
501.49	67.88
501.67	81.92
501.84	79.58
502.02	114.69
502.20	67.88
502.37	86.60
502.55	63.19
502.72	121.71
502.90	58.51
503.07	88.94
503.25	107.66
503.43	74.90
503.60	46.81
503.78	124.05
503.95	91.28
504.13	84.26
504.30	16.38
504.48	86.60
504.65	93.62
504.83	74.90
505.01	65.54
505.18	65.54
505.36	102.98
505.53	23.41
505.71	58.51
505.88	105.32
506.06	98.30
506.23	124.05
506.41	60.85
506.58	72.56
506.76	70.22
506.93	65.54
507.11	72.56
507.28	117.03
507.46	170.86
507.63	65.54
507.81	79.58
507.98	88.94
508.16	81.92
508.33	100.64
508.50	79.58
508.68	100.64
508.85	86.60
509.03	30.43
509.20	110.01
509.38	60.85
509.55	142.77
509.73	98.30
509.90	11.70
510.08	86.60
510.25	65.54
510.42	95.96
510.60	114.69
510.77	65.54
510.95	110.01
511.12	88.94
511.30	65.54
511.47	72.56
511.64	98.30
511.82	72.56
511.99	18.72
512.17	77.24
512.34	65.54
512.51	4.68
512.69	67.88
512.86	105.32
513.04	117.03
513.21	72.56
513.38	84.26
513.56	124.05
513.73	58.51
513.90	152.13
514.08	70.22
514.25	91.28
514.43	49.15
514.60	35.11
514.77	88.94
514.95	117.03
515.12	60.85
515.29	7.02
515.47	149.79
515.64	117.03
515.81	124.05
515.99	100.64
516.16	84.26
516.33	88.94
516.51	91.28
516.68	58.51
516.85	72.56
517.03	102.98
517.20	131.07
517.37	95.96
517.54	63.19
517.72	25.75
517.89	56.17
518.06	60.85
518.24	77.24
518.41	86.60
518.58	152.13
518.75	74.90
518.93	79.58
519.10	70.22
519.27	86.60
519.45	88.94
519.62	74.90
519.79	102.98
519.96	65.54
520.14	72.56
520.31	16.38
520.48	81.92
520.65	117.03
520.83	53.83
521.00	72.56
521.17	100.64
521.34	70.22
521.52	168.52
521.69	21.06
521.86	70.22
522.03	58.51
522.20	79.58
522.38	0.00
522.55	93.62
522.72	25.75
522.89	135.75
523.07	114.69
523.24	135.75
523.41	105.32
523.58	110.01
523.75	105.32
523.92	74.90
524.10	102.98
524.27	67.88
524.44	70.22
524.61	56.17
524.78	147.45
524.96	81.92
525.13	117.03
525.30	51.49
525.47	79.58
525.64	91.28
525.81	74.90
525.98	98.30
526.16	56.17
526.33	74.90
526.50	142.77
526.67	56.17
526.84	152.13
527.01	72.56
527.18	117.03
527.36	39.79
527.53	70.22
527.70	98.30
527.87	138.09
528.04	35.11
528.21	79.58
528.38	102.98
528.55	91.28
528.72	88.94
528.89	67.88
529.07	18.72
529.24	32.77
529.41	128.73
529.58	53.83
529.75	86.60
529.92	70.22
530.09	72.56
530.26	86.60
530.43	93.62
530.60	91.28
530.77	72.56
530.94	63.19
531.11	100.64
531.28	79.58
531.46	114.69
531.63	124.05
531.80	53.83
531.97	128.73
532.14	60.85
532.31	72.56
532.48	70.22
532.65	39.79
532.82	65.54
532.99	30.43
533.16	25.75
533.33	37.45
533.50	140.43
533.67	77.24
533.84	51.49
534.01	91.28
534.18	37.45
534.35	28.09
534.52	98.30
534.69	63.19
534.86	77.24
535.03	110.01
535.20	74.90
535.37	21.06
535.54	60.85
535.71	46.81
535.88	58.51
536.05	35.11
536.22	53.83
536.38	98.30
536.55	107.66
536.72	119.37
536.89	63.19
537.06	100.64
537.23	72.56
537.40	32.77
537.57	102.98
537.74	23.41
537.91	56.17
538.08	84.26
538.25	124.05
538.42	91.28
538.59	81.92
538.75	107.66
538.92	140.43
539.09	140.43
539.26	51.49
539.43	63.19
539.60	65.54
539.77	74.90
539.94	51.49
540.11	145.11
540.28	88.94
540.44	84.26
540.61	79.58
540.78	30.43
540.95	88.94
541.12	84.26
541.29	93.62
541.46	91.28
541.62	35.11
541.79	140.43
541.96	145.11
542.13	84.26
542.30	72.56
542.47	49.15
542.63	95.96
542.80	119.37
542.97	32.77
543.14	63.19
543.31	51.49
543.48	131.07
543.64	53.83
543.81	126.39
543.98	77.24
544.15	65.54
544.32	53.83
544.48	67.88
544.65	88.94
544.82	128.73
544.99	128.73
545.16	77.24
545.32	93.62
545.49	119.37
545.66	21.06
545.83	30.43
546.00	81.92
546.16	98.30
546.33	74.90
546.50	67.88
546.67	112.35
546.83	102.98
547.00	138.09
547.17	72.56
547.34	32.77
547.50	112.35
547.67	88.94
547.84	112.35
548.00	114.69
548.17	138.09
548.34	67.88
548.51	58.51
548.67	159.16
548.84	124.05
549.01	86.60
549.18	51.49
549.34	39.79
549.51	74.90
549.68	30.43
549.84	98.30
550.01	110.01
550.18	114.69
550.34	0.00
550.51	58.51
550.68	53.83
550.84	100.64
551.01	93.62
551.18	95.96
551.34	70.22
551.51	166.18
551.68	58.51
551.84	121.71
552.01	149.79
552.18	161.50
552.34	0.00
552.51	154.48
552.68	112.35
552.84	91.28
553.01	44.47
553.18	84.26
553.34	124.05
553.51	72.56
553.67	63.19
553.84	84.26
554.01	74.90
554.17	67.88
554.34	117.03
554.51	191.92
554.67	105.32
554.84	0.00
555.00	60.85
555.17	77.24
555.33	107.66
555.50	105.32
555.67	91.28
555.83	74.90
556.00	145.11
556.16	93.62
556.33	88.94
556.50	112.35
556.66	70.22
556.83	93.62
556.99	131.07
557.16	81.92
557.32	30.43
557.49	126.39
557.65	114.69
557.82	145.11
557.98	110.01
558.15	81.92
558.32	128.73
558.48	49.15
558.65	53.83
558.81	112.35
558.98	46.81
559.14	133.41
559.31	51.49
559.47	112.35
559.64	91.28
559.80	149.79
559.97	86.60
560.13	67.88
560.30	42.13
560.46	39.79
560.63	11.70
560.79	60.85
560.96	21.06
561.12	145.11
561.29	112.35
561.45	105.32
561.61	126.39
561.78	86.60
561.94	142.77
562.11	100.64
562.27	156.82
562.44	77.24
562.60	0.00
562.77	32.77
562.93	77.24
563.10	65.54
563.26	93.62
563.42	84.26
563.59	102.98
563.75	58.51
563.92	91.28
564.08	128.73
564.24	98.30
564.41	126.39
564.57	98.30
564.74	58.51
564.90	91.28
565.07	100.64
565.23	126.39
565.39	14.04
565.56	95.96
565.72	79.58
565.88	46.81
566.05	72.56
566.21	102.98
566.38	51.49
566.54	128.73
566.70	74.90
566.87	88.94
567.03	91.28
567.19	70.22
567.36	121.71
567.52	124.05
567.68	154.48
567.85	49.15
568.01	30.43
568.17	81.92
568.34	25.75
568.50	105.32
568.66	42.13
568.83	124.05
568.99	67.88
569.15	138.09
569.32	86.60
569.48	77.24
569.64	60.85
569.81	72.56
569.97	53.83
570.13	117.03
570.30	102.98
570.46	51.49
570.62	114.69
570.78	84.26
570.95	133.41
571.11	86.60
571.27	58.51
571.43	86.60
571.60	39.79
571.76	79.58
571.92	98.30
572.09	53.83
572.25	60.85
572.41	91.28
572.57	117.03
572.74	46.81
572.90	102.98
573.06	154.48
573.22	46.81
573.38	35.11
573.55	72.56
573.71	72.56
573.87	35.11
574.03	140.43
574.20	102.98
574.36	138.09
574.52	11.70
574.68	56.17
574.84	91.28
575.01	79.58
575.17	175.54
575.33	126.39
575.49	149.79
575.65	84.26
575.82	138.09
575.98	86.60
576.14	58.51
576.30	105.32
576.46	67.88
576.62	18.72
576.79	35.11
576.95	86.60
577.11	25.75
577.27	107.66
577.43	77.24
577.59	44.47
577.75	86.60
577.92	138.09
578.08	105.32
578.24	18.72
578.40	37.45
578.56	60.85
578.72	63.19
578.88	135.75
579.04	23.41
579.21	100.64
579.37	140.43
579.53	60.85
579.69	105.32
579.85	166.18
580.01	81.92
580.17	67.88
580.33	105.32
580.49	121.71
580.65	70.22
580.82	46.81
580.98	112.35
581.14	77.24
581.30	79.58
581.46	46.81
581.62	0.00
581.78	35.11
581.94	84.26
582.10	74.90
582.26	95.96
582.42	100.64
582.58	88.94
582.74	42.13
582.90	74.90
583.06	46.81
583.22	128.73
583.38	46.81
583.54	74.90
583.70	49.15
583.86	149.79
584.02	117.03
584.18	44.47
584.34	56.17
584.50	145.11
584.66	30.43
584.82	72.56
584.98	81.92
585.14	37.45
585.30	145.11
585.46	91.28
585.62	58.51
585.78	53.83
585.94	84.26
586.10	63.19
586.26	95.96
586.42	105.32
586.58	46.81
586.74	117.03
586.90	51.49
587.06	102.98
587.22	112.35
587.38	46.81
587.54	110.01
587.70	0.00
587.86	135.75
588.02	72.56
588.18	46.81
588.34	77.24
588.49	93.62
588.65	0.00
588.81	77.24
588.97	56.17
589.13	74.90
589.29	102.98
589.45	14.04
589.61	81.92
589.77	51.49
589.93	25.75
590.08	56.17
590.24	65.54
590.40	65.54
590.56	30.43
590.72	46.81
590.88	98.30
591.04	30.43
591.20	32.77
591.35	60.85
591.51	35.11
591.67	88.94
591.83	56.17
591.99	152.13
592.15	91.28
592.31	86.60
592.46	25.75
592.62	128.73
592.78	77.24
592.94	102.98
593.10	32.77
593.26	28.09
593.41	86.60
593.57	60.85
593.73	16.38
593.89	163.84
594.05	93.62
594.20	98.30
594.36	124.05
594.52	77.24
594.68	93.62
594.84	49.15
594.99	91.28
595.15	60.85
595.31	42.13
595.47	32.77
595.62	65.54
595.78	0.00
595.94	70.22
596.10	49.15
596.25	0.00
596.41	128.73
596.57	51.49
596.73	44.47
596.88	0.00
597.04	46.81
597.20	98.30
597.36	131.07
597.51	86.60
597.67	86.60
597.83	37.45
597.99	28.09
598.14	7.02
598.30	110.01
598.46	107.66
598.61	105.32
598.77	56.17
598.93	46.81
599.09	9.36
599.24	21.06
599.40	91.28
599.56	93.62
599.71	110.01
599.87	23.41
600.03	0.00
600.18	65.54
600.34	28.09
600.50	126.39
600.65	112.35
600.81	105.32
600.97	53.83
601.12	91.28
601.28	65.54
601.44	72.56
601.59	117.03
601.75	49.15
601.91	0.00
602.06	161.50
602.22	32.77
602.37	16.38
602.53	79.58
602.69	28.09
602.84	79.58
603.00	11.70
603.16	65.54
603.31	117.03
603.47	105.32
603.62	51.49
603.78	46.81
603.94	70.22
604.09	84.26
604.25	39.79
604.40	58.51
604.56	154.48
604.71	67.88
604.87	84.26
605.03	37.45
605.18	110.01
605.34	37.45
605.49	67.88
605.65	77.24
605.80	131.07
605.96	7.02
606.12	79.58
606.27	74.90
606.43	32.77
606.58	2.34
606.74	7.02
606.89	152.13
607.05	91.28
607.20	112.35
607.36	23.41
607.51	121.71
607.67	86.60
607.82	93.62
607.98	110.01
608.13	65.54
608.29	74.90
608.44	117.03
608.60	46.81
608.75	86.60
608.91	7.02
609.06	0.00
609.22	7.02
609.37	21.06
609.53	86.60
609.68	58.51
609.84	67.88
609.99	60.85
610.15	88.94
610.30	53.83
610.46	110.01
610.61	72.56
610.76	107.66
610.92	49.15
611.07	58.51
611.23	25.75
611.38	39.79
611.54	100.64
611.69	88.94
611.84	0.00
612.00	70.22
612.15	58.51
612.31	205.97
612.46	159.16
612.62	44.47
612.77	114.69
612.92	74.90
613.08	84.26
613.23	53.83
613.39	67.88
613.54	39.79
613.69	114.69
613.85	138.09
614.00	16.38
614.15	14.04
614.31	51.49
614.46	60.85
614.62	81.92
614.77	72.56
614.92	35.11
615.08	100.64
615.23	46.81
615.38	46.81
615.54	105.32
615.69	37.45
615.84	25.75
616.00	72.56
616.15	110.01
616.30	91.28
616.46	37.45
616.61	91.28
616.76	84.26
616.92	65.54
617.07	39.79
617.22	0.00
617.37	16.38
617.53	93.62
617.68	44.47
617.83	0.00
617.99	53.83
618.14	81.92
618.29	46.81
618.45	0.00
618.60	67.88
618.75	84.26
618.90	65.54
619.06	14.04
619.21	86.60
619.36	70.22
619.51	70.22
619.67	51.49
619.82	98.30
619.97	0.00
620.12	21.06
620.28	0.00
620.43	28.09
620.58	147.45
620.73	67.88
620.89	11.70
621.04	60.85
621.19	0.00
621.34	72.56
621.49	140.43
621.65	77.24
621.80	67.88
621.95	81.92
622.10	105.32
622.25	67.88
622.41	70.22
622.56	42.13
622.71	86.60
622.86	77.24
623.01	16.38
623.16	79.58
623.32	93.62
623.47	81.92
623.62	107.66
623.77	0.00
623.92	145.11
624.07	46.81
624.23	35.11
624.38	37.45
624.53	156.82
624.68	81.92
624.83	46.81
624.98	58.51
625.13	44.47
625.29	93.62
625.44	49.15
625.59	0.00
625.74	56.17
625.89	49.15
626.04	81.92
626.19	117.03
626.34	98.30
626.49	0.00
626.65	42.13
626.80	46.81
626.95	21.06
627.10	9.36
627.25	49.15
627.40	51.49
627.55	35.11
627.70	79.58
627.85	81.92
628.00	16.38
628.15	51.49
628.30	21.06
628.45	18.72
628.60	30.43
628.76	65.54
628.91	124.05
629.06	0.00
629.21	0.00
629.36	2.34
629.51	4.68
629.66	88.94
629.81	98.30
629.96	25.75
630.11	124.05
630.26	60.85
630.41	56.17
630.56	110.01
630.71	32.77
630.86	100.64
631.01	77.24
631.16	121.71
631.31	23.41
631.46	23.41
631.61	25.75
631.76	35.11
631.91	100.64
632.06	30.43
632.21	4.68
632.36	126.39
632.51	46.81
632.66	30.43
632.81	56.17
632.96	100.64
633.10	46.81
633.25	74.90
633.40	0.00
633.55	51.49
633.70	53.83
633.85	0.00
634.00	32.77
634.15	128.73
634.30	81.92
634.45	58.51
634.60	7.02
634.75	0.00
634.90	46.81
635.05	74.90
635.19	21.06
635.34	84.26
635.49	98.30
635.64	65.54
635.79	77.24
635.94	84.26
636.09	107.66
636.24	72.56
636.39	81.92
636.53	81.92
636.68	58.51
636.83	72.56
636.98	60.85
637.13	35.11
637.28	98.30
637.43	35.11
637.57	56.17
637.72	65.54
637.87	14.04
638.02	105.32
638.17	51.49
638.32	39.79
638.46	37.45
638.61	86.60
638.76	0.00
638.91	65.54
639.06	32.77
639.20	88.94
639.35	74.90
639.50	0.00
639.65	119.37
639.80	98.30
639.94	102.98
640.09	51.49
640.24	114.69
640.39	32.77
640.54	63.19
640.68	102.98
640.83	21.06
640.98	138.09
641.13	0.00
641.27	65.54
641.42	121.71
641.57	35.11
641.72	142.77
641.86	39.79
642.01	56.17
642.16	105.32
642.31	56.17
642.45	28.09
642.60	23.41
642.75	128.73
642.90	91.28
643.04	18.72
643.19	7.02
643.34	16.38
643.48	56.17
643.63	117.03
643.78	23.41
643.93	72.56
644.07	86.60
644.22	30.43
644.37	0.00
644.51	49.15
644.66	74.90
644.81	44.47
644.95	51.49
645.10	60.85
645.25	56.17
645.39	23.41
645.54	60.85
645.69	60.85
645.83	18.72
645.98	14.04
646.13	74.90
646.27	58.51
646.42	86.60
646.57	11.70
646.71	14.04
646.86	37.45
647.00	0.00
647.15	67.88
647.30	28.09
647.44	102.98
647.59	44.47
647.74	18.72
647.88	18.72
648.03	91.28
648.17	37.45
648.32	23.41
648.47	56.17
648.61	63.19
648.76	67.88
648.90	81.92
649.05	67.88
649.20	63.19
649.34	95.96
649.49	46.81
649.63	81.92
649.78	63.19
649.92	37.45
650.07	56.17
650.21	51.49
650.36	30.43
650.51	117.03
650.65	0.00
650.80	32.77
650.94	7.02
651.09	84.26
651.23	30.43
651.38	60.85
651.52	126.39
651.67	51.49
651.81	35.11
651.96	21.06
652.10	79.58
652.25	77.24
652.39	79.58
652.54	95.96
652.68	107.66
652.83	121.71
652.97	107.66
653.12	105.32
653.26	0.00
653.41	28.09
653.55	32.77
653.70	65.54
653.84	105.32
653.99	42.13
654.13	67.88
654.27	77.24
654.42	72.56
654.56	0.00
654.71	14.04
654.85	67.88
655.00	0.00
655.14	65.54
655.29	0.00
655.43	51.49
655.57	42.13
655.72	32.77
655.86	53.83
656.01	25.75
656.15	35.11
656.30	25.75
656.44	23.41
656.58	0.00
656.73	39.79
656.87	112.35
657.01	65.54
657.16	7.02
657.30	79.58
657.45	39.79
657.59	95.96
657.73	21.06
657.88	77.24
658.02	65.54
658.16	46.81
658.31	7.02
658.45	126.39
658.60	77.24
658.74	67.88
658.88	65.54
659.03	93.62
659.17	0.00
659.31	56.17
659.46	112.35
659.60	128.73
659.74	119.37
659.89	35.11
660.03	126.39
660.17	112.35
660.32	84.26
660.46	39.79
660.60	51.49
660.74	42.13
660.89	46.81
661.03	86.60
661.17	0.00
661.32	23.41
661.46	74.90
661.60	49.15
661.74	107.66
661.89	42.13
662.03	63.19
662.17	23.41
662.31	0.00
662.46	30.43
662.60	58.51
662.74	42.13
662.88	60.85
663.03	37.45
663.17	30.43
663.31	18.72
663.45	18.72
663.60	86.60
663.74	70.22
663.88	51.49
664.02	72.56
664.17	46.81
664.31	46.81
664.45	84.26
664.59	84.26
664.73	39.79
664.88	28.09
665.02	49.15
665.16	100.64
665.30	79.58
665.44	135.75
665.59	126.39
665.73	0.00
665.87	138.09
666.01	60.85
666.15	131.07
666.29	35.11
666.44	65.54
666.58	46.81
666.72	63.19
666.86	58.51
667.00	70.22
667.14	86.60
667.28	30.43
667.43	18.72
667.57	49.15
667.71	53.83
667.85	70.22
667.99	114.69
668.13	2.34
668.27	84.26
668.41	77.24
668.56	67.88
668.70	121.71
668.84	0.00
668.98	39.79
669.12	23.41
669.26	110.01
669.40	117.03
669.54	35.11
669.68	93.62
669.82	32.77
669.96	42.13
670.10	70.22
670.25	21.06
670.39	77.24
670.53	32.77
670.67	44.47
670.81	0.00
670.95	112.35
671.09	0.00
671.23	77.24
671.37	0.00
671.51	49.15
671.65	100.64
671.79	98.30
671.93	18.72
672.07	46.81
672.21	0.00
672.35	42.13
672.49	28.09
672.63	37.45
672.77	18.72
672.91	93.62
673.05	81.92
673.19	81.92
673.33	0.00
673.47	0.00
673.61	4.68
673.75	0.00
673.89	0.00
674.03	9.36
674.17	0.00
674.31	46.81
674.45	42.13
674.59	0.00
674.73	65.54
674.87	51.49
675.01	37.45
675.15	114.69
675.29	30.43
675.43	95.96
675.56	0.00
675.70	131.07
675.84	110.01
675.98	49.15
676.12	0.00
676.26	0.00
676.40	0.00
676.54	25.75
676.68	0.00
676.82	77.24
676.96	53.83
677.10	32.77
677.23	110.01
677.37	11.70
677.51	0.00
677.65	102.98
677.79	81.92
677.93	28.09
678.07	0.00
678.21	67.88
678.34	110.01
678.48	42.13
678.62	0.00
678.76	7.02
678.90	56.17
679.04	11.70
679.18	58.51
679.31	49.15
679.45	30.43
679.59	53.83
679.73	23.41
679.87	44.47
680.00	60.85
680.14	28.09
680.28	0.00
680.42	46.81
680.56	28.09
680.70	65.54
680.83	51.49
680.97	44.47
681.11	98.30
681.25	0.00
681.39	88.94
681.52	0.00
681.66	63.19
681.80	0.00
681.94	56.17
682.07	7.02
682.21	0.00
682.35	0.00
682.49	49.15
682.62	25.75
682.76	63.19
682.90	14.04
683.04	93.62
683.17	81.92
683.31	53.83
683.45	51.49
683.59	88.94
683.72	0.00
683.86	124.05
684.00	60.85
684.13	77.24
684.27	28.09
684.41	67.88
684.55	0.00
684.68	30.43
684.82	88.94
684.96	86.60
685.09	0.00
685.23	35.11
685.37	23.41
685.50	53.83
685.64	81.92
685.78	39.79
685.91	16.38
686.05	49.15
686.19	58.51
686.32	18.72
686.46	42.13
686.60	60.85
686.73	74.90
686.87	18.72
687.01	39.79
687.14	18.72
687.28	39.79
687.42	88.94
687.55	117.03
687.69	14.04
687.82	126.39
687.96	7.02
688.10	56.17
688.23	2.34
688.37	63.19
688.50	46.81
688.64	28.09
688.78	0.00
688.91	112.35
689.05	9.36
689.18	86.60
689.32	32.77
689.46	42.13
689.59	49.15
689.73	9.36
689.86	32.77
690.00	14.04
690.13	18.72
690.27	4.68
690.41	4.68
690.54	39.79
690.68	0.00
690.81	23.41
690.95	49.15
691.08	44.47
691.22	35.11
691.35	44.47
691.49	63.19
691.62	81.92
691.76	4.68
691.89	79.58
692.03	39.79
692.16	9.36
692.30	67.88
692.43	65.54
692.57	25.75
692.70	0.00
692.84	42.13
692.97	63.19
693.11	77.24
693.24	16.38
693.38	9.36
693.51	23.41
693.65	77.24
693.78	91.28
693.92	23.41
694.05	42.13
694.19	11.70
694.32	72.56
694.45	53.83
694.59	0.00
694.72	32.77
694.86	0.00
694.99	32.77
695.13	2.34
695.26	81.92
695.39	39.79
695.53	0.00
695.66	32.77
695.80	53.83
695.93	46.81
696.07	39.79
696.20	46.81
696.33	0.00
696.47	37.45
696.60	7.02
696.73	0.00
696.87	42.13
697.00	28.09
697.14	11.70
697.27	4.68
697.40	49.15
697.54	72.56
697.67	65.54
697.80	53.83
697.94	81.92
698.07	18.72
698.21	63.19
698.34	23.41
698.47	0.00
698.61	25.75
698.74	37.45
698.87	91.28
699.01	21.06
699.14	0.00
699.27	35.11
699.40	100.64
699.54	65.54
699.67	81.92
699.80	42.13
699.94	102.98
700.07	53.83
700.20	63.19
700.34	74.90
700.47	56.17
700.60	9.36
700.73	0.00
700.87	93.62
701.00	23.41
701.13	35.11
701.26	4.68
701.40	30.43
701.53	79.58
701.66	9.36
701.79	0.00
701.93	0.00
702.06	18.72
702.19	93.62
702.32	0.00
702.46	0.00
702.59	30.43
702.72	28.09
702.85	51.49
702.99	16.38
703.12	86.60
703.25	32.77
703.38	35.11
703.51	91.28
703.65	77.24
703.78	86.60
703.91	100.64
704.04	56.17
704.17	16.38
704.31	0.00
704.44	0.00
704.57	21.06
704.70	51.49
704.83	56.17
704.96	28.09
705.10	46.81
705.23	63.19
>>>>>End Processed Spectral Data<<<<<
