SpectraSuite Data File
++++++++++++++++++++++++++++++++++++
Date: Fri Oct 04 12:13:27 GMT-05:00 2013
User: price-jones
Dark Spectrum Present: No
Reference Spectrum Present: No
Number of Sampled Component Spectra: 1
Spectrometers: USB2+H05261
Integration Time (usec): 10000 (USB2+H05261)
Spectra Averaged: 1 (USB2+H05261)
Boxcar Smoothing: 0 (USB2+H05261)
Correct for Electrical Dark: No (USB2+H05261)
Strobe/Lamp Enabled: No (USB2+H05261)
Correct for Detector Non-linearity: No (USB2+H05261)
Correct for Stray Light: No (USB2+H05261)
Number of Pixels in Processed Spectrum: 2048
>>>>>Begin Processed Spectral Data<<<<<
365.73	21.06
365.92	21.06
366.12	21.06
366.32	0.00
366.52	0.00
366.72	0.00
366.91	0.00
367.11	0.00
367.31	0.00
367.51	0.00
367.70	0.00
367.90	0.00
368.10	0.00
368.30	0.00
368.49	0.00
368.69	0.00
368.89	0.00
369.09	0.00
369.28	0.00
369.48	0.00
369.68	0.00
369.87	0.00
370.07	0.00
370.27	0.00
370.47	0.00
370.66	0.00
370.86	0.00
371.06	0.00
371.25	0.00
371.45	0.00
371.65	0.00
371.84	0.00
372.04	0.00
372.24	0.00
372.44	0.00
372.63	46.81
372.83	14.04
373.03	39.79
373.22	42.13
373.42	11.70
373.62	0.00
373.81	14.04
374.01	25.75
374.21	37.45
374.40	9.36
374.60	70.22
374.79	0.00
374.99	11.70
375.19	0.00
375.38	0.00
375.58	18.72
375.78	9.36
375.97	0.00
376.17	25.75
376.37	37.45
376.56	58.51
376.76	28.09
376.95	21.06
377.15	32.77
377.35	4.68
377.54	44.47
377.74	32.77
377.93	51.49
378.13	49.15
378.33	42.13
378.52	105.32
378.72	11.70
378.91	32.77
379.11	77.24
379.31	35.11
379.50	16.38
379.70	0.00
379.89	14.04
380.09	0.00
380.28	21.06
380.48	0.00
380.68	7.02
380.87	0.00
381.07	0.00
381.26	56.17
381.46	72.56
381.65	42.13
381.85	30.43
382.04	0.00
382.24	72.56
382.43	0.00
382.63	2.34
382.83	42.13
383.02	0.00
383.22	42.13
383.41	4.68
383.61	0.00
383.80	0.00
384.00	32.77
384.19	0.00
384.39	0.00
384.58	58.51
384.78	0.00
384.97	18.72
385.17	4.68
385.36	21.06
385.56	35.11
385.75	49.15
385.95	0.00
386.14	46.81
386.34	16.38
386.53	18.72
386.72	100.64
386.92	42.13
387.11	0.00
387.31	21.06
387.50	0.00
387.70	79.58
387.89	35.11
388.09	30.43
388.28	100.64
388.48	58.51
388.67	77.24
388.86	37.45
389.06	23.41
389.25	11.70
389.45	35.11
389.64	28.09
389.84	7.02
390.03	9.36
390.22	0.00
390.42	0.00
390.61	0.00
390.81	32.77
391.00	16.38
391.19	46.81
391.39	49.15
391.58	0.00
391.78	2.34
391.97	37.45
392.16	4.68
392.36	100.64
392.55	0.00
392.75	0.00
392.94	81.92
393.13	0.00
393.33	51.49
393.52	44.47
393.71	70.22
393.91	4.68
394.10	0.00
394.29	70.22
394.49	51.49
394.68	9.36
394.88	14.04
395.07	21.06
395.26	0.00
395.46	0.00
395.65	88.94
395.84	0.00
396.04	53.83
396.23	4.68
396.42	0.00
396.62	0.00
396.81	16.38
397.00	25.75
397.19	14.04
397.39	42.13
397.58	72.56
397.77	35.11
397.97	16.38
398.16	0.00
398.35	35.11
398.55	37.45
398.74	42.13
398.93	39.79
399.12	0.00
399.32	60.85
399.51	0.00
399.70	30.43
399.90	67.88
400.09	16.38
400.28	49.15
400.47	100.64
400.67	28.09
400.86	21.06
401.05	0.00
401.24	37.45
401.44	74.90
401.63	88.94
401.82	39.79
402.01	23.41
402.21	0.00
402.40	0.00
402.59	30.43
402.78	65.54
402.97	114.69
403.17	28.09
403.36	65.54
403.55	91.28
403.74	0.00
403.93	16.38
404.13	23.41
404.32	25.75
404.51	0.00
404.70	0.00
404.89	42.13
405.09	35.11
405.28	0.00
405.47	16.38
405.66	21.06
405.85	39.79
406.05	44.47
406.24	30.43
406.43	72.56
406.62	86.60
406.81	28.09
407.00	0.00
407.20	56.17
407.39	44.47
407.58	18.72
407.77	2.34
407.96	32.77
408.15	0.00
408.34	53.83
408.54	30.43
408.73	0.00
408.92	0.00
409.11	4.68
409.30	67.88
409.49	51.49
409.68	2.34
409.87	21.06
410.07	35.11
410.26	46.81
410.45	42.13
410.64	23.41
410.83	0.00
411.02	72.56
411.21	51.49
411.40	44.47
411.59	91.28
411.78	28.09
411.98	0.00
412.17	53.83
412.36	39.79
412.55	53.83
412.74	2.34
412.93	0.00
413.12	37.45
413.31	16.38
413.50	25.75
413.69	25.75
413.88	14.04
414.07	86.60
414.26	35.11
414.45	2.34
414.64	42.13
414.83	9.36
415.02	53.83
415.22	0.00
415.41	7.02
415.60	32.77
415.79	25.75
415.98	0.00
416.17	2.34
416.36	79.58
416.55	0.00
416.74	49.15
416.93	39.79
417.12	0.00
417.31	0.00
417.50	81.92
417.69	7.02
417.88	9.36
418.07	0.00
418.26	0.00
418.45	32.77
418.64	105.32
418.83	0.00
419.02	18.72
419.21	53.83
419.39	25.75
419.58	28.09
419.77	74.90
419.96	23.41
420.15	39.79
420.34	28.09
420.53	53.83
420.72	67.88
420.91	9.36
421.10	25.75
421.29	0.00
421.48	0.00
421.67	58.51
421.86	0.00
422.05	42.13
422.24	74.90
422.43	7.02
422.61	56.17
422.80	60.85
422.99	58.51
423.18	0.00
423.37	79.58
423.56	11.70
423.75	0.00
423.94	0.00
424.13	0.00
424.32	0.00
424.50	0.00
424.69	21.06
424.88	35.11
425.07	37.45
425.26	0.00
425.45	58.51
425.64	88.94
425.83	0.00
426.01	44.47
426.20	107.66
426.39	18.72
426.58	39.79
426.77	37.45
426.96	2.34
427.15	0.00
427.33	0.00
427.52	51.49
427.71	0.00
427.90	0.00
428.09	9.36
428.28	18.72
428.46	25.75
428.65	46.81
428.84	16.38
429.03	0.00
429.22	25.75
429.40	49.15
429.59	110.01
429.78	4.68
429.97	30.43
430.16	84.26
430.34	0.00
430.53	0.00
430.72	53.83
430.91	9.36
431.10	49.15
431.28	81.92
431.47	175.54
431.66	70.22
431.85	46.81
432.03	0.00
432.22	98.30
432.41	14.04
432.60	0.00
432.79	77.24
432.97	16.38
433.16	79.58
433.35	107.66
433.54	0.00
433.72	0.00
433.91	0.00
434.10	51.49
434.28	21.06
434.47	0.00
434.66	0.00
434.85	51.49
435.03	30.43
435.22	63.19
435.41	112.35
435.59	9.36
435.78	65.54
435.97	49.15
436.16	121.71
436.34	79.58
436.53	0.00
436.72	79.58
436.90	88.94
437.09	7.02
437.28	51.49
437.46	0.00
437.65	14.04
437.84	14.04
438.02	51.49
438.21	0.00
438.40	0.00
438.58	0.00
438.77	30.43
438.96	42.13
439.14	11.70
439.33	70.22
439.52	21.06
439.70	35.11
439.89	39.79
440.08	0.00
440.26	35.11
440.45	2.34
440.63	18.72
440.82	51.49
441.01	4.68
441.19	0.00
441.38	4.68
441.57	46.81
441.75	98.30
441.94	63.19
442.12	0.00
442.31	23.41
442.50	58.51
442.68	0.00
442.87	0.00
443.05	0.00
443.24	7.02
443.43	32.77
443.61	0.00
443.80	79.58
443.98	70.22
444.17	14.04
444.35	0.00
444.54	72.56
444.73	0.00
444.91	25.75
445.10	0.00
445.28	77.24
445.47	30.43
445.65	30.43
445.84	7.02
446.02	46.81
446.21	7.02
446.39	37.45
446.58	88.94
446.77	4.68
446.95	28.09
447.14	11.70
447.32	37.45
447.51	39.79
447.69	0.00
447.88	79.58
448.06	49.15
448.25	67.88
448.43	11.70
448.62	16.38
448.80	0.00
448.99	0.00
449.17	88.94
449.36	0.00
449.54	0.00
449.73	28.09
449.91	53.83
450.10	44.47
450.28	23.41
450.46	39.79
450.65	39.79
450.83	35.11
451.02	37.45
451.20	0.00
451.39	79.58
451.57	44.47
451.76	79.58
451.94	44.47
452.13	21.06
452.31	0.00
452.49	11.70
452.68	0.00
452.86	4.68
453.05	23.41
453.23	46.81
453.42	14.04
453.60	0.00
453.78	0.00
453.97	0.00
454.15	67.88
454.34	79.58
454.52	32.77
454.70	0.00
454.89	51.49
455.07	74.90
455.26	46.81
455.44	56.17
455.62	0.00
455.81	32.77
455.99	65.54
456.17	49.15
456.36	21.06
456.54	58.51
456.73	11.70
456.91	32.77
457.09	42.13
457.28	0.00
457.46	0.00
457.64	14.04
457.83	46.81
458.01	0.00
458.19	18.72
458.38	0.00
458.56	67.88
458.74	14.04
458.93	105.32
459.11	95.96
459.29	32.77
459.48	0.00
459.66	46.81
459.84	0.00
460.03	0.00
460.21	7.02
460.39	11.70
460.57	32.77
460.76	23.41
460.94	4.68
461.12	9.36
461.31	79.58
461.49	0.00
461.67	0.00
461.85	0.00
462.04	4.68
462.22	117.03
462.40	56.17
462.59	0.00
462.77	32.77
462.95	84.26
463.13	74.90
463.32	49.15
463.50	114.69
463.68	18.72
463.86	25.75
464.05	30.43
464.23	65.54
464.41	60.85
464.59	30.43
464.78	86.60
464.96	7.02
465.14	0.00
465.32	0.00
465.50	58.51
465.69	51.49
465.87	32.77
466.05	58.51
466.23	53.83
466.41	18.72
466.60	0.00
466.78	67.88
466.96	37.45
467.14	44.47
467.32	46.81
467.51	42.13
467.69	0.00
467.87	58.51
468.05	0.00
468.23	0.00
468.41	37.45
468.60	23.41
468.78	0.00
468.96	42.13
469.14	100.64
469.32	35.11
469.50	11.70
469.69	93.62
469.87	0.00
470.05	2.34
470.23	0.00
470.41	16.38
470.59	72.56
470.77	60.85
470.95	0.00
471.14	46.81
471.32	0.00
471.50	11.70
471.68	91.28
471.86	11.70
472.04	7.02
472.22	0.00
472.40	49.15
472.58	0.00
472.77	28.09
472.95	65.54
473.13	23.41
473.31	25.75
473.49	0.00
473.67	0.00
473.85	98.30
474.03	28.09
474.21	32.77
474.39	72.56
474.57	86.60
474.75	11.70
474.93	16.38
475.12	84.26
475.30	74.90
475.48	49.15
475.66	14.04
475.84	0.00
476.02	63.19
476.20	0.00
476.38	7.02
476.56	84.26
476.74	0.00
476.92	72.56
477.10	0.00
477.28	39.79
477.46	21.06
477.64	28.09
477.82	107.66
478.00	51.49
478.18	93.62
478.36	0.00
478.54	14.04
478.72	91.28
478.90	23.41
479.08	0.00
479.26	39.79
479.44	0.00
479.62	9.36
479.80	67.88
479.98	30.43
480.16	9.36
480.34	35.11
480.52	7.02
480.70	2.34
480.88	0.00
481.06	53.83
481.24	81.92
481.41	0.00
481.59	93.62
481.77	42.13
481.95	21.06
482.13	25.75
482.31	46.81
482.49	30.43
482.67	14.04
482.85	44.47
483.03	16.38
483.21	49.15
483.39	46.81
483.57	42.13
483.74	79.58
483.92	72.56
484.10	11.70
484.28	32.77
484.46	93.62
484.64	0.00
484.82	0.00
485.00	25.75
485.18	60.85
485.35	28.09
485.53	0.00
485.71	124.05
485.89	42.13
486.07	18.72
486.25	0.00
486.43	11.70
486.61	16.38
486.78	11.70
486.96	9.36
487.14	7.02
487.32	0.00
487.50	124.05
487.68	42.13
487.85	0.00
488.03	18.72
488.21	58.51
488.39	63.19
488.57	49.15
488.75	39.79
488.92	72.56
489.10	0.00
489.28	81.92
489.46	0.00
489.64	39.79
489.81	16.38
489.99	35.11
490.17	60.85
490.35	0.00
490.53	7.02
490.70	14.04
490.88	0.00
491.06	14.04
491.24	37.45
491.41	35.11
491.59	0.00
491.77	30.43
491.95	63.19
492.13	65.54
492.30	11.70
492.48	53.83
492.66	65.54
492.84	32.77
493.01	84.26
493.19	60.85
493.37	81.92
493.54	0.00
493.72	119.37
493.90	44.47
494.08	58.51
494.25	79.58
494.43	60.85
494.61	0.00
494.79	0.00
494.96	49.15
495.14	72.56
495.32	14.04
495.49	53.83
495.67	42.13
495.85	37.45
496.02	102.98
496.20	0.00
496.38	0.00
496.55	72.56
496.73	0.00
496.91	88.94
497.09	35.11
497.26	142.77
497.44	56.17
497.62	46.81
497.79	44.47
497.97	7.02
498.14	25.75
498.32	51.49
498.50	18.72
498.67	14.04
498.85	37.45
499.03	11.70
499.20	51.49
499.38	49.15
499.56	7.02
499.73	32.77
499.91	11.70
500.08	65.54
500.26	42.13
500.44	0.00
500.61	88.94
500.79	102.98
500.97	2.34
501.14	28.09
501.32	37.45
501.49	0.00
501.67	58.51
501.84	49.15
502.02	0.00
502.20	23.41
502.37	117.03
502.55	32.77
502.72	0.00
502.90	67.88
503.07	16.38
503.25	74.90
503.43	119.37
503.60	93.62
503.78	95.96
503.95	42.13
504.13	119.37
504.30	81.92
504.48	60.85
504.65	18.72
504.83	56.17
505.01	65.54
505.18	30.43
505.36	100.64
505.53	16.38
505.71	0.00
505.88	72.56
506.06	53.83
506.23	28.09
506.41	46.81
506.58	0.00
506.76	0.00
506.93	72.56
507.11	77.24
507.28	46.81
507.46	0.00
507.63	58.51
507.81	77.24
507.98	0.00
508.16	79.58
508.33	0.00
508.50	67.88
508.68	42.13
508.85	25.75
509.03	0.00
509.20	72.56
509.38	18.72
509.55	72.56
509.73	63.19
509.90	32.77
510.08	2.34
510.25	49.15
510.42	79.58
510.60	98.30
510.77	88.94
510.95	65.54
511.12	53.83
511.30	58.51
511.47	65.54
511.64	25.75
511.82	4.68
511.99	37.45
512.17	2.34
512.34	84.26
512.51	135.75
512.69	95.96
512.86	0.00
513.04	35.11
513.21	21.06
513.38	9.36
513.56	42.13
513.73	0.00
513.90	28.09
514.08	0.00
514.25	2.34
514.43	42.13
514.60	49.15
514.77	46.81
514.95	44.47
515.12	16.38
515.29	98.30
515.47	67.88
515.64	56.17
515.81	0.00
515.99	58.51
516.16	63.19
516.33	51.49
516.51	0.00
516.68	58.51
516.85	112.35
517.03	0.00
517.20	0.00
517.37	25.75
517.54	88.94
517.72	7.02
517.89	37.45
518.06	0.00
518.24	32.77
518.41	77.24
518.58	4.68
518.75	23.41
518.93	37.45
519.10	11.70
519.27	0.00
519.45	58.51
519.62	74.90
519.79	0.00
519.96	37.45
520.14	51.49
520.31	93.62
520.48	4.68
520.65	86.60
520.83	105.32
521.00	0.00
521.17	0.00
521.34	81.92
521.52	0.00
521.69	60.85
521.86	63.19
522.03	23.41
522.20	65.54
522.38	53.83
522.55	0.00
522.72	0.00
522.89	39.79
523.07	65.54
523.24	39.79
523.41	30.43
523.58	0.00
523.75	0.00
523.92	11.70
524.10	67.88
524.27	98.30
524.44	63.19
524.61	25.75
524.78	53.83
524.96	51.49
525.13	0.00
525.30	16.38
525.47	11.70
525.64	0.00
525.81	32.77
525.98	9.36
526.16	114.69
526.33	0.00
526.50	56.17
526.67	0.00
526.84	16.38
527.01	65.54
527.18	74.90
527.36	51.49
527.53	35.11
527.70	72.56
527.87	23.41
528.04	105.32
528.21	63.19
528.38	88.94
528.55	0.00
528.72	23.41
528.89	7.02
529.07	23.41
529.24	60.85
529.41	0.00
529.58	0.00
529.75	28.09
529.92	44.47
530.09	0.00
530.26	56.17
530.43	72.56
530.60	46.81
530.77	159.16
530.94	74.90
531.11	70.22
531.28	9.36
531.46	65.54
531.63	0.00
531.80	0.00
531.97	70.22
532.14	4.68
532.31	58.51
532.48	21.06
532.65	53.83
532.82	9.36
532.99	95.96
533.16	56.17
533.33	0.00
533.50	21.06
533.67	60.85
533.84	102.98
534.01	58.51
534.18	145.11
534.35	46.81
534.52	0.00
534.69	35.11
534.86	70.22
535.03	112.35
535.20	100.64
535.37	53.83
535.54	16.38
535.71	0.00
535.88	21.06
536.05	4.68
536.22	11.70
536.38	98.30
536.55	2.34
536.72	0.00
536.89	70.22
537.06	119.37
537.23	77.24
537.40	39.79
537.57	39.79
537.74	11.70
537.91	14.04
538.08	53.83
538.25	81.92
538.42	32.77
538.59	21.06
538.75	28.09
538.92	30.43
539.09	60.85
539.26	0.00
539.43	77.24
539.60	124.05
539.77	215.33
539.94	262.14
540.11	252.78
540.28	72.56
540.44	100.64
540.61	23.41
540.78	9.36
540.95	53.83
541.12	23.41
541.29	2.34
541.46	44.47
541.62	56.17
541.79	18.72
541.96	88.94
542.13	42.13
542.30	0.00
542.47	117.03
542.63	53.83
542.80	67.88
542.97	58.51
543.14	37.45
543.31	39.79
543.48	77.24
543.64	0.00
543.81	81.92
543.98	67.88
544.15	18.72
544.32	25.75
544.48	60.85
544.65	28.09
544.82	53.83
544.99	9.36
545.16	0.00
545.32	79.58
545.49	58.51
545.66	30.43
545.83	95.96
546.00	70.22
546.16	67.88
546.33	93.62
546.50	0.00
546.67	72.56
546.83	11.70
547.00	9.36
547.17	39.79
547.34	0.00
547.50	74.90
547.67	0.00
547.84	58.51
548.00	18.72
548.17	98.30
548.34	14.04
548.51	21.06
548.67	0.00
548.84	0.00
549.01	77.24
549.18	7.02
549.34	42.13
549.51	79.58
549.68	58.51
549.84	0.00
550.01	0.00
550.18	0.00
550.34	72.56
550.51	49.15
550.68	0.00
550.84	44.47
551.01	0.00
551.18	16.38
551.34	0.00
551.51	0.00
551.68	60.85
551.84	56.17
552.01	51.49
552.18	51.49
552.34	30.43
552.51	46.81
552.68	4.68
552.84	56.17
553.01	14.04
553.18	28.09
553.34	81.92
553.51	93.62
553.67	37.45
553.84	14.04
554.01	0.00
554.17	0.00
554.34	21.06
554.51	0.00
554.67	53.83
554.84	4.68
555.00	46.81
555.17	79.58
555.33	93.62
555.50	107.66
555.67	37.45
555.83	0.00
556.00	14.04
556.16	28.09
556.33	0.00
556.50	39.79
556.66	74.90
556.83	72.56
556.99	0.00
557.16	65.54
557.32	72.56
557.49	9.36
557.65	110.01
557.82	107.66
557.98	67.88
558.15	42.13
558.32	11.70
558.48	37.45
558.65	18.72
558.81	25.75
558.98	28.09
559.14	88.94
559.31	37.45
559.47	70.22
559.64	2.34
559.80	35.11
559.97	25.75
560.13	35.11
560.30	25.75
560.46	37.45
560.63	0.00
560.79	102.98
560.96	21.06
561.12	9.36
561.29	95.96
561.45	7.02
561.61	0.00
561.78	70.22
561.94	98.30
562.11	9.36
562.27	46.81
562.44	0.00
562.60	32.77
562.77	0.00
562.93	0.00
563.10	51.49
563.26	63.19
563.42	56.17
563.59	95.96
563.75	49.15
563.92	0.00
564.08	21.06
564.24	9.36
564.41	53.83
564.57	0.00
564.74	53.83
564.90	30.43
565.07	49.15
565.23	35.11
565.39	18.72
565.56	0.00
565.72	0.00
565.88	39.79
566.05	67.88
566.21	25.75
566.38	37.45
566.54	49.15
566.70	60.85
566.87	65.54
567.03	67.88
567.19	46.81
567.36	2.34
567.52	21.06
567.68	112.35
567.85	51.49
568.01	0.00
568.17	28.09
568.34	37.45
568.50	53.83
568.66	32.77
568.83	0.00
568.99	0.00
569.15	35.11
569.32	74.90
569.48	30.43
569.64	21.06
569.81	46.81
569.97	79.58
570.13	16.38
570.30	16.38
570.46	60.85
570.62	42.13
570.78	0.00
570.95	53.83
571.11	102.98
571.27	39.79
571.43	95.96
571.60	49.15
571.76	56.17
571.92	0.00
572.09	4.68
572.25	72.56
572.41	30.43
572.57	67.88
572.74	14.04
572.90	18.72
573.06	63.19
573.22	23.41
573.38	126.39
573.55	74.90
573.71	51.49
573.87	25.75
574.03	74.90
574.20	0.00
574.36	0.00
574.52	140.43
574.68	35.11
574.84	32.77
575.01	35.11
575.17	23.41
575.33	32.77
575.49	67.88
575.65	0.00
575.82	0.00
575.98	110.01
576.14	131.07
576.30	84.26
576.46	28.09
576.62	77.24
576.79	37.45
576.95	42.13
577.11	51.49
577.27	72.56
577.43	67.88
577.59	93.62
577.75	53.83
577.92	65.54
578.08	98.30
578.24	0.00
578.40	9.36
578.56	105.32
578.72	42.13
578.88	0.00
579.04	58.51
579.21	60.85
579.37	58.51
579.53	60.85
579.69	14.04
579.85	60.85
580.01	4.68
580.17	88.94
580.33	14.04
580.49	72.56
580.65	44.47
580.82	84.26
580.98	81.92
581.14	16.38
581.30	84.26
581.46	95.96
581.62	70.22
581.78	25.75
581.94	102.98
582.10	42.13
582.26	42.13
582.42	93.62
582.58	95.96
582.74	74.90
582.90	114.69
583.06	156.82
583.22	110.01
583.38	32.77
583.54	79.58
583.70	110.01
583.86	126.39
584.02	117.03
584.18	168.52
584.34	173.20
584.50	519.60
584.66	3351.65
584.82	8629.56
584.98	12746.56
585.14	11468.62
585.30	6984.16
585.46	4168.49
585.62	2616.72
585.78	1226.44
585.94	451.72
586.10	257.46
586.26	121.71
586.42	159.16
586.58	70.22
586.74	0.00
586.90	49.15
587.06	21.06
587.22	88.94
587.38	98.30
587.54	191.92
587.70	566.41
587.86	821.53
588.02	978.34
588.18	739.61
588.34	423.64
588.49	290.23
588.65	222.35
588.81	154.48
588.97	0.00
589.13	65.54
589.29	63.19
589.45	0.00
589.61	28.09
589.77	84.26
589.93	14.04
590.08	81.92
590.24	28.09
590.40	95.96
590.56	114.69
590.72	72.56
590.88	0.00
591.04	30.43
591.20	65.54
591.35	23.41
591.51	110.01
591.67	65.54
591.83	88.94
591.99	32.77
592.15	81.92
592.31	32.77
592.46	42.13
592.62	9.36
592.78	11.70
592.94	7.02
593.10	51.49
593.26	0.00
593.41	114.69
593.57	18.72
593.73	135.75
593.89	451.72
594.05	1151.54
594.20	1558.80
594.36	1554.12
594.52	1048.56
594.68	620.24
594.84	449.38
594.99	191.92
595.15	95.96
595.31	37.45
595.47	11.70
595.62	58.51
595.78	74.90
595.94	93.62
596.10	49.15
596.25	4.68
596.41	70.22
596.57	42.13
596.73	35.11
596.88	30.43
597.04	259.80
597.20	341.72
597.36	367.46
597.51	273.84
597.67	198.95
597.83	112.35
597.99	18.72
598.14	39.79
598.30	39.79
598.46	126.39
598.61	77.24
598.77	0.00
598.93	11.70
599.09	0.00
599.24	49.15
599.40	35.11
599.56	14.04
599.71	110.01
599.87	11.70
600.03	100.64
600.18	0.00
600.34	65.54
600.50	23.41
600.65	9.36
600.81	70.22
600.97	58.51
601.12	65.54
601.28	23.41
601.44	70.22
601.59	11.70
601.75	37.45
601.91	135.75
602.06	32.77
602.22	91.28
602.37	102.98
602.53	280.86
602.69	425.98
602.84	435.34
603.00	346.40
603.16	264.48
603.31	194.26
603.47	114.69
603.62	30.43
603.78	74.90
603.94	44.47
604.09	37.45
604.25	91.28
604.40	63.19
604.56	14.04
604.71	9.36
604.87	0.00
605.03	46.81
605.18	63.19
605.34	72.56
605.49	51.49
605.65	46.81
605.80	0.00
605.96	128.73
606.12	37.45
606.27	56.17
606.43	91.28
606.58	25.75
606.74	170.86
606.89	610.88
607.05	1107.07
607.20	1479.22
607.36	1041.54
607.51	819.19
607.67	571.09
607.82	306.61
607.98	189.58
608.13	175.54
608.29	79.58
608.44	98.30
608.60	32.77
608.75	81.92
608.91	238.73
609.06	791.10
609.22	1652.42
609.37	2382.67
609.53	2106.48
609.68	1416.02
609.84	966.64
609.99	547.69
610.15	325.33
610.30	177.88
610.46	67.88
610.61	30.43
610.76	51.49
610.92	77.24
611.07	44.47
611.23	37.45
611.38	86.60
611.54	30.43
611.69	60.85
611.84	16.38
612.00	28.09
612.15	0.00
612.31	56.17
612.46	126.39
612.62	86.60
612.77	63.19
612.92	142.77
613.08	93.62
613.23	70.22
613.39	91.28
613.54	142.77
613.69	795.78
613.85	2141.59
614.00	3496.76
614.15	3824.44
614.31	2759.49
614.46	1785.83
614.62	1165.59
614.77	716.20
614.92	379.17
615.08	128.73
615.23	65.54
615.38	18.72
615.54	23.41
615.69	166.18
615.84	470.45
616.00	858.98
616.15	994.73
616.30	833.23
616.46	540.66
616.61	344.06
616.76	241.08
616.92	147.45
617.07	84.26
617.22	18.72
617.37	0.00
617.53	77.24
617.68	23.41
617.83	56.17
617.99	100.64
618.14	49.15
618.29	74.90
618.45	102.98
618.60	4.68
618.75	65.54
618.90	65.54
619.06	0.00
619.21	0.00
619.36	84.26
619.51	65.54
619.67	39.79
619.82	18.72
619.97	37.45
620.12	2.34
620.28	51.49
620.43	91.28
620.58	0.00
620.73	72.56
620.89	35.11
621.04	177.88
621.19	220.01
621.34	498.53
621.49	617.90
621.65	519.60
621.80	423.64
621.95	278.52
622.10	189.58
622.25	220.01
622.41	84.26
622.56	126.39
622.71	51.49
622.86	0.00
623.01	21.06
623.16	18.72
623.32	67.88
623.47	4.68
623.62	0.00
623.77	81.92
623.92	102.98
624.07	0.00
624.23	119.37
624.38	72.56
624.53	9.36
624.68	86.60
624.83	49.15
624.98	30.43
625.13	46.81
625.29	135.75
625.44	0.00
625.59	77.24
625.74	58.51
625.89	72.56
626.04	348.74
626.19	1039.20
626.34	1774.13
626.49	1900.52
626.65	1502.62
626.80	1043.88
626.95	648.33
627.10	381.51
627.25	191.92
627.40	65.54
627.55	84.26
627.70	81.92
627.85	2.34
628.00	0.00
628.15	0.00
628.30	0.00
628.45	53.83
628.60	39.79
628.76	0.00
628.91	56.17
629.06	81.92
629.21	21.06
629.36	65.54
629.51	30.43
629.66	32.77
629.81	58.51
629.96	238.73
630.11	404.91
630.26	486.83
630.41	421.30
630.56	285.55
630.71	315.97
630.86	170.86
631.01	133.41
631.16	67.88
631.31	131.07
631.46	67.88
631.61	44.47
631.76	0.00
631.91	63.19
632.06	79.58
632.21	105.32
632.36	35.11
632.51	58.51
632.66	119.37
632.81	156.82
632.96	594.50
633.10	1121.12
633.25	1350.49
633.40	1188.99
633.55	793.44
633.70	503.22
633.85	411.93
634.00	201.29
634.15	142.77
634.30	88.94
634.45	9.36
634.60	11.70
634.75	46.81
634.90	74.90
635.05	32.77
635.19	11.70
635.34	56.17
635.49	51.49
635.64	77.24
635.79	0.00
635.94	0.00
636.09	18.72
636.24	74.90
636.39	72.56
636.53	53.83
636.68	0.00
636.83	79.58
636.98	72.56
637.13	0.00
637.28	60.85
637.43	65.54
637.57	194.26
637.72	500.87
637.87	1390.28
638.02	2244.57
638.17	2541.82
638.32	1914.56
638.46	1224.10
638.61	898.77
638.76	589.82
638.91	269.16
639.06	133.41
639.20	163.84
639.35	112.35
639.50	149.79
639.65	753.65
639.80	2122.87
639.94	3403.14
640.09	4060.83
640.24	2932.69
640.39	2017.54
640.54	1320.06
640.68	807.48
640.83	400.23
640.98	212.99
641.13	194.26
641.27	110.01
641.42	91.28
641.57	53.83
641.72	58.51
641.86	0.00
642.01	46.81
642.16	65.54
642.31	102.98
642.45	81.92
642.60	11.70
642.75	0.00
642.90	21.06
643.04	37.45
643.19	81.92
643.34	58.51
643.48	65.54
643.63	112.35
643.78	86.60
643.93	114.69
644.07	46.81
644.22	0.00
644.37	44.47
644.51	81.92
644.66	84.26
644.81	58.51
644.95	95.96
645.10	0.00
645.25	18.72
645.39	9.36
645.54	35.11
645.69	46.81
645.83	23.41
645.98	77.24
646.13	30.43
646.27	37.45
646.42	44.47
646.57	14.04
646.71	114.69
646.86	32.77
647.00	46.81
647.15	28.09
647.30	0.00
647.44	86.60
647.59	67.88
647.74	46.81
647.88	74.90
648.03	37.45
648.17	32.77
648.32	51.49
648.47	128.73
648.61	81.92
648.76	44.47
648.90	35.11
649.05	67.88
649.20	63.19
649.34	60.85
649.49	51.49
649.63	152.13
649.78	77.24
649.92	42.13
650.07	346.40
650.21	887.06
650.36	1659.44
650.51	2146.27
650.65	1746.04
650.80	1165.59
650.94	793.44
651.09	465.77
651.23	283.20
651.38	149.79
651.52	117.03
651.67	74.90
651.81	0.00
651.96	0.00
652.10	49.15
652.25	21.06
652.39	16.38
652.54	107.66
652.68	95.96
652.83	290.23
652.97	643.65
653.12	734.93
653.26	662.37
653.41	421.30
653.55	325.33
653.70	159.16
653.84	128.73
653.99	0.00
654.13	95.96
654.27	81.92
654.42	21.06
654.56	35.11
654.71	18.72
654.85	0.00
655.00	0.00
655.14	0.00
655.29	0.00
655.43	0.00
655.57	2.34
655.72	21.06
655.86	16.38
656.01	7.02
656.15	49.15
656.30	9.36
656.44	0.00
656.58	0.00
656.73	72.56
656.87	0.00
657.01	37.45
657.16	107.66
657.30	42.13
657.45	67.88
657.59	28.09
657.73	93.62
657.88	0.00
658.02	77.24
658.16	0.00
658.31	23.41
658.45	9.36
658.60	37.45
658.74	88.94
658.88	14.04
659.03	18.72
659.17	25.75
659.31	133.41
659.46	390.87
659.60	812.17
659.74	938.55
659.89	863.66
660.03	648.33
660.17	484.49
660.32	264.48
660.46	70.22
660.60	117.03
660.74	138.09
660.89	42.13
661.03	107.66
661.17	0.00
661.32	105.32
661.46	14.04
661.60	32.77
661.74	0.00
661.89	4.68
662.03	70.22
662.17	16.38
662.31	56.17
662.46	51.49
662.60	74.90
662.74	49.15
662.88	65.54
663.03	56.17
663.17	51.49
663.31	42.13
663.45	23.41
663.60	25.75
663.74	67.88
663.88	0.00
664.02	23.41
664.17	7.02
664.31	23.41
664.45	35.11
664.59	0.00
664.73	30.43
664.88	2.34
665.02	88.94
665.16	23.41
665.30	102.98
665.44	39.79
665.59	4.68
665.73	14.04
665.87	32.77
666.01	51.49
666.15	93.62
666.29	49.15
666.44	25.75
666.58	28.09
666.72	0.00
666.86	84.26
667.00	0.00
667.14	79.58
667.28	245.76
667.43	805.14
667.57	1313.04
667.71	1746.04
667.85	1549.43
667.99	1125.80
668.13	657.69
668.27	355.76
668.41	264.48
668.56	184.90
668.70	128.73
668.84	112.35
668.98	70.22
669.12	63.19
669.26	42.13
669.40	0.00
669.54	53.83
669.68	2.34
669.82	72.56
669.96	58.51
670.10	39.79
670.25	0.00
670.39	23.41
670.53	0.00
670.67	51.49
670.81	0.00
670.95	23.41
671.09	7.02
671.23	308.95
671.37	571.09
671.51	1043.88
671.65	1193.67
671.79	922.17
671.93	589.82
672.07	376.83
672.21	243.42
672.35	121.71
672.49	56.17
672.63	102.98
672.77	72.56
672.91	0.00
673.05	16.38
673.19	11.70
673.33	58.51
673.47	84.26
673.61	39.79
673.75	63.19
673.89	7.02
674.03	95.96
674.17	63.19
674.31	32.77
674.45	0.00
674.59	60.85
674.73	86.60
674.87	51.49
675.01	65.54
675.15	23.41
675.29	0.00
675.43	102.98
675.56	58.51
675.70	79.58
675.84	0.00
675.98	60.85
676.12	44.47
676.26	28.09
676.40	9.36
676.54	46.81
676.68	35.11
676.82	11.70
676.96	53.83
677.10	21.06
677.23	44.47
677.37	0.00
677.51	79.58
677.65	28.09
677.79	0.00
677.93	25.75
678.07	32.77
678.21	35.11
678.34	81.92
678.48	105.32
678.62	7.02
678.76	49.15
678.90	100.64
679.04	0.00
679.18	49.15
679.31	30.43
679.45	86.60
679.59	74.90
679.73	21.06
679.87	18.72
680.00	39.79
680.14	93.62
680.28	0.00
680.42	44.47
680.56	72.56
680.70	0.00
680.83	37.45
680.97	0.00
681.11	42.13
681.25	42.13
681.39	74.90
681.52	23.41
681.66	9.36
681.80	0.00
681.94	42.13
682.07	14.04
682.21	67.88
682.35	0.00
682.49	28.09
682.62	67.88
682.76	0.00
682.90	0.00
683.04	18.72
683.17	60.85
683.31	112.35
683.45	39.79
683.59	35.11
683.72	105.32
683.86	79.58
684.00	117.03
684.13	49.15
684.27	35.11
684.41	0.00
684.55	49.15
684.68	44.47
684.82	0.00
684.96	65.54
685.09	88.94
685.23	7.02
685.37	0.00
685.50	49.15
685.64	0.00
685.78	18.72
685.91	37.45
686.05	30.43
686.19	44.47
686.32	16.38
686.46	39.79
686.60	42.13
686.73	9.36
686.87	4.68
687.01	70.22
687.14	46.81
687.28	0.00
687.42	32.77
687.55	14.04
687.69	60.85
687.82	72.56
687.96	35.11
688.10	105.32
688.23	0.00
688.37	35.11
688.50	86.60
688.64	0.00
688.78	0.00
688.91	28.09
689.05	0.00
689.18	16.38
689.32	0.00
689.46	23.41
689.59	28.09
689.73	2.34
689.86	67.88
690.00	35.11
690.13	49.15
690.27	0.00
690.41	110.01
690.54	11.70
690.68	4.68
690.81	46.81
690.95	46.81
691.08	0.00
691.22	39.79
691.35	79.58
691.49	114.69
691.62	32.77
691.76	49.15
691.89	56.17
692.03	35.11
692.16	16.38
692.30	91.28
692.43	102.98
692.57	379.17
692.70	531.30
692.84	816.85
692.97	791.10
693.11	540.66
693.24	433.00
693.38	245.76
693.51	74.90
693.65	126.39
693.78	42.13
693.92	121.71
694.05	32.77
694.19	49.15
694.32	16.38
694.45	0.00
694.59	67.88
694.72	74.90
694.86	67.88
694.99	102.98
695.13	53.83
695.26	56.17
695.39	14.04
695.53	60.85
695.66	0.00
695.80	14.04
695.93	77.24
696.07	46.81
696.20	65.54
696.33	140.43
696.47	63.19
696.60	49.15
696.73	53.83
696.87	37.45
697.00	37.45
697.14	58.51
697.27	81.92
697.40	42.13
697.54	63.19
697.67	58.51
697.80	0.00
697.94	93.62
698.07	72.56
698.21	46.81
698.34	4.68
698.47	0.00
698.61	18.72
698.74	58.51
698.87	98.30
699.01	65.54
699.14	25.75
699.27	0.00
699.40	0.00
699.54	124.05
699.67	51.49
699.80	42.13
699.94	4.68
700.07	9.36
700.20	4.68
700.34	74.90
700.47	35.11
700.60	23.41
700.73	42.13
700.87	4.68
701.00	4.68
701.13	51.49
701.26	140.43
701.40	35.11
701.53	9.36
701.66	0.00
701.79	39.79
701.93	9.36
702.06	67.88
702.19	53.83
702.32	72.56
702.46	58.51
702.59	91.28
702.72	166.18
702.85	468.11
702.99	915.15
703.12	1254.53
703.25	1483.90
703.38	1390.28
703.51	1022.81
703.65	774.72
703.78	566.41
703.91	304.27
704.04	250.44
704.17	191.92
704.31	81.92
704.44	44.47
704.57	84.26
704.70	25.75
704.83	58.51
704.96	100.64
705.10	39.79
705.23	58.51
>>>>>End Processed Spectral Data<<<<<
