SpectraSuite Data File
++++++++++++++++++++++++++++++++++++
Date: Fri Oct 04 12:13:40 GMT-05:00 2013
User: price-jones
Dark Spectrum Present: No
Reference Spectrum Present: No
Number of Sampled Component Spectra: 1
Spectrometers: USB2+H05261
Integration Time (usec): 10000 (USB2+H05261)
Spectra Averaged: 1 (USB2+H05261)
Boxcar Smoothing: 0 (USB2+H05261)
Correct for Electrical Dark: No (USB2+H05261)
Strobe/Lamp Enabled: No (USB2+H05261)
Correct for Detector Non-linearity: No (USB2+H05261)
Correct for Stray Light: No (USB2+H05261)
Number of Pixels in Processed Spectrum: 2048
>>>>>Begin Processed Spectral Data<<<<<
365.73	0.00
365.92	0.00
366.12	0.00
366.32	0.00
366.52	0.00
366.72	0.00
366.91	0.00
367.11	0.00
367.31	0.00
367.51	0.00
367.70	0.00
367.90	0.00
368.10	0.00
368.30	0.00
368.49	0.00
368.69	0.00
368.89	0.00
369.09	0.00
369.28	0.00
369.48	0.00
369.68	0.00
369.87	0.00
370.07	0.00
370.27	0.00
370.47	0.00
370.66	0.00
370.86	0.00
371.06	0.00
371.25	0.00
371.45	2.34
371.65	0.00
371.84	0.00
372.04	0.00
372.24	23.41
372.44	70.22
372.63	4.68
372.83	0.00
373.03	39.79
373.22	11.70
373.42	0.00
373.62	44.47
373.81	2.34
374.01	51.49
374.21	30.43
374.40	112.35
374.60	9.36
374.79	84.26
374.99	25.75
375.19	0.00
375.38	49.15
375.58	53.83
375.78	53.83
375.97	0.00
376.17	65.54
376.37	25.75
376.56	0.00
376.76	42.13
376.95	11.70
377.15	37.45
377.35	21.06
377.54	18.72
377.74	30.43
377.93	0.00
378.13	93.62
378.33	49.15
378.52	44.47
378.72	28.09
378.91	0.00
379.11	30.43
379.31	2.34
379.50	14.04
379.70	16.38
379.89	0.00
380.09	0.00
380.28	88.94
380.48	18.72
380.68	11.70
380.87	11.70
381.07	0.00
381.26	32.77
381.46	0.00
381.65	14.04
381.85	0.00
382.04	14.04
382.24	0.00
382.43	4.68
382.63	53.83
382.83	0.00
383.02	74.90
383.22	0.00
383.41	86.60
383.61	0.00
383.80	21.06
384.00	35.11
384.19	0.00
384.39	77.24
384.58	32.77
384.78	21.06
384.97	0.00
385.17	9.36
385.36	42.13
385.56	7.02
385.75	18.72
385.95	4.68
386.14	18.72
386.34	0.00
386.53	32.77
386.72	58.51
386.92	46.81
387.11	65.54
387.31	100.64
387.50	86.60
387.70	0.00
387.89	14.04
388.09	14.04
388.28	56.17
388.48	84.26
388.67	18.72
388.86	16.38
389.06	37.45
389.25	0.00
389.45	0.00
389.64	7.02
389.84	32.77
390.03	32.77
390.22	72.56
390.42	11.70
390.61	4.68
390.81	46.81
391.00	16.38
391.19	65.54
391.39	46.81
391.58	44.47
391.78	4.68
391.97	21.06
392.16	0.00
392.36	49.15
392.55	0.00
392.75	30.43
392.94	0.00
393.13	51.49
393.33	9.36
393.52	16.38
393.71	67.88
393.91	70.22
394.10	72.56
394.29	11.70
394.49	100.64
394.68	63.19
394.88	39.79
395.07	0.00
395.26	0.00
395.46	60.85
395.65	9.36
395.84	37.45
396.04	81.92
396.23	0.00
396.42	51.49
396.62	0.00
396.81	0.00
397.00	0.00
397.19	0.00
397.39	16.38
397.58	9.36
397.77	0.00
397.97	42.13
398.16	42.13
398.35	51.49
398.55	18.72
398.74	37.45
398.93	23.41
399.12	0.00
399.32	46.81
399.51	88.94
399.70	21.06
399.90	0.00
400.09	28.09
400.28	67.88
400.47	46.81
400.67	56.17
400.86	0.00
401.05	0.00
401.24	74.90
401.44	53.83
401.63	42.13
401.82	42.13
402.01	102.98
402.21	39.79
402.40	60.85
402.59	9.36
402.78	0.00
402.97	0.00
403.17	0.00
403.36	0.00
403.55	0.00
403.74	0.00
403.93	95.96
404.13	25.75
404.32	0.00
404.51	30.43
404.70	42.13
404.89	112.35
405.09	30.43
405.28	2.34
405.47	42.13
405.66	28.09
405.85	0.00
406.05	18.72
406.24	25.75
406.43	53.83
406.62	25.75
406.81	21.06
407.00	37.45
407.20	16.38
407.39	28.09
407.58	0.00
407.77	0.00
407.96	2.34
408.15	14.04
408.34	23.41
408.54	11.70
408.73	7.02
408.92	60.85
409.11	14.04
409.30	0.00
409.49	56.17
409.68	0.00
409.87	42.13
410.07	0.00
410.26	39.79
410.45	72.56
410.64	49.15
410.83	49.15
411.02	0.00
411.21	42.13
411.40	16.38
411.59	74.90
411.78	79.58
411.98	84.26
412.17	0.00
412.36	126.39
412.55	74.90
412.74	58.51
412.93	56.17
413.12	7.02
413.31	32.77
413.50	32.77
413.69	23.41
413.88	84.26
414.07	81.92
414.26	72.56
414.45	18.72
414.64	23.41
414.83	42.13
415.02	95.96
415.22	0.00
415.41	39.79
415.60	58.51
415.79	58.51
415.98	18.72
416.17	67.88
416.36	14.04
416.55	51.49
416.74	63.19
416.93	112.35
417.12	14.04
417.31	49.15
417.50	56.17
417.69	56.17
417.88	67.88
418.07	9.36
418.26	46.81
418.45	46.81
418.64	67.88
418.83	9.36
419.02	56.17
419.21	53.83
419.39	23.41
419.58	51.49
419.77	81.92
419.96	70.22
420.15	23.41
420.34	23.41
420.53	53.83
420.72	0.00
420.91	56.17
421.10	16.38
421.29	60.85
421.48	72.56
421.67	77.24
421.86	53.83
422.05	42.13
422.24	65.54
422.43	30.43
422.61	39.79
422.80	60.85
422.99	60.85
423.18	11.70
423.37	88.94
423.56	37.45
423.75	81.92
423.94	63.19
424.13	25.75
424.32	7.02
424.50	63.19
424.69	86.60
424.88	25.75
425.07	4.68
425.26	28.09
425.45	91.28
425.64	30.43
425.83	49.15
426.01	86.60
426.20	88.94
426.39	102.98
426.58	42.13
426.77	0.00
426.96	0.00
427.15	4.68
427.33	9.36
427.52	0.00
427.71	46.81
427.90	42.13
428.09	51.49
428.28	28.09
428.46	7.02
428.65	44.47
428.84	0.00
429.03	25.75
429.22	9.36
429.40	60.85
429.59	86.60
429.78	86.60
429.97	0.00
430.16	25.75
430.34	30.43
430.53	100.64
430.72	74.90
430.91	88.94
431.10	63.19
431.28	37.45
431.47	77.24
431.66	102.98
431.85	0.00
432.03	86.60
432.22	42.13
432.41	37.45
432.60	23.41
432.79	107.66
432.97	23.41
433.16	37.45
433.35	14.04
433.54	56.17
433.72	23.41
433.91	0.00
434.10	18.72
434.28	53.83
434.47	44.47
434.66	60.85
434.85	44.47
435.03	65.54
435.22	49.15
435.41	67.88
435.59	0.00
435.78	44.47
435.97	53.83
436.16	44.47
436.34	72.56
436.53	44.47
436.72	30.43
436.90	70.22
437.09	21.06
437.28	70.22
437.46	74.90
437.65	65.54
437.84	91.28
438.02	63.19
438.21	11.70
438.40	67.88
438.58	114.69
438.77	39.79
438.96	42.13
439.14	32.77
439.33	77.24
439.52	0.00
439.70	58.51
439.89	53.83
440.08	84.26
440.26	51.49
440.45	51.49
440.63	93.62
440.82	84.26
441.01	18.72
441.19	30.43
441.38	49.15
441.57	93.62
441.75	138.09
441.94	63.19
442.12	42.13
442.31	39.79
442.50	32.77
442.68	51.49
442.87	70.22
443.05	93.62
443.24	42.13
443.43	91.28
443.61	7.02
443.80	14.04
443.98	14.04
444.17	51.49
444.35	32.77
444.54	60.85
444.73	110.01
444.91	49.15
445.10	49.15
445.28	21.06
445.47	53.83
445.65	84.26
445.84	14.04
446.02	86.60
446.21	67.88
446.39	81.92
446.58	79.58
446.77	0.00
446.95	4.68
447.14	88.94
447.32	88.94
447.51	35.11
447.69	32.77
447.88	56.17
448.06	110.01
448.25	81.92
448.43	102.98
448.62	11.70
448.80	28.09
448.99	25.75
449.17	7.02
449.36	0.00
449.54	60.85
449.73	60.85
449.91	121.71
450.10	0.00
450.28	63.19
450.46	21.06
450.65	100.64
450.83	70.22
451.02	0.00
451.20	23.41
451.39	39.79
451.57	42.13
451.76	28.09
451.94	16.38
452.13	70.22
452.31	58.51
452.49	49.15
452.68	25.75
452.86	18.72
453.05	32.77
453.23	25.75
453.42	110.01
453.60	37.45
453.78	53.83
453.97	84.26
454.15	65.54
454.34	39.79
454.52	91.28
454.70	30.43
454.89	14.04
455.07	81.92
455.26	23.41
455.44	100.64
455.62	4.68
455.81	0.00
455.99	4.68
456.17	14.04
456.36	49.15
456.54	77.24
456.73	35.11
456.91	4.68
457.09	42.13
457.28	81.92
457.46	79.58
457.64	60.85
457.83	44.47
458.01	110.01
458.19	23.41
458.38	102.98
458.56	58.51
458.74	44.47
458.93	49.15
459.11	100.64
459.29	86.60
459.48	91.28
459.66	74.90
459.84	88.94
460.03	67.88
460.21	32.77
460.39	30.43
460.57	84.26
460.76	63.19
460.94	23.41
461.12	72.56
461.31	95.96
461.49	25.75
461.67	51.49
461.85	53.83
462.04	58.51
462.22	88.94
462.40	107.66
462.59	35.11
462.77	67.88
462.95	4.68
463.13	114.69
463.32	51.49
463.50	49.15
463.68	88.94
463.86	105.32
464.05	110.01
464.23	28.09
464.41	58.51
464.59	30.43
464.78	53.83
464.96	63.19
465.14	37.45
465.32	77.24
465.50	56.17
465.69	70.22
465.87	53.83
466.05	110.01
466.23	142.77
466.41	88.94
466.60	35.11
466.78	0.00
466.96	67.88
467.14	0.00
467.32	163.84
467.51	63.19
467.69	91.28
467.87	63.19
468.05	107.66
468.23	74.90
468.41	79.58
468.60	65.54
468.78	51.49
468.96	77.24
469.14	9.36
469.32	60.85
469.50	23.41
469.69	70.22
469.87	79.58
470.05	84.26
470.23	107.66
470.41	25.75
470.59	39.79
470.77	46.81
470.95	4.68
471.14	18.72
471.32	49.15
471.50	159.16
471.68	37.45
471.86	119.37
472.04	65.54
472.22	114.69
472.40	60.85
472.58	53.83
472.77	51.49
472.95	72.56
473.13	28.09
473.31	88.94
473.49	93.62
473.67	0.00
473.85	100.64
474.03	0.00
474.21	60.85
474.39	93.62
474.57	65.54
474.75	60.85
474.93	42.13
475.12	39.79
475.30	39.79
475.48	105.32
475.66	77.24
475.84	74.90
476.02	63.19
476.20	56.17
476.38	58.51
476.56	37.45
476.74	63.19
476.92	105.32
477.10	42.13
477.28	51.49
477.46	93.62
477.64	44.47
477.82	110.01
478.00	84.26
478.18	119.37
478.36	51.49
478.54	58.51
478.72	72.56
478.90	35.11
479.08	84.26
479.26	23.41
479.44	0.00
479.62	77.24
479.80	60.85
479.98	49.15
480.16	107.66
480.34	86.60
480.52	63.19
480.70	74.90
480.88	51.49
481.06	39.79
481.24	42.13
481.41	117.03
481.59	28.09
481.77	77.24
481.95	65.54
482.13	70.22
482.31	98.30
482.49	25.75
482.67	100.64
482.85	23.41
483.03	105.32
483.21	23.41
483.39	70.22
483.57	42.13
483.74	74.90
483.92	119.37
484.10	93.62
484.28	121.71
484.46	65.54
484.64	39.79
484.82	58.51
485.00	159.16
485.18	100.64
485.35	0.00
485.53	44.47
485.71	72.56
485.89	42.13
486.07	88.94
486.25	93.62
486.43	16.38
486.61	53.83
486.78	49.15
486.96	86.60
487.14	91.28
487.32	124.05
487.50	28.09
487.68	72.56
487.85	81.92
488.03	16.38
488.21	60.85
488.39	79.58
488.57	37.45
488.75	14.04
488.92	124.05
489.10	93.62
489.28	49.15
489.46	102.98
489.64	107.66
489.81	72.56
489.99	110.01
490.17	39.79
490.35	30.43
490.53	135.75
490.70	95.96
490.88	93.62
491.06	37.45
491.24	56.17
491.41	110.01
491.59	42.13
491.77	98.30
491.95	119.37
492.13	156.82
492.30	72.56
492.48	44.47
492.66	145.11
492.84	91.28
493.01	81.92
493.19	121.71
493.37	88.94
493.54	58.51
493.72	119.37
493.90	72.56
494.08	39.79
494.25	88.94
494.43	14.04
494.61	14.04
494.79	131.07
494.96	119.37
495.14	110.01
495.32	86.60
495.49	25.75
495.67	91.28
495.85	63.19
496.02	58.51
496.20	168.52
496.38	72.56
496.55	121.71
496.73	79.58
496.91	74.90
497.09	119.37
497.26	88.94
497.44	56.17
497.62	77.24
497.79	145.11
497.97	51.49
498.14	133.41
498.32	28.09
498.50	28.09
498.67	135.75
498.85	72.56
499.03	95.96
499.20	98.30
499.38	16.38
499.56	105.32
499.73	72.56
499.91	28.09
500.08	114.69
500.26	65.54
500.44	93.62
500.61	105.32
500.79	117.03
500.97	79.58
501.14	107.66
501.32	117.03
501.49	72.56
501.67	0.00
501.84	81.92
502.02	86.60
502.20	95.96
502.37	37.45
502.55	86.60
502.72	72.56
502.90	42.13
503.07	58.51
503.25	86.60
503.43	84.26
503.60	91.28
503.78	114.69
503.95	88.94
504.13	84.26
504.30	37.45
504.48	173.20
504.65	88.94
504.83	100.64
505.01	135.75
505.18	42.13
505.36	126.39
505.53	86.60
505.71	74.90
505.88	46.81
506.06	100.64
506.23	105.32
506.41	49.15
506.58	56.17
506.76	70.22
506.93	161.50
507.11	84.26
507.28	114.69
507.46	72.56
507.63	140.43
507.81	35.11
507.98	88.94
508.16	102.98
508.33	126.39
508.50	128.73
508.68	93.62
508.85	77.24
509.03	51.49
509.20	114.69
509.38	112.35
509.55	49.15
509.73	121.71
509.90	105.32
510.08	121.71
510.25	100.64
510.42	114.69
510.60	107.66
510.77	70.22
510.95	93.62
511.12	53.83
511.30	42.13
511.47	49.15
511.64	51.49
511.82	86.60
511.99	63.19
512.17	79.58
512.34	79.58
512.51	46.81
512.69	65.54
512.86	58.51
513.04	84.26
513.21	0.00
513.38	30.43
513.56	140.43
513.73	88.94
513.90	128.73
514.08	117.03
514.25	91.28
514.43	49.15
514.60	49.15
514.77	35.11
514.95	107.66
515.12	95.96
515.29	77.24
515.47	107.66
515.64	95.96
515.81	70.22
515.99	46.81
516.16	95.96
516.33	95.96
516.51	81.92
516.68	77.24
516.85	14.04
517.03	49.15
517.20	0.00
517.37	72.56
517.54	105.32
517.72	67.88
517.89	140.43
518.06	0.00
518.24	77.24
518.41	30.43
518.58	70.22
518.75	91.28
518.93	105.32
519.10	56.17
519.27	81.92
519.45	138.09
519.62	63.19
519.79	84.26
519.96	23.41
520.14	117.03
520.31	37.45
520.48	46.81
520.65	177.88
520.83	77.24
521.00	159.16
521.17	98.30
521.34	51.49
521.52	16.38
521.69	145.11
521.86	100.64
522.03	112.35
522.20	49.15
522.38	133.41
522.55	105.32
522.72	46.81
522.89	25.75
523.07	74.90
523.24	128.73
523.41	51.49
523.58	154.48
523.75	39.79
523.92	4.68
524.10	56.17
524.27	124.05
524.44	124.05
524.61	63.19
524.78	46.81
524.96	65.54
525.13	91.28
525.30	74.90
525.47	56.17
525.64	32.77
525.81	30.43
525.98	110.01
526.16	58.51
526.33	79.58
526.50	117.03
526.67	84.26
526.84	110.01
527.01	65.54
527.18	114.69
527.36	84.26
527.53	11.70
527.70	67.88
527.87	117.03
528.04	117.03
528.21	30.43
528.38	79.58
528.55	86.60
528.72	100.64
528.89	152.13
529.07	56.17
529.24	4.68
529.41	77.24
529.58	98.30
529.75	56.17
529.92	79.58
530.09	121.71
530.26	79.58
530.43	114.69
530.60	105.32
530.77	114.69
530.94	30.43
531.11	95.96
531.28	53.83
531.46	74.90
531.63	142.77
531.80	117.03
531.97	72.56
532.14	81.92
532.31	124.05
532.48	74.90
532.65	58.51
532.82	100.64
532.99	91.28
533.16	67.88
533.33	100.64
533.50	102.98
533.67	110.01
533.84	42.13
534.01	63.19
534.18	60.85
534.35	93.62
534.52	86.60
534.69	126.39
534.86	44.47
535.03	86.60
535.20	112.35
535.37	93.62
535.54	128.73
535.71	112.35
535.88	100.64
536.05	81.92
536.22	107.66
536.38	72.56
536.55	102.98
536.72	156.82
536.89	105.32
537.06	98.30
537.23	32.77
537.40	67.88
537.57	42.13
537.74	100.64
537.91	91.28
538.08	37.45
538.25	30.43
538.42	114.69
538.59	79.58
538.75	135.75
538.92	0.00
539.09	100.64
539.26	77.24
539.43	65.54
539.60	131.07
539.77	32.77
539.94	107.66
540.11	140.43
540.28	67.88
540.44	63.19
540.61	63.19
540.78	126.39
540.95	110.01
541.12	95.96
541.29	70.22
541.46	81.92
541.62	65.54
541.79	84.26
541.96	135.75
542.13	72.56
542.30	128.73
542.47	77.24
542.63	44.47
542.80	93.62
542.97	93.62
543.14	84.26
543.31	46.81
543.48	77.24
543.64	23.41
543.81	110.01
543.98	79.58
544.15	88.94
544.32	72.56
544.48	93.62
544.65	184.90
544.82	84.26
544.99	53.83
545.16	77.24
545.32	110.01
545.49	28.09
545.66	107.66
545.83	98.30
546.00	95.96
546.16	72.56
546.33	77.24
546.50	65.54
546.67	110.01
546.83	110.01
547.00	79.58
547.17	53.83
547.34	42.13
547.50	81.92
547.67	60.85
547.84	142.77
548.00	124.05
548.17	135.75
548.34	128.73
548.51	11.70
548.67	100.64
548.84	91.28
549.01	44.47
549.18	98.30
549.34	65.54
549.51	142.77
549.68	154.48
549.84	70.22
550.01	84.26
550.18	135.75
550.34	142.77
550.51	81.92
550.68	74.90
550.84	81.92
551.01	51.49
551.18	56.17
551.34	70.22
551.51	112.35
551.68	91.28
551.84	105.32
552.01	98.30
552.18	0.00
552.34	37.45
552.51	117.03
552.68	86.60
552.84	88.94
553.01	98.30
553.18	173.20
553.34	98.30
553.51	72.56
553.67	128.73
553.84	86.60
554.01	18.72
554.17	93.62
554.34	44.47
554.51	110.01
554.67	2.34
554.84	58.51
555.00	98.30
555.17	166.18
555.33	131.07
555.50	128.73
555.67	119.37
555.83	56.17
556.00	124.05
556.16	88.94
556.33	81.92
556.50	23.41
556.66	93.62
556.83	107.66
556.99	74.90
557.16	74.90
557.32	91.28
557.49	112.35
557.65	77.24
557.82	42.13
557.98	42.13
558.15	53.83
558.32	110.01
558.48	58.51
558.65	77.24
558.81	91.28
558.98	70.22
559.14	39.79
559.31	142.77
559.47	93.62
559.64	0.00
559.80	14.04
559.97	81.92
560.13	72.56
560.30	112.35
560.46	67.88
560.63	84.26
560.79	105.32
560.96	67.88
561.12	95.96
561.29	84.26
561.45	58.51
561.61	65.54
561.78	79.58
561.94	98.30
562.11	161.50
562.27	51.49
562.44	128.73
562.60	79.58
562.77	63.19
562.93	98.30
563.10	70.22
563.26	60.85
563.42	35.11
563.59	121.71
563.75	105.32
563.92	138.09
564.08	79.58
564.24	28.09
564.41	93.62
564.57	93.62
564.74	58.51
564.90	58.51
565.07	56.17
565.23	56.17
565.39	79.58
565.56	53.83
565.72	105.32
565.88	135.75
566.05	98.30
566.21	42.13
566.38	16.38
566.54	44.47
566.70	140.43
566.87	100.64
567.03	86.60
567.19	79.58
567.36	128.73
567.52	128.73
567.68	105.32
567.85	67.88
568.01	112.35
568.17	67.88
568.34	63.19
568.50	37.45
568.66	121.71
568.83	102.98
568.99	67.88
569.15	25.75
569.32	86.60
569.48	100.64
569.64	63.19
569.81	28.09
569.97	84.26
570.13	102.98
570.30	112.35
570.46	25.75
570.62	79.58
570.78	2.34
570.95	63.19
571.11	56.17
571.27	107.66
571.43	81.92
571.60	147.45
571.76	93.62
571.92	100.64
572.09	35.11
572.25	58.51
572.41	88.94
572.57	88.94
572.74	124.05
572.90	93.62
573.06	95.96
573.22	39.79
573.38	46.81
573.55	72.56
573.71	81.92
573.87	74.90
574.03	16.38
574.20	102.98
574.36	60.85
574.52	74.90
574.68	32.77
574.84	72.56
575.01	35.11
575.17	42.13
575.33	124.05
575.49	107.66
575.65	121.71
575.82	60.85
575.98	91.28
576.14	86.60
576.30	21.06
576.46	74.90
576.62	77.24
576.79	93.62
576.95	121.71
577.11	56.17
577.27	11.70
577.43	93.62
577.59	79.58
577.75	42.13
577.92	79.58
578.08	25.75
578.24	86.60
578.40	154.48
578.56	93.62
578.72	4.68
578.88	58.51
579.04	49.15
579.21	72.56
579.37	0.00
579.53	166.18
579.69	124.05
579.85	72.56
580.01	56.17
580.17	93.62
580.33	119.37
580.49	51.49
580.65	65.54
580.82	0.00
580.98	65.54
581.14	95.96
581.30	35.11
581.46	95.96
581.62	56.17
581.78	121.71
581.94	117.03
582.10	117.03
582.26	67.88
582.42	100.64
582.58	81.92
582.74	46.81
582.90	81.92
583.06	135.75
583.22	37.45
583.38	39.79
583.54	74.90
583.70	39.79
583.86	98.30
584.02	21.06
584.18	46.81
584.34	51.49
584.50	67.88
584.66	84.26
584.82	23.41
584.98	72.56
585.14	72.56
585.30	0.00
585.46	114.69
585.62	149.79
585.78	67.88
585.94	39.79
586.10	70.22
586.26	77.24
586.42	91.28
586.58	102.98
586.74	37.45
586.90	79.58
587.06	114.69
587.22	44.47
587.38	93.62
587.54	91.28
587.70	44.47
587.86	51.49
588.02	23.41
588.18	91.28
588.34	16.38
588.49	91.28
588.65	65.54
588.81	124.05
588.97	117.03
589.13	121.71
589.29	65.54
589.45	67.88
589.61	53.83
589.77	56.17
589.93	42.13
590.08	0.00
590.24	42.13
590.40	35.11
590.56	44.47
590.72	37.45
590.88	0.00
591.04	39.79
591.20	72.56
591.35	84.26
591.51	67.88
591.67	51.49
591.83	102.98
591.99	51.49
592.15	74.90
592.31	46.81
592.46	91.28
592.62	51.49
592.78	117.03
592.94	28.09
593.10	60.85
593.26	0.00
593.41	32.77
593.57	58.51
593.73	63.19
593.89	98.30
594.05	79.58
594.20	53.83
594.36	105.32
594.52	128.73
594.68	88.94
594.84	60.85
594.99	81.92
595.15	77.24
595.31	131.07
595.47	65.54
595.62	93.62
595.78	105.32
595.94	77.24
596.10	63.19
596.25	70.22
596.41	81.92
596.57	67.88
596.73	86.60
596.88	65.54
597.04	91.28
597.20	105.32
597.36	91.28
597.51	28.09
597.67	46.81
597.83	128.73
597.99	58.51
598.14	51.49
598.30	53.83
598.46	79.58
598.61	32.77
598.77	60.85
598.93	56.17
599.09	51.49
599.24	95.96
599.40	102.98
599.56	65.54
599.71	107.66
599.87	60.85
600.03	51.49
600.18	112.35
600.34	77.24
600.50	63.19
600.65	51.49
600.81	102.98
600.97	60.85
601.12	107.66
601.28	51.49
601.44	32.77
601.59	14.04
601.75	105.32
601.91	81.92
602.06	128.73
602.22	23.41
602.37	0.00
602.53	56.17
602.69	35.11
602.84	44.47
603.00	25.75
603.16	128.73
603.31	95.96
603.47	149.79
603.62	74.90
603.78	117.03
603.94	124.05
604.09	86.60
604.25	86.60
604.40	16.38
604.56	159.16
604.71	16.38
604.87	124.05
605.03	93.62
605.18	84.26
605.34	119.37
605.49	60.85
605.65	72.56
605.80	28.09
605.96	53.83
606.12	98.30
606.27	37.45
606.43	77.24
606.58	49.15
606.74	14.04
606.89	135.75
607.05	44.47
607.20	35.11
607.36	114.69
607.51	98.30
607.67	30.43
607.82	84.26
607.98	60.85
608.13	51.49
608.29	84.26
608.44	18.72
608.60	35.11
608.75	60.85
608.91	84.26
609.06	7.02
609.22	107.66
609.37	93.62
609.53	32.77
609.68	102.98
609.84	58.51
609.99	100.64
610.15	84.26
610.30	25.75
610.46	72.56
610.61	67.88
610.76	49.15
610.92	37.45
611.07	49.15
611.23	74.90
611.38	0.00
611.54	119.37
611.69	140.43
611.84	114.69
612.00	63.19
612.15	42.13
612.31	65.54
612.46	65.54
612.62	74.90
612.77	35.11
612.92	81.92
613.08	102.98
613.23	14.04
613.39	107.66
613.54	110.01
613.69	72.56
613.85	32.77
614.00	51.49
614.15	46.81
614.31	131.07
614.46	81.92
614.62	56.17
614.77	9.36
614.92	105.32
615.08	100.64
615.23	86.60
615.38	86.60
615.54	51.49
615.69	74.90
615.84	58.51
616.00	67.88
616.15	74.90
616.30	39.79
616.46	65.54
616.61	42.13
616.76	72.56
616.92	25.75
617.07	28.09
617.22	58.51
617.37	37.45
617.53	107.66
617.68	21.06
617.83	65.54
617.99	88.94
618.14	74.90
618.29	32.77
618.45	81.92
618.60	126.39
618.75	100.64
618.90	93.62
619.06	72.56
619.21	95.96
619.36	84.26
619.51	21.06
619.67	42.13
619.82	74.90
619.97	28.09
620.12	72.56
620.28	49.15
620.43	117.03
620.58	37.45
620.73	65.54
620.89	35.11
621.04	42.13
621.19	63.19
621.34	81.92
621.49	30.43
621.65	63.19
621.80	63.19
621.95	49.15
622.10	49.15
622.25	79.58
622.41	79.58
622.56	86.60
622.71	95.96
622.86	95.96
623.01	53.83
623.16	117.03
623.32	107.66
623.47	0.00
623.62	98.30
623.77	11.70
623.92	18.72
624.07	95.96
624.23	42.13
624.38	30.43
624.53	79.58
624.68	173.20
624.83	56.17
624.98	70.22
625.13	72.56
625.29	9.36
625.44	91.28
625.59	70.22
625.74	67.88
625.89	93.62
626.04	65.54
626.19	81.92
626.34	70.22
626.49	91.28
626.65	51.49
626.80	91.28
626.95	42.13
627.10	84.26
627.25	72.56
627.40	91.28
627.55	128.73
627.70	37.45
627.85	114.69
628.00	100.64
628.15	37.45
628.30	35.11
628.45	44.47
628.60	105.32
628.76	23.41
628.91	39.79
629.06	58.51
629.21	100.64
629.36	35.11
629.51	65.54
629.66	51.49
629.81	0.00
629.96	72.56
630.11	56.17
630.26	0.00
630.41	60.85
630.56	88.94
630.71	37.45
630.86	46.81
631.01	77.24
631.16	44.47
631.31	42.13
631.46	0.00
631.61	107.66
631.76	0.00
631.91	23.41
632.06	37.45
632.21	110.01
632.36	138.09
632.51	32.77
632.66	77.24
632.81	91.28
632.96	91.28
633.10	67.88
633.25	91.28
633.40	65.54
633.55	53.83
633.70	37.45
633.85	51.49
634.00	46.81
634.15	142.77
634.30	0.00
634.45	56.17
634.60	63.19
634.75	25.75
634.90	145.11
635.05	58.51
635.19	65.54
635.34	49.15
635.49	39.79
635.64	114.69
635.79	105.32
635.94	25.75
636.09	93.62
636.24	32.77
636.39	79.58
636.53	14.04
636.68	140.43
636.83	49.15
636.98	49.15
637.13	23.41
637.28	105.32
637.43	23.41
637.57	53.83
637.72	63.19
637.87	74.90
638.02	88.94
638.17	0.00
638.32	21.06
638.46	44.47
638.61	53.83
638.76	42.13
638.91	117.03
639.06	84.26
639.20	35.11
639.35	53.83
639.50	67.88
639.65	121.71
639.80	100.64
639.94	152.13
640.09	98.30
640.24	100.64
640.39	95.96
640.54	53.83
640.68	0.00
640.83	100.64
640.98	91.28
641.13	74.90
641.27	84.26
641.42	18.72
641.57	81.92
641.72	86.60
641.86	11.70
642.01	9.36
642.16	30.43
642.31	53.83
642.45	72.56
642.60	35.11
642.75	67.88
642.90	44.47
643.04	56.17
643.19	70.22
643.34	25.75
643.48	100.64
643.63	63.19
643.78	79.58
643.93	56.17
644.07	63.19
644.22	21.06
644.37	121.71
644.51	65.54
644.66	86.60
644.81	58.51
644.95	23.41
645.10	91.28
645.25	74.90
645.39	35.11
645.54	81.92
645.69	18.72
645.83	32.77
645.98	21.06
646.13	117.03
646.27	49.15
646.42	35.11
646.57	14.04
646.71	131.07
646.86	100.64
647.00	21.06
647.15	7.02
647.30	65.54
647.44	11.70
647.59	2.34
647.74	30.43
647.88	72.56
648.03	105.32
648.17	11.70
648.32	65.54
648.47	58.51
648.61	28.09
648.76	67.88
648.90	79.58
649.05	53.83
649.20	56.17
649.34	79.58
649.49	28.09
649.63	93.62
649.78	28.09
649.92	58.51
650.07	65.54
650.21	0.00
650.36	14.04
650.51	25.75
650.65	107.66
650.80	35.11
650.94	126.39
651.09	32.77
651.23	0.00
651.38	74.90
651.52	86.60
651.67	21.06
651.81	117.03
651.96	86.60
652.10	72.56
652.25	67.88
652.39	77.24
652.54	74.90
652.68	100.64
652.83	32.77
652.97	91.28
653.12	42.13
653.26	25.75
653.41	86.60
653.55	77.24
653.70	46.81
653.84	60.85
653.99	0.00
654.13	100.64
654.27	44.47
654.42	105.32
654.56	30.43
654.71	65.54
654.85	23.41
655.00	91.28
655.14	4.68
655.29	46.81
655.43	49.15
655.57	58.51
655.72	56.17
655.86	95.96
656.01	23.41
656.15	112.35
656.30	18.72
656.44	63.19
656.58	74.90
656.73	77.24
656.87	56.17
657.01	93.62
657.16	42.13
657.30	81.92
657.45	0.00
657.59	0.00
657.73	72.56
657.88	25.75
658.02	53.83
658.16	56.17
658.31	72.56
658.45	135.75
658.60	67.88
658.74	32.77
658.88	9.36
659.03	46.81
659.17	0.00
659.31	95.96
659.46	91.28
659.60	37.45
659.74	30.43
659.89	49.15
660.03	42.13
660.17	58.51
660.32	21.06
660.46	23.41
660.60	74.90
660.74	25.75
660.89	7.02
661.03	63.19
661.17	86.60
661.32	63.19
661.46	44.47
661.60	32.77
661.74	58.51
661.89	91.28
662.03	63.19
662.17	93.62
662.31	14.04
662.46	86.60
662.60	91.28
662.74	58.51
662.88	63.19
663.03	91.28
663.17	30.43
663.31	9.36
663.45	18.72
663.60	23.41
663.74	42.13
663.88	138.09
664.02	91.28
664.17	72.56
664.31	81.92
664.45	65.54
664.59	105.32
664.73	49.15
664.88	9.36
665.02	84.26
665.16	46.81
665.30	88.94
665.44	0.00
665.59	28.09
665.73	51.49
665.87	65.54
666.01	63.19
666.15	2.34
666.29	51.49
666.44	86.60
666.58	21.06
666.72	23.41
666.86	0.00
667.00	110.01
667.14	42.13
667.28	107.66
667.43	23.41
667.57	0.00
667.71	56.17
667.85	79.58
667.99	93.62
668.13	44.47
668.27	88.94
668.41	63.19
668.56	39.79
668.70	60.85
668.84	63.19
668.98	16.38
669.12	2.34
669.26	72.56
669.40	77.24
669.54	0.00
669.68	93.62
669.82	65.54
669.96	51.49
670.10	133.41
670.25	25.75
670.39	21.06
670.53	42.13
670.67	32.77
670.81	7.02
670.95	84.26
671.09	51.49
671.23	58.51
671.37	147.45
671.51	91.28
671.65	37.45
671.79	0.00
671.93	9.36
672.07	100.64
672.21	105.32
672.35	16.38
672.49	39.79
672.63	21.06
672.77	35.11
672.91	126.39
673.05	23.41
673.19	30.43
673.33	4.68
673.47	72.56
673.61	35.11
673.75	53.83
673.89	0.00
674.03	49.15
674.17	114.69
674.31	72.56
674.45	16.38
674.59	39.79
674.73	53.83
674.87	56.17
675.01	70.22
675.15	77.24
675.29	88.94
675.43	21.06
675.56	67.88
675.70	63.19
675.84	72.56
675.98	51.49
676.12	30.43
676.26	42.13
676.40	39.79
676.54	0.00
676.68	60.85
676.82	9.36
676.96	28.09
677.10	100.64
677.23	30.43
677.37	65.54
677.51	28.09
677.65	114.69
677.79	39.79
677.93	53.83
678.07	30.43
678.21	0.00
678.34	67.88
678.48	72.56
678.62	91.28
678.76	72.56
678.90	95.96
679.04	67.88
679.18	16.38
679.31	86.60
679.45	102.98
679.59	67.88
679.73	58.51
679.87	0.00
680.00	51.49
680.14	21.06
680.28	39.79
680.42	32.77
680.56	0.00
680.70	0.00
680.83	25.75
680.97	58.51
681.11	60.85
681.25	18.72
681.39	16.38
681.52	98.30
681.66	56.17
681.80	4.68
681.94	23.41
682.07	30.43
682.21	58.51
682.35	70.22
682.49	86.60
682.62	39.79
682.76	0.00
682.90	44.47
683.04	72.56
683.17	121.71
683.31	72.56
683.45	63.19
683.59	32.77
683.72	70.22
683.86	0.00
684.00	0.00
684.13	18.72
684.27	9.36
684.41	14.04
684.55	67.88
684.68	91.28
684.82	46.81
684.96	25.75
685.09	25.75
685.23	0.00
685.37	77.24
685.50	25.75
685.64	72.56
685.78	79.58
685.91	46.81
686.05	39.79
686.19	44.47
686.32	16.38
686.46	28.09
686.60	53.83
686.73	32.77
686.87	124.05
687.01	16.38
687.14	11.70
687.28	58.51
687.42	65.54
687.55	37.45
687.69	0.00
687.82	16.38
687.96	91.28
688.10	16.38
688.23	44.47
688.37	11.70
688.50	7.02
688.64	58.51
688.78	0.00
688.91	0.00
689.05	67.88
689.18	0.00
689.32	44.47
689.46	32.77
689.59	53.83
689.73	0.00
689.86	114.69
690.00	18.72
690.13	32.77
690.27	0.00
690.41	0.00
690.54	23.41
690.68	74.90
690.81	0.00
690.95	9.36
691.08	84.26
691.22	65.54
691.35	18.72
691.49	63.19
691.62	124.05
691.76	53.83
691.89	0.00
692.03	23.41
692.16	16.38
692.30	0.00
692.43	46.81
692.57	44.47
692.70	28.09
692.84	14.04
692.97	72.56
693.11	0.00
693.24	0.00
693.38	25.75
693.51	72.56
693.65	9.36
693.78	46.81
693.92	23.41
694.05	35.11
694.19	7.02
694.32	100.64
694.45	21.06
694.59	16.38
694.72	44.47
694.86	86.60
694.99	72.56
695.13	0.00
695.26	0.00
695.39	72.56
695.53	0.00
695.66	0.00
695.80	81.92
695.93	7.02
696.07	88.94
696.20	84.26
696.33	84.26
696.47	95.96
696.60	107.66
696.73	70.22
696.87	14.04
697.00	0.00
697.14	53.83
697.27	4.68
697.40	60.85
697.54	23.41
697.67	53.83
697.80	58.51
697.94	39.79
698.07	30.43
698.21	2.34
698.34	46.81
698.47	28.09
698.61	28.09
698.74	51.49
698.87	67.88
699.01	30.43
699.14	56.17
699.27	86.60
699.40	74.90
699.54	65.54
699.67	25.75
699.80	56.17
699.94	0.00
700.07	23.41
700.20	42.13
700.34	60.85
700.47	53.83
700.60	0.00
700.73	16.38
700.87	11.70
701.00	53.83
701.13	74.90
701.26	0.00
701.40	39.79
701.53	79.58
701.66	18.72
701.79	21.06
701.93	0.00
702.06	46.81
702.19	42.13
702.32	53.83
702.46	53.83
702.59	32.77
702.72	9.36
702.85	0.00
702.99	56.17
703.12	77.24
703.25	35.11
703.38	32.77
703.51	46.81
703.65	7.02
703.78	23.41
703.91	7.02
704.04	11.70
704.17	16.38
704.31	0.00
704.44	18.72
704.57	25.75
704.70	4.68
704.83	39.79
704.96	9.36
705.10	95.96
705.23	16.38
>>>>>End Processed Spectral Data<<<<<
