SpectraSuite Data File
++++++++++++++++++++++++++++++++++++
Date: Fri Oct 04 12:13:35 GMT-05:00 2013
User: price-jones
Dark Spectrum Present: No
Reference Spectrum Present: No
Number of Sampled Component Spectra: 1
Spectrometers: USB2+H05261
Integration Time (usec): 10000 (USB2+H05261)
Spectra Averaged: 1 (USB2+H05261)
Boxcar Smoothing: 0 (USB2+H05261)
Correct for Electrical Dark: No (USB2+H05261)
Strobe/Lamp Enabled: No (USB2+H05261)
Correct for Detector Non-linearity: No (USB2+H05261)
Correct for Stray Light: No (USB2+H05261)
Number of Pixels in Processed Spectrum: 2048
>>>>>Begin Processed Spectral Data<<<<<
365.73	72.56
365.92	72.56
366.12	72.56
366.32	0.00
366.52	0.00
366.72	0.00
366.91	0.00
367.11	0.00
367.31	0.00
367.51	0.00
367.70	0.00
367.90	0.00
368.10	0.00
368.30	0.00
368.49	0.00
368.69	0.00
368.89	0.00
369.09	0.00
369.28	0.00
369.48	0.00
369.68	0.00
369.87	0.00
370.07	0.00
370.27	0.00
370.47	0.00
370.66	0.00
370.86	0.00
371.06	4.68
371.25	0.00
371.45	0.00
371.65	0.00
371.84	0.00
372.04	11.70
372.24	16.38
372.44	0.00
372.63	37.45
372.83	21.06
373.03	7.02
373.22	0.00
373.42	0.00
373.62	0.00
373.81	65.54
374.01	0.00
374.21	30.43
374.40	65.54
374.60	93.62
374.79	51.49
374.99	9.36
375.19	14.04
375.38	74.90
375.58	7.02
375.78	49.15
375.97	0.00
376.17	39.79
376.37	0.00
376.56	0.00
376.76	37.45
376.95	81.92
377.15	21.06
377.35	4.68
377.54	23.41
377.74	18.72
377.93	14.04
378.13	0.00
378.33	18.72
378.52	0.00
378.72	42.13
378.91	0.00
379.11	0.00
379.31	35.11
379.50	51.49
379.70	0.00
379.89	35.11
380.09	18.72
380.28	7.02
380.48	4.68
380.68	0.00
380.87	65.54
381.07	14.04
381.26	0.00
381.46	53.83
381.65	0.00
381.85	0.00
382.04	0.00
382.24	0.00
382.43	0.00
382.63	0.00
382.83	30.43
383.02	51.49
383.22	0.00
383.41	53.83
383.61	0.00
383.80	49.15
384.00	39.79
384.19	4.68
384.39	11.70
384.58	42.13
384.78	30.43
384.97	35.11
385.17	23.41
385.36	7.02
385.56	4.68
385.75	42.13
385.95	11.70
386.14	0.00
386.34	0.00
386.53	0.00
386.72	9.36
386.92	0.00
387.11	63.19
387.31	56.17
387.50	0.00
387.70	32.77
387.89	18.72
388.09	0.00
388.28	18.72
388.48	44.47
388.67	0.00
388.86	21.06
389.06	46.81
389.25	0.00
389.45	0.00
389.64	32.77
389.84	30.43
390.03	56.17
390.22	53.83
390.42	32.77
390.61	37.45
390.81	65.54
391.00	58.51
391.19	0.00
391.39	7.02
391.58	7.02
391.78	25.75
391.97	30.43
392.16	63.19
392.36	79.58
392.55	14.04
392.75	44.47
392.94	0.00
393.13	0.00
393.33	0.00
393.52	0.00
393.71	42.13
393.91	79.58
394.10	53.83
394.29	35.11
394.49	91.28
394.68	23.41
394.88	60.85
395.07	65.54
395.26	37.45
395.46	74.90
395.65	11.70
395.84	0.00
396.04	21.06
396.23	44.47
396.42	0.00
396.62	81.92
396.81	0.00
397.00	2.34
397.19	16.38
397.39	46.81
397.58	56.17
397.77	65.54
397.97	65.54
398.16	35.11
398.35	105.32
398.55	51.49
398.74	16.38
398.93	49.15
399.12	0.00
399.32	9.36
399.51	21.06
399.70	42.13
399.90	51.49
400.09	58.51
400.28	0.00
400.47	21.06
400.67	65.54
400.86	35.11
401.05	49.15
401.24	35.11
401.44	0.00
401.63	0.00
401.82	28.09
402.01	70.22
402.21	9.36
402.40	23.41
402.59	0.00
402.78	32.77
402.97	7.02
403.17	53.83
403.36	30.43
403.55	4.68
403.74	67.88
403.93	16.38
404.13	126.39
404.32	9.36
404.51	7.02
404.70	39.79
404.89	77.24
405.09	93.62
405.28	4.68
405.47	67.88
405.66	0.00
405.85	16.38
406.05	16.38
406.24	23.41
406.43	65.54
406.62	16.38
406.81	77.24
407.00	95.96
407.20	67.88
407.39	32.77
407.58	88.94
407.77	88.94
407.96	0.00
408.15	0.00
408.34	42.13
408.54	9.36
408.73	86.60
408.92	32.77
409.11	98.30
409.30	56.17
409.49	79.58
409.68	49.15
409.87	95.96
410.07	2.34
410.26	58.51
410.45	65.54
410.64	65.54
410.83	16.38
411.02	16.38
411.21	4.68
411.40	0.00
411.59	60.85
411.78	105.32
411.98	0.00
412.17	0.00
412.36	0.00
412.55	28.09
412.74	42.13
412.93	21.06
413.12	0.00
413.31	79.58
413.50	4.68
413.69	67.88
413.88	72.56
414.07	0.00
414.26	32.77
414.45	102.98
414.64	18.72
414.83	14.04
415.02	70.22
415.22	30.43
415.41	93.62
415.60	0.00
415.79	77.24
415.98	0.00
416.17	93.62
416.36	32.77
416.55	53.83
416.74	11.70
416.93	25.75
417.12	0.00
417.31	81.92
417.50	35.11
417.69	95.96
417.88	98.30
418.07	7.02
418.26	70.22
418.45	77.24
418.64	65.54
418.83	28.09
419.02	30.43
419.21	0.00
419.39	79.58
419.58	0.00
419.77	63.19
419.96	9.36
420.15	49.15
420.34	18.72
420.53	44.47
420.72	93.62
420.91	86.60
421.10	39.79
421.29	42.13
421.48	72.56
421.67	46.81
421.86	0.00
422.05	18.72
422.24	72.56
422.43	46.81
422.61	84.26
422.80	65.54
422.99	70.22
423.18	7.02
423.37	0.00
423.56	44.47
423.75	35.11
423.94	9.36
424.13	49.15
424.32	32.77
424.50	70.22
424.69	0.00
424.88	0.00
425.07	0.00
425.26	16.38
425.45	28.09
425.64	93.62
425.83	35.11
426.01	74.90
426.20	56.17
426.39	79.58
426.58	0.00
426.77	105.32
426.96	37.45
427.15	11.70
427.33	63.19
427.52	18.72
427.71	4.68
427.90	86.60
428.09	4.68
428.28	65.54
428.46	35.11
428.65	51.49
428.84	0.00
429.03	63.19
429.22	30.43
429.40	0.00
429.59	0.00
429.78	35.11
429.97	21.06
430.16	0.00
430.34	46.81
430.53	60.85
430.72	65.54
430.91	79.58
431.10	0.00
431.28	51.49
431.47	65.54
431.66	42.13
431.85	53.83
432.03	16.38
432.22	65.54
432.41	42.13
432.60	74.90
432.79	28.09
432.97	46.81
433.16	35.11
433.35	53.83
433.54	0.00
433.72	16.38
433.91	30.43
434.10	93.62
434.28	23.41
434.47	30.43
434.66	44.47
434.85	23.41
435.03	0.00
435.22	0.00
435.41	9.36
435.59	56.17
435.78	28.09
435.97	63.19
436.16	0.00
436.34	88.94
436.53	23.41
436.72	53.83
436.90	32.77
437.09	14.04
437.28	74.90
437.46	72.56
437.65	102.98
437.84	53.83
438.02	28.09
438.21	28.09
438.40	93.62
438.58	84.26
438.77	14.04
438.96	18.72
439.14	49.15
439.33	79.58
439.52	0.00
439.70	58.51
439.89	30.43
440.08	25.75
440.26	44.47
440.45	70.22
440.63	128.73
440.82	53.83
441.01	0.00
441.19	112.35
441.38	77.24
441.57	0.00
441.75	95.96
441.94	79.58
442.12	98.30
442.31	46.81
442.50	32.77
442.68	21.06
442.87	84.26
443.05	93.62
443.24	37.45
443.43	39.79
443.61	7.02
443.80	37.45
443.98	84.26
444.17	23.41
444.35	58.51
444.54	79.58
444.73	95.96
444.91	30.43
445.10	42.13
445.28	25.75
445.47	56.17
445.65	88.94
445.84	0.00
446.02	44.47
446.21	72.56
446.39	0.00
446.58	79.58
446.77	0.00
446.95	28.09
447.14	72.56
447.32	37.45
447.51	9.36
447.69	23.41
447.88	110.01
448.06	72.56
448.25	37.45
448.43	0.00
448.62	32.77
448.80	114.69
448.99	30.43
449.17	58.51
449.36	30.43
449.54	58.51
449.73	100.64
449.91	65.54
450.10	51.49
450.28	37.45
450.46	105.32
450.65	35.11
450.83	77.24
451.02	60.85
451.20	4.68
451.39	65.54
451.57	65.54
451.76	46.81
451.94	93.62
452.13	39.79
452.31	16.38
452.49	7.02
452.68	18.72
452.86	56.17
453.05	16.38
453.23	81.92
453.42	37.45
453.60	37.45
453.78	56.17
453.97	65.54
454.15	77.24
454.34	79.58
454.52	32.77
454.70	93.62
454.89	30.43
455.07	0.00
455.26	7.02
455.44	84.26
455.62	23.41
455.81	117.03
455.99	107.66
456.17	88.94
456.36	67.88
456.54	37.45
456.73	63.19
456.91	63.19
457.09	95.96
457.28	53.83
457.46	91.28
457.64	14.04
457.83	56.17
458.01	4.68
458.19	70.22
458.38	112.35
458.56	58.51
458.74	9.36
458.93	46.81
459.11	86.60
459.29	0.00
459.48	35.11
459.66	93.62
459.84	79.58
460.03	102.98
460.21	0.00
460.39	46.81
460.57	53.83
460.76	93.62
460.94	30.43
461.12	42.13
461.31	28.09
461.49	30.43
461.67	117.03
461.85	105.32
462.04	100.64
462.22	77.24
462.40	32.77
462.59	42.13
462.77	70.22
462.95	63.19
463.13	39.79
463.32	0.00
463.50	70.22
463.68	149.79
463.86	91.28
464.05	0.00
464.23	91.28
464.41	51.49
464.59	77.24
464.78	0.00
464.96	18.72
465.14	63.19
465.32	74.90
465.50	107.66
465.69	70.22
465.87	163.84
466.05	121.71
466.23	117.03
466.41	58.51
466.60	30.43
466.78	56.17
466.96	121.71
467.14	46.81
467.32	28.09
467.51	119.37
467.69	84.26
467.87	46.81
468.05	14.04
468.23	0.00
468.41	117.03
468.60	140.43
468.78	51.49
468.96	16.38
469.14	86.60
469.32	81.92
469.50	110.01
469.69	2.34
469.87	58.51
470.05	51.49
470.23	86.60
470.41	37.45
470.59	18.72
470.77	93.62
470.95	30.43
471.14	2.34
471.32	46.81
471.50	9.36
471.68	0.00
471.86	37.45
472.04	60.85
472.22	93.62
472.40	37.45
472.58	25.75
472.77	98.30
472.95	39.79
473.13	39.79
473.31	46.81
473.49	128.73
473.67	72.56
473.85	49.15
474.03	67.88
474.21	121.71
474.39	91.28
474.57	110.01
474.75	119.37
474.93	121.71
475.12	53.83
475.30	0.00
475.48	84.26
475.66	63.19
475.84	0.00
476.02	86.60
476.20	32.77
476.38	93.62
476.56	88.94
476.74	77.24
476.92	119.37
477.10	30.43
477.28	74.90
477.46	102.98
477.64	44.47
477.82	46.81
478.00	0.00
478.18	74.90
478.36	28.09
478.54	128.73
478.72	32.77
478.90	145.11
479.08	126.39
479.26	0.00
479.44	37.45
479.62	88.94
479.80	65.54
479.98	14.04
480.16	112.35
480.34	0.00
480.52	60.85
480.70	63.19
480.88	79.58
481.06	23.41
481.24	70.22
481.41	72.56
481.59	28.09
481.77	21.06
481.95	63.19
482.13	95.96
482.31	98.30
482.49	86.60
482.67	42.13
482.85	98.30
483.03	44.47
483.21	65.54
483.39	58.51
483.57	93.62
483.74	105.32
483.92	133.41
484.10	93.62
484.28	11.70
484.46	72.56
484.64	81.92
484.82	74.90
485.00	35.11
485.18	4.68
485.35	53.83
485.53	77.24
485.71	21.06
485.89	49.15
486.07	0.00
486.25	121.71
486.43	30.43
486.61	56.17
486.78	51.49
486.96	9.36
487.14	72.56
487.32	88.94
487.50	95.96
487.68	86.60
487.85	23.41
488.03	159.16
488.21	49.15
488.39	44.47
488.57	95.96
488.75	88.94
488.92	95.96
489.10	23.41
489.28	86.60
489.46	11.70
489.64	21.06
489.81	65.54
489.99	98.30
490.17	56.17
490.35	128.73
490.53	9.36
490.70	77.24
490.88	70.22
491.06	21.06
491.24	67.88
491.41	49.15
491.59	98.30
491.77	23.41
491.95	91.28
492.13	23.41
492.30	67.88
492.48	133.41
492.66	81.92
492.84	63.19
493.01	60.85
493.19	131.07
493.37	74.90
493.54	133.41
493.72	121.71
493.90	60.85
494.08	124.05
494.25	46.81
494.43	131.07
494.61	53.83
494.79	88.94
494.96	53.83
495.14	42.13
495.32	74.90
495.49	72.56
495.67	42.13
495.85	147.45
496.02	58.51
496.20	21.06
496.38	0.00
496.55	77.24
496.73	77.24
496.91	72.56
497.09	49.15
497.26	70.22
497.44	77.24
497.62	42.13
497.79	16.38
497.97	42.13
498.14	65.54
498.32	77.24
498.50	98.30
498.67	49.15
498.85	88.94
499.03	121.71
499.20	95.96
499.38	60.85
499.56	51.49
499.73	159.16
499.91	9.36
500.08	121.71
500.26	81.92
500.44	65.54
500.61	51.49
500.79	56.17
500.97	60.85
501.14	102.98
501.32	56.17
501.49	110.01
501.67	0.00
501.84	0.00
502.02	30.43
502.20	32.77
502.37	84.26
502.55	49.15
502.72	98.30
502.90	131.07
503.07	42.13
503.25	49.15
503.43	135.75
503.60	112.35
503.78	32.77
503.95	142.77
504.13	42.13
504.30	114.69
504.48	100.64
504.65	65.54
504.83	79.58
505.01	93.62
505.18	105.32
505.36	70.22
505.53	37.45
505.71	44.47
505.88	72.56
506.06	138.09
506.23	84.26
506.41	95.96
506.58	53.83
506.76	142.77
506.93	98.30
507.11	60.85
507.28	63.19
507.46	93.62
507.63	77.24
507.81	77.24
507.98	72.56
508.16	21.06
508.33	105.32
508.50	63.19
508.68	84.26
508.85	105.32
509.03	60.85
509.20	60.85
509.38	98.30
509.55	121.71
509.73	18.72
509.90	77.24
510.08	74.90
510.25	133.41
510.42	131.07
510.60	60.85
510.77	58.51
510.95	84.26
511.12	77.24
511.30	100.64
511.47	93.62
511.64	4.68
511.82	56.17
511.99	49.15
512.17	100.64
512.34	28.09
512.51	2.34
512.69	84.26
512.86	128.73
513.04	72.56
513.21	119.37
513.38	119.37
513.56	0.00
513.73	42.13
513.90	14.04
514.08	16.38
514.25	60.85
514.43	56.17
514.60	49.15
514.77	32.77
514.95	42.13
515.12	142.77
515.29	63.19
515.47	84.26
515.64	114.69
515.81	46.81
515.99	173.20
516.16	88.94
516.33	98.30
516.51	128.73
516.68	39.79
516.85	70.22
517.03	37.45
517.20	30.43
517.37	72.56
517.54	114.69
517.72	44.47
517.89	0.00
518.06	14.04
518.24	67.88
518.41	81.92
518.58	53.83
518.75	60.85
518.93	65.54
519.10	159.16
519.27	147.45
519.45	91.28
519.62	112.35
519.79	81.92
519.96	84.26
520.14	86.60
520.31	46.81
520.48	79.58
520.65	124.05
520.83	84.26
521.00	161.50
521.17	124.05
521.34	93.62
521.52	77.24
521.69	138.09
521.86	100.64
522.03	77.24
522.20	142.77
522.38	86.60
522.55	56.17
522.72	84.26
522.89	58.51
523.07	124.05
523.24	105.32
523.41	79.58
523.58	56.17
523.75	140.43
523.92	88.94
524.10	159.16
524.27	138.09
524.44	100.64
524.61	98.30
524.78	0.00
524.96	25.75
525.13	86.60
525.30	49.15
525.47	114.69
525.64	72.56
525.81	44.47
525.98	119.37
526.16	39.79
526.33	166.18
526.50	44.47
526.67	91.28
526.84	86.60
527.01	51.49
527.18	37.45
527.36	79.58
527.53	74.90
527.70	117.03
527.87	23.41
528.04	191.92
528.21	63.19
528.38	135.75
528.55	67.88
528.72	0.00
528.89	67.88
529.07	0.00
529.24	86.60
529.41	56.17
529.58	58.51
529.75	95.96
529.92	70.22
530.09	53.83
530.26	9.36
530.43	77.24
530.60	37.45
530.77	25.75
530.94	58.51
531.11	60.85
531.28	88.94
531.46	67.88
531.63	88.94
531.80	16.38
531.97	112.35
532.14	102.98
532.31	79.58
532.48	51.49
532.65	86.60
532.82	56.17
532.99	102.98
533.16	21.06
533.33	100.64
533.50	67.88
533.67	32.77
533.84	166.18
534.01	70.22
534.18	84.26
534.35	93.62
534.52	105.32
534.69	98.30
534.86	37.45
535.03	119.37
535.20	126.39
535.37	140.43
535.54	63.19
535.71	119.37
535.88	140.43
536.05	105.32
536.22	77.24
536.38	58.51
536.55	32.77
536.72	2.34
536.89	70.22
537.06	53.83
537.23	154.48
537.40	23.41
537.57	63.19
537.74	117.03
537.91	110.01
538.08	124.05
538.25	49.15
538.42	110.01
538.59	63.19
538.75	131.07
538.92	91.28
539.09	126.39
539.26	28.09
539.43	56.17
539.60	91.28
539.77	67.88
539.94	35.11
540.11	42.13
540.28	49.15
540.44	110.01
540.61	98.30
540.78	81.92
540.95	124.05
541.12	35.11
541.29	51.49
541.46	42.13
541.62	74.90
541.79	177.88
541.96	63.19
542.13	86.60
542.30	131.07
542.47	88.94
542.63	110.01
542.80	46.81
542.97	51.49
543.14	84.26
543.31	119.37
543.48	70.22
543.64	154.48
543.81	25.75
543.98	86.60
544.15	32.77
544.32	100.64
544.48	95.96
544.65	70.22
544.82	60.85
544.99	32.77
545.16	152.13
545.32	126.39
545.49	51.49
545.66	53.83
545.83	152.13
546.00	88.94
546.16	39.79
546.33	93.62
546.50	67.88
546.67	53.83
546.83	25.75
547.00	88.94
547.17	126.39
547.34	166.18
547.50	63.19
547.67	49.15
547.84	28.09
548.00	70.22
548.17	100.64
548.34	126.39
548.51	58.51
548.67	0.00
548.84	72.56
549.01	173.20
549.18	56.17
549.34	49.15
549.51	46.81
549.68	86.60
549.84	98.30
550.01	28.09
550.18	70.22
550.34	58.51
550.51	74.90
550.68	100.64
550.84	194.26
551.01	49.15
551.18	173.20
551.34	138.09
551.51	93.62
551.68	100.64
551.84	65.54
552.01	60.85
552.18	81.92
552.34	86.60
552.51	98.30
552.68	156.82
552.84	30.43
553.01	42.13
553.18	79.58
553.34	2.34
553.51	0.00
553.67	102.98
553.84	138.09
554.01	0.00
554.17	114.69
554.34	11.70
554.51	84.26
554.67	91.28
554.84	126.39
555.00	102.98
555.17	100.64
555.33	100.64
555.50	70.22
555.67	72.56
555.83	86.60
556.00	91.28
556.16	49.15
556.33	35.11
556.50	37.45
556.66	131.07
556.83	0.00
556.99	138.09
557.16	91.28
557.32	121.71
557.49	110.01
557.65	70.22
557.82	84.26
557.98	91.28
558.15	81.92
558.32	11.70
558.48	49.15
558.65	51.49
558.81	9.36
558.98	79.58
559.14	60.85
559.31	86.60
559.47	72.56
559.64	23.41
559.80	100.64
559.97	88.94
560.13	100.64
560.30	124.05
560.46	95.96
560.63	16.38
560.79	105.32
560.96	152.13
561.12	91.28
561.29	72.56
561.45	2.34
561.61	86.60
561.78	30.43
561.94	74.90
562.11	135.75
562.27	105.32
562.44	74.90
562.60	60.85
562.77	91.28
562.93	58.51
563.10	42.13
563.26	56.17
563.42	133.41
563.59	53.83
563.75	114.69
563.92	102.98
564.08	74.90
564.24	102.98
564.41	152.13
564.57	56.17
564.74	23.41
564.90	32.77
565.07	67.88
565.23	74.90
565.39	79.58
565.56	128.73
565.72	91.28
565.88	77.24
566.05	163.84
566.21	98.30
566.38	65.54
566.54	74.90
566.70	77.24
566.87	88.94
567.03	14.04
567.19	77.24
567.36	46.81
567.52	32.77
567.68	63.19
567.85	23.41
568.01	91.28
568.17	95.96
568.34	86.60
568.50	16.38
568.66	91.28
568.83	93.62
568.99	49.15
569.15	98.30
569.32	84.26
569.48	81.92
569.64	46.81
569.81	93.62
569.97	35.11
570.13	107.66
570.30	88.94
570.46	49.15
570.62	44.47
570.78	58.51
570.95	53.83
571.11	74.90
571.27	60.85
571.43	42.13
571.60	72.56
571.76	100.64
571.92	9.36
572.09	79.58
572.25	128.73
572.41	65.54
572.57	86.60
572.74	86.60
572.90	35.11
573.06	70.22
573.22	95.96
573.38	107.66
573.55	77.24
573.71	98.30
573.87	60.85
574.03	28.09
574.20	53.83
574.36	0.00
574.52	51.49
574.68	91.28
574.84	95.96
575.01	95.96
575.17	23.41
575.33	23.41
575.49	107.66
575.65	107.66
575.82	112.35
575.98	30.43
576.14	58.51
576.30	58.51
576.46	35.11
576.62	35.11
576.79	63.19
576.95	93.62
577.11	21.06
577.27	131.07
577.43	37.45
577.59	81.92
577.75	46.81
577.92	63.19
578.08	117.03
578.24	93.62
578.40	131.07
578.56	72.56
578.72	91.28
578.88	198.95
579.04	105.32
579.21	7.02
579.37	63.19
579.53	138.09
579.69	72.56
579.85	88.94
580.01	51.49
580.17	63.19
580.33	100.64
580.49	60.85
580.65	91.28
580.82	138.09
580.98	117.03
581.14	39.79
581.30	93.62
581.46	107.66
581.62	42.13
581.78	114.69
581.94	175.54
582.10	49.15
582.26	107.66
582.42	21.06
582.58	49.15
582.74	110.01
582.90	95.96
583.06	49.15
583.22	131.07
583.38	100.64
583.54	65.54
583.70	25.75
583.86	21.06
584.02	60.85
584.18	11.70
584.34	53.83
584.50	84.26
584.66	112.35
584.82	133.41
584.98	112.35
585.14	110.01
585.30	135.75
585.46	100.64
585.62	159.16
585.78	70.22
585.94	67.88
586.10	93.62
586.26	39.79
586.42	60.85
586.58	49.15
586.74	70.22
586.90	107.66
587.06	0.00
587.22	77.24
587.38	110.01
587.54	51.49
587.70	98.30
587.86	95.96
588.02	35.11
588.18	46.81
588.34	107.66
588.49	95.96
588.65	74.90
588.81	67.88
588.97	56.17
589.13	72.56
589.29	79.58
589.45	0.00
589.61	79.58
589.77	18.72
589.93	49.15
590.08	37.45
590.24	72.56
590.40	32.77
590.56	65.54
590.72	65.54
590.88	14.04
591.04	30.43
591.20	37.45
591.35	74.90
591.51	112.35
591.67	117.03
591.83	65.54
591.99	135.75
592.15	67.88
592.31	81.92
592.46	121.71
592.62	60.85
592.78	65.54
592.94	11.70
593.10	58.51
593.26	93.62
593.41	81.92
593.57	91.28
593.73	102.98
593.89	51.49
594.05	74.90
594.20	37.45
594.36	114.69
594.52	72.56
594.68	42.13
594.84	0.00
594.99	35.11
595.15	42.13
595.31	49.15
595.47	37.45
595.62	70.22
595.78	0.00
595.94	65.54
596.10	21.06
596.25	14.04
596.41	44.47
596.57	107.66
596.73	147.45
596.88	28.09
597.04	81.92
597.20	149.79
597.36	11.70
597.51	67.88
597.67	60.85
597.83	145.11
597.99	93.62
598.14	56.17
598.30	9.36
598.46	28.09
598.61	53.83
598.77	44.47
598.93	39.79
599.09	84.26
599.24	70.22
599.40	58.51
599.56	2.34
599.71	28.09
599.87	51.49
600.03	35.11
600.18	44.47
600.34	58.51
600.50	56.17
600.65	39.79
600.81	58.51
600.97	7.02
601.12	79.58
601.28	77.24
601.44	112.35
601.59	18.72
601.75	93.62
601.91	16.38
602.06	18.72
602.22	23.41
602.37	65.54
602.53	72.56
602.69	124.05
602.84	98.30
603.00	67.88
603.16	9.36
603.31	60.85
603.47	121.71
603.62	46.81
603.78	0.00
603.94	77.24
604.09	4.68
604.25	107.66
604.40	51.49
604.56	77.24
604.71	44.47
604.87	58.51
605.03	65.54
605.18	58.51
605.34	23.41
605.49	35.11
605.65	124.05
605.80	124.05
605.96	0.00
606.12	107.66
606.27	77.24
606.43	53.83
606.58	152.13
606.74	91.28
606.89	98.30
607.05	95.96
607.20	42.13
607.36	9.36
607.51	63.19
607.67	121.71
607.82	42.13
607.98	128.73
608.13	88.94
608.29	86.60
608.44	60.85
608.60	74.90
608.75	81.92
608.91	39.79
609.06	98.30
609.22	81.92
609.37	39.79
609.53	44.47
609.68	91.28
609.84	81.92
609.99	65.54
610.15	72.56
610.30	81.92
610.46	35.11
610.61	0.00
610.76	91.28
610.92	93.62
611.07	18.72
611.23	81.92
611.38	65.54
611.54	0.00
611.69	49.15
611.84	49.15
612.00	37.45
612.15	32.77
612.31	0.00
612.46	112.35
612.62	105.32
612.77	70.22
612.92	28.09
613.08	86.60
613.23	86.60
613.39	70.22
613.54	98.30
613.69	9.36
613.85	74.90
614.00	119.37
614.15	107.66
614.31	131.07
614.46	98.30
614.62	46.81
614.77	98.30
614.92	35.11
615.08	23.41
615.23	42.13
615.38	84.26
615.54	88.94
615.69	7.02
615.84	79.58
616.00	65.54
616.15	70.22
616.30	114.69
616.46	91.28
616.61	49.15
616.76	126.39
616.92	107.66
617.07	16.38
617.22	37.45
617.37	84.26
617.53	133.41
617.68	58.51
617.83	67.88
617.99	0.00
618.14	60.85
618.29	114.69
618.45	65.54
618.60	0.00
618.75	11.70
618.90	42.13
619.06	110.01
619.21	46.81
619.36	79.58
619.51	67.88
619.67	9.36
619.82	65.54
619.97	56.17
620.12	25.75
620.28	4.68
620.43	0.00
620.58	14.04
620.73	46.81
620.89	79.58
621.04	28.09
621.19	88.94
621.34	72.56
621.49	30.43
621.65	44.47
621.80	98.30
621.95	65.54
622.10	23.41
622.25	25.75
622.41	30.43
622.56	93.62
622.71	56.17
622.86	32.77
623.01	88.94
623.16	77.24
623.32	95.96
623.47	88.94
623.62	70.22
623.77	4.68
623.92	98.30
624.07	74.90
624.23	114.69
624.38	86.60
624.53	84.26
624.68	79.58
624.83	100.64
624.98	72.56
625.13	86.60
625.29	95.96
625.44	58.51
625.59	51.49
625.74	88.94
625.89	79.58
626.04	65.54
626.19	184.90
626.34	0.00
626.49	93.62
626.65	30.43
626.80	100.64
626.95	7.02
627.10	72.56
627.25	81.92
627.40	44.47
627.55	46.81
627.70	28.09
627.85	51.49
628.00	77.24
628.15	65.54
628.30	117.03
628.45	70.22
628.60	49.15
628.76	112.35
628.91	74.90
629.06	72.56
629.21	72.56
629.36	42.13
629.51	9.36
629.66	70.22
629.81	128.73
629.96	0.00
630.11	67.88
630.26	0.00
630.41	100.64
630.56	79.58
630.71	46.81
630.86	67.88
631.01	93.62
631.16	23.41
631.31	39.79
631.46	77.24
631.61	86.60
631.76	93.62
631.91	81.92
632.06	86.60
632.21	42.13
632.36	58.51
632.51	0.00
632.66	131.07
632.81	63.19
632.96	28.09
633.10	93.62
633.25	46.81
633.40	72.56
633.55	105.32
633.70	0.00
633.85	7.02
634.00	0.00
634.15	149.79
634.30	42.13
634.45	107.66
634.60	46.81
634.75	112.35
634.90	65.54
635.05	11.70
635.19	77.24
635.34	23.41
635.49	86.60
635.64	93.62
635.79	91.28
635.94	49.15
636.09	51.49
636.24	77.24
636.39	84.26
636.53	23.41
636.68	7.02
636.83	44.47
636.98	53.83
637.13	81.92
637.28	53.83
637.43	105.32
637.57	44.47
637.72	32.77
637.87	42.13
638.02	9.36
638.17	133.41
638.32	35.11
638.46	95.96
638.61	102.98
638.76	140.43
638.91	74.90
639.06	25.75
639.20	0.00
639.35	53.83
639.50	58.51
639.65	74.90
639.80	46.81
639.94	60.85
640.09	84.26
640.24	35.11
640.39	81.92
640.54	4.68
640.68	11.70
640.83	67.88
640.98	44.47
641.13	100.64
641.27	58.51
641.42	95.96
641.57	23.41
641.72	117.03
641.86	23.41
642.01	0.00
642.16	93.62
642.31	100.64
642.45	74.90
642.60	39.79
642.75	42.13
642.90	30.43
643.04	21.06
643.19	72.56
643.34	110.01
643.48	46.81
643.63	37.45
643.78	28.09
643.93	124.05
644.07	39.79
644.22	102.98
644.37	0.00
644.51	32.77
644.66	58.51
644.81	30.43
644.95	70.22
645.10	49.15
645.25	44.47
645.39	84.26
645.54	11.70
645.69	56.17
645.83	79.58
645.98	74.90
646.13	35.11
646.27	32.77
646.42	67.88
646.57	107.66
646.71	84.26
646.86	44.47
647.00	70.22
647.15	16.38
647.30	117.03
647.44	70.22
647.59	42.13
647.74	147.45
647.88	9.36
648.03	93.62
648.17	88.94
648.32	74.90
648.47	121.71
648.61	149.79
648.76	42.13
648.90	11.70
649.05	23.41
649.20	91.28
649.34	88.94
649.49	30.43
649.63	72.56
649.78	126.39
649.92	79.58
650.07	28.09
650.21	107.66
650.36	63.19
650.51	37.45
650.65	93.62
650.80	0.00
650.94	77.24
651.09	70.22
651.23	51.49
651.38	9.36
651.52	39.79
651.67	51.49
651.81	74.90
651.96	16.38
652.10	28.09
652.25	77.24
652.39	95.96
652.54	95.96
652.68	0.00
652.83	39.79
652.97	28.09
653.12	49.15
653.26	84.26
653.41	39.79
653.55	37.45
653.70	25.75
653.84	95.96
653.99	98.30
654.13	100.64
654.27	0.00
654.42	4.68
654.56	56.17
654.71	0.00
654.85	28.09
655.00	84.26
655.14	0.00
655.29	0.00
655.43	46.81
655.57	7.02
655.72	30.43
655.86	74.90
656.01	44.47
656.15	30.43
656.30	18.72
656.44	51.49
656.58	0.00
656.73	0.00
656.87	25.75
657.01	32.77
657.16	67.88
657.30	53.83
657.45	25.75
657.59	58.51
657.73	88.94
657.88	65.54
658.02	138.09
658.16	95.96
658.31	32.77
658.45	30.43
658.60	4.68
658.74	102.98
658.88	28.09
659.03	16.38
659.17	65.54
659.31	53.83
659.46	77.24
659.60	25.75
659.74	42.13
659.89	23.41
660.03	60.85
660.17	39.79
660.32	30.43
660.46	60.85
660.60	147.45
660.74	110.01
660.89	14.04
661.03	30.43
661.17	14.04
661.32	84.26
661.46	49.15
661.60	11.70
661.74	0.00
661.89	0.00
662.03	21.06
662.17	56.17
662.31	117.03
662.46	35.11
662.60	95.96
662.74	93.62
662.88	72.56
663.03	58.51
663.17	53.83
663.31	0.00
663.45	49.15
663.60	9.36
663.74	51.49
663.88	25.75
664.02	44.47
664.17	65.54
664.31	0.00
664.45	86.60
664.59	56.17
664.73	42.13
664.88	70.22
665.02	49.15
665.16	16.38
665.30	44.47
665.44	86.60
665.59	58.51
665.73	46.81
665.87	49.15
666.01	23.41
666.15	0.00
666.29	39.79
666.44	74.90
666.58	93.62
666.72	4.68
666.86	37.45
667.00	84.26
667.14	72.56
667.28	4.68
667.43	74.90
667.57	74.90
667.71	30.43
667.85	44.47
667.99	16.38
668.13	63.19
668.27	86.60
668.41	42.13
668.56	9.36
668.70	30.43
668.84	11.70
668.98	44.47
669.12	7.02
669.26	11.70
669.40	0.00
669.54	46.81
669.68	23.41
669.82	23.41
669.96	100.64
670.10	98.30
670.25	119.37
670.39	84.26
670.53	0.00
670.67	95.96
670.81	77.24
670.95	70.22
671.09	25.75
671.23	23.41
671.37	84.26
671.51	35.11
671.65	49.15
671.79	65.54
671.93	42.13
672.07	39.79
672.21	4.68
672.35	74.90
672.49	56.17
672.63	0.00
672.77	11.70
672.91	86.60
673.05	11.70
673.19	51.49
673.33	0.00
673.47	72.56
673.61	74.90
673.75	0.00
673.89	14.04
674.03	53.83
674.17	0.00
674.31	53.83
674.45	0.00
674.59	42.13
674.73	60.85
674.87	84.26
675.01	86.60
675.15	77.24
675.29	51.49
675.43	46.81
675.56	0.00
675.70	37.45
675.84	86.60
675.98	58.51
676.12	18.72
676.26	44.47
676.40	53.83
676.54	0.00
676.68	16.38
676.82	110.01
676.96	42.13
677.10	72.56
677.23	93.62
677.37	100.64
677.51	23.41
677.65	77.24
677.79	88.94
677.93	91.28
678.07	28.09
678.21	0.00
678.34	32.77
678.48	28.09
678.62	77.24
678.76	65.54
678.90	46.81
679.04	56.17
679.18	18.72
679.31	42.13
679.45	44.47
679.59	105.32
679.73	88.94
679.87	39.79
680.00	79.58
680.14	70.22
680.28	53.83
680.42	53.83
680.56	0.00
680.70	46.81
680.83	49.15
680.97	70.22
681.11	65.54
681.25	0.00
681.39	126.39
681.52	65.54
681.66	86.60
681.80	49.15
681.94	44.47
682.07	42.13
682.21	28.09
682.35	74.90
682.49	21.06
682.62	119.37
682.76	44.47
682.90	11.70
683.04	11.70
683.17	16.38
683.31	117.03
683.45	0.00
683.59	74.90
683.72	93.62
683.86	28.09
684.00	4.68
684.13	65.54
684.27	86.60
684.41	25.75
684.55	70.22
684.68	93.62
684.82	21.06
684.96	16.38
685.09	2.34
685.23	11.70
685.37	56.17
685.50	39.79
685.64	91.28
685.78	0.00
685.91	42.13
686.05	9.36
686.19	18.72
686.32	121.71
686.46	91.28
686.60	2.34
686.73	86.60
686.87	30.43
687.01	16.38
687.14	79.58
687.28	88.94
687.42	98.30
687.55	0.00
687.69	77.24
687.82	39.79
687.96	18.72
688.10	84.26
688.23	9.36
688.37	0.00
688.50	65.54
688.64	0.00
688.78	35.11
688.91	0.00
689.05	86.60
689.18	28.09
689.32	18.72
689.46	9.36
689.59	16.38
689.73	72.56
689.86	63.19
690.00	63.19
690.13	37.45
690.27	21.06
690.41	21.06
690.54	53.83
690.68	35.11
690.81	107.66
690.95	46.81
691.08	53.83
691.22	77.24
691.35	7.02
691.49	98.30
691.62	100.64
691.76	56.17
691.89	74.90
692.03	28.09
692.16	0.00
692.30	51.49
692.43	79.58
692.57	67.88
692.70	88.94
692.84	39.79
692.97	32.77
693.11	49.15
693.24	39.79
693.38	86.60
693.51	42.13
693.65	4.68
693.78	0.00
693.92	25.75
694.05	14.04
694.19	30.43
694.32	14.04
694.45	63.19
694.59	42.13
694.72	46.81
694.86	0.00
694.99	77.24
695.13	25.75
695.26	0.00
695.39	30.43
695.53	77.24
695.66	25.75
695.80	91.28
695.93	18.72
696.07	79.58
696.20	39.79
696.33	67.88
696.47	25.75
696.60	0.00
696.73	49.15
696.87	0.00
697.00	81.92
697.14	100.64
697.27	88.94
697.40	30.43
697.54	39.79
697.67	16.38
697.80	0.00
697.94	23.41
698.07	30.43
698.21	0.00
698.34	0.00
698.47	105.32
698.61	0.00
698.74	67.88
698.87	60.85
699.01	32.77
699.14	42.13
699.27	46.81
699.40	154.48
699.54	25.75
699.67	0.00
699.80	39.79
699.94	81.92
700.07	2.34
700.20	51.49
700.34	100.64
700.47	145.11
700.60	0.00
700.73	39.79
700.87	88.94
701.00	93.62
701.13	65.54
701.26	7.02
701.40	0.00
701.53	0.00
701.66	2.34
701.79	9.36
701.93	7.02
702.06	91.28
702.19	32.77
702.32	58.51
702.46	0.00
702.59	4.68
702.72	0.00
702.85	88.94
702.99	100.64
703.12	39.79
703.25	63.19
703.38	0.00
703.51	11.70
703.65	37.45
703.78	0.00
703.91	63.19
704.04	147.45
704.17	39.79
704.31	16.38
704.44	0.00
704.57	46.81
704.70	51.49
704.83	65.54
704.96	4.68
705.10	98.30
705.23	7.02
>>>>>End Processed Spectral Data<<<<<
