SpectraSuite Data File
++++++++++++++++++++++++++++++++++++
Date: Fri Oct 04 12:13:43 GMT-05:00 2013
User: price-jones
Dark Spectrum Present: No
Reference Spectrum Present: No
Number of Sampled Component Spectra: 1
Spectrometers: USB2+H05261
Integration Time (usec): 10000 (USB2+H05261)
Spectra Averaged: 1 (USB2+H05261)
Boxcar Smoothing: 0 (USB2+H05261)
Correct for Electrical Dark: No (USB2+H05261)
Strobe/Lamp Enabled: No (USB2+H05261)
Correct for Detector Non-linearity: No (USB2+H05261)
Correct for Stray Light: No (USB2+H05261)
Number of Pixels in Processed Spectrum: 2048
>>>>>Begin Processed Spectral Data<<<<<
365.73	0.00
365.92	0.00
366.12	0.00
366.32	0.00
366.52	0.00
366.72	0.00
366.91	0.00
367.11	0.00
367.31	0.00
367.51	0.00
367.70	0.00
367.90	0.00
368.10	0.00
368.30	0.00
368.49	0.00
368.69	0.00
368.89	0.00
369.09	0.00
369.28	0.00
369.48	0.00
369.68	0.00
369.87	0.00
370.07	0.00
370.27	0.00
370.47	0.00
370.66	9.36
370.86	0.00
371.06	0.00
371.25	0.00
371.45	9.36
371.65	0.00
371.84	0.00
372.04	32.77
372.24	11.70
372.44	4.68
372.63	0.00
372.83	46.81
373.03	74.90
373.22	88.94
373.42	30.43
373.62	35.11
373.81	84.26
374.01	0.00
374.21	84.26
374.40	0.00
374.60	37.45
374.79	77.24
374.99	77.24
375.19	7.02
375.38	0.00
375.58	51.49
375.78	14.04
375.97	65.54
376.17	88.94
376.37	0.00
376.56	0.00
376.76	51.49
376.95	0.00
377.15	2.34
377.35	0.00
377.54	49.15
377.74	18.72
377.93	91.28
378.13	0.00
378.33	2.34
378.52	0.00
378.72	23.41
378.91	53.83
379.11	58.51
379.31	0.00
379.50	42.13
379.70	11.70
379.89	0.00
380.09	53.83
380.28	37.45
380.48	2.34
380.68	58.51
380.87	23.41
381.07	70.22
381.26	0.00
381.46	98.30
381.65	0.00
381.85	4.68
382.04	0.00
382.24	0.00
382.43	74.90
382.63	7.02
382.83	37.45
383.02	30.43
383.22	32.77
383.41	25.75
383.61	63.19
383.80	28.09
384.00	32.77
384.19	14.04
384.39	0.00
384.58	56.17
384.78	67.88
384.97	44.47
385.17	63.19
385.36	23.41
385.56	0.00
385.75	65.54
385.95	0.00
386.14	51.49
386.34	14.04
386.53	30.43
386.72	0.00
386.92	81.92
387.11	35.11
387.31	0.00
387.50	4.68
387.70	9.36
387.89	60.85
388.09	35.11
388.28	30.43
388.48	0.00
388.67	0.00
388.86	21.06
389.06	0.00
389.25	42.13
389.45	18.72
389.64	0.00
389.84	51.49
390.03	67.88
390.22	63.19
390.42	121.71
390.61	65.54
390.81	0.00
391.00	86.60
391.19	42.13
391.39	81.92
391.58	0.00
391.78	0.00
391.97	60.85
392.16	72.56
392.36	0.00
392.55	18.72
392.75	0.00
392.94	0.00
393.13	9.36
393.33	16.38
393.52	0.00
393.71	0.00
393.91	51.49
394.10	102.98
394.29	53.83
394.49	0.00
394.68	0.00
394.88	46.81
395.07	95.96
395.26	42.13
395.46	30.43
395.65	0.00
395.84	0.00
396.04	39.79
396.23	21.06
396.42	23.41
396.62	95.96
396.81	28.09
397.00	4.68
397.19	35.11
397.39	74.90
397.58	63.19
397.77	0.00
397.97	93.62
398.16	51.49
398.35	67.88
398.55	30.43
398.74	0.00
398.93	18.72
399.12	37.45
399.32	56.17
399.51	58.51
399.70	32.77
399.90	0.00
400.09	9.36
400.28	32.77
400.47	0.00
400.67	56.17
400.86	14.04
401.05	65.54
401.24	2.34
401.44	16.38
401.63	7.02
401.82	11.70
402.01	56.17
402.21	9.36
402.40	2.34
402.59	37.45
402.78	0.00
402.97	74.90
403.17	18.72
403.36	74.90
403.55	35.11
403.74	51.49
403.93	93.62
404.13	0.00
404.32	0.00
404.51	4.68
404.70	53.83
404.89	11.70
405.09	0.00
405.28	28.09
405.47	28.09
405.66	32.77
405.85	35.11
406.05	46.81
406.24	30.43
406.43	14.04
406.62	2.34
406.81	35.11
407.00	98.30
407.20	0.00
407.39	91.28
407.58	32.77
407.77	60.85
407.96	18.72
408.15	23.41
408.34	11.70
408.54	58.51
408.73	93.62
408.92	77.24
409.11	0.00
409.30	0.00
409.49	14.04
409.68	7.02
409.87	0.00
410.07	0.00
410.26	0.00
410.45	35.11
410.64	77.24
410.83	56.17
411.02	0.00
411.21	72.56
411.40	14.04
411.59	4.68
411.78	53.83
411.98	21.06
412.17	53.83
412.36	25.75
412.55	0.00
412.74	42.13
412.93	32.77
413.12	4.68
413.31	63.19
413.50	30.43
413.69	0.00
413.88	0.00
414.07	95.96
414.26	56.17
414.45	14.04
414.64	39.79
414.83	39.79
415.02	0.00
415.22	14.04
415.41	0.00
415.60	11.70
415.79	0.00
415.98	49.15
416.17	21.06
416.36	0.00
416.55	30.43
416.74	18.72
416.93	0.00
417.12	79.58
417.31	28.09
417.50	79.58
417.69	79.58
417.88	81.92
418.07	23.41
418.26	51.49
418.45	35.11
418.64	51.49
418.83	60.85
419.02	81.92
419.21	0.00
419.39	18.72
419.58	0.00
419.77	28.09
419.96	46.81
420.15	39.79
420.34	16.38
420.53	110.01
420.72	51.49
420.91	42.13
421.10	70.22
421.29	117.03
421.48	44.47
421.67	49.15
421.86	32.77
422.05	0.00
422.24	77.24
422.43	72.56
422.61	56.17
422.80	91.28
422.99	0.00
423.18	9.36
423.37	74.90
423.56	11.70
423.75	25.75
423.94	102.98
424.13	42.13
424.32	42.13
424.50	65.54
424.69	7.02
424.88	86.60
425.07	0.00
425.26	30.43
425.45	56.17
425.64	28.09
425.83	0.00
426.01	65.54
426.20	0.00
426.39	58.51
426.58	65.54
426.77	30.43
426.96	2.34
427.15	51.49
427.33	21.06
427.52	67.88
427.71	14.04
427.90	100.64
428.09	51.49
428.28	0.00
428.46	0.00
428.65	70.22
428.84	14.04
429.03	16.38
429.22	93.62
429.40	32.77
429.59	39.79
429.78	2.34
429.97	0.00
430.16	35.11
430.34	58.51
430.53	86.60
430.72	30.43
430.91	44.47
431.10	53.83
431.28	42.13
431.47	56.17
431.66	56.17
431.85	37.45
432.03	21.06
432.22	0.00
432.41	30.43
432.60	16.38
432.79	30.43
432.97	77.24
433.16	88.94
433.35	42.13
433.54	35.11
433.72	51.49
433.91	112.35
434.10	53.83
434.28	112.35
434.47	23.41
434.66	32.77
434.85	42.13
435.03	16.38
435.22	23.41
435.41	81.92
435.59	128.73
435.78	39.79
435.97	0.00
436.16	0.00
436.34	56.17
436.53	44.47
436.72	98.30
436.90	0.00
437.09	56.17
437.28	51.49
437.46	46.81
437.65	100.64
437.84	56.17
438.02	16.38
438.21	0.00
438.40	93.62
438.58	16.38
438.77	30.43
438.96	28.09
439.14	110.01
439.33	65.54
439.52	65.54
439.70	42.13
439.89	105.32
440.08	74.90
440.26	93.62
440.45	74.90
440.63	32.77
440.82	46.81
441.01	53.83
441.19	28.09
441.38	81.92
441.57	74.90
441.75	74.90
441.94	79.58
442.12	58.51
442.31	65.54
442.50	131.07
442.68	51.49
442.87	9.36
443.05	0.00
443.24	60.85
443.43	39.79
443.61	0.00
443.80	86.60
443.98	93.62
444.17	28.09
444.35	84.26
444.54	32.77
444.73	11.70
444.91	105.32
445.10	58.51
445.28	32.77
445.47	42.13
445.65	23.41
445.84	39.79
446.02	4.68
446.21	105.32
446.39	18.72
446.58	65.54
446.77	74.90
446.95	93.62
447.14	28.09
447.32	107.66
447.51	0.00
447.69	32.77
447.88	58.51
448.06	51.49
448.25	60.85
448.43	65.54
448.62	60.85
448.80	28.09
448.99	7.02
449.17	56.17
449.36	49.15
449.54	42.13
449.73	18.72
449.91	4.68
450.10	9.36
450.28	51.49
450.46	46.81
450.65	32.77
450.83	79.58
451.02	63.19
451.20	81.92
451.39	65.54
451.57	58.51
451.76	72.56
451.94	72.56
452.13	65.54
452.31	0.00
452.49	98.30
452.68	72.56
452.86	21.06
453.05	74.90
453.23	110.01
453.42	39.79
453.60	63.19
453.78	37.45
453.97	39.79
454.15	42.13
454.34	91.28
454.52	37.45
454.70	39.79
454.89	72.56
455.07	60.85
455.26	74.90
455.44	23.41
455.62	63.19
455.81	56.17
455.99	21.06
456.17	84.26
456.36	0.00
456.54	79.58
456.73	86.60
456.91	91.28
457.09	72.56
457.28	16.38
457.46	46.81
457.64	21.06
457.83	107.66
458.01	77.24
458.19	7.02
458.38	95.96
458.56	81.92
458.74	25.75
458.93	93.62
459.11	65.54
459.29	70.22
459.48	60.85
459.66	70.22
459.84	18.72
460.03	53.83
460.21	74.90
460.39	42.13
460.57	98.30
460.76	117.03
460.94	100.64
461.12	119.37
461.31	102.98
461.49	95.96
461.67	124.05
461.85	28.09
462.04	110.01
462.22	28.09
462.40	39.79
462.59	37.45
462.77	81.92
462.95	70.22
463.13	23.41
463.32	84.26
463.50	119.37
463.68	0.00
463.86	39.79
464.05	86.60
464.23	93.62
464.41	67.88
464.59	23.41
464.78	44.47
464.96	133.41
465.14	4.68
465.32	77.24
465.50	102.98
465.69	44.47
465.87	60.85
466.05	67.88
466.23	42.13
466.41	56.17
466.60	63.19
466.78	23.41
466.96	91.28
467.14	32.77
467.32	16.38
467.51	0.00
467.69	53.83
467.87	79.58
468.05	63.19
468.23	93.62
468.41	114.69
468.60	32.77
468.78	49.15
468.96	42.13
469.14	7.02
469.32	2.34
469.50	102.98
469.69	67.88
469.87	11.70
470.05	21.06
470.23	86.60
470.41	77.24
470.59	128.73
470.77	126.39
470.95	86.60
471.14	56.17
471.32	95.96
471.50	60.85
471.68	32.77
471.86	23.41
472.04	0.00
472.22	30.43
472.40	128.73
472.58	70.22
472.77	0.00
472.95	39.79
473.13	107.66
473.31	49.15
473.49	14.04
473.67	98.30
473.85	74.90
474.03	98.30
474.21	51.49
474.39	0.00
474.57	21.06
474.75	56.17
474.93	65.54
475.12	56.17
475.30	23.41
475.48	30.43
475.66	14.04
475.84	42.13
476.02	53.83
476.20	18.72
476.38	0.00
476.56	44.47
476.74	4.68
476.92	4.68
477.10	79.58
477.28	51.49
477.46	65.54
477.64	121.71
477.82	88.94
478.00	39.79
478.18	88.94
478.36	32.77
478.54	28.09
478.72	114.69
478.90	81.92
479.08	0.00
479.26	9.36
479.44	56.17
479.62	114.69
479.80	128.73
479.98	72.56
480.16	128.73
480.34	35.11
480.52	60.85
480.70	67.88
480.88	67.88
481.06	67.88
481.24	81.92
481.41	84.26
481.59	95.96
481.77	60.85
481.95	60.85
482.13	28.09
482.31	84.26
482.49	23.41
482.67	25.75
482.85	58.51
483.03	81.92
483.21	77.24
483.39	46.81
483.57	124.05
483.74	79.58
483.92	65.54
484.10	39.79
484.28	95.96
484.46	72.56
484.64	100.64
484.82	28.09
485.00	0.00
485.18	0.00
485.35	18.72
485.53	32.77
485.71	44.47
485.89	65.54
486.07	51.49
486.25	86.60
486.43	81.92
486.61	39.79
486.78	110.01
486.96	39.79
487.14	107.66
487.32	49.15
487.50	16.38
487.68	67.88
487.85	93.62
488.03	93.62
488.21	110.01
488.39	63.19
488.57	56.17
488.75	60.85
488.92	140.43
489.10	51.49
489.28	44.47
489.46	81.92
489.64	39.79
489.81	30.43
489.99	95.96
490.17	77.24
490.35	86.60
490.53	105.32
490.70	44.47
490.88	159.16
491.06	67.88
491.24	88.94
491.41	184.90
491.59	56.17
491.77	46.81
491.95	112.35
492.13	91.28
492.30	39.79
492.48	56.17
492.66	46.81
492.84	119.37
493.01	91.28
493.19	88.94
493.37	70.22
493.54	95.96
493.72	86.60
493.90	23.41
494.08	7.02
494.25	37.45
494.43	44.47
494.61	77.24
494.79	37.45
494.96	77.24
495.14	124.05
495.32	112.35
495.49	107.66
495.67	128.73
495.85	105.32
496.02	58.51
496.20	25.75
496.38	133.41
496.55	95.96
496.73	86.60
496.91	42.13
497.09	49.15
497.26	88.94
497.44	100.64
497.62	91.28
497.79	100.64
497.97	135.75
498.14	77.24
498.32	88.94
498.50	168.52
498.67	147.45
498.85	46.81
499.03	70.22
499.20	72.56
499.38	56.17
499.56	65.54
499.73	51.49
499.91	67.88
500.08	77.24
500.26	121.71
500.44	35.11
500.61	98.30
500.79	128.73
500.97	44.47
501.14	0.00
501.32	0.00
501.49	79.58
501.67	25.75
501.84	117.03
502.02	154.48
502.20	98.30
502.37	44.47
502.55	105.32
502.72	112.35
502.90	23.41
503.07	35.11
503.25	42.13
503.43	9.36
503.60	35.11
503.78	105.32
503.95	163.84
504.13	42.13
504.30	37.45
504.48	37.45
504.65	65.54
504.83	81.92
505.01	30.43
505.18	0.00
505.36	119.37
505.53	51.49
505.71	81.92
505.88	67.88
506.06	67.88
506.23	77.24
506.41	42.13
506.58	86.60
506.76	124.05
506.93	42.13
507.11	86.60
507.28	37.45
507.46	105.32
507.63	37.45
507.81	0.00
507.98	65.54
508.16	128.73
508.33	110.01
508.50	58.51
508.68	51.49
508.85	133.41
509.03	105.32
509.20	107.66
509.38	72.56
509.55	81.92
509.73	107.66
509.90	79.58
510.08	105.32
510.25	117.03
510.42	16.38
510.60	0.00
510.77	93.62
510.95	44.47
511.12	121.71
511.30	70.22
511.47	79.58
511.64	93.62
511.82	39.79
511.99	37.45
512.17	124.05
512.34	95.96
512.51	145.11
512.69	102.98
512.86	126.39
513.04	51.49
513.21	159.16
513.38	60.85
513.56	14.04
513.73	170.86
513.90	112.35
514.08	126.39
514.25	114.69
514.43	105.32
514.60	81.92
514.77	145.11
514.95	112.35
515.12	95.96
515.29	49.15
515.47	72.56
515.64	56.17
515.81	114.69
515.99	88.94
516.16	131.07
516.33	44.47
516.51	39.79
516.68	0.00
516.85	86.60
517.03	28.09
517.20	0.00
517.37	102.98
517.54	49.15
517.72	81.92
517.89	159.16
518.06	56.17
518.24	79.58
518.41	105.32
518.58	60.85
518.75	86.60
518.93	65.54
519.10	56.17
519.27	65.54
519.45	46.81
519.62	79.58
519.79	126.39
519.96	65.54
520.14	81.92
520.31	93.62
520.48	128.73
520.65	133.41
520.83	39.79
521.00	88.94
521.17	98.30
521.34	152.13
521.52	107.66
521.69	81.92
521.86	74.90
522.03	65.54
522.20	105.32
522.38	58.51
522.55	65.54
522.72	131.07
522.89	119.37
523.07	212.99
523.24	44.47
523.41	18.72
523.58	53.83
523.75	42.13
523.92	131.07
524.10	126.39
524.27	42.13
524.44	21.06
524.61	102.98
524.78	110.01
524.96	112.35
525.13	67.88
525.30	70.22
525.47	74.90
525.64	65.54
525.81	60.85
525.98	77.24
526.16	124.05
526.33	60.85
526.50	72.56
526.67	0.00
526.84	112.35
527.01	37.45
527.18	4.68
527.36	98.30
527.53	32.77
527.70	86.60
527.87	49.15
528.04	81.92
528.21	121.71
528.38	84.26
528.55	35.11
528.72	91.28
528.89	100.64
529.07	88.94
529.24	30.43
529.41	70.22
529.58	88.94
529.75	65.54
529.92	95.96
530.09	91.28
530.26	84.26
530.43	53.83
530.60	28.09
530.77	53.83
530.94	21.06
531.11	65.54
531.28	110.01
531.46	110.01
531.63	107.66
531.80	56.17
531.97	114.69
532.14	30.43
532.31	128.73
532.48	67.88
532.65	105.32
532.82	72.56
532.99	58.51
533.16	51.49
533.33	58.51
533.50	79.58
533.67	37.45
533.84	102.98
534.01	35.11
534.18	121.71
534.35	128.73
534.52	79.58
534.69	121.71
534.86	112.35
535.03	81.92
535.20	0.00
535.37	114.69
535.54	42.13
535.71	53.83
535.88	133.41
536.05	93.62
536.22	0.00
536.38	93.62
536.55	98.30
536.72	67.88
536.89	105.32
537.06	124.05
537.23	112.35
537.40	135.75
537.57	88.94
537.74	95.96
537.91	88.94
538.08	67.88
538.25	102.98
538.42	98.30
538.59	58.51
538.75	30.43
538.92	51.49
539.09	105.32
539.26	145.11
539.43	110.01
539.60	42.13
539.77	121.71
539.94	60.85
540.11	81.92
540.28	135.75
540.44	70.22
540.61	110.01
540.78	74.90
540.95	74.90
541.12	65.54
541.29	42.13
541.46	114.69
541.62	44.47
541.79	107.66
541.96	147.45
542.13	119.37
542.30	138.09
542.47	105.32
542.63	102.98
542.80	88.94
542.97	67.88
543.14	91.28
543.31	117.03
543.48	121.71
543.64	100.64
543.81	88.94
543.98	112.35
544.15	88.94
544.32	121.71
544.48	126.39
544.65	46.81
544.82	30.43
544.99	98.30
545.16	84.26
545.32	117.03
545.49	102.98
545.66	51.49
545.83	51.49
546.00	110.01
546.16	117.03
546.33	60.85
546.50	84.26
546.67	35.11
546.83	79.58
547.00	70.22
547.17	88.94
547.34	70.22
547.50	60.85
547.67	56.17
547.84	124.05
548.00	84.26
548.17	32.77
548.34	93.62
548.51	70.22
548.67	110.01
548.84	72.56
549.01	4.68
549.18	138.09
549.34	147.45
549.51	107.66
549.68	72.56
549.84	39.79
550.01	88.94
550.18	88.94
550.34	30.43
550.51	79.58
550.68	152.13
550.84	102.98
551.01	21.06
551.18	100.64
551.34	81.92
551.51	79.58
551.68	70.22
551.84	56.17
552.01	166.18
552.18	154.48
552.34	156.82
552.51	79.58
552.68	79.58
552.84	14.04
553.01	77.24
553.18	32.77
553.34	100.64
553.51	95.96
553.67	91.28
553.84	126.39
554.01	49.15
554.17	100.64
554.34	110.01
554.51	46.81
554.67	67.88
554.84	145.11
555.00	35.11
555.17	53.83
555.33	98.30
555.50	70.22
555.67	77.24
555.83	63.19
556.00	74.90
556.16	110.01
556.33	110.01
556.50	133.41
556.66	63.19
556.83	77.24
556.99	81.92
557.16	135.75
557.32	110.01
557.49	138.09
557.65	30.43
557.82	95.96
557.98	121.71
558.15	161.50
558.32	74.90
558.48	37.45
558.65	28.09
558.81	135.75
558.98	72.56
559.14	102.98
559.31	58.51
559.47	117.03
559.64	0.00
559.80	65.54
559.97	117.03
560.13	30.43
560.30	91.28
560.46	140.43
560.63	35.11
560.79	138.09
560.96	100.64
561.12	124.05
561.29	79.58
561.45	84.26
561.61	81.92
561.78	67.88
561.94	81.92
562.11	79.58
562.27	74.90
562.44	35.11
562.60	23.41
562.77	67.88
562.93	72.56
563.10	149.79
563.26	95.96
563.42	117.03
563.59	102.98
563.75	60.85
563.92	112.35
564.08	147.45
564.24	88.94
564.41	91.28
564.57	60.85
564.74	102.98
564.90	161.50
565.07	49.15
565.23	114.69
565.39	84.26
565.56	70.22
565.72	95.96
565.88	63.19
566.05	58.51
566.21	117.03
566.38	77.24
566.54	133.41
566.70	42.13
566.87	70.22
567.03	100.64
567.19	49.15
567.36	84.26
567.52	21.06
567.68	112.35
567.85	98.30
568.01	91.28
568.17	84.26
568.34	72.56
568.50	63.19
568.66	58.51
568.83	114.69
568.99	102.98
569.15	72.56
569.32	98.30
569.48	58.51
569.64	79.58
569.81	102.98
569.97	128.73
570.13	117.03
570.30	79.58
570.46	77.24
570.62	95.96
570.78	133.41
570.95	53.83
571.11	86.60
571.27	81.92
571.43	16.38
571.60	42.13
571.76	79.58
571.92	42.13
572.09	95.96
572.25	91.28
572.41	23.41
572.57	79.58
572.74	37.45
572.90	37.45
573.06	42.13
573.22	63.19
573.38	107.66
573.55	65.54
573.71	51.49
573.87	105.32
574.03	98.30
574.20	49.15
574.36	102.98
574.52	119.37
574.68	119.37
574.84	39.79
575.01	74.90
575.17	46.81
575.33	16.38
575.49	173.20
575.65	72.56
575.82	0.00
575.98	98.30
576.14	42.13
576.30	91.28
576.46	86.60
576.62	128.73
576.79	128.73
576.95	98.30
577.11	119.37
577.27	131.07
577.43	21.06
577.59	44.47
577.75	105.32
577.92	65.54
578.08	105.32
578.24	93.62
578.40	114.69
578.56	147.45
578.72	51.49
578.88	44.47
579.04	88.94
579.21	117.03
579.37	100.64
579.53	18.72
579.69	128.73
579.85	84.26
580.01	74.90
580.17	28.09
580.33	51.49
580.49	42.13
580.65	0.00
580.82	32.77
580.98	63.19
581.14	67.88
581.30	84.26
581.46	58.51
581.62	53.83
581.78	70.22
581.94	140.43
582.10	121.71
582.26	70.22
582.42	114.69
582.58	60.85
582.74	35.11
582.90	49.15
583.06	107.66
583.22	102.98
583.38	56.17
583.54	35.11
583.70	112.35
583.86	51.49
584.02	35.11
584.18	166.18
584.34	28.09
584.50	107.66
584.66	74.90
584.82	49.15
584.98	16.38
585.14	100.64
585.30	74.90
585.46	53.83
585.62	81.92
585.78	102.98
585.94	140.43
586.10	51.49
586.26	72.56
586.42	79.58
586.58	74.90
586.74	44.47
586.90	7.02
587.06	93.62
587.22	117.03
587.38	67.88
587.54	44.47
587.70	70.22
587.86	2.34
588.02	65.54
588.18	28.09
588.34	9.36
588.49	44.47
588.65	60.85
588.81	77.24
588.97	37.45
589.13	32.77
589.29	18.72
589.45	28.09
589.61	51.49
589.77	32.77
589.93	49.15
590.08	18.72
590.24	102.98
590.40	84.26
590.56	84.26
590.72	60.85
590.88	42.13
591.04	81.92
591.20	79.58
591.35	49.15
591.51	105.32
591.67	126.39
591.83	67.88
591.99	70.22
592.15	37.45
592.31	39.79
592.46	84.26
592.62	23.41
592.78	67.88
592.94	2.34
593.10	32.77
593.26	35.11
593.41	84.26
593.57	105.32
593.73	131.07
593.89	9.36
594.05	49.15
594.20	98.30
594.36	152.13
594.52	11.70
594.68	93.62
594.84	30.43
594.99	117.03
595.15	91.28
595.31	112.35
595.47	107.66
595.62	37.45
595.78	88.94
595.94	72.56
596.10	107.66
596.25	74.90
596.41	65.54
596.57	86.60
596.73	37.45
596.88	65.54
597.04	86.60
597.20	142.77
597.36	46.81
597.51	119.37
597.67	95.96
597.83	44.47
597.99	140.43
598.14	91.28
598.30	0.00
598.46	74.90
598.61	65.54
598.77	49.15
598.93	30.43
599.09	4.68
599.24	67.88
599.40	25.75
599.56	91.28
599.71	84.26
599.87	72.56
600.03	18.72
600.18	77.24
600.34	84.26
600.50	100.64
600.65	79.58
600.81	32.77
600.97	63.19
601.12	56.17
601.28	140.43
601.44	88.94
601.59	114.69
601.75	37.45
601.91	86.60
602.06	53.83
602.22	63.19
602.37	84.26
602.53	74.90
602.69	79.58
602.84	58.51
603.00	88.94
603.16	65.54
603.31	35.11
603.47	65.54
603.62	35.11
603.78	84.26
603.94	49.15
604.09	84.26
604.25	39.79
604.40	152.13
604.56	107.66
604.71	51.49
604.87	37.45
605.03	98.30
605.18	121.71
605.34	117.03
605.49	126.39
605.65	37.45
605.80	128.73
605.96	42.13
606.12	98.30
606.27	84.26
606.43	30.43
606.58	16.38
606.74	32.77
606.89	152.13
607.05	100.64
607.20	32.77
607.36	11.70
607.51	37.45
607.67	81.92
607.82	72.56
607.98	100.64
608.13	117.03
608.29	0.00
608.44	138.09
608.60	70.22
608.75	53.83
608.91	77.24
609.06	95.96
609.22	124.05
609.37	98.30
609.53	112.35
609.68	72.56
609.84	0.00
609.99	63.19
610.15	65.54
610.30	67.88
610.46	72.56
610.61	70.22
610.76	65.54
610.92	70.22
611.07	98.30
611.23	28.09
611.38	114.69
611.54	117.03
611.69	58.51
611.84	67.88
612.00	32.77
612.15	37.45
612.31	46.81
612.46	63.19
612.62	91.28
612.77	140.43
612.92	51.49
613.08	77.24
613.23	65.54
613.39	67.88
613.54	11.70
613.69	53.83
613.85	100.64
614.00	65.54
614.15	16.38
614.31	72.56
614.46	124.05
614.62	95.96
614.77	72.56
614.92	81.92
615.08	4.68
615.23	91.28
615.38	2.34
615.54	35.11
615.69	44.47
615.84	2.34
616.00	49.15
616.15	56.17
616.30	37.45
616.46	63.19
616.61	70.22
616.76	56.17
616.92	77.24
617.07	60.85
617.22	35.11
617.37	95.96
617.53	67.88
617.68	60.85
617.83	110.01
617.99	37.45
618.14	81.92
618.29	51.49
618.45	84.26
618.60	81.92
618.75	0.00
618.90	42.13
619.06	28.09
619.21	67.88
619.36	46.81
619.51	46.81
619.67	128.73
619.82	95.96
619.97	28.09
620.12	32.77
620.28	95.96
620.43	77.24
620.58	77.24
620.73	58.51
620.89	25.75
621.04	49.15
621.19	49.15
621.34	88.94
621.49	98.30
621.65	58.51
621.80	35.11
621.95	105.32
622.10	81.92
622.25	70.22
622.41	65.54
622.56	147.45
622.71	112.35
622.86	53.83
623.01	93.62
623.16	67.88
623.32	49.15
623.47	58.51
623.62	100.64
623.77	18.72
623.92	114.69
624.07	105.32
624.23	0.00
624.38	44.47
624.53	65.54
624.68	23.41
624.83	102.98
624.98	107.66
625.13	107.66
625.29	11.70
625.44	86.60
625.59	58.51
625.74	84.26
625.89	23.41
626.04	58.51
626.19	60.85
626.34	49.15
626.49	49.15
626.65	28.09
626.80	56.17
626.95	133.41
627.10	74.90
627.25	114.69
627.40	117.03
627.55	56.17
627.70	86.60
627.85	60.85
628.00	63.19
628.15	102.98
628.30	42.13
628.45	32.77
628.60	65.54
628.76	133.41
628.91	16.38
629.06	0.00
629.21	72.56
629.36	72.56
629.51	0.00
629.66	0.00
629.81	0.00
629.96	81.92
630.11	112.35
630.26	112.35
630.41	56.17
630.56	100.64
630.71	91.28
630.86	63.19
631.01	9.36
631.16	95.96
631.31	98.30
631.46	112.35
631.61	72.56
631.76	49.15
631.91	91.28
632.06	49.15
632.21	35.11
632.36	25.75
632.51	0.00
632.66	0.00
632.81	65.54
632.96	49.15
633.10	58.51
633.25	21.06
633.40	56.17
633.55	18.72
633.70	100.64
633.85	16.38
634.00	39.79
634.15	32.77
634.30	63.19
634.45	124.05
634.60	58.51
634.75	18.72
634.90	119.37
635.05	79.58
635.19	0.00
635.34	14.04
635.49	46.81
635.64	7.02
635.79	44.47
635.94	81.92
636.09	166.18
636.24	58.51
636.39	121.71
636.53	81.92
636.68	131.07
636.83	126.39
636.98	91.28
637.13	7.02
637.28	72.56
637.43	44.47
637.57	25.75
637.72	100.64
637.87	112.35
638.02	49.15
638.17	56.17
638.32	51.49
638.46	37.45
638.61	65.54
638.76	84.26
638.91	53.83
639.06	72.56
639.20	67.88
639.35	84.26
639.50	53.83
639.65	28.09
639.80	95.96
639.94	93.62
640.09	39.79
640.24	60.85
640.39	121.71
640.54	56.17
640.68	35.11
640.83	88.94
640.98	93.62
641.13	60.85
641.27	30.43
641.42	105.32
641.57	86.60
641.72	56.17
641.86	35.11
642.01	28.09
642.16	37.45
642.31	102.98
642.45	72.56
642.60	70.22
642.75	11.70
642.90	37.45
643.04	28.09
643.19	42.13
643.34	65.54
643.48	51.49
643.63	63.19
643.78	56.17
643.93	74.90
644.07	107.66
644.22	0.00
644.37	23.41
644.51	65.54
644.66	72.56
644.81	21.06
644.95	46.81
645.10	105.32
645.25	126.39
645.39	37.45
645.54	14.04
645.69	81.92
645.83	84.26
645.98	65.54
646.13	0.00
646.27	107.66
646.42	14.04
646.57	7.02
646.71	119.37
646.86	30.43
647.00	0.00
647.15	67.88
647.30	79.58
647.44	95.96
647.59	42.13
647.74	49.15
647.88	23.41
648.03	51.49
648.17	105.32
648.32	91.28
648.47	53.83
648.61	51.49
648.76	30.43
648.90	30.43
649.05	65.54
649.20	84.26
649.34	77.24
649.49	74.90
649.63	128.73
649.78	0.00
649.92	65.54
650.07	23.41
650.21	70.22
650.36	149.79
650.51	70.22
650.65	4.68
650.80	86.60
650.94	98.30
651.09	72.56
651.23	37.45
651.38	49.15
651.52	65.54
651.67	60.85
651.81	39.79
651.96	49.15
652.10	0.00
652.25	100.64
652.39	0.00
652.54	49.15
652.68	4.68
652.83	0.00
652.97	25.75
653.12	4.68
653.26	0.00
653.41	46.81
653.55	67.88
653.70	30.43
653.84	46.81
653.99	53.83
654.13	60.85
654.27	65.54
654.42	11.70
654.56	25.75
654.71	53.83
654.85	70.22
655.00	91.28
655.14	81.92
655.29	4.68
655.43	70.22
655.57	16.38
655.72	39.79
655.86	28.09
656.01	91.28
656.15	98.30
656.30	70.22
656.44	23.41
656.58	42.13
656.73	98.30
656.87	39.79
657.01	42.13
657.16	86.60
657.30	14.04
657.45	30.43
657.59	65.54
657.73	100.64
657.88	77.24
658.02	44.47
658.16	49.15
658.31	30.43
658.45	112.35
658.60	72.56
658.74	67.88
658.88	14.04
659.03	0.00
659.17	39.79
659.31	79.58
659.46	72.56
659.60	77.24
659.74	18.72
659.89	25.75
660.03	37.45
660.17	11.70
660.32	72.56
660.46	28.09
660.60	42.13
660.74	32.77
660.89	79.58
661.03	53.83
661.17	14.04
661.32	42.13
661.46	21.06
661.60	42.13
661.74	72.56
661.89	131.07
662.03	74.90
662.17	86.60
662.31	79.58
662.46	180.22
662.60	49.15
662.74	58.51
662.88	60.85
663.03	0.00
663.17	51.49
663.31	30.43
663.45	107.66
663.60	65.54
663.74	114.69
663.88	37.45
664.02	30.43
664.17	44.47
664.31	28.09
664.45	0.00
664.59	11.70
664.73	35.11
664.88	53.83
665.02	18.72
665.16	56.17
665.30	51.49
665.44	2.34
665.59	30.43
665.73	88.94
665.87	53.83
666.01	70.22
666.15	74.90
666.29	84.26
666.44	4.68
666.58	0.00
666.72	35.11
666.86	70.22
667.00	107.66
667.14	51.49
667.28	77.24
667.43	60.85
667.57	72.56
667.71	58.51
667.85	37.45
667.99	0.00
668.13	102.98
668.27	81.92
668.41	86.60
668.56	70.22
668.70	35.11
668.84	60.85
668.98	65.54
669.12	9.36
669.26	32.77
669.40	100.64
669.54	37.45
669.68	102.98
669.82	35.11
669.96	32.77
670.10	18.72
670.25	53.83
670.39	93.62
670.53	35.11
670.67	58.51
670.81	9.36
670.95	84.26
671.09	23.41
671.23	65.54
671.37	117.03
671.51	44.47
671.65	2.34
671.79	0.00
671.93	112.35
672.07	51.49
672.21	60.85
672.35	18.72
672.49	11.70
672.63	93.62
672.77	21.06
672.91	9.36
673.05	60.85
673.19	14.04
673.33	67.88
673.47	58.51
673.61	51.49
673.75	51.49
673.89	23.41
674.03	93.62
674.17	44.47
674.31	49.15
674.45	30.43
674.59	58.51
674.73	58.51
674.87	58.51
675.01	67.88
675.15	0.00
675.29	21.06
675.43	11.70
675.56	0.00
675.70	70.22
675.84	16.38
675.98	74.90
676.12	51.49
676.26	81.92
676.40	37.45
676.54	4.68
676.68	28.09
676.82	42.13
676.96	35.11
677.10	0.00
677.23	18.72
677.37	4.68
677.51	131.07
677.65	140.43
677.79	11.70
677.93	65.54
678.07	51.49
678.21	35.11
678.34	159.16
678.48	0.00
678.62	46.81
678.76	30.43
678.90	65.54
679.04	70.22
679.18	51.49
679.31	65.54
679.45	74.90
679.59	25.75
679.73	53.83
679.87	77.24
680.00	63.19
680.14	79.58
680.28	63.19
680.42	37.45
680.56	7.02
680.70	49.15
680.83	44.47
680.97	23.41
681.11	0.00
681.25	0.00
681.39	0.00
681.52	35.11
681.66	60.85
681.80	44.47
681.94	152.13
682.07	18.72
682.21	0.00
682.35	58.51
682.49	86.60
682.62	53.83
682.76	56.17
682.90	72.56
683.04	18.72
683.17	39.79
683.31	53.83
683.45	72.56
683.59	23.41
683.72	9.36
683.86	65.54
684.00	51.49
684.13	42.13
684.27	51.49
684.41	72.56
684.55	56.17
684.68	42.13
684.82	44.47
684.96	88.94
685.09	81.92
685.23	72.56
685.37	28.09
685.50	21.06
685.64	46.81
685.78	30.43
685.91	28.09
686.05	28.09
686.19	86.60
686.32	60.85
686.46	42.13
686.60	39.79
686.73	79.58
686.87	18.72
687.01	77.24
687.14	0.00
687.28	44.47
687.42	58.51
687.55	2.34
687.69	25.75
687.82	51.49
687.96	39.79
688.10	84.26
688.23	107.66
688.37	84.26
688.50	0.00
688.64	49.15
688.78	60.85
688.91	51.49
689.05	88.94
689.18	79.58
689.32	95.96
689.46	46.81
689.59	0.00
689.73	25.75
689.86	0.00
690.00	21.06
690.13	28.09
690.27	16.38
690.41	18.72
690.54	51.49
690.68	72.56
690.81	35.11
690.95	39.79
691.08	23.41
691.22	18.72
691.35	32.77
691.49	91.28
691.62	0.00
691.76	98.30
691.89	23.41
692.03	0.00
692.16	65.54
692.30	86.60
692.43	25.75
692.57	23.41
692.70	56.17
692.84	2.34
692.97	30.43
693.11	74.90
693.24	117.03
693.38	91.28
693.51	14.04
693.65	53.83
693.78	72.56
693.92	72.56
694.05	126.39
694.19	42.13
694.32	32.77
694.45	39.79
694.59	0.00
694.72	11.70
694.86	18.72
694.99	9.36
695.13	65.54
695.26	4.68
695.39	28.09
695.53	72.56
695.66	0.00
695.80	28.09
695.93	21.06
696.07	72.56
696.20	11.70
696.33	63.19
696.47	0.00
696.60	65.54
696.73	30.43
696.87	42.13
697.00	84.26
697.14	9.36
697.27	28.09
697.40	39.79
697.54	28.09
697.67	39.79
697.80	4.68
697.94	25.75
698.07	44.47
698.21	49.15
698.34	4.68
698.47	0.00
698.61	0.00
698.74	30.43
698.87	79.58
699.01	23.41
699.14	28.09
699.27	44.47
699.40	25.75
699.54	35.11
699.67	7.02
699.80	79.58
699.94	9.36
700.07	39.79
700.20	11.70
700.34	4.68
700.47	0.00
700.60	46.81
700.73	49.15
700.87	28.09
701.00	65.54
701.13	23.41
701.26	0.00
701.40	0.00
701.53	4.68
701.66	18.72
701.79	84.26
701.93	49.15
702.06	18.72
702.19	56.17
702.32	2.34
702.46	11.70
702.59	35.11
702.72	0.00
702.85	32.77
702.99	7.02
703.12	7.02
703.25	4.68
703.38	32.77
703.51	23.41
703.65	56.17
703.78	35.11
703.91	0.00
704.04	0.00
704.17	23.41
704.31	93.62
704.44	0.00
704.57	70.22
704.70	51.49
704.83	0.00
704.96	44.47
705.10	56.17
705.23	60.85
>>>>>End Processed Spectral Data<<<<<
